Timestamp,OriginalTimestamp,EEG.Counter,EEG.Interpolated,EEG.AF3,EEG.F7,EEG.F3,EEG.FC5,EEG.T7,EEG.P7,EEG.O1,EEG.O2,EEG.P8,EEG.T8,EEG.FC6,EEG.F4,EEG.F8,EEG.AF4,POW.AF3.Theta,POW.AF3.Alpha,POW.AF3.BetaL,POW.AF3.BetaH,POW.AF3.Gamma,POW.F7.Theta,POW.F7.Alpha,POW.F7.BetaL,POW.F7.BetaH,POW.F7.Gamma,POW.F3.Theta,POW.F3.Alpha,POW.F3.BetaL,POW.F3.BetaH,POW.F3.Gamma,POW.FC5.Theta,POW.FC5.Alpha,POW.FC5.BetaL,POW.FC5.BetaH,POW.FC5.Gamma,POW.T7.Theta,POW.T7.Alpha,POW.T7.BetaL,POW.T7.BetaH,POW.T7.Gamma,POW.P7.Theta,POW.P7.Alpha,POW.P7.BetaL,POW.P7.BetaH,POW.P7.Gamma,POW.O1.Theta,POW.O1.Alpha,POW.O1.BetaL,POW.O1.BetaH,POW.O1.Gamma,POW.O2.Theta,POW.O2.Alpha,POW.O2.BetaL,POW.O2.BetaH,POW.O2.Gamma,POW.P8.Theta,POW.P8.Alpha,POW.P8.BetaL,POW.P8.BetaH,POW.P8.Gamma,POW.T8.Theta,POW.T8.Alpha,POW.T8.BetaL,POW.T8.BetaH,POW.T8.Gamma,POW.FC6.Theta,POW.FC6.Alpha,POW.FC6.BetaL,POW.FC6.BetaH,POW.FC6.Gamma,POW.F4.Theta,POW.F4.Alpha,POW.F4.BetaL,POW.F4.BetaH,POW.F4.Gamma,POW.F8.Theta,POW.F8.Alpha,POW.F8.BetaL,POW.F8.BetaH,POW.F8.Gamma,POW.AF4.Theta,POW.AF4.Alpha,POW.AF4.BetaL,POW.AF4.BetaH,POW.AF4.Gamma
1768972324.851165,1768972324.851871,93.0,0.0,4352.692383,4356.025879,4343.077148,4324.487305,4363.077148,4365.0,4365.128418,4358.461426,4367.94873,4365.128418,4445.897461,4499.487305,4394.230957,4436.794922,,,,,,,,,,,,,,,,,,,,,,,,,,,,,,,,,,,,,,,,,,,,,,,,,,,,,,,,,,,,,,,,,,,,,,
1768972324.858973,1768972324.85958,94.0,0.0,4348.589844,4357.563965,4341.282227,4327.05127,4362.563965,4368.205078,4370.769043,4358.846191,4364.743652,4363.461426,4446.153809,4496.922852,4395.256348,4429.871582,0.415195,0.104361,0.267037,0.36023,0.177765,0.283542,0.274114,0.322257,0.190419,0.139129,0.587202,0.233373,0.144149,0.185561,0.110202,0.280871,0.155486,0.247794,0.126009,0.118839,0.147657,0.128106,0.082707,0.056382,0.061266,0.152246,0.109603,0.227049,0.186206,0.219498,0.347053,0.142273,0.218261,0.173077,0.224752,0.165227,0.214595,0.233442,0.143057,0.170337,0.206835,0.441267,0.22854,0.156976,0.128037,0.16802,0.277786,0.287788,0.12686,0.078688,0.280756,0.355338,0.119152,0.181944,0.173775,0.895824,0.497426,0.111258,0.274617,0.165441,0.440736,0.273658,0.378362,0.193438,0.226772,0.943626,0.667823,0.307063,0.284155,0.214178
1768972324.866782,1768972324.867388,95.0,0.0,4353.077148,4358.846191,4343.333496,4326.794922,4363.461426,4366.538574,4372.05127,4360.128418,4362.179688,4363.589844,4450.769043,4498.333496,4399.230957,4435.897461,,,,,,,,,,,,,,,,,,,,,,,,,,,,,,,,,,,,,,,,,,,,,,,,,,,,,,,,,,,,,,,,,,,,,,
1768972324.87459,1768972324.875396,96.0,0.0,4359.743652,4363.589844,4346.410156,4324.871582,4360.769043,4359.358887,4363.974121,4361.538574,4367.179688,4366.410156,4454.487305,4504.487305,4402.94873,4447.820313,,,,,,,,,,,,,,,,,,,,,,,,,,,,,,,,,,,,,,,,,,,,,,,,,,,,,,,,,,,,,,,,,,,,,,
1768972324.882399,1768972324.883205,97.0,0.0,4358.717773,4365.384766,4347.820313,4326.538574,4359.743652,4358.333496,4363.589844,4362.94873,4372.179688,4367.436035,4460.0,4512.692383,4407.436035,4450.769043,,,,,,,,,,,,,,,,,,,,,,,,,,,,,,,,,,,,,,,,,,,,,,,,,,,,,,,,,,,,,,,,,,,,,,
1768972324.890207,1768972324.891113,98.0,0.0,4352.563965,4363.846191,4348.717773,4326.666504,4364.358887,4362.692383,4372.307617,4366.538574,4370.897461,4366.410156,4461.025879,4513.205078,4406.282227,4446.410156,,,,,,,,,,,,,,,,,,,,,,,,,,,,,,,,,,,,,,,,,,,,,,,,,,,,,,,,,,,,,,,,,,,,,,
1768972324.898016,1768972324.898922,99.0,0.0,4349.487305,4365.128418,4347.563965,4326.666504,4369.743652,4362.94873,4376.025879,4366.410156,4366.282227,4365.0,4451.538574,4505.384766,4403.589844,4442.94873,,,,,,,,,,,,,,,,,,,,,,,,,,,,,,,,,,,,,,,,,,,,,,,,,,,,,,,,,,,,,,,,,,,,,,
1768972324.905824,1768972324.90693,100.0,0.0,4354.487305,4369.487305,4347.820313,4332.179688,4370.0,4362.307617,4374.487305,4364.102539,4367.692383,4365.128418,4450.897461,4504.358887,4406.153809,4443.077148,,,,,,,,,,,,,,,,,,,,,,,,,,,,,,,,,,,,,,,,,,,,,,,,,,,,,,,,,,,,,,,,,,,,,,
1768972324.913633,1768972324.914738,101.0,0.0,4359.358887,4367.94873,4351.153809,4334.102539,4367.05127,4368.974121,4379.615234,4367.436035,4371.282227,4365.769043,4456.666504,4510.128418,4404.871582,4443.974121,,,,,,,,,,,,,,,,,,,,,,,,,,,,,,,,,,,,,,,,,,,,,,,,,,,,,,,,,,,,,,,,,,,,,,
1768972324.921441,1768972324.922447,102.0,0.0,4357.05127,4364.102539,4350.0,4331.666504,4368.461426,4375.256348,4386.410156,4370.384766,4368.846191,4365.512695,4450.769043,4506.922852,4395.256348,4443.717773,,,,,,,,,,,,,,,,,,,,,,,,,,,,,,,,,,,,,,,,,,,,,,,,,,,,,,,,,,,,,,,,,,,,,,
1768972324.929249,1768972324.930255,103.0,0.0,4353.077148,4361.794922,4345.128418,4330.512695,4370.769043,4368.846191,4379.871582,4363.717773,4361.794922,4361.153809,4439.615234,4496.666504,4391.025879,4441.922852,,,,,,,,,,,,,,,,,,,,,,,,,,,,,,,,,,,,,,,,,,,,,,,,,,,,,,,,,,,,,,,,,,,,,,
1768972324.937058,1768972324.938263,104.0,0.0,4354.487305,4360.897461,4344.358887,4330.641113,4368.589844,4359.102539,4364.743652,4356.538574,4358.846191,4358.717773,4440.641113,4496.922852,4395.0,4442.05127,,,,,,,,,,,,,,,,,,,,,,,,,,,,,,,,,,,,,,,,,,,,,,,,,,,,,,,,,,,,,,,,,,,,,,
1768972324.944866,1768972324.946072,105.0,0.0,4356.922852,4362.692383,4346.666504,4331.538574,4368.717773,4360.256348,4363.333496,4357.307617,4360.512695,4360.641113,4445.384766,4503.846191,4397.05127,4443.717773,,,,,,,,,,,,,,,,,,,,,,,,,,,,,,,,,,,,,,,,,,,,,,,,,,,,,,,,,,,,,,,,,,,,,,
1768972324.952675,1768972324.95378,106.0,0.0,4358.077148,4366.538574,4346.538574,4333.717773,4372.436035,4366.282227,4376.538574,4362.436035,4364.743652,4362.563965,4446.025879,4507.820313,4400.128418,4448.461426,,,,,,,,,,,,,,,,,,,,,,,,,,,,,,,,,,,,,,,,,,,,,,,,,,,,,,,,,,,,,,,,,,,,,,
1768972324.960483,1768972324.961589,107.0,0.0,4361.410156,4368.717773,4344.743652,4335.512695,4372.307617,4368.461426,4379.871582,4365.897461,4369.743652,4368.077148,4450.128418,4512.820313,4405.0,4455.512695,,,,,,,,,,,,,,,,,,,,,,,,,,,,,,,,,,,,,,,,,,,,,,,,,,,,,,,,,,,,,,,,,,,,,,
1768972324.968292,1768972324.969198,108.0,0.0,4366.794922,4368.205078,4347.179688,4336.025879,4368.461426,4366.922852,4371.410156,4363.717773,4368.589844,4372.307617,4454.358887,4514.743652,4405.512695,4457.692383,,,,,,,,,,,,,,,,,,,,,,,,,,,,,,,,,,,,,,,,,,,,,,,,,,,,,,,,,,,,,,,,,,,,,,
1768972324.9761,1768972324.977006,109.0,0.0,4371.153809,4369.487305,4356.282227,4338.333496,4367.05127,4362.94873,4370.897461,4360.384766,4365.128418,4371.794922,4458.717773,4516.153809,4407.05127,4458.846191,,,,,,,,,,,,,,,,,,,,,,,,,,,,,,,,,,,,,,,,,,,,,,,,,,,,,,,,,,,,,,,,,,,,,,
1768972324.983909,1768972324.984715,110.0,0.0,4368.974121,4370.128418,4362.307617,4338.589844,4368.077148,4360.384766,4374.615234,4365.0,4368.461426,4372.05127,4462.307617,4525.641113,4414.871582,4463.589844,0.687163,0.119437,0.286997,0.407981,0.186355,0.304322,0.220787,0.325362,0.195327,0.145477,0.622662,0.186211,0.131323,0.191543,0.130084,0.301635,0.160233,0.239647,0.134834,0.126197,0.168391,0.176314,0.083863,0.058705,0.061056,0.145473,0.099655,0.223498,0.171764,0.225711,0.429517,0.099776,0.210256,0.167039,0.228739,0.190823,0.251692,0.253413,0.132211,0.173674,0.204744,0.471343,0.237839,0.153822,0.128899,0.219169,0.250085,0.275009,0.120351,0.078072,0.343785,0.380581,0.143827,0.16602,0.181253,1.095144,0.49291,0.148163,0.290782,0.176349,0.564032,0.269448,0.36322,0.202895,0.219912,1.790362,0.695186,0.323323,0.288134,0.230044
1768972324.991717,1768972324.992523,111.0,0.0,4363.974121,4367.307617,4357.94873,4336.282227,4370.0,4364.743652,4372.94873,4372.563965,4373.205078,4371.538574,4461.538574,4532.94873,4415.256348,4464.102539,,,,,,,,,,,,,,,,,,,,,,,,,,,,,,,,,,,,,,,,,,,,,,,,,,,,,,,,,,,,,,,,,,,,,,
1768972324.999525,1768972325.000531,112.0,0.0,4365.897461,4366.282227,4354.615234,4335.384766,4372.179688,4368.461426,4373.077148,4370.0,4368.846191,4368.205078,4458.974121,4526.025879,4410.128418,4458.333496,,,,,,,,,,,,,,,,,,,,,,,,,,,,,,,,,,,,,,,,,,,,,,,,,,,,,,,,,,,,,,,,,,,,,,
1768972325.007334,1768972325.00834,113.0,0.0,4370.641113,4369.230957,4359.358887,4337.436035,4371.666504,4365.641113,4377.563965,4364.487305,4364.615234,4370.512695,4459.743652,4520.0,4411.922852,4459.487305,,,,,,,,,,,,,,,,,,,,,,,,,,,,,,,,,,,,,,,,,,,,,,,,,,,,,,,,,,,,,,,,,,,,,,
1768972325.015142,1768972325.016048,114.0,0.0,4368.077148,4365.256348,4357.820313,4332.436035,4369.358887,4363.717773,4375.897461,4366.410156,4365.769043,4375.769043,4461.025879,4524.743652,4410.512695,4463.461426,,,,,,,,,,,,,,,,,,,,,,,,,,,,,,,,,,,,,,,,,,,,,,,,,,,,,,,,,,,,,,,,,,,,,,
1768972325.022951,1768972325.023857,115.0,0.0,4362.820313,4358.589844,4350.641113,4323.717773,4367.563965,4362.307617,4371.153809,4368.077148,4364.743652,4370.128418,4454.102539,4528.077148,4397.05127,4454.487305,,,,,,,,,,,,,,,,,,,,,,,,,,,,,,,,,,,,,,,,,,,,,,,,,,,,,,,,,,,,,,,,,,,,,,
1768972325.030759,1768972325.031465,116.0,0.0,4363.974121,4362.307617,4352.436035,4328.846191,4369.102539,4364.487305,4373.589844,4367.179688,4364.230957,4362.563965,4450.512695,4526.922852,4392.05127,4447.179688,,,,,,,,,,,,,,,,,,,,,,,,,,,,,,,,,,,,,,,,,,,,,,,,,,,,,,,,,,,,,,,,,,,,,,
1768972325.038567,1768972325.039274,117.0,0.0,4368.461426,4370.256348,4356.666504,4338.717773,4371.922852,4369.615234,4375.769043,4366.153809,4364.743652,4364.743652,4456.794922,4525.128418,4406.025879,4456.282227,,,,,,,,,,,,,,,,,,,,,,,,,,,,,,,,,,,,,,,,,,,,,,,,,,,,,,,,,,,,,,,,,,,,,,
1768972325.046376,1768972325.046982,118.0,0.0,4365.128418,4369.743652,4352.94873,4334.743652,4371.538574,4366.410156,4369.230957,4365.641113,4364.358887,4365.384766,4459.615234,4524.743652,4414.615234,4465.0,,,,,,,,,,,,,,,,,,,,,,,,,,,,,,,,,,,,,,,,,,,,,,,,,,,,,,,,,,,,,,,,,,,,,,
1768972325.054184,1768972325.054791,119.0,0.0,4358.333496,4368.077148,4350.769043,4326.538574,4371.666504,4360.512695,4364.102539,4365.0,4364.743652,4358.974121,4457.307617,4523.974121,4407.94873,4461.282227,,,,,,,,,,,,,,,,,,,,,,,,,,,,,,,,,,,,,,,,,,,,,,,,,,,,,,,,,,,,,,,,,,,,,,
1768972325.061993,1768972325.062399,120.0,0.0,4361.410156,4370.384766,4355.641113,4329.743652,4370.128418,4357.563965,4364.102539,4363.974121,4365.256348,4360.641113,4455.512695,4520.641113,4402.692383,4458.717773,,,,,,,,,,,,,,,,,,,,,,,,,,,,,,,,,,,,,,,,,,,,,,,,,,,,,,,,,,,,,,,,,,,,,,
1768972325.069801,1768972325.070208,121.0,0.0,4365.256348,4367.563965,4355.769043,4333.333496,4367.94873,4355.897461,4364.615234,4363.846191,4364.487305,4366.794922,4454.358887,4517.692383,4402.563965,4458.974121,,,,,,,,,,,,,,,,,,,,,,,,,,,,,,,,,,,,,,,,,,,,,,,,,,,,,,,,,,,,,,,,,,,,,,
1768972325.07761,1768972325.078116,122.0,0.0,4359.615234,4363.461426,4348.589844,4328.846191,4366.922852,4361.794922,4370.769043,4366.538574,4363.461426,4360.512695,4455.256348,4517.307617,4400.384766,4456.153809,,,,,,,,,,,,,,,,,,,,,,,,,,,,,,,,,,,,,,,,,,,,,,,,,,,,,,,,,,,,,,,,,,,,,,
1768972325.085418,1768972325.085925,123.0,0.0,4358.205078,4360.641113,4346.666504,4327.94873,4366.410156,4367.692383,4376.922852,4368.974121,4364.102539,4355.512695,4457.179688,4517.436035,4397.436035,4456.922852,,,,,,,,,,,,,,,,,,,,,,,,,,,,,,,,,,,,,,,,,,,,,,,,,,,,,,,,,,,,,,,,,,,,,,
1768972325.093227,1768972325.093933,124.0,0.0,4364.871582,4359.230957,4350.641113,4333.333496,4365.128418,4359.487305,4368.974121,4366.282227,4363.205078,4364.871582,4456.794922,4518.461426,4400.128418,4460.0,,,,,,,,,,,,,,,,,,,,,,,,,,,,,,,,,,,,,,,,,,,,,,,,,,,,,,,,,,,,,,,,,,,,,,
1768972325.101035,1768972325.101741,125.0,0.0,4366.153809,4362.307617,4352.179688,4330.897461,4365.0,4357.179688,4363.333496,4365.256348,4360.769043,4368.974121,4458.974121,4522.692383,4403.589844,4461.153809,,,,,,,,,,,,,,,,,,,,,,,,,,,,,,,,,,,,,,,,,,,,,,,,,,,,,,,,,,,,,,,,,,,,,,
1768972325.108843,1768972325.10965,126.0,0.0,4364.487305,4364.230957,4350.897461,4326.410156,4370.512695,4371.922852,4376.794922,4369.102539,4358.205078,4361.025879,4458.077148,4521.282227,4400.512695,4459.871582,1.053138,0.140885,0.31389,0.429181,0.192713,0.353621,0.180169,0.32156,0.191857,0.14962,0.609233,0.144491,0.119824,0.205231,0.148418,0.319697,0.157541,0.227167,0.140176,0.131793,0.175001,0.237567,0.087323,0.062326,0.060808,0.152237,0.098769,0.213726,0.166211,0.230643,0.5022,0.077085,0.19254,0.154454,0.229746,0.210776,0.279711,0.260237,0.122633,0.174037,0.202537,0.462196,0.229251,0.155542,0.131131,0.294696,0.219691,0.243003,0.115223,0.081409,0.481631,0.400386,0.160974,0.153311,0.192266,1.328759,0.461864,0.200609,0.309966,0.188519,0.788697,0.260055,0.307809,0.206107,0.2097,2.891818,0.668363,0.314781,0.28738,0.24553
1768972325.116652,1768972325.117458,127.0,0.0,4363.846191,4359.487305,4350.256348,4328.717773,4373.205078,4368.461426,4379.871582,4369.358887,4359.358887,4356.794922,4447.94873,4513.461426,4396.025879,4457.436035,,,,,,,,,,,,,,,,,,,,,,,,,,,,,,,,,,,,,,,,,,,,,,,,,,,,,,,,,,,,,,,,,,,,,,
1768972325.12446,1768972325.125067,0.0,0.0,4359.743652,4360.256348,4345.897461,4327.563965,4371.410156,4355.512695,4365.384766,4368.589844,4361.922852,4358.717773,4442.436035,4511.025879,4396.922852,4457.436035,,,,,,,,,,,,,,,,,,,,,,,,,,,,,,,,,,,,,,,,,,,,,,,,,,,,,,,,,,,,,,,,,,,,,,
1768972325.132269,1768972325.132875,1.0,0.0,4357.436035,4366.153809,4343.589844,4324.615234,4371.666504,4362.692383,4364.230957,4370.256348,4361.794922,4357.94873,4446.666504,4511.282227,4397.05127,4458.077148,,,,,,,,,,,,,,,,,,,,,,,,,,,,,,,,,,,,,,,,,,,,,,,,,,,,,,,,,,,,,,,,,,,,,,
1768972325.140077,1768972325.140784,2.0,0.0,4360.512695,4362.307617,4346.922852,4327.436035,4374.102539,4370.128418,4372.436035,4369.102539,4360.769043,4358.077148,4455.256348,4510.769043,4397.307617,4456.153809,,,,,,,,,,,,,,,,,,,,,,,,,,,,,,,,,,,,,,,,,,,,,,,,,,,,,,,,,,,,,,,,,,,,,,
1768972325.147886,1768972325.148592,3.0,0.0,4364.230957,4359.102539,4347.179688,4330.0,4373.205078,4362.05127,4368.717773,4363.846191,4360.128418,4362.05127,4460.384766,4513.333496,4400.256348,4456.922852,,,,,,,,,,,,,,,,,,,,,,,,,,,,,,,,,,,,,,,,,,,,,,,,,,,,,,,,,,,,,,,,,,,,,,
1768972325.155694,1768972325.1566,4.0,0.0,4362.94873,4361.282227,4345.512695,4325.769043,4367.05127,4357.436035,4361.794922,4362.692383,4357.436035,4364.487305,4455.128418,4512.307617,4400.0,4456.794922,,,,,,,,,,,,,,,,,,,,,,,,,,,,,,,,,,,,,,,,,,,,,,,,,,,,,,,,,,,,,,,,,,,,,,
1768972325.163503,1768972325.164409,5.0,0.0,4356.282227,4358.333496,4347.179688,4322.307617,4365.0,4363.333496,4367.563965,4370.384766,4360.0,4361.666504,4451.538574,4507.307617,4398.077148,4452.692383,,,,,,,,,,,,,,,,,,,,,,,,,,,,,,,,,,,,,,,,,,,,,,,,,,,,,,,,,,,,,,,,,,,,,,
1768972325.171311,1768972325.172117,6.0,0.0,4350.769043,4356.794922,4346.922852,4325.897461,4370.769043,4368.205078,4377.05127,4375.384766,4366.282227,4361.410156,4457.692383,4504.358887,4400.641113,4453.205078,,,,,,,,,,,,,,,,,,,,,,,,,,,,,,,,,,,,,,,,,,,,,,,,,,,,,,,,,,,,,,,,,,,,,,
1768972325.179119,1768972325.179926,7.0,0.0,4355.512695,4363.461426,4346.025879,4327.94873,4375.384766,4369.230957,4377.307617,4371.666504,4366.922852,4370.256348,4462.436035,4505.128418,4408.461426,4458.717773,,,,,,,,,,,,,,,,,,,,,,,,,,,,,,,,,,,,,,,,,,,,,,,,,,,,,,,,,,,,,,,,,,,,,,
1768972325.186928,1768972325.187534,8.0,0.0,4363.589844,4366.538574,4351.666504,4325.897461,4372.307617,4362.820313,4368.205078,4369.615234,4366.410156,4374.102539,4460.0,4510.769043,4413.717773,4461.282227,,,,,,,,,,,,,,,,,,,,,,,,,,,,,,,,,,,,,,,,,,,,,,,,,,,,,,,,,,,,,,,,,,,,,,
1768972325.194736,1768972325.195343,9.0,0.0,4362.179688,4360.641113,4354.358887,4326.410156,4367.436035,4359.743652,4363.846191,4370.897461,4365.0,4366.666504,4456.922852,4516.282227,4407.05127,4458.846191,,,,,,,,,,,,,,,,,,,,,,,,,,,,,,,,,,,,,,,,,,,,,,,,,,,,,,,,,,,,,,,,,,,,,,
1768972325.202545,1768972325.203251,10.0,0.0,4355.256348,4354.487305,4348.974121,4327.820313,4369.358887,4364.230957,4369.871582,4368.717773,4360.128418,4358.717773,4455.0,4515.128418,4398.077148,4456.794922,,,,,,,,,,,,,,,,,,,,,,,,,,,,,,,,,,,,,,,,,,,,,,,,,,,,,,,,,,,,,,,,,,,,,,
1768972325.210353,1768972325.21106,11.0,0.0,4354.615234,4355.897461,4347.307617,4326.410156,4373.461426,4364.487305,4372.436035,4367.692383,4361.025879,4358.333496,4453.333496,4512.307617,4398.205078,4458.846191,,,,,,,,,,,,,,,,,,,,,,,,,,,,,,,,,,,,,,,,,,,,,,,,,,,,,,,,,,,,,,,,,,,,,,
1768972325.218162,1768972325.218669,12.0,0.0,4360.128418,4360.769043,4350.897461,4327.436035,4372.563965,4363.717773,4368.589844,4369.615234,4365.641113,4362.436035,4449.871582,4511.410156,4400.512695,4457.563965,,,,,,,,,,,,,,,,,,,,,,,,,,,,,,,,,,,,,,,,,,,,,,,,,,,,,,,,,,,,,,,,,,,,,,
1768972325.22597,1768972325.226477,13.0,0.0,4357.05127,4355.384766,4347.05127,4324.358887,4369.230957,4361.794922,4362.307617,4365.384766,4363.333496,4361.922852,4443.717773,4507.307617,4398.846191,4448.077148,,,,,,,,,,,,,,,,,,,,,,,,,,,,,,,,,,,,,,,,,,,,,,,,,,,,,,,,,,,,,,,,,,,,,,
1768972325.233779,1768972325.234186,14.0,0.0,4347.563965,4347.820313,4340.256348,4317.94873,4370.769043,4362.436035,4363.461426,4365.897461,4364.743652,4361.410156,4448.589844,4505.641113,4397.307617,4442.820313,1.418084,0.154984,0.339326,0.42347,0.192262,0.409007,0.158634,0.312248,0.180753,0.147617,0.545642,0.11697,0.113934,0.226024,0.159603,0.325035,0.148692,0.211626,0.139694,0.13253,0.168495,0.296811,0.089391,0.065393,0.060404,0.174341,0.102642,0.197939,0.169798,0.234936,0.555199,0.079214,0.169158,0.138314,0.225532,0.220479,0.298911,0.249296,0.1127,0.169165,0.195111,0.421219,0.204619,0.157947,0.132269,0.373319,0.202002,0.204176,0.110787,0.086854,0.660252,0.418978,0.17006,0.143001,0.204468,1.525888,0.415768,0.265561,0.330156,0.197376,1.054734,0.250247,0.23816,0.202694,0.199578,3.969613,0.598761,0.293435,0.289542,0.258436
1768972325.241587,1768972325.241994,15.0,0.0,4352.563965,4352.563965,4346.666504,4320.769043,4371.410156,4365.897461,4372.05127,4374.102539,4373.205078,4364.102539,4460.0,4511.025879,4402.563965,4451.538574,,,,,,,,,,,,,,,,,,,,,,,,,,,,,,,,,,,,,,,,,,,,,,,,,,,,,,,,,,,,,,,,,,,,,,
1768972325.249395,1768972325.250002,16.0,0.0,4366.410156,4360.384766,4358.589844,4325.641113,4368.846191,4363.205078,4370.256348,4371.025879,4368.205078,4365.384766,4460.512695,4512.179688,4410.769043,4458.461426,,,,,,,,,,,,,,,,,,,,,,,,,,,,,,,,,,,,,,,,,,,,,,,,,,,,,,,,,,,,,,,,,,,,,,
1768972325.257204,1768972325.257811,17.0,0.0,4367.05127,4359.743652,4360.128418,4322.692383,4370.512695,4358.589844,4362.307617,4363.077148,4361.153809,4364.615234,4456.282227,4510.384766,4413.461426,4456.922852,,,,,,,,,,,,,,,,,,,,,,,,,,,,,,,,,,,,,,,,,,,,,,,,,,,,,,,,,,,,,,,,,,,,,,
1768972325.265012,1768972325.265519,18.0,0.0,4360.897461,4357.820313,4354.358887,4319.743652,4372.563965,4359.743652,4365.128418,4367.563965,4366.922852,4366.922852,4460.256348,4513.461426,4411.794922,4458.205078,,,,,,,,,,,,,,,,,,,,,,,,,,,,,,,,,,,,,,,,,,,,,,,,,,,,,,,,,,,,,,,,,,,,,,
1768972325.272821,1768972325.273328,19.0,0.0,4363.717773,4358.846191,4352.307617,4322.436035,4370.128418,4364.102539,4370.641113,4370.897461,4368.205078,4366.538574,4463.846191,4515.769043,4410.0,4460.897461,,,,,,,,,,,,,,,,,,,,,,,,,,,,,,,,,,,,,,,,,,,,,,,,,,,,,,,,,,,,,,,,,,,,,,
1768972325.280629,1768972325.281336,20.0,0.0,4365.0,4359.743652,4353.077148,4325.0,4366.666504,4361.922852,4363.846191,4363.846191,4358.974121,4357.94873,4456.666504,4511.025879,4402.820313,4454.487305,,,,,,,,,,,,,,,,,,,,,,,,,,,,,,,,,,,,,,,,,,,,,,,,,,,,,,,,,,,,,,,,,,,,,,
1768972325.288438,1768972325.289145,21.0,0.0,4362.820313,4363.461426,4351.666504,4325.384766,4364.230957,4357.179688,4356.410156,4359.615234,4356.153809,4355.769043,4451.025879,4509.358887,4399.743652,4449.615234,,,,,,,,,,,,,,,,,,,,,,,,,,,,,,,,,,,,,,,,,,,,,,,,,,,,,,,,,,,,,,,,,,,,,,
1768972325.296246,1768972325.297053,22.0,0.0,4364.871582,4369.358887,4354.743652,4328.717773,4366.153809,4356.538574,4358.333496,4361.282227,4360.0,4360.512695,4456.153809,4515.769043,4409.487305,4457.05127,,,,,,,,,,,,,,,,,,,,,,,,,,,,,,,,,,,,,,,,,,,,,,,,,,,,,,,,,,,,,,,,,,,,,,
1768972325.304055,1768972325.304861,23.0,0.0,4365.384766,4371.666504,4359.615234,4337.179688,4369.358887,4358.846191,4359.487305,4362.307617,4358.974121,4363.205078,4462.436035,4518.333496,4413.846191,4464.358887,,,,,,,,,,,,,,,,,,,,,,,,,,,,,,,,,,,,,,,,,,,,,,,,,,,,,,,,,,,,,,,,,,,,,,
1768972325.311863,1768972325.31287,24.0,0.0,4365.256348,4372.05127,4358.589844,4343.717773,4369.871582,4359.615234,4358.461426,4359.230957,4357.692383,4363.205078,4459.615234,4515.897461,4410.256348,4461.025879,,,,,,,,,,,,,,,,,,,,,,,,,,,,,,,,,,,,,,,,,,,,,,,,,,,,,,,,,,,,,,,,,,,,,,
1768972325.319672,1768972325.320678,25.0,0.0,4367.820313,4373.974121,4357.179688,4343.461426,4370.384766,4357.179688,4357.436035,4357.307617,4357.820313,4365.769043,4458.077148,4516.282227,4410.769043,4458.205078,,,,,,,,,,,,,,,,,,,,,,,,,,,,,,,,,,,,,,,,,,,,,,,,,,,,,,,,,,,,,,,,,,,,,,
1768972325.32748,1768972325.328387,26.0,0.0,4366.538574,4372.563965,4360.0,4342.05127,4369.871582,4360.0,4359.102539,4360.128418,4357.563965,4366.794922,4461.666504,4518.846191,4414.615234,4462.563965,,,,,,,,,,,,,,,,,,,,,,,,,,,,,,,,,,,,,,,,,,,,,,,,,,,,,,,,,,,,,,,,,,,,,,
1768972325.335288,1768972325.336195,27.0,0.0,4358.205078,4366.538574,4355.256348,4341.153809,4370.0,4364.871582,4361.666504,4364.487305,4359.358887,4361.153809,4460.128418,4515.128418,4411.538574,4458.717773,,,,,,,,,,,,,,,,,,,,,,,,,,,,,,,,,,,,,,,,,,,,,,,,,,,,,,,,,,,,,,,,,,,,,,
1768972325.343097,1768972325.344203,28.0,0.0,4355.384766,4369.230957,4347.179688,4341.282227,4375.512695,4366.410156,4365.0,4365.897461,4359.230957,4359.871582,4456.153809,4507.820313,4402.563965,4449.743652,,,,,,,,,,,,,,,,,,,,,,,,,,,,,,,,,,,,,,,,,,,,,,,,,,,,,,,,,,,,,,,,,,,,,,
1768972325.350905,1768972325.352012,29.0,0.0,4364.615234,4380.256348,4351.538574,4344.487305,4378.846191,4369.743652,4370.128418,4364.615234,4356.025879,4364.487305,4457.692383,4509.743652,4401.538574,4454.487305,,,,,,,,,,,,,,,,,,,,,,,,,,,,,,,,,,,,,,,,,,,,,,,,,,,,,,,,,,,,,,,,,,,,,,
1768972325.358714,1768972325.35972,30.0,0.0,4367.820313,4381.666504,4354.871582,4343.974121,4373.461426,4367.692383,4368.205078,4364.743652,4356.410156,4362.05127,4459.615234,4516.538574,4406.025879,4461.025879,1.673224,0.157507,0.356837,0.400578,0.182711,0.440801,0.156073,0.3019,0.16604,0.138091,0.459037,0.108783,0.11618,0.248114,0.159551,0.33499,0.136252,0.195908,0.134926,0.128104,0.154629,0.336501,0.088235,0.067151,0.060228,0.207082,0.107746,0.178079,0.178994,0.238773,0.585192,0.109785,0.146338,0.124742,0.218191,0.219513,0.314229,0.220641,0.101242,0.159825,0.182066,0.366114,0.170466,0.156872,0.130452,0.43761,0.206457,0.170908,0.107449,0.092834,0.828389,0.446596,0.174011,0.137582,0.214635,1.629766,0.375649,0.333833,0.347276,0.199697,1.274325,0.253213,0.182597,0.196311,0.191631,4.693869,0.515844,0.274462,0.302153,0.26587
1768972325.366522,1768972325.367529,31.0,0.0,4360.0,4377.563965,4346.794922,4339.102539,4370.0,4356.922852,4355.897461,4363.205078,4357.563965,4356.794922,4457.179688,4514.871582,4404.358887,4452.307617,,,,,,,,,,,,,,,,,,,,,,,,,,,,,,,,,,,,,,,,,,,,,,,,,,,,,,,,,,,,,,,,,,,,,,
1768972325.37433,1768972325.375137,32.0,0.0,4355.512695,4378.205078,4343.589844,4338.589844,4372.94873,4353.333496,4352.436035,4358.974121,4352.692383,4357.307617,4455.256348,4509.487305,4396.794922,4443.461426,,,,,,,,,,,,,,,,,,,,,,,,,,,,,,,,,,,,,,,,,,,,,,,,,,,,,,,,,,,,,,,,,,,,,,
1768972325.382139,1768972325.382946,33.0,0.0,4357.820313,4380.512695,4348.461426,4341.025879,4374.487305,4363.461426,4362.692383,4361.153809,4352.94873,4360.0,4456.794922,4513.077148,4399.871582,4448.589844,,,,,,,,,,,,,,,,,,,,,,,,,,,,,,,,,,,,,,,,,,,,,,,,,,,,,,,,,,,,,,,,,,,,,,
1768972325.389947,1768972325.390654,34.0,0.0,4358.461426,4378.205078,4348.974121,4341.282227,4371.282227,4364.230957,4360.512695,4368.077148,4362.563965,4364.487305,4458.846191,4518.717773,4410.128418,4456.153809,,,,,,,,,,,,,,,,,,,,,,,,,,,,,,,,,,,,,,,,,,,,,,,,,,,,,,,,,,,,,,,,,,,,,,
1768972325.397756,1768972325.398463,35.0,0.0,4358.846191,4374.358887,4347.692383,4341.794922,4368.974121,4356.794922,4351.153809,4370.641113,4369.615234,4371.922852,4460.769043,4520.0,4412.563965,4460.897461,,,,,,,,,,,,,,,,,,,,,,,,,,,,,,,,,,,,,,,,,,,,,,,,,,,,,,,,,,,,,,,,,,,,,,
1768972325.405564,1768972325.406471,36.0,0.0,4359.743652,4377.05127,4349.358887,4342.307617,4371.410156,4369.358887,4361.538574,4373.846191,4368.205078,4371.282227,4461.025879,4521.538574,4409.743652,4458.974121,,,,,,,,,,,,,,,,,,,,,,,,,,,,,,,,,,,,,,,,,,,,,,,,,,,,,,,,,,,,,,,,,,,,,,
1768972325.413373,1768972325.41428,37.0,0.0,4356.410156,4385.0,4347.563965,4339.743652,4370.256348,4379.871582,4370.128418,4373.461426,4361.922852,4365.512695,4456.666504,4518.846191,4409.230957,4448.974121,,,,,,,,,,,,,,,,,,,,,,,,,,,,,,,,,,,,,,,,,,,,,,,,,,,,,,,,,,,,,,,,,,,,,,
1768972325.421181,1768972325.422188,38.0,0.0,4351.922852,4385.0,4347.692383,4338.589844,4364.743652,4366.410156,4360.897461,4365.384766,4356.666504,4367.179688,4455.0,4513.974121,4412.94873,4443.974121,,,,,,,,,,,,,,,,,,,,,,,,,,,,,,,,,,,,,,,,,,,,,,,,,,,,,,,,,,,,,,,,,,,,,,
1768972325.42899,1768972325.429996,39.0,0.0,4353.333496,4380.0,4350.512695,4338.974121,4364.230957,4358.333496,4355.897461,4366.794922,4357.307617,4368.974121,4459.358887,4514.358887,4410.384766,4445.256348,,,,,,,,,,,,,,,,,,,,,,,,,,,,,,,,,,,,,,,,,,,,,,,,,,,,,,,,,,,,,,,,,,,,,,
1768972325.436798,1768972325.437605,40.0,0.0,4357.436035,4386.025879,4348.717773,4338.333496,4366.538574,4368.333496,4358.717773,4371.666504,4360.0,4365.641113,4455.641113,4511.538574,4404.871582,4443.333496,,,,,,,,,,,,,,,,,,,,,,,,,,,,,,,,,,,,,,,,,,,,,,,,,,,,,,,,,,,,,,,,,,,,,,
1768972325.444606,1768972325.445413,41.0,0.0,4358.333496,4393.461426,4346.153809,4338.205078,4366.410156,4371.153809,4360.128418,4368.589844,4361.025879,4364.615234,4450.384766,4506.153809,4408.589844,4443.333496,,,,,,,,,,,,,,,,,,,,,,,,,,,,,,,,,,,,,,,,,,,,,,,,,,,,,,,,,,,,,,,,,,,,,,
1768972325.452415,1768972325.453122,42.0,0.0,4357.307617,4391.538574,4347.820313,4338.974121,4365.384766,4364.743652,4363.333496,4366.794922,4363.205078,4366.922852,4455.897461,4510.512695,4413.205078,4448.461426,,,,,,,,,,,,,,,,,,,,,,,,,,,,,,,,,,,,,,,,,,,,,,,,,,,,,,,,,,,,,,,,,,,,,,
1768972325.460223,1768972325.46093,43.0,0.0,4357.820313,4388.974121,4349.615234,4340.512695,4364.230957,4369.102539,4364.487305,4368.589844,4364.358887,4369.230957,4460.256348,4519.358887,4409.871582,4449.358887,,,,,,,,,,,,,,,,,,,,,,,,,,,,,,,,,,,,,,,,,,,,,,,,,,,,,,,,,,,,,,,,,,,,,,
1768972325.468032,1768972325.468939,44.0,0.0,4358.589844,4388.974121,4345.512695,4341.666504,4364.230957,4373.589844,4358.974121,4371.922852,4366.282227,4371.922852,4458.717773,4522.307617,4410.256348,4446.794922,,,,,,,,,,,,,,,,,,,,,,,,,,,,,,,,,,,,,,,,,,,,,,,,,,,,,,,,,,,,,,,,,,,,,,
1768972325.47584,1768972325.476747,45.0,0.0,4357.307617,4383.974121,4342.05127,4340.769043,4365.128418,4368.846191,4356.666504,4372.692383,4367.94873,4370.641113,4456.410156,4520.0,4413.333496,4446.922852,,,,,,,,,,,,,,,,,,,,,,,,,,,,,,,,,,,,,,,,,,,,,,,,,,,,,,,,,,,,,,,,,,,,,,
1768972325.483649,1768972325.484655,46.0,0.0,4353.589844,4377.94873,4343.077148,4338.974121,4363.461426,4365.256348,4359.615234,4366.666504,4362.05127,4364.230957,4448.077148,4513.205078,4405.256348,4443.717773,1.720733,0.149577,0.36075,0.37197,0.165626,0.430471,0.163446,0.293038,0.151447,0.122643,0.3775,0.117753,0.125278,0.261927,0.148019,0.318611,0.123596,0.182159,0.128251,0.120149,0.141571,0.344595,0.08441,0.067167,0.060532,0.24207,0.111539,0.157972,0.188701,0.241032,0.592384,0.167754,0.131984,0.119803,0.212214,0.210731,0.32968,0.181321,0.089096,0.147921,0.168647,0.314235,0.134857,0.149765,0.124535,0.481266,0.230511,0.15035,0.105716,0.097831,0.935332,0.494591,0.176616,0.139646,0.218798,1.611481,0.355478,0.389963,0.356891,0.194291,1.37397,0.278858,0.161173,0.191006,0.185151,4.817219,0.445397,0.265585,0.326101,0.264399
1768972325.491457,1768972325.492464,47.0,0.0,4354.230957,4380.256348,4347.307617,4342.05127,4363.974121,4371.153809,4364.615234,4367.05127,4358.077148,4363.717773,4443.589844,4510.641113,4401.025879,4441.153809,,,,,,,,,,,,,,,,,,,,,,,,,,,,,,,,,,,,,,,,,,,,,,,,,,,,,,,,,,,,,,,,,,,,,,
1768972325.499266,1768972325.500472,48.0,0.0,4358.589844,4384.358887,4346.794922,4345.0,4368.846191,4373.717773,4367.94873,4375.128418,4361.410156,4367.820313,4450.897461,4515.256348,4409.358887,4444.871582,,,,,,,,,,,,,,,,,,,,,,,,,,,,,,,,,,,,,,,,,,,,,,,,,,,,,,,,,,,,,,,,,,,,,,
1768972325.507074,1768972325.508281,49.0,0.0,4356.410156,4382.307617,4342.692383,4340.897461,4367.563965,4361.410156,4355.0,4367.179688,4358.974121,4365.128418,4450.128418,4515.128418,4412.94873,4447.179688,,,,,,,,,,,,,,,,,,,,,,,,,,,,,,,,,,,,,,,,,,,,,,,,,,,,,,,,,,,,,,,,,,,,,,
1768972325.514882,1768972325.516089,50.0,0.0,4352.820313,4379.102539,4345.512695,4338.333496,4359.487305,4352.179688,4342.05127,4355.769043,4354.871582,4361.410156,4442.94873,4513.077148,4411.410156,4445.256348,,,,,,,,,,,,,,,,,,,,,,,,,,,,,,,,,,,,,,,,,,,,,,,,,,,,,,,,,,,,,,,,,,,,,,
1768972325.522691,1768972325.523897,51.0,0.0,4358.589844,4382.436035,4348.333496,4342.05127,4360.512695,4359.358887,4352.563965,4363.589844,4358.589844,4364.743652,4446.794922,4516.282227,4411.538574,4444.487305,,,,,,,,,,,,,,,,,,,,,,,,,,,,,,,,,,,,,,,,,,,,,,,,,,,,,,,,,,,,,,,,,,,,,,
1768972325.530499,1768972325.531506,52.0,0.0,4358.589844,4383.077148,4344.102539,4341.922852,4367.05127,4367.179688,4366.922852,4370.897461,4360.128418,4366.538574,4451.153809,4513.333496,4408.846191,4443.846191,,,,,,,,,,,,,,,,,,,,,,,,,,,,,,,,,,,,,,,,,,,,,,,,,,,,,,,,,,,,,,,,,,,,,,
1768972325.538308,1768972325.539315,53.0,0.0,4348.589844,4374.743652,4342.563965,4337.179688,4363.077148,4364.615234,4366.922852,4369.102539,4357.692383,4360.641113,4445.769043,4504.487305,4402.436035,4441.410156,,,,,,,,,,,,,,,,,,,,,,,,,,,,,,,,,,,,,,,,,,,,,,,,,,,,,,,,,,,,,,,,,,,,,,
1768972325.546116,1768972325.547023,54.0,0.0,4348.846191,4372.563965,4346.666504,4336.282227,4355.128418,4359.230957,4361.794922,4366.410156,4355.128418,4355.256348,4441.153809,4503.717773,4402.692383,4440.641113,,,,,,,,,,,,,,,,,,,,,,,,,,,,,,,,,,,,,,,,,,,,,,,,,,,,,,,,,,,,,,,,,,,,,,
1768972325.553925,1768972325.554832,55.0,0.0,4357.563965,4380.0,4347.179688,4338.461426,4356.025879,4357.563965,4361.282227,4365.0,4354.102539,4357.436035,4444.102539,4510.0,4409.743652,4443.205078,,,,,,,,,,,,,,,,,,,,,,,,,,,,,,,,,,,,,,,,,,,,,,,,,,,,,,,,,,,,,,,,,,,,,,
1768972325.561733,1768972325.56244,56.0,0.0,4358.974121,4383.717773,4347.820313,4338.461426,4360.128418,4362.692383,4366.794922,4371.025879,4360.384766,4362.563965,4447.307617,4508.717773,4413.461426,4445.897461,,,,,,,,,,,,,,,,,,,,,,,,,,,,,,,,,,,,,,,,,,,,,,,,,,,,,,,,,,,,,,,,,,,,,,
1768972325.569542,1768972325.570249,57.0,0.0,4355.384766,4379.743652,4348.974121,4337.692383,4357.436035,4366.282227,4369.102539,4373.589844,4361.025879,4361.922852,4443.846191,4499.615234,4410.384766,4442.179688,,,,,,,,,,,,,,,,,,,,,,,,,,,,,,,,,,,,,,,,,,,,,,,,,,,,,,,,,,,,,,,,,,,,,,
1768972325.57735,1768972325.577957,58.0,0.0,4357.179688,4380.0,4347.05127,4338.077148,4356.025879,4358.333496,4360.384766,4363.846191,4354.358887,4359.102539,4441.410156,4496.025879,4408.333496,4438.717773,,,,,,,,,,,,,,,,,,,,,,,,,,,,,,,,,,,,,,,,,,,,,,,,,,,,,,,,,,,,,,,,,,,,,,
1768972325.585158,1768972325.585766,59.0,0.0,4367.179688,4389.871582,4353.717773,4342.563965,4360.897461,4353.974121,4355.512695,4361.538574,4355.256348,4361.794922,4451.153809,4505.897461,4414.358887,4448.461426,,,,,,,,,,,,,,,,,,,,,,,,,,,,,,,,,,,,,,,,,,,,,,,,,,,,,,,,,,,,,,,,,,,,,,
1768972325.592967,1768972325.593374,60.0,0.0,4375.512695,4397.05127,4368.077148,4352.692383,4367.05127,4359.487305,4360.0,4371.794922,4362.692383,4369.230957,4461.794922,4521.410156,4421.922852,4462.05127,,,,,,,,,,,,,,,,,,,,,,,,,,,,,,,,,,,,,,,,,,,,,,,,,,,,,,,,,,,,,,,,,,,,,,
1768972325.600775,1768972325.601183,61.0,0.0,4375.256348,4393.205078,4371.666504,4360.897461,4369.102539,4361.794922,4358.077148,4374.358887,4363.717773,4370.641113,4460.512695,4525.0,4420.0,4463.077148,,,,,,,,,,,,,,,,,,,,,,,,,,,,,,,,,,,,,,,,,,,,,,,,,,,,,,,,,,,,,,,,,,,,,,
1768972325.608584,1768972325.609091,62.0,0.0,4372.94873,4386.794922,4360.256348,4353.333496,4363.717773,4361.153809,4356.282227,4369.102539,4359.102539,4364.743652,4455.897461,4518.589844,4414.102539,4456.666504,1.558722,0.135346,0.344306,0.34403,0.145946,0.381288,0.169993,0.284034,0.138701,0.105,0.316506,0.136685,0.138151,0.259255,0.129294,0.308479,0.116879,0.168068,0.120712,0.110633,0.135261,0.319745,0.079773,0.066025,0.061082,0.270063,0.112121,0.14396,0.194851,0.239949,0.576781,0.240804,0.133121,0.1256,0.211782,0.201394,0.34105,0.141589,0.078837,0.135121,0.16537,0.274386,0.109046,0.136735,0.114747,0.501588,0.263493,0.149492,0.105728,0.100366,0.945799,0.564204,0.182911,0.148752,0.213843,1.477312,0.357661,0.421661,0.354394,0.181664,1.321983,0.328803,0.181528,0.188677,0.17757,4.284178,0.398744,0.269236,0.354498,0.251647
1768972325.616392,1768972325.6169,63.0,0.0,4371.794922,4387.307617,4354.230957,4342.820313,4359.743652,4362.563965,4358.846191,4368.205078,4358.461426,4362.692383,4458.205078,4517.563965,4414.743652,4455.128418,,,,,,,,,,,,,,,,,,,,,,,,,,,,,,,,,,,,,,,,,,,,,,,,,,,,,,,,,,,,,,,,,,,,,,
1768972325.624201,1768972325.624908,64.0,0.0,4366.410156,4386.538574,4358.846191,4343.846191,4364.358887,4362.307617,4357.05127,4367.820313,4359.358887,4365.769043,4460.641113,4517.436035,4416.666504,4457.05127,,,,,,,,,,,,,,,,,,,,,,,,,,,,,,,,,,,,,,,,,,,,,,,,,,,,,,,,,,,,,,,,,,,,,,
1768972325.632009,1768972325.632716,65.0,0.0,4365.769043,4382.692383,4360.384766,4346.538574,4369.487305,4366.410156,4358.717773,4368.589844,4360.128418,4370.769043,4459.615234,4514.102539,4418.974121,4460.897461,,,,,,,,,,,,,,,,,,,,,,,,,,,,,,,,,,,,,,,,,,,,,,,,,,,,,,,,,,,,,,,,,,,,,,
1768972325.639818,1768972325.640425,66.0,0.0,4370.384766,4384.358887,4357.05127,4344.102539,4368.333496,4370.0,4364.871582,4371.666504,4362.436035,4372.820313,4460.769043,4516.153809,4424.871582,4464.102539,,,,,,,,,,,,,,,,,,,,,,,,,,,,,,,,,,,,,,,,,,,,,,,,,,,,,,,,,,,,,,,,,,,,,,
1768972325.647626,1768972325.648233,67.0,0.0,4366.922852,4383.077148,4354.487305,4341.922852,4363.974121,4363.589844,4365.512695,4373.333496,4366.025879,4369.487305,4461.153809,4521.153809,4423.205078,4460.641113,,,,,,,,,,,,,,,,,,,,,,,,,,,,,,,,,,,,,,,,,,,,,,,,,,,,,,,,,,,,,,,,,,,,,,
1768972325.655434,1768972325.656241,68.0,0.0,4363.333496,4377.307617,4353.717773,4342.692383,4362.05127,4358.333496,4362.436035,4373.717773,4366.025879,4366.538574,4457.820313,4520.384766,4414.487305,4456.282227,,,,,,,,,,,,,,,,,,,,,,,,,,,,,,,,,,,,,,,,,,,,,,,,,,,,,,,,,,,,,,,,,,,,,,
1768972325.663243,1768972325.66405,69.0,0.0,4369.358887,4378.717773,4358.717773,4345.897461,4363.589844,4363.974121,4365.128418,4374.487305,4363.205078,4368.589844,4456.794922,4518.205078,4415.897461,4457.307617,,,,,,,,,,,,,,,,,,,,,,,,,,,,,,,,,,,,,,,,,,,,,,,,,,,,,,,,,,,,,,,,,,,,,,
1768972325.671051,1768972325.671958,70.0,0.0,4367.692383,4383.717773,4362.820313,4346.025879,4365.256348,4369.102539,4369.102539,4375.256348,4365.897461,4370.128418,4459.615234,4517.179688,4422.05127,4459.487305,,,,,,,,,,,,,,,,,,,,,,,,,,,,,,,,,,,,,,,,,,,,,,,,,,,,,,,,,,,,,,,,,,,,,,
1768972325.67886,1768972325.679767,71.0,0.0,4361.282227,4380.512695,4356.666504,4344.871582,4365.128418,4363.205078,4367.563965,4371.410156,4364.358887,4365.769043,4460.0,4516.922852,4417.179688,4460.0,,,,,,,,,,,,,,,,,,,,,,,,,,,,,,,,,,,,,,,,,,,,,,,,,,,,,,,,,,,,,,,,,,,,,,
1768972325.686668,1768972325.687776,72.0,0.0,4367.94873,4378.461426,4354.487305,4347.692383,4366.410156,4356.410156,4364.230957,4368.205078,4359.615234,4363.974121,4457.436035,4519.230957,4412.179688,4461.025879,,,,,,,,,,,,,,,,,,,,,,,,,,,,,,,,,,,,,,,,,,,,,,,,,,,,,,,,,,,,,,,,,,,,,,
1768972325.694477,1768972325.695584,73.0,0.0,4376.410156,4383.077148,4360.0,4351.153809,4366.922852,4357.94873,4362.563965,4368.333496,4361.153809,4365.641113,4457.563965,4520.384766,4419.230957,4461.666504,,,,,,,,,,,,,,,,,,,,,,,,,,,,,,,,,,,,,,,,,,,,,,,,,,,,,,,,,,,,,,,,,,,,,,
1768972325.702285,1768972325.703493,74.0,0.0,4375.384766,4384.487305,4363.461426,4354.871582,4368.461426,4365.384766,4367.692383,4366.538574,4364.871582,4368.846191,4460.384766,4523.846191,4429.615234,4461.410156,,,,,,,,,,,,,,,,,,,,,,,,,,,,,,,,,,,,,,,,,,,,,,,,,,,,,,,,,,,,,,,,,,,,,,
1768972325.710094,1768972325.711301,75.0,0.0,4373.077148,4381.538574,4364.230957,4358.846191,4374.230957,4371.538574,4374.358887,4365.897461,4365.641113,4371.282227,4462.179688,4527.05127,4429.358887,4463.077148,,,,,,,,,,,,,,,,,,,,,,,,,,,,,,,,,,,,,,,,,,,,,,,,,,,,,,,,,,,,,,,,,,,,,,
1768972325.717902,1768972325.71891,76.0,0.0,4372.436035,4379.871582,4364.871582,4356.025879,4374.102539,4368.333496,4367.05127,4367.94873,4364.871582,4369.487305,4460.384766,4521.538574,4421.922852,4460.256348,,,,,,,,,,,,,,,,,,,,,,,,,,,,,,,,,,,,,,,,,,,,,,,,,,,,,,,,,,,,,,,,,,,,,,
1768972325.72571,1768972325.726718,77.0,0.0,4369.743652,4379.615234,4362.563965,4347.307617,4369.487305,4363.846191,4359.230957,4371.794922,4365.0,4365.128418,4458.589844,4514.102539,4417.692383,4455.0,,,,,,,,,,,,,,,,,,,,,,,,,,,,,,,,,,,,,,,,,,,,,,,,,,,,,,,,,,,,,,,,,,,,,,
1768972325.733519,1768972325.734427,78.0,0.0,4366.282227,4380.384766,4355.256348,4344.871582,4370.897461,4366.666504,4367.820313,4373.589844,4363.974121,4362.05127,4458.333496,4510.512695,4415.128418,4454.358887,1.229764,0.1223,0.306051,0.316875,0.129405,0.314347,0.166514,0.274438,0.127869,0.089997,0.275269,0.157271,0.150744,0.237404,0.110141,0.29176,0.120071,0.151247,0.112195,0.101042,0.13994,0.271357,0.075905,0.064501,0.061385,0.287259,0.109886,0.143227,0.195122,0.235695,0.54137,0.309556,0.151391,0.139253,0.21896,0.198452,0.340438,0.11313,0.072445,0.122735,0.179307,0.246774,0.101565,0.120835,0.102826,0.499815,0.292446,0.168458,0.107302,0.099719,0.860476,0.639492,0.194542,0.16029,0.199247,1.271848,0.375722,0.423239,0.336852,0.16372,1.142342,0.390727,0.236205,0.18877,0.167112,3.262786,0.376159,0.283436,0.374979,0.228234
1768972325.741327,1768972325.742235,79.0,0.0,4364.230957,4380.641113,4349.871582,4345.256348,4373.589844,4371.794922,4377.692383,4373.589844,4363.077148,4363.589844,4457.179688,4510.641113,4413.846191,4452.05127,,,,,,,,,,,,,,,,,,,,,,,,,,,,,,,,,,,,,,,,,,,,,,,,,,,,,,,,,,,,,,,,,,,,,,
1768972325.749136,1768972325.749844,80.0,0.0,4362.563965,4377.563965,4349.102539,4343.077148,4373.205078,4368.461426,4372.307617,4375.769043,4366.666504,4363.974121,4455.897461,4511.666504,4414.871582,4445.384766,,,,,,,,,,,,,,,,,,,,,,,,,,,,,,,,,,,,,,,,,,,,,,,,,,,,,,,,,,,,,,,,,,,,,,
1768972325.756944,1768972325.757652,81.0,0.0,4364.230957,4377.820313,4353.205078,4345.512695,4372.436035,4364.615234,4367.436035,4376.538574,4367.179688,4359.358887,4456.025879,4512.05127,4412.563965,4442.692383,,,,,,,,,,,,,,,,,,,,,,,,,,,,,,,,,,,,,,,,,,,,,,,,,,,,,,,,,,,,,,,,,,,,,,
1768972325.764753,1768972325.765361,82.0,0.0,4371.410156,4382.94873,4356.025879,4350.128418,4375.256348,4367.05127,4371.538574,4370.641113,4359.487305,4359.615234,4456.794922,4511.282227,4410.0,4445.512695,,,,,,,,,,,,,,,,,,,,,,,,,,,,,,,,,,,,,,,,,,,,,,,,,,,,,,,,,,,,,,,,,,,,,,
1768972325.772561,1768972325.773169,83.0,0.0,4375.128418,4384.102539,4355.0,4352.179688,4380.512695,4370.641113,4372.436035,4366.666504,4355.512695,4365.384766,4458.461426,4513.846191,4415.897461,4452.307617,,,,,,,,,,,,,,,,,,,,,,,,,,,,,,,,,,,,,,,,,,,,,,,,,,,,,,,,,,,,,,,,,,,,,,
1768972325.780369,1768972325.780778,84.0,0.0,4368.333496,4380.897461,4354.358887,4353.717773,4381.794922,4370.897461,4367.436035,4370.769043,4363.333496,4366.666504,4458.205078,4519.230957,4420.897461,4455.384766,,,,,,,,,,,,,,,,,,,,,,,,,,,,,,,,,,,,,,,,,,,,,,,,,,,,,,,,,,,,,,,,,,,,,,
1768972325.788178,1768972325.788586,85.0,0.0,4362.307617,4380.256348,4353.205078,4354.102539,4376.794922,4364.358887,4363.717773,4371.153809,4365.0,4362.563965,4452.436035,4511.666504,4414.615234,4447.692383,,,,,,,,,,,,,,,,,,,,,,,,,,,,,,,,,,,,,,,,,,,,,,,,,,,,,,,,,,,,,,,,,,,,,,
1768972325.795986,1768972325.796295,86.0,0.0,4365.256348,4381.666504,4353.205078,4351.922852,4374.102539,4360.256348,4366.153809,4368.333496,4357.436035,4359.487305,4444.871582,4503.077148,4409.871582,4441.922852,,,,,,,,,,,,,,,,,,,,,,,,,,,,,,,,,,,,,,,,,,,,,,,,,,,,,,,,,,,,,,,,,,,,,,
1768972325.803795,1768972325.804103,87.0,0.0,4368.333496,4378.717773,4354.871582,4350.897461,4374.358887,4364.615234,4366.025879,4365.769043,4354.871582,4356.538574,4442.563965,4507.436035,4410.128418,4443.589844,,,,,,,,,,,,,,,,,,,,,,,,,,,,,,,,,,,,,,,,,,,,,,,,,,,,,,,,,,,,,,,,,,,,,,
1768972325.811603,1768972325.812112,88.0,0.0,4367.563965,4377.563965,4356.922852,4351.153809,4371.282227,4365.0,4362.692383,4362.94873,4355.512695,4356.538574,4448.461426,4509.102539,4409.871582,4443.974121,,,,,,,,,,,,,,,,,,,,,,,,,,,,,,,,,,,,,,,,,,,,,,,,,,,,,,,,,,,,,,,,,,,,,,
1768972325.819412,1768972325.81992,89.0,0.0,4371.153809,4380.512695,4359.487305,4349.871582,4372.307617,4359.871582,4363.461426,4367.692383,4359.487305,4363.589844,4456.282227,4508.589844,4418.717773,4451.666504,,,,,,,,,,,,,,,,,,,,,,,,,,,,,,,,,,,,,,,,,,,,,,,,,,,,,,,,,,,,,,,,,,,,,,
1768972325.82722,1768972325.827828,90.0,0.0,4374.615234,4380.769043,4357.94873,4348.589844,4376.538574,4363.717773,4367.563965,4376.666504,4363.974121,4367.692383,4461.025879,4518.461426,4426.794922,4461.153809,,,,,,,,,,,,,,,,,,,,,,,,,,,,,,,,,,,,,,,,,,,,,,,,,,,,,,,,,,,,,,,,,,,,,,
1768972325.835029,1768972325.835637,91.0,0.0,4367.436035,4379.743652,4351.153809,4345.512695,4375.641113,4370.128418,4371.025879,4376.153809,4361.282227,4362.179688,4457.94873,4519.615234,4417.692383,4453.333496,,,,,,,,,,,,,,,,,,,,,,,,,,,,,,,,,,,,,,,,,,,,,,,,,,,,,,,,,,,,,,,,,,,,,,
1768972325.842837,1768972325.843246,92.0,0.0,4360.769043,4378.974121,4345.512695,4340.897461,4372.05127,4364.871582,4370.0,4374.871582,4360.641113,4356.922852,4449.230957,4508.717773,4408.846191,4441.410156,,,,,,,,,,,,,,,,,,,,,,,,,,,,,,,,,,,,,,,,,,,,,,,,,,,,,,,,,,,,,,,,,,,,,,
1768972325.850645,1768972325.851054,93.0,0.0,4361.666504,4375.384766,4345.0,4341.538574,4371.282227,4361.922852,4364.487305,4377.05127,4363.974121,4357.94873,4447.563965,4508.974121,4411.282227,4441.922852,,,,,,,,,,,,,,,,,,,,,,,,,,,,,,,,,,,,,,,,,,,,,,,,,,,,,,,,,,,,,,,,,,,,,,
1768972325.858454,1768972325.858763,94.0,0.0,4361.922852,4372.820313,4344.743652,4342.179688,4373.077148,4366.666504,4359.358887,4370.384766,4360.256348,4359.743652,4450.384766,4511.153809,4413.205078,4444.358887,0.879211,0.11913,0.253987,0.28722,0.120233,0.268833,0.150151,0.268303,0.118524,0.082033,0.258915,0.17378,0.160464,0.201646,0.096768,0.321532,0.136478,0.131538,0.102694,0.092397,0.154369,0.215731,0.072863,0.063155,0.061398,0.29171,0.104728,0.157964,0.188794,0.231013,0.484189,0.356685,0.182365,0.154754,0.233052,0.207002,0.321072,0.103404,0.070503,0.112695,0.212086,0.224333,0.113923,0.10631,0.091447,0.483295,0.304008,0.200177,0.109935,0.096515,0.720563,0.68961,0.208743,0.168131,0.177962,1.049312,0.399171,0.400757,0.307806,0.143695,0.903128,0.442015,0.308443,0.189669,0.154633,2.111032,0.367607,0.303753,0.376859,0.198256
1768972325.866262,1768972325.866571,95.0,0.0,4359.743652,4373.717773,4343.205078,4341.025879,4368.846191,4365.769043,4358.077148,4361.410156,4354.358887,4358.974121,4448.205078,4503.333496,4411.153809,4442.563965,,,,,,,,,,,,,,,,,,,,,,,,,,,,,,,,,,,,,,,,,,,,,,,,,,,,,,,,,,,,,,,,,,,,,,
1768972325.874071,1768972325.874579,96.0,0.0,4366.538574,4377.563965,4346.153809,4344.358887,4364.743652,4357.307617,4355.512695,4361.538574,4353.846191,4357.307617,4447.692383,4501.666504,4411.282227,4442.307617,,,,,,,,,,,,,,,,,,,,,,,,,,,,,,,,,,,,,,,,,,,,,,,,,,,,,,,,,,,,,,,,,,,,,,
1768972325.881879,1768972325.882388,97.0,0.0,4378.205078,4385.384766,4355.512695,4350.897461,4371.922852,4357.05127,4357.94873,4367.179688,4357.179688,4360.384766,4457.179688,4509.871582,4418.589844,4445.641113,,,,,,,,,,,,,,,,,,,,,,,,,,,,,,,,,,,,,,,,,,,,,,,,,,,,,,,,,,,,,,,,,,,,,,
1768972325.889688,1768972325.890296,98.0,0.0,4379.615234,4387.05127,4361.794922,4352.436035,4378.461426,4365.512695,4368.589844,4372.179688,4363.461426,4368.077148,4462.05127,4516.282227,4428.205078,4448.717773,,,,,,,,,,,,,,,,,,,,,,,,,,,,,,,,,,,,,,,,,,,,,,,,,,,,,,,,,,,,,,,,,,,,,,
1768972325.897496,1768972325.898104,99.0,0.0,4371.666504,4376.025879,4358.461426,4346.025879,4374.487305,4368.589844,4371.666504,4373.589844,4367.692383,4368.205078,4458.333496,4515.769043,4428.461426,4447.436035,,,,,,,,,,,,,,,,,,,,,,,,,,,,,,,,,,,,,,,,,,,,,,,,,,,,,,,,,,,,,,,,,,,,,,
1768972325.905305,1768972325.906113,100.0,0.0,4367.436035,4368.589844,4352.692383,4341.282227,4370.641113,4365.0,4365.897461,4373.333496,4363.205078,4362.820313,4456.282227,4511.538574,4423.205078,4444.743652,,,,,,,,,,,,,,,,,,,,,,,,,,,,,,,,,,,,,,,,,,,,,,,,,,,,,,,,,,,,,,,,,,,,,,
1768972325.913113,1768972325.913921,101.0,0.0,4377.692383,4376.153809,4354.358887,4348.205078,4372.179688,4358.333496,4359.871582,4372.307617,4359.230957,4363.846191,4455.769043,4508.974121,4423.589844,4445.769043,,,,,,,,,,,,,,,,,,,,,,,,,,,,,,,,,,,,,,,,,,,,,,,,,,,,,,,,,,,,,,,,,,,,,,
1768972325.920921,1768972325.92163,102.0,0.0,4384.102539,4382.179688,4359.358887,4356.153809,4371.794922,4354.615234,4360.769043,4369.615234,4360.769043,4365.769043,4455.769043,4510.384766,4423.461426,4446.538574,,,,,,,,,,,,,,,,,,,,,,,,,,,,,,,,,,,,,,,,,,,,,,,,,,,,,,,,,,,,,,,,,,,,,,
1768972325.92873,1768972325.929438,103.0,0.0,4376.794922,4377.05127,4359.871582,4351.410156,4371.794922,4359.615234,4365.128418,4370.128418,4364.230957,4365.512695,4457.94873,4512.436035,4422.94873,4445.641113,,,,,,,,,,,,,,,,,,,,,,,,,,,,,,,,,,,,,,,,,,,,,,,,,,,,,,,,,,,,,,,,,,,,,,
1768972325.936538,1768972325.937047,104.0,0.0,4373.077148,4373.589844,4358.974121,4347.05127,4370.769043,4364.230957,4363.974121,4373.846191,4366.922852,4366.538574,4458.846191,4513.461426,4426.794922,4444.871582,,,,,,,,,,,,,,,,,,,,,,,,,,,,,,,,,,,,,,,,,,,,,,,,,,,,,,,,,,,,,,,,,,,,,,
1768972325.944347,1768972325.944855,105.0,0.0,4376.282227,4373.717773,4357.436035,4351.922852,4366.282227,4357.05127,4355.897461,4372.05127,4363.589844,4363.333496,4457.436035,4510.512695,4427.307617,4443.717773,,,,,,,,,,,,,,,,,,,,,,,,,,,,,,,,,,,,,,,,,,,,,,,,,,,,,,,,,,,,,,,,,,,,,,
1768972325.952155,1768972325.952564,106.0,0.0,4370.641113,4369.615234,4354.615234,4351.153809,4369.358887,4356.666504,4359.102539,4370.769043,4358.974121,4362.94873,4459.871582,4508.974121,4427.692383,4444.487305,,,,,,,,,,,,,,,,,,,,,,,,,,,,,,,,,,,,,,,,,,,,,,,,,,,,,,,,,,,,,,,,,,,,,,
1768972325.959964,1768972325.960372,107.0,0.0,4362.94873,4365.256348,4351.922852,4346.666504,4376.153809,4371.794922,4373.333496,4373.846191,4358.461426,4368.461426,4457.307617,4506.666504,4428.589844,4443.205078,,,,,,,,,,,,,,,,,,,,,,,,,,,,,,,,,,,,,,,,,,,,,,,,,,,,,,,,,,,,,,,,,,,,,,
1768972325.967772,1768972325.967981,108.0,0.0,4363.846191,4362.692383,4344.615234,4343.461426,4371.794922,4374.230957,4371.153809,4371.922852,4356.794922,4363.974121,4442.692383,4498.461426,4422.179688,4435.128418,,,,,,,,,,,,,,,,,,,,,,,,,,,,,,,,,,,,,,,,,,,,,,,,,,,,,,,,,,,,,,,,,,,,,,
1768972325.975581,1768972325.975789,109.0,0.0,4362.307617,4358.589844,4337.179688,4339.230957,4365.0,4358.974121,4355.641113,4368.077148,4355.769043,4359.487305,4439.102539,4494.102539,4418.717773,4431.922852,,,,,,,,,,,,,,,,,,,,,,,,,,,,,,,,,,,,,,,,,,,,,,,,,,,,,,,,,,,,,,,,,,,,,,
1768972325.983389,1768972325.983498,110.0,0.0,4364.102539,4360.0,4342.436035,4340.256348,4367.820313,4355.0,4353.717773,4371.794922,4363.846191,4371.410156,4456.922852,4507.692383,4432.563965,4445.769043,0.586747,0.132254,0.200825,0.254599,0.119394,0.27796,0.1279,0.26789,0.11013,0.082649,0.255372,0.188175,0.165304,0.16377,0.092002,0.375672,0.173029,0.111084,0.094248,0.085315,0.172391,0.169461,0.069781,0.06213,0.061781,0.286456,0.097535,0.18468,0.177046,0.229246,0.412272,0.374919,0.21797,0.16657,0.250515,0.226624,0.284057,0.113579,0.072302,0.106947,0.260636,0.201411,0.141792,0.096744,0.082905,0.46503,0.291217,0.236001,0.113296,0.092568,0.575633,0.688151,0.222158,0.169486,0.155221,0.842226,0.417794,0.368212,0.278816,0.125534,0.676004,0.461938,0.383042,0.190459,0.14358,1.140122,0.361677,0.325328,0.358277,0.167805
1768972325.991197,1768972325.991306,111.0,0.0,4375.769043,4368.333496,4353.974121,4347.94873,4369.615234,4360.128418,4360.769043,4377.05127,4373.974121,4384.102539,4471.794922,4524.102539,4446.282227,4462.179688,,,,,,,,,,,,,,,,,,,,,,,,,,,,,,,,,,,,,,,,,,,,,,,,,,,,,,,,,,,,,,,,,,,,,,
1768972325.999006,1768972325.999315,112.0,0.0,4376.410156,4369.102539,4352.692383,4350.128418,4365.897461,4357.179688,4359.487305,4378.461426,4372.820313,4382.436035,4467.94873,4521.922852,4442.436035,4457.179688,,,,,,,,,,,,,,,,,,,,,,,,,,,,,,,,,,,,,,,,,,,,,,,,,,,,,,,,,,,,,,,,,,,,,,
1768972326.006814,1768972326.007123,113.0,0.0,4368.717773,4367.820313,4347.563965,4347.820313,4368.461426,4358.589844,4359.358887,4375.897461,4366.666504,4376.794922,4460.384766,4516.538574,4436.025879,4448.846191,,,,,,,,,,,,,,,,,,,,,,,,,,,,,,,,,,,,,,,,,,,,,,,,,,,,,,,,,,,,,,,,,,,,,,
1768972326.014623,1768972326.015031,114.0,0.0,4372.692383,4373.205078,4356.025879,4351.153809,4374.743652,4367.692383,4366.666504,4372.692383,4365.897461,4373.461426,4460.512695,4521.282227,4443.333496,4453.461426,,,,,,,,,,,,,,,,,,,,,,,,,,,,,,,,,,,,,,,,,,,,,,,,,,,,,,,,,,,,,,,,,,,,,,
1768972326.022431,1768972326.02284,115.0,0.0,4374.871582,4375.512695,4362.436035,4356.410156,4373.589844,4367.307617,4369.230957,4373.205078,4365.256348,4371.794922,4461.922852,4520.897461,4443.589844,4451.666504,,,,,,,,,,,,,,,,,,,,,,,,,,,,,,,,,,,,,,,,,,,,,,,,,,,,,,,,,,,,,,,,,,,,,,
1768972326.03024,1768972326.030848,116.0,0.0,4369.871582,4372.94873,4357.307617,4359.487305,4371.410156,4364.358887,4366.410156,4372.820313,4360.769043,4373.077148,4460.0,4515.897461,4432.179688,4445.769043,,,,,,,,,,,,,,,,,,,,,,,,,,,,,,,,,,,,,,,,,,,,,,,,,,,,,,,,,,,,,,,,,,,,,,
1768972326.038048,1768972326.038657,117.0,0.0,4375.641113,4373.333496,4355.512695,4359.102539,4375.384766,4367.692383,4366.025879,4371.025879,4358.589844,4373.461426,4459.102539,4520.0,4435.128418,4450.128418,,,,,,,,,,,,,,,,,,,,,,,,,,,,,,,,,,,,,,,,,,,,,,,,,,,,,,,,,,,,,,,,,,,,,,
1768972326.045857,1768972326.046365,118.0,0.0,4383.205078,4373.974121,4361.025879,4358.717773,4375.769043,4368.717773,4367.94873,4376.666504,4362.692383,4370.897461,4461.794922,4521.922852,4444.230957,4453.589844,,,,,,,,,,,,,,,,,,,,,,,,,,,,,,,,,,,,,,,,,,,,,,,,,,,,,,,,,,,,,,,,,,,,,,
1768972326.053665,1768972326.054174,119.0,0.0,4376.410156,4370.384766,4362.05127,4360.128418,4369.743652,4366.538574,4372.436035,4383.077148,4365.641113,4367.436035,4461.666504,4515.0,4436.538574,4446.666504,,,,,,,,,,,,,,,,,,,,,,,,,,,,,,,,,,,,,,,,,,,,,,,,,,,,,,,,,,,,,,,,,,,,,,
1768972326.061473,1768972326.062182,120.0,0.0,4369.102539,4367.307617,4361.794922,4358.974121,4364.871582,4364.487305,4371.666504,4374.743652,4359.102539,4364.487305,4458.717773,4513.846191,4426.025879,4442.436035,,,,,,,,,,,,,,,,,,,,,,,,,,,,,,,,,,,,,,,,,,,,,,,,,,,,,,,,,,,,,,,,,,,,,,
1768972326.069282,1768972326.06999,121.0,0.0,4376.538574,4372.563965,4365.256348,4357.94873,4368.589844,4366.153809,4361.153809,4366.282227,4354.615234,4363.974121,4458.077148,4518.461426,4428.717773,4450.128418,,,,,,,,,,,,,,,,,,,,,,,,,,,,,,,,,,,,,,,,,,,,,,,,,,,,,,,,,,,,,,,,,,,,,,
1768972326.07709,1768972326.077899,122.0,0.0,4382.820313,4375.769043,4363.333496,4358.717773,4371.666504,4366.153809,4356.794922,4372.436035,4360.512695,4366.025879,4460.897461,4519.743652,4432.05127,4457.94873,,,,,,,,,,,,,,,,,,,,,,,,,,,,,,,,,,,,,,,,,,,,,,,,,,,,,,,,,,,,,,,,,,,,,,
1768972326.084899,1768972326.085707,123.0,0.0,4375.512695,4369.230957,4356.410156,4357.179688,4368.077148,4360.0,4362.05127,4377.436035,4364.743652,4368.461426,4461.922852,4514.615234,4433.846191,4453.974121,,,,,,,,,,,,,,,,,,,,,,,,,,,,,,,,,,,,,,,,,,,,,,,,,,,,,,,,,,,,,,,,,,,,,,
1768972326.092707,1768972326.093715,124.0,0.0,4366.666504,4364.871582,4355.256348,4355.769043,4366.922852,4361.410156,4367.94873,4376.025879,4361.025879,4368.077148,4459.230957,4507.563965,4434.871582,4445.0,,,,,,,,,,,,,,,,,,,,,,,,,,,,,,,,,,,,,,,,,,,,,,,,,,,,,,,,,,,,,,,,,,,,,,
1768972326.100515,1768972326.101524,125.0,0.0,4370.256348,4366.025879,4355.384766,4356.794922,4369.230957,4370.128418,4373.461426,4377.692383,4358.589844,4364.615234,4456.922852,4506.922852,4430.256348,4444.102539,,,,,,,,,,,,,,,,,,,,,,,,,,,,,,,,,,,,,,,,,,,,,,,,,,,,,,,,,,,,,,,,,,,,,,
1768972326.108324,1768972326.109232,126.0,0.0,4379.102539,4365.128418,4355.0,4357.820313,4365.769043,4367.692383,4373.461426,4378.205078,4359.230957,4363.974121,4457.94873,4513.077148,4433.589844,4450.512695,0.40958,0.163505,0.158539,0.224926,0.12427,0.349629,0.111231,0.271229,0.103494,0.089698,0.253104,0.211553,0.164426,0.137837,0.094183,0.443039,0.237738,0.093262,0.090659,0.07984,0.189254,0.141036,0.067105,0.061538,0.063246,0.273787,0.089782,0.216323,0.162779,0.232099,0.333269,0.37005,0.25118,0.172694,0.266387,0.251269,0.241306,0.138433,0.077326,0.106213,0.316552,0.177622,0.176232,0.093594,0.078302,0.454819,0.257138,0.26764,0.117224,0.089809,0.470302,0.627659,0.232575,0.16746,0.135948,0.677056,0.42516,0.338399,0.262699,0.11236,0.507395,0.444926,0.447528,0.19228,0.137489,0.536292,0.348998,0.341407,0.329437,0.142873
1768972326.116132,1768972326.117041,127.0,0.0,4378.333496,4364.102539,4356.282227,4359.615234,4361.153809,4357.179688,4365.256348,4375.641113,4356.666504,4366.794922,4460.128418,4511.666504,4443.205078,4456.794922,,,,,,,,,,,,,,,,,,,,,,,,,,,,,,,,,,,,,,,,,,,,,,,,,,,,,,,,,,,,,,,,,,,,,,
1768972326.123941,1768972326.124649,0.0,0.0,4368.205078,4362.307617,4352.179688,4357.307617,4359.102539,4355.769043,4357.436035,4372.563965,4351.794922,4361.794922,4456.025879,4500.641113,4439.487305,4452.94873,,,,,,,,,,,,,,,,,,,,,,,,,,,,,,,,,,,,,,,,,,,,,,,,,,,,,,,,,,,,,,,,,,,,,,
1768972326.131749,1768972326.132458,1.0,0.0,4355.897461,4350.384766,4341.025879,4346.282227,4350.256348,4351.025879,4347.05127,4360.512695,4341.794922,4348.333496,4438.974121,4485.897461,4422.820313,4432.820313,,,,,,,,,,,,,,,,,,,,,,,,,,,,,,,,,,,,,,,,,,,,,,,,,,,,,,,,,,,,,,,,,,,,,,
1768972326.139558,1768972326.140166,2.0,0.0,4346.794922,4339.487305,4329.743652,4333.846191,4335.897461,4334.487305,4331.410156,4342.563965,4325.0,4335.256348,4420.384766,4470.0,4411.794922,4415.0,,,,,,,,,,,,,,,,,,,,,,,,,,,,,,,,,,,,,,,,,,,,,,,,,,,,,,,,,,,,,,,,,,,,,,
1768972326.147366,1768972326.147975,3.0,0.0,4343.205078,4340.128418,4320.128418,4330.0,4330.512695,4321.282227,4320.128418,4330.128418,4312.436035,4328.205078,4410.0,4459.871582,4407.820313,4409.615234,,,,,,,,,,,,,,,,,,,,,,,,,,,,,,,,,,,,,,,,,,,,,,,,,,,,,,,,,,,,,,,,,,,,,,
1768972326.155175,1768972326.155983,4.0,0.0,4338.205078,4337.307617,4312.436035,4328.205078,4325.897461,4313.589844,4310.897461,4322.436035,4310.512695,4325.0,4400.512695,4451.794922,4399.871582,4404.102539,,,,,,,,,,,,,,,,,,,,,,,,,,,,,,,,,,,,,,,,,,,,,,,,,,,,,,,,,,,,,,,,,,,,,,
1768972326.162983,1768972326.163791,5.0,0.0,4326.922852,4328.846191,4306.410156,4318.205078,4315.0,4310.256348,4305.641113,4317.820313,4310.256348,4317.94873,4387.820313,4440.128418,4389.102539,4392.94873,,,,,,,,,,,,,,,,,,,,,,,,,,,,,,,,,,,,,,,,,,,,,,,,,,,,,,,,,,,,,,,,,,,,,,
1768972326.170792,1768972326.1715,6.0,0.0,4320.897461,4320.384766,4300.641113,4309.487305,4306.666504,4306.153809,4306.282227,4315.128418,4301.666504,4308.974121,4380.769043,4434.230957,4380.897461,4382.436035,,,,,,,,,,,,,,,,,,,,,,,,,,,,,,,,,,,,,,,,,,,,,,,,,,,,,,,,,,,,,,,,,,,,,,
1768972326.1786,1768972326.179308,7.0,0.0,4324.230957,4315.128418,4297.179688,4307.692383,4300.897461,4295.384766,4298.589844,4311.025879,4294.743652,4309.358887,4380.256348,4435.256348,4380.0,4380.128418,,,,,,,,,,,,,,,,,,,,,,,,,,,,,,,,,,,,,,,,,,,,,,,,,,,,,,,,,,,,,,,,,,,,,,
1768972326.186408,1768972326.186917,8.0,0.0,4322.436035,4309.358887,4297.05127,4303.461426,4292.692383,4290.0,4292.307617,4307.563965,4296.153809,4311.922852,4379.102539,4431.410156,4376.922852,4381.666504,,,,,,,,,,,,,,,,,,,,,,,,,,,,,,,,,,,,,,,,,,,,,,,,,,,,,,,,,,,,,,,,,,,,,,
1768972326.194217,1768972326.194726,9.0,0.0,4312.05127,4299.743652,4291.922852,4294.358887,4288.717773,4297.436035,4295.256348,4303.846191,4290.769043,4301.922852,4371.153809,4420.256348,4367.563965,4374.358887,,,,,,,,,,,,,,,,,,,,,,,,,,,,,,,,,,,,,,,,,,,,,,,,,,,,,,,,,,,,,,,,,,,,,,
1768972326.202025,1768972326.202634,10.0,0.0,4303.974121,4292.05127,4287.820313,4292.05127,4290.384766,4293.846191,4287.692383,4298.846191,4280.256348,4293.205078,4360.0,4414.230957,4363.461426,4362.94873,,,,,,,,,,,,,,,,,,,,,,,,,,,,,,,,,,,,,,,,,,,,,,,,,,,,,,,,,,,,,,,,,,,,,,
1768972326.209834,1768972326.210442,11.0,0.0,4301.025879,4291.666504,4290.256348,4293.717773,4287.307617,4277.94873,4275.384766,4296.922852,4280.897461,4294.743652,4357.05127,4416.794922,4364.230957,4361.282227,,,,,,,,,,,,,,,,,,,,,,,,,,,,,,,,,,,,,,,,,,,,,,,,,,,,,,,,,,,,,,,,,,,,,,
1768972326.217642,1768972326.218451,12.0,0.0,4302.05127,4295.256348,4288.974121,4291.922852,4280.897461,4276.153809,4277.563965,4294.102539,4282.307617,4294.487305,4359.487305,4416.282227,4360.512695,4363.717773,,,,,,,,,,,,,,,,,,,,,,,,,,,,,,,,,,,,,,,,,,,,,,,,,,,,,,,,,,,,,,,,,,,,,,
1768972326.225451,1768972326.226259,13.0,0.0,4302.05127,4291.153809,4281.410156,4288.333496,4278.846191,4280.0,4280.897461,4290.897461,4276.153809,4292.436035,4357.820313,4408.846191,4356.282227,4359.743652,,,,,,,,,,,,,,,,,,,,,,,,,,,,,,,,,,,,,,,,,,,,,,,,,,,,,,,,,,,,,,,,,,,,,,
1768972326.233259,1768972326.234167,14.0,0.0,4295.0,4281.025879,4276.282227,4284.358887,4279.358887,4277.436035,4277.820313,4294.230957,4278.333496,4291.153809,4353.077148,4406.025879,4355.897461,4352.436035,0.33845,0.21927,0.133075,0.206698,0.131131,0.463511,0.111039,0.274061,0.100286,0.098976,0.259892,0.263478,0.157084,0.133608,0.099445,0.493854,0.334673,0.08135,0.094649,0.076067,0.201139,0.128983,0.067247,0.061724,0.066321,0.252683,0.083365,0.245041,0.149124,0.238479,0.252164,0.350877,0.278539,0.174851,0.275707,0.260815,0.208539,0.169404,0.085877,0.109235,0.361275,0.157436,0.204714,0.096748,0.077558,0.447433,0.21556,0.284372,0.121667,0.08931,0.420262,0.523076,0.237926,0.171292,0.123142,0.561874,0.423463,0.318119,0.268114,0.106244,0.403232,0.404022,0.483496,0.198435,0.137896,0.281657,0.335152,0.34263,0.306982,0.127045
1768972326.241068,1768972326.241976,15.0,0.0,4290.769043,4275.641113,4278.974121,4286.410156,4278.333496,4277.94873,4280.128418,4295.641113,4277.94873,4289.102539,4350.769043,4412.436035,4354.358887,4351.025879,,,,,,,,,,,,,,,,,,,,,,,,,,,,,,,,,,,,,,,,,,,,,,,,,,,,,,,,,,,,,,,,,,,,,,
1768972326.248876,1768972326.249584,16.0,0.0,4299.743652,4278.589844,4285.384766,4293.461426,4272.820313,4280.0,4282.05127,4288.077148,4267.179688,4288.974121,4353.077148,4416.666504,4356.282227,4356.666504,,,,,,,,,,,,,,,,,,,,,,,,,,,,,,,,,,,,,,,,,,,,,,,,,,,,,,,,,,,,,,,,,,,,,,
1768972326.256684,1768972326.257393,17.0,0.0,4302.692383,4279.487305,4284.358887,4294.615234,4271.922852,4279.487305,4279.615234,4285.897461,4267.307617,4290.0,4348.846191,4411.282227,4358.717773,4354.230957,,,,,,,,,,,,,,,,,,,,,,,,,,,,,,,,,,,,,,,,,,,,,,,,,,,,,,,,,,,,,,,,,,,,,,
1768972326.264493,1768972326.265101,18.0,0.0,4291.666504,4275.641113,4277.692383,4290.128418,4277.436035,4278.205078,4277.436035,4286.794922,4271.794922,4285.384766,4342.94873,4404.230957,4349.743652,4345.0,,,,,,,,,,,,,,,,,,,,,,,,,,,,,,,,,,,,,,,,,,,,,,,,,,,,,,,,,,,,,,,,,,,,,,
1768972326.272301,1768972326.27291,19.0,0.0,4290.641113,4278.205078,4276.410156,4288.205078,4275.512695,4275.641113,4278.717773,4286.538574,4267.179688,4281.794922,4345.641113,4405.641113,4342.05127,4345.512695,,,,,,,,,,,,,,,,,,,,,,,,,,,,,,,,,,,,,,,,,,,,,,,,,,,,,,,,,,,,,,,,,,,,,,
1768972326.28011,1768972326.280918,20.0,0.0,4294.871582,4280.641113,4276.666504,4288.589844,4267.820313,4274.487305,4279.871582,4289.871582,4266.282227,4283.333496,4347.94873,4407.05127,4343.717773,4348.846191,,,,,,,,,,,,,,,,,,,,,,,,,,,,,,,,,,,,,,,,,,,,,,,,,,,,,,,,,,,,,,,,,,,,,,
1768972326.287918,1768972326.288727,21.0,0.0,4286.153809,4277.05127,4276.025879,4285.641113,4267.436035,4272.05127,4275.769043,4284.615234,4266.538574,4281.666504,4341.410156,4399.871582,4338.333496,4342.820313,,,,,,,,,,,,,,,,,,,,,,,,,,,,,,,,,,,,,,,,,,,,,,,,,,,,,,,,,,,,,,,,,,,,,,
1768972326.295727,1768972326.296435,22.0,0.0,4279.358887,4275.897461,4274.487305,4281.666504,4268.974121,4265.384766,4272.307617,4274.615234,4258.717773,4276.538574,4334.102539,4390.0,4329.615234,4337.94873,,,,,,,,,,,,,,,,,,,,,,,,,,,,,,,,,,,,,,,,,,,,,,,,,,,,,,,,,,,,,,,,,,,,,,
1768972326.303535,1768972326.304244,23.0,0.0,4284.230957,4278.589844,4270.128418,4281.282227,4265.0,4260.897461,4271.794922,4276.794922,4256.025879,4275.128418,4333.846191,4387.563965,4332.307617,4338.717773,,,,,,,,,,,,,,,,,,,,,,,,,,,,,,,,,,,,,,,,,,,,,,,,,,,,,,,,,,,,,,,,,,,,,,
1768972326.311344,1768972326.311952,24.0,0.0,4288.333496,4278.846191,4271.538574,4286.025879,4265.897461,4265.128418,4274.102539,4282.05127,4259.487305,4279.102539,4338.717773,4395.128418,4337.179688,4340.0,,,,,,,,,,,,,,,,,,,,,,,,,,,,,,,,,,,,,,,,,,,,,,,,,,,,,,,,,,,,,,,,,,,,,,
1768972326.319152,1768972326.319761,25.0,0.0,4291.538574,4279.743652,4277.307617,4292.179688,4270.128418,4271.538574,4275.128418,4279.743652,4258.846191,4280.384766,4342.692383,4399.871582,4336.025879,4343.589844,,,,,,,,,,,,,,,,,,,,,,,,,,,,,,,,,,,,,,,,,,,,,,,,,,,,,,,,,,,,,,,,,,,,,,
1768972326.32696,1768972326.327469,26.0,0.0,4291.538574,4278.589844,4276.794922,4288.461426,4268.461426,4269.615234,4267.692383,4276.153809,4256.538574,4276.410156,4338.717773,4391.794922,4332.94873,4344.743652,,,,,,,,,,,,,,,,,,,,,,,,,,,,,,,,,,,,,,,,,,,,,,,,,,,,,,,,,,,,,,,,,,,,,,
1768972326.334769,1768972326.335278,27.0,0.0,4285.0,4269.487305,4272.179688,4278.974121,4263.846191,4263.589844,4261.666504,4277.307617,4253.846191,4272.820313,4333.846191,4385.256348,4328.846191,4341.025879,,,,,,,,,,,,,,,,,,,,,,,,,,,,,,,,,,,,,,,,,,,,,,,,,,,,,,,,,,,,,,,,,,,,,,
1768972326.342577,1768972326.343286,28.0,0.0,4284.487305,4267.436035,4273.077148,4281.410156,4261.922852,4264.743652,4271.794922,4282.563965,4258.589844,4275.384766,4335.0,4391.153809,4327.05127,4340.384766,,,,,,,,,,,,,,,,,,,,,,,,,,,,,,,,,,,,,,,,,,,,,,,,,,,,,,,,,,,,,,,,,,,,,,
1768972326.350386,1768972326.351094,29.0,0.0,4292.05127,4275.641113,4275.128418,4287.820313,4264.230957,4266.922852,4277.563965,4282.307617,4262.179688,4278.205078,4332.94873,4391.538574,4328.333496,4341.666504,,,,,,,,,,,,,,,,,,,,,,,,,,,,,,,,,,,,,,,,,,,,,,,,,,,,,,,,,,,,,,,,,,,,,,
1768972326.358194,1768972326.358803,30.0,0.0,4289.871582,4276.025879,4271.794922,4284.871582,4263.589844,4259.615234,4265.256348,4271.922852,4251.025879,4271.410156,4327.692383,4380.128418,4326.153809,4335.256348,0.376326,0.301657,0.121096,0.20514,0.138002,0.606254,0.130295,0.269955,0.101841,0.106587,0.335215,0.35147,0.143983,0.151369,0.104132,0.535851,0.453203,0.078302,0.105583,0.074232,0.222666,0.131187,0.07342,0.062762,0.071107,0.234576,0.083284,0.266253,0.137815,0.245229,0.196212,0.328659,0.303636,0.176144,0.27548,0.257176,0.205229,0.197982,0.098611,0.113055,0.373173,0.154939,0.216657,0.10538,0.07972,0.421806,0.189589,0.276827,0.127503,0.091084,0.44688,0.415508,0.234498,0.192732,0.116974,0.541958,0.432761,0.30669,0.295306,0.107087,0.346482,0.368493,0.477743,0.212993,0.144668,0.299279,0.337592,0.323022,0.305868,0.120743
1768972326.366003,1768972326.366611,31.0,0.0,4283.077148,4272.94873,4265.897461,4281.282227,4261.794922,4257.820313,4260.384766,4266.282227,4242.563965,4263.974121,4325.384766,4374.102539,4324.487305,4328.333496,,,,,,,,,,,,,,,,,,,,,,,,,,,,,,,,,,,,,,,,,,,,,,,,,,,,,,,,,,,,,,,,,,,,,,
1768972326.373811,1768972326.37422,32.0,0.0,4280.897461,4278.077148,4262.820313,4284.358887,4264.871582,4266.410156,4264.871582,4266.922852,4246.025879,4267.307617,4325.769043,4376.922852,4327.692383,4331.025879,,,,,,,,,,,,,,,,,,,,,,,,,,,,,,,,,,,,,,,,,,,,,,,,,,,,,,,,,,,,,,,,,,,,,,
1768972326.38162,1768972326.382028,33.0,0.0,4280.769043,4279.358887,4266.666504,4285.0,4266.922852,4266.666504,4263.589844,4266.153809,4247.05127,4274.102539,4326.410156,4378.077148,4327.692383,4331.794922,,,,,,,,,,,,,,,,,,,,,,,,,,,,,,,,,,,,,,,,,,,,,,,,,,,,,,,,,,,,,,,,,,,,,,
1768972326.389428,1768972326.389737,34.0,0.0,4288.717773,4276.025879,4271.025879,4286.410156,4265.128418,4263.846191,4263.589844,4269.743652,4246.922852,4275.0,4330.512695,4379.615234,4327.307617,4330.897461,,,,,,,,,,,,,,,,,,,,,,,,,,,,,,,,,,,,,,,,,,,,,,,,,,,,,,,,,,,,,,,,,,,,,,
1768972326.397236,1768972326.397545,35.0,0.0,4295.256348,4277.692383,4269.743652,4289.743652,4263.717773,4262.436035,4262.692383,4270.512695,4247.179688,4272.692383,4334.102539,4383.333496,4330.0,4335.0,,,,,,,,,,,,,,,,,,,,,,,,,,,,,,,,,,,,,,,,,,,,,,,,,,,,,,,,,,,,,,,,,,,,,,
1768972326.405045,1768972326.405554,36.0,0.0,4287.820313,4279.487305,4265.641113,4289.102539,4266.282227,4263.205078,4262.563965,4269.743652,4247.692383,4273.974121,4331.282227,4382.307617,4330.512695,4335.0,,,,,,,,,,,,,,,,,,,,,,,,,,,,,,,,,,,,,,,,,,,,,,,,,,,,,,,,,,,,,,,,,,,,,,
1768972326.412853,1768972326.413362,37.0,0.0,4279.230957,4278.333496,4263.205078,4290.512695,4268.589844,4275.384766,4279.102539,4278.461426,4255.0,4276.153809,4330.769043,4380.128418,4327.563965,4328.589844,,,,,,,,,,,,,,,,,,,,,,,,,,,,,,,,,,,,,,,,,,,,,,,,,,,,,,,,,,,,,,,,,,,,,,
1768972326.420662,1768972326.42127,38.0,0.0,4281.794922,4278.077148,4263.589844,4291.666504,4266.666504,4277.179688,4280.641113,4279.487305,4256.153809,4270.384766,4328.846191,4379.871582,4323.846191,4325.384766,,,,,,,,,,,,,,,,,,,,,,,,,,,,,,,,,,,,,,,,,,,,,,,,,,,,,,,,,,,,,,,,,,,,,,
1768972326.42847,1768972326.429079,39.0,0.0,4288.846191,4281.025879,4268.717773,4292.05127,4263.589844,4252.563965,4254.743652,4270.769043,4246.666504,4263.077148,4324.871582,4381.666504,4325.256348,4327.94873,,,,,,,,,,,,,,,,,,,,,,,,,,,,,,,,,,,,,,,,,,,,,,,,,,,,,,,,,,,,,,,,,,,,,,
1768972326.436279,1768972326.437087,40.0,0.0,4293.974121,4283.077148,4275.256348,4293.974121,4266.922852,4241.794922,4247.436035,4269.487305,4251.282227,4272.179688,4333.589844,4388.974121,4334.615234,4336.538574,,,,,,,,,,,,,,,,,,,,,,,,,,,,,,,,,,,,,,,,,,,,,,,,,,,,,,,,,,,,,,,,,,,,,,
1768972326.444087,1768972326.444896,41.0,0.0,4295.384766,4279.487305,4273.974121,4294.358887,4268.974121,4260.512695,4265.256348,4274.102539,4261.538574,4282.563965,4343.205078,4395.256348,4338.205078,4344.615234,,,,,,,,,,,,,,,,,,,,,,,,,,,,,,,,,,,,,,,,,,,,,,,,,,,,,,,,,,,,,,,,,,,,,,
1768972326.451895,1768972326.452604,42.0,0.0,4290.897461,4277.436035,4269.743652,4291.794922,4262.563965,4268.205078,4268.974121,4274.871582,4256.025879,4273.205078,4336.538574,4393.333496,4329.871582,4338.974121,,,,,,,,,,,,,,,,,,,,,,,,,,,,,,,,,,,,,,,,,,,,,,,,,,,,,,,,,,,,,,,,,,,,,,
1768972326.459704,1768972326.460413,43.0,0.0,4295.384766,4286.794922,4276.538574,4293.205078,4267.436035,4258.205078,4256.025879,4266.922852,4246.538574,4264.230957,4331.538574,4391.410156,4328.846191,4335.769043,,,,,,,,,,,,,,,,,,,,,,,,,,,,,,,,,,,,,,,,,,,,,,,,,,,,,,,,,,,,,,,,,,,,,,
1768972326.467512,1768972326.468421,44.0,0.0,4307.179688,4296.794922,4285.769043,4299.871582,4275.641113,4256.282227,4254.102539,4258.974121,4244.230957,4272.05127,4339.230957,4397.820313,4338.077148,4345.256348,,,,,,,,,,,,,,,,,,,,,,,,,,,,,,,,,,,,,,,,,,,,,,,,,,,,,,,,,,,,,,,,,,,,,,
1768972326.475321,1768972326.476229,45.0,0.0,4308.205078,4296.153809,4285.769043,4302.94873,4272.179688,4260.512695,4260.256348,4264.871582,4249.743652,4281.410156,4342.307617,4404.487305,4339.487305,4352.436035,,,,,,,,,,,,,,,,,,,,,,,,,,,,,,,,,,,,,,,,,,,,,,,,,,,,,,,,,,,,,,,,,,,,,,
1768972326.483129,1768972326.483938,46.0,0.0,4303.461426,4294.871582,4281.538574,4305.384766,4270.897461,4264.871582,4267.307617,4276.153809,4258.077148,4281.538574,4344.230957,4404.358887,4338.846191,4354.230957,0.50677,0.397978,0.118172,0.218789,0.146257,0.797025,0.165494,0.253385,0.10879,0.110383,0.528876,0.465798,0.130363,0.182143,0.106607,0.613279,0.571338,0.08485,0.119848,0.074528,0.296683,0.144367,0.085966,0.064542,0.076972,0.280077,0.095855,0.282461,0.129125,0.248924,0.250962,0.319101,0.339472,0.179314,0.26525,0.320065,0.249224,0.223246,0.115457,0.114263,0.375316,0.188193,0.209105,0.118386,0.083719,0.395655,0.20404,0.245319,0.135825,0.094284,0.619676,0.357579,0.223729,0.238282,0.11541,0.654189,0.468394,0.301205,0.33619,0.113407,0.333953,0.37631,0.431607,0.23749,0.156034,0.494021,0.376049,0.285653,0.331699,0.122367
1768972326.490938,1768972326.491746,47.0,0.0,4304.487305,4297.179688,4277.436035,4303.717773,4275.512695,4267.179688,4271.153809,4273.205078,4254.358887,4272.307617,4343.461426,4397.563965,4341.153809,4349.743652,,,,,,,,,,,,,,,,,,,,,,,,,,,,,,,,,,,,,,,,,,,,,,,,,,,,,,,,,,,,,,,,,,,,,,
1768972326.498746,1768972326.499754,48.0,0.0,4307.307617,4296.666504,4276.794922,4300.512695,4275.512695,4264.743652,4268.589844,4266.794922,4244.230957,4266.153809,4333.717773,4393.589844,4334.230957,4343.461426,,,,,,,,,,,,,,,,,,,,,,,,,,,,,,,,,,,,,,,,,,,,,,,,,,,,,,,,,,,,,,,,,,,,,,
1768972326.506554,1768972326.507563,49.0,0.0,4302.563965,4293.205078,4279.230957,4301.282227,4273.974121,4263.846191,4266.282227,4271.282227,4246.153809,4268.846191,4330.512695,4393.974121,4325.769043,4341.410156,,,,,,,,,,,,,,,,,,,,,,,,,,,,,,,,,,,,,,,,,,,,,,,,,,,,,,,,,,,,,,,,,,,,,,
1768972326.514363,1768972326.515271,50.0,0.0,4296.282227,4292.692383,4275.256348,4303.333496,4277.05127,4266.410156,4266.538574,4275.769043,4253.461426,4270.641113,4332.820313,4391.025879,4326.153809,4340.512695,,,,,,,,,,,,,,,,,,,,,,,,,,,,,,,,,,,,,,,,,,,,,,,,,,,,,,,,,,,,,,,,,,,,,,
1768972326.522171,1768972326.52308,51.0,0.0,4293.974121,4293.846191,4269.871582,4301.410156,4279.230957,4265.769043,4266.282227,4275.512695,4252.563965,4269.230957,4330.641113,4388.717773,4326.153809,4338.846191,,,,,,,,,,,,,,,,,,,,,,,,,,,,,,,,,,,,,,,,,,,,,,,,,,,,,,,,,,,,,,,,,,,,,,
1768972326.52998,1768972326.531088,52.0,0.0,4293.846191,4291.538574,4271.282227,4296.794922,4278.205078,4263.846191,4262.563965,4273.461426,4251.410156,4273.974121,4331.153809,4391.666504,4326.025879,4340.0,,,,,,,,,,,,,,,,,,,,,,,,,,,,,,,,,,,,,,,,,,,,,,,,,,,,,,,,,,,,,,,,,,,,,,
1768972326.537788,1768972326.538897,53.0,0.0,4297.563965,4292.05127,4270.897461,4298.974121,4275.384766,4264.487305,4260.256348,4272.05127,4251.410156,4277.307617,4336.025879,4394.358887,4329.487305,4338.589844,,,,,,,,,,,,,,,,,,,,,,,,,,,,,,,,,,,,,,,,,,,,,,,,,,,,,,,,,,,,,,,,,,,,,,
1768972326.545597,1768972326.546805,54.0,0.0,4295.384766,4292.307617,4268.974121,4300.256348,4276.025879,4262.94873,4265.0,4273.974121,4251.922852,4267.692383,4328.974121,4392.05127,4318.205078,4327.94873,,,,,,,,,,,,,,,,,,,,,,,,,,,,,,,,,,,,,,,,,,,,,,,,,,,,,,,,,,,,,,,,,,,,,,
1768972326.553405,1768972326.554613,55.0,0.0,4284.743652,4285.641113,4270.512695,4299.743652,4279.615234,4267.05127,4274.743652,4281.153809,4257.563965,4261.794922,4322.563965,4387.307617,4304.102539,4318.846191,,,,,,,,,,,,,,,,,,,,,,,,,,,,,,,,,,,,,,,,,,,,,,,,,,,,,,,,,,,,,,,,,,,,,,
1768972326.561214,1768972326.562222,56.0,0.0,4283.461426,4281.282227,4269.615234,4302.436035,4278.461426,4272.307617,4273.974121,4285.897461,4261.410156,4271.153809,4334.102539,4389.743652,4318.717773,4326.410156,,,,,,,,,,,,,,,,,,,,,,,,,,,,,,,,,,,,,,,,,,,,,,,,,,,,,,,,,,,,,,,,,,,,,,
1768972326.569022,1768972326.57003,57.0,0.0,4293.461426,4288.333496,4271.666504,4306.410156,4279.102539,4271.666504,4266.282227,4281.025879,4261.794922,4281.282227,4345.128418,4399.487305,4336.922852,4344.871582,,,,,,,,,,,,,,,,,,,,,,,,,,,,,,,,,,,,,,,,,,,,,,,,,,,,,,,,,,,,,,,,,,,,,,
1768972326.576831,1768972326.577739,58.0,0.0,4298.077148,4294.358887,4275.512695,4310.384766,4282.05127,4271.666504,4267.436035,4277.820313,4261.153809,4279.871582,4345.512695,4399.102539,4331.282227,4350.0,,,,,,,,,,,,,,,,,,,,,,,,,,,,,,,,,,,,,,,,,,,,,,,,,,,,,,,,,,,,,,,,,,,,,,
1768972326.584639,1768972326.585547,59.0,0.0,4295.256348,4286.282227,4270.0,4305.384766,4279.230957,4269.102539,4267.307617,4277.820313,4253.589844,4274.358887,4338.717773,4386.666504,4318.974121,4334.487305,,,,,,,,,,,,,,,,,,,,,,,,,,,,,,,,,,,,,,,,,,,,,,,,,,,,,,,,,,,,,,,,,,,,,,
1768972326.592447,1768972326.593556,60.0,0.0,4293.974121,4279.487305,4263.461426,4297.692383,4276.794922,4266.794922,4265.512695,4274.487305,4247.692383,4275.769043,4333.589844,4380.512695,4319.230957,4323.461426,,,,,,,,,,,,,,,,,,,,,,,,,,,,,,,,,,,,,,,,,,,,,,,,,,,,,,,,,,,,,,,,,,,,,,
1768972326.600256,1768972326.601364,61.0,0.0,4293.589844,4281.538574,4267.436035,4299.871582,4283.717773,4273.846191,4272.692383,4275.384766,4255.769043,4278.846191,4335.641113,4385.384766,4325.128418,4329.871582,,,,,,,,,,,,,,,,,,,,,,,,,,,,,,,,,,,,,,,,,,,,,,,,,,,,,,,,,,,,,,,,,,,,,,
1768972326.608064,1768972326.609273,62.0,0.0,4292.820313,4284.487305,4271.794922,4308.846191,4289.230957,4281.025879,4279.871582,4281.922852,4264.358887,4278.974121,4342.179688,4395.128418,4327.820313,4340.384766,0.747291,0.487597,0.123779,0.239904,0.158655,1.020881,0.204209,0.223498,0.120067,0.110686,0.905141,0.580117,0.124204,0.21333,0.106876,0.786164,0.660304,0.099204,0.132557,0.076804,0.503777,0.165007,0.101497,0.066387,0.082526,0.503704,0.121043,0.302944,0.123731,0.248055,0.569811,0.327256,0.399542,0.18568,0.248348,0.553076,0.341014,0.249966,0.134549,0.111432,0.456626,0.265602,0.188409,0.134406,0.089103,0.422229,0.270064,0.200665,0.146257,0.097878,0.993709,0.38791,0.212472,0.30207,0.115966,1.024376,0.539063,0.302005,0.376439,0.123355,0.39615,0.45414,0.361562,0.267001,0.168729,0.85269,0.46653,0.243469,0.375297,0.129387
1768972326.615873,1768972326.617081,63.0,0.0,4294.487305,4287.692383,4273.974121,4309.615234,4287.692383,4280.0,4280.641113,4284.615234,4263.717773,4280.512695,4343.077148,4401.282227,4327.692383,4342.563965,,,,,,,,,,,,,,,,,,,,,,,,,,,,,,,,,,,,,,,,,,,,,,,,,,,,,,,,,,,,,,,,,,,,,,
1768972326.623681,1768972326.625089,64.0,0.0,4299.487305,4293.589844,4278.461426,4309.358887,4287.94873,4278.333496,4281.153809,4284.230957,4265.512695,4285.0,4342.436035,4402.05127,4327.563965,4341.410156,,,,,,,,,,,,,,,,,,,,,,,,,,,,,,,,,,,,,,,,,,,,,,,,,,,,,,,,,,,,,,,,,,,,,,
1768972326.63149,1768972326.632898,65.0,0.0,4306.794922,4297.94873,4283.077148,4314.487305,4290.897461,4277.692383,4277.179688,4285.128418,4267.692383,4285.641113,4346.538574,4402.692383,4329.487305,4346.410156,,,,,,,,,,,,,,,,,,,,,,,,,,,,,,,,,,,,,,,,,,,,,,,,,,,,,,,,,,,,,,,,,,,,,,
1768972326.639298,1768972326.640806,66.0,0.0,4305.256348,4296.410156,4285.641113,4312.307617,4291.282227,4277.307617,4274.615234,4286.153809,4264.871582,4280.256348,4345.769043,4402.94873,4327.820313,4348.717773,,,,,,,,,,,,,,,,,,,,,,,,,,,,,,,,,,,,,,,,,,,,,,,,,,,,,,,,,,,,,,,,,,,,,,
1768972326.647107,1768972326.648614,67.0,0.0,4298.974121,4295.256348,4281.666504,4308.846191,4285.641113,4282.563965,4280.641113,4286.794922,4263.333496,4278.589844,4342.692383,4398.333496,4325.897461,4343.846191,,,,,,,,,,,,,,,,,,,,,,,,,,,,,,,,,,,,,,,,,,,,,,,,,,,,,,,,,,,,,,,,,,,,,,
1768972326.654915,1768972326.656323,68.0,0.0,4296.794922,4293.077148,4276.153809,4309.743652,4281.282227,4282.563965,4281.794922,4286.794922,4264.230957,4279.487305,4342.563965,4394.102539,4326.282227,4341.282227,,,,,,,,,,,,,,,,,,,,,,,,,,,,,,,,,,,,,,,,,,,,,,,,,,,,,,,,,,,,,,,,,,,,,,
1768972326.662723,1768972326.664131,69.0,0.0,4297.692383,4290.897461,4277.692383,4308.974121,4285.128418,4277.436035,4277.179688,4285.769043,4263.077148,4277.820313,4341.538574,4395.769043,4325.897461,4343.717773,,,,,,,,,,,,,,,,,,,,,,,,,,,,,,,,,,,,,,,,,,,,,,,,,,,,,,,,,,,,,,,,,,,,,,
1768972326.670532,1768972326.67184,70.0,0.0,4301.666504,4293.077148,4282.179688,4308.077148,4288.461426,4276.794922,4280.769043,4286.153809,4260.641113,4278.205078,4341.410156,4398.205078,4326.025879,4345.128418,,,,,,,,,,,,,,,,,,,,,,,,,,,,,,,,,,,,,,,,,,,,,,,,,,,,,,,,,,,,,,,,,,,,,,
1768972326.67834,1768972326.679648,71.0,0.0,4301.794922,4295.384766,4282.436035,4308.717773,4286.153809,4285.128418,4289.102539,4287.692383,4261.538574,4280.512695,4343.461426,4398.589844,4327.436035,4344.743652,,,,,,,,,,,,,,,,,,,,,,,,,,,,,,,,,,,,,,,,,,,,,,,,,,,,,,,,,,,,,,,,,,,,,,
1768972326.686149,1768972326.687257,72.0,0.0,4297.05127,4294.615234,4283.077148,4308.461426,4288.077148,4288.205078,4286.538574,4287.436035,4264.487305,4279.871582,4343.846191,4394.102539,4325.769043,4341.538574,,,,,,,,,,,,,,,,,,,,,,,,,,,,,,,,,,,,,,,,,,,,,,,,,,,,,,,,,,,,,,,,,,,,,,
1768972326.693957,1768972326.695066,73.0,0.0,4294.487305,4288.589844,4283.333496,4304.487305,4293.205078,4280.512695,4278.717773,4283.461426,4261.410156,4278.846191,4341.153809,4390.128418,4318.077148,4333.589844,,,,,,,,,,,,,,,,,,,,,,,,,,,,,,,,,,,,,,,,,,,,,,,,,,,,,,,,,,,,,,,,,,,,,,
1768972326.701766,1768972326.702774,74.0,0.0,4291.666504,4280.769043,4276.282227,4297.820313,4292.692383,4285.641113,4285.897461,4284.871582,4260.641113,4277.94873,4338.589844,4393.717773,4308.974121,4326.153809,,,,,,,,,,,,,,,,,,,,,,,,,,,,,,,,,,,,,,,,,,,,,,,,,,,,,,,,,,,,,,,,,,,,,,
1768972326.709574,1768972326.710583,75.0,0.0,4288.717773,4281.025879,4271.410156,4291.666504,4292.179688,4296.282227,4292.692383,4295.641113,4272.820313,4277.563965,4337.820313,4394.487305,4308.717773,4325.641113,,,,,,,,,,,,,,,,,,,,,,,,,,,,,,,,,,,,,,,,,,,,,,,,,,,,,,,,,,,,,,,,,,,,,,
1768972326.717383,1768972326.718191,76.0,0.0,4292.563965,4291.025879,4276.538574,4296.282227,4293.205078,4290.256348,4284.487305,4299.102539,4280.641113,4285.384766,4347.820313,4392.94873,4323.846191,4335.0,,,,,,,,,,,,,,,,,,,,,,,,,,,,,,,,,,,,,,,,,,,,,,,,,,,,,,,,,,,,,,,,,,,,,,
1768972326.725191,1768972326.726,77.0,0.0,4296.794922,4298.461426,4281.282227,4305.0,4290.256348,4276.282227,4278.846191,4291.410156,4272.307617,4295.769043,4357.820313,4398.589844,4336.410156,4345.769043,,,,,,,,,,,,,,,,,,,,,,,,,,,,,,,,,,,,,,,,,,,,,,,,,,,,,,,,,,,,,,,,,,,,,,
1768972326.732999,1768972326.733908,78.0,0.0,4294.230957,4296.794922,4276.538574,4303.846191,4288.461426,4277.820313,4280.641113,4285.641113,4263.589844,4293.333496,4350.384766,4402.820313,4330.128418,4342.820313,1.086852,0.548718,0.142476,0.257714,0.176188,1.299631,0.237546,0.18505,0.132806,0.109198,1.420982,0.661704,0.131996,0.234442,0.105672,1.075632,0.696383,0.117732,0.139637,0.080302,0.824469,0.191173,0.115613,0.067202,0.086316,0.888415,0.154023,0.336032,0.122964,0.244702,1.11573,0.344506,0.485239,0.193603,0.231789,0.960538,0.457093,0.281949,0.152247,0.106445,0.610309,0.375012,0.163435,0.151693,0.096401,0.505002,0.374185,0.15942,0.158003,0.102018,1.566728,0.501979,0.20974,0.368173,0.116853,1.611915,0.634998,0.310056,0.401253,0.134865,0.539967,0.595954,0.292402,0.292778,0.178943,1.367174,0.596757,0.214705,0.419128,0.139092
1768972326.740808,1768972326.741716,79.0,0.0,4293.589844,4296.025879,4271.153809,4301.538574,4291.666504,4290.0,4283.205078,4285.0,4262.820313,4284.102539,4340.897461,4396.025879,4318.589844,4331.282227,,,,,,,,,,,,,,,,,,,,,,,,,,,,,,,,,,,,,,,,,,,,,,,,,,,,,,,,,,,,,,,,,,,,,,
1768972326.748616,1768972326.749725,80.0,0.0,4293.974121,4297.179688,4272.436035,4303.846191,4295.0,4288.333496,4285.256348,4285.641113,4262.563965,4280.256348,4341.153809,4387.692383,4317.820313,4327.436035,,,,,,,,,,,,,,,,,,,,,,,,,,,,,,,,,,,,,,,,,,,,,,,,,,,,,,,,,,,,,,,,,,,,,,
1768972326.756425,1768972326.757533,81.0,0.0,4292.436035,4297.179688,4276.025879,4303.974121,4293.974121,4282.436035,4284.743652,4286.794922,4260.512695,4281.153809,4343.205078,4391.410156,4321.922852,4332.436035,,,,,,,,,,,,,,,,,,,,,,,,,,,,,,,,,,,,,,,,,,,,,,,,,,,,,,,,,,,,,,,,,,,,,,
1768972326.764233,1768972326.765441,82.0,0.0,4296.410156,4301.282227,4281.025879,4306.025879,4294.230957,4288.974121,4281.153809,4286.538574,4264.102539,4285.641113,4346.666504,4402.179688,4325.641113,4338.333496,,,,,,,,,,,,,,,,,,,,,,,,,,,,,,,,,,,,,,,,,,,,,,,,,,,,,,,,,,,,,,,,,,,,,,
1768972326.772042,1768972326.77325,83.0,0.0,4304.358887,4306.922852,4285.897461,4311.666504,4298.205078,4295.769043,4284.487305,4288.846191,4270.0,4292.307617,4352.563965,4407.820313,4327.94873,4341.922852,,,,,,,,,,,,,,,,,,,,,,,,,,,,,,,,,,,,,,,,,,,,,,,,,,,,,,,,,,,,,,,,,,,,,,
1768972326.77985,1768972326.780859,84.0,0.0,4306.410156,4306.153809,4284.230957,4310.256348,4297.05127,4291.666504,4293.589844,4297.179688,4269.743652,4289.487305,4349.615234,4405.256348,4324.230957,4340.384766,,,,,,,,,,,,,,,,,,,,,,,,,,,,,,,,,,,,,,,,,,,,,,,,,,,,,,,,,,,,,,,,,,,,,,
1768972326.787659,1768972326.788667,85.0,0.0,4304.743652,4303.077148,4280.641113,4308.205078,4296.025879,4290.256348,4293.717773,4297.94873,4265.769043,4281.153809,4342.436035,4401.025879,4322.05127,4338.077148,,,,,,,,,,,,,,,,,,,,,,,,,,,,,,,,,,,,,,,,,,,,,,,,,,,,,,,,,,,,,,,,,,,,,,
1768972326.795467,1768972326.796376,86.0,0.0,4308.333496,4306.025879,4285.0,4311.794922,4297.94873,4293.589844,4287.94873,4292.563965,4265.641113,4281.794922,4346.025879,4405.0,4326.025879,4343.717773,,,,,,,,,,,,,,,,,,,,,,,,,,,,,,,,,,,,,,,,,,,,,,,,,,,,,,,,,,,,,,,,,,,,,,
1768972326.803275,1768972326.804184,87.0,0.0,4312.05127,4310.897461,4290.897461,4313.077148,4296.153809,4290.641113,4288.077148,4293.589844,4270.0,4287.179688,4354.102539,4413.077148,4329.487305,4352.692383,,,,,,,,,,,,,,,,,,,,,,,,,,,,,,,,,,,,,,,,,,,,,,,,,,,,,,,,,,,,,,,,,,,,,,
1768972326.811084,1768972326.812192,88.0,0.0,4309.615234,4310.256348,4291.666504,4311.282227,4298.077148,4291.794922,4293.077148,4298.589844,4276.410156,4289.615234,4356.025879,4412.563965,4328.333496,4353.333496,,,,,,,,,,,,,,,,,,,,,,,,,,,,,,,,,,,,,,,,,,,,,,,,,,,,,,,,,,,,,,,,,,,,,,
1768972326.818892,1768972326.820001,89.0,0.0,4307.820313,4312.05127,4291.922852,4312.179688,4305.384766,4299.230957,4292.94873,4300.641113,4279.743652,4289.871582,4353.846191,4408.333496,4326.153809,4349.743652,,,,,,,,,,,,,,,,,,,,,,,,,,,,,,,,,,,,,,,,,,,,,,,,,,,,,,,,,,,,,,,,,,,,,,
1768972326.826701,1768972326.827909,90.0,0.0,4313.205078,4319.102539,4293.461426,4317.179688,4308.589844,4304.871582,4294.743652,4300.256348,4275.384766,4287.692383,4354.615234,4413.974121,4327.436035,4350.256348,,,,,,,,,,,,,,,,,,,,,,,,,,,,,,,,,,,,,,,,,,,,,,,,,,,,,,,,,,,,,,,,,,,,,,
1768972326.834509,1768972326.835717,91.0,0.0,4320.641113,4318.461426,4297.563965,4324.615234,4308.717773,4300.641113,4301.025879,4302.94873,4275.384766,4289.358887,4357.94873,4425.128418,4328.077148,4355.897461,,,,,,,,,,,,,,,,,,,,,,,,,,,,,,,,,,,,,,,,,,,,,,,,,,,,,,,,,,,,,,,,,,,,,,
1768972326.842317,1768972326.843726,92.0,0.0,4319.102539,4311.538574,4302.436035,4326.025879,4311.410156,4293.333496,4297.94873,4302.307617,4279.230957,4295.0,4358.974121,4430.256348,4328.461426,4358.717773,,,,,,,,,,,,,,,,,,,,,,,,,,,,,,,,,,,,,,,,,,,,,,,,,,,,,,,,,,,,,,,,,,,,,,
1768972326.850126,1768972326.851534,93.0,0.0,4308.205078,4309.871582,4295.641113,4316.922852,4310.128418,4294.358887,4289.615234,4294.102539,4272.307617,4291.922852,4357.179688,4425.512695,4328.333496,4352.820313,,,,,,,,,,,,,,,,,,,,,,,,,,,,,,,,,,,,,,,,,,,,,,,,,,,,,,,,,,,,,,,,,,,,,,
1768972326.857934,1768972326.859243,94.0,0.0,4303.717773,4310.897461,4285.384766,4312.307617,4307.563965,4294.743652,4290.128418,4287.94873,4262.692383,4287.436035,4354.230957,4418.333496,4326.282227,4346.410156,1.440375,0.565321,0.173391,0.264081,0.196677,1.560291,0.260982,0.143737,0.144023,0.107483,1.977299,0.684785,0.153656,0.239511,0.10376,1.431947,0.668822,0.135639,0.139779,0.083654,1.226308,0.218396,0.123136,0.066056,0.087634,1.405918,0.187288,0.381385,0.127483,0.242954,1.83888,0.359338,0.584572,0.200494,0.223238,1.494074,0.561929,0.321071,0.16474,0.103104,0.865002,0.486093,0.146332,0.168985,0.106342,0.665661,0.483521,0.134425,0.171149,0.107798,2.221524,0.653494,0.219285,0.418355,0.117426,2.379359,0.723611,0.326284,0.402785,0.145476,0.76084,0.760942,0.240907,0.307379,0.184827,1.929374,0.727826,0.208412,0.45129,0.149989
1768972326.865743,1768972326.867051,95.0,0.0,4310.897461,4310.0,4289.358887,4320.128418,4310.256348,4294.487305,4296.794922,4292.94873,4266.025879,4293.077148,4355.769043,4421.410156,4331.025879,4352.563965,,,,,,,,,,,,,,,,,,,,,,,,,,,,,,,,,,,,,,,,,,,,,,,,,,,,,,,,,,,,,,,,,,,,,,
1768972326.873551,1768972326.87466,96.0,0.0,4315.769043,4311.282227,4294.615234,4323.846191,4311.025879,4297.436035,4298.846191,4299.615234,4276.538574,4297.692383,4360.384766,4426.282227,4336.282227,4358.974121,,,,,,,,,,,,,,,,,,,,,,,,,,,,,,,,,,,,,,,,,,,,,,,,,,,,,,,,,,,,,,,,,,,,,,
1768972326.88136,1768972326.882468,97.0,0.0,4307.563965,4310.897461,4288.589844,4314.102539,4307.179688,4294.358887,4292.05127,4295.256348,4277.436035,4293.717773,4358.589844,4419.358887,4331.025879,4352.563965,,,,,,,,,,,,,,,,,,,,,,,,,,,,,,,,,,,,,,,,,,,,,,,,,,,,,,,,,,,,,,,,,,,,,,
1768972326.889168,1768972326.890177,98.0,0.0,4296.282227,4309.230957,4282.563965,4305.641113,4301.282227,4290.897461,4288.333496,4289.743652,4272.436035,4290.769043,4353.205078,4414.102539,4324.871582,4346.538574,,,,,,,,,,,,,,,,,,,,,,,,,,,,,,,,,,,,,,,,,,,,,,,,,,,,,,,,,,,,,,,,,,,,,,
1768972326.896977,1768972326.897985,99.0,0.0,4298.205078,4310.384766,4286.538574,4312.307617,4302.05127,4298.846191,4299.230957,4294.615234,4274.102539,4291.025879,4357.436035,4420.0,4328.077148,4348.846191,,,,,,,,,,,,,,,,,,,,,,,,,,,,,,,,,,,,,,,,,,,,,,,,,,,,,,,,,,,,,,,,,,,,,,
1768972326.904785,1768972326.905594,100.0,0.0,4306.922852,4311.282227,4292.307617,4320.0,4302.692383,4302.179688,4304.615234,4301.666504,4277.05127,4290.641113,4361.666504,4422.692383,4328.205078,4350.641113,,,,,,,,,,,,,,,,,,,,,,,,,,,,,,,,,,,,,,,,,,,,,,,,,,,,,,,,,,,,,,,,,,,,,,
1768972326.912593,1768972326.913402,101.0,0.0,4308.077148,4312.05127,4293.589844,4315.256348,4298.461426,4299.358887,4297.563965,4300.256348,4275.512695,4291.666504,4359.358887,4422.05127,4326.410156,4353.461426,,,,,,,,,,,,,,,,,,,,,,,,,,,,,,,,,,,,,,,,,,,,,,,,,,,,,,,,,,,,,,,,,,,,,,
1768972326.920402,1768972326.921111,102.0,0.0,4307.179688,4312.179688,4294.743652,4308.846191,4301.922852,4301.410156,4295.0,4296.794922,4275.641113,4293.333496,4364.102539,4425.0,4333.846191,4357.692383,,,,,,,,,,,,,,,,,,,,,,,,,,,,,,,,,,,,,,,,,,,,,,,,,,,,,,,,,,,,,,,,,,,,,,
1768972326.92821,1768972326.928919,103.0,0.0,4309.358887,4312.307617,4296.410156,4314.358887,4309.871582,4301.410156,4295.256348,4299.871582,4277.94873,4293.461426,4368.077148,4425.512695,4335.512695,4355.769043,,,,,,,,,,,,,,,,,,,,,,,,,,,,,,,,,,,,,,,,,,,,,,,,,,,,,,,,,,,,,,,,,,,,,,
1768972326.936019,1768972326.936928,104.0,0.0,4311.410156,4317.692383,4297.94873,4322.94873,4307.692383,4303.717773,4297.692383,4301.538574,4281.282227,4296.666504,4359.230957,4421.666504,4327.307617,4350.641113,,,,,,,,,,,,,,,,,,,,,,,,,,,,,,,,,,,,,,,,,,,,,,,,,,,,,,,,,,,,,,,,,,,,,,
1768972326.943827,1768972326.944736,105.0,0.0,4310.641113,4321.410156,4298.846191,4321.666504,4303.846191,4311.666504,4305.0,4301.922852,4284.743652,4300.769043,4358.077148,4419.230957,4327.307617,4351.410156,,,,,,,,,,,,,,,,,,,,,,,,,,,,,,,,,,,,,,,,,,,,,,,,,,,,,,,,,,,,,,,,,,,,,,
1768972326.951636,1768972326.952644,106.0,0.0,4309.102539,4320.0,4296.410156,4317.307617,4309.358887,4310.384766,4304.358887,4304.358887,4284.487305,4301.922852,4367.563965,4421.025879,4337.05127,4360.0,,,,,,,,,,,,,,,,,,,,,,,,,,,,,,,,,,,,,,,,,,,,,,,,,,,,,,,,,,,,,,,,,,,,,,
1768972326.959444,1768972326.960453,107.0,0.0,4310.0,4322.820313,4297.94873,4322.436035,4312.307617,4307.692383,4301.794922,4306.410156,4282.94873,4304.743652,4364.358887,4423.589844,4336.538574,4359.102539,,,,,,,,,,,,,,,,,,,,,,,,,,,,,,,,,,,,,,,,,,,,,,,,,,,,,,,,,,,,,,,,,,,,,,
1768972326.967253,1768972326.968061,108.0,0.0,4308.974121,4322.820313,4307.563965,4324.743652,4308.461426,4310.256348,4307.692383,4308.717773,4281.922852,4303.589844,4356.410156,4421.282227,4322.820313,4342.692383,,,,,,,,,,,,,,,,,,,,,,,,,,,,,,,,,,,,,,,,,,,,,,,,,,,,,,,,,,,,,,,,,,,,,,
1768972326.975061,1768972326.97587,109.0,0.0,4304.871582,4314.102539,4308.717773,4315.512695,4306.282227,4303.717773,4303.461426,4308.333496,4279.615234,4295.897461,4359.871582,4418.589844,4322.563965,4340.0,,,,,,,,,,,,,,,,,,,,,,,,,,,,,,,,,,,,,,,,,,,,,,,,,,,,,,,,,,,,,,,,,,,,,,
1768972326.98287,1768972326.983578,110.0,0.0,4307.307617,4312.94873,4299.230957,4312.692383,4307.307617,4300.769043,4296.153809,4308.077148,4282.436035,4297.563965,4369.871582,4426.794922,4338.077148,4359.358887,1.752455,0.534895,0.209024,0.258351,0.214548,1.773477,0.277588,0.107029,0.153203,0.106097,2.441529,0.64423,0.182955,0.228452,0.101617,1.768257,0.587837,0.149768,0.135606,0.085703,1.58298,0.238986,0.122799,0.062634,0.086549,1.874716,0.212443,0.428044,0.136854,0.245996,2.484251,0.362555,0.671519,0.20436,0.227106,1.978093,0.623046,0.36242,0.168802,0.104489,1.103943,0.565241,0.144931,0.184529,0.11893,0.830734,0.559993,0.128658,0.186902,0.115648,2.788854,0.77957,0.237654,0.440512,0.117459,3.098957,0.770737,0.348568,0.382668,0.153345,1.009888,0.891635,0.212079,0.312598,0.187293,2.460841,0.817652,0.221736,0.472656,0.160806
1768972326.990678,1768972326.991387,111.0,0.0,4317.05127,4323.333496,4301.153809,4321.153809,4311.538574,4311.282227,4303.846191,4309.230957,4289.102539,4308.974121,4377.05127,4435.384766,4346.794922,4370.641113,,,,,,,,,,,,,,,,,,,,,,,,,,,,,,,,,,,,,,,,,,,,,,,,,,,,,,,,,,,,,,,,,,,,,,
1768972326.998486,1768972326.999395,112.0,0.0,4321.794922,4328.717773,4312.692383,4325.256348,4314.358887,4312.436035,4311.794922,4312.94873,4290.384766,4310.769043,4377.692383,4434.743652,4343.333496,4368.461426,,,,,,,,,,,,,,,,,,,,,,,,,,,,,,,,,,,,,,,,,,,,,,,,,,,,,,,,,,,,,,,,,,,,,,
1768972327.006295,1768972327.007204,113.0,0.0,4320.0,4326.282227,4312.94873,4322.179688,4311.410156,4307.307617,4309.230957,4312.820313,4288.589844,4307.436035,4374.871582,4435.384766,4339.230957,4368.846191,,,,,,,,,,,,,,,,,,,,,,,,,,,,,,,,,,,,,,,,,,,,,,,,,,,,,,,,,,,,,,,,,,,,,,
1768972327.014103,1768972327.015112,114.0,0.0,4318.846191,4326.153809,4305.384766,4321.153809,4308.717773,4308.589844,4301.282227,4308.974121,4289.871582,4310.769043,4373.333496,4436.025879,4338.461426,4365.128418,,,,,,,,,,,,,,,,,,,,,,,,,,,,,,,,,,,,,,,,,,,,,,,,,,,,,,,,,,,,,,,,,,,,,,
1768972327.021912,1768972327.02292,115.0,0.0,4318.974121,4328.461426,4305.641113,4322.179688,4311.025879,4310.0,4299.102539,4314.102539,4295.512695,4313.077148,4375.128418,4435.384766,4335.0,4359.743652,,,,,,,,,,,,,,,,,,,,,,,,,,,,,,,,,,,,,,,,,,,,,,,,,,,,,,,,,,,,,,,,,,,,,,
1768972327.02972,1768972327.030929,116.0,0.0,4318.846191,4328.589844,4309.230957,4322.436035,4308.974121,4308.717773,4305.769043,4316.794922,4297.05127,4310.256348,4373.846191,4437.307617,4329.358887,4360.0,,,,,,,,,,,,,,,,,,,,,,,,,,,,,,,,,,,,,,,,,,,,,,,,,,,,,,,,,,,,,,,,,,,,,,
1768972327.037529,1768972327.038737,117.0,0.0,4316.666504,4326.922852,4306.410156,4321.666504,4308.077148,4310.769043,4311.025879,4310.897461,4290.512695,4307.563965,4372.563965,4437.563965,4327.436035,4358.717773,,,,,,,,,,,,,,,,,,,,,,,,,,,,,,,,,,,,,,,,,,,,,,,,,,,,,,,,,,,,,,,,,,,,,,
1768972327.045337,1768972327.046446,118.0,0.0,4315.769043,4324.230957,4304.487305,4319.102539,4313.717773,4311.153809,4310.512695,4312.692383,4289.358887,4308.846191,4376.922852,4437.94873,4335.0,4362.436035,,,,,,,,,,,,,,,,,,,,,,,,,,,,,,,,,,,,,,,,,,,,,,,,,,,,,,,,,,,,,,,,,,,,,,
1768972327.053146,1768972327.054254,119.0,0.0,4320.769043,4326.666504,4306.666504,4320.256348,4317.179688,4306.410156,4308.717773,4317.820313,4295.0,4309.358887,4381.410156,4439.358887,4343.461426,4370.256348,,,,,,,,,,,,,,,,,,,,,,,,,,,,,,,,,,,,,,,,,,,,,,,,,,,,,,,,,,,,,,,,,,,,,,
1768972327.060954,1768972327.061863,120.0,0.0,4322.820313,4333.461426,4306.538574,4323.205078,4316.025879,4305.512695,4308.974121,4313.589844,4294.358887,4308.077148,4381.794922,4436.025879,4341.538574,4367.692383,,,,,,,,,,,,,,,,,,,,,,,,,,,,,,,,,,,,,,,,,,,,,,,,,,,,,,,,,,,,,,,,,,,,,,
1768972327.068762,1768972327.069671,121.0,0.0,4315.897461,4332.179688,4303.333496,4321.794922,4319.743652,4315.897461,4315.256348,4314.743652,4291.025879,4308.846191,4381.025879,4433.077148,4337.692383,4364.871582,,,,,,,,,,,,,,,,,,,,,,,,,,,,,,,,,,,,,,,,,,,,,,,,,,,,,,,,,,,,,,,,,,,,,,
1768972327.076571,1768972327.07738,122.0,0.0,4309.871582,4327.820313,4300.769043,4318.717773,4322.563965,4321.922852,4319.230957,4323.846191,4291.666504,4308.461426,4383.333496,4435.384766,4335.897461,4365.384766,,,,,,,,,,,,,,,,,,,,,,,,,,,,,,,,,,,,,,,,,,,,,,,,,,,,,,,,,,,,,,,,,,,,,,
1768972327.084379,1768972327.085188,123.0,0.0,4313.077148,4331.538574,4302.820313,4319.102539,4315.128418,4314.487305,4316.538574,4320.641113,4293.589844,4304.102539,4382.692383,4433.974121,4333.461426,4361.025879,,,,,,,,,,,,,,,,,,,,,,,,,,,,,,,,,,,,,,,,,,,,,,,,,,,,,,,,,,,,,,,,,,,,,,
1768972327.092188,1768972327.092797,124.0,0.0,4313.333496,4335.897461,4310.0,4319.487305,4312.692383,4311.666504,4316.922852,4315.769043,4294.230957,4303.589844,4381.282227,4430.256348,4334.230957,4359.871582,,,,,,,,,,,,,,,,,,,,,,,,,,,,,,,,,,,,,,,,,,,,,,,,,,,,,,,,,,,,,,,,,,,,,,
1768972327.099996,1768972327.100605,125.0,0.0,4310.769043,4336.666504,4313.846191,4317.692383,4317.563965,4315.512695,4316.794922,4320.0,4291.794922,4306.666504,4382.820313,4433.461426,4335.0,4364.230957,,,,,,,,,,,,,,,,,,,,,,,,,,,,,,,,,,,,,,,,,,,,,,,,,,,,,,,,,,,,,,,,,,,,,,
1768972327.107805,1768972327.108314,126.0,0.0,4317.94873,4341.410156,4311.922852,4320.0,4314.615234,4310.769043,4310.897461,4316.410156,4288.077148,4300.897461,4382.94873,4438.461426,4330.0,4363.461426,1.944806,0.470175,0.238793,0.246309,0.2237,1.862282,0.29131,0.082351,0.161754,0.104532,2.68088,0.555605,0.210231,0.207068,0.099715,1.977986,0.479173,0.158749,0.131305,0.086554,1.788826,0.249654,0.11701,0.057329,0.08344,2.145106,0.223746,0.45973,0.14978,0.25371,2.860954,0.349394,0.716727,0.204687,0.242145,2.257908,0.624894,0.396017,0.163985,0.111239,1.256939,0.594218,0.161441,0.197262,0.132831,0.94985,0.577094,0.13613,0.20729,0.125075,3.064325,0.831277,0.257693,0.434067,0.117466,3.594266,0.758027,0.374153,0.349316,0.158144,1.207819,0.939515,0.203856,0.318189,0.189499,2.815822,0.836747,0.245211,0.491697,0.171362
1768972327.115613,1768972327.116122,127.0,0.0,4326.282227,4344.358887,4311.794922,4323.974121,4311.153809,4312.563965,4313.846191,4310.769043,4289.871582,4296.666504,4383.205078,4440.641113,4325.769043,4364.102539,,,,,,,,,,,,,,,,,,,,,,,,,,,,,,,,,,,,,,,,,,,,,,,,,,,,,,,,,,,,,,,,,,,,,,
1768972327.123422,1768972327.123731,0.0,0.0,4324.487305,4342.307617,4316.025879,4325.256348,4316.922852,4323.077148,4323.974121,4317.179688,4294.743652,4303.846191,4385.641113,4444.487305,4327.820313,4367.436035,,,,,,,,,,,,,,,,,,,,,,,,,,,,,,,,,,,,,,,,,,,,,,,,,,,,,,,,,,,,,,,,,,,,,,
1768972327.13123,1768972327.131539,1.0,0.0,4322.692383,4343.333496,4318.589844,4327.05127,4323.461426,4323.205078,4325.384766,4321.410156,4293.846191,4308.333496,4388.333496,4449.358887,4326.794922,4365.0,,,,,,,,,,,,,,,,,,,,,,,,,,,,,,,,,,,,,,,,,,,,,,,,,,,,,,,,,,,,,,,,,,,,,,
1768972327.139038,1768972327.139448,2.0,0.0,4325.769043,4343.846191,4319.358887,4327.692383,4323.461426,4321.538574,4326.666504,4321.282227,4296.282227,4308.333496,4388.846191,4452.94873,4329.102539,4368.974121,,,,,,,,,,,,,,,,,,,,,,,,,,,,,,,,,,,,,,,,,,,,,,,,,,,,,,,,,,,,,,,,,,,,,,
1768972327.146847,1768972327.147256,3.0,0.0,4327.307617,4342.436035,4319.230957,4325.512695,4317.692383,4320.256348,4323.333496,4323.205078,4303.461426,4310.897461,4390.256348,4454.102539,4338.461426,4376.410156,,,,,,,,,,,,,,,,,,,,,,,,,,,,,,,,,,,,,,,,,,,,,,,,,,,,,,,,,,,,,,,,,,,,,,
1768972327.154655,1768972327.155264,4.0,0.0,4327.05127,4343.974121,4317.436035,4324.230957,4313.846191,4311.025879,4312.692383,4317.820313,4298.205078,4312.692383,4393.205078,4451.666504,4342.179688,4372.94873,,,,,,,,,,,,,,,,,,,,,,,,,,,,,,,,,,,,,,,,,,,,,,,,,,,,,,,,,,,,,,,,,,,,,,
1768972327.162464,1768972327.163073,5.0,0.0,4327.179688,4347.563965,4316.538574,4325.512695,4321.025879,4315.641113,4316.794922,4313.333496,4292.05127,4312.820313,4392.94873,4449.358887,4339.871582,4368.717773,,,,,,,,,,,,,,,,,,,,,,,,,,,,,,,,,,,,,,,,,,,,,,,,,,,,,,,,,,,,,,,,,,,,,,
1768972327.170272,1768972327.170781,6.0,0.0,4327.307617,4349.358887,4318.717773,4327.05127,4329.871582,4329.230957,4327.179688,4321.922852,4302.179688,4318.333496,4397.820313,4451.410156,4340.512695,4372.563965,,,,,,,,,,,,,,,,,,,,,,,,,,,,,,,,,,,,,,,,,,,,,,,,,,,,,,,,,,,,,,,,,,,,,,
1768972327.17808,1768972327.17859,7.0,0.0,4327.692383,4354.743652,4321.410156,4328.717773,4328.461426,4328.717773,4321.666504,4329.615234,4312.307617,4325.256348,4410.256348,4456.922852,4348.461426,4376.794922,,,,,,,,,,,,,,,,,,,,,,,,,,,,,,,,,,,,,,,,,,,,,,,,,,,,,,,,,,,,,,,,,,,,,,
1768972327.185889,1768972327.186199,8.0,0.0,4327.436035,4358.205078,4323.205078,4329.230957,4325.0,4326.410156,4318.717773,4327.692383,4311.282227,4322.94873,4411.282227,4457.179688,4350.512695,4375.0,,,,,,,,,,,,,,,,,,,,,,,,,,,,,,,,,,,,,,,,,,,,,,,,,,,,,,,,,,,,,,,,,,,,,,
1768972327.193697,1768972327.194007,9.0,0.0,4326.025879,4353.333496,4320.897461,4326.794922,4329.102539,4330.897461,4327.436035,4327.436035,4309.615234,4317.307617,4401.025879,4450.769043,4342.563965,4371.410156,,,,,,,,,,,,,,,,,,,,,,,,,,,,,,,,,,,,,,,,,,,,,,,,,,,,,,,,,,,,,,,,,,,,,,
1768972327.201506,1768972327.201915,10.0,0.0,4326.153809,4349.102539,4318.717773,4325.128418,4332.307617,4326.922852,4326.794922,4330.641113,4312.692383,4321.153809,4402.436035,4450.641113,4343.077148,4372.05127,,,,,,,,,,,,,,,,,,,,,,,,,,,,,,,,,,,,,,,,,,,,,,,,,,,,,,,,,,,,,,,,,,,,,,
1768972327.209314,1768972327.209724,11.0,0.0,4328.461426,4352.436035,4321.922852,4327.563965,4331.153809,4325.0,4326.794922,4335.0,4319.230957,4330.128418,4415.128418,4458.589844,4353.077148,4380.512695,,,,,,,,,,,,,,,,,,,,,,,,,,,,,,,,,,,,,,,,,,,,,,,,,,,,,,,,,,,,,,,,,,,,,,
1768972327.217123,1768972327.217732,12.0,0.0,4328.846191,4355.0,4321.282227,4328.846191,4331.282227,4333.589844,4335.512695,4337.05127,4320.128418,4326.666504,4411.666504,4458.717773,4350.384766,4383.205078,,,,,,,,,,,,,,,,,,,,,,,,,,,,,,,,,,,,,,,,,,,,,,,,,,,,,,,,,,,,,,,,,,,,,,
1768972327.224931,1768972327.22554,13.0,0.0,4324.358887,4351.282227,4313.333496,4326.025879,4333.077148,4332.94873,4331.538574,4332.179688,4311.794922,4315.769043,4399.487305,4451.538574,4339.487305,4376.153809,,,,,,,,,,,,,,,,,,,,,,,,,,,,,,,,,,,,,,,,,,,,,,,,,,,,,,,,,,,,,,,,,,,,,,
1768972327.23274,1768972327.233449,14.0,0.0,4323.974121,4354.358887,4314.871582,4326.282227,4336.025879,4327.692383,4325.769043,4330.128418,4308.589844,4318.333496,4403.846191,4455.512695,4341.922852,4375.384766,2.021554,0.38865,0.251706,0.235749,0.220987,1.837963,0.302528,0.071415,0.171278,0.101852,2.666119,0.444908,0.226598,0.183886,0.098829,2.00383,0.372457,0.16103,0.130021,0.088345,1.782086,0.249812,0.111444,0.051827,0.078865,2.119153,0.219413,0.462197,0.164165,0.262168,2.841022,0.316687,0.699906,0.202649,0.261452,2.237445,0.570097,0.408067,0.153228,0.120965,1.247478,0.574678,0.187701,0.207514,0.145319,0.965216,0.528293,0.144318,0.232133,0.134351,2.984084,0.789667,0.26832,0.408087,0.118475,3.700261,0.682165,0.395983,0.313453,0.160604,1.305391,0.884272,0.210745,0.333821,0.194508,2.969943,0.7762,0.26731,0.514525,0.182776
1768972327.240548,1768972327.241257,15.0,0.0,4332.179688,4361.153809,4324.871582,4329.102539,4337.563965,4331.282227,4328.717773,4335.0,4313.974121,4324.615234,4410.641113,4461.153809,4345.384766,4377.05127,,,,,,,,,,,,,,,,,,,,,,,,,,,,,,,,,,,,,,,,,,,,,,,,,,,,,,,,,,,,,,,,,,,,,,
1768972327.248356,1768972327.249265,16.0,0.0,4335.128418,4360.256348,4322.436035,4327.820313,4336.922852,4334.871582,4327.179688,4335.897461,4313.333496,4318.589844,4406.282227,4456.666504,4342.436035,4375.128418,,,,,,,,,,,,,,,,,,,,,,,,,,,,,,,,,,,,,,,,,,,,,,,,,,,,,,,,,,,,,,,,,,,,,,
1768972327.256165,1768972327.257074,17.0,0.0,4329.487305,4359.358887,4314.871582,4327.307617,4336.538574,4340.769043,4329.743652,4331.922852,4309.871582,4312.05127,4400.769043,4453.333496,4341.410156,4374.871582,,,,,,,,,,,,,,,,,,,,,,,,,,,,,,,,,,,,,,,,,,,,,,,,,,,,,,,,,,,,,,,,,,,,,,
1768972327.263973,1768972327.264982,18.0,0.0,4326.666504,4363.205078,4317.820313,4329.871582,4340.384766,4344.358887,4336.538574,4331.025879,4310.769043,4311.666504,4398.974121,4454.102539,4341.538574,4374.102539,,,,,,,,,,,,,,,,,,,,,,,,,,,,,,,,,,,,,,,,,,,,,,,,,,,,,,,,,,,,,,,,,,,,,,
1768972327.271782,1768972327.272791,19.0,0.0,4325.769043,4362.436035,4323.846191,4329.615234,4343.077148,4333.077148,4328.846191,4331.282227,4311.666504,4311.282227,4397.436035,4450.384766,4342.179688,4371.538574,,,,,,,,,,,,,,,,,,,,,,,,,,,,,,,,,,,,,,,,,,,,,,,,,,,,,,,,,,,,,,,,,,,,,,
1768972327.27959,1768972327.280399,20.0,0.0,4324.102539,4355.897461,4324.615234,4326.666504,4339.743652,4324.743652,4322.436035,4331.538574,4313.589844,4314.871582,4401.282227,4448.974121,4342.820313,4373.077148,,,,,,,,,,,,,,,,,,,,,,,,,,,,,,,,,,,,,,,,,,,,,,,,,,,,,,,,,,,,,,,,,,,,,,
1768972327.287399,1768972327.288208,21.0,0.0,4324.230957,4357.563965,4322.820313,4327.307617,4338.589844,4333.461426,4330.897461,4334.615234,4317.436035,4319.615234,4406.794922,4453.333496,4342.563965,4374.358887,,,,,,,,,,,,,,,,,,,,,,,,,,,,,,,,,,,,,,,,,,,,,,,,,,,,,,,,,,,,,,,,,,,,,,
1768972327.295207,1768972327.295916,22.0,0.0,4326.794922,4363.717773,4323.205078,4328.461426,4339.743652,4336.922852,4333.974121,4335.0,4319.102539,4318.077148,4403.589844,4454.358887,4342.563965,4371.794922,,,,,,,,,,,,,,,,,,,,,,,,,,,,,,,,,,,,,,,,,,,,,,,,,,,,,,,,,,,,,,,,,,,,,,
1768972327.303016,1768972327.303725,23.0,0.0,4332.692383,4364.358887,4325.641113,4328.589844,4340.128418,4330.0,4328.333496,4331.410156,4313.205078,4313.846191,4402.436035,4452.692383,4341.666504,4374.487305,,,,,,,,,,,,,,,,,,,,,,,,,,,,,,,,,,,,,,,,,,,,,,,,,,,,,,,,,,,,,,,,,,,,,,
1768972327.310824,1768972327.311333,24.0,0.0,4339.102539,4364.487305,4329.358887,4334.230957,4342.563965,4331.922852,4332.563965,4332.563965,4309.487305,4315.0,4408.589844,4457.179688,4342.820313,4380.0,,,,,,,,,,,,,,,,,,,,,,,,,,,,,,,,,,,,,,,,,,,,,,,,,,,,,,,,,,,,,,,,,,,,,,
1768972327.318632,1768972327.319142,25.0,0.0,4339.102539,4367.94873,4331.538574,4338.333496,4344.230957,4342.94873,4342.179688,4336.666504,4316.410156,4318.846191,4412.94873,4464.487305,4346.794922,4382.179688,,,,,,,,,,,,,,,,,,,,,,,,,,,,,,,,,,,,,,,,,,,,,,,,,,,,,,,,,,,,,,,,,,,,,,
1768972327.326441,1768972327.32685,26.0,0.0,4336.666504,4366.282227,4326.538574,4332.05127,4344.102539,4342.179688,4338.205078,4336.794922,4318.461426,4317.307617,4411.794922,4468.461426,4346.025879,4380.897461,,,,,,,,,,,,,,,,,,,,,,,,,,,,,,,,,,,,,,,,,,,,,,,,,,,,,,,,,,,,,,,,,,,,,,
1768972327.334249,1768972327.334659,27.0,0.0,4336.153809,4356.666504,4324.871582,4326.666504,4342.563965,4330.641113,4325.128418,4332.179688,4311.794922,4315.128418,4410.256348,4465.769043,4342.307617,4379.358887,,,,,,,,,,,,,,,,,,,,,,,,,,,,,,,,,,,,,,,,,,,,,,,,,,,,,,,,,,,,,,,,,,,,,,
1768972327.342058,1768972327.342667,28.0,0.0,4336.666504,4354.358887,4329.743652,4326.666504,4339.615234,4332.179688,4326.410156,4330.897461,4310.897461,4319.743652,4410.128418,4464.615234,4345.0,4379.743652,,,,,,,,,,,,,,,,,,,,,,,,,,,,,,,,,,,,,,,,,,,,,,,,,,,,,,,,,,,,,,,,,,,,,,
1768972327.349866,1768972327.350476,29.0,0.0,4339.871582,4361.538574,4332.05127,4328.589844,4339.871582,4345.128418,4339.358887,4340.769043,4320.384766,4327.563965,4416.794922,4472.820313,4352.307617,4384.102539,,,,,,,,,,,,,,,,,,,,,,,,,,,,,,,,,,,,,,,,,,,,,,,,,,,,,,,,,,,,,,,,,,,,,,
1768972327.357675,1768972327.358384,30.0,0.0,4344.358887,4368.077148,4331.794922,4335.384766,4348.333496,4344.487305,4339.871582,4346.025879,4327.692383,4327.307617,4427.436035,4478.589844,4356.153809,4388.717773,1.969765,0.310621,0.242064,0.23172,0.207335,1.673587,0.306875,0.069058,0.182363,0.097623,2.416393,0.338361,0.225961,0.16609,0.099802,1.835765,0.29007,0.154376,0.132305,0.093549,1.547739,0.244394,0.111983,0.048469,0.073875,1.787985,0.202262,0.430353,0.178468,0.265435,2.419683,0.266159,0.620893,0.200084,0.275349,1.916039,0.477839,0.389894,0.140982,0.129609,1.064717,0.524303,0.212539,0.215379,0.153424,0.864747,0.43112,0.144662,0.257377,0.140973,2.530185,0.673416,0.262005,0.374027,0.121271,3.396269,0.561758,0.403529,0.281952,0.161083,1.255268,0.743478,0.227848,0.360079,0.203494,2.850461,0.655227,0.282504,0.538355,0.196075
1768972327.365483,1768972327.366192,31.0,0.0,4343.717773,4370.256348,4335.897461,4342.179688,4351.922852,4336.153809,4332.820313,4338.333496,4324.615234,4323.077148,4424.487305,4475.0,4353.974121,4389.871582,,,,,,,,,,,,,,,,,,,,,,,,,,,,,,,,,,,,,,,,,,,,,,,,,,,,,,,,,,,,,,,,,,,,,,
1768972327.373292,1768972327.373801,32.0,0.0,4342.436035,4368.974121,4338.717773,4340.769043,4347.307617,4341.922852,4338.205078,4334.230957,4319.358887,4323.717773,4416.025879,4473.333496,4348.205078,4389.487305,,,,,,,,,,,,,,,,,,,,,,,,,,,,,,,,,,,,,,,,,,,,,,,,,,,,,,,,,,,,,,,,,,,,,,
1768972327.3811,1768972327.381609,33.0,0.0,4345.0,4368.077148,4335.256348,4337.05127,4349.358887,4350.512695,4345.512695,4336.922852,4319.743652,4323.717773,4422.563965,4475.769043,4348.205078,4390.256348,,,,,,,,,,,,,,,,,,,,,,,,,,,,,,,,,,,,,,,,,,,,,,,,,,,,,,,,,,,,,,,,,,,,,,
1768972327.388909,1768972327.389318,34.0,0.0,4343.461426,4367.820313,4333.846191,4337.692383,4354.487305,4347.563965,4342.05127,4341.666504,4324.743652,4323.717773,4429.743652,4473.846191,4350.897461,4391.025879,,,,,,,,,,,,,,,,,,,,,,,,,,,,,,,,,,,,,,,,,,,,,,,,,,,,,,,,,,,,,,,,,,,,,,
1768972327.396717,1768972327.397126,35.0,0.0,4337.179688,4366.025879,4332.563965,4337.05127,4351.410156,4339.871582,4334.102539,4342.820313,4325.128418,4324.230957,4422.436035,4467.94873,4347.05127,4388.461426,,,,,,,,,,,,,,,,,,,,,,,,,,,,,,,,,,,,,,,,,,,,,,,,,,,,,,,,,,,,,,,,,,,,,,
1768972327.404525,1768972327.405135,36.0,0.0,4337.94873,4363.205078,4329.743652,4332.307617,4349.358887,4343.974121,4336.794922,4341.410156,4324.102539,4324.230957,4418.589844,4471.282227,4341.794922,4383.461426,,,,,,,,,,,,,,,,,,,,,,,,,,,,,,,,,,,,,,,,,,,,,,,,,,,,,,,,,,,,,,,,,,,,,,
1768972327.412334,1768972327.412943,37.0,0.0,4338.974121,4357.820313,4327.94873,4327.436035,4351.025879,4356.922852,4347.05127,4347.05127,4330.128418,4322.307617,4421.794922,4479.743652,4341.410156,4382.94873,,,,,,,,,,,,,,,,,,,,,,,,,,,,,,,,,,,,,,,,,,,,,,,,,,,,,,,,,,,,,,,,,,,,,,
1768972327.420142,1768972327.420852,38.0,0.0,4338.205078,4357.436035,4328.461426,4329.102539,4349.102539,4355.897461,4350.641113,4358.846191,4338.717773,4329.871582,4427.820313,4484.743652,4351.922852,4391.282227,,,,,,,,,,,,,,,,,,,,,,,,,,,,,,,,,,,,,,,,,,,,,,,,,,,,,,,,,,,,,,,,,,,,,,
1768972327.427951,1768972327.42866,39.0,0.0,4345.512695,4365.512695,4334.230957,4337.436035,4350.769043,4349.871582,4352.94873,4362.179688,4345.384766,4340.512695,4438.333496,4492.179688,4363.589844,4403.333496,,,,,,,,,,,,,,,,,,,,,,,,,,,,,,,,,,,,,,,,,,,,,,,,,,,,,,,,,,,,,,,,,,,,,,
1768972327.435759,1768972327.436369,40.0,0.0,4350.384766,4371.025879,4338.717773,4341.666504,4352.820313,4350.0,4352.307617,4355.897461,4342.692383,4333.846191,4440.128418,4499.743652,4361.666504,4404.487305,,,,,,,,,,,,,,,,,,,,,,,,,,,,,,,,,,,,,,,,,,,,,,,,,,,,,,,,,,,,,,,,,,,,,,
1768972327.443568,1768972327.444177,41.0,0.0,4346.025879,4366.410156,4338.077148,4336.025879,4347.820313,4349.871582,4345.384766,4349.615234,4329.871582,4323.333496,4431.153809,4494.743652,4354.102539,4396.666504,,,,,,,,,,,,,,,,,,,,,,,,,,,,,,,,,,,,,,,,,,,,,,,,,,,,,,,,,,,,,,,,,,,,,,
1768972327.451376,1768972327.451886,42.0,0.0,4341.538574,4359.230957,4335.128418,4328.333496,4347.436035,4352.05127,4345.384766,4351.153809,4324.487305,4323.205078,4426.410156,4484.743652,4348.846191,4389.743652,,,,,,,,,,,,,,,,,,,,,,,,,,,,,,,,,,,,,,,,,,,,,,,,,,,,,,,,,,,,,,,,,,,,,,
1768972327.459185,1768972327.459694,43.0,0.0,4339.743652,4355.769043,4332.436035,4328.205078,4352.563965,4354.615234,4348.077148,4357.05127,4330.256348,4324.871582,4429.487305,4485.769043,4345.0,4390.256348,,,,,,,,,,,,,,,,,,,,,,,,,,,,,,,,,,,,,,,,,,,,,,,,,,,,,,,,,,,,,,,,,,,,,,
1768972327.466993,1768972327.467702,44.0,0.0,4339.743652,4357.436035,4333.846191,4333.461426,4348.461426,4345.897461,4339.102539,4350.897461,4330.256348,4324.487305,4429.358887,4487.307617,4343.717773,4391.794922,,,,,,,,,,,,,,,,,,,,,,,,,,,,,,,,,,,,,,,,,,,,,,,,,,,,,,,,,,,,,,,,,,,,,,
1768972327.474801,1768972327.475511,45.0,0.0,4342.692383,4360.256348,4343.333496,4337.307617,4345.0,4342.307617,4338.974121,4345.0,4329.358887,4325.384766,4427.692383,4482.94873,4346.666504,4389.743652,,,,,,,,,,,,,,,,,,,,,,,,,,,,,,,,,,,,,,,,,,,,,,,,,,,,,,,,,,,,,,,,,,,,,,
1768972327.48261,1768972327.48322,46.0,0.0,4342.179688,4358.589844,4347.307617,4333.205078,4353.589844,4351.025879,4353.589844,4352.563965,4334.487305,4325.512695,4428.205078,4483.333496,4344.743652,4389.487305,1.846142,0.252994,0.215347,0.233932,0.186752,1.41665,0.299639,0.071014,0.193772,0.092122,2.057934,0.254007,0.208325,0.155618,0.103207,1.536749,0.240119,0.138903,0.135999,0.102673,1.193333,0.239659,0.121287,0.049224,0.069895,1.296008,0.178159,0.372158,0.193333,0.258888,1.776851,0.20513,0.501357,0.200327,0.275894,1.441045,0.373974,0.343803,0.131768,0.13391,0.802668,0.465564,0.229097,0.219877,0.155749,0.716832,0.319186,0.13682,0.274947,0.143212,1.898367,0.526438,0.239758,0.338759,0.126654,2.814208,0.434664,0.391977,0.25466,0.159736,1.112778,0.567498,0.251815,0.386725,0.214695,2.564197,0.511255,0.29476,0.552296,0.210796
1768972327.490418,1768972327.491028,47.0,0.0,4340.256348,4356.282227,4340.0,4327.307617,4356.794922,4351.153809,4352.563965,4354.230957,4331.794922,4324.743652,4426.922852,4486.025879,4340.256348,4389.871582,,,,,,,,,,,,,,,,,,,,,,,,,,,,,,,,,,,,,,,,,,,,,,,,,,,,,,,,,,,,,,,,,,,,,,
1768972327.498227,1768972327.498637,48.0,0.0,4343.205078,4357.692383,4338.846191,4331.282227,4353.846191,4348.205078,4343.717773,4348.974121,4328.589844,4325.769043,4428.717773,4487.179688,4346.922852,4388.974121,,,,,,,,,,,,,,,,,,,,,,,,,,,,,,,,,,,,,,,,,,,,,,,,,,,,,,,,,,,,,,,,,,,,,,
1768972327.506035,1768972327.506445,49.0,0.0,4344.358887,4358.589844,4345.128418,4334.358887,4355.256348,4349.743652,4343.205078,4349.871582,4331.153809,4325.769043,4431.282227,4486.153809,4354.230957,4392.436035,,,,,,,,,,,,,,,,,,,,,,,,,,,,,,,,,,,,,,,,,,,,,,,,,,,,,,,,,,,,,,,,,,,,,,
1768972327.513844,1768972327.514154,50.0,0.0,4342.820313,4358.077148,4345.897461,4329.230957,4354.230957,4346.666504,4342.820313,4347.94873,4330.128418,4326.282227,4430.128418,4485.256348,4348.974121,4394.487305,,,,,,,,,,,,,,,,,,,,,,,,,,,,,,,,,,,,,,,,,,,,,,,,,,,,,,,,,,,,,,,,,,,,,,
1768972327.521652,1768972327.521962,51.0,0.0,4340.897461,4357.179688,4341.410156,4328.589844,4352.307617,4346.666504,4343.461426,4347.563965,4332.563965,4326.666504,4428.077148,4483.205078,4344.358887,4391.666504,,,,,,,,,,,,,,,,,,,,,,,,,,,,,,,,,,,,,,,,,,,,,,,,,,,,,,,,,,,,,,,,,,,,,,
1768972327.52946,1768972327.52997,52.0,0.0,4340.512695,4356.922852,4339.358887,4335.769043,4354.230957,4353.333496,4350.0,4355.897461,4338.846191,4324.230957,4429.230957,4481.282227,4348.205078,4388.846191,,,,,,,,,,,,,,,,,,,,,,,,,,,,,,,,,,,,,,,,,,,,,,,,,,,,,,,,,,,,,,,,,,,,,,
1768972327.537269,1768972327.537779,53.0,0.0,4343.717773,4360.128418,4340.256348,4338.205078,4357.179688,4356.025879,4354.487305,4355.256348,4335.384766,4322.692383,4429.487305,4484.743652,4348.205078,4388.846191,,,,,,,,,,,,,,,,,,,,,,,,,,,,,,,,,,,,,,,,,,,,,,,,,,,,,,,,,,,,,,,,,,,,,,
1768972327.545077,1768972327.545687,54.0,0.0,4345.897461,4362.05127,4339.743652,4337.307617,4358.461426,4356.282227,4352.94873,4350.897461,4333.589844,4324.615234,4429.487305,4489.615234,4347.307617,4391.666504,,,,,,,,,,,,,,,,,,,,,,,,,,,,,,,,,,,,,,,,,,,,,,,,,,,,,,,,,,,,,,,,,,,,,,
1768972327.552886,1768972327.553496,55.0,0.0,4343.461426,4362.820313,4338.205078,4340.128418,4361.025879,4358.974121,4348.974121,4354.743652,4339.230957,4327.436035,4435.0,4490.0,4351.538574,4394.743652,,,,,,,,,,,,,,,,,,,,,,,,,,,,,,,,,,,,,,,,,,,,,,,,,,,,,,,,,,,,,,,,,,,,,,
1768972327.560694,1768972327.561504,56.0,0.0,4340.897461,4365.256348,4337.05127,4339.615234,4361.666504,4356.153809,4347.05127,4353.846191,4334.102539,4326.153809,4434.615234,4485.769043,4347.563965,4392.692383,,,,,,,,,,,,,,,,,,,,,,,,,,,,,,,,,,,,,,,,,,,,,,,,,,,,,,,,,,,,,,,,,,,,,,
1768972327.568503,1768972327.569312,57.0,0.0,4341.282227,4363.717773,4337.05127,4337.436035,4359.871582,4355.256348,4353.717773,4348.589844,4327.692383,4322.692383,4429.102539,4482.179688,4343.333496,4391.666504,,,,,,,,,,,,,,,,,,,,,,,,,,,,,,,,,,,,,,,,,,,,,,,,,,,,,,,,,,,,,,,,,,,,,,
1768972327.576311,1768972327.577221,58.0,0.0,4341.922852,4360.384766,4335.512695,4339.615234,4361.666504,4362.05127,4359.230957,4350.512695,4333.333496,4322.692383,4433.589844,4482.820313,4349.615234,4395.897461,,,,,,,,,,,,,,,,,,,,,,,,,,,,,,,,,,,,,,,,,,,,,,,,,,,,,,,,,,,,,,,,,,,,,,
1768972327.584119,1768972327.585029,59.0,0.0,4343.205078,4360.512695,4336.282227,4341.538574,4365.512695,4361.922852,4353.333496,4351.538574,4341.538574,4326.922852,4443.077148,4487.692383,4355.769043,4398.333496,,,,,,,,,,,,,,,,,,,,,,,,,,,,,,,,,,,,,,,,,,,,,,,,,,,,,,,,,,,,,,,,,,,,,,
1768972327.591928,1768972327.593037,60.0,0.0,4343.461426,4358.333496,4340.769043,4336.025879,4363.333496,4355.769043,4350.256348,4352.179688,4343.333496,4329.358887,4443.974121,4492.692383,4355.641113,4396.153809,,,,,,,,,,,,,,,,,,,,,,,,,,,,,,,,,,,,,,,,,,,,,,,,,,,,,,,,,,,,,,,,,,,,,,
1768972327.599736,1768972327.600846,61.0,0.0,4342.179688,4356.666504,4342.692383,4333.846191,4356.410156,4360.512695,4356.282227,4358.974121,4342.179688,4324.102539,4438.974121,4490.128418,4349.230957,4391.922852,,,,,,,,,,,,,,,,,,,,,,,,,,,,,,,,,,,,,,,,,,,,,,,,,,,,,,,,,,,,,,,,,,,,,,
1768972327.607545,1768972327.608554,62.0,0.0,4341.410156,4358.077148,4342.307617,4335.769043,4355.641113,4369.743652,4359.615234,4358.461426,4341.153809,4321.153809,4439.102539,4484.102539,4346.538574,4388.846191,1.669555,0.222301,0.185553,0.237058,0.164015,1.122357,0.279097,0.078383,0.202883,0.086288,1.687191,0.196224,0.179462,0.14935,0.108722,1.19764,0.214243,0.117683,0.138923,0.113426,0.81438,0.236962,0.135556,0.054685,0.068114,0.795787,0.152035,0.303946,0.210641,0.243211,1.097962,0.148031,0.373829,0.207359,0.261791,0.965185,0.283855,0.28131,0.126483,0.133173,0.558373,0.415471,0.234858,0.218035,0.153106,0.605216,0.223506,0.126179,0.275738,0.141012,1.265851,0.392215,0.209621,0.302873,0.135166,2.133178,0.336471,0.364258,0.227319,0.156407,0.930023,0.412179,0.279698,0.398604,0.223519,2.141364,0.376958,0.31057,0.543253,0.223364
1768972327.615353,1768972327.616363,63.0,0.0,4338.077148,4353.077148,4340.641113,4331.153809,4359.487305,4368.461426,4357.820313,4352.179688,4343.717773,4327.436035,4443.333496,4484.487305,4352.307617,4389.487305,,,,,,,,,,,,,,,,,,,,,,,,,,,,,,,,,,,,,,,,,,,,,,,,,,,,,,,,,,,,,,,,,,,,,,
1768972327.623162,1768972327.623972,64.0,0.0,4334.102539,4351.666504,4339.358887,4328.717773,4357.692383,4365.897461,4358.333496,4353.205078,4347.563965,4327.436035,4439.743652,4485.769043,4348.333496,4385.897461,,,,,,,,,,,,,,,,,,,,,,,,,,,,,,,,,,,,,,,,,,,,,,,,,,,,,,,,,,,,,,,,,,,,,,
1768972327.63097,1768972327.63178,65.0,0.0,4336.922852,4361.922852,4341.282227,4333.846191,4356.153809,4367.94873,4358.333496,4356.794922,4345.769043,4320.641113,4433.461426,4482.179688,4336.538574,4382.307617,,,,,,,,,,,,,,,,,,,,,,,,,,,,,,,,,,,,,,,,,,,,,,,,,,,,,,,,,,,,,,,,,,,,,,
1768972327.638779,1768972327.639489,66.0,0.0,4345.641113,4366.922852,4346.794922,4338.077148,4359.871582,4371.794922,4358.205078,4358.205078,4349.487305,4326.153809,4439.358887,4487.692383,4344.102539,4393.846191,,,,,,,,,,,,,,,,,,,,,,,,,,,,,,,,,,,,,,,,,,,,,,,,,,,,,,,,,,,,,,,,,,,,,,
1768972327.646587,1768972327.647297,67.0,0.0,4350.769043,4362.563965,4347.820313,4338.205078,4360.0,4372.307617,4361.794922,4360.641113,4357.692383,4333.974121,4450.384766,4502.179688,4359.871582,4408.717773,,,,,,,,,,,,,,,,,,,,,,,,,,,,,,,,,,,,,,,,,,,,,,,,,,,,,,,,,,,,,,,,,,,,,,
1768972327.654395,1768972327.654906,68.0,0.0,4350.384766,4362.307617,4345.128418,4335.769043,4358.205078,4364.230957,4359.487305,4358.717773,4352.692383,4330.384766,4447.307617,4502.307617,4359.615234,4406.666504,,,,,,,,,,,,,,,,,,,,,,,,,,,,,,,,,,,,,,,,,,,,,,,,,,,,,,,,,,,,,,,,,,,,,,
1768972327.662204,1768972327.662714,69.0,0.0,4349.615234,4366.922852,4348.717773,4333.461426,4362.179688,4363.461426,4356.794922,4356.153809,4344.102539,4329.487305,4443.717773,4496.153809,4354.743652,4396.282227,,,,,,,,,,,,,,,,,,,,,,,,,,,,,,,,,,,,,,,,,,,,,,,,,,,,,,,,,,,,,,,,,,,,,,
1768972327.670012,1768972327.670622,70.0,0.0,4350.512695,4368.461426,4354.871582,4335.897461,4362.05127,4374.487305,4362.563965,4359.871582,4347.563965,4333.846191,4451.282227,4502.820313,4356.410156,4399.487305,,,,,,,,,,,,,,,,,,,,,,,,,,,,,,,,,,,,,,,,,,,,,,,,,,,,,,,,,,,,,,,,,,,,,,
1768972327.677821,1768972327.678431,71.0,0.0,4352.820313,4367.563965,4351.922852,4340.897461,4358.077148,4375.641113,4362.436035,4361.666504,4351.794922,4335.769043,4453.205078,4508.077148,4358.846191,4407.563965,,,,,,,,,,,,,,,,,,,,,,,,,,,,,,,,,,,,,,,,,,,,,,,,,,,,,,,,,,,,,,,,,,,,,,
1768972327.685629,1768972327.686039,72.0,0.0,4354.358887,4366.922852,4345.897461,4342.436035,4363.974121,4367.307617,4355.897461,4359.487305,4352.179688,4335.128418,4446.666504,4502.05127,4354.102539,4404.615234,,,,,,,,,,,,,,,,,,,,,,,,,,,,,,,,,,,,,,,,,,,,,,,,,,,,,,,,,,,,,,,,,,,,,,
1768972327.693438,1768972327.693848,73.0,0.0,4357.05127,4368.846191,4347.94873,4342.820313,4367.692383,4366.025879,4357.179688,4360.256348,4355.128418,4332.436035,4445.0,4496.666504,4349.102539,4403.333496,,,,,,,,,,,,,,,,,,,,,,,,,,,,,,,,,,,,,,,,,,,,,,,,,,,,,,,,,,,,,,,,,,,,,,
1768972327.701246,1768972327.701556,74.0,0.0,4358.205078,4368.717773,4352.436035,4341.025879,4358.974121,4367.563965,4360.641113,4364.102539,4356.794922,4332.179688,4451.153809,4500.384766,4355.384766,4410.897461,,,,,,,,,,,,,,,,,,,,,,,,,,,,,,,,,,,,,,,,,,,,,,,,,,,,,,,,,,,,,,,,,,,,,,
1768972327.709055,1768972327.709365,75.0,0.0,4357.563965,4367.436035,4354.230957,4338.589844,4356.794922,4362.307617,4356.153809,4363.846191,4353.333496,4334.102539,4452.05127,4506.410156,4363.846191,4412.94873,,,,,,,,,,,,,,,,,,,,,,,,,,,,,,,,,,,,,,,,,,,,,,,,,,,,,,,,,,,,,,,,,,,,,,
1768972327.716863,1768972327.716974,76.0,0.0,4358.077148,4365.769043,4354.615234,4338.333496,4361.538574,4358.205078,4355.641113,4362.307617,4348.974121,4331.153809,4446.922852,4504.487305,4358.717773,4406.794922,,,,,,,,,,,,,,,,,,,,,,,,,,,,,,,,,,,,,,,,,,,,,,,,,,,,,,,,,,,,,,,,,,,,,,
1768972327.724671,1768972327.724782,77.0,0.0,4356.922852,4366.153809,4355.512695,4339.615234,4358.589844,4363.333496,4364.743652,4365.897461,4349.487305,4333.077148,4449.871582,4501.922852,4354.230957,4404.615234,,,,,,,,,,,,,,,,,,,,,,,,,,,,,,,,,,,,,,,,,,,,,,,,,,,,,,,,,,,,,,,,,,,,,,
1768972327.73248,1768972327.73269,78.0,0.0,4358.333496,4372.307617,4358.846191,4341.666504,4356.666504,4371.025879,4372.05127,4369.230957,4355.512695,4342.94873,4459.102539,4510.256348,4362.307617,4409.743652,1.466467,0.215042,0.166517,0.234452,0.142507,0.853158,0.248223,0.096615,0.207517,0.081255,1.382527,0.159555,0.147703,0.142508,0.115013,0.899863,0.19828,0.097086,0.140641,0.12206,0.524175,0.232686,0.147663,0.063747,0.069034,0.450597,0.126785,0.241207,0.230517,0.224069,0.585384,0.108421,0.265426,0.222805,0.238983,0.641085,0.223727,0.216565,0.123182,0.12985,0.442807,0.378595,0.231358,0.207298,0.148307,0.61476,0.159108,0.11969,0.254983,0.136141,0.843407,0.296945,0.182259,0.263275,0.14663,1.567024,0.291488,0.326292,0.196935,0.150627,0.794899,0.314941,0.307799,0.384005,0.225299,1.715068,0.273527,0.333385,0.503576,0.228425
1768972327.740288,1768972327.740499,79.0,0.0,4360.641113,4373.333496,4358.205078,4342.179688,4362.436035,4366.153809,4368.461426,4368.333496,4358.333496,4341.410156,4460.769043,4516.666504,4366.922852,4414.358887,,,,,,,,,,,,,,,,,,,,,,,,,,,,,,,,,,,,,,,,,,,,,,,,,,,,,,,,,,,,,,,,,,,,,,
1768972327.748097,1768972327.748507,80.0,0.0,4356.666504,4364.487305,4357.307617,4341.922852,4365.897461,4362.94873,4366.538574,4367.05127,4355.512695,4332.94873,4457.05127,4513.461426,4361.922852,4414.358887,,,,,,,,,,,,,,,,,,,,,,,,,,,,,,,,,,,,,,,,,,,,,,,,,,,,,,,,,,,,,,,,,,,,,,
1768972327.755905,1768972327.756316,81.0,0.0,4357.692383,4361.025879,4362.563965,4343.589844,4365.641113,4374.487305,4375.128418,4368.461426,4355.128418,4335.897461,4458.461426,4514.615234,4357.820313,4414.358887,,,,,,,,,,,,,,,,,,,,,,,,,,,,,,,,,,,,,,,,,,,,,,,,,,,,,,,,,,,,,,,,,,,,,,
1768972327.763714,1768972327.764224,82.0,0.0,4365.128418,4368.205078,4364.743652,4345.384766,4367.94873,4375.769043,4372.179688,4365.897461,4356.282227,4340.641113,4460.897461,4516.666504,4357.05127,4415.384766,,,,,,,,,,,,,,,,,,,,,,,,,,,,,,,,,,,,,,,,,,,,,,,,,,,,,,,,,,,,,,,,,,,,,,
1768972327.771522,1768972327.772032,83.0,0.0,4364.230957,4368.333496,4358.333496,4343.589844,4368.974121,4364.102539,4358.974121,4360.641113,4354.102539,4336.410156,4458.717773,4511.153809,4357.563965,4411.282227,,,,,,,,,,,,,,,,,,,,,,,,,,,,,,,,,,,,,,,,,,,,,,,,,,,,,,,,,,,,,,,,,,,,,,
