title:remote_6, start timestamp:1768202709.885940, stop timestamp:1768202740.526207, headset type:EPOCX, headset serial:E5020E3B, headset firmware:730, channels:156, sampling rate:eeg_128;pm_0.1;pow_8, samples:3925      , version:2.2, 
Timestamp,OriginalTimestamp,EEG.Counter,EEG.Interpolated,EEG.AF3,EEG.F7,EEG.F3,EEG.FC5,EEG.T7,EEG.P7,EEG.O1,EEG.O2,EEG.P8,EEG.T8,EEG.FC6,EEG.F4,EEG.F8,EEG.AF4,EEG.RawCq,EEG.Battery,EEG.BatteryPercent,MarkerIndex,MarkerType,MarkerValueInt,EEG.MarkerHardware,CQ.AF3,CQ.F7,CQ.F3,CQ.FC5,CQ.T7,CQ.P7,CQ.O1,CQ.O2,CQ.P8,CQ.T8,CQ.FC6,CQ.F4,CQ.F8,CQ.AF4,CQ.Overall,EQ.SampleRateQuality,EQ.OVERALL,EQ.AF3,EQ.F7,EQ.F3,EQ.FC5,EQ.T7,EQ.P7,EQ.O1,EQ.O2,EQ.P8,EQ.T8,EQ.FC6,EQ.F4,EQ.F8,EQ.AF4,PM.Attention.IsActive,PM.Attention.Scaled,PM.Attention.Raw,PM.Attention.Min,PM.Attention.Max,PM.Engagement.IsActive,PM.Engagement.Scaled,PM.Engagement.Raw,PM.Engagement.Min,PM.Engagement.Max,PM.Excitement.IsActive,PM.Excitement.Scaled,PM.Excitement.Raw,PM.Excitement.Min,PM.Excitement.Max,PM.LongTermExcitement,PM.Stress.IsActive,PM.Stress.Scaled,PM.Stress.Raw,PM.Stress.Min,PM.Stress.Max,PM.Relaxation.IsActive,PM.Relaxation.Scaled,PM.Relaxation.Raw,PM.Relaxation.Min,PM.Relaxation.Max,PM.Interest.IsActive,PM.Interest.Scaled,PM.Interest.Raw,PM.Interest.Min,PM.Interest.Max,POW.AF3.Theta,POW.AF3.Alpha,POW.AF3.BetaL,POW.AF3.BetaH,POW.AF3.Gamma,POW.F7.Theta,POW.F7.Alpha,POW.F7.BetaL,POW.F7.BetaH,POW.F7.Gamma,POW.F3.Theta,POW.F3.Alpha,POW.F3.BetaL,POW.F3.BetaH,POW.F3.Gamma,POW.FC5.Theta,POW.FC5.Alpha,POW.FC5.BetaL,POW.FC5.BetaH,POW.FC5.Gamma,POW.T7.Theta,POW.T7.Alpha,POW.T7.BetaL,POW.T7.BetaH,POW.T7.Gamma,POW.P7.Theta,POW.P7.Alpha,POW.P7.BetaL,POW.P7.BetaH,POW.P7.Gamma,POW.O1.Theta,POW.O1.Alpha,POW.O1.BetaL,POW.O1.BetaH,POW.O1.Gamma,POW.O2.Theta,POW.O2.Alpha,POW.O2.BetaL,POW.O2.BetaH,POW.O2.Gamma,POW.P8.Theta,POW.P8.Alpha,POW.P8.BetaL,POW.P8.BetaH,POW.P8.Gamma,POW.T8.Theta,POW.T8.Alpha,POW.T8.BetaL,POW.T8.BetaH,POW.T8.Gamma,POW.FC6.Theta,POW.FC6.Alpha,POW.FC6.BetaL,POW.FC6.BetaH,POW.FC6.Gamma,POW.F4.Theta,POW.F4.Alpha,POW.F4.BetaL,POW.F4.BetaH,POW.F4.Gamma,POW.F8.Theta,POW.F8.Alpha,POW.F8.BetaL,POW.F8.BetaH,POW.F8.Gamma,POW.AF4.Theta,POW.AF4.Alpha,POW.AF4.BetaL,POW.AF4.BetaH,POW.AF4.Gamma
1768202709.885940,1768202709.886764,121.000000,0.000000,4343.077148,4328.846191,4326.794922,4354.102539,4342.436035,4365.128418,4352.820313,4369.358887,4340.769043,4336.666504,4490.256348,4516.153809,4411.666504,4442.563965,4291.000000,3.000000,59.000000,,,,0.000000,4.000000,4.000000,2.000000,4.000000,4.000000,2.000000,4.000000,4.000000,4.000000,4.000000,4.000000,4.000000,4.000000,4.000000,66.666664,,,,,,,,,,,,,,,,,,,,,,,,,,,,,,,,,,,,,,,,,,,,,,,,,,,,,,,,,,,,,,,,,,,,,,,,,,,,,,,,,,,,,,,,,,,,,,,,,,,,,,,,,,,,,,,,,,,,,
1768202709.893749,1768202709.894473,122.000000,0.000000,4351.794922,4335.897461,4330.384766,4359.358887,4343.205078,4366.666504,4344.358887,4369.615234,4345.384766,4341.922852,4493.205078,4521.410156,4413.333496,4450.897461,4263.000000,3.000000,59.000000,,,,0.000000,4.000000,4.000000,2.000000,4.000000,4.000000,2.000000,4.000000,4.000000,4.000000,4.000000,4.000000,4.000000,4.000000,4.000000,66.666664,,,,,,,,,,,,,,,,,,,,,,,,,,,,,,,,,,,,,,,,,,,,,,,,,,,,,,,,,,,,,,,,,,,,,,,,,,,,,,,,,,,,,,,,,,,,,,,,,,,,,,,,,,,,,,,,,,,,,
1768202709.901557,1768202709.902281,123.000000,0.000000,4353.974121,4341.153809,4331.025879,4360.641113,4343.589844,4365.512695,4348.333496,4373.717773,4350.512695,4341.282227,4495.128418,4525.512695,4413.974121,4455.512695,4759.000000,3.000000,59.000000,,,,0.000000,4.000000,4.000000,2.000000,4.000000,4.000000,2.000000,4.000000,4.000000,4.000000,4.000000,4.000000,4.000000,4.000000,4.000000,66.666664,,,,,,,,,,,,,,,,,,,,,,,,,,,,,,,,,,,,,,,,,,,,,,,,,,,,,,,,,,,,,,,,,,,,,,,,,,,,,,,,,,,,,,,,,,,,,,,,,,,,,,,,,,,,,,,,,,,,,
1768202709.909366,1768202709.910290,124.000000,0.000000,4343.205078,4337.948730,4327.692383,4357.692383,4342.563965,4365.000000,4356.282227,4372.436035,4347.692383,4344.743652,4492.948730,4518.846191,4414.358887,4447.692383,5220.000000,3.000000,59.000000,,,,0.000000,4.000000,4.000000,2.000000,4.000000,4.000000,2.000000,4.000000,4.000000,4.000000,4.000000,4.000000,4.000000,4.000000,4.000000,66.666664,,,,,,,,,,,,,,,,,,,,,,,,,,,,,,,,,,,,,,,,,,,,,,,,,,,,,,,,,,,,,,,,,,,,,,,,,,,,,,,,,,,,,,,,,,,,,,,,,,,,,,,,,,,,,,,,,,,,,
1768202709.917174,1768202709.918098,125.000000,0.000000,4339.102539,4332.051270,4324.358887,4353.205078,4340.769043,4367.948730,4351.025879,4366.922852,4344.230957,4344.102539,4491.282227,4510.384766,4413.461426,4440.641113,4291.000000,3.000000,59.000000,,,,0.000000,4.000000,4.000000,2.000000,4.000000,4.000000,2.000000,4.000000,4.000000,4.000000,4.000000,4.000000,4.000000,4.000000,4.000000,66.666664,,,,,,,,,,,,,,,,,,,,,,,,,,,,,,,,,,,,,,,,,,,,,,,,,,,,,,,,,,,,,,,,,,,,,,,,,,,,,,,,,,,,,,,,,,,,,,,,,,,,,,,,,,,,,,,,,,,,,
1768202709.924983,1768202709.926006,126.000000,0.000000,4341.153809,4329.102539,4322.307617,4350.384766,4338.461426,4367.692383,4343.333496,4363.077148,4343.846191,4335.256348,4486.666504,4506.282227,4412.692383,4443.974121,4263.000000,3.000000,59.000000,,,,0.000000,4.000000,4.000000,2.000000,4.000000,4.000000,2.000000,4.000000,4.000000,4.000000,4.000000,4.000000,4.000000,4.000000,4.000000,66.666664,,,,,,,,,,,,,,,,,,,,,,,,,,,,,,,,,,,,,,,,,,,,,,,,2.213558,0.343821,0.368924,0.244895,0.177919,1.071929,0.177004,0.221348,0.205646,0.105225,0.156768,0.058506,0.016230,0.057349,0.033364,0.599905,0.086504,0.146281,0.160747,0.070589,0.253563,0.149893,0.136456,0.087904,0.094612,0.026986,0.045872,0.044328,0.027412,0.036750,0.220581,0.273828,0.148523,0.147474,0.320340,0.334288,0.468215,0.161054,0.108639,0.120461,0.459016,0.414496,0.230644,0.154550,0.131549,0.402905,0.318931,0.177716,0.165313,0.225166,0.266305,0.346215,0.226901,0.279985,0.345562,0.761512,0.305698,0.233728,0.143624,0.323911,1.110393,0.322258,0.271930,0.170663,0.223871,1.609962,0.459256,0.440935,0.377212,0.340073
1768202709.932791,1768202709.933815,127.000000,0.000000,4336.153809,4327.051270,4320.512695,4349.743652,4333.717773,4363.589844,4337.179688,4356.922852,4340.384766,4327.563965,4477.948730,4501.282227,4404.615234,4444.358887,59.000000,3.000000,59.000000,,,,0.000000,4.000000,4.000000,2.000000,4.000000,4.000000,2.000000,4.000000,4.000000,4.000000,4.000000,4.000000,4.000000,4.000000,4.000000,66.666664,,,,,,,,,,,,,,,,,,,,,,,,,,,,,,,,,,,,,,,,,,,,,,,,,,,,,,,,,,,,,,,,,,,,,,,,,,,,,,,,,,,,,,,,,,,,,,,,,,,,,,,,,,,,,,,,,,,,,
1768202709.940600,1768202709.941823,0.000000,0.000000,4334.743652,4328.461426,4321.666504,4351.282227,4335.641113,4363.333496,4336.153809,4354.102539,4335.897461,4326.410156,4473.717773,4498.717773,4402.436035,4438.717773,1102.000000,3.000000,59.000000,,,,0.000000,4.000000,4.000000,2.000000,4.000000,4.000000,2.000000,4.000000,4.000000,4.000000,4.000000,4.000000,4.000000,4.000000,4.000000,66.666664,,,,,,,,,,,,,,,,,,,,,,,,,,,,,,,,,,,,,,,,,,,,,,,,,,,,,,,,,,,,,,,,,,,,,,,,,,,,,,,,,,,,,,,,,,,,,,,,,,,,,,,,,,,,,,,,,,,,,
1768202709.948408,1768202709.949632,1.000000,0.000000,4341.410156,4334.615234,4324.487305,4356.282227,4343.974121,4365.897461,4342.179688,4357.563965,4336.922852,4333.846191,4476.794922,4499.615234,4411.794922,4434.487305,2800.000000,3.000000,59.000000,,,,0.000000,4.000000,4.000000,2.000000,4.000000,4.000000,2.000000,4.000000,4.000000,4.000000,4.000000,4.000000,4.000000,4.000000,4.000000,66.666664,,,,,,,,,,,,,,,,,,,,,,,,,,,,,,,,,,,,,,,,,,,,,,,,,,,,,,,,,,,,,,,,,,,,,,,,,,,,,,,,,,,,,,,,,,,,,,,,,,,,,,,,,,,,,,,,,,,,,
1768202709.956216,1768202709.957540,2.000000,0.000000,4343.333496,4338.333496,4322.563965,4358.333496,4345.000000,4363.717773,4342.820313,4357.820313,4338.717773,4338.461426,4481.025879,4499.358887,4411.666504,4431.666504,3762.000000,3.000000,59.000000,,,,0.000000,4.000000,4.000000,2.000000,4.000000,4.000000,2.000000,4.000000,4.000000,4.000000,4.000000,4.000000,4.000000,4.000000,4.000000,66.666664,,,,,,,,,,,,,,,,,,,,,,,,,,,,,,,,,,,,,,,,,,,,,,,,,,,,,,,,,,,,,,,,,,,,,,,,,,,,,,,,,,,,,,,,,,,,,,,,,,,,,,,,,,,,,,,,,,,,,
1768202709.964025,1768202709.965348,3.000000,0.000000,4338.974121,4339.871582,4321.282227,4355.897461,4339.230957,4362.692383,4338.461426,4356.538574,4338.205078,4332.307617,4486.410156,4500.128418,4404.487305,4433.974121,3694.000000,3.000000,59.000000,,,,0.000000,4.000000,4.000000,2.000000,4.000000,4.000000,2.000000,4.000000,4.000000,4.000000,4.000000,4.000000,4.000000,4.000000,4.000000,66.666664,,,,,,,,,,,,,,,,,,,,,,,,,,,,,,,,,,,,,,,,,,,,,,,,,,,,,,,,,,,,,,,,,,,,,,,,,,,,,,,,,,,,,,,,,,,,,,,,,,,,,,,,,,,,,,,,,,,,,
1768202709.971833,1768202709.973357,4.000000,0.000000,4341.282227,4341.666504,4325.641113,4355.512695,4337.563965,4367.563965,4340.897461,4359.358887,4339.230957,4332.307617,4491.538574,4505.512695,4411.538574,4438.846191,3742.000000,3.000000,59.000000,,,,0.000000,4.000000,4.000000,2.000000,4.000000,4.000000,2.000000,4.000000,4.000000,4.000000,4.000000,4.000000,4.000000,4.000000,4.000000,66.666664,,,,,,,,,,,,,,,,,,,,,,,,,,,,,,,,,,,,,,,,,,,,,,,,,,,,,,,,,,,,,,,,,,,,,,,,,,,,,,,,,,,,,,,,,,,,,,,,,,,,,,,,,,,,,,,,,,,,,
1768202709.979642,1768202709.981165,5.000000,0.000000,4349.871582,4344.487305,4328.077148,4358.077148,4342.051270,4368.846191,4348.461426,4362.563965,4341.410156,4341.922852,4493.205078,4510.256348,4421.794922,4445.128418,833.000000,3.000000,59.000000,,,,0.000000,4.000000,4.000000,2.000000,4.000000,4.000000,2.000000,4.000000,4.000000,4.000000,4.000000,4.000000,4.000000,4.000000,4.000000,66.666664,,,,,,,,,,,,,,,,,,,,,,,,,,,,,,,,,,,,,,,,,,,,,,,,,,,,,,,,,,,,,,,,,,,,,,,,,,,,,,,,,,,,,,,,,,,,,,,,,,,,,,,,,,,,,,,,,,,,,
1768202709.987450,1768202709.988874,6.000000,0.000000,4352.436035,4345.256348,4326.153809,4357.948730,4342.307617,4366.922852,4354.487305,4367.692383,4343.333496,4340.128418,4494.487305,4514.358887,4418.589844,4449.743652,3966.000000,3.000000,59.000000,,,,0.000000,4.000000,4.000000,2.000000,4.000000,4.000000,2.000000,4.000000,4.000000,4.000000,4.000000,4.000000,4.000000,4.000000,4.000000,66.666664,,,,,,,,,,,,,,,,,,,,,,,,,,,,,,,,,,,,,,,,,,,,,,,,,,,,,,,,,,,,,,,,,,,,,,,,,,,,,,,,,,,,,,,,,,,,,,,,,,,,,,,,,,,,,,,,,,,,,
1768202709.995258,1768202709.996682,7.000000,0.000000,4348.846191,4341.538574,4323.077148,4355.641113,4337.436035,4366.538574,4355.000000,4373.333496,4343.205078,4333.205078,4494.102539,4516.282227,4413.461426,4448.077148,4108.000000,3.000000,59.000000,,,,0.000000,4.000000,4.000000,2.000000,4.000000,4.000000,2.000000,4.000000,4.000000,4.000000,4.000000,4.000000,4.000000,4.000000,4.000000,66.666664,,,,,,,,,,,,,,,,,,,,,,,,,,,,,,,,,,,,,,,,,,,,,,,,,,,,,,,,,,,,,,,,,,,,,,,,,,,,,,,,,,,,,,,,,,,,,,,,,,,,,,,,,,,,,,,,,,,,,
1768202710.003067,1768202710.004291,8.000000,0.000000,4347.436035,4338.077148,4321.410156,4354.358887,4333.974121,4366.282227,4347.563965,4369.871582,4342.179688,4340.256348,4491.025879,4514.487305,4412.307617,4445.000000,4083.000000,3.000000,59.000000,,,,0.000000,4.000000,4.000000,2.000000,4.000000,4.000000,2.000000,4.000000,4.000000,4.000000,4.000000,4.000000,4.000000,4.000000,4.000000,66.666664,,,,,,,,,,,,,,,,,,,,,,,,,,,,,,,,,,,,,,,,,,,,,,,,,,,,,,,,,,,,,,,,,,,,,,,,,,,,,,,,,,,,,,,,,,,,,,,,,,,,,,,,,,,,,,,,,,,,,
1768202710.010875,1768202710.012099,9.000000,0.000000,4351.282227,4341.282227,4324.871582,4355.000000,4336.025879,4365.769043,4339.871582,4363.205078,4341.025879,4345.641113,4489.615234,4512.436035,4410.641113,4446.153809,4109.000000,3.000000,59.000000,,,,0.000000,4.000000,4.000000,2.000000,4.000000,4.000000,2.000000,4.000000,4.000000,4.000000,4.000000,4.000000,4.000000,4.000000,4.000000,66.666664,,,,,,,,,,,,,,,,,,,,,,,,,,,,,,,,,,,,,,,,,,,,,,,,,,,,,,,,,,,,,,,,,,,,,,,,,,,,,,,,,,,,,,,,,,,,,,,,,,,,,,,,,,,,,,,,,,,,,
1768202710.018684,1768202710.019808,10.000000,0.000000,4351.410156,4341.410156,4326.666504,4354.871582,4336.666504,4365.769043,4340.000000,4366.538574,4341.410156,4341.025879,4490.512695,4513.077148,4412.820313,4446.922852,4255.000000,3.000000,59.000000,,,,0.000000,4.000000,4.000000,2.000000,4.000000,4.000000,2.000000,4.000000,4.000000,4.000000,4.000000,4.000000,4.000000,4.000000,4.000000,66.666664,,,,,,,,,,,,,,,,,,,,,,,,,,,,,,,,,,,,,,,,,,,,,,,,,,,,,,,,,,,,,,,,,,,,,,,,,,,,,,,,,,,,,,,,,,,,,,,,,,,,,,,,,,,,,,,,,,,,,
1768202710.026492,1768202710.027616,11.000000,0.000000,4347.820313,4335.384766,4323.717773,4353.717773,4331.538574,4365.256348,4344.487305,4370.897461,4344.102539,4340.897461,4492.948730,4514.871582,4415.384766,4447.563965,4759.000000,3.000000,59.000000,,,,0.000000,4.000000,4.000000,2.000000,4.000000,4.000000,2.000000,4.000000,4.000000,4.000000,4.000000,4.000000,4.000000,4.000000,4.000000,66.666664,,,,,,,,,,,,,,,,,,,,,,,,,,,,,,,,,,,,,,,,,,,,,,,,,,,,,,,,,,,,,,,,,,,,,,,,,,,,,,,,,,,,,,,,,,,,,,,,,,,,,,,,,,,,,,,,,,,,,
1768202710.034301,1768202710.035624,12.000000,0.000000,4351.538574,4337.179688,4327.051270,4356.410156,4330.641113,4364.102539,4345.000000,4366.538574,4343.077148,4342.820313,4494.487305,4517.179688,4412.563965,4455.128418,5220.000000,3.000000,59.000000,,,,0.000000,4.000000,4.000000,2.000000,4.000000,4.000000,2.000000,4.000000,4.000000,4.000000,4.000000,4.000000,4.000000,4.000000,4.000000,66.666664,,,,,,,,,,,,,,,,,,,,,,,,,,,,,,,,,,,,,,,,,,,,,,,,,,,,,,,,,,,,,,,,,,,,,,,,,,,,,,,,,,,,,,,,,,,,,,,,,,,,,,,,,,,,,,,,,,,,,
1768202710.042109,1768202710.043433,13.000000,0.000000,4358.461426,4345.641113,4329.358887,4360.256348,4338.974121,4365.384766,4339.102539,4362.820313,4341.025879,4340.641113,4491.410156,4517.948730,4412.820313,4457.563965,4293.000000,3.000000,59.000000,,,,0.000000,4.000000,4.000000,2.000000,4.000000,4.000000,2.000000,4.000000,4.000000,4.000000,4.000000,4.000000,4.000000,4.000000,4.000000,66.666664,,,,,,,,,,,,,,,,,,,,,,,,,,,,,,,,,,,,,,,,,,,,,,,,,,,,,,,,,,,,,,,,,,,,,,,,,,,,,,,,,,,,,,,,,,,,,,,,,,,,,,,,,,,,,,,,,,,,,
1768202710.049918,1768202710.051341,14.000000,0.000000,4360.641113,4346.666504,4323.589844,4359.871582,4344.743652,4366.922852,4338.846191,4370.128418,4343.333496,4338.974121,4491.922852,4517.692383,4414.358887,4449.230957,4255.000000,3.000000,59.000000,,,,0.000000,4.000000,4.000000,2.000000,4.000000,4.000000,2.000000,4.000000,4.000000,4.000000,4.000000,4.000000,4.000000,4.000000,4.000000,66.666664,1.000000,33.333332,4.000000,4.000000,0.000000,4.000000,4.000000,0.000000,4.000000,4.000000,4.000000,4.000000,4.000000,4.000000,4.000000,4.000000,,,,,,,,,,,,,,,,,,,,,,,,,,,,,,,,2.778636,0.360942,0.341076,0.236952,0.159419,1.383625,0.173375,0.206653,0.191094,0.091403,0.186295,0.061015,0.017219,0.059498,0.035248,0.783305,0.096525,0.141349,0.162804,0.071406,0.278082,0.126937,0.125493,0.077298,0.091826,0.036463,0.043467,0.044753,0.027904,0.039638,0.284880,0.249514,0.136445,0.126849,0.321637,0.406389,0.428105,0.148871,0.112138,0.117567,0.524445,0.427084,0.239976,0.167805,0.131471,0.370702,0.298006,0.190010,0.191136,0.222835,0.240468,0.336626,0.237220,0.317715,0.339609,0.734951,0.335356,0.175224,0.130654,0.297426,1.028023,0.288900,0.302569,0.224099,0.227158,2.004697,0.459859,0.392073,0.399386,0.341857
1768202710.057726,1768202710.059150,15.000000,0.000000,4356.666504,4341.282227,4320.897461,4356.794922,4343.205078,4364.487305,4346.794922,4377.692383,4346.153809,4338.333496,4499.230957,4521.282227,4413.077148,4447.563965,4759.000000,3.000000,59.000000,,,,0.000000,4.000000,4.000000,2.000000,4.000000,4.000000,2.000000,4.000000,4.000000,4.000000,4.000000,4.000000,4.000000,4.000000,4.000000,66.666664,,,,,,,,,,,,,,,,,,,,,,,,,,,,,,,,,,,,,,,,,,,,,,,,,,,,,,,,,,,,,,,,,,,,,,,,,,,,,,,,,,,,,,,,,,,,,,,,,,,,,,,,,,,,,,,,,,,,,
1768202710.065534,1768202710.067158,16.000000,0.000000,4347.436035,4337.051270,4324.487305,4354.615234,4339.358887,4361.794922,4350.256348,4370.000000,4340.384766,4336.282227,4497.436035,4520.769043,4412.948730,4448.717773,0.000000,3.000000,59.000000,,,,0.000000,4.000000,4.000000,2.000000,4.000000,4.000000,2.000000,4.000000,4.000000,4.000000,4.000000,4.000000,4.000000,4.000000,4.000000,66.666664,,,,,,,,,,,,,,,,,,,,,,,,,,,,,,,,,,,,,,,,,,,,,,,,,,,,,,,,,,,,,,,,,,,,,,,,,,,,,,,,,,,,,,,,,,,,,,,,,,,,,,,,,,,,,,,,,,,,,
1768202710.073343,1768202710.074966,17.000000,0.000000,4345.512695,4335.512695,4327.307617,4354.871582,4339.102539,4361.666504,4346.153809,4362.563965,4336.794922,4337.179688,4490.256348,4515.128418,4411.025879,4444.743652,0.000000,3.000000,59.000000,,,,0.000000,4.000000,4.000000,2.000000,4.000000,4.000000,2.000000,4.000000,4.000000,4.000000,4.000000,4.000000,4.000000,4.000000,4.000000,66.666664,,,,,,,,,,,,,,,,,,,,,,,,,,,,,,,,,,,,,,,,,,,,,,,,,,,,,,,,,,,,,,,,,,,,,,,,,,,,,,,,,,,,,,,,,,,,,,,,,,,,,,,,,,,,,,,,,,,,,
1768202710.081151,1768202710.082675,18.000000,0.000000,4354.871582,4341.025879,4326.282227,4356.922852,4339.102539,4361.282227,4342.820313,4366.153809,4343.077148,4339.871582,4490.897461,4509.743652,4410.128418,4443.974121,0.000000,3.000000,59.000000,,,,0.000000,4.000000,4.000000,2.000000,4.000000,4.000000,2.000000,4.000000,4.000000,4.000000,4.000000,4.000000,4.000000,4.000000,4.000000,66.666664,,,,,,,,,,,,,,,,,,,,,,,,,,,,,,,,,,,,,,,,,,,,,,,,,,,,,,,,,,,,,,,,,,,,,,,,,,,,,,,,,,,,,,,,,,,,,,,,,,,,,,,,,,,,,,,,,,,,,
1768202710.088960,1768202710.090483,19.000000,0.000000,4352.051270,4343.205078,4321.538574,4355.128418,4336.410156,4361.666504,4342.563965,4363.077148,4344.743652,4334.102539,4492.051270,4503.846191,4412.820313,4445.769043,0.000000,3.000000,59.000000,,,,0.000000,4.000000,4.000000,2.000000,4.000000,4.000000,2.000000,4.000000,4.000000,4.000000,4.000000,4.000000,4.000000,4.000000,4.000000,66.666664,,,,,,,,,,,,,,,,,,,,,,,,,,,,,,,,,,,,,,,,,,,,,,,,,,,,,,,,,,,,,,,,,,,,,,,,,,,,,,,,,,,,,,,,,,,,,,,,,,,,,,,,,,,,,,,,,,,,,
1768202710.096768,1768202710.098092,20.000000,0.000000,4338.077148,4334.743652,4318.077148,4350.256348,4335.897461,4363.205078,4342.692383,4358.846191,4337.820313,4328.717773,4487.051270,4505.512695,4406.666504,4442.692383,0.000000,3.000000,59.000000,,,,0.000000,4.000000,4.000000,2.000000,4.000000,4.000000,2.000000,4.000000,4.000000,4.000000,4.000000,4.000000,4.000000,4.000000,4.000000,66.666664,,,,,,,,,,,,,,,,,,,,,,,,,,,,,,,,,,,,,,,,,,,,,,,,,,,,,,,,,,,,,,,,,,,,,,,,,,,,,,,,,,,,,,,,,,,,,,,,,,,,,,,,,,,,,,,,,,,,,
1768202710.104576,1768202710.105900,21.000000,0.000000,4341.794922,4332.179688,4324.743652,4351.922852,4334.615234,4362.436035,4339.230957,4361.666504,4333.205078,4331.922852,4487.820313,4511.282227,4398.589844,4442.692383,0.000000,3.000000,59.000000,,,,0.000000,4.000000,4.000000,2.000000,4.000000,4.000000,2.000000,4.000000,4.000000,4.000000,4.000000,4.000000,4.000000,4.000000,4.000000,66.666664,,,,,,,,,,,,,,,,,,,,,,,,,,,,,,,,,,,,,,,,,,,,,,,,,,,,,,,,,,,,,,,,,,,,,,,,,,,,,,,,,,,,,,,,,,,,,,,,,,,,,,,,,,,,,,,,,,,,,
1768202710.112385,1768202710.113809,22.000000,0.000000,4355.897461,4337.436035,4329.102539,4358.077148,4333.589844,4362.307617,4337.563965,4359.615234,4336.666504,4330.897461,4492.563965,4508.846191,4406.410156,4446.410156,0.000000,3.000000,59.000000,,,,0.000000,4.000000,4.000000,2.000000,4.000000,4.000000,2.000000,4.000000,4.000000,4.000000,4.000000,4.000000,4.000000,4.000000,4.000000,66.666664,,,,,,,,,,,,,,,,,,,,,,,,,,,,,,,,,,,,,,,,,,,,,,,,,,,,,,,,,,,,,,,,,,,,,,,,,,,,,,,,,,,,,,,,,,,,,,,,,,,,,,,,,,,,,,,,,,,,,
1768202710.120193,1768202710.121617,23.000000,0.000000,4359.487305,4342.179688,4323.846191,4360.000000,4335.641113,4363.846191,4344.102539,4356.922852,4335.641113,4325.641113,4486.794922,4502.436035,4410.128418,4445.769043,0.000000,3.000000,59.000000,,,,0.000000,4.000000,4.000000,2.000000,4.000000,4.000000,2.000000,4.000000,4.000000,4.000000,4.000000,4.000000,4.000000,4.000000,4.000000,66.666664,,,,,,,,,,,,,,,,,,,,,,,,,,,,,,,,,,,,,,,,,,,,,,,,,,,,,,,,,,,,,,,,,,,,,,,,,,,,,,,,,,,,,,,,,,,,,,,,,,,,,,,,,,,,,,,,,,,,,
1768202710.128002,1768202710.129625,24.000000,0.000000,4358.077148,4344.102539,4324.358887,4358.974121,4333.589844,4362.948730,4347.307617,4359.615234,4328.077148,4323.717773,4481.922852,4503.846191,4396.153809,4445.000000,0.000000,3.000000,59.000000,,,,0.000000,4.000000,4.000000,2.000000,4.000000,4.000000,2.000000,4.000000,4.000000,4.000000,4.000000,4.000000,4.000000,4.000000,4.000000,66.666664,,,,,,,,,,,,,,,,,,,,,,,,,,,,,,,,,,,,,,,,,,,,,,,,,,,,,,,,,,,,,,,,,,,,,,,,,,,,,,,,,,,,,,,,,,,,,,,,,,,,,,,,,,,,,,,,,,,,,
1768202710.135810,1768202710.137434,25.000000,0.000000,4357.820313,4343.077148,4328.461426,4357.051270,4330.000000,4363.205078,4341.025879,4357.436035,4328.717773,4322.948730,4485.641113,4509.743652,4395.128418,4445.000000,0.000000,3.000000,59.000000,,,,0.000000,4.000000,4.000000,2.000000,4.000000,4.000000,2.000000,4.000000,4.000000,4.000000,4.000000,4.000000,4.000000,4.000000,4.000000,66.666664,,,,,,,,,,,,,,,,,,,,,,,,,,,,,,,,,,,,,,,,,,,,,,,,,,,,,,,,,,,,,,,,,,,,,,,,,,,,,,,,,,,,,,,,,,,,,,,,,,,,,,,,,,,,,,,,,,,,,
1768202710.143619,1768202710.145142,26.000000,0.000000,4356.922852,4341.153809,4327.563965,4356.410156,4333.846191,4366.282227,4338.205078,4354.743652,4334.743652,4326.666504,4490.641113,4514.230957,4411.410156,4444.230957,0.000000,3.000000,59.000000,,,,0.000000,4.000000,4.000000,2.000000,4.000000,4.000000,2.000000,4.000000,4.000000,4.000000,4.000000,4.000000,4.000000,4.000000,4.000000,66.666664,,,,,,,,,,,,,,,,,,,,,,,,,,,,,,,,,,,,,,,,,,,,,,,,,,,,,,,,,,,,,,,,,,,,,,,,,,,,,,,,,,,,,,,,,,,,,,,,,,,,,,,,,,,,,,,,,,,,,
1768202710.151427,1768202710.152951,27.000000,0.000000,4358.077148,4344.615234,4327.179688,4361.153809,4340.641113,4365.256348,4338.717773,4359.230957,4338.205078,4337.563965,4493.205078,4514.615234,4416.538574,4451.794922,0.000000,3.000000,59.000000,,,,0.000000,4.000000,4.000000,2.000000,4.000000,4.000000,2.000000,4.000000,4.000000,4.000000,4.000000,4.000000,4.000000,4.000000,4.000000,66.666664,,,,,,,,,,,,,,,,,,,,,,,,,,,,,,,,,,,,,,,,,,,,,,,,,,,,,,,,,,,,,,,,,,,,,,,,,,,,,,,,,,,,,,,,,,,,,,,,,,,,,,,,,,,,,,,,,,,,,
1768202710.159235,1768202710.160559,28.000000,0.000000,4360.128418,4349.230957,4328.589844,4363.974121,4339.615234,4362.948730,4336.410156,4360.000000,4336.922852,4340.000000,4492.563965,4510.512695,4403.333496,4457.179688,0.000000,3.000000,59.000000,,,,0.000000,4.000000,4.000000,2.000000,4.000000,4.000000,2.000000,4.000000,4.000000,4.000000,4.000000,4.000000,4.000000,4.000000,4.000000,66.666664,,,,,,,,,,,,,,,,,,,,,,,,,,,,,,,,,,,,,,,,,,,,,,,,,,,,,,,,,,,,,,,,,,,,,,,,,,,,,,,,,,,,,,,,,,,,,,,,,,,,,,,,,,,,,,,,,,,,,
1768202710.167044,1768202710.168368,29.000000,0.000000,4357.948730,4346.025879,4327.179688,4359.230957,4338.205078,4365.128418,4338.333496,4358.846191,4334.230957,4332.179688,4489.743652,4510.512695,4396.794922,4448.077148,0.000000,3.000000,59.000000,,,,0.000000,4.000000,4.000000,2.000000,4.000000,4.000000,2.000000,4.000000,4.000000,4.000000,4.000000,4.000000,4.000000,4.000000,4.000000,66.666664,,,,,,,,,,,,,,,,,,,,,,,,,,,,,,,,,,,,,,,,,,,,,,,,,,,,,,,,,,,,,,,,,,,,,,,,,,,,,,,,,,,,,,,,,,,,,,,,,,,,,,,,,,,,,,,,,,,,,
1768202710.174852,1768202710.176076,30.000000,0.000000,4355.128418,4339.871582,4326.922852,4355.897461,4336.538574,4364.487305,4343.333496,4358.846191,4331.666504,4326.794922,4491.153809,4511.794922,4401.538574,4442.307617,0.000000,3.000000,59.000000,,,,0.000000,4.000000,4.000000,2.000000,4.000000,4.000000,2.000000,4.000000,4.000000,4.000000,4.000000,4.000000,4.000000,4.000000,4.000000,66.666664,,,,,,,,,,,,,,,,,,,,,,,,,,,,,,,,,,,,,,,,,,,,,,,,3.126982,0.348990,0.308787,0.235329,0.138721,1.584620,0.161592,0.196562,0.181129,0.082118,0.200232,0.060523,0.021709,0.060892,0.037726,0.931206,0.109965,0.141075,0.163295,0.071745,0.300801,0.105743,0.107498,0.072712,0.086444,0.047093,0.042332,0.043075,0.027602,0.042406,0.374427,0.232623,0.132862,0.112552,0.308261,0.535869,0.400411,0.145547,0.123694,0.117169,0.608122,0.431867,0.249009,0.182006,0.135608,0.351772,0.277684,0.215327,0.224075,0.222873,0.235019,0.321299,0.254634,0.359195,0.336686,0.703465,0.356650,0.139994,0.132287,0.256082,0.986478,0.234809,0.335626,0.286694,0.230235,2.263996,0.442352,0.345983,0.408437,0.332680
1768202710.182661,1768202710.183885,31.000000,0.000000,4358.461426,4339.743652,4328.205078,4357.051270,4330.769043,4357.692383,4340.512695,4353.717773,4329.871582,4325.769043,4490.384766,4505.128418,4400.512695,4445.384766,0.000000,3.000000,59.000000,,,,0.000000,4.000000,4.000000,2.000000,4.000000,4.000000,2.000000,4.000000,4.000000,4.000000,4.000000,4.000000,4.000000,4.000000,4.000000,66.666664,,,,,,,,,,,,,,,,,,,,,,,,,,,,,,,,,,,,,,,,,,,,,,,,,,,,,,,,,,,,,,,,,,,,,,,,,,,,,,,,,,,,,,,,,,,,,,,,,,,,,,,,,,,,,,,,,,,,,
1768202710.190469,1768202710.191494,32.000000,0.000000,4358.205078,4341.666504,4327.051270,4357.692383,4332.051270,4358.974121,4338.205078,4352.563965,4327.948730,4328.461426,4477.436035,4494.230957,4396.025879,4440.256348,0.000000,3.000000,59.000000,,,,0.000000,4.000000,4.000000,2.000000,4.000000,4.000000,2.000000,4.000000,4.000000,4.000000,4.000000,4.000000,4.000000,4.000000,4.000000,66.666664,,,,,,,,,,,,,,,,,,,,,,,,,,,,,,,,,,,,,,,,,,,,,,,,,,,,,,,,,,,,,,,,,,,,,,,,,,,,,,,,,,,,,,,,,,,,,,,,,,,,,,,,,,,,,,,,,,,,,
1768202710.198278,1768202710.199302,33.000000,0.000000,4348.077148,4341.153809,4324.743652,4356.922852,4337.307617,4367.820313,4340.000000,4357.563965,4325.128418,4323.589844,4469.358887,4489.871582,4392.051270,4428.461426,0.000000,3.000000,59.000000,,,,0.000000,4.000000,4.000000,2.000000,4.000000,4.000000,2.000000,4.000000,4.000000,4.000000,4.000000,4.000000,4.000000,4.000000,4.000000,66.666664,,,,,,,,,,,,,,,,,,,,,,,,,,,,,,,,,,,,,,,,,,,,,,,,,,,,,,,,,,,,,,,,,,,,,,,,,,,,,,,,,,,,,,,,,,,,,,,,,,,,,,,,,,,,,,,,,,,,,
1768202710.206086,1768202710.207011,34.000000,0.000000,4344.615234,4340.769043,4324.487305,4357.563965,4334.358887,4368.077148,4340.256348,4356.666504,4326.410156,4313.333496,4476.538574,4493.717773,4387.948730,4425.128418,0.000000,3.000000,59.000000,,,,0.000000,4.000000,4.000000,2.000000,4.000000,4.000000,2.000000,4.000000,4.000000,4.000000,4.000000,4.000000,4.000000,4.000000,4.000000,66.666664,,,,,,,,,,,,,,,,,,,,,,,,,,,,,,,,,,,,,,,,,,,,,,,,,,,,,,,,,,,,,,,,,,,,,,,,,,,,,,,,,,,,,,,,,,,,,,,,,,,,,,,,,,,,,,,,,,,,,
1768202710.213894,1768202710.214819,35.000000,0.000000,4353.589844,4342.179688,4325.512695,4358.974121,4329.230957,4360.512695,4336.666504,4349.102539,4325.897461,4318.333496,4481.410156,4495.384766,4388.205078,4432.436035,0.000000,3.000000,59.000000,,,,0.000000,4.000000,4.000000,2.000000,4.000000,4.000000,2.000000,4.000000,4.000000,4.000000,4.000000,4.000000,4.000000,4.000000,4.000000,66.666664,,,,,,,,,,,,,,,,,,,,,,,,,,,,,,,,,,,,,,,,,,,,,,,,,,,,,,,,,,,,,,,,,,,,,,,,,,,,,,,,,,,,,,,,,,,,,,,,,,,,,,,,,,,,,,,,,,,,,
1768202710.221703,1768202710.222827,36.000000,0.000000,4359.102539,4343.077148,4325.769043,4360.384766,4333.077148,4359.871582,4332.436035,4347.179688,4323.589844,4326.922852,4479.102539,4495.128418,4393.077148,4441.666504,0.000000,3.000000,59.000000,,,,0.000000,4.000000,4.000000,2.000000,4.000000,4.000000,2.000000,4.000000,4.000000,4.000000,4.000000,4.000000,4.000000,4.000000,4.000000,66.666664,,,,,,,,,,,,,,,,,,,,,,,,,,,,,,,,,,,,,,,,,,,,,,,,,,,,,,,,,,,,,,,,,,,,,,,,,,,,,,,,,,,,,,,,,,,,,,,,,,,,,,,,,,,,,,,,,,,,,
1768202710.229511,1768202710.230636,37.000000,0.000000,4356.922852,4342.307617,4323.974121,4359.102539,4337.307617,4364.743652,4331.794922,4355.769043,4328.846191,4326.922852,4482.692383,4499.743652,4396.666504,4444.230957,0.000000,3.000000,59.000000,,,,0.000000,4.000000,4.000000,2.000000,4.000000,4.000000,2.000000,4.000000,4.000000,4.000000,4.000000,4.000000,4.000000,4.000000,4.000000,66.666664,,,,,,,,,,,,,,,,,,,,,,,,,,,,,,,,,,,,,,,,,,,,,,,,,,,,,,,,,,,,,,,,,,,,,,,,,,,,,,,,,,,,,,,,,,,,,,,,,,,,,,,,,,,,,,,,,,,,,
1768202710.237320,1768202710.238344,38.000000,0.000000,4357.051270,4341.538574,4317.692383,4359.230957,4335.769043,4365.000000,4336.666504,4361.922852,4336.153809,4331.666504,4491.410156,4502.563965,4397.307617,4443.589844,0.000000,3.000000,59.000000,,,,0.000000,4.000000,4.000000,2.000000,4.000000,4.000000,2.000000,4.000000,4.000000,4.000000,4.000000,4.000000,4.000000,4.000000,4.000000,66.666664,,,,,,,,,,,,,,,,,,,,,,,,,,,,,,,,,,,,,,,,,,,,,,,,,,,,,,,,,,,,,,,,,,,,,,,,,,,,,,,,,,,,,,,,,,,,,,,,,,,,,,,,,,,,,,,,,,,,,
1768202710.245128,1768202710.246153,39.000000,0.000000,4359.743652,4343.205078,4317.436035,4363.333496,4335.897461,4365.384766,4343.846191,4361.153809,4335.128418,4337.692383,4491.538574,4500.384766,4395.512695,4442.563965,0.000000,3.000000,59.000000,,,,0.000000,4.000000,4.000000,2.000000,4.000000,4.000000,2.000000,4.000000,4.000000,4.000000,4.000000,4.000000,4.000000,4.000000,4.000000,66.666664,,,,,,,,,,,,,,,,,,,,,,,,,,,,,,,,,,,,,,,,,,,,,,,,,,,,,,,,,,,,,,,,,,,,,,,,,,,,,,,,,,,,,,,,,,,,,,,,,,,,,,,,,,,,,,,,,,,,,
1768202710.252936,1768202710.254161,40.000000,0.000000,4359.102539,4344.487305,4323.205078,4363.077148,4336.410156,4366.025879,4343.589844,4357.307617,4330.128418,4329.615234,4484.230957,4495.128418,4390.384766,4435.256348,0.000000,3.000000,59.000000,,,,0.000000,4.000000,4.000000,2.000000,4.000000,4.000000,2.000000,4.000000,4.000000,4.000000,4.000000,4.000000,4.000000,4.000000,4.000000,66.666664,,,,,,,,,,,,,,,,,,,,,,,,,,,,,,,,,,,,,,,,,,,,,,,,,,,,,,,,,,,,,,,,,,,,,,,,,,,,,,,,,,,,,,,,,,,,,,,,,,,,,,,,,,,,,,,,,,,,,
1768202710.260745,1768202710.261969,41.000000,0.000000,4356.410156,4341.153809,4322.436035,4357.948730,4331.282227,4362.179688,4340.256348,4356.153809,4329.230957,4324.358887,4479.102539,4491.922852,4387.179688,4430.769043,0.000000,3.000000,59.000000,,,,0.000000,4.000000,4.000000,2.000000,4.000000,4.000000,2.000000,4.000000,4.000000,4.000000,4.000000,4.000000,4.000000,4.000000,4.000000,66.666664,,,,,,,,,,,,,,,,,,,,,,,,,,,,,,,,,,,,,,,,,,,,,,,,,,,,,,,,,,,,,,,,,,,,,,,,,,,,,,,,,,,,,,,,,,,,,,,,,,,,,,,,,,,,,,,,,,,,,
1768202710.268553,1768202710.269878,42.000000,0.000000,4355.256348,4338.333496,4320.128418,4355.641113,4329.102539,4362.436035,4338.461426,4357.948730,4329.743652,4328.077148,4485.000000,4497.820313,4389.487305,4437.948730,0.000000,3.000000,59.000000,,,,0.000000,4.000000,4.000000,2.000000,4.000000,4.000000,2.000000,4.000000,4.000000,4.000000,4.000000,4.000000,4.000000,4.000000,4.000000,66.666664,,,,,,,,,,,,,,,,,,,,,,,,,,,,,,,,,,,,,,,,,,,,,,,,,,,,,,,,,,,,,,,,,,,,,,,,,,,,,,,,,,,,,,,,,,,,,,,,,,,,,,,,,,,,,,,,,,,,,
1768202710.276362,1768202710.277686,43.000000,0.000000,4356.410156,4342.563965,4321.282227,4357.820313,4334.102539,4365.897461,4337.179688,4356.922852,4331.794922,4326.153809,4491.025879,4502.948730,4397.692383,4444.230957,0.000000,3.000000,59.000000,,,,0.000000,4.000000,4.000000,2.000000,4.000000,4.000000,2.000000,4.000000,4.000000,4.000000,4.000000,4.000000,4.000000,4.000000,4.000000,66.666664,,,,,,,,,,,,,,,,,,,,,,,,,,,,,,,,,,,,,,,,,,,,,,,,,,,,,,,,,,,,,,,,,,,,,,,,,,,,,,,,,,,,,,,,,,,,,,,,,,,,,,,,,,,,,,,,,,,,,
1768202710.284170,1768202710.285295,44.000000,0.000000,4355.000000,4347.563965,4321.794922,4359.487305,4336.666504,4364.358887,4340.769043,4353.333496,4332.307617,4325.256348,4483.461426,4502.307617,4394.615234,4442.563965,0.000000,3.000000,59.000000,,,,0.000000,4.000000,4.000000,2.000000,4.000000,4.000000,2.000000,4.000000,4.000000,4.000000,4.000000,4.000000,4.000000,4.000000,4.000000,66.666664,,,,,,,,,,,,,,,,,,,,,,,,,,,,,,,,,,,,,,,,,,,,,,,,,,,,,,,,,,,,,,,,,,,,,,,,,,,,,,,,,,,,,,,,,,,,,,,,,,,,,,,,,,,,,,,,,,,,,
1768202710.291979,1768202710.293103,45.000000,0.000000,4357.820313,4353.974121,4321.666504,4358.974121,4334.871582,4362.692383,4343.589844,4352.307617,4329.102539,4327.436035,4478.717773,4501.410156,4382.820313,4441.538574,0.000000,3.000000,59.000000,,,,0.000000,4.000000,4.000000,2.000000,4.000000,4.000000,2.000000,4.000000,4.000000,4.000000,4.000000,4.000000,4.000000,4.000000,4.000000,66.666664,,,,,,,,,,,,,,,,,,,,,,,,,,,,,,,,,,,,,,,,,,,,,,,,,,,,,,,,,,,,,,,,,,,,,,,,,,,,,,,,,,,,,,,,,,,,,,,,,,,,,,,,,,,,,,,,,,,,,
1768202710.299787,1768202710.301012,46.000000,0.000000,4365.128418,4357.563965,4325.000000,4357.948730,4337.820313,4363.589844,4341.410156,4355.384766,4329.487305,4327.179688,4484.615234,4500.897461,4388.717773,4442.820313,0.000000,3.000000,59.000000,,,,0.000000,4.000000,4.000000,2.000000,4.000000,4.000000,2.000000,4.000000,4.000000,4.000000,4.000000,4.000000,4.000000,4.000000,4.000000,66.666664,,,,,,,,,,,,,,,,,,,,,,,,,,,,,,,,,,,,,,,,,,,,,,,,3.135901,0.308584,0.279478,0.239024,0.119942,1.620269,0.142510,0.194706,0.176198,0.077436,0.196151,0.059165,0.029544,0.061285,0.040205,1.011991,0.124354,0.145891,0.161757,0.070497,0.312013,0.089011,0.088436,0.074187,0.081057,0.057973,0.043857,0.041203,0.026827,0.044795,0.460806,0.231755,0.140382,0.102594,0.281483,0.686133,0.394324,0.148865,0.138309,0.117432,0.683301,0.424341,0.253081,0.190765,0.141621,0.353950,0.264556,0.254574,0.252976,0.224826,0.257838,0.307736,0.273060,0.387786,0.334766,0.690069,0.368921,0.126562,0.140760,0.209801,1.003288,0.178720,0.364313,0.341904,0.233296,2.303297,0.420543,0.307743,0.399621,0.312178
1768202710.307596,1768202710.308820,47.000000,0.000000,4364.358887,4348.333496,4325.897461,4358.205078,4340.512695,4362.948730,4340.128418,4357.563965,4331.153809,4326.922852,4482.563965,4496.410156,4397.179688,4440.769043,0.000000,3.000000,59.000000,,,,0.000000,4.000000,4.000000,2.000000,4.000000,4.000000,2.000000,4.000000,4.000000,4.000000,4.000000,4.000000,4.000000,4.000000,4.000000,66.666664,,,,,,,,,,,,,,,,,,,,,,,,,,,,,,,,,,,,,,,,,,,,,,,,,,,,,,,,,,,,,,,,,,,,,,,,,,,,,,,,,,,,,,,,,,,,,,,,,,,,,,,,,,,,,,,,,,,,,
1768202710.315404,1768202710.316828,48.000000,0.000000,4355.769043,4341.538574,4322.820313,4358.846191,4339.102539,4363.077148,4343.205078,4357.179688,4330.256348,4328.589844,4477.307617,4494.358887,4391.410156,4439.102539,0.000000,3.000000,59.000000,,,,0.000000,4.000000,4.000000,2.000000,4.000000,4.000000,2.000000,4.000000,4.000000,4.000000,4.000000,4.000000,4.000000,4.000000,4.000000,66.666664,,,,,,,,,,,,,,,,,,,,,,,,,,,,,,,,,,,,,,,,,,,,,,,,,,,,,,,,,,,,,,,,,,,,,,,,,,,,,,,,,,,,,,,,,,,,,,,,,,,,,,,,,,,,,,,,,,,,,
1768202710.323213,1768202710.324637,49.000000,0.000000,4350.769043,4343.333496,4322.051270,4356.025879,4335.256348,4364.615234,4342.820313,4357.051270,4332.563965,4328.333496,4480.897461,4497.820313,4386.410156,4439.358887,0.000000,3.000000,59.000000,,,,0.000000,4.000000,4.000000,2.000000,4.000000,4.000000,2.000000,4.000000,4.000000,4.000000,4.000000,4.000000,4.000000,4.000000,4.000000,66.666664,,,,,,,,,,,,,,,,,,,,,,,,,,,,,,,,,,,,,,,,,,,,,,,,,,,,,,,,,,,,,,,,,,,,,,,,,,,,,,,,,,,,,,,,,,,,,,,,,,,,,,,,,,,,,,,,,,,,,
1768202710.331021,1768202710.332345,50.000000,0.000000,4350.384766,4337.820313,4321.410156,4353.205078,4330.256348,4365.769043,4342.179688,4355.769043,4336.538574,4323.717773,4477.179688,4497.436035,4384.230957,4437.563965,0.000000,3.000000,59.000000,,,,0.000000,4.000000,4.000000,2.000000,4.000000,4.000000,2.000000,4.000000,4.000000,4.000000,4.000000,4.000000,4.000000,4.000000,4.000000,66.666664,,,,,,,,,,,,,,,,,,,,,,,,,,,,,,,,,,,,,,,,,,,,,,,,,,,,,,,,,,,,,,,,,,,,,,,,,,,,,,,,,,,,,,,,,,,,,,,,,,,,,,,,,,,,,,,,,,,,,
1768202710.338829,1768202710.340154,51.000000,0.000000,4352.563965,4333.461426,4321.666504,4355.256348,4330.384766,4364.615234,4345.256348,4356.794922,4338.205078,4328.717773,4475.256348,4495.128418,4386.153809,4436.282227,0.000000,3.000000,59.000000,,,,0.000000,4.000000,4.000000,2.000000,4.000000,4.000000,2.000000,4.000000,4.000000,4.000000,4.000000,4.000000,4.000000,4.000000,4.000000,66.666664,,,,,,,,,,,,,,,,,,,,,,,,,,,,,,,,,,,,,,,,,,,,,,,,,,,,,,,,,,,,,,,,,,,,,,,,,,,,,,,,,,,,,,,,,,,,,,,,,,,,,,,,,,,,,,,,,,,,,
1768202710.346638,1768202710.347762,52.000000,0.000000,4358.333496,4341.410156,4325.000000,4359.487305,4337.436035,4361.922852,4345.897461,4360.384766,4342.820313,4338.974121,4492.051270,4501.666504,4399.102539,4442.307617,0.000000,3.000000,59.000000,,,,0.000000,4.000000,4.000000,2.000000,4.000000,4.000000,2.000000,4.000000,4.000000,4.000000,4.000000,4.000000,4.000000,4.000000,4.000000,66.666664,,,,,,,,,,,,,,,,,,,,,,,,,,,,,,,,,,,,,,,,,,,,,,,,,,,,,,,,,,,,,,,,,,,,,,,,,,,,,,,,,,,,,,,,,,,,,,,,,,,,,,,,,,,,,,,,,,,,,
1768202710.354446,1768202710.355571,53.000000,0.000000,4359.358887,4345.769043,4326.794922,4359.102539,4339.487305,4361.922852,4345.000000,4360.128418,4345.512695,4333.846191,4496.666504,4507.051270,4400.000000,4447.692383,0.000000,3.000000,59.000000,,,,0.000000,4.000000,4.000000,2.000000,4.000000,4.000000,2.000000,4.000000,4.000000,4.000000,4.000000,4.000000,4.000000,4.000000,4.000000,66.666664,,,,,,,,,,,,,,,,,,,,,,,,,,,,,,,,,,,,,,,,,,,,,,,,,,,,,,,,,,,,,,,,,,,,,,,,,,,,,,,,,,,,,,,,,,,,,,,,,,,,,,,,,,,,,,,,,,,,,
1768202710.362255,1768202710.363279,54.000000,0.000000,4351.794922,4340.256348,4319.743652,4354.743652,4332.051270,4361.922852,4343.717773,4355.256348,4335.769043,4321.794922,4477.948730,4500.769043,4381.666504,4439.871582,0.000000,3.000000,59.000000,,,,0.000000,4.000000,4.000000,2.000000,4.000000,4.000000,2.000000,4.000000,4.000000,4.000000,4.000000,4.000000,4.000000,4.000000,4.000000,66.666664,,,,,,,,,,,,,,,,,,,,,,,,,,,,,,,,,,,,,,,,,,,,,,,,,,,,,,,,,,,,,,,,,,,,,,,,,,,,,,,,,,,,,,,,,,,,,,,,,,,,,,,,,,,,,,,,,,,,,
1768202710.370063,1768202710.371088,55.000000,0.000000,4349.743652,4336.538574,4315.000000,4351.794922,4326.282227,4359.230957,4339.230957,4351.025879,4325.256348,4323.717773,4468.846191,4494.487305,4376.410156,4432.948730,0.000000,3.000000,59.000000,,,,0.000000,4.000000,4.000000,2.000000,4.000000,4.000000,2.000000,4.000000,4.000000,4.000000,4.000000,4.000000,4.000000,4.000000,4.000000,66.666664,,,,,,,,,,,,,,,,,,,,,,,,,,,,,,,,,,,,,,,,,,,,,,,,,,,,,,,,,,,,,,,,,,,,,,,,,,,,,,,,,,,,,,,,,,,,,,,,,,,,,,,,,,,,,,,,,,,,,
1768202710.377871,1768202710.378696,56.000000,0.000000,4356.794922,4332.436035,4323.077148,4352.436035,4326.922852,4360.512695,4341.410156,4353.717773,4334.358887,4330.512695,4483.461426,4498.077148,4387.948730,4439.871582,0.000000,3.000000,59.000000,,,,0.000000,4.000000,4.000000,2.000000,4.000000,4.000000,2.000000,4.000000,4.000000,4.000000,4.000000,4.000000,4.000000,4.000000,4.000000,66.666664,,,,,,,,,,,,,,,,,,,,,,,,,,,,,,,,,,,,,,,,,,,,,,,,,,,,,,,,,,,,,,,,,,,,,,,,,,,,,,,,,,,,,,,,,,,,,,,,,,,,,,,,,,,,,,,,,,,,,
1768202710.385680,1768202710.386505,57.000000,0.000000,4352.820313,4328.589844,4327.307617,4351.153809,4329.487305,4364.230957,4347.563965,4358.333496,4343.846191,4328.974121,4490.512695,4501.410156,4391.538574,4445.128418,0.000000,3.000000,59.000000,,,,0.000000,4.000000,4.000000,2.000000,4.000000,4.000000,2.000000,4.000000,4.000000,4.000000,4.000000,4.000000,4.000000,4.000000,4.000000,66.666664,,,,,,,,,,,,,,,,,,,,,,,,,,,,,,,,,,,,,,,,,,,,,,,,,,,,,,,,,,,,,,,,,,,,,,,,,,,,,,,,,,,,,,,,,,,,,,,,,,,,,,,,,,,,,,,,,,,,,
1768202710.393488,1768202710.394213,58.000000,0.000000,4342.307617,4330.897461,4320.256348,4348.205078,4332.179688,4363.205078,4346.153809,4355.769043,4332.948730,4326.282227,4478.333496,4498.077148,4383.077148,4437.051270,0.000000,3.000000,59.000000,,,,0.000000,4.000000,4.000000,2.000000,4.000000,4.000000,2.000000,4.000000,4.000000,4.000000,4.000000,4.000000,4.000000,4.000000,4.000000,66.666664,,,,,,,,,,,,,,,,,,,,,,,,,,,,,,,,,,,,,,,,,,,,,,,,,,,,,,,,,,,,,,,,,,,,,,,,,,,,,,,,,,,,,,,,,,,,,,,,,,,,,,,,,,,,,,,,,,,,,
1768202710.401297,1768202710.402022,59.000000,0.000000,4346.410156,4336.538574,4318.333496,4352.436035,4337.820313,4363.589844,4341.282227,4350.512695,4324.487305,4325.384766,4471.538574,4493.589844,4379.358887,4430.384766,0.000000,3.000000,59.000000,,,,0.000000,4.000000,4.000000,2.000000,4.000000,4.000000,2.000000,4.000000,4.000000,4.000000,4.000000,4.000000,4.000000,4.000000,4.000000,66.666664,,,,,,,,,,,,,,,,,,,,,,,,,,,,,,,,,,,,,,,,,,,,,,,,,,,,,,,,,,,,,,,,,,,,,,,,,,,,,,,,,,,,,,,,,,,,,,,,,,,,,,,,,,,,,,,,,,,,,
1768202710.409105,1768202710.409631,60.000000,0.000000,4354.743652,4341.666504,4325.128418,4358.974121,4342.051270,4365.769043,4345.128418,4351.282227,4329.743652,4324.358887,4478.589844,4494.871582,4384.358887,4433.846191,0.000000,3.000000,59.000000,,,,0.000000,4.000000,4.000000,2.000000,4.000000,4.000000,2.000000,4.000000,4.000000,4.000000,4.000000,4.000000,4.000000,4.000000,4.000000,66.666664,,,,,,,,,,,,,,,,,,,,,,,,,,,,,,,,,,,,,,,,,,,,,,,,,,,,,,,,,,,,,,,,,,,,,,,,,,,,,,,,,,,,,,,,,,,,,,,,,,,,,,,,,,,,,,,,,,,,,
1768202710.416914,1768202710.417439,61.000000,0.000000,4355.000000,4341.666504,4326.410156,4359.230957,4341.538574,4363.846191,4353.333496,4353.077148,4329.230957,4324.230957,4480.128418,4498.461426,4379.615234,4438.717773,0.000000,3.000000,59.000000,,,,0.000000,4.000000,4.000000,2.000000,4.000000,4.000000,2.000000,4.000000,4.000000,4.000000,4.000000,4.000000,4.000000,4.000000,4.000000,66.666664,,,,,,,,,,,,,,,,,,,,,,,,,,,,,,,,,,,,,,,,,,,,,,,,,,,,,,,,,,,,,,,,,,,,,,,,,,,,,,,,,,,,,,,,,,,,,,,,,,,,,,,,,,,,,,,,,,,,,
1768202710.424722,1768202710.425148,62.000000,0.000000,4355.512695,4339.615234,4323.717773,4356.794922,4340.769043,4363.846191,4350.512695,4350.769043,4325.384766,4325.641113,4474.743652,4500.000000,4370.000000,4440.512695,0.000000,3.000000,59.000000,,,,0.000000,4.000000,4.000000,2.000000,4.000000,4.000000,2.000000,4.000000,4.000000,4.000000,4.000000,4.000000,4.000000,4.000000,4.000000,66.666664,,,,,,,,,,,,,,,,,,,,,,,,,,,,,,,,,,,,,,,,,,,,,,,,2.797178,0.255378,0.256729,0.241919,0.106947,1.476203,0.122018,0.202366,0.173630,0.075770,0.176116,0.058823,0.039266,0.060348,0.042386,1.008817,0.139096,0.152643,0.156807,0.066745,0.304810,0.082742,0.074589,0.080028,0.077638,0.066937,0.047276,0.040684,0.026097,0.046544,0.514168,0.250017,0.161511,0.095238,0.246749,0.812735,0.408271,0.156238,0.149801,0.116558,0.723932,0.402501,0.248960,0.187881,0.145511,0.379819,0.265859,0.303394,0.265212,0.226940,0.317128,0.305739,0.288931,0.389430,0.327648,0.728694,0.384312,0.128975,0.148529,0.168522,1.043072,0.138778,0.380511,0.372312,0.235106,2.120812,0.414070,0.277017,0.371454,0.281427
1768202710.432530,1768202710.432956,63.000000,0.000000,4358.589844,4340.897461,4323.461426,4356.025879,4339.102539,4366.922852,4347.307617,4353.974121,4332.051270,4326.794922,4481.922852,4499.871582,4376.282227,4441.282227,0.000000,3.000000,59.000000,,,,0.000000,4.000000,4.000000,2.000000,4.000000,4.000000,2.000000,4.000000,4.000000,4.000000,4.000000,4.000000,4.000000,4.000000,4.000000,66.666664,,,,,,,,,,,,,,,,,,,,,,,,,,,,,,,,,,,,,,,,,,,,,,,,,,,,,,,,,,,,,,,,,,,,,,,,,,,,,,,,,,,,,,,,,,,,,,,,,,,,,,,,,,,,,,,,,,,,,
1768202710.440339,1768202710.440964,64.000000,0.000000,4359.871582,4343.974121,4322.563965,4357.436035,4339.871582,4367.948730,4355.384766,4360.897461,4339.102539,4323.846191,4491.538574,4499.743652,4384.871582,4445.641113,1102.000000,3.000000,59.000000,,,,0.000000,4.000000,4.000000,2.000000,4.000000,4.000000,2.000000,4.000000,4.000000,4.000000,4.000000,4.000000,4.000000,4.000000,4.000000,66.666664,,,,,,,,,,,,,,,,,,,,,,,,,,,,,,,,,,,,,,,,,,,,,,,,,,,,,,,,,,,,,,,,,,,,,,,,,,,,,,,,,,,,,,,,,,,,,,,,,,,,,,,,,,,,,,,,,,,,,
1768202710.448147,1768202710.448773,65.000000,0.000000,4359.743652,4341.666504,4323.205078,4357.820313,4341.410156,4366.666504,4353.846191,4360.769043,4334.615234,4323.589844,4481.794922,4498.205078,4373.717773,4442.179688,2800.000000,3.000000,59.000000,,,,0.000000,4.000000,4.000000,2.000000,4.000000,4.000000,2.000000,4.000000,4.000000,4.000000,4.000000,4.000000,4.000000,4.000000,4.000000,66.666664,,,,,,,,,,,,,,,,,,,,,,,,,,,,,,,,,,,,,,,,,,,,,,,,,,,,,,,,,,,,,,,,,,,,,,,,,,,,,,,,,,,,,,,,,,,,,,,,,,,,,,,,,,,,,,,,,,,,,
1768202710.455956,1768202710.456681,66.000000,0.000000,4357.051270,4336.282227,4324.743652,4358.077148,4338.589844,4364.487305,4344.102539,4355.384766,4329.230957,4325.512695,4470.384766,4496.538574,4364.743652,4430.512695,3762.000000,3.000000,59.000000,,,,0.000000,4.000000,4.000000,2.000000,4.000000,4.000000,2.000000,4.000000,4.000000,4.000000,4.000000,4.000000,4.000000,4.000000,4.000000,66.666664,,,,,,,,,,,,,,,,,,,,,,,,,,,,,,,,,,,,,,,,,,,,,,,,,,,,,,,,,,,,,,,,,,,,,,,,,,,,,,,,,,,,,,,,,,,,,,,,,,,,,,,,,,,,,,,,,,,,,
1768202710.463764,1768202710.464490,67.000000,0.000000,4356.025879,4337.563965,4323.974121,4361.794922,4336.666504,4366.922852,4350.512695,4356.538574,4334.230957,4327.051270,4483.461426,4498.846191,4377.692383,4435.256348,3694.000000,3.000000,59.000000,,,,0.000000,4.000000,4.000000,2.000000,4.000000,4.000000,2.000000,4.000000,4.000000,4.000000,4.000000,4.000000,4.000000,4.000000,4.000000,66.666664,,,,,,,,,,,,,,,,,,,,,,,,,,,,,,,,,,,,,,,,,,,,,,,,,,,,,,,,,,,,,,,,,,,,,,,,,,,,,,,,,,,,,,,,,,,,,,,,,,,,,,,,,,,,,,,,,,,,,
1768202710.471573,1768202710.472498,68.000000,0.000000,4360.641113,4342.820313,4322.692383,4365.000000,4341.153809,4370.128418,4360.256348,4364.743652,4340.897461,4327.820313,4493.589844,4501.538574,4382.436035,4445.000000,3742.000000,3.000000,59.000000,,,,0.000000,4.000000,4.000000,2.000000,4.000000,4.000000,2.000000,4.000000,4.000000,4.000000,4.000000,4.000000,4.000000,4.000000,4.000000,66.666664,,,,,,,,,,,,,,,,,,,,,,,,,,,,,,,,,,,,,,,,,,,,,,,,,,,,,,,,,,,,,,,,,,,,,,,,,,,,,,,,,,,,,,,,,,,,,,,,,,,,,,,,,,,,,,,,,,,,,
1768202710.479381,1768202710.480306,69.000000,0.000000,4357.051270,4341.922852,4320.897461,4363.077148,4345.384766,4366.922852,4354.743652,4369.358887,4338.974121,4326.666504,4480.256348,4499.743652,4368.717773,4433.974121,835.000000,3.000000,59.000000,,,,0.000000,4.000000,4.000000,2.000000,4.000000,4.000000,2.000000,4.000000,4.000000,4.000000,4.000000,4.000000,4.000000,4.000000,4.000000,66.666664,,,,,,,,,,,,,,,,,,,,,,,,,,,,,,,,,,,,,,,,,,,,,,,,,,,,,,,,,,,,,,,,,,,,,,,,,,,,,,,,,,,,,,,,,,,,,,,,,,,,,,,,,,,,,,,,,,,,,
1768202710.487189,1768202710.488015,70.000000,0.000000,4344.230957,4329.743652,4318.589844,4356.666504,4343.461426,4362.820313,4348.846191,4365.128418,4335.384766,4326.922852,4474.615234,4496.794922,4368.846191,4422.179688,3966.000000,3.000000,59.000000,,,,0.000000,4.000000,4.000000,2.000000,4.000000,4.000000,2.000000,4.000000,4.000000,4.000000,4.000000,4.000000,4.000000,4.000000,4.000000,66.666664,,,,,,,,,,,,,,,,,,,,,,,,,,,,,,,,,,,,,,,,,,,,,,,,,,,,,,,,,,,,,,,,,,,,,,,,,,,,,,,,,,,,,,,,,,,,,,,,,,,,,,,,,,,,,,,,,,,,,
1768202710.494998,1768202710.495823,71.000000,0.000000,4338.589844,4324.358887,4317.563965,4351.410156,4340.384766,4362.948730,4349.743652,4359.358887,4334.743652,4325.897461,4480.000000,4496.538574,4381.025879,4431.282227,4109.000000,3.000000,59.000000,,,,0.000000,4.000000,4.000000,2.000000,4.000000,4.000000,2.000000,4.000000,4.000000,4.000000,4.000000,4.000000,4.000000,4.000000,4.000000,66.666664,,,,,,,,,,,,,,,,,,,,,,,,,,,,,,,,,,,,,,,,,,,,,,,,,,,,,,,,,,,,,,,,,,,,,,,,,,,,,,,,,,,,,,,,,,,,,,,,,,,,,,,,,,,,,,,,,,,,,
1768202710.502806,1768202710.503831,72.000000,0.000000,4345.128418,4334.358887,4316.538574,4352.563965,4340.769043,4363.717773,4346.025879,4356.538574,4332.051270,4319.487305,4477.563965,4496.666504,4387.948730,4442.051270,4083.000000,3.000000,59.000000,,,,0.000000,4.000000,4.000000,2.000000,4.000000,4.000000,2.000000,4.000000,4.000000,4.000000,4.000000,4.000000,4.000000,4.000000,4.000000,66.666664,,,,,,,,,,,,,,,,,,,,,,,,,,,,,,,,,,,,,,,,,,,,,,,,,,,,,,,,,,,,,,,,,,,,,,,,,,,,,,,,,,,,,,,,,,,,,,,,,,,,,,,,,,,,,,,,,,,,,
1768202710.510615,1768202710.511640,73.000000,0.000000,4355.769043,4344.230957,4317.179688,4357.820313,4343.717773,4365.256348,4341.794922,4351.282227,4330.897461,4318.717773,4482.051270,4497.051270,4399.743652,4444.487305,4113.000000,3.000000,59.000000,,,,0.000000,4.000000,4.000000,2.000000,4.000000,4.000000,2.000000,4.000000,4.000000,4.000000,4.000000,4.000000,4.000000,4.000000,4.000000,66.666664,,,,,,,,,,,,,,,,,,,,,,,,,,,,,,,,,,,,,,,,,,,,,,,,,,,,,,,,,,,,,,,,,,,,,,,,,,,,,,,,,,,,,,,,,,,,,,,,,,,,,,,,,,,,,,,,,,,,,
1768202710.518423,1768202710.519548,74.000000,0.000000,4361.666504,4347.179688,4320.512695,4359.358887,4346.410156,4366.666504,4345.000000,4351.794922,4335.384766,4326.538574,4492.820313,4498.846191,4411.794922,4446.922852,4248.000000,3.000000,59.000000,,,,0.000000,4.000000,4.000000,2.000000,4.000000,4.000000,2.000000,4.000000,4.000000,4.000000,4.000000,4.000000,4.000000,4.000000,4.000000,66.666664,,,,,,,,,,,,,,,,,,,,,,,,,,,,,,,,,,,,,,,,,,,,,,,,,,,,,,,,,,,,,,,,,,,,,,,,,,,,,,,,,,,,,,,,,,,,,,,,,,,,,,,,,,,,,,,,,,,,,
1768202710.526231,1768202710.527357,75.000000,0.000000,4361.410156,4351.410156,4322.436035,4358.333496,4350.897461,4365.000000,4349.358887,4359.358887,4340.256348,4325.384766,4488.205078,4499.102539,4410.512695,4447.948730,4759.000000,3.000000,59.000000,,,,0.000000,4.000000,4.000000,2.000000,4.000000,4.000000,2.000000,4.000000,4.000000,4.000000,4.000000,4.000000,4.000000,4.000000,4.000000,66.666664,,,,,,,,,,,,,,,,,,,,,,,,,,,,,,,,,,,,,,,,,,,,,,,,,,,,,,,,,,,,,,,,,,,,,,,,,,,,,,,,,,,,,,,,,,,,,,,,,,,,,,,,,,,,,,,,,,,,,
1768202710.534040,1768202710.534965,76.000000,0.000000,4358.974121,4351.666504,4322.051270,4359.743652,4353.717773,4363.205078,4347.692383,4357.948730,4337.307617,4324.487305,4481.153809,4500.128418,4404.743652,4447.948730,5220.000000,3.000000,59.000000,,,,0.000000,4.000000,4.000000,2.000000,4.000000,4.000000,2.000000,4.000000,4.000000,4.000000,4.000000,4.000000,4.000000,4.000000,4.000000,66.666664,,,,,,,,,,,,,,,,,,,,,,,,,,,,,,,,,,,,,,,,,,,,,,,,,,,,,,,,,,,,,,,,,,,,,,,,,,,,,,,,,,,,,,,,,,,,,,,,,,,,,,,,,,,,,,,,,,,,,
1768202710.541848,1768202710.542774,77.000000,0.000000,4359.230957,4343.461426,4319.743652,4359.102539,4349.871582,4364.743652,4347.563965,4351.794922,4332.692383,4323.333496,4483.333496,4502.436035,4401.794922,4447.179688,4293.000000,3.000000,59.000000,,,,0.000000,4.000000,4.000000,2.000000,4.000000,4.000000,2.000000,4.000000,4.000000,4.000000,4.000000,4.000000,4.000000,4.000000,4.000000,66.666664,,,,,,,,,,,,,,,,,,,,,,,,,,,,,,,,,,,,,,,,,,,,,,,,,,,,,,,,,,,,,,,,,,,,,,,,,,,,,,,,,,,,,,,,,,,,,,,,,,,,,,,,,,,,,,,,,,,,,
1768202710.549657,1768202710.550482,78.000000,0.000000,4361.410156,4341.922852,4320.256348,4356.410156,4349.743652,4367.948730,4354.102539,4356.538574,4337.179688,4313.589844,4485.128418,4501.153809,4405.128418,4446.794922,4248.000000,3.000000,59.000000,,,,0.000000,4.000000,4.000000,2.000000,4.000000,4.000000,2.000000,4.000000,4.000000,4.000000,4.000000,4.000000,4.000000,4.000000,4.000000,66.666664,1.000000,33.333332,4.000000,4.000000,0.000000,4.000000,4.000000,0.000000,4.000000,4.000000,4.000000,4.000000,4.000000,4.000000,4.000000,4.000000,,,,,,,,,,,,,,,,,,,,,,,,,,,,,,,,2.268936,0.207074,0.239992,0.237328,0.102015,1.225940,0.105738,0.218530,0.169884,0.075174,0.151397,0.059672,0.048672,0.057940,0.044421,0.932301,0.152254,0.155660,0.146480,0.060363,0.288099,0.093450,0.070095,0.087707,0.076807,0.072523,0.050132,0.041898,0.026004,0.047583,0.514414,0.282334,0.195349,0.090536,0.211666,0.883271,0.431181,0.167533,0.153532,0.113890,0.710659,0.371505,0.237841,0.171981,0.144259,0.415568,0.290570,0.358177,0.255099,0.227081,0.408282,0.327366,0.305682,0.361474,0.310868,0.842123,0.419556,0.143455,0.151945,0.138621,1.053281,0.126014,0.379304,0.369554,0.235202,1.823760,0.438557,0.257119,0.330380,0.243963
1768202710.557465,1768202710.558291,79.000000,0.000000,4365.256348,4346.153809,4323.333496,4354.743652,4354.102539,4367.307617,4353.205078,4363.077148,4342.179688,4316.282227,4485.000000,4502.307617,4410.000000,4447.692383,4759.000000,3.000000,59.000000,,,,0.000000,4.000000,4.000000,2.000000,4.000000,4.000000,2.000000,4.000000,4.000000,4.000000,4.000000,4.000000,4.000000,4.000000,4.000000,66.666664,,,,,,,,,,,,,,,,,,,,,,,,,,,,,,,,,,,,,,,,,,,,,,,,,,,,,,,,,,,,,,,,,,,,,,,,,,,,,,,,,,,,,,,,,,,,,,,,,,,,,,,,,,,,,,,,,,,,,
1768202710.565274,1768202710.566299,80.000000,0.000000,4367.179688,4344.615234,4325.384766,4356.538574,4351.538574,4363.846191,4352.820313,4361.282227,4342.948730,4329.102539,4486.666504,4508.974121,4403.717773,4446.025879,5220.000000,3.000000,59.000000,,,,0.000000,4.000000,4.000000,2.000000,4.000000,4.000000,2.000000,4.000000,4.000000,4.000000,4.000000,4.000000,4.000000,4.000000,4.000000,66.666664,,,,,,,,,,,,,,,,,,,,,,,,,,,,,,,,,,,,,,,,,,,,,,,,,,,,,,,,,,,,,,,,,,,,,,,,,,,,,,,,,,,,,,,,,,,,,,,,,,,,,,,,,,,,,,,,,,,,,
1768202710.573082,1768202710.574107,81.000000,0.000000,4361.922852,4339.871582,4322.692383,4358.589844,4348.077148,4365.512695,4360.897461,4359.102539,4343.974121,4328.589844,4485.512695,4511.025879,4400.256348,4442.948730,4293.000000,3.000000,59.000000,,,,0.000000,4.000000,4.000000,2.000000,4.000000,4.000000,2.000000,4.000000,4.000000,4.000000,4.000000,4.000000,4.000000,4.000000,4.000000,66.666664,,,,,,,,,,,,,,,,,,,,,,,,,,,,,,,,,,,,,,,,,,,,,,,,,,,,,,,,,,,,,,,,,,,,,,,,,,,,,,,,,,,,,,,,,,,,,,,,,,,,,,,,,,,,,,,,,,,,,
1768202710.580891,1768202710.581816,82.000000,0.000000,4355.641113,4340.641113,4317.307617,4353.205078,4346.794922,4367.051270,4356.410156,4357.307617,4342.948730,4321.282227,4479.615234,4505.128418,4404.230957,4442.436035,4248.000000,3.000000,59.000000,,,,0.000000,4.000000,4.000000,2.000000,4.000000,4.000000,2.000000,4.000000,4.000000,4.000000,4.000000,4.000000,4.000000,4.000000,4.000000,66.666664,,,,,,,,,,,,,,,,,,,,,,,,,,,,,,,,,,,,,,,,,,,,,,,,,,,,,,,,,,,,,,,,,,,,,,,,,,,,,,,,,,,,,,,,,,,,,,,,,,,,,,,,,,,,,,,,,,,,,
1768202710.588699,1768202710.589624,83.000000,0.000000,4354.102539,4344.487305,4318.717773,4348.589844,4346.282227,4366.025879,4348.846191,4356.538574,4340.769043,4321.282227,4475.000000,4500.256348,4398.974121,4443.077148,4759.000000,3.000000,59.000000,,,,0.000000,4.000000,4.000000,2.000000,4.000000,4.000000,2.000000,4.000000,4.000000,4.000000,4.000000,4.000000,4.000000,4.000000,4.000000,66.666664,,,,,,,,,,,,,,,,,,,,,,,,,,,,,,,,,,,,,,,,,,,,,,,,,,,,,,,,,,,,,,,,,,,,,,,,,,,,,,,,,,,,,,,,,,,,,,,,,,,,,,,,,,,,,,,,,,,,,
1768202710.596507,1768202710.597233,84.000000,0.000000,4357.179688,4343.333496,4322.179688,4351.025879,4351.282227,4367.563965,4358.589844,4360.512695,4343.333496,4323.717773,4474.230957,4498.589844,4392.948730,4440.641113,5220.000000,3.000000,59.000000,,,,0.000000,4.000000,4.000000,2.000000,4.000000,4.000000,2.000000,4.000000,4.000000,4.000000,4.000000,4.000000,4.000000,4.000000,4.000000,66.666664,,,,,,,,,,,,,,,,,,,,,,,,,,,,,,,,,,,,,,,,,,,,,,,,,,,,,,,,,,,,,,,,,,,,,,,,,,,,,,,,,,,,,,,,,,,,,,,,,,,,,,,,,,,,,,,,,,,,,
1768202710.604316,1768202710.605042,85.000000,0.000000,4358.333496,4341.666504,4320.128418,4353.461426,4352.692383,4368.077148,4361.794922,4365.128418,4349.230957,4324.871582,4477.948730,4497.692383,4395.641113,4440.641113,4293.000000,3.000000,59.000000,,,,0.000000,4.000000,4.000000,2.000000,4.000000,4.000000,2.000000,4.000000,4.000000,4.000000,4.000000,4.000000,4.000000,4.000000,4.000000,66.666664,,,,,,,,,,,,,,,,,,,,,,,,,,,,,,,,,,,,,,,,,,,,,,,,,,,,,,,,,,,,,,,,,,,,,,,,,,,,,,,,,,,,,,,,,,,,,,,,,,,,,,,,,,,,,,,,,,,,,
1768202710.612124,1768202710.612750,86.000000,0.000000,4354.230957,4344.615234,4318.846191,4353.717773,4346.538574,4365.641113,4347.820313,4367.563965,4352.820313,4326.025879,4483.846191,4505.512695,4397.436035,4444.230957,4248.000000,3.000000,59.000000,,,,0.000000,4.000000,4.000000,2.000000,4.000000,4.000000,2.000000,4.000000,4.000000,4.000000,4.000000,4.000000,4.000000,4.000000,4.000000,66.666664,,,,,,,,,,,,,,,,,,,,,,,,,,,,,,,,,,,,,,,,,,,,,,,,,,,,,,,,,,,,,,,,,,,,,,,,,,,,,,,,,,,,,,,,,,,,,,,,,,,,,,,,,,,,,,,,,,,,,
1768202710.619933,1768202710.620559,87.000000,0.000000,4353.974121,4350.128418,4322.436035,4356.794922,4346.025879,4364.615234,4345.641113,4369.102539,4349.487305,4324.871582,4490.000000,4511.538574,4398.205078,4443.205078,4759.000000,3.000000,59.000000,,,,0.000000,4.000000,4.000000,2.000000,4.000000,4.000000,2.000000,4.000000,4.000000,4.000000,4.000000,4.000000,4.000000,4.000000,4.000000,66.666664,,,,,,,,,,,,,,,,,,,,,,,,,,,,,,,,,,,,,,,,,,,,,,,,,,,,,,,,,,,,,,,,,,,,,,,,,,,,,,,,,,,,,,,,,,,,,,,,,,,,,,,,,,,,,,,,,,,,,
1768202710.627741,1768202710.628567,88.000000,0.000000,4359.230957,4355.000000,4325.000000,4359.230957,4351.282227,4366.538574,4356.153809,4371.153809,4346.025879,4327.179688,4490.000000,4508.974121,4400.641113,4442.820313,5220.000000,3.000000,59.000000,,,,0.000000,4.000000,4.000000,2.000000,4.000000,4.000000,2.000000,4.000000,4.000000,4.000000,4.000000,4.000000,4.000000,4.000000,4.000000,66.666664,,,,,,,,,,,,,,,,,,,,,,,,,,,,,,,,,,,,,,,,,,,,,,,,,,,,,,,,,,,,,,,,,,,,,,,,,,,,,,,,,,,,,,,,,,,,,,,,,,,,,,,,,,,,,,,,,,,,,
1768202710.635549,1768202710.636375,89.000000,0.000000,4360.000000,4358.077148,4323.333496,4357.051270,4351.025879,4366.922852,4360.384766,4373.077148,4353.333496,4332.179688,4488.717773,4511.410156,4403.461426,4448.333496,4293.000000,3.000000,59.000000,,,,0.000000,4.000000,4.000000,2.000000,4.000000,4.000000,2.000000,4.000000,4.000000,4.000000,4.000000,4.000000,4.000000,4.000000,4.000000,66.666664,,,,,,,,,,,,,,,,,,,,,,,,,,,,,,,,,,,,,,,,,,,,,,,,,,,,,,,,,,,,,,,,,,,,,,,,,,,,,,,,,,,,,,,,,,,,,,,,,,,,,,,,,,,,,,,,,,,,,
1768202710.643358,1768202710.644284,90.000000,0.000000,4354.487305,4352.436035,4321.153809,4355.512695,4348.205078,4367.051270,4360.897461,4373.205078,4361.025879,4334.743652,4493.077148,4517.307617,4407.179688,4452.051270,4248.000000,3.000000,59.000000,,,,0.000000,4.000000,4.000000,2.000000,4.000000,4.000000,2.000000,4.000000,4.000000,4.000000,4.000000,4.000000,4.000000,4.000000,4.000000,66.666664,,,,,,,,,,,,,,,,,,,,,,,,,,,,,,,,,,,,,,,,,,,,,,,,,,,,,,,,,,,,,,,,,,,,,,,,,,,,,,,,,,,,,,,,,,,,,,,,,,,,,,,,,,,,,,,,,,,,,
1768202710.651166,1768202710.652092,91.000000,0.000000,4353.589844,4341.282227,4322.563965,4355.897461,4349.615234,4368.846191,4359.487305,4369.358887,4354.871582,4331.153809,4491.282227,4514.230957,4398.974121,4445.128418,4759.000000,3.000000,59.000000,,,,0.000000,4.000000,4.000000,2.000000,4.000000,4.000000,2.000000,4.000000,4.000000,4.000000,4.000000,4.000000,4.000000,4.000000,4.000000,66.666664,,,,,,,,,,,,,,,,,,,,,,,,,,,,,,,,,,,,,,,,,,,,,,,,,,,,,,,,,,,,,,,,,,,,,,,,,,,,,,,,,,,,,,,,,,,,,,,,,,,,,,,,,,,,,,,,,,,,,
1768202710.658975,1768202710.660100,92.000000,0.000000,4356.410156,4341.666504,4325.256348,4358.205078,4350.512695,4369.102539,4356.153809,4362.179688,4346.410156,4324.487305,4486.410156,4509.487305,4387.820313,4439.487305,5220.000000,3.000000,59.000000,,,,0.000000,4.000000,4.000000,2.000000,4.000000,4.000000,2.000000,4.000000,4.000000,4.000000,4.000000,4.000000,4.000000,4.000000,4.000000,66.666664,,,,,,,,,,,,,,,,,,,,,,,,,,,,,,,,,,,,,,,,,,,,,,,,,,,,,,,,,,,,,,,,,,,,,,,,,,,,,,,,,,,,,,,,,,,,,,,,,,,,,,,,,,,,,,,,,,,,,
1768202710.666783,1768202710.667909,93.000000,0.000000,4357.692383,4352.179688,4323.974121,4361.282227,4350.897461,4367.307617,4358.846191,4357.820313,4350.256348,4326.282227,4490.512695,4513.846191,4400.512695,4448.846191,4293.000000,3.000000,59.000000,,,,0.000000,4.000000,4.000000,2.000000,4.000000,4.000000,2.000000,4.000000,4.000000,4.000000,4.000000,4.000000,4.000000,4.000000,4.000000,66.666664,,,,,,,,,,,,,,,,,,,,,,,,,,,,,,,,,,,,,,,,,,,,,,,,,,,,,,,,,,,,,,,,,,,,,,,,,,,,,,,,,,,,,,,,,,,,,,,,,,,,,,,,,,,,,,,,,,,,,
1768202710.674592,1768202710.675817,94.000000,0.000000,4355.384766,4349.871582,4320.769043,4360.897461,4351.922852,4365.384766,4359.102539,4361.922852,4356.410156,4333.717773,4496.025879,4510.512695,4416.025879,4455.384766,4248.000000,3.000000,59.000000,,,,0.000000,4.000000,4.000000,2.000000,4.000000,4.000000,2.000000,4.000000,4.000000,4.000000,4.000000,4.000000,4.000000,4.000000,4.000000,66.666664,,,,,,,,,,,,,,,,,,,,,,,,,,,,,,,,,,,,,,,,,,,,,,,,1.747539,0.175468,0.229075,0.224566,0.105524,0.960730,0.095947,0.242790,0.165813,0.075084,0.133979,0.060394,0.055362,0.054521,0.046956,0.803538,0.160962,0.150798,0.131244,0.052415,0.270913,0.124408,0.075081,0.096061,0.077765,0.074006,0.050317,0.043929,0.026799,0.048035,0.461966,0.315732,0.234183,0.090074,0.182458,0.883777,0.450541,0.181013,0.147546,0.109793,0.641107,0.341622,0.222227,0.147976,0.137894,0.442390,0.341733,0.413393,0.226344,0.223315,0.511838,0.378126,0.326019,0.314453,0.286673,1.018170,0.479118,0.169084,0.150865,0.120805,1.004961,0.143319,0.360062,0.340490,0.236076,1.549262,0.493620,0.255490,0.288906,0.206309
1768202710.682400,1768202710.683626,95.000000,0.000000,4356.025879,4339.487305,4321.922852,4356.410156,4350.512695,4367.179688,4355.256348,4365.256348,4353.077148,4335.512695,4492.179688,4504.358887,4410.000000,4452.692383,4759.000000,3.000000,59.000000,,,,0.000000,4.000000,4.000000,2.000000,4.000000,4.000000,2.000000,4.000000,4.000000,4.000000,4.000000,4.000000,4.000000,4.000000,4.000000,66.666664,,,,,,,,,,,,,,,,,,,,,,,,,,,,,,,,,,,,,,,,,,,,,,,,,,,,,,,,,,,,,,,,,,,,,,,,,,,,,,,,,,,,,,,,,,,,,,,,,,,,,,,,,,,,,,,,,,,,,
1768202710.690209,1768202710.691234,96.000000,0.000000,4365.512695,4342.436035,4326.922852,4355.512695,4347.948730,4369.615234,4355.769043,4361.666504,4349.487305,4329.743652,4491.410156,4514.102539,4411.025879,4456.410156,5220.000000,3.000000,59.000000,,,,0.000000,4.000000,4.000000,2.000000,4.000000,4.000000,2.000000,4.000000,4.000000,4.000000,4.000000,4.000000,4.000000,4.000000,4.000000,66.666664,,,,,,,,,,,,,,,,,,,,,,,,,,,,,,,,,,,,,,,,,,,,,,,,,,,,,,,,,,,,,,,,,,,,,,,,,,,,,,,,,,,,,,,,,,,,,,,,,,,,,,,,,,,,,,,,,,,,,
1768202710.698017,1768202710.699043,97.000000,0.000000,4371.410156,4347.948730,4326.922852,4356.153809,4350.512695,4367.692383,4355.512695,4361.538574,4352.051270,4327.820313,4501.666504,4521.922852,4426.666504,4462.692383,4293.000000,3.000000,59.000000,,,,0.000000,4.000000,4.000000,2.000000,4.000000,4.000000,2.000000,4.000000,4.000000,4.000000,4.000000,4.000000,4.000000,4.000000,4.000000,66.666664,,,,,,,,,,,,,,,,,,,,,,,,,,,,,,,,,,,,,,,,,,,,,,,,,,,,,,,,,,,,,,,,,,,,,,,,,,,,,,,,,,,,,,,,,,,,,,,,,,,,,,,,,,,,,,,,,,,,,
1768202710.705825,1768202710.706951,98.000000,0.000000,4364.615234,4343.846191,4322.948730,4352.820313,4353.589844,4364.230957,4349.102539,4364.102539,4352.820313,4335.769043,4505.384766,4515.128418,4427.436035,4460.384766,4248.000000,3.000000,59.000000,,,,0.000000,4.000000,4.000000,2.000000,4.000000,4.000000,2.000000,4.000000,4.000000,4.000000,4.000000,4.000000,4.000000,4.000000,4.000000,66.666664,,,,,,,,,,,,,,,,,,,,,,,,,,,,,,,,,,,,,,,,,,,,,,,,,,,,,,,,,,,,,,,,,,,,,,,,,,,,,,,,,,,,,,,,,,,,,,,,,,,,,,,,,,,,,,,,,,,,,
1768202710.713634,1768202710.714759,99.000000,0.000000,4355.641113,4342.179688,4322.436035,4350.000000,4351.666504,4364.743652,4349.487305,4364.358887,4350.641113,4342.307617,4498.205078,4510.000000,4415.897461,4457.948730,4759.000000,3.000000,59.000000,,,,0.000000,4.000000,4.000000,2.000000,4.000000,4.000000,2.000000,4.000000,4.000000,4.000000,4.000000,4.000000,4.000000,4.000000,4.000000,66.666664,,,,,,,,,,,,,,,,,,,,,,,,,,,,,,,,,,,,,,,,,,,,,,,,,,,,,,,,,,,,,,,,,,,,,,,,,,,,,,,,,,,,,,,,,,,,,,,,,,,,,,,,,,,,,,,,,,,,,
1768202710.721442,1768202710.722768,100.000000,0.000000,4356.282227,4343.717773,4323.333496,4351.410156,4347.692383,4365.769043,4354.358887,4364.743652,4349.743652,4337.179688,4491.538574,4509.871582,4412.820313,4457.436035,5220.000000,3.000000,59.000000,,,,0.000000,4.000000,4.000000,2.000000,4.000000,4.000000,2.000000,4.000000,4.000000,4.000000,4.000000,4.000000,4.000000,4.000000,4.000000,66.666664,,,,,,,,,,,,,,,,,,,,,,,,,,,,,,,,,,,,,,,,,,,,,,,,,,,,,,,,,,,,,,,,,,,,,,,,,,,,,,,,,,,,,,,,,,,,,,,,,,,,,,,,,,,,,,,,,,,,,
1768202710.729251,1768202710.730576,101.000000,0.000000,4364.615234,4346.025879,4325.512695,4357.948730,4345.769043,4363.589844,4349.230957,4360.512695,4346.410156,4330.000000,4491.666504,4508.205078,4411.666504,4452.563965,4293.000000,3.000000,59.000000,,,,0.000000,4.000000,4.000000,2.000000,4.000000,4.000000,2.000000,4.000000,4.000000,4.000000,4.000000,4.000000,4.000000,4.000000,4.000000,66.666664,,,,,,,,,,,,,,,,,,,,,,,,,,,,,,,,,,,,,,,,,,,,,,,,,,,,,,,,,,,,,,,,,,,,,,,,,,,,,,,,,,,,,,,,,,,,,,,,,,,,,,,,,,,,,,,,,,,,,
1768202710.737059,1768202710.738285,102.000000,0.000000,4369.230957,4350.256348,4326.153809,4359.487305,4346.282227,4364.743652,4342.820313,4352.820313,4340.769043,4328.333496,4496.025879,4512.051270,4409.871582,4455.769043,4248.000000,3.000000,59.000000,,,,0.000000,4.000000,4.000000,2.000000,4.000000,4.000000,2.000000,4.000000,4.000000,4.000000,4.000000,4.000000,4.000000,4.000000,4.000000,66.666664,,,,,,,,,,,,,,,,,,,,,,,,,,,,,,,,,,,,,,,,,,,,,,,,,,,,,,,,,,,,,,,,,,,,,,,,,,,,,,,,,,,,,,,,,,,,,,,,,,,,,,,,,,,,,,,,,,,,,
1768202710.744867,1768202710.746093,103.000000,0.000000,4363.974121,4348.589844,4322.436035,4352.692383,4346.282227,4367.563965,4342.436035,4355.000000,4341.794922,4330.000000,4498.461426,4517.179688,4413.333496,4462.692383,4759.000000,3.000000,59.000000,,,,0.000000,4.000000,4.000000,2.000000,4.000000,4.000000,2.000000,4.000000,4.000000,4.000000,4.000000,4.000000,4.000000,4.000000,4.000000,66.666664,,,,,,,,,,,,,,,,,,,,,,,,,,,,,,,,,,,,,,,,,,,,,,,,,,,,,,,,,,,,,,,,,,,,,,,,,,,,,,,,,,,,,,,,,,,,,,,,,,,,,,,,,,,,,,,,,,,,,
1768202710.752676,1768202710.754101,104.000000,0.000000,4355.256348,4345.256348,4321.282227,4351.538574,4348.333496,4367.563965,4347.307617,4360.641113,4347.307617,4333.717773,4495.641113,4513.461426,4416.410156,4456.922852,5220.000000,3.000000,59.000000,,,,0.000000,4.000000,4.000000,2.000000,4.000000,4.000000,2.000000,4.000000,4.000000,4.000000,4.000000,4.000000,4.000000,4.000000,4.000000,66.666664,,,,,,,,,,,,,,,,,,,,,,,,,,,,,,,,,,,,,,,,,,,,,,,,,,,,,,,,,,,,,,,,,,,,,,,,,,,,,,,,,,,,,,,,,,,,,,,,,,,,,,,,,,,,,,,,,,,,,
1768202710.760484,1768202710.761910,105.000000,0.000000,4356.410156,4355.000000,4324.230957,4358.974121,4355.769043,4365.384766,4354.102539,4358.589844,4349.102539,4333.589844,4491.410156,4508.461426,4409.871582,4445.384766,4293.000000,3.000000,59.000000,,,,0.000000,4.000000,4.000000,2.000000,4.000000,4.000000,2.000000,4.000000,4.000000,4.000000,4.000000,4.000000,4.000000,4.000000,4.000000,66.666664,,,,,,,,,,,,,,,,,,,,,,,,,,,,,,,,,,,,,,,,,,,,,,,,,,,,,,,,,,,,,,,,,,,,,,,,,,,,,,,,,,,,,,,,,,,,,,,,,,,,,,,,,,,,,,,,,,,,,
1768202710.768293,1768202710.769618,106.000000,0.000000,4363.205078,4363.077148,4324.230957,4361.410156,4355.512695,4365.000000,4351.538574,4357.051270,4345.000000,4328.077148,4491.153809,4508.974121,4403.717773,4440.384766,4248.000000,3.000000,59.000000,,,,0.000000,4.000000,4.000000,2.000000,4.000000,4.000000,2.000000,4.000000,4.000000,4.000000,4.000000,4.000000,4.000000,4.000000,4.000000,66.666664,,,,,,,,,,,,,,,,,,,,,,,,,,,,,,,,,,,,,,,,,,,,,,,,,,,,,,,,,,,,,,,,,,,,,,,,,,,,,,,,,,,,,,,,,,,,,,,,,,,,,,,,,,,,,,,,,,,,,
1768202710.776101,1768202710.777427,107.000000,0.000000,4364.743652,4352.563965,4320.897461,4355.000000,4343.974121,4365.897461,4345.000000,4358.589844,4340.641113,4325.128418,4491.025879,4514.615234,4409.487305,4447.692383,4759.000000,3.000000,59.000000,,,,0.000000,4.000000,4.000000,2.000000,4.000000,4.000000,2.000000,4.000000,4.000000,4.000000,4.000000,4.000000,4.000000,4.000000,4.000000,66.666664,,,,,,,,,,,,,,,,,,,,,,,,,,,,,,,,,,,,,,,,,,,,,,,,,,,,,,,,,,,,,,,,,,,,,,,,,,,,,,,,,,,,,,,,,,,,,,,,,,,,,,,,,,,,,,,,,,,,,
1768202710.783910,1768202710.785035,108.000000,0.000000,4357.692383,4340.769043,4320.384766,4351.666504,4338.846191,4365.000000,4349.615234,4358.846191,4342.692383,4328.205078,4491.538574,4519.230957,4415.384766,4454.743652,5220.000000,3.000000,59.000000,,,,0.000000,4.000000,4.000000,2.000000,4.000000,4.000000,2.000000,4.000000,4.000000,4.000000,4.000000,4.000000,4.000000,4.000000,4.000000,66.666664,,,,,,,,,,,,,,,,,,,,,,,,,,,,,,,,,,,,,,,,,,,,,,,,,,,,,,,,,,,,,,,,,,,,,,,,,,,,,,,,,,,,,,,,,,,,,,,,,,,,,,,,,,,,,,,,,,,,,
1768202710.791718,1768202710.792844,109.000000,0.000000,4347.692383,4342.307617,4321.282227,4353.589844,4344.615234,4363.461426,4356.922852,4359.487305,4344.102539,4328.333496,4492.563965,4516.538574,4415.256348,4449.615234,4293.000000,3.000000,59.000000,,,,0.000000,4.000000,4.000000,2.000000,4.000000,4.000000,2.000000,4.000000,4.000000,4.000000,4.000000,4.000000,4.000000,4.000000,4.000000,66.666664,,,,,,,,,,,,,,,,,,,,,,,,,,,,,,,,,,,,,,,,,,,,,,,,,,,,,,,,,,,,,,,,,,,,,,,,,,,,,,,,,,,,,,,,,,,,,,,,,,,,,,,,,,,,,,,,,,,,,
1768202710.799526,1768202710.800552,110.000000,0.000000,4351.410156,4353.846191,4323.333496,4360.256348,4347.436035,4363.461426,4352.307617,4360.000000,4340.897461,4321.410156,4489.871582,4510.512695,4416.153809,4446.666504,4248.000000,3.000000,59.000000,,,,0.000000,4.000000,4.000000,2.000000,4.000000,4.000000,2.000000,4.000000,4.000000,4.000000,4.000000,4.000000,4.000000,4.000000,4.000000,66.666664,,,,,,,,,,,,,,,,,,,,,,,,,,,,,,,,,,,,,,,,,,,,,,,,1.371268,0.171497,0.228053,0.210409,0.115998,0.756805,0.103129,0.276113,0.166022,0.076801,0.129196,0.060349,0.057802,0.051102,0.050606,0.650126,0.164203,0.138743,0.115036,0.044983,0.254346,0.171507,0.086779,0.105146,0.078954,0.072561,0.047088,0.045189,0.028364,0.048001,0.374002,0.337822,0.265543,0.094474,0.161522,0.819123,0.458710,0.194743,0.135398,0.105179,0.526448,0.323960,0.204218,0.125688,0.129190,0.440867,0.407584,0.459010,0.190911,0.214518,0.586847,0.449646,0.347166,0.267109,0.263380,1.183942,0.549871,0.205446,0.147387,0.110979,0.937974,0.183502,0.326489,0.303611,0.241911,1.357656,0.561076,0.279176,0.258516,0.175741
1768202710.807335,1768202710.808361,111.000000,0.000000,4365.512695,4360.512695,4326.538574,4368.846191,4344.871582,4363.717773,4347.692383,4359.871582,4340.769043,4320.897461,4487.692383,4512.563965,4420.256348,4455.000000,4759.000000,3.000000,59.000000,,,,0.000000,4.000000,4.000000,2.000000,4.000000,4.000000,2.000000,4.000000,4.000000,4.000000,4.000000,4.000000,4.000000,4.000000,4.000000,66.666664,,,,,,,,,,,,,,,,,,,,,,,,,,,,,,,,,,,,,,,,,,,,,,,,,,,,,,,,,,,,,,,,,,,,,,,,,,,,,,,,,,,,,,,,,,,,,,,,,,,,,,,,,,,,,,,,,,,,,
1768202710.815143,1768202710.815970,112.000000,0.000000,4366.794922,4351.025879,4326.794922,4365.769043,4344.743652,4362.307617,4352.051270,4363.205078,4347.820313,4334.743652,4499.743652,4523.589844,4428.461426,4461.666504,5220.000000,3.000000,59.000000,,,,0.000000,4.000000,4.000000,2.000000,4.000000,4.000000,2.000000,4.000000,4.000000,4.000000,4.000000,4.000000,4.000000,4.000000,4.000000,66.666664,,,,,,,,,,,,,,,,,,,,,,,,,,,,,,,,,,,,,,,,,,,,,,,,,,,,,,,,,,,,,,,,,,,,,,,,,,,,,,,,,,,,,,,,,,,,,,,,,,,,,,,,,,,,,,,,,,,,,
1768202710.822952,1768202710.823778,113.000000,0.000000,4355.256348,4342.307617,4325.641113,4356.153809,4346.282227,4364.487305,4357.948730,4369.871582,4353.333496,4342.436035,4509.102539,4526.153809,4430.769043,4458.717773,4293.000000,3.000000,59.000000,,,,0.000000,4.000000,4.000000,2.000000,4.000000,4.000000,2.000000,4.000000,4.000000,4.000000,4.000000,4.000000,4.000000,4.000000,4.000000,66.666664,,,,,,,,,,,,,,,,,,,,,,,,,,,,,,,,,,,,,,,,,,,,,,,,,,,,,,,,,,,,,,,,,,,,,,,,,,,,,,,,,,,,,,,,,,,,,,,,,,,,,,,,,,,,,,,,,,,,,
1768202710.830760,1768202710.831487,114.000000,0.000000,4354.102539,4351.025879,4326.922852,4360.256348,4345.897461,4367.820313,4357.948730,4371.410156,4351.538574,4333.205078,4497.436035,4520.769043,4423.846191,4456.025879,4248.000000,3.000000,59.000000,,,,0.000000,4.000000,4.000000,2.000000,4.000000,4.000000,2.000000,4.000000,4.000000,4.000000,4.000000,4.000000,4.000000,4.000000,4.000000,66.666664,,,,,,,,,,,,,,,,,,,,,,,,,,,,,,,,,,,,,,,,,,,,,,,,,,,,,,,,,,,,,,,,,,,,,,,,,,,,,,,,,,,,,,,,,,,,,,,,,,,,,,,,,,,,,,,,,,,,,
1768202710.838569,1768202710.839295,115.000000,0.000000,4364.102539,4361.794922,4327.820313,4367.051270,4347.563965,4364.230957,4353.461426,4368.717773,4351.922852,4331.282227,4493.589844,4522.820313,4420.128418,4458.333496,4759.000000,3.000000,59.000000,,,,0.000000,4.000000,4.000000,2.000000,4.000000,4.000000,2.000000,4.000000,4.000000,4.000000,4.000000,4.000000,4.000000,4.000000,4.000000,66.666664,,,,,,,,,,,,,,,,,,,,,,,,,,,,,,,,,,,,,,,,,,,,,,,,,,,,,,,,,,,,,,,,,,,,,,,,,,,,,,,,,,,,,,,,,,,,,,,,,,,,,,,,,,,,,,,,,,,,,
1768202710.846377,1768202710.847303,116.000000,0.000000,4367.307617,4358.974121,4325.769043,4360.769043,4348.589844,4363.077148,4354.230957,4371.153809,4355.128418,4339.871582,4506.282227,4529.358887,4427.948730,4460.897461,5220.000000,3.000000,59.000000,,,,0.000000,4.000000,4.000000,2.000000,4.000000,4.000000,2.000000,4.000000,4.000000,4.000000,4.000000,4.000000,4.000000,4.000000,4.000000,66.666664,,,,,,,,,,,,,,,,,,,,,,,,,,,,,,,,,,,,,,,,,,,,,,,,,,,,,,,,,,,,,,,,,,,,,,,,,,,,,,,,,,,,,,,,,,,,,,,,,,,,,,,,,,,,,,,,,,,,,
1768202710.854185,1768202710.855112,117.000000,0.000000,4366.410156,4357.436035,4324.230957,4358.717773,4344.102539,4366.666504,4353.205078,4376.666504,4357.307617,4343.333496,4512.051270,4530.512695,4438.205078,4463.077148,4293.000000,3.000000,59.000000,,,,0.000000,4.000000,4.000000,2.000000,4.000000,4.000000,2.000000,4.000000,4.000000,4.000000,4.000000,4.000000,4.000000,4.000000,4.000000,66.666664,,,,,,,,,,,,,,,,,,,,,,,,,,,,,,,,,,,,,,,,,,,,,,,,,,,,,,,,,,,,,,,,,,,,,,,,,,,,,,,,,,,,,,,,,,,,,,,,,,,,,,,,,,,,,,,,,,,,,
1768202710.861994,1768202710.863020,118.000000,0.000000,4363.974121,4357.179688,4324.102539,4363.846191,4342.436035,4363.205078,4350.128418,4377.436035,4356.538574,4342.307617,4507.051270,4531.794922,4438.589844,4464.615234,4248.000000,3.000000,59.000000,,,,0.000000,4.000000,4.000000,2.000000,4.000000,4.000000,2.000000,4.000000,4.000000,4.000000,4.000000,4.000000,4.000000,4.000000,4.000000,66.666664,,,,,,,,,,,,,,,,,,,,,,,,,,,,,,,,,,,,,,,,,,,,,,,,,,,,,,,,,,,,,,,,,,,,,,,,,,,,,,,,,,,,,,,,,,,,,,,,,,,,,,,,,,,,,,,,,,,,,
1768202710.869802,1768202710.870828,119.000000,0.000000,4358.205078,4348.717773,4325.128418,4361.794922,4343.717773,4357.948730,4351.538574,4372.051270,4352.307617,4341.153809,4503.205078,4530.769043,4429.615234,4462.820313,4759.000000,3.000000,59.000000,,,,0.000000,4.000000,4.000000,2.000000,4.000000,4.000000,2.000000,4.000000,4.000000,4.000000,4.000000,4.000000,4.000000,4.000000,4.000000,66.666664,,,,,,,,,,,,,,,,,,,,,,,,,,,,,,,,,,,,,,,,,,,,,,,,,,,,,,,,,,,,,,,,,,,,,,,,,,,,,,,,,,,,,,,,,,,,,,,,,,,,,,,,,,,,,,,,,,,,,
1768202710.877611,1768202710.878837,120.000000,0.000000,4359.102539,4346.153809,4325.897461,4362.692383,4341.025879,4360.000000,4346.410156,4366.282227,4349.487305,4337.179688,4498.461426,4519.487305,4424.102539,4458.717773,5220.000000,3.000000,59.000000,,,,0.000000,4.000000,4.000000,2.000000,4.000000,4.000000,2.000000,4.000000,4.000000,4.000000,4.000000,4.000000,4.000000,4.000000,4.000000,66.666664,,,,,,,,,,,,,,,,,,,,,,,,,,,,,,,,,,,,,,,,,,,,,,,,,,,,,,,,,,,,,,,,,,,,,,,,,,,,,,,,,,,,,,,,,,,,,,,,,,,,,,,,,,,,,,,,,,,,,
1768202710.885419,1768202710.886645,121.000000,0.000000,4364.230957,4355.128418,4326.282227,4367.948730,4341.794922,4360.641113,4340.384766,4365.512695,4350.384766,4337.179688,4496.153809,4513.077148,4429.102539,4459.487305,4293.000000,3.000000,59.000000,,,,0.000000,4.000000,4.000000,2.000000,4.000000,4.000000,2.000000,4.000000,4.000000,4.000000,4.000000,4.000000,4.000000,4.000000,4.000000,66.666664,,,,,,,,,,,,,,,,,,,,,,,,,,,,,,,,,,,,,,,,,,,,,,,,,,,,,,,,,,,,,,,,,,,,,,,,,,,,,,,,,,,,,,,,,,,,,,,,,,,,,,,,,,,,,,,,,,,,,
1768202710.893227,1768202710.894354,122.000000,0.000000,4361.538574,4357.820313,4326.025879,4363.717773,4342.948730,4359.743652,4346.153809,4367.563965,4350.641113,4340.769043,4496.538574,4517.948730,4432.436035,4463.846191,4248.000000,3.000000,59.000000,,,,0.000000,4.000000,4.000000,2.000000,4.000000,4.000000,2.000000,4.000000,4.000000,4.000000,4.000000,4.000000,4.000000,4.000000,4.000000,66.666664,,,,,,,,,,,,,,,,,,,,,,,,,,,,,,,,,,,,,,,,,,,,,,,,,,,,,,,,,,,,,,,,,,,,,,,,,,,,,,,,,,,,,,,,,,,,,,,,,,,,,,,,,,,,,,,,,,,,,
1768202710.901036,1768202710.902162,123.000000,0.000000,4357.307617,4346.538574,4325.512695,4356.282227,4341.538574,4362.692383,4353.974121,4366.410156,4347.563965,4333.974121,4493.333496,4521.025879,4428.846191,4464.102539,4759.000000,3.000000,59.000000,,,,0.000000,4.000000,4.000000,2.000000,4.000000,4.000000,2.000000,4.000000,4.000000,4.000000,4.000000,4.000000,4.000000,4.000000,4.000000,66.666664,,,,,,,,,,,,,,,,,,,,,,,,,,,,,,,,,,,,,,,,,,,,,,,,,,,,,,,,,,,,,,,,,,,,,,,,,,,,,,,,,,,,,,,,,,,,,,,,,,,,,,,,,,,,,,,,,,,,,
1768202710.908844,1768202710.909771,124.000000,0.000000,4357.436035,4339.487305,4324.102539,4356.025879,4342.051270,4365.256348,4352.179688,4364.615234,4344.743652,4322.436035,4490.897461,4514.871582,4419.615234,4452.948730,5220.000000,3.000000,59.000000,,,,0.000000,4.000000,4.000000,2.000000,4.000000,4.000000,2.000000,4.000000,4.000000,4.000000,4.000000,4.000000,4.000000,4.000000,4.000000,66.666664,,,,,,,,,,,,,,,,,,,,,,,,,,,,,,,,,,,,,,,,,,,,,,,,,,,,,,,,,,,,,,,,,,,,,,,,,,,,,,,,,,,,,,,,,,,,,,,,,,,,,,,,,,,,,,,,,,,,,
1768202710.916653,1768202710.917579,125.000000,0.000000,4357.179688,4348.077148,4319.743652,4360.897461,4341.794922,4364.358887,4348.333496,4363.205078,4342.563965,4325.256348,4489.102539,4508.974121,4413.205078,4440.897461,4293.000000,3.000000,59.000000,,,,0.000000,4.000000,4.000000,2.000000,4.000000,4.000000,2.000000,4.000000,4.000000,4.000000,4.000000,4.000000,4.000000,4.000000,4.000000,66.666664,,,,,,,,,,,,,,,,,,,,,,,,,,,,,,,,,,,,,,,,,,,,,,,,,,,,,,,,,,,,,,,,,,,,,,,,,,,,,,,,,,,,,,,,,,,,,,,,,,,,,,,,,,,,,,,,,,,,,
1768202710.924461,1768202710.925288,126.000000,0.000000,4360.000000,4353.333496,4322.563965,4366.153809,4342.179688,4365.256348,4351.922852,4360.897461,4341.922852,4335.000000,4491.153809,4513.589844,4421.666504,4449.358887,4248.000000,3.000000,59.000000,,,,0.000000,4.000000,4.000000,2.000000,4.000000,4.000000,2.000000,4.000000,4.000000,4.000000,4.000000,4.000000,4.000000,4.000000,4.000000,66.666664,,,,,,,,,,,,,,,,,,,,,,,,,,,,,,,,,,,,,,,,,,,,,,,,1.168085,0.201632,0.238455,0.203742,0.129813,0.645247,0.139910,0.312841,0.175616,0.082205,0.135931,0.059559,0.055628,0.048557,0.055332,0.501481,0.162992,0.123794,0.103179,0.040005,0.236871,0.223154,0.099740,0.115298,0.079009,0.070059,0.041479,0.044194,0.030277,0.047363,0.279358,0.339811,0.277671,0.102649,0.147862,0.719782,0.447222,0.207384,0.123402,0.100977,0.395392,0.320527,0.182310,0.114640,0.122096,0.404730,0.463284,0.480544,0.161927,0.201319,0.605335,0.521468,0.357292,0.236457,0.250255,1.263253,0.605464,0.245590,0.144033,0.104330,0.955272,0.234301,0.282786,0.280538,0.255902,1.240523,0.612742,0.320919,0.242883,0.157415
1768202710.932270,1768202710.933096,127.000000,0.000000,4362.692383,4346.153809,4329.230957,4363.333496,4343.846191,4365.384766,4355.897461,4359.743652,4343.461426,4331.538574,4493.589844,4519.102539,4424.230957,4460.641113,59.000000,3.000000,59.000000,,,,0.000000,4.000000,4.000000,2.000000,4.000000,4.000000,2.000000,4.000000,4.000000,4.000000,4.000000,4.000000,4.000000,4.000000,4.000000,66.666664,,,,,,,,,,,,,,,,,,,,,,,,,,,,,,,,,,,,,,,,,,,,,,,,,,,,,,,,,,,,,,,,,,,,,,,,,,,,,,,,,,,,,,,,,,,,,,,,,,,,,,,,,,,,,,,,,,,,,
1768202710.940078,1768202710.940705,0.000000,0.000000,4357.692383,4340.897461,4325.897461,4358.589844,4342.436035,4362.948730,4358.846191,4366.153809,4346.410156,4324.102539,4491.410156,4516.922852,4414.230957,4449.743652,1102.000000,3.000000,59.000000,,,,0.000000,4.000000,4.000000,2.000000,4.000000,4.000000,2.000000,4.000000,4.000000,4.000000,4.000000,4.000000,4.000000,4.000000,4.000000,66.666664,,,,,,,,,,,,,,,,,,,,,,,,,,,,,,,,,,,,,,,,,,,,,,,,,,,,,,,,,,,,,,,,,,,,,,,,,,,,,,,,,,,,,,,,,,,,,,,,,,,,,,,,,,,,,,,,,,,,,
1768202710.947887,1768202710.948513,1.000000,0.000000,4354.358887,4343.205078,4321.666504,4360.256348,4341.410156,4364.358887,4361.538574,4375.512695,4351.282227,4328.333496,4490.384766,4515.256348,4412.948730,4438.333496,2800.000000,3.000000,59.000000,,,,0.000000,4.000000,4.000000,2.000000,4.000000,4.000000,2.000000,4.000000,4.000000,4.000000,4.000000,4.000000,4.000000,4.000000,4.000000,66.666664,,,,,,,,,,,,,,,,,,,,,,,,,,,,,,,,,,,,,,,,,,,,,,,,,,,,,,,,,,,,,,,,,,,,,,,,,,,,,,,,,,,,,,,,,,,,,,,,,,,,,,,,,,,,,,,,,,,,,
1768202710.955695,1768202710.956222,2.000000,0.000000,4356.282227,4347.051270,4323.717773,4363.077148,4343.205078,4365.384766,4359.615234,4374.230957,4353.589844,4334.102539,4492.436035,4519.487305,4417.436035,4448.589844,3762.000000,3.000000,59.000000,,,,0.000000,4.000000,4.000000,2.000000,4.000000,4.000000,2.000000,4.000000,4.000000,4.000000,4.000000,4.000000,4.000000,4.000000,4.000000,66.666664,,,,,,,,,,,,,,,,,,,,,,,,,,,,,,,,,,,,,,,,,,,,,,,,,,,,,,,,,,,,,,,,,,,,,,,,,,,,,,,,,,,,,,,,,,,,,,,,,,,,,,,,,,,,,,,,,,,,,
1768202710.963503,1768202710.964030,3.000000,0.000000,4356.282227,4349.230957,4324.358887,4362.692383,4342.820313,4364.358887,4357.179688,4367.820313,4350.000000,4332.307617,4493.717773,4521.025879,4415.384766,4458.333496,3694.000000,3.000000,59.000000,,,,0.000000,4.000000,4.000000,2.000000,4.000000,4.000000,2.000000,4.000000,4.000000,4.000000,4.000000,4.000000,4.000000,4.000000,4.000000,66.666664,,,,,,,,,,,,,,,,,,,,,,,,,,,,,,,,,,,,,,,,,,,,,,,,,,,,,,,,,,,,,,,,,,,,,,,,,,,,,,,,,,,,,,,,,,,,,,,,,,,,,,,,,,,,,,,,,,,,,
1768202710.971312,1768202710.972039,4.000000,0.000000,4357.820313,4345.897461,4325.769043,4363.333496,4342.307617,4367.948730,4364.487305,4368.846191,4344.358887,4327.948730,4489.615234,4518.461426,4413.333496,4452.563965,3742.000000,3.000000,59.000000,,,,0.000000,4.000000,4.000000,2.000000,4.000000,4.000000,2.000000,4.000000,4.000000,4.000000,4.000000,4.000000,4.000000,4.000000,4.000000,66.666664,,,,,,,,,,,,,,,,,,,,,,,,,,,,,,,,,,,,,,,,,,,,,,,,,,,,,,,,,,,,,,,,,,,,,,,,,,,,,,,,,,,,,,,,,,,,,,,,,,,,,,,,,,,,,,,,,,,,,
1768202710.979120,1768202710.979847,5.000000,0.000000,4357.436035,4341.538574,4329.871582,4361.666504,4342.820313,4369.102539,4363.974121,4368.461426,4341.666504,4325.384766,4480.512695,4513.461426,4406.410156,4443.333496,836.000000,3.000000,59.000000,,,,0.000000,4.000000,4.000000,2.000000,4.000000,4.000000,2.000000,4.000000,4.000000,4.000000,4.000000,4.000000,4.000000,4.000000,4.000000,66.666664,,,,,,,,,,,,,,,,,,,,,,,,,,,,,,,,,,,,,,,,,,,,,,,,,,,,,,,,,,,,,,,,,,,,,,,,,,,,,,,,,,,,,,,,,,,,,,,,,,,,,,,,,,,,,,,,,,,,,
1768202710.986929,1768202710.987755,6.000000,0.000000,4347.948730,4338.974121,4326.922852,4357.051270,4339.487305,4363.461426,4345.512695,4364.615234,4341.922852,4324.102539,4475.128418,4507.820313,4398.974121,4441.153809,3966.000000,3.000000,59.000000,,,,0.000000,4.000000,4.000000,2.000000,4.000000,4.000000,2.000000,4.000000,4.000000,4.000000,4.000000,4.000000,4.000000,4.000000,4.000000,66.666664,,,,,,,,,,,,,,,,,,,,,,,,,,,,,,,,,,,,,,,,,,,,,,,,,,,,,,,,,,,,,,,,,,,,,,,,,,,,,,,,,,,,,,,,,,,,,,,,,,,,,,,,,,,,,,,,,,,,,
1768202710.994737,1768202710.995564,7.000000,0.000000,4342.051270,4333.333496,4321.794922,4356.025879,4337.820313,4361.794922,4341.794922,4363.846191,4342.051270,4324.358887,4480.641113,4510.000000,4405.256348,4443.333496,4113.000000,3.000000,59.000000,,,,0.000000,4.000000,4.000000,2.000000,4.000000,4.000000,2.000000,4.000000,4.000000,4.000000,4.000000,4.000000,4.000000,4.000000,4.000000,66.666664,,,,,,,,,,,,,,,,,,,,,,,,,,,,,,,,,,,,,,,,,,,,,,,,,,,,,,,,,,,,,,,,,,,,,,,,,,,,,,,,,,,,,,,,,,,,,,,,,,,,,,,,,,,,,,,,,,,,,
1768202711.002545,1768202711.003172,8.000000,0.000000,4348.333496,4333.717773,4325.641113,4357.436035,4340.769043,4365.897461,4354.487305,4361.025879,4342.820313,4326.153809,4482.948730,4516.794922,4405.641113,4442.692383,4083.000000,3.000000,59.000000,,,,0.000000,4.000000,4.000000,2.000000,4.000000,4.000000,2.000000,4.000000,4.000000,4.000000,4.000000,4.000000,4.000000,4.000000,4.000000,66.666664,,,,,,,,,,,,,,,,,,,,,,,,,,,,,,,,,,,,,,,,,,,,,,,,,,,,,,,,,,,,,,,,,,,,,,,,,,,,,,,,,,,,,,,,,,,,,,,,,,,,,,,,,,,,,,,,,,,,,
1768202711.010354,1768202711.010981,9.000000,0.000000,4356.922852,4342.307617,4329.743652,4356.922852,4341.666504,4365.641113,4354.871582,4356.538574,4342.948730,4325.512695,4479.358887,4517.051270,4397.948730,4443.717773,4111.000000,3.000000,59.000000,,,,0.000000,4.000000,4.000000,2.000000,4.000000,4.000000,2.000000,4.000000,4.000000,4.000000,4.000000,4.000000,4.000000,4.000000,4.000000,66.666664,,,,,,,,,,,,,,,,,,,,,,,,,,,,,,,,,,,,,,,,,,,,,,,,,,,,,,,,,,,,,,,,,,,,,,,,,,,,,,,,,,,,,,,,,,,,,,,,,,,,,,,,,,,,,,,,,,,,,
1768202711.018162,1768202711.018689,10.000000,0.000000,4357.051270,4343.589844,4327.820313,4356.922852,4338.077148,4361.025879,4347.436035,4356.794922,4340.256348,4324.487305,4480.128418,4510.384766,4399.102539,4443.461426,4245.000000,3.000000,59.000000,,,,0.000000,4.000000,4.000000,2.000000,4.000000,4.000000,2.000000,4.000000,4.000000,4.000000,4.000000,4.000000,4.000000,4.000000,4.000000,66.666664,,,,,,,,,,,,,,,,,,,,,,,,,,,,,,,,,,,,,,,,,,,,,,,,,,,,,,,,,,,,,,,,,,,,,,,,,,,,,,,,,,,,,,,,,,,,,,,,,,,,,,,,,,,,,,,,,,,,,
1768202711.025971,1768202711.026498,11.000000,0.000000,4353.717773,4340.641113,4325.000000,4356.666504,4336.410156,4359.358887,4350.128418,4358.461426,4339.871582,4325.641113,4485.641113,4511.025879,4401.794922,4440.769043,4759.000000,3.000000,59.000000,,,,0.000000,4.000000,4.000000,2.000000,4.000000,4.000000,2.000000,4.000000,4.000000,4.000000,4.000000,4.000000,4.000000,4.000000,4.000000,66.666664,,,,,,,,,,,,,,,,,,,,,,,,,,,,,,,,,,,,,,,,,,,,,,,,,,,,,,,,,,,,,,,,,,,,,,,,,,,,,,,,,,,,,,,,,,,,,,,,,,,,,,,,,,,,,,,,,,,,,
1768202711.033779,1768202711.034506,12.000000,0.000000,4354.487305,4343.461426,4324.871582,4356.666504,4339.871582,4359.871582,4356.410156,4362.820313,4343.589844,4326.153809,4490.641113,4519.871582,4405.128418,4451.153809,5222.000000,3.000000,59.000000,,,,0.000000,4.000000,4.000000,2.000000,4.000000,4.000000,2.000000,4.000000,4.000000,4.000000,4.000000,4.000000,4.000000,4.000000,4.000000,66.666664,,,,,,,,,,,,,,,,,,,,,,,,,,,,,,,,,,,,,,,,,,,,,,,,,,,,,,,,,,,,,,,,,,,,,,,,,,,,,,,,,,,,,,,,,,,,,,,,,,,,,,,,,,,,,,,,,,,,,
1768202711.041588,1768202711.042315,13.000000,0.000000,4357.692383,4343.717773,4326.922852,4357.948730,4340.769043,4359.358887,4354.358887,4365.512695,4344.743652,4327.307617,4492.692383,4522.179688,4412.692383,4459.358887,4296.000000,3.000000,59.000000,,,,0.000000,4.000000,4.000000,2.000000,4.000000,4.000000,2.000000,4.000000,4.000000,4.000000,4.000000,4.000000,4.000000,4.000000,4.000000,66.666664,,,,,,,,,,,,,,,,,,,,,,,,,,,,,,,,,,,,,,,,,,,,,,,,,,,,,,,,,,,,,,,,,,,,,,,,,,,,,,,,,,,,,,,,,,,,,,,,,,,,,,,,,,,,,,,,,,,,,
1768202711.049396,1768202711.050223,14.000000,0.000000,4358.077148,4339.615234,4327.179688,4357.436035,4336.794922,4359.743652,4352.820313,4361.538574,4342.692383,4324.615234,4491.538574,4518.205078,4407.820313,4452.307617,4245.000000,3.000000,59.000000,,,,0.000000,4.000000,4.000000,2.000000,4.000000,4.000000,2.000000,4.000000,4.000000,4.000000,4.000000,4.000000,4.000000,4.000000,4.000000,66.666664,1.000000,33.333332,4.000000,4.000000,0.000000,4.000000,4.000000,0.000000,4.000000,4.000000,4.000000,4.000000,4.000000,4.000000,4.000000,4.000000,,,,,,,,,,,,,,,,,,,,,,,,,,,,,,,,1.061622,0.254253,0.253783,0.209987,0.143028,0.596073,0.210340,0.340843,0.198261,0.093153,0.144903,0.058281,0.049497,0.046962,0.060161,0.376263,0.159446,0.110309,0.098957,0.038831,0.220449,0.265582,0.108740,0.126811,0.077443,0.067952,0.035725,0.040793,0.031867,0.045872,0.212227,0.321876,0.264978,0.111564,0.139999,0.625916,0.413928,0.218895,0.116173,0.097705,0.294180,0.324127,0.154889,0.118159,0.119519,0.343782,0.483498,0.463621,0.146442,0.186419,0.578520,0.568354,0.344311,0.229370,0.251953,1.219716,0.615240,0.277568,0.143555,0.098795,1.140509,0.287943,0.234208,0.283742,0.277991,1.153551,0.621886,0.359948,0.238205,0.152918
1768202711.057205,1768202711.058031,15.000000,0.000000,4356.666504,4342.563965,4326.666504,4357.179688,4336.666504,4361.922852,4354.487305,4362.307617,4343.333496,4321.538574,4491.410156,4516.666504,4399.230957,4449.871582,4759.000000,3.000000,59.000000,,,,0.000000,4.000000,4.000000,2.000000,4.000000,4.000000,2.000000,4.000000,4.000000,4.000000,4.000000,4.000000,4.000000,4.000000,4.000000,66.666664,,,,,,,,,,,,,,,,,,,,,,,,,,,,,,,,,,,,,,,,,,,,,,,,,,,,,,,,,,,,,,,,,,,,,,,,,,,,,,,,,,,,,,,,,,,,,,,,,,,,,,,,,,,,,,,,,,,,,
1768202711.065013,1768202711.066040,16.000000,0.000000,4357.307617,4346.538574,4327.820313,4360.128418,4341.153809,4365.384766,4351.025879,4363.589844,4342.692383,4323.846191,4493.077148,4518.077148,4401.794922,4452.948730,0.000000,3.000000,59.000000,,,,0.000000,4.000000,4.000000,2.000000,4.000000,4.000000,2.000000,4.000000,4.000000,4.000000,4.000000,4.000000,4.000000,4.000000,4.000000,66.666664,,,,,,,,,,,,,,,,,,,,,,,,,,,,,,,,,,,,,,,,,,,,,,,,,,,,,,,,,,,,,,,,,,,,,,,,,,,,,,,,,,,,,,,,,,,,,,,,,,,,,,,,,,,,,,,,,,,,,
1768202711.072822,1768202711.073848,17.000000,0.000000,4355.512695,4343.333496,4325.384766,4357.051270,4342.051270,4363.589844,4342.563965,4355.769043,4339.615234,4327.436035,4485.512695,4517.563965,4400.769043,4445.512695,0.000000,3.000000,59.000000,,,,0.000000,4.000000,4.000000,2.000000,4.000000,4.000000,2.000000,4.000000,4.000000,4.000000,4.000000,4.000000,4.000000,4.000000,4.000000,66.666664,,,,,,,,,,,,,,,,,,,,,,,,,,,,,,,,,,,,,,,,,,,,,,,,,,,,,,,,,,,,,,,,,,,,,,,,,,,,,,,,,,,,,,,,,,,,,,,,,,,,,,,,,,,,,,,,,,,,,
1768202711.080630,1768202711.081756,18.000000,0.000000,4354.615234,4341.794922,4322.692383,4350.641113,4334.871582,4358.589844,4337.948730,4347.692383,4337.563965,4322.692383,4475.512695,4512.948730,4393.846191,4442.179688,0.000000,3.000000,59.000000,,,,0.000000,4.000000,4.000000,2.000000,4.000000,4.000000,2.000000,4.000000,4.000000,4.000000,4.000000,4.000000,4.000000,4.000000,4.000000,66.666664,,,,,,,,,,,,,,,,,,,,,,,,,,,,,,,,,,,,,,,,,,,,,,,,,,,,,,,,,,,,,,,,,,,,,,,,,,,,,,,,,,,,,,,,,,,,,,,,,,,,,,,,,,,,,,,,,,,,,
1768202711.088438,1768202711.089565,19.000000,0.000000,4355.897461,4342.436035,4328.333496,4352.563965,4328.589844,4358.717773,4338.974121,4345.512695,4334.487305,4314.102539,4472.820313,4507.051270,4389.743652,4445.897461,0.000000,3.000000,59.000000,,,,0.000000,4.000000,4.000000,2.000000,4.000000,4.000000,2.000000,4.000000,4.000000,4.000000,4.000000,4.000000,4.000000,4.000000,4.000000,66.666664,,,,,,,,,,,,,,,,,,,,,,,,,,,,,,,,,,,,,,,,,,,,,,,,,,,,,,,,,,,,,,,,,,,,,,,,,,,,,,,,,,,,,,,,,,,,,,,,,,,,,,,,,,,,,,,,,,,,,
1768202711.096247,1768202711.097174,20.000000,0.000000,4356.282227,4341.153809,4328.974121,4358.205078,4332.563965,4360.512695,4339.743652,4348.205078,4332.307617,4312.563965,4472.820313,4505.769043,4388.589844,4440.769043,0.000000,3.000000,59.000000,,,,0.000000,4.000000,4.000000,2.000000,4.000000,4.000000,2.000000,4.000000,4.000000,4.000000,4.000000,4.000000,4.000000,4.000000,4.000000,66.666664,,,,,,,,,,,,,,,,,,,,,,,,,,,,,,,,,,,,,,,,,,,,,,,,,,,,,,,,,,,,,,,,,,,,,,,,,,,,,,,,,,,,,,,,,,,,,,,,,,,,,,,,,,,,,,,,,,,,,
1768202711.104055,1768202711.104982,21.000000,0.000000,4356.666504,4341.922852,4321.794922,4357.051270,4337.051270,4359.487305,4341.794922,4352.051270,4332.179688,4314.358887,4473.846191,4512.563965,4387.692383,4438.461426,0.000000,3.000000,59.000000,,,,0.000000,4.000000,4.000000,2.000000,4.000000,4.000000,2.000000,4.000000,4.000000,4.000000,4.000000,4.000000,4.000000,4.000000,4.000000,66.666664,,,,,,,,,,,,,,,,,,,,,,,,,,,,,,,,,,,,,,,,,,,,,,,,,,,,,,,,,,,,,,,,,,,,,,,,,,,,,,,,,,,,,,,,,,,,,,,,,,,,,,,,,,,,,,,,,,,,,
1768202711.111863,1768202711.112690,22.000000,0.000000,4352.051270,4341.794922,4322.948730,4352.051270,4329.743652,4358.461426,4345.000000,4351.794922,4332.948730,4313.333496,4474.230957,4517.051270,4386.410156,4443.974121,0.000000,3.000000,59.000000,,,,0.000000,4.000000,4.000000,2.000000,4.000000,4.000000,2.000000,4.000000,4.000000,4.000000,4.000000,4.000000,4.000000,4.000000,4.000000,66.666664,,,,,,,,,,,,,,,,,,,,,,,,,,,,,,,,,,,,,,,,,,,,,,,,,,,,,,,,,,,,,,,,,,,,,,,,,,,,,,,,,,,,,,,,,,,,,,,,,,,,,,,,,,,,,,,,,,,,,
1768202711.119672,1768202711.120499,23.000000,0.000000,4344.358887,4334.102539,4325.000000,4348.846191,4322.563965,4358.717773,4343.846191,4353.333496,4335.000000,4310.000000,4470.897461,4512.692383,4387.563965,4441.794922,0.000000,3.000000,59.000000,,,,0.000000,4.000000,4.000000,2.000000,4.000000,4.000000,2.000000,4.000000,4.000000,4.000000,4.000000,4.000000,4.000000,4.000000,4.000000,66.666664,,,,,,,,,,,,,,,,,,,,,,,,,,,,,,,,,,,,,,,,,,,,,,,,,,,,,,,,,,,,,,,,,,,,,,,,,,,,,,,,,,,,,,,,,,,,,,,,,,,,,,,,,,,,,,,,,,,,,
1768202711.127480,1768202711.128108,24.000000,0.000000,4349.358887,4338.461426,4323.589844,4352.179688,4330.128418,4361.025879,4346.153809,4362.948730,4345.000000,4318.974121,4475.512695,4514.102539,4392.051270,4439.871582,0.000000,3.000000,59.000000,,,,0.000000,4.000000,4.000000,2.000000,4.000000,4.000000,2.000000,4.000000,4.000000,4.000000,4.000000,4.000000,4.000000,4.000000,4.000000,66.666664,,,,,,,,,,,,,,,,,,,,,,,,,,,,,,,,,,,,,,,,,,,,,,,,,,,,,,,,,,,,,,,,,,,,,,,,,,,,,,,,,,,,,,,,,,,,,,,,,,,,,,,,,,,,,,,,,,,,,
1768202711.135289,1768202711.135916,25.000000,0.000000,4366.666504,4355.000000,4327.563965,4363.461426,4341.538574,4365.256348,4360.000000,4370.256348,4357.179688,4341.666504,4493.589844,4528.077148,4401.922852,4451.666504,0.000000,3.000000,59.000000,,,,0.000000,4.000000,4.000000,2.000000,4.000000,4.000000,2.000000,4.000000,4.000000,4.000000,4.000000,4.000000,4.000000,4.000000,4.000000,66.666664,,,,,,,,,,,,,,,,,,,,,,,,,,,,,,,,,,,,,,,,,,,,,,,,,,,,,,,,,,,,,,,,,,,,,,,,,,,,,,,,,,,,,,,,,,,,,,,,,,,,,,,,,,,,,,,,,,,,,
1768202711.143097,1768202711.143625,26.000000,0.000000,4369.487305,4355.769043,4327.179688,4366.025879,4342.051270,4363.461426,4366.794922,4367.436035,4355.000000,4343.846191,4498.717773,4530.897461,4408.333496,4462.820313,0.000000,3.000000,59.000000,,,,0.000000,4.000000,4.000000,2.000000,4.000000,4.000000,2.000000,4.000000,4.000000,4.000000,4.000000,4.000000,4.000000,4.000000,4.000000,66.666664,,,,,,,,,,,,,,,,,,,,,,,,,,,,,,,,,,,,,,,,,,,,,,,,,,,,,,,,,,,,,,,,,,,,,,,,,,,,,,,,,,,,,,,,,,,,,,,,,,,,,,,,,,,,,,,,,,,,,
1768202711.150906,1768202711.151433,27.000000,0.000000,4356.538574,4342.692383,4320.512695,4358.205078,4335.641113,4358.846191,4352.948730,4357.692383,4341.153809,4320.000000,4482.948730,4516.922852,4400.384766,4455.384766,0.000000,3.000000,59.000000,,,,0.000000,4.000000,4.000000,2.000000,4.000000,4.000000,2.000000,4.000000,4.000000,4.000000,4.000000,4.000000,4.000000,4.000000,4.000000,66.666664,,,,,,,,,,,,,,,,,,,,,,,,,,,,,,,,,,,,,,,,,,,,,,,,,,,,,,,,,,,,,,,,,,,,,,,,,,,,,,,,,,,,,,,,,,,,,,,,,,,,,,,,,,,,,,,,,,,,,
1768202711.158714,1768202711.159042,28.000000,0.000000,4352.051270,4339.358887,4321.538574,4355.769043,4333.205078,4358.846191,4343.205078,4349.230957,4332.436035,4309.230957,4471.538574,4510.000000,4384.102539,4442.051270,0.000000,3.000000,59.000000,,,,0.000000,4.000000,4.000000,2.000000,4.000000,4.000000,2.000000,4.000000,4.000000,4.000000,4.000000,4.000000,4.000000,4.000000,4.000000,66.666664,,,,,,,,,,,,,,,,,,,,,,,,,,,,,,,,,,,,,,,,,,,,,,,,,,,,,,,,,,,,,,,,,,,,,,,,,,,,,,,,,,,,,,,,,,,,,,,,,,,,,,,,,,,,,,,,,,,,,
1768202711.166522,1768202711.166850,29.000000,0.000000,4357.307617,4346.922852,4326.153809,4359.102539,4334.487305,4361.025879,4344.230957,4347.820313,4334.102539,4323.717773,4473.974121,4515.512695,4379.615234,4440.897461,0.000000,3.000000,59.000000,,,,0.000000,4.000000,4.000000,2.000000,4.000000,4.000000,2.000000,4.000000,4.000000,4.000000,4.000000,4.000000,4.000000,4.000000,4.000000,66.666664,,,,,,,,,,,,,,,,,,,,,,,,,,,,,,,,,,,,,,,,,,,,,,,,,,,,,,,,,,,,,,,,,,,,,,,,,,,,,,,,,,,,,,,,,,,,,,,,,,,,,,,,,,,,,,,,,,,,,
1768202711.174331,1768202711.174758,30.000000,0.000000,4358.846191,4352.179688,4326.538574,4360.512695,4335.769043,4360.512695,4342.820313,4350.000000,4337.948730,4329.871582,4482.051270,4517.948730,4387.820313,4451.538574,0.000000,3.000000,59.000000,,,,0.000000,4.000000,4.000000,2.000000,4.000000,4.000000,2.000000,4.000000,4.000000,4.000000,4.000000,4.000000,4.000000,4.000000,4.000000,66.666664,,,,,,,,,,,,,,,,,,,,,,,,,,,,,,,,,,,,,,,,,,,,,,,,0.955011,0.312226,0.263571,0.227830,0.153882,0.550699,0.308583,0.349036,0.234138,0.110885,0.149390,0.057773,0.041251,0.045740,0.063584,0.283722,0.155289,0.102062,0.102463,0.042348,0.203321,0.286864,0.111583,0.138681,0.074473,0.067158,0.032124,0.036698,0.032509,0.043384,0.193915,0.295285,0.229836,0.117159,0.137788,0.568285,0.369934,0.232612,0.114417,0.095101,0.250169,0.326662,0.123601,0.132338,0.121495,0.283745,0.458448,0.404833,0.144179,0.174314,0.525090,0.574956,0.306278,0.239811,0.265045,1.056480,0.568067,0.292984,0.146855,0.095200,1.486876,0.341029,0.188647,0.309483,0.303960,1.054699,0.582098,0.374579,0.235360,0.160727
1768202711.182139,1768202711.182567,31.000000,0.000000,4356.794922,4352.563965,4326.153809,4359.358887,4340.128418,4359.743652,4342.820313,4351.282227,4340.512695,4324.358887,4488.717773,4518.461426,4396.153809,4458.974121,0.000000,3.000000,59.000000,,,,0.000000,4.000000,4.000000,2.000000,4.000000,4.000000,2.000000,4.000000,4.000000,4.000000,4.000000,4.000000,4.000000,4.000000,4.000000,66.666664,,,,,,,,,,,,,,,,,,,,,,,,,,,,,,,,,,,,,,,,,,,,,,,,,,,,,,,,,,,,,,,,,,,,,,,,,,,,,,,,,,,,,,,,,,,,,,,,,,,,,,,,,,,,,,,,,,,,,
1768202711.189948,1768202711.190575,32.000000,0.000000,4357.692383,4352.436035,4323.461426,4359.358887,4341.922852,4362.179688,4344.743652,4351.153809,4341.922852,4327.436035,4491.282227,4521.794922,4398.205078,4458.077148,0.000000,3.000000,59.000000,,,,0.000000,4.000000,4.000000,2.000000,4.000000,4.000000,2.000000,4.000000,4.000000,4.000000,4.000000,4.000000,4.000000,4.000000,4.000000,66.666664,,,,,,,,,,,,,,,,,,,,,,,,,,,,,,,,,,,,,,,,,,,,,,,,,,,,,,,,,,,,,,,,,,,,,,,,,,,,,,,,,,,,,,,,,,,,,,,,,,,,,,,,,,,,,,,,,,,,,
1768202711.197756,1768202711.198384,33.000000,0.000000,4358.461426,4353.205078,4319.871582,4358.846191,4338.589844,4362.692383,4342.820313,4350.897461,4341.538574,4331.666504,4490.256348,4520.641113,4391.538574,4458.205078,0.000000,3.000000,59.000000,,,,0.000000,4.000000,4.000000,2.000000,4.000000,4.000000,2.000000,4.000000,4.000000,4.000000,4.000000,4.000000,4.000000,4.000000,4.000000,66.666664,,,,,,,,,,,,,,,,,,,,,,,,,,,,,,,,,,,,,,,,,,,,,,,,,,,,,,,,,,,,,,,,,,,,,,,,,,,,,,,,,,,,,,,,,,,,,,,,,,,,,,,,,,,,,,,,,,,,,
1768202711.205565,1768202711.206092,34.000000,0.000000,4358.717773,4353.846191,4323.333496,4358.589844,4337.820313,4360.128418,4340.256348,4348.974121,4339.871582,4327.692383,4487.436035,4516.922852,4386.666504,4458.461426,0.000000,3.000000,59.000000,,,,0.000000,4.000000,4.000000,2.000000,4.000000,4.000000,2.000000,4.000000,4.000000,4.000000,4.000000,4.000000,4.000000,4.000000,4.000000,66.666664,,,,,,,,,,,,,,,,,,,,,,,,,,,,,,,,,,,,,,,,,,,,,,,,,,,,,,,,,,,,,,,,,,,,,,,,,,,,,,,,,,,,,,,,,,,,,,,,,,,,,,,,,,,,,,,,,,,,,
1768202711.213373,1768202711.213901,35.000000,0.000000,4359.230957,4348.589844,4328.461426,4357.948730,4338.589844,4359.487305,4339.615234,4348.974121,4338.974121,4326.025879,4487.307617,4518.333496,4387.436035,4453.333496,0.000000,3.000000,59.000000,,,,0.000000,4.000000,4.000000,2.000000,4.000000,4.000000,2.000000,4.000000,4.000000,4.000000,4.000000,4.000000,4.000000,4.000000,4.000000,66.666664,,,,,,,,,,,,,,,,,,,,,,,,,,,,,,,,,,,,,,,,,,,,,,,,,,,,,,,,,,,,,,,,,,,,,,,,,,,,,,,,,,,,,,,,,,,,,,,,,,,,,,,,,,,,,,,,,,,,,
1768202711.221182,1768202711.221509,36.000000,0.000000,4355.897461,4340.769043,4329.743652,4356.410156,4331.666504,4362.948730,4340.128418,4350.897461,4339.615234,4326.538574,4486.922852,4519.358887,4388.846191,4450.641113,0.000000,3.000000,59.000000,,,,0.000000,4.000000,4.000000,2.000000,4.000000,4.000000,2.000000,4.000000,4.000000,4.000000,4.000000,4.000000,4.000000,4.000000,4.000000,66.666664,,,,,,,,,,,,,,,,,,,,,,,,,,,,,,,,,,,,,,,,,,,,,,,,,,,,,,,,,,,,,,,,,,,,,,,,,,,,,,,,,,,,,,,,,,,,,,,,,,,,,,,,,,,,,,,,,,,,,
1768202711.228990,1768202711.229318,37.000000,0.000000,4353.846191,4342.307617,4328.461426,4357.563965,4327.307617,4363.077148,4342.820313,4352.692383,4340.000000,4321.794922,4486.025879,4517.179688,4388.974121,4452.179688,0.000000,3.000000,59.000000,,,,0.000000,4.000000,4.000000,2.000000,4.000000,4.000000,2.000000,4.000000,4.000000,4.000000,4.000000,4.000000,4.000000,4.000000,4.000000,66.666664,,,,,,,,,,,,,,,,,,,,,,,,,,,,,,,,,,,,,,,,,,,,,,,,,,,,,,,,,,,,,,,,,,,,,,,,,,,,,,,,,,,,,,,,,,,,,,,,,,,,,,,,,,,,,,,,,,,,,
1768202711.236798,1768202711.237226,38.000000,0.000000,4351.410156,4348.717773,4325.384766,4360.128418,4334.487305,4358.461426,4344.102539,4354.358887,4341.025879,4321.922852,4483.461426,4515.128418,4384.487305,4446.922852,0.000000,3.000000,59.000000,,,,0.000000,4.000000,4.000000,2.000000,4.000000,4.000000,2.000000,4.000000,4.000000,4.000000,4.000000,4.000000,4.000000,4.000000,4.000000,66.666664,,,,,,,,,,,,,,,,,,,,,,,,,,,,,,,,,,,,,,,,,,,,,,,,,,,,,,,,,,,,,,,,,,,,,,,,,,,,,,,,,,,,,,,,,,,,,,,,,,,,,,,,,,,,,,,,,,,,,
1768202711.244607,1768202711.245035,39.000000,0.000000,4343.846191,4344.358887,4325.256348,4360.000000,4334.358887,4359.487305,4336.922852,4347.563965,4335.512695,4325.128418,4478.846191,4508.846191,4376.410156,4441.794922,0.000000,3.000000,59.000000,,,,0.000000,4.000000,4.000000,2.000000,4.000000,4.000000,2.000000,4.000000,4.000000,4.000000,4.000000,4.000000,4.000000,4.000000,4.000000,66.666664,,,,,,,,,,,,,,,,,,,,,,,,,,,,,,,,,,,,,,,,,,,,,,,,,,,,,,,,,,,,,,,,,,,,,,,,,,,,,,,,,,,,,,,,,,,,,,,,,,,,,,,,,,,,,,,,,,,,,
1768202711.252415,1768202711.253043,40.000000,0.000000,4342.563965,4339.230957,4327.820313,4356.922852,4327.692383,4363.974121,4338.974121,4342.051270,4327.307617,4323.205078,4474.615234,4505.128418,4373.333496,4443.077148,0.000000,3.000000,59.000000,,,,0.000000,4.000000,4.000000,2.000000,4.000000,4.000000,2.000000,4.000000,4.000000,4.000000,4.000000,4.000000,4.000000,4.000000,4.000000,66.666664,,,,,,,,,,,,,,,,,,,,,,,,,,,,,,,,,,,,,,,,,,,,,,,,,,,,,,,,,,,,,,,,,,,,,,,,,,,,,,,,,,,,,,,,,,,,,,,,,,,,,,,,,,,,,,,,,,,,,
1768202711.260224,1768202711.260851,41.000000,0.000000,4351.153809,4342.820313,4327.307617,4356.410156,4331.794922,4365.000000,4350.256348,4346.282227,4328.846191,4320.769043,4474.871582,4505.769043,4375.897461,4443.717773,0.000000,3.000000,59.000000,,,,0.000000,4.000000,4.000000,2.000000,4.000000,4.000000,2.000000,4.000000,4.000000,4.000000,4.000000,4.000000,4.000000,4.000000,4.000000,66.666664,,,,,,,,,,,,,,,,,,,,,,,,,,,,,,,,,,,,,,,,,,,,,,,,,,,,,,,,,,,,,,,,,,,,,,,,,,,,,,,,,,,,,,,,,,,,,,,,,,,,,,,,,,,,,,,,,,,,,
1768202711.268032,1768202711.268760,42.000000,0.000000,4354.871582,4343.205078,4326.666504,4359.871582,4338.077148,4363.461426,4345.000000,4346.922852,4333.077148,4319.871582,4474.871582,4503.846191,4374.230957,4442.307617,0.000000,3.000000,59.000000,,,,0.000000,4.000000,4.000000,2.000000,4.000000,4.000000,2.000000,4.000000,4.000000,4.000000,4.000000,4.000000,4.000000,4.000000,4.000000,66.666664,,,,,,,,,,,,,,,,,,,,,,,,,,,,,,,,,,,,,,,,,,,,,,,,,,,,,,,,,,,,,,,,,,,,,,,,,,,,,,,,,,,,,,,,,,,,,,,,,,,,,,,,,,,,,,,,,,,,,
1768202711.275840,1768202711.276568,43.000000,0.000000,4353.461426,4343.846191,4326.794922,4360.384766,4336.794922,4363.077148,4332.436035,4342.820313,4337.051270,4320.769043,4472.436035,4506.922852,4374.487305,4442.436035,0.000000,3.000000,59.000000,,,,0.000000,4.000000,4.000000,2.000000,4.000000,4.000000,2.000000,4.000000,4.000000,4.000000,4.000000,4.000000,4.000000,4.000000,4.000000,66.666664,,,,,,,,,,,,,,,,,,,,,,,,,,,,,,,,,,,,,,,,,,,,,,,,,,,,,,,,,,,,,,,,,,,,,,,,,,,,,,,,,,,,,,,,,,,,,,,,,,,,,,,,,,,,,,,,,,,,,
1768202711.283649,1768202711.284576,44.000000,0.000000,4356.282227,4349.615234,4324.230957,4357.436035,4338.461426,4361.794922,4333.846191,4345.512695,4340.769043,4328.717773,4475.641113,4510.897461,4382.051270,4441.410156,0.000000,3.000000,59.000000,,,,0.000000,4.000000,4.000000,2.000000,4.000000,4.000000,2.000000,4.000000,4.000000,4.000000,4.000000,4.000000,4.000000,4.000000,4.000000,66.666664,,,,,,,,,,,,,,,,,,,,,,,,,,,,,,,,,,,,,,,,,,,,,,,,,,,,,,,,,,,,,,,,,,,,,,,,,,,,,,,,,,,,,,,,,,,,,,,,,,,,,,,,,,,,,,,,,,,,,
1768202711.291457,1768202711.292385,45.000000,0.000000,4355.641113,4350.769043,4324.230957,4354.743652,4342.436035,4361.025879,4336.538574,4346.794922,4334.358887,4325.897461,4476.666504,4506.153809,4388.717773,4442.820313,0.000000,3.000000,59.000000,,,,0.000000,4.000000,4.000000,2.000000,4.000000,4.000000,2.000000,4.000000,4.000000,4.000000,4.000000,4.000000,4.000000,4.000000,4.000000,66.666664,,,,,,,,,,,,,,,,,,,,,,,,,,,,,,,,,,,,,,,,,,,,,,,,,,,,,,,,,,,,,,,,,,,,,,,,,,,,,,,,,,,,,,,,,,,,,,,,,,,,,,,,,,,,,,,,,,,,,
1768202711.299266,1768202711.300093,46.000000,0.000000,4353.974121,4351.025879,4327.179688,4355.897461,4340.256348,4364.871582,4337.051270,4341.794922,4327.820313,4308.717773,4472.820313,4500.897461,4389.615234,4443.333496,0.000000,3.000000,59.000000,,,,0.000000,4.000000,4.000000,2.000000,4.000000,4.000000,2.000000,4.000000,4.000000,4.000000,4.000000,4.000000,4.000000,4.000000,4.000000,66.666664,,,,,,,,,,,,,,,,,,,,,,,,,,,,,,,,,,,,,,,,,,,,,,,,0.809861,0.360162,0.258306,0.251600,0.162523,0.469334,0.415776,0.331468,0.277299,0.134276,0.144350,0.058774,0.033247,0.044745,0.064520,0.224140,0.150823,0.099983,0.110922,0.050239,0.183712,0.282235,0.108978,0.147010,0.070799,0.068513,0.031320,0.034689,0.031849,0.040085,0.234566,0.283158,0.183953,0.117339,0.142190,0.563727,0.341443,0.253167,0.115761,0.092232,0.278251,0.327425,0.094152,0.148880,0.124805,0.260876,0.402660,0.318731,0.148697,0.168561,0.486970,0.558243,0.254041,0.254140,0.279830,0.841049,0.487354,0.289331,0.152936,0.095969,1.913423,0.397070,0.155663,0.340672,0.326583,0.955312,0.515545,0.355866,0.224774,0.178250
1768202711.307074,1768202711.307902,47.000000,0.000000,4357.692383,4355.384766,4327.563965,4357.307617,4340.128418,4366.666504,4343.846191,4343.205078,4333.333496,4311.025879,4473.717773,4504.358887,4391.794922,4437.051270,0.000000,3.000000,59.000000,,,,0.000000,4.000000,4.000000,2.000000,4.000000,4.000000,2.000000,4.000000,4.000000,4.000000,4.000000,4.000000,4.000000,4.000000,4.000000,66.666664,,,,,,,,,,,,,,,,,,,,,,,,,,,,,,,,,,,,,,,,,,,,,,,,,,,,,,,,,,,,,,,,,,,,,,,,,,,,,,,,,,,,,,,,,,,,,,,,,,,,,,,,,,,,,,,,,,,,,
1768202711.314883,1768202711.315510,48.000000,0.000000,4351.666504,4353.333496,4323.333496,4352.051270,4339.487305,4362.436035,4340.384766,4343.205078,4332.436035,4322.820313,4474.230957,4504.230957,4391.410156,4433.974121,0.000000,3.000000,59.000000,,,,0.000000,4.000000,4.000000,2.000000,4.000000,4.000000,2.000000,4.000000,4.000000,4.000000,4.000000,4.000000,4.000000,4.000000,4.000000,66.666664,,,,,,,,,,,,,,,,,,,,,,,,,,,,,,,,,,,,,,,,,,,,,,,,,,,,,,,,,,,,,,,,,,,,,,,,,,,,,,,,,,,,,,,,,,,,,,,,,,,,,,,,,,,,,,,,,,,,,
1768202711.322691,1768202711.323319,49.000000,0.000000,4340.256348,4344.743652,4322.179688,4347.820313,4336.666504,4362.051270,4335.256348,4339.358887,4323.461426,4318.717773,4470.256348,4500.897461,4382.692383,4436.794922,0.000000,3.000000,59.000000,,,,0.000000,4.000000,4.000000,2.000000,4.000000,4.000000,2.000000,4.000000,4.000000,4.000000,4.000000,4.000000,4.000000,4.000000,4.000000,66.666664,,,,,,,,,,,,,,,,,,,,,,,,,,,,,,,,,,,,,,,,,,,,,,,,,,,,,,,,,,,,,,,,,,,,,,,,,,,,,,,,,,,,,,,,,,,,,,,,,,,,,,,,,,,,,,,,,,,,,
1768202711.330500,1768202711.331027,50.000000,0.000000,4341.666504,4346.410156,4326.025879,4352.179688,4339.102539,4367.563965,4344.230957,4342.563965,4331.666504,4320.641113,4474.230957,4502.692383,4386.153809,4437.179688,0.000000,3.000000,59.000000,,,,0.000000,4.000000,4.000000,2.000000,4.000000,4.000000,2.000000,4.000000,4.000000,4.000000,4.000000,4.000000,4.000000,4.000000,4.000000,66.666664,,,,,,,,,,,,,,,,,,,,,,,,,,,,,,,,,,,,,,,,,,,,,,,,,,,,,,,,,,,,,,,,,,,,,,,,,,,,,,,,,,,,,,,,,,,,,,,,,,,,,,,,,,,,,,,,,,,,,
1768202711.338308,1768202711.338836,51.000000,0.000000,4345.000000,4350.384766,4323.974121,4355.000000,4342.179688,4366.794922,4343.461426,4345.128418,4340.769043,4326.794922,4476.153809,4498.461426,4396.666504,4432.179688,0.000000,3.000000,59.000000,,,,0.000000,4.000000,4.000000,2.000000,4.000000,4.000000,2.000000,4.000000,4.000000,4.000000,4.000000,4.000000,4.000000,4.000000,4.000000,66.666664,,,,,,,,,,,,,,,,,,,,,,,,,,,,,,,,,,,,,,,,,,,,,,,,,,,,,,,,,,,,,,,,,,,,,,,,,,,,,,,,,,,,,,,,,,,,,,,,,,,,,,,,,,,,,,,,,,,,,
1768202711.346116,1768202711.346444,52.000000,0.000000,4336.153809,4343.077148,4318.461426,4351.666504,4341.922852,4363.717773,4335.000000,4343.077148,4333.846191,4317.051270,4462.692383,4492.820313,4392.820313,4427.436035,0.000000,3.000000,59.000000,,,,0.000000,4.000000,4.000000,2.000000,4.000000,4.000000,2.000000,4.000000,4.000000,4.000000,4.000000,4.000000,4.000000,4.000000,4.000000,66.666664,,,,,,,,,,,,,,,,,,,,,,,,,,,,,,,,,,,,,,,,,,,,,,,,,,,,,,,,,,,,,,,,,,,,,,,,,,,,,,,,,,,,,,,,,,,,,,,,,,,,,,,,,,,,,,,,,,,,,
1768202711.353925,1768202711.354253,53.000000,0.000000,4333.717773,4337.051270,4320.897461,4349.487305,4342.436035,4366.538574,4336.794922,4341.794922,4335.000000,4314.615234,4460.384766,4495.769043,4389.102539,4427.948730,0.000000,3.000000,59.000000,,,,0.000000,4.000000,4.000000,2.000000,4.000000,4.000000,2.000000,4.000000,4.000000,4.000000,4.000000,4.000000,4.000000,4.000000,4.000000,66.666664,,,,,,,,,,,,,,,,,,,,,,,,,,,,,,,,,,,,,,,,,,,,,,,,,,,,,,,,,,,,,,,,,,,,,,,,,,,,,,,,,,,,,,,,,,,,,,,,,,,,,,,,,,,,,,,,,,,,,
1768202711.361733,1768202711.361961,54.000000,0.000000,4343.974121,4339.358887,4325.769043,4350.897461,4342.051270,4365.769043,4333.077148,4342.179688,4341.922852,4323.205078,4473.846191,4503.077148,4395.000000,4431.538574,0.000000,3.000000,59.000000,,,,0.000000,4.000000,4.000000,2.000000,4.000000,4.000000,2.000000,4.000000,4.000000,4.000000,4.000000,4.000000,4.000000,4.000000,4.000000,66.666664,,,,,,,,,,,,,,,,,,,,,,,,,,,,,,,,,,,,,,,,,,,,,,,,,,,,,,,,,,,,,,,,,,,,,,,,,,,,,,,,,,,,,,,,,,,,,,,,,,,,,,,,,,,,,,,,,,,,,
1768202711.369542,1768202711.369770,55.000000,0.000000,4350.256348,4344.358887,4322.563965,4355.256348,4343.077148,4362.307617,4326.666504,4342.051270,4339.615234,4319.358887,4477.436035,4503.333496,4392.948730,4435.384766,0.000000,3.000000,59.000000,,,,0.000000,4.000000,4.000000,2.000000,4.000000,4.000000,2.000000,4.000000,4.000000,4.000000,4.000000,4.000000,4.000000,4.000000,4.000000,66.666664,,,,,,,,,,,,,,,,,,,,,,,,,,,,,,,,,,,,,,,,,,,,,,,,,,,,,,,,,,,,,,,,,,,,,,,,,,,,,,,,,,,,,,,,,,,,,,,,,,,,,,,,,,,,,,,,,,,,,
1768202711.377350,1768202711.377778,56.000000,0.000000,4353.077148,4351.922852,4321.153809,4358.589844,4353.717773,4363.846191,4338.205078,4343.461426,4340.512695,4317.820313,4473.205078,4501.538574,4389.743652,4440.384766,0.000000,3.000000,59.000000,,,,0.000000,4.000000,4.000000,2.000000,4.000000,4.000000,2.000000,4.000000,4.000000,4.000000,4.000000,4.000000,4.000000,4.000000,4.000000,66.666664,,,,,,,,,,,,,,,,,,,,,,,,,,,,,,,,,,,,,,,,,,,,,,,,,,,,,,,,,,,,,,,,,,,,,,,,,,,,,,,,,,,,,,,,,,,,,,,,,,,,,,,,,,,,,,,,,,,,,
1768202711.385158,1768202711.385587,57.000000,0.000000,4353.461426,4353.974121,4325.384766,4357.948730,4355.641113,4366.282227,4346.794922,4347.563965,4346.666504,4326.153809,4476.794922,4503.205078,4396.153809,4444.102539,0.000000,3.000000,59.000000,,,,0.000000,4.000000,4.000000,2.000000,4.000000,4.000000,2.000000,4.000000,4.000000,4.000000,4.000000,4.000000,4.000000,4.000000,4.000000,66.666664,,,,,,,,,,,,,,,,,,,,,,,,,,,,,,,,,,,,,,,,,,,,,,,,,,,,,,,,,,,,,,,,,,,,,,,,,,,,,,,,,,,,,,,,,,,,,,,,,,,,,,,,,,,,,,,,,,,,,
1768202711.392967,1768202711.393495,58.000000,0.000000,4355.128418,4349.358887,4327.307617,4361.538574,4346.410156,4366.025879,4343.974121,4353.333496,4347.307617,4328.461426,4485.512695,4507.051270,4402.436035,4443.461426,0.000000,3.000000,59.000000,,,,0.000000,4.000000,4.000000,2.000000,4.000000,4.000000,2.000000,4.000000,4.000000,4.000000,4.000000,4.000000,4.000000,4.000000,4.000000,66.666664,,,,,,,,,,,,,,,,,,,,,,,,,,,,,,,,,,,,,,,,,,,,,,,,,,,,,,,,,,,,,,,,,,,,,,,,,,,,,,,,,,,,,,,,,,,,,,,,,,,,,,,,,,,,,,,,,,,,,
1768202711.400775,1768202711.401303,59.000000,0.000000,4361.410156,4352.820313,4329.871582,4365.000000,4348.461426,4366.794922,4351.410156,4354.743652,4345.769043,4326.794922,4491.666504,4515.256348,4402.820313,4445.641113,0.000000,3.000000,59.000000,,,,0.000000,4.000000,4.000000,2.000000,4.000000,4.000000,2.000000,4.000000,4.000000,4.000000,4.000000,4.000000,4.000000,4.000000,4.000000,66.666664,,,,,,,,,,,,,,,,,,,,,,,,,,,,,,,,,,,,,,,,,,,,,,,,,,,,,,,,,,,,,,,,,,,,,,,,,,,,,,,,,,,,,,,,,,,,,,,,,,,,,,,,,,,,,,,,,,,,,
1768202711.408584,1768202711.408912,60.000000,0.000000,4361.922852,4354.358887,4330.512695,4360.512695,4351.282227,4365.256348,4354.615234,4353.461426,4346.538574,4327.307617,4491.538574,4516.794922,4399.871582,4448.333496,0.000000,3.000000,59.000000,,,,0.000000,4.000000,4.000000,2.000000,4.000000,4.000000,2.000000,4.000000,4.000000,4.000000,4.000000,4.000000,4.000000,4.000000,4.000000,66.666664,,,,,,,,,,,,,,,,,,,,,,,,,,,,,,,,,,,,,,,,,,,,,,,,,,,,,,,,,,,,,,,,,,,,,,,,,,,,,,,,,,,,,,,,,,,,,,,,,,,,,,,,,,,,,,,,,,,,,
1768202711.416392,1768202711.416720,61.000000,0.000000,4353.846191,4347.051270,4324.743652,4355.769043,4343.974121,4360.897461,4342.692383,4354.615234,4346.922852,4328.461426,4487.820313,4509.358887,4402.307617,4444.615234,0.000000,3.000000,59.000000,,,,0.000000,4.000000,4.000000,2.000000,4.000000,4.000000,2.000000,4.000000,4.000000,4.000000,4.000000,4.000000,4.000000,4.000000,4.000000,66.666664,,,,,,,,,,,,,,,,,,,,,,,,,,,,,,,,,,,,,,,,,,,,,,,,,,,,,,,,,,,,,,,,,,,,,,,,,,,,,,,,,,,,,,,,,,,,,,,,,,,,,,,,,,,,,,,,,,,,,
1768202711.424201,1768202711.424629,62.000000,0.000000,4349.102539,4343.717773,4322.820313,4356.410156,4342.820313,4360.384766,4343.974121,4352.436035,4346.666504,4330.384766,4488.974121,4508.461426,4407.051270,4441.153809,0.000000,3.000000,59.000000,,,,0.000000,4.000000,4.000000,2.000000,4.000000,4.000000,2.000000,4.000000,4.000000,4.000000,4.000000,4.000000,4.000000,4.000000,4.000000,66.666664,,,,,,,,,,,,,,,,,,,,,,,,,,,,,,,,,,,,,,,,,,,,,,,,0.671422,0.393485,0.237123,0.275957,0.170002,0.373776,0.508945,0.291279,0.319687,0.160525,0.132579,0.060321,0.027275,0.044935,0.062998,0.194423,0.146726,0.101730,0.120715,0.061307,0.168413,0.256531,0.102443,0.148928,0.067906,0.071534,0.032217,0.037195,0.030273,0.036562,0.318379,0.310254,0.142223,0.113939,0.153328,0.607230,0.355305,0.282921,0.116869,0.088707,0.358393,0.330030,0.079278,0.162605,0.125309,0.298678,0.340333,0.234318,0.155936,0.172506,0.500645,0.554204,0.209598,0.261445,0.286214,0.654126,0.412894,0.270952,0.159472,0.103007,2.286751,0.462010,0.143660,0.360602,0.338909,0.918423,0.455304,0.314448,0.204460,0.202020
1768202711.432009,1768202711.432437,63.000000,0.000000,4353.333496,4347.307617,4328.717773,4361.025879,4351.666504,4362.051270,4355.128418,4348.461426,4347.179688,4330.256348,4490.641113,4515.384766,4405.512695,4445.641113,0.000000,3.000000,59.000000,,,,0.000000,4.000000,4.000000,2.000000,4.000000,4.000000,2.000000,4.000000,4.000000,4.000000,4.000000,4.000000,4.000000,4.000000,4.000000,66.666664,,,,,,,,,,,,,,,,,,,,,,,,,,,,,,,,,,,,,,,,,,,,,,,,,,,,,,,,,,,,,,,,,,,,,,,,,,,,,,,,,,,,,,,,,,,,,,,,,,,,,,,,,,,,,,,,,,,,,
1768202711.439818,1768202711.440445,64.000000,0.000000,4360.897461,4350.641113,4330.128418,4364.487305,4352.948730,4363.205078,4347.820313,4352.179688,4349.230957,4327.820313,4488.717773,4517.436035,4405.641113,4455.256348,1102.000000,3.000000,59.000000,,,,0.000000,4.000000,4.000000,2.000000,4.000000,4.000000,2.000000,4.000000,4.000000,4.000000,4.000000,4.000000,4.000000,4.000000,4.000000,66.666664,,,,,,,,,,,,,,,,,,,,,,,,,,,,,,,,,,,,,,,,,,,,,,,,,,,,,,,,,,,,,,,,,,,,,,,,,,,,,,,,,,,,,,,,,,,,,,,,,,,,,,,,,,,,,,,,,,,,,
1768202711.447626,1768202711.448254,65.000000,0.000000,4365.000000,4353.461426,4328.974121,4362.948730,4350.384766,4365.897461,4341.025879,4357.563965,4351.794922,4331.922852,4492.179688,4518.077148,4412.692383,4463.077148,2800.000000,3.000000,59.000000,,,,0.000000,4.000000,4.000000,2.000000,4.000000,4.000000,2.000000,4.000000,4.000000,4.000000,4.000000,4.000000,4.000000,4.000000,4.000000,66.666664,,,,,,,,,,,,,,,,,,,,,,,,,,,,,,,,,,,,,,,,,,,,,,,,,,,,,,,,,,,,,,,,,,,,,,,,,,,,,,,,,,,,,,,,,,,,,,,,,,,,,,,,,,,,,,,,,,,,,
1768202711.455434,1768202711.456162,66.000000,0.000000,4361.410156,4352.948730,4329.615234,4358.461426,4354.230957,4367.051270,4353.974121,4356.666504,4353.974121,4338.077148,4498.077148,4522.051270,4415.000000,4462.051270,3762.000000,3.000000,59.000000,,,,0.000000,4.000000,4.000000,2.000000,4.000000,4.000000,2.000000,4.000000,4.000000,4.000000,4.000000,4.000000,4.000000,4.000000,4.000000,66.666664,,,,,,,,,,,,,,,,,,,,,,,,,,,,,,,,,,,,,,,,,,,,,,,,,,,,,,,,,,,,,,,,,,,,,,,,,,,,,,,,,,,,,,,,,,,,,,,,,,,,,,,,,,,,,,,,,,,,,
1768202711.463243,1768202711.463971,67.000000,0.000000,4354.615234,4346.794922,4328.205078,4357.051270,4351.538574,4360.897461,4357.051270,4355.897461,4355.769043,4336.538574,4496.410156,4520.256348,4411.153809,4454.743652,3694.000000,3.000000,59.000000,,,,0.000000,4.000000,4.000000,2.000000,4.000000,4.000000,2.000000,4.000000,4.000000,4.000000,4.000000,4.000000,4.000000,4.000000,4.000000,66.666664,,,,,,,,,,,,,,,,,,,,,,,,,,,,,,,,,,,,,,,,,,,,,,,,,,,,,,,,,,,,,,,,,,,,,,,,,,,,,,,,,,,,,,,,,,,,,,,,,,,,,,,,,,,,,,,,,,,,,
1768202711.471051,1768202711.471979,68.000000,0.000000,4357.179688,4349.230957,4330.000000,4360.128418,4344.615234,4358.589844,4341.794922,4356.922852,4353.077148,4328.846191,4492.179688,4514.487305,4408.589844,4455.128418,3742.000000,3.000000,59.000000,,,,0.000000,4.000000,4.000000,2.000000,4.000000,4.000000,2.000000,4.000000,4.000000,4.000000,4.000000,4.000000,4.000000,4.000000,4.000000,66.666664,,,,,,,,,,,,,,,,,,,,,,,,,,,,,,,,,,,,,,,,,,,,,,,,,,,,,,,,,,,,,,,,,,,,,,,,,,,,,,,,,,,,,,,,,,,,,,,,,,,,,,,,,,,,,,,,,,,,,
1768202711.478860,1768202711.479787,69.000000,0.000000,4361.922852,4355.769043,4331.282227,4363.846191,4343.589844,4364.230957,4340.128418,4356.410156,4350.256348,4327.820313,4493.077148,4514.358887,4407.051270,4456.666504,835.000000,3.000000,59.000000,,,,0.000000,4.000000,4.000000,2.000000,4.000000,4.000000,2.000000,4.000000,4.000000,4.000000,4.000000,4.000000,4.000000,4.000000,4.000000,66.666664,,,,,,,,,,,,,,,,,,,,,,,,,,,,,,,,,,,,,,,,,,,,,,,,,,,,,,,,,,,,,,,,,,,,,,,,,,,,,,,,,,,,,,,,,,,,,,,,,,,,,,,,,,,,,,,,,,,,,
1768202711.486668,1768202711.487496,70.000000,0.000000,4351.538574,4350.128418,4325.512695,4360.897461,4344.615234,4367.051270,4349.102539,4353.717773,4349.871582,4326.922852,4493.589844,4513.974121,4407.820313,4449.743652,3966.000000,3.000000,59.000000,,,,0.000000,4.000000,4.000000,2.000000,4.000000,4.000000,2.000000,4.000000,4.000000,4.000000,4.000000,4.000000,4.000000,4.000000,4.000000,66.666664,,,,,,,,,,,,,,,,,,,,,,,,,,,,,,,,,,,,,,,,,,,,,,,,,,,,,,,,,,,,,,,,,,,,,,,,,,,,,,,,,,,,,,,,,,,,,,,,,,,,,,,,,,,,,,,,,,,,,
1768202711.494476,1768202711.495304,71.000000,0.000000,4338.205078,4338.461426,4320.128418,4354.358887,4343.846191,4363.589844,4343.717773,4347.948730,4344.102539,4315.384766,4487.563965,4503.205078,4401.794922,4441.666504,4113.000000,3.000000,59.000000,,,,0.000000,4.000000,4.000000,2.000000,4.000000,4.000000,2.000000,4.000000,4.000000,4.000000,4.000000,4.000000,4.000000,4.000000,4.000000,66.666664,,,,,,,,,,,,,,,,,,,,,,,,,,,,,,,,,,,,,,,,,,,,,,,,,,,,,,,,,,,,,,,,,,,,,,,,,,,,,,,,,,,,,,,,,,,,,,,,,,,,,,,,,,,,,,,,,,,,,
1768202711.502285,1768202711.502913,72.000000,0.000000,4345.256348,4340.256348,4323.077148,4355.256348,4343.333496,4361.025879,4337.179688,4349.871582,4343.077148,4318.589844,4485.000000,4497.820313,4395.384766,4442.307617,4083.000000,3.000000,59.000000,,,,0.000000,4.000000,4.000000,2.000000,4.000000,4.000000,2.000000,4.000000,4.000000,4.000000,4.000000,4.000000,4.000000,4.000000,4.000000,66.666664,,,,,,,,,,,,,,,,,,,,,,,,,,,,,,,,,,,,,,,,,,,,,,,,,,,,,,,,,,,,,,,,,,,,,,,,,,,,,,,,,,,,,,,,,,,,,,,,,,,,,,,,,,,,,,,,,,,,,
1768202711.510093,1768202711.510721,73.000000,0.000000,4356.794922,4345.897461,4328.974121,4358.077148,4345.384766,4363.589844,4348.077148,4358.846191,4353.205078,4334.487305,4490.384766,4509.487305,4405.000000,4453.717773,4133.000000,3.000000,59.000000,,,,0.000000,4.000000,4.000000,2.000000,4.000000,4.000000,2.000000,4.000000,4.000000,4.000000,4.000000,4.000000,4.000000,4.000000,4.000000,66.666664,,,,,,,,,,,,,,,,,,,,,,,,,,,,,,,,,,,,,,,,,,,,,,,,,,,,,,,,,,,,,,,,,,,,,,,,,,,,,,,,,,,,,,,,,,,,,,,,,,,,,,,,,,,,,,,,,,,,,
1768202711.517902,1768202711.518430,74.000000,0.000000,4351.153809,4340.384766,4328.589844,4356.282227,4345.769043,4364.358887,4354.102539,4359.230957,4354.487305,4330.897461,4492.436035,4515.000000,4409.615234,4458.333496,4245.000000,3.000000,59.000000,,,,0.000000,4.000000,4.000000,2.000000,4.000000,4.000000,2.000000,4.000000,4.000000,4.000000,4.000000,4.000000,4.000000,4.000000,4.000000,66.666664,,,,,,,,,,,,,,,,,,,,,,,,,,,,,,,,,,,,,,,,,,,,,,,,,,,,,,,,,,,,,,,,,,,,,,,,,,,,,,,,,,,,,,,,,,,,,,,,,,,,,,,,,,,,,,,,,,,,,
1768202711.525710,1768202711.526238,75.000000,0.000000,4346.794922,4341.666504,4325.641113,4356.410156,4344.743652,4364.743652,4347.179688,4353.717773,4347.948730,4320.897461,4489.487305,4510.512695,4398.589844,4451.922852,4761.000000,3.000000,59.000000,,,,0.000000,4.000000,4.000000,2.000000,4.000000,4.000000,2.000000,4.000000,4.000000,4.000000,4.000000,4.000000,4.000000,4.000000,4.000000,66.666664,,,,,,,,,,,,,,,,,,,,,,,,,,,,,,,,,,,,,,,,,,,,,,,,,,,,,,,,,,,,,,,,,,,,,,,,,,,,,,,,,,,,,,,,,,,,,,,,,,,,,,,,,,,,,,,,,,,,,
1768202711.533518,1768202711.533847,76.000000,0.000000,4354.487305,4349.487305,4325.769043,4357.948730,4345.128418,4365.512695,4346.025879,4358.717773,4354.358887,4329.743652,4493.974121,4513.205078,4397.436035,4446.794922,5228.000000,3.000000,59.000000,,,,0.000000,4.000000,4.000000,2.000000,4.000000,4.000000,2.000000,4.000000,4.000000,4.000000,4.000000,4.000000,4.000000,4.000000,4.000000,66.666664,,,,,,,,,,,,,,,,,,,,,,,,,,,,,,,,,,,,,,,,,,,,,,,,,,,,,,,,,,,,,,,,,,,,,,,,,,,,,,,,,,,,,,,,,,,,,,,,,,,,,,,,,,,,,,,,,,,,,
