title:remote_3, start timestamp:1768202445.305313, stop timestamp:1768202475.851880, headset type:EPOCX, headset serial:E5020E3B, headset firmware:730, channels:156, sampling rate:eeg_128;pm_0.1;pow_8, samples:3913      , version:2.2, 
Timestamp,OriginalTimestamp,EEG.Counter,EEG.Interpolated,EEG.AF3,EEG.F7,EEG.F3,EEG.FC5,EEG.T7,EEG.P7,EEG.O1,EEG.O2,EEG.P8,EEG.T8,EEG.FC6,EEG.F4,EEG.F8,EEG.AF4,EEG.RawCq,EEG.Battery,EEG.BatteryPercent,MarkerIndex,MarkerType,MarkerValueInt,EEG.MarkerHardware,CQ.AF3,CQ.F7,CQ.F3,CQ.FC5,CQ.T7,CQ.P7,CQ.O1,CQ.O2,CQ.P8,CQ.T8,CQ.FC6,CQ.F4,CQ.F8,CQ.AF4,CQ.Overall,EQ.SampleRateQuality,EQ.OVERALL,EQ.AF3,EQ.F7,EQ.F3,EQ.FC5,EQ.T7,EQ.P7,EQ.O1,EQ.O2,EQ.P8,EQ.T8,EQ.FC6,EQ.F4,EQ.F8,EQ.AF4,PM.Attention.IsActive,PM.Attention.Scaled,PM.Attention.Raw,PM.Attention.Min,PM.Attention.Max,PM.Engagement.IsActive,PM.Engagement.Scaled,PM.Engagement.Raw,PM.Engagement.Min,PM.Engagement.Max,PM.Excitement.IsActive,PM.Excitement.Scaled,PM.Excitement.Raw,PM.Excitement.Min,PM.Excitement.Max,PM.LongTermExcitement,PM.Stress.IsActive,PM.Stress.Scaled,PM.Stress.Raw,PM.Stress.Min,PM.Stress.Max,PM.Relaxation.IsActive,PM.Relaxation.Scaled,PM.Relaxation.Raw,PM.Relaxation.Min,PM.Relaxation.Max,PM.Interest.IsActive,PM.Interest.Scaled,PM.Interest.Raw,PM.Interest.Min,PM.Interest.Max,POW.AF3.Theta,POW.AF3.Alpha,POW.AF3.BetaL,POW.AF3.BetaH,POW.AF3.Gamma,POW.F7.Theta,POW.F7.Alpha,POW.F7.BetaL,POW.F7.BetaH,POW.F7.Gamma,POW.F3.Theta,POW.F3.Alpha,POW.F3.BetaL,POW.F3.BetaH,POW.F3.Gamma,POW.FC5.Theta,POW.FC5.Alpha,POW.FC5.BetaL,POW.FC5.BetaH,POW.FC5.Gamma,POW.T7.Theta,POW.T7.Alpha,POW.T7.BetaL,POW.T7.BetaH,POW.T7.Gamma,POW.P7.Theta,POW.P7.Alpha,POW.P7.BetaL,POW.P7.BetaH,POW.P7.Gamma,POW.O1.Theta,POW.O1.Alpha,POW.O1.BetaL,POW.O1.BetaH,POW.O1.Gamma,POW.O2.Theta,POW.O2.Alpha,POW.O2.BetaL,POW.O2.BetaH,POW.O2.Gamma,POW.P8.Theta,POW.P8.Alpha,POW.P8.BetaL,POW.P8.BetaH,POW.P8.Gamma,POW.T8.Theta,POW.T8.Alpha,POW.T8.BetaL,POW.T8.BetaH,POW.T8.Gamma,POW.FC6.Theta,POW.FC6.Alpha,POW.FC6.BetaL,POW.FC6.BetaH,POW.FC6.Gamma,POW.F4.Theta,POW.F4.Alpha,POW.F4.BetaL,POW.F4.BetaH,POW.F4.Gamma,POW.F8.Theta,POW.F8.Alpha,POW.F8.BetaL,POW.F8.BetaH,POW.F8.Gamma,POW.AF4.Theta,POW.AF4.Alpha,POW.AF4.BetaL,POW.AF4.BetaH,POW.AF4.Gamma
1768202445.305313,1768202445.305949,29.000000,0.000000,4354.358887,4351.410156,4321.922852,4358.461426,4354.102539,4366.794922,4356.538574,4251.025879,4346.794922,4327.563965,4475.256348,4494.487305,4403.846191,4445.512695,0.000000,3.000000,60.000000,,,,0.000000,4.000000,4.000000,2.000000,4.000000,4.000000,2.000000,4.000000,4.000000,4.000000,4.000000,4.000000,4.000000,4.000000,4.000000,66.666664,,,,,,,,,,,,,,,,,,,,,,,,,,,,,,,,,,,,,,,,,,,,,,,,,,,,,,,,,,,,,,,,,,,,,,,,,,,,,,,,,,,,,,,,,,,,,,,,,,,,,,,,,,,,,,,,,,,,,
1768202445.313122,1768202445.313858,30.000000,0.000000,4356.538574,4350.512695,4319.102539,4362.179688,4355.897461,4368.205078,4355.256348,4251.153809,4350.128418,4335.641113,4478.077148,4500.384766,4407.563965,4444.102539,0.000000,3.000000,60.000000,,,,0.000000,4.000000,4.000000,2.000000,4.000000,4.000000,2.000000,4.000000,4.000000,4.000000,4.000000,4.000000,4.000000,4.000000,4.000000,66.666664,,,,,,,,,,,,,,,,,,,,,,,,,,,,,,,,,,,,,,,,,,,,,,,,0.208632,0.367769,0.270881,0.193447,0.170625,0.170792,0.547956,0.175146,0.215609,0.135321,0.105246,0.041019,0.027143,0.023292,0.045219,0.204119,0.244087,0.067198,0.092321,0.062186,0.311247,0.292557,0.086715,0.183046,0.065169,0.053135,0.045817,0.139149,0.035397,0.050379,0.229745,0.201982,0.270438,0.247904,0.255990,0.961091,0.259382,0.163794,0.347915,0.218287,0.532040,0.149458,0.202311,0.203495,0.113695,0.300995,0.162332,0.191110,0.271025,0.102799,0.828998,0.382956,0.183528,0.329465,0.139155,0.689255,0.609703,0.259074,0.403711,0.209917,0.918654,0.559744,0.328768,0.265798,0.133279,0.859735,0.618914,0.386220,0.402100,0.177783
1768202445.320930,1768202445.321666,31.000000,0.000000,4357.307617,4354.487305,4322.051270,4361.153809,4357.820313,4371.794922,4359.615234,4261.153809,4355.384766,4336.794922,4478.846191,4497.692383,4406.410156,4445.128418,0.000000,3.000000,60.000000,,,,0.000000,4.000000,4.000000,2.000000,4.000000,4.000000,2.000000,4.000000,4.000000,4.000000,4.000000,4.000000,4.000000,4.000000,4.000000,66.666664,,,,,,,,,,,,,,,,,,,,,,,,,,,,,,,,,,,,,,,,,,,,,,,,,,,,,,,,,,,,,,,,,,,,,,,,,,,,,,,,,,,,,,,,,,,,,,,,,,,,,,,,,,,,,,,,,,,,,
1768202445.328739,1768202445.329275,32.000000,0.000000,4358.077148,4355.769043,4325.128418,4360.128418,4356.794922,4370.897461,4357.563965,4265.897461,4351.794922,4328.846191,4478.205078,4492.563965,4404.743652,4446.538574,0.000000,3.000000,60.000000,,,,0.000000,4.000000,4.000000,2.000000,4.000000,4.000000,2.000000,4.000000,4.000000,4.000000,4.000000,4.000000,4.000000,4.000000,4.000000,66.666664,,,,,,,,,,,,,,,,,,,,,,,,,,,,,,,,,,,,,,,,,,,,,,,,,,,,,,,,,,,,,,,,,,,,,,,,,,,,,,,,,,,,,,,,,,,,,,,,,,,,,,,,,,,,,,,,,,,,,
1768202445.336547,1768202445.337083,33.000000,0.000000,4356.794922,4348.461426,4324.871582,4360.512695,4352.820313,4368.205078,4346.282227,4254.102539,4342.307617,4325.128418,4474.358887,4491.538574,4405.128418,4443.461426,0.000000,3.000000,60.000000,,,,0.000000,4.000000,4.000000,2.000000,4.000000,4.000000,2.000000,4.000000,4.000000,4.000000,4.000000,4.000000,4.000000,4.000000,4.000000,66.666664,,,,,,,,,,,,,,,,,,,,,,,,,,,,,,,,,,,,,,,,,,,,,,,,,,,,,,,,,,,,,,,,,,,,,,,,,,,,,,,,,,,,,,,,,,,,,,,,,,,,,,,,,,,,,,,,,,,,,
1768202445.344355,1768202445.344992,34.000000,0.000000,4352.179688,4345.128418,4322.563965,4358.717773,4352.692383,4368.205078,4342.051270,4247.051270,4343.717773,4326.410156,4473.333496,4491.794922,4404.615234,4440.897461,0.000000,3.000000,60.000000,,,,0.000000,4.000000,4.000000,2.000000,4.000000,4.000000,2.000000,4.000000,4.000000,4.000000,4.000000,4.000000,4.000000,4.000000,4.000000,66.666664,,,,,,,,,,,,,,,,,,,,,,,,,,,,,,,,,,,,,,,,,,,,,,,,,,,,,,,,,,,,,,,,,,,,,,,,,,,,,,,,,,,,,,,,,,,,,,,,,,,,,,,,,,,,,,,,,,,,,
1768202445.352164,1768202445.352800,35.000000,0.000000,4351.538574,4351.153809,4319.102539,4358.205078,4358.077148,4368.589844,4348.589844,4252.179688,4351.025879,4326.666504,4475.512695,4489.102539,4401.025879,4441.794922,0.000000,3.000000,60.000000,,,,0.000000,4.000000,4.000000,2.000000,4.000000,4.000000,2.000000,4.000000,4.000000,4.000000,4.000000,4.000000,4.000000,4.000000,4.000000,66.666664,,,,,,,,,,,,,,,,,,,,,,,,,,,,,,,,,,,,,,,,,,,,,,,,,,,,,,,,,,,,,,,,,,,,,,,,,,,,,,,,,,,,,,,,,,,,,,,,,,,,,,,,,,,,,,,,,,,,,
1768202445.359972,1768202445.360808,36.000000,0.000000,4352.563965,4352.948730,4316.794922,4357.692383,4358.846191,4368.974121,4349.487305,4256.666504,4345.641113,4325.512695,4473.461426,4487.307617,4397.563965,4441.538574,0.000000,3.000000,60.000000,,,,0.000000,4.000000,4.000000,2.000000,4.000000,4.000000,2.000000,4.000000,4.000000,4.000000,4.000000,4.000000,4.000000,4.000000,4.000000,66.666664,,,,,,,,,,,,,,,,,,,,,,,,,,,,,,,,,,,,,,,,,,,,,,,,,,,,,,,,,,,,,,,,,,,,,,,,,,,,,,,,,,,,,,,,,,,,,,,,,,,,,,,,,,,,,,,,,,,,,
1768202445.367781,1768202445.368617,37.000000,0.000000,4352.436035,4348.461426,4317.948730,4354.487305,4353.974121,4367.948730,4343.846191,4258.461426,4341.025879,4325.384766,4472.307617,4493.717773,4398.077148,4442.692383,0.000000,3.000000,60.000000,,,,0.000000,4.000000,4.000000,2.000000,4.000000,4.000000,2.000000,4.000000,4.000000,4.000000,4.000000,4.000000,4.000000,4.000000,4.000000,66.666664,,,,,,,,,,,,,,,,,,,,,,,,,,,,,,,,,,,,,,,,,,,,,,,,,,,,,,,,,,,,,,,,,,,,,,,,,,,,,,,,,,,,,,,,,,,,,,,,,,,,,,,,,,,,,,,,,,,,,
1768202445.375589,1768202445.376525,38.000000,0.000000,4355.000000,4347.307617,4320.128418,4356.025879,4354.230957,4367.948730,4348.974121,4259.358887,4345.128418,4327.179688,4476.794922,4503.589844,4400.128418,4447.563965,0.000000,3.000000,60.000000,,,,0.000000,4.000000,4.000000,2.000000,4.000000,4.000000,2.000000,4.000000,4.000000,4.000000,4.000000,4.000000,4.000000,4.000000,4.000000,66.666664,,,,,,,,,,,,,,,,,,,,,,,,,,,,,,,,,,,,,,,,,,,,,,,,,,,,,,,,,,,,,,,,,,,,,,,,,,,,,,,,,,,,,,,,,,,,,,,,,,,,,,,,,,,,,,,,,,,,,
1768202445.383397,1768202445.384334,39.000000,0.000000,4358.333496,4352.051270,4320.769043,4360.512695,4357.563965,4369.102539,4352.436035,4259.487305,4342.436035,4328.077148,4479.487305,4507.307617,4400.000000,4451.153809,0.000000,3.000000,60.000000,,,,0.000000,4.000000,4.000000,2.000000,4.000000,4.000000,2.000000,4.000000,4.000000,4.000000,4.000000,4.000000,4.000000,4.000000,4.000000,66.666664,,,,,,,,,,,,,,,,,,,,,,,,,,,,,,,,,,,,,,,,,,,,,,,,,,,,,,,,,,,,,,,,,,,,,,,,,,,,,,,,,,,,,,,,,,,,,,,,,,,,,,,,,,,,,,,,,,,,,
1768202445.391206,1768202445.391942,40.000000,0.000000,4362.307617,4356.538574,4322.051270,4357.948730,4358.461426,4369.358887,4343.974121,4263.846191,4342.820313,4325.128418,4476.153809,4505.769043,4396.794922,4453.589844,0.000000,3.000000,60.000000,,,,0.000000,4.000000,4.000000,2.000000,4.000000,4.000000,2.000000,4.000000,4.000000,4.000000,4.000000,4.000000,4.000000,4.000000,4.000000,66.666664,,,,,,,,,,,,,,,,,,,,,,,,,,,,,,,,,,,,,,,,,,,,,,,,,,,,,,,,,,,,,,,,,,,,,,,,,,,,,,,,,,,,,,,,,,,,,,,,,,,,,,,,,,,,,,,,,,,,,
1768202445.399014,1768202445.399751,41.000000,0.000000,4364.230957,4351.153809,4321.282227,4356.153809,4356.410156,4368.717773,4344.871582,4267.948730,4351.025879,4324.743652,4475.384766,4507.179688,4396.410156,4455.769043,0.000000,3.000000,60.000000,,,,0.000000,4.000000,4.000000,2.000000,4.000000,4.000000,2.000000,4.000000,4.000000,4.000000,4.000000,4.000000,4.000000,4.000000,4.000000,66.666664,,,,,,,,,,,,,,,,,,,,,,,,,,,,,,,,,,,,,,,,,,,,,,,,,,,,,,,,,,,,,,,,,,,,,,,,,,,,,,,,,,,,,,,,,,,,,,,,,,,,,,,,,,,,,,,,,,,,,
1768202445.406823,1768202445.407459,42.000000,0.000000,4362.948730,4348.717773,4319.871582,4362.692383,4354.871582,4368.589844,4353.589844,4265.897461,4350.641113,4330.128418,4484.871582,4510.512695,4404.102539,4457.948730,0.000000,3.000000,60.000000,,,,0.000000,4.000000,4.000000,2.000000,4.000000,4.000000,2.000000,4.000000,4.000000,4.000000,4.000000,4.000000,4.000000,4.000000,4.000000,66.666664,,,,,,,,,,,,,,,,,,,,,,,,,,,,,,,,,,,,,,,,,,,,,,,,,,,,,,,,,,,,,,,,,,,,,,,,,,,,,,,,,,,,,,,,,,,,,,,,,,,,,,,,,,,,,,,,,,,,,
1768202445.414631,1768202445.415268,43.000000,0.000000,4360.641113,4353.717773,4322.436035,4365.000000,4356.153809,4370.384766,4349.871582,4263.846191,4345.384766,4331.794922,4490.384766,4509.615234,4408.589844,4461.282227,0.000000,3.000000,60.000000,,,,0.000000,4.000000,4.000000,2.000000,4.000000,4.000000,2.000000,4.000000,4.000000,4.000000,4.000000,4.000000,4.000000,4.000000,4.000000,66.666664,,,,,,,,,,,,,,,,,,,,,,,,,,,,,,,,,,,,,,,,,,,,,,,,,,,,,,,,,,,,,,,,,,,,,,,,,,,,,,,,,,,,,,,,,,,,,,,,,,,,,,,,,,,,,,,,,,,,,
1768202445.422440,1768202445.422876,44.000000,0.000000,4359.358887,4351.282227,4324.743652,4359.487305,4356.025879,4370.384766,4346.538574,4268.846191,4348.077148,4328.589844,4485.128418,4505.641113,4398.717773,4457.948730,0.000000,3.000000,60.000000,,,,0.000000,4.000000,4.000000,2.000000,4.000000,4.000000,2.000000,4.000000,4.000000,4.000000,4.000000,4.000000,4.000000,4.000000,4.000000,66.666664,,,,,,,,,,,,,,,,,,,,,,,,,,,,,,,,,,,,,,,,,,,,,,,,,,,,,,,,,,,,,,,,,,,,,,,,,,,,,,,,,,,,,,,,,,,,,,,,,,,,,,,,,,,,,,,,,,,,,
1768202445.430248,1768202445.430685,45.000000,0.000000,4354.615234,4343.846191,4323.846191,4358.205078,4352.307617,4368.589844,4356.153809,4278.461426,4355.384766,4331.538574,4484.487305,4511.410156,4394.102539,4450.256348,0.000000,3.000000,60.000000,,,,0.000000,4.000000,4.000000,2.000000,4.000000,4.000000,2.000000,4.000000,4.000000,4.000000,4.000000,4.000000,4.000000,4.000000,4.000000,66.666664,,,,,,,,,,,,,,,,,,,,,,,,,,,,,,,,,,,,,,,,,,,,,,,,,,,,,,,,,,,,,,,,,,,,,,,,,,,,,,,,,,,,,,,,,,,,,,,,,,,,,,,,,,,,,,,,,,,,,
1768202445.438056,1768202445.438593,46.000000,0.000000,4352.948730,4346.922852,4322.307617,4360.512695,4349.487305,4367.307617,4350.897461,4281.282227,4357.179688,4340.769043,4494.230957,4521.282227,4409.615234,4454.743652,0.000000,3.000000,60.000000,,,,0.000000,4.000000,4.000000,2.000000,4.000000,4.000000,2.000000,4.000000,4.000000,4.000000,4.000000,4.000000,4.000000,4.000000,4.000000,66.666664,,,,,,,,,,,,,,,,,,,,,,,,,,,,,,,,,,,,,,,,,,,,,,,,0.231068,0.421535,0.289281,0.220124,0.175609,0.162804,0.721237,0.209035,0.232644,0.127958,0.117187,0.048388,0.033483,0.020040,0.041149,0.171396,0.297207,0.075619,0.097399,0.060460,0.382582,0.346172,0.106267,0.171880,0.071629,0.056023,0.038307,0.120604,0.036436,0.055167,0.239263,0.231651,0.246984,0.216620,0.255755,0.971556,0.245607,0.167274,0.344790,0.217360,0.558706,0.134217,0.203280,0.194285,0.108130,0.287388,0.171229,0.187811,0.255834,0.109782,0.911897,0.359457,0.173195,0.345433,0.127570,0.730840,0.702554,0.266566,0.378300,0.219205,0.971866,0.663788,0.289220,0.293233,0.116527,1.015060,0.689451,0.389993,0.436166,0.184680
1768202445.445865,1768202445.446402,47.000000,0.000000,4362.948730,4356.666504,4322.307617,4362.179688,4350.641113,4368.333496,4339.487305,4278.846191,4354.358887,4343.846191,4498.589844,4516.153809,4422.563965,4467.436035,0.000000,3.000000,60.000000,,,,0.000000,4.000000,4.000000,2.000000,4.000000,4.000000,2.000000,4.000000,4.000000,4.000000,4.000000,4.000000,4.000000,4.000000,4.000000,66.666664,,,,,,,,,,,,,,,,,,,,,,,,,,,,,,,,,,,,,,,,,,,,,,,,,,,,,,,,,,,,,,,,,,,,,,,,,,,,,,,,,,,,,,,,,,,,,,,,,,,,,,,,,,,,,,,,,,,,,
1768202445.453673,1768202445.454410,48.000000,0.000000,4363.846191,4356.153809,4321.922852,4359.743652,4349.871582,4368.846191,4341.922852,4278.333496,4350.000000,4339.102539,4492.563965,4505.512695,4416.282227,4461.922852,0.000000,3.000000,60.000000,,,,0.000000,4.000000,4.000000,2.000000,4.000000,4.000000,2.000000,4.000000,4.000000,4.000000,4.000000,4.000000,4.000000,4.000000,4.000000,66.666664,,,,,,,,,,,,,,,,,,,,,,,,,,,,,,,,,,,,,,,,,,,,,,,,,,,,,,,,,,,,,,,,,,,,,,,,,,,,,,,,,,,,,,,,,,,,,,,,,,,,,,,,,,,,,,,,,,,,,
1768202445.461482,1768202445.462218,49.000000,0.000000,4350.384766,4347.307617,4320.000000,4352.820313,4347.692383,4365.897461,4345.000000,4278.461426,4348.205078,4336.025879,4489.230957,4505.256348,4404.358887,4446.282227,0.000000,3.000000,60.000000,,,,0.000000,4.000000,4.000000,2.000000,4.000000,4.000000,2.000000,4.000000,4.000000,4.000000,4.000000,4.000000,4.000000,4.000000,4.000000,66.666664,,,,,,,,,,,,,,,,,,,,,,,,,,,,,,,,,,,,,,,,,,,,,,,,,,,,,,,,,,,,,,,,,,,,,,,,,,,,,,,,,,,,,,,,,,,,,,,,,,,,,,,,,,,,,,,,,,,,,
1768202445.469290,1768202445.470127,50.000000,0.000000,4345.512695,4341.922852,4318.461426,4351.666504,4349.102539,4365.256348,4343.333496,4277.948730,4350.256348,4336.025879,4488.974121,4509.871582,4401.922852,4443.205078,0.000000,3.000000,60.000000,,,,0.000000,4.000000,4.000000,2.000000,4.000000,4.000000,2.000000,4.000000,4.000000,4.000000,4.000000,4.000000,4.000000,4.000000,4.000000,66.666664,,,,,,,,,,,,,,,,,,,,,,,,,,,,,,,,,,,,,,,,,,,,,,,,,,,,,,,,,,,,,,,,,,,,,,,,,,,,,,,,,,,,,,,,,,,,,,,,,,,,,,,,,,,,,,,,,,,,,
1768202445.477099,1768202445.477935,51.000000,0.000000,4350.897461,4342.307617,4317.820313,4357.179688,4351.153809,4366.538574,4342.563965,4278.589844,4351.922852,4335.512695,4488.589844,4506.538574,4407.948730,4446.025879,0.000000,3.000000,60.000000,,,,0.000000,4.000000,4.000000,2.000000,4.000000,4.000000,2.000000,4.000000,4.000000,4.000000,4.000000,4.000000,4.000000,4.000000,4.000000,66.666664,,,,,,,,,,,,,,,,,,,,,,,,,,,,,,,,,,,,,,,,,,,,,,,,,,,,,,,,,,,,,,,,,,,,,,,,,,,,,,,,,,,,,,,,,,,,,,,,,,,,,,,,,,,,,,,,,,,,,
1768202445.484907,1768202445.485544,52.000000,0.000000,4346.922852,4344.102539,4320.000000,4360.384766,4350.769043,4365.641113,4340.512695,4276.666504,4348.589844,4332.436035,4488.717773,4500.897461,4411.666504,4445.384766,0.000000,3.000000,60.000000,,,,0.000000,4.000000,4.000000,2.000000,4.000000,4.000000,2.000000,4.000000,4.000000,4.000000,4.000000,4.000000,4.000000,4.000000,4.000000,66.666664,,,,,,,,,,,,,,,,,,,,,,,,,,,,,,,,,,,,,,,,,,,,,,,,,,,,,,,,,,,,,,,,,,,,,,,,,,,,,,,,,,,,,,,,,,,,,,,,,,,,,,,,,,,,,,,,,,,,,
1768202445.492715,1768202445.493352,53.000000,0.000000,4339.358887,4340.384766,4322.051270,4359.230957,4346.922852,4364.871582,4341.282227,4278.846191,4343.974121,4329.871582,4488.846191,4498.461426,4406.794922,4444.615234,0.000000,3.000000,60.000000,,,,0.000000,4.000000,4.000000,2.000000,4.000000,4.000000,2.000000,4.000000,4.000000,4.000000,4.000000,4.000000,4.000000,4.000000,4.000000,66.666664,,,,,,,,,,,,,,,,,,,,,,,,,,,,,,,,,,,,,,,,,,,,,,,,,,,,,,,,,,,,,,,,,,,,,,,,,,,,,,,,,,,,,,,,,,,,,,,,,,,,,,,,,,,,,,,,,,,,,
1768202445.500524,1768202445.501261,54.000000,0.000000,4339.615234,4333.974121,4316.922852,4354.358887,4341.794922,4365.128418,4345.384766,4284.743652,4344.487305,4328.205078,4482.307617,4494.230957,4398.205078,4440.384766,0.000000,3.000000,60.000000,,,,0.000000,4.000000,4.000000,2.000000,4.000000,4.000000,2.000000,4.000000,4.000000,4.000000,4.000000,4.000000,4.000000,4.000000,4.000000,66.666664,,,,,,,,,,,,,,,,,,,,,,,,,,,,,,,,,,,,,,,,,,,,,,,,,,,,,,,,,,,,,,,,,,,,,,,,,,,,,,,,,,,,,,,,,,,,,,,,,,,,,,,,,,,,,,,,,,,,,
1768202445.508332,1768202445.509069,55.000000,0.000000,4339.230957,4333.717773,4313.589844,4352.948730,4338.461426,4364.230957,4341.794922,4283.589844,4342.436035,4326.282227,4475.769043,4494.871582,4396.153809,4435.769043,0.000000,3.000000,60.000000,,,,0.000000,4.000000,4.000000,2.000000,4.000000,4.000000,2.000000,4.000000,4.000000,4.000000,4.000000,4.000000,4.000000,4.000000,4.000000,66.666664,,,,,,,,,,,,,,,,,,,,,,,,,,,,,,,,,,,,,,,,,,,,,,,,,,,,,,,,,,,,,,,,,,,,,,,,,,,,,,,,,,,,,,,,,,,,,,,,,,,,,,,,,,,,,,,,,,,,,
1768202445.516141,1768202445.516977,56.000000,0.000000,4341.666504,4342.820313,4321.538574,4360.769043,4341.410156,4365.769043,4345.641113,4285.769043,4340.641113,4327.307617,4483.461426,4498.205078,4404.743652,4441.922852,0.000000,3.000000,60.000000,,,,0.000000,4.000000,4.000000,2.000000,4.000000,4.000000,2.000000,4.000000,4.000000,4.000000,4.000000,4.000000,4.000000,4.000000,4.000000,66.666664,,,,,,,,,,,,,,,,,,,,,,,,,,,,,,,,,,,,,,,,,,,,,,,,,,,,,,,,,,,,,,,,,,,,,,,,,,,,,,,,,,,,,,,,,,,,,,,,,,,,,,,,,,,,,,,,,,,,,
1768202445.523949,1768202445.524786,57.000000,0.000000,4346.025879,4346.025879,4324.615234,4362.307617,4345.897461,4368.589844,4354.102539,4294.230957,4348.333496,4332.436035,4493.077148,4497.820313,4413.205078,4447.692383,0.000000,3.000000,60.000000,,,,0.000000,4.000000,4.000000,2.000000,4.000000,4.000000,2.000000,4.000000,4.000000,4.000000,4.000000,4.000000,4.000000,4.000000,4.000000,66.666664,,,,,,,,,,,,,,,,,,,,,,,,,,,,,,,,,,,,,,,,,,,,,,,,,,,,,,,,,,,,,,,,,,,,,,,,,,,,,,,,,,,,,,,,,,,,,,,,,,,,,,,,,,,,,,,,,,,,,
1768202445.531757,1768202445.532494,58.000000,0.000000,4342.179688,4338.974121,4318.717773,4355.128418,4343.846191,4367.820313,4348.974121,4294.743652,4351.538574,4335.641113,4492.563965,4500.000000,4412.436035,4442.820313,0.000000,3.000000,60.000000,,,,0.000000,4.000000,4.000000,2.000000,4.000000,4.000000,2.000000,4.000000,4.000000,4.000000,4.000000,4.000000,4.000000,4.000000,4.000000,66.666664,,,,,,,,,,,,,,,,,,,,,,,,,,,,,,,,,,,,,,,,,,,,,,,,,,,,,,,,,,,,,,,,,,,,,,,,,,,,,,,,,,,,,,,,,,,,,,,,,,,,,,,,,,,,,,,,,,,,,
1768202445.539566,1768202445.540303,59.000000,0.000000,4340.000000,4338.077148,4319.358887,4356.666504,4341.666504,4368.205078,4343.461426,4292.179688,4343.461426,4335.384766,4490.128418,4502.563965,4409.487305,4442.948730,0.000000,3.000000,60.000000,,,,0.000000,4.000000,4.000000,2.000000,4.000000,4.000000,2.000000,4.000000,4.000000,4.000000,4.000000,4.000000,4.000000,4.000000,4.000000,66.666664,,,,,,,,,,,,,,,,,,,,,,,,,,,,,,,,,,,,,,,,,,,,,,,,,,,,,,,,,,,,,,,,,,,,,,,,,,,,,,,,,,,,,,,,,,,,,,,,,,,,,,,,,,,,,,,,,,,,,
1768202445.547374,1768202445.547911,60.000000,0.000000,4344.871582,4343.077148,4321.922852,4360.769043,4344.102539,4369.871582,4345.000000,4294.743652,4341.153809,4333.077148,4489.871582,4497.692383,4405.641113,4446.794922,0.000000,3.000000,60.000000,,,,0.000000,4.000000,4.000000,2.000000,4.000000,4.000000,2.000000,4.000000,4.000000,4.000000,4.000000,4.000000,4.000000,4.000000,4.000000,66.666664,,,,,,,,,,,,,,,,,,,,,,,,,,,,,,,,,,,,,,,,,,,,,,,,,,,,,,,,,,,,,,,,,,,,,,,,,,,,,,,,,,,,,,,,,,,,,,,,,,,,,,,,,,,,,,,,,,,,,
1768202445.555183,1768202445.555720,61.000000,0.000000,4342.179688,4342.179688,4318.077148,4355.000000,4344.487305,4367.307617,4345.256348,4297.948730,4345.256348,4328.717773,4487.307617,4495.128418,4397.051270,4443.205078,0.000000,3.000000,60.000000,,,,0.000000,4.000000,4.000000,2.000000,4.000000,4.000000,2.000000,4.000000,4.000000,4.000000,4.000000,4.000000,4.000000,4.000000,4.000000,66.666664,,,,,,,,,,,,,,,,,,,,,,,,,,,,,,,,,,,,,,,,,,,,,,,,,,,,,,,,,,,,,,,,,,,,,,,,,,,,,,,,,,,,,,,,,,,,,,,,,,,,,,,,,,,,,,,,,,,,,
1768202445.562991,1768202445.563428,62.000000,0.000000,4335.512695,4336.538574,4317.692383,4349.615234,4341.025879,4365.512695,4344.230957,4302.307617,4344.230957,4325.384766,4487.051270,4502.948730,4396.153809,4441.922852,0.000000,3.000000,60.000000,,,,0.000000,4.000000,4.000000,2.000000,4.000000,4.000000,2.000000,4.000000,4.000000,4.000000,4.000000,4.000000,4.000000,4.000000,4.000000,66.666664,,,,,,,,,,,,,,,,,,,,,,,,,,,,,,,,,,,,,,,,,,,,,,,,0.250421,0.472515,0.306098,0.254425,0.177231,0.169639,0.864280,0.234015,0.254759,0.121069,0.119812,0.060649,0.043587,0.017223,0.037497,0.134958,0.344797,0.094237,0.101740,0.060630,0.439759,0.372027,0.133727,0.150442,0.080175,0.053125,0.031569,0.099350,0.036583,0.057264,0.262206,0.249074,0.217792,0.181951,0.256209,1.261948,0.365153,0.197451,0.325458,0.213658,0.566571,0.131470,0.213134,0.181407,0.109814,0.269791,0.206286,0.188568,0.241630,0.121574,0.949040,0.360001,0.181583,0.364738,0.124298,0.766330,0.773165,0.268478,0.337151,0.224136,0.988370,0.767470,0.251987,0.340392,0.112622,1.075985,0.744082,0.390749,0.470799,0.191896
1768202445.570800,1768202445.571237,63.000000,0.000000,4342.307617,4336.410156,4322.307617,4353.205078,4341.282227,4368.846191,4344.871582,4307.948730,4343.717773,4326.410156,4491.666504,4506.666504,4402.563965,4446.538574,0.000000,3.000000,60.000000,,,,0.000000,4.000000,4.000000,2.000000,4.000000,4.000000,2.000000,4.000000,4.000000,4.000000,4.000000,4.000000,4.000000,4.000000,4.000000,66.666664,,,,,,,,,,,,,,,,,,,,,,,,,,,,,,,,,,,,,,,,,,,,,,,,,,,,,,,,,,,,,,,,,,,,,,,,,,,,,,,,,,,,,,,,,,,,,,,,,,,,,,,,,,,,,,,,,,,,,
1768202445.578608,1768202445.579245,64.000000,0.000000,4350.128418,4342.179688,4324.743652,4359.615234,4343.846191,4368.974121,4347.563965,4308.077148,4345.128418,4327.436035,4492.307617,4507.820313,4400.641113,4448.205078,900.000000,3.000000,60.000000,,,,0.000000,4.000000,4.000000,2.000000,4.000000,4.000000,2.000000,4.000000,4.000000,4.000000,4.000000,4.000000,4.000000,4.000000,4.000000,66.666664,,,,,,,,,,,,,,,,,,,,,,,,,,,,,,,,,,,,,,,,,,,,,,,,,,,,,,,,,,,,,,,,,,,,,,,,,,,,,,,,,,,,,,,,,,,,,,,,,,,,,,,,,,,,,,,,,,,,,
1768202445.586417,1768202445.587054,65.000000,0.000000,4344.743652,4343.974121,4322.563965,4360.512695,4341.922852,4366.025879,4353.333496,4307.948730,4345.128418,4325.769043,4491.922852,4508.589844,4394.102539,4445.000000,2590.000000,3.000000,60.000000,,,,0.000000,4.000000,4.000000,2.000000,4.000000,4.000000,2.000000,4.000000,4.000000,4.000000,4.000000,4.000000,4.000000,4.000000,4.000000,66.666664,,,,,,,,,,,,,,,,,,,,,,,,,,,,,,,,,,,,,,,,,,,,,,,,,,,,,,,,,,,,,,,,,,,,,,,,,,,,,,,,,,,,,,,,,,,,,,,,,,,,,,,,,,,,,,,,,,,,,
1768202445.594225,1768202445.594762,66.000000,0.000000,4339.487305,4340.000000,4320.512695,4357.692383,4340.512695,4366.666504,4355.000000,4309.102539,4344.358887,4324.102539,4488.974121,4503.846191,4394.743652,4442.179688,3832.000000,3.000000,60.000000,,,,0.000000,4.000000,4.000000,2.000000,4.000000,4.000000,2.000000,4.000000,4.000000,4.000000,4.000000,4.000000,4.000000,4.000000,4.000000,66.666664,,,,,,,,,,,,,,,,,,,,,,,,,,,,,,,,,,,,,,,,,,,,,,,,,,,,,,,,,,,,,,,,,,,,,,,,,,,,,,,,,,,,,,,,,,,,,,,,,,,,,,,,,,,,,,,,,,,,,
1768202445.602034,1768202445.602571,67.000000,0.000000,4343.077148,4339.487305,4321.410156,4357.948730,4343.077148,4366.025879,4348.333496,4310.512695,4340.897461,4323.589844,4480.384766,4503.974121,4394.743652,4444.230957,3652.000000,3.000000,60.000000,,,,0.000000,4.000000,4.000000,2.000000,4.000000,4.000000,2.000000,4.000000,4.000000,4.000000,4.000000,4.000000,4.000000,4.000000,4.000000,66.666664,,,,,,,,,,,,,,,,,,,,,,,,,,,,,,,,,,,,,,,,,,,,,,,,,,,,,,,,,,,,,,,,,,,,,,,,,,,,,,,,,,,,,,,,,,,,,,,,,,,,,,,,,,,,,,,,,,,,,
1768202445.609842,1768202445.610179,68.000000,0.000000,4344.102539,4342.948730,4320.769043,4358.333496,4338.717773,4362.563965,4343.205078,4307.563965,4337.436035,4324.487305,4476.538574,4508.589844,4387.948730,4445.641113,3745.000000,3.000000,60.000000,,,,0.000000,4.000000,4.000000,2.000000,4.000000,4.000000,2.000000,4.000000,4.000000,4.000000,4.000000,4.000000,4.000000,4.000000,4.000000,66.666664,,,,,,,,,,,,,,,,,,,,,,,,,,,,,,,,,,,,,,,,,,,,,,,,,,,,,,,,,,,,,,,,,,,,,,,,,,,,,,,,,,,,,,,,,,,,,,,,,,,,,,,,,,,,,,,,,,,,,
1768202445.617650,1768202445.617988,69.000000,0.000000,4333.717773,4336.538574,4318.846191,4353.846191,4331.153809,4361.538574,4341.153809,4306.666504,4339.743652,4325.256348,4477.563965,4507.436035,4381.153809,4437.307617,938.000000,3.000000,60.000000,,,,0.000000,4.000000,4.000000,2.000000,4.000000,4.000000,2.000000,4.000000,4.000000,4.000000,4.000000,4.000000,4.000000,4.000000,4.000000,66.666664,,,,,,,,,,,,,,,,,,,,,,,,,,,,,,,,,,,,,,,,,,,,,,,,,,,,,,,,,,,,,,,,,,,,,,,,,,,,,,,,,,,,,,,,,,,,,,,,,,,,,,,,,,,,,,,,,,,,,
1768202445.625459,1768202445.625696,70.000000,0.000000,4324.102539,4323.333496,4319.358887,4351.794922,4333.461426,4368.333496,4350.128418,4316.922852,4344.615234,4323.205078,4476.538574,4504.230957,4376.794922,4428.974121,3972.000000,3.000000,60.000000,,,,0.000000,4.000000,4.000000,2.000000,4.000000,4.000000,2.000000,4.000000,4.000000,4.000000,4.000000,4.000000,4.000000,4.000000,4.000000,66.666664,,,,,,,,,,,,,,,,,,,,,,,,,,,,,,,,,,,,,,,,,,,,,,,,,,,,,,,,,,,,,,,,,,,,,,,,,,,,,,,,,,,,,,,,,,,,,,,,,,,,,,,,,,,,,,,,,,,,,
1768202445.633267,1768202445.633505,71.000000,0.000000,4334.358887,4326.153809,4322.563965,4358.077148,4340.512695,4374.743652,4364.358887,4328.077148,4349.102539,4329.230957,4489.871582,4516.282227,4384.487305,4444.487305,4119.000000,3.000000,60.000000,,,,0.000000,4.000000,4.000000,2.000000,4.000000,4.000000,2.000000,4.000000,4.000000,4.000000,4.000000,4.000000,4.000000,4.000000,4.000000,66.666664,,,,,,,,,,,,,,,,,,,,,,,,,,,,,,,,,,,,,,,,,,,,,,,,,,,,,,,,,,,,,,,,,,,,,,,,,,,,,,,,,,,,,,,,,,,,,,,,,,,,,,,,,,,,,,,,,,,,,
1768202445.641075,1768202445.641513,72.000000,0.000000,4357.563965,4342.436035,4325.769043,4366.794922,4341.153809,4371.538574,4364.615234,4335.128418,4359.487305,4346.794922,4518.077148,4539.230957,4409.230957,4471.153809,4091.000000,3.000000,60.000000,,,,0.000000,4.000000,4.000000,2.000000,4.000000,4.000000,2.000000,4.000000,4.000000,4.000000,4.000000,4.000000,4.000000,4.000000,4.000000,66.666664,,,,,,,,,,,,,,,,,,,,,,,,,,,,,,,,,,,,,,,,,,,,,,,,,,,,,,,,,,,,,,,,,,,,,,,,,,,,,,,,,,,,,,,,,,,,,,,,,,,,,,,,,,,,,,,,,,,,,
1768202445.648884,1768202445.649321,73.000000,0.000000,4363.333496,4345.512695,4325.128418,4367.179688,4338.461426,4367.179688,4358.461426,4339.743652,4361.794922,4351.025879,4522.820313,4543.846191,4418.589844,4474.102539,4109.000000,3.000000,60.000000,,,,0.000000,4.000000,4.000000,2.000000,4.000000,4.000000,2.000000,4.000000,4.000000,4.000000,4.000000,4.000000,4.000000,4.000000,4.000000,66.666664,,,,,,,,,,,,,,,,,,,,,,,,,,,,,,,,,,,,,,,,,,,,,,,,,,,,,,,,,,,,,,,,,,,,,,,,,,,,,,,,,,,,,,,,,,,,,,,,,,,,,,,,,,,,,,,,,,,,,
1768202445.656692,1768202445.657230,74.000000,0.000000,4348.846191,4338.077148,4322.051270,4358.974121,4338.205078,4365.512695,4352.948730,4333.205078,4347.307617,4335.000000,4504.487305,4523.589844,4400.512695,4456.025879,4241.000000,3.000000,60.000000,,,,0.000000,4.000000,4.000000,2.000000,4.000000,4.000000,2.000000,4.000000,4.000000,4.000000,4.000000,4.000000,4.000000,4.000000,4.000000,66.666664,,,,,,,,,,,,,,,,,,,,,,,,,,,,,,,,,,,,,,,,,,,,,,,,,,,,,,,,,,,,,,,,,,,,,,,,,,,,,,,,,,,,,,,,,,,,,,,,,,,,,,,,,,,,,,,,,,,,,
1768202445.664501,1768202445.665038,75.000000,0.000000,4343.974121,4338.717773,4320.641113,4356.410156,4338.846191,4365.128418,4344.743652,4319.871582,4336.794922,4326.794922,4496.794922,4511.410156,4393.717773,4449.102539,4761.000000,3.000000,60.000000,,,,0.000000,4.000000,4.000000,2.000000,4.000000,4.000000,2.000000,4.000000,4.000000,4.000000,4.000000,4.000000,4.000000,4.000000,4.000000,66.666664,,,,,,,,,,,,,,,,,,,,,,,,,,,,,,,,,,,,,,,,,,,,,,,,,,,,,,,,,,,,,,,,,,,,,,,,,,,,,,,,,,,,,,,,,,,,,,,,,,,,,,,,,,,,,,,,,,,,,
1768202445.672309,1768202445.673046,76.000000,0.000000,4352.948730,4342.179688,4322.820313,4361.538574,4339.358887,4365.512695,4343.077148,4319.615234,4339.102539,4330.769043,4498.974121,4518.846191,4403.717773,4456.538574,5225.000000,3.000000,60.000000,,,,0.000000,4.000000,4.000000,2.000000,4.000000,4.000000,2.000000,4.000000,4.000000,4.000000,4.000000,4.000000,4.000000,4.000000,4.000000,66.666664,,,,,,,,,,,,,,,,,,,,,,,,,,,,,,,,,,,,,,,,,,,,,,,,,,,,,,,,,,,,,,,,,,,,,,,,,,,,,,,,,,,,,,,,,,,,,,,,,,,,,,,,,,,,,,,,,,,,,
1768202445.680118,1768202445.680855,77.000000,0.000000,4356.794922,4340.897461,4323.717773,4361.153809,4339.615234,4367.692383,4349.871582,4328.205078,4340.769043,4328.333496,4500.256348,4522.179688,4401.538574,4461.794922,4478.000000,3.000000,60.000000,,,,0.000000,4.000000,4.000000,2.000000,4.000000,4.000000,2.000000,4.000000,4.000000,4.000000,4.000000,4.000000,4.000000,4.000000,4.000000,66.666664,,,,,,,,,,,,,,,,,,,,,,,,,,,,,,,,,,,,,,,,,,,,,,,,,,,,,,,,,,,,,,,,,,,,,,,,,,,,,,,,,,,,,,,,,,,,,,,,,,,,,,,,,,,,,,,,,,,,,
1768202445.687926,1768202445.688763,78.000000,0.000000,4352.692383,4339.871582,4322.563965,4358.846191,4339.743652,4366.666504,4350.641113,4330.769043,4339.743652,4326.153809,4500.769043,4519.615234,4394.871582,4458.717773,4241.000000,3.000000,60.000000,,,,0.000000,4.000000,4.000000,2.000000,4.000000,4.000000,2.000000,4.000000,4.000000,4.000000,4.000000,4.000000,4.000000,4.000000,4.000000,66.666664,1.000000,8.333333,4.000000,4.000000,0.000000,4.000000,4.000000,0.000000,4.000000,1.000000,4.000000,4.000000,4.000000,4.000000,4.000000,4.000000,,,,,,,,,,,,,,,,,,,,,,,,,,,,,,,,0.268291,0.501285,0.314963,0.289192,0.173019,0.185850,0.931608,0.241812,0.277734,0.118061,0.115663,0.074086,0.054930,0.015146,0.034493,0.113849,0.373754,0.123145,0.103925,0.062242,0.474856,0.358545,0.161651,0.123604,0.088647,0.046154,0.026474,0.080461,0.035667,0.056035,0.301711,0.249899,0.191230,0.148473,0.257086,1.688110,0.552345,0.252981,0.297201,0.210390,0.546462,0.138970,0.232328,0.170157,0.119836,0.248112,0.260028,0.196765,0.236158,0.135955,0.919660,0.383926,0.219952,0.385812,0.128136,0.788325,0.797945,0.276048,0.294370,0.221719,0.938397,0.833912,0.219932,0.398757,0.120023,1.033485,0.769355,0.388768,0.499690,0.195677
1768202445.695735,1768202445.696572,79.000000,0.000000,4345.641113,4339.871582,4322.948730,4360.769043,4338.846191,4363.333496,4343.974121,4331.666504,4341.153809,4329.358887,4498.205078,4520.256348,4398.589844,4449.487305,4761.000000,3.000000,60.000000,,,,0.000000,4.000000,4.000000,2.000000,4.000000,4.000000,2.000000,4.000000,4.000000,4.000000,4.000000,4.000000,4.000000,4.000000,4.000000,66.666664,,,,,,,,,,,,,,,,,,,,,,,,,,,,,,,,,,,,,,,,,,,,,,,,,,,,,,,,,,,,,,,,,,,,,,,,,,,,,,,,,,,,,,,,,,,,,,,,,,,,,,,,,,,,,,,,,,,,,
1768202445.703543,1768202445.704180,80.000000,0.000000,4344.102539,4337.948730,4322.820313,4360.384766,4337.820313,4362.307617,4341.666504,4334.230957,4341.794922,4328.333496,4493.333496,4521.666504,4400.384766,4449.102539,5225.000000,3.000000,60.000000,,,,0.000000,4.000000,4.000000,2.000000,4.000000,4.000000,2.000000,4.000000,4.000000,4.000000,4.000000,4.000000,4.000000,4.000000,4.000000,66.666664,,,,,,,,,,,,,,,,,,,,,,,,,,,,,,,,,,,,,,,,,,,,,,,,,,,,,,,,,,,,,,,,,,,,,,,,,,,,,,,,,,,,,,,,,,,,,,,,,,,,,,,,,,,,,,,,,,,,,
1768202445.711352,1768202445.711989,81.000000,0.000000,4348.974121,4336.410156,4321.794922,4360.384766,4340.512695,4363.846191,4345.641113,4338.974121,4343.589844,4326.922852,4492.820313,4523.461426,4396.666504,4460.000000,4478.000000,3.000000,60.000000,,,,0.000000,4.000000,4.000000,2.000000,4.000000,4.000000,2.000000,4.000000,4.000000,4.000000,4.000000,4.000000,4.000000,4.000000,4.000000,66.666664,,,,,,,,,,,,,,,,,,,,,,,,,,,,,,,,,,,,,,,,,,,,,,,,,,,,,,,,,,,,,,,,,,,,,,,,,,,,,,,,,,,,,,,,,,,,,,,,,,,,,,,,,,,,,,,,,,,,,
1768202445.719160,1768202445.719697,82.000000,0.000000,4349.487305,4338.461426,4322.051270,4362.051270,4341.153809,4368.077148,4346.538574,4340.641113,4343.846191,4329.102539,4493.589844,4522.307617,4396.025879,4459.358887,4241.000000,3.000000,60.000000,,,,0.000000,4.000000,4.000000,2.000000,4.000000,4.000000,2.000000,4.000000,4.000000,4.000000,4.000000,4.000000,4.000000,4.000000,4.000000,66.666664,,,,,,,,,,,,,,,,,,,,,,,,,,,,,,,,,,,,,,,,,,,,,,,,,,,,,,,,,,,,,,,,,,,,,,,,,,,,,,,,,,,,,,,,,,,,,,,,,,,,,,,,,,,,,,,,,,,,,
1768202445.726968,1768202445.727506,83.000000,0.000000,4346.153809,4339.487305,4322.948730,4362.179688,4339.743652,4366.410156,4346.538574,4337.948730,4339.487305,4328.333496,4490.897461,4513.589844,4395.512695,4447.692383,4761.000000,3.000000,60.000000,,,,0.000000,4.000000,4.000000,2.000000,4.000000,4.000000,2.000000,4.000000,4.000000,4.000000,4.000000,4.000000,4.000000,4.000000,4.000000,66.666664,,,,,,,,,,,,,,,,,,,,,,,,,,,,,,,,,,,,,,,,,,,,,,,,,,,,,,,,,,,,,,,,,,,,,,,,,,,,,,,,,,,,,,,,,,,,,,,,,,,,,,,,,,,,,,,,,,,,,
1768202445.734777,1768202445.735114,84.000000,0.000000,4346.282227,4335.641113,4322.051270,4361.538574,4341.922852,4364.743652,4353.846191,4337.692383,4338.974121,4324.871582,4489.230957,4505.641113,4391.282227,4444.358887,5225.000000,3.000000,60.000000,,,,0.000000,4.000000,4.000000,2.000000,4.000000,4.000000,2.000000,4.000000,4.000000,4.000000,4.000000,4.000000,4.000000,4.000000,4.000000,66.666664,,,,,,,,,,,,,,,,,,,,,,,,,,,,,,,,,,,,,,,,,,,,,,,,,,,,,,,,,,,,,,,,,,,,,,,,,,,,,,,,,,,,,,,,,,,,,,,,,,,,,,,,,,,,,,,,,,,,,
1768202445.742585,1768202445.742923,85.000000,0.000000,4345.000000,4333.974121,4320.641113,4360.256348,4343.333496,4369.487305,4355.256348,4339.102539,4338.461426,4323.717773,4489.871582,4506.794922,4385.384766,4445.384766,4478.000000,3.000000,60.000000,,,,0.000000,4.000000,4.000000,2.000000,4.000000,4.000000,2.000000,4.000000,4.000000,4.000000,4.000000,4.000000,4.000000,4.000000,4.000000,66.666664,,,,,,,,,,,,,,,,,,,,,,,,,,,,,,,,,,,,,,,,,,,,,,,,,,,,,,,,,,,,,,,,,,,,,,,,,,,,,,,,,,,,,,,,,,,,,,,,,,,,,,,,,,,,,,,,,,,,,
1768202445.750394,1768202445.750631,86.000000,0.000000,4342.692383,4334.487305,4322.179688,4359.230957,4340.256348,4368.589844,4342.820313,4334.615234,4331.794922,4321.282227,4486.538574,4508.205078,4381.538574,4443.205078,4241.000000,3.000000,60.000000,,,,0.000000,4.000000,4.000000,2.000000,4.000000,4.000000,2.000000,4.000000,4.000000,4.000000,4.000000,4.000000,4.000000,4.000000,4.000000,66.666664,,,,,,,,,,,,,,,,,,,,,,,,,,,,,,,,,,,,,,,,,,,,,,,,,,,,,,,,,,,,,,,,,,,,,,,,,,,,,,,,,,,,,,,,,,,,,,,,,,,,,,,,,,,,,,,,,,,,,
1768202445.758202,1768202445.758440,87.000000,0.000000,4340.769043,4328.717773,4322.948730,4359.102539,4337.436035,4361.410156,4335.256348,4326.410156,4325.256348,4313.333496,4475.769043,4500.128418,4377.563965,4439.358887,4761.000000,3.000000,60.000000,,,,0.000000,4.000000,4.000000,2.000000,4.000000,4.000000,2.000000,4.000000,4.000000,4.000000,4.000000,4.000000,4.000000,4.000000,4.000000,66.666664,,,,,,,,,,,,,,,,,,,,,,,,,,,,,,,,,,,,,,,,,,,,,,,,,,,,,,,,,,,,,,,,,,,,,,,,,,,,,,,,,,,,,,,,,,,,,,,,,,,,,,,,,,,,,,,,,,,,,
1768202445.766010,1768202445.766448,88.000000,0.000000,4337.948730,4324.358887,4320.897461,4359.615234,4338.205078,4360.512695,4339.871582,4328.333496,4324.358887,4309.615234,4476.025879,4494.871582,4378.589844,4435.128418,5225.000000,3.000000,60.000000,,,,0.000000,4.000000,4.000000,2.000000,4.000000,4.000000,2.000000,4.000000,4.000000,4.000000,4.000000,4.000000,4.000000,4.000000,4.000000,66.666664,,,,,,,,,,,,,,,,,,,,,,,,,,,,,,,,,,,,,,,,,,,,,,,,,,,,,,,,,,,,,,,,,,,,,,,,,,,,,,,,,,,,,,,,,,,,,,,,,,,,,,,,,,,,,,,,,,,,,
1768202445.773819,1768202445.774257,89.000000,0.000000,4342.051270,4332.179688,4320.641113,4361.922852,4339.871582,4367.051270,4341.410156,4339.487305,4326.666504,4316.794922,4487.820313,4503.461426,4386.410156,4439.102539,4478.000000,3.000000,60.000000,,,,0.000000,4.000000,4.000000,2.000000,4.000000,4.000000,2.000000,4.000000,4.000000,4.000000,4.000000,4.000000,4.000000,4.000000,4.000000,66.666664,,,,,,,,,,,,,,,,,,,,,,,,,,,,,,,,,,,,,,,,,,,,,,,,,,,,,,,,,,,,,,,,,,,,,,,,,,,,,,,,,,,,,,,,,,,,,,,,,,,,,,,,,,,,,,,,,,,,,
1768202445.781627,1768202445.782165,90.000000,0.000000,4347.692383,4336.922852,4323.461426,4363.589844,4341.666504,4367.692383,4340.000000,4344.230957,4327.948730,4321.794922,4491.025879,4510.256348,4389.615234,4445.641113,4241.000000,3.000000,60.000000,,,,0.000000,4.000000,4.000000,2.000000,4.000000,4.000000,2.000000,4.000000,4.000000,4.000000,4.000000,4.000000,4.000000,4.000000,4.000000,66.666664,,,,,,,,,,,,,,,,,,,,,,,,,,,,,,,,,,,,,,,,,,,,,,,,,,,,,,,,,,,,,,,,,,,,,,,,,,,,,,,,,,,,,,,,,,,,,,,,,,,,,,,,,,,,,,,,,,,,,
1768202445.789436,1768202445.789973,91.000000,0.000000,4342.436035,4332.820313,4322.179688,4359.487305,4343.846191,4363.846191,4343.846191,4338.589844,4325.512695,4316.410156,4488.717773,4506.025879,4390.128418,4442.563965,4761.000000,3.000000,60.000000,,,,0.000000,4.000000,4.000000,2.000000,4.000000,4.000000,2.000000,4.000000,4.000000,4.000000,4.000000,4.000000,4.000000,4.000000,4.000000,66.666664,,,,,,,,,,,,,,,,,,,,,,,,,,,,,,,,,,,,,,,,,,,,,,,,,,,,,,,,,,,,,,,,,,,,,,,,,,,,,,,,,,,,,,,,,,,,,,,,,,,,,,,,,,,,,,,,,,,,,
1768202445.797244,1768202445.797982,92.000000,0.000000,4338.077148,4335.128418,4317.692383,4358.077148,4343.589844,4363.846191,4341.794922,4333.589844,4324.743652,4315.000000,4489.743652,4505.000000,4396.153809,4438.974121,5225.000000,3.000000,60.000000,,,,0.000000,4.000000,4.000000,2.000000,4.000000,4.000000,2.000000,4.000000,4.000000,4.000000,4.000000,4.000000,4.000000,4.000000,4.000000,66.666664,,,,,,,,,,,,,,,,,,,,,,,,,,,,,,,,,,,,,,,,,,,,,,,,,,,,,,,,,,,,,,,,,,,,,,,,,,,,,,,,,,,,,,,,,,,,,,,,,,,,,,,,,,,,,,,,,,,,,
1768202445.805053,1768202445.805790,93.000000,0.000000,4343.333496,4342.051270,4317.436035,4362.563965,4342.436035,4365.256348,4330.256348,4336.025879,4323.717773,4316.666504,4486.794922,4506.538574,4398.846191,4442.051270,4478.000000,3.000000,60.000000,,,,0.000000,4.000000,4.000000,2.000000,4.000000,4.000000,2.000000,4.000000,4.000000,4.000000,4.000000,4.000000,4.000000,4.000000,4.000000,66.666664,,,,,,,,,,,,,,,,,,,,,,,,,,,,,,,,,,,,,,,,,,,,,,,,,,,,,,,,,,,,,,,,,,,,,,,,,,,,,,,,,,,,,,,,,,,,,,,,,,,,,,,,,,,,,,,,,,,,,
1768202445.812861,1768202445.813698,94.000000,0.000000,4346.410156,4343.589844,4320.128418,4362.307617,4343.461426,4364.871582,4329.230957,4341.410156,4325.256348,4316.538574,4484.102539,4504.615234,4396.282227,4443.205078,4241.000000,3.000000,60.000000,,,,0.000000,4.000000,4.000000,2.000000,4.000000,4.000000,2.000000,4.000000,4.000000,4.000000,4.000000,4.000000,4.000000,4.000000,4.000000,66.666664,,,,,,,,,,,,,,,,,,,,,,,,,,,,,,,,,,,,,,,,,,,,,,,,0.298951,0.503597,0.316876,0.316800,0.163358,0.204704,0.900438,0.234040,0.293709,0.120617,0.109270,0.085776,0.064352,0.014495,0.032353,0.112654,0.375727,0.156391,0.103471,0.065159,0.475827,0.307344,0.183594,0.097126,0.094232,0.037981,0.023952,0.067047,0.033874,0.051890,0.345084,0.241810,0.175229,0.122162,0.256481,2.058454,0.747159,0.322195,0.266481,0.208690,0.500671,0.158896,0.254874,0.165077,0.135295,0.229829,0.322555,0.210055,0.240566,0.147877,0.824596,0.432348,0.288110,0.405381,0.135057,0.833858,0.772201,0.298278,0.263245,0.211360,0.815303,0.853176,0.206122,0.457220,0.136531,0.939950,0.779347,0.395133,0.517176,0.194673
1768202445.820669,1768202445.821507,95.000000,0.000000,4344.230957,4341.025879,4319.230957,4357.692383,4344.230957,4363.846191,4340.641113,4345.384766,4332.692383,4318.974121,4489.230957,4505.769043,4402.179688,4443.846191,4761.000000,3.000000,60.000000,,,,0.000000,4.000000,4.000000,2.000000,4.000000,4.000000,2.000000,4.000000,4.000000,4.000000,4.000000,4.000000,4.000000,4.000000,4.000000,66.666664,,,,,,,,,,,,,,,,,,,,,,,,,,,,,,,,,,,,,,,,,,,,,,,,,,,,,,,,,,,,,,,,,,,,,,,,,,,,,,,,,,,,,,,,,,,,,,,,,,,,,,,,,,,,,,,,,,,,,
1768202445.828478,1768202445.829515,96.000000,0.000000,4345.384766,4338.974121,4318.846191,4358.461426,4340.641113,4363.205078,4337.179688,4342.307617,4331.025879,4316.153809,4490.641113,4506.410156,4405.641113,4445.000000,5225.000000,3.000000,60.000000,,,,0.000000,4.000000,4.000000,2.000000,4.000000,4.000000,2.000000,4.000000,4.000000,4.000000,4.000000,4.000000,4.000000,4.000000,4.000000,66.666664,,,,,,,,,,,,,,,,,,,,,,,,,,,,,,,,,,,,,,,,,,,,,,,,,,,,,,,,,,,,,,,,,,,,,,,,,,,,,,,,,,,,,,,,,,,,,,,,,,,,,,,,,,,,,,,,,,,,,
1768202445.836286,1768202445.837323,97.000000,0.000000,4348.589844,4339.358887,4322.563965,4361.153809,4342.563965,4361.025879,4330.384766,4340.512695,4325.000000,4310.128418,4487.307617,4502.692383,4401.282227,4443.846191,4478.000000,3.000000,60.000000,,,,0.000000,4.000000,4.000000,2.000000,4.000000,4.000000,2.000000,4.000000,4.000000,4.000000,4.000000,4.000000,4.000000,4.000000,4.000000,66.666664,,,,,,,,,,,,,,,,,,,,,,,,,,,,,,,,,,,,,,,,,,,,,,,,,,,,,,,,,,,,,,,,,,,,,,,,,,,,,,,,,,,,,,,,,,,,,,,,,,,,,,,,,,,,,,,,,,,,,
1768202445.844095,1768202445.845232,98.000000,0.000000,4351.922852,4342.563965,4323.589844,4361.410156,4350.256348,4360.641113,4342.307617,4351.282227,4334.487305,4316.282227,4490.128418,4506.538574,4406.794922,4446.410156,4241.000000,3.000000,60.000000,,,,0.000000,4.000000,4.000000,2.000000,4.000000,4.000000,2.000000,4.000000,4.000000,4.000000,4.000000,4.000000,4.000000,4.000000,4.000000,66.666664,,,,,,,,,,,,,,,,,,,,,,,,,,,,,,,,,,,,,,,,,,,,,,,,,,,,,,,,,,,,,,,,,,,,,,,,,,,,,,,,,,,,,,,,,,,,,,,,,,,,,,,,,,,,,,,,,,,,,
1768202445.851903,1768202445.853040,99.000000,0.000000,4352.563965,4342.820313,4321.025879,4360.256348,4348.205078,4362.820313,4348.717773,4359.487305,4344.487305,4327.051270,4495.256348,4513.974121,4413.205078,4450.000000,4761.000000,3.000000,60.000000,,,,0.000000,4.000000,4.000000,2.000000,4.000000,4.000000,2.000000,4.000000,4.000000,4.000000,4.000000,4.000000,4.000000,4.000000,4.000000,66.666664,,,,,,,,,,,,,,,,,,,,,,,,,,,,,,,,,,,,,,,,,,,,,,,,,,,,,,,,,,,,,,,,,,,,,,,,,,,,,,,,,,,,,,,,,,,,,,,,,,,,,,,,,,,,,,,,,,,,,
1768202445.859712,1768202445.861049,100.000000,0.000000,4346.666504,4337.948730,4318.333496,4360.128418,4341.666504,4362.820313,4339.230957,4355.512695,4339.487305,4325.256348,4494.871582,4513.205078,4405.512695,4447.051270,5225.000000,3.000000,60.000000,,,,0.000000,4.000000,4.000000,2.000000,4.000000,4.000000,2.000000,4.000000,4.000000,4.000000,4.000000,4.000000,4.000000,4.000000,4.000000,66.666664,,,,,,,,,,,,,,,,,,,,,,,,,,,,,,,,,,,,,,,,,,,,,,,,,,,,,,,,,,,,,,,,,,,,,,,,,,,,,,,,,,,,,,,,,,,,,,,,,,,,,,,,,,,,,,,,,,,,,
1768202445.867520,1768202445.868857,101.000000,0.000000,4340.256348,4336.410156,4317.692383,4361.025879,4342.436035,4361.410156,4335.128418,4353.077148,4336.282227,4319.102539,4491.538574,4512.948730,4400.897461,4444.102539,4478.000000,3.000000,60.000000,,,,0.000000,4.000000,4.000000,2.000000,4.000000,4.000000,2.000000,4.000000,4.000000,4.000000,4.000000,4.000000,4.000000,4.000000,4.000000,66.666664,,,,,,,,,,,,,,,,,,,,,,,,,,,,,,,,,,,,,,,,,,,,,,,,,,,,,,,,,,,,,,,,,,,,,,,,,,,,,,,,,,,,,,,,,,,,,,,,,,,,,,,,,,,,,,,,,,,,,
1768202445.875328,1768202445.876765,102.000000,0.000000,4347.307617,4341.666504,4321.794922,4362.307617,4344.102539,4363.077148,4342.692383,4359.230957,4341.794922,4324.102539,4496.666504,4521.282227,4409.615234,4452.051270,4241.000000,3.000000,60.000000,,,,0.000000,4.000000,4.000000,2.000000,4.000000,4.000000,2.000000,4.000000,4.000000,4.000000,4.000000,4.000000,4.000000,4.000000,4.000000,66.666664,,,,,,,,,,,,,,,,,,,,,,,,,,,,,,,,,,,,,,,,,,,,,,,,,,,,,,,,,,,,,,,,,,,,,,,,,,,,,,,,,,,,,,,,,,,,,,,,,,,,,,,,,,,,,,,,,,,,,
1768202445.883137,1768202445.884574,103.000000,0.000000,4357.051270,4343.205078,4325.128418,4360.384766,4346.410156,4364.487305,4345.769043,4366.666504,4344.615234,4332.179688,4506.794922,4526.538574,4413.205078,4461.410156,4761.000000,3.000000,60.000000,,,,0.000000,4.000000,4.000000,2.000000,4.000000,4.000000,2.000000,4.000000,4.000000,4.000000,4.000000,4.000000,4.000000,4.000000,4.000000,66.666664,,,,,,,,,,,,,,,,,,,,,,,,,,,,,,,,,,,,,,,,,,,,,,,,,,,,,,,,,,,,,,,,,,,,,,,,,,,,,,,,,,,,,,,,,,,,,,,,,,,,,,,,,,,,,,,,,,,,,
1768202445.890945,1768202445.892182,104.000000,0.000000,4353.333496,4338.717773,4323.205078,4358.589844,4348.333496,4363.333496,4340.000000,4366.025879,4343.205078,4331.410156,4509.743652,4523.846191,4413.333496,4461.153809,5225.000000,3.000000,60.000000,,,,0.000000,4.000000,4.000000,2.000000,4.000000,4.000000,2.000000,4.000000,4.000000,4.000000,4.000000,4.000000,4.000000,4.000000,4.000000,66.666664,,,,,,,,,,,,,,,,,,,,,,,,,,,,,,,,,,,,,,,,,,,,,,,,,,,,,,,,,,,,,,,,,,,,,,,,,,,,,,,,,,,,,,,,,,,,,,,,,,,,,,,,,,,,,,,,,,,,,
1768202445.898754,1768202445.899991,105.000000,0.000000,4354.358887,4339.230957,4321.922852,4361.666504,4345.512695,4361.794922,4333.717773,4358.717773,4340.897461,4326.538574,4506.153809,4521.794922,4416.282227,4458.205078,4478.000000,3.000000,60.000000,,,,0.000000,4.000000,4.000000,2.000000,4.000000,4.000000,2.000000,4.000000,4.000000,4.000000,4.000000,4.000000,4.000000,4.000000,4.000000,66.666664,,,,,,,,,,,,,,,,,,,,,,,,,,,,,,,,,,,,,,,,,,,,,,,,,,,,,,,,,,,,,,,,,,,,,,,,,,,,,,,,,,,,,,,,,,,,,,,,,,,,,,,,,,,,,,,,,,,,,
1768202445.906562,1768202445.907699,106.000000,0.000000,4358.333496,4342.820313,4323.205078,4362.051270,4343.846191,4362.948730,4334.871582,4356.410156,4341.922852,4325.769043,4500.897461,4522.820313,4408.461426,4457.820313,4241.000000,3.000000,60.000000,,,,0.000000,4.000000,4.000000,2.000000,4.000000,4.000000,2.000000,4.000000,4.000000,4.000000,4.000000,4.000000,4.000000,4.000000,4.000000,66.666664,,,,,,,,,,,,,,,,,,,,,,,,,,,,,,,,,,,,,,,,,,,,,,,,,,,,,,,,,,,,,,,,,,,,,,,,,,,,,,,,,,,,,,,,,,,,,,,,,,,,,,,,,,,,,,,,,,,,,
1768202445.914370,1768202445.915508,107.000000,0.000000,4349.615234,4339.743652,4321.538574,4356.410156,4344.230957,4362.820313,4340.000000,4364.615234,4343.461426,4325.256348,4500.000000,4521.410156,4401.025879,4455.384766,4761.000000,3.000000,60.000000,,,,0.000000,4.000000,4.000000,2.000000,4.000000,4.000000,2.000000,4.000000,4.000000,4.000000,4.000000,4.000000,4.000000,4.000000,4.000000,66.666664,,,,,,,,,,,,,,,,,,,,,,,,,,,,,,,,,,,,,,,,,,,,,,,,,,,,,,,,,,,,,,,,,,,,,,,,,,,,,,,,,,,,,,,,,,,,,,,,,,,,,,,,,,,,,,,,,,,,,
1768202445.922179,1768202445.923116,108.000000,0.000000,4349.487305,4340.000000,4319.102539,4354.871582,4341.153809,4358.974121,4342.563965,4375.384766,4341.666504,4323.974121,4504.743652,4525.000000,4410.769043,4459.743652,5225.000000,3.000000,60.000000,,,,0.000000,4.000000,4.000000,2.000000,4.000000,4.000000,2.000000,4.000000,4.000000,4.000000,4.000000,4.000000,4.000000,4.000000,4.000000,66.666664,,,,,,,,,,,,,,,,,,,,,,,,,,,,,,,,,,,,,,,,,,,,,,,,,,,,,,,,,,,,,,,,,,,,,,,,,,,,,,,,,,,,,,,,,,,,,,,,,,,,,,,,,,,,,,,,,,,,,
1768202445.929987,1768202445.930925,109.000000,0.000000,4364.358887,4348.846191,4319.102539,4361.538574,4340.769043,4359.487305,4343.846191,4379.487305,4342.307617,4327.820313,4509.871582,4533.077148,4420.897461,4469.743652,4478.000000,3.000000,60.000000,,,,0.000000,4.000000,4.000000,2.000000,4.000000,4.000000,2.000000,4.000000,4.000000,4.000000,4.000000,4.000000,4.000000,4.000000,4.000000,66.666664,,,,,,,,,,,,,,,,,,,,,,,,,,,,,,,,,,,,,,,,,,,,,,,,,,,,,,,,,,,,,,,,,,,,,,,,,,,,,,,,,,,,,,,,,,,,,,,,,,,,,,,,,,,,,,,,,,,,,
1768202445.937796,1768202445.938633,110.000000,0.000000,4365.128418,4348.717773,4319.743652,4366.025879,4342.948730,4362.051270,4342.820313,4374.615234,4344.102539,4329.358887,4508.846191,4529.615234,4417.563965,4466.410156,4241.000000,3.000000,60.000000,,,,0.000000,4.000000,4.000000,2.000000,4.000000,4.000000,2.000000,4.000000,4.000000,4.000000,4.000000,4.000000,4.000000,4.000000,4.000000,66.666664,,,,,,,,,,,,,,,,,,,,,,,,,,,,,,,,,,,,,,,,,,,,,,,,0.366885,0.485571,0.317924,0.331827,0.153064,0.229404,0.779278,0.222249,0.294881,0.128391,0.105585,0.093810,0.069498,0.015967,0.031355,0.131041,0.349475,0.184412,0.101215,0.069485,0.456625,0.234606,0.196102,0.075824,0.094784,0.034063,0.025039,0.059068,0.032096,0.046083,0.388683,0.237824,0.175232,0.111171,0.250917,2.415856,0.899993,0.392108,0.237824,0.207451,0.460250,0.191780,0.274491,0.168311,0.150748,0.234910,0.390897,0.223223,0.248296,0.152326,0.741924,0.516507,0.376807,0.421582,0.141034,0.998143,0.706875,0.341011,0.249590,0.196534,0.672716,0.844435,0.221741,0.503089,0.159607,0.884057,0.794676,0.419501,0.515701,0.191978
1768202445.945604,1768202445.946442,111.000000,0.000000,4354.102539,4340.512695,4321.282227,4361.282227,4340.384766,4360.000000,4341.922852,4374.358887,4344.230957,4327.563965,4508.205078,4525.641113,4415.128418,4458.333496,4761.000000,3.000000,60.000000,,,,0.000000,4.000000,4.000000,2.000000,4.000000,4.000000,2.000000,4.000000,4.000000,4.000000,4.000000,4.000000,4.000000,4.000000,4.000000,66.666664,,,,,,,,,,,,,,,,,,,,,,,,,,,,,,,,,,,,,,,,,,,,,,,,,,,,,,,,,,,,,,,,,,,,,,,,,,,,,,,,,,,,,,,,,,,,,,,,,,,,,,,,,,,,,,,,,,,,,
1768202445.953413,1768202445.954051,112.000000,0.000000,4353.205078,4339.615234,4321.538574,4356.282227,4339.358887,4358.846191,4341.794922,4382.820313,4342.563965,4327.692383,4509.230957,4533.461426,4415.000000,4462.179688,5225.000000,3.000000,60.000000,,,,0.000000,4.000000,4.000000,2.000000,4.000000,4.000000,2.000000,4.000000,4.000000,4.000000,4.000000,4.000000,4.000000,4.000000,4.000000,66.666664,,,,,,,,,,,,,,,,,,,,,,,,,,,,,,,,,,,,,,,,,,,,,,,,,,,,,,,,,,,,,,,,,,,,,,,,,,,,,,,,,,,,,,,,,,,,,,,,,,,,,,,,,,,,,,,,,,,,,
1768202445.961221,1768202445.961859,113.000000,0.000000,4352.307617,4342.692383,4320.000000,4356.153809,4341.282227,4360.512695,4340.128418,4383.589844,4341.538574,4326.666504,4507.563965,4531.538574,4410.384766,4464.615234,4478.000000,3.000000,60.000000,,,,0.000000,4.000000,4.000000,2.000000,4.000000,4.000000,2.000000,4.000000,4.000000,4.000000,4.000000,4.000000,4.000000,4.000000,4.000000,66.666664,,,,,,,,,,,,,,,,,,,,,,,,,,,,,,,,,,,,,,,,,,,,,,,,,,,,,,,,,,,,,,,,,,,,,,,,,,,,,,,,,,,,,,,,,,,,,,,,,,,,,,,,,,,,,,,,,,,,,
1768202445.969030,1768202445.969767,114.000000,0.000000,4347.436035,4341.538574,4319.615234,4355.256348,4339.230957,4362.179688,4336.666504,4379.230957,4343.333496,4326.922852,4506.410156,4521.153809,4409.615234,4457.948730,4241.000000,3.000000,60.000000,,,,0.000000,4.000000,4.000000,2.000000,4.000000,4.000000,2.000000,4.000000,4.000000,4.000000,4.000000,4.000000,4.000000,4.000000,4.000000,66.666664,,,,,,,,,,,,,,,,,,,,,,,,,,,,,,,,,,,,,,,,,,,,,,,,,,,,,,,,,,,,,,,,,,,,,,,,,,,,,,,,,,,,,,,,,,,,,,,,,,,,,,,,,,,,,,,,,,,,,
1768202445.976838,1768202445.977576,115.000000,0.000000,4347.820313,4341.666504,4319.230957,4355.769043,4339.102539,4360.256348,4334.743652,4380.000000,4344.230957,4329.230957,4506.794922,4521.666504,4410.897461,4455.512695,4761.000000,3.000000,60.000000,,,,0.000000,4.000000,4.000000,2.000000,4.000000,4.000000,2.000000,4.000000,4.000000,4.000000,4.000000,4.000000,4.000000,4.000000,4.000000,66.666664,,,,,,,,,,,,,,,,,,,,,,,,,,,,,,,,,,,,,,,,,,,,,,,,,,,,,,,,,,,,,,,,,,,,,,,,,,,,,,,,,,,,,,,,,,,,,,,,,,,,,,,,,,,,,,,,,,,,,
1768202445.984646,1768202445.985584,116.000000,0.000000,4352.051270,4342.563965,4321.025879,4359.871582,4337.563965,4357.179688,4332.436035,4380.512695,4341.794922,4328.333496,4508.205078,4518.589844,4405.641113,4460.128418,5225.000000,3.000000,60.000000,,,,0.000000,4.000000,4.000000,2.000000,4.000000,4.000000,2.000000,4.000000,4.000000,4.000000,4.000000,4.000000,4.000000,4.000000,4.000000,66.666664,,,,,,,,,,,,,,,,,,,,,,,,,,,,,,,,,,,,,,,,,,,,,,,,,,,,,,,,,,,,,,,,,,,,,,,,,,,,,,,,,,,,,,,,,,,,,,,,,,,,,,,,,,,,,,,,,,,,,
1768202445.992455,1768202445.993393,117.000000,0.000000,4353.333496,4338.077148,4321.153809,4356.922852,4331.282227,4357.179688,4325.512695,4381.410156,4339.230957,4323.077148,4503.717773,4505.897461,4398.717773,4460.897461,4478.000000,3.000000,60.000000,,,,0.000000,4.000000,4.000000,2.000000,4.000000,4.000000,2.000000,4.000000,4.000000,4.000000,4.000000,4.000000,4.000000,4.000000,4.000000,66.666664,,,,,,,,,,,,,,,,,,,,,,,,,,,,,,,,,,,,,,,,,,,,,,,,,,,,,,,,,,,,,,,,,,,,,,,,,,,,,,,,,,,,,,,,,,,,,,,,,,,,,,,,,,,,,,,,,,,,,
1768202446.000263,1768202446.001101,118.000000,0.000000,4349.487305,4337.307617,4316.538574,4348.717773,4329.615234,4359.358887,4326.282227,4383.077148,4339.743652,4323.077148,4496.282227,4504.358887,4398.205078,4454.743652,4241.000000,3.000000,60.000000,,,,0.000000,4.000000,4.000000,2.000000,4.000000,4.000000,2.000000,4.000000,4.000000,4.000000,4.000000,4.000000,4.000000,4.000000,4.000000,66.666664,,,,,,,,,,,,,,,,,,,,,,,,,,,,,,,,,,,,,,,,,,,,,,,,,,,,,,,,,,,,,,,,,,,,,,,,,,,,,,,,,,,,,,,,,,,,,,,,,,,,,,,,,,,,,,,,,,,,,
1768202446.008072,1768202446.008910,119.000000,0.000000,4346.794922,4341.153809,4316.794922,4350.897461,4336.153809,4359.487305,4337.307617,4379.615234,4337.179688,4324.743652,4494.230957,4508.846191,4400.897461,4451.025879,4761.000000,3.000000,60.000000,,,,0.000000,4.000000,4.000000,2.000000,4.000000,4.000000,2.000000,4.000000,4.000000,4.000000,4.000000,4.000000,4.000000,4.000000,4.000000,66.666664,,,,,,,,,,,,,,,,,,,,,,,,,,,,,,,,,,,,,,,,,,,,,,,,,,,,,,,,,,,,,,,,,,,,,,,,,,,,,,,,,,,,,,,,,,,,,,,,,,,,,,,,,,,,,,,,,,,,,
1768202446.015880,1768202446.016518,120.000000,0.000000,4352.051270,4344.743652,4322.563965,4359.487305,4340.000000,4359.743652,4341.922852,4381.153809,4333.589844,4321.410156,4496.410156,4506.922852,4401.282227,4455.512695,5225.000000,3.000000,60.000000,,,,0.000000,4.000000,4.000000,2.000000,4.000000,4.000000,2.000000,4.000000,4.000000,4.000000,4.000000,4.000000,4.000000,4.000000,4.000000,66.666664,,,,,,,,,,,,,,,,,,,,,,,,,,,,,,,,,,,,,,,,,,,,,,,,,,,,,,,,,,,,,,,,,,,,,,,,,,,,,,,,,,,,,,,,,,,,,,,,,,,,,,,,,,,,,,,,,,,,,
1768202446.023688,1768202446.024327,121.000000,0.000000,4357.436035,4349.743652,4322.436035,4359.615234,4339.743652,4362.948730,4340.000000,4392.436035,4339.358887,4321.922852,4500.000000,4508.461426,4402.948730,4460.384766,4478.000000,3.000000,60.000000,,,,0.000000,4.000000,4.000000,2.000000,4.000000,4.000000,2.000000,4.000000,4.000000,4.000000,4.000000,4.000000,4.000000,4.000000,4.000000,66.666664,,,,,,,,,,,,,,,,,,,,,,,,,,,,,,,,,,,,,,,,,,,,,,,,,,,,,,,,,,,,,,,,,,,,,,,,,,,,,,,,,,,,,,,,,,,,,,,,,,,,,,,,,,,,,,,,,,,,,
1768202446.031497,1768202446.032235,122.000000,0.000000,4354.743652,4352.948730,4318.974121,4358.205078,4342.948730,4363.205078,4342.179688,4398.974121,4346.922852,4326.538574,4505.000000,4516.153809,4406.666504,4460.897461,4241.000000,3.000000,60.000000,,,,0.000000,4.000000,4.000000,2.000000,4.000000,4.000000,2.000000,4.000000,4.000000,4.000000,4.000000,4.000000,4.000000,4.000000,4.000000,66.666664,,,,,,,,,,,,,,,,,,,,,,,,,,,,,,,,,,,,,,,,,,,,,,,,,,,,,,,,,,,,,,,,,,,,,,,,,,,,,,,,,,,,,,,,,,,,,,,,,,,,,,,,,,,,,,,,,,,,,
1768202446.039305,1768202446.040043,123.000000,0.000000,4353.333496,4346.794922,4319.102539,4361.025879,4343.077148,4361.410156,4346.922852,4398.333496,4345.641113,4327.948730,4508.717773,4517.820313,4404.358887,4460.641113,4761.000000,3.000000,60.000000,,,,0.000000,4.000000,4.000000,2.000000,4.000000,4.000000,2.000000,4.000000,4.000000,4.000000,4.000000,4.000000,4.000000,4.000000,4.000000,66.666664,,,,,,,,,,,,,,,,,,,,,,,,,,,,,,,,,,,,,,,,,,,,,,,,,,,,,,,,,,,,,,,,,,,,,,,,,,,,,,,,,,,,,,,,,,,,,,,,,,,,,,,,,,,,,,,,,,,,,
1768202446.047114,1768202446.048052,124.000000,0.000000,4358.333496,4339.743652,4320.128418,4360.897461,4338.846191,4361.666504,4341.538574,4397.692383,4340.897461,4323.077148,4502.948730,4515.897461,4398.077148,4460.384766,5225.000000,3.000000,60.000000,,,,0.000000,4.000000,4.000000,2.000000,4.000000,4.000000,2.000000,4.000000,4.000000,4.000000,4.000000,4.000000,4.000000,4.000000,4.000000,66.666664,,,,,,,,,,,,,,,,,,,,,,,,,,,,,,,,,,,,,,,,,,,,,,,,,,,,,,,,,,,,,,,,,,,,,,,,,,,,,,,,,,,,,,,,,,,,,,,,,,,,,,,,,,,,,,,,,,,,,
1768202446.054922,1768202446.055860,125.000000,0.000000,4358.077148,4343.205078,4320.897461,4356.025879,4339.487305,4360.000000,4332.051270,4397.948730,4339.487305,4316.153809,4493.461426,4516.153809,4397.820313,4461.153809,4478.000000,3.000000,60.000000,,,,0.000000,4.000000,4.000000,2.000000,4.000000,4.000000,2.000000,4.000000,4.000000,4.000000,4.000000,4.000000,4.000000,4.000000,4.000000,66.666664,,,,,,,,,,,,,,,,,,,,,,,,,,,,,,,,,,,,,,,,,,,,,,,,,,,,,,,,,,,,,,,,,,,,,,,,,,,,,,,,,,,,,,,,,,,,,,,,,,,,,,,,,,,,,,,,,,,,,
1768202446.062731,1768202446.063768,126.000000,0.000000,4348.333496,4342.179688,4318.333496,4352.563965,4336.410156,4356.282227,4330.512695,4395.384766,4333.461426,4310.128418,4488.846191,4511.153809,4395.128418,4456.153809,4241.000000,3.000000,60.000000,,,,0.000000,4.000000,4.000000,2.000000,4.000000,4.000000,2.000000,4.000000,4.000000,4.000000,4.000000,4.000000,4.000000,4.000000,4.000000,66.666664,,,,,,,,,,,,,,,,,,,,,,,,,,,,,,,,,,,,,,,,,,,,,,,,0.488071,0.457365,0.321897,0.333394,0.149146,0.261144,0.605501,0.217981,0.277268,0.139106,0.104785,0.097007,0.069913,0.019796,0.031548,0.150945,0.301219,0.197906,0.098696,0.075004,0.409551,0.161058,0.195826,0.062828,0.089765,0.031766,0.030380,0.054641,0.031698,0.040389,0.397734,0.250874,0.190285,0.123295,0.238006,2.393361,0.971883,0.458934,0.215128,0.203908,0.471438,0.234289,0.288070,0.178021,0.160250,0.292179,0.460911,0.232616,0.251119,0.147394,0.734946,0.635263,0.472503,0.435840,0.144342,1.310441,0.621172,0.407096,0.251290,0.182714,0.601830,0.821112,0.268933,0.528604,0.186394,0.943830,0.818375,0.458001,0.492029,0.193618
1768202446.070539,1768202446.071577,127.000000,0.000000,4343.333496,4333.077148,4315.128418,4351.922852,4328.205078,4357.179688,4336.025879,4394.871582,4329.102539,4308.461426,4491.153809,4505.641113,4389.743652,4446.153809,60.000000,3.000000,60.000000,,,,0.000000,4.000000,4.000000,2.000000,4.000000,4.000000,2.000000,4.000000,4.000000,4.000000,4.000000,4.000000,4.000000,4.000000,4.000000,66.666664,,,,,,,,,,,,,,,,,,,,,,,,,,,,,,,,,,,,,,,,,,,,,,,,,,,,,,,,,,,,,,,,,,,,,,,,,,,,,,,,,,,,,,,,,,,,,,,,,,,,,,,,,,,,,,,,,,,,,
1768202446.078348,1768202446.079585,0.000000,0.000000,4346.666504,4331.794922,4318.974121,4351.922852,4328.077148,4362.948730,4340.000000,4399.487305,4336.153809,4312.179688,4493.717773,4509.230957,4392.307617,4448.461426,898.000000,3.000000,60.000000,,,,0.000000,4.000000,4.000000,2.000000,4.000000,4.000000,2.000000,4.000000,4.000000,4.000000,4.000000,4.000000,4.000000,4.000000,4.000000,66.666664,,,,,,,,,,,,,,,,,,,,,,,,,,,,,,,,,,,,,,,,,,,,,,,,,,,,,,,,,,,,,,,,,,,,,,,,,,,,,,,,,,,,,,,,,,,,,,,,,,,,,,,,,,,,,,,,,,,,,
1768202446.086156,1768202446.087394,1.000000,0.000000,4350.897461,4337.307617,4322.820313,4355.769043,4335.641113,4364.871582,4342.692383,4399.487305,4340.128418,4314.230957,4491.153809,4515.641113,4396.282227,4457.436035,2588.000000,3.000000,60.000000,,,,0.000000,4.000000,4.000000,2.000000,4.000000,4.000000,2.000000,4.000000,4.000000,4.000000,4.000000,4.000000,4.000000,4.000000,4.000000,66.666664,,,,,,,,,,,,,,,,,,,,,,,,,,,,,,,,,,,,,,,,,,,,,,,,,,,,,,,,,,,,,,,,,,,,,,,,,,,,,,,,,,,,,,,,,,,,,,,,,,,,,,,,,,,,,,,,,,,,,
1768202446.093964,1768202446.095102,2.000000,0.000000,4354.743652,4336.794922,4321.410156,4361.410156,4337.820313,4362.948730,4352.051270,4400.256348,4339.230957,4317.307617,4496.666504,4520.256348,4398.333496,4459.102539,3830.000000,3.000000,60.000000,,,,0.000000,4.000000,4.000000,2.000000,4.000000,4.000000,2.000000,4.000000,4.000000,4.000000,4.000000,4.000000,4.000000,4.000000,4.000000,66.666664,,,,,,,,,,,,,,,,,,,,,,,,,,,,,,,,,,,,,,,,,,,,,,,,,,,,,,,,,,,,,,,,,,,,,,,,,,,,,,,,,,,,,,,,,,,,,,,,,,,,,,,,,,,,,,,,,,,,,
1768202446.101773,1768202446.102911,3.000000,0.000000,4352.563965,4332.307617,4319.487305,4361.153809,4336.410156,4363.077148,4355.769043,4410.384766,4341.922852,4320.897461,4507.563965,4525.000000,4401.153809,4457.692383,3650.000000,3.000000,60.000000,,,,0.000000,4.000000,4.000000,2.000000,4.000000,4.000000,2.000000,4.000000,4.000000,4.000000,4.000000,4.000000,4.000000,4.000000,4.000000,66.666664,,,,,,,,,,,,,,,,,,,,,,,,,,,,,,,,,,,,,,,,,,,,,,,,,,,,,,,,,,,,,,,,,,,,,,,,,,,,,,,,,,,,,,,,,,,,,,,,,,,,,,,,,,,,,,,,,,,,,
1768202446.109581,1768202446.110519,4.000000,0.000000,4345.641113,4334.743652,4319.358887,4356.025879,4338.077148,4362.307617,4350.128418,4411.153809,4341.666504,4320.128418,4508.461426,4522.179688,4399.102539,4456.922852,3745.000000,3.000000,60.000000,,,,0.000000,4.000000,4.000000,2.000000,4.000000,4.000000,2.000000,4.000000,4.000000,4.000000,4.000000,4.000000,4.000000,4.000000,4.000000,66.666664,,,,,,,,,,,,,,,,,,,,,,,,,,,,,,,,,,,,,,,,,,,,,,,,,,,,,,,,,,,,,,,,,,,,,,,,,,,,,,,,,,,,,,,,,,,,,,,,,,,,,,,,,,,,,,,,,,,,,
1768202446.117390,1768202446.118328,5.000000,0.000000,4345.769043,4338.461426,4320.384766,4357.179688,4341.538574,4361.282227,4350.512695,4398.589844,4336.025879,4321.794922,4503.461426,4520.000000,4396.666504,4457.051270,933.000000,3.000000,60.000000,,,,0.000000,4.000000,4.000000,2.000000,4.000000,4.000000,2.000000,4.000000,4.000000,4.000000,4.000000,4.000000,4.000000,4.000000,4.000000,66.666664,,,,,,,,,,,,,,,,,,,,,,,,,,,,,,,,,,,,,,,,,,,,,,,,,,,,,,,,,,,,,,,,,,,,,,,,,,,,,,,,,,,,,,,,,,,,,,,,,,,,,,,,,,,,,,,,,,,,,
1768202446.125198,1768202446.126036,6.000000,0.000000,4352.692383,4333.717773,4320.769043,4360.128418,4341.538574,4364.358887,4350.512695,4396.538574,4337.948730,4325.256348,4505.769043,4523.461426,4400.512695,4458.974121,3972.000000,3.000000,60.000000,,,,0.000000,4.000000,4.000000,2.000000,4.000000,4.000000,2.000000,4.000000,4.000000,4.000000,4.000000,4.000000,4.000000,4.000000,4.000000,66.666664,,,,,,,,,,,,,,,,,,,,,,,,,,,,,,,,,,,,,,,,,,,,,,,,,,,,,,,,,,,,,,,,,,,,,,,,,,,,,,,,,,,,,,,,,,,,,,,,,,,,,,,,,,,,,,,,,,,,,
1768202446.133006,1768202446.133845,7.000000,0.000000,4354.230957,4330.384766,4320.641113,4357.692383,4336.794922,4364.358887,4343.205078,4405.128418,4342.563965,4321.282227,4508.205078,4525.000000,4400.512695,4459.871582,4108.000000,3.000000,60.000000,,,,0.000000,4.000000,4.000000,2.000000,4.000000,4.000000,2.000000,4.000000,4.000000,4.000000,4.000000,4.000000,4.000000,4.000000,4.000000,66.666664,,,,,,,,,,,,,,,,,,,,,,,,,,,,,,,,,,,,,,,,,,,,,,,,,,,,,,,,,,,,,,,,,,,,,,,,,,,,,,,,,,,,,,,,,,,,,,,,,,,,,,,,,,,,,,,,,,,,,
1768202446.140815,1768202446.141453,8.000000,0.000000,4350.769043,4336.282227,4321.153809,4357.948730,4336.794922,4360.384766,4342.051270,4409.871582,4341.410156,4319.871582,4505.769043,4521.538574,4400.769043,4460.256348,4091.000000,3.000000,60.000000,,,,0.000000,4.000000,4.000000,2.000000,4.000000,4.000000,2.000000,4.000000,4.000000,4.000000,4.000000,4.000000,4.000000,4.000000,4.000000,66.666664,,,,,,,,,,,,,,,,,,,,,,,,,,,,,,,,,,,,,,,,,,,,,,,,,,,,,,,,,,,,,,,,,,,,,,,,,,,,,,,,,,,,,,,,,,,,,,,,,,,,,,,,,,,,,,,,,,,,,
1768202446.148623,1768202446.149262,9.000000,0.000000,4344.743652,4340.641113,4318.333496,4357.563965,4336.538574,4361.153809,4348.205078,4411.666504,4342.563965,4327.436035,4507.563965,4513.846191,4405.512695,4459.230957,4109.000000,3.000000,60.000000,,,,0.000000,4.000000,4.000000,2.000000,4.000000,4.000000,2.000000,4.000000,4.000000,4.000000,4.000000,4.000000,4.000000,4.000000,4.000000,66.666664,,,,,,,,,,,,,,,,,,,,,,,,,,,,,,,,,,,,,,,,,,,,,,,,,,,,,,,,,,,,,,,,,,,,,,,,,,,,,,,,,,,,,,,,,,,,,,,,,,,,,,,,,,,,,,,,,,,,,
1768202446.156432,1768202446.156970,10.000000,0.000000,4339.487305,4333.717773,4314.102539,4351.538574,4330.641113,4364.230957,4343.717773,4411.153809,4342.307617,4322.563965,4504.358887,4507.436035,4398.589844,4450.256348,4236.000000,3.000000,60.000000,,,,0.000000,4.000000,4.000000,2.000000,4.000000,4.000000,2.000000,4.000000,4.000000,4.000000,4.000000,4.000000,4.000000,4.000000,4.000000,66.666664,,,,,,,,,,,,,,,,,,,,,,,,,,,,,,,,,,,,,,,,,,,,,,,,,,,,,,,,,,,,,,,,,,,,,,,,,,,,,,,,,,,,,,,,,,,,,,,,,,,,,,,,,,,,,,,,,,,,,
1768202446.164240,1768202446.164779,11.000000,0.000000,4341.410156,4328.974121,4316.153809,4349.615234,4327.051270,4362.820313,4334.615234,4405.641113,4335.897461,4309.615234,4494.102539,4508.205078,4387.051270,4443.974121,4761.000000,3.000000,60.000000,,,,0.000000,4.000000,4.000000,2.000000,4.000000,4.000000,2.000000,4.000000,4.000000,4.000000,4.000000,4.000000,4.000000,4.000000,4.000000,66.666664,,,,,,,,,,,,,,,,,,,,,,,,,,,,,,,,,,,,,,,,,,,,,,,,,,,,,,,,,,,,,,,,,,,,,,,,,,,,,,,,,,,,,,,,,,,,,,,,,,,,,,,,,,,,,,,,,,,,,
1768202446.172049,1768202446.172787,12.000000,0.000000,4340.769043,4330.512695,4318.717773,4353.333496,4326.153809,4359.487305,4332.948730,4404.615234,4332.563965,4309.102539,4489.487305,4509.871582,4388.205078,4445.769043,5220.000000,3.000000,60.000000,,,,0.000000,4.000000,4.000000,2.000000,4.000000,4.000000,2.000000,4.000000,4.000000,4.000000,4.000000,4.000000,4.000000,4.000000,4.000000,66.666664,,,,,,,,,,,,,,,,,,,,,,,,,,,,,,,,,,,,,,,,,,,,,,,,,,,,,,,,,,,,,,,,,,,,,,,,,,,,,,,,,,,,,,,,,,,,,,,,,,,,,,,,,,,,,,,,,,,,,
1768202446.179857,1768202446.180595,13.000000,0.000000,4336.410156,4329.743652,4314.102539,4353.461426,4328.974121,4358.461426,4334.615234,4410.000000,4334.230957,4315.000000,4493.333496,4506.922852,4393.846191,4445.256348,4475.000000,3.000000,60.000000,,,,0.000000,4.000000,4.000000,2.000000,4.000000,4.000000,2.000000,4.000000,4.000000,4.000000,4.000000,4.000000,4.000000,4.000000,4.000000,66.666664,,,,,,,,,,,,,,,,,,,,,,,,,,,,,,,,,,,,,,,,,,,,,,,,,,,,,,,,,,,,,,,,,,,,,,,,,,,,,,,,,,,,,,,,,,,,,,,,,,,,,,,,,,,,,,,,,,,,,
1768202446.187666,1768202446.188504,14.000000,0.000000,4340.000000,4328.589844,4315.641113,4354.743652,4333.717773,4361.666504,4340.897461,4413.205078,4335.000000,4319.743652,4499.487305,4511.153809,4395.512695,4445.000000,4236.000000,3.000000,60.000000,,,,0.000000,4.000000,4.000000,2.000000,4.000000,4.000000,2.000000,4.000000,4.000000,4.000000,4.000000,4.000000,4.000000,4.000000,4.000000,66.666664,1.000000,8.333333,4.000000,4.000000,0.000000,4.000000,3.000000,0.000000,4.000000,1.000000,4.000000,4.000000,4.000000,4.000000,4.000000,4.000000,,,,,,,,,,,,,,,,,,,,,,,,,,,,,,,,0.656516,0.430720,0.328873,0.325089,0.156409,0.299793,0.431636,0.226705,0.243684,0.149413,0.104267,0.094643,0.066771,0.025516,0.032614,0.162440,0.241951,0.192646,0.097352,0.080781,0.351426,0.102572,0.182203,0.058771,0.080480,0.034096,0.039714,0.051690,0.033806,0.036304,0.385144,0.285180,0.213726,0.160390,0.218495,2.249882,0.943656,0.520780,0.201251,0.196768,0.547748,0.278484,0.296838,0.190041,0.160350,0.408206,0.523889,0.241153,0.245119,0.135881,0.871575,0.768986,0.563365,0.451716,0.145911,1.788905,0.533401,0.494456,0.261183,0.174796,0.672309,0.791471,0.340136,0.534984,0.213109,1.143890,0.836936,0.496049,0.450372,0.204754
1768202446.195474,1768202446.196312,15.000000,0.000000,4340.128418,4327.948730,4318.974121,4355.256348,4331.410156,4362.692383,4344.743652,4412.307617,4338.717773,4322.307617,4505.897461,4520.641113,4397.692383,4447.436035,4761.000000,3.000000,60.000000,,,,0.000000,4.000000,4.000000,2.000000,4.000000,4.000000,2.000000,4.000000,4.000000,4.000000,4.000000,4.000000,4.000000,4.000000,4.000000,66.666664,,,,,,,,,,,,,,,,,,,,,,,,,,,,,,,,,,,,,,,,,,,,,,,,,,,,,,,,,,,,,,,,,,,,,,,,,,,,,,,,,,,,,,,,,,,,,,,,,,,,,,,,,,,,,,,,,,,,,
1768202446.203282,1768202446.203921,16.000000,0.000000,4331.922852,4323.974121,4313.846191,4350.512695,4325.000000,4357.820313,4338.974121,4411.538574,4340.384766,4320.000000,4506.666504,4523.205078,4397.307617,4446.538574,0.000000,3.000000,60.000000,,,,0.000000,4.000000,4.000000,2.000000,4.000000,4.000000,2.000000,4.000000,4.000000,4.000000,4.000000,4.000000,4.000000,4.000000,4.000000,66.666664,,,,,,,,,,,,,,,,,,,,,,,,,,,,,,,,,,,,,,,,,,,,,,,,,,,,,,,,,,,,,,,,,,,,,,,,,,,,,,,,,,,,,,,,,,,,,,,,,,,,,,,,,,,,,,,,,,,,,
1768202446.211091,1768202446.211729,17.000000,0.000000,4331.922852,4321.922852,4312.436035,4351.538574,4325.256348,4358.333496,4336.666504,4411.666504,4333.589844,4315.897461,4499.102539,4521.922852,4391.538574,4443.589844,0.000000,3.000000,60.000000,,,,0.000000,4.000000,4.000000,2.000000,4.000000,4.000000,2.000000,4.000000,4.000000,4.000000,4.000000,4.000000,4.000000,4.000000,4.000000,66.666664,,,,,,,,,,,,,,,,,,,,,,,,,,,,,,,,,,,,,,,,,,,,,,,,,,,,,,,,,,,,,,,,,,,,,,,,,,,,,,,,,,,,,,,,,,,,,,,,,,,,,,,,,,,,,,,,,,,,,
1768202446.218899,1768202446.219438,18.000000,0.000000,4338.205078,4323.461426,4314.487305,4353.846191,4324.230957,4364.358887,4339.487305,4411.410156,4331.794922,4315.256348,4498.077148,4521.410156,4389.871582,4442.692383,0.000000,3.000000,60.000000,,,,0.000000,4.000000,4.000000,2.000000,4.000000,4.000000,2.000000,4.000000,4.000000,4.000000,4.000000,4.000000,4.000000,4.000000,4.000000,66.666664,,,,,,,,,,,,,,,,,,,,,,,,,,,,,,,,,,,,,,,,,,,,,,,,,,,,,,,,,,,,,,,,,,,,,,,,,,,,,,,,,,,,,,,,,,,,,,,,,,,,,,,,,,,,,,,,,,,,,
1768202446.226708,1768202446.227246,19.000000,0.000000,4335.000000,4322.307617,4313.205078,4350.897461,4320.897461,4363.846191,4337.436035,4411.794922,4335.384766,4313.974121,4504.230957,4524.230957,4393.974121,4449.358887,0.000000,3.000000,60.000000,,,,0.000000,4.000000,4.000000,2.000000,4.000000,4.000000,2.000000,4.000000,4.000000,4.000000,4.000000,4.000000,4.000000,4.000000,4.000000,66.666664,,,,,,,,,,,,,,,,,,,,,,,,,,,,,,,,,,,,,,,,,,,,,,,,,,,,,,,,,,,,,,,,,,,,,,,,,,,,,,,,,,,,,,,,,,,,,,,,,,,,,,,,,,,,,,,,,,,,,
1768202446.234516,1768202446.235255,20.000000,0.000000,4335.384766,4322.436035,4316.282227,4352.307617,4324.743652,4361.666504,4342.692383,4413.333496,4336.025879,4315.897461,4506.282227,4529.102539,4395.641113,4458.333496,0.000000,3.000000,60.000000,,,,0.000000,4.000000,4.000000,2.000000,4.000000,4.000000,2.000000,4.000000,4.000000,4.000000,4.000000,4.000000,4.000000,4.000000,4.000000,66.666664,,,,,,,,,,,,,,,,,,,,,,,,,,,,,,,,,,,,,,,,,,,,,,,,,,,,,,,,,,,,,,,,,,,,,,,,,,,,,,,,,,,,,,,,,,,,,,,,,,,,,,,,,,,,,,,,,,,,,
1768202446.242324,1768202446.243063,21.000000,0.000000,4343.461426,4327.563965,4319.743652,4356.666504,4327.948730,4362.692383,4352.307617,4417.692383,4336.794922,4323.846191,4506.922852,4531.410156,4401.025879,4461.666504,0.000000,3.000000,60.000000,,,,0.000000,4.000000,4.000000,2.000000,4.000000,4.000000,2.000000,4.000000,4.000000,4.000000,4.000000,4.000000,4.000000,4.000000,4.000000,66.666664,,,,,,,,,,,,,,,,,,,,,,,,,,,,,,,,,,,,,,,,,,,,,,,,,,,,,,,,,,,,,,,,,,,,,,,,,,,,,,,,,,,,,,,,,,,,,,,,,,,,,,,,,,,,,,,,,,,,,
1768202446.250133,1768202446.250971,22.000000,0.000000,4343.974121,4326.794922,4315.000000,4353.333496,4327.563965,4361.794922,4344.615234,4425.769043,4342.563965,4327.563965,4509.102539,4526.922852,4407.563965,4462.307617,0.000000,3.000000,60.000000,,,,0.000000,4.000000,4.000000,2.000000,4.000000,4.000000,2.000000,4.000000,4.000000,4.000000,4.000000,4.000000,4.000000,4.000000,4.000000,66.666664,,,,,,,,,,,,,,,,,,,,,,,,,,,,,,,,,,,,,,,,,,,,,,,,,,,,,,,,,,,,,,,,,,,,,,,,,,,,,,,,,,,,,,,,,,,,,,,,,,,,,,,,,,,,,,,,,,,,,
1768202446.257941,1768202446.258780,23.000000,0.000000,4339.487305,4324.230957,4313.974121,4351.153809,4328.461426,4360.897461,4339.230957,4430.384766,4345.000000,4325.641113,4506.538574,4520.897461,4403.205078,4456.153809,0.000000,3.000000,60.000000,,,,0.000000,4.000000,4.000000,2.000000,4.000000,4.000000,2.000000,4.000000,4.000000,4.000000,4.000000,4.000000,4.000000,4.000000,4.000000,66.666664,,,,,,,,,,,,,,,,,,,,,,,,,,,,,,,,,,,,,,,,,,,,,,,,,,,,,,,,,,,,,,,,,,,,,,,,,,,,,,,,,,,,,,,,,,,,,,,,,,,,,,,,,,,,,,,,,,,,,
1768202446.265750,1768202446.266488,24.000000,0.000000,4338.461426,4326.410156,4318.846191,4353.333496,4329.102539,4362.436035,4346.282227,4424.615234,4336.153809,4319.871582,4496.794922,4518.333496,4395.384766,4444.358887,0.000000,3.000000,60.000000,,,,0.000000,4.000000,4.000000,2.000000,4.000000,4.000000,2.000000,4.000000,4.000000,4.000000,4.000000,4.000000,4.000000,4.000000,4.000000,66.666664,,,,,,,,,,,,,,,,,,,,,,,,,,,,,,,,,,,,,,,,,,,,,,,,,,,,,,,,,,,,,,,,,,,,,,,,,,,,,,,,,,,,,,,,,,,,,,,,,,,,,,,,,,,,,,,,,,,,,
1768202446.273558,1768202446.274297,25.000000,0.000000,4338.974121,4327.051270,4317.820313,4349.615234,4326.282227,4359.487305,4337.692383,4413.846191,4326.410156,4312.179688,4494.230957,4517.948730,4397.051270,4449.230957,0.000000,3.000000,60.000000,,,,0.000000,4.000000,4.000000,2.000000,4.000000,4.000000,2.000000,4.000000,4.000000,4.000000,4.000000,4.000000,4.000000,4.000000,4.000000,66.666664,,,,,,,,,,,,,,,,,,,,,,,,,,,,,,,,,,,,,,,,,,,,,,,,,,,,,,,,,,,,,,,,,,,,,,,,,,,,,,,,,,,,,,,,,,,,,,,,,,,,,,,,,,,,,,,,,,,,,
1768202446.281367,1768202446.282005,26.000000,0.000000,4340.384766,4328.974121,4316.282227,4349.358887,4323.974121,4354.230957,4328.205078,4410.641113,4325.641113,4312.948730,4501.538574,4521.666504,4402.307617,4461.794922,0.000000,3.000000,60.000000,,,,0.000000,4.000000,4.000000,2.000000,4.000000,4.000000,2.000000,4.000000,4.000000,4.000000,4.000000,4.000000,4.000000,4.000000,4.000000,66.666664,,,,,,,,,,,,,,,,,,,,,,,,,,,,,,,,,,,,,,,,,,,,,,,,,,,,,,,,,,,,,,,,,,,,,,,,,,,,,,,,,,,,,,,,,,,,,,,,,,,,,,,,,,,,,,,,,,,,,
1768202446.289175,1768202446.289814,27.000000,0.000000,4344.615234,4335.641113,4318.717773,4357.307617,4323.589844,4356.794922,4333.846191,4415.384766,4329.230957,4319.615234,4507.563965,4523.846191,4401.410156,4455.000000,0.000000,3.000000,60.000000,,,,0.000000,4.000000,4.000000,2.000000,4.000000,4.000000,2.000000,4.000000,4.000000,4.000000,4.000000,4.000000,4.000000,4.000000,4.000000,66.666664,,,,,,,,,,,,,,,,,,,,,,,,,,,,,,,,,,,,,,,,,,,,,,,,,,,,,,,,,,,,,,,,,,,,,,,,,,,,,,,,,,,,,,,,,,,,,,,,,,,,,,,,,,,,,,,,,,,,,
1768202446.296983,1768202446.297822,28.000000,0.000000,4350.000000,4337.820313,4321.282227,4360.128418,4322.820313,4361.538574,4335.256348,4415.769043,4327.179688,4320.384766,4506.410156,4522.692383,4399.102539,4447.948730,0.000000,3.000000,60.000000,,,,0.000000,4.000000,4.000000,2.000000,4.000000,4.000000,2.000000,4.000000,4.000000,4.000000,4.000000,4.000000,4.000000,4.000000,4.000000,66.666664,,,,,,,,,,,,,,,,,,,,,,,,,,,,,,,,,,,,,,,,,,,,,,,,,,,,,,,,,,,,,,,,,,,,,,,,,,,,,,,,,,,,,,,,,,,,,,,,,,,,,,,,,,,,,,,,,,,,,
1768202446.304792,1768202446.305630,29.000000,0.000000,4352.051270,4337.436035,4321.025879,4359.743652,4323.077148,4358.974121,4332.179688,4411.794922,4325.641113,4320.256348,4506.666504,4525.000000,4405.000000,4457.948730,0.000000,3.000000,60.000000,,,,0.000000,4.000000,4.000000,2.000000,4.000000,4.000000,2.000000,4.000000,4.000000,4.000000,4.000000,4.000000,4.000000,4.000000,4.000000,66.666664,,,,,,,,,,,,,,,,,,,,,,,,,,,,,,,,,,,,,,,,,,,,,,,,,,,,,,,,,,,,,,,,,,,,,,,,,,,,,,,,,,,,,,,,,,,,,,,,,,,,,,,,,,,,,,,,,,,,,
1768202446.312600,1768202446.313339,30.000000,0.000000,4349.102539,4339.102539,4318.974121,4361.282227,4321.794922,4355.128418,4331.794922,4413.974121,4327.820313,4321.153809,4510.256348,4525.000000,4413.205078,4464.871582,0.000000,3.000000,60.000000,,,,0.000000,4.000000,4.000000,2.000000,4.000000,4.000000,2.000000,4.000000,4.000000,4.000000,4.000000,4.000000,4.000000,4.000000,4.000000,66.666664,,,,,,,,,,,,,,,,,,,,,,,,,,,,,,,,,,,,,,,,,,,,,,,,0.829806,0.413507,0.335633,0.314527,0.174154,0.337286,0.305202,0.245817,0.203360,0.156281,0.100201,0.086491,0.061970,0.031982,0.034096,0.155408,0.184517,0.172143,0.098250,0.085444,0.287004,0.067421,0.161347,0.061589,0.069459,0.035940,0.050817,0.049856,0.038321,0.034459,0.351794,0.334717,0.243500,0.214304,0.196748,1.788916,0.833207,0.579494,0.196943,0.186866,0.680822,0.312776,0.306034,0.200543,0.151424,0.566067,0.567157,0.258204,0.232843,0.123285,1.112930,0.884269,0.645019,0.470934,0.146800,2.339636,0.458501,0.598997,0.271941,0.175022,0.891447,0.756031,0.422750,0.529798,0.234880,1.418122,0.828462,0.519911,0.402021,0.225740
1768202446.320409,1768202446.321147,31.000000,0.000000,4347.692383,4337.307617,4317.820313,4361.410156,4323.333496,4356.153809,4326.025879,4415.000000,4327.563965,4315.128418,4506.410156,4517.307617,4407.179688,4456.153809,0.000000,3.000000,60.000000,,,,0.000000,4.000000,4.000000,2.000000,4.000000,4.000000,2.000000,4.000000,4.000000,4.000000,4.000000,4.000000,4.000000,4.000000,4.000000,66.666664,,,,,,,,,,,,,,,,,,,,,,,,,,,,,,,,,,,,,,,,,,,,,,,,,,,,,,,,,,,,,,,,,,,,,,,,,,,,,,,,,,,,,,,,,,,,,,,,,,,,,,,,,,,,,,,,,,,,,
1768202446.328217,1768202446.328756,32.000000,0.000000,4344.615234,4332.051270,4317.692383,4358.974121,4324.102539,4360.384766,4326.025879,4417.307617,4326.538574,4309.615234,4496.666504,4512.692383,4396.666504,4445.000000,0.000000,3.000000,60.000000,,,,0.000000,4.000000,4.000000,2.000000,4.000000,4.000000,2.000000,4.000000,4.000000,4.000000,4.000000,4.000000,4.000000,4.000000,4.000000,66.666664,,,,,,,,,,,,,,,,,,,,,,,,,,,,,,,,,,,,,,,,,,,,,,,,,,,,,,,,,,,,,,,,,,,,,,,,,,,,,,,,,,,,,,,,,,,,,,,,,,,,,,,,,,,,,,,,,,,,,
1768202446.336026,1768202446.336565,33.000000,0.000000,4330.384766,4323.205078,4315.512695,4352.307617,4315.512695,4361.153809,4332.436035,4422.820313,4326.153809,4311.153809,4491.025879,4517.436035,4394.102539,4439.743652,0.000000,3.000000,60.000000,,,,0.000000,4.000000,4.000000,2.000000,4.000000,4.000000,2.000000,4.000000,4.000000,4.000000,4.000000,4.000000,4.000000,4.000000,4.000000,66.666664,,,,,,,,,,,,,,,,,,,,,,,,,,,,,,,,,,,,,,,,,,,,,,,,,,,,,,,,,,,,,,,,,,,,,,,,,,,,,,,,,,,,,,,,,,,,,,,,,,,,,,,,,,,,,,,,,,,,,
1768202446.343834,1768202446.344273,34.000000,0.000000,4326.538574,4317.051270,4313.846191,4346.282227,4310.128418,4357.436035,4331.025879,4428.589844,4331.538574,4315.128418,4497.179688,4522.179688,4394.358887,4442.948730,0.000000,3.000000,60.000000,,,,0.000000,4.000000,4.000000,2.000000,4.000000,4.000000,2.000000,4.000000,4.000000,4.000000,4.000000,4.000000,4.000000,4.000000,4.000000,66.666664,,,,,,,,,,,,,,,,,,,,,,,,,,,,,,,,,,,,,,,,,,,,,,,,,,,,,,,,,,,,,,,,,,,,,,,,,,,,,,,,,,,,,,,,,,,,,,,,,,,,,,,,,,,,,,,,,,,,,
1768202446.351642,1768202446.352082,35.000000,0.000000,4343.846191,4326.666504,4316.410156,4352.948730,4317.692383,4354.615234,4333.846191,4431.666504,4337.948730,4322.179688,4508.205078,4524.358887,4403.589844,4454.358887,0.000000,3.000000,60.000000,,,,0.000000,4.000000,4.000000,2.000000,4.000000,4.000000,2.000000,4.000000,4.000000,4.000000,4.000000,4.000000,4.000000,4.000000,4.000000,66.666664,,,,,,,,,,,,,,,,,,,,,,,,,,,,,,,,,,,,,,,,,,,,,,,,,,,,,,,,,,,,,,,,,,,,,,,,,,,,,,,,,,,,,,,,,,,,,,,,,,,,,,,,,,,,,,,,,,,,,
1768202446.359451,1768202446.360090,36.000000,0.000000,4352.051270,4340.128418,4317.692383,4361.410156,4323.077148,4357.179688,4335.769043,4422.692383,4332.692383,4325.128418,4509.615234,4524.615234,4414.615234,4460.897461,0.000000,3.000000,60.000000,,,,0.000000,4.000000,4.000000,2.000000,4.000000,4.000000,2.000000,4.000000,4.000000,4.000000,4.000000,4.000000,4.000000,4.000000,4.000000,66.666664,,,,,,,,,,,,,,,,,,,,,,,,,,,,,,,,,,,,,,,,,,,,,,,,,,,,,,,,,,,,,,,,,,,,,,,,,,,,,,,,,,,,,,,,,,,,,,,,,,,,,,,,,,,,,,,,,,,,,
1768202446.367259,1768202446.367898,37.000000,0.000000,4342.692383,4338.846191,4317.179688,4356.794922,4320.128418,4357.436035,4327.051270,4413.077148,4323.846191,4317.307617,4506.410156,4522.051270,4413.461426,4458.333496,0.000000,3.000000,60.000000,,,,0.000000,4.000000,4.000000,2.000000,4.000000,4.000000,2.000000,4.000000,4.000000,4.000000,4.000000,4.000000,4.000000,4.000000,4.000000,66.666664,,,,,,,,,,,,,,,,,,,,,,,,,,,,,,,,,,,,,,,,,,,,,,,,,,,,,,,,,,,,,,,,,,,,,,,,,,,,,,,,,,,,,,,,,,,,,,,,,,,,,,,,,,,,,,,,,,,,,
1768202446.375068,1768202446.375807,38.000000,0.000000,4341.025879,4335.000000,4318.461426,4353.846191,4320.769043,4353.974121,4324.615234,4417.179688,4323.717773,4315.128418,4508.205078,4523.205078,4410.256348,4455.512695,0.000000,3.000000,60.000000,,,,0.000000,4.000000,4.000000,2.000000,4.000000,4.000000,2.000000,4.000000,4.000000,4.000000,4.000000,4.000000,4.000000,4.000000,4.000000,66.666664,,,,,,,,,,,,,,,,,,,,,,,,,,,,,,,,,,,,,,,,,,,,,,,,,,,,,,,,,,,,,,,,,,,,,,,,,,,,,,,,,,,,,,,,,,,,,,,,,,,,,,,,,,,,,,,,,,,,,
1768202446.382876,1768202446.383615,39.000000,0.000000,4351.025879,4340.000000,4317.948730,4360.384766,4325.897461,4353.974121,4330.512695,4422.051270,4324.871582,4320.000000,4510.384766,4526.666504,4411.282227,4459.358887,0.000000,3.000000,60.000000,,,,0.000000,4.000000,4.000000,2.000000,4.000000,4.000000,2.000000,4.000000,4.000000,4.000000,4.000000,4.000000,4.000000,4.000000,4.000000,66.666664,,,,,,,,,,,,,,,,,,,,,,,,,,,,,,,,,,,,,,,,,,,,,,,,,,,,,,,,,,,,,,,,,,,,,,,,,,,,,,,,,,,,,,,,,,,,,,,,,,,,,,,,,,,,,,,,,,,,,
1768202446.390684,1768202446.391623,40.000000,0.000000,4351.922852,4342.948730,4316.794922,4363.589844,4325.641113,4353.205078,4330.256348,4416.282227,4322.948730,4317.692383,4508.077148,4525.256348,4412.692383,4462.051270,0.000000,3.000000,60.000000,,,,0.000000,4.000000,4.000000,2.000000,4.000000,4.000000,2.000000,4.000000,4.000000,4.000000,4.000000,4.000000,4.000000,4.000000,4.000000,66.666664,,,,,,,,,,,,,,,,,,,,,,,,,,,,,,,,,,,,,,,,,,,,,,,,,,,,,,,,,,,,,,,,,,,,,,,,,,,,,,,,,,,,,,,,,,,,,,,,,,,,,,,,,,,,,,,,,,,,,
1768202446.398493,1768202446.399432,41.000000,0.000000,4344.615234,4340.128418,4320.128418,4359.102539,4320.384766,4352.436035,4324.743652,4414.487305,4323.846191,4311.538574,4505.512695,4515.384766,4411.794922,4456.794922,0.000000,3.000000,60.000000,,,,0.000000,4.000000,4.000000,2.000000,4.000000,4.000000,2.000000,4.000000,4.000000,4.000000,4.000000,4.000000,4.000000,4.000000,4.000000,66.666664,,,,,,,,,,,,,,,,,,,,,,,,,,,,,,,,,,,,,,,,,,,,,,,,,,,,,,,,,,,,,,,,,,,,,,,,,,,,,,,,,,,,,,,,,,,,,,,,,,,,,,,,,,,,,,,,,,,,,
1768202446.406301,1768202446.407140,42.000000,0.000000,4342.820313,4337.820313,4322.051270,4356.153809,4319.230957,4354.358887,4325.641113,4417.820313,4324.358887,4310.769043,4505.384766,4509.743652,4408.333496,4448.461426,0.000000,3.000000,60.000000,,,,0.000000,4.000000,4.000000,2.000000,4.000000,4.000000,2.000000,4.000000,4.000000,4.000000,4.000000,4.000000,4.000000,4.000000,4.000000,66.666664,,,,,,,,,,,,,,,,,,,,,,,,,,,,,,,,,,,,,,,,,,,,,,,,,,,,,,,,,,,,,,,,,,,,,,,,,,,,,,,,,,,,,,,,,,,,,,,,,,,,,,,,,,,,,,,,,,,,,
1768202446.414110,1768202446.414949,43.000000,0.000000,4345.897461,4337.307617,4319.487305,4358.974121,4322.948730,4354.615234,4326.666504,4414.358887,4320.256348,4310.384766,4505.128418,4512.948730,4407.307617,4447.820313,0.000000,3.000000,60.000000,,,,0.000000,4.000000,4.000000,2.000000,4.000000,4.000000,2.000000,4.000000,4.000000,4.000000,4.000000,4.000000,4.000000,4.000000,4.000000,66.666664,,,,,,,,,,,,,,,,,,,,,,,,,,,,,,,,,,,,,,,,,,,,,,,,,,,,,,,,,,,,,,,,,,,,,,,,,,,,,,,,,,,,,,,,,,,,,,,,,,,,,,,,,,,,,,,,,,,,,
1768202446.421918,1768202446.422557,44.000000,0.000000,4346.025879,4337.179688,4318.333496,4359.871582,4321.282227,4353.974121,4323.589844,4410.256348,4318.717773,4309.102539,4506.153809,4515.128418,4410.128418,4457.051270,0.000000,3.000000,60.000000,,,,0.000000,4.000000,4.000000,2.000000,4.000000,4.000000,2.000000,4.000000,4.000000,4.000000,4.000000,4.000000,4.000000,4.000000,4.000000,66.666664,,,,,,,,,,,,,,,,,,,,,,,,,,,,,,,,,,,,,,,,,,,,,,,,,,,,,,,,,,,,,,,,,,,,,,,,,,,,,,,,,,,,,,,,,,,,,,,,,,,,,,,,,,,,,,,,,,,,,
1768202446.429727,1768202446.430366,45.000000,0.000000,4345.128418,4334.615234,4318.205078,4354.230957,4323.077148,4357.820313,4323.205078,4416.282227,4322.307617,4312.820313,4507.948730,4518.717773,4412.051270,4461.153809,0.000000,3.000000,60.000000,,,,0.000000,4.000000,4.000000,2.000000,4.000000,4.000000,2.000000,4.000000,4.000000,4.000000,4.000000,4.000000,4.000000,4.000000,4.000000,66.666664,,,,,,,,,,,,,,,,,,,,,,,,,,,,,,,,,,,,,,,,,,,,,,,,,,,,,,,,,,,,,,,,,,,,,,,,,,,,,,,,,,,,,,,,,,,,,,,,,,,,,,,,,,,,,,,,,,,,,
1768202446.437535,1768202446.438274,46.000000,0.000000,4346.922852,4332.948730,4319.743652,4354.230957,4331.538574,4362.436035,4329.615234,4428.333496,4327.692383,4315.641113,4508.205078,4518.205078,4412.051270,4454.487305,0.000000,3.000000,60.000000,,,,0.000000,4.000000,4.000000,2.000000,4.000000,4.000000,2.000000,4.000000,4.000000,4.000000,4.000000,4.000000,4.000000,4.000000,4.000000,66.666664,,,,,,,,,,,,,,,,,,,,,,,,,,,,,,,,,,,,,,,,,,,,,,,,0.944681,0.409766,0.332106,0.307740,0.195719,0.363689,0.251115,0.263685,0.166761,0.157855,0.090424,0.073484,0.056924,0.037519,0.035614,0.133693,0.139524,0.144280,0.101359,0.087610,0.228803,0.057801,0.144333,0.067782,0.059407,0.036970,0.060479,0.049754,0.043639,0.034564,0.330021,0.390509,0.282425,0.269521,0.177953,1.338828,0.677543,0.631683,0.200852,0.176159,0.822550,0.328310,0.316938,0.207084,0.136397,0.715130,0.583137,0.288265,0.219507,0.114228,1.383026,0.953667,0.713510,0.490081,0.146769,2.839444,0.411049,0.710130,0.277337,0.181197,1.186576,0.709521,0.495468,0.518814,0.245942,1.646559,0.780829,0.517688,0.358671,0.250084
1768202446.445344,1768202446.446083,47.000000,0.000000,4347.820313,4336.922852,4319.743652,4358.717773,4332.051270,4359.615234,4331.666504,4425.384766,4326.025879,4311.794922,4506.922852,4515.000000,4407.948730,4451.666504,0.000000,3.000000,60.000000,,,,0.000000,4.000000,4.000000,2.000000,4.000000,4.000000,2.000000,4.000000,4.000000,4.000000,4.000000,4.000000,4.000000,4.000000,4.000000,66.666664,,,,,,,,,,,,,,,,,,,,,,,,,,,,,,,,,,,,,,,,,,,,,,,,,,,,,,,,,,,,,,,,,,,,,,,,,,,,,,,,,,,,,,,,,,,,,,,,,,,,,,,,,,,,,,,,,,,,,
1768202446.453152,1768202446.453991,48.000000,0.000000,4350.641113,4341.666504,4318.461426,4357.563965,4325.512695,4353.077148,4323.589844,4414.358887,4319.230957,4310.512695,4505.256348,4515.128418,4402.563965,4456.666504,0.000000,3.000000,60.000000,,,,0.000000,4.000000,4.000000,2.000000,4.000000,4.000000,2.000000,4.000000,4.000000,4.000000,4.000000,4.000000,4.000000,4.000000,4.000000,66.666664,,,,,,,,,,,,,,,,,,,,,,,,,,,,,,,,,,,,,,,,,,,,,,,,,,,,,,,,,,,,,,,,,,,,,,,,,,,,,,,,,,,,,,,,,,,,,,,,,,,,,,,,,,,,,,,,,,,,,
1768202446.460961,1768202446.461799,49.000000,0.000000,4355.897461,4342.563965,4319.871582,4356.282227,4323.589844,4351.153809,4321.922852,4420.256348,4320.384766,4317.563965,4506.922852,4515.128418,4403.077148,4461.538574,0.000000,3.000000,60.000000,,,,0.000000,4.000000,4.000000,2.000000,4.000000,4.000000,2.000000,4.000000,4.000000,4.000000,4.000000,4.000000,4.000000,4.000000,4.000000,66.666664,,,,,,,,,,,,,,,,,,,,,,,,,,,,,,,,,,,,,,,,,,,,,,,,,,,,,,,,,,,,,,,,,,,,,,,,,,,,,,,,,,,,,,,,,,,,,,,,,,,,,,,,,,,,,,,,,,,,,
1768202446.468769,1768202446.469508,50.000000,0.000000,4355.897461,4343.846191,4322.307617,4358.461426,4327.051270,4357.692383,4328.589844,4430.512695,4326.153809,4320.000000,4506.538574,4517.436035,4402.307617,4460.256348,0.000000,3.000000,60.000000,,,,0.000000,4.000000,4.000000,2.000000,4.000000,4.000000,2.000000,4.000000,4.000000,4.000000,4.000000,4.000000,4.000000,4.000000,4.000000,66.666664,,,,,,,,,,,,,,,,,,,,,,,,,,,,,,,,,,,,,,,,,,,,,,,,,,,,,,,,,,,,,,,,,,,,,,,,,,,,,,,,,,,,,,,,,,,,,,,,,,,,,,,,,,,,,,,,,,,,,
1768202446.476577,1768202446.477316,51.000000,0.000000,4349.871582,4340.128418,4322.051270,4357.820313,4327.051270,4361.794922,4329.358887,4427.563965,4325.897461,4313.205078,4500.641113,4521.410156,4395.897461,4452.692383,0.000000,3.000000,60.000000,,,,0.000000,4.000000,4.000000,2.000000,4.000000,4.000000,2.000000,4.000000,4.000000,4.000000,4.000000,4.000000,4.000000,4.000000,4.000000,66.666664,,,,,,,,,,,,,,,,,,,,,,,,,,,,,,,,,,,,,,,,,,,,,,,,,,,,,,,,,,,,,,,,,,,,,,,,,,,,,,,,,,,,,,,,,,,,,,,,,,,,,,,,,,,,,,,,,,,,,
1768202446.484386,1768202446.485325,52.000000,0.000000,4342.820313,4329.102539,4320.256348,4353.461426,4318.717773,4355.000000,4323.333496,4417.820313,4316.666504,4309.230957,4491.794922,4516.666504,4394.230957,4444.230957,0.000000,3.000000,60.000000,,,,0.000000,4.000000,4.000000,2.000000,4.000000,4.000000,2.000000,4.000000,4.000000,4.000000,4.000000,4.000000,4.000000,4.000000,4.000000,66.666664,,,,,,,,,,,,,,,,,,,,,,,,,,,,,,,,,,,,,,,,,,,,,,,,,,,,,,,,,,,,,,,,,,,,,,,,,,,,,,,,,,,,,,,,,,,,,,,,,,,,,,,,,,,,,,,,,,,,,
1768202446.492194,1768202446.493133,53.000000,0.000000,4340.128418,4327.307617,4319.358887,4354.743652,4314.871582,4351.666504,4324.230957,4410.897461,4311.153809,4309.230957,4489.615234,4505.512695,4395.769043,4441.410156,0.000000,3.000000,60.000000,,,,0.000000,4.000000,4.000000,2.000000,4.000000,4.000000,2.000000,4.000000,4.000000,4.000000,4.000000,4.000000,4.000000,4.000000,4.000000,66.666664,,,,,,,,,,,,,,,,,,,,,,,,,,,,,,,,,,,,,,,,,,,,,,,,,,,,,,,,,,,,,,,,,,,,,,,,,,,,,,,,,,,,,,,,,,,,,,,,,,,,,,,,,,,,,,,,,,,,,
1768202446.500003,1768202446.501041,54.000000,0.000000,4342.692383,4333.205078,4316.153809,4359.487305,4322.692383,4357.948730,4332.179688,4417.307617,4318.846191,4309.358887,4499.358887,4507.948730,4401.410156,4444.358887,0.000000,3.000000,60.000000,,,,0.000000,4.000000,4.000000,2.000000,4.000000,4.000000,2.000000,4.000000,4.000000,4.000000,4.000000,4.000000,4.000000,4.000000,4.000000,66.666664,,,,,,,,,,,,,,,,,,,,,,,,,,,,,,,,,,,,,,,,,,,,,,,,,,,,,,,,,,,,,,,,,,,,,,,,,,,,,,,,,,,,,,,,,,,,,,,,,,,,,,,,,,,,,,,,,,,,,
1768202446.507811,1768202446.508850,55.000000,0.000000,4342.307617,4330.512695,4314.487305,4358.589844,4326.538574,4358.589844,4330.384766,4421.922852,4325.641113,4311.538574,4501.666504,4510.641113,4410.769043,4445.256348,0.000000,3.000000,60.000000,,,,0.000000,4.000000,4.000000,2.000000,4.000000,4.000000,2.000000,4.000000,4.000000,4.000000,4.000000,4.000000,4.000000,4.000000,4.000000,66.666664,,,,,,,,,,,,,,,,,,,,,,,,,,,,,,,,,,,,,,,,,,,,,,,,,,,,,,,,,,,,,,,,,,,,,,,,,,,,,,,,,,,,,,,,,,,,,,,,,,,,,,,,,,,,,,,,,,,,,
1768202446.515619,1768202446.516459,56.000000,0.000000,4338.461426,4323.333496,4313.589844,4351.922852,4321.282227,4351.025879,4320.128418,4417.436035,4321.922852,4312.692383,4495.128418,4505.769043,4412.563965,4444.102539,0.000000,3.000000,60.000000,,,,0.000000,4.000000,4.000000,2.000000,4.000000,4.000000,2.000000,4.000000,4.000000,4.000000,4.000000,4.000000,4.000000,4.000000,4.000000,66.666664,,,,,,,,,,,,,,,,,,,,,,,,,,,,,,,,,,,,,,,,,,,,,,,,,,,,,,,,,,,,,,,,,,,,,,,,,,,,,,,,,,,,,,,,,,,,,,,,,,,,,,,,,,,,,,,,,,,,,
1768202446.523428,1768202446.524267,57.000000,0.000000,4337.692383,4325.769043,4312.051270,4348.333496,4320.256348,4349.615234,4320.897461,4421.794922,4320.641113,4310.128418,4496.282227,4507.051270,4411.153809,4444.102539,0.000000,3.000000,60.000000,,,,0.000000,4.000000,4.000000,2.000000,4.000000,4.000000,2.000000,4.000000,4.000000,4.000000,4.000000,4.000000,4.000000,4.000000,4.000000,66.666664,,,,,,,,,,,,,,,,,,,,,,,,,,,,,,,,,,,,,,,,,,,,,,,,,,,,,,,,,,,,,,,,,,,,,,,,,,,,,,,,,,,,,,,,,,,,,,,,,,,,,,,,,,,,,,,,,,,,,
1768202446.531236,1768202446.531976,58.000000,0.000000,4341.025879,4332.307617,4314.358887,4348.461426,4320.512695,4353.205078,4327.051270,4424.615234,4325.000000,4310.384766,4498.589844,4510.128418,4412.820313,4442.692383,0.000000,3.000000,60.000000,,,,0.000000,4.000000,4.000000,2.000000,4.000000,4.000000,2.000000,4.000000,4.000000,4.000000,4.000000,4.000000,4.000000,4.000000,4.000000,66.666664,,,,,,,,,,,,,,,,,,,,,,,,,,,,,,,,,,,,,,,,,,,,,,,,,,,,,,,,,,,,,,,,,,,,,,,,,,,,,,,,,,,,,,,,,,,,,,,,,,,,,,,,,,,,,,,,,,,,,
1768202446.539045,1768202446.539784,59.000000,0.000000,4343.846191,4335.000000,4314.102539,4346.153809,4319.230957,4351.922852,4323.333496,4417.307617,4323.461426,4311.666504,4492.820313,4510.128418,4411.282227,4441.282227,0.000000,3.000000,60.000000,,,,0.000000,4.000000,4.000000,2.000000,4.000000,4.000000,2.000000,4.000000,4.000000,4.000000,4.000000,4.000000,4.000000,4.000000,4.000000,66.666664,,,,,,,,,,,,,,,,,,,,,,,,,,,,,,,,,,,,,,,,,,,,,,,,,,,,,,,,,,,,,,,,,,,,,,,,,,,,,,,,,,,,,,,,,,,,,,,,,,,,,,,,,,,,,,,,,,,,,
1768202446.546853,1768202446.547393,60.000000,0.000000,4343.077148,4335.897461,4311.282227,4344.871582,4323.205078,4350.000000,4319.871582,4417.948730,4320.000000,4307.563965,4489.230957,4507.436035,4405.384766,4435.769043,0.000000,3.000000,60.000000,,,,0.000000,4.000000,4.000000,2.000000,4.000000,4.000000,2.000000,4.000000,4.000000,4.000000,4.000000,4.000000,4.000000,4.000000,4.000000,66.666664,,,,,,,,,,,,,,,,,,,,,,,,,,,,,,,,,,,,,,,,,,,,,,,,,,,,,,,,,,,,,,,,,,,,,,,,,,,,,,,,,,,,,,,,,,,,,,,,,,,,,,,,,,,,,,,,,,,,,
1768202446.554662,1768202446.555201,61.000000,0.000000,4341.025879,4335.128418,4315.128418,4349.230957,4327.307617,4352.820313,4327.436035,4427.563965,4321.794922,4304.615234,4491.794922,4511.538574,4399.871582,4427.563965,0.000000,3.000000,60.000000,,,,0.000000,4.000000,4.000000,2.000000,4.000000,4.000000,2.000000,4.000000,4.000000,4.000000,4.000000,4.000000,4.000000,4.000000,4.000000,66.666664,,,,,,,,,,,,,,,,,,,,,,,,,,,,,,,,,,,,,,,,,,,,,,,,,,,,,,,,,,,,,,,,,,,,,,,,,,,,,,,,,,,,,,,,,,,,,,,,,,,,,,,,,,,,,,,,,,,,,
1768202446.562470,1768202446.563109,62.000000,0.000000,4340.384766,4334.487305,4318.589844,4352.948730,4326.282227,4355.384766,4332.051270,4427.179688,4323.846191,4308.077148,4491.153809,4520.512695,4398.077148,4429.615234,0.000000,3.000000,60.000000,,,,0.000000,4.000000,4.000000,2.000000,4.000000,4.000000,2.000000,4.000000,4.000000,4.000000,4.000000,4.000000,4.000000,4.000000,4.000000,66.666664,,,,,,,,,,,,,,,,,,,,,,,,,,,,,,,,,,,,,,,,,,,,,,,,0.975036,0.414819,0.311094,0.306438,0.212147,0.378103,0.263828,0.270156,0.140501,0.153392,0.079199,0.057701,0.051721,0.040738,0.036913,0.108489,0.113371,0.118815,0.105648,0.086591,0.182320,0.069612,0.141448,0.073684,0.052286,0.033751,0.065992,0.051289,0.047380,0.035947,0.334560,0.444743,0.333201,0.310246,0.165642,0.858768,0.522768,0.665877,0.210459,0.167108,0.918121,0.324752,0.326892,0.210088,0.119467,0.812294,0.571785,0.329524,0.211125,0.110020,1.569226,0.961663,0.763958,0.501661,0.144326,3.129962,0.397001,0.810572,0.272423,0.186945,1.449368,0.645111,0.538007,0.502821,0.241615,1.736976,0.696886,0.490280,0.327066,0.267524
1768202446.570278,1768202446.570918,63.000000,0.000000,4340.641113,4335.128418,4315.384766,4350.256348,4325.000000,4356.282227,4336.538574,4424.743652,4323.846191,4310.641113,4491.153809,4522.692383,4400.769043,4441.025879,0.000000,3.000000,60.000000,,,,0.000000,4.000000,4.000000,2.000000,4.000000,4.000000,2.000000,4.000000,4.000000,4.000000,4.000000,4.000000,4.000000,4.000000,4.000000,66.666664,,,,,,,,,,,,,,,,,,,,,,,,,,,,,,,,,,,,,,,,,,,,,,,,,,,,,,,,,,,,,,,,,,,,,,,,,,,,,,,,,,,,,,,,,,,,,,,,,,,,,,,,,,,,,,,,,,,,,
1768202446.578087,1768202446.578926,64.000000,0.000000,4341.282227,4336.410156,4317.051270,4348.974121,4329.487305,4359.487305,4346.153809,4434.487305,4328.974121,4310.384766,4497.563965,4521.538574,4404.102539,4446.666504,896.000000,3.000000,60.000000,,,,0.000000,4.000000,4.000000,2.000000,4.000000,4.000000,2.000000,4.000000,4.000000,4.000000,4.000000,4.000000,4.000000,4.000000,4.000000,66.666664,,,,,,,,,,,,,,,,,,,,,,,,,,,,,,,,,,,,,,,,,,,,,,,,,,,,,,,,,,,,,,,,,,,,,,,,,,,,,,,,,,,,,,,,,,,,,,,,,,,,,,,,,,,,,,,,,,,,,
1768202446.585895,1768202446.586735,65.000000,0.000000,4344.358887,4337.820313,4323.077148,4354.615234,4337.307617,4363.205078,4348.589844,4443.717773,4339.358887,4314.743652,4504.743652,4524.358887,4406.922852,4443.461426,2588.000000,3.000000,60.000000,,,,0.000000,4.000000,4.000000,2.000000,4.000000,4.000000,2.000000,4.000000,4.000000,4.000000,4.000000,4.000000,4.000000,4.000000,4.000000,66.666664,,,,,,,,,,,,,,,,,,,,,,,,,,,,,,,,,,,,,,,,,,,,,,,,,,,,,,,,,,,,,,,,,,,,,,,,,,,,,,,,,,,,,,,,,,,,,,,,,,,,,,,,,,,,,,,,,,,,,
1768202446.593704,1768202446.594643,66.000000,0.000000,4348.461426,4338.205078,4320.641113,4357.692383,4341.666504,4362.051270,4341.410156,4439.615234,4341.922852,4320.897461,4506.282227,4524.615234,4410.384766,4442.820313,3830.000000,3.000000,60.000000,,,,0.000000,4.000000,4.000000,2.000000,4.000000,4.000000,2.000000,4.000000,4.000000,4.000000,4.000000,4.000000,4.000000,4.000000,4.000000,66.666664,,,,,,,,,,,,,,,,,,,,,,,,,,,,,,,,,,,,,,,,,,,,,,,,,,,,,,,,,,,,,,,,,,,,,,,,,,,,,,,,,,,,,,,,,,,,,,,,,,,,,,,,,,,,,,,,,,,,,
1768202446.601512,1768202446.602451,67.000000,0.000000,4349.487305,4333.077148,4315.384766,4354.615234,4336.922852,4358.205078,4339.358887,4435.512695,4338.717773,4322.051270,4505.384766,4523.205078,4412.436035,4450.128418,3650.000000,3.000000,60.000000,,,,0.000000,4.000000,4.000000,2.000000,4.000000,4.000000,2.000000,4.000000,4.000000,4.000000,4.000000,4.000000,4.000000,4.000000,4.000000,66.666664,,,,,,,,,,,,,,,,,,,,,,,,,,,,,,,,,,,,,,,,,,,,,,,,,,,,,,,,,,,,,,,,,,,,,,,,,,,,,,,,,,,,,,,,,,,,,,,,,,,,,,,,,,,,,,,,,,,,,
1768202446.609321,1768202446.610460,68.000000,0.000000,4350.000000,4324.230957,4317.179688,4351.153809,4329.230957,4358.333496,4342.051270,4443.717773,4341.410156,4321.025879,4509.743652,4533.846191,4412.179688,4458.974121,3747.000000,3.000000,60.000000,,,,0.000000,4.000000,4.000000,2.000000,4.000000,4.000000,2.000000,4.000000,4.000000,4.000000,4.000000,4.000000,4.000000,4.000000,4.000000,66.666664,,,,,,,,,,,,,,,,,,,,,,,,,,,,,,,,,,,,,,,,,,,,,,,,,,,,,,,,,,,,,,,,,,,,,,,,,,,,,,,,,,,,,,,,,,,,,,,,,,,,,,,,,,,,,,,,,,,,,
1768202446.617129,1768202446.618268,69.000000,0.000000,4351.794922,4328.717773,4320.384766,4350.512695,4332.436035,4361.794922,4340.769043,4444.230957,4343.589844,4323.077148,4511.410156,4537.948730,4412.563965,4462.436035,931.000000,3.000000,60.000000,,,,0.000000,4.000000,4.000000,2.000000,4.000000,4.000000,2.000000,4.000000,4.000000,4.000000,4.000000,4.000000,4.000000,4.000000,4.000000,66.666664,,,,,,,,,,,,,,,,,,,,,,,,,,,,,,,,,,,,,,,,,,,,,,,,,,,,,,,,,,,,,,,,,,,,,,,,,,,,,,,,,,,,,,,,,,,,,,,,,,,,,,,,,,,,,,,,,,,,,
1768202446.624937,1768202446.625977,70.000000,0.000000,4351.025879,4339.871582,4319.102539,4352.436035,4338.333496,4361.666504,4337.307617,4431.922852,4338.589844,4325.769043,4506.922852,4528.205078,4414.358887,4455.512695,3972.000000,3.000000,60.000000,,,,0.000000,4.000000,4.000000,2.000000,4.000000,4.000000,2.000000,4.000000,4.000000,4.000000,4.000000,4.000000,4.000000,4.000000,4.000000,66.666664,,,,,,,,,,,,,,,,,,,,,,,,,,,,,,,,,,,,,,,,,,,,,,,,,,,,,,,,,,,,,,,,,,,,,,,,,,,,,,,,,,,,,,,,,,,,,,,,,,,,,,,,,,,,,,,,,,,,,
1768202446.632746,1768202446.633785,71.000000,0.000000,4349.230957,4337.436035,4316.410156,4354.487305,4331.025879,4358.589844,4336.794922,4427.820313,4333.589844,4319.871582,4504.743652,4523.717773,4410.512695,4447.179688,4103.000000,3.000000,60.000000,,,,0.000000,4.000000,4.000000,2.000000,4.000000,4.000000,2.000000,4.000000,4.000000,4.000000,4.000000,4.000000,4.000000,4.000000,4.000000,66.666664,,,,,,,,,,,,,,,,,,,,,,,,,,,,,,,,,,,,,,,,,,,,,,,,,,,,,,,,,,,,,,,,,,,,,,,,,,,,,,,,,,,,,,,,,,,,,,,,,,,,,,,,,,,,,,,,,,,,,
1768202446.640554,1768202446.641793,72.000000,0.000000,4347.948730,4330.256348,4313.461426,4348.717773,4323.846191,4357.051270,4338.846191,4435.256348,4336.538574,4312.179688,4505.000000,4526.922852,4403.205078,4443.974121,4084.000000,3.000000,60.000000,,,,0.000000,4.000000,4.000000,2.000000,4.000000,4.000000,2.000000,4.000000,4.000000,4.000000,4.000000,4.000000,4.000000,4.000000,4.000000,66.666664,,,,,,,,,,,,,,,,,,,,,,,,,,,,,,,,,,,,,,,,,,,,,,,,,,,,,,,,,,,,,,,,,,,,,,,,,,,,,,,,,,,,,,,,,,,,,,,,,,,,,,,,,,,,,,,,,,,,,
1768202446.648363,1768202446.649602,73.000000,0.000000,4347.436035,4334.487305,4311.025879,4346.282227,4325.384766,4357.436035,4340.641113,4440.769043,4340.641113,4315.641113,4506.666504,4533.077148,4404.102539,4443.846191,4109.000000,3.000000,60.000000,,,,0.000000,4.000000,4.000000,2.000000,4.000000,4.000000,2.000000,4.000000,4.000000,4.000000,4.000000,4.000000,4.000000,4.000000,4.000000,66.666664,,,,,,,,,,,,,,,,,,,,,,,,,,,,,,,,,,,,,,,,,,,,,,,,,,,,,,,,,,,,,,,,,,,,,,,,,,,,,,,,,,,,,,,,,,,,,,,,,,,,,,,,,,,,,,,,,,,,,
1768202446.656171,1768202446.657310,74.000000,0.000000,4349.102539,4340.641113,4313.077148,4356.922852,4328.589844,4359.743652,4344.358887,4439.358887,4338.205078,4322.051270,4508.205078,4533.333496,4407.948730,4450.000000,4236.000000,3.000000,60.000000,,,,0.000000,4.000000,4.000000,2.000000,4.000000,4.000000,2.000000,4.000000,4.000000,4.000000,4.000000,4.000000,4.000000,4.000000,4.000000,66.666664,,,,,,,,,,,,,,,,,,,,,,,,,,,,,,,,,,,,,,,,,,,,,,,,,,,,,,,,,,,,,,,,,,,,,,,,,,,,,,,,,,,,,,,,,,,,,,,,,,,,,,,,,,,,,,,,,,,,,
1768202446.663979,1768202446.665119,75.000000,0.000000,4351.025879,4339.230957,4318.717773,4362.820313,4331.410156,4358.717773,4344.487305,4432.307617,4333.589844,4317.820313,4506.282227,4528.205078,4405.000000,4457.820313,4751.000000,3.000000,60.000000,,,,0.000000,4.000000,4.000000,2.000000,4.000000,4.000000,2.000000,4.000000,4.000000,4.000000,4.000000,4.000000,4.000000,4.000000,4.000000,66.666664,,,,,,,,,,,,,,,,,,,,,,,,,,,,,,,,,,,,,,,,,,,,,,,,,,,,,,,,,,,,,,,,,,,,,,,,,,,,,,,,,,,,,,,,,,,,,,,,,,,,,,,,,,,,,,,,,,,,,
1768202446.671788,1768202446.672727,76.000000,0.000000,4349.871582,4335.128418,4320.256348,4357.179688,4332.436035,4353.846191,4332.179688,4430.256348,4335.256348,4316.538574,4506.025879,4529.487305,4406.410156,4457.820313,5213.000000,3.000000,60.000000,,,,0.000000,4.000000,4.000000,2.000000,4.000000,4.000000,2.000000,4.000000,4.000000,4.000000,4.000000,4.000000,4.000000,4.000000,4.000000,66.666664,,,,,,,,,,,,,,,,,,,,,,,,,,,,,,,,,,,,,,,,,,,,,,,,,,,,,,,,,,,,,,,,,,,,,,,,,,,,,,,,,,,,,,,,,,,,,,,,,,,,,,,,,,,,,,,,,,,,,
1768202446.679596,1768202446.680536,77.000000,0.000000,4349.615234,4328.717773,4315.384766,4354.871582,4331.666504,4353.205078,4325.512695,4437.948730,4338.974121,4322.436035,4507.563965,4533.717773,4413.205078,4455.128418,4473.000000,3.000000,60.000000,,,,0.000000,4.000000,4.000000,2.000000,4.000000,4.000000,2.000000,4.000000,4.000000,4.000000,4.000000,4.000000,4.000000,4.000000,4.000000,66.666664,,,,,,,,,,,,,,,,,,,,,,,,,,,,,,,,,,,,,,,,,,,,,,,,,,,,,,,,,,,,,,,,,,,,,,,,,,,,,,,,,,,,,,,,,,,,,,,,,,,,,,,,,,,,,,,,,,,,,
1768202446.687405,1768202446.688244,78.000000,0.000000,4352.436035,4325.512695,4312.948730,4357.692383,4334.487305,4358.461426,4333.205078,4439.871582,4335.512695,4318.077148,4505.512695,4526.410156,4411.153809,4459.871582,4236.000000,3.000000,60.000000,,,,0.000000,4.000000,4.000000,2.000000,4.000000,4.000000,2.000000,4.000000,4.000000,4.000000,4.000000,4.000000,4.000000,4.000000,4.000000,66.666664,1.000000,8.333333,4.000000,4.000000,0.000000,4.000000,4.000000,0.000000,4.000000,1.000000,4.000000,4.000000,4.000000,4.000000,4.000000,4.000000,,,,,,,,,,,,,,,,,,,,,,,,,,,,,,,,0.923193,0.419677,0.278089,0.307925,0.217498,0.379411,0.320557,0.266503,0.126755,0.143516,0.071689,0.042996,0.046269,0.041196,0.037800,0.089337,0.107994,0.104101,0.109428,0.083102,0.160083,0.096313,0.159177,0.077885,0.049089,0.029111,0.067168,0.053937,0.047754,0.038265,0.385003,0.493789,0.389902,0.326166,0.160001,0.557071,0.410348,0.667335,0.224314,0.161563,0.928759,0.311866,0.327518,0.211795,0.104486,0.825024,0.541045,0.370006,0.212448,0.108948,1.629787,0.909809,0.792527,0.499343,0.138444,3.166899,0.424081,0.877829,0.256026,0.185735,1.585084,0.561839,0.545238,0.480656,0.221427,1.679827,0.597578,0.456409,0.308249,0.270755
1768202446.695213,1768202446.696053,79.000000,0.000000,4353.846191,4332.692383,4315.512695,4355.897461,4340.641113,4358.333496,4337.307617,4431.538574,4328.717773,4310.000000,4504.615234,4519.871582,4408.846191,4461.922852,4751.000000,3.000000,60.000000,,,,0.000000,4.000000,4.000000,2.000000,4.000000,4.000000,2.000000,4.000000,4.000000,4.000000,4.000000,4.000000,4.000000,4.000000,4.000000,66.666664,,,,,,,,,,,,,,,,,,,,,,,,,,,,,,,,,,,,,,,,,,,,,,,,,,,,,,,,,,,,,,,,,,,,,,,,,,,,,,,,,,,,,,,,,,,,,,,,,,,,,,,,,,,,,,,,,,,,,
1768202446.703022,1768202446.704061,80.000000,0.000000,4353.205078,4339.487305,4315.384766,4352.179688,4340.512695,4355.128418,4330.897461,4427.692383,4326.153809,4311.410156,4503.846191,4523.205078,4411.153809,4457.820313,5213.000000,3.000000,60.000000,,,,0.000000,4.000000,4.000000,2.000000,4.000000,4.000000,2.000000,4.000000,4.000000,4.000000,4.000000,4.000000,4.000000,4.000000,4.000000,66.666664,,,,,,,,,,,,,,,,,,,,,,,,,,,,,,,,,,,,,,,,,,,,,,,,,,,,,,,,,,,,,,,,,,,,,,,,,,,,,,,,,,,,,,,,,,,,,,,,,,,,,,,,,,,,,,,,,,,,,
1768202446.710830,1768202446.711870,81.000000,0.000000,4351.922852,4339.102539,4313.205078,4352.307617,4333.846191,4358.077148,4328.846191,4429.871582,4327.820313,4313.589844,4496.025879,4521.410156,4406.794922,4454.230957,4473.000000,3.000000,60.000000,,,,0.000000,4.000000,4.000000,2.000000,4.000000,4.000000,2.000000,4.000000,4.000000,4.000000,4.000000,4.000000,4.000000,4.000000,4.000000,66.666664,,,,,,,,,,,,,,,,,,,,,,,,,,,,,,,,,,,,,,,,,,,,,,,,,,,,,,,,,,,,,,,,,,,,,,,,,,,,,,,,,,,,,,,,,,,,,,,,,,,,,,,,,,,,,,,,,,,,,
1768202446.718639,1768202446.719578,82.000000,0.000000,4349.358887,4335.128418,4313.205078,4353.205078,4330.384766,4358.077148,4331.410156,4429.615234,4326.666504,4313.077148,4495.769043,4520.897461,4401.794922,4449.487305,4236.000000,3.000000,60.000000,,,,0.000000,4.000000,4.000000,2.000000,4.000000,4.000000,2.000000,4.000000,4.000000,4.000000,4.000000,4.000000,4.000000,4.000000,4.000000,66.666664,,,,,,,,,,,,,,,,,,,,,,,,,,,,,,,,,,,,,,,,,,,,,,,,,,,,,,,,,,,,,,,,,,,,,,,,,,,,,,,,,,,,,,,,,,,,,,,,,,,,,,,,,,,,,,,,,,,,,
1768202446.726447,1768202446.727387,83.000000,0.000000,4344.487305,4334.487305,4313.205078,4351.922852,4333.846191,4352.179688,4333.717773,4434.615234,4327.563965,4314.743652,4502.563965,4524.358887,4404.487305,4448.589844,4751.000000,3.000000,60.000000,,,,0.000000,4.000000,4.000000,2.000000,4.000000,4.000000,2.000000,4.000000,4.000000,4.000000,4.000000,4.000000,4.000000,4.000000,4.000000,66.666664,,,,,,,,,,,,,,,,,,,,,,,,,,,,,,,,,,,,,,,,,,,,,,,,,,,,,,,,,,,,,,,,,,,,,,,,,,,,,,,,,,,,,,,,,,,,,,,,,,,,,,,,,,,,,,,,,,,,,
1768202446.734255,1768202446.734995,84.000000,0.000000,4342.436035,4334.871582,4312.051270,4349.358887,4334.871582,4353.589844,4336.410156,4438.974121,4332.692383,4316.282227,4499.615234,4523.461426,4405.128418,4450.000000,5213.000000,3.000000,60.000000,,,,0.000000,4.000000,4.000000,2.000000,4.000000,4.000000,2.000000,4.000000,4.000000,4.000000,4.000000,4.000000,4.000000,4.000000,4.000000,66.666664,,,,,,,,,,,,,,,,,,,,,,,,,,,,,,,,,,,,,,,,,,,,,,,,,,,,,,,,,,,,,,,,,,,,,,,,,,,,,,,,,,,,,,,,,,,,,,,,,,,,,,,,,,,,,,,,,,,,,
1768202446.742064,1768202446.742804,85.000000,0.000000,4343.077148,4331.666504,4312.307617,4348.333496,4327.692383,4360.384766,4337.820313,4437.692383,4335.128418,4317.692383,4497.563965,4521.666504,4405.256348,4449.871582,4473.000000,3.000000,60.000000,,,,0.000000,4.000000,4.000000,2.000000,4.000000,4.000000,2.000000,4.000000,4.000000,4.000000,4.000000,4.000000,4.000000,4.000000,4.000000,66.666664,,,,,,,,,,,,,,,,,,,,,,,,,,,,,,,,,,,,,,,,,,,,,,,,,,,,,,,,,,,,,,,,,,,,,,,,,,,,,,,,,,,,,,,,,,,,,,,,,,,,,,,,,,,,,,,,,,,,,
1768202446.749872,1768202446.750512,86.000000,0.000000,4342.051270,4328.974121,4312.820313,4347.051270,4323.974121,4357.179688,4337.436035,4440.512695,4336.153809,4318.717773,4504.743652,4520.128418,4410.897461,4454.358887,4236.000000,3.000000,60.000000,,,,0.000000,4.000000,4.000000,2.000000,4.000000,4.000000,2.000000,4.000000,4.000000,4.000000,4.000000,4.000000,4.000000,4.000000,4.000000,66.666664,,,,,,,,,,,,,,,,,,,,,,,,,,,,,,,,,,,,,,,,,,,,,,,,,,,,,,,,,,,,,,,,,,,,,,,,,,,,,,,,,,,,,,,,,,,,,,,,,,,,,,,,,,,,,,,,,,,,,
1768202446.757681,1768202446.758321,87.000000,0.000000,4343.077148,4332.179688,4313.974121,4348.333496,4324.871582,4351.794922,4333.077148,4442.307617,4335.128418,4314.487305,4510.128418,4522.051270,4416.025879,4461.153809,4751.000000,3.000000,60.000000,,,,0.000000,4.000000,4.000000,2.000000,4.000000,4.000000,2.000000,4.000000,4.000000,4.000000,4.000000,4.000000,4.000000,4.000000,4.000000,66.666664,,,,,,,,,,,,,,,,,,,,,,,,,,,,,,,,,,,,,,,,,,,,,,,,,,,,,,,,,,,,,,,,,,,,,,,,,,,,,,,,,,,,,,,,,,,,,,,,,,,,,,,,,,,,,,,,,,,,,
1768202446.765489,1768202446.766329,88.000000,0.000000,4345.769043,4336.794922,4316.282227,4353.974121,4325.641113,4353.974121,4333.205078,4441.282227,4334.743652,4310.897461,4504.358887,4526.410156,4409.487305,4453.461426,5213.000000,3.000000,60.000000,,,,0.000000,4.000000,4.000000,2.000000,4.000000,4.000000,2.000000,4.000000,4.000000,4.000000,4.000000,4.000000,4.000000,4.000000,4.000000,66.666664,,,,,,,,,,,,,,,,,,,,,,,,,,,,,,,,,,,,,,,,,,,,,,,,,,,,,,,,,,,,,,,,,,,,,,,,,,,,,,,,,,,,,,,,,,,,,,,,,,,,,,,,,,,,,,,,,,,,,
1768202446.773297,1768202446.774137,89.000000,0.000000,4342.563965,4334.871582,4319.743652,4354.487305,4326.025879,4355.769043,4340.000000,4442.179688,4334.871582,4312.436035,4494.871582,4523.589844,4397.436035,4440.769043,4473.000000,3.000000,60.000000,,,,0.000000,4.000000,4.000000,2.000000,4.000000,4.000000,2.000000,4.000000,4.000000,4.000000,4.000000,4.000000,4.000000,4.000000,4.000000,66.666664,,,,,,,,,,,,,,,,,,,,,,,,,,,,,,,,,,,,,,,,,,,,,,,,,,,,,,,,,,,,,,,,,,,,,,,,,,,,,,,,,,,,,,,,,,,,,,,,,,,,,,,,,,,,,,,,,,,,,
1768202446.781106,1768202446.782046,90.000000,0.000000,4342.179688,4333.846191,4321.282227,4352.436035,4326.282227,4356.282227,4344.358887,4442.436035,4334.615234,4312.948730,4495.897461,4520.641113,4400.641113,4447.307617,4236.000000,3.000000,60.000000,,,,0.000000,4.000000,4.000000,2.000000,4.000000,4.000000,2.000000,4.000000,4.000000,4.000000,4.000000,4.000000,4.000000,4.000000,4.000000,66.666664,,,,,,,,,,,,,,,,,,,,,,,,,,,,,,,,,,,,,,,,,,,,,,,,,,,,,,,,,,,,,,,,,,,,,,,,,,,,,,,,,,,,,,,,,,,,,,,,,,,,,,,,,,,,,,,,,,,,,
1768202446.788914,1768202446.789854,91.000000,0.000000,4351.282227,4338.974121,4320.384766,4355.512695,4330.000000,4358.077148,4342.179688,4442.051270,4336.025879,4314.743652,4504.871582,4529.743652,4411.410156,4460.641113,4751.000000,3.000000,60.000000,,,,0.000000,4.000000,4.000000,2.000000,4.000000,4.000000,2.000000,4.000000,4.000000,4.000000,4.000000,4.000000,4.000000,4.000000,4.000000,66.666664,,,,,,,,,,,,,,,,,,,,,,,,,,,,,,,,,,,,,,,,,,,,,,,,,,,,,,,,,,,,,,,,,,,,,,,,,,,,,,,,,,,,,,,,,,,,,,,,,,,,,,,,,,,,,,,,,,,,,
1768202446.796723,1768202446.797862,92.000000,0.000000,4359.743652,4343.974121,4323.974121,4357.051270,4334.743652,4358.077148,4340.897461,4446.666504,4341.410156,4321.410156,4512.436035,4540.256348,4414.487305,4462.948730,5213.000000,3.000000,60.000000,,,,0.000000,4.000000,4.000000,2.000000,4.000000,4.000000,2.000000,4.000000,4.000000,4.000000,4.000000,4.000000,4.000000,4.000000,4.000000,66.666664,,,,,,,,,,,,,,,,,,,,,,,,,,,,,,,,,,,,,,,,,,,,,,,,,,,,,,,,,,,,,,,,,,,,,,,,,,,,,,,,,,,,,,,,,,,,,,,,,,,,,,,,,,,,,,,,,,,,,
1768202446.804531,1768202446.805671,93.000000,0.000000,4359.615234,4342.307617,4325.512695,4352.820313,4336.666504,4358.974121,4348.333496,4448.846191,4343.846191,4326.538574,4520.512695,4540.641113,4415.256348,4461.538574,4473.000000,3.000000,60.000000,,,,0.000000,4.000000,4.000000,2.000000,4.000000,4.000000,2.000000,4.000000,4.000000,4.000000,4.000000,4.000000,4.000000,4.000000,4.000000,66.666664,,,,,,,,,,,,,,,,,,,,,,,,,,,,,,,,,,,,,,,,,,,,,,,,,,,,,,,,,,,,,,,,,,,,,,,,,,,,,,,,,,,,,,,,,,,,,,,,,,,,,,,,,,,,,,,,,,,,,
1768202446.812340,1768202446.813579,94.000000,0.000000,4356.922852,4336.153809,4320.769043,4350.641113,4333.589844,4360.897461,4351.410156,4447.179688,4342.436035,4327.307617,4522.820313,4538.461426,4417.436035,4462.436035,4236.000000,3.000000,60.000000,,,,0.000000,4.000000,4.000000,2.000000,4.000000,4.000000,2.000000,4.000000,4.000000,4.000000,4.000000,4.000000,4.000000,4.000000,4.000000,66.666664,,,,,,,,,,,,,,,,,,,,,,,,,,,,,,,,,,,,,,,,,,,,,,,,0.826764,0.415055,0.248337,0.304639,0.210912,0.376563,0.396880,0.260760,0.122420,0.130499,0.072651,0.033506,0.040452,0.039247,0.038180,0.081687,0.121782,0.102946,0.110797,0.078941,0.166361,0.129001,0.196176,0.080003,0.050101,0.026706,0.066246,0.056737,0.044436,0.041883,0.471566,0.535174,0.440334,0.315276,0.158484,0.364136,0.363228,0.626735,0.240463,0.159980,0.870731,0.302684,0.310624,0.213693,0.093680,0.767030,0.500849,0.393204,0.223751,0.107467,1.550614,0.811468,0.792957,0.478434,0.129030,2.974002,0.487189,0.886128,0.231131,0.173875,1.555195,0.476495,0.526915,0.449311,0.189937,1.516319,0.508093,0.435908,0.296197,0.259383
1768202446.820148,1768202446.821388,95.000000,0.000000,4355.512695,4334.230957,4319.102539,4348.717773,4328.846191,4358.333496,4345.384766,4445.641113,4344.615234,4325.256348,4511.025879,4538.077148,4412.948730,4459.871582,4751.000000,3.000000,60.000000,,,,0.000000,4.000000,4.000000,2.000000,4.000000,4.000000,2.000000,4.000000,4.000000,4.000000,4.000000,4.000000,4.000000,4.000000,4.000000,66.666664,,,,,,,,,,,,,,,,,,,,,,,,,,,,,,,,,,,,,,,,,,,,,,,,,,,,,,,,,,,,,,,,,,,,,,,,,,,,,,,,,,,,,,,,,,,,,,,,,,,,,,,,,,,,,,,,,,,,,
1768202446.827957,1768202446.828996,96.000000,0.000000,4355.128418,4330.128418,4320.512695,4344.743652,4325.769043,4356.153809,4342.179688,4443.589844,4341.410156,4324.230957,4509.358887,4539.487305,4409.743652,4461.666504,5213.000000,3.000000,60.000000,,,,0.000000,4.000000,4.000000,2.000000,4.000000,4.000000,2.000000,4.000000,4.000000,4.000000,4.000000,4.000000,4.000000,4.000000,4.000000,66.666664,,,,,,,,,,,,,,,,,,,,,,,,,,,,,,,,,,,,,,,,,,,,,,,,,,,,,,,,,,,,,,,,,,,,,,,,,,,,,,,,,,,,,,,,,,,,,,,,,,,,,,,,,,,,,,,,,,,,,
1768202446.835765,1768202446.836805,97.000000,0.000000,4356.025879,4325.512695,4321.538574,4344.743652,4325.256348,4356.282227,4337.820313,4442.692383,4332.436035,4324.102539,4521.666504,4541.153809,4414.615234,4466.410156,4473.000000,3.000000,60.000000,,,,0.000000,4.000000,4.000000,2.000000,4.000000,4.000000,2.000000,4.000000,4.000000,4.000000,4.000000,4.000000,4.000000,4.000000,4.000000,66.666664,,,,,,,,,,,,,,,,,,,,,,,,,,,,,,,,,,,,,,,,,,,,,,,,,,,,,,,,,,,,,,,,,,,,,,,,,,,,,,,,,,,,,,,,,,,,,,,,,,,,,,,,,,,,,,,,,,,,,
1768202446.843573,1768202446.844513,98.000000,0.000000,4357.692383,4330.641113,4322.179688,4349.230957,4325.384766,4355.641113,4331.538574,4441.666504,4329.743652,4321.922852,4518.846191,4538.974121,4416.666504,4462.692383,4236.000000,3.000000,60.000000,,,,0.000000,4.000000,4.000000,2.000000,4.000000,4.000000,2.000000,4.000000,4.000000,4.000000,4.000000,4.000000,4.000000,4.000000,4.000000,66.666664,,,,,,,,,,,,,,,,,,,,,,,,,,,,,,,,,,,,,,,,,,,,,,,,,,,,,,,,,,,,,,,,,,,,,,,,,,,,,,,,,,,,,,,,,,,,,,,,,,,,,,,,,,,,,,,,,,,,,
1768202446.851382,1768202446.852322,99.000000,0.000000,4359.871582,4338.846191,4322.948730,4352.436035,4326.922852,4356.282227,4336.153809,4441.794922,4331.410156,4320.384766,4510.000000,4537.692383,4413.974121,4464.487305,4751.000000,3.000000,60.000000,,,,0.000000,4.000000,4.000000,2.000000,4.000000,4.000000,2.000000,4.000000,4.000000,4.000000,4.000000,4.000000,4.000000,4.000000,4.000000,66.666664,,,,,,,,,,,,,,,,,,,,,,,,,,,,,,,,,,,,,,,,,,,,,,,,,,,,,,,,,,,,,,,,,,,,,,,,,,,,,,,,,,,,,,,,,,,,,,,,,,,,,,,,,,,,,,,,,,,,,
1768202446.859190,1768202446.859930,100.000000,0.000000,4360.256348,4342.051270,4323.846191,4354.230957,4331.538574,4357.307617,4341.410156,4443.717773,4330.512695,4323.077148,4514.487305,4542.307617,4412.692383,4473.333496,5213.000000,3.000000,60.000000,,,,0.000000,4.000000,4.000000,2.000000,4.000000,4.000000,2.000000,4.000000,4.000000,4.000000,4.000000,4.000000,4.000000,4.000000,4.000000,66.666664,,,,,,,,,,,,,,,,,,,,,,,,,,,,,,,,,,,,,,,,,,,,,,,,,,,,,,,,,,,,,,,,,,,,,,,,,,,,,,,,,,,,,,,,,,,,,,,,,,,,,,,,,,,,,,,,,,,,,
1768202446.866999,1768202446.867739,101.000000,0.000000,4358.974121,4339.487305,4324.487305,4356.794922,4333.461426,4358.717773,4339.230957,4445.512695,4335.769043,4326.153809,4526.410156,4551.410156,4415.128418,4479.487305,4473.000000,3.000000,60.000000,,,,0.000000,4.000000,4.000000,2.000000,4.000000,4.000000,2.000000,4.000000,4.000000,4.000000,4.000000,4.000000,4.000000,4.000000,4.000000,66.666664,,,,,,,,,,,,,,,,,,,,,,,,,,,,,,,,,,,,,,,,,,,,,,,,,,,,,,,,,,,,,,,,,,,,,,,,,,,,,,,,,,,,,,,,,,,,,,,,,,,,,,,,,,,,,,,,,,,,,
1768202446.874807,1768202446.875447,102.000000,0.000000,4357.948730,4335.769043,4322.692383,4355.897461,4330.000000,4360.897461,4341.922852,4446.794922,4342.436035,4328.077148,4526.794922,4554.230957,4415.000000,4474.871582,4236.000000,3.000000,60.000000,,,,0.000000,4.000000,4.000000,2.000000,4.000000,4.000000,2.000000,4.000000,4.000000,4.000000,4.000000,4.000000,4.000000,4.000000,4.000000,66.666664,,,,,,,,,,,,,,,,,,,,,,,,,,,,,,,,,,,,,,,,,,,,,,,,,,,,,,,,,,,,,,,,,,,,,,,,,,,,,,,,,,,,,,,,,,,,,,,,,,,,,,,,,,,,,,,,,,,,,
1768202446.882615,1768202446.883256,103.000000,0.000000,4357.563965,4336.922852,4321.922852,4352.051270,4326.922852,4358.846191,4341.922852,4443.974121,4334.487305,4325.256348,4513.205078,4543.589844,4406.666504,4462.820313,4751.000000,3.000000,60.000000,,,,0.000000,4.000000,4.000000,2.000000,4.000000,4.000000,2.000000,4.000000,4.000000,4.000000,4.000000,4.000000,4.000000,4.000000,4.000000,66.666664,,,,,,,,,,,,,,,,,,,,,,,,,,,,,,,,,,,,,,,,,,,,,,,,,,,,,,,,,,,,,,,,,,,,,,,,,,,,,,,,,,,,,,,,,,,,,,,,,,,,,,,,,,,,,,,,,,,,,
1768202446.890424,1768202446.891264,104.000000,0.000000,4356.282227,4340.769043,4322.307617,4352.563965,4329.102539,4357.948730,4336.666504,4437.436035,4325.128418,4315.641113,4501.922852,4534.871582,4395.384766,4455.641113,5213.000000,3.000000,60.000000,,,,0.000000,4.000000,4.000000,2.000000,4.000000,4.000000,2.000000,4.000000,4.000000,4.000000,4.000000,4.000000,4.000000,4.000000,4.000000,66.666664,,,,,,,,,,,,,,,,,,,,,,,,,,,,,,,,,,,,,,,,,,,,,,,,,,,,,,,,,,,,,,,,,,,,,,,,,,,,,,,,,,,,,,,,,,,,,,,,,,,,,,,,,,,,,,,,,,,,,
1768202446.898232,1768202446.899072,105.000000,0.000000,4350.256348,4335.641113,4321.025879,4352.051270,4329.102539,4361.666504,4338.717773,4435.000000,4326.282227,4310.512695,4502.563965,4536.794922,4390.128418,4456.922852,4473.000000,3.000000,60.000000,,,,0.000000,4.000000,4.000000,2.000000,4.000000,4.000000,2.000000,4.000000,4.000000,4.000000,4.000000,4.000000,4.000000,4.000000,4.000000,66.666664,,,,,,,,,,,,,,,,,,,,,,,,,,,,,,,,,,,,,,,,,,,,,,,,,,,,,,,,,,,,,,,,,,,,,,,,,,,,,,,,,,,,,,,,,,,,,,,,,,,,,,,,,,,,,,,,,,,,,
1768202446.906041,1768202446.906981,106.000000,0.000000,4347.051270,4329.102539,4321.410156,4347.563965,4324.615234,4360.000000,4339.487305,4438.461426,4328.077148,4314.102539,4508.077148,4540.641113,4395.128418,4459.871582,4236.000000,3.000000,60.000000,,,,0.000000,4.000000,4.000000,2.000000,4.000000,4.000000,2.000000,4.000000,4.000000,4.000000,4.000000,4.000000,4.000000,4.000000,4.000000,66.666664,,,,,,,,,,,,,,,,,,,,,,,,,,,,,,,,,,,,,,,,,,,,,,,,,,,,,,,,,,,,,,,,,,,,,,,,,,,,,,,,,,,,,,,,,,,,,,,,,,,,,,,,,,,,,,,,,,,,,
1768202446.913849,1768202446.914789,107.000000,0.000000,4348.974121,4329.871582,4322.307617,4348.333496,4323.846191,4357.307617,4338.717773,4445.897461,4328.333496,4315.000000,4508.333496,4540.641113,4401.282227,4458.589844,4751.000000,3.000000,60.000000,,,,0.000000,4.000000,4.000000,2.000000,4.000000,4.000000,2.000000,4.000000,4.000000,4.000000,4.000000,4.000000,4.000000,4.000000,4.000000,66.666664,,,,,,,,,,,,,,,,,,,,,,,,,,,,,,,,,,,,,,,,,,,,,,,,,,,,,,,,,,,,,,,,,,,,,,,,,,,,,,,,,,,,,,,,,,,,,,,,,,,,,,,,,,,,,,,,,,,,,
1768202446.921658,1768202446.922398,108.000000,0.000000,4349.358887,4329.487305,4320.512695,4353.333496,4325.641113,4358.333496,4339.102539,4445.512695,4328.077148,4311.666504,4503.846191,4535.384766,4397.307617,4456.794922,5213.000000,3.000000,60.000000,,,,0.000000,4.000000,4.000000,2.000000,4.000000,4.000000,2.000000,4.000000,4.000000,4.000000,4.000000,4.000000,4.000000,4.000000,4.000000,66.666664,,,,,,,,,,,,,,,,,,,,,,,,,,,,,,,,,,,,,,,,,,,,,,,,,,,,,,,,,,,,,,,,,,,,,,,,,,,,,,,,,,,,,,,,,,,,,,,,,,,,,,,,,,,,,,,,,,,,,
1768202446.929466,1768202446.930206,109.000000,0.000000,4348.717773,4326.794922,4319.487305,4353.846191,4326.025879,4360.000000,4333.846191,4436.410156,4326.922852,4312.051270,4503.205078,4532.948730,4396.922852,4457.563965,4473.000000,3.000000,60.000000,,,,0.000000,4.000000,4.000000,2.000000,4.000000,4.000000,2.000000,4.000000,4.000000,4.000000,4.000000,4.000000,4.000000,4.000000,4.000000,66.666664,,,,,,,,,,,,,,,,,,,,,,,,,,,,,,,,,,,,,,,,,,,,,,,,,,,,,,,,,,,,,,,,,,,,,,,,,,,,,,,,,,,,,,,,,,,,,,,,,,,,,,,,,,,,,,,,,,,,,
1768202446.937275,1768202446.937915,110.000000,0.000000,4347.692383,4325.641113,4320.641113,4350.769043,4324.230957,4361.282227,4330.769043,4434.358887,4327.436035,4312.948730,4507.179688,4536.153809,4407.307617,4457.051270,4236.000000,3.000000,60.000000,,,,0.000000,4.000000,4.000000,2.000000,4.000000,4.000000,2.000000,4.000000,4.000000,4.000000,4.000000,4.000000,4.000000,4.000000,4.000000,66.666664,,,,,,,,,,,,,,,,,,,,,,,,,,,,,,,,,,,,,,,,,,,,,,,,0.725510,0.399428,0.242472,0.289877,0.195624,0.378289,0.475664,0.266927,0.123862,0.118109,0.084830,0.032458,0.034429,0.036260,0.038185,0.084246,0.151799,0.111898,0.108520,0.076290,0.201199,0.164596,0.241977,0.080086,0.055776,0.033717,0.067271,0.058771,0.038564,0.047269,0.574441,0.562719,0.470612,0.282679,0.158046,0.310264,0.378897,0.551097,0.255536,0.162098,0.767095,0.303161,0.277966,0.214077,0.087606,0.657296,0.459907,0.389750,0.239686,0.102983,1.398571,0.692298,0.763783,0.438437,0.117625,2.645857,0.574033,0.825377,0.204344,0.152961,1.378524,0.412442,0.504798,0.408560,0.154980,1.321166,0.450636,0.449338,0.285725,0.239831
1768202446.945083,1768202446.945723,111.000000,0.000000,4342.948730,4323.589844,4319.358887,4348.846191,4323.589844,4359.230957,4331.538574,4433.974121,4327.051270,4311.282227,4502.948730,4533.333496,4407.948730,4449.358887,4751.000000,3.000000,60.000000,,,,0.000000,4.000000,4.000000,2.000000,4.000000,4.000000,2.000000,4.000000,4.000000,4.000000,4.000000,4.000000,4.000000,4.000000,4.000000,66.666664,,,,,,,,,,,,,,,,,,,,,,,,,,,,,,,,,,,,,,,,,,,,,,,,,,,,,,,,,,,,,,,,,,,,,,,,,,,,,,,,,,,,,,,,,,,,,,,,,,,,,,,,,,,,,,,,,,,,,
