Timestamp,OriginalTimestamp,EEG.Counter,EEG.Interpolated,EEG.AF3,EEG.F7,EEG.F3,EEG.FC5,EEG.T7,EEG.P7,EEG.O1,EEG.O2,EEG.P8,EEG.T8,EEG.FC6,EEG.F4,EEG.F8,EEG.AF4,POW.AF3.Theta,POW.AF3.Alpha,POW.AF3.BetaL,POW.AF3.BetaH,POW.AF3.Gamma,POW.F7.Theta,POW.F7.Alpha,POW.F7.BetaL,POW.F7.BetaH,POW.F7.Gamma,POW.F3.Theta,POW.F3.Alpha,POW.F3.BetaL,POW.F3.BetaH,POW.F3.Gamma,POW.FC5.Theta,POW.FC5.Alpha,POW.FC5.BetaL,POW.FC5.BetaH,POW.FC5.Gamma,POW.T7.Theta,POW.T7.Alpha,POW.T7.BetaL,POW.T7.BetaH,POW.T7.Gamma,POW.P7.Theta,POW.P7.Alpha,POW.P7.BetaL,POW.P7.BetaH,POW.P7.Gamma,POW.O1.Theta,POW.O1.Alpha,POW.O1.BetaL,POW.O1.BetaH,POW.O1.Gamma,POW.O2.Theta,POW.O2.Alpha,POW.O2.BetaL,POW.O2.BetaH,POW.O2.Gamma,POW.P8.Theta,POW.P8.Alpha,POW.P8.BetaL,POW.P8.BetaH,POW.P8.Gamma,POW.T8.Theta,POW.T8.Alpha,POW.T8.BetaL,POW.T8.BetaH,POW.T8.Gamma,POW.FC6.Theta,POW.FC6.Alpha,POW.FC6.BetaL,POW.FC6.BetaH,POW.FC6.Gamma,POW.F4.Theta,POW.F4.Alpha,POW.F4.BetaL,POW.F4.BetaH,POW.F4.Gamma,POW.F8.Theta,POW.F8.Alpha,POW.F8.BetaL,POW.F8.BetaH,POW.F8.Gamma,POW.AF4.Theta,POW.AF4.Alpha,POW.AF4.BetaL,POW.AF4.BetaH,POW.AF4.Gamma
1769162266.30042,1769162266.301646,97.0,0.0,4322.820313,4287.692383,4372.94873,4329.743652,4274.487305,4275.897461,4286.153809,4274.487305,4280.897461,4284.615234,4568.461426,4543.717773,4425.641113,4518.717773,,,,,,,,,,,,,,,,,,,,,,,,,,,,,,,,,,,,,,,,,,,,,,,,,,,,,,,,,,,,,,,,,,,,,,
1769162266.308228,1769162266.309354,98.0,0.0,4326.282227,4289.102539,4368.974121,4330.384766,4271.153809,4280.512695,4291.666504,4288.205078,4293.717773,4288.333496,4575.512695,4543.717773,4429.487305,4521.794922,,,,,,,,,,,,,,,,,,,,,,,,,,,,,,,,,,,,,,,,,,,,,,,,,,,,,,,,,,,,,,,,,,,,,,
1769162266.316037,1769162266.317163,99.0,0.0,4317.820313,4281.282227,4364.743652,4326.153809,4262.820313,4281.666504,4293.589844,4295.512695,4290.512695,4277.307617,4571.666504,4540.641113,4422.436035,4508.846191,,,,,,,,,,,,,,,,,,,,,,,,,,,,,,,,,,,,,,,,,,,,,,,,,,,,,,,,,,,,,,,,,,,,,,
1769162266.323845,1769162266.325171,100.0,0.0,4318.717773,4282.563965,4367.179688,4326.922852,4267.820313,4278.333496,4290.769043,4280.256348,4276.538574,4276.794922,4567.563965,4538.974121,4422.820313,4507.307617,,,,,,,,,,,,,,,,,,,,,,,,,,,,,,,,,,,,,,,,,,,,,,,,,,,,,,,,,,,,,,,,,,,,,,
1769162266.331654,1769162266.332979,101.0,0.0,4324.871582,4292.307617,4366.794922,4329.487305,4272.05127,4276.282227,4290.897461,4280.769043,4284.743652,4288.974121,4571.538574,4539.358887,4429.487305,4515.128418,,,,,,,,,,,,,,,,,,,,,,,,,,,,,,,,,,,,,,,,,,,,,,,,,,,,,,,,,,,,,,,,,,,,,,
1769162266.339462,1769162266.340688,102.0,0.0,4321.538574,4289.102539,4359.743652,4327.307617,4267.692383,4277.94873,4291.025879,4294.358887,4296.666504,4288.205078,4572.05127,4539.743652,4427.820313,4511.410156,,,,,,,,,,,,,,,,,,,,,,,,,,,,,,,,,,,,,,,,,,,,,,,,,,,,,,,,,,,,,,,,,,,,,,
1769162266.347271,1769162266.348496,103.0,0.0,4313.333496,4279.615234,4356.538574,4324.871582,4264.871582,4280.128418,4288.077148,4287.307617,4284.230957,4279.358887,4567.820313,4535.897461,4426.025879,4506.538574,,,,,,,,,,,,,,,,,,,,,,,,,,,,,,,,,,,,,,,,,,,,,,,,,,,,,,,,,,,,,,,,,,,,,,
1769162266.355079,1769162266.356105,104.0,0.0,4311.153809,4278.717773,4358.589844,4325.641113,4266.025879,4280.641113,4291.538574,4279.871582,4274.487305,4277.94873,4567.307617,4534.487305,4427.820313,4507.692383,,,,,,,,,,,,,,,,,,,,,,,,,,,,,,,,,,,,,,,,,,,,,,,,,,,,,,,,,,,,,,,,,,,,,,
1769162266.362888,1769162266.363913,105.0,0.0,4312.05127,4280.897461,4358.205078,4327.436035,4265.256348,4280.256348,4295.128418,4293.846191,4283.846191,4280.0,4570.384766,4539.743652,4425.897461,4507.692383,,,,,,,,,,,,,,,,,,,,,,,,,,,,,,,,,,,,,,,,,,,,,,,,,,,,,,,,,,,,,,,,,,,,,,
1769162266.370696,1769162266.371622,106.0,0.0,4312.179688,4278.589844,4355.384766,4325.384766,4263.974121,4278.974121,4292.436035,4295.0,4283.717773,4278.205078,4566.025879,4540.769043,4420.641113,4507.05127,,,,,,,,,,,,,,,,,,,,,,,,,,,,,,,,,,,,,,,,,,,,,,,,,,,,,,,,,,,,,,,,,,,,,,
1769162266.378504,1769162266.37943,107.0,0.0,4314.487305,4276.666504,4354.871582,4325.256348,4264.743652,4275.769043,4292.692383,4280.641113,4274.358887,4274.743652,4556.538574,4535.512695,4415.256348,4505.897461,,,,,,,,,,,,,,,,,,,,,,,,,,,,,,,,,,,,,,,,,,,,,,,,,,,,,,,,,,,,,,,,,,,,,,
1769162266.386313,1769162266.387439,108.0,0.0,4319.487305,4279.743652,4357.436035,4335.0,4265.897461,4270.512695,4295.384766,4277.94873,4276.282227,4268.589844,4555.256348,4535.256348,4411.794922,4505.897461,,,,,,,,,,,,,,,,,,,,,,,,,,,,,,,,,,,,,,,,,,,,,,,,,,,,,,,,,,,,,,,,,,,,,,
1769162266.394121,1769162266.395247,109.0,0.0,4322.692383,4282.563965,4358.717773,4336.922852,4265.769043,4267.692383,4294.487305,4280.512695,4278.333496,4263.077148,4556.410156,4538.846191,4410.769043,4506.794922,,,,,,,,,,,,,,,,,,,,,,,,,,,,,,,,,,,,,,,,,,,,,,,,,,,,,,,,,,,,,,,,,,,,,,
1769162266.40193,1769162266.403155,110.0,0.0,4316.922852,4279.358887,4356.410156,4327.179688,4263.461426,4264.102539,4293.205078,4277.94873,4276.282227,4264.615234,4552.820313,4536.538574,4410.128418,4504.743652,0.95797,0.225766,0.09776,0.332134,0.165538,0.816086,0.161694,0.165521,0.177531,0.091251,0.884474,0.256337,0.167569,0.168621,0.082104,0.254594,0.174529,0.133339,0.125161,0.068758,0.491205,0.141729,0.24313,0.124816,0.060754,0.155143,0.170003,0.316975,0.216174,0.165157,0.062506,0.028061,0.13089,0.083426,0.048591,0.257845,0.256082,0.205091,0.149312,0.161763,0.478919,0.423198,0.294259,0.162173,0.159627,0.595472,0.314349,0.260404,0.236652,0.241191,0.821936,0.608325,0.459649,0.226511,0.15652,1.046685,0.320198,0.303377,0.273415,0.17086,0.902999,0.512376,0.462264,0.285794,0.22727,1.368178,0.272095,0.312597,0.34162,0.249128
1769162266.409738,1769162266.410964,111.0,0.0,4311.666504,4278.461426,4354.487305,4329.487305,4261.666504,4262.563965,4293.846191,4278.333496,4277.692383,4272.179688,4552.692383,4533.589844,4410.897461,4503.333496,,,,,,,,,,,,,,,,,,,,,,,,,,,,,,,,,,,,,,,,,,,,,,,,,,,,,,,,,,,,,,,,,,,,,,
1769162266.417547,1769162266.418972,112.0,0.0,4318.077148,4286.153809,4358.461426,4338.077148,4265.0,4271.538574,4293.717773,4282.179688,4280.128418,4277.820313,4557.436035,4537.563965,4413.461426,4507.820313,,,,,,,,,,,,,,,,,,,,,,,,,,,,,,,,,,,,,,,,,,,,,,,,,,,,,,,,,,,,,,,,,,,,,,
1769162266.425355,1769162266.426781,113.0,0.0,4322.307617,4287.94873,4360.0,4334.102539,4268.846191,4280.641113,4293.461426,4281.922852,4280.641113,4270.641113,4557.692383,4541.922852,4413.333496,4510.256348,,,,,,,,,,,,,,,,,,,,,,,,,,,,,,,,,,,,,,,,,,,,,,,,,,,,,,,,,,,,,,,,,,,,,,
1769162266.433164,1769162266.434489,114.0,0.0,4312.05127,4280.384766,4352.436035,4330.512695,4266.410156,4276.282227,4291.282227,4279.871582,4280.0,4264.487305,4555.641113,4535.769043,4410.897461,4506.538574,,,,,,,,,,,,,,,,,,,,,,,,,,,,,,,,,,,,,,,,,,,,,,,,,,,,,,,,,,,,,,,,,,,,,,
1769162266.440972,1769162266.442298,115.0,0.0,4310.384766,4279.358887,4349.487305,4334.487305,4266.025879,4272.563965,4288.077148,4281.922852,4280.256348,4272.179688,4556.794922,4528.077148,4413.333496,4506.794922,,,,,,,,,,,,,,,,,,,,,,,,,,,,,,,,,,,,,,,,,,,,,,,,,,,,,,,,,,,,,,,,,,,,,,
1769162266.44878,1769162266.450306,116.0,0.0,4321.410156,4286.922852,4355.641113,4334.487305,4271.025879,4277.05127,4290.897461,4281.153809,4278.077148,4273.974121,4555.641113,4526.153809,4412.179688,4504.487305,,,,,,,,,,,,,,,,,,,,,,,,,,,,,,,,,,,,,,,,,,,,,,,,,,,,,,,,,,,,,,,,,,,,,,
1769162266.456589,1769162266.458114,117.0,0.0,4319.615234,4289.487305,4353.333496,4333.717773,4271.794922,4274.102539,4295.512695,4277.307617,4276.153809,4263.333496,4551.025879,4523.333496,4406.025879,4494.487305,,,,,,,,,,,,,,,,,,,,,,,,,,,,,,,,,,,,,,,,,,,,,,,,,,,,,,,,,,,,,,,,,,,,,,
1769162266.464397,1769162266.465823,118.0,0.0,4310.512695,4285.641113,4342.563965,4333.205078,4268.333496,4272.05127,4293.974121,4277.436035,4275.897461,4266.410156,4550.769043,4520.128418,4406.922852,4489.358887,,,,,,,,,,,,,,,,,,,,,,,,,,,,,,,,,,,,,,,,,,,,,,,,,,,,,,,,,,,,,,,,,,,,,,
1769162266.472206,1769162266.473631,119.0,0.0,4310.769043,4281.922852,4338.846191,4326.922852,4268.077148,4277.436035,4292.563965,4279.871582,4274.871582,4275.769043,4554.487305,4523.205078,4412.307617,4491.794922,,,,,,,,,,,,,,,,,,,,,,,,,,,,,,,,,,,,,,,,,,,,,,,,,,,,,,,,,,,,,,,,,,,,,,
1769162266.480014,1769162266.48124,120.0,0.0,4315.0,4278.461426,4341.794922,4321.282227,4267.307617,4270.769043,4293.974121,4278.974121,4274.615234,4266.282227,4554.871582,4525.769043,4411.922852,4496.282227,,,,,,,,,,,,,,,,,,,,,,,,,,,,,,,,,,,,,,,,,,,,,,,,,,,,,,,,,,,,,,,,,,,,,,
1769162266.487823,1769162266.489048,121.0,0.0,4318.589844,4281.666504,4342.563965,4326.153809,4266.025879,4261.025879,4292.05127,4276.922852,4276.922852,4262.436035,4553.717773,4524.102539,4411.282227,4502.436035,,,,,,,,,,,,,,,,,,,,,,,,,,,,,,,,,,,,,,,,,,,,,,,,,,,,,,,,,,,,,,,,,,,,,,
1769162266.495631,1769162266.496757,122.0,0.0,4323.589844,4293.461426,4343.205078,4331.282227,4273.205078,4270.0,4292.179688,4283.461426,4280.641113,4277.307617,4555.897461,4527.563965,4414.487305,4506.282227,,,,,,,,,,,,,,,,,,,,,,,,,,,,,,,,,,,,,,,,,,,,,,,,,,,,,,,,,,,,,,,,,,,,,,
1769162266.50344,1769162266.504565,123.0,0.0,4319.358887,4294.615234,4342.820313,4328.333496,4277.820313,4282.94873,4296.025879,4290.512695,4282.05127,4279.230957,4555.641113,4527.94873,4413.205078,4502.436035,,,,,,,,,,,,,,,,,,,,,,,,,,,,,,,,,,,,,,,,,,,,,,,,,,,,,,,,,,,,,,,,,,,,,,
1769162266.511248,1769162266.512574,124.0,0.0,4313.077148,4285.128418,4341.153809,4327.307617,4270.384766,4279.615234,4294.487305,4284.102539,4278.717773,4270.512695,4553.589844,4521.666504,4412.563965,4503.077148,,,,,,,,,,,,,,,,,,,,,,,,,,,,,,,,,,,,,,,,,,,,,,,,,,,,,,,,,,,,,,,,,,,,,,
1769162266.519056,1769162266.520382,125.0,0.0,4320.641113,4283.846191,4343.333496,4327.563965,4264.358887,4273.077148,4291.410156,4278.589844,4278.077148,4273.461426,4556.794922,4528.077148,4417.05127,4508.333496,,,,,,,,,,,,,,,,,,,,,,,,,,,,,,,,,,,,,,,,,,,,,,,,,,,,,,,,,,,,,,,,,,,,,,
1769162266.526865,1769162266.52829,126.0,0.0,4326.922852,4289.102539,4350.512695,4325.769043,4266.025879,4271.922852,4290.0,4282.563965,4282.94873,4277.563965,4558.717773,4535.384766,4418.974121,4509.615234,0.936488,0.234859,0.111693,0.327959,0.15868,0.716555,0.167941,0.175467,0.170445,0.09089,0.916503,0.253601,0.155486,0.153074,0.075488,0.236913,0.217136,0.136877,0.120983,0.064051,0.500314,0.150691,0.280331,0.137602,0.072238,0.133793,0.152848,0.41159,0.214374,0.165891,0.069235,0.025168,0.145491,0.095769,0.052396,0.246924,0.244875,0.19924,0.155335,0.178,0.387226,0.416789,0.306057,0.156906,0.144913,0.498538,0.255607,0.224944,0.220925,0.223135,0.536203,0.597601,0.433411,0.227282,0.152074,0.838681,0.329507,0.277297,0.240387,0.175334,0.734048,0.512018,0.390389,0.280171,0.215814,1.207494,0.252898,0.297708,0.290273,0.25898
1769162266.534673,1769162266.536099,127.0,0.0,4326.282227,4292.05127,4356.410156,4333.717773,4268.461426,4270.641113,4287.692383,4280.0,4279.871582,4273.846191,4558.077148,4527.436035,4421.794922,4515.641113,,,,,,,,,,,,,,,,,,,,,,,,,,,,,,,,,,,,,,,,,,,,,,,,,,,,,,,,,,,,,,,,,,,,,,
1769162266.542482,1769162266.543707,0.0,0.0,4322.563965,4291.794922,4350.128418,4340.256348,4266.794922,4273.205078,4289.615234,4278.205078,4276.282227,4272.179688,4562.692383,4526.153809,4426.538574,4522.05127,,,,,,,,,,,,,,,,,,,,,,,,,,,,,,,,,,,,,,,,,,,,,,,,,,,,,,,,,,,,,,,,,,,,,,
1769162266.55029,1769162266.551516,1.0,0.0,4315.769043,4288.077148,4339.743652,4329.615234,4266.794922,4277.692383,4296.666504,4292.563965,4285.641113,4272.563965,4569.871582,4536.922852,4425.256348,4520.0,,,,,,,,,,,,,,,,,,,,,,,,,,,,,,,,,,,,,,,,,,,,,,,,,,,,,,,,,,,,,,,,,,,,,,
1769162266.558099,1769162266.559224,2.0,0.0,4318.333496,4286.922852,4342.179688,4325.384766,4269.487305,4280.0,4298.333496,4297.563965,4286.922852,4272.563965,4570.0,4539.358887,4422.94873,4517.436035,,,,,,,,,,,,,,,,,,,,,,,,,,,,,,,,,,,,,,,,,,,,,,,,,,,,,,,,,,,,,,,,,,,,,,
1769162266.565907,1769162266.567033,3.0,0.0,4332.05127,4294.102539,4354.230957,4337.820313,4272.179688,4282.692383,4294.102539,4283.205078,4276.410156,4270.256348,4563.846191,4535.128418,4423.974121,4520.897461,,,,,,,,,,,,,,,,,,,,,,,,,,,,,,,,,,,,,,,,,,,,,,,,,,,,,,,,,,,,,,,,,,,,,,
1769162266.573716,1769162266.575041,4.0,0.0,4331.794922,4295.512695,4358.205078,4338.333496,4273.974121,4282.563965,4293.974121,4277.94873,4276.410156,4262.94873,4562.820313,4534.615234,4422.436035,4521.922852,,,,,,,,,,,,,,,,,,,,,,,,,,,,,,,,,,,,,,,,,,,,,,,,,,,,,,,,,,,,,,,,,,,,,,
1769162266.581524,1769162266.58285,5.0,0.0,4317.05127,4289.358887,4351.282227,4326.922852,4272.179688,4278.077148,4293.333496,4282.94873,4281.025879,4267.05127,4567.94873,4535.512695,4423.205078,4518.974121,,,,,,,,,,,,,,,,,,,,,,,,,,,,,,,,,,,,,,,,,,,,,,,,,,,,,,,,,,,,,,,,,,,,,,
1769162266.589333,1769162266.590758,6.0,0.0,4316.282227,4288.974121,4349.230957,4325.128418,4268.589844,4277.307617,4290.512695,4282.179688,4277.692383,4277.692383,4570.256348,4538.717773,4426.282227,4520.0,,,,,,,,,,,,,,,,,,,,,,,,,,,,,,,,,,,,,,,,,,,,,,,,,,,,,,,,,,,,,,,,,,,,,,
1769162266.597141,1769162266.598566,7.0,0.0,4324.615234,4288.333496,4354.102539,4327.563965,4266.538574,4280.256348,4293.077148,4278.846191,4277.179688,4270.641113,4566.794922,4538.333496,4421.410156,4523.205078,,,,,,,,,,,,,,,,,,,,,,,,,,,,,,,,,,,,,,,,,,,,,,,,,,,,,,,,,,,,,,,,,,,,,,
1769162266.60495,1769162266.606575,8.0,0.0,4323.846191,4288.205078,4359.487305,4330.641113,4266.538574,4279.743652,4294.743652,4281.025879,4279.102539,4263.205078,4565.897461,4537.94873,4419.487305,4524.102539,,,,,,,,,,,,,,,,,,,,,,,,,,,,,,,,,,,,,,,,,,,,,,,,,,,,,,,,,,,,,,,,,,,,,,
1769162266.612758,1769162266.614383,9.0,0.0,4327.563965,4297.05127,4361.282227,4340.128418,4267.692383,4279.487305,4292.94873,4286.794922,4280.897461,4276.922852,4570.769043,4546.538574,4428.205078,4523.974121,,,,,,,,,,,,,,,,,,,,,,,,,,,,,,,,,,,,,,,,,,,,,,,,,,,,,,,,,,,,,,,,,,,,,,
1769162266.620566,1769162266.622291,10.0,0.0,4330.384766,4299.358887,4358.974121,4340.256348,4266.666504,4277.820313,4294.102539,4292.94873,4284.743652,4282.307617,4573.333496,4546.922852,4431.922852,4525.897461,,,,,,,,,,,,,,,,,,,,,,,,,,,,,,,,,,,,,,,,,,,,,,,,,,,,,,,,,,,,,,,,,,,,,,
1769162266.628375,1769162266.6301,11.0,0.0,4317.05127,4285.769043,4353.717773,4327.307617,4263.846191,4277.820313,4296.410156,4295.256348,4283.333496,4271.025879,4571.538574,4538.717773,4427.820313,4523.589844,,,,,,,,,,,,,,,,,,,,,,,,,,,,,,,,,,,,,,,,,,,,,,,,,,,,,,,,,,,,,,,,,,,,,,
1769162266.636183,1769162266.638108,12.0,0.0,4313.205078,4280.0,4353.589844,4326.153809,4265.512695,4286.025879,4295.769043,4285.897461,4276.538574,4267.05127,4569.871582,4543.717773,4424.615234,4518.205078,,,,,,,,,,,,,,,,,,,,,,,,,,,,,,,,,,,,,,,,,,,,,,,,,,,,,,,,,,,,,,,,,,,,,,
1769162266.643992,1769162266.645917,13.0,0.0,4335.512695,4291.025879,4359.615234,4340.512695,4267.820313,4287.179688,4293.974121,4281.794922,4281.153809,4270.512695,4571.922852,4552.05127,4424.743652,4519.615234,,,,,,,,,,,,,,,,,,,,,,,,,,,,,,,,,,,,,,,,,,,,,,,,,,,,,,,,,,,,,,,,,,,,,,
1769162266.6518,1769162266.653625,14.0,0.0,4345.256348,4297.307617,4360.0,4343.717773,4266.025879,4278.589844,4291.410156,4289.487305,4292.307617,4273.461426,4571.666504,4545.0,4426.538574,4521.153809,0.920647,0.266177,0.13729,0.306565,0.152705,0.648471,0.176813,0.18033,0.163085,0.097902,0.919456,0.24623,0.136359,0.133808,0.074081,0.243392,0.246156,0.136827,0.116219,0.063106,0.474103,0.164032,0.287251,0.13978,0.085242,0.120528,0.14737,0.496634,0.211029,0.164585,0.069588,0.023078,0.150301,0.106337,0.057583,0.240562,0.244343,0.196553,0.163708,0.212891,0.313244,0.408777,0.295164,0.148815,0.13788,0.417596,0.199125,0.192265,0.210733,0.213166,0.335782,0.557297,0.399368,0.221649,0.168271,0.666866,0.343408,0.266457,0.216045,0.182715,0.562856,0.491255,0.311232,0.254875,0.212864,1.045373,0.269726,0.31103,0.250045,0.270721
1769162266.659609,1769162266.661434,15.0,0.0,4330.384766,4293.717773,4356.666504,4337.307617,4269.102539,4280.641113,4292.692383,4286.025879,4287.307617,4277.692383,4569.487305,4536.794922,4428.974121,4521.025879,,,,,,,,,,,,,,,,,,,,,,,,,,,,,,,,,,,,,,,,,,,,,,,,,,,,,,,,,,,,,,,,,,,,,,
1769162266.667417,1769162266.669042,16.0,0.0,4323.077148,4294.102539,4357.563965,4337.05127,4276.666504,4289.230957,4300.128418,4276.538574,4277.05127,4280.641113,4571.666504,4540.384766,4430.641113,4520.769043,,,,,,,,,,,,,,,,,,,,,,,,,,,,,,,,,,,,,,,,,,,,,,,,,,,,,,,,,,,,,,,,,,,,,,
1769162266.675226,1769162266.676851,17.0,0.0,4326.025879,4297.563965,4356.538574,4336.025879,4277.307617,4288.974121,4300.0,4281.282227,4277.692383,4279.358887,4570.512695,4540.641113,4426.666504,4512.436035,,,,,,,,,,,,,,,,,,,,,,,,,,,,,,,,,,,,,,,,,,,,,,,,,,,,,,,,,,,,,,,,,,,,,,
1769162266.683034,1769162266.684559,18.0,0.0,4330.769043,4297.179688,4354.743652,4336.282227,4275.384766,4285.641113,4295.384766,4289.487305,4281.153809,4278.461426,4565.769043,4538.077148,4422.692383,4505.641113,,,,,,,,,,,,,,,,,,,,,,,,,,,,,,,,,,,,,,,,,,,,,,,,,,,,,,,,,,,,,,,,,,,,,,
1769162266.690843,1769162266.692368,19.0,0.0,4334.102539,4294.871582,4355.256348,4337.179688,4276.025879,4288.205078,4298.974121,4290.512695,4284.230957,4278.205078,4568.205078,4539.102539,4425.384766,4512.820313,,,,,,,,,,,,,,,,,,,,,,,,,,,,,,,,,,,,,,,,,,,,,,,,,,,,,,,,,,,,,,,,,,,,,,
1769162266.698651,1769162266.699976,20.0,0.0,4325.128418,4292.307617,4348.974121,4330.256348,4278.333496,4291.922852,4305.384766,4292.436035,4289.102539,4281.666504,4573.205078,4539.102539,4427.307617,4514.102539,,,,,,,,,,,,,,,,,,,,,,,,,,,,,,,,,,,,,,,,,,,,,,,,,,,,,,,,,,,,,,,,,,,,,,
1769162266.706459,1769162266.707785,21.0,0.0,4320.897461,4293.205078,4345.769043,4329.102539,4280.641113,4287.307617,4306.025879,4295.512695,4295.128418,4287.692383,4573.333496,4544.230957,4428.461426,4508.077148,,,,,,,,,,,,,,,,,,,,,,,,,,,,,,,,,,,,,,,,,,,,,,,,,,,,,,,,,,,,,,,,,,,,,,
1769162266.714268,1769162266.715693,22.0,0.0,4330.512695,4297.307617,4355.384766,4338.717773,4278.461426,4282.179688,4300.384766,4296.410156,4297.692383,4287.94873,4573.974121,4551.666504,4431.794922,4513.333496,,,,,,,,,,,,,,,,,,,,,,,,,,,,,,,,,,,,,,,,,,,,,,,,,,,,,,,,,,,,,,,,,,,,,,
1769162266.722076,1769162266.723501,23.0,0.0,4331.538574,4294.871582,4359.102539,4336.922852,4275.256348,4286.153809,4297.179688,4293.461426,4288.205078,4280.512695,4570.897461,4541.794922,4429.615234,4513.974121,,,,,,,,,,,,,,,,,,,,,,,,,,,,,,,,,,,,,,,,,,,,,,,,,,,,,,,,,,,,,,,,,,,,,,
1769162266.729885,1769162266.73151,24.0,0.0,4321.025879,4285.641113,4352.820313,4325.641113,4277.820313,4287.307617,4303.589844,4292.307617,4280.384766,4270.512695,4569.487305,4535.256348,4425.512695,4504.743652,,,,,,,,,,,,,,,,,,,,,,,,,,,,,,,,,,,,,,,,,,,,,,,,,,,,,,,,,,,,,,,,,,,,,,
1769162266.737693,1769162266.739318,25.0,0.0,4318.333496,4283.205078,4349.487305,4325.384766,4278.205078,4281.922852,4310.256348,4300.769043,4292.94873,4272.179688,4577.307617,4550.641113,4430.0,4507.05127,,,,,,,,,,,,,,,,,,,,,,,,,,,,,,,,,,,,,,,,,,,,,,,,,,,,,,,,,,,,,,,,,,,,,,
1769162266.745502,1769162266.747027,26.0,0.0,4319.871582,4286.794922,4345.256348,4325.897461,4274.743652,4286.025879,4310.512695,4298.589844,4293.333496,4280.0,4577.307617,4552.05127,4430.0,4514.102539,,,,,,,,,,,,,,,,,,,,,,,,,,,,,,,,,,,,,,,,,,,,,,,,,,,,,,,,,,,,,,,,,,,,,,
1769162266.75331,1769162266.754835,27.0,0.0,4319.487305,4288.589844,4339.743652,4326.538574,4275.0,4293.846191,4309.871582,4286.410156,4277.820313,4280.128418,4569.743652,4535.384766,4424.743652,4510.512695,,,,,,,,,,,,,,,,,,,,,,,,,,,,,,,,,,,,,,,,,,,,,,,,,,,,,,,,,,,,,,,,,,,,,,
1769162266.761119,1769162266.762444,28.0,0.0,4324.871582,4290.512695,4344.615234,4333.205078,4278.077148,4289.102539,4309.487305,4290.769043,4283.205078,4279.871582,4570.769043,4536.282227,4427.692383,4505.897461,,,,,,,,,,,,,,,,,,,,,,,,,,,,,,,,,,,,,,,,,,,,,,,,,,,,,,,,,,,,,,,,,,,,,,
1769162266.768927,1769162266.770252,29.0,0.0,4333.077148,4292.94873,4354.230957,4336.282227,4279.743652,4279.230957,4304.743652,4289.743652,4289.230957,4281.153809,4569.871582,4540.384766,4426.794922,4506.025879,,,,,,,,,,,,,,,,,,,,,,,,,,,,,,,,,,,,,,,,,,,,,,,,,,,,,,,,,,,,,,,,,,,,,,
1769162266.776735,1769162266.778161,30.0,0.0,4332.94873,4293.974121,4359.487305,4337.307617,4280.128418,4280.0,4302.563965,4275.641113,4275.897461,4278.717773,4562.436035,4531.538574,4420.897461,4503.461426,0.880226,0.32092,0.175069,0.27258,0.152134,0.597491,0.178678,0.178412,0.150954,0.111001,0.846497,0.240145,0.113219,0.111936,0.079616,0.271098,0.254367,0.125776,0.106275,0.066957,0.416223,0.181717,0.260488,0.130592,0.098132,0.113571,0.157487,0.556784,0.203396,0.161819,0.06658,0.022946,0.145194,0.110215,0.063111,0.232087,0.260386,0.204746,0.170597,0.263392,0.271098,0.405159,0.265606,0.137764,0.146326,0.35258,0.160971,0.168362,0.206857,0.215731,0.220718,0.497516,0.362155,0.20883,0.203607,0.554322,0.351977,0.265503,0.199528,0.194766,0.425406,0.457748,0.240867,0.216734,0.219467,0.899287,0.311959,0.342173,0.225009,0.286003
1769162266.784544,1769162266.785969,31.0,0.0,4326.153809,4294.487305,4361.025879,4339.487305,4279.102539,4289.487305,4306.666504,4281.794922,4276.410156,4278.846191,4567.692383,4537.820313,4424.487305,4504.743652,,,,,,,,,,,,,,,,,,,,,,,,,,,,,,,,,,,,,,,,,,,,,,,,,,,,,,,,,,,,,,,,,,,,,,
1769162266.792352,1769162266.793977,32.0,0.0,4323.717773,4292.563965,4353.974121,4334.743652,4279.102539,4290.897461,4310.256348,4298.205078,4290.897461,4284.358887,4577.436035,4553.589844,4430.384766,4510.512695,,,,,,,,,,,,,,,,,,,,,,,,,,,,,,,,,,,,,,,,,,,,,,,,,,,,,,,,,,,,,,,,,,,,,,
1769162266.800161,1769162266.801786,33.0,0.0,4320.0,4287.692383,4343.717773,4327.692383,4279.743652,4287.179688,4312.436035,4298.333496,4291.538574,4283.589844,4575.0,4549.358887,4428.974121,4512.692383,,,,,,,,,,,,,,,,,,,,,,,,,,,,,,,,,,,,,,,,,,,,,,,,,,,,,,,,,,,,,,,,,,,,,,
1769162266.807969,1769162266.809494,34.0,0.0,4310.512695,4288.846191,4343.205078,4325.769043,4276.666504,4290.897461,4313.461426,4295.641113,4288.333496,4277.563965,4571.410156,4537.820313,4427.179688,4505.897461,,,,,,,,,,,,,,,,,,,,,,,,,,,,,,,,,,,,,,,,,,,,,,,,,,,,,,,,,,,,,,,,,,,,,,
1769162266.815778,1769162266.817303,35.0,0.0,4317.05127,4294.743652,4350.512695,4327.436035,4273.589844,4286.282227,4311.666504,4297.436035,4291.282227,4276.025879,4573.205078,4539.102539,4428.974121,4504.487305,,,,,,,,,,,,,,,,,,,,,,,,,,,,,,,,,,,,,,,,,,,,,,,,,,,,,,,,,,,,,,,,,,,,,,
1769162266.823586,1769162266.824911,36.0,0.0,4328.205078,4296.153809,4353.205078,4331.153809,4275.256348,4281.922852,4310.384766,4296.922852,4291.025879,4278.717773,4572.05127,4547.692383,4429.487305,4516.025879,,,,,,,,,,,,,,,,,,,,,,,,,,,,,,,,,,,,,,,,,,,,,,,,,,,,,,,,,,,,,,,,,,,,,,
1769162266.831395,1769162266.83272,37.0,0.0,4318.589844,4294.743652,4353.846191,4335.769043,4278.333496,4287.436035,4311.282227,4297.179688,4288.461426,4281.153809,4572.307617,4554.230957,4428.974121,4520.897461,,,,,,,,,,,,,,,,,,,,,,,,,,,,,,,,,,,,,,,,,,,,,,,,,,,,,,,,,,,,,,,,,,,,,,
1769162266.839203,1769162266.840428,38.0,0.0,4311.922852,4296.153809,4354.102539,4336.538574,4279.743652,4285.384766,4310.0,4294.743652,4288.461426,4280.641113,4577.05127,4553.717773,4430.256348,4517.05127,,,,,,,,,,,,,,,,,,,,,,,,,,,,,,,,,,,,,,,,,,,,,,,,,,,,,,,,,,,,,,,,,,,,,,
1769162266.847011,1769162266.848237,39.0,0.0,4320.256348,4296.922852,4346.153809,4332.820313,4276.666504,4284.230957,4307.94873,4292.820313,4291.282227,4276.538574,4575.641113,4545.384766,4430.641113,4516.922852,,,,,,,,,,,,,,,,,,,,,,,,,,,,,,,,,,,,,,,,,,,,,,,,,,,,,,,,,,,,,,,,,,,,,,
1769162266.85482,1769162266.855846,40.0,0.0,4318.589844,4296.282227,4339.487305,4328.205078,4275.128418,4295.128418,4311.153809,4297.692383,4295.256348,4278.846191,4569.358887,4538.461426,4428.846191,4516.025879,,,,,,,,,,,,,,,,,,,,,,,,,,,,,,,,,,,,,,,,,,,,,,,,,,,,,,,,,,,,,,,,,,,,,,
1769162266.862628,1769162266.863654,41.0,0.0,4308.974121,4293.846191,4341.538574,4325.384766,4279.358887,4298.205078,4311.666504,4296.153809,4294.871582,4279.487305,4568.333496,4537.820313,4425.897461,4508.717773,,,,,,,,,,,,,,,,,,,,,,,,,,,,,,,,,,,,,,,,,,,,,,,,,,,,,,,,,,,,,,,,,,,,,,
1769162266.870437,1769162266.871362,42.0,0.0,4307.94873,4283.717773,4340.0,4322.692383,4274.487305,4291.538574,4312.820313,4293.205078,4291.410156,4269.615234,4567.94873,4536.922852,4424.102539,4505.641113,,,,,,,,,,,,,,,,,,,,,,,,,,,,,,,,,,,,,,,,,,,,,,,,,,,,,,,,,,,,,,,,,,,,,,
1769162266.878245,1769162266.879171,43.0,0.0,4309.743652,4278.333496,4337.307617,4320.384766,4263.461426,4287.563965,4316.666504,4293.974121,4291.153809,4268.077148,4568.589844,4537.436035,4425.769043,4510.128418,,,,,,,,,,,,,,,,,,,,,,,,,,,,,,,,,,,,,,,,,,,,,,,,,,,,,,,,,,,,,,,,,,,,,,
1769162266.886054,1769162266.88678,44.0,0.0,4312.05127,4288.846191,4340.512695,4324.743652,4267.179688,4278.333496,4310.897461,4287.820313,4288.077148,4281.153809,4572.820313,4539.871582,4430.0,4510.641113,,,,,,,,,,,,,,,,,,,,,,,,,,,,,,,,,,,,,,,,,,,,,,,,,,,,,,,,,,,,,,,,,,,,,,
1769162266.893862,1769162266.894588,45.0,0.0,4313.333496,4296.794922,4341.153809,4326.922852,4277.94873,4273.846191,4303.461426,4285.641113,4286.922852,4285.897461,4573.077148,4540.897461,4430.769043,4509.615234,,,,,,,,,,,,,,,,,,,,,,,,,,,,,,,,,,,,,,,,,,,,,,,,,,,,,,,,,,,,,,,,,,,,,,
1769162266.901671,1769162266.902496,46.0,0.0,4311.153809,4291.025879,4337.179688,4316.282227,4276.922852,4283.974121,4310.256348,4295.256348,4288.717773,4279.743652,4571.410156,4541.025879,4427.436035,4514.871582,0.791991,0.38854,0.219588,0.233864,0.161581,0.532379,0.168958,0.171622,0.134685,0.127955,0.741568,0.242805,0.09225,0.09104,0.091434,0.311491,0.243857,0.103774,0.091552,0.076935,0.341832,0.201552,0.209773,0.113996,0.108804,0.108802,0.183784,0.58241,0.190755,0.158298,0.06342,0.025228,0.132942,0.105888,0.067829,0.217539,0.293196,0.228746,0.173534,0.317962,0.255406,0.405679,0.225478,0.123856,0.171401,0.299139,0.150561,0.154738,0.206963,0.231076,0.158942,0.435872,0.322004,0.188891,0.246899,0.49527,0.349456,0.263594,0.184358,0.210193,0.326117,0.42234,0.18891,0.17525,0.230906,0.760994,0.366939,0.369962,0.211522,0.301936
1769162266.909479,1769162266.910305,47.0,0.0,4310.512695,4285.641113,4337.05127,4311.794922,4273.461426,4290.897461,4319.743652,4297.179688,4284.615234,4278.717773,4573.333496,4541.538574,4427.436035,4520.641113,,,,,,,,,,,,,,,,,,,,,,,,,,,,,,,,,,,,,,,,,,,,,,,,,,,,,,,,,,,,,,,,,,,,,,
1769162266.917287,1769162266.918313,48.0,0.0,4312.436035,4289.871582,4337.94873,4321.922852,4276.922852,4290.769043,4321.794922,4293.846191,4286.666504,4280.256348,4571.666504,4542.05127,4429.230957,4520.128418,,,,,,,,,,,,,,,,,,,,,,,,,,,,,,,,,,,,,,,,,,,,,,,,,,,,,,,,,,,,,,,,,,,,,,
1769162266.925096,1769162266.926122,49.0,0.0,4315.641113,4293.846191,4337.05127,4325.0,4277.307617,4285.641113,4320.512695,4296.922852,4294.743652,4276.538574,4563.205078,4540.769043,4421.666504,4509.871582,,,,,,,,,,,,,,,,,,,,,,,,,,,,,,,,,,,,,,,,,,,,,,,,,,,,,,,,,,,,,,,,,,,,,,
1769162266.932904,1769162266.93403,50.0,0.0,4320.384766,4290.0,4339.230957,4318.846191,4271.538574,4279.358887,4314.615234,4295.512695,4286.794922,4269.230957,4554.102539,4538.205078,4410.512695,4495.769043,,,,,,,,,,,,,,,,,,,,,,,,,,,,,,,,,,,,,,,,,,,,,,,,,,,,,,,,,,,,,,,,,,,,,,
1769162266.940713,1769162266.941838,51.0,0.0,4322.307617,4287.05127,4342.820313,4321.025879,4265.769043,4278.333496,4312.692383,4292.436035,4279.487305,4262.179688,4553.461426,4537.179688,4408.846191,4494.487305,,,,,,,,,,,,,,,,,,,,,,,,,,,,,,,,,,,,,,,,,,,,,,,,,,,,,,,,,,,,,,,,,,,,,,
1769162266.948521,1769162266.949447,52.0,0.0,4317.307617,4290.384766,4343.974121,4325.512695,4265.641113,4281.410156,4319.230957,4295.769043,4285.769043,4263.461426,4561.922852,4538.717773,4414.743652,4506.025879,,,,,,,,,,,,,,,,,,,,,,,,,,,,,,,,,,,,,,,,,,,,,,,,,,,,,,,,,,,,,,,,,,,,,,
1769162266.95633,1769162266.957255,53.0,0.0,4312.307617,4289.487305,4342.820313,4319.743652,4270.897461,4283.077148,4318.974121,4294.487305,4285.384766,4274.230957,4568.717773,4544.358887,4421.025879,4510.256348,,,,,,,,,,,,,,,,,,,,,,,,,,,,,,,,,,,,,,,,,,,,,,,,,,,,,,,,,,,,,,,,,,,,,,
1769162266.964138,1769162266.964964,54.0,0.0,4308.974121,4281.538574,4337.436035,4312.436035,4276.282227,4278.717773,4311.410156,4294.230957,4286.410156,4286.282227,4573.589844,4548.846191,4428.333496,4507.179688,,,,,,,,,,,,,,,,,,,,,,,,,,,,,,,,,,,,,,,,,,,,,,,,,,,,,,,,,,,,,,,,,,,,,,
1769162266.971947,1769162266.972772,55.0,0.0,4301.025879,4277.563965,4327.820313,4311.025879,4278.846191,4278.077148,4316.025879,4297.692383,4290.256348,4285.512695,4573.974121,4545.256348,4427.563965,4510.0,,,,,,,,,,,,,,,,,,,,,,,,,,,,,,,,,,,,,,,,,,,,,,,,,,,,,,,,,,,,,,,,,,,,,,
1769162266.979755,1769162266.980781,56.0,0.0,4294.230957,4278.461426,4320.512695,4310.384766,4279.230957,4286.666504,4326.153809,4293.717773,4280.384766,4276.025879,4561.794922,4535.256348,4413.717773,4505.128418,,,,,,,,,,,,,,,,,,,,,,,,,,,,,,,,,,,,,,,,,,,,,,,,,,,,,,,,,,,,,,,,,,,,,,
1769162266.987563,1769162266.988589,57.0,0.0,4301.025879,4280.256348,4323.205078,4310.897461,4275.641113,4289.487305,4321.410156,4289.743652,4275.256348,4276.666504,4552.692383,4531.538574,4408.846191,4494.743652,,,,,,,,,,,,,,,,,,,,,,,,,,,,,,,,,,,,,,,,,,,,,,,,,,,,,,,,,,,,,,,,,,,,,,
1769162266.995372,1769162266.996497,58.0,0.0,4310.641113,4280.769043,4333.717773,4315.0,4267.820313,4277.307617,4310.769043,4297.05127,4283.205078,4275.256348,4555.897461,4536.153809,4412.436035,4492.307617,,,,,,,,,,,,,,,,,,,,,,,,,,,,,,,,,,,,,,,,,,,,,,,,,,,,,,,,,,,,,,,,,,,,,,
1769162267.00318,1769162267.004306,59.0,0.0,4310.769043,4279.230957,4341.025879,4318.974121,4264.871582,4270.769043,4308.461426,4295.256348,4281.410156,4260.769043,4555.384766,4537.563965,4409.230957,4492.436035,,,,,,,,,,,,,,,,,,,,,,,,,,,,,,,,,,,,,,,,,,,,,,,,,,,,,,,,,,,,,,,,,,,,,,
1769162267.010989,1769162267.012314,60.0,0.0,4309.743652,4280.0,4341.025879,4320.512695,4271.025879,4277.692383,4310.512695,4282.692383,4272.179688,4260.128418,4551.538574,4536.410156,4404.743652,4498.846191,,,,,,,,,,,,,,,,,,,,,,,,,,,,,,,,,,,,,,,,,,,,,,,,,,,,,,,,,,,,,,,,,,,,,,
1769162267.018797,1769162267.020123,61.0,0.0,4309.743652,4280.0,4336.922852,4318.846191,4274.487305,4280.769043,4311.153809,4286.025879,4276.153809,4267.563965,4554.743652,4538.077148,4405.384766,4504.743652,,,,,,,,,,,,,,,,,,,,,,,,,,,,,,,,,,,,,,,,,,,,,,,,,,,,,,,,,,,,,,,,,,,,,,
1769162267.026606,1769162267.027831,62.0,0.0,4309.615234,4277.179688,4332.820313,4317.05127,4271.666504,4278.333496,4314.230957,4290.128418,4279.487305,4267.94873,4556.282227,4532.94873,4408.077148,4498.333496,0.659332,0.450566,0.261703,0.201785,0.183993,0.440985,0.152463,0.164796,0.120203,0.146146,0.620778,0.254009,0.079443,0.080352,0.106803,0.347225,0.222702,0.078852,0.078393,0.094192,0.271578,0.221028,0.155177,0.096278,0.115091,0.10421,0.220617,0.571041,0.176945,0.154762,0.06085,0.029879,0.118399,0.096461,0.070805,0.203902,0.341063,0.267441,0.173576,0.36144,0.255117,0.404267,0.184836,0.110064,0.206683,0.262447,0.166521,0.149996,0.208356,0.25333,0.119043,0.386724,0.278578,0.16432,0.281398,0.464127,0.336641,0.252726,0.166363,0.22606,0.262922,0.391026,0.156137,0.13934,0.238733,0.641917,0.417876,0.372911,0.203057,0.31156
1769162267.034414,1769162267.03564,63.0,0.0,4308.333496,4275.641113,4332.436035,4320.0,4272.563965,4277.307617,4318.205078,4280.384766,4271.666504,4271.153809,4554.230957,4524.743652,4410.641113,4493.589844,,,,,,,,,,,,,,,,,,,,,,,,,,,,,,,,,,,,,,,,,,,,,,,,,,,,,,,,,,,,,,,,,,,,,,
1769162267.042223,1769162267.043248,64.0,0.0,4308.589844,4278.461426,4337.692383,4323.333496,4278.717773,4277.179688,4319.615234,4279.615234,4268.205078,4270.128418,4555.384766,4530.641113,4412.307617,4502.820313,,,,,,,,,,,,,,,,,,,,,,,,,,,,,,,,,,,,,,,,,,,,,,,,,,,,,,,,,,,,,,,,,,,,,,
1769162267.050031,1769162267.051057,65.0,0.0,4317.179688,4283.974121,4342.563965,4324.871582,4283.205078,4279.743652,4323.846191,4293.077148,4277.436035,4259.871582,4558.461426,4536.922852,4413.077148,4511.282227,,,,,,,,,,,,,,,,,,,,,,,,,,,,,,,,,,,,,,,,,,,,,,,,,,,,,,,,,,,,,,,,,,,,,,
1769162267.05784,1769162267.058765,66.0,0.0,4326.025879,4287.436035,4342.94873,4330.641113,4281.025879,4282.179688,4328.717773,4295.384766,4276.922852,4261.282227,4556.666504,4527.436035,4412.563965,4511.794922,,,,,,,,,,,,,,,,,,,,,,,,,,,,,,,,,,,,,,,,,,,,,,,,,,,,,,,,,,,,,,,,,,,,,,
1769162267.065648,1769162267.066574,67.0,0.0,4323.717773,4290.769043,4341.538574,4333.589844,4281.153809,4278.077148,4322.179688,4282.05127,4263.333496,4271.922852,4552.692383,4519.487305,4410.641113,4508.846191,,,,,,,,,,,,,,,,,,,,,,,,,,,,,,,,,,,,,,,,,,,,,,,,,,,,,,,,,,,,,,,,,,,,,,
1769162267.073457,1769162267.074182,68.0,0.0,4320.0,4290.128418,4341.794922,4328.333496,4286.794922,4274.230957,4311.025879,4281.025879,4265.0,4276.922852,4559.743652,4527.436035,4416.153809,4507.94873,,,,,,,,,,,,,,,,,,,,,,,,,,,,,,,,,,,,,,,,,,,,,,,,,,,,,,,,,,,,,,,,,,,,,,
1769162267.081265,1769162267.081991,69.0,0.0,4321.410156,4284.230957,4342.436035,4323.461426,4286.153809,4281.922852,4316.922852,4293.077148,4275.128418,4277.692383,4569.615234,4537.436035,4427.436035,4516.153809,,,,,,,,,,,,,,,,,,,,,,,,,,,,,,,,,,,,,,,,,,,,,,,,,,,,,,,,,,,,,,,,,,,,,,
1769162267.089074,1769162267.089699,70.0,0.0,4320.897461,4284.102539,4341.538574,4324.358887,4280.256348,4287.692383,4326.794922,4301.025879,4282.307617,4279.230957,4574.358887,4540.128418,4430.384766,4525.0,,,,,,,,,,,,,,,,,,,,,,,,,,,,,,,,,,,,,,,,,,,,,,,,,,,,,,,,,,,,,,,,,,,,,,
1769162267.096882,1769162267.097508,71.0,0.0,4321.410156,4291.922852,4342.563965,4329.487305,4280.641113,4280.128418,4319.230957,4297.692383,4286.538574,4284.871582,4577.307617,4539.230957,4427.692383,4524.487305,,,,,,,,,,,,,,,,,,,,,,,,,,,,,,,,,,,,,,,,,,,,,,,,,,,,,,,,,,,,,,,,,,,,,,
1769162267.10469,1769162267.105516,72.0,0.0,4325.512695,4295.641113,4349.102539,4333.717773,4284.358887,4272.820313,4312.307617,4292.05127,4282.94873,4287.436035,4575.769043,4538.846191,4427.692383,4520.0,,,,,,,,,,,,,,,,,,,,,,,,,,,,,,,,,,,,,,,,,,,,,,,,,,,,,,,,,,,,,,,,,,,,,,
1769162267.112499,1769162267.113324,73.0,0.0,4327.436035,4292.94873,4355.256348,4334.358887,4283.333496,4275.512695,4318.589844,4295.769043,4282.563965,4281.794922,4572.179688,4539.871582,4430.256348,4518.205078,,,,,,,,,,,,,,,,,,,,,,,,,,,,,,,,,,,,,,,,,,,,,,,,,,,,,,,,,,,,,,,,,,,,,,
1769162267.120307,1769162267.121233,74.0,0.0,4325.256348,4291.153809,4354.615234,4334.743652,4280.512695,4278.589844,4321.922852,4297.05127,4286.153809,4282.05127,4572.307617,4538.974121,4430.769043,4515.256348,,,,,,,,,,,,,,,,,,,,,,,,,,,,,,,,,,,,,,,,,,,,,,,,,,,,,,,,,,,,,,,,,,,,,,
1769162267.128116,1769162267.129041,75.0,0.0,4325.128418,4292.179688,4349.487305,4336.025879,4281.025879,4277.94873,4318.974121,4287.05127,4282.820313,4278.333496,4569.743652,4537.692383,4427.692383,4510.384766,,,,,,,,,,,,,,,,,,,,,,,,,,,,,,,,,,,,,,,,,,,,,,,,,,,,,,,,,,,,,,,,,,,,,,
1769162267.135924,1769162267.137049,76.0,0.0,4324.102539,4293.717773,4345.128418,4331.922852,4281.153809,4277.820313,4318.846191,4279.615234,4275.256348,4266.666504,4563.461426,4535.641113,4424.487305,4505.641113,,,,,,,,,,,,,,,,,,,,,,,,,,,,,,,,,,,,,,,,,,,,,,,,,,,,,,,,,,,,,,,,,,,,,,
1769162267.143733,1769162267.144858,77.0,0.0,4314.102539,4286.538574,4339.871582,4325.641113,4278.589844,4277.179688,4321.282227,4290.384766,4277.692383,4270.897461,4562.692383,4533.974121,4424.102539,4505.384766,,,,,,,,,,,,,,,,,,,,,,,,,,,,,,,,,,,,,,,,,,,,,,,,,,,,,,,,,,,,,,,,,,,,,,
1769162267.151541,1769162267.152566,78.0,0.0,4305.512695,4279.615234,4335.128418,4326.025879,4277.820313,4279.230957,4324.230957,4299.358887,4281.538574,4282.692383,4569.871582,4536.666504,4426.282227,4515.0,0.523565,0.48974,0.292284,0.187934,0.218303,0.344136,0.141128,0.160649,0.114434,0.163101,0.53684,0.268286,0.078428,0.092046,0.121973,0.37437,0.203491,0.062281,0.075564,0.118325,0.221714,0.23734,0.114446,0.082575,0.11577,0.098572,0.256628,0.5275,0.170663,0.151861,0.068699,0.036348,0.106919,0.089496,0.071946,0.20097,0.401438,0.31134,0.174016,0.381324,0.261642,0.395796,0.152874,0.101385,0.241372,0.252669,0.197242,0.152357,0.21106,0.273332,0.091164,0.350986,0.233735,0.140781,0.292167,0.445983,0.31708,0.230969,0.149726,0.23938,0.228311,0.362017,0.135958,0.114968,0.235095,0.567827,0.445974,0.341878,0.197621,0.307374
1769162267.15935,1769162267.160375,79.0,0.0,4314.102539,4291.410156,4339.615234,4333.717773,4282.05127,4280.769043,4325.256348,4292.179688,4279.743652,4280.769043,4577.179688,4541.410156,4432.179688,4525.641113,,,,,,,,,,,,,,,,,,,,,,,,,,,,,,,,,,,,,,,,,,,,,,,,,,,,,,,,,,,,,,,,,,,,,,
1769162267.167158,1769162267.167984,80.0,0.0,4324.487305,4300.769043,4346.538574,4338.974121,4283.461426,4277.307617,4323.333496,4288.974121,4280.256348,4279.487305,4576.025879,4542.05127,4434.871582,4527.05127,,,,,,,,,,,,,,,,,,,,,,,,,,,,,,,,,,,,,,,,,,,,,,,,,,,,,,,,,,,,,,,,,,,,,,
1769162267.174966,1769162267.175792,81.0,0.0,4321.410156,4290.128418,4345.384766,4331.410156,4280.512695,4280.0,4325.128418,4293.205078,4280.384766,4280.256348,4569.487305,4537.94873,4429.487305,4518.077148,,,,,,,,,,,,,,,,,,,,,,,,,,,,,,,,,,,,,,,,,,,,,,,,,,,,,,,,,,,,,,,,,,,,,,
1769162267.182775,1769162267.1837,82.0,0.0,4321.410156,4284.487305,4346.153809,4327.179688,4280.512695,4278.974121,4326.025879,4287.436035,4279.230957,4277.692383,4570.384766,4537.563965,4425.256348,4510.128418,,,,,,,,,,,,,,,,,,,,,,,,,,,,,,,,,,,,,,,,,,,,,,,,,,,,,,,,,,,,,,,,,,,,,,
1769162267.190583,1769162267.191509,83.0,0.0,4326.666504,4291.282227,4348.846191,4333.974121,4282.307617,4265.769043,4322.692383,4278.077148,4275.897461,4277.05127,4570.128418,4537.692383,4425.512695,4508.589844,,,,,,,,,,,,,,,,,,,,,,,,,,,,,,,,,,,,,,,,,,,,,,,,,,,,,,,,,,,,,,,,,,,,,,
1769162267.198392,1769162267.199517,84.0,0.0,4322.436035,4290.769043,4344.743652,4337.563965,4282.692383,4266.666504,4325.0,4285.256348,4275.769043,4270.0,4564.871582,4536.282227,4425.384766,4507.820313,,,,,,,,,,,,,,,,,,,,,,,,,,,,,,,,,,,,,,,,,,,,,,,,,,,,,,,,,,,,,,,,,,,,,,
1769162267.2062,1769162267.207326,85.0,0.0,4315.256348,4287.436035,4338.974121,4334.230957,4282.436035,4281.025879,4329.230957,4298.461426,4281.794922,4263.974121,4566.538574,4538.974121,4425.769043,4507.692383,,,,,,,,,,,,,,,,,,,,,,,,,,,,,,,,,,,,,,,,,,,,,,,,,,,,,,,,,,,,,,,,,,,,,,
1769162267.214009,1769162267.215034,86.0,0.0,4317.307617,4291.538574,4339.487305,4333.333496,4282.307617,4281.666504,4327.563965,4293.846191,4281.538574,4272.820313,4571.666504,4539.102539,4426.794922,4512.563965,,,,,,,,,,,,,,,,,,,,,,,,,,,,,,,,,,,,,,,,,,,,,,,,,,,,,,,,,,,,,,,,,,,,,,
1769162267.221817,1769162267.222843,87.0,0.0,4321.794922,4293.974121,4344.615234,4332.692383,4283.205078,4275.641113,4325.384766,4286.538574,4279.743652,4280.256348,4573.461426,4537.307617,4427.436035,4519.487305,,,,,,,,,,,,,,,,,,,,,,,,,,,,,,,,,,,,,,,,,,,,,,,,,,,,,,,,,,,,,,,,,,,,,,
1769162267.229626,1769162267.230451,88.0,0.0,4324.487305,4293.717773,4352.05127,4333.974121,4284.102539,4278.974121,4327.307617,4297.179688,4288.846191,4278.461426,4578.589844,4548.205078,4430.641113,4524.230957,,,,,,,,,,,,,,,,,,,,,,,,,,,,,,,,,,,,,,,,,,,,,,,,,,,,,,,,,,,,,,,,,,,,,,
1769162267.237434,1769162267.23826,89.0,0.0,4327.307617,4293.717773,4356.794922,4339.487305,4282.820313,4282.05127,4328.077148,4302.563965,4293.717773,4280.641113,4580.384766,4554.487305,4431.666504,4523.205078,,,,,,,,,,,,,,,,,,,,,,,,,,,,,,,,,,,,,,,,,,,,,,,,,,,,,,,,,,,,,,,,,,,,,,
1769162267.245242,1769162267.246168,90.0,0.0,4324.102539,4289.358887,4355.769043,4337.179688,4280.0,4281.538574,4325.897461,4287.307617,4281.922852,4277.820313,4572.05127,4541.538574,4427.436035,4511.666504,,,,,,,,,,,,,,,,,,,,,,,,,,,,,,,,,,,,,,,,,,,,,,,,,,,,,,,,,,,,,,,,,,,,,,
1769162267.253051,1769162267.253976,91.0,0.0,4321.410156,4288.205078,4353.974121,4332.436035,4280.128418,4281.282227,4325.897461,4279.487305,4274.615234,4264.871582,4566.538574,4533.974121,4425.897461,4505.897461,,,,,,,,,,,,,,,,,,,,,,,,,,,,,,,,,,,,,,,,,,,,,,,,,,,,,,,,,,,,,,,,,,,,,,
1769162267.260859,1769162267.261585,92.0,0.0,4325.256348,4292.436035,4356.282227,4333.589844,4281.282227,4280.512695,4326.922852,4291.282227,4279.871582,4267.307617,4571.794922,4541.282227,4428.333496,4516.282227,,,,,,,,,,,,,,,,,,,,,,,,,,,,,,,,,,,,,,,,,,,,,,,,,,,,,,,,,,,,,,,,,,,,,,
1769162267.268668,1769162267.269393,93.0,0.0,4325.0,4290.897461,4360.128418,4330.641113,4279.871582,4277.820313,4328.589844,4295.897461,4280.897461,4280.128418,4573.205078,4546.794922,4428.205078,4518.974121,,,,,,,,,,,,,,,,,,,,,,,,,,,,,,,,,,,,,,,,,,,,,,,,,,,,,,,,,,,,,,,,,,,,,,
1769162267.276476,1769162267.277102,94.0,0.0,4320.384766,4288.846191,4358.461426,4323.589844,4278.717773,4274.102539,4327.692383,4290.256348,4278.077148,4279.871582,4572.05127,4549.487305,4425.0,4513.589844,0.424096,0.493384,0.305942,0.200423,0.258063,0.273165,0.142512,0.160345,0.121475,0.176325,0.511415,0.277017,0.088037,0.13612,0.132869,0.394755,0.19548,0.062582,0.089256,0.145862,0.195785,0.246328,0.099236,0.075519,0.111224,0.092282,0.278479,0.462285,0.179626,0.150419,0.072534,0.044677,0.102465,0.092745,0.072794,0.208262,0.4685,0.345028,0.177983,0.373627,0.27132,0.377824,0.133881,0.102219,0.26557,0.270123,0.232084,0.169047,0.219145,0.28245,0.079928,0.322268,0.198915,0.12732,0.272906,0.435227,0.299782,0.20274,0.145106,0.24713,0.217733,0.330513,0.127342,0.106157,0.216048,0.558039,0.438947,0.292964,0.200685,0.285444
1769162267.284285,1769162267.28491,95.0,0.0,4325.256348,4294.102539,4359.487305,4325.128418,4279.615234,4277.05127,4326.410156,4291.922852,4279.743652,4276.282227,4576.794922,4554.487305,4426.410156,4520.256348,,,,,,,,,,,,,,,,,,,,,,,,,,,,,,,,,,,,,,,,,,,,,,,,,,,,,,,,,,,,,,,,,,,,,,
1769162267.292093,1769162267.292519,96.0,0.0,4333.974121,4296.922852,4369.743652,4330.0,4279.871582,4283.077148,4331.153809,4295.128418,4281.922852,4279.743652,4577.307617,4557.94873,4430.897461,4529.615234,,,,,,,,,,,,,,,,,,,,,,,,,,,,,,,,,,,,,,,,,,,,,,,,,,,,,,,,,,,,,,,,,,,,,,
1769162267.299902,1769162267.300328,97.0,0.0,4332.05127,4293.974121,4372.820313,4326.282227,4278.846191,4282.436035,4333.846191,4298.205078,4283.974121,4281.282227,4573.717773,4556.794922,4426.794922,4523.846191,,,,,,,,,,,,,,,,,,,,,,,,,,,,,,,,,,,,,,,,,,,,,,,,,,,,,,,,,,,,,,,,,,,,,,
1769162267.30771,1769162267.308236,98.0,0.0,4324.358887,4292.307617,4366.794922,4321.794922,4278.461426,4275.641113,4327.94873,4293.205078,4278.717773,4274.743652,4570.769043,4547.692383,4415.128418,4511.538574,,,,,,,,,,,,,,,,,,,,,,,,,,,,,,,,,,,,,,,,,,,,,,,,,,,,,,,,,,,,,,,,,,,,,,
1769162267.315519,1769162267.316044,99.0,0.0,4319.230957,4292.179688,4368.846191,4321.153809,4277.563965,4272.307617,4323.077148,4281.666504,4273.589844,4266.153809,4566.666504,4539.615234,4410.641113,4503.717773,,,,,,,,,,,,,,,,,,,,,,,,,,,,,,,,,,,,,,,,,,,,,,,,,,,,,,,,,,,,,,,,,,,,,,
1769162267.323327,1769162267.324053,100.0,0.0,4322.05127,4292.820313,4373.461426,4318.205078,4276.794922,4278.077148,4327.692383,4285.0,4277.563965,4265.256348,4564.871582,4539.615234,4413.461426,4504.487305,,,,,,,,,,,,,,,,,,,,,,,,,,,,,,,,,,,,,,,,,,,,,,,,,,,,,,,,,,,,,,,,,,,,,,
1769162267.331135,1769162267.331861,101.0,0.0,4325.641113,4297.179688,4369.615234,4313.846191,4277.436035,4284.871582,4328.333496,4287.820313,4276.794922,4274.102539,4566.794922,4538.974121,4412.563965,4507.692383,,,,,,,,,,,,,,,,,,,,,,,,,,,,,,,,,,,,,,,,,,,,,,,,,,,,,,,,,,,,,,,,,,,,,,
1769162267.338944,1769162267.339769,102.0,0.0,4318.205078,4294.615234,4362.692383,4310.256348,4279.487305,4282.436035,4323.974121,4280.128418,4271.153809,4278.205078,4568.717773,4538.333496,4412.436035,4500.384766,,,,,,,,,,,,,,,,,,,,,,,,,,,,,,,,,,,,,,,,,,,,,,,,,,,,,,,,,,,,,,,,,,,,,,
1769162267.346752,1769162267.347578,103.0,0.0,4308.205078,4284.743652,4357.307617,4305.512695,4281.025879,4279.871582,4329.743652,4283.077148,4273.589844,4274.230957,4567.436035,4536.025879,4414.871582,4492.692383,,,,,,,,,,,,,,,,,,,,,,,,,,,,,,,,,,,,,,,,,,,,,,,,,,,,,,,,,,,,,,,,,,,,,,
1769162267.354561,1769162267.355187,104.0,0.0,4306.922852,4278.717773,4355.384766,4301.922852,4279.615234,4283.846191,4333.717773,4290.0,4277.820313,4273.974121,4560.384766,4532.307617,4413.717773,4489.871582,,,,,,,,,,,,,,,,,,,,,,,,,,,,,,,,,,,,,,,,,,,,,,,,,,,,,,,,,,,,,,,,,,,,,,
1769162267.362369,1769162267.362995,105.0,0.0,4309.102539,4279.871582,4359.230957,4302.820313,4278.205078,4279.615234,4329.230957,4285.769043,4276.538574,4276.153809,4552.820313,4533.461426,4409.615234,4489.615234,,,,,,,,,,,,,,,,,,,,,,,,,,,,,,,,,,,,,,,,,,,,,,,,,,,,,,,,,,,,,,,,,,,,,,
1769162267.370178,1769162267.370704,106.0,0.0,4311.794922,4286.410156,4365.384766,4305.769043,4279.743652,4275.384766,4329.102539,4289.230957,4279.615234,4275.512695,4558.461426,4538.846191,4412.436035,4500.128418,,,,,,,,,,,,,,,,,,,,,,,,,,,,,,,,,,,,,,,,,,,,,,,,,,,,,,,,,,,,,,,,,,,,,,
1769162267.377986,1769162267.378512,107.0,0.0,4319.871582,4292.692383,4370.641113,4306.025879,4281.922852,4286.794922,4336.025879,4297.692383,4286.794922,4276.666504,4569.358887,4539.615234,4418.589844,4508.846191,,,,,,,,,,,,,,,,,,,,,,,,,,,,,,,,,,,,,,,,,,,,,,,,,,,,,,,,,,,,,,,,,,,,,,
1769162267.385795,1769162267.38652,108.0,0.0,4325.128418,4295.128418,4373.333496,4305.641113,4282.563965,4293.461426,4335.769043,4293.974121,4287.563965,4277.563965,4570.0,4536.666504,4416.282227,4499.102539,,,,,,,,,,,,,,,,,,,,,,,,,,,,,,,,,,,,,,,,,,,,,,,,,,,,,,,,,,,,,,,,,,,,,,
1769162267.393603,1769162267.394329,109.0,0.0,4320.0,4296.410156,4374.358887,4304.743652,4282.179688,4284.487305,4331.794922,4292.820313,4287.563965,4278.461426,4564.358887,4536.538574,4413.461426,4492.179688,,,,,,,,,,,,,,,,,,,,,,,,,,,,,,,,,,,,,,,,,,,,,,,,,,,,,,,,,,,,,,,,,,,,,,
1769162267.401411,1769162267.402237,110.0,0.0,4312.05127,4296.666504,4375.0,4299.871582,4282.179688,4280.128418,4335.256348,4297.820313,4291.666504,4280.0,4561.410156,4538.974121,4415.641113,4498.333496,0.392073,0.464893,0.302329,0.240495,0.292332,0.252685,0.155734,0.162238,0.140007,0.183762,0.544685,0.27946,0.104969,0.215469,0.136095,0.417211,0.200149,0.080637,0.119912,0.170399,0.191475,0.245224,0.113219,0.075529,0.103309,0.086767,0.275189,0.387192,0.205852,0.151645,0.086158,0.057234,0.105571,0.109237,0.076202,0.227163,0.531466,0.353266,0.187835,0.345344,0.287433,0.351798,0.126823,0.113628,0.274363,0.303844,0.268075,0.216936,0.235235,0.276694,0.097428,0.300944,0.195138,0.131253,0.229138,0.429356,0.293196,0.177766,0.159497,0.24726,0.22873,0.298051,0.136146,0.113364,0.183261,0.622664,0.404654,0.265425,0.218745,0.248275
1769162267.40922,1769162267.410045,111.0,0.0,4310.256348,4293.333496,4371.794922,4294.230957,4281.282227,4281.666504,4333.846191,4296.025879,4291.410156,4278.077148,4563.974121,4538.974121,4420.769043,4496.666504,,,,,,,,,,,,,,,,,,,,,,,,,,,,,,,,,,,,,,,,,,,,,,,,,,,,,,,,,,,,,,,,,,,,,,
1769162267.417028,1769162267.417654,112.0,0.0,4316.794922,4293.333496,4370.384766,4295.897461,4281.794922,4280.0,4326.794922,4288.589844,4284.358887,4276.666504,4570.769043,4536.794922,4426.025879,4498.846191,,,,,,,,,,,,,,,,,,,,,,,,,,,,,,,,,,,,,,,,,,,,,,,,,,,,,,,,,,,,,,,,,,,,,,
1769162267.424837,1769162267.425463,113.0,0.0,4324.743652,4296.794922,4376.153809,4299.743652,4284.102539,4283.077148,4328.974121,4287.820313,4281.666504,4279.358887,4568.333496,4539.230957,4424.743652,4504.102539,,,,,,,,,,,,,,,,,,,,,,,,,,,,,,,,,,,,,,,,,,,,,,,,,,,,,,,,,,,,,,,,,,,,,,
1769162267.432645,1769162267.433171,114.0,0.0,4326.666504,4295.769043,4383.077148,4298.205078,4287.179688,4285.384766,4333.077148,4285.769043,4281.025879,4276.794922,4557.820313,4537.307617,4414.230957,4496.666504,,,,,,,,,,,,,,,,,,,,,,,,,,,,,,,,,,,,,,,,,,,,,,,,,,,,,,,,,,,,,,,,,,,,,,
1769162267.440454,1769162267.44098,115.0,0.0,4331.025879,4299.230957,4386.922852,4300.897461,4287.436035,4280.769043,4329.358887,4279.358887,4276.794922,4273.205078,4562.436035,4534.743652,4415.769043,4499.230957,,,,,,,,,,,,,,,,,,,,,,,,,,,,,,,,,,,,,,,,,,,,,,,,,,,,,,,,,,,,,,,,,,,,,,
1769162267.448262,1769162267.448988,116.0,0.0,4338.077148,4302.94873,4391.153809,4304.358887,4283.974121,4278.974121,4328.974121,4283.589844,4279.230957,4277.563965,4574.615234,4547.563965,4430.512695,4513.589844,,,,,,,,,,,,,,,,,,,,,,,,,,,,,,,,,,,,,,,,,,,,,,,,,,,,,,,,,,,,,,,,,,,,,,
1769162267.456071,1769162267.456796,117.0,0.0,4333.717773,4297.05127,4389.743652,4298.846191,4281.538574,4281.666504,4332.179688,4294.487305,4283.717773,4282.436035,4572.94873,4553.589844,4429.358887,4511.922852,,,,,,,,,,,,,,,,,,,,,,,,,,,,,,,,,,,,,,,,,,,,,,,,,,,,,,,,,,,,,,,,,,,,,,
1769162267.463879,1769162267.464505,118.0,0.0,4328.717773,4291.538574,4381.666504,4291.666504,4282.563965,4287.05127,4329.358887,4293.717773,4280.641113,4279.358887,4568.717773,4542.05127,4419.102539,4506.282227,,,,,,,,,,,,,,,,,,,,,,,,,,,,,,,,,,,,,,,,,,,,,,,,,,,,,,,,,,,,,,,,,,,,,,
1769162267.471687,1769162267.472313,119.0,0.0,4328.461426,4294.871582,4377.05127,4291.666504,4283.589844,4292.179688,4329.102539,4284.615234,4278.333496,4270.128418,4568.333496,4535.128418,4415.128418,4506.666504,,,,,,,,,,,,,,,,,,,,,,,,,,,,,,,,,,,,,,,,,,,,,,,,,,,,,,,,,,,,,,,,,,,,,,
1769162267.479496,1769162267.479922,120.0,0.0,4317.563965,4296.153809,4375.0,4290.0,4281.922852,4293.717773,4335.897461,4284.743652,4279.487305,4262.436035,4559.230957,4536.922852,4408.461426,4497.820313,,,,,,,,,,,,,,,,,,,,,,,,,,,,,,,,,,,,,,,,,,,,,,,,,,,,,,,,,,,,,,,,,,,,,,
1769162267.487304,1769162267.48773,121.0,0.0,4309.743652,4288.974121,4370.128418,4280.384766,4282.307617,4296.794922,4337.692383,4290.769043,4276.794922,4264.358887,4552.05127,4536.538574,4399.615234,4488.974121,,,,,,,,,,,,,,,,,,,,,,,,,,,,,,,,,,,,,,,,,,,,,,,,,,,,,,,,,,,,,,,,,,,,,,
1769162267.495113,1769162267.495439,122.0,0.0,4317.179688,4285.384766,4370.0,4279.230957,4282.692383,4291.282227,4331.538574,4293.333496,4278.846191,4270.384766,4560.384766,4534.487305,4403.205078,4490.641113,,,,,,,,,,,,,,,,,,,,,,,,,,,,,,,,,,,,,,,,,,,,,,,,,,,,,,,,,,,,,,,,,,,,,,
1769162267.502921,1769162267.503247,123.0,0.0,4321.666504,4290.384766,4377.05127,4287.307617,4280.769043,4280.384766,4326.922852,4293.461426,4286.538574,4273.589844,4569.615234,4539.871582,4417.179688,4499.102539,,,,,,,,,,,,,,,,,,,,,,,,,,,,,,,,,,,,,,,,,,,,,,,,,,,,,,,,,,,,,,,,,,,,,,
1769162267.51073,1769162267.511256,124.0,0.0,4321.794922,4295.897461,4381.922852,4290.0,4280.0,4286.666504,4326.410156,4290.641113,4284.230957,4277.94873,4571.538574,4547.307617,4427.436035,4509.743652,,,,,,,,,,,,,,,,,,,,,,,,,,,,,,,,,,,,,,,,,,,,,,,,,,,,,,,,,,,,,,,,,,,,,,
1769162267.518538,1769162267.519064,125.0,0.0,4327.692383,4298.589844,4380.641113,4289.615234,4281.153809,4292.692383,4328.333496,4292.436035,4280.769043,4284.358887,4574.871582,4547.94873,4429.871582,4513.717773,,,,,,,,,,,,,,,,,,,,,,,,,,,,,,,,,,,,,,,,,,,,,,,,,,,,,,,,,,,,,,,,,,,,,,
1769162267.526347,1769162267.526972,126.0,0.0,4326.922852,4297.307617,4379.615234,4291.666504,4281.410156,4280.256348,4326.282227,4291.282227,4282.179688,4278.461426,4570.512695,4538.974121,4421.538574,4505.0,0.440881,0.424371,0.288303,0.300887,0.310039,0.284646,0.173425,0.163184,0.164932,0.184809,0.624262,0.280543,0.127101,0.319704,0.130326,0.434142,0.212652,0.108365,0.161627,0.18507,0.200569,0.232286,0.149555,0.080478,0.094396,0.085037,0.245594,0.313144,0.243128,0.1561,0.092977,0.075248,0.11418,0.135263,0.08436,0.255301,0.572825,0.332706,0.202803,0.311089,0.315565,0.319587,0.129996,0.132107,0.268745,0.345834,0.305142,0.31131,0.258947,0.25855,0.155658,0.285165,0.24075,0.154216,0.174967,0.429636,0.295608,0.168901,0.191508,0.239381,0.265155,0.267125,0.171253,0.133679,0.143732,0.751349,0.361638,0.301432,0.255114,0.204977
1769162267.534155,1769162267.534781,127.0,0.0,4326.410156,4294.871582,4379.487305,4291.794922,4280.897461,4275.384766,4319.615234,4280.641113,4274.358887,4265.897461,4558.077148,4533.461426,4413.461426,4499.487305,,,,,,,,,,,,,,,,,,,,,,,,,,,,,,,,,,,,,,,,,,,,,,,,,,,,,,,,,,,,,,,,,,,,,,
1769162267.541963,1769162267.542789,0.0,0.0,4336.282227,4300.897461,4385.641113,4293.077148,4279.487305,4279.743652,4318.589844,4275.384766,4271.922852,4266.538574,4559.615234,4542.436035,4416.282227,4505.512695,,,,,,,,,,,,,,,,,,,,,,,,,,,,,,,,,,,,,,,,,,,,,,,,,,,,,,,,,,,,,,,,,,,,,,
1769162267.549772,1769162267.550597,1.0,0.0,4339.871582,4305.256348,4393.205078,4296.538574,4281.025879,4279.871582,4324.743652,4281.025879,4278.461426,4269.615234,4570.641113,4552.436035,4421.794922,4510.256348,,,,,,,,,,,,,,,,,,,,,,,,,,,,,,,,,,,,,,,,,,,,,,,,,,,,,,,,,,,,,,,,,,,,,,
1769162267.557581,1769162267.558506,2.0,0.0,4337.94873,4298.333496,4391.666504,4294.743652,4287.05127,4286.410156,4329.230957,4280.128418,4272.179688,4263.717773,4570.384766,4551.282227,4423.205078,4511.153809,,,,,,,,,,,,,,,,,,,,,,,,,,,,,,,,,,,,,,,,,,,,,,,,,,,,,,,,,,,,,,,,,,,,,,
1769162267.565389,1769162267.566314,3.0,0.0,4335.512695,4292.563965,4390.128418,4292.563965,4291.025879,4292.307617,4327.307617,4277.563965,4268.205078,4266.153809,4566.922852,4547.307617,4424.871582,4509.871582,,,,,,,,,,,,,,,,,,,,,,,,,,,,,,,,,,,,,,,,,,,,,,,,,,,,,,,,,,,,,,,,,,,,,,
1769162267.573197,1769162267.574323,4.0,0.0,4330.897461,4296.410156,4396.282227,4295.256348,4291.153809,4289.102539,4326.922852,4288.205078,4279.358887,4278.846191,4570.384766,4552.05127,4427.94873,4510.128418,,,,,,,,,,,,,,,,,,,,,,,,,,,,,,,,,,,,,,,,,,,,,,,,,,,,,,,,,,,,,,,,,,,,,,
1769162267.581006,1769162267.582131,5.0,0.0,4327.179688,4298.461426,4399.487305,4290.641113,4287.307617,4285.897461,4328.589844,4297.436035,4284.871582,4278.717773,4573.974121,4559.743652,4422.05127,4511.922852,,,,,,,,,,,,,,,,,,,,,,,,,,,,,,,,,,,,,,,,,,,,,,,,,,,,,,,,,,,,,,,,,,,,,,
1769162267.588814,1769162267.58984,6.0,0.0,4326.410156,4292.436035,4393.589844,4281.666504,4280.769043,4281.922852,4328.461426,4292.307617,4278.974121,4266.794922,4567.179688,4550.769043,4413.461426,4507.436035,,,,,,,,,,,,,,,,,,,,,,,,,,,,,,,,,,,,,,,,,,,,,,,,,,,,,,,,,,,,,,,,,,,,,,
1769162267.596623,1769162267.597648,7.0,0.0,4329.358887,4288.589844,4390.641113,4282.820313,4279.230957,4279.615234,4327.307617,4281.922852,4273.589844,4262.692383,4556.025879,4540.256348,4410.769043,4505.384766,,,,,,,,,,,,,,,,,,,,,,,,,,,,,,,,,,,,,,,,,,,,,,,,,,,,,,,,,,,,,,,,,,,,,,
1769162267.604431,1769162267.605257,8.0,0.0,4337.307617,4293.589844,4398.589844,4292.692383,4282.307617,4282.05127,4325.897461,4275.384766,4269.358887,4263.077148,4560.128418,4543.974121,4413.077148,4515.128418,,,,,,,,,,,,,,,,,,,,,,,,,,,,,,,,,,,,,,,,,,,,,,,,,,,,,,,,,,,,,,,,,,,,,,
1769162267.61224,1769162267.613065,9.0,0.0,4340.0,4298.846191,4405.384766,4293.077148,4282.692383,4279.615234,4324.615234,4278.205078,4271.153809,4263.461426,4573.717773,4547.94873,4421.282227,4519.230957,,,,,,,,,,,,,,,,,,,,,,,,,,,,,,,,,,,,,,,,,,,,,,,,,,,,,,,,,,,,,,,,,,,,,,
1769162267.620048,1769162267.620774,10.0,0.0,4328.333496,4293.077148,4398.589844,4281.282227,4280.897461,4277.05127,4325.512695,4281.153809,4277.05127,4264.487305,4567.307617,4541.794922,4425.0,4507.436035,,,,,,,,,,,,,,,,,,,,,,,,,,,,,,,,,,,,,,,,,,,,,,,,,,,,,,,,,,,,,,,,,,,,,,
1769162267.627857,1769162267.628582,11.0,0.0,4321.025879,4288.077148,4396.410156,4275.641113,4281.666504,4281.538574,4329.102539,4280.769043,4274.102539,4262.563965,4554.230957,4537.307617,4418.205078,4501.794922,,,,,,,,,,,,,,,,,,,,,,,,,,,,,,,,,,,,,,,,,,,,,,,,,,,,,,,,,,,,,,,,,,,,,,
1769162267.635665,1769162267.63659,12.0,0.0,4329.230957,4290.641113,4408.589844,4283.717773,4281.922852,4277.94873,4322.05127,4279.743652,4267.436035,4259.871582,4552.94873,4537.692383,4411.794922,4506.025879,,,,,,,,,,,,,,,,,,,,,,,,,,,,,,,,,,,,,,,,,,,,,,,,,,,,,,,,,,,,,,,,,,,,,,
1769162267.643474,1769162267.644399,13.0,0.0,4336.025879,4292.179688,4414.358887,4291.153809,4280.641113,4272.307617,4310.384766,4276.282227,4263.333496,4258.077148,4546.794922,4535.256348,4411.410156,4503.589844,,,,,,,,,,,,,,,,,,,,,,,,,,,,,,,,,,,,,,,,,,,,,,,,,,,,,,,,,,,,,,,,,,,,,,
1769162267.651282,1769162267.652307,14.0,0.0,4332.307617,4292.436035,4415.641113,4287.436035,4282.05127,4277.692383,4315.384766,4276.025879,4262.563965,4253.589844,4538.846191,4536.410156,4410.256348,4495.897461,0.556945,0.396903,0.276718,0.365988,0.304417,0.345574,0.190951,0.161172,0.188842,0.179797,0.715674,0.288332,0.161063,0.424897,0.116763,0.447166,0.226496,0.138201,0.203127,0.185439,0.213377,0.211004,0.193438,0.086624,0.086029,0.087869,0.199542,0.249568,0.27996,0.162708,0.103064,0.099231,0.125877,0.161599,0.097166,0.293289,0.580754,0.293648,0.218589,0.285833,0.363673,0.285214,0.143091,0.150979,0.253433,0.389313,0.342811,0.444183,0.286804,0.234958,0.248624,0.275898,0.334441,0.192364,0.126965,0.43687,0.302005,0.185074,0.233176,0.225173,0.328801,0.242314,0.229827,0.162636,0.107586,0.905256,0.328893,0.416935,0.307957,0.168541
1769162267.65909,1769162267.660116,15.0,0.0,4327.436035,4291.666504,4421.410156,4283.846191,4285.256348,4284.358887,4326.666504,4279.102539,4262.820313,4249.871582,4544.358887,4538.974121,4411.666504,4493.333496,,,,,,,,,,,,,,,,,,,,,,,,,,,,,,,,,,,,,,,,,,,,,,,,,,,,,,,,,,,,,,,,,,,,,,
1769162267.666899,1769162267.667724,16.0,0.0,4327.05127,4286.025879,4425.0,4283.461426,4285.0,4281.922852,4327.820313,4277.179688,4263.205078,4251.410156,4545.769043,4536.538574,4411.794922,4491.794922,,,,,,,,,,,,,,,,,,,,,,,,,,,,,,,,,,,,,,,,,,,,,,,,,,,,,,,,,,,,,,,,,,,,,,
1769162267.674707,1769162267.675533,17.0,0.0,4325.128418,4278.589844,4424.230957,4279.615234,4280.769043,4277.692383,4324.230957,4274.487305,4262.436035,4249.230957,4539.615234,4535.512695,4405.0,4491.282227,,,,,,,,,,,,,,,,,,,,,,,,,,,,,,,,,,,,,,,,,,,,,,,,,,,,,,,,,,,,,,,,,,,,,,
1769162267.682516,1769162267.683241,18.0,0.0,4323.846191,4279.358887,4426.666504,4280.384766,4279.615234,4279.358887,4321.538574,4276.922852,4264.230957,4253.461426,4546.025879,4537.179688,4407.94873,4500.128418,,,,,,,,,,,,,,,,,,,,,,,,,,,,,,,,,,,,,,,,,,,,,,,,,,,,,,,,,,,,,,,,,,,,,,
1769162267.690324,1769162267.69105,19.0,0.0,4327.436035,4282.179688,4434.615234,4287.436035,4280.641113,4282.820313,4321.282227,4280.128418,4272.820313,4265.128418,4556.538574,4540.769043,4415.897461,4510.256348,,,,,,,,,,,,,,,,,,,,,,,,,,,,,,,,,,,,,,,,,,,,,,,,,,,,,,,,,,,,,,,,,,,,,,
1769162267.698133,1769162267.698658,20.0,0.0,4327.436035,4280.512695,4441.282227,4290.769043,4279.487305,4282.563965,4323.333496,4279.615234,4272.179688,4257.307617,4552.820313,4541.410156,4411.025879,4506.410156,,,,,,,,,,,,,,,,,,,,,,,,,,,,,,,,,,,,,,,,,,,,,,,,,,,,,,,,,,,,,,,,,,,,,,
1769162267.705941,1769162267.706467,21.0,0.0,4327.820313,4283.077148,4443.205078,4289.871582,4279.102539,4279.743652,4322.307617,4280.641113,4265.641113,4251.025879,4551.025879,4541.410156,4410.256348,4503.846191,,,,,,,,,,,,,,,,,,,,,,,,,,,,,,,,,,,,,,,,,,,,,,,,,,,,,,,,,,,,,,,,,,,,,,
1769162267.71375,1769162267.714375,22.0,0.0,4332.692383,4289.743652,4443.846191,4292.692383,4279.871582,4280.769043,4320.384766,4282.05127,4267.05127,4263.461426,4555.641113,4541.922852,4417.307617,4509.615234,,,,,,,,,,,,,,,,,,,,,,,,,,,,,,,,,,,,,,,,,,,,,,,,,,,,,,,,,,,,,,,,,,,,,,
1769162267.721558,1769162267.722184,23.0,0.0,4333.974121,4288.974121,4446.666504,4296.538574,4280.897461,4280.897461,4321.153809,4276.922852,4263.974121,4260.641113,4552.179688,4538.717773,4413.846191,4508.846191,,,,,,,,,,,,,,,,,,,,,,,,,,,,,,,,,,,,,,,,,,,,,,,,,,,,,,,,,,,,,,,,,,,,,,
1769162267.729366,1769162267.730192,24.0,0.0,4333.717773,4285.0,4450.897461,4296.794922,4279.615234,4276.282227,4318.974121,4279.871582,4264.487305,4251.153809,4555.384766,4540.897461,4415.769043,4506.025879,,,,,,,,,,,,,,,,,,,,,,,,,,,,,,,,,,,,,,,,,,,,,,,,,,,,,,,,,,,,,,,,,,,,,,
1769162267.737175,1769162267.738,25.0,0.0,4338.077148,4286.410156,4457.692383,4295.256348,4277.436035,4276.410156,4318.717773,4289.615234,4275.641113,4261.153809,4567.05127,4550.769043,4427.436035,4508.717773,,,,,,,,,,,,,,,,,,,,,,,,,,,,,,,,,,,,,,,,,,,,,,,,,,,,,,,,,,,,,,,,,,,,,,
1769162267.744983,1769162267.745909,26.0,0.0,4338.333496,4286.282227,4462.179688,4295.384766,4278.589844,4281.410156,4323.974121,4286.794922,4273.974121,4267.05127,4567.692383,4555.256348,4427.179688,4510.0,,,,,,,,,,,,,,,,,,,,,,,,,,,,,,,,,,,,,,,,,,,,,,,,,,,,,,,,,,,,,,,,,,,,,,
1769162267.752792,1769162267.753717,27.0,0.0,4326.282227,4277.820313,4460.897461,4292.179688,4279.487305,4282.307617,4327.179688,4283.846191,4271.410156,4262.94873,4567.820313,4553.461426,4424.615234,4509.358887,,,,,,,,,,,,,,,,,,,,,,,,,,,,,,,,,,,,,,,,,,,,,,,,,,,,,,,,,,,,,,,,,,,,,,
1769162267.7606,1769162267.761725,28.0,0.0,4321.538574,4276.666504,4460.641113,4290.769043,4279.102539,4277.179688,4325.384766,4286.922852,4278.461426,4266.794922,4573.077148,4552.692383,4425.0,4504.487305,,,,,,,,,,,,,,,,,,,,,,,,,,,,,,,,,,,,,,,,,,,,,,,,,,,,,,,,,,,,,,,,,,,,,,
1769162267.768409,1769162267.769534,29.0,0.0,4335.128418,4290.512695,4460.384766,4299.487305,4278.589844,4275.384766,4321.410156,4280.384766,4271.025879,4266.794922,4567.436035,4550.897461,4415.128418,4499.230957,,,,,,,,,,,,,,,,,,,,,,,,,,,,,,,,,,,,,,,,,,,,,,,,,,,,,,,,,,,,,,,,,,,,,,
1769162267.776217,1769162267.777242,30.0,0.0,4346.153809,4299.743652,4460.641113,4302.820313,4278.846191,4280.128418,4321.666504,4272.820313,4260.897461,4263.461426,4563.205078,4546.794922,4414.230957,4505.769043,0.719028,0.400155,0.282746,0.41866,0.276129,0.406524,0.206003,0.157999,0.205963,0.170175,0.817377,0.306069,0.217991,0.502415,0.099007,0.457103,0.236608,0.167076,0.232825,0.171824,0.220267,0.187206,0.228976,0.090731,0.078361,0.094078,0.158422,0.204274,0.305372,0.169088,0.109553,0.128657,0.137925,0.177918,0.111993,0.33768,0.558719,0.250149,0.230527,0.276859,0.435383,0.258617,0.161753,0.163903,0.233508,0.434731,0.375278,0.582112,0.315612,0.213225,0.359291,0.272341,0.450325,0.239976,0.097178,0.457334,0.305643,0.225547,0.273408,0.207469,0.425068,0.226414,0.296414,0.199743,0.083256,1.05845,0.313482,0.596257,0.370716,0.148977
1769162267.784026,1769162267.785051,31.0,0.0,4342.307617,4294.743652,4463.205078,4299.358887,4277.307617,4279.615234,4323.205078,4277.436035,4267.692383,4267.307617,4569.487305,4543.974121,4429.615234,4515.769043,,,,,,,,,,,,,,,,,,,,,,,,,,,,,,,,,,,,,,,,,,,,,,,,,,,,,,,,,,,,,,,,,,,,,,
1769162267.791834,1769162267.792759,32.0,0.0,4337.05127,4289.871582,4459.871582,4301.025879,4275.128418,4272.179688,4320.128418,4280.769043,4273.846191,4267.692383,4567.94873,4538.717773,4430.0,4511.153809,,,,,,,,,,,,,,,,,,,,,,,,,,,,,,,,,,,,,,,,,,,,,,,,,,,,,,,,,,,,,,,,,,,,,,
1769162267.799642,1769162267.800568,33.0,0.0,4338.461426,4296.153809,4460.641113,4306.153809,4277.820313,4276.794922,4317.436035,4276.922852,4274.230957,4263.846191,4565.256348,4537.05127,4422.94873,4502.94873,,,,,,,,,,,,,,,,,,,,,,,,,,,,,,,,,,,,,,,,,,,,,,,,,,,,,,,,,,,,,,,,,,,,,,
1769162267.807451,1769162267.808276,34.0,0.0,4340.0,4306.794922,4472.563965,4309.230957,4281.666504,4287.307617,4318.077148,4279.871582,4277.820313,4266.025879,4571.025879,4545.769043,4427.05127,4504.743652,,,,,,,,,,,,,,,,,,,,,,,,,,,,,,,,,,,,,,,,,,,,,,,,,,,,,,,,,,,,,,,,,,,,,,
1769162267.815259,1769162267.816085,35.0,0.0,4337.436035,4303.333496,4473.974121,4305.256348,4278.846191,4284.102539,4320.641113,4284.615234,4278.717773,4270.897461,4570.0,4551.282227,4425.128418,4506.410156,,,,,,,,,,,,,,,,,,,,,,,,,,,,,,,,,,,,,,,,,,,,,,,,,,,,,,,,,,,,,,,,,,,,,,
1769162267.823068,1769162267.823693,36.0,0.0,4337.436035,4294.743652,4467.692383,4302.436035,4276.025879,4283.077148,4325.128418,4284.871582,4277.179688,4274.358887,4566.922852,4549.358887,4421.922852,4506.025879,,,,,,,,,,,,,,,,,,,,,,,,,,,,,,,,,,,,,,,,,,,,,,,,,,,,,,,,,,,,,,,,,,,,,,
1769162267.830876,1769162267.831502,37.0,0.0,4343.846191,4301.666504,4472.179688,4308.077148,4279.871582,4292.05127,4327.692383,4285.641113,4277.307617,4277.94873,4572.05127,4550.256348,4427.179688,4506.666504,,,,,,,,,,,,,,,,,,,,,,,,,,,,,,,,,,,,,,,,,,,,,,,,,,,,,,,,,,,,,,,,,,,,,,
1769162267.838685,1769162267.83921,38.0,0.0,4349.487305,4312.307617,4481.025879,4314.743652,4281.794922,4291.410156,4325.512695,4293.077148,4283.461426,4277.692383,4574.871582,4555.128418,4428.205078,4508.974121,,,,,,,,,,,,,,,,,,,,,,,,,,,,,,,,,,,,,,,,,,,,,,,,,,,,,,,,,,,,,,,,,,,,,,
1769162267.846493,1769162267.847019,39.0,0.0,4355.641113,4311.538574,4487.05127,4316.410156,4280.512695,4283.077148,4326.025879,4298.077148,4288.205078,4276.410156,4575.0,4556.666504,4432.94873,4516.666504,,,,,,,,,,,,,,,,,,,,,,,,,,,,,,,,,,,,,,,,,,,,,,,,,,,,,,,,,,,,,,,,,,,,,,
1769162267.854302,1769162267.855027,40.0,0.0,4360.256348,4311.794922,4492.820313,4322.436035,4281.794922,4278.333496,4327.05127,4291.922852,4281.794922,4279.871582,4580.384766,4556.025879,4444.743652,4524.871582,,,,,,,,,,,,,,,,,,,,,,,,,,,,,,,,,,,,,,,,,,,,,,,,,,,,,,,,,,,,,,,,,,,,,,
1769162267.86211,1769162267.862835,41.0,0.0,4352.692383,4314.743652,4492.563965,4324.487305,4282.94873,4281.025879,4326.025879,4293.461426,4279.487305,4282.692383,4581.794922,4557.179688,4441.794922,4519.743652,,,,,,,,,,,,,,,,,,,,,,,,,,,,,,,,,,,,,,,,,,,,,,,,,,,,,,,,,,,,,,,,,,,,,,
1769162267.869918,1769162267.870544,42.0,0.0,4341.153809,4312.307617,4488.589844,4315.769043,4282.820313,4291.538574,4328.974121,4299.743652,4280.769043,4279.102539,4573.846191,4552.820313,4427.307617,4507.563965,,,,,,,,,,,,,,,,,,,,,,,,,,,,,,,,,,,,,,,,,,,,,,,,,,,,,,,,,,,,,,,,,,,,,,
1769162267.877727,1769162267.878352,43.0,0.0,4341.153809,4308.333496,4489.230957,4311.282227,4282.179688,4292.692383,4328.077148,4289.230957,4269.358887,4273.205078,4567.820313,4543.589844,4425.384766,4503.846191,,,,,,,,,,,,,,,,,,,,,,,,,,,,,,,,,,,,,,,,,,,,,,,,,,,,,,,,,,,,,,,,,,,,,,
1769162267.885535,1769162267.885961,44.0,0.0,4344.871582,4307.179688,4489.358887,4312.179688,4279.230957,4281.538574,4323.205078,4279.871582,4262.436035,4268.717773,4568.974121,4538.974121,4429.743652,4505.641113,,,,,,,,,,,,,,,,,,,,,,,,,,,,,,,,,,,,,,,,,,,,,,,,,,,,,,,,,,,,,,,,,,,,,,
1769162267.893344,1769162267.89377,45.0,0.0,4341.538574,4305.256348,4488.461426,4311.025879,4276.666504,4278.461426,4323.205078,4287.307617,4271.410156,4262.307617,4567.692383,4539.487305,4420.897461,4502.820313,,,,,,,,,,,,,,,,,,,,,,,,,,,,,,,,,,,,,,,,,,,,,,,,,,,,,,,,,,,,,,,,,,,,,,
1769162267.901152,1769162267.901678,46.0,0.0,4340.128418,4301.410156,4488.974121,4308.974121,4274.615234,4281.666504,4321.410156,4295.128418,4277.94873,4265.0,4565.128418,4544.871582,4410.0,4500.641113,0.897961,0.439599,0.315794,0.448926,0.233824,0.452493,0.220763,0.158481,0.214245,0.158733,0.908489,0.329497,0.302424,0.531505,0.082336,0.466708,0.242383,0.195679,0.244357,0.149709,0.218723,0.164998,0.244129,0.090875,0.070416,0.098168,0.148088,0.179319,0.314254,0.17246,0.11619,0.161817,0.145236,0.178133,0.124996,0.376878,0.526389,0.21775,0.237238,0.280867,0.514162,0.251968,0.178789,0.168151,0.2125,0.478203,0.392508,0.683935,0.34375,0.197539,0.474036,0.267101,0.546539,0.292006,0.089288,0.503239,0.298746,0.277314,0.301893,0.189568,0.545118,0.220624,0.350564,0.249002,0.073459,1.196384,0.310992,0.793273,0.432939,0.148051
1769162267.908961,1769162267.909486,47.0,0.0,4343.077148,4298.461426,4490.897461,4309.871582,4271.922852,4283.333496,4318.333496,4295.769043,4280.0,4275.512695,4570.512695,4554.615234,4418.717773,4506.410156,,,,,,,,,,,,,,,,,,,,,,,,,,,,,,,,,,,,,,,,,,,,,,,,,,,,,,,,,,,,,,,,,,,,,,
1769162267.916769,1769162267.917495,48.0,0.0,4344.102539,4297.820313,4492.436035,4313.974121,4272.05127,4283.846191,4320.384766,4293.077148,4280.512695,4275.769043,4573.717773,4552.94873,4427.692383,4505.897461,,,,,,,,,,,,,,,,,,,,,,,,,,,,,,,,,,,,,,,,,,,,,,,,,,,,,,,,,,,,,,,,,,,,,,
1769162267.924578,1769162267.925303,49.0,0.0,4341.025879,4294.230957,4491.025879,4311.922852,4274.102539,4287.563965,4324.871582,4284.871582,4274.615234,4262.820313,4563.205078,4539.871582,4413.589844,4495.256348,,,,,,,,,,,,,,,,,,,,,,,,,,,,,,,,,,,,,,,,,,,,,,,,,,,,,,,,,,,,,,,,,,,,,,
1769162267.932386,1769162267.933211,50.0,0.0,4339.358887,4292.307617,4491.666504,4311.538574,4275.897461,4287.563965,4323.333496,4282.05127,4272.05127,4260.256348,4561.153809,4542.563965,4408.589844,4496.410156,,,,,,,,,,,,,,,,,,,,,,,,,,,,,,,,,,,,,,,,,,,,,,,,,,,,,,,,,,,,,,,,,,,,,,
1769162267.940194,1769162267.94102,51.0,0.0,4345.256348,4299.615234,4494.615234,4320.256348,4278.974121,4282.563965,4321.025879,4290.897461,4279.358887,4275.512695,4577.179688,4556.666504,4426.794922,4510.897461,,,,,,,,,,,,,,,,,,,,,,,,,,,,,,,,,,,,,,,,,,,,,,,,,,,,,,,,,,,,,,,,,,,,,,
1769162267.948003,1769162267.949028,52.0,0.0,4351.025879,4306.025879,4493.846191,4326.282227,4280.769043,4284.487305,4320.769043,4291.025879,4281.153809,4282.307617,4585.769043,4554.487305,4434.230957,4515.128418,,,,,,,,,,,,,,,,,,,,,,,,,,,,,,,,,,,,,,,,,,,,,,,,,,,,,,,,,,,,,,,,,,,,,,
1769162267.955811,1769162267.956837,53.0,0.0,4349.871582,4306.922852,4492.692383,4326.410156,4281.410156,4291.153809,4318.846191,4280.256348,4274.615234,4278.333496,4579.487305,4545.0,4428.846191,4508.974121,,,,,,,,,,,,,,,,,,,,,,,,,,,,,,,,,,,,,,,,,,,,,,,,,,,,,,,,,,,,,,,,,,,,,,
1769162267.96362,1769162267.964745,54.0,0.0,4344.871582,4305.512695,4494.743652,4325.256348,4282.179688,4287.05127,4317.94873,4279.615234,4273.717773,4276.794922,4573.333496,4545.256348,4428.205078,4506.794922,,,,,,,,,,,,,,,,,,,,,,,,,,,,,,,,,,,,,,,,,,,,,,,,,,,,,,,,,,,,,,,,,,,,,,
1769162267.971428,1769162267.972553,55.0,0.0,4341.153809,4298.461426,4494.102539,4323.205078,4278.205078,4275.0,4318.461426,4286.153809,4277.94873,4272.307617,4572.05127,4548.333496,4427.05127,4508.589844,,,,,,,,,,,,,,,,,,,,,,,,,,,,,,,,,,,,,,,,,,,,,,,,,,,,,,,,,,,,,,,,,,,,,,
1769162267.979237,1769162267.980162,56.0,0.0,4344.743652,4296.282227,4492.820313,4322.179688,4275.0,4277.307617,4321.025879,4286.153809,4279.230957,4258.846191,4571.922852,4549.743652,4426.794922,4511.153809,,,,,,,,,,,,,,,,,,,,,,,,,,,,,,,,,,,,,,,,,,,,,,,,,,,,,,,,,,,,,,,,,,,,,,
1769162267.987045,1769162267.98797,57.0,0.0,4349.487305,4300.384766,4498.461426,4322.436035,4277.563965,4289.871582,4324.230957,4284.358887,4277.820313,4259.615234,4570.384766,4551.282227,4424.487305,4509.102539,,,,,,,,,,,,,,,,,,,,,,,,,,,,,,,,,,,,,,,,,,,,,,,,,,,,,,,,,,,,,,,,,,,,,,
1769162267.994854,1769162267.995679,58.0,0.0,4347.05127,4301.538574,4505.512695,4323.717773,4278.461426,4292.692383,4324.615234,4288.974121,4278.205078,4274.615234,4568.205078,4551.538574,4417.05127,4504.743652,,,,,,,,,,,,,,,,,,,,,,,,,,,,,,,,,,,,,,,,,,,,,,,,,,,,,,,,,,,,,,,,,,,,,,
1769162268.002662,1769162268.003487,59.0,0.0,4341.922852,4297.820313,4505.512695,4326.153809,4276.410156,4283.333496,4325.384766,4295.0,4278.974121,4270.384766,4568.077148,4550.256348,4412.94873,4505.769043,,,,,,,,,,,,,,,,,,,,,,,,,,,,,,,,,,,,,,,,,,,,,,,,,,,,,,,,,,,,,,,,,,,,,,
1769162268.010471,1769162268.011096,60.0,0.0,4342.692383,4294.487305,4502.820313,4327.820313,4278.077148,4278.974121,4325.256348,4289.487305,4277.820313,4261.538574,4570.641113,4546.922852,4415.769043,4508.333496,,,,,,,,,,,,,,,,,,,,,,,,,,,,,,,,,,,,,,,,,,,,,,,,,,,,,,,,,,,,,,,,,,,,,,
1769162268.018279,1769162268.018904,61.0,0.0,4350.897461,4298.333496,4505.128418,4330.641113,4279.615234,4287.179688,4319.358887,4283.461426,4278.077148,4271.666504,4570.256348,4548.205078,4423.717773,4509.743652,,,,,,,,,,,,,,,,,,,,,,,,,,,,,,,,,,,,,,,,,,,,,,,,,,,,,,,,,,,,,,,,,,,,,,
1769162268.026087,1769162268.026813,62.0,0.0,4352.179688,4307.692383,4508.846191,4340.384766,4277.692383,4292.179688,4317.820313,4290.641113,4280.384766,4284.743652,4569.871582,4553.717773,4431.410156,4511.025879,1.057726,0.508769,0.374678,0.45583,0.189929,0.484429,0.238823,0.168788,0.213191,0.148504,1.011016,0.352208,0.403925,0.507459,0.071545,0.48393,0.246295,0.226748,0.237308,0.126877,0.213203,0.146119,0.233434,0.086823,0.06096,0.100039,0.182002,0.170365,0.307423,0.170945,0.117939,0.197044,0.142861,0.162856,0.132754,0.396344,0.508986,0.205283,0.240482,0.28721,0.571236,0.27283,0.188149,0.166965,0.191835,0.511864,0.386991,0.721329,0.370397,0.188176,0.596373,0.255432,0.588121,0.344632,0.099207,0.586077,0.281362,0.323274,0.313235,0.174104,0.669766,0.2273,0.374763,0.313936,0.075585,1.30276,0.313399,0.952898,0.483831,0.159409
1769162268.033896,1769162268.034621,63.0,0.0,4344.102539,4305.769043,4507.692383,4344.230957,4277.94873,4290.0,4324.102539,4296.282227,4279.871582,4279.743652,4571.153809,4551.538574,4430.769043,4508.589844,,,,,,,,,,,,,,,,,,,,,,,,,,,,,,,,,,,,,,,,,,,,,,,,,,,,,,,,,,,,,,,,,,,,,,
1769162268.041704,1769162268.04263,64.0,0.0,4341.794922,4294.871582,4504.487305,4337.179688,4278.461426,4288.589844,4320.256348,4294.743652,4277.179688,4265.384766,4571.410156,4546.410156,4427.179688,4504.615234,,,,,,,,,,,,,,,,,,,,,,,,,,,,,,,,,,,,,,,,,,,,,,,,,,,,,,,,,,,,,,,,,,,,,,
1769162268.049513,1769162268.050438,65.0,0.0,4351.282227,4300.128418,4506.410156,4337.179688,4277.820313,4288.846191,4311.794922,4295.897461,4281.153809,4263.205078,4572.94873,4551.538574,4430.769043,4506.025879,,,,,,,,,,,,,,,,,,,,,,,,,,,,,,,,,,,,,,,,,,,,,,,,,,,,,,,,,,,,,,,,,,,,,,
1769162268.057321,1769162268.058346,66.0,0.0,4355.384766,4306.282227,4508.589844,4342.436035,4278.077148,4289.743652,4317.563965,4297.94873,4289.358887,4275.0,4573.846191,4556.153809,4432.436035,4508.846191,,,,,,,,,,,,,,,,,,,,,,,,,,,,,,,,,,,,,,,,,,,,,,,,,,,,,,,,,,,,,,,,,,,,,,
1769162268.06513,1769162268.066155,67.0,0.0,4349.487305,4297.436035,4509.358887,4341.410156,4275.641113,4288.333496,4322.692383,4293.333496,4286.922852,4281.282227,4571.794922,4550.769043,4427.820313,4508.974121,,,,,,,,,,,,,,,,,,,,,,,,,,,,,,,,,,,,,,,,,,,,,,,,,,,,,,,,,,,,,,,,,,,,,,
1769162268.072938,1769162268.073763,68.0,0.0,4350.512695,4298.333496,4516.153809,4340.897461,4274.230957,4287.307617,4320.0,4292.436035,4278.077148,4277.436035,4571.410156,4550.641113,4428.077148,4510.0,,,,,,,,,,,,,,,,,,,,,,,,,,,,,,,,,,,,,,,,,,,,,,,,,,,,,,,,,,,,,,,,,,,,,,
1769162268.080747,1769162268.081572,69.0,0.0,4356.922852,4305.897461,4523.974121,4345.384766,4276.922852,4289.871582,4318.846191,4295.897461,4279.102539,4277.307617,4573.205078,4554.487305,4430.384766,4510.769043,,,,,,,,,,,,,,,,,,,,,,,,,,,,,,,,,,,,,,,,,,,,,,,,,,,,,,,,,,,,,,,,,,,,,,
1769162268.088555,1769162268.08928,70.0,0.0,4359.230957,4303.717773,4524.871582,4352.179688,4277.820313,4292.563965,4314.102539,4295.0,4283.205078,4270.897461,4572.820313,4556.410156,4428.974121,4509.230957,,,,,,,,,,,,,,,,,,,,,,,,,,,,,,,,,,,,,,,,,,,,,,,,,,,,,,,,,,,,,,,,,,,,,,
1769162268.096364,1769162268.097089,71.0,0.0,4358.589844,4303.205078,4524.358887,4354.358887,4275.512695,4288.461426,4311.282227,4293.333496,4280.897461,4266.282227,4571.025879,4561.538574,4429.102539,4509.615234,,,,,,,,,,,,,,,,,,,,,,,,,,,,,,,,,,,,,,,,,,,,,,,,,,,,,,,,,,,,,,,,,,,,,,
1769162268.104172,1769162268.105097,72.0,0.0,4358.846191,4307.436035,4526.153809,4348.461426,4274.102539,4282.179688,4312.820313,4294.871582,4280.641113,4276.410156,4572.436035,4561.666504,4430.897461,4511.666504,,,,,,,,,,,,,,,,,,,,,,,,,,,,,,,,,,,,,,,,,,,,,,,,,,,,,,,,,,,,,,,,,,,,,,
1769162268.111981,1769162268.112906,73.0,0.0,4360.0,4303.846191,4525.128418,4346.025879,4274.230957,4288.205078,4311.794922,4291.794922,4275.384766,4274.743652,4573.461426,4553.461426,4424.615234,4508.717773,,,,,,,,,,,,,,,,,,,,,,,,,,,,,,,,,,,,,,,,,,,,,,,,,,,,,,,,,,,,,,,,,,,,,,
1769162268.119789,1769162268.120814,74.0,0.0,4356.794922,4296.666504,4522.94873,4350.769043,4278.461426,4295.897461,4313.077148,4281.922852,4265.384766,4258.717773,4565.128418,4550.641113,4413.461426,4499.615234,,,,,,,,,,,,,,,,,,,,,,,,,,,,,,,,,,,,,,,,,,,,,,,,,,,,,,,,,,,,,,,,,,,,,,
1769162268.127597,1769162268.128622,75.0,0.0,4353.333496,4294.230957,4524.102539,4350.384766,4279.615234,4288.461426,4315.384766,4283.461426,4270.128418,4261.153809,4556.666504,4554.615234,4409.230957,4490.0,,,,,,,,,,,,,,,,,,,,,,,,,,,,,,,,,,,,,,,,,,,,,,,,,,,,,,,,,,,,,,,,,,,,,,
1769162268.135406,1769162268.136631,76.0,0.0,4353.205078,4293.205078,4524.230957,4345.897461,4270.128418,4276.282227,4312.179688,4294.102539,4281.153809,4274.743652,4557.692383,4554.487305,4414.871582,4489.615234,,,,,,,,,,,,,,,,,,,,,,,,,,,,,,,,,,,,,,,,,,,,,,,,,,,,,,,,,,,,,,,,,,,,,,
1769162268.143214,1769162268.144439,77.0,0.0,4356.025879,4295.512695,4524.102539,4348.717773,4264.743652,4276.025879,4309.871582,4292.563965,4279.615234,4277.692383,4567.820313,4552.563965,4424.230957,4500.512695,,,,,,,,,,,,,,,,,,,,,,,,,,,,,,,,,,,,,,,,,,,,,,,,,,,,,,,,,,,,,,,,,,,,,,
1769162268.151023,1769162268.152347,78.0,0.0,4362.692383,4303.974121,4528.974121,4358.077148,4274.102539,4285.0,4314.358887,4290.128418,4276.282227,4278.205078,4579.102539,4555.0,4429.871582,4510.512695,1.155989,0.587698,0.449909,0.446881,0.155377,0.512005,0.260096,0.194267,0.204092,0.142079,1.097431,0.367492,0.497102,0.44183,0.068627,0.514009,0.252457,0.264419,0.217199,0.109663,0.205814,0.131534,0.200805,0.079888,0.049782,0.099248,0.25323,0.170244,0.290568,0.164761,0.116438,0.231151,0.13101,0.138991,0.133153,0.390265,0.521252,0.211276,0.244007,0.28551,0.583531,0.319218,0.187015,0.167487,0.171873,0.526734,0.362441,0.688277,0.393846,0.183054,0.734589,0.242389,0.562212,0.393517,0.119265,0.703481,0.266936,0.350214,0.309658,0.162277,0.768343,0.254465,0.361882,0.392528,0.085687,1.368349,0.317917,1.031775,0.515177,0.173195
1769162268.158831,1769162268.160156,79.0,0.0,4370.256348,4314.230957,4532.820313,4363.589844,4281.410156,4289.102539,4314.615234,4295.897461,4279.487305,4277.692383,4581.922852,4558.205078,4430.769043,4511.794922,,,,,,,,,,,,,,,,,,,,,,,,,,,,,,,,,,,,,,,,,,,,,,,,,,,,,,,,,,,,,,,,,,,,,,
1769162268.16664,1769162268.167764,80.0,0.0,4367.563965,4310.897461,4527.436035,4360.512695,4277.692383,4284.487305,4310.128418,4291.922852,4280.769043,4276.794922,4575.641113,4558.205078,4431.025879,4509.615234,,,,,,,,,,,,,,,,,,,,,,,,,,,,,,,,,,,,,,,,,,,,,,,,,,,,,,,,,,,,,,,,,,,,,,
1769162268.174448,1769162268.175573,81.0,0.0,4358.846191,4302.94873,4523.461426,4354.743652,4278.846191,4276.666504,4308.077148,4277.179688,4275.641113,4273.974121,4570.256348,4553.846191,4430.769043,4508.717773,,,,,,,,,,,,,,,,,,,,,,,,,,,,,,,,,,,,,,,,,,,,,,,,,,,,,,,,,,,,,,,,,,,,,,
1769162268.182257,1769162268.183281,82.0,0.0,4357.563965,4305.0,4526.282227,4357.307617,4286.538574,4279.358887,4309.487305,4275.512695,4272.94873,4270.128418,4572.94873,4550.384766,4429.102539,4507.179688,,,,,,,,,,,,,,,,,,,,,,,,,,,,,,,,,,,,,,,,,,,,,,,,,,,,,,,,,,,,,,,,,,,,,,
1769162268.190065,1769162268.19109,83.0,0.0,4357.436035,4304.871582,4525.769043,4359.871582,4286.282227,4286.794922,4310.641113,4287.436035,4278.589844,4270.897461,4574.230957,4552.05127,4428.974121,4507.94873,,,,,,,,,,,,,,,,,,,,,,,,,,,,,,,,,,,,,,,,,,,,,,,,,,,,,,,,,,,,,,,,,,,,,,
1769162268.197873,1769162268.198699,84.0,0.0,4355.512695,4302.05127,4523.589844,4357.436035,4280.769043,4286.922852,4311.025879,4288.205078,4277.94873,4270.897461,4571.410156,4555.128418,4429.871582,4509.230957,,,,,,,,,,,,,,,,,,,,,,,,,,,,,,,,,,,,,,,,,,,,,,,,,,,,,,,,,,,,,,,,,,,,,,
1769162268.205682,1769162268.206507,85.0,0.0,4355.512695,4301.538574,4524.487305,4357.692383,4279.487305,4281.410156,4310.512695,4277.563965,4271.282227,4265.0,4570.641113,4553.589844,4428.333496,4507.05127,,,,,,,,,,,,,,,,,,,,,,,,,,,,,,,,,,,,,,,,,,,,,,,,,,,,,,,,,,,,,,,,,,,,,,
1769162268.21349,1769162268.214216,86.0,0.0,4353.333496,4299.230957,4524.615234,4358.589844,4279.615234,4276.410156,4310.0,4284.487305,4280.641113,4264.358887,4571.666504,4552.05127,4428.974121,4508.077148,,,,,,,,,,,,,,,,,,,,,,,,,,,,,,,,,,,,,,,,,,,,,,,,,,,,,,,,,,,,,,,,,,,,,,
1769162268.221299,1769162268.222024,87.0,0.0,4355.128418,4300.128418,4524.487305,4358.974121,4278.846191,4281.282227,4315.0,4298.846191,4289.615234,4275.897461,4574.358887,4557.179688,4433.461426,4510.897461,,,,,,,,,,,,,,,,,,,,,,,,,,,,,,,,,,,,,,,,,,,,,,,,,,,,,,,,,,,,,,,,,,,,,,
1769162268.229107,1769162268.229633,88.0,0.0,4356.410156,4305.384766,4524.358887,4359.230957,4280.256348,4291.153809,4320.0,4290.256348,4279.487305,4277.820313,4572.692383,4553.333496,4432.179688,4508.717773,,,,,,,,,,,,,,,,,,,,,,,,,,,,,,,,,,,,,,,,,,,,,,,,,,,,,,,,,,,,,,,,,,,,,,
1769162268.236916,1769162268.237441,89.0,0.0,4350.0,4301.666504,4524.230957,4358.205078,4280.0,4292.563965,4315.641113,4276.282227,4274.230957,4269.615234,4569.230957,4542.436035,4427.179688,4505.256348,,,,,,,,,,,,,,,,,,,,,,,,,,,,,,,,,,,,,,,,,,,,,,,,,,,,,,,,,,,,,,,,,,,,,,
1769162268.244724,1769162268.245349,90.0,0.0,4350.512695,4293.974121,4525.128418,4356.666504,4278.974121,4284.871582,4310.256348,4280.897461,4280.641113,4268.333496,4568.846191,4541.410156,4428.589844,4502.94873,,,,,,,,,,,,,,,,,,,,,,,,,,,,,,,,,,,,,,,,,,,,,,,,,,,,,,,,,,,,,,,,,,,,,,
1769162268.252533,1769162268.253158,91.0,0.0,4358.205078,4294.487305,4524.102539,4356.538574,4279.871582,4279.230957,4311.025879,4286.666504,4280.256348,4268.205078,4570.641113,4544.871582,4429.743652,4498.077148,,,,,,,,,,,,,,,,,,,,,,,,,,,,,,,,,,,,,,,,,,,,,,,,,,,,,,,,,,,,,,,,,,,,,,
1769162268.260341,1769162268.261166,92.0,0.0,4359.358887,4298.461426,4525.256348,4359.871582,4280.256348,4279.743652,4307.820313,4279.487305,4276.025879,4265.128418,4570.384766,4545.897461,4426.282227,4498.461426,,,,,,,,,,,,,,,,,,,,,,,,,,,,,,,,,,,,,,,,,,,,,,,,,,,,,,,,,,,,,,,,,,,,,,
1769162268.26815,1769162268.268975,93.0,0.0,4361.410156,4300.897461,4530.0,4364.102539,4280.384766,4279.743652,4302.820313,4279.102539,4277.436035,4265.897461,4571.282227,4548.461426,4430.128418,4505.128418,,,,,,,,,,,,,,,,,,,,,,,,,,,,,,,,,,,,,,,,,,,,,,,,,,,,,,,,,,,,,,,,,,,,,,
1769162268.275958,1769162268.276683,94.0,0.0,4365.384766,4296.410156,4528.333496,4366.538574,4280.897461,4282.692383,4304.487305,4291.922852,4282.436035,4273.077148,4575.0,4555.0,4436.794922,4507.05127,1.174338,0.647207,0.520418,0.431403,0.135529,0.55103,0.283515,0.236666,0.18953,0.140827,1.160116,0.367942,0.551614,0.355719,0.07229,0.552418,0.265248,0.307434,0.192735,0.100463,0.198499,0.124223,0.158701,0.071996,0.038292,0.099598,0.337478,0.169155,0.270886,0.156759,0.114712,0.259962,0.115003,0.115814,0.126363,0.371303,0.560589,0.227145,0.249424,0.270808,0.545786,0.377654,0.179009,0.17619,0.153815,0.519167,0.335563,0.606527,0.412488,0.181542,0.891004,0.242207,0.486077,0.4331,0.142503,0.829804,0.273246,0.354113,0.298451,0.155009,0.818515,0.314459,0.322688,0.474332,0.102364,1.386694,0.327048,1.020357,0.524072,0.182149
1769162268.283766,1769162268.284492,95.0,0.0,4361.922852,4293.974121,4523.077148,4366.282227,4280.897461,4285.641113,4306.282227,4290.897461,4280.769043,4276.538574,4573.077148,4555.0,4434.230957,4506.410156,,,,,,,,,,,,,,,,,,,,,,,,,,,,,,,,,,,,,,,,,,,,,,,,,,,,,,,,,,,,,,,,,,,,,,
1769162268.291575,1769162268.2921,96.0,0.0,4356.922852,4293.205078,4523.205078,4362.05127,4278.589844,4282.820313,4306.666504,4276.538574,4272.436035,4270.256348,4567.692383,4545.256348,4428.205078,4502.307617,,,,,,,,,,,,,,,,,,,,,,,,,,,,,,,,,,,,,,,,,,,,,,,,,,,,,,,,,,,,,,,,,,,,,,
1769162268.299383,1769162268.299909,97.0,0.0,4354.487305,4285.384766,4523.717773,4355.256348,4276.153809,4280.641113,4308.461426,4277.94873,4272.563965,4261.538574,4567.563965,4538.589844,4426.025879,4497.820313,,,,,,,,,,,,,,,,,,,,,,,,,,,,,,,,,,,,,,,,,,,,,,,,,,,,,,,,,,,,,,,,,,,,,,
1769162268.307192,1769162268.307817,98.0,0.0,4358.333496,4284.102539,4522.94873,4357.94873,4277.692383,4282.436035,4309.487305,4283.974121,4272.05127,4263.974121,4568.589844,4540.0,4427.179688,4502.179688,,,,,,,,,,,,,,,,,,,,,,,,,,,,,,,,,,,,,,,,,,,,,,,,,,,,,,,,,,,,,,,,,,,,,,
1769162268.315,1769162268.315625,99.0,0.0,4366.666504,4293.846191,4526.282227,4366.922852,4281.025879,4283.205078,4309.102539,4276.922852,4265.769043,4271.666504,4567.05127,4541.666504,4429.230957,4509.102539,,,,,,,,,,,,,,,,,,,,,,,,,,,,,,,,,,,,,,,,,,,,,,,,,,,,,,,,,,,,,,,,,,,,,,
1769162268.322809,1769162268.323634,100.0,0.0,4362.820313,4292.692383,4525.256348,4366.153809,4280.128418,4282.179688,4310.769043,4278.205078,4271.282227,4269.487305,4567.820313,4540.256348,4429.102539,4506.410156,,,,,,,,,,,,,,,,,,,,,,,,,,,,,,,,,,,,,,,,,,,,,,,,,,,,,,,,,,,,,,,,,,,,,,
1769162268.330617,1769162268.331442,101.0,0.0,4353.333496,4285.0,4519.102539,4362.05127,4278.333496,4281.025879,4311.282227,4283.077148,4278.974121,4264.615234,4569.743652,4540.0,4425.512695,4503.077148,,,,,,,,,,,,,,,,,,,,,,,,,,,,,,,,,,,,,,,,,,,,,,,,,,,,,,,,,,,,,,,,,,,,,,
1769162268.338426,1769162268.339351,102.0,0.0,4358.461426,4290.256348,4521.794922,4366.282227,4278.974121,4281.025879,4309.871582,4278.846191,4276.153809,4264.743652,4568.461426,4540.769043,4425.256348,4506.666504,,,,,,,,,,,,,,,,,,,,,,,,,,,,,,,,,,,,,,,,,,,,,,,,,,,,,,,,,,,,,,,,,,,,,,
1769162268.346234,1769162268.347159,103.0,0.0,4366.538574,4294.487305,4526.410156,4369.358887,4278.717773,4283.333496,4308.974121,4282.179688,4276.794922,4264.487305,4568.717773,4544.487305,4427.436035,4505.0,,,,,,,,,,,,,,,,,,,,,,,,,,,,,,,,,,,,,,,,,,,,,,,,,,,,,,,,,,,,,,,,,,,,,,
1769162268.354042,1769162268.355167,104.0,0.0,4365.512695,4291.794922,4523.461426,4365.769043,4279.102539,4288.846191,4308.589844,4286.538574,4281.538574,4262.307617,4568.846191,4543.974121,4426.025879,4500.384766,,,,,,,,,,,,,,,,,,,,,,,,,,,,,,,,,,,,,,,,,,,,,,,,,,,,,,,,,,,,,,,,,,,,,,
1769162268.361851,1769162268.362976,105.0,0.0,4364.615234,4294.358887,4522.436035,4365.128418,4279.743652,4289.743652,4309.230957,4282.94873,4278.077148,4267.692383,4564.743652,4538.205078,4422.563965,4498.589844,,,,,,,,,,,,,,,,,,,,,,,,,,,,,,,,,,,,,,,,,,,,,,,,,,,,,,,,,,,,,,,,,,,,,,
1769162268.369659,1769162268.370684,106.0,0.0,4364.743652,4296.282227,4525.897461,4367.307617,4276.410156,4282.307617,4309.487305,4283.333496,4276.410156,4269.871582,4563.205078,4540.256348,4420.128418,4495.769043,,,,,,,,,,,,,,,,,,,,,,,,,,,,,,,,,,,,,,,,,,,,,,,,,,,,,,,,,,,,,,,,,,,,,,
1769162268.377468,1769162268.378493,107.0,0.0,4364.871582,4290.897461,4525.128418,4367.179688,4276.025879,4279.743652,4310.0,4282.820313,4277.820313,4254.102539,4565.512695,4543.333496,4421.410156,4496.794922,,,,,,,,,,,,,,,,,,,,,,,,,,,,,,,,,,,,,,,,,,,,,,,,,,,,,,,,,,,,,,,,,,,,,,
1769162268.385276,1769162268.386101,108.0,0.0,4370.897461,4287.563965,4523.077148,4363.333496,4280.512695,4287.179688,4308.717773,4281.410156,4275.256348,4251.025879,4566.538574,4542.436035,4426.538574,4506.410156,,,,,,,,,,,,,,,,,,,,,,,,,,,,,,,,,,,,,,,,,,,,,,,,,,,,,,,,,,,,,,,,,,,,,,
1769162268.393085,1769162268.39391,109.0,0.0,4375.641113,4292.179688,4524.871582,4361.153809,4281.922852,4288.589844,4309.230957,4289.487305,4276.410156,4276.410156,4571.410156,4551.922852,4431.025879,4510.897461,,,,,,,,,,,,,,,,,,,,,,,,,,,,,,,,,,,,,,,,,,,,,,,,,,,,,,,,,,,,,,,,,,,,,,
1769162268.400893,1769162268.401618,110.0,0.0,4370.641113,4294.102539,4525.384766,4368.077148,4280.256348,4280.0,4311.666504,4290.128418,4279.871582,4283.205078,4574.230957,4557.179688,4429.102539,4503.333496,1.097014,0.664192,0.564397,0.414923,0.129186,0.604768,0.303824,0.293953,0.172749,0.144327,1.170302,0.352731,0.547116,0.270582,0.078812,0.581021,0.285161,0.351727,0.171672,0.097781,0.189815,0.125753,0.122263,0.064931,0.029141,0.107117,0.402345,0.158899,0.255316,0.151712,0.119375,0.277334,0.104331,0.100628,0.11477,0.362935,0.603333,0.241644,0.256452,0.245414,0.474893,0.431473,0.17107,0.194638,0.140548,0.494411,0.327703,0.517287,0.424686,0.18607,1.042997,0.271399,0.393351,0.457057,0.162587,0.91853,0.31072,0.338931,0.286376,0.152315,0.824305,0.420501,0.279879,0.542282,0.125381,1.357276,0.352579,0.936415,0.511817,0.18358
1769162268.408702,1769162268.409427,111.0,0.0,4371.794922,4295.128418,4526.153809,4375.128418,4279.358887,4275.769043,4305.384766,4278.077148,4279.358887,4263.589844,4565.769043,4544.871582,4423.974121,4503.333496,,,,,,,,,,,,,,,,,,,,,,,,,,,,,,,,,,,,,,,,,,,,,,,,,,,,,,,,,,,,,,,,,,,,,,
1769162268.41651,1769162268.417035,112.0,0.0,4381.282227,4297.436035,4527.436035,4373.589844,4278.974121,4280.128418,4297.94873,4276.282227,4272.563965,4261.153809,4559.743652,4538.461426,4426.025879,4505.512695,,,,,,,,,,,,,,,,,,,,,,,,,,,,,,,,,,,,,,,,,,,,,,,,,,,,,,,,,,,,,,,,,,,,,,
1769162268.424318,1769162268.424844,113.0,0.0,4376.922852,4295.384766,4524.230957,4371.922852,4280.128418,4286.153809,4305.897461,4282.94873,4267.179688,4268.461426,4561.410156,4541.153809,4426.025879,4495.769043,,,,,,,,,,,,,,,,,,,,,,,,,,,,,,,,,,,,,,,,,,,,,,,,,,,,,,,,,,,,,,,,,,,,,,
1769162268.432127,1769162268.432752,114.0,0.0,4366.025879,4292.692383,4520.0,4374.230957,4281.922852,4288.205078,4314.615234,4282.692383,4269.871582,4265.384766,4562.179688,4539.743652,4419.615234,4490.256348,,,,,,,,,,,,,,,,,,,,,,,,,,,,,,,,,,,,,,,,,,,,,,,,,,,,,,,,,,,,,,,,,,,,,,
1769162268.439935,1769162268.440561,115.0,0.0,4372.179688,4295.512695,4520.769043,4373.077148,4280.0,4281.282227,4303.077148,4281.025879,4273.974121,4267.94873,4564.102539,4541.922852,4421.025879,4498.717773,,,,,,,,,,,,,,,,,,,,,,,,,,,,,,,,,,,,,,,,,,,,,,,,,,,,,,,,,,,,,,,,,,,,,,
1769162268.447744,1769162268.448569,116.0,0.0,4383.974121,4297.436035,4525.0,4372.05127,4276.922852,4275.512695,4296.794922,4284.230957,4275.0,4271.153809,4569.871582,4550.384766,4428.333496,4506.282227,,,,,,,,,,,,,,,,,,,,,,,,,,,,,,,,,,,,,,,,,,,,,,,,,,,,,,,,,,,,,,,,,,,,,,
1769162268.455552,1769162268.456377,117.0,0.0,4384.487305,4298.461426,4526.922852,4374.102539,4277.820313,4284.102539,4308.077148,4292.820313,4277.820313,4272.94873,4570.641113,4554.358887,4427.692383,4505.897461,,,,,,,,,,,,,,,,,,,,,,,,,,,,,,,,,,,,,,,,,,,,,,,,,,,,,,,,,,,,,,,,,,,,,,
1769162268.463361,1769162268.464286,118.0,0.0,4385.641113,4304.102539,4526.538574,4375.641113,4282.05127,4290.256348,4306.153809,4297.179688,4286.025879,4281.538574,4572.307617,4557.436035,4424.615234,4506.666504,,,,,,,,,,,,,,,,,,,,,,,,,,,,,,,,,,,,,,,,,,,,,,,,,,,,,,,,,,,,,,,,,,,,,,
1769162268.471169,1769162268.472094,119.0,0.0,4388.846191,4301.794922,4524.871582,4373.717773,4282.94873,4280.641113,4294.230957,4287.179688,4284.230957,4272.436035,4572.94873,4556.282227,4422.307617,4508.589844,,,,,,,,,,,,,,,,,,,,,,,,,,,,,,,,,,,,,,,,,,,,,,,,,,,,,,,,,,,,,,,,,,,,,,
1769162268.478978,1769162268.480102,120.0,0.0,4384.871582,4290.897461,4522.436035,4366.666504,4276.282227,4273.333496,4298.846191,4276.025879,4268.974121,4253.589844,4560.384766,4543.333496,4416.282227,4506.025879,,,,,,,,,,,,,,,,,,,,,,,,,,,,,,,,,,,,,,,,,,,,,,,,,,,,,,,,,,,,,,,,,,,,,,
1769162268.486786,1769162268.487911,121.0,0.0,4380.512695,4291.538574,4521.794922,4363.589844,4275.769043,4281.025879,4305.256348,4274.871582,4264.358887,4262.179688,4555.384766,4537.563965,4418.077148,4503.846191,,,,,,,,,,,,,,,,,,,,,,,,,,,,,,,,,,,,,,,,,,,,,,,,,,,,,,,,,,,,,,,,,,,,,,
1769162268.494594,1769162268.495619,122.0,0.0,4382.692383,4297.820313,4522.179688,4366.794922,4279.743652,4287.179688,4298.205078,4281.922852,4275.384766,4277.307617,4567.94873,4544.102539,4423.717773,4504.487305,,,,,,,,,,,,,,,,,,,,,,,,,,,,,,,,,,,,,,,,,,,,,,,,,,,,,,,,,,,,,,,,,,,,,,
1769162268.502403,1769162268.503428,123.0,0.0,4382.820313,4293.717773,4521.410156,4363.461426,4271.666504,4281.410156,4295.769043,4286.025879,4279.102539,4265.641113,4572.692383,4546.794922,4418.077148,4504.743652,,,,,,,,,,,,,,,,,,,,,,,,,,,,,,,,,,,,,,,,,,,,,,,,,,,,,,,,,,,,,,,,,,,,,,
1769162268.510211,1769162268.511436,124.0,0.0,4380.384766,4289.230957,4521.282227,4356.666504,4265.256348,4275.0,4299.487305,4280.641113,4267.692383,4254.743652,4565.384766,4545.256348,4412.820313,4507.692383,,,,,,,,,,,,,,,,,,,,,,,,,,,,,,,,,,,,,,,,,,,,,,,,,,,,,,,,,,,,,,,,,,,,,,
1769162268.51802,1769162268.519244,125.0,0.0,4379.871582,4291.282227,4521.922852,4359.487305,4274.615234,4276.538574,4298.205078,4275.769043,4261.922852,4262.563965,4564.230957,4543.589844,4413.077148,4507.05127,,,,,,,,,,,,,,,,,,,,,,,,,,,,,,,,,,,,,,,,,,,,,,,,,,,,,,,,,,,,,,,,,,,,,,
1769162268.525828,1769162268.527153,126.0,0.0,4380.128418,4293.461426,4521.794922,4364.358887,4282.307617,4281.153809,4296.410156,4278.974121,4271.410156,4268.717773,4563.461426,4539.230957,4412.563965,4496.666504,0.957839,0.631331,0.572645,0.397698,0.131036,0.664255,0.314751,0.359688,0.158323,0.150596,1.122199,0.325623,0.486918,0.200952,0.083804,0.589597,0.308961,0.391564,0.158504,0.098115,0.180785,0.134708,0.103683,0.059547,0.024895,0.125142,0.423862,0.138565,0.248135,0.154154,0.133111,0.278889,0.106394,0.095086,0.101537,0.383364,0.615325,0.249906,0.263206,0.218581,0.402816,0.465981,0.169175,0.217967,0.134804,0.455986,0.350966,0.458565,0.429207,0.199141,1.145945,0.335916,0.31731,0.460173,0.173896,0.928874,0.372296,0.312772,0.276566,0.151982,0.801792,0.572319,0.25409,0.578573,0.151855,1.272531,0.40087,0.814179,0.484096,0.177259
1769162268.533637,1769162268.534961,127.0,0.0,4379.487305,4294.230957,4520.384766,4365.897461,4279.743652,4281.794922,4297.05127,4280.128418,4276.922852,4267.436035,4555.769043,4536.666504,4413.461426,4489.358887,,,,,,,,,,,,,,,,,,,,,,,,,,,,,,,,,,,,,,,,,,,,,,,,,,,,,,,,,,,,,,,,,,,,,,
1769162268.541445,1769162268.54257,0.0,0.0,4379.743652,4293.205078,4519.230957,4367.563965,4274.871582,4278.333496,4297.05127,4273.205078,4266.794922,4256.538574,4554.743652,4536.282227,4414.358887,4489.743652,,,,,,,,,,,,,,,,,,,,,,,,,,,,,,,,,,,,,,,,,,,,,,,,,,,,,,,,,,,,,,,,,,,,,,
1769162268.549254,1769162268.550378,1.0,0.0,4381.922852,4292.820313,4521.153809,4365.897461,4271.538574,4277.307617,4296.794922,4273.461426,4260.0,4250.0,4556.666504,4538.077148,4412.820313,4490.897461,,,,,,,,,,,,,,,,,,,,,,,,,,,,,,,,,,,,,,,,,,,,,,,,,,,,,,,,,,,,,,,,,,,,,,
1769162268.557062,1769162268.558087,2.0,0.0,4384.102539,4293.589844,4523.589844,4364.487305,4271.282227,4279.615234,4296.922852,4281.153809,4271.538574,4260.256348,4555.769043,4546.666504,4411.794922,4492.563965,,,,,,,,,,,,,,,,,,,,,,,,,,,,,,,,,,,,,,,,,,,,,,,,,,,,,,,,,,,,,,,,,,,,,,
1769162268.564871,1769162268.565895,3.0,0.0,4383.461426,4289.102539,4522.563965,4366.538574,4274.871582,4278.846191,4296.922852,4283.974121,4280.256348,4267.436035,4559.487305,4555.512695,4412.307617,4492.307617,,,,,,,,,,,,,,,,,,,,,,,,,,,,,,,,,,,,,,,,,,,,,,,,,,,,,,,,,,,,,,,,,,,,,,
1769162268.572679,1769162268.573904,4.0,0.0,4378.205078,4281.794922,4520.769043,4366.922852,4276.025879,4274.102539,4296.922852,4282.179688,4278.333496,4266.282227,4569.487305,4553.461426,4413.205078,4491.666504,,,,,,,,,,,,,,,,,,,,,,,,,,,,,,,,,,,,,,,,,,,,,,,,,,,,,,,,,,,,,,,,,,,,,,
1769162268.580488,1769162268.581712,5.0,0.0,4375.0,4280.897461,4516.153809,4364.358887,4279.102539,4272.820313,4297.05127,4278.589844,4274.615234,4266.922852,4570.384766,4544.358887,4412.563965,4492.436035,,,,,,,,,,,,,,,,,,,,,,,,,,,,,,,,,,,,,,,,,,,,,,,,,,,,,,,,,,,,,,,,,,,,,,
1769162268.588296,1769162268.589421,6.0,0.0,4373.846191,4278.461426,4508.589844,4359.487305,4277.436035,4277.692383,4297.179688,4277.820313,4270.512695,4259.615234,4561.025879,4537.692383,4404.358887,4483.333496,,,,,,,,,,,,,,,,,,,,,,,,,,,,,,,,,,,,,,,,,,,,,,,,,,,,,,,,,,,,,,,,,,,,,,
1769162268.596105,1769162268.597229,7.0,0.0,4371.282227,4271.410156,4505.512695,4355.0,4267.436035,4278.077148,4296.410156,4284.102539,4272.307617,4251.153809,4553.333496,4538.205078,4396.282227,4476.153809,,,,,,,,,,,,,,,,,,,,,,,,,,,,,,,,,,,,,,,,,,,,,,,,,,,,,,,,,,,,,,,,,,,,,,
1769162268.603913,1769162268.604838,8.0,0.0,4376.410156,4274.102539,4508.589844,4360.128418,4270.0,4276.538574,4297.436035,4285.0,4271.153809,4259.743652,4553.717773,4541.153809,4402.179688,4487.692383,,,,,,,,,,,,,,,,,,,,,,,,,,,,,,,,,,,,,,,,,,,,,,,,,,,,,,,,,,,,,,,,,,,,,,
1769162268.611721,1769162268.612646,9.0,0.0,4384.230957,4281.410156,4510.128418,4368.205078,4278.974121,4275.0,4297.692383,4277.692383,4266.538574,4264.615234,4561.922852,4540.641113,4412.94873,4495.897461,,,,,,,,,,,,,,,,,,,,,,,,,,,,,,,,,,,,,,,,,,,,,,,,,,,,,,,,,,,,,,,,,,,,,,
1769162268.61953,1769162268.620355,10.0,0.0,4382.820313,4279.102539,4510.512695,4366.922852,4272.179688,4268.846191,4293.717773,4277.692383,4273.077148,4263.589844,4566.794922,4540.897461,4415.641113,4489.871582,,,,,,,,,,,,,,,,,,,,,,,,,,,,,,,,,,,,,,,,,,,,,,,,,,,,,,,,,,,,,,,,,,,,,,
1769162268.627338,1769162268.628163,11.0,0.0,4375.0,4273.205078,4509.230957,4361.153809,4262.692383,4269.102539,4293.077148,4281.410156,4274.230957,4261.794922,4556.794922,4540.384766,4408.846191,4484.615234,,,,,,,,,,,,,,,,,,,,,,,,,,,,,,,,,,,,,,,,,,,,,,,,,,,,,,,,,,,,,,,,,,,,,,
1769162268.635147,1769162268.636171,12.0,0.0,4376.794922,4274.615234,4509.743652,4362.436035,4262.563965,4281.410156,4296.538574,4277.94873,4259.358887,4252.94873,4547.94873,4536.282227,4402.94873,4486.025879,,,,,,,,,,,,,,,,,,,,,,,,,,,,,,,,,,,,,,,,,,,,,,,,,,,,,,,,,,,,,,,,,,,,,,
1769162268.642955,1769162268.64398,13.0,0.0,4388.589844,4280.128418,4517.179688,4369.871582,4264.743652,4280.0,4295.641113,4276.282227,4261.153809,4253.205078,4552.820313,4538.077148,4408.589844,4490.384766,,,,,,,,,,,,,,,,,,,,,,,,,,,,,,,,,,,,,,,,,,,,,,,,,,,,,,,,,,,,,,,,,,,,,,
1769162268.650764,1769162268.651888,14.0,0.0,4395.0,4283.205078,4523.333496,4375.128418,4269.102539,4266.282227,4292.563965,4279.743652,4274.487305,4263.589844,4557.94873,4546.538574,4416.538574,4492.692383,0.76398,0.560601,0.543872,0.377427,0.135509,0.700357,0.317855,0.421185,0.150772,0.156666,1.01201,0.292243,0.39347,0.15114,0.084264,0.549463,0.331511,0.421065,0.153398,0.098258,0.17437,0.147689,0.105295,0.055464,0.026579,0.149789,0.39535,0.114403,0.249339,0.166062,0.15394,0.264036,0.122811,0.095572,0.089593,0.429445,0.571829,0.253594,0.268262,0.201305,0.352692,0.468663,0.175023,0.238024,0.13666,0.406577,0.39916,0.445299,0.428322,0.22185,1.152398,0.421906,0.274512,0.442677,0.173382,0.842938,0.437893,0.282395,0.27093,0.150753,0.764365,0.744054,0.252492,0.573274,0.175869,1.137196,0.464334,0.688108,0.451161,0.164342
1769162268.658572,1769162268.659697,15.0,0.0,4390.128418,4281.666504,4521.282227,4374.743652,4273.205078,4270.512695,4294.230957,4279.615234,4269.871582,4265.0,4555.897461,4551.538574,4414.358887,4492.820313,,,,,,,,,,,,,,,,,,,,,,,,,,,,,,,,,,,,,,,,,,,,,,,,,,,,,,,,,,,,,,,,,,,,,,
1769162268.666381,1769162268.667705,16.0,0.0,4383.205078,4276.922852,4514.871582,4372.692383,4268.333496,4283.077148,4298.205078,4280.897461,4268.846191,4260.641113,4555.641113,4551.922852,4408.974121,4496.153809,,,,,,,,,,,,,,,,,,,,,,,,,,,,,,,,,,,,,,,,,,,,,,,,,,,,,,,,,,,,,,,,,,,,,,
1769162268.674189,1769162268.675513,17.0,0.0,4386.794922,4279.615234,4511.153809,4371.538574,4266.153809,4276.025879,4296.538574,4282.820313,4276.922852,4257.820313,4558.077148,4551.538574,4412.307617,4498.717773,,,,,,,,,,,,,,,,,,,,,,,,,,,,,,,,,,,,,,,,,,,,,,,,,,,,,,,,,,,,,,,,,,,,,,
1769162268.681997,1769162268.683422,18.0,0.0,4386.025879,4278.846191,4509.102539,4367.307617,4267.179688,4265.0,4293.333496,4280.0,4269.102539,4256.025879,4558.205078,4546.025879,4413.077148,4493.461426,,,,,,,,,,,,,,,,,,,,,,,,,,,,,,,,,,,,,,,,,,,,,,,,,,,,,,,,,,,,,,,,,,,,,,
1769162268.689806,1769162268.69123,19.0,0.0,4374.358887,4267.563965,4505.769043,4362.820313,4264.230957,4272.436035,4298.461426,4276.794922,4261.025879,4259.102539,4552.436035,4536.025879,4406.922852,4488.205078,,,,,,,,,,,,,,,,,,,,,,,,,,,,,,,,,,,,,,,,,,,,,,,,,,,,,,,,,,,,,,,,,,,,,,
1769162268.697614,1769162268.698839,20.0,0.0,4373.589844,4266.410156,4505.256348,4365.897461,4264.487305,4283.589844,4303.333496,4281.410156,4270.897461,4267.820313,4553.205078,4538.589844,4406.794922,4489.358887,,,,,,,,,,,,,,,,,,,,,,,,,,,,,,,,,,,,,,,,,,,,,,,,,,,,,,,,,,,,,,,,,,,,,,
1769162268.705423,1769162268.706647,21.0,0.0,4382.820313,4276.794922,4508.846191,4369.487305,4267.563965,4278.717773,4296.538574,4287.307617,4279.230957,4273.077148,4564.102539,4547.94873,4413.333496,4494.871582,,,,,,,,,,,,,,,,,,,,,,,,,,,,,,,,,,,,,,,,,,,,,,,,,,,,,,,,,,,,,,,,,,,,,,
1769162268.713231,1769162268.714556,22.0,0.0,4384.615234,4279.743652,4510.512695,4367.94873,4267.307617,4264.871582,4290.128418,4284.102539,4277.179688,4270.384766,4564.487305,4544.871582,4413.333496,4497.692383,,,,,,,,,,,,,,,,,,,,,,,,,,,,,,,,,,,,,,,,,,,,,,,,,,,,,,,,,,,,,,,,,,,,,,
1769162268.72104,1769162268.722364,23.0,0.0,4381.794922,4277.692383,4506.666504,4368.205078,4266.282227,4264.102539,4293.333496,4276.538574,4275.256348,4262.179688,4553.717773,4537.307617,4408.461426,4494.615234,,,,,,,,,,,,,,,,,,,,,,,,,,,,,,,,,,,,,,,,,,,,,,,,,,,,,,,,,,,,,,,,,,,,,,
1769162268.728848,1769162268.730073,24.0,0.0,4386.025879,4278.333496,4505.256348,4370.769043,4265.769043,4276.794922,4295.512695,4276.666504,4275.641113,4265.384766,4553.717773,4539.230957,4408.589844,4496.153809,,,,,,,,,,,,,,,,,,,,,,,,,,,,,,,,,,,,,,,,,,,,,,,,,,,,,,,,,,,,,,,,,,,,,,
1769162268.736657,1769162268.737881,25.0,0.0,4390.128418,4279.743652,4508.205078,4371.794922,4267.307617,4280.897461,4292.820313,4280.769043,4277.436035,4277.94873,4558.717773,4541.410156,4409.871582,4504.615234,,,,,,,,,,,,,,,,,,,,,,,,,,,,,,,,,,,,,,,,,,,,,,,,,,,,,,,,,,,,,,,,,,,,,,
1769162268.744465,1769162268.74559,26.0,0.0,4389.743652,4284.487305,4505.769043,4373.333496,4268.205078,4277.563965,4293.205078,4280.128418,4279.230957,4278.333496,4557.820313,4538.717773,4409.871582,4508.846191,,,,,,,,,,,,,,,,,,,,,,,,,,,,,,,,,,,,,,,,,,,,,,,,,,,,,,,,,,,,,,,,,,,,,,
1769162268.752273,1769162268.753398,27.0,0.0,4389.615234,4287.05127,4495.256348,4372.307617,4268.333496,4275.769043,4295.0,4281.153809,4279.743652,4276.794922,4561.025879,4540.128418,4410.769043,4506.153809,,,,,,,,,,,,,,,,,,,,,,,,,,,,,,,,,,,,,,,,,,,,,,,,,,,,,,,,,,,,,,,,,,,,,,
1769162268.760082,1769162268.761007,28.0,0.0,4388.077148,4280.128418,4488.974121,4370.128418,4273.077148,4279.230957,4295.512695,4285.384766,4275.256348,4273.589844,4562.820313,4542.436035,4412.436035,4506.666504,,,,,,,,,,,,,,,,,,,,,,,,,,,,,,,,,,,,,,,,,,,,,,,,,,,,,,,,,,,,,,,,,,,,,,
1769162268.76789,1769162268.768815,29.0,0.0,4385.769043,4276.922852,4491.922852,4372.179688,4279.358887,4285.897461,4295.769043,4288.846191,4277.436035,4267.179688,4558.205078,4541.282227,4414.743652,4509.230957,,,,,,,,,,,,,,,,,,,,,,,,,,,,,,,,,,,,,,,,,,,,,,,,,,,,,,,,,,,,,,,,,,,,,,
1769162268.775699,1769162268.776723,30.0,0.0,4385.641113,4280.384766,4487.05127,4368.974121,4278.717773,4285.897461,4297.820313,4296.025879,4286.025879,4271.666504,4555.512695,4540.897461,4413.846191,4499.487305,0.575707,0.472239,0.487634,0.352163,0.139487,0.683145,0.316819,0.462947,0.152142,0.159465,0.860981,0.25476,0.298305,0.118284,0.079552,0.479868,0.347562,0.434566,0.153612,0.096753,0.170827,0.160004,0.119186,0.052178,0.033357,0.173757,0.326511,0.091668,0.253877,0.186145,0.174711,0.236713,0.147757,0.095695,0.081629,0.476096,0.476626,0.25806,0.271501,0.200298,0.330431,0.442967,0.185487,0.249343,0.144893,0.349518,0.447674,0.462398,0.427922,0.253776,1.048004,0.499279,0.259104,0.412755,0.162317,0.686045,0.486201,0.251995,0.274204,0.14682,0.714879,0.88811,0.266751,0.528821,0.190497,0.969297,0.51677,0.577863,0.423666,0.147294
1769162268.783507,1769162268.784532,31.0,0.0,4386.410156,4280.0,4476.794922,4363.205078,4274.358887,4280.897461,4298.333496,4294.871582,4283.846191,4273.461426,4553.461426,4540.641113,4409.487305,4488.846191,,,,,,,,,,,,,,,,,,,,,,,,,,,,,,,,,,,,,,,,,,,,,,,,,,,,,,,,,,,,,,,,,,,,,,
1769162268.791316,1769162268.792141,32.0,0.0,4388.717773,4279.230957,4476.025879,4369.358887,4275.641113,4282.692383,4297.563965,4285.128418,4275.256348,4265.256348,4554.487305,4541.025879,4408.846191,4497.179688,,,,,,,,,,,,,,,,,,,,,,,,,,,,,,,,,,,,,,,,,,,,,,,,,,,,,,,,,,,,,,,,,,,,,,
1769162268.799124,1769162268.799949,33.0,0.0,4393.461426,4285.256348,4481.153809,4375.897461,4277.05127,4284.102539,4297.179688,4286.025879,4276.922852,4269.102539,4563.077148,4540.0,4413.205078,4509.487305,,,,,,,,,,,,,,,,,,,,,,,,,,,,,,,,,,,,,,,,,,,,,,,,,,,,,,,,,,,,,,,,,,,,,,
1769162268.806933,1769162268.807658,34.0,0.0,4396.538574,4292.94873,4487.307617,4373.333496,4275.384766,4278.077148,4295.256348,4290.641113,4282.179688,4275.897461,4571.410156,4541.025879,4415.256348,4509.871582,,,,,,,,,,,,,,,,,,,,,,,,,,,,,,,,,,,,,,,,,,,,,,,,,,,,,,,,,,,,,,,,,,,,,,
1769162268.814741,1769162268.815466,35.0,0.0,4395.897461,4295.641113,4489.871582,4374.102539,4274.871582,4279.358887,4294.615234,4285.897461,4280.128418,4265.897461,4570.0,4542.820313,4411.153809,4504.230957,,,,,,,,,,,,,,,,,,,,,,,,,,,,,,,,,,,,,,,,,,,,,,,,,,,,,,,,,,,,,,,,,,,,,,
1769162268.822549,1769162268.823075,36.0,0.0,4396.153809,4295.769043,4483.589844,4379.871582,4275.769043,4283.717773,4297.05127,4281.282227,4277.563965,4266.794922,4567.436035,4542.563965,4412.692383,4504.743652,,,,,,,,,,,,,,,,,,,,,,,,,,,,,,,,,,,,,,,,,,,,,,,,,,,,,,,,,,,,,,,,,,,,,,
1769162268.830358,1769162268.830883,37.0,0.0,4399.102539,4296.922852,4477.692383,4380.512695,4278.974121,4281.794922,4297.05127,4279.615234,4277.820313,4284.230957,4569.743652,4541.410156,4423.333496,4512.307617,,,,,,,,,,,,,,,,,,,,,,,,,,,,,,,,,,,,,,,,,,,,,,,,,,,,,,,,,,,,,,,,,,,,,,
1769162268.838166,1769162268.838791,38.0,0.0,4398.846191,4295.512695,4477.692383,4376.666504,4280.0,4280.384766,4294.230957,4278.077148,4278.974121,4283.205078,4571.666504,4538.205078,4423.077148,4512.307617,,,,,,,,,,,,,,,,,,,,,,,,,,,,,,,,,,,,,,,,,,,,,,,,,,,,,,,,,,,,,,,,,,,,,,
1769162268.845975,1769162268.8466,39.0,0.0,4396.282227,4294.230957,4477.563965,4378.333496,4278.717773,4283.205078,4294.102539,4286.666504,4280.641113,4272.563965,4572.179688,4541.538574,4416.538574,4509.743652,,,,,,,,,,,,,,,,,,,,,,,,,,,,,,,,,,,,,,,,,,,,,,,,,,,,,,,,,,,,,,,,,,,,,,
1769162268.853783,1769162268.854608,40.0,0.0,4396.922852,4296.153809,4476.794922,4381.025879,4277.820313,4282.94873,4295.897461,4296.025879,4278.077148,4276.025879,4571.282227,4551.538574,4420.384766,4518.205078,,,,,,,,,,,,,,,,,,,,,,,,,,,,,,,,,,,,,,,,,,,,,,,,,,,,,,,,,,,,,,,,,,,,,,
1769162268.861592,1769162268.862417,41.0,0.0,4395.384766,4295.0,4476.282227,4377.94873,4280.897461,4279.230957,4296.025879,4295.0,4283.846191,4281.794922,4572.436035,4555.384766,4426.153809,4524.743652,,,,,,,,,,,,,,,,,,,,,,,,,,,,,,,,,,,,,,,,,,,,,,,,,,,,,,,,,,,,,,,,,,,,,,
1769162268.8694,1769162268.870325,42.0,0.0,4396.794922,4295.256348,4473.333496,4377.307617,4285.769043,4283.589844,4293.461426,4294.743652,4293.717773,4281.538574,4581.025879,4554.871582,4428.077148,4522.436035,,,,,,,,,,,,,,,,,,,,,,,,,,,,,,,,,,,,,,,,,,,,,,,,,,,,,,,,,,,,,,,,,,,,,,
1769162268.877209,1769162268.878133,43.0,0.0,4403.717773,4300.897461,4475.512695,4383.974121,4287.94873,4295.897461,4294.743652,4297.179688,4289.871582,4282.94873,4586.666504,4556.410156,4428.717773,4524.615234,,,,,,,,,,,,,,,,,,,,,,,,,,,,,,,,,,,,,,,,,,,,,,,,,,,,,,,,,,,,,,,,,,,,,,
1769162268.885017,1769162268.886142,44.0,0.0,4397.94873,4300.0,4474.871582,4383.589844,4285.256348,4297.94873,4301.794922,4297.692383,4282.307617,4280.128418,4576.922852,4553.077148,4418.461426,4518.974121,,,,,,,,,,,,,,,,,,,,,,,,,,,,,,,,,,,,,,,,,,,,,,,,,,,,,,,,,,,,,,,,,,,,,,
1769162268.892825,1769162268.89395,45.0,0.0,4386.282227,4293.077148,4463.846191,4373.589844,4283.461426,4291.794922,4301.794922,4296.666504,4285.384766,4276.794922,4567.820313,4546.538574,4411.153809,4506.025879,,,,,,,,,,,,,,,,,,,,,,,,,,,,,,,,,,,,,,,,,,,,,,,,,,,,,,,,,,,,,,,,,,,,,,
1769162268.900634,1769162268.901659,46.0,0.0,4391.794922,4291.025879,4458.077148,4372.820313,4284.358887,4291.666504,4296.410156,4296.922852,4292.94873,4285.384766,4574.487305,4550.384766,4422.563965,4514.615234,0.40681,0.389492,0.41716,0.321306,0.142191,0.608855,0.314897,0.471449,0.159818,0.157004,0.698923,0.219489,0.227842,0.097378,0.070959,0.382896,0.353999,0.4268,0.154855,0.093642,0.167609,0.16544,0.134425,0.051314,0.043434,0.189785,0.238804,0.074701,0.252934,0.210729,0.186302,0.202545,0.169525,0.090553,0.079323,0.494172,0.35846,0.263406,0.273568,0.214382,0.328439,0.405339,0.19499,0.251777,0.158557,0.295181,0.465865,0.477473,0.436388,0.291714,0.856817,0.538729,0.253374,0.384031,0.145682,0.497307,0.510615,0.225592,0.293295,0.140071,0.65309,0.957212,0.281212,0.45952,0.191092,0.812176,0.53672,0.488807,0.40789,0.1295
1769162268.908442,1769162268.909467,47.0,0.0,4401.153809,4295.384766,4462.05127,4380.0,4281.922852,4295.384766,4300.512695,4296.025879,4294.102539,4295.256348,4581.410156,4553.974121,4431.666504,4527.692383,,,,,,,,,,,,,,,,,,,,,,,,,,,,,,,,,,,,,,,,,,,,,,,,,,,,,,,,,,,,,,,,,,,,,,
1769162268.916251,1769162268.917475,48.0,0.0,4397.820313,4303.077148,4463.589844,4383.461426,4283.589844,4294.743652,4306.538574,4296.410156,4295.897461,4298.077148,4586.025879,4555.769043,4431.410156,4525.897461,,,,,,,,,,,,,,,,,,,,,,,,,,,,,,,,,,,,,,,,,,,,,,,,,,,,,,,,,,,,,,,,,,,,,,
1769162268.924059,1769162268.925284,49.0,0.0,4396.666504,4306.410156,4461.025879,4380.512695,4287.436035,4284.871582,4301.025879,4297.692383,4293.589844,4291.282227,4584.615234,4556.538574,4431.794922,4523.846191,,,,,,,,,,,,,,,,,,,,,,,,,,,,,,,,,,,,,,,,,,,,,,,,,,,,,,,,,,,,,,,,,,,,,,
1769162268.931868,1769162268.932992,50.0,0.0,4399.230957,4300.384766,4458.077148,4376.025879,4285.256348,4277.05127,4292.05127,4291.153809,4281.025879,4281.538574,4573.461426,4546.153809,4429.743652,4523.205078,,,,,,,,,,,,,,,,,,,,,,,,,,,,,,,,,,,,,,,,,,,,,,,,,,,,,,,,,,,,,,,,,,,,,,
1769162268.939676,1769162268.940801,51.0,0.0,4397.05127,4294.487305,4456.025879,4373.974121,4285.641113,4285.769043,4291.153809,4287.820313,4279.615234,4285.512695,4572.307617,4536.666504,4426.025879,4520.128418,,,,,,,,,,,,,,,,,,,,,,,,,,,,,,,,,,,,,,,,,,,,,,,,,,,,,,,,,,,,,,,,,,,,,,
1769162268.947485,1769162268.948409,52.0,0.0,4397.692383,4299.358887,4457.563965,4375.0,4289.230957,4293.974121,4294.230957,4293.461426,4286.666504,4293.717773,4578.461426,4540.128418,4427.563965,4520.769043,,,,,,,,,,,,,,,,,,,,,,,,,,,,,,,,,,,,,,,,,,,,,,,,,,,,,,,,,,,,,,,,,,,,,,
1769162268.955293,1769162268.956218,53.0,0.0,4399.487305,4302.692383,4455.256348,4375.769043,4285.641113,4282.563965,4291.794922,4295.128418,4285.384766,4287.307617,4573.205078,4542.436035,4428.846191,4523.846191,,,,,,,,,,,,,,,,,,,,,,,,,,,,,,,,,,,,,,,,,,,,,,,,,,,,,,,,,,,,,,,,,,,,,,
1769162268.963102,1769162268.964126,54.0,0.0,4397.436035,4297.436035,4443.974121,4372.05127,4277.820313,4276.282227,4290.128418,4293.461426,4282.307617,4274.487305,4567.307617,4537.820313,4424.871582,4522.563965,,,,,,,,,,,,,,,,,,,,,,,,,,,,,,,,,,,,,,,,,,,,,,,,,,,,,,,,,,,,,,,,,,,,,,
1769162268.97091,1769162268.971935,55.0,0.0,4396.282227,4294.487305,4442.436035,4373.333496,4281.794922,4290.512695,4293.205078,4294.230957,4286.282227,4276.153809,4571.153809,4541.410156,4422.820313,4521.666504,,,,,,,,,,,,,,,,,,,,,,,,,,,,,,,,,,,,,,,,,,,,,,,,,,,,,,,,,,,,,,,,,,,,,,
1769162268.978718,1769162268.979943,56.0,0.0,4398.717773,4298.846191,4454.743652,4378.333496,4288.077148,4292.820313,4292.563965,4294.615234,4288.077148,4288.974121,4573.974121,4555.0,4426.153809,4522.307617,,,,,,,,,,,,,,,,,,,,,,,,,,,,,,,,,,,,,,,,,,,,,,,,,,,,,,,,,,,,,,,,,,,,,,
1769162268.986527,1769162268.987751,57.0,0.0,4402.436035,4303.717773,4456.410156,4377.307617,4287.179688,4284.487305,4289.871582,4296.153809,4285.512695,4293.333496,4573.974121,4559.358887,4429.871582,4525.0,,,,,,,,,,,,,,,,,,,,,,,,,,,,,,,,,,,,,,,,,,,,,,,,,,,,,,,,,,,,,,,,,,,,,,
1769162268.994335,1769162268.99546,58.0,0.0,4401.025879,4302.307617,4445.0,4372.94873,4284.487305,4282.563965,4293.077148,4296.538574,4281.922852,4281.922852,4571.666504,4546.538574,4422.436035,4522.820313,,,,,,,,,,,,,,,,,,,,,,,,,,,,,,,,,,,,,,,,,,,,,,,,,,,,,,,,,,,,,,,,,,,,,,
1769162269.002144,1769162269.003268,59.0,0.0,4396.922852,4300.897461,4441.666504,4373.333496,4286.922852,4282.179688,4296.282227,4292.436035,4276.666504,4276.153809,4567.820313,4535.512695,4412.94873,4511.666504,,,,,,,,,,,,,,,,,,,,,,,,,,,,,,,,,,,,,,,,,,,,,,,,,,,,,,,,,,,,,,,,,,,,,,
1769162269.009952,1769162269.010877,60.0,0.0,4395.256348,4304.102539,4443.974121,4377.820313,4290.128418,4284.871582,4295.256348,4292.94873,4278.974121,4281.282227,4569.743652,4539.358887,4417.436035,4504.358887,,,,,,,,,,,,,,,,,,,,,,,,,,,,,,,,,,,,,,,,,,,,,,,,,,,,,,,,,,,,,,,,,,,,,,
1769162269.017761,1769162269.018685,61.0,0.0,4394.487305,4306.025879,4440.769043,4380.128418,4284.487305,4289.871582,4295.256348,4296.666504,4283.077148,4278.461426,4571.922852,4541.922852,4425.769043,4508.974121,,,,,,,,,,,,,,,,,,,,,,,,,,,,,,,,,,,,,,,,,,,,,,,,,,,,,,,,,,,,,,,,,,,,,,
1769162269.025569,1769162269.026394,62.0,0.0,4401.794922,4308.205078,4441.538574,4380.641113,4278.205078,4283.717773,4292.05127,4294.230957,4278.974121,4281.666504,4571.410156,4540.897461,4428.333496,4521.666504,0.304405,0.336371,0.346386,0.285334,0.143719,0.497266,0.319882,0.441431,0.166925,0.149326,0.54324,0.197499,0.190985,0.084633,0.06111,0.307041,0.355316,0.395318,0.153209,0.089691,0.162033,0.161391,0.143934,0.056606,0.054951,0.188433,0.156733,0.06472,0.240433,0.236029,0.182251,0.169049,0.177052,0.078966,0.082729,0.465653,0.255974,0.265787,0.272937,0.234571,0.327977,0.369067,0.197434,0.249601,0.176735,0.252531,0.436453,0.465063,0.45925,0.32947,0.619782,0.52521,0.241763,0.369184,0.130252,0.328307,0.515205,0.203173,0.331322,0.131159,0.573216,0.925744,0.282548,0.384843,0.178403,0.688091,0.519289,0.418297,0.402928,0.114884
1769162269.033378,1769162269.034202,63.0,0.0,4408.974121,4309.615234,4445.512695,4379.487305,4277.692383,4271.922852,4288.589844,4294.743652,4281.153809,4288.333496,4570.641113,4542.436035,4425.384766,4524.743652,,,,,,,,,,,,,,,,,,,,,,,,,,,,,,,,,,,,,,,,,,,,,,,,,,,,,,,,,,,,,,,,,,,,,,
1769162269.041186,1769162269.042211,64.0,0.0,4400.769043,4305.897461,4438.589844,4374.615234,4278.077148,4271.794922,4288.333496,4295.512695,4282.94873,4281.538574,4568.333496,4538.333496,4418.846191,4512.820313,,,,,,,,,,,,,,,,,,,,,,,,,,,,,,,,,,,,,,,,,,,,,,,,,,,,,,,,,,,,,,,,,,,,,,
1769162269.048994,1769162269.050019,65.0,0.0,4395.512695,4304.230957,4433.333496,4371.153809,4277.820313,4278.589844,4284.102539,4286.153809,4273.461426,4273.846191,4569.743652,4535.0,4415.128418,4506.538574,,,,,,,,,,,,,,,,,,,,,,,,,,,,,,,,,,,,,,,,,,,,,,,,,,,,,,,,,,,,,,,,,,,,,,
1769162269.056803,1769162269.057927,66.0,0.0,4401.025879,4306.666504,4435.512695,4372.05127,4280.128418,4280.384766,4280.256348,4278.589844,4264.743652,4270.641113,4568.717773,4538.205078,4416.410156,4512.05127,,,,,,,,,,,,,,,,,,,,,,,,,,,,,,,,,,,,,,,,,,,,,,,,,,,,,,,,,,,,,,,,,,,,,,
1769162269.064611,1769162269.065736,67.0,0.0,4399.871582,4302.179688,4430.897461,4372.436035,4281.025879,4272.307617,4279.102539,4278.333496,4263.461426,4267.563965,4558.974121,4529.102539,4413.717773,4511.410156,,,,,,,,,,,,,,,,,,,,,,,,,,,,,,,,,,,,,,,,,,,,,,,,,,,,,,,,,,,,,,,,,,,,,,
1769162269.07242,1769162269.073744,68.0,0.0,4394.358887,4294.871582,4424.358887,4369.871582,4277.94873,4267.820313,4277.436035,4281.666504,4269.487305,4270.641113,4558.589844,4522.05127,4411.666504,4505.512695,,,,,,,,,,,,,,,,,,,,,,,,,,,,,,,,,,,,,,,,,,,,,,,,,,,,,,,,,,,,,,,,,,,,,,
1769162269.080228,1769162269.081553,69.0,0.0,4392.05127,4295.0,4426.282227,4368.461426,4279.102539,4279.615234,4284.743652,4292.563965,4278.589844,4276.538574,4567.307617,4529.743652,4412.692383,4507.05127,,,,,,,,,,,,,,,,,,,,,,,,,,,,,,,,,,,,,,,,,,,,,,,,,,,,,,,,,,,,,,,,,,,,,,
1769162269.088037,1769162269.089461,70.0,0.0,4386.538574,4295.769043,4428.717773,4367.307617,4282.563965,4286.153809,4294.230957,4296.282227,4279.358887,4273.974121,4567.179688,4529.871582,4409.871582,4511.282227,,,,,,,,,,,,,,,,,,,,,,,,,,,,,,,,,,,,,,,,,,,,,,,,,,,,,,,,,,,,,,,,,,,,,,
1769162269.095845,1769162269.097269,71.0,0.0,4390.641113,4297.436035,4426.538574,4369.615234,4282.436035,4277.05127,4285.769043,4284.358887,4273.461426,4274.230957,4566.666504,4525.0,4416.538574,4517.436035,,,,,,,,,,,,,,,,,,,,,,,,,,,,,,,,,,,,,,,,,,,,,,,,,,,,,,,,,,,,,,,,,,,,,,
1769162269.103654,1769162269.105278,72.0,0.0,4398.077148,4305.897461,4426.282227,4376.282227,4280.769043,4274.102539,4280.897461,4282.436035,4274.871582,4279.871582,4572.692383,4532.692383,4429.230957,4523.846191,,,,,,,,,,,,,,,,,,,,,,,,,,,,,,,,,,,,,,,,,,,,,,,,,,,,,,,,,,,,,,,,,,,,,,
1769162269.111462,1769162269.113086,73.0,0.0,4390.512695,4307.05127,4428.333496,4374.615234,4279.358887,4279.487305,4294.743652,4296.922852,4281.922852,4278.077148,4575.0,4539.358887,4429.743652,4522.436035,,,,,,,,,,,,,,,,,,,,,,,,,,,,,,,,,,,,,,,,,,,,,,,,,,,,,,,,,,,,,,,,,,,,,,
1769162269.119271,1769162269.120795,74.0,0.0,4387.436035,4303.077148,4426.922852,4366.666504,4280.641113,4281.666504,4296.666504,4298.333496,4281.282227,4278.589844,4576.282227,4535.641113,4425.384766,4518.205078,,,,,,,,,,,,,,,,,,,,,,,,,,,,,,,,,,,,,,,,,,,,,,,,,,,,,,,,,,,,,,,,,,,,,,
1769162269.127079,1769162269.128603,75.0,0.0,4397.436035,4304.487305,4421.025879,4365.769043,4282.307617,4280.769043,4288.205078,4290.384766,4279.871582,4288.717773,4582.436035,4536.025879,4427.05127,4520.256348,,,,,,,,,,,,,,,,,,,,,,,,,,,,,,,,,,,,,,,,,,,,,,,,,,,,,,,,,,,,,,,,,,,,,,
1769162269.134888,1769162269.136212,76.0,0.0,4398.461426,4303.333496,4418.846191,4368.205078,4280.769043,4278.461426,4289.871582,4293.205078,4286.025879,4296.025879,4582.05127,4539.743652,4428.846191,4523.717773,,,,,,,,,,,,,,,,,,,,,,,,,,,,,,,,,,,,,,,,,,,,,,,,,,,,,,,,,,,,,,,,,,,,,,
1769162269.142696,1769162269.14402,77.0,0.0,4393.333496,4299.487305,4420.769043,4366.025879,4280.384766,4279.230957,4293.077148,4296.538574,4286.922852,4289.871582,4578.974121,4539.615234,4427.563965,4522.563965,,,,,,,,,,,,,,,,,,,,,,,,,,,,,,,,,,,,,,,,,,,,,,,,,,,,,,,,,,,,,,,,,,,,,,
1769162269.150504,1769162269.151729,78.0,0.0,4396.922852,4305.0,4422.307617,4367.94873,4282.179688,4281.025879,4288.846191,4293.846191,4280.0,4284.743652,4582.94873,4540.256348,4429.230957,4526.538574,0.252753,0.322808,0.287252,0.247893,0.144552,0.371969,0.337886,0.381188,0.168359,0.138587,0.440859,0.202967,0.180547,0.079094,0.053371,0.254464,0.358205,0.343265,0.14795,0.08603,0.152692,0.150063,0.145842,0.07047,0.066062,0.170089,0.100909,0.06059,0.213786,0.259361,0.163527,0.144711,0.166837,0.063446,0.090342,0.396886,0.200925,0.264277,0.266708,0.249165,0.319149,0.340103,0.191308,0.248618,0.197244,0.235973,0.36694,0.417522,0.495167,0.359389,0.398843,0.46474,0.218167,0.373573,0.12181,0.223541,0.513537,0.184921,0.381964,0.12126,0.484886,0.801574,0.265078,0.321971,0.158572,0.613388,0.478875,0.358927,0.404406,0.107629
1769162269.158313,1769162269.159537,79.0,0.0,4401.538574,4310.512695,4421.025879,4371.282227,4281.025879,4280.384766,4283.974121,4293.974121,4281.794922,4292.820313,4586.922852,4540.512695,4434.358887,4536.025879,,,,,,,,,,,,,,,,,,,,,,,,,,,,,,,,,,,,,,,,,,,,,,,,,,,,,,,,,,,,,,,,,,,,,,
1769162269.166121,1769162269.167545,80.0,0.0,4397.692383,4300.641113,4415.641113,4363.974121,4276.794922,4278.717773,4284.487305,4297.692383,4292.563965,4297.307617,4581.153809,4539.102539,4431.794922,4530.512695,,,,,,,,,,,,,,,,,,,,,,,,,,,,,,,,,,,,,,,,,,,,,,,,,,,,,,,,,,,,,,,,,,,,,,
1769162269.17393,1769162269.175354,81.0,0.0,4391.794922,4291.153809,4415.0,4358.589844,4275.256348,4280.384766,4284.615234,4295.897461,4293.077148,4283.461426,4576.794922,4542.05127,4422.05127,4518.077148,,,,,,,,,,,,,,,,,,,,,,,,,,,,,,,,,,,,,,,,,,,,,,,,,,,,,,,,,,,,,,,,,,,,,,
1769162269.181738,1769162269.183262,82.0,0.0,4398.717773,4300.512695,4426.153809,4364.615234,4278.846191,4282.94873,4283.717773,4296.282227,4291.538574,4279.615234,4583.461426,4553.974121,4431.666504,4527.563965,,,,,,,,,,,,,,,,,,,,,,,,,,,,,,,,,,,,,,,,,,,,,,,,,,,,,,,,,,,,,,,,,,,,,,
1769162269.189547,1769162269.191071,83.0,0.0,4411.794922,4308.717773,4432.179688,4370.512695,4281.538574,4283.077148,4287.436035,4304.230957,4297.820313,4299.102539,4592.436035,4561.025879,4448.077148,4544.615234,,,,,,,,,,,,,,,,,,,,,,,,,,,,,,,,,,,,,,,,,,,,,,,,,,,,,,,,,,,,,,,,,,,,,,
1769162269.197355,1769162269.198679,84.0,0.0,4406.282227,4302.05127,4422.05127,4368.974121,4279.871582,4281.794922,4289.743652,4303.846191,4297.436035,4303.717773,4591.282227,4554.102539,4437.820313,4540.256348,,,,,,,,,,,,,,,,,,,,,,,,,,,,,,,,,,,,,,,,,,,,,,,,,,,,,,,,,,,,,,,,,,,,,,
1769162269.205164,1769162269.206488,85.0,0.0,4397.307617,4301.282227,4418.717773,4368.077148,4282.05127,4278.205078,4281.025879,4292.692383,4290.641113,4293.205078,4586.282227,4549.615234,4429.358887,4531.410156,,,,,,,,,,,,,,,,,,,,,,,,,,,,,,,,,,,,,,,,,,,,,,,,,,,,,,,,,,,,,,,,,,,,,,
1769162269.212972,1769162269.214196,86.0,0.0,4406.282227,4312.05127,4424.871582,4372.436035,4286.153809,4276.922852,4277.820313,4288.717773,4288.461426,4293.333496,4587.179688,4554.871582,4439.743652,4537.436035,,,,,,,,,,,,,,,,,,,,,,,,,,,,,,,,,,,,,,,,,,,,,,,,,,,,,,,,,,,,,,,,,,,,,,
1769162269.22078,1769162269.222005,87.0,0.0,4407.563965,4311.025879,4421.538574,4375.512695,4284.615234,4279.871582,4290.384766,4299.358887,4291.282227,4289.871582,4586.025879,4556.922852,4437.436035,4536.794922,,,,,,,,,,,,,,,,,,,,,,,,,,,,,,,,,,,,,,,,,,,,,,,,,,,,,,,,,,,,,,,,,,,,,,
1769162269.228589,1769162269.229613,88.0,0.0,4395.0,4303.461426,4414.358887,4369.871582,4282.179688,4284.358887,4292.94873,4303.846191,4292.94873,4282.179688,4580.512695,4553.205078,4425.256348,4525.641113,,,,,,,,,,,,,,,,,,,,,,,,,,,,,,,,,,,,,,,,,,,,,,,,,,,,,,,,,,,,,,,,,,,,,,
1769162269.236397,1769162269.237422,89.0,0.0,4394.487305,4305.769043,4409.871582,4359.358887,4281.666504,4276.282227,4283.077148,4296.538574,4294.871582,4288.461426,4583.974121,4548.717773,4426.538574,4521.922852,,,,,,,,,,,,,,,,,,,,,,,,,,,,,,,,,,,,,,,,,,,,,,,,,,,,,,,,,,,,,,,,,,,,,,
