Timestamp,OriginalTimestamp,EEG.Counter,EEG.Interpolated,EEG.AF3,EEG.F7,EEG.F3,EEG.FC5,EEG.T7,EEG.P7,EEG.O1,EEG.O2,EEG.P8,EEG.T8,EEG.FC6,EEG.F4,EEG.F8,EEG.AF4,POW.AF3.Theta,POW.AF3.Alpha,POW.AF3.BetaL,POW.AF3.BetaH,POW.AF3.Gamma,POW.F7.Theta,POW.F7.Alpha,POW.F7.BetaL,POW.F7.BetaH,POW.F7.Gamma,POW.F3.Theta,POW.F3.Alpha,POW.F3.BetaL,POW.F3.BetaH,POW.F3.Gamma,POW.FC5.Theta,POW.FC5.Alpha,POW.FC5.BetaL,POW.FC5.BetaH,POW.FC5.Gamma,POW.T7.Theta,POW.T7.Alpha,POW.T7.BetaL,POW.T7.BetaH,POW.T7.Gamma,POW.P7.Theta,POW.P7.Alpha,POW.P7.BetaL,POW.P7.BetaH,POW.P7.Gamma,POW.O1.Theta,POW.O1.Alpha,POW.O1.BetaL,POW.O1.BetaH,POW.O1.Gamma,POW.O2.Theta,POW.O2.Alpha,POW.O2.BetaL,POW.O2.BetaH,POW.O2.Gamma,POW.P8.Theta,POW.P8.Alpha,POW.P8.BetaL,POW.P8.BetaH,POW.P8.Gamma,POW.T8.Theta,POW.T8.Alpha,POW.T8.BetaL,POW.T8.BetaH,POW.T8.Gamma,POW.FC6.Theta,POW.FC6.Alpha,POW.FC6.BetaL,POW.FC6.BetaH,POW.FC6.Gamma,POW.F4.Theta,POW.F4.Alpha,POW.F4.BetaL,POW.F4.BetaH,POW.F4.Gamma,POW.F8.Theta,POW.F8.Alpha,POW.F8.BetaL,POW.F8.BetaH,POW.F8.Gamma,POW.AF4.Theta,POW.AF4.Alpha,POW.AF4.BetaL,POW.AF4.BetaH,POW.AF4.Gamma
1769163002.575355,1769163002.57592,53.0,0.0,4217.179688,4266.538574,4436.794922,4326.538574,4287.179688,4265.897461,4280.512695,4276.153809,4258.717773,4248.461426,4564.102539,4534.871582,4394.487305,4491.922852,,,,,,,,,,,,,,,,,,,,,,,,,,,,,,,,,,,,,,,,,,,,,,,,,,,,,,,,,,,,,,,,,,,,,,
1769163002.583163,1769163002.583828,54.0,0.0,4220.0,4266.666504,4440.256348,4328.077148,4286.025879,4274.871582,4280.641113,4275.256348,4263.333496,4250.769043,4567.179688,4537.692383,4393.974121,4495.641113,,,,,,,,,,,,,,,,,,,,,,,,,,,,,,,,,,,,,,,,,,,,,,,,,,,,,,,,,,,,,,,,,,,,,,
1769163002.590972,1769163002.591637,55.0,0.0,4215.0,4266.282227,4432.05127,4327.179688,4287.94873,4274.358887,4281.282227,4269.102539,4266.538574,4254.743652,4570.0,4537.94873,4394.743652,4496.282227,,,,,,,,,,,,,,,,,,,,,,,,,,,,,,,,,,,,,,,,,,,,,,,,,,,,,,,,,,,,,,,,,,,,,,
1769163002.59878,1769163002.599645,56.0,0.0,4213.077148,4269.487305,4426.282227,4327.05127,4289.230957,4264.230957,4279.743652,4270.128418,4270.769043,4261.538574,4571.666504,4538.077148,4399.487305,4495.769043,,,,,,,,,,,,,,,,,,,,,,,,,,,,,,,,,,,,,,,,,,,,,,,,,,,,,,,,,,,,,,,,,,,,,,
1769163002.606589,1769163002.607453,57.0,0.0,4215.769043,4280.0,4428.974121,4330.384766,4289.102539,4259.871582,4278.333496,4280.0,4280.128418,4265.256348,4571.410156,4538.077148,4400.641113,4493.589844,,,,,,,,,,,,,,,,,,,,,,,,,,,,,,,,,,,,,,,,,,,,,,,,,,,,,,,,,,,,,,,,,,,,,,
1769163002.614397,1769163002.615362,58.0,0.0,4217.05127,4282.563965,4430.128418,4329.615234,4286.153809,4267.94873,4280.128418,4281.153809,4279.871582,4258.461426,4568.205078,4531.025879,4392.563965,4488.461426,,,,,,,,,,,,,,,,,,,,,,,,,,,,,,,,,,,,,,,,,,,,,,,,,,,,,,,,,,,,,,,,,,,,,,
1769163002.622206,1769163002.62317,59.0,0.0,4220.256348,4275.0,4429.358887,4328.333496,4286.794922,4273.974121,4283.461426,4274.871582,4272.05127,4255.256348,4566.922852,4529.102539,4391.410156,4488.077148,,,,,,,,,,,,,,,,,,,,,,,,,,,,,,,,,,,,,,,,,,,,,,,,,,,,,,,,,,,,,,,,,,,,,,
1769163002.630014,1769163002.631178,60.0,0.0,4215.769043,4268.077148,4426.025879,4329.102539,4290.256348,4268.974121,4280.256348,4274.358887,4274.615234,4264.102539,4572.563965,4540.0,4407.05127,4493.077148,,,,,,,,,,,,,,,,,,,,,,,,,,,,,,,,,,,,,,,,,,,,,,,,,,,,,,,,,,,,,,,,,,,,,,
1769163002.637823,1769163002.638987,61.0,0.0,4203.205078,4266.282227,4416.025879,4321.282227,4289.743652,4267.179688,4279.615234,4276.153809,4275.256348,4262.563965,4575.769043,4540.0,4411.922852,4496.025879,,,,,,,,,,,,,,,,,,,,,,,,,,,,,,,,,,,,,,,,,,,,,,,,,,,,,,,,,,,,,,,,,,,,,,
1769163002.645631,1769163002.646895,62.0,0.0,4194.743652,4260.769043,4406.538574,4311.282227,4289.743652,4279.358887,4290.256348,4278.717773,4267.692383,4249.358887,4565.897461,4523.846191,4392.94873,4488.205078,0.759842,0.296361,0.386933,0.286185,0.231633,0.288592,0.257486,0.285004,0.186106,0.152356,0.224722,0.133405,0.138516,0.102437,0.165939,0.122966,0.173371,0.177104,0.097359,0.062843,0.38692,0.202003,0.098357,0.05117,0.062987,0.417413,0.10485,0.111071,0.119787,0.104002,0.121789,0.15703,0.108364,0.080726,0.115172,0.451131,0.256685,0.209566,0.383682,0.154611,0.156519,0.176054,0.16907,0.259641,0.184292,0.350391,0.369418,0.232974,0.135691,0.132996,0.25742,0.274818,0.34139,0.124969,0.147422,0.361813,0.383033,0.3494,0.212577,0.254519,0.136389,0.17596,0.800426,0.198321,0.267461,1.21528,0.89841,0.81503,0.319291,0.34102
1769163002.653439,1769163002.654704,63.0,0.0,4198.974121,4257.307617,4408.974121,4315.897461,4288.974121,4286.282227,4291.794922,4278.717773,4268.205078,4249.871582,4558.205078,4518.974121,4385.769043,4480.769043,,,,,,,,,,,,,,,,,,,,,,,,,,,,,,,,,,,,,,,,,,,,,,,,,,,,,,,,,,,,,,,,,,,,,,
1769163002.661248,1769163002.662712,64.0,0.0,4222.05127,4268.205078,4424.487305,4329.743652,4285.0,4271.794922,4278.717773,4273.333496,4275.769043,4263.974121,4573.589844,4538.333496,4407.436035,4496.025879,,,,,,,,,,,,,,,,,,,,,,,,,,,,,,,,,,,,,,,,,,,,,,,,,,,,,,,,,,,,,,,,,,,,,,
1769163002.669056,1769163002.67052,65.0,0.0,4234.615234,4276.282227,4433.077148,4329.487305,4284.871582,4261.410156,4275.256348,4275.256348,4279.230957,4269.102539,4589.743652,4554.743652,4420.769043,4513.974121,,,,,,,,,,,,,,,,,,,,,,,,,,,,,,,,,,,,,,,,,,,,,,,,,,,,,,,,,,,,,,,,,,,,,,
1769163002.676865,1769163002.678229,66.0,0.0,4214.358887,4265.641113,4422.692383,4315.128418,4289.102539,4273.974121,4288.846191,4283.974121,4279.743652,4264.102539,4580.384766,4548.077148,4408.077148,4504.230957,,,,,,,,,,,,,,,,,,,,,,,,,,,,,,,,,,,,,,,,,,,,,,,,,,,,,,,,,,,,,,,,,,,,,,
1769163002.684673,1769163002.686037,67.0,0.0,4200.256348,4257.05127,4415.384766,4311.794922,4289.615234,4286.666504,4295.641113,4284.230957,4278.205078,4260.256348,4568.077148,4536.282227,4401.025879,4488.974121,,,,,,,,,,,,,,,,,,,,,,,,,,,,,,,,,,,,,,,,,,,,,,,,,,,,,,,,,,,,,,,,,,,,,,
1769163002.692482,1769163002.693646,68.0,0.0,4214.358887,4265.769043,4423.461426,4323.461426,4290.128418,4277.563965,4286.410156,4278.974121,4275.897461,4261.538574,4572.05127,4537.692383,4408.205078,4494.102539,,,,,,,,,,,,,,,,,,,,,,,,,,,,,,,,,,,,,,,,,,,,,,,,,,,,,,,,,,,,,,,,,,,,,,
1769163002.70029,1769163002.701454,69.0,0.0,4224.871582,4271.538574,4429.871582,4331.410156,4290.897461,4267.820313,4279.871582,4280.128418,4280.769043,4263.333496,4575.641113,4542.05127,4410.384766,4499.871582,,,,,,,,,,,,,,,,,,,,,,,,,,,,,,,,,,,,,,,,,,,,,,,,,,,,,,,,,,,,,,,,,,,,,,
1769163002.708099,1769163002.709163,70.0,0.0,4220.641113,4264.615234,4427.307617,4325.641113,4288.846191,4275.512695,4280.769043,4281.282227,4278.589844,4257.05127,4573.077148,4539.358887,4402.307617,4494.487305,,,,,,,,,,,,,,,,,,,,,,,,,,,,,,,,,,,,,,,,,,,,,,,,,,,,,,,,,,,,,,,,,,,,,,
1769163002.715907,1769163002.716971,71.0,0.0,4209.358887,4257.94873,4419.615234,4316.794922,4289.230957,4284.358887,4284.871582,4277.05127,4266.538574,4252.94873,4570.128418,4536.666504,4395.641113,4489.615234,,,,,,,,,,,,,,,,,,,,,,,,,,,,,,,,,,,,,,,,,,,,,,,,,,,,,,,,,,,,,,,,,,,,,,
1769163002.723716,1769163002.72458,72.0,0.0,4202.692383,4260.384766,4412.179688,4317.820313,4292.05127,4283.461426,4287.820313,4275.769043,4271.666504,4261.153809,4571.025879,4538.205078,4401.666504,4490.512695,,,,,,,,,,,,,,,,,,,,,,,,,,,,,,,,,,,,,,,,,,,,,,,,,,,,,,,,,,,,,,,,,,,,,,
1769163002.731524,1769163002.732389,73.0,0.0,4212.692383,4267.307617,4412.307617,4325.769043,4293.589844,4278.461426,4286.922852,4280.256348,4287.179688,4266.282227,4581.153809,4542.05127,4412.179688,4497.94873,,,,,,,,,,,,,,,,,,,,,,,,,,,,,,,,,,,,,,,,,,,,,,,,,,,,,,,,,,,,,,,,,,,,,,
1769163002.739333,1769163002.740097,74.0,0.0,4220.897461,4266.282227,4415.897461,4328.077148,4294.871582,4283.205078,4285.641113,4280.384766,4283.717773,4260.769043,4583.205078,4542.307617,4412.820313,4502.820313,,,,,,,,,,,,,,,,,,,,,,,,,,,,,,,,,,,,,,,,,,,,,,,,,,,,,,,,,,,,,,,,,,,,,,
1769163002.747141,1769163002.747906,75.0,0.0,4213.974121,4263.205078,4416.794922,4324.743652,4295.256348,4288.846191,4284.358887,4277.05127,4271.666504,4258.205078,4573.205078,4537.820313,4409.743652,4501.282227,,,,,,,,,,,,,,,,,,,,,,,,,,,,,,,,,,,,,,,,,,,,,,,,,,,,,,,,,,,,,,,,,,,,,,
1769163002.754949,1769163002.755514,76.0,0.0,4214.615234,4266.025879,4416.922852,4328.077148,4295.256348,4283.205078,4280.897461,4276.794922,4271.794922,4257.692383,4575.512695,4540.128418,4413.589844,4503.461426,,,,,,,,,,,,,,,,,,,,,,,,,,,,,,,,,,,,,,,,,,,,,,,,,,,,,,,,,,,,,,,,,,,,,,
1769163002.762758,1769163002.763323,77.0,0.0,4217.436035,4266.282227,4416.025879,4328.589844,4295.128418,4282.307617,4284.102539,4277.94873,4273.589844,4255.0,4581.794922,4540.0,4413.974121,4508.077148,,,,,,,,,,,,,,,,,,,,,,,,,,,,,,,,,,,,,,,,,,,,,,,,,,,,,,,,,,,,,,,,,,,,,,
1769163002.770566,1769163002.771231,78.0,0.0,4205.512695,4261.153809,4409.743652,4321.538574,4293.846191,4287.307617,4290.897461,4283.333496,4275.0,4258.589844,4579.743652,4540.128418,4411.410156,4508.077148,0.853681,0.319001,0.441608,0.296856,0.262852,0.316666,0.289711,0.331373,0.192404,0.184594,0.248704,0.182344,0.167231,0.116598,0.19244,0.145996,0.16742,0.197933,0.096529,0.07085,0.404864,0.212604,0.093724,0.059637,0.074396,0.409753,0.119843,0.134085,0.105454,0.110976,0.129547,0.190005,0.104331,0.07331,0.114425,0.423939,0.256663,0.238297,0.386495,0.163667,0.185851,0.193829,0.162394,0.27251,0.198772,0.332434,0.374825,0.274742,0.120499,0.134134,0.30567,0.227576,0.387766,0.136604,0.140027,0.37766,0.424653,0.393172,0.22255,0.281288,0.153948,0.195588,0.915687,0.228033,0.2778,1.268067,1.020818,0.910431,0.361675,0.348894
1769163002.778375,1769163002.779039,79.0,0.0,4199.102539,4260.512695,4404.102539,4321.282227,4290.384766,4282.563965,4289.487305,4291.410156,4280.512695,4263.077148,4580.769043,4549.230957,4413.205078,4507.307617,,,,,,,,,,,,,,,,,,,,,,,,,,,,,,,,,,,,,,,,,,,,,,,,,,,,,,,,,,,,,,,,,,,,,,
1769163002.786183,1769163002.787048,80.0,0.0,4206.922852,4264.102539,4405.0,4326.538574,4290.512695,4280.769043,4287.820313,4292.563965,4280.641113,4261.153809,4585.897461,4550.128418,4412.307617,4509.102539,,,,,,,,,,,,,,,,,,,,,,,,,,,,,,,,,,,,,,,,,,,,,,,,,,,,,,,,,,,,,,,,,,,,,,
1769163002.793992,1769163002.794856,81.0,0.0,4212.820313,4262.307617,4410.384766,4328.077148,4293.974121,4286.666504,4288.461426,4287.820313,4278.846191,4259.743652,4584.230957,4541.538574,4410.897461,4505.128418,,,,,,,,,,,,,,,,,,,,,,,,,,,,,,,,,,,,,,,,,,,,,,,,,,,,,,,,,,,,,,,,,,,,,,
1769163002.8018,1769163002.802764,82.0,0.0,4215.384766,4260.641113,4411.025879,4326.794922,4294.358887,4281.666504,4282.563965,4282.692383,4276.282227,4256.025879,4574.871582,4536.025879,4405.769043,4490.512695,,,,,,,,,,,,,,,,,,,,,,,,,,,,,,,,,,,,,,,,,,,,,,,,,,,,,,,,,,,,,,,,,,,,,,
1769163002.809609,1769163002.810573,83.0,0.0,4214.871582,4263.333496,4408.461426,4326.410156,4293.205078,4275.769043,4279.102539,4278.333496,4267.820313,4246.410156,4566.666504,4534.487305,4394.743652,4480.897461,,,,,,,,,,,,,,,,,,,,,,,,,,,,,,,,,,,,,,,,,,,,,,,,,,,,,,,,,,,,,,,,,,,,,,
1769163002.817417,1769163002.818182,84.0,0.0,4203.461426,4259.615234,4410.384766,4324.102539,4292.307617,4279.358887,4281.538574,4276.538574,4262.307617,4247.94873,4567.436035,4535.384766,4395.384766,4488.077148,,,,,,,,,,,,,,,,,,,,,,,,,,,,,,,,,,,,,,,,,,,,,,,,,,,,,,,,,,,,,,,,,,,,,,
1769163002.825225,1769163002.82599,85.0,0.0,4199.230957,4255.256348,4410.128418,4323.717773,4292.179688,4280.641113,4281.666504,4276.410156,4264.358887,4256.538574,4571.410156,4538.461426,4403.589844,4495.256348,,,,,,,,,,,,,,,,,,,,,,,,,,,,,,,,,,,,,,,,,,,,,,,,,,,,,,,,,,,,,,,,,,,,,,
1769163002.833034,1769163002.833699,86.0,0.0,4211.153809,4260.256348,4407.05127,4328.717773,4291.666504,4280.897461,4281.794922,4278.077148,4266.538574,4252.820313,4568.333496,4538.077148,4399.743652,4488.846191,,,,,,,,,,,,,,,,,,,,,,,,,,,,,,,,,,,,,,,,,,,,,,,,,,,,,,,,,,,,,,,,,,,,,,
1769163002.840842,1769163002.841507,87.0,0.0,4210.128418,4256.666504,4403.461426,4327.307617,4286.153809,4281.410156,4283.846191,4284.102539,4268.589844,4248.589844,4566.666504,4536.410156,4394.358887,4485.512695,,,,,,,,,,,,,,,,,,,,,,,,,,,,,,,,,,,,,,,,,,,,,,,,,,,,,,,,,,,,,,,,,,,,,,
1769163002.848651,1769163002.849515,88.0,0.0,4199.230957,4244.230957,4398.461426,4320.769043,4282.692383,4281.153809,4287.94873,4287.307617,4270.384766,4251.666504,4568.717773,4539.102539,4397.436035,4489.102539,,,,,,,,,,,,,,,,,,,,,,,,,,,,,,,,,,,,,,,,,,,,,,,,,,,,,,,,,,,,,,,,,,,,,,
1769163002.856459,1769163002.857324,89.0,0.0,4202.179688,4244.487305,4396.282227,4321.794922,4288.077148,4284.358887,4295.384766,4289.871582,4274.358887,4251.153809,4568.333496,4538.077148,4397.436035,4488.333496,,,,,,,,,,,,,,,,,,,,,,,,,,,,,,,,,,,,,,,,,,,,,,,,,,,,,,,,,,,,,,,,,,,,,,
1769163002.864268,1769163002.865032,90.0,0.0,4206.025879,4251.538574,4396.922852,4327.563965,4293.846191,4285.512695,4295.256348,4291.410156,4276.794922,4250.256348,4570.0,4537.820313,4397.307617,4489.615234,,,,,,,,,,,,,,,,,,,,,,,,,,,,,,,,,,,,,,,,,,,,,,,,,,,,,,,,,,,,,,,,,,,,,,
1769163002.872076,1769163002.872841,91.0,0.0,4202.820313,4251.666504,4398.461426,4329.230957,4294.102539,4280.128418,4285.641113,4284.615234,4276.025879,4252.820313,4571.538574,4540.641113,4399.358887,4492.05127,,,,,,,,,,,,,,,,,,,,,,,,,,,,,,,,,,,,,,,,,,,,,,,,,,,,,,,,,,,,,,,,,,,,,,
1769163002.879885,1769163002.880549,92.0,0.0,4204.615234,4249.743652,4398.717773,4329.102539,4292.179688,4276.794922,4280.128418,4280.128418,4274.743652,4252.05127,4570.641113,4539.615234,4399.102539,4490.897461,,,,,,,,,,,,,,,,,,,,,,,,,,,,,,,,,,,,,,,,,,,,,,,,,,,,,,,,,,,,,,,,,,,,,,
1769163002.887693,1769163002.888358,93.0,0.0,4206.410156,4248.461426,4396.922852,4326.666504,4289.102539,4278.846191,4280.897461,4280.641113,4270.641113,4254.230957,4573.333496,4539.615234,4404.230957,4498.077148,,,,,,,,,,,,,,,,,,,,,,,,,,,,,,,,,,,,,,,,,,,,,,,,,,,,,,,,,,,,,,,,,,,,,,
1769163002.895502,1769163002.896266,94.0,0.0,4203.589844,4248.333496,4395.384766,4322.436035,4287.05127,4280.384766,4281.538574,4278.846191,4268.461426,4260.641113,4578.077148,4546.153809,4410.897461,4507.179688,0.840638,0.326435,0.467697,0.317936,0.298488,0.373681,0.298333,0.364957,0.200567,0.213241,0.330237,0.233691,0.189939,0.139831,0.21409,0.172779,0.159812,0.199478,0.094298,0.080451,0.38127,0.212811,0.085671,0.06683,0.082855,0.39186,0.136281,0.152813,0.094649,0.128158,0.13996,0.210342,0.100139,0.06634,0.111734,0.375187,0.2801,0.285229,0.371175,0.168639,0.231885,0.214704,0.166974,0.280506,0.208159,0.326185,0.360383,0.319594,0.109441,0.132584,0.371815,0.196409,0.410682,0.141697,0.125874,0.407019,0.468702,0.434216,0.221854,0.294108,0.228139,0.216031,0.966511,0.252159,0.274652,1.291145,1.062842,0.965113,0.390053,0.337016
1769163002.90331,1769163002.904074,95.0,0.0,4203.333496,4250.256348,4397.820313,4323.589844,4290.0,4281.410156,4285.0,4280.769043,4275.128418,4263.974121,4581.538574,4550.256348,4411.538574,4507.307617,,,,,,,,,,,,,,,,,,,,,,,,,,,,,,,,,,,,,,,,,,,,,,,,,,,,,,,,,,,,,,,,,,,,,,
1769163002.911118,1769163002.911683,96.0,0.0,4200.897461,4249.358887,4398.077148,4325.256348,4292.307617,4282.563965,4286.410156,4285.512695,4279.743652,4264.487305,4582.436035,4544.743652,4413.717773,4504.743652,,,,,,,,,,,,,,,,,,,,,,,,,,,,,,,,,,,,,,,,,,,,,,,,,,,,,,,,,,,,,,,,,,,,,,
1769163002.918927,1769163002.919492,97.0,0.0,4199.871582,4251.538574,4391.666504,4325.384766,4291.666504,4282.307617,4281.666504,4279.743652,4273.974121,4259.102539,4575.512695,4538.333496,4410.641113,4498.846191,,,,,,,,,,,,,,,,,,,,,,,,,,,,,,,,,,,,,,,,,,,,,,,,,,,,,,,,,,,,,,,,,,,,,,
1769163002.926735,1769163002.9272,98.0,0.0,4202.94873,4254.230957,4387.563965,4326.666504,4290.0,4281.410156,4282.307617,4275.641113,4273.717773,4254.230957,4567.94873,4537.05127,4400.897461,4491.794922,,,,,,,,,,,,,,,,,,,,,,,,,,,,,,,,,,,,,,,,,,,,,,,,,,,,,,,,,,,,,,,,,,,,,,
1769163002.934544,1769163002.935009,99.0,0.0,4196.025879,4248.589844,4390.256348,4321.794922,4286.410156,4282.05127,4290.512695,4284.615234,4280.641113,4259.487305,4572.820313,4539.230957,4403.974121,4494.230957,,,,,,,,,,,,,,,,,,,,,,,,,,,,,,,,,,,,,,,,,,,,,,,,,,,,,,,,,,,,,,,,,,,,,,
1769163002.942352,1769163002.942617,100.0,0.0,4187.307617,4245.641113,4390.256348,4311.794922,4280.897461,4282.05127,4293.974121,4292.692383,4283.205078,4265.512695,4577.692383,4541.153809,4412.179688,4498.205078,,,,,,,,,,,,,,,,,,,,,,,,,,,,,,,,,,,,,,,,,,,,,,,,,,,,,,,,,,,,,,,,,,,,,,
1769163002.950161,1769163002.950426,101.0,0.0,4190.897461,4246.153809,4382.307617,4310.512695,4279.102539,4279.743652,4292.05127,4294.743652,4282.692383,4261.410156,4573.461426,4540.256348,4406.666504,4492.307617,,,,,,,,,,,,,,,,,,,,,,,,,,,,,,,,,,,,,,,,,,,,,,,,,,,,,,,,,,,,,,,,,,,,,,
1769163002.957969,1769163002.958134,102.0,0.0,4197.307617,4245.128418,4383.974121,4318.974121,4286.794922,4281.153809,4293.333496,4291.410156,4277.94873,4259.615234,4573.589844,4538.077148,4403.461426,4489.743652,,,,,,,,,,,,,,,,,,,,,,,,,,,,,,,,,,,,,,,,,,,,,,,,,,,,,,,,,,,,,,,,,,,,,,
1769163002.965778,1769163002.965943,103.0,0.0,4207.692383,4255.769043,4399.230957,4326.922852,4294.487305,4283.589844,4292.563965,4289.615234,4279.358887,4266.025879,4581.538574,4541.794922,4414.487305,4499.358887,,,,,,,,,,,,,,,,,,,,,,,,,,,,,,,,,,,,,,,,,,,,,,,,,,,,,,,,,,,,,,,,,,,,,,
1769163002.973586,1769163002.973951,104.0,0.0,4216.538574,4265.897461,4403.717773,4330.897461,4292.563965,4281.153809,4285.128418,4291.025879,4286.410156,4268.333496,4588.589844,4545.897461,4422.05127,4509.230957,,,,,,,,,,,,,,,,,,,,,,,,,,,,,,,,,,,,,,,,,,,,,,,,,,,,,,,,,,,,,,,,,,,,,,
1769163002.981394,1769163002.981759,105.0,0.0,4209.230957,4257.05127,4395.384766,4327.179688,4288.461426,4276.538574,4279.743652,4284.487305,4281.410156,4263.846191,4585.384766,4541.922852,4417.179688,4508.333496,,,,,,,,,,,,,,,,,,,,,,,,,,,,,,,,,,,,,,,,,,,,,,,,,,,,,,,,,,,,,,,,,,,,,,
1769163002.989203,1769163002.989668,106.0,0.0,4199.102539,4247.436035,4393.974121,4319.358887,4288.717773,4274.487305,4279.230957,4275.769043,4271.794922,4262.179688,4574.230957,4538.717773,4411.282227,4503.589844,,,,,,,,,,,,,,,,,,,,,,,,,,,,,,,,,,,,,,,,,,,,,,,,,,,,,,,,,,,,,,,,,,,,,,
1769163002.997011,1769163002.997476,107.0,0.0,4200.769043,4249.743652,4397.179688,4320.641113,4289.871582,4278.077148,4280.897461,4277.563965,4274.615234,4265.0,4571.282227,4541.666504,4413.333496,4507.563965,,,,,,,,,,,,,,,,,,,,,,,,,,,,,,,,,,,,,,,,,,,,,,,,,,,,,,,,,,,,,,,,,,,,,,
1769163003.00482,1769163003.005484,108.0,0.0,4204.102539,4256.025879,4397.05127,4327.307617,4290.0,4282.436035,4284.230957,4283.205078,4278.077148,4260.256348,4576.153809,4540.641113,4411.794922,4503.589844,,,,,,,,,,,,,,,,,,,,,,,,,,,,,,,,,,,,,,,,,,,,,,,,,,,,,,,,,,,,,,,,,,,,,,
1769163003.012628,1769163003.013293,109.0,0.0,4207.307617,4261.153809,4400.128418,4328.717773,4289.615234,4278.205078,4284.743652,4282.436035,4273.846191,4253.461426,4572.05127,4533.846191,4403.717773,4490.897461,,,,,,,,,,,,,,,,,,,,,,,,,,,,,,,,,,,,,,,,,,,,,,,,,,,,,,,,,,,,,,,,,,,,,,
1769163003.020437,1769163003.021001,110.0,0.0,4217.307617,4263.974121,4404.743652,4329.230957,4287.820313,4272.307617,4278.205078,4281.153809,4275.256348,4257.05127,4567.820313,4534.487305,4405.769043,4496.666504,0.807792,0.306208,0.466683,0.355458,0.342405,0.434189,0.277225,0.381672,0.211572,0.237504,0.375799,0.272547,0.206625,0.173393,0.228649,0.195401,0.147795,0.18206,0.094546,0.093258,0.329673,0.201715,0.074951,0.070773,0.086425,0.373149,0.151942,0.164634,0.088319,0.153652,0.149895,0.214972,0.097819,0.06292,0.110268,0.316687,0.324901,0.354829,0.340845,0.167762,0.2811,0.231872,0.192178,0.282269,0.21114,0.330617,0.326548,0.355356,0.102599,0.128483,0.444054,0.179458,0.403961,0.136537,0.114145,0.448113,0.504521,0.473558,0.213051,0.294848,0.34715,0.227382,0.941705,0.260823,0.264842,1.295304,1.019726,0.968302,0.398095,0.315929
1769163003.028245,1769163003.02881,111.0,0.0,4218.205078,4264.358887,4403.461426,4330.641113,4289.230957,4276.153809,4276.538574,4282.820313,4280.256348,4263.205078,4576.538574,4540.769043,4415.256348,4510.512695,,,,,,,,,,,,,,,,,,,,,,,,,,,,,,,,,,,,,,,,,,,,,,,,,,,,,,,,,,,,,,,,,,,,,,
1769163003.036054,1769163003.036818,112.0,0.0,4206.153809,4262.05127,4397.94873,4327.94873,4288.461426,4281.153809,4281.922852,4290.512695,4279.743652,4263.333496,4583.077148,4541.282227,4415.256348,4509.871582,,,,,,,,,,,,,,,,,,,,,,,,,,,,,,,,,,,,,,,,,,,,,,,,,,,,,,,,,,,,,,,,,,,,,,
1769163003.043862,1769163003.044627,113.0,0.0,4198.205078,4253.846191,4396.922852,4326.282227,4282.307617,4280.256348,4283.205078,4297.179688,4279.102539,4262.179688,4581.282227,4539.615234,4411.282227,4505.128418,,,,,,,,,,,,,,,,,,,,,,,,,,,,,,,,,,,,,,,,,,,,,,,,,,,,,,,,,,,,,,,,,,,,,,
1769163003.051671,1769163003.052535,114.0,0.0,4199.487305,4249.743652,4398.974121,4327.307617,4283.205078,4278.974121,4279.615234,4288.333496,4280.897461,4262.179688,4581.410156,4538.846191,4413.589844,4506.025879,,,,,,,,,,,,,,,,,,,,,,,,,,,,,,,,,,,,,,,,,,,,,,,,,,,,,,,,,,,,,,,,,,,,,,
1769163003.059479,1769163003.060343,115.0,0.0,4204.487305,4252.307617,4397.692383,4326.538574,4289.615234,4281.666504,4283.846191,4275.384766,4278.077148,4262.05127,4583.205078,4537.436035,4413.974121,4505.641113,,,,,,,,,,,,,,,,,,,,,,,,,,,,,,,,,,,,,,,,,,,,,,,,,,,,,,,,,,,,,,,,,,,,,,
1769163003.067288,1769163003.067952,116.0,0.0,4206.282227,4251.922852,4395.769043,4326.538574,4288.846191,4285.641113,4292.563965,4281.282227,4277.820313,4262.820313,4584.487305,4539.102539,4413.205078,4507.563965,,,,,,,,,,,,,,,,,,,,,,,,,,,,,,,,,,,,,,,,,,,,,,,,,,,,,,,,,,,,,,,,,,,,,,
1769163003.075096,1769163003.07576,117.0,0.0,4205.256348,4254.743652,4397.05127,4327.94873,4288.205078,4283.461426,4288.589844,4295.384766,4285.641113,4263.974121,4587.179688,4543.461426,4419.358887,4512.692383,,,,,,,,,,,,,,,,,,,,,,,,,,,,,,,,,,,,,,,,,,,,,,,,,,,,,,,,,,,,,,,,,,,,,,
1769163003.082904,1769163003.083469,118.0,0.0,4203.974121,4260.512695,4398.846191,4327.94873,4293.205078,4277.692383,4277.436035,4289.102539,4284.615234,4264.358887,4586.025879,4541.666504,4419.358887,4511.025879,,,,,,,,,,,,,,,,,,,,,,,,,,,,,,,,,,,,,,,,,,,,,,,,,,,,,,,,,,,,,,,,,,,,,,
1769163003.090713,1769163003.091277,119.0,0.0,4200.769043,4258.333496,4395.256348,4325.897461,4291.922852,4279.743652,4278.205078,4274.358887,4275.256348,4262.820313,4581.538574,4536.794922,4410.641113,4506.538574,,,,,,,,,,,,,,,,,,,,,,,,,,,,,,,,,,,,,,,,,,,,,,,,,,,,,,,,,,,,,,,,,,,,,,
1769163003.098521,1769163003.099286,120.0,0.0,4203.205078,4257.692383,4395.0,4325.769043,4287.820313,4283.589844,4284.615234,4278.717773,4277.05127,4263.333496,4583.589844,4537.692383,4410.0,4506.410156,,,,,,,,,,,,,,,,,,,,,,,,,,,,,,,,,,,,,,,,,,,,,,,,,,,,,,,,,,,,,,,,,,,,,,
1769163003.10633,1769163003.107094,121.0,0.0,4211.153809,4263.205078,4405.256348,4327.436035,4289.615234,4280.897461,4281.538574,4290.256348,4283.333496,4265.512695,4586.794922,4540.897461,4415.0,4507.94873,,,,,,,,,,,,,,,,,,,,,,,,,,,,,,,,,,,,,,,,,,,,,,,,,,,,,,,,,,,,,,,,,,,,,,
1769163003.114138,1769163003.115002,122.0,0.0,4214.871582,4262.563965,4410.384766,4327.820313,4290.256348,4277.692383,4275.769043,4288.717773,4280.641113,4264.102539,4584.871582,4541.282227,4416.922852,4509.230957,,,,,,,,,,,,,,,,,,,,,,,,,,,,,,,,,,,,,,,,,,,,,,,,,,,,,,,,,,,,,,,,,,,,,,
1769163003.121947,1769163003.122811,123.0,0.0,4213.333496,4258.589844,4403.589844,4330.128418,4288.717773,4281.282227,4280.256348,4286.410156,4278.717773,4263.205078,4585.512695,4540.641113,4418.589844,4510.0,,,,,,,,,,,,,,,,,,,,,,,,,,,,,,,,,,,,,,,,,,,,,,,,,,,,,,,,,,,,,,,,,,,,,,
1769163003.129755,1769163003.13042,124.0,0.0,4212.692383,4259.615234,4397.05127,4331.922852,4290.897461,4286.666504,4285.641113,4290.641113,4281.666504,4264.871582,4587.307617,4539.230957,4417.05127,4507.692383,,,,,,,,,,,,,,,,,,,,,,,,,,,,,,,,,,,,,,,,,,,,,,,,,,,,,,,,,,,,,,,,,,,,,,
1769163003.137564,1769163003.138228,125.0,0.0,4214.230957,4262.179688,4397.436035,4330.0,4294.230957,4286.538574,4283.461426,4291.922852,4281.282227,4264.230957,4585.256348,4538.589844,4412.307617,4505.769043,,,,,,,,,,,,,,,,,,,,,,,,,,,,,,,,,,,,,,,,,,,,,,,,,,,,,,,,,,,,,,,,,,,,,,
1769163003.145372,1769163003.145937,126.0,0.0,4212.94873,4258.717773,4400.512695,4326.153809,4291.538574,4282.563965,4283.461426,4293.974121,4280.256348,4260.897461,4583.589844,4540.641113,4414.871582,4508.589844,0.6642,0.260313,0.453867,0.412725,0.393904,0.467497,0.233934,0.38201,0.22411,0.257544,0.448569,0.288674,0.221844,0.214926,0.234901,0.21453,0.131449,0.15328,0.102431,0.110159,0.266399,0.180979,0.063678,0.071609,0.084511,0.364375,0.166666,0.168619,0.085089,0.183724,0.157842,0.207783,0.099523,0.066349,0.111927,0.260529,0.384129,0.445024,0.300361,0.160041,0.314608,0.241697,0.240285,0.278624,0.208288,0.336505,0.28257,0.37339,0.102016,0.124502,0.507698,0.177774,0.37247,0.125134,0.113786,0.487965,0.524488,0.510268,0.203557,0.288106,0.49075,0.232338,0.855039,0.25107,0.258647,1.286751,0.920062,0.928753,0.387307,0.298052
1769163003.15318,1769163003.153745,127.0,0.0,4215.769043,4259.102539,4402.05127,4328.461426,4290.897461,4281.410156,4285.384766,4287.94873,4278.333496,4259.487305,4583.974121,4540.641113,4417.05127,4508.717773,,,,,,,,,,,,,,,,,,,,,,,,,,,,,,,,,,,,,,,,,,,,,,,,,,,,,,,,,,,,,,,,,,,,,,
1769163003.160989,1769163003.161354,0.0,0.0,4214.615234,4264.871582,4400.384766,4333.333496,4295.0,4281.410156,4278.333496,4276.282227,4276.794922,4261.025879,4583.717773,4538.333496,4416.153809,4506.025879,,,,,,,,,,,,,,,,,,,,,,,,,,,,,,,,,,,,,,,,,,,,,,,,,,,,,,,,,,,,,,,,,,,,,,
1769163003.168797,1769163003.169162,1.0,0.0,4204.615234,4258.717773,4396.025879,4328.846191,4290.128418,4279.871582,4274.487305,4283.846191,4279.743652,4262.436035,4584.487305,4537.820313,4419.743652,4507.179688,,,,,,,,,,,,,,,,,,,,,,,,,,,,,,,,,,,,,,,,,,,,,,,,,,,,,,,,,,,,,,,,,,,,,,
1769163003.176606,1769163003.17707,2.0,0.0,4206.025879,4251.538574,4394.230957,4324.358887,4282.307617,4279.743652,4279.230957,4293.974121,4282.05127,4263.205078,4586.666504,4540.641113,4424.358887,4508.974121,,,,,,,,,,,,,,,,,,,,,,,,,,,,,,,,,,,,,,,,,,,,,,,,,,,,,,,,,,,,,,,,,,,,,,
1769163003.184414,1769163003.184879,3.0,0.0,4216.282227,4258.717773,4395.384766,4328.461426,4284.615234,4280.256348,4279.102539,4282.307617,4278.846191,4263.077148,4587.179688,4542.05127,4427.94873,4508.974121,,,,,,,,,,,,,,,,,,,,,,,,,,,,,,,,,,,,,,,,,,,,,,,,,,,,,,,,,,,,,,,,,,,,,,
1769163003.192223,1769163003.192887,4.0,0.0,4217.05127,4264.743652,4398.974121,4335.512695,4289.487305,4279.230957,4275.512695,4276.922852,4277.179688,4262.05127,4583.846191,4539.102539,4424.743652,4508.974121,,,,,,,,,,,,,,,,,,,,,,,,,,,,,,,,,,,,,,,,,,,,,,,,,,,,,,,,,,,,,,,,,,,,,,
1769163003.200031,1769163003.200696,5.0,0.0,4214.102539,4260.641113,4400.384766,4335.128418,4288.333496,4279.871582,4276.025879,4291.666504,4279.358887,4261.025879,4583.589844,4539.871582,4418.717773,4506.666504,,,,,,,,,,,,,,,,,,,,,,,,,,,,,,,,,,,,,,,,,,,,,,,,,,,,,,,,,,,,,,,,,,,,,,
1769163003.20784,1769163003.208604,6.0,0.0,4218.205078,4261.282227,4397.179688,4329.743652,4287.436035,4281.538574,4277.05127,4297.179688,4280.641113,4262.307617,4588.589844,4548.717773,4423.077148,4507.179688,,,,,,,,,,,,,,,,,,,,,,,,,,,,,,,,,,,,,,,,,,,,,,,,,,,,,,,,,,,,,,,,,,,,,,
1769163003.215648,1769163003.216412,7.0,0.0,4219.615234,4262.94873,4396.153809,4329.487305,4289.230957,4281.410156,4278.461426,4293.205078,4279.615234,4263.717773,4588.077148,4554.871582,4430.512695,4514.615234,,,,,,,,,,,,,,,,,,,,,,,,,,,,,,,,,,,,,,,,,,,,,,,,,,,,,,,,,,,,,,,,,,,,,,
1769163003.223457,1769163003.224021,8.0,0.0,4217.563965,4262.94873,4403.333496,4336.922852,4291.538574,4280.769043,4279.102539,4294.102539,4278.974121,4262.436035,4587.436035,4553.589844,4427.563965,4519.743652,,,,,,,,,,,,,,,,,,,,,,,,,,,,,,,,,,,,,,,,,,,,,,,,,,,,,,,,,,,,,,,,,,,,,,
1769163003.231265,1769163003.231829,9.0,0.0,4220.256348,4271.153809,4410.128418,4344.743652,4295.384766,4281.666504,4277.179688,4295.256348,4279.230957,4262.563965,4595.384766,4554.743652,4427.94873,4524.743652,,,,,,,,,,,,,,,,,,,,,,,,,,,,,,,,,,,,,,,,,,,,,,,,,,,,,,,,,,,,,,,,,,,,,,
1769163003.239073,1769163003.239738,10.0,0.0,4219.102539,4271.794922,4405.512695,4338.077148,4293.974121,4282.94873,4276.153809,4294.615234,4280.641113,4263.589844,4597.307617,4554.871582,4432.05127,4524.487305,,,,,,,,,,,,,,,,,,,,,,,,,,,,,,,,,,,,,,,,,,,,,,,,,,,,,,,,,,,,,,,,,,,,,,
1769163003.246882,1769163003.247546,11.0,0.0,4214.230957,4262.436035,4396.666504,4326.282227,4288.846191,4282.563965,4275.897461,4294.102539,4281.282227,4262.563965,4586.666504,4549.230957,4422.436035,4512.05127,,,,,,,,,,,,,,,,,,,,,,,,,,,,,,,,,,,,,,,,,,,,,,,,,,,,,,,,,,,,,,,,,,,,,,
1769163003.25469,1769163003.255554,12.0,0.0,4215.897461,4260.897461,4396.538574,4325.128418,4290.384766,4282.436035,4276.410156,4293.461426,4280.769043,4261.282227,4583.846191,4549.487305,4419.102539,4510.769043,,,,,,,,,,,,,,,,,,,,,,,,,,,,,,,,,,,,,,,,,,,,,,,,,,,,,,,,,,,,,,,,,,,,,,
1769163003.262499,1769163003.263363,13.0,0.0,4222.436035,4266.153809,4403.589844,4330.641113,4289.615234,4280.641113,4275.256348,4294.615234,4287.307617,4266.538574,4593.974121,4555.512695,4430.641113,4527.436035,,,,,,,,,,,,,,,,,,,,,,,,,,,,,,,,,,,,,,,,,,,,,,,,,,,,,,,,,,,,,,,,,,,,,,
1769163003.270307,1769163003.271071,14.0,0.0,4226.282227,4267.307617,4406.666504,4334.871582,4282.05127,4275.769043,4269.615234,4293.717773,4295.256348,4275.256348,4599.743652,4557.436035,4432.436035,4526.410156,0.545058,0.204465,0.44555,0.489601,0.444203,0.470393,0.184618,0.37007,0.236353,0.272185,0.474736,0.283655,0.241314,0.259392,0.2326,0.227377,0.114146,0.12449,0.12368,0.129447,0.211621,0.158133,0.053935,0.072317,0.077958,0.36163,0.178568,0.164956,0.082867,0.212874,0.158751,0.200606,0.105678,0.07917,0.116182,0.212661,0.450132,0.541884,0.256703,0.147233,0.324542,0.245721,0.302625,0.27032,0.201493,0.33724,0.237974,0.369243,0.109772,0.123691,0.55036,0.190806,0.328508,0.115542,0.128469,0.50979,0.525357,0.535473,0.199686,0.277749,0.631516,0.235353,0.735404,0.228047,0.263354,1.268728,0.815306,0.863648,0.364802,0.290607
1769163003.278116,1769163003.27888,15.0,0.0,4226.922852,4266.025879,4405.512695,4335.769043,4279.871582,4273.717773,4271.153809,4291.153809,4289.743652,4272.94873,4598.205078,4555.897461,4428.974121,4514.230957,,,,,,,,,,,,,,,,,,,,,,,,,,,,,,,,,,,,,,,,,,,,,,,,,,,,,,,,,,,,,,,,,,,,,,
1769163003.285924,1769163003.286489,16.0,0.0,4232.692383,4266.538574,4406.282227,4336.922852,4285.0,4276.922852,4276.794922,4290.769043,4281.410156,4265.897461,4602.820313,4556.922852,4442.307617,4527.179688,,,,,,,,,,,,,,,,,,,,,,,,,,,,,,,,,,,,,,,,,,,,,,,,,,,,,,,,,,,,,,,,,,,,,,
1769163003.293733,1769163003.294297,17.0,0.0,4233.846191,4264.358887,4407.820313,4337.94873,4286.538574,4280.769043,4271.922852,4288.461426,4282.05127,4265.384766,4605.512695,4557.05127,4448.333496,4537.820313,,,,,,,,,,,,,,,,,,,,,,,,,,,,,,,,,,,,,,,,,,,,,,,,,,,,,,,,,,,,,,,,,,,,,,
1769163003.301541,1769163003.302205,18.0,0.0,4222.436035,4262.179688,4404.358887,4337.05127,4286.666504,4281.794922,4271.922852,4290.769043,4281.922852,4265.0,4594.743652,4554.743652,4428.846191,4522.05127,,,,,,,,,,,,,,,,,,,,,,,,,,,,,,,,,,,,,,,,,,,,,,,,,,,,,,,,,,,,,,,,,,,,,,
1769163003.309349,1769163003.310014,19.0,0.0,4223.333496,4264.358887,4400.769043,4339.615234,4290.641113,4281.922852,4277.563965,4296.282227,4280.512695,4262.05127,4592.05127,4556.025879,4430.256348,4517.179688,,,,,,,,,,,,,,,,,,,,,,,,,,,,,,,,,,,,,,,,,,,,,,,,,,,,,,,,,,,,,,,,,,,,,,
1769163003.317158,1769163003.318022,20.0,0.0,4235.384766,4266.025879,4400.384766,4342.94873,4289.102539,4281.025879,4273.077148,4288.589844,4282.05127,4265.128418,4603.846191,4558.461426,4447.436035,4527.820313,,,,,,,,,,,,,,,,,,,,,,,,,,,,,,,,,,,,,,,,,,,,,,,,,,,,,,,,,,,,,,,,,,,,,,
1769163003.324966,1769163003.325831,21.0,0.0,4229.487305,4263.077148,4397.436035,4337.179688,4283.974121,4277.563965,4268.846191,4280.128418,4280.512695,4266.282227,4598.974121,4554.743652,4436.538574,4524.871582,,,,,,,,,,,,,,,,,,,,,,,,,,,,,,,,,,,,,,,,,,,,,,,,,,,,,,,,,,,,,,,,,,,,,,
1769163003.332775,1769163003.333539,22.0,0.0,4221.538574,4260.384766,4394.615234,4330.512695,4281.794922,4274.102539,4271.025879,4286.922852,4278.589844,4261.922852,4590.256348,4551.153809,4429.102539,4520.128418,,,,,,,,,,,,,,,,,,,,,,,,,,,,,,,,,,,,,,,,,,,,,,,,,,,,,,,,,,,,,,,,,,,,,,
1769163003.340583,1769163003.341348,23.0,0.0,4229.230957,4262.05127,4398.205078,4334.358887,4280.897461,4271.666504,4267.179688,4289.230957,4281.025879,4263.461426,4598.589844,4557.179688,4442.820313,4526.538574,,,,,,,,,,,,,,,,,,,,,,,,,,,,,,,,,,,,,,,,,,,,,,,,,,,,,,,,,,,,,,,,,,,,,,
1769163003.348392,1769163003.348956,24.0,0.0,4233.717773,4263.589844,4399.358887,4337.94873,4284.871582,4266.025879,4260.128418,4277.179688,4278.333496,4266.153809,4599.615234,4553.974121,4441.794922,4525.384766,,,,,,,,,,,,,,,,,,,,,,,,,,,,,,,,,,,,,,,,,,,,,,,,,,,,,,,,,,,,,,,,,,,,,,
1769163003.3562,1769163003.356765,25.0,0.0,4226.282227,4263.077148,4392.692383,4333.717773,4288.205078,4262.692383,4262.05127,4274.358887,4274.487305,4262.94873,4592.820313,4543.717773,4436.666504,4522.179688,,,,,,,,,,,,,,,,,,,,,,,,,,,,,,,,,,,,,,,,,,,,,,,,,,,,,,,,,,,,,,,,,,,,,,
1769163003.364009,1769163003.364473,26.0,0.0,4221.410156,4261.922852,4388.077148,4331.794922,4287.820313,4272.436035,4267.563965,4285.769043,4279.615234,4262.436035,4600.0,4545.0,4447.436035,4525.0,,,,,,,,,,,,,,,,,,,,,,,,,,,,,,,,,,,,,,,,,,,,,,,,,,,,,,,,,,,,,,,,,,,,,,
1769163003.371817,1769163003.372282,27.0,0.0,4220.128418,4264.487305,4386.666504,4334.615234,4288.205078,4282.179688,4268.717773,4288.974121,4281.794922,4264.358887,4600.769043,4545.384766,4443.461426,4524.487305,,,,,,,,,,,,,,,,,,,,,,,,,,,,,,,,,,,,,,,,,,,,,,,,,,,,,,,,,,,,,,,,,,,,,,
1769163003.379626,1769163003.38029,28.0,0.0,4220.128418,4264.102539,4383.717773,4332.307617,4287.307617,4278.461426,4264.871582,4283.077148,4276.794922,4257.692383,4586.794922,4538.077148,4429.615234,4520.384766,,,,,,,,,,,,,,,,,,,,,,,,,,,,,,,,,,,,,,,,,,,,,,,,,,,,,,,,,,,,,,,,,,,,,,
1769163003.387434,1769163003.388098,29.0,0.0,4218.205078,4253.077148,4380.897461,4326.025879,4280.128418,4275.769043,4264.102539,4282.436035,4274.615234,4250.256348,4582.179688,4535.641113,4424.615234,4512.820313,,,,,,,,,,,,,,,,,,,,,,,,,,,,,,,,,,,,,,,,,,,,,,,,,,,,,,,,,,,,,,,,,,,,,,
1769163003.395243,1769163003.396007,30.0,0.0,4214.230957,4250.897461,4379.102539,4328.205078,4280.641113,4280.512695,4268.077148,4283.077148,4271.922852,4248.589844,4583.589844,4537.179688,4419.743652,4501.282227,0.400229,0.161592,0.448298,0.58029,0.47818,0.435436,0.148794,0.351486,0.248006,0.278114,0.501663,0.268167,0.267361,0.300602,0.222194,0.240368,0.099752,0.103983,0.160221,0.146784,0.17908,0.140809,0.047429,0.076763,0.068778,0.361329,0.185202,0.155361,0.080279,0.234559,0.154105,0.207255,0.116293,0.101621,0.120814,0.173907,0.51818,0.622357,0.218327,0.135351,0.314422,0.248553,0.362585,0.257876,0.192682,0.335233,0.200683,0.345761,0.125157,0.126837,0.566704,0.216159,0.290046,0.114324,0.154184,0.494628,0.50851,0.538468,0.203132,0.26478,0.743523,0.240819,0.614424,0.201124,0.278481,1.234596,0.749033,0.794282,0.339761,0.292154
1769163003.403051,1769163003.403815,31.0,0.0,4217.820313,4263.589844,4377.436035,4335.897461,4290.0,4279.102539,4266.410156,4278.846191,4264.358887,4248.461426,4583.846191,4535.769043,4423.846191,4505.0,,,,,,,,,,,,,,,,,,,,,,,,,,,,,,,,,,,,,,,,,,,,,,,,,,,,,,,,,,,,,,,,,,,,,,
1769163003.410859,1769163003.411823,32.0,0.0,4220.897461,4266.025879,4379.743652,4337.692383,4287.820313,4272.820313,4265.512695,4282.436035,4264.230957,4254.102539,4587.692383,4538.846191,4432.820313,4517.436035,,,,,,,,,,,,,,,,,,,,,,,,,,,,,,,,,,,,,,,,,,,,,,,,,,,,,,,,,,,,,,,,,,,,,,
1769163003.418668,1769163003.419632,33.0,0.0,4217.820313,4259.230957,4383.846191,4337.307617,4280.512695,4272.94873,4266.794922,4293.205078,4270.128418,4262.436035,4589.743652,4541.538574,4428.589844,4510.128418,,,,,,,,,,,,,,,,,,,,,,,,,,,,,,,,,,,,,,,,,,,,,,,,,,,,,,,,,,,,,,,,,,,,,,
1769163003.426476,1769163003.42734,34.0,0.0,4218.333496,4263.846191,4379.615234,4338.846191,4281.666504,4275.128418,4265.256348,4295.769043,4268.077148,4263.205078,4587.692383,4540.769043,4424.871582,4504.230957,,,,,,,,,,,,,,,,,,,,,,,,,,,,,,,,,,,,,,,,,,,,,,,,,,,,,,,,,,,,,,,,,,,,,,
1769163003.434285,1769163003.435149,35.0,0.0,4220.128418,4265.256348,4373.717773,4336.025879,4283.205078,4277.05127,4264.102539,4293.461426,4265.769043,4260.897461,4586.538574,4543.461426,4428.974121,4516.410156,,,,,,,,,,,,,,,,,,,,,,,,,,,,,,,,,,,,,,,,,,,,,,,,,,,,,,,,,,,,,,,,,,,,,,
1769163003.442093,1769163003.442957,36.0,0.0,4217.692383,4252.563965,4373.974121,4330.769043,4280.512695,4278.717773,4265.769043,4293.717773,4271.410156,4263.974121,4586.538574,4543.461426,4428.974121,4516.922852,,,,,,,,,,,,,,,,,,,,,,,,,,,,,,,,,,,,,,,,,,,,,,,,,,,,,,,,,,,,,,,,,,,,,,
1769163003.449902,1769163003.450766,37.0,0.0,4215.0,4244.743652,4373.846191,4328.077148,4278.846191,4278.717773,4269.230957,4295.897461,4278.333496,4264.358887,4586.282227,4539.871582,4427.436035,4505.384766,,,,,,,,,,,,,,,,,,,,,,,,,,,,,,,,,,,,,,,,,,,,,,,,,,,,,,,,,,,,,,,,,,,,,,
1769163003.45771,1769163003.458474,38.0,0.0,4214.487305,4245.128418,4370.0,4325.384766,4278.717773,4278.717773,4272.179688,4296.282227,4274.871582,4259.487305,4585.641113,4538.589844,4424.615234,4505.256348,,,,,,,,,,,,,,,,,,,,,,,,,,,,,,,,,,,,,,,,,,,,,,,,,,,,,,,,,,,,,,,,,,,,,,
1769163003.465519,1769163003.466283,39.0,0.0,4212.436035,4244.743652,4369.230957,4323.846191,4280.256348,4280.128418,4270.769043,4290.512695,4267.563965,4257.820313,4581.282227,4539.871582,4418.717773,4505.769043,,,,,,,,,,,,,,,,,,,,,,,,,,,,,,,,,,,,,,,,,,,,,,,,,,,,,,,,,,,,,,,,,,,,,,
1769163003.473327,1769163003.473891,40.0,0.0,4213.205078,4244.743652,4371.025879,4325.641113,4285.128418,4281.410156,4266.666504,4288.205078,4269.358887,4260.512695,4580.128418,4540.384766,4421.025879,4502.436035,,,,,,,,,,,,,,,,,,,,,,,,,,,,,,,,,,,,,,,,,,,,,,,,,,,,,,,,,,,,,,,,,,,,,,
1769163003.481135,1769163003.4817,41.0,0.0,4218.077148,4247.94873,4371.025879,4327.307617,4289.102539,4281.794922,4272.820313,4293.974121,4271.794922,4263.205078,4586.025879,4540.128418,4430.128418,4508.077148,,,,,,,,,,,,,,,,,,,,,,,,,,,,,,,,,,,,,,,,,,,,,,,,,,,,,,,,,,,,,,,,,,,,,,
1769163003.488944,1769163003.489408,42.0,0.0,4217.820313,4247.94873,4370.128418,4326.538574,4287.307617,4282.05127,4276.025879,4296.410156,4271.025879,4263.717773,4588.717773,4541.282227,4431.538574,4511.410156,,,,,,,,,,,,,,,,,,,,,,,,,,,,,,,,,,,,,,,,,,,,,,,,,,,,,,,,,,,,,,,,,,,,,,
1769163003.496752,1769163003.497217,43.0,0.0,4216.794922,4248.333496,4368.077148,4325.897461,4282.436035,4280.641113,4268.077148,4292.179688,4274.615234,4265.0,4586.538574,4542.179688,4427.05127,4509.102539,,,,,,,,,,,,,,,,,,,,,,,,,,,,,,,,,,,,,,,,,,,,,,,,,,,,,,,,,,,,,,,,,,,,,,
1769163003.504561,1769163003.505225,44.0,0.0,4223.461426,4251.410156,4364.487305,4327.563965,4284.358887,4280.641113,4267.820313,4290.0,4279.230957,4264.358887,4584.615234,4539.871582,4424.230957,4509.358887,,,,,,,,,,,,,,,,,,,,,,,,,,,,,,,,,,,,,,,,,,,,,,,,,,,,,,,,,,,,,,,,,,,,,,
1769163003.512369,1769163003.513033,45.0,0.0,4228.205078,4251.282227,4364.615234,4326.794922,4290.769043,4282.820313,4272.05127,4293.461426,4277.820313,4263.846191,4587.179688,4542.563965,4424.358887,4510.0,,,,,,,,,,,,,,,,,,,,,,,,,,,,,,,,,,,,,,,,,,,,,,,,,,,,,,,,,,,,,,,,,,,,,,
1769163003.520178,1769163003.520942,46.0,0.0,4229.743652,4255.641113,4366.538574,4327.179688,4290.384766,4281.666504,4267.692383,4295.897461,4279.487305,4267.820313,4592.179688,4553.461426,4429.871582,4512.436035,0.325529,0.144411,0.456411,0.669263,0.480934,0.387932,0.136511,0.330361,0.259389,0.27158,0.498152,0.253547,0.29518,0.330755,0.205108,0.252232,0.090363,0.094932,0.20666,0.157441,0.15614,0.135242,0.046969,0.087181,0.059641,0.34699,0.184816,0.143869,0.077003,0.242708,0.14416,0.235486,0.129594,0.129335,0.123397,0.144408,0.588347,0.661991,0.191533,0.132477,0.287312,0.253883,0.402731,0.241684,0.182809,0.328352,0.173209,0.311657,0.143825,0.131166,0.552696,0.248645,0.272891,0.12317,0.181295,0.434054,0.476845,0.510121,0.210397,0.247529,0.804256,0.248953,0.515104,0.179478,0.295845,1.168849,0.729026,0.732358,0.318359,0.295596
1769163003.527986,1769163003.52875,47.0,0.0,4230.384766,4262.179688,4363.205078,4331.025879,4287.692383,4277.820313,4264.102539,4293.077148,4282.436035,4268.461426,4592.820313,4553.461426,4430.0,4512.94873,,,,,,,,,,,,,,,,,,,,,,,,,,,,,,,,,,,,,,,,,,,,,,,,,,,,,,,,,,,,,,,,,,,,,,
1769163003.535795,1769163003.536359,48.0,0.0,4222.692383,4255.769043,4355.897461,4329.487305,4286.410156,4276.538574,4267.94873,4290.0,4278.205078,4264.230957,4584.358887,4540.384766,4418.205078,4506.538574,,,,,,,,,,,,,,,,,,,,,,,,,,,,,,,,,,,,,,,,,,,,,,,,,,,,,,,,,,,,,,,,,,,,,,
1769163003.543603,1769163003.544167,49.0,0.0,4216.538574,4247.692383,4352.307617,4324.743652,4283.717773,4277.820313,4268.846191,4291.410156,4275.0,4261.666504,4577.94873,4535.256348,4413.205078,4504.743652,,,,,,,,,,,,,,,,,,,,,,,,,,,,,,,,,,,,,,,,,,,,,,,,,,,,,,,,,,,,,,,,,,,,,,
1769163003.551412,1769163003.551876,50.0,0.0,4220.0,4250.512695,4350.769043,4323.974121,4282.94873,4278.589844,4271.666504,4294.743652,4276.794922,4260.769043,4580.641113,4538.974121,4417.307617,4508.077148,,,,,,,,,,,,,,,,,,,,,,,,,,,,,,,,,,,,,,,,,,,,,,,,,,,,,,,,,,,,,,,,,,,,,,
1769163003.55922,1769163003.559684,51.0,0.0,4220.641113,4250.128418,4343.077148,4324.743652,4288.974121,4278.717773,4277.05127,4295.384766,4279.230957,4258.589844,4582.05127,4538.205078,4414.615234,4506.922852,,,,,,,,,,,,,,,,,,,,,,,,,,,,,,,,,,,,,,,,,,,,,,,,,,,,,,,,,,,,,,,,,,,,,,
1769163003.567028,1769163003.567693,52.0,0.0,4213.205078,4245.897461,4338.077148,4324.230957,4288.717773,4280.641113,4275.641113,4294.871582,4278.717773,4262.179688,4583.205078,4536.410156,4417.692383,4506.410156,,,,,,,,,,,,,,,,,,,,,,,,,,,,,,,,,,,,,,,,,,,,,,,,,,,,,,,,,,,,,,,,,,,,,,
1769163003.574837,1769163003.575501,53.0,0.0,4215.256348,4249.230957,4343.077148,4325.0,4282.563965,4281.153809,4268.717773,4293.205078,4276.410156,4262.436035,4585.384766,4537.94873,4425.384766,4507.820313,,,,,,,,,,,,,,,,,,,,,,,,,,,,,,,,,,,,,,,,,,,,,,,,,,,,,,,,,,,,,,,,,,,,,,
1769163003.582645,1769163003.583409,54.0,0.0,4228.974121,4252.94873,4346.666504,4327.179688,4283.333496,4278.205078,4262.692383,4288.205078,4273.846191,4252.692383,4579.230957,4537.179688,4414.743652,4504.871582,,,,,,,,,,,,,,,,,,,,,,,,,,,,,,,,,,,,,,,,,,,,,,,,,,,,,,,,,,,,,,,,,,,,,,
1769163003.590454,1769163003.591218,55.0,0.0,4228.717773,4248.717773,4340.512695,4327.307617,4287.94873,4279.358887,4264.743652,4286.282227,4274.487305,4252.820313,4572.692383,4535.128418,4407.436035,4503.846191,,,,,,,,,,,,,,,,,,,,,,,,,,,,,,,,,,,,,,,,,,,,,,,,,,,,,,,,,,,,,,,,,,,,,,
1769163003.598262,1769163003.599226,56.0,0.0,4217.179688,4246.153809,4334.871582,4325.256348,4290.384766,4282.563965,4267.05127,4291.410156,4278.846191,4264.615234,4580.512695,4537.307617,4423.846191,4508.846191,,,,,,,,,,,,,,,,,,,,,,,,,,,,,,,,,,,,,,,,,,,,,,,,,,,,,,,,,,,,,,,,,,,,,,
1769163003.606071,1769163003.607034,57.0,0.0,4221.282227,4252.563965,4337.307617,4325.256348,4290.512695,4280.0,4265.384766,4295.128418,4280.897461,4267.563965,4587.94873,4540.769043,4426.666504,4510.897461,,,,,,,,,,,,,,,,,,,,,,,,,,,,,,,,,,,,,,,,,,,,,,,,,,,,,,,,,,,,,,,,,,,,,,
1769163003.613879,1769163003.614943,58.0,0.0,4234.743652,4258.846191,4337.05127,4327.692383,4287.94873,4280.0,4265.128418,4293.717773,4278.846191,4261.282227,4583.846191,4539.487305,4416.025879,4508.846191,,,,,,,,,,,,,,,,,,,,,,,,,,,,,,,,,,,,,,,,,,,,,,,,,,,,,,,,,,,,,,,,,,,,,,
1769163003.621688,1769163003.622751,59.0,0.0,4233.333496,4260.128418,4331.025879,4328.846191,4286.538574,4283.205078,4265.769043,4292.94873,4278.333496,4257.563965,4581.794922,4537.820313,4419.615234,4508.846191,,,,,,,,,,,,,,,,,,,,,,,,,,,,,,,,,,,,,,,,,,,,,,,,,,,,,,,,,,,,,,,,,,,,,,
1769163003.629496,1769163003.63036,60.0,0.0,4229.102539,4261.538574,4324.743652,4330.641113,4289.871582,4282.307617,4266.922852,4293.846191,4279.358887,4254.358887,4581.922852,4538.205078,4418.461426,4507.05127,,,,,,,,,,,,,,,,,,,,,,,,,,,,,,,,,,,,,,,,,,,,,,,,,,,,,,,,,,,,,,,,,,,,,,
1769163003.637304,1769163003.638168,61.0,0.0,4232.436035,4264.487305,4324.487305,4335.128418,4292.307617,4285.128418,4272.563965,4294.102539,4278.846191,4251.538574,4581.282227,4537.179688,4413.846191,4503.717773,,,,,,,,,,,,,,,,,,,,,,,,,,,,,,,,,,,,,,,,,,,,,,,,,,,,,,,,,,,,,,,,,,,,,,
1769163003.645113,1769163003.645877,62.0,0.0,4233.333496,4263.974121,4328.974121,4337.94873,4290.384766,4289.743652,4277.94873,4293.589844,4278.717773,4251.666504,4585.0,4537.94873,4423.333496,4505.384766,0.281395,0.153768,0.458669,0.732976,0.44599,0.339931,0.146394,0.309501,0.269483,0.25101,0.489063,0.244192,0.316196,0.342524,0.183778,0.259273,0.089097,0.095982,0.251669,0.158541,0.141997,0.144181,0.055822,0.102818,0.053072,0.320123,0.17958,0.137049,0.072964,0.23391,0.131175,0.280998,0.142384,0.154198,0.122846,0.133471,0.657153,0.646934,0.178149,0.143907,0.257617,0.263043,0.410123,0.221684,0.171531,0.318087,0.152545,0.278343,0.158715,0.131963,0.529498,0.277691,0.280352,0.138111,0.200016,0.355623,0.430442,0.446762,0.214042,0.22399,0.806421,0.256171,0.447959,0.168518,0.305707,1.068028,0.730969,0.679796,0.300528,0.294696
1769163003.652921,1769163003.653685,63.0,0.0,4240.384766,4264.743652,4330.512695,4339.230957,4290.641113,4283.717773,4276.025879,4293.717773,4280.0,4249.358887,4585.769043,4540.256348,4427.436035,4509.487305,,,,,,,,,,,,,,,,,,,,,,,,,,,,,,,,,,,,,,,,,,,,,,,,,,,,,,,,,,,,,,,,,,,,,,
1769163003.66073,1769163003.661294,64.0,0.0,4245.641113,4269.358887,4326.282227,4339.615234,4292.436035,4279.358887,4273.333496,4294.871582,4280.512695,4248.333496,4579.615234,4539.358887,4417.05127,4509.102539,,,,,,,,,,,,,,,,,,,,,,,,,,,,,,,,,,,,,,,,,,,,,,,,,,,,,,,,,,,,,,,,,,,,,,
1769163003.668538,1769163003.669102,65.0,0.0,4237.563965,4269.358887,4318.333496,4339.871582,4292.05127,4279.615234,4270.256348,4295.384766,4280.641113,4250.641113,4581.666504,4540.128418,4417.563965,4507.05127,,,,,,,,,,,,,,,,,,,,,,,,,,,,,,,,,,,,,,,,,,,,,,,,,,,,,,,,,,,,,,,,,,,,,,
1769163003.676347,1769163003.676811,66.0,0.0,4230.897461,4263.974121,4313.717773,4337.692383,4286.538574,4272.94873,4267.179688,4295.769043,4281.794922,4250.128418,4586.666504,4541.153809,4419.615234,4504.871582,,,,,,,,,,,,,,,,,,,,,,,,,,,,,,,,,,,,,,,,,,,,,,,,,,,,,,,,,,,,,,,,,,,,,,
1769163003.684155,1769163003.684619,67.0,0.0,4233.205078,4258.717773,4313.461426,4335.897461,4279.358887,4271.538574,4268.461426,4292.94873,4279.230957,4246.922852,4581.153809,4537.820313,4411.410156,4502.94873,,,,,,,,,,,,,,,,,,,,,,,,,,,,,,,,,,,,,,,,,,,,,,,,,,,,,,,,,,,,,,,,,,,,,,
1769163003.691964,1769163003.692228,68.0,0.0,4235.0,4261.282227,4315.384766,4336.538574,4279.230957,4280.897461,4270.0,4289.615234,4275.128418,4245.641113,4579.102539,4536.794922,4415.769043,4504.871582,,,,,,,,,,,,,,,,,,,,,,,,,,,,,,,,,,,,,,,,,,,,,,,,,,,,,,,,,,,,,,,,,,,,,,
1769163003.699772,1769163003.700037,69.0,0.0,4234.358887,4266.282227,4312.820313,4335.512695,4284.871582,4283.717773,4273.333496,4296.922852,4279.358887,4247.179688,4587.307617,4540.897461,4430.0,4509.102539,,,,,,,,,,,,,,,,,,,,,,,,,,,,,,,,,,,,,,,,,,,,,,,,,,,,,,,,,,,,,,,,,,,,,,
1769163003.707581,1769163003.707945,70.0,0.0,4240.128418,4265.0,4306.282227,4335.897461,4289.230957,4279.102539,4275.384766,4300.897461,4283.717773,4249.615234,4588.974121,4541.666504,4427.307617,4508.717773,,,,,,,,,,,,,,,,,,,,,,,,,,,,,,,,,,,,,,,,,,,,,,,,,,,,,,,,,,,,,,,,,,,,,,
1769163003.715389,1769163003.715753,71.0,0.0,4246.538574,4268.333496,4306.922852,4340.897461,4292.563965,4279.358887,4271.538574,4286.922852,4277.94873,4248.589844,4583.333496,4538.461426,4413.717773,4504.230957,,,,,,,,,,,,,,,,,,,,,,,,,,,,,,,,,,,,,,,,,,,,,,,,,,,,,,,,,,,,,,,,,,,,,,
1769163003.723198,1769163003.723762,72.0,0.0,4249.487305,4275.128418,4312.820313,4345.384766,4296.282227,4281.282227,4267.563965,4278.974121,4273.589844,4246.282227,4583.333496,4538.205078,4417.692383,4504.487305,,,,,,,,,,,,,,,,,,,,,,,,,,,,,,,,,,,,,,,,,,,,,,,,,,,,,,,,,,,,,,,,,,,,,,
1769163003.731006,1769163003.73157,73.0,0.0,4249.358887,4272.563965,4309.230957,4341.922852,4294.102539,4279.230957,4270.769043,4290.512695,4278.077148,4247.692383,4584.871582,4538.717773,4427.307617,4508.205078,,,,,,,,,,,,,,,,,,,,,,,,,,,,,,,,,,,,,,,,,,,,,,,,,,,,,,,,,,,,,,,,,,,,,,
1769163003.738814,1769163003.739279,74.0,0.0,4246.410156,4263.077148,4296.153809,4334.358887,4286.538574,4276.922852,4275.256348,4295.512695,4279.743652,4249.487305,4586.410156,4538.846191,4423.717773,4510.512695,,,,,,,,,,,,,,,,,,,,,,,,,,,,,,,,,,,,,,,,,,,,,,,,,,,,,,,,,,,,,,,,,,,,,,
1769163003.746623,1769163003.747087,75.0,0.0,4247.820313,4263.333496,4290.512695,4333.205078,4285.512695,4275.897461,4275.0,4289.102539,4277.563965,4247.692383,4585.641113,4537.94873,4417.692383,4509.743652,,,,,,,,,,,,,,,,,,,,,,,,,,,,,,,,,,,,,,,,,,,,,,,,,,,,,,,,,,,,,,,,,,,,,,
1769163003.754431,1769163003.754696,76.0,0.0,4252.307617,4268.974121,4294.743652,4338.205078,4289.358887,4280.128418,4271.666504,4289.358887,4278.589844,4244.102539,4574.230957,4531.794922,4413.077148,4501.410156,,,,,,,,,,,,,,,,,,,,,,,,,,,,,,,,,,,,,,,,,,,,,,,,,,,,,,,,,,,,,,,,,,,,,,
1769163003.76224,1769163003.762504,77.0,0.0,4249.615234,4267.692383,4295.384766,4338.589844,4285.384766,4280.641113,4267.692383,4291.538574,4277.692383,4242.820313,4568.077148,4528.461426,4410.641113,4497.179688,,,,,,,,,,,,,,,,,,,,,,,,,,,,,,,,,,,,,,,,,,,,,,,,,,,,,,,,,,,,,,,,,,,,,,
1769163003.770048,1769163003.770412,78.0,0.0,4247.692383,4264.358887,4291.025879,4333.205078,4279.230957,4270.384766,4265.128418,4289.615234,4278.077148,4246.922852,4581.410156,4534.743652,4416.025879,4506.153809,0.302124,0.179517,0.445569,0.748745,0.380024,0.313053,0.17519,0.289266,0.275143,0.219134,0.497092,0.237896,0.321389,0.332117,0.161347,0.256081,0.101487,0.103171,0.282507,0.150174,0.129097,0.16445,0.07494,0.119994,0.050712,0.267936,0.173622,0.143033,0.068253,0.209064,0.122779,0.329399,0.151699,0.167685,0.11971,0.15824,0.711214,0.579544,0.173762,0.168731,0.237581,0.273132,0.383647,0.197981,0.15801,0.31523,0.137955,0.256081,0.163652,0.12548,0.509908,0.290732,0.305392,0.152354,0.204523,0.303858,0.374423,0.358993,0.207324,0.194062,0.757167,0.25473,0.414961,0.168781,0.303,0.945695,0.714619,0.635987,0.280972,0.287887
1769163003.777857,1769163003.778221,79.0,0.0,4257.05127,4265.128418,4285.769043,4334.358887,4284.871582,4267.436035,4264.102539,4292.05127,4281.153809,4248.205078,4589.487305,4541.025879,4420.769043,4511.282227,,,,,,,,,,,,,,,,,,,,,,,,,,,,,,,,,,,,,,,,,,,,,,,,,,,,,,,,,,,,,,,,,,,,,,
1769163003.785665,1769163003.786229,80.0,0.0,4257.820313,4266.282227,4282.179688,4338.974121,4291.410156,4278.589844,4268.717773,4289.871582,4273.461426,4238.846191,4578.333496,4538.205078,4415.384766,4506.025879,,,,,,,,,,,,,,,,,,,,,,,,,,,,,,,,,,,,,,,,,,,,,,,,,,,,,,,,,,,,,,,,,,,,,,
1769163003.793474,1769163003.794038,81.0,0.0,4245.128418,4263.077148,4280.897461,4335.256348,4286.538574,4283.717773,4273.717773,4283.077148,4266.922852,4232.692383,4570.128418,4532.563965,4412.436035,4505.128418,,,,,,,,,,,,,,,,,,,,,,,,,,,,,,,,,,,,,,,,,,,,,,,,,,,,,,,,,,,,,,,,,,,,,,
1769163003.801282,1769163003.801946,82.0,0.0,4241.922852,4260.0,4277.820313,4328.846191,4280.641113,4277.563965,4269.230957,4284.871582,4273.077148,4236.153809,4573.461426,4534.743652,4414.615234,4506.922852,,,,,,,,,,,,,,,,,,,,,,,,,,,,,,,,,,,,,,,,,,,,,,,,,,,,,,,,,,,,,,,,,,,,,,
1769163003.809091,1769163003.809754,83.0,0.0,4250.384766,4263.461426,4273.461426,4329.615234,4279.615234,4274.487305,4263.205078,4287.436035,4274.871582,4237.820313,4575.0,4536.282227,4413.717773,4506.538574,,,,,,,,,,,,,,,,,,,,,,,,,,,,,,,,,,,,,,,,,,,,,,,,,,,,,,,,,,,,,,,,,,,,,,
1769163003.816899,1769163003.817663,84.0,0.0,4255.128418,4266.922852,4271.794922,4333.077148,4281.538574,4275.769043,4266.025879,4280.128418,4268.333496,4236.153809,4574.743652,4530.0,4414.871582,4505.897461,,,,,,,,,,,,,,,,,,,,,,,,,,,,,,,,,,,,,,,,,,,,,,,,,,,,,,,,,,,,,,,,,,,,,,
1769163003.824707,1769163003.825471,85.0,0.0,4249.871582,4264.871582,4269.487305,4329.487305,4282.820313,4275.897461,4269.487305,4276.922852,4266.538574,4233.974121,4570.256348,4522.563965,4410.384766,4496.538574,,,,,,,,,,,,,,,,,,,,,,,,,,,,,,,,,,,,,,,,,,,,,,,,,,,,,,,,,,,,,,,,,,,,,,
1769163003.832516,1769163003.83318,86.0,0.0,4247.179688,4262.820313,4263.077148,4325.769043,4281.410156,4276.410156,4267.307617,4279.487305,4263.205078,4229.358887,4559.487305,4518.846191,4396.025879,4483.589844,,,,,,,,,,,,,,,,,,,,,,,,,,,,,,,,,,,,,,,,,,,,,,,,,,,,,,,,,,,,,,,,,,,,,,
1769163003.840324,1769163003.840988,87.0,0.0,4254.871582,4265.128418,4261.025879,4327.563965,4284.358887,4276.922852,4265.897461,4274.487305,4260.384766,4227.563965,4560.128418,4519.743652,4397.436035,4489.615234,,,,,,,,,,,,,,,,,,,,,,,,,,,,,,,,,,,,,,,,,,,,,,,,,,,,,,,,,,,,,,,,,,,,,,
1769163003.848133,1769163003.848597,88.0,0.0,4257.692383,4260.769043,4260.512695,4327.05127,4289.102539,4278.717773,4267.307617,4277.563965,4271.153809,4233.333496,4573.461426,4526.922852,4413.974121,4508.589844,,,,,,,,,,,,,,,,,,,,,,,,,,,,,,,,,,,,,,,,,,,,,,,,,,,,,,,,,,,,,,,,,,,,,,
1769163003.855941,1769163003.856405,89.0,0.0,4251.666504,4254.102539,4252.563965,4323.974121,4288.974121,4279.102539,4271.410156,4290.769043,4279.230957,4233.717773,4573.205078,4528.077148,4410.897461,4506.922852,,,,,,,,,,,,,,,,,,,,,,,,,,,,,,,,,,,,,,,,,,,,,,,,,,,,,,,,,,,,,,,,,,,,,,
1769163003.86375,1769163003.864114,90.0,0.0,4253.717773,4258.333496,4248.717773,4324.743652,4287.692383,4279.230957,4277.820313,4290.0,4276.922852,4228.333496,4565.641113,4519.487305,4397.820313,4490.256348,,,,,,,,,,,,,,,,,,,,,,,,,,,,,,,,,,,,,,,,,,,,,,,,,,,,,,,,,,,,,,,,,,,,,,
1769163003.871558,1769163003.871922,91.0,0.0,4264.615234,4266.025879,4258.846191,4330.769043,4286.153809,4279.615234,4276.410156,4283.717773,4278.205078,4236.666504,4575.769043,4525.769043,4406.922852,4494.230957,,,,,,,,,,,,,,,,,,,,,,,,,,,,,,,,,,,,,,,,,,,,,,,,,,,,,,,,,,,,,,,,,,,,,,
1769163003.879367,1769163003.879531,92.0,0.0,4276.922852,4269.615234,4266.794922,4338.205078,4279.358887,4277.307617,4271.538574,4287.436035,4281.282227,4249.487305,4588.974121,4545.897461,4423.974121,4517.436035,,,,,,,,,,,,,,,,,,,,,,,,,,,,,,,,,,,,,,,,,,,,,,,,,,,,,,,,,,,,,,,,,,,,,,
1769163003.887175,1769163003.887339,93.0,0.0,4280.0,4272.05127,4267.563965,4338.077148,4277.05127,4276.282227,4273.333496,4292.820313,4278.589844,4244.102539,4588.205078,4551.922852,4423.205078,4528.461426,,,,,,,,,,,,,,,,,,,,,,,,,,,,,,,,,,,,,,,,,,,,,,,,,,,,,,,,,,,,,,,,,,,,,,
1769163003.894983,1769163003.895048,94.0,0.0,4270.256348,4273.461426,4265.512695,4333.077148,4281.922852,4278.205078,4276.153809,4295.512695,4280.128418,4233.589844,4584.102539,4543.333496,4414.230957,4518.846191,0.361655,0.213236,0.417452,0.705361,0.301342,0.303713,0.218964,0.269203,0.273028,0.182889,0.521216,0.228353,0.307037,0.301414,0.140726,0.236152,0.13192,0.113358,0.290625,0.135119,0.121828,0.19014,0.101631,0.13429,0.052893,0.216769,0.172334,0.167669,0.0634,0.173327,0.123093,0.36523,0.157852,0.165549,0.114963,0.22365,0.729822,0.476372,0.170783,0.199535,0.241826,0.277779,0.332373,0.170848,0.142246,0.325072,0.132645,0.248293,0.15698,0.111531,0.501673,0.280683,0.335193,0.161638,0.194966,0.309849,0.320734,0.269395,0.188508,0.159925,0.679548,0.238788,0.411241,0.178751,0.289784,0.823578,0.655183,0.597783,0.25502,0.276393
1769163003.902792,1769163003.902856,95.0,0.0,4266.282227,4274.871582,4257.05127,4331.282227,4282.05127,4280.641113,4276.025879,4295.641113,4281.666504,4233.846191,4577.307617,4536.538574,4411.153809,4506.025879,,,,,,,,,,,,,,,,,,,,,,,,,,,,,,,,,,,,,,,,,,,,,,,,,,,,,,,,,,,,,,,,,,,,,,
1769163003.9106,1769163003.910865,96.0,0.0,4278.717773,4280.641113,4249.615234,4335.512695,4280.769043,4279.871582,4273.717773,4287.179688,4271.666504,4233.461426,4570.256348,4536.794922,4412.563965,4501.538574,,,,,,,,,,,,,,,,,,,,,,,,,,,,,,,,,,,,,,,,,,,,,,,,,,,,,,,,,,,,,,,,,,,,,,
1769163003.918409,1769163003.918673,97.0,0.0,4281.025879,4278.974121,4251.282227,4337.307617,4281.794922,4276.025879,4268.974121,4282.436035,4268.589844,4229.615234,4573.974121,4540.641113,4412.820313,4506.410156,,,,,,,,,,,,,,,,,,,,,,,,,,,,,,,,,,,,,,,,,,,,,,,,,,,,,,,,,,,,,,,,,,,,,,
1769163003.926217,1769163003.926581,98.0,0.0,4268.589844,4266.666504,4251.794922,4330.769043,4280.641113,4274.487305,4266.410156,4291.025879,4276.153809,4231.025879,4580.384766,4542.307617,4412.820313,4516.282227,,,,,,,,,,,,,,,,,,,,,,,,,,,,,,,,,,,,,,,,,,,,,,,,,,,,,,,,,,,,,,,,,,,,,,
1769163003.934026,1769163003.93439,99.0,0.0,4269.743652,4262.179688,4243.589844,4324.230957,4279.743652,4275.384766,4268.205078,4295.128418,4278.077148,4234.102539,4577.05127,4539.615234,4414.743652,4519.743652,,,,,,,,,,,,,,,,,,,,,,,,,,,,,,,,,,,,,,,,,,,,,,,,,,,,,,,,,,,,,,,,,,,,,,
1769163003.941834,1769163003.941999,100.0,0.0,4275.256348,4265.0,4235.0,4325.256348,4280.512695,4276.538574,4269.871582,4292.179688,4274.102539,4233.077148,4573.205078,4536.922852,4414.230957,4509.743652,,,,,,,,,,,,,,,,,,,,,,,,,,,,,,,,,,,,,,,,,,,,,,,,,,,,,,,,,,,,,,,,,,,,,,
1769163003.949643,1769163003.949807,101.0,0.0,4270.0,4263.974121,4232.179688,4327.563965,4280.0,4277.94873,4268.205078,4292.94873,4276.025879,4230.641113,4573.717773,4537.563965,4413.589844,4503.205078,,,,,,,,,,,,,,,,,,,,,,,,,,,,,,,,,,,,,,,,,,,,,,,,,,,,,,,,,,,,,,,,,,,,,,
1769163003.957451,1769163003.957516,102.0,0.0,4270.769043,4261.410156,4232.820313,4324.358887,4277.94873,4277.692383,4266.538574,4292.05127,4277.179688,4230.128418,4574.615234,4537.94873,4414.615234,4507.563965,,,,,,,,,,,,,,,,,,,,,,,,,,,,,,,,,,,,,,,,,,,,,,,,,,,,,,,,,,,,,,,,,,,,,,
1769163003.965259,1769163003.965324,103.0,0.0,4277.563965,4262.94873,4232.820313,4324.230957,4277.94873,4276.025879,4266.153809,4288.333496,4271.922852,4231.153809,4572.820313,4537.563965,4411.794922,4507.436035,,,,,,,,,,,,,,,,,,,,,,,,,,,,,,,,,,,,,,,,,,,,,,,,,,,,,,,,,,,,,,,,,,,,,,
1769163003.973068,1769163003.973332,104.0,0.0,4281.794922,4266.922852,4232.820313,4333.846191,4279.358887,4278.461426,4268.717773,4287.436035,4266.410156,4230.512695,4572.307617,4539.487305,4411.922852,4505.0,,,,,,,,,,,,,,,,,,,,,,,,,,,,,,,,,,,,,,,,,,,,,,,,,,,,,,,,,,,,,,,,,,,,,,
1769163003.980877,1769163003.981141,105.0,0.0,4285.897461,4268.846191,4234.615234,4339.743652,4278.589844,4279.871582,4267.820313,4286.282227,4263.205078,4230.641113,4576.282227,4541.794922,4417.94873,4509.358887,,,,,,,,,,,,,,,,,,,,,,,,,,,,,,,,,,,,,,,,,,,,,,,,,,,,,,,,,,,,,,,,,,,,,,
1769163003.988685,1769163003.989049,106.0,0.0,4285.128418,4265.0,4227.179688,4331.410156,4276.538574,4274.358887,4263.974121,4284.102539,4263.974121,4232.179688,4578.077148,4539.487305,4418.205078,4510.128418,,,,,,,,,,,,,,,,,,,,,,,,,,,,,,,,,,,,,,,,,,,,,,,,,,,,,,,,,,,,,,,,,,,,,,
1769163003.996493,1769163003.996857,107.0,0.0,4277.179688,4266.794922,4217.05127,4325.769043,4277.692383,4276.666504,4264.102539,4285.769043,4264.230957,4231.922852,4572.94873,4536.282227,4411.794922,4503.974121,,,,,,,,,,,,,,,,,,,,,,,,,,,,,,,,,,,,,,,,,,,,,,,,,,,,,,,,,,,,,,,,,,,,,,
1769163004.004302,1769163004.004866,108.0,0.0,4278.205078,4276.025879,4218.461426,4331.666504,4279.358887,4279.358887,4266.794922,4291.538574,4262.94873,4231.025879,4570.0,4537.05127,4411.282227,4498.589844,,,,,,,,,,,,,,,,,,,,,,,,,,,,,,,,,,,,,,,,,,,,,,,,,,,,,,,,,,,,,,,,,,,,,,
1769163004.01211,1769163004.012674,109.0,0.0,4283.461426,4272.94873,4217.436035,4332.179688,4277.179688,4268.974121,4266.025879,4295.256348,4268.717773,4232.692383,4573.589844,4538.974121,4413.846191,4495.0,,,,,,,,,,,,,,,,,,,,,,,,,,,,,,,,,,,,,,,,,,,,,,,,,,,,,,,,,,,,,,,,,,,,,,
1769163004.019919,1769163004.020383,110.0,0.0,4279.230957,4262.820313,4205.769043,4325.256348,4276.410156,4267.563965,4262.820313,4294.615234,4277.05127,4234.615234,4572.820313,4537.179688,4412.179688,4490.128418,0.430944,0.251821,0.38447,0.608196,0.231549,0.303787,0.276493,0.250125,0.261905,0.150784,0.551659,0.210284,0.275998,0.257679,0.124142,0.202187,0.178971,0.126231,0.274832,0.117654,0.123038,0.214183,0.131386,0.143026,0.058701,0.175047,0.178519,0.209943,0.059835,0.134804,0.133285,0.37671,0.163174,0.150317,0.108976,0.31361,0.69818,0.365818,0.163991,0.225868,0.263836,0.275091,0.273908,0.142762,0.125468,0.355654,0.141582,0.251906,0.142311,0.093989,0.500488,0.251973,0.356757,0.166219,0.177766,0.382526,0.281843,0.198507,0.160964,0.126287,0.600729,0.210434,0.427704,0.196649,0.274284,0.704184,0.550502,0.560215,0.221494,0.263049
1769163004.027727,1769163004.028191,111.0,0.0,4274.871582,4265.0,4198.846191,4323.589844,4278.333496,4279.743652,4267.692383,4293.461426,4272.94873,4232.692383,4568.333496,4535.384766,4410.897461,4491.410156,,,,,,,,,,,,,,,,,,,,,,,,,,,,,,,,,,,,,,,,,,,,,,,,,,,,,,,,,,,,,,,,,,,,,,
1769163004.035536,1769163004.036199,112.0,0.0,4278.333496,4271.922852,4202.436035,4328.974121,4278.974121,4282.179688,4271.794922,4292.94873,4263.461426,4230.641113,4568.846191,4537.179688,4413.205078,4499.230957,,,,,,,,,,,,,,,,,,,,,,,,,,,,,,,,,,,,,,,,,,,,,,,,,,,,,,,,,,,,,,,,,,,,,,
1769163004.043344,1769163004.044008,113.0,0.0,4283.846191,4275.512695,4203.846191,4332.563965,4280.384766,4276.922852,4268.461426,4291.538574,4265.769043,4233.974121,4571.538574,4534.615234,4414.487305,4499.358887,,,,,,,,,,,,,,,,,,,,,,,,,,,,,,,,,,,,,,,,,,,,,,,,,,,,,,,,,,,,,,,,,,,,,,
1769163004.051153,1769163004.051716,114.0,0.0,4281.410156,4272.94873,4201.794922,4329.615234,4282.692383,4279.102539,4269.102539,4286.410156,4269.230957,4236.282227,4570.512695,4527.179688,4413.205078,4491.410156,,,,,,,,,,,,,,,,,,,,,,,,,,,,,,,,,,,,,,,,,,,,,,,,,,,,,,,,,,,,,,,,,,,,,,
1769163004.058961,1769163004.059525,115.0,0.0,4275.0,4265.641113,4199.358887,4325.384766,4281.153809,4281.153809,4270.769043,4285.769043,4264.871582,4233.846191,4567.179688,4525.128418,4411.410156,4489.871582,,,,,,,,,,,,,,,,,,,,,,,,,,,,,,,,,,,,,,,,,,,,,,,,,,,,,,,,,,,,,,,,,,,,,,
1769163004.066769,1769163004.067133,116.0,0.0,4278.333496,4269.358887,4197.436035,4326.538574,4279.487305,4280.128418,4265.641113,4290.641113,4264.102539,4231.666504,4568.589844,4530.769043,4411.922852,4492.563965,,,,,,,,,,,,,,,,,,,,,,,,,,,,,,,,,,,,,,,,,,,,,,,,,,,,,,,,,,,,,,,,,,,,,,
1769163004.074578,1769163004.074942,117.0,0.0,4282.563965,4274.615234,4195.641113,4327.05127,4280.0,4281.153809,4264.358887,4294.487305,4266.282227,4233.077148,4571.794922,4537.563965,4412.94873,4490.769043,,,,,,,,,,,,,,,,,,,,,,,,,,,,,,,,,,,,,,,,,,,,,,,,,,,,,,,,,,,,,,,,,,,,,,
1769163004.082386,1769163004.08265,118.0,0.0,4275.512695,4269.358887,4189.230957,4324.615234,4281.025879,4277.563965,4266.410156,4294.615234,4266.410156,4236.666504,4571.538574,4534.487305,4413.461426,4490.384766,,,,,,,,,,,,,,,,,,,,,,,,,,,,,,,,,,,,,,,,,,,,,,,,,,,,,,,,,,,,,,,,,,,,,,
1769163004.090195,1769163004.090459,119.0,0.0,4271.922852,4269.743652,4182.692383,4325.128418,4282.563965,4275.128418,4262.692383,4294.615234,4269.230957,4234.743652,4568.205078,4523.589844,4411.922852,4491.538574,,,,,,,,,,,,,,,,,,,,,,,,,,,,,,,,,,,,,,,,,,,,,,,,,,,,,,,,,,,,,,,,,,,,,,
1769163004.098003,1769163004.098467,120.0,0.0,4277.563965,4277.94873,4184.358887,4326.025879,4283.205078,4283.461426,4269.871582,4296.153809,4273.461426,4232.820313,4568.205078,4524.615234,4413.077148,4490.897461,,,,,,,,,,,,,,,,,,,,,,,,,,,,,,,,,,,,,,,,,,,,,,,,,,,,,,,,,,,,,,,,,,,,,,
1769163004.105812,1769163004.106276,121.0,0.0,4281.025879,4278.846191,4189.871582,4326.538574,4281.922852,4287.692383,4278.846191,4296.794922,4277.05127,4241.410156,4573.205078,4538.333496,4416.153809,4493.717773,,,,,,,,,,,,,,,,,,,,,,,,,,,,,,,,,,,,,,,,,,,,,,,,,,,,,,,,,,,,,,,,,,,,,,
1769163004.11362,1769163004.114184,122.0,0.0,4274.102539,4269.743652,4184.230957,4323.974121,4279.743652,4282.563965,4272.179688,4295.512695,4277.94873,4244.615234,4573.846191,4535.512695,4413.717773,4494.230957,,,,,,,,,,,,,,,,,,,,,,,,,,,,,,,,,,,,,,,,,,,,,,,,,,,,,,,,,,,,,,,,,,,,,,
1769163004.121429,1769163004.121992,123.0,0.0,4265.0,4261.794922,4172.94873,4318.846191,4278.717773,4282.94873,4269.358887,4293.461426,4270.512695,4233.461426,4567.692383,4521.410156,4410.641113,4488.974121,,,,,,,,,,,,,,,,,,,,,,,,,,,,,,,,,,,,,,,,,,,,,,,,,,,,,,,,,,,,,,,,,,,,,,
1769163004.129237,1769163004.130001,124.0,0.0,4271.025879,4262.05127,4176.410156,4320.0,4278.461426,4284.487305,4274.615234,4293.077148,4264.615234,4228.846191,4564.487305,4525.641113,4411.922852,4487.436035,,,,,,,,,,,,,,,,,,,,,,,,,,,,,,,,,,,,,,,,,,,,,,,,,,,,,,,,,,,,,,,,,,,,,,
1769163004.137046,1769163004.137809,125.0,0.0,4285.897461,4266.153809,4186.794922,4324.358887,4277.563965,4279.230957,4271.666504,4294.871582,4273.333496,4233.461426,4568.974121,4537.94873,4411.025879,4491.922852,,,,,,,,,,,,,,,,,,,,,,,,,,,,,,,,,,,,,,,,,,,,,,,,,,,,,,,,,,,,,,,,,,,,,,
1769163004.144854,1769163004.145518,126.0,0.0,4289.487305,4268.077148,4185.384766,4324.615234,4277.563965,4276.666504,4263.333496,4294.871582,4282.05127,4235.512695,4573.717773,4538.077148,4414.358887,4493.589844,0.502173,0.298541,0.357473,0.479603,0.186432,0.31372,0.350054,0.233997,0.242785,0.128397,0.605368,0.187776,0.238494,0.212323,0.112703,0.167682,0.235997,0.142168,0.241424,0.101782,0.129455,0.230883,0.162072,0.145825,0.066343,0.147963,0.191825,0.260526,0.058638,0.101903,0.147936,0.361865,0.171224,0.129799,0.101677,0.414894,0.616261,0.273089,0.152798,0.239272,0.294714,0.267789,0.225485,0.117871,0.10991,0.394288,0.165926,0.260385,0.126437,0.079256,0.501864,0.218666,0.360801,0.170218,0.16327,0.498368,0.269154,0.155947,0.133283,0.100057,0.539726,0.178417,0.448677,0.2209,0.267131,0.599296,0.424532,0.518014,0.189098,0.253653
1769163004.152662,1769163004.153326,127.0,0.0,4285.384766,4271.025879,4179.487305,4323.846191,4279.743652,4280.128418,4265.512695,4292.179688,4275.512695,4237.820313,4570.897461,4533.333496,4422.94873,4491.410156,,,,,,,,,,,,,,,,,,,,,,,,,,,,,,,,,,,,,,,,,,,,,,,,,,,,,,,,,,,,,,,,,,,,,,
1769163004.160471,1769163004.160935,0.0,0.0,4289.487305,4276.922852,4181.282227,4326.153809,4281.025879,4279.871582,4269.871582,4292.94873,4272.563965,4242.179688,4571.025879,4536.922852,4425.641113,4490.897461,,,,,,,,,,,,,,,,,,,,,,,,,,,,,,,,,,,,,,,,,,,,,,,,,,,,,,,,,,,,,,,,,,,,,,
1769163004.168279,1769163004.168743,1.0,0.0,4296.025879,4276.410156,4184.615234,4328.717773,4279.743652,4277.436035,4268.974121,4297.05127,4281.153809,4244.743652,4581.666504,4544.358887,4427.05127,4493.846191,,,,,,,,,,,,,,,,,,,,,,,,,,,,,,,,,,,,,,,,,,,,,,,,,,,,,,,,,,,,,,,,,,,,,,
1769163004.176088,1769163004.176652,2.0,0.0,4296.282227,4272.820313,4181.922852,4328.077148,4278.846191,4277.307617,4266.025879,4294.871582,4281.282227,4247.436035,4585.384766,4544.615234,4430.384766,4498.461426,,,,,,,,,,,,,,,,,,,,,,,,,,,,,,,,,,,,,,,,,,,,,,,,,,,,,,,,,,,,,,,,,,,,,,
1769163004.183896,1769163004.18446,3.0,0.0,4297.179688,4272.436035,4175.769043,4326.538574,4278.846191,4279.487305,4265.641113,4291.282227,4274.230957,4246.282227,4579.615234,4539.102539,4427.820313,4497.692383,,,,,,,,,,,,,,,,,,,,,,,,,,,,,,,,,,,,,,,,,,,,,,,,,,,,,,,,,,,,,,,,,,,,,,
1769163004.191705,1769163004.192468,4.0,0.0,4295.128418,4278.717773,4171.538574,4327.179688,4280.128418,4282.179688,4269.743652,4293.974121,4276.538574,4244.871582,4581.538574,4536.666504,4428.205078,4493.077148,,,,,,,,,,,,,,,,,,,,,,,,,,,,,,,,,,,,,,,,,,,,,,,,,,,,,,,,,,,,,,,,,,,,,,
1769163004.199513,1769163004.200277,5.0,0.0,4286.025879,4281.153809,4169.487305,4325.384766,4280.769043,4279.230957,4267.94873,4296.153809,4283.333496,4249.358887,4583.717773,4538.333496,4430.256348,4491.666504,,,,,,,,,,,,,,,,,,,,,,,,,,,,,,,,,,,,,,,,,,,,,,,,,,,,,,,,,,,,,,,,,,,,,,
1769163004.207322,1769163004.207985,6.0,0.0,4279.230957,4270.128418,4164.743652,4318.205078,4277.820313,4276.794922,4266.410156,4292.05127,4274.230957,4245.0,4571.922852,4535.384766,4416.922852,4488.717773,,,,,,,,,,,,,,,,,,,,,,,,,,,,,,,,,,,,,,,,,,,,,,,,,,,,,,,,,,,,,,,,,,,,,,
1769163004.21513,1769163004.215794,7.0,0.0,4282.307617,4269.358887,4164.102539,4317.307617,4276.025879,4279.230957,4271.153809,4289.102539,4261.666504,4232.563965,4566.282227,4532.563965,4405.641113,4488.717773,,,,,,,,,,,,,,,,,,,,,,,,,,,,,,,,,,,,,,,,,,,,,,,,,,,,,,,,,,,,,,,,,,,,,,
1769163004.222938,1769163004.223402,8.0,0.0,4292.563965,4281.410156,4169.743652,4322.94873,4277.94873,4279.743652,4270.128418,4293.717773,4271.794922,4235.641113,4577.820313,4540.128418,4418.974121,4498.589844,,,,,,,,,,,,,,,,,,,,,,,,,,,,,,,,,,,,,,,,,,,,,,,,,,,,,,,,,,,,,,,,,,,,,,
1769163004.230747,1769163004.231211,9.0,0.0,4293.077148,4276.666504,4166.025879,4319.102539,4278.717773,4277.179688,4264.487305,4296.922852,4281.153809,4247.307617,4580.897461,4540.0,4427.05127,4501.025879,,,,,,,,,,,,,,,,,,,,,,,,,,,,,,,,,,,,,,,,,,,,,,,,,,,,,,,,,,,,,,,,,,,,,,
1769163004.238555,1769163004.239119,10.0,0.0,4285.128418,4265.0,4155.384766,4310.384766,4278.333496,4278.461426,4263.461426,4288.717773,4268.589844,4247.436035,4571.282227,4524.615234,4415.128418,4488.717773,,,,,,,,,,,,,,,,,,,,,,,,,,,,,,,,,,,,,,,,,,,,,,,,,,,,,,,,,,,,,,,,,,,,,,
1769163004.246364,1769163004.246928,11.0,0.0,4286.410156,4267.692383,4153.717773,4311.282227,4278.205078,4281.666504,4266.410156,4282.820313,4262.94873,4245.0,4570.256348,4523.846191,4416.922852,4487.692383,,,,,,,,,,,,,,,,,,,,,,,,,,,,,,,,,,,,,,,,,,,,,,,,,,,,,,,,,,,,,,,,,,,,,,
1769163004.254172,1769163004.254536,12.0,0.0,4293.461426,4269.871582,4156.282227,4313.077148,4275.769043,4279.871582,4266.794922,4290.769043,4275.256348,4247.179688,4575.0,4537.563965,4426.282227,4498.205078,,,,,,,,,,,,,,,,,,,,,,,,,,,,,,,,,,,,,,,,,,,,,,,,,,,,,,,,,,,,,,,,,,,,,,
1769163004.261981,1769163004.262345,13.0,0.0,4292.436035,4264.743652,4157.307617,4312.179688,4273.717773,4276.794922,4265.897461,4294.358887,4277.692383,4244.615234,4571.922852,4537.94873,4419.358887,4495.384766,,,,,,,,,,,,,,,,,,,,,,,,,,,,,,,,,,,,,,,,,,,,,,,,,,,,,,,,,,,,,,,,,,,,,,
1769163004.269789,1769163004.270253,14.0,0.0,4291.666504,4266.025879,4164.102539,4315.512695,4274.102539,4281.666504,4265.512695,4290.769043,4273.974121,4243.205078,4574.871582,4533.077148,4418.974121,4492.692383,0.560412,0.354199,0.340775,0.351554,0.170695,0.339459,0.437588,0.222853,0.219431,0.116487,0.613794,0.176871,0.207668,0.17797,0.107099,0.150229,0.292683,0.159425,0.200808,0.090145,0.13582,0.23862,0.192972,0.143751,0.073638,0.134757,0.205753,0.303218,0.060294,0.080761,0.169313,0.328208,0.184851,0.112921,0.093195,0.501465,0.502073,0.215034,0.14038,0.23645,0.330572,0.261369,0.201001,0.100925,0.098067,0.42907,0.199482,0.265894,0.115802,0.072321,0.507944,0.200366,0.34273,0.177234,0.159411,0.623838,0.292122,0.137641,0.114101,0.087554,0.500437,0.155708,0.453208,0.247253,0.273089,0.511097,0.316408,0.465103,0.173267,0.253409
1769163004.277598,1769163004.278061,15.0,0.0,4296.666504,4268.077148,4169.615234,4316.282227,4274.102539,4281.410156,4265.897461,4296.025879,4281.666504,4248.205078,4585.256348,4540.512695,4427.307617,4500.0,,,,,,,,,,,,,,,,,,,,,,,,,,,,,,,,,,,,,,,,,,,,,,,,,,,,,,,,,,,,,,,,,,,,,,
1769163004.285406,1769163004.28567,16.0,0.0,4296.025879,4266.153809,4162.05127,4311.922852,4273.846191,4270.384766,4265.0,4292.563965,4280.641113,4246.538574,4579.743652,4543.461426,4418.461426,4498.077148,,,,,,,,,,,,,,,,,,,,,,,,,,,,,,,,,,,,,,,,,,,,,,,,,,,,,,,,,,,,,,,,,,,,,,
1769163004.293214,1769163004.293479,17.0,0.0,4297.307617,4266.922852,4155.0,4312.563965,4275.897461,4268.205078,4263.077148,4278.717773,4266.922852,4238.846191,4566.538574,4535.769043,4409.487305,4490.128418,,,,,,,,,,,,,,,,,,,,,,,,,,,,,,,,,,,,,,,,,,,,,,,,,,,,,,,,,,,,,,,,,,,,,,
1769163004.301023,1769163004.301387,18.0,0.0,4305.384766,4268.589844,4158.333496,4314.743652,4276.025879,4275.641113,4263.333496,4281.922852,4263.846191,4237.820313,4567.94873,4536.153809,4413.333496,4490.256348,,,,,,,,,,,,,,,,,,,,,,,,,,,,,,,,,,,,,,,,,,,,,,,,,,,,,,,,,,,,,,,,,,,,,,
1769163004.308832,1769163004.309195,19.0,0.0,4305.0,4267.179688,4160.897461,4312.179688,4274.615234,4276.538574,4265.384766,4290.128418,4274.358887,4244.487305,4573.846191,4540.641113,4414.230957,4493.717773,,,,,,,,,,,,,,,,,,,,,,,,,,,,,,,,,,,,,,,,,,,,,,,,,,,,,,,,,,,,,,,,,,,,,,
1769163004.31664,1769163004.317204,20.0,0.0,4297.820313,4266.410156,4157.307617,4311.666504,4276.538574,4274.871582,4265.897461,4283.077148,4274.102539,4247.307617,4570.769043,4532.820313,4417.05127,4491.794922,,,,,,,,,,,,,,,,,,,,,,,,,,,,,,,,,,,,,,,,,,,,,,,,,,,,,,,,,,,,,,,,,,,,,,
1769163004.324448,1769163004.325012,21.0,0.0,4294.358887,4270.384766,4153.846191,4313.205078,4276.922852,4278.589844,4263.717773,4278.077148,4266.666504,4245.512695,4570.384766,4528.333496,4420.641113,4488.846191,,,,,,,,,,,,,,,,,,,,,,,,,,,,,,,,,,,,,,,,,,,,,,,,,,,,,,,,,,,,,,,,,,,,,,
1769163004.332257,1769163004.33292,22.0,0.0,4296.282227,4272.563965,4153.846191,4311.153809,4276.538574,4280.256348,4264.230957,4281.410156,4269.615234,4244.615234,4573.846191,4535.256348,4416.922852,4488.846191,,,,,,,,,,,,,,,,,,,,,,,,,,,,,,,,,,,,,,,,,,,,,,,,,,,,,,,,,,,,,,,,,,,,,,
1769163004.340065,1769163004.340729,23.0,0.0,4296.922852,4266.153809,4152.179688,4307.820313,4276.153809,4279.230957,4266.666504,4282.563965,4271.153809,4241.538574,4570.641113,4529.487305,4411.538574,4489.487305,,,,,,,,,,,,,,,,,,,,,,,,,,,,,,,,,,,,,,,,,,,,,,,,,,,,,,,,,,,,,,,,,,,,,,
1769163004.347874,1769163004.348737,24.0,0.0,4296.538574,4264.871582,4150.384766,4306.538574,4275.384766,4280.0,4266.282227,4291.025879,4272.179688,4241.025879,4568.846191,4523.717773,4415.256348,4489.871582,,,,,,,,,,,,,,,,,,,,,,,,,,,,,,,,,,,,,,,,,,,,,,,,,,,,,,,,,,,,,,,,,,,,,,
1769163004.355682,1769163004.356545,25.0,0.0,4294.230957,4269.615234,4151.153809,4306.666504,4272.05127,4280.384766,4265.384766,4298.717773,4279.615234,4246.025879,4573.333496,4537.179688,4423.077148,4490.256348,,,,,,,,,,,,,,,,,,,,,,,,,,,,,,,,,,,,,,,,,,,,,,,,,,,,,,,,,,,,,,,,,,,,,,
1769163004.363491,1769163004.364254,26.0,0.0,4293.846191,4268.461426,4150.512695,4305.769043,4268.846191,4281.153809,4266.538574,4287.436035,4276.666504,4246.538574,4573.077148,4538.717773,4423.461426,4489.230957,,,,,,,,,,,,,,,,,,,,,,,,,,,,,,,,,,,,,,,,,,,,,,,,,,,,,,,,,,,,,,,,,,,,,,
1769163004.371299,1769163004.372062,27.0,0.0,4303.333496,4271.410156,4149.615234,4307.563965,4271.410156,4280.256348,4266.794922,4278.333496,4265.769043,4245.769043,4569.871582,4525.128418,4420.897461,4487.820313,,,,,,,,,,,,,,,,,,,,,,,,,,,,,,,,,,,,,,,,,,,,,,,,,,,,,,,,,,,,,,,,,,,,,,
1769163004.379108,1769163004.380071,28.0,0.0,4310.384766,4281.025879,4151.025879,4310.641113,4274.871582,4279.102539,4265.641113,4282.05127,4264.871582,4248.717773,4570.897461,4524.871582,4419.615234,4489.102539,,,,,,,,,,,,,,,,,,,,,,,,,,,,,,,,,,,,,,,,,,,,,,,,,,,,,,,,,,,,,,,,,,,,,,
1769163004.386916,1769163004.387879,29.0,0.0,4306.282227,4281.666504,4151.282227,4310.256348,4274.615234,4278.333496,4263.461426,4283.974121,4267.94873,4247.94873,4569.230957,4525.769043,4415.256348,4488.461426,,,,,,,,,,,,,,,,,,,,,,,,,,,,,,,,,,,,,,,,,,,,,,,,,,,,,,,,,,,,,,,,,,,,,,
1769163004.394724,1769163004.395588,30.0,0.0,4306.794922,4279.230957,4151.153809,4311.410156,4274.871582,4277.307617,4261.025879,4278.717773,4263.461426,4245.769043,4566.538574,4521.922852,4413.205078,4487.563965,0.615125,0.413126,0.328092,0.251439,0.178359,0.386594,0.526026,0.217425,0.197414,0.112549,0.668043,0.192161,0.193429,0.162681,0.106898,0.16258,0.338228,0.174246,0.162808,0.083591,0.136884,0.237833,0.221816,0.137968,0.078417,0.131576,0.211613,0.323834,0.064113,0.073062,0.197464,0.286989,0.20298,0.104932,0.084667,0.559581,0.387217,0.19466,0.129725,0.219405,0.376481,0.260354,0.208223,0.094117,0.091942,0.461412,0.231661,0.263831,0.112409,0.074438,0.525502,0.210475,0.306697,0.186276,0.167522,0.741368,0.348335,0.134372,0.107418,0.091337,0.487467,0.152372,0.430275,0.266452,0.287683,0.4709,0.257143,0.405207,0.184463,0.262565
1769163004.402533,1769163004.403396,31.0,0.0,4313.717773,4281.538574,4151.410156,4313.717773,4277.179688,4276.794922,4260.897461,4278.589844,4261.282227,4248.846191,4569.487305,4530.384766,4417.307617,4491.153809,,,,,,,,,,,,,,,,,,,,,,,,,,,,,,,,,,,,,,,,,,,,,,,,,,,,,,,,,,,,,,,,,,,,,,
1769163004.410341,1769163004.411005,32.0,0.0,4313.717773,4281.025879,4150.512695,4312.05127,4277.436035,4276.922852,4262.436035,4287.820313,4267.179688,4250.0,4572.692383,4538.974121,4419.487305,4492.820313,,,,,,,,,,,,,,,,,,,,,,,,,,,,,,,,,,,,,,,,,,,,,,,,,,,,,,,,,,,,,,,,,,,,,,
1769163004.41815,1769163004.418813,33.0,0.0,4310.641113,4280.0,4152.05127,4310.128418,4277.436035,4278.077148,4262.692383,4289.871582,4272.563965,4249.230957,4571.922852,4537.307617,4417.820313,4491.922852,,,,,,,,,,,,,,,,,,,,,,,,,,,,,,,,,,,,,,,,,,,,,,,,,,,,,,,,,,,,,,,,,,,,,,
1769163004.425958,1769163004.426522,34.0,0.0,4311.025879,4282.05127,4150.769043,4309.230957,4279.102539,4280.384766,4262.563965,4281.025879,4267.563965,4250.384766,4570.0,4535.0,4415.0,4492.05127,,,,,,,,,,,,,,,,,,,,,,,,,,,,,,,,,,,,,,,,,,,,,,,,,,,,,,,,,,,,,,,,,,,,,,
1769163004.433767,1769163004.43433,35.0,0.0,4309.743652,4279.743652,4144.230957,4307.05127,4278.974121,4280.769043,4263.077148,4281.153809,4266.025879,4251.153809,4569.358887,4537.94873,4411.922852,4491.410156,,,,,,,,,,,,,,,,,,,,,,,,,,,,,,,,,,,,,,,,,,,,,,,,,,,,,,,,,,,,,,,,,,,,,,
1769163004.441575,1769163004.442339,36.0,0.0,4311.922852,4276.153809,4145.128418,4304.743652,4280.897461,4278.077148,4263.589844,4294.230957,4276.282227,4251.538574,4571.794922,4538.461426,4414.871582,4493.077148,,,,,,,,,,,,,,,,,,,,,,,,,,,,,,,,,,,,,,,,,,,,,,,,,,,,,,,,,,,,,,,,,,,,,,
1769163004.449384,1769163004.450147,37.0,0.0,4312.179688,4279.358887,4148.717773,4301.025879,4281.922852,4278.077148,4261.538574,4288.717773,4274.230957,4250.384766,4569.615234,4530.897461,4413.333496,4492.05127,,,,,,,,,,,,,,,,,,,,,,,,,,,,,,,,,,,,,,,,,,,,,,,,,,,,,,,,,,,,,,,,,,,,,,
1769163004.457192,1769163004.457856,38.0,0.0,4299.615234,4277.179688,4141.794922,4294.358887,4281.538574,4280.897461,4261.666504,4273.717773,4258.077148,4246.025879,4558.205078,4521.538574,4405.897461,4479.871582,,,,,,,,,,,,,,,,,,,,,,,,,,,,,,,,,,,,,,,,,,,,,,,,,,,,,,,,,,,,,,,,,,,,,,
1769163004.465001,1769163004.465664,39.0,0.0,4290.641113,4265.769043,4133.077148,4290.641113,4283.461426,4282.436035,4265.897461,4283.717773,4260.0,4243.333496,4553.974121,4521.153809,4406.153809,4471.666504,,,,,,,,,,,,,,,,,,,,,,,,,,,,,,,,,,,,,,,,,,,,,,,,,,,,,,,,,,,,,,,,,,,,,,
1769163004.472809,1769163004.473273,40.0,0.0,4299.487305,4264.230957,4135.256348,4292.179688,4282.436035,4282.436035,4267.05127,4298.461426,4275.641113,4250.384766,4564.487305,4531.794922,4412.820313,4482.05127,,,,,,,,,,,,,,,,,,,,,,,,,,,,,,,,,,,,,,,,,,,,,,,,,,,,,,,,,,,,,,,,,,,,,,
1769163004.480617,1769163004.481081,41.0,0.0,4311.794922,4277.307617,4143.974121,4294.487305,4280.384766,4281.025879,4264.230957,4297.436035,4279.871582,4262.179688,4576.410156,4541.538574,4421.410156,4493.846191,,,,,,,,,,,,,,,,,,,,,,,,,,,,,,,,,,,,,,,,,,,,,,,,,,,,,,,,,,,,,,,,,,,,,,
1769163004.488426,1769163004.48879,42.0,0.0,4314.230957,4284.615234,4149.615234,4298.717773,4285.0,4278.077148,4262.94873,4295.512695,4279.487305,4266.794922,4579.358887,4542.820313,4429.102539,4494.487305,,,,,,,,,,,,,,,,,,,,,,,,,,,,,,,,,,,,,,,,,,,,,,,,,,,,,,,,,,,,,,,,,,,,,,
1769163004.496234,1769163004.496598,43.0,0.0,4311.794922,4279.487305,4152.307617,4301.666504,4288.077148,4277.94873,4265.128418,4297.820313,4277.436035,4258.846191,4575.384766,4540.641113,4426.538574,4493.333496,,,,,,,,,,,,,,,,,,,,,,,,,,,,,,,,,,,,,,,,,,,,,,,,,,,,,,,,,,,,,,,,,,,,,,
1769163004.504043,1769163004.504606,44.0,0.0,4310.256348,4277.692383,4152.563965,4299.358887,4287.94873,4278.717773,4265.128418,4295.128418,4269.615234,4250.897461,4572.820313,4540.897461,4419.230957,4495.0,,,,,,,,,,,,,,,,,,,,,,,,,,,,,,,,,,,,,,,,,,,,,,,,,,,,,,,,,,,,,,,,,,,,,,
1769163004.511851,1769163004.512415,45.0,0.0,4312.179688,4279.743652,4147.05127,4295.769043,4289.358887,4275.512695,4261.410156,4293.461426,4267.179688,4252.692383,4571.410156,4535.128418,4413.846191,4492.179688,,,,,,,,,,,,,,,,,,,,,,,,,,,,,,,,,,,,,,,,,,,,,,,,,,,,,,,,,,,,,,,,,,,,,,
1769163004.51966,1769163004.520323,46.0,0.0,4310.0,4276.410156,4137.563965,4293.974121,4288.974121,4273.846191,4259.487305,4295.128418,4271.153809,4254.358887,4567.820313,4526.410156,4407.94873,4485.0,0.687207,0.469783,0.311376,0.191385,0.198034,0.455187,0.598387,0.215696,0.180551,0.113606,0.698454,0.240057,0.194334,0.166334,0.110293,0.206735,0.366866,0.182592,0.132971,0.081366,0.128602,0.22874,0.244342,0.128389,0.078793,0.132824,0.203566,0.316517,0.068717,0.075572,0.231881,0.24716,0.220363,0.1046,0.077596,0.576765,0.301647,0.201757,0.121268,0.194386,0.437501,0.265929,0.245498,0.09666,0.093202,0.474536,0.251982,0.256444,0.114855,0.083199,0.557958,0.249154,0.263626,0.193964,0.182885,0.841668,0.420809,0.138118,0.111574,0.110125,0.499316,0.174017,0.385797,0.270642,0.300802,0.484492,0.25217,0.346637,0.22367,0.276208
1769163004.527468,1769163004.528132,47.0,0.0,4300.897461,4270.384766,4136.666504,4292.307617,4287.05127,4276.538574,4261.025879,4293.846191,4267.94873,4249.871582,4566.922852,4530.0,4405.769043,4480.512695,,,,,,,,,,,,,,,,,,,,,,,,,,,,,,,,,,,,,,,,,,,,,,,,,,,,,,,,,,,,,,,,,,,,,,
1769163004.535277,1769163004.53614,48.0,0.0,4298.205078,4270.0,4142.820313,4292.94873,4287.94873,4279.102539,4262.563965,4294.102539,4261.410156,4246.410156,4569.871582,4535.384766,4407.94873,4478.461426,,,,,,,,,,,,,,,,,,,,,,,,,,,,,,,,,,,,,,,,,,,,,,,,,,,,,,,,,,,,,,,,,,,,,,
1769163004.543085,1769163004.543948,49.0,0.0,4305.128418,4272.436035,4142.179688,4294.871582,4287.94873,4279.102539,4262.94873,4297.179688,4265.384766,4247.307617,4569.358887,4532.436035,4406.666504,4475.0,,,,,,,,,,,,,,,,,,,,,,,,,,,,,,,,,,,,,,,,,,,,,,,,,,,,,,,,,,,,,,,,,,,,,,
1769163004.550893,1769163004.551857,50.0,0.0,4310.512695,4272.307617,4141.410156,4293.846191,4289.102539,4278.717773,4264.615234,4298.333496,4270.384766,4246.922852,4567.307617,4532.307617,4407.692383,4472.307617,,,,,,,,,,,,,,,,,,,,,,,,,,,,,,,,,,,,,,,,,,,,,,,,,,,,,,,,,,,,,,,,,,,,,,
1769163004.558702,1769163004.559665,51.0,0.0,4311.410156,4278.461426,4148.589844,4299.358887,4293.717773,4277.05127,4262.179688,4295.641113,4268.461426,4248.846191,4570.512695,4537.05127,4412.692383,4475.128418,,,,,,,,,,,,,,,,,,,,,,,,,,,,,,,,,,,,,,,,,,,,,,,,,,,,,,,,,,,,,,,,,,,,,,
1769163004.56651,1769163004.567673,52.0,0.0,4309.615234,4281.538574,4154.615234,4304.743652,4293.974121,4272.307617,4258.205078,4291.922852,4265.384766,4252.05127,4571.282227,4536.666504,4412.820313,4476.538574,,,,,,,,,,,,,,,,,,,,,,,,,,,,,,,,,,,,,,,,,,,,,,,,,,,,,,,,,,,,,,,,,,,,,,
1769163004.574319,1769163004.575482,53.0,0.0,4306.794922,4269.615234,4155.256348,4300.769043,4291.282227,4274.871582,4261.153809,4293.077148,4264.615234,4249.230957,4569.487305,4536.153809,4410.256348,4475.0,,,,,,,,,,,,,,,,,,,,,,,,,,,,,,,,,,,,,,,,,,,,,,,,,,,,,,,,,,,,,,,,,,,,,,
1769163004.582127,1769163004.58319,54.0,0.0,4308.461426,4265.128418,4155.0,4297.94873,4287.563965,4278.205078,4263.846191,4295.641113,4262.820313,4247.94873,4570.769043,4539.871582,4413.205078,4478.589844,,,,,,,,,,,,,,,,,,,,,,,,,,,,,,,,,,,,,,,,,,,,,,,,,,,,,,,,,,,,,,,,,,,,,,
1769163004.589936,1769163004.590999,55.0,0.0,4311.538574,4274.871582,4154.871582,4297.692383,4281.794922,4270.384766,4260.0,4294.743652,4263.589844,4251.025879,4570.897461,4539.230957,4412.94873,4479.487305,,,,,,,,,,,,,,,,,,,,,,,,,,,,,,,,,,,,,,,,,,,,,,,,,,,,,,,,,,,,,,,,,,,,,,
1769163004.597744,1769163004.598607,56.0,0.0,4310.384766,4274.358887,4153.077148,4298.589844,4281.410156,4266.538574,4260.384766,4294.615234,4275.641113,4253.589844,4571.153809,4537.820313,4406.025879,4474.230957,,,,,,,,,,,,,,,,,,,,,,,,,,,,,,,,,,,,,,,,,,,,,,,,,,,,,,,,,,,,,,,,,,,,,,
1769163004.605553,1769163004.606416,57.0,0.0,4312.179688,4265.512695,4153.717773,4304.487305,4287.94873,4278.077148,4267.563965,4297.307617,4281.410156,4253.846191,4570.0,4539.615234,4404.102539,4472.692383,,,,,,,,,,,,,,,,,,,,,,,,,,,,,,,,,,,,,,,,,,,,,,,,,,,,,,,,,,,,,,,,,,,,,,
1769163004.613361,1769163004.614124,58.0,0.0,4311.922852,4266.922852,4154.487305,4304.743652,4287.94873,4282.05127,4264.487305,4294.358887,4268.717773,4252.436035,4562.436035,4534.230957,4404.743652,4471.410156,,,,,,,,,,,,,,,,,,,,,,,,,,,,,,,,,,,,,,,,,,,,,,,,,,,,,,,,,,,,,,,,,,,,,,
1769163004.62117,1769163004.621933,59.0,0.0,4302.563965,4267.94873,4152.179688,4295.256348,4281.282227,4273.077148,4256.538574,4287.563965,4259.743652,4248.205078,4554.743652,4523.589844,4399.102539,4462.05127,,,,,,,,,,,,,,,,,,,,,,,,,,,,,,,,,,,,,,,,,,,,,,,,,,,,,,,,,,,,,,,,,,,,,,
1769163004.628978,1769163004.629941,60.0,0.0,4294.102539,4262.05127,4150.769043,4292.563965,4283.205078,4274.487305,4259.487305,4290.128418,4263.717773,4247.179688,4554.487305,4522.563965,4393.974121,4455.769043,,,,,,,,,,,,,,,,,,,,,,,,,,,,,,,,,,,,,,,,,,,,,,,,,,,,,,,,,,,,,,,,,,,,,,
1769163004.636787,1769163004.637749,61.0,0.0,4294.230957,4261.410156,4152.94873,4297.563965,4290.256348,4281.282227,4262.563965,4295.769043,4265.0,4248.846191,4557.05127,4525.897461,4394.358887,4457.436035,,,,,,,,,,,,,,,,,,,,,,,,,,,,,,,,,,,,,,,,,,,,,,,,,,,,,,,,,,,,,,,,,,,,,,
1769163004.644595,1769163004.645658,62.0,0.0,4298.974121,4265.897461,4156.922852,4299.230957,4289.487305,4279.102539,4258.974121,4292.820313,4261.794922,4246.922852,4557.179688,4525.641113,4394.871582,4457.307617,0.780479,0.526891,0.285958,0.16516,0.2187,0.538379,0.642129,0.2138,0.168377,0.118213,0.753592,0.313591,0.200037,0.181597,0.114925,0.271031,0.380218,0.180293,0.111695,0.08199,0.112159,0.212017,0.253559,0.114403,0.07393,0.134798,0.182365,0.285684,0.072069,0.08258,0.262193,0.21221,0.229843,0.105853,0.072796,0.55289,0.254854,0.227854,0.114679,0.169803,0.499444,0.272543,0.303703,0.105641,0.103227,0.46426,0.25484,0.249506,0.121499,0.09434,0.591829,0.301387,0.224747,0.19775,0.198144,0.913813,0.484939,0.146451,0.120115,0.139846,0.523379,0.219491,0.333399,0.258754,0.303308,0.52597,0.278291,0.29243,0.278388,0.286956
1769163004.652403,1769163004.653466,63.0,0.0,4300.384766,4267.307617,4157.563965,4299.615234,4284.871582,4276.025879,4257.94873,4289.487305,4263.589844,4251.538574,4556.282227,4521.666504,4395.128418,4455.769043,,,,,,,,,,,,,,,,,,,,,,,,,,,,,,,,,,,,,,,,,,,,,,,,,,,,,,,,,,,,,,,,,,,,,,
1769163004.660212,1769163004.661075,64.0,0.0,4295.769043,4262.820313,4152.563965,4297.05127,4287.563965,4278.205078,4265.769043,4294.871582,4266.025879,4260.128418,4558.589844,4522.820313,4397.563965,4457.820313,,,,,,,,,,,,,,,,,,,,,,,,,,,,,,,,,,,,,,,,,,,,,,,,,,,,,,,,,,,,,,,,,,,,,,
1769163004.66802,1769163004.668883,65.0,0.0,4294.743652,4261.666504,4151.922852,4293.717773,4288.589844,4279.102539,4267.94873,4293.589844,4263.846191,4254.230957,4559.487305,4529.487305,4397.307617,4459.487305,,,,,,,,,,,,,,,,,,,,,,,,,,,,,,,,,,,,,,,,,,,,,,,,,,,,,,,,,,,,,,,,,,,,,,
1769163004.675829,1769163004.676592,66.0,0.0,4303.717773,4268.974121,4161.282227,4298.077148,4283.077148,4276.922852,4257.436035,4281.410156,4260.897461,4244.102539,4556.282227,4529.743652,4398.717773,4459.743652,,,,,,,,,,,,,,,,,,,,,,,,,,,,,,,,,,,,,,,,,,,,,,,,,,,,,,,,,,,,,,,,,,,,,,
1769163004.683637,1769163004.6844,67.0,0.0,4312.820313,4276.666504,4168.461426,4305.0,4282.94873,4276.794922,4252.692383,4280.512695,4259.871582,4252.307617,4560.384766,4527.179688,4407.179688,4466.794922,,,,,,,,,,,,,,,,,,,,,,,,,,,,,,,,,,,,,,,,,,,,,,,,,,,,,,,,,,,,,,,,,,,,,,
1769163004.691446,1769163004.692409,68.0,0.0,4311.538574,4275.384766,4166.410156,4304.743652,4289.487305,4276.666504,4260.384766,4290.384766,4264.871582,4266.922852,4571.922852,4534.743652,4414.102539,4475.897461,,,,,,,,,,,,,,,,,,,,,,,,,,,,,,,,,,,,,,,,,,,,,,,,,,,,,,,,,,,,,,,,,,,,,,
1769163004.699254,1769163004.700217,69.0,0.0,4309.102539,4267.436035,4165.512695,4302.436035,4291.025879,4280.512695,4267.05127,4297.307617,4271.538574,4266.153809,4574.102539,4541.025879,4412.307617,4472.692383,,,,,,,,,,,,,,,,,,,,,,,,,,,,,,,,,,,,,,,,,,,,,,,,,,,,,,,,,,,,,,,,,,,,,,
1769163004.707063,1769163004.708125,70.0,0.0,4308.717773,4266.666504,4168.846191,4304.102539,4283.333496,4280.641113,4264.871582,4293.974121,4269.487305,4259.102539,4567.820313,4531.153809,4406.025879,4463.205078,,,,,,,,,,,,,,,,,,,,,,,,,,,,,,,,,,,,,,,,,,,,,,,,,,,,,,,,,,,,,,,,,,,,,,
1769163004.714871,1769163004.715934,71.0,0.0,4309.871582,4274.230957,4170.128418,4307.692383,4278.846191,4270.641113,4261.025879,4283.717773,4262.436035,4258.717773,4566.794922,4523.461426,4402.563965,4461.666504,,,,,,,,,,,,,,,,,,,,,,,,,,,,,,,,,,,,,,,,,,,,,,,,,,,,,,,,,,,,,,,,,,,,,,
1769163004.72268,1769163004.723942,72.0,0.0,4316.794922,4281.282227,4173.077148,4309.871582,4285.512695,4269.487305,4258.974121,4280.769043,4266.922852,4263.846191,4570.512695,4531.538574,4407.436035,4467.179688,,,,,,,,,,,,,,,,,,,,,,,,,,,,,,,,,,,,,,,,,,,,,,,,,,,,,,,,,,,,,,,,,,,,,,
1769163004.730488,1769163004.731751,73.0,0.0,4321.025879,4277.563965,4172.820313,4306.153809,4288.589844,4279.615234,4259.871582,4287.307617,4276.025879,4267.820313,4571.794922,4535.769043,4413.589844,4471.410156,,,,,,,,,,,,,,,,,,,,,,,,,,,,,,,,,,,,,,,,,,,,,,,,,,,,,,,,,,,,,,,,,,,,,,
1769163004.738296,1769163004.739659,74.0,0.0,4312.179688,4266.794922,4167.692383,4294.230957,4282.820313,4282.436035,4265.0,4294.487305,4276.025879,4266.025879,4569.743652,4526.922852,4407.05127,4473.205078,,,,,,,,,,,,,,,,,,,,,,,,,,,,,,,,,,,,,,,,,,,,,,,,,,,,,,,,,,,,,,,,,,,,,,
1769163004.746105,1769163004.747467,75.0,0.0,4309.358887,4269.743652,4175.384766,4295.897461,4283.717773,4279.487305,4264.358887,4294.743652,4273.846191,4262.563965,4568.333496,4524.743652,4400.897461,4472.94873,,,,,,,,,,,,,,,,,,,,,,,,,,,,,,,,,,,,,,,,,,,,,,,,,,,,,,,,,,,,,,,,,,,,,,
1769163004.753913,1769163004.755176,76.0,0.0,4318.846191,4281.794922,4187.692383,4306.922852,4290.512695,4279.230957,4259.871582,4287.307617,4271.666504,4264.230957,4569.615234,4532.436035,4407.692383,4472.179688,,,,,,,,,,,,,,,,,,,,,,,,,,,,,,,,,,,,,,,,,,,,,,,,,,,,,,,,,,,,,,,,,,,,,,
1769163004.761722,1769163004.762984,77.0,0.0,4316.794922,4280.769043,4184.230957,4302.05127,4289.487305,4275.641113,4261.410156,4278.333496,4264.743652,4266.025879,4570.128418,4530.384766,4413.205078,4472.05127,,,,,,,,,,,,,,,,,,,,,,,,,,,,,,,,,,,,,,,,,,,,,,,,,,,,,,,,,,,,,,,,,,,,,,
1769163004.76953,1769163004.770693,78.0,0.0,4310.512695,4277.307617,4177.94873,4294.615234,4286.410156,4272.179688,4260.512695,4276.794922,4261.666504,4264.615234,4571.282227,4525.641113,4413.205078,4473.589844,0.876206,0.587939,0.259998,0.160655,0.232741,0.61601,0.650754,0.211278,0.15958,0.126079,0.804284,0.39917,0.204604,0.200797,0.118814,0.346476,0.384636,0.167978,0.097031,0.083804,0.090978,0.188619,0.244312,0.095993,0.064406,0.135161,0.155387,0.243262,0.072256,0.089319,0.277792,0.180516,0.225069,0.102636,0.070217,0.490957,0.237512,0.269396,0.11033,0.153254,0.541202,0.273967,0.373715,0.120491,0.122618,0.423452,0.24303,0.249691,0.131435,0.103835,0.603566,0.347213,0.201882,0.197807,0.206967,0.944547,0.519801,0.170804,0.128972,0.174916,0.542837,0.283842,0.293726,0.236596,0.291232,0.561679,0.309389,0.24804,0.328462,0.287849
1769163004.777339,1769163004.778501,79.0,0.0,4322.820313,4290.256348,4183.461426,4304.871582,4288.717773,4273.205078,4253.077148,4277.94873,4265.128418,4263.205078,4573.461426,4531.538574,4415.512695,4476.538574,,,,,,,,,,,,,,,,,,,,,,,,,,,,,,,,,,,,,,,,,,,,,,,,,,,,,,,,,,,,,,,,,,,,,,
1769163004.785147,1769163004.78611,80.0,0.0,4331.282227,4293.717773,4187.179688,4311.666504,4286.666504,4273.333496,4253.077148,4278.333496,4266.794922,4263.846191,4572.307617,4531.025879,4415.384766,4476.410156,,,,,,,,,,,,,,,,,,,,,,,,,,,,,,,,,,,,,,,,,,,,,,,,,,,,,,,,,,,,,,,,,,,,,,
1769163004.792956,1769163004.793918,81.0,0.0,4321.666504,4279.871582,4184.871582,4299.615234,4281.666504,4274.102539,4261.794922,4282.179688,4269.358887,4268.333496,4570.897461,4524.358887,4414.358887,4474.615234,,,,,,,,,,,,,,,,,,,,,,,,,,,,,,,,,,,,,,,,,,,,,,,,,,,,,,,,,,,,,,,,,,,,,,
1769163004.800764,1769163004.801627,82.0,0.0,4318.717773,4276.538574,4185.512695,4291.666504,4280.384766,4272.307617,4262.563965,4282.94873,4276.410156,4272.307617,4570.512695,4525.897461,4416.153809,4474.615234,,,,,,,,,,,,,,,,,,,,,,,,,,,,,,,,,,,,,,,,,,,,,,,,,,,,,,,,,,,,,,,,,,,,,,
1769163004.808572,1769163004.809435,83.0,0.0,4327.436035,4281.025879,4188.077148,4300.769043,4279.743652,4272.820313,4260.128418,4278.974121,4276.282227,4266.794922,4568.589844,4526.538574,4412.436035,4475.256348,,,,,,,,,,,,,,,,,,,,,,,,,,,,,,,,,,,,,,,,,,,,,,,,,,,,,,,,,,,,,,,,,,,,,,
1769163004.816381,1769163004.817044,84.0,0.0,4330.384766,4279.102539,4188.974121,4306.666504,4280.128418,4281.153809,4265.769043,4279.743652,4269.102539,4255.769043,4565.384766,4521.666504,4403.333496,4473.717773,,,,,,,,,,,,,,,,,,,,,,,,,,,,,,,,,,,,,,,,,,,,,,,,,,,,,,,,,,,,,,,,,,,,,,
1769163004.824189,1769163004.824853,85.0,0.0,4324.230957,4276.282227,4189.871582,4301.153809,4280.897461,4279.230957,4263.461426,4282.563965,4267.307617,4252.179688,4558.077148,4519.102539,4397.307617,4465.512695,,,,,,,,,,,,,,,,,,,,,,,,,,,,,,,,,,,,,,,,,,,,,,,,,,,,,,,,,,,,,,,,,,,,,,
1769163004.831998,1769163004.832561,86.0,0.0,4316.410156,4277.94873,4194.615234,4293.333496,4280.128418,4265.384766,4251.410156,4274.358887,4262.563965,4250.769043,4553.077148,4519.102539,4396.794922,4458.717773,,,,,,,,,,,,,,,,,,,,,,,,,,,,,,,,,,,,,,,,,,,,,,,,,,,,,,,,,,,,,,,,,,,,,,
1769163004.839806,1769163004.84037,87.0,0.0,4318.974121,4278.589844,4199.743652,4295.256348,4278.589844,4267.692383,4251.538574,4260.641113,4251.922852,4249.102539,4562.05127,4521.410156,4403.589844,4466.666504,,,,,,,,,,,,,,,,,,,,,,,,,,,,,,,,,,,,,,,,,,,,,,,,,,,,,,,,,,,,,,,,,,,,,,
1769163004.847615,1769163004.848378,88.0,0.0,4334.743652,4279.358887,4202.307617,4302.563965,4280.384766,4279.230957,4262.179688,4265.128418,4252.307617,4255.512695,4571.410156,4523.333496,4411.666504,4481.794922,,,,,,,,,,,,,,,,,,,,,,,,,,,,,,,,,,,,,,,,,,,,,,,,,,,,,,,,,,,,,,,,,,,,,,
1769163004.855423,1769163004.856186,89.0,0.0,4344.615234,4282.05127,4203.333496,4304.358887,4281.794922,4272.820313,4262.692383,4281.025879,4264.230957,4261.538574,4570.512695,4523.333496,4413.461426,4483.846191,,,,,,,,,,,,,,,,,,,,,,,,,,,,,,,,,,,,,,,,,,,,,,,,,,,,,,,,,,,,,,,,,,,,,,
1769163004.863232,1769163004.863895,90.0,0.0,4333.205078,4282.692383,4202.563965,4298.077148,4280.0,4262.05127,4256.410156,4284.230957,4273.077148,4265.769043,4577.179688,4530.128418,4412.94873,4483.333496,,,,,,,,,,,,,,,,,,,,,,,,,,,,,,,,,,,,,,,,,,,,,,,,,,,,,,,,,,,,,,,,,,,,,,
1769163004.87104,1769163004.871703,91.0,0.0,4319.102539,4280.128418,4199.102539,4293.077148,4277.820313,4264.615234,4258.846191,4278.974121,4276.666504,4274.743652,4588.589844,4540.512695,4416.282227,4489.358887,,,,,,,,,,,,,,,,,,,,,,,,,,,,,,,,,,,,,,,,,,,,,,,,,,,,,,,,,,,,,,,,,,,,,,
1769163004.878848,1769163004.879312,92.0,0.0,4319.743652,4276.794922,4199.487305,4299.230957,4278.461426,4271.666504,4262.05127,4279.743652,4276.922852,4278.461426,4584.230957,4535.256348,4416.794922,4485.897461,,,,,,,,,,,,,,,,,,,,,,,,,,,,,,,,,,,,,,,,,,,,,,,,,,,,,,,,,,,,,,,,,,,,,,
1769163004.886657,1769163004.88712,93.0,0.0,4326.666504,4278.333496,4210.641113,4304.230957,4280.0,4276.922852,4261.282227,4278.974121,4273.589844,4265.128418,4569.871582,4522.05127,4409.230957,4470.0,,,,,,,,,,,,,,,,,,,,,,,,,,,,,,,,,,,,,,,,,,,,,,,,,,,,,,,,,,,,,,,,,,,,,,
1769163004.894465,1769163004.894829,94.0,0.0,4330.769043,4282.307617,4218.974121,4299.230957,4278.333496,4277.94873,4262.820313,4278.461426,4275.384766,4258.717773,4568.461426,4521.410156,4404.102539,4463.589844,0.957702,0.65657,0.245111,0.167332,0.236831,0.665815,0.625053,0.207882,0.153773,0.136636,0.80963,0.478764,0.210659,0.217957,0.120366,0.41269,0.385358,0.150607,0.087701,0.08505,0.072146,0.160942,0.216163,0.075732,0.05237,0.133077,0.131232,0.202127,0.068279,0.093712,0.268205,0.151108,0.206238,0.093561,0.069323,0.404514,0.229198,0.318612,0.110915,0.14876,0.54563,0.268121,0.442079,0.144268,0.149623,0.363916,0.226666,0.258761,0.145974,0.109248,0.57761,0.37474,0.200341,0.19859,0.20581,0.922332,0.520047,0.221948,0.138294,0.208546,0.544093,0.365905,0.28433,0.215382,0.265994,0.561319,0.339961,0.222719,0.356129,0.274969
1769163004.902274,1769163004.902637,95.0,0.0,4323.461426,4278.589844,4209.615234,4293.589844,4277.179688,4276.153809,4265.256348,4287.94873,4280.897461,4272.05127,4578.205078,4527.94873,4409.230957,4471.282227,,,,,,,,,,,,,,,,,,,,,,,,,,,,,,,,,,,,,,,,,,,,,,,,,,,,,,,,,,,,,,,,,,,,,,
1769163004.910082,1769163004.910646,96.0,0.0,4311.666504,4271.794922,4199.615234,4293.205078,4279.871582,4277.05127,4265.384766,4291.794922,4280.769043,4276.282227,4579.358887,4526.666504,4416.282227,4477.820313,,,,,,,,,,,,,,,,,,,,,,,,,,,,,,,,,,,,,,,,,,,,,,,,,,,,,,,,,,,,,,,,,,,,,,
1769163004.917891,1769163004.918454,97.0,0.0,4312.94873,4274.743652,4206.282227,4295.256348,4281.410156,4279.358887,4265.128418,4282.05127,4274.871582,4265.0,4569.743652,4520.641113,4412.692383,4472.692383,,,,,,,,,,,,,,,,,,,,,,,,,,,,,,,,,,,,,,,,,,,,,,,,,,,,,,,,,,,,,,,,,,,,,,
1769163004.925699,1769163004.926362,98.0,0.0,4320.641113,4280.128418,4215.897461,4294.102539,4279.230957,4274.743652,4263.461426,4276.794922,4271.153809,4258.717773,4564.487305,4519.358887,4403.205078,4462.94873,,,,,,,,,,,,,,,,,,,,,,,,,,,,,,,,,,,,,,,,,,,,,,,,,,,,,,,,,,,,,,,,,,,,,,
1769163004.933508,1769163004.934171,99.0,0.0,4324.230957,4279.102539,4216.153809,4294.358887,4276.666504,4266.538574,4257.307617,4281.410156,4272.692383,4264.230957,4570.0,4522.563965,4404.743652,4466.538574,,,,,,,,,,,,,,,,,,,,,,,,,,,,,,,,,,,,,,,,,,,,,,,,,,,,,,,,,,,,,,,,,,,,,,
1769163004.941316,1769163004.942179,100.0,0.0,4327.307617,4278.717773,4216.666504,4297.436035,4277.94873,4264.871582,4258.589844,4278.974121,4266.410156,4264.743652,4571.410156,4525.256348,4412.692383,4477.563965,,,,,,,,,,,,,,,,,,,,,,,,,,,,,,,,,,,,,,,,,,,,,,,,,,,,,,,,,,,,,,,,,,,,,,
1769163004.949125,1769163004.949987,101.0,0.0,4329.358887,4285.512695,4223.717773,4300.897461,4284.871582,4266.410156,4262.179688,4271.922852,4260.769043,4263.077148,4569.871582,4524.871582,4413.205078,4481.794922,,,,,,,,,,,,,,,,,,,,,,,,,,,,,,,,,,,,,,,,,,,,,,,,,,,,,,,,,,,,,,,,,,,,,,
1769163004.956933,1769163004.957696,102.0,0.0,4329.487305,4292.179688,4231.666504,4303.333496,4290.641113,4265.256348,4256.666504,4275.512695,4270.769043,4272.563965,4577.307617,4522.179688,4414.358887,4483.461426,,,,,,,,,,,,,,,,,,,,,,,,,,,,,,,,,,,,,,,,,,,,,,,,,,,,,,,,,,,,,,,,,,,,,,
1769163004.964742,1769163004.965504,103.0,0.0,4331.410156,4287.820313,4233.974121,4301.153809,4285.897461,4264.230957,4254.615234,4286.025879,4281.922852,4276.666504,4580.641113,4524.230957,4417.179688,4482.94873,,,,,,,,,,,,,,,,,,,,,,,,,,,,,,,,,,,,,,,,,,,,,,,,,,,,,,,,,,,,,,,,,,,,,,
1769163004.97255,1769163004.973113,104.0,0.0,4328.077148,4277.94873,4233.077148,4296.794922,4276.794922,4266.666504,4262.692383,4295.897461,4281.794922,4268.077148,4573.974121,4533.974121,4407.692383,4477.05127,,,,,,,,,,,,,,,,,,,,,,,,,,,,,,,,,,,,,,,,,,,,,,,,,,,,,,,,,,,,,,,,,,,,,,
1769163004.980358,1769163004.980922,105.0,0.0,4319.615234,4276.666504,4236.025879,4295.256348,4276.025879,4268.974121,4265.128418,4290.897461,4277.94873,4262.94873,4570.256348,4539.615234,4400.769043,4473.846191,,,,,,,,,,,,,,,,,,,,,,,,,,,,,,,,,,,,,,,,,,,,,,,,,,,,,,,,,,,,,,,,,,,,,,
1769163004.988167,1769163004.98863,106.0,0.0,4321.410156,4280.641113,4241.153809,4296.538574,4276.922852,4266.153809,4261.538574,4281.025879,4275.256348,4264.615234,4573.461426,4536.282227,4409.487305,4477.692383,,,,,,,,,,,,,,,,,,,,,,,,,,,,,,,,,,,,,,,,,,,,,,,,,,,,,,,,,,,,,,,,,,,,,,
1769163004.995975,1769163004.996439,107.0,0.0,4325.897461,4279.102539,4243.717773,4294.615234,4272.820313,4267.05127,4263.461426,4288.205078,4276.794922,4262.307617,4573.077148,4535.897461,4412.307617,4477.820313,,,,,,,,,,,,,,,,,,,,,,,,,,,,,,,,,,,,,,,,,,,,,,,,,,,,,,,,,,,,,,,,,,,,,,
1769163005.003784,1769163005.004047,108.0,0.0,4324.871582,4279.102539,4245.641113,4293.846191,4274.615234,4275.384766,4263.717773,4292.94873,4277.307617,4262.436035,4571.282227,4536.922852,4405.128418,4474.871582,,,,,,,,,,,,,,,,,,,,,,,,,,,,,,,,,,,,,,,,,,,,,,,,,,,,,,,,,,,,,,,,,,,,,,
1769163005.011592,1769163005.011856,109.0,0.0,4325.384766,4281.666504,4246.794922,4299.871582,4278.461426,4278.589844,4261.922852,4281.153809,4269.615234,4265.897461,4571.025879,4529.102539,4404.615234,4475.0,,,,,,,,,,,,,,,,,,,,,,,,,,,,,,,,,,,,,,,,,,,,,,,,,,,,,,,,,,,,,,,,,,,,,,
1769163005.019401,1769163005.019564,110.0,0.0,4327.05127,4283.974121,4248.974121,4304.358887,4276.922852,4273.333496,4263.589844,4277.307617,4264.743652,4262.307617,4568.461426,4522.563965,4408.077148,4474.358887,0.969153,0.725773,0.240114,0.180332,0.231899,0.666534,0.5728,0.199558,0.151597,0.148911,0.784601,0.534051,0.222547,0.227261,0.11905,0.465742,0.384069,0.133749,0.083138,0.085008,0.062317,0.134564,0.175635,0.05832,0.041399,0.128114,0.116246,0.170518,0.060751,0.09556,0.235029,0.126,0.178688,0.081795,0.069521,0.318153,0.213075,0.362523,0.120807,0.155667,0.514186,0.255885,0.495402,0.178749,0.179157,0.307699,0.217427,0.273479,0.167463,0.110695,0.530911,0.385926,0.216938,0.204782,0.193712,0.853841,0.496699,0.299,0.148724,0.233306,0.527501,0.467411,0.3074,0.20525,0.231504,0.527256,0.383007,0.224168,0.354426,0.247496
1769163005.027209,1769163005.027373,111.0,0.0,4327.820313,4289.230957,4250.128418,4303.717773,4278.461426,4273.974121,4262.436035,4280.897461,4267.436035,4264.230957,4568.077148,4523.333496,4410.128418,4473.717773,,,,,,,,,,,,,,,,,,,,,,,,,,,,,,,,,,,,,,,,,,,,,,,,,,,,,,,,,,,,,,,,,,,,,,
1769163005.035018,1769163005.035381,112.0,0.0,4330.897461,4291.410156,4250.897461,4302.563965,4281.282227,4272.820313,4258.974121,4275.512695,4265.897461,4270.512695,4570.512695,4522.307617,4417.94873,4480.128418,,,,,,,,,,,,,,,,,,,,,,,,,,,,,,,,,,,,,,,,,,,,,,,,,,,,,,,,,,,,,,,,,,,,,,
1769163005.042826,1769163005.043189,113.0,0.0,4336.922852,4289.871582,4256.282227,4305.0,4277.05127,4267.179688,4260.0,4275.512695,4267.179688,4269.102539,4577.307617,4525.897461,4427.307617,4490.384766,,,,,,,,,,,,,,,,,,,,,,,,,,,,,,,,,,,,,,,,,,,,,,,,,,,,,,,,,,,,,,,,,,,,,,
1769163005.050635,1769163005.051098,114.0,0.0,4342.820313,4289.871582,4264.615234,4307.820313,4276.794922,4269.743652,4263.077148,4283.205078,4276.282227,4268.717773,4582.563965,4538.333496,4428.077148,4494.230957,,,,,,,,,,,,,,,,,,,,,,,,,,,,,,,,,,,,,,,,,,,,,,,,,,,,,,,,,,,,,,,,,,,,,,
1769163005.058443,1769163005.058906,115.0,0.0,4341.666504,4289.358887,4265.641113,4302.307617,4278.846191,4270.128418,4261.410156,4282.692383,4279.487305,4271.794922,4577.436035,4541.666504,4421.153809,4490.128418,,,,,,,,,,,,,,,,,,,,,,,,,,,,,,,,,,,,,,,,,,,,,,,,,,,,,,,,,,,,,,,,,,,,,,
1769163005.066251,1769163005.066515,116.0,0.0,4331.153809,4280.0,4257.820313,4293.077148,4270.512695,4267.436035,4260.641113,4281.410156,4276.922852,4265.897461,4570.512695,4527.179688,4410.641113,4478.333496,,,,,,,,,,,,,,,,,,,,,,,,,,,,,,,,,,,,,,,,,,,,,,,,,,,,,,,,,,,,,,,,,,,,,,
1769163005.07406,1769163005.074323,117.0,0.0,4320.769043,4268.717773,4255.0,4288.333496,4263.461426,4274.102539,4263.589844,4281.153809,4273.846191,4260.384766,4570.128418,4519.487305,4404.230957,4468.333496,,,,,,,,,,,,,,,,,,,,,,,,,,,,,,,,,,,,,,,,,,,,,,,,,,,,,,,,,,,,,,,,,,,,,,
1769163005.081868,1769163005.082032,118.0,0.0,4323.461426,4270.512695,4263.461426,4290.384766,4264.487305,4277.307617,4263.461426,4283.077148,4275.128418,4270.384766,4573.333496,4531.538574,4409.615234,4476.410156,,,,,,,,,,,,,,,,,,,,,,,,,,,,,,,,,,,,,,,,,,,,,,,,,,,,,,,,,,,,,,,,,,,,,,
1769163005.089677,1769163005.08984,119.0,0.0,4332.179688,4278.077148,4270.0,4293.333496,4265.384766,4273.717773,4262.820313,4288.846191,4279.871582,4280.256348,4574.871582,4542.563965,4419.358887,4492.820313,,,,,,,,,,,,,,,,,,,,,,,,,,,,,,,,,,,,,,,,,,,,,,,,,,,,,,,,,,,,,,,,,,,,,,
1769163005.097485,1769163005.097848,120.0,0.0,4333.333496,4279.487305,4269.871582,4293.974121,4267.820313,4277.307617,4264.230957,4286.666504,4279.230957,4278.589844,4575.256348,4538.846191,4419.358887,4493.077148,,,,,,,,,,,,,,,,,,,,,,,,,,,,,,,,,,,,,,,,,,,,,,,,,,,,,,,,,,,,,,,,,,,,,,
1769163005.105294,1769163005.105657,121.0,0.0,4330.641113,4281.282227,4274.358887,4296.538574,4275.0,4282.436035,4263.717773,4278.589844,4275.384766,4275.256348,4577.820313,4534.487305,4415.641113,4484.230957,,,,,,,,,,,,,,,,,,,,,,,,,,,,,,,,,,,,,,,,,,,,,,,,,,,,,,,,,,,,,,,,,,,,,,
1769163005.113102,1769163005.113565,122.0,0.0,4331.794922,4287.563965,4280.128418,4301.538574,4278.846191,4280.384766,4262.94873,4279.358887,4276.410156,4274.871582,4580.512695,4538.077148,4419.487305,4487.05127,,,,,,,,,,,,,,,,,,,,,,,,,,,,,,,,,,,,,,,,,,,,,,,,,,,,,,,,,,,,,,,,,,,,,,
1769163005.120911,1769163005.121374,123.0,0.0,4339.615234,4293.077148,4281.025879,4308.333496,4277.820313,4278.461426,4263.333496,4284.230957,4280.0,4277.05127,4582.307617,4540.384766,4425.641113,4495.0,,,,,,,,,,,,,,,,,,,,,,,,,,,,,,,,,,,,,,,,,,,,,,,,,,,,,,,,,,,,,,,,,,,,,,
1769163005.128719,1769163005.129382,124.0,0.0,4344.358887,4294.230957,4283.333496,4311.282227,4274.358887,4277.94873,4262.94873,4281.538574,4278.846191,4277.692383,4579.615234,4538.717773,4425.384766,4492.436035,,,,,,,,,,,,,,,,,,,,,,,,,,,,,,,,,,,,,,,,,,,,,,,,,,,,,,,,,,,,,,,,,,,,,,
1769163005.136527,1769163005.13719,125.0,0.0,4338.974121,4289.230957,4284.230957,4303.974121,4268.205078,4276.538574,4263.333496,4279.102539,4279.743652,4278.974121,4574.102539,4538.717773,4419.743652,4489.743652,,,,,,,,,,,,,,,,,,,,,,,,,,,,,,,,,,,,,,,,,,,,,,,,,,,,,,,,,,,,,,,,,,,,,,
1769163005.144336,1769163005.145099,126.0,0.0,4332.05127,4280.256348,4280.641113,4294.230957,4263.333496,4274.487305,4265.512695,4280.512695,4282.307617,4277.05127,4572.820313,4539.487305,4414.102539,4493.846191,0.932049,0.783289,0.23623,0.201009,0.222407,0.631968,0.509596,0.182754,0.15434,0.162013,0.68425,0.550878,0.238825,0.225105,0.116111,0.488776,0.377641,0.120475,0.083464,0.085991,0.06491,0.116149,0.132966,0.047665,0.035031,0.120626,0.112689,0.148477,0.051833,0.097141,0.18585,0.106787,0.146889,0.0735,0.071371,0.255002,0.186325,0.388148,0.144374,0.170581,0.464494,0.246086,0.528492,0.222529,0.203888,0.28166,0.226959,0.286646,0.194802,0.111062,0.492877,0.397483,0.242695,0.21688,0.173635,0.755699,0.46983,0.387461,0.159977,0.244219,0.498894,0.589402,0.348413,0.208537,0.193893,0.460025,0.463877,0.246596,0.329551,0.209477
1769163005.152144,1769163005.152907,127.0,0.0,4332.05127,4278.717773,4280.897461,4295.256348,4263.589844,4270.897461,4265.256348,4279.487305,4278.333496,4270.384766,4572.563965,4534.871582,4412.436035,4489.102539,,,,,,,,,,,,,,,,,,,,,,,,,,,,,,,,,,,,,,,,,,,,,,,,,,,,,,,,,,,,,,,,,,,,,,
1769163005.159953,1769163005.160915,0.0,0.0,4335.256348,4283.717773,4283.461426,4299.487305,4266.922852,4269.230957,4262.307617,4276.666504,4272.94873,4265.128418,4567.436035,4525.769043,4412.179688,4478.717773,,,,,,,,,,,,,,,,,,,,,,,,,,,,,,,,,,,,,,,,,,,,,,,,,,,,,,,,,,,,,,,,,,,,,,
1769163005.167761,1769163005.168724,1.0,0.0,4327.820313,4281.282227,4280.128418,4295.512695,4266.666504,4273.589844,4261.922852,4276.410156,4274.230957,4264.615234,4565.769043,4522.436035,4410.0,4474.358887,,,,,,,,,,,,,,,,,,,,,,,,,,,,,,,,,,,,,,,,,,,,,,,,,,,,,,,,,,,,,,,,,,,,,,
1769163005.17557,1769163005.176432,2.0,0.0,4320.897461,4276.922852,4275.128418,4291.666504,4264.358887,4277.436035,4263.717773,4279.230957,4278.461426,4269.487305,4571.282227,4524.230957,4410.384766,4474.871582,,,,,,,,,,,,,,,,,,,,,,,,,,,,,,,,,,,,,,,,,,,,,,,,,,,,,,,,,,,,,,,,,,,,,,
1769163005.183378,1769163005.184241,3.0,0.0,4327.692383,4282.692383,4281.410156,4294.230957,4267.820313,4277.179688,4263.461426,4279.358887,4279.615234,4277.179688,4573.205078,4524.358887,4415.256348,4483.205078,,,,,,,,,,,,,,,,,,,,,,,,,,,,,,,,,,,,,,,,,,,,,,,,,,,,,,,,,,,,,,,,,,,,,,
1769163005.191187,1769163005.19185,4.0,0.0,4333.077148,4288.205078,4288.717773,4296.922852,4271.666504,4274.743652,4261.153809,4277.563965,4277.179688,4278.333496,4568.205078,4523.717773,4414.871582,4488.589844,,,,,,,,,,,,,,,,,,,,,,,,,,,,,,,,,,,,,,,,,,,,,,,,,,,,,,,,,,,,,,,,,,,,,,
1769163005.198995,1769163005.199658,5.0,0.0,4326.282227,4283.717773,4284.358887,4296.025879,4268.717773,4270.769043,4262.436035,4278.717773,4275.641113,4274.743652,4565.512695,4524.871582,4411.538574,4481.153809,,,,,,,,,,,,,,,,,,,,,,,,,,,,,,,,,,,,,,,,,,,,,,,,,,,,,,,,,,,,,,,,,,,,,,
1769163005.206803,1769163005.207367,6.0,0.0,4320.0,4278.077148,4281.922852,4294.230957,4265.384766,4268.077148,4264.487305,4280.0,4278.077148,4277.94873,4570.0,4525.769043,4415.512695,4476.282227,,,,,,,,,,,,,,,,,,,,,,,,,,,,,,,,,,,,,,,,,,,,,,,,,,,,,,,,,,,,,,,,,,,,,,
1769163005.214612,1769163005.215175,7.0,0.0,4320.641113,4277.692383,4289.487305,4294.230957,4265.128418,4271.282227,4262.820313,4277.307617,4275.384766,4275.0,4567.05127,4524.102539,4409.615234,4475.769043,,,,,,,,,,,,,,,,,,,,,,,,,,,,,,,,,,,,,,,,,,,,,,,,,,,,,,,,,,,,,,,,,,,,,,
1769163005.22242,1769163005.222784,8.0,0.0,4323.589844,4277.692383,4292.563965,4295.512695,4264.487305,4272.692383,4262.179688,4275.897461,4272.563965,4264.487305,4554.230957,4521.153809,4396.922852,4468.846191,,,,,,,,,,,,,,,,,,,,,,,,,,,,,,,,,,,,,,,,,,,,,,,,,,,,,,,,,,,,,,,,,,,,,,
1769163005.230229,1769163005.230592,9.0,0.0,4327.820313,4279.358887,4291.410156,4295.897461,4264.230957,4271.410156,4263.333496,4280.0,4278.333496,4271.282227,4560.384766,4523.077148,4405.641113,4471.282227,,,,,,,,,,,,,,,,,,,,,,,,,,,,,,,,,,,,,,,,,,,,,,,,,,,,,,,,,,,,,,,,,,,,,,
1769163005.238037,1769163005.2385,10.0,0.0,4328.333496,4282.05127,4291.922852,4294.230957,4265.256348,4275.0,4264.743652,4282.692383,4275.641113,4278.589844,4574.615234,4525.641113,4416.794922,4482.307617,,,,,,,,,,,,,,,,,,,,,,,,,,,,,,,,,,,,,,,,,,,,,,,,,,,,,,,,,,,,,,,,,,,,,,
1769163005.245846,1769163005.246309,11.0,0.0,4326.666504,4278.974121,4294.102539,4294.102539,4263.974121,4273.589844,4264.230957,4277.820313,4261.794922,4266.538574,4563.974121,4523.077148,4407.94873,4480.128418,,,,,,,,,,,,,,,,,,,,,,,,,,,,,,,,,,,,,,,,,,,,,,,,,,,,,,,,,,,,,,,,,,,,,,
1769163005.253654,1769163005.254317,12.0,0.0,4328.589844,4280.128418,4301.794922,4300.0,4263.589844,4265.0,4261.282227,4272.05127,4259.230957,4262.307617,4553.846191,4522.692383,4403.333496,4474.743652,,,,,,,,,,,,,,,,,,,,,,,,,,,,,,,,,,,,,,,,,,,,,,,,,,,,,,,,,,,,,,,,,,,,,,
1769163005.261463,1769163005.262126,13.0,0.0,4327.94873,4288.589844,4309.487305,4307.692383,4265.897461,4264.358887,4259.871582,4274.615234,4266.153809,4271.922852,4565.384766,4526.025879,4411.666504,4475.128418,,,,,,,,,,,,,,,,,,,,,,,,,,,,,,,,,,,,,,,,,,,,,,,,,,,,,,,,,,,,,,,,,,,,,,
1769163005.269271,1769163005.270034,14.0,0.0,4326.282227,4289.743652,4306.025879,4306.153809,4267.563965,4267.820313,4262.307617,4280.897461,4267.563965,4269.871582,4572.179688,4526.025879,4414.230957,4475.512695,0.840089,0.823172,0.225714,0.234579,0.21435,0.565657,0.457618,0.16097,0.161184,0.174597,0.568901,0.530445,0.257469,0.21323,0.114101,0.487171,0.365204,0.115118,0.087692,0.092068,0.081127,0.111313,0.100071,0.045384,0.035228,0.115791,0.126833,0.132767,0.044738,0.101704,0.137076,0.095161,0.115316,0.07337,0.075932,0.225522,0.166593,0.391228,0.182428,0.189981,0.423523,0.259989,0.549365,0.269991,0.21701,0.301623,0.261267,0.294991,0.224662,0.114048,0.49788,0.429984,0.267817,0.232331,0.151499,0.652989,0.463324,0.463488,0.1717,0.241086,0.467009,0.725163,0.386428,0.223259,0.160284,0.396764,0.601577,0.275948,0.302108,0.169938
1769163005.27708,1769163005.277842,15.0,0.0,4326.922852,4281.282227,4297.436035,4298.205078,4267.179688,4266.410156,4263.717773,4282.05127,4266.538574,4265.0,4567.820313,4522.307617,4413.205078,4476.538574,,,,,,,,,,,,,,,,,,,,,,,,,,,,,,,,,,,,,,,,,,,,,,,,,,,,,,,,,,,,,,,,,,,,,,
1769163005.284888,1769163005.285451,16.0,0.0,4321.794922,4276.153809,4295.769043,4295.897461,4265.0,4265.256348,4261.922852,4279.871582,4266.410156,4267.692383,4567.436035,4519.358887,4413.205078,4476.538574,,,,,,,,,,,,,,,,,,,,,,,,,,,,,,,,,,,,,,,,,,,,,,,,,,,,,,,,,,,,,,,,,,,,,,
1769163005.292697,1769163005.293259,17.0,0.0,4317.692383,4278.589844,4304.102539,4297.692383,4263.717773,4265.256348,4262.05127,4279.102539,4265.256348,4265.897461,4568.974121,4522.05127,4412.436035,4475.0,,,,,,,,,,,,,,,,,,,,,,,,,,,,,,,,,,,,,,,,,,,,,,,,,,,,,,,,,,,,,,,,,,,,,,
1769163005.300505,1769163005.301168,18.0,0.0,4322.692383,4279.615234,4312.436035,4296.153809,4261.410156,4263.974121,4262.436035,4278.717773,4265.128418,4261.922852,4567.179688,4526.666504,4412.05127,4477.307617,,,,,,,,,,,,,,,,,,,,,,,,,,,,,,,,,,,,,,,,,,,,,,,,,,,,,,,,,,,,,,,,,,,,,,
1769163005.308313,1769163005.308976,19.0,0.0,4325.769043,4279.230957,4313.077148,4294.102539,4259.102539,4263.077148,4261.410156,4278.974121,4262.436035,4262.436035,4563.974121,4523.846191,4405.128418,4474.615234,,,,,,,,,,,,,,,,,,,,,,,,,,,,,,,,,,,,,,,,,,,,,,,,,,,,,,,,,,,,,,,,,,,,,,
1769163005.316122,1769163005.316984,20.0,0.0,4323.717773,4279.615234,4309.487305,4294.615234,4258.846191,4261.794922,4261.666504,4279.102539,4264.871582,4262.692383,4561.666504,4517.94873,4399.615234,4465.0,,,,,,,,,,,,,,,,,,,,,,,,,,,,,,,,,,,,,,,,,,,,,,,,,,,,,,,,,,,,,,,,,,,,,,
1769163005.32393,1769163005.324793,21.0,0.0,4323.333496,4276.794922,4305.256348,4293.846191,4257.692383,4262.179688,4263.589844,4281.794922,4274.102539,4263.205078,4564.871582,4518.974121,4406.794922,4467.692383,,,,,,,,,,,,,,,,,,,,,,,,,,,,,,,,,,,,,,,,,,,,,,,,,,,,,,,,,,,,,,,,,,,,,,
1769163005.331739,1769163005.332701,22.0,0.0,4325.256348,4277.94873,4306.666504,4294.230957,4259.743652,4263.974121,4263.589844,4281.282227,4272.179688,4265.512695,4568.589844,4523.589844,4413.717773,4477.05127,,,,,,,,,,,,,,,,,,,,,,,,,,,,,,,,,,,,,,,,,,,,,,,,,,,,,,,,,,,,,,,,,,,,,,
1769163005.339547,1769163005.34051,23.0,0.0,4332.820313,4284.743652,4317.820313,4298.333496,4265.641113,4264.743652,4260.897461,4269.615234,4260.128418,4265.256348,4568.717773,4524.743652,4412.820313,4476.538574,,,,,,,,,,,,,,,,,,,,,,,,,,,,,,,,,,,,,,,,,,,,,,,,,,,,,,,,,,,,,,,,,,,,,,
1769163005.347356,1769163005.348118,24.0,0.0,4338.461426,4284.615234,4323.077148,4298.077148,4263.461426,4261.538574,4260.641113,4265.769043,4258.077148,4263.717773,4568.333496,4523.846191,4412.820313,4480.769043,,,,,,,,,,,,,,,,,,,,,,,,,,,,,,,,,,,,,,,,,,,,,,,,,,,,,,,,,,,,,,,,,,,,,,
1769163005.355164,1769163005.355927,25.0,0.0,4331.666504,4278.974121,4318.589844,4294.615234,4257.307617,4258.333496,4262.307617,4276.922852,4265.897461,4264.358887,4567.94873,4523.846191,4414.230957,4491.282227,,,,,,,,,,,,,,,,,,,,,,,,,,,,,,,,,,,,,,,,,,,,,,,,,,,,,,,,,,,,,,,,,,,,,,
1769163005.362973,1769163005.363635,26.0,0.0,4328.974121,4279.871582,4320.512695,4294.358887,4261.666504,4259.743652,4262.692383,4279.487305,4266.025879,4265.128418,4568.077148,4526.282227,4412.563965,4486.794922,,,,,,,,,,,,,,,,,,,,,,,,,,,,,,,,,,,,,,,,,,,,,,,,,,,,,,,,,,,,,,,,,,,,,,
1769163005.370781,1769163005.371444,27.0,0.0,4333.846191,4281.666504,4327.692383,4296.153809,4262.179688,4264.358887,4263.974121,4278.205078,4262.820313,4264.743652,4570.641113,4529.102539,4411.666504,4475.641113,,,,,,,,,,,,,,,,,,,,,,,,,,,,,,,,,,,,,,,,,,,,,,,,,,,,,,,,,,,,,,,,,,,,,,
1769163005.37859,1769163005.379352,28.0,0.0,4329.615234,4277.563965,4325.384766,4294.358887,4252.820313,4265.256348,4265.512695,4280.897461,4262.94873,4263.077148,4566.153809,4525.512695,4410.769043,4475.256348,,,,,,,,,,,,,,,,,,,,,,,,,,,,,,,,,,,,,,,,,,,,,,,,,,,,,,,,,,,,,,,,,,,,,,
1769163005.386398,1769163005.387161,29.0,0.0,4322.692383,4274.230957,4318.333496,4290.128418,4247.94873,4261.538574,4262.820313,4272.692383,4261.025879,4261.025879,4557.307617,4518.974121,4409.743652,4476.282227,,,,,,,,,,,,,,,,,,,,,,,,,,,,,,,,,,,,,,,,,,,,,,,,,,,,,,,,,,,,,,,,,,,,,,
1769163005.394206,1769163005.394869,30.0,0.0,4323.717773,4273.589844,4318.077148,4288.717773,4250.0,4261.538574,4261.410156,4267.307617,4261.410156,4262.563965,4560.769043,4521.025879,4411.282227,4473.333496,0.73133,0.844839,0.213891,0.280392,0.212576,0.492546,0.438842,0.153539,0.168095,0.184849,0.444472,0.481696,0.271365,0.197103,0.114994,0.450965,0.35324,0.125637,0.093398,0.106003,0.106397,0.123866,0.090526,0.049583,0.041409,0.11562,0.166342,0.121835,0.042512,0.110788,0.096413,0.091783,0.089211,0.08114,0.08317,0.223375,0.175857,0.375739,0.229483,0.209605,0.407867,0.315712,0.5699,0.312528,0.214893,0.369809,0.316039,0.304077,0.253049,0.121953,0.547511,0.490907,0.288729,0.246266,0.133463,0.565903,0.494144,0.504665,0.18366,0.228369,0.432062,0.857565,0.414937,0.244186,0.136507,0.347963,0.788676,0.303995,0.294789,0.139019
1769163005.402015,1769163005.402678,31.0,0.0,4326.410156,4274.358887,4322.692383,4291.538574,4254.871582,4264.487305,4264.743652,4280.897461,4264.358887,4266.538574,4573.717773,4527.179688,4413.461426,4474.871582,,,,,,,,,,,,,,,,,,,,,,,,,,,,,,,,,,,,,,,,,,,,,,,,,,,,,,,,,,,,,,,,,,,,,,
1769163005.409823,1769163005.410286,32.0,0.0,4326.538574,4277.179688,4324.358887,4293.333496,4259.743652,4263.717773,4264.358887,4280.897461,4265.512695,4267.05127,4572.563965,4527.307617,4413.846191,4479.102539,,,,,,,,,,,,,,,,,,,,,,,,,,,,,,,,,,,,,,,,,,,,,,,,,,,,,,,,,,,,,,,,,,,,,,
1769163005.417632,1769163005.418095,33.0,0.0,4323.974121,4282.436035,4321.153809,4293.717773,4261.153809,4259.358887,4260.769043,4265.641113,4261.922852,4262.692383,4559.102539,4520.897461,4409.871582,4475.897461,,,,,,,,,,,,,,,,,,,,,,,,,,,,,,,,,,,,,,,,,,,,,,,,,,,,,,,,,,,,,,,,,,,,,,
1769163005.42544,1769163005.425803,34.0,0.0,4326.538574,4290.641113,4321.153809,4296.538574,4262.436035,4257.563965,4260.384766,4269.102539,4261.922852,4261.025879,4558.846191,4519.743652,4408.333496,4475.0,,,,,,,,,,,,,,,,,,,,,,,,,,,,,,,,,,,,,,,,,,,,,,,,,,,,,,,,,,,,,,,,,,,,,,
1769163005.433249,1769163005.433612,35.0,0.0,4336.282227,4295.769043,4325.384766,4297.05127,4265.128418,4258.974121,4262.05127,4279.743652,4266.538574,4263.589844,4571.025879,4528.589844,4418.589844,4486.666504,,,,,,,,,,,,,,,,,,,,,,,,,,,,,,,,,,,,,,,,,,,,,,,,,,,,,,,,,,,,,,,,,,,,,,
1769163005.441057,1769163005.44162,36.0,0.0,4338.205078,4293.461426,4326.153809,4297.436035,4263.589844,4260.897461,4262.563965,4279.102539,4267.307617,4263.846191,4573.717773,4536.282227,4423.717773,4494.615234,,,,,,,,,,,,,,,,,,,,,,,,,,,,,,,,,,,,,,,,,,,,,,,,,,,,,,,,,,,,,,,,,,,,,,
1769163005.448866,1769163005.449428,37.0,0.0,4335.512695,4292.692383,4326.538574,4305.128418,4263.205078,4263.333496,4262.179688,4276.538574,4263.717773,4264.487305,4568.974121,4538.333496,4420.128418,4493.717773,,,,,,,,,,,,,,,,,,,,,,,,,,,,,,,,,,,,,,,,,,,,,,,,,,,,,,,,,,,,,,,,,,,,,,
1769163005.456674,1769163005.457337,38.0,0.0,4333.846191,4291.282227,4329.102539,4304.871582,4262.307617,4264.615234,4262.563965,4278.717773,4264.230957,4267.05127,4573.589844,4538.205078,4418.077148,4490.512695,,,,,,,,,,,,,,,,,,,,,,,,,,,,,,,,,,,,,,,,,,,,,,,,,,,,,,,,,,,,,,,,,,,,,,
1769163005.464482,1769163005.465145,39.0,0.0,4326.666504,4285.384766,4325.769043,4292.692383,4255.512695,4266.153809,4264.358887,4282.307617,4267.692383,4263.974121,4570.641113,4532.05127,4411.538574,4481.025879,,,,,,,,,,,,,,,,,,,,,,,,,,,,,,,,,,,,,,,,,,,,,,,,,,,,,,,,,,,,,,,,,,,,,,
1769163005.472291,1769163005.473153,40.0,0.0,4329.102539,4288.589844,4317.94873,4294.743652,4256.666504,4266.025879,4261.538574,4276.153809,4261.666504,4258.974121,4556.410156,4522.563965,4405.256348,4472.307617,,,,,,,,,,,,,,,,,,,,,,,,,,,,,,,,,,,,,,,,,,,,,,,,,,,,,,,,,,,,,,,,,,,,,,
1769163005.480099,1769163005.480962,41.0,0.0,4338.461426,4295.512695,4313.589844,4305.256348,4262.692383,4264.102539,4258.974121,4265.897461,4254.230957,4261.282227,4561.410156,4522.563965,4410.897461,4476.538574,,,,,,,,,,,,,,,,,,,,,,,,,,,,,,,,,,,,,,,,,,,,,,,,,,,,,,,,,,,,,,,,,,,,,,
1769163005.487908,1769163005.48867,42.0,0.0,4333.974121,4290.512695,4311.666504,4300.128418,4261.922852,4265.512695,4264.487305,4262.436035,4255.512695,4262.436035,4571.794922,4524.230957,4414.487305,4477.94873,,,,,,,,,,,,,,,,,,,,,,,,,,,,,,,,,,,,,,,,,,,,,,,,,,,,,,,,,,,,,,,,,,,,,,
1769163005.495716,1769163005.496479,43.0,0.0,4325.256348,4287.692383,4308.589844,4293.461426,4262.05127,4267.820313,4266.794922,4269.230957,4261.666504,4264.358887,4571.410156,4521.794922,4412.563965,4472.307617,,,,,,,,,,,,,,,,,,,,,,,,,,,,,,,,,,,,,,,,,,,,,,,,,,,,,,,,,,,,,,,,,,,,,,
1769163005.503525,1769163005.504487,44.0,0.0,4326.794922,4295.769043,4310.0,4299.871582,4266.922852,4265.897461,4262.05127,4278.461426,4269.615234,4275.384766,4574.487305,4529.871582,4416.282227,4478.589844,,,,,,,,,,,,,,,,,,,,,,,,,,,,,,,,,,,,,,,,,,,,,,,,,,,,,,,,,,,,,,,,,,,,,,
1769163005.511333,1769163005.512296,45.0,0.0,4332.436035,4298.077148,4315.769043,4306.794922,4265.897461,4264.102539,4262.692383,4286.153809,4276.922852,4281.922852,4581.794922,4539.871582,4417.692383,4489.871582,,,,,,,,,,,,,,,,,,,,,,,,,,,,,,,,,,,,,,,,,,,,,,,,,,,,,,,,,,,,,,,,,,,,,,
