title:remote_7, start timestamp:1768202920.994467, stop timestamp:1768202951.728432, headset type:EPOCX, headset serial:E5020E3B, headset firmware:730, channels:156, sampling rate:eeg_128;pm_0.1;pow_8, samples:3937      , version:2.2, 
Timestamp,OriginalTimestamp,EEG.Counter,EEG.Interpolated,EEG.AF3,EEG.F7,EEG.F3,EEG.FC5,EEG.T7,EEG.P7,EEG.O1,EEG.O2,EEG.P8,EEG.T8,EEG.FC6,EEG.F4,EEG.F8,EEG.AF4,EEG.RawCq,EEG.Battery,EEG.BatteryPercent,MarkerIndex,MarkerType,MarkerValueInt,EEG.MarkerHardware,CQ.AF3,CQ.F7,CQ.F3,CQ.FC5,CQ.T7,CQ.P7,CQ.O1,CQ.O2,CQ.P8,CQ.T8,CQ.FC6,CQ.F4,CQ.F8,CQ.AF4,CQ.Overall,EQ.SampleRateQuality,EQ.OVERALL,EQ.AF3,EQ.F7,EQ.F3,EQ.FC5,EQ.T7,EQ.P7,EQ.O1,EQ.O2,EQ.P8,EQ.T8,EQ.FC6,EQ.F4,EQ.F8,EQ.AF4,PM.Attention.IsActive,PM.Attention.Scaled,PM.Attention.Raw,PM.Attention.Min,PM.Attention.Max,PM.Engagement.IsActive,PM.Engagement.Scaled,PM.Engagement.Raw,PM.Engagement.Min,PM.Engagement.Max,PM.Excitement.IsActive,PM.Excitement.Scaled,PM.Excitement.Raw,PM.Excitement.Min,PM.Excitement.Max,PM.LongTermExcitement,PM.Stress.IsActive,PM.Stress.Scaled,PM.Stress.Raw,PM.Stress.Min,PM.Stress.Max,PM.Relaxation.IsActive,PM.Relaxation.Scaled,PM.Relaxation.Raw,PM.Relaxation.Min,PM.Relaxation.Max,PM.Interest.IsActive,PM.Interest.Scaled,PM.Interest.Raw,PM.Interest.Min,PM.Interest.Max,POW.AF3.Theta,POW.AF3.Alpha,POW.AF3.BetaL,POW.AF3.BetaH,POW.AF3.Gamma,POW.F7.Theta,POW.F7.Alpha,POW.F7.BetaL,POW.F7.BetaH,POW.F7.Gamma,POW.F3.Theta,POW.F3.Alpha,POW.F3.BetaL,POW.F3.BetaH,POW.F3.Gamma,POW.FC5.Theta,POW.FC5.Alpha,POW.FC5.BetaL,POW.FC5.BetaH,POW.FC5.Gamma,POW.T7.Theta,POW.T7.Alpha,POW.T7.BetaL,POW.T7.BetaH,POW.T7.Gamma,POW.P7.Theta,POW.P7.Alpha,POW.P7.BetaL,POW.P7.BetaH,POW.P7.Gamma,POW.O1.Theta,POW.O1.Alpha,POW.O1.BetaL,POW.O1.BetaH,POW.O1.Gamma,POW.O2.Theta,POW.O2.Alpha,POW.O2.BetaL,POW.O2.BetaH,POW.O2.Gamma,POW.P8.Theta,POW.P8.Alpha,POW.P8.BetaL,POW.P8.BetaH,POW.P8.Gamma,POW.T8.Theta,POW.T8.Alpha,POW.T8.BetaL,POW.T8.BetaH,POW.T8.Gamma,POW.FC6.Theta,POW.FC6.Alpha,POW.FC6.BetaL,POW.FC6.BetaH,POW.FC6.Gamma,POW.F4.Theta,POW.F4.Alpha,POW.F4.BetaL,POW.F4.BetaH,POW.F4.Gamma,POW.F8.Theta,POW.F8.Alpha,POW.F8.BetaL,POW.F8.BetaH,POW.F8.Gamma,POW.AF4.Theta,POW.AF4.Alpha,POW.AF4.BetaL,POW.AF4.BetaH,POW.AF4.Gamma
1768202920.994467,1768202920.995635,21.000000,0.000000,4353.333496,4354.102539,4321.410156,4360.000000,4355.641113,4368.205078,4355.641113,4363.461426,4360.256348,4341.922852,4491.410156,4508.974121,4397.948730,4437.436035,0.000000,3.000000,58.000000,,,,0.000000,4.000000,4.000000,2.000000,4.000000,4.000000,2.000000,4.000000,4.000000,4.000000,4.000000,4.000000,4.000000,4.000000,4.000000,66.666664,,,,,,,,,,,,,,,,,,,,,,,,,,,,,,,,,,,,,,,,,,,,,,,,,,,,,,,,,,,,,,,,,,,,,,,,,,,,,,,,,,,,,,,,,,,,,,,,,,,,,,,,,,,,,,,,,,,,,
1768202921.002275,1768202921.003543,22.000000,0.000000,4345.641113,4350.512695,4319.871582,4357.692383,4355.769043,4371.922852,4356.538574,4358.974121,4353.077148,4335.641113,4480.641113,4507.820313,4397.436035,4428.974121,0.000000,3.000000,58.000000,,,,0.000000,4.000000,4.000000,2.000000,4.000000,4.000000,2.000000,4.000000,4.000000,4.000000,4.000000,4.000000,4.000000,4.000000,4.000000,66.666664,,,,,,,,,,,,,,,,,,,,,,,,,,,,,,,,,,,,,,,,,,,,,,,,,,,,,,,,,,,,,,,,,,,,,,,,,,,,,,,,,,,,,,,,,,,,,,,,,,,,,,,,,,,,,,,,,,,,,
1768202921.010083,1768202921.011351,23.000000,0.000000,4342.051270,4355.128418,4320.512695,4358.333496,4355.769043,4369.871582,4351.282227,4347.820313,4344.487305,4330.512695,4473.461426,4508.846191,4396.282227,4430.512695,0.000000,3.000000,58.000000,,,,0.000000,4.000000,4.000000,2.000000,4.000000,4.000000,2.000000,4.000000,4.000000,4.000000,4.000000,4.000000,4.000000,4.000000,4.000000,66.666664,,,,,,,,,,,,,,,,,,,,,,,,,,,,,,,,,,,,,,,,,,,,,,,,,,,,,,,,,,,,,,,,,,,,,,,,,,,,,,,,,,,,,,,,,,,,,,,,,,,,,,,,,,,,,,,,,,,,,
1768202921.017892,1768202921.019360,24.000000,0.000000,4350.897461,4361.410156,4323.205078,4363.974121,4357.692383,4366.922852,4350.000000,4354.487305,4349.358887,4334.230957,4479.358887,4507.563965,4394.615234,4438.333496,0.000000,3.000000,58.000000,,,,0.000000,4.000000,4.000000,2.000000,4.000000,4.000000,2.000000,4.000000,4.000000,4.000000,4.000000,4.000000,4.000000,4.000000,4.000000,66.666664,,,,,,,,,,,,,,,,,,,,,,,,,,,,,,,,,,,,,,,,,,,,,,,,,,,,,,,,,,,,,,,,,,,,,,,,,,,,,,,,,,,,,,,,,,,,,,,,,,,,,,,,,,,,,,,,,,,,,
1768202921.025700,1768202921.027168,25.000000,0.000000,4353.077148,4351.666504,4324.102539,4363.717773,4355.641113,4369.358887,4354.487305,4362.563965,4352.563965,4336.538574,4482.051270,4507.563965,4395.897461,4434.358887,0.000000,3.000000,58.000000,,,,0.000000,4.000000,4.000000,2.000000,4.000000,4.000000,2.000000,4.000000,4.000000,4.000000,4.000000,4.000000,4.000000,4.000000,4.000000,66.666664,,,,,,,,,,,,,,,,,,,,,,,,,,,,,,,,,,,,,,,,,,,,,,,,,,,,,,,,,,,,,,,,,,,,,,,,,,,,,,,,,,,,,,,,,,,,,,,,,,,,,,,,,,,,,,,,,,,,,
1768202921.033509,1768202921.035076,26.000000,0.000000,4342.948730,4341.025879,4322.692383,4355.000000,4349.358887,4370.897461,4349.358887,4350.769043,4343.461426,4330.641113,4476.153809,4507.563965,4394.230957,4425.769043,0.000000,3.000000,58.000000,,,,0.000000,4.000000,4.000000,2.000000,4.000000,4.000000,2.000000,4.000000,4.000000,4.000000,4.000000,4.000000,4.000000,4.000000,4.000000,66.666664,,,,,,,,,,,,,,,,,,,,,,,,,,,,,,,,,,,,,,,,,,,,,,,,,,,,,,,,,,,,,,,,,,,,,,,,,,,,,,,,,,,,,,,,,,,,,,,,,,,,,,,,,,,,,,,,,,,,,
1768202921.041317,1768202921.042885,27.000000,0.000000,4340.769043,4347.179688,4320.256348,4353.205078,4348.974121,4368.846191,4340.641113,4344.871582,4339.615234,4325.384766,4474.487305,4506.666504,4392.820313,4427.179688,0.000000,3.000000,58.000000,,,,0.000000,4.000000,4.000000,2.000000,4.000000,4.000000,2.000000,4.000000,4.000000,4.000000,4.000000,4.000000,4.000000,4.000000,4.000000,66.666664,,,,,,,,,,,,,,,,,,,,,,,,,,,,,,,,,,,,,,,,,,,,,,,,,,,,,,,,,,,,,,,,,,,,,,,,,,,,,,,,,,,,,,,,,,,,,,,,,,,,,,,,,,,,,,,,,,,,,
1768202921.049126,1768202921.050893,28.000000,0.000000,4347.051270,4351.410156,4319.871582,4358.717773,4354.487305,4367.563965,4343.717773,4351.794922,4344.871582,4327.820313,4476.153809,4506.666504,4394.358887,4430.769043,0.000000,3.000000,58.000000,,,,0.000000,4.000000,4.000000,2.000000,4.000000,4.000000,2.000000,4.000000,4.000000,4.000000,4.000000,4.000000,4.000000,4.000000,4.000000,66.666664,,,,,,,,,,,,,,,,,,,,,,,,,,,,,,,,,,,,,,,,,,,,,,,,,,,,,,,,,,,,,,,,,,,,,,,,,,,,,,,,,,,,,,,,,,,,,,,,,,,,,,,,,,,,,,,,,,,,,
1768202921.056934,1768202921.058702,29.000000,0.000000,4342.307617,4343.589844,4320.769043,4356.794922,4354.230957,4368.846191,4346.025879,4347.820313,4340.128418,4329.358887,4473.205078,4505.769043,4389.743652,4427.307617,0.000000,3.000000,58.000000,,,,0.000000,4.000000,4.000000,2.000000,4.000000,4.000000,2.000000,4.000000,4.000000,4.000000,4.000000,4.000000,4.000000,4.000000,4.000000,66.666664,,,,,,,,,,,,,,,,,,,,,,,,,,,,,,,,,,,,,,,,,,,,,,,,,,,,,,,,,,,,,,,,,,,,,,,,,,,,,,,,,,,,,,,,,,,,,,,,,,,,,,,,,,,,,,,,,,,,,
1768202921.064742,1768202921.066410,30.000000,0.000000,4339.615234,4340.769043,4318.461426,4350.897461,4347.948730,4370.128418,4340.128418,4337.820313,4331.666504,4326.153809,4471.153809,4506.538574,4385.641113,4425.512695,0.000000,3.000000,58.000000,,,,0.000000,4.000000,4.000000,2.000000,4.000000,4.000000,2.000000,4.000000,4.000000,4.000000,4.000000,4.000000,4.000000,4.000000,4.000000,66.666664,,,,,,,,,,,,,,,,,,,,,,,,,,,,,,,,,,,,,,,,,,,,,,,,4.442580,0.512790,0.184633,0.346382,0.211254,1.146924,0.206305,0.296376,0.173194,0.124588,0.104187,0.100621,0.043724,0.041616,0.063970,0.376199,0.111839,0.091594,0.129333,0.082206,0.445282,0.072846,0.070056,0.069915,0.063254,0.025211,0.025959,0.020023,0.025583,0.037153,0.212270,0.226818,0.159952,0.133101,0.082373,0.341082,0.234111,0.145155,0.133641,0.146321,0.393173,0.217978,0.150697,0.152639,0.105641,0.250415,0.153050,0.241134,0.202170,0.105229,1.289074,0.364999,0.313823,0.356592,0.178853,1.127486,0.471825,0.292404,0.222485,0.161680,1.809153,0.460337,0.579862,0.533218,0.276292,4.165447,0.905521,0.834617,0.495110,0.332246
1768202921.072551,1768202921.074219,31.000000,0.000000,4347.307617,4344.358887,4316.922852,4352.948730,4345.256348,4368.974121,4339.230957,4341.025879,4335.128418,4327.307617,4476.538574,4508.589844,4392.820313,4430.128418,0.000000,3.000000,58.000000,,,,0.000000,4.000000,4.000000,2.000000,4.000000,4.000000,2.000000,4.000000,4.000000,4.000000,4.000000,4.000000,4.000000,4.000000,4.000000,66.666664,,,,,,,,,,,,,,,,,,,,,,,,,,,,,,,,,,,,,,,,,,,,,,,,,,,,,,,,,,,,,,,,,,,,,,,,,,,,,,,,,,,,,,,,,,,,,,,,,,,,,,,,,,,,,,,,,,,,,
1768202921.080359,1768202921.081827,32.000000,0.000000,4347.179688,4342.436035,4319.615234,4356.666504,4347.051270,4367.948730,4342.307617,4352.436035,4343.974121,4335.128418,4483.077148,4510.128418,4399.487305,4433.717773,0.000000,3.000000,58.000000,,,,0.000000,4.000000,4.000000,2.000000,4.000000,4.000000,2.000000,4.000000,4.000000,4.000000,4.000000,4.000000,4.000000,4.000000,4.000000,66.666664,,,,,,,,,,,,,,,,,,,,,,,,,,,,,,,,,,,,,,,,,,,,,,,,,,,,,,,,,,,,,,,,,,,,,,,,,,,,,,,,,,,,,,,,,,,,,,,,,,,,,,,,,,,,,,,,,,,,,
1768202921.088168,1768202921.089636,33.000000,0.000000,4345.384766,4340.641113,4323.077148,4356.153809,4349.743652,4368.589844,4342.436035,4354.358887,4344.615234,4338.589844,4481.794922,4507.692383,4397.820313,4432.692383,0.000000,3.000000,58.000000,,,,0.000000,4.000000,4.000000,2.000000,4.000000,4.000000,2.000000,4.000000,4.000000,4.000000,4.000000,4.000000,4.000000,4.000000,4.000000,66.666664,,,,,,,,,,,,,,,,,,,,,,,,,,,,,,,,,,,,,,,,,,,,,,,,,,,,,,,,,,,,,,,,,,,,,,,,,,,,,,,,,,,,,,,,,,,,,,,,,,,,,,,,,,,,,,,,,,,,,
1768202921.095976,1768202921.097344,34.000000,0.000000,4352.179688,4345.000000,4325.384766,4361.538574,4351.666504,4369.615234,4342.307617,4344.358887,4340.512695,4336.922852,4480.128418,4508.846191,4396.922852,4433.846191,0.000000,3.000000,58.000000,,,,0.000000,4.000000,4.000000,2.000000,4.000000,4.000000,2.000000,4.000000,4.000000,4.000000,4.000000,4.000000,4.000000,4.000000,4.000000,66.666664,,,,,,,,,,,,,,,,,,,,,,,,,,,,,,,,,,,,,,,,,,,,,,,,,,,,,,,,,,,,,,,,,,,,,,,,,,,,,,,,,,,,,,,,,,,,,,,,,,,,,,,,,,,,,,,,,,,,,
1768202921.103784,1768202921.105153,35.000000,0.000000,4358.333496,4349.615234,4326.153809,4366.922852,4352.820313,4369.102539,4341.153809,4343.461426,4341.794922,4339.487305,4487.436035,4516.794922,4397.820313,4441.794922,0.000000,3.000000,58.000000,,,,0.000000,4.000000,4.000000,2.000000,4.000000,4.000000,2.000000,4.000000,4.000000,4.000000,4.000000,4.000000,4.000000,4.000000,4.000000,66.666664,,,,,,,,,,,,,,,,,,,,,,,,,,,,,,,,,,,,,,,,,,,,,,,,,,,,,,,,,,,,,,,,,,,,,,,,,,,,,,,,,,,,,,,,,,,,,,,,,,,,,,,,,,,,,,,,,,,,,
1768202921.111593,1768202921.112761,36.000000,0.000000,4356.025879,4351.666504,4322.820313,4361.922852,4352.692383,4369.230957,4340.769043,4350.897461,4344.358887,4341.282227,4490.512695,4516.666504,4397.307617,4445.000000,0.000000,3.000000,58.000000,,,,0.000000,4.000000,4.000000,2.000000,4.000000,4.000000,2.000000,4.000000,4.000000,4.000000,4.000000,4.000000,4.000000,4.000000,4.000000,66.666664,,,,,,,,,,,,,,,,,,,,,,,,,,,,,,,,,,,,,,,,,,,,,,,,,,,,,,,,,,,,,,,,,,,,,,,,,,,,,,,,,,,,,,,,,,,,,,,,,,,,,,,,,,,,,,,,,,,,,
1768202921.119401,1768202921.120570,37.000000,0.000000,4353.717773,4352.179688,4318.717773,4359.102539,4355.128418,4371.153809,4345.000000,4347.563965,4342.179688,4334.230957,4480.256348,4506.922852,4395.000000,4437.179688,0.000000,3.000000,58.000000,,,,0.000000,4.000000,4.000000,2.000000,4.000000,4.000000,2.000000,4.000000,4.000000,4.000000,4.000000,4.000000,4.000000,4.000000,4.000000,66.666664,,,,,,,,,,,,,,,,,,,,,,,,,,,,,,,,,,,,,,,,,,,,,,,,,,,,,,,,,,,,,,,,,,,,,,,,,,,,,,,,,,,,,,,,,,,,,,,,,,,,,,,,,,,,,,,,,,,,,
1768202921.127210,1768202921.128278,38.000000,0.000000,4352.563965,4351.153809,4320.641113,4361.538574,4353.717773,4372.307617,4350.128418,4341.794922,4337.563965,4325.000000,4471.666504,4504.230957,4390.384766,4428.461426,0.000000,3.000000,58.000000,,,,0.000000,4.000000,4.000000,2.000000,4.000000,4.000000,2.000000,4.000000,4.000000,4.000000,4.000000,4.000000,4.000000,4.000000,4.000000,66.666664,,,,,,,,,,,,,,,,,,,,,,,,,,,,,,,,,,,,,,,,,,,,,,,,,,,,,,,,,,,,,,,,,,,,,,,,,,,,,,,,,,,,,,,,,,,,,,,,,,,,,,,,,,,,,,,,,,,,,
1768202921.135018,1768202921.136087,39.000000,0.000000,4349.487305,4345.512695,4322.692383,4356.282227,4345.128418,4372.436035,4351.282227,4347.948730,4337.563965,4325.897461,4475.256348,4508.846191,4386.538574,4430.897461,0.000000,3.000000,58.000000,,,,0.000000,4.000000,4.000000,2.000000,4.000000,4.000000,2.000000,4.000000,4.000000,4.000000,4.000000,4.000000,4.000000,4.000000,4.000000,66.666664,,,,,,,,,,,,,,,,,,,,,,,,,,,,,,,,,,,,,,,,,,,,,,,,,,,,,,,,,,,,,,,,,,,,,,,,,,,,,,,,,,,,,,,,,,,,,,,,,,,,,,,,,,,,,,,,,,,,,
1768202921.142827,1768202921.144095,40.000000,0.000000,4351.666504,4341.282227,4320.384766,4353.974121,4345.641113,4371.282227,4349.871582,4351.666504,4342.179688,4332.948730,4479.487305,4506.666504,4390.641113,4436.922852,0.000000,3.000000,58.000000,,,,0.000000,4.000000,4.000000,2.000000,4.000000,4.000000,2.000000,4.000000,4.000000,4.000000,4.000000,4.000000,4.000000,4.000000,4.000000,66.666664,,,,,,,,,,,,,,,,,,,,,,,,,,,,,,,,,,,,,,,,,,,,,,,,,,,,,,,,,,,,,,,,,,,,,,,,,,,,,,,,,,,,,,,,,,,,,,,,,,,,,,,,,,,,,,,,,,,,,
1768202921.150635,1768202921.151903,41.000000,0.000000,4356.922852,4346.666504,4320.256348,4359.102539,4354.871582,4369.743652,4351.538574,4346.794922,4344.358887,4335.128418,4478.717773,4507.692383,4395.769043,4438.461426,0.000000,3.000000,58.000000,,,,0.000000,4.000000,4.000000,2.000000,4.000000,4.000000,2.000000,4.000000,4.000000,4.000000,4.000000,4.000000,4.000000,4.000000,4.000000,66.666664,,,,,,,,,,,,,,,,,,,,,,,,,,,,,,,,,,,,,,,,,,,,,,,,,,,,,,,,,,,,,,,,,,,,,,,,,,,,,,,,,,,,,,,,,,,,,,,,,,,,,,,,,,,,,,,,,,,,,
1768202921.158444,1768202921.159812,42.000000,0.000000,4355.128418,4352.948730,4322.692383,4359.230957,4355.769043,4371.282227,4354.102539,4346.153809,4343.205078,4336.410156,4481.922852,4514.487305,4395.128418,4439.615234,0.000000,3.000000,58.000000,,,,0.000000,4.000000,4.000000,2.000000,4.000000,4.000000,2.000000,4.000000,4.000000,4.000000,4.000000,4.000000,4.000000,4.000000,4.000000,66.666664,,,,,,,,,,,,,,,,,,,,,,,,,,,,,,,,,,,,,,,,,,,,,,,,,,,,,,,,,,,,,,,,,,,,,,,,,,,,,,,,,,,,,,,,,,,,,,,,,,,,,,,,,,,,,,,,,,,,,
1768202921.166252,1768202921.167620,43.000000,0.000000,4349.615234,4349.358887,4321.410156,4357.436035,4350.641113,4371.282227,4351.666504,4351.666504,4343.589844,4340.000000,4490.128418,4513.589844,4395.897461,4443.205078,0.000000,3.000000,58.000000,,,,0.000000,4.000000,4.000000,2.000000,4.000000,4.000000,2.000000,4.000000,4.000000,4.000000,4.000000,4.000000,4.000000,4.000000,4.000000,66.666664,,,,,,,,,,,,,,,,,,,,,,,,,,,,,,,,,,,,,,,,,,,,,,,,,,,,,,,,,,,,,,,,,,,,,,,,,,,,,,,,,,,,,,,,,,,,,,,,,,,,,,,,,,,,,,,,,,,,,
1768202921.174060,1768202921.175229,44.000000,0.000000,4354.615234,4345.384766,4319.615234,4358.333496,4352.307617,4368.589844,4349.487305,4355.256348,4345.512695,4339.102539,4489.230957,4508.974121,4398.589844,4443.717773,0.000000,3.000000,58.000000,,,,0.000000,4.000000,4.000000,2.000000,4.000000,4.000000,2.000000,4.000000,4.000000,4.000000,4.000000,4.000000,4.000000,4.000000,4.000000,66.666664,,,,,,,,,,,,,,,,,,,,,,,,,,,,,,,,,,,,,,,,,,,,,,,,,,,,,,,,,,,,,,,,,,,,,,,,,,,,,,,,,,,,,,,,,,,,,,,,,,,,,,,,,,,,,,,,,,,,,
1768202921.181869,1768202921.183037,45.000000,0.000000,4360.897461,4349.102539,4320.641113,4357.692383,4354.615234,4369.102539,4349.102539,4349.358887,4343.974121,4335.256348,4482.307617,4508.717773,4398.205078,4442.692383,0.000000,3.000000,58.000000,,,,0.000000,4.000000,4.000000,2.000000,4.000000,4.000000,2.000000,4.000000,4.000000,4.000000,4.000000,4.000000,4.000000,4.000000,4.000000,66.666664,,,,,,,,,,,,,,,,,,,,,,,,,,,,,,,,,,,,,,,,,,,,,,,,,,,,,,,,,,,,,,,,,,,,,,,,,,,,,,,,,,,,,,,,,,,,,,,,,,,,,,,,,,,,,,,,,,,,,
1768202921.189677,1768202921.190746,46.000000,0.000000,4360.256348,4352.307617,4322.820313,4358.846191,4351.410156,4372.179688,4344.487305,4339.230957,4339.871582,4334.871582,4480.256348,4509.358887,4396.538574,4443.717773,0.000000,3.000000,58.000000,,,,0.000000,4.000000,4.000000,2.000000,4.000000,4.000000,2.000000,4.000000,4.000000,4.000000,4.000000,4.000000,4.000000,4.000000,4.000000,66.666664,,,,,,,,,,,,,,,,,,,,,,,,,,,,,,,,,,,,,,,,,,,,,,,,5.214999,0.446054,0.159339,0.312675,0.188888,1.286229,0.157251,0.352833,0.194392,0.114776,0.065852,0.088028,0.054156,0.045395,0.063400,0.407436,0.098084,0.075406,0.140100,0.081141,0.371011,0.075677,0.071803,0.081943,0.061868,0.019981,0.025199,0.016820,0.027320,0.033361,0.185246,0.221750,0.160046,0.155975,0.089225,0.315974,0.210946,0.151700,0.116379,0.167586,0.348454,0.232518,0.148696,0.149821,0.121167,0.212975,0.169425,0.233574,0.182006,0.109599,1.222207,0.318827,0.284388,0.303151,0.178727,1.174245,0.407081,0.330761,0.197641,0.152125,1.764514,0.329626,0.424742,0.385593,0.234772,4.735633,0.707400,0.639181,0.410434,0.272272
1768202921.197486,1768202921.198554,47.000000,0.000000,4360.897461,4351.025879,4322.051270,4364.871582,4349.743652,4371.794922,4340.384766,4338.589844,4336.282227,4334.102539,4478.461426,4506.153809,4394.871582,4441.666504,0.000000,3.000000,58.000000,,,,0.000000,4.000000,4.000000,2.000000,4.000000,4.000000,2.000000,4.000000,4.000000,4.000000,4.000000,4.000000,4.000000,4.000000,4.000000,66.666664,,,,,,,,,,,,,,,,,,,,,,,,,,,,,,,,,,,,,,,,,,,,,,,,,,,,,,,,,,,,,,,,,,,,,,,,,,,,,,,,,,,,,,,,,,,,,,,,,,,,,,,,,,,,,,,,,,,,,
1768202921.205294,1768202921.206563,48.000000,0.000000,4361.538574,4352.307617,4321.282227,4368.589844,4351.153809,4369.487305,4342.307617,4346.922852,4337.563965,4336.282227,4480.256348,4506.538574,4394.871582,4440.384766,0.000000,3.000000,58.000000,,,,0.000000,4.000000,4.000000,2.000000,4.000000,4.000000,2.000000,4.000000,4.000000,4.000000,4.000000,4.000000,4.000000,4.000000,4.000000,66.666664,,,,,,,,,,,,,,,,,,,,,,,,,,,,,,,,,,,,,,,,,,,,,,,,,,,,,,,,,,,,,,,,,,,,,,,,,,,,,,,,,,,,,,,,,,,,,,,,,,,,,,,,,,,,,,,,,,,,,
1768202921.213102,1768202921.214371,49.000000,0.000000,4360.641113,4354.102539,4326.282227,4366.666504,4350.256348,4370.641113,4342.563965,4351.025879,4342.307617,4343.205078,4488.974121,4510.384766,4401.025879,4442.948730,0.000000,3.000000,58.000000,,,,0.000000,4.000000,4.000000,2.000000,4.000000,4.000000,2.000000,4.000000,4.000000,4.000000,4.000000,4.000000,4.000000,4.000000,4.000000,66.666664,,,,,,,,,,,,,,,,,,,,,,,,,,,,,,,,,,,,,,,,,,,,,,,,,,,,,,,,,,,,,,,,,,,,,,,,,,,,,,,,,,,,,,,,,,,,,,,,,,,,,,,,,,,,,,,,,,,,,
1768202921.220911,1768202921.222279,50.000000,0.000000,4361.794922,4353.717773,4327.563965,4365.128418,4347.948730,4373.077148,4339.871582,4343.717773,4342.307617,4338.461426,4491.025879,4510.128418,4402.692383,4444.615234,0.000000,3.000000,58.000000,,,,0.000000,4.000000,4.000000,2.000000,4.000000,4.000000,2.000000,4.000000,4.000000,4.000000,4.000000,4.000000,4.000000,4.000000,4.000000,66.666664,,,,,,,,,,,,,,,,,,,,,,,,,,,,,,,,,,,,,,,,,,,,,,,,,,,,,,,,,,,,,,,,,,,,,,,,,,,,,,,,,,,,,,,,,,,,,,,,,,,,,,,,,,,,,,,,,,,,,
1768202921.228719,1768202921.230088,51.000000,0.000000,4363.461426,4355.000000,4322.307617,4365.256348,4350.512695,4371.538574,4343.717773,4342.307617,4338.846191,4329.615234,4485.256348,4508.461426,4393.205078,4443.077148,0.000000,3.000000,58.000000,,,,0.000000,4.000000,4.000000,2.000000,4.000000,4.000000,2.000000,4.000000,4.000000,4.000000,4.000000,4.000000,4.000000,4.000000,4.000000,66.666664,,,,,,,,,,,,,,,,,,,,,,,,,,,,,,,,,,,,,,,,,,,,,,,,,,,,,,,,,,,,,,,,,,,,,,,,,,,,,,,,,,,,,,,,,,,,,,,,,,,,,,,,,,,,,,,,,,,,,
1768202921.236528,1768202921.237696,52.000000,0.000000,4362.948730,4353.205078,4320.769043,4368.205078,4354.615234,4372.563965,4349.743652,4351.282227,4341.666504,4334.743652,4487.436035,4510.256348,4389.102539,4441.666504,0.000000,3.000000,58.000000,,,,0.000000,4.000000,4.000000,2.000000,4.000000,4.000000,2.000000,4.000000,4.000000,4.000000,4.000000,4.000000,4.000000,4.000000,4.000000,66.666664,,,,,,,,,,,,,,,,,,,,,,,,,,,,,,,,,,,,,,,,,,,,,,,,,,,,,,,,,,,,,,,,,,,,,,,,,,,,,,,,,,,,,,,,,,,,,,,,,,,,,,,,,,,,,,,,,,,,,
1768202921.244336,1768202921.245505,53.000000,0.000000,4368.461426,4352.692383,4326.538574,4372.307617,4354.102539,4376.282227,4346.794922,4350.641113,4344.102539,4336.922852,4491.922852,4511.666504,4395.769043,4443.974121,0.000000,3.000000,58.000000,,,,0.000000,4.000000,4.000000,2.000000,4.000000,4.000000,2.000000,4.000000,4.000000,4.000000,4.000000,4.000000,4.000000,4.000000,4.000000,66.666664,,,,,,,,,,,,,,,,,,,,,,,,,,,,,,,,,,,,,,,,,,,,,,,,,,,,,,,,,,,,,,,,,,,,,,,,,,,,,,,,,,,,,,,,,,,,,,,,,,,,,,,,,,,,,,,,,,,,,
1768202921.252145,1768202921.253213,54.000000,0.000000,4376.922852,4361.922852,4331.666504,4372.820313,4350.128418,4373.205078,4338.589844,4336.794922,4333.333496,4326.282227,4486.666504,4508.717773,4399.743652,4448.589844,0.000000,3.000000,58.000000,,,,0.000000,4.000000,4.000000,2.000000,4.000000,4.000000,2.000000,4.000000,4.000000,4.000000,4.000000,4.000000,4.000000,4.000000,4.000000,66.666664,,,,,,,,,,,,,,,,,,,,,,,,,,,,,,,,,,,,,,,,,,,,,,,,,,,,,,,,,,,,,,,,,,,,,,,,,,,,,,,,,,,,,,,,,,,,,,,,,,,,,,,,,,,,,,,,,,,,,
1768202921.259953,1768202921.261022,55.000000,0.000000,4375.641113,4363.717773,4328.461426,4368.846191,4344.615234,4368.461426,4337.436035,4334.230957,4325.641113,4322.820313,4480.641113,4507.179688,4393.589844,4447.436035,0.000000,3.000000,58.000000,,,,0.000000,4.000000,4.000000,2.000000,4.000000,4.000000,2.000000,4.000000,4.000000,4.000000,4.000000,4.000000,4.000000,4.000000,4.000000,66.666664,,,,,,,,,,,,,,,,,,,,,,,,,,,,,,,,,,,,,,,,,,,,,,,,,,,,,,,,,,,,,,,,,,,,,,,,,,,,,,,,,,,,,,,,,,,,,,,,,,,,,,,,,,,,,,,,,,,,,
1768202921.267762,1768202921.269030,56.000000,0.000000,4363.077148,4346.794922,4323.589844,4363.333496,4341.794922,4370.128418,4342.563965,4341.410156,4331.538574,4323.846191,4473.846191,4504.743652,4379.743652,4433.846191,0.000000,3.000000,58.000000,,,,0.000000,4.000000,4.000000,2.000000,4.000000,4.000000,2.000000,4.000000,4.000000,4.000000,4.000000,4.000000,4.000000,4.000000,4.000000,66.666664,,,,,,,,,,,,,,,,,,,,,,,,,,,,,,,,,,,,,,,,,,,,,,,,,,,,,,,,,,,,,,,,,,,,,,,,,,,,,,,,,,,,,,,,,,,,,,,,,,,,,,,,,,,,,,,,,,,,,
1768202921.275570,1768202921.276839,57.000000,0.000000,4357.179688,4340.384766,4324.487305,4364.743652,4344.743652,4373.461426,4344.102539,4341.666504,4337.051270,4321.410156,4471.410156,4505.256348,4377.820313,4429.743652,0.000000,3.000000,58.000000,,,,0.000000,4.000000,4.000000,2.000000,4.000000,4.000000,2.000000,4.000000,4.000000,4.000000,4.000000,4.000000,4.000000,4.000000,4.000000,66.666664,,,,,,,,,,,,,,,,,,,,,,,,,,,,,,,,,,,,,,,,,,,,,,,,,,,,,,,,,,,,,,,,,,,,,,,,,,,,,,,,,,,,,,,,,,,,,,,,,,,,,,,,,,,,,,,,,,,,,
1768202921.283378,1768202921.284547,58.000000,0.000000,4366.794922,4357.692383,4328.717773,4370.897461,4351.282227,4374.615234,4345.641113,4344.358887,4340.384766,4331.025879,4483.589844,4514.743652,4392.692383,4442.948730,0.000000,3.000000,58.000000,,,,0.000000,4.000000,4.000000,2.000000,4.000000,4.000000,2.000000,4.000000,4.000000,4.000000,4.000000,4.000000,4.000000,4.000000,4.000000,66.666664,,,,,,,,,,,,,,,,,,,,,,,,,,,,,,,,,,,,,,,,,,,,,,,,,,,,,,,,,,,,,,,,,,,,,,,,,,,,,,,,,,,,,,,,,,,,,,,,,,,,,,,,,,,,,,,,,,,,,
1768202921.291187,1768202921.292356,59.000000,0.000000,4373.205078,4366.922852,4328.974121,4372.692383,4356.922852,4375.512695,4349.487305,4348.205078,4343.205078,4341.922852,4494.487305,4516.922852,4400.641113,4446.794922,0.000000,3.000000,58.000000,,,,0.000000,4.000000,4.000000,2.000000,4.000000,4.000000,2.000000,4.000000,4.000000,4.000000,4.000000,4.000000,4.000000,4.000000,4.000000,66.666664,,,,,,,,,,,,,,,,,,,,,,,,,,,,,,,,,,,,,,,,,,,,,,,,,,,,,,,,,,,,,,,,,,,,,,,,,,,,,,,,,,,,,,,,,,,,,,,,,,,,,,,,,,,,,,,,,,,,,
1768202921.298995,1768202921.299964,60.000000,0.000000,4368.717773,4358.717773,4324.871582,4369.230957,4357.948730,4372.692383,4346.282227,4343.974121,4338.333496,4333.589844,4488.846191,4505.897461,4395.641113,4440.128418,0.000000,3.000000,58.000000,,,,0.000000,4.000000,4.000000,2.000000,4.000000,4.000000,2.000000,4.000000,4.000000,4.000000,4.000000,4.000000,4.000000,4.000000,4.000000,66.666664,,,,,,,,,,,,,,,,,,,,,,,,,,,,,,,,,,,,,,,,,,,,,,,,,,,,,,,,,,,,,,,,,,,,,,,,,,,,,,,,,,,,,,,,,,,,,,,,,,,,,,,,,,,,,,,,,,,,,
1768202921.306804,1768202921.307773,61.000000,0.000000,4366.153809,4355.256348,4325.128418,4368.846191,4354.615234,4369.871582,4339.358887,4343.717773,4335.512695,4326.282227,4483.846191,4505.512695,4392.948730,4442.307617,0.000000,3.000000,58.000000,,,,0.000000,4.000000,4.000000,2.000000,4.000000,4.000000,2.000000,4.000000,4.000000,4.000000,4.000000,4.000000,4.000000,4.000000,4.000000,66.666664,,,,,,,,,,,,,,,,,,,,,,,,,,,,,,,,,,,,,,,,,,,,,,,,,,,,,,,,,,,,,,,,,,,,,,,,,,,,,,,,,,,,,,,,,,,,,,,,,,,,,,,,,,,,,,,,,,,,,
1768202921.314612,1768202921.315481,62.000000,0.000000,4368.589844,4359.487305,4327.692383,4370.128418,4352.051270,4372.820313,4338.589844,4348.846191,4340.512695,4330.641113,4488.077148,4518.205078,4392.692383,4444.230957,0.000000,3.000000,58.000000,,,,0.000000,4.000000,4.000000,2.000000,4.000000,4.000000,2.000000,4.000000,4.000000,4.000000,4.000000,4.000000,4.000000,4.000000,4.000000,66.666664,,,,,,,,,,,,,,,,,,,,,,,,,,,,,,,,,,,,,,,,,,,,,,,,5.412527,0.384103,0.152052,0.281063,0.180679,1.385772,0.133533,0.431783,0.220381,0.117995,0.047296,0.075851,0.065714,0.049257,0.062853,0.429315,0.095138,0.070180,0.147620,0.083184,0.325913,0.093475,0.083707,0.097472,0.060321,0.017293,0.027060,0.014693,0.029436,0.029278,0.188100,0.214246,0.154861,0.172916,0.093997,0.298951,0.185505,0.152418,0.109150,0.190480,0.301642,0.239004,0.138634,0.153175,0.134237,0.187121,0.186334,0.212643,0.167100,0.111893,1.115151,0.292122,0.263624,0.258355,0.182030,1.175319,0.359219,0.384452,0.173161,0.145987,1.658589,0.236677,0.318294,0.263355,0.202291,4.811471,0.547500,0.496321,0.324863,0.226150
1768202921.322420,1768202921.323290,63.000000,0.000000,4370.256348,4358.846191,4329.230957,4369.358887,4352.563965,4375.256348,4343.717773,4350.384766,4341.025879,4332.051270,4490.128418,4523.846191,4392.820313,4442.820313,0.000000,3.000000,58.000000,,,,0.000000,4.000000,4.000000,2.000000,4.000000,4.000000,2.000000,4.000000,4.000000,4.000000,4.000000,4.000000,4.000000,4.000000,4.000000,66.666664,,,,,,,,,,,,,,,,,,,,,,,,,,,,,,,,,,,,,,,,,,,,,,,,,,,,,,,,,,,,,,,,,,,,,,,,,,,,,,,,,,,,,,,,,,,,,,,,,,,,,,,,,,,,,,,,,,,,,
1768202921.330229,1768202921.330898,64.000000,0.000000,4373.333496,4356.538574,4330.769043,4375.641113,4355.000000,4374.487305,4349.871582,4352.820313,4342.563965,4332.948730,4491.153809,4522.179688,4397.307617,4453.846191,876.000000,3.000000,58.000000,,,,0.000000,4.000000,4.000000,2.000000,4.000000,4.000000,2.000000,4.000000,4.000000,4.000000,4.000000,4.000000,4.000000,4.000000,4.000000,66.666664,,,,,,,,,,,,,,,,,,,,,,,,,,,,,,,,,,,,,,,,,,,,,,,,,,,,,,,,,,,,,,,,,,,,,,,,,,,,,,,,,,,,,,,,,,,,,,,,,,,,,,,,,,,,,,,,,,,,,
1768202921.338037,1768202921.338707,65.000000,0.000000,4373.077148,4357.820313,4330.897461,4381.025879,4357.179688,4372.436035,4349.102539,4350.641113,4340.256348,4332.563965,4492.948730,4518.717773,4394.358887,4461.538574,2852.000000,3.000000,58.000000,,,,0.000000,4.000000,4.000000,2.000000,4.000000,4.000000,2.000000,4.000000,4.000000,4.000000,4.000000,4.000000,4.000000,4.000000,4.000000,66.666664,,,,,,,,,,,,,,,,,,,,,,,,,,,,,,,,,,,,,,,,,,,,,,,,,,,,,,,,,,,,,,,,,,,,,,,,,,,,,,,,,,,,,,,,,,,,,,,,,,,,,,,,,,,,,,,,,,,,,
1768202921.345846,1768202921.346615,66.000000,0.000000,4368.333496,4356.282227,4329.871582,4374.615234,4355.128418,4371.282227,4341.794922,4343.461426,4330.641113,4327.948730,4490.384766,4517.563965,4386.153809,4456.153809,3760.000000,3.000000,58.000000,,,,0.000000,4.000000,4.000000,2.000000,4.000000,4.000000,2.000000,4.000000,4.000000,4.000000,4.000000,4.000000,4.000000,4.000000,4.000000,66.666664,,,,,,,,,,,,,,,,,,,,,,,,,,,,,,,,,,,,,,,,,,,,,,,,,,,,,,,,,,,,,,,,,,,,,,,,,,,,,,,,,,,,,,,,,,,,,,,,,,,,,,,,,,,,,,,,,,,,,
1768202921.353654,1768202921.354424,67.000000,0.000000,4370.128418,4352.436035,4329.102539,4370.000000,4351.025879,4370.641113,4342.051270,4348.717773,4334.102539,4330.384766,4490.897461,4524.743652,4390.256348,4456.666504,3685.000000,3.000000,58.000000,,,,0.000000,4.000000,4.000000,2.000000,4.000000,4.000000,2.000000,4.000000,4.000000,4.000000,4.000000,4.000000,4.000000,4.000000,4.000000,66.666664,,,,,,,,,,,,,,,,,,,,,,,,,,,,,,,,,,,,,,,,,,,,,,,,,,,,,,,,,,,,,,,,,,,,,,,,,,,,,,,,,,,,,,,,,,,,,,,,,,,,,,,,,,,,,,,,,,,,,
1768202921.361463,1768202921.362432,68.000000,0.000000,4373.846191,4352.692383,4330.000000,4372.436035,4348.846191,4369.230957,4345.384766,4355.128418,4344.102539,4335.000000,4495.512695,4529.487305,4397.051270,4463.461426,3722.000000,3.000000,58.000000,,,,0.000000,4.000000,4.000000,2.000000,4.000000,4.000000,2.000000,4.000000,4.000000,4.000000,4.000000,4.000000,4.000000,4.000000,4.000000,66.666664,,,,,,,,,,,,,,,,,,,,,,,,,,,,,,,,,,,,,,,,,,,,,,,,,,,,,,,,,,,,,,,,,,,,,,,,,,,,,,,,,,,,,,,,,,,,,,,,,,,,,,,,,,,,,,,,,,,,,
1768202921.369271,1768202921.370240,69.000000,0.000000,4371.666504,4356.153809,4330.256348,4370.512695,4349.230957,4369.487305,4342.820313,4348.717773,4337.436035,4328.974121,4489.230957,4524.871582,4391.922852,4459.871582,751.000000,3.000000,58.000000,,,,0.000000,4.000000,4.000000,2.000000,4.000000,4.000000,2.000000,4.000000,4.000000,4.000000,4.000000,4.000000,4.000000,4.000000,4.000000,66.666664,,,,,,,,,,,,,,,,,,,,,,,,,,,,,,,,,,,,,,,,,,,,,,,,,,,,,,,,,,,,,,,,,,,,,,,,,,,,,,,,,,,,,,,,,,,,,,,,,,,,,,,,,,,,,,,,,,,,,
1768202921.377079,1768202921.378149,70.000000,0.000000,4368.205078,4351.538574,4329.743652,4364.487305,4348.846191,4374.358887,4343.974121,4345.000000,4328.077148,4321.025879,4475.897461,4521.666504,4379.615234,4445.256348,3976.000000,3.000000,58.000000,,,,0.000000,4.000000,4.000000,2.000000,4.000000,4.000000,2.000000,4.000000,4.000000,4.000000,4.000000,4.000000,4.000000,4.000000,4.000000,66.666664,,,,,,,,,,,,,,,,,,,,,,,,,,,,,,,,,,,,,,,,,,,,,,,,,,,,,,,,,,,,,,,,,,,,,,,,,,,,,,,,,,,,,,,,,,,,,,,,,,,,,,,,,,,,,,,,,,,,,
1768202921.384888,1768202921.385957,71.000000,0.000000,4367.436035,4341.922852,4331.025879,4363.846191,4343.846191,4376.666504,4351.025879,4349.487305,4332.948730,4322.307617,4477.436035,4523.717773,4377.179688,4439.743652,4123.000000,3.000000,58.000000,,,,0.000000,4.000000,4.000000,2.000000,4.000000,4.000000,2.000000,4.000000,4.000000,4.000000,4.000000,4.000000,4.000000,4.000000,4.000000,66.666664,,,,,,,,,,,,,,,,,,,,,,,,,,,,,,,,,,,,,,,,,,,,,,,,,,,,,,,,,,,,,,,,,,,,,,,,,,,,,,,,,,,,,,,,,,,,,,,,,,,,,,,,,,,,,,,,,,,,,
1768202921.392696,1768202921.393566,72.000000,0.000000,4369.358887,4340.897461,4331.922852,4366.410156,4341.538574,4375.769043,4352.436035,4350.769043,4339.358887,4326.666504,4491.410156,4524.230957,4386.922852,4452.692383,4089.000000,3.000000,58.000000,,,,0.000000,4.000000,4.000000,2.000000,4.000000,4.000000,2.000000,4.000000,4.000000,4.000000,4.000000,4.000000,4.000000,4.000000,4.000000,66.666664,,,,,,,,,,,,,,,,,,,,,,,,,,,,,,,,,,,,,,,,,,,,,,,,,,,,,,,,,,,,,,,,,,,,,,,,,,,,,,,,,,,,,,,,,,,,,,,,,,,,,,,,,,,,,,,,,,,,,
1768202921.400505,1768202921.401374,73.000000,0.000000,4369.487305,4343.333496,4331.153809,4365.512695,4343.974121,4377.563965,4350.256348,4349.102539,4337.948730,4327.948730,4494.102539,4525.000000,4390.512695,4461.025879,4116.000000,3.000000,58.000000,,,,0.000000,4.000000,4.000000,2.000000,4.000000,4.000000,2.000000,4.000000,4.000000,4.000000,4.000000,4.000000,4.000000,4.000000,4.000000,66.666664,,,,,,,,,,,,,,,,,,,,,,,,,,,,,,,,,,,,,,,,,,,,,,,,,,,,,,,,,,,,,,,,,,,,,,,,,,,,,,,,,,,,,,,,,,,,,,,,,,,,,,,,,,,,,,,,,,,,,
1768202921.408313,1768202921.409282,74.000000,0.000000,4362.948730,4340.384766,4330.897461,4360.384766,4343.333496,4378.333496,4349.743652,4346.794922,4334.871582,4327.692383,4486.794922,4521.922852,4385.769043,4451.410156,4293.000000,3.000000,58.000000,,,,0.000000,4.000000,4.000000,2.000000,4.000000,4.000000,2.000000,4.000000,4.000000,4.000000,4.000000,4.000000,4.000000,4.000000,4.000000,66.666664,,,,,,,,,,,,,,,,,,,,,,,,,,,,,,,,,,,,,,,,,,,,,,,,,,,,,,,,,,,,,,,,,,,,,,,,,,,,,,,,,,,,,,,,,,,,,,,,,,,,,,,,,,,,,,,,,,,,,
1768202921.416122,1768202921.417091,75.000000,0.000000,4360.512695,4338.077148,4330.384766,4359.487305,4344.487305,4376.922852,4352.051270,4347.948730,4338.717773,4330.897461,4486.794922,4520.512695,4388.205078,4448.461426,4774.000000,3.000000,58.000000,,,,0.000000,4.000000,4.000000,2.000000,4.000000,4.000000,2.000000,4.000000,4.000000,4.000000,4.000000,4.000000,4.000000,4.000000,4.000000,66.666664,,,,,,,,,,,,,,,,,,,,,,,,,,,,,,,,,,,,,,,,,,,,,,,,,,,,,,,,,,,,,,,,,,,,,,,,,,,,,,,,,,,,,,,,,,,,,,,,,,,,,,,,,,,,,,,,,,,,,
1768202921.423930,1768202921.425099,76.000000,0.000000,4368.974121,4342.820313,4329.230957,4366.282227,4352.948730,4377.051270,4357.692383,4353.333496,4347.179688,4337.948730,4493.846191,4528.077148,4398.589844,4460.512695,5233.000000,3.000000,58.000000,,,,0.000000,4.000000,4.000000,2.000000,4.000000,4.000000,2.000000,4.000000,4.000000,4.000000,4.000000,4.000000,4.000000,4.000000,4.000000,66.666664,,,,,,,,,,,,,,,,,,,,,,,,,,,,,,,,,,,,,,,,,,,,,,,,,,,,,,,,,,,,,,,,,,,,,,,,,,,,,,,,,,,,,,,,,,,,,,,,,,,,,,,,,,,,,,,,,,,,,
1768202921.431739,1768202921.432908,77.000000,0.000000,4375.256348,4348.333496,4330.256348,4369.871582,4359.230957,4376.666504,4356.282227,4353.846191,4347.179688,4338.589844,4495.641113,4530.384766,4401.025879,4464.743652,4407.000000,3.000000,58.000000,,,,0.000000,4.000000,4.000000,2.000000,4.000000,4.000000,2.000000,4.000000,4.000000,4.000000,4.000000,4.000000,4.000000,4.000000,4.000000,66.666664,,,,,,,,,,,,,,,,,,,,,,,,,,,,,,,,,,,,,,,,,,,,,,,,,,,,,,,,,,,,,,,,,,,,,,,,,,,,,,,,,,,,,,,,,,,,,,,,,,,,,,,,,,,,,,,,,,,,,
1768202921.439547,1768202921.440616,78.000000,0.000000,4369.871582,4349.358887,4330.128418,4363.461426,4358.077148,4376.922852,4349.358887,4351.794922,4341.538574,4333.974121,4486.410156,4523.717773,4397.051270,4452.179688,4293.000000,3.000000,58.000000,,,,0.000000,4.000000,4.000000,2.000000,4.000000,4.000000,2.000000,4.000000,4.000000,4.000000,4.000000,4.000000,4.000000,4.000000,4.000000,66.666664,1.000000,33.333332,4.000000,4.000000,0.000000,4.000000,4.000000,0.000000,4.000000,4.000000,4.000000,4.000000,4.000000,4.000000,4.000000,4.000000,,,,,,,,,,,,,,,,,,,,,,,,,,,,,,,,4.918880,0.321722,0.158017,0.254192,0.187889,1.379300,0.123636,0.495618,0.242833,0.134411,0.044669,0.067020,0.076111,0.052439,0.061558,0.419689,0.100939,0.069562,0.149345,0.089467,0.307923,0.119490,0.101536,0.112665,0.058073,0.017266,0.030699,0.013591,0.031162,0.025231,0.228189,0.202885,0.141224,0.177174,0.094073,0.293575,0.160550,0.148106,0.111426,0.211269,0.266692,0.233855,0.122940,0.159745,0.143409,0.179017,0.209338,0.183487,0.160022,0.113178,0.977622,0.281502,0.251711,0.228677,0.184727,1.125368,0.331148,0.439718,0.153696,0.142172,1.497591,0.200454,0.268341,0.186409,0.179995,4.339980,0.445046,0.422625,0.254959,0.201376
1768202921.447355,1768202921.448425,79.000000,0.000000,4366.922852,4351.025879,4327.051270,4358.461426,4357.563965,4377.692383,4351.538574,4349.487305,4341.922852,4332.436035,4482.692383,4521.666504,4402.436035,4444.615234,4774.000000,3.000000,58.000000,,,,0.000000,4.000000,4.000000,2.000000,4.000000,4.000000,2.000000,4.000000,4.000000,4.000000,4.000000,4.000000,4.000000,4.000000,4.000000,66.666664,,,,,,,,,,,,,,,,,,,,,,,,,,,,,,,,,,,,,,,,,,,,,,,,,,,,,,,,,,,,,,,,,,,,,,,,,,,,,,,,,,,,,,,,,,,,,,,,,,,,,,,,,,,,,,,,,,,,,
1768202921.455164,1768202921.456033,80.000000,0.000000,4370.512695,4356.153809,4326.410156,4360.641113,4357.692383,4376.922852,4354.615234,4344.743652,4342.051270,4335.769043,4489.102539,4522.820313,4411.282227,4448.589844,5233.000000,3.000000,58.000000,,,,0.000000,4.000000,4.000000,2.000000,4.000000,4.000000,2.000000,4.000000,4.000000,4.000000,4.000000,4.000000,4.000000,4.000000,4.000000,66.666664,,,,,,,,,,,,,,,,,,,,,,,,,,,,,,,,,,,,,,,,,,,,,,,,,,,,,,,,,,,,,,,,,,,,,,,,,,,,,,,,,,,,,,,,,,,,,,,,,,,,,,,,,,,,,,,,,,,,,
1768202921.462972,1768202921.463842,81.000000,0.000000,4368.846191,4359.743652,4329.487305,4361.153809,4355.128418,4376.153809,4347.307617,4340.256348,4336.538574,4336.025879,4490.512695,4518.461426,4412.563965,4449.102539,4407.000000,3.000000,58.000000,,,,0.000000,4.000000,4.000000,2.000000,4.000000,4.000000,2.000000,4.000000,4.000000,4.000000,4.000000,4.000000,4.000000,4.000000,4.000000,66.666664,,,,,,,,,,,,,,,,,,,,,,,,,,,,,,,,,,,,,,,,,,,,,,,,,,,,,,,,,,,,,,,,,,,,,,,,,,,,,,,,,,,,,,,,,,,,,,,,,,,,,,,,,,,,,,,,,,,,,
1768202921.470780,1768202921.471750,82.000000,0.000000,4363.333496,4358.974121,4329.743652,4358.077148,4353.717773,4377.563965,4340.128418,4339.615234,4334.615234,4329.871582,4487.436035,4517.051270,4411.282227,4444.230957,4293.000000,3.000000,58.000000,,,,0.000000,4.000000,4.000000,2.000000,4.000000,4.000000,2.000000,4.000000,4.000000,4.000000,4.000000,4.000000,4.000000,4.000000,4.000000,66.666664,,,,,,,,,,,,,,,,,,,,,,,,,,,,,,,,,,,,,,,,,,,,,,,,,,,,,,,,,,,,,,,,,,,,,,,,,,,,,,,,,,,,,,,,,,,,,,,,,,,,,,,,,,,,,,,,,,,,,
1768202921.478589,1768202921.479559,83.000000,0.000000,4360.256348,4356.922852,4325.384766,4356.410156,4352.563965,4374.743652,4341.153809,4343.589844,4340.384766,4326.282227,4486.666504,4521.538574,4412.179688,4443.333496,4774.000000,3.000000,58.000000,,,,0.000000,4.000000,4.000000,2.000000,4.000000,4.000000,2.000000,4.000000,4.000000,4.000000,4.000000,4.000000,4.000000,4.000000,4.000000,66.666664,,,,,,,,,,,,,,,,,,,,,,,,,,,,,,,,,,,,,,,,,,,,,,,,,,,,,,,,,,,,,,,,,,,,,,,,,,,,,,,,,,,,,,,,,,,,,,,,,,,,,,,,,,,,,,,,,,,,,
1768202921.486397,1768202921.487567,84.000000,0.000000,4361.282227,4354.487305,4322.820313,4356.666504,4349.615234,4369.487305,4342.051270,4347.051270,4343.205078,4327.179688,4487.563965,4517.692383,4412.692383,4445.128418,5233.000000,3.000000,58.000000,,,,0.000000,4.000000,4.000000,2.000000,4.000000,4.000000,2.000000,4.000000,4.000000,4.000000,4.000000,4.000000,4.000000,4.000000,4.000000,66.666664,,,,,,,,,,,,,,,,,,,,,,,,,,,,,,,,,,,,,,,,,,,,,,,,,,,,,,,,,,,,,,,,,,,,,,,,,,,,,,,,,,,,,,,,,,,,,,,,,,,,,,,,,,,,,,,,,,,,,
1768202921.494206,1768202921.495375,85.000000,0.000000,4363.333496,4352.948730,4324.230957,4357.948730,4350.128418,4369.615234,4341.794922,4345.256348,4340.641113,4328.333496,4488.077148,4509.615234,4411.922852,4443.846191,4407.000000,3.000000,58.000000,,,,0.000000,4.000000,4.000000,2.000000,4.000000,4.000000,2.000000,4.000000,4.000000,4.000000,4.000000,4.000000,4.000000,4.000000,4.000000,66.666664,,,,,,,,,,,,,,,,,,,,,,,,,,,,,,,,,,,,,,,,,,,,,,,,,,,,,,,,,,,,,,,,,,,,,,,,,,,,,,,,,,,,,,,,,,,,,,,,,,,,,,,,,,,,,,,,,,,,,
1768202921.502014,1768202921.503084,86.000000,0.000000,4364.743652,4353.974121,4327.051270,4363.205078,4354.102539,4370.641113,4342.307617,4341.025879,4341.794922,4326.538574,4487.820313,4511.410156,4412.820313,4443.589844,4293.000000,3.000000,58.000000,,,,0.000000,4.000000,4.000000,2.000000,4.000000,4.000000,2.000000,4.000000,4.000000,4.000000,4.000000,4.000000,4.000000,4.000000,4.000000,66.666664,,,,,,,,,,,,,,,,,,,,,,,,,,,,,,,,,,,,,,,,,,,,,,,,,,,,,,,,,,,,,,,,,,,,,,,,,,,,,,,,,,,,,,,,,,,,,,,,,,,,,,,,,,,,,,,,,,,,,
1768202921.509823,1768202921.510892,87.000000,0.000000,4367.307617,4356.282227,4329.230957,4368.717773,4355.641113,4369.615234,4344.358887,4348.333496,4347.948730,4325.897461,4487.820313,4520.000000,4412.563965,4449.487305,4774.000000,3.000000,58.000000,,,,0.000000,4.000000,4.000000,2.000000,4.000000,4.000000,2.000000,4.000000,4.000000,4.000000,4.000000,4.000000,4.000000,4.000000,4.000000,66.666664,,,,,,,,,,,,,,,,,,,,,,,,,,,,,,,,,,,,,,,,,,,,,,,,,,,,,,,,,,,,,,,,,,,,,,,,,,,,,,,,,,,,,,,,,,,,,,,,,,,,,,,,,,,,,,,,,,,,,
1768202921.517631,1768202921.518900,88.000000,0.000000,4372.820313,4358.077148,4329.743652,4366.410156,4356.410156,4372.692383,4348.077148,4357.307617,4353.077148,4332.692383,4491.282227,4524.358887,4412.948730,4457.692383,5233.000000,3.000000,58.000000,,,,0.000000,4.000000,4.000000,2.000000,4.000000,4.000000,2.000000,4.000000,4.000000,4.000000,4.000000,4.000000,4.000000,4.000000,4.000000,66.666664,,,,,,,,,,,,,,,,,,,,,,,,,,,,,,,,,,,,,,,,,,,,,,,,,,,,,,,,,,,,,,,,,,,,,,,,,,,,,,,,,,,,,,,,,,,,,,,,,,,,,,,,,,,,,,,,,,,,,
1768202921.525440,1768202921.526709,89.000000,0.000000,4377.436035,4357.692383,4329.871582,4361.282227,4357.948730,4377.051270,4348.589844,4351.666504,4352.307617,4337.436035,4492.307617,4523.333496,4414.487305,4460.000000,4407.000000,3.000000,58.000000,,,,0.000000,4.000000,4.000000,2.000000,4.000000,4.000000,2.000000,4.000000,4.000000,4.000000,4.000000,4.000000,4.000000,4.000000,4.000000,66.666664,,,,,,,,,,,,,,,,,,,,,,,,,,,,,,,,,,,,,,,,,,,,,,,,,,,,,,,,,,,,,,,,,,,,,,,,,,,,,,,,,,,,,,,,,,,,,,,,,,,,,,,,,,,,,,,,,,,,,
1768202921.533248,1768202921.534417,90.000000,0.000000,4373.717773,4354.743652,4329.871582,4361.025879,4356.153809,4375.512695,4350.000000,4350.512695,4348.974121,4334.615234,4488.846191,4520.000000,4413.077148,4456.025879,4293.000000,3.000000,58.000000,,,,0.000000,4.000000,4.000000,2.000000,4.000000,4.000000,2.000000,4.000000,4.000000,4.000000,4.000000,4.000000,4.000000,4.000000,4.000000,66.666664,,,,,,,,,,,,,,,,,,,,,,,,,,,,,,,,,,,,,,,,,,,,,,,,,,,,,,,,,,,,,,,,,,,,,,,,,,,,,,,,,,,,,,,,,,,,,,,,,,,,,,,,,,,,,,,,,,,,,
1768202921.541057,1768202921.542226,91.000000,0.000000,4371.282227,4354.871582,4329.102539,4365.000000,4353.974121,4371.666504,4354.230957,4358.205078,4349.743652,4332.307617,4489.358887,4520.512695,4410.769043,4455.000000,4774.000000,3.000000,58.000000,,,,0.000000,4.000000,4.000000,2.000000,4.000000,4.000000,2.000000,4.000000,4.000000,4.000000,4.000000,4.000000,4.000000,4.000000,4.000000,66.666664,,,,,,,,,,,,,,,,,,,,,,,,,,,,,,,,,,,,,,,,,,,,,,,,,,,,,,,,,,,,,,,,,,,,,,,,,,,,,,,,,,,,,,,,,,,,,,,,,,,,,,,,,,,,,,,,,,,,,
1768202921.548865,1768202921.550234,92.000000,0.000000,4374.487305,4358.846191,4329.487305,4366.922852,4354.871582,4371.794922,4351.666504,4352.051270,4350.641113,4336.410156,4491.538574,4526.538574,4412.436035,4459.230957,5233.000000,3.000000,58.000000,,,,0.000000,4.000000,4.000000,2.000000,4.000000,4.000000,2.000000,4.000000,4.000000,4.000000,4.000000,4.000000,4.000000,4.000000,4.000000,66.666664,,,,,,,,,,,,,,,,,,,,,,,,,,,,,,,,,,,,,,,,,,,,,,,,,,,,,,,,,,,,,,,,,,,,,,,,,,,,,,,,,,,,,,,,,,,,,,,,,,,,,,,,,,,,,,,,,,,,,
1768202921.556673,1768202921.558043,93.000000,0.000000,4373.333496,4358.846191,4331.282227,4364.871582,4353.461426,4376.410156,4347.692383,4340.769043,4349.102539,4335.512695,4491.410156,4526.538574,4413.974121,4460.256348,4407.000000,3.000000,58.000000,,,,0.000000,4.000000,4.000000,2.000000,4.000000,4.000000,2.000000,4.000000,4.000000,4.000000,4.000000,4.000000,4.000000,4.000000,4.000000,66.666664,,,,,,,,,,,,,,,,,,,,,,,,,,,,,,,,,,,,,,,,,,,,,,,,,,,,,,,,,,,,,,,,,,,,,,,,,,,,,,,,,,,,,,,,,,,,,,,,,,,,,,,,,,,,,,,,,,,,,
1768202921.564482,1768202921.565951,94.000000,0.000000,4369.487305,4356.282227,4331.282227,4365.000000,4352.436035,4377.179688,4349.871582,4343.077148,4347.179688,4328.974121,4489.871582,4520.128418,4410.000000,4458.205078,4293.000000,3.000000,58.000000,,,,0.000000,4.000000,4.000000,2.000000,4.000000,4.000000,2.000000,4.000000,4.000000,4.000000,4.000000,4.000000,4.000000,4.000000,4.000000,66.666664,,,,,,,,,,,,,,,,,,,,,,,,,,,,,,,,,,,,,,,,,,,,,,,,3.877108,0.264551,0.168455,0.229266,0.203037,1.243243,0.126038,0.512103,0.253139,0.159104,0.049747,0.062848,0.082989,0.054349,0.059072,0.374814,0.116068,0.068459,0.144905,0.098443,0.303139,0.145186,0.120150,0.124865,0.054950,0.019821,0.034486,0.013046,0.032133,0.021625,0.309405,0.186141,0.121429,0.167291,0.089410,0.301605,0.140510,0.145418,0.120208,0.228330,0.252833,0.218997,0.110736,0.165760,0.149035,0.196012,0.248115,0.159468,0.158214,0.114843,0.851053,0.286350,0.250541,0.212063,0.183097,1.044691,0.311603,0.476760,0.140703,0.138330,1.298924,0.221680,0.256208,0.150054,0.164045,3.498649,0.396685,0.394860,0.205931,0.195044
1768202921.572290,1768202921.573759,95.000000,0.000000,4371.794922,4359.358887,4330.384766,4369.615234,4356.922852,4372.948730,4351.794922,4349.487305,4348.589844,4329.871582,4490.384766,4523.461426,4408.846191,4457.307617,4774.000000,3.000000,58.000000,,,,0.000000,4.000000,4.000000,2.000000,4.000000,4.000000,2.000000,4.000000,4.000000,4.000000,4.000000,4.000000,4.000000,4.000000,4.000000,66.666664,,,,,,,,,,,,,,,,,,,,,,,,,,,,,,,,,,,,,,,,,,,,,,,,,,,,,,,,,,,,,,,,,,,,,,,,,,,,,,,,,,,,,,,,,,,,,,,,,,,,,,,,,,,,,,,,,,,,,
1768202921.580099,1768202921.581768,96.000000,0.000000,4371.922852,4360.769043,4330.769043,4368.846191,4358.077148,4371.922852,4352.692383,4352.307617,4353.461426,4335.897461,4493.205078,4529.871582,4413.077148,4459.102539,5233.000000,3.000000,58.000000,,,,0.000000,4.000000,4.000000,2.000000,4.000000,4.000000,2.000000,4.000000,4.000000,4.000000,4.000000,4.000000,4.000000,4.000000,4.000000,66.666664,,,,,,,,,,,,,,,,,,,,,,,,,,,,,,,,,,,,,,,,,,,,,,,,,,,,,,,,,,,,,,,,,,,,,,,,,,,,,,,,,,,,,,,,,,,,,,,,,,,,,,,,,,,,,,,,,,,,,
1768202921.587907,1768202921.589576,97.000000,0.000000,4364.230957,4351.922852,4328.974121,4360.641113,4351.538574,4372.436035,4354.487305,4355.769043,4356.538574,4337.179688,4493.589844,4527.692383,4412.307617,4459.743652,4407.000000,3.000000,58.000000,,,,0.000000,4.000000,4.000000,2.000000,4.000000,4.000000,2.000000,4.000000,4.000000,4.000000,4.000000,4.000000,4.000000,4.000000,4.000000,66.666664,,,,,,,,,,,,,,,,,,,,,,,,,,,,,,,,,,,,,,,,,,,,,,,,,,,,,,,,,,,,,,,,,,,,,,,,,,,,,,,,,,,,,,,,,,,,,,,,,,,,,,,,,,,,,,,,,,,,,
1768202921.595715,1768202921.597285,98.000000,0.000000,4362.563965,4347.948730,4326.410156,4356.666504,4348.205078,4371.282227,4350.641113,4356.794922,4356.922852,4337.051270,4491.794922,4525.000000,4408.846191,4457.692383,4293.000000,3.000000,58.000000,,,,0.000000,4.000000,4.000000,2.000000,4.000000,4.000000,2.000000,4.000000,4.000000,4.000000,4.000000,4.000000,4.000000,4.000000,4.000000,66.666664,,,,,,,,,,,,,,,,,,,,,,,,,,,,,,,,,,,,,,,,,,,,,,,,,,,,,,,,,,,,,,,,,,,,,,,,,,,,,,,,,,,,,,,,,,,,,,,,,,,,,,,,,,,,,,,,,,,,,
1768202921.603524,1768202921.605093,99.000000,0.000000,4366.153809,4352.563965,4327.179688,4357.820313,4352.563965,4372.179688,4348.974121,4355.512695,4357.563965,4340.512695,4492.563965,4524.743652,4412.051270,4456.538574,4774.000000,3.000000,58.000000,,,,0.000000,4.000000,4.000000,2.000000,4.000000,4.000000,2.000000,4.000000,4.000000,4.000000,4.000000,4.000000,4.000000,4.000000,4.000000,66.666664,,,,,,,,,,,,,,,,,,,,,,,,,,,,,,,,,,,,,,,,,,,,,,,,,,,,,,,,,,,,,,,,,,,,,,,,,,,,,,,,,,,,,,,,,,,,,,,,,,,,,,,,,,,,,,,,,,,,,
1768202921.611332,1768202921.612702,100.000000,0.000000,4365.512695,4350.512695,4329.487305,4359.358887,4355.128418,4372.948730,4354.487305,4356.666504,4357.948730,4340.256348,4493.461426,4526.666504,4415.384766,4456.282227,5233.000000,3.000000,58.000000,,,,0.000000,4.000000,4.000000,2.000000,4.000000,4.000000,2.000000,4.000000,4.000000,4.000000,4.000000,4.000000,4.000000,4.000000,4.000000,66.666664,,,,,,,,,,,,,,,,,,,,,,,,,,,,,,,,,,,,,,,,,,,,,,,,,,,,,,,,,,,,,,,,,,,,,,,,,,,,,,,,,,,,,,,,,,,,,,,,,,,,,,,,,,,,,,,,,,,,,
1768202921.619141,1768202921.620510,101.000000,0.000000,4364.743652,4343.589844,4329.743652,4361.025879,4350.000000,4371.666504,4351.025879,4358.589844,4356.922852,4338.205078,4493.333496,4528.717773,4413.333496,4457.563965,4407.000000,3.000000,58.000000,,,,0.000000,4.000000,4.000000,2.000000,4.000000,4.000000,2.000000,4.000000,4.000000,4.000000,4.000000,4.000000,4.000000,4.000000,4.000000,66.666664,,,,,,,,,,,,,,,,,,,,,,,,,,,,,,,,,,,,,,,,,,,,,,,,,,,,,,,,,,,,,,,,,,,,,,,,,,,,,,,,,,,,,,,,,,,,,,,,,,,,,,,,,,,,,,,,,,,,,
1768202921.626949,1768202921.628418,102.000000,0.000000,4366.153809,4345.512695,4328.846191,4360.512695,4347.436035,4373.333496,4346.922852,4357.692383,4357.436035,4340.769043,4492.948730,4527.179688,4412.436035,4458.589844,4293.000000,3.000000,58.000000,,,,0.000000,4.000000,4.000000,2.000000,4.000000,4.000000,2.000000,4.000000,4.000000,4.000000,4.000000,4.000000,4.000000,4.000000,4.000000,66.666664,,,,,,,,,,,,,,,,,,,,,,,,,,,,,,,,,,,,,,,,,,,,,,,,,,,,,,,,,,,,,,,,,,,,,,,,,,,,,,,,,,,,,,,,,,,,,,,,,,,,,,,,,,,,,,,,,,,,,
1768202921.634758,1768202921.636227,103.000000,0.000000,4367.563965,4349.743652,4328.461426,4361.538574,4354.230957,4373.846191,4348.205078,4353.846191,4356.666504,4337.051270,4491.410156,4522.948730,4412.436035,4456.922852,4774.000000,3.000000,58.000000,,,,0.000000,4.000000,4.000000,2.000000,4.000000,4.000000,2.000000,4.000000,4.000000,4.000000,4.000000,4.000000,4.000000,4.000000,4.000000,66.666664,,,,,,,,,,,,,,,,,,,,,,,,,,,,,,,,,,,,,,,,,,,,,,,,,,,,,,,,,,,,,,,,,,,,,,,,,,,,,,,,,,,,,,,,,,,,,,,,,,,,,,,,,,,,,,,,,,,,,
1768202921.642566,1768202921.643836,104.000000,0.000000,4368.333496,4351.025879,4329.615234,4365.769043,4357.820313,4371.410156,4346.794922,4357.563965,4355.769043,4332.051270,4491.410156,4522.820313,4410.897461,4456.282227,5233.000000,3.000000,58.000000,,,,0.000000,4.000000,4.000000,2.000000,4.000000,4.000000,2.000000,4.000000,4.000000,4.000000,4.000000,4.000000,4.000000,4.000000,4.000000,66.666664,,,,,,,,,,,,,,,,,,,,,,,,,,,,,,,,,,,,,,,,,,,,,,,,,,,,,,,,,,,,,,,,,,,,,,,,,,,,,,,,,,,,,,,,,,,,,,,,,,,,,,,,,,,,,,,,,,,,,
1768202921.650374,1768202921.651644,105.000000,0.000000,4370.128418,4354.102539,4331.666504,4364.358887,4355.000000,4371.794922,4346.282227,4360.897461,4356.282227,4339.487305,4494.230957,4526.794922,4410.384766,4457.307617,4407.000000,3.000000,58.000000,,,,0.000000,4.000000,4.000000,2.000000,4.000000,4.000000,2.000000,4.000000,4.000000,4.000000,4.000000,4.000000,4.000000,4.000000,4.000000,66.666664,,,,,,,,,,,,,,,,,,,,,,,,,,,,,,,,,,,,,,,,,,,,,,,,,,,,,,,,,,,,,,,,,,,,,,,,,,,,,,,,,,,,,,,,,,,,,,,,,,,,,,,,,,,,,,,,,,,,,
1768202921.658183,1768202921.659353,106.000000,0.000000,4369.615234,4355.000000,4329.230957,4357.051270,4355.769043,4371.153809,4347.436035,4347.179688,4351.025879,4342.563965,4494.358887,4525.512695,4413.846191,4459.487305,4293.000000,3.000000,58.000000,,,,0.000000,4.000000,4.000000,2.000000,4.000000,4.000000,2.000000,4.000000,4.000000,4.000000,4.000000,4.000000,4.000000,4.000000,4.000000,66.666664,,,,,,,,,,,,,,,,,,,,,,,,,,,,,,,,,,,,,,,,,,,,,,,,,,,,,,,,,,,,,,,,,,,,,,,,,,,,,,,,,,,,,,,,,,,,,,,,,,,,,,,,,,,,,,,,,,,,,
1768202921.665991,1768202921.667161,107.000000,0.000000,4364.615234,4355.384766,4324.487305,4357.179688,4358.717773,4370.256348,4347.820313,4339.487305,4345.769043,4331.666504,4491.282227,4522.051270,4411.666504,4457.051270,4774.000000,3.000000,58.000000,,,,0.000000,4.000000,4.000000,2.000000,4.000000,4.000000,2.000000,4.000000,4.000000,4.000000,4.000000,4.000000,4.000000,4.000000,4.000000,66.666664,,,,,,,,,,,,,,,,,,,,,,,,,,,,,,,,,,,,,,,,,,,,,,,,,,,,,,,,,,,,,,,,,,,,,,,,,,,,,,,,,,,,,,,,,,,,,,,,,,,,,,,,,,,,,,,,,,,,,
1768202921.673800,1768202921.675169,108.000000,0.000000,4361.538574,4358.077148,4326.794922,4363.974121,4357.820313,4374.743652,4346.666504,4349.358887,4348.974121,4328.717773,4490.384766,4521.538574,4404.358887,4451.025879,5233.000000,3.000000,58.000000,,,,0.000000,4.000000,4.000000,2.000000,4.000000,4.000000,2.000000,4.000000,4.000000,4.000000,4.000000,4.000000,4.000000,4.000000,4.000000,66.666664,,,,,,,,,,,,,,,,,,,,,,,,,,,,,,,,,,,,,,,,,,,,,,,,,,,,,,,,,,,,,,,,,,,,,,,,,,,,,,,,,,,,,,,,,,,,,,,,,,,,,,,,,,,,,,,,,,,,,
1768202921.681608,1768202921.682978,109.000000,0.000000,4363.974121,4356.794922,4329.487305,4362.820313,4355.000000,4375.769043,4345.769043,4355.256348,4351.666504,4337.051270,4491.282227,4523.717773,4405.897461,4451.666504,4407.000000,3.000000,58.000000,,,,0.000000,4.000000,4.000000,2.000000,4.000000,4.000000,2.000000,4.000000,4.000000,4.000000,4.000000,4.000000,4.000000,4.000000,4.000000,66.666664,,,,,,,,,,,,,,,,,,,,,,,,,,,,,,,,,,,,,,,,,,,,,,,,,,,,,,,,,,,,,,,,,,,,,,,,,,,,,,,,,,,,,,,,,,,,,,,,,,,,,,,,,,,,,,,,,,,,,
1768202921.689417,1768202921.690886,110.000000,0.000000,4366.538574,4354.230957,4325.384766,4358.077148,4352.563965,4371.282227,4345.256348,4352.563965,4351.153809,4340.384766,4492.820313,4525.769043,4413.333496,4458.333496,4293.000000,3.000000,58.000000,,,,0.000000,4.000000,4.000000,2.000000,4.000000,4.000000,2.000000,4.000000,4.000000,4.000000,4.000000,4.000000,4.000000,4.000000,4.000000,66.666664,,,,,,,,,,,,,,,,,,,,,,,,,,,,,,,,,,,,,,,,,,,,,,,,2.604602,0.224175,0.176189,0.203421,0.215015,1.008391,0.147996,0.467990,0.246615,0.184512,0.054347,0.061819,0.084299,0.055121,0.055616,0.303273,0.141990,0.065473,0.136860,0.106674,0.302773,0.167227,0.136776,0.133255,0.051252,0.023777,0.037120,0.013147,0.032602,0.018904,0.427563,0.164955,0.099972,0.148439,0.082114,0.320656,0.128780,0.149327,0.131939,0.241315,0.261117,0.201548,0.109095,0.168292,0.152939,0.226643,0.308504,0.152177,0.156918,0.117777,0.738585,0.303558,0.263623,0.202552,0.176905,0.966552,0.288549,0.477964,0.133273,0.133408,1.095464,0.278030,0.255146,0.136414,0.151685,2.575880,0.385355,0.378967,0.174227,0.199470
1768202921.697225,1768202921.698695,111.000000,0.000000,4366.410156,4355.256348,4324.871582,4360.512695,4352.948730,4368.846191,4347.436035,4353.205078,4354.743652,4340.256348,4495.384766,4523.974121,4414.743652,4460.641113,4774.000000,3.000000,58.000000,,,,0.000000,4.000000,4.000000,2.000000,4.000000,4.000000,2.000000,4.000000,4.000000,4.000000,4.000000,4.000000,4.000000,4.000000,4.000000,66.666664,,,,,,,,,,,,,,,,,,,,,,,,,,,,,,,,,,,,,,,,,,,,,,,,,,,,,,,,,,,,,,,,,,,,,,,,,,,,,,,,,,,,,,,,,,,,,,,,,,,,,,,,,,,,,,,,,,,,,
1768202921.705033,1768202921.706303,112.000000,0.000000,4368.717773,4356.410156,4330.256348,4365.897461,4357.692383,4370.000000,4354.230957,4357.051270,4358.077148,4341.922852,4495.384766,4527.179688,4413.077148,4459.230957,5233.000000,3.000000,58.000000,,,,0.000000,4.000000,4.000000,2.000000,4.000000,4.000000,2.000000,4.000000,4.000000,4.000000,4.000000,4.000000,4.000000,4.000000,4.000000,66.666664,,,,,,,,,,,,,,,,,,,,,,,,,,,,,,,,,,,,,,,,,,,,,,,,,,,,,,,,,,,,,,,,,,,,,,,,,,,,,,,,,,,,,,,,,,,,,,,,,,,,,,,,,,,,,,,,,,,,,
1768202921.712842,1768202921.714112,113.000000,0.000000,4371.538574,4356.666504,4331.666504,4365.384766,4359.230957,4372.436035,4357.179688,4357.948730,4354.743652,4338.077148,4492.692383,4536.282227,4413.461426,4460.512695,4407.000000,3.000000,58.000000,,,,0.000000,4.000000,4.000000,2.000000,4.000000,4.000000,2.000000,4.000000,4.000000,4.000000,4.000000,4.000000,4.000000,4.000000,4.000000,66.666664,,,,,,,,,,,,,,,,,,,,,,,,,,,,,,,,,,,,,,,,,,,,,,,,,,,,,,,,,,,,,,,,,,,,,,,,,,,,,,,,,,,,,,,,,,,,,,,,,,,,,,,,,,,,,,,,,,,,,
1768202921.720650,1768202921.722020,114.000000,0.000000,4369.871582,4358.333496,4330.512695,4364.230957,4355.641113,4372.820313,4351.410156,4355.256348,4351.282227,4334.102539,4491.794922,4536.666504,4412.948730,4460.769043,4293.000000,3.000000,58.000000,,,,0.000000,4.000000,4.000000,2.000000,4.000000,4.000000,2.000000,4.000000,4.000000,4.000000,4.000000,4.000000,4.000000,4.000000,4.000000,66.666664,,,,,,,,,,,,,,,,,,,,,,,,,,,,,,,,,,,,,,,,,,,,,,,,,,,,,,,,,,,,,,,,,,,,,,,,,,,,,,,,,,,,,,,,,,,,,,,,,,,,,,,,,,,,,,,,,,,,,
1768202921.728459,1768202921.729828,115.000000,0.000000,4365.128418,4357.563965,4331.794922,4367.948730,4355.000000,4369.358887,4345.128418,4352.051270,4352.563965,4334.871582,4491.794922,4527.179688,4411.410156,4458.333496,4774.000000,3.000000,58.000000,,,,0.000000,4.000000,4.000000,2.000000,4.000000,4.000000,2.000000,4.000000,4.000000,4.000000,4.000000,4.000000,4.000000,4.000000,4.000000,66.666664,,,,,,,,,,,,,,,,,,,,,,,,,,,,,,,,,,,,,,,,,,,,,,,,,,,,,,,,,,,,,,,,,,,,,,,,,,,,,,,,,,,,,,,,,,,,,,,,,,,,,,,,,,,,,,,,,,,,,
1768202921.736267,1768202921.737837,116.000000,0.000000,4363.717773,4354.615234,4331.922852,4369.487305,4357.948730,4369.102539,4350.769043,4355.897461,4356.153809,4336.025879,4491.666504,4522.307617,4411.538574,4457.051270,5233.000000,3.000000,58.000000,,,,0.000000,4.000000,4.000000,2.000000,4.000000,4.000000,2.000000,4.000000,4.000000,4.000000,4.000000,4.000000,4.000000,4.000000,4.000000,66.666664,,,,,,,,,,,,,,,,,,,,,,,,,,,,,,,,,,,,,,,,,,,,,,,,,,,,,,,,,,,,,,,,,,,,,,,,,,,,,,,,,,,,,,,,,,,,,,,,,,,,,,,,,,,,,,,,,,,,,
1768202921.744075,1768202921.745645,117.000000,0.000000,4370.641113,4356.025879,4330.256348,4367.563965,4358.205078,4372.179688,4355.256348,4357.563965,4355.897461,4336.922852,4494.102539,4524.487305,4412.179688,4458.846191,4407.000000,3.000000,58.000000,,,,0.000000,4.000000,4.000000,2.000000,4.000000,4.000000,2.000000,4.000000,4.000000,4.000000,4.000000,4.000000,4.000000,4.000000,4.000000,66.666664,,,,,,,,,,,,,,,,,,,,,,,,,,,,,,,,,,,,,,,,,,,,,,,,,,,,,,,,,,,,,,,,,,,,,,,,,,,,,,,,,,,,,,,,,,,,,,,,,,,,,,,,,,,,,,,,,,,,,
1768202921.751884,1768202921.753553,118.000000,0.000000,4374.230957,4362.692383,4331.666504,4368.205078,4356.025879,4372.307617,4351.794922,4349.358887,4350.384766,4337.307617,4493.846191,4525.000000,4413.589844,4460.384766,4293.000000,3.000000,58.000000,,,,0.000000,4.000000,4.000000,2.000000,4.000000,4.000000,2.000000,4.000000,4.000000,4.000000,4.000000,4.000000,4.000000,4.000000,4.000000,66.666664,,,,,,,,,,,,,,,,,,,,,,,,,,,,,,,,,,,,,,,,,,,,,,,,,,,,,,,,,,,,,,,,,,,,,,,,,,,,,,,,,,,,,,,,,,,,,,,,,,,,,,,,,,,,,,,,,,,,,
1768202921.759692,1768202921.761362,119.000000,0.000000,4373.205078,4364.358887,4334.743652,4371.922852,4360.769043,4372.948730,4353.461426,4346.538574,4348.333496,4336.922852,4492.307617,4521.282227,4414.487305,4459.358887,4774.000000,3.000000,58.000000,,,,0.000000,4.000000,4.000000,2.000000,4.000000,4.000000,2.000000,4.000000,4.000000,4.000000,4.000000,4.000000,4.000000,4.000000,4.000000,66.666664,,,,,,,,,,,,,,,,,,,,,,,,,,,,,,,,,,,,,,,,,,,,,,,,,,,,,,,,,,,,,,,,,,,,,,,,,,,,,,,,,,,,,,,,,,,,,,,,,,,,,,,,,,,,,,,,,,,,,
1768202921.767501,1768202921.769370,120.000000,0.000000,4373.974121,4361.282227,4334.102539,4373.974121,4370.256348,4373.717773,4359.102539,4355.256348,4355.384766,4340.000000,4500.256348,4523.077148,4414.871582,4465.897461,5233.000000,3.000000,58.000000,,,,0.000000,4.000000,4.000000,2.000000,4.000000,4.000000,2.000000,4.000000,4.000000,4.000000,4.000000,4.000000,4.000000,4.000000,4.000000,66.666664,,,,,,,,,,,,,,,,,,,,,,,,,,,,,,,,,,,,,,,,,,,,,,,,,,,,,,,,,,,,,,,,,,,,,,,,,,,,,,,,,,,,,,,,,,,,,,,,,,,,,,,,,,,,,,,,,,,,,
1768202921.775309,1768202921.777179,121.000000,0.000000,4372.051270,4362.307617,4331.410156,4373.205078,4367.948730,4371.922852,4360.256348,4360.769043,4359.230957,4343.333496,4508.077148,4532.307617,4413.205078,4475.128418,4407.000000,3.000000,58.000000,,,,0.000000,4.000000,4.000000,2.000000,4.000000,4.000000,2.000000,4.000000,4.000000,4.000000,4.000000,4.000000,4.000000,4.000000,4.000000,66.666664,,,,,,,,,,,,,,,,,,,,,,,,,,,,,,,,,,,,,,,,,,,,,,,,,,,,,,,,,,,,,,,,,,,,,,,,,,,,,,,,,,,,,,,,,,,,,,,,,,,,,,,,,,,,,,,,,,,,,
1768202921.783118,1768202921.785087,122.000000,0.000000,4372.948730,4365.256348,4330.769043,4373.205078,4358.717773,4372.948730,4357.692383,4357.436035,4353.205078,4338.333496,4502.436035,4533.717773,4410.897461,4471.153809,4293.000000,3.000000,58.000000,,,,0.000000,4.000000,4.000000,2.000000,4.000000,4.000000,2.000000,4.000000,4.000000,4.000000,4.000000,4.000000,4.000000,4.000000,4.000000,66.666664,,,,,,,,,,,,,,,,,,,,,,,,,,,,,,,,,,,,,,,,,,,,,,,,,,,,,,,,,,,,,,,,,,,,,,,,,,,,,,,,,,,,,,,,,,,,,,,,,,,,,,,,,,,,,,,,,,,,,
1768202921.790926,1768202921.792895,123.000000,0.000000,4381.666504,4366.794922,4333.333496,4374.487305,4358.717773,4375.769043,4358.589844,4356.794922,4351.282227,4335.128418,4501.025879,4531.538574,4412.948730,4469.358887,4774.000000,3.000000,58.000000,,,,0.000000,4.000000,4.000000,2.000000,4.000000,4.000000,2.000000,4.000000,4.000000,4.000000,4.000000,4.000000,4.000000,4.000000,4.000000,66.666664,,,,,,,,,,,,,,,,,,,,,,,,,,,,,,,,,,,,,,,,,,,,,,,,,,,,,,,,,,,,,,,,,,,,,,,,,,,,,,,,,,,,,,,,,,,,,,,,,,,,,,,,,,,,,,,,,,,,,
1768202921.798735,1768202921.800504,124.000000,0.000000,4384.358887,4366.410156,4335.512695,4374.230957,4366.794922,4376.025879,4365.128418,4361.666504,4356.153809,4337.948730,4507.563965,4535.384766,4414.358887,4475.384766,5233.000000,3.000000,58.000000,,,,0.000000,4.000000,4.000000,2.000000,4.000000,4.000000,2.000000,4.000000,4.000000,4.000000,4.000000,4.000000,4.000000,4.000000,4.000000,66.666664,,,,,,,,,,,,,,,,,,,,,,,,,,,,,,,,,,,,,,,,,,,,,,,,,,,,,,,,,,,,,,,,,,,,,,,,,,,,,,,,,,,,,,,,,,,,,,,,,,,,,,,,,,,,,,,,,,,,,
1768202921.806543,1768202921.808312,125.000000,0.000000,4374.743652,4360.641113,4335.128418,4367.692383,4367.692383,4376.282227,4368.461426,4359.871582,4352.820313,4333.589844,4499.230957,4530.512695,4408.717773,4466.410156,4407.000000,3.000000,58.000000,,,,0.000000,4.000000,4.000000,2.000000,4.000000,4.000000,2.000000,4.000000,4.000000,4.000000,4.000000,4.000000,4.000000,4.000000,4.000000,66.666664,,,,,,,,,,,,,,,,,,,,,,,,,,,,,,,,,,,,,,,,,,,,,,,,,,,,,,,,,,,,,,,,,,,,,,,,,,,,,,,,,,,,,,,,,,,,,,,,,,,,,,,,,,,,,,,,,,,,,
1768202921.814351,1768202921.816021,126.000000,0.000000,4372.948730,4355.128418,4333.077148,4361.922852,4359.615234,4375.897461,4363.461426,4354.487305,4346.282227,4327.436035,4489.230957,4523.846191,4404.871582,4455.000000,4293.000000,3.000000,58.000000,,,,0.000000,4.000000,4.000000,2.000000,4.000000,4.000000,2.000000,4.000000,4.000000,4.000000,4.000000,4.000000,4.000000,4.000000,4.000000,66.666664,,,,,,,,,,,,,,,,,,,,,,,,,,,,,,,,,,,,,,,,,,,,,,,,1.468004,0.202652,0.177396,0.175786,0.215633,0.758918,0.192852,0.378491,0.225515,0.203188,0.057612,0.060831,0.079438,0.054837,0.051612,0.229264,0.176755,0.063256,0.128697,0.110824,0.295692,0.186998,0.151591,0.138072,0.047704,0.032771,0.038930,0.014673,0.033327,0.017509,0.565637,0.145055,0.081123,0.129374,0.075129,0.343159,0.129735,0.159284,0.143322,0.249584,0.276922,0.191836,0.118697,0.165784,0.156409,0.258975,0.388370,0.164758,0.153099,0.121795,0.645312,0.329308,0.289800,0.196274,0.169136,0.928885,0.254813,0.437186,0.129351,0.128340,0.911551,0.343981,0.248002,0.131278,0.143742,1.852835,0.394807,0.352727,0.155497,0.207994
1768202921.822160,1768202921.823829,127.000000,0.000000,4379.487305,4357.179688,4332.307617,4366.153809,4355.641113,4373.461426,4358.846191,4359.871582,4351.538574,4333.461426,4501.538574,4535.128418,4411.282227,4467.948730,58.000000,3.000000,58.000000,,,,0.000000,4.000000,4.000000,2.000000,4.000000,4.000000,2.000000,4.000000,4.000000,4.000000,4.000000,4.000000,4.000000,4.000000,4.000000,66.666664,,,,,,,,,,,,,,,,,,,,,,,,,,,,,,,,,,,,,,,,,,,,,,,,,,,,,,,,,,,,,,,,,,,,,,,,,,,,,,,,,,,,,,,,,,,,,,,,,,,,,,,,,,,,,,,,,,,,,
1768202921.829968,1768202921.831438,0.000000,0.000000,4377.820313,4356.794922,4332.179688,4369.230957,4355.512695,4373.589844,4359.230957,4365.256348,4356.282227,4339.871582,4509.102539,4546.025879,4415.128418,4476.282227,876.000000,3.000000,58.000000,,,,0.000000,4.000000,4.000000,2.000000,4.000000,4.000000,2.000000,4.000000,4.000000,4.000000,4.000000,4.000000,4.000000,4.000000,4.000000,66.666664,,,,,,,,,,,,,,,,,,,,,,,,,,,,,,,,,,,,,,,,,,,,,,,,,,,,,,,,,,,,,,,,,,,,,,,,,,,,,,,,,,,,,,,,,,,,,,,,,,,,,,,,,,,,,,,,,,,,,
1768202921.837777,1768202921.839247,1.000000,0.000000,4370.512695,4352.820313,4331.282227,4365.641113,4350.769043,4372.179688,4356.922852,4361.666504,4349.358887,4333.333496,4495.128418,4536.538574,4407.307617,4462.820313,2852.000000,3.000000,58.000000,,,,0.000000,4.000000,4.000000,2.000000,4.000000,4.000000,2.000000,4.000000,4.000000,4.000000,4.000000,4.000000,4.000000,4.000000,4.000000,66.666664,,,,,,,,,,,,,,,,,,,,,,,,,,,,,,,,,,,,,,,,,,,,,,,,,,,,,,,,,,,,,,,,,,,,,,,,,,,,,,,,,,,,,,,,,,,,,,,,,,,,,,,,,,,,,,,,,,,,,
1768202921.845585,1768202921.846955,2.000000,0.000000,4367.948730,4351.794922,4331.282227,4365.641113,4343.846191,4368.717773,4351.538574,4353.974121,4343.077148,4327.051270,4486.922852,4525.000000,4397.820313,4455.384766,3760.000000,3.000000,58.000000,,,,0.000000,4.000000,4.000000,2.000000,4.000000,4.000000,2.000000,4.000000,4.000000,4.000000,4.000000,4.000000,4.000000,4.000000,4.000000,66.666664,,,,,,,,,,,,,,,,,,,,,,,,,,,,,,,,,,,,,,,,,,,,,,,,,,,,,,,,,,,,,,,,,,,,,,,,,,,,,,,,,,,,,,,,,,,,,,,,,,,,,,,,,,,,,,,,,,,,,
1768202921.853393,1768202921.854764,3.000000,0.000000,4367.307617,4351.282227,4331.538574,4367.179688,4340.384766,4368.333496,4348.589844,4344.871582,4341.922852,4327.948730,4489.230957,4520.769043,4396.794922,4458.205078,3685.000000,3.000000,58.000000,,,,0.000000,4.000000,4.000000,2.000000,4.000000,4.000000,2.000000,4.000000,4.000000,4.000000,4.000000,4.000000,4.000000,4.000000,4.000000,66.666664,,,,,,,,,,,,,,,,,,,,,,,,,,,,,,,,,,,,,,,,,,,,,,,,,,,,,,,,,,,,,,,,,,,,,,,,,,,,,,,,,,,,,,,,,,,,,,,,,,,,,,,,,,,,,,,,,,,,,
1768202921.861202,1768202921.862372,4.000000,0.000000,4364.615234,4351.538574,4330.512695,4363.974121,4341.666504,4370.384766,4349.615234,4345.128418,4342.563965,4327.948730,4487.820313,4522.948730,4397.307617,4457.820313,3722.000000,3.000000,58.000000,,,,0.000000,4.000000,4.000000,2.000000,4.000000,4.000000,2.000000,4.000000,4.000000,4.000000,4.000000,4.000000,4.000000,4.000000,4.000000,66.666664,,,,,,,,,,,,,,,,,,,,,,,,,,,,,,,,,,,,,,,,,,,,,,,,,,,,,,,,,,,,,,,,,,,,,,,,,,,,,,,,,,,,,,,,,,,,,,,,,,,,,,,,,,,,,,,,,,,,,
1768202921.869010,1768202921.870181,5.000000,0.000000,4365.769043,4355.256348,4330.000000,4365.769043,4346.922852,4372.948730,4353.205078,4355.000000,4345.256348,4326.282227,4487.692383,4525.897461,4395.512695,4456.538574,751.000000,3.000000,58.000000,,,,0.000000,4.000000,4.000000,2.000000,4.000000,4.000000,2.000000,4.000000,4.000000,4.000000,4.000000,4.000000,4.000000,4.000000,4.000000,66.666664,,,,,,,,,,,,,,,,,,,,,,,,,,,,,,,,,,,,,,,,,,,,,,,,,,,,,,,,,,,,,,,,,,,,,,,,,,,,,,,,,,,,,,,,,,,,,,,,,,,,,,,,,,,,,,,,,,,,,
1768202921.876819,1768202921.878089,6.000000,0.000000,4369.230957,4357.820313,4330.000000,4370.897461,4352.436035,4373.333496,4356.282227,4359.487305,4349.871582,4331.666504,4492.436035,4524.102539,4402.948730,4458.461426,3976.000000,3.000000,58.000000,,,,0.000000,4.000000,4.000000,2.000000,4.000000,4.000000,2.000000,4.000000,4.000000,4.000000,4.000000,4.000000,4.000000,4.000000,4.000000,66.666664,,,,,,,,,,,,,,,,,,,,,,,,,,,,,,,,,,,,,,,,,,,,,,,,,,,,,,,,,,,,,,,,,,,,,,,,,,,,,,,,,,,,,,,,,,,,,,,,,,,,,,,,,,,,,,,,,,,,,
1768202921.884627,1768202921.885897,7.000000,0.000000,4369.743652,4357.307617,4330.897461,4367.051270,4350.897461,4370.256348,4352.307617,4358.333496,4351.282227,4338.077148,4493.461426,4522.436035,4410.897461,4460.384766,4123.000000,3.000000,58.000000,,,,0.000000,4.000000,4.000000,2.000000,4.000000,4.000000,2.000000,4.000000,4.000000,4.000000,4.000000,4.000000,4.000000,4.000000,4.000000,66.666664,,,,,,,,,,,,,,,,,,,,,,,,,,,,,,,,,,,,,,,,,,,,,,,,,,,,,,,,,,,,,,,,,,,,,,,,,,,,,,,,,,,,,,,,,,,,,,,,,,,,,,,,,,,,,,,,,,,,,
1768202921.892436,1768202921.893906,8.000000,0.000000,4366.666504,4355.641113,4330.512695,4362.179688,4343.205078,4369.230957,4342.051270,4354.743652,4347.436035,4331.410156,4490.769043,4520.128418,4403.589844,4459.102539,4089.000000,3.000000,58.000000,,,,0.000000,4.000000,4.000000,2.000000,4.000000,4.000000,2.000000,4.000000,4.000000,4.000000,4.000000,4.000000,4.000000,4.000000,4.000000,66.666664,,,,,,,,,,,,,,,,,,,,,,,,,,,,,,,,,,,,,,,,,,,,,,,,,,,,,,,,,,,,,,,,,,,,,,,,,,,,,,,,,,,,,,,,,,,,,,,,,,,,,,,,,,,,,,,,,,,,,
1768202921.900244,1768202921.901714,9.000000,0.000000,4364.358887,4353.974121,4328.846191,4363.205078,4342.563965,4371.282227,4342.436035,4344.871582,4342.179688,4323.974121,4489.102539,4518.461426,4395.769043,4456.922852,4116.000000,3.000000,58.000000,,,,0.000000,4.000000,4.000000,2.000000,4.000000,4.000000,2.000000,4.000000,4.000000,4.000000,4.000000,4.000000,4.000000,4.000000,4.000000,66.666664,,,,,,,,,,,,,,,,,,,,,,,,,,,,,,,,,,,,,,,,,,,,,,,,,,,,,,,,,,,,,,,,,,,,,,,,,,,,,,,,,,,,,,,,,,,,,,,,,,,,,,,,,,,,,,,,,,,,,
1768202921.908053,1768202921.909622,10.000000,0.000000,4368.333496,4356.282227,4329.487305,4362.051270,4348.846191,4371.025879,4351.794922,4346.794922,4341.538574,4329.743652,4492.563965,4522.692383,4402.051270,4461.153809,4293.000000,3.000000,58.000000,,,,0.000000,4.000000,4.000000,2.000000,4.000000,4.000000,2.000000,4.000000,4.000000,4.000000,4.000000,4.000000,4.000000,4.000000,4.000000,66.666664,,,,,,,,,,,,,,,,,,,,,,,,,,,,,,,,,,,,,,,,,,,,,,,,,,,,,,,,,,,,,,,,,,,,,,,,,,,,,,,,,,,,,,,,,,,,,,,,,,,,,,,,,,,,,,,,,,,,,
1768202921.915861,1768202921.917431,11.000000,0.000000,4365.897461,4355.641113,4328.589844,4357.692383,4348.461426,4370.000000,4351.025879,4361.666504,4345.000000,4334.743652,4495.000000,4522.307617,4404.487305,4460.256348,4774.000000,3.000000,58.000000,,,,0.000000,4.000000,4.000000,2.000000,4.000000,4.000000,2.000000,4.000000,4.000000,4.000000,4.000000,4.000000,4.000000,4.000000,4.000000,66.666664,,,,,,,,,,,,,,,,,,,,,,,,,,,,,,,,,,,,,,,,,,,,,,,,,,,,,,,,,,,,,,,,,,,,,,,,,,,,,,,,,,,,,,,,,,,,,,,,,,,,,,,,,,,,,,,,,,,,,
1768202921.923669,1768202921.925040,12.000000,0.000000,4353.205078,4345.128418,4325.128418,4355.384766,4340.769043,4370.000000,4342.820313,4354.102539,4341.538574,4326.282227,4481.410156,4507.820313,4392.179688,4443.974121,5233.000000,3.000000,58.000000,,,,0.000000,4.000000,4.000000,2.000000,4.000000,4.000000,2.000000,4.000000,4.000000,4.000000,4.000000,4.000000,4.000000,4.000000,4.000000,66.666664,,,,,,,,,,,,,,,,,,,,,,,,,,,,,,,,,,,,,,,,,,,,,,,,,,,,,,,,,,,,,,,,,,,,,,,,,,,,,,,,,,,,,,,,,,,,,,,,,,,,,,,,,,,,,,,,,,,,,
1768202921.931478,1768202921.932848,13.000000,0.000000,4346.025879,4339.615234,4327.307617,4354.743652,4336.538574,4371.282227,4340.384766,4338.717773,4336.025879,4321.666504,4469.102539,4501.153809,4385.000000,4434.615234,4407.000000,3.000000,58.000000,,,,0.000000,4.000000,4.000000,2.000000,4.000000,4.000000,2.000000,4.000000,4.000000,4.000000,4.000000,4.000000,4.000000,4.000000,4.000000,66.666664,,,,,,,,,,,,,,,,,,,,,,,,,,,,,,,,,,,,,,,,,,,,,,,,,,,,,,,,,,,,,,,,,,,,,,,,,,,,,,,,,,,,,,,,,,,,,,,,,,,,,,,,,,,,,,,,,,,,,
1768202921.939286,1768202921.940756,14.000000,0.000000,4351.282227,4347.051270,4329.358887,4355.384766,4338.717773,4372.692383,4341.922852,4344.615234,4339.230957,4327.820313,4480.769043,4508.205078,4390.256348,4442.563965,4293.000000,3.000000,58.000000,,,,0.000000,4.000000,4.000000,2.000000,4.000000,4.000000,2.000000,4.000000,4.000000,4.000000,4.000000,4.000000,4.000000,4.000000,4.000000,66.666664,1.000000,33.333332,4.000000,4.000000,0.000000,4.000000,4.000000,0.000000,4.000000,4.000000,4.000000,4.000000,4.000000,4.000000,4.000000,4.000000,,,,,,,,,,,,,,,,,,,,,,,,,,,,,,,,0.683234,0.200008,0.173649,0.149834,0.203717,0.587181,0.255255,0.275126,0.197516,0.210638,0.059724,0.057924,0.069589,0.053424,0.047597,0.179128,0.213449,0.065748,0.122992,0.109523,0.282737,0.210172,0.166386,0.139552,0.045292,0.047993,0.041089,0.018660,0.035139,0.017748,0.700012,0.132007,0.067636,0.117644,0.070656,0.362454,0.151832,0.169970,0.152214,0.252061,0.284472,0.200670,0.134556,0.158425,0.158906,0.279947,0.474082,0.191514,0.147803,0.126200,0.541898,0.358932,0.321324,0.192798,0.163861,0.920823,0.218066,0.363491,0.127037,0.125336,0.779202,0.401737,0.231927,0.130621,0.143480,1.413465,0.419160,0.320167,0.147013,0.217533
1768202921.947095,1768202921.948565,15.000000,0.000000,4357.179688,4351.794922,4325.512695,4358.974121,4341.025879,4369.743652,4341.794922,4354.487305,4344.487305,4329.615234,4494.871582,4509.358887,4397.307617,4451.025879,4774.000000,3.000000,58.000000,,,,0.000000,4.000000,4.000000,2.000000,4.000000,4.000000,2.000000,4.000000,4.000000,4.000000,4.000000,4.000000,4.000000,4.000000,4.000000,66.666664,,,,,,,,,,,,,,,,,,,,,,,,,,,,,,,,,,,,,,,,,,,,,,,,,,,,,,,,,,,,,,,,,,,,,,,,,,,,,,,,,,,,,,,,,,,,,,,,,,,,,,,,,,,,,,,,,,,,,
1768202921.954903,1768202921.956573,16.000000,0.000000,4357.179688,4349.358887,4324.743652,4358.974121,4341.666504,4369.358887,4341.794922,4352.179688,4345.128418,4327.820313,4490.641113,4513.589844,4397.692383,4450.000000,0.000000,3.000000,58.000000,,,,0.000000,4.000000,4.000000,2.000000,4.000000,4.000000,2.000000,4.000000,4.000000,4.000000,4.000000,4.000000,4.000000,4.000000,4.000000,66.666664,,,,,,,,,,,,,,,,,,,,,,,,,,,,,,,,,,,,,,,,,,,,,,,,,,,,,,,,,,,,,,,,,,,,,,,,,,,,,,,,,,,,,,,,,,,,,,,,,,,,,,,,,,,,,,,,,,,,,
1768202921.962711,1768202921.964382,17.000000,0.000000,4355.000000,4350.256348,4328.333496,4356.410156,4341.282227,4374.487305,4344.871582,4348.846191,4342.179688,4328.205078,4485.512695,4519.358887,4395.641113,4444.871582,0.000000,3.000000,58.000000,,,,0.000000,4.000000,4.000000,2.000000,4.000000,4.000000,2.000000,4.000000,4.000000,4.000000,4.000000,4.000000,4.000000,4.000000,4.000000,66.666664,,,,,,,,,,,,,,,,,,,,,,,,,,,,,,,,,,,,,,,,,,,,,,,,,,,,,,,,,,,,,,,,,,,,,,,,,,,,,,,,,,,,,,,,,,,,,,,,,,,,,,,,,,,,,,,,,,,,,
1768202921.970520,1768202921.972090,18.000000,0.000000,4356.922852,4352.948730,4328.461426,4361.794922,4341.538574,4374.615234,4349.743652,4350.128418,4341.666504,4326.794922,4487.051270,4513.461426,4395.641113,4440.769043,0.000000,3.000000,58.000000,,,,0.000000,4.000000,4.000000,2.000000,4.000000,4.000000,2.000000,4.000000,4.000000,4.000000,4.000000,4.000000,4.000000,4.000000,4.000000,66.666664,,,,,,,,,,,,,,,,,,,,,,,,,,,,,,,,,,,,,,,,,,,,,,,,,,,,,,,,,,,,,,,,,,,,,,,,,,,,,,,,,,,,,,,,,,,,,,,,,,,,,,,,,,,,,,,,,,,,,
1768202921.978328,1768202921.979899,19.000000,0.000000,4363.333496,4353.333496,4328.461426,4370.897461,4342.436035,4372.820313,4353.205078,4352.436035,4343.205078,4326.794922,4486.282227,4513.077148,4396.282227,4446.922852,0.000000,3.000000,58.000000,,,,0.000000,4.000000,4.000000,2.000000,4.000000,4.000000,2.000000,4.000000,4.000000,4.000000,4.000000,4.000000,4.000000,4.000000,4.000000,66.666664,,,,,,,,,,,,,,,,,,,,,,,,,,,,,,,,,,,,,,,,,,,,,,,,,,,,,,,,,,,,,,,,,,,,,,,,,,,,,,,,,,,,,,,,,,,,,,,,,,,,,,,,,,,,,,,,,,,,,
1768202921.986137,1768202921.987507,20.000000,0.000000,4364.102539,4353.974121,4330.897461,4369.230957,4342.436035,4375.384766,4353.205078,4355.641113,4341.282227,4329.230957,4489.487305,4522.948730,4398.846191,4455.512695,0.000000,3.000000,58.000000,,,,0.000000,4.000000,4.000000,2.000000,4.000000,4.000000,2.000000,4.000000,4.000000,4.000000,4.000000,4.000000,4.000000,4.000000,4.000000,66.666664,,,,,,,,,,,,,,,,,,,,,,,,,,,,,,,,,,,,,,,,,,,,,,,,,,,,,,,,,,,,,,,,,,,,,,,,,,,,,,,,,,,,,,,,,,,,,,,,,,,,,,,,,,,,,,,,,,,,,
1768202921.993945,1768202921.995316,21.000000,0.000000,4357.563965,4349.871582,4329.615234,4362.179688,4341.538574,4377.179688,4350.256348,4356.666504,4339.743652,4328.461426,4488.589844,4522.820313,4396.153809,4450.769043,0.000000,3.000000,58.000000,,,,0.000000,4.000000,4.000000,2.000000,4.000000,4.000000,2.000000,4.000000,4.000000,4.000000,4.000000,4.000000,4.000000,4.000000,4.000000,66.666664,,,,,,,,,,,,,,,,,,,,,,,,,,,,,,,,,,,,,,,,,,,,,,,,,,,,,,,,,,,,,,,,,,,,,,,,,,,,,,,,,,,,,,,,,,,,,,,,,,,,,,,,,,,,,,,,,,,,,
1768202922.001753,1768202922.003024,22.000000,0.000000,4352.307617,4341.666504,4327.307617,4359.743652,4338.205078,4374.871582,4345.384766,4353.461426,4340.256348,4325.000000,4477.563965,4517.820313,4388.846191,4439.871582,0.000000,3.000000,58.000000,,,,0.000000,4.000000,4.000000,2.000000,4.000000,4.000000,2.000000,4.000000,4.000000,4.000000,4.000000,4.000000,4.000000,4.000000,4.000000,66.666664,,,,,,,,,,,,,,,,,,,,,,,,,,,,,,,,,,,,,,,,,,,,,,,,,,,,,,,,,,,,,,,,,,,,,,,,,,,,,,,,,,,,,,,,,,,,,,,,,,,,,,,,,,,,,,,,,,,,,
1768202922.009562,1768202922.010833,23.000000,0.000000,4356.666504,4343.461426,4326.666504,4361.794922,4337.051270,4372.051270,4340.384766,4344.871582,4336.282227,4323.846191,4476.922852,4520.512695,4390.384766,4444.743652,0.000000,3.000000,58.000000,,,,0.000000,4.000000,4.000000,2.000000,4.000000,4.000000,2.000000,4.000000,4.000000,4.000000,4.000000,4.000000,4.000000,4.000000,4.000000,66.666664,,,,,,,,,,,,,,,,,,,,,,,,,,,,,,,,,,,,,,,,,,,,,,,,,,,,,,,,,,,,,,,,,,,,,,,,,,,,,,,,,,,,,,,,,,,,,,,,,,,,,,,,,,,,,,,,,,,,,
1768202922.017370,1768202922.018441,24.000000,0.000000,4366.794922,4353.846191,4328.461426,4363.077148,4339.743652,4373.717773,4340.897461,4340.512695,4334.102539,4325.384766,4490.384766,4522.563965,4398.333496,4461.025879,0.000000,3.000000,58.000000,,,,0.000000,4.000000,4.000000,2.000000,4.000000,4.000000,2.000000,4.000000,4.000000,4.000000,4.000000,4.000000,4.000000,4.000000,4.000000,66.666664,,,,,,,,,,,,,,,,,,,,,,,,,,,,,,,,,,,,,,,,,,,,,,,,,,,,,,,,,,,,,,,,,,,,,,,,,,,,,,,,,,,,,,,,,,,,,,,,,,,,,,,,,,,,,,,,,,,,,
1768202922.025179,1768202922.026250,25.000000,0.000000,4364.871582,4351.794922,4330.641113,4362.820313,4340.512695,4377.436035,4347.307617,4348.205078,4340.128418,4329.230957,4493.589844,4522.563965,4398.461426,4460.256348,0.000000,3.000000,58.000000,,,,0.000000,4.000000,4.000000,2.000000,4.000000,4.000000,2.000000,4.000000,4.000000,4.000000,4.000000,4.000000,4.000000,4.000000,4.000000,66.666664,,,,,,,,,,,,,,,,,,,,,,,,,,,,,,,,,,,,,,,,,,,,,,,,,,,,,,,,,,,,,,,,,,,,,,,,,,,,,,,,,,,,,,,,,,,,,,,,,,,,,,,,,,,,,,,,,,,,,
1768202922.032987,1768202922.033958,26.000000,0.000000,4352.820313,4341.922852,4330.384766,4363.974121,4338.461426,4375.512695,4348.717773,4357.436035,4342.692383,4329.487305,4488.077148,4523.205078,4394.358887,4446.666504,0.000000,3.000000,58.000000,,,,0.000000,4.000000,4.000000,2.000000,4.000000,4.000000,2.000000,4.000000,4.000000,4.000000,4.000000,4.000000,4.000000,4.000000,4.000000,66.666664,,,,,,,,,,,,,,,,,,,,,,,,,,,,,,,,,,,,,,,,,,,,,,,,,,,,,,,,,,,,,,,,,,,,,,,,,,,,,,,,,,,,,,,,,,,,,,,,,,,,,,,,,,,,,,,,,,,,,
1768202922.040796,1768202922.041767,27.000000,0.000000,4351.282227,4342.307617,4328.846191,4363.333496,4338.589844,4371.410156,4342.307617,4357.307617,4340.384766,4326.410156,4488.974121,4522.563965,4392.692383,4443.205078,0.000000,3.000000,58.000000,,,,0.000000,4.000000,4.000000,2.000000,4.000000,4.000000,2.000000,4.000000,4.000000,4.000000,4.000000,4.000000,4.000000,4.000000,4.000000,66.666664,,,,,,,,,,,,,,,,,,,,,,,,,,,,,,,,,,,,,,,,,,,,,,,,,,,,,,,,,,,,,,,,,,,,,,,,,,,,,,,,,,,,,,,,,,,,,,,,,,,,,,,,,,,,,,,,,,,,,
1768202922.048604,1768202922.049375,28.000000,0.000000,4358.589844,4342.692383,4328.589844,4359.102539,4340.128418,4374.615234,4341.922852,4353.589844,4340.897461,4325.128418,4488.205078,4521.922852,4384.358887,4447.692383,0.000000,3.000000,58.000000,,,,0.000000,4.000000,4.000000,2.000000,4.000000,4.000000,2.000000,4.000000,4.000000,4.000000,4.000000,4.000000,4.000000,4.000000,4.000000,66.666664,,,,,,,,,,,,,,,,,,,,,,,,,,,,,,,,,,,,,,,,,,,,,,,,,,,,,,,,,,,,,,,,,,,,,,,,,,,,,,,,,,,,,,,,,,,,,,,,,,,,,,,,,,,,,,,,,,,,,
1768202922.056413,1768202922.057184,29.000000,0.000000,4355.128418,4335.641113,4328.846191,4356.025879,4339.230957,4379.358887,4353.205078,4358.205078,4342.436035,4326.538574,4484.743652,4521.794922,4379.487305,4443.589844,0.000000,3.000000,58.000000,,,,0.000000,4.000000,4.000000,2.000000,4.000000,4.000000,2.000000,4.000000,4.000000,4.000000,4.000000,4.000000,4.000000,4.000000,4.000000,66.666664,,,,,,,,,,,,,,,,,,,,,,,,,,,,,,,,,,,,,,,,,,,,,,,,,,,,,,,,,,,,,,,,,,,,,,,,,,,,,,,,,,,,,,,,,,,,,,,,,,,,,,,,,,,,,,,,,,,,,
1768202922.064221,1768202922.065092,30.000000,0.000000,4350.384766,4336.666504,4328.717773,4360.512695,4341.282227,4378.461426,4360.641113,4366.410156,4347.307617,4331.794922,4489.102539,4523.589844,4390.897461,4440.512695,0.000000,3.000000,58.000000,,,,0.000000,4.000000,4.000000,2.000000,4.000000,4.000000,2.000000,4.000000,4.000000,4.000000,4.000000,4.000000,4.000000,4.000000,4.000000,66.666664,,,,,,,,,,,,,,,,,,,,,,,,,,,,,,,,,,,,,,,,,,,,,,,,0.300702,0.218479,0.167180,0.129259,0.183050,0.541079,0.327523,0.186053,0.169441,0.205571,0.065293,0.053242,0.056882,0.050924,0.043922,0.173688,0.243944,0.075447,0.119761,0.103925,0.277224,0.243416,0.181335,0.137833,0.045481,0.068777,0.044930,0.025055,0.038174,0.019544,0.804529,0.130729,0.059633,0.115776,0.069222,0.372319,0.201593,0.174720,0.158505,0.248087,0.278575,0.231442,0.148328,0.147703,0.158681,0.284429,0.542176,0.221108,0.143522,0.129999,0.439557,0.383211,0.343206,0.191506,0.163114,0.921590,0.191318,0.275925,0.126010,0.126447,0.733916,0.431428,0.208211,0.131879,0.150258,1.230551,0.457392,0.289926,0.145699,0.225901
1768202922.072029,1768202922.072901,31.000000,0.000000,4359.871582,4344.102539,4330.256348,4366.025879,4345.641113,4377.436035,4356.538574,4367.820313,4355.000000,4341.794922,4497.307617,4526.794922,4402.436035,4454.871582,0.000000,3.000000,58.000000,,,,0.000000,4.000000,4.000000,2.000000,4.000000,4.000000,2.000000,4.000000,4.000000,4.000000,4.000000,4.000000,4.000000,4.000000,4.000000,66.666664,,,,,,,,,,,,,,,,,,,,,,,,,,,,,,,,,,,,,,,,,,,,,,,,,,,,,,,,,,,,,,,,,,,,,,,,,,,,,,,,,,,,,,,,,,,,,,,,,,,,,,,,,,,,,,,,,,,,,
1768202922.079838,1768202922.080909,32.000000,0.000000,4368.333496,4344.743652,4330.256348,4365.000000,4344.487305,4377.563965,4347.307617,4361.153809,4352.051270,4341.794922,4496.410156,4526.410156,4399.743652,4463.205078,0.000000,3.000000,58.000000,,,,0.000000,4.000000,4.000000,2.000000,4.000000,4.000000,2.000000,4.000000,4.000000,4.000000,4.000000,4.000000,4.000000,4.000000,4.000000,66.666664,,,,,,,,,,,,,,,,,,,,,,,,,,,,,,,,,,,,,,,,,,,,,,,,,,,,,,,,,,,,,,,,,,,,,,,,,,,,,,,,,,,,,,,,,,,,,,,,,,,,,,,,,,,,,,,,,,,,,
1768202922.087646,1768202922.088717,33.000000,0.000000,4360.769043,4342.436035,4327.692383,4360.512695,4341.922852,4376.538574,4344.615234,4355.897461,4342.563965,4330.512695,4489.743652,4522.563965,4389.487305,4450.897461,0.000000,3.000000,58.000000,,,,0.000000,4.000000,4.000000,2.000000,4.000000,4.000000,2.000000,4.000000,4.000000,4.000000,4.000000,4.000000,4.000000,4.000000,4.000000,66.666664,,,,,,,,,,,,,,,,,,,,,,,,,,,,,,,,,,,,,,,,,,,,,,,,,,,,,,,,,,,,,,,,,,,,,,,,,,,,,,,,,,,,,,,,,,,,,,,,,,,,,,,,,,,,,,,,,,,,,
1768202922.095455,1768202922.096626,34.000000,0.000000,4352.436035,4341.282227,4325.384766,4357.692383,4342.307617,4377.307617,4349.102539,4357.179688,4341.410156,4328.333496,4489.230957,4521.282227,4389.615234,4440.769043,0.000000,3.000000,58.000000,,,,0.000000,4.000000,4.000000,2.000000,4.000000,4.000000,2.000000,4.000000,4.000000,4.000000,4.000000,4.000000,4.000000,4.000000,4.000000,66.666664,,,,,,,,,,,,,,,,,,,,,,,,,,,,,,,,,,,,,,,,,,,,,,,,,,,,,,,,,,,,,,,,,,,,,,,,,,,,,,,,,,,,,,,,,,,,,,,,,,,,,,,,,,,,,,,,,,,,,
1768202922.103263,1768202922.104434,35.000000,0.000000,4355.769043,4340.000000,4323.461426,4357.692383,4340.512695,4376.922852,4346.666504,4359.230957,4346.282227,4335.512695,4493.205078,4524.871582,4395.769043,4448.077148,0.000000,3.000000,58.000000,,,,0.000000,4.000000,4.000000,2.000000,4.000000,4.000000,2.000000,4.000000,4.000000,4.000000,4.000000,4.000000,4.000000,4.000000,4.000000,66.666664,,,,,,,,,,,,,,,,,,,,,,,,,,,,,,,,,,,,,,,,,,,,,,,,,,,,,,,,,,,,,,,,,,,,,,,,,,,,,,,,,,,,,,,,,,,,,,,,,,,,,,,,,,,,,,,,,,,,,
1768202922.111071,1768202922.112043,36.000000,0.000000,4359.358887,4341.153809,4327.692383,4356.922852,4338.589844,4374.102539,4339.871582,4358.461426,4346.666504,4336.282227,4494.230957,4526.153809,4394.230957,4453.974121,0.000000,3.000000,58.000000,,,,0.000000,4.000000,4.000000,2.000000,4.000000,4.000000,2.000000,4.000000,4.000000,4.000000,4.000000,4.000000,4.000000,4.000000,4.000000,66.666664,,,,,,,,,,,,,,,,,,,,,,,,,,,,,,,,,,,,,,,,,,,,,,,,,,,,,,,,,,,,,,,,,,,,,,,,,,,,,,,,,,,,,,,,,,,,,,,,,,,,,,,,,,,,,,,,,,,,,
1768202922.118880,1768202922.119851,37.000000,0.000000,4355.897461,4342.051270,4330.769043,4356.794922,4341.025879,4373.205078,4342.307617,4355.641113,4342.051270,4329.615234,4486.922852,4521.153809,4386.538574,4446.794922,0.000000,3.000000,58.000000,,,,0.000000,4.000000,4.000000,2.000000,4.000000,4.000000,2.000000,4.000000,4.000000,4.000000,4.000000,4.000000,4.000000,4.000000,4.000000,66.666664,,,,,,,,,,,,,,,,,,,,,,,,,,,,,,,,,,,,,,,,,,,,,,,,,,,,,,,,,,,,,,,,,,,,,,,,,,,,,,,,,,,,,,,,,,,,,,,,,,,,,,,,,,,,,,,,,,,,,
1768202922.126688,1768202922.127560,38.000000,0.000000,4352.179688,4339.102539,4327.436035,4356.538574,4342.307617,4375.384766,4350.128418,4356.025879,4338.846191,4325.897461,4483.205078,4519.487305,4382.051270,4442.307617,0.000000,3.000000,58.000000,,,,0.000000,4.000000,4.000000,2.000000,4.000000,4.000000,2.000000,4.000000,4.000000,4.000000,4.000000,4.000000,4.000000,4.000000,4.000000,66.666664,,,,,,,,,,,,,,,,,,,,,,,,,,,,,,,,,,,,,,,,,,,,,,,,,,,,,,,,,,,,,,,,,,,,,,,,,,,,,,,,,,,,,,,,,,,,,,,,,,,,,,,,,,,,,,,,,,,,,
1768202922.134497,1768202922.135368,39.000000,0.000000,4352.436035,4338.589844,4325.000000,4356.794922,4341.538574,4377.051270,4355.128418,4358.589844,4340.641113,4329.615234,4486.282227,4523.589844,4381.282227,4446.153809,0.000000,3.000000,58.000000,,,,0.000000,4.000000,4.000000,2.000000,4.000000,4.000000,2.000000,4.000000,4.000000,4.000000,4.000000,4.000000,4.000000,4.000000,4.000000,66.666664,,,,,,,,,,,,,,,,,,,,,,,,,,,,,,,,,,,,,,,,,,,,,,,,,,,,,,,,,,,,,,,,,,,,,,,,,,,,,,,,,,,,,,,,,,,,,,,,,,,,,,,,,,,,,,,,,,,,,
1768202922.142305,1768202922.143376,40.000000,0.000000,4354.358887,4344.358887,4326.538574,4359.615234,4343.077148,4377.307617,4355.641113,4357.692383,4343.205078,4332.692383,4485.769043,4522.692383,4380.769043,4448.461426,0.000000,3.000000,58.000000,,,,0.000000,4.000000,4.000000,2.000000,4.000000,4.000000,2.000000,4.000000,4.000000,4.000000,4.000000,4.000000,4.000000,4.000000,4.000000,66.666664,,,,,,,,,,,,,,,,,,,,,,,,,,,,,,,,,,,,,,,,,,,,,,,,,,,,,,,,,,,,,,,,,,,,,,,,,,,,,,,,,,,,,,,,,,,,,,,,,,,,,,,,,,,,,,,,,,,,,
1768202922.150114,1768202922.151185,41.000000,0.000000,4354.230957,4347.179688,4329.102539,4358.589844,4341.410156,4378.333496,4353.205078,4357.692383,4341.538574,4326.922852,4479.230957,4518.589844,4380.512695,4445.128418,0.000000,3.000000,58.000000,,,,0.000000,4.000000,4.000000,2.000000,4.000000,4.000000,2.000000,4.000000,4.000000,4.000000,4.000000,4.000000,4.000000,4.000000,4.000000,66.666664,,,,,,,,,,,,,,,,,,,,,,,,,,,,,,,,,,,,,,,,,,,,,,,,,,,,,,,,,,,,,,,,,,,,,,,,,,,,,,,,,,,,,,,,,,,,,,,,,,,,,,,,,,,,,,,,,,,,,
1768202922.157922,1768202922.159093,42.000000,0.000000,4353.974121,4343.846191,4326.794922,4357.051270,4340.641113,4378.717773,4352.820313,4363.077148,4341.538574,4323.461426,4475.512695,4519.230957,4378.846191,4443.974121,0.000000,3.000000,58.000000,,,,0.000000,4.000000,4.000000,2.000000,4.000000,4.000000,2.000000,4.000000,4.000000,4.000000,4.000000,4.000000,4.000000,4.000000,4.000000,66.666664,,,,,,,,,,,,,,,,,,,,,,,,,,,,,,,,,,,,,,,,,,,,,,,,,,,,,,,,,,,,,,,,,,,,,,,,,,,,,,,,,,,,,,,,,,,,,,,,,,,,,,,,,,,,,,,,,,,,,
1768202922.165731,1768202922.166902,43.000000,0.000000,4355.641113,4345.897461,4324.487305,4359.230957,4347.436035,4378.717773,4353.846191,4362.307617,4343.846191,4330.897461,4481.410156,4520.769043,4381.025879,4449.102539,0.000000,3.000000,58.000000,,,,0.000000,4.000000,4.000000,2.000000,4.000000,4.000000,2.000000,4.000000,4.000000,4.000000,4.000000,4.000000,4.000000,4.000000,4.000000,66.666664,,,,,,,,,,,,,,,,,,,,,,,,,,,,,,,,,,,,,,,,,,,,,,,,,,,,,,,,,,,,,,,,,,,,,,,,,,,,,,,,,,,,,,,,,,,,,,,,,,,,,,,,,,,,,,,,,,,,,
1768202922.173539,1768202922.174610,44.000000,0.000000,4356.666504,4350.384766,4325.897461,4358.589844,4347.820313,4379.487305,4349.615234,4352.692383,4341.410156,4335.897461,4490.256348,4520.256348,4384.743652,4451.410156,0.000000,3.000000,58.000000,,,,0.000000,4.000000,4.000000,2.000000,4.000000,4.000000,2.000000,4.000000,4.000000,4.000000,4.000000,4.000000,4.000000,4.000000,4.000000,66.666664,,,,,,,,,,,,,,,,,,,,,,,,,,,,,,,,,,,,,,,,,,,,,,,,,,,,,,,,,,,,,,,,,,,,,,,,,,,,,,,,,,,,,,,,,,,,,,,,,,,,,,,,,,,,,,,,,,,,,
1768202922.181347,1768202922.182419,45.000000,0.000000,4356.794922,4349.102539,4328.717773,4355.769043,4338.974121,4378.077148,4342.948730,4348.589844,4338.077148,4333.077148,4488.717773,4515.641113,4381.282227,4447.051270,0.000000,3.000000,58.000000,,,,0.000000,4.000000,4.000000,2.000000,4.000000,4.000000,2.000000,4.000000,4.000000,4.000000,4.000000,4.000000,4.000000,4.000000,4.000000,66.666664,,,,,,,,,,,,,,,,,,,,,,,,,,,,,,,,,,,,,,,,,,,,,,,,,,,,,,,,,,,,,,,,,,,,,,,,,,,,,,,,,,,,,,,,,,,,,,,,,,,,,,,,,,,,,,,,,,,,,
1768202922.189156,1768202922.190127,46.000000,0.000000,4357.179688,4347.820313,4330.000000,4358.077148,4338.461426,4377.692383,4340.256348,4350.897461,4340.128418,4327.948730,4480.512695,4513.589844,4379.871582,4448.077148,0.000000,3.000000,58.000000,,,,0.000000,4.000000,4.000000,2.000000,4.000000,4.000000,2.000000,4.000000,4.000000,4.000000,4.000000,4.000000,4.000000,4.000000,4.000000,66.666664,,,,,,,,,,,,,,,,,,,,,,,,,,,,,,,,,,,,,,,,,,,,,,,,0.195579,0.258615,0.161240,0.114303,0.159798,0.595602,0.401039,0.128261,0.144183,0.189731,0.075742,0.048309,0.044189,0.047424,0.040586,0.214453,0.262825,0.092010,0.116481,0.096685,0.294417,0.290135,0.193613,0.132756,0.049419,0.091362,0.050927,0.032521,0.041424,0.022272,0.868440,0.142793,0.054497,0.121040,0.070043,0.370800,0.276854,0.168292,0.164565,0.238597,0.259769,0.277678,0.153196,0.135638,0.153803,0.274951,0.571812,0.240466,0.141691,0.132140,0.348335,0.392117,0.342213,0.191562,0.166286,0.897711,0.184360,0.196338,0.128688,0.132329,0.747050,0.420216,0.181837,0.132012,0.158690,1.158764,0.504255,0.263940,0.149817,0.231421
1768202922.196964,1768202922.197936,47.000000,0.000000,4357.692383,4350.256348,4330.128418,4361.794922,4342.820313,4380.256348,4344.358887,4354.230957,4343.205078,4328.205078,4481.922852,4518.461426,4385.641113,4457.692383,0.000000,3.000000,58.000000,,,,0.000000,4.000000,4.000000,2.000000,4.000000,4.000000,2.000000,4.000000,4.000000,4.000000,4.000000,4.000000,4.000000,4.000000,4.000000,66.666664,,,,,,,,,,,,,,,,,,,,,,,,,,,,,,,,,,,,,,,,,,,,,,,,,,,,,,,,,,,,,,,,,,,,,,,,,,,,,,,,,,,,,,,,,,,,,,,,,,,,,,,,,,,,,,,,,,,,,
1768202922.204773,1768202922.205944,48.000000,0.000000,4357.948730,4354.230957,4331.410156,4363.077148,4342.692383,4379.230957,4352.948730,4361.666504,4343.846191,4332.820313,4490.256348,4522.692383,4391.666504,4460.897461,0.000000,3.000000,58.000000,,,,0.000000,4.000000,4.000000,2.000000,4.000000,4.000000,2.000000,4.000000,4.000000,4.000000,4.000000,4.000000,4.000000,4.000000,4.000000,66.666664,,,,,,,,,,,,,,,,,,,,,,,,,,,,,,,,,,,,,,,,,,,,,,,,,,,,,,,,,,,,,,,,,,,,,,,,,,,,,,,,,,,,,,,,,,,,,,,,,,,,,,,,,,,,,,,,,,,,,
1768202922.212581,1768202922.213752,49.000000,0.000000,4361.153809,4358.589844,4331.794922,4365.897461,4348.333496,4375.897461,4355.769043,4362.820313,4344.230957,4333.205078,4490.897461,4521.282227,4397.948730,4455.769043,0.000000,3.000000,58.000000,,,,0.000000,4.000000,4.000000,2.000000,4.000000,4.000000,2.000000,4.000000,4.000000,4.000000,4.000000,4.000000,4.000000,4.000000,4.000000,66.666664,,,,,,,,,,,,,,,,,,,,,,,,,,,,,,,,,,,,,,,,,,,,,,,,,,,,,,,,,,,,,,,,,,,,,,,,,,,,,,,,,,,,,,,,,,,,,,,,,,,,,,,,,,,,,,,,,,,,,
1768202922.220389,1768202922.221461,50.000000,0.000000,4365.769043,4359.230957,4331.153809,4364.615234,4352.820313,4376.538574,4352.563965,4352.307617,4343.205078,4327.820313,4484.358887,4516.794922,4405.000000,4457.051270,0.000000,3.000000,58.000000,,,,0.000000,4.000000,4.000000,2.000000,4.000000,4.000000,2.000000,4.000000,4.000000,4.000000,4.000000,4.000000,4.000000,4.000000,4.000000,66.666664,,,,,,,,,,,,,,,,,,,,,,,,,,,,,,,,,,,,,,,,,,,,,,,,,,,,,,,,,,,,,,,,,,,,,,,,,,,,,,,,,,,,,,,,,,,,,,,,,,,,,,,,,,,,,,,,,,,,,
1768202922.228198,1768202922.229269,51.000000,0.000000,4362.948730,4357.948730,4329.487305,4359.358887,4344.358887,4376.410156,4348.974121,4348.461426,4340.769043,4324.743652,4479.358887,4510.256348,4405.641113,4458.077148,0.000000,3.000000,58.000000,,,,0.000000,4.000000,4.000000,2.000000,4.000000,4.000000,2.000000,4.000000,4.000000,4.000000,4.000000,4.000000,4.000000,4.000000,4.000000,66.666664,,,,,,,,,,,,,,,,,,,,,,,,,,,,,,,,,,,,,,,,,,,,,,,,,,,,,,,,,,,,,,,,,,,,,,,,,,,,,,,,,,,,,,,,,,,,,,,,,,,,,,,,,,,,,,,,,,,,,
1768202922.236006,1768202922.236878,52.000000,0.000000,4355.256348,4356.666504,4327.051270,4358.974121,4338.461426,4372.820313,4345.000000,4352.051270,4340.641113,4325.128418,4478.077148,4503.974121,4400.384766,4448.717773,0.000000,3.000000,58.000000,,,,0.000000,4.000000,4.000000,2.000000,4.000000,4.000000,2.000000,4.000000,4.000000,4.000000,4.000000,4.000000,4.000000,4.000000,4.000000,66.666664,,,,,,,,,,,,,,,,,,,,,,,,,,,,,,,,,,,,,,,,,,,,,,,,,,,,,,,,,,,,,,,,,,,,,,,,,,,,,,,,,,,,,,,,,,,,,,,,,,,,,,,,,,,,,,,,,,,,,
1768202922.243815,1768202922.244686,53.000000,0.000000,4354.102539,4353.205078,4325.512695,4361.410156,4344.871582,4374.743652,4342.436035,4348.333496,4341.666504,4325.384766,4476.410156,4505.256348,4400.256348,4442.051270,0.000000,3.000000,58.000000,,,,0.000000,4.000000,4.000000,2.000000,4.000000,4.000000,2.000000,4.000000,4.000000,4.000000,4.000000,4.000000,4.000000,4.000000,4.000000,66.666664,,,,,,,,,,,,,,,,,,,,,,,,,,,,,,,,,,,,,,,,,,,,,,,,,,,,,,,,,,,,,,,,,,,,,,,,,,,,,,,,,,,,,,,,,,,,,,,,,,,,,,,,,,,,,,,,,,,,,
1768202922.251623,1768202922.252395,54.000000,0.000000,4356.922852,4351.666504,4324.102539,4359.615234,4348.974121,4376.794922,4342.820313,4347.179688,4341.794922,4322.820313,4473.589844,4507.179688,4403.333496,4443.333496,0.000000,3.000000,58.000000,,,,0.000000,4.000000,4.000000,2.000000,4.000000,4.000000,2.000000,4.000000,4.000000,4.000000,4.000000,4.000000,4.000000,4.000000,4.000000,66.666664,,,,,,,,,,,,,,,,,,,,,,,,,,,,,,,,,,,,,,,,,,,,,,,,,,,,,,,,,,,,,,,,,,,,,,,,,,,,,,,,,,,,,,,,,,,,,,,,,,,,,,,,,,,,,,,,,,,,,
1768202922.259432,1768202922.260203,55.000000,0.000000,4355.000000,4355.256348,4322.436035,4356.666504,4343.333496,4370.384766,4342.563965,4354.615234,4341.666504,4314.230957,4473.205078,4504.487305,4399.871582,4443.205078,0.000000,3.000000,58.000000,,,,0.000000,4.000000,4.000000,2.000000,4.000000,4.000000,2.000000,4.000000,4.000000,4.000000,4.000000,4.000000,4.000000,4.000000,4.000000,66.666664,,,,,,,,,,,,,,,,,,,,,,,,,,,,,,,,,,,,,,,,,,,,,,,,,,,,,,,,,,,,,,,,,,,,,,,,,,,,,,,,,,,,,,,,,,,,,,,,,,,,,,,,,,,,,,,,,,,,,
1768202922.267240,1768202922.268212,56.000000,0.000000,4353.333496,4355.384766,4321.153809,4356.538574,4338.589844,4367.051270,4341.282227,4352.563965,4342.563965,4313.589844,4473.461426,4503.205078,4395.769043,4439.230957,0.000000,3.000000,58.000000,,,,0.000000,4.000000,4.000000,2.000000,4.000000,4.000000,2.000000,4.000000,4.000000,4.000000,4.000000,4.000000,4.000000,4.000000,4.000000,66.666664,,,,,,,,,,,,,,,,,,,,,,,,,,,,,,,,,,,,,,,,,,,,,,,,,,,,,,,,,,,,,,,,,,,,,,,,,,,,,,,,,,,,,,,,,,,,,,,,,,,,,,,,,,,,,,,,,,,,,
1768202922.275048,1768202922.276020,57.000000,0.000000,4354.615234,4353.846191,4326.410156,4358.589844,4340.512695,4372.820313,4341.666504,4340.897461,4341.922852,4317.820313,4472.307617,4505.256348,4397.179688,4439.358887,0.000000,3.000000,58.000000,,,,0.000000,4.000000,4.000000,2.000000,4.000000,4.000000,2.000000,4.000000,4.000000,4.000000,4.000000,4.000000,4.000000,4.000000,4.000000,66.666664,,,,,,,,,,,,,,,,,,,,,,,,,,,,,,,,,,,,,,,,,,,,,,,,,,,,,,,,,,,,,,,,,,,,,,,,,,,,,,,,,,,,,,,,,,,,,,,,,,,,,,,,,,,,,,,,,,,,,
1768202922.282857,1768202922.283928,58.000000,0.000000,4357.563965,4357.692383,4331.410156,4364.102539,4344.102539,4374.871582,4341.666504,4339.230957,4339.487305,4314.615234,4473.974121,4506.794922,4400.384766,4445.512695,0.000000,3.000000,58.000000,,,,0.000000,4.000000,4.000000,2.000000,4.000000,4.000000,2.000000,4.000000,4.000000,4.000000,4.000000,4.000000,4.000000,4.000000,4.000000,66.666664,,,,,,,,,,,,,,,,,,,,,,,,,,,,,,,,,,,,,,,,,,,,,,,,,,,,,,,,,,,,,,,,,,,,,,,,,,,,,,,,,,,,,,,,,,,,,,,,,,,,,,,,,,,,,,,,,,,,,
1768202922.290665,1768202922.291737,59.000000,0.000000,4359.230957,4358.717773,4324.871582,4367.820313,4343.717773,4372.307617,4341.794922,4349.102539,4341.538574,4313.717773,4476.282227,4505.641113,4398.333496,4446.794922,0.000000,3.000000,58.000000,,,,0.000000,4.000000,4.000000,2.000000,4.000000,4.000000,2.000000,4.000000,4.000000,4.000000,4.000000,4.000000,4.000000,4.000000,4.000000,66.666664,,,,,,,,,,,,,,,,,,,,,,,,,,,,,,,,,,,,,,,,,,,,,,,,,,,,,,,,,,,,,,,,,,,,,,,,,,,,,,,,,,,,,,,,,,,,,,,,,,,,,,,,,,,,,,,,,,,,,
1768202922.298474,1768202922.299745,60.000000,0.000000,4353.846191,4353.205078,4319.102539,4360.769043,4341.282227,4372.307617,4342.307617,4351.025879,4342.563965,4317.820313,4474.358887,4504.358887,4393.589844,4441.282227,0.000000,3.000000,58.000000,,,,0.000000,4.000000,4.000000,2.000000,4.000000,4.000000,2.000000,4.000000,4.000000,4.000000,4.000000,4.000000,4.000000,4.000000,4.000000,66.666664,,,,,,,,,,,,,,,,,,,,,,,,,,,,,,,,,,,,,,,,,,,,,,,,,,,,,,,,,,,,,,,,,,,,,,,,,,,,,,,,,,,,,,,,,,,,,,,,,,,,,,,,,,,,,,,,,,,,,
1768202922.306282,1768202922.307554,61.000000,0.000000,4355.641113,4355.512695,4324.102539,4357.948730,4345.256348,4372.692383,4343.205078,4343.846191,4340.000000,4322.307617,4474.615234,4507.179688,4399.743652,4448.589844,0.000000,3.000000,58.000000,,,,0.000000,4.000000,4.000000,2.000000,4.000000,4.000000,2.000000,4.000000,4.000000,4.000000,4.000000,4.000000,4.000000,4.000000,4.000000,66.666664,,,,,,,,,,,,,,,,,,,,,,,,,,,,,,,,,,,,,,,,,,,,,,,,,,,,,,,,,,,,,,,,,,,,,,,,,,,,,,,,,,,,,,,,,,,,,,,,,,,,,,,,,,,,,,,,,,,,,
1768202922.314091,1768202922.315262,62.000000,0.000000,4370.384766,4367.307617,4328.333496,4370.769043,4356.282227,4372.179688,4347.436035,4345.128418,4342.436035,4328.461426,4483.333496,4513.077148,4413.461426,4464.358887,0.000000,3.000000,58.000000,,,,0.000000,4.000000,4.000000,2.000000,4.000000,4.000000,2.000000,4.000000,4.000000,4.000000,4.000000,4.000000,4.000000,4.000000,4.000000,66.666664,,,,,,,,,,,,,,,,,,,,,,,,,,,,,,,,,,,,,,,,,,,,,,,,0.218734,0.312180,0.158912,0.102982,0.140457,0.697766,0.465005,0.103395,0.121377,0.167330,0.091679,0.044262,0.033816,0.042963,0.037325,0.291081,0.269858,0.111019,0.110271,0.090038,0.334441,0.344181,0.198858,0.124061,0.057078,0.112029,0.058439,0.038791,0.043257,0.025209,0.892736,0.170923,0.052113,0.127947,0.073075,0.361762,0.365897,0.150584,0.174450,0.227249,0.233828,0.324670,0.145310,0.124142,0.144064,0.254494,0.552865,0.239603,0.141176,0.132352,0.282869,0.378535,0.316466,0.192536,0.172114,0.855108,0.199133,0.141690,0.138483,0.141741,0.791219,0.376980,0.161657,0.130905,0.163225,1.082358,0.546082,0.241649,0.160813,0.234829
1768202922.321899,1768202922.323071,63.000000,0.000000,4371.922852,4370.256348,4326.025879,4378.717773,4360.384766,4374.615234,4352.436035,4352.563965,4347.179688,4332.051270,4490.769043,4511.922852,4416.025879,4461.922852,0.000000,3.000000,58.000000,,,,0.000000,4.000000,4.000000,2.000000,4.000000,4.000000,2.000000,4.000000,4.000000,4.000000,4.000000,4.000000,4.000000,4.000000,4.000000,66.666664,,,,,,,,,,,,,,,,,,,,,,,,,,,,,,,,,,,,,,,,,,,,,,,,,,,,,,,,,,,,,,,,,,,,,,,,,,,,,,,,,,,,,,,,,,,,,,,,,,,,,,,,,,,,,,,,,,,,,
1768202922.329708,1768202922.331079,64.000000,0.000000,4356.666504,4359.871582,4327.436035,4370.128418,4353.333496,4374.358887,4352.307617,4356.153809,4346.282227,4324.102539,4487.563965,4504.743652,4409.358887,4450.000000,876.000000,3.000000,58.000000,,,,0.000000,4.000000,4.000000,2.000000,4.000000,4.000000,2.000000,4.000000,4.000000,4.000000,4.000000,4.000000,4.000000,4.000000,4.000000,66.666664,,,,,,,,,,,,,,,,,,,,,,,,,,,,,,,,,,,,,,,,,,,,,,,,,,,,,,,,,,,,,,,,,,,,,,,,,,,,,,,,,,,,,,,,,,,,,,,,,,,,,,,,,,,,,,,,,,,,,
1768202922.337516,1768202922.338887,65.000000,0.000000,4355.512695,4354.487305,4327.820313,4362.820313,4347.307617,4366.922852,4347.179688,4357.307617,4348.846191,4322.948730,4486.025879,4510.641113,4411.153809,4453.589844,2852.000000,3.000000,58.000000,,,,0.000000,4.000000,4.000000,2.000000,4.000000,4.000000,2.000000,4.000000,4.000000,4.000000,4.000000,4.000000,4.000000,4.000000,4.000000,66.666664,,,,,,,,,,,,,,,,,,,,,,,,,,,,,,,,,,,,,,,,,,,,,,,,,,,,,,,,,,,,,,,,,,,,,,,,,,,,,,,,,,,,,,,,,,,,,,,,,,,,,,,,,,,,,,,,,,,,,
1768202922.345324,1768202922.346796,66.000000,0.000000,4363.974121,4358.205078,4323.974121,4365.897461,4350.897461,4366.282227,4343.077148,4355.641113,4351.410156,4334.487305,4491.794922,4520.256348,4416.410156,4463.589844,3759.000000,3.000000,58.000000,,,,0.000000,4.000000,4.000000,2.000000,4.000000,4.000000,2.000000,4.000000,4.000000,4.000000,4.000000,4.000000,4.000000,4.000000,4.000000,66.666664,,,,,,,,,,,,,,,,,,,,,,,,,,,,,,,,,,,,,,,,,,,,,,,,,,,,,,,,,,,,,,,,,,,,,,,,,,,,,,,,,,,,,,,,,,,,,,,,,,,,,,,,,,,,,,,,,,,,,
1768202922.353133,1768202922.354604,67.000000,0.000000,4357.692383,4357.436035,4326.410156,4369.615234,4355.384766,4372.307617,4341.794922,4352.179688,4346.410156,4336.666504,4492.563965,4513.974121,4415.256348,4458.077148,3682.000000,3.000000,58.000000,,,,0.000000,4.000000,4.000000,2.000000,4.000000,4.000000,2.000000,4.000000,4.000000,4.000000,4.000000,4.000000,4.000000,4.000000,4.000000,66.666664,,,,,,,,,,,,,,,,,,,,,,,,,,,,,,,,,,,,,,,,,,,,,,,,,,,,,,,,,,,,,,,,,,,,,,,,,,,,,,,,,,,,,,,,,,,,,,,,,,,,,,,,,,,,,,,,,,,,,
1768202922.360941,1768202922.362213,68.000000,0.000000,4353.077148,4355.256348,4330.384766,4370.384766,4354.102539,4371.282227,4343.846191,4356.922852,4347.820313,4329.487305,4489.871582,4503.205078,4410.769043,4444.615234,3722.000000,3.000000,58.000000,,,,0.000000,4.000000,4.000000,2.000000,4.000000,4.000000,2.000000,4.000000,4.000000,4.000000,4.000000,4.000000,4.000000,4.000000,4.000000,66.666664,,,,,,,,,,,,,,,,,,,,,,,,,,,,,,,,,,,,,,,,,,,,,,,,,,,,,,,,,,,,,,,,,,,,,,,,,,,,,,,,,,,,,,,,,,,,,,,,,,,,,,,,,,,,,,,,,,,,,
1768202922.368750,1768202922.370021,69.000000,0.000000,4362.436035,4360.128418,4330.897461,4368.077148,4352.692383,4368.974121,4347.179688,4357.179688,4351.025879,4329.102539,4487.307617,4506.922852,4409.487305,4447.051270,749.000000,3.000000,58.000000,,,,0.000000,4.000000,4.000000,2.000000,4.000000,4.000000,2.000000,4.000000,4.000000,4.000000,4.000000,4.000000,4.000000,4.000000,4.000000,66.666664,,,,,,,,,,,,,,,,,,,,,,,,,,,,,,,,,,,,,,,,,,,,,,,,,,,,,,,,,,,,,,,,,,,,,,,,,,,,,,,,,,,,,,,,,,,,,,,,,,,,,,,,,,,,,,,,,,,,,
1768202922.376558,1768202922.377730,70.000000,0.000000,4369.743652,4367.307617,4330.000000,4366.153809,4354.230957,4371.922852,4349.102539,4350.641113,4347.820313,4338.461426,4489.743652,4519.615234,4418.461426,4468.461426,3976.000000,3.000000,58.000000,,,,0.000000,4.000000,4.000000,2.000000,4.000000,4.000000,2.000000,4.000000,4.000000,4.000000,4.000000,4.000000,4.000000,4.000000,4.000000,66.666664,,,,,,,,,,,,,,,,,,,,,,,,,,,,,,,,,,,,,,,,,,,,,,,,,,,,,,,,,,,,,,,,,,,,,,,,,,,,,,,,,,,,,,,,,,,,,,,,,,,,,,,,,,,,,,,,,,,,,
1768202922.384366,1768202922.385538,71.000000,0.000000,4373.205078,4372.436035,4329.358887,4369.487305,4356.153809,4375.000000,4356.282227,4357.692383,4352.436035,4344.615234,4503.077148,4527.563965,4431.410156,4476.666504,4111.000000,3.000000,58.000000,,,,0.000000,4.000000,4.000000,2.000000,4.000000,4.000000,2.000000,4.000000,4.000000,4.000000,4.000000,4.000000,4.000000,4.000000,4.000000,66.666664,,,,,,,,,,,,,,,,,,,,,,,,,,,,,,,,,,,,,,,,,,,,,,,,,,,,,,,,,,,,,,,,,,,,,,,,,,,,,,,,,,,,,,,,,,,,,,,,,,,,,,,,,,,,,,,,,,,,,
1768202922.392175,1768202922.393546,72.000000,0.000000,4374.230957,4372.051270,4328.461426,4373.205078,4357.051270,4374.487305,4358.846191,4366.025879,4359.230957,4343.077148,4505.897461,4525.128418,4430.128418,4461.794922,4079.000000,3.000000,58.000000,,,,0.000000,4.000000,4.000000,2.000000,4.000000,4.000000,2.000000,4.000000,4.000000,4.000000,4.000000,4.000000,4.000000,4.000000,4.000000,66.666664,,,,,,,,,,,,,,,,,,,,,,,,,,,,,,,,,,,,,,,,,,,,,,,,,,,,,,,,,,,,,,,,,,,,,,,,,,,,,,,,,,,,,,,,,,,,,,,,,,,,,,,,,,,,,,,,,,,,,
1768202922.399983,1768202922.401355,73.000000,0.000000,4367.820313,4365.512695,4328.717773,4372.563965,4357.051270,4370.641113,4351.794922,4361.153809,4357.307617,4342.051270,4497.820313,4521.794922,4422.436035,4456.666504,4114.000000,3.000000,58.000000,,,,0.000000,4.000000,4.000000,2.000000,4.000000,4.000000,2.000000,4.000000,4.000000,4.000000,4.000000,4.000000,4.000000,4.000000,4.000000,66.666664,,,,,,,,,,,,,,,,,,,,,,,,,,,,,,,,,,,,,,,,,,,,,,,,,,,,,,,,,,,,,,,,,,,,,,,,,,,,,,,,,,,,,,,,,,,,,,,,,,,,,,,,,,,,,,,,,,,,,
1768202922.407792,1768202922.409263,74.000000,0.000000,4367.179688,4364.743652,4331.025879,4372.307617,4357.948730,4368.461426,4346.153809,4355.897461,4353.846191,4341.794922,4498.461426,4526.410156,4422.948730,4465.256348,4286.000000,3.000000,58.000000,,,,0.000000,4.000000,4.000000,2.000000,4.000000,4.000000,2.000000,4.000000,4.000000,4.000000,4.000000,4.000000,4.000000,4.000000,4.000000,66.666664,,,,,,,,,,,,,,,,,,,,,,,,,,,,,,,,,,,,,,,,,,,,,,,,,,,,,,,,,,,,,,,,,,,,,,,,,,,,,,,,,,,,,,,,,,,,,,,,,,,,,,,,,,,,,,,,,,,,,
1768202922.415600,1768202922.417072,75.000000,0.000000,4373.077148,4369.871582,4330.512695,4374.743652,4359.102539,4373.077148,4344.871582,4350.000000,4350.384766,4337.436035,4500.256348,4526.153809,4422.307617,4464.871582,4769.000000,3.000000,58.000000,,,,0.000000,4.000000,4.000000,2.000000,4.000000,4.000000,2.000000,4.000000,4.000000,4.000000,4.000000,4.000000,4.000000,4.000000,4.000000,66.666664,,,,,,,,,,,,,,,,,,,,,,,,,,,,,,,,,,,,,,,,,,,,,,,,,,,,,,,,,,,,,,,,,,,,,,,,,,,,,,,,,,,,,,,,,,,,,,,,,,,,,,,,,,,,,,,,,,,,,
1768202922.423409,1768202922.424680,76.000000,0.000000,4365.384766,4368.205078,4329.230957,4373.205078,4357.307617,4373.589844,4344.615234,4345.000000,4346.410156,4331.922852,4492.051270,4515.128418,4416.025879,4458.461426,5227.000000,3.000000,58.000000,,,,0.000000,4.000000,4.000000,2.000000,4.000000,4.000000,2.000000,4.000000,4.000000,4.000000,4.000000,4.000000,4.000000,4.000000,4.000000,66.666664,,,,,,,,,,,,,,,,,,,,,,,,,,,,,,,,,,,,,,,,,,,,,,,,,,,,,,,,,,,,,,,,,,,,,,,,,,,,,,,,,,,,,,,,,,,,,,,,,,,,,,,,,,,,,,,,,,,,,
1768202922.431217,1768202922.432489,77.000000,0.000000,4356.410156,4362.436035,4328.846191,4368.205078,4354.358887,4369.615234,4352.051270,4353.846191,4351.025879,4337.051270,4489.358887,4514.358887,4413.205078,4459.358887,4398.000000,3.000000,58.000000,,,,0.000000,4.000000,4.000000,2.000000,4.000000,4.000000,2.000000,4.000000,4.000000,4.000000,4.000000,4.000000,4.000000,4.000000,4.000000,66.666664,,,,,,,,,,,,,,,,,,,,,,,,,,,,,,,,,,,,,,,,,,,,,,,,,,,,,,,,,,,,,,,,,,,,,,,,,,,,,,,,,,,,,,,,,,,,,,,,,,,,,,,,,,,,,,,,,,,,,
1768202922.439026,1768202922.440397,78.000000,0.000000,4362.307617,4361.025879,4325.128418,4364.871582,4355.256348,4371.922852,4360.512695,4361.794922,4355.384766,4343.333496,4498.974121,4520.641113,4412.179688,4459.615234,4286.000000,3.000000,58.000000,,,,0.000000,4.000000,4.000000,2.000000,4.000000,4.000000,2.000000,4.000000,4.000000,4.000000,4.000000,4.000000,4.000000,4.000000,4.000000,66.666664,1.000000,33.333332,4.000000,4.000000,0.000000,4.000000,4.000000,0.000000,4.000000,4.000000,4.000000,4.000000,4.000000,4.000000,4.000000,4.000000,,,,,,,,,,,,,,,,,,,,,,,,,,,,,,,,0.289368,0.364718,0.160375,0.095353,0.129695,0.782538,0.510654,0.101714,0.100682,0.143641,0.108503,0.041120,0.027693,0.038255,0.033909,0.379981,0.270002,0.126022,0.101220,0.084833,0.380547,0.390906,0.193414,0.112808,0.067285,0.126363,0.066145,0.042051,0.042503,0.027849,0.880065,0.215661,0.061158,0.132408,0.079342,0.349031,0.450834,0.128380,0.192044,0.218249,0.210397,0.357543,0.126519,0.114963,0.131066,0.234015,0.492083,0.215682,0.140101,0.131670,0.266192,0.346149,0.275601,0.193978,0.179884,0.830391,0.229057,0.118702,0.157123,0.151343,0.818136,0.329682,0.156681,0.131867,0.162098,0.998049,0.568749,0.220260,0.181620,0.239048
1768202922.446834,1768202922.448206,79.000000,0.000000,4365.256348,4359.615234,4322.692383,4364.102539,4356.410156,4373.077148,4356.666504,4357.179688,4353.589844,4340.256348,4503.461426,4522.948730,4415.128418,4460.512695,4769.000000,3.000000,58.000000,,,,0.000000,4.000000,4.000000,2.000000,4.000000,4.000000,2.000000,4.000000,4.000000,4.000000,4.000000,4.000000,4.000000,4.000000,4.000000,66.666664,,,,,,,,,,,,,,,,,,,,,,,,,,,,,,,,,,,,,,,,,,,,,,,,,,,,,,,,,,,,,,,,,,,,,,,,,,,,,,,,,,,,,,,,,,,,,,,,,,,,,,,,,,,,,,,,,,,,,
1768202922.454642,1768202922.456214,80.000000,0.000000,4358.205078,4357.307617,4327.436035,4366.666504,4355.256348,4371.410156,4353.077148,4356.538574,4353.333496,4335.897461,4497.948730,4523.717773,4419.358887,4466.538574,5227.000000,3.000000,58.000000,,,,0.000000,4.000000,4.000000,2.000000,4.000000,4.000000,2.000000,4.000000,4.000000,4.000000,4.000000,4.000000,4.000000,4.000000,4.000000,66.666664,,,,,,,,,,,,,,,,,,,,,,,,,,,,,,,,,,,,,,,,,,,,,,,,,,,,,,,,,,,,,,,,,,,,,,,,,,,,,,,,,,,,,,,,,,,,,,,,,,,,,,,,,,,,,,,,,,,,,
1768202922.462451,1768202922.464022,81.000000,0.000000,4353.846191,4356.538574,4330.256348,4366.153809,4352.563965,4373.846191,4356.922852,4356.410156,4348.461426,4331.538574,4489.615234,4516.538574,4413.461426,4464.871582,4398.000000,3.000000,58.000000,,,,0.000000,4.000000,4.000000,2.000000,4.000000,4.000000,2.000000,4.000000,4.000000,4.000000,4.000000,4.000000,4.000000,4.000000,4.000000,66.666664,,,,,,,,,,,,,,,,,,,,,,,,,,,,,,,,,,,,,,,,,,,,,,,,,,,,,,,,,,,,,,,,,,,,,,,,,,,,,,,,,,,,,,,,,,,,,,,,,,,,,,,,,,,,,,,,,,,,,
1768202922.470259,1768202922.471931,82.000000,0.000000,4357.948730,4357.051270,4328.077148,4363.077148,4350.000000,4374.487305,4354.615234,4352.948730,4341.025879,4326.538574,4488.333496,4509.487305,4406.666504,4457.436035,4286.000000,3.000000,58.000000,,,,0.000000,4.000000,4.000000,2.000000,4.000000,4.000000,2.000000,4.000000,4.000000,4.000000,4.000000,4.000000,4.000000,4.000000,4.000000,66.666664,,,,,,,,,,,,,,,,,,,,,,,,,,,,,,,,,,,,,,,,,,,,,,,,,,,,,,,,,,,,,,,,,,,,,,,,,,,,,,,,,,,,,,,,,,,,,,,,,,,,,,,,,,,,,,,,,,,,,
1768202922.478068,1768202922.479739,83.000000,0.000000,4362.692383,4358.461426,4328.717773,4363.717773,4349.358887,4370.897461,4345.128418,4354.615234,4343.974121,4326.410156,4491.410156,4517.436035,4410.000000,4458.717773,4769.000000,3.000000,58.000000,,,,0.000000,4.000000,4.000000,2.000000,4.000000,4.000000,2.000000,4.000000,4.000000,4.000000,4.000000,4.000000,4.000000,4.000000,4.000000,66.666664,,,,,,,,,,,,,,,,,,,,,,,,,,,,,,,,,,,,,,,,,,,,,,,,,,,,,,,,,,,,,,,,,,,,,,,,,,,,,,,,,,,,,,,,,,,,,,,,,,,,,,,,,,,,,,,,,,,,,
1768202922.485876,1768202922.487747,84.000000,0.000000,4361.538574,4358.333496,4330.256348,4363.846191,4349.615234,4370.256348,4340.256348,4352.820313,4350.000000,4329.102539,4491.922852,4526.153809,4414.102539,4463.589844,5227.000000,3.000000,58.000000,,,,0.000000,4.000000,4.000000,2.000000,4.000000,4.000000,2.000000,4.000000,4.000000,4.000000,4.000000,4.000000,4.000000,4.000000,4.000000,66.666664,,,,,,,,,,,,,,,,,,,,,,,,,,,,,,,,,,,,,,,,,,,,,,,,,,,,,,,,,,,,,,,,,,,,,,,,,,,,,,,,,,,,,,,,,,,,,,,,,,,,,,,,,,,,,,,,,,,,,
1768202922.493684,1768202922.495556,85.000000,0.000000,4357.692383,4355.512695,4327.563965,4357.436035,4349.487305,4372.692383,4346.025879,4350.512695,4349.487305,4329.102539,4493.077148,4520.384766,4412.179688,4463.589844,4398.000000,3.000000,58.000000,,,,0.000000,4.000000,4.000000,2.000000,4.000000,4.000000,2.000000,4.000000,4.000000,4.000000,4.000000,4.000000,4.000000,4.000000,4.000000,66.666664,,,,,,,,,,,,,,,,,,,,,,,,,,,,,,,,,,,,,,,,,,,,,,,,,,,,,,,,,,,,,,,,,,,,,,,,,,,,,,,,,,,,,,,,,,,,,,,,,,,,,,,,,,,,,,,,,,,,,
1768202922.501493,1768202922.503464,86.000000,0.000000,4356.794922,4355.128418,4325.897461,4353.974121,4347.692383,4372.948730,4353.205078,4354.871582,4348.461426,4330.769043,4491.538574,4515.384766,4408.717773,4459.871582,4286.000000,3.000000,58.000000,,,,0.000000,4.000000,4.000000,2.000000,4.000000,4.000000,2.000000,4.000000,4.000000,4.000000,4.000000,4.000000,4.000000,4.000000,4.000000,66.666664,,,,,,,,,,,,,,,,,,,,,,,,,,,,,,,,,,,,,,,,,,,,,,,,,,,,,,,,,,,,,,,,,,,,,,,,,,,,,,,,,,,,,,,,,,,,,,,,,,,,,,,,,,,,,,,,,,,,,
1768202922.509301,1768202922.511272,87.000000,0.000000,4358.589844,4356.666504,4328.333496,4361.666504,4350.769043,4371.794922,4356.153809,4358.846191,4351.410156,4335.384766,4489.358887,4521.025879,4408.974121,4457.692383,4769.000000,3.000000,58.000000,,,,0.000000,4.000000,4.000000,2.000000,4.000000,4.000000,2.000000,4.000000,4.000000,4.000000,4.000000,4.000000,4.000000,4.000000,4.000000,66.666664,,,,,,,,,,,,,,,,,,,,,,,,,,,,,,,,,,,,,,,,,,,,,,,,,,,,,,,,,,,,,,,,,,,,,,,,,,,,,,,,,,,,,,,,,,,,,,,,,,,,,,,,,,,,,,,,,,,,,
1768202922.517110,1768202922.519281,88.000000,0.000000,4362.436035,4358.205078,4329.871582,4368.461426,4358.974121,4374.102539,4358.077148,4361.922852,4355.128418,4339.230957,4495.769043,4526.282227,4412.051270,4465.128418,5227.000000,3.000000,58.000000,,,,0.000000,4.000000,4.000000,2.000000,4.000000,4.000000,2.000000,4.000000,4.000000,4.000000,4.000000,4.000000,4.000000,4.000000,4.000000,66.666664,,,,,,,,,,,,,,,,,,,,,,,,,,,,,,,,,,,,,,,,,,,,,,,,,,,,,,,,,,,,,,,,,,,,,,,,,,,,,,,,,,,,,,,,,,,,,,,,,,,,,,,,,,,,,,,,,,,,,
1768202922.524918,1768202922.527089,89.000000,0.000000,4366.922852,4358.589844,4328.077148,4364.743652,4355.384766,4376.538574,4357.563965,4365.512695,4358.717773,4342.307617,4507.051270,4527.307617,4413.077148,4477.692383,4398.000000,3.000000,58.000000,,,,0.000000,4.000000,4.000000,2.000000,4.000000,4.000000,2.000000,4.000000,4.000000,4.000000,4.000000,4.000000,4.000000,4.000000,4.000000,66.666664,,,,,,,,,,,,,,,,,,,,,,,,,,,,,,,,,,,,,,,,,,,,,,,,,,,,,,,,,,,,,,,,,,,,,,,,,,,,,,,,,,,,,,,,,,,,,,,,,,,,,,,,,,,,,,,,,,,,,
1768202922.532727,1768202922.534798,90.000000,0.000000,4366.922852,4358.077148,4325.000000,4360.512695,4340.384766,4372.948730,4355.256348,4361.666504,4356.666504,4338.077148,4505.256348,4526.794922,4414.102539,4474.871582,4286.000000,3.000000,58.000000,,,,0.000000,4.000000,4.000000,2.000000,4.000000,4.000000,2.000000,4.000000,4.000000,4.000000,4.000000,4.000000,4.000000,4.000000,4.000000,66.666664,,,,,,,,,,,,,,,,,,,,,,,,,,,,,,,,,,,,,,,,,,,,,,,,,,,,,,,,,,,,,,,,,,,,,,,,,,,,,,,,,,,,,,,,,,,,,,,,,,,,,,,,,,,,,,,,,,,,,
1768202922.540535,1768202922.542606,91.000000,0.000000,4361.794922,4357.436035,4325.128418,4361.794922,4340.256348,4368.461426,4355.384766,4355.128418,4349.358887,4329.743652,4492.563965,4520.769043,4412.563965,4459.615234,4769.000000,3.000000,58.000000,,,,0.000000,4.000000,4.000000,2.000000,4.000000,4.000000,2.000000,4.000000,4.000000,4.000000,4.000000,4.000000,4.000000,4.000000,4.000000,66.666664,,,,,,,,,,,,,,,,,,,,,,,,,,,,,,,,,,,,,,,,,,,,,,,,,,,,,,,,,,,,,,,,,,,,,,,,,,,,,,,,,,,,,,,,,,,,,,,,,,,,,,,,,,,,,,,,,,,,,
1768202922.548343,1768202922.550215,92.000000,0.000000,4358.717773,4357.179688,4328.461426,4362.179688,4353.333496,4370.128418,4356.922852,4358.077148,4348.461426,4329.487305,4489.358887,4512.051270,4404.871582,4454.230957,5227.000000,3.000000,58.000000,,,,0.000000,4.000000,4.000000,2.000000,4.000000,4.000000,2.000000,4.000000,4.000000,4.000000,4.000000,4.000000,4.000000,4.000000,4.000000,66.666664,,,,,,,,,,,,,,,,,,,,,,,,,,,,,,,,,,,,,,,,,,,,,,,,,,,,,,,,,,,,,,,,,,,,,,,,,,,,,,,,,,,,,,,,,,,,,,,,,,,,,,,,,,,,,,,,,,,,,
1768202922.556152,1768202922.558023,93.000000,0.000000,4357.948730,4357.948730,4329.487305,4363.077148,4356.538574,4373.077148,4356.666504,4360.641113,4351.922852,4335.000000,4493.589844,4513.974121,4403.974121,4457.692383,4398.000000,3.000000,58.000000,,,,0.000000,4.000000,4.000000,2.000000,4.000000,4.000000,2.000000,4.000000,4.000000,4.000000,4.000000,4.000000,4.000000,4.000000,4.000000,66.666664,,,,,,,,,,,,,,,,,,,,,,,,,,,,,,,,,,,,,,,,,,,,,,,,,,,,,,,,,,,,,,,,,,,,,,,,,,,,,,,,,,,,,,,,,,,,,,,,,,,,,,,,,,,,,,,,,,,,,
1768202922.563960,1768202922.565732,94.000000,0.000000,4357.563965,4357.563965,4329.743652,4367.948730,4352.307617,4372.692383,4355.512695,4356.794922,4350.256348,4336.153809,4498.589844,4523.077148,4413.205078,4459.358887,4286.000000,3.000000,58.000000,,,,0.000000,4.000000,4.000000,2.000000,4.000000,4.000000,2.000000,4.000000,4.000000,4.000000,4.000000,4.000000,4.000000,4.000000,4.000000,66.666664,,,,,,,,,,,,,,,,,,,,,,,,,,,,,,,,,,,,,,,,,,,,,,,,0.360760,0.407636,0.164993,0.094319,0.129162,0.793012,0.532557,0.110544,0.085099,0.123278,0.121062,0.039419,0.026585,0.034792,0.030552,0.445268,0.270584,0.132085,0.093042,0.081149,0.408249,0.415552,0.177411,0.102358,0.078630,0.131994,0.073022,0.042086,0.038997,0.030102,0.832235,0.276857,0.095688,0.134375,0.088989,0.336191,0.512293,0.112879,0.218442,0.214041,0.195627,0.367051,0.103483,0.109513,0.117121,0.226926,0.408136,0.175761,0.137540,0.131769,0.290913,0.307432,0.236372,0.196404,0.189621,0.829453,0.261126,0.122884,0.182186,0.157605,0.796362,0.304313,0.173389,0.139293,0.157573,0.922886,0.566047,0.200214,0.212936,0.248475
1768202922.571769,1768202922.573540,95.000000,0.000000,4360.897461,4355.000000,4329.871582,4368.717773,4350.897461,4372.563965,4352.179688,4357.051270,4347.820313,4334.743652,4502.179688,4522.948730,4414.615234,4464.358887,4769.000000,3.000000,58.000000,,,,0.000000,4.000000,4.000000,2.000000,4.000000,4.000000,2.000000,4.000000,4.000000,4.000000,4.000000,4.000000,4.000000,4.000000,4.000000,66.666664,,,,,,,,,,,,,,,,,,,,,,,,,,,,,,,,,,,,,,,,,,,,,,,,,,,,,,,,,,,,,,,,,,,,,,,,,,,,,,,,,,,,,,,,,,,,,,,,,,,,,,,,,,,,,,,,,,,,,
1768202922.579577,1768202922.581149,96.000000,0.000000,4364.487305,4355.641113,4328.846191,4363.717773,4350.897461,4371.666504,4349.871582,4358.846191,4350.000000,4338.333496,4498.205078,4515.897461,4411.538574,4462.051270,5227.000000,3.000000,58.000000,,,,0.000000,4.000000,4.000000,2.000000,4.000000,4.000000,2.000000,4.000000,4.000000,4.000000,4.000000,4.000000,4.000000,4.000000,4.000000,66.666664,,,,,,,,,,,,,,,,,,,,,,,,,,,,,,,,,,,,,,,,,,,,,,,,,,,,,,,,,,,,,,,,,,,,,,,,,,,,,,,,,,,,,,,,,,,,,,,,,,,,,,,,,,,,,,,,,,,,,
1768202922.587386,1768202922.588957,97.000000,0.000000,4360.512695,4357.948730,4327.051270,4360.512695,4353.974121,4371.666504,4353.461426,4359.871582,4352.692383,4343.589844,4490.641113,4510.897461,4412.179688,4446.794922,4398.000000,3.000000,58.000000,,,,0.000000,4.000000,4.000000,2.000000,4.000000,4.000000,2.000000,4.000000,4.000000,4.000000,4.000000,4.000000,4.000000,4.000000,4.000000,66.666664,,,,,,,,,,,,,,,,,,,,,,,,,,,,,,,,,,,,,,,,,,,,,,,,,,,,,,,,,,,,,,,,,,,,,,,,,,,,,,,,,,,,,,,,,,,,,,,,,,,,,,,,,,,,,,,,,,,,,
1768202922.595194,1768202922.596666,98.000000,0.000000,4353.846191,4356.025879,4326.538574,4361.794922,4358.333496,4375.128418,4356.410156,4360.128418,4349.487305,4341.666504,4491.410156,4506.153809,4409.871582,4442.692383,4286.000000,3.000000,58.000000,,,,0.000000,4.000000,4.000000,2.000000,4.000000,4.000000,2.000000,4.000000,4.000000,4.000000,4.000000,4.000000,4.000000,4.000000,4.000000,66.666664,,,,,,,,,,,,,,,,,,,,,,,,,,,,,,,,,,,,,,,,,,,,,,,,,,,,,,,,,,,,,,,,,,,,,,,,,,,,,,,,,,,,,,,,,,,,,,,,,,,,,,,,,,,,,,,,,,,,,
1768202922.603002,1768202922.604474,99.000000,0.000000,4355.769043,4354.358887,4329.230957,4365.769043,4358.589844,4376.538574,4355.641113,4359.871582,4344.615234,4334.487305,4496.794922,4508.589844,4408.461426,4456.025879,4769.000000,3.000000,58.000000,,,,0.000000,4.000000,4.000000,2.000000,4.000000,4.000000,2.000000,4.000000,4.000000,4.000000,4.000000,4.000000,4.000000,4.000000,4.000000,66.666664,,,,,,,,,,,,,,,,,,,,,,,,,,,,,,,,,,,,,,,,,,,,,,,,,,,,,,,,,,,,,,,,,,,,,,,,,,,,,,,,,,,,,,,,,,,,,,,,,,,,,,,,,,,,,,,,,,,,,
1768202922.610811,1768202922.612483,100.000000,0.000000,4361.666504,4358.077148,4331.282227,4367.436035,4359.102539,4374.871582,4357.179688,4359.615234,4344.871582,4333.846191,4495.641113,4518.205078,4413.077148,4462.820313,5227.000000,3.000000,58.000000,,,,0.000000,4.000000,4.000000,2.000000,4.000000,4.000000,2.000000,4.000000,4.000000,4.000000,4.000000,4.000000,4.000000,4.000000,4.000000,66.666664,,,,,,,,,,,,,,,,,,,,,,,,,,,,,,,,,,,,,,,,,,,,,,,,,,,,,,,,,,,,,,,,,,,,,,,,,,,,,,,,,,,,,,,,,,,,,,,,,,,,,,,,,,,,,,,,,,,,,
1768202922.618619,1768202922.620291,101.000000,0.000000,4360.256348,4358.077148,4329.102539,4364.743652,4357.307617,4372.692383,4358.846191,4361.666504,4348.077148,4339.487305,4491.410156,4520.769043,4411.153809,4458.205078,4398.000000,3.000000,58.000000,,,,0.000000,4.000000,4.000000,2.000000,4.000000,4.000000,2.000000,4.000000,4.000000,4.000000,4.000000,4.000000,4.000000,4.000000,4.000000,66.666664,,,,,,,,,,,,,,,,,,,,,,,,,,,,,,,,,,,,,,,,,,,,,,,,,,,,,,,,,,,,,,,,,,,,,,,,,,,,,,,,,,,,,,,,,,,,,,,,,,,,,,,,,,,,,,,,,,,,,
1768202922.626428,1768202922.628000,102.000000,0.000000,4355.769043,4353.333496,4325.384766,4365.769043,4348.974121,4372.051270,4356.666504,4367.692383,4353.333496,4341.666504,4492.563965,4520.256348,4402.307617,4456.153809,4286.000000,3.000000,58.000000,,,,0.000000,4.000000,4.000000,2.000000,4.000000,4.000000,2.000000,4.000000,4.000000,4.000000,4.000000,4.000000,4.000000,4.000000,4.000000,66.666664,,,,,,,,,,,,,,,,,,,,,,,,,,,,,,,,,,,,,,,,,,,,,,,,,,,,,,,,,,,,,,,,,,,,,,,,,,,,,,,,,,,,,,,,,,,,,,,,,,,,,,,,,,,,,,,,,,,,,
1768202922.634236,1768202922.635808,103.000000,0.000000,4354.871582,4354.358887,4326.794922,4368.461426,4343.974121,4375.128418,4357.051270,4367.820313,4353.974121,4342.051270,4496.922852,4523.077148,4403.205078,4459.102539,4769.000000,3.000000,58.000000,,,,0.000000,4.000000,4.000000,2.000000,4.000000,4.000000,2.000000,4.000000,4.000000,4.000000,4.000000,4.000000,4.000000,4.000000,4.000000,66.666664,,,,,,,,,,,,,,,,,,,,,,,,,,,,,,,,,,,,,,,,,,,,,,,,,,,,,,,,,,,,,,,,,,,,,,,,,,,,,,,,,,,,,,,,,,,,,,,,,,,,,,,,,,,,,,,,,,,,,
1768202922.642044,1768202922.643417,104.000000,0.000000,4358.717773,4358.717773,4329.615234,4368.205078,4344.615234,4375.384766,4358.589844,4358.077148,4344.871582,4336.794922,4495.256348,4520.384766,4406.410156,4456.666504,5227.000000,3.000000,58.000000,,,,0.000000,4.000000,4.000000,2.000000,4.000000,4.000000,2.000000,4.000000,4.000000,4.000000,4.000000,4.000000,4.000000,4.000000,4.000000,66.666664,,,,,,,,,,,,,,,,,,,,,,,,,,,,,,,,,,,,,,,,,,,,,,,,,,,,,,,,,,,,,,,,,,,,,,,,,,,,,,,,,,,,,,,,,,,,,,,,,,,,,,,,,,,,,,,,,,,,,
