title:remote_8, start timestamp:1768202962.472720, stop timestamp:1768202993.144217, headset type:EPOCX, headset serial:E5020E3B, headset firmware:730, channels:156, sampling rate:eeg_128;pm_0.1;pow_8, samples:3929      , version:2.2, 
Timestamp,OriginalTimestamp,EEG.Counter,EEG.Interpolated,EEG.AF3,EEG.F7,EEG.F3,EEG.FC5,EEG.T7,EEG.P7,EEG.O1,EEG.O2,EEG.P8,EEG.T8,EEG.FC6,EEG.F4,EEG.F8,EEG.AF4,EEG.RawCq,EEG.Battery,EEG.BatteryPercent,MarkerIndex,MarkerType,MarkerValueInt,EEG.MarkerHardware,CQ.AF3,CQ.F7,CQ.F3,CQ.FC5,CQ.T7,CQ.P7,CQ.O1,CQ.O2,CQ.P8,CQ.T8,CQ.FC6,CQ.F4,CQ.F8,CQ.AF4,CQ.Overall,EQ.SampleRateQuality,EQ.OVERALL,EQ.AF3,EQ.F7,EQ.F3,EQ.FC5,EQ.T7,EQ.P7,EQ.O1,EQ.O2,EQ.P8,EQ.T8,EQ.FC6,EQ.F4,EQ.F8,EQ.AF4,PM.Attention.IsActive,PM.Attention.Scaled,PM.Attention.Raw,PM.Attention.Min,PM.Attention.Max,PM.Engagement.IsActive,PM.Engagement.Scaled,PM.Engagement.Raw,PM.Engagement.Min,PM.Engagement.Max,PM.Excitement.IsActive,PM.Excitement.Scaled,PM.Excitement.Raw,PM.Excitement.Min,PM.Excitement.Max,PM.LongTermExcitement,PM.Stress.IsActive,PM.Stress.Scaled,PM.Stress.Raw,PM.Stress.Min,PM.Stress.Max,PM.Relaxation.IsActive,PM.Relaxation.Scaled,PM.Relaxation.Raw,PM.Relaxation.Min,PM.Relaxation.Max,PM.Interest.IsActive,PM.Interest.Scaled,PM.Interest.Raw,PM.Interest.Min,PM.Interest.Max,POW.AF3.Theta,POW.AF3.Alpha,POW.AF3.BetaL,POW.AF3.BetaH,POW.AF3.Gamma,POW.F7.Theta,POW.F7.Alpha,POW.F7.BetaL,POW.F7.BetaH,POW.F7.Gamma,POW.F3.Theta,POW.F3.Alpha,POW.F3.BetaL,POW.F3.BetaH,POW.F3.Gamma,POW.FC5.Theta,POW.FC5.Alpha,POW.FC5.BetaL,POW.FC5.BetaH,POW.FC5.Gamma,POW.T7.Theta,POW.T7.Alpha,POW.T7.BetaL,POW.T7.BetaH,POW.T7.Gamma,POW.P7.Theta,POW.P7.Alpha,POW.P7.BetaL,POW.P7.BetaH,POW.P7.Gamma,POW.O1.Theta,POW.O1.Alpha,POW.O1.BetaL,POW.O1.BetaH,POW.O1.Gamma,POW.O2.Theta,POW.O2.Alpha,POW.O2.BetaL,POW.O2.BetaH,POW.O2.Gamma,POW.P8.Theta,POW.P8.Alpha,POW.P8.BetaL,POW.P8.BetaH,POW.P8.Gamma,POW.T8.Theta,POW.T8.Alpha,POW.T8.BetaL,POW.T8.BetaH,POW.T8.Gamma,POW.FC6.Theta,POW.FC6.Alpha,POW.FC6.BetaL,POW.FC6.BetaH,POW.FC6.Gamma,POW.F4.Theta,POW.F4.Alpha,POW.F4.BetaL,POW.F4.BetaH,POW.F4.Gamma,POW.F8.Theta,POW.F8.Alpha,POW.F8.BetaL,POW.F8.BetaH,POW.F8.Gamma,POW.AF4.Theta,POW.AF4.Alpha,POW.AF4.BetaL,POW.AF4.BetaH,POW.AF4.Gamma
1768202962.472720,1768202962.474104,85.000000,0.000000,4356.025879,4357.179688,4323.461426,4360.128418,4348.974121,4362.692383,4348.974121,4346.794922,4349.871582,4326.153809,4478.461426,4503.717773,4414.358887,4442.563965,4400.000000,3.000000,57.000000,,,,0.000000,4.000000,4.000000,2.000000,4.000000,4.000000,2.000000,4.000000,4.000000,4.000000,4.000000,4.000000,4.000000,4.000000,4.000000,66.666664,,,,,,,,,,,,,,,,,,,,,,,,,,,,,,,,,,,,,,,,,,,,,,,,,,,,,,,,,,,,,,,,,,,,,,,,,,,,,,,,,,,,,,,,,,,,,,,,,,,,,,,,,,,,,,,,,,,,,
1768202962.480529,1768202962.482013,86.000000,0.000000,4352.307617,4357.051270,4321.794922,4363.589844,4351.666504,4362.563965,4343.077148,4342.563965,4349.102539,4327.436035,4479.871582,4505.000000,4413.589844,4441.538574,4288.000000,3.000000,57.000000,,,,0.000000,4.000000,4.000000,2.000000,4.000000,4.000000,2.000000,4.000000,4.000000,4.000000,4.000000,4.000000,4.000000,4.000000,4.000000,66.666664,,,,,,,,,,,,,,,,,,,,,,,,,,,,,,,,,,,,,,,,,,,,,,,,,,,,,,,,,,,,,,,,,,,,,,,,,,,,,,,,,,,,,,,,,,,,,,,,,,,,,,,,,,,,,,,,,,,,,
1768202962.488337,1768202962.489821,87.000000,0.000000,4356.538574,4357.051270,4322.692383,4365.641113,4348.461426,4363.717773,4340.384766,4338.846191,4343.846191,4326.922852,4476.794922,4502.179688,4410.256348,4442.692383,4772.000000,3.000000,57.000000,,,,0.000000,4.000000,4.000000,2.000000,4.000000,4.000000,2.000000,4.000000,4.000000,4.000000,4.000000,4.000000,4.000000,4.000000,4.000000,66.666664,,,,,,,,,,,,,,,,,,,,,,,,,,,,,,,,,,,,,,,,,,,,,,,,,,,,,,,,,,,,,,,,,,,,,,,,,,,,,,,,,,,,,,,,,,,,,,,,,,,,,,,,,,,,,,,,,,,,,
1768202962.496146,1768202962.497430,88.000000,0.000000,4366.922852,4357.692383,4327.307617,4365.128418,4348.205078,4365.769043,4343.846191,4345.641113,4345.128418,4326.922852,4482.307617,4504.615234,4419.102539,4453.077148,5228.000000,3.000000,57.000000,,,,0.000000,4.000000,4.000000,2.000000,4.000000,4.000000,2.000000,4.000000,4.000000,4.000000,4.000000,4.000000,4.000000,4.000000,4.000000,66.666664,,,,,,,,,,,,,,,,,,,,,,,,,,,,,,,,,,,,,,,,,,,,,,,,,,,,,,,,,,,,,,,,,,,,,,,,,,,,,,,,,,,,,,,,,,,,,,,,,,,,,,,,,,,,,,,,,,,,,
1768202962.503954,1768202962.505238,89.000000,0.000000,4369.615234,4358.717773,4329.230957,4365.512695,4349.358887,4365.384766,4349.871582,4351.153809,4351.282227,4328.717773,4491.666504,4510.769043,4426.025879,4461.794922,4400.000000,3.000000,57.000000,,,,0.000000,4.000000,4.000000,2.000000,4.000000,4.000000,2.000000,4.000000,4.000000,4.000000,4.000000,4.000000,4.000000,4.000000,4.000000,66.666664,,,,,,,,,,,,,,,,,,,,,,,,,,,,,,,,,,,,,,,,,,,,,,,,,,,,,,,,,,,,,,,,,,,,,,,,,,,,,,,,,,,,,,,,,,,,,,,,,,,,,,,,,,,,,,,,,,,,,
1768202962.511763,1768202962.512947,90.000000,0.000000,4363.974121,4358.846191,4325.000000,4367.692383,4351.025879,4367.820313,4354.230957,4344.743652,4350.128418,4328.589844,4486.410156,4510.384766,4416.538574,4455.897461,4288.000000,3.000000,57.000000,,,,0.000000,4.000000,4.000000,2.000000,4.000000,4.000000,2.000000,4.000000,4.000000,4.000000,4.000000,4.000000,4.000000,4.000000,4.000000,66.666664,,,,,,,,,,,,,,,,,,,,,,,,,,,,,,,,,,,,,,,,,,,,,,,,,,,,,,,,,,,,,,,,,,,,,,,,,,,,,,,,,,,,,,,,,,,,,,,,,,,,,,,,,,,,,,,,,,,,,
1768202962.519571,1768202962.520755,91.000000,0.000000,4360.000000,4357.563965,4324.230957,4366.666504,4354.102539,4369.102539,4353.333496,4344.102539,4347.436035,4327.179688,4482.436035,4506.538574,4409.230957,4446.666504,4772.000000,3.000000,57.000000,,,,0.000000,4.000000,4.000000,2.000000,4.000000,4.000000,2.000000,4.000000,4.000000,4.000000,4.000000,4.000000,4.000000,4.000000,4.000000,66.666664,,,,,,,,,,,,,,,,,,,,,,,,,,,,,,,,,,,,,,,,,,,,,,,,,,,,,,,,,,,,,,,,,,,,,,,,,,,,,,,,,,,,,,,,,,,,,,,,,,,,,,,,,,,,,,,,,,,,,
1768202962.527379,1768202962.528764,92.000000,0.000000,4362.179688,4355.256348,4328.333496,4363.846191,4353.333496,4364.871582,4352.436035,4351.025879,4349.487305,4327.307617,4489.487305,4510.000000,4415.256348,4450.641113,5228.000000,3.000000,57.000000,,,,0.000000,4.000000,4.000000,2.000000,4.000000,4.000000,2.000000,4.000000,4.000000,4.000000,4.000000,4.000000,4.000000,4.000000,4.000000,66.666664,,,,,,,,,,,,,,,,,,,,,,,,,,,,,,,,,,,,,,,,,,,,,,,,,,,,,,,,,,,,,,,,,,,,,,,,,,,,,,,,,,,,,,,,,,,,,,,,,,,,,,,,,,,,,,,,,,,,,
1768202962.535188,1768202962.536572,93.000000,0.000000,4368.589844,4358.333496,4330.512695,4368.461426,4349.871582,4361.666504,4353.589844,4350.641113,4349.743652,4326.538574,4491.282227,4520.128418,4418.461426,4458.846191,4400.000000,3.000000,57.000000,,,,0.000000,4.000000,4.000000,2.000000,4.000000,4.000000,2.000000,4.000000,4.000000,4.000000,4.000000,4.000000,4.000000,4.000000,4.000000,66.666664,,,,,,,,,,,,,,,,,,,,,,,,,,,,,,,,,,,,,,,,,,,,,,,,,,,,,,,,,,,,,,,,,,,,,,,,,,,,,,,,,,,,,,,,,,,,,,,,,,,,,,,,,,,,,,,,,,,,,
1768202962.542996,1768202962.544480,94.000000,0.000000,4373.077148,4363.717773,4330.256348,4373.461426,4349.871582,4362.307617,4353.589844,4351.153809,4349.743652,4327.051270,4488.717773,4524.871582,4416.282227,4460.641113,4288.000000,3.000000,57.000000,,,,0.000000,4.000000,4.000000,2.000000,4.000000,4.000000,2.000000,4.000000,4.000000,4.000000,4.000000,4.000000,4.000000,4.000000,4.000000,66.666664,,,,,,,,,,,,,,,,,,,,,,,,,,,,,,,,,,,,,,,,,,,,,,,,6.616640,0.338136,0.035687,0.213464,0.143263,1.382014,0.184310,0.110563,0.146180,0.109997,0.083875,0.046323,0.039128,0.055586,0.047926,0.433516,0.209016,0.087767,0.173144,0.064128,0.248326,0.106841,0.144623,0.064925,0.050619,0.082126,0.034077,0.037678,0.023457,0.033889,0.581542,0.444075,0.276168,0.100013,0.134187,0.772982,0.368031,0.224486,0.136300,0.173086,1.336782,0.371785,0.250776,0.087313,0.109914,0.629351,0.544103,0.364493,0.081705,0.069026,0.967313,0.448010,0.385981,0.117068,0.180988,0.752218,0.393193,0.292030,0.125610,0.176952,1.293908,0.545795,0.305268,0.194102,0.160435,3.411004,0.580942,0.449724,0.432872,0.246100
1768202962.550805,1768202962.552289,95.000000,0.000000,4372.820313,4360.897461,4330.128418,4371.025879,4352.692383,4368.077148,4354.358887,4352.179688,4350.256348,4330.256348,4489.743652,4524.487305,4418.589844,4458.717773,4772.000000,3.000000,57.000000,,,,0.000000,4.000000,4.000000,2.000000,4.000000,4.000000,2.000000,4.000000,4.000000,4.000000,4.000000,4.000000,4.000000,4.000000,4.000000,66.666664,,,,,,,,,,,,,,,,,,,,,,,,,,,,,,,,,,,,,,,,,,,,,,,,,,,,,,,,,,,,,,,,,,,,,,,,,,,,,,,,,,,,,,,,,,,,,,,,,,,,,,,,,,,,,,,,,,,,,
1768202962.558613,1768202962.560297,96.000000,0.000000,4371.282227,4353.589844,4330.769043,4368.461426,4353.589844,4369.743652,4355.128418,4345.256348,4345.000000,4328.717773,4489.487305,4521.153809,4419.230957,4459.743652,5228.000000,3.000000,57.000000,,,,0.000000,4.000000,4.000000,2.000000,4.000000,4.000000,2.000000,4.000000,4.000000,4.000000,4.000000,4.000000,4.000000,4.000000,4.000000,66.666664,,,,,,,,,,,,,,,,,,,,,,,,,,,,,,,,,,,,,,,,,,,,,,,,,,,,,,,,,,,,,,,,,,,,,,,,,,,,,,,,,,,,,,,,,,,,,,,,,,,,,,,,,,,,,,,,,,,,,
1768202962.566421,1768202962.568106,97.000000,0.000000,4368.717773,4358.205078,4331.538574,4368.333496,4355.128418,4363.333496,4351.282227,4345.000000,4342.820313,4324.871582,4485.000000,4512.692383,4415.512695,4460.384766,4400.000000,3.000000,57.000000,,,,0.000000,4.000000,4.000000,2.000000,4.000000,4.000000,2.000000,4.000000,4.000000,4.000000,4.000000,4.000000,4.000000,4.000000,4.000000,66.666664,,,,,,,,,,,,,,,,,,,,,,,,,,,,,,,,,,,,,,,,,,,,,,,,,,,,,,,,,,,,,,,,,,,,,,,,,,,,,,,,,,,,,,,,,,,,,,,,,,,,,,,,,,,,,,,,,,,,,
1768202962.574230,1768202962.575814,98.000000,0.000000,4365.897461,4366.922852,4329.487305,4369.230957,4352.051270,4359.615234,4348.205078,4348.333496,4345.000000,4324.615234,4477.307617,4511.666504,4411.538574,4452.563965,4288.000000,3.000000,57.000000,,,,0.000000,4.000000,4.000000,2.000000,4.000000,4.000000,2.000000,4.000000,4.000000,4.000000,4.000000,4.000000,4.000000,4.000000,4.000000,66.666664,,,,,,,,,,,,,,,,,,,,,,,,,,,,,,,,,,,,,,,,,,,,,,,,,,,,,,,,,,,,,,,,,,,,,,,,,,,,,,,,,,,,,,,,,,,,,,,,,,,,,,,,,,,,,,,,,,,,,
1768202962.582038,1768202962.583623,99.000000,0.000000,4368.846191,4362.820313,4327.051270,4372.692383,4344.487305,4364.358887,4350.769043,4343.974121,4345.897461,4326.282227,4479.871582,4522.820313,4413.205078,4451.922852,4772.000000,3.000000,57.000000,,,,0.000000,4.000000,4.000000,2.000000,4.000000,4.000000,2.000000,4.000000,4.000000,4.000000,4.000000,4.000000,4.000000,4.000000,4.000000,66.666664,,,,,,,,,,,,,,,,,,,,,,,,,,,,,,,,,,,,,,,,,,,,,,,,,,,,,,,,,,,,,,,,,,,,,,,,,,,,,,,,,,,,,,,,,,,,,,,,,,,,,,,,,,,,,,,,,,,,,
1768202962.589847,1768202962.591231,100.000000,0.000000,4371.794922,4355.384766,4328.974121,4374.358887,4343.589844,4367.436035,4348.589844,4340.000000,4342.820313,4326.794922,4488.077148,4521.538574,4416.538574,4459.743652,5228.000000,3.000000,57.000000,,,,0.000000,4.000000,4.000000,2.000000,4.000000,4.000000,2.000000,4.000000,4.000000,4.000000,4.000000,4.000000,4.000000,4.000000,4.000000,66.666664,,,,,,,,,,,,,,,,,,,,,,,,,,,,,,,,,,,,,,,,,,,,,,,,,,,,,,,,,,,,,,,,,,,,,,,,,,,,,,,,,,,,,,,,,,,,,,,,,,,,,,,,,,,,,,,,,,,,,
1768202962.597655,1768202962.599040,101.000000,0.000000,4368.333496,4356.538574,4326.666504,4368.717773,4348.846191,4366.538574,4348.333496,4342.307617,4339.871582,4326.538574,4483.846191,4507.307617,4414.358887,4455.256348,4400.000000,3.000000,57.000000,,,,0.000000,4.000000,4.000000,2.000000,4.000000,4.000000,2.000000,4.000000,4.000000,4.000000,4.000000,4.000000,4.000000,4.000000,4.000000,66.666664,,,,,,,,,,,,,,,,,,,,,,,,,,,,,,,,,,,,,,,,,,,,,,,,,,,,,,,,,,,,,,,,,,,,,,,,,,,,,,,,,,,,,,,,,,,,,,,,,,,,,,,,,,,,,,,,,,,,,
1768202962.605464,1768202962.606948,102.000000,0.000000,4361.922852,4359.487305,4320.384766,4365.384766,4351.153809,4367.948730,4355.256348,4350.512695,4345.641113,4328.333496,4477.436035,4503.974121,4412.692383,4443.205078,4288.000000,3.000000,57.000000,,,,0.000000,4.000000,4.000000,2.000000,4.000000,4.000000,2.000000,4.000000,4.000000,4.000000,4.000000,4.000000,4.000000,4.000000,4.000000,66.666664,,,,,,,,,,,,,,,,,,,,,,,,,,,,,,,,,,,,,,,,,,,,,,,,,,,,,,,,,,,,,,,,,,,,,,,,,,,,,,,,,,,,,,,,,,,,,,,,,,,,,,,,,,,,,,,,,,,,,
1768202962.613272,1768202962.614756,103.000000,0.000000,4357.436035,4355.128418,4322.179688,4366.410156,4347.692383,4366.153809,4351.410156,4350.897461,4349.358887,4329.743652,4479.358887,4507.563965,4412.692383,4441.794922,4772.000000,3.000000,57.000000,,,,0.000000,4.000000,4.000000,2.000000,4.000000,4.000000,2.000000,4.000000,4.000000,4.000000,4.000000,4.000000,4.000000,4.000000,4.000000,66.666664,,,,,,,,,,,,,,,,,,,,,,,,,,,,,,,,,,,,,,,,,,,,,,,,,,,,,,,,,,,,,,,,,,,,,,,,,,,,,,,,,,,,,,,,,,,,,,,,,,,,,,,,,,,,,,,,,,,,,
1768202962.621081,1768202962.622765,104.000000,0.000000,4359.487305,4351.922852,4328.717773,4365.897461,4343.333496,4363.717773,4341.025879,4340.641113,4342.307617,4330.769043,4483.589844,4510.384766,4412.179688,4449.615234,5228.000000,3.000000,57.000000,,,,0.000000,4.000000,4.000000,2.000000,4.000000,4.000000,2.000000,4.000000,4.000000,4.000000,4.000000,4.000000,4.000000,4.000000,4.000000,66.666664,,,,,,,,,,,,,,,,,,,,,,,,,,,,,,,,,,,,,,,,,,,,,,,,,,,,,,,,,,,,,,,,,,,,,,,,,,,,,,,,,,,,,,,,,,,,,,,,,,,,,,,,,,,,,,,,,,,,,
1768202962.628889,1768202962.630573,105.000000,0.000000,4366.666504,4360.128418,4329.102539,4369.487305,4341.025879,4367.820313,4345.256348,4344.487305,4343.589844,4338.205078,4489.743652,4519.615234,4413.333496,4458.461426,4400.000000,3.000000,57.000000,,,,0.000000,4.000000,4.000000,2.000000,4.000000,4.000000,2.000000,4.000000,4.000000,4.000000,4.000000,4.000000,4.000000,4.000000,4.000000,66.666664,,,,,,,,,,,,,,,,,,,,,,,,,,,,,,,,,,,,,,,,,,,,,,,,,,,,,,,,,,,,,,,,,,,,,,,,,,,,,,,,,,,,,,,,,,,,,,,,,,,,,,,,,,,,,,,,,,,,,
1768202962.636697,1768202962.638382,106.000000,0.000000,4370.641113,4365.897461,4326.666504,4373.077148,4345.897461,4368.846191,4356.794922,4361.538574,4353.333496,4341.922852,4494.102539,4525.128418,4415.897461,4462.307617,4288.000000,3.000000,57.000000,,,,0.000000,4.000000,4.000000,2.000000,4.000000,4.000000,2.000000,4.000000,4.000000,4.000000,4.000000,4.000000,4.000000,4.000000,4.000000,66.666664,,,,,,,,,,,,,,,,,,,,,,,,,,,,,,,,,,,,,,,,,,,,,,,,,,,,,,,,,,,,,,,,,,,,,,,,,,,,,,,,,,,,,,,,,,,,,,,,,,,,,,,,,,,,,,,,,,,,,
1768202962.644506,1768202962.646190,107.000000,0.000000,4368.077148,4359.871582,4328.461426,4369.102539,4348.333496,4365.128418,4355.897461,4360.128418,4348.974121,4331.794922,4484.358887,4518.077148,4414.743652,4453.717773,4772.000000,3.000000,57.000000,,,,0.000000,4.000000,4.000000,2.000000,4.000000,4.000000,2.000000,4.000000,4.000000,4.000000,4.000000,4.000000,4.000000,4.000000,4.000000,66.666664,,,,,,,,,,,,,,,,,,,,,,,,,,,,,,,,,,,,,,,,,,,,,,,,,,,,,,,,,,,,,,,,,,,,,,,,,,,,,,,,,,,,,,,,,,,,,,,,,,,,,,,,,,,,,,,,,,,,,
1768202962.652314,1768202962.653799,108.000000,0.000000,4363.974121,4355.384766,4331.410156,4364.487305,4343.077148,4366.153809,4349.743652,4347.563965,4341.282227,4327.051270,4478.205078,4516.153809,4410.000000,4443.974121,5228.000000,3.000000,57.000000,,,,0.000000,4.000000,4.000000,2.000000,4.000000,4.000000,2.000000,4.000000,4.000000,4.000000,4.000000,4.000000,4.000000,4.000000,4.000000,66.666664,,,,,,,,,,,,,,,,,,,,,,,,,,,,,,,,,,,,,,,,,,,,,,,,,,,,,,,,,,,,,,,,,,,,,,,,,,,,,,,,,,,,,,,,,,,,,,,,,,,,,,,,,,,,,,,,,,,,,
1768202962.660123,1768202962.661607,109.000000,0.000000,4362.179688,4358.205078,4329.743652,4365.641113,4343.974121,4368.077148,4348.846191,4348.205078,4346.666504,4334.102539,4485.897461,4521.025879,4408.461426,4446.538574,4400.000000,3.000000,57.000000,,,,0.000000,4.000000,4.000000,2.000000,4.000000,4.000000,2.000000,4.000000,4.000000,4.000000,4.000000,4.000000,4.000000,4.000000,4.000000,66.666664,,,,,,,,,,,,,,,,,,,,,,,,,,,,,,,,,,,,,,,,,,,,,,,,,,,,,,,,,,,,,,,,,,,,,,,,,,,,,,,,,,,,,,,,,,,,,,,,,,,,,,,,,,,,,,,,,,,,,
1768202962.667931,1768202962.669316,110.000000,0.000000,4363.846191,4357.051270,4325.512695,4367.179688,4349.487305,4364.615234,4350.769043,4352.051270,4350.512695,4336.153809,4489.871582,4518.846191,4412.307617,4455.256348,4288.000000,3.000000,57.000000,,,,0.000000,4.000000,4.000000,2.000000,4.000000,4.000000,2.000000,4.000000,4.000000,4.000000,4.000000,4.000000,4.000000,4.000000,4.000000,66.666664,,,,,,,,,,,,,,,,,,,,,,,,,,,,,,,,,,,,,,,,,,,,,,,,6.747771,0.322914,0.034305,0.229704,0.155489,1.400087,0.181780,0.110377,0.150130,0.117164,0.073683,0.042715,0.040943,0.063127,0.053980,0.367257,0.193224,0.064191,0.162520,0.068418,0.239982,0.107843,0.129754,0.066556,0.050822,0.077616,0.037865,0.036219,0.023966,0.033989,0.550433,0.450313,0.273649,0.104600,0.133221,0.746938,0.465881,0.221276,0.152194,0.188092,1.294890,0.384992,0.286262,0.103269,0.118750,0.613174,0.552540,0.376211,0.072496,0.089691,0.840228,0.465232,0.395910,0.130884,0.213679,0.608154,0.328284,0.279733,0.144744,0.182793,1.278427,0.577152,0.315287,0.208836,0.187765,3.294357,0.547159,0.446429,0.439294,0.270480
1768202962.675739,1768202962.677124,111.000000,0.000000,4369.102539,4355.256348,4326.794922,4367.436035,4350.256348,4364.615234,4354.102539,4347.692383,4348.077148,4333.077148,4486.025879,4516.666504,4413.846191,4455.897461,4772.000000,3.000000,57.000000,,,,0.000000,4.000000,4.000000,2.000000,4.000000,4.000000,2.000000,4.000000,4.000000,4.000000,4.000000,4.000000,4.000000,4.000000,4.000000,66.666664,,,,,,,,,,,,,,,,,,,,,,,,,,,,,,,,,,,,,,,,,,,,,,,,,,,,,,,,,,,,,,,,,,,,,,,,,,,,,,,,,,,,,,,,,,,,,,,,,,,,,,,,,,,,,,,,,,,,,
1768202962.683548,1768202962.684733,112.000000,0.000000,4372.179688,4359.743652,4332.051270,4368.077148,4351.922852,4369.102539,4356.282227,4349.358887,4350.128418,4331.025879,4480.000000,4518.974121,4406.410156,4448.205078,5228.000000,3.000000,57.000000,,,,0.000000,4.000000,4.000000,2.000000,4.000000,4.000000,2.000000,4.000000,4.000000,4.000000,4.000000,4.000000,4.000000,4.000000,4.000000,66.666664,,,,,,,,,,,,,,,,,,,,,,,,,,,,,,,,,,,,,,,,,,,,,,,,,,,,,,,,,,,,,,,,,,,,,,,,,,,,,,,,,,,,,,,,,,,,,,,,,,,,,,,,,,,,,,,,,,,,,
1768202962.691356,1768202962.692541,113.000000,0.000000,4369.230957,4359.358887,4330.769043,4366.666504,4355.256348,4370.384766,4354.743652,4358.717773,4351.922852,4328.077148,4476.666504,4515.128418,4401.666504,4444.358887,4400.000000,3.000000,57.000000,,,,0.000000,4.000000,4.000000,2.000000,4.000000,4.000000,2.000000,4.000000,4.000000,4.000000,4.000000,4.000000,4.000000,4.000000,4.000000,66.666664,,,,,,,,,,,,,,,,,,,,,,,,,,,,,,,,,,,,,,,,,,,,,,,,,,,,,,,,,,,,,,,,,,,,,,,,,,,,,,,,,,,,,,,,,,,,,,,,,,,,,,,,,,,,,,,,,,,,,
1768202962.699165,1768202962.700250,114.000000,0.000000,4361.410156,4351.025879,4324.487305,4361.794922,4348.974121,4367.051270,4351.153809,4353.333496,4344.230957,4326.410156,4476.666504,4507.436035,4402.563965,4445.000000,4288.000000,3.000000,57.000000,,,,0.000000,4.000000,4.000000,2.000000,4.000000,4.000000,2.000000,4.000000,4.000000,4.000000,4.000000,4.000000,4.000000,4.000000,4.000000,66.666664,,,,,,,,,,,,,,,,,,,,,,,,,,,,,,,,,,,,,,,,,,,,,,,,,,,,,,,,,,,,,,,,,,,,,,,,,,,,,,,,,,,,,,,,,,,,,,,,,,,,,,,,,,,,,,,,,,,,,
1768202962.706973,1768202962.708058,115.000000,0.000000,4357.820313,4349.358887,4323.717773,4360.512695,4343.205078,4364.615234,4347.692383,4342.436035,4340.769043,4326.922852,4478.077148,4507.820313,4399.358887,4444.743652,4772.000000,3.000000,57.000000,,,,0.000000,4.000000,4.000000,2.000000,4.000000,4.000000,2.000000,4.000000,4.000000,4.000000,4.000000,4.000000,4.000000,4.000000,4.000000,66.666664,,,,,,,,,,,,,,,,,,,,,,,,,,,,,,,,,,,,,,,,,,,,,,,,,,,,,,,,,,,,,,,,,,,,,,,,,,,,,,,,,,,,,,,,,,,,,,,,,,,,,,,,,,,,,,,,,,,,,
1768202962.714782,1768202962.716066,116.000000,0.000000,4361.794922,4353.846191,4327.692383,4363.333496,4345.256348,4367.307617,4348.461426,4350.384766,4347.820313,4327.436035,4476.922852,4515.256348,4396.922852,4444.615234,5228.000000,3.000000,57.000000,,,,0.000000,4.000000,4.000000,2.000000,4.000000,4.000000,2.000000,4.000000,4.000000,4.000000,4.000000,4.000000,4.000000,4.000000,4.000000,66.666664,,,,,,,,,,,,,,,,,,,,,,,,,,,,,,,,,,,,,,,,,,,,,,,,,,,,,,,,,,,,,,,,,,,,,,,,,,,,,,,,,,,,,,,,,,,,,,,,,,,,,,,,,,,,,,,,,,,,,
1768202962.722590,1768202962.723875,117.000000,0.000000,4362.179688,4348.461426,4328.974121,4360.384766,4345.000000,4370.256348,4351.794922,4355.512695,4346.794922,4326.922852,4473.461426,4519.102539,4396.794922,4442.179688,4400.000000,3.000000,57.000000,,,,0.000000,4.000000,4.000000,2.000000,4.000000,4.000000,2.000000,4.000000,4.000000,4.000000,4.000000,4.000000,4.000000,4.000000,4.000000,66.666664,,,,,,,,,,,,,,,,,,,,,,,,,,,,,,,,,,,,,,,,,,,,,,,,,,,,,,,,,,,,,,,,,,,,,,,,,,,,,,,,,,,,,,,,,,,,,,,,,,,,,,,,,,,,,,,,,,,,,
1768202962.730398,1768202962.731583,118.000000,0.000000,4359.743652,4344.102539,4328.205078,4357.692383,4340.641113,4367.692383,4352.948730,4348.333496,4340.897461,4325.256348,4473.846191,4518.589844,4395.128418,4442.307617,4288.000000,3.000000,57.000000,,,,0.000000,4.000000,4.000000,2.000000,4.000000,4.000000,2.000000,4.000000,4.000000,4.000000,4.000000,4.000000,4.000000,4.000000,4.000000,66.666664,,,,,,,,,,,,,,,,,,,,,,,,,,,,,,,,,,,,,,,,,,,,,,,,,,,,,,,,,,,,,,,,,,,,,,,,,,,,,,,,,,,,,,,,,,,,,,,,,,,,,,,,,,,,,,,,,,,,,
1768202962.738207,1768202962.739392,119.000000,0.000000,4364.615234,4352.436035,4328.461426,4363.846191,4340.128418,4363.333496,4349.487305,4353.974121,4345.512695,4327.179688,4476.922852,4520.897461,4396.666504,4447.692383,4772.000000,3.000000,57.000000,,,,0.000000,4.000000,4.000000,2.000000,4.000000,4.000000,2.000000,4.000000,4.000000,4.000000,4.000000,4.000000,4.000000,4.000000,4.000000,66.666664,,,,,,,,,,,,,,,,,,,,,,,,,,,,,,,,,,,,,,,,,,,,,,,,,,,,,,,,,,,,,,,,,,,,,,,,,,,,,,,,,,,,,,,,,,,,,,,,,,,,,,,,,,,,,,,,,,,,,
1768202962.746015,1768202962.747400,120.000000,0.000000,4370.000000,4351.922852,4328.589844,4367.307617,4341.282227,4365.641113,4348.846191,4360.512695,4347.692383,4329.358887,4477.948730,4523.461426,4400.512695,4447.692383,5228.000000,3.000000,57.000000,,,,0.000000,4.000000,4.000000,2.000000,4.000000,4.000000,2.000000,4.000000,4.000000,4.000000,4.000000,4.000000,4.000000,4.000000,4.000000,66.666664,,,,,,,,,,,,,,,,,,,,,,,,,,,,,,,,,,,,,,,,,,,,,,,,,,,,,,,,,,,,,,,,,,,,,,,,,,,,,,,,,,,,,,,,,,,,,,,,,,,,,,,,,,,,,,,,,,,,,
1768202962.753824,1768202962.755209,121.000000,0.000000,4367.179688,4341.025879,4328.461426,4362.692383,4340.256348,4368.461426,4351.538574,4350.897461,4341.153809,4326.922852,4478.077148,4521.666504,4399.230957,4447.179688,4400.000000,3.000000,57.000000,,,,0.000000,4.000000,4.000000,2.000000,4.000000,4.000000,2.000000,4.000000,4.000000,4.000000,4.000000,4.000000,4.000000,4.000000,4.000000,66.666664,,,,,,,,,,,,,,,,,,,,,,,,,,,,,,,,,,,,,,,,,,,,,,,,,,,,,,,,,,,,,,,,,,,,,,,,,,,,,,,,,,,,,,,,,,,,,,,,,,,,,,,,,,,,,,,,,,,,,
1768202962.761632,1768202962.763117,122.000000,0.000000,4361.794922,4340.769043,4328.589844,4360.000000,4340.512695,4365.256348,4350.641113,4346.794922,4340.000000,4325.384766,4479.743652,4520.384766,4396.025879,4449.743652,4288.000000,3.000000,57.000000,,,,0.000000,4.000000,4.000000,2.000000,4.000000,4.000000,2.000000,4.000000,4.000000,4.000000,4.000000,4.000000,4.000000,4.000000,4.000000,66.666664,,,,,,,,,,,,,,,,,,,,,,,,,,,,,,,,,,,,,,,,,,,,,,,,,,,,,,,,,,,,,,,,,,,,,,,,,,,,,,,,,,,,,,,,,,,,,,,,,,,,,,,,,,,,,,,,,,,,,
1768202962.769441,1768202962.770925,123.000000,0.000000,4362.179688,4345.000000,4326.666504,4362.692383,4341.666504,4364.871582,4352.179688,4353.333496,4342.051270,4326.794922,4479.487305,4524.358887,4397.820313,4447.436035,4772.000000,3.000000,57.000000,,,,0.000000,4.000000,4.000000,2.000000,4.000000,4.000000,2.000000,4.000000,4.000000,4.000000,4.000000,4.000000,4.000000,4.000000,4.000000,66.666664,,,,,,,,,,,,,,,,,,,,,,,,,,,,,,,,,,,,,,,,,,,,,,,,,,,,,,,,,,,,,,,,,,,,,,,,,,,,,,,,,,,,,,,,,,,,,,,,,,,,,,,,,,,,,,,,,,,,,
1768202962.777249,1768202962.778534,124.000000,0.000000,4363.333496,4342.307617,4323.974121,4364.743652,4342.179688,4369.102539,4353.589844,4350.384766,4339.230957,4326.025879,4476.410156,4521.282227,4395.641113,4443.589844,5228.000000,3.000000,57.000000,,,,0.000000,4.000000,4.000000,2.000000,4.000000,4.000000,2.000000,4.000000,4.000000,4.000000,4.000000,4.000000,4.000000,4.000000,4.000000,66.666664,,,,,,,,,,,,,,,,,,,,,,,,,,,,,,,,,,,,,,,,,,,,,,,,,,,,,,,,,,,,,,,,,,,,,,,,,,,,,,,,,,,,,,,,,,,,,,,,,,,,,,,,,,,,,,,,,,,,,
1768202962.785057,1768202962.786342,125.000000,0.000000,4361.538574,4342.692383,4323.717773,4363.846191,4342.436035,4367.692383,4347.307617,4342.436035,4337.948730,4324.743652,4473.846191,4510.641113,4389.230957,4442.692383,4400.000000,3.000000,57.000000,,,,0.000000,4.000000,4.000000,2.000000,4.000000,4.000000,2.000000,4.000000,4.000000,4.000000,4.000000,4.000000,4.000000,4.000000,4.000000,66.666664,,,,,,,,,,,,,,,,,,,,,,,,,,,,,,,,,,,,,,,,,,,,,,,,,,,,,,,,,,,,,,,,,,,,,,,,,,,,,,,,,,,,,,,,,,,,,,,,,,,,,,,,,,,,,,,,,,,,,
1768202962.792866,1768202962.794051,126.000000,0.000000,4360.384766,4343.333496,4326.922852,4362.692383,4341.922852,4362.307617,4341.025879,4343.333496,4340.769043,4325.769043,4473.717773,4512.307617,4391.282227,4445.769043,4288.000000,3.000000,57.000000,,,,0.000000,4.000000,4.000000,2.000000,4.000000,4.000000,2.000000,4.000000,4.000000,4.000000,4.000000,4.000000,4.000000,4.000000,4.000000,66.666664,,,,,,,,,,,,,,,,,,,,,,,,,,,,,,,,,,,,,,,,,,,,,,,,6.094245,0.309358,0.040386,0.257569,0.175276,1.315079,0.213377,0.132419,0.164324,0.132073,0.063547,0.040407,0.042378,0.070752,0.063948,0.319853,0.184353,0.053295,0.150423,0.077132,0.236468,0.110710,0.121737,0.074977,0.052504,0.068807,0.046406,0.037266,0.026414,0.034192,0.516412,0.464535,0.254932,0.113236,0.130443,0.690810,0.616372,0.228599,0.171242,0.205574,1.119034,0.419784,0.331337,0.119653,0.121657,0.572677,0.571600,0.365039,0.063264,0.116849,0.719547,0.530913,0.371952,0.160309,0.254878,0.516513,0.327637,0.259786,0.179816,0.191744,1.232325,0.611347,0.301674,0.233501,0.215517,2.884353,0.512356,0.395849,0.455173,0.293703
1768202962.800674,1768202962.801859,127.000000,0.000000,4360.641113,4339.743652,4328.205078,4365.512695,4342.051270,4362.820313,4344.230957,4350.256348,4342.051270,4327.692383,4476.538574,4523.717773,4396.025879,4453.846191,57.000000,3.000000,57.000000,,,,0.000000,4.000000,4.000000,2.000000,4.000000,4.000000,2.000000,4.000000,4.000000,4.000000,4.000000,4.000000,4.000000,4.000000,4.000000,66.666664,,,,,,,,,,,,,,,,,,,,,,,,,,,,,,,,,,,,,,,,,,,,,,,,,,,,,,,,,,,,,,,,,,,,,,,,,,,,,,,,,,,,,,,,,,,,,,,,,,,,,,,,,,,,,,,,,,,,,
1768202962.808483,1768202962.809868,0.000000,0.000000,4363.077148,4345.897461,4328.589844,4368.333496,4347.307617,4367.948730,4348.846191,4355.769043,4340.641113,4330.769043,4478.077148,4527.051270,4390.641113,4459.871582,968.000000,3.000000,57.000000,,,,0.000000,4.000000,4.000000,2.000000,4.000000,4.000000,2.000000,4.000000,4.000000,4.000000,4.000000,4.000000,4.000000,4.000000,4.000000,66.666664,,,,,,,,,,,,,,,,,,,,,,,,,,,,,,,,,,,,,,,,,,,,,,,,,,,,,,,,,,,,,,,,,,,,,,,,,,,,,,,,,,,,,,,,,,,,,,,,,,,,,,,,,,,,,,,,,,,,,
1768202962.816291,1768202962.817676,1.000000,0.000000,4366.922852,4352.948730,4330.769043,4367.820313,4354.487305,4368.589844,4346.922852,4356.025879,4342.820313,4334.487305,4478.717773,4522.436035,4386.410156,4457.051270,2849.000000,3.000000,57.000000,,,,0.000000,4.000000,4.000000,2.000000,4.000000,4.000000,2.000000,4.000000,4.000000,4.000000,4.000000,4.000000,4.000000,4.000000,4.000000,66.666664,,,,,,,,,,,,,,,,,,,,,,,,,,,,,,,,,,,,,,,,,,,,,,,,,,,,,,,,,,,,,,,,,,,,,,,,,,,,,,,,,,,,,,,,,,,,,,,,,,,,,,,,,,,,,,,,,,,,,
1768202962.824099,1768202962.825385,2.000000,0.000000,4363.846191,4347.307617,4330.769043,4367.692383,4351.922852,4365.000000,4344.743652,4355.641113,4346.410156,4336.153809,4485.769043,4523.205078,4394.487305,4456.794922,3759.000000,3.000000,57.000000,,,,0.000000,4.000000,4.000000,2.000000,4.000000,4.000000,2.000000,4.000000,4.000000,4.000000,4.000000,4.000000,4.000000,4.000000,4.000000,66.666664,,,,,,,,,,,,,,,,,,,,,,,,,,,,,,,,,,,,,,,,,,,,,,,,,,,,,,,,,,,,,,,,,,,,,,,,,,,,,,,,,,,,,,,,,,,,,,,,,,,,,,,,,,,,,,,,,,,,,
1768202962.831908,1768202962.833193,3.000000,0.000000,4356.538574,4340.256348,4330.000000,4367.179688,4343.077148,4365.897461,4343.717773,4354.102539,4343.333496,4330.641113,4492.179688,4526.153809,4399.743652,4458.846191,3667.000000,3.000000,57.000000,,,,0.000000,4.000000,4.000000,2.000000,4.000000,4.000000,2.000000,4.000000,4.000000,4.000000,4.000000,4.000000,4.000000,4.000000,4.000000,66.666664,,,,,,,,,,,,,,,,,,,,,,,,,,,,,,,,,,,,,,,,,,,,,,,,,,,,,,,,,,,,,,,,,,,,,,,,,,,,,,,,,,,,,,,,,,,,,,,,,,,,,,,,,,,,,,,,,,,,,
1768202962.839716,1768202962.840802,4.000000,0.000000,4357.820313,4340.000000,4329.102539,4364.102539,4339.743652,4369.743652,4343.077148,4351.153809,4340.256348,4326.922852,4489.230957,4524.358887,4396.794922,4453.333496,3719.000000,3.000000,57.000000,,,,0.000000,4.000000,4.000000,2.000000,4.000000,4.000000,2.000000,4.000000,4.000000,4.000000,4.000000,4.000000,4.000000,4.000000,4.000000,66.666664,,,,,,,,,,,,,,,,,,,,,,,,,,,,,,,,,,,,,,,,,,,,,,,,,,,,,,,,,,,,,,,,,,,,,,,,,,,,,,,,,,,,,,,,,,,,,,,,,,,,,,,,,,,,,,,,,,,,,
1768202962.847525,1768202962.848610,5.000000,0.000000,4360.256348,4343.589844,4327.948730,4360.641113,4341.794922,4367.436035,4346.282227,4353.846191,4342.948730,4332.948730,4487.563965,4524.102539,4396.538574,4448.589844,769.000000,3.000000,57.000000,,,,0.000000,4.000000,4.000000,2.000000,4.000000,4.000000,2.000000,4.000000,4.000000,4.000000,4.000000,4.000000,4.000000,4.000000,4.000000,66.666664,,,,,,,,,,,,,,,,,,,,,,,,,,,,,,,,,,,,,,,,,,,,,,,,,,,,,,,,,,,,,,,,,,,,,,,,,,,,,,,,,,,,,,,,,,,,,,,,,,,,,,,,,,,,,,,,,,,,,
1768202962.855333,1768202962.856319,6.000000,0.000000,4356.153809,4348.974121,4328.974121,4361.666504,4342.820313,4364.615234,4352.179688,4358.333496,4344.358887,4339.871582,4491.153809,4525.384766,4397.307617,4449.358887,3972.000000,3.000000,57.000000,,,,0.000000,4.000000,4.000000,2.000000,4.000000,4.000000,2.000000,4.000000,4.000000,4.000000,4.000000,4.000000,4.000000,4.000000,4.000000,66.666664,,,,,,,,,,,,,,,,,,,,,,,,,,,,,,,,,,,,,,,,,,,,,,,,,,,,,,,,,,,,,,,,,,,,,,,,,,,,,,,,,,,,,,,,,,,,,,,,,,,,,,,,,,,,,,,,,,,,,
1768202962.863142,1768202962.864127,7.000000,0.000000,4356.922852,4348.589844,4331.282227,4367.436035,4341.153809,4367.692383,4349.487305,4353.974121,4341.794922,4337.948730,4488.717773,4524.358887,4396.922852,4447.436035,4121.000000,3.000000,57.000000,,,,0.000000,4.000000,4.000000,2.000000,4.000000,4.000000,2.000000,4.000000,4.000000,4.000000,4.000000,4.000000,4.000000,4.000000,4.000000,66.666664,,,,,,,,,,,,,,,,,,,,,,,,,,,,,,,,,,,,,,,,,,,,,,,,,,,,,,,,,,,,,,,,,,,,,,,,,,,,,,,,,,,,,,,,,,,,,,,,,,,,,,,,,,,,,,,,,,,,,
1768202962.870950,1768202962.871736,8.000000,0.000000,4358.461426,4344.358887,4330.512695,4365.641113,4340.641113,4369.743652,4342.179688,4347.179688,4339.743652,4331.538574,4478.589844,4521.666504,4395.512695,4442.692383,4086.000000,3.000000,57.000000,,,,0.000000,4.000000,4.000000,2.000000,4.000000,4.000000,2.000000,4.000000,4.000000,4.000000,4.000000,4.000000,4.000000,4.000000,4.000000,66.666664,,,,,,,,,,,,,,,,,,,,,,,,,,,,,,,,,,,,,,,,,,,,,,,,,,,,,,,,,,,,,,,,,,,,,,,,,,,,,,,,,,,,,,,,,,,,,,,,,,,,,,,,,,,,,,,,,,,,,
1768202962.878759,1768202962.879544,9.000000,0.000000,4358.077148,4347.436035,4326.794922,4358.333496,4342.948730,4367.307617,4343.461426,4349.102539,4339.487305,4328.589844,4474.358887,4521.025879,4389.487305,4443.077148,4113.000000,3.000000,57.000000,,,,0.000000,4.000000,4.000000,2.000000,4.000000,4.000000,2.000000,4.000000,4.000000,4.000000,4.000000,4.000000,4.000000,4.000000,4.000000,66.666664,,,,,,,,,,,,,,,,,,,,,,,,,,,,,,,,,,,,,,,,,,,,,,,,,,,,,,,,,,,,,,,,,,,,,,,,,,,,,,,,,,,,,,,,,,,,,,,,,,,,,,,,,,,,,,,,,,,,,
1768202962.886567,1768202962.887253,10.000000,0.000000,4357.948730,4347.563965,4323.205078,4356.794922,4342.563965,4364.615234,4343.333496,4351.922852,4340.000000,4325.641113,4475.384766,4516.410156,4381.922852,4444.102539,4288.000000,3.000000,57.000000,,,,0.000000,4.000000,4.000000,2.000000,4.000000,4.000000,2.000000,4.000000,4.000000,4.000000,4.000000,4.000000,4.000000,4.000000,4.000000,66.666664,,,,,,,,,,,,,,,,,,,,,,,,,,,,,,,,,,,,,,,,,,,,,,,,,,,,,,,,,,,,,,,,,,,,,,,,,,,,,,,,,,,,,,,,,,,,,,,,,,,,,,,,,,,,,,,,,,,,,
1768202962.894375,1768202962.895061,11.000000,0.000000,4353.205078,4336.794922,4323.205078,4358.461426,4337.948730,4366.025879,4338.846191,4350.897461,4340.256348,4325.256348,4472.051270,4510.384766,4384.358887,4441.153809,4772.000000,3.000000,57.000000,,,,0.000000,4.000000,4.000000,2.000000,4.000000,4.000000,2.000000,4.000000,4.000000,4.000000,4.000000,4.000000,4.000000,4.000000,4.000000,66.666664,,,,,,,,,,,,,,,,,,,,,,,,,,,,,,,,,,,,,,,,,,,,,,,,,,,,,,,,,,,,,,,,,,,,,,,,,,,,,,,,,,,,,,,,,,,,,,,,,,,,,,,,,,,,,,,,,,,,,
1768202962.902184,1768202962.902670,12.000000,0.000000,4357.436035,4341.025879,4328.846191,4364.102539,4344.743652,4368.717773,4348.589844,4355.000000,4346.025879,4335.897461,4478.846191,4515.769043,4397.179688,4449.487305,5228.000000,3.000000,57.000000,,,,0.000000,4.000000,4.000000,2.000000,4.000000,4.000000,2.000000,4.000000,4.000000,4.000000,4.000000,4.000000,4.000000,4.000000,4.000000,66.666664,,,,,,,,,,,,,,,,,,,,,,,,,,,,,,,,,,,,,,,,,,,,,,,,,,,,,,,,,,,,,,,,,,,,,,,,,,,,,,,,,,,,,,,,,,,,,,,,,,,,,,,,,,,,,,,,,,,,,
1768202962.909992,1768202962.910478,13.000000,0.000000,4368.974121,4357.436035,4332.948730,4372.948730,4358.974121,4365.256348,4362.051270,4364.102539,4355.256348,4348.717773,4493.846191,4525.512695,4401.922852,4463.461426,4398.000000,3.000000,57.000000,,,,0.000000,4.000000,4.000000,2.000000,4.000000,4.000000,2.000000,4.000000,4.000000,4.000000,4.000000,4.000000,4.000000,4.000000,4.000000,66.666664,,,,,,,,,,,,,,,,,,,,,,,,,,,,,,,,,,,,,,,,,,,,,,,,,,,,,,,,,,,,,,,,,,,,,,,,,,,,,,,,,,,,,,,,,,,,,,,,,,,,,,,,,,,,,,,,,,,,,
1768202962.917801,1768202962.918387,14.000000,0.000000,4362.692383,4353.333496,4327.948730,4370.641113,4355.128418,4362.307617,4354.743652,4365.769043,4353.077148,4343.333496,4488.846191,4522.820313,4393.974121,4457.563965,4288.000000,3.000000,57.000000,,,,0.000000,4.000000,4.000000,2.000000,4.000000,4.000000,2.000000,4.000000,4.000000,4.000000,4.000000,4.000000,4.000000,4.000000,4.000000,66.666664,1.000000,8.333333,3.000000,4.000000,0.000000,4.000000,1.000000,0.000000,4.000000,4.000000,4.000000,4.000000,4.000000,4.000000,4.000000,4.000000,,,,,,,,,,,,,,,,,,,,,,,,,,,,,,,,4.842581,0.301069,0.052522,0.294319,0.196184,1.155057,0.269788,0.167994,0.182201,0.151859,0.057785,0.041084,0.042740,0.077368,0.076277,0.301581,0.187814,0.059500,0.138710,0.087182,0.247858,0.118429,0.118650,0.089949,0.055835,0.058075,0.059945,0.041126,0.031622,0.034859,0.518173,0.492764,0.228329,0.128825,0.126711,0.637088,0.776209,0.237255,0.186598,0.223627,0.862978,0.457480,0.369893,0.131623,0.119085,0.513317,0.587880,0.330445,0.057897,0.145710,0.632515,0.618534,0.320532,0.200529,0.292467,0.500738,0.397651,0.234037,0.224952,0.200965,1.157580,0.625167,0.265051,0.264771,0.237847,2.265624,0.478512,0.312801,0.480441,0.308459
1768202962.925609,1768202962.926195,15.000000,0.000000,4350.256348,4338.461426,4322.307617,4359.102539,4340.512695,4363.461426,4341.025879,4352.820313,4339.230957,4328.205078,4473.974121,4509.743652,4391.153809,4444.487305,4772.000000,3.000000,57.000000,,,,0.000000,4.000000,4.000000,2.000000,4.000000,4.000000,2.000000,4.000000,4.000000,4.000000,4.000000,4.000000,4.000000,4.000000,4.000000,66.666664,,,,,,,,,,,,,,,,,,,,,,,,,,,,,,,,,,,,,,,,,,,,,,,,,,,,,,,,,,,,,,,,,,,,,,,,,,,,,,,,,,,,,,,,,,,,,,,,,,,,,,,,,,,,,,,,,,,,,
1768202962.933417,1768202962.934203,16.000000,0.000000,4354.871582,4339.230957,4325.128418,4355.897461,4339.615234,4363.077148,4341.666504,4342.051270,4331.538574,4325.128418,4474.230957,4506.538574,4396.153809,4445.512695,0.000000,3.000000,57.000000,,,,0.000000,4.000000,4.000000,2.000000,4.000000,4.000000,2.000000,4.000000,4.000000,4.000000,4.000000,4.000000,4.000000,4.000000,4.000000,66.666664,,,,,,,,,,,,,,,,,,,,,,,,,,,,,,,,,,,,,,,,,,,,,,,,,,,,,,,,,,,,,,,,,,,,,,,,,,,,,,,,,,,,,,,,,,,,,,,,,,,,,,,,,,,,,,,,,,,,,
1768202962.941226,1768202962.942012,17.000000,0.000000,4358.974121,4345.512695,4327.692383,4359.487305,4344.743652,4363.333496,4345.384766,4344.871582,4332.820313,4326.666504,4477.436035,4517.436035,4395.641113,4447.563965,0.000000,3.000000,57.000000,,,,0.000000,4.000000,4.000000,2.000000,4.000000,4.000000,2.000000,4.000000,4.000000,4.000000,4.000000,4.000000,4.000000,4.000000,4.000000,66.666664,,,,,,,,,,,,,,,,,,,,,,,,,,,,,,,,,,,,,,,,,,,,,,,,,,,,,,,,,,,,,,,,,,,,,,,,,,,,,,,,,,,,,,,,,,,,,,,,,,,,,,,,,,,,,,,,,,,,,
1768202962.949034,1768202962.949920,18.000000,0.000000,4354.230957,4341.666504,4322.436035,4360.000000,4342.051270,4366.153809,4343.333496,4350.384766,4333.333496,4324.358887,4473.717773,4519.743652,4389.230957,4442.948730,0.000000,3.000000,57.000000,,,,0.000000,4.000000,4.000000,2.000000,4.000000,4.000000,2.000000,4.000000,4.000000,4.000000,4.000000,4.000000,4.000000,4.000000,4.000000,66.666664,,,,,,,,,,,,,,,,,,,,,,,,,,,,,,,,,,,,,,,,,,,,,,,,,,,,,,,,,,,,,,,,,,,,,,,,,,,,,,,,,,,,,,,,,,,,,,,,,,,,,,,,,,,,,,,,,,,,,
1768202962.956843,1768202962.957729,19.000000,0.000000,4351.794922,4339.102539,4320.512695,4356.538574,4339.487305,4366.025879,4343.589844,4349.230957,4334.102539,4323.589844,4474.230957,4510.000000,4386.538574,4441.538574,0.000000,3.000000,57.000000,,,,0.000000,4.000000,4.000000,2.000000,4.000000,4.000000,2.000000,4.000000,4.000000,4.000000,4.000000,4.000000,4.000000,4.000000,4.000000,66.666664,,,,,,,,,,,,,,,,,,,,,,,,,,,,,,,,,,,,,,,,,,,,,,,,,,,,,,,,,,,,,,,,,,,,,,,,,,,,,,,,,,,,,,,,,,,,,,,,,,,,,,,,,,,,,,,,,,,,,
1768202962.964651,1768202962.965737,20.000000,0.000000,4348.846191,4342.051270,4323.974121,4351.025879,4340.897461,4362.820313,4345.897461,4348.205078,4334.358887,4324.871582,4475.128418,4507.307617,4386.922852,4436.666504,0.000000,3.000000,57.000000,,,,0.000000,4.000000,4.000000,2.000000,4.000000,4.000000,2.000000,4.000000,4.000000,4.000000,4.000000,4.000000,4.000000,4.000000,4.000000,66.666664,,,,,,,,,,,,,,,,,,,,,,,,,,,,,,,,,,,,,,,,,,,,,,,,,,,,,,,,,,,,,,,,,,,,,,,,,,,,,,,,,,,,,,,,,,,,,,,,,,,,,,,,,,,,,,,,,,,,,
1768202962.972460,1768202962.973545,21.000000,0.000000,4346.410156,4341.153809,4323.717773,4347.692383,4341.410156,4363.589844,4343.205078,4348.461426,4333.077148,4326.410156,4473.205078,4510.384766,4385.769043,4432.436035,0.000000,3.000000,57.000000,,,,0.000000,4.000000,4.000000,2.000000,4.000000,4.000000,2.000000,4.000000,4.000000,4.000000,4.000000,4.000000,4.000000,4.000000,4.000000,66.666664,,,,,,,,,,,,,,,,,,,,,,,,,,,,,,,,,,,,,,,,,,,,,,,,,,,,,,,,,,,,,,,,,,,,,,,,,,,,,,,,,,,,,,,,,,,,,,,,,,,,,,,,,,,,,,,,,,,,,
1768202962.980268,1768202962.981254,22.000000,0.000000,4345.641113,4340.000000,4322.051270,4348.974121,4341.153809,4367.051270,4341.410156,4349.358887,4334.230957,4327.692383,4475.769043,4510.641113,4386.922852,4439.743652,0.000000,3.000000,57.000000,,,,0.000000,4.000000,4.000000,2.000000,4.000000,4.000000,2.000000,4.000000,4.000000,4.000000,4.000000,4.000000,4.000000,4.000000,4.000000,66.666664,,,,,,,,,,,,,,,,,,,,,,,,,,,,,,,,,,,,,,,,,,,,,,,,,,,,,,,,,,,,,,,,,,,,,,,,,,,,,,,,,,,,,,,,,,,,,,,,,,,,,,,,,,,,,,,,,,,,,
1768202962.988077,1768202962.989062,23.000000,0.000000,4346.025879,4340.000000,4323.461426,4351.410156,4339.743652,4365.128418,4342.563965,4350.256348,4337.692383,4328.589844,4476.922852,4510.000000,4389.358887,4445.384766,0.000000,3.000000,57.000000,,,,0.000000,4.000000,4.000000,2.000000,4.000000,4.000000,2.000000,4.000000,4.000000,4.000000,4.000000,4.000000,4.000000,4.000000,4.000000,66.666664,,,,,,,,,,,,,,,,,,,,,,,,,,,,,,,,,,,,,,,,,,,,,,,,,,,,,,,,,,,,,,,,,,,,,,,,,,,,,,,,,,,,,,,,,,,,,,,,,,,,,,,,,,,,,,,,,,,,,
1768202962.995885,1768202962.997071,24.000000,0.000000,4348.717773,4341.410156,4323.461426,4353.077148,4339.615234,4362.051270,4341.538574,4348.333496,4336.153809,4327.820313,4473.461426,4508.205078,4389.102539,4439.743652,0.000000,3.000000,57.000000,,,,0.000000,4.000000,4.000000,2.000000,4.000000,4.000000,2.000000,4.000000,4.000000,4.000000,4.000000,4.000000,4.000000,4.000000,4.000000,66.666664,,,,,,,,,,,,,,,,,,,,,,,,,,,,,,,,,,,,,,,,,,,,,,,,,,,,,,,,,,,,,,,,,,,,,,,,,,,,,,,,,,,,,,,,,,,,,,,,,,,,,,,,,,,,,,,,,,,,,
1768202963.003693,1768202963.004879,25.000000,0.000000,4349.871582,4342.820313,4320.512695,4353.589844,4340.769043,4362.563965,4339.358887,4344.615234,4330.769043,4325.384766,4473.333496,4506.538574,4388.717773,4439.743652,0.000000,3.000000,57.000000,,,,0.000000,4.000000,4.000000,2.000000,4.000000,4.000000,2.000000,4.000000,4.000000,4.000000,4.000000,4.000000,4.000000,4.000000,4.000000,66.666664,,,,,,,,,,,,,,,,,,,,,,,,,,,,,,,,,,,,,,,,,,,,,,,,,,,,,,,,,,,,,,,,,,,,,,,,,,,,,,,,,,,,,,,,,,,,,,,,,,,,,,,,,,,,,,,,,,,,,
1768202963.011502,1768202963.012787,26.000000,0.000000,4349.487305,4343.077148,4318.205078,4352.948730,4340.128418,4364.615234,4340.641113,4342.051270,4328.077148,4323.333496,4476.282227,4508.461426,4390.256348,4442.820313,0.000000,3.000000,57.000000,,,,0.000000,4.000000,4.000000,2.000000,4.000000,4.000000,2.000000,4.000000,4.000000,4.000000,4.000000,4.000000,4.000000,4.000000,4.000000,66.666664,,,,,,,,,,,,,,,,,,,,,,,,,,,,,,,,,,,,,,,,,,,,,,,,,,,,,,,,,,,,,,,,,,,,,,,,,,,,,,,,,,,,,,,,,,,,,,,,,,,,,,,,,,,,,,,,,,,,,
1768202963.019310,1768202963.020596,27.000000,0.000000,4345.384766,4338.846191,4317.179688,4350.384766,4339.487305,4364.487305,4341.666504,4344.102539,4326.282227,4322.948730,4471.153809,4507.051270,4384.358887,4431.025879,0.000000,3.000000,57.000000,,,,0.000000,4.000000,4.000000,2.000000,4.000000,4.000000,2.000000,4.000000,4.000000,4.000000,4.000000,4.000000,4.000000,4.000000,4.000000,66.666664,,,,,,,,,,,,,,,,,,,,,,,,,,,,,,,,,,,,,,,,,,,,,,,,,,,,,,,,,,,,,,,,,,,,,,,,,,,,,,,,,,,,,,,,,,,,,,,,,,,,,,,,,,,,,,,,,,,,,
1768202963.027119,1768202963.028304,28.000000,0.000000,4340.641113,4334.615234,4319.102539,4350.512695,4341.153809,4362.563965,4341.922852,4352.692383,4330.769043,4323.589844,4467.307617,4505.128418,4378.974121,4423.333496,0.000000,3.000000,57.000000,,,,0.000000,4.000000,4.000000,2.000000,4.000000,4.000000,2.000000,4.000000,4.000000,4.000000,4.000000,4.000000,4.000000,4.000000,4.000000,66.666664,,,,,,,,,,,,,,,,,,,,,,,,,,,,,,,,,,,,,,,,,,,,,,,,,,,,,,,,,,,,,,,,,,,,,,,,,,,,,,,,,,,,,,,,,,,,,,,,,,,,,,,,,,,,,,,,,,,,,
1768202963.034927,1768202963.036113,29.000000,0.000000,4345.256348,4338.461426,4324.230957,4353.333496,4341.794922,4363.461426,4342.307617,4352.563965,4335.256348,4325.897461,4474.230957,4509.487305,4387.436035,4436.282227,0.000000,3.000000,57.000000,,,,0.000000,4.000000,4.000000,2.000000,4.000000,4.000000,2.000000,4.000000,4.000000,4.000000,4.000000,4.000000,4.000000,4.000000,4.000000,66.666664,,,,,,,,,,,,,,,,,,,,,,,,,,,,,,,,,,,,,,,,,,,,,,,,,,,,,,,,,,,,,,,,,,,,,,,,,,,,,,,,,,,,,,,,,,,,,,,,,,,,,,,,,,,,,,,,,,,,,
1768202963.042735,1768202963.043821,30.000000,0.000000,4350.641113,4343.589844,4323.461426,4351.282227,4340.128418,4363.589844,4340.384766,4342.307617,4331.153809,4327.436035,4478.205078,4510.384766,4395.256348,4447.307617,0.000000,3.000000,57.000000,,,,0.000000,4.000000,4.000000,2.000000,4.000000,4.000000,2.000000,4.000000,4.000000,4.000000,4.000000,4.000000,4.000000,4.000000,4.000000,66.666664,,,,,,,,,,,,,,,,,,,,,,,,,,,,,,,,,,,,,,,,,,,,,,,,3.349617,0.294231,0.067789,0.332401,0.210126,0.959645,0.326824,0.202167,0.194891,0.171653,0.059190,0.045784,0.041309,0.081372,0.087704,0.317324,0.200604,0.080229,0.128251,0.094396,0.278736,0.133025,0.116823,0.108894,0.059918,0.048301,0.075879,0.047061,0.039327,0.036405,0.568814,0.530783,0.204490,0.152592,0.122220,0.606747,0.894093,0.233848,0.193906,0.239462,0.602647,0.472600,0.381766,0.134211,0.113065,0.449380,0.579058,0.275674,0.058555,0.169024,0.586998,0.687723,0.255560,0.242456,0.313644,0.548427,0.520062,0.202940,0.270295,0.205351,1.049899,0.601220,0.214271,0.292984,0.248241,1.580660,0.443840,0.224265,0.508990,0.307817
1768202963.050544,1768202963.051630,31.000000,0.000000,4347.436035,4341.282227,4320.128418,4350.897461,4340.256348,4361.922852,4340.384766,4343.846191,4331.410156,4327.436035,4476.666504,4511.282227,4394.358887,4443.974121,0.000000,3.000000,57.000000,,,,0.000000,4.000000,4.000000,2.000000,4.000000,4.000000,2.000000,4.000000,4.000000,4.000000,4.000000,4.000000,4.000000,4.000000,4.000000,66.666664,,,,,,,,,,,,,,,,,,,,,,,,,,,,,,,,,,,,,,,,,,,,,,,,,,,,,,,,,,,,,,,,,,,,,,,,,,,,,,,,,,,,,,,,,,,,,,,,,,,,,,,,,,,,,,,,,,,,,
1768202963.058352,1768202963.059238,32.000000,0.000000,4347.051270,4336.922852,4323.077148,4354.743652,4342.436035,4362.563965,4343.974121,4354.615234,4340.512695,4327.948730,4477.563965,4515.897461,4394.743652,4440.641113,0.000000,3.000000,57.000000,,,,0.000000,4.000000,4.000000,2.000000,4.000000,4.000000,2.000000,4.000000,4.000000,4.000000,4.000000,4.000000,4.000000,4.000000,4.000000,66.666664,,,,,,,,,,,,,,,,,,,,,,,,,,,,,,,,,,,,,,,,,,,,,,,,,,,,,,,,,,,,,,,,,,,,,,,,,,,,,,,,,,,,,,,,,,,,,,,,,,,,,,,,,,,,,,,,,,,,,
1768202963.066161,1768202963.067047,33.000000,0.000000,4349.230957,4337.692383,4324.743652,4353.461426,4343.717773,4362.563965,4343.333496,4351.153809,4338.589844,4327.307617,4477.436035,4512.051270,4398.846191,4442.436035,0.000000,3.000000,57.000000,,,,0.000000,4.000000,4.000000,2.000000,4.000000,4.000000,2.000000,4.000000,4.000000,4.000000,4.000000,4.000000,4.000000,4.000000,4.000000,66.666664,,,,,,,,,,,,,,,,,,,,,,,,,,,,,,,,,,,,,,,,,,,,,,,,,,,,,,,,,,,,,,,,,,,,,,,,,,,,,,,,,,,,,,,,,,,,,,,,,,,,,,,,,,,,,,,,,,,,,
1768202963.073969,1768202963.074755,34.000000,0.000000,4347.563965,4340.897461,4324.743652,4353.077148,4343.077148,4362.179688,4340.000000,4339.871582,4326.538574,4322.436035,4472.563965,4508.333496,4399.743652,4442.692383,0.000000,3.000000,57.000000,,,,0.000000,4.000000,4.000000,2.000000,4.000000,4.000000,2.000000,4.000000,4.000000,4.000000,4.000000,4.000000,4.000000,4.000000,4.000000,66.666664,,,,,,,,,,,,,,,,,,,,,,,,,,,,,,,,,,,,,,,,,,,,,,,,,,,,,,,,,,,,,,,,,,,,,,,,,,,,,,,,,,,,,,,,,,,,,,,,,,,,,,,,,,,,,,,,,,,,,
1768202963.081777,1768202963.082564,35.000000,0.000000,4347.692383,4341.025879,4326.025879,4358.846191,4342.820313,4365.256348,4341.282227,4338.846191,4324.743652,4316.410156,4467.820313,4506.794922,4397.820313,4438.846191,0.000000,3.000000,57.000000,,,,0.000000,4.000000,4.000000,2.000000,4.000000,4.000000,2.000000,4.000000,4.000000,4.000000,4.000000,4.000000,4.000000,4.000000,4.000000,66.666664,,,,,,,,,,,,,,,,,,,,,,,,,,,,,,,,,,,,,,,,,,,,,,,,,,,,,,,,,,,,,,,,,,,,,,,,,,,,,,,,,,,,,,,,,,,,,,,,,,,,,,,,,,,,,,,,,,,,,
1768202963.089586,1768202963.090572,36.000000,0.000000,4345.384766,4340.384766,4323.333496,4358.461426,4341.538574,4366.666504,4341.282227,4343.077148,4331.666504,4316.538574,4462.948730,4497.692383,4395.512695,4429.230957,0.000000,3.000000,57.000000,,,,0.000000,4.000000,4.000000,2.000000,4.000000,4.000000,2.000000,4.000000,4.000000,4.000000,4.000000,4.000000,4.000000,4.000000,4.000000,66.666664,,,,,,,,,,,,,,,,,,,,,,,,,,,,,,,,,,,,,,,,,,,,,,,,,,,,,,,,,,,,,,,,,,,,,,,,,,,,,,,,,,,,,,,,,,,,,,,,,,,,,,,,,,,,,,,,,,,,,
1768202963.097394,1768202963.098381,37.000000,0.000000,4338.461426,4341.922852,4318.205078,4354.615234,4339.871582,4362.948730,4337.820313,4339.615234,4331.538574,4314.743652,4457.820313,4491.410156,4395.641113,4422.563965,0.000000,3.000000,57.000000,,,,0.000000,4.000000,4.000000,2.000000,4.000000,4.000000,2.000000,4.000000,4.000000,4.000000,4.000000,4.000000,4.000000,4.000000,4.000000,66.666664,,,,,,,,,,,,,,,,,,,,,,,,,,,,,,,,,,,,,,,,,,,,,,,,,,,,,,,,,,,,,,,,,,,,,,,,,,,,,,,,,,,,,,,,,,,,,,,,,,,,,,,,,,,,,,,,,,,,,
1768202963.105203,1768202963.106089,38.000000,0.000000,4343.333496,4344.743652,4321.410156,4357.436035,4342.307617,4361.538574,4339.871582,4335.000000,4329.358887,4311.025879,4464.102539,4498.717773,4399.102539,4434.487305,0.000000,3.000000,57.000000,,,,0.000000,4.000000,4.000000,2.000000,4.000000,4.000000,2.000000,4.000000,4.000000,4.000000,4.000000,4.000000,4.000000,4.000000,4.000000,66.666664,,,,,,,,,,,,,,,,,,,,,,,,,,,,,,,,,,,,,,,,,,,,,,,,,,,,,,,,,,,,,,,,,,,,,,,,,,,,,,,,,,,,,,,,,,,,,,,,,,,,,,,,,,,,,,,,,,,,,
1768202963.113011,1768202963.113898,39.000000,0.000000,4353.077148,4342.948730,4324.102539,4358.077148,4344.615234,4362.179688,4343.205078,4339.102539,4333.974121,4315.000000,4474.487305,4509.871582,4400.128418,4443.846191,0.000000,3.000000,57.000000,,,,0.000000,4.000000,4.000000,2.000000,4.000000,4.000000,2.000000,4.000000,4.000000,4.000000,4.000000,4.000000,4.000000,4.000000,4.000000,66.666664,,,,,,,,,,,,,,,,,,,,,,,,,,,,,,,,,,,,,,,,,,,,,,,,,,,,,,,,,,,,,,,,,,,,,,,,,,,,,,,,,,,,,,,,,,,,,,,,,,,,,,,,,,,,,,,,,,,,,
1768202963.120820,1768202963.121906,40.000000,0.000000,4349.230957,4341.922852,4321.025879,4352.307617,4341.410156,4363.205078,4340.512695,4342.563965,4335.384766,4316.666504,4467.436035,4504.615234,4396.410156,4431.538574,0.000000,3.000000,57.000000,,,,0.000000,4.000000,4.000000,2.000000,4.000000,4.000000,2.000000,4.000000,4.000000,4.000000,4.000000,4.000000,4.000000,4.000000,4.000000,66.666664,,,,,,,,,,,,,,,,,,,,,,,,,,,,,,,,,,,,,,,,,,,,,,,,,,,,,,,,,,,,,,,,,,,,,,,,,,,,,,,,,,,,,,,,,,,,,,,,,,,,,,,,,,,,,,,,,,,,,
1768202963.128628,1768202963.129714,41.000000,0.000000,4344.102539,4347.307617,4323.974121,4353.333496,4342.051270,4364.743652,4339.487305,4339.358887,4331.922852,4311.153809,4455.512695,4491.922852,4395.000000,4427.948730,0.000000,3.000000,57.000000,,,,0.000000,4.000000,4.000000,2.000000,4.000000,4.000000,2.000000,4.000000,4.000000,4.000000,4.000000,4.000000,4.000000,4.000000,4.000000,66.666664,,,,,,,,,,,,,,,,,,,,,,,,,,,,,,,,,,,,,,,,,,,,,,,,,,,,,,,,,,,,,,,,,,,,,,,,,,,,,,,,,,,,,,,,,,,,,,,,,,,,,,,,,,,,,,,,,,,,,
1768202963.136437,1768202963.137623,42.000000,0.000000,4349.615234,4352.179688,4324.871582,4359.102539,4346.282227,4364.487305,4341.538574,4339.615234,4334.615234,4312.948730,4463.205078,4495.641113,4399.102539,4441.538574,0.000000,3.000000,57.000000,,,,0.000000,4.000000,4.000000,2.000000,4.000000,4.000000,2.000000,4.000000,4.000000,4.000000,4.000000,4.000000,4.000000,4.000000,4.000000,66.666664,,,,,,,,,,,,,,,,,,,,,,,,,,,,,,,,,,,,,,,,,,,,,,,,,,,,,,,,,,,,,,,,,,,,,,,,,,,,,,,,,,,,,,,,,,,,,,,,,,,,,,,,,,,,,,,,,,,,,
1768202963.144245,1768202963.145431,43.000000,0.000000,4355.384766,4351.153809,4320.128418,4359.871582,4343.333496,4364.615234,4341.922852,4346.025879,4341.153809,4320.512695,4475.256348,4508.461426,4403.717773,4446.025879,0.000000,3.000000,57.000000,,,,0.000000,4.000000,4.000000,2.000000,4.000000,4.000000,2.000000,4.000000,4.000000,4.000000,4.000000,4.000000,4.000000,4.000000,4.000000,66.666664,,,,,,,,,,,,,,,,,,,,,,,,,,,,,,,,,,,,,,,,,,,,,,,,,,,,,,,,,,,,,,,,,,,,,,,,,,,,,,,,,,,,,,,,,,,,,,,,,,,,,,,,,,,,,,,,,,,,,
1768202963.152053,1768202963.153439,44.000000,0.000000,4357.051270,4350.897461,4323.589844,4359.102539,4342.563965,4364.358887,4344.615234,4351.922852,4345.512695,4325.769043,4476.538574,4509.358887,4407.692383,4446.922852,0.000000,3.000000,57.000000,,,,0.000000,4.000000,4.000000,2.000000,4.000000,4.000000,2.000000,4.000000,4.000000,4.000000,4.000000,4.000000,4.000000,4.000000,4.000000,66.666664,,,,,,,,,,,,,,,,,,,,,,,,,,,,,,,,,,,,,,,,,,,,,,,,,,,,,,,,,,,,,,,,,,,,,,,,,,,,,,,,,,,,,,,,,,,,,,,,,,,,,,,,,,,,,,,,,,,,,
1768202963.159862,1768202963.161248,45.000000,0.000000,4360.128418,4356.153809,4331.666504,4364.615234,4355.384766,4363.077148,4350.000000,4355.384766,4349.871582,4332.179688,4482.563965,4510.512695,4413.461426,4458.205078,0.000000,3.000000,57.000000,,,,0.000000,4.000000,4.000000,2.000000,4.000000,4.000000,2.000000,4.000000,4.000000,4.000000,4.000000,4.000000,4.000000,4.000000,4.000000,66.666664,,,,,,,,,,,,,,,,,,,,,,,,,,,,,,,,,,,,,,,,,,,,,,,,,,,,,,,,,,,,,,,,,,,,,,,,,,,,,,,,,,,,,,,,,,,,,,,,,,,,,,,,,,,,,,,,,,,,,
1768202963.167670,1768202963.169156,46.000000,0.000000,4362.307617,4360.897461,4328.846191,4370.000000,4361.794922,4365.128418,4352.436035,4356.666504,4351.538574,4332.820313,4491.794922,4522.179688,4416.153809,4463.846191,0.000000,3.000000,57.000000,,,,0.000000,4.000000,4.000000,2.000000,4.000000,4.000000,2.000000,4.000000,4.000000,4.000000,4.000000,4.000000,4.000000,4.000000,4.000000,66.666664,,,,,,,,,,,,,,,,,,,,,,,,,,,,,,,,,,,,,,,,,,,,,,,,2.012342,0.283818,0.082468,0.361516,0.210970,0.769027,0.356883,0.220989,0.196500,0.186870,0.067303,0.054338,0.038210,0.081952,0.094923,0.363646,0.217155,0.106876,0.120117,0.095983,0.332078,0.157803,0.113515,0.128026,0.063827,0.041038,0.089230,0.052989,0.047925,0.038992,0.649849,0.560473,0.191156,0.182648,0.116852,0.600332,0.930676,0.211469,0.192694,0.249886,0.415489,0.446825,0.356278,0.125927,0.106131,0.400362,0.531141,0.210077,0.067762,0.180032,0.573345,0.710551,0.197180,0.274694,0.310240,0.625739,0.659823,0.167964,0.305669,0.201090,0.917717,0.539226,0.163332,0.305884,0.243109,1.007744,0.413194,0.158656,0.528350,0.288162
1768202963.175479,1768202963.176965,47.000000,0.000000,4362.179688,4358.974121,4323.205078,4367.692383,4353.589844,4368.461426,4352.692383,4358.205078,4350.897461,4327.307617,4489.615234,4526.153809,4413.461426,4459.615234,0.000000,3.000000,57.000000,,,,0.000000,4.000000,4.000000,2.000000,4.000000,4.000000,2.000000,4.000000,4.000000,4.000000,4.000000,4.000000,4.000000,4.000000,4.000000,66.666664,,,,,,,,,,,,,,,,,,,,,,,,,,,,,,,,,,,,,,,,,,,,,,,,,,,,,,,,,,,,,,,,,,,,,,,,,,,,,,,,,,,,,,,,,,,,,,,,,,,,,,,,,,,,,,,,,,,,,
1768202963.183287,1768202963.184573,48.000000,0.000000,4359.615234,4352.820313,4326.025879,4364.230957,4350.256348,4370.128418,4352.179688,4359.358887,4348.461426,4328.333496,4483.077148,4517.307617,4407.563965,4456.922852,0.000000,3.000000,57.000000,,,,0.000000,4.000000,4.000000,2.000000,4.000000,4.000000,2.000000,4.000000,4.000000,4.000000,4.000000,4.000000,4.000000,4.000000,4.000000,66.666664,,,,,,,,,,,,,,,,,,,,,,,,,,,,,,,,,,,,,,,,,,,,,,,,,,,,,,,,,,,,,,,,,,,,,,,,,,,,,,,,,,,,,,,,,,,,,,,,,,,,,,,,,,,,,,,,,,,,,
1768202963.191095,1768202963.192382,49.000000,0.000000,4360.128418,4354.102539,4325.512695,4365.128418,4349.230957,4370.512695,4348.974121,4353.717773,4344.871582,4329.615234,4488.205078,4510.384766,4412.692383,4459.615234,0.000000,3.000000,57.000000,,,,0.000000,4.000000,4.000000,2.000000,4.000000,4.000000,2.000000,4.000000,4.000000,4.000000,4.000000,4.000000,4.000000,4.000000,4.000000,66.666664,,,,,,,,,,,,,,,,,,,,,,,,,,,,,,,,,,,,,,,,,,,,,,,,,,,,,,,,,,,,,,,,,,,,,,,,,,,,,,,,,,,,,,,,,,,,,,,,,,,,,,,,,,,,,,,,,,,,,
1768202963.198904,1768202963.200290,50.000000,0.000000,4363.205078,4356.153809,4322.051270,4365.128418,4346.666504,4366.153809,4349.102539,4350.897461,4350.256348,4327.948730,4493.205078,4514.871582,4417.179688,4460.256348,0.000000,3.000000,57.000000,,,,0.000000,4.000000,4.000000,2.000000,4.000000,4.000000,2.000000,4.000000,4.000000,4.000000,4.000000,4.000000,4.000000,4.000000,4.000000,66.666664,,,,,,,,,,,,,,,,,,,,,,,,,,,,,,,,,,,,,,,,,,,,,,,,,,,,,,,,,,,,,,,,,,,,,,,,,,,,,,,,,,,,,,,,,,,,,,,,,,,,,,,,,,,,,,,,,,,,,
1768202963.206712,1768202963.208098,51.000000,0.000000,4350.897461,4345.000000,4322.307617,4360.897461,4348.974121,4362.179688,4351.282227,4355.000000,4353.333496,4326.282227,4479.230957,4515.897461,4396.666504,4444.487305,0.000000,3.000000,57.000000,,,,0.000000,4.000000,4.000000,2.000000,4.000000,4.000000,2.000000,4.000000,4.000000,4.000000,4.000000,4.000000,4.000000,4.000000,4.000000,66.666664,,,,,,,,,,,,,,,,,,,,,,,,,,,,,,,,,,,,,,,,,,,,,,,,,,,,,,,,,,,,,,,,,,,,,,,,,,,,,,,,,,,,,,,,,,,,,,,,,,,,,,,,,,,,,,,,,,,,,
1768202963.214521,1768202963.215707,52.000000,0.000000,4341.153809,4338.846191,4324.102539,4356.282227,4347.563965,4364.358887,4346.922852,4350.641113,4343.589844,4326.153809,4472.948730,4507.563965,4387.563965,4436.538574,0.000000,3.000000,57.000000,,,,0.000000,4.000000,4.000000,2.000000,4.000000,4.000000,2.000000,4.000000,4.000000,4.000000,4.000000,4.000000,4.000000,4.000000,4.000000,66.666664,,,,,,,,,,,,,,,,,,,,,,,,,,,,,,,,,,,,,,,,,,,,,,,,,,,,,,,,,,,,,,,,,,,,,,,,,,,,,,,,,,,,,,,,,,,,,,,,,,,,,,,,,,,,,,,,,,,,,
1768202963.222329,1768202963.223516,53.000000,0.000000,4358.205078,4351.794922,4326.025879,4358.077148,4340.897461,4365.128418,4342.307617,4345.256348,4344.743652,4332.563965,4490.512695,4511.410156,4417.307617,4459.871582,0.000000,3.000000,57.000000,,,,0.000000,4.000000,4.000000,2.000000,4.000000,4.000000,2.000000,4.000000,4.000000,4.000000,4.000000,4.000000,4.000000,4.000000,4.000000,66.666664,,,,,,,,,,,,,,,,,,,,,,,,,,,,,,,,,,,,,,,,,,,,,,,,,,,,,,,,,,,,,,,,,,,,,,,,,,,,,,,,,,,,,,,,,,,,,,,,,,,,,,,,,,,,,,,,,,,,,
1768202963.230138,1768202963.231224,54.000000,0.000000,4371.538574,4355.000000,4326.025879,4360.128418,4341.153809,4364.358887,4341.666504,4347.563965,4352.051270,4336.538574,4497.692383,4522.692383,4436.025879,4478.589844,0.000000,3.000000,57.000000,,,,0.000000,4.000000,4.000000,2.000000,4.000000,4.000000,2.000000,4.000000,4.000000,4.000000,4.000000,4.000000,4.000000,4.000000,4.000000,66.666664,,,,,,,,,,,,,,,,,,,,,,,,,,,,,,,,,,,,,,,,,,,,,,,,,,,,,,,,,,,,,,,,,,,,,,,,,,,,,,,,,,,,,,,,,,,,,,,,,,,,,,,,,,,,,,,,,,,,,
1768202963.237946,1768202963.239033,55.000000,0.000000,4364.358887,4340.897461,4324.230957,4357.179688,4344.358887,4366.794922,4339.871582,4345.000000,4345.256348,4332.179688,4490.769043,4522.051270,4424.615234,4475.000000,0.000000,3.000000,57.000000,,,,0.000000,4.000000,4.000000,2.000000,4.000000,4.000000,2.000000,4.000000,4.000000,4.000000,4.000000,4.000000,4.000000,4.000000,4.000000,66.666664,,,,,,,,,,,,,,,,,,,,,,,,,,,,,,,,,,,,,,,,,,,,,,,,,,,,,,,,,,,,,,,,,,,,,,,,,,,,,,,,,,,,,,,,,,,,,,,,,,,,,,,,,,,,,,,,,,,,,
1768202963.245755,1768202963.246641,56.000000,0.000000,4368.717773,4342.563965,4326.922852,4359.743652,4342.179688,4367.051270,4343.333496,4345.000000,4345.128418,4338.077148,4501.153809,4523.205078,4425.897461,4477.051270,0.000000,3.000000,57.000000,,,,0.000000,4.000000,4.000000,2.000000,4.000000,4.000000,2.000000,4.000000,4.000000,4.000000,4.000000,4.000000,4.000000,4.000000,4.000000,66.666664,,,,,,,,,,,,,,,,,,,,,,,,,,,,,,,,,,,,,,,,,,,,,,,,,,,,,,,,,,,,,,,,,,,,,,,,,,,,,,,,,,,,,,,,,,,,,,,,,,,,,,,,,,,,,,,,,,,,,
1768202963.253563,1768202963.254450,57.000000,0.000000,4376.153809,4354.102539,4330.384766,4366.922852,4341.922852,4363.717773,4350.897461,4354.230957,4355.769043,4344.102539,4510.128418,4527.948730,4435.769043,4483.589844,0.000000,3.000000,57.000000,,,,0.000000,4.000000,4.000000,2.000000,4.000000,4.000000,2.000000,4.000000,4.000000,4.000000,4.000000,4.000000,4.000000,4.000000,4.000000,66.666664,,,,,,,,,,,,,,,,,,,,,,,,,,,,,,,,,,,,,,,,,,,,,,,,,,,,,,,,,,,,,,,,,,,,,,,,,,,,,,,,,,,,,,,,,,,,,,,,,,,,,,,,,,,,,,,,,,,,,
1768202963.261371,1768202963.262158,58.000000,0.000000,4363.717773,4347.820313,4325.128418,4364.358887,4343.717773,4363.717773,4346.410156,4352.563965,4350.769043,4332.307617,4497.051270,4522.563965,4423.974121,4473.846191,0.000000,3.000000,57.000000,,,,0.000000,4.000000,4.000000,2.000000,4.000000,4.000000,2.000000,4.000000,4.000000,4.000000,4.000000,4.000000,4.000000,4.000000,4.000000,66.666664,,,,,,,,,,,,,,,,,,,,,,,,,,,,,,,,,,,,,,,,,,,,,,,,,,,,,,,,,,,,,,,,,,,,,,,,,,,,,,,,,,,,,,,,,,,,,,,,,,,,,,,,,,,,,,,,,,,,,
1768202963.269180,1768202963.269967,59.000000,0.000000,4357.051270,4340.384766,4322.051270,4357.692383,4342.948730,4365.641113,4340.897461,4347.820313,4343.974121,4326.282227,4487.948730,4520.769043,4413.461426,4465.384766,0.000000,3.000000,57.000000,,,,0.000000,4.000000,4.000000,2.000000,4.000000,4.000000,2.000000,4.000000,4.000000,4.000000,4.000000,4.000000,4.000000,4.000000,4.000000,66.666664,,,,,,,,,,,,,,,,,,,,,,,,,,,,,,,,,,,,,,,,,,,,,,,,,,,,,,,,,,,,,,,,,,,,,,,,,,,,,,,,,,,,,,,,,,,,,,,,,,,,,,,,,,,,,,,,,,,,,
1768202963.276988,1768202963.277975,60.000000,0.000000,4365.384766,4346.922852,4325.000000,4360.384766,4342.436035,4364.102539,4346.282227,4355.769043,4348.974121,4335.769043,4492.307617,4525.256348,4423.205078,4473.205078,0.000000,3.000000,57.000000,,,,0.000000,4.000000,4.000000,2.000000,4.000000,4.000000,2.000000,4.000000,4.000000,4.000000,4.000000,4.000000,4.000000,4.000000,4.000000,66.666664,,,,,,,,,,,,,,,,,,,,,,,,,,,,,,,,,,,,,,,,,,,,,,,,,,,,,,,,,,,,,,,,,,,,,,,,,,,,,,,,,,,,,,,,,,,,,,,,,,,,,,,,,,,,,,,,,,,,,
1768202963.284797,1768202963.285783,61.000000,0.000000,4368.333496,4352.820313,4322.179688,4362.692383,4341.410156,4363.333496,4346.794922,4357.948730,4348.974121,4337.307617,4493.846191,4524.230957,4428.846191,4476.794922,0.000000,3.000000,57.000000,,,,0.000000,4.000000,4.000000,2.000000,4.000000,4.000000,2.000000,4.000000,4.000000,4.000000,4.000000,4.000000,4.000000,4.000000,4.000000,66.666664,,,,,,,,,,,,,,,,,,,,,,,,,,,,,,,,,,,,,,,,,,,,,,,,,,,,,,,,,,,,,,,,,,,,,,,,,,,,,,,,,,,,,,,,,,,,,,,,,,,,,,,,,,,,,,,,,,,,,
1768202963.292605,1768202963.293492,62.000000,0.000000,4361.282227,4350.384766,4322.563965,4357.563965,4340.512695,4366.282227,4341.666504,4351.794922,4343.333496,4331.666504,4489.615234,4521.538574,4420.000000,4465.000000,0.000000,3.000000,57.000000,,,,0.000000,4.000000,4.000000,2.000000,4.000000,4.000000,2.000000,4.000000,4.000000,4.000000,4.000000,4.000000,4.000000,4.000000,4.000000,66.666664,,,,,,,,,,,,,,,,,,,,,,,,,,,,,,,,,,,,,,,,,,,,,,,,1.106999,0.271863,0.094423,0.372292,0.197062,0.622037,0.346671,0.216603,0.187460,0.194930,0.079898,0.065514,0.035090,0.079632,0.095929,0.427091,0.231889,0.130082,0.116714,0.091583,0.396080,0.196128,0.108037,0.144470,0.067216,0.036563,0.094901,0.056612,0.055068,0.042325,0.715957,0.561737,0.188371,0.214183,0.110778,0.593146,0.878960,0.178343,0.187285,0.252775,0.319434,0.383800,0.304875,0.111117,0.100559,0.373631,0.448899,0.151655,0.088805,0.175492,0.572330,0.684999,0.166647,0.288683,0.282263,0.694962,0.779666,0.132075,0.324561,0.188512,0.774188,0.457623,0.129772,0.295720,0.223310,0.666298,0.406948,0.138684,0.527609,0.253027
1768202963.300413,1768202963.301300,63.000000,0.000000,4357.179688,4347.563965,4327.307617,4357.820313,4340.641113,4366.794922,4341.922852,4352.436035,4343.461426,4334.358887,4488.846191,4520.641113,4421.410156,4457.563965,0.000000,3.000000,57.000000,,,,0.000000,4.000000,4.000000,2.000000,4.000000,4.000000,2.000000,4.000000,4.000000,4.000000,4.000000,4.000000,4.000000,4.000000,4.000000,66.666664,,,,,,,,,,,,,,,,,,,,,,,,,,,,,,,,,,,,,,,,,,,,,,,,,,,,,,,,,,,,,,,,,,,,,,,,,,,,,,,,,,,,,,,,,,,,,,,,,,,,,,,,,,,,,,,,,,,,,
1768202963.308222,1768202963.308909,64.000000,0.000000,4355.256348,4344.102539,4323.974121,4357.820313,4340.384766,4362.563965,4342.563965,4355.512695,4346.538574,4336.538574,4491.666504,4520.641113,4427.179688,4461.410156,966.000000,3.000000,57.000000,,,,0.000000,4.000000,4.000000,2.000000,4.000000,4.000000,2.000000,4.000000,4.000000,4.000000,4.000000,4.000000,4.000000,4.000000,4.000000,66.666664,,,,,,,,,,,,,,,,,,,,,,,,,,,,,,,,,,,,,,,,,,,,,,,,,,,,,,,,,,,,,,,,,,,,,,,,,,,,,,,,,,,,,,,,,,,,,,,,,,,,,,,,,,,,,,,,,,,,,
1768202963.316030,1768202963.316717,65.000000,0.000000,4349.615234,4337.820313,4318.333496,4352.179688,4337.948730,4361.666504,4340.256348,4354.230957,4344.871582,4329.743652,4491.538574,4516.666504,4417.179688,4460.384766,2849.000000,3.000000,57.000000,,,,0.000000,4.000000,4.000000,2.000000,4.000000,4.000000,2.000000,4.000000,4.000000,4.000000,4.000000,4.000000,4.000000,4.000000,4.000000,66.666664,,,,,,,,,,,,,,,,,,,,,,,,,,,,,,,,,,,,,,,,,,,,,,,,,,,,,,,,,,,,,,,,,,,,,,,,,,,,,,,,,,,,,,,,,,,,,,,,,,,,,,,,,,,,,,,,,,,,,
1768202963.323839,1768202963.324426,66.000000,0.000000,4349.743652,4336.153809,4321.282227,4353.589844,4337.307617,4364.487305,4340.128418,4355.000000,4341.922852,4324.615234,4489.358887,4510.256348,4410.128418,4456.922852,3759.000000,3.000000,57.000000,,,,0.000000,4.000000,4.000000,2.000000,4.000000,4.000000,2.000000,4.000000,4.000000,4.000000,4.000000,4.000000,4.000000,4.000000,4.000000,66.666664,,,,,,,,,,,,,,,,,,,,,,,,,,,,,,,,,,,,,,,,,,,,,,,,,,,,,,,,,,,,,,,,,,,,,,,,,,,,,,,,,,,,,,,,,,,,,,,,,,,,,,,,,,,,,,,,,,,,,
1768202963.331647,1768202963.332234,67.000000,0.000000,4355.000000,4339.487305,4324.358887,4358.589844,4340.897461,4364.358887,4343.846191,4357.051270,4343.974121,4326.025879,4489.615234,4507.948730,4413.846191,4457.051270,3667.000000,3.000000,57.000000,,,,0.000000,4.000000,4.000000,2.000000,4.000000,4.000000,2.000000,4.000000,4.000000,4.000000,4.000000,4.000000,4.000000,4.000000,4.000000,66.666664,,,,,,,,,,,,,,,,,,,,,,,,,,,,,,,,,,,,,,,,,,,,,,,,,,,,,,,,,,,,,,,,,,,,,,,,,,,,,,,,,,,,,,,,,,,,,,,,,,,,,,,,,,,,,,,,,,,,,
1768202963.339456,1768202963.340243,68.000000,0.000000,4352.179688,4341.922852,4321.538574,4356.922852,4344.230957,4362.563965,4348.974121,4356.410156,4348.077148,4330.384766,4489.615234,4508.205078,4413.461426,4456.922852,3719.000000,3.000000,57.000000,,,,0.000000,4.000000,4.000000,2.000000,4.000000,4.000000,2.000000,4.000000,4.000000,4.000000,4.000000,4.000000,4.000000,4.000000,4.000000,66.666664,,,,,,,,,,,,,,,,,,,,,,,,,,,,,,,,,,,,,,,,,,,,,,,,,,,,,,,,,,,,,,,,,,,,,,,,,,,,,,,,,,,,,,,,,,,,,,,,,,,,,,,,,,,,,,,,,,,,,
1768202963.347264,1768202963.348051,69.000000,0.000000,4347.051270,4342.563965,4321.794922,4355.384766,4344.487305,4366.025879,4351.025879,4361.153809,4351.025879,4334.102539,4490.256348,4513.974121,4411.794922,4457.307617,769.000000,3.000000,57.000000,,,,0.000000,4.000000,4.000000,2.000000,4.000000,4.000000,2.000000,4.000000,4.000000,4.000000,4.000000,4.000000,4.000000,4.000000,4.000000,66.666664,,,,,,,,,,,,,,,,,,,,,,,,,,,,,,,,,,,,,,,,,,,,,,,,,,,,,,,,,,,,,,,,,,,,,,,,,,,,,,,,,,,,,,,,,,,,,,,,,,,,,,,,,,,,,,,,,,,,,
1768202963.355072,1768202963.355959,70.000000,0.000000,4351.025879,4340.256348,4325.769043,4357.820313,4341.410156,4369.230957,4350.256348,4366.282227,4352.179688,4336.282227,4489.743652,4519.230957,4414.102539,4459.743652,3972.000000,3.000000,57.000000,,,,0.000000,4.000000,4.000000,2.000000,4.000000,4.000000,2.000000,4.000000,4.000000,4.000000,4.000000,4.000000,4.000000,4.000000,4.000000,66.666664,,,,,,,,,,,,,,,,,,,,,,,,,,,,,,,,,,,,,,,,,,,,,,,,,,,,,,,,,,,,,,,,,,,,,,,,,,,,,,,,,,,,,,,,,,,,,,,,,,,,,,,,,,,,,,,,,,,,,
1768202963.362881,1768202963.363768,71.000000,0.000000,4358.589844,4340.641113,4329.358887,4357.563965,4342.436035,4366.922852,4348.333496,4359.487305,4347.692383,4333.974121,4482.179688,4510.897461,4413.974121,4459.358887,4121.000000,3.000000,57.000000,,,,0.000000,4.000000,4.000000,2.000000,4.000000,4.000000,2.000000,4.000000,4.000000,4.000000,4.000000,4.000000,4.000000,4.000000,4.000000,66.666664,,,,,,,,,,,,,,,,,,,,,,,,,,,,,,,,,,,,,,,,,,,,,,,,,,,,,,,,,,,,,,,,,,,,,,,,,,,,,,,,,,,,,,,,,,,,,,,,,,,,,,,,,,,,,,,,,,,,,
1768202963.370689,1768202963.371776,72.000000,0.000000,4359.743652,4349.743652,4329.743652,4357.820313,4349.743652,4365.512695,4349.487305,4353.077148,4344.615234,4334.358887,4481.410156,4506.666504,4416.922852,4458.205078,4086.000000,3.000000,57.000000,,,,0.000000,4.000000,4.000000,2.000000,4.000000,4.000000,2.000000,4.000000,4.000000,4.000000,4.000000,4.000000,4.000000,4.000000,4.000000,66.666664,,,,,,,,,,,,,,,,,,,,,,,,,,,,,,,,,,,,,,,,,,,,,,,,,,,,,,,,,,,,,,,,,,,,,,,,,,,,,,,,,,,,,,,,,,,,,,,,,,,,,,,,,,,,,,,,,,,,,
1768202963.378498,1768202963.379585,73.000000,0.000000,4358.461426,4351.922852,4324.102539,4359.487305,4348.205078,4367.051270,4353.077148,4359.615234,4347.307617,4334.743652,4490.769043,4515.128418,4418.333496,4459.615234,4113.000000,3.000000,57.000000,,,,0.000000,4.000000,4.000000,2.000000,4.000000,4.000000,2.000000,4.000000,4.000000,4.000000,4.000000,4.000000,4.000000,4.000000,4.000000,66.666664,,,,,,,,,,,,,,,,,,,,,,,,,,,,,,,,,,,,,,,,,,,,,,,,,,,,,,,,,,,,,,,,,,,,,,,,,,,,,,,,,,,,,,,,,,,,,,,,,,,,,,,,,,,,,,,,,,,,,
1768202963.386306,1768202963.387293,74.000000,0.000000,4358.077148,4342.820313,4322.307617,4356.666504,4342.436035,4365.256348,4352.692383,4361.666504,4346.153809,4331.282227,4494.102539,4515.256348,4414.358887,4460.128418,4288.000000,3.000000,57.000000,,,,0.000000,4.000000,4.000000,2.000000,4.000000,4.000000,2.000000,4.000000,4.000000,4.000000,4.000000,4.000000,4.000000,4.000000,4.000000,66.666664,,,,,,,,,,,,,,,,,,,,,,,,,,,,,,,,,,,,,,,,,,,,,,,,,,,,,,,,,,,,,,,,,,,,,,,,,,,,,,,,,,,,,,,,,,,,,,,,,,,,,,,,,,,,,,,,,,,,,
1768202963.394115,1768202963.395102,75.000000,0.000000,4357.179688,4344.743652,4324.743652,4355.641113,4344.487305,4362.563965,4348.717773,4356.410156,4343.205078,4329.102539,4488.717773,4510.384766,4414.487305,4459.743652,4772.000000,3.000000,57.000000,,,,0.000000,4.000000,4.000000,2.000000,4.000000,4.000000,2.000000,4.000000,4.000000,4.000000,4.000000,4.000000,4.000000,4.000000,4.000000,66.666664,,,,,,,,,,,,,,,,,,,,,,,,,,,,,,,,,,,,,,,,,,,,,,,,,,,,,,,,,,,,,,,,,,,,,,,,,,,,,,,,,,,,,,,,,,,,,,,,,,,,,,,,,,,,,,,,,,,,,
1768202963.401923,1768202963.403010,76.000000,0.000000,4358.205078,4351.282227,4323.717773,4357.948730,4346.410156,4363.717773,4349.230957,4359.102539,4346.922852,4329.615234,4486.794922,4519.102539,4416.538574,4459.358887,5228.000000,3.000000,57.000000,,,,0.000000,4.000000,4.000000,2.000000,4.000000,4.000000,2.000000,4.000000,4.000000,4.000000,4.000000,4.000000,4.000000,4.000000,4.000000,66.666664,,,,,,,,,,,,,,,,,,,,,,,,,,,,,,,,,,,,,,,,,,,,,,,,,,,,,,,,,,,,,,,,,,,,,,,,,,,,,,,,,,,,,,,,,,,,,,,,,,,,,,,,,,,,,,,,,,,,,
1768202963.409732,1768202963.410818,77.000000,0.000000,4357.948730,4344.615234,4320.897461,4357.179688,4345.000000,4366.666504,4350.769043,4360.384766,4344.743652,4330.897461,4489.487305,4525.000000,4418.846191,4458.974121,4398.000000,3.000000,57.000000,,,,0.000000,4.000000,4.000000,2.000000,4.000000,4.000000,2.000000,4.000000,4.000000,4.000000,4.000000,4.000000,4.000000,4.000000,4.000000,66.666664,,,,,,,,,,,,,,,,,,,,,,,,,,,,,,,,,,,,,,,,,,,,,,,,,,,,,,,,,,,,,,,,,,,,,,,,,,,,,,,,,,,,,,,,,,,,,,,,,,,,,,,,,,,,,,,,,,,,,
1768202963.417540,1768202963.418527,78.000000,0.000000,4358.461426,4339.230957,4324.615234,4357.179688,4348.846191,4367.948730,4349.743652,4356.153809,4340.769043,4333.077148,4491.025879,4521.538574,4420.897461,4460.128418,4288.000000,3.000000,57.000000,,,,0.000000,4.000000,4.000000,2.000000,4.000000,4.000000,2.000000,4.000000,4.000000,4.000000,4.000000,4.000000,4.000000,4.000000,4.000000,66.666664,1.000000,8.333333,4.000000,4.000000,0.000000,4.000000,1.000000,0.000000,4.000000,4.000000,4.000000,4.000000,4.000000,4.000000,4.000000,4.000000,,,,,,,,,,,,,,,,,,,,,,,,,,,,,,,,0.651462,0.267352,0.102559,0.361654,0.173053,0.529985,0.302209,0.189800,0.173430,0.196073,0.091542,0.077602,0.034098,0.075877,0.090856,0.482571,0.244640,0.143869,0.119902,0.083025,0.455594,0.247003,0.102253,0.156754,0.070508,0.033644,0.090284,0.056032,0.058797,0.045648,0.727302,0.525018,0.191533,0.240569,0.104700,0.569746,0.768287,0.151283,0.182723,0.248231,0.300064,0.307089,0.253416,0.098337,0.097890,0.376492,0.358032,0.120606,0.122981,0.157245,0.568950,0.635211,0.181284,0.284865,0.239633,0.721110,0.858176,0.101621,0.328027,0.172805,0.622896,0.383564,0.133097,0.265356,0.195356,0.540708,0.456000,0.171471,0.506936,0.214363
1768202963.425348,1768202963.426335,79.000000,0.000000,4361.153809,4343.589844,4329.230957,4357.307617,4352.948730,4368.717773,4353.461426,4362.307617,4350.128418,4339.230957,4490.512695,4524.230957,4421.282227,4461.282227,4772.000000,3.000000,57.000000,,,,0.000000,4.000000,4.000000,2.000000,4.000000,4.000000,2.000000,4.000000,4.000000,4.000000,4.000000,4.000000,4.000000,4.000000,4.000000,66.666664,,,,,,,,,,,,,,,,,,,,,,,,,,,,,,,,,,,,,,,,,,,,,,,,,,,,,,,,,,,,,,,,,,,,,,,,,,,,,,,,,,,,,,,,,,,,,,,,,,,,,,,,,,,,,,,,,,,,,
1768202963.433157,1768202963.433944,80.000000,0.000000,4356.922852,4343.589844,4327.307617,4352.436035,4349.743652,4369.230957,4358.589844,4368.589844,4353.077148,4341.025879,4489.358887,4526.282227,4417.563965,4459.615234,5228.000000,3.000000,57.000000,,,,0.000000,4.000000,4.000000,2.000000,4.000000,4.000000,2.000000,4.000000,4.000000,4.000000,4.000000,4.000000,4.000000,4.000000,4.000000,66.666664,,,,,,,,,,,,,,,,,,,,,,,,,,,,,,,,,,,,,,,,,,,,,,,,,,,,,,,,,,,,,,,,,,,,,,,,,,,,,,,,,,,,,,,,,,,,,,,,,,,,,,,,,,,,,,,,,,,,,
1768202963.440965,1768202963.441752,81.000000,0.000000,4351.666504,4339.102539,4325.384766,4347.948730,4345.128418,4368.461426,4355.384766,4362.820313,4343.333496,4336.666504,4490.769043,4522.307617,4414.230957,4457.692383,4398.000000,3.000000,57.000000,,,,0.000000,4.000000,4.000000,2.000000,4.000000,4.000000,2.000000,4.000000,4.000000,4.000000,4.000000,4.000000,4.000000,4.000000,4.000000,66.666664,,,,,,,,,,,,,,,,,,,,,,,,,,,,,,,,,,,,,,,,,,,,,,,,,,,,,,,,,,,,,,,,,,,,,,,,,,,,,,,,,,,,,,,,,,,,,,,,,,,,,,,,,,,,,,,,,,,,,
1768202963.448774,1768202963.449461,82.000000,0.000000,4354.871582,4338.589844,4325.769043,4350.128418,4341.794922,4367.692383,4351.410156,4356.410156,4344.102539,4335.897461,4491.666504,4522.820313,4413.461426,4457.692383,4288.000000,3.000000,57.000000,,,,0.000000,4.000000,4.000000,2.000000,4.000000,4.000000,2.000000,4.000000,4.000000,4.000000,4.000000,4.000000,4.000000,4.000000,4.000000,66.666664,,,,,,,,,,,,,,,,,,,,,,,,,,,,,,,,,,,,,,,,,,,,,,,,,,,,,,,,,,,,,,,,,,,,,,,,,,,,,,,,,,,,,,,,,,,,,,,,,,,,,,,,,,,,,,,,,,,,,
1768202963.456582,1768202963.457269,83.000000,0.000000,4359.487305,4341.153809,4327.948730,4355.256348,4341.794922,4367.820313,4355.769043,4358.461426,4350.256348,4336.410156,4491.666504,4525.384766,4413.846191,4459.102539,4772.000000,3.000000,57.000000,,,,0.000000,4.000000,4.000000,2.000000,4.000000,4.000000,2.000000,4.000000,4.000000,4.000000,4.000000,4.000000,4.000000,4.000000,4.000000,66.666664,,,,,,,,,,,,,,,,,,,,,,,,,,,,,,,,,,,,,,,,,,,,,,,,,,,,,,,,,,,,,,,,,,,,,,,,,,,,,,,,,,,,,,,,,,,,,,,,,,,,,,,,,,,,,,,,,,,,,
1768202963.464390,1768202963.465278,84.000000,0.000000,4359.102539,4344.230957,4329.743652,4358.717773,4342.948730,4368.205078,4359.230957,4363.846191,4345.000000,4332.307617,4491.410156,4524.871582,4414.358887,4460.641113,5228.000000,3.000000,57.000000,,,,0.000000,4.000000,4.000000,2.000000,4.000000,4.000000,2.000000,4.000000,4.000000,4.000000,4.000000,4.000000,4.000000,4.000000,4.000000,66.666664,,,,,,,,,,,,,,,,,,,,,,,,,,,,,,,,,,,,,,,,,,,,,,,,,,,,,,,,,,,,,,,,,,,,,,,,,,,,,,,,,,,,,,,,,,,,,,,,,,,,,,,,,,,,,,,,,,,,,
1768202963.472199,1768202963.473086,85.000000,0.000000,4356.538574,4342.436035,4330.000000,4358.333496,4341.410156,4368.461426,4356.666504,4363.589844,4339.871582,4325.641113,4490.000000,4527.692383,4411.282227,4458.589844,4398.000000,3.000000,57.000000,,,,0.000000,4.000000,4.000000,2.000000,4.000000,4.000000,2.000000,4.000000,4.000000,4.000000,4.000000,4.000000,4.000000,4.000000,4.000000,66.666664,,,,,,,,,,,,,,,,,,,,,,,,,,,,,,,,,,,,,,,,,,,,,,,,,,,,,,,,,,,,,,,,,,,,,,,,,,,,,,,,,,,,,,,,,,,,,,,,,,,,,,,,,,,,,,,,,,,,,
1768202963.480007,1768202963.480995,86.000000,0.000000,4356.025879,4341.153809,4329.615234,4357.563965,4341.538574,4366.794922,4355.897461,4360.128418,4344.102539,4327.179688,4491.666504,4533.333496,4409.743652,4460.256348,4288.000000,3.000000,57.000000,,,,0.000000,4.000000,4.000000,2.000000,4.000000,4.000000,2.000000,4.000000,4.000000,4.000000,4.000000,4.000000,4.000000,4.000000,4.000000,66.666664,,,,,,,,,,,,,,,,,,,,,,,,,,,,,,,,,,,,,,,,,,,,,,,,,,,,,,,,,,,,,,,,,,,,,,,,,,,,,,,,,,,,,,,,,,,,,,,,,,,,,,,,,,,,,,,,,,,,,
1768202963.487816,1768202963.488803,87.000000,0.000000,4357.948730,4347.051270,4329.230957,4358.846191,4342.563965,4366.538574,4356.794922,4359.102539,4344.743652,4334.743652,4493.974121,4530.256348,4413.461426,4465.897461,4772.000000,3.000000,57.000000,,,,0.000000,4.000000,4.000000,2.000000,4.000000,4.000000,2.000000,4.000000,4.000000,4.000000,4.000000,4.000000,4.000000,4.000000,4.000000,66.666664,,,,,,,,,,,,,,,,,,,,,,,,,,,,,,,,,,,,,,,,,,,,,,,,,,,,,,,,,,,,,,,,,,,,,,,,,,,,,,,,,,,,,,,,,,,,,,,,,,,,,,,,,,,,,,,,,,,,,
1768202963.495624,1768202963.496412,88.000000,0.000000,4359.871582,4350.641113,4328.717773,4358.717773,4341.410156,4368.589844,4358.974121,4360.641113,4341.922852,4335.384766,4490.641113,4524.487305,4413.461426,4463.974121,5228.000000,3.000000,57.000000,,,,0.000000,4.000000,4.000000,2.000000,4.000000,4.000000,2.000000,4.000000,4.000000,4.000000,4.000000,4.000000,4.000000,4.000000,4.000000,66.666664,,,,,,,,,,,,,,,,,,,,,,,,,,,,,,,,,,,,,,,,,,,,,,,,,,,,,,,,,,,,,,,,,,,,,,,,,,,,,,,,,,,,,,,,,,,,,,,,,,,,,,,,,,,,,,,,,,,,,
1768202963.503433,1768202963.504220,89.000000,0.000000,4358.077148,4347.307617,4326.538574,4356.666504,4341.282227,4367.820313,4361.410156,4360.641113,4342.563965,4328.461426,4487.436035,4523.717773,4407.563965,4457.179688,4398.000000,3.000000,57.000000,,,,0.000000,4.000000,4.000000,2.000000,4.000000,4.000000,2.000000,4.000000,4.000000,4.000000,4.000000,4.000000,4.000000,4.000000,4.000000,66.666664,,,,,,,,,,,,,,,,,,,,,,,,,,,,,,,,,,,,,,,,,,,,,,,,,,,,,,,,,,,,,,,,,,,,,,,,,,,,,,,,,,,,,,,,,,,,,,,,,,,,,,,,,,,,,,,,,,,,,
1768202963.511241,1768202963.511929,90.000000,0.000000,4358.589844,4350.384766,4326.153809,4357.692383,4342.051270,4365.256348,4356.922852,4356.794922,4342.820313,4326.538574,4488.205078,4523.461426,4405.512695,4455.384766,4288.000000,3.000000,57.000000,,,,0.000000,4.000000,4.000000,2.000000,4.000000,4.000000,2.000000,4.000000,4.000000,4.000000,4.000000,4.000000,4.000000,4.000000,4.000000,66.666664,,,,,,,,,,,,,,,,,,,,,,,,,,,,,,,,,,,,,,,,,,,,,,,,,,,,,,,,,,,,,,,,,,,,,,,,,,,,,,,,,,,,,,,,,,,,,,,,,,,,,,,,,,,,,,,,,,,,,
1768202963.519050,1768202963.519737,91.000000,0.000000,4362.563965,4358.846191,4326.282227,4359.615234,4342.563965,4364.871582,4351.538574,4356.538574,4342.307617,4334.743652,4488.333496,4522.948730,4412.307617,4459.615234,4772.000000,3.000000,57.000000,,,,0.000000,4.000000,4.000000,2.000000,4.000000,4.000000,2.000000,4.000000,4.000000,4.000000,4.000000,4.000000,4.000000,4.000000,4.000000,66.666664,,,,,,,,,,,,,,,,,,,,,,,,,,,,,,,,,,,,,,,,,,,,,,,,,,,,,,,,,,,,,,,,,,,,,,,,,,,,,,,,,,,,,,,,,,,,,,,,,,,,,,,,,,,,,,,,,,,,,
1768202963.526858,1768202963.527745,92.000000,0.000000,4358.333496,4351.666504,4326.025879,4359.487305,4345.512695,4366.538574,4356.153809,4363.461426,4345.897461,4339.102539,4487.563965,4523.846191,4416.538574,4460.897461,5228.000000,3.000000,57.000000,,,,0.000000,4.000000,4.000000,2.000000,4.000000,4.000000,2.000000,4.000000,4.000000,4.000000,4.000000,4.000000,4.000000,4.000000,4.000000,66.666664,,,,,,,,,,,,,,,,,,,,,,,,,,,,,,,,,,,,,,,,,,,,,,,,,,,,,,,,,,,,,,,,,,,,,,,,,,,,,,,,,,,,,,,,,,,,,,,,,,,,,,,,,,,,,,,,,,,,,
1768202963.534666,1768202963.535554,93.000000,0.000000,4351.025879,4337.563965,4327.051270,4357.563965,4347.563965,4369.102539,4360.512695,4366.538574,4348.846191,4334.358887,4482.051270,4521.666504,4407.563965,4451.794922,4398.000000,3.000000,57.000000,,,,0.000000,4.000000,4.000000,2.000000,4.000000,4.000000,2.000000,4.000000,4.000000,4.000000,4.000000,4.000000,4.000000,4.000000,4.000000,66.666664,,,,,,,,,,,,,,,,,,,,,,,,,,,,,,,,,,,,,,,,,,,,,,,,,,,,,,,,,,,,,,,,,,,,,,,,,,,,,,,,,,,,,,,,,,,,,,,,,,,,,,,,,,,,,,,,,,,,,
1768202963.542475,1768202963.543462,94.000000,0.000000,4354.743652,4343.205078,4329.230957,4358.077148,4345.897461,4371.666504,4356.666504,4360.384766,4345.384766,4332.436035,4479.487305,4520.512695,4400.641113,4446.538574,4288.000000,3.000000,57.000000,,,,0.000000,4.000000,4.000000,2.000000,4.000000,4.000000,2.000000,4.000000,4.000000,4.000000,4.000000,4.000000,4.000000,4.000000,4.000000,66.666664,,,,,,,,,,,,,,,,,,,,,,,,,,,,,,,,,,,,,,,,,,,,,,,,0.486551,0.284624,0.110829,0.336060,0.148621,0.480721,0.244498,0.149694,0.161612,0.193395,0.096597,0.088667,0.036319,0.072404,0.081943,0.500811,0.258076,0.146844,0.129044,0.073730,0.495359,0.304809,0.098371,0.163978,0.074251,0.031219,0.077179,0.050785,0.058443,0.047808,0.675023,0.457400,0.193425,0.255270,0.098997,0.538511,0.643812,0.141445,0.181406,0.238015,0.329066,0.245860,0.224493,0.094823,0.098829,0.409156,0.292433,0.130055,0.166737,0.132026,0.570833,0.598742,0.250676,0.271176,0.198846,0.698227,0.896174,0.086549,0.322589,0.161394,0.484785,0.348912,0.190597,0.229579,0.171887,0.534768,0.592427,0.255557,0.479138,0.188776
1768202963.550283,1768202963.551271,95.000000,0.000000,4362.692383,4354.743652,4329.102539,4363.846191,4343.461426,4368.974121,4348.077148,4358.205078,4342.563965,4337.179688,4488.205078,4522.692383,4409.230957,4456.282227,4772.000000,3.000000,57.000000,,,,0.000000,4.000000,4.000000,2.000000,4.000000,4.000000,2.000000,4.000000,4.000000,4.000000,4.000000,4.000000,4.000000,4.000000,4.000000,66.666664,,,,,,,,,,,,,,,,,,,,,,,,,,,,,,,,,,,,,,,,,,,,,,,,,,,,,,,,,,,,,,,,,,,,,,,,,,,,,,,,,,,,,,,,,,,,,,,,,,,,,,,,,,,,,,,,,,,,,
1768202963.558092,1768202963.559279,96.000000,0.000000,4360.897461,4349.230957,4325.384766,4363.461426,4341.282227,4363.205078,4343.846191,4361.410156,4343.205078,4335.641113,4492.051270,4523.333496,4415.256348,4464.358887,5228.000000,3.000000,57.000000,,,,0.000000,4.000000,4.000000,2.000000,4.000000,4.000000,2.000000,4.000000,4.000000,4.000000,4.000000,4.000000,4.000000,4.000000,4.000000,66.666664,,,,,,,,,,,,,,,,,,,,,,,,,,,,,,,,,,,,,,,,,,,,,,,,,,,,,,,,,,,,,,,,,,,,,,,,,,,,,,,,,,,,,,,,,,,,,,,,,,,,,,,,,,,,,,,,,,,,,
1768202963.565900,1768202963.567087,97.000000,0.000000,4355.128418,4339.871582,4323.846191,4357.051270,4340.256348,4364.743652,4347.436035,4356.538574,4340.641113,4327.307617,4484.487305,4521.538574,4408.717773,4458.717773,4398.000000,3.000000,57.000000,,,,0.000000,4.000000,4.000000,2.000000,4.000000,4.000000,2.000000,4.000000,4.000000,4.000000,4.000000,4.000000,4.000000,4.000000,4.000000,66.666664,,,,,,,,,,,,,,,,,,,,,,,,,,,,,,,,,,,,,,,,,,,,,,,,,,,,,,,,,,,,,,,,,,,,,,,,,,,,,,,,,,,,,,,,,,,,,,,,,,,,,,,,,,,,,,,,,,,,,
1768202963.573708,1768202963.574996,98.000000,0.000000,4356.410156,4339.871582,4326.538574,4359.358887,4339.743652,4368.846191,4348.333496,4353.077148,4338.589844,4328.461426,4483.461426,4520.897461,4405.641113,4455.512695,4288.000000,3.000000,57.000000,,,,0.000000,4.000000,4.000000,2.000000,4.000000,4.000000,2.000000,4.000000,4.000000,4.000000,4.000000,4.000000,4.000000,4.000000,4.000000,66.666664,,,,,,,,,,,,,,,,,,,,,,,,,,,,,,,,,,,,,,,,,,,,,,,,,,,,,,,,,,,,,,,,,,,,,,,,,,,,,,,,,,,,,,,,,,,,,,,,,,,,,,,,,,,,,,,,,,,,,
1768202963.581517,1768202963.582804,99.000000,0.000000,4359.615234,4343.333496,4326.922852,4364.102539,4342.820313,4367.307617,4346.922852,4359.230957,4342.692383,4337.692383,4492.436035,4523.717773,4412.051270,4460.000000,4772.000000,3.000000,57.000000,,,,0.000000,4.000000,4.000000,2.000000,4.000000,4.000000,2.000000,4.000000,4.000000,4.000000,4.000000,4.000000,4.000000,4.000000,4.000000,66.666664,,,,,,,,,,,,,,,,,,,,,,,,,,,,,,,,,,,,,,,,,,,,,,,,,,,,,,,,,,,,,,,,,,,,,,,,,,,,,,,,,,,,,,,,,,,,,,,,,,,,,,,,,,,,,,,,,,,,,
1768202963.589325,1768202963.590812,100.000000,0.000000,4357.692383,4344.230957,4323.333496,4361.666504,4347.436035,4365.769043,4346.282227,4358.846191,4343.077148,4339.230957,4493.589844,4525.128418,4415.256348,4461.410156,5228.000000,3.000000,57.000000,,,,0.000000,4.000000,4.000000,2.000000,4.000000,4.000000,2.000000,4.000000,4.000000,4.000000,4.000000,4.000000,4.000000,4.000000,4.000000,66.666664,,,,,,,,,,,,,,,,,,,,,,,,,,,,,,,,,,,,,,,,,,,,,,,,,,,,,,,,,,,,,,,,,,,,,,,,,,,,,,,,,,,,,,,,,,,,,,,,,,,,,,,,,,,,,,,,,,,,,
1768202963.597134,1768202963.598621,101.000000,0.000000,4354.743652,4342.692383,4323.846191,4356.666504,4346.282227,4368.974121,4346.025879,4351.538574,4338.589844,4333.974121,4485.512695,4519.871582,4411.153809,4459.358887,4398.000000,3.000000,57.000000,,,,0.000000,4.000000,4.000000,2.000000,4.000000,4.000000,2.000000,4.000000,4.000000,4.000000,4.000000,4.000000,4.000000,4.000000,4.000000,66.666664,,,,,,,,,,,,,,,,,,,,,,,,,,,,,,,,,,,,,,,,,,,,,,,,,,,,,,,,,,,,,,,,,,,,,,,,,,,,,,,,,,,,,,,,,,,,,,,,,,,,,,,,,,,,,,,,,,,,,
1768202963.604942,1768202963.606329,102.000000,0.000000,4357.820313,4344.102539,4328.589844,4358.205078,4341.153809,4370.000000,4347.692383,4351.666504,4338.846191,4331.410156,4480.384766,4515.512695,4403.974121,4456.538574,4288.000000,3.000000,57.000000,,,,0.000000,4.000000,4.000000,2.000000,4.000000,4.000000,2.000000,4.000000,4.000000,4.000000,4.000000,4.000000,4.000000,4.000000,4.000000,66.666664,,,,,,,,,,,,,,,,,,,,,,,,,,,,,,,,,,,,,,,,,,,,,,,,,,,,,,,,,,,,,,,,,,,,,,,,,,,,,,,,,,,,,,,,,,,,,,,,,,,,,,,,,,,,,,,,,,,,,
1768202963.612750,1768202963.614138,103.000000,0.000000,4360.000000,4351.025879,4330.128418,4363.846191,4342.179688,4368.333496,4352.179688,4355.000000,4337.948730,4329.871582,4481.282227,4518.589844,4402.436035,4457.948730,4772.000000,3.000000,57.000000,,,,0.000000,4.000000,4.000000,2.000000,4.000000,4.000000,2.000000,4.000000,4.000000,4.000000,4.000000,4.000000,4.000000,4.000000,4.000000,66.666664,,,,,,,,,,,,,,,,,,,,,,,,,,,,,,,,,,,,,,,,,,,,,,,,,,,,,,,,,,,,,,,,,,,,,,,,,,,,,,,,,,,,,,,,,,,,,,,,,,,,,,,,,,,,,,,,,,,,,
1768202963.620559,1768202963.622146,104.000000,0.000000,4355.641113,4353.589844,4327.563965,4364.743652,4345.512695,4368.846191,4350.641113,4351.282227,4331.025879,4328.333496,4481.794922,4522.692383,4406.025879,4458.589844,5228.000000,3.000000,57.000000,,,,0.000000,4.000000,4.000000,2.000000,4.000000,4.000000,2.000000,4.000000,4.000000,4.000000,4.000000,4.000000,4.000000,4.000000,4.000000,66.666664,,,,,,,,,,,,,,,,,,,,,,,,,,,,,,,,,,,,,,,,,,,,,,,,,,,,,,,,,,,,,,,,,,,,,,,,,,,,,,,,,,,,,,,,,,,,,,,,,,,,,,,,,,,,,,,,,,,,,
1768202963.628367,1768202963.629954,105.000000,0.000000,4353.717773,4347.820313,4325.641113,4360.128418,4342.692383,4368.846191,4343.333496,4347.051270,4329.871582,4326.538574,4477.692383,4517.307617,4401.282227,4452.179688,4398.000000,3.000000,57.000000,,,,0.000000,4.000000,4.000000,2.000000,4.000000,4.000000,2.000000,4.000000,4.000000,4.000000,4.000000,4.000000,4.000000,4.000000,4.000000,66.666664,,,,,,,,,,,,,,,,,,,,,,,,,,,,,,,,,,,,,,,,,,,,,,,,,,,,,,,,,,,,,,,,,,,,,,,,,,,,,,,,,,,,,,,,,,,,,,,,,,,,,,,,,,,,,,,,,,,,,
1768202963.636176,1768202963.637663,106.000000,0.000000,4349.743652,4338.333496,4323.974121,4354.871582,4338.974121,4369.102539,4342.692383,4352.436035,4334.871582,4323.461426,4471.666504,4508.077148,4391.025879,4442.051270,4288.000000,3.000000,57.000000,,,,0.000000,4.000000,4.000000,2.000000,4.000000,4.000000,2.000000,4.000000,4.000000,4.000000,4.000000,4.000000,4.000000,4.000000,4.000000,66.666664,,,,,,,,,,,,,,,,,,,,,,,,,,,,,,,,,,,,,,,,,,,,,,,,,,,,,,,,,,,,,,,,,,,,,,,,,,,,,,,,,,,,,,,,,,,,,,,,,,,,,,,,,,,,,,,,,,,,,
1768202963.643984,1768202963.645471,107.000000,0.000000,4343.846191,4332.179688,4321.153809,4353.333496,4338.974121,4368.846191,4351.153809,4362.179688,4339.615234,4324.487305,4471.538574,4509.743652,4387.436035,4440.512695,4772.000000,3.000000,57.000000,,,,0.000000,4.000000,4.000000,2.000000,4.000000,4.000000,2.000000,4.000000,4.000000,4.000000,4.000000,4.000000,4.000000,4.000000,4.000000,66.666664,,,,,,,,,,,,,,,,,,,,,,,,,,,,,,,,,,,,,,,,,,,,,,,,,,,,,,,,,,,,,,,,,,,,,,,,,,,,,,,,,,,,,,,,,,,,,,,,,,,,,,,,,,,,,,,,,,,,,
1768202963.651793,1768202963.653080,108.000000,0.000000,4357.948730,4340.384766,4325.384766,4358.846191,4345.128418,4368.589844,4363.461426,4369.102539,4346.410156,4335.641113,4484.358887,4521.794922,4398.846191,4454.615234,5228.000000,3.000000,57.000000,,,,0.000000,4.000000,4.000000,2.000000,4.000000,4.000000,2.000000,4.000000,4.000000,4.000000,4.000000,4.000000,4.000000,4.000000,4.000000,66.666664,,,,,,,,,,,,,,,,,,,,,,,,,,,,,,,,,,,,,,,,,,,,,,,,,,,,,,,,,,,,,,,,,,,,,,,,,,,,,,,,,,,,,,,,,,,,,,,,,,,,,,,,,,,,,,,,,,,,,
1768202963.659601,1768202963.660888,109.000000,0.000000,4375.897461,4354.871582,4328.333496,4367.948730,4349.358887,4370.512695,4365.641113,4367.307617,4350.769043,4347.436035,4497.051270,4527.307617,4412.692383,4464.615234,4398.000000,3.000000,57.000000,,,,0.000000,4.000000,4.000000,2.000000,4.000000,4.000000,2.000000,4.000000,4.000000,4.000000,4.000000,4.000000,4.000000,4.000000,4.000000,66.666664,,,,,,,,,,,,,,,,,,,,,,,,,,,,,,,,,,,,,,,,,,,,,,,,,,,,,,,,,,,,,,,,,,,,,,,,,,,,,,,,,,,,,,,,,,,,,,,,,,,,,,,,,,,,,,,,,,,,,
1768202963.667410,1768202963.668797,110.000000,0.000000,4368.205078,4354.743652,4324.102539,4366.922852,4344.615234,4367.820313,4357.948730,4363.205078,4344.615234,4343.077148,4494.102539,4523.974121,4408.205078,4462.307617,4288.000000,3.000000,57.000000,,,,0.000000,4.000000,4.000000,2.000000,4.000000,4.000000,2.000000,4.000000,4.000000,4.000000,4.000000,4.000000,4.000000,4.000000,4.000000,66.666664,,,,,,,,,,,,,,,,,,,,,,,,,,,,,,,,,,,,,,,,,,,,,,,,0.421974,0.332001,0.122986,0.306027,0.132724,0.457298,0.201644,0.109276,0.155264,0.190519,0.091939,0.097466,0.041503,0.070365,0.072276,0.473674,0.276978,0.141100,0.139839,0.066496,0.511348,0.361329,0.096452,0.165553,0.078310,0.029510,0.060721,0.042317,0.054857,0.047819,0.580331,0.376686,0.188235,0.254107,0.093242,0.518113,0.542737,0.149042,0.181235,0.224091,0.374369,0.218255,0.224089,0.101736,0.102900,0.459923,0.272328,0.176772,0.210489,0.108251,0.588997,0.595648,0.364091,0.254552,0.173580,0.655145,0.899178,0.091459,0.314323,0.158530,0.382366,0.363360,0.301388,0.205370,0.164546,0.553899,0.814038,0.374529,0.457427,0.185804
1768202963.675218,1768202963.676605,111.000000,0.000000,4359.743652,4344.743652,4324.743652,4357.436035,4341.410156,4363.077148,4354.102539,4364.102539,4338.589844,4332.051270,4488.077148,4523.461426,4395.128418,4459.871582,4772.000000,3.000000,57.000000,,,,0.000000,4.000000,4.000000,2.000000,4.000000,4.000000,2.000000,4.000000,4.000000,4.000000,4.000000,4.000000,4.000000,4.000000,4.000000,66.666664,,,,,,,,,,,,,,,,,,,,,,,,,,,,,,,,,,,,,,,,,,,,,,,,,,,,,,,,,,,,,,,,,,,,,,,,,,,,,,,,,,,,,,,,,,,,,,,,,,,,,,,,,,,,,,,,,,,,,
1768202963.683026,1768202963.684614,112.000000,0.000000,4365.128418,4346.153809,4331.153809,4356.922852,4343.333496,4365.769043,4355.897461,4363.974121,4342.051270,4332.051270,4488.589844,4523.205078,4394.871582,4456.922852,5228.000000,3.000000,57.000000,,,,0.000000,4.000000,4.000000,2.000000,4.000000,4.000000,2.000000,4.000000,4.000000,4.000000,4.000000,4.000000,4.000000,4.000000,4.000000,66.666664,,,,,,,,,,,,,,,,,,,,,,,,,,,,,,,,,,,,,,,,,,,,,,,,,,,,,,,,,,,,,,,,,,,,,,,,,,,,,,,,,,,,,,,,,,,,,,,,,,,,,,,,,,,,,,,,,,,,,
1768202963.690835,1768202963.692422,113.000000,0.000000,4365.512695,4350.769043,4330.000000,4360.384766,4342.436035,4370.512695,4359.358887,4367.051270,4346.922852,4336.794922,4490.000000,4521.922852,4398.589844,4454.487305,4398.000000,3.000000,57.000000,,,,0.000000,4.000000,4.000000,2.000000,4.000000,4.000000,2.000000,4.000000,4.000000,4.000000,4.000000,4.000000,4.000000,4.000000,4.000000,66.666664,,,,,,,,,,,,,,,,,,,,,,,,,,,,,,,,,,,,,,,,,,,,,,,,,,,,,,,,,,,,,,,,,,,,,,,,,,,,,,,,,,,,,,,,,,,,,,,,,,,,,,,,,,,,,,,,,,,,,
1768202963.698643,1768202963.700131,114.000000,0.000000,4360.384766,4345.769043,4323.846191,4356.666504,4339.615234,4367.436035,4358.461426,4366.922852,4345.128418,4332.948730,4485.256348,4520.897461,4396.025879,4454.230957,4288.000000,3.000000,57.000000,,,,0.000000,4.000000,4.000000,2.000000,4.000000,4.000000,2.000000,4.000000,4.000000,4.000000,4.000000,4.000000,4.000000,4.000000,4.000000,66.666664,,,,,,,,,,,,,,,,,,,,,,,,,,,,,,,,,,,,,,,,,,,,,,,,,,,,,,,,,,,,,,,,,,,,,,,,,,,,,,,,,,,,,,,,,,,,,,,,,,,,,,,,,,,,,,,,,,,,,
1768202963.706452,1768202963.707939,115.000000,0.000000,4358.077148,4340.641113,4322.307617,4352.948730,4341.153809,4365.512695,4349.102539,4353.589844,4336.794922,4325.384766,4476.282227,4513.846191,4395.256348,4448.589844,4772.000000,3.000000,57.000000,,,,0.000000,4.000000,4.000000,2.000000,4.000000,4.000000,2.000000,4.000000,4.000000,4.000000,4.000000,4.000000,4.000000,4.000000,4.000000,66.666664,,,,,,,,,,,,,,,,,,,,,,,,,,,,,,,,,,,,,,,,,,,,,,,,,,,,,,,,,,,,,,,,,,,,,,,,,,,,,,,,,,,,,,,,,,,,,,,,,,,,,,,,,,,,,,,,,,,,,
1768202963.714260,1768202963.715548,116.000000,0.000000,4353.333496,4340.897461,4324.102539,4356.666504,4343.333496,4368.589844,4340.641113,4344.230957,4333.974121,4326.282227,4473.846191,4507.563965,4396.025879,4442.948730,5228.000000,3.000000,57.000000,,,,0.000000,4.000000,4.000000,2.000000,4.000000,4.000000,2.000000,4.000000,4.000000,4.000000,4.000000,4.000000,4.000000,4.000000,4.000000,66.666664,,,,,,,,,,,,,,,,,,,,,,,,,,,,,,,,,,,,,,,,,,,,,,,,,,,,,,,,,,,,,,,,,,,,,,,,,,,,,,,,,,,,,,,,,,,,,,,,,,,,,,,,,,,,,,,,,,,,,
1768202963.722068,1768202963.723356,117.000000,0.000000,4348.717773,4341.282227,4326.538574,4358.461426,4341.538574,4369.871582,4342.820313,4351.538574,4338.589844,4328.974121,4478.717773,4508.333496,4393.461426,4446.538574,4398.000000,3.000000,57.000000,,,,0.000000,4.000000,4.000000,2.000000,4.000000,4.000000,2.000000,4.000000,4.000000,4.000000,4.000000,4.000000,4.000000,4.000000,4.000000,66.666664,,,,,,,,,,,,,,,,,,,,,,,,,,,,,,,,,,,,,,,,,,,,,,,,,,,,,,,,,,,,,,,,,,,,,,,,,,,,,,,,,,,,,,,,,,,,,,,,,,,,,,,,,,,,,,,,,,,,,
1768202963.729877,1768202963.731264,118.000000,0.000000,4350.641113,4339.102539,4326.282227,4352.692383,4339.230957,4368.589844,4344.358887,4352.563965,4337.563965,4326.538574,4477.051270,4509.871582,4391.410156,4444.615234,4288.000000,3.000000,57.000000,,,,0.000000,4.000000,4.000000,2.000000,4.000000,4.000000,2.000000,4.000000,4.000000,4.000000,4.000000,4.000000,4.000000,4.000000,4.000000,66.666664,,,,,,,,,,,,,,,,,,,,,,,,,,,,,,,,,,,,,,,,,,,,,,,,,,,,,,,,,,,,,,,,,,,,,,,,,,,,,,,,,,,,,,,,,,,,,,,,,,,,,,,,,,,,,,,,,,,,,
1768202963.737685,1768202963.739073,119.000000,0.000000,4350.384766,4336.153809,4324.487305,4348.717773,4338.974121,4365.384766,4340.512695,4341.922852,4327.179688,4324.230957,4472.179688,4508.589844,4387.051270,4440.128418,4772.000000,3.000000,57.000000,,,,0.000000,4.000000,4.000000,2.000000,4.000000,4.000000,2.000000,4.000000,4.000000,4.000000,4.000000,4.000000,4.000000,4.000000,4.000000,66.666664,,,,,,,,,,,,,,,,,,,,,,,,,,,,,,,,,,,,,,,,,,,,,,,,,,,,,,,,,,,,,,,,,,,,,,,,,,,,,,,,,,,,,,,,,,,,,,,,,,,,,,,,,,,,,,,,,,,,,
1768202963.745494,1768202963.747081,120.000000,0.000000,4349.743652,4335.512695,4324.615234,4350.256348,4340.000000,4365.128418,4341.794922,4345.000000,4324.615234,4323.846191,4474.358887,4509.487305,4383.077148,4443.077148,5228.000000,3.000000,57.000000,,,,0.000000,4.000000,4.000000,2.000000,4.000000,4.000000,2.000000,4.000000,4.000000,4.000000,4.000000,4.000000,4.000000,4.000000,4.000000,66.666664,,,,,,,,,,,,,,,,,,,,,,,,,,,,,,,,,,,,,,,,,,,,,,,,,,,,,,,,,,,,,,,,,,,,,,,,,,,,,,,,,,,,,,,,,,,,,,,,,,,,,,,,,,,,,,,,,,,,,
1768202963.753302,1768202963.754890,121.000000,0.000000,4355.769043,4337.820313,4328.077148,4353.333496,4340.641113,4367.179688,4344.102539,4355.512695,4334.102539,4327.692383,4476.025879,4515.256348,4387.307617,4446.410156,4398.000000,3.000000,57.000000,,,,0.000000,4.000000,4.000000,2.000000,4.000000,4.000000,2.000000,4.000000,4.000000,4.000000,4.000000,4.000000,4.000000,4.000000,4.000000,66.666664,,,,,,,,,,,,,,,,,,,,,,,,,,,,,,,,,,,,,,,,,,,,,,,,,,,,,,,,,,,,,,,,,,,,,,,,,,,,,,,,,,,,,,,,,,,,,,,,,,,,,,,,,,,,,,,,,,,,,
1768202963.761111,1768202963.762798,122.000000,0.000000,4359.871582,4341.153809,4327.948730,4353.846191,4341.153809,4367.948730,4342.563965,4354.102539,4339.743652,4335.384766,4479.487305,4520.128418,4393.077148,4451.282227,4288.000000,3.000000,57.000000,,,,0.000000,4.000000,4.000000,2.000000,4.000000,4.000000,2.000000,4.000000,4.000000,4.000000,4.000000,4.000000,4.000000,4.000000,4.000000,66.666664,,,,,,,,,,,,,,,,,,,,,,,,,,,,,,,,,,,,,,,,,,,,,,,,,,,,,,,,,,,,,,,,,,,,,,,,,,,,,,,,,,,,,,,,,,,,,,,,,,,,,,,,,,,,,,,,,,,,,
1768202963.768919,1768202963.770606,123.000000,0.000000,4360.000000,4345.000000,4325.769043,4354.358887,4341.922852,4367.820313,4347.692383,4348.846191,4337.820313,4335.256348,4487.820313,4521.538574,4393.974121,4460.641113,4772.000000,3.000000,57.000000,,,,0.000000,4.000000,4.000000,2.000000,4.000000,4.000000,2.000000,4.000000,4.000000,4.000000,4.000000,4.000000,4.000000,4.000000,4.000000,66.666664,,,,,,,,,,,,,,,,,,,,,,,,,,,,,,,,,,,,,,,,,,,,,,,,,,,,,,,,,,,,,,,,,,,,,,,,,,,,,,,,,,,,,,,,,,,,,,,,,,,,,,,,,,,,,,,,,,,,,
1768202963.776728,1768202963.778215,124.000000,0.000000,4362.307617,4346.666504,4326.794922,4357.436035,4343.077148,4367.051270,4352.307617,4350.128418,4334.743652,4327.563965,4487.820313,4521.922852,4394.871582,4463.333496,5228.000000,3.000000,57.000000,,,,0.000000,4.000000,4.000000,2.000000,4.000000,4.000000,2.000000,4.000000,4.000000,4.000000,4.000000,4.000000,4.000000,4.000000,4.000000,66.666664,,,,,,,,,,,,,,,,,,,,,,,,,,,,,,,,,,,,,,,,,,,,,,,,,,,,,,,,,,,,,,,,,,,,,,,,,,,,,,,,,,,,,,,,,,,,,,,,,,,,,,,,,,,,,,,,,,,,,
1768202963.784536,1768202963.786023,125.000000,0.000000,4362.692383,4342.307617,4327.179688,4358.974121,4342.820313,4366.922852,4345.512695,4351.794922,4335.000000,4324.871582,4479.358887,4518.589844,4394.871582,4455.897461,4398.000000,3.000000,57.000000,,,,0.000000,4.000000,4.000000,2.000000,4.000000,4.000000,2.000000,4.000000,4.000000,4.000000,4.000000,4.000000,4.000000,4.000000,4.000000,66.666664,,,,,,,,,,,,,,,,,,,,,,,,,,,,,,,,,,,,,,,,,,,,,,,,,,,,,,,,,,,,,,,,,,,,,,,,,,,,,,,,,,,,,,,,,,,,,,,,,,,,,,,,,,,,,,,,,,,,,
1768202963.792344,1768202963.793932,126.000000,0.000000,4357.051270,4342.692383,4325.897461,4357.307617,4341.282227,4368.077148,4341.538574,4348.205078,4335.769043,4328.205078,4476.794922,4510.512695,4395.128418,4448.974121,4288.000000,3.000000,57.000000,,,,0.000000,4.000000,4.000000,2.000000,4.000000,4.000000,2.000000,4.000000,4.000000,4.000000,4.000000,4.000000,4.000000,4.000000,4.000000,66.666664,,,,,,,,,,,,,,,,,,,,,,,,,,,,,,,,,,,,,,,,,,,,,,,,0.373771,0.400752,0.138831,0.280408,0.129575,0.440378,0.193973,0.078872,0.153296,0.190409,0.077973,0.103347,0.048500,0.069805,0.064373,0.402823,0.301210,0.131059,0.146203,0.062562,0.506119,0.404798,0.094717,0.161869,0.081483,0.029160,0.046831,0.033097,0.050152,0.045403,0.484714,0.308355,0.175973,0.237892,0.087387,0.526121,0.489280,0.163863,0.177954,0.208213,0.410333,0.227836,0.240096,0.114384,0.108783,0.509198,0.295922,0.244171,0.243491,0.092687,0.629716,0.627580,0.492765,0.238589,0.169031,0.642867,0.875138,0.112979,0.305193,0.163401,0.327244,0.414528,0.441715,0.202775,0.178534,0.574186,1.080060,0.497354,0.446250,0.203520
1768202963.800153,1768202963.801740,127.000000,0.000000,4355.384766,4349.871582,4322.820313,4355.897461,4340.256348,4367.179688,4344.871582,4349.743652,4335.000000,4329.743652,4478.077148,4506.282227,4396.922852,4445.384766,57.000000,3.000000,57.000000,,,,0.000000,4.000000,4.000000,2.000000,4.000000,4.000000,2.000000,4.000000,4.000000,4.000000,4.000000,4.000000,4.000000,4.000000,4.000000,66.666664,,,,,,,,,,,,,,,,,,,,,,,,,,,,,,,,,,,,,,,,,,,,,,,,,,,,,,,,,,,,,,,,,,,,,,,,,,,,,,,,,,,,,,,,,,,,,,,,,,,,,,,,,,,,,,,,,,,,,
1768202963.807961,1768202963.809349,0.000000,0.000000,4359.358887,4355.128418,4322.563965,4357.820313,4340.641113,4363.589844,4343.589844,4355.512695,4336.922852,4327.563965,4477.948730,4509.871582,4398.717773,4445.128418,968.000000,3.000000,57.000000,,,,0.000000,4.000000,4.000000,2.000000,4.000000,4.000000,2.000000,4.000000,4.000000,4.000000,4.000000,4.000000,4.000000,4.000000,4.000000,66.666664,,,,,,,,,,,,,,,,,,,,,,,,,,,,,,,,,,,,,,,,,,,,,,,,,,,,,,,,,,,,,,,,,,,,,,,,,,,,,,,,,,,,,,,,,,,,,,,,,,,,,,,,,,,,,,,,,,,,,
1768202963.815770,1768202963.817157,1.000000,0.000000,4359.230957,4356.025879,4325.512695,4360.769043,4341.153809,4365.000000,4343.077148,4350.897461,4336.666504,4326.666504,4479.102539,4511.282227,4405.256348,4446.666504,2849.000000,3.000000,57.000000,,,,0.000000,4.000000,4.000000,2.000000,4.000000,4.000000,2.000000,4.000000,4.000000,4.000000,4.000000,4.000000,4.000000,4.000000,4.000000,66.666664,,,,,,,,,,,,,,,,,,,,,,,,,,,,,,,,,,,,,,,,,,,,,,,,,,,,,,,,,,,,,,,,,,,,,,,,,,,,,,,,,,,,,,,,,,,,,,,,,,,,,,,,,,,,,,,,,,,,,
1768202963.823578,1768202963.824866,2.000000,0.000000,4355.256348,4350.256348,4323.333496,4358.589844,4339.743652,4366.410156,4345.128418,4343.846191,4331.922852,4327.051270,4477.820313,4509.487305,4410.769043,4447.307617,3759.000000,3.000000,57.000000,,,,0.000000,4.000000,4.000000,2.000000,4.000000,4.000000,2.000000,4.000000,4.000000,4.000000,4.000000,4.000000,4.000000,4.000000,4.000000,66.666664,,,,,,,,,,,,,,,,,,,,,,,,,,,,,,,,,,,,,,,,,,,,,,,,,,,,,,,,,,,,,,,,,,,,,,,,,,,,,,,,,,,,,,,,,,,,,,,,,,,,,,,,,,,,,,,,,,,,,
1768202963.831386,1768202963.832674,3.000000,0.000000,4352.692383,4344.871582,4320.769043,4356.025879,4337.948730,4363.461426,4340.384766,4345.384766,4330.897461,4323.077148,4473.717773,4508.461426,4407.563965,4446.794922,3667.000000,3.000000,57.000000,,,,0.000000,4.000000,4.000000,2.000000,4.000000,4.000000,2.000000,4.000000,4.000000,4.000000,4.000000,4.000000,4.000000,4.000000,4.000000,66.666664,,,,,,,,,,,,,,,,,,,,,,,,,,,,,,,,,,,,,,,,,,,,,,,,,,,,,,,,,,,,,,,,,,,,,,,,,,,,,,,,,,,,,,,,,,,,,,,,,,,,,,,,,,,,,,,,,,,,,
1768202963.839195,1768202963.840283,4.000000,0.000000,4353.077148,4350.897461,4321.922852,4358.974121,4341.794922,4364.487305,4342.436035,4344.615234,4333.589844,4320.641113,4475.384766,4506.538574,4407.563965,4444.358887,3719.000000,3.000000,57.000000,,,,0.000000,4.000000,4.000000,2.000000,4.000000,4.000000,2.000000,4.000000,4.000000,4.000000,4.000000,4.000000,4.000000,4.000000,4.000000,66.666664,,,,,,,,,,,,,,,,,,,,,,,,,,,,,,,,,,,,,,,,,,,,,,,,,,,,,,,,,,,,,,,,,,,,,,,,,,,,,,,,,,,,,,,,,,,,,,,,,,,,,,,,,,,,,,,,,,,,,
1768202963.847003,1768202963.848091,5.000000,0.000000,4355.128418,4358.461426,4321.666504,4361.410156,4348.974121,4366.922852,4353.333496,4341.922852,4335.641113,4325.512695,4478.589844,4505.256348,4413.974121,4443.333496,774.000000,3.000000,57.000000,,,,0.000000,4.000000,4.000000,2.000000,4.000000,4.000000,2.000000,4.000000,4.000000,4.000000,4.000000,4.000000,4.000000,4.000000,4.000000,66.666664,,,,,,,,,,,,,,,,,,,,,,,,,,,,,,,,,,,,,,,,,,,,,,,,,,,,,,,,,,,,,,,,,,,,,,,,,,,,,,,,,,,,,,,,,,,,,,,,,,,,,,,,,,,,,,,,,,,,,
1768202963.854812,1768202963.855800,6.000000,0.000000,4359.743652,4358.589844,4322.948730,4359.487305,4350.000000,4364.615234,4351.282227,4346.025879,4339.358887,4326.538574,4477.051270,4506.538574,4411.025879,4444.871582,3972.000000,3.000000,57.000000,,,,0.000000,4.000000,4.000000,2.000000,4.000000,4.000000,2.000000,4.000000,4.000000,4.000000,4.000000,4.000000,4.000000,4.000000,4.000000,66.666664,,,,,,,,,,,,,,,,,,,,,,,,,,,,,,,,,,,,,,,,,,,,,,,,,,,,,,,,,,,,,,,,,,,,,,,,,,,,,,,,,,,,,,,,,,,,,,,,,,,,,,,,,,,,,,,,,,,,,
1768202963.862620,1768202963.863608,7.000000,0.000000,4363.589844,4356.538574,4327.436035,4359.358887,4349.871582,4363.974121,4341.153809,4346.410156,4335.897461,4318.846191,4475.384766,4508.461426,4403.333496,4446.025879,4118.000000,3.000000,57.000000,,,,0.000000,4.000000,4.000000,2.000000,4.000000,4.000000,2.000000,4.000000,4.000000,4.000000,4.000000,4.000000,4.000000,4.000000,4.000000,66.666664,,,,,,,,,,,,,,,,,,,,,,,,,,,,,,,,,,,,,,,,,,,,,,,,,,,,,,,,,,,,,,,,,,,,,,,,,,,,,,,,,,,,,,,,,,,,,,,,,,,,,,,,,,,,,,,,,,,,,
1768202963.870429,1768202963.871617,8.000000,0.000000,4357.692383,4354.871582,4325.512695,4358.077148,4349.230957,4367.307617,4341.410156,4339.487305,4327.307617,4313.589844,4470.897461,4506.794922,4400.384766,4442.948730,4086.000000,3.000000,57.000000,,,,0.000000,4.000000,4.000000,2.000000,4.000000,4.000000,2.000000,4.000000,4.000000,4.000000,4.000000,4.000000,4.000000,4.000000,4.000000,66.666664,,,,,,,,,,,,,,,,,,,,,,,,,,,,,,,,,,,,,,,,,,,,,,,,,,,,,,,,,,,,,,,,,,,,,,,,,,,,,,,,,,,,,,,,,,,,,,,,,,,,,,,,,,,,,,,,,,,,,
1768202963.878237,1768202963.879425,9.000000,0.000000,4350.128418,4355.128418,4318.717773,4355.256348,4344.358887,4367.948730,4345.256348,4340.641113,4334.230957,4316.922852,4467.563965,4503.974121,4396.794922,4440.384766,4113.000000,3.000000,57.000000,,,,0.000000,4.000000,4.000000,2.000000,4.000000,4.000000,2.000000,4.000000,4.000000,4.000000,4.000000,4.000000,4.000000,4.000000,4.000000,66.666664,,,,,,,,,,,,,,,,,,,,,,,,,,,,,,,,,,,,,,,,,,,,,,,,,,,,,,,,,,,,,,,,,,,,,,,,,,,,,,,,,,,,,,,,,,,,,,,,,,,,,,,,,,,,,,,,,,,,,
1768202963.886045,1768202963.887333,10.000000,0.000000,4355.641113,4357.436035,4318.461426,4359.871582,4344.743652,4367.692383,4346.794922,4351.282227,4345.128418,4323.461426,4473.461426,4506.666504,4398.461426,4444.487305,4290.000000,3.000000,57.000000,,,,0.000000,4.000000,4.000000,2.000000,4.000000,4.000000,2.000000,4.000000,4.000000,4.000000,4.000000,4.000000,4.000000,4.000000,4.000000,66.666664,,,,,,,,,,,,,,,,,,,,,,,,,,,,,,,,,,,,,,,,,,,,,,,,,,,,,,,,,,,,,,,,,,,,,,,,,,,,,,,,,,,,,,,,,,,,,,,,,,,,,,,,,,,,,,,,,,,,,
1768202963.893854,1768202963.895142,11.000000,0.000000,4364.871582,4357.307617,4324.487305,4367.051270,4351.410156,4367.820313,4351.538574,4354.743652,4343.461426,4326.025879,4478.974121,4509.102539,4404.230957,4447.179688,4772.000000,3.000000,57.000000,,,,0.000000,4.000000,4.000000,2.000000,4.000000,4.000000,2.000000,4.000000,4.000000,4.000000,4.000000,4.000000,4.000000,4.000000,4.000000,66.666664,,,,,,,,,,,,,,,,,,,,,,,,,,,,,,,,,,,,,,,,,,,,,,,,,,,,,,,,,,,,,,,,,,,,,,,,,,,,,,,,,,,,,,,,,,,,,,,,,,,,,,,,,,,,,,,,,,,,,
1768202963.901662,1768202963.902751,12.000000,0.000000,4363.077148,4355.384766,4329.230957,4365.000000,4353.333496,4367.051270,4352.307617,4348.205078,4341.153809,4324.871582,4477.692383,4509.230957,4408.333496,4446.666504,5228.000000,3.000000,57.000000,,,,0.000000,4.000000,4.000000,2.000000,4.000000,4.000000,2.000000,4.000000,4.000000,4.000000,4.000000,4.000000,4.000000,4.000000,4.000000,66.666664,,,,,,,,,,,,,,,,,,,,,,,,,,,,,,,,,,,,,,,,,,,,,,,,,,,,,,,,,,,,,,,,,,,,,,,,,,,,,,,,,,,,,,,,,,,,,,,,,,,,,,,,,,,,,,,,,,,,,
1768202963.909471,1768202963.910559,13.000000,0.000000,4359.871582,4355.641113,4326.410156,4357.692383,4351.666504,4367.563965,4343.974121,4345.256348,4343.461426,4325.512695,4481.794922,4509.871582,4412.307617,4450.256348,4398.000000,3.000000,57.000000,,,,0.000000,4.000000,4.000000,2.000000,4.000000,4.000000,2.000000,4.000000,4.000000,4.000000,4.000000,4.000000,4.000000,4.000000,4.000000,66.666664,,,,,,,,,,,,,,,,,,,,,,,,,,,,,,,,,,,,,,,,,,,,,,,,,,,,,,,,,,,,,,,,,,,,,,,,,,,,,,,,,,,,,,,,,,,,,,,,,,,,,,,,,,,,,,,,,,,,,
1768202963.917279,1768202963.918268,14.000000,0.000000,4361.794922,4359.487305,4320.000000,4357.563965,4353.589844,4367.948730,4340.000000,4350.641113,4347.692383,4327.307617,4492.948730,4507.820313,4413.974121,4456.282227,4290.000000,3.000000,57.000000,,,,0.000000,4.000000,4.000000,2.000000,4.000000,4.000000,2.000000,4.000000,4.000000,4.000000,4.000000,4.000000,4.000000,4.000000,4.000000,66.666664,1.000000,33.333332,4.000000,4.000000,0.000000,4.000000,4.000000,0.000000,4.000000,4.000000,4.000000,4.000000,4.000000,4.000000,4.000000,4.000000,,,,,,,,,,,,,,,,,,,,,,,,,,,,,,,,0.354735,0.484346,0.155363,0.263374,0.137428,0.427826,0.227509,0.064958,0.153316,0.194602,0.059657,0.106094,0.056625,0.069631,0.059416,0.316509,0.324770,0.121357,0.144118,0.061724,0.487611,0.423360,0.091801,0.154006,0.082087,0.030492,0.039241,0.025446,0.046432,0.041146,0.434810,0.268322,0.161200,0.211274,0.082570,0.573779,0.480510,0.173468,0.167571,0.191970,0.428254,0.259718,0.252618,0.125403,0.114862,0.542661,0.345511,0.314821,0.257632,0.088099,0.682263,0.684577,0.601385,0.222731,0.180644,0.692109,0.835345,0.142489,0.293119,0.171047,0.328497,0.480017,0.573809,0.220234,0.210090,0.611656,1.341457,0.591839,0.440169,0.230863
1768202963.925088,1768202963.926076,15.000000,0.000000,4367.307617,4364.871582,4321.922852,4365.512695,4355.897461,4366.666504,4342.820313,4352.436035,4351.153809,4331.794922,4495.897461,4509.102539,4416.794922,4458.974121,4772.000000,3.000000,57.000000,,,,0.000000,4.000000,4.000000,2.000000,4.000000,4.000000,2.000000,4.000000,4.000000,4.000000,4.000000,4.000000,4.000000,4.000000,4.000000,66.666664,,,,,,,,,,,,,,,,,,,,,,,,,,,,,,,,,,,,,,,,,,,,,,,,,,,,,,,,,,,,,,,,,,,,,,,,,,,,,,,,,,,,,,,,,,,,,,,,,,,,,,,,,,,,,,,,,,,,,
1768202963.932896,1768202963.934084,16.000000,0.000000,4375.128418,4368.333496,4328.077148,4369.358887,4357.436035,4367.563965,4343.333496,4351.922852,4350.641113,4339.358887,4493.589844,4519.358887,4422.820313,4460.769043,0.000000,3.000000,57.000000,,,,0.000000,4.000000,4.000000,2.000000,4.000000,4.000000,2.000000,4.000000,4.000000,4.000000,4.000000,4.000000,4.000000,4.000000,4.000000,66.666664,,,,,,,,,,,,,,,,,,,,,,,,,,,,,,,,,,,,,,,,,,,,,,,,,,,,,,,,,,,,,,,,,,,,,,,,,,,,,,,,,,,,,,,,,,,,,,,,,,,,,,,,,,,,,,,,,,,,,
1768202963.940704,1768202963.941893,17.000000,0.000000,4374.615234,4368.077148,4328.205078,4367.307617,4356.794922,4371.282227,4343.205078,4352.563965,4350.641113,4343.077148,4494.615234,4524.743652,4426.538574,4462.307617,0.000000,3.000000,57.000000,,,,0.000000,4.000000,4.000000,2.000000,4.000000,4.000000,2.000000,4.000000,4.000000,4.000000,4.000000,4.000000,4.000000,4.000000,4.000000,66.666664,,,,,,,,,,,,,,,,,,,,,,,,,,,,,,,,,,,,,,,,,,,,,,,,,,,,,,,,,,,,,,,,,,,,,,,,,,,,,,,,,,,,,,,,,,,,,,,,,,,,,,,,,,,,,,,,,,,,,
1768202963.948513,1768202963.949801,18.000000,0.000000,4368.205078,4367.436035,4324.871582,4365.897461,4352.436035,4371.666504,4349.871582,4350.000000,4352.051270,4342.179688,4494.230957,4521.025879,4424.230957,4459.615234,0.000000,3.000000,57.000000,,,,0.000000,4.000000,4.000000,2.000000,4.000000,4.000000,2.000000,4.000000,4.000000,4.000000,4.000000,4.000000,4.000000,4.000000,4.000000,66.666664,,,,,,,,,,,,,,,,,,,,,,,,,,,,,,,,,,,,,,,,,,,,,,,,,,,,,,,,,,,,,,,,,,,,,,,,,,,,,,,,,,,,,,,,,,,,,,,,,,,,,,,,,,,,,,,,,,,,,
1768202963.956321,1768202963.957609,19.000000,0.000000,4367.692383,4367.563965,4324.102539,4366.282227,4349.615234,4368.589844,4353.333496,4351.153809,4351.538574,4342.179688,4494.102539,4522.820313,4422.307617,4456.794922,0.000000,3.000000,57.000000,,,,0.000000,4.000000,4.000000,2.000000,4.000000,4.000000,2.000000,4.000000,4.000000,4.000000,4.000000,4.000000,4.000000,4.000000,4.000000,66.666664,,,,,,,,,,,,,,,,,,,,,,,,,,,,,,,,,,,,,,,,,,,,,,,,,,,,,,,,,,,,,,,,,,,,,,,,,,,,,,,,,,,,,,,,,,,,,,,,,,,,,,,,,,,,,,,,,,,,,
1768202963.964130,1768202963.965618,20.000000,0.000000,4368.846191,4366.922852,4327.563965,4364.871582,4350.512695,4365.256348,4345.384766,4353.589844,4348.333496,4340.128418,4494.615234,4525.256348,4420.512695,4457.820313,0.000000,3.000000,57.000000,,,,0.000000,4.000000,4.000000,2.000000,4.000000,4.000000,2.000000,4.000000,4.000000,4.000000,4.000000,4.000000,4.000000,4.000000,4.000000,66.666664,,,,,,,,,,,,,,,,,,,,,,,,,,,,,,,,,,,,,,,,,,,,,,,,,,,,,,,,,,,,,,,,,,,,,,,,,,,,,,,,,,,,,,,,,,,,,,,,,,,,,,,,,,,,,,,,,,,,,
1768202963.971938,1768202963.973426,21.000000,0.000000,4371.794922,4366.794922,4328.846191,4365.256348,4351.922852,4365.897461,4340.897461,4347.692383,4345.256348,4335.000000,4491.410156,4520.512695,4414.487305,4459.230957,0.000000,3.000000,57.000000,,,,0.000000,4.000000,4.000000,2.000000,4.000000,4.000000,2.000000,4.000000,4.000000,4.000000,4.000000,4.000000,4.000000,4.000000,4.000000,66.666664,,,,,,,,,,,,,,,,,,,,,,,,,,,,,,,,,,,,,,,,,,,,,,,,,,,,,,,,,,,,,,,,,,,,,,,,,,,,,,,,,,,,,,,,,,,,,,,,,,,,,,,,,,,,,,,,,,,,,
1768202963.979746,1768202963.981334,22.000000,0.000000,4378.333496,4367.179688,4328.846191,4366.410156,4348.974121,4368.077148,4345.769043,4342.051270,4346.922852,4331.794922,4488.205078,4521.025879,4410.769043,4460.512695,0.000000,3.000000,57.000000,,,,0.000000,4.000000,4.000000,2.000000,4.000000,4.000000,2.000000,4.000000,4.000000,4.000000,4.000000,4.000000,4.000000,4.000000,4.000000,66.666664,,,,,,,,,,,,,,,,,,,,,,,,,,,,,,,,,,,,,,,,,,,,,,,,,,,,,,,,,,,,,,,,,,,,,,,,,,,,,,,,,,,,,,,,,,,,,,,,,,,,,,,,,,,,,,,,,,,,,
1768202963.987555,1768202963.989143,23.000000,0.000000,4379.358887,4367.436035,4329.102539,4366.153809,4342.307617,4364.871582,4344.230957,4344.102539,4347.820313,4335.769043,4490.384766,4526.410156,4416.794922,4462.692383,0.000000,3.000000,57.000000,,,,0.000000,4.000000,4.000000,2.000000,4.000000,4.000000,2.000000,4.000000,4.000000,4.000000,4.000000,4.000000,4.000000,4.000000,4.000000,66.666664,,,,,,,,,,,,,,,,,,,,,,,,,,,,,,,,,,,,,,,,,,,,,,,,,,,,,,,,,,,,,,,,,,,,,,,,,,,,,,,,,,,,,,,,,,,,,,,,,,,,,,,,,,,,,,,,,,,,,
1768202963.995363,1768202963.996752,24.000000,0.000000,4372.436035,4362.179688,4326.153809,4365.641113,4338.974121,4361.538574,4335.384766,4342.563965,4342.051270,4340.000000,4492.307617,4521.410156,4423.589844,4460.512695,0.000000,3.000000,57.000000,,,,0.000000,4.000000,4.000000,2.000000,4.000000,4.000000,2.000000,4.000000,4.000000,4.000000,4.000000,4.000000,4.000000,4.000000,4.000000,66.666664,,,,,,,,,,,,,,,,,,,,,,,,,,,,,,,,,,,,,,,,,,,,,,,,,,,,,,,,,,,,,,,,,,,,,,,,,,,,,,,,,,,,,,,,,,,,,,,,,,,,,,,,,,,,,,,,,,,,,
1768202964.003172,1768202964.004560,25.000000,0.000000,4361.922852,4354.487305,4322.692383,4363.333496,4341.153809,4362.051270,4336.538574,4341.153809,4342.563965,4336.538574,4490.897461,4511.153809,4412.563965,4448.717773,0.000000,3.000000,57.000000,,,,0.000000,4.000000,4.000000,2.000000,4.000000,4.000000,2.000000,4.000000,4.000000,4.000000,4.000000,4.000000,4.000000,4.000000,4.000000,66.666664,,,,,,,,,,,,,,,,,,,,,,,,,,,,,,,,,,,,,,,,,,,,,,,,,,,,,,,,,,,,,,,,,,,,,,,,,,,,,,,,,,,,,,,,,,,,,,,,,,,,,,,,,,,,,,,,,,,,,
1768202964.010980,1768202964.012269,26.000000,0.000000,4351.666504,4350.641113,4319.358887,4358.333496,4341.538574,4364.102539,4343.205078,4347.563965,4351.538574,4334.487305,4489.871582,4504.743652,4398.717773,4438.333496,0.000000,3.000000,57.000000,,,,0.000000,4.000000,4.000000,2.000000,4.000000,4.000000,2.000000,4.000000,4.000000,4.000000,4.000000,4.000000,4.000000,4.000000,4.000000,66.666664,,,,,,,,,,,,,,,,,,,,,,,,,,,,,,,,,,,,,,,,,,,,,,,,,,,,,,,,,,,,,,,,,,,,,,,,,,,,,,,,,,,,,,,,,,,,,,,,,,,,,,,,,,,,,,,,,,,,,
1768202964.018789,1768202964.020077,27.000000,0.000000,4356.410156,4353.589844,4319.743652,4355.641113,4339.615234,4364.102539,4343.974121,4354.102539,4353.846191,4340.000000,4492.307617,4505.256348,4415.000000,4449.102539,0.000000,3.000000,57.000000,,,,0.000000,4.000000,4.000000,2.000000,4.000000,4.000000,2.000000,4.000000,4.000000,4.000000,4.000000,4.000000,4.000000,4.000000,4.000000,66.666664,,,,,,,,,,,,,,,,,,,,,,,,,,,,,,,,,,,,,,,,,,,,,,,,,,,,,,,,,,,,,,,,,,,,,,,,,,,,,,,,,,,,,,,,,,,,,,,,,,,,,,,,,,,,,,,,,,,,,
1768202964.026597,1768202964.027686,28.000000,0.000000,4370.384766,4357.307617,4324.230957,4358.205078,4341.410156,4364.102539,4344.615234,4353.717773,4351.922852,4342.051270,4498.461426,4513.333496,4431.153809,4470.384766,0.000000,3.000000,57.000000,,,,0.000000,4.000000,4.000000,2.000000,4.000000,4.000000,2.000000,4.000000,4.000000,4.000000,4.000000,4.000000,4.000000,4.000000,4.000000,66.666664,,,,,,,,,,,,,,,,,,,,,,,,,,,,,,,,,,,,,,,,,,,,,,,,,,,,,,,,,,,,,,,,,,,,,,,,,,,,,,,,,,,,,,,,,,,,,,,,,,,,,,,,,,,,,,,,,,,,,
1768202964.034406,1768202964.035494,29.000000,0.000000,4372.563965,4356.153809,4326.025879,4360.512695,4345.641113,4363.717773,4347.692383,4349.871582,4353.846191,4340.256348,4504.230957,4524.487305,4423.333496,4472.692383,0.000000,3.000000,57.000000,,,,0.000000,4.000000,4.000000,2.000000,4.000000,4.000000,2.000000,4.000000,4.000000,4.000000,4.000000,4.000000,4.000000,4.000000,4.000000,66.666664,,,,,,,,,,,,,,,,,,,,,,,,,,,,,,,,,,,,,,,,,,,,,,,,,,,,,,,,,,,,,,,,,,,,,,,,,,,,,,,,,,,,,,,,,,,,,,,,,,,,,,,,,,,,,,,,,,,,,
1768202964.042214,1768202964.043203,30.000000,0.000000,4369.358887,4356.282227,4323.461426,4359.358887,4351.666504,4364.230957,4350.897461,4352.692383,4355.384766,4341.922852,4506.538574,4523.077148,4421.922852,4462.948730,0.000000,3.000000,57.000000,,,,0.000000,4.000000,4.000000,2.000000,4.000000,4.000000,2.000000,4.000000,4.000000,4.000000,4.000000,4.000000,4.000000,4.000000,4.000000,66.666664,,,,,,,,,,,,,,,,,,,,,,,,,,,,,,,,,,,,,,,,,,,,,,,,0.381003,0.568063,0.167830,0.253535,0.150129,0.440836,0.287494,0.068232,0.153827,0.202758,0.042780,0.105380,0.065347,0.068279,0.057168,0.242309,0.336390,0.114188,0.134029,0.063006,0.469778,0.410713,0.087920,0.143137,0.078996,0.033207,0.038173,0.020603,0.044630,0.036367,0.457865,0.253941,0.147034,0.182565,0.081014,0.652559,0.499886,0.168966,0.150508,0.177054,0.443650,0.296930,0.244899,0.129936,0.119683,0.558153,0.400693,0.370622,0.250851,0.093215,0.732236,0.757093,0.657223,0.203933,0.197363,0.788692,0.793605,0.169228,0.274273,0.174829,0.383678,0.537898,0.656648,0.246784,0.247326,0.658890,1.542799,0.631531,0.428462,0.252515
1768202964.050022,1768202964.051011,31.000000,0.000000,4367.051270,4358.846191,4321.282227,4358.589844,4352.948730,4367.179688,4350.000000,4354.615234,4352.436035,4342.307617,4503.077148,4511.282227,4427.563965,4459.358887,0.000000,3.000000,57.000000,,,,0.000000,4.000000,4.000000,2.000000,4.000000,4.000000,2.000000,4.000000,4.000000,4.000000,4.000000,4.000000,4.000000,4.000000,4.000000,66.666664,,,,,,,,,,,,,,,,,,,,,,,,,,,,,,,,,,,,,,,,,,,,,,,,,,,,,,,,,,,,,,,,,,,,,,,,,,,,,,,,,,,,,,,,,,,,,,,,,,,,,,,,,,,,,,,,,,,,,
1768202964.057831,1768202964.059019,32.000000,0.000000,4363.205078,4356.538574,4320.769043,4360.512695,4350.641113,4367.307617,4345.641113,4349.102539,4350.512695,4340.769043,4494.743652,4509.102539,4419.230957,4458.333496,0.000000,3.000000,57.000000,,,,0.000000,4.000000,4.000000,2.000000,4.000000,4.000000,2.000000,4.000000,4.000000,4.000000,4.000000,4.000000,4.000000,4.000000,4.000000,66.666664,,,,,,,,,,,,,,,,,,,,,,,,,,,,,,,,,,,,,,,,,,,,,,,,,,,,,,,,,,,,,,,,,,,,,,,,,,,,,,,,,,,,,,,,,,,,,,,,,,,,,,,,,,,,,,,,,,,,,
1768202964.065639,1768202964.066828,33.000000,0.000000,4363.333496,4356.666504,4319.358887,4364.487305,4352.820313,4365.000000,4345.384766,4345.897461,4351.538574,4341.025879,4489.230957,4513.333496,4412.563965,4458.205078,0.000000,3.000000,57.000000,,,,0.000000,4.000000,4.000000,2.000000,4.000000,4.000000,2.000000,4.000000,4.000000,4.000000,4.000000,4.000000,4.000000,4.000000,4.000000,66.666664,,,,,,,,,,,,,,,,,,,,,,,,,,,,,,,,,,,,,,,,,,,,,,,,,,,,,,,,,,,,,,,,,,,,,,,,,,,,,,,,,,,,,,,,,,,,,,,,,,,,,,,,,,,,,,,,,,,,,
1768202964.073448,1768202964.074736,34.000000,0.000000,4370.769043,4365.512695,4323.205078,4366.666504,4357.820313,4365.641113,4353.205078,4350.512695,4352.179688,4338.205078,4490.769043,4518.974121,4417.692383,4462.563965,0.000000,3.000000,57.000000,,,,0.000000,4.000000,4.000000,2.000000,4.000000,4.000000,2.000000,4.000000,4.000000,4.000000,4.000000,4.000000,4.000000,4.000000,4.000000,66.666664,,,,,,,,,,,,,,,,,,,,,,,,,,,,,,,,,,,,,,,,,,,,,,,,,,,,,,,,,,,,,,,,,,,,,,,,,,,,,,,,,,,,,,,,,,,,,,,,,,,,,,,,,,,,,,,,,,,,,
1768202964.081256,1768202964.082545,35.000000,0.000000,4372.051270,4364.230957,4327.563965,4364.615234,4358.333496,4369.743652,4355.641113,4354.230957,4351.922852,4336.153809,4492.820313,4520.512695,4416.922852,4463.846191,0.000000,3.000000,57.000000,,,,0.000000,4.000000,4.000000,2.000000,4.000000,4.000000,2.000000,4.000000,4.000000,4.000000,4.000000,4.000000,4.000000,4.000000,4.000000,66.666664,,,,,,,,,,,,,,,,,,,,,,,,,,,,,,,,,,,,,,,,,,,,,,,,,,,,,,,,,,,,,,,,,,,,,,,,,,,,,,,,,,,,,,,,,,,,,,,,,,,,,,,,,,,,,,,,,,,,,
1768202964.089064,1768202964.090553,36.000000,0.000000,4363.974121,4355.512695,4324.871582,4360.384766,4350.256348,4371.666504,4346.538574,4345.897461,4350.641113,4338.333496,4491.025879,4512.051270,4412.692383,4460.128418,0.000000,3.000000,57.000000,,,,0.000000,4.000000,4.000000,2.000000,4.000000,4.000000,2.000000,4.000000,4.000000,4.000000,4.000000,4.000000,4.000000,4.000000,4.000000,66.666664,,,,,,,,,,,,,,,,,,,,,,,,,,,,,,,,,,,,,,,,,,,,,,,,,,,,,,,,,,,,,,,,,,,,,,,,,,,,,,,,,,,,,,,,,,,,,,,,,,,,,,,,,,,,,,,,,,,,,
1768202964.096873,1768202964.098361,37.000000,0.000000,4359.230957,4359.487305,4320.512695,4356.538574,4345.384766,4368.461426,4342.563965,4341.153809,4348.077148,4335.128418,4490.128418,4508.717773,4413.846191,4457.563965,0.000000,3.000000,57.000000,,,,0.000000,4.000000,4.000000,2.000000,4.000000,4.000000,2.000000,4.000000,4.000000,4.000000,4.000000,4.000000,4.000000,4.000000,4.000000,66.666664,,,,,,,,,,,,,,,,,,,,,,,,,,,,,,,,,,,,,,,,,,,,,,,,,,,,,,,,,,,,,,,,,,,,,,,,,,,,,,,,,,,,,,,,,,,,,,,,,,,,,,,,,,,,,,,,,,,,,
1768202964.104681,1768202964.106270,38.000000,0.000000,4360.000000,4364.487305,4322.051270,4357.948730,4347.692383,4364.102539,4342.820313,4347.051270,4347.563965,4330.512695,4490.769043,4517.948730,4413.461426,4455.384766,0.000000,3.000000,57.000000,,,,0.000000,4.000000,4.000000,2.000000,4.000000,4.000000,2.000000,4.000000,4.000000,4.000000,4.000000,4.000000,4.000000,4.000000,4.000000,66.666664,,,,,,,,,,,,,,,,,,,,,,,,,,,,,,,,,,,,,,,,,,,,,,,,,,,,,,,,,,,,,,,,,,,,,,,,,,,,,,,,,,,,,,,,,,,,,,,,,,,,,,,,,,,,,,,,,,,,,
1768202964.112490,1768202964.114078,39.000000,0.000000,4366.666504,4362.051270,4328.205078,4365.256348,4351.025879,4363.589844,4342.051270,4352.051270,4353.077148,4334.615234,4491.922852,4524.487305,4409.871582,4456.282227,0.000000,3.000000,57.000000,,,,0.000000,4.000000,4.000000,2.000000,4.000000,4.000000,2.000000,4.000000,4.000000,4.000000,4.000000,4.000000,4.000000,4.000000,4.000000,66.666664,,,,,,,,,,,,,,,,,,,,,,,,,,,,,,,,,,,,,,,,,,,,,,,,,,,,,,,,,,,,,,,,,,,,,,,,,,,,,,,,,,,,,,,,,,,,,,,,,,,,,,,,,,,,,,,,,,,,,
1768202964.120298,1768202964.122086,40.000000,0.000000,4372.563965,4362.179688,4328.974121,4370.769043,4354.615234,4366.025879,4347.179688,4354.615234,4357.563965,4338.717773,4491.794922,4516.153809,4408.589844,4462.436035,0.000000,3.000000,57.000000,,,,0.000000,4.000000,4.000000,2.000000,4.000000,4.000000,2.000000,4.000000,4.000000,4.000000,4.000000,4.000000,4.000000,4.000000,4.000000,66.666664,,,,,,,,,,,,,,,,,,,,,,,,,,,,,,,,,,,,,,,,,,,,,,,,,,,,,,,,,,,,,,,,,,,,,,,,,,,,,,,,,,,,,,,,,,,,,,,,,,,,,,,,,,,,,,,,,,,,,
