Timestamp,OriginalTimestamp,EEG.Counter,EEG.Interpolated,EEG.AF3,EEG.F7,EEG.F3,EEG.FC5,EEG.T7,EEG.P7,EEG.O1,EEG.O2,EEG.P8,EEG.T8,EEG.FC6,EEG.F4,EEG.F8,EEG.AF4,POW.AF3.Theta,POW.AF3.Alpha,POW.AF3.BetaL,POW.AF3.BetaH,POW.AF3.Gamma,POW.F7.Theta,POW.F7.Alpha,POW.F7.BetaL,POW.F7.BetaH,POW.F7.Gamma,POW.F3.Theta,POW.F3.Alpha,POW.F3.BetaL,POW.F3.BetaH,POW.F3.Gamma,POW.FC5.Theta,POW.FC5.Alpha,POW.FC5.BetaL,POW.FC5.BetaH,POW.FC5.Gamma,POW.T7.Theta,POW.T7.Alpha,POW.T7.BetaL,POW.T7.BetaH,POW.T7.Gamma,POW.P7.Theta,POW.P7.Alpha,POW.P7.BetaL,POW.P7.BetaH,POW.P7.Gamma,POW.O1.Theta,POW.O1.Alpha,POW.O1.BetaL,POW.O1.BetaH,POW.O1.Gamma,POW.O2.Theta,POW.O2.Alpha,POW.O2.BetaL,POW.O2.BetaH,POW.O2.Gamma,POW.P8.Theta,POW.P8.Alpha,POW.P8.BetaL,POW.P8.BetaH,POW.P8.Gamma,POW.T8.Theta,POW.T8.Alpha,POW.T8.BetaL,POW.T8.BetaH,POW.T8.Gamma,POW.FC6.Theta,POW.FC6.Alpha,POW.FC6.BetaL,POW.FC6.BetaH,POW.FC6.Gamma,POW.F4.Theta,POW.F4.Alpha,POW.F4.BetaL,POW.F4.BetaH,POW.F4.Gamma,POW.F8.Theta,POW.F8.Alpha,POW.F8.BetaL,POW.F8.BetaH,POW.F8.Gamma,POW.AF4.Theta,POW.AF4.Alpha,POW.AF4.BetaL,POW.AF4.BetaH,POW.AF4.Gamma
1769162325.926006,1769162325.926347,53.0,0.0,4299.615234,4262.820313,4475.0,4318.717773,4277.307617,4282.94873,4286.025879,4295.0,4294.487305,4278.589844,4572.563965,4551.794922,4421.794922,4491.922852,,,,,,,,,,,,,,,,,,,,,,,,,,,,,,,,,,,,,,,,,,,,,,,,,,,,,,,,,,,,,,,,,,,,,,
1769162325.933814,1769162325.934055,54.0,0.0,4294.743652,4266.282227,4473.333496,4322.05127,4280.512695,4278.717773,4285.256348,4296.025879,4295.256348,4292.563965,4572.179688,4544.743652,4419.358887,4487.692383,,,,,,,,,,,,,,,,,,,,,,,,,,,,,,,,,,,,,,,,,,,,,,,,,,,,,,,,,,,,,,,,,,,,,,
1769162325.941623,1769162325.941864,55.0,0.0,4295.897461,4266.922852,4463.974121,4323.333496,4279.487305,4278.974121,4292.692383,4294.615234,4285.0,4280.256348,4570.128418,4536.410156,4410.641113,4478.077148,,,,,,,,,,,,,,,,,,,,,,,,,,,,,,,,,,,,,,,,,,,,,,,,,,,,,,,,,,,,,,,,,,,,,,
1769162325.949431,1769162325.949472,56.0,0.0,4295.0,4258.974121,4457.05127,4313.974121,4272.179688,4286.666504,4291.922852,4298.717773,4284.230957,4267.563965,4569.487305,4538.077148,4413.077148,4474.871582,,,,,,,,,,,,,,,,,,,,,,,,,,,,,,,,,,,,,,,,,,,,,,,,,,,,,,,,,,,,,,,,,,,,,,
1769162325.95724,1769162325.957281,57.0,0.0,4292.820313,4256.282227,4459.230957,4313.077148,4274.743652,4290.256348,4281.794922,4290.128418,4285.384766,4273.077148,4568.077148,4539.615234,4413.589844,4475.384766,,,,,,,,,,,,,,,,,,,,,,,,,,,,,,,,,,,,,,,,,,,,,,,,,,,,,,,,,,,,,,,,,,,,,,
1769162325.965048,1769162325.964989,58.0,0.0,4295.256348,4262.94873,4460.641113,4320.512695,4281.025879,4286.666504,4279.102539,4275.769043,4274.230957,4278.717773,4566.538574,4536.922852,4412.820313,4481.025879,,,,,,,,,,,,,,,,,,,,,,,,,,,,,,,,,,,,,,,,,,,,,,,,,,,,,,,,,,,,,,,,,,,,,,
1769162325.972856,1769162325.972798,59.0,0.0,4292.05127,4263.846191,4458.461426,4315.0,4278.589844,4283.717773,4287.820313,4286.410156,4278.589844,4280.384766,4572.692383,4541.282227,4422.179688,4489.615234,,,,,,,,,,,,,,,,,,,,,,,,,,,,,,,,,,,,,,,,,,,,,,,,,,,,,,,,,,,,,,,,,,,,,,
1769162325.980665,1769162325.980406,60.0,0.0,4286.282227,4257.05127,4457.820313,4309.230957,4273.205078,4282.94873,4297.179688,4303.589844,4293.589844,4280.641113,4574.102539,4550.128418,4422.692383,4488.077148,,,,,,,,,,,,,,,,,,,,,,,,,,,,,,,,,,,,,,,,,,,,,,,,,,,,,,,,,,,,,,,,,,,,,,
1769162325.988473,1769162325.988215,61.0,0.0,4296.794922,4261.922852,4462.307617,4319.615234,4273.333496,4281.153809,4293.717773,4301.538574,4286.922852,4273.205078,4570.512695,4551.410156,4419.102539,4481.538574,,,,,,,,,,,,,,,,,,,,,,,,,,,,,,,,,,,,,,,,,,,,,,,,,,,,,,,,,,,,,,,,,,,,,,
1769162325.996282,1769162325.995923,62.0,0.0,4313.461426,4276.153809,4471.538574,4329.487305,4274.358887,4280.0,4286.922852,4302.692383,4283.717773,4275.897461,4582.307617,4555.769043,4427.179688,4491.922852,0.547962,0.471132,0.186095,0.272718,0.297621,0.533212,0.203763,0.288808,0.323259,0.205024,0.754517,0.164018,0.141171,0.242,0.067196,0.230129,0.162576,0.135174,0.115916,0.092924,0.154983,0.04788,0.11014,0.074397,0.05951,0.341232,0.181754,0.317696,0.16096,0.155159,0.089176,0.076345,0.071914,0.089205,0.077345,0.206835,0.228429,0.224704,0.176552,0.192598,0.181597,0.212479,0.339858,0.230515,0.167225,0.372043,0.418816,0.134282,0.270661,0.342317,0.836391,0.625741,0.25204,0.320885,0.175318,0.870608,0.552331,0.311569,0.341547,0.207084,0.700923,0.552477,0.356631,0.215279,0.260004,1.088398,0.731975,0.537584,0.363603,0.27204
1769162326.00409,1769162326.003732,63.0,0.0,4316.153809,4281.153809,4478.077148,4327.94873,4275.128418,4281.538574,4288.846191,4314.358887,4297.692383,4289.871582,4595.897461,4564.871582,4432.820313,4504.743652,,,,,,,,,,,,,,,,,,,,,,,,,,,,,,,,,,,,,,,,,,,,,,,,,,,,,,,,,,,,,,,,,,,,,,
1769162326.011899,1769162326.01174,64.0,0.0,4310.512695,4275.512695,4476.410156,4325.897461,4274.871582,4280.641113,4285.256348,4312.692383,4293.333496,4288.461426,4589.871582,4563.333496,4428.333496,4499.102539,,,,,,,,,,,,,,,,,,,,,,,,,,,,,,,,,,,,,,,,,,,,,,,,,,,,,,,,,,,,,,,,,,,,,,
1769162326.019707,1769162326.019548,65.0,0.0,4309.487305,4271.282227,4474.230957,4326.153809,4269.871582,4277.436035,4277.05127,4302.820313,4278.974121,4277.307617,4582.05127,4552.692383,4425.641113,4491.922852,,,,,,,,,,,,,,,,,,,,,,,,,,,,,,,,,,,,,,,,,,,,,,,,,,,,,,,,,,,,,,,,,,,,,,
1769162326.027516,1769162326.027457,66.0,0.0,4307.179688,4270.128418,4474.358887,4326.538574,4265.641113,4280.256348,4282.436035,4308.461426,4286.025879,4278.717773,4584.487305,4554.102539,4426.025879,4495.512695,,,,,,,,,,,,,,,,,,,,,,,,,,,,,,,,,,,,,,,,,,,,,,,,,,,,,,,,,,,,,,,,,,,,,,
1769162326.035324,1769162326.035265,67.0,0.0,4301.666504,4265.769043,4475.0,4326.282227,4265.256348,4283.846191,4289.615234,4324.487305,4299.487305,4283.333496,4585.128418,4565.384766,4425.128418,4497.820313,,,,,,,,,,,,,,,,,,,,,,,,,,,,,,,,,,,,,,,,,,,,,,,,,,,,,,,,,,,,,,,,,,,,,,
1769162326.043133,1769162326.043273,68.0,0.0,4304.871582,4263.589844,4475.769043,4325.897461,4268.974121,4282.307617,4283.717773,4317.436035,4290.641113,4281.153809,4582.820313,4565.0,4423.717773,4493.077148,,,,,,,,,,,,,,,,,,,,,,,,,,,,,,,,,,,,,,,,,,,,,,,,,,,,,,,,,,,,,,,,,,,,,,
1769162326.050941,1769162326.051082,69.0,0.0,4308.333496,4268.461426,4476.666504,4326.666504,4273.717773,4286.025879,4281.282227,4296.666504,4276.153809,4270.128418,4580.256348,4557.179688,4419.102539,4493.717773,,,,,,,,,,,,,,,,,,,,,,,,,,,,,,,,,,,,,,,,,,,,,,,,,,,,,,,,,,,,,,,,,,,,,,
1769162326.05875,1769162326.05879,70.0,0.0,4299.743652,4267.05127,4476.410156,4324.615234,4275.512695,4294.615234,4290.128418,4301.282227,4274.871582,4260.512695,4573.333496,4554.230957,4410.512695,4491.410156,,,,,,,,,,,,,,,,,,,,,,,,,,,,,,,,,,,,,,,,,,,,,,,,,,,,,,,,,,,,,,,,,,,,,,
1769162326.066558,1769162326.066599,71.0,0.0,4289.871582,4257.692383,4473.461426,4320.512695,4274.743652,4295.256348,4293.717773,4313.974121,4277.563965,4266.410156,4569.102539,4555.384766,4404.871582,4477.563965,,,,,,,,,,,,,,,,,,,,,,,,,,,,,,,,,,,,,,,,,,,,,,,,,,,,,,,,,,,,,,,,,,,,,,
1769162326.074366,1769162326.074607,72.0,0.0,4294.230957,4257.307617,4473.461426,4321.666504,4273.205078,4292.307617,4291.794922,4311.794922,4282.436035,4274.743652,4574.615234,4557.05127,4407.05127,4473.333496,,,,,,,,,,,,,,,,,,,,,,,,,,,,,,,,,,,,,,,,,,,,,,,,,,,,,,,,,,,,,,,,,,,,,,
1769162326.082175,1769162326.082416,73.0,0.0,4297.05127,4260.256348,4472.436035,4323.717773,4269.358887,4295.128418,4296.153809,4314.871582,4292.820313,4273.333496,4579.743652,4558.333496,4412.179688,4479.743652,,,,,,,,,,,,,,,,,,,,,,,,,,,,,,,,,,,,,,,,,,,,,,,,,,,,,,,,,,,,,,,,,,,,,,
1769162326.089983,1769162326.090324,74.0,0.0,4288.205078,4251.922852,4464.487305,4321.282227,4263.333496,4293.333496,4297.05127,4320.512695,4291.282227,4277.307617,4574.871582,4558.589844,4412.179688,4477.94873,,,,,,,,,,,,,,,,,,,,,,,,,,,,,,,,,,,,,,,,,,,,,,,,,,,,,,,,,,,,,,,,,,,,,,
1769162326.097792,1769162326.098132,75.0,0.0,4287.179688,4248.589844,4462.179688,4320.384766,4262.563965,4284.487305,4284.358887,4312.563965,4278.461426,4280.128418,4569.615234,4555.384766,4410.769043,4475.641113,,,,,,,,,,,,,,,,,,,,,,,,,,,,,,,,,,,,,,,,,,,,,,,,,,,,,,,,,,,,,,,,,,,,,,
1769162326.1056,1769162326.106141,76.0,0.0,4296.282227,4260.512695,4467.436035,4322.563965,4265.897461,4278.717773,4277.563965,4307.94873,4280.128418,4271.794922,4573.846191,4556.282227,4413.333496,4482.436035,,,,,,,,,,,,,,,,,,,,,,,,,,,,,,,,,,,,,,,,,,,,,,,,,,,,,,,,,,,,,,,,,,,,,,
1769162326.113409,1769162326.113949,77.0,0.0,4294.487305,4265.256348,4465.641113,4320.769043,4264.358887,4280.384766,4285.128418,4309.615234,4284.102539,4262.436035,4574.487305,4555.512695,4413.461426,4482.179688,,,,,,,,,,,,,,,,,,,,,,,,,,,,,,,,,,,,,,,,,,,,,,,,,,,,,,,,,,,,,,,,,,,,,,
1769162326.121217,1769162326.121658,78.0,0.0,4282.692383,4253.717773,4460.897461,4317.692383,4261.025879,4287.820313,4288.589844,4308.589844,4275.641113,4262.692383,4568.717773,4552.820313,4410.0,4473.974121,0.581285,0.557312,0.20305,0.264293,0.289313,0.504866,0.212126,0.27634,0.33049,0.210123,0.766469,0.167001,0.169869,0.251278,0.080338,0.18983,0.173244,0.156923,0.115662,0.088542,0.197074,0.069661,0.130329,0.098673,0.064748,0.328023,0.180863,0.378651,0.17442,0.164521,0.079864,0.075235,0.064904,0.069653,0.063664,0.258165,0.203445,0.246911,0.169426,0.234311,0.257805,0.242109,0.346972,0.228404,0.18086,0.399916,0.434533,0.137549,0.288834,0.370935,0.760117,0.595073,0.235085,0.328884,0.161299,0.899302,0.542136,0.29494,0.341391,0.193235,0.631881,0.565117,0.329786,0.201777,0.217317,0.781946,0.784526,0.615108,0.380863,0.229009
1769162326.129026,1769162326.129466,79.0,0.0,4281.410156,4248.077148,4460.769043,4318.461426,4263.974121,4295.128418,4282.307617,4308.974121,4275.128418,4268.333496,4567.307617,4554.615234,4409.487305,4473.333496,,,,,,,,,,,,,,,,,,,,,,,,,,,,,,,,,,,,,,,,,,,,,,,,,,,,,,,,,,,,,,,,,,,,,,
1769162326.136834,1769162326.137474,80.0,0.0,4288.717773,4256.410156,4457.307617,4321.538574,4268.589844,4295.256348,4280.128418,4309.102539,4280.512695,4266.410156,4568.974121,4556.922852,4412.436035,4482.436035,,,,,,,,,,,,,,,,,,,,,,,,,,,,,,,,,,,,,,,,,,,,,,,,,,,,,,,,,,,,,,,,,,,,,,
1769162326.144642,1769162326.145283,81.0,0.0,4294.102539,4265.384766,4460.384766,4325.0,4267.307617,4292.179688,4281.282227,4310.0,4281.538574,4265.256348,4577.307617,4565.0,4415.897461,4492.436035,,,,,,,,,,,,,,,,,,,,,,,,,,,,,,,,,,,,,,,,,,,,,,,,,,,,,,,,,,,,,,,,,,,,,,
1769162326.152451,1769162326.152991,82.0,0.0,4297.94873,4266.410156,4470.897461,4327.179688,4265.897461,4295.897461,4280.0,4308.717773,4283.077148,4273.974121,4582.179688,4569.743652,4413.717773,4491.282227,,,,,,,,,,,,,,,,,,,,,,,,,,,,,,,,,,,,,,,,,,,,,,,,,,,,,,,,,,,,,,,,,,,,,,
1769162326.160259,1769162326.1608,83.0,0.0,4293.333496,4263.077148,4466.922852,4324.743652,4266.922852,4298.589844,4280.384766,4302.563965,4279.230957,4276.666504,4574.358887,4560.769043,4411.025879,4483.205078,,,,,,,,,,,,,,,,,,,,,,,,,,,,,,,,,,,,,,,,,,,,,,,,,,,,,,,,,,,,,,,,,,,,,,
1769162326.168068,1769162326.168408,84.0,0.0,4288.077148,4262.307617,4456.922852,4321.282227,4266.538574,4293.846191,4280.769043,4303.717773,4277.436035,4273.974121,4574.615234,4557.692383,4420.641113,4485.128418,,,,,,,,,,,,,,,,,,,,,,,,,,,,,,,,,,,,,,,,,,,,,,,,,,,,,,,,,,,,,,,,,,,,,,
1769162326.175876,1769162326.176217,85.0,0.0,4298.077148,4265.512695,4464.615234,4326.410156,4266.410156,4292.820313,4280.128418,4313.846191,4291.538574,4285.0,4587.179688,4570.0,4431.666504,4500.384766,,,,,,,,,,,,,,,,,,,,,,,,,,,,,,,,,,,,,,,,,,,,,,,,,,,,,,,,,,,,,,,,,,,,,,
1769162326.183685,1769162326.183925,86.0,0.0,4305.641113,4268.333496,4478.333496,4335.641113,4267.820313,4297.436035,4281.025879,4314.487305,4298.077148,4286.410156,4588.333496,4574.358887,4429.615234,4505.128418,,,,,,,,,,,,,,,,,,,,,,,,,,,,,,,,,,,,,,,,,,,,,,,,,,,,,,,,,,,,,,,,,,,,,,
1769162326.191493,1769162326.191734,87.0,0.0,4296.282227,4267.307617,4474.615234,4334.487305,4267.05127,4294.487305,4280.0,4306.282227,4284.871582,4267.692383,4581.794922,4569.615234,4425.512695,4495.256348,,,,,,,,,,,,,,,,,,,,,,,,,,,,,,,,,,,,,,,,,,,,,,,,,,,,,,,,,,,,,,,,,,,,,,
1769162326.199302,1769162326.199343,88.0,0.0,4289.102539,4263.846191,4462.307617,4327.563965,4263.589844,4282.692383,4278.333496,4307.179688,4279.871582,4266.282227,4581.282227,4569.871582,4423.205078,4490.384766,,,,,,,,,,,,,,,,,,,,,,,,,,,,,,,,,,,,,,,,,,,,,,,,,,,,,,,,,,,,,,,,,,,,,,
1769162326.20711,1769162326.207151,89.0,0.0,4291.410156,4261.282227,4457.05127,4325.769043,4262.05127,4276.922852,4278.846191,4307.563965,4283.333496,4272.94873,4576.025879,4563.461426,4416.282227,4491.794922,,,,,,,,,,,,,,,,,,,,,,,,,,,,,,,,,,,,,,,,,,,,,,,,,,,,,,,,,,,,,,,,,,,,,,
1769162326.214919,1769162326.215059,90.0,0.0,4291.282227,4262.563965,4458.461426,4325.128418,4263.846191,4281.922852,4279.743652,4298.589844,4276.666504,4262.94873,4568.589844,4553.205078,4412.436035,4488.846191,,,,,,,,,,,,,,,,,,,,,,,,,,,,,,,,,,,,,,,,,,,,,,,,,,,,,,,,,,,,,,,,,,,,,,
1769162326.222727,1769162326.222868,91.0,0.0,4293.461426,4265.384766,4460.256348,4325.0,4264.615234,4282.436035,4278.205078,4295.384766,4274.487305,4259.230957,4570.897461,4555.128418,4413.461426,4487.820313,,,,,,,,,,,,,,,,,,,,,,,,,,,,,,,,,,,,,,,,,,,,,,,,,,,,,,,,,,,,,,,,,,,,,,
1769162326.230535,1769162326.230876,92.0,0.0,4297.563965,4265.256348,4461.153809,4328.333496,4264.358887,4279.358887,4277.436035,4297.436035,4280.0,4269.743652,4571.538574,4559.487305,4411.666504,4489.871582,,,,,,,,,,,,,,,,,,,,,,,,,,,,,,,,,,,,,,,,,,,,,,,,,,,,,,,,,,,,,,,,,,,,,,
1769162326.238344,1769162326.238684,93.0,0.0,4289.102539,4262.179688,4459.871582,4328.461426,4266.153809,4285.0,4279.487305,4296.538574,4278.589844,4267.307617,4567.436035,4556.538574,4411.153809,4482.820313,,,,,,,,,,,,,,,,,,,,,,,,,,,,,,,,,,,,,,,,,,,,,,,,,,,,,,,,,,,,,,,,,,,,,,
1769162326.246152,1769162326.246593,94.0,0.0,4277.307617,4260.897461,4456.666504,4324.743652,4268.461426,4289.358887,4280.897461,4298.205078,4278.205078,4263.077148,4567.820313,4552.692383,4413.077148,4475.641113,0.620164,0.625021,0.21095,0.2481,0.277457,0.485331,0.231542,0.268943,0.318573,0.209767,0.688127,0.169339,0.204022,0.25773,0.098688,0.156017,0.177636,0.178352,0.114172,0.08638,0.241414,0.094822,0.145513,0.123504,0.069739,0.331373,0.192134,0.410177,0.191895,0.166906,0.070821,0.079141,0.057273,0.049993,0.050995,0.343153,0.189808,0.252687,0.167422,0.277376,0.376037,0.288647,0.33274,0.229336,0.189627,0.459985,0.456865,0.155127,0.304382,0.397916,0.725904,0.554511,0.224595,0.329231,0.14857,0.913485,0.503089,0.270144,0.333107,0.171931,0.653545,0.572513,0.293361,0.184036,0.176365,0.59356,0.80191,0.656088,0.388068,0.182132
1769162326.253961,1769162326.254401,95.0,0.0,4280.0,4262.820313,4456.410156,4325.256348,4268.077148,4282.94873,4280.384766,4300.769043,4278.846191,4269.487305,4571.282227,4551.794922,4412.692383,4478.589844,,,,,,,,,,,,,,,,,,,,,,,,,,,,,,,,,,,,,,,,,,,,,,,,,,,,,,,,,,,,,,,,,,,,,,
1769162326.261769,1769162326.26201,96.0,0.0,4293.077148,4263.974121,4460.512695,4329.358887,4266.538574,4278.333496,4279.615234,4294.871582,4272.436035,4262.179688,4569.358887,4550.641113,4411.666504,4481.666504,,,,,,,,,,,,,,,,,,,,,,,,,,,,,,,,,,,,,,,,,,,,,,,,,,,,,,,,,,,,,,,,,,,,,,
1769162326.269578,1769162326.269818,97.0,0.0,4294.871582,4262.820313,4461.410156,4330.0,4266.282227,4281.153809,4279.230957,4291.282227,4271.538574,4252.94873,4566.153809,4551.025879,4410.641113,4478.589844,,,,,,,,,,,,,,,,,,,,,,,,,,,,,,,,,,,,,,,,,,,,,,,,,,,,,,,,,,,,,,,,,,,,,,
1769162326.277386,1769162326.277727,98.0,0.0,4281.922852,4262.563965,4458.589844,4325.897461,4266.666504,4279.102539,4279.743652,4297.692383,4280.897461,4261.282227,4568.589844,4552.179688,4411.153809,4476.410156,,,,,,,,,,,,,,,,,,,,,,,,,,,,,,,,,,,,,,,,,,,,,,,,,,,,,,,,,,,,,,,,,,,,,,
1769162326.285195,1769162326.285535,99.0,0.0,4279.743652,4262.820313,4457.563965,4326.153809,4265.769043,4278.974121,4279.743652,4298.846191,4281.922852,4269.102539,4567.563965,4550.384766,4412.05127,4475.384766,,,,,,,,,,,,,,,,,,,,,,,,,,,,,,,,,,,,,,,,,,,,,,,,,,,,,,,,,,,,,,,,,,,,,,
1769162326.293003,1769162326.293443,100.0,0.0,4288.974121,4264.230957,4460.128418,4334.487305,4267.307617,4288.461426,4280.512695,4291.025879,4272.692383,4263.333496,4562.94873,4547.563965,4411.025879,4474.615234,,,,,,,,,,,,,,,,,,,,,,,,,,,,,,,,,,,,,,,,,,,,,,,,,,,,,,,,,,,,,,,,,,,,,,
1769162326.300811,1769162326.301252,101.0,0.0,4288.333496,4266.794922,4461.410156,4338.846191,4270.128418,4287.563965,4280.641113,4294.743652,4276.153809,4267.820313,4567.307617,4551.538574,4412.179688,4482.307617,,,,,,,,,,,,,,,,,,,,,,,,,,,,,,,,,,,,,,,,,,,,,,,,,,,,,,,,,,,,,,,,,,,,,,
1769162326.30862,1769162326.30896,102.0,0.0,4279.487305,4267.307617,4459.871582,4332.436035,4268.589844,4277.307617,4279.358887,4304.102539,4285.769043,4282.05127,4573.077148,4557.563965,4416.282227,4489.871582,,,,,,,,,,,,,,,,,,,,,,,,,,,,,,,,,,,,,,,,,,,,,,,,,,,,,,,,,,,,,,,,,,,,,,
1769162326.316428,1769162326.316769,103.0,0.0,4276.153809,4261.666504,4457.436035,4324.358887,4262.563965,4272.94873,4278.333496,4298.461426,4281.282227,4275.256348,4568.717773,4556.025879,4413.589844,4480.0,,,,,,,,,,,,,,,,,,,,,,,,,,,,,,,,,,,,,,,,,,,,,,,,,,,,,,,,,,,,,,,,,,,,,,
1769162326.324237,1769162326.324378,104.0,0.0,4279.102539,4258.974121,4457.563965,4325.128418,4260.128418,4271.025879,4276.666504,4289.487305,4273.846191,4259.743652,4564.615234,4551.282227,4407.94873,4469.743652,,,,,,,,,,,,,,,,,,,,,,,,,,,,,,,,,,,,,,,,,,,,,,,,,,,,,,,,,,,,,,,,,,,,,,
1769162326.332045,1769162326.332186,105.0,0.0,4287.692383,4267.820313,4460.384766,4330.641113,4263.461426,4264.102539,4275.512695,4293.846191,4276.410156,4264.743652,4567.179688,4551.922852,4416.666504,4481.025879,,,,,,,,,,,,,,,,,,,,,,,,,,,,,,,,,,,,,,,,,,,,,,,,,,,,,,,,,,,,,,,,,,,,,,
1769162326.339854,1769162326.340094,106.0,0.0,4293.077148,4269.871582,4460.128418,4329.487305,4264.615234,4259.230957,4276.410156,4297.436035,4278.333496,4276.025879,4567.05127,4555.128418,4424.743652,4492.05127,,,,,,,,,,,,,,,,,,,,,,,,,,,,,,,,,,,,,,,,,,,,,,,,,,,,,,,,,,,,,,,,,,,,,,
1769162326.347662,1769162326.347903,107.0,0.0,4287.05127,4262.436035,4456.410156,4324.743652,4262.307617,4261.410156,4277.820313,4293.333496,4277.692383,4274.102539,4567.179688,4555.384766,4418.461426,4487.820313,,,,,,,,,,,,,,,,,,,,,,,,,,,,,,,,,,,,,,,,,,,,,,,,,,,,,,,,,,,,,,,,,,,,,,
1769162326.355471,1769162326.355511,108.0,0.0,4289.487305,4270.128418,4458.205078,4330.769043,4261.538574,4262.820313,4276.794922,4292.05127,4279.871582,4277.436035,4572.692383,4555.512695,4418.589844,4488.333496,,,,,,,,,,,,,,,,,,,,,,,,,,,,,,,,,,,,,,,,,,,,,,,,,,,,,,,,,,,,,,,,,,,,,,
1769162326.363279,1769162326.36332,109.0,0.0,4300.641113,4282.179688,4462.179688,4340.512695,4263.589844,4262.307617,4276.282227,4293.205078,4277.563965,4281.025879,4574.358887,4555.897461,4430.641113,4493.461426,,,,,,,,,,,,,,,,,,,,,,,,,,,,,,,,,,,,,,,,,,,,,,,,,,,,,,,,,,,,,,,,,,,,,,
1769162326.371088,1769162326.371028,110.0,0.0,4296.794922,4275.641113,4460.256348,4338.974121,4264.743652,4258.333496,4277.05127,4293.333496,4275.769043,4270.128418,4571.794922,4555.769043,4432.05127,4488.717773,0.697058,0.663903,0.203806,0.227548,0.26275,0.536734,0.26488,0.266108,0.289785,0.204095,0.632,0.174801,0.242221,0.256487,0.118844,0.15011,0.173796,0.194756,0.110641,0.085727,0.275791,0.119712,0.153447,0.143346,0.073695,0.349873,0.219939,0.401306,0.202638,0.159831,0.065924,0.095728,0.054562,0.037657,0.045515,0.436952,0.202975,0.242895,0.176003,0.311797,0.511784,0.351018,0.308257,0.239509,0.194932,0.541837,0.473716,0.191919,0.310819,0.423767,0.751657,0.503166,0.22407,0.318547,0.141033,0.927125,0.43383,0.250807,0.319244,0.150707,0.758049,0.568268,0.257071,0.164117,0.144974,0.57853,0.765483,0.645524,0.389553,0.144364
1769162326.378896,1769162326.378837,111.0,0.0,4290.0,4268.333496,4457.94873,4333.846191,4263.205078,4254.102539,4276.922852,4294.615234,4280.641113,4270.128418,4571.794922,4555.897461,4424.358887,4488.589844,,,,,,,,,,,,,,,,,,,,,,,,,,,,,,,,,,,,,,,,,,,,,,,,,,,,,,,,,,,,,,,,,,,,,,
1769162326.386705,1769162326.386446,112.0,0.0,4300.384766,4275.512695,4461.025879,4337.05127,4263.077148,4257.307617,4277.436035,4292.692383,4281.794922,4279.102539,4572.692383,4555.769043,4427.692383,4501.794922,,,,,,,,,,,,,,,,,,,,,,,,,,,,,,,,,,,,,,,,,,,,,,,,,,,,,,,,,,,,,,,,,,,,,,
1769162326.394513,1769162326.394254,113.0,0.0,4306.025879,4279.358887,4461.538574,4340.897461,4265.897461,4262.94873,4279.230957,4285.384766,4278.974121,4267.94873,4572.94873,4555.769043,4428.589844,4505.769043,,,,,,,,,,,,,,,,,,,,,,,,,,,,,,,,,,,,,,,,,,,,,,,,,,,,,,,,,,,,,,,,,,,,,,
1769162326.402321,1769162326.401963,114.0,0.0,4297.692383,4278.077148,4459.102539,4339.487305,4266.025879,4260.384766,4280.128418,4278.846191,4277.94873,4258.077148,4572.94873,4555.769043,4421.538574,4492.94873,,,,,,,,,,,,,,,,,,,,,,,,,,,,,,,,,,,,,,,,,,,,,,,,,,,,,,,,,,,,,,,,,,,,,,
1769162326.41013,1769162326.409771,115.0,0.0,4297.563965,4278.974121,4458.846191,4338.333496,4262.692383,4257.307617,4279.230957,4280.384766,4278.461426,4271.538574,4571.922852,4555.769043,4422.307617,4486.538574,,,,,,,,,,,,,,,,,,,,,,,,,,,,,,,,,,,,,,,,,,,,,,,,,,,,,,,,,,,,,,,,,,,,,,
1769162326.417938,1769162326.417779,116.0,0.0,4303.974121,4280.0,4457.692383,4340.384766,4264.102539,4263.077148,4278.333496,4280.384766,4277.436035,4280.897461,4570.897461,4555.769043,4430.384766,4497.179688,,,,,,,,,,,,,,,,,,,,,,,,,,,,,,,,,,,,,,,,,,,,,,,,,,,,,,,,,,,,,,,,,,,,,,
1769162326.425747,1769162326.425588,117.0,0.0,4307.307617,4282.820313,4458.077148,4343.333496,4267.179688,4264.615234,4276.922852,4274.615234,4277.820313,4275.769043,4571.153809,4555.769043,4432.05127,4510.641113,,,,,,,,,,,,,,,,,,,,,,,,,,,,,,,,,,,,,,,,,,,,,,,,,,,,,,,,,,,,,,,,,,,,,,
1769162326.433555,1769162326.433496,118.0,0.0,4311.410156,4283.333496,4462.05127,4343.333496,4264.615234,4260.897461,4277.563965,4280.512695,4283.846191,4275.256348,4572.563965,4555.769043,4428.077148,4509.615234,,,,,,,,,,,,,,,,,,,,,,,,,,,,,,,,,,,,,,,,,,,,,,,,,,,,,,,,,,,,,,,,,,,,,,
1769162326.441364,1769162326.441304,119.0,0.0,4308.333496,4278.589844,4462.05127,4341.153809,4261.794922,4262.179688,4280.256348,4287.563965,4289.743652,4279.487305,4573.461426,4555.769043,4428.717773,4496.410156,,,,,,,,,,,,,,,,,,,,,,,,,,,,,,,,,,,,,,,,,,,,,,,,,,,,,,,,,,,,,,,,,,,,,,
1769162326.449172,1769162326.449313,120.0,0.0,4297.692383,4276.282227,4458.205078,4340.769043,4264.615234,4263.205078,4281.153809,4282.436035,4292.563965,4276.922852,4572.94873,4555.769043,4428.333496,4487.05127,,,,,,,,,,,,,,,,,,,,,,,,,,,,,,,,,,,,,,,,,,,,,,,,,,,,,,,,,,,,,,,,,,,,,,
1769162326.456981,1769162326.457121,121.0,0.0,4293.846191,4279.230957,4457.436035,4342.05127,4267.692383,4262.692383,4280.769043,4280.384766,4292.692383,4267.436035,4572.692383,4555.897461,4426.282227,4491.282227,,,,,,,,,,,,,,,,,,,,,,,,,,,,,,,,,,,,,,,,,,,,,,,,,,,,,,,,,,,,,,,,,,,,,,
1769162326.464789,1769162326.46483,122.0,0.0,4296.025879,4283.461426,4458.589844,4340.641113,4267.563965,4264.487305,4280.384766,4282.05127,4285.641113,4265.897461,4574.743652,4556.153809,4430.128418,4498.974121,,,,,,,,,,,,,,,,,,,,,,,,,,,,,,,,,,,,,,,,,,,,,,,,,,,,,,,,,,,,,,,,,,,,,,
1769162326.472597,1769162326.472638,123.0,0.0,4300.0,4287.05127,4457.692383,4337.436035,4266.282227,4264.102539,4278.333496,4278.846191,4280.128418,4276.666504,4573.333496,4555.128418,4433.461426,4498.461426,,,,,,,,,,,,,,,,,,,,,,,,,,,,,,,,,,,,,,,,,,,,,,,,,,,,,,,,,,,,,,,,,,,,,,
1769162326.480406,1769162326.480646,124.0,0.0,4307.179688,4289.743652,4459.358887,4340.128418,4265.128418,4261.666504,4278.077148,4279.102539,4289.358887,4281.794922,4570.0,4555.897461,4431.153809,4493.461426,,,,,,,,,,,,,,,,,,,,,,,,,,,,,,,,,,,,,,,,,,,,,,,,,,,,,,,,,,,,,,,,,,,,,,
1769162326.488214,1769162326.488455,125.0,0.0,4306.282227,4287.436035,4461.538574,4341.666504,4264.487305,4261.282227,4281.410156,4282.820313,4295.0,4278.717773,4571.666504,4557.05127,4426.410156,4492.563965,,,,,,,,,,,,,,,,,,,,,,,,,,,,,,,,,,,,,,,,,,,,,,,,,,,,,,,,,,,,,,,,,,,,,,
1769162326.496023,1769162326.496163,126.0,0.0,4299.358887,4282.05127,4455.256348,4337.563965,4265.512695,4263.205078,4282.307617,4280.256348,4286.282227,4279.743652,4572.05127,4551.794922,4424.743652,4491.794922,0.829518,0.675165,0.182808,0.209123,0.246086,0.681339,0.307521,0.262921,0.252464,0.194606,0.622948,0.189703,0.280366,0.243152,0.136672,0.195607,0.164206,0.202074,0.104981,0.085971,0.291926,0.141399,0.154875,0.15405,0.075715,0.37528,0.272859,0.357516,0.201901,0.14447,0.071636,0.12925,0.060972,0.037682,0.050797,0.509737,0.25209,0.228404,0.196724,0.330809,0.627795,0.425087,0.286975,0.258746,0.200246,0.626199,0.478728,0.26182,0.307618,0.447508,0.842499,0.453145,0.238896,0.2935,0.141045,0.963091,0.3523,0.249446,0.30028,0.136788,0.92115,0.555779,0.23709,0.144719,0.127208,0.75765,0.680928,0.591749,0.389476,0.124199
1769162326.503831,1769162326.503972,127.0,0.0,4296.410156,4280.769043,4446.153809,4335.0,4265.641113,4264.230957,4280.128418,4278.333496,4285.897461,4277.307617,4570.512695,4548.974121,4427.307617,4490.256348,,,,,,,,,,,,,,,,,,,,,,,,,,,,,,,,,,,,,,,,,,,,,,,,,,,,,,,,,,,,,,,,,,,,,,
1769162326.51164,1769162326.511581,0.0,0.0,4295.512695,4283.205078,4443.077148,4333.974121,4264.487305,4260.384766,4279.487305,4277.820313,4291.410156,4276.025879,4572.94873,4554.358887,4430.897461,4491.922852,,,,,,,,,,,,,,,,,,,,,,,,,,,,,,,,,,,,,,,,,,,,,,,,,,,,,,,,,,,,,,,,,,,,,,
1769162326.519448,1769162326.519389,1.0,0.0,4296.538574,4284.615234,4445.256348,4331.410156,4265.128418,4260.512695,4280.0,4275.0,4287.179688,4281.025879,4573.461426,4555.256348,4430.512695,4494.102539,,,,,,,,,,,,,,,,,,,,,,,,,,,,,,,,,,,,,,,,,,,,,,,,,,,,,,,,,,,,,,,,,,,,,,
1769162326.527257,1769162326.527098,2.0,0.0,4299.615234,4281.410156,4446.153809,4333.461426,4268.077148,4270.0,4281.922852,4275.384766,4279.487305,4274.743652,4569.743652,4551.794922,4425.897461,4492.05127,,,,,,,,,,,,,,,,,,,,,,,,,,,,,,,,,,,,,,,,,,,,,,,,,,,,,,,,,,,,,,,,,,,,,,
1769162326.535065,1769162326.534906,3.0,0.0,4298.461426,4279.230957,4442.820313,4338.077148,4268.333496,4274.230957,4281.282227,4276.538574,4277.820313,4268.974121,4568.974121,4549.230957,4425.769043,4490.0,,,,,,,,,,,,,,,,,,,,,,,,,,,,,,,,,,,,,,,,,,,,,,,,,,,,,,,,,,,,,,,,,,,,,,
1769162326.542874,1769162326.542914,4.0,0.0,4295.897461,4283.846191,4443.077148,4337.436035,4266.025879,4271.410156,4278.846191,4276.153809,4284.102539,4278.974121,4568.974121,4543.717773,4425.512695,4489.102539,,,,,,,,,,,,,,,,,,,,,,,,,,,,,,,,,,,,,,,,,,,,,,,,,,,,,,,,,,,,,,,,,,,,,,
1769162326.550682,1769162326.550723,5.0,0.0,4296.410156,4288.846191,4444.871582,4334.487305,4269.230957,4275.256348,4281.538574,4276.794922,4288.974121,4283.077148,4566.538574,4541.025879,4420.512695,4488.846191,,,,,,,,,,,,,,,,,,,,,,,,,,,,,,,,,,,,,,,,,,,,,,,,,,,,,,,,,,,,,,,,,,,,,,
1769162326.55849,1769162326.558431,6.0,0.0,4293.717773,4284.358887,4434.871582,4329.102539,4272.563965,4281.666504,4283.717773,4284.487305,4293.333496,4277.692383,4571.410156,4548.205078,4419.615234,4489.743652,,,,,,,,,,,,,,,,,,,,,,,,,,,,,,,,,,,,,,,,,,,,,,,,,,,,,,,,,,,,,,,,,,,,,,
1769162326.566299,1769162326.56624,7.0,0.0,4290.512695,4276.538574,4423.846191,4325.256348,4269.102539,4280.769043,4281.410156,4288.589844,4295.128418,4281.922852,4578.205078,4555.128418,4427.94873,4491.794922,,,,,,,,,,,,,,,,,,,,,,,,,,,,,,,,,,,,,,,,,,,,,,,,,,,,,,,,,,,,,,,,,,,,,,
1769162326.574107,1769162326.573848,8.0,0.0,4294.743652,4281.282227,4429.871582,4334.487305,4265.512695,4279.358887,4282.307617,4280.256348,4289.487305,4282.436035,4575.128418,4554.871582,4429.487305,4494.487305,,,,,,,,,,,,,,,,,,,,,,,,,,,,,,,,,,,,,,,,,,,,,,,,,,,,,,,,,,,,,,,,,,,,,,
1769162326.581916,1769162326.581657,9.0,0.0,4298.205078,4288.589844,4434.615234,4341.410156,4267.692383,4281.282227,4285.384766,4275.0,4284.871582,4276.666504,4569.358887,4548.333496,4415.256348,4491.153809,,,,,,,,,,,,,,,,,,,,,,,,,,,,,,,,,,,,,,,,,,,,,,,,,,,,,,,,,,,,,,,,,,,,,,
1769162326.589724,1769162326.589365,10.0,0.0,4295.128418,4285.128418,4428.846191,4332.692383,4268.846191,4280.641113,4282.307617,4280.769043,4286.666504,4280.256348,4568.589844,4542.563965,4408.333496,4486.666504,,,,,,,,,,,,,,,,,,,,,,,,,,,,,,,,,,,,,,,,,,,,,,,,,,,,,,,,,,,,,,,,,,,,,,
1769162326.597533,1769162326.597174,11.0,0.0,4292.94873,4278.333496,4426.922852,4323.461426,4264.487305,4277.94873,4278.077148,4280.769043,4285.384766,4274.487305,4567.05127,4540.128418,4416.153809,4488.589844,,,,,,,,,,,,,,,,,,,,,,,,,,,,,,,,,,,,,,,,,,,,,,,,,,,,,,,,,,,,,,,,,,,,,,
1769162326.605341,1769162326.605182,12.0,0.0,4294.871582,4279.102539,4429.615234,4326.025879,4261.410156,4279.743652,4283.589844,4271.282227,4277.307617,4260.512695,4564.358887,4539.487305,4416.410156,4492.692383,,,,,,,,,,,,,,,,,,,,,,,,,,,,,,,,,,,,,,,,,,,,,,,,,,,,,,,,,,,,,,,,,,,,,,
1769162326.61315,1769162326.61299,13.0,0.0,4296.282227,4283.846191,4426.794922,4328.205078,4262.94873,4281.538574,4290.897461,4270.256348,4276.410156,4268.717773,4567.692383,4545.769043,4411.666504,4492.94873,,,,,,,,,,,,,,,,,,,,,,,,,,,,,,,,,,,,,,,,,,,,,,,,,,,,,,,,,,,,,,,,,,,,,,
1769162326.620958,1769162326.620899,14.0,0.0,4297.05127,4283.717773,4422.179688,4326.282227,4266.282227,4279.230957,4290.256348,4277.563965,4284.487305,4282.436035,4570.897461,4555.0,4415.897461,4494.230957,1.007346,0.661207,0.157174,0.199732,0.230909,0.913794,0.34573,0.252097,0.217311,0.18384,0.723774,0.213226,0.30915,0.217027,0.148712,0.279318,0.154542,0.198008,0.098659,0.087328,0.280651,0.157887,0.152009,0.153823,0.074986,0.400208,0.354985,0.296089,0.19264,0.124991,0.088039,0.176012,0.076897,0.049905,0.065277,0.531866,0.330755,0.218413,0.224748,0.332434,0.695203,0.499118,0.274675,0.279687,0.208813,0.698184,0.467881,0.371484,0.297834,0.466314,0.97536,0.412992,0.264593,0.253226,0.147652,1.010414,0.280563,0.261362,0.275564,0.132858,1.12305,0.536063,0.239881,0.128331,0.121966,1.098783,0.564433,0.51063,0.389945,0.123611
1769162326.628766,1769162326.628707,15.0,0.0,4295.384766,4280.641113,4422.94873,4326.410156,4265.897461,4282.563965,4287.563965,4278.974121,4291.153809,4273.846191,4567.563965,4557.94873,4419.615234,4498.077148,,,,,,,,,,,,,,,,,,,,,,,,,,,,,,,,,,,,,,,,,,,,,,,,,,,,,,,,,,,,,,,,,,,,,,
1769162326.636575,1769162326.636715,16.0,0.0,4294.230957,4279.358887,4426.666504,4327.94873,4264.871582,4288.333496,4290.384766,4278.846191,4292.563965,4271.025879,4571.025879,4560.512695,4422.563965,4504.358887,,,,,,,,,,,,,,,,,,,,,,,,,,,,,,,,,,,,,,,,,,,,,,,,,,,,,,,,,,,,,,,,,,,,,,
1769162326.644383,1769162326.644524,17.0,0.0,4300.769043,4283.205078,4423.461426,4327.05127,4265.0,4284.871582,4291.666504,4285.641113,4295.256348,4284.743652,4578.717773,4567.05127,4428.589844,4507.05127,,,,,,,,,,,,,,,,,,,,,,,,,,,,,,,,,,,,,,,,,,,,,,,,,,,,,,,,,,,,,,,,,,,,,,
1769162326.652192,1769162326.652432,18.0,0.0,4303.077148,4287.436035,4413.974121,4329.358887,4264.615234,4279.743652,4290.128418,4289.102539,4300.256348,4281.410156,4577.692383,4565.897461,4422.820313,4498.974121,,,,,,,,,,,,,,,,,,,,,,,,,,,,,,,,,,,,,,,,,,,,,,,,,,,,,,,,,,,,,,,,,,,,,,
1769162326.66,1769162326.660241,19.0,0.0,4299.358887,4287.94873,4413.205078,4333.717773,4266.922852,4282.307617,4291.153809,4280.384766,4290.0,4264.102539,4570.128418,4558.205078,4414.102539,4491.282227,,,,,,,,,,,,,,,,,,,,,,,,,,,,,,,,,,,,,,,,,,,,,,,,,,,,,,,,,,,,,,,,,,,,,,
1769162326.667809,1769162326.668249,20.0,0.0,4291.794922,4281.794922,4415.384766,4330.0,4267.94873,4289.102539,4294.615234,4274.358887,4280.256348,4258.846191,4563.205078,4553.974121,4411.666504,4490.897461,,,,,,,,,,,,,,,,,,,,,,,,,,,,,,,,,,,,,,,,,,,,,,,,,,,,,,,,,,,,,,,,,,,,,,
1769162326.675617,1769162326.676057,21.0,0.0,4281.025879,4271.153809,4407.436035,4322.820313,4265.641113,4296.538574,4298.461426,4279.743652,4291.025879,4263.717773,4560.256348,4553.205078,4404.102539,4489.358887,,,,,,,,,,,,,,,,,,,,,,,,,,,,,,,,,,,,,,,,,,,,,,,,,,,,,,,,,,,,,,,,,,,,,,
1769162326.683426,1769162326.683966,22.0,0.0,4283.974121,4271.282227,4402.692383,4325.128418,4265.0,4299.615234,4298.974121,4292.820313,4299.487305,4267.179688,4563.461426,4555.512695,4400.384766,4486.922852,,,,,,,,,,,,,,,,,,,,,,,,,,,,,,,,,,,,,,,,,,,,,,,,,,,,,,,,,,,,,,,,,,,,,,
1769162326.691234,1769162326.691774,23.0,0.0,4295.128418,4277.94873,4407.05127,4328.589844,4264.102539,4292.563965,4294.871582,4295.769043,4294.743652,4275.256348,4567.94873,4557.820313,4409.487305,4489.358887,,,,,,,,,,,,,,,,,,,,,,,,,,,,,,,,,,,,,,,,,,,,,,,,,,,,,,,,,,,,,,,,,,,,,,
1769162326.699043,1769162326.699383,24.0,0.0,4295.512695,4278.974121,4409.871582,4329.102539,4261.538574,4286.794922,4292.94873,4284.358887,4293.077148,4282.563965,4567.307617,4556.153809,4414.230957,4490.256348,,,,,,,,,,,,,,,,,,,,,,,,,,,,,,,,,,,,,,,,,,,,,,,,,,,,,,,,,,,,,,,,,,,,,,
1769162326.706851,1769162326.707191,25.0,0.0,4299.358887,4285.384766,4410.0,4338.589844,4262.94873,4293.461426,4295.641113,4282.436035,4295.512695,4269.615234,4567.307617,4555.769043,4414.358887,4492.692383,,,,,,,,,,,,,,,,,,,,,,,,,,,,,,,,,,,,,,,,,,,,,,,,,,,,,,,,,,,,,,,,,,,,,,
1769162326.71466,1769162326.7149,26.0,0.0,4308.205078,4292.307617,4410.769043,4343.461426,4267.436035,4302.307617,4298.205078,4296.410156,4293.717773,4259.615234,4571.794922,4560.512695,4419.615234,4500.897461,,,,,,,,,,,,,,,,,,,,,,,,,,,,,,,,,,,,,,,,,,,,,,,,,,,,,,,,,,,,,,,,,,,,,,
1769162326.722468,1769162326.722708,27.0,0.0,4298.205078,4283.717773,4406.666504,4334.102539,4266.666504,4300.0,4297.179688,4299.743652,4295.769043,4274.871582,4571.282227,4560.897461,4417.563965,4497.563965,,,,,,,,,,,,,,,,,,,,,,,,,,,,,,,,,,,,,,,,,,,,,,,,,,,,,,,,,,,,,,,,,,,,,,
1769162326.730276,1769162326.730717,28.0,0.0,4295.256348,4283.589844,4403.589844,4333.077148,4265.384766,4294.230957,4294.487305,4285.384766,4294.871582,4281.794922,4567.05127,4555.512695,4410.769043,4489.871582,,,,,,,,,,,,,,,,,,,,,,,,,,,,,,,,,,,,,,,,,,,,,,,,,,,,,,,,,,,,,,,,,,,,,,
1769162326.738085,1769162326.738525,29.0,0.0,4316.410156,4298.205078,4407.179688,4343.974121,4266.666504,4295.641113,4295.0,4277.820313,4286.410156,4271.282227,4567.436035,4555.512695,4413.205078,4497.179688,,,,,,,,,,,,,,,,,,,,,,,,,,,,,,,,,,,,,,,,,,,,,,,,,,,,,,,,,,,,,,,,,,,,,,
1769162326.745893,1769162326.746433,30.0,0.0,4316.922852,4291.410156,4403.461426,4345.641113,4264.871582,4296.794922,4297.179688,4288.717773,4286.153809,4270.641113,4572.563965,4557.820313,4416.153809,4503.461426,1.200037,0.62664,0.137774,0.203316,0.222013,1.166987,0.364041,0.230252,0.191197,0.174729,0.875245,0.240168,0.320316,0.18343,0.153288,0.386328,0.149534,0.182291,0.093645,0.090364,0.248781,0.168558,0.147096,0.143542,0.071246,0.423182,0.458376,0.237544,0.181296,0.10648,0.111204,0.223716,0.097873,0.068938,0.082653,0.501164,0.417099,0.218253,0.250445,0.319082,0.699214,0.554845,0.271906,0.292299,0.221078,0.747979,0.440921,0.512962,0.283584,0.475906,1.117941,0.381893,0.290153,0.202552,0.155988,1.064493,0.22945,0.271808,0.24589,0.13533,1.33879,0.509226,0.260474,0.11577,0.123973,1.537575,0.439287,0.420269,0.393457,0.138484
1769162326.753702,1769162326.754242,31.0,0.0,4296.666504,4277.179688,4396.282227,4338.205078,4263.846191,4296.282227,4297.05127,4296.025879,4291.282227,4273.461426,4573.717773,4557.563965,4412.94873,4495.384766,,,,,,,,,,,,,,,,,,,,,,,,,,,,,,,,,,,,,,,,,,,,,,,,,,,,,,,,,,,,,,,,,,,,,,
1769162326.76151,1769162326.76225,32.0,0.0,4292.307617,4284.102539,4394.743652,4338.205078,4267.436035,4296.794922,4296.025879,4284.615234,4284.615234,4265.128418,4565.641113,4551.410156,4408.846191,4490.256348,,,,,,,,,,,,,,,,,,,,,,,,,,,,,,,,,,,,,,,,,,,,,,,,,,,,,,,,,,,,,,,,,,,,,,
1769162326.769319,1769162326.770058,33.0,0.0,4298.717773,4290.769043,4392.436035,4341.538574,4266.922852,4296.410156,4295.0,4275.384766,4276.538574,4261.410156,4557.563965,4542.179688,4404.871582,4488.589844,,,,,,,,,,,,,,,,,,,,,,,,,,,,,,,,,,,,,,,,,,,,,,,,,,,,,,,,,,,,,,,,,,,,,,
1769162326.777127,1769162326.777767,34.0,0.0,4296.794922,4287.563965,4388.974121,4341.794922,4264.871582,4300.0,4294.358887,4281.538574,4280.0,4261.410156,4552.563965,4538.333496,4397.307617,4476.153809,,,,,,,,,,,,,,,,,,,,,,,,,,,,,,,,,,,,,,,,,,,,,,,,,,,,,,,,,,,,,,,,,,,,,,
1769162326.784936,1769162326.785575,35.0,0.0,4293.077148,4290.256348,4389.230957,4342.692383,4271.153809,4306.666504,4295.256348,4281.922852,4280.128418,4261.153809,4554.102539,4539.871582,4397.436035,4473.461426,,,,,,,,,,,,,,,,,,,,,,,,,,,,,,,,,,,,,,,,,,,,,,,,,,,,,,,,,,,,,,,,,,,,,,
1769162326.792744,1769162326.793184,36.0,0.0,4293.846191,4292.94873,4387.436035,4344.102539,4275.128418,4306.922852,4295.641113,4276.025879,4275.769043,4267.307617,4562.179688,4540.512695,4410.128418,4489.102539,,,,,,,,,,,,,,,,,,,,,,,,,,,,,,,,,,,,,,,,,,,,,,,,,,,,,,,,,,,,,,,,,,,,,,
1769162326.800552,1769162326.800993,37.0,0.0,4294.230957,4289.230957,4383.077148,4343.974121,4267.94873,4304.230957,4293.974121,4275.256348,4274.358887,4270.897461,4563.974121,4538.974121,4415.769043,4492.94873,,,,,,,,,,,,,,,,,,,,,,,,,,,,,,,,,,,,,,,,,,,,,,,,,,,,,,,,,,,,,,,,,,,,,,
1769162326.808361,1769162326.808901,38.0,0.0,4294.743652,4291.794922,4382.94873,4342.692383,4264.102539,4306.153809,4295.128418,4279.230957,4274.358887,4263.333496,4557.692383,4537.05127,4406.666504,4480.384766,,,,,,,,,,,,,,,,,,,,,,,,,,,,,,,,,,,,,,,,,,,,,,,,,,,,,,,,,,,,,,,,,,,,,,
1769162326.816169,1769162326.816709,39.0,0.0,4295.0,4292.94873,4378.589844,4343.077148,4268.974121,4307.307617,4297.436035,4282.179688,4277.05127,4259.743652,4552.820313,4536.922852,4401.153809,4477.179688,,,,,,,,,,,,,,,,,,,,,,,,,,,,,,,,,,,,,,,,,,,,,,,,,,,,,,,,,,,,,,,,,,,,,,
1769162326.823978,1769162326.824718,40.0,0.0,4293.589844,4286.410156,4374.358887,4342.436035,4272.436035,4303.974121,4295.769043,4281.153809,4277.820313,4271.410156,4556.025879,4537.563965,4409.487305,4483.205078,,,,,,,,,,,,,,,,,,,,,,,,,,,,,,,,,,,,,,,,,,,,,,,,,,,,,,,,,,,,,,,,,,,,,,
1769162326.831786,1769162326.832526,41.0,0.0,4294.102539,4284.487305,4376.666504,4341.794922,4272.563965,4302.179688,4294.871582,4286.922852,4282.563965,4282.820313,4559.358887,4536.538574,4410.897461,4481.153809,,,,,,,,,,,,,,,,,,,,,,,,,,,,,,,,,,,,,,,,,,,,,,,,,,,,,,,,,,,,,,,,,,,,,,
1769162326.839595,1769162326.840434,42.0,0.0,4296.922852,4285.384766,4376.153809,4342.179688,4270.0,4303.205078,4296.025879,4297.179688,4291.025879,4275.384766,4555.384766,4533.717773,4400.256348,4476.538574,,,,,,,,,,,,,,,,,,,,,,,,,,,,,,,,,,,,,,,,,,,,,,,,,,,,,,,,,,,,,,,,,,,,,,
1769162326.847403,1769162326.848243,43.0,0.0,4296.282227,4281.666504,4373.205078,4341.666504,4266.410156,4302.307617,4299.230957,4288.461426,4284.230957,4258.589844,4550.641113,4527.820313,4396.282227,4477.820313,,,,,,,,,,,,,,,,,,,,,,,,,,,,,,,,,,,,,,,,,,,,,,,,,,,,,,,,,,,,,,,,,,,,,,
1769162326.855212,1769162326.856151,44.0,0.0,4289.871582,4279.358887,4371.538574,4342.307617,4265.641113,4303.974121,4306.666504,4274.358887,4271.538574,4256.666504,4553.974121,4522.179688,4402.05127,4479.615234,,,,,,,,,,,,,,,,,,,,,,,,,,,,,,,,,,,,,,,,,,,,,,,,,,,,,,,,,,,,,,,,,,,,,,
1769162326.86302,1769162326.86396,45.0,0.0,4285.512695,4280.0,4368.589844,4342.307617,4265.512695,4309.743652,4310.384766,4280.384766,4276.538574,4266.153809,4558.717773,4525.0,4402.820313,4478.589844,,,,,,,,,,,,,,,,,,,,,,,,,,,,,,,,,,,,,,,,,,,,,,,,,,,,,,,,,,,,,,,,,,,,,,
1769162326.870829,1769162326.871668,46.0,0.0,4287.436035,4277.563965,4366.410156,4339.743652,4264.871582,4311.282227,4307.692383,4285.512695,4280.769043,4265.769043,4553.205078,4526.282227,4399.358887,4474.871582,1.356989,0.573174,0.132807,0.219941,0.221955,1.353727,0.353284,0.198336,0.175022,0.169681,1.02292,0.257609,0.307127,0.151716,0.151241,0.475138,0.150477,0.157783,0.092675,0.09544,0.202691,0.173183,0.140408,0.126297,0.065026,0.453653,0.560188,0.194512,0.173594,0.093124,0.135064,0.2561,0.115603,0.087157,0.095355,0.435561,0.483083,0.224603,0.263971,0.296201,0.648312,0.57622,0.276895,0.291611,0.233756,0.771091,0.400278,0.664074,0.266142,0.473302,1.214766,0.355484,0.303647,0.152381,0.159695,1.092449,0.197622,0.270372,0.217084,0.137245,1.514142,0.479236,0.284936,0.108696,0.127268,1.981988,0.331414,0.336423,0.40382,0.161096
1769162326.878637,1769162326.879477,47.0,0.0,4292.94873,4278.589844,4367.692383,4339.743652,4266.794922,4306.153809,4306.153809,4276.282227,4273.205078,4260.512695,4551.538574,4520.897461,4403.974121,4473.717773,,,,,,,,,,,,,,,,,,,,,,,,,,,,,,,,,,,,,,,,,,,,,,,,,,,,,,,,,,,,,,,,,,,,,,
1769162326.886445,1769162326.887085,48.0,0.0,4295.384766,4280.641113,4365.769043,4342.05127,4267.94873,4304.358887,4307.179688,4276.153809,4276.666504,4265.128418,4555.641113,4521.922852,4405.769043,4476.153809,,,,,,,,,,,,,,,,,,,,,,,,,,,,,,,,,,,,,,,,,,,,,,,,,,,,,,,,,,,,,,,,,,,,,,
1769162326.894254,1769162326.894894,49.0,0.0,4292.307617,4278.333496,4366.025879,4341.410156,4263.205078,4308.077148,4303.974121,4282.692383,4281.153809,4267.436035,4555.0,4525.897461,4397.94873,4474.358887,,,,,,,,,,,,,,,,,,,,,,,,,,,,,,,,,,,,,,,,,,,,,,,,,,,,,,,,,,,,,,,,,,,,,,
1769162326.902062,1769162326.902602,50.0,0.0,4296.282227,4284.358887,4370.0,4340.384766,4266.410156,4311.282227,4298.974121,4277.94873,4276.025879,4264.743652,4553.589844,4522.307617,4397.179688,4470.769043,,,,,,,,,,,,,,,,,,,,,,,,,,,,,,,,,,,,,,,,,,,,,,,,,,,,,,,,,,,,,,,,,,,,,,
1769162326.909871,1769162326.910411,51.0,0.0,4307.05127,4290.512695,4371.794922,4342.436035,4274.743652,4310.897461,4298.205078,4279.358887,4283.461426,4269.615234,4556.025879,4521.153809,4404.615234,4474.871582,,,,,,,,,,,,,,,,,,,,,,,,,,,,,,,,,,,,,,,,,,,,,,,,,,,,,,,,,,,,,,,,,,,,,,
1769162326.917679,1769162326.918019,52.0,0.0,4304.230957,4283.461426,4369.743652,4343.974121,4270.897461,4311.538574,4304.743652,4286.922852,4289.743652,4267.692383,4556.794922,4525.256348,4401.153809,4476.794922,,,,,,,,,,,,,,,,,,,,,,,,,,,,,,,,,,,,,,,,,,,,,,,,,,,,,,,,,,,,,,,,,,,,,,
1769162326.925488,1769162326.925828,53.0,0.0,4295.0,4278.333496,4367.307617,4344.871582,4266.410156,4315.512695,4311.282227,4285.769043,4282.307617,4260.641113,4556.666504,4526.025879,4393.846191,4474.102539,,,,,,,,,,,,,,,,,,,,,,,,,,,,,,,,,,,,,,,,,,,,,,,,,,,,,,,,,,,,,,,,,,,,,,
1769162326.933296,1769162326.933536,54.0,0.0,4299.102539,4285.0,4368.974121,4347.820313,4269.615234,4312.820313,4305.256348,4284.358887,4286.282227,4267.94873,4556.794922,4523.974121,4398.717773,4474.871582,,,,,,,,,,,,,,,,,,,,,,,,,,,,,,,,,,,,,,,,,,,,,,,,,,,,,,,,,,,,,,,,,,,,,,
1769162326.941105,1769162326.941345,55.0,0.0,4305.128418,4288.461426,4368.589844,4349.743652,4268.974121,4307.436035,4296.922852,4284.358887,4293.717773,4278.717773,4555.512695,4523.205078,4402.563965,4474.230957,,,,,,,,,,,,,,,,,,,,,,,,,,,,,,,,,,,,,,,,,,,,,,,,,,,,,,,,,,,,,,,,,,,,,,
1769162326.948913,1769162326.949353,56.0,0.0,4303.974121,4288.461426,4364.358887,4348.846191,4265.769043,4309.743652,4297.820313,4281.282227,4285.512695,4280.0,4560.769043,4525.641113,4406.538574,4473.333496,,,,,,,,,,,,,,,,,,,,,,,,,,,,,,,,,,,,,,,,,,,,,,,,,,,,,,,,,,,,,,,,,,,,,,
1769162326.956721,1769162326.957161,57.0,0.0,4308.077148,4293.589844,4366.666504,4350.897461,4266.794922,4310.641113,4296.153809,4275.769043,4276.794922,4275.769043,4564.615234,4527.307617,4413.974121,4478.589844,,,,,,,,,,,,,,,,,,,,,,,,,,,,,,,,,,,,,,,,,,,,,,,,,,,,,,,,,,,,,,,,,,,,,,
1769162326.96453,1769162326.96507,58.0,0.0,4313.077148,4293.589844,4367.94873,4354.358887,4266.282227,4309.615234,4295.641113,4270.256348,4273.333496,4268.461426,4558.077148,4522.94873,4410.128418,4477.05127,,,,,,,,,,,,,,,,,,,,,,,,,,,,,,,,,,,,,,,,,,,,,,,,,,,,,,,,,,,,,,,,,,,,,,
1769162326.972338,1769162326.972878,59.0,0.0,4307.94873,4289.487305,4360.512695,4351.282227,4265.128418,4312.179688,4302.179688,4270.897461,4270.384766,4263.589844,4554.871582,4520.128418,4401.794922,4471.153809,,,,,,,,,,,,,,,,,,,,,,,,,,,,,,,,,,,,,,,,,,,,,,,,,,,,,,,,,,,,,,,,,,,,,,
1769162326.980147,1769162326.980487,60.0,0.0,4303.589844,4291.153809,4358.846191,4348.974121,4267.05127,4310.384766,4301.922852,4277.436035,4274.358887,4267.563965,4557.820313,4524.871582,4407.05127,4483.333496,,,,,,,,,,,,,,,,,,,,,,,,,,,,,,,,,,,,,,,,,,,,,,,,,,,,,,,,,,,,,,,,,,,,,,
1769162326.987955,1769162326.988295,61.0,0.0,4311.282227,4294.358887,4368.333496,4356.538574,4267.179688,4306.153809,4296.153809,4278.974121,4277.692383,4267.307617,4557.307617,4527.05127,4413.205078,4492.05127,,,,,,,,,,,,,,,,,,,,,,,,,,,,,,,,,,,,,,,,,,,,,,,,,,,,,,,,,,,,,,,,,,,,,,
1769162326.995764,1769162326.996004,62.0,0.0,4315.384766,4289.871582,4370.128418,4356.666504,4267.05127,4308.717773,4296.025879,4276.794922,4277.436035,4260.641113,4560.128418,4522.563965,4410.641113,4481.025879,1.431653,0.507803,0.143963,0.247379,0.229308,1.399797,0.31542,0.165613,0.166662,0.169661,1.069977,0.257929,0.269916,0.130743,0.14495,0.519605,0.154126,0.129343,0.098604,0.102171,0.157609,0.171826,0.130763,0.106271,0.057425,0.499109,0.632396,0.172381,0.171943,0.087069,0.152029,0.259218,0.121308,0.098473,0.09838,0.363435,0.508853,0.234003,0.259529,0.27152,0.581693,0.558298,0.293447,0.278843,0.241934,0.758023,0.35101,0.798953,0.24909,0.459462,1.223952,0.328316,0.299621,0.114826,0.154818,1.089276,0.184388,0.260194,0.196447,0.132998,1.585025,0.452859,0.301889,0.109509,0.128564,2.312013,0.262248,0.269483,0.42234,0.183585
1769162327.003572,1769162327.003812,63.0,0.0,4305.0,4284.358887,4358.333496,4344.102539,4266.666504,4313.333496,4300.769043,4281.410156,4280.512695,4265.512695,4565.128418,4522.179688,4410.641113,4473.717773,,,,,,,,,,,,,,,,,,,,,,,,,,,,,,,,,,,,,,,,,,,,,,,,,,,,,,,,,,,,,,,,,,,,,,
1769162327.011381,1769162327.011821,64.0,0.0,4295.512695,4286.282227,4349.358887,4341.922852,4268.333496,4316.410156,4305.897461,4280.897461,4278.205078,4273.461426,4560.0,4523.461426,4412.179688,4477.94873,,,,,,,,,,,,,,,,,,,,,,,,,,,,,,,,,,,,,,,,,,,,,,,,,,,,,,,,,,,,,,,,,,,,,,
1769162327.019189,1769162327.019629,65.0,0.0,4301.794922,4289.871582,4353.077148,4349.358887,4273.205078,4319.871582,4303.974121,4277.05127,4274.743652,4267.563965,4555.641113,4521.025879,4411.025879,4482.94873,,,,,,,,,,,,,,,,,,,,,,,,,,,,,,,,,,,,,,,,,,,,,,,,,,,,,,,,,,,,,,,,,,,,,,
1769162327.026998,1769162327.027537,66.0,0.0,4318.717773,4291.410156,4357.179688,4349.487305,4276.153809,4320.769043,4300.128418,4283.461426,4280.769043,4264.358887,4555.384766,4518.846191,4411.153809,4486.538574,,,,,,,,,,,,,,,,,,,,,,,,,,,,,,,,,,,,,,,,,,,,,,,,,,,,,,,,,,,,,,,,,,,,,,
1769162327.034806,1769162327.035346,67.0,0.0,4319.743652,4292.692383,4352.94873,4348.205078,4272.692383,4317.307617,4307.94873,4287.94873,4283.461426,4273.589844,4554.102539,4518.846191,4412.05127,4488.846191,,,,,,,,,,,,,,,,,,,,,,,,,,,,,,,,,,,,,,,,,,,,,,,,,,,,,,,,,,,,,,,,,,,,,,
1769162327.042615,1769162327.043354,68.0,0.0,4301.666504,4292.179688,4349.487305,4347.307617,4268.589844,4312.563965,4312.692383,4283.333496,4280.512695,4270.769043,4563.205078,4521.282227,4413.717773,4491.794922,,,,,,,,,,,,,,,,,,,,,,,,,,,,,,,,,,,,,,,,,,,,,,,,,,,,,,,,,,,,,,,,,,,,,,
1769162327.050423,1769162327.051163,69.0,0.0,4296.282227,4289.230957,4350.0,4342.820313,4268.205078,4309.871582,4298.205078,4279.358887,4280.384766,4261.538574,4572.179688,4521.922852,4415.641113,4490.641113,,,,,,,,,,,,,,,,,,,,,,,,,,,,,,,,,,,,,,,,,,,,,,,,,,,,,,,,,,,,,,,,,,,,,,
1769162327.058231,1769162327.058871,70.0,0.0,4308.717773,4288.974121,4349.358887,4343.717773,4265.897461,4310.512695,4291.538574,4278.589844,4280.256348,4272.179688,4560.256348,4517.307617,4415.384766,4480.512695,,,,,,,,,,,,,,,,,,,,,,,,,,,,,,,,,,,,,,,,,,,,,,,,,,,,,,,,,,,,,,,,,,,,,,
1769162327.06604,1769162327.06668,71.0,0.0,4314.102539,4292.307617,4351.025879,4349.743652,4268.589844,4315.0,4303.077148,4276.410156,4277.563965,4281.410156,4550.256348,4515.512695,4411.666504,4479.743652,,,,,,,,,,,,,,,,,,,,,,,,,,,,,,,,,,,,,,,,,,,,,,,,,,,,,,,,,,,,,,,,,,,,,,
1769162327.073848,1769162327.074288,72.0,0.0,4309.102539,4289.871582,4352.05127,4351.282227,4275.769043,4316.153809,4308.589844,4276.794922,4279.230957,4275.0,4563.077148,4520.769043,4410.128418,4489.871582,,,,,,,,,,,,,,,,,,,,,,,,,,,,,,,,,,,,,,,,,,,,,,,,,,,,,,,,,,,,,,,,,,,,,,
1769162327.081657,1769162327.082097,73.0,0.0,4306.922852,4282.692383,4349.871582,4347.692383,4270.256348,4312.05127,4305.256348,4281.153809,4282.692383,4269.743652,4569.230957,4524.487305,4417.94873,4491.922852,,,,,,,,,,,,,,,,,,,,,,,,,,,,,,,,,,,,,,,,,,,,,,,,,,,,,,,,,,,,,,,,,,,,,,
1769162327.089465,1769162327.089805,74.0,0.0,4305.512695,4281.666504,4350.256348,4343.589844,4262.94873,4310.0,4303.589844,4281.282227,4280.128418,4268.077148,4558.589844,4526.153809,4422.436035,4491.153809,,,,,,,,,,,,,,,,,,,,,,,,,,,,,,,,,,,,,,,,,,,,,,,,,,,,,,,,,,,,,,,,,,,,,,
1769162327.097274,1769162327.097614,75.0,0.0,4313.717773,4288.077148,4356.153809,4342.563965,4270.384766,4310.128418,4305.256348,4276.410156,4273.974121,4264.871582,4555.256348,4523.589844,4412.94873,4492.563965,,,,,,,,,,,,,,,,,,,,,,,,,,,,,,,,,,,,,,,,,,,,,,,,,,,,,,,,,,,,,,,,,,,,,,
1769162327.105082,1769162327.105222,76.0,0.0,4321.666504,4286.666504,4357.307617,4343.461426,4274.487305,4309.743652,4307.563965,4278.846191,4276.153809,4264.743652,4563.461426,4519.358887,4411.922852,4492.307617,,,,,,,,,,,,,,,,,,,,,,,,,,,,,,,,,,,,,,,,,,,,,,,,,,,,,,,,,,,,,,,,,,,,,,
1769162327.112891,1769162327.113031,77.0,0.0,4313.205078,4278.974121,4350.641113,4341.666504,4266.794922,4316.025879,4310.128418,4289.487305,4286.153809,4272.05127,4569.615234,4529.487305,4425.641113,4494.871582,,,,,,,,,,,,,,,,,,,,,,,,,,,,,,,,,,,,,,,,,,,,,,,,,,,,,,,,,,,,,,,,,,,,,,
1769162327.120699,1769162327.120739,78.0,0.0,4306.153809,4280.0,4347.307617,4340.512695,4265.512695,4325.0,4311.410156,4295.128418,4288.846191,4280.256348,4572.307617,4538.077148,4427.05127,4497.692383,1.402961,0.446152,0.164522,0.280483,0.239191,1.282458,0.26493,0.14422,0.162623,0.173775,0.998366,0.242374,0.215489,0.123723,0.136719,0.508051,0.154171,0.102857,0.111987,0.109121,0.121562,0.164505,0.115665,0.087631,0.050076,0.549013,0.651752,0.165581,0.173863,0.087557,0.164688,0.230512,0.112452,0.100821,0.091105,0.32452,0.49619,0.243234,0.238683,0.252773,0.540988,0.51446,0.322844,0.259021,0.241826,0.716305,0.306326,0.891813,0.2363,0.439524,1.132119,0.301127,0.281047,0.0974,0.141529,1.051673,0.193177,0.254162,0.187443,0.121307,1.514826,0.442947,0.310403,0.119113,0.128654,2.423424,0.24593,0.222662,0.443843,0.200732
1769162327.128508,1769162327.128548,79.0,0.0,4310.128418,4283.461426,4351.666504,4343.846191,4269.102539,4324.615234,4311.282227,4291.666504,4281.410156,4270.641113,4569.358887,4528.717773,4414.743652,4494.615234,,,,,,,,,,,,,,,,,,,,,,,,,,,,,,,,,,,,,,,,,,,,,,,,,,,,,,,,,,,,,,,,,,,,,,
1769162327.136316,1769162327.136556,80.0,0.0,4310.769043,4281.666504,4353.589844,4344.358887,4267.436035,4321.922852,4310.512695,4285.641113,4277.179688,4255.0,4559.230957,4520.769043,4410.256348,4486.410156,,,,,,,,,,,,,,,,,,,,,,,,,,,,,,,,,,,,,,,,,,,,,,,,,,,,,,,,,,,,,,,,,,,,,,
1769162327.144124,1769162327.144364,81.0,0.0,4304.358887,4279.358887,4345.512695,4342.05127,4265.641113,4321.410156,4307.94873,4280.0,4280.128418,4265.769043,4553.974121,4522.563965,4412.692383,4476.794922,,,,,,,,,,,,,,,,,,,,,,,,,,,,,,,,,,,,,,,,,,,,,,,,,,,,,,,,,,,,,,,,,,,,,,
1769162327.151933,1769162327.152273,82.0,0.0,4306.025879,4280.256348,4342.179688,4341.794922,4265.769043,4320.256348,4305.769043,4278.846191,4281.666504,4280.384766,4561.282227,4521.410156,4412.692383,4480.512695,,,,,,,,,,,,,,,,,,,,,,,,,,,,,,,,,,,,,,,,,,,,,,,,,,,,,,,,,,,,,,,,,,,,,,
1769162327.159741,1769162327.160081,83.0,0.0,4313.846191,4280.897461,4351.025879,4343.205078,4265.641113,4318.333496,4305.897461,4283.333496,4279.743652,4271.025879,4568.717773,4521.666504,4413.205078,4491.025879,,,,,,,,,,,,,,,,,,,,,,,,,,,,,,,,,,,,,,,,,,,,,,,,,,,,,,,,,,,,,,,,,,,,,,
1769162327.16755,1769162327.168089,84.0,0.0,4314.102539,4278.717773,4356.922852,4342.820313,4264.487305,4317.94873,4306.922852,4281.666504,4279.102539,4260.512695,4562.05127,4524.615234,4412.563965,4484.871582,,,,,,,,,,,,,,,,,,,,,,,,,,,,,,,,,,,,,,,,,,,,,,,,,,,,,,,,,,,,,,,,,,,,,,
1769162327.175358,1769162327.175898,85.0,0.0,4307.179688,4277.436035,4352.692383,4341.922852,4264.230957,4323.333496,4308.974121,4280.512695,4279.615234,4262.307617,4554.487305,4522.307617,4408.589844,4474.358887,,,,,,,,,,,,,,,,,,,,,,,,,,,,,,,,,,,,,,,,,,,,,,,,,,,,,,,,,,,,,,,,,,,,,,
1769162327.183167,1769162327.183606,86.0,0.0,4309.358887,4282.563965,4348.717773,4347.05127,4268.589844,4329.615234,4310.128418,4289.487305,4280.0,4265.897461,4561.410156,4523.205078,4409.230957,4482.05127,,,,,,,,,,,,,,,,,,,,,,,,,,,,,,,,,,,,,,,,,,,,,,,,,,,,,,,,,,,,,,,,,,,,,,
1769162327.190975,1769162327.191415,87.0,0.0,4322.179688,4289.743652,4352.820313,4353.205078,4273.333496,4329.230957,4310.128418,4296.282227,4278.717773,4261.153809,4569.102539,4526.666504,4416.666504,4492.820313,,,,,,,,,,,,,,,,,,,,,,,,,,,,,,,,,,,,,,,,,,,,,,,,,,,,,,,,,,,,,,,,,,,,,,
1769162327.198784,1769162327.199024,88.0,0.0,4325.128418,4292.307617,4358.333496,4354.102539,4274.102539,4326.282227,4309.102539,4295.128418,4279.743652,4255.769043,4568.205078,4524.743652,4416.538574,4490.897461,,,,,,,,,,,,,,,,,,,,,,,,,,,,,,,,,,,,,,,,,,,,,,,,,,,,,,,,,,,,,,,,,,,,,,
1769162327.206592,1769162327.206832,89.0,0.0,4316.282227,4292.692383,4357.94873,4354.743652,4272.179688,4325.384766,4306.025879,4288.077148,4281.153809,4265.128418,4568.077148,4522.307617,4412.436035,4486.922852,,,,,,,,,,,,,,,,,,,,,,,,,,,,,,,,,,,,,,,,,,,,,,,,,,,,,,,,,,,,,,,,,,,,,,
1769162327.2144,1769162327.21474,90.0,0.0,4311.666504,4292.692383,4351.666504,4353.846191,4271.666504,4324.743652,4305.128418,4278.077148,4279.230957,4276.794922,4572.05127,4522.307617,4421.794922,4487.179688,,,,,,,,,,,,,,,,,,,,,,,,,,,,,,,,,,,,,,,,,,,,,,,,,,,,,,,,,,,,,,,,,,,,,,
1769162327.222209,1769162327.222549,91.0,0.0,4310.256348,4290.0,4347.05127,4348.461426,4272.692383,4328.846191,4307.563965,4276.666504,4276.922852,4268.589844,4571.922852,4521.666504,4426.666504,4487.179688,,,,,,,,,,,,,,,,,,,,,,,,,,,,,,,,,,,,,,,,,,,,,,,,,,,,,,,,,,,,,,,,,,,,,,
1769162327.230017,1769162327.230557,92.0,0.0,4312.179688,4292.05127,4347.820313,4349.358887,4275.384766,4336.410156,4309.743652,4287.94873,4277.94873,4258.974121,4569.358887,4520.256348,4418.333496,4486.922852,,,,,,,,,,,,,,,,,,,,,,,,,,,,,,,,,,,,,,,,,,,,,,,,,,,,,,,,,,,,,,,,,,,,,,
1769162327.237826,1769162327.238365,93.0,0.0,4319.102539,4297.820313,4351.410156,4352.436035,4278.589844,4332.692383,4307.563965,4286.282227,4278.205078,4266.025879,4567.820313,4522.05127,4417.94873,4489.871582,,,,,,,,,,,,,,,,,,,,,,,,,,,,,,,,,,,,,,,,,,,,,,,,,,,,,,,,,,,,,,,,,,,,,,
1769162327.245634,1769162327.246074,94.0,0.0,4317.692383,4289.615234,4351.025879,4347.05127,4277.563965,4325.512695,4305.897461,4278.846191,4277.307617,4271.153809,4569.102539,4523.461426,4417.436035,4492.820313,1.282185,0.405375,0.186155,0.312754,0.246819,1.049293,0.218999,0.1439,0.159725,0.179363,0.846012,0.219519,0.156505,0.126487,0.127837,0.456398,0.146431,0.083204,0.129817,0.11416,0.099892,0.153095,0.094238,0.073291,0.044728,0.586547,0.613205,0.162597,0.174459,0.091436,0.182634,0.180037,0.093407,0.096854,0.077525,0.32435,0.463567,0.247891,0.208642,0.244829,0.547964,0.469969,0.358714,0.238804,0.232975,0.637383,0.279877,0.925417,0.233314,0.419627,0.951344,0.275622,0.254955,0.101319,0.123605,0.977925,0.224694,0.259423,0.187974,0.104606,1.299998,0.454509,0.317854,0.136132,0.130119,2.267782,0.2762,0.192129,0.459186,0.209577
1769162327.253443,1769162327.253882,95.0,0.0,4308.846191,4279.615234,4344.487305,4344.358887,4276.794922,4334.487305,4308.846191,4289.871582,4279.487305,4263.333496,4576.538574,4523.461426,4412.05127,4491.153809,,,,,,,,,,,,,,,,,,,,,,,,,,,,,,,,,,,,,,,,,,,,,,,,,,,,,,,,,,,,,,,,,,,,,,
1769162327.261251,1769162327.261491,96.0,0.0,4312.179688,4289.615234,4340.256348,4352.307617,4280.512695,4345.897461,4311.410156,4295.641113,4280.128418,4260.769043,4582.05127,4525.0,4419.102539,4492.179688,,,,,,,,,,,,,,,,,,,,,,,,,,,,,,,,,,,,,,,,,,,,,,,,,,,,,,,,,,,,,,,,,,,,,,
1769162327.26906,1769162327.2693,97.0,0.0,4323.846191,4299.743652,4346.922852,4357.563965,4281.025879,4340.384766,4309.743652,4289.743652,4280.128418,4274.230957,4577.94873,4526.794922,4426.538574,4501.025879,,,,,,,,,,,,,,,,,,,,,,,,,,,,,,,,,,,,,,,,,,,,,,,,,,,,,,,,,,,,,,,,,,,,,,
1769162327.276868,1769162327.277008,98.0,0.0,4330.256348,4296.538574,4356.153809,4353.205078,4276.153809,4333.974121,4307.563965,4288.077148,4280.769043,4278.205078,4570.769043,4526.282227,4419.743652,4504.102539,,,,,,,,,,,,,,,,,,,,,,,,,,,,,,,,,,,,,,,,,,,,,,,,,,,,,,,,,,,,,,,,,,,,,,
1769162327.284676,1769162327.284817,99.0,0.0,4327.692383,4294.487305,4352.692383,4345.897461,4274.230957,4337.307617,4306.794922,4286.794922,4276.410156,4264.743652,4569.871582,4525.897461,4417.692383,4496.153809,,,,,,,,,,,,,,,,,,,,,,,,,,,,,,,,,,,,,,,,,,,,,,,,,,,,,,,,,,,,,,,,,,,,,,
1769162327.292485,1769162327.292425,100.0,0.0,4316.922852,4288.589844,4342.820313,4341.666504,4275.512695,4341.922852,4307.563965,4286.282227,4277.692383,4267.820313,4572.94873,4525.512695,4420.384766,4490.641113,,,,,,,,,,,,,,,,,,,,,,,,,,,,,,,,,,,,,,,,,,,,,,,,,,,,,,,,,,,,,,,,,,,,,,
1769162327.300293,1769162327.300234,101.0,0.0,4305.128418,4279.102539,4340.256348,4340.512695,4274.871582,4342.692383,4311.794922,4298.589844,4288.846191,4281.794922,4572.94873,4523.846191,4414.230957,4493.589844,,,,,,,,,,,,,,,,,,,,,,,,,,,,,,,,,,,,,,,,,,,,,,,,,,,,,,,,,,,,,,,,,,,,,,
1769162327.308102,1769162327.307942,102.0,0.0,4305.897461,4283.717773,4341.410156,4341.153809,4274.871582,4336.025879,4312.692383,4296.922852,4287.820313,4277.307617,4571.153809,4522.692383,4414.230957,4497.179688,,,,,,,,,,,,,,,,,,,,,,,,,,,,,,,,,,,,,,,,,,,,,,,,,,,,,,,,,,,,,,,,,,,,,,
1769162327.31591,1769162327.315751,103.0,0.0,4320.0,4294.871582,4343.589844,4346.410156,4276.410156,4333.461426,4309.230957,4279.871582,4275.641113,4273.717773,4576.922852,4523.205078,4426.922852,4503.077148,,,,,,,,,,,,,,,,,,,,,,,,,,,,,,,,,,,,,,,,,,,,,,,,,,,,,,,,,,,,,,,,,,,,,,
1769162327.323719,1769162327.323359,104.0,0.0,4327.820313,4296.922852,4345.641113,4353.461426,4280.769043,4342.692383,4311.025879,4286.538574,4280.256348,4279.743652,4587.436035,4524.743652,4432.436035,4508.077148,,,,,,,,,,,,,,,,,,,,,,,,,,,,,,,,,,,,,,,,,,,,,,,,,,,,,,,,,,,,,,,,,,,,,,
1769162327.331527,1769162327.331168,105.0,0.0,4322.820313,4293.846191,4343.461426,4351.538574,4287.436035,4344.487305,4314.487305,4300.512695,4291.282227,4277.563965,4587.05127,4526.922852,4427.436035,4501.794922,,,,,,,,,,,,,,,,,,,,,,,,,,,,,,,,,,,,,,,,,,,,,,,,,,,,,,,,,,,,,,,,,,,,,,
1769162327.339336,1769162327.339076,106.0,0.0,4323.333496,4297.436035,4345.641113,4348.589844,4293.077148,4338.077148,4311.282227,4295.512695,4284.743652,4278.077148,4577.05127,4526.794922,4427.05127,4500.512695,,,,,,,,,,,,,,,,,,,,,,,,,,,,,,,,,,,,,,,,,,,,,,,,,,,,,,,,,,,,,,,,,,,,,,
1769162327.347144,1769162327.346885,107.0,0.0,4327.05127,4307.692383,4354.615234,4356.282227,4294.230957,4337.05127,4308.077148,4288.205078,4277.692383,4282.05127,4572.563965,4524.487305,4426.410156,4503.974121,,,,,,,,,,,,,,,,,,,,,,,,,,,,,,,,,,,,,,,,,,,,,,,,,,,,,,,,,,,,,,,,,,,,,,
1769162327.354952,1769162327.354893,108.0,0.0,4321.922852,4310.641113,4352.05127,4361.282227,4294.487305,4335.769043,4309.615234,4285.256348,4277.94873,4271.282227,4572.436035,4521.282227,4416.025879,4496.410156,,,,,,,,,,,,,,,,,,,,,,,,,,,,,,,,,,,,,,,,,,,,,,,,,,,,,,,,,,,,,,,,,,,,,,
1769162327.362761,1769162327.362701,109.0,0.0,4319.487305,4305.384766,4342.436035,4355.256348,4296.794922,4333.717773,4308.974121,4280.384766,4275.769043,4265.128418,4572.307617,4518.846191,4417.05127,4489.230957,,,,,,,,,,,,,,,,,,,,,,,,,,,,,,,,,,,,,,,,,,,,,,,,,,,,,,,,,,,,,,,,,,,,,,
1769162327.37057,1769162327.37061,110.0,0.0,4328.205078,4305.512695,4342.179688,4352.692383,4297.94873,4339.102539,4304.487305,4279.615234,4275.128418,4268.461426,4576.410156,4521.666504,4428.974121,4495.128418,1.109058,0.39404,0.204314,0.337641,0.251227,0.793886,0.187774,0.165752,0.156224,0.183043,0.670586,0.199603,0.106914,0.1306,0.119019,0.402722,0.131188,0.073068,0.146826,0.115488,0.093157,0.139817,0.068658,0.064743,0.042846,0.582579,0.532892,0.156485,0.171466,0.094852,0.216704,0.127042,0.074286,0.092395,0.064785,0.349472,0.440513,0.24969,0.179492,0.247773,0.594407,0.448392,0.389893,0.222031,0.21805,0.53716,0.279723,0.896487,0.244745,0.404047,0.721181,0.253746,0.231114,0.122395,0.108098,0.872954,0.272835,0.273325,0.19206,0.087492,0.990444,0.480423,0.333455,0.157278,0.135458,1.876919,0.329525,0.175532,0.459974,0.209927
1769162327.378378,1769162327.378418,111.0,0.0,4330.128418,4305.512695,4344.487305,4353.333496,4298.589844,4337.94873,4303.846191,4279.230957,4270.641113,4257.05127,4571.282227,4519.487305,4424.358887,4498.077148,,,,,,,,,,,,,,,,,,,,,,,,,,,,,,,,,,,,,,,,,,,,,,,,,,,,,,,,,,,,,,,,,,,,,,
1769162327.386186,1769162327.386027,112.0,0.0,4320.641113,4295.897461,4342.94873,4345.897461,4302.307617,4332.436035,4309.230957,4275.0,4263.077148,4249.487305,4556.410156,4507.307617,4408.461426,4490.0,,,,,,,,,,,,,,,,,,,,,,,,,,,,,,,,,,,,,,,,,,,,,,,,,,,,,,,,,,,,,,,,,,,,,,
1769162327.393995,1769162327.393835,113.0,0.0,4312.05127,4291.025879,4341.410156,4339.615234,4303.717773,4338.461426,4311.666504,4279.102539,4270.0,4267.307617,4555.256348,4508.974121,4407.563965,4489.743652,,,,,,,,,,,,,,,,,,,,,,,,,,,,,,,,,,,,,,,,,,,,,,,,,,,,,,,,,,,,,,,,,,,,,,
1769162327.401803,1769162327.401544,114.0,0.0,4310.897461,4299.230957,4340.256348,4346.538574,4302.94873,4345.256348,4309.871582,4288.205078,4283.077148,4278.589844,4569.487305,4525.897461,4416.025879,4494.871582,,,,,,,,,,,,,,,,,,,,,,,,,,,,,,,,,,,,,,,,,,,,,,,,,,,,,,,,,,,,,,,,,,,,,,
1769162327.409612,1769162327.409352,115.0,0.0,4322.179688,4303.333496,4341.410156,4350.897461,4306.666504,4342.563965,4310.128418,4288.461426,4280.641113,4267.94873,4572.307617,4523.974121,4416.282227,4493.461426,,,,,,,,,,,,,,,,,,,,,,,,,,,,,,,,,,,,,,,,,,,,,,,,,,,,,,,,,,,,,,,,,,,,,,
1769162327.41742,1769162327.41736,116.0,0.0,4330.512695,4297.820313,4342.820313,4344.487305,4309.487305,4341.025879,4310.641113,4281.794922,4273.974121,4263.333496,4559.743652,4509.102539,4411.025879,4488.333496,,,,,,,,,,,,,,,,,,,,,,,,,,,,,,,,,,,,,,,,,,,,,,,,,,,,,,,,,,,,,,,,,,,,,,
1769162327.425229,1769162327.425169,117.0,0.0,4320.512695,4294.743652,4342.307617,4340.897461,4305.769043,4345.769043,4309.743652,4282.307617,4275.641113,4263.077148,4552.436035,4512.820313,4410.128418,4488.077148,,,,,,,,,,,,,,,,,,,,,,,,,,,,,,,,,,,,,,,,,,,,,,,,,,,,,,,,,,,,,,,,,,,,,,
1769162327.433037,1769162327.433077,118.0,0.0,4304.358887,4295.769043,4341.410156,4342.307617,4304.487305,4346.538574,4310.512695,4291.153809,4278.333496,4263.333496,4561.025879,4522.820313,4412.179688,4491.794922,,,,,,,,,,,,,,,,,,,,,,,,,,,,,,,,,,,,,,,,,,,,,,,,,,,,,,,,,,,,,,,,,,,,,,
1769162327.440846,1769162327.440886,119.0,0.0,4303.077148,4294.871582,4339.102539,4341.410156,4306.153809,4341.794922,4310.384766,4292.436035,4278.717773,4268.589844,4574.487305,4522.563965,4414.487305,4492.820313,,,,,,,,,,,,,,,,,,,,,,,,,,,,,,,,,,,,,,,,,,,,,,,,,,,,,,,,,,,,,,,,,,,,,,
1769162327.448654,1769162327.448894,120.0,0.0,4311.153809,4295.384766,4339.230957,4340.512695,4305.641113,4337.820313,4305.897461,4282.692383,4275.128418,4268.461426,4567.820313,4520.256348,4412.820313,4489.871582,,,,,,,,,,,,,,,,,,,,,,,,,,,,,,,,,,,,,,,,,,,,,,,,,,,,,,,,,,,,,,,,,,,,,,
1769162327.456463,1769162327.456702,121.0,0.0,4311.410156,4299.487305,4341.794922,4342.563965,4306.666504,4333.974121,4305.384766,4276.666504,4272.820313,4269.615234,4552.436035,4520.256348,4409.487305,4487.05127,,,,,,,,,,,,,,,,,,,,,,,,,,,,,,,,,,,,,,,,,,,,,,,,,,,,,,,,,,,,,,,,,,,,,,
1769162327.464271,1769162327.464411,122.0,0.0,4313.589844,4299.102539,4341.282227,4345.769043,4309.358887,4336.538574,4310.384766,4284.615234,4277.94873,4277.436035,4560.512695,4521.794922,4417.692383,4490.641113,,,,,,,,,,,,,,,,,,,,,,,,,,,,,,,,,,,,,,,,,,,,,,,,,,,,,,,,,,,,,,,,,,,,,,
1769162327.472079,1769162327.472219,123.0,0.0,4325.128418,4298.461426,4346.282227,4351.410156,4310.769043,4341.922852,4312.692383,4291.666504,4282.307617,4279.487305,4575.256348,4524.487305,4428.717773,4497.820313,,,,,,,,,,,,,,,,,,,,,,,,,,,,,,,,,,,,,,,,,,,,,,,,,,,,,,,,,,,,,,,,,,,,,,
1769162327.479888,1769162327.479828,124.0,0.0,4327.179688,4299.615234,4353.589844,4352.436035,4312.563965,4335.256348,4307.820313,4284.358887,4275.384766,4270.384766,4571.666504,4525.256348,4423.077148,4497.179688,,,,,,,,,,,,,,,,,,,,,,,,,,,,,,,,,,,,,,,,,,,,,,,,,,,,,,,,,,,,,,,,,,,,,,
1769162327.487696,1769162327.487636,125.0,0.0,4313.974121,4296.666504,4347.05127,4344.615234,4310.512695,4328.205078,4304.102539,4274.358887,4264.230957,4266.794922,4561.282227,4521.794922,4412.307617,4493.717773,,,,,,,,,,,,,,,,,,,,,,,,,,,,,,,,,,,,,,,,,,,,,,,,,,,,,,,,,,,,,,,,,,,,,,
1769162327.495505,1769162327.495345,126.0,0.0,4306.282227,4293.077148,4337.820313,4340.0,4305.256348,4336.538574,4307.436035,4277.563965,4262.436035,4265.256348,4557.436035,4519.871582,4410.641113,4492.820313,0.91403,0.408734,0.219743,0.354544,0.254826,0.61114,0.169241,0.202975,0.153262,0.181698,0.560252,0.190824,0.075432,0.12997,0.112094,0.381021,0.112019,0.07243,0.15836,0.11232,0.097658,0.127049,0.043981,0.062315,0.045286,0.530676,0.44107,0.144932,0.16604,0.095505,0.268184,0.089751,0.065074,0.092567,0.059389,0.375882,0.451562,0.254799,0.157895,0.257761,0.652246,0.461511,0.402422,0.207915,0.200962,0.429776,0.310885,0.815386,0.271004,0.395055,0.492544,0.238479,0.216785,0.154649,0.102294,0.754779,0.323709,0.285583,0.192067,0.07461,0.661569,0.506268,0.356255,0.178629,0.145612,1.356041,0.382828,0.173676,0.44223,0.205005
1769162327.503313,1769162327.503153,127.0,0.0,4310.512695,4292.436035,4342.307617,4341.025879,4307.436035,4340.512695,4311.538574,4282.436035,4266.025879,4257.563965,4557.436035,4520.384766,4410.0,4486.025879,,,,,,,,,,,,,,,,,,,,,,,,,,,,,,,,,,,,,,,,,,,,,,,,,,,,,,,,,,,,,,,,,,,,,,
1769162327.511122,1769162327.510762,0.0,0.0,4309.487305,4292.820313,4345.769043,4342.820313,4310.769043,4328.333496,4309.230957,4279.487305,4267.94873,4260.512695,4560.512695,4519.615234,4409.871582,4479.615234,,,,,,,,,,,,,,,,,,,,,,,,,,,,,,,,,,,,,,,,,,,,,,,,,,,,,,,,,,,,,,,,,,,,,,
1769162327.51893,1769162327.51857,1.0,0.0,4308.077148,4292.563965,4340.512695,4341.538574,4306.538574,4325.769043,4307.820313,4283.205078,4274.102539,4269.871582,4565.0,4517.820313,4410.769043,4484.615234,,,,,,,,,,,,,,,,,,,,,,,,,,,,,,,,,,,,,,,,,,,,,,,,,,,,,,,,,,,,,,,,,,,,,,
1769162327.526739,1769162327.526279,2.0,0.0,4318.077148,4292.563965,4344.615234,4339.615234,4304.615234,4333.077148,4311.153809,4292.179688,4280.769043,4274.358887,4569.487305,4524.871582,4414.743652,4498.205078,,,,,,,,,,,,,,,,,,,,,,,,,,,,,,,,,,,,,,,,,,,,,,,,,,,,,,,,,,,,,,,,,,,,,,
1769162327.534547,1769162327.534087,3.0,0.0,4324.743652,4294.871582,4354.871582,4345.0,4310.256348,4333.717773,4311.922852,4296.410156,4281.538574,4276.794922,4573.717773,4533.333496,4424.358887,4503.333496,,,,,,,,,,,,,,,,,,,,,,,,,,,,,,,,,,,,,,,,,,,,,,,,,,,,,,,,,,,,,,,,,,,,,,
1769162327.542355,1769162327.542096,4.0,0.0,4316.922852,4297.692383,4351.794922,4349.358887,4315.0,4336.538574,4311.794922,4295.769043,4281.666504,4282.692383,4572.692383,4528.333496,4423.461426,4497.05127,,,,,,,,,,,,,,,,,,,,,,,,,,,,,,,,,,,,,,,,,,,,,,,,,,,,,,,,,,,,,,,,,,,,,,
1769162327.550164,1769162327.549904,5.0,0.0,4309.102539,4295.128418,4342.94873,4343.333496,4318.077148,4342.179688,4313.077148,4288.589844,4279.230957,4282.563965,4570.128418,4522.820313,4413.077148,4491.538574,,,,,,,,,,,,,,,,,,,,,,,,,,,,,,,,,,,,,,,,,,,,,,,,,,,,,,,,,,,,,,,,,,,,,,
1769162327.557972,1769162327.557813,6.0,0.0,4310.641113,4291.282227,4344.743652,4340.897461,4320.641113,4341.153809,4309.230957,4283.717773,4273.461426,4276.922852,4571.282227,4524.230957,4411.282227,4492.307617,,,,,,,,,,,,,,,,,,,,,,,,,,,,,,,,,,,,,,,,,,,,,,,,,,,,,,,,,,,,,,,,,,,,,,
1769162327.565781,1769162327.565621,7.0,0.0,4311.538574,4293.717773,4346.282227,4346.153809,4317.179688,4340.769043,4311.153809,4290.0,4276.922852,4275.641113,4570.384766,4523.333496,4415.256348,4498.077148,,,,,,,,,,,,,,,,,,,,,,,,,,,,,,,,,,,,,,,,,,,,,,,,,,,,,,,,,,,,,,,,,,,,,,
1769162327.573589,1769162327.573629,8.0,0.0,4310.256348,4296.538574,4341.025879,4345.384766,4311.025879,4345.384766,4322.692383,4297.05127,4282.692383,4277.05127,4570.641113,4526.282227,4420.512695,4503.461426,,,,,,,,,,,,,,,,,,,,,,,,,,,,,,,,,,,,,,,,,,,,,,,,,,,,,,,,,,,,,,,,,,,,,,
1769162327.581398,1769162327.581438,9.0,0.0,4304.487305,4293.974121,4340.897461,4341.410156,4309.615234,4343.461426,4321.666504,4295.256348,4281.025879,4281.410156,4577.436035,4537.563965,4427.692383,4507.94873,,,,,,,,,,,,,,,,,,,,,,,,,,,,,,,,,,,,,,,,,,,,,,,,,,,,,,,,,,,,,,,,,,,,,,
1769162327.589206,1769162327.589146,10.0,0.0,4295.0,4288.717773,4342.820313,4340.769043,4311.794922,4336.666504,4310.769043,4293.846191,4279.871582,4279.743652,4577.179688,4535.128418,4423.205078,4506.153809,,,,,,,,,,,,,,,,,,,,,,,,,,,,,,,,,,,,,,,,,,,,,,,,,,,,,,,,,,,,,,,,,,,,,,
1769162327.597015,1769162327.596955,11.0,0.0,4298.461426,4287.179688,4344.871582,4343.461426,4312.692383,4336.410156,4311.922852,4296.025879,4281.153809,4272.94873,4569.615234,4524.102539,4412.563965,4500.641113,,,,,,,,,,,,,,,,,,,,,,,,,,,,,,,,,,,,,,,,,,,,,,,,,,,,,,,,,,,,,,,,,,,,,,
1769162327.604823,1769162327.604963,12.0,0.0,4313.717773,4291.153809,4350.384766,4349.358887,4307.820313,4335.641113,4315.0,4294.102539,4279.230957,4276.153809,4570.384766,4525.897461,4414.743652,4503.974121,,,,,,,,,,,,,,,,,,,,,,,,,,,,,,,,,,,,,,,,,,,,,,,,,,,,,,,,,,,,,,,,,,,,,,
1769162327.612631,1769162327.612771,13.0,0.0,4313.333496,4290.769043,4349.230957,4346.666504,4303.205078,4330.384766,4310.512695,4293.077148,4279.358887,4282.692383,4575.512695,4529.615234,4416.794922,4507.307617,,,,,,,,,,,,,,,,,,,,,,,,,,,,,,,,,,,,,,,,,,,,,,,,,,,,,,,,,,,,,,,,,,,,,,
1769162327.62044,1769162327.62068,14.0,0.0,4300.128418,4282.563965,4341.410156,4338.717773,4303.333496,4327.692383,4310.256348,4295.0,4279.487305,4281.538574,4571.025879,4525.128418,4410.256348,4500.0,0.737329,0.43402,0.239528,0.370802,0.261841,0.551315,0.158737,0.248691,0.15436,0.17487,0.508083,0.195042,0.064735,0.123899,0.109981,0.406448,0.098008,0.083697,0.162535,0.105493,0.111766,0.120025,0.028676,0.064694,0.051245,0.436555,0.367584,0.133158,0.161382,0.094199,0.328775,0.076105,0.069603,0.098601,0.06372,0.386625,0.49713,0.270945,0.147284,0.269738,0.686448,0.500666,0.384339,0.194434,0.18576,0.34802,0.366825,0.703142,0.305247,0.392536,0.307133,0.231943,0.213229,0.192931,0.11138,0.62941,0.360322,0.282136,0.183472,0.069154,0.389499,0.520434,0.377583,0.197672,0.159317,0.854046,0.420872,0.185835,0.410409,0.199193
1769162327.628248,1769162327.628488,15.0,0.0,4298.717773,4281.153809,4339.487305,4340.256348,4305.512695,4325.641113,4311.794922,4294.615234,4275.128418,4274.102539,4565.256348,4521.666504,4406.794922,4488.461426,,,,,,,,,,,,,,,,,,,,,,,,,,,,,,,,,,,,,,,,,,,,,,,,,,,,,,,,,,,,,,,,,,,,,,
1769162327.636057,1769162327.636496,16.0,0.0,4305.641113,4288.461426,4345.128418,4344.230957,4304.743652,4326.666504,4308.846191,4294.230957,4279.102539,4273.205078,4568.717773,4526.666504,4412.692383,4491.794922,,,,,,,,,,,,,,,,,,,,,,,,,,,,,,,,,,,,,,,,,,,,,,,,,,,,,,,,,,,,,,,,,,,,,,
1769162327.643865,1769162327.644305,17.0,0.0,4307.307617,4290.128418,4347.94873,4341.794922,4302.563965,4334.743652,4308.974121,4294.615234,4282.692383,4277.179688,4574.615234,4530.512695,4416.282227,4505.384766,,,,,,,,,,,,,,,,,,,,,,,,,,,,,,,,,,,,,,,,,,,,,,,,,,,,,,,,,,,,,,,,,,,,,,
1769162327.651674,1769162327.652013,18.0,0.0,4308.077148,4282.820313,4342.94873,4339.358887,4297.307617,4335.769043,4310.769043,4295.0,4271.922852,4274.487305,4570.128418,4526.666504,4406.025879,4502.94873,,,,,,,,,,,,,,,,,,,,,,,,,,,,,,,,,,,,,,,,,,,,,,,,,,,,,,,,,,,,,,,,,,,,,,
1769162327.659482,1769162327.659822,19.0,0.0,4310.769043,4281.410156,4341.153809,4339.615234,4294.615234,4329.487305,4310.512695,4292.820313,4267.05127,4262.94873,4559.871582,4521.153809,4398.974121,4492.05127,,,,,,,,,,,,,,,,,,,,,,,,,,,,,,,,,,,,,,,,,,,,,,,,,,,,,,,,,,,,,,,,,,,,,,
1769162327.667291,1769162327.66783,20.0,0.0,4312.179688,4289.615234,4344.230957,4341.538574,4298.589844,4329.102539,4310.256348,4289.358887,4277.179688,4257.05127,4563.077148,4520.256348,4408.846191,4498.077148,,,,,,,,,,,,,,,,,,,,,,,,,,,,,,,,,,,,,,,,,,,,,,,,,,,,,,,,,,,,,,,,,,,,,,
1769162327.675099,1769162327.675638,21.0,0.0,4310.384766,4292.692383,4343.461426,4342.563965,4298.846191,4330.128418,4311.282227,4290.0,4281.025879,4266.794922,4571.153809,4524.871582,4414.487305,4508.717773,,,,,,,,,,,,,,,,,,,,,,,,,,,,,,,,,,,,,,,,,,,,,,,,,,,,,,,,,,,,,,,,,,,,,,
1769162327.682907,1769162327.683547,22.0,0.0,4311.153809,4292.563965,4344.615234,4343.717773,4294.358887,4327.436035,4311.153809,4293.717773,4275.384766,4279.871582,4571.794922,4528.846191,4413.846191,4508.846191,,,,,,,,,,,,,,,,,,,,,,,,,,,,,,,,,,,,,,,,,,,,,,,,,,,,,,,,,,,,,,,,,,,,,,
1769162327.690716,1769162327.691355,23.0,0.0,4316.282227,4299.358887,4350.384766,4348.461426,4295.0,4327.179688,4309.871582,4292.563965,4276.538574,4282.94873,4572.436035,4529.615234,4419.615234,4511.922852,,,,,,,,,,,,,,,,,,,,,,,,,,,,,,,,,,,,,,,,,,,,,,,,,,,,,,,,,,,,,,,,,,,,,,
1769162327.698524,1769162327.698964,24.0,0.0,4309.230957,4294.102539,4343.077148,4343.717773,4296.410156,4325.769043,4310.897461,4285.897461,4278.589844,4270.0,4568.077148,4521.666504,4416.153809,4506.410156,,,,,,,,,,,,,,,,,,,,,,,,,,,,,,,,,,,,,,,,,,,,,,,,,,,,,,,,,,,,,,,,,,,,,,
1769162327.706333,1769162327.706772,25.0,0.0,4292.05127,4280.256348,4331.282227,4331.794922,4293.846191,4323.717773,4310.512695,4283.717773,4274.230957,4261.153809,4560.641113,4513.461426,4407.436035,4488.077148,,,,,,,,,,,,,,,,,,,,,,,,,,,,,,,,,,,,,,,,,,,,,,,,,,,,,,,,,,,,,,,,,,,,,,
1769162327.714141,1769162327.714481,26.0,0.0,4296.538574,4286.666504,4336.025879,4335.512695,4294.871582,4327.436035,4308.333496,4285.641113,4271.922852,4268.846191,4564.102539,4518.333496,4412.307617,4494.487305,,,,,,,,,,,,,,,,,,,,,,,,,,,,,,,,,,,,,,,,,,,,,,,,,,,,,,,,,,,,,,,,,,,,,,
1769162327.72195,1769162327.722289,27.0,0.0,4313.717773,4298.974121,4345.0,4346.153809,4296.666504,4328.205078,4308.846191,4292.05127,4277.94873,4271.410156,4572.436035,4525.897461,4416.794922,4508.974121,,,,,,,,,,,,,,,,,,,,,,,,,,,,,,,,,,,,,,,,,,,,,,,,,,,,,,,,,,,,,,,,,,,,,,
1769162327.729758,1769162327.729898,28.0,0.0,4314.358887,4294.230957,4343.846191,4343.077148,4291.410156,4323.846191,4310.769043,4297.820313,4285.384766,4259.615234,4568.974121,4524.743652,4411.538574,4498.589844,,,,,,,,,,,,,,,,,,,,,,,,,,,,,,,,,,,,,,,,,,,,,,,,,,,,,,,,,,,,,,,,,,,,,,
1769162327.737567,1769162327.737706,29.0,0.0,4306.153809,4288.461426,4340.897461,4338.846191,4291.282227,4322.563965,4308.846191,4292.94873,4279.871582,4259.487305,4563.717773,4521.538574,4410.128418,4492.563965,,,,,,,,,,,,,,,,,,,,,,,,,,,,,,,,,,,,,,,,,,,,,,,,,,,,,,,,,,,,,,,,,,,,,,
1769162327.745375,1769162327.745615,30.0,0.0,4306.410156,4287.307617,4339.871582,4341.666504,4293.589844,4324.615234,4309.871582,4288.717773,4272.05127,4276.922852,4564.871582,4522.05127,4414.102539,4505.256348,0.601677,0.447479,0.274127,0.396493,0.273227,0.603365,0.157541,0.295571,0.161129,0.163996,0.5193,0.206756,0.073098,0.115531,0.114649,0.473891,0.09996,0.109355,0.160257,0.097042,0.145992,0.121574,0.028569,0.069501,0.058418,0.338401,0.321054,0.125635,0.159271,0.094247,0.375959,0.080595,0.083818,0.10693,0.075091,0.379518,0.55652,0.301953,0.146862,0.279194,0.679402,0.54266,0.334972,0.181286,0.175086,0.321535,0.429656,0.588215,0.337502,0.393816,0.194194,0.235273,0.216217,0.231516,0.13756,0.519906,0.368726,0.256262,0.166287,0.072147,0.229754,0.520269,0.38403,0.213898,0.174144,0.492511,0.432463,0.207878,0.372514,0.194714
1769162327.753184,1769162327.753423,31.0,0.0,4308.461426,4282.05127,4339.102539,4340.384766,4287.436035,4322.692383,4312.692383,4295.0,4276.153809,4278.461426,4569.871582,4524.487305,4416.922852,4508.461426,,,,,,,,,,,,,,,,,,,,,,,,,,,,,,,,,,,,,,,,,,,,,,,,,,,,,,,,,,,,,,,,,,,,,,
1769162327.760992,1769162327.761432,32.0,0.0,4308.461426,4280.641113,4340.897461,4337.179688,4282.94873,4317.05127,4307.692383,4297.179688,4280.512695,4265.512695,4570.512695,4522.307617,4412.307617,4497.307617,,,,,,,,,,,,,,,,,,,,,,,,,,,,,,,,,,,,,,,,,,,,,,,,,,,,,,,,,,,,,,,,,,,,,,
1769162327.768801,1769162327.76924,33.0,0.0,4311.410156,4282.94873,4343.077148,4337.563965,4285.384766,4320.128418,4306.153809,4290.0,4276.025879,4262.563965,4560.256348,4517.179688,4403.846191,4491.538574,,,,,,,,,,,,,,,,,,,,,,,,,,,,,,,,,,,,,,,,,,,,,,,,,,,,,,,,,,,,,,,,,,,,,,
1769162327.776609,1769162327.777148,34.0,0.0,4309.230957,4279.871582,4340.512695,4334.615234,4283.205078,4324.743652,4309.102539,4291.282227,4272.05127,4267.436035,4556.794922,4518.846191,4406.153809,4493.974121,,,,,,,,,,,,,,,,,,,,,,,,,,,,,,,,,,,,,,,,,,,,,,,,,,,,,,,,,,,,,,,,,,,,,,
1769162327.784418,1769162327.784957,35.0,0.0,4305.0,4282.307617,4339.358887,4332.563965,4279.358887,4321.153809,4305.641113,4291.666504,4267.436035,4265.512695,4565.384766,4523.846191,4411.282227,4494.743652,,,,,,,,,,,,,,,,,,,,,,,,,,,,,,,,,,,,,,,,,,,,,,,,,,,,,,,,,,,,,,,,,,,,,,
1769162327.792226,1769162327.792565,36.0,0.0,4308.974121,4293.589844,4342.563965,4337.692383,4280.897461,4320.512695,4304.230957,4283.846191,4262.05127,4261.025879,4567.94873,4523.077148,4412.05127,4498.589844,,,,,,,,,,,,,,,,,,,,,,,,,,,,,,,,,,,,,,,,,,,,,,,,,,,,,,,,,,,,,,,,,,,,,,
1769162327.800034,1769162327.800374,37.0,0.0,4313.846191,4296.794922,4342.692383,4338.461426,4279.871582,4323.846191,4311.025879,4286.282227,4269.230957,4263.974121,4564.358887,4521.922852,4413.077148,4505.0,,,,,,,,,,,,,,,,,,,,,,,,,,,,,,,,,,,,,,,,,,,,,,,,,,,,,,,,,,,,,,,,,,,,,,
1769162327.807843,1769162327.808282,38.0,0.0,4311.282227,4290.897461,4341.153809,4333.077148,4279.487305,4322.179688,4311.666504,4292.820313,4278.846191,4271.153809,4565.641113,4520.641113,4414.487305,4502.94873,,,,,,,,,,,,,,,,,,,,,,,,,,,,,,,,,,,,,,,,,,,,,,,,,,,,,,,,,,,,,,,,,,,,,,
1769162327.815651,1769162327.816091,39.0,0.0,4308.333496,4289.615234,4344.102539,4334.487305,4280.128418,4321.794922,4307.436035,4293.333496,4277.820313,4278.974121,4572.692383,4520.128418,4417.563965,4499.743652,,,,,,,,,,,,,,,,,,,,,,,,,,,,,,,,,,,,,,,,,,,,,,,,,,,,,,,,,,,,,,,,,,,,,,
1769162327.82346,1769162327.823699,40.0,0.0,4309.230957,4290.769043,4346.538574,4335.384766,4271.410156,4327.179688,4311.153809,4296.153809,4279.102539,4272.563965,4575.512695,4531.794922,4425.512695,4505.897461,,,,,,,,,,,,,,,,,,,,,,,,,,,,,,,,,,,,,,,,,,,,,,,,,,,,,,,,,,,,,,,,,,,,,,
1769162327.831268,1769162327.831508,41.0,0.0,4308.589844,4290.897461,4344.102539,4329.615234,4264.871582,4326.153809,4313.461426,4299.743652,4283.846191,4266.282227,4573.333496,4539.743652,4430.512695,4514.102539,,,,,,,,,,,,,,,,,,,,,,,,,,,,,,,,,,,,,,,,,,,,,,,,,,,,,,,,,,,,,,,,,,,,,,
1769162327.839077,1769162327.839216,42.0,0.0,4307.436035,4290.512695,4342.179688,4326.666504,4266.410156,4319.743652,4310.128418,4294.615234,4279.743652,4274.358887,4568.846191,4528.333496,4421.282227,4505.641113,,,,,,,,,,,,,,,,,,,,,,,,,,,,,,,,,,,,,,,,,,,,,,,,,,,,,,,,,,,,,,,,,,,,,,
1769162327.846885,1769162327.847025,43.0,0.0,4307.692383,4287.692383,4344.615234,4327.05127,4263.974121,4319.358887,4311.282227,4291.538574,4276.025879,4273.589844,4566.794922,4519.615234,4411.538574,4491.538574,,,,,,,,,,,,,,,,,,,,,,,,,,,,,,,,,,,,,,,,,,,,,,,,,,,,,,,,,,,,,,,,,,,,,,
1769162327.854694,1769162327.855033,44.0,0.0,4308.846191,4287.436035,4348.205078,4329.743652,4260.128418,4320.641113,4313.333496,4296.666504,4279.871582,4262.436035,4568.205078,4523.333496,4412.179688,4497.179688,,,,,,,,,,,,,,,,,,,,,,,,,,,,,,,,,,,,,,,,,,,,,,,,,,,,,,,,,,,,,,,,,,,,,,
1769162327.862502,1769162327.862841,45.0,0.0,4312.307617,4295.897461,4351.666504,4339.230957,4263.589844,4316.666504,4310.256348,4295.128418,4280.384766,4267.307617,4570.769043,4527.179688,4417.05127,4507.94873,,,,,,,,,,,,,,,,,,,,,,,,,,,,,,,,,,,,,,,,,,,,,,,,,,,,,,,,,,,,,,,,,,,,,,
1769162327.87031,1769162327.87075,46.0,0.0,4309.358887,4297.179688,4351.410156,4340.128418,4265.0,4310.256348,4307.05127,4284.487305,4274.487305,4281.410156,4572.563965,4523.974121,4416.922852,4500.384766,0.507623,0.431816,0.333495,0.438456,0.285936,0.697936,0.169837,0.334608,0.17149,0.15081,0.525089,0.216128,0.096654,0.109444,0.125305,0.543061,0.121454,0.148233,0.154107,0.089301,0.200968,0.13025,0.044833,0.074015,0.063989,0.267739,0.292396,0.124905,0.158045,0.099092,0.394401,0.090531,0.098982,0.111667,0.087873,0.360205,0.599217,0.346856,0.153325,0.283162,0.634151,0.561622,0.270201,0.169475,0.168935,0.371622,0.477566,0.500558,0.359123,0.394374,0.15984,0.246644,0.221191,0.266252,0.178546,0.434137,0.343176,0.214458,0.146708,0.082988,0.193968,0.508882,0.365676,0.230244,0.188119,0.320935,0.413603,0.236424,0.338988,0.192295
1769162327.878119,1769162327.878558,47.0,0.0,4301.410156,4286.794922,4349.102539,4329.230957,4261.410156,4310.769043,4308.461426,4283.717773,4277.820313,4278.077148,4569.487305,4521.538574,4412.692383,4496.153809,,,,,,,,,,,,,,,,,,,,,,,,,,,,,,,,,,,,,,,,,,,,,,,,,,,,,,,,,,,,,,,,,,,,,,
1769162327.885927,1769162327.886566,48.0,0.0,4301.025879,4286.538574,4351.025879,4325.256348,4261.794922,4320.897461,4313.974121,4300.128418,4293.077148,4274.102539,4570.897461,4529.102539,4418.461426,4508.589844,,,,,,,,,,,,,,,,,,,,,,,,,,,,,,,,,,,,,,,,,,,,,,,,,,,,,,,,,,,,,,,,,,,,,,
1769162327.893736,1769162327.894375,49.0,0.0,4303.717773,4293.846191,4352.94873,4330.0,4262.307617,4328.461426,4317.692383,4305.641113,4294.743652,4276.666504,4579.615234,4539.230957,4427.436035,4510.769043,,,,,,,,,,,,,,,,,,,,,,,,,,,,,,,,,,,,,,,,,,,,,,,,,,,,,,,,,,,,,,,,,,,,,,
1769162327.901544,1769162327.902083,50.0,0.0,4308.077148,4295.897461,4354.358887,4335.128418,4262.820313,4320.512695,4312.820313,4294.743652,4280.641113,4273.205078,4577.563965,4538.077148,4426.025879,4504.871582,,,,,,,,,,,,,,,,,,,,,,,,,,,,,,,,,,,,,,,,,,,,,,,,,,,,,,,,,,,,,,,,,,,,,,
1769162327.909353,1769162327.909892,51.0,0.0,4311.794922,4293.461426,4356.538574,4336.538574,4262.307617,4310.897461,4305.897461,4291.153809,4276.153809,4275.0,4570.641113,4530.512695,4417.94873,4503.205078,,,,,,,,,,,,,,,,,,,,,,,,,,,,,,,,,,,,,,,,,,,,,,,,,,,,,,,,,,,,,,,,,,,,,,
1769162327.917161,1769162327.917501,52.0,0.0,4306.666504,4288.589844,4352.692383,4331.794922,4253.717773,4312.94873,4307.179688,4297.94873,4285.384766,4277.563965,4572.820313,4527.05127,4408.974121,4496.922852,,,,,,,,,,,,,,,,,,,,,,,,,,,,,,,,,,,,,,,,,,,,,,,,,,,,,,,,,,,,,,,,,,,,,,
1769162327.92497,1769162327.925309,53.0,0.0,4293.205078,4281.153809,4342.94873,4325.641113,4248.717773,4312.563965,4310.769043,4298.461426,4286.666504,4275.128418,4567.436035,4522.179688,4397.692383,4485.897461,,,,,,,,,,,,,,,,,,,,,,,,,,,,,,,,,,,,,,,,,,,,,,,,,,,,,,,,,,,,,,,,,,,,,,
1769162327.932778,1769162327.933217,54.0,0.0,4289.871582,4277.179688,4342.820313,4324.615234,4255.0,4313.333496,4311.025879,4293.461426,4280.128418,4272.563965,4552.179688,4518.717773,4394.743652,4482.05127,,,,,,,,,,,,,,,,,,,,,,,,,,,,,,,,,,,,,,,,,,,,,,,,,,,,,,,,,,,,,,,,,,,,,,
1769162327.940586,1769162327.941026,55.0,0.0,4303.717773,4281.153809,4353.205078,4326.922852,4255.256348,4320.769043,4311.538574,4300.769043,4286.538574,4277.692383,4559.487305,4528.974121,4411.025879,4497.307617,,,,,,,,,,,,,,,,,,,,,,,,,,,,,,,,,,,,,,,,,,,,,,,,,,,,,,,,,,,,,,,,,,,,,,
1769162327.948395,1769162327.949034,56.0,0.0,4315.256348,4286.666504,4358.333496,4328.205078,4249.102539,4320.0,4310.897461,4311.025879,4299.358887,4292.692383,4584.230957,4541.153809,4427.563965,4515.897461,,,,,,,,,,,,,,,,,,,,,,,,,,,,,,,,,,,,,,,,,,,,,,,,,,,,,,,,,,,,,,,,,,,,,,
1769162327.956203,1769162327.956842,57.0,0.0,4316.410156,4290.897461,4357.94873,4328.077148,4248.846191,4318.333496,4310.769043,4306.025879,4302.179688,4292.820313,4588.589844,4540.641113,4432.563965,4513.077148,,,,,,,,,,,,,,,,,,,,,,,,,,,,,,,,,,,,,,,,,,,,,,,,,,,,,,,,,,,,,,,,,,,,,,
1769162327.964012,1769162327.964751,58.0,0.0,4309.230957,4292.307617,4357.179688,4329.871582,4251.025879,4324.487305,4312.563965,4295.256348,4292.436035,4277.692383,4576.153809,4535.769043,4424.358887,4501.666504,,,,,,,,,,,,,,,,,,,,,,,,,,,,,,,,,,,,,,,,,,,,,,,,,,,,,,,,,,,,,,,,,,,,,,
1769162327.97182,1769162327.972559,59.0,0.0,4312.820313,4293.846191,4359.871582,4336.410156,4255.384766,4323.333496,4312.820313,4296.410156,4284.487305,4275.897461,4570.128418,4537.820313,4412.94873,4503.589844,,,,,,,,,,,,,,,,,,,,,,,,,,,,,,,,,,,,,,,,,,,,,,,,,,,,,,,,,,,,,,,,,,,,,,
1769162327.979629,1769162327.980568,60.0,0.0,4327.94873,4296.282227,4366.666504,4340.384766,4259.487305,4317.05127,4312.307617,4303.333496,4288.974121,4285.512695,4576.153809,4541.282227,4419.615234,4509.615234,,,,,,,,,,,,,,,,,,,,,,,,,,,,,,,,,,,,,,,,,,,,,,,,,,,,,,,,,,,,,,,,,,,,,,
1769162327.987437,1769162327.988376,61.0,0.0,4323.589844,4295.128418,4366.794922,4336.153809,4254.615234,4318.205078,4312.436035,4301.794922,4291.922852,4281.666504,4584.743652,4542.692383,4430.897461,4510.0,,,,,,,,,,,,,,,,,,,,,,,,,,,,,,,,,,,,,,,,,,,,,,,,,,,,,,,,,,,,,,,,,,,,,,
1769162327.995246,1769162327.996085,62.0,0.0,4307.307617,4293.846191,4359.230957,4333.846191,4248.461426,4320.512695,4311.410156,4296.666504,4283.974121,4274.871582,4582.307617,4540.128418,4423.846191,4511.025879,0.449178,0.384865,0.420378,0.494919,0.296077,0.769714,0.198827,0.358837,0.18244,0.138383,0.488047,0.213459,0.131926,0.109018,0.138623,0.594372,0.155522,0.195593,0.147105,0.084864,0.275681,0.141797,0.073385,0.075781,0.066042,0.259395,0.267817,0.131658,0.152909,0.109568,0.373371,0.095225,0.10723,0.108208,0.096834,0.340077,0.604892,0.39765,0.161313,0.280098,0.570361,0.544903,0.213017,0.162112,0.165674,0.48239,0.497191,0.463022,0.367259,0.391284,0.185419,0.262495,0.227037,0.292795,0.227764,0.367357,0.290744,0.172572,0.133585,0.099715,0.252493,0.494216,0.324849,0.25056,0.200685,0.310313,0.37319,0.272209,0.317727,0.194016
1769162328.003054,1769162328.003893,63.0,0.0,4299.487305,4294.102539,4354.102539,4332.692383,4250.641113,4323.077148,4311.153809,4295.0,4278.077148,4278.205078,4571.025879,4529.230957,4411.794922,4506.025879,,,,,,,,,,,,,,,,,,,,,,,,,,,,,,,,,,,,,,,,,,,,,,,,,,,,,,,,,,,,,,,,,,,,,,
1769162328.010862,1769162328.011801,64.0,0.0,4297.94873,4293.717773,4351.794922,4329.230957,4252.179688,4326.666504,4312.05127,4295.256348,4280.0,4275.641113,4565.641113,4521.922852,4410.384766,4495.769043,,,,,,,,,,,,,,,,,,,,,,,,,,,,,,,,,,,,,,,,,,,,,,,,,,,,,,,,,,,,,,,,,,,,,,
1769162328.018671,1769162328.01961,65.0,0.0,4300.256348,4294.358887,4350.128418,4330.641113,4250.897461,4322.05127,4310.512695,4301.025879,4283.333496,4272.692383,4567.94873,4523.589844,4410.512695,4490.128418,,,,,,,,,,,,,,,,,,,,,,,,,,,,,,,,,,,,,,,,,,,,,,,,,,,,,,,,,,,,,,,,,,,,,,
1769162328.026479,1769162328.027318,66.0,0.0,4309.358887,4296.153809,4351.666504,4334.871582,4251.666504,4316.794922,4308.589844,4304.743652,4286.666504,4284.102539,4566.153809,4524.358887,4409.358887,4490.384766,,,,,,,,,,,,,,,,,,,,,,,,,,,,,,,,,,,,,,,,,,,,,,,,,,,,,,,,,,,,,,,,,,,,,,
1769162328.034288,1769162328.035127,67.0,0.0,4309.487305,4296.282227,4354.358887,4334.230957,4252.179688,4325.0,4310.0,4300.512695,4286.666504,4293.589844,4566.025879,4522.563965,4414.358887,4497.692383,,,,,,,,,,,,,,,,,,,,,,,,,,,,,,,,,,,,,,,,,,,,,,,,,,,,,,,,,,,,,,,,,,,,,,
1769162328.042096,1769162328.042735,68.0,0.0,4308.974121,4291.153809,4356.538574,4333.974121,4250.641113,4328.205078,4311.794922,4302.692383,4281.025879,4287.94873,4569.230957,4525.641113,4417.563965,4503.974121,,,,,,,,,,,,,,,,,,,,,,,,,,,,,,,,,,,,,,,,,,,,,,,,,,,,,,,,,,,,,,,,,,,,,,
1769162328.049905,1769162328.050544,69.0,0.0,4319.615234,4287.05127,4357.563965,4334.358887,4247.563965,4314.102539,4308.461426,4306.538574,4278.205078,4280.128418,4561.153809,4525.769043,4410.384766,4497.307617,,,,,,,,,,,,,,,,,,,,,,,,,,,,,,,,,,,,,,,,,,,,,,,,,,,,,,,,,,,,,,,,,,,,,,
1769162328.057713,1769162328.058252,70.0,0.0,4318.077148,4289.487305,4357.179688,4327.692383,4246.794922,4312.05127,4304.487305,4295.512695,4276.153809,4273.717773,4553.717773,4520.641113,4404.615234,4489.102539,,,,,,,,,,,,,,,,,,,,,,,,,,,,,,,,,,,,,,,,,,,,,,,,,,,,,,,,,,,,,,,,,,,,,,
1769162328.065522,1769162328.066061,71.0,0.0,4308.974121,4292.05127,4360.256348,4325.641113,4248.205078,4328.589844,4310.641113,4295.256348,4275.512695,4265.128418,4562.05127,4528.589844,4410.0,4494.871582,,,,,,,,,,,,,,,,,,,,,,,,,,,,,,,,,,,,,,,,,,,,,,,,,,,,,,,,,,,,,,,,,,,,,,
1769162328.07333,1769162328.074069,72.0,0.0,4311.153809,4289.487305,4363.846191,4333.717773,4247.179688,4325.897461,4314.743652,4309.487305,4281.410156,4273.205078,4574.230957,4539.358887,4416.153809,4500.0,,,,,,,,,,,,,,,,,,,,,,,,,,,,,,,,,,,,,,,,,,,,,,,,,,,,,,,,,,,,,,,,,,,,,,
1769162328.081139,1769162328.081878,73.0,0.0,4316.922852,4288.461426,4364.102539,4338.333496,4244.871582,4303.461426,4302.563965,4302.692383,4278.461426,4284.230957,4570.512695,4532.94873,4412.692383,4494.743652,,,,,,,,,,,,,,,,,,,,,,,,,,,,,,,,,,,,,,,,,,,,,,,,,,,,,,,,,,,,,,,,,,,,,,
1769162328.088947,1769162328.089786,74.0,0.0,4321.666504,4291.922852,4367.436035,4341.538574,4245.384766,4300.897461,4296.282227,4289.743652,4267.94873,4271.666504,4558.205078,4526.410156,4406.282227,4492.94873,,,,,,,,,,,,,,,,,,,,,,,,,,,,,,,,,,,,,,,,,,,,,,,,,,,,,,,,,,,,,,,,,,,,,,
1769162328.096756,1769162328.097594,75.0,0.0,4323.717773,4288.589844,4372.05127,4342.820313,4247.94873,4312.05127,4306.666504,4295.512695,4270.128418,4263.589844,4557.436035,4535.512695,4405.512695,4494.487305,,,,,,,,,,,,,,,,,,,,,,,,,,,,,,,,,,,,,,,,,,,,,,,,,,,,,,,,,,,,,,,,,,,,,,
1769162328.104564,1769162328.105203,76.0,0.0,4316.794922,4278.717773,4371.153809,4331.538574,4247.94873,4309.615234,4310.897461,4297.94873,4276.025879,4273.333496,4559.615234,4535.769043,4402.05127,4493.077148,,,,,,,,,,,,,,,,,,,,,,,,,,,,,,,,,,,,,,,,,,,,,,,,,,,,,,,,,,,,,,,,,,,,,,
1769162328.112373,1769162328.113011,77.0,0.0,4308.461426,4278.717773,4369.871582,4324.487305,4247.307617,4306.922852,4307.436035,4295.769043,4273.974121,4269.358887,4555.512695,4524.358887,4397.436035,4490.128418,,,,,,,,,,,,,,,,,,,,,,,,,,,,,,,,,,,,,,,,,,,,,,,,,,,,,,,,,,,,,,,,,,,,,,
1769162328.120181,1769162328.12072,78.0,0.0,4309.871582,4281.794922,4369.230957,4331.666504,4247.307617,4314.102539,4310.641113,4302.692383,4275.0,4258.333496,4557.94873,4523.846191,4398.717773,4490.769043,0.413873,0.322743,0.523965,0.555777,0.300415,0.780683,0.245694,0.366181,0.192608,0.13049,0.41868,0.19737,0.17425,0.115141,0.149754,0.599881,0.192041,0.243039,0.142112,0.085343,0.357259,0.151916,0.107534,0.073903,0.064508,0.304429,0.23971,0.145642,0.140725,0.123396,0.324654,0.090566,0.105872,0.09627,0.099614,0.329141,0.571009,0.437546,0.167939,0.271126,0.512159,0.496884,0.180654,0.162742,0.164755,0.610019,0.485535,0.483167,0.362938,0.385155,0.24426,0.278534,0.234447,0.3055,0.275827,0.31947,0.228996,0.145879,0.13303,0.119743,0.360759,0.487224,0.284105,0.277798,0.211538,0.379432,0.331265,0.319202,0.309159,0.20313
1769162328.127989,1769162328.128528,79.0,0.0,4310.897461,4275.641113,4365.512695,4332.436035,4247.563965,4316.410156,4313.846191,4312.563965,4282.563965,4268.717773,4565.897461,4527.307617,4400.641113,4490.897461,,,,,,,,,,,,,,,,,,,,,,,,,,,,,,,,,,,,,,,,,,,,,,,,,,,,,,,,,,,,,,,,,,,,,,
1769162328.135798,1769162328.136537,80.0,0.0,4306.153809,4271.025879,4363.077148,4324.358887,4248.589844,4311.666504,4312.05127,4311.410156,4282.692383,4276.025879,4561.538574,4522.820313,4397.307617,4482.820313,,,,,,,,,,,,,,,,,,,,,,,,,,,,,,,,,,,,,,,,,,,,,,,,,,,,,,,,,,,,,,,,,,,,,,
1769162328.143606,1769162328.144345,81.0,0.0,4304.615234,4277.820313,4366.282227,4324.871582,4250.0,4312.820313,4312.05127,4302.436035,4277.307617,4267.05127,4552.820313,4518.717773,4396.410156,4474.871582,,,,,,,,,,,,,,,,,,,,,,,,,,,,,,,,,,,,,,,,,,,,,,,,,,,,,,,,,,,,,,,,,,,,,,
1769162328.151415,1769162328.152253,82.0,0.0,4314.871582,4283.205078,4374.230957,4335.0,4250.0,4314.102539,4311.666504,4305.128418,4278.461426,4271.282227,4555.897461,4522.563965,4402.94873,4477.179688,,,,,,,,,,,,,,,,,,,,,,,,,,,,,,,,,,,,,,,,,,,,,,,,,,,,,,,,,,,,,,,,,,,,,,
1769162328.159223,1769162328.160062,83.0,0.0,4321.153809,4278.589844,4374.487305,4335.384766,4248.846191,4308.717773,4310.897461,4308.077148,4280.897461,4284.102539,4557.436035,4525.256348,4400.256348,4479.358887,,,,,,,,,,,,,,,,,,,,,,,,,,,,,,,,,,,,,,,,,,,,,,,,,,,,,,,,,,,,,,,,,,,,,,
1769162328.167032,1769162328.16807,84.0,0.0,4310.384766,4273.333496,4366.666504,4327.307617,4247.179688,4306.794922,4312.436035,4300.384766,4278.974121,4278.077148,4555.128418,4521.153809,4391.538574,4473.205078,,,,,,,,,,,,,,,,,,,,,,,,,,,,,,,,,,,,,,,,,,,,,,,,,,,,,,,,,,,,,,,,,,,,,,
1769162328.17484,1769162328.175879,85.0,0.0,4304.615234,4277.563965,4368.205078,4330.256348,4245.769043,4310.512695,4311.922852,4298.589844,4276.410156,4266.025879,4555.512695,4519.871582,4393.461426,4474.102539,,,,,,,,,,,,,,,,,,,,,,,,,,,,,,,,,,,,,,,,,,,,,,,,,,,,,,,,,,,,,,,,,,,,,,
1769162328.182649,1769162328.183787,86.0,0.0,4316.922852,4286.153809,4375.384766,4337.563965,4247.563965,4312.820313,4311.282227,4304.487305,4277.179688,4264.358887,4557.563965,4521.794922,4399.230957,4481.410156,,,,,,,,,,,,,,,,,,,,,,,,,,,,,,,,,,,,,,,,,,,,,,,,,,,,,,,,,,,,,,,,,,,,,,
1769162328.190457,1769162328.191595,87.0,0.0,4321.410156,4286.282227,4374.871582,4329.743652,4248.974121,4307.692383,4312.692383,4305.512695,4278.717773,4265.641113,4554.615234,4520.897461,4395.384766,4479.615234,,,,,,,,,,,,,,,,,,,,,,,,,,,,,,,,,,,,,,,,,,,,,,,,,,,,,,,,,,,,,,,,,,,,,,
1769162328.198265,1769162328.199204,88.0,0.0,4312.307617,4281.922852,4374.102539,4326.794922,4248.589844,4305.769043,4311.666504,4302.307617,4278.974121,4274.743652,4552.94873,4520.128418,4396.410156,4479.487305,,,,,,,,,,,,,,,,,,,,,,,,,,,,,,,,,,,,,,,,,,,,,,,,,,,,,,,,,,,,,,,,,,,,,,
1769162328.206074,1769162328.207012,89.0,0.0,4310.897461,4282.692383,4381.153809,4338.589844,4247.94873,4307.05127,4309.102539,4301.410156,4278.205078,4283.333496,4563.333496,4523.077148,4410.769043,4490.384766,,,,,,,,,,,,,,,,,,,,,,,,,,,,,,,,,,,,,,,,,,,,,,,,,,,,,,,,,,,,,,,,,,,,,,
1769162328.213882,1769162328.214721,90.0,0.0,4314.871582,4282.563965,4385.641113,4337.307617,4245.384766,4298.333496,4309.487305,4300.256348,4276.282227,4280.256348,4572.05127,4524.358887,4414.743652,4494.871582,,,,,,,,,,,,,,,,,,,,,,,,,,,,,,,,,,,,,,,,,,,,,,,,,,,,,,,,,,,,,,,,,,,,,,
1769162328.221691,1769162328.222529,91.0,0.0,4314.358887,4278.461426,4383.846191,4324.871582,4242.692383,4297.179688,4310.512695,4308.077148,4279.102539,4279.615234,4572.307617,4526.153809,4408.846191,4489.487305,,,,,,,,,,,,,,,,,,,,,,,,,,,,,,,,,,,,,,,,,,,,,,,,,,,,,,,,,,,,,,,,,,,,,,
1769162328.229499,1769162328.230138,92.0,0.0,4309.230957,4276.410156,4379.487305,4323.205078,4243.589844,4309.102539,4310.641113,4312.820313,4283.205078,4283.461426,4572.05127,4527.05127,4410.769043,4489.487305,,,,,,,,,,,,,,,,,,,,,,,,,,,,,,,,,,,,,,,,,,,,,,,,,,,,,,,,,,,,,,,,,,,,,,
1769162328.237308,1769162328.237947,93.0,0.0,4308.205078,4279.102539,4379.102539,4329.871582,4247.307617,4307.436035,4310.128418,4300.769043,4275.769043,4281.410156,4571.538574,4524.487305,4414.230957,4490.512695,,,,,,,,,,,,,,,,,,,,,,,,,,,,,,,,,,,,,,,,,,,,,,,,,,,,,,,,,,,,,,,,,,,,,,
1769162328.245116,1769162328.245655,94.0,0.0,4319.102539,4280.641113,4386.410156,4331.410156,4246.922852,4294.358887,4309.102539,4296.666504,4269.743652,4276.922852,4569.871582,4531.153809,4411.922852,4488.333496,0.394033,0.271443,0.623919,0.605767,0.298032,0.746726,0.304191,0.354975,0.201774,0.129123,0.320455,0.177987,0.216068,0.126757,0.154377,0.556945,0.221113,0.278204,0.1426,0.090075,0.424842,0.159496,0.140393,0.069684,0.061029,0.383036,0.21604,0.165483,0.124486,0.137136,0.261925,0.079559,0.097679,0.079933,0.096818,0.324186,0.507788,0.449792,0.174045,0.259288,0.471545,0.433371,0.183964,0.171493,0.167295,0.701657,0.454093,0.550474,0.348723,0.377724,0.305761,0.293082,0.246773,0.304449,0.314295,0.282207,0.180455,0.147595,0.147501,0.140553,0.476862,0.496756,0.27732,0.31493,0.220115,0.461001,0.307979,0.383257,0.310026,0.222294
1769162328.252925,1769162328.253464,95.0,0.0,4325.897461,4277.94873,4391.410156,4327.692383,4240.897461,4293.461426,4309.230957,4303.333496,4280.512695,4279.358887,4570.0,4538.846191,4411.153809,4490.897461,,,,,,,,,,,,,,,,,,,,,,,,,,,,,,,,,,,,,,,,,,,,,,,,,,,,,,,,,,,,,,,,,,,,,,
1769162328.260733,1769162328.261472,96.0,0.0,4315.128418,4276.282227,4389.743652,4326.025879,4240.128418,4298.974121,4309.871582,4299.358887,4282.563965,4278.974121,4564.615234,4530.0,4408.589844,4487.820313,,,,,,,,,,,,,,,,,,,,,,,,,,,,,,,,,,,,,,,,,,,,,,,,,,,,,,,,,,,,,,,,,,,,,,
1769162328.268541,1769162328.26928,97.0,0.0,4307.94873,4280.0,4388.077148,4331.025879,4247.563965,4296.025879,4308.974121,4287.05127,4267.05127,4267.436035,4555.641113,4517.820313,4401.922852,4477.563965,,,,,,,,,,,,,,,,,,,,,,,,,,,,,,,,,,,,,,,,,,,,,,,,,,,,,,,,,,,,,,,,,,,,,,
1769162328.27635,1769162328.277189,98.0,0.0,4319.358887,4283.205078,4388.333496,4338.205078,4249.615234,4293.589844,4309.743652,4292.94873,4267.436035,4257.563965,4558.077148,4524.358887,4403.461426,4475.641113,,,,,,,,,,,,,,,,,,,,,,,,,,,,,,,,,,,,,,,,,,,,,,,,,,,,,,,,,,,,,,,,,,,,,,
1769162328.284158,1769162328.284997,99.0,0.0,4328.461426,4282.307617,4390.384766,4338.461426,4244.743652,4297.436035,4310.897461,4302.94873,4280.256348,4265.384766,4567.563965,4537.563965,4411.282227,4485.256348,,,,,,,,,,,,,,,,,,,,,,,,,,,,,,,,,,,,,,,,,,,,,,,,,,,,,,,,,,,,,,,,,,,,,,
1769162328.291967,1769162328.293005,100.0,0.0,4320.512695,4279.743652,4390.512695,4331.538574,4245.256348,4300.384766,4309.358887,4298.846191,4278.846191,4277.563965,4569.743652,4535.128418,4413.461426,4491.282227,,,,,,,,,,,,,,,,,,,,,,,,,,,,,,,,,,,,,,,,,,,,,,,,,,,,,,,,,,,,,,,,,,,,,,
1769162328.299775,1769162328.300814,101.0,0.0,4311.922852,4281.666504,4387.820313,4325.897461,4249.487305,4297.436035,4308.846191,4298.846191,4274.743652,4276.538574,4564.487305,4526.794922,4410.512695,4488.461426,,,,,,,,,,,,,,,,,,,,,,,,,,,,,,,,,,,,,,,,,,,,,,,,,,,,,,,,,,,,,,,,,,,,,,
1769162328.307584,1769162328.308522,102.0,0.0,4316.410156,4287.692383,4389.230957,4331.794922,4249.102539,4294.615234,4310.128418,4309.230957,4280.128418,4274.102539,4565.384766,4530.384766,4410.769043,4486.538574,,,,,,,,,,,,,,,,,,,,,,,,,,,,,,,,,,,,,,,,,,,,,,,,,,,,,,,,,,,,,,,,,,,,,,
1769162328.315392,1769162328.316331,103.0,0.0,4326.410156,4292.307617,4396.153809,4339.230957,4249.102539,4297.179688,4310.512695,4314.102539,4283.461426,4278.846191,4573.589844,4539.358887,4412.563965,4490.512695,,,,,,,,,,,,,,,,,,,,,,,,,,,,,,,,,,,,,,,,,,,,,,,,,,,,,,,,,,,,,,,,,,,,,,
1769162328.323201,1769162328.323939,104.0,0.0,4328.717773,4292.307617,4397.563965,4338.589844,4250.0,4298.589844,4310.256348,4307.94873,4279.358887,4278.846191,4573.974121,4536.538574,4411.666504,4494.615234,,,,,,,,,,,,,,,,,,,,,,,,,,,,,,,,,,,,,,,,,,,,,,,,,,,,,,,,,,,,,,,,,,,,,,
1769162328.331009,1769162328.331748,105.0,0.0,4323.077148,4289.871582,4394.102539,4336.922852,4250.384766,4296.282227,4310.512695,4305.512695,4281.410156,4275.128418,4570.384766,4529.743652,4416.410156,4492.05127,,,,,,,,,,,,,,,,,,,,,,,,,,,,,,,,,,,,,,,,,,,,,,,,,,,,,,,,,,,,,,,,,,,,,,
1769162328.338817,1769162328.339656,106.0,0.0,4320.128418,4291.025879,4394.871582,4339.230957,4253.589844,4295.0,4311.794922,4311.922852,4290.256348,4277.820313,4577.563965,4533.974121,4426.794922,4492.307617,,,,,,,,,,,,,,,,,,,,,,,,,,,,,,,,,,,,,,,,,,,,,,,,,,,,,,,,,,,,,,,,,,,,,,
1769162328.346626,1769162328.347465,107.0,0.0,4322.563965,4296.282227,4396.922852,4340.641113,4255.769043,4294.358887,4312.307617,4315.641113,4290.641113,4282.563965,4583.077148,4542.307617,4428.717773,4496.153809,,,,,,,,,,,,,,,,,,,,,,,,,,,,,,,,,,,,,,,,,,,,,,,,,,,,,,,,,,,,,,,,,,,,,,
1769162328.354434,1769162328.355473,108.0,0.0,4326.282227,4297.179688,4396.410156,4339.615234,4250.897461,4293.461426,4311.282227,4305.128418,4281.282227,4280.512695,4574.102539,4536.410156,4419.358887,4495.256348,,,,,,,,,,,,,,,,,,,,,,,,,,,,,,,,,,,,,,,,,,,,,,,,,,,,,,,,,,,,,,,,,,,,,,
1769162328.362243,1769162328.363281,109.0,0.0,4327.94873,4292.05127,4396.282227,4340.256348,4248.461426,4293.846191,4309.871582,4291.794922,4275.897461,4276.410156,4567.436035,4523.974121,4412.94873,4493.461426,,,,,,,,,,,,,,,,,,,,,,,,,,,,,,,,,,,,,,,,,,,,,,,,,,,,,,,,,,,,,,,,,,,,,,
1769162328.370051,1769162328.37119,110.0,0.0,4326.922852,4290.512695,4400.256348,4341.410156,4255.256348,4296.153809,4310.512695,4294.615234,4276.410156,4277.563965,4569.871582,4524.358887,4413.846191,4493.333496,0.382276,0.258207,0.697171,0.630121,0.292311,0.683175,0.362358,0.325227,0.209055,0.133192,0.241486,0.172877,0.247501,0.141538,0.150603,0.469628,0.237151,0.290258,0.151918,0.097373,0.459519,0.165144,0.165418,0.065199,0.057716,0.455971,0.205105,0.18832,0.111282,0.14923,0.207443,0.065444,0.086816,0.065053,0.09105,0.314865,0.432229,0.424972,0.182259,0.247491,0.446249,0.371377,0.220924,0.186075,0.174313,0.719358,0.418623,0.639461,0.331833,0.37077,0.363204,0.307823,0.266754,0.298418,0.337811,0.271697,0.167862,0.180945,0.175239,0.159911,0.591981,0.526038,0.333167,0.363545,0.22543,0.527142,0.31563,0.464606,0.318741,0.250714
1769162328.37786,1769162328.378998,111.0,0.0,4327.436035,4290.769043,4405.128418,4341.666504,4260.897461,4296.922852,4311.666504,4309.615234,4283.333496,4279.871582,4573.333496,4538.205078,4415.0,4497.94873,,,,,,,,,,,,,,,,,,,,,,,,,,,,,,,,,,,,,,,,,,,,,,,,,,,,,,,,,,,,,,,,,,,,,,
1769162328.385668,1769162328.386607,112.0,0.0,4332.307617,4286.794922,4404.358887,4342.436035,4260.641113,4294.230957,4311.282227,4311.153809,4287.436035,4276.666504,4571.666504,4538.846191,4412.05127,4502.436035,,,,,,,,,,,,,,,,,,,,,,,,,,,,,,,,,,,,,,,,,,,,,,,,,,,,,,,,,,,,,,,,,,,,,,
1769162328.393477,1769162328.394415,113.0,0.0,4336.922852,4286.666504,4402.563965,4341.410156,4260.897461,4292.179688,4309.230957,4294.615234,4278.077148,4271.922852,4571.410156,4525.0,4415.384766,4503.333496,,,,,,,,,,,,,,,,,,,,,,,,,,,,,,,,,,,,,,,,,,,,,,,,,,,,,,,,,,,,,,,,,,,,,,
1769162328.401285,1769162328.402124,114.0,0.0,4335.256348,4292.307617,4404.358887,4340.384766,4261.538574,4294.358887,4308.333496,4295.256348,4276.922852,4281.282227,4580.384766,4527.436035,4427.94873,4507.05127,,,,,,,,,,,,,,,,,,,,,,,,,,,,,,,,,,,,,,,,,,,,,,,,,,,,,,,,,,,,,,,,,,,,,,
1769162328.409094,1769162328.409932,115.0,0.0,4334.871582,4295.641113,4405.384766,4340.384766,4263.077148,4297.692383,4309.615234,4309.487305,4286.794922,4293.717773,4588.461426,4541.538574,4431.666504,4511.410156,,,,,,,,,,,,,,,,,,,,,,,,,,,,,,,,,,,,,,,,,,,,,,,,,,,,,,,,,,,,,,,,,,,,,,
1769162328.416902,1769162328.417541,116.0,0.0,4337.692383,4292.692383,4403.846191,4338.333496,4263.974121,4296.922852,4309.487305,4307.563965,4283.589844,4287.307617,4586.153809,4538.461426,4427.179688,4509.230957,,,,,,,,,,,,,,,,,,,,,,,,,,,,,,,,,,,,,,,,,,,,,,,,,,,,,,,,,,,,,,,,,,,,,,
1769162328.424711,1769162328.425349,117.0,0.0,4332.307617,4287.563965,4404.615234,4336.025879,4263.974121,4293.077148,4308.077148,4300.0,4277.05127,4276.282227,4580.0,4529.358887,4426.922852,4505.769043,,,,,,,,,,,,,,,,,,,,,,,,,,,,,,,,,,,,,,,,,,,,,,,,,,,,,,,,,,,,,,,,,,,,,,
1769162328.432519,1769162328.433058,118.0,0.0,4326.025879,4288.846191,4404.358887,4337.307617,4264.230957,4298.333496,4309.871582,4301.025879,4277.820313,4276.922852,4576.410156,4531.410156,4422.820313,4503.974121,,,,,,,,,,,,,,,,,,,,,,,,,,,,,,,,,,,,,,,,,,,,,,,,,,,,,,,,,,,,,,,,,,,,,,
1769162328.440328,1769162328.440866,119.0,0.0,4326.666504,4292.94873,4397.563965,4339.358887,4264.230957,4299.102539,4307.307617,4303.589844,4278.461426,4278.846191,4572.436035,4530.512695,4413.717773,4495.512695,,,,,,,,,,,,,,,,,,,,,,,,,,,,,,,,,,,,,,,,,,,,,,,,,,,,,,,,,,,,,,,,,,,,,,
1769162328.448136,1769162328.448475,120.0,0.0,4325.256348,4289.743652,4394.871582,4337.692383,4262.179688,4286.153809,4304.615234,4309.871582,4282.820313,4276.794922,4570.384766,4526.282227,4415.0,4487.692383,,,,,,,,,,,,,,,,,,,,,,,,,,,,,,,,,,,,,,,,,,,,,,,,,,,,,,,,,,,,,,,,,,,,,,
1769162328.455944,1769162328.456283,121.0,0.0,4325.0,4287.94873,4403.461426,4337.692383,4263.717773,4285.384766,4306.794922,4311.025879,4285.512695,4277.692383,4569.871582,4530.897461,4423.077148,4495.128418,,,,,,,,,,,,,,,,,,,,,,,,,,,,,,,,,,,,,,,,,,,,,,,,,,,,,,,,,,,,,,,,,,,,,,
1769162328.463753,1769162328.463992,122.0,0.0,4335.128418,4295.512695,4410.769043,4341.410156,4266.666504,4297.820313,4304.871582,4297.179688,4276.922852,4279.230957,4571.666504,4534.871582,4426.666504,4507.179688,,,,,,,,,,,,,,,,,,,,,,,,,,,,,,,,,,,,,,,,,,,,,,,,,,,,,,,,,,,,,,,,,,,,,,
1769162328.471561,1769162328.4718,123.0,0.0,4340.641113,4298.461426,4411.025879,4343.846191,4264.615234,4296.153809,4301.794922,4296.153809,4274.871582,4281.922852,4580.641113,4538.205078,4428.717773,4509.743652,,,,,,,,,,,,,,,,,,,,,,,,,,,,,,,,,,,,,,,,,,,,,,,,,,,,,,,,,,,,,,,,,,,,,,
1769162328.47937,1769162328.479809,124.0,0.0,4330.256348,4294.871582,4409.102539,4341.666504,4263.205078,4286.922852,4304.102539,4308.974121,4283.846191,4292.563965,4588.846191,4542.179688,4431.153809,4507.820313,,,,,,,,,,,,,,,,,,,,,,,,,,,,,,,,,,,,,,,,,,,,,,,,,,,,,,,,,,,,,,,,,,,,,,
1769162328.487178,1769162328.487617,125.0,0.0,4323.077148,4294.102539,4406.282227,4336.410156,4266.922852,4287.563965,4305.384766,4307.05127,4284.102539,4292.436035,4588.333496,4539.615234,4431.025879,4508.589844,,,,,,,,,,,,,,,,,,,,,,,,,,,,,,,,,,,,,,,,,,,,,,,,,,,,,,,,,,,,,,,,,,,,,,
1769162328.494987,1769162328.495525,126.0,0.0,4332.05127,4295.128418,4406.410156,4335.256348,4271.025879,4289.487305,4305.384766,4302.820313,4277.94873,4281.153809,4583.589844,4536.538574,4428.846191,4509.102539,0.383358,0.296588,0.726925,0.6215,0.288616,0.630745,0.407286,0.280722,0.213645,0.139247,0.186308,0.19486,0.259345,0.156373,0.139252,0.359512,0.243504,0.274242,0.1714,0.106529,0.451152,0.168766,0.17779,0.062408,0.056013,0.504957,0.206298,0.208573,0.108312,0.16067,0.165707,0.051636,0.077208,0.055936,0.085206,0.297377,0.368022,0.369679,0.193554,0.237845,0.430294,0.325419,0.27808,0.200978,0.184876,0.662975,0.390226,0.716485,0.320284,0.365127,0.40828,0.330325,0.295147,0.298381,0.344059,0.285352,0.203077,0.238118,0.208693,0.175831,0.693434,0.567661,0.453611,0.418837,0.22631,0.576698,0.356287,0.552798,0.335387,0.282323
1769162328.502795,1769162328.503334,127.0,0.0,4341.153809,4295.897461,4412.179688,4338.589844,4274.871582,4289.230957,4309.743652,4311.538574,4280.0,4283.205078,4584.487305,4538.974121,4428.974121,4508.077148,,,,,,,,,,,,,,,,,,,,,,,,,,,,,,,,,,,,,,,,,,,,,,,,,,,,,,,,,,,,,,,,,,,,,,
1769162328.510604,1769162328.510943,0.0,0.0,4336.153809,4290.769043,4414.743652,4338.077148,4277.820313,4283.974121,4312.307617,4312.179688,4283.589844,4289.743652,4585.769043,4539.230957,4426.410156,4509.102539,,,,,,,,,,,,,,,,,,,,,,,,,,,,,,,,,,,,,,,,,,,,,,,,,,,,,,,,,,,,,,,,,,,,,,
1769162328.518412,1769162328.518751,1.0,0.0,4324.102539,4283.846191,4411.538574,4332.94873,4276.666504,4280.0,4309.615234,4295.256348,4278.333496,4279.102539,4575.256348,4534.230957,4419.615234,4507.307617,,,,,,,,,,,,,,,,,,,,,,,,,,,,,,,,,,,,,,,,,,,,,,,,,,,,,,,,,,,,,,,,,,,,,,
1769162328.52622,1769162328.52646,2.0,0.0,4322.307617,4284.615234,4411.538574,4330.769043,4276.153809,4288.205078,4309.358887,4294.102539,4275.256348,4272.179688,4570.897461,4532.179688,4416.538574,4500.897461,,,,,,,,,,,,,,,,,,,,,,,,,,,,,,,,,,,,,,,,,,,,,,,,,,,,,,,,,,,,,,,,,,,,,,
1769162328.534029,1769162328.534268,3.0,0.0,4338.077148,4290.897461,4412.563965,4332.692383,4280.384766,4288.846191,4309.487305,4308.717773,4280.128418,4279.743652,4578.077148,4535.256348,4418.589844,4500.256348,,,,,,,,,,,,,,,,,,,,,,,,,,,,,,,,,,,,,,,,,,,,,,,,,,,,,,,,,,,,,,,,,,,,,,
1769162328.541837,1769162328.542276,4.0,0.0,4344.871582,4293.589844,4413.974121,4336.922852,4282.820313,4282.05127,4307.436035,4307.307617,4280.384766,4282.05127,4576.282227,4534.871582,4417.307617,4503.589844,,,,,,,,,,,,,,,,,,,,,,,,,,,,,,,,,,,,,,,,,,,,,,,,,,,,,,,,,,,,,,,,,,,,,,
1769162328.549646,1769162328.550085,5.0,0.0,4329.615234,4294.102539,4419.358887,4340.384766,4281.666504,4285.0,4306.794922,4303.205078,4279.487305,4279.230957,4568.846191,4533.205078,4413.461426,4503.077148,,,,,,,,,,,,,,,,,,,,,,,,,,,,,,,,,,,,,,,,,,,,,,,,,,,,,,,,,,,,,,,,,,,,,,
1769162328.557454,1769162328.557993,6.0,0.0,4330.0,4296.025879,4420.641113,4338.717773,4281.153809,4289.358887,4308.589844,4306.282227,4279.487305,4272.692383,4570.384766,4535.384766,4413.589844,4505.512695,,,,,,,,,,,,,,,,,,,,,,,,,,,,,,,,,,,,,,,,,,,,,,,,,,,,,,,,,,,,,,,,,,,,,,
1769162328.565263,1769162328.565801,7.0,0.0,4345.512695,4292.94873,4416.666504,4335.128418,4282.307617,4287.692383,4309.871582,4304.230957,4275.897461,4262.820313,4569.230957,4536.538574,4412.179688,4505.512695,,,,,,,,,,,,,,,,,,,,,,,,,,,,,,,,,,,,,,,,,,,,,,,,,,,,,,,,,,,,,,,,,,,,,,
1769162328.573071,1769162328.57381,8.0,0.0,4338.333496,4287.179688,4414.358887,4334.230957,4280.897461,4286.025879,4309.487305,4304.230957,4277.563965,4273.333496,4566.538574,4534.615234,4411.410156,4496.153809,,,,,,,,,,,,,,,,,,,,,,,,,,,,,,,,,,,,,,,,,,,,,,,,,,,,,,,,,,,,,,,,,,,,,,
1769162328.58088,1769162328.581618,9.0,0.0,4326.666504,4289.358887,4416.666504,4336.410156,4278.205078,4281.153809,4310.769043,4308.461426,4283.077148,4291.922852,4576.666504,4535.384766,4419.743652,4495.897461,,,,,,,,,,,,,,,,,,,,,,,,,,,,,,,,,,,,,,,,,,,,,,,,,,,,,,,,,,,,,,,,,,,,,,
1769162328.588688,1769162328.589327,10.0,0.0,4335.897461,4297.436035,4422.692383,4339.743652,4278.717773,4278.077148,4310.897461,4304.102539,4279.871582,4290.256348,4585.641113,4539.487305,4429.102539,4507.94873,,,,,,,,,,,,,,,,,,,,,,,,,,,,,,,,,,,,,,,,,,,,,,,,,,,,,,,,,,,,,,,,,,,,,,
1769162328.596496,1769162328.597135,11.0,0.0,4339.487305,4298.205078,4424.615234,4339.358887,4280.512695,4283.077148,4308.974121,4301.410156,4277.05127,4280.769043,4584.615234,4540.0,4429.230957,4508.205078,,,,,,,,,,,,,,,,,,,,,,,,,,,,,,,,,,,,,,,,,,,,,,,,,,,,,,,,,,,,,,,,,,,,,,
1769162328.604305,1769162328.605143,12.0,0.0,4337.05127,4292.05127,4422.563965,4335.641113,4278.974121,4284.102539,4310.641113,4305.641113,4280.384766,4280.128418,4584.615234,4539.358887,4427.94873,4503.077148,,,,,,,,,,,,,,,,,,,,,,,,,,,,,,,,,,,,,,,,,,,,,,,,,,,,,,,,,,,,,,,,,,,,,,
1769162328.612113,1769162328.612952,13.0,0.0,4342.436035,4296.282227,4422.05127,4337.436035,4277.563965,4282.05127,4311.922852,4302.692383,4278.589844,4281.538574,4586.153809,4540.641113,4432.307617,4507.820313,,,,,,,,,,,,,,,,,,,,,,,,,,,,,,,,,,,,,,,,,,,,,,,,,,,,,,,,,,,,,,,,,,,,,,
1769162328.619922,1769162328.62066,14.0,0.0,4342.94873,4305.897461,4423.205078,4342.563965,4279.358887,4284.615234,4308.589844,4300.641113,4276.538574,4285.128418,4585.512695,4540.128418,4432.307617,4510.897461,0.378405,0.379676,0.709562,0.5842,0.289768,0.602932,0.429945,0.22942,0.214103,0.142777,0.172102,0.243258,0.249256,0.168688,0.123257,0.251481,0.246714,0.23381,0.198428,0.117102,0.40491,0.168673,0.174948,0.061826,0.056184,0.514938,0.213015,0.219488,0.118032,0.173365,0.146415,0.040314,0.07067,0.053463,0.080877,0.272757,0.339807,0.302639,0.20585,0.233243,0.419707,0.299694,0.334809,0.210172,0.197132,0.561135,0.380213,0.754856,0.319909,0.359712,0.435163,0.377396,0.329179,0.310103,0.334171,0.327004,0.281858,0.303842,0.237224,0.188579,0.774847,0.618865,0.612314,0.469858,0.22184,0.618779,0.427255,0.627409,0.358048,0.306627
1769162328.62773,1769162328.628469,15.0,0.0,4343.077148,4301.794922,4424.487305,4342.436035,4280.512695,4289.615234,4310.256348,4307.820313,4285.769043,4292.05127,4583.461426,4540.384766,4427.820313,4506.666504,,,,,,,,,,,,,,,,,,,,,,,,,,,,,,,,,,,,,,,,,,,,,,,,,,,,,,,,,,,,,,,,,,,,,,
1769162328.635539,1769162328.636077,16.0,0.0,4341.666504,4294.743652,4424.615234,4339.743652,4281.410156,4294.487305,4316.410156,4313.589844,4294.487305,4286.410156,4586.538574,4545.641113,4429.743652,4504.487305,,,,,,,,,,,,,,,,,,,,,,,,,,,,,,,,,,,,,,,,,,,,,,,,,,,,,,,,,,,,,,,,,,,,,,
1769162328.643347,1769162328.643886,17.0,0.0,4333.461426,4300.897461,4424.487305,4343.333496,4283.974121,4294.230957,4315.0,4308.205078,4289.487305,4278.589844,4593.717773,4553.077148,4435.769043,4513.205078,,,,,,,,,,,,,,,,,,,,,,,,,,,,,,,,,,,,,,,,,,,,,,,,,,,,,,,,,,,,,,,,,,,,,,
1769162328.651156,1769162328.651594,18.0,0.0,4334.743652,4302.05127,4426.025879,4341.666504,4281.666504,4289.230957,4311.025879,4310.897461,4290.641113,4289.358887,4594.615234,4558.205078,4434.102539,4521.153809,,,,,,,,,,,,,,,,,,,,,,,,,,,,,,,,,,,,,,,,,,,,,,,,,,,,,,,,,,,,,,,,,,,,,,
1769162328.658964,1769162328.659403,19.0,0.0,4345.897461,4294.487305,4428.333496,4330.641113,4278.717773,4290.769043,4313.717773,4319.487305,4297.94873,4295.769043,4588.974121,4558.077148,4427.05127,4512.94873,,,,,,,,,,,,,,,,,,,,,,,,,,,,,,,,,,,,,,,,,,,,,,,,,,,,,,,,,,,,,,,,,,,,,,
1769162328.666772,1769162328.667411,20.0,0.0,4348.717773,4300.384766,4429.102539,4332.94873,4283.461426,4297.692383,4314.358887,4308.461426,4288.077148,4285.256348,4584.871582,4552.307617,4426.794922,4506.025879,,,,,,,,,,,,,,,,,,,,,,,,,,,,,,,,,,,,,,,,,,,,,,,,,,,,,,,,,,,,,,,,,,,,,,
1769162328.674581,1769162328.67522,21.0,0.0,4349.871582,4312.94873,4431.282227,4343.589844,4289.743652,4296.153809,4309.487305,4298.846191,4275.256348,4284.487305,4585.256348,4552.307617,4430.897461,4517.436035,,,,,,,,,,,,,,,,,,,,,,,,,,,,,,,,,,,,,,,,,,,,,,,,,,,,,,,,,,,,,,,,,,,,,,
1769162328.682389,1769162328.683128,22.0,0.0,4354.615234,4312.179688,4433.077148,4337.436035,4288.333496,4289.230957,4309.487305,4304.487305,4278.717773,4289.358887,4586.153809,4555.0,4430.769043,4523.974121,,,,,,,,,,,,,,,,,,,,,,,,,,,,,,,,,,,,,,,,,,,,,,,,,,,,,,,,,,,,,,,,,,,,,,
1769162328.690198,1769162328.690936,23.0,0.0,4352.179688,4303.077148,4429.487305,4326.282227,4281.153809,4286.666504,4312.05127,4302.94873,4282.05127,4281.282227,4585.384766,4546.025879,4426.922852,4513.717773,,,,,,,,,,,,,,,,,,,,,,,,,,,,,,,,,,,,,,,,,,,,,,,,,,,,,,,,,,,,,,,,,,,,,,
1769162328.698006,1769162328.698945,24.0,0.0,4349.358887,4300.512695,4427.307617,4325.256348,4276.282227,4282.436035,4309.230957,4295.128418,4278.717773,4279.615234,4584.102539,4537.94873,4425.384766,4506.794922,,,,,,,,,,,,,,,,,,,,,,,,,,,,,,,,,,,,,,,,,,,,,,,,,,,,,,,,,,,,,,,,,,,,,,
1769162328.705815,1769162328.706753,25.0,0.0,4351.666504,4305.769043,4427.94873,4322.94873,4275.897461,4276.025879,4306.794922,4295.769043,4278.077148,4278.589844,4582.820313,4541.282227,4425.256348,4507.563965,,,,,,,,,,,,,,,,,,,,,,,,,,,,,,,,,,,,,,,,,,,,,,,,,,,,,,,,,,,,,,,,,,,,,,
1769162328.713623,1769162328.714462,26.0,0.0,4346.922852,4305.384766,4428.717773,4320.384766,4275.512695,4276.410156,4309.871582,4296.666504,4277.179688,4267.05127,4580.384766,4541.410156,4420.256348,4506.922852,,,,,,,,,,,,,,,,,,,,,,,,,,,,,,,,,,,,,,,,,,,,,,,,,,,,,,,,,,,,,,,,,,,,,,
1769162328.721432,1769162328.72227,27.0,0.0,4339.615234,4296.410156,4428.717773,4319.743652,4275.0,4282.05127,4312.179688,4294.743652,4278.333496,4267.692383,4573.846191,4537.436035,4412.94873,4506.538574,,,,,,,,,,,,,,,,,,,,,,,,,,,,,,,,,,,,,,,,,,,,,,,,,,,,,,,,,,,,,,,,,,,,,,
1769162328.72924,1769162328.729879,28.0,0.0,4346.410156,4291.794922,4429.230957,4314.358887,4276.538574,4284.102539,4309.615234,4297.179688,4279.615234,4276.153809,4568.077148,4540.0,4412.307617,4507.692383,,,,,,,,,,,,,,,,,,,,,,,,,,,,,,,,,,,,,,,,,,,,,,,,,,,,,,,,,,,,,,,,,,,,,,
1769162328.737049,1769162328.737687,29.0,0.0,4348.333496,4292.692383,4427.820313,4310.256348,4275.769043,4280.769043,4307.820313,4293.846191,4270.0,4268.461426,4565.641113,4536.922852,4414.615234,4508.205078,,,,,,,,,,,,,,,,,,,,,,,,,,,,,,,,,,,,,,,,,,,,,,,,,,,,,,,,,,,,,,,,,,,,,,
1769162328.744857,1769162328.745596,30.0,0.0,4336.666504,4292.692383,4422.94873,4309.871582,4272.05127,4278.077148,4306.794922,4284.102539,4261.282227,4259.358887,4566.538574,4523.974121,4412.307617,4506.025879,0.364922,0.482066,0.654513,0.527558,0.296152,0.600353,0.426459,0.182928,0.208672,0.140946,0.189344,0.303868,0.222013,0.177128,0.106686,0.164447,0.251291,0.1813,0.225662,0.128526,0.338403,0.163336,0.157862,0.062647,0.057338,0.494178,0.215553,0.215689,0.136651,0.188222,0.139156,0.032045,0.066934,0.054882,0.077697,0.2497,0.357079,0.243683,0.215502,0.238421,0.41637,0.288263,0.373105,0.20935,0.209135,0.461777,0.39363,0.743941,0.330888,0.352335,0.451813,0.466002,0.366786,0.331007,0.312057,0.384452,0.384252,0.362536,0.25238,0.200722,0.832375,0.680234,0.766702,0.503983,0.211858,0.666378,0.522835,0.667544,0.379835,0.312801
1769162328.752666,1769162328.753404,31.0,0.0,4337.563965,4296.794922,4424.743652,4309.358887,4276.153809,4281.025879,4306.666504,4278.846191,4266.794922,4264.743652,4568.717773,4520.769043,4411.282227,4498.717773,,,,,,,,,,,,,,,,,,,,,,,,,,,,,,,,,,,,,,,,,,,,,,,,,,,,,,,,,,,,,,,,,,,,,,
1769162328.760474,1769162328.761212,32.0,0.0,4339.230957,4297.692383,4430.0,4306.410156,4280.256348,4281.025879,4309.487305,4283.205078,4275.384766,4271.025879,4567.05127,4525.256348,4412.307617,4490.0,,,,,,,,,,,,,,,,,,,,,,,,,,,,,,,,,,,,,,,,,,,,,,,,,,,,,,,,,,,,,,,,,,,,,,
1769162328.768283,1769162328.769021,33.0,0.0,4324.615234,4289.615234,4422.692383,4297.307617,4275.0,4275.512695,4310.0,4290.128418,4277.692383,4276.025879,4566.282227,4523.717773,4411.922852,4487.563965,,,,,,,,,,,,,,,,,,,,,,,,,,,,,,,,,,,,,,,,,,,,,,,,,,,,,,,,,,,,,,,,,,,,,,
1769162328.776091,1769162328.776729,34.0,0.0,4322.05127,4287.436035,4416.025879,4291.282227,4272.820313,4278.333496,4308.974121,4290.256348,4278.205078,4275.897461,4566.538574,4521.282227,4410.641113,4491.025879,,,,,,,,,,,,,,,,,,,,,,,,,,,,,,,,,,,,,,,,,,,,,,,,,,,,,,,,,,,,,,,,,,,,,,
1769162328.783899,1769162328.784538,35.0,0.0,4337.307617,4295.769043,4423.589844,4299.487305,4279.743652,4287.820313,4311.538574,4292.179688,4279.230957,4269.871582,4566.025879,4523.974121,4410.769043,4494.615234,,,,,,,,,,,,,,,,,,,,,,,,,,,,,,,,,,,,,,,,,,,,,,,,,,,,,,,,,,,,,,,,,,,,,,
1769162328.791708,1769162328.792146,36.0,0.0,4341.922852,4300.128418,4428.846191,4306.538574,4282.563965,4292.307617,4314.871582,4293.974121,4278.974121,4271.922852,4568.205078,4523.846191,4412.692383,4493.077148,,,,,,,,,,,,,,,,,,,,,,,,,,,,,,,,,,,,,,,,,,,,,,,,,,,,,,,,,,,,,,,,,,,,,,
1769162328.799516,1769162328.799955,37.0,0.0,4341.538574,4294.487305,4426.282227,4302.307617,4279.230957,4288.333496,4312.563965,4292.179688,4278.461426,4278.461426,4570.256348,4523.333496,4412.820313,4491.794922,,,,,,,,,,,,,,,,,,,,,,,,,,,,,,,,,,,,,,,,,,,,,,,,,,,,,,,,,,,,,,,,,,,,,,
1769162328.807325,1769162328.807863,38.0,0.0,4344.487305,4291.410156,4426.922852,4302.94873,4277.563965,4281.666504,4309.871582,4291.794922,4279.743652,4280.897461,4569.102539,4525.128418,4411.153809,4493.974121,,,,,,,,,,,,,,,,,,,,,,,,,,,,,,,,,,,,,,,,,,,,,,,,,,,,,,,,,,,,,,,,,,,,,,
1769162328.815133,1769162328.815672,39.0,0.0,4341.666504,4293.846191,4429.358887,4307.179688,4278.717773,4281.282227,4311.410156,4287.307617,4279.871582,4279.871582,4565.897461,4525.897461,4409.487305,4493.846191,,,,,,,,,,,,,,,,,,,,,,,,,,,,,,,,,,,,,,,,,,,,,,,,,,,,,,,,,,,,,,,,,,,,,,
1769162328.822942,1769162328.82328,40.0,0.0,4339.487305,4291.794922,4429.102539,4304.487305,4279.615234,4280.512695,4312.179688,4280.769043,4279.743652,4279.230957,4565.512695,4527.563965,4409.871582,4493.589844,,,,,,,,,,,,,,,,,,,,,,,,,,,,,,,,,,,,,,,,,,,,,,,,,,,,,,,,,,,,,,,,,,,,,,
1769162328.83075,1769162328.831089,41.0,0.0,4342.179688,4290.641113,4427.820313,4303.077148,4278.717773,4278.205078,4311.666504,4277.94873,4279.230957,4277.692383,4566.025879,4529.230957,4410.897461,4504.743652,,,,,,,,,,,,,,,,,,,,,,,,,,,,,,,,,,,,,,,,,,,,,,,,,,,,,,,,,,,,,,,,,,,,,,
1769162328.838559,1769162328.838797,42.0,0.0,4343.846191,4295.512695,4429.487305,4308.717773,4282.820313,4281.282227,4312.820313,4279.487305,4277.563965,4280.897461,4572.05127,4532.307617,4417.563965,4518.974121,,,,,,,,,,,,,,,,,,,,,,,,,,,,,,,,,,,,,,,,,,,,,,,,,,,,,,,,,,,,,,,,,,,,,,
1769162328.846367,1769162328.846606,43.0,0.0,4343.077148,4296.794922,4437.307617,4310.897461,4287.436035,4282.179688,4312.179688,4282.563965,4281.282227,4282.307617,4581.922852,4540.384766,4428.717773,4525.0,,,,,,,,,,,,,,,,,,,,,,,,,,,,,,,,,,,,,,,,,,,,,,,,,,,,,,,,,,,,,,,,,,,,,,
1769162328.854175,1769162328.854214,44.0,0.0,4347.94873,4295.256348,4443.717773,4310.128418,4284.615234,4275.128418,4309.871582,4282.307617,4284.743652,4277.436035,4586.410156,4543.333496,4430.128418,4527.05127,,,,,,,,,,,,,,,,,,,,,,,,,,,,,,,,,,,,,,,,,,,,,,,,,,,,,,,,,,,,,,,,,,,,,,
1769162328.861984,1769162328.862023,45.0,0.0,4353.846191,4296.538574,4444.615234,4312.563965,4283.846191,4274.871582,4311.153809,4279.230957,4281.538574,4280.897461,4582.692383,4541.025879,4424.102539,4520.769043,,,,,,,,,,,,,,,,,,,,,,,,,,,,,,,,,,,,,,,,,,,,,,,,,,,,,,,,,,,,,,,,,,,,,,
