Timestamp,OriginalTimestamp,EEG.Counter,EEG.Interpolated,EEG.AF3,EEG.F7,EEG.F3,EEG.FC5,EEG.T7,EEG.P7,EEG.O1,EEG.O2,EEG.P8,EEG.T8,EEG.FC6,EEG.F4,EEG.F8,EEG.AF4,POW.AF3.Theta,POW.AF3.Alpha,POW.AF3.BetaL,POW.AF3.BetaH,POW.AF3.Gamma,POW.F7.Theta,POW.F7.Alpha,POW.F7.BetaL,POW.F7.BetaH,POW.F7.Gamma,POW.F3.Theta,POW.F3.Alpha,POW.F3.BetaL,POW.F3.BetaH,POW.F3.Gamma,POW.FC5.Theta,POW.FC5.Alpha,POW.FC5.BetaL,POW.FC5.BetaH,POW.FC5.Gamma,POW.T7.Theta,POW.T7.Alpha,POW.T7.BetaL,POW.T7.BetaH,POW.T7.Gamma,POW.P7.Theta,POW.P7.Alpha,POW.P7.BetaL,POW.P7.BetaH,POW.P7.Gamma,POW.O1.Theta,POW.O1.Alpha,POW.O1.BetaL,POW.O1.BetaH,POW.O1.Gamma,POW.O2.Theta,POW.O2.Alpha,POW.O2.BetaL,POW.O2.BetaH,POW.O2.Gamma,POW.P8.Theta,POW.P8.Alpha,POW.P8.BetaL,POW.P8.BetaH,POW.P8.Gamma,POW.T8.Theta,POW.T8.Alpha,POW.T8.BetaL,POW.T8.BetaH,POW.T8.Gamma,POW.FC6.Theta,POW.FC6.Alpha,POW.FC6.BetaL,POW.FC6.BetaH,POW.FC6.Gamma,POW.F4.Theta,POW.F4.Alpha,POW.F4.BetaL,POW.F4.BetaH,POW.F4.Gamma,POW.F8.Theta,POW.F8.Alpha,POW.F8.BetaL,POW.F8.BetaH,POW.F8.Gamma,POW.AF4.Theta,POW.AF4.Alpha,POW.AF4.BetaL,POW.AF4.BetaH,POW.AF4.Gamma
1769161530.494601,1769161530.494775,73.0,0.0,4308.333496,4297.692383,4319.102539,4322.94873,4250.897461,4260.641113,4278.461426,4294.230957,4278.077148,4280.384766,4570.641113,4539.743652,4426.153809,4508.974121,,,,,,,,,,,,,,,,,,,,,,,,,,,,,,,,,,,,,,,,,,,,,,,,,,,,,,,,,,,,,,,,,,,,,,
1769161530.50241,1769161530.502484,74.0,0.0,4310.0,4293.589844,4323.461426,4322.307617,4251.666504,4264.487305,4278.589844,4283.077148,4262.94873,4269.358887,4561.794922,4528.461426,4412.820313,4504.871582,,,,,,,,,,,,,,,,,,,,,,,,,,,,,,,,,,,,,,,,,,,,,,,,,,,,,,,,,,,,,,,,,,,,,,
1769161530.510218,1769161530.510292,75.0,0.0,4303.333496,4288.333496,4322.436035,4320.897461,4251.282227,4264.743652,4278.333496,4280.384766,4262.94873,4262.436035,4560.897461,4521.794922,4416.410156,4502.179688,,,,,,,,,,,,,,,,,,,,,,,,,,,,,,,,,,,,,,,,,,,,,,,,,,,,,,,,,,,,,,,,,,,,,,
1769161530.518026,1769161530.518301,76.0,0.0,4299.871582,4288.589844,4319.102539,4319.358887,4248.717773,4262.820313,4278.846191,4287.05127,4276.794922,4273.077148,4569.487305,4528.974121,4428.461426,4505.769043,,,,,,,,,,,,,,,,,,,,,,,,,,,,,,,,,,,,,,,,,,,,,,,,,,,,,,,,,,,,,,,,,,,,,,
1769161530.525835,1769161530.526109,77.0,0.0,4299.615234,4289.102539,4320.897461,4318.846191,4248.077148,4262.436035,4281.025879,4292.436035,4279.358887,4282.179688,4573.846191,4537.563965,4428.589844,4508.717773,,,,,,,,,,,,,,,,,,,,,,,,,,,,,,,,,,,,,,,,,,,,,,,,,,,,,,,,,,,,,,,,,,,,,,
1769161530.533643,1769161530.534017,78.0,0.0,4303.974121,4285.641113,4326.282227,4318.974121,4248.974121,4265.641113,4283.589844,4294.615234,4276.794922,4277.563965,4572.94873,4541.410156,4425.641113,4506.538574,0.602645,0.410681,0.395161,0.363692,0.242244,0.375468,0.362827,0.352697,0.207141,0.230009,1.357304,0.245712,0.288705,0.246861,0.138902,0.705835,0.40031,0.317794,0.149667,0.165913,0.233681,0.106841,0.204548,0.093963,0.122931,0.336733,0.380203,0.245548,0.191543,0.125538,0.149282,0.314686,0.365258,0.154999,0.217319,0.441089,0.22496,0.150353,0.158347,0.316034,0.279392,0.085533,0.122621,0.149431,0.239544,0.686903,0.411842,0.311458,0.141576,0.227966,0.900838,0.440248,0.376621,0.260202,0.278068,1.837173,0.290877,0.316818,0.188913,0.292765,1.104183,0.434497,0.341245,0.333751,0.379664,0.948978,0.749877,0.53129,0.410665,0.25832
1769161530.541452,1769161530.541826,79.0,0.0,4311.666504,4288.077148,4327.820313,4318.846191,4250.256348,4269.358887,4281.666504,4296.282227,4279.487305,4277.436035,4577.820313,4544.102539,4430.384766,4510.897461,,,,,,,,,,,,,,,,,,,,,,,,,,,,,,,,,,,,,,,,,,,,,,,,,,,,,,,,,,,,,,,,,,,,,,
1769161530.54926,1769161530.549834,80.0,0.0,4314.358887,4296.410156,4326.538574,4322.436035,4250.769043,4266.410156,4279.615234,4294.230957,4279.230957,4286.538574,4582.563965,4543.333496,4430.769043,4517.692383,,,,,,,,,,,,,,,,,,,,,,,,,,,,,,,,,,,,,,,,,,,,,,,,,,,,,,,,,,,,,,,,,,,,,,
1769161530.557069,1769161530.557643,81.0,0.0,4310.256348,4293.974121,4327.94873,4328.333496,4248.461426,4264.871582,4280.512695,4296.025879,4284.102539,4292.05127,4580.512695,4540.769043,4428.974121,4513.974121,,,,,,,,,,,,,,,,,,,,,,,,,,,,,,,,,,,,,,,,,,,,,,,,,,,,,,,,,,,,,,,,,,,,,,
1769161530.564877,1769161530.565551,82.0,0.0,4304.743652,4282.692383,4327.692383,4322.563965,4245.897461,4263.461426,4279.230957,4295.384766,4288.077148,4288.717773,4574.615234,4538.461426,4431.666504,4502.692383,,,,,,,,,,,,,,,,,,,,,,,,,,,,,,,,,,,,,,,,,,,,,,,,,,,,,,,,,,,,,,,,,,,,,,
1769161530.572686,1769161530.573359,83.0,0.0,4297.563965,4277.94873,4322.179688,4310.769043,4246.666504,4258.717773,4276.666504,4285.384766,4277.436035,4280.384766,4567.436035,4528.589844,4428.589844,4492.05127,,,,,,,,,,,,,,,,,,,,,,,,,,,,,,,,,,,,,,,,,,,,,,,,,,,,,,,,,,,,,,,,,,,,,,
1769161530.580494,1769161530.581368,84.0,0.0,4291.410156,4283.205078,4319.230957,4309.487305,4248.974121,4259.102539,4277.563965,4287.179688,4273.461426,4279.358887,4567.436035,4520.641113,4425.512695,4491.666504,,,,,,,,,,,,,,,,,,,,,,,,,,,,,,,,,,,,,,,,,,,,,,,,,,,,,,,,,,,,,,,,,,,,,,
1769161530.588302,1769161530.589176,85.0,0.0,4295.384766,4291.794922,4319.615234,4314.358887,4248.589844,4264.871582,4277.563965,4295.897461,4281.025879,4283.846191,4572.692383,4525.0,4431.025879,4498.461426,,,,,,,,,,,,,,,,,,,,,,,,,,,,,,,,,,,,,,,,,,,,,,,,,,,,,,,,,,,,,,,,,,,,,,
1769161530.596111,1769161530.596885,86.0,0.0,4298.333496,4294.230957,4317.307617,4313.717773,4247.307617,4270.769043,4280.128418,4292.820313,4280.641113,4278.974121,4571.794922,4524.358887,4428.846191,4496.410156,,,,,,,,,,,,,,,,,,,,,,,,,,,,,,,,,,,,,,,,,,,,,,,,,,,,,,,,,,,,,,,,,,,,,,
1769161530.603919,1769161530.604693,87.0,0.0,4297.563965,4289.615234,4315.0,4310.769043,4249.102539,4272.94873,4288.589844,4289.871582,4278.205078,4274.615234,4565.128418,4519.487305,4419.358887,4490.256348,,,,,,,,,,,,,,,,,,,,,,,,,,,,,,,,,,,,,,,,,,,,,,,,,,,,,,,,,,,,,,,,,,,,,,
1769161530.611728,1769161530.612302,88.0,0.0,4302.563965,4291.538574,4321.538574,4311.922852,4251.538574,4270.512695,4288.333496,4295.641113,4281.922852,4280.128418,4566.153809,4527.94873,4423.077148,4497.563965,,,,,,,,,,,,,,,,,,,,,,,,,,,,,,,,,,,,,,,,,,,,,,,,,,,,,,,,,,,,,,,,,,,,,,
1769161530.619536,1769161530.62011,89.0,0.0,4305.128418,4294.102539,4325.641113,4312.94873,4250.0,4266.538574,4280.512695,4296.410156,4280.897461,4283.846191,4574.487305,4535.128418,4427.05127,4505.0,,,,,,,,,,,,,,,,,,,,,,,,,,,,,,,,,,,,,,,,,,,,,,,,,,,,,,,,,,,,,,,,,,,,,,
1769161530.627345,1769161530.627819,90.0,0.0,4297.692383,4284.230957,4320.384766,4309.871582,4246.538574,4266.153809,4280.256348,4290.897461,4277.307617,4275.897461,4568.077148,4527.692383,4415.769043,4495.512695,,,,,,,,,,,,,,,,,,,,,,,,,,,,,,,,,,,,,,,,,,,,,,,,,,,,,,,,,,,,,,,,,,,,,,
1769161530.635153,1769161530.635627,91.0,0.0,4293.589844,4281.666504,4322.436035,4309.743652,4249.102539,4268.974121,4282.05127,4288.717773,4278.205078,4271.666504,4553.589844,4522.820313,4408.589844,4489.102539,,,,,,,,,,,,,,,,,,,,,,,,,,,,,,,,,,,,,,,,,,,,,,,,,,,,,,,,,,,,,,,,,,,,,,
1769161530.642962,1769161530.643635,92.0,0.0,4297.436035,4287.436035,4327.692383,4307.307617,4252.563965,4269.230957,4281.025879,4290.769043,4277.820313,4274.102539,4557.820313,4525.0,4411.794922,4493.589844,,,,,,,,,,,,,,,,,,,,,,,,,,,,,,,,,,,,,,,,,,,,,,,,,,,,,,,,,,,,,,,,,,,,,,
1769161530.65077,1769161530.651444,93.0,0.0,4296.025879,4281.282227,4321.922852,4299.102539,4249.615234,4268.846191,4282.436035,4295.769043,4274.487305,4261.025879,4568.333496,4525.384766,4412.179688,4493.333496,,,,,,,,,,,,,,,,,,,,,,,,,,,,,,,,,,,,,,,,,,,,,,,,,,,,,,,,,,,,,,,,,,,,,,
1769161530.658579,1769161530.659352,94.0,0.0,4295.256348,4277.05127,4320.384766,4300.384766,4247.179688,4267.307617,4281.153809,4289.358887,4272.94873,4252.563965,4565.769043,4530.128418,4412.820313,4491.666504,0.643956,0.316686,0.417112,0.403781,0.245076,0.442924,0.273841,0.361968,0.208661,0.235843,1.487691,0.231565,0.299447,0.240615,0.148256,0.724064,0.382191,0.338466,0.150622,0.166575,0.189662,0.106835,0.192559,0.094603,0.121259,0.258191,0.364252,0.239864,0.199121,0.133004,0.17592,0.25354,0.334211,0.160683,0.228062,0.413353,0.21884,0.155355,0.156777,0.304557,0.243355,0.080031,0.115635,0.141404,0.230369,0.633307,0.467601,0.348376,0.149954,0.217107,0.886899,0.54699,0.393072,0.297598,0.285615,1.835217,0.335331,0.359485,0.230093,0.307581,1.031991,0.520674,0.342039,0.344522,0.384263,0.986835,0.853301,0.615446,0.404053,0.251326
1769161530.666387,1769161530.667161,95.0,0.0,4302.563965,4283.461426,4326.794922,4308.974121,4248.717773,4265.384766,4277.307617,4277.436035,4274.871582,4271.922852,4561.666504,4538.077148,4415.897461,4495.384766,,,,,,,,,,,,,,,,,,,,,,,,,,,,,,,,,,,,,,,,,,,,,,,,,,,,,,,,,,,,,,,,,,,,,,
1769161530.674195,1769161530.674769,96.0,0.0,4306.666504,4282.05127,4323.589844,4306.282227,4249.230957,4261.666504,4277.179688,4279.615234,4274.487305,4284.871582,4564.487305,4538.205078,4413.717773,4497.05127,,,,,,,,,,,,,,,,,,,,,,,,,,,,,,,,,,,,,,,,,,,,,,,,,,,,,,,,,,,,,,,,,,,,,,
1769161530.682004,1769161530.682578,97.0,0.0,4303.974121,4277.05127,4319.358887,4300.384766,4247.820313,4260.128418,4278.205078,4289.487305,4275.256348,4275.897461,4568.974121,4538.461426,4412.692383,4495.384766,,,,,,,,,,,,,,,,,,,,,,,,,,,,,,,,,,,,,,,,,,,,,,,,,,,,,,,,,,,,,,,,,,,,,,
1769161530.689812,1769161530.690286,98.0,0.0,4298.589844,4279.487305,4325.128418,4302.563965,4248.717773,4266.282227,4279.358887,4291.538574,4277.563965,4275.0,4570.897461,4538.077148,4415.769043,4492.692383,,,,,,,,,,,,,,,,,,,,,,,,,,,,,,,,,,,,,,,,,,,,,,,,,,,,,,,,,,,,,,,,,,,,,,
1769161530.697621,1769161530.698095,99.0,0.0,4293.717773,4281.922852,4324.102539,4305.641113,4249.871582,4267.692383,4278.589844,4281.922852,4270.128418,4276.282227,4561.410156,4525.897461,4411.794922,4488.333496,,,,,,,,,,,,,,,,,,,,,,,,,,,,,,,,,,,,,,,,,,,,,,,,,,,,,,,,,,,,,,,,,,,,,,
1769161530.705429,1769161530.705703,100.0,0.0,4294.871582,4281.794922,4317.436035,4308.205078,4247.692383,4264.487305,4278.205078,4279.358887,4264.487305,4262.436035,4552.436035,4520.384766,4404.487305,4487.179688,,,,,,,,,,,,,,,,,,,,,,,,,,,,,,,,,,,,,,,,,,,,,,,,,,,,,,,,,,,,,,,,,,,,,,
1769161530.713238,1769161530.713512,101.0,0.0,4301.922852,4283.205078,4322.820313,4311.025879,4245.769043,4269.102539,4280.641113,4288.461426,4273.589844,4260.0,4559.487305,4534.871582,4408.974121,4491.666504,,,,,,,,,,,,,,,,,,,,,,,,,,,,,,,,,,,,,,,,,,,,,,,,,,,,,,,,,,,,,,,,,,,,,,
1769161530.721046,1769161530.72142,102.0,0.0,4306.025879,4286.666504,4328.461426,4311.153809,4248.846191,4278.333496,4281.538574,4291.025879,4278.717773,4268.205078,4560.769043,4535.769043,4414.230957,4491.282227,,,,,,,,,,,,,,,,,,,,,,,,,,,,,,,,,,,,,,,,,,,,,,,,,,,,,,,,,,,,,,,,,,,,,,
1769161530.728855,1769161530.729229,103.0,0.0,4306.410156,4290.769043,4323.846191,4312.179688,4253.205078,4279.743652,4280.256348,4288.333496,4274.230957,4270.897461,4554.230957,4523.077148,4411.794922,4487.307617,,,,,,,,,,,,,,,,,,,,,,,,,,,,,,,,,,,,,,,,,,,,,,,,,,,,,,,,,,,,,,,,,,,,,,
1769161530.736663,1769161530.737237,104.0,0.0,4303.974121,4291.538574,4324.230957,4313.333496,4253.589844,4275.512695,4280.769043,4291.538574,4276.025879,4274.487305,4560.0,4526.922852,4410.384766,4489.871582,,,,,,,,,,,,,,,,,,,,,,,,,,,,,,,,,,,,,,,,,,,,,,,,,,,,,,,,,,,,,,,,,,,,,,
1769161530.744471,1769161530.745045,105.0,0.0,4295.641113,4283.589844,4328.205078,4311.153809,4253.077148,4274.487305,4282.563965,4297.307617,4280.128418,4269.358887,4563.846191,4530.769043,4407.436035,4492.94873,,,,,,,,,,,,,,,,,,,,,,,,,,,,,,,,,,,,,,,,,,,,,,,,,,,,,,,,,,,,,,,,,,,,,,
1769161530.75228,1769161530.752954,106.0,0.0,4292.179688,4278.333496,4323.846191,4309.102539,4252.307617,4274.615234,4282.94873,4296.153809,4279.230957,4260.641113,4556.025879,4522.563965,4403.846191,4489.358887,,,,,,,,,,,,,,,,,,,,,,,,,,,,,,,,,,,,,,,,,,,,,,,,,,,,,,,,,,,,,,,,,,,,,,
1769161530.760089,1769161530.760762,107.0,0.0,4301.153809,4286.922852,4324.743652,4309.743652,4250.769043,4273.205078,4279.358887,4289.487305,4277.05127,4263.974121,4557.05127,4527.436035,4410.256348,4490.512695,,,,,,,,,,,,,,,,,,,,,,,,,,,,,,,,,,,,,,,,,,,,,,,,,,,,,,,,,,,,,,,,,,,,,,
1769161530.767897,1769161530.76877,108.0,0.0,4309.743652,4291.666504,4332.307617,4310.641113,4251.922852,4271.538574,4275.0,4280.641113,4272.94873,4269.487305,4565.0,4539.615234,4416.538574,4499.102539,,,,,,,,,,,,,,,,,,,,,,,,,,,,,,,,,,,,,,,,,,,,,,,,,,,,,,,,,,,,,,,,,,,,,,
1769161530.775705,1769161530.776579,109.0,0.0,4307.179688,4283.974121,4330.128418,4311.282227,4253.077148,4273.205078,4277.820313,4280.641113,4274.102539,4271.538574,4567.94873,4537.05127,4414.871582,4499.871582,,,,,,,,,,,,,,,,,,,,,,,,,,,,,,,,,,,,,,,,,,,,,,,,,,,,,,,,,,,,,,,,,,,,,,
1769161530.783514,1769161530.784287,110.0,0.0,4300.128418,4279.358887,4324.487305,4311.538574,4251.153809,4277.436035,4283.333496,4290.897461,4279.230957,4276.922852,4565.897461,4531.922852,4412.563965,4492.436035,0.664795,0.241085,0.411477,0.46896,0.248465,0.485052,0.204899,0.341438,0.218429,0.23308,1.509689,0.222602,0.285769,0.236537,0.163843,0.688308,0.351767,0.335565,0.146738,0.15993,0.148839,0.108244,0.17226,0.092557,0.12494,0.192797,0.340359,0.215298,0.204209,0.139659,0.192945,0.222557,0.283063,0.161572,0.238804,0.374853,0.212557,0.166689,0.151022,0.28846,0.197642,0.080442,0.106762,0.13082,0.206242,0.545992,0.490516,0.359944,0.183266,0.211352,0.80817,0.60858,0.386633,0.387922,0.279762,1.687639,0.399466,0.372807,0.296411,0.302247,0.911649,0.583392,0.344511,0.411309,0.372449,1.025316,0.90675,0.65011,0.42313,0.23908
1769161530.791322,1769161530.792096,111.0,0.0,4293.205078,4275.897461,4325.256348,4308.205078,4249.230957,4276.153809,4282.563965,4295.769043,4278.205078,4276.922852,4559.615234,4533.589844,4407.307617,4488.461426,,,,,,,,,,,,,,,,,,,,,,,,,,,,,,,,,,,,,,,,,,,,,,,,,,,,,,,,,,,,,,,,,,,,,,
1769161530.799131,1769161530.800104,112.0,0.0,4291.153809,4271.025879,4325.641113,4305.0,4249.743652,4271.922852,4280.384766,4293.205078,4276.410156,4270.0,4559.230957,4536.025879,4404.230957,4489.615234,,,,,,,,,,,,,,,,,,,,,,,,,,,,,,,,,,,,,,,,,,,,,,,,,,,,,,,,,,,,,,,,,,,,,,
1769161530.806939,1769161530.807912,113.0,0.0,4294.487305,4277.179688,4327.436035,4307.436035,4251.410156,4272.05127,4279.358887,4290.384766,4278.846191,4275.641113,4569.230957,4539.743652,4411.794922,4493.589844,,,,,,,,,,,,,,,,,,,,,,,,,,,,,,,,,,,,,,,,,,,,,,,,,,,,,,,,,,,,,,,,,,,,,,
1769161530.814748,1769161530.815621,114.0,0.0,4296.538574,4282.563965,4329.230957,4311.153809,4251.410156,4275.769043,4280.897461,4294.743652,4280.641113,4279.230957,4571.794922,4541.538574,4416.153809,4494.358887,,,,,,,,,,,,,,,,,,,,,,,,,,,,,,,,,,,,,,,,,,,,,,,,,,,,,,,,,,,,,,,,,,,,,,
1769161530.822556,1769161530.823429,115.0,0.0,4298.461426,4281.282227,4326.922852,4311.410156,4249.358887,4276.282227,4283.333496,4297.94873,4278.846191,4272.692383,4564.743652,4539.102539,4411.410156,4490.384766,,,,,,,,,,,,,,,,,,,,,,,,,,,,,,,,,,,,,,,,,,,,,,,,,,,,,,,,,,,,,,,,,,,,,,
1769161530.830365,1769161530.831038,116.0,0.0,4303.077148,4287.820313,4329.230957,4311.153809,4248.974121,4274.487305,4280.256348,4292.820313,4277.692383,4273.077148,4566.025879,4537.820313,4414.871582,4495.0,,,,,,,,,,,,,,,,,,,,,,,,,,,,,,,,,,,,,,,,,,,,,,,,,,,,,,,,,,,,,,,,,,,,,,
1769161530.838173,1769161530.838846,117.0,0.0,4307.307617,4291.025879,4333.717773,4312.563965,4252.820313,4277.307617,4280.384766,4294.358887,4278.333496,4273.717773,4573.205078,4540.512695,4424.487305,4505.128418,,,,,,,,,,,,,,,,,,,,,,,,,,,,,,,,,,,,,,,,,,,,,,,,,,,,,,,,,,,,,,,,,,,,,,
1769161530.845981,1769161530.846755,118.0,0.0,4302.05127,4282.179688,4329.230957,4312.179688,4252.05127,4280.384766,4281.794922,4294.487305,4274.102539,4267.820313,4572.94873,4541.538574,4421.025879,4498.461426,,,,,,,,,,,,,,,,,,,,,,,,,,,,,,,,,,,,,,,,,,,,,,,,,,,,,,,,,,,,,,,,,,,,,,
1769161530.85379,1769161530.854563,119.0,0.0,4294.615234,4279.358887,4323.077148,4308.974121,4248.846191,4276.538574,4274.487305,4283.205078,4264.743652,4265.256348,4566.922852,4536.025879,4410.384766,4487.820313,,,,,,,,,,,,,,,,,,,,,,,,,,,,,,,,,,,,,,,,,,,,,,,,,,,,,,,,,,,,,,,,,,,,,,
1769161530.861598,1769161530.862572,120.0,0.0,4299.230957,4287.820313,4327.94873,4311.410156,4255.128418,4272.820313,4269.871582,4281.025879,4263.846191,4273.077148,4568.333496,4537.692383,4412.436035,4498.205078,,,,,,,,,,,,,,,,,,,,,,,,,,,,,,,,,,,,,,,,,,,,,,,,,,,,,,,,,,,,,,,,,,,,,,
1769161530.869407,1769161530.87038,121.0,0.0,4306.538574,4293.077148,4334.743652,4318.077148,4264.358887,4276.410156,4275.384766,4288.974121,4272.563965,4279.615234,4576.410156,4546.410156,4424.487305,4511.794922,,,,,,,,,,,,,,,,,,,,,,,,,,,,,,,,,,,,,,,,,,,,,,,,,,,,,,,,,,,,,,,,,,,,,,
1769161530.877215,1769161530.878089,122.0,0.0,4303.205078,4287.820313,4329.743652,4314.871582,4262.692383,4279.615234,4278.846191,4288.589844,4276.538574,4277.820313,4576.025879,4545.128418,4427.692383,4508.974121,,,,,,,,,,,,,,,,,,,,,,,,,,,,,,,,,,,,,,,,,,,,,,,,,,,,,,,,,,,,,,,,,,,,,,
1769161530.885024,1769161530.885897,123.0,0.0,4295.897461,4280.641113,4321.282227,4307.94873,4257.692383,4278.333496,4277.436035,4288.461426,4277.179688,4277.05127,4570.897461,4537.94873,4425.384766,4505.0,,,,,,,,,,,,,,,,,,,,,,,,,,,,,,,,,,,,,,,,,,,,,,,,,,,,,,,,,,,,,,,,,,,,,,
1769161530.892832,1769161530.893506,124.0,0.0,4294.743652,4280.641113,4320.897461,4309.230957,4260.384766,4277.692383,4278.717773,4293.205078,4278.461426,4277.820313,4570.512695,4537.563965,4427.820313,4504.230957,,,,,,,,,,,,,,,,,,,,,,,,,,,,,,,,,,,,,,,,,,,,,,,,,,,,,,,,,,,,,,,,,,,,,,
1769161530.900641,1769161530.901314,125.0,0.0,4295.769043,4282.179688,4323.846191,4311.153809,4262.179688,4277.436035,4279.230957,4291.922852,4276.538574,4275.0,4571.282227,4539.487305,4426.666504,4497.179688,,,,,,,,,,,,,,,,,,,,,,,,,,,,,,,,,,,,,,,,,,,,,,,,,,,,,,,,,,,,,,,,,,,,,,
1769161530.908449,1769161530.909023,126.0,0.0,4292.436035,4276.538574,4323.333496,4308.846191,4262.307617,4282.692383,4281.282227,4293.205078,4279.230957,4274.230957,4569.615234,4538.717773,4416.666504,4489.358887,0.705576,0.202137,0.377579,0.566998,0.247377,0.496954,0.169431,0.300926,0.238877,0.222851,1.442134,0.216975,0.256109,0.232262,0.180163,0.614978,0.308334,0.309158,0.138536,0.146433,0.123965,0.112215,0.151623,0.090669,0.131758,0.150819,0.305751,0.183679,0.205786,0.144411,0.194105,0.211631,0.231931,0.158467,0.245849,0.327881,0.202501,0.187993,0.14908,0.273091,0.172046,0.081875,0.100424,0.129368,0.175806,0.47152,0.465272,0.345545,0.247025,0.210585,0.747948,0.608398,0.358255,0.530812,0.262897,1.497912,0.464258,0.361864,0.388168,0.279119,0.840104,0.603724,0.341028,0.536825,0.350193,1.131405,0.898166,0.62554,0.467438,0.226936
1769161530.916258,1769161530.916831,127.0,0.0,4288.461426,4273.333496,4324.615234,4309.230957,4265.641113,4291.666504,4285.256348,4299.102539,4286.282227,4277.436035,4569.358887,4538.846191,4408.461426,4488.333496,,,,,,,,,,,,,,,,,,,,,,,,,,,,,,,,,,,,,,,,,,,,,,,,,,,,,,,,,,,,,,,,,,,,,,
1769161530.924066,1769161530.924839,0.0,0.0,4291.153809,4277.94873,4326.922852,4310.128418,4259.102539,4287.179688,4282.179688,4297.94873,4285.769043,4283.333496,4571.666504,4540.256348,4415.512695,4488.846191,,,,,,,,,,,,,,,,,,,,,,,,,,,,,,,,,,,,,,,,,,,,,,,,,,,,,,,,,,,,,,,,,,,,,,
1769161530.931874,1769161530.932648,1.0,0.0,4301.282227,4284.230957,4328.589844,4313.589844,4250.256348,4275.128418,4278.333496,4293.077148,4278.461426,4280.641113,4572.94873,4540.641113,4427.692383,4492.307617,,,,,,,,,,,,,,,,,,,,,,,,,,,,,,,,,,,,,,,,,,,,,,,,,,,,,,,,,,,,,,,,,,,,,,
1769161530.939683,1769161530.940556,2.0,0.0,4305.641113,4283.974121,4330.384766,4318.333496,4255.128418,4276.025879,4278.589844,4292.307617,4276.794922,4268.717773,4573.205078,4540.897461,4425.512695,4498.077148,,,,,,,,,,,,,,,,,,,,,,,,,,,,,,,,,,,,,,,,,,,,,,,,,,,,,,,,,,,,,,,,,,,,,,
1769161530.947491,1769161530.948365,3.0,0.0,4303.333496,4279.871582,4327.05127,4315.256348,4261.794922,4281.025879,4277.436035,4294.102539,4280.512695,4268.205078,4572.436035,4540.641113,4416.153809,4500.384766,,,,,,,,,,,,,,,,,,,,,,,,,,,,,,,,,,,,,,,,,,,,,,,,,,,,,,,,,,,,,,,,,,,,,,
1769161530.9553,1769161530.956373,4.0,0.0,4305.256348,4283.589844,4325.128418,4313.333496,4257.563965,4276.922852,4276.153809,4288.974121,4281.025879,4276.538574,4570.641113,4540.512695,4420.256348,4502.692383,,,,,,,,,,,,,,,,,,,,,,,,,,,,,,,,,,,,,,,,,,,,,,,,,,,,,,,,,,,,,,,,,,,,,,
1769161530.963108,1769161530.964181,5.0,0.0,4310.897461,4290.641113,4333.333496,4323.846191,4257.436035,4273.461426,4279.230957,4280.0,4276.153809,4277.05127,4569.487305,4540.0,4428.717773,4506.794922,,,,,,,,,,,,,,,,,,,,,,,,,,,,,,,,,,,,,,,,,,,,,,,,,,,,,,,,,,,,,,,,,,,,,,
1769161530.970917,1769161530.97189,6.0,0.0,4311.538574,4291.666504,4339.487305,4328.846191,4261.410156,4276.282227,4280.512695,4281.794922,4275.0,4274.743652,4570.384766,4541.922852,4424.358887,4508.077148,,,,,,,,,,,,,,,,,,,,,,,,,,,,,,,,,,,,,,,,,,,,,,,,,,,,,,,,,,,,,,,,,,,,,,
1769161530.978725,1769161530.979698,7.0,0.0,4307.692383,4285.256348,4330.256348,4315.641113,4259.871582,4279.871582,4283.717773,4290.769043,4278.717773,4279.230957,4569.871582,4540.769043,4421.538574,4505.641113,,,,,,,,,,,,,,,,,,,,,,,,,,,,,,,,,,,,,,,,,,,,,,,,,,,,,,,,,,,,,,,,,,,,,,
1769161530.986534,1769161530.987307,8.0,0.0,4306.025879,4278.205078,4320.769043,4306.922852,4260.897461,4280.256348,4289.743652,4292.820313,4278.717773,4278.205078,4570.256348,4538.333496,4427.436035,4505.897461,,,,,,,,,,,,,,,,,,,,,,,,,,,,,,,,,,,,,,,,,,,,,,,,,,,,,,,,,,,,,,,,,,,,,,
1769161530.994342,1769161530.995115,9.0,0.0,4309.615234,4282.05127,4327.820313,4315.512695,4261.922852,4275.128418,4286.410156,4293.205078,4281.410156,4277.692383,4578.589844,4547.436035,4429.230957,4509.743652,,,,,,,,,,,,,,,,,,,,,,,,,,,,,,,,,,,,,,,,,,,,,,,,,,,,,,,,,,,,,,,,,,,,,,
1769161531.00215,1769161531.002824,10.0,0.0,4312.820313,4287.692383,4335.128418,4322.307617,4259.102539,4274.487305,4284.487305,4295.897461,4282.179688,4282.563965,4582.179688,4553.205078,4426.922852,4511.025879,,,,,,,,,,,,,,,,,,,,,,,,,,,,,,,,,,,,,,,,,,,,,,,,,,,,,,,,,,,,,,,,,,,,,,
1769161531.009959,1769161531.010632,11.0,0.0,4307.05127,4283.333496,4328.333496,4320.512695,4260.384766,4280.769043,4284.230957,4288.205078,4269.743652,4270.769043,4573.589844,4541.153809,4426.410156,4507.436035,,,,,,,,,,,,,,,,,,,,,,,,,,,,,,,,,,,,,,,,,,,,,,,,,,,,,,,,,,,,,,,,,,,,,,
1769161531.017767,1769161531.018241,12.0,0.0,4303.077148,4281.410156,4325.0,4320.128418,4265.897461,4278.974121,4273.846191,4279.743652,4267.692383,4260.0,4570.897461,4534.102539,4427.179688,4507.307617,,,,,,,,,,,,,,,,,,,,,,,,,,,,,,,,,,,,,,,,,,,,,,,,,,,,,,,,,,,,,,,,,,,,,,
1769161531.025576,1769161531.026049,13.0,0.0,4314.230957,4290.897461,4335.128418,4324.871582,4267.820313,4272.94873,4269.487305,4284.487305,4279.743652,4271.153809,4574.871582,4541.410156,4426.922852,4510.641113,,,,,,,,,,,,,,,,,,,,,,,,,,,,,,,,,,,,,,,,,,,,,,,,,,,,,,,,,,,,,,,,,,,,,,
1769161531.033384,1769161531.033758,14.0,0.0,4322.179688,4294.230957,4337.179688,4325.256348,4267.05127,4278.974121,4278.333496,4286.666504,4273.077148,4286.282227,4571.538574,4542.307617,4425.641113,4504.230957,0.78824,0.202242,0.323606,0.694373,0.237077,0.484292,0.171974,0.255556,0.267685,0.208401,1.330546,0.214046,0.222931,0.223518,0.19121,0.528098,0.257365,0.266038,0.127728,0.12899,0.114809,0.117951,0.135969,0.090234,0.137274,0.135878,0.265922,0.159241,0.204855,0.146035,0.176654,0.210651,0.199375,0.151816,0.244371,0.285292,0.192617,0.216706,0.156991,0.260085,0.191654,0.083871,0.102656,0.145706,0.149638,0.455582,0.404284,0.32598,0.338655,0.213597,0.784434,0.550547,0.318826,0.698881,0.240843,1.376418,0.50931,0.342452,0.494745,0.24595,0.889026,0.57822,0.325661,0.698088,0.324598,1.324371,0.837086,0.554922,0.523397,0.218973
1769161531.041193,1769161531.041566,15.0,0.0,4314.743652,4291.153809,4326.666504,4320.256348,4266.922852,4280.0,4280.256348,4279.487305,4259.615234,4281.538574,4567.692383,4539.230957,4421.794922,4495.512695,,,,,,,,,,,,,,,,,,,,,,,,,,,,,,,,,,,,,,,,,,,,,,,,,,,,,,,,,,,,,,,,,,,,,,
1769161531.049001,1769161531.049575,16.0,0.0,4305.512695,4287.820313,4323.205078,4317.307617,4264.871582,4267.179688,4272.563965,4277.563965,4261.922852,4265.641113,4567.179688,4539.871582,4413.461426,4493.205078,,,,,,,,,,,,,,,,,,,,,,,,,,,,,,,,,,,,,,,,,,,,,,,,,,,,,,,,,,,,,,,,,,,,,,
1769161531.05681,1769161531.057383,17.0,0.0,4306.410156,4282.692383,4326.410156,4320.769043,4262.692383,4265.897461,4268.461426,4280.128418,4263.974121,4262.820313,4565.769043,4536.538574,4413.717773,4493.333496,,,,,,,,,,,,,,,,,,,,,,,,,,,,,,,,,,,,,,,,,,,,,,,,,,,,,,,,,,,,,,,,,,,,,,
1769161531.064618,1769161531.065291,18.0,0.0,4311.666504,4281.153809,4326.922852,4320.641113,4263.205078,4275.0,4270.641113,4278.974121,4262.692383,4276.282227,4568.077148,4537.94873,4424.615234,4494.230957,,,,,,,,,,,,,,,,,,,,,,,,,,,,,,,,,,,,,,,,,,,,,,,,,,,,,,,,,,,,,,,,,,,,,,
1769161531.072426,1769161531.0731,19.0,0.0,4308.974121,4281.794922,4325.128418,4311.410156,4264.871582,4278.589844,4277.692383,4279.487305,4265.256348,4281.794922,4565.769043,4536.410156,4422.820313,4492.94873,,,,,,,,,,,,,,,,,,,,,,,,,,,,,,,,,,,,,,,,,,,,,,,,,,,,,,,,,,,,,,,,,,,,,,
1769161531.080235,1769161531.081108,20.0,0.0,4300.128418,4280.384766,4328.589844,4310.769043,4266.282227,4279.743652,4280.384766,4281.794922,4265.641113,4267.307617,4560.641113,4527.05127,4412.179688,4490.128418,,,,,,,,,,,,,,,,,,,,,,,,,,,,,,,,,,,,,,,,,,,,,,,,,,,,,,,,,,,,,,,,,,,,,,
1769161531.088043,1769161531.088917,21.0,0.0,4296.410156,4280.769043,4332.05127,4322.05127,4267.179688,4281.922852,4277.820313,4281.538574,4268.333496,4264.615234,4567.179688,4526.538574,4412.94873,4491.922852,,,,,,,,,,,,,,,,,,,,,,,,,,,,,,,,,,,,,,,,,,,,,,,,,,,,,,,,,,,,,,,,,,,,,,
1769161531.095852,1769161531.096825,22.0,0.0,4296.025879,4281.538574,4327.563965,4322.820313,4267.179688,4280.0,4278.974121,4279.487305,4269.102539,4275.769043,4566.410156,4529.487305,4414.102539,4493.717773,,,,,,,,,,,,,,,,,,,,,,,,,,,,,,,,,,,,,,,,,,,,,,,,,,,,,,,,,,,,,,,,,,,,,,
1769161531.10366,1769161531.104633,23.0,0.0,4292.94873,4279.230957,4326.538574,4311.922852,4266.282227,4277.820313,4278.846191,4278.846191,4266.153809,4272.692383,4553.589844,4523.333496,4410.512695,4489.102539,,,,,,,,,,,,,,,,,,,,,,,,,,,,,,,,,,,,,,,,,,,,,,,,,,,,,,,,,,,,,,,,,,,,,,
1769161531.111469,1769161531.112642,24.0,0.0,4295.384766,4279.102539,4336.410156,4310.256348,4267.436035,4280.256348,4278.717773,4282.820313,4272.563965,4268.205078,4556.922852,4523.589844,4410.641113,4487.05127,,,,,,,,,,,,,,,,,,,,,,,,,,,,,,,,,,,,,,,,,,,,,,,,,,,,,,,,,,,,,,,,,,,,,,
1769161531.119277,1769161531.12045,25.0,0.0,4298.974121,4281.025879,4337.94873,4314.230957,4268.846191,4282.820313,4281.666504,4289.230957,4277.94873,4267.820313,4565.897461,4527.05127,4405.897461,4488.846191,,,,,,,,,,,,,,,,,,,,,,,,,,,,,,,,,,,,,,,,,,,,,,,,,,,,,,,,,,,,,,,,,,,,,,
1769161531.127086,1769161531.128358,26.0,0.0,4295.641113,4277.307617,4327.307617,4311.410156,4265.641113,4282.94873,4282.436035,4293.461426,4277.563965,4260.512695,4557.05127,4524.230957,4401.538574,4488.717773,,,,,,,,,,,,,,,,,,,,,,,,,,,,,,,,,,,,,,,,,,,,,,,,,,,,,,,,,,,,,,,,,,,,,,
1769161531.134894,1769161531.136167,27.0,0.0,4295.384766,4277.179688,4326.922852,4313.589844,4261.794922,4280.0,4279.615234,4288.846191,4277.05127,4266.410156,4553.333496,4528.205078,4409.871582,4489.743652,,,,,,,,,,,,,,,,,,,,,,,,,,,,,,,,,,,,,,,,,,,,,,,,,,,,,,,,,,,,,,,,,,,,,,
1769161531.142703,1769161531.144175,28.0,0.0,4297.307617,4283.974121,4335.641113,4320.769043,4262.94873,4278.461426,4276.922852,4278.589844,4268.846191,4281.794922,4562.436035,4531.538574,4415.128418,4491.410156,,,,,,,,,,,,,,,,,,,,,,,,,,,,,,,,,,,,,,,,,,,,,,,,,,,,,,,,,,,,,,,,,,,,,,
1769161531.150511,1769161531.151984,29.0,0.0,4297.820313,4286.922852,4338.717773,4323.461426,4265.641113,4280.0,4279.230957,4277.436035,4267.563965,4274.230957,4567.179688,4532.436035,4412.820313,4491.153809,,,,,,,,,,,,,,,,,,,,,,,,,,,,,,,,,,,,,,,,,,,,,,,,,,,,,,,,,,,,,,,,,,,,,,
1769161531.15832,1769161531.159692,30.0,0.0,4301.794922,4281.282227,4337.692383,4323.205078,4264.358887,4278.205078,4278.077148,4283.589844,4277.563965,4262.94873,4565.0,4535.512695,4410.769043,4491.666504,0.923254,0.234906,0.263801,0.831253,0.217028,0.468554,0.212022,0.215342,0.29873,0.193542,1.232611,0.214308,0.196383,0.207173,0.193345,0.457835,0.208318,0.217011,0.117122,0.111881,0.125068,0.123512,0.125789,0.090668,0.137636,0.14301,0.232693,0.150075,0.202468,0.143665,0.146115,0.21127,0.190461,0.141744,0.231094,0.250879,0.195566,0.244274,0.175152,0.248039,0.259943,0.090758,0.115505,0.178588,0.135497,0.513326,0.335929,0.321022,0.444286,0.218909,0.935121,0.455566,0.283112,0.844551,0.220529,1.376449,0.518542,0.331017,0.593317,0.212245,1.053962,0.515512,0.296826,0.851781,0.301578,1.563596,0.750642,0.469659,0.569159,0.21631
1769161531.166128,1769161531.167501,31.0,0.0,4302.692383,4276.538574,4336.538574,4321.666504,4261.794922,4274.743652,4269.358887,4280.512695,4272.05127,4271.538574,4559.743652,4530.897461,4407.436035,4490.256348,,,,,,,,,,,,,,,,,,,,,,,,,,,,,,,,,,,,,,,,,,,,,,,,,,,,,,,,,,,,,,,,,,,,,,
1769161531.173936,1769161531.175109,32.0,0.0,4300.769043,4283.846191,4338.461426,4321.794922,4262.820313,4275.0,4266.410156,4275.641113,4264.102539,4280.384766,4560.384766,4528.205078,4407.820313,4490.641113,,,,,,,,,,,,,,,,,,,,,,,,,,,,,,,,,,,,,,,,,,,,,,,,,,,,,,,,,,,,,,,,,,,,,,
1769161531.181745,1769161531.182918,33.0,0.0,4305.641113,4289.358887,4342.820313,4325.512695,4264.871582,4280.0,4276.538574,4281.282227,4276.538574,4277.563965,4570.128418,4536.794922,4413.461426,4496.666504,,,,,,,,,,,,,,,,,,,,,,,,,,,,,,,,,,,,,,,,,,,,,,,,,,,,,,,,,,,,,,,,,,,,,,
1769161531.189553,1769161531.190626,34.0,0.0,4311.922852,4284.743652,4345.128418,4326.794922,4264.871582,4280.641113,4278.333496,4284.230957,4283.589844,4278.205078,4573.589844,4541.794922,4417.436035,4497.05127,,,,,,,,,,,,,,,,,,,,,,,,,,,,,,,,,,,,,,,,,,,,,,,,,,,,,,,,,,,,,,,,,,,,,,
1769161531.197362,1769161531.198435,35.0,0.0,4310.897461,4282.94873,4343.333496,4321.794922,4264.102539,4269.230957,4269.871582,4279.487305,4275.769043,4278.717773,4566.794922,4536.153809,4416.282227,4493.077148,,,,,,,,,,,,,,,,,,,,,,,,,,,,,,,,,,,,,,,,,,,,,,,,,,,,,,,,,,,,,,,,,,,,,,
1769161531.20517,1769161531.206043,36.0,0.0,4308.974121,4287.563965,4341.025879,4318.077148,4264.743652,4264.487305,4272.94873,4277.692383,4276.153809,4265.769043,4564.487305,4533.205078,4413.333496,4497.563965,,,,,,,,,,,,,,,,,,,,,,,,,,,,,,,,,,,,,,,,,,,,,,,,,,,,,,,,,,,,,,,,,,,,,,
1769161531.212979,1769161531.213852,37.0,0.0,4308.974121,4291.153809,4341.666504,4320.769043,4265.256348,4276.282227,4275.384766,4279.871582,4276.922852,4263.974121,4570.256348,4534.230957,4419.487305,4507.94873,,,,,,,,,,,,,,,,,,,,,,,,,,,,,,,,,,,,,,,,,,,,,,,,,,,,,,,,,,,,,,,,,,,,,,
1769161531.220787,1769161531.22156,38.0,0.0,4309.230957,4291.666504,4342.436035,4323.589844,4264.871582,4281.794922,4268.717773,4278.717773,4272.436035,4280.128418,4572.692383,4539.615234,4429.743652,4511.794922,,,,,,,,,,,,,,,,,,,,,,,,,,,,,,,,,,,,,,,,,,,,,,,,,,,,,,,,,,,,,,,,,,,,,,
1769161531.228596,1769161531.229369,39.0,0.0,4307.692383,4290.897461,4334.743652,4318.974121,4266.025879,4275.641113,4271.538574,4277.179688,4274.487305,4279.102539,4569.871582,4538.589844,4423.846191,4502.563965,,,,,,,,,,,,,,,,,,,,,,,,,,,,,,,,,,,,,,,,,,,,,,,,,,,,,,,,,,,,,,,,,,,,,,
1769161531.236404,1769161531.236977,40.0,0.0,4304.230957,4287.563965,4328.846191,4315.0,4266.410156,4276.153809,4280.384766,4279.743652,4278.974121,4269.615234,4566.410156,4526.922852,4410.512695,4489.615234,,,,,,,,,,,,,,,,,,,,,,,,,,,,,,,,,,,,,,,,,,,,,,,,,,,,,,,,,,,,,,,,,,,,,,
1769161531.244213,1769161531.244786,41.0,0.0,4305.512695,4290.512695,4336.025879,4321.922852,4264.230957,4278.461426,4278.205078,4281.153809,4279.615234,4276.922852,4563.205078,4523.461426,4409.358887,4489.358887,,,,,,,,,,,,,,,,,,,,,,,,,,,,,,,,,,,,,,,,,,,,,,,,,,,,,,,,,,,,,,,,,,,,,,
1769161531.252021,1769161531.252694,42.0,0.0,4305.384766,4294.871582,4337.307617,4328.333496,4265.512695,4275.128418,4268.077148,4278.717773,4278.077148,4276.794922,4557.05127,4525.384766,4408.333496,4490.128418,,,,,,,,,,,,,,,,,,,,,,,,,,,,,,,,,,,,,,,,,,,,,,,,,,,,,,,,,,,,,,,,,,,,,,
1769161531.259829,1769161531.260503,43.0,0.0,4298.846191,4293.717773,4327.179688,4324.358887,4268.846191,4277.05127,4262.94873,4277.179688,4276.153809,4264.102539,4554.487305,4521.794922,4402.563965,4478.589844,,,,,,,,,,,,,,,,,,,,,,,,,,,,,,,,,,,,,,,,,,,,,,,,,,,,,,,,,,,,,,,,,,,,,,
1769161531.267638,1769161531.268511,44.0,0.0,4293.717773,4291.025879,4324.743652,4316.666504,4268.846191,4280.128418,4269.358887,4278.077148,4274.871582,4265.384766,4557.436035,4521.922852,4403.589844,4473.974121,,,,,,,,,,,,,,,,,,,,,,,,,,,,,,,,,,,,,,,,,,,,,,,,,,,,,,,,,,,,,,,,,,,,,,
1769161531.275446,1769161531.276319,45.0,0.0,4290.897461,4285.0,4324.102539,4310.256348,4266.153809,4280.512695,4277.436035,4278.077148,4276.410156,4266.794922,4556.922852,4518.974121,4402.436035,4477.307617,,,,,,,,,,,,,,,,,,,,,,,,,,,,,,,,,,,,,,,,,,,,,,,,,,,,,,,,,,,,,,,,,,,,,,
1769161531.283255,1769161531.284028,46.0,0.0,4297.179688,4282.307617,4320.897461,4310.128418,4264.487305,4277.692383,4270.512695,4275.0,4271.410156,4260.256348,4552.820313,4507.307617,4398.461426,4473.333496,1.068935,0.290625,0.210513,0.943694,0.191629,0.459022,0.282021,0.184869,0.323503,0.181287,1.153687,0.219461,0.180484,0.184014,0.187176,0.412228,0.170613,0.175247,0.109137,0.099533,0.149124,0.127831,0.117888,0.090674,0.131262,0.163233,0.218081,0.152214,0.198337,0.1377,0.113798,0.211519,0.194039,0.129122,0.206473,0.226778,0.225592,0.263529,0.198147,0.234681,0.354221,0.109054,0.135461,0.216472,0.134755,0.612484,0.287248,0.336391,0.541812,0.226256,1.130434,0.350262,0.261606,0.918918,0.207117,1.452254,0.490154,0.33505,0.656265,0.185357,1.24461,0.431231,0.258437,0.948998,0.283479,1.742083,0.670243,0.40083,0.583952,0.216612
1769161531.291063,1769161531.291836,47.0,0.0,4306.666504,4290.384766,4328.717773,4318.589844,4267.436035,4269.358887,4260.384766,4271.410156,4263.846191,4263.846191,4553.717773,4510.897461,4403.974121,4478.461426,,,,,,,,,,,,,,,,,,,,,,,,,,,,,,,,,,,,,,,,,,,,,,,,,,,,,,,,,,,,,,,,,,,,,,
1769161531.298872,1769161531.299845,48.0,0.0,4301.282227,4298.461426,4334.615234,4326.666504,4274.102539,4262.94873,4264.230957,4271.922852,4269.615234,4267.179688,4560.384766,4526.025879,4413.077148,4493.589844,,,,,,,,,,,,,,,,,,,,,,,,,,,,,,,,,,,,,,,,,,,,,,,,,,,,,,,,,,,,,,,,,,,,,,
1769161531.30668,1769161531.307653,49.0,0.0,4291.282227,4296.025879,4327.692383,4325.0,4278.589844,4269.871582,4275.128418,4276.666504,4278.589844,4262.563965,4566.282227,4524.358887,4415.0,4494.743652,,,,,,,,,,,,,,,,,,,,,,,,,,,,,,,,,,,,,,,,,,,,,,,,,,,,,,,,,,,,,,,,,,,,,,
1769161531.314489,1769161531.315561,50.0,0.0,4293.589844,4290.897461,4325.256348,4319.743652,4275.769043,4280.384766,4277.94873,4279.615234,4278.846191,4267.820313,4566.922852,4522.820313,4413.205078,4490.256348,,,,,,,,,,,,,,,,,,,,,,,,,,,,,,,,,,,,,,,,,,,,,,,,,,,,,,,,,,,,,,,,,,,,,,
1769161531.322297,1769161531.32337,51.0,0.0,4296.922852,4288.205078,4329.487305,4321.025879,4271.922852,4281.025879,4275.384766,4279.487305,4278.846191,4280.641113,4567.436035,4532.94873,4414.102539,4493.589844,,,,,,,,,,,,,,,,,,,,,,,,,,,,,,,,,,,,,,,,,,,,,,,,,,,,,,,,,,,,,,,,,,,,,,
1769161531.330105,1769161531.331378,52.0,0.0,4297.94873,4284.230957,4327.692383,4321.025879,4270.512695,4277.179688,4275.512695,4279.230957,4281.666504,4281.025879,4570.0,4531.025879,4414.615234,4493.846191,,,,,,,,,,,,,,,,,,,,,,,,,,,,,,,,,,,,,,,,,,,,,,,,,,,,,,,,,,,,,,,,,,,,,,
1769161531.337914,1769161531.339186,53.0,0.0,4295.0,4280.384766,4324.743652,4312.94873,4268.205078,4277.692383,4275.128418,4278.974121,4280.641113,4272.692383,4563.333496,4521.666504,4412.692383,4490.384766,,,,,,,,,,,,,,,,,,,,,,,,,,,,,,,,,,,,,,,,,,,,,,,,,,,,,,,,,,,,,,,,,,,,,,
1769161531.345722,1769161531.346895,54.0,0.0,4284.615234,4280.769043,4326.025879,4309.743652,4265.384766,4279.102539,4274.230957,4278.589844,4278.077148,4274.871582,4556.410156,4522.94873,4410.897461,4490.769043,,,,,,,,,,,,,,,,,,,,,,,,,,,,,,,,,,,,,,,,,,,,,,,,,,,,,,,,,,,,,,,,,,,,,,
1769161531.353531,1769161531.354703,55.0,0.0,4283.333496,4281.410156,4324.487305,4313.717773,4266.025879,4279.615234,4279.102539,4280.0,4278.846191,4273.846191,4559.615234,4525.769043,4411.282227,4492.436035,,,,,,,,,,,,,,,,,,,,,,,,,,,,,,,,,,,,,,,,,,,,,,,,,,,,,,,,,,,,,,,,,,,,,,
1769161531.361339,1769161531.362312,56.0,0.0,4293.205078,4279.871582,4320.128418,4312.563965,4270.769043,4280.512695,4280.128418,4280.769043,4279.615234,4270.769043,4561.025879,4522.307617,4411.153809,4491.153809,,,,,,,,,,,,,,,,,,,,,,,,,,,,,,,,,,,,,,,,,,,,,,,,,,,,,,,,,,,,,,,,,,,,,,
1769161531.369148,1769161531.370121,57.0,0.0,4296.153809,4282.820313,4320.512695,4313.589844,4274.487305,4276.666504,4267.179688,4279.871582,4279.871582,4273.333496,4560.0,4522.563965,4409.615234,4491.410156,,,,,,,,,,,,,,,,,,,,,,,,,,,,,,,,,,,,,,,,,,,,,,,,,,,,,,,,,,,,,,,,,,,,,,
1769161531.376956,1769161531.377829,58.0,0.0,4295.128418,4290.641113,4327.692383,4322.94873,4279.358887,4274.102539,4261.922852,4278.846191,4280.897461,4267.436035,4566.153809,4531.025879,4413.205078,4496.666504,,,,,,,,,,,,,,,,,,,,,,,,,,,,,,,,,,,,,,,,,,,,,,,,,,,,,,,,,,,,,,,,,,,,,,
1769161531.384765,1769161531.385638,59.0,0.0,4295.641113,4292.05127,4328.974121,4322.94873,4278.333496,4277.563965,4272.179688,4277.94873,4279.743652,4265.641113,4566.025879,4531.666504,4415.641113,4497.436035,,,,,,,,,,,,,,,,,,,,,,,,,,,,,,,,,,,,,,,,,,,,,,,,,,,,,,,,,,,,,,,,,,,,,,
1769161531.392573,1769161531.393246,60.0,0.0,4294.871582,4284.358887,4320.384766,4311.922852,4267.692383,4277.692383,4273.461426,4278.717773,4278.717773,4276.794922,4554.230957,4524.358887,4410.641113,4492.307617,,,,,,,,,,,,,,,,,,,,,,,,,,,,,,,,,,,,,,,,,,,,,,,,,,,,,,,,,,,,,,,,,,,,,,
1769161531.400381,1769161531.401055,61.0,0.0,4294.615234,4280.0,4317.94873,4308.717773,4269.487305,4278.974121,4267.563965,4278.589844,4279.615234,4281.153809,4551.282227,4522.436035,4406.922852,4490.256348,,,,,,,,,,,,,,,,,,,,,,,,,,,,,,,,,,,,,,,,,,,,,,,,,,,,,,,,,,,,,,,,,,,,,,
1769161531.40819,1769161531.408763,62.0,0.0,4290.128418,4281.153809,4320.128418,4312.436035,4277.692383,4286.282227,4269.743652,4277.563965,4278.205078,4273.589844,4555.897461,4524.358887,4405.384766,4487.307617,1.183896,0.355785,0.169814,0.995641,0.167044,0.458177,0.366708,0.16451,0.333778,0.172626,1.072239,0.22661,0.172186,0.157813,0.17689,0.393208,0.150734,0.149325,0.105056,0.094746,0.182421,0.130715,0.10902,0.088338,0.118604,0.188738,0.225803,0.154944,0.192099,0.130148,0.09685,0.217706,0.196018,0.116536,0.175435,0.21431,0.287322,0.271367,0.217716,0.219078,0.447136,0.143048,0.156481,0.243619,0.143309,0.691196,0.269397,0.364263,0.607865,0.237979,1.258066,0.256146,0.256697,0.891728,0.201986,1.514037,0.428013,0.34722,0.661595,0.168481,1.34695,0.343599,0.21987,0.953884,0.26774,1.777294,0.622499,0.363177,0.554023,0.214846
1769161531.415998,1769161531.416572,63.0,0.0,4280.384766,4278.077148,4315.641113,4312.05127,4271.410156,4286.666504,4276.282227,4279.615234,4278.846191,4271.025879,4553.974121,4523.846191,4403.974121,4484.230957,,,,,,,,,,,,,,,,,,,,,,,,,,,,,,,,,,,,,,,,,,,,,,,,,,,,,,,,,,,,,,,,,,,,,,
1769161531.423807,1769161531.42418,64.0,0.0,4279.615234,4277.436035,4310.769043,4313.589844,4266.922852,4279.358887,4277.307617,4280.897461,4281.153809,4272.94873,4553.846191,4525.384766,4408.717773,4488.333496,,,,,,,,,,,,,,,,,,,,,,,,,,,,,,,,,,,,,,,,,,,,,,,,,,,,,,,,,,,,,,,,,,,,,,
1769161531.431615,1769161531.431989,65.0,0.0,4291.410156,4283.205078,4310.897461,4318.717773,4278.077148,4278.205078,4271.025879,4276.666504,4278.077148,4277.436035,4561.666504,4526.794922,4413.846191,4491.922852,,,,,,,,,,,,,,,,,,,,,,,,,,,,,,,,,,,,,,,,,,,,,,,,,,,,,,,,,,,,,,,,,,,,,,
1769161531.439424,1769161531.439697,66.0,0.0,4297.94873,4285.128418,4313.461426,4322.436035,4279.487305,4277.563965,4264.743652,4275.512695,4276.922852,4283.461426,4568.589844,4525.128418,4414.358887,4492.94873,,,,,,,,,,,,,,,,,,,,,,,,,,,,,,,,,,,,,,,,,,,,,,,,,,,,,,,,,,,,,,,,,,,,,,
1769161531.447232,1769161531.447506,67.0,0.0,4285.0,4280.897461,4308.846191,4320.0,4267.436035,4278.589844,4271.538574,4281.025879,4282.94873,4268.846191,4565.641113,4523.974121,4416.025879,4492.436035,,,,,,,,,,,,,,,,,,,,,,,,,,,,,,,,,,,,,,,,,,,,,,,,,,,,,,,,,,,,,,,,,,,,,,
1769161531.455041,1769161531.455514,68.0,0.0,4275.897461,4280.0,4298.205078,4315.128418,4268.333496,4282.563965,4281.538574,4282.179688,4281.666504,4257.307617,4556.666504,4521.538574,4414.615234,4480.897461,,,,,,,,,,,,,,,,,,,,,,,,,,,,,,,,,,,,,,,,,,,,,,,,,,,,,,,,,,,,,,,,,,,,,,
1769161531.462849,1769161531.463322,69.0,0.0,4287.820313,4280.512695,4299.487305,4317.179688,4272.692383,4273.205078,4272.307617,4279.230957,4276.025879,4272.436035,4552.94873,4522.307617,4410.897461,4475.512695,,,,,,,,,,,,,,,,,,,,,,,,,,,,,,,,,,,,,,,,,,,,,,,,,,,,,,,,,,,,,,,,,,,,,,
1769161531.470658,1769161531.471231,70.0,0.0,4298.461426,4278.974121,4307.692383,4322.05127,4268.717773,4263.589844,4262.179688,4278.589844,4279.230957,4284.102539,4558.846191,4523.589844,4413.333496,4487.563965,,,,,,,,,,,,,,,,,,,,,,,,,,,,,,,,,,,,,,,,,,,,,,,,,,,,,,,,,,,,,,,,,,,,,,
1769161531.478466,1769161531.479039,71.0,0.0,4294.487305,4282.820313,4305.897461,4324.102539,4272.436035,4271.538574,4264.615234,4279.230957,4283.333496,4279.358887,4568.205078,4524.743652,4420.641113,4494.487305,,,,,,,,,,,,,,,,,,,,,,,,,,,,,,,,,,,,,,,,,,,,,,,,,,,,,,,,,,,,,,,,,,,,,,
1769161531.486275,1769161531.487047,72.0,0.0,4293.333496,4287.563965,4301.282227,4324.230957,4279.871582,4279.358887,4267.436035,4282.820313,4282.307617,4277.05127,4572.307617,4532.436035,4427.563965,4492.436035,,,,,,,,,,,,,,,,,,,,,,,,,,,,,,,,,,,,,,,,,,,,,,,,,,,,,,,,,,,,,,,,,,,,,,
1769161531.494083,1769161531.494856,73.0,0.0,4295.0,4283.461426,4299.743652,4322.563965,4271.922852,4279.102539,4271.538574,4287.05127,4278.974121,4274.487305,4569.743652,4534.743652,4424.358887,4492.05127,,,,,,,,,,,,,,,,,,,,,,,,,,,,,,,,,,,,,,,,,,,,,,,,,,,,,,,,,,,,,,,,,,,,,,
1769161531.501891,1769161531.502564,74.0,0.0,4295.641113,4276.922852,4298.589844,4320.0,4262.820313,4279.102539,4271.153809,4291.282227,4279.230957,4265.897461,4568.974121,4531.794922,4413.077148,4492.692383,,,,,,,,,,,,,,,,,,,,,,,,,,,,,,,,,,,,,,,,,,,,,,,,,,,,,,,,,,,,,,,,,,,,,,
1769161531.5097,1769161531.510373,75.0,0.0,4298.974121,4281.153809,4302.179688,4322.692383,4272.436035,4277.94873,4263.461426,4291.538574,4282.436035,4271.922852,4569.871582,4537.820313,4413.589844,4494.871582,,,,,,,,,,,,,,,,,,,,,,,,,,,,,,,,,,,,,,,,,,,,,,,,,,,,,,,,,,,,,,,,,,,,,,
1769161531.517508,1769161531.518381,76.0,0.0,4299.102539,4287.05127,4302.179688,4326.538574,4280.769043,4277.179688,4265.0,4285.769043,4282.05127,4282.307617,4568.717773,4544.230957,4421.666504,4497.820313,,,,,,,,,,,,,,,,,,,,,,,,,,,,,,,,,,,,,,,,,,,,,,,,,,,,,,,,,,,,,,,,,,,,,,
1769161531.525317,1769161531.52619,77.0,0.0,4298.077148,4282.94873,4293.077148,4324.230957,4278.333496,4280.769043,4276.153809,4280.256348,4278.077148,4271.025879,4568.717773,4536.410156,4417.307617,4491.538574,,,,,,,,,,,,,,,,,,,,,,,,,,,,,,,,,,,,,,,,,,,,,,,,,,,,,,,,,,,,,,,,,,,,,,
1769161531.533125,1769161531.534098,78.0,0.0,4291.282227,4278.717773,4289.743652,4321.282227,4277.436035,4281.153809,4276.410156,4280.384766,4277.179688,4258.077148,4565.0,4527.05127,4410.128418,4481.794922,1.251442,0.41676,0.140026,0.964501,0.148404,0.465161,0.443493,0.149396,0.324645,0.166535,0.977929,0.229017,0.162997,0.133247,0.167911,0.394614,0.146668,0.140557,0.106506,0.098111,0.214602,0.131193,0.097455,0.082638,0.101974,0.217795,0.250372,0.150397,0.185336,0.123861,0.10425,0.237596,0.187514,0.108094,0.145835,0.211524,0.370841,0.268755,0.227181,0.201347,0.519585,0.192247,0.172406,0.248465,0.154929,0.705199,0.275767,0.384205,0.626525,0.257643,1.257039,0.184029,0.260951,0.766356,0.201929,1.501463,0.344851,0.351545,0.60401,0.160916,1.324489,0.271389,0.192432,0.86222,0.250264,1.678505,0.625863,0.35353,0.480185,0.206529
1769161531.540934,1769161531.541906,79.0,0.0,4281.410156,4278.974121,4291.666504,4322.05127,4278.717773,4279.230957,4265.897461,4279.871582,4278.205078,4267.563965,4556.666504,4528.974121,4409.230957,4482.179688,,,,,,,,,,,,,,,,,,,,,,,,,,,,,,,,,,,,,,,,,,,,,,,,,,,,,,,,,,,,,,,,,,,,,,
1769161531.548742,1769161531.549515,80.0,0.0,4285.256348,4281.794922,4291.153809,4325.897461,4276.410156,4277.94873,4262.563965,4276.282227,4277.179688,4282.05127,4560.769043,4535.256348,4412.563965,4490.128418,,,,,,,,,,,,,,,,,,,,,,,,,,,,,,,,,,,,,,,,,,,,,,,,,,,,,,,,,,,,,,,,,,,,,,
1769161531.556551,1769161531.557324,81.0,0.0,4295.897461,4282.563965,4290.769043,4327.820313,4275.512695,4276.922852,4273.333496,4278.205078,4276.410156,4280.384766,4570.256348,4532.563965,4418.333496,4492.179688,,,,,,,,,,,,,,,,,,,,,,,,,,,,,,,,,,,,,,,,,,,,,,,,,,,,,,,,,,,,,,,,,,,,,,
1769161531.564359,1769161531.565032,82.0,0.0,4295.897461,4280.512695,4287.05127,4323.333496,4277.820313,4279.102539,4278.077148,4280.0,4276.153809,4271.410156,4565.512695,4524.743652,4416.025879,4486.538574,,,,,,,,,,,,,,,,,,,,,,,,,,,,,,,,,,,,,,,,,,,,,,,,,,,,,,,,,,,,,,,,,,,,,,
1769161531.572168,1769161531.572841,83.0,0.0,4291.410156,4282.820313,4282.820313,4322.436035,4278.589844,4280.384766,4269.230957,4282.307617,4282.436035,4272.563965,4562.179688,4530.897461,4408.974121,4486.666504,,,,,,,,,,,,,,,,,,,,,,,,,,,,,,,,,,,,,,,,,,,,,,,,,,,,,,,,,,,,,,,,,,,,,,
1769161531.579976,1769161531.580849,84.0,0.0,4293.333496,4290.897461,4280.897461,4325.512695,4280.256348,4279.871582,4270.769043,4287.563965,4287.307617,4281.025879,4570.897461,4541.282227,4416.538574,4491.410156,,,,,,,,,,,,,,,,,,,,,,,,,,,,,,,,,,,,,,,,,,,,,,,,,,,,,,,,,,,,,,,,,,,,,,
1769161531.587784,1769161531.588657,85.0,0.0,4302.563965,4296.666504,4281.410156,4326.282227,4283.077148,4280.256348,4277.307617,4290.128418,4285.0,4277.820313,4574.358887,4540.384766,4430.256348,4493.846191,,,,,,,,,,,,,,,,,,,,,,,,,,,,,,,,,,,,,,,,,,,,,,,,,,,,,,,,,,,,,,,,,,,,,,
1769161531.595593,1769161531.596366,86.0,0.0,4311.410156,4296.282227,4289.615234,4329.615234,4281.538574,4280.769043,4275.512695,4290.128418,4287.05127,4270.641113,4570.384766,4539.358887,4426.282227,4494.615234,,,,,,,,,,,,,,,,,,,,,,,,,,,,,,,,,,,,,,,,,,,,,,,,,,,,,,,,,,,,,,,,,,,,,,
1769161531.603401,1769161531.604174,87.0,0.0,4309.230957,4296.153809,4295.769043,4331.922852,4277.307617,4282.05127,4276.025879,4285.897461,4287.94873,4270.128418,4568.461426,4541.153809,4412.820313,4487.436035,,,,,,,,,,,,,,,,,,,,,,,,,,,,,,,,,,,,,,,,,,,,,,,,,,,,,,,,,,,,,,,,,,,,,,
1769161531.61121,1769161531.611783,88.0,0.0,4307.820313,4293.077148,4288.205078,4326.538574,4275.0,4278.461426,4270.769043,4278.077148,4278.205078,4268.333496,4567.307617,4538.205078,4410.897461,4481.794922,,,,,,,,,,,,,,,,,,,,,,,,,,,,,,,,,,,,,,,,,,,,,,,,,,,,,,,,,,,,,,,,,,,,,,
1769161531.619018,1769161531.619591,89.0,0.0,4306.025879,4288.974121,4280.128418,4320.641113,4273.974121,4271.922852,4263.077148,4277.692383,4278.461426,4267.94873,4566.410156,4536.282227,4415.384766,4487.563965,,,,,,,,,,,,,,,,,,,,,,,,,,,,,,,,,,,,,,,,,,,,,,,,,,,,,,,,,,,,,,,,,,,,,,
1769161531.626827,1769161531.6273,90.0,0.0,4295.641113,4292.436035,4285.384766,4323.461426,4275.0,4275.512695,4269.871582,4282.563965,4287.820313,4275.512695,4567.179688,4537.179688,4413.846191,4493.589844,,,,,,,,,,,,,,,,,,,,,,,,,,,,,,,,,,,,,,,,,,,,,,,,,,,,,,,,,,,,,,,,,,,,,,
1769161531.634635,1769161531.635108,91.0,0.0,4295.769043,4297.692383,4287.307617,4325.769043,4280.256348,4283.205078,4273.461426,4274.487305,4280.641113,4278.461426,4567.563965,4535.0,4414.743652,4491.538574,,,,,,,,,,,,,,,,,,,,,,,,,,,,,,,,,,,,,,,,,,,,,,,,,,,,,,,,,,,,,,,,,,,,,,
1769161531.642444,1769161531.643117,92.0,0.0,4306.410156,4295.0,4283.077148,4325.128418,4283.205078,4281.666504,4264.487305,4270.384766,4274.487305,4276.538574,4568.461426,4536.794922,4425.0,4490.897461,,,,,,,,,,,,,,,,,,,,,,,,,,,,,,,,,,,,,,,,,,,,,,,,,,,,,,,,,,,,,,,,,,,,,,
1769161531.650252,1769161531.650925,93.0,0.0,4305.512695,4291.922852,4285.641113,4324.743652,4281.282227,4278.717773,4261.666504,4276.282227,4280.897461,4278.974121,4568.974121,4540.256348,4428.589844,4492.820313,,,,,,,,,,,,,,,,,,,,,,,,,,,,,,,,,,,,,,,,,,,,,,,,,,,,,,,,,,,,,,,,,,,,,,
1769161531.65806,1769161531.658833,94.0,0.0,4297.820313,4295.769043,4286.410156,4318.974121,4281.282227,4282.436035,4269.871582,4272.820313,4277.307617,4278.846191,4568.717773,4539.230957,4423.846191,4491.922852,1.288461,0.460921,0.116155,0.852639,0.138325,0.472001,0.49103,0.138832,0.297701,0.161033,0.863609,0.22252,0.146606,0.114541,0.164251,0.409307,0.149364,0.149691,0.115827,0.108088,0.2422,0.129475,0.087278,0.076326,0.085469,0.24948,0.278805,0.138712,0.180738,0.120616,0.136493,0.274616,0.168295,0.106354,0.12584,0.217448,0.453628,0.25985,0.223496,0.181514,0.567228,0.250346,0.181058,0.229999,0.164184,0.648927,0.292402,0.3827,0.597623,0.287017,1.14142,0.137116,0.264812,0.581528,0.201814,1.428326,0.264116,0.335584,0.499255,0.160231,1.198939,0.230217,0.183785,0.704403,0.229686,1.544658,0.681705,0.360561,0.381158,0.19099
1769161531.665869,1769161531.666642,95.0,0.0,4293.846191,4291.153809,4279.358887,4312.179688,4276.410156,4283.205078,4273.974121,4270.769043,4271.666504,4276.922852,4563.846191,4535.769043,4421.794922,4491.025879,,,,,,,,,,,,,,,,,,,,,,,,,,,,,,,,,,,,,,,,,,,,,,,,,,,,,,,,,,,,,,,,,,,,,,
1769161531.673677,1769161531.67465,96.0,0.0,4288.333496,4279.615234,4276.282227,4310.128418,4269.871582,4279.743652,4272.179688,4278.333496,4275.769043,4278.589844,4558.333496,4530.512695,4420.641113,4489.871582,,,,,,,,,,,,,,,,,,,,,,,,,,,,,,,,,,,,,,,,,,,,,,,,,,,,,,,,,,,,,,,,,,,,,,
1769161531.681486,1769161531.682458,97.0,0.0,4288.461426,4277.692383,4278.461426,4310.384766,4270.897461,4277.692383,4267.05127,4281.538574,4280.641113,4279.743652,4560.384766,4524.358887,4416.538574,4488.974121,,,,,,,,,,,,,,,,,,,,,,,,,,,,,,,,,,,,,,,,,,,,,,,,,,,,,,,,,,,,,,,,,,,,,,
1769161531.689294,1769161531.690367,98.0,0.0,4294.871582,4283.205078,4278.077148,4309.358887,4272.179688,4280.128418,4265.897461,4277.820313,4276.922852,4276.025879,4563.589844,4523.717773,4412.94873,4489.743652,,,,,,,,,,,,,,,,,,,,,,,,,,,,,,,,,,,,,,,,,,,,,,,,,,,,,,,,,,,,,,,,,,,,,,
1769161531.697103,1769161531.698175,99.0,0.0,4296.410156,4285.897461,4279.102539,4309.743652,4270.769043,4287.179688,4272.179688,4279.487305,4272.179688,4264.102539,4564.487305,4532.692383,4417.436035,4491.025879,,,,,,,,,,,,,,,,,,,,,,,,,,,,,,,,,,,,,,,,,,,,,,,,,,,,,,,,,,,,,,,,,,,,,,
1769161531.704911,1769161531.705784,100.0,0.0,4293.589844,4286.538574,4280.641113,4314.487305,4273.974121,4286.538574,4269.358887,4280.897461,4275.384766,4266.282227,4563.205078,4538.205078,4425.769043,4491.922852,,,,,,,,,,,,,,,,,,,,,,,,,,,,,,,,,,,,,,,,,,,,,,,,,,,,,,,,,,,,,,,,,,,,,,
1769161531.71272,1769161531.713592,101.0,0.0,4294.230957,4290.128418,4279.615234,4318.974121,4278.461426,4275.769043,4261.410156,4277.692383,4279.358887,4279.615234,4560.769043,4531.153809,4426.922852,4491.025879,,,,,,,,,,,,,,,,,,,,,,,,,,,,,,,,,,,,,,,,,,,,,,,,,,,,,,,,,,,,,,,,,,,,,,
1769161531.720528,1769161531.721501,102.0,0.0,4296.153809,4291.153809,4280.512695,4320.769043,4276.922852,4276.025879,4270.256348,4278.205078,4276.153809,4272.436035,4560.769043,4528.333496,4418.205078,4490.128418,,,,,,,,,,,,,,,,,,,,,,,,,,,,,,,,,,,,,,,,,,,,,,,,,,,,,,,,,,,,,,,,,,,,,,
1769161531.728336,1769161531.729309,103.0,0.0,4297.436035,4291.282227,4281.538574,4320.641113,4275.897461,4285.897461,4279.615234,4279.487305,4273.205078,4264.871582,4566.025879,4536.922852,4416.282227,4491.410156,,,,,,,,,,,,,,,,,,,,,,,,,,,,,,,,,,,,,,,,,,,,,,,,,,,,,,,,,,,,,,,,,,,,,,
1769161531.736145,1769161531.736918,104.0,0.0,4298.974121,4296.025879,4280.769043,4318.717773,4277.94873,4283.589844,4268.205078,4277.179688,4276.410156,4279.230957,4569.871582,4539.743652,4427.307617,4493.461426,,,,,,,,,,,,,,,,,,,,,,,,,,,,,,,,,,,,,,,,,,,,,,,,,,,,,,,,,,,,,,,,,,,,,,
1769161531.743953,1769161531.744726,105.0,0.0,4295.512695,4293.077148,4276.922852,4312.05127,4276.410156,4276.282227,4262.692383,4279.358887,4279.358887,4285.128418,4568.333496,4534.358887,4426.538574,4492.94873,,,,,,,,,,,,,,,,,,,,,,,,,,,,,,,,,,,,,,,,,,,,,,,,,,,,,,,,,,,,,,,,,,,,,,
1769161531.751762,1769161531.752435,106.0,0.0,4292.820313,4283.077148,4273.717773,4305.128418,4271.666504,4278.846191,4275.897461,4285.769043,4281.025879,4278.077148,4571.282227,4536.025879,4416.666504,4490.769043,,,,,,,,,,,,,,,,,,,,,,,,,,,,,,,,,,,,,,,,,,,,,,,,,,,,,,,,,,,,,,,,,,,,,,
1769161531.75957,1769161531.760243,107.0,0.0,4296.922852,4285.0,4276.666504,4305.384766,4273.717773,4280.641113,4276.794922,4281.282227,4279.487305,4279.230957,4572.307617,4536.410156,4416.282227,4492.820313,,,,,,,,,,,,,,,,,,,,,,,,,,,,,,,,,,,,,,,,,,,,,,,,,,,,,,,,,,,,,,,,,,,,,,
1769161531.767379,1769161531.767852,108.0,0.0,4295.769043,4289.487305,4277.94873,4303.974121,4281.282227,4279.615234,4273.333496,4274.615234,4275.897461,4278.333496,4563.974121,4527.436035,4418.589844,4494.615234,,,,,,,,,,,,,,,,,,,,,,,,,,,,,,,,,,,,,,,,,,,,,,,,,,,,,,,,,,,,,,,,,,,,,,
1769161531.775187,1769161531.77566,109.0,0.0,4292.820313,4280.897461,4271.282227,4296.410156,4278.717773,4283.205078,4279.743652,4277.692383,4275.256348,4272.05127,4557.563965,4521.666504,4411.538574,4486.153809,,,,,,,,,,,,,,,,,,,,,,,,,,,,,,,,,,,,,,,,,,,,,,,,,,,,,,,,,,,,,,,,,,,,,,
1769161531.782996,1769161531.783569,110.0,0.0,4292.820313,4279.102539,4265.0,4294.487305,4274.871582,4280.769043,4278.333496,4278.077148,4277.563965,4268.077148,4563.846191,4523.846191,4408.461426,4478.589844,1.306755,0.482865,0.098111,0.690462,0.137769,0.468469,0.498446,0.139528,0.260234,0.154092,0.745992,0.207699,0.123238,0.104883,0.166265,0.422635,0.149798,0.176013,0.13409,0.120891,0.255582,0.126718,0.085191,0.073529,0.074048,0.278819,0.300299,0.126502,0.18178,0.120766,0.180236,0.324359,0.143485,0.112694,0.121968,0.223508,0.513887,0.249687,0.208637,0.15981,0.589762,0.306543,0.183496,0.195999,0.168112,0.551385,0.310083,0.361577,0.534595,0.324649,0.97547,0.116057,0.26453,0.393953,0.197866,1.333518,0.207295,0.298695,0.376487,0.163402,1.046618,0.231027,0.195036,0.529203,0.208392,1.463216,0.773143,0.371905,0.285012,0.171918
1769161531.790804,1769161531.791377,111.0,0.0,4286.794922,4282.05127,4265.0,4295.128418,4277.179688,4279.358887,4276.282227,4279.871582,4281.153809,4263.589844,4567.05127,4526.794922,4412.820313,4477.820313,,,,,,,,,,,,,,,,,,,,,,,,,,,,,,,,,,,,,,,,,,,,,,,,,,,,,,,,,,,,,,,,,,,,,,
1769161531.798613,1769161531.798986,112.0,0.0,4281.922852,4279.358887,4269.358887,4293.205078,4277.820313,4286.666504,4278.717773,4278.461426,4273.333496,4260.128418,4556.282227,4521.666504,4411.410156,4476.153809,,,,,,,,,,,,,,,,,,,,,,,,,,,,,,,,,,,,,,,,,,,,,,,,,,,,,,,,,,,,,,,,,,,,,,
1769161531.806421,1769161531.806794,113.0,0.0,4291.282227,4284.743652,4275.641113,4294.487305,4274.487305,4282.563965,4269.358887,4267.179688,4262.563965,4266.922852,4553.717773,4520.897461,4412.692383,4480.897461,,,,,,,,,,,,,,,,,,,,,,,,,,,,,,,,,,,,,,,,,,,,,,,,,,,,,,,,,,,,,,,,,,,,,,
1769161531.81423,1769161531.814503,114.0,0.0,4297.563965,4288.333496,4278.589844,4295.128418,4272.307617,4272.436035,4259.743652,4268.846191,4270.641113,4277.692383,4563.205078,4532.820313,4414.230957,4492.436035,,,,,,,,,,,,,,,,,,,,,,,,,,,,,,,,,,,,,,,,,,,,,,,,,,,,,,,,,,,,,,,,,,,,,,
1769161531.822038,1769161531.822311,115.0,0.0,4291.794922,4283.461426,4282.563965,4293.205078,4275.256348,4278.077148,4265.641113,4282.307617,4282.94873,4272.436035,4567.563965,4540.897461,4413.974121,4493.846191,,,,,,,,,,,,,,,,,,,,,,,,,,,,,,,,,,,,,,,,,,,,,,,,,,,,,,,,,,,,,,,,,,,,,,
1769161531.829847,1769161531.82992,116.0,0.0,4290.512695,4288.205078,4285.384766,4299.615234,4280.0,4284.615234,4268.205078,4281.538574,4278.333496,4265.384766,4568.333496,4537.307617,4421.666504,4490.512695,,,,,,,,,,,,,,,,,,,,,,,,,,,,,,,,,,,,,,,,,,,,,,,,,,,,,,,,,,,,,,,,,,,,,,
1769161531.837655,1769161531.837728,117.0,0.0,4295.0,4294.358887,4281.794922,4306.538574,4279.487305,4278.333496,4263.461426,4273.717773,4275.0,4275.897461,4571.666504,4534.487305,4430.512695,4497.820313,,,,,,,,,,,,,,,,,,,,,,,,,,,,,,,,,,,,,,,,,,,,,,,,,,,,,,,,,,,,,,,,,,,,,,
1769161531.845463,1769161531.845437,118.0,0.0,4294.102539,4292.94873,4281.282227,4301.666504,4277.179688,4277.692383,4271.282227,4281.538574,4285.512695,4284.230957,4571.410156,4537.820313,4430.384766,4501.153809,,,,,,,,,,,,,,,,,,,,,,,,,,,,,,,,,,,,,,,,,,,,,,,,,,,,,,,,,,,,,,,,,,,,,,
1769161531.853272,1769161531.853245,119.0,0.0,4292.692383,4291.153809,4287.307617,4302.05127,4278.205078,4282.563965,4277.307617,4293.717773,4288.974121,4280.128418,4567.05127,4539.743652,4422.692383,4493.846191,,,,,,,,,,,,,,,,,,,,,,,,,,,,,,,,,,,,,,,,,,,,,,,,,,,,,,,,,,,,,,,,,,,,,,
1769161531.86108,1769161531.861254,120.0,0.0,4294.615234,4288.846191,4291.538574,4307.307617,4278.333496,4279.615234,4270.769043,4288.974121,4282.05127,4278.461426,4566.794922,4538.974121,4416.410156,4489.487305,,,,,,,,,,,,,,,,,,,,,,,,,,,,,,,,,,,,,,,,,,,,,,,,,,,,,,,,,,,,,,,,,,,,,,
1769161531.868889,1769161531.869062,121.0,0.0,4291.410156,4282.179688,4292.563965,4301.025879,4279.230957,4278.333496,4270.128418,4281.410156,4278.205078,4272.563965,4567.307617,4537.94873,4416.025879,4490.128418,,,,,,,,,,,,,,,,,,,,,,,,,,,,,,,,,,,,,,,,,,,,,,,,,,,,,,,,,,,,,,,,,,,,,,
1769161531.876697,1769161531.87697,122.0,0.0,4284.230957,4278.846191,4291.282227,4297.05127,4280.128418,4281.410156,4278.589844,4285.512695,4280.769043,4262.94873,4567.05127,4538.205078,4422.179688,4489.230957,,,,,,,,,,,,,,,,,,,,,,,,,,,,,,,,,,,,,,,,,,,,,,,,,,,,,,,,,,,,,,,,,,,,,,
1769161531.884506,1769161531.884779,123.0,0.0,4287.820313,4286.025879,4292.436035,4306.666504,4277.692383,4280.897461,4279.871582,4287.563965,4280.256348,4268.717773,4567.05127,4540.897461,4426.025879,4489.230957,,,,,,,,,,,,,,,,,,,,,,,,,,,,,,,,,,,,,,,,,,,,,,,,,,,,,,,,,,,,,,,,,,,,,,
1769161531.892314,1769161531.892787,124.0,0.0,4297.179688,4296.153809,4301.153809,4313.846191,4282.436035,4277.436035,4271.153809,4277.94873,4278.205078,4278.846191,4566.410156,4541.025879,4425.641113,4498.461426,,,,,,,,,,,,,,,,,,,,,,,,,,,,,,,,,,,,,,,,,,,,,,,,,,,,,,,,,,,,,,,,,,,,,,
1769161531.900123,1769161531.900595,125.0,0.0,4298.717773,4297.436035,4309.871582,4312.05127,4292.179688,4279.743652,4266.153809,4278.717773,4285.128418,4278.846191,4569.487305,4540.384766,4427.563965,4506.025879,,,,,,,,,,,,,,,,,,,,,,,,,,,,,,,,,,,,,,,,,,,,,,,,,,,,,,,,,,,,,,,,,,,,,,
1769161531.907931,1769161531.908304,126.0,0.0,4295.897461,4294.615234,4309.102539,4311.282227,4292.820313,4282.820313,4265.512695,4287.820313,4290.512695,4277.05127,4573.589844,4546.410156,4429.358887,4507.179688,1.31593,0.489645,0.091374,0.523577,0.145893,0.454018,0.470498,0.157639,0.221494,0.144776,0.657404,0.189316,0.098351,0.105248,0.170307,0.424059,0.144259,0.215335,0.158929,0.131501,0.252214,0.124598,0.094928,0.077391,0.07085,0.297583,0.308246,0.1219,0.189351,0.122939,0.221392,0.375158,0.119465,0.124951,0.13737,0.225351,0.543074,0.24288,0.18732,0.136894,0.58833,0.348771,0.182828,0.158796,0.166603,0.448544,0.327938,0.337577,0.458628,0.365578,0.831394,0.121846,0.265855,0.252603,0.188972,1.256624,0.185728,0.254992,0.264571,0.167141,0.932065,0.276759,0.223518,0.381625,0.190681,1.472981,0.872995,0.382579,0.214286,0.154326
1769161531.915739,1769161531.916112,127.0,0.0,4295.897461,4290.384766,4306.153809,4312.179688,4286.666504,4282.05127,4268.333496,4289.358887,4289.871582,4280.128418,4574.102539,4552.563965,4430.641113,4508.589844,,,,,,,,,,,,,,,,,,,,,,,,,,,,,,,,,,,,,,,,,,,,,,,,,,,,,,,,,,,,,,,,,,,,,,
1769161531.923548,1769161531.924121,0.0,0.0,4294.615234,4284.487305,4306.922852,4311.666504,4287.563965,4286.922852,4273.205078,4289.102539,4287.94873,4277.94873,4574.743652,4547.307617,4430.641113,4502.94873,,,,,,,,,,,,,,,,,,,,,,,,,,,,,,,,,,,,,,,,,,,,,,,,,,,,,,,,,,,,,,,,,,,,,,
1769161531.931356,1769161531.931929,1.0,0.0,4289.358887,4283.333496,4308.974121,4312.692383,4289.230957,4291.410156,4278.077148,4286.922852,4282.563965,4268.717773,4570.512695,4537.563965,4423.589844,4491.025879,,,,,,,,,,,,,,,,,,,,,,,,,,,,,,,,,,,,,,,,,,,,,,,,,,,,,,,,,,,,,,,,,,,,,,
1769161531.939165,1769161531.939638,2.0,0.0,4288.846191,4285.128418,4308.974121,4310.641113,4282.179688,4283.974121,4279.743652,4285.641113,4277.05127,4264.102539,4561.666504,4536.538574,4412.436035,4486.153809,,,,,,,,,,,,,,,,,,,,,,,,,,,,,,,,,,,,,,,,,,,,,,,,,,,,,,,,,,,,,,,,,,,,,,
1769161531.946973,1769161531.947446,3.0,0.0,4294.487305,4286.282227,4311.410156,4311.538574,4277.94873,4276.410156,4273.077148,4285.769043,4276.794922,4257.94873,4563.846191,4538.846191,4414.487305,4488.717773,,,,,,,,,,,,,,,,,,,,,,,,,,,,,,,,,,,,,,,,,,,,,,,,,,,,,,,,,,,,,,,,,,,,,,
1769161531.954782,1769161531.955055,4.0,0.0,4297.563965,4293.205078,4314.615234,4320.384766,4281.410156,4276.922852,4264.358887,4278.205078,4275.641113,4256.282227,4570.512695,4537.563965,4424.358887,4490.256348,,,,,,,,,,,,,,,,,,,,,,,,,,,,,,,,,,,,,,,,,,,,,,,,,,,,,,,,,,,,,,,,,,,,,,
1769161531.96259,1769161531.962863,5.0,0.0,4295.128418,4294.743652,4312.692383,4325.128418,4282.05127,4278.333496,4262.820313,4271.666504,4272.820313,4271.153809,4565.128418,4535.769043,4421.922852,4492.05127,,,,,,,,,,,,,,,,,,,,,,,,,,,,,,,,,,,,,,,,,,,,,,,,,,,,,,,,,,,,,,,,,,,,,,
1769161531.970399,1769161531.970572,6.0,0.0,4295.384766,4289.743652,4315.641113,4320.384766,4281.025879,4277.05127,4266.025879,4276.922852,4276.794922,4283.846191,4563.589844,4536.666504,4420.769043,4492.820313,,,,,,,,,,,,,,,,,,,,,,,,,,,,,,,,,,,,,,,,,,,,,,,,,,,,,,,,,,,,,,,,,,,,,,
1769161531.978207,1769161531.97838,7.0,0.0,4297.307617,4293.077148,4321.538574,4320.256348,4283.589844,4274.615234,4263.974121,4281.666504,4280.641113,4280.256348,4570.641113,4539.230957,4429.358887,4492.436035,,,,,,,,,,,,,,,,,,,,,,,,,,,,,,,,,,,,,,,,,,,,,,,,,,,,,,,,,,,,,,,,,,,,,,
1769161531.986015,1769161531.986388,8.0,0.0,4293.077148,4297.307617,4318.589844,4321.282227,4281.410156,4272.94873,4263.846191,4280.641113,4279.102539,4277.179688,4569.871582,4538.717773,4427.307617,4492.563965,,,,,,,,,,,,,,,,,,,,,,,,,,,,,,,,,,,,,,,,,,,,,,,,,,,,,,,,,,,,,,,,,,,,,,
1769161531.993824,1769161531.994197,9.0,0.0,4290.256348,4290.641113,4315.384766,4314.358887,4278.846191,4272.94873,4270.0,4284.230957,4278.461426,4280.256348,4566.666504,4538.589844,4418.974121,4493.077148,,,,,,,,,,,,,,,,,,,,,,,,,,,,,,,,,,,,,,,,,,,,,,,,,,,,,,,,,,,,,,,,,,,,,,
1769161532.001632,1769161532.001905,10.0,0.0,4295.769043,4283.717773,4320.512695,4314.871582,4280.512695,4274.487305,4275.641113,4290.128418,4279.230957,4277.820313,4570.0,4543.717773,4421.538574,4495.512695,,,,,,,,,,,,,,,,,,,,,,,,,,,,,,,,,,,,,,,,,,,,,,,,,,,,,,,,,,,,,,,,,,,,,,
1769161532.009441,1769161532.009714,11.0,0.0,4294.487305,4281.282227,4320.897461,4321.282227,4281.025879,4279.743652,4278.589844,4292.307617,4277.307617,4270.897461,4569.615234,4544.487305,4421.538574,4494.487305,,,,,,,,,,,,,,,,,,,,,,,,,,,,,,,,,,,,,,,,,,,,,,,,,,,,,,,,,,,,,,,,,,,,,,
1769161532.017249,1769161532.017323,12.0,0.0,4285.897461,4282.179688,4314.871582,4316.538574,4279.487305,4276.922852,4275.0,4290.769043,4276.410156,4267.179688,4564.743652,4537.692383,4413.717773,4488.717773,,,,,,,,,,,,,,,,,,,,,,,,,,,,,,,,,,,,,,,,,,,,,,,,,,,,,,,,,,,,,,,,,,,,,,
1769161532.025058,1769161532.025131,13.0,0.0,4286.410156,4277.94873,4314.615234,4307.563965,4277.307617,4269.102539,4273.846191,4292.436035,4278.077148,4265.384766,4563.077148,4537.692383,4410.384766,4488.461426,,,,,,,,,,,,,,,,,,,,,,,,,,,,,,,,,,,,,,,,,,,,,,,,,,,,,,,,,,,,,,,,,,,,,,
1769161532.032866,1769161532.03284,14.0,0.0,4293.333496,4277.05127,4321.410156,4312.436035,4277.94873,4274.230957,4277.307617,4295.384766,4279.615234,4264.358887,4564.743652,4546.410156,4411.922852,4489.487305,1.30574,0.496508,0.096684,0.393163,0.158693,0.433406,0.429267,0.192347,0.188868,0.133748,0.618641,0.179244,0.077587,0.113958,0.170948,0.411685,0.14116,0.258368,0.18489,0.135588,0.236847,0.124101,0.115984,0.0887,0.075639,0.302,0.30305,0.128359,0.200292,0.125268,0.248511,0.413899,0.099398,0.137594,0.170224,0.226123,0.548196,0.239061,0.163766,0.114479,0.568017,0.368319,0.181964,0.126952,0.160929,0.372939,0.356668,0.326923,0.385924,0.401919,0.756707,0.15041,0.274015,0.1779,0.176503,1.213782,0.206388,0.224107,0.183026,0.169406,0.894276,0.354365,0.2615,0.285,0.179492,1.54346,0.94783,0.391193,0.175334,0.141278
1769161532.040675,1769161532.040648,15.0,0.0,4295.897461,4289.230957,4325.384766,4321.538574,4283.589844,4284.102539,4277.563965,4295.769043,4281.794922,4271.153809,4569.615234,4551.794922,4413.077148,4493.461426,,,,,,,,,,,,,,,,,,,,,,,,,,,,,,,,,,,,,,,,,,,,,,,,,,,,,,,,,,,,,,,,,,,,,,
1769161532.048483,1769161532.048656,16.0,0.0,4293.461426,4294.487305,4322.563965,4320.0,4283.461426,4282.179688,4279.102539,4295.897461,4281.282227,4280.769043,4572.05127,4550.769043,4411.282227,4501.282227,,,,,,,,,,,,,,,,,,,,,,,,,,,,,,,,,,,,,,,,,,,,,,,,,,,,,,,,,,,,,,,,,,,,,,
1769161532.056291,1769161532.056465,17.0,0.0,4294.871582,4290.384766,4320.897461,4319.230957,4278.846191,4278.205078,4276.922852,4287.436035,4276.538574,4277.94873,4570.512695,4549.230957,4414.743652,4497.692383,,,,,,,,,,,,,,,,,,,,,,,,,,,,,,,,,,,,,,,,,,,,,,,,,,,,,,,,,,,,,,,,,,,,,,
1769161532.0641,1769161532.064373,18.0,0.0,4305.897461,4295.0,4326.794922,4325.641113,4284.743652,4279.102539,4266.282227,4279.230957,4281.282227,4275.384766,4574.871582,4551.922852,4425.0,4493.846191,,,,,,,,,,,,,,,,,,,,,,,,,,,,,,,,,,,,,,,,,,,,,,,,,,,,,,,,,,,,,,,,,,,,,,
1769161532.071908,1769161532.072182,19.0,0.0,4314.743652,4301.410156,4331.282227,4329.358887,4290.384766,4276.666504,4263.205078,4287.820313,4292.05127,4285.256348,4583.846191,4556.538574,4430.256348,4502.436035,,,,,,,,,,,,,,,,,,,,,,,,,,,,,,,,,,,,,,,,,,,,,,,,,,,,,,,,,,,,,,,,,,,,,,
1769161532.079717,1769161532.08019,20.0,0.0,4308.974121,4296.794922,4327.307617,4324.743652,4282.563965,4274.230957,4266.794922,4293.333496,4289.102539,4286.410156,4582.179688,4554.871582,4427.563965,4510.641113,,,,,,,,,,,,,,,,,,,,,,,,,,,,,,,,,,,,,,,,,,,,,,,,,,,,,,,,,,,,,,,,,,,,,,
1769161532.087525,1769161532.087998,21.0,0.0,4303.333496,4291.922852,4321.794922,4321.282227,4278.205078,4275.769043,4265.769043,4283.589844,4282.94873,4279.102539,4570.0,4548.974121,4426.538574,4505.769043,,,,,,,,,,,,,,,,,,,,,,,,,,,,,,,,,,,,,,,,,,,,,,,,,,,,,,,,,,,,,,,,,,,,,,
1769161532.095334,1769161532.095907,22.0,0.0,4304.615234,4294.230957,4322.563965,4321.666504,4282.820313,4279.102539,4271.666504,4286.538574,4289.230957,4276.666504,4569.743652,4545.512695,4427.94873,4499.102539,,,,,,,,,,,,,,,,,,,,,,,,,,,,,,,,,,,,,,,,,,,,,,,,,,,,,,,,,,,,,,,,,,,,,,
1769161532.103142,1769161532.103715,23.0,0.0,4298.974121,4295.897461,4322.307617,4320.897461,4284.230957,4279.358887,4280.512695,4300.769043,4290.512695,4275.512695,4581.666504,4543.205078,4428.333496,4499.102539,,,,,,,,,,,,,,,,,,,,,,,,,,,,,,,,,,,,,,,,,,,,,,,,,,,,,,,,,,,,,,,,,,,,,,
1769161532.110951,1769161532.111623,24.0,0.0,4291.538574,4295.384766,4318.589844,4319.230957,4282.307617,4277.692383,4280.128418,4294.102539,4281.282227,4275.0,4579.230957,4541.410156,4428.846191,4498.333496,,,,,,,,,,,,,,,,,,,,,,,,,,,,,,,,,,,,,,,,,,,,,,,,,,,,,,,,,,,,,,,,,,,,,,
1769161532.118759,1769161532.119432,25.0,0.0,4292.820313,4293.846191,4319.743652,4318.205078,4282.563965,4279.615234,4277.179688,4278.589844,4277.94873,4277.436035,4570.384766,4543.077148,4428.461426,4499.487305,,,,,,,,,,,,,,,,,,,,,,,,,,,,,,,,,,,,,,,,,,,,,,,,,,,,,,,,,,,,,,,,,,,,,,
1769161532.126568,1769161532.12714,26.0,0.0,4296.282227,4295.256348,4322.563965,4319.615234,4282.436035,4279.102539,4270.512695,4276.794922,4281.922852,4286.282227,4576.538574,4543.589844,4428.589844,4500.0,,,,,,,,,,,,,,,,,,,,,,,,,,,,,,,,,,,,,,,,,,,,,,,,,,,,,,,,,,,,,,,,,,,,,,
1769161532.134376,1769161532.134949,27.0,0.0,4297.05127,4298.205078,4320.769043,4319.487305,4280.897461,4274.615234,4264.358887,4282.94873,4283.846191,4293.333496,4581.025879,4541.410156,4428.333496,4496.282227,,,,,,,,,,,,,,,,,,,,,,,,,,,,,,,,,,,,,,,,,,,,,,,,,,,,,,,,,,,,,,,,,,,,,,
1769161532.142185,1769161532.142557,28.0,0.0,4297.05127,4295.512695,4318.717773,4313.974121,4278.717773,4268.717773,4265.512695,4282.307617,4283.974121,4287.820313,4572.563965,4539.743652,4427.179688,4491.153809,,,,,,,,,,,,,,,,,,,,,,,,,,,,,,,,,,,,,,,,,,,,,,,,,,,,,,,,,,,,,,,,,,,,,,
1769161532.149993,1769161532.150366,29.0,0.0,4296.282227,4291.410156,4321.025879,4310.897461,4279.615234,4267.307617,4263.974121,4278.077148,4280.641113,4278.846191,4567.436035,4540.897461,4428.205078,4491.666504,,,,,,,,,,,,,,,,,,,,,,,,,,,,,,,,,,,,,,,,,,,,,,,,,,,,,,,,,,,,,,,,,,,,,,
1769161532.157802,1769161532.158074,30.0,0.0,4294.615234,4292.179688,4321.538574,4314.358887,4285.769043,4274.102539,4265.641113,4283.974121,4279.358887,4279.615234,4570.384766,4540.0,4425.128418,4493.974121,1.24783,0.515172,0.112867,0.320331,0.170431,0.408358,0.401857,0.23923,0.167108,0.122543,0.622505,0.186453,0.064642,0.12899,0.164182,0.403042,0.158128,0.292733,0.20547,0.131225,0.212129,0.12495,0.144777,0.104447,0.08501,0.291448,0.28695,0.142351,0.208127,0.126484,0.260439,0.433233,0.088456,0.145191,0.212331,0.231046,0.543189,0.238896,0.140946,0.096311,0.532029,0.362036,0.186066,0.103371,0.153515,0.335468,0.412548,0.355141,0.327659,0.424864,0.740898,0.19398,0.292524,0.160049,0.162763,1.180867,0.269005,0.221178,0.137948,0.169719,0.915829,0.44057,0.306281,0.23715,0.174456,1.585998,0.967993,0.408887,0.160821,0.132935
1769161532.16561,1769161532.165883,31.0,0.0,4293.205078,4288.717773,4316.410156,4314.743652,4290.0,4282.436035,4277.94873,4294.102539,4288.974121,4280.384766,4572.563965,4538.461426,4419.743652,4489.487305,,,,,,,,,,,,,,,,,,,,,,,,,,,,,,,,,,,,,,,,,,,,,,,,,,,,,,,,,,,,,,,,,,,,,,
1769161532.173418,1769161532.173492,32.0,0.0,4292.05127,4282.179688,4316.282227,4310.256348,4286.153809,4282.436035,4281.794922,4295.384766,4296.666504,4278.333496,4572.05127,4545.0,4422.179688,4490.0,,,,,,,,,,,,,,,,,,,,,,,,,,,,,,,,,,,,,,,,,,,,,,,,,,,,,,,,,,,,,,,,,,,,,,
1769161532.181227,1769161532.1813,33.0,0.0,4294.358887,4283.717773,4322.692383,4309.230957,4279.102539,4278.333496,4277.820313,4295.0,4295.512695,4285.128418,4573.974121,4555.0,4429.615234,4492.692383,,,,,,,,,,,,,,,,,,,,,,,,,,,,,,,,,,,,,,,,,,,,,,,,,,,,,,,,,,,,,,,,,,,,,,
1769161532.189035,1769161532.189208,34.0,0.0,4298.717773,4289.615234,4325.256348,4312.692383,4276.922852,4281.666504,4281.282227,4297.820313,4293.974121,4286.153809,4577.436035,4552.94873,4427.692383,4492.436035,,,,,,,,,,,,,,,,,,,,,,,,,,,,,,,,,,,,,,,,,,,,,,,,,,,,,,,,,,,,,,,,,,,,,,
1769161532.196844,1769161532.197017,35.0,0.0,4302.563965,4292.692383,4327.436035,4321.153809,4280.512695,4281.025879,4276.922852,4290.769043,4288.205078,4273.461426,4575.0,4547.563965,4422.94873,4492.307617,,,,,,,,,,,,,,,,,,,,,,,,,,,,,,,,,,,,,,,,,,,,,,,,,,,,,,,,,,,,,,,,,,,,,,
1769161532.204652,1769161532.204625,36.0,0.0,4308.717773,4295.512695,4332.05127,4327.05127,4283.589844,4268.846191,4262.307617,4276.922852,4279.743652,4270.897461,4570.256348,4547.563965,4423.974121,4492.94873,,,,,,,,,,,,,,,,,,,,,,,,,,,,,,,,,,,,,,,,,,,,,,,,,,,,,,,,,,,,,,,,,,,,,,
1769161532.212461,1769161532.212434,37.0,0.0,4307.820313,4296.282227,4328.717773,4321.538574,4281.922852,4265.897461,4259.871582,4276.153809,4276.922852,4281.025879,4571.794922,4543.077148,4420.897461,4489.871582,,,,,,,,,,,,,,,,,,,,,,,,,,,,,,,,,,,,,,,,,,,,,,,,,,,,,,,,,,,,,,,,,,,,,,
1769161532.220269,1769161532.220142,38.0,0.0,4297.692383,4293.461426,4323.589844,4316.025879,4278.589844,4278.205078,4268.846191,4283.333496,4278.205078,4282.05127,4570.128418,4542.05127,4418.333496,4490.256348,,,,,,,,,,,,,,,,,,,,,,,,,,,,,,,,,,,,,,,,,,,,,,,,,,,,,,,,,,,,,,,,,,,,,,
1769161532.228078,1769161532.227951,39.0,0.0,4299.358887,4294.487305,4331.282227,4319.230957,4279.871582,4281.794922,4274.358887,4291.538574,4285.641113,4278.974121,4571.410156,4552.307617,4424.871582,4501.025879,,,,,,,,,,,,,,,,,,,,,,,,,,,,,,,,,,,,,,,,,,,,,,,,,,,,,,,,,,,,,,,,,,,,,,
1769161532.235886,1769161532.235959,40.0,0.0,4308.589844,4297.179688,4339.358887,4322.94873,4289.358887,4275.512695,4277.94873,4296.410156,4293.205078,4281.538574,4577.94873,4556.794922,4423.589844,4504.743652,,,,,,,,,,,,,,,,,,,,,,,,,,,,,,,,,,,,,,,,,,,,,,,,,,,,,,,,,,,,,,,,,,,,,,
1769161532.243694,1769161532.243768,41.0,0.0,4306.282227,4297.563965,4334.615234,4324.358887,4295.128418,4281.025879,4281.153809,4290.0,4284.615234,4276.025879,4575.0,4553.461426,4415.384766,4499.358887,,,,,,,,,,,,,,,,,,,,,,,,,,,,,,,,,,,,,,,,,,,,,,,,,,,,,,,,,,,,,,,,,,,,,,
1769161532.251503,1769161532.251676,42.0,0.0,4300.0,4297.692383,4327.692383,4325.0,4287.94873,4282.94873,4279.615234,4284.358887,4277.692383,4270.256348,4574.487305,4555.256348,4421.666504,4501.922852,,,,,,,,,,,,,,,,,,,,,,,,,,,,,,,,,,,,,,,,,,,,,,,,,,,,,,,,,,,,,,,,,,,,,,
1769161532.259311,1769161532.259484,43.0,0.0,4299.487305,4296.922852,4327.307617,4324.871582,4283.205078,4269.615234,4276.410156,4290.384766,4288.077148,4277.436035,4585.0,4559.615234,4433.077148,4508.589844,,,,,,,,,,,,,,,,,,,,,,,,,,,,,,,,,,,,,,,,,,,,,,,,,,,,,,,,,,,,,,,,,,,,,,
1769161532.26712,1769161532.267493,44.0,0.0,4297.179688,4295.897461,4329.615234,4324.358887,4289.871582,4268.333496,4276.666504,4295.641113,4294.487305,4282.692383,4586.410156,4559.487305,4433.077148,4510.384766,,,,,,,,,,,,,,,,,,,,,,,,,,,,,,,,,,,,,,,,,,,,,,,,,,,,,,,,,,,,,,,,,,,,,,
1769161532.274928,1769161532.275301,45.0,0.0,4295.384766,4293.205078,4327.692383,4319.743652,4290.0,4279.230957,4277.94873,4295.0,4288.974121,4280.512695,4578.077148,4557.94873,4429.230957,4505.512695,,,,,,,,,,,,,,,,,,,,,,,,,,,,,,,,,,,,,,,,,,,,,,,,,,,,,,,,,,,,,,,,,,,,,,
1769161532.282737,1769161532.283209,46.0,0.0,4295.128418,4289.615234,4325.256348,4315.128418,4281.794922,4278.974121,4277.563965,4292.692383,4282.820313,4277.94873,4572.307617,4553.974121,4421.666504,4495.128418,1.116944,0.549821,0.138692,0.301381,0.176551,0.382967,0.411215,0.298174,0.157584,0.112695,0.640718,0.210902,0.061557,0.147747,0.149665,0.411735,0.211936,0.310041,0.215578,0.119876,0.192338,0.126873,0.17705,0.119016,0.094457,0.272151,0.262736,0.154677,0.206918,0.126653,0.26404,0.436576,0.096399,0.146902,0.251275,0.252316,0.542764,0.244749,0.1208,0.087274,0.486631,0.334991,0.201152,0.086455,0.146712,0.323845,0.502715,0.44184,0.2877,0.428286,0.732094,0.244029,0.321465,0.17113,0.14986,1.121909,0.360751,0.248027,0.123886,0.167817,0.949201,0.516599,0.359256,0.220711,0.173369,1.530422,0.929995,0.453474,0.158257,0.127199
1769161532.290545,1769161532.291018,47.0,0.0,4295.0,4290.128418,4327.436035,4318.717773,4278.589844,4275.0,4277.820313,4292.692383,4279.615234,4276.538574,4569.743652,4551.794922,4419.487305,4493.205078,,,,,,,,,,,,,,,,,,,,,,,,,,,,,,,,,,,,,,,,,,,,,,,,,,,,,,,,,,,,,,,,,,,,,,
1769161532.298354,1769161532.299026,48.0,0.0,4295.384766,4293.846191,4326.153809,4320.897461,4282.179688,4278.846191,4277.563965,4291.922852,4281.025879,4277.179688,4571.025879,4554.487305,4427.94873,4500.256348,,,,,,,,,,,,,,,,,,,,,,,,,,,,,,,,,,,,,,,,,,,,,,,,,,,,,,,,,,,,,,,,,,,,,,
1769161532.306162,1769161532.306835,49.0,0.0,4293.589844,4296.666504,4320.512695,4321.666504,4286.922852,4280.769043,4275.897461,4290.128418,4281.025879,4278.974121,4572.563965,4551.794922,4425.384766,4498.077148,,,,,,,,,,,,,,,,,,,,,,,,,,,,,,,,,,,,,,,,,,,,,,,,,,,,,,,,,,,,,,,,,,,,,,
1769161532.31397,1769161532.314743,50.0,0.0,4292.820313,4297.692383,4316.666504,4322.692383,4286.922852,4277.05127,4274.230957,4290.384766,4282.179688,4275.128418,4567.05127,4545.769043,4413.077148,4492.820313,,,,,,,,,,,,,,,,,,,,,,,,,,,,,,,,,,,,,,,,,,,,,,,,,,,,,,,,,,,,,,,,,,,,,,
1769161532.321779,1769161532.322551,51.0,0.0,4289.102539,4295.897461,4313.717773,4317.307617,4280.256348,4278.589844,4277.563965,4288.077148,4280.512695,4271.153809,4554.615234,4538.077148,4408.589844,4488.077148,,,,,,,,,,,,,,,,,,,,,,,,,,,,,,,,,,,,,,,,,,,,,,,,,,,,,,,,,,,,,,,,,,,,,,
1769161532.329587,1769161532.33016,52.0,0.0,4284.358887,4292.307617,4311.794922,4317.179688,4278.974121,4280.128418,4276.922852,4274.230957,4265.769043,4261.922852,4542.692383,4525.128418,4405.0,4477.692383,,,,,,,,,,,,,,,,,,,,,,,,,,,,,,,,,,,,,,,,,,,,,,,,,,,,,,,,,,,,,,,,,,,,,,
1769161532.337396,1769161532.337968,53.0,0.0,4288.077148,4293.333496,4312.692383,4326.282227,4283.333496,4275.384766,4266.410156,4272.179688,4266.410156,4249.615234,4546.666504,4527.820313,4400.384766,4475.512695,,,,,,,,,,,,,,,,,,,,,,,,,,,,,,,,,,,,,,,,,,,,,,,,,,,,,,,,,,,,,,,,,,,,,,
1769161532.345204,1769161532.345677,54.0,0.0,4291.153809,4295.641113,4311.794922,4325.0,4283.077148,4273.205078,4264.230957,4285.512695,4280.128418,4253.974121,4555.512695,4537.692383,4402.94873,4480.641113,,,,,,,,,,,,,,,,,,,,,,,,,,,,,,,,,,,,,,,,,,,,,,,,,,,,,,,,,,,,,,,,,,,,,,
1769161532.353013,1769161532.353485,55.0,0.0,4289.102539,4293.077148,4308.461426,4316.153809,4280.0,4277.692383,4270.256348,4284.358887,4271.282227,4264.615234,4549.487305,4528.333496,4401.666504,4475.641113,,,,,,,,,,,,,,,,,,,,,,,,,,,,,,,,,,,,,,,,,,,,,,,,,,,,,,,,,,,,,,,,,,,,,,
1769161532.360821,1769161532.361094,56.0,0.0,4288.974121,4292.94873,4309.743652,4318.461426,4282.05127,4281.153809,4269.358887,4278.205078,4260.512695,4263.846191,4546.538574,4522.820313,4396.282227,4471.410156,,,,,,,,,,,,,,,,,,,,,,,,,,,,,,,,,,,,,,,,,,,,,,,,,,,,,,,,,,,,,,,,,,,,,,
1769161532.36863,1769161532.368902,57.0,0.0,4287.179688,4296.794922,4312.179688,4326.538574,4287.94873,4281.153809,4267.94873,4280.256348,4274.487305,4259.487305,4554.615234,4536.794922,4401.410156,4476.538574,,,,,,,,,,,,,,,,,,,,,,,,,,,,,,,,,,,,,,,,,,,,,,,,,,,,,,,,,,,,,,,,,,,,,,
1769161532.376438,1769161532.376611,58.0,0.0,4281.794922,4295.256348,4309.358887,4325.769043,4289.871582,4280.897461,4275.128418,4280.0,4282.179688,4261.922852,4553.077148,4540.897461,4407.05127,4476.666504,,,,,,,,,,,,,,,,,,,,,,,,,,,,,,,,,,,,,,,,,,,,,,,,,,,,,,,,,,,,,,,,,,,,,,
1769161532.384246,1769161532.384419,59.0,0.0,4281.282227,4291.538574,4306.538574,4321.794922,4285.384766,4280.641113,4277.94873,4282.94873,4276.282227,4267.692383,4550.384766,4533.974121,4405.384766,4474.230957,,,,,,,,,,,,,,,,,,,,,,,,,,,,,,,,,,,,,,,,,,,,,,,,,,,,,,,,,,,,,,,,,,,,,,
1769161532.392055,1769161532.392428,60.0,0.0,4282.563965,4293.077148,4309.102539,4322.563965,4280.769043,4282.820313,4276.538574,4288.589844,4278.717773,4261.794922,4557.94873,4537.94873,4403.717773,4477.307617,,,,,,,,,,,,,,,,,,,,,,,,,,,,,,,,,,,,,,,,,,,,,,,,,,,,,,,,,,,,,,,,,,,,,,
1769161532.399863,1769161532.400236,61.0,0.0,4282.307617,4293.974121,4310.641113,4324.743652,4282.307617,4286.025879,4278.333496,4284.615234,4278.205078,4250.512695,4557.692383,4543.461426,4402.563965,4478.333496,,,,,,,,,,,,,,,,,,,,,,,,,,,,,,,,,,,,,,,,,,,,,,,,,,,,,,,,,,,,,,,,,,,,,,
1769161532.407672,1769161532.408145,62.0,0.0,4281.794922,4288.717773,4303.077148,4323.333496,4283.589844,4283.077148,4277.307617,4278.846191,4274.230957,4257.307617,4552.436035,4542.94873,4403.333496,4472.436035,0.935082,0.595153,0.172982,0.311731,0.174518,0.374692,0.463489,0.370308,0.157164,0.105225,0.638983,0.244169,0.069082,0.164823,0.130231,0.450031,0.305156,0.307916,0.213186,0.105915,0.182728,0.130507,0.207563,0.126709,0.100826,0.252838,0.234366,0.161815,0.193999,0.126957,0.269443,0.436441,0.144661,0.147467,0.275482,0.298619,0.554921,0.269277,0.106749,0.091647,0.443477,0.301268,0.231856,0.074698,0.1423,0.316516,0.613152,0.594235,0.263933,0.410876,0.68781,0.290637,0.354999,0.183159,0.139487,1.03068,0.458922,0.291397,0.127615,0.16303,0.958952,0.573354,0.417989,0.216745,0.174248,1.376824,0.85634,0.533491,0.157318,0.122071
1769161532.41548,1769161532.415953,63.0,0.0,4277.820313,4282.563965,4295.256348,4318.205078,4277.820313,4281.410156,4278.333496,4280.384766,4275.384766,4271.025879,4552.94873,4538.717773,4402.94873,4463.589844,,,,,,,,,,,,,,,,,,,,,,,,,,,,,,,,,,,,,,,,,,,,,,,,,,,,,,,,,,,,,,,,,,,,,,
1769161532.423289,1769161532.423562,64.0,0.0,4275.641113,4277.94873,4293.589844,4311.153809,4273.333496,4285.128418,4281.282227,4285.256348,4276.025879,4262.05127,4552.436035,4534.358887,4396.538574,4459.871582,,,,,,,,,,,,,,,,,,,,,,,,,,,,,,,,,,,,,,,,,,,,,,,,,,,,,,,,,,,,,,,,,,,,,,
1769161532.431097,1769161532.43137,65.0,0.0,4279.743652,4278.846191,4293.846191,4311.922852,4276.922852,4282.692383,4277.820313,4291.794922,4278.717773,4256.922852,4550.512695,4537.436035,4396.410156,4465.897461,,,,,,,,,,,,,,,,,,,,,,,,,,,,,,,,,,,,,,,,,,,,,,,,,,,,,,,,,,,,,,,,,,,,,,
1769161532.438906,1769161532.439079,66.0,0.0,4280.897461,4284.871582,4294.615234,4320.897461,4280.769043,4278.717773,4277.05127,4289.487305,4282.05127,4272.692383,4554.615234,4540.769043,4408.077148,4472.563965,,,,,,,,,,,,,,,,,,,,,,,,,,,,,,,,,,,,,,,,,,,,,,,,,,,,,,,,,,,,,,,,,,,,,,
1769161532.446714,1769161532.446887,67.0,0.0,4278.461426,4287.179688,4293.974121,4323.205078,4277.692383,4278.333496,4278.333496,4280.641113,4281.794922,4275.641113,4558.846191,4541.025879,4413.205078,4475.0,,,,,,,,,,,,,,,,,,,,,,,,,,,,,,,,,,,,,,,,,,,,,,,,,,,,,,,,,,,,,,,,,,,,,,
1769161532.454523,1769161532.454895,68.0,0.0,4283.333496,4288.717773,4291.666504,4321.025879,4276.282227,4272.563965,4270.512695,4278.205078,4278.077148,4261.538574,4558.077148,4539.102539,4410.128418,4476.025879,,,,,,,,,,,,,,,,,,,,,,,,,,,,,,,,,,,,,,,,,,,,,,,,,,,,,,,,,,,,,,,,,,,,,,
1769161532.462331,1769161532.462704,69.0,0.0,4290.384766,4292.563965,4293.717773,4325.769043,4277.179688,4270.641113,4264.358887,4278.077148,4277.05127,4258.077148,4555.769043,4539.102539,4411.410156,4476.666504,,,,,,,,,,,,,,,,,,,,,,,,,,,,,,,,,,,,,,,,,,,,,,,,,,,,,,,,,,,,,,,,,,,,,,
1769161532.47014,1769161532.470612,70.0,0.0,4290.769043,4293.846191,4295.384766,4326.282227,4277.436035,4277.94873,4263.717773,4279.358887,4280.128418,4268.205078,4555.384766,4548.077148,4411.282227,4482.692383,,,,,,,,,,,,,,,,,,,,,,,,,,,,,,,,,,,,,,,,,,,,,,,,,,,,,,,,,,,,,,,,,,,,,,
1769161532.477948,1769161532.478421,71.0,0.0,4291.922852,4294.871582,4295.128418,4322.307617,4283.589844,4282.05127,4265.897461,4282.179688,4281.153809,4275.256348,4563.717773,4556.410156,4416.153809,4492.94873,,,,,,,,,,,,,,,,,,,,,,,,,,,,,,,,,,,,,,,,,,,,,,,,,,,,,,,,,,,,,,,,,,,,,,
1769161532.485757,1769161532.486429,72.0,0.0,4297.307617,4298.461426,4299.358887,4329.358887,4287.307617,4281.410156,4271.666504,4280.128418,4278.717773,4273.333496,4571.410156,4555.256348,4427.692383,4497.05127,,,,,,,,,,,,,,,,,,,,,,,,,,,,,,,,,,,,,,,,,,,,,,,,,,,,,,,,,,,,,,,,,,,,,,
1769161532.493565,1769161532.494237,73.0,0.0,4295.897461,4298.333496,4300.769043,4334.487305,4281.794922,4282.820313,4272.563965,4276.538574,4277.820313,4264.743652,4565.0,4552.436035,4422.820313,4489.743652,,,,,,,,,,,,,,,,,,,,,,,,,,,,,,,,,,,,,,,,,,,,,,,,,,,,,,,,,,,,,,,,,,,,,,
1769161532.501373,1769161532.501946,74.0,0.0,4288.974121,4295.641113,4295.256348,4327.179688,4278.205078,4280.641113,4268.333496,4277.820313,4278.077148,4260.769043,4558.589844,4553.846191,4411.922852,4484.230957,,,,,,,,,,,,,,,,,,,,,,,,,,,,,,,,,,,,,,,,,,,,,,,,,,,,,,,,,,,,,,,,,,,,,,
1769161532.509182,1769161532.509754,75.0,0.0,4290.512695,4297.05127,4295.384766,4322.820313,4279.358887,4274.871582,4268.205078,4283.846191,4280.0,4270.128418,4564.615234,4555.769043,4419.358887,4487.436035,,,,,,,,,,,,,,,,,,,,,,,,,,,,,,,,,,,,,,,,,,,,,,,,,,,,,,,,,,,,,,,,,,,,,,
1769161532.51699,1769161532.517363,76.0,0.0,4298.589844,4298.077148,4299.615234,4327.05127,4278.974121,4278.589844,4271.282227,4291.025879,4286.922852,4280.256348,4571.025879,4555.512695,4428.077148,4491.025879,,,,,,,,,,,,,,,,,,,,,,,,,,,,,,,,,,,,,,,,,,,,,,,,,,,,,,,,,,,,,,,,,,,,,,
1769161532.524799,1769161532.525171,77.0,0.0,4296.282227,4296.666504,4297.436035,4327.94873,4278.974121,4278.077148,4274.358887,4287.94873,4287.307617,4277.307617,4567.563965,4553.461426,4419.743652,4489.743652,,,,,,,,,,,,,,,,,,,,,,,,,,,,,,,,,,,,,,,,,,,,,,,,,,,,,,,,,,,,,,,,,,,,,,
1769161532.532607,1769161532.53288,78.0,0.0,4283.717773,4294.230957,4294.230957,4325.512695,4277.820313,4267.436035,4279.358887,4278.846191,4280.512695,4269.230957,4564.102539,4552.563965,4414.230957,4489.358887,0.753898,0.632916,0.211254,0.323842,0.16427,0.399918,0.542698,0.453263,0.160674,0.099989,0.597568,0.270708,0.087157,0.17482,0.110635,0.514915,0.419776,0.290754,0.200655,0.094486,0.192616,0.137546,0.232493,0.124534,0.103391,0.238546,0.205051,0.167858,0.173436,0.129059,0.284543,0.444157,0.255858,0.154528,0.278373,0.37298,0.576857,0.322095,0.103355,0.109835,0.409606,0.278244,0.276201,0.069919,0.141773,0.301192,0.708069,0.795194,0.253611,0.376343,0.613872,0.319282,0.380949,0.182538,0.13326,0.942074,0.534083,0.331742,0.136091,0.155176,0.941246,0.603813,0.475671,0.214423,0.175435,1.193861,0.765933,0.638104,0.153286,0.117093
1769161532.540416,1769161532.540688,79.0,0.0,4281.922852,4292.307617,4293.589844,4325.128418,4275.128418,4269.487305,4280.641113,4279.358887,4279.487305,4261.666504,4564.871582,4555.769043,4415.256348,4490.256348,,,,,,,,,,,,,,,,,,,,,,,,,,,,,,,,,,,,,,,,,,,,,,,,,,,,,,,,,,,,,,,,,,,,,,
1769161532.548224,1769161532.548297,80.0,0.0,4291.666504,4292.692383,4294.102539,4326.153809,4276.025879,4281.538574,4278.077148,4282.563965,4281.025879,4260.512695,4563.974121,4553.717773,4410.769043,4484.358887,,,,,,,,,,,,,,,,,,,,,,,,,,,,,,,,,,,,,,,,,,,,,,,,,,,,,,,,,,,,,,,,,,,,,,
1769161532.556033,1769161532.556105,81.0,0.0,4296.666504,4295.256348,4295.641113,4330.128418,4278.846191,4280.769043,4277.563965,4280.128418,4281.666504,4271.922852,4565.384766,4551.538574,4415.128418,4485.128418,,,,,,,,,,,,,,,,,,,,,,,,,,,,,,,,,,,,,,,,,,,,,,,,,,,,,,,,,,,,,,,,,,,,,,
1769161532.563841,1769161532.563814,82.0,0.0,4294.615234,4297.179688,4295.512695,4329.230957,4281.025879,4275.0,4275.256348,4278.846191,4281.666504,4279.615234,4569.743652,4554.743652,4423.974121,4489.615234,,,,,,,,,,,,,,,,,,,,,,,,,,,,,,,,,,,,,,,,,,,,,,,,,,,,,,,,,,,,,,,,,,,,,,
1769161532.571649,1769161532.571622,83.0,0.0,4290.384766,4296.282227,4295.384766,4327.05127,4283.589844,4277.94873,4271.025879,4279.615234,4280.641113,4277.436035,4569.871582,4550.256348,4418.974121,4481.922852,,,,,,,,,,,,,,,,,,,,,,,,,,,,,,,,,,,,,,,,,,,,,,,,,,,,,,,,,,,,,,,,,,,,,,
1769161532.579458,1769161532.579631,84.0,0.0,4290.256348,4295.256348,4295.384766,4332.94873,4283.589844,4275.897461,4264.615234,4279.230957,4279.871582,4278.974121,4564.487305,4542.692383,4411.282227,4472.692383,,,,,,,,,,,,,,,,,,,,,,,,,,,,,,,,,,,,,,,,,,,,,,,,,,,,,,,,,,,,,,,,,,,,,,
1769161532.587266,1769161532.587439,85.0,0.0,4294.615234,4296.410156,4296.538574,4335.641113,4282.436035,4272.94873,4264.615234,4279.871582,4281.410156,4276.922852,4562.179688,4548.589844,4413.077148,4474.358887,,,,,,,,,,,,,,,,,,,,,,,,,,,,,,,,,,,,,,,,,,,,,,,,,,,,,,,,,,,,,,,,,,,,,,
1769161532.595075,1769161532.595347,86.0,0.0,4295.0,4296.538574,4298.077148,4328.205078,4281.794922,4277.692383,4275.128418,4280.0,4281.794922,4268.333496,4565.897461,4555.641113,4413.846191,4481.666504,,,,,,,,,,,,,,,,,,,,,,,,,,,,,,,,,,,,,,,,,,,,,,,,,,,,,,,,,,,,,,,,,,,,,,
1769161532.602883,1769161532.603156,87.0,0.0,4290.897461,4294.102539,4298.077148,4324.230957,4278.717773,4271.922852,4278.589844,4279.487305,4280.512695,4265.512695,4565.897461,4549.358887,4411.025879,4487.05127,,,,,,,,,,,,,,,,,,,,,,,,,,,,,,,,,,,,,,,,,,,,,,,,,,,,,,,,,,,,,,,,,,,,,,
1769161532.610692,1769161532.611164,88.0,0.0,4287.820313,4292.05127,4294.743652,4325.512695,4276.282227,4266.538574,4277.05127,4282.05127,4279.615234,4266.666504,4560.384766,4549.102539,4411.538574,4489.615234,,,,,,,,,,,,,,,,,,,,,,,,,,,,,,,,,,,,,,,,,,,,,,,,,,,,,,,,,,,,,,,,,,,,,,
1769161532.6185,1769161532.618973,89.0,0.0,4288.205078,4292.692383,4294.358887,4325.128418,4277.179688,4274.871582,4277.94873,4282.563965,4278.205078,4260.384766,4555.769043,4552.436035,4410.0,4487.563965,,,,,,,,,,,,,,,,,,,,,,,,,,,,,,,,,,,,,,,,,,,,,,,,,,,,,,,,,,,,,,,,,,,,,,
1769161532.626309,1769161532.626681,90.0,0.0,4293.461426,4295.384766,4300.384766,4327.179688,4278.717773,4280.128418,4276.410156,4276.922852,4278.846191,4258.461426,4557.307617,4544.871582,4409.230957,4483.589844,,,,,,,,,,,,,,,,,,,,,,,,,,,,,,,,,,,,,,,,,,,,,,,,,,,,,,,,,,,,,,,,,,,,,,
1769161532.634117,1769161532.63449,91.0,0.0,4295.641113,4296.025879,4299.102539,4328.461426,4278.974121,4275.769043,4273.205078,4274.487305,4277.05127,4267.820313,4558.461426,4540.769043,4412.692383,4480.256348,,,,,,,,,,,,,,,,,,,,,,,,,,,,,,,,,,,,,,,,,,,,,,,,,,,,,,,,,,,,,,,,,,,,,,
1769161532.641925,1769161532.642498,92.0,0.0,4291.282227,4294.743652,4295.128418,4326.282227,4279.102539,4269.871582,4270.512695,4276.666504,4274.358887,4272.820313,4555.769043,4547.05127,4412.94873,4479.230957,,,,,,,,,,,,,,,,,,,,,,,,,,,,,,,,,,,,,,,,,,,,,,,,,,,,,,,,,,,,,,,,,,,,,,
1769161532.649734,1769161532.650306,93.0,0.0,4290.256348,4294.487305,4300.128418,4324.615234,4277.05127,4263.974121,4264.102539,4276.153809,4275.512695,4265.0,4554.230957,4547.179688,4404.615234,4480.641113,,,,,,,,,,,,,,,,,,,,,,,,,,,,,,,,,,,,,,,,,,,,,,,,,,,,,,,,,,,,,,,,,,,,,,
1769161532.657542,1769161532.658215,94.0,0.0,4293.077148,4294.358887,4305.641113,4325.384766,4275.897461,4261.922852,4263.717773,4274.871582,4277.307617,4260.384766,4554.743652,4543.077148,4400.512695,4483.974121,0.644387,0.648146,0.248585,0.321485,0.149055,0.470552,0.621586,0.537477,0.163724,0.09566,0.535867,0.280186,0.113799,0.174963,0.095065,0.59427,0.524187,0.267276,0.183661,0.08936,0.210583,0.149203,0.249091,0.113441,0.103527,0.23213,0.178781,0.182716,0.153911,0.133587,0.317322,0.463012,0.434656,0.173545,0.259492,0.469052,0.60292,0.407213,0.116191,0.137206,0.388016,0.282012,0.326341,0.077328,0.14613,0.285048,0.750846,1.004229,0.254385,0.332552,0.564279,0.331349,0.388685,0.171237,0.131944,0.922197,0.577871,0.35231,0.143861,0.145549,0.920356,0.616837,0.518565,0.209008,0.174947,1.088304,0.67823,0.736367,0.147682,0.112597
1769161532.665351,1769161532.666023,95.0,0.0,4291.282227,4291.282227,4303.461426,4327.563965,4273.589844,4267.563965,4274.871582,4279.102539,4278.461426,4265.128418,4555.897461,4543.589844,4408.333496,4490.512695,,,,,,,,,,,,,,,,,,,,,,,,,,,,,,,,,,,,,,,,,,,,,,,,,,,,,,,,,,,,,,,,,,,,,,
1769161532.673159,1769161532.674031,96.0,0.0,4288.077148,4287.692383,4302.94873,4327.05127,4268.589844,4266.025879,4275.641113,4282.692383,4278.589844,4262.307617,4556.666504,4542.307617,4411.794922,4489.102539,,,,,,,,,,,,,,,,,,,,,,,,,,,,,,,,,,,,,,,,,,,,,,,,,,,,,,,,,,,,,,,,,,,,,,
1769161532.680968,1769161532.68184,97.0,0.0,4288.205078,4289.743652,4305.897461,4328.077148,4271.153809,4263.333496,4269.102539,4281.538574,4279.102539,4261.282227,4555.256348,4543.333496,4407.94873,4481.410156,,,,,,,,,,,,,,,,,,,,,,,,,,,,,,,,,,,,,,,,,,,,,,,,,,,,,,,,,,,,,,,,,,,,,,
1769161532.688776,1769161532.689548,98.0,0.0,4289.230957,4293.333496,4305.256348,4331.153809,4279.358887,4271.922852,4275.128418,4277.94873,4279.487305,4274.358887,4557.179688,4550.0,4410.641113,4483.461426,,,,,,,,,,,,,,,,,,,,,,,,,,,,,,,,,,,,,,,,,,,,,,,,,,,,,,,,,,,,,,,,,,,,,,
1769161532.696585,1769161532.697357,99.0,0.0,4293.461426,4292.563965,4306.025879,4329.871582,4275.128418,4273.717773,4277.179688,4275.128418,4278.717773,4280.897461,4562.436035,4549.615234,4416.538574,4491.922852,,,,,,,,,,,,,,,,,,,,,,,,,,,,,,,,,,,,,,,,,,,,,,,,,,,,,,,,,,,,,,,,,,,,,,
1769161532.704393,1769161532.704965,100.0,0.0,4294.743652,4290.641113,4308.205078,4326.410156,4265.256348,4262.820313,4264.487305,4277.563965,4278.974121,4276.025879,4565.256348,4544.615234,4413.333496,4493.333496,,,,,,,,,,,,,,,,,,,,,,,,,,,,,,,,,,,,,,,,,,,,,,,,,,,,,,,,,,,,,,,,,,,,,,
1769161532.712201,1769161532.712774,101.0,0.0,4289.871582,4291.153809,4308.205078,4327.05127,4269.358887,4260.384766,4263.461426,4280.897461,4279.615234,4276.025879,4565.0,4544.102539,4410.256348,4490.641113,,,,,,,,,,,,,,,,,,,,,,,,,,,,,,,,,,,,,,,,,,,,,,,,,,,,,,,,,,,,,,,,,,,,,,
1769161532.72001,1769161532.720482,102.0,0.0,4288.974121,4292.563965,4307.692383,4327.179688,4276.922852,4273.205078,4279.487305,4279.102539,4278.846191,4279.871582,4564.487305,4543.717773,4419.230957,4491.025879,,,,,,,,,,,,,,,,,,,,,,,,,,,,,,,,,,,,,,,,,,,,,,,,,,,,,,,,,,,,,,,,,,,,,,
1769161532.727818,1769161532.728291,103.0,0.0,4294.102539,4292.436035,4307.820313,4325.128418,4275.128418,4276.282227,4278.205078,4276.666504,4277.436035,4274.615234,4563.077148,4540.256348,4424.743652,4493.589844,,,,,,,,,,,,,,,,,,,,,,,,,,,,,,,,,,,,,,,,,,,,,,,,,,,,,,,,,,,,,,,,,,,,,,
1769161532.735627,1769161532.735899,104.0,0.0,4296.153809,4292.436035,4309.871582,4326.410156,4274.871582,4265.384766,4265.0,4277.692383,4279.230957,4266.025879,4558.077148,4538.974121,4417.436035,4488.589844,,,,,,,,,,,,,,,,,,,,,,,,,,,,,,,,,,,,,,,,,,,,,,,,,,,,,,,,,,,,,,,,,,,,,,
1769161532.743435,1769161532.743708,105.0,0.0,4293.717773,4292.820313,4309.358887,4325.769043,4278.333496,4263.077148,4264.615234,4276.538574,4279.358887,4259.487305,4553.589844,4534.487305,4408.717773,4481.282227,,,,,,,,,,,,,,,,,,,,,,,,,,,,,,,,,,,,,,,,,,,,,,,,,,,,,,,,,,,,,,,,,,,,,,
1769161532.751244,1769161532.751416,106.0,0.0,4293.333496,4291.538574,4309.615234,4323.974121,4278.333496,4269.102539,4271.025879,4275.512695,4277.563965,4265.0,4560.128418,4536.922852,4412.436035,4485.897461,,,,,,,,,,,,,,,,,,,,,,,,,,,,,,,,,,,,,,,,,,,,,,,,,,,,,,,,,,,,,,,,,,,,,,
1769161532.759052,1769161532.759225,107.0,0.0,4296.153809,4291.794922,4317.307617,4332.05127,4278.205078,4265.256348,4268.077148,4280.128418,4281.025879,4284.102539,4572.820313,4549.230957,4423.589844,4495.256348,,,,,,,,,,,,,,,,,,,,,,,,,,,,,,,,,,,,,,,,,,,,,,,,,,,,,,,,,,,,,,,,,,,,,,
1769161532.766861,1769161532.766834,108.0,0.0,4297.692383,4295.641113,4320.256348,4337.820313,4281.666504,4260.897461,4261.538574,4282.436035,4282.820313,4288.974121,4572.692383,4548.846191,4425.128418,4492.179688,,,,,,,,,,,,,,,,,,,,,,,,,,,,,,,,,,,,,,,,,,,,,,,,,,,,,,,,,,,,,,,,,,,,,,
1769161532.774669,1769161532.774642,109.0,0.0,4296.282227,4297.563965,4314.743652,4330.641113,4283.077148,4270.256348,4266.410156,4277.94873,4278.461426,4278.846191,4563.461426,4537.05127,4415.512695,4487.94873,,,,,,,,,,,,,,,,,,,,,,,,,,,,,,,,,,,,,,,,,,,,,,,,,,,,,,,,,,,,,,,,,,,,,,
1769161532.782478,1769161532.78255,110.0,0.0,4294.487305,4291.922852,4314.743652,4326.538574,4280.641113,4271.025879,4276.666504,4276.666504,4277.307617,4275.128418,4563.589844,4537.179688,4411.025879,4493.205078,0.630832,0.630218,0.278545,0.300567,0.133006,0.578269,0.67241,0.603847,0.16334,0.090395,0.499093,0.271012,0.140563,0.165345,0.085153,0.662289,0.587102,0.244201,0.168224,0.091369,0.230546,0.168141,0.255494,0.097697,0.103339,0.225899,0.15709,0.215,0.142424,0.139404,0.37119,0.490972,0.652383,0.204965,0.224244,0.569794,0.626054,0.513763,0.147063,0.165908,0.372463,0.316792,0.370994,0.098289,0.154581,0.287068,0.725819,1.175794,0.265564,0.289748,0.585575,0.336292,0.375015,0.157937,0.135307,1.01603,0.601489,0.345877,0.149896,0.136715,0.924678,0.619957,0.529661,0.197635,0.172337,1.145737,0.604558,0.791882,0.145488,0.109313
1769161532.790286,1769161532.790359,111.0,0.0,4288.077148,4283.589844,4315.512695,4326.025879,4277.563965,4261.025879,4279.615234,4285.384766,4282.05127,4273.846191,4566.922852,4543.846191,4413.846191,4486.153809,,,,,,,,,,,,,,,,,,,,,,,,,,,,,,,,,,,,,,,,,,,,,,,,,,,,,,,,,,,,,,,,,,,,,,
1769161532.798095,1769161532.798367,112.0,0.0,4278.205078,4276.282227,4307.820313,4316.153809,4278.333496,4268.846191,4276.538574,4294.230957,4287.94873,4271.025879,4563.717773,4542.692383,4411.666504,4473.333496,,,,,,,,,,,,,,,,,,,,,,,,,,,,,,,,,,,,,,,,,,,,,,,,,,,,,,,,,,,,,,,,,,,,,,
1769161532.805903,1769161532.806176,113.0,0.0,4281.153809,4277.307617,4308.333496,4312.692383,4279.743652,4282.692383,4280.769043,4293.333496,4289.871582,4276.666504,4561.153809,4539.743652,4409.743652,4481.282227,,,,,,,,,,,,,,,,,,,,,,,,,,,,,,,,,,,,,,,,,,,,,,,,,,,,,,,,,,,,,,,,,,,,,,
1769161532.813712,1769161532.814084,114.0,0.0,4295.128418,4287.563965,4321.153809,4323.333496,4273.974121,4272.563965,4280.512695,4291.666504,4290.512695,4283.333496,4564.743652,4543.333496,4414.102539,4497.179688,,,,,,,,,,,,,,,,,,,,,,,,,,,,,,,,,,,,,,,,,,,,,,,,,,,,,,,,,,,,,,,,,,,,,,
1769161532.82152,1769161532.821892,115.0,0.0,4299.102539,4288.717773,4327.179688,4327.179688,4270.0,4261.153809,4268.333496,4296.666504,4292.820313,4280.384766,4566.538574,4546.794922,4414.358887,4497.692383,,,,,,,,,,,,,,,,,,,,,,,,,,,,,,,,,,,,,,,,,,,,,,,,,,,,,,,,,,,,,,,,,,,,,,
1769161532.829328,1769161532.829501,116.0,0.0,4291.025879,4280.256348,4324.615234,4320.769043,4275.384766,4270.512695,4269.615234,4291.282227,4287.436035,4273.846191,4562.05127,4543.333496,4411.282227,4490.128418,,,,,,,,,,,,,,,,,,,,,,,,,,,,,,,,,,,,,,,,,,,,,,,,,,,,,,,,,,,,,,,,,,,,,,
1769161532.837137,1769161532.837309,117.0,0.0,4289.487305,4282.179688,4323.974121,4319.102539,4278.717773,4274.743652,4280.897461,4281.922852,4276.922852,4268.717773,4564.230957,4538.333496,4411.794922,4490.769043,,,,,,,,,,,,,,,,,,,,,,,,,,,,,,,,,,,,,,,,,,,,,,,,,,,,,,,,,,,,,,,,,,,,,,
1769161532.844945,1769161532.845218,118.0,0.0,4297.05127,4291.666504,4327.179688,4322.307617,4277.307617,4263.717773,4274.230957,4287.307617,4278.205078,4263.974121,4570.128418,4539.871582,4415.512695,4493.589844,,,,,,,,,,,,,,,,,,,,,,,,,,,,,,,,,,,,,,,,,,,,,,,,,,,,,,,,,,,,,,,,,,,,,,
1769161532.852754,1769161532.853026,119.0,0.0,4300.256348,4293.974121,4329.358887,4324.358887,4277.307617,4262.179688,4265.641113,4287.05127,4283.077148,4261.922852,4562.820313,4540.897461,4415.769043,4493.333496,,,,,,,,,,,,,,,,,,,,,,,,,,,,,,,,,,,,,,,,,,,,,,,,,,,,,,,,,,,,,,,,,,,,,,
1769161532.860562,1769161532.861034,120.0,0.0,4297.692383,4289.358887,4327.179688,4324.871582,4275.384766,4273.846191,4273.846191,4276.794922,4277.94873,4265.641113,4557.692383,4538.589844,4413.717773,4492.307617,,,,,,,,,,,,,,,,,,,,,,,,,,,,,,,,,,,,,,,,,,,,,,,,,,,,,,,,,,,,,,,,,,,,,,
1769161532.868371,1769161532.868843,121.0,0.0,4291.922852,4287.436035,4324.743652,4320.769043,4273.717773,4276.410156,4272.692383,4277.563965,4278.333496,4277.563965,4569.102539,4537.94873,4413.974121,4491.666504,,,,,,,,,,,,,,,,,,,,,,,,,,,,,,,,,,,,,,,,,,,,,,,,,,,,,,,,,,,,,,,,,,,,,,
1769161532.876179,1769161532.876751,122.0,0.0,4283.717773,4288.717773,4324.871582,4313.717773,4278.846191,4271.153809,4264.358887,4282.94873,4285.256348,4282.563965,4569.615234,4537.563965,4413.461426,4491.794922,,,,,,,,,,,,,,,,,,,,,,,,,,,,,,,,,,,,,,,,,,,,,,,,,,,,,,,,,,,,,,,,,,,,,,
1769161532.883988,1769161532.88456,123.0,0.0,4280.641113,4287.94873,4326.153809,4312.05127,4280.384766,4273.333496,4273.846191,4282.820313,4282.563965,4274.358887,4555.897461,4532.179688,4410.256348,4491.410156,,,,,,,,,,,,,,,,,,,,,,,,,,,,,,,,,,,,,,,,,,,,,,,,,,,,,,,,,,,,,,,,,,,,,,
1769161532.891796,1769161532.892168,124.0,0.0,4281.282227,4280.128418,4324.102539,4312.94873,4273.461426,4276.153809,4281.153809,4281.153809,4276.282227,4264.230957,4550.641113,4524.358887,4408.461426,4487.820313,,,,,,,,,,,,,,,,,,,,,,,,,,,,,,,,,,,,,,,,,,,,,,,,,,,,,,,,,,,,,,,,,,,,,,
1769161532.899604,1769161532.899977,125.0,0.0,4279.743652,4275.641113,4323.589844,4310.0,4272.94873,4274.230957,4274.871582,4279.102539,4276.794922,4263.717773,4555.0,4525.128418,4410.256348,4484.871582,,,,,,,,,,,,,,,,,,,,,,,,,,,,,,,,,,,,,,,,,,,,,,,,,,,,,,,,,,,,,,,,,,,,,,
1769161532.907413,1769161532.907685,126.0,0.0,4284.487305,4278.717773,4328.333496,4311.410156,4278.205078,4274.487305,4274.487305,4285.256348,4280.256348,4273.461426,4562.436035,4536.025879,4412.436035,4488.077148,0.696801,0.57731,0.292947,0.265357,0.119773,0.695495,0.677082,0.629051,0.157654,0.082714,0.489634,0.24785,0.156574,0.14839,0.079934,0.6981,0.587891,0.222694,0.157572,0.098162,0.240211,0.195273,0.250267,0.082989,0.104269,0.217862,0.142535,0.26684,0.141454,0.145154,0.442055,0.519582,0.855779,0.24324,0.182388,0.651214,0.636251,0.612682,0.191799,0.187369,0.356173,0.367579,0.396281,0.127582,0.163784,0.317263,0.636404,1.266361,0.288436,0.256713,0.689572,0.342584,0.339724,0.150815,0.141617,1.210939,0.619006,0.314484,0.154374,0.131352,0.968131,0.618449,0.498978,0.181786,0.169088,1.378829,0.546989,0.782477,0.152333,0.107785
1769161532.915221,1769161532.915494,127.0,0.0,4295.897461,4280.769043,4333.846191,4321.153809,4277.436035,4281.153809,4280.641113,4294.102539,4281.410156,4277.563965,4569.615234,4542.692383,4413.846191,4494.102539,,,,,,,,,,,,,,,,,,,,,,,,,,,,,,,,,,,,,,,,,,,,,,,,,,,,,,,,,,,,,,,,,,,,,,
1769161532.92303,1769161532.923102,0.0,0.0,4297.436035,4280.512695,4337.692383,4325.256348,4275.897461,4285.384766,4279.743652,4287.692383,4281.922852,4277.179688,4565.256348,4539.487305,4413.461426,4495.384766,,,,,,,,,,,,,,,,,,,,,,,,,,,,,,,,,,,,,,,,,,,,,,,,,,,,,,,,,,,,,,,,,,,,,,
1769161532.930838,1769161532.930911,1.0,0.0,4291.282227,4282.307617,4339.230957,4322.307617,4279.102539,4283.846191,4278.717773,4280.512695,4283.205078,4275.512695,4557.179688,4535.256348,4411.538574,4491.153809,,,,,,,,,,,,,,,,,,,,,,,,,,,,,,,,,,,,,,,,,,,,,,,,,,,,,,,,,,,,,,,,,,,,,,
1769161532.938647,1769161532.938619,2.0,0.0,4290.384766,4281.666504,4337.307617,4319.230957,4279.743652,4279.487305,4278.077148,4282.820313,4281.282227,4262.179688,4559.102539,4532.820313,4410.256348,4487.179688,,,,,,,,,,,,,,,,,,,,,,,,,,,,,,,,,,,,,,,,,,,,,,,,,,,,,,,,,,,,,,,,,,,,,,
1769161532.946455,1769161532.946428,3.0,0.0,4294.358887,4278.077148,4336.794922,4318.589844,4276.794922,4275.384766,4274.102539,4282.436035,4277.05127,4259.102539,4565.897461,4535.0,4413.205078,4497.05127,,,,,,,,,,,,,,,,,,,,,,,,,,,,,,,,,,,,,,,,,,,,,,,,,,,,,,,,,,,,,,,,,,,,,,
1769161532.954264,1769161532.954037,4.0,0.0,4297.820313,4281.025879,4340.769043,4321.410156,4280.0,4277.692383,4274.230957,4279.358887,4277.692383,4277.563965,4570.128418,4540.641113,4416.666504,4508.974121,,,,,,,,,,,,,,,,,,,,,,,,,,,,,,,,,,,,,,,,,,,,,,,,,,,,,,,,,,,,,,,,,,,,,,
1769161532.962072,1769161532.961845,5.0,0.0,4297.692383,4285.641113,4342.307617,4323.846191,4281.922852,4278.205078,4275.512695,4281.153809,4281.025879,4281.666504,4564.615234,4532.563965,4414.487305,4499.358887,,,,,,,,,,,,,,,,,,,,,,,,,,,,,,,,,,,,,,,,,,,,,,,,,,,,,,,,,,,,,,,,,,,,,,
1769161532.96988,1769161532.969554,6.0,0.0,4295.641113,4282.307617,4343.717773,4321.794922,4275.641113,4270.512695,4272.692383,4283.846191,4280.384766,4268.974121,4557.692383,4523.205078,4412.94873,4487.05127,,,,,,,,,,,,,,,,,,,,,,,,,,,,,,,,,,,,,,,,,,,,,,,,,,,,,,,,,,,,,,,,,,,,,,
1769161532.977689,1769161532.977362,7.0,0.0,4292.692383,4278.333496,4351.794922,4321.153809,4273.717773,4265.256348,4273.974121,4284.615234,4280.384766,4271.922852,4561.410156,4532.05127,4413.974121,4489.358887,,,,,,,,,,,,,,,,,,,,,,,,,,,,,,,,,,,,,,,,,,,,,,,,,,,,,,,,,,,,,,,,,,,,,,
1769161532.985497,1769161532.98537,8.0,0.0,4290.0,4278.461426,4353.333496,4322.692383,4278.205078,4265.769043,4277.94873,4282.94873,4281.538574,4278.717773,4564.743652,4539.102539,4412.307617,4493.846191,,,,,,,,,,,,,,,,,,,,,,,,,,,,,,,,,,,,,,,,,,,,,,,,,,,,,,,,,,,,,,,,,,,,,,
1769161532.993306,1769161532.993179,9.0,0.0,4292.179688,4278.717773,4345.0,4313.846191,4277.820313,4267.05127,4275.897461,4279.358887,4280.128418,4275.769043,4566.153809,4534.615234,4415.897461,4496.666504,,,,,,,,,,,,,,,,,,,,,,,,,,,,,,,,,,,,,,,,,,,,,,,,,,,,,,,,,,,,,,,,,,,,,,
1769161533.001114,1769161533.001087,10.0,0.0,4295.897461,4278.717773,4340.769043,4297.692383,4274.102539,4269.230957,4274.230957,4278.077148,4278.846191,4279.102539,4573.589844,4536.282227,4424.487305,4499.102539,,,,,,,,,,,,,,,,,,,,,,,,,,,,,,,,,,,,,,,,,,,,,,,,,,,,,,,,,,,,,,,,,,,,,,
1769161533.008923,1769161533.008895,11.0,0.0,4293.333496,4278.589844,4342.692383,4291.153809,4275.0,4275.128418,4279.230957,4282.05127,4280.384766,4277.820313,4570.897461,4535.897461,4417.563965,4493.589844,,,,,,,,,,,,,,,,,,,,,,,,,,,,,,,,,,,,,,,,,,,,,,,,,,,,,,,,,,,,,,,,,,,,,,
1769161533.016731,1769161533.016904,12.0,0.0,4291.025879,4278.589844,4343.205078,4295.512695,4278.846191,4279.743652,4281.922852,4290.769043,4284.871582,4261.538574,4555.384766,4524.743652,4403.077148,4486.538574,,,,,,,,,,,,,,,,,,,,,,,,,,,,,,,,,,,,,,,,,,,,,,,,,,,,,,,,,,,,,,,,,,,,,,
1769161533.02454,1769161533.024712,13.0,0.0,4295.256348,4281.410156,4342.820313,4298.077148,4280.769043,4281.410156,4279.871582,4295.0,4288.205078,4259.358887,4556.025879,4522.563965,4406.153809,4489.615234,,,,,,,,,,,,,,,,,,,,,,,,,,,,,,,,,,,,,,,,,,,,,,,,,,,,,,,,,,,,,,,,,,,,,,
1769161533.032348,1769161533.032421,14.0,0.0,4295.769043,4282.307617,4341.666504,4293.846191,4280.128418,4280.0,4280.0,4293.589844,4289.230957,4272.563965,4568.717773,4528.205078,4416.025879,4491.538574,0.792354,0.504016,0.284873,0.224489,0.112109,0.793452,0.635673,0.600014,0.146456,0.072585,0.510373,0.22169,0.154823,0.128136,0.077155,0.68811,0.532205,0.202185,0.150933,0.105716,0.239182,0.225987,0.233282,0.073933,0.106514,0.204311,0.136228,0.329559,0.148485,0.151294,0.514425,0.540655,0.987014,0.279444,0.145369,0.693072,0.627087,0.670956,0.240222,0.194812,0.334835,0.410751,0.392743,0.155899,0.16897,0.376545,0.513302,1.25957,0.325907,0.237896,0.848319,0.351079,0.290411,0.153625,0.14794,1.434084,0.635747,0.268561,0.157253,0.130928,1.048056,0.607247,0.429807,0.166832,0.167981,1.721648,0.503583,0.71257,0.171915,0.108223
1769161533.040156,1769161533.040229,15.0,0.0,4293.205078,4285.0,4340.0,4292.563965,4277.436035,4277.179688,4279.743652,4294.615234,4288.974121,4267.820313,4564.743652,4526.410156,4411.538574,4486.153809,,,,,,,,,,,,,,,,,,,,,,,,,,,,,,,,,,,,,,,,,,,,,,,,,,,,,,,,,,,,,,,,,,,,,,
1769161533.047965,1769161533.048237,16.0,0.0,4296.410156,4292.94873,4341.794922,4298.717773,4278.717773,4277.307617,4279.358887,4293.717773,4284.102539,4259.102539,4552.94873,4520.0,4403.077148,4484.102539,,,,,,,,,,,,,,,,,,,,,,,,,,,,,,,,,,,,,,,,,,,,,,,,,,,,,,,,,,,,,,,,,,,,,,
1769161533.055773,1769161533.056046,17.0,0.0,4296.410156,4288.974121,4342.436035,4298.589844,4280.256348,4279.230957,4279.871582,4291.794922,4282.820313,4272.563965,4557.307617,4522.05127,4406.025879,4487.563965,,,,,,,,,,,,,,,,,,,,,,,,,,,,,,,,,,,,,,,,,,,,,,,,,,,,,,,,,,,,,,,,,,,,,,
1769161533.063582,1769161533.063954,18.0,0.0,4291.282227,4278.333496,4341.410156,4292.05127,4277.307617,4280.0,4279.871582,4295.256348,4292.179688,4283.205078,4571.025879,4533.717773,4414.871582,4490.897461,,,,,,,,,,,,,,,,,,,,,,,,,,,,,,,,,,,,,,,,,,,,,,,,,,,,,,,,,,,,,,,,,,,,,,
1769161533.07139,1769161533.071763,19.0,0.0,4293.461426,4283.589844,4342.436035,4297.179688,4278.077148,4277.179688,4277.820313,4294.230957,4293.589844,4276.153809,4570.128418,4533.717773,4414.871582,4490.512695,,,,,,,,,,,,,,,,,,,,,,,,,,,,,,,,,,,,,,,,,,,,,,,,,,,,,,,,,,,,,,,,,,,,,,
1769161533.079199,1769161533.079471,20.0,0.0,4295.512695,4288.974121,4335.897461,4305.0,4281.538574,4276.153809,4279.487305,4289.102539,4285.769043,4276.153809,4560.128418,4521.410156,4406.922852,4486.538574,,,,,,,,,,,,,,,,,,,,,,,,,,,,,,,,,,,,,,,,,,,,,,,,,,,,,,,,,,,,,,,,,,,,,,
1769161533.087007,1769161533.08728,21.0,0.0,4290.384766,4281.666504,4325.769043,4297.820313,4280.128418,4281.410156,4282.692383,4293.077148,4290.897461,4277.179688,4563.333496,4524.487305,4407.05127,4485.256348,,,,,,,,,,,,,,,,,,,,,,,,,,,,,,,,,,,,,,,,,,,,,,,,,,,,,,,,,,,,,,,,,,,,,,
1769161533.094816,1769161533.094988,22.0,0.0,4287.692383,4283.333496,4324.871582,4292.94873,4277.563965,4281.410156,4280.512695,4297.307617,4296.538574,4268.077148,4571.282227,4536.794922,4412.820313,4490.128418,,,,,,,,,,,,,,,,,,,,,,,,,,,,,,,,,,,,,,,,,,,,,,,,,,,,,,,,,,,,,,,,,,,,,,
1769161533.102624,1769161533.102797,23.0,0.0,4288.846191,4290.512695,4326.794922,4300.256348,4276.282227,4272.692383,4277.436035,4293.077148,4290.641113,4269.230957,4568.589844,4537.820313,4413.461426,4494.743652,,,,,,,,,,,,,,,,,,,,,,,,,,,,,,,,,,,,,,,,,,,,,,,,,,,,,,,,,,,,,,,,,,,,,,
1769161533.110433,1769161533.110805,24.0,0.0,4291.282227,4284.615234,4323.205078,4301.025879,4275.769043,4270.769043,4279.102539,4293.846191,4293.589844,4279.871582,4570.641113,4536.794922,4416.153809,4496.282227,,,,,,,,,,,,,,,,,,,,,,,,,,,,,,,,,,,,,,,,,,,,,,,,,,,,,,,,,,,,,,,,,,,,,,
1769161533.118241,1769161533.118613,25.0,0.0,4293.846191,4281.153809,4320.897461,4295.0,4278.461426,4277.94873,4282.307617,4297.307617,4298.846191,4282.179688,4577.179688,4539.102539,4418.589844,4496.282227,,,,,,,,,,,,,,,,,,,,,,,,,,,,,,,,,,,,,,,,,,,,,,,,,,,,,,,,,,,,,,,,,,,,,,
1769161533.12605,1769161533.126522,26.0,0.0,4293.717773,4287.563965,4320.128418,4295.256348,4280.769043,4281.538574,4281.794922,4293.205078,4294.615234,4279.487305,4576.538574,4537.692383,4415.769043,4498.589844,,,,,,,,,,,,,,,,,,,,,,,,,,,,,,,,,,,,,,,,,,,,,,,,,,,,,,,,,,,,,,,,,,,,,,
1769161533.133858,1769161533.13433,27.0,0.0,4296.538574,4286.282227,4316.794922,4297.436035,4280.0,4280.641113,4279.102539,4293.589844,4293.846191,4280.128418,4575.128418,4539.743652,4415.384766,4501.538574,,,,,,,,,,,,,,,,,,,,,,,,,,,,,,,,,,,,,,,,,,,,,,,,,,,,,,,,,,,,,,,,,,,,,,
1769161533.141667,1769161533.141939,28.0,0.0,4295.0,4280.0,4308.333496,4295.0,4279.743652,4281.025879,4280.128418,4295.769043,4292.563965,4276.025879,4574.743652,4538.333496,4417.05127,4497.692383,,,,,,,,,,,,,,,,,,,,,,,,,,,,,,,,,,,,,,,,,,,,,,,,,,,,,,,,,,,,,,,,,,,,,,
1769161533.149475,1769161533.149747,29.0,0.0,4285.256348,4277.692383,4297.05127,4289.487305,4278.205078,4278.461426,4279.871582,4287.05127,4282.692383,4267.820313,4567.563965,4526.922852,4412.179688,4490.128418,,,,,,,,,,,,,,,,,,,,,,,,,,,,,,,,,,,,,,,,,,,,,,,,,,,,,,,,,,,,,,,,,,,,,,
1769161533.157283,1769161533.157456,30.0,0.0,4286.153809,4278.333496,4291.538574,4288.846191,4276.538574,4278.974121,4277.436035,4282.94873,4278.717773,4266.153809,4562.307617,4520.897461,4409.615234,4490.0,0.862778,0.439067,0.256298,0.188202,0.11082,0.845301,0.5683,0.52191,0.131216,0.062133,0.534165,0.205952,0.138575,0.108841,0.074981,0.63886,0.456061,0.185204,0.145636,0.110609,0.23426,0.251674,0.205981,0.071416,0.10882,0.185626,0.13952,0.385984,0.157028,0.160437,0.572126,0.554386,1.009317,0.303306,0.122793,0.691697,0.599561,0.664007,0.279326,0.18664,0.309544,0.425338,0.359234,0.174636,0.166403,0.454577,0.399132,1.166932,0.382455,0.233689,1.004352,0.355511,0.238594,0.165218,0.152511,1.586974,0.643597,0.222328,0.158979,0.135139,1.137205,0.579516,0.339001,0.157628,0.170978,2.043338,0.467744,0.604863,0.204597,0.111169
1769161533.165092,1769161533.165264,31.0,0.0,4296.153809,4284.487305,4291.025879,4292.94873,4280.256348,4284.743652,4276.922852,4289.102539,4283.205078,4261.282227,4565.0,4523.974121,4411.794922,4491.153809,,,,,,,,,,,,,,,,,,,,,,,,,,,,,,,,,,,,,,,,,,,,,,,,,,,,,,,,,,,,,,,,,,,,,,
1769161533.1729,1769161533.173272,32.0,0.0,4295.384766,4291.153809,4291.666504,4294.871582,4282.563965,4285.897461,4277.94873,4290.641113,4287.179688,4257.307617,4565.897461,4525.384766,4411.153809,4489.871582,,,,,,,,,,,,,,,,,,,,,,,,,,,,,,,,,,,,,,,,,,,,,,,,,,,,,,,,,,,,,,,,,,,,,,
1769161533.180709,1769161533.181081,33.0,0.0,4292.436035,4290.0,4294.102539,4298.974121,4280.641113,4286.153809,4284.230957,4292.820313,4290.769043,4267.436035,4563.205078,4523.589844,4410.256348,4489.102539,,,,,,,,,,,,,,,,,,,,,,,,,,,,,,,,,,,,,,,,,,,,,,,,,,,,,,,,,,,,,,,,,,,,,,
1769161533.188517,1769161533.188989,34.0,0.0,4295.641113,4288.717773,4291.410156,4305.641113,4279.487305,4287.563965,4289.230957,4294.871582,4289.487305,4278.589844,4563.717773,4525.384766,4411.025879,4489.743652,,,,,,,,,,,,,,,,,,,,,,,,,,,,,,,,,,,,,,,,,,,,,,,,,,,,,,,,,,,,,,,,,,,,,,
1769161533.196326,1769161533.196798,35.0,0.0,4295.512695,4292.307617,4281.922852,4302.05127,4278.717773,4281.794922,4280.0,4287.692383,4285.0,4276.282227,4566.025879,4530.641113,4411.282227,4497.820313,,,,,,,,,,,,,,,,,,,,,,,,,,,,,,,,,,,,,,,,,,,,,,,,,,,,,,,,,,,,,,,,,,,,,,
1769161533.204134,1769161533.204806,36.0,0.0,4294.102539,4293.333496,4278.205078,4297.179688,4279.358887,4275.384766,4272.563965,4286.794922,4288.333496,4274.230957,4569.615234,4537.436035,4413.974121,4505.0,,,,,,,,,,,,,,,,,,,,,,,,,,,,,,,,,,,,,,,,,,,,,,,,,,,,,,,,,,,,,,,,,,,,,,
1769161533.211943,1769161533.212614,37.0,0.0,4294.743652,4291.794922,4280.641113,4303.589844,4281.025879,4279.358887,4279.358887,4296.410156,4295.641113,4281.025879,4572.307617,4541.025879,4416.922852,4497.05127,,,,,,,,,,,,,,,,,,,,,,,,,,,,,,,,,,,,,,,,,,,,,,,,,,,,,,,,,,,,,,,,,,,,,,
1769161533.219751,1769161533.220523,38.0,0.0,4293.589844,4291.794922,4281.025879,4307.820313,4278.846191,4286.410156,4283.077148,4297.94873,4296.025879,4280.128418,4570.769043,4537.692383,4415.897461,4492.563965,,,,,,,,,,,,,,,,,,,,,,,,,,,,,,,,,,,,,,,,,,,,,,,,,,,,,,,,,,,,,,,,,,,,,,
1769161533.227559,1769161533.228331,39.0,0.0,4295.897461,4293.461426,4281.153809,4305.769043,4275.897461,4288.589844,4279.871582,4291.922852,4287.820313,4267.94873,4567.05127,4534.871582,4413.205078,4501.666504,,,,,,,,,,,,,,,,,,,,,,,,,,,,,,,,,,,,,,,,,,,,,,,,,,,,,,,,,,,,,,,,,,,,,,
1769161533.235368,1769161533.23594,40.0,0.0,4299.487305,4295.256348,4280.641113,4307.05127,4276.282227,4286.794922,4281.282227,4291.025879,4279.871582,4262.307617,4567.563965,4536.282227,4412.692383,4502.436035,,,,,,,,,,,,,,,,,,,,,,,,,,,,,,,,,,,,,,,,,,,,,,,,,,,,,,,,,,,,,,,,,,,,,,
1769161533.243176,1769161533.243748,41.0,0.0,4296.538574,4290.769043,4278.589844,4306.153809,4277.436035,4287.307617,4279.871582,4291.410156,4278.333496,4264.615234,4569.487305,4539.358887,4412.820313,4492.94873,,,,,,,,,,,,,,,,,,,,,,,,,,,,,,,,,,,,,,,,,,,,,,,,,,,,,,,,,,,,,,,,,,,,,,
1769161533.250985,1769161533.251657,42.0,0.0,4296.025879,4285.897461,4278.077148,4303.461426,4278.974121,4288.461426,4276.153809,4290.256348,4281.922852,4262.179688,4568.333496,4534.358887,4412.179688,4491.794922,,,,,,,,,,,,,,,,,,,,,,,,,,,,,,,,,,,,,,,,,,,,,,,,,,,,,,,,,,,,,,,,,,,,,,
1769161533.258793,1769161533.259465,43.0,0.0,4303.589844,4288.717773,4276.282227,4302.436035,4280.384766,4284.487305,4278.333496,4291.410156,4283.077148,4266.922852,4567.179688,4527.94873,4412.94873,4496.153809,,,,,,,,,,,,,,,,,,,,,,,,,,,,,,,,,,,,,,,,,,,,,,,,,,,,,,,,,,,,,,,,,,,,,,
1769161533.266602,1769161533.267273,44.0,0.0,4302.820313,4291.538574,4271.153809,4298.333496,4276.538574,4282.692383,4282.05127,4292.563965,4281.410156,4279.102539,4568.077148,4528.974121,4413.589844,4496.538574,,,,,,,,,,,,,,,,,,,,,,,,,,,,,,,,,,,,,,,,,,,,,,,,,,,,,,,,,,,,,,,,,,,,,,
1769161533.27441,1769161533.275082,45.0,0.0,4293.205078,4289.102539,4264.615234,4298.077148,4273.846191,4287.436035,4280.512695,4290.641113,4281.410156,4275.641113,4567.820313,4530.769043,4411.025879,4493.846191,,,,,,,,,,,,,,,,,,,,,,,,,,,,,,,,,,,,,,,,,,,,,,,,,,,,,,,,,,,,,,,,,,,,,,
1769161533.282219,1769161533.28279,46.0,0.0,4292.563965,4288.974121,4261.153809,4304.615234,4277.692383,4291.666504,4280.384766,4289.615234,4285.384766,4269.743652,4566.666504,4529.102539,4410.641113,4492.563965,0.875183,0.413483,0.216906,0.163555,0.114015,0.837373,0.505722,0.413235,0.115348,0.054622,0.54126,0.208192,0.119203,0.093996,0.072462,0.587969,0.404522,0.174725,0.141294,0.111648,0.234525,0.263666,0.172555,0.072692,0.109076,0.17194,0.155205,0.418725,0.161322,0.174355,0.598806,0.562281,0.918856,0.308526,0.118676,0.658275,0.56124,0.591429,0.297941,0.166951,0.281439,0.401191,0.305346,0.179676,0.154976,0.531876,0.325887,1.018893,0.461816,0.241828,1.09129,0.347597,0.195826,0.181451,0.156796,1.588468,0.62461,0.18865,0.159752,0.142747,1.20096,0.531605,0.247892,0.155091,0.177634,2.210835,0.438514,0.48842,0.245817,0.117251
1769161533.290027,1769161533.290599,47.0,0.0,4297.94873,4290.897461,4264.487305,4303.846191,4278.974121,4293.974121,4286.025879,4297.692383,4289.615234,4274.871582,4571.282227,4527.307617,4416.153809,4494.102539,,,,,,,,,,,,,,,,,,,,,,,,,,,,,,,,,,,,,,,,,,,,,,,,,,,,,,,,,,,,,,,,,,,,,,
1769161533.297835,1769161533.298208,48.0,0.0,4296.153809,4286.025879,4266.282227,4296.922852,4276.025879,4297.692383,4288.077148,4297.94873,4283.589844,4268.461426,4571.153809,4524.230957,4415.384766,4494.743652,,,,,,,,,,,,,,,,,,,,,,,,,,,,,,,,,,,,,,,,,,,,,,,,,,,,,,,,,,,,,,,,,,,,,,
1769161533.305644,1769161533.306016,49.0,0.0,4290.769043,4280.128418,4259.743652,4292.307617,4274.358887,4295.897461,4283.077148,4290.769043,4277.820313,4256.025879,4559.871582,4522.94873,4405.384766,4493.205078,,,,,,,,,,,,,,,,,,,,,,,,,,,,,,,,,,,,,,,,,,,,,,,,,,,,,,,,,,,,,,,,,,,,,,
1769161533.313452,1769161533.313924,50.0,0.0,4291.025879,4283.077148,4261.794922,4293.205078,4275.128418,4287.436035,4279.102539,4294.102539,4281.666504,4263.461426,4558.974121,4530.256348,4404.102539,4492.820313,,,,,,,,,,,,,,,,,,,,,,,,,,,,,,,,,,,,,,,,,,,,,,,,,,,,,,,,,,,,,,,,,,,,,,
1769161533.321261,1769161533.321733,51.0,0.0,4299.487305,4289.615234,4276.153809,4300.769043,4277.307617,4283.717773,4278.846191,4295.512695,4281.153809,4270.641113,4570.512695,4535.384766,4413.205078,4492.692383,,,,,,,,,,,,,,,,,,,,,,,,,,,,,,,,,,,,,,,,,,,,,,,,,,,,,,,,,,,,,,,,,,,,,,
1769161533.329069,1769161533.329341,52.0,0.0,4307.436035,4291.538574,4282.820313,4309.871582,4278.717773,4289.358887,4279.487305,4289.743652,4277.307617,4268.589844,4573.461426,4534.743652,4419.358887,4497.820313,,,,,,,,,,,,,,,,,,,,,,,,,,,,,,,,,,,,,,,,,,,,,,,,,,,,,,,,,,,,,,,,,,,,,,
1769161533.336878,1769161533.33715,53.0,0.0,4302.436035,4289.230957,4279.615234,4306.153809,4277.563965,4289.615234,4279.615234,4287.820313,4280.0,4272.563965,4570.384766,4537.436035,4418.974121,4508.205078,,,,,,,,,,,,,,,,,,,,,,,,,,,,,,,,,,,,,,,,,,,,,,,,,,,,,,,,,,,,,,,,,,,,,,
1769161533.344686,1769161533.344858,54.0,0.0,4294.358887,4287.436035,4280.128418,4299.487305,4276.794922,4279.743652,4277.94873,4285.897461,4280.384766,4270.512695,4572.563965,4541.922852,4417.436035,4506.153809,,,,,,,,,,,,,,,,,,,,,,,,,,,,,,,,,,,,,,,,,,,,,,,,,,,,,,,,,,,,,,,,,,,,,,
1769161533.352495,1769161533.352667,55.0,0.0,4295.256348,4287.94873,4279.871582,4301.410156,4278.717773,4281.025879,4276.794922,4280.384766,4276.282227,4265.384766,4571.025879,4535.641113,4412.436035,4492.307617,,,,,,,,,,,,,,,,,,,,,,,,,,,,,,,,,,,,,,,,,,,,,,,,,,,,,,,,,,,,,,,,,,,,,,
1769161533.360303,1769161533.360276,56.0,0.0,4296.025879,4288.974121,4278.461426,4300.641113,4278.717773,4291.410156,4278.589844,4284.102539,4276.666504,4262.692383,4565.0,4526.282227,4405.256348,4488.205078,,,,,,,,,,,,,,,,,,,,,,,,,,,,,,,,,,,,,,,,,,,,,,,,,,,,,,,,,,,,,,,,,,,,,,
1769161533.368111,1769161533.368084,57.0,0.0,4296.025879,4286.282227,4284.487305,4295.897461,4275.256348,4293.717773,4281.666504,4292.94873,4278.717773,4255.512695,4565.769043,4530.384766,4407.94873,4493.205078,,,,,,,,,,,,,,,,,,,,,,,,,,,,,,,,,,,,,,,,,,,,,,,,,,,,,,,,,,,,,,,,,,,,,,
1769161533.37592,1769161533.375793,58.0,0.0,4296.153809,4280.897461,4288.333496,4298.077148,4272.692383,4291.538574,4281.666504,4291.410156,4278.846191,4256.666504,4567.820313,4532.179688,4414.102539,4494.102539,,,,,,,,,,,,,,,,,,,,,,,,,,,,,,,,,,,,,,,,,,,,,,,,,,,,,,,,,,,,,,,,,,,,,,
1769161533.383728,1769161533.383601,59.0,0.0,4285.641113,4277.05127,4280.641113,4297.563965,4272.307617,4295.769043,4282.179688,4287.692383,4278.589844,4267.05127,4566.025879,4523.974121,4411.025879,4493.205078,,,,,,,,,,,,,,,,,,,,,,,,,,,,,,,,,,,,,,,,,,,,,,,,,,,,,,,,,,,,,,,,,,,,,,
1769161533.391537,1769161533.391609,60.0,0.0,4279.743652,4277.94873,4275.641113,4292.05127,4274.230957,4294.871582,4283.589844,4288.974121,4278.461426,4266.794922,4562.307617,4521.282227,4406.410156,4491.666504,,,,,,,,,,,,,,,,,,,,,,,,,,,,,,,,,,,,,,,,,,,,,,,,,,,,,,,,,,,,,,,,,,,,,,
1769161533.399345,1769161533.399418,61.0,0.0,4297.692383,4286.794922,4286.410156,4298.589844,4276.794922,4281.153809,4277.94873,4287.179688,4278.717773,4263.974121,4565.641113,4528.589844,4411.282227,4492.692383,,,,,,,,,,,,,,,,,,,,,,,,,,,,,,,,,,,,,,,,,,,,,,,,,,,,,,,,,,,,,,,,,,,,,,
1769161533.407154,1769161533.407326,62.0,0.0,4312.563965,4293.461426,4300.897461,4307.692383,4278.589844,4277.436035,4272.94873,4282.05127,4281.025879,4273.205078,4571.922852,4533.846191,4416.153809,4497.563965,0.819577,0.435024,0.181223,0.152632,0.118328,0.769549,0.468921,0.301722,0.103165,0.053172,0.5127,0.226475,0.112455,0.08629,0.069579,0.577736,0.40554,0.176083,0.139496,0.110163,0.241906,0.255666,0.137195,0.07419,0.105697,0.173778,0.184651,0.420242,0.160712,0.191478,0.583618,0.564496,0.748374,0.294517,0.129811,0.611248,0.519933,0.475011,0.290528,0.14291,0.255616,0.345524,0.246839,0.171827,0.136464,0.587977,0.304517,0.867736,0.556536,0.257437,1.075662,0.324056,0.171146,0.197845,0.163882,1.432125,0.572649,0.176261,0.159289,0.152753,1.20726,0.464734,0.177587,0.156753,0.185272,2.160852,0.417406,0.390044,0.287644,0.127143
1769161533.414962,1769161533.415134,63.0,0.0,4299.102539,4286.025879,4294.871582,4299.743652,4277.436035,4288.333496,4278.461426,4279.743652,4279.871582,4269.615234,4562.820313,4528.846191,4409.487305,4496.794922,,,,,,,,,,,,,,,,,,,,,,,,,,,,,,,,,,,,,,,,,,,,,,,,,,,,,,,,,,,,,,,,,,,,,,
