Timestamp,OriginalTimestamp,EEG.Counter,EEG.Interpolated,EEG.AF3,EEG.F7,EEG.F3,EEG.FC5,EEG.T7,EEG.P7,EEG.O1,EEG.O2,EEG.P8,EEG.T8,EEG.FC6,EEG.F4,EEG.F8,EEG.AF4,POW.AF3.Theta,POW.AF3.Alpha,POW.AF3.BetaL,POW.AF3.BetaH,POW.AF3.Gamma,POW.F7.Theta,POW.F7.Alpha,POW.F7.BetaL,POW.F7.BetaH,POW.F7.Gamma,POW.F3.Theta,POW.F3.Alpha,POW.F3.BetaL,POW.F3.BetaH,POW.F3.Gamma,POW.FC5.Theta,POW.FC5.Alpha,POW.FC5.BetaL,POW.FC5.BetaH,POW.FC5.Gamma,POW.T7.Theta,POW.T7.Alpha,POW.T7.BetaL,POW.T7.BetaH,POW.T7.Gamma,POW.P7.Theta,POW.P7.Alpha,POW.P7.BetaL,POW.P7.BetaH,POW.P7.Gamma,POW.O1.Theta,POW.O1.Alpha,POW.O1.BetaL,POW.O1.BetaH,POW.O1.Gamma,POW.O2.Theta,POW.O2.Alpha,POW.O2.BetaL,POW.O2.BetaH,POW.O2.Gamma,POW.P8.Theta,POW.P8.Alpha,POW.P8.BetaL,POW.P8.BetaH,POW.P8.Gamma,POW.T8.Theta,POW.T8.Alpha,POW.T8.BetaL,POW.T8.BetaH,POW.T8.Gamma,POW.FC6.Theta,POW.FC6.Alpha,POW.FC6.BetaL,POW.FC6.BetaH,POW.FC6.Gamma,POW.F4.Theta,POW.F4.Alpha,POW.F4.BetaL,POW.F4.BetaH,POW.F4.Gamma,POW.F8.Theta,POW.F8.Alpha,POW.F8.BetaL,POW.F8.BetaH,POW.F8.Gamma,POW.AF4.Theta,POW.AF4.Alpha,POW.AF4.BetaL,POW.AF4.BetaH,POW.AF4.Gamma
1768972966.361918,1768972966.362279,73.0,0.0,4378.846191,4374.743652,4362.307617,4386.794922,4381.025879,4378.717773,4375.512695,4383.974121,4371.666504,4352.94873,4463.717773,4537.307617,4411.153809,4444.871582,,,,,,,,,,,,,,,,,,,,,,,,,,,,,,,,,,,,,,,,,,,,,,,,,,,,,,,,,,,,,,,,,,,,,,
1768972966.369727,1768972966.370187,74.0,0.0,4374.230957,4379.230957,4359.487305,4386.666504,4381.794922,4382.820313,4384.487305,4389.358887,4382.563965,4361.282227,4471.410156,4537.820313,4412.94873,4444.743652,,,,,,,,,,,,,,,,,,,,,,,,,,,,,,,,,,,,,,,,,,,,,,,,,,,,,,,,,,,,,,,,,,,,,,
1768972966.377535,1768972966.377995,75.0,0.0,4379.102539,4379.871582,4356.666504,4386.282227,4382.692383,4379.871582,4379.871582,4388.333496,4381.538574,4357.563965,4464.871582,4533.333496,4410.0,4437.563965,,,,,,,,,,,,,,,,,,,,,,,,,,,,,,,,,,,,,,,,,,,,,,,,,,,,,,,,,,,,,,,,,,,,,,
1768972966.385343,1768972966.386004,76.0,0.0,4386.025879,4374.743652,4358.461426,4387.436035,4379.743652,4372.179688,4372.692383,4385.897461,4378.589844,4352.05127,4457.692383,4535.512695,4408.846191,4442.692383,,,,,,,,,,,,,,,,,,,,,,,,,,,,,,,,,,,,,,,,,,,,,,,,,,,,,,,,,,,,,,,,,,,,,,
1768972966.393152,1768972966.393812,77.0,0.0,4386.410156,4375.128418,4361.922852,4388.461426,4380.769043,4375.128418,4379.102539,4390.641113,4382.307617,4355.256348,4462.94873,4539.230957,4411.794922,4446.794922,,,,,,,,,,,,,,,,,,,,,,,,,,,,,,,,,,,,,,,,,,,,,,,,,,,,,,,,,,,,,,,,,,,,,,
1768972966.40096,1768972966.401521,78.0,0.0,4387.307617,4379.871582,4364.487305,4392.307617,4385.769043,4383.461426,4382.307617,4393.461426,4383.589844,4357.820313,4468.717773,4542.94873,4410.0,4443.205078,0.509304,0.223108,0.276093,0.23065,0.174339,1.014657,0.339091,0.395933,0.23704,0.124218,0.192842,0.21017,0.165649,0.0667,0.078717,0.206185,0.190014,0.172111,0.079097,0.091412,0.056855,0.191964,0.101765,0.056268,0.036421,0.329445,0.418904,0.192983,0.117079,0.215573,0.216613,0.404533,0.172444,0.134096,0.250192,0.226437,0.216706,0.084876,0.05906,0.068165,0.622386,0.159435,0.056616,0.092427,0.059766,0.471916,0.254883,0.153562,0.19728,0.113394,0.623504,0.341411,0.20977,0.175327,0.234329,0.532078,0.339661,0.226179,0.196031,0.182866,1.161222,0.3094,0.215132,0.251733,0.223807,0.70449,0.326135,0.330459,0.223039,0.251029
1768972966.408769,1768972966.409329,79.0,0.0,4389.615234,4382.307617,4368.333496,4395.128418,4384.871582,4383.974121,4376.922852,4388.974121,4380.256348,4356.666504,4467.179688,4545.384766,4405.512695,4444.102539,,,,,,,,,,,,,,,,,,,,,,,,,,,,,,,,,,,,,,,,,,,,,,,,,,,,,,,,,,,,,,,,,,,,,,
1768972966.416577,1768972966.417337,80.0,0.0,4385.641113,4381.410156,4367.436035,4390.128418,4381.410156,4381.922852,4377.436035,4388.846191,4381.922852,4359.871582,4469.743652,4547.307617,4406.025879,4443.205078,,,,,,,,,,,,,,,,,,,,,,,,,,,,,,,,,,,,,,,,,,,,,,,,,,,,,,,,,,,,,,,,,,,,,,
1768972966.424386,1768972966.425146,81.0,0.0,4382.692383,4379.615234,4363.461426,4386.922852,4381.153809,4383.717773,4383.589844,4392.05127,4382.436035,4363.077148,4474.615234,4547.05127,4406.410156,4439.487305,,,,,,,,,,,,,,,,,,,,,,,,,,,,,,,,,,,,,,,,,,,,,,,,,,,,,,,,,,,,,,,,,,,,,,
1768972966.432194,1768972966.432854,82.0,0.0,4381.922852,4374.230957,4364.487305,4390.128418,4381.025879,4384.743652,4383.333496,4388.461426,4380.512695,4360.128418,4474.102539,4543.589844,4400.769043,4437.820313,,,,,,,,,,,,,,,,,,,,,,,,,,,,,,,,,,,,,,,,,,,,,,,,,,,,,,,,,,,,,,,,,,,,,,
1768972966.440003,1768972966.440663,83.0,0.0,4381.025879,4371.282227,4366.794922,4390.0,4381.410156,4380.641113,4376.410156,4384.102539,4380.641113,4355.769043,4470.256348,4542.820313,4397.820313,4436.794922,,,,,,,,,,,,,,,,,,,,,,,,,,,,,,,,,,,,,,,,,,,,,,,,,,,,,,,,,,,,,,,,,,,,,,
1768972966.447811,1768972966.448271,84.0,0.0,4385.128418,4371.153809,4366.922852,4387.05127,4379.358887,4374.615234,4373.333496,4385.769043,4377.05127,4353.846191,4468.589844,4547.05127,4403.846191,4435.128418,,,,,,,,,,,,,,,,,,,,,,,,,,,,,,,,,,,,,,,,,,,,,,,,,,,,,,,,,,,,,,,,,,,,,,
1768972966.455619,1768972966.45608,85.0,0.0,4387.692383,4368.333496,4366.666504,4389.743652,4374.358887,4371.153809,4373.717773,4386.922852,4375.384766,4353.077148,4465.384766,4547.05127,4405.769043,4431.922852,,,,,,,,,,,,,,,,,,,,,,,,,,,,,,,,,,,,,,,,,,,,,,,,,,,,,,,,,,,,,,,,,,,,,,
1768972966.463428,1768972966.463788,86.0,0.0,4383.461426,4364.615234,4365.128418,4389.230957,4376.025879,4372.563965,4373.589844,4384.487305,4380.256348,4352.692383,4460.128418,4541.153809,4393.974121,4423.589844,,,,,,,,,,,,,,,,,,,,,,,,,,,,,,,,,,,,,,,,,,,,,,,,,,,,,,,,,,,,,,,,,,,,,,
1768972966.471236,1768972966.471597,87.0,0.0,4378.974121,4359.358887,4363.205078,4380.384766,4379.358887,4374.615234,4373.461426,4384.743652,4377.820313,4353.461426,4460.384766,4540.0,4389.358887,4420.256348,,,,,,,,,,,,,,,,,,,,,,,,,,,,,,,,,,,,,,,,,,,,,,,,,,,,,,,,,,,,,,,,,,,,,,
1768972966.479045,1768972966.479205,88.0,0.0,4381.794922,4355.641113,4362.05127,4376.282227,4374.230957,4375.512695,4375.769043,4383.077148,4371.922852,4354.615234,4463.974121,4541.282227,4404.743652,4433.205078,,,,,,,,,,,,,,,,,,,,,,,,,,,,,,,,,,,,,,,,,,,,,,,,,,,,,,,,,,,,,,,,,,,,,,
1768972966.486853,1768972966.487014,89.0,0.0,4385.128418,4356.538574,4363.333496,4381.794922,4371.922852,4374.358887,4376.153809,4379.230957,4377.692383,4354.102539,4464.102539,4542.94873,4412.436035,4443.205078,,,,,,,,,,,,,,,,,,,,,,,,,,,,,,,,,,,,,,,,,,,,,,,,,,,,,,,,,,,,,,,,,,,,,,
1768972966.494662,1768972966.494922,90.0,0.0,4385.128418,4356.794922,4366.153809,4383.717773,4375.128418,4368.589844,4370.128418,4379.743652,4382.307617,4351.666504,4463.205078,4545.641113,4402.307617,4442.436035,,,,,,,,,,,,,,,,,,,,,,,,,,,,,,,,,,,,,,,,,,,,,,,,,,,,,,,,,,,,,,,,,,,,,,
1768972966.50247,1768972966.502731,91.0,0.0,4385.128418,4355.897461,4367.436035,4381.025879,4373.077148,4367.820313,4368.205078,4384.230957,4378.333496,4355.256348,4469.102539,4546.025879,4405.256348,4445.769043,,,,,,,,,,,,,,,,,,,,,,,,,,,,,,,,,,,,,,,,,,,,,,,,,,,,,,,,,,,,,,,,,,,,,,
1768972966.510279,1768972966.510739,92.0,0.0,4384.230957,4355.897461,4367.307617,4385.384766,4372.307617,4379.615234,4378.461426,4387.820313,4379.743652,4360.384766,4474.102539,4549.358887,4415.641113,4448.333496,,,,,,,,,,,,,,,,,,,,,,,,,,,,,,,,,,,,,,,,,,,,,,,,,,,,,,,,,,,,,,,,,,,,,,
1768972966.518087,1768972966.518547,93.0,0.0,4384.615234,4356.410156,4369.102539,4391.025879,4378.333496,4385.512695,4383.333496,4388.974121,4382.820313,4359.102539,4474.358887,4553.974121,4413.077148,4445.256348,,,,,,,,,,,,,,,,,,,,,,,,,,,,,,,,,,,,,,,,,,,,,,,,,,,,,,,,,,,,,,,,,,,,,,
1768972966.525895,1768972966.526456,94.0,0.0,4386.410156,4355.897461,4370.256348,4388.974121,4380.769043,4376.794922,4373.333496,4388.461426,4381.410156,4357.94873,4475.897461,4550.384766,4409.615234,4442.820313,0.586069,0.24504,0.317513,0.241342,0.167756,1.256407,0.434244,0.453476,0.254192,0.133288,0.229891,0.256734,0.174488,0.068564,0.079044,0.255618,0.196921,0.141121,0.079499,0.092766,0.074411,0.183259,0.077991,0.053254,0.034968,0.269767,0.34245,0.164345,0.128998,0.239563,0.21909,0.33974,0.138336,0.153122,0.273147,0.196695,0.22942,0.07982,0.06367,0.068912,0.497211,0.178898,0.063571,0.100305,0.054835,0.534834,0.280642,0.151922,0.211358,0.109892,0.686627,0.361761,0.244493,0.204324,0.232405,0.509743,0.373511,0.267303,0.211396,0.180911,1.339398,0.346591,0.221917,0.26578,0.221616,0.713794,0.366347,0.364665,0.250891,0.265202
1768972966.533704,1768972966.534264,95.0,0.0,4381.282227,4354.871582,4366.666504,4386.153809,4379.871582,4372.05127,4368.974121,4385.256348,4380.0,4358.846191,4473.461426,4545.384766,4407.563965,4439.743652,,,,,,,,,,,,,,,,,,,,,,,,,,,,,,,,,,,,,,,,,,,,,,,,,,,,,,,,,,,,,,,,,,,,,,
1768972966.541512,1768972966.541873,96.0,0.0,4376.410156,4355.0,4365.512695,4386.922852,4381.025879,4375.128418,4375.256348,4381.922852,4376.153809,4356.025879,4467.820313,4548.077148,4402.563965,4436.410156,,,,,,,,,,,,,,,,,,,,,,,,,,,,,,,,,,,,,,,,,,,,,,,,,,,,,,,,,,,,,,,,,,,,,,
1768972966.549321,1768972966.549681,97.0,0.0,4378.205078,4355.128418,4367.436035,4386.538574,4378.333496,4378.589844,4375.256348,4380.769043,4372.563965,4349.615234,4461.666504,4545.897461,4397.05127,4431.794922,,,,,,,,,,,,,,,,,,,,,,,,,,,,,,,,,,,,,,,,,,,,,,,,,,,,,,,,,,,,,,,,,,,,,,
1768972966.557129,1768972966.55759,98.0,0.0,4380.384766,4353.077148,4368.589844,4385.384766,4375.384766,4379.230957,4372.05127,4385.256348,4376.538574,4349.615234,4461.025879,4537.692383,4396.538574,4426.794922,,,,,,,,,,,,,,,,,,,,,,,,,,,,,,,,,,,,,,,,,,,,,,,,,,,,,,,,,,,,,,,,,,,,,,
1768972966.564938,1768972966.565398,99.0,0.0,4380.641113,4353.717773,4372.05127,4390.512695,4379.487305,4375.384766,4374.358887,4391.538574,4381.538574,4356.794922,4469.743652,4538.846191,4404.102539,4433.461426,,,,,,,,,,,,,,,,,,,,,,,,,,,,,,,,,,,,,,,,,,,,,,,,,,,,,,,,,,,,,,,,,,,,,,
1768972966.572746,1768972966.573406,100.0,0.0,4385.256348,4356.922852,4378.205078,4396.794922,4380.769043,4372.94873,4374.743652,4395.256348,4382.179688,4361.025879,4476.794922,4548.333496,4410.384766,4445.384766,,,,,,,,,,,,,,,,,,,,,,,,,,,,,,,,,,,,,,,,,,,,,,,,,,,,,,,,,,,,,,,,,,,,,,
1768972966.580555,1768972966.581215,101.0,0.0,4392.307617,4356.410156,4381.538574,4396.410156,4373.717773,4378.589844,4376.410156,4395.256348,4379.230957,4357.94873,4475.256348,4552.692383,4406.025879,4447.307617,,,,,,,,,,,,,,,,,,,,,,,,,,,,,,,,,,,,,,,,,,,,,,,,,,,,,,,,,,,,,,,,,,,,,,
1768972966.588363,1768972966.588923,102.0,0.0,4394.615234,4356.025879,4378.846191,4394.615234,4372.05127,4378.077148,4380.0,4391.922852,4375.769043,4353.974121,4472.692383,4549.230957,4402.563965,4444.230957,,,,,,,,,,,,,,,,,,,,,,,,,,,,,,,,,,,,,,,,,,,,,,,,,,,,,,,,,,,,,,,,,,,,,,
1768972966.596172,1768972966.596732,103.0,0.0,4391.025879,4358.974121,4376.538574,4397.05127,4380.256348,4372.436035,4381.153809,4393.205078,4378.717773,4358.077148,4476.025879,4548.205078,4408.717773,4444.871582,,,,,,,,,,,,,,,,,,,,,,,,,,,,,,,,,,,,,,,,,,,,,,,,,,,,,,,,,,,,,,,,,,,,,,
1768972966.60398,1768972966.60434,104.0,0.0,4386.153809,4357.692383,4377.307617,4398.077148,4382.94873,4376.410156,4383.589844,4396.922852,4384.487305,4362.94873,4476.410156,4554.358887,4406.794922,4445.256348,,,,,,,,,,,,,,,,,,,,,,,,,,,,,,,,,,,,,,,,,,,,,,,,,,,,,,,,,,,,,,,,,,,,,,
1768972966.611788,1768972966.612149,105.0,0.0,4389.871582,4356.153809,4378.461426,4394.102539,4373.974121,4375.384766,4381.538574,4396.282227,4382.820313,4360.769043,4472.05127,4556.922852,4401.025879,4445.769043,,,,,,,,,,,,,,,,,,,,,,,,,,,,,,,,,,,,,,,,,,,,,,,,,,,,,,,,,,,,,,,,,,,,,,
1768972966.619597,1768972966.620057,106.0,0.0,4397.820313,4361.410156,4379.487305,4393.589844,4367.94873,4368.974121,4371.922852,4393.205078,4378.589844,4357.692383,4472.820313,4549.871582,4403.974121,4444.743652,,,,,,,,,,,,,,,,,,,,,,,,,,,,,,,,,,,,,,,,,,,,,,,,,,,,,,,,,,,,,,,,,,,,,,
1768972966.627405,1768972966.627866,107.0,0.0,4398.717773,4364.102539,4381.538574,4394.230957,4372.563965,4373.077148,4372.307617,4392.05127,4379.102539,4357.307617,4475.384766,4546.282227,4407.436035,4442.820313,,,,,,,,,,,,,,,,,,,,,,,,,,,,,,,,,,,,,,,,,,,,,,,,,,,,,,,,,,,,,,,,,,,,,,
1768972966.635214,1768972966.635474,108.0,0.0,4392.05127,4361.538574,4379.358887,4391.153809,4375.897461,4379.230957,4380.897461,4391.410156,4375.512695,4355.128418,4470.384766,4552.05127,4404.487305,4443.717773,,,,,,,,,,,,,,,,,,,,,,,,,,,,,,,,,,,,,,,,,,,,,,,,,,,,,,,,,,,,,,,,,,,,,,
1768972966.643022,1768972966.643283,109.0,0.0,4380.128418,4352.692383,4369.615234,4384.743652,4372.94873,4374.487305,4377.820313,4387.05127,4371.410156,4353.461426,4461.922852,4551.153809,4398.205078,4437.307617,,,,,,,,,,,,,,,,,,,,,,,,,,,,,,,,,,,,,,,,,,,,,,,,,,,,,,,,,,,,,,,,,,,,,,
1768972966.650831,1768972966.650991,110.0,0.0,4372.692383,4343.974121,4362.563965,4377.94873,4370.0,4369.487305,4369.615234,4385.384766,4375.769043,4353.717773,4458.589844,4541.794922,4396.153809,4426.025879,0.658538,0.267478,0.36514,0.249593,0.154716,1.573352,0.544181,0.511807,0.25431,0.139979,0.263823,0.287712,0.195502,0.079034,0.077419,0.30855,0.199566,0.124347,0.089023,0.091683,0.101047,0.167404,0.056974,0.050552,0.035743,0.210567,0.246997,0.131907,0.149202,0.254019,0.203357,0.253763,0.101008,0.169316,0.279383,0.176393,0.231435,0.070401,0.069776,0.067644,0.39765,0.196519,0.075376,0.118091,0.053741,0.565154,0.299527,0.141269,0.221526,0.104856,0.732763,0.377362,0.270043,0.240018,0.220136,0.510529,0.396506,0.297428,0.222737,0.176803,1.477284,0.387652,0.236723,0.283165,0.216523,0.705084,0.40777,0.388005,0.28047,0.269584
1768972966.658639,1768972966.6588,111.0,0.0,4372.563965,4347.05127,4361.025879,4376.922852,4373.333496,4377.563965,4376.922852,4391.666504,4380.769043,4353.461426,4458.846191,4539.102539,4394.487305,4423.205078,,,,,,,,,,,,,,,,,,,,,,,,,,,,,,,,,,,,,,,,,,,,,,,,,,,,,,,,,,,,,,,,,,,,,,
1768972966.666448,1768972966.666408,112.0,0.0,4376.922852,4348.461426,4367.307617,4380.641113,4378.077148,4388.589844,4393.205078,4400.128418,4386.153809,4358.846191,4466.666504,4549.230957,4396.666504,4428.846191,,,,,,,,,,,,,,,,,,,,,,,,,,,,,,,,,,,,,,,,,,,,,,,,,,,,,,,,,,,,,,,,,,,,,,
1768972966.674256,1768972966.674217,113.0,0.0,4379.871582,4340.384766,4373.974121,4382.563965,4377.563965,4388.717773,4394.230957,4401.794922,4391.538574,4368.589844,4476.538574,4555.769043,4408.589844,4431.282227,,,,,,,,,,,,,,,,,,,,,,,,,,,,,,,,,,,,,,,,,,,,,,,,,,,,,,,,,,,,,,,,,,,,,,
1768972966.682064,1768972966.681925,114.0,0.0,4380.897461,4344.615234,4370.0,4383.846191,4376.282227,4377.94873,4379.743652,4395.897461,4391.538574,4369.487305,4476.410156,4547.436035,4411.538574,4428.589844,,,,,,,,,,,,,,,,,,,,,,,,,,,,,,,,,,,,,,,,,,,,,,,,,,,,,,,,,,,,,,,,,,,,,,
1768972966.689873,1768972966.689734,115.0,0.0,4388.589844,4361.025879,4367.692383,4390.897461,4378.589844,4376.538574,4379.743652,4392.05127,4387.05127,4363.717773,4474.871582,4541.282227,4403.974121,4434.358887,,,,,,,,,,,,,,,,,,,,,,,,,,,,,,,,,,,,,,,,,,,,,,,,,,,,,,,,,,,,,,,,,,,,,,
1768972966.697681,1768972966.697742,116.0,0.0,4394.743652,4360.641113,4370.897461,4391.538574,4376.282227,4384.871582,4388.717773,4392.94873,4382.563965,4358.974121,4475.256348,4543.205078,4405.512695,4443.461426,,,,,,,,,,,,,,,,,,,,,,,,,,,,,,,,,,,,,,,,,,,,,,,,,,,,,,,,,,,,,,,,,,,,,,
1768972966.70549,1768972966.70555,117.0,0.0,4386.922852,4351.922852,4365.128418,4383.461426,4371.794922,4378.974121,4377.692383,4389.358887,4378.846191,4355.769043,4470.256348,4540.641113,4409.230957,4441.922852,,,,,,,,,,,,,,,,,,,,,,,,,,,,,,,,,,,,,,,,,,,,,,,,,,,,,,,,,,,,,,,,,,,,,,
1768972966.713298,1768972966.713459,118.0,0.0,4378.205078,4353.461426,4357.94873,4380.897461,4373.589844,4372.692383,4367.05127,4386.282227,4378.717773,4356.922852,4469.871582,4534.871582,4402.820313,4433.461426,,,,,,,,,,,,,,,,,,,,,,,,,,,,,,,,,,,,,,,,,,,,,,,,,,,,,,,,,,,,,,,,,,,,,,
1768972966.721107,1768972966.721267,119.0,0.0,4381.538574,4351.025879,4363.461426,4382.179688,4375.512695,4382.436035,4377.05127,4390.641113,4382.563965,4361.153809,4476.025879,4533.974121,4401.922852,4428.846191,,,,,,,,,,,,,,,,,,,,,,,,,,,,,,,,,,,,,,,,,,,,,,,,,,,,,,,,,,,,,,,,,,,,,,
1768972966.728915,1768972966.729276,120.0,0.0,4384.358887,4342.05127,4366.410156,4382.436035,4373.846191,4386.538574,4380.897461,4392.05127,4378.333496,4359.487305,4474.743652,4537.436035,4406.538574,4431.922852,,,,,,,,,,,,,,,,,,,,,,,,,,,,,,,,,,,,,,,,,,,,,,,,,,,,,,,,,,,,,,,,,,,,,,
1768972966.736724,1768972966.737084,121.0,0.0,4383.077148,4341.153809,4362.563965,4382.820313,4372.179688,4381.153809,4376.410156,4389.743652,4373.461426,4356.153809,4471.922852,4541.153809,4404.102539,4436.153809,,,,,,,,,,,,,,,,,,,,,,,,,,,,,,,,,,,,,,,,,,,,,,,,,,,,,,,,,,,,,,,,,,,,,,
1768972966.744532,1768972966.744793,122.0,0.0,4386.410156,4350.128418,4362.692383,4382.436035,4371.410156,4381.922852,4380.512695,4390.897461,4377.692383,4361.538574,4475.0,4542.307617,4405.128418,4438.077148,,,,,,,,,,,,,,,,,,,,,,,,,,,,,,,,,,,,,,,,,,,,,,,,,,,,,,,,,,,,,,,,,,,,,,
1768972966.75234,1768972966.752601,123.0,0.0,4389.743652,4357.94873,4365.512695,4382.179688,4373.461426,4379.358887,4380.512695,4393.205078,4383.461426,4366.025879,4477.692383,4543.077148,4411.922852,4440.641113,,,,,,,,,,,,,,,,,,,,,,,,,,,,,,,,,,,,,,,,,,,,,,,,,,,,,,,,,,,,,,,,,,,,,,
1768972966.760149,1768972966.760609,124.0,0.0,4389.487305,4361.410156,4366.922852,4383.461426,4374.871582,4372.307617,4372.820313,4392.820313,4381.410156,4360.0,4474.102539,4543.205078,4410.256348,4441.538574,,,,,,,,,,,,,,,,,,,,,,,,,,,,,,,,,,,,,,,,,,,,,,,,,,,,,,,,,,,,,,,,,,,,,,
1768972966.767957,1768972966.768418,125.0,0.0,4384.743652,4356.153809,4362.307617,4379.358887,4372.563965,4376.153809,4372.820313,4390.769043,4374.230957,4354.871582,4462.94873,4534.615234,4400.769043,4432.94873,,,,,,,,,,,,,,,,,,,,,,,,,,,,,,,,,,,,,,,,,,,,,,,,,,,,,,,,,,,,,,,,,,,,,,
1768972966.775766,1768972966.776126,126.0,0.0,4379.615234,4346.025879,4358.461426,4372.94873,4372.436035,4384.102539,4381.282227,4391.666504,4375.897461,4357.307617,4460.128418,4528.717773,4397.436035,4425.897461,0.702459,0.28311,0.398245,0.255574,0.140185,1.876703,0.649159,0.549299,0.238358,0.143274,0.296327,0.292764,0.214302,0.096452,0.073789,0.354768,0.198189,0.11848,0.104694,0.088619,0.134684,0.150663,0.042689,0.048204,0.038634,0.157679,0.160756,0.1031,0.174876,0.254882,0.174182,0.179881,0.069411,0.180487,0.268516,0.16908,0.223691,0.060261,0.076249,0.065055,0.331445,0.203219,0.089558,0.140232,0.056745,0.557161,0.311569,0.122817,0.22475,0.100759,0.749521,0.39058,0.27793,0.277052,0.205267,0.525766,0.407262,0.303037,0.230313,0.175308,1.538028,0.426101,0.249478,0.298435,0.211842,0.677202,0.458767,0.389194,0.306987,0.264781
1768972966.783574,1768972966.783935,127.0,0.0,4380.769043,4344.102539,4361.282227,4376.025879,4377.179688,4383.077148,4384.871582,4397.436035,4383.077148,4359.871582,4472.692383,4533.846191,4403.846191,4430.128418,,,,,,,,,,,,,,,,,,,,,,,,,,,,,,,,,,,,,,,,,,,,,,,,,,,,,,,,,,,,,,,,,,,,,,
1768972966.791383,1768972966.791543,0.0,0.0,4382.820313,4349.358887,4362.307617,4382.563965,4377.94873,4381.025879,4383.974121,4401.282227,4382.94873,4356.922852,4476.922852,4534.358887,4404.743652,4431.922852,,,,,,,,,,,,,,,,,,,,,,,,,,,,,,,,,,,,,,,,,,,,,,,,,,,,,,,,,,,,,,,,,,,,,,
1768972966.799191,1768972966.799352,1.0,0.0,4381.538574,4351.666504,4357.436035,4381.922852,4373.717773,4378.589844,4380.769043,4399.487305,4379.358887,4354.871582,4463.461426,4526.410156,4397.179688,4427.05127,,,,,,,,,,,,,,,,,,,,,,,,,,,,,,,,,,,,,,,,,,,,,,,,,,,,,,,,,,,,,,,,,,,,,,
1768972966.807,1768972966.80706,2.0,0.0,4382.05127,4348.205078,4358.077148,4379.102539,4372.05127,4373.846191,4377.94873,4396.410156,4380.0,4355.128418,4457.692383,4521.410156,4394.871582,4424.743652,,,,,,,,,,,,,,,,,,,,,,,,,,,,,,,,,,,,,,,,,,,,,,,,,,,,,,,,,,,,,,,,,,,,,,
1768972966.814808,1768972966.814869,3.0,0.0,4380.769043,4343.717773,4360.641113,4381.153809,4372.692383,4375.384766,4378.717773,4392.436035,4377.692383,4350.0,4463.333496,4522.179688,4397.307617,4427.05127,,,,,,,,,,,,,,,,,,,,,,,,,,,,,,,,,,,,,,,,,,,,,,,,,,,,,,,,,,,,,,,,,,,,,,
1768972966.822616,1768972966.822877,4.0,0.0,4374.871582,4341.922852,4356.410156,4380.897461,4373.589844,4381.538574,4380.769043,4386.794922,4369.615234,4341.282227,4456.410156,4518.974121,4393.846191,4424.615234,,,,,,,,,,,,,,,,,,,,,,,,,,,,,,,,,,,,,,,,,,,,,,,,,,,,,,,,,,,,,,,,,,,,,,
1768972966.830425,1768972966.830685,5.0,0.0,4372.307617,4342.436035,4354.615234,4374.487305,4374.615234,4386.282227,4382.307617,4385.128418,4365.769043,4340.128418,4443.589844,4513.077148,4387.179688,4416.025879,,,,,,,,,,,,,,,,,,,,,,,,,,,,,,,,,,,,,,,,,,,,,,,,,,,,,,,,,,,,,,,,,,,,,,
1768972966.838233,1768972966.838394,6.0,0.0,4373.974121,4344.615234,4354.102539,4372.94873,4370.384766,4380.897461,4377.05127,4383.589844,4367.307617,4347.307617,4444.615234,4512.94873,4385.384766,4412.179688,,,,,,,,,,,,,,,,,,,,,,,,,,,,,,,,,,,,,,,,,,,,,,,,,,,,,,,,,,,,,,,,,,,,,,
1768972966.846042,1768972966.846202,7.0,0.0,4377.179688,4351.538574,4352.05127,4375.641113,4365.0,4371.282227,4367.563965,4379.871582,4370.256348,4347.820313,4447.820313,4513.717773,4388.974121,4415.512695,,,,,,,,,,,,,,,,,,,,,,,,,,,,,,,,,,,,,,,,,,,,,,,,,,,,,,,,,,,,,,,,,,,,,,
1768972966.85385,1768972966.853811,8.0,0.0,4382.820313,4357.563965,4355.0,4375.128418,4366.538574,4372.692383,4367.307617,4379.102539,4368.974121,4344.743652,4449.871582,4514.358887,4394.102539,4420.512695,,,,,,,,,,,,,,,,,,,,,,,,,,,,,,,,,,,,,,,,,,,,,,,,,,,,,,,,,,,,,,,,,,,,,,
1768972966.861659,1768972966.86162,9.0,0.0,4383.205078,4354.743652,4357.820313,4375.769043,4367.307617,4380.512695,4373.589844,4382.179688,4365.0,4346.282227,4457.307617,4516.282227,4396.410156,4425.512695,,,,,,,,,,,,,,,,,,,,,,,,,,,,,,,,,,,,,,,,,,,,,,,,,,,,,,,,,,,,,,,,,,,,,,
1768972966.869467,1768972966.869528,10.0,0.0,4377.307617,4349.871582,4356.666504,4377.307617,4365.256348,4379.230957,4373.974121,4384.102539,4364.615234,4345.897461,4455.512695,4517.179688,4392.692383,4429.487305,,,,,,,,,,,,,,,,,,,,,,,,,,,,,,,,,,,,,,,,,,,,,,,,,,,,,,,,,,,,,,,,,,,,,,
1768972966.877276,1768972966.877336,11.0,0.0,4377.05127,4349.102539,4356.153809,4373.974121,4366.153809,4372.563965,4370.769043,4382.179688,4365.0,4342.05127,4444.358887,4517.820313,4389.487305,4424.871582,,,,,,,,,,,,,,,,,,,,,,,,,,,,,,,,,,,,,,,,,,,,,,,,,,,,,,,,,,,,,,,,,,,,,,
1768972966.885084,1768972966.885345,12.0,0.0,4378.077148,4352.179688,4355.769043,4374.487305,4365.769043,4375.512695,4373.461426,4381.153809,4365.384766,4341.538574,4450.0,4521.922852,4393.205078,4416.666504,,,,,,,,,,,,,,,,,,,,,,,,,,,,,,,,,,,,,,,,,,,,,,,,,,,,,,,,,,,,,,,,,,,,,,
1768972966.892892,1768972966.893153,13.0,0.0,4379.487305,4358.974121,4356.666504,4381.538574,4365.769043,4380.769043,4375.512695,4382.563965,4368.974121,4346.794922,4463.589844,4525.384766,4397.820313,4418.589844,,,,,,,,,,,,,,,,,,,,,,,,,,,,,,,,,,,,,,,,,,,,,,,,,,,,,,,,,,,,,,,,,,,,,,
1768972966.900701,1768972966.901061,14.0,0.0,4385.769043,4364.358887,4360.384766,4383.589844,4370.128418,4381.794922,4374.358887,4381.410156,4367.94873,4348.333496,4459.358887,4521.025879,4396.538574,4423.461426,0.707601,0.291977,0.397663,0.260624,0.127624,2.072208,0.728584,0.552954,0.212069,0.142085,0.336169,0.272047,0.217344,0.116856,0.068148,0.398081,0.195951,0.116589,0.121183,0.084073,0.174122,0.1389,0.03543,0.04636,0.043373,0.122732,0.1055,0.084335,0.198967,0.243234,0.142443,0.142127,0.05107,0.184421,0.245868,0.182639,0.210941,0.0537,0.082844,0.06205,0.304291,0.198311,0.102564,0.15955,0.063218,0.515804,0.317741,0.102579,0.219268,0.099172,0.734439,0.404459,0.266757,0.306542,0.193129,0.567006,0.409631,0.279591,0.232058,0.17781,1.521434,0.456612,0.247411,0.302528,0.209416,0.648131,0.537045,0.364377,0.324221,0.25202
1768972966.908509,1768972966.90887,15.0,0.0,4386.794922,4365.897461,4361.282227,4381.025879,4369.102539,4382.436035,4375.384766,4380.512695,4364.615234,4345.641113,4453.846191,4515.256348,4396.538574,4420.256348,,,,,,,,,,,,,,,,,,,,,,,,,,,,,,,,,,,,,,,,,,,,,,,,,,,,,,,,,,,,,,,,,,,,,,
1768972966.916318,1768972966.916878,16.0,0.0,4380.512695,4369.487305,4356.922852,4382.307617,4363.589844,4382.05127,4374.102539,4380.769043,4365.769043,4343.077148,4454.871582,4511.025879,4396.025879,4413.589844,,,,,,,,,,,,,,,,,,,,,,,,,,,,,,,,,,,,,,,,,,,,,,,,,,,,,,,,,,,,,,,,,,,,,,
1768972966.924126,1768972966.924686,17.0,0.0,4378.333496,4373.846191,4353.974121,4380.897461,4363.205078,4378.717773,4369.743652,4379.358887,4365.769043,4343.333496,4449.743652,4507.179688,4390.256348,4411.666504,,,,,,,,,,,,,,,,,,,,,,,,,,,,,,,,,,,,,,,,,,,,,,,,,,,,,,,,,,,,,,,,,,,,,,
1768972966.931935,1768972966.932595,18.0,0.0,4380.897461,4373.077148,4356.282227,4377.563965,4366.922852,4380.128418,4373.461426,4380.641113,4364.358887,4344.871582,4449.230957,4508.077148,4390.256348,4417.05127,,,,,,,,,,,,,,,,,,,,,,,,,,,,,,,,,,,,,,,,,,,,,,,,,,,,,,,,,,,,,,,,,,,,,,
1768972966.939743,1768972966.940403,19.0,0.0,4380.769043,4373.461426,4357.179688,4377.563965,4370.128418,4388.205078,4380.641113,4384.358887,4367.820313,4341.538574,4457.820313,4514.358887,4397.05127,4427.563965,,,,,,,,,,,,,,,,,,,,,,,,,,,,,,,,,,,,,,,,,,,,,,,,,,,,,,,,,,,,,,,,,,,,,,
1768972966.947552,1768972966.948412,20.0,0.0,4380.256348,4378.205078,4354.358887,4378.589844,4369.102539,4386.025879,4380.512695,4384.102539,4372.179688,4341.025879,4460.897461,4519.358887,4396.794922,4430.769043,,,,,,,,,,,,,,,,,,,,,,,,,,,,,,,,,,,,,,,,,,,,,,,,,,,,,,,,,,,,,,,,,,,,,,
1768972966.95536,1768972966.95622,21.0,0.0,4381.410156,4383.205078,4351.538574,4379.358887,4369.487305,4375.256348,4377.563965,4383.589844,4374.743652,4347.05127,4455.769043,4513.333496,4389.871582,4422.820313,,,,,,,,,,,,,,,,,,,,,,,,,,,,,,,,,,,,,,,,,,,,,,,,,,,,,,,,,,,,,,,,,,,,,,
1768972966.963169,1768972966.963929,22.0,0.0,4381.922852,4385.512695,4350.641113,4380.641113,4370.897461,4372.692383,4374.230957,4383.077148,4373.846191,4350.128418,4452.307617,4501.922852,4389.358887,4416.410156,,,,,,,,,,,,,,,,,,,,,,,,,,,,,,,,,,,,,,,,,,,,,,,,,,,,,,,,,,,,,,,,,,,,,,
1768972966.970977,1768972966.971737,23.0,0.0,4383.205078,4387.563965,4351.410156,4382.179688,4369.743652,4372.179688,4366.922852,4380.128418,4370.0,4348.461426,4451.922852,4503.205078,4394.615234,4420.512695,,,,,,,,,,,,,,,,,,,,,,,,,,,,,,,,,,,,,,,,,,,,,,,,,,,,,,,,,,,,,,,,,,,,,,
1768972966.978785,1768972966.979346,24.0,0.0,4386.153809,4393.205078,4353.589844,4382.05127,4369.230957,4370.512695,4365.769043,4380.128418,4370.384766,4349.871582,4455.897461,4514.743652,4396.922852,4426.282227,,,,,,,,,,,,,,,,,,,,,,,,,,,,,,,,,,,,,,,,,,,,,,,,,,,,,,,,,,,,,,,,,,,,,,
1768972966.986594,1768972966.987154,25.0,0.0,4388.589844,4396.538574,4354.230957,4382.307617,4369.871582,4373.205078,4374.230957,4378.846191,4372.05127,4351.025879,4461.922852,4516.538574,4397.05127,4426.922852,,,,,,,,,,,,,,,,,,,,,,,,,,,,,,,,,,,,,,,,,,,,,,,,,,,,,,,,,,,,,,,,,,,,,,
1768972966.994402,1768972966.994863,26.0,0.0,4385.512695,4392.179688,4351.025879,4382.307617,4370.0,4375.897461,4377.307617,4375.769043,4370.512695,4344.358887,4458.461426,4508.077148,4398.461426,4423.077148,,,,,,,,,,,,,,,,,,,,,,,,,,,,,,,,,,,,,,,,,,,,,,,,,,,,,,,,,,,,,,,,,,,,,,
1768972967.002211,1768972967.002671,27.0,0.0,4382.05127,4388.461426,4350.256348,4381.794922,4368.589844,4375.641113,4373.077148,4378.205078,4369.358887,4340.128418,4448.205078,4501.153809,4396.538574,4415.897461,,,,,,,,,,,,,,,,,,,,,,,,,,,,,,,,,,,,,,,,,,,,,,,,,,,,,,,,,,,,,,,,,,,,,,
1768972967.010019,1768972967.01028,28.0,0.0,4381.794922,4388.717773,4352.94873,4379.358887,4367.820313,4376.410156,4367.94873,4379.358887,4366.025879,4341.922852,4443.333496,4497.692383,4390.256348,4410.897461,,,,,,,,,,,,,,,,,,,,,,,,,,,,,,,,,,,,,,,,,,,,,,,,,,,,,,,,,,,,,,,,,,,,,,
1768972967.017828,1768972967.018088,29.0,0.0,4378.717773,4386.410156,4351.538574,4374.358887,4369.487305,4374.871582,4365.641113,4374.743652,4365.256348,4343.205078,4445.0,4500.897461,4388.333496,4411.794922,,,,,,,,,,,,,,,,,,,,,,,,,,,,,,,,,,,,,,,,,,,,,,,,,,,,,,,,,,,,,,,,,,,,,,
1768972967.025636,1768972967.025996,30.0,0.0,4376.666504,4381.922852,4348.077148,4375.897461,4369.743652,4371.153809,4367.436035,4370.897461,4367.563965,4343.205078,4443.846191,4505.0,4389.102539,4410.641113,0.676147,0.304367,0.360202,0.267085,0.117832,2.111455,0.762331,0.522869,0.184549,0.136334,0.389184,0.236707,0.199706,0.137066,0.061073,0.444855,0.198832,0.112863,0.133875,0.078575,0.215982,0.135168,0.033795,0.044864,0.049662,0.109993,0.089086,0.078975,0.213449,0.224997,0.117638,0.14723,0.052552,0.180195,0.2213,0.210661,0.203023,0.056231,0.090357,0.059174,0.299115,0.193287,0.113581,0.171013,0.07178,0.450716,0.322867,0.089328,0.206239,0.099894,0.690146,0.42974,0.244496,0.323301,0.185054,0.606306,0.41493,0.240745,0.226353,0.182142,1.433943,0.482432,0.226744,0.289928,0.208973,0.630938,0.660913,0.320384,0.329327,0.232761
1768972967.033445,1768972967.033805,31.0,0.0,4378.333496,4383.589844,4352.94873,4381.410156,4367.94873,4374.102539,4370.0,4371.153809,4363.846191,4340.769043,4440.641113,4505.128418,4390.512695,4411.794922,,,,,,,,,,,,,,,,,,,,,,,,,,,,,,,,,,,,,,,,,,,,,,,,,,,,,,,,,,,,,,,,,,,,,,
1768972967.041253,1768972967.041414,32.0,0.0,4381.794922,4386.794922,4359.487305,4382.94873,4369.743652,4377.179688,4368.077148,4370.128418,4361.794922,4341.666504,4442.94873,4509.615234,4395.128418,4423.974121,,,,,,,,,,,,,,,,,,,,,,,,,,,,,,,,,,,,,,,,,,,,,,,,,,,,,,,,,,,,,,,,,,,,,,
1768972967.049061,1768972967.049222,33.0,0.0,4385.0,4381.538574,4356.922852,4381.153809,4370.641113,4373.333496,4366.282227,4370.512695,4368.717773,4348.461426,4449.358887,4516.410156,4397.436035,4431.153809,,,,,,,,,,,,,,,,,,,,,,,,,,,,,,,,,,,,,,,,,,,,,,,,,,,,,,,,,,,,,,,,,,,,,,
1768972967.05687,1768972967.056931,34.0,0.0,4383.077148,4374.743652,4350.769043,4377.563965,4365.256348,4374.487305,4372.05127,4375.897461,4372.436035,4352.692383,4451.538574,4512.563965,4396.282227,4423.974121,,,,,,,,,,,,,,,,,,,,,,,,,,,,,,,,,,,,,,,,,,,,,,,,,,,,,,,,,,,,,,,,,,,,,,
1768972967.064678,1768972967.064739,35.0,0.0,4378.589844,4373.846191,4352.692383,4373.333496,4363.333496,4379.743652,4376.922852,4381.153809,4371.666504,4348.333496,4447.563965,4506.282227,4396.153809,4420.256348,,,,,,,,,,,,,,,,,,,,,,,,,,,,,,,,,,,,,,,,,,,,,,,,,,,,,,,,,,,,,,,,,,,,,,
1768972967.072487,1768972967.072348,36.0,0.0,4378.846191,4376.538574,4356.922852,4373.717773,4367.563965,4376.794922,4373.717773,4382.563965,4373.717773,4344.102539,4446.666504,4512.05127,4396.410156,4424.102539,,,,,,,,,,,,,,,,,,,,,,,,,,,,,,,,,,,,,,,,,,,,,,,,,,,,,,,,,,,,,,,,,,,,,,
1768972967.080295,1768972967.080156,37.0,0.0,4381.666504,4379.871582,4355.0,4379.487305,4368.333496,4374.358887,4372.94873,4381.410156,4374.615234,4346.153809,4450.128418,4519.230957,4396.538574,4428.205078,,,,,,,,,,,,,,,,,,,,,,,,,,,,,,,,,,,,,,,,,,,,,,,,,,,,,,,,,,,,,,,,,,,,,,
1768972967.088103,1768972967.088064,38.0,0.0,4381.282227,4380.769043,4353.717773,4380.128418,4366.410156,4381.410156,4378.589844,4382.94873,4371.153809,4346.922852,4449.743652,4515.897461,4396.794922,4428.333496,,,,,,,,,,,,,,,,,,,,,,,,,,,,,,,,,,,,,,,,,,,,,,,,,,,,,,,,,,,,,,,,,,,,,,
1768972967.095912,1768972967.095873,39.0,0.0,4382.179688,4380.256348,4356.153809,4380.128418,4366.794922,4383.077148,4380.897461,4384.102539,4369.871582,4348.461426,4451.025879,4512.436035,4396.153809,4427.307617,,,,,,,,,,,,,,,,,,,,,,,,,,,,,,,,,,,,,,,,,,,,,,,,,,,,,,,,,,,,,,,,,,,,,,
1768972967.10372,1768972967.103881,40.0,0.0,4384.230957,4383.461426,4358.974121,4385.512695,4368.205078,4383.205078,4381.538574,4383.846191,4371.153809,4353.846191,4458.717773,4514.743652,4398.333496,4429.358887,,,,,,,,,,,,,,,,,,,,,,,,,,,,,,,,,,,,,,,,,,,,,,,,,,,,,,,,,,,,,,,,,,,,,,
1768972967.111529,1768972967.11169,41.0,0.0,4381.666504,4387.05127,4356.794922,4385.256348,4368.077148,4387.307617,4381.922852,4384.102539,4371.153809,4352.436035,4460.897461,4512.563965,4399.358887,4429.487305,,,,,,,,,,,,,,,,,,,,,,,,,,,,,,,,,,,,,,,,,,,,,,,,,,,,,,,,,,,,,,,,,,,,,,
1768972967.119337,1768972967.119598,42.0,0.0,4379.102539,4384.871582,4352.307617,4379.871582,4369.615234,4380.0,4376.538574,4384.615234,4370.0,4348.461426,4456.025879,4504.358887,4396.410156,4427.05127,,,,,,,,,,,,,,,,,,,,,,,,,,,,,,,,,,,,,,,,,,,,,,,,,,,,,,,,,,,,,,,,,,,,,,
1768972967.127146,1768972967.127406,43.0,0.0,4385.769043,4386.922852,4355.384766,4384.230957,4370.769043,4371.410156,4371.794922,4384.615234,4372.563965,4351.538574,4454.615234,4505.384766,4395.641113,4427.179688,,,,,,,,,,,,,,,,,,,,,,,,,,,,,,,,,,,,,,,,,,,,,,,,,,,,,,,,,,,,,,,,,,,,,,
1768972967.134954,1768972967.135415,44.0,0.0,4391.538574,4392.94873,4362.307617,4392.179688,4368.846191,4375.384766,4372.05127,4383.974121,4373.974121,4353.846191,4455.128418,4511.794922,4398.717773,4428.333496,,,,,,,,,,,,,,,,,,,,,,,,,,,,,,,,,,,,,,,,,,,,,,,,,,,,,,,,,,,,,,,,,,,,,,
1768972967.142763,1768972967.143223,45.0,0.0,4382.307617,4392.179688,4359.743652,4389.487305,4368.077148,4375.256348,4371.025879,4382.179688,4372.05127,4351.922852,4453.205078,4508.333496,4399.102539,4428.333496,,,,,,,,,,,,,,,,,,,,,,,,,,,,,,,,,,,,,,,,,,,,,,,,,,,,,,,,,,,,,,,,,,,,,,
1768972967.150571,1768972967.150932,46.0,0.0,4371.538574,4384.358887,4350.641113,4382.563965,4364.743652,4368.461426,4369.358887,4379.871582,4371.282227,4351.282227,4450.256348,4500.128418,4391.922852,4425.512695,0.62274,0.329329,0.29917,0.27735,0.109396,2.001048,0.741354,0.475636,0.167706,0.126975,0.450827,0.202429,0.166933,0.154871,0.053718,0.494739,0.211402,0.105733,0.140316,0.072619,0.255051,0.13667,0.035418,0.043346,0.056979,0.118961,0.105068,0.084966,0.215096,0.207558,0.107453,0.185081,0.074298,0.169938,0.204282,0.251299,0.209217,0.070769,0.099486,0.056241,0.301034,0.200654,0.123584,0.173197,0.080199,0.377451,0.327421,0.088657,0.190012,0.101221,0.638426,0.470365,0.22224,0.32673,0.179458,0.627732,0.432006,0.206048,0.213416,0.183914,1.299533,0.50333,0.193767,0.262686,0.208209,0.637213,0.828424,0.2714,0.326649,0.20869
1768972967.158379,1768972967.15874,47.0,0.0,4372.820313,4381.153809,4349.230957,4380.641113,4361.538574,4371.410156,4372.94873,4379.102539,4370.384766,4349.230957,4445.256348,4496.410156,4382.692383,4418.717773,,,,,,,,,,,,,,,,,,,,,,,,,,,,,,,,,,,,,,,,,,,,,,,,,,,,,,,,,,,,,,,,,,,,,,
1768972967.166188,1768972967.166349,48.0,0.0,4378.974121,4385.897461,4353.461426,4382.563965,4365.769043,4375.256348,4373.205078,4377.307617,4369.871582,4345.256348,4445.0,4495.384766,4380.384766,4417.05127,,,,,,,,,,,,,,,,,,,,,,,,,,,,,,,,,,,,,,,,,,,,,,,,,,,,,,,,,,,,,,,,,,,,,,
1768972967.173996,1768972967.174157,49.0,0.0,4378.461426,4386.025879,4357.307617,4383.974121,4370.128418,4376.794922,4372.436035,4379.102539,4372.692383,4345.256348,4451.410156,4498.974121,4386.153809,4425.256348,,,,,,,,,,,,,,,,,,,,,,,,,,,,,,,,,,,,,,,,,,,,,,,,,,,,,,,,,,,,,,,,,,,,,,
1768972967.181805,1768972967.181866,50.0,0.0,4372.692383,4376.410156,4354.102539,4381.794922,4367.179688,4384.102539,4377.94873,4383.461426,4374.615234,4348.077148,4450.256348,4502.307617,4388.589844,4429.102539,,,,,,,,,,,,,,,,,,,,,,,,,,,,,,,,,,,,,,,,,,,,,,,,,,,,,,,,,,,,,,,,,,,,,,
1768972967.189613,1768972967.189674,51.0,0.0,4370.384766,4370.0,4349.102539,4381.282227,4366.538574,4383.589844,4378.333496,4378.461426,4372.307617,4348.461426,4445.641113,4500.897461,4386.794922,4426.538574,,,,,,,,,,,,,,,,,,,,,,,,,,,,,,,,,,,,,,,,,,,,,,,,,,,,,,,,,,,,,,,,,,,,,,
1768972967.197422,1768972967.197283,52.0,0.0,4373.205078,4371.025879,4354.358887,4384.358887,4369.487305,4373.717773,4372.436035,4374.358887,4372.05127,4349.230957,4451.538574,4501.922852,4389.487305,4427.563965,,,,,,,,,,,,,,,,,,,,,,,,,,,,,,,,,,,,,,,,,,,,,,,,,,,,,,,,,,,,,,,,,,,,,,
1768972967.20523,1768972967.205091,53.0,0.0,4372.820313,4371.666504,4359.102539,4382.436035,4366.794922,4371.153809,4371.794922,4378.205078,4371.153809,4349.358887,4460.128418,4505.641113,4395.641113,4429.487305,,,,,,,,,,,,,,,,,,,,,,,,,,,,,,,,,,,,,,,,,,,,,,,,,,,,,,,,,,,,,,,,,,,,,,
1768972967.213039,1768972967.2128,54.0,0.0,4368.974121,4373.077148,4355.512695,4379.871582,4367.436035,4374.102539,4373.077148,4378.205078,4368.077148,4351.153809,4457.94873,4506.282227,4399.230957,4429.487305,,,,,,,,,,,,,,,,,,,,,,,,,,,,,,,,,,,,,,,,,,,,,,,,,,,,,,,,,,,,,,,,,,,,,,
1768972967.220847,1768972967.220608,55.0,0.0,4375.0,4378.846191,4355.641113,4383.205078,4370.384766,4373.333496,4368.846191,4374.487305,4368.846191,4355.128418,4452.179688,4505.897461,4395.128418,4429.871582,,,,,,,,,,,,,,,,,,,,,,,,,,,,,,,,,,,,,,,,,,,,,,,,,,,,,,,,,,,,,,,,,,,,,,
1768972967.228655,1768972967.228617,56.0,0.0,4379.743652,4380.769043,4357.820313,4383.333496,4364.102539,4370.384766,4365.384766,4375.384766,4369.102539,4351.410156,4452.05127,4508.333496,4388.461426,4428.333496,,,,,,,,,,,,,,,,,,,,,,,,,,,,,,,,,,,,,,,,,,,,,,,,,,,,,,,,,,,,,,,,,,,,,,
1768972967.236464,1768972967.236425,57.0,0.0,4375.897461,4377.05127,4357.563965,4380.641113,4360.0,4368.077148,4368.589844,4375.769043,4364.615234,4345.769043,4456.025879,4512.05127,4390.897461,4427.94873,,,,,,,,,,,,,,,,,,,,,,,,,,,,,,,,,,,,,,,,,,,,,,,,,,,,,,,,,,,,,,,,,,,,,,
1768972967.244272,1768972967.244134,58.0,0.0,4376.282227,4378.333496,4358.846191,4382.179688,4366.794922,4369.230957,4373.461426,4375.512695,4365.512695,4351.922852,4459.358887,4514.102539,4398.717773,4432.820313,,,,,,,,,,,,,,,,,,,,,,,,,,,,,,,,,,,,,,,,,,,,,,,,,,,,,,,,,,,,,,,,,,,,,,
1768972967.252081,1768972967.251942,59.0,0.0,4380.897461,4385.128418,4360.0,4382.820313,4368.205078,4368.974121,4372.436035,4377.563965,4372.94873,4358.205078,4458.974121,4512.820313,4400.256348,4433.717773,,,,,,,,,,,,,,,,,,,,,,,,,,,,,,,,,,,,,,,,,,,,,,,,,,,,,,,,,,,,,,,,,,,,,,
1768972967.259889,1768972967.259551,60.0,0.0,4383.333496,4387.94873,4361.666504,4383.205078,4366.025879,4371.025879,4372.179688,4375.769043,4374.102539,4351.922852,4458.077148,4509.230957,4396.666504,4430.128418,,,,,,,,,,,,,,,,,,,,,,,,,,,,,,,,,,,,,,,,,,,,,,,,,,,,,,,,,,,,,,,,,,,,,,
1768972967.267698,1768972967.267359,61.0,0.0,4386.025879,4388.846191,4363.717773,4387.563965,4371.410156,4378.077148,4379.487305,4377.05127,4373.205078,4350.769043,4459.871582,4511.025879,4398.333496,4431.282227,,,,,,,,,,,,,,,,,,,,,,,,,,,,,,,,,,,,,,,,,,,,,,,,,,,,,,,,,,,,,,,,,,,,,,
1768972967.275506,1768972967.275267,62.0,0.0,4382.94873,4389.615234,4356.666504,4385.897461,4370.0,4372.820313,4375.641113,4380.512695,4372.94873,4358.461426,4460.769043,4511.538574,4401.922852,4433.974121,0.566101,0.366543,0.233895,0.290235,0.100318,1.79527,0.671793,0.433671,0.169556,0.115623,0.504313,0.179072,0.12914,0.167928,0.047669,0.537315,0.231702,0.097318,0.14095,0.066755,0.284278,0.137127,0.03856,0.041463,0.06423,0.144927,0.138285,0.096826,0.206307,0.195767,0.118207,0.234803,0.111132,0.158833,0.19881,0.302639,0.231953,0.095778,0.109061,0.052724,0.301222,0.223002,0.132428,0.167589,0.086016,0.309724,0.328841,0.099039,0.175528,0.100963,0.613152,0.520593,0.207489,0.32159,0.1746,0.618858,0.459309,0.18894,0.197415,0.179863,1.145089,0.512517,0.158823,0.229327,0.204024,0.66734,1.012758,0.229013,0.326429,0.182691
1768972967.283315,1768972967.283076,63.0,0.0,4375.641113,4387.692383,4351.025879,4380.769043,4365.256348,4363.077148,4363.333496,4375.641113,4368.974121,4353.589844,4454.358887,4507.307617,4394.230957,4429.615234,,,,,,,,,,,,,,,,,,,,,,,,,,,,,,,,,,,,,,,,,,,,,,,,,,,,,,,,,,,,,,,,,,,,,,
1768972967.291123,1768972967.291084,64.0,0.0,4379.615234,4388.846191,4358.974121,4383.846191,4371.282227,4370.512695,4368.205078,4372.94873,4366.794922,4345.0,4446.410156,4507.307617,4381.538574,4425.641113,,,,,,,,,,,,,,,,,,,,,,,,,,,,,,,,,,,,,,,,,,,,,,,,,,,,,,,,,,,,,,,,,,,,,,
1768972967.298931,1768972967.298893,65.0,0.0,4383.077148,4389.102539,4358.077148,4382.05127,4372.436035,4375.512695,4375.256348,4375.384766,4364.615234,4344.358887,4443.717773,4504.358887,4383.077148,4425.769043,,,,,,,,,,,,,,,,,,,,,,,,,,,,,,,,,,,,,,,,,,,,,,,,,,,,,,,,,,,,,,,,,,,,,,
1768972967.30674,1768972967.306801,66.0,0.0,4371.025879,4379.230957,4347.05127,4373.333496,4367.307617,4370.769043,4371.666504,4377.05127,4365.641113,4346.922852,4443.205078,4495.769043,4388.461426,4424.871582,,,,,,,,,,,,,,,,,,,,,,,,,,,,,,,,,,,,,,,,,,,,,,,,,,,,,,,,,,,,,,,,,,,,,,
1768972967.314548,1768972967.314609,67.0,0.0,4370.0,4375.128418,4353.717773,4377.563965,4369.871582,4378.461426,4376.922852,4382.820313,4375.897461,4354.230957,4451.025879,4501.666504,4391.410156,4432.05127,,,,,,,,,,,,,,,,,,,,,,,,,,,,,,,,,,,,,,,,,,,,,,,,,,,,,,,,,,,,,,,,,,,,,,
1768972967.322357,1768972967.322618,68.0,0.0,4386.666504,4383.974121,4366.922852,4388.846191,4371.153809,4382.307617,4382.05127,4386.666504,4379.743652,4362.307617,4461.538574,4516.538574,4404.358887,4445.0,,,,,,,,,,,,,,,,,,,,,,,,,,,,,,,,,,,,,,,,,,,,,,,,,,,,,,,,,,,,,,,,,,,,,,
1768972967.330165,1768972967.330426,69.0,0.0,4392.94873,4385.256348,4365.256348,4388.846191,4367.692383,4373.717773,4374.358887,4382.179688,4368.846191,4361.666504,4461.410156,4518.717773,4410.128418,4448.717773,,,,,,,,,,,,,,,,,,,,,,,,,,,,,,,,,,,,,,,,,,,,,,,,,,,,,,,,,,,,,,,,,,,,,,
1768972967.337974,1768972967.338334,70.0,0.0,4386.153809,4376.282227,4361.025879,4386.282227,4369.615234,4372.563965,4371.794922,4378.717773,4362.05127,4357.05127,4458.077148,4512.436035,4399.487305,4439.871582,,,,,,,,,,,,,,,,,,,,,,,,,,,,,,,,,,,,,,,,,,,,,,,,,,,,,,,,,,,,,,,,,,,,,,
1768972967.345782,1768972967.346143,71.0,0.0,4381.282227,4371.922852,4362.179688,4383.077148,4370.0,4376.666504,4374.487305,4378.846191,4361.538574,4356.538574,4456.666504,4508.717773,4395.256348,4432.94873,,,,,,,,,,,,,,,,,,,,,,,,,,,,,,,,,,,,,,,,,,,,,,,,,,,,,,,,,,,,,,,,,,,,,,
1768972967.353591,1768972967.353951,72.0,0.0,4377.05127,4368.846191,4358.333496,4375.256348,4362.692383,4372.307617,4369.230957,4376.153809,4357.692383,4350.384766,4447.563965,4505.256348,4396.410156,4427.05127,,,,,,,,,,,,,,,,,,,,,,,,,,,,,,,,,,,,,,,,,,,,,,,,,,,,,,,,,,,,,,,,,,,,,,
1768972967.361399,1768972967.36176,73.0,0.0,4370.897461,4363.974121,4352.436035,4374.230957,4359.615234,4365.641113,4363.846191,4371.922852,4357.05127,4340.384766,4440.512695,4499.358887,4386.794922,4415.256348,,,,,,,,,,,,,,,,,,,,,,,,,,,,,,,,,,,,,,,,,,,,,,,,,,,,,,,,,,,,,,,,,,,,,,
1768972967.369208,1768972967.369468,74.0,0.0,4373.333496,4364.743652,4355.769043,4378.205078,4364.358887,4368.974121,4369.871582,4371.410156,4359.358887,4341.666504,4443.461426,4496.282227,4380.384766,4413.717773,,,,,,,,,,,,,,,,,,,,,,,,,,,,,,,,,,,,,,,,,,,,,,,,,,,,,,,,,,,,,,,,,,,,,,
1768972967.377016,1768972967.377277,75.0,0.0,4381.922852,4368.077148,4361.153809,4378.589844,4368.333496,4372.563965,4373.333496,4372.307617,4357.436035,4345.641113,4444.615234,4500.256348,4382.179688,4423.333496,,,,,,,,,,,,,,,,,,,,,,,,,,,,,,,,,,,,,,,,,,,,,,,,,,,,,,,,,,,,,,,,,,,,,,
1768972967.384824,1768972967.384885,76.0,0.0,4383.461426,4368.333496,4359.230957,4380.0,4368.333496,4368.333496,4366.025879,4369.358887,4354.615234,4343.717773,4443.461426,4499.487305,4382.563965,4428.461426,,,,,,,,,,,,,,,,,,,,,,,,,,,,,,,,,,,,,,,,,,,,,,,,,,,,,,,,,,,,,,,,,,,,,,
1768972967.392633,1768972967.392694,77.0,0.0,4380.769043,4368.077148,4359.871582,4383.846191,4367.307617,4368.077148,4366.410156,4368.846191,4354.358887,4340.128418,4442.307617,4490.769043,4381.410156,4423.333496,,,,,,,,,,,,,,,,,,,,,,,,,,,,,,,,,,,,,,,,,,,,,,,,,,,,,,,,,,,,,,,,,,,,,,
1768972967.400441,1768972967.400402,78.0,0.0,4382.94873,4372.436035,4363.717773,4387.94873,4370.897461,4376.282227,4381.410156,4378.205078,4356.794922,4343.461426,4442.94873,4492.05127,4381.922852,4418.205078,0.523755,0.403012,0.183607,0.302122,0.090641,1.582753,0.572246,0.410487,0.190106,0.104414,0.533931,0.165524,0.097107,0.174188,0.044827,0.559509,0.251485,0.091702,0.138943,0.061699,0.298425,0.131788,0.043132,0.03895,0.069825,0.183724,0.176283,0.110241,0.193126,0.190108,0.154794,0.278118,0.155628,0.152717,0.20176,0.36751,0.26454,0.126437,0.116238,0.048392,0.299434,0.255432,0.139378,0.15718,0.087507,0.256391,0.323519,0.116469,0.165434,0.097884,0.638744,0.566262,0.205094,0.31423,0.170753,0.590837,0.486755,0.192622,0.185576,0.170511,0.990805,0.502801,0.136364,0.199295,0.194298,0.710212,1.169196,0.204424,0.336898,0.158633
1768972967.40825,1768972967.408211,79.0,0.0,4383.205078,4372.94873,4358.846191,4387.94873,4372.820313,4377.05127,4384.230957,4382.692383,4359.358887,4350.384766,4445.641113,4503.461426,4386.282227,4419.743652,,,,,,,,,,,,,,,,,,,,,,,,,,,,,,,,,,,,,,,,,,,,,,,,,,,,,,,,,,,,,,,,,,,,,,
1768972967.416058,1768972967.416219,80.0,0.0,4378.333496,4368.333496,4354.743652,4382.692383,4367.820313,4372.05127,4374.102539,4375.384766,4357.692383,4349.102539,4444.871582,4507.692383,4388.205078,4423.077148,,,,,,,,,,,,,,,,,,,,,,,,,,,,,,,,,,,,,,,,,,,,,,,,,,,,,,,,,,,,,,,,,,,,,,
1768972967.423867,1768972967.424027,81.0,0.0,4385.128418,4370.769043,4364.358887,4380.897461,4368.077148,4375.769043,4373.077148,4371.794922,4357.05127,4344.102539,4445.256348,4508.717773,4387.179688,4428.205078,,,,,,,,,,,,,,,,,,,,,,,,,,,,,,,,,,,,,,,,,,,,,,,,,,,,,,,,,,,,,,,,,,,,,,
1768972967.431675,1768972967.431936,82.0,0.0,4395.256348,4378.333496,4370.897461,4382.563965,4372.692383,4376.922852,4375.384766,4374.102539,4359.230957,4344.615234,4448.461426,4511.025879,4386.922852,4430.769043,,,,,,,,,,,,,,,,,,,,,,,,,,,,,,,,,,,,,,,,,,,,,,,,,,,,,,,,,,,,,,,,,,,,,,
1768972967.439484,1768972967.439744,83.0,0.0,4385.641113,4375.769043,4359.871582,4375.384766,4368.333496,4372.05127,4373.333496,4370.256348,4357.94873,4342.563965,4446.025879,4502.436035,4382.94873,4422.94873,,,,,,,,,,,,,,,,,,,,,,,,,,,,,,,,,,,,,,,,,,,,,,,,,,,,,,,,,,,,,,,,,,,,,,
1768972967.447292,1768972967.447753,84.0,0.0,4371.025879,4365.128418,4350.897461,4370.256348,4361.922852,4367.563965,4372.436035,4365.0,4353.846191,4338.333496,4440.769043,4490.384766,4379.358887,4411.538574,,,,,,,,,,,,,,,,,,,,,,,,,,,,,,,,,,,,,,,,,,,,,,,,,,,,,,,,,,,,,,,,,,,,,,
1768972967.4551,1768972967.455561,85.0,0.0,4371.794922,4358.589844,4354.871582,4373.205078,4363.846191,4365.897461,4371.922852,4367.563965,4354.487305,4341.922852,4441.410156,4495.512695,4382.820313,4412.05127,,,,,,,,,,,,,,,,,,,,,,,,,,,,,,,,,,,,,,,,,,,,,,,,,,,,,,,,,,,,,,,,,,,,,,
1768972967.462909,1768972967.46327,86.0,0.0,4373.461426,4355.897461,4356.538574,4370.897461,4362.820313,4368.717773,4372.436035,4369.487305,4355.769043,4343.974121,4442.179688,4504.230957,4382.179688,4416.025879,,,,,,,,,,,,,,,,,,,,,,,,,,,,,,,,,,,,,,,,,,,,,,,,,,,,,,,,,,,,,,,,,,,,,,
1768972967.470717,1768972967.471078,87.0,0.0,4373.077148,4355.128418,4354.743652,4367.307617,4357.05127,4368.333496,4371.922852,4364.102539,4352.307617,4338.974121,4441.025879,4500.769043,4379.743652,4416.025879,,,,,,,,,,,,,,,,,,,,,,,,,,,,,,,,,,,,,,,,,,,,,,,,,,,,,,,,,,,,,,,,,,,,,,
1768972967.478526,1768972967.479086,88.0,0.0,4380.769043,4360.897461,4357.820313,4372.436035,4357.692383,4364.487305,4366.922852,4361.282227,4352.179688,4340.128418,4444.487305,4500.256348,4389.615234,4424.358887,,,,,,,,,,,,,,,,,,,,,,,,,,,,,,,,,,,,,,,,,,,,,,,,,,,,,,,,,,,,,,,,,,,,,,
1768972967.486334,1768972967.486895,89.0,0.0,4384.743652,4366.922852,4358.205078,4378.974121,4362.94873,4364.487305,4363.333496,4362.563965,4355.128418,4344.871582,4447.94873,4505.512695,4394.615234,4433.077148,,,,,,,,,,,,,,,,,,,,,,,,,,,,,,,,,,,,,,,,,,,,,,,,,,,,,,,,,,,,,,,,,,,,,,
1768972967.494143,1768972967.494803,90.0,0.0,4378.333496,4363.589844,4355.897461,4380.512695,4366.282227,4366.282227,4366.282227,4363.846191,4356.153809,4342.05127,4444.358887,4501.410156,4382.820313,4423.205078,,,,,,,,,,,,,,,,,,,,,,,,,,,,,,,,,,,,,,,,,,,,,,,,,,,,,,,,,,,,,,,,,,,,,,
1768972967.501951,1768972967.502611,91.0,0.0,4379.230957,4361.922852,4363.333496,4382.94873,4367.307617,4371.025879,4371.666504,4365.897461,4356.282227,4338.589844,4440.897461,4496.666504,4378.205078,4415.0,,,,,,,,,,,,,,,,,,,,,,,,,,,,,,,,,,,,,,,,,,,,,,,,,,,,,,,,,,,,,,,,,,,,,,
1768972967.50976,1768972967.51062,92.0,0.0,4388.461426,4372.179688,4369.743652,4387.436035,4367.436035,4378.846191,4374.743652,4369.102539,4356.666504,4342.94873,4443.589844,4507.179688,4387.05127,4423.717773,,,,,,,,,,,,,,,,,,,,,,,,,,,,,,,,,,,,,,,,,,,,,,,,,,,,,,,,,,,,,,,,,,,,,,
1768972967.517568,1768972967.518428,93.0,0.0,4387.436035,4374.358887,4363.205078,4385.0,4366.666504,4378.974121,4375.384766,4371.153809,4359.487305,4344.487305,4446.282227,4515.256348,4391.282227,4431.153809,,,,,,,,,,,,,,,,,,,,,,,,,,,,,,,,,,,,,,,,,,,,,,,,,,,,,,,,,,,,,,,,,,,,,,
1768972967.525376,1768972967.526137,94.0,0.0,4379.102539,4363.077148,4357.307617,4379.358887,4364.230957,4372.563965,4373.846191,4370.128418,4364.871582,4340.384766,4443.461426,4507.94873,4387.820313,4427.307617,0.505039,0.422868,0.160552,0.309104,0.082722,1.456087,0.464376,0.40386,0.221025,0.095172,0.525339,0.155619,0.079128,0.172261,0.046946,0.550874,0.262279,0.092174,0.137619,0.058142,0.295387,0.121594,0.048402,0.036154,0.07239,0.234611,0.213737,0.125176,0.182425,0.187466,0.216024,0.306159,0.201659,0.154619,0.205436,0.445296,0.295083,0.157208,0.117919,0.043595,0.297673,0.287701,0.143899,0.145427,0.084216,0.219008,0.312045,0.136124,0.160065,0.092554,0.722866,0.596747,0.215607,0.307381,0.169314,0.575348,0.502286,0.209854,0.183639,0.159204,0.849451,0.477594,0.139512,0.178165,0.179435,0.742514,1.251737,0.206064,0.357181,0.139965
1768972967.533185,1768972967.533945,95.0,0.0,4378.717773,4361.025879,4359.871582,4380.256348,4363.461426,4372.563965,4374.102539,4366.025879,4366.922852,4342.820313,4442.94873,4504.615234,4384.615234,4419.743652,,,,,,,,,,,,,,,,,,,,,,,,,,,,,,,,,,,,,,,,,,,,,,,,,,,,,,,,,,,,,,,,,,,,,,
1768972967.540993,1768972967.541554,96.0,0.0,4380.897461,4365.769043,4360.384766,4381.282227,4365.256348,4374.871582,4374.743652,4364.230957,4364.871582,4345.897461,4444.230957,4504.743652,4382.179688,4414.230957,,,,,,,,,,,,,,,,,,,,,,,,,,,,,,,,,,,,,,,,,,,,,,,,,,,,,,,,,,,,,,,,,,,,,,
1768972967.548802,1768972967.549362,97.0,0.0,4379.358887,4365.512695,4360.0,4377.179688,4366.025879,4369.102539,4369.871582,4368.205078,4367.563965,4343.205078,4442.179688,4502.05127,4381.282227,4415.128418,,,,,,,,,,,,,,,,,,,,,,,,,,,,,,,,,,,,,,,,,,,,,,,,,,,,,,,,,,,,,,,,,,,,,,
1768972967.55661,1768972967.557071,98.0,0.0,4380.256348,4369.230957,4365.512695,4381.025879,4367.179688,4366.282227,4368.077148,4371.410156,4371.794922,4343.846191,4444.487305,4505.512695,4385.897461,4423.717773,,,,,,,,,,,,,,,,,,,,,,,,,,,,,,,,,,,,,,,,,,,,,,,,,,,,,,,,,,,,,,,,,,,,,,
1768972967.564419,1768972967.564879,99.0,0.0,4383.461426,4380.128418,4369.230957,4387.692383,4369.230957,4370.512695,4373.974121,4369.487305,4373.461426,4348.974121,4450.769043,4512.307617,4392.563965,4429.358887,,,,,,,,,,,,,,,,,,,,,,,,,,,,,,,,,,,,,,,,,,,,,,,,,,,,,,,,,,,,,,,,,,,,,,
1768972967.572227,1768972967.572488,100.0,0.0,4383.333496,4385.0,4361.794922,4381.666504,4368.589844,4370.384766,4373.589844,4369.743652,4373.974121,4350.769043,4451.410156,4510.641113,4393.077148,4425.128418,,,,,,,,,,,,,,,,,,,,,,,,,,,,,,,,,,,,,,,,,,,,,,,,,,,,,,,,,,,,,,,,,,,,,,
1768972967.580036,1768972967.580296,101.0,0.0,4380.0,4380.128418,4352.94873,4376.282227,4369.230957,4366.922852,4366.282227,4373.846191,4373.589844,4350.512695,4445.256348,4504.358887,4387.563965,4417.692383,,,,,,,,,,,,,,,,,,,,,,,,,,,,,,,,,,,,,,,,,,,,,,,,,,,,,,,,,,,,,,,,,,,,,,
1768972967.587844,1768972967.588005,102.0,0.0,4376.410156,4373.589844,4357.692383,4380.0,4367.563965,4369.230957,4369.871582,4377.436035,4372.563965,4350.384766,4443.846191,4508.589844,4387.179688,4418.974121,,,,,,,,,,,,,,,,,,,,,,,,,,,,,,,,,,,,,,,,,,,,,,,,,,,,,,,,,,,,,,,,,,,,,,
1768972967.595652,1768972967.595813,103.0,0.0,4373.974121,4369.358887,4363.974121,4378.846191,4361.153809,4371.153809,4375.769043,4375.897461,4367.94873,4350.0,4447.692383,4517.307617,4394.358887,4427.692383,,,,,,,,,,,,,,,,,,,,,,,,,,,,,,,,,,,,,,,,,,,,,,,,,,,,,,,,,,,,,,,,,,,,,,
1768972967.603461,1768972967.603422,104.0,0.0,4373.846191,4368.717773,4356.666504,4371.922852,4360.128418,4364.102539,4367.307617,4370.128418,4364.487305,4347.820313,4447.820313,4516.282227,4395.512695,4425.256348,,,,,,,,,,,,,,,,,,,,,,,,,,,,,,,,,,,,,,,,,,,,,,,,,,,,,,,,,,,,,,,,,,,,,,
1768972967.611269,1768972967.61123,105.0,0.0,4372.692383,4365.641113,4346.410156,4369.743652,4365.897461,4362.179688,4365.128418,4369.743652,4366.282227,4345.384766,4443.974121,4508.846191,4389.871582,4413.077148,,,,,,,,,,,,,,,,,,,,,,,,,,,,,,,,,,,,,,,,,,,,,,,,,,,,,,,,,,,,,,,,,,,,,,
1768972967.619078,1768972967.619139,106.0,0.0,4367.307617,4358.717773,4344.615234,4368.333496,4366.794922,4372.436035,4375.897461,4372.436035,4367.179688,4347.179688,4442.05127,4504.615234,4385.128418,4411.025879,,,,,,,,,,,,,,,,,,,,,,,,,,,,,,,,,,,,,,,,,,,,,,,,,,,,,,,,,,,,,,,,,,,,,,
1768972967.626886,1768972967.626947,107.0,0.0,4364.358887,4355.897461,4347.307617,4365.128418,4365.384766,4373.717773,4374.615234,4370.256348,4365.0,4349.743652,4444.230957,4505.128418,4383.974121,4412.820313,,,,,,,,,,,,,,,,,,,,,,,,,,,,,,,,,,,,,,,,,,,,,,,,,,,,,,,,,,,,,,,,,,,,,,
1768972967.634695,1768972967.634955,108.0,0.0,4365.128418,4356.666504,4351.410156,4366.794922,4367.05127,4363.717773,4364.871582,4368.461426,4367.307617,4344.871582,4445.128418,4506.282227,4384.230957,4409.358887,,,,,,,,,,,,,,,,,,,,,,,,,,,,,,,,,,,,,,,,,,,,,,,,,,,,,,,,,,,,,,,,,,,,,,
1768972967.642503,1768972967.642764,109.0,0.0,4365.128418,4354.743652,4352.94873,4365.384766,4366.153809,4363.846191,4365.0,4367.307617,4366.794922,4340.769043,4443.205078,4500.384766,4381.794922,4409.743652,,,,,,,,,,,,,,,,,,,,,,,,,,,,,,,,,,,,,,,,,,,,,,,,,,,,,,,,,,,,,,,,,,,,,,
1768972967.650312,1768972967.650672,110.0,0.0,4366.666504,4354.487305,4350.512695,4362.307617,4364.102539,4372.563965,4368.461426,4363.589844,4358.333496,4341.025879,4441.282227,4490.641113,4379.487305,4413.205078,0.505554,0.415163,0.164403,0.309351,0.079578,1.44919,0.368585,0.400361,0.2504,0.088967,0.478546,0.144609,0.07655,0.162807,0.05512,0.510784,0.259761,0.100065,0.13856,0.05646,0.275982,0.111187,0.053383,0.034128,0.071487,0.290613,0.252768,0.144452,0.178072,0.183484,0.288418,0.320193,0.244038,0.162598,0.202528,0.530241,0.313491,0.181685,0.112201,0.039213,0.29833,0.311558,0.146197,0.135435,0.077068,0.198784,0.300962,0.155281,0.157522,0.086786,0.83324,0.605668,0.237382,0.299933,0.16945,0.603006,0.505393,0.228247,0.194062,0.149053,0.730359,0.453081,0.177345,0.166655,0.161622,0.749426,1.238814,0.231843,0.38165,0.127607
1768972967.65812,1768972967.658481,111.0,0.0,4369.615234,4360.769043,4353.077148,4371.922852,4368.717773,4373.205078,4369.102539,4363.846191,4359.358887,4341.538574,4440.897461,4496.153809,4383.205078,4412.179688,,,,,,,,,,,,,,,,,,,,,,,,,,,,,,,,,,,,,,,,,,,,,,,,,,,,,,,,,,,,,,,,,,,,,,
1768972967.665928,1768972967.666089,112.0,0.0,4365.256348,4362.307617,4358.077148,4380.256348,4375.256348,4370.769043,4372.05127,4367.692383,4367.05127,4340.897461,4443.077148,4504.615234,4385.384766,4410.384766,,,,,,,,,,,,,,,,,,,,,,,,,,,,,,,,,,,,,,,,,,,,,,,,,,,,,,,,,,,,,,,,,,,,,,
1768972967.673737,1768972967.673898,113.0,0.0,4361.410156,4356.666504,4355.769043,4374.743652,4375.897461,4371.794922,4372.05127,4366.282227,4367.820313,4342.94873,4443.846191,4500.769043,4380.512695,4409.358887,,,,,,,,,,,,,,,,,,,,,,,,,,,,,,,,,,,,,,,,,,,,,,,,,,,,,,,,,,,,,,,,,,,,,,
1768972967.681545,1768972967.681806,114.0,0.0,4370.384766,4357.692383,4351.025879,4375.897461,4373.717773,4368.717773,4367.94873,4365.128418,4368.846191,4347.436035,4442.692383,4500.384766,4383.077148,4409.487305,,,,,,,,,,,,,,,,,,,,,,,,,,,,,,,,,,,,,,,,,,,,,,,,,,,,,,,,,,,,,,,,,,,,,,
1768972967.689354,1768972967.689615,115.0,0.0,4375.769043,4364.743652,4350.641113,4382.179688,4368.333496,4366.922852,4369.871582,4370.769043,4373.205078,4349.230957,4448.589844,4511.410156,4392.179688,4419.743652,,,,,,,,,,,,,,,,,,,,,,,,,,,,,,,,,,,,,,,,,,,,,,,,,,,,,,,,,,,,,,,,,,,,,,
1768972967.697162,1768972967.697623,116.0,0.0,4370.384766,4361.282227,4350.128418,4373.333496,4360.0,4369.615234,4373.333496,4374.358887,4372.307617,4348.717773,4456.538574,4519.358887,4390.384766,4426.153809,,,,,,,,,,,,,,,,,,,,,,,,,,,,,,,,,,,,,,,,,,,,,,,,,,,,,,,,,,,,,,,,,,,,,,
1768972967.704971,1768972967.705431,117.0,0.0,4369.487305,4355.0,4349.871582,4367.436035,4360.256348,4370.0,4370.769043,4370.384766,4368.205078,4347.692383,4451.922852,4518.589844,4383.077148,4418.846191,,,,,,,,,,,,,,,,,,,,,,,,,,,,,,,,,,,,,,,,,,,,,,,,,,,,,,,,,,,,,,,,,,,,,,
1768972967.712779,1768972967.71334,118.0,0.0,4373.974121,4358.717773,4352.179688,4376.922852,4366.794922,4370.897461,4370.128418,4365.384766,4364.743652,4345.128418,4444.230957,4516.794922,4381.922852,4415.0,,,,,,,,,,,,,,,,,,,,,,,,,,,,,,,,,,,,,,,,,,,,,,,,,,,,,,,,,,,,,,,,,,,,,,
1768972967.720588,1768972967.721148,119.0,0.0,4372.179688,4362.05127,4350.897461,4381.282227,4367.94873,4372.179688,4369.615234,4362.436035,4357.692383,4341.538574,4444.487305,4510.512695,4381.410156,4416.153809,,,,,,,,,,,,,,,,,,,,,,,,,,,,,,,,,,,,,,,,,,,,,,,,,,,,,,,,,,,,,,,,,,,,,,
1768972967.728396,1768972967.729056,120.0,0.0,4372.692383,4359.743652,4349.102539,4381.025879,4368.205078,4370.769043,4363.846191,4361.153809,4352.94873,4340.512695,4444.102539,4500.769043,4378.589844,4412.436035,,,,,,,,,,,,,,,,,,,,,,,,,,,,,,,,,,,,,,,,,,,,,,,,,,,,,,,,,,,,,,,,,,,,,,
1768972967.736205,1768972967.736865,121.0,0.0,4377.94873,4356.153809,4352.179688,4383.205078,4371.410156,4370.897461,4365.769043,4364.102539,4358.205078,4342.692383,4441.794922,4499.743652,4381.025879,4411.282227,,,,,,,,,,,,,,,,,,,,,,,,,,,,,,,,,,,,,,,,,,,,,,,,,,,,,,,,,,,,,,,,,,,,,,
1768972967.744013,1768972967.744573,122.0,0.0,4369.358887,4347.179688,4349.358887,4376.538574,4370.128418,4373.974121,4375.769043,4368.846191,4365.384766,4343.717773,4442.94873,4504.487305,4383.974121,4414.230957,,,,,,,,,,,,,,,,,,,,,,,,,,,,,,,,,,,,,,,,,,,,,,,,,,,,,,,,,,,,,,,,,,,,,,
1768972967.751821,1768972967.752382,123.0,0.0,4356.922852,4337.436035,4344.102539,4367.179688,4365.897461,4372.563965,4375.128418,4370.256348,4364.102539,4341.922852,4443.846191,4506.025879,4382.307617,4411.538574,,,,,,,,,,,,,,,,,,,,,,,,,,,,,,,,,,,,,,,,,,,,,,,,,,,,,,,,,,,,,,,,,,,,,,
1768972967.75963,1768972967.759991,124.0,0.0,4362.563965,4342.307617,4346.538574,4370.512695,4364.615234,4365.512695,4365.641113,4366.282227,4361.282227,4343.333496,4444.358887,4505.256348,4382.436035,4412.307617,,,,,,,,,,,,,,,,,,,,,,,,,,,,,,,,,,,,,,,,,,,,,,,,,,,,,,,,,,,,,,,,,,,,,,
1768972967.767438,1768972967.767799,125.0,0.0,4369.358887,4349.102539,4348.333496,4375.128418,4366.153809,4363.205078,4363.077148,4364.615234,4365.128418,4348.333496,4445.0,4503.205078,4383.589844,4413.461426,,,,,,,,,,,,,,,,,,,,,,,,,,,,,,,,,,,,,,,,,,,,,,,,,,,,,,,,,,,,,,,,,,,,,,
1768972967.775247,1768972967.775507,126.0,0.0,4360.512695,4344.358887,4340.769043,4369.102539,4368.205078,4370.384766,4368.461426,4367.94873,4367.436035,4347.436035,4442.563965,4495.769043,4379.102539,4403.717773,0.508268,0.381234,0.186704,0.30427,0.083148,1.534736,0.292836,0.385287,0.268102,0.086271,0.404793,0.133145,0.086271,0.149298,0.069128,0.448836,0.251074,0.116539,0.140879,0.056755,0.244481,0.106741,0.057686,0.034445,0.067896,0.337125,0.298285,0.170463,0.17844,0.175702,0.351352,0.326644,0.278589,0.171057,0.19045,0.606557,0.316504,0.195992,0.100199,0.036355,0.306591,0.323436,0.148041,0.12901,0.067875,0.190137,0.29656,0.176478,0.154236,0.082353,0.920873,0.593969,0.272199,0.287932,0.167622,0.679027,0.506772,0.241222,0.216405,0.141305,0.636566,0.448316,0.254108,0.161281,0.143906,0.72216,1.143811,0.27572,0.404202,0.120131
1768972967.783055,1768972967.783316,127.0,0.0,4351.922852,4337.436035,4333.461426,4363.717773,4368.077148,4377.307617,4373.589844,4370.897461,4366.538574,4345.128418,4442.307617,4495.512695,4376.794922,4399.487305,,,,,,,,,,,,,,,,,,,,,,,,,,,,,,,,,,,,,,,,,,,,,,,,,,,,,,,,,,,,,,,,,,,,,,
1768972967.790864,1768972967.790925,0.0,0.0,4354.230957,4338.205078,4336.153809,4364.358887,4364.871582,4374.230957,4375.256348,4372.692383,4370.897461,4350.512695,4446.410156,4508.461426,4384.102539,4409.358887,,,,,,,,,,,,,,,,,,,,,,,,,,,,,,,,,,,,,,,,,,,,,,,,,,,,,,,,,,,,,,,,,,,,,,
1768972967.798672,1768972967.798733,1.0,0.0,4356.666504,4343.717773,4344.102539,4364.615234,4363.077148,4367.692383,4369.358887,4371.410156,4373.205078,4350.769043,4446.794922,4512.692383,4385.256348,4412.563965,,,,,,,,,,,,,,,,,,,,,,,,,,,,,,,,,,,,,,,,,,,,,,,,,,,,,,,,,,,,,,,,,,,,,,
1768972967.806481,1768972967.806442,2.0,0.0,4359.102539,4345.769043,4347.563965,4365.384766,4365.256348,4368.589844,4366.153809,4368.717773,4366.410156,4343.461426,4442.820313,4506.025879,4373.589844,4404.230957,,,,,,,,,,,,,,,,,,,,,,,,,,,,,,,,,,,,,,,,,,,,,,,,,,,,,,,,,,,,,,,,,,,,,,
1768972967.814289,1768972967.81425,3.0,0.0,4363.205078,4341.538574,4348.205078,4368.846191,4366.538574,4371.282227,4372.820313,4368.717773,4358.846191,4340.769043,4439.743652,4502.820313,4367.820313,4398.974121,,,,,,,,,,,,,,,,,,,,,,,,,,,,,,,,,,,,,,,,,,,,,,,,,,,,,,,,,,,,,,,,,,,,,,
1768972967.822097,1768972967.822258,4.0,0.0,4365.0,4342.436035,4348.846191,4368.974121,4366.410156,4370.128418,4375.128418,4369.871582,4357.563965,4341.410156,4437.179688,4502.563965,4372.307617,4397.692383,,,,,,,,,,,,,,,,,,,,,,,,,,,,,,,,,,,,,,,,,,,,,,,,,,,,,,,,,,,,,,,,,,,,,,
1768972967.829906,1768972967.830067,5.0,0.0,4365.256348,4354.487305,4349.871582,4367.179688,4367.05127,4371.922852,4371.666504,4368.717773,4358.205078,4340.897461,4436.922852,4505.897461,4374.871582,4402.563965,,,,,,,,,,,,,,,,,,,,,,,,,,,,,,,,,,,,,,,,,,,,,,,,,,,,,,,,,,,,,,,,,,,,,,
1768972967.837714,1768972967.837975,6.0,0.0,4364.102539,4358.589844,4350.0,4366.538574,4364.871582,4376.282227,4373.333496,4367.820313,4359.871582,4341.794922,4435.769043,4509.358887,4372.436035,4407.436035,,,,,,,,,,,,,,,,,,,,,,,,,,,,,,,,,,,,,,,,,,,,,,,,,,,,,,,,,,,,,,,,,,,,,,
1768972967.845523,1768972967.845784,7.0,0.0,4365.384766,4357.94873,4347.820313,4366.666504,4362.436035,4371.666504,4372.692383,4366.666504,4359.487305,4341.410156,4434.358887,4503.205078,4371.025879,4405.0,,,,,,,,,,,,,,,,,,,,,,,,,,,,,,,,,,,,,,,,,,,,,,,,,,,,,,,,,,,,,,,,,,,,,,
1768972967.853331,1768972967.853792,8.0,0.0,4364.871582,4358.589844,4344.743652,4365.897461,4363.717773,4368.974121,4369.358887,4366.538574,4357.820313,4339.230957,4438.846191,4501.025879,4373.077148,4405.897461,,,,,,,,,,,,,,,,,,,,,,,,,,,,,,,,,,,,,,,,,,,,,,,,,,,,,,,,,,,,,,,,,,,,,,
1768972967.86114,1768972967.8616,9.0,0.0,4355.641113,4350.641113,4344.743652,4362.563965,4366.410156,4379.102539,4376.538574,4374.743652,4366.410156,4344.743652,4446.922852,4513.589844,4378.589844,4411.538574,,,,,,,,,,,,,,,,,,,,,,,,,,,,,,,,,,,,,,,,,,,,,,,,,,,,,,,,,,,,,,,,,,,,,,
1768972967.868948,1768972967.869309,10.0,0.0,4357.692383,4351.922852,4349.358887,4363.461426,4367.94873,4377.179688,4377.692383,4377.820313,4375.0,4351.025879,4449.102539,4520.512695,4383.589844,4414.743652,,,,,,,,,,,,,,,,,,,,,,,,,,,,,,,,,,,,,,,,,,,,,,,,,,,,,,,,,,,,,,,,,,,,,,
1768972967.876757,1768972967.877117,11.0,0.0,4374.358887,4366.794922,4351.922852,4372.05127,4366.666504,4359.871582,4364.358887,4367.05127,4370.0,4345.769043,4446.025879,4513.974121,4382.436035,4416.538574,,,,,,,,,,,,,,,,,,,,,,,,,,,,,,,,,,,,,,,,,,,,,,,,,,,,,,,,,,,,,,,,,,,,,,
1768972967.884565,1768972967.885125,12.0,0.0,4378.846191,4370.256348,4350.256348,4375.769043,4365.256348,4364.487305,4366.153809,4363.077148,4365.256348,4340.769043,4443.205078,4507.820313,4380.384766,4417.307617,,,,,,,,,,,,,,,,,,,,,,,,,,,,,,,,,,,,,,,,,,,,,,,,,,,,,,,,,,,,,,,,,,,,,,
1768972967.892373,1768972967.892934,13.0,0.0,4376.282227,4363.974121,4352.563965,4372.820313,4367.05127,4377.692383,4375.384766,4369.102539,4369.743652,4344.102539,4444.358887,4507.820313,4382.820313,4415.897461,,,,,,,,,,,,,,,,,,,,,,,,,,,,,,,,,,,,,,,,,,,,,,,,,,,,,,,,,,,,,,,,,,,,,,
1768972967.900182,1768972967.900842,14.0,0.0,4382.436035,4365.897461,4354.358887,4373.461426,4366.410156,4366.666504,4368.205078,4368.974121,4369.487305,4344.743652,4446.666504,4508.333496,4383.589844,4416.153809,0.504498,0.333642,0.216721,0.297558,0.093407,1.664509,0.238158,0.356784,0.269389,0.087069,0.333227,0.126083,0.10508,0.13766,0.087424,0.396011,0.24655,0.142942,0.142178,0.059275,0.209045,0.113784,0.062298,0.039226,0.063226,0.360477,0.351845,0.201583,0.178191,0.164675,0.38681,0.333017,0.301666,0.174317,0.172534,0.658516,0.309508,0.198781,0.086133,0.035894,0.32749,0.326385,0.15073,0.127001,0.058701,0.190356,0.302341,0.202331,0.147835,0.080088,0.93654,0.567042,0.31942,0.268103,0.160043,0.780152,0.526859,0.247982,0.246888,0.136306,0.568841,0.474582,0.361357,0.158628,0.12972,0.678939,1.010493,0.331507,0.422207,0.116103
1768972967.90799,1768972967.908651,15.0,0.0,4378.077148,4367.436035,4347.436035,4373.333496,4360.256348,4358.333496,4363.077148,4366.282227,4363.461426,4340.897461,4440.769043,4502.692383,4378.333496,4409.871582,,,,,,,,,,,,,,,,,,,,,,,,,,,,,,,,,,,,,,,,,,,,,,,,,,,,,,,,,,,,,,,,,,,,,,
1768972967.915799,1768972967.916359,16.0,0.0,4363.846191,4363.205078,4339.615234,4367.307617,4358.461426,4369.743652,4368.333496,4368.974121,4362.692383,4340.897461,4431.794922,4498.846191,4371.153809,4396.410156,,,,,,,,,,,,,,,,,,,,,,,,,,,,,,,,,,,,,,,,,,,,,,,,,,,,,,,,,,,,,,,,,,,,,,
1768972967.923607,1768972967.924168,17.0,0.0,4363.077148,4362.05127,4339.871582,4364.743652,4359.358887,4369.358887,4365.641113,4366.922852,4363.974121,4341.794922,4431.538574,4499.743652,4371.153809,4393.974121,,,,,,,,,,,,,,,,,,,,,,,,,,,,,,,,,,,,,,,,,,,,,,,,,,,,,,,,,,,,,,,,,,,,,,
1768972967.931416,1768972967.931876,18.0,0.0,4366.794922,4361.538574,4343.205078,4365.641113,4359.358887,4364.615234,4366.025879,4365.769043,4364.358887,4341.282227,4435.512695,4502.05127,4374.487305,4401.538574,,,,,,,,,,,,,,,,,,,,,,,,,,,,,,,,,,,,,,,,,,,,,,,,,,,,,,,,,,,,,,,,,,,,,,
1768972967.939224,1768972967.939685,19.0,0.0,4360.128418,4353.461426,4339.102539,4361.410156,4359.102539,4374.487305,4374.871582,4370.512695,4363.717773,4340.897461,4432.692383,4502.692383,4367.436035,4400.0,,,,,,,,,,,,,,,,,,,,,,,,,,,,,,,,,,,,,,,,,,,,,,,,,,,,,,,,,,,,,,,,,,,,,,
1768972967.947033,1768972967.947693,20.0,0.0,4352.692383,4340.641113,4332.94873,4354.615234,4355.512695,4374.743652,4370.128418,4369.102539,4364.743652,4337.94873,4426.794922,4498.333496,4358.461426,4388.205078,,,,,,,,,,,,,,,,,,,,,,,,,,,,,,,,,,,,,,,,,,,,,,,,,,,,,,,,,,,,,,,,,,,,,,
1768972967.954841,1768972967.955501,21.0,0.0,4355.384766,4340.769043,4337.94873,4358.077148,4354.230957,4362.307617,4362.307617,4368.974121,4371.153809,4340.769043,4433.589844,4498.461426,4365.0,4388.717773,,,,,,,,,,,,,,,,,,,,,,,,,,,,,,,,,,,,,,,,,,,,,,,,,,,,,,,,,,,,,,,,,,,,,,
1768972967.962649,1768972967.96321,22.0,0.0,4365.128418,4351.922852,4351.025879,4371.282227,4358.974121,4364.743652,4370.128418,4375.0,4374.615234,4351.025879,4446.666504,4509.743652,4379.230957,4406.025879,,,,,,,,,,,,,,,,,,,,,,,,,,,,,,,,,,,,,,,,,,,,,,,,,,,,,,,,,,,,,,,,,,,,,,
1768972967.970458,1768972967.971018,23.0,0.0,4368.077148,4355.128418,4355.0,4374.102539,4361.282227,4375.0,4376.410156,4373.589844,4374.230957,4350.769043,4448.333496,4518.077148,4382.563965,4414.487305,,,,,,,,,,,,,,,,,,,,,,,,,,,,,,,,,,,,,,,,,,,,,,,,,,,,,,,,,,,,,,,,,,,,,,
1768972967.978266,1768972967.978627,24.0,0.0,4363.461426,4353.589844,4349.871582,4367.692383,4358.077148,4372.692383,4372.307617,4368.205078,4374.102539,4344.358887,4443.974121,4513.717773,4379.615234,4410.256348,,,,,,,,,,,,,,,,,,,,,,,,,,,,,,,,,,,,,,,,,,,,,,,,,,,,,,,,,,,,,,,,,,,,,,
1768972967.986075,1768972967.986435,25.0,0.0,4358.717773,4350.641113,4345.641113,4364.615234,4357.820313,4367.307617,4371.922852,4369.487305,4371.794922,4347.692383,4444.487305,4510.641113,4380.256348,4408.717773,,,,,,,,,,,,,,,,,,,,,,,,,,,,,,,,,,,,,,,,,,,,,,,,,,,,,,,,,,,,,,,,,,,,,,
1768972967.993883,1768972967.994144,26.0,0.0,4356.922852,4344.487305,4345.641113,4362.563965,4357.563965,4368.846191,4375.128418,4371.794922,4370.641113,4353.077148,4445.256348,4512.179688,4380.128418,4411.538574,,,,,,,,,,,,,,,,,,,,,,,,,,,,,,,,,,,,,,,,,,,,,,,,,,,,,,,,,,,,,,,,,,,,,,
1768972968.001692,1768972968.001952,27.0,0.0,4360.641113,4344.487305,4346.794922,4360.512695,4354.615234,4371.794922,4375.641113,4370.512695,4375.0,4353.717773,4446.025879,4508.846191,4380.769043,4413.846191,,,,,,,,,,,,,,,,,,,,,,,,,,,,,,,,,,,,,,,,,,,,,,,,,,,,,,,,,,,,,,,,,,,,,,
1768972968.0095,1768972968.009561,28.0,0.0,4366.153809,4348.333496,4345.384766,4361.153809,4354.615234,4371.666504,4372.307617,4369.871582,4373.077148,4351.922852,4446.153809,4502.820313,4380.384766,4413.205078,,,,,,,,,,,,,,,,,,,,,,,,,,,,,,,,,,,,,,,,,,,,,,,,,,,,,,,,,,,,,,,,,,,,,,
1768972968.017309,1768972968.01737,29.0,0.0,4365.769043,4348.205078,4346.410156,4363.205078,4356.538574,4372.307617,4372.563965,4370.384766,4364.743652,4349.358887,4442.94873,4497.820313,4374.102539,4410.769043,,,,,,,,,,,,,,,,,,,,,,,,,,,,,,,,,,,,,,,,,,,,,,,,,,,,,,,,,,,,,,,,,,,,,,
1768972968.025117,1768972968.025278,30.0,0.0,4364.230957,4350.128418,4350.384766,4364.743652,4357.692383,4375.0,4380.0,4370.128418,4364.358887,4347.307617,4442.307617,4499.615234,4370.512695,4410.256348,0.50719,0.289771,0.248274,0.292188,0.108612,1.797863,0.208609,0.328524,0.256358,0.091566,0.285432,0.127663,0.133586,0.133715,0.107227,0.396243,0.254084,0.181428,0.141589,0.064455,0.176236,0.132954,0.069774,0.050545,0.059033,0.353599,0.406329,0.231565,0.172174,0.153291,0.384082,0.34091,0.310286,0.169663,0.155664,0.670637,0.303493,0.190306,0.075665,0.038115,0.361088,0.329356,0.153586,0.130044,0.051456,0.19701,0.319007,0.230149,0.137867,0.079486,0.86683,0.532224,0.368756,0.240314,0.145089,0.868831,0.585705,0.248166,0.279268,0.134565,0.519745,0.528906,0.473138,0.156312,0.121604,0.642973,0.887292,0.388933,0.436015,0.115189
1768972968.032925,1768972968.033086,31.0,0.0,4369.743652,4354.230957,4349.102539,4366.794922,4355.897461,4366.538574,4372.05127,4366.410156,4368.589844,4346.538574,4443.717773,4505.769043,4376.282227,4411.153809,,,,,,,,,,,,,,,,,,,,,,,,,,,,,,,,,,,,,,,,,,,,,,,,,,,,,,,,,,,,,,,,,,,,,,
1768972968.040734,1768972968.041095,32.0,0.0,4375.256348,4358.589844,4347.820313,4369.743652,4356.538574,4354.487305,4354.871582,4363.717773,4364.743652,4343.333496,4444.230957,4502.692383,4379.615234,4412.307617,,,,,,,,,,,,,,,,,,,,,,,,,,,,,,,,,,,,,,,,,,,,,,,,,,,,,,,,,,,,,,,,,,,,,,
1768972968.048542,1768972968.048903,33.0,0.0,4373.589844,4363.974121,4354.615234,4374.358887,4359.871582,4356.153809,4358.461426,4361.922852,4359.102539,4342.94873,4441.922852,4495.0,4375.384766,4414.102539,,,,,,,,,,,,,,,,,,,,,,,,,,,,,,,,,,,,,,,,,,,,,,,,,,,,,,,,,,,,,,,,,,,,,,
1768972968.056351,1768972968.056811,34.0,0.0,4372.307617,4365.897461,4354.871582,4376.025879,4361.410156,4359.487305,4365.384766,4359.358887,4357.179688,4343.333496,4435.128418,4490.512695,4371.794922,4411.025879,,,,,,,,,,,,,,,,,,,,,,,,,,,,,,,,,,,,,,,,,,,,,,,,,,,,,,,,,,,,,,,,,,,,,,
1768972968.064159,1768972968.06462,35.0,0.0,4373.205078,4364.102539,4347.179688,4373.461426,4360.769043,4356.282227,4358.333496,4361.410156,4356.666504,4338.974121,4428.589844,4486.922852,4368.461426,4406.025879,,,,,,,,,,,,,,,,,,,,,,,,,,,,,,,,,,,,,,,,,,,,,,,,,,,,,,,,,,,,,,,,,,,,,,
1768972968.071967,1768972968.072228,36.0,0.0,4370.128418,4363.333496,4350.0,4373.717773,4359.487305,4360.256348,4360.256348,4366.666504,4357.563965,4338.717773,4428.589844,4487.820313,4364.487305,4404.615234,,,,,,,,,,,,,,,,,,,,,,,,,,,,,,,,,,,,,,,,,,,,,,,,,,,,,,,,,,,,,,,,,,,,,,
1768972968.079776,1768972968.080037,37.0,0.0,4365.384766,4362.179688,4356.153809,4373.333496,4360.128418,4369.487305,4372.436035,4365.128418,4357.692383,4342.436035,4434.615234,4492.94873,4365.641113,4401.282227,,,,,,,,,,,,,,,,,,,,,,,,,,,,,,,,,,,,,,,,,,,,,,,,,,,,,,,,,,,,,,,,,,,,,,
1768972968.087584,1768972968.087945,38.0,0.0,4365.641113,4362.94873,4353.205078,4372.692383,4360.641113,4367.307617,4371.153809,4361.794922,4356.410156,4343.589844,4441.666504,4496.025879,4371.794922,4401.794922,,,,,,,,,,,,,,,,,,,,,,,,,,,,,,,,,,,,,,,,,,,,,,,,,,,,,,,,,,,,,,,,,,,,,,
1768972968.095393,1768972968.095754,39.0,0.0,4367.436035,4368.974121,4351.153809,4374.102539,4361.538574,4362.94873,4365.128418,4367.820313,4358.846191,4342.307617,4443.077148,4496.153809,4374.358887,4405.512695,,,,,,,,,,,,,,,,,,,,,,,,,,,,,,,,,,,,,,,,,,,,,,,,,,,,,,,,,,,,,,,,,,,,,,
1768972968.103201,1768972968.103762,40.0,0.0,4365.512695,4368.461426,4350.0,4373.974121,4360.256348,4362.820313,4366.410156,4370.769043,4362.307617,4341.666504,4439.230957,4493.717773,4372.307617,4402.179688,,,,,,,,,,,,,,,,,,,,,,,,,,,,,,,,,,,,,,,,,,,,,,,,,,,,,,,,,,,,,,,,,,,,,,
1768972968.11101,1768972968.11157,41.0,0.0,4360.769043,4361.282227,4345.0,4372.05127,4358.205078,4359.871582,4364.487305,4365.384766,4360.128418,4342.179688,4438.205078,4489.230957,4371.410156,4400.384766,,,,,,,,,,,,,,,,,,,,,,,,,,,,,,,,,,,,,,,,,,,,,,,,,,,,,,,,,,,,,,,,,,,,,,
1768972968.118818,1768972968.119279,42.0,0.0,4358.717773,4361.025879,4344.871582,4371.794922,4361.282227,4361.282227,4361.282227,4362.94873,4361.153809,4343.205078,4436.538574,4489.230957,4373.717773,4404.358887,,,,,,,,,,,,,,,,,,,,,,,,,,,,,,,,,,,,,,,,,,,,,,,,,,,,,,,,,,,,,,,,,,,,,,
1768972968.126627,1768972968.127087,43.0,0.0,4362.05127,4369.615234,4348.589844,4373.717773,4362.563965,4365.769043,4364.487305,4362.94873,4365.384766,4343.205078,4432.179688,4491.922852,4372.94873,4402.692383,,,,,,,,,,,,,,,,,,,,,,,,,,,,,,,,,,,,,,,,,,,,,,,,,,,,,,,,,,,,,,,,,,,,,,
1768972968.134435,1768972968.134696,44.0,0.0,4363.589844,4374.743652,4348.589844,4373.333496,4360.641113,4362.692383,4365.256348,4361.538574,4361.410156,4340.769043,4429.871582,4490.512695,4369.615234,4397.307617,,,,,,,,,,,,,,,,,,,,,,,,,,,,,,,,,,,,,,,,,,,,,,,,,,,,,,,,,,,,,,,,,,,,,,
1768972968.142244,1768972968.142505,45.0,0.0,4363.589844,4372.179688,4349.358887,4372.307617,4360.769043,4357.563965,4358.974121,4361.410156,4354.743652,4342.436035,4430.512695,4490.0,4373.589844,4399.358887,,,,,,,,,,,,,,,,,,,,,,,,,,,,,,,,,,,,,,,,,,,,,,,,,,,,,,,,,,,,,,,,,,,,,,
1768972968.150052,1768972968.150413,46.0,0.0,4366.025879,4372.05127,4349.615234,4372.820313,4360.769043,4362.436035,4359.487305,4363.717773,4356.794922,4346.410156,4437.179688,4495.128418,4380.512695,4404.487305,0.543112,0.263748,0.287381,0.289784,0.126034,1.893894,0.215565,0.324553,0.237758,0.100127,0.274877,0.136147,0.177364,0.139865,0.124827,0.474594,0.274799,0.23514,0.140673,0.072287,0.153418,0.160512,0.08232,0.068713,0.056046,0.317753,0.446344,0.251889,0.158317,0.14594,0.343766,0.343574,0.30297,0.158125,0.146169,0.645548,0.305644,0.172104,0.073407,0.042709,0.400578,0.347787,0.154658,0.137907,0.047519,0.210815,0.343588,0.251568,0.125413,0.079216,0.726244,0.501116,0.403218,0.208654,0.124283,0.923726,0.686113,0.24005,0.307402,0.136964,0.495098,0.595761,0.555298,0.15518,0.119929,0.642929,0.800444,0.434891,0.448088,0.11751
1768972968.15786,1768972968.158221,47.0,0.0,4365.512695,4373.333496,4344.230957,4372.692383,4359.615234,4372.179688,4370.769043,4364.615234,4363.461426,4344.615234,4443.717773,4497.179688,4378.077148,4402.820313,,,,,,,,,,,,,,,,,,,,,,,,,,,,,,,,,,,,,,,,,,,,,,,,,,,,,,,,,,,,,,,,,,,,,,
1768972968.165669,1768972968.16583,48.0,0.0,4364.102539,4371.282227,4344.102539,4374.102539,4360.897461,4373.846191,4375.384766,4364.743652,4364.102539,4340.128418,4441.538574,4493.589844,4371.666504,4398.717773,,,,,,,,,,,,,,,,,,,,,,,,,,,,,,,,,,,,,,,,,,,,,,,,,,,,,,,,,,,,,,,,,,,,,,
1768972968.173477,1768972968.173638,49.0,0.0,4370.384766,4374.487305,4354.871582,4380.256348,4361.666504,4370.0,4373.333496,4367.05127,4365.128418,4342.820313,4440.256348,4495.128418,4378.589844,4407.179688,,,,,,,,,,,,,,,,,,,,,,,,,,,,,,,,,,,,,,,,,,,,,,,,,,,,,,,,,,,,,,,,,,,,,,
1768972968.181286,1768972968.181347,50.0,0.0,4376.282227,4384.615234,4360.128418,4382.692383,4359.230957,4373.205078,4375.128418,4367.820313,4370.128418,4348.077148,4444.358887,4497.692383,4385.512695,4417.436035,,,,,,,,,,,,,,,,,,,,,,,,,,,,,,,,,,,,,,,,,,,,,,,,,,,,,,,,,,,,,,,,,,,,,,
1768972968.189094,1768972968.189155,51.0,0.0,4373.589844,4386.282227,4358.589844,4378.077148,4359.358887,4376.922852,4375.384766,4366.282227,4368.461426,4343.205078,4438.846191,4491.922852,4372.820313,4406.794922,,,,,,,,,,,,,,,,,,,,,,,,,,,,,,,,,,,,,,,,,,,,,,,,,,,,,,,,,,,,,,,,,,,,,,
1768972968.196903,1768972968.196764,52.0,0.0,4370.641113,4381.282227,4357.05127,4377.05127,4359.871582,4370.512695,4367.820313,4364.358887,4359.615234,4337.563965,4434.230957,4491.410156,4370.256348,4400.256348,,,,,,,,,,,,,,,,,,,,,,,,,,,,,,,,,,,,,,,,,,,,,,,,,,,,,,,,,,,,,,,,,,,,,,
1768972968.204711,1768972968.204572,53.0,0.0,4370.256348,4383.461426,4354.487305,4380.384766,4358.974121,4361.410156,4357.436035,4357.820313,4355.128418,4340.128418,4441.794922,4495.769043,4390.897461,4413.077148,,,,,,,,,,,,,,,,,,,,,,,,,,,,,,,,,,,,,,,,,,,,,,,,,,,,,,,,,,,,,,,,,,,,,,
1768972968.21252,1768972968.212481,54.0,0.0,4376.153809,4391.410156,4353.846191,4381.025879,4358.461426,4356.282227,4352.692383,4352.307617,4355.641113,4343.717773,4445.512695,4493.077148,4400.897461,4422.563965,,,,,,,,,,,,,,,,,,,,,,,,,,,,,,,,,,,,,,,,,,,,,,,,,,,,,,,,,,,,,,,,,,,,,,
1768972968.220328,1768972968.220289,55.0,0.0,4382.307617,4392.563965,4358.333496,4380.641113,4358.077148,4354.230957,4351.538574,4356.794922,4355.641113,4345.256348,4441.922852,4495.256348,4392.94873,4421.794922,,,,,,,,,,,,,,,,,,,,,,,,,,,,,,,,,,,,,,,,,,,,,,,,,,,,,,,,,,,,,,,,,,,,,,
1768972968.228136,1768972968.228298,56.0,0.0,4378.846191,4380.769043,4359.615234,4379.871582,4359.487305,4360.256348,4355.128418,4361.538574,4358.205078,4344.743652,4441.922852,4504.487305,4393.974121,4422.692383,,,,,,,,,,,,,,,,,,,,,,,,,,,,,,,,,,,,,,,,,,,,,,,,,,,,,,,,,,,,,,,,,,,,,,
1768972968.235945,1768972968.236106,57.0,0.0,4371.922852,4372.307617,4353.974121,4379.487305,4362.179688,4369.230957,4361.153809,4361.666504,4358.205078,4340.897461,4443.846191,4504.743652,4397.94873,4420.897461,,,,,,,,,,,,,,,,,,,,,,,,,,,,,,,,,,,,,,,,,,,,,,,,,,,,,,,,,,,,,,,,,,,,,,
1768972968.243753,1768972968.244014,58.0,0.0,4373.077148,4377.307617,4352.563965,4384.358887,4366.666504,4375.128418,4367.307617,4363.846191,4355.384766,4343.461426,4443.974121,4502.820313,4391.538574,4413.717773,,,,,,,,,,,,,,,,,,,,,,,,,,,,,,,,,,,,,,,,,,,,,,,,,,,,,,,,,,,,,,,,,,,,,,
1768972968.251562,1768972968.251823,59.0,0.0,4377.563965,4380.256348,4360.128418,4390.0,4370.897461,4377.179688,4370.512695,4365.0,4357.436035,4350.384766,4444.743652,4510.897461,4387.692383,4417.563965,,,,,,,,,,,,,,,,,,,,,,,,,,,,,,,,,,,,,,,,,,,,,,,,,,,,,,,,,,,,,,,,,,,,,,
1768972968.25937,1768972968.259831,60.0,0.0,4381.922852,4380.384766,4367.692383,4390.384766,4369.230957,4371.410156,4366.538574,4363.846191,4360.256348,4346.282227,4444.487305,4513.717773,4391.025879,4427.436035,,,,,,,,,,,,,,,,,,,,,,,,,,,,,,,,,,,,,,,,,,,,,,,,,,,,,,,,,,,,,,,,,,,,,,
1768972968.267179,1768972968.267639,61.0,0.0,4386.666504,4388.205078,4366.153809,4387.436035,4366.922852,4374.615234,4370.512695,4365.897461,4357.563965,4340.384766,4443.846191,4508.333496,4390.128418,4427.179688,,,,,,,,,,,,,,,,,,,,,,,,,,,,,,,,,,,,,,,,,,,,,,,,,,,,,,,,,,,,,,,,,,,,,,
1768972968.274987,1768972968.275348,62.0,0.0,4382.307617,4394.230957,4361.794922,4383.974121,4366.794922,4378.846191,4373.846191,4366.025879,4355.128418,4342.436035,4443.205078,4505.769043,4385.897461,4417.820313,0.637348,0.257238,0.344313,0.289052,0.14267,1.948348,0.249868,0.359607,0.225096,0.111876,0.305477,0.14807,0.241805,0.153471,0.136639,0.621489,0.300499,0.304559,0.141733,0.081761,0.140619,0.18969,0.099816,0.09109,0.053938,0.267607,0.459064,0.25881,0.139247,0.146884,0.286204,0.335105,0.282599,0.143356,0.147103,0.587074,0.3136,0.1481,0.079993,0.048939,0.431648,0.399801,0.152877,0.147732,0.047398,0.226959,0.369572,0.257307,0.111687,0.078149,0.561171,0.486693,0.408395,0.178034,0.1027,0.936189,0.809797,0.223032,0.32689,0.143432,0.475416,0.657535,0.578661,0.156312,0.123306,0.693683,0.751614,0.45174,0.456135,0.123436
1768972968.282796,1768972968.283156,63.0,0.0,4379.487305,4389.487305,4363.974121,4383.461426,4365.897461,4363.589844,4360.641113,4363.077148,4358.846191,4342.94873,4442.436035,4504.358887,4389.743652,4416.282227,,,,,,,,,,,,,,,,,,,,,,,,,,,,,,,,,,,,,,,,,,,,,,,,,,,,,,,,,,,,,,,,,,,,,,
1768972968.290604,1768972968.291165,64.0,0.0,4387.820313,4384.230957,4367.436035,4386.538574,4365.256348,4352.307617,4355.256348,4364.102539,4360.256348,4342.05127,4444.102539,4504.358887,4396.025879,4424.871582,,,,,,,,,,,,,,,,,,,,,,,,,,,,,,,,,,,,,,,,,,,,,,,,,,,,,,,,,,,,,,,,,,,,,,
1768972968.298412,1768972968.298973,65.0,0.0,4386.410156,4382.307617,4365.641113,4389.230957,4367.179688,4362.692383,4365.384766,4367.436035,4358.846191,4344.358887,4444.743652,4508.205078,4390.897461,4425.897461,,,,,,,,,,,,,,,,,,,,,,,,,,,,,,,,,,,,,,,,,,,,,,,,,,,,,,,,,,,,,,,,,,,,,,
1768972968.306221,1768972968.306682,66.0,0.0,4376.282227,4378.974121,4363.461426,4386.794922,4367.563965,4371.153809,4367.05127,4367.820313,4362.05127,4342.820313,4442.436035,4511.666504,4385.512695,4421.153809,,,,,,,,,,,,,,,,,,,,,,,,,,,,,,,,,,,,,,,,,,,,,,,,,,,,,,,,,,,,,,,,,,,,,,
1768972968.314029,1768972968.31449,67.0,0.0,4379.743652,4375.256348,4367.692383,4385.128418,4365.641113,4369.102539,4364.230957,4368.461426,4366.666504,4340.769043,4446.922852,4513.589844,4392.94873,4426.153809,,,,,,,,,,,,,,,,,,,,,,,,,,,,,,,,,,,,,,,,,,,,,,,,,,,,,,,,,,,,,,,,,,,,,,
1768972968.321838,1768972968.322099,68.0,0.0,4392.179688,4374.871582,4372.307617,4390.769043,4369.358887,4370.256348,4371.666504,4370.0,4367.179688,4345.769043,4457.436035,4518.846191,4399.615234,4435.897461,,,,,,,,,,,,,,,,,,,,,,,,,,,,,,,,,,,,,,,,,,,,,,,,,,,,,,,,,,,,,,,,,,,,,,
1768972968.329646,1768972968.329907,69.0,0.0,4391.538574,4377.563965,4371.794922,4394.102539,4372.820313,4374.358887,4376.282227,4372.307617,4365.0,4346.922852,4454.615234,4523.333496,4394.615234,4433.461426,,,,,,,,,,,,,,,,,,,,,,,,,,,,,,,,,,,,,,,,,,,,,,,,,,,,,,,,,,,,,,,,,,,,,,
1768972968.337455,1768972968.337616,70.0,0.0,4382.436035,4375.0,4367.05127,4388.077148,4368.461426,4377.94873,4375.256348,4374.487305,4368.333496,4345.128418,4443.077148,4522.563965,4391.410156,4424.487305,,,,,,,,,,,,,,,,,,,,,,,,,,,,,,,,,,,,,,,,,,,,,,,,,,,,,,,,,,,,,,,,,,,,,,
1768972968.345263,1768972968.345424,71.0,0.0,4378.846191,4364.230957,4359.615234,4382.692383,4366.922852,4377.436035,4374.102539,4374.102539,4372.692383,4349.871582,4446.666504,4520.0,4395.0,4423.717773,,,,,,,,,,,,,,,,,,,,,,,,,,,,,,,,,,,,,,,,,,,,,,,,,,,,,,,,,,,,,,,,,,,,,,
1768972968.353072,1768972968.353432,72.0,0.0,4386.153809,4361.922852,4358.205078,4388.205078,4372.820313,4381.153809,4376.666504,4375.0,4376.025879,4356.282227,4460.0,4525.641113,4400.897461,4431.922852,,,,,,,,,,,,,,,,,,,,,,,,,,,,,,,,,,,,,,,,,,,,,,,,,,,,,,,,,,,,,,,,,,,,,,
1768972968.36088,1768972968.361241,73.0,0.0,4398.461426,4372.820313,4368.589844,4396.666504,4374.871582,4388.461426,4384.743652,4377.94873,4378.077148,4358.077148,4461.538574,4538.077148,4405.641113,4439.743652,,,,,,,,,,,,,,,,,,,,,,,,,,,,,,,,,,,,,,,,,,,,,,,,,,,,,,,,,,,,,,,,,,,,,,
1768972968.368688,1768972968.369149,74.0,0.0,4399.743652,4372.563965,4375.384766,4396.538574,4370.384766,4380.769043,4382.307617,4378.077148,4374.743652,4355.897461,4456.025879,4542.820313,4405.0,4438.077148,,,,,,,,,,,,,,,,,,,,,,,,,,,,,,,,,,,,,,,,,,,,,,,,,,,,,,,,,,,,,,,,,,,,,,
1768972968.376497,1768972968.376958,75.0,0.0,4390.128418,4359.230957,4368.077148,4390.0,4367.307617,4366.794922,4364.358887,4373.717773,4369.871582,4355.0,4456.153809,4544.871582,4400.769043,4431.410156,,,,,,,,,,,,,,,,,,,,,,,,,,,,,,,,,,,,,,,,,,,,,,,,,,,,,,,,,,,,,,,,,,,,,,
1768972968.384305,1768972968.384566,76.0,0.0,4386.153809,4360.641113,4361.666504,4385.897461,4365.769043,4360.641113,4352.179688,4367.563965,4368.589844,4355.512695,4459.230957,4550.512695,4401.025879,4430.256348,,,,,,,,,,,,,,,,,,,,,,,,,,,,,,,,,,,,,,,,,,,,,,,,,,,,,,,,,,,,,,,,,,,,,,
1768972968.392114,1768972968.392375,77.0,0.0,4386.666504,4367.563965,4361.282227,4386.282227,4366.282227,4365.128418,4359.358887,4366.538574,4366.666504,4351.922852,4455.897461,4548.077148,4402.94873,4432.692383,,,,,,,,,,,,,,,,,,,,,,,,,,,,,,,,,,,,,,,,,,,,,,,,,,,,,,,,,,,,,,,,,,,,,,
1768972968.399922,1768972968.400083,78.0,0.0,4383.205078,4361.153809,4361.794922,4387.692383,4369.102539,4372.179688,4368.846191,4367.820313,4364.615234,4347.179688,4447.563965,4538.205078,4397.179688,4428.333496,0.80102,0.263015,0.420372,0.286066,0.155502,1.985565,0.288945,0.424009,0.226584,0.124281,0.369492,0.161084,0.32094,0.168494,0.140545,0.789646,0.318533,0.381893,0.145564,0.090674,0.138627,0.211653,0.119044,0.112134,0.051649,0.224086,0.443359,0.25957,0.121617,0.157818,0.240505,0.318255,0.260068,0.130775,0.1576,0.513085,0.317528,0.125689,0.091976,0.055668,0.450028,0.487897,0.150178,0.155264,0.050698,0.248812,0.388483,0.241213,0.097641,0.075889,0.430587,0.493352,0.382066,0.153234,0.0863,0.934469,0.920147,0.198821,0.336588,0.152306,0.470719,0.704659,0.534281,0.16018,0.129391,0.818573,0.728849,0.429064,0.453382,0.133102
1768972968.407731,1768972968.407892,79.0,0.0,4386.282227,4357.179688,4365.512695,4390.0,4368.333496,4370.384766,4366.538574,4366.025879,4364.743652,4346.025879,4443.333496,4534.871582,4392.436035,4427.307617,,,,,,,,,,,,,,,,,,,,,,,,,,,,,,,,,,,,,,,,,,,,,,,,,,,,,,,,,,,,,,,,,,,,,,
1768972968.415539,1768972968.4159,80.0,0.0,4398.589844,4361.282227,4369.743652,4391.282227,4367.692383,4367.179688,4363.846191,4365.384766,4360.641113,4343.974121,4446.282227,4544.230957,4395.0,4438.077148,,,,,,,,,,,,,,,,,,,,,,,,,,,,,,,,,,,,,,,,,,,,,,,,,,,,,,,,,,,,,,,,,,,,,,
1768972968.423348,1768972968.423708,81.0,0.0,4398.205078,4360.0,4366.538574,4388.461426,4368.974121,4374.230957,4369.358887,4368.846191,4359.615234,4343.461426,4451.666504,4549.358887,4396.538574,4442.563965,,,,,,,,,,,,,,,,,,,,,,,,,,,,,,,,,,,,,,,,,,,,,,,,,,,,,,,,,,,,,,,,,,,,,,
1768972968.431156,1768972968.431617,82.0,0.0,4386.922852,4355.512695,4363.717773,4386.922852,4368.461426,4379.487305,4376.922852,4373.205078,4367.692383,4346.922852,4457.436035,4544.102539,4395.769043,4435.128418,,,,,,,,,,,,,,,,,,,,,,,,,,,,,,,,,,,,,,,,,,,,,,,,,,,,,,,,,,,,,,,,,,,,,,
1768972968.438964,1768972968.439425,83.0,0.0,4391.025879,4355.897461,4369.743652,4388.077148,4370.769043,4378.974121,4380.0,4376.025879,4368.717773,4348.846191,4458.846191,4542.307617,4397.94873,4436.025879,,,,,,,,,,,,,,,,,,,,,,,,,,,,,,,,,,,,,,,,,,,,,,,,,,,,,,,,,,,,,,,,,,,,,,
1768972968.446773,1768972968.447434,84.0,0.0,4401.794922,4357.563965,4375.256348,4389.487305,4372.692383,4379.358887,4375.769043,4375.0,4365.256348,4346.153809,4453.333496,4545.641113,4396.153809,4445.384766,,,,,,,,,,,,,,,,,,,,,,,,,,,,,,,,,,,,,,,,,,,,,,,,,,,,,,,,,,,,,,,,,,,,,,
1768972968.454581,1768972968.455242,85.0,0.0,4394.743652,4356.794922,4372.307617,4389.487305,4368.589844,4370.769043,4363.974121,4369.615234,4367.179688,4345.0,4447.436035,4543.717773,4389.743652,4440.512695,,,,,,,,,,,,,,,,,,,,,,,,,,,,,,,,,,,,,,,,,,,,,,,,,,,,,,,,,,,,,,,,,,,,,,
1768972968.46239,1768972968.46315,86.0,0.0,4382.179688,4355.256348,4364.230957,4387.94873,4365.384766,4363.205078,4360.256348,4369.230957,4367.820313,4350.256348,4449.230957,4537.820313,4391.666504,4430.897461,,,,,,,,,,,,,,,,,,,,,,,,,,,,,,,,,,,,,,,,,,,,,,,,,,,,,,,,,,,,,,,,,,,,,,
1768972968.470198,1768972968.470959,87.0,0.0,4381.666504,4352.820313,4359.102539,4383.589844,4366.410156,4365.512695,4363.333496,4370.0,4365.256348,4352.820313,4452.307617,4533.333496,4398.205078,4433.461426,,,,,,,,,,,,,,,,,,,,,,,,,,,,,,,,,,,,,,,,,,,,,,,,,,,,,,,,,,,,,,,,,,,,,,
1768972968.478007,1768972968.478867,88.0,0.0,4389.102539,4353.717773,4361.282227,4382.820313,4365.0,4359.615234,4359.615234,4364.358887,4365.641113,4347.94873,4450.641113,4533.077148,4397.436035,4440.897461,,,,,,,,,,,,,,,,,,,,,,,,,,,,,,,,,,,,,,,,,,,,,,,,,,,,,,,,,,,,,,,,,,,,,,
1768972968.485815,1768972968.486676,89.0,0.0,4395.769043,4362.05127,4364.615234,4389.102539,4365.512695,4354.615234,4358.333496,4362.94873,4363.717773,4346.794922,4449.487305,4537.94873,4395.384766,4445.0,,,,,,,,,,,,,,,,,,,,,,,,,,,,,,,,,,,,,,,,,,,,,,,,,,,,,,,,,,,,,,,,,,,,,,
1768972968.493624,1768972968.494384,90.0,0.0,4395.897461,4366.410156,4365.769043,4391.666504,4372.179688,4363.846191,4364.102539,4368.461426,4359.871582,4351.794922,4450.256348,4539.615234,4399.102539,4439.358887,,,,,,,,,,,,,,,,,,,,,,,,,,,,,,,,,,,,,,,,,,,,,,,,,,,,,,,,,,,,,,,,,,,,,,
1768972968.501432,1768972968.502193,91.0,0.0,4388.461426,4360.256348,4363.974121,4387.563965,4371.794922,4369.358887,4366.153809,4371.666504,4361.794922,4350.384766,4448.589844,4532.692383,4398.717773,4429.615234,,,,,,,,,,,,,,,,,,,,,,,,,,,,,,,,,,,,,,,,,,,,,,,,,,,,,,,,,,,,,,,,,,,,,,
1768972968.509241,1768972968.510201,92.0,0.0,4385.641113,4356.025879,4362.692383,4383.717773,4366.282227,4369.743652,4368.717773,4371.538574,4364.743652,4345.897461,4450.0,4530.0,4394.487305,4433.589844,,,,,,,,,,,,,,,,,,,,,,,,,,,,,,,,,,,,,,,,,,,,,,,,,,,,,,,,,,,,,,,,,,,,,,
1768972968.517049,1768972968.518009,93.0,0.0,4389.358887,4355.0,4365.641113,4382.820313,4367.179688,4373.077148,4375.0,4370.897461,4366.794922,4350.897461,4460.897461,4536.538574,4403.077148,4446.153809,,,,,,,,,,,,,,,,,,,,,,,,,,,,,,,,,,,,,,,,,,,,,,,,,,,,,,,,,,,,,,,,,,,,,,
1768972968.524857,1768972968.525718,94.0,0.0,4389.871582,4357.94873,4364.487305,4384.743652,4371.538574,4373.461426,4373.333496,4370.897461,4369.230957,4353.974121,4460.384766,4533.205078,4408.461426,4438.589844,1.008253,0.267019,0.500903,0.276905,0.162895,2.030447,0.315488,0.494254,0.243221,0.134171,0.448826,0.173846,0.397108,0.179485,0.136691,0.919207,0.317427,0.451025,0.15048,0.096559,0.142083,0.220159,0.134136,0.125213,0.048129,0.20407,0.417814,0.27286,0.111306,0.17624,0.229229,0.311416,0.254556,0.122772,0.173151,0.436949,0.309093,0.113868,0.103384,0.061383,0.461026,0.58837,0.151595,0.156792,0.056324,0.273091,0.394317,0.204213,0.083755,0.072937,0.365056,0.517835,0.338555,0.136501,0.078737,0.928498,0.978714,0.172713,0.336304,0.160052,0.475131,0.737584,0.440844,0.165887,0.137036,0.999847,0.71566,0.371104,0.432632,0.146023
1768972968.532666,1768972968.533526,95.0,0.0,4387.692383,4369.615234,4358.717773,4388.974121,4374.358887,4371.666504,4367.563965,4371.153809,4366.153809,4351.153809,4447.05127,4518.974121,4396.922852,4423.846191,,,,,,,,,,,,,,,,,,,,,,,,,,,,,,,,,,,,,,,,,,,,,,,,,,,,,,,,,,,,,,,,,,,,,,
1768972968.540474,1768972968.541135,96.0,0.0,4389.358887,4376.538574,4359.871582,4393.205078,4376.666504,4374.358887,4370.0,4369.615234,4362.436035,4352.179688,4449.230957,4520.0,4397.94873,4434.487305,,,,,,,,,,,,,,,,,,,,,,,,,,,,,,,,,,,,,,,,,,,,,,,,,,,,,,,,,,,,,,,,,,,,,,
1768972968.548283,1768972968.548943,97.0,0.0,4395.384766,4373.974121,4370.256348,4396.666504,4379.743652,4373.205078,4372.820313,4366.794922,4363.461426,4356.025879,4462.436035,4534.230957,4413.077148,4450.512695,,,,,,,,,,,,,,,,,,,,,,,,,,,,,,,,,,,,,,,,,,,,,,,,,,,,,,,,,,,,,,,,,,,,,,
1768972968.556091,1768972968.556852,98.0,0.0,4400.512695,4372.307617,4373.205078,4399.102539,4381.153809,4366.794922,4366.153809,4363.974121,4361.282227,4353.846191,4461.410156,4532.05127,4410.128418,4447.436035,,,,,,,,,,,,,,,,,,,,,,,,,,,,,,,,,,,,,,,,,,,,,,,,,,,,,,,,,,,,,,,,,,,,,,
1768972968.5639,1768972968.56466,99.0,0.0,4396.410156,4369.230957,4366.025879,4397.179688,4378.974121,4368.974121,4362.179688,4362.436035,4356.666504,4348.846191,4450.128418,4519.230957,4400.0,4436.538574,,,,,,,,,,,,,,,,,,,,,,,,,,,,,,,,,,,,,,,,,,,,,,,,,,,,,,,,,,,,,,,,,,,,,,
1768972968.571708,1768972968.572668,100.0,0.0,4384.487305,4358.717773,4357.94873,4390.0,4372.94873,4374.358887,4367.820313,4365.128418,4357.820313,4347.692383,4444.743652,4519.358887,4397.820313,4430.897461,,,,,,,,,,,,,,,,,,,,,,,,,,,,,,,,,,,,,,,,,,,,,,,,,,,,,,,,,,,,,,,,,,,,,,
1768972968.579517,1768972968.580477,101.0,0.0,4377.05127,4348.717773,4351.025879,4381.538574,4367.692383,4371.153809,4369.230957,4367.692383,4359.871582,4344.230957,4440.512695,4518.461426,4390.256348,4425.384766,,,,,,,,,,,,,,,,,,,,,,,,,,,,,,,,,,,,,,,,,,,,,,,,,,,,,,,,,,,,,,,,,,,,,,
1768972968.587325,1768972968.588185,102.0,0.0,4382.179688,4351.282227,4351.666504,4380.0,4364.871582,4362.307617,4363.205078,4366.538574,4359.871582,4342.692383,4441.025879,4514.487305,4386.922852,4427.692383,,,,,,,,,,,,,,,,,,,,,,,,,,,,,,,,,,,,,,,,,,,,,,,,,,,,,,,,,,,,,,,,,,,,,,
1768972968.595133,1768972968.595994,103.0,0.0,4390.256348,4359.871582,4361.794922,4388.589844,4366.538574,4362.05127,4364.102539,4371.922852,4365.641113,4349.871582,4451.538574,4524.230957,4396.794922,4439.487305,,,,,,,,,,,,,,,,,,,,,,,,,,,,,,,,,,,,,,,,,,,,,,,,,,,,,,,,,,,,,,,,,,,,,,
1768972968.602942,1768972968.603602,104.0,0.0,4388.205078,4359.743652,4364.102539,4393.846191,4372.307617,4370.384766,4372.179688,4380.0,4372.05127,4356.282227,4455.0,4529.871582,4402.307617,4441.153809,,,,,,,,,,,,,,,,,,,,,,,,,,,,,,,,,,,,,,,,,,,,,,,,,,,,,,,,,,,,,,,,,,,,,,
1768972968.61075,1768972968.611411,105.0,0.0,4381.153809,4354.358887,4354.102539,4387.563965,4368.077148,4367.436035,4370.256348,4377.307617,4369.230957,4354.487305,4453.461426,4522.05127,4398.461426,4436.025879,,,,,,,,,,,,,,,,,,,,,,,,,,,,,,,,,,,,,,,,,,,,,,,,,,,,,,,,,,,,,,,,,,,,,,
1768972968.618559,1768972968.619319,106.0,0.0,4381.025879,4356.538574,4353.717773,4383.205078,4362.179688,4358.333496,4363.974121,4374.230957,4365.512695,4352.94873,4454.615234,4522.692383,4396.025879,4441.025879,,,,,,,,,,,,,,,,,,,,,,,,,,,,,,,,,,,,,,,,,,,,,,,,,,,,,,,,,,,,,,,,,,,,,,
1768972968.626367,1768972968.627128,107.0,0.0,4385.512695,4358.333496,4363.461426,4387.820313,4367.692383,4361.025879,4368.205078,4376.153809,4366.153809,4355.0,4452.820313,4529.102539,4398.589844,4447.820313,,,,,,,,,,,,,,,,,,,,,,,,,,,,,,,,,,,,,,,,,,,,,,,,,,,,,,,,,,,,,,,,,,,,,,
1768972968.634176,1768972968.635136,108.0,0.0,4381.282227,4352.05127,4360.256348,4387.820313,4371.153809,4369.358887,4375.128418,4375.641113,4362.307617,4349.230957,4444.871582,4522.436035,4394.743652,4437.436035,,,,,,,,,,,,,,,,,,,,,,,,,,,,,,,,,,,,,,,,,,,,,,,,,,,,,,,,,,,,,,,,,,,,,,
1768972968.641984,1768972968.642944,109.0,0.0,4371.282227,4348.974121,4347.820313,4379.871582,4369.743652,4374.358887,4379.487305,4377.179688,4361.025879,4344.102539,4442.05127,4513.846191,4388.461426,4424.487305,,,,,,,,,,,,,,,,,,,,,,,,,,,,,,,,,,,,,,,,,,,,,,,,,,,,,,,,,,,,,,,,,,,,,,
1768972968.649793,1768972968.650853,110.0,0.0,4371.025879,4354.358887,4346.410156,4379.102539,4371.153809,4378.077148,4382.563965,4381.922852,4366.410156,4348.589844,4445.384766,4518.461426,4391.282227,4424.871582,1.203136,0.257182,0.560703,0.261078,0.166205,2.067135,0.320314,0.544616,0.268324,0.13959,0.517503,0.18537,0.4469,0.185098,0.128056,0.962772,0.293124,0.493934,0.153956,0.098066,0.151488,0.213451,0.139915,0.126068,0.043384,0.214,0.425463,0.316845,0.112936,0.196999,0.261773,0.352348,0.28682,0.121059,0.18875,0.373341,0.290115,0.119088,0.109112,0.064638,0.484034,0.667252,0.161649,0.150811,0.062491,0.301324,0.388541,0.154837,0.07033,0.070358,0.363474,0.549748,0.300778,0.126786,0.0803,0.937786,0.96523,0.153127,0.325747,0.162664,0.497004,0.757088,0.334533,0.170779,0.146716,1.198183,0.701523,0.294365,0.392328,0.161392
1768972968.657601,1768972968.658661,111.0,0.0,4375.512695,4358.077148,4350.384766,4384.230957,4371.025879,4373.589844,4375.512695,4376.922852,4363.974121,4348.333496,4444.615234,4523.846191,4394.230957,4428.461426,,,,,,,,,,,,,,,,,,,,,,,,,,,,,,,,,,,,,,,,,,,,,,,,,,,,,,,,,,,,,,,,,,,,,,
1768972968.665409,1768972968.66647,112.0,0.0,4378.333496,4356.666504,4351.794922,4383.589844,4364.615234,4365.128418,4369.102539,4366.666504,4357.179688,4340.128418,4442.436035,4522.179688,4387.307617,4429.743652,,,,,,,,,,,,,,,,,,,,,,,,,,,,,,,,,,,,,,,,,,,,,,,,,,,,,,,,,,,,,,,,,,,,,,
1768972968.673218,1768972968.674278,113.0,0.0,4377.820313,4357.436035,4354.358887,4380.897461,4360.769043,4365.769043,4371.666504,4368.461426,4358.717773,4340.897461,4442.94873,4522.307617,4384.230957,4425.769043,,,,,,,,,,,,,,,,,,,,,,,,,,,,,,,,,,,,,,,,,,,,,,,,,,,,,,,,,,,,,,,,,,,,,,
1768972968.681026,1768972968.681987,114.0,0.0,4375.641113,4358.974121,4353.717773,4380.256348,4362.05127,4364.230957,4366.922852,4374.487305,4359.871582,4346.666504,4445.384766,4522.179688,4388.974121,4422.94873,,,,,,,,,,,,,,,,,,,,,,,,,,,,,,,,,,,,,,,,,,,,,,,,,,,,,,,,,,,,,,,,,,,,,,
1768972968.688835,1768972968.689795,115.0,0.0,4374.487305,4357.692383,4350.641113,4380.769043,4363.589844,4363.077148,4366.410156,4374.102539,4358.333496,4344.230957,4443.205078,4517.563965,4388.205078,4424.102539,,,,,,,,,,,,,,,,,,,,,,,,,,,,,,,,,,,,,,,,,,,,,,,,,,,,,,,,,,,,,,,,,,,,,,
1768972968.696643,1768972968.697803,116.0,0.0,4377.05127,4357.179688,4353.589844,4381.282227,4363.846191,4367.692383,4375.769043,4372.436035,4358.717773,4345.256348,4442.179688,4516.025879,4387.94873,4425.0,,,,,,,,,,,,,,,,,,,,,,,,,,,,,,,,,,,,,,,,,,,,,,,,,,,,,,,,,,,,,,,,,,,,,,
1768972968.704452,1768972968.705612,117.0,0.0,4382.563965,4356.794922,4360.0,4381.922852,4363.333496,4365.256348,4372.307617,4372.05127,4352.307617,4353.717773,4447.179688,4520.512695,4394.358887,4433.589844,,,,,,,,,,,,,,,,,,,,,,,,,,,,,,,,,,,,,,,,,,,,,,,,,,,,,,,,,,,,,,,,,,,,,,
1768972968.71226,1768972968.71332,118.0,0.0,4386.538574,4356.025879,4360.512695,4382.05127,4362.563965,4356.153809,4360.512695,4369.871582,4343.205078,4351.922852,4447.05127,4522.94873,4395.0,4441.666504,,,,,,,,,,,,,,,,,,,,,,,,,,,,,,,,,,,,,,,,,,,,,,,,,,,,,,,,,,,,,,,,,,,,,,
1768972968.720069,1768972968.721129,119.0,0.0,4387.820313,4358.205078,4357.179688,4380.897461,4361.153809,4355.769043,4362.05127,4367.179688,4344.743652,4344.358887,4442.692383,4520.128418,4387.307617,4435.641113,,,,,,,,,,,,,,,,,,,,,,,,,,,,,,,,,,,,,,,,,,,,,,,,,,,,,,,,,,,,,,,,,,,,,,
1768972968.727877,1768972968.728737,120.0,0.0,4383.077148,4356.282227,4356.410156,4380.897461,4365.641113,4367.307617,4373.461426,4369.743652,4349.358887,4345.769043,4442.179688,4519.102539,4384.487305,4425.769043,,,,,,,,,,,,,,,,,,,,,,,,,,,,,,,,,,,,,,,,,,,,,,,,,,,,,,,,,,,,,,,,,,,,,,
1768972968.735685,1768972968.736546,121.0,0.0,4381.282227,4350.769043,4356.153809,4383.461426,4372.692383,4375.897461,4379.102539,4372.307617,4348.589844,4348.461426,4444.230957,4520.769043,4389.102539,4427.820313,,,,,,,,,,,,,,,,,,,,,,,,,,,,,,,,,,,,,,,,,,,,,,,,,,,,,,,,,,,,,,,,,,,,,,
1768972968.743494,1768972968.744254,122.0,0.0,4385.128418,4352.05127,4353.589844,4383.846191,4372.692383,4375.897461,4378.077148,4370.0,4348.077148,4344.615234,4443.717773,4520.769043,4389.102539,4430.0,,,,,,,,,,,,,,,,,,,,,,,,,,,,,,,,,,,,,,,,,,,,,,,,,,,,,,,,,,,,,,,,,,,,,,
1768972968.751302,1768972968.752063,123.0,0.0,4382.563965,4352.179688,4352.05127,4378.717773,4369.871582,4371.282227,4375.897461,4367.820313,4350.0,4342.563965,4442.179688,4520.256348,4387.692383,4429.102539,,,,,,,,,,,,,,,,,,,,,,,,,,,,,,,,,,,,,,,,,,,,,,,,,,,,,,,,,,,,,,,,,,,,,,
1768972968.759111,1768972968.760071,124.0,0.0,4379.102539,4350.0,4353.077148,4377.563965,4369.230957,4367.94873,4376.410156,4367.179688,4350.128418,4344.102539,4442.563965,4520.384766,4391.410156,4435.384766,,,,,,,,,,,,,,,,,,,,,,,,,,,,,,,,,,,,,,,,,,,,,,,,,,,,,,,,,,,,,,,,,,,,,,
1768972968.766919,1768972968.76788,125.0,0.0,4381.025879,4351.410156,4353.717773,4379.487305,4370.128418,4367.563965,4374.615234,4367.436035,4352.94873,4348.461426,4445.769043,4521.025879,4395.256348,4438.077148,,,,,,,,,,,,,,,,,,,,,,,,,,,,,,,,,,,,,,,,,,,,,,,,,,,,,,,,,,,,,,,,,,,,,,
1768972968.774728,1768972968.775788,126.0,0.0,4380.769043,4351.538574,4352.05127,4376.794922,4369.230957,4371.153809,4376.025879,4368.717773,4357.94873,4351.410156,4448.461426,4520.897461,4394.871582,4433.589844,1.323643,0.234801,0.580889,0.243137,0.169696,2.03772,0.312934,0.563824,0.292066,0.141089,0.550798,0.196395,0.452863,0.189269,0.119628,0.906631,0.254621,0.499459,0.155257,0.09554,0.165143,0.19711,0.134527,0.11528,0.038604,0.247675,0.510265,0.399719,0.126705,0.214354,0.326554,0.475856,0.367368,0.125669,0.201621,0.323923,0.271366,0.141963,0.106847,0.064663,0.526639,0.697222,0.182516,0.138983,0.067195,0.330705,0.377916,0.107365,0.058134,0.069161,0.395919,0.573849,0.287646,0.123803,0.089121,0.964406,0.881274,0.149494,0.307257,0.15886,0.534916,0.75946,0.255068,0.172863,0.159213,1.346442,0.677519,0.223054,0.339994,0.179424
1768972968.782536,1768972968.783596,127.0,0.0,4376.666504,4353.205078,4351.025879,4372.436035,4365.512695,4376.922852,4378.974121,4368.974121,4357.692383,4348.717773,4449.487305,4520.128418,4393.333496,4429.487305,,,,,,,,,,,,,,,,,,,,,,,,,,,,,,,,,,,,,,,,,,,,,,,,,,,,,,,,,,,,,,,,,,,,,,
1768972968.790345,1768972968.791205,0.0,0.0,4377.563965,4361.538574,4352.692383,4371.922852,4364.871582,4373.974121,4372.05127,4366.666504,4354.871582,4348.589844,4451.410156,4520.769043,4393.974121,4430.384766,,,,,,,,,,,,,,,,,,,,,,,,,,,,,,,,,,,,,,,,,,,,,,,,,,,,,,,,,,,,,,,,,,,,,,
1768972968.798153,1768972968.799013,1.0,0.0,4382.692383,4369.230957,4353.077148,4375.128418,4368.974121,4366.538574,4367.820313,4365.384766,4354.358887,4352.563965,4452.563965,4523.077148,4395.128418,4431.282227,,,,,,,,,,,,,,,,,,,,,,,,,,,,,,,,,,,,,,,,,,,,,,,,,,,,,,,,,,,,,,,,,,,,,,
1768972968.805961,1768972968.806722,2.0,0.0,4382.436035,4367.05127,4350.512695,4379.230957,4370.512695,4370.641113,4373.205078,4365.384766,4356.666504,4352.179688,4450.384766,4519.871582,4397.05127,4429.871582,,,,,,,,,,,,,,,,,,,,,,,,,,,,,,,,,,,,,,,,,,,,,,,,,,,,,,,,,,,,,,,,,,,,,,
1768972968.81377,1768972968.81453,3.0,0.0,4378.717773,4365.641113,4348.717773,4380.641113,4367.563965,4381.794922,4380.641113,4366.922852,4357.563965,4350.384766,4448.717773,4513.589844,4400.0,4429.487305,,,,,,,,,,,,,,,,,,,,,,,,,,,,,,,,,,,,,,,,,,,,,,,,,,,,,,,,,,,,,,,,,,,,,,
1768972968.821578,1768972968.822539,4.0,0.0,4378.974121,4371.410156,4347.563965,4381.025879,4367.307617,4381.410156,4383.077148,4368.333496,4355.0,4350.641113,4447.05127,4515.0,4399.102539,4429.102539,,,,,,,,,,,,,,,,,,,,,,,,,,,,,,,,,,,,,,,,,,,,,,,,,,,,,,,,,,,,,,,,,,,,,,
1768972968.829387,1768972968.830347,5.0,0.0,4381.538574,4374.102539,4348.846191,4381.922852,4372.94873,4375.128418,4378.333496,4367.436035,4353.077148,4348.974121,4446.025879,4522.692383,4397.436035,4433.461426,,,,,,,,,,,,,,,,,,,,,,,,,,,,,,,,,,,,,,,,,,,,,,,,,,,,,,,,,,,,,,,,,,,,,,
1768972968.837195,1768972968.838255,6.0,0.0,4381.282227,4373.717773,4353.717773,4382.692383,4375.128418,4379.358887,4378.205078,4368.205078,4355.512695,4348.333496,4453.077148,4527.820313,4401.922852,4442.94873,,,,,,,,,,,,,,,,,,,,,,,,,,,,,,,,,,,,,,,,,,,,,,,,,,,,,,,,,,,,,,,,,,,,,,
1768972968.845004,1768972968.846064,7.0,0.0,4382.05127,4376.794922,4355.0,4386.025879,4372.94873,4382.436035,4380.769043,4366.538574,4356.153809,4351.025879,4458.974121,4523.589844,4405.512695,4447.307617,,,,,,,,,,,,,,,,,,,,,,,,,,,,,,,,,,,,,,,,,,,,,,,,,,,,,,,,,,,,,,,,,,,,,,
1768972968.852812,1768972968.854072,8.0,0.0,4384.358887,4378.077148,4353.077148,4389.358887,4374.358887,4367.94873,4370.641113,4360.256348,4352.436035,4350.256348,4450.128418,4517.05127,4401.153809,4442.05127,,,,,,,,,,,,,,,,,,,,,,,,,,,,,,,,,,,,,,,,,,,,,,,,,,,,,,,,,,,,,,,,,,,,,,
1768972968.860621,1768972968.861881,9.0,0.0,4383.077148,4375.897461,4355.256348,4390.512695,4374.358887,4358.205078,4359.358887,4362.179688,4354.358887,4347.436035,4446.025879,4521.282227,4396.538574,4439.487305,,,,,,,,,,,,,,,,,,,,,,,,,,,,,,,,,,,,,,,,,,,,,,,,,,,,,,,,,,,,,,,,,,,,,,
1768972968.868429,1768972968.869589,10.0,0.0,4386.282227,4378.077148,4358.461426,4392.563965,4372.820313,4370.897461,4369.743652,4371.922852,4360.512695,4349.487305,4458.077148,4530.897461,4397.94873,4445.128418,,,,,,,,,,,,,,,,,,,,,,,,,,,,,,,,,,,,,,,,,,,,,,,,,,,,,,,,,,,,,,,,,,,,,,
1768972968.876238,1768972968.877398,11.0,0.0,4390.512695,4382.436035,4359.743652,4392.307617,4374.487305,4378.974121,4377.820313,4372.179688,4360.0,4353.077148,4459.615234,4534.358887,4400.0,4445.897461,,,,,,,,,,,,,,,,,,,,,,,,,,,,,,,,,,,,,,,,,,,,,,,,,,,,,,,,,,,,,,,,,,,,,,
1768972968.884046,1768972968.885006,12.0,0.0,4383.589844,4380.641113,4357.05127,4387.94873,4372.692383,4368.205078,4365.128418,4363.974121,4356.922852,4348.717773,4445.512695,4530.512695,4398.461426,4438.077148,,,,,,,,,,,,,,,,,,,,,,,,,,,,,,,,,,,,,,,,,,,,,,,,,,,,,,,,,,,,,,,,,,,,,,
1768972968.891854,1768972968.892815,13.0,0.0,4380.769043,4374.743652,4354.230957,4387.307617,4367.692383,4364.102539,4361.025879,4362.307617,4358.333496,4341.922852,4441.025879,4532.179688,4396.025879,4435.897461,,,,,,,,,,,,,,,,,,,,,,,,,,,,,,,,,,,,,,,,,,,,,,,,,,,,,,,,,,,,,,,,,,,,,,
1768972968.899663,1768972968.900523,14.0,0.0,4387.94873,4373.846191,4356.666504,4389.743652,4366.666504,4372.307617,4371.282227,4366.153809,4358.846191,4345.128418,4448.461426,4539.615234,4396.025879,4443.461426,1.329033,0.207386,0.557536,0.231686,0.17798,1.895615,0.309111,0.560855,0.308137,0.14082,0.541091,0.207961,0.413842,0.198068,0.116373,0.769732,0.216447,0.469623,0.156621,0.090869,0.185856,0.183702,0.120307,0.098495,0.035259,0.287987,0.689806,0.516423,0.149901,0.223921,0.397943,0.688885,0.490213,0.135574,0.210754,0.294034,0.269141,0.176574,0.097439,0.061716,0.599946,0.669864,0.212879,0.124798,0.068782,0.364073,0.37197,0.07653,0.049073,0.06975,0.432624,0.577121,0.303533,0.130665,0.102873,1.006837,0.750913,0.165495,0.285655,0.151144,0.588215,0.737114,0.227093,0.172902,0.174083,1.392244,0.638498,0.180711,0.291398,0.202006
1768972968.907471,1768972968.908332,15.0,0.0,4390.641113,4386.922852,4360.0,4390.256348,4370.256348,4373.974121,4373.717773,4366.794922,4359.358887,4351.666504,4452.307617,4542.179688,4398.717773,4447.692383,,,,,,,,,,,,,,,,,,,,,,,,,,,,,,,,,,,,,,,,,,,,,,,,,,,,,,,,,,,,,,,,,,,,,,
1768972968.91528,1768972968.91594,16.0,0.0,4386.794922,4396.282227,4357.307617,4390.769043,4373.205078,4373.333496,4373.589844,4367.820313,4365.384766,4350.769043,4448.846191,4541.922852,4399.102539,4444.102539,,,,,,,,,,,,,,,,,,,,,,,,,,,,,,,,,,,,,,,,,,,,,,,,,,,,,,,,,,,,,,,,,,,,,,
1768972968.923088,1768972968.923749,17.0,0.0,4384.871582,4391.410156,4352.563965,4390.0,4373.974121,4379.102539,4381.922852,4370.128418,4367.05127,4345.897461,4447.94873,4539.487305,4396.538574,4442.692383,,,,,,,,,,,,,,,,,,,,,,,,,,,,,,,,,,,,,,,,,,,,,,,,,,,,,,,,,,,,,,,,,,,,,,
1768972968.930897,1768972968.931457,18.0,0.0,4384.487305,4393.205078,4352.94873,4388.333496,4373.589844,4382.94873,4386.922852,4368.461426,4361.538574,4343.461426,4450.256348,4533.974121,4396.410156,4442.692383,,,,,,,,,,,,,,,,,,,,,,,,,,,,,,,,,,,,,,,,,,,,,,,,,,,,,,,,,,,,,,,,,,,,,,
1768972968.938705,1768972968.939266,19.0,0.0,4383.333496,4399.743652,4352.692383,4389.871582,4375.256348,4375.512695,4379.871582,4365.769043,4362.94873,4344.102539,4447.94873,4529.871582,4396.153809,4435.0,,,,,,,,,,,,,,,,,,,,,,,,,,,,,,,,,,,,,,,,,,,,,,,,,,,,,,,,,,,,,,,,,,,,,,
1768972968.946514,1768972968.947274,20.0,0.0,4380.384766,4396.153809,4349.102539,4387.94873,4373.589844,4365.0,4371.666504,4363.461426,4365.512695,4345.769043,4443.077148,4525.0,4393.333496,4428.974121,,,,,,,,,,,,,,,,,,,,,,,,,,,,,,,,,,,,,,,,,,,,,,,,,,,,,,,,,,,,,,,,,,,,,,
1768972968.954322,1768972968.955082,21.0,0.0,4379.358887,4391.025879,4349.871582,4381.922852,4367.94873,4364.102539,4367.94873,4362.94873,4363.333496,4345.0,4444.358887,4524.487305,4392.94873,4435.384766,,,,,,,,,,,,,,,,,,,,,,,,,,,,,,,,,,,,,,,,,,,,,,,,,,,,,,,,,,,,,,,,,,,,,,
1768972968.96213,1768972968.962991,22.0,0.0,4382.820313,4389.487305,4352.307617,4383.974121,4368.589844,4366.538574,4366.538574,4363.717773,4363.333496,4343.589844,4448.846191,4527.307617,4396.666504,4444.615234,,,,,,,,,,,,,,,,,,,,,,,,,,,,,,,,,,,,,,,,,,,,,,,,,,,,,,,,,,,,,,,,,,,,,,
1768972968.969939,1768972968.970799,23.0,0.0,4385.769043,4388.589844,4351.282227,4388.589844,4369.871582,4362.436035,4366.025879,4360.128418,4364.358887,4344.102539,4448.333496,4522.94873,4398.461426,4442.820313,,,,,,,,,,,,,,,,,,,,,,,,,,,,,,,,,,,,,,,,,,,,,,,,,,,,,,,,,,,,,,,,,,,,,,
1768972968.977747,1768972968.978807,24.0,0.0,4385.512695,4393.589844,4349.102539,4384.230957,4365.384766,4359.743652,4369.358887,4358.333496,4362.307617,4342.820313,4446.153809,4517.05127,4395.769043,4437.563965,,,,,,,,,,,,,,,,,,,,,,,,,,,,,,,,,,,,,,,,,,,,,,,,,,,,,,,,,,,,,,,,,,,,,,
1768972968.985556,1768972968.986616,25.0,0.0,4382.307617,4394.102539,4350.512695,4379.102539,4363.974121,4365.641113,4373.846191,4366.025879,4360.641113,4341.410156,4445.769043,4519.487305,4393.974121,4435.256348,,,,,,,,,,,,,,,,,,,,,,,,,,,,,,,,,,,,,,,,,,,,,,,,,,,,,,,,,,,,,,,,,,,,,,
1768972968.993364,1768972968.994324,26.0,0.0,4379.743652,4388.077148,4352.307617,4381.025879,4367.05127,4368.974121,4373.717773,4371.153809,4359.615234,4341.666504,4444.615234,4524.615234,4395.128418,4432.307617,,,,,,,,,,,,,,,,,,,,,,,,,,,,,,,,,,,,,,,,,,,,,,,,,,,,,,,,,,,,,,,,,,,,,,
1768972969.001173,1768972969.002133,27.0,0.0,4380.897461,4389.743652,4350.641113,4385.641113,4368.846191,4365.256348,4373.589844,4367.692383,4359.615234,4340.769043,4443.333496,4530.512695,4396.410156,4433.846191,,,,,,,,,,,,,,,,,,,,,,,,,,,,,,,,,,,,,,,,,,,,,,,,,,,,,,,,,,,,,,,,,,,,,,
1768972969.008981,1768972969.010141,28.0,0.0,4382.05127,4392.307617,4351.538574,4388.461426,4367.94873,4364.487305,4373.846191,4370.384766,4364.871582,4339.871582,4443.717773,4534.102539,4396.282227,4436.153809,,,,,,,,,,,,,,,,,,,,,,,,,,,,,,,,,,,,,,,,,,,,,,,,,,,,,,,,,,,,,,,,,,,,,,
1768972969.01679,1768972969.01795,29.0,0.0,4381.282227,4392.436035,4355.384766,4388.589844,4367.179688,4370.769043,4372.820313,4375.641113,4367.563965,4338.589844,4443.589844,4527.436035,4394.615234,4432.436035,,,,,,,,,,,,,,,,,,,,,,,,,,,,,,,,,,,,,,,,,,,,,,,,,,,,,,,,,,,,,,,,,,,,,,
1768972969.024598,1768972969.025858,30.0,0.0,4381.025879,4394.102539,4354.871582,4385.897461,4367.692383,4376.282227,4375.769043,4373.205078,4366.410156,4342.179688,4444.615234,4523.333496,4395.384766,4429.615234,1.217427,0.180083,0.498347,0.232296,0.192313,1.653409,0.315782,0.549146,0.3139,0.14001,0.493608,0.218125,0.343639,0.213588,0.120719,0.594997,0.186043,0.414081,0.160432,0.086399,0.213999,0.186491,0.102208,0.083631,0.03421,0.320563,0.938171,0.646366,0.17905,0.223519,0.451283,0.958226,0.633552,0.150448,0.215359,0.283476,0.292137,0.213801,0.084574,0.057104,0.695588,0.595724,0.246423,0.111732,0.06679,0.396021,0.377456,0.070079,0.044153,0.071719,0.445609,0.556213,0.337284,0.149476,0.119193,1.048234,0.606803,0.193221,0.266826,0.144319,0.638137,0.682458,0.247526,0.171914,0.188741,1.307263,0.58494,0.180046,0.262017,0.230263
1768972969.032406,1768972969.033666,31.0,0.0,4381.666504,4392.820313,4353.205078,4383.846191,4368.077148,4370.641113,4373.974121,4371.794922,4367.307617,4348.461426,4446.666504,4525.897461,4398.717773,4431.282227,,,,,,,,,,,,,,,,,,,,,,,,,,,,,,,,,,,,,,,,,,,,,,,,,,,,,,,,,,,,,,,,,,,,,,
1768972969.040215,1768972969.041275,32.0,0.0,4378.846191,4387.563965,4354.102539,4381.410156,4366.666504,4361.025879,4365.128418,4374.230957,4367.179688,4346.025879,4445.384766,4521.410156,4397.436035,4429.358887,,,,,,,,,,,,,,,,,,,,,,,,,,,,,,,,,,,,,,,,,,,,,,,,,,,,,,,,,,,,,,,,,,,,,,
1768972969.048023,1768972969.049084,33.0,0.0,4374.102539,4387.436035,4352.563965,4380.0,4366.025879,4361.794922,4366.282227,4375.0,4366.922852,4339.102539,4442.179688,4514.871582,4390.512695,4426.153809,,,,,,,,,,,,,,,,,,,,,,,,,,,,,,,,,,,,,,,,,,,,,,,,,,,,,,,,,,,,,,,,,,,,,,
1768972969.055832,1768972969.056792,34.0,0.0,4373.461426,4392.179688,4349.358887,4381.153809,4368.461426,4367.820313,4374.102539,4373.333496,4366.794922,4338.846191,4442.436035,4516.922852,4388.333496,4425.897461,,,,,,,,,,,,,,,,,,,,,,,,,,,,,,,,,,,,,,,,,,,,,,,,,,,,,,,,,,,,,,,,,,,,,,
1768972969.06364,1768972969.064601,35.0,0.0,4373.205078,4395.641113,4349.230957,4380.512695,4370.128418,4365.128418,4370.641113,4371.794922,4365.384766,4341.666504,4442.692383,4519.358887,4388.461426,4419.230957,,,,,,,,,,,,,,,,,,,,,,,,,,,,,,,,,,,,,,,,,,,,,,,,,,,,,,,,,,,,,,,,,,,,,,
1768972969.071449,1768972969.072209,36.0,0.0,4371.025879,4397.692383,4349.743652,4380.0,4368.077148,4362.94873,4370.384766,4371.153809,4364.743652,4340.0,4440.769043,4514.358887,4382.436035,4413.461426,,,,,,,,,,,,,,,,,,,,,,,,,,,,,,,,,,,,,,,,,,,,,,,,,,,,,,,,,,,,,,,,,,,,,,
1768972969.079257,1768972969.080018,37.0,0.0,4371.410156,4397.563965,4351.410156,4379.358887,4367.179688,4372.05127,4379.358887,4374.487305,4370.769043,4341.025879,4441.794922,4514.743652,4381.153809,4420.256348,,,,,,,,,,,,,,,,,,,,,,,,,,,,,,,,,,,,,,,,,,,,,,,,,,,,,,,,,,,,,,,,,,,,,,
1768972969.087066,1768972969.087726,38.0,0.0,4374.743652,4396.538574,4355.641113,4379.487305,4368.333496,4375.769043,4379.358887,4378.461426,4376.025879,4347.436035,4446.922852,4523.205078,4388.461426,4427.820313,,,,,,,,,,,,,,,,,,,,,,,,,,,,,,,,,,,,,,,,,,,,,,,,,,,,,,,,,,,,,,,,,,,,,,
1768972969.094874,1768972969.095535,39.0,0.0,4375.256348,4397.05127,4355.128418,4382.05127,4366.025879,4366.538574,4371.922852,4373.717773,4369.743652,4347.692383,4446.538574,4522.05127,4390.256348,4426.922852,,,,,,,,,,,,,,,,,,,,,,,,,,,,,,,,,,,,,,,,,,,,,,,,,,,,,,,,,,,,,,,,,,,,,,
1768972969.102682,1768972969.103143,40.0,0.0,4375.512695,4402.692383,4352.05127,4382.436035,4364.487305,4362.563965,4368.333496,4367.436035,4361.025879,4340.769043,4441.666504,4514.615234,4389.615234,4425.256348,,,,,,,,,,,,,,,,,,,,,,,,,,,,,,,,,,,,,,,,,,,,,,,,,,,,,,,,,,,,,,,,,,,,,,
1768972969.110491,1768972969.110952,41.0,0.0,4377.05127,4404.230957,4356.025879,4381.153809,4370.0,4370.0,4372.94873,4371.794922,4363.974121,4343.205078,4449.230957,4522.820313,4394.487305,4429.102539,,,,,,,,,,,,,,,,,,,,,,,,,,,,,,,,,,,,,,,,,,,,,,,,,,,,,,,,,,,,,,,,,,,,,,
1768972969.118299,1768972969.11866,42.0,0.0,4379.230957,4400.641113,4363.333496,4384.615234,4373.846191,4376.794922,4381.410156,4377.94873,4367.307617,4352.179688,4461.025879,4533.589844,4398.205078,4433.333496,,,,,,,,,,,,,,,,,,,,,,,,,,,,,,,,,,,,,,,,,,,,,,,,,,,,,,,,,,,,,,,,,,,,,,
1768972969.126108,1768972969.126469,43.0,0.0,4387.436035,4407.820313,4362.436035,4389.871582,4371.794922,4373.077148,4375.641113,4372.179688,4360.897461,4349.102539,4458.461426,4528.974121,4395.897461,4432.179688,,,,,,,,,,,,,,,,,,,,,,,,,,,,,,,,,,,,,,,,,,,,,,,,,,,,,,,,,,,,,,,,,,,,,,
1768972969.133916,1768972969.134077,44.0,0.0,4391.153809,4415.256348,4358.205078,4388.974121,4371.794922,4364.871582,4363.461426,4367.563965,4356.153809,4342.179688,4453.717773,4525.128418,4393.717773,4430.641113,,,,,,,,,,,,,,,,,,,,,,,,,,,,,,,,,,,,,,,,,,,,,,,,,,,,,,,,,,,,,,,,,,,,,,
1768972969.141724,1768972969.141886,45.0,0.0,4383.461426,4406.666504,4358.333496,4386.666504,4372.307617,4365.0,4368.974121,4371.922852,4358.846191,4345.0,4456.282227,4527.307617,4394.487305,4431.794922,,,,,,,,,,,,,,,,,,,,,,,,,,,,,,,,,,,,,,,,,,,,,,,,,,,,,,,,,,,,,,,,,,,,,,
1768972969.149533,1768972969.149794,46.0,0.0,4383.846191,4396.794922,4359.487305,4385.897461,4372.692383,4364.743652,4369.871582,4373.846191,4362.436035,4347.307617,4455.384766,4525.897461,4396.410156,4429.871582,1.024297,0.155249,0.418722,0.243033,0.209265,1.368255,0.330389,0.537711,0.30867,0.138827,0.427225,0.222719,0.264733,0.231737,0.130881,0.433132,0.164954,0.347256,0.166966,0.083554,0.24334,0.213733,0.085539,0.076993,0.035504,0.340888,1.193171,0.756383,0.211397,0.214955,0.473402,1.218807,0.761664,0.171317,0.215345,0.288573,0.331133,0.241767,0.073707,0.052517,0.793075,0.497664,0.274068,0.101675,0.06196,0.415202,0.391112,0.086346,0.043179,0.074169,0.426453,0.514184,0.368984,0.178531,0.13543,1.07371,0.474706,0.216916,0.254893,0.142347,0.662971,0.592225,0.290623,0.169884,0.198482,1.102221,0.520322,0.217174,0.25891,0.261194
1768972969.157341,1768972969.157603,47.0,0.0,4390.128418,4396.538574,4361.922852,4387.94873,4374.615234,4359.487305,4357.563965,4370.256348,4365.512695,4346.410156,4448.333496,4522.820313,4396.153809,4427.05127,,,,,,,,,,,,,,,,,,,,,,,,,,,,,,,,,,,,,,,,,,,,,,,,,,,,,,,,,,,,,,,,,,,,,,
1768972969.16515,1768972969.165611,48.0,0.0,4386.666504,4397.179688,4362.436035,4388.717773,4373.589844,4362.05127,4360.128418,4367.820313,4367.820313,4349.102539,4446.666504,4517.692383,4393.717773,4430.384766,,,,,,,,,,,,,,,,,,,,,,,,,,,,,,,,,,,,,,,,,,,,,,,,,,,,,,,,,,,,,,,,,,,,,,
1768972969.172958,1768972969.173419,49.0,0.0,4381.922852,4398.589844,4357.692383,4384.487305,4369.871582,4365.897461,4368.846191,4369.871582,4366.410156,4349.871582,4448.333496,4512.05127,4393.846191,4430.128418,,,,,,,,,,,,,,,,,,,,,,,,,,,,,,,,,,,,,,,,,,,,,,,,,,,,,,,,,,,,,,,,,,,,,,
1768972969.180767,1768972969.181328,50.0,0.0,4385.641113,4399.871582,4353.461426,4382.692383,4369.102539,4360.769043,4365.256348,4370.769043,4364.871582,4346.922852,4447.436035,4511.025879,4394.102539,4424.743652,,,,,,,,,,,,,,,,,,,,,,,,,,,,,,,,,,,,,,,,,,,,,,,,,,,,,,,,,,,,,,,,,,,,,,
1768972969.188575,1768972969.189136,51.0,0.0,4383.461426,4399.102539,4351.025879,4386.025879,4371.025879,4359.871582,4365.512695,4367.307617,4363.333496,4345.128418,4443.974121,4510.641113,4392.820313,4426.410156,,,,,,,,,,,,,,,,,,,,,,,,,,,,,,,,,,,,,,,,,,,,,,,,,,,,,,,,,,,,,,,,,,,,,,
1768972969.196384,1768972969.196745,52.0,0.0,4376.538574,4398.974121,4348.461426,4385.256348,4372.94873,4370.897461,4375.384766,4368.461426,4360.512695,4345.384766,4443.205078,4509.487305,4392.179688,4426.794922,,,,,,,,,,,,,,,,,,,,,,,,,,,,,,,,,,,,,,,,,,,,,,,,,,,,,,,,,,,,,,,,,,,,,,
1768972969.204192,1768972969.204553,53.0,0.0,4372.307617,4391.410156,4345.128418,4378.077148,4370.769043,4373.717773,4374.487305,4372.563965,4361.282227,4341.666504,4443.461426,4504.615234,4386.153809,4413.205078,,,,,,,,,,,,,,,,,,,,,,,,,,,,,,,,,,,,,,,,,,,,,,,,,,,,,,,,,,,,,,,,,,,,,,
1768972969.212,1768972969.212262,54.0,0.0,4369.615234,4380.384766,4342.563965,4374.102539,4365.769043,4368.333496,4370.256348,4373.717773,4365.128418,4339.743652,4439.871582,4498.717773,4383.205078,4405.769043,,,,,,,,,,,,,,,,,,,,,,,,,,,,,,,,,,,,,,,,,,,,,,,,,,,,,,,,,,,,,,,,,,,,,,
1768972969.219809,1768972969.22007,55.0,0.0,4375.641113,4382.563965,4346.410156,4377.692383,4367.307617,4370.128418,4377.563965,4377.563965,4371.153809,4349.743652,4445.256348,4506.538574,4393.974121,4421.410156,,,,,,,,,,,,,,,,,,,,,,,,,,,,,,,,,,,,,,,,,,,,,,,,,,,,,,,,,,,,,,,,,,,,,,
1768972969.227617,1768972969.228078,56.0,0.0,4386.025879,4388.717773,4354.615234,4382.94873,4371.922852,4367.563965,4379.487305,4380.0,4372.94873,4360.512695,4458.974121,4517.692383,4404.871582,4435.769043,,,,,,,,,,,,,,,,,,,,,,,,,,,,,,,,,,,,,,,,,,,,,,,,,,,,,,,,,,,,,,,,,,,,,,
1768972969.235426,1768972969.235887,57.0,0.0,4385.512695,4387.05127,4355.897461,4383.205078,4371.794922,4359.487305,4371.025879,4375.769043,4370.128418,4356.282227,4459.871582,4515.384766,4400.897461,4431.538574,,,,,,,,,,,,,,,,,,,,,,,,,,,,,,,,,,,,,,,,,,,,,,,,,,,,,,,,,,,,,,,,,,,,,,
1768972969.243234,1768972969.243795,58.0,0.0,4381.153809,4384.743652,4353.717773,4380.897461,4372.179688,4362.05127,4369.871582,4374.230957,4367.179688,4347.436035,4447.179688,4512.436035,4394.358887,4425.384766,,,,,,,,,,,,,,,,,,,,,,,,,,,,,,,,,,,,,,,,,,,,,,,,,,,,,,,,,,,,,,,,,,,,,,
1768972969.251043,1768972969.251604,59.0,0.0,4383.461426,4384.487305,4354.615234,4380.897461,4372.692383,4367.436035,4376.538574,4373.974121,4366.922852,4349.358887,4446.922852,4520.128418,4396.666504,4428.333496,,,,,,,,,,,,,,,,,,,,,,,,,,,,,,,,,,,,,,,,,,,,,,,,,,,,,,,,,,,,,,,,,,,,,,
1768972969.258851,1768972969.259212,60.0,0.0,4383.717773,4381.025879,4353.461426,4379.102539,4368.974121,4363.461426,4375.384766,4371.666504,4369.102539,4351.666504,4457.94873,4526.922852,4397.563965,4429.871582,,,,,,,,,,,,,,,,,,,,,,,,,,,,,,,,,,,,,,,,,,,,,,,,,,,,,,,,,,,,,,,,,,,,,,
1768972969.26666,1768972969.267021,61.0,0.0,4381.282227,4378.589844,4351.153809,4377.563965,4366.794922,4362.05127,4369.871582,4372.436035,4371.538574,4350.128418,4459.102539,4527.820313,4397.179688,4428.461426,,,,,,,,,,,,,,,,,,,,,,,,,,,,,,,,,,,,,,,,,,,,,,,,,,,,,,,,,,,,,,,,,,,,,,
1768972969.274468,1768972969.274729,62.0,0.0,4385.641113,4379.743652,4355.769043,4380.384766,4366.282227,4365.641113,4371.538574,4377.436035,4373.589844,4353.077148,4456.666504,4530.128418,4401.282227,4436.666504,0.810445,0.133721,0.334829,0.254751,0.221665,1.105286,0.345665,0.525212,0.292769,0.136666,0.365143,0.217339,0.197274,0.24385,0.141624,0.326159,0.150602,0.28269,0.173452,0.082055,0.262897,0.262639,0.074163,0.079472,0.03831,0.351067,1.382445,0.811674,0.243905,0.20342,0.464786,1.399994,0.836598,0.197157,0.211741,0.303435,0.365712,0.249722,0.06931,0.049547,0.859341,0.399188,0.288134,0.094759,0.056076,0.410682,0.401183,0.11432,0.045381,0.076286,0.380491,0.459707,0.379598,0.210078,0.148871,1.085689,0.382703,0.222478,0.250158,0.145695,0.655255,0.475678,0.325146,0.165781,0.198491,0.847148,0.450749,0.277266,0.276815,0.286839
1768972969.282277,1768972969.282538,63.0,0.0,4388.333496,4380.769043,4360.769043,4382.692383,4366.410156,4364.615234,4374.871582,4376.538574,4370.512695,4357.436035,4461.666504,4530.0,4402.05127,4442.05127,,,,,,,,,,,,,,,,,,,,,,,,,,,,,,,,,,,,,,,,,,,,,,,,,,,,,,,,,,,,,,,,,,,,,,
