Timestamp,OriginalTimestamp,EEG.Counter,EEG.Interpolated,EEG.AF3,EEG.F7,EEG.F3,EEG.FC5,EEG.T7,EEG.P7,EEG.O1,EEG.O2,EEG.P8,EEG.T8,EEG.FC6,EEG.F4,EEG.F8,EEG.AF4,POW.AF3.Theta,POW.AF3.Alpha,POW.AF3.BetaL,POW.AF3.BetaH,POW.AF3.Gamma,POW.F7.Theta,POW.F7.Alpha,POW.F7.BetaL,POW.F7.BetaH,POW.F7.Gamma,POW.F3.Theta,POW.F3.Alpha,POW.F3.BetaL,POW.F3.BetaH,POW.F3.Gamma,POW.FC5.Theta,POW.FC5.Alpha,POW.FC5.BetaL,POW.FC5.BetaH,POW.FC5.Gamma,POW.T7.Theta,POW.T7.Alpha,POW.T7.BetaL,POW.T7.BetaH,POW.T7.Gamma,POW.P7.Theta,POW.P7.Alpha,POW.P7.BetaL,POW.P7.BetaH,POW.P7.Gamma,POW.O1.Theta,POW.O1.Alpha,POW.O1.BetaL,POW.O1.BetaH,POW.O1.Gamma,POW.O2.Theta,POW.O2.Alpha,POW.O2.BetaL,POW.O2.BetaH,POW.O2.Gamma,POW.P8.Theta,POW.P8.Alpha,POW.P8.BetaL,POW.P8.BetaH,POW.P8.Gamma,POW.T8.Theta,POW.T8.Alpha,POW.T8.BetaL,POW.T8.BetaH,POW.T8.Gamma,POW.FC6.Theta,POW.FC6.Alpha,POW.FC6.BetaL,POW.FC6.BetaH,POW.FC6.Gamma,POW.F4.Theta,POW.F4.Alpha,POW.F4.BetaL,POW.F4.BetaH,POW.F4.Gamma,POW.F8.Theta,POW.F8.Alpha,POW.F8.BetaL,POW.F8.BetaH,POW.F8.Gamma,POW.AF4.Theta,POW.AF4.Alpha,POW.AF4.BetaL,POW.AF4.BetaH,POW.AF4.Gamma
1769163513.279334,1769163513.28008,49.0,0.0,4278.717773,4232.179688,4258.461426,4245.641113,4230.769043,4231.538574,4251.025879,4236.922852,4219.487305,4234.871582,4509.615234,4490.641113,4365.897461,4426.538574,,,,,,,,,,,,,,,,,,,,,,,,,,,,,,,,,,,,,,,,,,,,,,,,,,,,,,,,,,,,,,,,,,,,,,
1769163513.287142,1769163513.287788,50.0,0.0,4279.358887,4236.410156,4257.179688,4247.307617,4233.974121,4231.282227,4251.922852,4232.05127,4218.077148,4235.897461,4506.282227,4494.230957,4365.897461,4428.974121,,,,,,,,,,,,,,,,,,,,,,,,,,,,,,,,,,,,,,,,,,,,,,,,,,,,,,,,,,,,,,,,,,,,,,
1769163513.294951,1769163513.295597,51.0,0.0,4283.205078,4243.205078,4261.538574,4250.384766,4236.410156,4231.410156,4250.384766,4230.0,4217.692383,4237.05127,4507.820313,4492.94873,4363.461426,4429.358887,,,,,,,,,,,,,,,,,,,,,,,,,,,,,,,,,,,,,,,,,,,,,,,,,,,,,,,,,,,,,,,,,,,,,,
1769163513.302759,1769163513.303605,52.0,0.0,4282.05127,4236.410156,4259.358887,4248.077148,4235.769043,4231.538574,4247.692383,4231.025879,4217.692383,4236.153809,4507.436035,4492.94873,4364.743652,4423.589844,,,,,,,,,,,,,,,,,,,,,,,,,,,,,,,,,,,,,,,,,,,,,,,,,,,,,,,,,,,,,,,,,,,,,,
1769163513.310568,1769163513.311414,53.0,0.0,4277.563965,4231.410156,4257.307617,4246.410156,4233.974121,4230.512695,4249.358887,4231.153809,4221.025879,4236.025879,4504.615234,4499.615234,4361.666504,4414.871582,,,,,,,,,,,,,,,,,,,,,,,,,,,,,,,,,,,,,,,,,,,,,,,,,,,,,,,,,,,,,,,,,,,,,,
1769163513.318376,1769163513.319322,54.0,0.0,4278.717773,4233.589844,4259.743652,4248.461426,4231.922852,4233.333496,4252.94873,4231.282227,4221.666504,4234.615234,4505.769043,4506.922852,4356.794922,4418.333496,,,,,,,,,,,,,,,,,,,,,,,,,,,,,,,,,,,,,,,,,,,,,,,,,,,,,,,,,,,,,,,,,,,,,,
1769163513.326185,1769163513.32713,55.0,0.0,4287.05127,4232.94873,4256.538574,4246.666504,4230.128418,4231.538574,4251.282227,4230.769043,4218.717773,4231.282227,4507.563965,4507.820313,4361.666504,4429.615234,,,,,,,,,,,,,,,,,,,,,,,,,,,,,,,,,,,,,,,,,,,,,,,,,,,,,,,,,,,,,,,,,,,,,,
1769163513.333993,1769163513.335139,56.0,0.0,4293.846191,4236.794922,4255.0,4247.692383,4230.897461,4224.615234,4248.846191,4229.230957,4222.94873,4236.410156,4506.282227,4509.487305,4365.641113,4429.358887,,,,,,,,,,,,,,,,,,,,,,,,,,,,,,,,,,,,,,,,,,,,,,,,,,,,,,,,,,,,,,,,,,,,,,
1769163513.341802,1769163513.342947,57.0,0.0,4292.692383,4247.820313,4260.641113,4257.820313,4233.461426,4225.641113,4249.615234,4235.769043,4232.179688,4249.358887,4508.333496,4518.589844,4366.538574,4424.358887,,,,,,,,,,,,,,,,,,,,,,,,,,,,,,,,,,,,,,,,,,,,,,,,,,,,,,,,,,,,,,,,,,,,,,
1769163513.34961,1769163513.350656,58.0,0.0,4289.487305,4247.94873,4263.333496,4262.179688,4233.589844,4232.307617,4251.410156,4243.589844,4234.871582,4251.538574,4516.794922,4524.743652,4369.871582,4426.794922,,,,,,,,,,,,,,,,,,,,,,,,,,,,,,,,,,,,,,,,,,,,,,,,,,,,,,,,,,,,,,,,,,,,,,
1769163513.357418,1769163513.358464,59.0,0.0,4298.205078,4242.820313,4263.461426,4259.487305,4231.794922,4233.974121,4253.461426,4240.512695,4231.410156,4240.0,4522.563965,4523.333496,4373.333496,4436.153809,,,,,,,,,,,,,,,,,,,,,,,,,,,,,,,,,,,,,,,,,,,,,,,,,,,,,,,,,,,,,,,,,,,,,,
1769163513.365227,1769163513.366472,60.0,0.0,4315.641113,4250.0,4265.641113,4264.871582,4232.05127,4231.025879,4251.794922,4233.077148,4228.974121,4233.846191,4516.922852,4526.282227,4376.922852,4447.307617,,,,,,,,,,,,,,,,,,,,,,,,,,,,,,,,,,,,,,,,,,,,,,,,,,,,,,,,,,,,,,,,,,,,,,
1769163513.373035,1769163513.374281,61.0,0.0,4308.077148,4250.384766,4258.717773,4265.384766,4233.077148,4230.512695,4246.922852,4231.922852,4228.077148,4235.384766,4509.102539,4524.487305,4376.794922,4442.94873,,,,,,,,,,,,,,,,,,,,,,,,,,,,,,,,,,,,,,,,,,,,,,,,,,,,,,,,,,,,,,,,,,,,,,
1769163513.380844,1769163513.381989,62.0,0.0,4282.94873,4236.153809,4242.692383,4251.666504,4231.410156,4232.94873,4248.205078,4234.102539,4226.538574,4233.461426,4506.282227,4510.512695,4366.794922,4427.563965,1.350051,0.455112,0.343127,0.452229,0.250941,0.506935,0.451283,0.381024,0.274728,0.253161,0.603079,0.116434,0.196354,0.181854,0.083219,0.596508,0.313966,0.250851,0.208265,0.132005,0.717729,0.350497,0.144896,0.086438,0.120152,0.480981,0.168783,0.118991,0.111926,0.084714,0.167818,0.258391,0.231368,0.199263,0.15812,0.393268,0.177571,0.161796,0.135793,0.089153,0.466405,0.240715,0.140819,0.192443,0.084387,0.266405,0.256939,0.306494,0.130152,0.091716,1.151253,0.481953,0.602615,0.249836,0.17551,1.216435,0.597183,0.471502,0.305171,0.167235,1.140554,0.455723,0.318566,0.377316,0.26907,2.448934,0.649371,0.545297,0.372381,0.240683
1769163513.388652,1769163513.389798,63.0,0.0,4282.820313,4229.743652,4238.589844,4244.615234,4229.743652,4233.589844,4251.410156,4234.230957,4226.025879,4232.179688,4504.102539,4501.410156,4357.179688,4423.589844,,,,,,,,,,,,,,,,,,,,,,,,,,,,,,,,,,,,,,,,,,,,,,,,,,,,,,,,,,,,,,,,,,,,,,
1769163513.396461,1769163513.397406,64.0,0.0,4298.333496,4234.615234,4248.461426,4251.025879,4231.666504,4230.641113,4249.487305,4231.666504,4226.410156,4232.307617,4503.205078,4505.641113,4360.512695,4429.487305,,,,,,,,,,,,,,,,,,,,,,,,,,,,,,,,,,,,,,,,,,,,,,,,,,,,,,,,,,,,,,,,,,,,,,
1769163513.404269,1769163513.405215,65.0,0.0,4297.820313,4236.794922,4251.666504,4252.436035,4233.589844,4229.358887,4247.179688,4232.563965,4229.743652,4233.717773,4506.922852,4509.358887,4368.333496,4430.897461,,,,,,,,,,,,,,,,,,,,,,,,,,,,,,,,,,,,,,,,,,,,,,,,,,,,,,,,,,,,,,,,,,,,,,
1769163513.412078,1769163513.412923,66.0,0.0,4291.410156,4235.641113,4248.461426,4248.846191,4232.820313,4234.230957,4252.436035,4238.333496,4233.333496,4238.974121,4509.487305,4506.794922,4365.384766,4425.0,,,,,,,,,,,,,,,,,,,,,,,,,,,,,,,,,,,,,,,,,,,,,,,,,,,,,,,,,,,,,,,,,,,,,,
1769163513.419886,1769163513.420732,67.0,0.0,4294.230957,4234.743652,4248.077148,4248.717773,4231.410156,4237.05127,4259.358887,4238.974121,4232.563965,4241.282227,4509.102539,4505.641113,4361.025879,4422.436035,,,,,,,,,,,,,,,,,,,,,,,,,,,,,,,,,,,,,,,,,,,,,,,,,,,,,,,,,,,,,,,,,,,,,,
1769163513.427694,1769163513.42874,68.0,0.0,4294.230957,4235.256348,4246.025879,4248.717773,4231.153809,4235.512695,4256.282227,4232.563965,4230.769043,4235.512695,4509.358887,4504.743652,4364.230957,4429.743652,,,,,,,,,,,,,,,,,,,,,,,,,,,,,,,,,,,,,,,,,,,,,,,,,,,,,,,,,,,,,,,,,,,,,,
1769163513.435503,1769163513.436549,69.0,0.0,4292.436035,4241.794922,4245.384766,4251.025879,4232.692383,4233.589844,4248.205078,4229.871582,4228.205078,4233.077148,4509.743652,4502.179688,4367.436035,4435.897461,,,,,,,,,,,,,,,,,,,,,,,,,,,,,,,,,,,,,,,,,,,,,,,,,,,,,,,,,,,,,,,,,,,,,,
1769163513.443311,1769163513.444257,70.0,0.0,4301.153809,4248.589844,4253.846191,4257.692383,4233.974121,4231.538574,4246.282227,4230.512695,4222.436035,4235.512695,4508.974121,4502.179688,4367.179688,4431.538574,,,,,,,,,,,,,,,,,,,,,,,,,,,,,,,,,,,,,,,,,,,,,,,,,,,,,,,,,,,,,,,,,,,,,,
1769163513.45112,1769163513.452066,71.0,0.0,4311.538574,4250.0,4260.897461,4262.307617,4234.487305,4231.282227,4247.436035,4231.666504,4220.0,4233.205078,4507.179688,4497.820313,4363.974121,4427.179688,,,,,,,,,,,,,,,,,,,,,,,,,,,,,,,,,,,,,,,,,,,,,,,,,,,,,,,,,,,,,,,,,,,,,,
1769163513.458928,1769163513.459674,72.0,0.0,4312.820313,4246.410156,4262.307617,4261.538574,4233.205078,4231.153809,4247.94873,4231.153809,4219.743652,4230.512695,4506.410156,4492.563965,4359.615234,4428.333496,,,,,,,,,,,,,,,,,,,,,,,,,,,,,,,,,,,,,,,,,,,,,,,,,,,,,,,,,,,,,,,,,,,,,,
1769163513.466737,1769163513.467483,73.0,0.0,4306.282227,4237.179688,4260.897461,4255.384766,4230.512695,4230.641113,4250.128418,4230.384766,4218.974121,4231.282227,4506.025879,4495.897461,4360.897461,4427.307617,,,,,,,,,,,,,,,,,,,,,,,,,,,,,,,,,,,,,,,,,,,,,,,,,,,,,,,,,,,,,,,,,,,,,,
1769163513.474545,1769163513.475191,74.0,0.0,4300.128418,4233.333496,4256.922852,4253.077148,4230.256348,4233.846191,4251.282227,4234.102539,4225.384766,4231.922852,4507.307617,4500.512695,4365.641113,4428.461426,,,,,,,,,,,,,,,,,,,,,,,,,,,,,,,,,,,,,,,,,,,,,,,,,,,,,,,,,,,,,,,,,,,,,,
1769163513.482354,1769163513.483,75.0,0.0,4295.0,4240.769043,4250.641113,4258.205078,4233.333496,4236.666504,4249.358887,4233.846191,4232.692383,4232.563965,4507.179688,4493.205078,4360.256348,4428.589844,,,,,,,,,,,,,,,,,,,,,,,,,,,,,,,,,,,,,,,,,,,,,,,,,,,,,,,,,,,,,,,,,,,,,,
1769163513.490162,1769163513.491008,76.0,0.0,4293.205078,4245.256348,4248.974121,4260.641113,4235.384766,4233.461426,4250.256348,4232.820313,4230.769043,4233.846191,4504.358887,4485.512695,4353.205078,4419.871582,,,,,,,,,,,,,,,,,,,,,,,,,,,,,,,,,,,,,,,,,,,,,,,,,,,,,,,,,,,,,,,,,,,,,,
1769163513.49797,1769163513.498816,77.0,0.0,4299.487305,4240.128418,4256.410156,4259.743652,4235.641113,4232.05127,4251.922852,4241.025879,4235.641113,4241.282227,4512.05127,4490.128418,4360.769043,4421.538574,,,,,,,,,,,,,,,,,,,,,,,,,,,,,,,,,,,,,,,,,,,,,,,,,,,,,,,,,,,,,,,,,,,,,,
1769163513.505779,1769163513.506725,78.0,0.0,4306.153809,4236.282227,4262.820313,4261.025879,4235.512695,4234.871582,4251.282227,4242.05127,4238.846191,4244.230957,4520.512695,4495.641113,4370.641113,4439.871582,1.131178,0.385502,0.32537,0.411202,0.232868,0.479914,0.445785,0.328746,0.192015,0.233469,0.520124,0.089187,0.181643,0.160586,0.091546,0.549421,0.350011,0.251796,0.179588,0.12134,0.602564,0.347872,0.124924,0.081468,0.118525,0.390079,0.180468,0.10252,0.09463,0.06871,0.118432,0.252314,0.176358,0.182277,0.146117,0.354119,0.175033,0.165067,0.132772,0.092858,0.481272,0.249152,0.151295,0.176335,0.093862,0.250175,0.272651,0.244203,0.101642,0.079518,1.103961,0.477393,0.504436,0.235066,0.16646,1.087131,0.589897,0.408234,0.263436,0.17605,0.989259,0.410386,0.22138,0.348192,0.278136,2.042153,0.64392,0.461319,0.317868,0.267806
1769163513.513587,1769163513.514533,79.0,0.0,4304.230957,4235.128418,4262.05127,4258.589844,4234.102539,4234.487305,4250.512695,4229.871582,4222.94873,4235.641113,4513.077148,4493.461426,4367.563965,4443.333496,,,,,,,,,,,,,,,,,,,,,,,,,,,,,,,,,,,,,,,,,,,,,,,,,,,,,,,,,,,,,,,,,,,,,,
1769163513.521396,1769163513.522541,80.0,0.0,4297.563965,4235.384766,4258.333496,4258.461426,4233.077148,4231.922852,4249.230957,4227.563965,4216.410156,4230.384766,4504.871582,4491.410156,4357.692383,4428.205078,,,,,,,,,,,,,,,,,,,,,,,,,,,,,,,,,,,,,,,,,,,,,,,,,,,,,,,,,,,,,,,,,,,,,,
1769163513.529204,1769163513.53035,81.0,0.0,4291.410156,4235.256348,4253.205078,4261.410156,4234.358887,4232.563965,4247.436035,4235.0,4229.615234,4234.487305,4508.205078,4491.538574,4355.0,4422.692383,,,,,,,,,,,,,,,,,,,,,,,,,,,,,,,,,,,,,,,,,,,,,,,,,,,,,,,,,,,,,,,,,,,,,,
1769163513.537013,1769163513.538258,82.0,0.0,4289.487305,4234.871582,4247.820313,4255.769043,4234.871582,4234.358887,4247.820313,4232.05127,4233.077148,4234.615234,4509.615234,4489.871582,4359.230957,4429.102539,,,,,,,,,,,,,,,,,,,,,,,,,,,,,,,,,,,,,,,,,,,,,,,,,,,,,,,,,,,,,,,,,,,,,,
1769163513.544821,1769163513.546067,83.0,0.0,4293.461426,4235.128418,4250.769043,4251.794922,4233.589844,4235.897461,4249.615234,4229.102539,4228.333496,4231.538574,4506.794922,4488.333496,4357.179688,4432.692383,,,,,,,,,,,,,,,,,,,,,,,,,,,,,,,,,,,,,,,,,,,,,,,,,,,,,,,,,,,,,,,,,,,,,,
1769163513.55263,1769163513.554075,84.0,0.0,4296.794922,4235.0,4258.205078,4261.538574,4231.794922,4235.384766,4248.333496,4238.974121,4232.05127,4234.487305,4508.589844,4490.256348,4352.563965,4430.641113,,,,,,,,,,,,,,,,,,,,,,,,,,,,,,,,,,,,,,,,,,,,,,,,,,,,,,,,,,,,,,,,,,,,,,
1769163513.560438,1769163513.561883,85.0,0.0,4296.410156,4234.871582,4255.897461,4267.94873,4230.769043,4233.717773,4247.820313,4246.538574,4236.153809,4236.410156,4508.333496,4492.820313,4352.436035,4424.358887,,,,,,,,,,,,,,,,,,,,,,,,,,,,,,,,,,,,,,,,,,,,,,,,,,,,,,,,,,,,,,,,,,,,,,
1769163513.568247,1769163513.569592,86.0,0.0,4292.563965,4233.461426,4250.256348,4258.205078,4230.384766,4235.641113,4253.846191,4239.615234,4232.820313,4232.94873,4504.871582,4487.179688,4352.563965,4419.230957,,,,,,,,,,,,,,,,,,,,,,,,,,,,,,,,,,,,,,,,,,,,,,,,,,,,,,,,,,,,,,,,,,,,,,
1769163513.576055,1769163513.5774,87.0,0.0,4283.846191,4231.282227,4248.205078,4250.384766,4230.641113,4236.666504,4254.743652,4232.307617,4230.256348,4230.256348,4505.0,4478.717773,4349.230957,4423.077148,,,,,,,,,,,,,,,,,,,,,,,,,,,,,,,,,,,,,,,,,,,,,,,,,,,,,,,,,,,,,,,,,,,,,,
1769163513.583864,1769163513.585009,88.0,0.0,4285.512695,4232.692383,4252.820313,4258.333496,4233.205078,4232.692383,4248.333496,4239.615234,4231.282227,4233.077148,4507.436035,4486.538574,4350.128418,4429.230957,,,,,,,,,,,,,,,,,,,,,,,,,,,,,,,,,,,,,,,,,,,,,,,,,,,,,,,,,,,,,,,,,,,,,,
1769163513.591672,1769163513.592817,89.0,0.0,4303.205078,4235.769043,4260.0,4266.922852,4235.0,4231.922852,4248.461426,4247.692383,4234.230957,4236.153809,4508.589844,4492.820313,4354.230957,4427.05127,,,,,,,,,,,,,,,,,,,,,,,,,,,,,,,,,,,,,,,,,,,,,,,,,,,,,,,,,,,,,,,,,,,,,,
1769163513.599481,1769163513.600526,90.0,0.0,4304.487305,4235.641113,4260.897461,4262.94873,4231.922852,4234.230957,4252.179688,4244.230957,4233.077148,4233.974121,4507.05127,4479.230957,4353.846191,4421.794922,,,,,,,,,,,,,,,,,,,,,,,,,,,,,,,,,,,,,,,,,,,,,,,,,,,,,,,,,,,,,,,,,,,,,,
1769163513.607289,1769163513.608334,91.0,0.0,4293.461426,4235.0,4259.230957,4259.230957,4230.0,4232.563965,4250.128418,4239.230957,4228.974121,4233.461426,4507.307617,4476.410156,4356.922852,4423.846191,,,,,,,,,,,,,,,,,,,,,,,,,,,,,,,,,,,,,,,,,,,,,,,,,,,,,,,,,,,,,,,,,,,,,,
1769163513.615097,1769163513.616343,92.0,0.0,4301.666504,4236.410156,4262.563965,4263.077148,4234.230957,4230.512695,4247.820313,4235.512695,4227.820313,4234.871582,4508.077148,4492.179688,4364.358887,4431.282227,,,,,,,,,,,,,,,,,,,,,,,,,,,,,,,,,,,,,,,,,,,,,,,,,,,,,,,,,,,,,,,,,,,,,,
1769163513.622906,1769163513.624151,93.0,0.0,4308.974121,4236.538574,4264.487305,4263.717773,4236.025879,4231.410156,4249.615234,4234.358887,4230.256348,4233.974121,4507.94873,4495.897461,4359.615234,4431.666504,,,,,,,,,,,,,,,,,,,,,,,,,,,,,,,,,,,,,,,,,,,,,,,,,,,,,,,,,,,,,,,,,,,,,,
1769163513.630714,1769163513.632059,94.0,0.0,4298.846191,4235.897461,4261.538574,4262.692383,4232.179688,4232.692383,4249.743652,4238.589844,4229.743652,4232.563965,4507.820313,4486.025879,4345.641113,4427.05127,0.867096,0.348403,0.311184,0.383483,0.214227,0.44147,0.427176,0.285554,0.142607,0.20186,0.44365,0.091885,0.175146,0.166999,0.106667,0.499821,0.38754,0.269526,0.162427,0.111745,0.461788,0.30812,0.104156,0.076121,0.110771,0.315784,0.20704,0.10188,0.087882,0.065807,0.080828,0.240259,0.141855,0.1559,0.12636,0.300752,0.166349,0.15879,0.130115,0.095149,0.456369,0.25759,0.160868,0.171222,0.106714,0.280683,0.284591,0.213926,0.079727,0.072996,1.029755,0.474078,0.409434,0.223574,0.162477,1.012326,0.569154,0.342543,0.232726,0.19169,0.832259,0.353487,0.158571,0.305375,0.28957,1.559876,0.604305,0.385081,0.26609,0.297335
1769163513.638523,1769163513.639868,95.0,0.0,4294.615234,4238.589844,4261.538574,4266.410156,4231.538574,4231.410156,4251.410156,4243.589844,4229.230957,4232.05127,4506.666504,4481.410156,4341.025879,4425.0,,,,,,,,,,,,,,,,,,,,,,,,,,,,,,,,,,,,,,,,,,,,,,,,,,,,,,,,,,,,,,,,,,,,,,
1769163513.646331,1769163513.647476,96.0,0.0,4298.077148,4234.230957,4259.358887,4262.179688,4234.615234,4235.897461,4258.589844,4247.563965,4239.871582,4234.615234,4506.025879,4485.0,4343.717773,4424.871582,,,,,,,,,,,,,,,,,,,,,,,,,,,,,,,,,,,,,,,,,,,,,,,,,,,,,,,,,,,,,,,,,,,,,,
1769163513.65414,1769163513.655285,97.0,0.0,4291.666504,4220.0,4253.974121,4251.794922,4233.717773,4244.615234,4263.333496,4250.256348,4248.333496,4241.922852,4507.179688,4489.743652,4344.358887,4423.077148,,,,,,,,,,,,,,,,,,,,,,,,,,,,,,,,,,,,,,,,,,,,,,,,,,,,,,,,,,,,,,,,,,,,,,
1769163513.661948,1769163513.662993,98.0,0.0,4288.461426,4218.461426,4256.153809,4254.230957,4230.256348,4240.897461,4258.589844,4248.974121,4241.025879,4245.128418,4508.205078,4489.743652,4346.153809,4422.820313,,,,,,,,,,,,,,,,,,,,,,,,,,,,,,,,,,,,,,,,,,,,,,,,,,,,,,,,,,,,,,,,,,,,,,
1769163513.669757,1769163513.670802,99.0,0.0,4298.717773,4232.563965,4262.05127,4266.410156,4230.128418,4228.846191,4251.153809,4245.897461,4232.94873,4238.461426,4508.077148,4487.436035,4350.641113,4427.307617,,,,,,,,,,,,,,,,,,,,,,,,,,,,,,,,,,,,,,,,,,,,,,,,,,,,,,,,,,,,,,,,,,,,,,
1769163513.677565,1769163513.678411,100.0,0.0,4304.102539,4237.820313,4262.307617,4270.0,4232.563965,4227.692383,4250.128418,4243.333496,4234.358887,4233.846191,4507.820313,4488.589844,4356.282227,4430.897461,,,,,,,,,,,,,,,,,,,,,,,,,,,,,,,,,,,,,,,,,,,,,,,,,,,,,,,,,,,,,,,,,,,,,,
1769163513.685373,1769163513.686219,101.0,0.0,4301.538574,4237.179688,4261.794922,4268.974121,4234.871582,4233.205078,4253.461426,4242.563965,4234.615234,4236.025879,4508.205078,4488.205078,4358.333496,4427.179688,,,,,,,,,,,,,,,,,,,,,,,,,,,,,,,,,,,,,,,,,,,,,,,,,,,,,,,,,,,,,,,,,,,,,,
1769163513.693182,1769163513.694127,102.0,0.0,4306.410156,4246.922852,4266.282227,4275.384766,4235.769043,4231.410156,4250.512695,4240.769043,4231.666504,4236.922852,4507.820313,4489.743652,4356.282227,4428.461426,,,,,,,,,,,,,,,,,,,,,,,,,,,,,,,,,,,,,,,,,,,,,,,,,,,,,,,,,,,,,,,,,,,,,,
1769163513.70099,1769163513.701936,103.0,0.0,4311.538574,4249.871582,4266.410156,4279.487305,4234.871582,4229.615234,4247.692383,4236.282227,4231.538574,4235.769043,4508.717773,4492.436035,4357.94873,4438.205078,,,,,,,,,,,,,,,,,,,,,,,,,,,,,,,,,,,,,,,,,,,,,,,,,,,,,,,,,,,,,,,,,,,,,,
1769163513.708799,1769163513.709944,104.0,0.0,4306.538574,4243.589844,4262.94873,4276.794922,4235.641113,4234.871582,4253.461426,4238.077148,4231.794922,4233.589844,4509.358887,4484.871582,4357.563965,4437.436035,,,,,,,,,,,,,,,,,,,,,,,,,,,,,,,,,,,,,,,,,,,,,,,,,,,,,,,,,,,,,,,,,,,,,,
1769163513.716607,1769163513.717753,105.0,0.0,4305.256348,4245.512695,4264.743652,4276.153809,4236.410156,4238.717773,4256.410156,4242.05127,4233.077148,4230.897461,4506.922852,4474.743652,4348.205078,4425.384766,,,,,,,,,,,,,,,,,,,,,,,,,,,,,,,,,,,,,,,,,,,,,,,,,,,,,,,,,,,,,,,,,,,,,,
1769163513.724416,1769163513.725661,106.0,0.0,4308.461426,4244.871582,4266.410156,4275.256348,4235.128418,4234.487305,4250.256348,4235.897461,4235.128418,4230.641113,4505.128418,4476.410156,4344.743652,4423.974121,,,,,,,,,,,,,,,,,,,,,,,,,,,,,,,,,,,,,,,,,,,,,,,,,,,,,,,,,,,,,,,,,,,,,,
1769163513.732224,1769163513.733469,107.0,0.0,4307.436035,4240.0,4267.05127,4273.205078,4234.358887,4230.384766,4250.384766,4234.743652,4236.410156,4232.05127,4508.333496,4489.743652,4353.461426,4433.846191,,,,,,,,,,,,,,,,,,,,,,,,,,,,,,,,,,,,,,,,,,,,,,,,,,,,,,,,,,,,,,,,,,,,,,
1769163513.740033,1769163513.741478,108.0,0.0,4308.846191,4244.743652,4275.769043,4274.615234,4234.358887,4239.871582,4262.692383,4248.717773,4236.666504,4231.538574,4510.256348,4496.410156,4353.717773,4434.487305,,,,,,,,,,,,,,,,,,,,,,,,,,,,,,,,,,,,,,,,,,,,,,,,,,,,,,,,,,,,,,,,,,,,,,
1769163513.747841,1769163513.749286,109.0,0.0,4312.179688,4249.487305,4279.230957,4280.128418,4234.743652,4245.128418,4263.205078,4250.128418,4234.487305,4230.384766,4507.94873,4484.102539,4343.589844,4426.410156,,,,,,,,,,,,,,,,,,,,,,,,,,,,,,,,,,,,,,,,,,,,,,,,,,,,,,,,,,,,,,,,,,,,,,
1769163513.755649,1769163513.756995,110.0,0.0,4310.512695,4246.922852,4270.384766,4279.487305,4233.974121,4233.717773,4250.256348,4235.0,4231.794922,4231.153809,4507.820313,4477.94873,4344.743652,4424.871582,0.631924,0.340012,0.307622,0.362096,0.202922,0.381134,0.418345,0.267339,0.118228,0.168412,0.377597,0.115652,0.181362,0.194991,0.123975,0.44091,0.429704,0.302831,0.151722,0.104083,0.323887,0.244143,0.086601,0.069575,0.097293,0.268997,0.246786,0.114127,0.092503,0.074771,0.0567,0.219322,0.128062,0.127116,0.102052,0.24396,0.153651,0.150902,0.124912,0.09532,0.397587,0.260975,0.179491,0.171996,0.121093,0.339364,0.293229,0.219253,0.069012,0.072373,0.939145,0.471424,0.348882,0.222118,0.165801,1.075815,0.543116,0.293254,0.218524,0.210017,0.698513,0.297004,0.147306,0.256621,0.299088,1.096326,0.548855,0.351461,0.224354,0.324991
1769163513.763458,1769163513.764803,111.0,0.0,4310.512695,4247.307617,4269.230957,4276.025879,4234.230957,4230.256348,4248.333496,4233.589844,4230.769043,4233.205078,4509.743652,4490.384766,4354.358887,4430.897461,,,,,,,,,,,,,,,,,,,,,,,,,,,,,,,,,,,,,,,,,,,,,,,,,,,,,,,,,,,,,,,,,,,,,,
1769163513.771266,1769163513.772412,112.0,0.0,4312.179688,4248.589844,4280.0,4278.205078,4235.512695,4236.538574,4251.794922,4245.512695,4231.025879,4232.563965,4509.743652,4492.436035,4351.538574,4432.179688,,,,,,,,,,,,,,,,,,,,,,,,,,,,,,,,,,,,,,,,,,,,,,,,,,,,,,,,,,,,,,,,,,,,,,
1769163513.779075,1769163513.78022,113.0,0.0,4311.666504,4247.820313,4282.94873,4280.641113,4235.384766,4233.333496,4250.512695,4243.846191,4231.410156,4230.256348,4505.897461,4477.307617,4341.538574,4423.589844,,,,,,,,,,,,,,,,,,,,,,,,,,,,,,,,,,,,,,,,,,,,,,,,,,,,,,,,,,,,,,,,,,,,,,
1769163513.786883,1769163513.787929,114.0,0.0,4309.871582,4248.333496,4273.205078,4278.077148,4234.871582,4235.384766,4255.384766,4235.512695,4232.94873,4230.641113,4504.743652,4473.077148,4340.641113,4421.153809,,,,,,,,,,,,,,,,,,,,,,,,,,,,,,,,,,,,,,,,,,,,,,,,,,,,,,,,,,,,,,,,,,,,,,
1769163513.794692,1769163513.795737,115.0,0.0,4301.025879,4245.0,4263.333496,4273.205078,4235.384766,4245.128418,4262.05127,4241.410156,4233.846191,4232.563965,4508.077148,4477.563965,4345.128418,4427.307617,,,,,,,,,,,,,,,,,,,,,,,,,,,,,,,,,,,,,,,,,,,,,,,,,,,,,,,,,,,,,,,,,,,,,,
1769163513.8025,1769163513.803346,116.0,0.0,4292.307617,4242.820313,4262.436035,4271.794922,4234.871582,4240.384766,4258.974121,4243.974121,4231.153809,4229.230957,4504.230957,4473.077148,4342.692383,4428.461426,,,,,,,,,,,,,,,,,,,,,,,,,,,,,,,,,,,,,,,,,,,,,,,,,,,,,,,,,,,,,,,,,,,,,,
1769163513.810309,1769163513.811154,117.0,0.0,4295.897461,4241.922852,4266.153809,4272.05127,4232.307617,4230.384766,4256.922852,4239.487305,4230.769043,4228.205078,4498.717773,4470.897461,4339.871582,4425.128418,,,,,,,,,,,,,,,,,,,,,,,,,,,,,,,,,,,,,,,,,,,,,,,,,,,,,,,,,,,,,,,,,,,,,,
1769163513.818117,1769163513.818863,118.0,0.0,4305.0,4236.538574,4266.922852,4272.94873,4231.666504,4231.025879,4254.871582,4244.358887,4232.820313,4231.794922,4503.974121,4474.230957,4346.153809,4427.05127,,,,,,,,,,,,,,,,,,,,,,,,,,,,,,,,,,,,,,,,,,,,,,,,,,,,,,,,,,,,,,,,,,,,,,
1769163513.825925,1769163513.826671,119.0,0.0,4309.871582,4234.487305,4268.589844,4277.436035,4232.563965,4232.307617,4248.205078,4243.333496,4225.0,4225.128418,4508.589844,4475.128418,4348.717773,4429.615234,,,,,,,,,,,,,,,,,,,,,,,,,,,,,,,,,,,,,,,,,,,,,,,,,,,,,,,,,,,,,,,,,,,,,,
1769163513.833734,1769163513.834679,120.0,0.0,4309.871582,4236.794922,4270.769043,4277.563965,4232.179688,4230.384766,4247.307617,4230.769043,4215.128418,4217.179688,4506.025879,4476.282227,4344.487305,4427.94873,,,,,,,,,,,,,,,,,,,,,,,,,,,,,,,,,,,,,,,,,,,,,,,,,,,,,,,,,,,,,,,,,,,,,,
1769163513.841542,1769163513.842488,121.0,0.0,4306.794922,4235.128418,4266.025879,4272.94873,4232.179688,4229.358887,4249.230957,4228.333496,4220.256348,4223.205078,4503.846191,4470.512695,4341.922852,4425.256348,,,,,,,,,,,,,,,,,,,,,,,,,,,,,,,,,,,,,,,,,,,,,,,,,,,,,,,,,,,,,,,,,,,,,,
1769163513.849351,1769163513.850196,122.0,0.0,4303.974121,4233.205078,4261.153809,4271.025879,4232.179688,4229.230957,4248.333496,4235.384766,4225.128418,4229.487305,4501.794922,4465.512695,4342.179688,4424.230957,,,,,,,,,,,,,,,,,,,,,,,,,,,,,,,,,,,,,,,,,,,,,,,,,,,,,,,,,,,,,,,,,,,,,,
1769163513.857159,1769163513.858005,123.0,0.0,4303.974121,4236.153809,4261.410156,4270.0,4232.05127,4231.025879,4248.077148,4234.230957,4218.589844,4226.025879,4500.0,4471.538574,4345.512695,4427.436035,,,,,,,,,,,,,,,,,,,,,,,,,,,,,,,,,,,,,,,,,,,,,,,,,,,,,,,,,,,,,,,,,,,,,,
1769163513.864968,1769163513.865614,124.0,0.0,4304.743652,4236.794922,4262.820313,4266.282227,4232.436035,4236.922852,4252.94873,4234.487305,4220.256348,4221.025879,4497.692383,4472.307617,4347.94873,4425.128418,,,,,,,,,,,,,,,,,,,,,,,,,,,,,,,,,,,,,,,,,,,,,,,,,,,,,,,,,,,,,,,,,,,,,,
1769163513.872776,1769163513.873422,125.0,0.0,4305.512695,4232.179688,4262.563965,4266.922852,4232.307617,4241.794922,4258.846191,4240.256348,4230.512695,4218.205078,4490.769043,4459.871582,4340.256348,4413.461426,,,,,,,,,,,,,,,,,,,,,,,,,,,,,,,,,,,,,,,,,,,,,,,,,,,,,,,,,,,,,,,,,,,,,,
1769163513.880585,1769163513.88133,126.0,0.0,4306.794922,4230.897461,4263.205078,4273.974121,4232.179688,4239.102539,4258.461426,4243.461426,4231.922852,4221.666504,4493.461426,4457.94873,4336.025879,4411.922852,0.483951,0.359211,0.321812,0.348088,0.20342,0.310583,0.436842,0.285521,0.107955,0.141674,0.346597,0.15179,0.201681,0.238201,0.137187,0.383485,0.474647,0.342634,0.142398,0.099214,0.210963,0.174225,0.073425,0.061513,0.079653,0.248322,0.291259,0.129933,0.104477,0.090658,0.042834,0.188825,0.128556,0.101673,0.07865,0.188243,0.140929,0.153715,0.116658,0.094161,0.324694,0.256962,0.220914,0.172428,0.134124,0.392687,0.298557,0.249446,0.069766,0.076143,0.846877,0.461325,0.33382,0.229328,0.173767,1.285473,0.516247,0.268759,0.2176,0.225336,0.588653,0.256459,0.190247,0.211091,0.301517,0.736686,0.493638,0.376133,0.197559,0.346761
1769163513.888393,1769163513.889139,127.0,0.0,4311.410156,4234.871582,4267.563965,4279.102539,4233.461426,4234.230957,4254.743652,4246.410156,4231.410156,4231.666504,4505.897461,4471.538574,4346.794922,4423.077148,,,,,,,,,,,,,,,,,,,,,,,,,,,,,,,,,,,,,,,,,,,,,,,,,,,,,,,,,,,,,,,,,,,,,,
1769163513.896202,1769163513.897147,0.0,0.0,4316.025879,4237.692383,4270.128418,4282.179688,4235.512695,4235.384766,4258.846191,4247.05127,4233.846191,4232.436035,4507.436035,4479.230957,4352.179688,4428.717773,,,,,,,,,,,,,,,,,,,,,,,,,,,,,,,,,,,,,,,,,,,,,,,,,,,,,,,,,,,,,,,,,,,,,,
1769163513.90401,1769163513.904955,1.0,0.0,4314.487305,4234.358887,4264.871582,4276.794922,4235.641113,4237.436035,4263.846191,4240.641113,4231.282227,4225.897461,4502.820313,4473.846191,4348.589844,4427.563965,,,,,,,,,,,,,,,,,,,,,,,,,,,,,,,,,,,,,,,,,,,,,,,,,,,,,,,,,,,,,,,,,,,,,,
1769163513.911819,1769163513.912864,2.0,0.0,4313.205078,4232.307617,4261.025879,4268.333496,4232.94873,4233.846191,4257.05127,4233.974121,4228.717773,4227.820313,4505.641113,4467.179688,4352.436035,4428.461426,,,,,,,,,,,,,,,,,,,,,,,,,,,,,,,,,,,,,,,,,,,,,,,,,,,,,,,,,,,,,,,,,,,,,,
1769163513.919627,1769163513.920672,3.0,0.0,4319.743652,4238.205078,4264.615234,4270.512695,4230.384766,4231.410156,4249.871582,4236.153809,4227.692383,4230.256348,4508.717773,4471.025879,4360.897461,4430.384766,,,,,,,,,,,,,,,,,,,,,,,,,,,,,,,,,,,,,,,,,,,,,,,,,,,,,,,,,,,,,,,,,,,,,,
1769163513.927436,1769163513.92868,4.0,0.0,4323.974121,4245.641113,4267.692383,4276.794922,4230.256348,4233.333496,4250.769043,4238.205078,4222.94873,4222.179688,4506.666504,4477.05127,4357.94873,4429.743652,,,,,,,,,,,,,,,,,,,,,,,,,,,,,,,,,,,,,,,,,,,,,,,,,,,,,,,,,,,,,,,,,,,,,,
1769163513.935244,1769163513.936489,5.0,0.0,4319.230957,4245.256348,4267.05127,4276.025879,4231.153809,4235.0,4251.538574,4232.563965,4216.410156,4214.743652,4504.871582,4472.307617,4348.077148,4426.922852,,,,,,,,,,,,,,,,,,,,,,,,,,,,,,,,,,,,,,,,,,,,,,,,,,,,,,,,,,,,,,,,,,,,,,
1769163513.943052,1769163513.944197,6.0,0.0,4311.410156,4237.436035,4265.256348,4273.461426,4230.512695,4234.487305,4250.512695,4228.461426,4216.538574,4216.025879,4504.743652,4464.230957,4348.717773,4426.410156,,,,,,,,,,,,,,,,,,,,,,,,,,,,,,,,,,,,,,,,,,,,,,,,,,,,,,,,,,,,,,,,,,,,,,
1769163513.950861,1769163513.952006,7.0,0.0,4311.410156,4232.94873,4264.487305,4276.538574,4230.0,4231.794922,4247.307617,4229.871582,4224.102539,4218.589844,4503.846191,4460.512695,4352.94873,4427.94873,,,,,,,,,,,,,,,,,,,,,,,,,,,,,,,,,,,,,,,,,,,,,,,,,,,,,,,,,,,,,,,,,,,,,,
1769163513.958669,1769163513.959615,8.0,0.0,4321.282227,4237.563965,4265.128418,4278.974121,4231.410156,4231.922852,4248.077148,4233.589844,4229.743652,4218.077148,4502.436035,4464.615234,4348.846191,4427.05127,,,,,,,,,,,,,,,,,,,,,,,,,,,,,,,,,,,,,,,,,,,,,,,,,,,,,,,,,,,,,,,,,,,,,,
1769163513.966478,1769163513.967423,9.0,0.0,4324.743652,4245.256348,4264.871582,4278.717773,4232.436035,4233.077148,4257.307617,4235.641113,4230.769043,4216.794922,4506.538574,4473.974121,4348.205078,4425.769043,,,,,,,,,,,,,,,,,,,,,,,,,,,,,,,,,,,,,,,,,,,,,,,,,,,,,,,,,,,,,,,,,,,,,,
1769163513.974286,1769163513.975132,10.0,0.0,4313.717773,4243.461426,4261.025879,4278.077148,4232.307617,4235.897461,4261.410156,4236.410156,4231.025879,4215.769043,4506.922852,4473.205078,4353.077148,4428.846191,,,,,,,,,,,,,,,,,,,,,,,,,,,,,,,,,,,,,,,,,,,,,,,,,,,,,,,,,,,,,,,,,,,,,,
1769163513.982095,1769163513.98294,11.0,0.0,4307.436035,4233.974121,4258.333496,4276.410156,4233.461426,4242.05127,4256.922852,4234.358887,4228.589844,4213.461426,4496.282227,4460.641113,4348.589844,4428.846191,,,,,,,,,,,,,,,,,,,,,,,,,,,,,,,,,,,,,,,,,,,,,,,,,,,,,,,,,,,,,,,,,,,,,,
1769163513.989903,1769163513.990549,12.0,0.0,4316.282227,4236.794922,4260.512695,4277.307617,4234.871582,4244.230957,4252.820313,4232.94873,4224.871582,4210.769043,4495.897461,4460.769043,4345.128418,4424.743652,,,,,,,,,,,,,,,,,,,,,,,,,,,,,,,,,,,,,,,,,,,,,,,,,,,,,,,,,,,,,,,,,,,,,,
1769163513.997712,1769163513.998357,13.0,0.0,4324.102539,4248.589844,4263.846191,4280.256348,4234.615234,4233.846191,4252.179688,4238.717773,4228.333496,4212.436035,4508.333496,4475.641113,4354.743652,4430.641113,,,,,,,,,,,,,,,,,,,,,,,,,,,,,,,,,,,,,,,,,,,,,,,,,,,,,,,,,,,,,,,,,,,,,,
1769163514.00552,1769163514.006066,14.0,0.0,4322.94873,4249.487305,4264.102539,4281.538574,4234.743652,4231.666504,4255.512695,4248.461426,4234.487305,4225.128418,4513.589844,4482.94873,4363.589844,4442.179688,0.434558,0.407267,0.359521,0.346506,0.214993,0.253389,0.486683,0.340788,0.106006,0.12586,0.368218,0.193204,0.233278,0.289449,0.141674,0.347781,0.519928,0.379626,0.132956,0.098632,0.134304,0.115225,0.063517,0.052824,0.060574,0.238875,0.326493,0.142672,0.11702,0.107507,0.0345,0.151998,0.140024,0.083636,0.061988,0.143522,0.132844,0.177304,0.108167,0.094408,0.2631,0.245422,0.293737,0.169366,0.143111,0.416149,0.299481,0.287249,0.078981,0.082087,0.748474,0.434019,0.354085,0.236645,0.180019,1.582743,0.489075,0.268142,0.221026,0.234589,0.486356,0.249047,0.278796,0.176404,0.293474,0.502558,0.445887,0.446458,0.185969,0.359775
1769163514.013328,1769163514.013874,15.0,0.0,4323.461426,4245.128418,4262.179688,4281.666504,4236.025879,4242.179688,4258.846191,4249.102539,4234.358887,4231.666504,4511.282227,4480.128418,4363.589844,4446.282227,,,,,,,,,,,,,,,,,,,,,,,,,,,,,,,,,,,,,,,,,,,,,,,,,,,,,,,,,,,,,,,,,,,,,,
1769163514.021137,1769163514.021882,16.0,0.0,4328.974121,4247.436035,4264.487305,4281.922852,4236.282227,4239.102539,4257.692383,4238.077148,4231.794922,4222.05127,4510.897461,4477.05127,4359.230957,4442.94873,,,,,,,,,,,,,,,,,,,,,,,,,,,,,,,,,,,,,,,,,,,,,,,,,,,,,,,,,,,,,,,,,,,,,,
1769163514.028945,1769163514.029691,17.0,0.0,4323.717773,4242.820313,4262.307617,4279.871582,4235.769043,4236.282227,4259.358887,4232.179688,4227.563965,4212.94873,4507.436035,4473.717773,4352.307617,4431.922852,,,,,,,,,,,,,,,,,,,,,,,,,,,,,,,,,,,,,,,,,,,,,,,,,,,,,,,,,,,,,,,,,,,,,,
1769163514.036754,1769163514.037599,18.0,0.0,4311.666504,4232.94873,4251.666504,4277.05127,4234.230957,4248.589844,4266.153809,4239.358887,4225.512695,4212.692383,4503.461426,4471.538574,4348.461426,4425.256348,,,,,,,,,,,,,,,,,,,,,,,,,,,,,,,,,,,,,,,,,,,,,,,,,,,,,,,,,,,,,,,,,,,,,,
1769163514.044562,1769163514.045408,19.0,0.0,4317.94873,4238.589844,4250.897461,4278.333496,4232.94873,4243.846191,4262.179688,4246.153809,4231.025879,4216.666504,4513.461426,4476.025879,4355.384766,4437.436035,,,,,,,,,,,,,,,,,,,,,,,,,,,,,,,,,,,,,,,,,,,,,,,,,,,,,,,,,,,,,,,,,,,,,,
1769163514.052371,1769163514.053016,20.0,0.0,4330.256348,4248.461426,4260.512695,4279.358887,4234.871582,4228.205078,4256.666504,4244.358887,4234.102539,4218.717773,4517.307617,4478.846191,4359.743652,4442.820313,,,,,,,,,,,,,,,,,,,,,,,,,,,,,,,,,,,,,,,,,,,,,,,,,,,,,,,,,,,,,,,,,,,,,,
1769163514.060179,1769163514.060825,21.0,0.0,4326.794922,4245.769043,4262.307617,4281.025879,4234.615234,4237.692383,4262.692383,4244.615234,4231.410156,4219.743652,4511.282227,4475.769043,4356.666504,4432.436035,,,,,,,,,,,,,,,,,,,,,,,,,,,,,,,,,,,,,,,,,,,,,,,,,,,,,,,,,,,,,,,,,,,,,,
1769163514.067988,1769163514.068533,22.0,0.0,4327.307617,4244.743652,4262.436035,4290.128418,4233.589844,4250.128418,4265.641113,4247.436035,4231.922852,4221.153809,4510.256348,4475.384766,4360.897461,4435.128418,,,,,,,,,,,,,,,,,,,,,,,,,,,,,,,,,,,,,,,,,,,,,,,,,,,,,,,,,,,,,,,,,,,,,,
1769163514.075796,1769163514.076342,23.0,0.0,4340.897461,4252.563965,4269.487305,4297.820313,4242.820313,4243.717773,4260.512695,4244.487305,4233.717773,4223.077148,4514.358887,4479.615234,4367.692383,4445.256348,,,,,,,,,,,,,,,,,,,,,,,,,,,,,,,,,,,,,,,,,,,,,,,,,,,,,,,,,,,,,,,,,,,,,,
1769163514.083604,1769163514.08435,24.0,0.0,4339.615234,4253.974121,4268.461426,4291.410156,4247.179688,4242.05127,4259.871582,4244.487305,4232.820313,4221.794922,4518.461426,4480.897461,4363.205078,4445.641113,,,,,,,,,,,,,,,,,,,,,,,,,,,,,,,,,,,,,,,,,,,,,,,,,,,,,,,,,,,,,,,,,,,,,,
1769163514.091413,1769163514.092158,25.0,0.0,4326.025879,4247.692383,4261.153809,4282.563965,4237.179688,4247.692383,4265.256348,4245.769043,4232.05127,4216.410156,4515.641113,4477.05127,4359.615234,4439.871582,,,,,,,,,,,,,,,,,,,,,,,,,,,,,,,,,,,,,,,,,,,,,,,,,,,,,,,,,,,,,,,,,,,,,,
1769163514.099221,1769163514.100067,26.0,0.0,4329.102539,4246.153809,4260.769043,4287.94873,4237.563965,4246.922852,4263.717773,4239.871582,4231.410156,4220.769043,4510.128418,4475.128418,4365.0,4433.205078,,,,,,,,,,,,,,,,,,,,,,,,,,,,,,,,,,,,,,,,,,,,,,,,,,,,,,,,,,,,,,,,,,,,,,
1769163514.10703,1769163514.107875,27.0,0.0,4338.205078,4251.025879,4262.94873,4295.641113,4246.153809,4243.717773,4259.358887,4232.94873,4231.410156,4228.205078,4511.025879,4477.307617,4367.307617,4430.384766,,,,,,,,,,,,,,,,,,,,,,,,,,,,,,,,,,,,,,,,,,,,,,,,,,,,,,,,,,,,,,,,,,,,,,
1769163514.114838,1769163514.115883,28.0,0.0,4332.05127,4248.461426,4261.538574,4287.692383,4239.230957,4244.871582,4262.94873,4234.230957,4232.692383,4224.102539,4513.717773,4477.307617,4360.512695,4431.538574,,,,,,,,,,,,,,,,,,,,,,,,,,,,,,,,,,,,,,,,,,,,,,,,,,,,,,,,,,,,,,,,,,,,,,
1769163514.122647,1769163514.123692,29.0,0.0,4322.05127,4236.922852,4261.282227,4277.94873,4229.358887,4247.692383,4267.563965,4240.769043,4233.461426,4215.128418,4507.05127,4473.717773,4348.846191,4426.282227,,,,,,,,,,,,,,,,,,,,,,,,,,,,,,,,,,,,,,,,,,,,,,,,,,,,,,,,,,,,,,,,,,,,,,
1769163514.130455,1769163514.1314,30.0,0.0,4321.282227,4230.128418,4259.871582,4279.871582,4231.538574,4244.615234,4265.512695,4245.641113,4233.589844,4214.102539,4503.205078,4473.333496,4345.0,4422.94873,0.474562,0.469287,0.418994,0.358591,0.231828,0.244056,0.551312,0.418905,0.110727,0.120164,0.437587,0.228285,0.26838,0.338593,0.137107,0.338436,0.555646,0.405805,0.124622,0.103408,0.091834,0.076572,0.054908,0.045144,0.043176,0.2294,0.3396,0.151151,0.124762,0.120315,0.030951,0.117101,0.164964,0.074703,0.055234,0.115431,0.13569,0.224387,0.102828,0.099708,0.232745,0.230625,0.393312,0.163264,0.146667,0.412917,0.294206,0.313572,0.091728,0.088367,0.659455,0.383252,0.384286,0.233152,0.178532,1.86708,0.457384,0.283828,0.21851,0.239884,0.401129,0.275094,0.394542,0.154312,0.275875,0.387524,0.403155,0.529092,0.182525,0.362556
1769163514.138264,1769163514.139209,31.0,0.0,4319.871582,4232.436035,4253.333496,4281.153809,4234.230957,4237.179688,4263.461426,4247.05127,4235.641113,4218.333496,4508.589844,4475.512695,4352.179688,4427.94873,,,,,,,,,,,,,,,,,,,,,,,,,,,,,,,,,,,,,,,,,,,,,,,,,,,,,,,,,,,,,,,,,,,,,,
1769163514.146072,1769163514.146817,32.0,0.0,4320.769043,4241.153809,4253.589844,4281.794922,4234.615234,4237.05127,4265.512695,4245.0,4236.025879,4218.589844,4506.666504,4470.128418,4351.794922,4428.077148,,,,,,,,,,,,,,,,,,,,,,,,,,,,,,,,,,,,,,,,,,,,,,,,,,,,,,,,,,,,,,,,,,,,,,
1769163514.15388,1769163514.154626,33.0,0.0,4321.282227,4246.794922,4259.743652,4290.512695,4236.282227,4244.615234,4265.897461,4244.358887,4233.077148,4217.179688,4504.615234,4465.897461,4347.94873,4426.538574,,,,,,,,,,,,,,,,,,,,,,,,,,,,,,,,,,,,,,,,,,,,,,,,,,,,,,,,,,,,,,,,,,,,,,
1769163514.161689,1769163514.162334,34.0,0.0,4314.871582,4237.94873,4259.871582,4291.666504,4235.128418,4248.974121,4265.128418,4245.384766,4231.025879,4216.282227,4507.307617,4471.794922,4353.846191,4427.692383,,,,,,,,,,,,,,,,,,,,,,,,,,,,,,,,,,,,,,,,,,,,,,,,,,,,,,,,,,,,,,,,,,,,,,
1769163514.169497,1769163514.170143,35.0,0.0,4316.922852,4232.563965,4257.820313,4284.487305,4234.743652,4244.743652,4263.846191,4239.743652,4231.282227,4219.487305,4508.846191,4476.922852,4357.05127,4430.0,,,,,,,,,,,,,,,,,,,,,,,,,,,,,,,,,,,,,,,,,,,,,,,,,,,,,,,,,,,,,,,,,,,,,,
1769163514.177306,1769163514.178151,36.0,0.0,4328.846191,4243.589844,4262.179688,4286.025879,4236.794922,4242.05127,4261.666504,4232.179688,4228.846191,4214.871582,4507.94873,4474.871582,4355.769043,4430.897461,,,,,,,,,,,,,,,,,,,,,,,,,,,,,,,,,,,,,,,,,,,,,,,,,,,,,,,,,,,,,,,,,,,,,,
1769163514.185114,1769163514.18596,37.0,0.0,4328.589844,4248.205078,4264.615234,4290.384766,4236.538574,4243.846191,4262.436035,4231.666504,4225.897461,4201.794922,4506.410156,4471.922852,4356.282227,4428.589844,,,,,,,,,,,,,,,,,,,,,,,,,,,,,,,,,,,,,,,,,,,,,,,,,,,,,,,,,,,,,,,,,,,,,,
1769163514.192923,1769163514.193668,38.0,0.0,4321.153809,4243.717773,4259.102539,4286.282227,4234.358887,4239.358887,4263.846191,4235.384766,4228.461426,4204.102539,4508.333496,4475.0,4356.666504,4434.615234,,,,,,,,,,,,,,,,,,,,,,,,,,,,,,,,,,,,,,,,,,,,,,,,,,,,,,,,,,,,,,,,,,,,,,
1769163514.200731,1769163514.201477,39.0,0.0,4322.692383,4240.769043,4252.436035,4280.512695,4233.333496,4233.205078,4262.05127,4237.692383,4232.563965,4213.974121,4510.384766,4477.05127,4356.666504,4441.666504,,,,,,,,,,,,,,,,,,,,,,,,,,,,,,,,,,,,,,,,,,,,,,,,,,,,,,,,,,,,,,,,,,,,,,
1769163514.20854,1769163514.209485,40.0,0.0,4322.94873,4236.153809,4250.256348,4278.974121,4232.563965,4234.871582,4260.897461,4241.153809,4232.692383,4211.025879,4508.589844,4470.0,4353.461426,4434.487305,,,,,,,,,,,,,,,,,,,,,,,,,,,,,,,,,,,,,,,,,,,,,,,,,,,,,,,,,,,,,,,,,,,,,,
1769163514.216348,1769163514.217293,41.0,0.0,4320.641113,4232.179688,4250.897461,4279.615234,4230.128418,4235.641113,4262.05127,4246.410156,4232.692383,4206.153809,4506.666504,4462.563965,4346.538574,4424.615234,,,,,,,,,,,,,,,,,,,,,,,,,,,,,,,,,,,,,,,,,,,,,,,,,,,,,,,,,,,,,,,,,,,,,,
1769163514.224157,1769163514.225202,42.0,0.0,4323.974121,4235.641113,4250.128418,4281.794922,4227.436035,4229.871582,4262.307617,4247.436035,4233.974121,4210.512695,4507.94873,4467.307617,4345.897461,4426.666504,,,,,,,,,,,,,,,,,,,,,,,,,,,,,,,,,,,,,,,,,,,,,,,,,,,,,,,,,,,,,,,,,,,,,,
1769163514.231965,1769163514.23301,43.0,0.0,4326.922852,4242.563965,4254.102539,4284.615234,4228.461426,4231.153809,4262.692383,4244.230957,4234.615234,4213.333496,4507.94873,4474.871582,4353.461426,4436.538574,,,,,,,,,,,,,,,,,,,,,,,,,,,,,,,,,,,,,,,,,,,,,,,,,,,,,,,,,,,,,,,,,,,,,,
1769163514.239774,1769163514.241018,44.0,0.0,4326.153809,4245.512695,4261.794922,4287.307617,4232.179688,4242.307617,4264.615234,4245.0,4235.384766,4212.563965,4509.615234,4475.128418,4357.94873,4442.820313,,,,,,,,,,,,,,,,,,,,,,,,,,,,,,,,,,,,,,,,,,,,,,,,,,,,,,,,,,,,,,,,,,,,,,
1769163514.247582,1769163514.248827,45.0,0.0,4326.538574,4246.538574,4262.436035,4292.692383,4232.820313,4243.461426,4265.0,4245.769043,4233.461426,4217.820313,4513.461426,4475.769043,4359.487305,4443.461426,,,,,,,,,,,,,,,,,,,,,,,,,,,,,,,,,,,,,,,,,,,,,,,,,,,,,,,,,,,,,,,,,,,,,,
1769163514.255391,1769163514.256535,46.0,0.0,4331.282227,4247.436035,4263.077148,4295.256348,4231.922852,4235.256348,4262.179688,4237.563965,4230.769043,4217.05127,4511.153809,4474.615234,4355.897461,4445.128418,0.539134,0.518243,0.488658,0.378301,0.2461,0.284948,0.599296,0.498011,0.120432,0.120946,0.533691,0.244991,0.297744,0.373894,0.126905,0.356467,0.567399,0.418836,0.119692,0.112551,0.067567,0.057887,0.046364,0.039272,0.029811,0.207781,0.328146,0.159254,0.127488,0.127169,0.035009,0.098074,0.207738,0.074986,0.057922,0.110349,0.157218,0.289559,0.102134,0.112231,0.2295,0.225676,0.503121,0.155865,0.144536,0.37547,0.283984,0.31814,0.10551,0.093916,0.567561,0.313394,0.400988,0.212787,0.166804,2.01285,0.416782,0.306261,0.203658,0.247279,0.331112,0.318579,0.513279,0.142469,0.253035,0.34177,0.356353,0.585427,0.178155,0.354944
1769163514.263199,1769163514.264344,47.0,0.0,4327.563965,4241.282227,4262.820313,4289.102539,4232.94873,4238.589844,4261.025879,4232.563965,4231.153809,4207.692383,4506.282227,4464.358887,4347.05127,4441.282227,,,,,,,,,,,,,,,,,,,,,,,,,,,,,,,,,,,,,,,,,,,,,,,,,,,,,,,,,,,,,,,,,,,,,,
1769163514.271007,1769163514.272352,48.0,0.0,4316.410156,4230.512695,4253.333496,4278.846191,4232.94873,4249.743652,4264.871582,4242.307617,4234.615234,4207.179688,4506.410156,4458.589844,4342.436035,4427.820313,,,,,,,,,,,,,,,,,,,,,,,,,,,,,,,,,,,,,,,,,,,,,,,,,,,,,,,,,,,,,,,,,,,,,,
1769163514.278816,1769163514.28016,49.0,0.0,4317.179688,4227.820313,4251.666504,4277.05127,4230.128418,4248.461426,4267.307617,4250.769043,4241.282227,4216.538574,4508.077148,4469.358887,4351.922852,4429.615234,,,,,,,,,,,,,,,,,,,,,,,,,,,,,,,,,,,,,,,,,,,,,,,,,,,,,,,,,,,,,,,,,,,,,,
1769163514.286624,1769163514.288069,50.0,0.0,4327.820313,4232.307617,4263.205078,4283.589844,4228.589844,4240.384766,4264.615234,4247.692383,4248.333496,4221.153809,4514.871582,4479.743652,4366.282227,4447.179688,,,,,,,,,,,,,,,,,,,,,,,,,,,,,,,,,,,,,,,,,,,,,,,,,,,,,,,,,,,,,,,,,,,,,,
1769163514.294433,1769163514.295877,51.0,0.0,4330.256348,4237.94873,4266.922852,4289.230957,4229.743652,4245.128418,4264.487305,4246.025879,4248.846191,4219.615234,4523.717773,4475.641113,4365.897461,4448.461426,,,,,,,,,,,,,,,,,,,,,,,,,,,,,,,,,,,,,,,,,,,,,,,,,,,,,,,,,,,,,,,,,,,,,,
1769163514.302241,1769163514.303886,52.0,0.0,4326.666504,4244.871582,4262.820313,4291.922852,4232.94873,4250.384766,4267.179688,4248.333496,4240.897461,4216.666504,4517.563965,4471.025879,4356.282227,4439.358887,,,,,,,,,,,,,,,,,,,,,,,,,,,,,,,,,,,,,,,,,,,,,,,,,,,,,,,,,,,,,,,,,,,,,,
1769163514.31005,1769163514.311694,53.0,0.0,4327.820313,4248.461426,4264.615234,4294.230957,4235.769043,4240.384766,4263.717773,4247.05127,4233.846191,4214.743652,4513.205078,4474.358887,4359.230957,4439.743652,,,,,,,,,,,,,,,,,,,,,,,,,,,,,,,,,,,,,,,,,,,,,,,,,,,,,,,,,,,,,,,,,,,,,,
1769163514.317858,1769163514.319403,54.0,0.0,4327.820313,4246.025879,4266.282227,4293.589844,4235.769043,4235.512695,4260.769043,4246.538574,4233.589844,4213.077148,4519.743652,4477.307617,4366.282227,4443.461426,,,,,,,,,,,,,,,,,,,,,,,,,,,,,,,,,,,,,,,,,,,,,,,,,,,,,,,,,,,,,,,,,,,,,,
1769163514.325667,1769163514.327211,55.0,0.0,4324.743652,4243.974121,4263.846191,4290.0,4235.641113,4245.769043,4262.563965,4247.820313,4234.358887,4206.666504,4515.0,4476.153809,4360.256348,4444.487305,,,,,,,,,,,,,,,,,,,,,,,,,,,,,,,,,,,,,,,,,,,,,,,,,,,,,,,,,,,,,,,,,,,,,,
1769163514.333475,1769163514.33482,56.0,0.0,4328.077148,4245.0,4268.333496,4291.153809,4235.641113,4249.615234,4261.922852,4243.717773,4230.897461,4200.0,4505.384766,4473.846191,4351.922852,4444.230957,,,,,,,,,,,,,,,,,,,,,,,,,,,,,,,,,,,,,,,,,,,,,,,,,,,,,,,,,,,,,,,,,,,,,,
1769163514.341283,1769163514.342628,57.0,0.0,4336.282227,4250.128418,4276.794922,4296.666504,4233.077148,4245.256348,4261.538574,4236.153809,4227.05127,4200.256348,4506.794922,4473.077148,4354.102539,4443.589844,,,,,,,,,,,,,,,,,,,,,,,,,,,,,,,,,,,,,,,,,,,,,,,,,,,,,,,,,,,,,,,,,,,,,,
1769163514.349092,1769163514.350337,58.0,0.0,4338.717773,4252.436035,4279.102539,4297.307617,4230.128418,4244.871582,4261.538574,4233.846191,4227.05127,4204.358887,4511.153809,4474.743652,4358.333496,4444.358887,,,,,,,,,,,,,,,,,,,,,,,,,,,,,,,,,,,,,,,,,,,,,,,,,,,,,,,,,,,,,,,,,,,,,,
1769163514.3569,1769163514.358145,59.0,0.0,4332.692383,4249.230957,4274.102539,4293.461426,4230.512695,4241.282227,4258.846191,4239.358887,4230.256348,4208.333496,4516.410156,4475.641113,4358.846191,4444.871582,,,,,,,,,,,,,,,,,,,,,,,,,,,,,,,,,,,,,,,,,,,,,,,,,,,,,,,,,,,,,,,,,,,,,,
1769163514.364709,1769163514.365754,60.0,0.0,4326.538574,4247.05127,4268.205078,4291.282227,4232.692383,4239.230957,4259.358887,4243.589844,4233.461426,4207.436035,4518.077148,4473.333496,4356.922852,4443.461426,,,,,,,,,,,,,,,,,,,,,,,,,,,,,,,,,,,,,,,,,,,,,,,,,,,,,,,,,,,,,,,,,,,,,,
1769163514.372517,1769163514.373562,61.0,0.0,4322.05127,4245.897461,4264.743652,4290.641113,4234.358887,4246.538574,4263.333496,4242.179688,4229.102539,4201.153809,4507.563965,4467.692383,4351.025879,4436.922852,,,,,,,,,,,,,,,,,,,,,,,,,,,,,,,,,,,,,,,,,,,,,,,,,,,,,,,,,,,,,,,,,,,,,,
1769163514.380326,1769163514.381271,62.0,0.0,4322.05127,4247.820313,4265.512695,4291.153809,4234.871582,4242.692383,4261.153809,4237.692383,4225.0,4200.512695,4503.589844,4462.692383,4348.205078,4429.743652,0.609485,0.531825,0.551836,0.393903,0.252422,0.362244,0.604939,0.55818,0.132884,0.124909,0.620008,0.238244,0.315011,0.38572,0.115575,0.378686,0.544591,0.419431,0.119409,0.122903,0.054443,0.053796,0.039089,0.034875,0.021948,0.173148,0.30036,0.170045,0.128948,0.129974,0.049788,0.105964,0.265368,0.081983,0.067076,0.130007,0.200573,0.364565,0.105224,0.131124,0.239524,0.242619,0.597463,0.149139,0.137493,0.337233,0.275987,0.300107,0.121684,0.098762,0.47788,0.240246,0.390353,0.180032,0.147485,1.933638,0.369827,0.328068,0.178788,0.26242,0.282302,0.366915,0.612839,0.138667,0.230356,0.322436,0.310125,0.593779,0.168225,0.338859
1769163514.388134,1769163514.389079,63.0,0.0,4321.538574,4242.820313,4266.794922,4288.333496,4234.102539,4232.179688,4259.102539,4236.025879,4229.230957,4205.897461,4510.256348,4459.615234,4350.897461,4427.692383,,,,,,,,,,,,,,,,,,,,,,,,,,,,,,,,,,,,,,,,,,,,,,,,,,,,,,,,,,,,,,,,,,,,,,
1769163514.395943,1769163514.396688,64.0,0.0,4312.436035,4233.717773,4263.461426,4284.230957,4232.820313,4238.717773,4262.820313,4239.358887,4230.641113,4204.487305,4508.589844,4458.589844,4348.974121,4429.487305,,,,,,,,,,,,,,,,,,,,,,,,,,,,,,,,,,,,,,,,,,,,,,,,,,,,,,,,,,,,,,,,,,,,,,
1769163514.403751,1769163514.404496,65.0,0.0,4307.436035,4239.358887,4262.692383,4288.333496,4232.307617,4247.94873,4263.333496,4238.974121,4222.563965,4203.717773,4506.410156,4461.025879,4348.333496,4431.410156,,,,,,,,,,,,,,,,,,,,,,,,,,,,,,,,,,,,,,,,,,,,,,,,,,,,,,,,,,,,,,,,,,,,,,
1769163514.411559,1769163514.412205,66.0,0.0,4311.538574,4250.256348,4264.871582,4295.897461,4232.94873,4243.974121,4260.512695,4234.743652,4219.487305,4212.563965,4511.025879,4462.05127,4353.846191,4431.794922,,,,,,,,,,,,,,,,,,,,,,,,,,,,,,,,,,,,,,,,,,,,,,,,,,,,,,,,,,,,,,,,,,,,,,
1769163514.419368,1769163514.420013,67.0,0.0,4309.743652,4247.563965,4262.05127,4294.230957,4232.436035,4241.538574,4261.282227,4233.333496,4222.436035,4212.820313,4506.410156,4458.205078,4350.897461,4428.589844,,,,,,,,,,,,,,,,,,,,,,,,,,,,,,,,,,,,,,,,,,,,,,,,,,,,,,,,,,,,,,,,,,,,,,
1769163514.427176,1769163514.428021,68.0,0.0,4301.410156,4243.205078,4259.871582,4290.128418,4230.0,4244.743652,4262.692383,4234.743652,4227.307617,4206.922852,4499.871582,4456.538574,4341.538574,4425.256348,,,,,,,,,,,,,,,,,,,,,,,,,,,,,,,,,,,,,,,,,,,,,,,,,,,,,,,,,,,,,,,,,,,,,,
1769163514.434985,1769163514.43583,69.0,0.0,4302.307617,4246.666504,4264.615234,4292.436035,4228.461426,4243.077148,4261.153809,4236.282227,4230.256348,4207.563965,4504.102539,4459.743652,4340.897461,4427.179688,,,,,,,,,,,,,,,,,,,,,,,,,,,,,,,,,,,,,,,,,,,,,,,,,,,,,,,,,,,,,,,,,,,,,,
1769163514.442793,1769163514.443738,70.0,0.0,4306.666504,4246.538574,4266.410156,4289.615234,4229.102539,4242.436035,4259.743652,4236.794922,4223.974121,4206.794922,4507.820313,4459.871582,4344.871582,4427.692383,,,,,,,,,,,,,,,,,,,,,,,,,,,,,,,,,,,,,,,,,,,,,,,,,,,,,,,,,,,,,,,,,,,,,,
1769163514.450602,1769163514.451547,71.0,0.0,4301.025879,4242.820313,4264.230957,4284.358887,4229.871582,4249.102539,4261.538574,4236.025879,4217.94873,4201.666504,4505.128418,4458.461426,4348.717773,4422.563965,,,,,,,,,,,,,,,,,,,,,,,,,,,,,,,,,,,,,,,,,,,,,,,,,,,,,,,,,,,,,,,,,,,,,,
1769163514.45841,1769163514.459555,72.0,0.0,4294.871582,4243.333496,4265.384766,4288.077148,4229.102539,4245.512695,4263.974121,4234.358887,4219.358887,4203.974121,4505.128418,4459.230957,4351.794922,4421.538574,,,,,,,,,,,,,,,,,,,,,,,,,,,,,,,,,,,,,,,,,,,,,,,,,,,,,,,,,,,,,,,,,,,,,,
1769163514.466219,1769163514.467363,73.0,0.0,4299.743652,4245.512695,4267.692383,4296.666504,4230.128418,4235.0,4259.487305,4235.384766,4219.487305,4207.05127,4506.538574,4460.769043,4351.153809,4424.871582,,,,,,,,,,,,,,,,,,,,,,,,,,,,,,,,,,,,,,,,,,,,,,,,,,,,,,,,,,,,,,,,,,,,,,
1769163514.474027,1769163514.475072,74.0,0.0,4306.794922,4249.743652,4267.179688,4297.05127,4232.05127,4236.794922,4252.692383,4235.769043,4220.128418,4204.487305,4504.871582,4460.641113,4352.179688,4427.307617,,,,,,,,,,,,,,,,,,,,,,,,,,,,,,,,,,,,,,,,,,,,,,,,,,,,,,,,,,,,,,,,,,,,,,
1769163514.481835,1769163514.48288,75.0,0.0,4301.794922,4244.615234,4267.307617,4289.358887,4232.307617,4244.102539,4255.128418,4236.410156,4227.436035,4205.769043,4506.153809,4459.358887,4359.358887,4428.589844,,,,,,,,,,,,,,,,,,,,,,,,,,,,,,,,,,,,,,,,,,,,,,,,,,,,,,,,,,,,,,,,,,,,,,
1769163514.489644,1769163514.490889,76.0,0.0,4293.333496,4233.461426,4266.666504,4287.05127,4232.307617,4247.94873,4263.205078,4236.025879,4229.487305,4204.102539,4504.102539,4460.641113,4358.717773,4429.102539,,,,,,,,,,,,,,,,,,,,,,,,,,,,,,,,,,,,,,,,,,,,,,,,,,,,,,,,,,,,,,,,,,,,,,
1769163514.497452,1769163514.498697,77.0,0.0,4296.666504,4236.153809,4266.153809,4290.641113,4232.307617,4250.897461,4265.128418,4235.128418,4227.436035,4200.641113,4500.512695,4461.794922,4350.128418,4431.922852,,,,,,,,,,,,,,,,,,,,,,,,,,,,,,,,,,,,,,,,,,,,,,,,,,,,,,,,,,,,,,,,,,,,,,
1769163514.505261,1769163514.506406,78.0,0.0,4306.538574,4247.05127,4271.282227,4292.563965,4231.794922,4245.256348,4260.256348,4240.256348,4232.179688,4208.974121,4506.922852,4465.769043,4351.794922,4439.871582,0.670853,0.509211,0.591752,0.395263,0.249951,0.44913,0.563824,0.589649,0.148273,0.130457,0.661488,0.215769,0.31932,0.373205,0.106802,0.386205,0.491817,0.412284,0.124795,0.130987,0.04809,0.060786,0.035506,0.031377,0.01998,0.148463,0.267755,0.183761,0.133214,0.133024,0.074878,0.138969,0.325077,0.091597,0.078921,0.172013,0.261713,0.444879,0.110082,0.152328,0.24551,0.282843,0.654205,0.144049,0.126659,0.309257,0.27593,0.267921,0.141896,0.104026,0.388584,0.18172,0.352618,0.145697,0.127115,1.627808,0.321882,0.342236,0.153279,0.285862,0.252795,0.4119,0.675822,0.141659,0.211914,0.293072,0.277559,0.55584,0.156168,0.317627
1769163514.513069,1769163514.514214,79.0,0.0,4308.461426,4247.436035,4275.0,4292.05127,4231.538574,4235.897461,4257.307617,4247.05127,4236.410156,4217.94873,4512.692383,4472.307617,4360.769043,4444.615234,,,,,,,,,,,,,,,,,,,,,,,,,,,,,,,,,,,,,,,,,,,,,,,,,,,,,,,,,,,,,,,,,,,,,,
1769163514.520878,1769163514.521823,80.0,0.0,4302.307617,4242.563965,4269.743652,4292.436035,4232.05127,4239.102539,4259.615234,4246.666504,4235.512695,4216.153809,4511.666504,4474.102539,4362.94873,4444.102539,,,,,,,,,,,,,,,,,,,,,,,,,,,,,,,,,,,,,,,,,,,,,,,,,,,,,,,,,,,,,,,,,,,,,,
1769163514.528686,1769163514.529631,81.0,0.0,4303.717773,4244.615234,4263.846191,4292.436035,4232.179688,4245.256348,4263.846191,4245.128418,4235.0,4212.05127,4516.282227,4474.102539,4360.384766,4444.487305,,,,,,,,,,,,,,,,,,,,,,,,,,,,,,,,,,,,,,,,,,,,,,,,,,,,,,,,,,,,,,,,,,,,,,
1769163514.536495,1769163514.53734,82.0,0.0,4308.461426,4246.538574,4267.94873,4293.846191,4231.794922,4244.871582,4264.615234,4247.05127,4235.512695,4212.820313,4522.820313,4477.563965,4357.820313,4444.102539,,,,,,,,,,,,,,,,,,,,,,,,,,,,,,,,,,,,,,,,,,,,,,,,,,,,,,,,,,,,,,,,,,,,,,
1769163514.544303,1769163514.545148,83.0,0.0,4302.179688,4246.153809,4279.743652,4296.538574,4231.153809,4247.05127,4262.436035,4246.922852,4233.461426,4212.820313,4521.410156,4479.358887,4359.487305,4442.94873,,,,,,,,,,,,,,,,,,,,,,,,,,,,,,,,,,,,,,,,,,,,,,,,,,,,,,,,,,,,,,,,,,,,,,
1769163514.552112,1769163514.553156,84.0,0.0,4293.333496,4246.025879,4279.743652,4293.589844,4230.512695,4247.436035,4262.563965,4245.256348,4232.307617,4213.589844,4520.0,4476.538574,4362.179688,4445.0,,,,,,,,,,,,,,,,,,,,,,,,,,,,,,,,,,,,,,,,,,,,,,,,,,,,,,,,,,,,,,,,,,,,,,
1769163514.55992,1769163514.560965,85.0,0.0,4293.333496,4245.128418,4268.205078,4292.307617,4229.743652,4242.94873,4262.05127,4243.846191,4232.307617,4217.820313,4521.153809,4474.230957,4360.897461,4443.846191,,,,,,,,,,,,,,,,,,,,,,,,,,,,,,,,,,,,,,,,,,,,,,,,,,,,,,,,,,,,,,,,,,,,,,
1769163514.567729,1769163514.568673,86.0,0.0,4295.384766,4246.282227,4269.102539,4295.512695,4229.615234,4242.94873,4261.794922,4243.717773,4232.179688,4219.102539,4520.641113,4473.461426,4360.769043,4441.794922,,,,,,,,,,,,,,,,,,,,,,,,,,,,,,,,,,,,,,,,,,,,,,,,,,,,,,,,,,,,,,,,,,,,,,
1769163514.575537,1769163514.576482,87.0,0.0,4298.077148,4248.589844,4280.897461,4295.512695,4231.153809,4246.922852,4263.717773,4245.641113,4232.94873,4218.205078,4521.410156,4474.871582,4366.410156,4443.717773,,,,,,,,,,,,,,,,,,,,,,,,,,,,,,,,,,,,,,,,,,,,,,,,,,,,,,,,,,,,,,,,,,,,,,
1769163514.583346,1769163514.584091,88.0,0.0,4304.871582,4251.666504,4282.179688,4295.769043,4231.922852,4246.025879,4262.307617,4245.256348,4236.410156,4219.358887,4522.307617,4476.538574,4368.077148,4445.769043,,,,,,,,,,,,,,,,,,,,,,,,,,,,,,,,,,,,,,,,,,,,,,,,,,,,,,,,,,,,,,,,,,,,,,
1769163514.591154,1769163514.591899,89.0,0.0,4303.974121,4251.153809,4277.179688,4298.205078,4231.666504,4240.897461,4257.307617,4242.820313,4238.077148,4220.0,4521.153809,4474.615234,4365.641113,4445.0,,,,,,,,,,,,,,,,,,,,,,,,,,,,,,,,,,,,,,,,,,,,,,,,,,,,,,,,,,,,,,,,,,,,,,
1769163514.598962,1769163514.599608,90.0,0.0,4296.025879,4251.666504,4276.282227,4298.846191,4232.94873,4240.769043,4257.563965,4244.102539,4237.179688,4218.077148,4521.153809,4473.589844,4365.897461,4443.717773,,,,,,,,,,,,,,,,,,,,,,,,,,,,,,,,,,,,,,,,,,,,,,,,,,,,,,,,,,,,,,,,,,,,,,
1769163514.606771,1769163514.607416,91.0,0.0,4294.487305,4253.846191,4276.153809,4297.307617,4234.487305,4246.922852,4263.077148,4247.307617,4241.666504,4218.333496,4521.794922,4473.333496,4366.410156,4441.794922,,,,,,,,,,,,,,,,,,,,,,,,,,,,,,,,,,,,,,,,,,,,,,,,,,,,,,,,,,,,,,,,,,,,,,
1769163514.614579,1769163514.615424,92.0,0.0,4296.538574,4255.0,4275.897461,4298.461426,4234.102539,4247.94873,4264.871582,4246.794922,4246.794922,4220.769043,4521.922852,4475.0,4368.974121,4442.436035,,,,,,,,,,,,,,,,,,,,,,,,,,,,,,,,,,,,,,,,,,,,,,,,,,,,,,,,,,,,,,,,,,,,,,
1769163514.622388,1769163514.623233,93.0,0.0,4295.641113,4256.282227,4275.512695,4299.230957,4232.94873,4240.384766,4262.179688,4246.153809,4242.820313,4221.282227,4524.230957,4478.974121,4377.563965,4452.436035,,,,,,,,,,,,,,,,,,,,,,,,,,,,,,,,,,,,,,,,,,,,,,,,,,,,,,,,,,,,,,,,,,,,,,
1769163514.630196,1769163514.631141,94.0,0.0,4294.615234,4255.897461,4276.410156,4296.025879,4233.077148,4238.589844,4261.153809,4246.794922,4236.025879,4219.487305,4526.282227,4479.102539,4380.641113,4458.974121,0.713001,0.466886,0.597304,0.379246,0.241795,0.519659,0.499347,0.596732,0.168433,0.137278,0.655414,0.195596,0.314832,0.344435,0.10189,0.370425,0.426637,0.403338,0.136354,0.134576,0.04431,0.076948,0.038876,0.028667,0.02314,0.141586,0.239465,0.195879,0.141538,0.140503,0.105323,0.182505,0.36657,0.099152,0.089639,0.228151,0.330218,0.527668,0.114543,0.170135,0.242456,0.337299,0.663743,0.14026,0.113706,0.321107,0.284103,0.23441,0.166665,0.111042,0.319154,0.15021,0.296989,0.120995,0.112359,1.186282,0.282957,0.342287,0.139437,0.310348,0.248688,0.451037,0.692404,0.153562,0.19901,0.279711,0.273963,0.490467,0.153112,0.294022
1769163514.638005,1769163514.638949,95.0,0.0,4294.871582,4257.563965,4280.512695,4295.256348,4233.205078,4242.94873,4263.974121,4247.692383,4236.538574,4218.846191,4525.128418,4478.205078,4375.641113,4449.230957,,,,,,,,,,,,,,,,,,,,,,,,,,,,,,,,,,,,,,,,,,,,,,,,,,,,,,,,,,,,,,,,,,,,,,
1769163514.645813,1769163514.646958,96.0,0.0,4296.410156,4260.384766,4279.487305,4298.077148,4232.307617,4243.717773,4264.743652,4247.436035,4236.025879,4218.205078,4523.717773,4480.128418,4372.05127,4443.846191,,,,,,,,,,,,,,,,,,,,,,,,,,,,,,,,,,,,,,,,,,,,,,,,,,,,,,,,,,,,,,,,,,,,,,
1769163514.653622,1769163514.654766,97.0,0.0,4295.512695,4256.794922,4279.743652,4297.563965,4232.692383,4243.333496,4259.743652,4242.94873,4231.538574,4216.282227,4523.974121,4479.871582,4376.538574,4456.282227,,,,,,,,,,,,,,,,,,,,,,,,,,,,,,,,,,,,,,,,,,,,,,,,,,,,,,,,,,,,,,,,,,,,,,
1769163514.66143,1769163514.662674,98.0,0.0,4285.512695,4248.333496,4279.230957,4292.94873,4233.205078,4246.794922,4260.256348,4242.307617,4238.717773,4217.692383,4525.769043,4477.436035,4382.307617,4459.871582,,,,,,,,,,,,,,,,,,,,,,,,,,,,,,,,,,,,,,,,,,,,,,,,,,,,,,,,,,,,,,,,,,,,,,
1769163514.669238,1769163514.670483,99.0,0.0,4274.487305,4244.102539,4267.563965,4289.871582,4231.666504,4250.512695,4266.922852,4249.615234,4246.025879,4219.871582,4523.846191,4475.897461,4376.794922,4445.512695,,,,,,,,,,,,,,,,,,,,,,,,,,,,,,,,,,,,,,,,,,,,,,,,,,,,,,,,,,,,,,,,,,,,,,
1769163514.677047,1769163514.678092,100.0,0.0,4273.846191,4247.563965,4262.563965,4292.436035,4233.333496,4245.897461,4264.358887,4246.410156,4237.563965,4218.974121,4517.692383,4470.128418,4365.256348,4437.94873,,,,,,,,,,,,,,,,,,,,,,,,,,,,,,,,,,,,,,,,,,,,,,,,,,,,,,,,,,,,,,,,,,,,,,
1769163514.684855,1769163514.6859,101.0,0.0,4279.230957,4256.410156,4274.743652,4301.282227,4236.794922,4240.0,4257.94873,4235.769043,4230.128418,4218.717773,4516.794922,4465.769043,4365.384766,4441.666504,,,,,,,,,,,,,,,,,,,,,,,,,,,,,,,,,,,,,,,,,,,,,,,,,,,,,,,,,,,,,,,,,,,,,,
1769163514.692664,1769163514.693808,102.0,0.0,4281.922852,4263.461426,4281.538574,4306.922852,4233.717773,4242.05127,4260.256348,4239.358887,4234.871582,4219.871582,4522.179688,4471.794922,4374.615234,4443.333496,,,,,,,,,,,,,,,,,,,,,,,,,,,,,,,,,,,,,,,,,,,,,,,,,,,,,,,,,,,,,,,,,,,,,,
1769163514.700472,1769163514.701617,103.0,0.0,4280.384766,4258.461426,4278.077148,4302.436035,4228.974121,4246.666504,4263.589844,4248.589844,4235.0,4218.077148,4522.179688,4478.717773,4372.563965,4443.333496,,,,,,,,,,,,,,,,,,,,,,,,,,,,,,,,,,,,,,,,,,,,,,,,,,,,,,,,,,,,,,,,,,,,,,
1769163514.708281,1769163514.709325,104.0,0.0,4281.666504,4257.179688,4279.230957,4302.179688,4231.922852,4246.153809,4262.05127,4247.05127,4228.717773,4216.153809,4519.871582,4475.384766,4363.333496,4443.589844,,,,,,,,,,,,,,,,,,,,,,,,,,,,,,,,,,,,,,,,,,,,,,,,,,,,,,,,,,,,,,,,,,,,,,
1769163514.716089,1769163514.717134,105.0,0.0,4287.94873,4267.05127,4282.05127,4310.384766,4236.794922,4245.256348,4260.256348,4244.102539,4229.102539,4218.333496,4522.307617,4470.641113,4367.179688,4438.974121,,,,,,,,,,,,,,,,,,,,,,,,,,,,,,,,,,,,,,,,,,,,,,,,,,,,,,,,,,,,,,,,,,,,,,
1769163514.723898,1769163514.724842,106.0,0.0,4294.743652,4270.512695,4285.384766,4314.230957,4234.487305,4248.589844,4262.563965,4247.436035,4233.077148,4220.512695,4526.153809,4479.615234,4378.077148,4443.333496,,,,,,,,,,,,,,,,,,,,,,,,,,,,,,,,,,,,,,,,,,,,,,,,,,,,,,,,,,,,,,,,,,,,,,
1769163514.731706,1769163514.732651,107.0,0.0,4293.974121,4265.128418,4290.128418,4310.897461,4235.128418,4250.128418,4266.538574,4249.743652,4235.512695,4221.282227,4528.974121,4492.436035,4383.077148,4458.717773,,,,,,,,,,,,,,,,,,,,,,,,,,,,,,,,,,,,,,,,,,,,,,,,,,,,,,,,,,,,,,,,,,,,,,
1769163514.739514,1769163514.740659,108.0,0.0,4290.769043,4267.179688,4290.512695,4310.384766,4241.538574,4248.461426,4266.153809,4248.461426,4234.871582,4221.666504,4528.717773,4491.025879,4380.641113,4455.769043,,,,,,,,,,,,,,,,,,,,,,,,,,,,,,,,,,,,,,,,,,,,,,,,,,,,,,,,,,,,,,,,,,,,,,
1769163514.747323,1769163514.748467,109.0,0.0,4292.563965,4274.615234,4292.179688,4313.205078,4241.153809,4248.077148,4262.436035,4247.179688,4234.871582,4221.153809,4524.102539,4484.358887,4374.102539,4441.922852,,,,,,,,,,,,,,,,,,,,,,,,,,,,,,,,,,,,,,,,,,,,,,,,,,,,,,,,,,,,,,,,,,,,,,
1769163514.755131,1769163514.756376,110.0,0.0,4288.846191,4270.641113,4294.358887,4310.897461,4233.589844,4250.384766,4263.333496,4248.974121,4240.128418,4219.358887,4523.461426,4487.179688,4375.769043,4449.230957,0.754814,0.423696,0.564262,0.350223,0.232243,0.549142,0.442263,0.588197,0.195286,0.145224,0.608639,0.192678,0.305586,0.311408,0.099538,0.336753,0.371441,0.396336,0.153858,0.132914,0.044273,0.098562,0.050694,0.02712,0.029372,0.167964,0.220032,0.202611,0.153221,0.154103,0.135559,0.217239,0.372714,0.10068,0.096017,0.294284,0.387728,0.606687,0.116851,0.179241,0.246534,0.385211,0.631571,0.136875,0.100517,0.376574,0.293989,0.209361,0.19365,0.119878,0.288552,0.144808,0.238197,0.11224,0.106866,0.775376,0.258411,0.322707,0.143144,0.323325,0.277664,0.4779,0.661218,0.177123,0.190899,0.306142,0.297063,0.4208,0.168195,0.269255
1769163514.76294,1769163514.764184,111.0,0.0,4279.102539,4260.256348,4293.461426,4306.410156,4230.0,4248.846191,4263.974121,4251.794922,4245.769043,4218.461426,4526.538574,4493.589844,4381.410156,4463.077148,,,,,,,,,,,,,,,,,,,,,,,,,,,,,,,,,,,,,,,,,,,,,,,,,,,,,,,,,,,,,,,,,,,,,,
1769163514.770748,1769163514.771793,112.0,0.0,4278.974121,4260.256348,4290.384766,4307.179688,4231.666504,4242.563965,4261.666504,4250.0,4244.102539,4220.128418,4525.641113,4491.410156,4377.692383,4463.461426,,,,,,,,,,,,,,,,,,,,,,,,,,,,,,,,,,,,,,,,,,,,,,,,,,,,,,,,,,,,,,,,,,,,,,
1769163514.778557,1769163514.779601,113.0,0.0,4281.025879,4265.769043,4285.128418,4310.128418,4232.563965,4243.205078,4263.205078,4246.410156,4235.256348,4218.333496,4522.692383,4481.538574,4371.794922,4456.794922,,,,,,,,,,,,,,,,,,,,,,,,,,,,,,,,,,,,,,,,,,,,,,,,,,,,,,,,,,,,,,,,,,,,,,
1769163514.786365,1769163514.78731,114.0,0.0,4274.871582,4264.102539,4280.256348,4306.025879,4232.820313,4247.05127,4263.974121,4246.282227,4231.282227,4215.384766,4522.05127,4473.846191,4371.025879,4447.692383,,,,,,,,,,,,,,,,,,,,,,,,,,,,,,,,,,,,,,,,,,,,,,,,,,,,,,,,,,,,,,,,,,,,,,
1769163514.794174,1769163514.795118,115.0,0.0,4272.436035,4263.461426,4279.487305,4304.230957,4233.333496,4243.205078,4260.256348,4248.846191,4237.94873,4222.05127,4524.615234,4475.641113,4371.922852,4444.743652,,,,,,,,,,,,,,,,,,,,,,,,,,,,,,,,,,,,,,,,,,,,,,,,,,,,,,,,,,,,,,,,,,,,,,
1769163514.801982,1769163514.802727,116.0,0.0,4274.615234,4266.282227,4281.538574,4306.153809,4232.820313,4240.0,4259.358887,4247.692383,4239.358887,4231.153809,4527.563965,4479.615234,4375.256348,4451.282227,,,,,,,,,,,,,,,,,,,,,,,,,,,,,,,,,,,,,,,,,,,,,,,,,,,,,,,,,,,,,,,,,,,,,,
1769163514.80979,1769163514.810535,117.0,0.0,4267.179688,4258.205078,4279.230957,4300.0,4232.05127,4244.230957,4261.794922,4245.0,4233.205078,4231.538574,4525.769043,4479.358887,4382.436035,4452.179688,,,,,,,,,,,,,,,,,,,,,,,,,,,,,,,,,,,,,,,,,,,,,,,,,,,,,,,,,,,,,,,,,,,,,,
1769163514.817599,1769163514.818244,118.0,0.0,4253.333496,4245.769043,4270.512695,4291.410156,4231.922852,4247.692383,4262.307617,4245.512695,4235.512695,4230.256348,4524.871582,4477.563965,4382.820313,4445.384766,,,,,,,,,,,,,,,,,,,,,,,,,,,,,,,,,,,,,,,,,,,,,,,,,,,,,,,,,,,,,,,,,,,,,,
1769163514.825407,1769163514.826052,119.0,0.0,4245.769043,4244.230957,4265.128418,4289.358887,4232.692383,4246.922852,4262.179688,4247.94873,4242.179688,4229.615234,4527.820313,4475.897461,4373.846191,4444.102539,,,,,,,,,,,,,,,,,,,,,,,,,,,,,,,,,,,,,,,,,,,,,,,,,,,,,,,,,,,,,,,,,,,,,,
1769163514.833216,1769163514.834061,120.0,0.0,4245.384766,4245.512695,4269.358887,4291.025879,4231.410156,4247.179688,4264.615234,4247.94873,4236.410156,4220.384766,4521.025879,4474.358887,4365.256348,4443.717773,,,,,,,,,,,,,,,,,,,,,,,,,,,,,,,,,,,,,,,,,,,,,,,,,,,,,,,,,,,,,,,,,,,,,,
1769163514.841024,1769163514.841869,121.0,0.0,4244.358887,4246.538574,4274.871582,4292.179688,4231.538574,4247.94873,4266.282227,4245.128418,4230.128418,4212.307617,4510.512695,4471.538574,4362.94873,4440.0,,,,,,,,,,,,,,,,,,,,,,,,,,,,,,,,,,,,,,,,,,,,,,,,,,,,,,,,,,,,,,,,,,,,,,
1769163514.848833,1769163514.849778,122.0,0.0,4248.589844,4257.307617,4277.820313,4297.05127,4235.0,4246.538574,4264.871582,4248.461426,4237.820313,4220.256348,4516.153809,4473.077148,4368.077148,4440.384766,,,,,,,,,,,,,,,,,,,,,,,,,,,,,,,,,,,,,,,,,,,,,,,,,,,,,,,,,,,,,,,,,,,,,,
1769163514.856641,1769163514.857586,123.0,0.0,4257.692383,4266.025879,4285.128418,4303.205078,4236.410156,4245.128418,4263.077148,4254.743652,4248.589844,4232.563965,4527.307617,4484.743652,4377.179688,4446.410156,,,,,,,,,,,,,,,,,,,,,,,,,,,,,,,,,,,,,,,,,,,,,,,,,,,,,,,,,,,,,,,,,,,,,,
1769163514.86445,1769163514.865594,124.0,0.0,4257.179688,4262.563965,4286.922852,4303.717773,4234.230957,4243.846191,4264.230957,4254.871582,4247.692383,4231.282227,4526.410156,4493.077148,4380.512695,4448.461426,,,,,,,,,,,,,,,,,,,,,,,,,,,,,,,,,,,,,,,,,,,,,,,,,,,,,,,,,,,,,,,,,,,,,,
1769163514.872258,1769163514.873403,125.0,0.0,4249.487305,4262.94873,4283.717773,4305.128418,4231.410156,4241.153809,4264.358887,4251.025879,4237.692383,4221.282227,4523.205078,4490.128418,4374.871582,4442.94873,,,,,,,,,,,,,,,,,,,,,,,,,,,,,,,,,,,,,,,,,,,,,,,,,,,,,,,,,,,,,,,,,,,,,,
1769163514.880067,1769163514.881111,126.0,0.0,4252.179688,4263.205078,4284.871582,4308.205078,4229.230957,4242.563965,4262.05127,4250.0,4232.179688,4217.692383,4524.871582,4491.666504,4373.461426,4443.077148,0.832211,0.390468,0.494708,0.316379,0.224416,0.534492,0.409907,0.567403,0.227742,0.153105,0.559775,0.210585,0.29323,0.283548,0.098381,0.288571,0.338235,0.389072,0.174887,0.12682,0.047136,0.119128,0.069128,0.026916,0.035834,0.214376,0.208117,0.202454,0.166977,0.171503,0.159371,0.231591,0.338921,0.095347,0.096491,0.357495,0.421317,0.670896,0.115204,0.176805,0.273558,0.414694,0.576203,0.132242,0.088626,0.465071,0.296969,0.196874,0.217967,0.128481,0.293434,0.153682,0.187896,0.11784,0.109292,0.520607,0.246678,0.281495,0.161979,0.314122,0.331173,0.479545,0.589901,0.211031,0.185743,0.399658,0.33088,0.361763,0.200765,0.244471
1769163514.887875,1769163514.88892,127.0,0.0,4254.102539,4254.743652,4283.717773,4303.717773,4231.538574,4249.615234,4263.589844,4249.871582,4233.461426,4219.230957,4524.871582,4493.333496,4376.025879,4446.282227,,,,,,,,,,,,,,,,,,,,,,,,,,,,,,,,,,,,,,,,,,,,,,,,,,,,,,,,,,,,,,,,,,,,,,
1769163514.895683,1769163514.896928,0.0,0.0,4240.512695,4248.461426,4278.077148,4294.102539,4230.769043,4252.436035,4265.641113,4250.0,4234.102539,4217.179688,4523.717773,4482.692383,4367.179688,4440.512695,,,,,,,,,,,,,,,,,,,,,,,,,,,,,,,,,,,,,,,,,,,,,,,,,,,,,,,,,,,,,,,,,,,,,,
1769163514.903492,1769163514.904736,1.0,0.0,4231.282227,4248.205078,4275.384766,4292.436035,4220.384766,4244.615234,4261.666504,4251.153809,4235.128418,4216.922852,4523.333496,4479.230957,4359.487305,4436.282227,,,,,,,,,,,,,,,,,,,,,,,,,,,,,,,,,,,,,,,,,,,,,,,,,,,,,,,,,,,,,,,,,,,,,,
1769163514.911301,1769163514.912445,2.0,0.0,4241.025879,4249.743652,4279.487305,4295.641113,4213.846191,4240.0,4258.461426,4249.743652,4236.922852,4225.512695,4525.256348,4489.743652,4369.230957,4443.077148,,,,,,,,,,,,,,,,,,,,,,,,,,,,,,,,,,,,,,,,,,,,,,,,,,,,,,,,,,,,,,,,,,,,,,
1769163514.919109,1769163514.920253,3.0,0.0,4246.538574,4251.666504,4277.692383,4295.384766,4216.922852,4243.461426,4261.538574,4247.820313,4236.410156,4229.358887,4527.179688,4491.153809,4375.897461,4447.179688,,,,,,,,,,,,,,,,,,,,,,,,,,,,,,,,,,,,,,,,,,,,,,,,,,,,,,,,,,,,,,,,,,,,,,
1769163514.926917,1769163514.927862,4.0,0.0,4236.282227,4249.615234,4268.846191,4294.102539,4219.487305,4243.077148,4262.820313,4247.436035,4234.102539,4220.0,4524.358887,4481.794922,4368.589844,4445.0,,,,,,,,,,,,,,,,,,,,,,,,,,,,,,,,,,,,,,,,,,,,,,,,,,,,,,,,,,,,,,,,,,,,,,
1769163514.934726,1769163514.93567,5.0,0.0,4228.717773,4246.282227,4270.897461,4294.487305,4219.230957,4237.820313,4260.128418,4247.179688,4234.358887,4215.256348,4521.922852,4475.512695,4362.179688,4443.717773,,,,,,,,,,,,,,,,,,,,,,,,,,,,,,,,,,,,,,,,,,,,,,,,,,,,,,,,,,,,,,,,,,,,,,
1769163514.942534,1769163514.943379,6.0,0.0,4231.794922,4248.846191,4274.358887,4295.769043,4220.256348,4236.025879,4260.769043,4247.94873,4236.025879,4220.641113,4522.307617,4477.692383,4366.153809,4443.717773,,,,,,,,,,,,,,,,,,,,,,,,,,,,,,,,,,,,,,,,,,,,,,,,,,,,,,,,,,,,,,,,,,,,,,
1769163514.950343,1769163514.951187,7.0,0.0,4230.0,4247.692383,4267.307617,4294.871582,4221.666504,4235.512695,4263.461426,4249.615234,4236.410156,4220.897461,4523.589844,4486.410156,4375.128418,4451.153809,,,,,,,,,,,,,,,,,,,,,,,,,,,,,,,,,,,,,,,,,,,,,,,,,,,,,,,,,,,,,,,,,,,,,,
1769163514.958151,1769163514.959196,8.0,0.0,4227.94873,4248.077148,4267.436035,4293.589844,4226.282227,4234.487305,4263.077148,4249.358887,4234.871582,4218.333496,4525.769043,4494.615234,4377.436035,4455.256348,,,,,,,,,,,,,,,,,,,,,,,,,,,,,,,,,,,,,,,,,,,,,,,,,,,,,,,,,,,,,,,,,,,,,,
1769163514.96596,1769163514.967004,9.0,0.0,4234.743652,4258.717773,4278.717773,4296.794922,4232.563965,4240.256348,4261.410156,4247.307617,4234.487305,4221.794922,4527.94873,4493.717773,4375.0,4447.692383,,,,,,,,,,,,,,,,,,,,,,,,,,,,,,,,,,,,,,,,,,,,,,,,,,,,,,,,,,,,,,,,,,,,,,
1769163514.973768,1769163514.974713,10.0,0.0,4231.794922,4258.589844,4275.128418,4297.94873,4232.179688,4248.717773,4262.820313,4246.666504,4236.666504,4222.94873,4524.871582,4487.307617,4371.410156,4444.615234,,,,,,,,,,,,,,,,,,,,,,,,,,,,,,,,,,,,,,,,,,,,,,,,,,,,,,,,,,,,,,,,,,,,,,
1769163514.981577,1769163514.982521,11.0,0.0,4217.820313,4246.153809,4262.94873,4292.94873,4226.025879,4250.128418,4265.384766,4246.282227,4235.0,4216.922852,4519.487305,4479.102539,4365.512695,4443.461426,,,,,,,,,,,,,,,,,,,,,,,,,,,,,,,,,,,,,,,,,,,,,,,,,,,,,,,,,,,,,,,,,,,,,,
1769163514.989385,1769163514.99013,12.0,0.0,4212.692383,4244.358887,4263.974121,4290.0,4224.871582,4245.0,4263.974121,4245.384766,4232.05127,4214.871582,4520.641113,4472.563965,4362.563965,4433.974121,,,,,,,,,,,,,,,,,,,,,,,,,,,,,,,,,,,,,,,,,,,,,,,,,,,,,,,,,,,,,,,,,,,,,,
1769163514.997193,1769163514.997938,13.0,0.0,4217.692383,4251.538574,4266.922852,4293.846191,4231.153809,4245.256348,4260.512695,4247.692383,4237.692383,4218.589844,4521.666504,4474.102539,4366.410156,4429.102539,,,,,,,,,,,,,,,,,,,,,,,,,,,,,,,,,,,,,,,,,,,,,,,,,,,,,,,,,,,,,,,,,,,,,,
1769163515.005002,1769163515.005647,14.0,0.0,4219.102539,4252.692383,4264.871582,4296.410156,4233.333496,4247.179688,4260.0,4248.205078,4242.05127,4220.384766,4515.128418,4474.102539,4367.436035,4429.871582,0.984312,0.367621,0.402915,0.285214,0.218786,0.501787,0.402354,0.531961,0.260984,0.158711,0.548955,0.239526,0.275094,0.264874,0.099016,0.26539,0.320563,0.373009,0.194133,0.118423,0.054058,0.132614,0.08915,0.027805,0.040246,0.269186,0.197238,0.195872,0.180081,0.186908,0.168557,0.219106,0.272509,0.085052,0.09163,0.407343,0.421507,0.701282,0.108666,0.163679,0.325449,0.415926,0.517458,0.125817,0.079541,0.553363,0.284599,0.195291,0.233638,0.133318,0.329974,0.167195,0.150864,0.129373,0.114432,0.468793,0.251599,0.225054,0.186082,0.281461,0.39872,0.450159,0.495424,0.247864,0.182027,0.56426,0.3615,0.315231,0.239975,0.223434
1769163515.01281,1769163515.013455,15.0,0.0,4217.179688,4249.358887,4263.589844,4294.230957,4229.871582,4239.871582,4261.922852,4240.256348,4235.0,4218.589844,4506.922852,4464.102539,4360.897461,4425.897461,,,,,,,,,,,,,,,,,,,,,,,,,,,,,,,,,,,,,,,,,,,,,,,,,,,,,,,,,,,,,,,,,,,,,,
1769163515.020619,1769163515.021463,16.0,0.0,4215.897461,4247.94873,4265.384766,4293.333496,4230.769043,4232.820313,4261.666504,4232.692383,4228.205078,4216.410156,4505.0,4457.436035,4357.05127,4425.0,,,,,,,,,,,,,,,,,,,,,,,,,,,,,,,,,,,,,,,,,,,,,,,,,,,,,,,,,,,,,,,,,,,,,,
1769163515.028427,1769163515.029272,17.0,0.0,4213.717773,4247.179688,4267.94873,4293.974121,4231.282227,4233.974121,4256.794922,4233.461426,4230.769043,4215.384766,4505.897461,4462.436035,4353.974121,4422.94873,,,,,,,,,,,,,,,,,,,,,,,,,,,,,,,,,,,,,,,,,,,,,,,,,,,,,,,,,,,,,,,,,,,,,,
1769163515.036236,1769163515.03718,18.0,0.0,4215.0,4245.769043,4265.512695,4293.974121,4226.794922,4234.615234,4252.692383,4235.897461,4229.230957,4215.256348,4504.871582,4468.077148,4348.717773,4412.05127,,,,,,,,,,,,,,,,,,,,,,,,,,,,,,,,,,,,,,,,,,,,,,,,,,,,,,,,,,,,,,,,,,,,,,
1769163515.044044,1769163515.044989,19.0,0.0,4214.487305,4246.666504,4264.358887,4294.358887,4228.717773,4232.307617,4250.512695,4231.153809,4220.256348,4214.358887,4504.615234,4469.487305,4350.512695,4408.589844,,,,,,,,,,,,,,,,,,,,,,,,,,,,,,,,,,,,,,,,,,,,,,,,,,,,,,,,,,,,,,,,,,,,,,
1769163515.051853,1769163515.052997,20.0,0.0,4207.94873,4247.307617,4270.769043,4294.871582,4231.666504,4232.307617,4250.769043,4233.077148,4223.333496,4216.025879,4507.179688,4475.384766,4355.256348,4418.974121,,,,,,,,,,,,,,,,,,,,,,,,,,,,,,,,,,,,,,,,,,,,,,,,,,,,,,,,,,,,,,,,,,,,,,
1769163515.059661,1769163515.060805,21.0,0.0,4202.179688,4239.102539,4272.820313,4293.205078,4223.846191,4234.615234,4256.282227,4243.205078,4229.871582,4217.94873,4508.846191,4478.717773,4353.846191,4429.102539,,,,,,,,,,,,,,,,,,,,,,,,,,,,,,,,,,,,,,,,,,,,,,,,,,,,,,,,,,,,,,,,,,,,,,
1769163515.067469,1769163515.068714,22.0,0.0,4199.102539,4230.128418,4266.794922,4291.410156,4216.153809,4241.282227,4263.846191,4241.025879,4223.333496,4211.666504,4506.922852,4474.102539,4348.205078,4425.128418,,,,,,,,,,,,,,,,,,,,,,,,,,,,,,,,,,,,,,,,,,,,,,,,,,,,,,,,,,,,,,,,,,,,,,
1769163515.075278,1769163515.076522,23.0,0.0,4198.846191,4232.94873,4265.0,4292.179688,4218.589844,4245.641113,4264.358887,4232.307617,4218.461426,4207.307617,4507.307617,4472.307617,4347.179688,4417.820313,,,,,,,,,,,,,,,,,,,,,,,,,,,,,,,,,,,,,,,,,,,,,,,,,,,,,,,,,,,,,,,,,,,,,,
1769163515.083086,1769163515.084231,24.0,0.0,4200.0,4237.563965,4267.05127,4293.205078,4220.641113,4238.461426,4260.128418,4233.077148,4222.05127,4210.897461,4509.871582,4474.743652,4351.794922,4419.871582,,,,,,,,,,,,,,,,,,,,,,,,,,,,,,,,,,,,,,,,,,,,,,,,,,,,,,,,,,,,,,,,,,,,,,
1769163515.090895,1769163515.092039,25.0,0.0,4199.358887,4234.230957,4264.871582,4292.307617,4218.717773,4233.589844,4258.077148,4235.256348,4221.025879,4210.128418,4507.820313,4473.974121,4349.871582,4420.0,,,,,,,,,,,,,,,,,,,,,,,,,,,,,,,,,,,,,,,,,,,,,,,,,,,,,,,,,,,,,,,,,,,,,,
1769163515.098703,1769163515.099948,26.0,0.0,4197.307617,4235.897461,4262.179688,4290.769043,4221.538574,4236.410156,4259.615234,4235.897461,4220.512695,4208.846191,4505.128418,4472.307617,4341.922852,4416.794922,,,,,,,,,,,,,,,,,,,,,,,,,,,,,,,,,,,,,,,,,,,,,,,,,,,,,,,,,,,,,,,,,,,,,,
1769163515.106512,1769163515.107756,27.0,0.0,4198.717773,4244.871582,4263.205078,4292.436035,4228.589844,4236.282227,4262.436035,4239.615234,4229.871582,4215.384766,4508.589844,4475.0,4348.077148,4424.487305,,,,,,,,,,,,,,,,,,,,,,,,,,,,,,,,,,,,,,,,,,,,,,,,,,,,,,,,,,,,,,,,,,,,,,
1769163515.11432,1769163515.115365,28.0,0.0,4200.641113,4247.436035,4260.641113,4293.461426,4232.05127,4232.563965,4259.230957,4238.461426,4231.282227,4218.589844,4511.794922,4474.871582,4359.102539,4433.589844,,,,,,,,,,,,,,,,,,,,,,,,,,,,,,,,,,,,,,,,,,,,,,,,,,,,,,,,,,,,,,,,,,,,,,
1769163515.122129,1769163515.123173,29.0,0.0,4200.256348,4244.615234,4255.128418,4291.410156,4230.512695,4232.05127,4254.871582,4234.743652,4226.025879,4215.256348,4508.974121,4473.077148,4353.077148,4427.692383,,,,,,,,,,,,,,,,,,,,,,,,,,,,,,,,,,,,,,,,,,,,,,,,,,,,,,,,,,,,,,,,,,,,,,
1769163515.129937,1769163515.130882,30.0,0.0,4201.153809,4246.666504,4251.666504,4289.871582,4226.410156,4232.692383,4254.487305,4234.615234,4226.025879,4215.384766,4506.025879,4473.589844,4348.589844,4422.436035,1.223238,0.355371,0.318636,0.260887,0.213304,0.476053,0.40789,0.480909,0.288768,0.160079,0.608705,0.265922,0.246643,0.253221,0.102767,0.276284,0.305819,0.343671,0.205576,0.109772,0.06818,0.136767,0.10489,0.029276,0.041623,0.307844,0.180523,0.18812,0.190452,0.194096,0.159004,0.184267,0.19131,0.073324,0.083587,0.426191,0.389011,0.681024,0.097529,0.143886,0.382461,0.393422,0.467335,0.119252,0.07524,0.615619,0.254976,0.200485,0.23861,0.131535,0.372566,0.182811,0.128422,0.137896,0.116868,0.576544,0.279385,0.16443,0.204019,0.234527,0.462681,0.396878,0.400295,0.277931,0.179566,0.770662,0.382957,0.271363,0.269556,0.210561
1769163515.137746,1769163515.13869,31.0,0.0,4203.717773,4248.974121,4252.05127,4290.0,4223.974121,4232.563965,4252.563965,4231.794922,4225.897461,4215.769043,4507.563965,4469.615234,4357.179688,4422.563965,,,,,,,,,,,,,,,,,,,,,,,,,,,,,,,,,,,,,,,,,,,,,,,,,,,,,,,,,,,,,,,,,,,,,,
1769163515.145554,1769163515.146698,32.0,0.0,4198.205078,4245.769043,4251.922852,4290.769043,4226.153809,4232.307617,4248.717773,4230.256348,4220.384766,4215.512695,4509.230957,4460.641113,4358.077148,4419.871582,,,,,,,,,,,,,,,,,,,,,,,,,,,,,,,,,,,,,,,,,,,,,,,,,,,,,,,,,,,,,,,,,,,,,,
1769163515.153362,1769163515.154507,33.0,0.0,4189.487305,4244.487305,4247.179688,4290.384766,4227.563965,4233.205078,4249.743652,4233.077148,4215.641113,4211.410156,4506.794922,4458.974121,4349.871582,4420.641113,,,,,,,,,,,,,,,,,,,,,,,,,,,,,,,,,,,,,,,,,,,,,,,,,,,,,,,,,,,,,,,,,,,,,,
1769163515.161171,1769163515.162415,34.0,0.0,4192.94873,4246.282227,4252.05127,4290.769043,4228.205078,4235.384766,4256.410156,4234.487305,4223.717773,4206.282227,4505.641113,4467.94873,4345.512695,4422.436035,,,,,,,,,,,,,,,,,,,,,,,,,,,,,,,,,,,,,,,,,,,,,,,,,,,,,,,,,,,,,,,,,,,,,,
1769163515.168979,1769163515.170224,35.0,0.0,4199.615234,4246.410156,4260.641113,4294.871582,4229.487305,4235.897461,4261.410156,4232.94873,4230.512695,4209.102539,4507.94873,4472.692383,4344.871582,4415.512695,,,,,,,,,,,,,,,,,,,,,,,,,,,,,,,,,,,,,,,,,,,,,,,,,,,,,,,,,,,,,,,,,,,,,,
1769163515.176788,1769163515.177832,36.0,0.0,4196.922852,4242.563965,4255.512695,4295.641113,4226.666504,4235.512695,4263.717773,4231.922852,4224.102539,4209.358887,4507.05127,4470.384766,4345.384766,4409.102539,,,,,,,,,,,,,,,,,,,,,,,,,,,,,,,,,,,,,,,,,,,,,,,,,,,,,,,,,,,,,,,,,,,,,,
1769163515.184596,1769163515.185641,37.0,0.0,4196.538574,4242.692383,4256.282227,4291.666504,4225.128418,4233.974121,4259.615234,4231.666504,4221.666504,4204.358887,4505.384766,4473.205078,4346.666504,4415.384766,,,,,,,,,,,,,,,,,,,,,,,,,,,,,,,,,,,,,,,,,,,,,,,,,,,,,,,,,,,,,,,,,,,,,,
1769163515.192405,1769163515.193349,38.0,0.0,4201.153809,4247.94873,4264.230957,4292.820313,4229.358887,4231.922852,4254.102539,4232.307617,4226.666504,4202.307617,4506.538574,4478.589844,4348.333496,4422.05127,,,,,,,,,,,,,,,,,,,,,,,,,,,,,,,,,,,,,,,,,,,,,,,,,,,,,,,,,,,,,,,,,,,,,,
1769163515.200213,1769163515.201158,39.0,0.0,4198.077148,4247.307617,4257.307617,4295.128418,4231.922852,4233.717773,4250.897461,4230.384766,4224.487305,4203.846191,4506.025879,4475.641113,4348.846191,4416.794922,,,,,,,,,,,,,,,,,,,,,,,,,,,,,,,,,,,,,,,,,,,,,,,,,,,,,,,,,,,,,,,,,,,,,,
1769163515.208022,1769163515.208766,40.0,0.0,4196.794922,4245.0,4252.692383,4294.102539,4230.256348,4236.794922,4249.871582,4228.205078,4216.666504,4208.589844,4506.025879,4472.307617,4349.358887,4415.128418,,,,,,,,,,,,,,,,,,,,,,,,,,,,,,,,,,,,,,,,,,,,,,,,,,,,,,,,,,,,,,,,,,,,,,
1769163515.21583,1769163515.216575,41.0,0.0,4202.307617,4246.922852,4261.794922,4294.230957,4229.871582,4235.769043,4250.384766,4230.256348,4220.384766,4215.128418,4508.333496,4477.436035,4352.820313,4425.512695,,,,,,,,,,,,,,,,,,,,,,,,,,,,,,,,,,,,,,,,,,,,,,,,,,,,,,,,,,,,,,,,,,,,,,
1769163515.223638,1769163515.224483,42.0,0.0,4197.94873,4247.436035,4256.153809,4293.846191,4230.512695,4234.487305,4249.871582,4233.461426,4229.871582,4217.820313,4510.769043,4479.615234,4354.871582,4432.179688,,,,,,,,,,,,,,,,,,,,,,,,,,,,,,,,,,,,,,,,,,,,,,,,,,,,,,,,,,,,,,,,,,,,,,
1769163515.231447,1769163515.232292,43.0,0.0,4191.794922,4247.05127,4246.282227,4293.589844,4231.153809,4235.641113,4250.0,4233.333496,4232.563965,4218.461426,4516.025879,4476.410156,4357.692383,4428.717773,,,,,,,,,,,,,,,,,,,,,,,,,,,,,,,,,,,,,,,,,,,,,,,,,,,,,,,,,,,,,,,,,,,,,,
1769163515.239255,1769163515.2403,44.0,0.0,4196.538574,4248.589844,4255.769043,4295.641113,4232.820313,4234.102539,4250.256348,4231.794922,4230.641113,4220.256348,4519.102539,4475.128418,4363.717773,4429.615234,,,,,,,,,,,,,,,,,,,,,,,,,,,,,,,,,,,,,,,,,,,,,,,,,,,,,,,,,,,,,,,,,,,,,,
1769163515.247064,1769163515.248108,45.0,0.0,4202.94873,4249.230957,4259.615234,4295.769043,4230.641113,4231.410156,4248.333496,4233.717773,4230.384766,4217.820313,4515.641113,4475.0,4363.077148,4432.563965,,,,,,,,,,,,,,,,,,,,,,,,,,,,,,,,,,,,,,,,,,,,,,,,,,,,,,,,,,,,,,,,,,,,,,
1769163515.254872,1769163515.256017,46.0,0.0,4197.179688,4245.512695,4252.563965,4293.846191,4224.743652,4235.512695,4249.230957,4236.922852,4230.897461,4215.384766,4514.743652,4475.512695,4355.897461,4430.384766,1.497136,0.357756,0.2749,0.24333,0.205747,0.494902,0.420352,0.42408,0.306066,0.156663,0.748774,0.290527,0.209209,0.242836,0.11006,0.356925,0.287938,0.305249,0.204108,0.101617,0.097222,0.134893,0.11311,0.030925,0.040776,0.317482,0.161197,0.185378,0.195523,0.189657,0.132717,0.140692,0.115256,0.06361,0.07483,0.407358,0.335965,0.604534,0.083626,0.122535,0.42507,0.366543,0.428077,0.116422,0.077517,0.626587,0.212909,0.205332,0.237549,0.122886,0.399476,0.199545,0.119161,0.13884,0.113703,0.750131,0.347213,0.117751,0.212903,0.187644,0.500355,0.33926,0.326854,0.295484,0.179324,0.961043,0.403076,0.222281,0.278053,0.207738
1769163515.262681,1769163515.263825,47.0,0.0,4186.794922,4236.153809,4247.307617,4290.769043,4223.846191,4241.666504,4257.820313,4242.05127,4229.871582,4217.94873,4518.717773,4476.410156,4355.384766,4429.487305,,,,,,,,,,,,,,,,,,,,,,,,,,,,,,,,,,,,,,,,,,,,,,,,,,,,,,,,,,,,,,,,,,,,,,
1769163515.270489,1769163515.271733,48.0,0.0,4182.436035,4230.897461,4242.94873,4286.410156,4229.871582,4246.153809,4262.307617,4244.871582,4231.922852,4220.256348,4521.538574,4474.743652,4362.05127,4425.769043,,,,,,,,,,,,,,,,,,,,,,,,,,,,,,,,,,,,,,,,,,,,,,,,,,,,,,,,,,,,,,,,,,,,,,
1769163515.278298,1769163515.279542,49.0,0.0,4183.461426,4240.0,4243.333496,4288.974121,4233.461426,4245.897461,4257.94873,4238.846191,4232.820313,4220.128418,4519.358887,4473.333496,4364.358887,4418.846191,,,,,,,,,,,,,,,,,,,,,,,,,,,,,,,,,,,,,,,,,,,,,,,,,,,,,,,,,,,,,,,,,,,,,,
1769163515.286106,1769163515.28725,50.0,0.0,4187.05127,4247.94873,4248.846191,4296.025879,4232.179688,4238.846191,4257.179688,4233.077148,4228.589844,4217.307617,4511.282227,4475.384766,4360.128418,4419.230957,,,,,,,,,,,,,,,,,,,,,,,,,,,,,,,,,,,,,,,,,,,,,,,,,,,,,,,,,,,,,,,,,,,,,,
1769163515.293915,1769163515.295059,51.0,0.0,4188.333496,4245.384766,4250.128418,4295.0,4233.077148,4234.230957,4255.897461,4233.974121,4226.538574,4215.0,4506.153809,4476.153809,4355.769043,4425.256348,,,,,,,,,,,,,,,,,,,,,,,,,,,,,,,,,,,,,,,,,,,,,,,,,,,,,,,,,,,,,,,,,,,,,,
1769163515.301723,1769163515.302667,52.0,0.0,4187.692383,4244.871582,4247.179688,4292.179688,4234.230957,4236.025879,4249.743652,4235.897461,4229.358887,4217.563965,4509.871582,4475.384766,4357.563965,4426.410156,,,,,,,,,,,,,,,,,,,,,,,,,,,,,,,,,,,,,,,,,,,,,,,,,,,,,,,,,,,,,,,,,,,,,,
1769163515.309532,1769163515.310476,53.0,0.0,4186.153809,4247.820313,4244.871582,4294.743652,4232.692383,4236.282227,4251.025879,4235.256348,4230.256348,4219.487305,4512.436035,4474.230957,4359.871582,4421.666504,,,,,,,,,,,,,,,,,,,,,,,,,,,,,,,,,,,,,,,,,,,,,,,,,,,,,,,,,,,,,,,,,,,,,,
1769163515.31734,1769163515.318184,54.0,0.0,4183.461426,4246.666504,4241.922852,4295.641113,4232.05127,4233.974121,4256.410156,4234.102539,4226.922852,4217.820313,4511.153809,4471.922852,4357.307617,4413.205078,,,,,,,,,,,,,,,,,,,,,,,,,,,,,,,,,,,,,,,,,,,,,,,,,,,,,,,,,,,,,,,,,,,,,,
1769163515.325148,1769163515.325993,55.0,0.0,4185.384766,4243.461426,4243.333496,4293.846191,4230.512695,4235.0,4252.820313,4233.333496,4227.820313,4215.0,4509.230957,4472.05127,4352.692383,4408.461426,,,,,,,,,,,,,,,,,,,,,,,,,,,,,,,,,,,,,,,,,,,,,,,,,,,,,,,,,,,,,,,,,,,,,,
1769163515.332957,1769163515.333602,56.0,0.0,4193.333496,4248.077148,4250.384766,4295.897461,4228.974121,4234.358887,4248.333496,4234.102539,4231.538574,4216.410156,4508.846191,4478.205078,4353.205078,4422.179688,,,,,,,,,,,,,,,,,,,,,,,,,,,,,,,,,,,,,,,,,,,,,,,,,,,,,,,,,,,,,,,,,,,,,,
1769163515.340765,1769163515.34141,57.0,0.0,4193.461426,4249.230957,4251.666504,4297.179688,4230.512695,4232.179688,4248.717773,4232.436035,4225.0,4220.897461,4510.0,4479.743652,4357.820313,4432.563965,,,,,,,,,,,,,,,,,,,,,,,,,,,,,,,,,,,,,,,,,,,,,,,,,,,,,,,,,,,,,,,,,,,,,,
1769163515.348574,1769163515.349119,58.0,0.0,4182.05127,4234.871582,4244.102539,4291.153809,4229.871582,4234.358887,4250.384766,4226.666504,4214.230957,4213.846191,4506.666504,4469.358887,4349.230957,4417.179688,,,,,,,,,,,,,,,,,,,,,,,,,,,,,,,,,,,,,,,,,,,,,,,,,,,,,,,,,,,,,,,,,,,,,,
1769163515.356382,1769163515.356927,59.0,0.0,4182.436035,4232.94873,4243.846191,4287.94873,4228.205078,4233.077148,4249.102539,4227.05127,4214.871582,4202.307617,4503.461426,4465.512695,4339.230957,4406.794922,,,,,,,,,,,,,,,,,,,,,,,,,,,,,,,,,,,,,,,,,,,,,,,,,,,,,,,,,,,,,,,,,,,,,,
1769163515.364191,1769163515.364935,60.0,0.0,4192.820313,4251.282227,4247.563965,4294.102539,4229.871582,4229.358887,4248.205078,4233.205078,4219.871582,4203.077148,4506.025879,4476.153809,4345.384766,4415.769043,,,,,,,,,,,,,,,,,,,,,,,,,,,,,,,,,,,,,,,,,,,,,,,,,,,,,,,,,,,,,,,,,,,,,,
1769163515.371999,1769163515.372744,61.0,0.0,4189.102539,4247.563965,4239.102539,4292.820313,4230.256348,4232.436035,4250.769043,4234.615234,4219.358887,4206.282227,4506.538574,4479.743652,4347.307617,4417.307617,,,,,,,,,,,,,,,,,,,,,,,,,,,,,,,,,,,,,,,,,,,,,,,,,,,,,,,,,,,,,,,,,,,,,,
1769163515.379808,1769163515.380652,62.0,0.0,4180.512695,4230.256348,4232.692383,4282.307617,4228.077148,4235.641113,4251.153809,4230.897461,4217.563965,4203.333496,4504.487305,4471.922852,4339.358887,4414.487305,1.77158,0.379949,0.292722,0.2303,0.195562,0.56987,0.442877,0.381003,0.311261,0.149568,0.936195,0.323561,0.171597,0.228325,0.119602,0.477931,0.270585,0.270341,0.188149,0.093457,0.15563,0.13491,0.11637,0.03305,0.040016,0.294051,0.155645,0.192294,0.19332,0.174317,0.099419,0.110105,0.058819,0.058992,0.067095,0.357575,0.281674,0.483522,0.06991,0.103616,0.435418,0.352861,0.396229,0.120356,0.08619,0.584128,0.169539,0.203096,0.238346,0.109713,0.40422,0.21626,0.118746,0.132155,0.105355,0.918378,0.469164,0.100609,0.217323,0.152613,0.508694,0.297711,0.288531,0.299824,0.181587,1.115255,0.431721,0.16903,0.265523,0.212974
1769163515.387616,1769163515.38846,63.0,0.0,4186.153809,4236.922852,4242.307617,4284.743652,4229.230957,4231.025879,4247.820313,4229.487305,4218.717773,4207.692383,4506.153809,4472.820313,4348.974121,4427.05127,,,,,,,,,,,,,,,,,,,,,,,,,,,,,,,,,,,,,,,,,,,,,,,,,,,,,,,,,,,,,,,,,,,,,,
1769163515.395424,1769163515.396069,64.0,0.0,4192.436035,4244.743652,4250.0,4291.794922,4230.897461,4229.230957,4248.974121,4230.128418,4220.256348,4217.820313,4507.820313,4479.871582,4361.025879,4433.717773,,,,,,,,,,,,,,,,,,,,,,,,,,,,,,,,,,,,,,,,,,,,,,,,,,,,,,,,,,,,,,,,,,,,,,
1769163515.403233,1769163515.403878,65.0,0.0,4186.025879,4233.846191,4246.025879,4286.282227,4229.230957,4235.128418,4252.820313,4227.94873,4218.205078,4212.05127,4506.666504,4477.820313,4348.846191,4419.358887,,,,,,,,,,,,,,,,,,,,,,,,,,,,,,,,,,,,,,,,,,,,,,,,,,,,,,,,,,,,,,,,,,,,,,
1769163515.411041,1769163515.411586,66.0,0.0,4180.256348,4231.025879,4244.487305,4283.205078,4229.871582,4235.256348,4248.846191,4227.692383,4215.897461,4203.077148,4506.025879,4474.102539,4341.666504,4413.461426,,,,,,,,,,,,,,,,,,,,,,,,,,,,,,,,,,,,,,,,,,,,,,,,,,,,,,,,,,,,,,,,,,,,,,
1769163515.41885,1769163515.419395,67.0,0.0,4184.487305,4235.641113,4246.794922,4287.94873,4232.436035,4232.563965,4248.461426,4231.794922,4223.461426,4210.0,4507.692383,4475.897461,4355.128418,4424.358887,,,,,,,,,,,,,,,,,,,,,,,,,,,,,,,,,,,,,,,,,,,,,,,,,,,,,,,,,,,,,,,,,,,,,,
1769163515.426658,1769163515.427403,68.0,0.0,4185.641113,4230.897461,4245.512695,4287.307617,4232.436035,4237.05127,4255.641113,4233.589844,4230.769043,4220.512695,4509.615234,4478.205078,4362.05127,4428.077148,,,,,,,,,,,,,,,,,,,,,,,,,,,,,,,,,,,,,,,,,,,,,,,,,,,,,,,,,,,,,,,,,,,,,,
1769163515.434467,1769163515.435211,69.0,0.0,4183.846191,4232.179688,4244.230957,4287.179688,4232.307617,4236.153809,4254.743652,4232.436035,4227.94873,4219.487305,4508.461426,4477.436035,4357.05127,4425.256348,,,,,,,,,,,,,,,,,,,,,,,,,,,,,,,,,,,,,,,,,,,,,,,,,,,,,,,,,,,,,,,,,,,,,,
1769163515.442275,1769163515.44312,70.0,0.0,4186.794922,4243.333496,4243.846191,4293.589844,4233.333496,4231.025879,4249.615234,4232.820313,4223.205078,4214.743652,4508.589844,4474.230957,4357.436035,4425.512695,,,,,,,,,,,,,,,,,,,,,,,,,,,,,,,,,,,,,,,,,,,,,,,,,,,,,,,,,,,,,,,,,,,,,,
1769163515.450084,1769163515.450928,71.0,0.0,4188.717773,4245.897461,4244.615234,4294.743652,4233.974121,4238.589844,4250.897461,4233.589844,4221.666504,4215.384766,4508.974121,4471.794922,4358.974121,4422.94873,,,,,,,,,,,,,,,,,,,,,,,,,,,,,,,,,,,,,,,,,,,,,,,,,,,,,,,,,,,,,,,,,,,,,,
1769163515.457892,1769163515.458936,72.0,0.0,4190.256348,4243.846191,4247.436035,4292.563965,4234.615234,4248.077148,4252.820313,4233.589844,4224.871582,4216.025879,4508.589844,4474.615234,4355.641113,4421.153809,,,,,,,,,,,,,,,,,,,,,,,,,,,,,,,,,,,,,,,,,,,,,,,,,,,,,,,,,,,,,,,,,,,,,,
1769163515.465701,1769163515.466745,73.0,0.0,4191.410156,4246.538574,4248.205078,4294.487305,4235.128418,4246.410156,4251.794922,4234.230957,4230.0,4216.538574,4515.512695,4478.974121,4358.974121,4426.410156,,,,,,,,,,,,,,,,,,,,,,,,,,,,,,,,,,,,,,,,,,,,,,,,,,,,,,,,,,,,,,,,,,,,,,
1769163515.473509,1769163515.474453,74.0,0.0,4187.563965,4246.666504,4247.05127,4295.769043,4233.974121,4241.538574,4250.256348,4233.589844,4231.282227,4218.589844,4523.461426,4478.205078,4362.692383,4428.717773,,,,,,,,,,,,,,,,,,,,,,,,,,,,,,,,,,,,,,,,,,,,,,,,,,,,,,,,,,,,,,,,,,,,,,
1769163515.481317,1769163515.482262,75.0,0.0,4192.820313,4247.436035,4248.717773,4297.307617,4233.333496,4237.820313,4250.384766,4231.153809,4229.102539,4219.487305,4517.94873,4475.897461,4360.256348,4424.743652,,,,,,,,,,,,,,,,,,,,,,,,,,,,,,,,,,,,,,,,,,,,,,,,,,,,,,,,,,,,,,,,,,,,,,
1769163515.489126,1769163515.48987,76.0,0.0,4200.512695,4248.589844,4248.589844,4297.307617,4232.436035,4235.769043,4254.615234,4230.128418,4228.333496,4216.666504,4508.974121,4475.128418,4356.282227,4420.128418,,,,,,,,,,,,,,,,,,,,,,,,,,,,,,,,,,,,,,,,,,,,,,,,,,,,,,,,,,,,,,,,,,,,,,
1769163515.496934,1769163515.497679,77.0,0.0,4191.794922,4236.922852,4245.769043,4293.589844,4228.077148,4234.871582,4257.05127,4230.641113,4226.538574,4212.94873,4508.717773,4475.641113,4355.897461,4418.461426,,,,,,,,,,,,,,,,,,,,,,,,,,,,,,,,,,,,,,,,,,,,,,,,,,,,,,,,,,,,,,,,,,,,,,
1769163515.504743,1769163515.505387,78.0,0.0,4183.717773,4231.410156,4247.563965,4293.205078,4227.692383,4232.820313,4251.153809,4231.153809,4228.077148,4214.102539,4509.102539,4476.282227,4356.153809,4419.102539,1.929965,0.420287,0.360969,0.221765,0.184528,0.690612,0.483519,0.36559,0.305945,0.141233,1.115263,0.37052,0.141246,0.208912,0.129302,0.611311,0.261648,0.248684,0.161141,0.084617,0.251296,0.144973,0.120847,0.036579,0.041753,0.248397,0.180287,0.207507,0.182415,0.151866,0.070139,0.113607,0.028176,0.061286,0.060854,0.297194,0.241283,0.345212,0.060465,0.089204,0.419551,0.35405,0.367062,0.131261,0.098921,0.502103,0.142742,0.191467,0.245757,0.095722,0.399217,0.232181,0.120795,0.120127,0.094257,1.033412,0.639537,0.118374,0.223552,0.133606,0.49645,0.28325,0.283078,0.293301,0.185022,1.239721,0.471751,0.120467,0.24304,0.221434
1769163515.512551,1769163515.513196,79.0,0.0,4190.128418,4235.897461,4245.128418,4293.717773,4232.179688,4236.153809,4247.05127,4230.897461,4228.077148,4215.128418,4506.538574,4471.025879,4350.384766,4416.025879,,,,,,,,,,,,,,,,,,,,,,,,,,,,,,,,,,,,,,,,,,,,,,,,,,,,,,,,,,,,,,,,,,,,,,
1769163515.52036,1769163515.520804,80.0,0.0,4184.487305,4223.846191,4235.0,4284.230957,4232.179688,4244.615234,4251.410156,4230.0,4219.358887,4212.94873,4507.05127,4467.563965,4343.077148,4411.282227,,,,,,,,,,,,,,,,,,,,,,,,,,,,,,,,,,,,,,,,,,,,,,,,,,,,,,,,,,,,,,,,,,,,,,
1769163515.528168,1769163515.528613,81.0,0.0,4177.692383,4215.641113,4235.256348,4277.820313,4226.410156,4243.205078,4254.871582,4229.871582,4219.743652,4214.230957,4506.922852,4471.153809,4345.256348,4415.128418,,,,,,,,,,,,,,,,,,,,,,,,,,,,,,,,,,,,,,,,,,,,,,,,,,,,,,,,,,,,,,,,,,,,,,
1769163515.535977,1769163515.536321,82.0,0.0,4194.871582,4230.897461,4249.230957,4287.307617,4221.538574,4235.384766,4252.692383,4231.410156,4231.538574,4218.077148,4508.974121,4477.692383,4355.128418,4424.615234,,,,,,,,,,,,,,,,,,,,,,,,,,,,,,,,,,,,,,,,,,,,,,,,,,,,,,,,,,,,,,,,,,,,,,
1769163515.543785,1769163515.54413,83.0,0.0,4209.487305,4238.461426,4261.410156,4297.05127,4217.94873,4231.922852,4250.128418,4232.436035,4232.563965,4218.846191,4515.769043,4483.717773,4358.974121,4432.307617,,,,,,,,,,,,,,,,,,,,,,,,,,,,,,,,,,,,,,,,,,,,,,,,,,,,,,,,,,,,,,,,,,,,,,
1769163515.551593,1769163515.552138,84.0,0.0,4206.538574,4231.282227,4260.384766,4296.410156,4218.717773,4229.871582,4249.487305,4229.743652,4222.436035,4212.179688,4516.666504,4484.615234,4359.615234,4433.974121,,,,,,,,,,,,,,,,,,,,,,,,,,,,,,,,,,,,,,,,,,,,,,,,,,,,,,,,,,,,,,,,,,,,,,
1769163515.559402,1769163515.559947,85.0,0.0,4195.897461,4228.974121,4251.538574,4292.692383,4224.615234,4229.615234,4249.102539,4226.282227,4216.794922,4202.179688,4510.384766,4478.461426,4356.410156,4428.461426,,,,,,,,,,,,,,,,,,,,,,,,,,,,,,,,,,,,,,,,,,,,,,,,,,,,,,,,,,,,,,,,,,,,,,
1769163515.56721,1769163515.567855,86.0,0.0,4186.922852,4225.897461,4245.769043,4289.358887,4222.692383,4230.769043,4248.205078,4228.077148,4219.743652,4204.615234,4508.077148,4473.717773,4349.615234,4426.153809,,,,,,,,,,,,,,,,,,,,,,,,,,,,,,,,,,,,,,,,,,,,,,,,,,,,,,,,,,,,,,,,,,,,,,
1769163515.575019,1769163515.575663,87.0,0.0,4189.487305,4224.871582,4246.794922,4289.615234,4217.436035,4230.384766,4248.846191,4229.487305,4224.102539,4213.205078,4509.230957,4476.025879,4350.0,4428.333496,,,,,,,,,,,,,,,,,,,,,,,,,,,,,,,,,,,,,,,,,,,,,,,,,,,,,,,,,,,,,,,,,,,,,,
1769163515.582827,1769163515.583672,88.0,0.0,4198.077148,4230.769043,4249.615234,4292.820313,4222.563965,4229.487305,4248.333496,4222.05127,4221.538574,4208.717773,4507.820313,4476.922852,4351.153809,4422.94873,,,,,,,,,,,,,,,,,,,,,,,,,,,,,,,,,,,,,,,,,,,,,,,,,,,,,,,,,,,,,,,,,,,,,,
1769163515.590636,1769163515.59148,89.0,0.0,4196.282227,4230.512695,4247.05127,4292.692383,4230.512695,4229.487305,4247.436035,4217.05127,4214.230957,4199.615234,4501.282227,4471.282227,4345.128418,4412.94873,,,,,,,,,,,,,,,,,,,,,,,,,,,,,,,,,,,,,,,,,,,,,,,,,,,,,,,,,,,,,,,,,,,,,,
1769163515.598444,1769163515.599189,90.0,0.0,4188.717773,4230.769043,4239.487305,4291.538574,4231.538574,4231.922852,4249.358887,4223.461426,4213.333496,4198.846191,4492.436035,4462.05127,4336.538574,4406.538574,,,,,,,,,,,,,,,,,,,,,,,,,,,,,,,,,,,,,,,,,,,,,,,,,,,,,,,,,,,,,,,,,,,,,,
1769163515.606253,1769163515.606997,91.0,0.0,4190.897461,4234.743652,4232.692383,4294.743652,4231.282227,4234.615234,4249.871582,4230.128418,4220.512695,4201.922852,4491.282227,4457.563965,4337.563965,4406.153809,,,,,,,,,,,,,,,,,,,,,,,,,,,,,,,,,,,,,,,,,,,,,,,,,,,,,,,,,,,,,,,,,,,,,,
1769163515.614061,1769163515.615005,92.0,0.0,4188.461426,4226.282227,4231.282227,4291.153809,4231.922852,4234.358887,4248.589844,4228.333496,4221.794922,4202.692383,4496.410156,4459.615234,4341.410156,4404.871582,,,,,,,,,,,,,,,,,,,,,,,,,,,,,,,,,,,,,,,,,,,,,,,,,,,,,,,,,,,,,,,,,,,,,,
1769163515.62187,1769163515.622814,93.0,0.0,4183.589844,4215.0,4230.256348,4282.436035,4230.128418,4232.307617,4248.846191,4221.410156,4208.846191,4195.0,4492.820313,4457.563965,4330.769043,4396.794922,,,,,,,,,,,,,,,,,,,,,,,,,,,,,,,,,,,,,,,,,,,,,,,,,,,,,,,,,,,,,,,,,,,,,,
1769163515.629678,1769163515.630722,94.0,0.0,4192.94873,4224.102539,4229.871582,4286.666504,4230.0,4231.538574,4249.615234,4217.820313,4203.333496,4189.487305,4487.820313,4456.025879,4324.615234,4397.820313,1.95601,0.470405,0.444798,0.218988,0.175061,0.817692,0.552896,0.376705,0.293116,0.135457,1.232601,0.423862,0.121945,0.18815,0.137105,0.703762,0.265949,0.239874,0.129624,0.075615,0.375395,0.168409,0.131191,0.042098,0.046865,0.200457,0.236166,0.224377,0.163607,0.127277,0.053001,0.158766,0.021065,0.070744,0.055749,0.245761,0.217016,0.219782,0.058725,0.079232,0.391196,0.354747,0.336727,0.146889,0.112262,0.420877,0.142084,0.17207,0.258725,0.084491,0.398658,0.246395,0.1222,0.106773,0.083258,1.086246,0.82164,0.164351,0.234504,0.127289,0.487209,0.293944,0.296292,0.280169,0.187974,1.348023,0.513134,0.083151,0.227649,0.229027
1769163515.637487,1769163515.638531,95.0,0.0,4200.769043,4232.94873,4233.461426,4296.282227,4230.128418,4230.0,4248.589844,4217.94873,4213.077148,4199.230957,4493.589844,4460.769043,4340.0,4414.743652,,,,,,,,,,,,,,,,,,,,,,,,,,,,,,,,,,,,,,,,,,,,,,,,,,,,,,,,,,,,,,,,,,,,,,
1769163515.645295,1769163515.646539,96.0,0.0,4191.282227,4222.307617,4231.538574,4295.512695,4226.025879,4229.358887,4247.179688,4219.487305,4218.205078,4205.512695,4496.538574,4463.589844,4341.666504,4417.563965,,,,,,,,,,,,,,,,,,,,,,,,,,,,,,,,,,,,,,,,,,,,,,,,,,,,,,,,,,,,,,,,,,,,,,
1769163515.653103,1769163515.654347,97.0,0.0,4185.641113,4214.871582,4220.128418,4292.307617,4222.436035,4230.897461,4247.692383,4221.794922,4212.692383,4201.153809,4492.563965,4461.153809,4328.333496,4405.0,,,,,,,,,,,,,,,,,,,,,,,,,,,,,,,,,,,,,,,,,,,,,,,,,,,,,,,,,,,,,,,,,,,,,,
1769163515.660912,1769163515.662056,98.0,0.0,4196.922852,4218.589844,4214.615234,4295.0,4219.871582,4231.922852,4248.461426,4227.94873,4213.461426,4204.358887,4493.205078,4460.256348,4340.128418,4409.615234,,,,,,,,,,,,,,,,,,,,,,,,,,,,,,,,,,,,,,,,,,,,,,,,,,,,,,,,,,,,,,,,,,,,,,
1769163515.66872,1769163515.669864,99.0,0.0,4201.410156,4217.692383,4222.692383,4294.871582,4218.077148,4231.153809,4248.205078,4233.589844,4215.256348,4204.615234,4494.230957,4461.282227,4345.256348,4415.512695,,,,,,,,,,,,,,,,,,,,,,,,,,,,,,,,,,,,,,,,,,,,,,,,,,,,,,,,,,,,,,,,,,,,,,
1769163515.676529,1769163515.677872,100.0,0.0,4198.077148,4216.282227,4231.410156,4295.256348,4223.589844,4231.282227,4247.436035,4228.205078,4210.897461,4198.717773,4491.794922,4464.230957,4329.102539,4411.025879,,,,,,,,,,,,,,,,,,,,,,,,,,,,,,,,,,,,,,,,,,,,,,,,,,,,,,,,,,,,,,,,,,,,,,
1769163515.684337,1769163515.685681,101.0,0.0,4200.0,4220.256348,4228.077148,4303.333496,4231.666504,4231.666504,4246.282227,4222.820313,4211.794922,4206.666504,4493.077148,4466.153809,4334.743652,4416.538574,,,,,,,,,,,,,,,,,,,,,,,,,,,,,,,,,,,,,,,,,,,,,,,,,,,,,,,,,,,,,,,,,,,,,,
1769163515.692146,1769163515.693389,102.0,0.0,4197.05127,4220.769043,4218.589844,4308.717773,4233.589844,4232.05127,4247.563965,4226.282227,4216.025879,4213.717773,4494.102539,4461.794922,4342.94873,4415.0,,,,,,,,,,,,,,,,,,,,,,,,,,,,,,,,,,,,,,,,,,,,,,,,,,,,,,,,,,,,,,,,,,,,,,
1769163515.699954,1769163515.701198,103.0,0.0,4193.461426,4218.974121,4212.436035,4307.692383,4233.461426,4233.589844,4249.487305,4231.025879,4216.153809,4206.794922,4490.641113,4457.179688,4330.641113,4402.94873,,,,,,,,,,,,,,,,,,,,,,,,,,,,,,,,,,,,,,,,,,,,,,,,,,,,,,,,,,,,,,,,,,,,,,
1769163515.707763,1769163515.708807,104.0,0.0,4198.589844,4219.487305,4211.666504,4308.205078,4235.384766,4233.461426,4249.230957,4229.102539,4213.974121,4206.666504,4490.769043,4458.846191,4330.641113,4405.512695,,,,,,,,,,,,,,,,,,,,,,,,,,,,,,,,,,,,,,,,,,,,,,,,,,,,,,,,,,,,,,,,,,,,,,
1769163515.715571,1769163515.716615,105.0,0.0,4202.692383,4219.871582,4213.461426,4311.282227,4235.128418,4231.794922,4248.974121,4225.128418,4214.358887,4214.743652,4493.333496,4459.615234,4338.461426,4413.846191,,,,,,,,,,,,,,,,,,,,,,,,,,,,,,,,,,,,,,,,,,,,,,,,,,,,,,,,,,,,,,,,,,,,,,
1769163515.723379,1769163515.724324,106.0,0.0,4201.282227,4216.922852,4212.307617,4310.641113,4233.974121,4231.666504,4248.846191,4227.05127,4210.128418,4210.769043,4490.769043,4456.666504,4329.230957,4413.077148,,,,,,,,,,,,,,,,,,,,,,,,,,,,,,,,,,,,,,,,,,,,,,,,,,,,,,,,,,,,,,,,,,,,,,
1769163515.731188,1769163515.732132,107.0,0.0,4202.05127,4217.05127,4206.538574,4308.846191,4234.743652,4231.538574,4247.820313,4228.589844,4203.717773,4203.205078,4488.333496,4456.153809,4322.436035,4410.0,,,,,,,,,,,,,,,,,,,,,,,,,,,,,,,,,,,,,,,,,,,,,,,,,,,,,,,,,,,,,,,,,,,,,,
1769163515.738996,1769163515.739741,108.0,0.0,4204.102539,4221.794922,4202.94873,4311.666504,4233.333496,4231.025879,4246.282227,4223.974121,4206.538574,4208.077148,4489.358887,4458.077148,4327.820313,4407.820313,,,,,,,,,,,,,,,,,,,,,,,,,,,,,,,,,,,,,,,,,,,,,,,,,,,,,,,,,,,,,,,,,,,,,,
1769163515.746805,1769163515.747549,109.0,0.0,4202.692383,4221.666504,4203.974121,4312.436035,4231.922852,4232.692383,4247.563965,4225.0,4213.846191,4213.974121,4492.563965,4459.358887,4327.563965,4408.461426,,,,,,,,,,,,,,,,,,,,,,,,,,,,,,,,,,,,,,,,,,,,,,,,,,,,,,,,,,,,,,,,,,,,,,
1769163515.754613,1769163515.755457,110.0,0.0,4201.666504,4217.436035,4203.717773,4309.487305,4232.05127,4235.128418,4250.769043,4233.461426,4216.153809,4212.307617,4494.102539,4459.871582,4325.769043,4412.94873,1.808889,0.509925,0.501854,0.222938,0.168779,0.912953,0.648,0.402764,0.276229,0.136423,1.248538,0.465258,0.115907,0.171802,0.14181,0.730049,0.278566,0.235576,0.100804,0.068165,0.504591,0.201886,0.14758,0.049186,0.054138,0.17472,0.308015,0.236105,0.141436,0.105134,0.051594,0.235346,0.028902,0.085501,0.051419,0.216024,0.202309,0.128845,0.065044,0.072423,0.374279,0.338254,0.303343,0.163811,0.123514,0.379305,0.16823,0.147863,0.27061,0.078591,0.414083,0.256709,0.123988,0.095113,0.074495,1.065872,0.961163,0.220088,0.247728,0.126845,0.511651,0.317353,0.309364,0.264163,0.189928,1.435979,0.542173,0.062017,0.2336,0.233718
1769163515.762422,1769163515.763266,111.0,0.0,4205.0,4217.820313,4202.307617,4310.769043,4231.666504,4233.077148,4250.256348,4229.615234,4215.769043,4212.307617,4494.871582,4460.0,4332.307617,4415.128418,,,,,,,,,,,,,,,,,,,,,,,,,,,,,,,,,,,,,,,,,,,,,,,,,,,,,,,,,,,,,,,,,,,,,,
1769163515.77023,1769163515.771274,112.0,0.0,4215.512695,4220.256348,4205.128418,4318.461426,4231.410156,4230.256348,4246.666504,4222.692383,4217.692383,4215.128418,4501.025879,4463.589844,4337.820313,4414.743652,,,,,,,,,,,,,,,,,,,,,,,,,,,,,,,,,,,,,,,,,,,,,,,,,,,,,,,,,,,,,,,,,,,,,,
1769163515.778039,1769163515.779083,113.0,0.0,4218.974121,4219.102539,4205.641113,4322.563965,4231.922852,4230.641113,4245.641113,4229.102539,4218.589844,4216.410156,4507.94873,4467.692383,4336.153809,4414.102539,,,,,,,,,,,,,,,,,,,,,,,,,,,,,,,,,,,,,,,,,,,,,,,,,,,,,,,,,,,,,,,,,,,,,,
1769163515.785847,1769163515.786991,114.0,0.0,4209.230957,4217.436035,4199.871582,4317.436035,4230.897461,4229.487305,4245.769043,4230.384766,4217.563965,4216.410156,4504.487305,4466.538574,4333.717773,4410.641113,,,,,,,,,,,,,,,,,,,,,,,,,,,,,,,,,,,,,,,,,,,,,,,,,,,,,,,,,,,,,,,,,,,,,,
1769163515.793656,1769163515.794799,115.0,0.0,4206.153809,4217.692383,4198.205078,4310.384766,4228.333496,4228.717773,4245.128418,4224.358887,4214.487305,4211.282227,4498.589844,4461.922852,4333.846191,4410.128418,,,,,,,,,,,,,,,,,,,,,,,,,,,,,,,,,,,,,,,,,,,,,,,,,,,,,,,,,,,,,,,,,,,,,,
1769163515.801464,1769163515.802408,116.0,0.0,4215.641113,4217.820313,4199.615234,4309.871582,4227.436035,4233.589844,4247.436035,4229.230957,4212.436035,4207.563965,4502.307617,4461.666504,4335.256348,4412.820313,,,,,,,,,,,,,,,,,,,,,,,,,,,,,,,,,,,,,,,,,,,,,,,,,,,,,,,,,,,,,,,,,,,,,,
1769163515.809272,1769163515.810216,117.0,0.0,4229.487305,4218.717773,4201.538574,4317.307617,4231.794922,4231.666504,4247.94873,4232.692383,4213.846191,4211.922852,4505.641113,4470.769043,4337.563965,4413.461426,,,,,,,,,,,,,,,,,,,,,,,,,,,,,,,,,,,,,,,,,,,,,,,,,,,,,,,,,,,,,,,,,,,,,,
1769163515.817081,1769163515.818125,118.0,0.0,4236.538574,4218.205078,4205.256348,4321.922852,4231.025879,4222.307617,4243.717773,4227.179688,4214.230957,4216.410156,4498.717773,4477.692383,4339.102539,4413.717773,,,,,,,,,,,,,,,,,,,,,,,,,,,,,,,,,,,,,,,,,,,,,,,,,,,,,,,,,,,,,,,,,,,,,,
1769163515.824889,1769163515.825933,119.0,0.0,4224.743652,4214.358887,4198.461426,4313.589844,4221.282227,4222.307617,4243.461426,4227.94873,4215.641113,4214.487305,4493.333496,4470.897461,4338.846191,4410.897461,,,,,,,,,,,,,,,,,,,,,,,,,,,,,,,,,,,,,,,,,,,,,,,,,,,,,,,,,,,,,,,,,,,,,,
1769163515.832698,1769163515.833942,120.0,0.0,4210.128418,4212.692383,4188.974121,4307.307617,4221.410156,4232.179688,4248.333496,4230.512695,4219.615234,4213.205078,4498.461426,4465.384766,4340.128418,4408.077148,,,,,,,,,,,,,,,,,,,,,,,,,,,,,,,,,,,,,,,,,,,,,,,,,,,,,,,,,,,,,,,,,,,,,,
1769163515.840506,1769163515.84175,121.0,0.0,4218.077148,4215.256348,4193.974121,4315.384766,4230.128418,4235.897461,4248.974121,4230.641113,4218.846191,4213.974121,4504.102539,4469.615234,4341.922852,4416.538574,,,,,,,,,,,,,,,,,,,,,,,,,,,,,,,,,,,,,,,,,,,,,,,,,,,,,,,,,,,,,,,,,,,,,,
1769163515.848315,1769163515.849459,122.0,0.0,4234.871582,4216.282227,4203.077148,4323.717773,4227.179688,4227.436035,4246.025879,4231.025879,4215.0,4212.179688,4503.333496,4469.743652,4341.282227,4426.922852,,,,,,,,,,,,,,,,,,,,,,,,,,,,,,,,,,,,,,,,,,,,,,,,,,,,,,,,,,,,,,,,,,,,,,
1769163515.856123,1769163515.857267,123.0,0.0,4238.461426,4222.179688,4201.666504,4322.307617,4224.615234,4222.436035,4245.641113,4224.487305,4214.487305,4207.436035,4503.077148,4467.05127,4342.05127,4421.922852,,,,,,,,,,,,,,,,,,,,,,,,,,,,,,,,,,,,,,,,,,,,,,,,,,,,,,,,,,,,,,,,,,,,,,
1769163515.863932,1769163515.865275,124.0,0.0,4236.153809,4225.641113,4194.487305,4319.871582,4230.128418,4228.974121,4246.282227,4216.153809,4214.230957,4201.922852,4503.846191,4471.538574,4342.563965,4411.922852,,,,,,,,,,,,,,,,,,,,,,,,,,,,,,,,,,,,,,,,,,,,,,,,,,,,,,,,,,,,,,,,,,,,,,
1769163515.87174,1769163515.873084,125.0,0.0,4234.871582,4221.153809,4188.205078,4319.743652,4226.153809,4231.666504,4246.153809,4219.743652,4213.205078,4207.179688,4504.487305,4474.743652,4342.179688,4416.282227,,,,,,,,,,,,,,,,,,,,,,,,,,,,,,,,,,,,,,,,,,,,,,,,,,,,,,,,,,,,,,,,,,,,,,
1769163515.879548,1769163515.880792,126.0,0.0,4238.589844,4224.102539,4185.512695,4320.384766,4216.538574,4227.05127,4247.179688,4229.743652,4215.512695,4216.666504,4508.077148,4475.384766,4348.717773,4427.692383,1.528582,0.521658,0.507046,0.234346,0.166587,0.953787,0.745866,0.423349,0.259005,0.146955,1.163643,0.480466,0.126379,0.165767,0.143589,0.690284,0.289304,0.224762,0.081064,0.064109,0.611367,0.239317,0.165203,0.05701,0.060808,0.187014,0.370383,0.239482,0.122352,0.088151,0.063891,0.319148,0.042003,0.101784,0.047919,0.216558,0.187204,0.079417,0.077747,0.067344,0.396127,0.297061,0.267625,0.177333,0.131958,0.416838,0.210646,0.121498,0.272937,0.079251,0.448295,0.262401,0.127646,0.085981,0.068919,0.981285,1.015116,0.26423,0.255725,0.12626,0.591011,0.339666,0.307276,0.245696,0.192228,1.495134,0.560164,0.06085,0.262053,0.234821
1769163515.887357,1769163515.888601,127.0,0.0,4246.282227,4231.794922,4187.436035,4319.615234,4216.794922,4228.589844,4248.333496,4229.487305,4215.897461,4215.256348,4508.717773,4474.102539,4351.666504,4425.384766,,,,,,,,,,,,,,,,,,,,,,,,,,,,,,,,,,,,,,,,,,,,,,,,,,,,,,,,,,,,,,,,,,,,,,
1769163515.895165,1769163515.896209,0.0,0.0,4247.94873,4229.487305,4188.205078,4320.769043,4224.358887,4231.410156,4246.538574,4221.922852,4214.230957,4212.436035,4504.871582,4467.563965,4342.820313,4415.0,,,,,,,,,,,,,,,,,,,,,,,,,,,,,,,,,,,,,,,,,,,,,,,,,,,,,,,,,,,,,,,,,,,,,,
1769163515.902974,1769163515.904018,1.0,0.0,4246.410156,4228.333496,4185.256348,4322.436035,4227.436035,4227.820313,4245.128418,4220.512695,4215.512695,4216.410156,4505.0,4463.846191,4343.846191,4413.077148,,,,,,,,,,,,,,,,,,,,,,,,,,,,,,,,,,,,,,,,,,,,,,,,,,,,,,,,,,,,,,,,,,,,,,
1769163515.910782,1769163515.911726,2.0,0.0,4246.794922,4231.538574,4183.589844,4318.846191,4220.256348,4228.974121,4247.563965,4220.512695,4215.256348,4213.077148,4501.025879,4466.410156,4353.205078,4417.436035,,,,,,,,,,,,,,,,,,,,,,,,,,,,,,,,,,,,,,,,,,,,,,,,,,,,,,,,,,,,,,,,,,,,,,
1769163515.918591,1769163515.919535,3.0,0.0,4246.025879,4225.641113,4184.230957,4316.025879,4217.820313,4227.307617,4247.94873,4217.692383,4212.692383,4206.282227,4490.512695,4469.487305,4348.077148,4412.179688,,,,,,,,,,,,,,,,,,,,,,,,,,,,,,,,,,,,,,,,,,,,,,,,,,,,,,,,,,,,,,,,,,,,,,
1769163515.926399,1769163515.927143,4.0,0.0,4248.077148,4222.05127,4188.077148,4319.615234,4228.205078,4220.769043,4246.025879,4221.282227,4214.871582,4212.820313,4494.487305,4473.846191,4342.563965,4411.153809,,,,,,,,,,,,,,,,,,,,,,,,,,,,,,,,,,,,,,,,,,,,,,,,,,,,,,,,,,,,,,,,,,,,,,
1769163515.934208,1769163515.934952,5.0,0.0,4253.333496,4228.461426,4188.461426,4323.333496,4232.820313,4221.794922,4245.769043,4226.538574,4218.077148,4219.358887,4506.538574,4478.333496,4351.922852,4423.333496,,,,,,,,,,,,,,,,,,,,,,,,,,,,,,,,,,,,,,,,,,,,,,,,,,,,,,,,,,,,,,,,,,,,,,
1769163515.942016,1769163515.94266,6.0,0.0,4252.563965,4231.282227,4184.743652,4324.743652,4228.333496,4225.769043,4245.512695,4225.128418,4216.666504,4212.692383,4506.794922,4472.179688,4352.05127,4423.589844,,,,,,,,,,,,,,,,,,,,,,,,,,,,,,,,,,,,,,,,,,,,,,,,,,,,,,,,,,,,,,,,,,,,,,
1769163515.949825,1769163515.950469,7.0,0.0,4248.974121,4230.128418,4182.820313,4324.102539,4229.230957,4226.666504,4245.384766,4223.333496,4215.512695,4205.384766,4503.589844,4463.589844,4343.974121,4417.307617,,,,,,,,,,,,,,,,,,,,,,,,,,,,,,,,,,,,,,,,,,,,,,,,,,,,,,,,,,,,,,,,,,,,,,
1769163515.957633,1769163515.958477,8.0,0.0,4250.384766,4228.333496,4184.743652,4322.05127,4230.384766,4225.0,4245.512695,4220.0,4212.692383,4203.717773,4500.128418,4462.563965,4343.333496,4416.922852,,,,,,,,,,,,,,,,,,,,,,,,,,,,,,,,,,,,,,,,,,,,,,,,,,,,,,,,,,,,,,,,,,,,,,
1769163515.965442,1769163515.966286,9.0,0.0,4250.0,4221.922852,4184.102539,4319.743652,4227.05127,4221.153809,4243.717773,4214.230957,4209.102539,4202.692383,4491.025879,4460.897461,4341.025879,4410.512695,,,,,,,,,,,,,,,,,,,,,,,,,,,,,,,,,,,,,,,,,,,,,,,,,,,,,,,,,,,,,,,,,,,,,,
1769163515.97325,1769163515.974194,10.0,0.0,4245.769043,4217.820313,4178.461426,4317.307617,4226.666504,4221.794922,4243.333496,4218.077148,4212.94873,4202.05127,4488.461426,4459.230957,4338.333496,4406.410156,,,,,,,,,,,,,,,,,,,,,,,,,,,,,,,,,,,,,,,,,,,,,,,,,,,,,,,,,,,,,,,,,,,,,,
1769163515.981058,1769163515.982002,11.0,0.0,4247.307617,4226.666504,4178.717773,4317.436035,4228.333496,4229.102539,4247.94873,4222.94873,4216.922852,4200.384766,4493.333496,4461.922852,4340.897461,4413.461426,,,,,,,,,,,,,,,,,,,,,,,,,,,,,,,,,,,,,,,,,,,,,,,,,,,,,,,,,,,,,,,,,,,,,,
1769163515.988867,1769163515.990011,12.0,0.0,4250.128418,4229.615234,4179.743652,4318.077148,4226.666504,4232.692383,4250.0,4219.487305,4213.846191,4199.743652,4493.077148,4463.205078,4341.282227,4415.384766,,,,,,,,,,,,,,,,,,,,,,,,,,,,,,,,,,,,,,,,,,,,,,,,,,,,,,,,,,,,,,,,,,,,,,
1769163515.996675,1769163515.997819,13.0,0.0,4247.436035,4219.871582,4173.461426,4313.717773,4227.05127,4230.128418,4247.563965,4218.461426,4213.846191,4203.077148,4491.410156,4461.538574,4341.153809,4411.153809,,,,,,,,,,,,,,,,,,,,,,,,,,,,,,,,,,,,,,,,,,,,,,,,,,,,,,,,,,,,,,,,,,,,,,
1769163516.004484,1769163516.005528,14.0,0.0,4243.846191,4215.769043,4169.358887,4309.871582,4230.897461,4230.384766,4248.461426,4221.410156,4217.436035,4204.615234,4492.436035,4462.05127,4342.94873,4409.615234,1.168717,0.504007,0.461648,0.25602,0.169212,0.945172,0.816455,0.420877,0.243712,0.166416,0.997178,0.469496,0.15311,0.176374,0.143276,0.614965,0.289963,0.202652,0.075327,0.064509,0.673858,0.276005,0.177189,0.064875,0.063995,0.234786,0.400322,0.23692,0.111545,0.076595,0.083301,0.382704,0.053731,0.114573,0.045514,0.240193,0.165727,0.063715,0.093059,0.063575,0.452117,0.23884,0.230641,0.183665,0.138633,0.53241,0.255162,0.094716,0.261245,0.086721,0.487611,0.269522,0.135693,0.078758,0.066643,0.854583,0.976353,0.282723,0.250703,0.122596,0.709362,0.357055,0.282741,0.224398,0.19777,1.506482,0.58603,0.077691,0.30139,0.233006
1769163516.012292,1769163516.013336,15.0,0.0,4243.589844,4218.333496,4172.436035,4312.179688,4230.256348,4230.641113,4249.358887,4222.307617,4214.615234,4200.512695,4491.922852,4461.538574,4340.512695,4407.563965,,,,,,,,,,,,,,,,,,,,,,,,,,,,,,,,,,,,,,,,,,,,,,,,,,,,,,,,,,,,,,,,,,,,,,
1769163516.020101,1769163516.021344,16.0,0.0,4246.922852,4217.436035,4174.102539,4313.333496,4228.589844,4224.743652,4246.794922,4220.641113,4212.179688,4196.410156,4491.153809,4459.743652,4339.230957,4407.563965,,,,,,,,,,,,,,,,,,,,,,,,,,,,,,,,,,,,,,,,,,,,,,,,,,,,,,,,,,,,,,,,,,,,,,
1769163516.027909,1769163516.029153,17.0,0.0,4251.538574,4218.974121,4171.025879,4312.05127,4230.0,4222.179688,4244.871582,4219.871582,4214.743652,4196.794922,4491.282227,4460.384766,4343.461426,4411.282227,,,,,,,,,,,,,,,,,,,,,,,,,,,,,,,,,,,,,,,,,,,,,,,,,,,,,,,,,,,,,,,,,,,,,,
1769163516.035718,1769163516.036861,18.0,0.0,4249.743652,4220.769043,4168.717773,4311.922852,4224.743652,4225.384766,4245.641113,4220.256348,4215.769043,4200.256348,4493.461426,4461.922852,4343.205078,4412.436035,,,,,,,,,,,,,,,,,,,,,,,,,,,,,,,,,,,,,,,,,,,,,,,,,,,,,,,,,,,,,,,,,,,,,,
1769163516.043526,1769163516.04467,19.0,0.0,4246.666504,4216.025879,4167.307617,4308.077148,4217.692383,4226.794922,4247.563965,4219.615234,4213.974121,4200.897461,4493.461426,4459.230957,4337.820313,4407.05127,,,,,,,,,,,,,,,,,,,,,,,,,,,,,,,,,,,,,,,,,,,,,,,,,,,,,,,,,,,,,,,,,,,,,,
1769163516.051335,1769163516.052278,20.0,0.0,4255.384766,4219.102539,4170.384766,4309.743652,4222.05127,4226.282227,4248.205078,4219.871582,4213.717773,4197.563965,4491.025879,4457.307617,4338.077148,4403.717773,,,,,,,,,,,,,,,,,,,,,,,,,,,,,,,,,,,,,,,,,,,,,,,,,,,,,,,,,,,,,,,,,,,,,,
1769163516.059143,1769163516.060087,21.0,0.0,4264.743652,4228.333496,4178.461426,4319.358887,4228.461426,4231.025879,4245.641113,4226.153809,4214.743652,4197.05127,4497.563965,4466.922852,4344.871582,4415.256348,,,,,,,,,,,,,,,,,,,,,,,,,,,,,,,,,,,,,,,,,,,,,,,,,,,,,,,,,,,,,,,,,,,,,,
1769163516.066951,1769163516.067795,22.0,0.0,4264.743652,4231.922852,4181.794922,4325.256348,4231.153809,4233.589844,4243.333496,4230.384766,4214.487305,4201.794922,4508.205078,4478.717773,4350.512695,4429.871582,,,,,,,,,,,,,,,,,,,,,,,,,,,,,,,,,,,,,,,,,,,,,,,,,,,,,,,,,,,,,,,,,,,,,,
1769163516.07476,1769163516.075604,23.0,0.0,4264.871582,4231.025879,4180.0,4321.410156,4231.025879,4226.410156,4244.102539,4228.077148,4215.512695,4204.230957,4510.0,4479.743652,4353.205078,4431.922852,,,,,,,,,,,,,,,,,,,,,,,,,,,,,,,,,,,,,,,,,,,,,,,,,,,,,,,,,,,,,,,,,,,,,,
1769163516.082568,1769163516.083612,24.0,0.0,4267.05127,4226.922852,4181.282227,4317.563965,4222.820313,4227.436035,4245.384766,4230.256348,4216.410156,4201.794922,4506.922852,4475.897461,4351.922852,4428.717773,,,,,,,,,,,,,,,,,,,,,,,,,,,,,,,,,,,,,,,,,,,,,,,,,,,,,,,,,,,,,,,,,,,,,,
1769163516.090377,1769163516.09142,25.0,0.0,4267.563965,4226.282227,4186.538574,4322.307617,4217.436035,4232.307617,4244.230957,4228.461426,4214.487305,4199.487305,4507.563965,4476.025879,4346.025879,4426.666504,,,,,,,,,,,,,,,,,,,,,,,,,,,,,,,,,,,,,,,,,,,,,,,,,,,,,,,,,,,,,,,,,,,,,,
1769163516.098185,1769163516.099129,26.0,0.0,4268.846191,4232.179688,4183.846191,4323.846191,4223.974121,4225.641113,4243.846191,4222.563965,4213.846191,4201.410156,4508.461426,4476.538574,4342.94873,4424.615234,,,,,,,,,,,,,,,,,,,,,,,,,,,,,,,,,,,,,,,,,,,,,,,,,,,,,,,,,,,,,,,,,,,,,,
1769163516.105994,1769163516.106937,27.0,0.0,4263.974121,4227.820313,4173.461426,4315.128418,4222.692383,4223.461426,4245.897461,4225.897461,4215.0,4203.461426,4506.794922,4476.794922,4345.512695,4422.94873,,,,,,,,,,,,,,,,,,,,,,,,,,,,,,,,,,,,,,,,,,,,,,,,,,,,,,,,,,,,,,,,,,,,,,
1769163516.113802,1769163516.114546,28.0,0.0,4255.897461,4216.410156,4166.153809,4309.102539,4218.846191,4230.384766,4247.307617,4231.538574,4213.461426,4202.436035,4506.666504,4476.410156,4345.384766,4418.846191,,,,,,,,,,,,,,,,,,,,,,,,,,,,,,,,,,,,,,,,,,,,,,,,,,,,,,,,,,,,,,,,,,,,,,
1769163516.121611,1769163516.122355,29.0,0.0,4264.230957,4225.0,4170.641113,4312.436035,4226.794922,4229.615234,4245.0,4228.077148,4212.05127,4199.871582,4504.358887,4474.358887,4341.410156,4415.128418,,,,,,,,,,,,,,,,,,,,,,,,,,,,,,,,,,,,,,,,,,,,,,,,,,,,,,,,,,,,,,,,,,,,,,
1769163516.129419,1769163516.130063,30.0,0.0,4274.743652,4233.461426,4177.563965,4313.461426,4226.538574,4220.128418,4243.461426,4226.666504,4215.128418,4199.102539,4498.846191,4474.230957,4343.077148,4415.384766,0.803979,0.466323,0.387906,0.29031,0.177459,0.899638,0.831947,0.389884,0.22936,0.189792,0.810413,0.442885,0.189824,0.206176,0.141282,0.533425,0.278837,0.170194,0.084293,0.069417,0.68343,0.311104,0.179426,0.072243,0.062806,0.296365,0.38504,0.231037,0.110356,0.069507,0.101251,0.404775,0.060252,0.119261,0.044228,0.27135,0.138571,0.065916,0.108356,0.061726,0.516639,0.180638,0.195872,0.183319,0.144471,0.689316,0.287499,0.071155,0.238987,0.100086,0.504548,0.286176,0.149281,0.072995,0.067661,0.708441,0.870429,0.271389,0.230602,0.115951,0.820692,0.375323,0.239597,0.20023,0.208377,1.449883,0.638528,0.106504,0.335216,0.229891
1769163516.137227,1769163516.137872,31.0,0.0,4263.461426,4217.307617,4172.692383,4306.794922,4217.05127,4221.025879,4245.384766,4233.077148,4216.538574,4199.615234,4491.666504,4474.358887,4343.333496,4410.641113,,,,,,,,,,,,,,,,,,,,,,,,,,,,,,,,,,,,,,,,,,,,,,,,,,,,,,,,,,,,,,,,,,,,,,
1769163516.145036,1769163516.14588,32.0,0.0,4253.974121,4209.743652,4168.717773,4306.025879,4218.717773,4225.512695,4247.179688,4234.230957,4215.769043,4199.358887,4489.358887,4475.384766,4337.820313,4405.384766,,,,,,,,,,,,,,,,,,,,,,,,,,,,,,,,,,,,,,,,,,,,,,,,,,,,,,,,,,,,,,,,,,,,,,
1769163516.152844,1769163516.153688,33.0,0.0,4264.871582,4221.153809,4172.692383,4309.230957,4221.794922,4223.333496,4247.820313,4230.769043,4217.05127,4200.769043,4498.077148,4477.563965,4341.153809,4412.820313,,,,,,,,,,,,,,,,,,,,,,,,,,,,,,,,,,,,,,,,,,,,,,,,,,,,,,,,,,,,,,,,,,,,,,
1769163516.160653,1769163516.161597,34.0,0.0,4268.846191,4222.307617,4172.436035,4309.487305,4215.641113,4219.230957,4247.307617,4230.128418,4217.179688,4203.077148,4507.436035,4477.05127,4350.512695,4415.641113,,,,,,,,,,,,,,,,,,,,,,,,,,,,,,,,,,,,,,,,,,,,,,,,,,,,,,,,,,,,,,,,,,,,,,
1769163516.168461,1769163516.169405,35.0,0.0,4262.05127,4215.384766,4169.615234,4309.743652,4215.256348,4216.282227,4244.102539,4232.94873,4217.05127,4205.641113,4510.384766,4473.589844,4348.974121,4406.538574,,,,,,,,,,,,,,,,,,,,,,,,,,,,,,,,,,,,,,,,,,,,,,,,,,,,,,,,,,,,,,,,,,,,,,
1769163516.17627,1769163516.177413,36.0,0.0,4263.589844,4216.410156,4171.282227,4311.282227,4219.487305,4224.230957,4244.871582,4230.0,4216.025879,4201.410156,4505.128418,4470.641113,4341.153809,4403.333496,,,,,,,,,,,,,,,,,,,,,,,,,,,,,,,,,,,,,,,,,,,,,,,,,,,,,,,,,,,,,,,,,,,,,,
1769163516.184078,1769163516.185222,37.0,0.0,4270.641113,4217.94873,4175.512695,4310.641113,4218.717773,4232.307617,4248.333496,4219.358887,4207.692383,4192.307617,4495.256348,4471.538574,4340.128418,4409.487305,,,,,,,,,,,,,,,,,,,,,,,,,,,,,,,,,,,,,,,,,,,,,,,,,,,,,,,,,,,,,,,,,,,,,,
1769163516.191887,1769163516.19313,38.0,0.0,4273.077148,4217.307617,4177.820313,4308.974121,4218.461426,4222.94873,4239.487305,4216.153809,4200.641113,4192.563965,4494.487305,4474.743652,4343.077148,4414.230957,,,,,,,,,,,,,,,,,,,,,,,,,,,,,,,,,,,,,,,,,,,,,,,,,,,,,,,,,,,,,,,,,,,,,,
1769163516.199695,1769163516.200939,39.0,0.0,4272.436035,4217.563965,4174.230957,4307.820313,4220.512695,4212.436035,4232.820313,4219.615234,4206.794922,4198.974121,4500.128418,4473.974121,4344.230957,4412.563965,,,,,,,,,,,,,,,,,,,,,,,,,,,,,,,,,,,,,,,,,,,,,,,,,,,,,,,,,,,,,,,,,,,,,,
1769163516.207503,1769163516.208547,40.0,0.0,4267.179688,4217.179688,4168.846191,4308.077148,4221.666504,4218.717773,4244.102539,4220.384766,4212.436035,4202.05127,4497.436035,4467.179688,4340.641113,4406.153809,,,,,,,,,,,,,,,,,,,,,,,,,,,,,,,,,,,,,,,,,,,,,,,,,,,,,,,,,,,,,,,,,,,,,,
1769163516.215312,1769163516.216356,41.0,0.0,4262.436035,4216.153809,4169.487305,4309.615234,4220.256348,4224.358887,4246.410156,4218.589844,4205.256348,4197.94873,4489.743652,4456.922852,4335.128418,4396.410156,,,,,,,,,,,,,,,,,,,,,,,,,,,,,,,,,,,,,,,,,,,,,,,,,,,,,,,,,,,,,,,,,,,,,,
