Timestamp,OriginalTimestamp,EEG.Counter,EEG.Interpolated,EEG.AF3,EEG.F7,EEG.F3,EEG.FC5,EEG.T7,EEG.P7,EEG.O1,EEG.O2,EEG.P8,EEG.T8,EEG.FC6,EEG.F4,EEG.F8,EEG.AF4,POW.AF3.Theta,POW.AF3.Alpha,POW.AF3.BetaL,POW.AF3.BetaH,POW.AF3.Gamma,POW.F7.Theta,POW.F7.Alpha,POW.F7.BetaL,POW.F7.BetaH,POW.F7.Gamma,POW.F3.Theta,POW.F3.Alpha,POW.F3.BetaL,POW.F3.BetaH,POW.F3.Gamma,POW.FC5.Theta,POW.FC5.Alpha,POW.FC5.BetaL,POW.FC5.BetaH,POW.FC5.Gamma,POW.T7.Theta,POW.T7.Alpha,POW.T7.BetaL,POW.T7.BetaH,POW.T7.Gamma,POW.P7.Theta,POW.P7.Alpha,POW.P7.BetaL,POW.P7.BetaH,POW.P7.Gamma,POW.O1.Theta,POW.O1.Alpha,POW.O1.BetaL,POW.O1.BetaH,POW.O1.Gamma,POW.O2.Theta,POW.O2.Alpha,POW.O2.BetaL,POW.O2.BetaH,POW.O2.Gamma,POW.P8.Theta,POW.P8.Alpha,POW.P8.BetaL,POW.P8.BetaH,POW.P8.Gamma,POW.T8.Theta,POW.T8.Alpha,POW.T8.BetaL,POW.T8.BetaH,POW.T8.Gamma,POW.FC6.Theta,POW.FC6.Alpha,POW.FC6.BetaL,POW.FC6.BetaH,POW.FC6.Gamma,POW.F4.Theta,POW.F4.Alpha,POW.F4.BetaL,POW.F4.BetaH,POW.F4.Gamma,POW.F8.Theta,POW.F8.Alpha,POW.F8.BetaL,POW.F8.BetaH,POW.F8.Gamma,POW.AF4.Theta,POW.AF4.Alpha,POW.AF4.BetaL,POW.AF4.BetaH,POW.AF4.Gamma
1768972923.477885,1768972923.478387,85.0,0.0,4373.461426,4366.922852,4348.461426,4372.820313,4363.333496,4353.717773,4356.794922,4365.641113,4361.410156,4334.615234,4426.922852,4492.436035,4358.846191,4410.384766,,,,,,,,,,,,,,,,,,,,,,,,,,,,,,,,,,,,,,,,,,,,,,,,,,,,,,,,,,,,,,,,,,,,,,
1768972923.485693,1768972923.486096,86.0,0.0,4380.128418,4368.461426,4346.025879,4374.102539,4361.666504,4366.794922,4366.282227,4367.94873,4363.846191,4337.179688,4432.820313,4498.461426,4366.282227,4417.436035,,,,,,,,,,,,,,,,,,,,,,,,,,,,,,,,,,,,,,,,,,,,,,,,,,,,,,,,,,,,,,,,,,,,,,
1768972923.493502,1768972923.493904,87.0,0.0,4384.487305,4369.102539,4350.384766,4374.358887,4363.205078,4375.897461,4378.461426,4367.692383,4364.102539,4337.436035,4434.487305,4504.358887,4365.128418,4415.512695,,,,,,,,,,,,,,,,,,,,,,,,,,,,,,,,,,,,,,,,,,,,,,,,,,,,,,,,,,,,,,,,,,,,,,
1768972923.50131,1768972923.501912,88.0,0.0,4376.666504,4363.077148,4349.615234,4373.589844,4362.692383,4361.666504,4367.307617,4365.128418,4359.358887,4327.94873,4426.538574,4499.871582,4353.461426,4405.128418,,,,,,,,,,,,,,,,,,,,,,,,,,,,,,,,,,,,,,,,,,,,,,,,,,,,,,,,,,,,,,,,,,,,,,
1768972923.509119,1768972923.509721,89.0,0.0,4369.615234,4355.384766,4341.794922,4371.410156,4359.871582,4352.436035,4353.717773,4360.384766,4353.333496,4323.205078,4426.025879,4494.230957,4360.769043,4409.871582,,,,,,,,,,,,,,,,,,,,,,,,,,,,,,,,,,,,,,,,,,,,,,,,,,,,,,,,,,,,,,,,,,,,,,
1768972923.516927,1768972923.517429,90.0,0.0,4370.641113,4352.563965,4336.666504,4366.794922,4364.487305,4364.358887,4363.589844,4359.102539,4355.256348,4328.461426,4430.384766,4494.871582,4368.974121,4414.743652,,,,,,,,,,,,,,,,,,,,,,,,,,,,,,,,,,,,,,,,,,,,,,,,,,,,,,,,,,,,,,,,,,,,,,
1768972923.524736,1768972923.525238,91.0,0.0,4369.487305,4355.897461,4337.307617,4367.307617,4367.563965,4371.025879,4375.0,4363.589844,4360.512695,4330.897461,4425.897461,4494.871582,4357.820313,4407.94873,,,,,,,,,,,,,,,,,,,,,,,,,,,,,,,,,,,,,,,,,,,,,,,,,,,,,,,,,,,,,,,,,,,,,,
1768972923.532544,1768972923.532846,92.0,0.0,4370.384766,4363.974121,4342.563965,4373.589844,4364.230957,4361.922852,4369.102539,4365.384766,4363.717773,4336.025879,4429.230957,4498.461426,4363.461426,4410.0,,,,,,,,,,,,,,,,,,,,,,,,,,,,,,,,,,,,,,,,,,,,,,,,,,,,,,,,,,,,,,,,,,,,,,
1768972923.540352,1768972923.540655,93.0,0.0,4375.384766,4370.512695,4347.179688,4374.487305,4365.128418,4355.256348,4359.230957,4364.871582,4367.307617,4346.153809,4444.102539,4508.846191,4382.692383,4417.94873,,,,,,,,,,,,,,,,,,,,,,,,,,,,,,,,,,,,,,,,,,,,,,,,,,,,,,,,,,,,,,,,,,,,,,
1768972923.548161,1768972923.548563,94.0,0.0,4371.153809,4365.769043,4341.794922,4369.743652,4367.307617,4366.025879,4367.179688,4371.794922,4369.615234,4348.077148,4442.820313,4509.487305,4376.282227,4408.974121,1.461563,0.585387,0.166919,0.318356,0.163123,1.172886,0.974669,0.206467,0.304609,0.143507,0.987284,0.211852,0.10057,0.200578,0.088979,0.511043,0.24466,0.119062,0.204894,0.100632,0.436916,0.05449,0.109222,0.081527,0.059492,0.893511,0.295273,0.209738,0.187557,0.191047,1.003743,0.226996,0.17936,0.128234,0.153728,0.451603,0.240265,0.135519,0.054513,0.089826,0.901197,0.593259,0.137478,0.114737,0.094403,0.741809,1.029114,0.248261,0.10881,0.082284,1.27475,1.131381,0.30421,0.15263,0.179612,2.278475,1.148903,0.214209,0.17166,0.147976,1.664318,1.498832,0.243249,0.180736,0.172882,1.729484,1.301629,0.440355,0.223139,0.187653
1768972923.555969,1768972923.556372,95.0,0.0,4362.563965,4357.563965,4333.974121,4368.717773,4366.794922,4378.589844,4381.922852,4376.538574,4367.820313,4340.128418,4430.128418,4500.641113,4362.94873,4399.358887,,,,,,,,,,,,,,,,,,,,,,,,,,,,,,,,,,,,,,,,,,,,,,,,,,,,,,,,,,,,,,,,,,,,,,
1768972923.563778,1768972923.56438,96.0,0.0,4366.794922,4356.410156,4337.94873,4372.436035,4367.05127,4365.384766,4372.436035,4367.692383,4363.077148,4334.871582,4428.589844,4493.974121,4364.615234,4401.666504,,,,,,,,,,,,,,,,,,,,,,,,,,,,,,,,,,,,,,,,,,,,,,,,,,,,,,,,,,,,,,,,,,,,,,
1768972923.571586,1768972923.572188,97.0,0.0,4373.717773,4359.358887,4344.230957,4373.205078,4364.615234,4350.512695,4354.102539,4361.538574,4361.794922,4337.563965,4431.410156,4487.94873,4366.922852,4402.05127,,,,,,,,,,,,,,,,,,,,,,,,,,,,,,,,,,,,,,,,,,,,,,,,,,,,,,,,,,,,,,,,,,,,,,
1768972923.579395,1768972923.580097,98.0,0.0,4368.461426,4358.461426,4337.94873,4367.307617,4360.128418,4361.794922,4360.897461,4366.922852,4362.563965,4337.563965,4425.641113,4484.871582,4364.871582,4397.563965,,,,,,,,,,,,,,,,,,,,,,,,,,,,,,,,,,,,,,,,,,,,,,,,,,,,,,,,,,,,,,,,,,,,,,
1768972923.587203,1768972923.587905,99.0,0.0,4363.717773,4355.256348,4328.589844,4365.512695,4362.05127,4366.922852,4366.794922,4368.461426,4359.615234,4334.358887,4423.846191,4488.205078,4366.666504,4398.717773,,,,,,,,,,,,,,,,,,,,,,,,,,,,,,,,,,,,,,,,,,,,,,,,,,,,,,,,,,,,,,,,,,,,,,
1768972923.595012,1768972923.595913,100.0,0.0,4366.025879,4356.922852,4332.179688,4371.410156,4364.615234,4356.410156,4355.897461,4361.282227,4356.922852,4331.282227,4429.102539,4487.179688,4368.205078,4401.666504,,,,,,,,,,,,,,,,,,,,,,,,,,,,,,,,,,,,,,,,,,,,,,,,,,,,,,,,,,,,,,,,,,,,,,
1768972923.60282,1768972923.603722,101.0,0.0,4367.563965,4356.025879,4336.922852,4371.410156,4360.0,4355.512695,4358.717773,4357.820313,4357.436035,4329.615234,4427.563965,4482.05127,4363.589844,4394.102539,,,,,,,,,,,,,,,,,,,,,,,,,,,,,,,,,,,,,,,,,,,,,,,,,,,,,,,,,,,,,,,,,,,,,,
1768972923.610628,1768972923.61143,102.0,0.0,4368.974121,4354.358887,4332.179688,4365.641113,4355.641113,4359.358887,4368.077148,4360.384766,4358.589844,4330.256348,4424.743652,4482.563965,4362.307617,4396.922852,,,,,,,,,,,,,,,,,,,,,,,,,,,,,,,,,,,,,,,,,,,,,,,,,,,,,,,,,,,,,,,,,,,,,,
1768972923.618437,1768972923.619239,103.0,0.0,4371.794922,4358.717773,4329.487305,4363.974121,4357.563965,4358.205078,4363.717773,4360.512695,4355.128418,4330.384766,4430.128418,4484.615234,4368.461426,4412.436035,,,,,,,,,,,,,,,,,,,,,,,,,,,,,,,,,,,,,,,,,,,,,,,,,,,,,,,,,,,,,,,,,,,,,,
1768972923.626245,1768972923.627247,104.0,0.0,4366.282227,4356.410156,4331.666504,4364.230957,4361.025879,4362.179688,4363.846191,4359.487305,4353.333496,4326.282227,4424.743652,4479.487305,4357.94873,4402.05127,,,,,,,,,,,,,,,,,,,,,,,,,,,,,,,,,,,,,,,,,,,,,,,,,,,,,,,,,,,,,,,,,,,,,,
1768972923.634054,1768972923.635056,105.0,0.0,4363.717773,4350.0,4335.256348,4365.641113,4361.410156,4364.230957,4368.846191,4360.512695,4356.922852,4323.205078,4410.897461,4472.563965,4345.128418,4385.641113,,,,,,,,,,,,,,,,,,,,,,,,,,,,,,,,,,,,,,,,,,,,,,,,,,,,,,,,,,,,,,,,,,,,,,
1768972923.641862,1768972923.642964,106.0,0.0,4370.0,4352.692383,4336.922852,4366.922852,4358.333496,4363.333496,4365.512695,4362.179688,4357.05127,4329.230957,4417.436035,4475.0,4363.717773,4400.512695,,,,,,,,,,,,,,,,,,,,,,,,,,,,,,,,,,,,,,,,,,,,,,,,,,,,,,,,,,,,,,,,,,,,,,
1768972923.649671,1768972923.650772,107.0,0.0,4371.153809,4356.282227,4334.615234,4364.487305,4355.256348,4364.230957,4360.897461,4360.256348,4353.077148,4332.179688,4431.025879,4481.153809,4381.538574,4416.410156,,,,,,,,,,,,,,,,,,,,,,,,,,,,,,,,,,,,,,,,,,,,,,,,,,,,,,,,,,,,,,,,,,,,,,
1768972923.657479,1768972923.658381,108.0,0.0,4374.871582,4355.128418,4335.641113,4365.897461,4357.692383,4364.487305,4366.410156,4358.077148,4351.538574,4328.589844,4429.743652,4485.128418,4378.974121,4419.358887,,,,,,,,,,,,,,,,,,,,,,,,,,,,,,,,,,,,,,,,,,,,,,,,,,,,,,,,,,,,,,,,,,,,,,
1768972923.665288,1768972923.666189,109.0,0.0,4379.487305,4355.384766,4337.179688,4368.077148,4358.077148,4359.102539,4365.256348,4357.05127,4351.794922,4329.615234,4426.538574,4484.615234,4381.666504,4426.282227,,,,,,,,,,,,,,,,,,,,,,,,,,,,,,,,,,,,,,,,,,,,,,,,,,,,,,,,,,,,,,,,,,,,,,
1768972923.673096,1768972923.673898,110.0,0.0,4369.871582,4353.205078,4331.538574,4360.897461,4354.358887,4345.128418,4346.282227,4350.769043,4350.256348,4333.589844,4428.846191,4479.743652,4387.692383,4424.230957,1.627528,0.823364,0.204506,0.352904,0.191092,1.050531,0.950837,0.228894,0.350339,0.156785,0.969023,0.264235,0.110216,0.224127,0.101667,0.56432,0.286179,0.145566,0.228968,0.110476,0.366897,0.064769,0.123257,0.094389,0.056136,0.774219,0.349535,0.261072,0.201319,0.190986,0.976582,0.315041,0.197917,0.163352,0.158184,0.452231,0.281245,0.170144,0.068057,0.108536,1.064314,0.632832,0.170849,0.132486,0.09836,0.890595,1.083951,0.244147,0.12454,0.079714,1.242506,1.513189,0.273186,0.206439,0.183381,2.140519,1.699783,0.263034,0.206449,0.15614,1.523256,1.615565,0.230229,0.183203,0.178815,1.708202,1.997134,0.370909,0.213223,0.187139
1768972923.680905,1768972923.681706,111.0,0.0,4360.897461,4348.717773,4326.538574,4354.615234,4354.230957,4337.563965,4334.102539,4343.589844,4345.769043,4332.179688,4427.307617,4477.436035,4383.589844,4412.563965,,,,,,,,,,,,,,,,,,,,,,,,,,,,,,,,,,,,,,,,,,,,,,,,,,,,,,,,,,,,,,,,,,,,,,
1768972923.688713,1768972923.689715,112.0,0.0,4365.769043,4354.615234,4330.512695,4360.769043,4357.05127,4347.94873,4344.102539,4342.692383,4343.846191,4326.666504,4425.384766,4477.05127,4380.512695,4414.743652,,,,,,,,,,,,,,,,,,,,,,,,,,,,,,,,,,,,,,,,,,,,,,,,,,,,,,,,,,,,,,,,,,,,,,
1768972923.696521,1768972923.697523,113.0,0.0,4363.974121,4356.538574,4334.102539,4364.358887,4358.589844,4360.384766,4357.820313,4347.692383,4347.179688,4326.025879,4425.897461,4477.307617,4380.897461,4415.256348,,,,,,,,,,,,,,,,,,,,,,,,,,,,,,,,,,,,,,,,,,,,,,,,,,,,,,,,,,,,,,,,,,,,,,
1768972923.70433,1768972923.705432,114.0,0.0,4354.487305,4348.974121,4331.282227,4358.205078,4356.922852,4361.410156,4358.717773,4351.410156,4351.282227,4327.05127,4424.358887,4478.717773,4379.743652,4407.307617,,,,,,,,,,,,,,,,,,,,,,,,,,,,,,,,,,,,,,,,,,,,,,,,,,,,,,,,,,,,,,,,,,,,,,
1768972923.712138,1768972923.71324,115.0,0.0,4357.563965,4354.615234,4330.0,4359.358887,4356.025879,4359.615234,4352.94873,4350.384766,4349.102539,4327.307617,4425.641113,4480.128418,4382.692383,4410.512695,,,,,,,,,,,,,,,,,,,,,,,,,,,,,,,,,,,,,,,,,,,,,,,,,,,,,,,,,,,,,,,,,,,,,,
1768972923.719947,1768972923.720849,116.0,0.0,4360.384766,4363.205078,4332.307617,4365.897461,4357.563965,4364.102539,4356.538574,4348.205078,4344.487305,4326.538574,4426.538574,4479.615234,4381.282227,4410.641113,,,,,,,,,,,,,,,,,,,,,,,,,,,,,,,,,,,,,,,,,,,,,,,,,,,,,,,,,,,,,,,,,,,,,,
1768972923.727755,1768972923.728657,117.0,0.0,4355.641113,4359.358887,4333.077148,4366.538574,4358.974121,4369.487305,4365.0,4348.717773,4344.615234,4324.487305,4425.641113,4481.794922,4379.102539,4401.538574,,,,,,,,,,,,,,,,,,,,,,,,,,,,,,,,,,,,,,,,,,,,,,,,,,,,,,,,,,,,,,,,,,,,,,
1768972923.735564,1768972923.736366,118.0,0.0,4352.563965,4353.846191,4330.897461,4361.410156,4357.692383,4367.94873,4360.769043,4352.692383,4349.871582,4326.666504,4425.0,4483.589844,4380.0,4397.05127,,,,,,,,,,,,,,,,,,,,,,,,,,,,,,,,,,,,,,,,,,,,,,,,,,,,,,,,,,,,,,,,,,,,,,
1768972923.743372,1768972923.744174,119.0,0.0,4354.871582,4357.436035,4331.794922,4359.743652,4357.94873,4365.128418,4354.743652,4354.102539,4355.769043,4333.205078,4425.769043,4482.05127,4380.641113,4398.974121,,,,,,,,,,,,,,,,,,,,,,,,,,,,,,,,,,,,,,,,,,,,,,,,,,,,,,,,,,,,,,,,,,,,,,
1768972923.751181,1768972923.751783,120.0,0.0,4356.666504,4358.717773,4332.692383,4362.05127,4362.05127,4367.563965,4358.717773,4354.102539,4356.794922,4338.205078,4427.94873,4483.589844,4381.794922,4402.820313,,,,,,,,,,,,,,,,,,,,,,,,,,,,,,,,,,,,,,,,,,,,,,,,,,,,,,,,,,,,,,,,,,,,,,
1768972923.758989,1768972923.759591,121.0,0.0,4356.410156,4357.05127,4334.871582,4365.897461,4366.153809,4366.538574,4358.333496,4356.410156,4353.974121,4337.05127,4429.102539,4484.615234,4381.410156,4407.692383,,,,,,,,,,,,,,,,,,,,,,,,,,,,,,,,,,,,,,,,,,,,,,,,,,,,,,,,,,,,,,,,,,,,,,
1768972923.766797,1768972923.767499,122.0,0.0,4366.153809,4362.692383,4342.436035,4370.897461,4369.358887,4372.05127,4357.05127,4358.205078,4353.461426,4340.641113,4427.179688,4485.384766,4380.897461,4412.692383,,,,,,,,,,,,,,,,,,,,,,,,,,,,,,,,,,,,,,,,,,,,,,,,,,,,,,,,,,,,,,,,,,,,,,
1768972923.774606,1768972923.775308,123.0,0.0,4378.589844,4365.641113,4345.384766,4372.820313,4368.461426,4377.436035,4358.717773,4358.205078,4358.077148,4343.974121,4429.230957,4491.282227,4381.794922,4414.871582,,,,,,,,,,,,,,,,,,,,,,,,,,,,,,,,,,,,,,,,,,,,,,,,,,,,,,,,,,,,,,,,,,,,,,
1768972923.782414,1768972923.783316,124.0,0.0,4377.307617,4361.410156,4344.871582,4372.94873,4365.512695,4367.820313,4356.410156,4360.256348,4360.256348,4333.077148,4437.563965,4498.974121,4383.717773,4416.794922,,,,,,,,,,,,,,,,,,,,,,,,,,,,,,,,,,,,,,,,,,,,,,,,,,,,,,,,,,,,,,,,,,,,,,
1768972923.790223,1768972923.791125,125.0,0.0,4369.230957,4356.794922,4345.769043,4372.307617,4367.820313,4370.769043,4361.666504,4360.897461,4353.077148,4329.102539,4436.282227,4496.410156,4381.538574,4414.871582,,,,,,,,,,,,,,,,,,,,,,,,,,,,,,,,,,,,,,,,,,,,,,,,,,,,,,,,,,,,,,,,,,,,,,
1768972923.798031,1768972923.799033,126.0,0.0,4367.307617,4355.0,4341.025879,4370.641113,4369.615234,4382.05127,4365.128418,4354.358887,4347.436035,4338.717773,4426.153809,4484.358887,4376.666504,4405.769043,2.322081,1.196805,0.27242,0.372103,0.213835,1.038863,1.049384,0.276486,0.379486,0.166403,1.002876,0.385172,0.135171,0.245466,0.110363,0.657379,0.380447,0.180786,0.247389,0.115313,0.28022,0.075369,0.138173,0.109022,0.052926,0.613649,0.470587,0.346287,0.216052,0.19602,0.901547,0.47116,0.232978,0.210317,0.175336,0.457036,0.340755,0.212705,0.088352,0.137094,1.220139,0.666262,0.209046,0.156261,0.1107,1.026625,1.124464,0.241807,0.151051,0.082217,1.121407,1.995102,0.248191,0.279056,0.182257,2.001286,2.33762,0.313683,0.259251,0.167042,1.291748,1.767225,0.217944,0.195726,0.177956,2.078585,2.960648,0.312824,0.229711,0.186625
1768972923.80584,1768972923.806841,127.0,0.0,4367.179688,4352.436035,4337.436035,4370.0,4367.05127,4370.384766,4354.743652,4353.333496,4352.05127,4343.461426,4426.153809,4480.0,4374.102539,4401.922852,,,,,,,,,,,,,,,,,,,,,,,,,,,,,,,,,,,,,,,,,,,,,,,,,,,,,,,,,,,,,,,,,,,,,,
1768972923.813648,1768972923.81485,0.0,0.0,4364.871582,4351.282227,4343.974121,4371.282227,4366.794922,4366.025879,4357.563965,4360.897461,4356.153809,4339.743652,4431.025879,4488.589844,4376.666504,4408.846191,,,,,,,,,,,,,,,,,,,,,,,,,,,,,,,,,,,,,,,,,,,,,,,,,,,,,,,,,,,,,,,,,,,,,,
1768972923.821457,1768972923.822658,1.0,0.0,4366.153809,4355.256348,4348.589844,4371.538574,4366.025879,4377.563965,4369.102539,4361.410156,4352.307617,4334.358887,4428.333496,4496.282227,4377.820313,4412.436035,,,,,,,,,,,,,,,,,,,,,,,,,,,,,,,,,,,,,,,,,,,,,,,,,,,,,,,,,,,,,,,,,,,,,,
1768972923.829265,1768972923.830367,2.0,0.0,4368.205078,4355.641113,4342.436035,4367.436035,4363.717773,4366.794922,4362.307617,4355.897461,4348.333496,4330.512695,4425.769043,4491.922852,4372.94873,4404.615234,,,,,,,,,,,,,,,,,,,,,,,,,,,,,,,,,,,,,,,,,,,,,,,,,,,,,,,,,,,,,,,,,,,,,,
1768972923.837073,1768972923.838175,3.0,0.0,4364.615234,4350.641113,4337.692383,4365.384766,4363.333496,4353.205078,4352.692383,4353.205078,4349.615234,4331.282227,4427.05127,4484.487305,4370.641113,4397.05127,,,,,,,,,,,,,,,,,,,,,,,,,,,,,,,,,,,,,,,,,,,,,,,,,,,,,,,,,,,,,,,,,,,,,,
1768972923.844882,1768972923.845784,4.0,0.0,4357.820313,4348.589844,4338.589844,4366.282227,4363.589844,4361.153809,4355.641113,4352.94873,4350.384766,4335.128418,4425.897461,4485.512695,4372.94873,4395.769043,,,,,,,,,,,,,,,,,,,,,,,,,,,,,,,,,,,,,,,,,,,,,,,,,,,,,,,,,,,,,,,,,,,,,,
1768972923.85269,1768972923.853592,5.0,0.0,4357.563965,4347.563965,4339.615234,4368.205078,4365.897461,4369.487305,4361.410156,4355.0,4348.717773,4331.666504,4426.922852,4491.410156,4374.230957,4398.077148,,,,,,,,,,,,,,,,,,,,,,,,,,,,,,,,,,,,,,,,,,,,,,,,,,,,,,,,,,,,,,,,,,,,,,
1768972923.860499,1768972923.861301,6.0,0.0,4363.846191,4342.179688,4342.692383,4370.769043,4371.410156,4372.179688,4366.410156,4357.307617,4349.871582,4334.102539,4430.128418,4494.487305,4375.384766,4404.871582,,,,,,,,,,,,,,,,,,,,,,,,,,,,,,,,,,,,,,,,,,,,,,,,,,,,,,,,,,,,,,,,,,,,,,
1768972923.868307,1768972923.869109,7.0,0.0,4366.282227,4341.666504,4345.384766,4372.820313,4374.230957,4373.846191,4366.153809,4353.846191,4356.025879,4341.922852,4430.641113,4496.282227,4379.230957,4411.282227,,,,,,,,,,,,,,,,,,,,,,,,,,,,,,,,,,,,,,,,,,,,,,,,,,,,,,,,,,,,,,,,,,,,,,
1768972923.876116,1768972923.876718,8.0,0.0,4368.205078,4352.563965,4345.641113,4374.358887,4374.230957,4370.0,4362.436035,4352.436035,4362.179688,4336.025879,4433.205078,4500.769043,4383.461426,4413.333496,,,,,,,,,,,,,,,,,,,,,,,,,,,,,,,,,,,,,,,,,,,,,,,,,,,,,,,,,,,,,,,,,,,,,,
1768972923.883924,1768972923.884526,9.0,0.0,4367.820313,4355.128418,4343.589844,4374.102539,4374.102539,4371.538574,4366.922852,4360.256348,4361.794922,4330.128418,4432.820313,4496.538574,4380.384766,4408.717773,,,,,,,,,,,,,,,,,,,,,,,,,,,,,,,,,,,,,,,,,,,,,,,,,,,,,,,,,,,,,,,,,,,,,,
1768972923.891733,1768972923.892235,10.0,0.0,4360.128418,4344.743652,4341.538574,4372.179688,4372.307617,4373.589844,4366.922852,4358.717773,4356.794922,4336.153809,4426.025879,4485.512695,4374.615234,4398.717773,,,,,,,,,,,,,,,,,,,,,,,,,,,,,,,,,,,,,,,,,,,,,,,,,,,,,,,,,,,,,,,,,,,,,,
1768972923.899541,1768972923.900043,11.0,0.0,4357.307617,4342.692383,4343.333496,4372.436035,4372.820313,4365.384766,4358.589844,4352.692383,4355.128418,4343.589844,4431.410156,4488.077148,4376.794922,4400.384766,,,,,,,,,,,,,,,,,,,,,,,,,,,,,,,,,,,,,,,,,,,,,,,,,,,,,,,,,,,,,,,,,,,,,,
1768972923.907349,1768972923.908052,12.0,0.0,4360.641113,4345.897461,4340.769043,4369.615234,4372.94873,4374.487305,4371.410156,4364.871582,4357.820313,4340.256348,4442.05127,4498.333496,4381.410156,4409.102539,,,,,,,,,,,,,,,,,,,,,,,,,,,,,,,,,,,,,,,,,,,,,,,,,,,,,,,,,,,,,,,,,,,,,,
1768972923.915158,1768972923.91586,13.0,0.0,4356.410156,4338.461426,4334.615234,4358.717773,4366.282227,4385.897461,4383.461426,4372.05127,4360.256348,4331.282227,4438.461426,4494.358887,4380.256348,4407.94873,,,,,,,,,,,,,,,,,,,,,,,,,,,,,,,,,,,,,,,,,,,,,,,,,,,,,,,,,,,,,,,,,,,,,,
1768972923.922966,1768972923.923569,14.0,0.0,4355.512695,4337.307617,4332.307617,4355.0,4364.487305,4362.307617,4358.717773,4355.512695,4357.307617,4330.769043,4429.615234,4483.974121,4378.589844,4401.794922,3.279474,1.614159,0.355417,0.365898,0.225033,1.075825,1.226377,0.333858,0.38336,0.169809,1.073465,0.531825,0.17287,0.252677,0.11262,0.769873,0.503513,0.216106,0.251373,0.111975,0.202026,0.085002,0.146956,0.119593,0.051025,0.453113,0.647467,0.457388,0.236881,0.213937,0.802297,0.682421,0.283011,0.268037,0.213343,0.458047,0.423792,0.257303,0.113995,0.169005,1.317004,0.70204,0.242393,0.183284,0.127376,1.112278,1.184364,0.242125,0.183444,0.087424,0.968808,2.479537,0.233176,0.353743,0.175421,1.894757,2.916536,0.351396,0.322093,0.171902,1.079463,1.945588,0.212145,0.217617,0.174169,2.741146,3.968264,0.29,0.263528,0.184567
1768972923.930775,1768972923.931377,15.0,0.0,4362.307617,4350.256348,4333.461426,4361.794922,4370.641113,4344.230957,4337.692383,4342.94873,4352.692383,4336.666504,4428.846191,4482.436035,4378.077148,4403.333496,,,,,,,,,,,,,,,,,,,,,,,,,,,,,,,,,,,,,,,,,,,,,,,,,,,,,,,,,,,,,,,,,,,,,,
1768972923.938583,1768972923.938986,16.0,0.0,4360.256348,4351.538574,4336.538574,4360.641113,4368.077148,4356.025879,4349.615234,4348.974121,4353.589844,4337.820313,4435.0,4487.05127,4377.179688,4406.922852,,,,,,,,,,,,,,,,,,,,,,,,,,,,,,,,,,,,,,,,,,,,,,,,,,,,,,,,,,,,,,,,,,,,,,
1768972923.946392,1768972923.946794,17.0,0.0,4354.743652,4346.282227,4339.743652,4357.692383,4362.94873,4363.974121,4363.461426,4356.794922,4357.05127,4336.538574,4441.538574,4490.641113,4381.153809,4411.282227,,,,,,,,,,,,,,,,,,,,,,,,,,,,,,,,,,,,,,,,,,,,,,,,,,,,,,,,,,,,,,,,,,,,,,
1768972923.9542,1768972923.954702,18.0,0.0,4357.05127,4351.794922,4342.436035,4363.846191,4368.461426,4364.487305,4364.615234,4359.615234,4357.307617,4340.769043,4438.333496,4492.05127,4383.974121,4413.717773,,,,,,,,,,,,,,,,,,,,,,,,,,,,,,,,,,,,,,,,,,,,,,,,,,,,,,,,,,,,,,,,,,,,,,
1768972923.962009,1768972923.962511,19.0,0.0,4360.256348,4355.256348,4342.179688,4366.025879,4369.743652,4368.589844,4361.410156,4360.0,4355.641113,4340.128418,4432.436035,4490.641113,4380.256348,4412.307617,,,,,,,,,,,,,,,,,,,,,,,,,,,,,,,,,,,,,,,,,,,,,,,,,,,,,,,,,,,,,,,,,,,,,,
1768972923.969817,1768972923.970519,20.0,0.0,4364.615234,4354.615234,4343.461426,4364.743652,4364.615234,4366.666504,4357.94873,4359.102539,4355.641113,4336.922852,4439.102539,4491.794922,4381.794922,4414.871582,,,,,,,,,,,,,,,,,,,,,,,,,,,,,,,,,,,,,,,,,,,,,,,,,,,,,,,,,,,,,,,,,,,,,,
1768972923.977625,1768972923.978328,21.0,0.0,4367.05127,4355.769043,4344.871582,4367.05127,4366.153809,4366.538574,4361.922852,4362.436035,4356.794922,4340.256348,4444.871582,4496.538574,4389.871582,4418.205078,,,,,,,,,,,,,,,,,,,,,,,,,,,,,,,,,,,,,,,,,,,,,,,,,,,,,,,,,,,,,,,,,,,,,,
1768972923.985434,1768972923.986236,22.0,0.0,4358.333496,4350.897461,4338.205078,4362.563965,4368.205078,4373.717773,4369.743652,4365.384766,4357.307617,4344.487305,4441.794922,4498.077148,4389.487305,4415.512695,,,,,,,,,,,,,,,,,,,,,,,,,,,,,,,,,,,,,,,,,,,,,,,,,,,,,,,,,,,,,,,,,,,,,,
1768972923.993242,1768972923.994044,23.0,0.0,4355.128418,4345.897461,4330.769043,4354.871582,4362.563965,4372.307617,4368.461426,4361.538574,4357.05127,4338.846191,4441.794922,4496.025879,4383.846191,4412.307617,,,,,,,,,,,,,,,,,,,,,,,,,,,,,,,,,,,,,,,,,,,,,,,,,,,,,,,,,,,,,,,,,,,,,,
1768972924.001051,1768972924.002053,24.0,0.0,4364.102539,4355.512695,4334.871582,4362.436035,4364.487305,4365.0,4362.179688,4359.615234,4357.436035,4329.487305,4443.974121,4495.641113,4388.461426,4414.358887,,,,,,,,,,,,,,,,,,,,,,,,,,,,,,,,,,,,,,,,,,,,,,,,,,,,,,,,,,,,,,,,,,,,,,
1768972924.008859,1768972924.009861,25.0,0.0,4366.538574,4362.692383,4340.769043,4372.307617,4370.256348,4363.077148,4358.589844,4359.230957,4358.717773,4336.538574,4445.769043,4498.974121,4399.102539,4419.102539,,,,,,,,,,,,,,,,,,,,,,,,,,,,,,,,,,,,,,,,,,,,,,,,,,,,,,,,,,,,,,,,,,,,,,
1768972924.016667,1768972924.01757,26.0,0.0,4360.0,4357.307617,4337.94873,4368.974121,4365.384766,4367.307617,4361.410156,4358.717773,4358.077148,4349.358887,4445.0,4500.128418,4396.025879,4417.436035,,,,,,,,,,,,,,,,,,,,,,,,,,,,,,,,,,,,,,,,,,,,,,,,,,,,,,,,,,,,,,,,,,,,,,
1768972924.024476,1768972924.025378,27.0,0.0,4357.94873,4359.230957,4334.487305,4365.384766,4363.589844,4367.692383,4364.871582,4360.128418,4358.589844,4344.871582,4441.410156,4496.666504,4388.589844,4414.102539,,,,,,,,,,,,,,,,,,,,,,,,,,,,,,,,,,,,,,,,,,,,,,,,,,,,,,,,,,,,,,,,,,,,,,
1768972924.032284,1768972924.032987,28.0,0.0,4362.94873,4371.282227,4336.922852,4366.922852,4369.743652,4363.077148,4361.410156,4358.846191,4358.974121,4337.563965,4441.282227,4495.897461,4390.769043,4417.820313,,,,,,,,,,,,,,,,,,,,,,,,,,,,,,,,,,,,,,,,,,,,,,,,,,,,,,,,,,,,,,,,,,,,,,
1768972924.040093,1768972924.040795,29.0,0.0,4363.077148,4376.922852,4337.307617,4364.230957,4369.102539,4363.077148,4356.410156,4354.230957,4353.333496,4341.282227,4443.846191,4496.666504,4393.589844,4418.974121,,,,,,,,,,,,,,,,,,,,,,,,,,,,,,,,,,,,,,,,,,,,,,,,,,,,,,,,,,,,,,,,,,,,,,
1768972924.047901,1768972924.048504,30.0,0.0,4357.563965,4372.307617,4333.205078,4361.025879,4363.205078,4363.717773,4358.461426,4355.641113,4349.615234,4341.922852,4438.461426,4493.077148,4387.692383,4412.179688,4.198716,1.957254,0.426123,0.334696,0.221605,1.109348,1.396657,0.382114,0.360921,0.165805,1.151527,0.649669,0.212829,0.239529,0.10902,0.870742,0.615152,0.24133,0.236373,0.100873,0.151405,0.093303,0.143064,0.120556,0.050881,0.339169,0.834702,0.577706,0.265271,0.248172,0.707111,0.907114,0.342992,0.331239,0.272726,0.459705,0.52087,0.294326,0.140655,0.195789,1.324186,0.734461,0.258695,0.208265,0.142577,1.126359,1.274431,0.241857,0.212907,0.092683,0.864106,2.829129,0.224319,0.410739,0.164228,1.85718,3.270381,0.366325,0.38372,0.165063,0.991239,2.105394,0.215582,0.242767,0.172575,3.549917,4.733606,0.304743,0.302417,0.180447
1768972924.05571,1768972924.056312,31.0,0.0,4355.256348,4369.487305,4333.077148,4362.820313,4365.0,4365.769043,4369.487305,4363.846191,4353.333496,4335.641113,4433.205078,4492.820313,4380.641113,4408.717773,,,,,,,,,,,,,,,,,,,,,,,,,,,,,,,,,,,,,,,,,,,,,,,,,,,,,,,,,,,,,,,,,,,,,,
1768972924.063518,1768972924.063921,32.0,0.0,4357.307617,4371.025879,4339.230957,4363.205078,4366.153809,4365.512695,4370.641113,4361.666504,4352.307617,4332.692383,4435.0,4498.846191,4381.153809,4411.410156,,,,,,,,,,,,,,,,,,,,,,,,,,,,,,,,,,,,,,,,,,,,,,,,,,,,,,,,,,,,,,,,,,,,,,
1768972924.071327,1768972924.071729,33.0,0.0,4360.641113,4373.077148,4343.461426,4361.282227,4363.846191,4359.743652,4358.589844,4351.666504,4347.179688,4332.05127,4431.794922,4498.077148,4381.282227,4412.94873,,,,,,,,,,,,,,,,,,,,,,,,,,,,,,,,,,,,,,,,,,,,,,,,,,,,,,,,,,,,,,,,,,,,,,
1768972924.079135,1768972924.079438,34.0,0.0,4364.102539,4376.410156,4343.461426,4363.077148,4369.358887,4360.256348,4358.974121,4355.256348,4350.128418,4336.794922,4428.974121,4495.0,4380.256348,4411.538574,,,,,,,,,,,,,,,,,,,,,,,,,,,,,,,,,,,,,,,,,,,,,,,,,,,,,,,,,,,,,,,,,,,,,,
1768972924.086944,1768972924.087246,35.0,0.0,4366.282227,4384.358887,4346.025879,4368.974121,4374.615234,4371.025879,4374.230957,4365.0,4356.922852,4336.666504,4438.205078,4500.384766,4385.641113,4414.743652,,,,,,,,,,,,,,,,,,,,,,,,,,,,,,,,,,,,,,,,,,,,,,,,,,,,,,,,,,,,,,,,,,,,,,
1768972924.094752,1768972924.095254,36.0,0.0,4365.256348,4391.538574,4346.666504,4372.05127,4371.794922,4373.717773,4374.487305,4362.820313,4356.025879,4332.179688,4443.461426,4505.384766,4389.230957,4421.538574,,,,,,,,,,,,,,,,,,,,,,,,,,,,,,,,,,,,,,,,,,,,,,,,,,,,,,,,,,,,,,,,,,,,,,
1768972924.10256,1768972924.103063,37.0,0.0,4368.077148,4391.666504,4346.153809,4370.512695,4370.512695,4362.563965,4359.102539,4357.820313,4353.461426,4340.256348,4441.282227,4508.077148,4391.410156,4426.922852,,,,,,,,,,,,,,,,,,,,,,,,,,,,,,,,,,,,,,,,,,,,,,,,,,,,,,,,,,,,,,,,,,,,,,
1768972924.110369,1768972924.110971,38.0,0.0,4370.769043,4390.128418,4346.922852,4371.538574,4373.333496,4358.461426,4356.794922,4360.0,4356.282227,4348.974121,4444.358887,4514.615234,4398.333496,4430.512695,,,,,,,,,,,,,,,,,,,,,,,,,,,,,,,,,,,,,,,,,,,,,,,,,,,,,,,,,,,,,,,,,,,,,,
1768972924.118177,1768972924.11878,39.0,0.0,4367.563965,4386.794922,4343.974121,4373.974121,4371.794922,4365.641113,4364.487305,4359.871582,4358.205078,4345.512695,4444.230957,4517.05127,4394.615234,4429.102539,,,,,,,,,,,,,,,,,,,,,,,,,,,,,,,,,,,,,,,,,,,,,,,,,,,,,,,,,,,,,,,,,,,,,,
1768972924.125986,1768972924.126788,40.0,0.0,4364.615234,4383.461426,4343.205078,4372.05127,4371.794922,4371.538574,4366.282227,4361.794922,4357.436035,4342.05127,4439.615234,4513.974121,4382.179688,4425.256348,,,,,,,,,,,,,,,,,,,,,,,,,,,,,,,,,,,,,,,,,,,,,,,,,,,,,,,,,,,,,,,,,,,,,,
1768972924.133794,1768972924.134596,41.0,0.0,4366.410156,4384.615234,4345.641113,4371.410156,4375.384766,4372.307617,4370.769043,4367.307617,4355.897461,4341.922852,4441.153809,4513.846191,4387.179688,4425.641113,,,,,,,,,,,,,,,,,,,,,,,,,,,,,,,,,,,,,,,,,,,,,,,,,,,,,,,,,,,,,,,,,,,,,,
1768972924.141603,1768972924.142505,42.0,0.0,4368.589844,4386.410156,4344.615234,4375.512695,4374.615234,4375.0,4379.102539,4370.384766,4355.128418,4343.974121,4445.512695,4516.922852,4400.256348,4429.615234,,,,,,,,,,,,,,,,,,,,,,,,,,,,,,,,,,,,,,,,,,,,,,,,,,,,,,,,,,,,,,,,,,,,,,
1768972924.149411,1768972924.150313,43.0,0.0,4368.717773,4385.897461,4342.692383,4378.846191,4375.128418,4377.692383,4378.333496,4373.077148,4359.230957,4351.794922,4449.358887,4517.05127,4399.487305,4429.487305,,,,,,,,,,,,,,,,,,,,,,,,,,,,,,,,,,,,,,,,,,,,,,,,,,,,,,,,,,,,,,,,,,,,,,
1768972924.15722,1768972924.158321,44.0,0.0,4372.94873,4388.974121,4346.794922,4380.641113,4376.922852,4371.794922,4370.897461,4374.615234,4366.153809,4356.538574,4452.820313,4519.487305,4396.025879,4428.589844,,,,,,,,,,,,,,,,,,,,,,,,,,,,,,,,,,,,,,,,,,,,,,,,,,,,,,,,,,,,,,,,,,,,,,
1768972924.165028,1768972924.16613,45.0,0.0,4376.025879,4391.410156,4351.538574,4380.641113,4375.0,4369.358887,4372.179688,4374.743652,4367.179688,4350.897461,4451.666504,4525.641113,4398.333496,4431.282227,,,,,,,,,,,,,,,,,,,,,,,,,,,,,,,,,,,,,,,,,,,,,,,,,,,,,,,,,,,,,,,,,,,,,,
1768972924.172836,1768972924.174038,46.0,0.0,4368.974121,4383.333496,4348.589844,4377.436035,4375.384766,4378.717773,4380.512695,4375.256348,4362.05127,4348.461426,4448.077148,4522.307617,4395.512695,4428.589844,4.730258,2.11121,0.45446,0.291011,0.205184,1.068181,1.471835,0.407472,0.320965,0.15567,1.161953,0.696455,0.24171,0.209546,0.102201,0.905015,0.675851,0.249128,0.206056,0.086021,0.134427,0.103793,0.125143,0.109805,0.052166,0.296517,0.981487,0.686895,0.297698,0.295272,0.627219,1.09124,0.406061,0.391073,0.344762,0.46708,0.608376,0.31606,0.163347,0.21084,1.242995,0.745003,0.250569,0.224545,0.151005,1.05472,1.369996,0.236995,0.231504,0.096763,0.804975,2.925045,0.2136,0.436085,0.152386,1.792775,3.283206,0.353443,0.43448,0.147411,1.021424,2.176342,0.225508,0.262738,0.176257,4.20253,5.011571,0.336639,0.339409,0.175965
1768972924.180645,1768972924.181847,47.0,0.0,4356.538574,4373.077148,4340.0,4368.077148,4377.05127,4380.0,4377.436035,4373.717773,4357.179688,4344.615234,4441.666504,4507.692383,4385.512695,4417.820313,,,,,,,,,,,,,,,,,,,,,,,,,,,,,,,,,,,,,,,,,,,,,,,,,,,,,,,,,,,,,,,,,,,,,,
1768972924.188453,1768972924.189855,48.0,0.0,4352.05127,4368.589844,4334.102539,4360.897461,4372.563965,4361.666504,4359.358887,4363.205078,4352.820313,4332.692383,4431.025879,4496.666504,4377.436035,4408.077148,,,,,,,,,,,,,,,,,,,,,,,,,,,,,,,,,,,,,,,,,,,,,,,,,,,,,,,,,,,,,,,,,,,,,,
1768972924.196262,1768972924.197663,49.0,0.0,4364.487305,4373.205078,4340.897461,4368.077148,4369.358887,4350.769043,4353.333496,4360.128418,4354.871582,4336.282227,4433.589844,4501.922852,4380.769043,4413.205078,,,,,,,,,,,,,,,,,,,,,,,,,,,,,,,,,,,,,,,,,,,,,,,,,,,,,,,,,,,,,,,,,,,,,,
1768972924.20407,1768972924.205572,50.0,0.0,4383.846191,4387.820313,4352.05127,4381.153809,4372.179688,4360.769043,4365.128418,4370.0,4367.436035,4357.05127,4454.230957,4517.563965,4399.230957,4429.743652,,,,,,,,,,,,,,,,,,,,,,,,,,,,,,,,,,,,,,,,,,,,,,,,,,,,,,,,,,,,,,,,,,,,,,
1768972924.211879,1768972924.21338,51.0,0.0,4389.358887,4398.077148,4353.077148,4385.384766,4372.436035,4370.128418,4368.846191,4373.589844,4375.128418,4367.05127,4466.282227,4528.589844,4416.025879,4438.589844,,,,,,,,,,,,,,,,,,,,,,,,,,,,,,,,,,,,,,,,,,,,,,,,,,,,,,,,,,,,,,,,,,,,,,
1768972924.219687,1768972924.220989,52.0,0.0,4376.922852,4387.436035,4348.461426,4381.794922,4371.538574,4370.0,4364.358887,4369.358887,4367.179688,4358.077148,4457.307617,4526.538574,4410.256348,4434.102539,,,,,,,,,,,,,,,,,,,,,,,,,,,,,,,,,,,,,,,,,,,,,,,,,,,,,,,,,,,,,,,,,,,,,,
1768972924.227496,1768972924.228797,53.0,0.0,4369.487305,4372.563965,4347.436035,4379.615234,4375.512695,4369.743652,4365.128418,4369.615234,4360.256348,4352.436035,4447.692383,4517.563965,4394.615234,4426.666504,,,,,,,,,,,,,,,,,,,,,,,,,,,,,,,,,,,,,,,,,,,,,,,,,,,,,,,,,,,,,,,,,,,,,,
1768972924.235304,1768972924.236506,54.0,0.0,4372.563965,4370.769043,4347.436035,4378.461426,4378.974121,4371.922852,4367.820313,4372.94873,4368.461426,4356.794922,4450.128418,4513.589844,4394.871582,4426.410156,,,,,,,,,,,,,,,,,,,,,,,,,,,,,,,,,,,,,,,,,,,,,,,,,,,,,,,,,,,,,,,,,,,,,,
1768972924.243112,1768972924.244314,55.0,0.0,4368.589844,4369.358887,4342.563965,4374.871582,4375.769043,4377.179688,4373.461426,4373.717773,4373.461426,4354.615234,4450.128418,4512.820313,4399.487305,4428.333496,,,,,,,,,,,,,,,,,,,,,,,,,,,,,,,,,,,,,,,,,,,,,,,,,,,,,,,,,,,,,,,,,,,,,,
1768972924.250921,1768972924.251923,56.0,0.0,4362.820313,4365.256348,4338.461426,4371.153809,4370.897461,4376.922852,4375.128418,4374.487305,4370.256348,4349.358887,4447.563965,4513.846191,4394.871582,4426.538574,,,,,,,,,,,,,,,,,,,,,,,,,,,,,,,,,,,,,,,,,,,,,,,,,,,,,,,,,,,,,,,,,,,,,,
1768972924.258729,1768972924.259731,57.0,0.0,4367.692383,4367.05127,4340.384766,4373.333496,4371.282227,4372.820313,4371.794922,4374.743652,4370.512695,4355.128418,4454.615234,4520.641113,4395.897461,4432.05127,,,,,,,,,,,,,,,,,,,,,,,,,,,,,,,,,,,,,,,,,,,,,,,,,,,,,,,,,,,,,,,,,,,,,,
1768972924.266538,1768972924.26744,58.0,0.0,4374.487305,4367.563965,4342.820313,4378.205078,4373.589844,4374.358887,4371.922852,4370.512695,4369.102539,4359.487305,4460.512695,4524.487305,4400.512695,4438.717773,,,,,,,,,,,,,,,,,,,,,,,,,,,,,,,,,,,,,,,,,,,,,,,,,,,,,,,,,,,,,,,,,,,,,,
1768972924.274346,1768972924.275248,59.0,0.0,4372.820313,4364.102539,4342.692383,4379.487305,4372.94873,4371.282227,4369.358887,4366.922852,4363.846191,4346.538574,4452.05127,4517.94873,4397.05127,4432.692383,,,,,,,,,,,,,,,,,,,,,,,,,,,,,,,,,,,,,,,,,,,,,,,,,,,,,,,,,,,,,,,,,,,,,,
1768972924.282155,1768972924.282857,60.0,0.0,4371.282227,4366.153809,4343.205078,4382.307617,4370.384766,4363.205078,4364.743652,4367.563965,4364.615234,4342.179688,4444.743652,4513.717773,4395.128418,4426.025879,,,,,,,,,,,,,,,,,,,,,,,,,,,,,,,,,,,,,,,,,,,,,,,,,,,,,,,,,,,,,,,,,,,,,,
1768972924.289963,1768972924.290665,61.0,0.0,4368.205078,4365.0,4343.846191,4379.102539,4369.230957,4362.820313,4365.384766,4367.179688,4367.307617,4358.077148,4452.307617,4517.436035,4399.102539,4427.179688,,,,,,,,,,,,,,,,,,,,,,,,,,,,,,,,,,,,,,,,,,,,,,,,,,,,,,,,,,,,,,,,,,,,,,
1768972924.297772,1768972924.298574,62.0,0.0,4363.333496,4360.897461,4344.358887,4373.333496,4371.666504,4365.897461,4367.05127,4368.077148,4366.666504,4365.384766,4460.512695,4519.358887,4402.563965,4430.128418,4.683191,2.029513,0.429571,0.251765,0.181403,0.934678,1.400975,0.413119,0.278127,0.14303,1.081791,0.661997,0.2535,0.173681,0.095512,0.850353,0.668223,0.24466,0.17039,0.073219,0.142842,0.120574,0.100676,0.090508,0.054147,0.323577,1.059845,0.763202,0.328291,0.345919,0.562543,1.198386,0.461122,0.438241,0.416366,0.479152,0.662673,0.320635,0.178735,0.212471,1.096883,0.717833,0.218983,0.226318,0.149833,0.923243,1.421442,0.225756,0.235802,0.1005,0.79691,2.720906,0.196405,0.427033,0.143949,1.637023,2.945717,0.319204,0.467573,0.12555,1.120889,2.099711,0.238469,0.27138,0.184358,4.485556,4.715765,0.361774,0.372067,0.173488
1768972924.30558,1768972924.306382,63.0,0.0,4371.025879,4371.538574,4346.538574,4382.94873,4372.179688,4365.897461,4363.974121,4370.512695,4365.641113,4355.769043,4454.871582,4516.025879,4400.384766,4432.179688,,,,,,,,,,,,,,,,,,,,,,,,,,,,,,,,,,,,,,,,,,,,,,,,,,,,,,,,,,,,,,,,,,,,,,
1768972924.313388,1768972924.31439,64.0,0.0,4385.256348,4388.974121,4351.153809,4396.025879,4370.0,4366.794922,4364.358887,4368.717773,4361.410156,4345.0,4442.692383,4512.563965,4390.384766,4429.743652,,,,,,,,,,,,,,,,,,,,,,,,,,,,,,,,,,,,,,,,,,,,,,,,,,,,,,,,,,,,,,,,,,,,,,
1768972924.321197,1768972924.322199,65.0,0.0,4388.205078,4392.563965,4355.512695,4393.974121,4369.743652,4366.538574,4370.512695,4366.153809,4356.153809,4342.05127,4441.538574,4517.307617,4386.666504,4432.436035,,,,,,,,,,,,,,,,,,,,,,,,,,,,,,,,,,,,,,,,,,,,,,,,,,,,,,,,,,,,,,,,,,,,,,
1768972924.329005,1768972924.329907,66.0,0.0,4383.461426,4380.769043,4353.333496,4384.871582,4370.128418,4367.692383,4374.102539,4366.538574,4358.461426,4345.897461,4447.436035,4521.922852,4396.794922,4444.230957,,,,,,,,,,,,,,,,,,,,,,,,,,,,,,,,,,,,,,,,,,,,,,,,,,,,,,,,,,,,,,,,,,,,,,
1768972924.336814,1768972924.337716,67.0,0.0,4379.230957,4373.717773,4346.922852,4382.436035,4369.615234,4370.897461,4371.794922,4369.358887,4366.025879,4350.897461,4446.794922,4517.307617,4398.846191,4441.922852,,,,,,,,,,,,,,,,,,,,,,,,,,,,,,,,,,,,,,,,,,,,,,,,,,,,,,,,,,,,,,,,,,,,,,
1768972924.344622,1768972924.345325,68.0,0.0,4373.461426,4374.230957,4345.128418,4382.307617,4370.897461,4372.692383,4369.615234,4374.230957,4369.230957,4346.666504,4443.589844,4512.05127,4388.846191,4425.512695,,,,,,,,,,,,,,,,,,,,,,,,,,,,,,,,,,,,,,,,,,,,,,,,,,,,,,,,,,,,,,,,,,,,,,
1768972924.352431,1768972924.353133,69.0,0.0,4374.487305,4372.179688,4348.974121,4382.05127,4372.05127,4374.102539,4371.666504,4373.717773,4365.128418,4341.922852,4442.692383,4510.512695,4384.230957,4424.230957,,,,,,,,,,,,,,,,,,,,,,,,,,,,,,,,,,,,,,,,,,,,,,,,,,,,,,,,,,,,,,,,,,,,,,
1768972924.360239,1768972924.361041,70.0,0.0,4381.666504,4370.128418,4351.666504,4381.025879,4372.307617,4374.743652,4373.333496,4369.487305,4363.846191,4343.333496,4442.179688,4511.282227,4383.333496,4430.256348,,,,,,,,,,,,,,,,,,,,,,,,,,,,,,,,,,,,,,,,,,,,,,,,,,,,,,,,,,,,,,,,,,,,,,
1768972924.368048,1768972924.36885,71.0,0.0,4377.94873,4372.179688,4349.743652,4379.871582,4377.436035,4381.538574,4381.794922,4377.692383,4369.102539,4342.820313,4442.179688,4516.153809,4379.743652,4424.487305,,,,,,,,,,,,,,,,,,,,,,,,,,,,,,,,,,,,,,,,,,,,,,,,,,,,,,,,,,,,,,,,,,,,,,
1768972924.375856,1768972924.376858,72.0,0.0,4370.512695,4372.436035,4348.205078,4381.410156,4381.794922,4386.410156,4387.563965,4383.974121,4368.077148,4341.922852,4441.538574,4517.307617,4379.871582,4419.743652,,,,,,,,,,,,,,,,,,,,,,,,,,,,,,,,,,,,,,,,,,,,,,,,,,,,,,,,,,,,,,,,,,,,,,
1768972924.383664,1768972924.384666,73.0,0.0,4375.0,4368.846191,4348.717773,4382.436035,4376.794922,4373.974121,4372.563965,4373.461426,4364.102539,4341.410156,4440.641113,4511.410156,4384.230957,4422.563965,,,,,,,,,,,,,,,,,,,,,,,,,,,,,,,,,,,,,,,,,,,,,,,,,,,,,,,,,,,,,,,,,,,,,,
1768972924.391473,1768972924.392575,74.0,0.0,4384.102539,4370.769043,4349.615234,4384.102539,4372.563965,4364.358887,4360.769043,4367.436035,4362.05127,4341.666504,4442.692383,4514.871582,4390.0,4427.692383,,,,,,,,,,,,,,,,,,,,,,,,,,,,,,,,,,,,,,,,,,,,,,,,,,,,,,,,,,,,,,,,,,,,,,
1768972924.399281,1768972924.400383,75.0,0.0,4380.384766,4373.205078,4348.846191,4381.410156,4372.820313,4372.94873,4367.436035,4373.974121,4360.769043,4342.307617,4443.333496,4523.205078,4389.102539,4428.846191,,,,,,,,,,,,,,,,,,,,,,,,,,,,,,,,,,,,,,,,,,,,,,,,,,,,,,,,,,,,,,,,,,,,,,
1768972924.40709,1768972924.407992,76.0,0.0,4371.794922,4371.410156,4346.922852,4377.05127,4372.05127,4375.512695,4371.282227,4378.589844,4363.589844,4340.769043,4440.128418,4517.563965,4380.897461,4423.205078,,,,,,,,,,,,,,,,,,,,,,,,,,,,,,,,,,,,,,,,,,,,,,,,,,,,,,,,,,,,,,,,,,,,,,
1768972924.414898,1768972924.4158,77.0,0.0,4375.512695,4367.307617,4349.358887,4377.94873,4368.974121,4367.05127,4366.282227,4377.436035,4367.05127,4339.358887,4439.615234,4512.820313,4376.538574,4420.512695,,,,,,,,,,,,,,,,,,,,,,,,,,,,,,,,,,,,,,,,,,,,,,,,,,,,,,,,,,,,,,,,,,,,,,
1768972924.422707,1768972924.423509,78.0,0.0,4382.05127,4362.692383,4353.461426,4378.333496,4366.153809,4374.358887,4373.589844,4377.94873,4367.94873,4342.692383,4442.179688,4520.256348,4377.94873,4425.384766,4.084033,1.748502,0.363922,0.23173,0.157407,0.73538,1.193347,0.409652,0.247328,0.132148,0.905953,0.568499,0.252796,0.143736,0.091133,0.715125,0.605803,0.243149,0.140656,0.066878,0.15979,0.145155,0.079374,0.068449,0.056025,0.391947,1.075751,0.788547,0.351637,0.388498,0.504073,1.222343,0.493672,0.465615,0.47523,0.489323,0.67152,0.312678,0.185247,0.204087,0.910257,0.650388,0.174556,0.212672,0.139628,0.758952,1.385119,0.210455,0.230908,0.106528,0.789429,2.26542,0.175139,0.394977,0.141114,1.374929,2.35921,0.274022,0.482469,0.107396,1.202402,1.865948,0.253859,0.271611,0.193444,4.285916,3.953789,0.362889,0.400931,0.173051
1768972924.430515,1768972924.431317,79.0,0.0,4380.0,4362.436035,4353.077148,4376.282227,4368.717773,4386.153809,4382.436035,4375.897461,4368.589844,4344.358887,4442.692383,4521.410156,4378.846191,4427.820313,,,,,,,,,,,,,,,,,,,,,,,,,,,,,,,,,,,,,,,,,,,,,,,,,,,,,,,,,,,,,,,,,,,,,,
1768972924.438324,1768972924.438926,80.0,0.0,4380.0,4366.666504,4355.897461,4378.333496,4372.692383,4380.0,4375.384766,4369.102539,4365.641113,4340.641113,4442.05127,4516.538574,4381.025879,4425.384766,,,,,,,,,,,,,,,,,,,,,,,,,,,,,,,,,,,,,,,,,,,,,,,,,,,,,,,,,,,,,,,,,,,,,,
1768972924.446132,1768972924.446734,81.0,0.0,4382.05127,4366.025879,4355.897461,4380.256348,4371.410156,4375.384766,4372.179688,4367.563965,4363.717773,4344.743652,4442.820313,4521.025879,4387.179688,4426.410156,,,,,,,,,,,,,,,,,,,,,,,,,,,,,,,,,,,,,,,,,,,,,,,,,,,,,,,,,,,,,,,,,,,,,,
1768972924.453941,1768972924.454443,82.0,0.0,4376.794922,4361.794922,4350.769043,4374.743652,4369.487305,4381.410156,4377.05127,4369.487305,4367.820313,4350.769043,4443.333496,4526.666504,4389.102539,4424.871582,,,,,,,,,,,,,,,,,,,,,,,,,,,,,,,,,,,,,,,,,,,,,,,,,,,,,,,,,,,,,,,,,,,,,,
1768972924.461749,1768972924.462251,83.0,0.0,4377.05127,4363.077148,4352.307617,4372.179688,4370.384766,4379.615234,4374.102539,4364.743652,4362.436035,4345.769043,4443.846191,4523.589844,4387.436035,4418.205078,,,,,,,,,,,,,,,,,,,,,,,,,,,,,,,,,,,,,,,,,,,,,,,,,,,,,,,,,,,,,,,,,,,,,,
1768972924.469557,1768972924.46986,84.0,0.0,4387.05127,4367.05127,4355.256348,4377.179688,4371.794922,4377.307617,4372.94873,4361.410156,4353.589844,4341.282227,4445.512695,4520.256348,4391.282227,4421.282227,,,,,,,,,,,,,,,,,,,,,,,,,,,,,,,,,,,,,,,,,,,,,,,,,,,,,,,,,,,,,,,,,,,,,,
1768972924.477366,1768972924.477669,85.0,0.0,4391.666504,4367.179688,4357.436035,4379.871582,4371.153809,4379.102539,4375.256348,4364.743652,4356.666504,4343.333496,4444.871582,4522.563965,4396.794922,4427.94873,,,,,,,,,,,,,,,,,,,,,,,,,,,,,,,,,,,,,,,,,,,,,,,,,,,,,,,,,,,,,,,,,,,,,,
1768972924.485174,1768972924.485577,86.0,0.0,4389.871582,4367.94873,4359.487305,4380.769043,4369.230957,4372.179688,4362.94873,4362.94873,4357.820313,4343.974121,4444.230957,4523.846191,4398.333496,4428.205078,,,,,,,,,,,,,,,,,,,,,,,,,,,,,,,,,,,,,,,,,,,,,,,,,,,,,,,,,,,,,,,,,,,,,,
1768972924.492983,1768972924.493385,87.0,0.0,4385.897461,4370.256348,4354.230957,4378.333496,4367.436035,4363.974121,4352.692383,4360.769043,4356.410156,4344.230957,4443.589844,4519.102539,4393.717773,4427.307617,,,,,,,,,,,,,,,,,,,,,,,,,,,,,,,,,,,,,,,,,,,,,,,,,,,,,,,,,,,,,,,,,,,,,,
1768972924.500791,1768972924.501394,88.0,0.0,4384.743652,4370.641113,4349.743652,4373.589844,4367.820313,4364.743652,4363.717773,4368.589844,4361.538574,4348.077148,4444.615234,4518.974121,4389.743652,4425.769043,,,,,,,,,,,,,,,,,,,,,,,,,,,,,,,,,,,,,,,,,,,,,,,,,,,,,,,,,,,,,,,,,,,,,,
1768972924.5086,1768972924.509202,89.0,0.0,4392.05127,4375.512695,4360.897461,4377.94873,4370.641113,4372.307617,4377.436035,4373.717773,4367.692383,4354.615234,4454.102539,4529.871582,4393.077148,4431.410156,,,,,,,,,,,,,,,,,,,,,,,,,,,,,,,,,,,,,,,,,,,,,,,,,,,,,,,,,,,,,,,,,,,,,,
1768972924.516408,1768972924.51711,90.0,0.0,4400.0,4382.05127,4368.717773,4385.512695,4372.563965,4378.205078,4379.743652,4373.077148,4370.641113,4352.179688,4459.743652,4535.897461,4398.333496,4442.307617,,,,,,,,,,,,,,,,,,,,,,,,,,,,,,,,,,,,,,,,,,,,,,,,,,,,,,,,,,,,,,,,,,,,,,
1768972924.524217,1768972924.524919,91.0,0.0,4398.077148,4376.794922,4361.153809,4380.641113,4369.871582,4375.0,4375.256348,4376.282227,4372.307617,4343.077148,4450.769043,4530.0,4397.307617,4438.974121,,,,,,,,,,,,,,,,,,,,,,,,,,,,,,,,,,,,,,,,,,,,,,,,,,,,,,,,,,,,,,,,,,,,,,
1768972924.532025,1768972924.532527,92.0,0.0,4391.025879,4370.0,4357.05127,4375.641113,4367.820313,4373.205078,4373.589844,4376.538574,4370.769043,4349.358887,4446.153809,4529.871582,4396.666504,4429.102539,,,,,,,,,,,,,,,,,,,,,,,,,,,,,,,,,,,,,,,,,,,,,,,,,,,,,,,,,,,,,,,,,,,,,,
1768972924.539833,1768972924.540336,93.0,0.0,4388.974121,4372.179688,4359.743652,4381.794922,4371.922852,4378.589844,4376.410156,4373.333496,4366.410156,4352.563965,4454.615234,4539.871582,4398.077148,4430.128418,,,,,,,,,,,,,,,,,,,,,,,,,,,,,,,,,,,,,,,,,,,,,,,,,,,,,,,,,,,,,,,,,,,,,,
1768972924.547642,1768972924.548044,94.0,0.0,4392.692383,4372.692383,4360.256348,4385.0,4374.871582,4375.769043,4375.0,4374.358887,4368.717773,4342.820313,4457.436035,4541.922852,4396.410156,4431.538574,3.13564,1.366037,0.282374,0.241673,0.140058,0.534342,0.91237,0.400798,0.24295,0.126871,0.676262,0.458316,0.247833,0.126908,0.089231,0.540827,0.521353,0.254884,0.126569,0.068361,0.170312,0.17348,0.06743,0.048817,0.057265,0.466136,1.058128,0.752925,0.363622,0.413658,0.44683,1.18294,0.489734,0.469183,0.512747,0.487743,0.640746,0.299821,0.183044,0.191561,0.714787,0.559239,0.133282,0.190074,0.123728,0.599608,1.254391,0.20083,0.22945,0.117822,0.760071,1.687399,0.158321,0.360988,0.14367,1.042485,1.696326,0.227895,0.487226,0.098223,1.211437,1.531514,0.271472,0.274944,0.199945,3.650707,2.974917,0.332894,0.428283,0.172575
1768972924.55545,1768972924.555853,95.0,0.0,4396.666504,4372.179688,4359.871582,4382.179688,4372.692383,4371.410156,4373.333496,4376.922852,4376.666504,4351.538574,4457.692383,4536.410156,4402.94873,4434.102539,,,,,,,,,,,,,,,,,,,,,,,,,,,,,,,,,,,,,,,,,,,,,,,,,,,,,,,,,,,,,,,,,,,,,,
1768972924.563259,1768972924.563861,96.0,0.0,4397.179688,4378.205078,4358.589844,4381.922852,4374.230957,4379.358887,4379.358887,4376.794922,4378.974121,4367.94873,4460.769043,4533.846191,4413.077148,4440.128418,,,,,,,,,,,,,,,,,,,,,,,,,,,,,,,,,,,,,,,,,,,,,,,,,,,,,,,,,,,,,,,,,,,,,,
1768972924.571067,1768972924.57167,97.0,0.0,4395.128418,4382.692383,4354.615234,4382.692383,4379.230957,4385.256348,4384.102539,4373.974121,4373.717773,4360.128418,4455.0,4527.436035,4406.794922,4434.615234,,,,,,,,,,,,,,,,,,,,,,,,,,,,,,,,,,,,,,,,,,,,,,,,,,,,,,,,,,,,,,,,,,,,,,
1768972924.578876,1768972924.579578,98.0,0.0,4394.615234,4382.436035,4353.846191,4381.666504,4380.256348,4387.692383,4383.461426,4369.230957,4370.128418,4351.538574,4450.769043,4520.769043,4396.922852,4425.0,,,,,,,,,,,,,,,,,,,,,,,,,,,,,,,,,,,,,,,,,,,,,,,,,,,,,,,,,,,,,,,,,,,,,,
1768972924.586684,1768972924.587386,99.0,0.0,4392.94873,4381.025879,4360.769043,4380.128418,4378.461426,4390.769043,4384.615234,4374.487305,4373.205078,4358.461426,4456.025879,4527.692383,4403.589844,4425.128418,,,,,,,,,,,,,,,,,,,,,,,,,,,,,,,,,,,,,,,,,,,,,,,,,,,,,,,,,,,,,,,,,,,,,,
1768972924.594493,1768972924.595395,100.0,0.0,4390.128418,4377.563965,4361.794922,4380.128418,4376.410156,4383.846191,4384.871582,4386.153809,4375.0,4358.846191,4460.256348,4537.692383,4411.410156,4432.436035,,,,,,,,,,,,,,,,,,,,,,,,,,,,,,,,,,,,,,,,,,,,,,,,,,,,,,,,,,,,,,,,,,,,,,
1768972924.602301,1768972924.603203,101.0,0.0,4391.794922,4374.743652,4356.282227,4380.512695,4375.0,4373.205078,4376.282227,4377.692383,4368.205078,4356.025879,4460.384766,4536.282227,4411.922852,4441.538574,,,,,,,,,,,,,,,,,,,,,,,,,,,,,,,,,,,,,,,,,,,,,,,,,,,,,,,,,,,,,,,,,,,,,,
1768972924.610109,1768972924.610912,102.0,0.0,4396.922852,4373.589844,4355.0,4379.743652,4376.794922,4375.0,4369.615234,4362.05127,4360.0,4357.692383,4460.256348,4530.641113,4411.282227,4440.0,,,,,,,,,,,,,,,,,,,,,,,,,,,,,,,,,,,,,,,,,,,,,,,,,,,,,,,,,,,,,,,,,,,,,,
1768972924.617918,1768972924.61872,103.0,0.0,4397.94873,4372.05127,4358.333496,4380.512695,4379.871582,4381.666504,4374.615234,4368.974121,4363.205078,4357.94873,4460.128418,4528.461426,4407.692383,4430.641113,,,,,,,,,,,,,,,,,,,,,,,,,,,,,,,,,,,,,,,,,,,,,,,,,,,,,,,,,,,,,,,,,,,,,,
1768972924.625726,1768972924.626728,104.0,0.0,4395.769043,4372.05127,4363.846191,4382.179688,4382.436035,4378.461426,4377.179688,4378.846191,4371.410156,4358.205078,4458.717773,4527.94873,4407.307617,4433.974121,,,,,,,,,,,,,,,,,,,,,,,,,,,,,,,,,,,,,,,,,,,,,,,,,,,,,,,,,,,,,,,,,,,,,,
1768972924.633535,1768972924.634537,105.0,0.0,4397.820313,4372.436035,4366.410156,4380.512695,4383.333496,4374.358887,4373.461426,4376.410156,4373.717773,4359.871582,4461.538574,4534.102539,4412.94873,4444.743652,,,,,,,,,,,,,,,,,,,,,,,,,,,,,,,,,,,,,,,,,,,,,,,,,,,,,,,,,,,,,,,,,,,,,,
1768972924.641343,1768972924.642245,106.0,0.0,4402.436035,4372.307617,4365.897461,4381.025879,4383.717773,4380.641113,4378.846191,4379.230957,4374.358887,4361.922852,4466.538574,4546.538574,4415.384766,4446.153809,,,,,,,,,,,,,,,,,,,,,,,,,,,,,,,,,,,,,,,,,,,,,,,,,,,,,,,,,,,,,,,,,,,,,,
1768972924.649152,1768972924.650054,107.0,0.0,4405.384766,4376.666504,4365.384766,4387.692383,4384.230957,4388.846191,4389.102539,4383.846191,4374.230957,4358.077148,4468.077148,4546.922852,4414.102539,4442.436035,,,,,,,,,,,,,,,,,,,,,,,,,,,,,,,,,,,,,,,,,,,,,,,,,,,,,,,,,,,,,,,,,,,,,,
1768972924.65696,1768972924.657662,108.0,0.0,4402.436035,4378.589844,4363.461426,4388.333496,4384.743652,4388.974121,4389.487305,4382.692383,4373.461426,4356.410156,4465.256348,4538.717773,4415.0,4441.282227,,,,,,,,,,,,,,,,,,,,,,,,,,,,,,,,,,,,,,,,,,,,,,,,,,,,,,,,,,,,,,,,,,,,,,
1768972924.664769,1768972924.665471,109.0,0.0,4397.563965,4374.102539,4362.692383,4384.615234,4383.461426,4382.692383,4386.666504,4382.563965,4375.0,4365.641113,4462.05127,4538.846191,4414.358887,4442.820313,,,,,,,,,,,,,,,,,,,,,,,,,,,,,,,,,,,,,,,,,,,,,,,,,,,,,,,,,,,,,,,,,,,,,,
1768972924.672577,1768972924.673179,110.0,0.0,4398.333496,4371.666504,4363.589844,4385.128418,4380.384766,4380.128418,4383.846191,4378.461426,4373.461426,4365.256348,4466.025879,4542.692383,4418.461426,4445.769043,2.131842,1.003408,0.213956,0.283561,0.133753,0.40782,0.652831,0.389784,0.274419,0.129014,0.45578,0.373146,0.245742,0.123199,0.088339,0.386899,0.449981,0.282258,0.132525,0.075823,0.173474,0.198922,0.068258,0.034873,0.057713,0.51734,1.043023,0.665173,0.363614,0.417101,0.398039,1.118232,0.446157,0.451056,0.524605,0.480177,0.588766,0.285334,0.174504,0.179875,0.539692,0.469573,0.109221,0.16974,0.106873,0.466599,1.057985,0.20768,0.244248,0.135726,0.681849,1.138836,0.15436,0.34439,0.149213,0.728452,1.129228,0.19145,0.492469,0.09864,1.114112,1.192322,0.292116,0.295097,0.202062,2.773967,2.061476,0.280379,0.454131,0.169623
1768972924.680385,1768972924.680988,111.0,0.0,4400.897461,4371.794922,4363.461426,4383.974121,4380.897461,4380.384766,4379.230957,4375.512695,4371.666504,4351.666504,4474.102539,4545.256348,4428.589844,4446.538574,,,,,,,,,,,,,,,,,,,,,,,,,,,,,,,,,,,,,,,,,,,,,,,,,,,,,,,,,,,,,,,,,,,,,,
1768972924.688194,1768972924.688996,112.0,0.0,4398.077148,4368.846191,4359.487305,4380.256348,4382.05127,4381.538574,4381.666504,4379.871582,4375.769043,4353.717773,4471.282227,4544.102539,4424.743652,4438.589844,,,,,,,,,,,,,,,,,,,,,,,,,,,,,,,,,,,,,,,,,,,,,,,,,,,,,,,,,,,,,,,,,,,,,,
1768972924.696002,1768972924.696805,113.0,0.0,4392.563965,4365.641113,4353.846191,4377.563965,4379.743652,4385.0,4385.897461,4380.512695,4377.563965,4367.563965,4459.871582,4533.846191,4415.0,4430.769043,,,,,,,,,,,,,,,,,,,,,,,,,,,,,,,,,,,,,,,,,,,,,,,,,,,,,,,,,,,,,,,,,,,,,,
1768972924.703811,1768972924.704713,114.0,0.0,4387.05127,4365.384766,4348.974121,4375.512695,4378.077148,4383.717773,4382.692383,4380.384766,4375.256348,4367.307617,4457.94873,4525.256348,4416.666504,4434.487305,,,,,,,,,,,,,,,,,,,,,,,,,,,,,,,,,,,,,,,,,,,,,,,,,,,,,,,,,,,,,,,,,,,,,,
1768972924.711619,1768972924.712521,115.0,0.0,4384.102539,4363.589844,4348.589844,4373.974121,4379.358887,4377.692383,4378.461426,4383.077148,4376.282227,4361.922852,4463.589844,4529.102539,4419.358887,4441.922852,,,,,,,,,,,,,,,,,,,,,,,,,,,,,,,,,,,,,,,,,,,,,,,,,,,,,,,,,,,,,,,,,,,,,,
1768972924.719428,1768972924.72053,116.0,0.0,4389.230957,4365.128418,4355.512695,4376.282227,4382.436035,4381.282227,4383.205078,4381.025879,4376.153809,4365.897461,4467.820313,4536.153809,4417.05127,4443.077148,,,,,,,,,,,,,,,,,,,,,,,,,,,,,,,,,,,,,,,,,,,,,,,,,,,,,,,,,,,,,,,,,,,,,,
1768972924.727236,1768972924.728338,117.0,0.0,4395.512695,4370.256348,4359.487305,4378.333496,4383.589844,4387.94873,4384.743652,4378.333496,4372.692383,4369.102539,4473.077148,4537.436035,4423.205078,4442.94873,,,,,,,,,,,,,,,,,,,,,,,,,,,,,,,,,,,,,,,,,,,,,,,,,,,,,,,,,,,,,,,,,,,,,,
1768972924.735044,1768972924.736246,118.0,0.0,4394.487305,4373.589844,4357.563965,4379.102539,4379.615234,4379.871582,4376.538574,4381.922852,4372.692383,4367.307617,4473.077148,4535.384766,4429.102539,4443.974121,,,,,,,,,,,,,,,,,,,,,,,,,,,,,,,,,,,,,,,,,,,,,,,,,,,,,,,,,,,,,,,,,,,,,,
1768972924.742853,1768972924.744055,119.0,0.0,4394.358887,4378.461426,4358.077148,4380.384766,4377.820313,4370.897461,4372.05127,4384.871582,4375.384766,4367.692383,4473.205078,4533.589844,4423.461426,4443.461426,,,,,,,,,,,,,,,,,,,,,,,,,,,,,,,,,,,,,,,,,,,,,,,,,,,,,,,,,,,,,,,,,,,,,,
1768972924.750661,1768972924.752063,120.0,0.0,4398.333496,4383.589844,4362.179688,4381.025879,4378.205078,4370.769043,4373.717773,4382.94873,4375.897461,4365.256348,4474.102539,4533.461426,4417.563965,4442.820313,,,,,,,,,,,,,,,,,,,,,,,,,,,,,,,,,,,,,,,,,,,,,,,,,,,,,,,,,,,,,,,,,,,,,,
1768972924.75847,1768972924.759872,121.0,0.0,4398.717773,4380.0,4362.820313,4378.717773,4375.897461,4374.871582,4376.538574,4382.436035,4374.487305,4359.743652,4465.256348,4532.820313,4414.487305,4438.077148,,,,,,,,,,,,,,,,,,,,,,,,,,,,,,,,,,,,,,,,,,,,,,,,,,,,,,,,,,,,,,,,,,,,,,
1768972924.766278,1768972924.76778,122.0,0.0,4391.922852,4375.0,4361.153809,4375.512695,4375.512695,4376.794922,4380.641113,4383.461426,4372.179688,4357.563965,4457.94873,4531.794922,4411.025879,4430.256348,,,,,,,,,,,,,,,,,,,,,,,,,,,,,,,,,,,,,,,,,,,,,,,,,,,,,,,,,,,,,,,,,,,,,,
1768972924.774087,1768972924.775588,123.0,0.0,4385.641113,4374.358887,4363.846191,4374.615234,4376.538574,4373.589844,4383.717773,4382.94873,4371.153809,4355.512695,4458.846191,4530.128418,4408.461426,4428.846191,,,,,,,,,,,,,,,,,,,,,,,,,,,,,,,,,,,,,,,,,,,,,,,,,,,,,,,,,,,,,,,,,,,,,,
1768972924.781895,1768972924.783197,124.0,0.0,4391.410156,4375.128418,4368.333496,4380.0,4376.538574,4375.641113,4382.179688,4383.589844,4373.974121,4354.487305,4460.641113,4530.769043,4411.153809,4437.692383,,,,,,,,,,,,,,,,,,,,,,,,,,,,,,,,,,,,,,,,,,,,,,,,,,,,,,,,,,,,,,,,,,,,,,
1768972924.789703,1768972924.791005,125.0,0.0,4402.563965,4385.384766,4372.820313,4390.512695,4380.769043,4382.820313,4381.922852,4385.256348,4378.974121,4359.230957,4466.410156,4536.282227,4422.307617,4448.589844,,,,,,,,,,,,,,,,,,,,,,,,,,,,,,,,,,,,,,,,,,,,,,,,,,,,,,,,,,,,,,,,,,,,,,
1768972924.797512,1768972924.798714,126.0,0.0,4402.05127,4393.846191,4376.025879,4393.461426,4382.692383,4384.230957,4385.512695,4387.05127,4380.384766,4361.794922,4470.128418,4543.205078,4428.974121,4449.743652,1.311298,0.746319,0.178238,0.350811,0.139099,0.403678,0.499068,0.37882,0.339425,0.137093,0.294504,0.329354,0.248852,0.127515,0.087206,0.297286,0.411361,0.317486,0.155984,0.085722,0.172981,0.214425,0.079992,0.027147,0.057445,0.529803,1.053864,0.550856,0.355104,0.400376,0.366372,1.061849,0.382538,0.421007,0.511872,0.486565,0.532419,0.270578,0.163218,0.171226,0.42165,0.393987,0.107854,0.160356,0.093172,0.376311,0.836856,0.233622,0.279326,0.158718,0.588051,0.722637,0.165349,0.353464,0.154522,0.51466,0.747841,0.171357,0.502842,0.105396,0.946023,0.921862,0.317355,0.337618,0.200232,1.905,1.400055,0.223564,0.474766,0.163776
1768972924.80532,1768972924.806522,127.0,0.0,4394.102539,4382.179688,4371.153809,4382.179688,4374.743652,4381.025879,4385.512695,4388.974121,4376.794922,4357.563965,4462.692383,4541.410156,4417.94873,4443.846191,,,,,,,,,,,,,,,,,,,,,,,,,,,,,,,,,,,,,,,,,,,,,,,,,,,,,,,,,,,,,,,,,,,,,,
1768972924.813129,1768972924.814131,0.0,0.0,4394.230957,4378.974121,4365.641113,4379.871582,4369.743652,4378.461426,4380.512695,4385.512695,4371.666504,4353.974121,4457.307617,4533.974121,4408.077148,4441.922852,,,,,,,,,,,,,,,,,,,,,,,,,,,,,,,,,,,,,,,,,,,,,,,,,,,,,,,,,,,,,,,,,,,,,,
1768972924.820937,1768972924.82194,1.0,0.0,4399.871582,4394.487305,4370.128418,4391.794922,4374.743652,4374.615234,4375.769043,4377.820313,4366.794922,4355.897461,4460.384766,4536.153809,4420.256348,4443.717773,,,,,,,,,,,,,,,,,,,,,,,,,,,,,,,,,,,,,,,,,,,,,,,,,,,,,,,,,,,,,,,,,,,,,,
1768972924.828746,1768972924.829848,2.0,0.0,4402.179688,4399.102539,4372.307617,4394.615234,4377.436035,4373.205078,4371.153809,4374.743652,4365.769043,4360.512695,4462.179688,4541.666504,4429.230957,4445.128418,,,,,,,,,,,,,,,,,,,,,,,,,,,,,,,,,,,,,,,,,,,,,,,,,,,,,,,,,,,,,,,,,,,,,,
1768972924.836554,1768972924.837657,3.0,0.0,4401.794922,4393.461426,4367.05127,4390.256348,4377.94873,4377.436035,4371.794922,4377.05127,4368.846191,4360.769043,4459.230957,4537.94873,4421.666504,4444.871582,,,,,,,,,,,,,,,,,,,,,,,,,,,,,,,,,,,,,,,,,,,,,,,,,,,,,,,,,,,,,,,,,,,,,,
1768972924.844363,1768972924.845665,4.0,0.0,4400.897461,4399.230957,4366.794922,4392.179688,4381.282227,4380.128418,4376.153809,4380.0,4371.410156,4360.0,4457.307617,4536.025879,4420.128418,4446.794922,,,,,,,,,,,,,,,,,,,,,,,,,,,,,,,,,,,,,,,,,,,,,,,,,,,,,,,,,,,,,,,,,,,,,,
1768972924.852171,1768972924.853473,5.0,0.0,4403.077148,4403.846191,4372.307617,4393.461426,4380.128418,4379.102539,4376.666504,4383.077148,4371.410156,4366.282227,4466.282227,4546.538574,4428.846191,4455.0,,,,,,,,,,,,,,,,,,,,,,,,,,,,,,,,,,,,,,,,,,,,,,,,,,,,,,,,,,,,,,,,,,,,,,
1768972924.85998,1768972924.861182,6.0,0.0,4404.230957,4396.025879,4374.358887,4391.025879,4373.077148,4373.333496,4377.307617,4387.307617,4373.974121,4369.358887,4476.153809,4552.820313,4431.410156,4461.025879,,,,,,,,,,,,,,,,,,,,,,,,,,,,,,,,,,,,,,,,,,,,,,,,,,,,,,,,,,,,,,,,,,,,,,
1768972924.867788,1768972924.86899,7.0,0.0,4398.717773,4391.282227,4371.922852,4388.974121,4374.102539,4373.461426,4381.025879,4390.641113,4377.05127,4366.153809,4473.333496,4543.205078,4427.436035,4455.128418,,,,,,,,,,,,,,,,,,,,,,,,,,,,,,,,,,,,,,,,,,,,,,,,,,,,,,,,,,,,,,,,,,,,,,
1768972924.875596,1768972924.876599,8.0,0.0,4394.615234,4393.846191,4368.205078,4386.538574,4378.717773,4380.641113,4384.102539,4391.922852,4379.871582,4369.871582,4472.436035,4540.256348,4428.717773,4450.769043,,,,,,,,,,,,,,,,,,,,,,,,,,,,,,,,,,,,,,,,,,,,,,,,,,,,,,,,,,,,,,,,,,,,,,
1768972924.883405,1768972924.884408,9.0,0.0,4392.94873,4394.743652,4363.846191,4383.333496,4375.128418,4383.333496,4384.102539,4391.922852,4382.436035,4371.153809,4471.538574,4545.384766,4430.769043,4449.615234,,,,,,,,,,,,,,,,,,,,,,,,,,,,,,,,,,,,,,,,,,,,,,,,,,,,,,,,,,,,,,,,,,,,,,
1768972924.891213,1768972924.892316,10.0,0.0,4390.256348,4393.461426,4362.436035,4381.410156,4373.333496,4383.461426,4384.743652,4392.307617,4380.128418,4363.717773,4462.820313,4540.256348,4426.153809,4442.307617,,,,,,,,,,,,,,,,,,,,,,,,,,,,,,,,,,,,,,,,,,,,,,,,,,,,,,,,,,,,,,,,,,,,,,
1768972924.899022,1768972924.900124,11.0,0.0,4391.410156,4395.897461,4367.307617,4381.538574,4376.666504,4381.666504,4384.615234,4392.179688,4380.384766,4367.436035,4465.384766,4537.05127,4424.358887,4445.384766,,,,,,,,,,,,,,,,,,,,,,,,,,,,,,,,,,,,,,,,,,,,,,,,,,,,,,,,,,,,,,,,,,,,,,
1768972924.90683,1768972924.908133,12.0,0.0,4398.461426,4402.436035,4373.846191,4388.717773,4377.179688,4378.077148,4382.820313,4391.410156,4384.358887,4378.333496,4478.717773,4549.230957,4435.897461,4461.153809,,,,,,,,,,,,,,,,,,,,,,,,,,,,,,,,,,,,,,,,,,,,,,,,,,,,,,,,,,,,,,,,,,,,,,
1768972924.914639,1768972924.915941,13.0,0.0,4400.769043,4403.974121,4377.436035,4393.846191,4376.922852,4382.563965,4386.282227,4392.820313,4383.974121,4378.589844,4479.358887,4554.743652,4445.641113,4464.487305,,,,,,,,,,,,,,,,,,,,,,,,,,,,,,,,,,,,,,,,,,,,,,,,,,,,,,,,,,,,,,,,,,,,,,
1768972924.922447,1768972924.923849,14.0,0.0,4396.282227,4398.461426,4372.05127,4389.743652,4379.358887,4384.358887,4384.743652,4390.769043,4379.871582,4373.846191,4474.102539,4547.307617,4439.230957,4457.179688,0.777868,0.60922,0.170984,0.427866,0.152175,0.532023,0.477097,0.363509,0.418834,0.146422,0.214221,0.317089,0.251063,0.133732,0.086117,0.280792,0.402317,0.343078,0.187047,0.094817,0.17363,0.216323,0.0968,0.023906,0.056472,0.502834,1.082804,0.441922,0.340966,0.368846,0.351843,1.022939,0.328461,0.389919,0.478978,0.521307,0.481109,0.254209,0.152456,0.165486,0.37332,0.334996,0.127279,0.163661,0.084948,0.324405,0.629664,0.271291,0.32631,0.183086,0.50804,0.463767,0.187828,0.381712,0.156662,0.430017,0.54412,0.16843,0.515403,0.114469,0.769933,0.741699,0.345517,0.394372,0.196274,1.239059,1.018253,0.177933,0.484889,0.158061
1768972924.930256,1768972924.931658,15.0,0.0,4397.563965,4393.974121,4365.641113,4389.102539,4380.384766,4369.358887,4372.820313,4385.256348,4378.717773,4373.077148,4475.769043,4545.512695,4432.179688,4458.461426,,,,,,,,,,,,,,,,,,,,,,,,,,,,,,,,,,,,,,,,,,,,,,,,,,,,,,,,,,,,,,,,,,,,,,
1768972924.938064,1768972924.939666,16.0,0.0,4404.102539,4394.871582,4369.615234,4394.615234,4379.358887,4366.410156,4369.743652,4386.410156,4382.05127,4372.563965,4476.153809,4546.410156,4432.179688,4460.512695,,,,,,,,,,,,,,,,,,,,,,,,,,,,,,,,,,,,,,,,,,,,,,,,,,,,,,,,,,,,,,,,,,,,,,
1768972924.945872,1768972924.947475,17.0,0.0,4402.179688,4391.282227,4372.563965,4393.333496,4379.102539,4381.922852,4383.333496,4389.487305,4383.974121,4373.717773,4475.128418,4544.230957,4432.436035,4458.717773,,,,,,,,,,,,,,,,,,,,,,,,,,,,,,,,,,,,,,,,,,,,,,,,,,,,,,,,,,,,,,,,,,,,,,
1768972924.953681,1768972924.955183,18.0,0.0,4395.384766,4380.769043,4366.538574,4385.512695,4380.641113,4381.153809,4386.666504,4385.641113,4384.102539,4376.153809,4476.410156,4545.128418,4436.282227,4460.512695,,,,,,,,,,,,,,,,,,,,,,,,,,,,,,,,,,,,,,,,,,,,,,,,,,,,,,,,,,,,,,,,,,,,,,
1768972924.961489,1768972924.962992,19.0,0.0,4397.05127,4379.102539,4368.974121,4388.205078,4382.436035,4373.846191,4379.743652,4386.922852,4384.487305,4376.538574,4477.179688,4551.153809,4443.717773,4462.563965,,,,,,,,,,,,,,,,,,,,,,,,,,,,,,,,,,,,,,,,,,,,,,,,,,,,,,,,,,,,,,,,,,,,,,
1768972924.969298,1768972924.9706,20.0,0.0,4401.282227,4386.410156,4380.0,4396.794922,4381.794922,4381.410156,4381.794922,4391.794922,4382.820313,4375.641113,4477.692383,4552.563965,4442.05127,4462.436035,,,,,,,,,,,,,,,,,,,,,,,,,,,,,,,,,,,,,,,,,,,,,,,,,,,,,,,,,,,,,,,,,,,,,,
1768972924.977106,1768972924.978409,21.0,0.0,4397.307617,4386.410156,4376.025879,4392.94873,4379.871582,4382.563965,4383.333496,4388.717773,4377.94873,4374.487305,4475.512695,4545.641113,4432.94873,4460.641113,,,,,,,,,,,,,,,,,,,,,,,,,,,,,,,,,,,,,,,,,,,,,,,,,,,,,,,,,,,,,,,,,,,,,,
1768972924.984915,1768972924.986117,22.0,0.0,4391.538574,4379.230957,4363.717773,4385.0,4379.358887,4376.153809,4381.282227,4386.282227,4376.410156,4373.333496,4473.077148,4546.025879,4429.358887,4459.230957,,,,,,,,,,,,,,,,,,,,,,,,,,,,,,,,,,,,,,,,,,,,,,,,,,,,,,,,,,,,,,,,,,,,,,
1768972924.992723,1768972924.993926,23.0,0.0,4394.871582,4380.256348,4366.538574,4390.128418,4377.692383,4378.717773,4382.307617,4388.717773,4381.025879,4375.256348,4474.743652,4551.538574,4431.153809,4458.846191,,,,,,,,,,,,,,,,,,,,,,,,,,,,,,,,,,,,,,,,,,,,,,,,,,,,,,,,,,,,,,,,,,,,,,
1768972925.000532,1768972925.001534,24.0,0.0,4398.077148,4382.94873,4375.0,4396.153809,4376.666504,4382.179688,4384.743652,4390.897461,4382.436035,4375.897461,4476.666504,4546.153809,4431.153809,4458.589844,,,,,,,,,,,,,,,,,,,,,,,,,,,,,,,,,,,,,,,,,,,,,,,,,,,,,,,,,,,,,,,,,,,,,,
1768972925.00834,1768972925.009343,25.0,0.0,4391.282227,4375.384766,4370.897461,4389.102539,4377.820313,4379.487305,4383.589844,4393.205078,4380.128418,4371.666504,4474.615234,4537.692383,4429.871582,4459.102539,,,,,,,,,,,,,,,,,,,,,,,,,,,,,,,,,,,,,,,,,,,,,,,,,,,,,,,,,,,,,,,,,,,,,,
1768972925.016148,1768972925.017051,26.0,0.0,4389.102539,4370.897461,4367.692383,4386.282227,4380.128418,4377.307617,4385.384766,4395.128418,4381.025879,4369.615234,4476.025879,4542.05127,4430.384766,4460.256348,,,,,,,,,,,,,,,,,,,,,,,,,,,,,,,,,,,,,,,,,,,,,,,,,,,,,,,,,,,,,,,,,,,,,,
1768972925.023957,1768972925.02486,27.0,0.0,4394.487305,4374.102539,4374.871582,4391.410156,4380.128418,4379.487305,4393.846191,4394.871582,4383.077148,4371.666504,4475.897461,4544.871582,4429.743652,4456.538574,,,,,,,,,,,,,,,,,,,,,,,,,,,,,,,,,,,,,,,,,,,,,,,,,,,,,,,,,,,,,,,,,,,,,,
1768972925.031765,1768972925.032868,28.0,0.0,4395.512695,4373.461426,4374.102539,4390.128418,4379.615234,4381.410156,4393.461426,4392.179688,4379.615234,4370.0,4468.205078,4537.179688,4427.692383,4450.128418,,,,,,,,,,,,,,,,,,,,,,,,,,,,,,,,,,,,,,,,,,,,,,,,,,,,,,,,,,,,,,,,,,,,,,
1768972925.039574,1768972925.040676,29.0,0.0,4393.974121,4372.307617,4365.384766,4386.410156,4377.563965,4375.641113,4380.769043,4387.563965,4374.102539,4365.512695,4463.846191,4534.102539,4425.897461,4448.205078,,,,,,,,,,,,,,,,,,,,,,,,,,,,,,,,,,,,,,,,,,,,,,,,,,,,,,,,,,,,,,,,,,,,,,
1768972925.047382,1768972925.048385,30.0,0.0,4396.153809,4378.077148,4366.538574,4388.205078,4375.512695,4370.897461,4376.666504,4385.897461,4373.717773,4364.871582,4463.974121,4536.922852,4425.897461,4446.922852,0.506467,0.549644,0.173962,0.493916,0.166752,0.756787,0.553939,0.34385,0.485053,0.151597,0.205092,0.313489,0.243394,0.138254,0.086496,0.312265,0.401037,0.342461,0.213553,0.101384,0.181816,0.205643,0.112915,0.022965,0.054656,0.452534,1.098194,0.365135,0.319452,0.329821,0.348972,0.994366,0.310272,0.361264,0.431152,0.583556,0.441029,0.235522,0.144088,0.160905,0.378023,0.294479,0.159462,0.174297,0.081815,0.288203,0.462538,0.306455,0.367472,0.204115,0.447173,0.325429,0.216107,0.413297,0.154351,0.439091,0.451456,0.18371,0.52334,0.123176,0.603443,0.626952,0.372619,0.447825,0.192404,0.818555,0.819655,0.152848,0.480186,0.157518
1768972925.055191,1768972925.056193,31.0,0.0,4397.436035,4379.487305,4371.538574,4389.230957,4377.820313,4378.333496,4386.538574,4390.0,4375.512695,4364.230957,4462.94873,4536.922852,4428.846191,4444.615234,,,,,,,,,,,,,,,,,,,,,,,,,,,,,,,,,,,,,,,,,,,,,,,,,,,,,,,,,,,,,,,,,,,,,,
1768972925.062999,1768972925.063802,32.0,0.0,4396.153809,4373.974121,4370.512695,4387.179688,4382.179688,4382.692383,4389.358887,4388.974121,4374.615234,4361.794922,4460.512695,4532.820313,4427.94873,4443.846191,,,,,,,,,,,,,,,,,,,,,,,,,,,,,,,,,,,,,,,,,,,,,,,,,,,,,,,,,,,,,,,,,,,,,,
1768972925.070808,1768972925.07161,33.0,0.0,4395.641113,4374.358887,4371.538574,4389.743652,4384.102539,4382.820313,4386.666504,4387.563965,4376.282227,4362.692383,4458.205078,4530.128418,4419.102539,4444.102539,,,,,,,,,,,,,,,,,,,,,,,,,,,,,,,,,,,,,,,,,,,,,,,,,,,,,,,,,,,,,,,,,,,,,,
1768972925.078616,1768972925.079319,34.0,0.0,4396.410156,4378.333496,4375.0,4393.846191,4384.743652,4390.897461,4393.205078,4392.563965,4380.897461,4366.666504,4463.461426,4534.230957,4416.922852,4443.333496,,,,,,,,,,,,,,,,,,,,,,,,,,,,,,,,,,,,,,,,,,,,,,,,,,,,,,,,,,,,,,,,,,,,,,
1768972925.086424,1768972925.087127,35.0,0.0,4398.205078,4377.94873,4375.769043,4392.692383,4385.384766,4399.102539,4398.077148,4395.897461,4384.871582,4372.692383,4473.205078,4540.769043,4427.179688,4443.461426,,,,,,,,,,,,,,,,,,,,,,,,,,,,,,,,,,,,,,,,,,,,,,,,,,,,,,,,,,,,,,,,,,,,,,
1768972925.094233,1768972925.095136,36.0,0.0,4392.563965,4371.922852,4374.487305,4388.333496,4382.563965,4396.666504,4396.794922,4395.897461,4385.897461,4371.282227,4470.256348,4541.025879,4426.538574,4442.820313,,,,,,,,,,,,,,,,,,,,,,,,,,,,,,,,,,,,,,,,,,,,,,,,,,,,,,,,,,,,,,,,,,,,,,
1768972925.102041,1768972925.102944,37.0,0.0,4386.153809,4364.871582,4375.384766,4385.0,4376.025879,4388.077148,4395.384766,4396.153809,4383.077148,4363.333496,4459.743652,4538.974121,4414.871582,4441.025879,,,,,,,,,,,,,,,,,,,,,,,,,,,,,,,,,,,,,,,,,,,,,,,,,,,,,,,,,,,,,,,,,,,,,,
1768972925.10985,1768972925.110853,38.0,0.0,4392.05127,4367.179688,4380.128418,4386.153809,4374.487305,4383.077148,4387.436035,4391.025879,4379.487305,4364.743652,4463.846191,4539.871582,4415.0,4443.205078,,,,,,,,,,,,,,,,,,,,,,,,,,,,,,,,,,,,,,,,,,,,,,,,,,,,,,,,,,,,,,,,,,,,,,
1768972925.117658,1768972925.118661,39.0,0.0,4401.025879,4374.358887,4379.871582,4390.512695,4378.333496,4380.384766,4379.615234,4382.179688,4379.230957,4373.333496,4472.563965,4539.230957,4420.128418,4445.128418,,,,,,,,,,,,,,,,,,,,,,,,,,,,,,,,,,,,,,,,,,,,,,,,,,,,,,,,,,,,,,,,,,,,,,
1768972925.125467,1768972925.126669,40.0,0.0,4396.922852,4370.128418,4375.0,4389.487305,4378.974121,4384.230957,4388.205078,4385.897461,4380.897461,4374.487305,4472.692383,4538.589844,4419.102539,4443.461426,,,,,,,,,,,,,,,,,,,,,,,,,,,,,,,,,,,,,,,,,,,,,,,,,,,,,,,,,,,,,,,,,,,,,,
1768972925.133275,1768972925.134478,41.0,0.0,4386.410156,4361.410156,4373.589844,4387.307617,4375.641113,4392.05127,4400.384766,4390.897461,4381.153809,4370.384766,4472.05127,4541.153809,4420.0,4440.256348,,,,,,,,,,,,,,,,,,,,,,,,,,,,,,,,,,,,,,,,,,,,,,,,,,,,,,,,,,,,,,,,,,,,,,
1768972925.141084,1768972925.142386,42.0,0.0,4389.358887,4364.871582,4378.717773,4393.589844,4376.538574,4391.025879,4393.974121,4387.307617,4381.153809,4371.282227,4473.717773,4546.794922,4426.025879,4445.897461,,,,,,,,,,,,,,,,,,,,,,,,,,,,,,,,,,,,,,,,,,,,,,,,,,,,,,,,,,,,,,,,,,,,,,
1768972925.148892,1768972925.150194,43.0,0.0,4400.512695,4371.410156,4381.538574,4398.205078,4379.487305,4385.769043,4387.692383,4388.589844,4381.922852,4374.871582,4476.410156,4553.077148,4429.487305,4454.743652,,,,,,,,,,,,,,,,,,,,,,,,,,,,,,,,,,,,,,,,,,,,,,,,,,,,,,,,,,,,,,,,,,,,,,
1768972925.1567,1768972925.158103,44.0,0.0,4401.025879,4372.563965,4377.307617,4396.025879,4379.871582,4390.128418,4395.384766,4392.05127,4379.358887,4374.743652,4476.794922,4551.922852,4428.717773,4451.410156,,,,,,,,,,,,,,,,,,,,,,,,,,,,,,,,,,,,,,,,,,,,,,,,,,,,,,,,,,,,,,,,,,,,,,
1768972925.164509,1768972925.165911,45.0,0.0,4395.897461,4372.05127,4373.717773,4396.666504,4380.0,4393.461426,4392.820313,4392.05127,4382.307617,4373.974121,4474.358887,4546.538574,4427.820313,4443.205078,,,,,,,,,,,,,,,,,,,,,,,,,,,,,,,,,,,,,,,,,,,,,,,,,,,,,,,,,,,,,,,,,,,,,,
1768972925.172317,1768972925.17362,46.0,0.0,4395.0,4366.794922,4371.153809,4396.922852,4380.769043,4383.589844,4384.615234,4393.974121,4392.307617,4378.461426,4477.436035,4549.102539,4428.589844,4445.128418,0.392988,0.512244,0.169295,0.529474,0.177079,0.984381,0.660208,0.323832,0.513286,0.150026,0.245415,0.302117,0.22119,0.142286,0.08936,0.354587,0.384326,0.311976,0.226813,0.105369,0.190384,0.185301,0.124761,0.023834,0.051899,0.397016,1.066304,0.331015,0.288564,0.290932,0.340793,0.963633,0.338637,0.333095,0.374053,0.650266,0.415824,0.218003,0.138656,0.155177,0.411703,0.273656,0.195122,0.183547,0.081277,0.27088,0.344057,0.323579,0.385296,0.217544,0.412472,0.252561,0.243393,0.432737,0.148355,0.472497,0.401809,0.215768,0.519653,0.131027,0.494287,0.538059,0.390357,0.482031,0.190755,0.598146,0.681814,0.151943,0.461557,0.16501
1768972925.180126,1768972925.181428,47.0,0.0,4395.256348,4359.230957,4372.05127,4393.077148,4377.563965,4380.641113,4388.461426,4394.487305,4392.179688,4381.153809,4484.743652,4556.794922,4430.128418,4452.692383,,,,,,,,,,,,,,,,,,,,,,,,,,,,,,,,,,,,,,,,,,,,,,,,,,,,,,,,,,,,,,,,,,,,,,
1768972925.187934,1768972925.189037,48.0,0.0,4396.666504,4362.05127,4374.871582,4392.563965,4376.025879,4383.974121,4388.717773,4391.538574,4385.769043,4379.358887,4485.256348,4558.205078,4431.666504,4456.153809,,,,,,,,,,,,,,,,,,,,,,,,,,,,,,,,,,,,,,,,,,,,,,,,,,,,,,,,,,,,,,,,,,,,,,
1768972925.195743,1768972925.196845,49.0,0.0,4400.0,4370.512695,4376.538574,4395.641113,4380.0,4379.743652,4378.717773,4389.358887,4386.922852,4378.974121,4481.922852,4555.897461,4432.820313,4459.358887,,,,,,,,,,,,,,,,,,,,,,,,,,,,,,,,,,,,,,,,,,,,,,,,,,,,,,,,,,,,,,,,,,,,,,
1768972925.203551,1768972925.204554,50.0,0.0,4400.384766,4369.871582,4375.0,4395.897461,4378.333496,4376.153809,4376.025879,4385.897461,4385.0,4376.153809,4478.589844,4554.102539,4429.230957,4457.94873,,,,,,,,,,,,,,,,,,,,,,,,,,,,,,,,,,,,,,,,,,,,,,,,,,,,,,,,,,,,,,,,,,,,,,
1768972925.21136,1768972925.212362,51.0,0.0,4399.358887,4366.922852,4371.538574,4393.205078,4374.871582,4379.743652,4381.282227,4384.487305,4378.974121,4373.846191,4476.538574,4548.717773,4426.922852,4452.820313,,,,,,,,,,,,,,,,,,,,,,,,,,,,,,,,,,,,,,,,,,,,,,,,,,,,,,,,,,,,,,,,,,,,,,
1768972925.219168,1768972925.220371,52.0,0.0,4399.102539,4371.410156,4373.717773,4388.846191,4380.256348,4383.717773,4383.205078,4390.897461,4384.871582,4379.358887,4480.641113,4549.487305,4431.282227,4458.846191,,,,,,,,,,,,,,,,,,,,,,,,,,,,,,,,,,,,,,,,,,,,,,,,,,,,,,,,,,,,,,,,,,,,,,
1768972925.226977,1768972925.228179,53.0,0.0,4397.05127,4375.0,4372.692383,4389.615234,4382.94873,4381.922852,4383.589844,4392.94873,4390.897461,4381.025879,4481.794922,4554.230957,4431.922852,4461.794922,,,,,,,,,,,,,,,,,,,,,,,,,,,,,,,,,,,,,,,,,,,,,,,,,,,,,,,,,,,,,,,,,,,,,,
1768972925.234785,1768972925.236087,54.0,0.0,4395.384766,4370.769043,4364.615234,4392.563965,4379.358887,4379.358887,4382.05127,4389.358887,4387.179688,4375.897461,4476.282227,4547.94873,4426.282227,4449.358887,,,,,,,,,,,,,,,,,,,,,,,,,,,,,,,,,,,,,,,,,,,,,,,,,,,,,,,,,,,,,,,,,,,,,,
1768972925.242593,1768972925.243896,55.0,0.0,4398.974121,4370.897461,4362.307617,4391.538574,4380.384766,4380.0,4380.512695,4386.922852,4388.077148,4375.128418,4475.256348,4541.025879,4425.769043,4442.820313,,,,,,,,,,,,,,,,,,,,,,,,,,,,,,,,,,,,,,,,,,,,,,,,,,,,,,,,,,,,,,,,,,,,,,
1768972925.250402,1768972925.251504,56.0,0.0,4399.487305,4377.692383,4367.563965,4391.666504,4383.461426,4384.615234,4381.922852,4380.897461,4388.077148,4373.717773,4476.025879,4540.384766,4429.102539,4447.563965,,,,,,,,,,,,,,,,,,,,,,,,,,,,,,,,,,,,,,,,,,,,,,,,,,,,,,,,,,,,,,,,,,,,,,
1768972925.25821,1768972925.259313,57.0,0.0,4391.794922,4378.205078,4369.871582,4396.282227,4383.974121,4391.410156,4384.487305,4381.025879,4381.025879,4371.410156,4472.692383,4541.538574,4426.666504,4444.871582,,,,,,,,,,,,,,,,,,,,,,,,,,,,,,,,,,,,,,,,,,,,,,,,,,,,,,,,,,,,,,,,,,,,,,
1768972925.266019,1768972925.267021,58.0,0.0,4387.179688,4372.94873,4365.0,4397.307617,4382.05127,4387.05127,4381.282227,4389.743652,4382.436035,4374.102539,4474.102539,4543.717773,4423.589844,4441.153809,,,,,,,,,,,,,,,,,,,,,,,,,,,,,,,,,,,,,,,,,,,,,,,,,,,,,,,,,,,,,,,,,,,,,,
1768972925.273827,1768972925.27483,59.0,0.0,4392.179688,4371.794922,4362.436035,4394.358887,4380.897461,4374.358887,4371.538574,4386.025879,4385.256348,4374.230957,4476.025879,4542.692383,4426.538574,4448.461426,,,,,,,,,,,,,,,,,,,,,,,,,,,,,,,,,,,,,,,,,,,,,,,,,,,,,,,,,,,,,,,,,,,,,,
1768972925.281636,1768972925.282439,60.0,0.0,4398.461426,4374.615234,4371.153809,4396.410156,4385.641113,4381.410156,4379.230957,4382.179688,4382.563965,4372.94873,4474.871582,4540.512695,4428.846191,4454.743652,,,,,,,,,,,,,,,,,,,,,,,,,,,,,,,,,,,,,,,,,,,,,,,,,,,,,,,,,,,,,,,,,,,,,,
1768972925.289444,1768972925.290247,61.0,0.0,4400.256348,4374.358887,4378.974121,4400.384766,4391.794922,4399.743652,4395.512695,4394.743652,4388.974121,4378.333496,4478.589844,4544.358887,4426.794922,4449.743652,,,,,,,,,,,,,,,,,,,,,,,,,,,,,,,,,,,,,,,,,,,,,,,,,,,,,,,,,,,,,,,,,,,,,,
1768972925.297253,1768972925.298155,62.0,0.0,4398.461426,4373.461426,4375.897461,4395.641113,4388.846191,4393.461426,4387.307617,4396.666504,4397.563965,4382.307617,4482.563965,4549.230957,4428.461426,4450.769043,0.358993,0.472,0.151502,0.523166,0.180078,1.162415,0.72987,0.316283,0.493048,0.143436,0.318781,0.279386,0.186876,0.148642,0.094833,0.39441,0.34773,0.262069,0.223884,0.107766,0.194972,0.160209,0.12984,0.027708,0.04838,0.359802,0.978123,0.333397,0.251226,0.257731,0.328195,0.921369,0.402424,0.303811,0.314076,0.694692,0.400245,0.206695,0.135649,0.146723,0.447857,0.266789,0.227286,0.184137,0.080387,0.279684,0.264379,0.313644,0.371011,0.220534,0.38746,0.20807,0.265569,0.431455,0.140234,0.500157,0.362805,0.252801,0.50046,0.138525,0.428971,0.45414,0.39043,0.491235,0.191461,0.48121,0.554864,0.174255,0.433837,0.178136
1768972925.305061,1768972925.305964,63.0,0.0,4398.461426,4374.102539,4372.436035,4389.615234,4383.077148,4379.487305,4374.615234,4381.282227,4391.025879,4376.666504,4479.871582,4548.974121,4431.666504,4457.307617,,,,,,,,,,,,,,,,,,,,,,,,,,,,,,,,,,,,,,,,,,,,,,,,,,,,,,,,,,,,,,,,,,,,,,
1768972925.312869,1768972925.313972,64.0,0.0,4400.641113,4374.743652,4371.666504,4391.666504,4383.974121,4381.794922,4382.820313,4375.769043,4381.025879,4369.230957,4475.256348,4543.077148,4425.641113,4450.897461,,,,,,,,,,,,,,,,,,,,,,,,,,,,,,,,,,,,,,,,,,,,,,,,,,,,,,,,,,,,,,,,,,,,,,
1768972925.320678,1768972925.32178,65.0,0.0,4396.153809,4372.05127,4366.666504,4392.563965,4383.974121,4385.769043,4389.230957,4383.589844,4382.563965,4367.820313,4474.487305,4538.077148,4420.641113,4438.461426,,,,,,,,,,,,,,,,,,,,,,,,,,,,,,,,,,,,,,,,,,,,,,,,,,,,,,,,,,,,,,,,,,,,,,
1768972925.328486,1768972925.329689,66.0,0.0,4389.615234,4368.077148,4365.769043,4390.0,4382.692383,4388.333496,4386.922852,4388.846191,4388.205078,4371.282227,4476.666504,4543.461426,4425.512695,4444.871582,,,,,,,,,,,,,,,,,,,,,,,,,,,,,,,,,,,,,,,,,,,,,,,,,,,,,,,,,,,,,,,,,,,,,,
1768972925.336295,1768972925.337497,67.0,0.0,4393.461426,4370.897461,4373.077148,4394.230957,4383.717773,4394.487305,4390.256348,4387.05127,4386.922852,4375.384766,4478.846191,4550.641113,4431.025879,4459.358887,,,,,,,,,,,,,,,,,,,,,,,,,,,,,,,,,,,,,,,,,,,,,,,,,,,,,,,,,,,,,,,,,,,,,,
1768972925.344103,1768972925.345106,68.0,0.0,4399.358887,4375.256348,4371.538574,4397.05127,4382.94873,4391.922852,4386.666504,4382.05127,4381.794922,4374.743652,4477.307617,4546.794922,4428.461426,4460.384766,,,,,,,,,,,,,,,,,,,,,,,,,,,,,,,,,,,,,,,,,,,,,,,,,,,,,,,,,,,,,,,,,,,,,,
1768972925.351912,1768972925.352914,69.0,0.0,4397.436035,4374.358887,4365.897461,4395.769043,4383.589844,4384.871582,4382.436035,4381.153809,4384.871582,4372.563965,4475.256348,4540.897461,4426.282227,4458.461426,,,,,,,,,,,,,,,,,,,,,,,,,,,,,,,,,,,,,,,,,,,,,,,,,,,,,,,,,,,,,,,,,,,,,,
1768972925.35972,1768972925.360623,70.0,0.0,4396.922852,4372.436035,4370.897461,4397.05127,4385.512695,4384.871582,4387.820313,4383.846191,4391.410156,4371.794922,4475.897461,4541.538574,4425.897461,4459.230957,,,,,,,,,,,,,,,,,,,,,,,,,,,,,,,,,,,,,,,,,,,,,,,,,,,,,,,,,,,,,,,,,,,,,,
1768972925.367529,1768972925.368431,71.0,0.0,4398.974121,4373.461426,4373.077148,4394.358887,4382.563965,4383.333496,4383.077148,4377.05127,4383.846191,4369.871582,4475.641113,4544.743652,4422.436035,4458.974121,,,,,,,,,,,,,,,,,,,,,,,,,,,,,,,,,,,,,,,,,,,,,,,,,,,,,,,,,,,,,,,,,,,,,,
1768972925.375337,1768972925.37604,72.0,0.0,4396.282227,4372.820313,4365.256348,4386.538574,4378.077148,4379.487305,4375.769043,4372.05127,4377.94873,4366.794922,4473.333496,4546.153809,4418.717773,4457.563965,,,,,,,,,,,,,,,,,,,,,,,,,,,,,,,,,,,,,,,,,,,,,,,,,,,,,,,,,,,,,,,,,,,,,,
1768972925.383145,1768972925.383848,73.0,0.0,4395.0,4371.666504,4365.384766,4388.717773,4380.256348,4382.05127,4382.563965,4381.538574,4384.230957,4366.153809,4472.94873,4547.05127,4418.333496,4456.538574,,,,,,,,,,,,,,,,,,,,,,,,,,,,,,,,,,,,,,,,,,,,,,,,,,,,,,,,,,,,,,,,,,,,,,
1768972925.390954,1768972925.391557,74.0,0.0,4397.692383,4375.897461,4372.563965,4396.025879,4384.358887,4385.256348,4385.512695,4382.05127,4382.563965,4368.717773,4474.358887,4546.025879,4422.307617,4456.282227,,,,,,,,,,,,,,,,,,,,,,,,,,,,,,,,,,,,,,,,,,,,,,,,,,,,,,,,,,,,,,,,,,,,,,
1768972925.398762,1768972925.399365,75.0,0.0,4399.871582,4378.846191,4373.333496,4397.307617,4384.615234,4386.794922,4380.128418,4375.0,4379.358887,4373.077148,4476.025879,4547.563965,4427.436035,4457.05127,,,,,,,,,,,,,,,,,,,,,,,,,,,,,,,,,,,,,,,,,,,,,,,,,,,,,,,,,,,,,,,,,,,,,,
1768972925.406571,1768972925.406974,76.0,0.0,4400.0,4375.256348,4370.641113,4396.282227,4383.589844,4394.871582,4392.05127,4383.589844,4391.153809,4377.94873,4477.05127,4553.461426,4429.358887,4460.384766,,,,,,,,,,,,,,,,,,,,,,,,,,,,,,,,,,,,,,,,,,,,,,,,,,,,,,,,,,,,,,,,,,,,,,
1768972925.414379,1768972925.414783,77.0,0.0,4395.512695,4370.512695,4366.922852,4396.025879,4381.922852,4395.512695,4399.743652,4390.769043,4396.282227,4375.769043,4476.153809,4551.538574,4422.94873,4456.666504,,,,,,,,,,,,,,,,,,,,,,,,,,,,,,,,,,,,,,,,,,,,,,,,,,,,,,,,,,,,,,,,,,,,,,
1768972925.422188,1768972925.422491,78.0,0.0,4388.717773,4369.487305,4363.333496,4396.922852,4380.512695,4380.384766,4382.94873,4381.666504,4386.282227,4368.333496,4472.563965,4541.666504,4413.461426,4446.410156,0.353451,0.43268,0.124084,0.475037,0.175812,1.212386,0.734693,0.329633,0.429757,0.136367,0.400353,0.248413,0.147848,0.157916,0.102,0.412307,0.304928,0.206339,0.206283,0.109616,0.184507,0.136892,0.128502,0.035463,0.04464,0.345716,0.855474,0.354916,0.216025,0.232491,0.30903,0.867878,0.473417,0.274375,0.258779,0.689773,0.388434,0.203553,0.133861,0.135104,0.476946,0.268165,0.25178,0.173412,0.077252,0.331903,0.205478,0.278103,0.328404,0.212441,0.396791,0.175745,0.280415,0.408772,0.13188,0.518504,0.328568,0.277213,0.46461,0.145693,0.410672,0.370785,0.364679,0.478109,0.192486,0.419081,0.44573,0.213304,0.401844,0.190242
1768972925.429996,1768972925.4303,79.0,0.0,4384.615234,4367.05127,4365.0,4396.025879,4379.615234,4377.94873,4375.897461,4377.563965,4385.128418,4370.512695,4465.769043,4535.0,4411.410156,4441.282227,,,,,,,,,,,,,,,,,,,,,,,,,,,,,,,,,,,,,,,,,,,,,,,,,,,,,,,,,,,,,,,,,,,,,,
1768972925.437805,1768972925.438308,80.0,0.0,4381.922852,4366.922852,4365.0,4389.743652,4380.256348,4385.512695,4384.102539,4381.794922,4387.820313,4371.666504,4461.025879,4531.153809,4413.846191,4443.333496,,,,,,,,,,,,,,,,,,,,,,,,,,,,,,,,,,,,,,,,,,,,,,,,,,,,,,,,,,,,,,,,,,,,,,
1768972925.445613,1768972925.446116,81.0,0.0,4377.94873,4370.641113,4361.666504,4386.666504,4382.05127,4382.05127,4382.179688,4380.0,4381.794922,4362.820313,4466.025879,4530.897461,4411.794922,4441.538574,,,,,,,,,,,,,,,,,,,,,,,,,,,,,,,,,,,,,,,,,,,,,,,,,,,,,,,,,,,,,,,,,,,,,,
1768972925.453421,1768972925.453825,82.0,0.0,4382.692383,4373.077148,4365.512695,4392.05127,4385.128418,4384.102539,4382.436035,4379.102539,4383.846191,4364.102539,4472.94873,4542.563965,4409.487305,4440.641113,,,,,,,,,,,,,,,,,,,,,,,,,,,,,,,,,,,,,,,,,,,,,,,,,,,,,,,,,,,,,,,,,,,,,,
1768972925.46123,1768972925.461633,83.0,0.0,4392.05127,4375.128418,4374.487305,4397.307617,4388.205078,4394.487305,4394.230957,4385.256348,4390.641113,4373.846191,4475.128418,4554.358887,4412.436035,4451.410156,,,,,,,,,,,,,,,,,,,,,,,,,,,,,,,,,,,,,,,,,,,,,,,,,,,,,,,,,,,,,,,,,,,,,,
1768972925.469038,1768972925.469242,84.0,0.0,4392.05127,4374.615234,4376.538574,4395.0,4387.307617,4393.589844,4395.769043,4390.384766,4390.128418,4371.794922,4475.769043,4553.846191,4413.589844,4456.922852,,,,,,,,,,,,,,,,,,,,,,,,,,,,,,,,,,,,,,,,,,,,,,,,,,,,,,,,,,,,,,,,,,,,,,
1768972925.476847,1768972925.47705,85.0,0.0,4388.589844,4372.307617,4375.256348,4393.077148,4383.589844,4393.077148,4392.179688,4393.077148,4393.333496,4368.077148,4477.179688,4551.538574,4412.820313,4454.358887,,,,,,,,,,,,,,,,,,,,,,,,,,,,,,,,,,,,,,,,,,,,,,,,,,,,,,,,,,,,,,,,,,,,,,
1768972925.484655,1768972925.484759,86.0,0.0,4388.461426,4371.666504,4375.256348,4395.512695,4381.794922,4400.641113,4397.436035,4390.769043,4395.384766,4369.487305,4475.0,4550.0,4411.794922,4450.256348,,,,,,,,,,,,,,,,,,,,,,,,,,,,,,,,,,,,,,,,,,,,,,,,,,,,,,,,,,,,,,,,,,,,,,
1768972925.492463,1768972925.492567,87.0,0.0,4387.307617,4371.794922,4372.436035,4395.384766,4380.897461,4396.153809,4394.871582,4385.256348,4386.282227,4365.256348,4471.410156,4546.153809,4410.769043,4445.897461,,,,,,,,,,,,,,,,,,,,,,,,,,,,,,,,,,,,,,,,,,,,,,,,,,,,,,,,,,,,,,,,,,,,,,
1768972925.500272,1768972925.500576,88.0,0.0,4389.102539,4371.666504,4370.256348,4394.615234,4381.666504,4387.94873,4385.128418,4385.0,4382.05127,4363.205078,4473.077148,4547.692383,4411.538574,4449.743652,,,,,,,,,,,,,,,,,,,,,,,,,,,,,,,,,,,,,,,,,,,,,,,,,,,,,,,,,,,,,,,,,,,,,,
1768972925.50808,1768972925.508384,89.0,0.0,4397.05127,4375.256348,4369.871582,4394.487305,4381.922852,4389.487305,4385.0,4387.05127,4385.256348,4369.230957,4476.153809,4551.282227,4413.589844,4454.615234,,,,,,,,,,,,,,,,,,,,,,,,,,,,,,,,,,,,,,,,,,,,,,,,,,,,,,,,,,,,,,,,,,,,,,
1768972925.515889,1768972925.516292,90.0,0.0,4399.487305,4378.974121,4368.077148,4391.282227,4379.102539,4388.205078,4389.102539,4384.615234,4382.692383,4372.179688,4475.256348,4548.717773,4415.0,4454.102539,,,,,,,,,,,,,,,,,,,,,,,,,,,,,,,,,,,,,,,,,,,,,,,,,,,,,,,,,,,,,,,,,,,,,,
1768972925.523697,1768972925.524101,91.0,0.0,4395.769043,4376.410156,4369.358887,4391.666504,4378.974121,4382.307617,4383.974121,4382.692383,4382.307617,4372.563965,4475.384766,4546.922852,4413.846191,4456.025879,,,,,,,,,,,,,,,,,,,,,,,,,,,,,,,,,,,,,,,,,,,,,,,,,,,,,,,,,,,,,,,,,,,,,,
1768972925.531506,1768972925.532109,92.0,0.0,4398.974121,4371.794922,4375.0,4396.538574,4382.179688,4381.282227,4382.820313,4387.307617,4388.717773,4371.410156,4477.820313,4548.333496,4412.563965,4458.717773,,,,,,,,,,,,,,,,,,,,,,,,,,,,,,,,,,,,,,,,,,,,,,,,,,,,,,,,,,,,,,,,,,,,,,
1768972925.539314,1768972925.539918,93.0,0.0,4398.589844,4367.820313,4375.128418,4395.256348,4382.05127,4383.974121,4390.512695,4391.153809,4390.0,4366.922852,4475.384766,4548.077148,4412.563965,4451.922852,,,,,,,,,,,,,,,,,,,,,,,,,,,,,,,,,,,,,,,,,,,,,,,,,,,,,,,,,,,,,,,,,,,,,,
1768972925.547123,1768972925.547626,94.0,0.0,4390.384766,4368.461426,4368.974121,4391.153809,4381.922852,4384.871582,4393.205078,4390.512695,4387.179688,4365.0,4474.358887,4549.102539,4412.563965,4447.563965,0.361044,0.397858,0.098276,0.398117,0.16644,1.135211,0.677178,0.360669,0.342553,0.132585,0.476568,0.215571,0.114241,0.168875,0.109611,0.421557,0.26971,0.160425,0.180269,0.111259,0.158077,0.119433,0.123451,0.046647,0.041435,0.354971,0.728172,0.380668,0.191606,0.215688,0.289379,0.803195,0.524468,0.245903,0.21698,0.628196,0.378608,0.210887,0.132171,0.121799,0.483822,0.270908,0.266395,0.15532,0.072046,0.415062,0.157612,0.227237,0.270989,0.194489,0.442531,0.151948,0.287665,0.37123,0.124571,0.554536,0.297132,0.280599,0.416494,0.151359,0.406335,0.292896,0.315254,0.451639,0.190924,0.399916,0.35856,0.259399,0.369345,0.195136
1768972925.554931,1768972925.555435,95.0,0.0,4389.487305,4372.436035,4368.205078,4394.487305,4385.256348,4386.794922,4388.077148,4388.717773,4385.128418,4366.922852,4473.846191,4546.922852,4412.436035,4449.615234,,,,,,,,,,,,,,,,,,,,,,,,,,,,,,,,,,,,,,,,,,,,,,,,,,,,,,,,,,,,,,,,,,,,,,
1768972925.562739,1768972925.563043,96.0,0.0,4395.384766,4372.94873,4374.230957,4398.846191,4384.102539,4389.102539,4386.538574,4386.922852,4381.794922,4367.307617,4465.641113,4542.436035,4412.563965,4447.692383,,,,,,,,,,,,,,,,,,,,,,,,,,,,,,,,,,,,,,,,,,,,,,,,,,,,,,,,,,,,,,,,,,,,,,
1768972925.570548,1768972925.570852,97.0,0.0,4397.307617,4374.358887,4377.820313,4399.230957,4382.05127,4390.641113,4391.666504,4385.512695,4380.897461,4366.282227,4465.256348,4546.538574,4413.077148,4446.666504,,,,,,,,,,,,,,,,,,,,,,,,,,,,,,,,,,,,,,,,,,,,,,,,,,,,,,,,,,,,,,,,,,,,,,
1768972925.578356,1768972925.57856,98.0,0.0,4397.307617,4377.563965,4373.461426,4398.205078,4383.717773,4387.436035,4394.102539,4388.205078,4383.077148,4367.563965,4476.153809,4551.153809,4411.410156,4446.153809,,,,,,,,,,,,,,,,,,,,,,,,,,,,,,,,,,,,,,,,,,,,,,,,,,,,,,,,,,,,,,,,,,,,,,
1768972925.586165,1768972925.586369,99.0,0.0,4393.333496,4375.641113,4368.461426,4397.692383,4382.05127,4381.538574,4388.974121,4390.256348,4381.410156,4366.410156,4474.358887,4541.922852,4411.922852,4444.102539,,,,,,,,,,,,,,,,,,,,,,,,,,,,,,,,,,,,,,,,,,,,,,,,,,,,,,,,,,,,,,,,,,,,,,
1768972925.593973,1768972925.593977,100.0,0.0,4389.102539,4371.410156,4367.307617,4396.666504,4380.128418,4382.179688,4384.615234,4383.333496,4377.436035,4361.538574,4462.94873,4532.05127,4413.461426,4444.743652,,,,,,,,,,,,,,,,,,,,,,,,,,,,,,,,,,,,,,,,,,,,,,,,,,,,,,,,,,,,,,,,,,,,,,
1768972925.601782,1768972925.601786,101.0,0.0,4390.769043,4365.512695,4366.666504,4392.563965,4381.153809,4389.230957,4392.307617,4385.256348,4381.025879,4359.358887,4462.820313,4534.871582,4408.717773,4444.743652,,,,,,,,,,,,,,,,,,,,,,,,,,,,,,,,,,,,,,,,,,,,,,,,,,,,,,,,,,,,,,,,,,,,,,
1768972925.60959,1768972925.609494,102.0,0.0,4390.769043,4358.589844,4367.307617,4390.0,4379.871582,4388.333496,4396.025879,4390.384766,4386.794922,4360.897461,4463.974121,4533.461426,4404.358887,4440.897461,,,,,,,,,,,,,,,,,,,,,,,,,,,,,,,,,,,,,,,,,,,,,,,,,,,,,,,,,,,,,,,,,,,,,,
1768972925.617399,1768972925.617303,103.0,0.0,4390.256348,4365.0,4370.897461,4392.307617,4376.794922,4379.102539,4383.717773,4381.025879,4381.282227,4367.05127,4465.384766,4528.717773,4413.077148,4446.410156,,,,,,,,,,,,,,,,,,,,,,,,,,,,,,,,,,,,,,,,,,,,,,,,,,,,,,,,,,,,,,,,,,,,,,
1768972925.625207,1768972925.625311,104.0,0.0,4403.077148,4380.512695,4379.230957,4400.512695,4383.717773,4380.256348,4386.794922,4379.615234,4379.358887,4377.94873,4481.410156,4536.410156,4429.487305,4467.436035,,,,,,,,,,,,,,,,,,,,,,,,,,,,,,,,,,,,,,,,,,,,,,,,,,,,,,,,,,,,,,,,,,,,,,
1768972925.633016,1768972925.633119,105.0,0.0,4415.128418,4384.102539,4384.871582,4408.589844,4391.025879,4391.282227,4403.205078,4392.179688,4387.563965,4382.563965,4490.384766,4542.307617,4434.487305,4476.538574,,,,,,,,,,,,,,,,,,,,,,,,,,,,,,,,,,,,,,,,,,,,,,,,,,,,,,,,,,,,,,,,,,,,,,
1768972925.640824,1768972925.641028,106.0,0.0,4409.871582,4380.512695,4381.025879,4408.077148,4386.153809,4387.563965,4395.769043,4391.922852,4386.025879,4371.794922,4477.820313,4535.769043,4424.487305,4462.563965,,,,,,,,,,,,,,,,,,,,,,,,,,,,,,,,,,,,,,,,,,,,,,,,,,,,,,,,,,,,,,,,,,,,,,
1768972925.648632,1768972925.648836,107.0,0.0,4402.563965,4380.0,4379.487305,4403.077148,4383.077148,4377.179688,4380.256348,4382.436035,4377.94873,4363.077148,4470.128418,4533.205078,4419.871582,4456.410156,,,,,,,,,,,,,,,,,,,,,,,,,,,,,,,,,,,,,,,,,,,,,,,,,,,,,,,,,,,,,,,,,,,,,,
1768972925.656441,1768972925.656844,108.0,0.0,4408.461426,4381.922852,4384.358887,4404.102539,4386.410156,4386.410156,4390.128418,4385.897461,4380.128418,4367.563965,4478.461426,4540.512695,4427.563965,4464.102539,,,,,,,,,,,,,,,,,,,,,,,,,,,,,,,,,,,,,,,,,,,,,,,,,,,,,,,,,,,,,,,,,,,,,,
1768972925.664249,1768972925.664653,109.0,0.0,4412.820313,4386.922852,4383.461426,4405.897461,4386.025879,4396.153809,4400.0,4392.820313,4382.692383,4372.563965,4479.743652,4543.846191,4430.641113,4462.94873,,,,,,,,,,,,,,,,,,,,,,,,,,,,,,,,,,,,,,,,,,,,,,,,,,,,,,,,,,,,,,,,,,,,,,
1768972925.672058,1768972925.672361,110.0,0.0,4407.820313,4387.179688,4378.589844,4403.717773,4383.589844,4389.358887,4389.358887,4390.769043,4378.717773,4372.563965,4475.256348,4542.179688,4425.641113,4458.333496,0.356216,0.367748,0.081977,0.314309,0.155033,0.957753,0.575714,0.397031,0.257127,0.132921,0.518492,0.188489,0.092412,0.178618,0.11682,0.408609,0.248475,0.136331,0.152617,0.112238,0.125895,0.108352,0.117576,0.059275,0.039384,0.374392,0.615072,0.405331,0.182543,0.207734,0.268209,0.721229,0.544639,0.219892,0.196159,0.522232,0.366854,0.230236,0.130692,0.110101,0.46365,0.266653,0.27242,0.138267,0.067123,0.510899,0.120364,0.17378,0.216073,0.169803,0.537285,0.138689,0.285006,0.328308,0.118707,0.62036,0.268974,0.264557,0.364563,0.154124,0.416283,0.228787,0.252514,0.420402,0.184993,0.444505,0.29368,0.301705,0.338938,0.19119
1768972925.679866,1768972925.68017,111.0,0.0,4407.692383,4384.487305,4380.641113,4404.615234,4385.0,4383.205078,4384.230957,4388.974121,4382.436035,4375.0,4478.205078,4543.077148,4428.077148,4459.487305,,,,,,,,,,,,,,,,,,,,,,,,,,,,,,,,,,,,,,,,,,,,,,,,,,,,,,,,,,,,,,,,,,,,,,
1768972925.687675,1768972925.688178,112.0,0.0,4413.974121,4387.563965,4383.333496,4406.025879,4382.563965,4386.282227,4390.0,4391.922852,4389.358887,4379.743652,4480.512695,4542.436035,4432.436035,4460.769043,,,,,,,,,,,,,,,,,,,,,,,,,,,,,,,,,,,,,,,,,,,,,,,,,,,,,,,,,,,,,,,,,,,,,,
1768972925.695483,1768972925.695987,113.0,0.0,4413.846191,4392.05127,4378.333496,4405.256348,4379.871582,4389.230957,4391.538574,4392.563965,4385.256348,4376.794922,4477.436035,4541.538574,4427.94873,4460.641113,,,,,,,,,,,,,,,,,,,,,,,,,,,,,,,,,,,,,,,,,,,,,,,,,,,,,,,,,,,,,,,,,,,,,,
1768972925.703292,1768972925.703895,114.0,0.0,4408.589844,4394.230957,4376.538574,4405.512695,4383.717773,4387.563965,4387.692383,4387.05127,4376.410156,4368.846191,4475.384766,4545.128418,4427.05127,4460.897461,,,,,,,,,,,,,,,,,,,,,,,,,,,,,,,,,,,,,,,,,,,,,,,,,,,,,,,,,,,,,,,,,,,,,,
1768972925.7111,1768972925.711703,115.0,0.0,4404.487305,4394.487305,4377.179688,4405.0,4379.487305,4384.615234,4383.974121,4383.589844,4372.179688,4365.897461,4474.743652,4542.820313,4425.384766,4458.846191,,,,,,,,,,,,,,,,,,,,,,,,,,,,,,,,,,,,,,,,,,,,,,,,,,,,,,,,,,,,,,,,,,,,,,
1768972925.718908,1768972925.719712,116.0,0.0,4401.025879,4390.641113,4375.769043,4401.153809,4372.692383,4384.230957,4386.666504,4385.769043,4372.94873,4364.358887,4472.307617,4536.282227,4414.230957,4455.384766,,,,,,,,,,,,,,,,,,,,,,,,,,,,,,,,,,,,,,,,,,,,,,,,,,,,,,,,,,,,,,,,,,,,,,
1768972925.726717,1768972925.72752,117.0,0.0,4404.102539,4387.820313,4378.205078,4402.436035,4377.820313,4390.0,4395.128418,4389.102539,4375.384766,4363.846191,4472.307617,4542.179688,4414.230957,4455.256348,,,,,,,,,,,,,,,,,,,,,,,,,,,,,,,,,,,,,,,,,,,,,,,,,,,,,,,,,,,,,,,,,,,,,,
1768972925.734525,1768972925.735229,118.0,0.0,4410.512695,4391.538574,4380.512695,4405.512695,4380.128418,4390.0,4397.563965,4388.461426,4378.461426,4367.94873,4475.512695,4550.769043,4427.179688,4459.871582,,,,,,,,,,,,,,,,,,,,,,,,,,,,,,,,,,,,,,,,,,,,,,,,,,,,,,,,,,,,,,,,,,,,,,
1768972925.742334,1768972925.743037,119.0,0.0,4413.077148,4395.512695,4379.230957,4402.94873,4374.487305,4379.230957,4389.102539,4386.922852,4380.256348,4368.333496,4476.282227,4543.974121,4431.666504,4467.820313,,,,,,,,,,,,,,,,,,,,,,,,,,,,,,,,,,,,,,,,,,,,,,,,,,,,,,,,,,,,,,,,,,,,,,
1768972925.750142,1768972925.750646,120.0,0.0,4413.205078,4399.358887,4380.769043,4405.512695,4376.410156,4373.717773,4382.05127,4388.077148,4381.666504,4363.846191,4476.410156,4535.512695,4427.436035,4468.589844,,,,,,,,,,,,,,,,,,,,,,,,,,,,,,,,,,,,,,,,,,,,,,,,,,,,,,,,,,,,,,,,,,,,,,
1768972925.757951,1768972925.758454,121.0,0.0,4413.077148,4406.153809,4382.179688,4411.666504,4381.666504,4375.769043,4382.05127,4389.230957,4383.461426,4364.487305,4477.436035,4539.615234,4427.94873,4464.743652,,,,,,,,,,,,,,,,,,,,,,,,,,,,,,,,,,,,,,,,,,,,,,,,,,,,,,,,,,,,,,,,,,,,,,
1768972925.765759,1768972925.766163,122.0,0.0,4413.589844,4405.0,4379.358887,4408.974121,4380.512695,4379.102539,4382.307617,4390.256348,4381.538574,4369.871582,4478.717773,4546.410156,4430.256348,4465.769043,,,,,,,,,,,,,,,,,,,,,,,,,,,,,,,,,,,,,,,,,,,,,,,,,,,,,,,,,,,,,,,,,,,,,,
1768972925.773568,1768972925.773971,123.0,0.0,4410.128418,4397.05127,4379.358887,4402.820313,4378.077148,4383.974121,4387.307617,4392.563965,4381.282227,4370.384766,4477.563965,4543.461426,4427.436035,4466.025879,,,,,,,,,,,,,,,,,,,,,,,,,,,,,,,,,,,,,,,,,,,,,,,,,,,,,,,,,,,,,,,,,,,,,,
1768972925.781376,1768972925.78158,124.0,0.0,4404.230957,4393.846191,4382.436035,4403.205078,4375.897461,4383.717773,4388.333496,4390.384766,4380.641113,4362.307617,4474.487305,4532.692383,4421.410156,4460.641113,,,,,,,,,,,,,,,,,,,,,,,,,,,,,,,,,,,,,,,,,,,,,,,,,,,,,,,,,,,,,,,,,,,,,,
1768972925.789184,1768972925.789388,125.0,0.0,4404.871582,4397.307617,4381.538574,4403.205078,4373.846191,4376.153809,4377.436035,4384.102539,4375.256348,4358.461426,4473.974121,4530.256348,4415.897461,4458.717773,,,,,,,,,,,,,,,,,,,,,,,,,,,,,,,,,,,,,,,,,,,,,,,,,,,,,,,,,,,,,,,,,,,,,,
1768972925.796993,1768972925.797097,126.0,0.0,4406.282227,4395.769043,4377.692383,4400.0,4375.256348,4379.102539,4374.615234,4385.384766,4372.307617,4362.05127,4475.512695,4534.358887,4414.615234,4462.179688,0.344002,0.341742,0.075967,0.245711,0.144298,0.750695,0.457574,0.419,0.194269,0.135097,0.52719,0.174617,0.083367,0.18338,0.122791,0.378978,0.237917,0.13569,0.128619,0.11161,0.098567,0.102738,0.112375,0.070692,0.038567,0.397284,0.525668,0.432891,0.187076,0.2075,0.256635,0.621245,0.542194,0.198215,0.197696,0.397294,0.346185,0.258799,0.130615,0.103357,0.411476,0.250294,0.274959,0.130128,0.065736,0.57495,0.096189,0.128408,0.17792,0.14282,0.642687,0.134668,0.268863,0.288263,0.113652,0.696717,0.248069,0.237346,0.318045,0.152942,0.428202,0.185316,0.190827,0.387279,0.174218,0.566194,0.24991,0.328697,0.314231,0.181776
1768972925.804801,1768972925.804905,127.0,0.0,4400.384766,4391.282227,4377.307617,4398.717773,4375.769043,4391.538574,4386.794922,4391.922852,4371.153809,4360.384766,4473.846191,4530.512695,4413.717773,4458.461426,,,,,,,,,,,,,,,,,,,,,,,,,,,,,,,,,,,,,,,,,,,,,,,,,,,,,,,,,,,,,,,,,,,,,,
1768972925.81261,1768972925.812913,0.0,0.0,4399.487305,4393.717773,4378.077148,4396.538574,4372.94873,4388.077148,4386.538574,4389.102539,4367.05127,4353.461426,4472.563965,4527.692383,4410.769043,4451.153809,,,,,,,,,,,,,,,,,,,,,,,,,,,,,,,,,,,,,,,,,,,,,,,,,,,,,,,,,,,,,,,,,,,,,,
1768972925.820418,1768972925.820722,1.0,0.0,4404.358887,4396.794922,4375.384766,4395.512695,4370.128418,4378.846191,4375.512695,4382.94873,4364.102539,4353.333496,4475.256348,4532.820313,4410.769043,4452.436035,,,,,,,,,,,,,,,,,,,,,,,,,,,,,,,,,,,,,,,,,,,,,,,,,,,,,,,,,,,,,,,,,,,,,,
1768972925.828227,1768972925.82863,2.0,0.0,4404.871582,4397.563965,4375.897461,4401.538574,4372.436035,4383.205078,4381.794922,4389.871582,4369.102539,4355.384766,4474.743652,4535.769043,4411.025879,4455.128418,,,,,,,,,,,,,,,,,,,,,,,,,,,,,,,,,,,,,,,,,,,,,,,,,,,,,,,,,,,,,,,,,,,,,,
1768972925.836035,1768972925.836439,3.0,0.0,4408.205078,4402.563965,4386.794922,4410.897461,4376.538574,4390.0,4392.94873,4398.205078,4374.487305,4355.0,4476.794922,4541.794922,4411.410156,4458.974121,,,,,,,,,,,,,,,,,,,,,,,,,,,,,,,,,,,,,,,,,,,,,,,,,,,,,,,,,,,,,,,,,,,,,,
1768972925.843844,1768972925.844447,4.0,0.0,4414.102539,4406.410156,4392.94873,4413.974121,4374.871582,4382.692383,4385.641113,4395.384766,4373.077148,4360.384766,4486.666504,4553.589844,4417.820313,4468.846191,,,,,,,,,,,,,,,,,,,,,,,,,,,,,,,,,,,,,,,,,,,,,,,,,,,,,,,,,,,,,,,,,,,,,,
1768972925.851652,1768972925.852255,5.0,0.0,4411.666504,4405.512695,4385.0,4412.05127,4374.743652,4377.05127,4378.333496,4392.820313,4374.230957,4362.05127,4491.025879,4551.922852,4420.384766,4474.871582,,,,,,,,,,,,,,,,,,,,,,,,,,,,,,,,,,,,,,,,,,,,,,,,,,,,,,,,,,,,,,,,,,,,,,
1768972925.85946,1768972925.860164,6.0,0.0,4409.871582,4408.077148,4383.589844,4412.307617,4381.025879,4390.641113,4391.794922,4398.333496,4379.487305,4359.487305,4488.717773,4543.205078,4414.871582,4473.846191,,,,,,,,,,,,,,,,,,,,,,,,,,,,,,,,,,,,,,,,,,,,,,,,,,,,,,,,,,,,,,,,,,,,,,
1768972925.867269,1768972925.867972,7.0,0.0,4414.230957,4412.307617,4388.205078,4411.922852,4386.153809,4401.666504,4403.589844,4400.256348,4379.102539,4361.025879,4489.102539,4545.641113,4418.077148,4469.487305,,,,,,,,,,,,,,,,,,,,,,,,,,,,,,,,,,,,,,,,,,,,,,,,,,,,,,,,,,,,,,,,,,,,,,
1768972925.875077,1768972925.875581,8.0,0.0,4414.358887,4410.0,4384.230957,4411.410156,4386.922852,4393.717773,4395.256348,4393.205078,4375.769043,4365.769043,4490.641113,4547.94873,4428.077148,4465.0,,,,,,,,,,,,,,,,,,,,,,,,,,,,,,,,,,,,,,,,,,,,,,,,,,,,,,,,,,,,,,,,,,,,,,
1768972925.882886,1768972925.883389,9.0,0.0,4411.794922,4408.077148,4379.487305,4412.179688,4385.384766,4388.077148,4386.538574,4387.692383,4378.461426,4367.05127,4489.615234,4545.128418,4427.692383,4469.230957,,,,,,,,,,,,,,,,,,,,,,,,,,,,,,,,,,,,,,,,,,,,,,,,,,,,,,,,,,,,,,,,,,,,,,
1768972925.890694,1768972925.891298,10.0,0.0,4411.025879,4405.512695,4381.794922,4412.05127,4386.282227,4392.05127,4391.025879,4389.743652,4380.512695,4364.743652,4489.487305,4546.153809,4424.615234,4475.769043,,,,,,,,,,,,,,,,,,,,,,,,,,,,,,,,,,,,,,,,,,,,,,,,,,,,,,,,,,,,,,,,,,,,,,
1768972925.898503,1768972925.899106,11.0,0.0,4413.717773,4399.487305,4387.436035,4411.282227,4388.077148,4391.410156,4393.974121,4392.179688,4379.871582,4365.897461,4492.436035,4547.307617,4427.563965,4469.615234,,,,,,,,,,,,,,,,,,,,,,,,,,,,,,,,,,,,,,,,,,,,,,,,,,,,,,,,,,,,,,,,,,,,,,
1768972925.906311,1768972925.907114,12.0,0.0,4413.077148,4397.94873,4387.05127,4410.512695,4386.282227,4391.538574,4390.769043,4391.922852,4379.743652,4367.692383,4488.333496,4546.410156,4426.282227,4461.153809,,,,,,,,,,,,,,,,,,,,,,,,,,,,,,,,,,,,,,,,,,,,,,,,,,,,,,,,,,,,,,,,,,,,,,
1768972925.91412,1768972925.914923,13.0,0.0,4407.94873,4398.717773,4381.282227,4408.333496,4383.974121,4395.769043,4390.641113,4392.436035,4379.230957,4363.974121,4480.641113,4543.205078,4423.589844,4461.538574,,,,,,,,,,,,,,,,,,,,,,,,,,,,,,,,,,,,,,,,,,,,,,,,,,,,,,,,,,,,,,,,,,,,,,
1768972925.921928,1768972925.922631,14.0,0.0,4408.205078,4397.307617,4379.487305,4406.025879,4383.974121,4390.128418,4387.436035,4392.692383,4380.256348,4358.974121,4484.230957,4543.205078,4425.641113,4461.025879,0.332048,0.32258,0.07557,0.207229,0.135485,0.557126,0.347519,0.407231,0.163504,0.135338,0.492402,0.179404,0.085565,0.181659,0.126288,0.323581,0.229718,0.150798,0.111657,0.10831,0.087596,0.101722,0.107485,0.07854,0.038718,0.422529,0.46137,0.47089,0.197798,0.212551,0.254103,0.510142,0.534768,0.181984,0.217058,0.291209,0.310506,0.29007,0.132716,0.103936,0.348996,0.22106,0.280559,0.133588,0.070427,0.606187,0.08484,0.097833,0.164978,0.118019,0.749998,0.135811,0.238933,0.259065,0.108457,0.790417,0.240271,0.211655,0.284935,0.148343,0.449919,0.163293,0.140244,0.352784,0.159218,0.767367,0.23292,0.335153,0.300216,0.172227
1768972925.929737,1768972925.93044,15.0,0.0,4408.717773,4398.846191,4380.897461,4404.358887,4381.794922,4385.0,4382.94873,4390.641113,4381.025879,4359.871582,4488.846191,4543.205078,4426.666504,4459.743652,,,,,,,,,,,,,,,,,,,,,,,,,,,,,,,,,,,,,,,,,,,,,,,,,,,,,,,,,,,,,,,,,,,,,,
1768972925.937545,1768972925.938048,16.0,0.0,4406.410156,4404.358887,4377.692383,4403.846191,4380.897461,4388.205078,4387.436035,4391.282227,4380.128418,4361.922852,4482.563965,4538.974121,4426.153809,4459.615234,,,,,,,,,,,,,,,,,,,,,,,,,,,,,,,,,,,,,,,,,,,,,,,,,,,,,,,,,,,,,,,,,,,,,,
1768972925.945353,1768972925.945857,17.0,0.0,4410.128418,4409.230957,4377.820313,4404.358887,4382.05127,4388.461426,4393.205078,4392.436035,4381.153809,4361.025879,4477.179688,4535.512695,4426.410156,4459.615234,,,,,,,,,,,,,,,,,,,,,,,,,,,,,,,,,,,,,,,,,,,,,,,,,,,,,,,,,,,,,,,,,,,,,,
1768972925.953162,1768972925.953565,18.0,0.0,4413.205078,4412.436035,4382.179688,4405.897461,4380.128418,4387.179688,4389.871582,4390.384766,4380.641113,4362.179688,4479.358887,4535.769043,4423.333496,4460.256348,,,,,,,,,,,,,,,,,,,,,,,,,,,,,,,,,,,,,,,,,,,,,,,,,,,,,,,,,,,,,,,,,,,,,,
1768972925.96097,1768972925.961374,19.0,0.0,4405.897461,4412.563965,4381.922852,4407.05127,4381.666504,4391.922852,4387.179688,4391.538574,4381.153809,4365.769043,4485.897461,4537.692383,4422.820313,4460.128418,,,,,,,,,,,,,,,,,,,,,,,,,,,,,,,,,,,,,,,,,,,,,,,,,,,,,,,,,,,,,,,,,,,,,,
1768972925.968779,1768972925.968983,20.0,0.0,4401.025879,4408.589844,4379.230957,4405.384766,4386.538574,4392.05127,4391.410156,4395.256348,4385.384766,4370.897461,4489.615234,4536.794922,4427.692383,4459.743652,,,,,,,,,,,,,,,,,,,,,,,,,,,,,,,,,,,,,,,,,,,,,,,,,,,,,,,,,,,,,,,,,,,,,,
1768972925.976587,1768972925.976791,21.0,0.0,4404.230957,4404.743652,4378.461426,4401.538574,4384.743652,4387.94873,4390.256348,4392.692383,4384.615234,4373.589844,4482.307617,4536.538574,4425.641113,4459.230957,,,,,,,,,,,,,,,,,,,,,,,,,,,,,,,,,,,,,,,,,,,,,,,,,,,,,,,,,,,,,,,,,,,,,,
1768972925.984396,1768972925.9845,22.0,0.0,4405.0,4404.743652,4382.179688,4399.230957,4380.512695,4384.102539,4382.05127,4387.436035,4380.769043,4369.615234,4474.102539,4539.615234,4416.794922,4455.0,,,,,,,,,,,,,,,,,,,,,,,,,,,,,,,,,,,,,,,,,,,,,,,,,,,,,,,,,,,,,,,,,,,,,,
1768972925.992204,1768972925.992308,23.0,0.0,4402.94873,4403.974121,4381.666504,4398.717773,4381.794922,4382.179688,4381.153809,4388.461426,4380.128418,4361.794922,4476.538574,4537.307617,4413.461426,4447.563965,,,,,,,,,,,,,,,,,,,,,,,,,,,,,,,,,,,,,,,,,,,,,,,,,,,,,,,,,,,,,,,,,,,,,,
1768972926.000013,1768972925.999917,24.0,0.0,4396.666504,4398.461426,4371.922852,4396.282227,4381.025879,4383.974121,4385.0,4390.0,4376.794922,4358.077148,4475.0,4526.025879,4411.410156,4442.436035,,,,,,,,,,,,,,,,,,,,,,,,,,,,,,,,,,,,,,,,,,,,,,,,,,,,,,,,,,,,,,,,,,,,,,
1768972926.007821,1768972926.007725,25.0,0.0,4394.358887,4395.769043,4366.666504,4395.384766,4376.410156,4384.358887,4380.0,4385.384766,4373.461426,4357.05127,4470.128418,4518.717773,4408.333496,4441.922852,,,,,,,,,,,,,,,,,,,,,,,,,,,,,,,,,,,,,,,,,,,,,,,,,,,,,,,,,,,,,,,,,,,,,,
1768972926.015629,1768972926.015434,26.0,0.0,4399.871582,4397.436035,4372.436035,4397.563965,4377.563965,4381.666504,4373.974121,4382.307617,4373.589844,4358.077148,4473.333496,4524.358887,4412.05127,4443.974121,,,,,,,,,,,,,,,,,,,,,,,,,,,,,,,,,,,,,,,,,,,,,,,,,,,,,,,,,,,,,,,,,,,,,,
1768972926.023438,1768972926.023242,27.0,0.0,4396.025879,4392.05127,4373.077148,4395.641113,4381.025879,4383.333496,4379.102539,4385.384766,4373.077148,4358.461426,4474.871582,4527.436035,4412.307617,4444.487305,,,,,,,,,,,,,,,,,,,,,,,,,,,,,,,,,,,,,,,,,,,,,,,,,,,,,,,,,,,,,,,,,,,,,,
1768972926.031246,1768972926.03125,28.0,0.0,4389.615234,4387.05127,4369.871582,4394.487305,4381.666504,4386.538574,4385.256348,4390.0,4376.922852,4358.077148,4472.05127,4525.769043,4407.05127,4443.589844,,,,,,,,,,,,,,,,,,,,,,,,,,,,,,,,,,,,,,,,,,,,,,,,,,,,,,,,,,,,,,,,,,,,,,
1768972926.039055,1768972926.039059,29.0,0.0,4394.615234,4390.256348,4374.615234,4398.717773,4383.717773,4386.666504,4385.641113,4392.307617,4382.436035,4357.820313,4470.769043,4527.307617,4402.94873,4443.077148,,,,,,,,,,,,,,,,,,,,,,,,,,,,,,,,,,,,,,,,,,,,,,,,,,,,,,,,,,,,,,,,,,,,,,
1768972926.046863,1768972926.046967,30.0,0.0,4394.358887,4389.615234,4375.897461,4399.102539,4382.692383,4388.461426,4389.615234,4391.666504,4375.897461,4355.0,4472.563965,4532.05127,4400.128418,4443.205078,0.349582,0.31764,0.074566,0.201291,0.128182,0.437916,0.262926,0.359545,0.162574,0.130443,0.441078,0.205439,0.097309,0.174246,0.126004,0.260714,0.22249,0.173828,0.10255,0.101735,0.088474,0.106726,0.101914,0.081624,0.039752,0.445135,0.417022,0.519069,0.206859,0.220993,0.260774,0.39892,0.535597,0.172464,0.247449,0.214039,0.261545,0.315989,0.136619,0.112395,0.285336,0.187046,0.293187,0.145537,0.081117,0.590904,0.08661,0.085723,0.176494,0.098936,0.807318,0.143629,0.200928,0.243866,0.103016,0.860659,0.255504,0.199626,0.26698,0.142814,0.469168,0.166919,0.108852,0.316688,0.142558,0.990768,0.25596,0.327465,0.298435,0.166452
1768972926.054672,1768972926.054776,31.0,0.0,4389.358887,4385.128418,4372.692383,4395.769043,4379.487305,4388.333496,4391.153809,4389.487305,4369.743652,4355.0,4474.487305,4532.307617,4401.282227,4445.128418,,,,,,,,,,,,,,,,,,,,,,,,,,,,,,,,,,,,,,,,,,,,,,,,,,,,,,,,,,,,,,,,,,,,,,
1768972926.06248,1768972926.062784,32.0,0.0,4392.563965,4386.666504,4374.102539,4398.461426,4380.512695,4379.230957,4381.922852,4391.153809,4377.179688,4358.461426,4474.230957,4530.0,4406.666504,4447.692383,,,,,,,,,,,,,,,,,,,,,,,,,,,,,,,,,,,,,,,,,,,,,,,,,,,,,,,,,,,,,,,,,,,,,,
1768972926.070289,1768972926.070592,33.0,0.0,4394.230957,4388.846191,4375.384766,4400.769043,4382.94873,4377.436035,4380.641113,4395.256348,4382.307617,4359.102539,4473.974121,4529.102539,4405.512695,4448.077148,,,,,,,,,,,,,,,,,,,,,,,,,,,,,,,,,,,,,,,,,,,,,,,,,,,,,,,,,,,,,,,,,,,,,,
1768972926.078097,1768972926.078301,34.0,0.0,4390.0,4388.589844,4373.846191,4396.538574,4381.538574,4383.205078,4386.666504,4393.974121,4378.589844,4356.282227,4474.230957,4529.743652,4399.487305,4444.358887,,,,,,,,,,,,,,,,,,,,,,,,,,,,,,,,,,,,,,,,,,,,,,,,,,,,,,,,,,,,,,,,,,,,,,
1768972926.085905,1768972926.086109,35.0,0.0,4390.512695,4388.333496,4378.333496,4395.769043,4381.410156,4382.692383,4384.487305,4391.666504,4377.692383,4357.436035,4474.358887,4534.358887,4406.025879,4443.461426,,,,,,,,,,,,,,,,,,,,,,,,,,,,,,,,,,,,,,,,,,,,,,,,,,,,,,,,,,,,,,,,,,,,,,
1768972926.093714,1768972926.094117,36.0,0.0,4390.897461,4388.589844,4382.820313,4397.94873,4384.871582,4380.897461,4380.384766,4392.05127,4379.871582,4361.538574,4474.615234,4535.897461,4413.205078,4447.179688,,,,,,,,,,,,,,,,,,,,,,,,,,,,,,,,,,,,,,,,,,,,,,,,,,,,,,,,,,,,,,,,,,,,,,
1768972926.101522,1768972926.101926,37.0,0.0,4386.666504,4387.820313,4376.282227,4393.846191,4384.358887,4383.974121,4382.05127,4392.307617,4380.512695,4360.256348,4474.358887,4528.717773,4406.922852,4444.230957,,,,,,,,,,,,,,,,,,,,,,,,,,,,,,,,,,,,,,,,,,,,,,,,,,,,,,,,,,,,,,,,,,,,,,
1768972926.109331,1768972926.109834,38.0,0.0,4384.615234,4388.333496,4370.256348,4390.512695,4381.282227,4382.692383,4382.307617,4392.307617,4381.282227,4359.102539,4473.461426,4525.0,4402.179688,4437.94873,,,,,,,,,,,,,,,,,,,,,,,,,,,,,,,,,,,,,,,,,,,,,,,,,,,,,,,,,,,,,,,,,,,,,,
1768972926.117139,1768972926.117643,39.0,0.0,4388.205078,4387.563965,4373.589844,4393.461426,4379.615234,4379.102539,4383.717773,4393.589844,4383.205078,4362.307617,4475.256348,4536.153809,4410.128418,4443.846191,,,,,,,,,,,,,,,,,,,,,,,,,,,,,,,,,,,,,,,,,,,,,,,,,,,,,,,,,,,,,,,,,,,,,,
1768972926.124948,1768972926.125251,40.0,0.0,4389.487305,4382.820313,4375.769043,4393.333496,4379.358887,4385.897461,4390.128418,4396.153809,4386.666504,4363.205078,4478.205078,4546.025879,4417.563965,4445.897461,,,,,,,,,,,,,,,,,,,,,,,,,,,,,,,,,,,,,,,,,,,,,,,,,,,,,,,,,,,,,,,,,,,,,,
1768972926.132756,1768972926.13306,41.0,0.0,4380.897461,4378.974121,4368.205078,4387.307617,4378.205078,4396.025879,4395.0,4396.922852,4389.230957,4358.333496,4474.615234,4535.641113,4408.461426,4432.563965,,,,,,,,,,,,,,,,,,,,,,,,,,,,,,,,,,,,,,,,,,,,,,,,,,,,,,,,,,,,,,,,,,,,,,
1768972926.140565,1768972926.140768,42.0,0.0,4374.871582,4378.205078,4361.538574,4384.230957,4376.282227,4388.589844,4387.94873,4393.717773,4385.0,4355.897461,4469.871582,4524.871582,4396.922852,4424.743652,,,,,,,,,,,,,,,,,,,,,,,,,,,,,,,,,,,,,,,,,,,,,,,,,,,,,,,,,,,,,,,,,,,,,,
1768972926.148373,1768972926.148577,43.0,0.0,4379.358887,4379.487305,4363.333496,4388.461426,4376.025879,4365.256348,4366.794922,4388.205078,4379.871582,4358.846191,4471.538574,4525.897461,4398.846191,4429.615234,,,,,,,,,,,,,,,,,,,,,,,,,,,,,,,,,,,,,,,,,,,,,,,,,,,,,,,,,,,,,,,,,,,,,,
1768972926.156181,1768972926.156585,44.0,0.0,4382.179688,4385.512695,4362.436035,4388.974121,4378.461426,4360.641113,4358.589844,4387.94873,4383.717773,4361.153809,4473.846191,4527.179688,4405.256348,4435.0,,,,,,,,,,,,,,,,,,,,,,,,,,,,,,,,,,,,,,,,,,,,,,,,,,,,,,,,,,,,,,,,,,,,,,
1768972926.16399,1768972926.164393,45.0,0.0,4380.0,4392.179688,4360.512695,4383.205078,4382.436035,4379.230957,4376.153809,4396.922852,4391.282227,4360.512695,4472.692383,4526.025879,4406.282227,4434.487305,,,,,,,,,,,,,,,,,,,,,,,,,,,,,,,,,,,,,,,,,,,,,,,,,,,,,,,,,,,,,,,,,,,,,,
1768972926.171798,1768972926.172102,46.0,0.0,4379.487305,4390.641113,4363.589844,4386.153809,4383.333496,4387.563965,4386.666504,4400.897461,4390.0,4357.94873,4473.589844,4528.589844,4406.282227,4429.743652,0.398642,0.333424,0.070822,0.217032,0.121205,0.378532,0.222851,0.296075,0.180594,0.11947,0.385089,0.250312,0.115725,0.16302,0.121437,0.209607,0.222111,0.19772,0.099629,0.092184,0.099907,0.1204,0.09454,0.079791,0.041754,0.459156,0.380557,0.562965,0.208623,0.231538,0.273811,0.30118,0.543243,0.168496,0.282402,0.17256,0.21156,0.328235,0.139512,0.126408,0.245195,0.163616,0.311775,0.158887,0.094522,0.560036,0.104893,0.091431,0.203009,0.087213,0.831217,0.162593,0.16467,0.240647,0.098312,0.940998,0.299607,0.2085,0.258298,0.139064,0.520287,0.202444,0.099991,0.27893,0.128139,1.202976,0.332276,0.315349,0.305652,0.16489
1768972926.179607,1768972926.17991,47.0,0.0,4381.282227,4387.563965,4365.641113,4394.230957,4379.871582,4379.615234,4378.846191,4392.436035,4381.410156,4358.205078,4473.974121,4529.615234,4404.487305,4427.307617,,,,,,,,,,,,,,,,,,,,,,,,,,,,,,,,,,,,,,,,,,,,,,,,,,,,,,,,,,,,,,,,,,,,,,
1768972926.187415,1768972926.187519,48.0,0.0,4383.333496,4391.282227,4364.615234,4392.179688,4378.461426,4377.307617,4378.589844,4389.358887,4379.487305,4358.205078,4472.179688,4526.410156,4398.589844,4429.487305,,,,,,,,,,,,,,,,,,,,,,,,,,,,,,,,,,,,,,,,,,,,,,,,,,,,,,,,,,,,,,,,,,,,,,
1768972926.195224,1768972926.195328,49.0,0.0,4384.615234,4390.769043,4366.025879,4386.794922,4382.436035,4385.769043,4390.384766,4399.487305,4385.256348,4357.820313,4473.974121,4525.128418,4401.538574,4428.077148,,,,,,,,,,,,,,,,,,,,,,,,,,,,,,,,,,,,,,,,,,,,,,,,,,,,,,,,,,,,,,,,,,,,,,
1768972926.203032,1768972926.203036,50.0,0.0,4384.871582,4382.692383,4368.846191,4388.589844,4381.922852,4386.922852,4388.974121,4403.333496,4385.384766,4359.615234,4474.871582,4527.179688,4406.666504,4429.615234,,,,,,,,,,,,,,,,,,,,,,,,,,,,,,,,,,,,,,,,,,,,,,,,,,,,,,,,,,,,,,,,,,,,,,
1768972926.210841,1768972926.210845,51.0,0.0,4392.307617,4384.487305,4371.794922,4392.820313,4377.05127,4373.077148,4377.307617,4394.871582,4381.410156,4358.589844,4472.94873,4531.922852,4405.641113,4440.256348,,,,,,,,,,,,,,,,,,,,,,,,,,,,,,,,,,,,,,,,,,,,,,,,,,,,,,,,,,,,,,,,,,,,,,
1768972926.218649,1768972926.218853,52.0,0.0,4397.563965,4390.384766,4375.512695,4394.871582,4376.410156,4366.153809,4376.666504,4390.256348,4381.538574,4355.897461,4474.871582,4533.205078,4408.461426,4445.897461,,,,,,,,,,,,,,,,,,,,,,,,,,,,,,,,,,,,,,,,,,,,,,,,,,,,,,,,,,,,,,,,,,,,,,
1768972926.226457,1768972926.226661,53.0,0.0,4387.05127,4384.871582,4370.384766,4391.153809,4375.897461,4377.05127,4381.025879,4394.487305,4384.487305,4359.102539,4476.794922,4528.974121,4412.820313,4443.077148,,,,,,,,,,,,,,,,,,,,,,,,,,,,,,,,,,,,,,,,,,,,,,,,,,,,,,,,,,,,,,,,,,,,,,
1768972926.234266,1768972926.23457,54.0,0.0,4378.205078,4379.871582,4362.692383,4384.358887,4373.077148,4380.641113,4378.461426,4394.743652,4387.436035,4362.179688,4475.384766,4529.487305,4409.487305,4441.794922,,,,,,,,,,,,,,,,,,,,,,,,,,,,,,,,,,,,,,,,,,,,,,,,,,,,,,,,,,,,,,,,,,,,,,
1768972926.242074,1768972926.242378,55.0,0.0,4387.307617,4386.153809,4366.922852,4387.563965,4375.0,4372.307617,4375.128418,4391.025879,4384.615234,4359.102539,4475.128418,4536.282227,4408.333496,4445.0,,,,,,,,,,,,,,,,,,,,,,,,,,,,,,,,,,,,,,,,,,,,,,,,,,,,,,,,,,,,,,,,,,,,,,
1768972926.249883,1768972926.250386,56.0,0.0,4395.128418,4390.641113,4371.666504,4394.102539,4379.358887,4374.358887,4375.897461,4392.179688,4379.743652,4357.563965,4476.922852,4537.94873,4410.128418,4445.256348,,,,,,,,,,,,,,,,,,,,,,,,,,,,,,,,,,,,,,,,,,,,,,,,,,,,,,,,,,,,,,,,,,,,,,
1768972926.257691,1768972926.258195,57.0,0.0,4385.897461,4387.563965,4367.563965,4390.384766,4380.384766,4379.230957,4378.205078,4395.897461,4384.102539,4358.461426,4476.538574,4531.666504,4406.025879,4439.871582,,,,,,,,,,,,,,,,,,,,,,,,,,,,,,,,,,,,,,,,,,,,,,,,,,,,,,,,,,,,,,,,,,,,,,
1768972926.265499,1768972926.266103,58.0,0.0,4379.358887,4388.077148,4364.871582,4386.794922,4380.0,4377.820313,4383.077148,4396.153809,4388.461426,4358.717773,4475.256348,4529.871582,4403.589844,4438.846191,,,,,,,,,,,,,,,,,,,,,,,,,,,,,,,,,,,,,,,,,,,,,,,,,,,,,,,,,,,,,,,,,,,,,,
1768972926.273308,1768972926.273912,59.0,0.0,4386.153809,4389.358887,4367.307617,4392.94873,4380.897461,4374.358887,4382.436035,4395.256348,4383.461426,4360.128418,4476.922852,4532.179688,4405.0,4444.487305,,,,,,,,,,,,,,,,,,,,,,,,,,,,,,,,,,,,,,,,,,,,,,,,,,,,,,,,,,,,,,,,,,,,,,
1768972926.281116,1768972926.28192,60.0,0.0,4385.769043,4384.615234,4367.436035,4395.897461,4382.94873,4375.256348,4376.794922,4394.871582,4380.256348,4359.871582,4476.410156,4531.025879,4400.769043,4439.743652,,,,,,,,,,,,,,,,,,,,,,,,,,,,,,,,,,,,,,,,,,,,,,,,,,,,,,,,,,,,,,,,,,,,,,
1768972926.288925,1768972926.289728,61.0,0.0,4373.717773,4380.384766,4363.717773,4387.563965,4380.256348,4381.922852,4378.717773,4393.717773,4381.922852,4354.743652,4464.743652,4523.974121,4394.615234,4425.641113,,,,,,,,,,,,,,,,,,,,,,,,,,,,,,,,,,,,,,,,,,,,,,,,,,,,,,,,,,,,,,,,,,,,,,
1768972926.296733,1768972926.297437,62.0,0.0,4366.922852,4377.436035,4358.846191,4379.487305,4377.692383,4389.358887,4387.692383,4397.820313,4384.358887,4354.743652,4457.307617,4518.461426,4393.846191,4422.307617,0.470618,0.369273,0.066866,0.238847,0.11399,0.361203,0.244783,0.241268,0.20622,0.104033,0.347426,0.303607,0.136999,0.150299,0.113501,0.189627,0.234176,0.216158,0.100738,0.080747,0.121935,0.143576,0.084805,0.073861,0.044543,0.460653,0.339102,0.581276,0.20033,0.24202,0.294624,0.226828,0.542698,0.165065,0.315181,0.151095,0.17322,0.320427,0.137036,0.140627,0.23027,0.164123,0.329171,0.166451,0.105648,0.51581,0.144291,0.110573,0.231942,0.081991,0.809002,0.196551,0.138417,0.245876,0.095727,1.011488,0.363882,0.234772,0.251062,0.138643,0.602407,0.26939,0.110167,0.243524,0.119793,1.331111,0.462677,0.303114,0.316826,0.164715
1768972926.304542,1768972926.305245,63.0,0.0,4370.256348,4371.282227,4358.589844,4382.820313,4379.615234,4387.436035,4395.0,4404.358887,4389.615234,4363.846191,4469.230957,4524.102539,4400.128418,4425.769043,,,,,,,,,,,,,,,,,,,,,,,,,,,,,,,,,,,,,,,,,,,,,,,,,,,,,,,,,,,,,,,,,,,,,,
1768972926.31235,1768972926.313054,64.0,0.0,4376.922852,4373.205078,4363.846191,4391.794922,4379.230957,4380.512695,4393.077148,4403.717773,4389.358887,4367.563965,4478.333496,4531.794922,4406.666504,4431.410156,,,,,,,,,,,,,,,,,,,,,,,,,,,,,,,,,,,,,,,,,,,,,,,,,,,,,,,,,,,,,,,,,,,,,,
1768972926.320159,1768972926.320862,65.0,0.0,4384.871582,4386.282227,4368.205078,4392.05127,4378.974121,4379.358887,4382.563965,4397.307617,4382.563965,4360.641113,4472.563965,4530.897461,4404.487305,4441.794922,,,,,,,,,,,,,,,,,,,,,,,,,,,,,,,,,,,,,,,,,,,,,,,,,,,,,,,,,,,,,,,,,,,,,,
1768972926.327967,1768972926.328571,66.0,0.0,4389.871582,4388.974121,4367.563965,4386.538574,4379.743652,4374.358887,4373.846191,4391.794922,4380.0,4358.077148,4471.282227,4530.0,4400.128418,4444.871582,,,,,,,,,,,,,,,,,,,,,,,,,,,,,,,,,,,,,,,,,,,,,,,,,,,,,,,,,,,,,,,,,,,,,,
1768972926.335776,1768972926.336379,67.0,0.0,4386.794922,4377.436035,4362.563965,4385.641113,4379.230957,4368.974121,4370.897461,4390.256348,4380.769043,4360.512695,4475.384766,4533.077148,4405.128418,4439.102539,,,,,,,,,,,,,,,,,,,,,,,,,,,,,,,,,,,,,,,,,,,,,,,,,,,,,,,,,,,,,,,,,,,,,,
1768972926.343584,1768972926.343988,68.0,0.0,4385.512695,4372.94873,4362.692383,4388.077148,4379.871582,4374.743652,4372.436035,4393.077148,4380.897461,4360.641113,4474.615234,4534.230957,4410.0,4440.769043,,,,,,,,,,,,,,,,,,,,,,,,,,,,,,,,,,,,,,,,,,,,,,,,,,,,,,,,,,,,,,,,,,,,,,
1768972926.351392,1768972926.351796,69.0,0.0,4390.897461,4375.641113,4368.974121,4391.538574,4380.641113,4377.436035,4377.820313,4397.05127,4382.307617,4364.102539,4475.384766,4537.436035,4409.358887,4445.128418,,,,,,,,,,,,,,,,,,,,,,,,,,,,,,,,,,,,,,,,,,,,,,,,,,,,,,,,,,,,,,,,,,,,,,
1768972926.359201,1768972926.359705,70.0,0.0,4390.256348,4375.128418,4372.436035,4394.615234,4376.666504,4372.820313,4380.897461,4394.487305,4381.282227,4366.666504,4478.846191,4542.563965,4412.820313,4443.461426,,,,,,,,,,,,,,,,,,,,,,,,,,,,,,,,,,,,,,,,,,,,,,,,,,,,,,,,,,,,,,,,,,,,,,
1768972926.367009,1768972926.367513,71.0,0.0,4383.717773,4373.205078,4369.743652,4391.410156,4375.512695,4374.487305,4379.102539,4391.794922,4381.794922,4364.230957,4477.05127,4539.230957,4413.717773,4443.205078,,,,,,,,,,,,,,,,,,,,,,,,,,,,,,,,,,,,,,,,,,,,,,,,,,,,,,,,,,,,,,,,,,,,,,
1768972926.374818,1768972926.375122,72.0,0.0,4380.256348,4371.922852,4363.974121,4383.846191,4381.025879,4382.94873,4385.256348,4398.333496,4384.871582,4362.692383,4474.230957,4529.230957,4404.615234,4438.974121,,,,,,,,,,,,,,,,,,,,,,,,,,,,,,,,,,,,,,,,,,,,,,,,,,,,,,,,,,,,,,,,,,,,,,
1768972926.382626,1768972926.38293,73.0,0.0,4375.897461,4370.769043,4358.077148,4381.282227,4384.102539,4387.94873,4395.641113,4404.102539,4382.05127,4360.641113,4473.333496,4523.589844,4399.487305,4428.205078,,,,,,,,,,,,,,,,,,,,,,,,,,,,,,,,,,,,,,,,,,,,,,,,,,,,,,,,,,,,,,,,,,,,,,
1768972926.390435,1768972926.390639,74.0,0.0,4373.974121,4371.282227,4358.589844,4383.717773,4382.307617,4381.922852,4389.487305,4398.461426,4377.307617,4359.358887,4472.820313,4527.436035,4406.538574,4429.743652,,,,,,,,,,,,,,,,,,,,,,,,,,,,,,,,,,,,,,,,,,,,,,,,,,,,,,,,,,,,,,,,,,,,,,
1768972926.398243,1768972926.398447,75.0,0.0,4381.282227,4374.102539,4364.743652,4386.666504,4378.974121,4373.974121,4378.461426,4395.897461,4378.974121,4364.230957,4475.512695,4535.128418,4414.487305,4444.615234,,,,,,,,,,,,,,,,,,,,,,,,,,,,,,,,,,,,,,,,,,,,,,,,,,,,,,,,,,,,,,,,,,,,,,
1768972926.406052,1768972926.406056,76.0,0.0,4382.820313,4375.0,4364.743652,4384.358887,4378.589844,4376.922852,4382.563965,4403.205078,4383.974121,4369.230957,4477.692383,4533.974121,4414.487305,4445.641113,,,,,,,,,,,,,,,,,,,,,,,,,,,,,,,,,,,,,,,,,,,,,,,,,,,,,,,,,,,,,,,,,,,,,,
1768972926.41386,1768972926.413864,77.0,0.0,4373.589844,4372.563965,4359.871582,4379.230957,4377.563965,4377.692383,4382.820313,4402.820313,4385.897461,4365.0,4470.384766,4522.94873,4407.94873,4428.846191,,,,,,,,,,,,,,,,,,,,,,,,,,,,,,,,,,,,,,,,,,,,,,,,,,,,,,,,,,,,,,,,,,,,,,
