Timestamp,OriginalTimestamp,EEG.Counter,EEG.Interpolated,EEG.AF3,EEG.F7,EEG.F3,EEG.FC5,EEG.T7,EEG.P7,EEG.O1,EEG.O2,EEG.P8,EEG.T8,EEG.FC6,EEG.F4,EEG.F8,EEG.AF4,POW.AF3.Theta,POW.AF3.Alpha,POW.AF3.BetaL,POW.AF3.BetaH,POW.AF3.Gamma,POW.F7.Theta,POW.F7.Alpha,POW.F7.BetaL,POW.F7.BetaH,POW.F7.Gamma,POW.F3.Theta,POW.F3.Alpha,POW.F3.BetaL,POW.F3.BetaH,POW.F3.Gamma,POW.FC5.Theta,POW.FC5.Alpha,POW.FC5.BetaL,POW.FC5.BetaH,POW.FC5.Gamma,POW.T7.Theta,POW.T7.Alpha,POW.T7.BetaL,POW.T7.BetaH,POW.T7.Gamma,POW.P7.Theta,POW.P7.Alpha,POW.P7.BetaL,POW.P7.BetaH,POW.P7.Gamma,POW.O1.Theta,POW.O1.Alpha,POW.O1.BetaL,POW.O1.BetaH,POW.O1.Gamma,POW.O2.Theta,POW.O2.Alpha,POW.O2.BetaL,POW.O2.BetaH,POW.O2.Gamma,POW.P8.Theta,POW.P8.Alpha,POW.P8.BetaL,POW.P8.BetaH,POW.P8.Gamma,POW.T8.Theta,POW.T8.Alpha,POW.T8.BetaL,POW.T8.BetaH,POW.T8.Gamma,POW.FC6.Theta,POW.FC6.Alpha,POW.FC6.BetaL,POW.FC6.BetaH,POW.FC6.Gamma,POW.F4.Theta,POW.F4.Alpha,POW.F4.BetaL,POW.F4.BetaH,POW.F4.Gamma,POW.F8.Theta,POW.F8.Alpha,POW.F8.BetaL,POW.F8.BetaH,POW.F8.Gamma,POW.AF4.Theta,POW.AF4.Alpha,POW.AF4.BetaL,POW.AF4.BetaH,POW.AF4.Gamma
1768918111.549344,1768918111.550015,7.0,0.0,4340.641113,4324.615234,4342.307617,4356.153809,4330.128418,4333.717773,4351.282227,4338.461426,4324.102539,4318.846191,4529.743652,4531.025879,4427.179688,4488.077148,,,,,,,,,,,,,,,,,,,,,,,,,,,,,,,,,,,,,,,,,,,,,,,,,,,,,,,,,,,,,,,,,,,,,,
1768918111.557152,1768918111.557622,8.0,0.0,4338.589844,4325.128418,4341.153809,4356.153809,4323.846191,4319.358887,4331.666504,4330.384766,4319.743652,4317.94873,4522.94873,4535.384766,4426.410156,4487.563965,,,,,,,,,,,,,,,,,,,,,,,,,,,,,,,,,,,,,,,,,,,,,,,,,,,,,,,,,,,,,,,,,,,,,,
1768918111.564961,1768918111.565428,9.0,0.0,4344.487305,4337.436035,4346.153809,4360.256348,4325.384766,4319.358887,4325.897461,4327.179688,4318.589844,4320.512695,4526.922852,4541.282227,4430.512695,4488.589844,,,,,,,,,,,,,,,,,,,,,,,,,,,,,,,,,,,,,,,,,,,,,,,,,,,,,,,,,,,,,,,,,,,,,,
1768918111.57277,1768918111.573135,10.0,0.0,4341.922852,4337.179688,4342.692383,4357.820313,4327.436035,4324.230957,4327.179688,4323.717773,4319.487305,4316.025879,4527.94873,4531.282227,4428.974121,4482.307617,,,,,,,,,,,,,,,,,,,,,,,,,,,,,,,,,,,,,,,,,,,,,,,,,,,,,,,,,,,,,,,,,,,,,,
1768918111.580578,1768918111.580941,11.0,0.0,4335.128418,4328.461426,4335.0,4350.256348,4325.384766,4325.128418,4331.025879,4325.897461,4316.666504,4311.153809,4522.820313,4519.871582,4420.641113,4474.487305,,,,,,,,,,,,,,,,,,,,,,,,,,,,,,,,,,,,,,,,,,,,,,,,,,,,,,,,,,,,,,,,,,,,,,
1768918111.588386,1768918111.588548,12.0,0.0,4335.0,4328.717773,4341.025879,4348.461426,4322.563965,4327.436035,4337.820313,4327.179688,4312.05127,4310.128418,4520.384766,4521.282227,4418.974121,4474.871582,,,,,,,,,,,,,,,,,,,,,,,,,,,,,,,,,,,,,,,,,,,,,,,,,,,,,,,,,,,,,,,,,,,,,,
1768918111.596195,1768918111.596355,13.0,0.0,4342.692383,4333.333496,4352.179688,4351.282227,4323.333496,4326.410156,4333.461426,4321.666504,4314.358887,4312.436035,4525.512695,4528.717773,4427.563965,4479.871582,,,,,,,,,,,,,,,,,,,,,,,,,,,,,,,,,,,,,,,,,,,,,,,,,,,,,,,,,,,,,,,,,,,,,,
1768918111.604003,1768918111.604061,14.0,0.0,4346.153809,4333.461426,4350.384766,4352.179688,4323.461426,4319.102539,4323.974121,4331.922852,4325.512695,4321.153809,4532.436035,4536.794922,4431.025879,4480.641113,,,,,,,,,,,,,,,,,,,,,,,,,,,,,,,,,,,,,,,,,,,,,,,,,,,,,,,,,,,,,,,,,,,,,,
1768918111.611812,1768918111.611868,15.0,0.0,4335.384766,4329.230957,4340.256348,4349.615234,4320.128418,4317.05127,4325.384766,4341.538574,4328.333496,4322.05127,4531.410156,4534.358887,4427.820313,4476.282227,,,,,,,,,,,,,,,,,,,,,,,,,,,,,,,,,,,,,,,,,,,,,,,,,,,,,,,,,,,,,,,,,,,,,,
1768918111.61962,1768918111.619875,16.0,0.0,4326.922852,4326.538574,4334.615234,4346.282227,4320.128418,4322.692383,4331.153809,4328.333496,4319.487305,4311.153809,4522.179688,4522.307617,4426.538574,4473.077148,0.359571,0.260126,0.342729,0.209966,0.153003,0.528419,0.24874,0.20935,0.206472,0.120433,0.40397,0.223278,0.406833,0.241484,0.150857,0.805514,0.570024,0.170922,0.194681,0.102199,0.474198,0.3148,0.092217,0.066687,0.130187,0.429885,0.155854,0.108631,0.210494,0.153957,0.350875,0.343222,0.177891,0.270163,0.382141,0.143038,0.37517,0.367669,0.28535,0.29523,0.120392,0.147736,0.11514,0.135446,0.129272,0.621953,0.24234,0.15213,0.1433,0.159327,0.918593,0.366908,0.222693,0.233809,0.206244,0.75602,0.483806,0.322757,0.462152,0.318876,0.68809,0.36864,0.406533,0.24521,0.217004,0.90872,0.267853,0.336187,0.413946,0.233311
1768918111.627429,1768918111.627682,17.0,0.0,4335.512695,4328.077148,4336.922852,4348.717773,4324.615234,4326.282227,4328.974121,4324.743652,4320.0,4310.384766,4521.282227,4521.410156,4425.384766,4476.538574,,,,,,,,,,,,,,,,,,,,,,,,,,,,,,,,,,,,,,,,,,,,,,,,,,,,,,,,,,,,,,,,,,,,,,
1768918111.635237,1768918111.635588,18.0,0.0,4344.102539,4329.743652,4345.512695,4354.230957,4326.153809,4324.871582,4328.333496,4340.769043,4328.333496,4320.256348,4529.743652,4531.922852,4424.102539,4484.743652,,,,,,,,,,,,,,,,,,,,,,,,,,,,,,,,,,,,,,,,,,,,,,,,,,,,,,,,,,,,,,,,,,,,,,
1768918111.643046,1768918111.643395,19.0,0.0,4340.641113,4328.589844,4349.358887,4351.025879,4325.128418,4327.307617,4335.512695,4346.153809,4329.743652,4321.538574,4530.769043,4537.563965,4425.256348,4487.307617,,,,,,,,,,,,,,,,,,,,,,,,,,,,,,,,,,,,,,,,,,,,,,,,,,,,,,,,,,,,,,,,,,,,,,
1768918111.650854,1768918111.651002,20.0,0.0,4336.794922,4326.794922,4343.846191,4345.384766,4324.615234,4326.922852,4335.0,4338.717773,4325.641113,4319.615234,4525.256348,4537.563965,4427.820313,4487.94873,,,,,,,,,,,,,,,,,,,,,,,,,,,,,,,,,,,,,,,,,,,,,,,,,,,,,,,,,,,,,,,,,,,,,,
1768918111.658663,1768918111.658808,21.0,0.0,4338.333496,4327.307617,4341.794922,4350.128418,4322.820313,4318.333496,4322.436035,4335.256348,4324.358887,4321.666504,4524.102539,4536.153809,4428.846191,4487.563965,,,,,,,,,,,,,,,,,,,,,,,,,,,,,,,,,,,,,,,,,,,,,,,,,,,,,,,,,,,,,,,,,,,,,,
1768918111.666471,1768918111.666514,22.0,0.0,4340.897461,4330.384766,4344.743652,4355.0,4323.461426,4318.461426,4319.230957,4334.871582,4325.0,4322.94873,4529.615234,4533.974121,4428.717773,4484.487305,,,,,,,,,,,,,,,,,,,,,,,,,,,,,,,,,,,,,,,,,,,,,,,,,,,,,,,,,,,,,,,,,,,,,,
1768918111.67428,1768918111.674321,23.0,0.0,4337.94873,4328.333496,4343.333496,4348.077148,4325.769043,4327.436035,4330.641113,4341.025879,4326.025879,4325.641113,4536.153809,4537.820313,4430.769043,4478.846191,,,,,,,,,,,,,,,,,,,,,,,,,,,,,,,,,,,,,,,,,,,,,,,,,,,,,,,,,,,,,,,,,,,,,,
1768918111.682088,1768918111.682327,24.0,0.0,4330.769043,4321.666504,4342.563965,4341.025879,4323.974121,4328.461426,4336.922852,4348.589844,4325.641113,4325.897461,4533.717773,4542.94873,4426.922852,4474.615234,,,,,,,,,,,,,,,,,,,,,,,,,,,,,,,,,,,,,,,,,,,,,,,,,,,,,,,,,,,,,,,,,,,,,,
1768918111.689897,1768918111.690134,25.0,0.0,4334.615234,4323.717773,4344.743652,4345.384766,4321.538574,4325.384766,4334.102539,4349.102539,4326.025879,4320.641113,4526.410156,4542.05127,4418.461426,4480.512695,,,,,,,,,,,,,,,,,,,,,,,,,,,,,,,,,,,,,,,,,,,,,,,,,,,,,,,,,,,,,,,,,,,,,,
1768918111.697705,1768918111.698041,26.0,0.0,4345.0,4329.102539,4345.384766,4350.897461,4322.307617,4326.282227,4330.256348,4340.769043,4325.384766,4320.128418,4524.358887,4540.384766,4421.666504,4489.230957,,,,,,,,,,,,,,,,,,,,,,,,,,,,,,,,,,,,,,,,,,,,,,,,,,,,,,,,,,,,,,,,,,,,,,
1768918111.705514,1768918111.705848,27.0,0.0,4345.256348,4330.641113,4346.282227,4351.282227,4324.102539,4324.487305,4325.256348,4328.333496,4317.05127,4320.128418,4524.743652,4538.717773,4431.282227,4486.282227,,,,,,,,,,,,,,,,,,,,,,,,,,,,,,,,,,,,,,,,,,,,,,,,,,,,,,,,,,,,,,,,,,,,,,
1768918111.713322,1768918111.713854,28.0,0.0,4341.410156,4330.769043,4349.743652,4349.230957,4323.846191,4319.743652,4323.589844,4329.487305,4315.256348,4314.102539,4523.589844,4536.025879,4424.743652,4476.282227,,,,,,,,,,,,,,,,,,,,,,,,,,,,,,,,,,,,,,,,,,,,,,,,,,,,,,,,,,,,,,,,,,,,,,
1768918111.721131,1768918111.721661,29.0,0.0,4342.820313,4326.666504,4351.922852,4344.358887,4323.974121,4322.692383,4327.94873,4342.563965,4324.871582,4312.179688,4523.461426,4537.436035,4415.128418,4474.102539,,,,,,,,,,,,,,,,,,,,,,,,,,,,,,,,,,,,,,,,,,,,,,,,,,,,,,,,,,,,,,,,,,,,,,
1768918111.728939,1768918111.729368,30.0,0.0,4343.077148,4321.410156,4350.128418,4340.897461,4324.358887,4328.077148,4329.230957,4345.0,4326.538574,4319.230957,4523.333496,4537.563965,4420.897461,4478.846191,,,,,,,,,,,,,,,,,,,,,,,,,,,,,,,,,,,,,,,,,,,,,,,,,,,,,,,,,,,,,,,,,,,,,,
1768918111.736748,1768918111.737174,31.0,0.0,4344.615234,4323.077148,4351.410156,4348.589844,4321.666504,4324.615234,4323.461426,4337.692383,4322.820313,4325.0,4528.461426,4537.820313,4427.179688,4483.589844,,,,,,,,,,,,,,,,,,,,,,,,,,,,,,,,,,,,,,,,,,,,,,,,,,,,,,,,,,,,,,,,,,,,,,
1768918111.744556,1768918111.745181,32.0,0.0,4349.230957,4328.077148,4356.153809,4357.94873,4322.692383,4320.256348,4325.256348,4341.282227,4327.436035,4326.922852,4538.589844,4547.05127,4427.307617,4487.436035,0.377037,0.248716,0.33441,0.247509,0.143428,0.416751,0.248058,0.189671,0.236229,0.117823,0.351735,0.249425,0.429826,0.272618,0.144837,0.829351,0.534786,0.170701,0.212869,0.105584,0.449499,0.293221,0.087431,0.068269,0.122516,0.423504,0.162315,0.076862,0.207764,0.159081,0.456252,0.371758,0.170591,0.274309,0.391576,0.128345,0.308037,0.391097,0.297717,0.336247,0.139323,0.152851,0.130088,0.135062,0.117964,0.549866,0.203945,0.178576,0.133489,0.140022,0.855759,0.435227,0.277718,0.265452,0.190692,0.719308,0.524385,0.344247,0.490412,0.30458,0.68801,0.399405,0.422708,0.243034,0.221475,0.898682,0.280576,0.337822,0.474241,0.222509
1768918111.752365,1768918111.752988,33.0,0.0,4351.538574,4329.743652,4357.820313,4357.692383,4328.205078,4325.384766,4333.461426,4349.743652,4329.230957,4329.230957,4542.563965,4556.153809,4430.256348,4487.307617,,,,,,,,,,,,,,,,,,,,,,,,,,,,,,,,,,,,,,,,,,,,,,,,,,,,,,,,,,,,,,,,,,,,,,
1768918111.760173,1768918111.760695,34.0,0.0,4351.794922,4326.153809,4356.282227,4355.512695,4327.692383,4327.307617,4328.974121,4346.538574,4327.436035,4328.333496,4540.128418,4554.487305,4430.384766,4491.410156,,,,,,,,,,,,,,,,,,,,,,,,,,,,,,,,,,,,,,,,,,,,,,,,,,,,,,,,,,,,,,,,,,,,,,
1768918111.767982,1768918111.768502,35.0,0.0,4350.384766,4323.333496,4355.641113,4353.974121,4323.077148,4323.077148,4323.974121,4345.512695,4329.871582,4325.256348,4539.615234,4552.692383,4425.512695,4495.384766,,,,,,,,,,,,,,,,,,,,,,,,,,,,,,,,,,,,,,,,,,,,,,,,,,,,,,,,,,,,,,,,,,,,,,
1768918111.77579,1768918111.776108,36.0,0.0,4349.358887,4328.461426,4361.282227,4351.666504,4325.0,4325.512695,4332.563965,4350.769043,4330.256348,4325.0,4541.538574,4558.205078,4426.922852,4492.179688,,,,,,,,,,,,,,,,,,,,,,,,,,,,,,,,,,,,,,,,,,,,,,,,,,,,,,,,,,,,,,,,,,,,,,
1768918111.783599,1768918111.783915,37.0,0.0,4352.307617,4332.05127,4366.282227,4352.563965,4328.461426,4326.666504,4335.384766,4347.94873,4327.563965,4326.153809,4541.666504,4556.794922,4430.512695,4491.410156,,,,,,,,,,,,,,,,,,,,,,,,,,,,,,,,,,,,,,,,,,,,,,,,,,,,,,,,,,,,,,,,,,,,,,
1768918111.791407,1768918111.791621,38.0,0.0,4351.794922,4331.282227,4362.94873,4350.897461,4328.077148,4324.358887,4330.256348,4340.512695,4327.436035,4326.794922,4539.358887,4549.871582,4428.717773,4494.102539,,,,,,,,,,,,,,,,,,,,,,,,,,,,,,,,,,,,,,,,,,,,,,,,,,,,,,,,,,,,,,,,,,,,,,
1768918111.799216,1768918111.799428,39.0,0.0,4341.282227,4330.384766,4353.717773,4342.692383,4326.538574,4326.666504,4332.563965,4344.230957,4327.94873,4326.538574,4537.179688,4549.871582,4427.94873,4490.128418,,,,,,,,,,,,,,,,,,,,,,,,,,,,,,,,,,,,,,,,,,,,,,,,,,,,,,,,,,,,,,,,,,,,,,
1768918111.807024,1768918111.807434,40.0,0.0,4338.461426,4332.563965,4352.179688,4344.615234,4328.846191,4328.333496,4336.153809,4348.205078,4327.179688,4325.897461,4536.666504,4550.384766,4428.077148,4486.025879,,,,,,,,,,,,,,,,,,,,,,,,,,,,,,,,,,,,,,,,,,,,,,,,,,,,,,,,,,,,,,,,,,,,,,
1768918111.814833,1768918111.815241,41.0,0.0,4350.0,4337.179688,4359.743652,4355.512695,4336.794922,4327.563965,4335.0,4338.846191,4326.025879,4323.717773,4532.692383,4546.025879,4428.333496,4490.641113,,,,,,,,,,,,,,,,,,,,,,,,,,,,,,,,,,,,,,,,,,,,,,,,,,,,,,,,,,,,,,,,,,,,,,
1768918111.822641,1768918111.823148,42.0,0.0,4348.461426,4334.871582,4357.179688,4352.05127,4335.512695,4327.563965,4328.717773,4332.307617,4322.307617,4319.871582,4527.563965,4539.615234,4422.820313,4487.692383,,,,,,,,,,,,,,,,,,,,,,,,,,,,,,,,,,,,,,,,,,,,,,,,,,,,,,,,,,,,,,,,,,,,,,
1768918111.83045,1768918111.830955,43.0,0.0,4328.077148,4321.794922,4342.436035,4338.717773,4325.897461,4326.922852,4323.077148,4339.358887,4320.256348,4317.307617,4521.410156,4533.461426,4409.102539,4472.820313,,,,,,,,,,,,,,,,,,,,,,,,,,,,,,,,,,,,,,,,,,,,,,,,,,,,,,,,,,,,,,,,,,,,,,
1768918111.838258,1768918111.838961,44.0,0.0,4323.205078,4317.307617,4336.794922,4339.487305,4329.615234,4327.563965,4331.025879,4347.436035,4324.487305,4320.512695,4517.563965,4533.846191,4407.307617,4470.897461,,,,,,,,,,,,,,,,,,,,,,,,,,,,,,,,,,,,,,,,,,,,,,,,,,,,,,,,,,,,,,,,,,,,,,
1768918111.846067,1768918111.846768,45.0,0.0,4342.820313,4331.153809,4353.461426,4355.0,4336.922852,4330.384766,4333.974121,4352.05127,4333.589844,4332.179688,4533.717773,4551.666504,4426.666504,4489.102539,,,,,,,,,,,,,,,,,,,,,,,,,,,,,,,,,,,,,,,,,,,,,,,,,,,,,,,,,,,,,,,,,,,,,,
1768918111.853875,1768918111.854675,46.0,0.0,4357.179688,4342.436035,4371.666504,4365.769043,4332.820313,4326.153809,4319.487305,4353.461426,4336.666504,4341.410156,4552.05127,4566.922852,4439.487305,4502.563965,,,,,,,,,,,,,,,,,,,,,,,,,,,,,,,,,,,,,,,,,,,,,,,,,,,,,,,,,,,,,,,,,,,,,,
1768918111.861684,1768918111.862482,47.0,0.0,4356.153809,4339.615234,4369.615234,4360.128418,4331.153809,4317.692383,4316.153809,4349.615234,4330.256348,4336.538574,4545.512695,4560.0,4431.922852,4500.512695,,,,,,,,,,,,,,,,,,,,,,,,,,,,,,,,,,,,,,,,,,,,,,,,,,,,,,,,,,,,,,,,,,,,,,
1768918111.869492,1768918111.870488,48.0,0.0,4354.487305,4337.05127,4360.769043,4350.0,4330.256348,4319.102539,4326.025879,4347.05127,4326.410156,4326.282227,4536.410156,4552.05127,4426.282227,4491.794922,0.389239,0.27445,0.306854,0.282357,0.141264,0.358973,0.248928,0.1719,0.256497,0.116526,0.291099,0.288152,0.434442,0.305116,0.13932,0.778244,0.48861,0.170869,0.232761,0.111056,0.389792,0.262376,0.084424,0.070508,0.111645,0.391327,0.165962,0.056534,0.202683,0.161332,0.555345,0.393631,0.166612,0.271512,0.397613,0.130595,0.268035,0.387543,0.320402,0.391298,0.156796,0.163912,0.141919,0.135799,0.10835,0.464943,0.179483,0.203308,0.125778,0.117029,0.736291,0.510373,0.322324,0.293782,0.174024,0.61574,0.581849,0.348049,0.518256,0.283231,0.660009,0.44893,0.413136,0.23145,0.221707,0.832559,0.321718,0.3167,0.509882,0.208327
1768918111.877301,1768918111.878295,49.0,0.0,4357.307617,4340.641113,4364.230957,4350.0,4326.153809,4326.153809,4327.436035,4348.717773,4326.410156,4323.461426,4541.153809,4555.0,4430.641113,4489.487305,,,,,,,,,,,,,,,,,,,,,,,,,,,,,,,,,,,,,,,,,,,,,,,,,,,,,,,,,,,,,,,,,,,,,,
1768918111.885109,1768918111.886202,50.0,0.0,4358.974121,4342.436035,4372.563965,4354.615234,4330.897461,4326.666504,4322.563965,4346.282227,4323.589844,4325.512695,4541.282227,4558.717773,4430.0,4498.974121,,,,,,,,,,,,,,,,,,,,,,,,,,,,,,,,,,,,,,,,,,,,,,,,,,,,,,,,,,,,,,,,,,,,,,
1768918111.892918,1768918111.894008,51.0,0.0,4358.077148,4340.769043,4372.05127,4356.794922,4335.641113,4324.230957,4324.102539,4339.487305,4321.794922,4326.666504,4542.05127,4562.692383,4428.717773,4508.461426,,,,,,,,,,,,,,,,,,,,,,,,,,,,,,,,,,,,,,,,,,,,,,,,,,,,,,,,,,,,,,,,,,,,,,
1768918111.900726,1768918111.901615,52.0,0.0,4358.205078,4339.358887,4366.794922,4359.358887,4329.487305,4327.436035,4332.179688,4339.871582,4325.641113,4327.692383,4549.358887,4563.846191,4433.461426,4508.205078,,,,,,,,,,,,,,,,,,,,,,,,,,,,,,,,,,,,,,,,,,,,,,,,,,,,,,,,,,,,,,,,,,,,,,
1768918111.908535,1768918111.909422,53.0,0.0,4358.846191,4337.307617,4362.05127,4357.563965,4325.512695,4329.615234,4334.487305,4346.538574,4327.692383,4328.589844,4546.666504,4558.077148,4434.871582,4501.794922,,,,,,,,,,,,,,,,,,,,,,,,,,,,,,,,,,,,,,,,,,,,,,,,,,,,,,,,,,,,,,,,,,,,,,
1768918111.916343,1768918111.917129,54.0,0.0,4355.0,4334.871582,4356.282227,4350.641113,4325.0,4321.922852,4322.563965,4349.102539,4322.820313,4326.153809,4538.333496,4554.358887,4428.589844,4495.384766,,,,,,,,,,,,,,,,,,,,,,,,,,,,,,,,,,,,,,,,,,,,,,,,,,,,,,,,,,,,,,,,,,,,,,
1768918111.924152,1768918111.924935,55.0,0.0,4350.641113,4335.128418,4357.307617,4348.846191,4324.487305,4318.333496,4321.282227,4343.974121,4317.307617,4324.102539,4538.333496,4551.538574,4425.512695,4493.589844,,,,,,,,,,,,,,,,,,,,,,,,,,,,,,,,,,,,,,,,,,,,,,,,,,,,,,,,,,,,,,,,,,,,,,
1768918111.93196,1768918111.932542,56.0,0.0,4350.512695,4333.461426,4359.358887,4349.743652,4328.077148,4320.512695,4327.820313,4339.487305,4319.230957,4325.641113,4538.717773,4541.025879,4428.974121,4493.461426,,,,,,,,,,,,,,,,,,,,,,,,,,,,,,,,,,,,,,,,,,,,,,,,,,,,,,,,,,,,,,,,,,,,,,
1768918111.939769,1768918111.940349,57.0,0.0,4346.282227,4327.563965,4347.179688,4344.487305,4324.230957,4314.615234,4315.897461,4341.794922,4325.256348,4326.410156,4537.307617,4534.743652,4426.282227,4489.487305,,,,,,,,,,,,,,,,,,,,,,,,,,,,,,,,,,,,,,,,,,,,,,,,,,,,,,,,,,,,,,,,,,,,,,
1768918111.947577,1768918111.948256,58.0,0.0,4338.717773,4324.871582,4336.538574,4340.128418,4316.025879,4311.794922,4304.615234,4343.333496,4326.025879,4323.974121,4537.179688,4542.179688,4418.461426,4486.922852,,,,,,,,,,,,,,,,,,,,,,,,,,,,,,,,,,,,,,,,,,,,,,,,,,,,,,,,,,,,,,,,,,,,,,
1768918111.955386,1768918111.956063,59.0,0.0,4343.333496,4325.769043,4348.717773,4342.692383,4320.769043,4321.666504,4314.230957,4346.153809,4327.179688,4326.153809,4539.358887,4553.589844,4421.282227,4493.461426,,,,,,,,,,,,,,,,,,,,,,,,,,,,,,,,,,,,,,,,,,,,,,,,,,,,,,,,,,,,,,,,,,,,,,
1768918111.963194,1768918111.963669,60.0,0.0,4356.025879,4327.94873,4362.05127,4345.0,4328.205078,4329.102539,4323.205078,4348.846191,4330.0,4330.128418,4542.307617,4555.897461,4429.102539,4496.153809,,,,,,,,,,,,,,,,,,,,,,,,,,,,,,,,,,,,,,,,,,,,,,,,,,,,,,,,,,,,,,,,,,,,,,
1768918111.971003,1768918111.971476,61.0,0.0,4354.230957,4326.666504,4353.974121,4342.563965,4323.974121,4325.128418,4319.230957,4342.05127,4326.922852,4324.615234,4536.410156,4545.512695,4422.820313,4490.128418,,,,,,,,,,,,,,,,,,,,,,,,,,,,,,,,,,,,,,,,,,,,,,,,,,,,,,,,,,,,,,,,,,,,,,
1768918111.978811,1768918111.979183,62.0,0.0,4340.897461,4318.461426,4344.230957,4338.333496,4320.0,4319.487305,4315.769043,4336.025879,4322.563965,4319.487305,4528.846191,4535.128418,4414.102539,4487.05127,,,,,,,,,,,,,,,,,,,,,,,,,,,,,,,,,,,,,,,,,,,,,,,,,,,,,,,,,,,,,,,,,,,,,,
1768918111.98662,1768918111.986989,63.0,0.0,4338.461426,4311.922852,4351.025879,4337.820313,4321.666504,4321.153809,4321.666504,4345.0,4326.666504,4326.794922,4535.128418,4543.333496,4422.179688,4492.179688,,,,,,,,,,,,,,,,,,,,,,,,,,,,,,,,,,,,,,,,,,,,,,,,,,,,,,,,,,,,,,,,,,,,,,
1768918111.994428,1768918111.994596,64.0,0.0,4348.974121,4318.333496,4360.384766,4342.820313,4322.436035,4326.666504,4326.282227,4352.307617,4330.0,4327.563965,4544.102539,4557.05127,4427.05127,4495.256348,0.389377,0.328379,0.265019,0.302921,0.143121,0.334742,0.253613,0.154725,0.259912,0.117109,0.234483,0.330026,0.412311,0.324921,0.134259,0.655567,0.43756,0.165167,0.243999,0.116671,0.309738,0.225013,0.081354,0.071434,0.097989,0.342296,0.164668,0.046282,0.197403,0.162104,0.615965,0.396534,0.162643,0.267206,0.405248,0.159476,0.259337,0.355773,0.345977,0.44813,0.171716,0.184668,0.144373,0.136351,0.103535,0.395756,0.178763,0.219001,0.122443,0.096356,0.59611,0.57693,0.3468,0.308964,0.162313,0.488928,0.637757,0.327132,0.534092,0.25905,0.608463,0.522325,0.384967,0.216032,0.216929,0.740513,0.390671,0.278544,0.515619,0.193318
1768918112.002236,1768918112.002402,65.0,0.0,4354.871582,4325.384766,4361.410156,4345.0,4323.589844,4327.307617,4320.641113,4343.461426,4321.410156,4314.358887,4534.102539,4551.922852,4416.794922,4489.871582,,,,,,,,,,,,,,,,,,,,,,,,,,,,,,,,,,,,,,,,,,,,,,,,,,,,,,,,,,,,,,,,,,,,,,
1768918112.010045,1768918112.010309,66.0,0.0,4350.641113,4318.589844,4355.512695,4340.384766,4318.077148,4320.897461,4317.179688,4337.436035,4311.538574,4308.333496,4522.179688,4537.563965,4411.025879,4487.436035,,,,,,,,,,,,,,,,,,,,,,,,,,,,,,,,,,,,,,,,,,,,,,,,,,,,,,,,,,,,,,,,,,,,,,
1768918112.017854,1768918112.018116,67.0,0.0,4346.794922,4311.538574,4351.666504,4339.743652,4309.871582,4320.128418,4319.487305,4342.05127,4312.179688,4313.589844,4527.179688,4537.563965,4413.717773,4488.205078,,,,,,,,,,,,,,,,,,,,,,,,,,,,,,,,,,,,,,,,,,,,,,,,,,,,,,,,,,,,,,,,,,,,,,
1768918112.025662,1768918112.026122,68.0,0.0,4345.256348,4311.922852,4353.717773,4340.512695,4313.077148,4317.692383,4313.461426,4339.743652,4314.358887,4313.974121,4530.897461,4544.230957,4414.358887,4482.307617,,,,,,,,,,,,,,,,,,,,,,,,,,,,,,,,,,,,,,,,,,,,,,,,,,,,,,,,,,,,,,,,,,,,,,
1768918112.033471,1768918112.033929,69.0,0.0,4341.666504,4310.769043,4353.717773,4331.538574,4315.384766,4309.743652,4307.563965,4329.230957,4309.743652,4309.615234,4523.717773,4539.871582,4412.307617,4474.743652,,,,,,,,,,,,,,,,,,,,,,,,,,,,,,,,,,,,,,,,,,,,,,,,,,,,,,,,,,,,,,,,,,,,,,
1768918112.041279,1768918112.041836,70.0,0.0,4342.820313,4307.820313,4348.077148,4326.922852,4308.205078,4312.820313,4311.666504,4329.615234,4311.538574,4310.384766,4520.641113,4536.666504,4410.128418,4476.410156,,,,,,,,,,,,,,,,,,,,,,,,,,,,,,,,,,,,,,,,,,,,,,,,,,,,,,,,,,,,,,,,,,,,,,
1768918112.049088,1768918112.049643,71.0,0.0,4350.512695,4310.769043,4348.717773,4339.102539,4313.077148,4324.487305,4313.846191,4338.333496,4321.538574,4314.230957,4532.05127,4547.436035,4412.307617,4488.205078,,,,,,,,,,,,,,,,,,,,,,,,,,,,,,,,,,,,,,,,,,,,,,,,,,,,,,,,,,,,,,,,,,,,,,
1768918112.056896,1768918112.057649,72.0,0.0,4350.512695,4314.358887,4355.256348,4344.871582,4325.512695,4325.512695,4311.794922,4339.615234,4325.512695,4316.025879,4541.666504,4557.436035,4418.717773,4493.333496,,,,,,,,,,,,,,,,,,,,,,,,,,,,,,,,,,,,,,,,,,,,,,,,,,,,,,,,,,,,,,,,,,,,,,
1768918112.064705,1768918112.065456,73.0,0.0,4341.025879,4310.0,4349.102539,4335.0,4321.922852,4318.077148,4309.871582,4338.333496,4320.641113,4311.410156,4531.282227,4548.205078,4416.538574,4482.563965,,,,,,,,,,,,,,,,,,,,,,,,,,,,,,,,,,,,,,,,,,,,,,,,,,,,,,,,,,,,,,,,,,,,,,
1768918112.072513,1768918112.073162,74.0,0.0,4338.974121,4311.922852,4342.436035,4332.563965,4315.769043,4321.666504,4311.538574,4339.487305,4316.153809,4305.641113,4521.025879,4534.615234,4411.410156,4475.897461,,,,,,,,,,,,,,,,,,,,,,,,,,,,,,,,,,,,,,,,,,,,,,,,,,,,,,,,,,,,,,,,,,,,,,
1768918112.080321,1768918112.080968,75.0,0.0,4348.205078,4323.333496,4352.05127,4341.922852,4318.205078,4328.461426,4318.717773,4335.384766,4318.589844,4313.589844,4532.820313,4541.794922,4419.871582,4486.794922,,,,,,,,,,,,,,,,,,,,,,,,,,,,,,,,,,,,,,,,,,,,,,,,,,,,,,,,,,,,,,,,,,,,,,
1768918112.08813,1768918112.088675,76.0,0.0,4355.128418,4328.717773,4361.025879,4346.666504,4320.897461,4326.153809,4322.179688,4332.94873,4322.05127,4325.897461,4546.025879,4557.692383,4430.769043,4495.897461,,,,,,,,,,,,,,,,,,,,,,,,,,,,,,,,,,,,,,,,,,,,,,,,,,,,,,,,,,,,,,,,,,,,,,
1768918112.095939,1768918112.096482,77.0,0.0,4353.974121,4324.102539,4359.230957,4344.230957,4322.692383,4325.256348,4318.846191,4339.487305,4323.077148,4325.384766,4541.410156,4557.179688,4431.282227,4492.307617,,,,,,,,,,,,,,,,,,,,,,,,,,,,,,,,,,,,,,,,,,,,,,,,,,,,,,,,,,,,,,,,,,,,,,
1768918112.103747,1768918112.104188,78.0,0.0,4347.307617,4319.487305,4354.487305,4341.666504,4323.589844,4326.794922,4317.94873,4345.128418,4325.0,4317.563965,4535.128418,4546.922852,4428.589844,4485.641113,,,,,,,,,,,,,,,,,,,,,,,,,,,,,,,,,,,,,,,,,,,,,,,,,,,,,,,,,,,,,,,,,,,,,,
1768918112.111555,1768918112.111995,79.0,0.0,4347.563965,4323.077148,4354.230957,4344.615234,4321.922852,4324.230957,4320.384766,4342.179688,4324.871582,4317.05127,4535.384766,4543.333496,4426.922852,4485.384766,,,,,,,,,,,,,,,,,,,,,,,,,,,,,,,,,,,,,,,,,,,,,,,,,,,,,,,,,,,,,,,,,,,,,,
1768918112.119364,1768918112.119602,80.0,0.0,4358.846191,4333.717773,4357.94873,4352.94873,4323.077148,4325.128418,4320.0,4333.077148,4323.205078,4322.179688,4537.563965,4543.589844,4426.538574,4488.974121,0.384887,0.396519,0.21676,0.304007,0.149922,0.324099,0.262897,0.139498,0.245204,0.120528,0.192922,0.373074,0.36699,0.322854,0.132357,0.497883,0.390387,0.154455,0.241239,0.122071,0.238524,0.18675,0.076981,0.070551,0.083951,0.289524,0.158068,0.04478,0.193887,0.162658,0.621415,0.379933,0.159783,0.267526,0.417118,0.212804,0.277218,0.307714,0.365559,0.491007,0.184406,0.217011,0.135298,0.136237,0.103833,0.367556,0.208575,0.224223,0.126778,0.082275,0.48306,0.635012,0.348021,0.306416,0.1581,0.38073,0.689485,0.280798,0.532259,0.23514,0.546432,0.613931,0.346847,0.204264,0.208108,0.649416,0.485286,0.230082,0.49598,0.180502
1768918112.127172,1768918112.127408,81.0,0.0,4357.820313,4336.025879,4359.358887,4355.256348,4326.538574,4331.538574,4321.410156,4332.436035,4326.025879,4323.077148,4539.102539,4541.538574,4427.563965,4486.794922,,,,,,,,,,,,,,,,,,,,,,,,,,,,,,,,,,,,,,,,,,,,,,,,,,,,,,,,,,,,,,,,,,,,,,
1768918112.134981,1768918112.135115,82.0,0.0,4342.179688,4328.333496,4354.743652,4350.0,4325.256348,4328.589844,4324.615234,4341.922852,4329.743652,4320.769043,4536.153809,4538.461426,4427.563965,4481.025879,,,,,,,,,,,,,,,,,,,,,,,,,,,,,,,,,,,,,,,,,,,,,,,,,,,,,,,,,,,,,,,,,,,,,,
1768918112.142789,1768918112.142921,83.0,0.0,4341.153809,4329.871582,4351.538574,4347.820313,4321.410156,4321.538574,4317.563965,4339.102539,4326.922852,4322.179688,4533.461426,4539.871582,4426.538574,4481.794922,,,,,,,,,,,,,,,,,,,,,,,,,,,,,,,,,,,,,,,,,,,,,,,,,,,,,,,,,,,,,,,,,,,,,,
1768918112.150598,1768918112.150928,84.0,0.0,4355.128418,4338.333496,4356.153809,4351.282227,4319.871582,4321.410156,4308.205078,4333.077148,4327.563965,4326.538574,4540.128418,4548.461426,4427.692383,4489.102539,,,,,,,,,,,,,,,,,,,,,,,,,,,,,,,,,,,,,,,,,,,,,,,,,,,,,,,,,,,,,,,,,,,,,,
1768918112.158406,1768918112.158735,85.0,0.0,4357.179688,4336.410156,4359.230957,4353.205078,4319.358887,4321.153809,4312.05127,4338.846191,4330.0,4326.153809,4541.025879,4546.922852,4428.846191,4489.230957,,,,,,,,,,,,,,,,,,,,,,,,,,,,,,,,,,,,,,,,,,,,,,,,,,,,,,,,,,,,,,,,,,,,,,
1768918112.166215,1768918112.166442,86.0,0.0,4350.256348,4334.743652,4353.589844,4350.641113,4319.871582,4321.410156,4321.282227,4333.461426,4323.077148,4321.410156,4528.589844,4531.282227,4424.615234,4479.871582,,,,,,,,,,,,,,,,,,,,,,,,,,,,,,,,,,,,,,,,,,,,,,,,,,,,,,,,,,,,,,,,,,,,,,
1768918112.174024,1768918112.174249,87.0,0.0,4347.05127,4340.256348,4349.230957,4347.307617,4324.871582,4327.179688,4318.846191,4321.922852,4320.897461,4320.897461,4523.205078,4527.179688,4418.974121,4474.358887,,,,,,,,,,,,,,,,,,,,,,,,,,,,,,,,,,,,,,,,,,,,,,,,,,,,,,,,,,,,,,,,,,,,,,
1768918112.181832,1768918112.181855,88.0,0.0,4343.333496,4337.307617,4348.077148,4345.0,4326.153809,4326.153809,4312.692383,4329.102539,4328.846191,4323.974121,4530.256348,4538.333496,4421.794922,4478.461426,,,,,,,,,,,,,,,,,,,,,,,,,,,,,,,,,,,,,,,,,,,,,,,,,,,,,,,,,,,,,,,,,,,,,,
1768918112.18964,1768918112.189661,89.0,0.0,4339.615234,4327.05127,4344.615234,4341.666504,4315.641113,4316.794922,4308.846191,4334.487305,4326.794922,4321.666504,4527.820313,4539.102539,4427.307617,4479.487305,,,,,,,,,,,,,,,,,,,,,,,,,,,,,,,,,,,,,,,,,,,,,,,,,,,,,,,,,,,,,,,,,,,,,,
1768918112.197449,1768918112.197368,90.0,0.0,4336.922852,4324.230957,4343.846191,4339.615234,4306.794922,4318.077148,4306.410156,4329.615234,4320.512695,4318.205078,4522.436035,4530.897461,4426.025879,4475.512695,,,,,,,,,,,,,,,,,,,,,,,,,,,,,,,,,,,,,,,,,,,,,,,,,,,,,,,,,,,,,,,,,,,,,,
1768918112.205257,1768918112.205174,91.0,0.0,4337.563965,4327.179688,4347.94873,4345.256348,4314.102539,4328.461426,4312.307617,4336.666504,4325.512695,4319.102539,4528.974121,4532.05127,4423.333496,4476.922852,,,,,,,,,,,,,,,,,,,,,,,,,,,,,,,,,,,,,,,,,,,,,,,,,,,,,,,,,,,,,,,,,,,,,,
1768918112.213066,1768918112.213181,92.0,0.0,4341.410156,4328.461426,4350.256348,4350.897461,4321.153809,4327.05127,4322.05127,4340.769043,4323.974121,4316.282227,4533.461426,4536.153809,4426.025879,4478.717773,,,,,,,,,,,,,,,,,,,,,,,,,,,,,,,,,,,,,,,,,,,,,,,,,,,,,,,,,,,,,,,,,,,,,,
1768918112.220874,1768918112.220987,93.0,0.0,4343.333496,4329.615234,4352.94873,4346.410156,4315.512695,4320.512695,4319.102539,4331.666504,4315.0,4315.384766,4531.025879,4538.974121,4429.871582,4479.615234,,,,,,,,,,,,,,,,,,,,,,,,,,,,,,,,,,,,,,,,,,,,,,,,,,,,,,,,,,,,,,,,,,,,,,
1768918112.228683,1768918112.228894,94.0,0.0,4342.179688,4329.487305,4357.692383,4341.410156,4311.025879,4321.922852,4311.794922,4327.179688,4315.384766,4316.410156,4528.589844,4539.871582,4425.128418,4479.487305,,,,,,,,,,,,,,,,,,,,,,,,,,,,,,,,,,,,,,,,,,,,,,,,,,,,,,,,,,,,,,,,,,,,,,
1768918112.236491,1768918112.236701,95.0,0.0,4340.897461,4328.974121,4355.384766,4343.205078,4311.410156,4320.128418,4308.974121,4332.307617,4320.0,4312.563965,4523.846191,4534.102539,4414.615234,4473.333496,,,,,,,,,,,,,,,,,,,,,,,,,,,,,,,,,,,,,,,,,,,,,,,,,,,,,,,,,,,,,,,,,,,,,,
1768918112.2443,1768918112.244707,96.0,0.0,4341.922852,4335.256348,4353.589844,4347.179688,4312.05127,4315.0,4306.410156,4336.410156,4320.897461,4313.461426,4522.692383,4531.922852,4416.922852,4471.922852,0.400264,0.46783,0.171032,0.289194,0.1651,0.318801,0.273671,0.127648,0.217886,0.127827,0.182504,0.42978,0.309756,0.300786,0.139736,0.353514,0.349953,0.140623,0.227218,0.129346,0.187732,0.152535,0.070505,0.068489,0.073315,0.241387,0.14975,0.050963,0.19364,0.162942,0.576437,0.360389,0.158158,0.274422,0.429581,0.279389,0.316037,0.26501,0.370972,0.505754,0.196708,0.261372,0.116704,0.135513,0.106392,0.382398,0.267147,0.221488,0.141295,0.075794,0.435888,0.695342,0.329987,0.289794,0.160437,0.320848,0.753139,0.220031,0.514937,0.213794,0.498625,0.705207,0.306668,0.202138,0.198095,0.594077,0.601744,0.178276,0.462997,0.172297
1768918112.252108,1768918112.252514,97.0,0.0,4343.846191,4336.282227,4357.820313,4349.487305,4318.974121,4322.05127,4313.333496,4335.0,4321.153809,4318.589844,4525.641113,4537.179688,4423.077148,4476.153809,,,,,,,,,,,,,,,,,,,,,,,,,,,,,,,,,,,,,,,,,,,,,,,,,,,,,,,,,,,,,,,,,,,,,,
1768918112.259917,1768918112.260221,98.0,0.0,4341.538574,4329.743652,4360.128418,4349.358887,4327.307617,4330.384766,4322.05127,4335.512695,4323.846191,4313.974121,4524.358887,4540.769043,4414.487305,4472.307617,,,,,,,,,,,,,,,,,,,,,,,,,,,,,,,,,,,,,,,,,,,,,,,,,,,,,,,,,,,,,,,,,,,,,,
1768918112.267725,1768918112.268027,99.0,0.0,4340.641113,4332.692383,4358.717773,4346.282227,4325.641113,4325.512695,4315.256348,4337.692383,4323.846191,4308.974121,4522.563965,4540.0,4410.897461,4467.692383,,,,,,,,,,,,,,,,,,,,,,,,,,,,,,,,,,,,,,,,,,,,,,,,,,,,,,,,,,,,,,,,,,,,,,
1768918112.275534,1768918112.276033,100.0,0.0,4344.743652,4341.282227,4357.307617,4348.589844,4323.333496,4323.717773,4309.871582,4335.769043,4318.077148,4314.358887,4526.794922,4540.384766,4423.205078,4475.384766,,,,,,,,,,,,,,,,,,,,,,,,,,,,,,,,,,,,,,,,,,,,,,,,,,,,,,,,,,,,,,,,,,,,,,
1768918112.283342,1768918112.28384,101.0,0.0,4344.871582,4340.512695,4356.153809,4354.615234,4326.410156,4326.922852,4313.846191,4326.282227,4309.615234,4313.717773,4526.025879,4538.974121,4429.871582,4479.743652,,,,,,,,,,,,,,,,,,,,,,,,,,,,,,,,,,,,,,,,,,,,,,,,,,,,,,,,,,,,,,,,,,,,,,
1768918112.291151,1768918112.291547,102.0,0.0,4343.846191,4338.846191,4357.179688,4351.666504,4325.897461,4320.128418,4311.666504,4321.538574,4307.436035,4309.230957,4523.717773,4535.641113,4427.179688,4477.307617,,,,,,,,,,,,,,,,,,,,,,,,,,,,,,,,,,,,,,,,,,,,,,,,,,,,,,,,,,,,,,,,,,,,,,
1768918112.298959,1768918112.299353,103.0,0.0,4349.487305,4341.922852,4363.461426,4348.589844,4324.743652,4318.717773,4307.692383,4327.307617,4310.769043,4311.666504,4531.922852,4538.205078,4428.461426,4481.922852,,,,,,,,,,,,,,,,,,,,,,,,,,,,,,,,,,,,,,,,,,,,,,,,,,,,,,,,,,,,,,,,,,,,,,
1768918112.306768,1768918112.30726,104.0,0.0,4349.871582,4342.179688,4366.538574,4353.077148,4327.94873,4329.358887,4312.05127,4332.05127,4312.179688,4314.102539,4537.179688,4541.410156,4431.282227,4486.410156,,,,,,,,,,,,,,,,,,,,,,,,,,,,,,,,,,,,,,,,,,,,,,,,,,,,,,,,,,,,,,,,,,,,,,
1768918112.314576,1768918112.315067,105.0,0.0,4343.589844,4339.743652,4359.615234,4352.05127,4327.820313,4328.846191,4314.615234,4333.077148,4311.538574,4311.922852,4527.307617,4540.256348,4426.538574,4479.230957,,,,,,,,,,,,,,,,,,,,,,,,,,,,,,,,,,,,,,,,,,,,,,,,,,,,,,,,,,,,,,,,,,,,,,
1768918112.322385,1768918112.322774,106.0,0.0,4341.282227,4336.282227,4352.94873,4343.461426,4324.487305,4316.666504,4308.846191,4327.563965,4308.974121,4308.589844,4520.256348,4533.077148,4418.205078,4467.94873,,,,,,,,,,,,,,,,,,,,,,,,,,,,,,,,,,,,,,,,,,,,,,,,,,,,,,,,,,,,,,,,,,,,,,
1768918112.330193,1768918112.33058,107.0,0.0,4341.282227,4334.358887,4352.179688,4341.666504,4324.487305,4310.769043,4301.153809,4325.512695,4310.128418,4309.743652,4525.512695,4532.94873,4415.128418,4469.743652,,,,,,,,,,,,,,,,,,,,,,,,,,,,,,,,,,,,,,,,,,,,,,,,,,,,,,,,,,,,,,,,,,,,,,
1768918112.338002,1768918112.338587,108.0,0.0,4340.769043,4334.615234,4350.641113,4345.128418,4324.743652,4311.794922,4301.025879,4332.179688,4313.077148,4311.410156,4526.794922,4537.94873,4416.025879,4475.384766,,,,,,,,,,,,,,,,,,,,,,,,,,,,,,,,,,,,,,,,,,,,,,,,,,,,,,,,,,,,,,,,,,,,,,
1768918112.34581,1768918112.346395,109.0,0.0,4341.025879,4334.871582,4350.0,4346.666504,4324.871582,4316.025879,4309.102539,4332.436035,4311.025879,4309.871582,4522.820313,4532.05127,4413.589844,4468.717773,,,,,,,,,,,,,,,,,,,,,,,,,,,,,,,,,,,,,,,,,,,,,,,,,,,,,,,,,,,,,,,,,,,,,,
1768918112.353619,1768918112.354302,110.0,0.0,4337.94873,4336.794922,4352.307617,4350.0,4326.153809,4318.846191,4312.94873,4326.794922,4308.461426,4308.205078,4523.974121,4524.743652,4410.769043,4463.846191,,,,,,,,,,,,,,,,,,,,,,,,,,,,,,,,,,,,,,,,,,,,,,,,,,,,,,,,,,,,,,,,,,,,,,
1768918112.361427,1768918112.362109,111.0,0.0,4337.05127,4339.871582,4350.897461,4349.230957,4323.846191,4317.563965,4310.0,4329.615234,4308.717773,4309.487305,4525.897461,4529.487305,4416.666504,4472.05127,,,,,,,,,,,,,,,,,,,,,,,,,,,,,,,,,,,,,,,,,,,,,,,,,,,,,,,,,,,,,,,,,,,,,,
1768918112.369236,1768918112.369715,112.0,0.0,4341.666504,4339.102539,4351.410156,4343.974121,4319.615234,4322.563965,4314.230957,4334.871582,4312.05127,4312.179688,4525.769043,4541.282227,4427.05127,4479.743652,0.45591,0.53845,0.133875,0.268076,0.191155,0.323319,0.283361,0.120829,0.187174,0.139236,0.218918,0.518642,0.252934,0.267533,0.161728,0.265197,0.321337,0.126441,0.209242,0.141443,0.159741,0.128155,0.062782,0.067202,0.069497,0.199894,0.146863,0.063557,0.197425,0.161521,0.49821,0.360284,0.157331,0.284585,0.433386,0.33788,0.368021,0.243251,0.360576,0.487476,0.214626,0.316498,0.095824,0.135335,0.107776,0.428238,0.341061,0.213654,0.165473,0.075751,0.460394,0.766106,0.298979,0.269472,0.167954,0.31662,0.846598,0.160422,0.493335,0.19936,0.473851,0.773221,0.268262,0.211117,0.19011,0.575595,0.732819,0.130252,0.429722,0.170067
1768918112.377044,1768918112.377522,113.0,0.0,4342.05127,4333.461426,4352.563965,4343.077148,4321.538574,4326.794922,4319.230957,4329.615234,4311.410156,4311.538574,4526.025879,4539.230957,4426.282227,4475.897461,,,,,,,,,,,,,,,,,,,,,,,,,,,,,,,,,,,,,,,,,,,,,,,,,,,,,,,,,,,,,,,,,,,,,,
1768918112.384853,1768918112.385228,114.0,0.0,4337.94873,4333.717773,4350.641113,4346.666504,4321.538574,4319.102539,4312.94873,4326.666504,4305.897461,4308.077148,4525.897461,4526.282227,4414.615234,4470.641113,,,,,,,,,,,,,,,,,,,,,,,,,,,,,,,,,,,,,,,,,,,,,,,,,,,,,,,,,,,,,,,,,,,,,,
1768918112.392661,1768918112.393034,115.0,0.0,4339.487305,4336.153809,4353.589844,4348.333496,4313.333496,4317.436035,4305.897461,4327.436035,4307.05127,4306.153809,4524.102539,4527.94873,4409.743652,4471.282227,,,,,,,,,,,,,,,,,,,,,,,,,,,,,,,,,,,,,,,,,,,,,,,,,,,,,,,,,,,,,,,,,,,,,,
1768918112.40047,1768918112.400641,116.0,0.0,4338.589844,4330.641113,4356.410156,4346.282227,4310.256348,4324.743652,4312.436035,4326.025879,4310.769043,4307.692383,4522.436035,4536.794922,4412.307617,4472.692383,,,,,,,,,,,,,,,,,,,,,,,,,,,,,,,,,,,,,,,,,,,,,,,,,,,,,,,,,,,,,,,,,,,,,,
1768918112.408278,1768918112.408447,117.0,0.0,4328.333496,4324.230957,4348.589844,4342.563965,4313.205078,4318.846191,4311.922852,4326.025879,4307.820313,4309.615234,4522.692383,4530.897461,4410.384766,4465.897461,,,,,,,,,,,,,,,,,,,,,,,,,,,,,,,,,,,,,,,,,,,,,,,,,,,,,,,,,,,,,,,,,,,,,,
1768918112.416087,1768918112.416354,118.0,0.0,4323.974121,4325.641113,4339.102539,4340.0,4311.025879,4307.692383,4295.384766,4327.820313,4308.589844,4311.025879,4523.461426,4521.794922,4410.897461,4458.461426,,,,,,,,,,,,,,,,,,,,,,,,,,,,,,,,,,,,,,,,,,,,,,,,,,,,,,,,,,,,,,,,,,,,,,
1768918112.423895,1768918112.424161,119.0,0.0,4327.692383,4326.538574,4339.358887,4339.230957,4307.179688,4308.333496,4295.256348,4323.846191,4309.358887,4308.589844,4521.666504,4522.05127,4411.410156,4458.717773,,,,,,,,,,,,,,,,,,,,,,,,,,,,,,,,,,,,,,,,,,,,,,,,,,,,,,,,,,,,,,,,,,,,,,
1768918112.431704,1768918112.432167,120.0,0.0,4328.589844,4323.333496,4344.102539,4342.05127,4308.077148,4311.922852,4303.717773,4314.871582,4302.05127,4302.307617,4518.589844,4519.615234,4406.538574,4458.461426,,,,,,,,,,,,,,,,,,,,,,,,,,,,,,,,,,,,,,,,,,,,,,,,,,,,,,,,,,,,,,,,,,,,,,
1768918112.439512,1768918112.439974,121.0,0.0,4331.538574,4328.077148,4350.384766,4347.436035,4311.153809,4310.128418,4298.846191,4315.641113,4302.436035,4304.743652,4521.922852,4526.025879,4408.461426,4463.077148,,,,,,,,,,,,,,,,,,,,,,,,,,,,,,,,,,,,,,,,,,,,,,,,,,,,,,,,,,,,,,,,,,,,,,
1768918112.447321,1768918112.447881,122.0,0.0,4338.461426,4338.717773,4357.307617,4350.769043,4311.282227,4312.436035,4299.487305,4325.0,4312.05127,4313.077148,4528.461426,4540.512695,4415.256348,4472.563965,,,,,,,,,,,,,,,,,,,,,,,,,,,,,,,,,,,,,,,,,,,,,,,,,,,,,,,,,,,,,,,,,,,,,,
1768918112.455129,1768918112.455687,123.0,0.0,4341.153809,4343.333496,4360.128418,4352.307617,4309.487305,4316.282227,4309.230957,4329.102539,4312.179688,4312.436035,4527.436035,4539.743652,4415.128418,4473.974121,,,,,,,,,,,,,,,,,,,,,,,,,,,,,,,,,,,,,,,,,,,,,,,,,,,,,,,,,,,,,,,,,,,,,,
1768918112.462938,1768918112.463694,124.0,0.0,4340.769043,4341.666504,4360.128418,4352.94873,4314.230957,4317.179688,4311.794922,4327.820313,4307.820313,4310.256348,4527.436035,4536.282227,4418.077148,4472.692383,,,,,,,,,,,,,,,,,,,,,,,,,,,,,,,,,,,,,,,,,,,,,,,,,,,,,,,,,,,,,,,,,,,,,,
1768918112.470746,1768918112.471501,125.0,0.0,4342.692383,4340.897461,4358.717773,4352.05127,4320.897461,4320.641113,4312.179688,4325.897461,4309.358887,4315.384766,4535.128418,4542.179688,4427.179688,4478.589844,,,,,,,,,,,,,,,,,,,,,,,,,,,,,,,,,,,,,,,,,,,,,,,,,,,,,,,,,,,,,,,,,,,,,,
1768918112.478555,1768918112.479208,126.0,0.0,4344.358887,4342.436035,4357.820313,4351.794922,4317.179688,4319.102539,4312.179688,4322.307617,4309.615234,4316.538574,4531.922852,4541.666504,4423.974121,4480.897461,,,,,,,,,,,,,,,,,,,,,,,,,,,,,,,,,,,,,,,,,,,,,,,,,,,,,,,,,,,,,,,,,,,,,,
1768918112.486363,1768918112.487014,127.0,0.0,4342.94873,4338.589844,4358.974121,4350.641113,4310.0,4311.538574,4307.436035,4321.794922,4308.717773,4310.769043,4523.589844,4538.205078,4413.461426,4475.641113,,,,,,,,,,,,,,,,,,,,,,,,,,,,,,,,,,,,,,,,,,,,,,,,,,,,,,,,,,,,,,,,,,,,,,
1768918112.494172,1768918112.494621,0.0,0.0,4342.179688,4333.717773,4359.615234,4348.461426,4311.025879,4309.487305,4308.205078,4328.461426,4310.0,4310.897461,4532.436035,4547.94873,4418.205078,4480.897461,0.562237,0.604583,0.109382,0.251309,0.226823,0.365293,0.288623,0.11986,0.161925,0.153425,0.31288,0.643569,0.205621,0.232446,0.197614,0.260395,0.308423,0.114545,0.19529,0.159106,0.16044,0.114679,0.055784,0.070156,0.073915,0.167469,0.154453,0.081342,0.20519,0.15719,0.409668,0.391596,0.155055,0.29421,0.419412,0.371352,0.420492,0.242411,0.338543,0.442468,0.24545,0.375371,0.082219,0.137374,0.106251,0.487077,0.408959,0.202469,0.194803,0.080469,0.537871,0.838282,0.261419,0.256381,0.180411,0.364029,0.96756,0.113837,0.482663,0.198184,0.48696,0.798495,0.233042,0.226913,0.186759,0.591048,0.858373,0.094088,0.404953,0.175096
1768918112.50198,1768918112.502428,1.0,0.0,4344.230957,4337.05127,4359.487305,4354.230957,4313.077148,4313.974121,4311.153809,4331.282227,4310.641113,4316.538574,4542.179688,4554.487305,4429.743652,4490.384766,,,,,,,,,,,,,,,,,,,,,,,,,,,,,,,,,,,,,,,,,,,,,,,,,,,,,,,,,,,,,,,,,,,,,,
1768918112.509789,1768918112.510134,2.0,0.0,4344.102539,4338.589844,4357.179688,4358.077148,4309.487305,4313.077148,4309.230957,4328.974121,4310.512695,4316.410156,4537.692383,4545.128418,4427.563965,4484.358887,,,,,,,,,,,,,,,,,,,,,,,,,,,,,,,,,,,,,,,,,,,,,,,,,,,,,,,,,,,,,,,,,,,,,,
1768918112.517597,1768918112.517941,3.0,0.0,4339.230957,4329.871582,4352.94873,4347.307617,4308.077148,4309.487305,4308.974121,4328.077148,4309.871582,4310.641113,4531.666504,4534.871582,4414.487305,4472.05127,,,,,,,,,,,,,,,,,,,,,,,,,,,,,,,,,,,,,,,,,,,,,,,,,,,,,,,,,,,,,,,,,,,,,,
1768918112.525406,1768918112.525548,4.0,0.0,4333.717773,4325.256348,4348.846191,4339.230957,4310.641113,4314.358887,4308.077148,4330.897461,4310.769043,4310.512695,4530.897461,4541.282227,4411.922852,4473.077148,,,,,,,,,,,,,,,,,,,,,,,,,,,,,,,,,,,,,,,,,,,,,,,,,,,,,,,,,,,,,,,,,,,,,,
1768918112.533214,1768918112.533354,5.0,0.0,4330.256348,4329.230957,4345.512695,4341.282227,4312.179688,4320.897461,4309.358887,4329.230957,4311.666504,4311.410156,4528.974121,4544.102539,4416.153809,4472.94873,,,,,,,,,,,,,,,,,,,,,,,,,,,,,,,,,,,,,,,,,,,,,,,,,,,,,,,,,,,,,,,,,,,,,,
1768918112.541023,1768918112.541261,6.0,0.0,4325.0,4325.128418,4339.102539,4338.717773,4310.641113,4321.153809,4312.692383,4324.102539,4309.871582,4302.692383,4516.922852,4527.436035,4403.717773,4459.615234,,,,,,,,,,,,,,,,,,,,,,,,,,,,,,,,,,,,,,,,,,,,,,,,,,,,,,,,,,,,,,,,,,,,,,
1768918112.548831,1768918112.549068,7.0,0.0,4320.641113,4317.05127,4336.282227,4334.743652,4307.563965,4316.410156,4310.256348,4328.077148,4307.436035,4297.692383,4509.615234,4520.897461,4391.410156,4455.769043,,,,,,,,,,,,,,,,,,,,,,,,,,,,,,,,,,,,,,,,,,,,,,,,,,,,,,,,,,,,,,,,,,,,,,
1768918112.55664,1768918112.557075,8.0,0.0,4326.922852,4325.128418,4346.153809,4343.205078,4310.384766,4320.0,4314.743652,4337.436035,4313.461426,4312.820313,4527.820313,4536.922852,4410.0,4468.717773,,,,,,,,,,,,,,,,,,,,,,,,,,,,,,,,,,,,,,,,,,,,,,,,,,,,,,,,,,,,,,,,,,,,,,
1768918112.564448,1768918112.564882,9.0,0.0,4339.358887,4337.692383,4353.846191,4353.333496,4317.179688,4323.846191,4323.077148,4338.846191,4325.128418,4325.128418,4543.461426,4546.922852,4431.410156,4480.0,,,,,,,,,,,,,,,,,,,,,,,,,,,,,,,,,,,,,,,,,,,,,,,,,,,,,,,,,,,,,,,,,,,,,,
1768918112.572257,1768918112.572588,10.0,0.0,4338.333496,4336.153809,4346.282227,4349.230957,4315.0,4317.05127,4315.128418,4332.94873,4322.307617,4315.384766,4529.102539,4535.256348,4420.897461,4476.794922,,,,,,,,,,,,,,,,,,,,,,,,,,,,,,,,,,,,,,,,,,,,,,,,,,,,,,,,,,,,,,,,,,,,,,
1768918112.580065,1768918112.580395,11.0,0.0,4324.871582,4326.410156,4338.974121,4338.846191,4309.487305,4315.0,4312.307617,4330.897461,4311.410156,4306.153809,4518.717773,4528.333496,4407.94873,4467.05127,,,,,,,,,,,,,,,,,,,,,,,,,,,,,,,,,,,,,,,,,,,,,,,,,,,,,,,,,,,,,,,,,,,,,,
1768918112.587874,1768918112.588001,12.0,0.0,4322.563965,4322.05127,4346.538574,4337.563965,4315.897461,4322.563965,4323.589844,4336.282227,4315.384766,4312.307617,4529.358887,4538.974121,4412.94873,4465.512695,,,,,,,,,,,,,,,,,,,,,,,,,,,,,,,,,,,,,,,,,,,,,,,,,,,,,,,,,,,,,,,,,,,,,,
1768918112.595682,1768918112.595807,13.0,0.0,4331.153809,4330.0,4354.358887,4345.256348,4319.487305,4325.384766,4322.563965,4335.0,4321.153809,4312.563965,4529.487305,4536.666504,4413.333496,4463.461426,,,,,,,,,,,,,,,,,,,,,,,,,,,,,,,,,,,,,,,,,,,,,,,,,,,,,,,,,,,,,,,,,,,,,,
1768918112.60349,1768918112.603514,14.0,0.0,4336.282227,4337.94873,4352.563965,4346.282227,4312.05127,4318.077148,4311.666504,4327.05127,4313.461426,4305.128418,4520.128418,4523.974121,4408.974121,4460.769043,,,,,,,,,,,,,,,,,,,,,,,,,,,,,,,,,,,,,,,,,,,,,,,,,,,,,,,,,,,,,,,,,,,,,,
1768918112.611299,1768918112.61132,15.0,0.0,4335.897461,4331.794922,4349.358887,4340.641113,4307.820313,4310.512695,4304.743652,4325.769043,4309.358887,4306.410156,4521.153809,4525.897461,4411.922852,4468.461426,,,,,,,,,,,,,,,,,,,,,,,,,,,,,,,,,,,,,,,,,,,,,,,,,,,,,,,,,,,,,,,,,,,,,,
1768918112.619108,1768918112.619327,16.0,0.0,4336.025879,4327.692383,4349.871582,4342.179688,4311.794922,4308.077148,4300.512695,4325.384766,4312.179688,4310.769043,4522.307617,4532.436035,4414.487305,4473.461426,0.702511,0.660376,0.100312,0.24466,0.264685,0.471677,0.289103,0.125615,0.146526,0.167168,0.457833,0.787099,0.174659,0.203076,0.238678,0.328159,0.308685,0.104906,0.189345,0.179184,0.210674,0.109925,0.051458,0.079861,0.085071,0.148724,0.174163,0.103283,0.215181,0.149933,0.332181,0.451264,0.150729,0.300565,0.384034,0.37175,0.458963,0.250524,0.310943,0.383931,0.281447,0.425507,0.082944,0.142588,0.102579,0.537066,0.448797,0.187083,0.221923,0.08863,0.637252,0.888281,0.224112,0.255708,0.197958,0.452405,1.084599,0.085202,0.490234,0.213835,0.535215,0.77981,0.207014,0.242014,0.188695,0.621531,0.952324,0.08123,0.388676,0.187524
1768918112.626916,1768918112.627133,17.0,0.0,4336.666504,4334.487305,4352.692383,4350.512695,4316.922852,4310.0,4306.025879,4319.358887,4307.94873,4302.820313,4513.077148,4524.102539,4409.487305,4463.974121,,,,,,,,,,,,,,,,,,,,,,,,,,,,,,,,,,,,,,,,,,,,,,,,,,,,,,,,,,,,,,,,,,,,,,
1768918112.634725,1768918112.63504,18.0,0.0,4334.358887,4336.153809,4349.358887,4351.922852,4320.128418,4312.563965,4312.94873,4319.358887,4304.487305,4295.512695,4506.410156,4517.94873,4405.641113,4457.820313,,,,,,,,,,,,,,,,,,,,,,,,,,,,,,,,,,,,,,,,,,,,,,,,,,,,,,,,,,,,,,,,,,,,,,
1768918112.642533,1768918112.642847,19.0,0.0,4328.333496,4329.743652,4342.436035,4344.487305,4320.384766,4312.05127,4308.461426,4327.820313,4308.846191,4302.94873,4509.358887,4522.94873,4405.128418,4463.077148,,,,,,,,,,,,,,,,,,,,,,,,,,,,,,,,,,,,,,,,,,,,,,,,,,,,,,,,,,,,,,,,,,,,,,
1768918112.650342,1768918112.650853,20.0,0.0,4325.384766,4327.05127,4345.128418,4341.025879,4319.102539,4312.179688,4307.307617,4328.846191,4311.538574,4307.692383,4511.025879,4524.102539,4403.461426,4461.410156,,,,,,,,,,,,,,,,,,,,,,,,,,,,,,,,,,,,,,,,,,,,,,,,,,,,,,,,,,,,,,,,,,,,,,
1768918112.65815,1768918112.65866,21.0,0.0,4332.179688,4326.922852,4351.153809,4343.846191,4320.256348,4311.153809,4311.025879,4326.025879,4310.897461,4301.153809,4510.512695,4522.692383,4398.461426,4457.05127,,,,,,,,,,,,,,,,,,,,,,,,,,,,,,,,,,,,,,,,,,,,,,,,,,,,,,,,,,,,,,,,,,,,,,
1768918112.665959,1768918112.666367,22.0,0.0,4335.897461,4325.128418,4346.282227,4343.974121,4319.487305,4310.641113,4307.692383,4325.0,4308.333496,4296.025879,4510.769043,4521.282227,4396.666504,4460.256348,,,,,,,,,,,,,,,,,,,,,,,,,,,,,,,,,,,,,,,,,,,,,,,,,,,,,,,,,,,,,,,,,,,,,,
1768918112.673767,1768918112.674173,23.0,0.0,4330.384766,4322.692383,4340.256348,4340.897461,4315.256348,4313.333496,4309.615234,4323.205078,4305.512695,4294.487305,4507.436035,4520.128418,4396.538574,4460.512695,,,,,,,,,,,,,,,,,,,,,,,,,,,,,,,,,,,,,,,,,,,,,,,,,,,,,,,,,,,,,,,,,,,,,,
1768918112.681575,1768918112.68178,24.0,0.0,4326.410156,4321.538574,4342.179688,4341.153809,4311.794922,4313.846191,4315.384766,4327.05127,4307.307617,4292.94873,4505.641113,4522.307617,4391.410156,4455.128418,,,,,,,,,,,,,,,,,,,,,,,,,,,,,,,,,,,,,,,,,,,,,,,,,,,,,,,,,,,,,,,,,,,,,,
1768918112.689384,1768918112.689587,25.0,0.0,4324.743652,4320.641113,4341.666504,4340.769043,4310.256348,4310.128418,4311.666504,4334.358887,4311.538574,4295.128418,4508.333496,4522.436035,4389.871582,4452.307617,,,,,,,,,,,,,,,,,,,,,,,,,,,,,,,,,,,,,,,,,,,,,,,,,,,,,,,,,,,,,,,,,,,,,,
1768918112.697193,1768918112.697293,26.0,0.0,4326.922852,4318.461426,4342.436035,4342.563965,4313.717773,4311.922852,4313.333496,4333.077148,4311.538574,4297.05127,4508.205078,4522.436035,4394.743652,4456.666504,,,,,,,,,,,,,,,,,,,,,,,,,,,,,,,,,,,,,,,,,,,,,,,,,,,,,,,,,,,,,,,,,,,,,,
1768918112.705001,1768918112.7051,27.0,0.0,4335.384766,4320.256348,4348.077148,4348.205078,4317.436035,4324.358887,4322.692383,4329.358887,4309.871582,4294.358887,4506.666504,4524.358887,4397.307617,4460.0,,,,,,,,,,,,,,,,,,,,,,,,,,,,,,,,,,,,,,,,,,,,,,,,,,,,,,,,,,,,,,,,,,,,,,
1768918112.712809,1768918112.712707,28.0,0.0,4338.205078,4324.615234,4350.384766,4347.94873,4320.0,4327.94873,4320.0,4333.205078,4311.794922,4296.282227,4509.358887,4525.128418,4396.922852,4457.563965,,,,,,,,,,,,,,,,,,,,,,,,,,,,,,,,,,,,,,,,,,,,,,,,,,,,,,,,,,,,,,,,,,,,,,
1768918112.720618,1768918112.720513,29.0,0.0,4333.589844,4322.94873,4350.641113,4347.05127,4321.153809,4315.128418,4310.384766,4336.282227,4313.205078,4298.589844,4510.897461,4522.94873,4397.94873,4454.871582,,,,,,,,,,,,,,,,,,,,,,,,,,,,,,,,,,,,,,,,,,,,,,,,,,,,,,,,,,,,,,,,,,,,,,
1768918112.728427,1768918112.72822,30.0,0.0,4332.05127,4318.846191,4350.128418,4351.794922,4316.410156,4308.077148,4310.512695,4328.974121,4311.666504,4295.641113,4508.974121,4521.922852,4398.077148,4457.05127,,,,,,,,,,,,,,,,,,,,,,,,,,,,,,,,,,,,,,,,,,,,,,,,,,,,,,,,,,,,,,,,,,,,,,
1768918112.736235,1768918112.736026,31.0,0.0,4330.641113,4318.846191,4349.102539,4352.179688,4309.871582,4315.256348,4312.94873,4323.077148,4308.846191,4293.974121,4507.94873,4524.358887,4396.794922,4458.589844,,,,,,,,,,,,,,,,,,,,,,,,,,,,,,,,,,,,,,,,,,,,,,,,,,,,,,,,,,,,,,,,,,,,,,
1768918112.744043,1768918112.744033,32.0,0.0,4327.563965,4322.563965,4348.461426,4350.0,4310.384766,4320.769043,4311.794922,4326.153809,4309.102539,4294.358887,4506.794922,4522.563965,4396.410156,4456.153809,0.848654,0.699235,0.107892,0.246801,0.293293,0.648755,0.292292,0.137427,0.140467,0.176636,0.634022,0.919484,0.165421,0.184117,0.271293,0.440372,0.315861,0.098231,0.190133,0.195365,0.325836,0.114819,0.050669,0.095671,0.098898,0.146704,0.206276,0.129663,0.224617,0.141897,0.276661,0.52382,0.145883,0.302017,0.332731,0.341497,0.469358,0.252004,0.284215,0.325311,0.314007,0.452333,0.098274,0.14859,0.098749,0.560167,0.447014,0.164538,0.237986,0.098852,0.726861,0.890765,0.190384,0.263923,0.218964,0.570252,1.154445,0.071245,0.509491,0.244216,0.608197,0.737852,0.197868,0.250467,0.195108,0.651605,0.999023,0.09692,0.374907,0.205033
1768918112.751852,1768918112.75184,33.0,0.0,4327.692383,4322.307617,4346.025879,4349.871582,4313.846191,4320.641113,4313.589844,4327.05127,4311.410156,4294.102539,4506.025879,4515.769043,4395.256348,4453.717773,,,,,,,,,,,,,,,,,,,,,,,,,,,,,,,,,,,,,,,,,,,,,,,,,,,,,,,,,,,,,,,,,,,,,,
1768918112.75966,1768918112.759748,34.0,0.0,4324.358887,4318.461426,4340.384766,4343.589844,4311.025879,4319.743652,4310.641113,4324.487305,4310.128418,4293.717773,4506.282227,4514.743652,4394.615234,4450.512695,,,,,,,,,,,,,,,,,,,,,,,,,,,,,,,,,,,,,,,,,,,,,,,,,,,,,,,,,,,,,,,,,,,,,,
1768918112.767469,1768918112.767555,35.0,0.0,4320.128418,4317.94873,4338.846191,4338.077148,4306.922852,4317.307617,4306.025879,4327.94873,4309.871582,4294.230957,4506.282227,4520.769043,4395.769043,4449.743652,,,,,,,,,,,,,,,,,,,,,,,,,,,,,,,,,,,,,,,,,,,,,,,,,,,,,,,,,,,,,,,,,,,,,,
1768918112.775278,1768918112.775562,36.0,0.0,4323.974121,4322.563965,4345.384766,4342.436035,4311.282227,4319.487305,4315.512695,4335.384766,4315.641113,4295.897461,4508.846191,4525.256348,4401.794922,4455.769043,,,,,,,,,,,,,,,,,,,,,,,,,,,,,,,,,,,,,,,,,,,,,,,,,,,,,,,,,,,,,,,,,,,,,,
1768918112.783086,1768918112.783368,37.0,0.0,4327.436035,4325.897461,4351.153809,4343.333496,4320.256348,4321.410156,4321.922852,4333.461426,4316.282227,4295.128418,4509.615234,4523.846191,4407.179688,4459.615234,,,,,,,,,,,,,,,,,,,,,,,,,,,,,,,,,,,,,,,,,,,,,,,,,,,,,,,,,,,,,,,,,,,,,,
1768918112.790894,1768918112.791075,38.0,0.0,4327.692383,4325.769043,4351.538574,4340.0,4319.615234,4312.820313,4310.0,4327.563965,4312.179688,4293.589844,4506.922852,4522.94873,4408.077148,4458.461426,,,,,,,,,,,,,,,,,,,,,,,,,,,,,,,,,,,,,,,,,,,,,,,,,,,,,,,,,,,,,,,,,,,,,,
1768918112.798703,1768918112.798881,39.0,0.0,4332.436035,4326.282227,4350.512695,4341.153809,4311.794922,4304.871582,4301.794922,4329.871582,4315.512695,4296.794922,4515.641113,4528.333496,4412.05127,4463.717773,,,,,,,,,,,,,,,,,,,,,,,,,,,,,,,,,,,,,,,,,,,,,,,,,,,,,,,,,,,,,,,,,,,,,,
1768918112.806512,1768918112.806888,40.0,0.0,4337.820313,4327.820313,4350.641113,4343.333496,4310.384766,4310.256348,4310.128418,4332.05127,4320.128418,4298.589844,4524.230957,4531.153809,4416.025879,4468.333496,,,,,,,,,,,,,,,,,,,,,,,,,,,,,,,,,,,,,,,,,,,,,,,,,,,,,,,,,,,,,,,,,,,,,,
1768918112.81432,1768918112.814694,41.0,0.0,4332.94873,4325.0,4347.692383,4341.538574,4312.563965,4316.922852,4315.384766,4327.179688,4317.563965,4295.0,4513.717773,4525.0,4411.282227,4462.307617,,,,,,,,,,,,,,,,,,,,,,,,,,,,,,,,,,,,,,,,,,,,,,,,,,,,,,,,,,,,,,,,,,,,,,
1768918112.822128,1768918112.822601,42.0,0.0,4326.538574,4321.538574,4349.230957,4340.512695,4312.436035,4312.563965,4307.307617,4325.0,4315.769043,4297.179688,4510.641113,4522.307617,4407.436035,4459.743652,,,,,,,,,,,,,,,,,,,,,,,,,,,,,,,,,,,,,,,,,,,,,,,,,,,,,,,,,,,,,,,,,,,,,,
1768918112.829937,1768918112.830408,43.0,0.0,4330.0,4326.282227,4356.666504,4343.974121,4311.410156,4307.179688,4301.794922,4327.692383,4318.589844,4302.05127,4520.897461,4526.410156,4411.666504,4465.128418,,,,,,,,,,,,,,,,,,,,,,,,,,,,,,,,,,,,,,,,,,,,,,,,,,,,,,,,,,,,,,,,,,,,,,
1768918112.837745,1768918112.838414,44.0,0.0,4330.0,4328.205078,4351.282227,4344.743652,4314.230957,4309.230957,4306.282227,4324.358887,4316.666504,4297.820313,4515.769043,4525.256348,4413.333496,4465.512695,,,,,,,,,,,,,,,,,,,,,,,,,,,,,,,,,,,,,,,,,,,,,,,,,,,,,,,,,,,,,,,,,,,,,,
1768918112.845554,1768918112.846221,45.0,0.0,4322.820313,4322.436035,4340.256348,4341.410156,4316.282227,4312.307617,4310.0,4325.0,4312.692383,4293.077148,4504.871582,4521.410156,4407.179688,4460.512695,,,,,,,,,,,,,,,,,,,,,,,,,,,,,,,,,,,,,,,,,,,,,,,,,,,,,,,,,,,,,,,,,,,,,,
1768918112.853362,1768918112.853928,46.0,0.0,4322.692383,4321.666504,4342.179688,4339.871582,4314.743652,4313.205078,4310.128418,4331.282227,4312.692383,4295.769043,4510.256348,4524.615234,4402.692383,4462.692383,,,,,,,,,,,,,,,,,,,,,,,,,,,,,,,,,,,,,,,,,,,,,,,,,,,,,,,,,,,,,,,,,,,,,,
1768918112.861171,1768918112.861735,47.0,0.0,4327.563965,4325.641113,4345.512695,4341.666504,4313.974121,4316.282227,4313.077148,4326.410156,4311.153809,4296.153809,4512.436035,4526.282227,4402.94873,4464.743652,,,,,,,,,,,,,,,,,,,,,,,,,,,,,,,,,,,,,,,,,,,,,,,,,,,,,,,,,,,,,,,,,,,,,,
1768918112.868979,1768918112.869742,48.0,0.0,4326.025879,4328.717773,4342.563965,4342.179688,4320.256348,4322.307617,4316.538574,4323.333496,4311.922852,4293.717773,4507.820313,4522.307617,4405.0,4461.538574,0.970412,0.713161,0.12894,0.251657,0.302235,0.874801,0.308207,0.15268,0.139249,0.179805,0.812707,1.00565,0.176643,0.175701,0.283298,0.555974,0.322547,0.094549,0.193228,0.201761,0.49138,0.128899,0.05326,0.113679,0.110501,0.16233,0.249297,0.15958,0.230354,0.136552,0.249446,0.594697,0.140981,0.298406,0.278043,0.299278,0.446291,0.239232,0.261969,0.275088,0.332821,0.446913,0.122058,0.150744,0.096524,0.551828,0.404545,0.135909,0.238167,0.10995,0.780305,0.832835,0.163678,0.272836,0.239559,0.70134,1.144103,0.068159,0.522883,0.281939,0.689195,0.701561,0.211906,0.250939,0.205117,0.680669,0.998394,0.139547,0.356496,0.222586
1768918112.876788,1768918112.877549,49.0,0.0,4326.922852,4333.461426,4345.0,4342.05127,4326.025879,4321.922852,4311.153809,4329.358887,4317.94873,4297.820313,4513.717773,4524.102539,4407.179688,4463.205078,,,,,,,,,,,,,,,,,,,,,,,,,,,,,,,,,,,,,,,,,,,,,,,,,,,,,,,,,,,,,,,,,,,,,,
1768918112.884596,1768918112.885256,50.0,0.0,4334.487305,4338.846191,4350.897461,4347.563965,4323.717773,4317.820313,4310.384766,4329.230957,4318.205078,4306.025879,4522.94873,4535.256348,4411.666504,4472.563965,,,,,,,,,,,,,,,,,,,,,,,,,,,,,,,,,,,,,,,,,,,,,,,,,,,,,,,,,,,,,,,,,,,,,,
1768918112.892405,1768918112.893062,51.0,0.0,4337.307617,4335.769043,4351.794922,4350.0,4320.512695,4323.077148,4321.153809,4327.05127,4312.05127,4304.230957,4524.871582,4537.563965,4416.282227,4479.230957,,,,,,,,,,,,,,,,,,,,,,,,,,,,,,,,,,,,,,,,,,,,,,,,,,,,,,,,,,,,,,,,,,,,,,
1768918112.900213,1768918112.900669,52.0,0.0,4333.077148,4330.128418,4348.717773,4343.717773,4319.358887,4325.256348,4319.743652,4329.230957,4311.282227,4297.436035,4518.717773,4524.230957,4410.512695,4470.512695,,,,,,,,,,,,,,,,,,,,,,,,,,,,,,,,,,,,,,,,,,,,,,,,,,,,,,,,,,,,,,,,,,,,,,
1768918112.908022,1768918112.908476,53.0,0.0,4333.333496,4332.436035,4349.358887,4341.282227,4317.05127,4315.256348,4309.358887,4327.563965,4313.717773,4299.743652,4515.897461,4519.615234,4407.563965,4462.563965,,,,,,,,,,,,,,,,,,,,,,,,,,,,,,,,,,,,,,,,,,,,,,,,,,,,,,,,,,,,,,,,,,,,,,
1768918112.91583,1768918112.916182,54.0,0.0,4337.820313,4335.897461,4354.871582,4344.871582,4313.333496,4310.384766,4309.743652,4323.333496,4312.179688,4302.436035,4519.487305,4525.384766,4412.692383,4467.563965,,,,,,,,,,,,,,,,,,,,,,,,,,,,,,,,,,,,,,,,,,,,,,,,,,,,,,,,,,,,,,,,,,,,,,
1768918112.923639,1768918112.923989,55.0,0.0,4335.0,4334.615234,4354.743652,4343.205078,4309.358887,4310.897461,4312.179688,4324.358887,4310.897461,4300.256348,4521.794922,4525.0,4412.94873,4474.487305,,,,,,,,,,,,,,,,,,,,,,,,,,,,,,,,,,,,,,,,,,,,,,,,,,,,,,,,,,,,,,,,,,,,,,
1768918112.931447,1768918112.931596,56.0,0.0,4332.820313,4335.128418,4348.846191,4342.692383,4309.358887,4309.102539,4311.794922,4332.179688,4314.615234,4304.487305,4523.077148,4527.307617,4416.666504,4475.256348,,,,,,,,,,,,,,,,,,,,,,,,,,,,,,,,,,,,,,,,,,,,,,,,,,,,,,,,,,,,,,,,,,,,,,
1768918112.939256,1768918112.939402,57.0,0.0,4338.846191,4338.974121,4349.358887,4346.666504,4315.897461,4315.256348,4318.974121,4337.05127,4322.692383,4312.05127,4525.384766,4534.487305,4428.077148,4475.0,,,,,,,,,,,,,,,,,,,,,,,,,,,,,,,,,,,,,,,,,,,,,,,,,,,,,,,,,,,,,,,,,,,,,,
1768918112.947064,1768918112.947309,58.0,0.0,4342.436035,4337.563965,4353.974121,4343.717773,4322.307617,4324.358887,4323.846191,4334.102539,4327.436035,4313.077148,4526.025879,4536.153809,4429.358887,4475.641113,,,,,,,,,,,,,,,,,,,,,,,,,,,,,,,,,,,,,,,,,,,,,,,,,,,,,,,,,,,,,,,,,,,,,,
1768918112.954873,1768918112.955116,59.0,0.0,4335.384766,4331.794922,4351.922852,4340.769043,4321.666504,4322.563965,4318.205078,4330.641113,4322.820313,4311.538574,4522.94873,4533.717773,4423.461426,4475.128418,,,,,,,,,,,,,,,,,,,,,,,,,,,,,,,,,,,,,,,,,,,,,,,,,,,,,,,,,,,,,,,,,,,,,,
1768918112.962681,1768918112.963123,60.0,0.0,4330.0,4328.333496,4348.077148,4341.794922,4320.0,4317.179688,4312.436035,4328.846191,4319.871582,4311.282227,4521.794922,4531.410156,4427.436035,4474.487305,,,,,,,,,,,,,,,,,,,,,,,,,,,,,,,,,,,,,,,,,,,,,,,,,,,,,,,,,,,,,,,,,,,,,,
1768918112.97049,1768918112.97093,61.0,0.0,4329.358887,4327.820313,4348.974121,4338.717773,4323.077148,4317.307617,4309.487305,4329.102539,4323.077148,4310.256348,4522.563965,4530.0,4425.256348,4471.282227,,,,,,,,,,,,,,,,,,,,,,,,,,,,,,,,,,,,,,,,,,,,,,,,,,,,,,,,,,,,,,,,,,,,,,
1768918112.978298,1768918112.978837,62.0,0.0,4326.282227,4326.153809,4354.743652,4336.153809,4327.05127,4322.179688,4320.128418,4334.230957,4326.025879,4310.641113,4522.179688,4534.487305,4409.358887,4466.025879,,,,,,,,,,,,,,,,,,,,,,,,,,,,,,,,,,,,,,,,,,,,,,,,,,,,,,,,,,,,,,,,,,,,,,
1768918112.986107,1768918112.986643,63.0,0.0,4330.384766,4324.358887,4358.717773,4337.94873,4327.94873,4329.102539,4331.282227,4334.487305,4326.025879,4308.974121,4521.153809,4538.974121,4410.384766,4467.94873,,,,,,,,,,,,,,,,,,,,,,,,,,,,,,,,,,,,,,,,,,,,,,,,,,,,,,,,,,,,,,,,,,,,,,
1768918112.993915,1768918112.99425,64.0,0.0,4342.436035,4327.179688,4359.487305,4338.974121,4326.666504,4326.025879,4318.461426,4328.974121,4326.153809,4309.743652,4523.333496,4538.205078,4427.179688,4475.128418,1.0443,0.701594,0.157868,0.253937,0.287279,1.101552,0.341299,0.168127,0.138427,0.177221,0.961377,1.023332,0.20186,0.174381,0.269506,0.643542,0.326349,0.095871,0.194856,0.196046,0.662061,0.149949,0.061232,0.128849,0.116333,0.194526,0.298105,0.189444,0.2305,0.136113,0.247844,0.655296,0.13711,0.290084,0.231974,0.271288,0.397957,0.216107,0.243781,0.235097,0.330882,0.410391,0.14545,0.145112,0.096533,0.519314,0.336361,0.107006,0.223388,0.120857,0.783095,0.726962,0.149103,0.274132,0.255105,0.825196,1.050509,0.074757,0.51095,0.31704,0.760647,0.692646,0.250943,0.245703,0.217453,0.71035,0.964639,0.201397,0.331014,0.234391
1768918113.001724,1768918113.002056,65.0,0.0,4340.128418,4329.358887,4357.05127,4337.05127,4325.0,4318.461426,4309.102539,4329.615234,4326.153809,4312.692383,4526.025879,4536.410156,4426.410156,4475.512695,,,,,,,,,,,,,,,,,,,,,,,,,,,,,,,,,,,,,,,,,,,,,,,,,,,,,,,,,,,,,,,,,,,,,,
1768918113.009532,1768918113.009963,66.0,0.0,4325.897461,4326.025879,4351.153809,4331.794922,4324.743652,4319.487305,4320.897461,4331.282227,4323.717773,4309.358887,4523.205078,4530.897461,4410.512695,4468.333496,,,,,,,,,,,,,,,,,,,,,,,,,,,,,,,,,,,,,,,,,,,,,,,,,,,,,,,,,,,,,,,,,,,,,,
1768918113.017341,1768918113.01777,67.0,0.0,4324.743652,4324.102539,4348.333496,4326.153809,4322.692383,4316.666504,4318.717773,4327.436035,4322.820313,4305.641113,4518.589844,4524.230957,4408.333496,4469.743652,,,,,,,,,,,,,,,,,,,,,,,,,,,,,,,,,,,,,,,,,,,,,,,,,,,,,,,,,,,,,,,,,,,,,,
1768918113.025149,1768918113.025776,68.0,0.0,4330.0,4327.692383,4350.0,4329.487305,4319.871582,4314.230957,4310.256348,4326.025879,4325.897461,4309.743652,4518.974121,4523.717773,4415.512695,4476.153809,,,,,,,,,,,,,,,,,,,,,,,,,,,,,,,,,,,,,,,,,,,,,,,,,,,,,,,,,,,,,,,,,,,,,,
1768918113.032958,1768918113.033583,69.0,0.0,4329.230957,4333.974121,4352.94873,4338.077148,4323.077148,4321.794922,4321.282227,4330.641113,4329.615234,4314.358887,4522.05127,4528.333496,4417.820313,4474.230957,,,,,,,,,,,,,,,,,,,,,,,,,,,,,,,,,,,,,,,,,,,,,,,,,,,,,,,,,,,,,,,,,,,,,,
1768918113.040766,1768918113.04149,70.0,0.0,4333.717773,4340.0,4357.179688,4343.077148,4327.307617,4319.871582,4324.487305,4335.384766,4329.102539,4313.077148,4524.487305,4538.205078,4422.436035,4477.307617,,,,,,,,,,,,,,,,,,,,,,,,,,,,,,,,,,,,,,,,,,,,,,,,,,,,,,,,,,,,,,,,,,,,,,
1768918113.048575,1768918113.049296,71.0,0.0,4342.820313,4342.436035,4358.589844,4343.974121,4326.282227,4310.512695,4308.717773,4333.717773,4326.538574,4311.922852,4525.512695,4545.641113,4429.743652,4485.512695,,,,,,,,,,,,,,,,,,,,,,,,,,,,,,,,,,,,,,,,,,,,,,,,,,,,,,,,,,,,,,,,,,,,,,
1768918113.056383,1768918113.056903,72.0,0.0,4339.230957,4341.922852,4352.307617,4342.563965,4325.512695,4317.563965,4306.538574,4324.871582,4326.666504,4311.282227,4524.230957,4534.743652,4427.436035,4480.897461,,,,,,,,,,,,,,,,,,,,,,,,,,,,,,,,,,,,,,,,,,,,,,,,,,,,,,,,,,,,,,,,,,,,,,
1768918113.064192,1768918113.06471,73.0,0.0,4328.717773,4339.230957,4349.102539,4342.692383,4327.820313,4330.897461,4322.436035,4325.512695,4328.589844,4310.128418,4523.205078,4521.282227,4421.410156,4474.102539,,,,,,,,,,,,,,,,,,,,,,,,,,,,,,,,,,,,,,,,,,,,,,,,,,,,,,,,,,,,,,,,,,,,,,
1768918113.072,1768918113.072617,74.0,0.0,4329.615234,4334.487305,4351.025879,4343.333496,4328.077148,4330.512695,4331.153809,4339.487305,4328.333496,4311.538574,4524.230957,4531.538574,4420.512695,4476.282227,,,,,,,,,,,,,,,,,,,,,,,,,,,,,,,,,,,,,,,,,,,,,,,,,,,,,,,,,,,,,,,,,,,,,,
1768918113.079809,1768918113.080424,75.0,0.0,4336.282227,4334.487305,4347.94873,4342.307617,4326.153809,4327.05127,4324.358887,4339.358887,4326.410156,4312.307617,4524.871582,4541.922852,4423.589844,4477.563965,,,,,,,,,,,,,,,,,,,,,,,,,,,,,,,,,,,,,,,,,,,,,,,,,,,,,,,,,,,,,,,,,,,,,,
1768918113.087617,1768918113.08803,76.0,0.0,4334.743652,4337.436035,4343.077148,4342.179688,4326.794922,4326.666504,4321.282227,4326.794922,4326.282227,4312.820313,4524.230957,4529.743652,4426.538574,4476.410156,,,,,,,,,,,,,,,,,,,,,,,,,,,,,,,,,,,,,,,,,,,,,,,,,,,,,,,,,,,,,,,,,,,,,,
1768918113.095426,1768918113.095837,77.0,0.0,4327.820313,4332.94873,4341.538574,4341.666504,4326.922852,4325.641113,4323.589844,4325.256348,4326.794922,4313.589844,4522.179688,4515.641113,4424.102539,4473.717773,,,,,,,,,,,,,,,,,,,,,,,,,,,,,,,,,,,,,,,,,,,,,,,,,,,,,,,,,,,,,,,,,,,,,,
1768918113.103234,1768918113.103544,78.0,0.0,4325.0,4325.256348,4341.282227,4339.358887,4325.384766,4322.563965,4316.282227,4328.846191,4326.538574,4310.641113,4519.743652,4517.05127,4417.692383,4466.025879,,,,,,,,,,,,,,,,,,,,,,,,,,,,,,,,,,,,,,,,,,,,,,,,,,,,,,,,,,,,,,,,,,,,,,
1768918113.111043,1768918113.11135,79.0,0.0,4328.333496,4325.0,4341.410156,4340.128418,4325.384766,4319.615234,4312.820313,4327.436035,4326.410156,4308.333496,4521.025879,4527.563965,4418.974121,4467.692383,,,,,,,,,,,,,,,,,,,,,,,,,,,,,,,,,,,,,,,,,,,,,,,,,,,,,,,,,,,,,,,,,,,,,,
1768918113.118851,1768918113.118957,80.0,0.0,4334.871582,4330.641113,4341.666504,4342.05127,4325.256348,4322.94873,4319.102539,4327.94873,4326.538574,4311.538574,4523.205078,4533.333496,4429.743652,4479.102539,1.058426,0.675215,0.188317,0.252121,0.252442,1.26354,0.383838,0.180977,0.135531,0.170917,1.05316,0.977106,0.232171,0.176751,0.23435,0.68441,0.327681,0.103845,0.192853,0.180005,0.785913,0.17593,0.078856,0.137407,0.115495,0.245479,0.345709,0.214193,0.225501,0.140837,0.272249,0.700585,0.134867,0.278069,0.201467,0.27358,0.341766,0.191997,0.228161,0.202875,0.313109,0.354624,0.160912,0.131619,0.098046,0.467125,0.264282,0.086507,0.19978,0.130485,0.733377,0.608253,0.15201,0.264313,0.262544,0.917108,0.902478,0.09246,0.464745,0.340703,0.806849,0.714323,0.311614,0.239646,0.230077,0.735004,0.915163,0.269124,0.302127,0.236367
1768918113.12666,1768918113.126763,81.0,0.0,4337.94873,4333.846191,4341.538574,4341.538574,4323.461426,4324.615234,4314.358887,4328.205078,4326.538574,4312.436035,4520.256348,4524.871582,4429.358887,4479.487305,,,,,,,,,,,,,,,,,,,,,,,,,,,,,,,,,,,,,,,,,,,,,,,,,,,,,,,,,,,,,,,,,,,,,,
1768918113.134468,1768918113.13447,82.0,0.0,4337.05127,4335.0,4342.94873,4343.333496,4323.461426,4320.384766,4310.641113,4325.256348,4326.794922,4307.820313,4519.615234,4515.0,4415.897461,4472.94873,,,,,,,,,,,,,,,,,,,,,,,,,,,,,,,,,,,,,,,,,,,,,,,,,,,,,,,,,,,,,,,,,,,,,,
1768918113.142277,1768918113.142276,83.0,0.0,4339.487305,4332.692383,4344.615234,4344.615234,4326.794922,4323.589844,4323.717773,4324.871582,4326.538574,4307.05127,4521.410156,4520.384766,4416.538574,4473.974121,,,,,,,,,,,,,,,,,,,,,,,,,,,,,,,,,,,,,,,,,,,,,,,,,,,,,,,,,,,,,,,,,,,,,,
1768918113.150085,1768918113.150283,84.0,0.0,4340.384766,4327.307617,4343.461426,4339.358887,4325.0,4327.179688,4327.05127,4327.05127,4325.897461,4310.0,4521.538574,4527.307617,4424.102539,4476.282227,,,,,,,,,,,,,,,,,,,,,,,,,,,,,,,,,,,,,,,,,,,,,,,,,,,,,,,,,,,,,,,,,,,,,,
1768918113.157894,1768918113.15809,85.0,0.0,4334.358887,4326.794922,4339.871582,4336.538574,4318.717773,4320.512695,4317.307617,4335.769043,4327.820313,4309.358887,4522.436035,4525.769043,4419.102539,4475.897461,,,,,,,,,,,,,,,,,,,,,,,,,,,,,,,,,,,,,,,,,,,,,,,,,,,,,,,,,,,,,,,,,,,,,,
1768918113.165702,1768918113.165997,86.0,0.0,4331.794922,4327.179688,4340.512695,4337.692383,4320.0,4318.077148,4318.846191,4337.307617,4327.307617,4306.153809,4518.974121,4523.205078,4408.077148,4474.230957,,,,,,,,,,,,,,,,,,,,,,,,,,,,,,,,,,,,,,,,,,,,,,,,,,,,,,,,,,,,,,,,,,,,,,
1768918113.173511,1768918113.173803,87.0,0.0,4337.436035,4326.410156,4348.846191,4337.820313,4325.897461,4322.563965,4322.94873,4326.410156,4323.974121,4304.743652,4512.436035,4519.102539,4409.871582,4472.563965,,,,,,,,,,,,,,,,,,,,,,,,,,,,,,,,,,,,,,,,,,,,,,,,,,,,,,,,,,,,,,,,,,,,,,
1768918113.181319,1768918113.18181,88.0,0.0,4340.512695,4331.025879,4350.897461,4338.461426,4328.205078,4322.05127,4325.897461,4330.256348,4326.025879,4312.436035,4518.589844,4522.94873,4423.077148,4476.153809,,,,,,,,,,,,,,,,,,,,,,,,,,,,,,,,,,,,,,,,,,,,,,,,,,,,,,,,,,,,,,,,,,,,,,
1768918113.189128,1768918113.189617,89.0,0.0,4334.871582,4335.641113,4342.563965,4338.717773,4327.436035,4319.102539,4326.666504,4341.794922,4330.641113,4325.512695,4534.743652,4531.538574,4431.794922,4479.615234,,,,,,,,,,,,,,,,,,,,,,,,,,,,,,,,,,,,,,,,,,,,,,,,,,,,,,,,,,,,,,,,,,,,,,
1768918113.196936,1768918113.197323,90.0,0.0,4332.94873,4335.384766,4342.307617,4338.589844,4326.666504,4320.0,4316.538574,4333.974121,4328.717773,4325.512695,4533.205078,4529.102539,4427.05127,4478.589844,,,,,,,,,,,,,,,,,,,,,,,,,,,,,,,,,,,,,,,,,,,,,,,,,,,,,,,,,,,,,,,,,,,,,,
1768918113.204745,1768918113.205129,91.0,0.0,4339.358887,4337.94873,4352.692383,4342.307617,4324.487305,4320.256348,4308.461426,4322.563965,4323.589844,4312.94873,4515.384766,4522.692383,4414.487305,4475.0,,,,,,,,,,,,,,,,,,,,,,,,,,,,,,,,,,,,,,,,,,,,,,,,,,,,,,,,,,,,,,,,,,,,,,
1768918113.212553,1768918113.213136,92.0,0.0,4342.820313,4339.871582,4355.897461,4346.025879,4322.563965,4317.307617,4316.410156,4328.589844,4324.743652,4307.563965,4511.922852,4523.974121,4409.487305,4472.563965,,,,,,,,,,,,,,,,,,,,,,,,,,,,,,,,,,,,,,,,,,,,,,,,,,,,,,,,,,,,,,,,,,,,,,
1768918113.220362,1768918113.220943,93.0,0.0,4339.871582,4332.692383,4349.743652,4341.538574,4322.179688,4314.358887,4324.230957,4334.487305,4326.666504,4310.384766,4522.563965,4525.641113,4418.077148,4473.717773,,,,,,,,,,,,,,,,,,,,,,,,,,,,,,,,,,,,,,,,,,,,,,,,,,,,,,,,,,,,,,,,,,,,,,
1768918113.22817,1768918113.22875,94.0,0.0,4333.205078,4325.897461,4343.846191,4337.563965,4322.94873,4309.358887,4319.230957,4329.743652,4320.897461,4308.974121,4525.641113,4522.94873,4423.205078,4475.897461,,,,,,,,,,,,,,,,,,,,,,,,,,,,,,,,,,,,,,,,,,,,,,,,,,,,,,,,,,,,,,,,,,,,,,
1768918113.235978,1768918113.236556,95.0,0.0,4326.282227,4326.153809,4340.128418,4337.05127,4325.641113,4308.974121,4317.179688,4325.384766,4312.307617,4307.820313,4517.692383,4521.922852,4417.692383,4471.666504,,,,,,,,,,,,,,,,,,,,,,,,,,,,,,,,,,,,,,,,,,,,,,,,,,,,,,,,,,,,,,,,,,,,,,
1768918113.243787,1768918113.244163,96.0,0.0,4325.641113,4326.025879,4338.205078,4332.563965,4326.410156,4318.461426,4324.230957,4333.717773,4314.615234,4308.461426,4512.563965,4520.641113,4412.563965,4465.512695,1.01308,0.651316,0.214565,0.251093,0.208437,1.318271,0.418831,0.189148,0.131629,0.1629,1.070781,0.89338,0.258668,0.181194,0.18958,0.681726,0.32994,0.117598,0.187997,0.158533,0.821469,0.207431,0.109606,0.138208,0.109746,0.31111,0.388429,0.2273,0.219052,0.14919,0.311904,0.723134,0.134363,0.264137,0.188333,0.30278,0.294714,0.173133,0.214448,0.175956,0.291743,0.295052,0.16486,0.114528,0.099618,0.399294,0.205958,0.080753,0.175716,0.13758,0.639387,0.512064,0.170175,0.246827,0.261423,0.951267,0.748206,0.119729,0.393581,0.34871,0.827953,0.750927,0.380671,0.239774,0.240709,0.736098,0.860821,0.327794,0.277354,0.228504
1768918113.251596,1768918113.25197,97.0,0.0,4326.922852,4319.102539,4335.256348,4326.153809,4322.820313,4319.871582,4328.846191,4343.589844,4322.94873,4300.0,4506.410156,4514.102539,4403.846191,4461.025879,,,,,,,,,,,,,,,,,,,,,,,,,,,,,,,,,,,,,,,,,,,,,,,,,,,,,,,,,,,,,,,,,,,,,,
1768918113.259404,1768918113.259877,98.0,0.0,4323.461426,4312.94873,4332.05127,4326.410156,4319.743652,4312.436035,4324.102539,4340.0,4323.077148,4293.077148,4498.333496,4505.128418,4391.410156,4454.358887,,,,,,,,,,,,,,,,,,,,,,,,,,,,,,,,,,,,,,,,,,,,,,,,,,,,,,,,,,,,,,,,,,,,,,
1768918113.267213,1768918113.267684,99.0,0.0,4326.666504,4318.974121,4335.897461,4337.307617,4320.384766,4314.230957,4321.153809,4342.94873,4329.358887,4306.666504,4510.128418,4510.0,4404.230957,4462.307617,,,,,,,,,,,,,,,,,,,,,,,,,,,,,,,,,,,,,,,,,,,,,,,,,,,,,,,,,,,,,,,,,,,,,,
1768918113.275021,1768918113.27569,100.0,0.0,4338.974121,4329.102539,4345.769043,4346.794922,4321.410156,4318.205078,4327.563965,4358.974121,4345.769043,4328.846191,4535.256348,4532.820313,4432.307617,4481.153809,,,,,,,,,,,,,,,,,,,,,,,,,,,,,,,,,,,,,,,,,,,,,,,,,,,,,,,,,,,,,,,,,,,,,,
1768918113.28283,1768918113.283497,101.0,0.0,4343.846191,4329.615234,4348.717773,4345.769043,4322.05127,4312.05127,4326.410156,4353.846191,4342.94873,4330.0,4540.256348,4540.384766,4434.102539,4482.94873,,,,,,,,,,,,,,,,,,,,,,,,,,,,,,,,,,,,,,,,,,,,,,,,,,,,,,,,,,,,,,,,,,,,,,
1768918113.290638,1768918113.291204,102.0,0.0,4340.384766,4328.846191,4342.94873,4341.922852,4321.538574,4307.436035,4315.897461,4327.307617,4320.897461,4314.230957,4525.384766,4526.922852,4419.743652,4475.897461,,,,,,,,,,,,,,,,,,,,,,,,,,,,,,,,,,,,,,,,,,,,,,,,,,,,,,,,,,,,,,,,,,,,,,
1768918113.298447,1768918113.299011,103.0,0.0,4337.563965,4329.871582,4338.205078,4341.794922,4319.102539,4309.487305,4309.230957,4320.512695,4312.94873,4306.922852,4513.846191,4515.897461,4414.358887,4475.0,,,,,,,,,,,,,,,,,,,,,,,,,,,,,,,,,,,,,,,,,,,,,,,,,,,,,,,,,,,,,,,,,,,,,,
1768918113.306255,1768918113.306617,104.0,0.0,4337.692383,4331.922852,4339.487305,4343.333496,4320.641113,4309.230957,4311.282227,4329.871582,4318.974121,4310.0,4509.102539,4515.641113,4412.179688,4471.666504,,,,,,,,,,,,,,,,,,,,,,,,,,,,,,,,,,,,,,,,,,,,,,,,,,,,,,,,,,,,,,,,,,,,,,
1768918113.314063,1768918113.314424,105.0,0.0,4339.102539,4336.282227,4341.666504,4343.717773,4324.743652,4309.743652,4315.128418,4328.077148,4321.153809,4310.769043,4510.897461,4520.641113,4411.410156,4470.256348,,,,,,,,,,,,,,,,,,,,,,,,,,,,,,,,,,,,,,,,,,,,,,,,,,,,,,,,,,,,,,,,,,,,,,
1768918113.321872,1768918113.32213,106.0,0.0,4336.794922,4330.897461,4340.897461,4342.692383,4326.282227,4316.025879,4318.974121,4330.769043,4322.94873,4308.974121,4522.05127,4523.846191,4413.333496,4470.897461,,,,,,,,,,,,,,,,,,,,,,,,,,,,,,,,,,,,,,,,,,,,,,,,,,,,,,,,,,,,,,,,,,,,,,
1768918113.329681,1768918113.329937,107.0,0.0,4333.461426,4326.282227,4340.769043,4340.0,4325.512695,4320.512695,4325.384766,4342.94873,4327.692383,4309.743652,4526.538574,4523.846191,4412.94873,4469.358887,,,,,,,,,,,,,,,,,,,,,,,,,,,,,,,,,,,,,,,,,,,,,,,,,,,,,,,,,,,,,,,,,,,,,,
1768918113.337489,1768918113.337943,108.0,0.0,4336.666504,4333.333496,4340.256348,4340.128418,4320.384766,4313.974121,4322.436035,4337.563965,4326.153809,4311.410156,4516.666504,4520.384766,4411.794922,4469.230957,,,,,,,,,,,,,,,,,,,,,,,,,,,,,,,,,,,,,,,,,,,,,,,,,,,,,,,,,,,,,,,,,,,,,,
1768918113.345297,1768918113.34575,109.0,0.0,4340.384766,4333.461426,4336.538574,4340.769043,4313.589844,4306.410156,4311.410156,4322.05127,4318.974121,4310.256348,4507.05127,4514.487305,4409.358887,4467.692383,,,,,,,,,,,,,,,,,,,,,,,,,,,,,,,,,,,,,,,,,,,,,,,,,,,,,,,,,,,,,,,,,,,,,,
1768918113.353106,1768918113.353657,110.0,0.0,4334.358887,4323.205078,4332.94873,4339.615234,4310.769043,4311.410156,4309.230957,4324.358887,4317.692383,4307.563965,4505.256348,4507.563965,4404.358887,4462.94873,,,,,,,,,,,,,,,,,,,,,,,,,,,,,,,,,,,,,,,,,,,,,,,,,,,,,,,,,,,,,,,,,,,,,,
1768918113.360915,1768918113.361464,111.0,0.0,4327.820313,4322.94873,4335.256348,4342.179688,4314.615234,4312.436035,4311.538574,4332.436035,4322.820313,4307.307617,4508.205078,4506.153809,4405.641113,4463.333496,,,,,,,,,,,,,,,,,,,,,,,,,,,,,,,,,,,,,,,,,,,,,,,,,,,,,,,,,,,,,,,,,,,,,,
1768918113.368723,1768918113.369471,112.0,0.0,4327.820313,4326.282227,4337.179688,4342.436035,4317.05127,4308.205078,4314.487305,4333.717773,4325.641113,4310.384766,4508.589844,4510.769043,4413.461426,4463.589844,0.920475,0.638823,0.235245,0.256289,0.167104,1.264138,0.430701,0.194661,0.129552,0.153447,1.014504,0.798407,0.274999,0.186049,0.148123,0.645322,0.334094,0.137185,0.182064,0.1368,0.758317,0.244465,0.151108,0.13213,0.101811,0.380078,0.426734,0.224392,0.21593,0.158681,0.350858,0.714802,0.134518,0.251633,0.191333,0.342342,0.268427,0.16157,0.201412,0.154393,0.277772,0.242909,0.158422,0.099136,0.099569,0.319954,0.168589,0.091137,0.157531,0.140542,0.525435,0.456574,0.195225,0.227662,0.252731,0.919772,0.627959,0.152119,0.319463,0.342482,0.837722,0.777729,0.440301,0.250531,0.247892,0.699807,0.80116,0.364117,0.262207,0.213819
1768918113.376531,1768918113.377278,113.0,0.0,4326.282227,4325.0,4331.153809,4337.307617,4317.179688,4311.410156,4318.717773,4332.563965,4320.897461,4310.641113,4508.717773,4513.717773,4413.717773,4460.128418,,,,,,,,,,,,,,,,,,,,,,,,,,,,,,,,,,,,,,,,,,,,,,,,,,,,,,,,,,,,,,,,,,,,,,
1768918113.38434,1768918113.385185,114.0,0.0,4324.102539,4325.512695,4327.436035,4337.436035,4316.025879,4311.794922,4314.743652,4322.179688,4312.820313,4304.871582,4504.615234,4510.512695,4406.666504,4461.922852,,,,,,,,,,,,,,,,,,,,,,,,,,,,,,,,,,,,,,,,,,,,,,,,,,,,,,,,,,,,,,,,,,,,,,
1768918113.392148,1768918113.392992,115.0,0.0,4323.461426,4318.077148,4329.615234,4339.487305,4314.230957,4306.153809,4304.871582,4312.94873,4308.717773,4296.666504,4495.0,4506.282227,4400.897461,4459.743652,,,,,,,,,,,,,,,,,,,,,,,,,,,,,,,,,,,,,,,,,,,,,,,,,,,,,,,,,,,,,,,,,,,,,,
1768918113.399957,1768918113.400998,116.0,0.0,4322.94873,4313.077148,4331.282227,4337.563965,4316.538574,4307.820313,4309.358887,4323.077148,4310.128418,4296.410156,4498.974121,4509.871582,4401.410156,4457.307617,,,,,,,,,,,,,,,,,,,,,,,,,,,,,,,,,,,,,,,,,,,,,,,,,,,,,,,,,,,,,,,,,,,,,,
1768918113.407766,1768918113.408805,117.0,0.0,4323.589844,4318.461426,4328.205078,4332.94873,4316.794922,4312.05127,4317.307617,4332.94873,4312.436035,4301.153809,4506.153809,4513.461426,4402.692383,4462.563965,,,,,,,,,,,,,,,,,,,,,,,,,,,,,,,,,,,,,,,,,,,,,,,,,,,,,,,,,,,,,,,,,,,,,,
1768918113.415574,1768918113.416512,118.0,0.0,4323.589844,4316.666504,4324.615234,4329.871582,4312.94873,4309.358887,4312.179688,4327.05127,4315.641113,4302.692383,4498.077148,4508.846191,4398.846191,4456.025879,,,,,,,,,,,,,,,,,,,,,,,,,,,,,,,,,,,,,,,,,,,,,,,,,,,,,,,,,,,,,,,,,,,,,,
1768918113.423382,1768918113.424319,119.0,0.0,4322.05127,4309.615234,4329.743652,4330.897461,4311.922852,4308.974121,4307.820313,4322.563965,4319.615234,4305.769043,4494.871582,4506.025879,4399.615234,4441.922852,,,,,,,,,,,,,,,,,,,,,,,,,,,,,,,,,,,,,,,,,,,,,,,,,,,,,,,,,,,,,,,,,,,,,,
1768918113.431191,1768918113.431926,120.0,0.0,4320.769043,4308.717773,4336.538574,4330.0,4314.358887,4313.077148,4313.589844,4323.461426,4320.769043,4307.820313,4506.794922,4508.717773,4405.128418,4447.307617,,,,,,,,,,,,,,,,,,,,,,,,,,,,,,,,,,,,,,,,,,,,,,,,,,,,,,,,,,,,,,,,,,,,,,
1768918113.439,1768918113.439732,121.0,0.0,4320.512695,4308.589844,4333.333496,4329.358887,4317.179688,4313.717773,4318.077148,4325.0,4319.615234,4301.282227,4506.025879,4510.641113,4401.538574,4459.615234,,,,,,,,,,,,,,,,,,,,,,,,,,,,,,,,,,,,,,,,,,,,,,,,,,,,,,,,,,,,,,,,,,,,,,
1768918113.446808,1768918113.447439,122.0,0.0,4319.230957,4306.410156,4324.743652,4330.384766,4321.666504,4310.897461,4313.333496,4324.871582,4314.358887,4292.820313,4491.666504,4504.615234,4394.358887,4453.077148,,,,,,,,,,,,,,,,,,,,,,,,,,,,,,,,,,,,,,,,,,,,,,,,,,,,,,,,,,,,,,,,,,,,,,
1768918113.454616,1768918113.455246,123.0,0.0,4320.641113,4310.256348,4322.307617,4329.743652,4326.025879,4306.666504,4305.256348,4321.282227,4312.436035,4296.153809,4490.769043,4494.871582,4396.538574,4447.563965,,,,,,,,,,,,,,,,,,,,,,,,,,,,,,,,,,,,,,,,,,,,,,,,,,,,,,,,,,,,,,,,,,,,,,
1768918113.462425,1768918113.463252,124.0,0.0,4323.333496,4311.025879,4323.077148,4330.128418,4325.128418,4304.487305,4305.256348,4322.563965,4320.641113,4304.743652,4500.128418,4492.179688,4399.487305,4451.922852,,,,,,,,,,,,,,,,,,,,,,,,,,,,,,,,,,,,,,,,,,,,,,,,,,,,,,,,,,,,,,,,,,,,,,
1768918113.470233,1768918113.471059,125.0,0.0,4322.179688,4305.897461,4322.05127,4331.794922,4325.256348,4310.128418,4313.974121,4332.94873,4327.692383,4304.487305,4507.692383,4503.077148,4399.871582,4452.820313,,,,,,,,,,,,,,,,,,,,,,,,,,,,,,,,,,,,,,,,,,,,,,,,,,,,,,,,,,,,,,,,,,,,,,
1768918113.478042,1768918113.478966,126.0,0.0,4321.666504,4303.717773,4321.794922,4328.077148,4324.102539,4315.512695,4318.589844,4334.487305,4326.538574,4300.769043,4507.179688,4513.333496,4401.282227,4454.358887,,,,,,,,,,,,,,,,,,,,,,,,,,,,,,,,,,,,,,,,,,,,,,,,,,,,,,,,,,,,,,,,,,,,,,
1768918113.48585,1768918113.486773,127.0,0.0,4323.717773,4307.692383,4325.641113,4328.717773,4320.512695,4310.512695,4310.897461,4322.307617,4325.769043,4299.487305,4501.538574,4511.794922,4399.743652,4459.230957,,,,,,,,,,,,,,,,,,,,,,,,,,,,,,,,,,,,,,,,,,,,,,,,,,,,,,,,,,,,,,,,,,,,,,
1768918113.493659,1768918113.49438,0.0,0.0,4325.897461,4310.128418,4330.897461,4341.410156,4320.0,4307.820313,4306.922852,4321.922852,4324.871582,4298.974121,4499.743652,4508.077148,4398.589844,4459.743652,0.799884,0.62991,0.25422,0.269105,0.136773,1.151893,0.416939,0.203801,0.130803,0.14179,0.905642,0.706646,0.278994,0.189303,0.118701,0.597939,0.336435,0.164306,0.175323,0.117983,0.619024,0.286135,0.194384,0.122247,0.093592,0.432791,0.462593,0.206736,0.218474,0.166553,0.370018,0.674509,0.135932,0.245,0.207993,0.369998,0.266106,0.159036,0.189786,0.140602,0.278018,0.203385,0.150884,0.090343,0.096828,0.245082,0.15444,0.116107,0.150328,0.139142,0.414098,0.435123,0.21816,0.217341,0.238803,0.82163,0.553958,0.184493,0.266821,0.328568,0.842677,0.775885,0.478201,0.277204,0.252623,0.621132,0.728233,0.373242,0.256296,0.196803
1768918113.501467,1768918113.502187,1.0,0.0,4325.897461,4310.769043,4330.769043,4342.436035,4319.487305,4313.205078,4313.589844,4325.384766,4317.436035,4295.512695,4496.025879,4503.974121,4397.436035,4455.384766,,,,,,,,,,,,,,,,,,,,,,,,,,,,,,,,,,,,,,,,,,,,,,,,,,,,,,,,,,,,,,,,,,,,,,
1768918113.509276,1768918113.509893,2.0,0.0,4325.897461,4316.153809,4327.307617,4334.487305,4317.563965,4312.307617,4310.384766,4314.230957,4311.153809,4294.615234,4490.128418,4498.333496,4397.820313,4454.615234,,,,,,,,,,,,,,,,,,,,,,,,,,,,,,,,,,,,,,,,,,,,,,,,,,,,,,,,,,,,,,,,,,,,,,
1768918113.517084,1768918113.5177,3.0,0.0,4325.769043,4318.205078,4326.410156,4336.025879,4318.077148,4306.922852,4301.538574,4311.153809,4313.589844,4299.358887,4496.153809,4501.538574,4406.282227,4456.282227,,,,,,,,,,,,,,,,,,,,,,,,,,,,,,,,,,,,,,,,,,,,,,,,,,,,,,,,,,,,,,,,,,,,,,
1768918113.524893,1768918113.525306,4.0,0.0,4325.769043,4316.282227,4331.666504,4339.743652,4323.077148,4308.589844,4306.025879,4325.384766,4323.077148,4308.205078,4508.846191,4516.666504,4413.461426,4460.769043,,,,,,,,,,,,,,,,,,,,,,,,,,,,,,,,,,,,,,,,,,,,,,,,,,,,,,,,,,,,,,,,,,,,,,
1768918113.532701,1768918113.533113,5.0,0.0,4332.05127,4320.512695,4343.974121,4345.128418,4322.05127,4311.410156,4313.717773,4328.333496,4323.077148,4312.94873,4509.230957,4527.179688,4412.436035,4468.974121,,,,,,,,,,,,,,,,,,,,,,,,,,,,,,,,,,,,,,,,,,,,,,,,,,,,,,,,,,,,,,,,,,,,,,
1768918113.54051,1768918113.541019,6.0,0.0,4335.512695,4323.974121,4349.871582,4350.769043,4316.282227,4313.205078,4312.692383,4315.128418,4313.589844,4306.025879,4502.94873,4522.563965,4413.333496,4471.025879,,,,,,,,,,,,,,,,,,,,,,,,,,,,,,,,,,,,,,,,,,,,,,,,,,,,,,,,,,,,,,,,,,,,,,
1768918113.548318,1768918113.548827,7.0,0.0,4328.846191,4319.871582,4338.846191,4346.410156,4318.205078,4308.717773,4306.410156,4311.538574,4314.102539,4301.282227,4503.717773,4510.769043,4412.179688,4463.077148,,,,,,,,,,,,,,,,,,,,,,,,,,,,,,,,,,,,,,,,,,,,,,,,,,,,,,,,,,,,,,,,,,,,,,
1768918113.556127,1768918113.556833,8.0,0.0,4323.461426,4319.102539,4326.666504,4339.230957,4320.384766,4298.461426,4301.282227,4318.461426,4324.102539,4305.256348,4504.487305,4504.615234,4404.102539,4456.025879,,,,,,,,,,,,,,,,,,,,,,,,,,,,,,,,,,,,,,,,,,,,,,,,,,,,,,,,,,,,,,,,,,,,,,
1768918113.563935,1768918113.56464,9.0,0.0,4323.589844,4321.538574,4327.820313,4341.538574,4315.897461,4300.128418,4304.102539,4324.358887,4328.077148,4308.077148,4504.358887,4512.94873,4403.077148,4457.820313,,,,,,,,,,,,,,,,,,,,,,,,,,,,,,,,,,,,,,,,,,,,,,,,,,,,,,,,,,,,,,,,,,,,,,
1768918113.571744,1768918113.572547,10.0,0.0,4325.256348,4319.871582,4333.717773,4347.179688,4313.717773,4310.769043,4309.743652,4327.179688,4326.282227,4310.0,4512.05127,4523.333496,4413.461426,4466.282227,,,,,,,,,,,,,,,,,,,,,,,,,,,,,,,,,,,,,,,,,,,,,,,,,,,,,,,,,,,,,,,,,,,,,,
1768918113.579552,1768918113.580353,11.0,0.0,4327.436035,4321.666504,4336.922852,4349.358887,4313.717773,4312.179688,4310.769043,4325.128418,4327.436035,4312.05127,4517.820313,4526.538574,4420.128418,4471.794922,,,,,,,,,,,,,,,,,,,,,,,,,,,,,,,,,,,,,,,,,,,,,,,,,,,,,,,,,,,,,,,,,,,,,,
1768918113.587361,1768918113.58836,12.0,0.0,4327.179688,4327.179688,4338.974121,4350.256348,4311.794922,4309.487305,4312.692383,4321.538574,4328.077148,4310.0,4511.666504,4523.333496,4409.487305,4465.128418,,,,,,,,,,,,,,,,,,,,,,,,,,,,,,,,,,,,,,,,,,,,,,,,,,,,,,,,,,,,,,,,,,,,,,
1768918113.595169,1768918113.596167,13.0,0.0,4322.05127,4323.717773,4338.077148,4349.871582,4312.307617,4309.102539,4306.410156,4315.897461,4324.743652,4307.692383,4504.615234,4518.846191,4397.94873,4453.333496,,,,,,,,,,,,,,,,,,,,,,,,,,,,,,,,,,,,,,,,,,,,,,,,,,,,,,,,,,,,,,,,,,,,,,
1768918113.602978,1768918113.603873,14.0,0.0,4319.102539,4313.333496,4336.153809,4347.179688,4312.307617,4306.025879,4296.794922,4311.794922,4322.563965,4310.0,4506.922852,4519.487305,4405.512695,4454.358887,,,,,,,,,,,,,,,,,,,,,,,,,,,,,,,,,,,,,,,,,,,,,,,,,,,,,,,,,,,,,,,,,,,,,,
1768918113.610786,1768918113.611679,15.0,0.0,4325.641113,4315.769043,4339.615234,4347.179688,4309.358887,4302.94873,4299.102539,4314.743652,4325.128418,4312.179688,4513.333496,4524.871582,4418.461426,4467.563965,,,,,,,,,,,,,,,,,,,,,,,,,,,,,,,,,,,,,,,,,,,,,,,,,,,,,,,,,,,,,,,,,,,,,,
1768918113.618595,1768918113.619286,16.0,0.0,4332.436035,4326.794922,4342.05127,4351.922852,4312.05127,4302.179688,4301.538574,4317.563965,4325.0,4311.153809,4514.358887,4526.538574,4417.563965,4472.94873,0.676431,0.613716,0.279936,0.284429,0.119952,1.047233,0.39398,0.224036,0.134167,0.12775,0.777162,0.621877,0.275065,0.188905,0.103262,0.554204,0.335173,0.200832,0.16703,0.102425,0.448259,0.329044,0.230351,0.112682,0.085429,0.452379,0.494124,0.180051,0.225125,0.170387,0.359641,0.610733,0.139958,0.248492,0.233769,0.374208,0.28725,0.167301,0.185724,0.138678,0.296029,0.181121,0.158812,0.094347,0.09211,0.189147,0.166715,0.154674,0.159113,0.135015,0.33122,0.42805,0.236537,0.234982,0.222921,0.688165,0.515851,0.211123,0.256832,0.314162,0.844335,0.744981,0.49395,0.328078,0.256785,0.521508,0.644517,0.362494,0.255099,0.181334
1768918113.626403,1768918113.627093,17.0,0.0,4329.871582,4327.179688,4338.461426,4354.871582,4312.692383,4301.666504,4293.846191,4314.102539,4319.358887,4309.615234,4511.025879,4522.94873,4414.230957,4466.922852,,,,,,,,,,,,,,,,,,,,,,,,,,,,,,,,,,,,,,,,,,,,,,,,,,,,,,,,,,,,,,,,,,,,,,
1768918113.634212,1768918113.634799,18.0,0.0,4328.205078,4321.025879,4341.922852,4354.358887,4310.769043,4304.230957,4294.615234,4314.743652,4320.641113,4310.769043,4514.230957,4521.922852,4419.102539,4467.179688,,,,,,,,,,,,,,,,,,,,,,,,,,,,,,,,,,,,,,,,,,,,,,,,,,,,,,,,,,,,,,,,,,,,,,
1768918113.64202,1768918113.642606,19.0,0.0,4337.692383,4322.436035,4350.128418,4357.692383,4317.563965,4310.256348,4307.436035,4324.615234,4327.563965,4311.538574,4516.666504,4522.94873,4418.846191,4477.436035,,,,,,,,,,,,,,,,,,,,,,,,,,,,,,,,,,,,,,,,,,,,,,,,,,,,,,,,,,,,,,,,,,,,,,
1768918113.649829,1768918113.650213,20.0,0.0,4343.846191,4326.538574,4347.692383,4359.871582,4320.897461,4315.897461,4315.256348,4327.179688,4325.641113,4308.717773,4509.230957,4524.871582,4412.820313,4479.102539,,,,,,,,,,,,,,,,,,,,,,,,,,,,,,,,,,,,,,,,,,,,,,,,,,,,,,,,,,,,,,,,,,,,,,
1768918113.657637,1768918113.658019,21.0,0.0,4335.384766,4324.230957,4340.897461,4355.897461,4312.94873,4313.333496,4310.384766,4322.692383,4323.077148,4308.461426,4511.025879,4528.846191,4415.0,4474.102539,,,,,,,,,,,,,,,,,,,,,,,,,,,,,,,,,,,,,,,,,,,,,,,,,,,,,,,,,,,,,,,,,,,,,,
1768918113.665446,1768918113.665726,22.0,0.0,4327.307617,4320.769043,4341.282227,4355.512695,4311.666504,4306.153809,4302.820313,4325.641113,4327.05127,4312.179688,4520.897461,4528.717773,4420.256348,4475.0,,,,,,,,,,,,,,,,,,,,,,,,,,,,,,,,,,,,,,,,,,,,,,,,,,,,,,,,,,,,,,,,,,,,,,
1768918113.673254,1768918113.673532,23.0,0.0,4328.589844,4322.563965,4345.769043,4358.589844,4322.820313,4308.077148,4306.410156,4324.358887,4323.461426,4308.846191,4511.538574,4523.205078,4415.128418,4474.102539,,,,,,,,,,,,,,,,,,,,,,,,,,,,,,,,,,,,,,,,,,,,,,,,,,,,,,,,,,,,,,,,,,,,,,
1768918113.681063,1768918113.681539,24.0,0.0,4333.461426,4325.128418,4349.358887,4357.820313,4326.666504,4314.230957,4313.846191,4324.487305,4320.384766,4303.205078,4502.307617,4527.05127,4409.871582,4472.307617,,,,,,,,,,,,,,,,,,,,,,,,,,,,,,,,,,,,,,,,,,,,,,,,,,,,,,,,,,,,,,,,,,,,,,
1768918113.688871,1768918113.689346,25.0,0.0,4339.102539,4329.230957,4351.282227,4357.307617,4321.025879,4311.538574,4308.333496,4329.358887,4326.410156,4306.922852,4515.897461,4539.102539,4415.384766,4475.641113,,,,,,,,,,,,,,,,,,,,,,,,,,,,,,,,,,,,,,,,,,,,,,,,,,,,,,,,,,,,,,,,,,,,,,
1768918113.69668,1768918113.697053,26.0,0.0,4341.538574,4338.846191,4351.538574,4357.94873,4321.025879,4307.820313,4302.307617,4319.230957,4325.256348,4311.794922,4520.256348,4537.05127,4419.358887,4476.922852,,,,,,,,,,,,,,,,,,,,,,,,,,,,,,,,,,,,,,,,,,,,,,,,,,,,,,,,,,,,,,,,,,,,,,
1768918113.704488,1768918113.704859,27.0,0.0,4341.153809,4338.205078,4353.461426,4355.769043,4325.0,4310.769043,4305.384766,4308.846191,4319.615234,4309.487305,4508.077148,4527.94873,4416.410156,4473.717773,,,,,,,,,,,,,,,,,,,,,,,,,,,,,,,,,,,,,,,,,,,,,,,,,,,,,,,,,,,,,,,,,,,,,,
1768918113.712297,1768918113.712466,28.0,0.0,4341.282227,4327.820313,4357.563965,4355.769043,4325.641113,4313.589844,4307.307617,4319.743652,4321.666504,4308.717773,4506.153809,4532.307617,4414.743652,4472.436035,,,,,,,,,,,,,,,,,,,,,,,,,,,,,,,,,,,,,,,,,,,,,,,,,,,,,,,,,,,,,,,,,,,,,,
1768918113.720105,1768918113.720273,29.0,0.0,4342.179688,4329.871582,4358.077148,4360.512695,4322.563965,4312.94873,4309.871582,4328.717773,4323.205078,4310.256348,4512.05127,4537.94873,4415.769043,4476.025879,,,,,,,,,,,,,,,,,,,,,,,,,,,,,,,,,,,,,,,,,,,,,,,,,,,,,,,,,,,,,,,,,,,,,,
1768918113.727914,1768918113.727979,30.0,0.0,4342.179688,4339.230957,4355.128418,4361.410156,4319.230957,4310.0,4309.743652,4322.307617,4322.692383,4309.615234,4512.307617,4537.179688,4418.205078,4478.589844,,,,,,,,,,,,,,,,,,,,,,,,,,,,,,,,,,,,,,,,,,,,,,,,,,,,,,,,,,,,,,,,,,,,,,
1768918113.735722,1768918113.735785,31.0,0.0,4343.077148,4337.05127,4353.205078,4357.820313,4317.820313,4309.230957,4300.897461,4323.589844,4326.025879,4309.871582,4509.871582,4538.589844,4418.205078,4477.307617,,,,,,,,,,,,,,,,,,,,,,,,,,,,,,,,,,,,,,,,,,,,,,,,,,,,,,,,,,,,,,,,,,,,,,
1768918113.743531,1768918113.743792,32.0,0.0,4341.666504,4333.974121,4352.05127,4356.410156,4319.487305,4310.512695,4300.641113,4327.820313,4326.538574,4310.512695,4509.102539,4533.974121,4415.256348,4473.205078,0.577912,0.579075,0.317905,0.293128,0.113692,1.011802,0.381209,0.257432,0.136409,0.112587,0.649864,0.540205,0.272186,0.185233,0.098006,0.534865,0.32744,0.243986,0.156275,0.088847,0.301133,0.364065,0.253185,0.106018,0.076474,0.429347,0.514271,0.153492,0.231789,0.16868,0.321865,0.537283,0.150186,0.263901,0.261407,0.360038,0.329339,0.192269,0.201274,0.152012,0.327322,0.180061,0.197665,0.117623,0.087592,0.162233,0.207217,0.207608,0.187168,0.130741,0.288755,0.417333,0.254696,0.298582,0.208485,0.53799,0.493871,0.2292,0.301938,0.302854,0.832667,0.700847,0.495717,0.406615,0.260821,0.431329,0.561036,0.342463,0.25582,0.169066
1768918113.751339,1768918113.751599,33.0,0.0,4335.897461,4335.0,4348.846191,4356.666504,4323.205078,4309.743652,4303.846191,4322.307617,4323.205078,4308.846191,4507.820313,4528.717773,4415.897461,4471.794922,,,,,,,,,,,,,,,,,,,,,,,,,,,,,,,,,,,,,,,,,,,,,,,,,,,,,,,,,,,,,,,,,,,,,,
1768918113.759148,1768918113.759505,34.0,0.0,4330.897461,4330.769043,4346.794922,4352.94873,4322.692383,4308.717773,4298.077148,4321.538574,4322.820313,4309.102539,4508.333496,4532.692383,4418.974121,4472.692383,,,,,,,,,,,,,,,,,,,,,,,,,,,,,,,,,,,,,,,,,,,,,,,,,,,,,,,,,,,,,,,,,,,,,,
1768918113.766956,1768918113.767312,35.0,0.0,4326.025879,4324.487305,4344.102539,4343.205078,4319.743652,4311.025879,4296.410156,4323.333496,4323.461426,4310.641113,4509.230957,4530.641113,4414.871582,4467.820313,,,,,,,,,,,,,,,,,,,,,,,,,,,,,,,,,,,,,,,,,,,,,,,,,,,,,,,,,,,,,,,,,,,,,,
1768918113.774765,1768918113.775319,36.0,0.0,4326.153809,4324.102539,4338.846191,4336.794922,4321.282227,4310.641113,4299.487305,4316.410156,4321.153809,4307.05127,4506.282227,4522.179688,4412.05127,4464.615234,,,,,,,,,,,,,,,,,,,,,,,,,,,,,,,,,,,,,,,,,,,,,,,,,,,,,,,,,,,,,,,,,,,,,,
1768918113.782573,1768918113.783125,37.0,0.0,4336.153809,4329.102539,4341.794922,4343.974121,4323.717773,4303.589844,4293.589844,4316.410156,4323.077148,4308.589844,4507.94873,4530.512695,4421.025879,4473.205078,,,,,,,,,,,,,,,,,,,,,,,,,,,,,,,,,,,,,,,,,,,,,,,,,,,,,,,,,,,,,,,,,,,,,,
1768918113.790382,1768918113.791032,38.0,0.0,4341.538574,4332.94873,4349.102539,4352.692383,4324.230957,4302.307617,4295.128418,4326.410156,4329.615234,4317.820313,4517.563965,4544.487305,4428.077148,4478.846191,,,,,,,,,,,,,,,,,,,,,,,,,,,,,,,,,,,,,,,,,,,,,,,,,,,,,,,,,,,,,,,,,,,,,,
1768918113.79819,1768918113.798839,39.0,0.0,4335.769043,4332.179688,4351.282227,4351.025879,4325.384766,4309.358887,4306.153809,4323.077148,4329.358887,4317.179688,4522.563965,4540.641113,4423.717773,4473.974121,,,,,,,,,,,,,,,,,,,,,,,,,,,,,,,,,,,,,,,,,,,,,,,,,,,,,,,,,,,,,,,,,,,,,,
1768918113.805999,1768918113.806446,40.0,0.0,4333.333496,4329.102539,4353.717773,4348.461426,4326.282227,4311.282227,4307.436035,4318.333496,4325.897461,4310.384766,4522.563965,4536.538574,4420.384766,4473.333496,,,,,,,,,,,,,,,,,,,,,,,,,,,,,,,,,,,,,,,,,,,,,,,,,,,,,,,,,,,,,,,,,,,,,,
1768918113.813807,1768918113.814253,41.0,0.0,4338.846191,4327.05127,4358.333496,4350.0,4324.743652,4312.179688,4308.205078,4326.153809,4328.077148,4311.025879,4522.436035,4543.461426,4420.512695,4477.05127,,,,,,,,,,,,,,,,,,,,,,,,,,,,,,,,,,,,,,,,,,,,,,,,,,,,,,,,,,,,,,,,,,,,,,
1768918113.821616,1768918113.82196,42.0,0.0,4341.922852,4327.820313,4358.846191,4351.794922,4322.179688,4318.461426,4313.205078,4328.589844,4328.077148,4311.666504,4519.358887,4546.794922,4415.128418,4475.641113,,,,,,,,,,,,,,,,,,,,,,,,,,,,,,,,,,,,,,,,,,,,,,,,,,,,,,,,,,,,,,,,,,,,,,
1768918113.829424,1768918113.829766,43.0,0.0,4339.743652,4328.333496,4353.974121,4351.666504,4320.512695,4317.307617,4312.563965,4325.769043,4324.615234,4309.743652,4519.615234,4541.153809,4410.641113,4476.794922,,,,,,,,,,,,,,,,,,,,,,,,,,,,,,,,,,,,,,,,,,,,,,,,,,,,,,,,,,,,,,,,,,,,,,
1768918113.837233,1768918113.837373,44.0,0.0,4338.333496,4328.846191,4350.897461,4347.94873,4321.666504,4309.358887,4307.05127,4330.769043,4326.282227,4311.666504,4520.641113,4537.436035,4413.205078,4475.897461,,,,,,,,,,,,,,,,,,,,,,,,,,,,,,,,,,,,,,,,,,,,,,,,,,,,,,,,,,,,,,,,,,,,,,
1768918113.845041,1768918113.84518,45.0,0.0,4337.94873,4326.538574,4353.461426,4342.692383,4322.179688,4313.589844,4307.692383,4332.179688,4326.666504,4310.769043,4511.282227,4538.205078,4412.820313,4465.897461,,,,,,,,,,,,,,,,,,,,,,,,,,,,,,,,,,,,,,,,,,,,,,,,,,,,,,,,,,,,,,,,,,,,,,
1768918113.85285,1768918113.852886,46.0,0.0,4331.153809,4320.256348,4354.615234,4342.436035,4322.179688,4325.0,4319.487305,4326.538574,4324.615234,4307.307617,4505.128418,4539.102539,4410.128418,4460.384766,,,,,,,,,,,,,,,,,,,,,,,,,,,,,,,,,,,,,,,,,,,,,,,,,,,,,,,,,,,,,,,,,,,,,,
1768918113.860658,1768918113.860693,47.0,0.0,4325.769043,4320.128418,4347.563965,4342.820313,4321.282227,4321.153809,4318.717773,4325.0,4325.0,4308.333496,4509.102539,4538.461426,4411.153809,4461.666504,,,,,,,,,,,,,,,,,,,,,,,,,,,,,,,,,,,,,,,,,,,,,,,,,,,,,,,,,,,,,,,,,,,,,,
1768918113.868467,1768918113.8687,48.0,0.0,4331.922852,4329.615234,4342.563965,4342.692383,4319.230957,4304.358887,4296.794922,4322.179688,4322.436035,4308.717773,4507.436035,4534.487305,4411.025879,4459.743652,0.526027,0.52383,0.365235,0.28799,0.112287,1.056762,0.38865,0.297299,0.135558,0.099077,0.544038,0.462163,0.276529,0.183564,0.09741,0.542251,0.314176,0.286005,0.145149,0.076736,0.214172,0.379765,0.262094,0.101954,0.066299,0.367509,0.512729,0.137944,0.233003,0.161354,0.268783,0.468398,0.170554,0.286953,0.283045,0.342119,0.388139,0.237487,0.244274,0.18042,0.359982,0.200483,0.269667,0.162413,0.0857,0.164014,0.271254,0.271822,0.234228,0.128265,0.28702,0.396654,0.276604,0.413,0.19768,0.407061,0.47643,0.240449,0.401899,0.292774,0.79317,0.662783,0.492219,0.506703,0.263568,0.380119,0.495398,0.32244,0.261418,0.159753
1768918113.876275,1768918113.876507,49.0,0.0,4341.410156,4336.153809,4348.205078,4350.256348,4320.256348,4302.179688,4290.641113,4323.589844,4323.077148,4312.179688,4512.692383,4536.794922,4411.025879,4464.230957,,,,,,,,,,,,,,,,,,,,,,,,,,,,,,,,,,,,,,,,,,,,,,,,,,,,,,,,,,,,,,,,,,,,,,
1768918113.884084,1768918113.884414,50.0,0.0,4343.333496,4335.0,4354.102539,4357.94873,4325.769043,4317.05127,4310.128418,4325.769043,4322.94873,4316.922852,4521.794922,4541.153809,4421.282227,4473.589844,,,,,,,,,,,,,,,,,,,,,,,,,,,,,,,,,,,,,,,,,,,,,,,,,,,,,,,,,,,,,,,,,,,,,,
1768918113.891892,1768918113.892221,51.0,0.0,4337.94873,4332.05127,4350.256348,4353.205078,4327.179688,4321.538574,4315.256348,4321.666504,4314.230957,4313.974121,4513.974121,4536.538574,4425.256348,4473.717773,,,,,,,,,,,,,,,,,,,,,,,,,,,,,,,,,,,,,,,,,,,,,,,,,,,,,,,,,,,,,,,,,,,,,,
1768918113.899701,1768918113.900227,52.0,0.0,4333.974121,4326.538574,4342.820313,4347.307617,4322.94873,4308.717773,4300.897461,4322.563965,4312.94873,4311.922852,4507.05127,4534.230957,4416.794922,4471.666504,,,,,,,,,,,,,,,,,,,,,,,,,,,,,,,,,,,,,,,,,,,,,,,,,,,,,,,,,,,,,,,,,,,,,,
1768918113.907509,1768918113.908034,53.0,0.0,4338.077148,4325.0,4343.846191,4352.307617,4320.384766,4305.769043,4298.461426,4324.230957,4316.794922,4312.692383,4510.256348,4538.077148,4413.205078,4475.128418,,,,,,,,,,,,,,,,,,,,,,,,,,,,,,,,,,,,,,,,,,,,,,,,,,,,,,,,,,,,,,,,,,,,,,
1768918113.915318,1768918113.915741,54.0,0.0,4343.589844,4331.922852,4352.05127,4359.743652,4323.846191,4317.179688,4310.128418,4319.358887,4311.410156,4311.282227,4510.769043,4537.563965,4420.0,4475.256348,,,,,,,,,,,,,,,,,,,,,,,,,,,,,,,,,,,,,,,,,,,,,,,,,,,,,,,,,,,,,,,,,,,,,,
1768918113.923126,1768918113.923547,55.0,0.0,4342.94873,4331.282227,4351.025879,4357.307617,4324.871582,4318.461426,4315.0,4321.922852,4316.025879,4318.717773,4514.871582,4537.692383,4424.743652,4474.358887,,,,,,,,,,,,,,,,,,,,,,,,,,,,,,,,,,,,,,,,,,,,,,,,,,,,,,,,,,,,,,,,,,,,,,
1768918113.930935,1768918113.931154,56.0,0.0,4340.128418,4323.846191,4341.410156,4349.743652,4317.05127,4309.102539,4306.794922,4330.128418,4329.615234,4328.205078,4524.871582,4541.025879,4423.333496,4477.820313,,,,,,,,,,,,,,,,,,,,,,,,,,,,,,,,,,,,,,,,,,,,,,,,,,,,,,,,,,,,,,,,,,,,,,
1768918113.938743,1768918113.93896,57.0,0.0,4338.974121,4323.589844,4343.333496,4348.205078,4315.256348,4308.205078,4304.615234,4325.512695,4323.589844,4323.589844,4524.743652,4539.487305,4421.922852,4473.974121,,,,,,,,,,,,,,,,,,,,,,,,,,,,,,,,,,,,,,,,,,,,,,,,,,,,,,,,,,,,,,,,,,,,,,
1768918113.946551,1768918113.946867,58.0,0.0,4336.922852,4326.794922,4350.0,4354.358887,4322.692383,4313.717773,4312.436035,4322.563965,4310.128418,4314.743652,4514.358887,4538.205078,4418.589844,4462.179688,,,,,,,,,,,,,,,,,,,,,,,,,,,,,,,,,,,,,,,,,,,,,,,,,,,,,,,,,,,,,,,,,,,,,,
1768918113.95436,1768918113.954673,59.0,0.0,4335.512695,4328.461426,4346.666504,4357.05127,4322.307617,4311.538574,4309.358887,4326.666504,4310.128418,4313.717773,4508.461426,4535.384766,4413.205078,4458.589844,,,,,,,,,,,,,,,,,,,,,,,,,,,,,,,,,,,,,,,,,,,,,,,,,,,,,,,,,,,,,,,,,,,,,,
1768918113.962169,1768918113.96268,60.0,0.0,4331.538574,4324.615234,4339.615234,4349.743652,4314.743652,4309.487305,4303.205078,4323.077148,4311.410156,4312.05127,4508.333496,4525.641113,4404.871582,4456.922852,,,,,,,,,,,,,,,,,,,,,,,,,,,,,,,,,,,,,,,,,,,,,,,,,,,,,,,,,,,,,,,,,,,,,,
1768918113.969977,1768918113.970487,61.0,0.0,4323.333496,4314.487305,4335.384766,4340.0,4308.974121,4314.358887,4309.743652,4325.0,4309.743652,4305.256348,4504.102539,4519.743652,4394.743652,4448.461426,,,,,,,,,,,,,,,,,,,,,,,,,,,,,,,,,,,,,,,,,,,,,,,,,,,,,,,,,,,,,,,,,,,,,,
1768918113.977785,1768918113.978393,62.0,0.0,4323.461426,4312.94873,4333.461426,4339.230957,4308.461426,4315.384766,4314.487305,4329.871582,4312.436035,4305.769043,4499.102539,4520.128418,4395.0,4446.794922,,,,,,,,,,,,,,,,,,,,,,,,,,,,,,,,,,,,,,,,,,,,,,,,,,,,,,,,,,,,,,,,,,,,,,
1768918113.985594,1768918113.9862,63.0,0.0,4337.692383,4329.743652,4343.205078,4350.897461,4317.307617,4314.743652,4307.563965,4327.05127,4323.846191,4318.589844,4510.256348,4530.128418,4409.358887,4459.615234,,,,,,,,,,,,,,,,,,,,,,,,,,,,,,,,,,,,,,,,,,,,,,,,,,,,,,,,,,,,,,,,,,,,,,
1768918113.993403,1768918113.994207,64.0,0.0,4347.179688,4338.846191,4358.077148,4361.538574,4325.0,4318.589844,4310.0,4332.179688,4333.846191,4331.153809,4528.205078,4547.05127,4422.179688,4472.179688,0.533578,0.462013,0.408567,0.268597,0.111256,1.145769,0.411532,0.328299,0.132653,0.090765,0.47074,0.401454,0.285567,0.189691,0.098663,0.560682,0.302016,0.317082,0.137823,0.067421,0.201427,0.369406,0.261263,0.098304,0.05629,0.28507,0.482199,0.140084,0.225105,0.150057,0.219262,0.416571,0.203503,0.307503,0.293803,0.32319,0.455399,0.299454,0.309656,0.218432,0.379375,0.238198,0.358507,0.222701,0.087495,0.17847,0.345264,0.33542,0.294152,0.127803,0.309699,0.376072,0.300318,0.561938,0.192248,0.308586,0.463594,0.248498,0.538904,0.27989,0.715338,0.643079,0.48443,0.610607,0.263287,0.377746,0.463522,0.304304,0.276932,0.153355
1768918114.001211,1768918114.002013,65.0,0.0,4336.410156,4328.077148,4353.461426,4354.102539,4317.436035,4325.769043,4320.0,4338.461426,4330.512695,4328.717773,4523.077148,4547.05127,4414.743652,4469.230957,,,,,,,,,,,,,,,,,,,,,,,,,,,,,,,,,,,,,,,,,,,,,,,,,,,,,,,,,,,,,,,,,,,,,,
1768918114.009019,1768918114.00972,66.0,0.0,4323.717773,4321.794922,4338.846191,4340.641113,4310.641113,4325.128418,4318.077148,4329.358887,4323.717773,4318.717773,4507.563965,4533.717773,4403.461426,4459.487305,,,,,,,,,,,,,,,,,,,,,,,,,,,,,,,,,,,,,,,,,,,,,,,,,,,,,,,,,,,,,,,,,,,,,,
1768918114.016828,1768918114.017527,67.0,0.0,4326.025879,4327.436035,4337.179688,4341.410156,4313.205078,4316.410156,4310.512695,4324.230957,4326.153809,4314.358887,4505.769043,4530.384766,4403.974121,4459.102539,,,,,,,,,,,,,,,,,,,,,,,,,,,,,,,,,,,,,,,,,,,,,,,,,,,,,,,,,,,,,,,,,,,,,,
1768918114.024636,1768918114.025133,68.0,0.0,4330.128418,4326.666504,4341.025879,4350.897461,4311.410156,4310.769043,4310.769043,4330.384766,4328.717773,4312.820313,4509.102539,4530.256348,4405.256348,4462.692383,,,,,,,,,,,,,,,,,,,,,,,,,,,,,,,,,,,,,,,,,,,,,,,,,,,,,,,,,,,,,,,,,,,,,,
1768918114.032445,1768918114.03294,69.0,0.0,4328.589844,4322.307617,4339.743652,4354.230957,4307.563965,4311.153809,4311.025879,4327.307617,4321.538574,4311.025879,4506.153809,4523.461426,4401.025879,4459.487305,,,,,,,,,,,,,,,,,,,,,,,,,,,,,,,,,,,,,,,,,,,,,,,,,,,,,,,,,,,,,,,,,,,,,,
1768918114.040254,1768918114.040647,70.0,0.0,4326.666504,4322.692383,4337.94873,4352.179688,4309.230957,4311.410156,4304.871582,4322.692383,4313.461426,4307.179688,4503.717773,4521.153809,4397.436035,4456.538574,,,,,,,,,,,,,,,,,,,,,,,,,,,,,,,,,,,,,,,,,,,,,,,,,,,,,,,,,,,,,,,,,,,,,,
1768918114.048062,1768918114.048453,71.0,0.0,4327.05127,4321.794922,4337.563965,4352.436035,4311.282227,4309.871582,4303.077148,4324.871582,4311.153809,4306.282227,4506.922852,4524.871582,4399.743652,4460.769043,,,,,,,,,,,,,,,,,,,,,,,,,,,,,,,,,,,,,,,,,,,,,,,,,,,,,,,,,,,,,,,,,,,,,,
1768918114.05587,1768918114.05606,72.0,0.0,4327.692383,4320.384766,4337.179688,4353.077148,4310.384766,4311.025879,4309.743652,4323.333496,4314.102539,4308.974121,4509.487305,4529.102539,4402.05127,4461.153809,,,,,,,,,,,,,,,,,,,,,,,,,,,,,,,,,,,,,,,,,,,,,,,,,,,,,,,,,,,,,,,,,,,,,,
1768918114.063679,1768918114.063866,73.0,0.0,4327.94873,4322.820313,4339.871582,4351.153809,4309.102539,4313.333496,4313.333496,4328.717773,4324.230957,4311.666504,4510.0,4535.512695,4400.641113,4460.128418,,,,,,,,,,,,,,,,,,,,,,,,,,,,,,,,,,,,,,,,,,,,,,,,,,,,,,,,,,,,,,,,,,,,,,
1768918114.071488,1768918114.071773,74.0,0.0,4327.436035,4324.358887,4342.05127,4350.897461,4309.615234,4314.871582,4309.358887,4332.563965,4324.743652,4312.05127,4508.974121,4536.153809,4397.820313,4460.0,,,,,,,,,,,,,,,,,,,,,,,,,,,,,,,,,,,,,,,,,,,,,,,,,,,,,,,,,,,,,,,,,,,,,,
1768918114.079296,1768918114.07958,75.0,0.0,4326.153809,4323.589844,4342.05127,4355.256348,4317.307617,4317.179688,4310.128418,4316.153809,4312.820313,4308.974121,4506.922852,4526.410156,4396.922852,4458.461426,,,,,,,,,,,,,,,,,,,,,,,,,,,,,,,,,,,,,,,,,,,,,,,,,,,,,,,,,,,,,,,,,,,,,,
1768918114.087104,1768918114.087587,76.0,0.0,4325.512695,4324.358887,4343.077148,4358.205078,4320.641113,4318.846191,4317.94873,4307.307617,4312.692383,4309.615234,4507.94873,4524.871582,4401.025879,4459.871582,,,,,,,,,,,,,,,,,,,,,,,,,,,,,,,,,,,,,,,,,,,,,,,,,,,,,,,,,,,,,,,,,,,,,,
1768918114.094913,1768918114.095394,77.0,0.0,4327.563965,4325.128418,4344.487305,4355.512695,4312.94873,4319.615234,4318.846191,4322.692383,4322.820313,4312.563965,4508.461426,4531.025879,4403.589844,4463.846191,,,,,,,,,,,,,,,,,,,,,,,,,,,,,,,,,,,,,,,,,,,,,,,,,,,,,,,,,,,,,,,,,,,,,,
1768918114.102721,1768918114.103301,78.0,0.0,4329.487305,4328.333496,4341.922852,4355.512695,4313.077148,4321.282227,4317.94873,4327.820313,4319.615234,4310.0,4504.871582,4526.922852,4396.282227,4456.922852,,,,,,,,,,,,,,,,,,,,,,,,,,,,,,,,,,,,,,,,,,,,,,,,,,,,,,,,,,,,,,,,,,,,,,
1768918114.11053,1768918114.111108,79.0,0.0,4328.077148,4330.512695,4341.410156,4357.307617,4319.615234,4323.974121,4321.282227,4322.563965,4317.436035,4305.897461,4503.717773,4525.384766,4390.512695,4453.974121,,,,,,,,,,,,,,,,,,,,,,,,,,,,,,,,,,,,,,,,,,,,,,,,,,,,,,,,,,,,,,,,,,,,,,
1768918114.118338,1768918114.118715,80.0,0.0,4326.410156,4325.769043,4345.512695,4355.897461,4315.256348,4325.384766,4324.358887,4330.256348,4327.563965,4311.282227,4508.846191,4535.384766,4398.205078,4467.05127,0.58839,0.415774,0.426652,0.241699,0.10869,1.222393,0.431773,0.334575,0.131325,0.089626,0.43885,0.376641,0.285512,0.204793,0.10179,0.5699,0.295835,0.327524,0.137126,0.062836,0.246148,0.333759,0.253734,0.093094,0.049233,0.207413,0.423738,0.157842,0.209333,0.138971,0.200087,0.38906,0.244621,0.315963,0.294326,0.314945,0.518027,0.364921,0.379083,0.256127,0.381303,0.280562,0.437168,0.28366,0.09214,0.191596,0.403579,0.381336,0.352307,0.127935,0.351555,0.365186,0.315833,0.707197,0.192946,0.265455,0.454282,0.2512,0.678266,0.261344,0.611912,0.636178,0.465106,0.690994,0.257683,0.423708,0.471719,0.277571,0.302736,0.149852
1768918114.126147,1768918114.126521,81.0,0.0,4327.692383,4322.179688,4346.153809,4355.128418,4309.487305,4318.717773,4320.769043,4330.512695,4322.436035,4310.897461,4509.358887,4533.846191,4404.102539,4471.410156,,,,,,,,,,,,,,,,,,,,,,,,,,,,,,,,,,,,,,,,,,,,,,,,,,,,,,,,,,,,,,,,,,,,,,
1768918114.133955,1768918114.134428,82.0,0.0,4327.820313,4319.358887,4340.769043,4355.897461,4310.641113,4308.589844,4310.384766,4319.743652,4307.820313,4297.94873,4503.846191,4520.256348,4396.410156,4460.256348,,,,,,,,,,,,,,,,,,,,,,,,,,,,,,,,,,,,,,,,,,,,,,,,,,,,,,,,,,,,,,,,,,,,,,
1768918114.141764,1768918114.142234,83.0,0.0,4326.025879,4314.230957,4337.05127,4353.205078,4310.769043,4307.563965,4304.102539,4321.666504,4313.461426,4299.615234,4504.358887,4522.436035,4393.461426,4459.487305,,,,,,,,,,,,,,,,,,,,,,,,,,,,,,,,,,,,,,,,,,,,,,,,,,,,,,,,,,,,,,,,,,,,,,
1768918114.149572,1768918114.150241,84.0,0.0,4326.666504,4310.384766,4339.871582,4349.358887,4309.358887,4312.820313,4309.487305,4325.512695,4322.307617,4311.922852,4507.05127,4534.102539,4399.487305,4467.436035,,,,,,,,,,,,,,,,,,,,,,,,,,,,,,,,,,,,,,,,,,,,,,,,,,,,,,,,,,,,,,,,,,,,,,
1768918114.157381,1768918114.158048,85.0,0.0,4327.436035,4312.05127,4342.436035,4349.871582,4308.846191,4311.794922,4313.974121,4321.794922,4316.538574,4310.0,4505.769043,4532.05127,4399.871582,4463.846191,,,,,,,,,,,,,,,,,,,,,,,,,,,,,,,,,,,,,,,,,,,,,,,,,,,,,,,,,,,,,,,,,,,,,,
1768918114.165189,1768918114.165954,86.0,0.0,4326.410156,4318.717773,4343.205078,4351.410156,4311.538574,4312.307617,4309.358887,4321.794922,4315.0,4305.0,4505.384766,4523.974121,4397.307617,4458.974121,,,,,,,,,,,,,,,,,,,,,,,,,,,,,,,,,,,,,,,,,,,,,,,,,,,,,,,,,,,,,,,,,,,,,,
1768918114.172998,1768918114.173761,87.0,0.0,4324.230957,4323.461426,4340.128418,4350.256348,4319.871582,4322.307617,4308.589844,4324.743652,4321.794922,4308.333496,4507.563965,4523.717773,4398.717773,4461.153809,,,,,,,,,,,,,,,,,,,,,,,,,,,,,,,,,,,,,,,,,,,,,,,,,,,,,,,,,,,,,,,,,,,,,,
1768918114.180806,1768918114.181368,88.0,0.0,4320.897461,4321.153809,4331.282227,4348.333496,4321.922852,4325.641113,4314.230957,4325.512695,4322.179688,4307.179688,4507.436035,4526.794922,4398.846191,4459.487305,,,,,,,,,,,,,,,,,,,,,,,,,,,,,,,,,,,,,,,,,,,,,,,,,,,,,,,,,,,,,,,,,,,,,,
1768918114.188615,1768918114.189175,89.0,0.0,4318.717773,4317.692383,4328.333496,4349.743652,4316.153809,4322.05127,4317.563965,4325.641113,4320.256348,4303.717773,4505.769043,4524.871582,4398.717773,4455.897461,,,,,,,,,,,,,,,,,,,,,,,,,,,,,,,,,,,,,,,,,,,,,,,,,,,,,,,,,,,,,,,,,,,,,,
1768918114.196423,1768918114.196882,90.0,0.0,4317.820313,4319.615234,4332.94873,4350.0,4318.333496,4322.436035,4317.692383,4322.563965,4317.436035,4305.897461,4505.769043,4519.743652,4397.436035,4455.256348,,,,,,,,,,,,,,,,,,,,,,,,,,,,,,,,,,,,,,,,,,,,,,,,,,,,,,,,,,,,,,,,,,,,,,
1768918114.204232,1768918114.204688,91.0,0.0,4317.692383,4320.641113,4335.256348,4349.230957,4322.179688,4326.666504,4323.846191,4324.487305,4315.641113,4306.794922,4506.922852,4520.0,4399.487305,4456.666504,,,,,,,,,,,,,,,,,,,,,,,,,,,,,,,,,,,,,,,,,,,,,,,,,,,,,,,,,,,,,,,,,,,,,,
1768918114.21204,1768918114.212295,92.0,0.0,4322.563965,4319.487305,4336.922852,4353.589844,4319.615234,4327.05127,4327.436035,4333.205078,4321.282227,4307.94873,4509.102539,4527.179688,4406.922852,4458.333496,,,,,,,,,,,,,,,,,,,,,,,,,,,,,,,,,,,,,,,,,,,,,,,,,,,,,,,,,,,,,,,,,,,,,,
1768918114.219849,1768918114.220102,93.0,0.0,4328.846191,4323.461426,4342.436035,4357.307617,4321.410156,4320.384766,4316.153809,4331.282227,4325.384766,4313.205078,4511.282227,4532.307617,4413.589844,4463.205078,,,,,,,,,,,,,,,,,,,,,,,,,,,,,,,,,,,,,,,,,,,,,,,,,,,,,,,,,,,,,,,,,,,,,,
1768918114.227657,1768918114.227809,94.0,0.0,4324.743652,4324.358887,4342.692383,4353.589844,4326.025879,4319.743652,4311.153809,4322.05127,4323.333496,4314.743652,4511.666504,4525.512695,4413.717773,4463.717773,,,,,,,,,,,,,,,,,,,,,,,,,,,,,,,,,,,,,,,,,,,,,,,,,,,,,,,,,,,,,,,,,,,,,,
1768918114.235466,1768918114.235615,95.0,0.0,4317.820313,4315.512695,4339.102539,4352.563965,4327.05127,4326.282227,4318.846191,4320.769043,4321.282227,4310.384766,4507.820313,4516.410156,4407.436035,4457.307617,,,,,,,,,,,,,,,,,,,,,,,,,,,,,,,,,,,,,,,,,,,,,,,,,,,,,,,,,,,,,,,,,,,,,,
1768918114.243274,1768918114.243222,96.0,0.0,4323.717773,4310.128418,4341.025879,4355.512695,4325.769043,4321.922852,4318.333496,4323.717773,4320.256348,4309.102539,4505.641113,4519.615234,4403.717773,4458.461426,0.653102,0.404414,0.407309,0.218721,0.105412,1.240682,0.431348,0.308814,0.136748,0.09553,0.430615,0.395939,0.266542,0.224772,0.107701,0.560239,0.298347,0.315221,0.143986,0.064854,0.31598,0.282489,0.240025,0.086454,0.047795,0.158633,0.349736,0.181767,0.190989,0.134146,0.22952,0.381048,0.282701,0.308809,0.290496,0.313155,0.558826,0.413441,0.427549,0.283011,0.375385,0.314734,0.485164,0.327999,0.097976,0.196243,0.424655,0.39781,0.391665,0.126607,0.390069,0.369866,0.316898,0.804813,0.198903,0.255698,0.447235,0.252052,0.78007,0.23735,0.505794,0.632171,0.431809,0.721982,0.245061,0.488368,0.525784,0.23881,0.331742,0.14868
1768918114.251083,1768918114.251028,97.0,0.0,4326.153809,4311.666504,4336.282227,4348.205078,4319.358887,4309.358887,4309.230957,4326.410156,4323.974121,4312.563965,4509.230957,4526.025879,4410.128418,4465.0,,,,,,,,,,,,,,,,,,,,,,,,,,,,,,,,,,,,,,,,,,,,,,,,,,,,,,,,,,,,,,,,,,,,,,
1768918114.258891,1768918114.258735,98.0,0.0,4314.743652,4310.512695,4326.666504,4340.128418,4314.230957,4308.461426,4308.717773,4321.410156,4323.077148,4312.436035,4510.128418,4520.384766,4415.384766,4460.384766,,,,,,,,,,,,,,,,,,,,,,,,,,,,,,,,,,,,,,,,,,,,,,,,,,,,,,,,,,,,,,,,,,,,,,
1768918114.2667,1768918114.266542,99.0,0.0,4312.563965,4310.384766,4328.333496,4345.512695,4319.487305,4312.94873,4313.846191,4313.461426,4313.717773,4308.717773,4508.205078,4515.384766,4408.589844,4452.820313,,,,,,,,,,,,,,,,,,,,,,,,,,,,,,,,,,,,,,,,,,,,,,,,,,,,,,,,,,,,,,,,,,,,,,
1768918114.274508,1768918114.274548,100.0,0.0,4320.512695,4312.307617,4336.282227,4352.563965,4325.384766,4310.384766,4315.128418,4320.256348,4317.436035,4309.487305,4506.153809,4520.128418,4403.077148,4455.512695,,,,,,,,,,,,,,,,,,,,,,,,,,,,,,,,,,,,,,,,,,,,,,,,,,,,,,,,,,,,,,,,,,,,,,
1768918114.282317,1768918114.282355,101.0,0.0,4325.769043,4310.769043,4338.974121,4352.05127,4322.05127,4308.974121,4314.230957,4330.769043,4327.94873,4311.410156,4508.077148,4523.589844,4407.563965,4460.0,,,,,,,,,,,,,,,,,,,,,,,,,,,,,,,,,,,,,,,,,,,,,,,,,,,,,,,,,,,,,,,,,,,,,,
1768918114.290125,1768918114.290262,102.0,0.0,4330.769043,4311.794922,4341.025879,4355.0,4321.025879,4316.153809,4315.897461,4326.538574,4323.974121,4311.153809,4517.179688,4528.717773,4412.307617,4462.05127,,,,,,,,,,,,,,,,,,,,,,,,,,,,,,,,,,,,,,,,,,,,,,,,,,,,,,,,,,,,,,,,,,,,,,
1768918114.297934,1768918114.298069,103.0,0.0,4332.179688,4315.128418,4345.512695,4360.384766,4322.692383,4324.871582,4324.230957,4323.077148,4316.666504,4311.794922,4517.94873,4538.846191,4413.974121,4464.487305,,,,,,,,,,,,,,,,,,,,,,,,,,,,,,,,,,,,,,,,,,,,,,,,,,,,,,,,,,,,,,,,,,,,,,
1768918114.305742,1768918114.306076,104.0,0.0,4325.641113,4310.897461,4344.230957,4354.358887,4321.410156,4322.692383,4325.128418,4327.179688,4318.974121,4312.436035,4507.563965,4534.615234,4412.563965,4462.179688,,,,,,,,,,,,,,,,,,,,,,,,,,,,,,,,,,,,,,,,,,,,,,,,,,,,,,,,,,,,,,,,,,,,,,
1768918114.313551,1768918114.313883,105.0,0.0,4324.358887,4307.563965,4338.077148,4343.589844,4317.563965,4310.897461,4309.358887,4326.025879,4323.205078,4311.794922,4509.102539,4522.692383,4410.897461,4458.589844,,,,,,,,,,,,,,,,,,,,,,,,,,,,,,,,,,,,,,,,,,,,,,,,,,,,,,,,,,,,,,,,,,,,,,
1768918114.321359,1768918114.321589,106.0,0.0,4328.589844,4308.589844,4335.0,4342.563965,4314.102539,4306.922852,4297.820313,4319.487305,4321.666504,4312.563965,4516.794922,4523.589844,4411.538574,4460.256348,,,,,,,,,,,,,,,,,,,,,,,,,,,,,,,,,,,,,,,,,,,,,,,,,,,,,,,,,,,,,,,,,,,,,,
1768918114.329168,1768918114.329395,107.0,0.0,4323.461426,4308.846191,4338.077148,4346.538574,4315.897461,4314.102539,4307.820313,4322.307617,4319.487305,4313.333496,4511.282227,4527.436035,4412.820313,4459.358887,,,,,,,,,,,,,,,,,,,,,,,,,,,,,,,,,,,,,,,,,,,,,,,,,,,,,,,,,,,,,,,,,,,,,,
1768918114.336976,1768918114.337402,108.0,0.0,4320.512695,4308.717773,4340.897461,4348.846191,4320.897461,4321.153809,4320.512695,4327.563965,4320.512695,4312.307617,4505.641113,4524.487305,4410.384766,4455.512695,,,,,,,,,,,,,,,,,,,,,,,,,,,,,,,,,,,,,,,,,,,,,,,,,,,,,,,,,,,,,,,,,,,,,,
1768918114.344785,1768918114.345209,109.0,0.0,4325.128418,4306.794922,4337.05127,4349.102539,4321.025879,4321.025879,4312.563965,4321.794922,4317.820313,4311.025879,4507.436035,4521.282227,4405.641113,4457.94873,,,,,,,,,,,,,,,,,,,,,,,,,,,,,,,,,,,,,,,,,,,,,,,,,,,,,,,,,,,,,,,,,,,,,,
1768918114.352593,1768918114.353115,110.0,0.0,4325.128418,4303.974121,4332.436035,4348.589844,4320.256348,4316.922852,4304.743652,4317.307617,4311.666504,4311.025879,4505.641113,4519.487305,4403.205078,4460.384766,,,,,,,,,,,,,,,,,,,,,,,,,,,,,,,,,,,,,,,,,,,,,,,,,,,,,,,,,,,,,,,,,,,,,,
1768918114.360402,1768918114.360922,111.0,0.0,4324.615234,4306.410156,4339.230957,4353.333496,4324.358887,4320.769043,4316.538574,4325.897461,4312.05127,4311.794922,4507.820313,4522.05127,4407.179688,4458.974121,,,,,,,,,,,,,,,,,,,,,,,,,,,,,,,,,,,,,,,,,,,,,,,,,,,,,,,,,,,,,,,,,,,,,,
1768918114.36821,1768918114.368929,112.0,0.0,4328.461426,4310.769043,4349.230957,4360.641113,4327.307617,4323.589844,4320.769043,4327.94873,4313.205078,4312.820313,4513.717773,4524.487305,4410.897461,4466.025879,0.685959,0.429105,0.354195,0.20957,0.103949,1.177648,0.407225,0.258616,0.153084,0.106648,0.431035,0.447341,0.230122,0.243807,0.116514,0.531522,0.307099,0.286681,0.158691,0.074201,0.383409,0.233386,0.219061,0.080791,0.053398,0.14954,0.286111,0.198106,0.174727,0.139655,0.312297,0.384061,0.301636,0.288108,0.289222,0.319436,0.564031,0.427674,0.436603,0.292553,0.379447,0.3367,0.497421,0.343823,0.104254,0.194034,0.404619,0.387798,0.401084,0.122333,0.418067,0.388647,0.307538,0.825369,0.206584,0.260599,0.441461,0.264515,0.815273,0.211655,0.423344,0.620348,0.38946,0.692498,0.225942,0.538208,0.620434,0.19567,0.352556,0.149091
1768918114.376019,1768918114.376735,113.0,0.0,4331.538574,4314.487305,4347.820313,4363.717773,4326.538574,4319.102539,4309.358887,4320.384766,4314.230957,4312.820313,4516.538574,4524.230957,4413.077148,4477.05127,,,,,,,,,,,,,,,,,,,,,,,,,,,,,,,,,,,,,,,,,,,,,,,,,,,,,,,,,,,,,,,,,,,,,,
1768918114.383827,1768918114.384442,114.0,0.0,4327.179688,4316.794922,4340.512695,4360.897461,4325.128418,4318.461426,4310.641113,4325.769043,4320.897461,4312.563965,4515.512695,4525.512695,4413.205078,4472.820313,,,,,,,,,,,,,,,,,,,,,,,,,,,,,,,,,,,,,,,,,,,,,,,,,,,,,,,,,,,,,,,,,,,,,,
1768918114.391636,1768918114.392249,115.0,0.0,4327.820313,4315.256348,4339.743652,4357.820313,4322.563965,4317.692383,4319.615234,4331.538574,4319.102539,4313.077148,4511.025879,4523.461426,4406.922852,4464.871582,,,,,,,,,,,,,,,,,,,,,,,,,,,,,,,,,,,,,,,,,,,,,,,,,,,,,,,,,,,,,,,,,,,,,,
1768918114.399444,1768918114.400256,116.0,0.0,4334.615234,4313.717773,4345.128418,4363.333496,4324.102539,4317.563965,4316.153809,4317.820313,4309.615234,4312.820313,4509.871582,4519.615234,4405.512695,4471.025879,,,,,,,,,,,,,,,,,,,,,,,,,,,,,,,,,,,,,,,,,,,,,,,,,,,,,,,,,,,,,,,,,,,,,,
1768918114.407253,1768918114.408063,117.0,0.0,4331.666504,4313.333496,4347.179688,4365.641113,4327.94873,4320.897461,4310.128418,4312.179688,4309.743652,4311.282227,4511.922852,4524.743652,4409.102539,4474.871582,,,,,,,,,,,,,,,,,,,,,,,,,,,,,,,,,,,,,,,,,,,,,,,,,,,,,,,,,,,,,,,,,,,,,,
1768918114.415061,1768918114.41577,118.0,0.0,4323.589844,4310.0,4341.282227,4354.230957,4324.871582,4316.538574,4308.974121,4322.820313,4313.077148,4309.743652,4511.538574,4532.692383,4403.077148,4463.589844,,,,,,,,,,,,,,,,,,,,,,,,,,,,,,,,,,,,,,,,,,,,,,,,,,,,,,,,,,,,,,,,,,,,,,
1768918114.42287,1768918114.423577,119.0,0.0,4325.641113,4311.153809,4332.436035,4346.282227,4319.102539,4307.563965,4307.179688,4323.333496,4311.282227,4310.512695,4508.205078,4525.641113,4397.820313,4457.820313,,,,,,,,,,,,,,,,,,,,,,,,,,,,,,,,,,,,,,,,,,,,,,,,,,,,,,,,,,,,,,,,,,,,,,
1768918114.430678,1768918114.431183,120.0,0.0,4334.358887,4317.820313,4334.871582,4353.717773,4321.538574,4313.589844,4313.974121,4316.025879,4309.871582,4311.794922,4508.333496,4521.025879,4407.179688,4468.205078,,,,,,,,,,,,,,,,,,,,,,,,,,,,,,,,,,,,,,,,,,,,,,,,,,,,,,,,,,,,,,,,,,,,,,
1768918114.438487,1768918114.43899,121.0,0.0,4338.461426,4318.717773,4349.230957,4359.871582,4325.0,4321.794922,4319.615234,4322.820313,4310.897461,4310.512695,4514.871582,4532.563965,4414.615234,4477.05127,,,,,,,,,,,,,,,,,,,,,,,,,,,,,,,,,,,,,,,,,,,,,,,,,,,,,,,,,,,,,,,,,,,,,,
1768918114.446295,1768918114.446697,122.0,0.0,4336.794922,4318.589844,4354.230957,4358.077148,4322.436035,4319.487305,4316.794922,4330.256348,4312.692383,4309.743652,4516.410156,4534.615234,4410.384766,4472.692383,,,,,,,,,,,,,,,,,,,,,,,,,,,,,,,,,,,,,,,,,,,,,,,,,,,,,,,,,,,,,,,,,,,,,,
1768918114.454104,1768918114.454503,123.0,0.0,4331.025879,4319.487305,4344.230957,4357.436035,4320.769043,4318.333496,4316.922852,4325.641113,4313.461426,4311.410156,4511.538574,4524.487305,4405.256348,4463.846191,,,,,,,,,,,,,,,,,,,,,,,,,,,,,,,,,,,,,,,,,,,,,,,,,,,,,,,,,,,,,,,,,,,,,,
1768918114.461912,1768918114.46211,124.0,0.0,4322.05127,4313.717773,4333.333496,4354.871582,4321.794922,4320.256348,4320.256348,4325.769043,4311.025879,4309.743652,4505.769043,4518.846191,4397.179688,4457.820313,,,,,,,,,,,,,,,,,,,,,,,,,,,,,,,,,,,,,,,,,,,,,,,,,,,,,,,,,,,,,,,,,,,,,,
1768918114.469721,1768918114.469916,125.0,0.0,4321.538574,4313.077148,4336.282227,4354.487305,4322.563965,4322.179688,4317.05127,4328.077148,4311.666504,4308.461426,4505.769043,4520.256348,4395.641113,4461.153809,,,,,,,,,,,,,,,,,,,,,,,,,,,,,,,,,,,,,,,,,,,,,,,,,,,,,,,,,,,,,,,,,,,,,,
1768918114.477529,1768918114.477823,126.0,0.0,4335.256348,4322.563965,4347.94873,4360.256348,4322.94873,4320.0,4311.153809,4327.436035,4315.256348,4312.307617,4513.077148,4530.897461,4406.282227,4472.94873,,,,,,,,,,,,,,,,,,,,,,,,,,,,,,,,,,,,,,,,,,,,,,,,,,,,,,,,,,,,,,,,,,,,,,
1768918114.485338,1768918114.48563,127.0,0.0,4345.641113,4325.641113,4353.333496,4365.512695,4323.846191,4320.512695,4313.974121,4327.563965,4314.230957,4313.846191,4522.94873,4539.871582,4413.717773,4480.128418,,,,,,,,,,,,,,,,,,,,,,,,,,,,,,,,,,,,,,,,,,,,,,,,,,,,,,,,,,,,,,,,,,,,,,
