Timestamp,OriginalTimestamp,EEG.Counter,EEG.Interpolated,EEG.AF3,EEG.F7,EEG.F3,EEG.FC5,EEG.T7,EEG.P7,EEG.O1,EEG.O2,EEG.P8,EEG.T8,EEG.FC6,EEG.F4,EEG.F8,EEG.AF4,POW.AF3.Theta,POW.AF3.Alpha,POW.AF3.BetaL,POW.AF3.BetaH,POW.AF3.Gamma,POW.F7.Theta,POW.F7.Alpha,POW.F7.BetaL,POW.F7.BetaH,POW.F7.Gamma,POW.F3.Theta,POW.F3.Alpha,POW.F3.BetaL,POW.F3.BetaH,POW.F3.Gamma,POW.FC5.Theta,POW.FC5.Alpha,POW.FC5.BetaL,POW.FC5.BetaH,POW.FC5.Gamma,POW.T7.Theta,POW.T7.Alpha,POW.T7.BetaL,POW.T7.BetaH,POW.T7.Gamma,POW.P7.Theta,POW.P7.Alpha,POW.P7.BetaL,POW.P7.BetaH,POW.P7.Gamma,POW.O1.Theta,POW.O1.Alpha,POW.O1.BetaL,POW.O1.BetaH,POW.O1.Gamma,POW.O2.Theta,POW.O2.Alpha,POW.O2.BetaL,POW.O2.BetaH,POW.O2.Gamma,POW.P8.Theta,POW.P8.Alpha,POW.P8.BetaL,POW.P8.BetaH,POW.P8.Gamma,POW.T8.Theta,POW.T8.Alpha,POW.T8.BetaL,POW.T8.BetaH,POW.T8.Gamma,POW.FC6.Theta,POW.FC6.Alpha,POW.FC6.BetaL,POW.FC6.BetaH,POW.FC6.Gamma,POW.F4.Theta,POW.F4.Alpha,POW.F4.BetaL,POW.F4.BetaH,POW.F4.Gamma,POW.F8.Theta,POW.F8.Alpha,POW.F8.BetaL,POW.F8.BetaH,POW.F8.Gamma,POW.AF4.Theta,POW.AF4.Alpha,POW.AF4.BetaL,POW.AF4.BetaH,POW.AF4.Gamma
1769162286.85229,1769162286.852579,41.0,0.0,4357.820313,4291.922852,4493.333496,4324.743652,4231.282227,4309.615234,4280.641113,4295.0,4280.897461,4261.538574,4569.743652,4562.820313,4408.205078,4492.692383,,,,,,,,,,,,,,,,,,,,,,,,,,,,,,,,,,,,,,,,,,,,,,,,,,,,,,,,,,,,,,,,,,,,,,
1769162286.860098,1769162286.860287,42.0,0.0,4369.102539,4304.871582,4504.487305,4335.0,4243.717773,4315.897461,4278.589844,4282.563965,4276.538574,4280.641113,4580.128418,4579.743652,4420.897461,4507.94873,,,,,,,,,,,,,,,,,,,,,,,,,,,,,,,,,,,,,,,,,,,,,,,,,,,,,,,,,,,,,,,,,,,,,,
1769162286.867907,1769162286.868096,43.0,0.0,4378.974121,4307.692383,4511.025879,4343.589844,4247.307617,4322.436035,4282.820313,4283.333496,4275.641113,4277.436035,4579.743652,4586.410156,4426.538574,4514.743652,,,,,,,,,,,,,,,,,,,,,,,,,,,,,,,,,,,,,,,,,,,,,,,,,,,,,,,,,,,,,,,,,,,,,,
1769162286.875715,1769162286.876104,44.0,0.0,4373.077148,4293.333496,4495.897461,4337.820313,4242.05127,4323.205078,4285.256348,4294.615234,4279.230957,4264.230957,4569.743652,4580.0,4413.717773,4509.487305,,,,,,,,,,,,,,,,,,,,,,,,,,,,,,,,,,,,,,,,,,,,,,,,,,,,,,,,,,,,,,,,,,,,,,
1769162286.883524,1769162286.883912,45.0,0.0,4368.974121,4295.512695,4492.307617,4334.871582,4246.538574,4319.615234,4280.384766,4288.717773,4277.05127,4260.769043,4566.153809,4577.563965,4405.384766,4506.538574,,,,,,,,,,,,,,,,,,,,,,,,,,,,,,,,,,,,,,,,,,,,,,,,,,,,,,,,,,,,,,,,,,,,,,
1769162286.891332,1769162286.891821,46.0,0.0,4376.794922,4310.384766,4508.205078,4343.333496,4251.153809,4320.512695,4278.333496,4286.025879,4276.794922,4267.436035,4571.410156,4586.025879,4414.871582,4508.846191,0.843752,0.409603,0.216962,0.146547,0.139542,0.695112,0.347825,0.149578,0.105272,0.115959,0.260459,0.277495,0.167748,0.110153,0.099112,0.426023,0.367357,0.100114,0.088006,0.097456,0.253671,0.104188,0.035608,0.045376,0.036484,0.094759,0.191295,0.177889,0.114329,0.151114,0.247968,0.17429,0.166851,0.157911,0.08322,0.244354,0.227619,0.418167,0.244484,0.123114,0.170586,0.532729,0.427813,0.240463,0.167999,0.417746,0.603817,0.803914,0.326162,0.322962,0.513272,0.524308,0.531744,0.184706,0.138714,0.776381,0.449547,0.500988,0.165126,0.103208,0.246509,0.511663,0.656484,0.307243,0.207673,0.924065,0.623974,0.496623,0.392226,0.255914
1769162286.899141,1769162286.899629,47.0,0.0,4374.615234,4303.846191,4504.871582,4341.153809,4245.641113,4323.589844,4280.512695,4294.487305,4278.717773,4271.282227,4573.461426,4589.615234,4418.717773,4509.102539,,,,,,,,,,,,,,,,,,,,,,,,,,,,,,,,,,,,,,,,,,,,,,,,,,,,,,,,,,,,,,,,,,,,,,
1769162286.906949,1769162286.907637,48.0,0.0,4362.436035,4288.717773,4491.282227,4330.512695,4246.538574,4327.436035,4286.538574,4295.512695,4277.307617,4264.743652,4570.0,4583.461426,4411.922852,4507.820313,,,,,,,,,,,,,,,,,,,,,,,,,,,,,,,,,,,,,,,,,,,,,,,,,,,,,,,,,,,,,,,,,,,,,,
1769162286.914758,1769162286.915446,49.0,0.0,4359.230957,4288.333496,4489.487305,4327.692383,4247.05127,4332.05127,4293.589844,4297.436035,4281.794922,4266.538574,4568.974121,4585.256348,4408.077148,4505.0,,,,,,,,,,,,,,,,,,,,,,,,,,,,,,,,,,,,,,,,,,,,,,,,,,,,,,,,,,,,,,,,,,,,,,
1769162286.922566,1769162286.923354,50.0,0.0,4363.333496,4291.666504,4493.461426,4331.794922,4237.563965,4328.461426,4290.384766,4301.538574,4290.128418,4285.384766,4578.205078,4596.025879,4413.717773,4506.153809,,,,,,,,,,,,,,,,,,,,,,,,,,,,,,,,,,,,,,,,,,,,,,,,,,,,,,,,,,,,,,,,,,,,,,
1769162286.930375,1769162286.931163,51.0,0.0,4373.077148,4296.922852,4502.307617,4337.692383,4237.179688,4317.692383,4283.333496,4296.282227,4289.487305,4294.743652,4593.205078,4604.871582,4428.717773,4520.128418,,,,,,,,,,,,,,,,,,,,,,,,,,,,,,,,,,,,,,,,,,,,,,,,,,,,,,,,,,,,,,,,,,,,,,
1769162286.938183,1769162286.939171,52.0,0.0,4379.358887,4304.487305,4507.692383,4341.666504,4246.410156,4317.94873,4286.666504,4294.358887,4282.179688,4277.307617,4587.692383,4604.743652,4429.743652,4527.307617,,,,,,,,,,,,,,,,,,,,,,,,,,,,,,,,,,,,,,,,,,,,,,,,,,,,,,,,,,,,,,,,,,,,,,
1769162286.945991,1769162286.946979,53.0,0.0,4373.846191,4306.282227,4498.717773,4342.179688,4248.589844,4327.820313,4292.820313,4298.077148,4279.871582,4264.615234,4570.0,4598.205078,4414.871582,4515.641113,,,,,,,,,,,,,,,,,,,,,,,,,,,,,,,,,,,,,,,,,,,,,,,,,,,,,,,,,,,,,,,,,,,,,,
1769162286.9538,1769162286.954888,54.0,0.0,4368.717773,4303.846191,4492.307617,4343.077148,4246.794922,4328.589844,4292.436035,4294.102539,4278.461426,4273.589844,4573.077148,4596.282227,4410.384766,4507.307617,,,,,,,,,,,,,,,,,,,,,,,,,,,,,,,,,,,,,,,,,,,,,,,,,,,,,,,,,,,,,,,,,,,,,,
1769162286.961608,1769162286.962696,55.0,0.0,4372.179688,4300.0,4496.794922,4344.743652,4247.94873,4324.358887,4292.307617,4293.205078,4278.461426,4280.0,4585.256348,4598.461426,4416.025879,4511.410156,,,,,,,,,,,,,,,,,,,,,,,,,,,,,,,,,,,,,,,,,,,,,,,,,,,,,,,,,,,,,,,,,,,,,,
1769162286.969417,1769162286.970505,56.0,0.0,4372.820313,4295.641113,4496.538574,4342.179688,4246.794922,4325.384766,4295.0,4299.871582,4281.282227,4269.615234,4576.282227,4593.461426,4414.487305,4510.512695,,,,,,,,,,,,,,,,,,,,,,,,,,,,,,,,,,,,,,,,,,,,,,,,,,,,,,,,,,,,,,,,,,,,,,
1769162286.977225,1769162286.978313,57.0,0.0,4371.025879,4298.717773,4493.461426,4341.025879,4246.153809,4328.333496,4295.0,4294.615234,4274.871582,4257.436035,4562.820313,4583.846191,4407.563965,4503.077148,,,,,,,,,,,,,,,,,,,,,,,,,,,,,,,,,,,,,,,,,,,,,,,,,,,,,,,,,,,,,,,,,,,,,,
1769162286.985034,1769162286.986221,58.0,0.0,4376.282227,4306.410156,4497.05127,4348.717773,4250.512695,4326.794922,4292.436035,4287.692383,4273.333496,4268.333496,4575.512695,4585.384766,4412.436035,4508.205078,,,,,,,,,,,,,,,,,,,,,,,,,,,,,,,,,,,,,,,,,,,,,,,,,,,,,,,,,,,,,,,,,,,,,,
1769162286.992842,1769162286.99403,59.0,0.0,4377.179688,4305.512695,4496.282227,4351.025879,4251.410156,4322.692383,4293.974121,4297.692383,4286.922852,4284.102539,4588.205078,4591.410156,4421.538574,4516.922852,,,,,,,,,,,,,,,,,,,,,,,,,,,,,,,,,,,,,,,,,,,,,,,,,,,,,,,,,,,,,,,,,,,,,,
1769162287.000651,1769162287.001638,60.0,0.0,4370.769043,4301.794922,4491.025879,4346.025879,4249.230957,4321.666504,4294.743652,4295.897461,4285.897461,4272.307617,4576.538574,4585.641113,4419.358887,4513.461426,,,,,,,,,,,,,,,,,,,,,,,,,,,,,,,,,,,,,,,,,,,,,,,,,,,,,,,,,,,,,,,,,,,,,,
1769162287.008459,1769162287.009447,61.0,0.0,4369.358887,4306.410156,4491.282227,4349.102539,4249.102539,4321.410156,4288.461426,4278.077148,4270.897461,4257.436035,4564.615234,4577.94873,4410.256348,4502.179688,,,,,,,,,,,,,,,,,,,,,,,,,,,,,,,,,,,,,,,,,,,,,,,,,,,,,,,,,,,,,,,,,,,,,,
1769162287.016267,1769162287.017355,62.0,0.0,4372.05127,4309.615234,4491.922852,4350.384766,4249.358887,4322.820313,4289.487305,4284.102539,4274.230957,4272.05127,4571.666504,4581.282227,4411.025879,4498.589844,0.799529,0.361564,0.200952,0.139416,0.147426,0.656161,0.312113,0.158126,0.112367,0.123603,0.289797,0.268872,0.160655,0.102581,0.112876,0.42235,0.32848,0.11461,0.086253,0.113396,0.381137,0.100928,0.030913,0.045029,0.03714,0.084996,0.214597,0.198763,0.117045,0.165039,0.223187,0.174788,0.156536,0.165818,0.097739,0.272084,0.254429,0.431645,0.24406,0.137448,0.16026,0.514572,0.386655,0.257649,0.161998,0.440695,0.542004,0.677708,0.338181,0.3086,0.616412,0.512792,0.541449,0.184651,0.120562,0.832494,0.47148,0.44995,0.164024,0.101466,0.329189,0.493455,0.725874,0.320039,0.187188,1.063806,0.697886,0.521591,0.395131,0.234649
1769162287.024076,1769162287.025164,63.0,0.0,4373.717773,4308.461426,4489.871582,4342.692383,4246.410156,4322.307617,4295.641113,4299.487305,4283.461426,4288.205078,4581.794922,4587.179688,4417.820313,4503.589844,,,,,,,,,,,,,,,,,,,,,,,,,,,,,,,,,,,,,,,,,,,,,,,,,,,,,,,,,,,,,,,,,,,,,,
1769162287.031884,1769162287.032772,64.0,0.0,4376.538574,4309.743652,4490.128418,4344.102539,4245.512695,4317.307617,4293.717773,4292.307617,4279.487305,4279.102539,4582.179688,4586.153809,4420.256348,4506.410156,,,,,,,,,,,,,,,,,,,,,,,,,,,,,,,,,,,,,,,,,,,,,,,,,,,,,,,,,,,,,,,,,,,,,,
1769162287.039693,1769162287.040581,65.0,0.0,4374.871582,4311.666504,4492.307617,4351.410156,4249.871582,4319.615234,4292.307617,4288.077148,4278.461426,4275.256348,4579.230957,4586.794922,4422.307617,4508.717773,,,,,,,,,,,,,,,,,,,,,,,,,,,,,,,,,,,,,,,,,,,,,,,,,,,,,,,,,,,,,,,,,,,,,,
1769162287.047501,1769162287.048289,66.0,0.0,4368.974121,4308.589844,4493.461426,4350.384766,4252.05127,4326.538574,4293.846191,4297.436035,4281.666504,4279.743652,4574.102539,4587.692383,4416.153809,4505.512695,,,,,,,,,,,,,,,,,,,,,,,,,,,,,,,,,,,,,,,,,,,,,,,,,,,,,,,,,,,,,,,,,,,,,,
1769162287.05531,1769162287.056098,67.0,0.0,4366.538574,4302.692383,4488.461426,4348.461426,4249.871582,4326.282227,4291.410156,4294.743652,4279.743652,4270.897461,4570.256348,4583.589844,4410.0,4500.769043,,,,,,,,,,,,,,,,,,,,,,,,,,,,,,,,,,,,,,,,,,,,,,,,,,,,,,,,,,,,,,,,,,,,,,
1769162287.063118,1769162287.063706,68.0,0.0,4367.436035,4297.563965,4483.205078,4348.205078,4248.846191,4324.487305,4293.589844,4282.307617,4274.358887,4261.410156,4572.436035,4581.794922,4420.384766,4505.512695,,,,,,,,,,,,,,,,,,,,,,,,,,,,,,,,,,,,,,,,,,,,,,,,,,,,,,,,,,,,,,,,,,,,,,
1769162287.070927,1769162287.071515,69.0,0.0,4373.077148,4295.769043,4488.717773,4350.769043,4251.794922,4324.871582,4293.461426,4278.717773,4269.358887,4262.179688,4572.692383,4585.256348,4426.922852,4512.05127,,,,,,,,,,,,,,,,,,,,,,,,,,,,,,,,,,,,,,,,,,,,,,,,,,,,,,,,,,,,,,,,,,,,,,
1769162287.078735,1769162287.079423,70.0,0.0,4373.974121,4297.436035,4492.563965,4355.897461,4252.563965,4320.769043,4283.589844,4285.769043,4272.692383,4262.563965,4568.974121,4585.769043,4417.436035,4510.0,,,,,,,,,,,,,,,,,,,,,,,,,,,,,,,,,,,,,,,,,,,,,,,,,,,,,,,,,,,,,,,,,,,,,,
1769162287.086543,1769162287.087232,71.0,0.0,4364.358887,4295.769043,4481.153809,4347.94873,4249.487305,4317.820313,4284.230957,4291.922852,4273.846191,4260.897461,4568.846191,4582.05127,4409.871582,4500.384766,,,,,,,,,,,,,,,,,,,,,,,,,,,,,,,,,,,,,,,,,,,,,,,,,,,,,,,,,,,,,,,,,,,,,,
1769162287.094352,1769162287.09524,72.0,0.0,4359.743652,4291.282227,4472.436035,4338.589844,4249.230957,4320.256348,4293.333496,4292.05127,4268.974121,4264.487305,4571.666504,4582.94873,4413.589844,4500.256348,,,,,,,,,,,,,,,,,,,,,,,,,,,,,,,,,,,,,,,,,,,,,,,,,,,,,,,,,,,,,,,,,,,,,,
1769162287.102161,1769162287.103048,73.0,0.0,4365.256348,4294.615234,4479.102539,4347.307617,4250.897461,4321.922852,4293.333496,4289.230957,4270.769043,4267.563965,4570.0,4585.512695,4414.871582,4505.384766,,,,,,,,,,,,,,,,,,,,,,,,,,,,,,,,,,,,,,,,,,,,,,,,,,,,,,,,,,,,,,,,,,,,,,
1769162287.109969,1769162287.110957,74.0,0.0,4369.102539,4302.307617,4484.102539,4353.974121,4251.153809,4321.922852,4286.794922,4282.05127,4267.94873,4266.025879,4569.487305,4582.94873,4413.589844,4502.692383,,,,,,,,,,,,,,,,,,,,,,,,,,,,,,,,,,,,,,,,,,,,,,,,,,,,,,,,,,,,,,,,,,,,,,
1769162287.117777,1769162287.118765,75.0,0.0,4369.358887,4302.563965,4478.846191,4350.128418,4251.538574,4319.615234,4284.615234,4278.333496,4262.436035,4263.846191,4570.897461,4580.128418,4412.05127,4501.282227,,,,,,,,,,,,,,,,,,,,,,,,,,,,,,,,,,,,,,,,,,,,,,,,,,,,,,,,,,,,,,,,,,,,,,
1769162287.125586,1769162287.126374,76.0,0.0,4371.794922,4297.436035,4476.153809,4352.307617,4251.794922,4316.794922,4285.897461,4285.384766,4273.077148,4263.846191,4571.410156,4583.589844,4413.205078,4507.05127,,,,,,,,,,,,,,,,,,,,,,,,,,,,,,,,,,,,,,,,,,,,,,,,,,,,,,,,,,,,,,,,,,,,,,
1769162287.133394,1769162287.134182,77.0,0.0,4373.846191,4296.666504,4484.871582,4358.077148,4251.794922,4319.487305,4290.897461,4291.538574,4283.974121,4271.410156,4577.179688,4590.641113,4425.128418,4510.641113,,,,,,,,,,,,,,,,,,,,,,,,,,,,,,,,,,,,,,,,,,,,,,,,,,,,,,,,,,,,,,,,,,,,,,
1769162287.141203,1769162287.142091,78.0,0.0,4374.487305,4298.333496,4489.102539,4356.410156,4252.436035,4321.794922,4293.589844,4291.410156,4280.512695,4274.358887,4582.05127,4593.846191,4429.358887,4509.358887,0.735801,0.32096,0.193679,0.134738,0.155604,0.566765,0.288593,0.197522,0.119939,0.13091,0.36085,0.243849,0.16042,0.092126,0.125706,0.400285,0.271671,0.140841,0.086537,0.127944,0.526481,0.12586,0.035419,0.046893,0.040497,0.084653,0.230076,0.208911,0.128842,0.178452,0.212847,0.179756,0.143983,0.173204,0.114639,0.349476,0.27931,0.437387,0.25384,0.153222,0.185491,0.472026,0.36206,0.27942,0.156448,0.485521,0.461804,0.546285,0.361587,0.299088,0.708716,0.482538,0.517663,0.187958,0.10833,0.870813,0.488719,0.389056,0.177793,0.098862,0.393657,0.477126,0.752602,0.330882,0.172412,1.143688,0.715416,0.527122,0.391621,0.213571
1769162287.149011,1769162287.149899,79.0,0.0,4369.615234,4296.153809,4479.358887,4349.871582,4251.282227,4312.307617,4286.794922,4290.0,4277.436035,4266.666504,4574.487305,4588.461426,4416.794922,4505.769043,,,,,,,,,,,,,,,,,,,,,,,,,,,,,,,,,,,,,,,,,,,,,,,,,,,,,,,,,,,,,,,,,,,,,,
1769162287.15682,1769162287.157608,80.0,0.0,4363.333496,4292.563965,4472.307617,4345.641113,4247.94873,4308.077148,4284.871582,4288.333496,4276.153809,4263.717773,4565.128418,4576.666504,4407.94873,4493.974121,,,,,,,,,,,,,,,,,,,,,,,,,,,,,,,,,,,,,,,,,,,,,,,,,,,,,,,,,,,,,,,,,,,,,,
1769162287.164628,1769162287.165416,81.0,0.0,4366.538574,4293.077148,4475.256348,4345.512695,4247.94873,4317.307617,4290.897461,4288.974121,4273.077148,4266.538574,4567.05127,4576.153809,4410.256348,4487.820313,,,,,,,,,,,,,,,,,,,,,,,,,,,,,,,,,,,,,,,,,,,,,,,,,,,,,,,,,,,,,,,,,,,,,,
1769162287.172437,1769162287.173125,82.0,0.0,4373.461426,4295.641113,4477.692383,4348.333496,4251.025879,4317.179688,4291.025879,4290.641113,4276.153809,4263.846191,4570.0,4585.641113,4410.897461,4498.205078,,,,,,,,,,,,,,,,,,,,,,,,,,,,,,,,,,,,,,,,,,,,,,,,,,,,,,,,,,,,,,,,,,,,,,
1769162287.180245,1769162287.180933,83.0,0.0,4374.743652,4295.256348,4476.794922,4348.077148,4251.282227,4312.94873,4287.820313,4291.410156,4275.512695,4262.436035,4570.0,4589.358887,4412.179688,4506.794922,,,,,,,,,,,,,,,,,,,,,,,,,,,,,,,,,,,,,,,,,,,,,,,,,,,,,,,,,,,,,,,,,,,,,,
1769162287.188053,1769162287.188941,84.0,0.0,4370.384766,4293.205078,4475.0,4343.077148,4248.205078,4317.307617,4291.666504,4300.641113,4277.692383,4263.077148,4572.307617,4590.384766,4415.769043,4506.538574,,,,,,,,,,,,,,,,,,,,,,,,,,,,,,,,,,,,,,,,,,,,,,,,,,,,,,,,,,,,,,,,,,,,,,
1769162287.195862,1769162287.19675,85.0,0.0,4372.307617,4293.717773,4473.717773,4342.05127,4249.615234,4315.641113,4291.025879,4301.153809,4281.153809,4260.384766,4573.461426,4587.692383,4417.692383,4506.282227,,,,,,,,,,,,,,,,,,,,,,,,,,,,,,,,,,,,,,,,,,,,,,,,,,,,,,,,,,,,,,,,,,,,,,
1769162287.20367,1769162287.204458,86.0,0.0,4381.153809,4296.922852,4478.717773,4350.0,4254.487305,4308.205078,4281.410156,4280.897461,4272.307617,4267.94873,4571.666504,4584.102539,4423.846191,4508.077148,,,,,,,,,,,,,,,,,,,,,,,,,,,,,,,,,,,,,,,,,,,,,,,,,,,,,,,,,,,,,,,,,,,,,,
1769162287.211479,1769162287.212267,87.0,0.0,4380.256348,4302.05127,4477.692383,4353.461426,4253.461426,4308.205078,4278.333496,4274.358887,4268.974121,4277.307617,4571.666504,4588.333496,4429.615234,4509.743652,,,,,,,,,,,,,,,,,,,,,,,,,,,,,,,,,,,,,,,,,,,,,,,,,,,,,,,,,,,,,,,,,,,,,,
1769162287.219287,1769162287.220275,88.0,0.0,4376.666504,4303.333496,4475.128418,4348.333496,4248.717773,4311.282227,4283.461426,4290.641113,4277.94873,4273.974121,4576.794922,4595.769043,4428.717773,4515.769043,,,,,,,,,,,,,,,,,,,,,,,,,,,,,,,,,,,,,,,,,,,,,,,,,,,,,,,,,,,,,,,,,,,,,,
1769162287.227096,1769162287.228083,89.0,0.0,4383.077148,4299.871582,4486.025879,4353.461426,4249.743652,4315.769043,4286.410156,4297.05127,4281.282227,4271.666504,4580.384766,4596.538574,4429.358887,4520.384766,,,,,,,,,,,,,,,,,,,,,,,,,,,,,,,,,,,,,,,,,,,,,,,,,,,,,,,,,,,,,,,,,,,,,,
1769162287.234904,1769162287.235792,90.0,0.0,4382.05127,4297.563965,4489.615234,4359.615234,4252.179688,4320.256348,4284.102539,4291.794922,4277.05127,4270.512695,4575.897461,4592.563965,4429.358887,4511.922852,,,,,,,,,,,,,,,,,,,,,,,,,,,,,,,,,,,,,,,,,,,,,,,,,,,,,,,,,,,,,,,,,,,,,,
1769162287.242713,1769162287.2436,91.0,0.0,4371.794922,4295.769043,4476.282227,4350.0,4250.384766,4315.256348,4282.307617,4293.974121,4275.256348,4257.94873,4569.743652,4588.974121,4421.410156,4504.615234,,,,,,,,,,,,,,,,,,,,,,,,,,,,,,,,,,,,,,,,,,,,,,,,,,,,,,,,,,,,,,,,,,,,,,
1769162287.250521,1769162287.251209,92.0,0.0,4370.384766,4295.128418,4471.410156,4347.692383,4249.358887,4310.897461,4280.512695,4294.615234,4275.0,4256.538574,4570.769043,4586.025879,4418.974121,4508.717773,,,,,,,,,,,,,,,,,,,,,,,,,,,,,,,,,,,,,,,,,,,,,,,,,,,,,,,,,,,,,,,,,,,,,,
1769162287.25833,1769162287.259018,93.0,0.0,4371.282227,4297.307617,4477.05127,4356.153809,4250.769043,4312.94873,4282.692383,4295.384766,4278.077148,4271.666504,4573.077148,4586.538574,4421.410156,4510.0,,,,,,,,,,,,,,,,,,,,,,,,,,,,,,,,,,,,,,,,,,,,,,,,,,,,,,,,,,,,,,,,,,,,,,
1769162287.266138,1769162287.266726,94.0,0.0,4368.717773,4295.384766,4474.743652,4350.256348,4250.512695,4312.307617,4287.436035,4294.358887,4278.846191,4270.769043,4569.871582,4584.743652,4413.333496,4499.871582,0.645283,0.297267,0.19746,0.137413,0.161286,0.459315,0.278021,0.251602,0.127698,0.138056,0.372724,0.211648,0.162815,0.082459,0.138545,0.349312,0.211718,0.170133,0.088537,0.139075,0.670065,0.173351,0.049429,0.051096,0.046882,0.098905,0.233649,0.207285,0.146385,0.18719,0.213696,0.186016,0.132678,0.174889,0.131042,0.445209,0.299393,0.434432,0.271484,0.170827,0.228775,0.414504,0.359301,0.298905,0.153633,0.538049,0.393278,0.440667,0.389687,0.30069,0.745851,0.429777,0.470897,0.193554,0.107743,0.866885,0.499653,0.33914,0.201752,0.098448,0.419551,0.445554,0.727195,0.337049,0.168036,1.126775,0.656577,0.520163,0.380014,0.19785
1769162287.273946,1769162287.274535,95.0,0.0,4370.384766,4291.282227,4470.256348,4341.538574,4252.563965,4312.307617,4285.512695,4284.615234,4273.077148,4257.94873,4567.820313,4581.666504,4410.897461,4495.256348,,,,,,,,,,,,,,,,,,,,,,,,,,,,,,,,,,,,,,,,,,,,,,,,,,,,,,,,,,,,,,,,,,,,,,
1769162287.281755,1769162287.282543,96.0,0.0,4373.461426,4295.128418,4472.563965,4351.410156,4256.025879,4312.692383,4278.461426,4285.128418,4275.897461,4261.538574,4572.179688,4590.128418,4423.461426,4502.307617,,,,,,,,,,,,,,,,,,,,,,,,,,,,,,,,,,,,,,,,,,,,,,,,,,,,,,,,,,,,,,,,,,,,,,
1769162287.289563,1769162287.290351,97.0,0.0,4377.05127,4299.615234,4474.487305,4360.128418,4254.871582,4310.512695,4277.563965,4295.384766,4280.0,4273.077148,4575.897461,4598.717773,4431.025879,4509.102539,,,,,,,,,,,,,,,,,,,,,,,,,,,,,,,,,,,,,,,,,,,,,,,,,,,,,,,,,,,,,,,,,,,,,,
1769162287.297372,1769162287.29826,98.0,0.0,4379.358887,4297.563965,4476.410156,4356.410156,4251.666504,4309.615234,4280.769043,4294.230957,4280.128418,4271.794922,4573.717773,4592.179688,4425.897461,4508.717773,,,,,,,,,,,,,,,,,,,,,,,,,,,,,,,,,,,,,,,,,,,,,,,,,,,,,,,,,,,,,,,,,,,,,,
1769162287.30518,1769162287.306068,99.0,0.0,4377.436035,4294.358887,4477.307617,4355.641113,4251.538574,4308.205078,4278.461426,4285.641113,4275.384766,4256.538574,4571.666504,4584.615234,4425.384766,4504.871582,,,,,,,,,,,,,,,,,,,,,,,,,,,,,,,,,,,,,,,,,,,,,,,,,,,,,,,,,,,,,,,,,,,,,,
1769162287.312989,1769162287.314076,100.0,0.0,4374.358887,4292.563965,4475.512695,4356.410156,4251.025879,4306.025879,4277.94873,4288.461426,4267.94873,4253.205078,4573.461426,4593.717773,4428.589844,4505.128418,,,,,,,,,,,,,,,,,,,,,,,,,,,,,,,,,,,,,,,,,,,,,,,,,,,,,,,,,,,,,,,,,,,,,,
1769162287.320797,1769162287.321885,101.0,0.0,4373.077148,4291.282227,4473.461426,4351.538574,4249.487305,4310.769043,4281.794922,4295.769043,4271.153809,4272.307617,4573.589844,4600.897461,4423.846191,4508.974121,,,,,,,,,,,,,,,,,,,,,,,,,,,,,,,,,,,,,,,,,,,,,,,,,,,,,,,,,,,,,,,,,,,,,,
1769162287.328606,1769162287.329793,102.0,0.0,4373.974121,4295.0,4475.128418,4350.384766,4250.384766,4313.461426,4282.05127,4293.717773,4276.410156,4278.333496,4571.794922,4591.025879,4416.922852,4506.922852,,,,,,,,,,,,,,,,,,,,,,,,,,,,,,,,,,,,,,,,,,,,,,,,,,,,,,,,,,,,,,,,,,,,,,
1769162287.336414,1769162287.337601,103.0,0.0,4371.282227,4295.128418,4472.94873,4350.256348,4251.025879,4304.230957,4280.0,4288.205078,4267.820313,4262.563965,4571.666504,4583.333496,4411.410156,4495.128418,,,,,,,,,,,,,,,,,,,,,,,,,,,,,,,,,,,,,,,,,,,,,,,,,,,,,,,,,,,,,,,,,,,,,,
1769162287.344222,1769162287.34521,104.0,0.0,4361.410156,4285.384766,4463.589844,4343.461426,4250.897461,4302.692383,4281.410156,4289.358887,4264.615234,4256.282227,4567.436035,4585.512695,4408.205078,4489.230957,,,,,,,,,,,,,,,,,,,,,,,,,,,,,,,,,,,,,,,,,,,,,,,,,,,,,,,,,,,,,,,,,,,,,,
1769162287.352031,1769162287.353019,105.0,0.0,4358.589844,4282.563965,4459.743652,4340.128418,4250.512695,4310.769043,4282.94873,4298.205078,4275.769043,4260.769043,4562.94873,4586.153809,4410.128418,4492.820313,,,,,,,,,,,,,,,,,,,,,,,,,,,,,,,,,,,,,,,,,,,,,,,,,,,,,,,,,,,,,,,,,,,,,,
1769162287.359839,1769162287.360727,106.0,0.0,4367.05127,4291.666504,4465.256348,4345.897461,4250.769043,4307.692383,4279.102539,4294.487305,4273.717773,4262.307617,4565.512695,4582.820313,4413.589844,4492.692383,,,,,,,,,,,,,,,,,,,,,,,,,,,,,,,,,,,,,,,,,,,,,,,,,,,,,,,,,,,,,,,,,,,,,,
1769162287.367648,1769162287.368536,107.0,0.0,4369.615234,4295.256348,4469.615234,4349.102539,4254.743652,4303.717773,4277.05127,4283.974121,4263.974121,4260.769043,4569.102539,4583.589844,4413.077148,4494.487305,,,,,,,,,,,,,,,,,,,,,,,,,,,,,,,,,,,,,,,,,,,,,,,,,,,,,,,,,,,,,,,,,,,,,,
1769162287.375456,1769162287.376144,108.0,0.0,4369.358887,4293.846191,4474.230957,4348.205078,4259.102539,4306.025879,4278.205078,4282.820313,4265.769043,4257.563965,4571.538574,4587.563965,4412.307617,4504.487305,,,,,,,,,,,,,,,,,,,,,,,,,,,,,,,,,,,,,,,,,,,,,,,,,,,,,,,,,,,,,,,,,,,,,,
1769162287.383265,1769162287.383953,109.0,0.0,4372.179688,4295.256348,4473.717773,4349.102539,4256.025879,4300.384766,4277.05127,4284.615234,4266.282227,4261.666504,4572.05127,4588.589844,4415.897461,4509.487305,,,,,,,,,,,,,,,,,,,,,,,,,,,,,,,,,,,,,,,,,,,,,,,,,,,,,,,,,,,,,,,,,,,,,,
1769162287.391073,1769162287.391661,110.0,0.0,4368.461426,4293.461426,4463.205078,4349.230957,4250.512695,4291.922852,4275.0,4284.871582,4266.025879,4269.615234,4566.794922,4587.436035,4412.307617,4505.641113,0.550199,0.298642,0.210375,0.150405,0.164352,0.366695,0.280677,0.298271,0.136318,0.145805,0.361747,0.182349,0.160492,0.077598,0.154058,0.303181,0.163144,0.19401,0.092322,0.146258,0.750915,0.227819,0.070076,0.056839,0.055949,0.125926,0.225472,0.196756,0.163168,0.189262,0.219428,0.186369,0.123359,0.167618,0.143853,0.518051,0.309992,0.418476,0.291234,0.191419,0.272003,0.354896,0.372639,0.309315,0.154127,0.577113,0.367386,0.371158,0.412708,0.31886,0.716558,0.365034,0.413641,0.20061,0.122986,0.833297,0.506188,0.311519,0.228982,0.103797,0.404256,0.39364,0.658852,0.336576,0.177125,1.02293,0.539031,0.509391,0.363514,0.19113
1769162287.398882,1769162287.39947,111.0,0.0,4366.538574,4291.538574,4461.538574,4351.666504,4254.230957,4299.871582,4277.820313,4288.974121,4273.846191,4266.922852,4563.205078,4584.102539,4403.589844,4503.589844,,,,,,,,,,,,,,,,,,,,,,,,,,,,,,,,,,,,,,,,,,,,,,,,,,,,,,,,,,,,,,,,,,,,,,
1769162287.40669,1769162287.407478,112.0,0.0,4377.05127,4296.410156,4473.333496,4359.102539,4263.333496,4314.102539,4284.102539,4295.256348,4279.743652,4265.0,4568.846191,4587.692383,4405.128418,4506.538574,,,,,,,,,,,,,,,,,,,,,,,,,,,,,,,,,,,,,,,,,,,,,,,,,,,,,,,,,,,,,,,,,,,,,,
1769162287.414498,1769162287.415286,113.0,0.0,4383.461426,4300.128418,4478.461426,4361.282227,4266.282227,4316.794922,4285.384766,4295.256348,4279.615234,4268.717773,4572.179688,4597.179688,4413.077148,4509.102539,,,,,,,,,,,,,,,,,,,,,,,,,,,,,,,,,,,,,,,,,,,,,,,,,,,,,,,,,,,,,,,,,,,,,,
1769162287.422307,1769162287.423195,114.0,0.0,4374.615234,4297.179688,4473.717773,4356.538574,4259.487305,4308.333496,4282.307617,4292.436035,4279.871582,4265.256348,4569.487305,4595.384766,4414.230957,4507.563965,,,,,,,,,,,,,,,,,,,,,,,,,,,,,,,,,,,,,,,,,,,,,,,,,,,,,,,,,,,,,,,,,,,,,,
1769162287.430115,1769162287.431003,115.0,0.0,4365.512695,4294.102539,4472.563965,4355.256348,4252.563965,4302.94873,4282.94873,4294.743652,4275.897461,4261.153809,4569.871582,4585.512695,4410.512695,4505.769043,,,,,,,,,,,,,,,,,,,,,,,,,,,,,,,,,,,,,,,,,,,,,,,,,,,,,,,,,,,,,,,,,,,,,,
1769162287.437924,1769162287.438612,116.0,0.0,4367.05127,4292.94873,4474.871582,4355.256348,4250.641113,4308.589844,4285.641113,4296.538574,4269.102539,4265.384766,4573.077148,4587.436035,4410.641113,4506.794922,,,,,,,,,,,,,,,,,,,,,,,,,,,,,,,,,,,,,,,,,,,,,,,,,,,,,,,,,,,,,,,,,,,,,,
1769162287.445732,1769162287.44642,117.0,0.0,4371.666504,4291.025879,4470.128418,4352.307617,4250.897461,4312.307617,4284.102539,4286.025879,4264.487305,4267.05127,4570.641113,4590.128418,4411.153809,4506.282227,,,,,,,,,,,,,,,,,,,,,,,,,,,,,,,,,,,,,,,,,,,,,,,,,,,,,,,,,,,,,,,,,,,,,,
1769162287.453541,1769162287.454129,118.0,0.0,4375.128418,4291.025879,4466.922852,4353.589844,4254.230957,4307.179688,4280.0,4276.538574,4264.102539,4264.487305,4563.589844,4583.589844,4411.538574,4506.025879,,,,,,,,,,,,,,,,,,,,,,,,,,,,,,,,,,,,,,,,,,,,,,,,,,,,,,,,,,,,,,,,,,,,,,
1769162287.461349,1769162287.461937,119.0,0.0,4377.692383,4295.128418,4472.307617,4357.436035,4259.230957,4304.230957,4278.461426,4288.077148,4272.179688,4266.538574,4568.333496,4586.538574,4414.615234,4508.589844,,,,,,,,,,,,,,,,,,,,,,,,,,,,,,,,,,,,,,,,,,,,,,,,,,,,,,,,,,,,,,,,,,,,,,
1769162287.469158,1769162287.469945,120.0,0.0,4380.384766,4300.384766,4476.794922,4358.717773,4262.179688,4306.538574,4279.230957,4300.384766,4282.820313,4277.179688,4580.512695,4596.025879,4415.512695,4510.512695,,,,,,,,,,,,,,,,,,,,,,,,,,,,,,,,,,,,,,,,,,,,,,,,,,,,,,,,,,,,,,,,,,,,,,
1769162287.476966,1769162287.477754,121.0,0.0,4384.102539,4304.615234,4474.871582,4361.666504,4262.820313,4306.922852,4281.410156,4295.256348,4279.615234,4282.179688,4582.820313,4596.153809,4413.077148,4511.538574,,,,,,,,,,,,,,,,,,,,,,,,,,,,,,,,,,,,,,,,,,,,,,,,,,,,,,,,,,,,,,,,,,,,,,
1769162287.484774,1769162287.485662,122.0,0.0,4391.025879,4307.563965,4476.410156,4368.205078,4266.538574,4306.025879,4280.128418,4289.615234,4269.743652,4271.794922,4579.358887,4595.384766,4416.410156,4512.820313,,,,,,,,,,,,,,,,,,,,,,,,,,,,,,,,,,,,,,,,,,,,,,,,,,,,,,,,,,,,,,,,,,,,,,
1769162287.492583,1769162287.493471,123.0,0.0,4391.922852,4305.128418,4477.563965,4368.717773,4268.717773,4305.0,4277.820313,4295.384766,4274.358887,4264.230957,4577.563965,4600.641113,4425.256348,4511.922852,,,,,,,,,,,,,,,,,,,,,,,,,,,,,,,,,,,,,,,,,,,,,,,,,,,,,,,,,,,,,,,,,,,,,,
1769162287.500391,1769162287.501479,124.0,0.0,4384.230957,4301.025879,4473.333496,4361.922852,4264.615234,4297.94873,4278.846191,4294.230957,4276.410156,4268.717773,4574.230957,4596.922852,4423.846191,4507.436035,,,,,,,,,,,,,,,,,,,,,,,,,,,,,,,,,,,,,,,,,,,,,,,,,,,,,,,,,,,,,,,,,,,,,,
1769162287.5082,1769162287.509287,125.0,0.0,4382.179688,4298.589844,4474.230957,4357.820313,4261.410156,4293.205078,4278.589844,4288.846191,4267.820313,4270.0,4572.05127,4590.128418,4413.589844,4506.025879,,,,,,,,,,,,,,,,,,,,,,,,,,,,,,,,,,,,,,,,,,,,,,,,,,,,,,,,,,,,,,,,,,,,,,
1769162287.516008,1769162287.517196,126.0,0.0,4381.538574,4296.025879,4472.436035,4356.410156,4263.205078,4301.282227,4277.563965,4293.717773,4270.128418,4262.820313,4569.743652,4592.307617,4409.358887,4507.563965,0.475672,0.311938,0.228619,0.172892,0.165961,0.325497,0.292333,0.319354,0.146423,0.154204,0.304378,0.162062,0.151035,0.080535,0.174082,0.267522,0.134812,0.209252,0.099064,0.150693,0.756862,0.271515,0.092091,0.062363,0.065975,0.163589,0.208541,0.182055,0.173805,0.184446,0.223338,0.174721,0.113894,0.151947,0.150508,0.535756,0.307748,0.386827,0.308496,0.216148,0.294931,0.309155,0.386193,0.307503,0.156642,0.58137,0.404828,0.327951,0.422707,0.355396,0.626548,0.302266,0.352653,0.20763,0.153166,0.809242,0.504017,0.300963,0.252799,0.116537,0.359034,0.33474,0.572645,0.328095,0.198732,0.862671,0.396964,0.498811,0.347186,0.193856
1769162287.523817,1769162287.525004,127.0,0.0,4376.410156,4295.641113,4463.333496,4356.282227,4266.410156,4309.743652,4278.461426,4296.666504,4278.974121,4263.205078,4565.641113,4591.922852,4412.563965,4502.692383,,,,,,,,,,,,,,,,,,,,,,,,,,,,,,,,,,,,,,,,,,,,,,,,,,,,,,,,,,,,,,,,,,,,,,
1769162287.531625,1769162287.533012,0.0,0.0,4374.230957,4293.205078,4458.461426,4357.05127,4266.410156,4313.461426,4281.538574,4292.436035,4278.333496,4265.512695,4567.692383,4585.384766,4410.128418,4498.589844,,,,,,,,,,,,,,,,,,,,,,,,,,,,,,,,,,,,,,,,,,,,,,,,,,,,,,,,,,,,,,,,,,,,,,
1769162287.539434,1769162287.540821,1.0,0.0,4379.230957,4289.871582,4461.922852,4356.025879,4263.717773,4313.461426,4282.94873,4293.589844,4276.025879,4262.436035,4573.205078,4585.641113,4410.512695,4506.153809,,,,,,,,,,,,,,,,,,,,,,,,,,,,,,,,,,,,,,,,,,,,,,,,,,,,,,,,,,,,,,,,,,,,,,
1769162287.547242,1769162287.548529,2.0,0.0,4380.641113,4290.897461,4465.512695,4355.0,4260.0,4303.077148,4279.230957,4296.922852,4278.846191,4266.666504,4570.769043,4593.205078,4420.769043,4511.282227,,,,,,,,,,,,,,,,,,,,,,,,,,,,,,,,,,,,,,,,,,,,,,,,,,,,,,,,,,,,,,,,,,,,,,
1769162287.55505,1769162287.556338,3.0,0.0,4380.0,4297.563965,4464.102539,4357.179688,4260.512695,4291.538574,4274.487305,4293.205078,4278.589844,4276.153809,4571.282227,4598.974121,4427.94873,4508.717773,,,,,,,,,,,,,,,,,,,,,,,,,,,,,,,,,,,,,,,,,,,,,,,,,,,,,,,,,,,,,,,,,,,,,,
1769162287.562859,1769162287.563947,4.0,0.0,4386.153809,4305.256348,4465.897461,4360.769043,4263.846191,4293.717773,4274.487305,4292.820313,4278.205078,4282.436035,4581.153809,4602.307617,4427.179688,4511.666504,,,,,,,,,,,,,,,,,,,,,,,,,,,,,,,,,,,,,,,,,,,,,,,,,,,,,,,,,,,,,,,,,,,,,,
1769162287.570667,1769162287.571755,5.0,0.0,4388.333496,4308.333496,4474.102539,4359.102539,4264.230957,4304.102539,4277.692383,4296.666504,4279.871582,4277.820313,4580.769043,4601.666504,4421.666504,4514.487305,,,,,,,,,,,,,,,,,,,,,,,,,,,,,,,,,,,,,,,,,,,,,,,,,,,,,,,,,,,,,,,,,,,,,,
1769162287.578476,1769162287.579464,6.0,0.0,4385.641113,4303.717773,4474.871582,4356.922852,4263.717773,4302.820313,4278.461426,4295.769043,4279.230957,4268.717773,4572.307617,4596.794922,4416.153809,4510.641113,,,,,,,,,,,,,,,,,,,,,,,,,,,,,,,,,,,,,,,,,,,,,,,,,,,,,,,,,,,,,,,,,,,,,,
1769162287.586285,1769162287.587272,7.0,0.0,4386.153809,4301.922852,4463.461426,4363.205078,4264.102539,4294.487305,4278.846191,4294.102539,4279.871582,4270.512695,4577.692383,4594.358887,4419.102539,4509.743652,,,,,,,,,,,,,,,,,,,,,,,,,,,,,,,,,,,,,,,,,,,,,,,,,,,,,,,,,,,,,,,,,,,,,,
1769162287.594093,1769162287.594881,8.0,0.0,4385.384766,4306.282227,4458.717773,4367.179688,4265.512695,4300.769043,4280.897461,4295.512695,4280.897461,4280.769043,4583.589844,4593.846191,4429.615234,4509.102539,,,,,,,,,,,,,,,,,,,,,,,,,,,,,,,,,,,,,,,,,,,,,,,,,,,,,,,,,,,,,,,,,,,,,,
1769162287.601901,1769162287.602689,9.0,0.0,4379.871582,4301.922852,4462.94873,4361.282227,4266.538574,4310.769043,4281.538574,4297.307617,4282.05127,4278.589844,4575.0,4591.794922,4425.384766,4504.102539,,,,,,,,,,,,,,,,,,,,,,,,,,,,,,,,,,,,,,,,,,,,,,,,,,,,,,,,,,,,,,,,,,,,,,
1769162287.60971,1769162287.610597,10.0,0.0,4379.358887,4294.871582,4460.769043,4356.025879,4264.743652,4301.794922,4279.487305,4294.358887,4281.282227,4260.256348,4567.94873,4587.307617,4412.05127,4502.307617,,,,,,,,,,,,,,,,,,,,,,,,,,,,,,,,,,,,,,,,,,,,,,,,,,,,,,,,,,,,,,,,,,,,,,
1769162287.617518,1769162287.618406,11.0,0.0,4384.615234,4299.358887,4458.333496,4358.205078,4264.743652,4296.538574,4278.846191,4288.846191,4276.282227,4261.153809,4570.769043,4585.0,4420.641113,4507.563965,,,,,,,,,,,,,,,,,,,,,,,,,,,,,,,,,,,,,,,,,,,,,,,,,,,,,,,,,,,,,,,,,,,,,,
1769162287.625327,1769162287.626414,12.0,0.0,4379.358887,4302.436035,4458.974121,4357.820313,4267.436035,4309.871582,4280.384766,4292.563965,4279.487305,4274.615234,4571.922852,4584.871582,4427.94873,4506.025879,,,,,,,,,,,,,,,,,,,,,,,,,,,,,,,,,,,,,,,,,,,,,,,,,,,,,,,,,,,,,,,,,,,,,,
1769162287.633135,1769162287.634223,13.0,0.0,4371.538574,4296.666504,4456.538574,4354.615234,4267.436035,4309.743652,4279.871582,4301.666504,4290.384766,4271.025879,4575.128418,4584.230957,4417.05127,4495.897461,,,,,,,,,,,,,,,,,,,,,,,,,,,,,,,,,,,,,,,,,,,,,,,,,,,,,,,,,,,,,,,,,,,,,,
1769162287.640944,1769162287.641931,14.0,0.0,4376.282227,4295.128418,4454.615234,4356.282227,4268.846191,4301.794922,4277.179688,4294.230957,4284.102539,4265.769043,4575.256348,4584.615234,4413.077148,4492.692383,0.420378,0.332344,0.244704,0.198613,0.166429,0.333475,0.312183,0.309633,0.156911,0.161739,0.245103,0.15749,0.136655,0.092229,0.197152,0.255324,0.136007,0.216682,0.108363,0.154328,0.677929,0.292651,0.110418,0.06622,0.074449,0.201196,0.188272,0.165889,0.177591,0.174079,0.22211,0.152585,0.103742,0.132195,0.149672,0.48987,0.29434,0.343794,0.321581,0.243603,0.294672,0.288921,0.382895,0.294059,0.159076,0.544379,0.497436,0.291216,0.415282,0.406668,0.496829,0.260684,0.290672,0.212377,0.191102,0.809424,0.494712,0.290765,0.267989,0.1353,0.303223,0.303409,0.501779,0.310768,0.227197,0.68786,0.287533,0.492819,0.33308,0.20311
1769162287.648752,1769162287.64974,15.0,0.0,4382.563965,4297.94873,4457.179688,4357.563965,4271.153809,4308.077148,4278.461426,4285.0,4267.94873,4271.922852,4567.05127,4580.641113,4415.641113,4496.410156,,,,,,,,,,,,,,,,,,,,,,,,,,,,,,,,,,,,,,,,,,,,,,,,,,,,,,,,,,,,,,,,,,,,,,
1769162287.656561,1769162287.657348,16.0,0.0,4380.512695,4296.666504,4458.333496,4356.282227,4267.820313,4307.436035,4280.769043,4290.512695,4271.282227,4275.256348,4566.410156,4575.384766,4412.179688,4492.307617,,,,,,,,,,,,,,,,,,,,,,,,,,,,,,,,,,,,,,,,,,,,,,,,,,,,,,,,,,,,,,,,,,,,,,
1769162287.664369,1769162287.665157,17.0,0.0,4379.230957,4296.410156,4457.94873,4356.666504,4264.871582,4292.563965,4279.615234,4296.282227,4282.179688,4273.333496,4574.487305,4581.282227,4414.615234,4490.0,,,,,,,,,,,,,,,,,,,,,,,,,,,,,,,,,,,,,,,,,,,,,,,,,,,,,,,,,,,,,,,,,,,,,,
1769162287.672177,1769162287.672865,18.0,0.0,4382.692383,4297.436035,4460.256348,4358.589844,4268.077148,4289.230957,4273.077148,4291.538574,4279.615234,4275.256348,4574.743652,4587.179688,4418.461426,4500.897461,,,,,,,,,,,,,,,,,,,,,,,,,,,,,,,,,,,,,,,,,,,,,,,,,,,,,,,,,,,,,,,,,,,,,,
1769162287.679986,1769162287.680674,19.0,0.0,4387.563965,4296.794922,4461.410156,4359.102539,4266.922852,4295.512695,4267.563965,4283.974121,4273.333496,4277.307617,4571.153809,4584.615234,4413.077148,4504.743652,,,,,,,,,,,,,,,,,,,,,,,,,,,,,,,,,,,,,,,,,,,,,,,,,,,,,,,,,,,,,,,,,,,,,,
1769162287.687794,1769162287.688682,20.0,0.0,4391.025879,4297.05127,4460.512695,4358.974121,4265.897461,4295.512695,4271.410156,4284.615234,4276.025879,4276.794922,4573.846191,4583.589844,4414.487305,4494.743652,,,,,,,,,,,,,,,,,,,,,,,,,,,,,,,,,,,,,,,,,,,,,,,,,,,,,,,,,,,,,,,,,,,,,,
1769162287.695603,1769162287.69649,21.0,0.0,4385.897461,4295.384766,4460.0,4356.666504,4271.153809,4293.846191,4278.846191,4291.538574,4277.179688,4270.0,4567.692383,4581.282227,4412.05127,4490.256348,,,,,,,,,,,,,,,,,,,,,,,,,,,,,,,,,,,,,,,,,,,,,,,,,,,,,,,,,,,,,,,,,,,,,,
1769162287.703411,1769162287.704399,22.0,0.0,4376.794922,4287.563965,4459.615234,4350.128418,4271.794922,4296.153809,4280.641113,4297.820313,4270.0,4259.871582,4555.384766,4573.846191,4395.641113,4493.333496,,,,,,,,,,,,,,,,,,,,,,,,,,,,,,,,,,,,,,,,,,,,,,,,,,,,,,,,,,,,,,,,,,,,,,
1769162287.71122,1769162287.712207,23.0,0.0,4376.922852,4283.461426,4460.769043,4349.102539,4270.256348,4297.179688,4279.871582,4292.05127,4265.897461,4259.102539,4557.307617,4570.641113,4394.743652,4493.846191,,,,,,,,,,,,,,,,,,,,,,,,,,,,,,,,,,,,,,,,,,,,,,,,,,,,,,,,,,,,,,,,,,,,,,
1769162287.719028,1769162287.720016,24.0,0.0,4381.410156,4285.769043,4461.922852,4351.538574,4270.512695,4291.666504,4280.641113,4281.666504,4264.871582,4259.743652,4564.230957,4572.179688,4404.743652,4490.256348,,,,,,,,,,,,,,,,,,,,,,,,,,,,,,,,,,,,,,,,,,,,,,,,,,,,,,,,,,,,,,,,,,,,,,
1769162287.726837,1769162287.727824,25.0,0.0,4382.436035,4286.922852,4462.05127,4350.897461,4266.282227,4289.743652,4280.0,4285.128418,4263.589844,4259.102539,4565.256348,4575.384766,4398.974121,4489.358887,,,,,,,,,,,,,,,,,,,,,,,,,,,,,,,,,,,,,,,,,,,,,,,,,,,,,,,,,,,,,,,,,,,,,,
1769162287.734645,1769162287.735533,26.0,0.0,4380.897461,4288.077148,4461.666504,4353.846191,4263.333496,4295.0,4279.358887,4297.05127,4267.563965,4263.717773,4567.179688,4582.94873,4395.0,4492.05127,,,,,,,,,,,,,,,,,,,,,,,,,,,,,,,,,,,,,,,,,,,,,,,,,,,,,,,,,,,,,,,,,,,,,,
1769162287.742453,1769162287.743341,27.0,0.0,4380.384766,4292.436035,4461.282227,4360.641113,4270.512695,4296.410156,4279.615234,4295.256348,4271.282227,4266.922852,4569.358887,4582.436035,4407.179688,4495.128418,,,,,,,,,,,,,,,,,,,,,,,,,,,,,,,,,,,,,,,,,,,,,,,,,,,,,,,,,,,,,,,,,,,,,,
1769162287.750262,1769162287.751349,28.0,0.0,4381.153809,4294.358887,4461.282227,4359.487305,4274.615234,4295.256348,4278.974121,4282.692383,4264.230957,4262.05127,4567.179688,4573.333496,4413.077148,4492.179688,,,,,,,,,,,,,,,,,,,,,,,,,,,,,,,,,,,,,,,,,,,,,,,,,,,,,,,,,,,,,,,,,,,,,,
1769162287.75807,1769162287.759158,29.0,0.0,4380.128418,4291.666504,4459.615234,4354.743652,4269.743652,4297.179688,4278.717773,4286.794922,4263.974121,4261.538574,4568.974121,4573.974121,4409.358887,4489.358887,,,,,,,,,,,,,,,,,,,,,,,,,,,,,,,,,,,,,,,,,,,,,,,,,,,,,,,,,,,,,,,,,,,,,,
1769162287.765879,1769162287.766866,30.0,0.0,4382.94873,4291.794922,4458.333496,4355.769043,4273.333496,4296.153809,4276.922852,4297.179688,4277.179688,4271.410156,4573.333496,4581.153809,4411.153809,4498.205078,0.382197,0.368368,0.253637,0.219779,0.165115,0.379479,0.341246,0.27469,0.164816,0.165537,0.197198,0.174074,0.124196,0.111461,0.218412,0.267981,0.172562,0.219297,0.118325,0.158082,0.540411,0.290318,0.12231,0.068848,0.07915,0.233758,0.17228,0.150146,0.180531,0.161069,0.213486,0.126911,0.09424,0.113764,0.141912,0.400688,0.273988,0.303363,0.331078,0.269811,0.278624,0.293129,0.359772,0.274483,0.160187,0.472832,0.614061,0.246936,0.390898,0.461402,0.357861,0.254423,0.229884,0.213321,0.225632,0.806124,0.489011,0.268037,0.272499,0.155855,0.256561,0.327504,0.470704,0.286352,0.253582,0.546648,0.260755,0.493682,0.320198,0.213758
1769162287.773687,1769162287.774675,31.0,0.0,4382.563965,4292.563965,4459.871582,4356.666504,4275.0,4289.615234,4276.025879,4294.358887,4280.128418,4282.307617,4573.461426,4582.563965,4413.717773,4505.512695,,,,,,,,,,,,,,,,,,,,,,,,,,,,,,,,,,,,,,,,,,,,,,,,,,,,,,,,,,,,,,,,,,,,,,
1769162287.781496,1769162287.782283,32.0,0.0,4376.025879,4291.153809,4458.205078,4354.871582,4269.615234,4294.102539,4277.563965,4289.230957,4276.153809,4279.230957,4572.179688,4579.487305,4413.461426,4499.615234,,,,,,,,,,,,,,,,,,,,,,,,,,,,,,,,,,,,,,,,,,,,,,,,,,,,,,,,,,,,,,,,,,,,,,
1769162287.789304,1769162287.790092,33.0,0.0,4374.615234,4292.820313,4449.743652,4355.128418,4271.410156,4306.025879,4278.974121,4289.871582,4275.384766,4268.589844,4569.358887,4573.974121,4411.025879,4492.05127,,,,,,,,,,,,,,,,,,,,,,,,,,,,,,,,,,,,,,,,,,,,,,,,,,,,,,,,,,,,,,,,,,,,,,
1769162287.797113,1769162287.7978,34.0,0.0,4375.384766,4295.384766,4443.717773,4356.794922,4277.307617,4304.358887,4278.846191,4292.436035,4275.641113,4270.128418,4567.94873,4569.358887,4405.0,4490.769043,,,,,,,,,,,,,,,,,,,,,,,,,,,,,,,,,,,,,,,,,,,,,,,,,,,,,,,,,,,,,,,,,,,,,,
1769162287.804921,1769162287.805609,35.0,0.0,4372.563965,4294.102539,4444.871582,4352.563965,4274.487305,4295.641113,4280.128418,4294.358887,4276.922852,4280.256348,4571.282227,4571.922852,4406.025879,4493.717773,,,,,,,,,,,,,,,,,,,,,,,,,,,,,,,,,,,,,,,,,,,,,,,,,,,,,,,,,,,,,,,,,,,,,,
1769162287.812729,1769162287.813617,36.0,0.0,4372.307617,4292.436035,4442.179688,4348.333496,4270.512695,4297.05127,4281.025879,4294.487305,4276.922852,4282.436035,4571.794922,4573.589844,4412.307617,4495.384766,,,,,,,,,,,,,,,,,,,,,,,,,,,,,,,,,,,,,,,,,,,,,,,,,,,,,,,,,,,,,,,,,,,,,,
1769162287.820538,1769162287.821425,37.0,0.0,4370.512695,4291.282227,4432.94873,4353.589844,4272.436035,4300.0,4279.487305,4293.974121,4276.922852,4276.410156,4567.179688,4567.05127,4409.871582,4491.794922,,,,,,,,,,,,,,,,,,,,,,,,,,,,,,,,,,,,,,,,,,,,,,,,,,,,,,,,,,,,,,,,,,,,,,
1769162287.828346,1769162287.829334,38.0,0.0,4363.846191,4287.436035,4426.666504,4358.974121,4269.102539,4292.05127,4277.436035,4296.282227,4279.358887,4276.922852,4567.563965,4564.871582,4407.563965,4487.563965,,,,,,,,,,,,,,,,,,,,,,,,,,,,,,,,,,,,,,,,,,,,,,,,,,,,,,,,,,,,,,,,,,,,,,
1769162287.836155,1769162287.837142,39.0,0.0,4365.769043,4289.358887,4426.794922,4357.05127,4264.230957,4294.871582,4277.436035,4296.153809,4277.563965,4280.769043,4571.410156,4570.512695,4411.666504,4491.410156,,,,,,,,,,,,,,,,,,,,,,,,,,,,,,,,,,,,,,,,,,,,,,,,,,,,,,,,,,,,,,,,,,,,,,
1769162287.843963,1769162287.844751,40.0,0.0,4375.769043,4296.153809,4430.384766,4356.282227,4269.102539,4303.846191,4277.820313,4293.589844,4272.563965,4279.615234,4570.897461,4572.94873,4416.410156,4495.897461,,,,,,,,,,,,,,,,,,,,,,,,,,,,,,,,,,,,,,,,,,,,,,,,,,,,,,,,,,,,,,,,,,,,,,
1769162287.851772,1769162287.852559,41.0,0.0,4372.692383,4294.230957,4426.538574,4357.94873,4272.692383,4300.641113,4278.717773,4293.974121,4274.615234,4278.974121,4569.358887,4568.589844,4415.641113,4494.102539,,,,,,,,,,,,,,,,,,,,,,,,,,,,,,,,,,,,,,,,,,,,,,,,,,,,,,,,,,,,,,,,,,,,,,
1769162287.85958,1769162287.860268,42.0,0.0,4365.512695,4289.230957,4420.128418,4355.641113,4268.333496,4298.717773,4282.179688,4296.410156,4277.94873,4277.563965,4572.563965,4567.436035,4413.974121,4489.487305,,,,,,,,,,,,,,,,,,,,,,,,,,,,,,,,,,,,,,,,,,,,,,,,,,,,,,,,,,,,,,,,,,,,,,
1769162287.867389,1769162287.868076,43.0,0.0,4373.333496,4293.974121,4423.205078,4355.128418,4265.769043,4297.563965,4276.410156,4296.538574,4277.179688,4276.282227,4581.025879,4572.820313,4420.128418,4492.05127,,,,,,,,,,,,,,,,,,,,,,,,,,,,,,,,,,,,,,,,,,,,,,,,,,,,,,,,,,,,,,,,,,,,,,
1769162287.875197,1769162287.876085,44.0,0.0,4381.410156,4297.563965,4422.307617,4356.666504,4266.282227,4286.666504,4263.846191,4295.256348,4279.230957,4283.077148,4583.077148,4574.230957,4426.025879,4498.846191,,,,,,,,,,,,,,,,,,,,,,,,,,,,,,,,,,,,,,,,,,,,,,,,,,,,,,,,,,,,,,,,,,,,,,
1769162287.883006,1769162287.883893,45.0,0.0,4375.769043,4291.282227,4410.897461,4350.897461,4265.641113,4283.974121,4265.769043,4294.358887,4280.128418,4293.077148,4575.769043,4570.0,4423.077148,4498.333496,,,,,,,,,,,,,,,,,,,,,,,,,,,,,,,,,,,,,,,,,,,,,,,,,,,,,,,,,,,,,,,,,,,,,,
1769162287.890814,1769162287.891801,46.0,0.0,4370.512695,4287.563965,4407.05127,4342.692383,4267.436035,4296.538574,4277.94873,4297.436035,4277.94873,4288.589844,4572.179688,4568.333496,4418.974121,4491.025879,0.353542,0.436484,0.250745,0.230691,0.161026,0.424198,0.383101,0.226223,0.166762,0.162409,0.179141,0.214306,0.12269,0.134831,0.231419,0.293886,0.242353,0.21614,0.126102,0.16075,0.390682,0.272736,0.127861,0.072123,0.078963,0.250447,0.168149,0.135248,0.192381,0.149783,0.197025,0.107025,0.087838,0.100379,0.129069,0.294103,0.25092,0.279103,0.337527,0.290095,0.260292,0.308344,0.326774,0.255387,0.160721,0.38919,0.725073,0.197862,0.355236,0.503805,0.236681,0.28556,0.175592,0.210399,0.245817,0.78613,0.499959,0.233095,0.267197,0.172551,0.2287,0.407516,0.482421,0.260638,0.269563,0.460923,0.328172,0.493958,0.30619,0.220196
1769162287.898622,1769162287.89961,47.0,0.0,4372.692383,4289.743652,4412.179688,4343.717773,4267.820313,4299.743652,4281.794922,4307.179688,4279.871582,4278.077148,4572.436035,4570.897461,4416.538574,4488.974121,,,,,,,,,,,,,,,,,,,,,,,,,,,,,,,,,,,,,,,,,,,,,,,,,,,,,,,,,,,,,,,,,,,,,,
1769162287.906431,1769162287.907618,48.0,0.0,4377.307617,4291.922852,4411.410156,4350.128418,4265.128418,4294.230957,4279.230957,4310.641113,4279.487305,4277.94873,4571.153809,4572.307617,4415.897461,4492.692383,,,,,,,,,,,,,,,,,,,,,,,,,,,,,,,,,,,,,,,,,,,,,,,,,,,,,,,,,,,,,,,,,,,,,,
1769162287.914239,1769162287.915427,49.0,0.0,4382.563965,4294.358887,4410.128418,4353.077148,4265.128418,4294.743652,4275.897461,4309.230957,4277.307617,4279.615234,4576.282227,4572.563965,4424.102539,4495.128418,,,,,,,,,,,,,,,,,,,,,,,,,,,,,,,,,,,,,,,,,,,,,,,,,,,,,,,,,,,,,,,,,,,,,,
1769162287.922048,1769162287.923135,50.0,0.0,4382.179688,4297.563965,4411.410156,4352.94873,4267.436035,4295.897461,4276.282227,4314.230957,4281.794922,4276.153809,4582.307617,4571.794922,4426.153809,4494.487305,,,,,,,,,,,,,,,,,,,,,,,,,,,,,,,,,,,,,,,,,,,,,,,,,,,,,,,,,,,,,,,,,,,,,,
1769162287.929856,1769162287.930944,51.0,0.0,4372.692383,4296.025879,4405.384766,4352.05127,4266.922852,4296.538574,4278.461426,4310.384766,4278.077148,4270.897461,4575.897461,4569.871582,4414.358887,4491.153809,,,,,,,,,,,,,,,,,,,,,,,,,,,,,,,,,,,,,,,,,,,,,,,,,,,,,,,,,,,,,,,,,,,,,,
1769162287.937665,1769162287.938552,52.0,0.0,4370.0,4294.102539,4399.358887,4351.538574,4265.384766,4295.128418,4271.282227,4292.436035,4262.179688,4272.307617,4570.512695,4568.717773,4416.794922,4490.641113,,,,,,,,,,,,,,,,,,,,,,,,,,,,,,,,,,,,,,,,,,,,,,,,,,,,,,,,,,,,,,,,,,,,,,
1769162287.945473,1769162287.946361,53.0,0.0,4378.974121,4301.025879,4403.846191,4354.487305,4268.333496,4293.077148,4264.871582,4287.94873,4258.589844,4281.538574,4577.820313,4569.615234,4429.230957,4499.615234,,,,,,,,,,,,,,,,,,,,,,,,,,,,,,,,,,,,,,,,,,,,,,,,,,,,,,,,,,,,,,,,,,,,,,
1769162287.953282,1769162287.954069,54.0,0.0,4386.666504,4308.461426,4411.282227,4357.436035,4271.538574,4293.846191,4268.077148,4305.128418,4273.461426,4286.922852,4586.666504,4571.922852,4432.820313,4505.897461,,,,,,,,,,,,,,,,,,,,,,,,,,,,,,,,,,,,,,,,,,,,,,,,,,,,,,,,,,,,,,,,,,,,,,
1769162287.96109,1769162287.961878,55.0,0.0,4385.641113,4304.358887,4411.922852,4358.205078,4268.461426,4294.102539,4267.563965,4313.333496,4280.256348,4280.769043,4581.410156,4571.282227,4426.794922,4500.0,,,,,,,,,,,,,,,,,,,,,,,,,,,,,,,,,,,,,,,,,,,,,,,,,,,,,,,,,,,,,,,,,,,,,,
1769162287.968898,1769162287.969486,56.0,0.0,4381.410156,4296.153809,4408.205078,4357.820313,4264.230957,4293.077148,4264.871582,4307.307617,4274.358887,4278.846191,4571.153809,4568.846191,4422.436035,4492.692383,,,,,,,,,,,,,,,,,,,,,,,,,,,,,,,,,,,,,,,,,,,,,,,,,,,,,,,,,,,,,,,,,,,,,,
1769162287.976707,1769162287.977295,57.0,0.0,4380.128418,4295.641113,4401.922852,4354.358887,4265.897461,4294.358887,4266.153809,4306.666504,4271.538574,4278.333496,4571.410156,4564.871582,4424.487305,4493.333496,,,,,,,,,,,,,,,,,,,,,,,,,,,,,,,,,,,,,,,,,,,,,,,,,,,,,,,,,,,,,,,,,,,,,,
1769162287.984515,1769162287.985003,58.0,0.0,4378.717773,4297.05127,4394.487305,4348.333496,4265.512695,4294.230957,4266.666504,4310.384766,4272.307617,4268.589844,4574.102539,4557.692383,4423.846191,4492.05127,,,,,,,,,,,,,,,,,,,,,,,,,,,,,,,,,,,,,,,,,,,,,,,,,,,,,,,,,,,,,,,,,,,,,,
1769162287.992324,1769162287.992812,59.0,0.0,4378.205078,4294.871582,4394.871582,4344.358887,4262.563965,4291.153809,4272.179688,4311.666504,4275.256348,4266.922852,4570.769043,4555.641113,4415.512695,4488.333496,,,,,,,,,,,,,,,,,,,,,,,,,,,,,,,,,,,,,,,,,,,,,,,,,,,,,,,,,,,,,,,,,,,,,,
1769162288.000132,1769162288.00082,60.0,0.0,4380.897461,4294.871582,4401.025879,4345.256348,4264.102539,4295.0,4278.077148,4311.025879,4275.897461,4276.538574,4568.974121,4558.077148,4409.743652,4491.410156,,,,,,,,,,,,,,,,,,,,,,,,,,,,,,,,,,,,,,,,,,,,,,,,,,,,,,,,,,,,,,,,,,,,,,
1769162288.007941,1769162288.008628,61.0,0.0,4382.05127,4298.333496,4404.358887,4350.256348,4264.230957,4296.538574,4269.743652,4311.025879,4273.333496,4277.820313,4571.153809,4555.512695,4416.794922,4491.153809,,,,,,,,,,,,,,,,,,,,,,,,,,,,,,,,,,,,,,,,,,,,,,,,,,,,,,,,,,,,,,,,,,,,,,
1769162288.015749,1769162288.016537,62.0,0.0,4386.025879,4303.461426,4405.769043,4355.641113,4262.692383,4288.846191,4266.282227,4310.0,4273.974121,4274.230957,4574.487305,4557.179688,4426.153809,4490.0,0.334929,0.542619,0.234874,0.228322,0.154087,0.444977,0.442228,0.179504,0.161092,0.150615,0.222187,0.272359,0.134722,0.15667,0.230978,0.32908,0.333823,0.203887,0.128748,0.159689,0.263734,0.250233,0.12789,0.077926,0.074415,0.252096,0.17974,0.121635,0.220966,0.144603,0.175988,0.099396,0.086067,0.093647,0.1136,0.198039,0.227896,0.274319,0.339467,0.301549,0.254399,0.315569,0.297632,0.242289,0.162504,0.315286,0.811259,0.158914,0.315086,0.519789,0.152545,0.341083,0.13624,0.204953,0.245188,0.699081,0.530567,0.196132,0.254542,0.180537,0.221898,0.514519,0.521103,0.238146,0.270608,0.427051,0.454778,0.482189,0.287249,0.217883
1769162288.023558,1769162288.024345,63.0,0.0,4390.769043,4306.282227,4407.820313,4358.333496,4267.05127,4292.436035,4276.025879,4310.256348,4278.717773,4277.820313,4580.897461,4569.358887,4429.230957,4501.794922,,,,,,,,,,,,,,,,,,,,,,,,,,,,,,,,,,,,,,,,,,,,,,,,,,,,,,,,,,,,,,,,,,,,,,
1769162288.031366,1769162288.032353,64.0,0.0,4388.846191,4303.717773,4406.794922,4358.717773,4273.589844,4302.692383,4279.743652,4311.666504,4280.256348,4282.692383,4587.436035,4570.769043,4428.846191,4508.589844,,,,,,,,,,,,,,,,,,,,,,,,,,,,,,,,,,,,,,,,,,,,,,,,,,,,,,,,,,,,,,,,,,,,,,
1769162288.039174,1769162288.040162,65.0,0.0,4388.077148,4304.743652,4400.512695,4357.820313,4275.512695,4299.871582,4275.512695,4311.538574,4277.820313,4281.282227,4584.743652,4558.333496,4427.563965,4498.846191,,,,,,,,,,,,,,,,,,,,,,,,,,,,,,,,,,,,,,,,,,,,,,,,,,,,,,,,,,,,,,,,,,,,,,
1769162288.046983,1769162288.04787,66.0,0.0,4390.897461,4310.897461,4398.717773,4356.282227,4274.743652,4292.563965,4276.666504,4311.282227,4278.589844,4276.794922,4575.512695,4551.410156,4428.717773,4492.563965,,,,,,,,,,,,,,,,,,,,,,,,,,,,,,,,,,,,,,,,,,,,,,,,,,,,,,,,,,,,,,,,,,,,,,
1769162288.054791,1769162288.055679,67.0,0.0,4389.487305,4311.922852,4404.487305,4357.94873,4275.769043,4294.358887,4279.102539,4309.871582,4279.358887,4272.563965,4574.743652,4553.205078,4427.179688,4495.0,,,,,,,,,,,,,,,,,,,,,,,,,,,,,,,,,,,,,,,,,,,,,,,,,,,,,,,,,,,,,,,,,,,,,,
1769162288.0626,1769162288.063288,68.0,0.0,4384.487305,4305.897461,4403.589844,4356.666504,4274.102539,4295.641113,4277.692383,4311.922852,4278.974121,4271.794922,4578.461426,4557.05127,4423.333496,4493.974121,,,,,,,,,,,,,,,,,,,,,,,,,,,,,,,,,,,,,,,,,,,,,,,,,,,,,,,,,,,,,,,,,,,,,,
1769162288.070408,1769162288.071096,69.0,0.0,4383.717773,4302.05127,4394.615234,4350.0,4268.333496,4293.717773,4277.05127,4320.641113,4281.153809,4265.897461,4575.0,4557.436035,4419.358887,4491.538574,,,,,,,,,,,,,,,,,,,,,,,,,,,,,,,,,,,,,,,,,,,,,,,,,,,,,,,,,,,,,,,,,,,,,,
1769162288.078217,1769162288.079004,70.0,0.0,4383.333496,4303.589844,4391.538574,4349.230957,4266.153809,4291.794922,4276.410156,4320.897461,4280.128418,4260.897461,4573.205078,4552.179688,4418.589844,4490.897461,,,,,,,,,,,,,,,,,,,,,,,,,,,,,,,,,,,,,,,,,,,,,,,,,,,,,,,,,,,,,,,,,,,,,,
1769162288.086025,1769162288.086813,71.0,0.0,4380.769043,4307.179688,4396.922852,4356.153809,4267.436035,4287.94873,4276.410156,4308.974121,4275.641113,4276.025879,4579.743652,4551.153809,4423.974121,4492.563965,,,,,,,,,,,,,,,,,,,,,,,,,,,,,,,,,,,,,,,,,,,,,,,,,,,,,,,,,,,,,,,,,,,,,,
1769162288.093834,1769162288.094821,72.0,0.0,4381.410156,4309.871582,4399.487305,4359.743652,4266.922852,4290.128418,4274.743652,4305.256348,4276.153809,4291.666504,4583.846191,4555.384766,4430.641113,4495.384766,,,,,,,,,,,,,,,,,,,,,,,,,,,,,,,,,,,,,,,,,,,,,,,,,,,,,,,,,,,,,,,,,,,,,,
1769162288.101642,1769162288.102629,73.0,0.0,4384.615234,4310.641113,4395.641113,4357.94873,4264.871582,4291.666504,4269.615234,4312.436035,4281.922852,4285.769043,4585.897461,4554.230957,4430.256348,4493.461426,,,,,,,,,,,,,,,,,,,,,,,,,,,,,,,,,,,,,,,,,,,,,,,,,,,,,,,,,,,,,,,,,,,,,,
1769162288.109451,1769162288.110438,74.0,0.0,4387.307617,4311.794922,4398.333496,4356.666504,4266.538574,4289.615234,4271.666504,4313.846191,4281.922852,4279.615234,4586.922852,4552.820313,4427.436035,4497.05127,,,,,,,,,,,,,,,,,,,,,,,,,,,,,,,,,,,,,,,,,,,,,,,,,,,,,,,,,,,,,,,,,,,,,,
1769162288.117259,1769162288.118246,75.0,0.0,4391.025879,4312.692383,4409.743652,4357.94873,4267.94873,4288.589844,4279.487305,4310.897461,4277.94873,4279.487305,4578.717773,4555.0,4428.077148,4501.282227,,,,,,,,,,,,,,,,,,,,,,,,,,,,,,,,,,,,,,,,,,,,,,,,,,,,,,,,,,,,,,,,,,,,,,
1769162288.125068,1769162288.126255,76.0,0.0,4390.256348,4306.538574,4411.922852,4359.487305,4264.358887,4287.820313,4280.128418,4310.769043,4276.538574,4270.384766,4570.512695,4551.025879,4422.563965,4493.589844,,,,,,,,,,,,,,,,,,,,,,,,,,,,,,,,,,,,,,,,,,,,,,,,,,,,,,,,,,,,,,,,,,,,,,
1769162288.132876,1769162288.134063,77.0,0.0,4379.102539,4298.077148,4403.077148,4355.384766,4262.94873,4285.384766,4275.769043,4310.256348,4277.94873,4263.846191,4572.563965,4551.666504,4414.230957,4488.077148,,,,,,,,,,,,,,,,,,,,,,,,,,,,,,,,,,,,,,,,,,,,,,,,,,,,,,,,,,,,,,,,,,,,,,
1769162288.140684,1769162288.141971,78.0,0.0,4369.743652,4294.743652,4397.179688,4348.205078,4263.846191,4281.794922,4276.794922,4314.102539,4281.538574,4266.025879,4575.0,4552.94873,4413.461426,4486.025879,0.345107,0.668651,0.207982,0.212166,0.146127,0.42834,0.513483,0.144936,0.148772,0.131597,0.301938,0.333353,0.15358,0.171103,0.216009,0.350695,0.429947,0.179813,0.125315,0.152185,0.178835,0.229459,0.123782,0.086755,0.067565,0.250933,0.205818,0.110165,0.266419,0.147883,0.154086,0.106778,0.08855,0.09325,0.098093,0.131402,0.206736,0.284113,0.333044,0.303559,0.267651,0.306095,0.280707,0.23582,0.166415,0.269001,0.869566,0.142679,0.276423,0.504186,0.112886,0.400758,0.114274,0.198939,0.224929,0.587746,0.570561,0.166815,0.237868,0.178101,0.233188,0.613795,0.557776,0.220359,0.258356,0.429867,0.583438,0.44991,0.260392,0.205854
1769162288.148493,1769162288.14978,79.0,0.0,4371.410156,4291.922852,4394.487305,4347.05127,4264.871582,4287.05127,4280.0,4320.128418,4282.820313,4267.307617,4571.666504,4543.461426,4411.410156,4479.871582,,,,,,,,,,,,,,,,,,,,,,,,,,,,,,,,,,,,,,,,,,,,,,,,,,,,,,,,,,,,,,,,,,,,,,
1769162288.156301,1769162288.157388,80.0,0.0,4373.974121,4287.820313,4399.487305,4350.0,4266.410156,4295.769043,4279.871582,4313.461426,4278.974121,4272.563965,4573.461426,4541.410156,4413.205078,4484.230957,,,,,,,,,,,,,,,,,,,,,,,,,,,,,,,,,,,,,,,,,,,,,,,,,,,,,,,,,,,,,,,,,,,,,,
1769162288.16411,1769162288.165197,81.0,0.0,4373.846191,4288.205078,4408.205078,4350.641113,4264.615234,4291.025879,4279.102539,4306.922852,4278.717773,4278.846191,4584.358887,4553.589844,4425.769043,4496.025879,,,,,,,,,,,,,,,,,,,,,,,,,,,,,,,,,,,,,,,,,,,,,,,,,,,,,,,,,,,,,,,,,,,,,,
1769162288.171918,1769162288.172905,82.0,0.0,4373.077148,4293.461426,4403.461426,4349.487305,4259.230957,4280.769043,4276.922852,4312.05127,4282.307617,4280.0,4591.922852,4557.179688,4432.692383,4494.358887,,,,,,,,,,,,,,,,,,,,,,,,,,,,,,,,,,,,,,,,,,,,,,,,,,,,,,,,,,,,,,,,,,,,,,
1769162288.179727,1769162288.180714,83.0,0.0,4371.922852,4296.025879,4393.589844,4352.05127,4261.666504,4285.0,4274.871582,4307.179688,4278.846191,4282.05127,4587.820313,4546.538574,4428.974121,4489.743652,,,,,,,,,,,,,,,,,,,,,,,,,,,,,,,,,,,,,,,,,,,,,,,,,,,,,,,,,,,,,,,,,,,,,,
1769162288.187535,1769162288.188323,84.0,0.0,4374.230957,4295.256348,4395.641113,4356.666504,4270.128418,4297.179688,4276.282227,4294.615234,4272.307617,4280.897461,4579.358887,4538.589844,4427.179688,4492.436035,,,,,,,,,,,,,,,,,,,,,,,,,,,,,,,,,,,,,,,,,,,,,,,,,,,,,,,,,,,,,,,,,,,,,,
1769162288.195344,1769162288.196131,85.0,0.0,4381.282227,4297.692383,4398.205078,4358.974121,4269.358887,4295.0,4275.897461,4301.410156,4276.153809,4274.358887,4582.563965,4538.461426,4428.461426,4492.307617,,,,,,,,,,,,,,,,,,,,,,,,,,,,,,,,,,,,,,,,,,,,,,,,,,,,,,,,,,,,,,,,,,,,,,
1769162288.203152,1769162288.20384,86.0,0.0,4387.692383,4305.128418,4396.410156,4357.436035,4264.615234,4282.94873,4267.179688,4312.820313,4282.05127,4273.205078,4589.230957,4540.512695,4428.461426,4491.538574,,,,,,,,,,,,,,,,,,,,,,,,,,,,,,,,,,,,,,,,,,,,,,,,,,,,,,,,,,,,,,,,,,,,,,
1769162288.210961,1769162288.211648,87.0,0.0,4390.769043,4311.410156,4401.025879,4357.692383,4266.410156,4279.871582,4262.94873,4309.871582,4280.512695,4280.384766,4583.333496,4540.897461,4428.205078,4493.589844,,,,,,,,,,,,,,,,,,,,,,,,,,,,,,,,,,,,,,,,,,,,,,,,,,,,,,,,,,,,,,,,,,,,,,
1769162288.218769,1769162288.219656,88.0,0.0,4387.563965,4305.128418,4403.333496,4357.436035,4267.94873,4292.05127,4276.410156,4309.615234,4279.615234,4276.282227,4570.384766,4534.487305,4421.025879,4491.025879,,,,,,,,,,,,,,,,,,,,,,,,,,,,,,,,,,,,,,,,,,,,,,,,,,,,,,,,,,,,,,,,,,,,,,
1769162288.226577,1769162288.227465,89.0,0.0,4381.153809,4297.179688,4397.563965,4352.307617,4266.282227,4300.897461,4284.230957,4308.333496,4278.333496,4265.769043,4564.358887,4527.436035,4409.871582,4486.538574,,,,,,,,,,,,,,,,,,,,,,,,,,,,,,,,,,,,,,,,,,,,,,,,,,,,,,,,,,,,,,,,,,,,,,
1769162288.234386,1769162288.235373,90.0,0.0,4381.794922,4303.077148,4395.641113,4348.461426,4269.102539,4293.205078,4270.0,4295.512695,4272.563965,4270.512695,4570.512695,4525.0,4416.025879,4489.743652,,,,,,,,,,,,,,,,,,,,,,,,,,,,,,,,,,,,,,,,,,,,,,,,,,,,,,,,,,,,,,,,,,,,,,
1769162288.242194,1769162288.243182,91.0,0.0,4388.589844,4311.153809,4399.230957,4351.153809,4271.153809,4286.282227,4263.589844,4291.153809,4272.563965,4279.358887,4578.077148,4526.666504,4428.846191,4495.512695,,,,,,,,,,,,,,,,,,,,,,,,,,,,,,,,,,,,,,,,,,,,,,,,,,,,,,,,,,,,,,,,,,,,,,
1769162288.250003,1769162288.25079,92.0,0.0,4389.102539,4307.692383,4401.410156,4355.384766,4268.974121,4292.820313,4275.897461,4298.077148,4278.333496,4277.179688,4576.410156,4525.897461,4424.615234,4494.743652,,,,,,,,,,,,,,,,,,,,,,,,,,,,,,,,,,,,,,,,,,,,,,,,,,,,,,,,,,,,,,,,,,,,,,
1769162288.257811,1769162288.258599,93.0,0.0,4385.0,4299.871582,4399.615234,4354.102539,4268.846191,4295.641113,4274.230957,4296.410156,4278.077148,4276.666504,4569.871582,4522.05127,4417.563965,4492.179688,,,,,,,,,,,,,,,,,,,,,,,,,,,,,,,,,,,,,,,,,,,,,,,,,,,,,,,,,,,,,,,,,,,,,,
1769162288.26562,1769162288.266507,94.0,0.0,4382.94873,4298.461426,4397.307617,4348.589844,4268.461426,4288.077148,4264.743652,4288.205078,4274.230957,4283.077148,4568.974121,4521.410156,4425.769043,4490.512695,0.376358,0.778069,0.176764,0.186334,0.139951,0.387372,0.581575,0.12586,0.132705,0.10993,0.430775,0.380092,0.169545,0.176951,0.190209,0.355194,0.512509,0.144723,0.118557,0.137266,0.137562,0.21234,0.116965,0.096465,0.060892,0.254272,0.239148,0.104799,0.318375,0.158605,0.134592,0.12893,0.09438,0.097127,0.084843,0.084769,0.190859,0.297504,0.313596,0.298323,0.302223,0.285801,0.276027,0.232063,0.171917,0.257425,0.899971,0.15639,0.244041,0.462765,0.111198,0.450429,0.107431,0.193834,0.193671,0.4547,0.604123,0.150783,0.220154,0.16681,0.256433,0.682089,0.568115,0.205747,0.23978,0.44322,0.668418,0.398991,0.226108,0.187675
1769162288.273428,1769162288.274315,95.0,0.0,4380.512695,4296.282227,4394.102539,4347.820313,4265.0,4288.461426,4272.179688,4296.282227,4281.666504,4281.538574,4573.205078,4524.871582,4430.384766,4487.820313,,,,,,,,,,,,,,,,,,,,,,,,,,,,,,,,,,,,,,,,,,,,,,,,,,,,,,,,,,,,,,,,,,,,,,
1769162288.281237,1769162288.282324,96.0,0.0,4377.692383,4296.922852,4394.230957,4354.358887,4266.666504,4297.692383,4274.487305,4300.256348,4283.974121,4276.666504,4574.230957,4525.641113,4421.410156,4488.717773,,,,,,,,,,,,,,,,,,,,,,,,,,,,,,,,,,,,,,,,,,,,,,,,,,,,,,,,,,,,,,,,,,,,,,
1769162288.289045,1769162288.290132,97.0,0.0,4383.333496,4307.307617,4403.846191,4359.615234,4274.230957,4296.410156,4265.384766,4284.487305,4270.384766,4277.820313,4569.230957,4521.410156,4415.641113,4491.282227,,,,,,,,,,,,,,,,,,,,,,,,,,,,,,,,,,,,,,,,,,,,,,,,,,,,,,,,,,,,,,,,,,,,,,
1769162288.296853,1769162288.297841,98.0,0.0,4388.589844,4309.743652,4408.461426,4358.077148,4279.230957,4293.589844,4269.358887,4280.641113,4265.0,4277.94873,4564.743652,4518.974121,4416.025879,4488.461426,,,,,,,,,,,,,,,,,,,,,,,,,,,,,,,,,,,,,,,,,,,,,,,,,,,,,,,,,,,,,,,,,,,,,,
1769162288.304662,1769162288.305649,99.0,0.0,4381.794922,4298.717773,4398.589844,4354.230957,4279.102539,4294.615234,4274.358887,4289.487305,4272.692383,4280.769043,4570.769043,4524.102539,4419.102539,4488.974121,,,,,,,,,,,,,,,,,,,,,,,,,,,,,,,,,,,,,,,,,,,,,,,,,,,,,,,,,,,,,,,,,,,,,,
1769162288.31247,1769162288.313258,100.0,0.0,4376.153809,4293.077148,4393.077148,4351.410156,4275.256348,4288.461426,4266.922852,4289.487305,4277.436035,4281.025879,4572.307617,4524.487305,4418.717773,4490.769043,,,,,,,,,,,,,,,,,,,,,,,,,,,,,,,,,,,,,,,,,,,,,,,,,,,,,,,,,,,,,,,,,,,,,,
1769162288.320279,1769162288.321066,101.0,0.0,4378.205078,4297.179688,4398.333496,4352.820313,4277.05127,4286.153809,4266.794922,4281.538574,4269.871582,4267.94873,4558.589844,4512.307617,4410.512695,4481.025879,,,,,,,,,,,,,,,,,,,,,,,,,,,,,,,,,,,,,,,,,,,,,,,,,,,,,,,,,,,,,,,,,,,,,,
1769162288.328087,1769162288.328775,102.0,0.0,4377.692383,4297.179688,4398.717773,4356.153809,4280.128418,4290.256348,4268.589844,4279.743652,4262.307617,4262.692383,4551.410156,4507.94873,4407.436035,4477.307617,,,,,,,,,,,,,,,,,,,,,,,,,,,,,,,,,,,,,,,,,,,,,,,,,,,,,,,,,,,,,,,,,,,,,,
1769162288.335896,1769162288.336583,103.0,0.0,4370.384766,4291.282227,4394.358887,4349.871582,4271.922852,4288.205078,4265.512695,4288.077148,4271.922852,4269.743652,4557.563965,4519.230957,4411.666504,4488.333496,,,,,,,,,,,,,,,,,,,,,,,,,,,,,,,,,,,,,,,,,,,,,,,,,,,,,,,,,,,,,,,,,,,,,,
1769162288.343704,1769162288.344591,104.0,0.0,4368.461426,4288.846191,4392.94873,4342.307617,4265.897461,4288.205078,4274.102539,4292.179688,4280.256348,4268.077148,4559.358887,4524.230957,4413.589844,4493.077148,,,,,,,,,,,,,,,,,,,,,,,,,,,,,,,,,,,,,,,,,,,,,,,,,,,,,,,,,,,,,,,,,,,,,,
1769162288.351513,1769162288.3524,105.0,0.0,4377.820313,4293.589844,4399.230957,4351.410156,4273.717773,4294.743652,4279.487305,4278.077148,4266.410156,4263.333496,4555.641113,4518.077148,4412.436035,4489.871582,,,,,,,,,,,,,,,,,,,,,,,,,,,,,,,,,,,,,,,,,,,,,,,,,,,,,,,,,,,,,,,,,,,,,,
1769162288.359321,1769162288.360108,106.0,0.0,4383.205078,4299.358887,4410.641113,4361.025879,4278.205078,4292.179688,4268.461426,4266.153809,4252.692383,4270.512695,4558.077148,4518.846191,4412.692383,4490.128418,,,,,,,,,,,,,,,,,,,,,,,,,,,,,,,,,,,,,,,,,,,,,,,,,,,,,,,,,,,,,,,,,,,,,,
1769162288.367129,1769162288.367917,107.0,0.0,4376.666504,4296.282227,4410.0,4351.922852,4270.128418,4283.333496,4262.307617,4277.307617,4264.615234,4276.538574,4565.769043,4525.128418,4412.436035,4490.641113,,,,,,,,,,,,,,,,,,,,,,,,,,,,,,,,,,,,,,,,,,,,,,,,,,,,,,,,,,,,,,,,,,,,,,
1769162288.374938,1769162288.375526,108.0,0.0,4370.512695,4291.153809,4398.974121,4340.641113,4264.102539,4278.205078,4266.922852,4283.717773,4271.794922,4274.230957,4568.589844,4525.128418,4412.94873,4490.641113,,,,,,,,,,,,,,,,,,,,,,,,,,,,,,,,,,,,,,,,,,,,,,,,,,,,,,,,,,,,,,,,,,,,,,
1769162288.382746,1769162288.383334,109.0,0.0,4376.410156,4295.769043,4400.769043,4343.974121,4264.487305,4278.846191,4269.358887,4279.102539,4265.769043,4273.589844,4564.615234,4522.563965,4412.692383,4493.077148,,,,,,,,,,,,,,,,,,,,,,,,,,,,,,,,,,,,,,,,,,,,,,,,,,,,,,,,,,,,,,,,,,,,,,
1769162288.390555,1769162288.391043,110.0,0.0,4381.538574,4294.615234,4410.0,4349.487305,4264.487305,4284.358887,4266.282227,4281.410156,4270.128418,4272.307617,4563.077148,4521.538574,4406.410156,4491.282227,0.41552,0.837072,0.151146,0.15919,0.137393,0.347093,0.628398,0.120908,0.118029,0.091558,0.554286,0.401663,0.175381,0.178375,0.160513,0.329545,0.570979,0.109033,0.112795,0.116927,0.128287,0.198171,0.108695,0.103498,0.056118,0.274705,0.267779,0.108693,0.359304,0.172804,0.121857,0.161973,0.103981,0.103052,0.076019,0.059322,0.179871,0.309824,0.282486,0.289428,0.354217,0.265526,0.275507,0.22593,0.177125,0.275686,0.902195,0.211886,0.221058,0.407741,0.131155,0.48359,0.119121,0.190351,0.163137,0.337718,0.616194,0.147331,0.204072,0.151012,0.283991,0.710014,0.553848,0.191411,0.222937,0.43663,0.686483,0.344691,0.188601,0.169362
1769162288.398363,1769162288.398851,111.0,0.0,4374.487305,4285.641113,4406.666504,4345.769043,4263.846191,4288.717773,4268.077148,4282.692383,4273.589844,4263.461426,4565.897461,4522.563965,4402.436035,4488.205078,,,,,,,,,,,,,,,,,,,,,,,,,,,,,,,,,,,,,,,,,,,,,,,,,,,,,,,,,,,,,,,,,,,,,,
1769162288.406172,1769162288.406859,112.0,0.0,4365.512695,4285.256348,4398.205078,4340.384766,4263.333496,4291.153809,4277.94873,4281.794922,4269.230957,4258.333496,4563.717773,4523.589844,4408.077148,4488.461426,,,,,,,,,,,,,,,,,,,,,,,,,,,,,,,,,,,,,,,,,,,,,,,,,,,,,,,,,,,,,,,,,,,,,,
1769162288.41398,1769162288.414668,113.0,0.0,4369.743652,4296.025879,4396.538574,4343.717773,4267.820313,4287.820313,4275.512695,4278.846191,4268.461426,4269.487305,4559.487305,4522.307617,4413.461426,4490.128418,,,,,,,,,,,,,,,,,,,,,,,,,,,,,,,,,,,,,,,,,,,,,,,,,,,,,,,,,,,,,,,,,,,,,,
1769162288.421789,1769162288.422576,114.0,0.0,4381.282227,4303.589844,4398.589844,4350.512695,4270.384766,4281.153809,4261.410156,4277.307617,4275.769043,4283.077148,4563.974121,4523.205078,4410.769043,4492.94873,,,,,,,,,,,,,,,,,,,,,,,,,,,,,,,,,,,,,,,,,,,,,,,,,,,,,,,,,,,,,,,,,,,,,,
1769162288.429597,1769162288.430384,115.0,0.0,4381.410156,4298.717773,4400.897461,4350.384766,4269.487305,4277.94873,4266.666504,4280.769043,4281.153809,4280.256348,4571.025879,4525.128418,4412.692383,4492.563965,,,,,,,,,,,,,,,,,,,,,,,,,,,,,,,,,,,,,,,,,,,,,,,,,,,,,,,,,,,,,,,,,,,,,,
1769162288.437405,1769162288.438393,116.0,0.0,4377.820313,4294.743652,4401.794922,4347.94873,4272.179688,4277.692383,4278.461426,4280.128418,4278.333496,4278.846191,4571.153809,4524.487305,4425.897461,4492.94873,,,,,,,,,,,,,,,,,,,,,,,,,,,,,,,,,,,,,,,,,,,,,,,,,,,,,,,,,,,,,,,,,,,,,,
1769162288.445214,1769162288.446201,117.0,0.0,4381.794922,4298.846191,4399.230957,4346.794922,4272.820313,4283.589844,4269.871582,4277.563965,4278.077148,4286.666504,4570.769043,4524.871582,4432.820313,4502.820313,,,,,,,,,,,,,,,,,,,,,,,,,,,,,,,,,,,,,,,,,,,,,,,,,,,,,,,,,,,,,,,,,,,,,,
1769162288.453022,1769162288.454109,118.0,0.0,4381.153809,4302.05127,4396.922852,4342.692383,4269.871582,4290.0,4260.641113,4279.743652,4280.384766,4286.922852,4572.436035,4527.179688,4423.974121,4505.897461,,,,,,,,,,,,,,,,,,,,,,,,,,,,,,,,,,,,,,,,,,,,,,,,,,,,,,,,,,,,,,,,,,,,,,
1769162288.460831,1769162288.461918,119.0,0.0,4371.794922,4296.538574,4394.615234,4340.512695,4271.538574,4286.922852,4267.179688,4277.820313,4272.820313,4276.666504,4567.436035,4524.230957,4413.717773,4493.333496,,,,,,,,,,,,,,,,,,,,,,,,,,,,,,,,,,,,,,,,,,,,,,,,,,,,,,,,,,,,,,,,,,,,,,
1769162288.468639,1769162288.469926,120.0,0.0,4368.333496,4292.436035,4391.666504,4342.436035,4271.153809,4282.563965,4272.05127,4273.589844,4264.743652,4271.282227,4561.794922,4519.358887,4412.820313,4487.307617,,,,,,,,,,,,,,,,,,,,,,,,,,,,,,,,,,,,,,,,,,,,,,,,,,,,,,,,,,,,,,,,,,,,,,
1769162288.476448,1769162288.477735,121.0,0.0,4374.102539,4300.384766,4394.102539,4344.615234,4266.922852,4290.256348,4271.794922,4278.717773,4273.333496,4277.692383,4564.871582,4521.922852,4411.666504,4494.615234,,,,,,,,,,,,,,,,,,,,,,,,,,,,,,,,,,,,,,,,,,,,,,,,,,,,,,,,,,,,,,,,,,,,,,
1769162288.484256,1769162288.485443,122.0,0.0,4376.794922,4301.922852,4398.974121,4343.589844,4269.871582,4288.846191,4274.871582,4282.179688,4280.256348,4279.487305,4568.205078,4524.102539,4411.153809,4495.256348,,,,,,,,,,,,,,,,,,,,,,,,,,,,,,,,,,,,,,,,,,,,,,,,,,,,,,,,,,,,,,,,,,,,,,
1769162288.492065,1769162288.493252,123.0,0.0,4375.128418,4295.769043,4398.205078,4344.871582,4278.717773,4281.538574,4275.256348,4277.820313,4273.205078,4271.538574,4566.922852,4524.230957,4421.538574,4492.307617,,,,,,,,,,,,,,,,,,,,,,,,,,,,,,,,,,,,,,,,,,,,,,,,,,,,,,,,,,,,,,,,,,,,,,
1769162288.499873,1769162288.50086,124.0,0.0,4374.358887,4297.692383,4396.794922,4349.230957,4280.0,4288.846191,4268.974121,4280.0,4273.974121,4276.153809,4569.230957,4528.589844,4425.384766,4497.820313,,,,,,,,,,,,,,,,,,,,,,,,,,,,,,,,,,,,,,,,,,,,,,,,,,,,,,,,,,,,,,,,,,,,,,
1769162288.507681,1769162288.508669,125.0,0.0,4372.436035,4304.358887,4396.153809,4348.461426,4276.538574,4292.179688,4267.692383,4288.589844,4281.794922,4290.384766,4573.205078,4532.05127,4419.487305,4497.820313,,,,,,,,,,,,,,,,,,,,,,,,,,,,,,,,,,,,,,,,,,,,,,,,,,,,,,,,,,,,,,,,,,,,,,
1769162288.51549,1769162288.516377,126.0,0.0,4371.794922,4304.102539,4397.563965,4347.692383,4276.153809,4285.641113,4269.358887,4291.666504,4282.436035,4291.282227,4573.077148,4533.974121,4422.692383,4490.897461,0.455427,0.826744,0.139192,0.140787,0.137858,0.350502,0.64527,0.128284,0.109954,0.081049,0.633666,0.398586,0.170347,0.183053,0.134653,0.286846,0.60488,0.087875,0.111094,0.095653,0.144535,0.184534,0.100418,0.10485,0.053866,0.301923,0.2782,0.122956,0.375194,0.186528,0.119808,0.199956,0.118102,0.109871,0.074567,0.044711,0.174992,0.325671,0.249202,0.280566,0.410126,0.25225,0.267525,0.215237,0.180496,0.309163,0.87902,0.321463,0.207479,0.351124,0.154329,0.503262,0.158777,0.187477,0.143816,0.26778,0.596109,0.150997,0.191988,0.136336,0.305962,0.704962,0.541657,0.174101,0.212998,0.400808,0.63893,0.308195,0.154617,0.15557
1769162288.523298,1769162288.524186,127.0,0.0,4371.922852,4301.922852,4398.589844,4348.461426,4277.307617,4284.358887,4268.077148,4285.512695,4278.333496,4279.102539,4572.05127,4532.307617,4422.692383,4490.641113,,,,,,,,,,,,,,,,,,,,,,,,,,,,,,,,,,,,,,,,,,,,,,,,,,,,,,,,,,,,,,,,,,,,,,
1769162288.531107,1769162288.532194,0.0,0.0,4371.153809,4303.846191,4392.692383,4344.230957,4274.358887,4282.307617,4267.563965,4277.820313,4273.974121,4272.05127,4569.871582,4525.128418,4414.871582,4492.692383,,,,,,,,,,,,,,,,,,,,,,,,,,,,,,,,,,,,,,,,,,,,,,,,,,,,,,,,,,,,,,,,,,,,,,
1769162288.538915,1769162288.540002,1.0,0.0,4371.666504,4307.436035,4389.615234,4345.0,4274.487305,4280.256348,4268.589844,4279.102539,4277.05127,4277.820313,4569.743652,4520.0,4420.769043,4490.512695,,,,,,,,,,,,,,,,,,,,,,,,,,,,,,,,,,,,,,,,,,,,,,,,,,,,,,,,,,,,,,,,,,,,,,
1769162288.546724,1769162288.547911,2.0,0.0,4368.974121,4310.897461,4392.563965,4353.205078,4280.384766,4286.410156,4270.128418,4282.179688,4278.846191,4283.077148,4571.538574,4520.384766,4430.0,4489.487305,,,,,,,,,,,,,,,,,,,,,,,,,,,,,,,,,,,,,,,,,,,,,,,,,,,,,,,,,,,,,,,,,,,,,,
1769162288.554532,1769162288.555719,3.0,0.0,4362.563965,4306.538574,4388.846191,4350.641113,4282.179688,4289.487305,4274.230957,4278.205078,4272.563965,4277.563965,4569.871582,4519.358887,4426.025879,4491.282227,,,,,,,,,,,,,,,,,,,,,,,,,,,,,,,,,,,,,,,,,,,,,,,,,,,,,,,,,,,,,,,,,,,,,,
1769162288.562341,1769162288.563328,4.0,0.0,4361.794922,4300.384766,4386.538574,4340.256348,4279.230957,4287.563965,4277.05127,4276.025879,4273.717773,4278.717773,4568.846191,4520.0,4424.743652,4489.358887,,,,,,,,,,,,,,,,,,,,,,,,,,,,,,,,,,,,,,,,,,,,,,,,,,,,,,,,,,,,,,,,,,,,,,
1769162288.570149,1769162288.571136,5.0,0.0,4369.102539,4305.769043,4392.179688,4342.692383,4280.128418,4294.487305,4277.307617,4282.307617,4283.461426,4287.94873,4571.282227,4523.461426,4426.922852,4489.358887,,,,,,,,,,,,,,,,,,,,,,,,,,,,,,,,,,,,,,,,,,,,,,,,,,,,,,,,,,,,,,,,,,,,,,
1769162288.577958,1769162288.578845,6.0,0.0,4374.102539,4311.794922,4392.563965,4350.0,4280.384766,4297.94873,4278.077148,4277.94873,4280.769043,4288.461426,4573.205078,4522.307617,4426.282227,4500.0,,,,,,,,,,,,,,,,,,,,,,,,,,,,,,,,,,,,,,,,,,,,,,,,,,,,,,,,,,,,,,,,,,,,,,
1769162288.585766,1769162288.586653,7.0,0.0,4373.333496,4310.897461,4388.077148,4348.461426,4279.230957,4287.563965,4274.615234,4265.641113,4268.461426,4278.205078,4571.666504,4520.512695,4429.102539,4510.384766,,,,,,,,,,,,,,,,,,,,,,,,,,,,,,,,,,,,,,,,,,,,,,,,,,,,,,,,,,,,,,,,,,,,,,
1769162288.593575,1769162288.594262,8.0,0.0,4370.128418,4306.666504,4387.307617,4343.846191,4278.461426,4280.128418,4271.282227,4269.615234,4269.487305,4270.641113,4569.615234,4520.256348,4427.436035,4504.487305,,,,,,,,,,,,,,,,,,,,,,,,,,,,,,,,,,,,,,,,,,,,,,,,,,,,,,,,,,,,,,,,,,,,,,
1769162288.601383,1769162288.60207,9.0,0.0,4366.410156,4300.0,4386.922852,4339.743652,4274.358887,4284.102539,4273.461426,4281.153809,4278.717773,4277.05127,4568.846191,4521.153809,4424.358887,4494.615234,,,,,,,,,,,,,,,,,,,,,,,,,,,,,,,,,,,,,,,,,,,,,,,,,,,,,,,,,,,,,,,,,,,,,,
1769162288.609192,1769162288.609979,10.0,0.0,4365.128418,4293.974121,4387.563965,4336.025879,4270.0,4286.410156,4276.666504,4279.615234,4281.282227,4284.102539,4572.692383,4523.205078,4427.94873,4498.846191,,,,,,,,,,,,,,,,,,,,,,,,,,,,,,,,,,,,,,,,,,,,,,,,,,,,,,,,,,,,,,,,,,,,,,
1769162288.617,1769162288.617787,11.0,0.0,4370.769043,4296.922852,4391.025879,4336.153809,4272.820313,4285.512695,4278.846191,4275.769043,4278.333496,4278.333496,4577.563965,4523.461426,4428.589844,4506.282227,,,,,,,,,,,,,,,,,,,,,,,,,,,,,,,,,,,,,,,,,,,,,,,,,,,,,,,,,,,,,,,,,,,,,,
1769162288.624808,1769162288.625795,12.0,0.0,4377.05127,4306.410156,4396.025879,4342.436035,4278.846191,4287.563965,4278.333496,4279.615234,4277.692383,4276.025879,4576.025879,4523.589844,4427.94873,4507.563965,,,,,,,,,,,,,,,,,,,,,,,,,,,,,,,,,,,,,,,,,,,,,,,,,,,,,,,,,,,,,,,,,,,,,,
1769162288.632617,1769162288.633604,13.0,0.0,4375.769043,4308.333496,4396.922852,4344.358887,4279.871582,4292.179688,4277.179688,4277.94873,4278.846191,4283.589844,4572.563965,4523.077148,4430.256348,4506.410156,,,,,,,,,,,,,,,,,,,,,,,,,,,,,,,,,,,,,,,,,,,,,,,,,,,,,,,,,,,,,,,,,,,,,,
1769162288.640425,1769162288.641512,14.0,0.0,4369.871582,4299.102539,4390.641113,4340.128418,4277.563965,4291.025879,4272.94873,4275.0,4278.589844,4283.077148,4572.179688,4520.897461,4425.256348,4498.461426,0.4927,0.754938,0.145563,0.137921,0.139256,0.422195,0.636531,0.148612,0.111024,0.079625,0.669603,0.379332,0.159647,0.196476,0.118948,0.23396,0.618802,0.092393,0.113124,0.079076,0.189623,0.174042,0.094617,0.100143,0.053901,0.332527,0.26154,0.140867,0.362978,0.197053,0.130178,0.235802,0.135277,0.117105,0.083738,0.038845,0.177086,0.34893,0.226922,0.274303,0.453191,0.242864,0.243447,0.20191,0.182765,0.34127,0.835261,0.487466,0.200388,0.300891,0.173582,0.519633,0.23368,0.182772,0.140486,0.252294,0.543332,0.156359,0.184748,0.127326,0.318129,0.6862,0.568194,0.153174,0.210174,0.346971,0.550416,0.306354,0.131242,0.147663
1769162288.648234,1769162288.649321,15.0,0.0,4364.358887,4293.077148,4385.512695,4340.641113,4277.820313,4289.358887,4269.230957,4278.846191,4278.717773,4276.794922,4572.820313,4520.256348,4421.153809,4492.563965,,,,,,,,,,,,,,,,,,,,,,,,,,,,,,,,,,,,,,,,,,,,,,,,,,,,,,,,,,,,,,,,,,,,,,
1769162288.656042,1769162288.657329,16.0,0.0,4367.05127,4299.743652,4390.897461,4343.717773,4279.230957,4290.384766,4267.94873,4276.794922,4276.282227,4278.333496,4572.179688,4521.922852,4427.563965,4499.102539,,,,,,,,,,,,,,,,,,,,,,,,,,,,,,,,,,,,,,,,,,,,,,,,,,,,,,,,,,,,,,,,,,,,,,
1769162288.663851,1769162288.665137,17.0,0.0,4378.846191,4307.436035,4398.717773,4344.102539,4280.256348,4285.0,4267.436035,4273.974121,4276.025879,4277.94873,4572.179688,4519.871582,4425.512695,4506.025879,,,,,,,,,,,,,,,,,,,,,,,,,,,,,,,,,,,,,,,,,,,,,,,,,,,,,,,,,,,,,,,,,,,,,,
1769162288.671659,1769162288.672846,18.0,0.0,4381.153809,4305.641113,4399.487305,4343.461426,4279.871582,4284.102539,4270.0,4278.205078,4279.358887,4269.743652,4567.820313,4516.666504,4416.025879,4504.102539,,,,,,,,,,,,,,,,,,,,,,,,,,,,,,,,,,,,,,,,,,,,,,,,,,,,,,,,,,,,,,,,,,,,,,
1769162288.679468,1769162288.680654,19.0,0.0,4371.410156,4302.94873,4395.512695,4343.461426,4279.230957,4291.410156,4275.256348,4278.077148,4277.05127,4268.717773,4569.487305,4519.230957,4423.077148,4505.512695,,,,,,,,,,,,,,,,,,,,,,,,,,,,,,,,,,,,,,,,,,,,,,,,,,,,,,,,,,,,,,,,,,,,,,
1769162288.687276,1769162288.688263,20.0,0.0,4372.692383,4307.179688,4395.641113,4344.615234,4280.128418,4292.692383,4276.153809,4273.205078,4276.282227,4282.692383,4580.0,4523.077148,4436.666504,4512.179688,,,,,,,,,,,,,,,,,,,,,,,,,,,,,,,,,,,,,,,,,,,,,,,,,,,,,,,,,,,,,,,,,,,,,,
1769162288.695084,1769162288.696071,21.0,0.0,4377.692383,4308.974121,4396.538574,4343.333496,4278.589844,4289.615234,4270.512695,4276.282227,4285.128418,4292.94873,4580.0,4521.922852,4434.871582,4513.077148,,,,,,,,,,,,,,,,,,,,,,,,,,,,,,,,,,,,,,,,,,,,,,,,,,,,,,,,,,,,,,,,,,,,,,
1769162288.702893,1769162288.70378,22.0,0.0,4377.179688,4307.307617,4396.538574,4342.692383,4276.922852,4293.974121,4268.589844,4281.153809,4285.897461,4285.897461,4571.922852,4518.717773,4426.922852,4507.436035,,,,,,,,,,,,,,,,,,,,,,,,,,,,,,,,,,,,,,,,,,,,,,,,,,,,,,,,,,,,,,,,,,,,,,
1769162288.710701,1769162288.711588,23.0,0.0,4376.410156,4310.769043,4398.077148,4346.153809,4280.512695,4297.179688,4271.666504,4278.717773,4278.333496,4275.769043,4570.128418,4520.256348,4428.333496,4507.94873,,,,,,,,,,,,,,,,,,,,,,,,,,,,,,,,,,,,,,,,,,,,,,,,,,,,,,,,,,,,,,,,,,,,,,
1769162288.71851,1769162288.719197,24.0,0.0,4372.820313,4313.461426,4399.871582,4346.282227,4282.692383,4292.179688,4276.282227,4280.0,4284.743652,4277.05127,4576.666504,4526.025879,4438.205078,4517.05127,,,,,,,,,,,,,,,,,,,,,,,,,,,,,,,,,,,,,,,,,,,,,,,,,,,,,,,,,,,,,,,,,,,,,,
1769162288.726318,1769162288.727006,25.0,0.0,4377.94873,4308.205078,4403.717773,4342.94873,4280.256348,4293.846191,4273.974121,4283.205078,4291.922852,4285.641113,4583.333496,4528.717773,4443.717773,4526.410156,,,,,,,,,,,,,,,,,,,,,,,,,,,,,,,,,,,,,,,,,,,,,,,,,,,,,,,,,,,,,,,,,,,,,,
1769162288.734127,1769162288.734714,26.0,0.0,4381.282227,4305.769043,4405.897461,4342.436035,4279.871582,4302.692383,4270.0,4279.358887,4280.384766,4279.871582,4581.666504,4523.846191,4435.0,4523.205078,,,,,,,,,,,,,,,,,,,,,,,,,,,,,,,,,,,,,,,,,,,,,,,,,,,,,,,,,,,,,,,,,,,,,,
1769162288.741935,1769162288.742523,27.0,0.0,4362.179688,4309.487305,4398.333496,4343.333496,4282.692383,4304.102539,4278.333496,4277.94873,4274.743652,4265.641113,4570.0,4516.922852,4418.846191,4508.461426,,,,,,,,,,,,,,,,,,,,,,,,,,,,,,,,,,,,,,,,,,,,,,,,,,,,,,,,,,,,,,,,,,,,,,
1769162288.749744,1769162288.750531,28.0,0.0,4353.974121,4311.025879,4396.282227,4347.94873,4281.538574,4296.410156,4277.692383,4281.666504,4284.358887,4271.666504,4565.128418,4518.717773,4416.538574,4502.179688,,,,,,,,,,,,,,,,,,,,,,,,,,,,,,,,,,,,,,,,,,,,,,,,,,,,,,,,,,,,,,,,,,,,,,
1769162288.757552,1769162288.758339,29.0,0.0,4369.487305,4312.692383,4409.102539,4354.871582,4279.487305,4292.179688,4264.358887,4279.743652,4284.615234,4280.384766,4570.769043,4523.461426,4428.205078,4507.94873,,,,,,,,,,,,,,,,,,,,,,,,,,,,,,,,,,,,,,,,,,,,,,,,,,,,,,,,,,,,,,,,,,,,,,
1769162288.76536,1769162288.766048,30.0,0.0,4366.282227,4309.743652,4412.05127,4352.179688,4281.410156,4295.769043,4265.769043,4273.974121,4276.666504,4268.974121,4571.538574,4522.94873,4428.205078,4509.871582,0.544177,0.650393,0.171916,0.150512,0.139264,0.564635,0.615002,0.181331,0.119855,0.085656,0.622368,0.356259,0.153171,0.217584,0.115603,0.190222,0.616821,0.123676,0.114898,0.072016,0.260914,0.171516,0.094311,0.091276,0.055629,0.346427,0.218972,0.151452,0.330958,0.2031,0.145,0.260945,0.153244,0.124048,0.104881,0.039454,0.184336,0.373681,0.223231,0.27099,0.469409,0.23232,0.202977,0.189237,0.186235,0.361655,0.777422,0.698208,0.195534,0.261131,0.188954,0.541878,0.339627,0.173259,0.150064,0.272918,0.467494,0.165362,0.179925,0.125361,0.322463,0.674441,0.654703,0.131447,0.210882,0.289133,0.452738,0.343338,0.121688,0.143971
1769162288.773169,1769162288.773856,31.0,0.0,4350.0,4298.461426,4399.871582,4341.282227,4280.897461,4294.230957,4277.436035,4278.589844,4276.666504,4257.179688,4568.589844,4520.769043,4417.307617,4506.410156,,,,,,,,,,,,,,,,,,,,,,,,,,,,,,,,,,,,,,,,,,,,,,,,,,,,,,,,,,,,,,,,,,,,,,
1769162288.780977,1769162288.781465,32.0,0.0,4356.282227,4297.307617,4398.461426,4340.384766,4273.717773,4290.0,4276.410156,4288.589844,4285.256348,4266.538574,4569.487305,4523.077148,4420.256348,4508.461426,,,,,,,,,,,,,,,,,,,,,,,,,,,,,,,,,,,,,,,,,,,,,,,,,,,,,,,,,,,,,,,,,,,,,,
1769162288.788786,1769162288.789273,33.0,0.0,4366.538574,4307.692383,4408.846191,4347.563965,4272.179688,4293.461426,4273.461426,4290.256348,4289.230957,4282.820313,4578.333496,4532.05127,4430.769043,4513.333496,,,,,,,,,,,,,,,,,,,,,,,,,,,,,,,,,,,,,,,,,,,,,,,,,,,,,,,,,,,,,,,,,,,,,,
1769162288.796594,1769162288.796982,34.0,0.0,4371.794922,4312.307617,4413.717773,4348.974121,4279.743652,4295.897461,4278.205078,4283.717773,4283.205078,4278.205078,4584.358887,4537.94873,4430.641113,4519.102539,,,,,,,,,,,,,,,,,,,,,,,,,,,,,,,,,,,,,,,,,,,,,,,,,,,,,,,,,,,,,,,,,,,,,,
1769162288.804403,1769162288.80479,35.0,0.0,4374.102539,4309.871582,4410.384766,4345.641113,4281.666504,4294.871582,4277.692383,4277.179688,4276.025879,4262.820313,4578.077148,4532.94873,4430.897461,4524.615234,,,,,,,,,,,,,,,,,,,,,,,,,,,,,,,,,,,,,,,,,,,,,,,,,,,,,,,,,,,,,,,,,,,,,,
1769162288.812211,1769162288.812799,36.0,0.0,4363.077148,4301.282227,4408.717773,4339.230957,4276.025879,4294.615234,4276.410156,4282.820313,4279.743652,4271.922852,4571.282227,4525.769043,4429.487305,4518.077148,,,,,,,,,,,,,,,,,,,,,,,,,,,,,,,,,,,,,,,,,,,,,,,,,,,,,,,,,,,,,,,,,,,,,,
1769162288.82002,1769162288.820607,37.0,0.0,4353.974121,4293.333496,4411.025879,4336.153809,4275.512695,4292.179688,4278.077148,4287.820313,4279.743652,4283.846191,4567.563965,4523.589844,4416.794922,4506.153809,,,,,,,,,,,,,,,,,,,,,,,,,,,,,,,,,,,,,,,,,,,,,,,,,,,,,,,,,,,,,,,,,,,,,,
1769162288.827828,1769162288.828515,38.0,0.0,4361.666504,4301.794922,4410.897461,4343.461426,4280.256348,4290.897461,4273.333496,4278.589844,4267.563965,4265.897461,4564.743652,4521.025879,4410.641113,4503.077148,,,,,,,,,,,,,,,,,,,,,,,,,,,,,,,,,,,,,,,,,,,,,,,,,,,,,,,,,,,,,,,,,,,,,,
1769162288.835637,1769162288.836324,39.0,0.0,4367.563965,4313.205078,4409.230957,4351.666504,4282.94873,4294.743652,4267.692383,4275.384766,4269.615234,4263.589844,4568.461426,4519.743652,4422.307617,4506.922852,,,,,,,,,,,,,,,,,,,,,,,,,,,,,,,,,,,,,,,,,,,,,,,,,,,,,,,,,,,,,,,,,,,,,,
1769162288.843445,1769162288.844332,40.0,0.0,4360.256348,4307.94873,4409.615234,4348.974121,4282.436035,4295.384766,4270.769043,4284.102539,4282.05127,4278.589844,4573.077148,4524.487305,4430.384766,4510.384766,,,,,,,,,,,,,,,,,,,,,,,,,,,,,,,,,,,,,,,,,,,,,,,,,,,,,,,,,,,,,,,,,,,,,,
1769162288.851253,1769162288.85214,41.0,0.0,4355.256348,4299.871582,4405.128418,4342.307617,4279.743652,4290.384766,4275.384766,4281.410156,4277.94873,4268.846191,4569.615234,4524.615234,4423.589844,4508.846191,,,,,,,,,,,,,,,,,,,,,,,,,,,,,,,,,,,,,,,,,,,,,,,,,,,,,,,,,,,,,,,,,,,,,,
1769162288.859062,1769162288.860049,42.0,0.0,4356.153809,4298.461426,4400.128418,4341.794922,4278.974121,4288.205078,4275.641113,4276.922852,4269.487305,4264.871582,4568.077148,4520.256348,4420.512695,4506.153809,,,,,,,,,,,,,,,,,,,,,,,,,,,,,,,,,,,,,,,,,,,,,,,,,,,,,,,,,,,,,,,,,,,,,,
1769162288.86687,1769162288.867857,43.0,0.0,4354.743652,4296.410156,4401.794922,4341.153809,4280.769043,4291.153809,4276.922852,4290.897461,4280.0,4282.563965,4574.358887,4524.102539,4428.077148,4508.077148,,,,,,,,,,,,,,,,,,,,,,,,,,,,,,,,,,,,,,,,,,,,,,,,,,,,,,,,,,,,,,,,,,,,,,
1769162288.874679,1769162288.875866,44.0,0.0,4353.717773,4298.077148,4402.94873,4340.384766,4281.153809,4293.205078,4279.743652,4294.358887,4286.153809,4285.641113,4576.153809,4528.846191,4428.974121,4511.410156,,,,,,,,,,,,,,,,,,,,,,,,,,,,,,,,,,,,,,,,,,,,,,,,,,,,,,,,,,,,,,,,,,,,,,
1769162288.882487,1769162288.883674,45.0,0.0,4354.743652,4303.589844,4403.589844,4341.794922,4280.256348,4293.333496,4278.589844,4279.102539,4270.512695,4274.358887,4570.0,4518.717773,4419.871582,4508.205078,,,,,,,,,,,,,,,,,,,,,,,,,,,,,,,,,,,,,,,,,,,,,,,,,,,,,,,,,,,,,,,,,,,,,,
1769162288.890296,1769162288.891383,46.0,0.0,4353.077148,4305.384766,4407.820313,4342.820313,4280.256348,4293.077148,4276.025879,4275.641113,4263.333496,4268.974121,4566.410156,4511.153809,4419.230957,4502.94873,0.602414,0.546051,0.214716,0.173859,0.137248,0.741212,0.589515,0.222236,0.134841,0.096537,0.551859,0.33724,0.157248,0.238798,0.122071,0.166733,0.596107,0.172324,0.112321,0.076432,0.347214,0.179155,0.101779,0.081829,0.058477,0.345239,0.163138,0.151754,0.294946,0.204691,0.158088,0.267329,0.171072,0.13034,0.134845,0.043993,0.193761,0.389866,0.235855,0.269333,0.450174,0.21635,0.157008,0.180661,0.193331,0.36615,0.714355,0.920011,0.191532,0.233996,0.202563,0.571756,0.45458,0.15813,0.164279,0.295318,0.390257,0.181605,0.173318,0.12837,0.32153,0.680143,0.781894,0.113822,0.210967,0.249437,0.376781,0.403318,0.124654,0.141498
1769162288.898104,1769162288.899191,47.0,0.0,4351.666504,4303.461426,4407.94873,4343.205078,4280.512695,4290.897461,4275.897461,4283.461426,4276.410156,4271.282227,4567.820313,4518.589844,4422.307617,4497.820313,,,,,,,,,,,,,,,,,,,,,,,,,,,,,,,,,,,,,,,,,,,,,,,,,,,,,,,,,,,,,,,,,,,,,,
1769162288.905913,1769162288.9068,48.0,0.0,4348.846191,4297.94873,4401.666504,4340.512695,4280.384766,4287.820313,4275.512695,4283.077148,4281.922852,4275.897461,4567.820313,4518.846191,4415.897461,4492.307617,,,,,,,,,,,,,,,,,,,,,,,,,,,,,,,,,,,,,,,,,,,,,,,,,,,,,,,,,,,,,,,,,,,,,,
1769162288.913721,1769162288.914608,49.0,0.0,4346.538574,4293.589844,4399.743652,4337.94873,4280.384766,4289.615234,4274.487305,4278.461426,4270.769043,4271.794922,4567.05127,4509.358887,4412.820313,4491.410156,,,,,,,,,,,,,,,,,,,,,,,,,,,,,,,,,,,,,,,,,,,,,,,,,,,,,,,,,,,,,,,,,,,,,,
1769162288.921529,1769162288.922317,50.0,0.0,4348.717773,4298.974121,4401.666504,4340.769043,4280.384766,4289.230957,4273.717773,4276.538574,4264.102539,4260.769043,4564.615234,4508.077148,4416.538574,4492.307617,,,,,,,,,,,,,,,,,,,,,,,,,,,,,,,,,,,,,,,,,,,,,,,,,,,,,,,,,,,,,,,,,,,,,,
1769162288.929338,1769162288.930125,51.0,0.0,4350.384766,4306.794922,4404.743652,4345.769043,4280.512695,4280.512695,4269.102539,4274.358887,4264.615234,4262.436035,4558.077148,4508.974121,4414.358887,4490.769043,,,,,,,,,,,,,,,,,,,,,,,,,,,,,,,,,,,,,,,,,,,,,,,,,,,,,,,,,,,,,,,,,,,,,,
1769162288.937146,1769162288.938133,52.0,0.0,4351.922852,4306.410156,4409.487305,4345.512695,4280.384766,4281.025879,4266.922852,4276.794922,4263.077148,4270.0,4555.256348,4506.666504,4411.794922,4489.358887,,,,,,,,,,,,,,,,,,,,,,,,,,,,,,,,,,,,,,,,,,,,,,,,,,,,,,,,,,,,,,,,,,,,,,
1769162288.944955,1769162288.945942,53.0,0.0,4356.666504,4305.897461,4412.820313,4344.871582,4280.256348,4290.641113,4273.717773,4281.538574,4265.0,4266.666504,4556.666504,4510.0,4416.025879,4488.589844,,,,,,,,,,,,,,,,,,,,,,,,,,,,,,,,,,,,,,,,,,,,,,,,,,,,,,,,,,,,,,,,,,,,,,
1769162288.952763,1769162288.95385,54.0,0.0,4361.282227,4309.358887,4414.358887,4346.282227,4280.897461,4285.641113,4277.94873,4279.358887,4265.256348,4261.922852,4555.769043,4509.871582,4416.666504,4487.820313,,,,,,,,,,,,,,,,,,,,,,,,,,,,,,,,,,,,,,,,,,,,,,,,,,,,,,,,,,,,,,,,,,,,,,
1769162288.960572,1769162288.961659,55.0,0.0,4356.922852,4304.230957,4409.743652,4342.307617,4279.871582,4277.05127,4275.128418,4274.871582,4261.282227,4261.410156,4554.871582,4505.256348,4412.307617,4487.692383,,,,,,,,,,,,,,,,,,,,,,,,,,,,,,,,,,,,,,,,,,,,,,,,,,,,,,,,,,,,,,,,,,,,,,
1769162288.96838,1769162288.969267,56.0,0.0,4346.153809,4294.743652,4403.461426,4338.333496,4278.589844,4284.102539,4276.410156,4283.205078,4270.769043,4265.512695,4558.333496,4513.589844,4411.666504,4490.256348,,,,,,,,,,,,,,,,,,,,,,,,,,,,,,,,,,,,,,,,,,,,,,,,,,,,,,,,,,,,,,,,,,,,,,
1769162288.976189,1769162288.977076,57.0,0.0,4340.256348,4290.384766,4404.230957,4337.563965,4278.717773,4287.820313,4280.769043,4289.871582,4281.282227,4271.922852,4560.384766,4526.922852,4412.436035,4493.461426,,,,,,,,,,,,,,,,,,,,,,,,,,,,,,,,,,,,,,,,,,,,,,,,,,,,,,,,,,,,,,,,,,,,,,
1769162288.983997,1769162288.984784,58.0,0.0,4345.384766,4291.410156,4411.025879,4335.384766,4278.589844,4282.179688,4279.871582,4281.282227,4273.205078,4267.94873,4558.974121,4523.974121,4413.333496,4492.563965,,,,,,,,,,,,,,,,,,,,,,,,,,,,,,,,,,,,,,,,,,,,,,,,,,,,,,,,,,,,,,,,,,,,,,
1769162288.991805,1769162288.992593,59.0,0.0,4353.205078,4294.615234,4417.94873,4337.05127,4278.205078,4285.512695,4277.179688,4275.256348,4262.05127,4259.871582,4555.897461,4510.641113,4409.615234,4489.102539,,,,,,,,,,,,,,,,,,,,,,,,,,,,,,,,,,,,,,,,,,,,,,,,,,,,,,,,,,,,,,,,,,,,,,
1769162288.999614,1769162289.000601,60.0,0.0,4350.128418,4292.692383,4418.846191,4341.153809,4278.077148,4296.153809,4278.717773,4280.0,4262.692383,4258.461426,4551.153809,4509.230957,4402.563965,4487.436035,,,,,,,,,,,,,,,,,,,,,,,,,,,,,,,,,,,,,,,,,,,,,,,,,,,,,,,,,,,,,,,,,,,,,,
1769162289.007422,1769162289.008409,61.0,0.0,4345.256348,4289.615234,4414.871582,4338.461426,4278.077148,4297.307617,4282.05127,4281.538574,4269.230957,4261.025879,4553.333496,4520.0,4405.128418,4489.871582,,,,,,,,,,,,,,,,,,,,,,,,,,,,,,,,,,,,,,,,,,,,,,,,,,,,,,,,,,,,,,,,,,,,,,
1769162289.015231,1769162289.016318,62.0,0.0,4341.794922,4292.307617,4412.05127,4334.230957,4277.94873,4285.641113,4275.769043,4278.333496,4275.0,4267.307617,4560.897461,4523.461426,4412.820313,4492.94873,0.668593,0.464364,0.264441,0.203184,0.136183,0.902025,0.558583,0.262531,0.157142,0.110283,0.432903,0.319314,0.170505,0.2517,0.133737,0.167329,0.550801,0.224542,0.105715,0.090404,0.444489,0.191347,0.117657,0.07541,0.06206,0.326033,0.111942,0.14706,0.269394,0.202091,0.163361,0.251807,0.189343,0.136085,0.166343,0.053253,0.202629,0.384523,0.253682,0.267298,0.40141,0.196956,0.118137,0.17693,0.205414,0.361555,0.652869,1.103589,0.188985,0.222972,0.214363,0.601367,0.545378,0.140369,0.175616,0.303441,0.331574,0.205034,0.161855,0.13249,0.322562,0.696164,0.899676,0.10667,0.210306,0.236077,0.339773,0.457763,0.139328,0.139389
1769162289.023039,1769162289.024126,63.0,0.0,4342.563965,4296.794922,4414.230957,4339.230957,4278.589844,4281.282227,4267.307617,4279.358887,4275.769043,4277.820313,4565.512695,4519.615234,4415.769043,4493.205078,,,,,,,,,,,,,,,,,,,,,,,,,,,,,,,,,,,,,,,,,,,,,,,,,,,,,,,,,,,,,,,,,,,,,,
1769162289.030848,1769162289.032134,64.0,0.0,4348.589844,4295.512695,4416.282227,4343.461426,4277.563965,4284.102539,4273.846191,4280.256348,4270.256348,4277.436035,4562.436035,4520.384766,4416.025879,4492.179688,,,,,,,,,,,,,,,,,,,,,,,,,,,,,,,,,,,,,,,,,,,,,,,,,,,,,,,,,,,,,,,,,,,,,,
1769162289.038656,1769162289.039943,65.0,0.0,4348.846191,4294.487305,4418.205078,4340.769043,4276.538574,4280.384766,4279.102539,4281.538574,4271.538574,4266.025879,4558.846191,4523.589844,4413.846191,4493.717773,,,,,,,,,,,,,,,,,,,,,,,,,,,,,,,,,,,,,,,,,,,,,,,,,,,,,,,,,,,,,,,,,,,,,,
1769162289.046465,1769162289.047851,66.0,0.0,4346.282227,4298.974121,4420.128418,4340.384766,4277.820313,4282.307617,4275.256348,4280.897461,4272.563965,4262.179688,4561.666504,4522.94873,4410.641113,4493.974121,,,,,,,,,,,,,,,,,,,,,,,,,,,,,,,,,,,,,,,,,,,,,,,,,,,,,,,,,,,,,,,,,,,,,,
1769162289.054273,1769162289.05566,67.0,0.0,4348.589844,4303.589844,4416.794922,4343.461426,4279.230957,4294.487305,4277.563965,4277.563965,4267.307617,4265.0,4564.102539,4523.333496,4416.538574,4491.538574,,,,,,,,,,,,,,,,,,,,,,,,,,,,,,,,,,,,,,,,,,,,,,,,,,,,,,,,,,,,,,,,,,,,,,
1769162289.062082,1769162289.063268,68.0,0.0,4350.512695,4305.256348,4413.205078,4343.589844,4280.512695,4297.05127,4280.641113,4282.94873,4271.794922,4270.769043,4567.05127,4523.974121,4427.05127,4496.282227,,,,,,,,,,,,,,,,,,,,,,,,,,,,,,,,,,,,,,,,,,,,,,,,,,,,,,,,,,,,,,,,,,,,,,
1769162289.06989,1769162289.071077,69.0,0.0,4349.358887,4303.717773,4411.922852,4341.794922,4281.410156,4288.717773,4277.820313,4292.436035,4281.025879,4277.94873,4570.384766,4523.717773,4429.230957,4505.256348,,,,,,,,,,,,,,,,,,,,,,,,,,,,,,,,,,,,,,,,,,,,,,,,,,,,,,,,,,,,,,,,,,,,,,
1769162289.077699,1769162289.078785,70.0,0.0,4351.025879,4305.256348,4410.256348,4346.410156,4281.282227,4287.05127,4278.717773,4292.179688,4281.153809,4277.692383,4571.794922,4530.384766,4428.461426,4507.692383,,,,,,,,,,,,,,,,,,,,,,,,,,,,,,,,,,,,,,,,,,,,,,,,,,,,,,,,,,,,,,,,,,,,,,
1769162289.085507,1769162289.086594,71.0,0.0,4351.666504,4309.230957,4410.769043,4350.897461,4282.563965,4293.205078,4279.358887,4284.230957,4278.461426,4276.025879,4572.820313,4535.128418,4428.461426,4505.769043,,,,,,,,,,,,,,,,,,,,,,,,,,,,,,,,,,,,,,,,,,,,,,,,,,,,,,,,,,,,,,,,,,,,,,
1769162289.093315,1769162289.094202,72.0,0.0,4345.897461,4304.487305,4408.589844,4345.256348,4283.974121,4292.179688,4276.794922,4279.743652,4279.102539,4279.102539,4571.538574,4527.179688,4426.666504,4505.0,,,,,,,,,,,,,,,,,,,,,,,,,,,,,,,,,,,,,,,,,,,,,,,,,,,,,,,,,,,,,,,,,,,,,,
1769162289.101124,1769162289.102011,73.0,0.0,4341.666504,4295.769043,4400.128418,4340.128418,4281.794922,4283.846191,4276.538574,4278.333496,4278.333496,4280.512695,4570.256348,4519.230957,4426.794922,4505.769043,,,,,,,,,,,,,,,,,,,,,,,,,,,,,,,,,,,,,,,,,,,,,,,,,,,,,,,,,,,,,,,,,,,,,,
1769162289.108932,1769162289.109719,74.0,0.0,4344.615234,4296.922852,4396.025879,4342.563965,4278.974121,4283.205078,4276.410156,4281.025879,4280.0,4276.666504,4570.0,4522.94873,4428.846191,4506.922852,,,,,,,,,,,,,,,,,,,,,,,,,,,,,,,,,,,,,,,,,,,,,,,,,,,,,,,,,,,,,,,,,,,,,,
1769162289.116741,1769162289.117528,75.0,0.0,4353.846191,4304.358887,4400.769043,4343.846191,4279.743652,4292.179688,4277.820313,4280.641113,4280.897461,4276.282227,4572.820313,4529.871582,4428.974121,4508.077148,,,,,,,,,,,,,,,,,,,,,,,,,,,,,,,,,,,,,,,,,,,,,,,,,,,,,,,,,,,,,,,,,,,,,,
1769162289.124549,1769162289.125136,76.0,0.0,4354.102539,4307.05127,4401.538574,4341.666504,4280.384766,4289.487305,4277.820313,4278.333496,4277.307617,4280.128418,4572.820313,4535.769043,4429.358887,4508.589844,,,,,,,,,,,,,,,,,,,,,,,,,,,,,,,,,,,,,,,,,,,,,,,,,,,,,,,,,,,,,,,,,,,,,,
1769162289.132358,1769162289.132945,77.0,0.0,4342.179688,4302.94873,4393.205078,4340.512695,4277.563965,4286.794922,4277.179688,4286.922852,4277.436035,4276.282227,4571.282227,4537.563965,4432.436035,4508.077148,,,,,,,,,,,,,,,,,,,,,,,,,,,,,,,,,,,,,,,,,,,,,,,,,,,,,,,,,,,,,,,,,,,,,,
1769162289.140166,1769162289.140853,78.0,0.0,4341.153809,4297.05127,4386.538574,4340.897461,4276.025879,4295.769043,4281.025879,4291.410156,4279.487305,4270.641113,4571.538574,4531.025879,4428.846191,4506.794922,0.72061,0.411526,0.308792,0.233774,0.140871,0.999523,0.516825,0.290797,0.190431,0.124322,0.339426,0.294768,0.186045,0.250914,0.14532,0.182867,0.480088,0.263363,0.100283,0.108469,0.510187,0.201329,0.138533,0.073111,0.0656,0.305218,0.080475,0.143515,0.258212,0.195093,0.163463,0.219812,0.209116,0.141101,0.190696,0.065455,0.210926,0.351329,0.263375,0.263073,0.338447,0.181321,0.09513,0.175403,0.222897,0.358628,0.59783,1.199946,0.188886,0.233674,0.21845,0.61619,0.582201,0.124045,0.180386,0.281133,0.300667,0.230071,0.145016,0.134101,0.328707,0.704768,0.953938,0.113099,0.212392,0.246455,0.340005,0.483506,0.164383,0.138944
1769162289.147975,1769162289.148662,79.0,0.0,4349.487305,4299.102539,4390.384766,4344.358887,4277.94873,4290.512695,4282.307617,4283.461426,4278.846191,4277.307617,4572.94873,4529.230957,4426.794922,4507.436035,,,,,,,,,,,,,,,,,,,,,,,,,,,,,,,,,,,,,,,,,,,,,,,,,,,,,,,,,,,,,,,,,,,,,,
1769162289.155783,1769162289.15667,80.0,0.0,4348.717773,4309.871582,4395.512695,4348.974121,4280.256348,4277.94873,4277.563965,4276.922852,4277.307617,4282.563965,4575.128418,4530.512695,4437.94873,4508.846191,,,,,,,,,,,,,,,,,,,,,,,,,,,,,,,,,,,,,,,,,,,,,,,,,,,,,,,,,,,,,,,,,,,,,,
1769162289.163592,1769162289.164478,81.0,0.0,4342.94873,4312.692383,4391.153809,4350.128418,4280.256348,4281.410156,4276.538574,4276.538574,4275.128418,4275.897461,4571.666504,4525.128418,4441.025879,4507.179688,,,,,,,,,,,,,,,,,,,,,,,,,,,,,,,,,,,,,,,,,,,,,,,,,,,,,,,,,,,,,,,,,,,,,,
1769162289.1714,1769162289.172187,82.0,0.0,4345.0,4308.205078,4386.666504,4350.0,4278.589844,4282.94873,4278.846191,4281.410156,4278.589844,4275.384766,4573.077148,4525.0,4435.769043,4505.897461,,,,,,,,,,,,,,,,,,,,,,,,,,,,,,,,,,,,,,,,,,,,,,,,,,,,,,,,,,,,,,,,,,,,,,
1769162289.179208,1769162289.179995,83.0,0.0,4355.769043,4310.0,4388.974121,4349.743652,4278.205078,4278.077148,4278.077148,4287.563965,4281.922852,4284.358887,4580.769043,4534.615234,4441.282227,4508.589844,,,,,,,,,,,,,,,,,,,,,,,,,,,,,,,,,,,,,,,,,,,,,,,,,,,,,,,,,,,,,,,,,,,,,,
1769162289.187017,1769162289.187604,84.0,0.0,4357.563965,4312.820313,4387.692383,4349.487305,4279.358887,4287.820313,4280.897461,4280.641113,4270.512695,4281.666504,4576.666504,4536.282227,4441.538574,4511.538574,,,,,,,,,,,,,,,,,,,,,,,,,,,,,,,,,,,,,,,,,,,,,,,,,,,,,,,,,,,,,,,,,,,,,,
1769162289.194825,1769162289.195412,85.0,0.0,4352.692383,4311.025879,4378.846191,4348.333496,4279.487305,4293.077148,4277.94873,4271.922852,4265.128418,4273.333496,4569.102539,4529.743652,4433.589844,4509.871582,,,,,,,,,,,,,,,,,,,,,,,,,,,,,,,,,,,,,,,,,,,,,,,,,,,,,,,,,,,,,,,,,,,,,,
1769162289.202634,1769162289.203121,86.0,0.0,4352.94873,4310.256348,4373.461426,4347.307617,4278.205078,4278.846191,4268.333496,4281.666504,4277.563965,4276.282227,4571.666504,4530.128418,4433.846191,4506.025879,,,,,,,,,,,,,,,,,,,,,,,,,,,,,,,,,,,,,,,,,,,,,,,,,,,,,,,,,,,,,,,,,,,,,,
1769162289.210442,1769162289.210929,87.0,0.0,4351.538574,4313.333496,4374.358887,4350.769043,4278.205078,4278.205078,4271.153809,4287.94873,4283.205078,4281.922852,4574.871582,4531.282227,4437.307617,4505.512695,,,,,,,,,,,,,,,,,,,,,,,,,,,,,,,,,,,,,,,,,,,,,,,,,,,,,,,,,,,,,,,,,,,,,,
1769162289.218251,1769162289.218938,88.0,0.0,4343.974121,4315.256348,4370.0,4351.794922,4278.333496,4290.256348,4279.102539,4283.333496,4278.205078,4281.666504,4572.94873,4529.615234,4438.846191,4507.692383,,,,,,,,,,,,,,,,,,,,,,,,,,,,,,,,,,,,,,,,,,,,,,,,,,,,,,,,,,,,,,,,,,,,,,
1769162289.226059,1769162289.226746,89.0,0.0,4339.358887,4310.384766,4358.077148,4343.461426,4277.820313,4293.205078,4279.230957,4287.436035,4280.512695,4279.871582,4573.974121,4525.384766,4441.025879,4505.897461,,,,,,,,,,,,,,,,,,,,,,,,,,,,,,,,,,,,,,,,,,,,,,,,,,,,,,,,,,,,,,,,,,,,,,
1769162289.233868,1769162289.234654,90.0,0.0,4342.692383,4306.025879,4355.769043,4343.333496,4277.692383,4294.615234,4282.05127,4297.05127,4283.077148,4278.077148,4572.563965,4521.666504,4432.820313,4503.461426,,,,,,,,,,,,,,,,,,,,,,,,,,,,,,,,,,,,,,,,,,,,,,,,,,,,,,,,,,,,,,,,,,,,,,
1769162289.241676,1769162289.242463,91.0,0.0,4351.922852,4312.820313,4366.666504,4354.230957,4279.871582,4296.794922,4285.897461,4294.487305,4280.128418,4282.563965,4570.0,4530.384766,4425.384766,4506.282227,,,,,,,,,,,,,,,,,,,,,,,,,,,,,,,,,,,,,,,,,,,,,,,,,,,,,,,,,,,,,,,,,,,,,,
1769162289.249484,1769162289.250171,92.0,0.0,4360.641113,4319.743652,4368.974121,4352.692383,4280.256348,4290.0,4281.794922,4281.410156,4278.461426,4282.563965,4572.563965,4538.333496,4433.589844,4509.487305,,,,,,,,,,,,,,,,,,,,,,,,,,,,,,,,,,,,,,,,,,,,,,,,,,,,,,,,,,,,,,,,,,,,,,
1769162289.257293,1769162289.25798,93.0,0.0,4352.563965,4312.05127,4359.358887,4343.846191,4277.307617,4288.205078,4280.256348,4276.153809,4273.974121,4265.641113,4572.179688,4527.94873,4437.05127,4508.333496,,,,,,,,,,,,,,,,,,,,,,,,,,,,,,,,,,,,,,,,,,,,,,,,,,,,,,,,,,,,,,,,,,,,,,
1769162289.265101,1769162289.265688,94.0,0.0,4338.846191,4302.05127,4354.743652,4345.897461,4275.256348,4294.230957,4281.025879,4279.358887,4271.410156,4260.512695,4570.128418,4520.256348,4428.589844,4506.666504,0.736633,0.38239,0.336462,0.262322,0.154313,1.011415,0.462522,0.294727,0.236735,0.135292,0.258605,0.255729,0.194692,0.23924,0.152223,0.201549,0.391826,0.275127,0.102404,0.1237,0.538307,0.201397,0.15658,0.072583,0.067644,0.279438,0.075368,0.14738,0.255579,0.183841,0.159626,0.185455,0.229209,0.144574,0.201348,0.07801,0.221038,0.294344,0.257645,0.25614,0.276802,0.176081,0.087418,0.173841,0.245039,0.367732,0.54712,1.185028,0.19262,0.267512,0.214799,0.602795,0.554617,0.113948,0.177881,0.248893,0.296057,0.2477,0.126637,0.132255,0.340501,0.69424,0.91887,0.13159,0.220193,0.271023,0.368783,0.475238,0.195793,0.141272
1769162289.27291,1769162289.273497,95.0,0.0,4345.128418,4305.769043,4357.820313,4352.94873,4276.025879,4292.307617,4278.717773,4281.025879,4276.153809,4278.461426,4570.897461,4530.384766,4429.871582,4507.692383,,,,,,,,,,,,,,,,,,,,,,,,,,,,,,,,,,,,,,,,,,,,,,,,,,,,,,,,,,,,,,,,,,,,,,
1769162289.280718,1769162289.281106,96.0,0.0,4356.794922,4313.589844,4360.128418,4358.077148,4279.102539,4289.487305,4280.641113,4282.05127,4280.384766,4286.410156,4572.94873,4538.717773,4443.333496,4509.487305,,,,,,,,,,,,,,,,,,,,,,,,,,,,,,,,,,,,,,,,,,,,,,,,,,,,,,,,,,,,,,,,,,,,,,
1769162289.288527,1769162289.288914,97.0,0.0,4353.717773,4314.487305,4359.230957,4356.282227,4281.153809,4295.0,4282.307617,4289.487305,4281.025879,4278.846191,4573.461426,4537.692383,4445.256348,4508.589844,,,,,,,,,,,,,,,,,,,,,,,,,,,,,,,,,,,,,,,,,,,,,,,,,,,,,,,,,,,,,,,,,,,,,,
1769162289.296335,1769162289.296623,98.0,0.0,4343.077148,4308.717773,4355.897461,4346.025879,4278.717773,4291.666504,4278.974121,4296.282227,4282.436035,4278.846191,4572.179688,4538.461426,4431.538574,4504.871582,,,,,,,,,,,,,,,,,,,,,,,,,,,,,,,,,,,,,,,,,,,,,,,,,,,,,,,,,,,,,,,,,,,,,,
1769162289.304144,1769162289.304431,99.0,0.0,4338.589844,4301.794922,4354.743652,4342.563965,4275.641113,4281.282227,4281.538574,4293.974121,4281.153809,4283.461426,4571.538574,4538.461426,4426.666504,4506.282227,,,,,,,,,,,,,,,,,,,,,,,,,,,,,,,,,,,,,,,,,,,,,,,,,,,,,,,,,,,,,,,,,,,,,,
1769162289.311952,1769162289.31204,100.0,0.0,4341.410156,4305.128418,4360.384766,4349.871582,4277.563965,4288.077148,4286.410156,4292.436035,4277.179688,4280.256348,4570.256348,4534.230957,4430.641113,4506.666504,,,,,,,,,,,,,,,,,,,,,,,,,,,,,,,,,,,,,,,,,,,,,,,,,,,,,,,,,,,,,,,,,,,,,,
1769162289.31976,1769162289.319848,101.0,0.0,4342.692383,4310.641113,4357.94873,4351.922852,4279.743652,4299.230957,4284.102539,4290.512695,4276.410156,4274.487305,4566.666504,4525.512695,4428.846191,4496.922852,,,,,,,,,,,,,,,,,,,,,,,,,,,,,,,,,,,,,,,,,,,,,,,,,,,,,,,,,,,,,,,,,,,,,,
1769162289.327569,1769162289.327557,102.0,0.0,4338.846191,4307.563965,4346.922852,4347.94873,4278.461426,4295.512695,4280.384766,4283.077148,4277.179688,4274.615234,4566.282227,4519.871582,4426.922852,4492.436035,,,,,,,,,,,,,,,,,,,,,,,,,,,,,,,,,,,,,,,,,,,,,,,,,,,,,,,,,,,,,,,,,,,,,,
1769162289.335377,1769162289.335365,103.0,0.0,4338.461426,4306.410156,4346.538574,4348.589844,4278.461426,4293.461426,4281.282227,4285.769043,4282.307617,4279.358887,4572.05127,4527.94873,4428.974121,4504.871582,,,,,,,,,,,,,,,,,,,,,,,,,,,,,,,,,,,,,,,,,,,,,,,,,,,,,,,,,,,,,,,,,,,,,,
1769162289.343186,1769162289.343373,104.0,0.0,4340.897461,4309.615234,4353.333496,4351.794922,4279.358887,4294.102539,4281.922852,4293.077148,4286.410156,4280.128418,4572.94873,4533.717773,4429.358887,4513.717773,,,,,,,,,,,,,,,,,,,,,,,,,,,,,,,,,,,,,,,,,,,,,,,,,,,,,,,,,,,,,,,,,,,,,,
1769162289.350994,1769162289.351182,105.0,0.0,4340.256348,4308.333496,4353.846191,4350.0,4278.205078,4284.743652,4280.128418,4287.436035,4284.487305,4279.487305,4568.461426,4525.769043,4427.820313,4505.769043,,,,,,,,,,,,,,,,,,,,,,,,,,,,,,,,,,,,,,,,,,,,,,,,,,,,,,,,,,,,,,,,,,,,,,
1769162289.358803,1769162289.35909,106.0,0.0,4338.205078,4308.205078,4350.0,4346.025879,4279.358887,4283.974121,4278.846191,4284.615234,4283.333496,4281.282227,4568.846191,4522.436035,4428.205078,4500.897461,,,,,,,,,,,,,,,,,,,,,,,,,,,,,,,,,,,,,,,,,,,,,,,,,,,,,,,,,,,,,,,,,,,,,,
1769162289.366611,1769162289.366899,107.0,0.0,4333.846191,4309.871582,4344.743652,4344.102539,4282.436035,4294.871582,4278.205078,4294.871582,4285.256348,4281.922852,4571.666504,4526.410156,4429.102539,4507.05127,,,,,,,,,,,,,,,,,,,,,,,,,,,,,,,,,,,,,,,,,,,,,,,,,,,,,,,,,,,,,,,,,,,,,,
1769162289.37442,1769162289.374907,108.0,0.0,4333.205078,4307.820313,4340.769043,4347.179688,4281.666504,4294.102539,4278.717773,4291.025879,4279.230957,4280.897461,4571.153809,4525.769043,4430.769043,4507.307617,,,,,,,,,,,,,,,,,,,,,,,,,,,,,,,,,,,,,,,,,,,,,,,,,,,,,,,,,,,,,,,,,,,,,,
1769162289.382228,1769162289.382715,109.0,0.0,4338.717773,4305.0,4342.05127,4350.256348,4281.410156,4292.179688,4281.666504,4280.641113,4273.461426,4275.769043,4567.820313,4523.077148,4426.282227,4495.128418,,,,,,,,,,,,,,,,,,,,,,,,,,,,,,,,,,,,,,,,,,,,,,,,,,,,,,,,,,,,,,,,,,,,,,
1769162289.390036,1769162289.390424,110.0,0.0,4336.153809,4299.358887,4341.794922,4345.256348,4282.820313,4297.563965,4282.179688,4288.974121,4280.384766,4274.358887,4561.153809,4522.307617,4411.794922,4485.769043,0.709229,0.368309,0.342706,0.287329,0.175192,0.945678,0.401056,0.270834,0.293299,0.140346,0.225227,0.20591,0.190512,0.225997,0.152001,0.217111,0.304245,0.257035,0.115525,0.130624,0.503849,0.187806,0.163763,0.070399,0.066695,0.263463,0.092997,0.163087,0.252713,0.17033,0.154024,0.165208,0.24472,0.145661,0.196208,0.086513,0.236778,0.227412,0.238203,0.247158,0.224231,0.185038,0.088903,0.171624,0.268756,0.390683,0.49369,1.067615,0.202087,0.317647,0.207158,0.557299,0.475016,0.112852,0.169035,0.214868,0.309105,0.253526,0.113624,0.129648,0.353904,0.666824,0.80722,0.156444,0.232674,0.299628,0.412612,0.442868,0.226481,0.145467
1769162289.397845,1769162289.398232,111.0,0.0,4325.384766,4295.512695,4337.179688,4338.846191,4278.333496,4293.974121,4280.769043,4296.922852,4287.307617,4284.230957,4561.410156,4525.769043,4412.436035,4493.589844,,,,,,,,,,,,,,,,,,,,,,,,,,,,,,,,,,,,,,,,,,,,,,,,,,,,,,,,,,,,,,,,,,,,,,
1769162289.405653,1769162289.406241,112.0,0.0,4327.179688,4304.615234,4339.615234,4342.563965,4273.589844,4288.461426,4280.769043,4293.974121,4288.717773,4294.358887,4580.256348,4537.307617,4436.153809,4508.077148,,,,,,,,,,,,,,,,,,,,,,,,,,,,,,,,,,,,,,,,,,,,,,,,,,,,,,,,,,,,,,,,,,,,,,
1769162289.413462,1769162289.414049,113.0,0.0,4338.461426,4313.589844,4347.563965,4352.563965,4278.077148,4295.128418,4281.025879,4292.307617,4287.179688,4294.358887,4588.461426,4544.871582,4445.384766,4512.820313,,,,,,,,,,,,,,,,,,,,,,,,,,,,,,,,,,,,,,,,,,,,,,,,,,,,,,,,,,,,,,,,,,,,,,
1769162289.42127,1769162289.421957,114.0,0.0,4342.563965,4312.179688,4349.358887,4357.05127,4283.846191,4297.307617,4278.974121,4292.307617,4284.230957,4287.436035,4575.384766,4540.769043,4431.153809,4507.436035,,,,,,,,,,,,,,,,,,,,,,,,,,,,,,,,,,,,,,,,,,,,,,,,,,,,,,,,,,,,,,,,,,,,,,
1769162289.429079,1769162289.429766,115.0,0.0,4340.769043,4312.436035,4344.102539,4351.538574,4282.179688,4291.922852,4279.230957,4288.717773,4281.153809,4278.974121,4573.461426,4536.025879,4425.512695,4505.897461,,,,,,,,,,,,,,,,,,,,,,,,,,,,,,,,,,,,,,,,,,,,,,,,,,,,,,,,,,,,,,,,,,,,,,
1769162289.436887,1769162289.437774,116.0,0.0,4338.077148,4314.615234,4340.641113,4345.128418,4279.487305,4293.461426,4281.666504,4286.794922,4279.102539,4277.94873,4581.666504,4533.077148,4432.307617,4510.897461,,,,,,,,,,,,,,,,,,,,,,,,,,,,,,,,,,,,,,,,,,,,,,,,,,,,,,,,,,,,,,,,,,,,,,
1769162289.444696,1769162289.445582,117.0,0.0,4332.820313,4311.025879,4342.307617,4345.256348,4278.589844,4296.153809,4281.538574,4291.410156,4282.05127,4281.538574,4575.512695,4527.436035,4431.794922,4506.538574,,,,,,,,,,,,,,,,,,,,,,,,,,,,,,,,,,,,,,,,,,,,,,,,,,,,,,,,,,,,,,,,,,,,,,
1769162289.452504,1769162289.453291,118.0,0.0,4329.230957,4310.641113,4343.846191,4350.256348,4281.153809,4294.743652,4279.487305,4292.179688,4282.94873,4281.282227,4566.282227,4524.358887,4425.897461,4493.846191,,,,,,,,,,,,,,,,,,,,,,,,,,,,,,,,,,,,,,,,,,,,,,,,,,,,,,,,,,,,,,,,,,,,,,
1769162289.460312,1769162289.461099,119.0,0.0,4329.487305,4315.256348,4343.333496,4353.589844,4285.769043,4296.922852,4280.384766,4288.461426,4281.922852,4283.974121,4571.282227,4524.743652,4425.512695,4488.589844,,,,,,,,,,,,,,,,,,,,,,,,,,,,,,,,,,,,,,,,,,,,,,,,,,,,,,,,,,,,,,,,,,,,,,
1769162289.468121,1769162289.469108,120.0,0.0,4329.358887,4315.384766,4343.205078,4350.384766,4285.128418,4299.487305,4281.922852,4289.743652,4286.666504,4287.94873,4575.897461,4524.743652,4429.102539,4493.589844,,,,,,,,,,,,,,,,,,,,,,,,,,,,,,,,,,,,,,,,,,,,,,,,,,,,,,,,,,,,,,,,,,,,,,
1769162289.475929,1769162289.476916,121.0,0.0,4326.922852,4309.871582,4341.922852,4344.743652,4279.487305,4294.871582,4281.025879,4294.102539,4291.922852,4283.717773,4574.743652,4526.025879,4426.153809,4494.871582,,,,,,,,,,,,,,,,,,,,,,,,,,,,,,,,,,,,,,,,,,,,,,,,,,,,,,,,,,,,,,,,,,,,,,
1769162289.483738,1769162289.484625,122.0,0.0,4326.666504,4306.282227,4339.615234,4342.94873,4276.538574,4290.0,4279.743652,4288.717773,4285.256348,4275.769043,4563.461426,4521.025879,4413.846191,4486.282227,,,,,,,,,,,,,,,,,,,,,,,,,,,,,,,,,,,,,,,,,,,,,,,,,,,,,,,,,,,,,,,,,,,,,,
1769162289.491546,1769162289.492433,123.0,0.0,4328.333496,4309.230957,4340.769043,4344.615234,4277.692383,4292.436035,4280.384766,4278.974121,4276.410156,4278.077148,4555.128418,4509.487305,4409.615234,4482.179688,,,,,,,,,,,,,,,,,,,,,,,,,,,,,,,,,,,,,,,,,,,,,,,,,,,,,,,,,,,,,,,,,,,,,,
1769162289.499355,1769162289.500042,124.0,0.0,4323.205078,4309.871582,4339.230957,4342.94873,4277.692383,4292.94873,4282.179688,4278.333496,4277.05127,4283.846191,4560.897461,4506.410156,4415.897461,4486.410156,,,,,,,,,,,,,,,,,,,,,,,,,,,,,,,,,,,,,,,,,,,,,,,,,,,,,,,,,,,,,,,,,,,,,,
1769162289.507163,1769162289.50785,125.0,0.0,4321.538574,4303.205078,4336.410156,4340.641113,4276.922852,4289.230957,4280.512695,4282.436035,4279.102539,4271.153809,4562.820313,4515.769043,4414.871582,4491.410156,,,,,,,,,,,,,,,,,,,,,,,,,,,,,,,,,,,,,,,,,,,,,,,,,,,,,,,,,,,,,,,,,,,,,,
1769162289.514972,1769162289.515559,126.0,0.0,4329.487305,4305.384766,4342.820313,4343.846191,4277.436035,4291.410156,4277.820313,4280.512695,4276.282227,4261.153809,4560.0,4522.307617,4411.794922,4489.230957,0.641351,0.362166,0.33071,0.309445,0.198289,0.843298,0.345852,0.225773,0.35119,0.138978,0.21245,0.157749,0.172269,0.220379,0.14527,0.223028,0.237938,0.217971,0.137139,0.127656,0.429985,0.163611,0.155919,0.06462,0.062045,0.25268,0.124375,0.190262,0.244515,0.158509,0.149218,0.169988,0.249212,0.142872,0.17792,0.089452,0.261568,0.171089,0.213125,0.237867,0.181365,0.204946,0.096524,0.17018,0.28897,0.416845,0.43134,0.88721,0.216917,0.370432,0.202056,0.484769,0.370542,0.119487,0.155688,0.207153,0.325946,0.246584,0.113444,0.130963,0.361639,0.626544,0.657359,0.180079,0.245014,0.324084,0.456983,0.404837,0.247976,0.148188
1769162289.52278,1769162289.523367,127.0,0.0,4332.820313,4311.538574,4348.589844,4347.436035,4277.179688,4295.256348,4279.102539,4278.589844,4275.641113,4273.589844,4560.897461,4521.538574,4415.0,4479.487305,,,,,,,,,,,,,,,,,,,,,,,,,,,,,,,,,,,,,,,,,,,,,,,,,,,,,,,,,,,,,,,,,,,,,,
1769162289.530589,1769162289.531375,0.0,0.0,4326.282227,4302.820313,4343.974121,4345.256348,4277.692383,4295.256348,4281.153809,4282.436035,4277.692383,4283.461426,4562.692383,4521.666504,4415.641113,4475.128418,,,,,,,,,,,,,,,,,,,,,,,,,,,,,,,,,,,,,,,,,,,,,,,,,,,,,,,,,,,,,,,,,,,,,,
1769162289.538397,1769162289.539184,1.0,0.0,4321.282227,4291.922852,4338.974121,4340.0,4277.820313,4288.974121,4280.0,4282.820313,4276.538574,4274.743652,4558.589844,4523.333496,4410.384766,4483.333496,,,,,,,,,,,,,,,,,,,,,,,,,,,,,,,,,,,,,,,,,,,,,,,,,,,,,,,,,,,,,,,,,,,,,,
1769162289.546206,1769162289.547092,2.0,0.0,4325.897461,4298.589844,4346.538574,4345.128418,4276.666504,4282.563965,4279.487305,4279.102539,4276.025879,4272.692383,4562.179688,4524.743652,4411.153809,4493.974121,,,,,,,,,,,,,,,,,,,,,,,,,,,,,,,,,,,,,,,,,,,,,,,,,,,,,,,,,,,,,,,,,,,,,,
1769162289.554014,1769162289.554901,3.0,0.0,4330.256348,4304.230957,4353.974121,4350.512695,4278.461426,4286.922852,4281.666504,4280.384766,4280.256348,4282.05127,4571.794922,4526.666504,4415.897461,4492.179688,,,,,,,,,,,,,,,,,,,,,,,,,,,,,,,,,,,,,,,,,,,,,,,,,,,,,,,,,,,,,,,,,,,,,,
1769162289.561823,1769162289.562909,4.0,0.0,4327.307617,4297.179688,4349.358887,4345.128418,4280.897461,4293.717773,4282.179688,4282.820313,4279.487305,4277.94873,4567.179688,4526.153809,4411.153809,4487.563965,,,,,,,,,,,,,,,,,,,,,,,,,,,,,,,,,,,,,,,,,,,,,,,,,,,,,,,,,,,,,,,,,,,,,,
1769162289.569631,1769162289.570717,5.0,0.0,4323.461426,4293.333496,4346.153809,4341.410156,4279.102539,4290.769043,4281.794922,4278.846191,4275.769043,4265.256348,4561.282227,4521.922852,4406.538574,4488.333496,,,,,,,,,,,,,,,,,,,,,,,,,,,,,,,,,,,,,,,,,,,,,,,,,,,,,,,,,,,,,,,,,,,,,,
1769162289.577439,1769162289.578626,6.0,0.0,4319.871582,4294.615234,4351.538574,4343.205078,4276.282227,4289.230957,4283.589844,4278.974121,4278.077148,4261.410156,4563.974121,4521.538574,4411.025879,4485.384766,,,,,,,,,,,,,,,,,,,,,,,,,,,,,,,,,,,,,,,,,,,,,,,,,,,,,,,,,,,,,,,,,,,,,,
1769162289.585248,1769162289.586434,7.0,0.0,4313.974121,4295.128418,4352.820313,4342.307617,4277.563965,4290.512695,4283.974121,4283.077148,4275.256348,4265.256348,4563.589844,4523.846191,4411.666504,4477.179688,,,,,,,,,,,,,,,,,,,,,,,,,,,,,,,,,,,,,,,,,,,,,,,,,,,,,,,,,,,,,,,,,,,,,,
1769162289.593056,1769162289.594043,8.0,0.0,4310.512695,4296.025879,4346.282227,4342.05127,4278.974121,4285.0,4278.974121,4280.128418,4265.384766,4262.94873,4552.692383,4519.871582,4403.205078,4472.05127,,,,,,,,,,,,,,,,,,,,,,,,,,,,,,,,,,,,,,,,,,,,,,,,,,,,,,,,,,,,,,,,,,,,,,
1769162289.600865,1769162289.601851,9.0,0.0,4309.615234,4291.410156,4343.717773,4341.282227,4277.94873,4282.563965,4278.717773,4276.153809,4265.769043,4258.205078,4549.615234,4516.410156,4398.205078,4475.769043,,,,,,,,,,,,,,,,,,,,,,,,,,,,,,,,,,,,,,,,,,,,,,,,,,,,,,,,,,,,,,,,,,,,,,
1769162289.608673,1769162289.60976,10.0,0.0,4305.256348,4279.358887,4344.743652,4334.743652,4276.794922,4291.282227,4289.743652,4279.615234,4275.256348,4262.820313,4554.743652,4519.615234,4400.128418,4479.487305,,,,,,,,,,,,,,,,,,,,,,,,,,,,,,,,,,,,,,,,,,,,,,,,,,,,,,,,,,,,,,,,,,,,,,
1769162289.616482,1769162289.617568,11.0,0.0,4304.230957,4276.922852,4343.846191,4331.666504,4276.666504,4295.0,4293.846191,4283.333496,4278.461426,4267.692383,4555.512695,4523.333496,4405.512695,4475.641113,,,,,,,,,,,,,,,,,,,,,,,,,,,,,,,,,,,,,,,,,,,,,,,,,,,,,,,,,,,,,,,,,,,,,,
1769162289.62429,1769162289.625576,12.0,0.0,4309.358887,4288.077148,4343.717773,4335.128418,4277.436035,4286.410156,4288.205078,4281.153809,4279.358887,4268.205078,4557.436035,4520.0,4414.487305,4473.846191,,,,,,,,,,,,,,,,,,,,,,,,,,,,,,,,,,,,,,,,,,,,,,,,,,,,,,,,,,,,,,,,,,,,,,
1769162289.632099,1769162289.633385,13.0,0.0,4310.512695,4292.05127,4345.641113,4336.794922,4278.846191,4279.743652,4286.410156,4278.589844,4277.436035,4264.487305,4555.512695,4511.153809,4412.436035,4475.256348,,,,,,,,,,,,,,,,,,,,,,,,,,,,,,,,,,,,,,,,,,,,,,,,,,,,,,,,,,,,,,,,,,,,,,
1769162289.639907,1769162289.641093,14.0,0.0,4309.743652,4288.077148,4350.128418,4336.538574,4279.487305,4287.436035,4284.871582,4278.077148,4271.025879,4263.846191,4555.641113,4511.794922,4403.589844,4476.153809,0.545414,0.361587,0.313574,0.330264,0.21767,0.74005,0.312579,0.175123,0.39757,0.133363,0.252166,0.127681,0.146387,0.225514,0.135763,0.220866,0.20452,0.173868,0.159902,0.117786,0.32846,0.13686,0.133632,0.055934,0.054339,0.253711,0.158749,0.225256,0.233721,0.152817,0.14513,0.197873,0.238972,0.134983,0.152223,0.085439,0.294105,0.147486,0.192951,0.230049,0.143993,0.227293,0.112697,0.172382,0.299723,0.430558,0.362887,0.697002,0.235421,0.409583,0.205446,0.399573,0.272286,0.129942,0.140835,0.233851,0.334737,0.234142,0.131246,0.139561,0.357465,0.577359,0.514294,0.198396,0.252399,0.336292,0.479843,0.3779,0.253729,0.14663
1769162289.647715,1769162289.648902,15.0,0.0,4311.410156,4289.358887,4354.230957,4339.487305,4280.128418,4296.025879,4283.974121,4279.743652,4272.179688,4269.358887,4561.410156,4522.94873,4406.794922,4480.0,,,,,,,,,,,,,,,,,,,,,,,,,,,,,,,,,,,,,,,,,,,,,,,,,,,,,,,,,,,,,,,,,,,,,,
1769162289.655524,1769162289.65651,16.0,0.0,4308.077148,4292.436035,4354.615234,4339.743652,4279.743652,4292.563965,4289.743652,4282.307617,4279.615234,4273.461426,4559.871582,4523.717773,4413.461426,4482.563965,,,,,,,,,,,,,,,,,,,,,,,,,,,,,,,,,,,,,,,,,,,,,,,,,,,,,,,,,,,,,,,,,,,,,,
1769162289.663332,1769162289.664319,17.0,0.0,4308.846191,4292.692383,4354.743652,4334.871582,4276.666504,4289.230957,4295.384766,4281.922852,4280.769043,4276.794922,4560.256348,4517.820313,4412.94873,4478.717773,,,,,,,,,,,,,,,,,,,,,,,,,,,,,,,,,,,,,,,,,,,,,,,,,,,,,,,,,,,,,,,,,,,,,,
1769162289.671141,1769162289.672227,18.0,0.0,4312.307617,4293.846191,4355.769043,4336.922852,4275.0,4290.769043,4293.205078,4281.922852,4279.743652,4272.563965,4570.128418,4523.589844,4412.436035,4477.692383,,,,,,,,,,,,,,,,,,,,,,,,,,,,,,,,,,,,,,,,,,,,,,,,,,,,,,,,,,,,,,,,,,,,,,
1769162289.678949,1769162289.680036,19.0,0.0,4303.205078,4294.487305,4356.922852,4342.692383,4277.94873,4288.205078,4288.077148,4282.94873,4281.025879,4262.692383,4568.717773,4526.153809,4413.077148,4476.538574,,,,,,,,,,,,,,,,,,,,,,,,,,,,,,,,,,,,,,,,,,,,,,,,,,,,,,,,,,,,,,,,,,,,,,
1769162289.686758,1769162289.687644,20.0,0.0,4295.641113,4293.589844,4360.769043,4340.641113,4280.128418,4288.333496,4287.179688,4281.282227,4279.230957,4265.128418,4557.307617,4520.384766,4411.410156,4473.077148,,,,,,,,,,,,,,,,,,,,,,,,,,,,,,,,,,,,,,,,,,,,,,,,,,,,,,,,,,,,,,,,,,,,,,
1769162289.694566,1769162289.695453,21.0,0.0,4305.0,4293.205078,4363.846191,4336.922852,4279.358887,4295.0,4290.641113,4279.102539,4277.692383,4272.563965,4561.666504,4520.769043,4408.974121,4481.025879,,,,,,,,,,,,,,,,,,,,,,,,,,,,,,,,,,,,,,,,,,,,,,,,,,,,,,,,,,,,,,,,,,,,,,
1769162289.702375,1769162289.703161,22.0,0.0,4313.846191,4294.487305,4366.282227,4340.769043,4280.384766,4298.333496,4291.410156,4280.0,4280.0,4271.153809,4572.436035,4525.384766,4416.025879,4493.974121,,,,,,,,,,,,,,,,,,,,,,,,,,,,,,,,,,,,,,,,,,,,,,,,,,,,,,,,,,,,,,,,,,,,,,
1769162289.710183,1769162289.71097,23.0,0.0,4308.333496,4294.358887,4368.461426,4340.256348,4281.538574,4291.025879,4288.717773,4282.563965,4278.589844,4273.846191,4570.641113,4526.538574,4424.102539,4493.205078,,,,,,,,,,,,,,,,,,,,,,,,,,,,,,,,,,,,,,,,,,,,,,,,,,,,,,,,,,,,,,,,,,,,,,
1769162289.717991,1769162289.718578,24.0,0.0,4303.333496,4292.563965,4367.94873,4335.641113,4277.820313,4284.871582,4290.256348,4282.436035,4277.436035,4278.589844,4566.282227,4525.128418,4418.333496,4488.461426,,,,,,,,,,,,,,,,,,,,,,,,,,,,,,,,,,,,,,,,,,,,,,,,,,,,,,,,,,,,,,,,,,,,,,
1769162289.7258,1769162289.726387,25.0,0.0,4304.358887,4296.922852,4368.333496,4338.846191,4277.820313,4290.0,4292.179688,4286.153809,4279.743652,4273.461426,4569.487305,4526.538574,4414.743652,4491.025879,,,,,,,,,,,,,,,,,,,,,,,,,,,,,,,,,,,,,,,,,,,,,,,,,,,,,,,,,,,,,,,,,,,,,,
1769162289.733608,1769162289.734095,26.0,0.0,4305.0,4302.307617,4373.717773,4342.94873,4286.282227,4296.666504,4291.153809,4291.153809,4281.922852,4277.436035,4579.871582,4533.333496,4427.307617,4495.512695,,,,,,,,,,,,,,,,,,,,,,,,,,,,,,,,,,,,,,,,,,,,,,,,,,,,,,,,,,,,,,,,,,,,,,
1769162289.741417,1769162289.741904,27.0,0.0,4307.563965,4299.487305,4380.641113,4342.307617,4288.846191,4295.384766,4290.256348,4285.769043,4281.282227,4281.282227,4585.641113,4539.358887,4434.871582,4497.94873,,,,,,,,,,,,,,,,,,,,,,,,,,,,,,,,,,,,,,,,,,,,,,,,,,,,,,,,,,,,,,,,,,,,,,
1769162289.749225,1769162289.749912,28.0,0.0,4310.897461,4293.461426,4381.025879,4339.230957,4280.0,4291.153809,4292.05127,4279.230957,4280.512695,4267.179688,4577.436035,4535.897461,4424.487305,4494.615234,,,,,,,,,,,,,,,,,,,,,,,,,,,,,,,,,,,,,,,,,,,,,,,,,,,,,,,,,,,,,,,,,,,,,,
1769162289.757034,1769162289.757721,29.0,0.0,4311.538574,4298.333496,4380.384766,4337.307617,4276.410156,4291.410156,4292.05127,4286.922852,4281.538574,4261.282227,4568.717773,4525.512695,4419.871582,4488.589844,,,,,,,,,,,,,,,,,,,,,,,,,,,,,,,,,,,,,,,,,,,,,,,,,,,,,,,,,,,,,,,,,,,,,,
1769162289.764842,1769162289.765629,30.0,0.0,4310.256348,4302.436035,4383.461426,4339.743652,4283.077148,4289.230957,4289.487305,4293.717773,4280.0,4265.897461,4568.974121,4520.897461,4418.846191,4488.589844,0.444448,0.363278,0.302032,0.348823,0.22888,0.665373,0.305918,0.134252,0.420025,0.127496,0.294845,0.125455,0.119674,0.236226,0.128129,0.20943,0.201033,0.137395,0.176537,0.106997,0.231469,0.112654,0.102615,0.046607,0.04528,0.259069,0.187496,0.261387,0.226975,0.15539,0.139784,0.234279,0.216163,0.122686,0.125304,0.07625,0.327775,0.164781,0.184631,0.224498,0.11267,0.241459,0.141109,0.179548,0.2964,0.418737,0.300296,0.545514,0.256626,0.422743,0.223071,0.319431,0.201771,0.140292,0.128601,0.297893,0.333477,0.223384,0.168237,0.15472,0.344131,0.522138,0.408748,0.212754,0.253334,0.33453,0.466652,0.373095,0.241812,0.141777
1769162289.772651,1769162289.773437,31.0,0.0,4308.333496,4298.589844,4387.05127,4343.205078,4286.025879,4279.871582,4283.461426,4287.307617,4278.589844,4267.307617,4569.615234,4529.871582,4411.666504,4493.461426,,,,,,,,,,,,,,,,,,,,,,,,,,,,,,,,,,,,,,,,,,,,,,,,,,,,,,,,,,,,,,,,,,,,,,
