Timestamp,OriginalTimestamp,EEG.Counter,EEG.Interpolated,EEG.AF3,EEG.F7,EEG.F3,EEG.FC5,EEG.T7,EEG.P7,EEG.O1,EEG.O2,EEG.P8,EEG.T8,EEG.FC6,EEG.F4,EEG.F8,EEG.AF4,POW.AF3.Theta,POW.AF3.Alpha,POW.AF3.BetaL,POW.AF3.BetaH,POW.AF3.Gamma,POW.F7.Theta,POW.F7.Alpha,POW.F7.BetaL,POW.F7.BetaH,POW.F7.Gamma,POW.F3.Theta,POW.F3.Alpha,POW.F3.BetaL,POW.F3.BetaH,POW.F3.Gamma,POW.FC5.Theta,POW.FC5.Alpha,POW.FC5.BetaL,POW.FC5.BetaH,POW.FC5.Gamma,POW.T7.Theta,POW.T7.Alpha,POW.T7.BetaL,POW.T7.BetaH,POW.T7.Gamma,POW.P7.Theta,POW.P7.Alpha,POW.P7.BetaL,POW.P7.BetaH,POW.P7.Gamma,POW.O1.Theta,POW.O1.Alpha,POW.O1.BetaL,POW.O1.BetaH,POW.O1.Gamma,POW.O2.Theta,POW.O2.Alpha,POW.O2.BetaL,POW.O2.BetaH,POW.O2.Gamma,POW.P8.Theta,POW.P8.Alpha,POW.P8.BetaL,POW.P8.BetaH,POW.P8.Gamma,POW.T8.Theta,POW.T8.Alpha,POW.T8.BetaL,POW.T8.BetaH,POW.T8.Gamma,POW.FC6.Theta,POW.FC6.Alpha,POW.FC6.BetaL,POW.FC6.BetaH,POW.FC6.Gamma,POW.F4.Theta,POW.F4.Alpha,POW.F4.BetaL,POW.F4.BetaH,POW.F4.Gamma,POW.F8.Theta,POW.F8.Alpha,POW.F8.BetaL,POW.F8.BetaH,POW.F8.Gamma,POW.AF4.Theta,POW.AF4.Alpha,POW.AF4.BetaL,POW.AF4.BetaH,POW.AF4.Gamma
1769161503.352337,1769161503.353113,53.0,0.0,4255.0,4278.589844,4339.487305,4325.641113,4280.897461,4282.05127,4274.358887,4296.025879,4262.436035,4266.922852,4557.692383,4526.538574,4410.897461,4491.410156,,,,,,,,,,,,,,,,,,,,,,,,,,,,,,,,,,,,,,,,,,,,,,,,,,,,,,,,,,,,,,,,,,,,,,
1769161503.360145,1769161503.360821,54.0,0.0,4245.897461,4277.05127,4335.512695,4323.461426,4280.641113,4287.05127,4280.0,4294.615234,4263.077148,4263.846191,4558.846191,4526.794922,4409.743652,4492.05127,,,,,,,,,,,,,,,,,,,,,,,,,,,,,,,,,,,,,,,,,,,,,,,,,,,,,,,,,,,,,,,,,,,,,,
1769161503.367953,1769161503.36863,55.0,0.0,4257.05127,4277.436035,4332.692383,4324.230957,4280.769043,4283.205078,4277.436035,4295.0,4263.333496,4261.922852,4557.692383,4537.05127,4413.077148,4496.025879,,,,,,,,,,,,,,,,,,,,,,,,,,,,,,,,,,,,,,,,,,,,,,,,,,,,,,,,,,,,,,,,,,,,,,
1769161503.375762,1769161503.376638,56.0,0.0,4265.897461,4276.666504,4338.589844,4324.487305,4279.871582,4276.666504,4268.077148,4296.025879,4262.307617,4267.692383,4558.589844,4537.94873,4408.589844,4495.641113,,,,,,,,,,,,,,,,,,,,,,,,,,,,,,,,,,,,,,,,,,,,,,,,,,,,,,,,,,,,,,,,,,,,,,
1769161503.38357,1769161503.384446,57.0,0.0,4261.410156,4277.820313,4343.717773,4325.128418,4280.128418,4282.05127,4265.512695,4291.666504,4261.153809,4271.794922,4559.102539,4534.358887,4403.974121,4495.384766,,,,,,,,,,,,,,,,,,,,,,,,,,,,,,,,,,,,,,,,,,,,,,,,,,,,,,,,,,,,,,,,,,,,,,
1769161503.391379,1769161503.392355,58.0,0.0,4262.436035,4280.384766,4341.794922,4327.692383,4280.897461,4281.153809,4265.641113,4287.436035,4261.538574,4271.025879,4556.922852,4533.974121,4408.461426,4494.487305,,,,,,,,,,,,,,,,,,,,,,,,,,,,,,,,,,,,,,,,,,,,,,,,,,,,,,,,,,,,,,,,,,,,,,
1769161503.399187,1769161503.400163,59.0,0.0,4262.692383,4281.282227,4340.641113,4327.94873,4282.563965,4276.538574,4265.641113,4291.410156,4263.717773,4275.128418,4556.794922,4529.358887,4412.820313,4490.128418,,,,,,,,,,,,,,,,,,,,,,,,,,,,,,,,,,,,,,,,,,,,,,,,,,,,,,,,,,,,,,,,,,,,,,
1769161503.406996,1769161503.408171,60.0,0.0,4250.384766,4280.384766,4337.436035,4326.666504,4283.589844,4286.282227,4271.538574,4296.922852,4263.974121,4278.589844,4558.205078,4524.615234,4411.410156,4488.077148,,,,,,,,,,,,,,,,,,,,,,,,,,,,,,,,,,,,,,,,,,,,,,,,,,,,,,,,,,,,,,,,,,,,,,
1769161503.414804,1769161503.41598,61.0,0.0,4246.666504,4279.102539,4329.615234,4324.615234,4280.0,4291.538574,4277.307617,4296.025879,4262.307617,4269.871582,4557.692383,4524.615234,4405.769043,4488.333496,,,,,,,,,,,,,,,,,,,,,,,,,,,,,,,,,,,,,,,,,,,,,,,,,,,,,,,,,,,,,,,,,,,,,,
1769161503.422613,1769161503.423688,62.0,0.0,4258.974121,4277.692383,4330.128418,4320.384766,4276.153809,4281.922852,4272.563965,4291.282227,4262.05127,4260.897461,4554.871582,4522.94873,4399.102539,4488.717773,0.716815,0.34297,0.080054,0.212753,0.195366,0.66929,0.285132,0.168036,0.0753,0.160208,0.663848,0.337096,0.144881,0.092787,0.139179,0.28309,0.276432,0.21039,0.041197,0.120139,0.137704,0.135968,0.127239,0.164457,0.078794,0.112039,0.212128,0.234594,0.302816,0.180351,0.305562,0.291237,0.136768,0.200828,0.104193,0.397185,0.41023,0.254583,0.16512,0.160998,0.362126,0.399694,0.165333,0.126698,0.153735,0.240526,0.442805,0.211136,0.177161,0.238211,0.943075,0.326418,0.2607,0.150639,0.222852,0.43602,0.248329,0.17078,0.120657,0.258893,0.528277,0.231352,0.125298,0.163811,0.264475,1.213939,0.293058,0.189291,0.115428,0.321296
1769161503.430421,1769161503.431497,63.0,0.0,4264.230957,4276.666504,4337.436035,4321.153809,4276.153809,4278.205078,4271.922852,4289.358887,4261.282227,4261.153809,4551.922852,4523.846191,4394.358887,4488.333496,,,,,,,,,,,,,,,,,,,,,,,,,,,,,,,,,,,,,,,,,,,,,,,,,,,,,,,,,,,,,,,,,,,,,,
1769161503.438229,1769161503.439105,64.0,0.0,4260.128418,4276.922852,4338.589844,4323.974121,4273.974121,4283.333496,4278.077148,4291.153809,4259.615234,4263.461426,4551.538574,4523.333496,4395.512695,4487.05127,,,,,,,,,,,,,,,,,,,,,,,,,,,,,,,,,,,,,,,,,,,,,,,,,,,,,,,,,,,,,,,,,,,,,,
1769161503.446038,1769161503.446914,65.0,0.0,4261.282227,4278.333496,4333.333496,4321.922852,4271.025879,4280.256348,4271.666504,4292.563965,4260.641113,4261.025879,4554.230957,4521.794922,4402.179688,4489.743652,,,,,,,,,,,,,,,,,,,,,,,,,,,,,,,,,,,,,,,,,,,,,,,,,,,,,,,,,,,,,,,,,,,,,,
1769161503.453847,1769161503.454622,66.0,0.0,4262.94873,4279.871582,4331.794922,4319.615234,4273.333496,4276.666504,4261.282227,4291.025879,4264.487305,4261.922852,4557.692383,4530.128418,4411.410156,4494.358887,,,,,,,,,,,,,,,,,,,,,,,,,,,,,,,,,,,,,,,,,,,,,,,,,,,,,,,,,,,,,,,,,,,,,,
1769161503.461655,1769161503.462431,67.0,0.0,4259.615234,4279.230957,4335.384766,4317.05127,4276.153809,4279.230957,4263.205078,4284.230957,4262.820313,4269.743652,4559.230957,4537.94873,4414.102539,4492.820313,,,,,,,,,,,,,,,,,,,,,,,,,,,,,,,,,,,,,,,,,,,,,,,,,,,,,,,,,,,,,,,,,,,,,,
1769161503.469463,1769161503.470039,68.0,0.0,4262.563965,4279.743652,4340.128418,4313.461426,4277.94873,4277.05127,4266.538574,4279.230957,4257.820313,4277.436035,4565.769043,4537.436035,4411.025879,4495.384766,,,,,,,,,,,,,,,,,,,,,,,,,,,,,,,,,,,,,,,,,,,,,,,,,,,,,,,,,,,,,,,,,,,,,,
1769161503.477272,1769161503.477848,69.0,0.0,4270.0,4280.256348,4343.333496,4312.94873,4278.333496,4275.256348,4261.922852,4288.717773,4261.794922,4278.077148,4573.589844,4539.615234,4413.333496,4507.307617,,,,,,,,,,,,,,,,,,,,,,,,,,,,,,,,,,,,,,,,,,,,,,,,,,,,,,,,,,,,,,,,,,,,,,
1769161503.48508,1769161503.485556,70.0,0.0,4268.333496,4277.436035,4343.333496,4311.922852,4275.769043,4278.846191,4260.0,4297.436035,4267.179688,4268.205078,4567.94873,4543.461426,4414.487305,4510.128418,,,,,,,,,,,,,,,,,,,,,,,,,,,,,,,,,,,,,,,,,,,,,,,,,,,,,,,,,,,,,,,,,,,,,,
1769161503.492889,1769161503.493365,71.0,0.0,4263.333496,4279.487305,4342.820313,4307.692383,4274.615234,4280.897461,4263.717773,4284.615234,4262.05127,4263.717773,4560.512695,4538.717773,4409.102539,4503.077148,,,,,,,,,,,,,,,,,,,,,,,,,,,,,,,,,,,,,,,,,,,,,,,,,,,,,,,,,,,,,,,,,,,,,,
1769161503.500697,1769161503.501373,72.0,0.0,4266.410156,4287.307617,4343.974121,4311.282227,4279.743652,4278.717773,4263.974121,4271.538574,4256.922852,4272.307617,4567.436035,4534.230957,4410.769043,4506.794922,,,,,,,,,,,,,,,,,,,,,,,,,,,,,,,,,,,,,,,,,,,,,,,,,,,,,,,,,,,,,,,,,,,,,,
1769161503.508506,1769161503.509182,73.0,0.0,4267.307617,4287.563965,4343.077148,4312.307617,4278.461426,4278.974121,4264.358887,4287.179688,4263.461426,4274.230957,4571.794922,4535.641113,4415.512695,4508.461426,,,,,,,,,,,,,,,,,,,,,,,,,,,,,,,,,,,,,,,,,,,,,,,,,,,,,,,,,,,,,,,,,,,,,,
1769161503.516314,1769161503.51709,74.0,0.0,4259.230957,4277.179688,4339.615234,4300.897461,4270.256348,4281.153809,4264.743652,4298.333496,4268.077148,4264.102539,4562.692383,4535.641113,4411.794922,4498.974121,,,,,,,,,,,,,,,,,,,,,,,,,,,,,,,,,,,,,,,,,,,,,,,,,,,,,,,,,,,,,,,,,,,,,,
1769161503.524123,1769161503.524898,75.0,0.0,4259.615234,4277.94873,4340.256348,4298.205078,4269.615234,4278.974121,4263.846191,4285.128418,4263.589844,4265.0,4562.307617,4538.589844,4414.102539,4500.384766,,,,,,,,,,,,,,,,,,,,,,,,,,,,,,,,,,,,,,,,,,,,,,,,,,,,,,,,,,,,,,,,,,,,,,
1769161503.531931,1769161503.532507,76.0,0.0,4269.230957,4286.922852,4344.743652,4302.692383,4273.974121,4274.102539,4262.436035,4284.102539,4261.666504,4270.256348,4572.692383,4542.05127,4423.846191,4510.512695,,,,,,,,,,,,,,,,,,,,,,,,,,,,,,,,,,,,,,,,,,,,,,,,,,,,,,,,,,,,,,,,,,,,,,
1769161503.539739,1769161503.540315,77.0,0.0,4270.256348,4283.717773,4345.128418,4298.077148,4275.641113,4272.307617,4262.05127,4291.922852,4263.717773,4264.615234,4573.974121,4541.153809,4425.0,4509.487305,,,,,,,,,,,,,,,,,,,,,,,,,,,,,,,,,,,,,,,,,,,,,,,,,,,,,,,,,,,,,,,,,,,,,,
1769161503.547548,1769161503.548024,78.0,0.0,4264.358887,4281.025879,4342.307617,4292.563965,4276.410156,4273.461426,4262.563965,4284.487305,4262.820313,4263.205078,4569.615234,4538.717773,4417.563965,4506.025879,0.606948,0.322094,0.096258,0.201622,0.202707,0.6311,0.315227,0.141075,0.062825,0.169244,0.635138,0.269521,0.134881,0.076367,0.135785,0.29544,0.326794,0.208884,0.042396,0.115479,0.107563,0.158208,0.160324,0.14266,0.068879,0.11652,0.226358,0.243753,0.266958,0.162785,0.320361,0.361992,0.129067,0.17182,0.093127,0.430072,0.497358,0.24757,0.155348,0.169852,0.367344,0.377161,0.166187,0.120842,0.168769,0.210532,0.459194,0.249962,0.204516,0.247427,0.842635,0.322544,0.275672,0.142047,0.248817,0.400764,0.240939,0.170708,0.120186,0.258531,0.572874,0.242694,0.13847,0.172258,0.2883,1.136859,0.3136,0.196075,0.127171,0.368833
1769161503.555356,1769161503.555832,79.0,0.0,4264.615234,4288.461426,4341.794922,4294.487305,4278.461426,4276.153809,4261.794922,4279.487305,4259.358887,4267.436035,4566.282227,4536.282227,4414.871582,4508.461426,,,,,,,,,,,,,,,,,,,,,,,,,,,,,,,,,,,,,,,,,,,,,,,,,,,,,,,,,,,,,,,,,,,,,,
1769161503.563165,1769161503.563841,80.0,0.0,4270.897461,4292.820313,4341.666504,4294.487305,4278.717773,4277.563965,4262.436035,4288.333496,4260.769043,4268.846191,4568.717773,4537.307617,4417.563965,4508.974121,,,,,,,,,,,,,,,,,,,,,,,,,,,,,,,,,,,,,,,,,,,,,,,,,,,,,,,,,,,,,,,,,,,,,,
1769161503.570973,1769161503.571649,81.0,0.0,4270.897461,4288.333496,4340.769043,4292.436035,4273.974121,4272.05127,4264.487305,4294.615234,4264.743652,4267.563965,4568.974121,4540.256348,4416.282227,4507.436035,,,,,,,,,,,,,,,,,,,,,,,,,,,,,,,,,,,,,,,,,,,,,,,,,,,,,,,,,,,,,,,,,,,,,,
1769161503.578782,1769161503.579557,82.0,0.0,4265.0,4283.974121,4340.128418,4292.692383,4269.230957,4266.025879,4263.461426,4289.871582,4262.179688,4263.205078,4560.897461,4538.717773,4411.282227,4505.897461,,,,,,,,,,,,,,,,,,,,,,,,,,,,,,,,,,,,,,,,,,,,,,,,,,,,,,,,,,,,,,,,,,,,,,
1769161503.58659,1769161503.587366,83.0,0.0,4262.179688,4285.0,4340.384766,4290.512695,4273.717773,4271.410156,4260.128418,4283.205078,4257.692383,4263.461426,4557.436035,4534.871582,4410.641113,4504.615234,,,,,,,,,,,,,,,,,,,,,,,,,,,,,,,,,,,,,,,,,,,,,,,,,,,,,,,,,,,,,,,,,,,,,,
1769161503.594399,1769161503.595374,84.0,0.0,4263.077148,4286.410156,4341.153809,4291.153809,4278.333496,4283.333496,4264.487305,4288.205078,4259.358887,4268.205078,4564.358887,4535.0,4413.717773,4505.641113,,,,,,,,,,,,,,,,,,,,,,,,,,,,,,,,,,,,,,,,,,,,,,,,,,,,,,,,,,,,,,,,,,,,,,
1769161503.602207,1769161503.603183,85.0,0.0,4262.820313,4285.641113,4340.897461,4291.922852,4268.461426,4278.717773,4268.717773,4298.461426,4262.05127,4264.358887,4565.128418,4536.538574,4413.077148,4505.384766,,,,,,,,,,,,,,,,,,,,,,,,,,,,,,,,,,,,,,,,,,,,,,,,,,,,,,,,,,,,,,,,,,,,,,
1769161503.610016,1769161503.611091,86.0,0.0,4262.94873,4289.230957,4341.410156,4292.94873,4264.358887,4262.436035,4256.282227,4287.307617,4258.717773,4259.743652,4559.743652,4536.794922,4411.922852,4504.615234,,,,,,,,,,,,,,,,,,,,,,,,,,,,,,,,,,,,,,,,,,,,,,,,,,,,,,,,,,,,,,,,,,,,,,
1769161503.617824,1769161503.618899,87.0,0.0,4264.102539,4296.282227,4343.333496,4301.282227,4275.128418,4263.846191,4245.769043,4274.102539,4256.153809,4265.384766,4563.974121,4537.563965,4413.077148,4507.307617,,,,,,,,,,,,,,,,,,,,,,,,,,,,,,,,,,,,,,,,,,,,,,,,,,,,,,,,,,,,,,,,,,,,,,
1769161503.625632,1769161503.626508,88.0,0.0,4262.820313,4293.846191,4343.333496,4303.077148,4277.94873,4276.538574,4255.256348,4286.410156,4261.794922,4268.077148,4570.641113,4538.589844,4412.692383,4510.128418,,,,,,,,,,,,,,,,,,,,,,,,,,,,,,,,,,,,,,,,,,,,,,,,,,,,,,,,,,,,,,,,,,,,,,
1769161503.633441,1769161503.634316,89.0,0.0,4263.333496,4287.692383,4341.538574,4294.102539,4272.94873,4279.230957,4265.384766,4297.179688,4263.846191,4264.487305,4567.05127,4539.743652,4412.179688,4506.922852,,,,,,,,,,,,,,,,,,,,,,,,,,,,,,,,,,,,,,,,,,,,,,,,,,,,,,,,,,,,,,,,,,,,,,
1769161503.641249,1769161503.642025,90.0,0.0,4265.0,4291.410156,4343.717773,4296.922852,4272.692383,4273.589844,4262.563965,4290.512695,4258.846191,4265.512695,4566.666504,4540.641113,4412.436035,4508.461426,,,,,,,,,,,,,,,,,,,,,,,,,,,,,,,,,,,,,,,,,,,,,,,,,,,,,,,,,,,,,,,,,,,,,,
1769161503.649058,1769161503.649833,91.0,0.0,4264.743652,4292.05127,4346.282227,4307.563965,4271.666504,4268.333496,4259.230957,4284.487305,4258.461426,4269.487305,4570.512695,4540.384766,4415.384766,4515.128418,,,,,,,,,,,,,,,,,,,,,,,,,,,,,,,,,,,,,,,,,,,,,,,,,,,,,,,,,,,,,,,,,,,,,,
1769161503.656866,1769161503.657442,92.0,0.0,4265.128418,4285.128418,4343.974121,4305.256348,4270.641113,4265.769043,4260.384766,4287.820313,4263.846191,4267.179688,4565.769043,4540.769043,4412.692383,4513.974121,,,,,,,,,,,,,,,,,,,,,,,,,,,,,,,,,,,,,,,,,,,,,,,,,,,,,,,,,,,,,,,,,,,,,,
1769161503.664675,1769161503.665251,93.0,0.0,4263.333496,4283.974121,4342.179688,4303.589844,4272.563965,4271.410156,4261.410156,4292.436035,4263.461426,4262.820313,4557.563965,4540.512695,4405.512695,4506.666504,,,,,,,,,,,,,,,,,,,,,,,,,,,,,,,,,,,,,,,,,,,,,,,,,,,,,,,,,,,,,,,,,,,,,,
1769161503.672483,1769161503.672959,94.0,0.0,4262.820313,4287.563965,4344.102539,4311.922852,4272.820313,4280.128418,4262.820313,4290.641113,4260.128418,4268.717773,4563.461426,4539.871582,4406.922852,4504.487305,0.475001,0.326423,0.133051,0.207776,0.201174,0.589094,0.356664,0.125683,0.064467,0.169898,0.575622,0.212827,0.130735,0.075087,0.131671,0.312079,0.375391,0.19547,0.048951,0.111894,0.099396,0.19582,0.195919,0.119938,0.059206,0.124428,0.234597,0.245558,0.227553,0.142698,0.310442,0.409789,0.127227,0.145336,0.08451,0.435657,0.583476,0.24614,0.154698,0.177589,0.417154,0.370383,0.164865,0.120326,0.188342,0.193072,0.508226,0.312913,0.246489,0.253625,0.741517,0.307622,0.299851,0.145173,0.274376,0.381668,0.226252,0.176731,0.124216,0.244328,0.654432,0.270069,0.158977,0.183189,0.295129,1.034344,0.330768,0.197384,0.14977,0.400618
1769161503.680292,1769161503.680768,95.0,0.0,4266.025879,4285.641113,4342.692383,4311.153809,4268.974121,4274.871582,4261.666504,4288.461426,4261.794922,4276.153809,4568.717773,4542.307617,4410.897461,4506.666504,,,,,,,,,,,,,,,,,,,,,,,,,,,,,,,,,,,,,,,,,,,,,,,,,,,,,,,,,,,,,,,,,,,,,,
1769161503.6881,1769161503.688376,96.0,0.0,4258.205078,4277.436035,4336.282227,4303.461426,4265.769043,4267.563965,4260.512695,4292.179688,4262.94873,4268.333496,4558.717773,4541.025879,4401.794922,4503.333496,,,,,,,,,,,,,,,,,,,,,,,,,,,,,,,,,,,,,,,,,,,,,,,,,,,,,,,,,,,,,,,,,,,,,,
1769161503.695908,1769161503.696185,97.0,0.0,4249.743652,4275.897461,4335.769043,4304.230957,4269.230957,4273.717773,4263.717773,4298.589844,4263.974121,4262.820313,4556.666504,4539.230957,4396.538574,4502.563965,,,,,,,,,,,,,,,,,,,,,,,,,,,,,,,,,,,,,,,,,,,,,,,,,,,,,,,,,,,,,,,,,,,,,,
1769161503.703717,1769161503.704093,98.0,0.0,4260.897461,4286.538574,4341.025879,4311.410156,4277.563965,4282.307617,4265.769043,4296.410156,4265.128418,4271.922852,4569.487305,4545.0,4408.974121,4507.94873,,,,,,,,,,,,,,,,,,,,,,,,,,,,,,,,,,,,,,,,,,,,,,,,,,,,,,,,,,,,,,,,,,,,,,
1769161503.711525,1769161503.711901,99.0,0.0,4270.641113,4296.666504,4344.487305,4318.717773,4282.05127,4281.410156,4263.333496,4290.0,4263.589844,4278.589844,4574.743652,4550.897461,4416.666504,4510.512695,,,,,,,,,,,,,,,,,,,,,,,,,,,,,,,,,,,,,,,,,,,,,,,,,,,,,,,,,,,,,,,,,,,,,,
1769161503.719334,1769161503.71991,100.0,0.0,4263.077148,4295.897461,4342.94873,4320.897461,4277.307617,4277.05127,4261.282227,4292.436035,4264.743652,4277.94873,4570.641113,4550.897461,4411.153809,4509.871582,,,,,,,,,,,,,,,,,,,,,,,,,,,,,,,,,,,,,,,,,,,,,,,,,,,,,,,,,,,,,,,,,,,,,,
1769161503.727142,1769161503.727718,101.0,0.0,4261.538574,4291.153809,4341.410156,4318.205078,4273.461426,4278.717773,4262.820313,4296.922852,4266.410156,4279.743652,4570.384766,4546.410156,4411.025879,4510.0,,,,,,,,,,,,,,,,,,,,,,,,,,,,,,,,,,,,,,,,,,,,,,,,,,,,,,,,,,,,,,,,,,,,,,
1769161503.734951,1769161503.735427,102.0,0.0,4267.436035,4292.436035,4342.436035,4320.897461,4276.794922,4280.128418,4263.333496,4295.641113,4263.717773,4281.025879,4573.589844,4543.717773,4415.769043,4510.256348,,,,,,,,,,,,,,,,,,,,,,,,,,,,,,,,,,,,,,,,,,,,,,,,,,,,,,,,,,,,,,,,,,,,,,
1769161503.742759,1769161503.743235,103.0,0.0,4266.153809,4292.692383,4343.077148,4323.077148,4277.307617,4278.589844,4262.94873,4293.846191,4261.794922,4277.307617,4570.641113,4542.820313,4412.563965,4507.820313,,,,,,,,,,,,,,,,,,,,,,,,,,,,,,,,,,,,,,,,,,,,,,,,,,,,,,,,,,,,,,,,,,,,,,
1769161503.750568,1769161503.751243,104.0,0.0,4271.282227,4291.666504,4342.692383,4319.230957,4273.205078,4278.077148,4262.94873,4294.487305,4263.205078,4277.820313,4571.282227,4542.563965,4414.230957,4510.897461,,,,,,,,,,,,,,,,,,,,,,,,,,,,,,,,,,,,,,,,,,,,,,,,,,,,,,,,,,,,,,,,,,,,,,
1769161503.758376,1769161503.759052,105.0,0.0,4277.94873,4292.307617,4343.205078,4319.871582,4272.820313,4278.205078,4263.077148,4293.974121,4261.922852,4281.410156,4577.563965,4544.230957,4423.717773,4520.897461,,,,,,,,,,,,,,,,,,,,,,,,,,,,,,,,,,,,,,,,,,,,,,,,,,,,,,,,,,,,,,,,,,,,,,
1769161503.766184,1769161503.76696,106.0,0.0,4270.769043,4290.512695,4342.436035,4323.589844,4276.410156,4278.717773,4264.871582,4294.615234,4261.153809,4278.717773,4575.897461,4543.974121,4420.897461,4522.436035,,,,,,,,,,,,,,,,,,,,,,,,,,,,,,,,,,,,,,,,,,,,,,,,,,,,,,,,,,,,,,,,,,,,,,
1769161503.773993,1769161503.774769,107.0,0.0,4262.94873,4287.563965,4339.487305,4321.794922,4274.487305,4276.666504,4266.153809,4296.410156,4262.307617,4276.282227,4568.974121,4541.153809,4413.077148,4514.102539,,,,,,,,,,,,,,,,,,,,,,,,,,,,,,,,,,,,,,,,,,,,,,,,,,,,,,,,,,,,,,,,,,,,,,
1769161503.781801,1769161503.782777,108.0,0.0,4261.282227,4290.0,4340.512695,4322.436035,4273.077148,4276.410156,4265.256348,4295.384766,4259.358887,4274.487305,4567.820313,4538.077148,4411.922852,4506.922852,,,,,,,,,,,,,,,,,,,,,,,,,,,,,,,,,,,,,,,,,,,,,,,,,,,,,,,,,,,,,,,,,,,,,,
1769161503.78961,1769161503.790585,109.0,0.0,4264.358887,4295.384766,4342.436035,4327.94873,4277.307617,4278.974121,4265.128418,4294.358887,4255.128418,4268.589844,4571.282227,4540.769043,4415.384766,4508.717773,,,,,,,,,,,,,,,,,,,,,,,,,,,,,,,,,,,,,,,,,,,,,,,,,,,,,,,,,,,,,,,,,,,,,,
1769161503.797418,1769161503.798294,110.0,0.0,4270.897461,4296.922852,4341.538574,4327.94873,4279.230957,4280.0,4265.897461,4296.922852,4259.487305,4270.128418,4577.692383,4549.230957,4423.077148,4517.820313,0.351551,0.351909,0.193229,0.236739,0.192435,0.549594,0.391683,0.125482,0.079739,0.161567,0.50019,0.168801,0.14003,0.088526,0.125513,0.328047,0.3986,0.174373,0.059079,0.108957,0.105442,0.235271,0.228633,0.104052,0.051176,0.128326,0.228569,0.234347,0.190252,0.125384,0.266745,0.423775,0.131409,0.124155,0.078141,0.412272,0.640631,0.243905,0.16647,0.183028,0.456876,0.367178,0.158935,0.124854,0.20359,0.189603,0.585938,0.391758,0.292209,0.252473,0.675364,0.286848,0.332195,0.159927,0.293768,0.386177,0.20679,0.196524,0.137712,0.220723,0.747594,0.298335,0.193768,0.196513,0.281204,0.946057,0.341107,0.200971,0.18334,0.406154
1769161503.805227,1769161503.806102,111.0,0.0,4271.666504,4296.666504,4341.922852,4327.05127,4278.461426,4279.743652,4266.538574,4298.205078,4261.410156,4278.461426,4580.769043,4553.589844,4425.0,4521.153809,,,,,,,,,,,,,,,,,,,,,,,,,,,,,,,,,,,,,,,,,,,,,,,,,,,,,,,,,,,,,,,,,,,,,,
1769161503.813035,1769161503.814111,112.0,0.0,4263.846191,4292.307617,4339.871582,4327.692383,4278.974121,4279.871582,4267.563965,4294.230957,4251.666504,4278.205078,4574.871582,4544.743652,4414.358887,4513.717773,,,,,,,,,,,,,,,,,,,,,,,,,,,,,,,,,,,,,,,,,,,,,,,,,,,,,,,,,,,,,,,,,,,,,,
1769161503.820844,1769161503.821919,113.0,0.0,4261.794922,4287.563965,4336.025879,4323.589844,4278.205078,4279.871582,4267.307617,4297.94873,4252.692383,4274.102539,4568.589844,4537.563965,4408.589844,4505.897461,,,,,,,,,,,,,,,,,,,,,,,,,,,,,,,,,,,,,,,,,,,,,,,,,,,,,,,,,,,,,,,,,,,,,,
1769161503.828652,1769161503.829628,114.0,0.0,4265.0,4287.94873,4336.538574,4320.384766,4280.641113,4279.358887,4262.692383,4308.974121,4266.922852,4281.666504,4569.615234,4546.794922,4417.179688,4506.153809,,,,,,,,,,,,,,,,,,,,,,,,,,,,,,,,,,,,,,,,,,,,,,,,,,,,,,,,,,,,,,,,,,,,,,
1769161503.83646,1769161503.837436,115.0,0.0,4263.974121,4288.205078,4338.333496,4322.307617,4279.615234,4277.05127,4265.512695,4312.563965,4268.589844,4289.487305,4576.153809,4557.820313,4426.666504,4515.641113,,,,,,,,,,,,,,,,,,,,,,,,,,,,,,,,,,,,,,,,,,,,,,,,,,,,,,,,,,,,,,,,,,,,,,
1769161503.844269,1769161503.845045,116.0,0.0,4263.846191,4285.384766,4336.922852,4324.615234,4269.871582,4273.077148,4273.846191,4308.846191,4263.589844,4287.436035,4582.820313,4554.871582,4430.897461,4522.820313,,,,,,,,,,,,,,,,,,,,,,,,,,,,,,,,,,,,,,,,,,,,,,,,,,,,,,,,,,,,,,,,,,,,,,
1769161503.852077,1769161503.852853,117.0,0.0,4264.102539,4287.820313,4338.461426,4325.897461,4267.436035,4273.333496,4270.128418,4302.436035,4263.846191,4282.692383,4577.436035,4543.333496,4424.487305,4515.384766,,,,,,,,,,,,,,,,,,,,,,,,,,,,,,,,,,,,,,,,,,,,,,,,,,,,,,,,,,,,,,,,,,,,,,
1769161503.859886,1769161503.860562,118.0,0.0,4263.333496,4293.077148,4341.410156,4328.333496,4276.025879,4274.230957,4260.256348,4294.871582,4256.282227,4271.025879,4566.794922,4537.563965,4414.102539,4505.0,,,,,,,,,,,,,,,,,,,,,,,,,,,,,,,,,,,,,,,,,,,,,,,,,,,,,,,,,,,,,,,,,,,,,,
1769161503.867694,1769161503.86837,119.0,0.0,4261.666504,4288.974121,4335.769043,4329.871582,4279.230957,4269.102539,4259.743652,4294.358887,4248.461426,4265.641113,4569.743652,4541.922852,4415.512695,4508.205078,,,,,,,,,,,,,,,,,,,,,,,,,,,,,,,,,,,,,,,,,,,,,,,,,,,,,,,,,,,,,,,,,,,,,,
1769161503.875503,1769161503.875979,120.0,0.0,4255.641113,4280.769043,4325.897461,4324.358887,4271.538574,4265.256348,4262.820313,4297.820313,4250.384766,4271.538574,4570.128418,4542.820313,4416.538574,4510.256348,,,,,,,,,,,,,,,,,,,,,,,,,,,,,,,,,,,,,,,,,,,,,,,,,,,,,,,,,,,,,,,,,,,,,,
1769161503.883311,1769161503.883787,121.0,0.0,4255.256348,4279.358887,4325.256348,4317.307617,4267.692383,4273.077148,4262.436035,4293.846191,4247.563965,4270.769043,4561.282227,4537.563965,4411.025879,4505.128418,,,,,,,,,,,,,,,,,,,,,,,,,,,,,,,,,,,,,,,,,,,,,,,,,,,,,,,,,,,,,,,,,,,,,,
1769161503.89112,1769161503.891496,122.0,0.0,4257.436035,4279.743652,4331.153809,4319.358887,4270.512695,4280.256348,4265.0,4293.589844,4246.153809,4264.102539,4560.384766,4538.077148,4409.230957,4506.922852,,,,,,,,,,,,,,,,,,,,,,,,,,,,,,,,,,,,,,,,,,,,,,,,,,,,,,,,,,,,,,,,,,,,,,
1769161503.898928,1769161503.899304,123.0,0.0,4256.410156,4280.256348,4332.820313,4326.153809,4274.230957,4271.282227,4268.974121,4299.230957,4250.384766,4267.692383,4562.179688,4541.410156,4410.384766,4508.846191,,,,,,,,,,,,,,,,,,,,,,,,,,,,,,,,,,,,,,,,,,,,,,,,,,,,,,,,,,,,,,,,,,,,,,
1769161503.906737,1769161503.907312,124.0,0.0,4261.794922,4285.128418,4335.512695,4327.94873,4277.436035,4264.615234,4265.384766,4294.743652,4251.794922,4276.410156,4563.077148,4540.897461,4416.922852,4506.410156,,,,,,,,,,,,,,,,,,,,,,,,,,,,,,,,,,,,,,,,,,,,,,,,,,,,,,,,,,,,,,,,,,,,,,
1769161503.914545,1769161503.915121,125.0,0.0,4265.384766,4286.538574,4339.871582,4326.922852,4276.922852,4272.307617,4266.794922,4292.94873,4254.743652,4279.358887,4570.769043,4542.05127,4423.717773,4508.846191,,,,,,,,,,,,,,,,,,,,,,,,,,,,,,,,,,,,,,,,,,,,,,,,,,,,,,,,,,,,,,,,,,,,,,
1769161503.922354,1769161503.923029,126.0,0.0,4252.563965,4278.846191,4333.846191,4325.128418,4273.974121,4281.794922,4276.922852,4304.871582,4258.974121,4277.94873,4570.384766,4541.538574,4416.922852,4507.436035,0.278569,0.387167,0.268637,0.285269,0.181265,0.514355,0.403019,0.137528,0.104019,0.146842,0.416265,0.13462,0.163673,0.111043,0.116346,0.329702,0.382066,0.151284,0.069991,0.105471,0.11708,0.259931,0.254028,0.097975,0.046426,0.127031,0.209709,0.209004,0.159181,0.116042,0.205796,0.406941,0.143509,0.109144,0.074761,0.360492,0.644095,0.231258,0.187476,0.188685,0.477706,0.351118,0.146919,0.130514,0.206521,0.199858,0.670311,0.475303,0.325575,0.242688,0.666738,0.265463,0.367855,0.182151,0.302927,0.424125,0.188084,0.234983,0.161189,0.193641,0.840427,0.313016,0.247752,0.211674,0.2506,0.891131,0.340134,0.212008,0.223265,0.384717
1769161503.930162,1769161503.930838,127.0,0.0,4244.358887,4275.897461,4325.0,4324.615234,4273.333496,4279.102539,4275.256348,4306.410156,4252.563965,4263.974121,4557.94873,4535.128418,4408.461426,4495.641113,,,,,,,,,,,,,,,,,,,,,,,,,,,,,,,,,,,,,,,,,,,,,,,,,,,,,,,,,,,,,,,,,,,,,,
1769161503.937971,1769161503.938446,0.0,0.0,4251.153809,4279.230957,4325.641113,4323.717773,4277.307617,4270.769043,4262.820313,4292.05127,4242.436035,4253.717773,4552.820313,4530.897461,4404.487305,4489.102539,,,,,,,,,,,,,,,,,,,,,,,,,,,,,,,,,,,,,,,,,,,,,,,,,,,,,,,,,,,,,,,,,,,,,,
1769161503.945779,1769161503.946255,1.0,0.0,4252.05127,4279.358887,4328.205078,4320.641113,4277.820313,4269.230957,4260.897461,4287.179688,4242.692383,4262.05127,4556.153809,4534.230957,4399.230957,4497.692383,,,,,,,,,,,,,,,,,,,,,,,,,,,,,,,,,,,,,,,,,,,,,,,,,,,,,,,,,,,,,,,,,,,,,,
1769161503.953587,1769161503.953963,2.0,0.0,4252.436035,4278.077148,4329.102539,4320.769043,4276.922852,4268.589844,4264.871582,4288.846191,4247.05127,4267.436035,4554.487305,4536.538574,4404.102539,4507.179688,,,,,,,,,,,,,,,,,,,,,,,,,,,,,,,,,,,,,,,,,,,,,,,,,,,,,,,,,,,,,,,,,,,,,,
1769161503.961396,1769161503.961772,3.0,0.0,4260.641113,4278.205078,4335.512695,4325.128418,4280.512695,4266.922852,4264.230957,4286.794922,4247.307617,4264.743652,4554.871582,4535.769043,4411.538574,4506.282227,,,,,,,,,,,,,,,,,,,,,,,,,,,,,,,,,,,,,,,,,,,,,,,,,,,,,,,,,,,,,,,,,,,,,,
1769161503.969204,1769161503.96978,4.0,0.0,4262.820313,4276.922852,4341.666504,4326.410156,4280.512695,4266.922852,4264.487305,4291.922852,4247.05127,4265.0,4559.358887,4537.820313,4405.641113,4503.205078,,,,,,,,,,,,,,,,,,,,,,,,,,,,,,,,,,,,,,,,,,,,,,,,,,,,,,,,,,,,,,,,,,,,,,
1769161503.977013,1769161503.977588,5.0,0.0,4264.487305,4277.05127,4340.769043,4325.0,4277.94873,4271.922852,4265.641113,4295.512695,4248.205078,4264.871582,4559.487305,4541.410156,4401.538574,4507.179688,,,,,,,,,,,,,,,,,,,,,,,,,,,,,,,,,,,,,,,,,,,,,,,,,,,,,,,,,,,,,,,,,,,,,,
1769161503.984821,1769161503.985497,6.0,0.0,4265.769043,4277.563965,4339.102539,4324.743652,4277.820313,4278.205078,4265.641113,4286.025879,4246.410156,4262.307617,4556.025879,4539.487305,4402.692383,4507.436035,,,,,,,,,,,,,,,,,,,,,,,,,,,,,,,,,,,,,,,,,,,,,,,,,,,,,,,,,,,,,,,,,,,,,,
1769161503.99263,1769161503.993305,7.0,0.0,4254.358887,4276.410156,4338.077148,4323.846191,4278.077148,4281.025879,4267.436035,4278.974121,4243.589844,4263.333496,4555.512695,4533.589844,4398.717773,4496.922852,,,,,,,,,,,,,,,,,,,,,,,,,,,,,,,,,,,,,,,,,,,,,,,,,,,,,,,,,,,,,,,,,,,,,,
1769161504.000438,1769161504.001313,8.0,0.0,4250.384766,4277.05127,4336.153809,4322.94873,4277.563965,4278.333496,4265.128418,4279.358887,4242.94873,4263.077148,4555.512695,4531.538574,4400.897461,4496.794922,,,,,,,,,,,,,,,,,,,,,,,,,,,,,,,,,,,,,,,,,,,,,,,,,,,,,,,,,,,,,,,,,,,,,,
1769161504.008247,1769161504.009122,9.0,0.0,4260.641113,4279.230957,4338.333496,4325.897461,4276.794922,4271.666504,4262.307617,4278.717773,4242.692383,4260.384766,4553.974121,4533.205078,4404.487305,4504.102539,,,,,,,,,,,,,,,,,,,,,,,,,,,,,,,,,,,,,,,,,,,,,,,,,,,,,,,,,,,,,,,,,,,,,,
1769161504.016055,1769161504.01683,10.0,0.0,4256.666504,4278.974121,4340.128418,4326.794922,4274.615234,4274.230957,4263.589844,4277.692383,4243.077148,4262.436035,4554.871582,4530.256348,4398.717773,4499.230957,,,,,,,,,,,,,,,,,,,,,,,,,,,,,,,,,,,,,,,,,,,,,,,,,,,,,,,,,,,,,,,,,,,,,,
1769161504.023863,1769161504.024639,11.0,0.0,4245.384766,4277.436035,4336.410156,4323.333496,4273.717773,4275.641113,4266.025879,4277.563965,4243.205078,4261.538574,4554.358887,4528.589844,4396.025879,4497.307617,,,,,,,,,,,,,,,,,,,,,,,,,,,,,,,,,,,,,,,,,,,,,,,,,,,,,,,,,,,,,,,,,,,,,,
1769161504.031672,1769161504.032248,12.0,0.0,4254.743652,4280.0,4335.769043,4322.179688,4276.025879,4269.102539,4265.512695,4277.436035,4242.307617,4255.256348,4554.487305,4535.384766,4402.820313,4507.179688,,,,,,,,,,,,,,,,,,,,,,,,,,,,,,,,,,,,,,,,,,,,,,,,,,,,,,,,,,,,,,,,,,,,,,
1769161504.03948,1769161504.040056,13.0,0.0,4270.128418,4285.128418,4342.692383,4325.384766,4278.077148,4268.461426,4263.717773,4279.102539,4245.769043,4260.0,4562.05127,4541.794922,4407.692383,4510.769043,,,,,,,,,,,,,,,,,,,,,,,,,,,,,,,,,,,,,,,,,,,,,,,,,,,,,,,,,,,,,,,,,,,,,,
1769161504.047289,1769161504.047765,14.0,0.0,4275.256348,4289.743652,4349.358887,4332.05127,4279.102539,4277.05127,4263.461426,4280.256348,4251.538574,4276.025879,4569.358887,4541.153809,4408.846191,4509.871582,0.265716,0.419306,0.337569,0.340174,0.172465,0.482167,0.384408,0.153845,0.131164,0.130552,0.337887,0.109346,0.193507,0.133414,0.104213,0.317531,0.327264,0.129434,0.079738,0.100841,0.127596,0.259819,0.269391,0.099813,0.046583,0.122768,0.184506,0.175559,0.137244,0.117788,0.142912,0.371704,0.163704,0.099782,0.075415,0.299582,0.58651,0.205552,0.209547,0.198962,0.450339,0.314322,0.131888,0.132061,0.194097,0.218788,0.737614,0.54587,0.333755,0.226456,0.70892,0.250124,0.398148,0.207468,0.301205,0.494379,0.17782,0.286748,0.189896,0.16847,0.918027,0.311113,0.316845,0.228817,0.213904,0.873831,0.328148,0.229544,0.261888,0.345165
1769161504.055097,1769161504.055573,15.0,0.0,4276.282227,4292.820313,4347.94873,4336.410156,4278.974121,4277.94873,4263.333496,4278.333496,4250.897461,4276.025879,4570.512695,4540.256348,4417.692383,4512.563965,,,,,,,,,,,,,,,,,,,,,,,,,,,,,,,,,,,,,,,,,,,,,,,,,,,,,,,,,,,,,,,,,,,,,,
1769161504.062906,1769161504.063182,16.0,0.0,4269.871582,4293.205078,4342.692383,4331.794922,4276.538574,4268.846191,4261.922852,4277.307617,4248.717773,4266.153809,4570.769043,4541.025879,4426.153809,4511.666504,,,,,,,,,,,,,,,,,,,,,,,,,,,,,,,,,,,,,,,,,,,,,,,,,,,,,,,,,,,,,,,,,,,,,,
1769161504.070714,1769161504.07099,17.0,0.0,4265.0,4292.563965,4341.794922,4326.666504,4274.102539,4269.871582,4263.077148,4278.589844,4251.794922,4272.563965,4570.384766,4542.307617,4424.487305,4511.794922,,,,,,,,,,,,,,,,,,,,,,,,,,,,,,,,,,,,,,,,,,,,,,,,,,,,,,,,,,,,,,,,,,,,,,
1769161504.078523,1769161504.078699,18.0,0.0,4270.641113,4291.794922,4343.846191,4328.974121,4273.589844,4278.846191,4265.897461,4278.717773,4250.641113,4274.358887,4568.333496,4540.512695,4417.179688,4508.461426,,,,,,,,,,,,,,,,,,,,,,,,,,,,,,,,,,,,,,,,,,,,,,,,,,,,,,,,,,,,,,,,,,,,,,
1769161504.086331,1769161504.086507,19.0,0.0,4274.358887,4294.487305,4343.461426,4333.717773,4275.512695,4280.128418,4264.102539,4279.487305,4251.025879,4267.179688,4569.871582,4536.666504,4417.436035,4506.153809,,,,,,,,,,,,,,,,,,,,,,,,,,,,,,,,,,,,,,,,,,,,,,,,,,,,,,,,,,,,,,,,,,,,,,
1769161504.094139,1769161504.094515,20.0,0.0,4269.102539,4295.384766,4341.282227,4334.358887,4273.974121,4276.025879,4266.794922,4280.0,4254.102539,4273.077148,4571.153809,4537.692383,4425.641113,4518.333496,,,,,,,,,,,,,,,,,,,,,,,,,,,,,,,,,,,,,,,,,,,,,,,,,,,,,,,,,,,,,,,,,,,,,,
1769161504.101948,1769161504.102324,21.0,0.0,4262.820313,4285.769043,4336.666504,4327.820313,4266.666504,4278.589844,4278.333496,4281.153809,4254.358887,4271.794922,4567.436035,4541.794922,4423.333496,4524.102539,,,,,,,,,,,,,,,,,,,,,,,,,,,,,,,,,,,,,,,,,,,,,,,,,,,,,,,,,,,,,,,,,,,,,,
1769161504.109756,1769161504.110232,22.0,0.0,4263.846191,4279.487305,4336.794922,4322.94873,4266.922852,4279.615234,4277.563965,4283.846191,4257.05127,4259.743652,4567.563965,4540.384766,4416.922852,4516.410156,,,,,,,,,,,,,,,,,,,,,,,,,,,,,,,,,,,,,,,,,,,,,,,,,,,,,,,,,,,,,,,,,,,,,,
1769161504.117565,1769161504.118041,23.0,0.0,4274.615234,4288.846191,4345.128418,4331.282227,4274.871582,4271.282227,4265.641113,4282.563965,4260.641113,4270.256348,4572.820313,4537.05127,4422.436035,4517.692383,,,,,,,,,,,,,,,,,,,,,,,,,,,,,,,,,,,,,,,,,,,,,,,,,,,,,,,,,,,,,,,,,,,,,,
1769161504.125373,1769161504.126049,24.0,0.0,4281.794922,4297.307617,4346.794922,4337.692383,4274.743652,4268.974121,4262.692383,4281.025879,4262.820313,4279.871582,4574.743652,4544.102539,4431.025879,4525.769043,,,,,,,,,,,,,,,,,,,,,,,,,,,,,,,,,,,,,,,,,,,,,,,,,,,,,,,,,,,,,,,,,,,,,,
1769161504.133182,1769161504.133857,25.0,0.0,4278.717773,4294.615234,4343.461426,4333.589844,4273.333496,4270.256348,4266.410156,4280.0,4261.025879,4264.871582,4572.692383,4550.128418,4427.179688,4524.230957,,,,,,,,,,,,,,,,,,,,,,,,,,,,,,,,,,,,,,,,,,,,,,,,,,,,,,,,,,,,,,,,,,,,,,
1769161504.14099,1769161504.141566,26.0,0.0,4278.846191,4294.743652,4350.128418,4333.717773,4276.153809,4267.94873,4262.563965,4274.743652,4253.205078,4266.666504,4573.205078,4543.974121,4424.743652,4525.128418,,,,,,,,,,,,,,,,,,,,,,,,,,,,,,,,,,,,,,,,,,,,,,,,,,,,,,,,,,,,,,,,,,,,,,
1769161504.148799,1769161504.149374,27.0,0.0,4277.307617,4293.717773,4352.563965,4333.077148,4270.897461,4270.641113,4259.743652,4272.94873,4246.153809,4281.153809,4573.717773,4535.769043,4430.128418,4523.205078,,,,,,,,,,,,,,,,,,,,,,,,,,,,,,,,,,,,,,,,,,,,,,,,,,,,,,,,,,,,,,,,,,,,,,
1769161504.156607,1769161504.157383,28.0,0.0,4267.436035,4288.077148,4343.205078,4326.922852,4265.641113,4281.410156,4268.974121,4278.974121,4249.358887,4273.589844,4570.641113,4535.384766,4426.794922,4511.794922,,,,,,,,,,,,,,,,,,,,,,,,,,,,,,,,,,,,,,,,,,,,,,,,,,,,,,,,,,,,,,,,,,,,,,
1769161504.164415,1769161504.165191,29.0,0.0,4262.820313,4288.589844,4340.256348,4327.05127,4267.307617,4280.384766,4276.282227,4281.025879,4253.589844,4262.692383,4569.358887,4539.487305,4420.384766,4513.461426,,,,,,,,,,,,,,,,,,,,,,,,,,,,,,,,,,,,,,,,,,,,,,,,,,,,,,,,,,,,,,,,,,,,,,
1769161504.172224,1769161504.173099,30.0,0.0,4268.974121,4291.153809,4345.0,4333.205078,4266.025879,4266.922852,4270.384766,4277.436035,4251.794922,4266.666504,4572.820313,4541.025879,4423.333496,4522.820313,0.29764,0.438203,0.383859,0.384414,0.168287,0.449391,0.341155,0.17109,0.155681,0.117025,0.277173,0.092639,0.219194,0.14898,0.090251,0.293124,0.250133,0.113357,0.088271,0.095458,0.133287,0.237189,0.273472,0.105187,0.052156,0.118748,0.162466,0.143093,0.125552,0.130148,0.097362,0.334202,0.190168,0.095187,0.080693,0.242538,0.484311,0.174654,0.224325,0.216351,0.396313,0.262915,0.121789,0.126143,0.169935,0.237223,0.772778,0.587662,0.314132,0.208002,0.764881,0.245301,0.4138,0.230008,0.290097,0.574091,0.180962,0.33668,0.215233,0.148683,0.961341,0.297576,0.385939,0.248079,0.182564,0.867187,0.305865,0.248021,0.291022,0.299704
1769161504.180032,1769161504.180908,31.0,0.0,4270.769043,4288.846191,4344.743652,4337.307617,4268.846191,4264.358887,4261.666504,4275.641113,4249.102539,4268.974121,4572.563965,4538.333496,4426.025879,4516.282227,,,,,,,,,,,,,,,,,,,,,,,,,,,,,,,,,,,,,,,,,,,,,,,,,,,,,,,,,,,,,,,,,,,,,,
1769161504.187841,1769161504.188516,32.0,0.0,4264.871582,4287.436035,4342.179688,4334.230957,4278.846191,4273.974121,4262.307617,4275.897461,4247.307617,4258.846191,4567.05127,4533.974121,4419.230957,4502.307617,,,,,,,,,,,,,,,,,,,,,,,,,,,,,,,,,,,,,,,,,,,,,,,,,,,,,,,,,,,,,,,,,,,,,,
1769161504.195649,1769161504.196325,33.0,0.0,4263.077148,4291.922852,4343.205078,4331.153809,4281.922852,4283.461426,4271.410156,4280.897461,4256.153809,4254.743652,4566.666504,4536.410156,4416.153809,4502.436035,,,,,,,,,,,,,,,,,,,,,,,,,,,,,,,,,,,,,,,,,,,,,,,,,,,,,,,,,,,,,,,,,,,,,,
1769161504.203458,1769161504.204233,34.0,0.0,4264.487305,4294.871582,4343.589844,4333.589844,4278.077148,4276.538574,4275.641113,4280.0,4259.743652,4270.0,4571.538574,4538.974121,4423.461426,4513.461426,,,,,,,,,,,,,,,,,,,,,,,,,,,,,,,,,,,,,,,,,,,,,,,,,,,,,,,,,,,,,,,,,,,,,,
1769161504.211266,1769161504.212042,35.0,0.0,4264.230957,4293.589844,4342.05127,4335.256348,4279.615234,4265.128418,4269.743652,4277.94873,4250.769043,4281.025879,4573.717773,4536.538574,4429.487305,4524.102539,,,,,,,,,,,,,,,,,,,,,,,,,,,,,,,,,,,,,,,,,,,,,,,,,,,,,,,,,,,,,,,,,,,,,,
1769161504.219075,1769161504.21965,36.0,0.0,4265.128418,4295.256348,4341.794922,4333.846191,4278.974121,4268.333496,4263.205078,4287.307617,4255.384766,4272.820313,4574.230957,4539.487305,4430.897461,4525.897461,,,,,,,,,,,,,,,,,,,,,,,,,,,,,,,,,,,,,,,,,,,,,,,,,,,,,,,,,,,,,,,,,,,,,,
1769161504.226883,1769161504.227459,37.0,0.0,4261.282227,4293.717773,4340.128418,4330.0,4269.871582,4277.820313,4273.077148,4289.871582,4262.307617,4265.512695,4572.307617,4539.230957,4429.230957,4512.307617,,,,,,,,,,,,,,,,,,,,,,,,,,,,,,,,,,,,,,,,,,,,,,,,,,,,,,,,,,,,,,,,,,,,,,
1769161504.234692,1769161504.235367,38.0,0.0,4255.384766,4285.641113,4337.563965,4327.307617,4265.769043,4282.05127,4282.94873,4277.820313,4253.333496,4268.846191,4570.0,4538.333496,4424.615234,4504.230957,,,,,,,,,,,,,,,,,,,,,,,,,,,,,,,,,,,,,,,,,,,,,,,,,,,,,,,,,,,,,,,,,,,,,,
1769161504.2425,1769161504.243176,39.0,0.0,4264.358887,4285.769043,4339.743652,4334.487305,4272.94873,4276.794922,4271.922852,4276.922852,4247.820313,4274.871582,4575.256348,4546.410156,4425.256348,4516.794922,,,,,,,,,,,,,,,,,,,,,,,,,,,,,,,,,,,,,,,,,,,,,,,,,,,,,,,,,,,,,,,,,,,,,,
1769161504.250308,1769161504.250784,40.0,0.0,4275.641113,4297.563965,4344.615234,4342.692383,4277.820313,4268.974121,4260.0,4277.820313,4251.794922,4277.820313,4579.358887,4548.205078,4431.794922,4527.563965,,,,,,,,,,,,,,,,,,,,,,,,,,,,,,,,,,,,,,,,,,,,,,,,,,,,,,,,,,,,,,,,,,,,,,
1769161504.258117,1769161504.258593,41.0,0.0,4267.94873,4298.077148,4341.794922,4334.615234,4269.615234,4266.666504,4262.307617,4267.820313,4249.358887,4272.563965,4571.794922,4537.563965,4430.0,4518.461426,,,,,,,,,,,,,,,,,,,,,,,,,,,,,,,,,,,,,,,,,,,,,,,,,,,,,,,,,,,,,,,,,,,,,,
1769161504.265925,1769161504.266301,42.0,0.0,4256.410156,4283.589844,4336.153809,4323.717773,4263.077148,4272.94873,4266.922852,4269.358887,4246.410156,4260.897461,4562.563965,4533.205078,4417.820313,4502.692383,,,,,,,,,,,,,,,,,,,,,,,,,,,,,,,,,,,,,,,,,,,,,,,,,,,,,,,,,,,,,,,,,,,,,,
1769161504.273734,1769161504.27411,43.0,0.0,4258.589844,4278.077148,4339.871582,4328.589844,4266.282227,4277.179688,4267.179688,4279.487305,4249.743652,4260.897461,4565.0,4539.102539,4416.410156,4500.512695,,,,,,,,,,,,,,,,,,,,,,,,,,,,,,,,,,,,,,,,,,,,,,,,,,,,,,,,,,,,,,,,,,,,,,
1769161504.281542,1769161504.281718,44.0,0.0,4264.487305,4285.512695,4344.743652,4336.538574,4266.538574,4268.846191,4265.384766,4277.94873,4252.179688,4270.0,4572.05127,4539.743652,4426.794922,4513.077148,,,,,,,,,,,,,,,,,,,,,,,,,,,,,,,,,,,,,,,,,,,,,,,,,,,,,,,,,,,,,,,,,,,,,,
1769161504.289351,1769161504.289527,45.0,0.0,4266.025879,4289.615234,4342.179688,4335.769043,4265.256348,4264.615234,4265.769043,4273.589844,4249.487305,4270.769043,4571.410156,4535.384766,4429.230957,4521.538574,,,,,,,,,,,,,,,,,,,,,,,,,,,,,,,,,,,,,,,,,,,,,,,,,,,,,,,,,,,,,,,,,,,,,,
1769161504.297159,1769161504.297435,46.0,0.0,4264.230957,4287.692383,4340.769043,4332.179688,4272.436035,4273.205078,4272.179688,4276.282227,4248.846191,4268.974121,4570.128418,4535.641113,4426.794922,4520.0,0.344752,0.438369,0.408172,0.404536,0.168032,0.413084,0.289199,0.188348,0.172975,0.107864,0.226255,0.083461,0.236724,0.15604,0.076356,0.26055,0.170649,0.1063,0.096786,0.090485,0.137568,0.203906,0.267006,0.109838,0.061807,0.11618,0.153007,0.116902,0.124278,0.149734,0.074984,0.306077,0.218216,0.094309,0.08976,0.198421,0.370768,0.152829,0.227391,0.238058,0.317849,0.211608,0.126291,0.113496,0.141432,0.244731,0.773985,0.600356,0.276292,0.191829,0.788777,0.252473,0.412326,0.243801,0.271282,0.628312,0.198329,0.371144,0.228429,0.13507,0.957088,0.282607,0.440658,0.267613,0.162961,0.844406,0.274833,0.265495,0.304809,0.257743
1769161504.304968,1769161504.305244,47.0,0.0,4262.692383,4289.743652,4343.461426,4335.769043,4280.512695,4281.666504,4276.538574,4279.487305,4256.410156,4276.922852,4575.769043,4541.153809,4429.102539,4519.230957,,,,,,,,,,,,,,,,,,,,,,,,,,,,,,,,,,,,,,,,,,,,,,,,,,,,,,,,,,,,,,,,,,,,,,
1769161504.312776,1769161504.313252,48.0,0.0,4264.358887,4293.974121,4345.256348,4338.589844,4280.384766,4278.589844,4269.743652,4279.487305,4260.256348,4282.05127,4577.05127,4542.94873,4429.358887,4521.538574,,,,,,,,,,,,,,,,,,,,,,,,,,,,,,,,,,,,,,,,,,,,,,,,,,,,,,,,,,,,,,,,,,,,,,
1769161504.320585,1769161504.32106,49.0,0.0,4263.461426,4287.820313,4346.410156,4331.666504,4277.307617,4272.94873,4267.179688,4279.358887,4258.589844,4270.769043,4570.512695,4538.333496,4427.94873,4520.769043,,,,,,,,,,,,,,,,,,,,,,,,,,,,,,,,,,,,,,,,,,,,,,,,,,,,,,,,,,,,,,,,,,,,,,
1769161504.328393,1769161504.328969,50.0,0.0,4260.512695,4279.615234,4347.307617,4325.128418,4273.077148,4275.0,4275.641113,4279.615234,4261.794922,4262.179688,4569.615234,4542.820313,4430.384766,4520.769043,,,,,,,,,,,,,,,,,,,,,,,,,,,,,,,,,,,,,,,,,,,,,,,,,,,,,,,,,,,,,,,,,,,,,,
1769161504.336202,1769161504.336777,51.0,0.0,4263.205078,4281.025879,4343.974121,4325.641113,4273.333496,4276.922852,4279.871582,4281.538574,4263.333496,4268.717773,4573.846191,4550.897461,4431.666504,4525.641113,,,,,,,,,,,,,,,,,,,,,,,,,,,,,,,,,,,,,,,,,,,,,,,,,,,,,,,,,,,,,,,,,,,,,,
1769161504.34401,1769161504.344386,52.0,0.0,4263.589844,4284.615234,4343.717773,4328.333496,4274.743652,4278.077148,4277.179688,4283.077148,4262.563965,4273.333496,4576.153809,4550.256348,4431.410156,4524.230957,,,,,,,,,,,,,,,,,,,,,,,,,,,,,,,,,,,,,,,,,,,,,,,,,,,,,,,,,,,,,,,,,,,,,,
1769161504.351818,1769161504.352194,53.0,0.0,4252.94873,4279.487305,4345.0,4327.307617,4269.487305,4278.461426,4277.436035,4282.692383,4261.538574,4265.384766,4573.205078,4541.794922,4428.846191,4511.794922,,,,,,,,,,,,,,,,,,,,,,,,,,,,,,,,,,,,,,,,,,,,,,,,,,,,,,,,,,,,,,,,,,,,,,
1769161504.359627,1769161504.359903,54.0,0.0,4251.666504,4276.282227,4341.666504,4324.871582,4269.230957,4277.05127,4278.974121,4277.05127,4252.563965,4257.563965,4567.05127,4536.538574,4425.769043,4503.846191,,,,,,,,,,,,,,,,,,,,,,,,,,,,,,,,,,,,,,,,,,,,,,,,,,,,,,,,,,,,,,,,,,,,,,
1769161504.367435,1769161504.367711,55.0,0.0,4267.307617,4283.717773,4345.128418,4330.128418,4277.436035,4277.179688,4278.589844,4273.333496,4246.410156,4268.717773,4567.563965,4546.922852,4428.077148,4516.794922,,,,,,,,,,,,,,,,,,,,,,,,,,,,,,,,,,,,,,,,,,,,,,,,,,,,,,,,,,,,,,,,,,,,,,
1769161504.375244,1769161504.375719,56.0,0.0,4274.487305,4289.102539,4351.410156,4338.717773,4276.153809,4279.487305,4277.94873,4275.641113,4252.563965,4278.717773,4572.820313,4552.692383,4431.922852,4527.307617,,,,,,,,,,,,,,,,,,,,,,,,,,,,,,,,,,,,,,,,,,,,,,,,,,,,,,,,,,,,,,,,,,,,,,
1769161504.383052,1769161504.383528,57.0,0.0,4263.461426,4285.384766,4346.538574,4336.153809,4269.871582,4282.307617,4279.871582,4279.615234,4259.358887,4270.897461,4571.282227,4543.461426,4430.256348,4514.230957,,,,,,,,,,,,,,,,,,,,,,,,,,,,,,,,,,,,,,,,,,,,,,,,,,,,,,,,,,,,,,,,,,,,,,
1769161504.390861,1769161504.391236,58.0,0.0,4252.05127,4282.692383,4340.641113,4328.077148,4273.333496,4282.05127,4282.05127,4282.436035,4261.153809,4266.025879,4565.897461,4537.05127,4426.922852,4502.179688,,,,,,,,,,,,,,,,,,,,,,,,,,,,,,,,,,,,,,,,,,,,,,,,,,,,,,,,,,,,,,,,,,,,,,
1769161504.398669,1769161504.399045,59.0,0.0,4254.615234,4282.692383,4342.563965,4327.436035,4274.871582,4276.794922,4279.743652,4281.153809,4262.692383,4270.641113,4566.153809,4541.666504,4426.025879,4511.282227,,,,,,,,,,,,,,,,,,,,,,,,,,,,,,,,,,,,,,,,,,,,,,,,,,,,,,,,,,,,,,,,,,,,,,
1769161504.406478,1769161504.406653,60.0,0.0,4262.94873,4281.666504,4344.358887,4327.94873,4271.794922,4271.538574,4276.794922,4277.820313,4262.05127,4270.0,4570.897461,4546.282227,4427.179688,4519.358887,,,,,,,,,,,,,,,,,,,,,,,,,,,,,,,,,,,,,,,,,,,,,,,,,,,,,,,,,,,,,,,,,,,,,,
1769161504.414286,1769161504.414462,61.0,0.0,4265.384766,4284.487305,4345.0,4328.205078,4275.0,4277.436035,4279.871582,4281.153809,4260.128418,4267.563965,4572.94873,4548.077148,4429.230957,4514.615234,,,,,,,,,,,,,,,,,,,,,,,,,,,,,,,,,,,,,,,,,,,,,,,,,,,,,,,,,,,,,,,,,,,,,,
1769161504.422094,1769161504.42237,62.0,0.0,4261.025879,4285.384766,4346.153809,4329.487305,4279.230957,4282.820313,4282.692383,4287.436035,4259.358887,4270.897461,4570.897461,4549.230957,4428.205078,4507.307617,0.374796,0.426988,0.428415,0.397922,0.169342,0.379137,0.247702,0.205613,0.180963,0.102126,0.206628,0.083502,0.2488,0.156982,0.064656,0.221834,0.105387,0.109629,0.106642,0.087168,0.144361,0.174164,0.2547,0.111512,0.072906,0.114371,0.160641,0.101285,0.133237,0.172258,0.073321,0.28712,0.243579,0.096888,0.10141,0.179521,0.279841,0.152396,0.220193,0.256135,0.250188,0.176984,0.154785,0.098134,0.116147,0.240329,0.74904,0.600285,0.237275,0.182432,0.750468,0.269974,0.400564,0.246477,0.2459,0.635101,0.227264,0.385021,0.225017,0.126267,0.904445,0.276741,0.476062,0.284229,0.154998,0.781832,0.247568,0.286064,0.304262,0.22501
1769161504.429903,1769161504.430179,63.0,0.0,4261.025879,4284.487305,4343.846191,4327.94873,4276.922852,4277.307617,4280.256348,4284.871582,4258.333496,4271.282227,4571.282227,4548.717773,4425.769043,4506.410156,,,,,,,,,,,,,,,,,,,,,,,,,,,,,,,,,,,,,,,,,,,,,,,,,,,,,,,,,,,,,,,,,,,,,,
1769161504.437711,1769161504.438187,64.0,0.0,4264.102539,4289.615234,4343.589844,4330.641113,4275.897461,4280.769043,4279.102539,4280.641113,4257.179688,4264.871582,4574.487305,4554.615234,4427.436035,4514.487305,,,,,,,,,,,,,,,,,,,,,,,,,,,,,,,,,,,,,,,,,,,,,,,,,,,,,,,,,,,,,,,,,,,,,,
1769161504.44552,1769161504.445995,65.0,0.0,4265.512695,4292.436035,4343.461426,4334.102539,4279.871582,4288.974121,4279.230957,4282.05127,4254.615234,4263.974121,4572.820313,4555.897461,4429.615234,4518.461426,,,,,,,,,,,,,,,,,,,,,,,,,,,,,,,,,,,,,,,,,,,,,,,,,,,,,,,,,,,,,,,,,,,,,,
1769161504.453328,1769161504.453704,66.0,0.0,4263.205078,4289.358887,4337.563965,4328.461426,4280.128418,4282.820313,4277.307617,4282.05127,4255.512695,4271.666504,4566.922852,4545.128418,4423.461426,4509.102539,,,,,,,,,,,,,,,,,,,,,,,,,,,,,,,,,,,,,,,,,,,,,,,,,,,,,,,,,,,,,,,,,,,,,,
1769161504.461137,1769161504.461512,67.0,0.0,4254.871582,4290.384766,4333.717773,4323.974121,4278.333496,4278.974121,4279.871582,4281.666504,4258.974121,4273.717773,4565.0,4537.820313,4416.025879,4499.871582,,,,,,,,,,,,,,,,,,,,,,,,,,,,,,,,,,,,,,,,,,,,,,,,,,,,,,,,,,,,,,,,,,,,,,
1769161504.468945,1769161504.469121,68.0,0.0,4252.692383,4293.205078,4333.205078,4326.922852,4280.128418,4282.436035,4282.436035,4281.025879,4255.128418,4268.205078,4568.846191,4540.0,4417.436035,4504.871582,,,,,,,,,,,,,,,,,,,,,,,,,,,,,,,,,,,,,,,,,,,,,,,,,,,,,,,,,,,,,,,,,,,,,,
1769161504.476754,1769161504.476929,69.0,0.0,4255.897461,4285.897461,4329.487305,4323.974121,4282.563965,4282.179688,4279.230957,4278.077148,4247.436035,4264.615234,4571.282227,4542.179688,4416.666504,4510.0,,,,,,,,,,,,,,,,,,,,,,,,,,,,,,,,,,,,,,,,,,,,,,,,,,,,,,,,,,,,,,,,,,,,,,
1769161504.484562,1769161504.484638,70.0,0.0,4256.666504,4277.94873,4323.205078,4320.0,4282.179688,4282.307617,4276.922852,4276.282227,4247.436035,4267.05127,4568.974121,4537.307617,4414.487305,4503.974121,,,,,,,,,,,,,,,,,,,,,,,,,,,,,,,,,,,,,,,,,,,,,,,,,,,,,,,,,,,,,,,,,,,,,,
1769161504.49237,1769161504.492446,71.0,0.0,4256.922852,4279.230957,4320.256348,4324.358887,4277.820313,4272.94873,4276.666504,4279.102539,4256.666504,4273.205078,4570.0,4536.410156,4422.307617,4503.461426,,,,,,,,,,,,,,,,,,,,,,,,,,,,,,,,,,,,,,,,,,,,,,,,,,,,,,,,,,,,,,,,,,,,,,
1769161504.500179,1769161504.500455,72.0,0.0,4261.538574,4285.769043,4321.922852,4327.563965,4273.717773,4258.461426,4275.769043,4282.179688,4265.897461,4279.615234,4580.128418,4548.461426,4437.05127,4514.358887,,,,,,,,,,,,,,,,,,,,,,,,,,,,,,,,,,,,,,,,,,,,,,,,,,,,,,,,,,,,,,,,,,,,,,
1769161504.507987,1769161504.508263,73.0,0.0,4267.179688,4291.922852,4326.025879,4332.05127,4275.897461,4267.692383,4277.692383,4280.256348,4265.512695,4284.102539,4589.487305,4557.692383,4446.666504,4524.871582,,,,,,,,,,,,,,,,,,,,,,,,,,,,,,,,,,,,,,,,,,,,,,,,,,,,,,,,,,,,,,,,,,,,,,
1769161504.515796,1769161504.516172,74.0,0.0,4267.94873,4294.743652,4325.0,4340.769043,4282.820313,4284.102539,4281.153809,4277.692383,4255.384766,4281.282227,4584.871582,4549.871582,4443.589844,4521.153809,,,,,,,,,,,,,,,,,,,,,,,,,,,,,,,,,,,,,,,,,,,,,,,,,,,,,,,,,,,,,,,,,,,,,,
1769161504.523604,1769161504.52398,75.0,0.0,4266.153809,4294.487305,4316.153809,4339.871582,4283.717773,4281.922852,4280.897461,4278.077148,4249.871582,4268.589844,4572.94873,4538.589844,4433.846191,4511.410156,,,,,,,,,,,,,,,,,,,,,,,,,,,,,,,,,,,,,,,,,,,,,,,,,,,,,,,,,,,,,,,,,,,,,,
1769161504.531413,1769161504.531988,76.0,0.0,4262.692383,4289.230957,4309.487305,4328.717773,4276.922852,4279.102539,4280.769043,4280.0,4251.922852,4262.692383,4569.102539,4538.333496,4426.282227,4505.512695,,,,,,,,,,,,,,,,,,,,,,,,,,,,,,,,,,,,,,,,,,,,,,,,,,,,,,,,,,,,,,,,,,,,,,
1769161504.539221,1769161504.539797,77.0,0.0,4258.974121,4282.563965,4309.743652,4325.384766,4275.384766,4281.410156,4281.666504,4280.128418,4251.410156,4271.282227,4571.666504,4540.897461,4426.410156,4505.897461,,,,,,,,,,,,,,,,,,,,,,,,,,,,,,,,,,,,,,,,,,,,,,,,,,,,,,,,,,,,,,,,,,,,,,
1769161504.54703,1769161504.547705,78.0,0.0,4252.692383,4280.384766,4309.358887,4328.846191,4277.563965,4278.717773,4278.077148,4277.307617,4247.179688,4271.410156,4570.0,4539.487305,4428.205078,4508.461426,0.374423,0.412355,0.462746,0.374062,0.171045,0.352981,0.227756,0.223911,0.181961,0.09851,0.19672,0.091451,0.260887,0.155155,0.057157,0.185623,0.062403,0.123453,0.118245,0.086738,0.15871,0.162894,0.242939,0.112193,0.082734,0.109803,0.181528,0.098009,0.149099,0.194472,0.083621,0.271365,0.263634,0.103031,0.115069,0.184213,0.231548,0.175047,0.208293,0.261267,0.203174,0.172602,0.206432,0.085298,0.098979,0.2323,0.705076,0.606489,0.212354,0.18435,0.660735,0.288741,0.386013,0.238767,0.215485,0.584379,0.258391,0.378754,0.206592,0.120638,0.835579,0.282014,0.492673,0.294453,0.154527,0.692449,0.240314,0.312241,0.299348,0.206488
1769161504.554838,1769161504.555513,79.0,0.0,4251.538574,4283.717773,4305.128418,4326.794922,4273.717773,4277.94873,4276.794922,4277.563965,4246.025879,4264.871582,4567.307617,4538.205078,4423.846191,4505.641113,,,,,,,,,,,,,,,,,,,,,,,,,,,,,,,,,,,,,,,,,,,,,,,,,,,,,,,,,,,,,,,,,,,,,,
1769161504.562647,1769161504.563422,80.0,0.0,4258.846191,4287.05127,4305.256348,4327.436035,4274.230957,4282.05127,4285.0,4282.05127,4250.769043,4267.94873,4569.230957,4539.743652,4422.05127,4505.256348,,,,,,,,,,,,,,,,,,,,,,,,,,,,,,,,,,,,,,,,,,,,,,,,,,,,,,,,,,,,,,,,,,,,,,
1769161504.570455,1769161504.57123,81.0,0.0,4262.820313,4286.282227,4308.461426,4332.179688,4280.256348,4283.974121,4293.846191,4282.820313,4249.230957,4268.589844,4570.384766,4539.871582,4425.769043,4506.025879,,,,,,,,,,,,,,,,,,,,,,,,,,,,,,,,,,,,,,,,,,,,,,,,,,,,,,,,,,,,,,,,,,,,,,
1769161504.578263,1769161504.579139,82.0,0.0,4263.717773,4290.384766,4309.743652,4334.743652,4278.717773,4280.384766,4287.05127,4278.333496,4245.256348,4268.717773,4572.307617,4539.743652,4427.05127,4504.743652,,,,,,,,,,,,,,,,,,,,,,,,,,,,,,,,,,,,,,,,,,,,,,,,,,,,,,,,,,,,,,,,,,,,,,
1769161504.586072,1769161504.586947,83.0,0.0,4265.897461,4299.102539,4311.410156,4340.512695,4278.717773,4276.282227,4274.743652,4278.333496,4254.230957,4279.230957,4581.025879,4547.179688,4433.589844,4515.256348,,,,,,,,,,,,,,,,,,,,,,,,,,,,,,,,,,,,,,,,,,,,,,,,,,,,,,,,,,,,,,,,,,,,,,
1769161504.59388,1769161504.594556,84.0,0.0,4263.974121,4297.05127,4311.538574,4341.025879,4285.641113,4278.333496,4275.769043,4281.666504,4262.94873,4284.615234,4588.205078,4554.230957,4443.461426,4524.358887,,,,,,,,,,,,,,,,,,,,,,,,,,,,,,,,,,,,,,,,,,,,,,,,,,,,,,,,,,,,,,,,,,,,,,
1769161504.601689,1769161504.602364,85.0,0.0,4261.538574,4290.256348,4310.897461,4332.563965,4285.384766,4280.897461,4281.666504,4282.436035,4254.487305,4279.230957,4581.794922,4549.615234,4436.153809,4512.05127,,,,,,,,,,,,,,,,,,,,,,,,,,,,,,,,,,,,,,,,,,,,,,,,,,,,,,,,,,,,,,,,,,,,,,
1769161504.609497,1769161504.610073,86.0,0.0,4267.05127,4293.974121,4309.871582,4332.05127,4280.256348,4279.743652,4278.589844,4283.077148,4246.666504,4279.230957,4572.179688,4544.487305,4423.846191,4501.794922,,,,,,,,,,,,,,,,,,,,,,,,,,,,,,,,,,,,,,,,,,,,,,,,,,,,,,,,,,,,,,,,,,,,,,
1769161504.617306,1769161504.617881,87.0,0.0,4268.461426,4294.230957,4302.563965,4335.769043,4279.358887,4278.974121,4278.974121,4282.692383,4249.487305,4277.692383,4569.871582,4542.94873,4428.461426,4508.717773,,,,,,,,,,,,,,,,,,,,,,,,,,,,,,,,,,,,,,,,,,,,,,,,,,,,,,,,,,,,,,,,,,,,,,
1769161504.625114,1769161504.625889,88.0,0.0,4260.897461,4282.307617,4293.974121,4328.717773,4278.589844,4280.256348,4285.512695,4279.743652,4247.563965,4267.94873,4567.563965,4536.410156,4429.102539,4506.666504,,,,,,,,,,,,,,,,,,,,,,,,,,,,,,,,,,,,,,,,,,,,,,,,,,,,,,,,,,,,,,,,,,,,,,
1769161504.632923,1769161504.633698,89.0,0.0,4262.94873,4279.230957,4295.897461,4323.974121,4276.538574,4281.282227,4283.717773,4279.615234,4244.230957,4270.0,4569.615234,4536.794922,4425.128418,4501.538574,,,,,,,,,,,,,,,,,,,,,,,,,,,,,,,,,,,,,,,,,,,,,,,,,,,,,,,,,,,,,,,,,,,,,,
1769161504.640731,1769161504.641606,90.0,0.0,4265.128418,4285.384766,4298.589844,4327.94873,4274.615234,4281.922852,4277.05127,4280.0,4245.897461,4278.333496,4571.282227,4542.307617,4430.128418,4508.717773,,,,,,,,,,,,,,,,,,,,,,,,,,,,,,,,,,,,,,,,,,,,,,,,,,,,,,,,,,,,,,,,,,,,,,
1769161504.648539,1769161504.649415,91.0,0.0,4253.974121,4281.538574,4291.410156,4322.820313,4273.974121,4278.846191,4276.538574,4276.025879,4243.077148,4271.025879,4561.153809,4532.820313,4425.769043,4505.897461,,,,,,,,,,,,,,,,,,,,,,,,,,,,,,,,,,,,,,,,,,,,,,,,,,,,,,,,,,,,,,,,,,,,,,
1769161504.656348,1769161504.657023,92.0,0.0,4247.179688,4272.94873,4286.538574,4315.512695,4275.897461,4275.512695,4278.717773,4273.846191,4238.077148,4260.384766,4553.205078,4520.512695,4414.615234,4493.077148,,,,,,,,,,,,,,,,,,,,,,,,,,,,,,,,,,,,,,,,,,,,,,,,,,,,,,,,,,,,,,,,,,,,,,
1769161504.664156,1769161504.664832,93.0,0.0,4249.358887,4270.641113,4286.410156,4316.025879,4275.0,4276.922852,4278.589844,4275.769043,4238.717773,4261.025879,4556.282227,4521.666504,4413.077148,4489.743652,,,,,,,,,,,,,,,,,,,,,,,,,,,,,,,,,,,,,,,,,,,,,,,,,,,,,,,,,,,,,,,,,,,,,,
1769161504.671965,1769161504.67254,94.0,0.0,4250.256348,4273.846191,4286.410156,4318.974121,4274.358887,4277.820313,4277.563965,4276.538574,4244.358887,4262.307617,4556.410156,4524.743652,4413.589844,4492.692383,0.35296,0.396979,0.515249,0.347599,0.174787,0.339538,0.223932,0.24507,0.180783,0.096699,0.186629,0.100387,0.273692,0.15262,0.055027,0.147666,0.041278,0.14924,0.129922,0.090131,0.184706,0.17575,0.234902,0.115556,0.08923,0.099468,0.205992,0.103944,0.166921,0.214362,0.101884,0.253575,0.27441,0.11177,0.130483,0.216203,0.228302,0.208894,0.197811,0.248044,0.198874,0.204818,0.267645,0.079463,0.090772,0.230459,0.649648,0.628146,0.20797,0.19943,0.546745,0.29838,0.369489,0.224261,0.183473,0.488444,0.282702,0.356714,0.180766,0.118606,0.774023,0.293075,0.490644,0.296677,0.157163,0.597643,0.261737,0.339513,0.302508,0.207948
1769161504.679773,1769161504.680349,95.0,0.0,4249.358887,4276.153809,4291.282227,4320.897461,4276.282227,4278.205078,4279.230957,4278.461426,4247.563965,4263.461426,4555.641113,4522.692383,4410.384766,4491.410156,,,,,,,,,,,,,,,,,,,,,,,,,,,,,,,,,,,,,,,,,,,,,,,,,,,,,,,,,,,,,,,,,,,,,,
1769161504.687582,1769161504.687957,96.0,0.0,4248.205078,4272.307617,4293.205078,4319.871582,4273.333496,4280.641113,4281.153809,4280.0,4246.282227,4266.153809,4558.461426,4522.94873,4409.871582,4489.615234,,,,,,,,,,,,,,,,,,,,,,,,,,,,,,,,,,,,,,,,,,,,,,,,,,,,,,,,,,,,,,,,,,,,,,
1769161504.69539,1769161504.695766,97.0,0.0,4245.769043,4271.410156,4289.615234,4320.128418,4271.282227,4280.128418,4280.256348,4278.846191,4245.897461,4263.717773,4557.307617,4521.025879,4411.025879,4490.128418,,,,,,,,,,,,,,,,,,,,,,,,,,,,,,,,,,,,,,,,,,,,,,,,,,,,,,,,,,,,,,,,,,,,,,
1769161504.703199,1769161504.703674,98.0,0.0,4247.94873,4278.846191,4292.307617,4324.102539,4278.077148,4280.0,4284.358887,4282.94873,4248.205078,4264.358887,4560.256348,4523.846191,4411.538574,4492.563965,,,,,,,,,,,,,,,,,,,,,,,,,,,,,,,,,,,,,,,,,,,,,,,,,,,,,,,,,,,,,,,,,,,,,,
1769161504.711007,1769161504.711483,99.0,0.0,4252.692383,4281.666504,4298.974121,4327.179688,4276.153809,4282.820313,4289.487305,4288.589844,4251.025879,4268.461426,4566.025879,4534.358887,4413.846191,4495.641113,,,,,,,,,,,,,,,,,,,,,,,,,,,,,,,,,,,,,,,,,,,,,,,,,,,,,,,,,,,,,,,,,,,,,,
1769161504.718816,1769161504.719491,100.0,0.0,4251.666504,4276.410156,4297.692383,4326.025879,4266.538574,4282.179688,4282.820313,4282.692383,4250.256348,4266.666504,4560.384766,4532.94873,4413.717773,4494.743652,,,,,,,,,,,,,,,,,,,,,,,,,,,,,,,,,,,,,,,,,,,,,,,,,,,,,,,,,,,,,,,,,,,,,,
1769161504.726624,1769161504.727299,101.0,0.0,4248.846191,4277.179688,4294.871582,4325.512695,4270.769043,4279.230957,4275.128418,4274.487305,4247.179688,4262.94873,4554.102539,4521.794922,4412.436035,4492.307617,,,,,,,,,,,,,,,,,,,,,,,,,,,,,,,,,,,,,,,,,,,,,,,,,,,,,,,,,,,,,,,,,,,,,,
1769161504.734433,1769161504.735208,102.0,0.0,4249.743652,4279.358887,4294.743652,4323.846191,4276.282227,4280.128418,4278.846191,4278.461426,4244.487305,4260.897461,4556.282227,4520.0,4412.692383,4491.282227,,,,,,,,,,,,,,,,,,,,,,,,,,,,,,,,,,,,,,,,,,,,,,,,,,,,,,,,,,,,,,,,,,,,,,
1769161504.742241,1769161504.743016,103.0,0.0,4252.94873,4276.794922,4295.0,4321.025879,4269.102539,4280.769043,4283.589844,4277.94873,4243.461426,4260.0,4558.205078,4524.871582,4412.94873,4491.410156,,,,,,,,,,,,,,,,,,,,,,,,,,,,,,,,,,,,,,,,,,,,,,,,,,,,,,,,,,,,,,,,,,,,,,
1769161504.750049,1769161504.751024,104.0,0.0,4251.538574,4276.666504,4296.410156,4319.358887,4265.256348,4279.230957,4278.974121,4274.871582,4246.922852,4261.666504,4557.692383,4524.743652,4412.436035,4492.692383,,,,,,,,,,,,,,,,,,,,,,,,,,,,,,,,,,,,,,,,,,,,,,,,,,,,,,,,,,,,,,,,,,,,,,
1769161504.757858,1769161504.758833,105.0,0.0,4245.128418,4270.384766,4291.153809,4313.077148,4265.128418,4278.461426,4280.769043,4285.512695,4252.179688,4264.230957,4555.256348,4523.205078,4410.256348,4490.897461,,,,,,,,,,,,,,,,,,,,,,,,,,,,,,,,,,,,,,,,,,,,,,,,,,,,,,,,,,,,,,,,,,,,,,
1769161504.765666,1769161504.766741,106.0,0.0,4246.282227,4265.128418,4287.94873,4311.153809,4265.769043,4278.846191,4288.333496,4285.384766,4249.871582,4263.717773,4553.333496,4522.307617,4410.769043,4490.0,,,,,,,,,,,,,,,,,,,,,,,,,,,,,,,,,,,,,,,,,,,,,,,,,,,,,,,,,,,,,,,,,,,,,,
1769161504.773475,1769161504.77455,107.0,0.0,4251.153809,4273.333496,4297.563965,4320.897461,4272.563965,4280.128418,4285.128418,4269.615234,4243.205078,4260.0,4558.974121,4522.179688,4412.692383,4492.563965,,,,,,,,,,,,,,,,,,,,,,,,,,,,,,,,,,,,,,,,,,,,,,,,,,,,,,,,,,,,,,,,,,,,,,
1769161504.781283,1769161504.782558,108.0,0.0,4250.256348,4279.358887,4302.692383,4325.769043,4272.94873,4274.230957,4276.922852,4270.128418,4245.769043,4263.974121,4563.717773,4528.846191,4413.846191,4494.487305,,,,,,,,,,,,,,,,,,,,,,,,,,,,,,,,,,,,,,,,,,,,,,,,,,,,,,,,,,,,,,,,,,,,,,
1769161504.789092,1769161504.790366,109.0,0.0,4252.307617,4276.153809,4300.256348,4323.589844,4268.717773,4266.794922,4275.512695,4283.077148,4253.333496,4269.487305,4564.743652,4535.641113,4420.0,4498.846191,,,,,,,,,,,,,,,,,,,,,,,,,,,,,,,,,,,,,,,,,,,,,,,,,,,,,,,,,,,,,,,,,,,,,,
1769161504.7969,1769161504.798075,110.0,0.0,4258.589844,4278.589844,4303.974121,4325.641113,4275.128418,4271.666504,4276.282227,4278.717773,4251.666504,4266.410156,4567.94873,4532.179688,4426.153809,4507.179688,0.315191,0.38299,0.577824,0.329236,0.182405,0.33628,0.221228,0.274665,0.181919,0.097125,0.175304,0.105326,0.284714,0.148959,0.057684,0.112798,0.036795,0.19021,0.138634,0.097347,0.222797,0.206712,0.230527,0.123737,0.091848,0.086689,0.228196,0.117563,0.183726,0.230728,0.127214,0.234434,0.272055,0.121309,0.146725,0.256264,0.255038,0.235859,0.189923,0.218041,0.220154,0.273996,0.318759,0.083325,0.089716,0.238315,0.591261,0.655623,0.221579,0.225021,0.450732,0.300898,0.350519,0.206521,0.1541,0.379702,0.301892,0.329765,0.156256,0.122021,0.757361,0.315122,0.477509,0.290677,0.158715,0.53523,0.314533,0.35998,0.318277,0.232517
1769161504.804709,1769161504.805883,111.0,0.0,4259.871582,4285.512695,4310.0,4327.436035,4282.307617,4280.256348,4275.897461,4271.025879,4246.282227,4266.666504,4569.358887,4524.615234,4422.05127,4508.974121,,,,,,,,,,,,,,,,,,,,,,,,,,,,,,,,,,,,,,,,,,,,,,,,,,,,,,,,,,,,,,,,,,,,,,
1769161504.812517,1769161504.813492,112.0,0.0,4259.487305,4283.333496,4310.384766,4326.282227,4276.025879,4279.230957,4278.205078,4275.897461,4247.436035,4270.128418,4564.615234,4523.589844,4413.461426,4499.358887,,,,,,,,,,,,,,,,,,,,,,,,,,,,,,,,,,,,,,,,,,,,,,,,,,,,,,,,,,,,,,,,,,,,,,
1769161504.820325,1769161504.8213,113.0,0.0,4260.0,4278.461426,4310.384766,4326.794922,4269.230957,4277.179688,4280.256348,4280.256348,4248.589844,4264.102539,4560.641113,4524.871582,4411.538574,4493.333496,,,,,,,,,,,,,,,,,,,,,,,,,,,,,,,,,,,,,,,,,,,,,,,,,,,,,,,,,,,,,,,,,,,,,,
1769161504.828134,1769161504.829209,114.0,0.0,4255.384766,4277.94873,4307.94873,4326.282227,4272.94873,4279.871582,4280.256348,4280.256348,4248.333496,4262.436035,4564.102539,4524.102539,4413.461426,4500.897461,,,,,,,,,,,,,,,,,,,,,,,,,,,,,,,,,,,,,,,,,,,,,,,,,,,,,,,,,,,,,,,,,,,,,,
1769161504.835942,1769161504.837017,115.0,0.0,4253.461426,4280.769043,4304.615234,4324.615234,4276.282227,4278.333496,4279.230957,4278.077148,4254.358887,4271.282227,4563.846191,4523.333496,4413.717773,4504.871582,,,,,,,,,,,,,,,,,,,,,,,,,,,,,,,,,,,,,,,,,,,,,,,,,,,,,,,,,,,,,,,,,,,,,,
1769161504.843751,1769161504.845025,116.0,0.0,4258.205078,4282.436035,4308.974121,4326.410156,4275.512695,4276.410156,4276.794922,4279.358887,4259.871582,4269.871582,4557.05127,4523.974121,4412.94873,4495.384766,,,,,,,,,,,,,,,,,,,,,,,,,,,,,,,,,,,,,,,,,,,,,,,,,,,,,,,,,,,,,,,,,,,,,,
1769161504.851559,1769161504.852834,117.0,0.0,4260.897461,4279.871582,4311.538574,4326.922852,4273.974121,4280.0,4278.846191,4281.282227,4251.153809,4258.589844,4555.897461,4523.846191,4411.025879,4488.974121,,,,,,,,,,,,,,,,,,,,,,,,,,,,,,,,,,,,,,,,,,,,,,,,,,,,,,,,,,,,,,,,,,,,,,
1769161504.859368,1769161504.860542,118.0,0.0,4262.563965,4278.717773,4306.538574,4325.128418,4270.384766,4281.538574,4279.615234,4278.589844,4248.846191,4264.230957,4563.077148,4523.205078,4412.692383,4493.846191,,,,,,,,,,,,,,,,,,,,,,,,,,,,,,,,,,,,,,,,,,,,,,,,,,,,,,,,,,,,,,,,,,,,,,
1769161504.867176,1769161504.868351,119.0,0.0,4258.461426,4279.487305,4305.641113,4325.128418,4267.05127,4277.94873,4277.563965,4277.436035,4261.666504,4275.769043,4568.589844,4522.436035,4415.897461,4493.846191,,,,,,,,,,,,,,,,,,,,,,,,,,,,,,,,,,,,,,,,,,,,,,,,,,,,,,,,,,,,,,,,,,,,,,
1769161504.874985,1769161504.875959,120.0,0.0,4250.897461,4277.692383,4309.358887,4325.897461,4267.94873,4276.666504,4278.461426,4278.461426,4260.128418,4269.615234,4561.794922,4522.436035,4414.615234,4489.487305,,,,,,,,,,,,,,,,,,,,,,,,,,,,,,,,,,,,,,,,,,,,,,,,,,,,,,,,,,,,,,,,,,,,,,
1769161504.882793,1769161504.883768,121.0,0.0,4255.769043,4277.179688,4309.102539,4326.410156,4269.615234,4280.256348,4280.0,4278.077148,4247.820313,4259.615234,4556.153809,4523.717773,4411.025879,4492.179688,,,,,,,,,,,,,,,,,,,,,,,,,,,,,,,,,,,,,,,,,,,,,,,,,,,,,,,,,,,,,,,,,,,,,,
1769161504.890602,1769161504.891476,122.0,0.0,4267.436035,4281.025879,4309.358887,4327.94873,4269.102539,4275.641113,4277.94873,4277.563965,4249.871582,4264.358887,4560.769043,4524.358887,4412.05127,4496.025879,,,,,,,,,,,,,,,,,,,,,,,,,,,,,,,,,,,,,,,,,,,,,,,,,,,,,,,,,,,,,,,,,,,,,,
1769161504.89841,1769161504.899285,123.0,0.0,4261.538574,4281.922852,4312.179688,4328.846191,4267.820313,4265.512695,4275.897461,4276.282227,4253.461426,4268.077148,4562.820313,4524.102539,4413.077148,4495.384766,,,,,,,,,,,,,,,,,,,,,,,,,,,,,,,,,,,,,,,,,,,,,,,,,,,,,,,,,,,,,,,,,,,,,,
1769161504.906218,1769161504.907293,124.0,0.0,4249.615234,4276.666504,4307.179688,4325.897461,4265.641113,4266.794922,4277.692383,4273.461426,4246.538574,4260.256348,4554.743652,4521.794922,4408.205078,4491.153809,,,,,,,,,,,,,,,,,,,,,,,,,,,,,,,,,,,,,,,,,,,,,,,,,,,,,,,,,,,,,,,,,,,,,,
1769161504.914027,1769161504.915102,125.0,0.0,4249.358887,4274.102539,4298.974121,4322.436035,4267.692383,4278.077148,4278.974121,4275.128418,4242.179688,4259.102539,4552.94873,4519.487305,4407.05127,4488.461426,,,,,,,,,,,,,,,,,,,,,,,,,,,,,,,,,,,,,,,,,,,,,,,,,,,,,,,,,,,,,,,,,,,,,,
1769161504.921835,1769161504.92301,126.0,0.0,4251.794922,4275.641113,4299.743652,4321.282227,4271.410156,4283.589844,4279.871582,4279.487305,4246.666504,4265.0,4557.94873,4519.743652,4412.692383,4489.230957,0.302317,0.37625,0.635087,0.321275,0.19313,0.345118,0.213672,0.319637,0.187021,0.099902,0.178673,0.109999,0.289735,0.142094,0.062911,0.088097,0.048965,0.248138,0.142111,0.106893,0.265076,0.246003,0.228543,0.135269,0.091547,0.07902,0.246133,0.136577,0.19935,0.242187,0.157699,0.216923,0.257499,0.130927,0.16185,0.29368,0.292845,0.24047,0.181134,0.17902,0.260861,0.37319,0.341627,0.097579,0.092812,0.258682,0.541758,0.669784,0.24579,0.253562,0.402037,0.313497,0.33209,0.188384,0.130472,0.304114,0.327896,0.309577,0.139162,0.131568,0.795651,0.360297,0.469765,0.277568,0.156047,0.53893,0.391832,0.371518,0.341569,0.276042
1769161504.929644,1769161504.930818,127.0,0.0,4255.384766,4278.461426,4303.846191,4322.436035,4272.820313,4281.282227,4281.153809,4278.717773,4252.563965,4262.179688,4556.025879,4520.769043,4414.487305,4491.666504,,,,,,,,,,,,,,,,,,,,,,,,,,,,,,,,,,,,,,,,,,,,,,,,,,,,,,,,,,,,,,,,,,,,,,
1769161504.937452,1769161504.938827,0.0,0.0,4264.358887,4280.512695,4305.769043,4326.666504,4272.436035,4278.205078,4279.615234,4279.102539,4258.974121,4262.692383,4558.846191,4522.307617,4413.205078,4494.743652,,,,,,,,,,,,,,,,,,,,,,,,,,,,,,,,,,,,,,,,,,,,,,,,,,,,,,,,,,,,,,,,,,,,,,
1769161504.945261,1769161504.946635,1.0,0.0,4267.436035,4277.436035,4304.615234,4327.94873,4268.717773,4276.282227,4277.179688,4287.05127,4264.230957,4272.563965,4567.563965,4525.128418,4414.615234,4495.641113,,,,,,,,,,,,,,,,,,,,,,,,,,,,,,,,,,,,,,,,,,,,,,,,,,,,,,,,,,,,,,,,,,,,,,
1769161504.953069,1769161504.954344,2.0,0.0,4262.436035,4274.743652,4296.922852,4322.05127,4268.461426,4276.025879,4279.230957,4286.410156,4261.025879,4274.358887,4567.563965,4526.410156,4415.512695,4493.589844,,,,,,,,,,,,,,,,,,,,,,,,,,,,,,,,,,,,,,,,,,,,,,,,,,,,,,,,,,,,,,,,,,,,,,
1769161504.960878,1769161504.962152,3.0,0.0,4260.128418,4277.436035,4293.846191,4318.077148,4273.717773,4276.282227,4281.282227,4270.384766,4248.846191,4266.153809,4561.410156,4523.846191,4412.94873,4492.307617,,,,,,,,,,,,,,,,,,,,,,,,,,,,,,,,,,,,,,,,,,,,,,,,,,,,,,,,,,,,,,,,,,,,,,
1769161504.968686,1769161504.969761,4.0,0.0,4260.897461,4278.205078,4302.05127,4320.128418,4270.897461,4275.256348,4277.820313,4262.563965,4242.436035,4263.846191,4555.641113,4519.230957,4410.512695,4492.436035,,,,,,,,,,,,,,,,,,,,,,,,,,,,,,,,,,,,,,,,,,,,,,,,,,,,,,,,,,,,,,,,,,,,,,
1769161504.976494,1769161504.977569,5.0,0.0,4259.871582,4275.128418,4305.769043,4321.282227,4263.846191,4275.256348,4279.615234,4272.820313,4248.589844,4266.153809,4555.512695,4521.538574,4410.641113,4492.563965,,,,,,,,,,,,,,,,,,,,,,,,,,,,,,,,,,,,,,,,,,,,,,,,,,,,,,,,,,,,,,,,,,,,,,
1769161504.984303,1769161504.985278,6.0,0.0,4255.641113,4272.436035,4297.436035,4317.307617,4266.153809,4279.230957,4286.922852,4284.358887,4254.102539,4263.589844,4562.563965,4531.666504,4412.179688,4492.307617,,,,,,,,,,,,,,,,,,,,,,,,,,,,,,,,,,,,,,,,,,,,,,,,,,,,,,,,,,,,,,,,,,,,,,
1769161504.992111,1769161504.993086,7.0,0.0,4247.436035,4267.307617,4289.487305,4311.025879,4267.692383,4279.871582,4286.282227,4282.820313,4250.128418,4262.94873,4564.102539,4533.461426,4411.282227,4491.025879,,,,,,,,,,,,,,,,,,,,,,,,,,,,,,,,,,,,,,,,,,,,,,,,,,,,,,,,,,,,,,,,,,,,,,
1769161504.99992,1769161505.000695,8.0,0.0,4244.230957,4261.666504,4290.0,4307.436035,4261.794922,4270.897461,4279.871582,4278.589844,4248.589844,4263.589844,4558.205078,4525.769043,4411.410156,4493.333496,,,,,,,,,,,,,,,,,,,,,,,,,,,,,,,,,,,,,,,,,,,,,,,,,,,,,,,,,,,,,,,,,,,,,,
1769161505.007728,1769161505.008503,9.0,0.0,4248.589844,4265.384766,4293.461426,4312.307617,4260.384766,4269.230957,4278.205078,4284.358887,4253.974121,4260.0,4560.0,4522.05127,4412.307617,4496.666504,,,,,,,,,,,,,,,,,,,,,,,,,,,,,,,,,,,,,,,,,,,,,,,,,,,,,,,,,,,,,,,,,,,,,,
1769161505.015537,1769161505.016212,10.0,0.0,4254.615234,4275.0,4295.384766,4322.692383,4271.025879,4278.717773,4278.717773,4290.256348,4260.641113,4266.538574,4567.692383,4526.922852,4414.102539,4495.641113,,,,,,,,,,,,,,,,,,,,,,,,,,,,,,,,,,,,,,,,,,,,,,,,,,,,,,,,,,,,,,,,,,,,,,
1769161505.023345,1769161505.02402,11.0,0.0,4261.794922,4280.0,4296.666504,4326.410156,4275.769043,4281.538574,4278.333496,4284.743652,4261.025879,4279.487305,4571.538574,4533.846191,4421.025879,4498.589844,,,,,,,,,,,,,,,,,,,,,,,,,,,,,,,,,,,,,,,,,,,,,,,,,,,,,,,,,,,,,,,,,,,,,,
1769161505.031154,1769161505.032028,12.0,0.0,4265.512695,4281.410156,4297.692383,4325.0,4267.05127,4277.820313,4278.461426,4278.205078,4256.794922,4279.871582,4571.922852,4540.769043,4428.974121,4509.230957,,,,,,,,,,,,,,,,,,,,,,,,,,,,,,,,,,,,,,,,,,,,,,,,,,,,,,,,,,,,,,,,,,,,,,
1769161505.038962,1769161505.039837,13.0,0.0,4264.102539,4281.025879,4297.563965,4325.641113,4266.153809,4277.692383,4277.05127,4279.358887,4251.666504,4271.922852,4570.0,4537.436035,4427.94873,4508.077148,,,,,,,,,,,,,,,,,,,,,,,,,,,,,,,,,,,,,,,,,,,,,,,,,,,,,,,,,,,,,,,,,,,,,,
1769161505.04677,1769161505.047745,14.0,0.0,4263.589844,4278.717773,4295.384766,4325.256348,4274.358887,4277.692383,4277.436035,4278.974121,4249.487305,4272.94873,4565.512695,4525.256348,4418.461426,4494.743652,0.311862,0.379762,0.663726,0.318257,0.203182,0.359453,0.206638,0.378207,0.192961,0.104662,0.208422,0.125952,0.282888,0.130275,0.068492,0.087992,0.084758,0.318239,0.139223,0.116197,0.300753,0.282544,0.224011,0.145079,0.0904,0.083221,0.258922,0.157474,0.213863,0.246438,0.188891,0.199659,0.234614,0.140229,0.172798,0.311528,0.32212,0.216854,0.16682,0.142156,0.292975,0.486647,0.325815,0.120154,0.097616,0.284084,0.513604,0.646626,0.271305,0.275307,0.401906,0.358081,0.314151,0.172464,0.11471,0.285967,0.374957,0.300308,0.131261,0.145682,0.870463,0.436753,0.478198,0.260621,0.148789,0.599848,0.477064,0.374891,0.360594,0.326134
1769161505.054579,1769161505.055554,15.0,0.0,4261.282227,4276.922852,4293.846191,4324.230957,4273.333496,4276.922852,4281.153809,4279.743652,4257.05127,4278.333496,4567.563965,4526.153809,4413.077148,4489.743652,,,,,,,,,,,,,,,,,,,,,,,,,,,,,,,,,,,,,,,,,,,,,,,,,,,,,,,,,,,,,,,,,,,,,,
1769161505.062387,1769161505.063162,16.0,0.0,4258.717773,4278.461426,4292.563965,4325.769043,4269.871582,4278.333496,4280.641113,4281.666504,4262.820313,4279.743652,4572.692383,4534.358887,4417.307617,4491.153809,,,,,,,,,,,,,,,,,,,,,,,,,,,,,,,,,,,,,,,,,,,,,,,,,,,,,,,,,,,,,,,,,,,,,,
1769161505.070196,1769161505.070971,17.0,0.0,4259.743652,4278.717773,4291.922852,4326.282227,4272.94873,4277.179688,4277.307617,4281.538574,4259.743652,4280.512695,4570.897461,4533.205078,4425.128418,4494.871582,,,,,,,,,,,,,,,,,,,,,,,,,,,,,,,,,,,,,,,,,,,,,,,,,,,,,,,,,,,,,,,,,,,,,,
1769161505.078004,1769161505.078679,18.0,0.0,4262.94873,4278.589844,4294.102539,4325.0,4269.743652,4276.794922,4280.384766,4287.563965,4261.153809,4275.897461,4569.358887,4533.205078,4428.461426,4500.0,,,,,,,,,,,,,,,,,,,,,,,,,,,,,,,,,,,,,,,,,,,,,,,,,,,,,,,,,,,,,,,,,,,,,,
1769161505.085813,1769161505.086488,19.0,0.0,4269.102539,4281.153809,4298.077148,4326.666504,4264.615234,4278.333496,4286.666504,4291.025879,4261.794922,4271.282227,4572.179688,4540.128418,4421.538574,4497.436035,,,,,,,,,,,,,,,,,,,,,,,,,,,,,,,,,,,,,,,,,,,,,,,,,,,,,,,,,,,,,,,,,,,,,,
1769161505.093621,1769161505.094496,20.0,0.0,4269.487305,4277.05127,4295.512695,4326.922852,4264.615234,4275.641113,4285.128418,4285.256348,4258.846191,4273.461426,4570.897461,4535.256348,4412.563965,4489.102539,,,,,,,,,,,,,,,,,,,,,,,,,,,,,,,,,,,,,,,,,,,,,,,,,,,,,,,,,,,,,,,,,,,,,,
1769161505.10143,1769161505.102305,21.0,0.0,4262.179688,4272.307617,4288.077148,4324.871582,4264.230957,4272.563965,4278.461426,4281.153809,4258.717773,4276.410156,4566.025879,4528.333496,4410.128418,4487.307617,,,,,,,,,,,,,,,,,,,,,,,,,,,,,,,,,,,,,,,,,,,,,,,,,,,,,,,,,,,,,,,,,,,,,,
1769161505.109238,1769161505.110213,22.0,0.0,4264.871582,4276.666504,4290.897461,4326.794922,4269.358887,4273.974121,4276.922852,4280.128418,4253.461426,4275.512695,4567.307617,4533.846191,4414.230957,4494.487305,,,,,,,,,,,,,,,,,,,,,,,,,,,,,,,,,,,,,,,,,,,,,,,,,,,,,,,,,,,,,,,,,,,,,,
1769161505.117046,1769161505.118021,23.0,0.0,4274.743652,4283.461426,4297.94873,4329.102539,4276.794922,4276.666504,4278.717773,4277.436035,4245.256348,4273.974121,4573.077148,4533.717773,4421.153809,4501.666504,,,,,,,,,,,,,,,,,,,,,,,,,,,,,,,,,,,,,,,,,,,,,,,,,,,,,,,,,,,,,,,,,,,,,,
1769161505.124855,1769161505.12603,24.0,0.0,4269.615234,4278.077148,4289.743652,4324.871582,4272.820313,4278.077148,4280.0,4281.410156,4247.820313,4275.641113,4568.205078,4525.256348,4415.769043,4497.436035,,,,,,,,,,,,,,,,,,,,,,,,,,,,,,,,,,,,,,,,,,,,,,,,,,,,,,,,,,,,,,,,,,,,,,
1769161505.132663,1769161505.133838,25.0,0.0,4258.846191,4267.436035,4277.820313,4320.641113,4265.128418,4280.0,4281.794922,4283.461426,4251.922852,4276.025879,4553.461426,4519.358887,4397.563965,4482.563965,,,,,,,,,,,,,,,,,,,,,,,,,,,,,,,,,,,,,,,,,,,,,,,,,,,,,,,,,,,,,,,,,,,,,,
1769161505.140472,1769161505.141547,26.0,0.0,4260.769043,4269.487305,4281.666504,4323.974121,4266.025879,4280.897461,4280.641113,4280.769043,4253.974121,4277.692383,4553.717773,4521.410156,4398.717773,4481.282227,,,,,,,,,,,,,,,,,,,,,,,,,,,,,,,,,,,,,,,,,,,,,,,,,,,,,,,,,,,,,,,,,,,,,,
1769161505.148281,1769161505.149355,27.0,0.0,4262.94873,4275.512695,4288.717773,4326.410156,4268.717773,4275.128418,4280.512695,4285.641113,4263.589844,4280.897461,4568.205078,4531.153809,4419.102539,4490.897461,,,,,,,,,,,,,,,,,,,,,,,,,,,,,,,,,,,,,,,,,,,,,,,,,,,,,,,,,,,,,,,,,,,,,,
1769161505.156089,1769161505.157363,28.0,0.0,4262.820313,4276.922852,4290.512695,4323.717773,4268.846191,4266.922852,4282.307617,4287.820313,4265.641113,4280.0,4575.0,4541.922852,4423.077148,4491.794922,,,,,,,,,,,,,,,,,,,,,,,,,,,,,,,,,,,,,,,,,,,,,,,,,,,,,,,,,,,,,,,,,,,,,,
1769161505.163897,1769161505.165172,29.0,0.0,4269.358887,4277.307617,4291.666504,4323.717773,4267.692383,4263.846191,4280.897461,4281.025879,4254.102539,4278.589844,4567.436035,4535.384766,4412.179688,4489.230957,,,,,,,,,,,,,,,,,,,,,,,,,,,,,,,,,,,,,,,,,,,,,,,,,,,,,,,,,,,,,,,,,,,,,,
1769161505.171706,1769161505.17288,30.0,0.0,4273.077148,4278.974121,4288.717773,4326.025879,4266.282227,4265.256348,4279.615234,4277.820313,4248.974121,4277.307617,4558.717773,4521.538574,4410.384766,4490.128418,0.356307,0.395149,0.649254,0.311062,0.207602,0.382423,0.217868,0.440114,0.19367,0.110366,0.28265,0.16515,0.262389,0.114613,0.073133,0.120133,0.15302,0.388787,0.129836,0.122313,0.321064,0.311799,0.212849,0.147794,0.090585,0.100109,0.267182,0.174499,0.226304,0.241008,0.213579,0.179161,0.208795,0.148434,0.17604,0.300768,0.329802,0.174197,0.14532,0.117364,0.308829,0.595287,0.277359,0.146562,0.103987,0.310916,0.512917,0.575794,0.288989,0.282377,0.439084,0.443013,0.296848,0.159967,0.107103,0.337802,0.445348,0.299862,0.130857,0.160438,0.945336,0.53821,0.502613,0.243348,0.137215,0.706234,0.550866,0.37127,0.363377,0.36489
1769161505.179514,1769161505.180689,31.0,0.0,4269.487305,4276.922852,4282.307617,4325.897461,4267.179688,4264.102539,4276.282227,4279.615234,4250.384766,4277.307617,4560.769043,4526.666504,4415.128418,4490.897461,,,,,,,,,,,,,,,,,,,,,,,,,,,,,,,,,,,,,,,,,,,,,,,,,,,,,,,,,,,,,,,,,,,,,,
1769161505.187323,1769161505.188297,32.0,0.0,4265.128418,4269.487305,4279.871582,4322.436035,4267.05127,4266.153809,4278.205078,4284.487305,4251.538574,4277.563965,4563.974121,4537.563965,4413.846191,4488.974121,,,,,,,,,,,,,,,,,,,,,,,,,,,,,,,,,,,,,,,,,,,,,,,,,,,,,,,,,,,,,,,,,,,,,,
1769161505.195131,1769161505.196106,33.0,0.0,4261.922852,4262.94873,4280.897461,4317.94873,4270.384766,4276.538574,4287.179688,4286.922852,4250.384766,4268.077148,4559.230957,4531.794922,4407.692383,4485.384766,,,,,,,,,,,,,,,,,,,,,,,,,,,,,,,,,,,,,,,,,,,,,,,,,,,,,,,,,,,,,,,,,,,,,,
1769161505.20294,1769161505.203814,34.0,0.0,4264.743652,4265.256348,4280.128418,4319.615234,4276.282227,4277.179688,4286.282227,4281.666504,4249.358887,4261.538574,4553.717773,4521.538574,4406.794922,4479.102539,,,,,,,,,,,,,,,,,,,,,,,,,,,,,,,,,,,,,,,,,,,,,,,,,,,,,,,,,,,,,,,,,,,,,,
1769161505.210748,1769161505.211623,35.0,0.0,4275.256348,4275.512695,4280.0,4325.256348,4273.077148,4267.179688,4276.794922,4277.436035,4251.282227,4272.179688,4555.512695,4519.871582,4412.179688,4476.666504,,,,,,,,,,,,,,,,,,,,,,,,,,,,,,,,,,,,,,,,,,,,,,,,,,,,,,,,,,,,,,,,,,,,,,
1769161505.218557,1769161505.219231,36.0,0.0,4278.974121,4272.692383,4281.538574,4325.128418,4267.307617,4264.230957,4276.282227,4278.589844,4250.512695,4281.025879,4560.256348,4523.589844,4413.846191,4483.077148,,,,,,,,,,,,,,,,,,,,,,,,,,,,,,,,,,,,,,,,,,,,,,,,,,,,,,,,,,,,,,,,,,,,,,
1769161505.226365,1769161505.22704,37.0,0.0,4275.512695,4265.256348,4284.358887,4323.974121,4272.436035,4265.0,4278.717773,4278.589844,4250.128418,4281.025879,4568.461426,4531.410156,4415.0,4492.692383,,,,,,,,,,,,,,,,,,,,,,,,,,,,,,,,,,,,,,,,,,,,,,,,,,,,,,,,,,,,,,,,,,,,,,
1769161505.234173,1769161505.234948,38.0,0.0,4280.512695,4273.589844,4288.974121,4327.563965,4278.205078,4263.461426,4276.794922,4278.589844,4252.05127,4276.666504,4567.179688,4533.333496,4412.820313,4495.128418,,,,,,,,,,,,,,,,,,,,,,,,,,,,,,,,,,,,,,,,,,,,,,,,,,,,,,,,,,,,,,,,,,,,,,
1769161505.241982,1769161505.242757,39.0,0.0,4279.487305,4280.256348,4291.794922,4327.692383,4277.307617,4267.05127,4277.820313,4278.589844,4249.743652,4265.384766,4556.025879,4523.205078,4406.282227,4491.538574,,,,,,,,,,,,,,,,,,,,,,,,,,,,,,,,,,,,,,,,,,,,,,,,,,,,,,,,,,,,,,,,,,,,,,
1769161505.24979,1769161505.250765,40.0,0.0,4267.692383,4274.871582,4291.794922,4323.717773,4277.563965,4270.128418,4279.487305,4278.077148,4246.410156,4263.077148,4561.153809,4523.461426,4409.358887,4490.641113,,,,,,,,,,,,,,,,,,,,,,,,,,,,,,,,,,,,,,,,,,,,,,,,,,,,,,,,,,,,,,,,,,,,,,
1769161505.257599,1769161505.258573,41.0,0.0,4268.077148,4272.94873,4289.358887,4324.230957,4278.717773,4269.358887,4280.128418,4281.282227,4249.743652,4277.05127,4569.871582,4531.922852,4415.769043,4492.179688,,,,,,,,,,,,,,,,,,,,,,,,,,,,,,,,,,,,,,,,,,,,,,,,,,,,,,,,,,,,,,,,,,,,,,
1769161505.265407,1769161505.266282,42.0,0.0,4274.358887,4276.538574,4287.692383,4327.307617,4277.94873,4273.846191,4280.897461,4281.794922,4253.205078,4281.025879,4567.307617,4528.589844,4412.94873,4491.538574,,,,,,,,,,,,,,,,,,,,,,,,,,,,,,,,,,,,,,,,,,,,,,,,,,,,,,,,,,,,,,,,,,,,,,
1769161505.273216,1769161505.27409,43.0,0.0,4268.846191,4274.102539,4286.666504,4326.794922,4275.512695,4277.179688,4279.487305,4278.846191,4251.410156,4271.410156,4562.820313,4523.974121,4411.794922,4490.384766,,,,,,,,,,,,,,,,,,,,,,,,,,,,,,,,,,,,,,,,,,,,,,,,,,,,,,,,,,,,,,,,,,,,,,
1769161505.281024,1769161505.281699,44.0,0.0,4262.436035,4272.179688,4284.102539,4324.102539,4274.743652,4277.436035,4282.563965,4281.025879,4249.230957,4272.563965,4558.461426,4526.025879,4412.820313,4489.102539,,,,,,,,,,,,,,,,,,,,,,,,,,,,,,,,,,,,,,,,,,,,,,,,,,,,,,,,,,,,,,,,,,,,,,
1769161505.288833,1769161505.289507,45.0,0.0,4266.666504,4277.307617,4281.410156,4323.974121,4278.974121,4275.769043,4279.743652,4281.282227,4248.846191,4279.615234,4559.487305,4526.025879,4413.461426,4490.512695,,,,,,,,,,,,,,,,,,,,,,,,,,,,,,,,,,,,,,,,,,,,,,,,,,,,,,,,,,,,,,,,,,,,,,
1769161505.296641,1769161505.297416,46.0,0.0,4270.0,4277.820313,4280.384766,4321.922852,4282.307617,4267.820313,4268.717773,4278.077148,4248.589844,4273.333496,4564.487305,4523.717773,4413.461426,4490.128418,0.408902,0.422306,0.600777,0.29498,0.203215,0.407374,0.258334,0.490349,0.185645,0.115234,0.374644,0.228512,0.233086,0.099256,0.076792,0.185354,0.252059,0.445147,0.116291,0.122855,0.321913,0.331389,0.193869,0.140929,0.093362,0.124532,0.270942,0.181356,0.234598,0.224742,0.22566,0.152146,0.185052,0.153827,0.169396,0.267271,0.312208,0.136466,0.122813,0.109041,0.298562,0.67645,0.22693,0.173021,0.113029,0.329546,0.537827,0.472765,0.292203,0.272926,0.488478,0.552889,0.286505,0.153727,0.106838,0.435057,0.522489,0.303095,0.137153,0.171878,0.98906,0.639351,0.533563,0.230346,0.123055,0.804131,0.595905,0.364755,0.34525,0.377723
1769161505.304449,1769161505.305224,47.0,0.0,4266.794922,4274.743652,4279.615234,4320.384766,4278.333496,4261.922852,4270.641113,4278.077148,4247.05127,4264.487305,4559.358887,4521.538574,4408.077148,4480.769043,,,,,,,,,,,,,,,,,,,,,,,,,,,,,,,,,,,,,,,,,,,,,,,,,,,,,,,,,,,,,,,,,,,,,,
1769161505.312258,1769161505.313232,48.0,0.0,4263.717773,4270.897461,4278.333496,4319.743652,4272.692383,4265.897461,4280.897461,4279.615234,4245.384766,4270.769043,4549.487305,4519.615234,4404.102539,4473.846191,,,,,,,,,,,,,,,,,,,,,,,,,,,,,,,,,,,,,,,,,,,,,,,,,,,,,,,,,,,,,,,,,,,,,,
1769161505.320066,1769161505.321041,49.0,0.0,4265.384766,4267.692383,4277.692383,4315.0,4272.94873,4267.563965,4278.461426,4279.615234,4246.794922,4281.794922,4551.025879,4520.769043,4410.128418,4480.128418,,,,,,,,,,,,,,,,,,,,,,,,,,,,,,,,,,,,,,,,,,,,,,,,,,,,,,,,,,,,,,,,,,,,,,
1769161505.327875,1769161505.328749,50.0,0.0,4273.333496,4271.538574,4280.0,4314.871582,4277.179688,4263.333496,4273.077148,4278.461426,4247.436035,4275.128418,4555.0,4524.487305,4412.94873,4489.102539,,,,,,,,,,,,,,,,,,,,,,,,,,,,,,,,,,,,,,,,,,,,,,,,,,,,,,,,,,,,,,,,,,,,,,
1769161505.335683,1769161505.336558,51.0,0.0,4273.717773,4274.487305,4281.538574,4318.205078,4276.410156,4263.846191,4277.820313,4276.794922,4245.256348,4262.179688,4555.0,4525.641113,4407.563965,4488.589844,,,,,,,,,,,,,,,,,,,,,,,,,,,,,,,,,,,,,,,,,,,,,,,,,,,,,,,,,,,,,,,,,,,,,,
1769161505.343492,1769161505.344167,52.0,0.0,4260.0,4265.769043,4276.153809,4312.436035,4268.717773,4267.307617,4280.0,4275.897461,4245.384766,4264.102539,4555.0,4522.179688,4402.94873,4478.717773,,,,,,,,,,,,,,,,,,,,,,,,,,,,,,,,,,,,,,,,,,,,,,,,,,,,,,,,,,,,,,,,,,,,,,
1769161505.3513,1769161505.351975,53.0,0.0,4254.102539,4258.717773,4271.538574,4305.897461,4269.743652,4267.179688,4276.153809,4278.077148,4245.897461,4274.871582,4552.94873,4518.846191,4402.94873,4473.461426,,,,,,,,,,,,,,,,,,,,,,,,,,,,,,,,,,,,,,,,,,,,,,,,,,,,,,,,,,,,,,,,,,,,,,
1769161505.359109,1769161505.359883,54.0,0.0,4263.461426,4264.487305,4277.820313,4311.922852,4276.538574,4264.358887,4275.384766,4278.717773,4247.179688,4280.128418,4553.974121,4526.025879,4408.205078,4482.94873,,,,,,,,,,,,,,,,,,,,,,,,,,,,,,,,,,,,,,,,,,,,,,,,,,,,,,,,,,,,,,,,,,,,,,
1769161505.366917,1769161505.367692,55.0,0.0,4268.846191,4269.487305,4286.025879,4319.743652,4272.820313,4262.94873,4277.820313,4278.846191,4257.179688,4277.820313,4563.974121,4538.461426,4414.102539,4494.487305,,,,,,,,,,,,,,,,,,,,,,,,,,,,,,,,,,,,,,,,,,,,,,,,,,,,,,,,,,,,,,,,,,,,,,
1769161505.374725,1769161505.3753,56.0,0.0,4264.871582,4265.256348,4283.461426,4318.717773,4264.743652,4266.153809,4279.743652,4279.743652,4260.897461,4279.358887,4565.384766,4540.897461,4413.461426,4492.563965,,,,,,,,,,,,,,,,,,,,,,,,,,,,,,,,,,,,,,,,,,,,,,,,,,,,,,,,,,,,,,,,,,,,,,
1769161505.382534,1769161505.383109,57.0,0.0,4262.436035,4263.589844,4277.94873,4317.436035,4265.512695,4268.205078,4278.077148,4276.025879,4250.641113,4281.538574,4556.025879,4535.512695,4410.384766,4486.922852,,,,,,,,,,,,,,,,,,,,,,,,,,,,,,,,,,,,,,,,,,,,,,,,,,,,,,,,,,,,,,,,,,,,,,
1769161505.390342,1769161505.390817,58.0,0.0,4266.794922,4271.153809,4282.05127,4321.922852,4268.205078,4264.615234,4275.769043,4273.077148,4250.641113,4279.487305,4560.256348,4533.974121,4415.512695,4488.333496,,,,,,,,,,,,,,,,,,,,,,,,,,,,,,,,,,,,,,,,,,,,,,,,,,,,,,,,,,,,,,,,,,,,,,
1769161505.398151,1769161505.398626,59.0,0.0,4274.102539,4279.102539,4290.256348,4328.717773,4266.794922,4263.717773,4275.512695,4277.820313,4263.846191,4278.717773,4573.077148,4536.666504,4426.538574,4490.769043,,,,,,,,,,,,,,,,,,,,,,,,,,,,,,,,,,,,,,,,,,,,,,,,,,,,,,,,,,,,,,,,,,,,,,
1769161505.405959,1769161505.406235,60.0,0.0,4279.615234,4278.589844,4294.743652,4328.205078,4267.436035,4268.846191,4276.666504,4281.410156,4263.846191,4278.717773,4571.153809,4537.94873,4427.436035,4492.05127,,,,,,,,,,,,,,,,,,,,,,,,,,,,,,,,,,,,,,,,,,,,,,,,,,,,,,,,,,,,,,,,,,,,,,
1769161505.413768,1769161505.414043,61.0,0.0,4281.282227,4277.307617,4294.615234,4326.410156,4268.205078,4271.410156,4279.358887,4278.846191,4256.410156,4280.128418,4565.897461,4538.333496,4419.871582,4493.717773,,,,,,,,,,,,,,,,,,,,,,,,,,,,,,,,,,,,,,,,,,,,,,,,,,,,,,,,,,,,,,,,,,,,,,
1769161505.421576,1769161505.421752,62.0,0.0,4279.102539,4277.692383,4293.846191,4327.820313,4267.05127,4265.384766,4278.077148,4277.563965,4258.333496,4277.05127,4569.230957,4535.769043,4416.025879,4492.820313,0.451836,0.458835,0.543228,0.272642,0.189587,0.433211,0.322132,0.51473,0.171016,0.117354,0.475535,0.300537,0.205041,0.089136,0.080487,0.270107,0.362453,0.473569,0.102545,0.11673,0.308253,0.339637,0.168422,0.126796,0.09842,0.148865,0.270548,0.179462,0.237443,0.199217,0.22115,0.120315,0.166137,0.154675,0.153478,0.223038,0.275978,0.128761,0.106986,0.114731,0.267905,0.710584,0.212828,0.195703,0.124836,0.33355,0.575707,0.364027,0.278694,0.251832,0.532253,0.65182,0.286974,0.155008,0.113318,0.542926,0.578462,0.304705,0.151014,0.178726,0.992997,0.704618,0.555865,0.225608,0.110858,0.883115,0.601236,0.359637,0.313181,0.360485
1769161505.429385,1769161505.42956,63.0,0.0,4274.871582,4275.512695,4292.94873,4324.102539,4265.641113,4261.538574,4268.077148,4278.333496,4260.512695,4271.922852,4566.922852,4533.589844,4415.512695,4492.05127,,,,,,,,,,,,,,,,,,,,,,,,,,,,,,,,,,,,,,,,,,,,,,,,,,,,,,,,,,,,,,,,,,,,,,
1769161505.437193,1769161505.437568,64.0,0.0,4275.0,4276.410156,4294.743652,4320.769043,4265.897461,4268.589844,4265.769043,4277.820313,4259.230957,4275.256348,4564.487305,4535.641113,4417.307617,4493.205078,,,,,,,,,,,,,,,,,,,,,,,,,,,,,,,,,,,,,,,,,,,,,,,,,,,,,,,,,,,,,,,,,,,,,,
1769161505.445001,1769161505.445377,65.0,0.0,4280.384766,4279.358887,4299.743652,4325.0,4265.641113,4272.820313,4277.94873,4280.897461,4261.666504,4279.743652,4568.846191,4538.333496,4418.589844,4494.102539,,,,,,,,,,,,,,,,,,,,,,,,,,,,,,,,,,,,,,,,,,,,,,,,,,,,,,,,,,,,,,,,,,,,,,
1769161505.45281,1769161505.453285,66.0,0.0,4281.282227,4278.589844,4304.743652,4328.333496,4263.333496,4265.0,4277.94873,4281.282227,4260.384766,4277.692383,4569.102539,4536.282227,4419.358887,4497.307617,,,,,,,,,,,,,,,,,,,,,,,,,,,,,,,,,,,,,,,,,,,,,,,,,,,,,,,,,,,,,,,,,,,,,,
1769161505.460618,1769161505.461093,67.0,0.0,4282.307617,4280.897461,4309.487305,4326.922852,4264.102539,4261.666504,4262.820313,4271.025879,4250.897461,4277.820313,4567.307617,4534.102539,4423.846191,4504.102539,,,,,,,,,,,,,,,,,,,,,,,,,,,,,,,,,,,,,,,,,,,,,,,,,,,,,,,,,,,,,,,,,,,,,,
1769161505.468427,1769161505.469102,68.0,0.0,4288.589844,4283.846191,4310.384766,4325.769043,4267.436035,4265.512695,4260.641113,4263.974121,4245.897461,4278.717773,4568.846191,4536.666504,4428.333496,4507.05127,,,,,,,,,,,,,,,,,,,,,,,,,,,,,,,,,,,,,,,,,,,,,,,,,,,,,,,,,,,,,,,,,,,,,,
1769161505.476235,1769161505.47691,69.0,0.0,4287.94873,4282.563965,4307.307617,4326.153809,4266.922852,4265.769043,4272.820313,4269.487305,4253.205078,4280.769043,4569.871582,4538.846191,4426.410156,4504.615234,,,,,,,,,,,,,,,,,,,,,,,,,,,,,,,,,,,,,,,,,,,,,,,,,,,,,,,,,,,,,,,,,,,,,,
1769161505.484044,1769161505.484619,70.0,0.0,4281.282227,4282.307617,4307.307617,4327.179688,4265.641113,4272.820313,4278.846191,4276.794922,4262.820313,4278.846191,4569.871582,4538.461426,4428.333496,4507.307617,,,,,,,,,,,,,,,,,,,,,,,,,,,,,,,,,,,,,,,,,,,,,,,,,,,,,,,,,,,,,,,,,,,,,,
1769161505.491852,1769161505.492427,71.0,0.0,4280.384766,4283.589844,4309.615234,4327.436035,4267.94873,4282.820313,4278.461426,4280.256348,4265.384766,4266.025879,4570.641113,4538.205078,4428.974121,4505.0,,,,,,,,,,,,,,,,,,,,,,,,,,,,,,,,,,,,,,,,,,,,,,,,,,,,,,,,,,,,,,,,,,,,,,
1769161505.499661,1769161505.500435,72.0,0.0,4282.563965,4282.179688,4309.871582,4324.743652,4268.717773,4271.025879,4278.974121,4281.153809,4262.179688,4264.102539,4568.589844,4537.94873,4420.897461,4492.820313,,,,,,,,,,,,,,,,,,,,,,,,,,,,,,,,,,,,,,,,,,,,,,,,,,,,,,,,,,,,,,,,,,,,,,
1769161505.507469,1769161505.508244,73.0,0.0,4283.717773,4279.871582,4308.461426,4323.461426,4266.794922,4260.0,4279.358887,4277.05127,4259.102539,4281.025879,4568.974121,4536.282227,4420.897461,4495.0,,,,,,,,,,,,,,,,,,,,,,,,,,,,,,,,,,,,,,,,,,,,,,,,,,,,,,,,,,,,,,,,,,,,,,
1769161505.515278,1769161505.516152,74.0,0.0,4286.282227,4280.512695,4310.897461,4326.410156,4267.179688,4275.769043,4282.05127,4282.436035,4261.410156,4287.692383,4574.871582,4541.025879,4430.641113,4509.358887,,,,,,,,,,,,,,,,,,,,,,,,,,,,,,,,,,,,,,,,,,,,,,,,,,,,,,,,,,,,,,,,,,,,,,
1769161505.523086,1769161505.523961,75.0,0.0,4290.512695,4280.128418,4316.153809,4327.563965,4266.666504,4283.205078,4281.282227,4293.461426,4267.436035,4280.0,4575.641113,4548.846191,4430.897461,4510.512695,,,,,,,,,,,,,,,,,,,,,,,,,,,,,,,,,,,,,,,,,,,,,,,,,,,,,,,,,,,,,,,,,,,,,,
1769161505.530894,1769161505.531569,76.0,0.0,4294.615234,4280.0,4318.333496,4325.897461,4267.307617,4268.461426,4273.974121,4283.717773,4265.769043,4278.717773,4570.641113,4546.025879,4425.641113,4503.717773,,,,,,,,,,,,,,,,,,,,,,,,,,,,,,,,,,,,,,,,,,,,,,,,,,,,,,,,,,,,,,,,,,,,,,
1769161505.538703,1769161505.539378,77.0,0.0,4296.282227,4283.077148,4319.230957,4326.922852,4269.743652,4263.333496,4274.615234,4269.743652,4256.794922,4280.0,4568.846191,4537.820313,4426.025879,4505.641113,,,,,,,,,,,,,,,,,,,,,,,,,,,,,,,,,,,,,,,,,,,,,,,,,,,,,,,,,,,,,,,,,,,,,,
1769161505.546511,1769161505.547286,78.0,0.0,4292.563965,4283.333496,4322.436035,4327.436035,4268.846191,4267.05127,4276.538574,4275.128418,4256.282227,4280.0,4570.0,4536.025879,4426.025879,4506.282227,0.471879,0.494906,0.502253,0.251319,0.170867,0.447757,0.390176,0.506088,0.155666,0.115997,0.533411,0.358481,0.188583,0.087561,0.085401,0.344156,0.455031,0.465924,0.092193,0.104927,0.28981,0.336389,0.139779,0.110861,0.104205,0.165173,0.266015,0.180463,0.234524,0.168617,0.199781,0.089746,0.153695,0.150006,0.132215,0.178058,0.232114,0.162996,0.102267,0.127625,0.222429,0.688168,0.257282,0.210875,0.137301,0.323318,0.60601,0.273525,0.253308,0.22826,0.560212,0.699484,0.297971,0.161886,0.126135,0.617409,0.587326,0.302478,0.172832,0.182643,0.962839,0.706351,0.555278,0.231908,0.105799,0.914296,0.5675,0.358025,0.281403,0.319248
1769161505.55432,1769161505.555095,79.0,0.0,4292.692383,4280.769043,4326.153809,4325.512695,4270.256348,4264.358887,4269.615234,4282.05127,4262.307617,4281.794922,4572.307617,4540.0,4425.384766,4504.230957,,,,,,,,,,,,,,,,,,,,,,,,,,,,,,,,,,,,,,,,,,,,,,,,,,,,,,,,,,,,,,,,,,,,,,
1769161505.562128,1769161505.563103,80.0,0.0,4293.846191,4280.256348,4323.461426,4324.871582,4272.307617,4262.436035,4269.743652,4279.487305,4261.794922,4278.589844,4573.589844,4540.128418,4426.282227,4507.94873,,,,,,,,,,,,,,,,,,,,,,,,,,,,,,,,,,,,,,,,,,,,,,,,,,,,,,,,,,,,,,,,,,,,,,
1769161505.569937,1769161505.570911,81.0,0.0,4285.256348,4279.743652,4318.333496,4323.461426,4269.102539,4263.333496,4278.205078,4279.615234,4258.333496,4274.487305,4570.897461,4536.538574,4420.897461,4506.410156,,,,,,,,,,,,,,,,,,,,,,,,,,,,,,,,,,,,,,,,,,,,,,,,,,,,,,,,,,,,,,,,,,,,,,
1769161505.577745,1769161505.57862,82.0,0.0,4279.615234,4277.94873,4319.871582,4321.666504,4268.333496,4265.256348,4278.974121,4284.487305,4261.025879,4275.512695,4566.153809,4535.384766,4413.974121,4496.282227,,,,,,,,,,,,,,,,,,,,,,,,,,,,,,,,,,,,,,,,,,,,,,,,,,,,,,,,,,,,,,,,,,,,,,
1769161505.585554,1769161505.586428,83.0,0.0,4282.820313,4277.436035,4323.461426,4321.282227,4269.871582,4273.333496,4275.512695,4291.282227,4263.461426,4276.666504,4564.743652,4537.05127,4411.538574,4489.230957,,,,,,,,,,,,,,,,,,,,,,,,,,,,,,,,,,,,,,,,,,,,,,,,,,,,,,,,,,,,,,,,,,,,,,
1769161505.593362,1769161505.594037,84.0,0.0,4282.563965,4273.974121,4321.153809,4320.641113,4265.769043,4275.128418,4279.358887,4293.717773,4261.794922,4268.846191,4565.128418,4536.666504,4409.743652,4488.461426,,,,,,,,,,,,,,,,,,,,,,,,,,,,,,,,,,,,,,,,,,,,,,,,,,,,,,,,,,,,,,,,,,,,,,
1769161505.601171,1769161505.601845,85.0,0.0,4279.871582,4268.589844,4317.94873,4316.666504,4263.974121,4266.794922,4280.0,4288.589844,4260.769043,4268.205078,4566.410156,4534.615234,4408.846191,4489.230957,,,,,,,,,,,,,,,,,,,,,,,,,,,,,,,,,,,,,,,,,,,,,,,,,,,,,,,,,,,,,,,,,,,,,,
1769161505.608979,1769161505.609554,86.0,0.0,4281.025879,4265.769043,4320.641113,4312.94873,4266.025879,4263.589844,4272.307617,4285.384766,4262.05127,4277.179688,4562.179688,4536.922852,4411.922852,4490.384766,,,,,,,,,,,,,,,,,,,,,,,,,,,,,,,,,,,,,,,,,,,,,,,,,,,,,,,,,,,,,,,,,,,,,,
1769161505.616788,1769161505.617362,87.0,0.0,4279.487305,4265.512695,4322.94873,4315.641113,4265.769043,4268.461426,4264.102539,4284.871582,4263.461426,4270.641113,4554.358887,4539.230957,4412.179688,4490.641113,,,,,,,,,,,,,,,,,,,,,,,,,,,,,,,,,,,,,,,,,,,,,,,,,,,,,,,,,,,,,,,,,,,,,,
1769161505.624596,1769161505.625371,88.0,0.0,4280.256348,4271.922852,4324.358887,4322.436035,4271.410156,4267.563965,4265.128418,4280.897461,4257.436035,4264.871582,4558.077148,4538.846191,4408.974121,4488.589844,,,,,,,,,,,,,,,,,,,,,,,,,,,,,,,,,,,,,,,,,,,,,,,,,,,,,,,,,,,,,,,,,,,,,,
1769161505.632404,1769161505.633179,89.0,0.0,4285.897461,4279.102539,4328.205078,4323.461426,4278.461426,4262.05127,4273.589844,4275.128418,4249.871582,4270.0,4565.128418,4537.563965,4409.871582,4488.205078,,,,,,,,,,,,,,,,,,,,,,,,,,,,,,,,,,,,,,,,,,,,,,,,,,,,,,,,,,,,,,,,,,,,,,
1769161505.640213,1769161505.641087,90.0,0.0,4283.461426,4276.410156,4329.871582,4321.410156,4277.820313,4272.692383,4278.846191,4276.666504,4253.205078,4266.538574,4558.333496,4536.282227,4412.179688,4492.563965,,,,,,,,,,,,,,,,,,,,,,,,,,,,,,,,,,,,,,,,,,,,,,,,,,,,,,,,,,,,,,,,,,,,,,
1769161505.648021,1769161505.648896,91.0,0.0,4275.897461,4270.384766,4327.94873,4321.538574,4272.94873,4285.128418,4282.692383,4286.153809,4262.563965,4262.820313,4553.461426,4536.410156,4408.077148,4492.563965,,,,,,,,,,,,,,,,,,,,,,,,,,,,,,,,,,,,,,,,,,,,,,,,,,,,,,,,,,,,,,,,,,,,,,
1769161505.65583,1769161505.656904,92.0,0.0,4273.717773,4270.384766,4325.512695,4316.666504,4271.538574,4273.205078,4279.615234,4288.077148,4265.384766,4276.153809,4560.769043,4537.436035,4403.974121,4485.256348,,,,,,,,,,,,,,,,,,,,,,,,,,,,,,,,,,,,,,,,,,,,,,,,,,,,,,,,,,,,,,,,,,,,,,
1769161505.663638,1769161505.664712,93.0,0.0,4277.179688,4273.974121,4324.743652,4312.94873,4274.743652,4262.692383,4273.846191,4279.102539,4262.307617,4280.128418,4561.666504,4537.307617,4408.974121,4483.461426,,,,,,,,,,,,,,,,,,,,,,,,,,,,,,,,,,,,,,,,,,,,,,,,,,,,,,,,,,,,,,,,,,,,,,
1769161505.671447,1769161505.672621,94.0,0.0,4277.05127,4277.179688,4325.512695,4319.615234,4275.384766,4274.487305,4276.794922,4276.410156,4261.153809,4268.589844,4556.410156,4536.153809,4411.153809,4490.641113,0.463574,0.519012,0.489514,0.237283,0.153043,0.453714,0.439717,0.468236,0.145327,0.112488,0.555405,0.384405,0.188911,0.094759,0.091519,0.391196,0.50427,0.423899,0.086439,0.090492,0.276254,0.321459,0.112659,0.09899,0.108915,0.17475,0.256749,0.198239,0.226358,0.139471,0.167079,0.067459,0.148493,0.14091,0.112033,0.135671,0.192861,0.232792,0.10827,0.140581,0.175217,0.61736,0.353927,0.216308,0.147102,0.295602,0.610987,0.215537,0.226934,0.211159,0.574385,0.673976,0.313773,0.169637,0.144251,0.633881,0.542383,0.296351,0.20037,0.185826,0.906968,0.641242,0.525548,0.248078,0.1111,0.902805,0.506849,0.358198,0.263222,0.267108
1769161505.679255,1769161505.680429,95.0,0.0,4278.974121,4278.589844,4326.922852,4325.384766,4274.615234,4281.025879,4280.897461,4281.153809,4258.333496,4265.0,4557.05127,4537.05127,4405.384766,4492.563965,,,,,,,,,,,,,,,,,,,,,,,,,,,,,,,,,,,,,,,,,,,,,,,,,,,,,,,,,,,,,,,,,,,,,,
1769161505.687064,1769161505.688438,96.0,0.0,4285.512695,4278.205078,4327.820313,4325.128418,4277.436035,4275.128418,4278.333496,4279.743652,4252.94873,4262.436035,4558.461426,4535.256348,4402.563965,4484.102539,,,,,,,,,,,,,,,,,,,,,,,,,,,,,,,,,,,,,,,,,,,,,,,,,,,,,,,,,,,,,,,,,,,,,,
1769161505.694872,1769161505.696246,97.0,0.0,4284.358887,4279.743652,4327.179688,4325.897461,4280.384766,4275.384766,4277.05127,4276.153809,4248.077148,4257.820313,4554.230957,4524.230957,4397.94873,4474.871582,,,,,,,,,,,,,,,,,,,,,,,,,,,,,,,,,,,,,,,,,,,,,,,,,,,,,,,,,,,,,,,,,,,,,,
1769161505.70268,1769161505.703955,98.0,0.0,4277.05127,4280.0,4325.769043,4327.05127,4276.153809,4273.717773,4278.077148,4276.282227,4248.333496,4268.974121,4553.205078,4520.769043,4394.230957,4473.589844,,,,,,,,,,,,,,,,,,,,,,,,,,,,,,,,,,,,,,,,,,,,,,,,,,,,,,,,,,,,,,,,,,,,,,
1769161505.710489,1769161505.711763,99.0,0.0,4282.94873,4277.436035,4326.922852,4325.897461,4272.94873,4271.410156,4274.230957,4279.230957,4258.846191,4280.512695,4565.512695,4533.333496,4408.077148,4481.410156,,,,,,,,,,,,,,,,,,,,,,,,,,,,,,,,,,,,,,,,,,,,,,,,,,,,,,,,,,,,,,,,,,,,,,
1769161505.718297,1769161505.719372,100.0,0.0,4290.641113,4276.666504,4328.461426,4326.282227,4277.05127,4274.615234,4274.102539,4281.282227,4265.384766,4270.128418,4569.358887,4536.025879,4415.0,4483.461426,,,,,,,,,,,,,,,,,,,,,,,,,,,,,,,,,,,,,,,,,,,,,,,,,,,,,,,,,,,,,,,,,,,,,,
1769161505.726106,1769161505.72718,101.0,0.0,4281.410156,4274.102539,4325.512695,4325.641113,4274.230957,4269.487305,4277.820313,4279.743652,4260.0,4261.922852,4556.153809,4526.025879,4401.666504,4474.743652,,,,,,,,,,,,,,,,,,,,,,,,,,,,,,,,,,,,,,,,,,,,,,,,,,,,,,,,,,,,,,,,,,,,,,
1769161505.733914,1769161505.734889,102.0,0.0,4277.692383,4267.179688,4325.769043,4322.05127,4267.179688,4265.128418,4278.205078,4278.461426,4257.436035,4274.615234,4554.358887,4528.589844,4399.871582,4477.820313,,,,,,,,,,,,,,,,,,,,,,,,,,,,,,,,,,,,,,,,,,,,,,,,,,,,,,,,,,,,,,,,,,,,,,
1769161505.741723,1769161505.742697,103.0,0.0,4285.512695,4267.307617,4334.230957,4320.641113,4271.025879,4275.512695,4278.205078,4280.384766,4263.077148,4282.179688,4569.487305,4539.358887,4413.205078,4491.794922,,,,,,,,,,,,,,,,,,,,,,,,,,,,,,,,,,,,,,,,,,,,,,,,,,,,,,,,,,,,,,,,,,,,,,
1769161505.749531,1769161505.750306,104.0,0.0,4285.0,4275.256348,4342.05127,4326.538574,4279.615234,4282.94873,4280.128418,4285.256348,4264.102539,4277.820313,4573.974121,4542.307617,4418.461426,4495.384766,,,,,,,,,,,,,,,,,,,,,,,,,,,,,,,,,,,,,,,,,,,,,,,,,,,,,,,,,,,,,,,,,,,,,,
1769161505.75734,1769161505.758114,105.0,0.0,4281.282227,4274.743652,4337.692383,4329.743652,4280.384766,4278.461426,4280.0,4291.922852,4261.922852,4276.922852,4568.717773,4541.153809,4417.05127,4491.922852,,,,,,,,,,,,,,,,,,,,,,,,,,,,,,,,,,,,,,,,,,,,,,,,,,,,,,,,,,,,,,,,,,,,,,
1769161505.765148,1769161505.766022,106.0,0.0,4278.974121,4264.743652,4328.333496,4317.692383,4275.0,4277.05127,4280.769043,4290.641113,4263.589844,4278.589844,4566.153809,4538.589844,4413.333496,4490.897461,,,,,,,,,,,,,,,,,,,,,,,,,,,,,,,,,,,,,,,,,,,,,,,,,,,,,,,,,,,,,,,,,,,,,,
1769161505.772956,1769161505.773831,107.0,0.0,4277.05127,4264.102539,4327.05127,4310.641113,4271.794922,4278.974121,4281.794922,4283.589844,4262.94873,4271.410156,4568.717773,4536.282227,4411.153809,4490.0,,,,,,,,,,,,,,,,,,,,,,,,,,,,,,,,,,,,,,,,,,,,,,,,,,,,,,,,,,,,,,,,,,,,,,
1769161505.780765,1769161505.78144,108.0,0.0,4280.384766,4271.153809,4329.743652,4317.94873,4274.871582,4278.974121,4279.358887,4285.0,4262.05127,4264.615234,4568.974121,4534.102539,4414.230957,4490.512695,,,,,,,,,,,,,,,,,,,,,,,,,,,,,,,,,,,,,,,,,,,,,,,,,,,,,,,,,,,,,,,,,,,,,,
1769161505.788573,1769161505.789248,109.0,0.0,4277.692383,4267.692383,4327.179688,4316.538574,4280.256348,4280.128418,4281.794922,4292.05127,4264.230957,4270.0,4559.615234,4525.897461,4408.974121,4486.666504,,,,,,,,,,,,,,,,,,,,,,,,,,,,,,,,,,,,,,,,,,,,,,,,,,,,,,,,,,,,,,,,,,,,,,
1769161505.796382,1769161505.796957,110.0,0.0,4268.461426,4260.128418,4323.205078,4306.025879,4279.358887,4280.0,4286.410156,4294.102539,4265.128418,4280.128418,4556.025879,4524.102539,4400.641113,4482.436035,0.445945,0.522603,0.501807,0.232087,0.141022,0.458639,0.453611,0.414432,0.142952,0.109046,0.546994,0.370113,0.20399,0.107557,0.097217,0.42893,0.499825,0.35962,0.084813,0.077072,0.269768,0.294565,0.090993,0.094184,0.111071,0.184803,0.241657,0.239342,0.214425,0.119264,0.134853,0.058995,0.150562,0.130313,0.099592,0.102647,0.170494,0.318673,0.119661,0.14871,0.140316,0.521412,0.468664,0.212272,0.151712,0.262898,0.584018,0.189277,0.210953,0.20561,0.586257,0.581978,0.322973,0.172658,0.165705,0.591171,0.459447,0.284382,0.227662,0.189642,0.84232,0.533995,0.470309,0.267905,0.126605,0.86415,0.438729,0.354536,0.26498,0.219218
1769161505.80419,1769161505.804765,111.0,0.0,4274.230957,4266.282227,4327.436035,4310.641113,4276.282227,4278.717773,4283.846191,4292.179688,4266.794922,4280.128418,4567.179688,4535.0,4407.436035,4488.461426,,,,,,,,,,,,,,,,,,,,,,,,,,,,,,,,,,,,,,,,,,,,,,,,,,,,,,,,,,,,,,,,,,,,,,
1769161505.811999,1769161505.812374,112.0,0.0,4292.692383,4278.205078,4338.333496,4325.384766,4277.05127,4278.333496,4279.615234,4293.846191,4269.102539,4281.410156,4575.641113,4541.538574,4417.692383,4494.487305,,,,,,,,,,,,,,,,,,,,,,,,,,,,,,,,,,,,,,,,,,,,,,,,,,,,,,,,,,,,,,,,,,,,,,
1769161505.819807,1769161505.820182,113.0,0.0,4294.615234,4278.846191,4341.794922,4328.333496,4275.512695,4278.461426,4281.794922,4294.743652,4265.384766,4280.0,4570.769043,4537.692383,4413.846191,4491.025879,,,,,,,,,,,,,,,,,,,,,,,,,,,,,,,,,,,,,,,,,,,,,,,,,,,,,,,,,,,,,,,,,,,,,,
1769161505.827616,1769161505.82809,114.0,0.0,4284.358887,4273.077148,4338.589844,4324.230957,4274.230957,4278.589844,4281.794922,4287.94873,4259.615234,4266.025879,4565.128418,4532.563965,4406.282227,4489.871582,,,,,,,,,,,,,,,,,,,,,,,,,,,,,,,,,,,,,,,,,,,,,,,,,,,,,,,,,,,,,,,,,,,,,,
1769161505.835424,1769161505.835899,115.0,0.0,4285.256348,4277.179688,4337.94873,4324.230957,4276.538574,4276.410156,4276.025879,4282.692383,4263.333496,4270.0,4570.0,4531.794922,4411.538574,4493.589844,,,,,,,,,,,,,,,,,,,,,,,,,,,,,,,,,,,,,,,,,,,,,,,,,,,,,,,,,,,,,,,,,,,,,,
1769161505.843233,1769161505.843907,116.0,0.0,4287.820313,4278.846191,4334.871582,4324.615234,4277.05127,4279.615234,4276.410156,4289.230957,4268.461426,4283.205078,4568.846191,4528.974121,4415.897461,4492.179688,,,,,,,,,,,,,,,,,,,,,,,,,,,,,,,,,,,,,,,,,,,,,,,,,,,,,,,,,,,,,,,,,,,,,,
1769161505.851041,1769161505.851716,117.0,0.0,4279.487305,4270.512695,4328.717773,4320.256348,4273.846191,4287.179688,4281.666504,4296.922852,4265.769043,4264.487305,4557.179688,4522.563965,4407.563965,4488.077148,,,,,,,,,,,,,,,,,,,,,,,,,,,,,,,,,,,,,,,,,,,,,,,,,,,,,,,,,,,,,,,,,,,,,,
1769161505.858849,1769161505.859624,118.0,0.0,4280.897461,4270.512695,4332.692383,4319.358887,4273.333496,4284.743652,4280.641113,4290.0,4262.692383,4254.358887,4558.077148,4527.179688,4404.743652,4488.717773,,,,,,,,,,,,,,,,,,,,,,,,,,,,,,,,,,,,,,,,,,,,,,,,,,,,,,,,,,,,,,,,,,,,,,
1769161505.866658,1769161505.867432,119.0,0.0,4291.666504,4279.358887,4340.256348,4326.794922,4279.615234,4278.589844,4275.769043,4280.641113,4265.384766,4280.0,4572.05127,4541.153809,4412.820313,4493.077148,,,,,,,,,,,,,,,,,,,,,,,,,,,,,,,,,,,,,,,,,,,,,,,,,,,,,,,,,,,,,,,,,,,,,,
1769161505.874466,1769161505.875441,120.0,0.0,4287.820313,4279.743652,4337.820313,4328.333496,4283.717773,4280.0,4279.615234,4282.94873,4267.436035,4290.0,4573.974121,4537.05127,4414.871582,4493.846191,,,,,,,,,,,,,,,,,,,,,,,,,,,,,,,,,,,,,,,,,,,,,,,,,,,,,,,,,,,,,,,,,,,,,,
1769161505.882275,1769161505.883249,121.0,0.0,4283.846191,4275.641113,4337.05127,4323.333496,4279.358887,4279.358887,4285.256348,4290.0,4267.820313,4277.563965,4568.717773,4524.743652,4411.538574,4491.025879,,,,,,,,,,,,,,,,,,,,,,,,,,,,,,,,,,,,,,,,,,,,,,,,,,,,,,,,,,,,,,,,,,,,,,
1769161505.890083,1769161505.890958,122.0,0.0,4295.128418,4275.769043,4342.563965,4323.461426,4276.410156,4276.282227,4280.512695,4291.025879,4266.922852,4277.820313,4568.717773,4532.563965,4412.307617,4490.897461,,,,,,,,,,,,,,,,,,,,,,,,,,,,,,,,,,,,,,,,,,,,,,,,,,,,,,,,,,,,,,,,,,,,,,
1769161505.897892,1769161505.898766,123.0,0.0,4299.230957,4272.179688,4343.205078,4325.897461,4277.820313,4279.871582,4281.410156,4287.692383,4264.743652,4276.282227,4566.922852,4541.153809,4412.563965,4492.820313,,,,,,,,,,,,,,,,,,,,,,,,,,,,,,,,,,,,,,,,,,,,,,,,,,,,,,,,,,,,,,,,,,,,,,
1769161505.9057,1769161505.906475,124.0,0.0,4293.461426,4271.666504,4341.282227,4325.384766,4278.333496,4282.692383,4293.205078,4289.871582,4264.358887,4270.0,4568.077148,4535.641113,4413.846191,4494.487305,,,,,,,,,,,,,,,,,,,,,,,,,,,,,,,,,,,,,,,,,,,,,,,,,,,,,,,,,,,,,,,,,,,,,,
1769161505.913509,1769161505.914283,125.0,0.0,4297.94873,4275.512695,4343.589844,4325.512695,4278.077148,4280.256348,4292.05127,4295.769043,4266.922852,4276.025879,4575.897461,4533.717773,4418.974121,4497.436035,,,,,,,,,,,,,,,,,,,,,,,,,,,,,,,,,,,,,,,,,,,,,,,,,,,,,,,,,,,,,,,,,,,,,,
1769161505.921317,1769161505.921992,126.0,0.0,4303.077148,4271.410156,4343.333496,4324.871582,4277.436035,4280.128418,4283.589844,4289.743652,4263.974121,4277.692383,4571.282227,4530.641113,4415.512695,4491.794922,0.435055,0.503698,0.522928,0.232938,0.137147,0.48626,0.428776,0.359559,0.146842,0.107059,0.532526,0.324383,0.225503,0.120906,0.10005,0.464775,0.447393,0.289465,0.0854,0.067434,0.269311,0.257834,0.077477,0.095101,0.109723,0.20434,0.222213,0.298089,0.202448,0.1141,0.118138,0.066612,0.160895,0.121979,0.098536,0.085488,0.170065,0.399181,0.129602,0.150249,0.126808,0.426104,0.558111,0.202581,0.150665,0.235634,0.531538,0.184023,0.213135,0.211227,0.602271,0.453203,0.313425,0.167881,0.187562,0.513939,0.368402,0.264827,0.246511,0.193758,0.77638,0.425956,0.402184,0.283321,0.148464,0.828389,0.385383,0.342214,0.282004,0.187009
1769161505.929125,1769161505.9298,127.0,0.0,4297.692383,4268.589844,4339.487305,4323.846191,4275.897461,4280.769043,4285.0,4282.692383,4261.666504,4272.692383,4561.538574,4523.205078,4408.205078,4483.846191,,,,,,,,,,,,,,,,,,,,,,,,,,,,,,,,,,,,,,,,,,,,,,,,,,,,,,,,,,,,,,,,,,,,,,
1769161505.936934,1769161505.937409,0.0,0.0,4300.384766,4276.922852,4346.666504,4326.794922,4277.05127,4280.512695,4282.436035,4290.384766,4271.282227,4270.769043,4572.94873,4533.717773,4416.410156,4497.692383,,,,,,,,,,,,,,,,,,,,,,,,,,,,,,,,,,,,,,,,,,,,,,,,,,,,,,,,,,,,,,,,,,,,,,
1769161505.944742,1769161505.945217,1.0,0.0,4305.897461,4282.179688,4355.897461,4329.230957,4280.128418,4280.769043,4277.179688,4291.282227,4273.333496,4267.94873,4583.205078,4544.743652,4425.0,4511.025879,,,,,,,,,,,,,,,,,,,,,,,,,,,,,,,,,,,,,,,,,,,,,,,,,,,,,,,,,,,,,,,,,,,,,,
1769161505.952551,1769161505.953126,2.0,0.0,4298.461426,4272.820313,4349.743652,4325.0,4279.743652,4280.256348,4285.128418,4286.282227,4263.205078,4270.512695,4564.487305,4530.769043,4410.641113,4492.179688,,,,,,,,,,,,,,,,,,,,,,,,,,,,,,,,,,,,,,,,,,,,,,,,,,,,,,,,,,,,,,,,,,,,,,
1769161505.960359,1769161505.960934,3.0,0.0,4291.025879,4263.333496,4340.384766,4321.666504,4278.717773,4280.769043,4292.436035,4292.94873,4263.205078,4278.461426,4549.102539,4517.307617,4393.205078,4465.897461,,,,,,,,,,,,,,,,,,,,,,,,,,,,,,,,,,,,,,,,,,,,,,,,,,,,,,,,,,,,,,,,,,,,,,
1769161505.968168,1769161505.968942,4.0,0.0,4295.384766,4266.025879,4344.230957,4325.384766,4280.512695,4281.666504,4289.871582,4289.743652,4265.641113,4277.05127,4553.974121,4520.512695,4394.358887,4466.666504,,,,,,,,,,,,,,,,,,,,,,,,,,,,,,,,,,,,,,,,,,,,,,,,,,,,,,,,,,,,,,,,,,,,,,
1769161505.975976,1769161505.976751,5.0,0.0,4294.871582,4272.820313,4350.641113,4326.922852,4281.282227,4281.025879,4287.820313,4273.333496,4257.307617,4273.589844,4556.922852,4522.94873,4401.153809,4482.436035,,,,,,,,,,,,,,,,,,,,,,,,,,,,,,,,,,,,,,,,,,,,,,,,,,,,,,,,,,,,,,,,,,,,,,
1769161505.983785,1769161505.984459,6.0,0.0,4290.512695,4276.282227,4348.589844,4324.615234,4280.0,4278.333496,4282.436035,4276.538574,4256.153809,4275.384766,4560.897461,4523.717773,4408.205078,4494.615234,,,,,,,,,,,,,,,,,,,,,,,,,,,,,,,,,,,,,,,,,,,,,,,,,,,,,,,,,,,,,,,,,,,,,,
1769161505.991593,1769161505.992268,7.0,0.0,4292.179688,4276.794922,4344.230957,4326.666504,4279.743652,4276.153809,4281.025879,4284.871582,4262.563965,4268.205078,4565.512695,4525.128418,4413.846191,4493.333496,,,,,,,,,,,,,,,,,,,,,,,,,,,,,,,,,,,,,,,,,,,,,,,,,,,,,,,,,,,,,,,,,,,,,,
1769161505.999402,1769161505.999876,8.0,0.0,4292.94873,4276.922852,4341.794922,4327.179688,4279.743652,4278.846191,4288.077148,4279.871582,4262.563965,4261.025879,4556.922852,4521.153809,4406.410156,4477.307617,,,,,,,,,,,,,,,,,,,,,,,,,,,,,,,,,,,,,,,,,,,,,,,,,,,,,,,,,,,,,,,,,,,,,,
1769161506.00721,1769161506.007685,9.0,0.0,4296.410156,4279.102539,4343.077148,4326.922852,4278.974121,4278.846191,4286.666504,4279.743652,4262.436035,4265.0,4553.461426,4516.794922,4397.05127,4470.128418,,,,,,,,,,,,,,,,,,,,,,,,,,,,,,,,,,,,,,,,,,,,,,,,,,,,,,,,,,,,,,,,,,,,,,
1769161506.015019,1769161506.015393,10.0,0.0,4298.077148,4280.0,4345.128418,4325.256348,4278.077148,4273.333496,4286.025879,4281.666504,4259.230957,4263.846191,4557.307617,4511.538574,4394.615234,4472.179688,,,,,,,,,,,,,,,,,,,,,,,,,,,,,,,,,,,,,,,,,,,,,,,,,,,,,,,,,,,,,,,,,,,,,,
1769161506.022827,1769161506.023202,11.0,0.0,4291.922852,4273.205078,4340.384766,4318.461426,4277.05127,4277.307617,4291.794922,4278.205078,4254.102539,4261.922852,4552.436035,4505.256348,4395.641113,4471.538574,,,,,,,,,,,,,,,,,,,,,,,,,,,,,,,,,,,,,,,,,,,,,,,,,,,,,,,,,,,,,,,,,,,,,,
1769161506.030635,1769161506.03121,12.0,0.0,4293.333496,4271.922852,4335.769043,4316.410156,4279.230957,4281.794922,4286.410156,4276.922852,4260.0,4273.846191,4557.179688,4510.897461,4411.282227,4481.153809,,,,,,,,,,,,,,,,,,,,,,,,,,,,,,,,,,,,,,,,,,,,,,,,,,,,,,,,,,,,,,,,,,,,,,
1769161506.038444,1769161506.039018,13.0,0.0,4307.307617,4284.358887,4341.666504,4326.025879,4282.94873,4272.179688,4276.794922,4283.333496,4269.615234,4285.897461,4573.077148,4521.922852,4427.94873,4498.077148,,,,,,,,,,,,,,,,,,,,,,,,,,,,,,,,,,,,,,,,,,,,,,,,,,,,,,,,,,,,,,,,,,,,,,
1769161506.046252,1769161506.046927,14.0,0.0,4314.102539,4289.487305,4353.974121,4335.641113,4281.666504,4268.974121,4278.205078,4291.153809,4270.769043,4282.820313,4572.820313,4523.333496,4419.615234,4492.820313,0.445317,0.468671,0.532209,0.233465,0.140101,0.543243,0.37335,0.312179,0.151703,0.106601,0.524366,0.269259,0.245155,0.130563,0.09842,0.509353,0.36708,0.227883,0.086468,0.062842,0.268154,0.214737,0.073588,0.097953,0.104903,0.235822,0.206602,0.35763,0.192887,0.125825,0.122968,0.088521,0.181346,0.118396,0.107777,0.093232,0.189003,0.457684,0.134279,0.14675,0.137001,0.349842,0.593993,0.193643,0.145411,0.220057,0.470764,0.193738,0.234926,0.223855,0.610317,0.325138,0.28067,0.156764,0.2071,0.431008,0.297911,0.240676,0.250485,0.196475,0.703833,0.354743,0.336552,0.286967,0.17069,0.784875,0.364187,0.321171,0.300994,0.17359
1769161506.054061,1769161506.054735,15.0,0.0,4311.794922,4281.922852,4358.846191,4334.615234,4277.692383,4279.230957,4284.615234,4286.794922,4265.256348,4269.615234,4563.589844,4520.384766,4405.897461,4477.820313,,,,,,,,,,,,,,,,,,,,,,,,,,,,,,,,,,,,,,,,,,,,,,,,,,,,,,,,,,,,,,,,,,,,,,
1769161506.061869,1769161506.062743,16.0,0.0,4311.922852,4280.256348,4351.922852,4328.846191,4278.461426,4281.282227,4286.153809,4277.05127,4261.794922,4261.153809,4565.128418,4522.179688,4410.256348,4482.563965,,,,,,,,,,,,,,,,,,,,,,,,,,,,,,,,,,,,,,,,,,,,,,,,,,,,,,,,,,,,,,,,,,,,,,
1769161506.069678,1769161506.070552,17.0,0.0,4308.333496,4281.153809,4341.153809,4326.538574,4281.282227,4278.461426,4283.461426,4279.230957,4263.846191,4269.615234,4568.974121,4523.717773,4415.128418,4486.153809,,,,,,,,,,,,,,,,,,,,,,,,,,,,,,,,,,,,,,,,,,,,,,,,,,,,,,,,,,,,,,,,,,,,,,
1769161506.077486,1769161506.07846,18.0,0.0,4304.358887,4276.538574,4339.487305,4329.358887,4278.077148,4276.282227,4278.846191,4282.820313,4265.641113,4280.641113,4566.922852,4520.256348,4412.436035,4477.179688,,,,,,,,,,,,,,,,,,,,,,,,,,,,,,,,,,,,,,,,,,,,,,,,,,,,,,,,,,,,,,,,,,,,,,
1769161506.085295,1769161506.086269,19.0,0.0,4307.05127,4275.384766,4350.384766,4331.794922,4269.871582,4270.769043,4279.871582,4278.077148,4262.94873,4276.922852,4564.871582,4516.794922,4412.307617,4471.922852,,,,,,,,,,,,,,,,,,,,,,,,,,,,,,,,,,,,,,,,,,,,,,,,,,,,,,,,,,,,,,,,,,,,,,
1769161506.093103,1769161506.093877,20.0,0.0,4310.0,4278.333496,4356.922852,4329.487305,4264.358887,4267.179688,4283.461426,4278.333496,4262.05127,4271.922852,4564.230957,4518.974121,4411.922852,4475.384766,,,,,,,,,,,,,,,,,,,,,,,,,,,,,,,,,,,,,,,,,,,,,,,,,,,,,,,,,,,,,,,,,,,,,,
1769161506.100912,1769161506.101686,21.0,0.0,4314.871582,4278.077148,4354.102539,4330.769043,4267.94873,4269.487305,4280.769043,4280.769043,4262.692383,4274.230957,4567.307617,4523.461426,4411.794922,4483.717773,,,,,,,,,,,,,,,,,,,,,,,,,,,,,,,,,,,,,,,,,,,,,,,,,,,,,,,,,,,,,,,,,,,,,,
1769161506.10872,1769161506.109394,22.0,0.0,4316.922852,4276.410156,4347.307617,4331.025879,4273.846191,4268.461426,4279.102539,4277.692383,4262.05127,4274.871582,4571.025879,4524.102539,4413.589844,4486.410156,,,,,,,,,,,,,,,,,,,,,,,,,,,,,,,,,,,,,,,,,,,,,,,,,,,,,,,,,,,,,,,,,,,,,,
1769161506.116528,1769161506.117203,23.0,0.0,4313.589844,4277.436035,4344.102539,4329.487305,4275.769043,4267.179688,4281.410156,4276.666504,4261.282227,4274.615234,4569.358887,4520.384766,4411.922852,4483.333496,,,,,,,,,,,,,,,,,,,,,,,,,,,,,,,,,,,,,,,,,,,,,,,,,,,,,,,,,,,,,,,,,,,,,,
1769161506.124337,1769161506.124811,24.0,0.0,4318.077148,4279.743652,4351.538574,4333.461426,4276.025879,4272.179688,4281.666504,4277.94873,4260.512695,4277.692383,4569.743652,4520.641113,4416.922852,4488.461426,,,,,,,,,,,,,,,,,,,,,,,,,,,,,,,,,,,,,,,,,,,,,,,,,,,,,,,,,,,,,,,,,,,,,,
1769161506.132145,1769161506.13262,25.0,0.0,4325.897461,4280.769043,4359.871582,4336.282227,4277.820313,4276.282227,4280.256348,4281.794922,4260.897461,4280.0,4578.846191,4530.641113,4428.717773,4498.461426,,,,,,,,,,,,,,,,,,,,,,,,,,,,,,,,,,,,,,,,,,,,,,,,,,,,,,,,,,,,,,,,,,,,,,
1769161506.139954,1769161506.140328,26.0,0.0,4324.487305,4281.153809,4358.846191,4330.641113,4274.871582,4276.153809,4280.897461,4285.128418,4264.615234,4276.794922,4583.589844,4538.333496,4428.205078,4499.358887,,,,,,,,,,,,,,,,,,,,,,,,,,,,,,,,,,,,,,,,,,,,,,,,,,,,,,,,,,,,,,,,,,,,,,
1769161506.147762,1769161506.148137,27.0,0.0,4321.794922,4280.128418,4353.717773,4325.897461,4268.077148,4274.230957,4282.563965,4282.692383,4264.743652,4274.615234,4574.230957,4531.538574,4413.461426,4490.128418,,,,,,,,,,,,,,,,,,,,,,,,,,,,,,,,,,,,,,,,,,,,,,,,,,,,,,,,,,,,,,,,,,,,,,
1769161506.155571,1769161506.156145,28.0,0.0,4316.922852,4276.794922,4351.922852,4327.820313,4265.128418,4272.820313,4280.384766,4280.769043,4261.153809,4277.94873,4564.871582,4518.589844,4402.820313,4477.179688,,,,,,,,,,,,,,,,,,,,,,,,,,,,,,,,,,,,,,,,,,,,,,,,,,,,,,,,,,,,,,,,,,,,,,
1769161506.163379,1769161506.163954,29.0,0.0,4310.897461,4275.256348,4352.692383,4328.205078,4266.410156,4274.230957,4277.94873,4282.436035,4261.922852,4277.436035,4565.512695,4514.102539,4406.282227,4476.282227,,,,,,,,,,,,,,,,,,,,,,,,,,,,,,,,,,,,,,,,,,,,,,,,,,,,,,,,,,,,,,,,,,,,,,
1769161506.171188,1769161506.171862,30.0,0.0,4317.436035,4279.871582,4354.871582,4327.563965,4270.897461,4277.563965,4277.94873,4281.666504,4265.641113,4278.589844,4571.794922,4522.05127,4421.410156,4492.179688,0.475697,0.432481,0.517906,0.22663,0.147292,0.628692,0.30398,0.272916,0.153104,0.107475,0.517827,0.22779,0.260538,0.134719,0.093267,0.568438,0.28559,0.184263,0.08787,0.06356,0.260365,0.170488,0.07892,0.098955,0.097402,0.271712,0.199575,0.397265,0.186455,0.150876,0.149279,0.119838,0.211785,0.120948,0.122355,0.13206,0.216882,0.486642,0.13493,0.142705,0.160613,0.297196,0.572619,0.189732,0.138421,0.217934,0.413458,0.221297,0.272332,0.240162,0.602169,0.22727,0.231598,0.144925,0.223489,0.372811,0.261047,0.220892,0.2406,0.196483,0.627307,0.334574,0.2851,0.276915,0.189189,0.726955,0.378891,0.29556,0.311007,0.175335
1769161506.178996,1769161506.179671,31.0,0.0,4324.358887,4282.94873,4354.487305,4329.487305,4278.974121,4281.666504,4277.820313,4282.436035,4265.512695,4283.077148,4577.05127,4529.615234,4425.512695,4498.205078,,,,,,,,,,,,,,,,,,,,,,,,,,,,,,,,,,,,,,,,,,,,,,,,,,,,,,,,,,,,,,,,,,,,,,
1769161506.186804,1769161506.187679,32.0,0.0,4321.025879,4280.128418,4350.384766,4328.974121,4278.717773,4278.333496,4278.205078,4280.256348,4262.05127,4271.922852,4571.666504,4517.94873,4409.358887,4484.871582,,,,,,,,,,,,,,,,,,,,,,,,,,,,,,,,,,,,,,,,,,,,,,,,,,,,,,,,,,,,,,,,,,,,,,
1769161506.194613,1769161506.195488,33.0,0.0,4318.077148,4280.384766,4353.846191,4328.077148,4269.358887,4274.487305,4278.717773,4273.974121,4261.666504,4262.94873,4564.743652,4507.563965,4402.94873,4477.692383,,,,,,,,,,,,,,,,,,,,,,,,,,,,,,,,,,,,,,,,,,,,,,,,,,,,,,,,,,,,,,,,,,,,,,
1769161506.202421,1769161506.203396,34.0,0.0,4313.589844,4280.0,4358.589844,4328.846191,4264.871582,4277.692383,4280.384766,4281.666504,4263.205078,4268.205078,4568.461426,4518.333496,4413.717773,4480.641113,,,,,,,,,,,,,,,,,,,,,,,,,,,,,,,,,,,,,,,,,,,,,,,,,,,,,,,,,,,,,,,,,,,,,,
1769161506.21023,1769161506.211204,35.0,0.0,4308.205078,4273.205078,4357.436035,4327.307617,4266.538574,4281.794922,4281.666504,4289.487305,4263.205078,4274.358887,4572.563965,4523.974121,4415.128418,4485.0,,,,,,,,,,,,,,,,,,,,,,,,,,,,,,,,,,,,,,,,,,,,,,,,,,,,,,,,,,,,,,,,,,,,,,
1769161506.218038,1769161506.219213,36.0,0.0,4310.384766,4271.538574,4355.256348,4325.897461,4271.538574,4280.128418,4279.102539,4280.769043,4263.077148,4277.05127,4571.153809,4520.897461,4410.128418,4490.128418,,,,,,,,,,,,,,,,,,,,,,,,,,,,,,,,,,,,,,,,,,,,,,,,,,,,,,,,,,,,,,,,,,,,,,
1769161506.225847,1769161506.227021,37.0,0.0,4310.641113,4276.794922,4351.410156,4325.897461,4274.615234,4277.307617,4280.256348,4283.461426,4263.205078,4273.717773,4569.230957,4520.897461,4409.743652,4486.538574,,,,,,,,,,,,,,,,,,,,,,,,,,,,,,,,,,,,,,,,,,,,,,,,,,,,,,,,,,,,,,,,,,,,,,
1769161506.233655,1769161506.234929,38.0,0.0,4310.0,4275.641113,4345.512695,4322.563965,4270.512695,4277.94873,4277.820313,4297.820313,4265.128418,4267.94873,4566.922852,4515.769043,4410.256348,4473.589844,,,,,,,,,,,,,,,,,,,,,,,,,,,,,,,,,,,,,,,,,,,,,,,,,,,,,,,,,,,,,,,,,,,,,,
1769161506.241464,1769161506.242738,39.0,0.0,4318.461426,4274.487305,4346.922852,4321.153809,4271.025879,4278.077148,4268.974121,4290.897461,4266.794922,4272.692383,4568.846191,4512.94873,4411.922852,4471.153809,,,,,,,,,,,,,,,,,,,,,,,,,,,,,,,,,,,,,,,,,,,,,,,,,,,,,,,,,,,,,,,,,,,,,,
1769161506.249272,1769161506.250746,40.0,0.0,4330.128418,4279.743652,4356.410156,4331.410156,4279.487305,4279.358887,4269.230957,4274.102539,4263.205078,4283.077148,4576.794922,4522.05127,4410.512695,4485.897461,,,,,,,,,,,,,,,,,,,,,,,,,,,,,,,,,,,,,,,,,,,,,,,,,,,,,,,,,,,,,,,,,,,,,,
1769161506.25708,1769161506.258555,41.0,0.0,4337.436035,4281.794922,4359.743652,4339.487305,4281.666504,4281.410156,4274.230957,4277.179688,4261.153809,4281.282227,4581.538574,4523.589844,4412.94873,4493.589844,,,,,,,,,,,,,,,,,,,,,,,,,,,,,,,,,,,,,,,,,,,,,,,,,,,,,,,,,,,,,,,,,,,,,,
1769161506.264889,1769161506.266263,42.0,0.0,4340.256348,4285.0,4357.05127,4334.102539,4278.974121,4281.666504,4268.205078,4288.461426,4268.846191,4279.102539,4580.384766,4520.384766,4423.974121,4492.179688,,,,,,,,,,,,,,,,,,,,,,,,,,,,,,,,,,,,,,,,,,,,,,,,,,,,,,,,,,,,,,,,,,,,,,
1769161506.272697,1769161506.274072,43.0,0.0,4339.230957,4288.846191,4357.05127,4327.05127,4278.333496,4282.05127,4263.205078,4291.922852,4276.025879,4281.153809,4575.641113,4522.05127,4423.589844,4490.384766,,,,,,,,,,,,,,,,,,,,,,,,,,,,,,,,,,,,,,,,,,,,,,,,,,,,,,,,,,,,,,,,,,,,,,
1769161506.280506,1769161506.28168,44.0,0.0,4333.333496,4281.025879,4355.0,4325.897461,4275.384766,4279.743652,4270.384766,4292.436035,4273.717773,4280.128418,4570.641113,4515.128418,4409.615234,4482.820313,,,,,,,,,,,,,,,,,,,,,,,,,,,,,,,,,,,,,,,,,,,,,,,,,,,,,,,,,,,,,,,,,,,,,,
1769161506.288314,1769161506.289489,45.0,0.0,4328.205078,4271.538574,4348.846191,4324.615234,4274.230957,4279.871582,4274.743652,4295.897461,4272.563965,4280.256348,4573.974121,4505.256348,4408.333496,4474.743652,,,,,,,,,,,,,,,,,,,,,,,,,,,,,,,,,,,,,,,,,,,,,,,,,,,,,,,,,,,,,,,,,,,,,,
