Timestamp,OriginalTimestamp,EEG.Counter,EEG.Interpolated,EEG.AF3,EEG.F7,EEG.F3,EEG.FC5,EEG.T7,EEG.P7,EEG.O1,EEG.O2,EEG.P8,EEG.T8,EEG.FC6,EEG.F4,EEG.F8,EEG.AF4,POW.AF3.Theta,POW.AF3.Alpha,POW.AF3.BetaL,POW.AF3.BetaH,POW.AF3.Gamma,POW.F7.Theta,POW.F7.Alpha,POW.F7.BetaL,POW.F7.BetaH,POW.F7.Gamma,POW.F3.Theta,POW.F3.Alpha,POW.F3.BetaL,POW.F3.BetaH,POW.F3.Gamma,POW.FC5.Theta,POW.FC5.Alpha,POW.FC5.BetaL,POW.FC5.BetaH,POW.FC5.Gamma,POW.T7.Theta,POW.T7.Alpha,POW.T7.BetaL,POW.T7.BetaH,POW.T7.Gamma,POW.P7.Theta,POW.P7.Alpha,POW.P7.BetaL,POW.P7.BetaH,POW.P7.Gamma,POW.O1.Theta,POW.O1.Alpha,POW.O1.BetaL,POW.O1.BetaH,POW.O1.Gamma,POW.O2.Theta,POW.O2.Alpha,POW.O2.BetaL,POW.O2.BetaH,POW.O2.Gamma,POW.P8.Theta,POW.P8.Alpha,POW.P8.BetaL,POW.P8.BetaH,POW.P8.Gamma,POW.T8.Theta,POW.T8.Alpha,POW.T8.BetaL,POW.T8.BetaH,POW.T8.Gamma,POW.FC6.Theta,POW.FC6.Alpha,POW.FC6.BetaL,POW.FC6.BetaH,POW.FC6.Gamma,POW.F4.Theta,POW.F4.Alpha,POW.F4.BetaL,POW.F4.BetaH,POW.F4.Gamma,POW.F8.Theta,POW.F8.Alpha,POW.F8.BetaL,POW.F8.BetaH,POW.F8.Gamma,POW.AF4.Theta,POW.AF4.Alpha,POW.AF4.BetaL,POW.AF4.BetaH,POW.AF4.Gamma
1768972255.699538,1768972255.699955,69.0,0.0,4407.05127,4388.205078,4396.410156,4411.666504,4368.461426,4372.563965,4377.307617,4400.0,4391.922852,4393.717773,4493.974121,4549.358887,4435.128418,4481.794922,,,,,,,,,,,,,,,,,,,,,,,,,,,,,,,,,,,,,,,,,,,,,,,,,,,,,,,,,,,,,,,,,,,,,,
1768972255.707347,1768972255.707663,70.0,0.0,4406.282227,4385.256348,4393.461426,4412.05127,4369.743652,4372.436035,4376.025879,4395.384766,4396.282227,4397.307617,4491.153809,4546.538574,4426.282227,4472.307617,,,,,,,,,,,,,,,,,,,,,,,,,,,,,,,,,,,,,,,,,,,,,,,,,,,,,,,,,,,,,,,,,,,,,,
1768972255.715155,1768972255.715472,71.0,0.0,4411.922852,4382.05127,4396.153809,4413.205078,4372.179688,4373.974121,4379.102539,4393.717773,4397.820313,4406.153809,4493.077148,4549.871582,4428.077148,4474.871582,,,,,,,,,,,,,,,,,,,,,,,,,,,,,,,,,,,,,,,,,,,,,,,,,,,,,,,,,,,,,,,,,,,,,,
1768972255.722963,1768972255.72348,72.0,0.0,4411.153809,4382.820313,4398.846191,4413.589844,4373.461426,4376.794922,4380.897461,4399.230957,4396.794922,4405.769043,4495.384766,4555.0,4431.922852,4478.974121,,,,,,,,,,,,,,,,,,,,,,,,,,,,,,,,,,,,,,,,,,,,,,,,,,,,,,,,,,,,,,,,,,,,,,
1768972255.730772,1768972255.731288,73.0,0.0,4409.102539,4379.487305,4395.128418,4413.717773,4369.230957,4381.666504,4382.94873,4402.179688,4397.05127,4396.282227,4493.717773,4555.384766,4429.102539,4476.922852,,,,,,,,,,,,,,,,,,,,,,,,,,,,,,,,,,,,,,,,,,,,,,,,,,,,,,,,,,,,,,,,,,,,,,
1768972255.73858,1768972255.739197,74.0,0.0,4412.179688,4374.871582,4392.692383,4414.615234,4363.846191,4375.384766,4379.102539,4400.512695,4394.871582,4387.692383,4490.512695,4552.179688,4425.897461,4478.077148,,,,,,,,,,,,,,,,,,,,,,,,,,,,,,,,,,,,,,,,,,,,,,,,,,,,,,,,,,,,,,,,,,,,,,
1768972255.746389,1768972255.747005,75.0,0.0,4407.692383,4379.230957,4392.692383,4411.794922,4366.794922,4368.974121,4375.0,4396.282227,4390.0,4391.666504,4489.230957,4548.589844,4425.128418,4478.974121,,,,,,,,,,,,,,,,,,,,,,,,,,,,,,,,,,,,,,,,,,,,,,,,,,,,,,,,,,,,,,,,,,,,,,
1768972255.754197,1768972255.755014,76.0,0.0,4402.307617,4382.179688,4392.563965,4406.025879,4372.179688,4374.743652,4381.282227,4392.05127,4386.538574,4399.615234,4489.871582,4545.0,4427.563965,4469.102539,,,,,,,,,,,,,,,,,,,,,,,,,,,,,,,,,,,,,,,,,,,,,,,,,,,,,,,,,,,,,,,,,,,,,,
1768972255.762006,1768972255.762822,77.0,0.0,4408.589844,4379.102539,4391.922852,4406.538574,4371.794922,4371.922852,4380.384766,4394.615234,4386.282227,4398.717773,4490.641113,4547.692383,4430.0,4464.615234,,,,,,,,,,,,,,,,,,,,,,,,,,,,,,,,,,,,,,,,,,,,,,,,,,,,,,,,,,,,,,,,,,,,,,
1768972255.769814,1768972255.77073,78.0,0.0,4412.179688,4382.307617,4392.436035,4411.025879,4370.512695,4372.05127,4378.717773,4404.487305,4393.974121,4391.538574,4491.922852,4555.769043,4430.384766,4472.307617,1.273251,0.255557,0.169933,0.261449,0.174911,0.880186,0.48904,0.291446,0.220928,0.132974,0.226032,0.305463,0.146461,0.088763,0.074174,0.386727,0.242967,0.208166,0.091197,0.075289,0.136054,0.264648,0.139677,0.093278,0.149292,0.472316,0.561366,0.342811,0.245626,0.245878,0.676882,0.800211,0.369292,0.356598,0.29839,0.268146,0.55796,0.426905,0.348616,0.507188,0.653282,0.327451,0.319153,0.252087,0.350096,0.70685,0.392077,0.306304,0.728249,0.249134,0.906132,0.472178,0.300979,0.362043,0.223006,1.460782,1.406418,0.95456,0.261959,0.18527,0.54114,0.470747,0.337438,0.271307,0.34852,0.892376,0.581571,0.481486,0.412022,0.330485
1768972255.777623,1768972255.778539,79.0,0.0,4411.153809,4388.205078,4398.077148,4412.436035,4373.974121,4388.461426,4391.153809,4406.794922,4396.538574,4385.641113,4491.794922,4557.05127,4429.230957,4472.436035,,,,,,,,,,,,,,,,,,,,,,,,,,,,,,,,,,,,,,,,,,,,,,,,,,,,,,,,,,,,,,,,,,,,,,
1768972255.785431,1768972255.786547,80.0,0.0,4412.692383,4387.692383,4401.922852,4411.282227,4377.692383,4380.256348,4382.436035,4393.333496,4383.846191,4389.743652,4489.743652,4550.512695,4428.846191,4470.384766,,,,,,,,,,,,,,,,,,,,,,,,,,,,,,,,,,,,,,,,,,,,,,,,,,,,,,,,,,,,,,,,,,,,,,
1768972255.793239,1768972255.794355,81.0,0.0,4413.333496,4387.436035,4397.94873,4411.922852,4373.077148,4354.871582,4362.179688,4386.794922,4377.436035,4398.333496,4489.615234,4548.077148,4432.307617,4472.05127,,,,,,,,,,,,,,,,,,,,,,,,,,,,,,,,,,,,,,,,,,,,,,,,,,,,,,,,,,,,,,,,,,,,,,
1768972255.801048,1768972255.802064,82.0,0.0,4410.256348,4388.461426,4397.05127,4411.922852,4371.794922,4364.871582,4373.974121,4398.589844,4386.666504,4397.05127,4488.846191,4546.794922,4431.666504,4466.153809,,,,,,,,,,,,,,,,,,,,,,,,,,,,,,,,,,,,,,,,,,,,,,,,,,,,,,,,,,,,,,,,,,,,,,
1768972255.808856,1768972255.809872,83.0,0.0,4409.743652,4386.922852,4402.692383,4413.717773,4379.615234,4386.922852,4389.358887,4405.256348,4391.153809,4392.820313,4487.05127,4543.333496,4426.410156,4462.820313,,,,,,,,,,,,,,,,,,,,,,,,,,,,,,,,,,,,,,,,,,,,,,,,,,,,,,,,,,,,,,,,,,,,,,
1768972255.816665,1768972255.817481,84.0,0.0,4412.563965,4387.179688,4406.282227,4417.94873,4379.743652,4384.743652,4381.282227,4401.794922,4390.641113,4399.230957,4490.769043,4545.384766,4428.974121,4470.512695,,,,,,,,,,,,,,,,,,,,,,,,,,,,,,,,,,,,,,,,,,,,,,,,,,,,,,,,,,,,,,,,,,,,,,
1768972255.824473,1768972255.82529,85.0,0.0,4412.94873,4387.436035,4404.743652,4416.794922,4373.077148,4378.205078,4381.538574,4404.871582,4393.461426,4400.256348,4495.128418,4550.512695,4433.461426,4474.230957,,,,,,,,,,,,,,,,,,,,,,,,,,,,,,,,,,,,,,,,,,,,,,,,,,,,,,,,,,,,,,,,,,,,,,
1768972255.832282,1768972255.832998,86.0,0.0,4408.077148,4382.307617,4401.282227,4413.333496,4373.205078,4377.179688,4389.487305,4406.153809,4389.743652,4388.461426,4490.384766,4548.846191,4428.461426,4468.717773,,,,,,,,,,,,,,,,,,,,,,,,,,,,,,,,,,,,,,,,,,,,,,,,,,,,,,,,,,,,,,,,,,,,,,
1768972255.84009,1768972255.840807,87.0,0.0,4402.692383,4383.077148,4395.641113,4412.436035,4373.589844,4376.922852,4385.0,4405.0,4386.538574,4389.615234,4487.436035,4543.846191,4425.769043,4468.205078,,,,,,,,,,,,,,,,,,,,,,,,,,,,,,,,,,,,,,,,,,,,,,,,,,,,,,,,,,,,,,,,,,,,,,
1768972255.847898,1768972255.848415,88.0,0.0,4406.153809,4390.384766,4392.179688,4413.205078,4372.179688,4381.922852,4387.05127,4411.153809,4393.461426,4402.307617,4492.94873,4546.538574,4431.153809,4474.358887,,,,,,,,,,,,,,,,,,,,,,,,,,,,,,,,,,,,,,,,,,,,,,,,,,,,,,,,,,,,,,,,,,,,,,
1768972255.855707,1768972255.856224,89.0,0.0,4413.077148,4395.128418,4394.487305,4413.077148,4374.102539,4383.077148,4391.025879,4407.820313,4392.692383,4404.487305,4494.230957,4552.820313,4432.179688,4473.205078,,,,,,,,,,,,,,,,,,,,,,,,,,,,,,,,,,,,,,,,,,,,,,,,,,,,,,,,,,,,,,,,,,,,,,
1768972255.863515,1768972255.864132,90.0,0.0,4410.384766,4395.256348,4394.487305,4412.94873,4374.102539,4377.563965,4382.05127,4394.358887,4379.358887,4393.077148,4489.230957,4546.153809,4427.179688,4460.897461,,,,,,,,,,,,,,,,,,,,,,,,,,,,,,,,,,,,,,,,,,,,,,,,,,,,,,,,,,,,,,,,,,,,,,
1768972255.871324,1768972255.87194,91.0,0.0,4404.871582,4391.153809,4386.025879,4413.077148,4373.974121,4380.769043,4386.922852,4401.794922,4381.410156,4382.179688,4487.563965,4537.94873,4428.205078,4462.179688,,,,,,,,,,,,,,,,,,,,,,,,,,,,,,,,,,,,,,,,,,,,,,,,,,,,,,,,,,,,,,,,,,,,,,
1768972255.879132,1768972255.879549,92.0,0.0,4403.589844,4389.230957,4382.94873,4412.563965,4374.871582,4383.846191,4396.794922,4413.589844,4391.153809,4381.922852,4489.615234,4543.461426,4432.94873,4474.487305,,,,,,,,,,,,,,,,,,,,,,,,,,,,,,,,,,,,,,,,,,,,,,,,,,,,,,,,,,,,,,,,,,,,,,
1768972255.886941,1768972255.887358,93.0,0.0,4402.436035,4391.666504,4391.410156,4412.820313,4373.461426,4375.128418,4381.410156,4397.692383,4381.794922,4392.05127,4489.102539,4544.871582,4432.307617,4466.794922,,,,,,,,,,,,,,,,,,,,,,,,,,,,,,,,,,,,,,,,,,,,,,,,,,,,,,,,,,,,,,,,,,,,,,
1768972255.894749,1768972255.895066,94.0,0.0,4399.102539,4390.0,4391.922852,4412.05127,4373.589844,4368.461426,4367.563965,4389.487305,4373.205078,4398.717773,4486.922852,4537.05127,4428.974121,4456.538574,1.133859,0.276766,0.208665,0.25868,0.188485,0.852074,0.561855,0.269378,0.246395,0.132677,0.223275,0.347495,0.177513,0.087295,0.071276,0.325448,0.257895,0.220211,0.092396,0.077236,0.135301,0.241078,0.131066,0.095618,0.148626,0.480516,0.656952,0.27692,0.245911,0.232332,0.640931,0.890254,0.278558,0.386179,0.305167,0.260566,0.522095,0.353977,0.316138,0.468058,0.430445,0.310786,0.271483,0.194252,0.338443,0.643691,0.377178,0.317243,0.675804,0.25428,0.980533,0.533993,0.363248,0.313301,0.204728,1.39387,1.580679,0.987554,0.239444,0.164238,0.445526,0.458882,0.315038,0.248465,0.307883,0.870664,0.660216,0.497625,0.343821,0.308977
1768972255.902557,1768972255.902875,95.0,0.0,4401.025879,4389.615234,4386.538574,4410.512695,4373.461426,4367.820313,4373.717773,4403.974121,4379.743652,4395.897461,4486.794922,4538.717773,4428.589844,4461.025879,,,,,,,,,,,,,,,,,,,,,,,,,,,,,,,,,,,,,,,,,,,,,,,,,,,,,,,,,,,,,,,,,,,,,,
1768972255.910366,1768972255.910483,96.0,0.0,4406.538574,4397.05127,4389.743652,4412.179688,4375.0,4366.538574,4373.717773,4402.05127,4382.05127,4398.333496,4488.205078,4544.358887,4432.692383,4462.05127,,,,,,,,,,,,,,,,,,,,,,,,,,,,,,,,,,,,,,,,,,,,,,,,,,,,,,,,,,,,,,,,,,,,,,
1768972255.918174,1768972255.918292,97.0,0.0,4410.769043,4400.897461,4391.538574,4416.025879,4376.153809,4367.820313,4370.128418,4389.871582,4375.512695,4398.205078,4489.230957,4539.871582,4436.025879,4459.102539,,,,,,,,,,,,,,,,,,,,,,,,,,,,,,,,,,,,,,,,,,,,,,,,,,,,,,,,,,,,,,,,,,,,,,
1768972255.925983,1768972255.9262,98.0,0.0,4412.179688,4397.179688,4386.153809,4416.025879,4373.846191,4373.589844,4377.179688,4396.794922,4373.333496,4394.358887,4488.846191,4531.922852,4432.307617,4461.153809,,,,,,,,,,,,,,,,,,,,,,,,,,,,,,,,,,,,,,,,,,,,,,,,,,,,,,,,,,,,,,,,,,,,,,
1768972255.933791,1768972255.934008,99.0,0.0,4408.077148,4395.384766,4383.461426,4412.05127,4377.05127,4374.871582,4381.666504,4405.769043,4375.769043,4397.05127,4486.666504,4532.692383,4426.153809,4461.794922,,,,,,,,,,,,,,,,,,,,,,,,,,,,,,,,,,,,,,,,,,,,,,,,,,,,,,,,,,,,,,,,,,,,,,
1768972255.9416,1768972255.942017,100.0,0.0,4403.333496,4392.563965,4385.256348,4410.128418,4380.769043,4372.436035,4380.641113,4403.461426,4379.487305,4393.589844,4486.153809,4535.897461,4427.820313,4459.487305,,,,,,,,,,,,,,,,,,,,,,,,,,,,,,,,,,,,,,,,,,,,,,,,,,,,,,,,,,,,,,,,,,,,,,
1768972255.949408,1768972255.949825,101.0,0.0,4407.820313,4390.769043,4386.153809,4411.282227,4376.153809,4372.820313,4379.358887,4401.410156,4381.538574,4390.0,4487.94873,4532.94873,4431.922852,4459.102539,,,,,,,,,,,,,,,,,,,,,,,,,,,,,,,,,,,,,,,,,,,,,,,,,,,,,,,,,,,,,,,,,,,,,,
1768972255.957217,1768972255.957733,102.0,0.0,4413.589844,4394.358887,4388.717773,4410.897461,4374.358887,4372.436035,4378.589844,4400.128418,4380.384766,4400.0,4489.615234,4530.769043,4429.358887,4461.538574,,,,,,,,,,,,,,,,,,,,,,,,,,,,,,,,,,,,,,,,,,,,,,,,,,,,,,,,,,,,,,,,,,,,,,
1768972255.965025,1768972255.965542,103.0,0.0,4410.512695,4396.666504,4391.538574,4410.897461,4380.0,4373.846191,4381.025879,4399.743652,4378.461426,4401.666504,4490.128418,4536.282227,4430.128418,4462.692383,,,,,,,,,,,,,,,,,,,,,,,,,,,,,,,,,,,,,,,,,,,,,,,,,,,,,,,,,,,,,,,,,,,,,,
1768972255.972834,1768972255.97355,104.0,0.0,4408.461426,4396.153809,4387.820313,4413.846191,4380.512695,4375.256348,4380.128418,4397.692383,4374.871582,4396.025879,4492.05127,4543.205078,4440.384766,4463.846191,,,,,,,,,,,,,,,,,,,,,,,,,,,,,,,,,,,,,,,,,,,,,,,,,,,,,,,,,,,,,,,,,,,,,,
1768972255.980642,1768972255.981359,105.0,0.0,4410.256348,4397.692383,4385.0,4415.128418,4377.94873,4375.0,4379.615234,4396.025879,4373.846191,4406.282227,4493.461426,4545.512695,4446.282227,4464.487305,,,,,,,,,,,,,,,,,,,,,,,,,,,,,,,,,,,,,,,,,,,,,,,,,,,,,,,,,,,,,,,,,,,,,,
1768972255.98845,1768972255.989067,106.0,0.0,4412.307617,4398.846191,4388.205078,4413.461426,4380.641113,4372.692383,4379.615234,4399.102539,4376.153809,4410.769043,4490.769043,4545.256348,4440.384766,4461.538574,,,,,,,,,,,,,,,,,,,,,,,,,,,,,,,,,,,,,,,,,,,,,,,,,,,,,,,,,,,,,,,,,,,,,,
1768972255.996259,1768972255.996876,107.0,0.0,4417.436035,4397.692383,4389.102539,4414.230957,4378.077148,4367.563965,4371.410156,4400.769043,4375.0,4398.846191,4489.615234,4543.461426,4438.077148,4460.128418,,,,,,,,,,,,,,,,,,,,,,,,,,,,,,,,,,,,,,,,,,,,,,,,,,,,,,,,,,,,,,,,,,,,,,
1768972256.004067,1768972256.004584,108.0,0.0,4417.820313,4397.436035,4386.410156,4416.666504,4372.820313,4365.256348,4367.179688,4398.333496,4371.410156,4401.025879,4492.179688,4542.436035,4445.128418,4462.307617,,,,,,,,,,,,,,,,,,,,,,,,,,,,,,,,,,,,,,,,,,,,,,,,,,,,,,,,,,,,,,,,,,,,,,
1768972256.011876,1768972256.012393,109.0,0.0,4412.436035,4397.563965,4384.230957,4414.358887,4377.820313,4369.230957,4375.0,4396.922852,4370.256348,4408.077148,4494.102539,4542.692383,4448.589844,4467.307617,,,,,,,,,,,,,,,,,,,,,,,,,,,,,,,,,,,,,,,,,,,,,,,,,,,,,,,,,,,,,,,,,,,,,,
1768972256.019684,1768972256.020101,110.0,0.0,4414.102539,4394.358887,4383.461426,4412.820313,4383.717773,4373.333496,4376.922852,4394.487305,4365.897461,4399.358887,4492.563965,4540.897461,4445.641113,4473.589844,0.94401,0.314499,0.257652,0.265164,0.197761,0.820133,0.646306,0.271792,0.271425,0.128456,0.228523,0.394807,0.228072,0.098115,0.072327,0.264649,0.275376,0.260652,0.106113,0.075254,0.150997,0.214418,0.120407,0.096633,0.138457,0.511089,0.754936,0.243555,0.252758,0.220537,0.61325,0.934284,0.236199,0.415515,0.299607,0.285285,0.470169,0.297656,0.286538,0.411118,0.300588,0.292737,0.228131,0.15351,0.318234,0.569576,0.367097,0.346556,0.618509,0.267316,1.008888,0.61021,0.450534,0.273257,0.189972,1.237051,1.610919,0.935473,0.223756,0.152183,0.409555,0.49908,0.319053,0.238246,0.256672,0.825812,0.736461,0.525509,0.291477,0.286602
1768972256.027493,1768972256.02791,111.0,0.0,4418.589844,4393.717773,4382.563965,4415.769043,4384.102539,4373.333496,4370.641113,4390.0,4359.615234,4395.641113,4490.641113,4534.871582,4444.358887,4474.871582,,,,,,,,,,,,,,,,,,,,,,,,,,,,,,,,,,,,,,,,,,,,,,,,,,,,,,,,,,,,,,,,,,,,,,
1768972256.035301,1768972256.035518,112.0,0.0,4420.384766,4400.128418,4384.230957,4420.256348,4387.436035,4374.487305,4374.487305,4396.666504,4364.871582,4403.717773,4489.487305,4532.563965,4444.743652,4471.025879,,,,,,,,,,,,,,,,,,,,,,,,,,,,,,,,,,,,,,,,,,,,,,,,,,,,,,,,,,,,,,,,,,,,,,
1768972256.04311,1768972256.043327,113.0,0.0,4423.333496,4404.615234,4384.615234,4421.153809,4386.282227,4373.846191,4376.922852,4402.436035,4372.179688,4403.205078,4490.256348,4537.436035,4444.230957,4468.846191,,,,,,,,,,,,,,,,,,,,,,,,,,,,,,,,,,,,,,,,,,,,,,,,,,,,,,,,,,,,,,,,,,,,,,
1768972256.050918,1768972256.051035,114.0,0.0,4419.871582,4397.563965,4380.641113,4414.102539,4377.179688,4370.0,4368.717773,4393.717773,4365.512695,4396.922852,4493.461426,4536.666504,4447.179688,4468.205078,,,,,,,,,,,,,,,,,,,,,,,,,,,,,,,,,,,,,,,,,,,,,,,,,,,,,,,,,,,,,,,,,,,,,,
1768972256.058726,1768972256.058844,115.0,0.0,4409.102539,4385.897461,4375.128418,4403.974121,4374.358887,4378.333496,4377.563965,4398.205078,4366.794922,4395.128418,4489.743652,4528.974121,4444.615234,4460.769043,,,,,,,,,,,,,,,,,,,,,,,,,,,,,,,,,,,,,,,,,,,,,,,,,,,,,,,,,,,,,,,,,,,,,,
1768972256.066535,1768972256.066852,116.0,0.0,4409.743652,4388.717773,4372.692383,4403.589844,4378.974121,4382.820313,4384.102539,4407.05127,4380.641113,4393.846191,4481.025879,4523.717773,4438.077148,4454.743652,,,,,,,,,,,,,,,,,,,,,,,,,,,,,,,,,,,,,,,,,,,,,,,,,,,,,,,,,,,,,,,,,,,,,,
1768972256.074343,1768972256.07466,117.0,0.0,4423.589844,4406.282227,4378.589844,4419.102539,4383.717773,4366.922852,4362.179688,4391.538574,4378.717773,4396.794922,4486.538574,4529.871582,4447.05127,4464.487305,,,,,,,,,,,,,,,,,,,,,,,,,,,,,,,,,,,,,,,,,,,,,,,,,,,,,,,,,,,,,,,,,,,,,,
1768972256.082152,1768972256.082369,118.0,0.0,4432.436035,4413.589844,4385.512695,4428.461426,4384.358887,4355.512695,4351.666504,4380.512695,4369.871582,4411.025879,4504.743652,4543.205078,4463.717773,4478.846191,,,,,,,,,,,,,,,,,,,,,,,,,,,,,,,,,,,,,,,,,,,,,,,,,,,,,,,,,,,,,,,,,,,,,,
1768972256.08996,1768972256.090177,119.0,0.0,4430.0,4405.384766,4385.384766,4418.205078,4378.333496,4358.461426,4365.769043,4390.641113,4371.410156,4418.974121,4507.05127,4544.102539,4465.897461,4480.512695,,,,,,,,,,,,,,,,,,,,,,,,,,,,,,,,,,,,,,,,,,,,,,,,,,,,,,,,,,,,,,,,,,,,,,
1768972256.097769,1768972256.097786,120.0,0.0,4422.307617,4406.538574,4380.384766,4410.128418,4377.692383,4360.256348,4366.794922,4392.05127,4366.410156,4411.794922,4493.589844,4531.410156,4455.128418,4472.820313,,,,,,,,,,,,,,,,,,,,,,,,,,,,,,,,,,,,,,,,,,,,,,,,,,,,,,,,,,,,,,,,,,,,,,
1768972256.105577,1768972256.105594,121.0,0.0,4415.0,4410.128418,4374.102539,4412.820313,4380.769043,4363.461426,4364.230957,4387.05127,4357.436035,4398.974121,4482.692383,4525.256348,4446.794922,4463.846191,,,,,,,,,,,,,,,,,,,,,,,,,,,,,,,,,,,,,,,,,,,,,,,,,,,,,,,,,,,,,,,,,,,,,,
1768972256.113386,1768972256.113303,122.0,0.0,4409.871582,4399.230957,4373.077148,4412.179688,4377.692383,4371.282227,4379.230957,4390.512695,4357.692383,4388.333496,4476.922852,4527.436035,4444.358887,4457.307617,,,,,,,,,,,,,,,,,,,,,,,,,,,,,,,,,,,,,,,,,,,,,,,,,,,,,,,,,,,,,,,,,,,,,,
1768972256.121194,1768972256.121111,123.0,0.0,4411.794922,4398.333496,4381.410156,4411.410156,4379.615234,4376.025879,4384.487305,4391.410156,4356.538574,4386.922852,4475.769043,4530.0,4444.230957,4458.461426,,,,,,,,,,,,,,,,,,,,,,,,,,,,,,,,,,,,,,,,,,,,,,,,,,,,,,,,,,,,,,,,,,,,,,
1768972256.129002,1768972256.12912,124.0,0.0,4417.179688,4411.538574,4384.358887,4414.743652,4381.153809,4380.769043,4379.230957,4393.717773,4354.102539,4392.05127,4476.410156,4534.871582,4441.153809,4462.94873,,,,,,,,,,,,,,,,,,,,,,,,,,,,,,,,,,,,,,,,,,,,,,,,,,,,,,,,,,,,,,,,,,,,,,
1768972256.136811,1768972256.136928,125.0,0.0,4420.256348,4412.436035,4378.205078,4412.307617,4377.179688,4376.025879,4373.846191,4391.794922,4355.128418,4394.487305,4475.128418,4538.205078,4439.871582,4460.769043,,,,,,,,,,,,,,,,,,,,,,,,,,,,,,,,,,,,,,,,,,,,,,,,,,,,,,,,,,,,,,,,,,,,,,
1768972256.144619,1768972256.144836,126.0,0.0,4420.769043,4410.897461,4376.666504,4410.641113,4378.077148,4358.974121,4358.974121,4378.077148,4353.077148,4396.025879,4475.384766,4534.871582,4444.743652,4459.230957,0.765413,0.372181,0.307823,0.283377,0.199624,0.806083,0.711148,0.300601,0.289293,0.12136,0.245771,0.443817,0.284913,0.119622,0.075807,0.251311,0.292211,0.31663,0.126733,0.069102,0.180824,0.188306,0.107717,0.094907,0.122558,0.539331,0.811697,0.234223,0.263109,0.2107,0.595524,0.922458,0.225075,0.428208,0.282796,0.352671,0.414169,0.258714,0.262122,0.351584,0.246015,0.27812,0.188585,0.134692,0.292897,0.522973,0.369577,0.386861,0.577289,0.287962,0.976942,0.672013,0.539405,0.251829,0.177508,1.024434,1.486326,0.812584,0.218696,0.14538,0.411802,0.568273,0.330456,0.24214,0.208495,0.726457,0.789843,0.555656,0.267727,0.269706
1768972256.152428,1768972256.152645,127.0,0.0,4414.358887,4412.307617,4376.666504,4413.333496,4376.922852,4355.128418,4351.538574,4375.256348,4349.871582,4398.205078,4474.487305,4523.461426,4442.179688,4459.487305,,,,,,,,,,,,,,,,,,,,,,,,,,,,,,,,,,,,,,,,,,,,,,,,,,,,,,,,,,,,,,,,,,,,,,
1768972256.160236,1768972256.160653,0.0,0.0,4409.487305,4400.897461,4374.487305,4411.538574,4373.589844,4363.077148,4360.769043,4383.333496,4350.512695,4392.179688,4466.794922,4514.358887,4433.333496,4454.358887,,,,,,,,,,,,,,,,,,,,,,,,,,,,,,,,,,,,,,,,,,,,,,,,,,,,,,,,,,,,,,,,,,,,,,
1768972256.168044,1768972256.168462,1.0,0.0,4413.077148,4391.153809,4374.230957,4410.256348,4378.846191,4367.692383,4366.666504,4383.333496,4351.025879,4381.153809,4465.897461,4518.846191,4430.769043,4452.563965,,,,,,,,,,,,,,,,,,,,,,,,,,,,,,,,,,,,,,,,,,,,,,,,,,,,,,,,,,,,,,,,,,,,,,
1768972256.175853,1768972256.17637,2.0,0.0,4415.0,4395.641113,4375.769043,4411.410156,4383.205078,4372.563965,4365.512695,4378.333496,4347.436035,4381.410156,4471.794922,4525.769043,4430.384766,4456.282227,,,,,,,,,,,,,,,,,,,,,,,,,,,,,,,,,,,,,,,,,,,,,,,,,,,,,,,,,,,,,,,,,,,,,,
1768972256.183661,1768972256.184178,3.0,0.0,4414.230957,4400.128418,4378.205078,4413.717773,4381.025879,4378.205078,4371.282227,4384.487305,4349.871582,4390.384766,4474.487305,4527.436035,4433.077148,4460.0,,,,,,,,,,,,,,,,,,,,,,,,,,,,,,,,,,,,,,,,,,,,,,,,,,,,,,,,,,,,,,,,,,,,,,
1768972256.19147,1768972256.192187,4.0,0.0,4417.820313,4402.307617,4377.820313,4417.820313,4380.128418,4377.94873,4377.436035,4393.333496,4356.922852,4394.871582,4476.666504,4531.538574,4442.94873,4460.384766,,,,,,,,,,,,,,,,,,,,,,,,,,,,,,,,,,,,,,,,,,,,,,,,,,,,,,,,,,,,,,,,,,,,,,
1768972256.199278,1768972256.199995,5.0,0.0,4418.333496,4404.487305,4372.563965,4416.025879,4380.641113,4371.025879,4371.922852,4386.410156,4355.512695,4388.077148,4473.205078,4531.282227,4443.461426,4453.974121,,,,,,,,,,,,,,,,,,,,,,,,,,,,,,,,,,,,,,,,,,,,,,,,,,,,,,,,,,,,,,,,,,,,,,
1768972256.207087,1768972256.207704,6.0,0.0,4409.358887,4398.717773,4369.871582,4409.102539,4381.794922,4368.333496,4370.256348,4382.436035,4352.692383,4384.358887,4468.589844,4528.846191,4433.077148,4449.487305,,,,,,,,,,,,,,,,,,,,,,,,,,,,,,,,,,,,,,,,,,,,,,,,,,,,,,,,,,,,,,,,,,,,,,
1768972256.214895,1768972256.215512,7.0,0.0,4403.717773,4395.769043,4371.666504,4408.589844,4385.0,4376.538574,4379.102539,4396.666504,4361.410156,4393.077148,4472.94873,4539.230957,4432.563965,4449.487305,,,,,,,,,,,,,,,,,,,,,,,,,,,,,,,,,,,,,,,,,,,,,,,,,,,,,,,,,,,,,,,,,,,,,,
1768972256.222704,1768972256.223121,8.0,0.0,4406.922852,4402.436035,4367.94873,4411.666504,4383.205078,4376.922852,4377.94873,4395.641113,4363.077148,4400.641113,4473.205078,4545.256348,4436.666504,4452.692383,,,,,,,,,,,,,,,,,,,,,,,,,,,,,,,,,,,,,,,,,,,,,,,,,,,,,,,,,,,,,,,,,,,,,,
1768972256.230512,1768972256.230929,9.0,0.0,4414.102539,4408.205078,4364.487305,4410.897461,4377.436035,4367.179688,4368.077148,4372.05127,4346.922852,4392.94873,4461.794922,4533.077148,4433.589844,4455.897461,,,,,,,,,,,,,,,,,,,,,,,,,,,,,,,,,,,,,,,,,,,,,,,,,,,,,,,,,,,,,,,,,,,,,,
1768972256.23832,1768972256.238638,10.0,0.0,4414.487305,4408.974121,4364.487305,4409.743652,4374.871582,4369.358887,4367.820313,4366.282227,4338.077148,4379.487305,4457.307617,4528.461426,4429.615234,4453.461426,,,,,,,,,,,,,,,,,,,,,,,,,,,,,,,,,,,,,,,,,,,,,,,,,,,,,,,,,,,,,,,,,,,,,,
1768972256.246129,1768972256.246446,11.0,0.0,4409.358887,4407.820313,4358.846191,4411.153809,4373.589844,4377.692383,4373.077148,4376.922852,4344.615234,4382.563965,4461.025879,4535.384766,4429.487305,4446.922852,,,,,,,,,,,,,,,,,,,,,,,,,,,,,,,,,,,,,,,,,,,,,,,,,,,,,,,,,,,,,,,,,,,,,,
1768972256.253937,1768972256.254454,12.0,0.0,4404.487305,4407.436035,4353.589844,4411.025879,4373.717773,4371.538574,4370.256348,4374.743652,4345.897461,4390.897461,4458.717773,4527.820313,4426.794922,4445.641113,,,,,,,,,,,,,,,,,,,,,,,,,,,,,,,,,,,,,,,,,,,,,,,,,,,,,,,,,,,,,,,,,,,,,,
1768972256.261746,1768972256.262263,13.0,0.0,4398.333496,4405.897461,4352.692383,4410.769043,4377.05127,4366.025879,4367.179688,4370.769043,4339.358887,4387.563965,4455.512695,4514.102539,4423.717773,4445.769043,,,,,,,,,,,,,,,,,,,,,,,,,,,,,,,,,,,,,,,,,,,,,,,,,,,,,,,,,,,,,,,,,,,,,,
1768972256.269554,1768972256.270171,14.0,0.0,4397.05127,4406.794922,4353.717773,4412.563965,4375.256348,4377.179688,4373.333496,4378.333496,4343.461426,4384.743652,4458.205078,4516.153809,4422.563965,4439.358887,0.605718,0.441491,0.349886,0.31001,0.194081,0.773932,0.72824,0.347768,0.295992,0.113426,0.270259,0.489757,0.328541,0.145805,0.079737,0.248589,0.301612,0.362239,0.14586,0.060539,0.222724,0.163119,0.093676,0.090686,0.105913,0.545832,0.802987,0.232022,0.276827,0.204615,0.577367,0.864272,0.220811,0.416949,0.262396,0.43892,0.362111,0.232491,0.2415,0.304505,0.236406,0.274299,0.156833,0.135419,0.266649,0.477126,0.380782,0.429422,0.561803,0.310786,0.877918,0.690295,0.6018,0.247946,0.165524,0.791589,1.24342,0.652838,0.222692,0.139698,0.425561,0.625199,0.333978,0.254712,0.174361,0.583747,0.803001,0.578132,0.273184,0.261505
1768972256.277363,1768972256.27798,15.0,0.0,4404.743652,4412.436035,4358.846191,4413.717773,4368.077148,4382.05127,4375.256348,4386.025879,4352.179688,4378.974121,4457.307617,4523.077148,4420.0,4436.538574,,,,,,,,,,,,,,,,,,,,,,,,,,,,,,,,,,,,,,,,,,,,,,,,,,,,,,,,,,,,,,,,,,,,,,
1768972256.285171,1768972256.285588,16.0,0.0,4405.0,4411.794922,4362.94873,4412.179688,4369.615234,4372.820313,4367.94873,4381.666504,4350.641113,4371.538574,4449.230957,4519.358887,4420.512695,4436.538574,,,,,,,,,,,,,,,,,,,,,,,,,,,,,,,,,,,,,,,,,,,,,,,,,,,,,,,,,,,,,,,,,,,,,,
1768972256.29298,1768972256.293397,17.0,0.0,4395.769043,4405.0,4356.922852,4409.871582,4377.436035,4369.102539,4363.077148,4364.615234,4342.05127,4382.307617,4443.077148,4509.615234,4425.512695,4433.717773,,,,,,,,,,,,,,,,,,,,,,,,,,,,,,,,,,,,,,,,,,,,,,,,,,,,,,,,,,,,,,,,,,,,,,
1768972256.300788,1768972256.301105,18.0,0.0,4398.333496,4406.282227,4353.461426,4411.025879,4373.717773,4373.589844,4365.128418,4360.897461,4340.641113,4394.743652,4445.256348,4511.282227,4429.743652,4437.179688,,,,,,,,,,,,,,,,,,,,,,,,,,,,,,,,,,,,,,,,,,,,,,,,,,,,,,,,,,,,,,,,,,,,,,
1768972256.308596,1768972256.308914,19.0,0.0,4410.641113,4413.205078,4361.025879,4411.153809,4366.153809,4368.461426,4360.384766,4372.436035,4348.717773,4391.282227,4448.333496,4520.512695,4427.692383,4443.717773,,,,,,,,,,,,,,,,,,,,,,,,,,,,,,,,,,,,,,,,,,,,,,,,,,,,,,,,,,,,,,,,,,,,,,
1768972256.316405,1768972256.316922,20.0,0.0,4414.743652,4413.717773,4364.358887,4411.282227,4368.077148,4358.461426,4351.666504,4370.128418,4350.512695,4391.538574,4450.0,4522.436035,4427.94873,4447.179688,,,,,,,,,,,,,,,,,,,,,,,,,,,,,,,,,,,,,,,,,,,,,,,,,,,,,,,,,,,,,,,,,,,,,,
1768972256.324213,1768972256.32473,21.0,0.0,4413.974121,4415.897461,4362.179688,4418.846191,4375.384766,4367.179688,4358.077148,4359.230957,4343.333496,4390.512695,4450.256348,4517.692383,4433.077148,4445.128418,,,,,,,,,,,,,,,,,,,,,,,,,,,,,,,,,,,,,,,,,,,,,,,,,,,,,,,,,,,,,,,,,,,,,,
1768972256.332022,1768972256.332639,22.0,0.0,4416.025879,4422.436035,4362.692383,4426.025879,4373.333496,4377.563965,4366.666504,4363.974121,4342.179688,4382.179688,4447.820313,4510.512695,4433.461426,4442.05127,,,,,,,,,,,,,,,,,,,,,,,,,,,,,,,,,,,,,,,,,,,,,,,,,,,,,,,,,,,,,,,,,,,,,,
1768972256.33983,1768972256.340447,23.0,0.0,4414.615234,4421.153809,4365.641113,4426.794922,4364.358887,4372.05127,4361.538574,4373.077148,4349.743652,4381.282227,4453.205078,4505.512695,4430.128418,4443.846191,,,,,,,,,,,,,,,,,,,,,,,,,,,,,,,,,,,,,,,,,,,,,,,,,,,,,,,,,,,,,,,,,,,,,,
1768972256.347639,1768972256.348455,24.0,0.0,4410.512695,4414.743652,4364.743652,4426.410156,4368.077148,4364.487305,4355.0,4367.563965,4350.256348,4383.461426,4456.794922,4505.0,4426.025879,4442.820313,,,,,,,,,,,,,,,,,,,,,,,,,,,,,,,,,,,,,,,,,,,,,,,,,,,,,,,,,,,,,,,,,,,,,,
1768972256.355447,1768972256.356264,25.0,0.0,4417.179688,4413.077148,4363.974121,4426.794922,4376.282227,4364.487305,4357.563965,4361.410156,4346.025879,4387.563965,4450.0,4509.102539,4425.897461,4439.871582,,,,,,,,,,,,,,,,,,,,,,,,,,,,,,,,,,,,,,,,,,,,,,,,,,,,,,,,,,,,,,,,,,,,,,
1768972256.363256,1768972256.364172,26.0,0.0,4424.102539,4414.102539,4366.538574,4427.179688,4375.769043,4370.641113,4363.589844,4369.487305,4350.897461,4393.846191,4452.05127,4513.461426,4431.282227,4442.307617,,,,,,,,,,,,,,,,,,,,,,,,,,,,,,,,,,,,,,,,,,,,,,,,,,,,,,,,,,,,,,,,,,,,,,
1768972256.371064,1768972256.371981,27.0,0.0,4417.820313,4413.846191,4366.538574,4428.717773,4373.461426,4376.794922,4369.615234,4377.436035,4357.05127,4393.461426,4462.179688,4519.230957,4434.487305,4443.589844,,,,,,,,,,,,,,,,,,,,,,,,,,,,,,,,,,,,,,,,,,,,,,,,,,,,,,,,,,,,,,,,,,,,,,
1768972256.378873,1768972256.379989,28.0,0.0,4410.128418,4412.179688,4361.794922,4428.333496,4375.128418,4376.153809,4373.333496,4374.102539,4358.205078,4391.794922,4462.05127,4521.922852,4430.897461,4440.128418,,,,,,,,,,,,,,,,,,,,,,,,,,,,,,,,,,,,,,,,,,,,,,,,,,,,,,,,,,,,,,,,,,,,,,
1768972256.386681,1768972256.387797,29.0,0.0,4411.794922,4411.922852,4359.871582,4426.025879,4374.743652,4371.025879,4370.128418,4370.512695,4357.179688,4398.333496,4458.077148,4517.820313,4430.384766,4441.794922,,,,,,,,,,,,,,,,,,,,,,,,,,,,,,,,,,,,,,,,,,,,,,,,,,,,,,,,,,,,,,,,,,,,,,
1768972256.394489,1768972256.395506,30.0,0.0,4414.230957,4413.717773,4362.692383,4426.794922,4368.974121,4371.794922,4371.666504,4378.589844,4357.692383,4401.410156,4461.410156,4517.692383,4432.820313,4445.769043,0.474942,0.500958,0.374202,0.3396,0.183074,0.722076,0.689751,0.395876,0.293372,0.107132,0.293021,0.520114,0.3412,0.169579,0.082349,0.243564,0.29691,0.374043,0.158641,0.052955,0.259606,0.135686,0.080445,0.08634,0.092222,0.525453,0.732421,0.231765,0.29776,0.204728,0.553068,0.786045,0.2167,0.388346,0.24842,0.51996,0.31653,0.214777,0.222576,0.279559,0.25121,0.285675,0.137095,0.146873,0.243021,0.457537,0.388582,0.462782,0.568323,0.326692,0.725342,0.652436,0.613493,0.25325,0.1525,0.577345,0.957047,0.497426,0.232084,0.133319,0.420388,0.639644,0.320124,0.267918,0.158056,0.431728,0.766314,0.580425,0.297074,0.25849
1768972256.402298,1768972256.403314,31.0,0.0,4412.436035,4412.436035,4364.615234,4426.282227,4366.025879,4375.0,4373.717773,4380.897461,4356.282227,4389.487305,4460.897461,4519.102539,4427.820313,4443.461426,,,,,,,,,,,,,,,,,,,,,,,,,,,,,,,,,,,,,,,,,,,,,,,,,,,,,,,,,,,,,,,,,,,,,,
1768972256.410106,1768972256.410923,32.0,0.0,4412.692383,4412.05127,4367.820313,4425.641113,4370.128418,4367.820313,4362.179688,4371.025879,4352.563965,4384.230957,4455.769043,4516.922852,4430.384766,4441.666504,,,,,,,,,,,,,,,,,,,,,,,,,,,,,,,,,,,,,,,,,,,,,,,,,,,,,,,,,,,,,,,,,,,,,,
1768972256.417915,1768972256.418731,33.0,0.0,4414.743652,4420.769043,4372.179688,4428.077148,4374.743652,4360.384766,4356.282227,4369.358887,4354.871582,4393.589844,4457.307617,4515.512695,4442.307617,4443.846191,,,,,,,,,,,,,,,,,,,,,,,,,,,,,,,,,,,,,,,,,,,,,,,,,,,,,,,,,,,,,,,,,,,,,,
1768972256.425723,1768972256.42644,34.0,0.0,4412.307617,4425.128418,4370.897461,4427.307617,4373.846191,4364.871582,4362.692383,4374.487305,4357.436035,4393.077148,4461.666504,4513.333496,4440.512695,4445.256348,,,,,,,,,,,,,,,,,,,,,,,,,,,,,,,,,,,,,,,,,,,,,,,,,,,,,,,,,,,,,,,,,,,,,,
1768972256.433531,1768972256.434248,35.0,0.0,4407.307617,4416.282227,4365.384766,4424.743652,4375.0,4373.077148,4361.282227,4370.256348,4353.846191,4385.0,4455.897461,4512.307617,4429.487305,4440.384766,,,,,,,,,,,,,,,,,,,,,,,,,,,,,,,,,,,,,,,,,,,,,,,,,,,,,,,,,,,,,,,,,,,,,,
1768972256.44134,1768972256.441857,36.0,0.0,4406.153809,4411.922852,4363.589844,4425.769043,4377.563965,4373.205078,4357.692383,4367.820313,4354.743652,4391.025879,4443.461426,4513.205078,4427.179688,4431.153809,,,,,,,,,,,,,,,,,,,,,,,,,,,,,,,,,,,,,,,,,,,,,,,,,,,,,,,,,,,,,,,,,,,,,,
1768972256.449148,1768972256.449666,37.0,0.0,4406.410156,4416.410156,4364.358887,4427.179688,4375.512695,4367.307617,4365.512695,4371.538574,4357.563965,4393.589844,4441.282227,4506.538574,4429.743652,4427.436035,,,,,,,,,,,,,,,,,,,,,,,,,,,,,,,,,,,,,,,,,,,,,,,,,,,,,,,,,,,,,,,,,,,,,,
1768972256.456957,1768972256.457574,38.0,0.0,4403.974121,4418.205078,4363.717773,4428.333496,4373.461426,4368.717773,4373.974121,4376.153809,4356.025879,4384.871582,4446.153809,4498.077148,4428.205078,4429.230957,,,,,,,,,,,,,,,,,,,,,,,,,,,,,,,,,,,,,,,,,,,,,,,,,,,,,,,,,,,,,,,,,,,,,,
1768972256.464765,1768972256.465382,39.0,0.0,4403.205078,4415.512695,4365.128418,4427.05127,4372.307617,4375.0,4375.0,4384.102539,4359.871582,4387.94873,4447.692383,4501.922852,4424.487305,4429.102539,,,,,,,,,,,,,,,,,,,,,,,,,,,,,,,,,,,,,,,,,,,,,,,,,,,,,,,,,,,,,,,,,,,,,,
1768972256.472574,1768972256.473391,40.0,0.0,4403.974121,4415.897461,4365.512695,4424.230957,4375.512695,4370.897461,4369.487305,4379.487305,4356.794922,4394.102539,4445.897461,4497.179688,4424.871582,4427.820313,,,,,,,,,,,,,,,,,,,,,,,,,,,,,,,,,,,,,,,,,,,,,,,,,,,,,,,,,,,,,,,,,,,,,,
1768972256.480382,1768972256.481199,41.0,0.0,4402.436035,4416.666504,4363.461426,4421.538574,4378.717773,4357.94873,4358.974121,4360.897461,4340.384766,4382.820313,4440.256348,4481.410156,4422.436035,4426.025879,,,,,,,,,,,,,,,,,,,,,,,,,,,,,,,,,,,,,,,,,,,,,,,,,,,,,,,,,,,,,,,,,,,,,,
1768972256.488191,1768972256.489107,42.0,0.0,4402.820313,4417.94873,4364.743652,4419.487305,4375.128418,4353.205078,4353.205078,4359.102539,4341.410156,4372.179688,4444.230957,4484.871582,4419.487305,4430.769043,,,,,,,,,,,,,,,,,,,,,,,,,,,,,,,,,,,,,,,,,,,,,,,,,,,,,,,,,,,,,,,,,,,,,,
1768972256.495999,1768972256.496916,43.0,0.0,4407.820313,4422.820313,4370.256348,4423.717773,4375.0,4360.641113,4355.897461,4368.589844,4352.692383,4383.461426,4455.512695,4502.179688,4425.769043,4442.94873,,,,,,,,,,,,,,,,,,,,,,,,,,,,,,,,,,,,,,,,,,,,,,,,,,,,,,,,,,,,,,,,,,,,,,
1768972256.503807,1768972256.504525,44.0,0.0,4411.666504,4428.717773,4374.358887,4428.846191,4381.282227,4366.282227,4358.461426,4362.820313,4345.769043,4394.615234,4451.153809,4499.102539,4427.820313,4442.179688,,,,,,,,,,,,,,,,,,,,,,,,,,,,,,,,,,,,,,,,,,,,,,,,,,,,,,,,,,,,,,,,,,,,,,
1768972256.511616,1768972256.512333,45.0,0.0,4413.205078,4429.358887,4372.05127,4424.230957,4383.974121,4366.794922,4356.282227,4354.743652,4337.436035,4386.922852,4440.769043,4485.128418,4415.384766,4428.846191,,,,,,,,,,,,,,,,,,,,,,,,,,,,,,,,,,,,,,,,,,,,,,,,,,,,,,,,,,,,,,,,,,,,,,
1768972256.519424,1768972256.520042,46.0,0.0,4406.666504,4426.666504,4365.641113,4419.743652,4378.717773,4365.256348,4354.230957,4357.563965,4342.820313,4379.743652,4442.820313,4483.589844,4408.717773,4425.769043,0.366553,0.52615,0.374452,0.369925,0.169656,0.646386,0.60096,0.423137,0.290441,0.104324,0.308879,0.522156,0.316324,0.185996,0.082828,0.224341,0.27349,0.34061,0.165946,0.049692,0.287159,0.105995,0.070958,0.084784,0.082957,0.49175,0.628342,0.244832,0.328436,0.211898,0.526852,0.719726,0.226664,0.356559,0.247687,0.564834,0.282819,0.208218,0.204757,0.279657,0.28253,0.313739,0.13527,0.158623,0.224311,0.422543,0.382307,0.474095,0.58702,0.327925,0.564591,0.571405,0.565589,0.260081,0.13772,0.435443,0.710866,0.377036,0.245854,0.128411,0.388815,0.610163,0.287122,0.276429,0.155657,0.313478,0.683558,0.557365,0.326667,0.252781
1768972256.527233,1768972256.52785,47.0,0.0,4398.461426,4428.461426,4360.0,4425.128418,4374.102539,4364.487305,4355.512695,4357.692383,4345.128418,4377.563965,4445.384766,4489.102539,4414.230957,4430.128418,,,,,,,,,,,,,,,,,,,,,,,,,,,,,,,,,,,,,,,,,,,,,,,,,,,,,,,,,,,,,,,,,,,,,,
1768972256.535041,1768972256.535858,48.0,0.0,4403.077148,4428.974121,4360.769043,4428.461426,4374.871582,4366.282227,4357.436035,4360.256348,4343.333496,4379.743652,4442.307617,4493.333496,4413.461426,4428.077148,,,,,,,,,,,,,,,,,,,,,,,,,,,,,,,,,,,,,,,,,,,,,,,,,,,,,,,,,,,,,,,,,,,,,,
1768972256.54285,1768972256.543667,49.0,0.0,4413.589844,4426.922852,4365.512695,4425.769043,4377.692383,4369.102539,4361.922852,4366.025879,4343.717773,4386.153809,4442.563965,4497.436035,4410.128418,4424.743652,,,,,,,,,,,,,,,,,,,,,,,,,,,,,,,,,,,,,,,,,,,,,,,,,,,,,,,,,,,,,,,,,,,,,,
1768972256.550658,1768972256.551575,50.0,0.0,4413.974121,4427.692383,4367.05127,4426.410156,4378.077148,4364.358887,4362.307617,4357.563965,4342.436035,4378.333496,4440.769043,4494.743652,4409.487305,4425.384766,,,,,,,,,,,,,,,,,,,,,,,,,,,,,,,,,,,,,,,,,,,,,,,,,,,,,,,,,,,,,,,,,,,,,,
1768972256.558467,1768972256.559383,51.0,0.0,4412.94873,4428.333496,4367.05127,4427.179688,4378.461426,4359.358887,4356.410156,4347.179688,4341.410156,4371.410156,4438.974121,4492.436035,4410.384766,4427.94873,,,,,,,,,,,,,,,,,,,,,,,,,,,,,,,,,,,,,,,,,,,,,,,,,,,,,,,,,,,,,,,,,,,,,,
1768972256.566275,1768972256.566992,52.0,0.0,4415.0,4427.436035,4369.102539,4426.025879,4381.025879,4366.025879,4358.717773,4356.410156,4342.820313,4384.487305,4442.692383,4497.94873,4413.589844,4431.025879,,,,,,,,,,,,,,,,,,,,,,,,,,,,,,,,,,,,,,,,,,,,,,,,,,,,,,,,,,,,,,,,,,,,,,
1768972256.574083,1768972256.574801,53.0,0.0,4408.846191,4427.820313,4365.897461,4426.410156,4379.871582,4369.871582,4360.641113,4362.94873,4342.436035,4382.692383,4444.102539,4495.256348,4413.589844,4429.487305,,,,,,,,,,,,,,,,,,,,,,,,,,,,,,,,,,,,,,,,,,,,,,,,,,,,,,,,,,,,,,,,,,,,,,
1768972256.581892,1768972256.582509,54.0,0.0,4406.025879,4428.974121,4359.743652,4426.410156,4379.615234,4363.717773,4355.512695,4361.153809,4344.487305,4369.615234,4442.820313,4487.563965,4409.871582,4425.769043,,,,,,,,,,,,,,,,,,,,,,,,,,,,,,,,,,,,,,,,,,,,,,,,,,,,,,,,,,,,,,,,,,,,,,
1768972256.5897,1768972256.590318,55.0,0.0,4412.307617,4427.563965,4363.333496,4427.05127,4381.538574,4358.717773,4354.102539,4366.282227,4350.256348,4381.025879,4445.128418,4495.769043,4411.153809,4427.307617,,,,,,,,,,,,,,,,,,,,,,,,,,,,,,,,,,,,,,,,,,,,,,,,,,,,,,,,,,,,,,,,,,,,,,
1768972256.597509,1768972256.597926,56.0,0.0,4410.256348,4426.282227,4366.538574,4427.94873,4381.666504,4360.256348,4354.871582,4363.974121,4350.641113,4389.487305,4446.410156,4504.871582,4412.436035,4432.179688,,,,,,,,,,,,,,,,,,,,,,,,,,,,,,,,,,,,,,,,,,,,,,,,,,,,,,,,,,,,,,,,,,,,,,
1768972256.605317,1768972256.605735,57.0,0.0,4401.282227,4426.282227,4359.230957,4426.794922,4381.025879,4365.897461,4353.974121,4352.05127,4343.077148,4381.153809,4442.307617,4495.769043,4405.0,4431.410156,,,,,,,,,,,,,,,,,,,,,,,,,,,,,,,,,,,,,,,,,,,,,,,,,,,,,,,,,,,,,,,,,,,,,,
1768972256.613126,1768972256.613443,58.0,0.0,4402.94873,4427.179688,4357.94873,4425.128418,4380.641113,4370.512695,4357.436035,4354.230957,4338.846191,4379.743652,4440.897461,4488.461426,4399.230957,4425.897461,,,,,,,,,,,,,,,,,,,,,,,,,,,,,,,,,,,,,,,,,,,,,,,,,,,,,,,,,,,,,,,,,,,,,,
1768972256.620934,1768972256.621252,59.0,0.0,4413.077148,4427.563965,4364.743652,4426.922852,4380.512695,4363.846191,4359.358887,4364.102539,4344.871582,4378.717773,4443.077148,4495.512695,4402.94873,4426.410156,,,,,,,,,,,,,,,,,,,,,,,,,,,,,,,,,,,,,,,,,,,,,,,,,,,,,,,,,,,,,,,,,,,,,,
1768972256.628743,1768972256.62886,60.0,0.0,4413.461426,4422.05127,4361.282227,4427.563965,4376.922852,4355.512695,4356.666504,4361.922852,4349.487305,4375.769043,4445.384766,4499.615234,4407.820313,4430.897461,,,,,,,,,,,,,,,,,,,,,,,,,,,,,,,,,,,,,,,,,,,,,,,,,,,,,,,,,,,,,,,,,,,,,,
1768972256.636551,1768972256.636669,61.0,0.0,4401.666504,4412.820313,4350.384766,4418.077148,4371.666504,4364.358887,4359.487305,4360.0,4344.358887,4379.230957,4443.717773,4492.820313,4404.871582,4425.897461,,,,,,,,,,,,,,,,,,,,,,,,,,,,,,,,,,,,,,,,,,,,,,,,,,,,,,,,,,,,,,,,,,,,,,
1768972256.644359,1768972256.644377,62.0,0.0,4392.05127,4410.128418,4349.358887,4410.384766,4370.0,4370.0,4360.256348,4362.820313,4338.205078,4378.846191,4435.769043,4483.205078,4397.05127,4412.94873,0.286086,0.503394,0.350943,0.399535,0.155826,0.56903,0.486994,0.416134,0.295505,0.105311,0.325689,0.490512,0.261059,0.193258,0.08109,0.184246,0.235359,0.272044,0.170967,0.052008,0.298025,0.078468,0.068148,0.08767,0.077926,0.453775,0.52662,0.291419,0.365947,0.224109,0.509469,0.690956,0.275344,0.333361,0.259452,0.568886,0.269011,0.222177,0.190293,0.299448,0.327831,0.359963,0.154272,0.163627,0.210803,0.394805,0.364832,0.463928,0.611614,0.312837,0.45489,0.477358,0.468826,0.265724,0.122191,0.401138,0.558776,0.300566,0.266481,0.128217,0.343169,0.560301,0.240777,0.279391,0.158823,0.25409,0.570883,0.512528,0.351147,0.237446
1768972256.652168,1768972256.652186,63.0,0.0,4402.692383,4414.487305,4353.461426,4419.487305,4372.563965,4359.358887,4356.410156,4360.384766,4338.974121,4374.102539,4432.820313,4481.794922,4395.512695,4409.230957,,,,,,,,,,,,,,,,,,,,,,,,,,,,,,,,,,,,,,,,,,,,,,,,,,,,,,,,,,,,,,,,,,,,,,
1768972256.659976,1768972256.660194,64.0,0.0,4410.641113,4411.666504,4351.025879,4425.256348,4373.846191,4356.410156,4358.717773,4357.94873,4341.410156,4375.512695,4442.307617,4490.0,4400.128418,4420.897461,,,,,,,,,,,,,,,,,,,,,,,,,,,,,,,,,,,,,,,,,,,,,,,,,,,,,,,,,,,,,,,,,,,,,,
1768972256.667785,1768972256.668002,65.0,0.0,4398.974121,4405.384766,4349.615234,4418.333496,4372.307617,4367.436035,4366.538574,4362.179688,4343.205078,4378.846191,4447.05127,4495.769043,4399.487305,4428.717773,,,,,,,,,,,,,,,,,,,,,,,,,,,,,,,,,,,,,,,,,,,,,,,,,,,,,,,,,,,,,,,,,,,,,,
1768972256.675593,1768972256.675911,66.0,0.0,4397.94873,4409.871582,4357.179688,4421.025879,4374.358887,4367.05127,4366.922852,4367.563965,4347.563965,4378.077148,4442.692383,4496.025879,4399.358887,4426.410156,,,,,,,,,,,,,,,,,,,,,,,,,,,,,,,,,,,,,,,,,,,,,,,,,,,,,,,,,,,,,,,,,,,,,,
1768972256.683402,1768972256.683719,67.0,0.0,4413.077148,4416.025879,4362.436035,4428.205078,4378.589844,4356.282227,4357.179688,4362.94873,4346.922852,4375.128418,4450.512695,4500.128418,4410.641113,4431.282227,,,,,,,,,,,,,,,,,,,,,,,,,,,,,,,,,,,,,,,,,,,,,,,,,,,,,,,,,,,,,,,,,,,,,,
1768972256.69121,1768972256.691727,68.0,0.0,4413.717773,4413.461426,4359.102539,4422.436035,4382.436035,4357.820313,4353.077148,4356.922852,4342.94873,4370.641113,4455.769043,4500.512695,4411.282227,4437.436035,,,,,,,,,,,,,,,,,,,,,,,,,,,,,,,,,,,,,,,,,,,,,,,,,,,,,,,,,,,,,,,,,,,,,,
1768972256.699018,1768972256.699536,69.0,0.0,4408.846191,4410.384766,4361.794922,4421.153809,4381.410156,4364.358887,4357.05127,4357.94873,4343.205078,4372.179688,4446.922852,4496.794922,4397.563965,4433.333496,,,,,,,,,,,,,,,,,,,,,,,,,,,,,,,,,,,,,,,,,,,,,,,,,,,,,,,,,,,,,,,,,,,,,,
1768972256.706827,1768972256.707244,70.0,0.0,4413.974121,4408.974121,4366.538574,4428.461426,4376.666504,4366.794922,4362.820313,4360.641113,4343.717773,4380.128418,4443.846191,4495.897461,4395.897461,4427.307617,,,,,,,,,,,,,,,,,,,,,,,,,,,,,,,,,,,,,,,,,,,,,,,,,,,,,,,,,,,,,,,,,,,,,,
1768972256.714635,1768972256.715053,71.0,0.0,4405.384766,4400.769043,4358.077148,4421.538574,4377.563965,4373.205078,4368.077148,4362.436035,4340.769043,4376.538574,4440.641113,4491.282227,4396.153809,4417.692383,,,,,,,,,,,,,,,,,,,,,,,,,,,,,,,,,,,,,,,,,,,,,,,,,,,,,,,,,,,,,,,,,,,,,,
1768972256.722444,1768972256.723061,72.0,0.0,4388.589844,4391.538574,4347.05127,4407.179688,4378.974121,4375.0,4366.410156,4364.358887,4340.769043,4361.666504,4432.820313,4484.743652,4387.179688,4408.077148,,,,,,,,,,,,,,,,,,,,,,,,,,,,,,,,,,,,,,,,,,,,,,,,,,,,,,,,,,,,,,,,,,,,,,
1768972256.730252,1768972256.73087,73.0,0.0,4398.974121,4393.846191,4351.794922,4409.102539,4372.307617,4361.282227,4354.358887,4363.717773,4346.410156,4363.333496,4437.692383,4491.153809,4389.743652,4416.794922,,,,,,,,,,,,,,,,,,,,,,,,,,,,,,,,,,,,,,,,,,,,,,,,,,,,,,,,,,,,,,,,,,,,,,
1768972256.738061,1768972256.738778,74.0,0.0,4415.128418,4401.025879,4363.077148,4418.077148,4370.0,4359.615234,4356.794922,4360.897461,4346.282227,4377.94873,4447.820313,4503.846191,4400.641113,4431.282227,,,,,,,,,,,,,,,,,,,,,,,,,,,,,,,,,,,,,,,,,,,,,,,,,,,,,,,,,,,,,,,,,,,,,,
1768972256.745869,1768972256.746586,75.0,0.0,4409.102539,4400.641113,4360.384766,4416.794922,4376.410156,4376.410156,4376.538574,4356.282227,4333.333496,4375.384766,4444.102539,4501.410156,4398.333496,4428.846191,,,,,,,,,,,,,,,,,,,,,,,,,,,,,,,,,,,,,,,,,,,,,,,,,,,,,,,,,,,,,,,,,,,,,,
1768972256.753677,1768972256.754595,76.0,0.0,4400.384766,4398.205078,4348.846191,4410.256348,4375.128418,4364.743652,4364.615234,4352.05127,4327.307617,4365.256348,4439.615234,4490.384766,4392.307617,4423.974121,,,,,,,,,,,,,,,,,,,,,,,,,,,,,,,,,,,,,,,,,,,,,,,,,,,,,,,,,,,,,,,,,,,,,,
1768972256.761486,1768972256.762403,77.0,0.0,4405.0,4401.282227,4347.563965,4410.769043,4367.436035,4334.871582,4329.743652,4352.436035,4333.846191,4362.179688,4440.641113,4482.179688,4396.410156,4427.692383,,,,,,,,,,,,,,,,,,,,,,,,,,,,,,,,,,,,,,,,,,,,,,,,,,,,,,,,,,,,,,,,,,,,,,
1768972256.769294,1768972256.770112,78.0,0.0,4405.897461,4403.974121,4353.717773,4414.487305,4370.0,4341.153809,4329.615234,4348.333496,4331.025879,4357.563965,4440.384766,4479.358887,4398.077148,4428.205078,0.264831,0.436378,0.309353,0.42584,0.142548,0.525432,0.379332,0.3723,0.311596,0.109089,0.35157,0.432159,0.194595,0.192549,0.077566,0.160319,0.193578,0.190711,0.176024,0.058442,0.28898,0.057081,0.072825,0.094531,0.076273,0.415049,0.454418,0.381503,0.400422,0.237641,0.516515,0.70956,0.376289,0.322044,0.275601,0.540394,0.277391,0.262736,0.182,0.32818,0.389628,0.418864,0.191317,0.159375,0.201772,0.365006,0.342928,0.445678,0.639085,0.288251,0.435492,0.399679,0.350918,0.272446,0.109529,0.488099,0.506641,0.258352,0.296029,0.135162,0.298253,0.518705,0.191379,0.278574,0.16042,0.251475,0.455819,0.457681,0.363821,0.211256
1768972256.777103,1768972256.77792,79.0,0.0,4404.358887,4408.717773,4354.102539,4414.102539,4378.333496,4361.153809,4352.179688,4340.384766,4323.077148,4357.436035,4441.666504,4482.05127,4395.256348,4426.538574,,,,,,,,,,,,,,,,,,,,,,,,,,,,,,,,,,,,,,,,,,,,,,,,,,,,,,,,,,,,,,,,,,,,,,
1768972256.784911,1768972256.785928,80.0,0.0,4411.666504,4410.769043,4355.128418,4413.974121,4381.666504,4357.820313,4356.538574,4346.153809,4331.025879,4370.128418,4443.846191,4485.769043,4398.077148,4431.794922,,,,,,,,,,,,,,,,,,,,,,,,,,,,,,,,,,,,,,,,,,,,,,,,,,,,,,,,,,,,,,,,,,,,,,
1768972256.79272,1768972256.793737,81.0,0.0,4412.692383,4399.615234,4358.974121,4415.769043,4378.205078,4358.846191,4354.743652,4355.897461,4339.358887,4378.846191,4447.05127,4488.205078,4403.333496,4437.05127,,,,,,,,,,,,,,,,,,,,,,,,,,,,,,,,,,,,,,,,,,,,,,,,,,,,,,,,,,,,,,,,,,,,,,
1768972256.800528,1768972256.801445,82.0,0.0,4402.94873,4389.743652,4354.871582,4412.820313,4373.333496,4368.077148,4359.102539,4351.538574,4330.897461,4371.666504,4446.666504,4485.769043,4399.871582,4428.717773,,,,,,,,,,,,,,,,,,,,,,,,,,,,,,,,,,,,,,,,,,,,,,,,,,,,,,,,,,,,,,,,,,,,,,
1768972256.808337,1768972256.809254,83.0,0.0,4397.307617,4394.230957,4348.589844,4408.717773,4373.333496,4362.05127,4355.128418,4345.769043,4324.230957,4361.666504,4436.922852,4476.922852,4392.563965,4417.307617,,,,,,,,,,,,,,,,,,,,,,,,,,,,,,,,,,,,,,,,,,,,,,,,,,,,,,,,,,,,,,,,,,,,,,
1768972256.816145,1768972256.816862,84.0,0.0,4399.871582,4399.615234,4347.94873,4411.410156,4374.102539,4357.820313,4352.820313,4347.820313,4327.94873,4361.922852,4433.846191,4473.717773,4391.282227,4421.025879,,,,,,,,,,,,,,,,,,,,,,,,,,,,,,,,,,,,,,,,,,,,,,,,,,,,,,,,,,,,,,,,,,,,,,
1768972256.823954,1768972256.824671,85.0,0.0,4405.0,4397.179688,4348.589844,4412.563965,4373.846191,4365.384766,4358.589844,4349.871582,4329.871582,4363.846191,4443.333496,4483.205078,4391.538574,4429.102539,,,,,,,,,,,,,,,,,,,,,,,,,,,,,,,,,,,,,,,,,,,,,,,,,,,,,,,,,,,,,,,,,,,,,,
1768972256.831762,1768972256.832379,86.0,0.0,4405.641113,4395.128418,4349.358887,4405.769043,4374.230957,4365.0,4354.871582,4349.487305,4332.692383,4357.179688,4447.05127,4488.846191,4390.256348,4427.820313,,,,,,,,,,,,,,,,,,,,,,,,,,,,,,,,,,,,,,,,,,,,,,,,,,,,,,,,,,,,,,,,,,,,,,
1768972256.83957,1768972256.840188,87.0,0.0,4403.717773,4401.666504,4349.743652,4404.615234,4372.563965,4353.717773,4342.436035,4347.563965,4334.358887,4356.153809,4440.641113,4482.05127,4387.94873,4425.769043,,,,,,,,,,,,,,,,,,,,,,,,,,,,,,,,,,,,,,,,,,,,,,,,,,,,,,,,,,,,,,,,,,,,,,
1768972256.847379,1768972256.847796,88.0,0.0,4407.05127,4411.025879,4349.615234,4411.153809,4372.05127,4351.282227,4337.692383,4344.230957,4330.641113,4365.897461,4440.128418,4480.0,4390.897461,4428.333496,,,,,,,,,,,,,,,,,,,,,,,,,,,,,,,,,,,,,,,,,,,,,,,,,,,,,,,,,,,,,,,,,,,,,,
1768972256.855187,1768972256.855605,89.0,0.0,4412.820313,4413.846191,4353.077148,4413.333496,4375.0,4356.538574,4343.077148,4342.05127,4330.512695,4369.871582,4444.871582,4485.0,4397.05127,4430.384766,,,,,,,,,,,,,,,,,,,,,,,,,,,,,,,,,,,,,,,,,,,,,,,,,,,,,,,,,,,,,,,,,,,,,,
1768972256.862996,1768972256.863513,90.0,0.0,4412.179688,4412.692383,4355.641113,4408.205078,4375.384766,4358.077148,4351.410156,4344.615234,4336.666504,4363.461426,4444.615234,4485.384766,4395.256348,4430.512695,,,,,,,,,,,,,,,,,,,,,,,,,,,,,,,,,,,,,,,,,,,,,,,,,,,,,,,,,,,,,,,,,,,,,,
1768972256.870804,1768972256.871322,91.0,0.0,4408.333496,4413.846191,4353.205078,4403.846191,4372.820313,4360.0,4360.769043,4354.743652,4341.666504,4359.230957,4443.717773,4482.179688,4391.794922,4430.128418,,,,,,,,,,,,,,,,,,,,,,,,,,,,,,,,,,,,,,,,,,,,,,,,,,,,,,,,,,,,,,,,,,,,,,
1768972256.878613,1768972256.87933,92.0,0.0,4405.128418,4418.974121,4353.846191,4402.94873,4373.461426,4365.641113,4363.846191,4361.410156,4339.743652,4360.512695,4444.743652,4482.436035,4392.179688,4429.487305,,,,,,,,,,,,,,,,,,,,,,,,,,,,,,,,,,,,,,,,,,,,,,,,,,,,,,,,,,,,,,,,,,,,,,
1768972256.886421,1768972256.887138,93.0,0.0,4402.179688,4426.538574,4355.128418,4404.743652,4374.743652,4364.487305,4355.256348,4352.563965,4334.871582,4357.94873,4444.743652,4483.205078,4390.641113,4429.487305,,,,,,,,,,,,,,,,,,,,,,,,,,,,,,,,,,,,,,,,,,,,,,,,,,,,,,,,,,,,,,,,,,,,,,
1768972256.89423,1768972256.895047,94.0,0.0,4396.153809,4428.846191,4351.025879,4402.179688,4374.358887,4366.153809,4358.717773,4353.589844,4337.179688,4352.563965,4443.205078,4484.487305,4382.436035,4428.205078,0.306687,0.348194,0.26338,0.44444,0.132081,0.530864,0.310058,0.302935,0.332833,0.113813,0.393174,0.363157,0.139503,0.187088,0.073408,0.151687,0.162613,0.12134,0.180535,0.06619,0.264746,0.049089,0.084362,0.102354,0.077291,0.371867,0.419903,0.501169,0.418948,0.248859,0.547448,0.768118,0.515096,0.318646,0.285054,0.518171,0.307075,0.326371,0.182575,0.355588,0.466583,0.475872,0.237933,0.147707,0.196454,0.339063,0.323333,0.431584,0.659826,0.265783,0.510444,0.35497,0.245163,0.2807,0.104108,0.680698,0.520022,0.237465,0.332306,0.149987,0.262957,0.504435,0.148997,0.276246,0.157828,0.289115,0.373802,0.411755,0.361871,0.179927
1768972256.902038,1768972256.902855,95.0,0.0,4392.436035,4425.256348,4349.102539,4395.641113,4376.153809,4378.205078,4374.358887,4366.794922,4343.333496,4353.077148,4442.692383,4488.461426,4376.794922,4426.922852,,,,,,,,,,,,,,,,,,,,,,,,,,,,,,,,,,,,,,,,,,,,,,,,,,,,,,,,,,,,,,,,,,,,,,
1768972256.909846,1768972256.910464,96.0,0.0,4402.820313,4427.436035,4355.512695,4401.282227,4375.256348,4377.692383,4367.563965,4358.333496,4338.589844,4358.077148,4443.846191,4492.05127,4382.692383,4430.128418,,,,,,,,,,,,,,,,,,,,,,,,,,,,,,,,,,,,,,,,,,,,,,,,,,,,,,,,,,,,,,,,,,,,,,
1768972256.917655,1768972256.918272,97.0,0.0,4416.538574,4432.692383,4364.615234,4411.153809,4371.153809,4365.769043,4349.358887,4342.563965,4332.179688,4362.563965,4445.384766,4491.922852,4389.487305,4435.512695,,,,,,,,,,,,,,,,,,,,,,,,,,,,,,,,,,,,,,,,,,,,,,,,,,,,,,,,,,,,,,,,,,,,,,
1768972256.925463,1768972256.926181,98.0,0.0,4410.641113,4431.794922,4363.461426,4407.307617,4372.307617,4361.922852,4350.0,4348.333496,4340.384766,4368.333496,4445.0,4487.94873,4385.0,4435.641113,,,,,,,,,,,,,,,,,,,,,,,,,,,,,,,,,,,,,,,,,,,,,,,,,,,,,,,,,,,,,,,,,,,,,,
1768972256.933272,1768972256.933989,99.0,0.0,4393.077148,4422.563965,4354.487305,4400.256348,4375.641113,4367.307617,4360.769043,4357.94873,4345.897461,4364.743652,4443.077148,4482.692383,4378.974121,4428.974121,,,,,,,,,,,,,,,,,,,,,,,,,,,,,,,,,,,,,,,,,,,,,,,,,,,,,,,,,,,,,,,,,,,,,,
1768972256.94108,1768972256.941997,100.0,0.0,4390.769043,4411.538574,4355.128418,4401.410156,4371.153809,4372.563965,4360.0,4357.820313,4342.692383,4355.128418,4443.077148,4485.769043,4380.128418,4430.384766,,,,,,,,,,,,,,,,,,,,,,,,,,,,,,,,,,,,,,,,,,,,,,,,,,,,,,,,,,,,,,,,,,,,,,
1768972256.948889,1768972256.949806,101.0,0.0,4404.102539,4411.794922,4362.820313,4403.461426,4366.410156,4368.846191,4352.436035,4357.179688,4343.077148,4359.743652,4444.102539,4494.358887,4381.153809,4442.692383,,,,,,,,,,,,,,,,,,,,,,,,,,,,,,,,,,,,,,,,,,,,,,,,,,,,,,,,,,,,,,,,,,,,,,
1768972256.956697,1768972256.957714,102.0,0.0,4411.282227,4416.666504,4363.205078,4405.0,4367.436035,4360.641113,4352.179688,4354.615234,4344.230957,4368.077148,4443.205078,4491.666504,4377.820313,4442.179688,,,,,,,,,,,,,,,,,,,,,,,,,,,,,,,,,,,,,,,,,,,,,,,,,,,,,,,,,,,,,,,,,,,,,,
1768972256.964506,1768972256.965523,103.0,0.0,4403.205078,4413.846191,4359.615234,4404.615234,4365.769043,4361.282227,4359.743652,4354.230957,4343.974121,4366.025879,4443.077148,4483.846191,4373.461426,4429.487305,,,,,,,,,,,,,,,,,,,,,,,,,,,,,,,,,,,,,,,,,,,,,,,,,,,,,,,,,,,,,,,,,,,,,,
1768972256.972314,1768972256.973131,104.0,0.0,4392.307617,4411.025879,4360.384766,4400.897461,4364.743652,4370.0,4366.282227,4361.538574,4347.94873,4368.077148,4450.384766,4491.153809,4373.205078,4431.538574,,,,,,,,,,,,,,,,,,,,,,,,,,,,,,,,,,,,,,,,,,,,,,,,,,,,,,,,,,,,,,,,,,,,,,
1768972256.980122,1768972256.98094,105.0,0.0,4396.410156,4416.666504,4363.589844,4401.666504,4369.615234,4372.307617,4365.512695,4365.769043,4356.282227,4375.641113,4458.461426,4500.641113,4380.256348,4445.641113,,,,,,,,,,,,,,,,,,,,,,,,,,,,,,,,,,,,,,,,,,,,,,,,,,,,,,,,,,,,,,,,,,,,,,
1768972256.987931,1768972256.988848,106.0,0.0,4408.974121,4424.102539,4366.922852,4406.025879,4371.538574,4375.512695,4368.333496,4365.128418,4357.692383,4370.769043,4458.846191,4497.563965,4384.358887,4449.358887,,,,,,,,,,,,,,,,,,,,,,,,,,,,,,,,,,,,,,,,,,,,,,,,,,,,,,,,,,,,,,,,,,,,,,
1768972256.995739,1768972256.996656,107.0,0.0,4415.0,4426.666504,4366.410156,4408.846191,4372.05127,4375.769043,4366.794922,4362.179688,4351.153809,4366.282227,4454.871582,4496.666504,4382.94873,4445.769043,,,,,,,,,,,,,,,,,,,,,,,,,,,,,,,,,,,,,,,,,,,,,,,,,,,,,,,,,,,,,,,,,,,,,,
1768972257.003548,1768972257.004265,108.0,0.0,4410.512695,4422.307617,4361.153809,4407.179688,4375.512695,4370.897461,4361.025879,4358.717773,4348.461426,4377.307617,4457.94873,4502.563965,4385.897461,4445.769043,,,,,,,,,,,,,,,,,,,,,,,,,,,,,,,,,,,,,,,,,,,,,,,,,,,,,,,,,,,,,,,,,,,,,,
1768972257.011356,1768972257.012074,109.0,0.0,4406.153809,4413.461426,4360.897461,4401.153809,4375.512695,4376.153809,4368.205078,4361.666504,4351.410156,4381.666504,4458.974121,4500.512695,4388.589844,4446.282227,,,,,,,,,,,,,,,,,,,,,,,,,,,,,,,,,,,,,,,,,,,,,,,,,,,,,,,,,,,,,,,,,,,,,,
1768972257.019164,1768972257.019782,110.0,0.0,4404.871582,4409.230957,4363.205078,4395.384766,4371.025879,4378.461426,4370.256348,4364.358887,4350.256348,4371.538574,4445.256348,4498.077148,4384.102539,4443.461426,0.425954,0.268787,0.226729,0.452284,0.129206,0.574147,0.297638,0.230216,0.346432,0.117422,0.435446,0.303688,0.111754,0.181272,0.070719,0.18182,0.154756,0.080847,0.181416,0.073449,0.234971,0.060657,0.100242,0.107128,0.080066,0.328425,0.420031,0.613864,0.412672,0.258404,0.597025,0.849634,0.657126,0.318051,0.283314,0.539278,0.351273,0.399215,0.192363,0.373657,0.559435,0.510527,0.28107,0.133327,0.193951,0.311876,0.302616,0.422844,0.659915,0.255235,0.645329,0.34424,0.17509,0.287127,0.107596,0.943409,0.55038,0.230974,0.371306,0.170765,0.241907,0.51691,0.119266,0.27471,0.152416,0.3327,0.358191,0.390861,0.348047,0.151853
1768972257.026973,1768972257.027591,111.0,0.0,4402.05127,4411.282227,4362.179688,4396.922852,4367.05127,4366.410156,4356.538574,4359.871582,4348.205078,4367.563965,4441.922852,4506.282227,4385.897461,4442.692383,,,,,,,,,,,,,,,,,,,,,,,,,,,,,,,,,,,,,,,,,,,,,,,,,,,,,,,,,,,,,,,,,,,,,,
1768972257.034781,1768972257.035199,112.0,0.0,4405.0,4414.102539,4363.974121,4400.512695,4367.179688,4362.692383,4352.307617,4359.487305,4352.820313,4374.615234,4457.05127,4513.846191,4395.0,4449.102539,,,,,,,,,,,,,,,,,,,,,,,,,,,,,,,,,,,,,,,,,,,,,,,,,,,,,,,,,,,,,,,,,,,,,,
1768972257.04259,1768972257.043008,113.0,0.0,4411.282227,4412.94873,4365.641113,4400.384766,4371.794922,4369.615234,4362.692383,4364.743652,4355.769043,4380.897461,4462.05127,4512.94873,4394.615234,4452.692383,,,,,,,,,,,,,,,,,,,,,,,,,,,,,,,,,,,,,,,,,,,,,,,,,,,,,,,,,,,,,,,,,,,,,,
1768972257.050398,1768972257.050716,114.0,0.0,4406.282227,4406.410156,4363.077148,4397.94873,4372.307617,4372.179688,4366.666504,4365.769043,4356.538574,4378.077148,4457.179688,4512.820313,4388.974121,4446.153809,,,,,,,,,,,,,,,,,,,,,,,,,,,,,,,,,,,,,,,,,,,,,,,,,,,,,,,,,,,,,,,,,,,,,,
1768972257.058207,1768972257.058525,115.0,0.0,4396.538574,4403.461426,4362.94873,4394.871582,4372.436035,4376.666504,4366.666504,4366.666504,4359.871582,4366.666504,4458.717773,4516.538574,4387.179688,4441.282227,,,,,,,,,,,,,,,,,,,,,,,,,,,,,,,,,,,,,,,,,,,,,,,,,,,,,,,,,,,,,,,,,,,,,,
1768972257.066015,1768972257.066533,116.0,0.0,4395.512695,4410.769043,4363.846191,4396.153809,4377.436035,4379.743652,4369.743652,4369.615234,4356.410156,4368.461426,4454.871582,4516.538574,4384.102539,4443.974121,,,,,,,,,,,,,,,,,,,,,,,,,,,,,,,,,,,,,,,,,,,,,,,,,,,,,,,,,,,,,,,,,,,,,,
1768972257.073824,1768972257.074341,117.0,0.0,4397.436035,4412.820313,4362.563965,4399.102539,4379.102539,4375.641113,4373.717773,4368.461426,4350.128418,4380.0,4443.461426,4514.230957,4380.256348,4444.743652,,,,,,,,,,,,,,,,,,,,,,,,,,,,,,,,,,,,,,,,,,,,,,,,,,,,,,,,,,,,,,,,,,,,,,
1768972257.081632,1768972257.08225,118.0,0.0,4401.025879,4405.128418,4362.179688,4397.179688,4377.94873,4377.436035,4372.307617,4364.743652,4351.282227,4377.692383,4443.077148,4515.0,4379.487305,4441.410156,,,,,,,,,,,,,,,,,,,,,,,,,,,,,,,,,,,,,,,,,,,,,,,,,,,,,,,,,,,,,,,,,,,,,,
1768972257.08944,1768972257.090058,119.0,0.0,4402.94873,4404.871582,4364.358887,4393.717773,4380.256348,4387.820313,4372.692383,4365.512695,4354.230957,4369.871582,4448.077148,4514.743652,4380.641113,4441.538574,,,,,,,,,,,,,,,,,,,,,,,,,,,,,,,,,,,,,,,,,,,,,,,,,,,,,,,,,,,,,,,,,,,,,,
1768972257.097249,1768972257.098066,120.0,0.0,4400.769043,4408.717773,4367.820313,4398.717773,4382.179688,4394.743652,4382.179688,4371.538574,4354.358887,4368.205078,4451.153809,4513.461426,4381.922852,4443.077148,,,,,,,,,,,,,,,,,,,,,,,,,,,,,,,,,,,,,,,,,,,,,,,,,,,,,,,,,,,,,,,,,,,,,,
1768972257.105057,1768972257.105875,121.0,0.0,4407.563965,4408.205078,4371.153809,4404.871582,4383.461426,4380.512695,4370.512695,4365.641113,4351.538574,4370.0,4450.512695,4512.820313,4382.563965,4443.461426,,,,,,,,,,,,,,,,,,,,,,,,,,,,,,,,,,,,,,,,,,,,,,,,,,,,,,,,,,,,,,,,,,,,,,
1768972257.112866,1768972257.113583,122.0,0.0,4414.230957,4410.0,4369.871582,4399.615234,4385.384766,4358.077148,4342.436035,4347.563965,4347.692383,4376.922852,4448.717773,4512.820313,4383.974121,4442.820313,,,,,,,,,,,,,,,,,,,,,,,,,,,,,,,,,,,,,,,,,,,,,,,,,,,,,,,,,,,,,,,,,,,,,,
1768972257.120674,1768972257.121392,123.0,0.0,4406.794922,4411.153809,4366.153809,4395.128418,4385.384766,4361.025879,4345.769043,4349.615234,4347.563965,4385.769043,4454.743652,4515.256348,4388.205078,4443.205078,,,,,,,,,,,,,,,,,,,,,,,,,,,,,,,,,,,,,,,,,,,,,,,,,,,,,,,,,,,,,,,,,,,,,,
1768972257.128483,1768972257.1294,124.0,0.0,4402.179688,4406.922852,4365.0,4397.307617,4384.487305,4379.102539,4368.205078,4366.922852,4353.589844,4383.846191,4458.589844,4518.333496,4387.692383,4445.384766,,,,,,,,,,,,,,,,,,,,,,,,,,,,,,,,,,,,,,,,,,,,,,,,,,,,,,,,,,,,,,,,,,,,,,
1768972257.136291,1768972257.137209,125.0,0.0,4406.666504,4404.615234,4364.615234,4397.436035,4382.563965,4378.077148,4368.333496,4366.538574,4357.179688,4377.307617,4449.230957,4511.538574,4383.461426,4442.05127,,,,,,,,,,,,,,,,,,,,,,,,,,,,,,,,,,,,,,,,,,,,,,,,,,,,,,,,,,,,,,,,,,,,,,
1768972257.1441,1768972257.144917,126.0,0.0,4405.512695,4404.615234,4363.461426,4393.461426,4380.128418,4370.0,4364.102539,4356.282227,4349.102539,4370.256348,4439.743652,4499.230957,4380.128418,4431.410156,0.561261,0.218574,0.209698,0.450592,0.139045,0.604056,0.33894,0.182825,0.338447,0.118902,0.466333,0.267761,0.113687,0.178774,0.071621,0.230849,0.171984,0.073028,0.175113,0.08025,0.20361,0.090919,0.115733,0.105886,0.08337,0.292078,0.446734,0.677725,0.381764,0.272461,0.651849,0.935107,0.765467,0.319255,0.27771,0.608438,0.396952,0.460988,0.209159,0.377055,0.6407,0.507287,0.307137,0.121991,0.192728,0.284799,0.274534,0.418975,0.63094,0.259208,0.77813,0.354495,0.142032,0.286391,0.117596,1.207001,0.554475,0.235231,0.408788,0.192871,0.230931,0.540074,0.10321,0.27372,0.146744,0.362062,0.419516,0.395415,0.328824,0.133891
1768972257.151908,1768972257.152726,127.0,0.0,4399.487305,4406.025879,4360.512695,4390.384766,4382.307617,4373.205078,4366.153809,4356.666504,4341.794922,4371.538574,4441.025879,4496.025879,4373.974121,4425.897461,,,,,,,,,,,,,,,,,,,,,,,,,,,,,,,,,,,,,,,,,,,,,,,,,,,,,,,,,,,,,,,,,,,,,,
1768972257.159716,1768972257.160334,0.0,0.0,4394.871582,4405.641113,4356.666504,4387.436035,4380.897461,4378.589844,4363.589844,4361.410156,4346.922852,4376.666504,4446.410156,4501.538574,4373.846191,4430.384766,,,,,,,,,,,,,,,,,,,,,,,,,,,,,,,,,,,,,,,,,,,,,,,,,,,,,,,,,,,,,,,,,,,,,,
1768972257.167525,1768972257.168143,1.0,0.0,4384.615234,4394.102539,4351.538574,4382.820313,4373.974121,4383.717773,4374.615234,4361.666504,4349.230957,4356.410156,4440.641113,4496.153809,4373.077148,4425.897461,,,,,,,,,,,,,,,,,,,,,,,,,,,,,,,,,,,,,,,,,,,,,,,,,,,,,,,,,,,,,,,,,,,,,,
1768972257.175333,1768972257.175851,2.0,0.0,4381.666504,4388.077148,4347.820313,4379.615234,4373.077148,4378.974121,4376.538574,4357.05127,4339.487305,4342.692383,4432.692383,4489.358887,4367.436035,4415.897461,,,,,,,,,,,,,,,,,,,,,,,,,,,,,,,,,,,,,,,,,,,,,,,,,,,,,,,,,,,,,,,,,,,,,,
1768972257.183142,1768972257.18366,3.0,0.0,4393.077148,4398.077148,4354.102539,4381.025879,4372.563965,4366.153809,4359.871582,4356.538574,4341.794922,4369.743652,4441.282227,4506.410156,4374.743652,4427.94873,,,,,,,,,,,,,,,,,,,,,,,,,,,,,,,,,,,,,,,,,,,,,,,,,,,,,,,,,,,,,,,,,,,,,,
1768972257.19095,1768972257.191668,4.0,0.0,4396.282227,4402.307617,4356.538574,4383.589844,4369.743652,4370.0,4358.717773,4361.794922,4353.077148,4388.077148,4450.897461,4518.717773,4385.897461,4441.922852,,,,,,,,,,,,,,,,,,,,,,,,,,,,,,,,,,,,,,,,,,,,,,,,,,,,,,,,,,,,,,,,,,,,,,
1768972257.198759,1768972257.199476,5.0,0.0,4390.384766,4397.94873,4350.128418,4384.358887,4374.230957,4375.769043,4364.487305,4357.692383,4350.0,4372.436035,4444.615234,4500.128418,4382.307617,4431.538574,,,,,,,,,,,,,,,,,,,,,,,,,,,,,,,,,,,,,,,,,,,,,,,,,,,,,,,,,,,,,,,,,,,,,,
1768972257.206567,1768972257.207185,6.0,0.0,4392.179688,4401.153809,4353.205078,4387.563965,4379.230957,4364.358887,4354.615234,4351.153809,4346.538574,4367.179688,4440.256348,4487.563965,4377.436035,4427.179688,,,,,,,,,,,,,,,,,,,,,,,,,,,,,,,,,,,,,,,,,,,,,,,,,,,,,,,,,,,,,,,,,,,,,,
1768972257.214376,1768972257.214993,7.0,0.0,4398.333496,4406.538574,4363.461426,4391.025879,4377.436035,4365.128418,4354.743652,4358.333496,4351.794922,4374.871582,4446.410156,4499.871582,4381.153809,4441.282227,,,,,,,,,,,,,,,,,,,,,,,,,,,,,,,,,,,,,,,,,,,,,,,,,,,,,,,,,,,,,,,,,,,,,,
1768972257.222184,1768972257.222602,8.0,0.0,4397.563965,4403.589844,4363.205078,4389.487305,4378.846191,4379.743652,4366.538574,4365.641113,4349.871582,4370.512695,4447.563965,4506.794922,4382.436035,4443.333496,,,,,,,,,,,,,,,,,,,,,,,,,,,,,,,,,,,,,,,,,,,,,,,,,,,,,,,,,,,,,,,,,,,,,,
1768972257.229993,1768972257.23041,9.0,0.0,4396.666504,4401.282227,4360.512695,4387.692383,4383.205078,4378.974121,4364.615234,4362.05127,4345.256348,4370.641113,4444.358887,4496.282227,4380.641113,4433.205078,,,,,,,,,,,,,,,,,,,,,,,,,,,,,,,,,,,,,,,,,,,,,,,,,,,,,,,,,,,,,,,,,,,,,,
1768972257.237801,1768972257.238119,10.0,0.0,4398.846191,4405.0,4364.102539,4386.666504,4382.05127,4377.436035,4368.974121,4363.846191,4348.461426,4375.769043,4444.487305,4494.230957,4379.743652,4432.563965,,,,,,,,,,,,,,,,,,,,,,,,,,,,,,,,,,,,,,,,,,,,,,,,,,,,,,,,,,,,,,,,,,,,,,
1768972257.245609,1768972257.245927,11.0,0.0,4398.717773,4404.487305,4361.282227,4384.102539,4381.410156,4384.871582,4375.641113,4368.589844,4352.05127,4378.589844,4445.897461,4505.641113,4379.615234,4440.256348,,,,,,,,,,,,,,,,,,,,,,,,,,,,,,,,,,,,,,,,,,,,,,,,,,,,,,,,,,,,,,,,,,,,,,
1768972257.253418,1768972257.253936,12.0,0.0,4398.077148,4395.897461,4356.922852,4381.922852,4383.333496,4382.307617,4367.563965,4367.05127,4356.282227,4378.461426,4446.153809,4511.794922,4381.666504,4445.897461,,,,,,,,,,,,,,,,,,,,,,,,,,,,,,,,,,,,,,,,,,,,,,,,,,,,,,,,,,,,,,,,,,,,,,
1768972257.261226,1768972257.261744,13.0,0.0,4396.025879,4389.487305,4358.461426,4377.436035,4382.692383,4382.436035,4370.769043,4368.974121,4357.820313,4370.128418,4443.077148,4506.538574,4378.974121,4438.717773,,,,,,,,,,,,,,,,,,,,,,,,,,,,,,,,,,,,,,,,,,,,,,,,,,,,,,,,,,,,,,,,,,,,,,
1768972257.269035,1768972257.269652,14.0,0.0,4395.256348,4389.487305,4358.461426,4372.94873,4382.94873,4382.179688,4374.358887,4366.794922,4348.974121,4364.358887,4439.743652,4498.589844,4373.205078,4426.153809,0.688764,0.201007,0.215045,0.447066,0.163492,0.616067,0.420892,0.18032,0.303423,0.118892,0.469375,0.255636,0.13434,0.181389,0.077274,0.277679,0.202821,0.088089,0.160308,0.08793,0.174055,0.135501,0.128301,0.09837,0.085585,0.262664,0.501407,0.663549,0.334207,0.298411,0.685122,1.015963,0.810897,0.321257,0.283735,0.703689,0.429645,0.490512,0.227408,0.364964,0.696819,0.463882,0.307764,0.117556,0.191309,0.258243,0.234919,0.411677,0.575956,0.272387,0.847906,0.366594,0.134956,0.276094,0.129213,1.393293,0.508127,0.244978,0.440057,0.210914,0.223363,0.55272,0.099742,0.270954,0.142187,0.359663,0.533742,0.413035,0.312667,0.128983
1768972257.276843,1768972257.277461,15.0,0.0,4397.94873,4392.307617,4354.615234,4377.05127,4378.846191,4359.615234,4349.743652,4352.307617,4338.077148,4365.0,4437.563965,4491.794922,4373.205078,4427.820313,,,,,,,,,,,,,,,,,,,,,,,,,,,,,,,,,,,,,,,,,,,,,,,,,,,,,,,,,,,,,,,,,,,,,,
1768972257.284651,1768972257.285469,16.0,0.0,4399.102539,4394.230957,4353.461426,4383.333496,4373.077148,4349.743652,4335.641113,4348.461426,4338.589844,4364.358887,4437.436035,4489.871582,4376.025879,4433.461426,,,,,,,,,,,,,,,,,,,,,,,,,,,,,,,,,,,,,,,,,,,,,,,,,,,,,,,,,,,,,,,,,,,,,,
1768972257.29246,1768972257.293278,17.0,0.0,4395.384766,4392.563965,4353.974121,4381.794922,4377.563965,4372.820313,4357.692383,4359.230957,4345.769043,4366.282227,4439.358887,4495.128418,4373.717773,4429.102539,,,,,,,,,,,,,,,,,,,,,,,,,,,,,,,,,,,,,,,,,,,,,,,,,,,,,,,,,,,,,,,,,,,,,,
1768972257.300268,1768972257.301186,18.0,0.0,4393.717773,4388.333496,4351.153809,4377.436035,4380.384766,4382.94873,4367.436035,4363.846191,4350.512695,4373.333496,4442.563965,4503.205078,4374.871582,4432.563965,,,,,,,,,,,,,,,,,,,,,,,,,,,,,,,,,,,,,,,,,,,,,,,,,,,,,,,,,,,,,,,,,,,,,,
1768972257.308077,1768972257.308994,19.0,0.0,4399.487305,4387.05127,4353.461426,4379.615234,4375.128418,4372.307617,4359.743652,4364.102539,4352.820313,4375.128418,4447.05127,4508.846191,4382.563965,4445.769043,,,,,,,,,,,,,,,,,,,,,,,,,,,,,,,,,,,,,,,,,,,,,,,,,,,,,,,,,,,,,,,,,,,,,,
1768972257.315885,1768972257.317003,20.0,0.0,4400.384766,4389.615234,4359.743652,4381.153809,4377.179688,4371.666504,4363.974121,4363.974121,4349.487305,4369.487305,4444.358887,4504.743652,4373.077148,4440.128418,,,,,,,,,,,,,,,,,,,,,,,,,,,,,,,,,,,,,,,,,,,,,,,,,,,,,,,,,,,,,,,,,,,,,,
1768972257.323694,1768972257.324811,21.0,0.0,4392.05127,4388.717773,4355.897461,4376.538574,4379.871582,4375.769043,4366.410156,4357.94873,4342.436035,4364.102539,4438.077148,4493.333496,4358.077148,4427.307617,,,,,,,,,,,,,,,,,,,,,,,,,,,,,,,,,,,,,,,,,,,,,,,,,,,,,,,,,,,,,,,,,,,,,,
1768972257.331502,1768972257.33252,22.0,0.0,4389.358887,4383.333496,4350.512695,4372.179688,4373.205078,4372.436035,4362.692383,4357.820313,4341.794922,4367.05127,4440.256348,4493.589844,4366.666504,4437.05127,,,,,,,,,,,,,,,,,,,,,,,,,,,,,,,,,,,,,,,,,,,,,,,,,,,,,,,,,,,,,,,,,,,,,,
1768972257.339311,1768972257.340328,23.0,0.0,4396.025879,4380.256348,4358.205078,4372.820313,4372.05127,4374.230957,4366.794922,4364.615234,4348.205078,4373.461426,4448.077148,4506.025879,4377.436035,4449.487305,,,,,,,,,,,,,,,,,,,,,,,,,,,,,,,,,,,,,,,,,,,,,,,,,,,,,,,,,,,,,,,,,,,,,,
1768972257.347119,1768972257.347937,24.0,0.0,4398.589844,4385.769043,4366.794922,4375.769043,4377.436035,4380.641113,4369.230957,4366.282227,4351.538574,4365.0,4448.974121,4509.615234,4374.102539,4445.256348,,,,,,,,,,,,,,,,,,,,,,,,,,,,,,,,,,,,,,,,,,,,,,,,,,,,,,,,,,,,,,,,,,,,,,
1768972257.354927,1768972257.355745,25.0,0.0,4396.666504,4390.256348,4362.436035,4377.05127,4375.641113,4379.102539,4364.230957,4363.846191,4347.307617,4358.077148,4444.615234,4501.538574,4375.769043,4440.769043,,,,,,,,,,,,,,,,,,,,,,,,,,,,,,,,,,,,,,,,,,,,,,,,,,,,,,,,,,,,,,,,,,,,,,
1768972257.362736,1768972257.363454,26.0,0.0,4398.077148,4384.871582,4358.205078,4376.922852,4371.922852,4373.461426,4363.717773,4361.794922,4341.538574,4365.641113,4442.692383,4499.102539,4380.128418,4443.846191,,,,,,,,,,,,,,,,,,,,,,,,,,,,,,,,,,,,,,,,,,,,,,,,,,,,,,,,,,,,,,,,,,,,,,
1768972257.370544,1768972257.371262,27.0,0.0,4395.256348,4377.563965,4357.436035,4369.358887,4373.333496,4372.94873,4366.794922,4364.615234,4343.461426,4372.307617,4444.871582,4505.769043,4377.692383,4445.897461,,,,,,,,,,,,,,,,,,,,,,,,,,,,,,,,,,,,,,,,,,,,,,,,,,,,,,,,,,,,,,,,,,,,,,
1768972257.378353,1768972257.378871,28.0,0.0,4382.563965,4369.358887,4351.153809,4358.589844,4375.897461,4376.282227,4364.102539,4369.615234,4351.410156,4368.333496,4447.692383,4506.922852,4371.025879,4441.666504,,,,,,,,,,,,,,,,,,,,,,,,,,,,,,,,,,,,,,,,,,,,,,,,,,,,,,,,,,,,,,,,,,,,,,
1768972257.386161,1768972257.386679,29.0,0.0,4375.128418,4358.974121,4341.410156,4356.410156,4374.487305,4371.794922,4356.282227,4367.563965,4349.358887,4358.974121,4443.974121,4498.846191,4362.563965,4434.358887,,,,,,,,,,,,,,,,,,,,,,,,,,,,,,,,,,,,,,,,,,,,,,,,,,,,,,,,,,,,,,,,,,,,,,
1768972257.39397,1768972257.394588,30.0,0.0,4378.333496,4357.05127,4341.025879,4360.897461,4370.256348,4368.589844,4357.307617,4361.666504,4343.974121,4361.153809,4440.512695,4498.846191,4367.179688,4436.153809,0.752087,0.212903,0.23738,0.450409,0.198832,0.609632,0.526604,0.22319,0.247585,0.119509,0.441123,0.259208,0.156652,0.188149,0.086964,0.3064,0.231503,0.109659,0.139812,0.097576,0.150302,0.187437,0.136695,0.086853,0.085108,0.246097,0.595042,0.577909,0.281913,0.338731,0.671731,1.103097,0.791124,0.322969,0.314758,0.75019,0.440528,0.476627,0.240222,0.341436,0.684082,0.388715,0.284274,0.120105,0.188522,0.235184,0.193286,0.398256,0.508169,0.28818,0.815521,0.370083,0.145419,0.259117,0.138536,1.44072,0.416115,0.258347,0.460524,0.22188,0.231255,0.54732,0.106438,0.263325,0.138568,0.335814,0.657842,0.425515,0.304605,0.136757
1768972257.401778,1768972257.402396,31.0,0.0,4386.794922,4367.820313,4354.743652,4369.230957,4371.538574,4377.05127,4367.179688,4362.820313,4349.487305,4378.333496,4450.641113,4510.641113,4390.512695,4446.153809,,,,,,,,,,,,,,,,,,,,,,,,,,,,,,,,,,,,,,,,,,,,,,,,,,,,,,,,,,,,,,,,,,,,,,
1768972257.409587,1768972257.410404,32.0,0.0,4393.589844,4374.615234,4361.666504,4376.025879,4375.769043,4377.692383,4368.717773,4370.512695,4358.974121,4388.846191,4460.769043,4519.358887,4398.974121,4447.820313,,,,,,,,,,,,,,,,,,,,,,,,,,,,,,,,,,,,,,,,,,,,,,,,,,,,,,,,,,,,,,,,,,,,,,
1768972257.417395,1768972257.418213,33.0,0.0,4390.897461,4368.846191,4352.05127,4372.05127,4372.820313,4369.743652,4364.615234,4371.538574,4355.0,4372.436035,4453.974121,4513.077148,4382.436035,4443.077148,,,,,,,,,,,,,,,,,,,,,,,,,,,,,,,,,,,,,,,,,,,,,,,,,,,,,,,,,,,,,,,,,,,,,,
1768972257.425203,1768972257.425921,34.0,0.0,4384.230957,4364.871582,4347.692383,4363.974121,4371.153809,4375.128418,4367.563965,4363.717773,4343.461426,4355.256348,4442.179688,4498.974121,4370.128418,4440.256348,,,,,,,,,,,,,,,,,,,,,,,,,,,,,,,,,,,,,,,,,,,,,,,,,,,,,,,,,,,,,,,,,,,,,,
1768972257.433012,1768972257.43373,35.0,0.0,4387.179688,4368.461426,4353.461426,4368.461426,4375.256348,4383.589844,4369.102539,4357.179688,4340.641113,4358.589844,4440.897461,4497.94873,4370.769043,4441.153809,,,,,,,,,,,,,,,,,,,,,,,,,,,,,,,,,,,,,,,,,,,,,,,,,,,,,,,,,,,,,,,,,,,,,,
1768972257.44082,1768972257.441338,36.0,0.0,4393.205078,4368.589844,4355.384766,4374.230957,4374.358887,4380.512695,4368.205078,4364.230957,4347.692383,4367.179688,4443.974121,4507.563965,4372.307617,4445.769043,,,,,,,,,,,,,,,,,,,,,,,,,,,,,,,,,,,,,,,,,,,,,,,,,,,,,,,,,,,,,,,,,,,,,,
1768972257.448629,1768972257.449147,37.0,0.0,4388.717773,4362.436035,4352.436035,4366.025879,4372.692383,4379.871582,4369.358887,4373.974121,4354.102539,4368.846191,4444.358887,4505.897461,4367.436035,4441.153809,,,,,,,,,,,,,,,,,,,,,,,,,,,,,,,,,,,,,,,,,,,,,,,,,,,,,,,,,,,,,,,,,,,,,,
1768972257.456437,1768972257.457055,38.0,0.0,4382.436035,4358.205078,4348.717773,4356.922852,4374.102539,4381.410156,4365.0,4369.743652,4349.230957,4362.563965,4440.769043,4496.153809,4359.102539,4427.692383,,,,,,,,,,,,,,,,,,,,,,,,,,,,,,,,,,,,,,,,,,,,,,,,,,,,,,,,,,,,,,,,,,,,,,
1768972257.464246,1768972257.464864,39.0,0.0,4383.077148,4357.436035,4346.153809,4355.256348,4370.512695,4373.205078,4360.769043,4362.179688,4342.436035,4356.538574,4437.820313,4494.743652,4357.692383,4428.077148,,,,,,,,,,,,,,,,,,,,,,,,,,,,,,,,,,,,,,,,,,,,,,,,,,,,,,,,,,,,,,,,,,,,,,
1768972257.472054,1768972257.472872,40.0,0.0,4387.307617,4356.538574,4355.256348,4361.025879,4369.871582,4371.538574,4364.487305,4361.922852,4341.922852,4355.256348,4441.666504,4502.692383,4367.05127,4440.897461,,,,,,,,,,,,,,,,,,,,,,,,,,,,,,,,,,,,,,,,,,,,,,,,,,,,,,,,,,,,,,,,,,,,,,
1768972257.479863,1768972257.48068,41.0,0.0,4393.846191,4357.563965,4363.846191,4369.615234,4376.153809,4377.436035,4365.769043,4365.641113,4343.077148,4362.436035,4446.538574,4512.436035,4377.820313,4446.282227,,,,,,,,,,,,,,,,,,,,,,,,,,,,,,,,,,,,,,,,,,,,,,,,,,,,,,,,,,,,,,,,,,,,,,
1768972257.487671,1768972257.488589,42.0,0.0,4397.692383,4357.436035,4358.333496,4370.0,4376.922852,4378.205078,4365.128418,4365.897461,4342.692383,4363.846191,4445.641113,4515.897461,4377.563965,4443.461426,,,,,,,,,,,,,,,,,,,,,,,,,,,,,,,,,,,,,,,,,,,,,,,,,,,,,,,,,,,,,,,,,,,,,,
1768972257.495479,1768972257.496397,43.0,0.0,4394.358887,4357.179688,4357.436035,4365.641113,4372.05127,4373.461426,4367.179688,4361.666504,4341.282227,4356.282227,4445.128418,4513.461426,4371.538574,4443.846191,,,,,,,,,,,,,,,,,,,,,,,,,,,,,,,,,,,,,,,,,,,,,,,,,,,,,,,,,,,,,,,,,,,,,,
1768972257.503288,1768972257.504405,44.0,0.0,4388.846191,4352.692383,4363.461426,4365.384766,4372.820313,4370.769043,4365.512695,4362.94873,4342.436035,4358.974121,4445.769043,4513.717773,4368.717773,4444.615234,,,,,,,,,,,,,,,,,,,,,,,,,,,,,,,,,,,,,,,,,,,,,,,,,,,,,,,,,,,,,,,,,,,,,,
1768972257.511096,1768972257.512214,45.0,0.0,4387.307617,4345.256348,4360.256348,4364.615234,4374.230957,4376.025879,4365.512695,4368.077148,4343.077148,4366.282227,4444.487305,4515.897461,4369.358887,4444.102539,,,,,,,,,,,,,,,,,,,,,,,,,,,,,,,,,,,,,,,,,,,,,,,,,,,,,,,,,,,,,,,,,,,,,,
1768972257.518905,1768972257.519922,46.0,0.0,4391.153809,4347.692383,4357.436035,4363.846191,4372.692383,4384.615234,4373.205078,4369.743652,4343.589844,4368.589844,4445.384766,4514.871582,4371.666504,4446.153809,0.743726,0.253809,0.267553,0.465162,0.236063,0.595762,0.64182,0.297662,0.186474,0.122975,0.39981,0.271435,0.168351,0.196002,0.098308,0.309861,0.251706,0.128148,0.119774,0.108436,0.149881,0.237751,0.140306,0.074502,0.0812,0.241689,0.734378,0.468835,0.238946,0.389259,0.617055,1.221755,0.738167,0.325369,0.373777,0.742262,0.434133,0.425085,0.243526,0.314143,0.639739,0.300841,0.245422,0.127898,0.184323,0.223981,0.168853,0.386672,0.445029,0.305051,0.698396,0.364104,0.17504,0.241975,0.144755,1.354946,0.301219,0.279949,0.468146,0.227872,0.255172,0.534631,0.123208,0.251429,0.135191,0.305559,0.751366,0.425479,0.304729,0.154807
1768972257.526713,1768972257.527731,47.0,0.0,4393.846191,4352.179688,4359.743652,4366.282227,4372.179688,4385.256348,4376.282227,4365.128418,4343.461426,4368.205078,4446.025879,4509.358887,4371.666504,4447.820313,,,,,,,,,,,,,,,,,,,,,,,,,,,,,,,,,,,,,,,,,,,,,,,,,,,,,,,,,,,,,,,,,,,,,,
1768972257.534522,1768972257.535339,48.0,0.0,4391.538574,4345.512695,4357.436035,4362.692383,4370.512695,4374.743652,4367.563965,4360.512695,4342.05127,4366.794922,4444.230957,4505.897461,4367.05127,4446.282227,,,,,,,,,,,,,,,,,,,,,,,,,,,,,,,,,,,,,,,,,,,,,,,,,,,,,,,,,,,,,,,,,,,,,,
1768972257.54233,1768972257.543148,49.0,0.0,4389.487305,4340.0,4356.922852,4356.794922,4365.256348,4368.974121,4363.333496,4360.384766,4343.333496,4364.615234,4442.563965,4506.794922,4362.820313,4441.410156,,,,,,,,,,,,,,,,,,,,,,,,,,,,,,,,,,,,,,,,,,,,,,,,,,,,,,,,,,,,,,,,,,,,,,
1768972257.550138,1768972257.550856,50.0,0.0,4386.794922,4342.436035,4357.307617,4357.436035,4363.717773,4378.205078,4371.922852,4365.769043,4346.282227,4364.743652,4442.179688,4508.974121,4367.05127,4439.743652,,,,,,,,,,,,,,,,,,,,,,,,,,,,,,,,,,,,,,,,,,,,,,,,,,,,,,,,,,,,,,,,,,,,,,
1768972257.557947,1768972257.558665,51.0,0.0,4383.461426,4340.641113,4349.743652,4356.794922,4371.153809,4382.820313,4369.230957,4366.538574,4348.589844,4361.153809,4442.563965,4510.641113,4373.205078,4444.102539,,,,,,,,,,,,,,,,,,,,,,,,,,,,,,,,,,,,,,,,,,,,,,,,,,,,,,,,,,,,,,,,,,,,,,
1768972257.565755,1768972257.566273,52.0,0.0,4387.820313,4336.922852,4348.974121,4354.102539,4374.230957,4370.769043,4355.641113,4359.102539,4346.922852,4353.974121,4442.820313,4511.282227,4374.230957,4446.025879,,,,,,,,,,,,,,,,,,,,,,,,,,,,,,,,,,,,,,,,,,,,,,,,,,,,,,,,,,,,,,,,,,,,,,
1768972257.573564,1768972257.574082,53.0,0.0,4397.436035,4340.0,4357.820313,4356.794922,4371.153809,4368.461426,4359.487305,4360.0,4348.589844,4362.179688,4442.563965,4512.05127,4373.333496,4443.205078,,,,,,,,,,,,,,,,,,,,,,,,,,,,,,,,,,,,,,,,,,,,,,,,,,,,,,,,,,,,,,,,,,,,,,
1768972257.581372,1768972257.58199,54.0,0.0,4397.307617,4342.692383,4361.025879,4359.743652,4368.589844,4383.974121,4373.846191,4369.102539,4357.307617,4374.102539,4442.820313,4515.641113,4374.358887,4445.0,,,,,,,,,,,,,,,,,,,,,,,,,,,,,,,,,,,,,,,,,,,,,,,,,,,,,,,,,,,,,,,,,,,,,,
1768972257.589181,1768972257.589799,55.0,0.0,4388.205078,4341.922852,4357.307617,4356.922852,4366.538574,4387.05127,4371.538574,4369.358887,4357.820313,4366.538574,4443.589844,4516.025879,4374.743652,4446.410156,,,,,,,,,,,,,,,,,,,,,,,,,,,,,,,,,,,,,,,,,,,,,,,,,,,,,,,,,,,,,,,,,,,,,,
1768972257.596989,1768972257.597807,56.0,0.0,4381.666504,4337.820313,4354.230957,4355.897461,4367.05127,4382.820313,4366.282227,4365.384766,4352.820313,4358.846191,4442.179688,4508.333496,4370.641113,4437.05127,,,,,,,,,,,,,,,,,,,,,,,,,,,,,,,,,,,,,,,,,,,,,,,,,,,,,,,,,,,,,,,,,,,,,,
1768972257.604797,1768972257.605615,57.0,0.0,4381.922852,4335.769043,4355.256348,4358.461426,4366.666504,4383.205078,4366.666504,4362.05127,4351.282227,4355.384766,4436.282227,4501.153809,4366.282227,4431.025879,,,,,,,,,,,,,,,,,,,,,,,,,,,,,,,,,,,,,,,,,,,,,,,,,,,,,,,,,,,,,,,,,,,,,,
1768972257.612606,1768972257.613524,58.0,0.0,4385.769043,4338.717773,4358.717773,4358.461426,4364.102539,4377.563965,4364.102539,4357.563965,4347.563965,4344.230957,4429.615234,4500.256348,4367.692383,4433.205078,,,,,,,,,,,,,,,,,,,,,,,,,,,,,,,,,,,,,,,,,,,,,,,,,,,,,,,,,,,,,,,,,,,,,,
1768972257.620414,1768972257.621332,59.0,0.0,4384.871582,4341.153809,4359.615234,4354.615234,4365.897461,4375.897461,4367.307617,4358.461426,4344.358887,4345.769043,4432.820313,4505.897461,4369.743652,4433.205078,,,,,,,,,,,,,,,,,,,,,,,,,,,,,,,,,,,,,,,,,,,,,,,,,,,,,,,,,,,,,,,,,,,,,,
1768972257.628223,1768972257.628941,60.0,0.0,4381.922852,4340.256348,4358.461426,4355.128418,4369.102539,4381.538574,4373.589844,4362.820313,4351.922852,4366.666504,4442.05127,4513.461426,4370.641113,4435.769043,,,,,,,,,,,,,,,,,,,,,,,,,,,,,,,,,,,,,,,,,,,,,,,,,,,,,,,,,,,,,,,,,,,,,,
1768972257.636031,1768972257.636749,61.0,0.0,4384.358887,4337.94873,4359.743652,4362.820313,4366.922852,4378.205078,4374.487305,4366.410156,4360.384766,4375.512695,4446.025879,4517.179688,4379.102539,4442.692383,,,,,,,,,,,,,,,,,,,,,,,,,,,,,,,,,,,,,,,,,,,,,,,,,,,,,,,,,,,,,,,,,,,,,,
1768972257.64384,1768972257.644458,62.0,0.0,4392.307617,4337.436035,4361.153809,4365.0,4363.333496,4370.128418,4370.0,4367.563965,4357.563965,4371.794922,4445.0,4517.692383,4384.230957,4444.358887,0.682724,0.324516,0.298077,0.487869,0.263669,0.593082,0.750581,0.381744,0.13928,0.12965,0.364615,0.291978,0.16854,0.200915,0.108244,0.295135,0.269421,0.145238,0.107247,0.117853,0.181433,0.277016,0.138941,0.063697,0.074526,0.246378,0.907653,0.393149,0.215938,0.439987,0.528853,1.384472,0.694701,0.329069,0.450277,0.663217,0.423041,0.359281,0.236911,0.290692,0.549916,0.22586,0.205762,0.139846,0.179725,0.225484,0.17628,0.385185,0.401346,0.325364,0.530225,0.352444,0.227585,0.230307,0.149323,1.174086,0.19261,0.314165,0.463707,0.234016,0.302682,0.528933,0.154121,0.242329,0.132756,0.287824,0.79254,0.415939,0.30883,0.179301
1768972257.651648,1768972257.652266,63.0,0.0,4396.153809,4337.94873,4361.282227,4359.743652,4361.410156,4371.666504,4365.897461,4363.589844,4354.358887,4371.282227,4442.820313,4515.256348,4376.922852,4442.307617,,,,,,,,,,,,,,,,,,,,,,,,,,,,,,,,,,,,,,,,,,,,,,,,,,,,,,,,,,,,,,,,,,,,,,
1768972257.659457,1768972257.660275,64.0,0.0,4389.871582,4336.410156,4360.256348,4357.179688,4361.538574,4375.256348,4364.487305,4360.897461,4353.461426,4362.563965,4442.05127,4511.153809,4376.025879,4443.461426,,,,,,,,,,,,,,,,,,,,,,,,,,,,,,,,,,,,,,,,,,,,,,,,,,,,,,,,,,,,,,,,,,,,,,
1768972257.667265,1768972257.668083,65.0,0.0,4384.230957,4334.487305,4357.94873,4358.205078,4365.641113,4374.871582,4364.230957,4361.922852,4347.563965,4358.077148,4443.717773,4512.307617,4383.461426,4442.307617,,,,,,,,,,,,,,,,,,,,,,,,,,,,,,,,,,,,,,,,,,,,,,,,,,,,,,,,,,,,,,,,,,,,,,
1768972257.675074,1768972257.675991,66.0,0.0,4386.410156,4335.384766,4358.461426,4358.974121,4366.538574,4377.436035,4369.487305,4362.05127,4343.974121,4367.179688,4444.615234,4517.94873,4383.205078,4441.538574,,,,,,,,,,,,,,,,,,,,,,,,,,,,,,,,,,,,,,,,,,,,,,,,,,,,,,,,,,,,,,,,,,,,,,
1768972257.682882,1768972257.6838,67.0,0.0,4393.333496,4339.358887,4360.769043,4358.974121,4364.230957,4378.717773,4371.538574,4362.05127,4347.179688,4369.743652,4443.333496,4523.461426,4381.282227,4445.256348,,,,,,,,,,,,,,,,,,,,,,,,,,,,,,,,,,,,,,,,,,,,,,,,,,,,,,,,,,,,,,,,,,,,,,
1768972257.69069,1768972257.691808,68.0,0.0,4396.666504,4343.205078,4361.666504,4361.666504,4366.666504,4373.846191,4362.05127,4360.512695,4351.794922,4365.128418,4443.461426,4522.692383,4383.974121,4446.153809,,,,,,,,,,,,,,,,,,,,,,,,,,,,,,,,,,,,,,,,,,,,,,,,,,,,,,,,,,,,,,,,,,,,,,
1768972257.698499,1768972257.699616,69.0,0.0,4391.922852,4343.717773,4362.94873,4362.563965,4366.794922,4371.410156,4356.794922,4357.94873,4354.358887,4364.358887,4442.94873,4519.358887,4385.512695,4443.589844,,,,,,,,,,,,,,,,,,,,,,,,,,,,,,,,,,,,,,,,,,,,,,,,,,,,,,,,,,,,,,,,,,,,,,
1768972257.706307,1768972257.707325,70.0,0.0,4386.538574,4340.769043,4361.666504,4360.641113,4362.820313,4374.487305,4364.743652,4363.333496,4352.94873,4365.897461,4442.820313,4522.563965,4386.538574,4443.974121,,,,,,,,,,,,,,,,,,,,,,,,,,,,,,,,,,,,,,,,,,,,,,,,,,,,,,,,,,,,,,,,,,,,,,
1768972257.714116,1768972257.715133,71.0,0.0,4386.282227,4339.358887,4353.461426,4357.692383,4362.436035,4373.333496,4366.282227,4367.820313,4348.077148,4364.358887,4444.743652,4524.102539,4389.102539,4446.538574,,,,,,,,,,,,,,,,,,,,,,,,,,,,,,,,,,,,,,,,,,,,,,,,,,,,,,,,,,,,,,,,,,,,,,
1768972257.721924,1768972257.722742,72.0,0.0,4387.05127,4340.769043,4351.282227,4354.871582,4362.692383,4373.461426,4365.641113,4366.666504,4351.666504,4360.641113,4445.384766,4519.487305,4388.205078,4444.743652,,,,,,,,,,,,,,,,,,,,,,,,,,,,,,,,,,,,,,,,,,,,,,,,,,,,,,,,,,,,,,,,,,,,,,
1768972257.729733,1768972257.730551,73.0,0.0,4383.974121,4342.05127,4355.0,4356.794922,4363.974121,4377.820313,4371.666504,4366.025879,4356.794922,4358.974121,4444.871582,4516.282227,4388.974121,4442.94873,,,,,,,,,,,,,,,,,,,,,,,,,,,,,,,,,,,,,,,,,,,,,,,,,,,,,,,,,,,,,,,,,,,,,,
1768972257.737541,1768972257.738259,74.0,0.0,4383.077148,4342.94873,4352.307617,4361.153809,4366.410156,4375.0,4368.461426,4360.256348,4348.589844,4361.282227,4445.0,4510.256348,4393.461426,4445.897461,,,,,,,,,,,,,,,,,,,,,,,,,,,,,,,,,,,,,,,,,,,,,,,,,,,,,,,,,,,,,,,,,,,,,,
1768972257.74535,1768972257.746068,75.0,0.0,4384.871582,4341.922852,4346.410156,4359.615234,4363.461426,4370.256348,4359.102539,4358.974121,4345.256348,4365.384766,4443.589844,4503.974121,4395.769043,4444.102539,,,,,,,,,,,,,,,,,,,,,,,,,,,,,,,,,,,,,,,,,,,,,,,,,,,,,,,,,,,,,,,,,,,,,,
1768972257.753158,1768972257.753676,76.0,0.0,4388.589844,4343.846191,4348.077148,4356.410156,4359.358887,4370.641113,4358.333496,4365.769043,4355.512695,4370.128418,4442.563965,4511.410156,4398.717773,4441.153809,,,,,,,,,,,,,,,,,,,,,,,,,,,,,,,,,,,,,,,,,,,,,,,,,,,,,,,,,,,,,,,,,,,,,,
1768972257.760966,1768972257.761485,77.0,0.0,4395.384766,4348.846191,4356.666504,4362.436035,4366.282227,4374.743652,4368.461426,4368.461426,4360.128418,4373.333496,4451.666504,4522.692383,4405.897461,4451.666504,,,,,,,,,,,,,,,,,,,,,,,,,,,,,,,,,,,,,,,,,,,,,,,,,,,,,,,,,,,,,,,,,,,,,,
1768972257.768775,1768972257.769193,78.0,0.0,4395.897461,4346.282227,4360.897461,4367.179688,4374.230957,4382.94873,4382.436035,4370.384766,4357.692383,4366.025879,4458.974121,4520.897461,4406.922852,4458.974121,0.606946,0.414647,0.320514,0.508503,0.272598,0.584465,0.833539,0.452483,0.11976,0.137088,0.359021,0.322338,0.161745,0.200468,0.115022,0.27644,0.293162,0.165655,0.107657,0.122793,0.247652,0.299434,0.133678,0.055519,0.06695,0.249598,1.079342,0.37832,0.215484,0.47879,0.426021,1.568211,0.679299,0.332915,0.522253,0.554122,0.415926,0.301337,0.223756,0.275422,0.460657,0.178236,0.177693,0.155638,0.175805,0.243935,0.221694,0.391156,0.384325,0.35237,0.376652,0.339506,0.291732,0.224078,0.154208,0.969417,0.116179,0.361106,0.448687,0.246187,0.373362,0.535455,0.201573,0.245108,0.13461,0.294987,0.777539,0.394834,0.309394,0.206826
1768972257.776583,1768972257.777002,79.0,0.0,4390.256348,4343.205078,4360.128418,4365.128418,4370.128418,4385.512695,4383.846191,4373.333496,4355.897461,4359.871582,4452.05127,4515.128418,4398.461426,4450.256348,,,,,,,,,,,,,,,,,,,,,,,,,,,,,,,,,,,,,,,,,,,,,,,,,,,,,,,,,,,,,,,,,,,,,,
1768972257.784392,1768972257.78501,80.0,0.0,4387.692383,4347.94873,4358.461426,4365.769043,4367.94873,4373.974121,4370.641113,4372.436035,4356.922852,4366.922852,4445.641113,4515.384766,4394.487305,4444.102539,,,,,,,,,,,,,,,,,,,,,,,,,,,,,,,,,,,,,,,,,,,,,,,,,,,,,,,,,,,,,,,,,,,,,,
1768972257.7922,1768972257.792818,81.0,0.0,4388.974121,4347.307617,4353.461426,4362.692383,4368.077148,4362.94873,4359.230957,4370.897461,4359.871582,4369.358887,4448.077148,4518.461426,4400.128418,4446.794922,,,,,,,,,,,,,,,,,,,,,,,,,,,,,,,,,,,,,,,,,,,,,,,,,,,,,,,,,,,,,,,,,,,,,,
1768972257.800009,1768972257.800727,82.0,0.0,4388.717773,4340.769043,4349.487305,4356.794922,4361.538574,4362.692383,4357.436035,4367.692383,4354.230957,4358.461426,4445.384766,4517.179688,4399.102539,4444.743652,,,,,,,,,,,,,,,,,,,,,,,,,,,,,,,,,,,,,,,,,,,,,,,,,,,,,,,,,,,,,,,,,,,,,,
1768972257.807817,1768972257.808535,83.0,0.0,4385.512695,4339.615234,4354.358887,4357.692383,4357.179688,4369.743652,4362.820313,4360.256348,4346.025879,4354.230957,4438.846191,4508.717773,4390.641113,4441.153809,,,,,,,,,,,,,,,,,,,,,,,,,,,,,,,,,,,,,,,,,,,,,,,,,,,,,,,,,,,,,,,,,,,,,,
1768972257.815626,1768972257.816543,84.0,0.0,4387.563965,4346.153809,4361.153809,4358.974121,4362.05127,4372.436035,4363.077148,4358.846191,4349.871582,4362.05127,4439.102539,4501.538574,4391.025879,4441.538574,,,,,,,,,,,,,,,,,,,,,,,,,,,,,,,,,,,,,,,,,,,,,,,,,,,,,,,,,,,,,,,,,,,,,,
1768972257.823434,1768972257.824352,85.0,0.0,4393.461426,4353.717773,4360.256348,4358.461426,4365.769043,4366.282227,4355.256348,4360.128418,4357.692383,4365.769043,4446.153809,4506.282227,4402.820313,4443.717773,,,,,,,,,,,,,,,,,,,,,,,,,,,,,,,,,,,,,,,,,,,,,,,,,,,,,,,,,,,,,,,,,,,,,,
1768972257.831242,1768972257.83206,86.0,0.0,4396.666504,4355.512695,4355.512695,4359.358887,4364.871582,4364.615234,4358.589844,4358.205078,4357.436035,4364.871582,4451.922852,4514.871582,4410.256348,4448.589844,,,,,,,,,,,,,,,,,,,,,,,,,,,,,,,,,,,,,,,,,,,,,,,,,,,,,,,,,,,,,,,,,,,,,,
1768972257.839051,1768972257.839869,87.0,0.0,4395.641113,4351.025879,4351.282227,4357.820313,4367.179688,4369.871582,4371.153809,4362.563965,4357.820313,4367.05127,4451.922852,4514.615234,4409.615234,4454.358887,,,,,,,,,,,,,,,,,,,,,,,,,,,,,,,,,,,,,,,,,,,,,,,,,,,,,,,,,,,,,,,,,,,,,,
1768972257.846859,1768972257.847877,88.0,0.0,4392.820313,4343.974121,4348.205078,4355.256348,4370.512695,4377.05127,4376.153809,4371.282227,4362.436035,4368.846191,4453.333496,4512.179688,4410.384766,4457.436035,,,,,,,,,,,,,,,,,,,,,,,,,,,,,,,,,,,,,,,,,,,,,,,,,,,,,,,,,,,,,,,,,,,,,,
1768972257.854668,1768972257.855686,89.0,0.0,4394.230957,4342.05127,4349.743652,4356.410156,4368.589844,4378.461426,4370.384766,4371.666504,4361.666504,4366.025879,4456.538574,4514.230957,4409.487305,4455.769043,,,,,,,,,,,,,,,,,,,,,,,,,,,,,,,,,,,,,,,,,,,,,,,,,,,,,,,,,,,,,,,,,,,,,,
1768972257.862476,1768972257.863594,90.0,0.0,4402.436035,4350.641113,4353.717773,4357.692383,4362.563965,4367.563965,4358.974121,4363.717773,4355.128418,4365.512695,4455.256348,4519.358887,4406.282227,4459.358887,,,,,,,,,,,,,,,,,,,,,,,,,,,,,,,,,,,,,,,,,,,,,,,,,,,,,,,,,,,,,,,,,,,,,,
1768972257.870284,1768972257.871402,91.0,0.0,4416.153809,4358.333496,4357.179688,4358.717773,4362.307617,4364.615234,4359.743652,4362.563965,4352.692383,4366.153809,4456.538574,4520.897461,4410.384766,4471.922852,,,,,,,,,,,,,,,,,,,,,,,,,,,,,,,,,,,,,,,,,,,,,,,,,,,,,,,,,,,,,,,,,,,,,,
1768972257.878093,1768972257.879411,92.0,0.0,4425.769043,4354.358887,4358.974121,4358.846191,4363.589844,4378.461426,4376.282227,4369.615234,4358.077148,4362.94873,4459.102539,4522.179688,4412.94873,4478.846191,,,,,,,,,,,,,,,,,,,,,,,,,,,,,,,,,,,,,,,,,,,,,,,,,,,,,,,,,,,,,,,,,,,,,,
1768972257.885901,1768972257.887219,93.0,0.0,4427.692383,4352.05127,4360.512695,4358.077148,4358.461426,4372.307617,4371.666504,4370.128418,4360.256348,4365.641113,4459.487305,4526.666504,4409.743652,4480.769043,,,,,,,,,,,,,,,,,,,,,,,,,,,,,,,,,,,,,,,,,,,,,,,,,,,,,,,,,,,,,,,,,,,,,,
1768972257.89371,1768972257.894928,94.0,0.0,4427.05127,4355.0,4361.922852,4362.05127,4356.922852,4351.666504,4350.256348,4367.307617,4360.0,4367.436035,4465.769043,4531.410156,4418.846191,4489.743652,0.559249,0.501885,0.334916,0.516121,0.26049,0.549177,0.872882,0.494186,0.129251,0.141167,0.381641,0.360164,0.155778,0.194455,0.118697,0.257977,0.327593,0.193824,0.121862,0.121578,0.330422,0.302589,0.125916,0.050243,0.060585,0.244977,1.200982,0.413249,0.232656,0.497129,0.321874,1.715648,0.677243,0.334529,0.566202,0.428313,0.409877,0.263105,0.208838,0.267145,0.370676,0.154183,0.166849,0.174963,0.172845,0.27796,0.296167,0.395384,0.395335,0.385275,0.267393,0.326993,0.345468,0.218346,0.159612,0.79801,0.086083,0.416216,0.425177,0.266075,0.456061,0.549288,0.264302,0.264365,0.144284,0.342366,0.719709,0.362903,0.299724,0.233753
1768972257.901518,1768972257.902736,95.0,0.0,4428.717773,4354.487305,4360.897461,4367.692383,4363.717773,4355.384766,4352.692383,4364.102539,4357.94873,4357.05127,4469.102539,4532.692383,4429.487305,4497.563965,,,,,,,,,,,,,,,,,,,,,,,,,,,,,,,,,,,,,,,,,,,,,,,,,,,,,,,,,,,,,,,,,,,,,,
1768972257.909327,1768972257.910744,96.0,0.0,4429.487305,4355.897461,4357.94873,4366.922852,4367.307617,4365.512695,4363.333496,4357.307617,4352.05127,4355.128418,4459.487305,4527.563965,4420.256348,4488.717773,,,,,,,,,,,,,,,,,,,,,,,,,,,,,,,,,,,,,,,,,,,,,,,,,,,,,,,,,,,,,,,,,,,,,,
1768972257.917135,1768972257.918553,97.0,0.0,4423.717773,4352.05127,4355.641113,4365.384766,4363.205078,4360.0,4359.871582,4357.820313,4351.153809,4366.666504,4455.384766,4518.589844,4405.384766,4475.0,,,,,,,,,,,,,,,,,,,,,,,,,,,,,,,,,,,,,,,,,,,,,,,,,,,,,,,,,,,,,,,,,,,,,,
1768972257.924944,1768972257.926261,98.0,0.0,4413.974121,4342.179688,4354.358887,4364.615234,4363.077148,4361.410156,4359.871582,4366.025879,4357.94873,4371.153809,4459.102539,4515.0,4408.077148,4473.846191,,,,,,,,,,,,,,,,,,,,,,,,,,,,,,,,,,,,,,,,,,,,,,,,,,,,,,,,,,,,,,,,,,,,,,
1768972257.932752,1768972257.93407,99.0,0.0,4405.897461,4339.102539,4356.410156,4359.871582,4366.153809,4370.641113,4367.307617,4370.384766,4362.05127,4365.256348,4460.0,4520.769043,4413.589844,4473.333496,,,,,,,,,,,,,,,,,,,,,,,,,,,,,,,,,,,,,,,,,,,,,,,,,,,,,,,,,,,,,,,,,,,,,,
1768972257.94056,1768972257.941678,100.0,0.0,4399.230957,4338.333496,4357.563965,4355.256348,4364.230957,4366.410156,4369.102539,4371.153809,4360.256348,4358.589844,4457.563965,4523.333496,4404.230957,4462.94873,,,,,,,,,,,,,,,,,,,,,,,,,,,,,,,,,,,,,,,,,,,,,,,,,,,,,,,,,,,,,,,,,,,,,,
1768972257.948369,1768972257.949487,101.0,0.0,4396.282227,4335.897461,4352.820313,4355.512695,4364.102539,4365.128418,4369.615234,4372.307617,4357.563965,4354.358887,4456.153809,4516.666504,4393.846191,4456.794922,,,,,,,,,,,,,,,,,,,,,,,,,,,,,,,,,,,,,,,,,,,,,,,,,,,,,,,,,,,,,,,,,,,,,,
1768972257.956177,1768972257.957195,102.0,0.0,4395.512695,4338.846191,4349.871582,4358.717773,4372.436035,4376.153809,4372.563965,4372.05127,4357.436035,4356.922852,4455.769043,4515.256348,4394.487305,4455.641113,,,,,,,,,,,,,,,,,,,,,,,,,,,,,,,,,,,,,,,,,,,,,,,,,,,,,,,,,,,,,,,,,,,,,,
1768972257.963986,1768972257.965004,103.0,0.0,4396.794922,4342.692383,4355.512695,4357.692383,4374.743652,4376.538574,4371.282227,4375.0,4363.077148,4358.974121,4458.846191,4518.974121,4398.589844,4452.563965,,,,,,,,,,,,,,,,,,,,,,,,,,,,,,,,,,,,,,,,,,,,,,,,,,,,,,,,,,,,,,,,,,,,,,
1768972257.971794,1768972257.972612,104.0,0.0,4395.769043,4340.512695,4359.743652,4356.794922,4366.666504,4371.153809,4371.282227,4381.794922,4368.717773,4358.589844,4463.333496,4520.256348,4399.230957,4452.692383,,,,,,,,,,,,,,,,,,,,,,,,,,,,,,,,,,,,,,,,,,,,,,,,,,,,,,,,,,,,,,,,,,,,,,
1768972257.979603,1768972257.980421,105.0,0.0,4392.692383,4342.692383,4359.871582,4361.153809,4370.512695,4375.256348,4374.102539,4383.205078,4366.666504,4366.922852,4465.256348,4522.436035,4404.615234,4454.615234,,,,,,,,,,,,,,,,,,,,,,,,,,,,,,,,,,,,,,,,,,,,,,,,,,,,,,,,,,,,,,,,,,,,,,
1768972257.987411,1768972257.988329,106.0,0.0,4394.102539,4346.666504,4358.846191,4363.205078,4377.820313,4379.487305,4374.871582,4379.102539,4365.0,4376.410156,4465.0,4527.179688,4410.897461,4451.666504,,,,,,,,,,,,,,,,,,,,,,,,,,,,,,,,,,,,,,,,,,,,,,,,,,,,,,,,,,,,,,,,,,,,,,
1768972257.99522,1768972257.996138,107.0,0.0,4392.179688,4343.077148,4356.282227,4358.974121,4369.358887,4372.820313,4369.615234,4377.692383,4368.333496,4373.846191,4463.333496,4525.384766,4406.153809,4446.794922,,,,,,,,,,,,,,,,,,,,,,,,,,,,,,,,,,,,,,,,,,,,,,,,,,,,,,,,,,,,,,,,,,,,,,
1768972258.003028,1768972258.004146,108.0,0.0,4384.230957,4340.128418,4353.846191,4356.410156,4362.179688,4365.897461,4365.512695,4377.436035,4367.94873,4366.410156,4460.512695,4515.128418,4396.282227,4443.589844,,,,,,,,,,,,,,,,,,,,,,,,,,,,,,,,,,,,,,,,,,,,,,,,,,,,,,,,,,,,,,,,,,,,,,
1768972258.010836,1768972258.011954,109.0,0.0,4380.0,4341.922852,4349.358887,4358.717773,4365.384766,4366.666504,4366.538574,4371.922852,4360.769043,4362.563965,4457.563965,4510.128418,4393.205078,4436.538574,,,,,,,,,,,,,,,,,,,,,,,,,,,,,,,,,,,,,,,,,,,,,,,,,,,,,,,,,,,,,,,,,,,,,,
1768972258.018645,1768972258.019863,110.0,0.0,4381.666504,4343.205078,4348.589844,4359.102539,4370.256348,4372.436035,4370.641113,4371.922852,4360.641113,4365.128418,4458.205078,4520.512695,4395.512695,4433.589844,0.548466,0.561723,0.338434,0.502567,0.232307,0.494912,0.855677,0.497989,0.156808,0.138598,0.422523,0.397247,0.155496,0.185043,0.120509,0.250865,0.367056,0.22655,0.146002,0.114797,0.398084,0.288335,0.116295,0.047226,0.05673,0.232036,1.232925,0.458065,0.256609,0.49157,0.239499,1.76309,0.653189,0.334127,0.567772,0.332206,0.392095,0.242009,0.196462,0.260227,0.315621,0.141559,0.172078,0.196813,0.170418,0.322875,0.382458,0.390152,0.430661,0.417814,0.222997,0.316668,0.367007,0.207431,0.163601,0.687375,0.099809,0.475305,0.395296,0.28906,0.529189,0.563133,0.333984,0.295244,0.162356,0.416768,0.64058,0.322945,0.277096,0.255275
1768972258.026453,1768972258.027671,111.0,0.0,4382.692383,4342.436035,4354.102539,4356.922852,4372.94873,4377.563965,4376.666504,4379.871582,4367.307617,4365.384766,4461.410156,4530.897461,4396.410156,4439.230957,,,,,,,,,,,,,,,,,,,,,,,,,,,,,,,,,,,,,,,,,,,,,,,,,,,,,,,,,,,,,,,,,,,,,,
1768972258.034262,1768972258.03528,112.0,0.0,4379.358887,4339.487305,4354.230957,4354.615234,4368.717773,4374.102539,4377.563965,4382.436035,4367.436035,4359.102539,4460.897461,4526.025879,4397.179688,4441.794922,,,,,,,,,,,,,,,,,,,,,,,,,,,,,,,,,,,,,,,,,,,,,,,,,,,,,,,,,,,,,,,,,,,,,,
1768972258.04207,1768972258.043088,113.0,0.0,4375.641113,4330.641113,4350.0,4353.077148,4363.077148,4370.384766,4375.256348,4377.307617,4363.846191,4359.230957,4458.461426,4517.94873,4396.410156,4435.897461,,,,,,,,,,,,,,,,,,,,,,,,,,,,,,,,,,,,,,,,,,,,,,,,,,,,,,,,,,,,,,,,,,,,,,
1768972258.049879,1768972258.050797,114.0,0.0,4374.102539,4325.256348,4352.05127,4353.717773,4366.666504,4374.743652,4378.717773,4375.0,4364.102539,4364.743652,4457.563965,4518.205078,4391.410156,4431.794922,,,,,,,,,,,,,,,,,,,,,,,,,,,,,,,,,,,,,,,,,,,,,,,,,,,,,,,,,,,,,,,,,,,,,,
1768972258.057687,1768972258.058605,115.0,0.0,4375.769043,4326.025879,4352.94873,4350.641113,4367.692383,4378.077148,4384.615234,4379.743652,4364.102539,4362.820313,4455.384766,4520.256348,4383.461426,4432.692383,,,,,,,,,,,,,,,,,,,,,,,,,,,,,,,,,,,,,,,,,,,,,,,,,,,,,,,,,,,,,,,,,,,,,,
1768972258.065496,1768972258.066613,116.0,0.0,4371.025879,4320.641113,4344.871582,4342.94873,4360.256348,4373.333496,4380.0,4381.666504,4363.717773,4354.871582,4447.179688,4518.974121,4378.333496,4431.153809,,,,,,,,,,,,,,,,,,,,,,,,,,,,,,,,,,,,,,,,,,,,,,,,,,,,,,,,,,,,,,,,,,,,,,
1768972258.073304,1768972258.074422,117.0,0.0,4364.358887,4312.436035,4342.436035,4337.307617,4358.333496,4369.871582,4372.692383,4376.538574,4364.102539,4355.0,4442.436035,4517.563965,4376.794922,4425.641113,,,,,,,,,,,,,,,,,,,,,,,,,,,,,,,,,,,,,,,,,,,,,,,,,,,,,,,,,,,,,,,,,,,,,,
1768972258.081113,1768972258.08213,118.0,0.0,4370.256348,4314.358887,4349.102539,4342.436035,4358.717773,4373.077148,4375.256348,4375.897461,4364.102539,4360.641113,4450.641113,4519.743652,4377.563965,4425.641113,,,,,,,,,,,,,,,,,,,,,,,,,,,,,,,,,,,,,,,,,,,,,,,,,,,,,,,,,,,,,,,,,,,,,,
1768972258.088921,1768972258.089939,119.0,0.0,4380.769043,4324.487305,4358.205078,4353.717773,4357.692383,4376.410156,4383.077148,4384.615234,4369.102539,4361.922852,4461.794922,4528.333496,4387.179688,4436.794922,,,,,,,,,,,,,,,,,,,,,,,,,,,,,,,,,,,,,,,,,,,,,,,,,,,,,,,,,,,,,,,,,,,,,,
1768972258.096729,1768972258.097647,120.0,0.0,4384.102539,4330.128418,4365.641113,4358.589844,4364.102539,4377.307617,4386.025879,4385.897461,4372.692383,4363.077148,4464.743652,4535.641113,4397.307617,4447.307617,,,,,,,,,,,,,,,,,,,,,,,,,,,,,,,,,,,,,,,,,,,,,,,,,,,,,,,,,,,,,,,,,,,,,,
1768972258.104538,1768972258.105456,121.0,0.0,4380.0,4323.333496,4360.128418,4352.05127,4366.025879,4368.205078,4370.769043,4375.897461,4364.871582,4366.410156,4461.538574,4531.538574,4391.666504,4445.384766,,,,,,,,,,,,,,,,,,,,,,,,,,,,,,,,,,,,,,,,,,,,,,,,,,,,,,,,,,,,,,,,,,,,,,
1768972258.112346,1768972258.113164,122.0,0.0,4375.641113,4311.922852,4348.205078,4345.512695,4359.743652,4357.94873,4355.897461,4369.358887,4356.153809,4368.461426,4457.563965,4522.563965,4381.538574,4439.102539,,,,,,,,,,,,,,,,,,,,,,,,,,,,,,,,,,,,,,,,,,,,,,,,,,,,,,,,,,,,,,,,,,,,,,
1768972258.120155,1768972258.120973,123.0,0.0,4374.102539,4307.94873,4345.769043,4344.871582,4359.743652,4366.922852,4365.384766,4369.743652,4357.307617,4367.179688,4458.205078,4520.384766,4384.230957,4432.820313,,,,,,,,,,,,,,,,,,,,,,,,,,,,,,,,,,,,,,,,,,,,,,,,,,,,,,,,,,,,,,,,,,,,,,
1768972258.127963,1768972258.128582,124.0,0.0,4372.436035,4309.871582,4350.897461,4344.871582,4365.128418,4376.794922,4377.692383,4371.666504,4359.615234,4362.179688,4458.589844,4520.897461,4387.436035,4427.94873,,,,,,,,,,,,,,,,,,,,,,,,,,,,,,,,,,,,,,,,,,,,,,,,,,,,,,,,,,,,,,,,,,,,,,
1768972258.135771,1768972258.13639,125.0,0.0,4369.358887,4308.846191,4350.769043,4347.05127,4361.666504,4370.256348,4371.153809,4371.666504,4357.692383,4358.589844,4451.666504,4517.307617,4382.94873,4429.358887,,,,,,,,,,,,,,,,,,,,,,,,,,,,,,,,,,,,,,,,,,,,,,,,,,,,,,,,,,,,,,,,,,,,,,
1768972258.14358,1768972258.144099,126.0,0.0,4367.692383,4308.461426,4345.384766,4349.487305,4356.282227,4369.743652,4371.922852,4371.794922,4354.487305,4356.922852,4448.846191,4514.358887,4383.333496,4430.512695,0.580316,0.583027,0.336273,0.468321,0.197034,0.416435,0.779534,0.467797,0.18728,0.128734,0.462125,0.422336,0.162703,0.177378,0.12135,0.249081,0.3999,0.257637,0.173036,0.10472,0.424613,0.261576,0.108347,0.046722,0.05568,0.215043,1.170537,0.473702,0.275855,0.46453,0.18215,1.681558,0.58747,0.33628,0.528933,0.268488,0.358173,0.232808,0.188662,0.247469,0.29629,0.131472,0.190003,0.218327,0.16749,0.364173,0.46181,0.375485,0.48186,0.438795,0.221896,0.311925,0.351868,0.190777,0.163212,0.633601,0.147978,0.532781,0.362169,0.306277,0.578702,0.573587,0.407264,0.326615,0.185579,0.527282,0.565716,0.289149,0.245998,0.266156
1768972258.151388,1768972258.151907,127.0,0.0,4369.615234,4309.871582,4345.256348,4346.922852,4361.794922,4376.025879,4380.897461,4372.563965,4354.743652,4353.077148,4456.794922,4515.128418,4386.025879,4428.589844,,,,,,,,,,,,,,,,,,,,,,,,,,,,,,,,,,,,,,,,,,,,,,,,,,,,,,,,,,,,,,,,,,,,,,
1768972258.159197,1768972258.159516,0.0,0.0,4367.307617,4308.974121,4346.538574,4342.307617,4364.487305,4374.871582,4376.153809,4375.384766,4357.179688,4354.358887,4461.025879,4513.717773,4383.717773,4429.102539,,,,,,,,,,,,,,,,,,,,,,,,,,,,,,,,,,,,,,,,,,,,,,,,,,,,,,,,,,,,,,,,,,,,,,
1768972258.167005,1768972258.167324,1.0,0.0,4365.128418,4309.358887,4345.512695,4342.307617,4359.615234,4373.333496,4375.384766,4379.230957,4357.820313,4363.974121,4459.230957,4512.692383,4382.179688,4428.077148,,,,,,,,,,,,,,,,,,,,,,,,,,,,,,,,,,,,,,,,,,,,,,,,,,,,,,,,,,,,,,,,,,,,,,
1768972258.174814,1768972258.175033,2.0,0.0,4367.94873,4310.897461,4344.871582,4344.102539,4361.794922,4374.102539,4381.794922,4380.256348,4358.846191,4363.846191,4458.846191,4515.641113,4387.94873,4426.922852,,,,,,,,,,,,,,,,,,,,,,,,,,,,,,,,,,,,,,,,,,,,,,,,,,,,,,,,,,,,,,,,,,,,,,
1768972258.182622,1768972258.182841,3.0,0.0,4365.0,4310.384766,4343.589844,4342.436035,4366.922852,4374.358887,4382.692383,4375.256348,4359.487305,4356.282227,4458.205078,4515.641113,4389.871582,4427.692383,,,,,,,,,,,,,,,,,,,,,,,,,,,,,,,,,,,,,,,,,,,,,,,,,,,,,,,,,,,,,,,,,,,,,,
1768972258.190431,1768972258.190849,4.0,0.0,4358.846191,4313.077148,4345.512695,4343.205078,4364.102539,4383.461426,4390.641113,4375.256348,4357.436035,4357.820313,4457.436035,4517.436035,4388.333496,4428.205078,,,,,,,,,,,,,,,,,,,,,,,,,,,,,,,,,,,,,,,,,,,,,,,,,,,,,,,,,,,,,,,,,,,,,,
1768972258.198239,1768972258.198658,5.0,0.0,4363.333496,4319.487305,4348.077148,4346.538574,4362.307617,4386.410156,4390.384766,4380.384766,4356.794922,4358.077148,4457.94873,4520.0,4392.692383,4427.692383,,,,,,,,,,,,,,,,,,,,,,,,,,,,,,,,,,,,,,,,,,,,,,,,,,,,,,,,,,,,,,,,,,,,,,
1768972258.206047,1768972258.206566,6.0,0.0,4372.05127,4324.102539,4346.538574,4347.307617,4368.846191,4366.282227,4364.615234,4373.461426,4357.692383,4355.384766,4456.794922,4515.641113,4397.179688,4432.94873,,,,,,,,,,,,,,,,,,,,,,,,,,,,,,,,,,,,,,,,,,,,,,,,,,,,,,,,,,,,,,,,,,,,,,
1768972258.213856,1768972258.214375,7.0,0.0,4369.230957,4324.871582,4344.358887,4342.820313,4366.922852,4356.922852,4352.436035,4365.0,4357.94873,4359.743652,4459.102539,4512.436035,4396.666504,4439.871582,,,,,,,,,,,,,,,,,,,,,,,,,,,,,,,,,,,,,,,,,,,,,,,,,,,,,,,,,,,,,,,,,,,,,,
1768972258.221664,1768972258.222383,8.0,0.0,4363.077148,4327.820313,4346.282227,4342.05127,4359.102539,4370.0,4367.179688,4368.846191,4355.769043,4356.922852,4460.256348,4512.563965,4391.153809,4431.922852,,,,,,,,,,,,,,,,,,,,,,,,,,,,,,,,,,,,,,,,,,,,,,,,,,,,,,,,,,,,,,,,,,,,,,
1768972258.229473,1768972258.230191,9.0,0.0,4368.846191,4335.384766,4348.589844,4347.94873,4357.563965,4371.410156,4369.615234,4370.0,4354.230957,4351.282227,4456.282227,4510.769043,4388.589844,4426.282227,,,,,,,,,,,,,,,,,,,,,,,,,,,,,,,,,,,,,,,,,,,,,,,,,,,,,,,,,,,,,,,,,,,,,,
1768972258.237281,1768972258.2379,10.0,0.0,4377.307617,4341.922852,4349.230957,4352.179688,4357.563965,4368.461426,4364.615234,4368.333496,4356.282227,4357.05127,4458.461426,4514.358887,4396.153809,4440.641113,,,,,,,,,,,,,,,,,,,,,,,,,,,,,,,,,,,,,,,,,,,,,,,,,,,,,,,,,,,,,,,,,,,,,,
1768972258.24509,1768972258.245708,11.0,0.0,4374.487305,4339.615234,4352.05127,4351.922852,4356.666504,4378.846191,4375.769043,4374.102539,4358.205078,4352.563965,4459.871582,4520.512695,4401.282227,4443.974121,,,,,,,,,,,,,,,,,,,,,,,,,,,,,,,,,,,,,,,,,,,,,,,,,,,,,,,,,,,,,,,,,,,,,,
1768972258.252898,1768972258.253717,12.0,0.0,4366.922852,4334.230957,4352.436035,4350.128418,4358.846191,4381.794922,4382.692383,4373.077148,4356.666504,4338.717773,4450.0,4513.205078,4390.512695,4428.205078,,,,,,,,,,,,,,,,,,,,,,,,,,,,,,,,,,,,,,,,,,,,,,,,,,,,,,,,,,,,,,,,,,,,,,
1768972258.260707,1768972258.261525,13.0,0.0,4368.846191,4334.871582,4350.128418,4348.846191,4357.436035,4371.282227,4374.871582,4362.692383,4355.384766,4341.282227,4442.94873,4502.563965,4381.153809,4424.615234,,,,,,,,,,,,,,,,,,,,,,,,,,,,,,,,,,,,,,,,,,,,,,,,,,,,,,,,,,,,,,,,,,,,,,
1768972258.268515,1768972258.269433,14.0,0.0,4372.179688,4336.794922,4347.820313,4348.589844,4350.256348,4370.897461,4370.769043,4362.563965,4356.922852,4348.846191,4443.333496,4499.487305,4380.897461,4429.102539,0.682838,0.592867,0.341695,0.422501,0.163515,0.353467,0.66151,0.420943,0.209249,0.114097,0.476353,0.428975,0.175547,0.177087,0.120882,0.251494,0.417094,0.281258,0.195287,0.093615,0.401935,0.22944,0.106911,0.049356,0.057404,0.202319,1.046853,0.448036,0.282855,0.424158,0.14588,1.495062,0.49544,0.34575,0.466481,0.233599,0.316843,0.233805,0.185459,0.2244,0.306436,0.121326,0.216159,0.234913,0.162822,0.383888,0.522076,0.357108,0.536241,0.437194,0.240477,0.320622,0.316102,0.173513,0.156164,0.617039,0.222789,0.582169,0.330164,0.308976,0.595252,0.587557,0.485693,0.347009,0.207979,0.736897,0.528492,0.281787,0.215467,0.262338
1768972258.276323,1768972258.277242,15.0,0.0,4367.05127,4338.205078,4347.820313,4349.615234,4350.512695,4373.077148,4368.589844,4362.820313,4353.333496,4343.846191,4441.410156,4497.307617,4377.179688,4426.025879,,,,,,,,,,,,,,,,,,,,,,,,,,,,,,,,,,,,,,,,,,,,,,,,,,,,,,,,,,,,,,,,,,,,,,
1768972258.284132,1768972258.28485,16.0,0.0,4357.692383,4339.102539,4349.743652,4348.717773,4351.025879,4371.538574,4370.128418,4357.94873,4349.487305,4339.358887,4440.769043,4497.820313,4376.153809,4427.307617,,,,,,,,,,,,,,,,,,,,,,,,,,,,,,,,,,,,,,,,,,,,,,,,,,,,,,,,,,,,,,,,,,,,,,
1768972258.29194,1768972258.292659,17.0,0.0,4355.512695,4337.05127,4349.358887,4345.256348,4343.717773,4376.025879,4375.512695,4364.230957,4355.769043,4342.563965,4445.128418,4502.94873,4380.769043,4430.256348,,,,,,,,,,,,,,,,,,,,,,,,,,,,,,,,,,,,,,,,,,,,,,,,,,,,,,,,,,,,,,,,,,,,,,
1768972258.299749,1768972258.300367,18.0,0.0,4361.794922,4337.05127,4347.436035,4342.563965,4345.256348,4370.641113,4365.384766,4366.282227,4356.922852,4345.897461,4446.153809,4503.846191,4382.05127,4427.94873,,,,,,,,,,,,,,,,,,,,,,,,,,,,,,,,,,,,,,,,,,,,,,,,,,,,,,,,,,,,,,,,,,,,,,
1768972258.307557,1768972258.308176,19.0,0.0,4367.692383,4341.410156,4345.0,4341.794922,4350.128418,4356.922852,4349.743652,4357.307617,4349.230957,4347.436035,4443.974121,4499.615234,4382.05127,4430.641113,,,,,,,,,,,,,,,,,,,,,,,,,,,,,,,,,,,,,,,,,,,,,,,,,,,,,,,,,,,,,,,,,,,,,,
1768972258.315366,1768972258.316184,20.0,0.0,4367.94873,4342.307617,4344.487305,4347.179688,4345.769043,4362.307617,4358.077148,4360.384766,4351.922852,4340.897461,4446.025879,4501.282227,4384.487305,4434.102539,,,,,,,,,,,,,,,,,,,,,,,,,,,,,,,,,,,,,,,,,,,,,,,,,,,,,,,,,,,,,,,,,,,,,,
1768972258.323174,1768972258.323993,21.0,0.0,4366.282227,4341.025879,4343.974121,4355.769043,4345.769043,4376.025879,4375.128418,4367.692383,4358.205078,4338.333496,4453.205078,4506.410156,4386.410156,4430.769043,,,,,,,,,,,,,,,,,,,,,,,,,,,,,,,,,,,,,,,,,,,,,,,,,,,,,,,,,,,,,,,,,,,,,,
1768972258.330983,1768972258.331701,22.0,0.0,4366.410156,4342.05127,4343.333496,4357.179688,4353.846191,4374.102539,4374.358887,4361.538574,4352.436035,4353.461426,4460.512695,4506.666504,4389.358887,4430.512695,,,,,,,,,,,,,,,,,,,,,,,,,,,,,,,,,,,,,,,,,,,,,,,,,,,,,,,,,,,,,,,,,,,,,,
1768972258.338791,1768972258.33951,23.0,0.0,4366.282227,4338.846191,4345.0,4354.102539,4355.769043,4372.179688,4372.820313,4361.153809,4351.794922,4361.794922,4460.897461,4507.307617,4393.846191,4437.94873,,,,,,,,,,,,,,,,,,,,,,,,,,,,,,,,,,,,,,,,,,,,,,,,,,,,,,,,,,,,,,,,,,,,,,
1768972258.346599,1768972258.347118,24.0,0.0,4368.205078,4334.743652,4349.102539,4356.025879,4353.333496,4380.384766,4379.743652,4369.358887,4358.974121,4352.692383,4457.563965,4509.871582,4395.641113,4442.307617,,,,,,,,,,,,,,,,,,,,,,,,,,,,,,,,,,,,,,,,,,,,,,,,,,,,,,,,,,,,,,,,,,,,,,
1768972258.354408,1768972258.354927,25.0,0.0,4375.0,4339.102539,4354.230957,4359.230957,4354.487305,4377.05127,4376.666504,4367.05127,4357.05127,4350.384766,4458.077148,4511.922852,4395.256348,4443.333496,,,,,,,,,,,,,,,,,,,,,,,,,,,,,,,,,,,,,,,,,,,,,,,,,,,,,,,,,,,,,,,,,,,,,,
1768972258.362216,1768972258.362635,26.0,0.0,4376.922852,4340.641113,4354.487305,4357.436035,4353.205078,4368.333496,4370.256348,4368.077148,4359.615234,4361.410156,4460.641113,4519.615234,4393.846191,4448.461426,,,,,,,,,,,,,,,,,,,,,,,,,,,,,,,,,,,,,,,,,,,,,,,,,,,,,,,,,,,,,,,,,,,,,,
1768972258.370025,1768972258.370444,27.0,0.0,4371.282227,4334.230957,4346.922852,4354.487305,4349.743652,4373.077148,4372.307617,4375.128418,4369.615234,4359.871582,4461.153809,4528.589844,4393.589844,4449.358887,,,,,,,,,,,,,,,,,,,,,,,,,,,,,,,,,,,,,,,,,,,,,,,,,,,,,,,,,,,,,,,,,,,,,,
1768972258.377833,1768972258.378452,28.0,0.0,4372.563965,4335.256348,4344.871582,4355.0,4345.641113,4376.025879,4371.794922,4371.025879,4366.410156,4348.589844,4461.922852,4531.410156,4395.512695,4448.589844,,,,,,,,,,,,,,,,,,,,,,,,,,,,,,,,,,,,,,,,,,,,,,,,,,,,,,,,,,,,,,,,,,,,,,
1768972258.385642,1768972258.38626,29.0,0.0,4380.512695,4343.333496,4353.974121,4357.179688,4341.922852,4367.179688,4362.94873,4362.05127,4354.871582,4350.897461,4462.692383,4529.487305,4396.282227,4454.871582,,,,,,,,,,,,,,,,,,,,,,,,,,,,,,,,,,,,,,,,,,,,,,,,,,,,,,,,,,,,,,,,,,,,,,
1768972258.39345,1768972258.394169,30.0,0.0,4382.05127,4344.358887,4354.615234,4355.769043,4343.077148,4357.307617,4358.461426,4361.282227,4353.077148,4359.743652,4461.410156,4530.256348,4395.384766,4459.871582,0.915937,0.635057,0.359015,0.374079,0.137651,0.311115,0.537547,0.376638,0.217932,0.099254,0.464561,0.418728,0.188356,0.186606,0.118135,0.251045,0.417924,0.291967,0.207091,0.083308,0.351363,0.198982,0.115958,0.054279,0.06225,0.200837,0.908619,0.391358,0.275982,0.381404,0.128604,1.267753,0.406464,0.363973,0.403202,0.215334,0.289573,0.246423,0.185152,0.192365,0.327151,0.11434,0.244836,0.242438,0.155557,0.375476,0.557694,0.339241,0.576765,0.408371,0.260052,0.347002,0.286047,0.160918,0.142405,0.622292,0.316585,0.616334,0.301887,0.292854,0.588319,0.61337,0.564233,0.349518,0.22308,1.119807,0.553541,0.30827,0.191877,0.243118
1768972258.401258,1768972258.401977,31.0,0.0,4380.512695,4341.153809,4349.102539,4354.358887,4344.102539,4354.487305,4356.794922,4368.846191,4358.717773,4359.230957,4462.563965,4535.0,4395.0,4456.025879,,,,,,,,,,,,,,,,,,,,,,,,,,,,,,,,,,,,,,,,,,,,,,,,,,,,,,,,,,,,,,,,,,,,,,
1768972258.409067,1768972258.409985,32.0,0.0,4381.922852,4345.0,4353.461426,4356.025879,4343.077148,4357.563965,4354.871582,4371.410156,4358.974121,4352.563965,4465.0,4533.974121,4395.769043,4456.794922,,,,,,,,,,,,,,,,,,,,,,,,,,,,,,,,,,,,,,,,,,,,,,,,,,,,,,,,,,,,,,,,,,,,,,
1768972258.416875,1768972258.417794,33.0,0.0,4384.615234,4348.205078,4361.153809,4358.205078,4346.922852,4359.102539,4360.897461,4366.922852,4355.512695,4348.461426,4462.05127,4532.436035,4396.282227,4461.410156,,,,,,,,,,,,,,,,,,,,,,,,,,,,,,,,,,,,,,,,,,,,,,,,,,,,,,,,,,,,,,,,,,,,,,
1768972258.424684,1768972258.425702,34.0,0.0,4383.077148,4344.230957,4359.615234,4358.205078,4348.974121,4358.205078,4367.436035,4366.410156,4356.794922,4346.538574,4460.0,4530.0,4391.538574,4452.94873,,,,,,,,,,,,,,,,,,,,,,,,,,,,,,,,,,,,,,,,,,,,,,,,,,,,,,,,,,,,,,,,,,,,,,
1768972258.432492,1768972258.433511,35.0,0.0,4376.666504,4339.487305,4353.846191,4352.692383,4344.487305,4361.794922,4367.436035,4368.974121,4358.974121,4341.922852,4460.256348,4518.589844,4381.922852,4441.153809,,,,,,,,,,,,,,,,,,,,,,,,,,,,,,,,,,,,,,,,,,,,,,,,,,,,,,,,,,,,,,,,,,,,,,
1768972258.440301,1768972258.441519,36.0,0.0,4373.589844,4337.563965,4348.846191,4345.641113,4341.666504,4363.589844,4365.897461,4367.179688,4353.846191,4335.769043,4457.436035,4509.487305,4378.974121,4440.256348,,,,,,,,,,,,,,,,,,,,,,,,,,,,,,,,,,,,,,,,,,,,,,,,,,,,,,,,,,,,,,,,,,,,,,
1768972258.448109,1768972258.449327,37.0,0.0,4371.922852,4337.563965,4343.717773,4348.461426,4335.641113,4359.615234,4363.846191,4365.512695,4350.256348,4338.589844,4455.769043,4512.563965,4383.205078,4443.974121,,,,,,,,,,,,,,,,,,,,,,,,,,,,,,,,,,,,,,,,,,,,,,,,,,,,,,,,,,,,,,,,,,,,,,
1768972258.455917,1768972258.457036,38.0,0.0,4367.692383,4333.461426,4343.205078,4350.384766,4326.025879,4360.128418,4367.179688,4370.897461,4354.743652,4345.512695,4457.179688,4517.820313,4380.512695,4444.230957,,,,,,,,,,,,,,,,,,,,,,,,,,,,,,,,,,,,,,,,,,,,,,,,,,,,,,,,,,,,,,,,,,,,,,
1768972258.463726,1768972258.464844,39.0,0.0,4371.282227,4331.025879,4346.410156,4343.461426,4332.820313,4362.307617,4369.487305,4367.94873,4351.153809,4343.589844,4457.179688,4516.282227,4373.717773,4443.205078,,,,,,,,,,,,,,,,,,,,,,,,,,,,,,,,,,,,,,,,,,,,,,,,,,,,,,,,,,,,,,,,,,,,,,
1768972258.471534,1768972258.472453,40.0,0.0,4380.769043,4336.025879,4348.205078,4346.282227,4344.487305,4358.717773,4362.05127,4360.897461,4345.0,4342.05127,4457.307617,4514.358887,4377.563965,4443.846191,,,,,,,,,,,,,,,,,,,,,,,,,,,,,,,,,,,,,,,,,,,,,,,,,,,,,,,,,,,,,,,,,,,,,,
1768972258.479343,1768972258.480261,41.0,0.0,4380.128418,4342.179688,4348.461426,4353.205078,4341.666504,4354.487305,4355.128418,4364.615234,4348.717773,4343.205078,4456.666504,4511.922852,4381.922852,4444.487305,,,,,,,,,,,,,,,,,,,,,,,,,,,,,,,,,,,,,,,,,,,,,,,,,,,,,,,,,,,,,,,,,,,,,,
1768972258.487151,1768972258.48797,42.0,0.0,4369.871582,4343.461426,4345.512695,4345.897461,4338.461426,4345.769043,4348.461426,4362.307617,4348.205078,4339.102539,4447.563965,4504.487305,4375.897461,4443.589844,,,,,,,,,,,,,,,,,,,,,,,,,,,,,,,,,,,,,,,,,,,,,,,,,,,,,,,,,,,,,,,,,,,,,,
1768972258.49496,1768972258.495778,43.0,0.0,4366.282227,4342.179688,4337.820313,4341.153809,4340.512695,4339.230957,4342.05127,4355.641113,4343.461426,4339.102539,4443.461426,4497.94873,4373.461426,4440.0,,,,,,,,,,,,,,,,,,,,,,,,,,,,,,,,,,,,,,,,,,,,,,,,,,,,,,,,,,,,,,,,,,,,,,
1768972258.502768,1768972258.503387,44.0,0.0,4372.179688,4343.461426,4333.846191,4348.846191,4341.922852,4351.282227,4350.0,4358.974121,4347.179688,4340.0,4456.025879,4499.743652,4382.05127,4441.794922,,,,,,,,,,,,,,,,,,,,,,,,,,,,,,,,,,,,,,,,,,,,,,,,,,,,,,,,,,,,,,,,,,,,,,
1768972258.510577,1768972258.511195,45.0,0.0,4375.641113,4342.820313,4336.153809,4352.179688,4344.230957,4363.077148,4360.897461,4363.589844,4347.436035,4333.589844,4459.230957,4503.974121,4383.077148,4447.307617,,,,,,,,,,,,,,,,,,,,,,,,,,,,,,,,,,,,,,,,,,,,,,,,,,,,,,,,,,,,,,,,,,,,,,
1768972258.518385,1768972258.519104,46.0,0.0,4368.974121,4342.692383,4337.436035,4347.307617,4344.358887,4357.94873,4358.333496,4361.794922,4340.128418,4333.717773,4445.0,4499.487305,4373.717773,4441.025879,1.284203,0.738844,0.384174,0.326642,0.121085,0.353761,0.446029,0.347736,0.213805,0.08835,0.42597,0.395878,0.197449,0.20366,0.112251,0.246024,0.409094,0.288495,0.207535,0.074493,0.30942,0.174865,0.138191,0.059403,0.070528,0.213793,0.799666,0.322683,0.261309,0.346097,0.128395,1.080834,0.346208,0.389758,0.357912,0.20656,0.2954,0.265037,0.186006,0.157781,0.338997,0.115799,0.266674,0.238382,0.14553,0.341275,0.573016,0.324463,0.586033,0.35695,0.288159,0.387613,0.284088,0.154786,0.124684,0.654027,0.417025,0.628708,0.276454,0.26061,0.584885,0.658769,0.632264,0.333759,0.22666,1.690323,0.645072,0.361568,0.177154,0.213263
1768972258.526194,1768972258.526912,47.0,0.0,4361.410156,4340.897461,4339.487305,4343.846191,4340.897461,4355.128418,4356.282227,4359.358887,4341.410156,4340.128418,4440.512695,4497.436035,4368.461426,4431.025879,,,,,,,,,,,,,,,,,,,,,,,,,,,,,,,,,,,,,,,,,,,,,,,,,,,,,,,,,,,,,,,,,,,,,,
1768972258.534002,1768972258.534921,48.0,0.0,4360.897461,4333.077148,4338.717773,4343.333496,4337.05127,4357.436035,4359.230957,4359.871582,4343.846191,4338.589844,4446.794922,4500.641113,4366.794922,4435.128418,,,,,,,,,,,,,,,,,,,,,,,,,,,,,,,,,,,,,,,,,,,,,,,,,,,,,,,,,,,,,,,,,,,,,,
1768972258.54181,1768972258.542729,49.0,0.0,4358.077148,4326.025879,4332.94873,4342.05127,4334.487305,4352.05127,4355.641113,4361.153809,4341.025879,4332.436035,4445.641113,4495.512695,4365.0,4439.230957,,,,,,,,,,,,,,,,,,,,,,,,,,,,,,,,,,,,,,,,,,,,,,,,,,,,,,,,,,,,,,,,,,,,,,
1768972258.549619,1768972258.550437,50.0,0.0,4357.94873,4325.128418,4331.282227,4340.641113,4334.871582,4349.743652,4354.102539,4359.487305,4341.794922,4328.717773,4440.256348,4490.769043,4367.05127,4430.128418,,,,,,,,,,,,,,,,,,,,,,,,,,,,,,,,,,,,,,,,,,,,,,,,,,,,,,,,,,,,,,,,,,,,,,
1768972258.557427,1768972258.558246,51.0,0.0,4366.025879,4330.128418,4336.794922,4344.487305,4337.436035,4354.487305,4356.025879,4355.256348,4342.436035,4324.743652,4441.666504,4497.820313,4372.692383,4428.077148,,,,,,,,,,,,,,,,,,,,,,,,,,,,,,,,,,,,,,,,,,,,,,,,,,,,,,,,,,,,,,,,,,,,,,
1768972258.565236,1768972258.565855,52.0,0.0,4369.230957,4331.794922,4339.102539,4346.666504,4338.205078,4348.461426,4351.666504,4357.307617,4341.794922,4325.128418,4445.641113,4501.410156,4372.94873,4435.0,,,,,,,,,,,,,,,,,,,,,,,,,,,,,,,,,,,,,,,,,,,,,,,,,,,,,,,,,,,,,,,,,,,,,,
1768972258.573044,1768972258.573663,53.0,0.0,4366.410156,4328.589844,4335.512695,4344.102539,4337.563965,4342.94873,4349.230957,4356.794922,4341.282227,4332.94873,4441.153809,4490.256348,4369.871582,4430.769043,,,,,,,,,,,,,,,,,,,,,,,,,,,,,,,,,,,,,,,,,,,,,,,,,,,,,,,,,,,,,,,,,,,,,,
1768972258.580853,1768972258.581372,54.0,0.0,4369.743652,4325.641113,4334.358887,4345.769043,4336.794922,4347.692383,4348.974121,4350.512695,4340.384766,4333.846191,4435.384766,4487.307617,4370.769043,4426.538574,,,,,,,,,,,,,,,,,,,,,,,,,,,,,,,,,,,,,,,,,,,,,,,,,,,,,,,,,,,,,,,,,,,,,,
1768972258.588661,1768972258.58918,55.0,0.0,4373.589844,4324.615234,4332.307617,4350.256348,4338.333496,4346.666504,4342.179688,4349.615234,4340.384766,4325.128418,4438.717773,4494.871582,4374.743652,4432.94873,,,,,,,,,,,,,,,,,,,,,,,,,,,,,,,,,,,,,,,,,,,,,,,,,,,,,,,,,,,,,,,,,,,,,,
1768972258.59647,1768972258.597188,56.0,0.0,4369.615234,4327.05127,4332.94873,4350.512695,4341.538574,4342.692383,4341.538574,4350.256348,4341.538574,4328.205078,4443.333496,4492.563965,4378.077148,4434.230957,,,,,,,,,,,,,,,,,,,,,,,,,,,,,,,,,,,,,,,,,,,,,,,,,,,,,,,,,,,,,,,,,,,,,,
1768972258.604278,1768972258.604997,57.0,0.0,4368.846191,4331.922852,4337.563965,4348.205078,4337.820313,4343.974121,4348.077148,4351.666504,4340.0,4337.820313,4442.436035,4483.589844,4380.256348,4427.94873,,,,,,,,,,,,,,,,,,,,,,,,,,,,,,,,,,,,,,,,,,,,,,,,,,,,,,,,,,,,,,,,,,,,,,
1768972258.612086,1768972258.612905,58.0,0.0,4371.794922,4333.717773,4341.282227,4350.128418,4333.077148,4344.871582,4346.794922,4353.846191,4339.230957,4330.641113,4440.769043,4482.94873,4381.794922,4425.256348,,,,,,,,,,,,,,,,,,,,,,,,,,,,,,,,,,,,,,,,,,,,,,,,,,,,,,,,,,,,,,,,,,,,,,
1768972258.619895,1768972258.620714,59.0,0.0,4368.461426,4331.666504,4342.563965,4351.922852,4336.282227,4345.128418,4343.461426,4353.205078,4341.922852,4322.563965,4435.897461,4483.333496,4380.0,4427.820313,,,,,,,,,,,,,,,,,,,,,,,,,,,,,,,,,,,,,,,,,,,,,,,,,,,,,,,,,,,,,,,,,,,,,,
1768972258.627703,1768972258.628722,60.0,0.0,4365.128418,4335.384766,4338.974121,4346.666504,4340.256348,4346.922852,4347.563965,4352.307617,4337.94873,4328.333496,4428.205078,4476.666504,4376.025879,4428.077148,,,,,,,,,,,,,,,,,,,,,,,,,,,,,,,,,,,,,,,,,,,,,,,,,,,,,,,,,,,,,,,,,,,,,,
1768972258.635512,1768972258.63653,61.0,0.0,4366.410156,4335.897461,4335.256348,4340.128418,4335.128418,4344.871582,4350.256348,4351.153809,4328.205078,4327.692383,4427.692383,4475.897461,4371.794922,4421.410156,,,,,,,,,,,,,,,,,,,,,,,,,,,,,,,,,,,,,,,,,,,,,,,,,,,,,,,,,,,,,,,,,,,,,,
