Timestamp,OriginalTimestamp,EEG.Counter,EEG.Interpolated,EEG.AF3,EEG.F7,EEG.F3,EEG.FC5,EEG.T7,EEG.P7,EEG.O1,EEG.O2,EEG.P8,EEG.T8,EEG.FC6,EEG.F4,EEG.F8,EEG.AF4,POW.AF3.Theta,POW.AF3.Alpha,POW.AF3.BetaL,POW.AF3.BetaH,POW.AF3.Gamma,POW.F7.Theta,POW.F7.Alpha,POW.F7.BetaL,POW.F7.BetaH,POW.F7.Gamma,POW.F3.Theta,POW.F3.Alpha,POW.F3.BetaL,POW.F3.BetaH,POW.F3.Gamma,POW.FC5.Theta,POW.FC5.Alpha,POW.FC5.BetaL,POW.FC5.BetaH,POW.FC5.Gamma,POW.T7.Theta,POW.T7.Alpha,POW.T7.BetaL,POW.T7.BetaH,POW.T7.Gamma,POW.P7.Theta,POW.P7.Alpha,POW.P7.BetaL,POW.P7.BetaH,POW.P7.Gamma,POW.O1.Theta,POW.O1.Alpha,POW.O1.BetaL,POW.O1.BetaH,POW.O1.Gamma,POW.O2.Theta,POW.O2.Alpha,POW.O2.BetaL,POW.O2.BetaH,POW.O2.Gamma,POW.P8.Theta,POW.P8.Alpha,POW.P8.BetaL,POW.P8.BetaH,POW.P8.Gamma,POW.T8.Theta,POW.T8.Alpha,POW.T8.BetaL,POW.T8.BetaH,POW.T8.Gamma,POW.FC6.Theta,POW.FC6.Alpha,POW.FC6.BetaL,POW.FC6.BetaH,POW.FC6.Gamma,POW.F4.Theta,POW.F4.Alpha,POW.F4.BetaL,POW.F4.BetaH,POW.F4.Gamma,POW.F8.Theta,POW.F8.Alpha,POW.F8.BetaL,POW.F8.BetaH,POW.F8.Gamma,POW.AF4.Theta,POW.AF4.Alpha,POW.AF4.BetaL,POW.AF4.BetaH,POW.AF4.Gamma
1769161424.080933,1769161424.081359,13.0,0.0,4323.205078,4303.205078,4272.436035,4327.563965,4276.025879,4264.487305,4280.128418,4288.205078,4278.461426,4281.922852,4572.436035,4562.436035,4429.615234,4516.282227,,,,,,,,,,,,,,,,,,,,,,,,,,,,,,,,,,,,,,,,,,,,,,,,,,,,,,,,,,,,,,,,,,,,,,
1769161424.088741,1769161424.089067,14.0,0.0,4313.077148,4297.563965,4263.461426,4325.128418,4275.384766,4274.102539,4290.384766,4293.461426,4279.230957,4275.256348,4571.025879,4554.615234,4426.410156,4508.461426,0.43184,0.333482,0.417418,0.255227,0.262592,0.523289,0.415311,0.208502,0.186592,0.116593,0.416599,0.107791,0.24772,0.158084,0.059373,0.25776,0.145116,0.118016,0.125972,0.074399,0.221135,0.180233,0.058613,0.048273,0.043268,0.199292,0.15834,0.085936,0.063122,0.0634,0.319481,0.139695,0.159693,0.080403,0.122237,0.66989,0.290275,0.276266,0.153647,0.174626,0.403557,0.21488,0.231803,0.118428,0.102815,0.278717,0.382531,0.361735,0.270163,0.322713,0.85512,0.592117,0.602889,0.170077,0.230561,0.443268,0.322197,0.357738,0.150084,0.215167,0.884376,0.829328,0.511297,0.227124,0.270982,0.789262,0.7379,0.83397,0.37445,0.344745
1769161424.09655,1769161424.096876,15.0,0.0,4307.307617,4294.743652,4265.897461,4323.974121,4277.436035,4278.077148,4286.794922,4295.128418,4279.871582,4274.102539,4568.077148,4552.436035,4421.922852,4504.743652,,,,,,,,,,,,,,,,,,,,,,,,,,,,,,,,,,,,,,,,,,,,,,,,,,,,,,,,,,,,,,,,,,,,,,
1769161424.104358,1769161424.104884,16.0,0.0,4309.358887,4296.410156,4264.871582,4325.512695,4278.461426,4275.0,4288.205078,4292.692383,4278.717773,4268.205078,4565.512695,4549.743652,4424.615234,4506.666504,,,,,,,,,,,,,,,,,,,,,,,,,,,,,,,,,,,,,,,,,,,,,,,,,,,,,,,,,,,,,,,,,,,,,,
1769161424.112167,1769161424.112692,17.0,0.0,4307.436035,4297.94873,4262.05127,4325.512695,4278.846191,4278.589844,4297.05127,4293.461426,4278.077148,4260.641113,4567.05127,4548.205078,4425.897461,4503.461426,,,,,,,,,,,,,,,,,,,,,,,,,,,,,,,,,,,,,,,,,,,,,,,,,,,,,,,,,,,,,,,,,,,,,,
1769161424.119975,1769161424.120601,18.0,0.0,4308.333496,4301.410156,4270.384766,4325.512695,4279.871582,4279.102539,4289.487305,4296.025879,4280.769043,4267.05127,4573.077148,4554.102539,4426.410156,4505.641113,,,,,,,,,,,,,,,,,,,,,,,,,,,,,,,,,,,,,,,,,,,,,,,,,,,,,,,,,,,,,,,,,,,,,,
1769161424.127784,1769161424.128409,19.0,0.0,4315.769043,4307.179688,4281.666504,4329.487305,4280.897461,4272.94873,4276.666504,4293.333496,4282.179688,4283.974121,4583.846191,4565.256348,4432.94873,4518.461426,,,,,,,,,,,,,,,,,,,,,,,,,,,,,,,,,,,,,,,,,,,,,,,,,,,,,,,,,,,,,,,,,,,,,,
1769161424.135592,1769161424.136417,20.0,0.0,4317.563965,4309.358887,4282.692383,4336.153809,4281.794922,4275.512695,4285.769043,4292.692383,4280.897461,4285.512695,4584.871582,4566.922852,4434.102539,4520.769043,,,,,,,,,,,,,,,,,,,,,,,,,,,,,,,,,,,,,,,,,,,,,,,,,,,,,,,,,,,,,,,,,,,,,,
1769161424.143401,1769161424.144226,21.0,0.0,4311.410156,4305.641113,4279.102539,4335.897461,4280.897461,4283.589844,4298.077148,4294.615234,4279.102539,4268.205078,4573.333496,4558.846191,4425.128418,4508.461426,,,,,,,,,,,,,,,,,,,,,,,,,,,,,,,,,,,,,,,,,,,,,,,,,,,,,,,,,,,,,,,,,,,,,,
1769161424.151209,1769161424.151934,22.0,0.0,4309.615234,4303.077148,4284.358887,4334.230957,4279.102539,4281.153809,4287.94873,4291.282227,4278.461426,4271.794922,4574.358887,4555.128418,4425.0,4502.692383,,,,,,,,,,,,,,,,,,,,,,,,,,,,,,,,,,,,,,,,,,,,,,,,,,,,,,,,,,,,,,,,,,,,,,
1769161424.159017,1769161424.159743,23.0,0.0,4310.769043,4304.743652,4289.487305,4338.077148,4280.256348,4274.487305,4276.282227,4289.102539,4280.641113,4289.230957,4585.384766,4558.205078,4433.461426,4509.871582,,,,,,,,,,,,,,,,,,,,,,,,,,,,,,,,,,,,,,,,,,,,,,,,,,,,,,,,,,,,,,,,,,,,,,
1769161424.166826,1769161424.167751,24.0,0.0,4306.666504,4305.0,4283.461426,4339.743652,4280.512695,4275.128418,4281.025879,4295.897461,4283.333496,4288.589844,4586.410156,4557.563965,4430.384766,4511.025879,,,,,,,,,,,,,,,,,,,,,,,,,,,,,,,,,,,,,,,,,,,,,,,,,,,,,,,,,,,,,,,,,,,,,,
1769161424.174634,1769161424.17556,25.0,0.0,4305.769043,4302.436035,4279.358887,4337.05127,4278.974121,4277.692383,4283.589844,4298.589844,4282.563965,4276.282227,4583.205078,4555.897461,4425.512695,4507.05127,,,,,,,,,,,,,,,,,,,,,,,,,,,,,,,,,,,,,,,,,,,,,,,,,,,,,,,,,,,,,,,,,,,,,,
1769161424.182443,1769161424.183468,26.0,0.0,4308.461426,4303.077148,4281.666504,4335.641113,4279.358887,4277.05127,4281.025879,4287.436035,4277.692383,4268.589844,4580.641113,4557.05127,4426.794922,4507.820313,,,,,,,,,,,,,,,,,,,,,,,,,,,,,,,,,,,,,,,,,,,,,,,,,,,,,,,,,,,,,,,,,,,,,,
1769161424.190251,1769161424.191276,27.0,0.0,4303.717773,4302.563965,4282.179688,4334.102539,4278.077148,4277.179688,4284.230957,4281.153809,4275.512695,4272.692383,4572.179688,4551.666504,4422.307617,4501.794922,,,,,,,,,,,,,,,,,,,,,,,,,,,,,,,,,,,,,,,,,,,,,,,,,,,,,,,,,,,,,,,,,,,,,,
1769161424.19806,1769161424.199285,28.0,0.0,4295.384766,4296.025879,4279.230957,4329.487305,4275.897461,4280.128418,4292.179688,4290.897461,4278.077148,4279.871582,4568.077148,4544.358887,4414.102539,4490.641113,,,,,,,,,,,,,,,,,,,,,,,,,,,,,,,,,,,,,,,,,,,,,,,,,,,,,,,,,,,,,,,,,,,,,,
1769161424.205868,1769161424.207093,29.0,0.0,4292.94873,4292.692383,4277.05127,4326.025879,4281.282227,4281.025879,4295.256348,4296.922852,4278.077148,4278.974121,4571.153809,4541.666504,4413.077148,4487.307617,,,,,,,,,,,,,,,,,,,,,,,,,,,,,,,,,,,,,,,,,,,,,,,,,,,,,,,,,,,,,,,,,,,,,,
1769161424.213677,1769161424.214802,30.0,0.0,4296.282227,4296.153809,4277.307617,4327.820313,4287.563965,4280.256348,4291.666504,4294.102539,4281.025879,4275.512695,4567.05127,4540.256348,4415.897461,4492.436035,0.422421,0.3389,0.48222,0.269275,0.268391,0.596459,0.424621,0.247712,0.215033,0.123502,0.450865,0.099834,0.273977,0.194527,0.062628,0.341659,0.178182,0.149407,0.132292,0.081633,0.309844,0.219983,0.069072,0.04426,0.053034,0.184559,0.138319,0.075601,0.064156,0.061683,0.370994,0.147514,0.138657,0.105013,0.137004,0.651236,0.355768,0.210489,0.155766,0.164871,0.41569,0.234933,0.214054,0.127148,0.098729,0.304455,0.385379,0.343468,0.28627,0.312075,1.091823,0.643199,0.600922,0.169676,0.207838,0.637132,0.350864,0.350685,0.16213,0.19248,1.004397,0.878731,0.495902,0.236266,0.247283,0.880412,0.695376,0.835763,0.376711,0.298503
1769161424.221485,1769161424.22261,31.0,0.0,4295.512695,4296.282227,4277.94873,4328.589844,4287.307617,4280.384766,4290.384766,4300.256348,4292.179688,4278.846191,4570.0,4541.922852,4417.179688,4494.230957,,,,,,,,,,,,,,,,,,,,,,,,,,,,,,,,,,,,,,,,,,,,,,,,,,,,,,,,,,,,,,,,,,,,,,
1769161424.229293,1769161424.230618,32.0,0.0,4293.846191,4294.615234,4277.05127,4327.563965,4289.615234,4280.769043,4290.897461,4306.666504,4296.538574,4278.846191,4577.307617,4542.05127,4419.230957,4489.743652,,,,,,,,,,,,,,,,,,,,,,,,,,,,,,,,,,,,,,,,,,,,,,,,,,,,,,,,,,,,,,,,,,,,,,
1769161424.237102,1769161424.238427,33.0,0.0,4302.179688,4300.256348,4278.077148,4331.922852,4294.871582,4280.128418,4288.461426,4297.820313,4290.641113,4278.974121,4576.410156,4538.333496,4422.820313,4492.94873,,,,,,,,,,,,,,,,,,,,,,,,,,,,,,,,,,,,,,,,,,,,,,,,,,,,,,,,,,,,,,,,,,,,,,
1769161424.24491,1769161424.246135,34.0,0.0,4310.128418,4306.538574,4279.358887,4336.666504,4294.871582,4280.384766,4288.846191,4291.794922,4293.333496,4282.05127,4579.102539,4543.974121,4427.820313,4505.0,,,,,,,,,,,,,,,,,,,,,,,,,,,,,,,,,,,,,,,,,,,,,,,,,,,,,,,,,,,,,,,,,,,,,,
1769161424.252719,1769161424.253944,35.0,0.0,4309.358887,4306.538574,4278.589844,4336.794922,4292.692383,4281.153809,4288.589844,4296.282227,4296.666504,4280.0,4583.974121,4552.692383,4431.025879,4509.615234,,,,,,,,,,,,,,,,,,,,,,,,,,,,,,,,,,,,,,,,,,,,,,,,,,,,,,,,,,,,,,,,,,,,,,
1769161424.260527,1769161424.261552,36.0,0.0,4303.333496,4301.794922,4278.077148,4335.769043,4292.307617,4279.102539,4280.0,4295.769043,4286.282227,4281.666504,4577.692383,4546.666504,4422.692383,4499.358887,,,,,,,,,,,,,,,,,,,,,,,,,,,,,,,,,,,,,,,,,,,,,,,,,,,,,,,,,,,,,,,,,,,,,,
1769161424.268336,1769161424.269361,37.0,0.0,4296.282227,4297.179688,4273.333496,4331.666504,4290.128418,4278.717773,4282.94873,4292.692383,4278.846191,4280.897461,4566.794922,4535.897461,4411.538574,4489.358887,,,,,,,,,,,,,,,,,,,,,,,,,,,,,,,,,,,,,,,,,,,,,,,,,,,,,,,,,,,,,,,,,,,,,,
1769161424.276144,1769161424.277069,38.0,0.0,4291.410156,4291.538574,4266.025879,4329.102539,4285.769043,4280.128418,4294.102539,4294.102539,4282.179688,4278.333496,4564.230957,4531.794922,4408.846191,4488.077148,,,,,,,,,,,,,,,,,,,,,,,,,,,,,,,,,,,,,,,,,,,,,,,,,,,,,,,,,,,,,,,,,,,,,,
1769161424.283953,1769161424.284878,39.0,0.0,4288.589844,4284.230957,4265.641113,4331.025879,4281.282227,4277.94873,4288.077148,4298.205078,4286.922852,4276.794922,4564.358887,4533.461426,4409.102539,4487.563965,,,,,,,,,,,,,,,,,,,,,,,,,,,,,,,,,,,,,,,,,,,,,,,,,,,,,,,,,,,,,,,,,,,,,,
1769161424.291761,1769161424.292486,40.0,0.0,4283.205078,4280.0,4266.282227,4329.871582,4277.563965,4276.794922,4278.717773,4295.0,4283.589844,4270.384766,4565.384766,4533.717773,4408.333496,4488.333496,,,,,,,,,,,,,,,,,,,,,,,,,,,,,,,,,,,,,,,,,,,,,,,,,,,,,,,,,,,,,,,,,,,,,,
1769161424.299569,1769161424.300295,41.0,0.0,4279.487305,4282.179688,4265.128418,4325.256348,4279.102539,4278.333496,4281.153809,4285.512695,4278.333496,4270.512695,4568.205078,4529.230957,4413.846191,4490.384766,,,,,,,,,,,,,,,,,,,,,,,,,,,,,,,,,,,,,,,,,,,,,,,,,,,,,,,,,,,,,,,,,,,,,,
1769161424.307378,1769161424.308203,42.0,0.0,4285.0,4288.461426,4270.641113,4328.461426,4285.256348,4278.717773,4282.820313,4287.820313,4283.717773,4278.846191,4569.230957,4528.589844,4421.153809,4489.871582,,,,,,,,,,,,,,,,,,,,,,,,,,,,,,,,,,,,,,,,,,,,,,,,,,,,,,,,,,,,,,,,,,,,,,
1769161424.315186,1769161424.316012,43.0,0.0,4293.205078,4293.205078,4278.077148,4336.282227,4288.717773,4278.333496,4277.179688,4297.05127,4293.846191,4283.205078,4572.563965,4538.077148,4420.256348,4492.563965,,,,,,,,,,,,,,,,,,,,,,,,,,,,,,,,,,,,,,,,,,,,,,,,,,,,,,,,,,,,,,,,,,,,,,
1769161424.322995,1769161424.32402,44.0,0.0,4298.333496,4295.256348,4281.538574,4340.641113,4288.589844,4279.615234,4279.230957,4296.922852,4295.769043,4280.641113,4574.358887,4543.077148,4421.666504,4499.615234,,,,,,,,,,,,,,,,,,,,,,,,,,,,,,,,,,,,,,,,,,,,,,,,,,,,,,,,,,,,,,,,,,,,,,
1769161424.330803,1769161424.331828,45.0,0.0,4294.102539,4295.384766,4281.538574,4342.563965,4288.205078,4285.384766,4287.820313,4294.871582,4292.179688,4273.846191,4571.666504,4532.692383,4420.256348,4497.94873,,,,,,,,,,,,,,,,,,,,,,,,,,,,,,,,,,,,,,,,,,,,,,,,,,,,,,,,,,,,,,,,,,,,,,
1769161424.338612,1769161424.339737,46.0,0.0,4286.666504,4293.974121,4277.179688,4338.077148,4284.230957,4288.461426,4286.538574,4299.743652,4291.794922,4271.282227,4568.717773,4523.717773,4409.871582,4489.743652,0.5108,0.319013,0.516958,0.278074,0.270329,0.687032,0.438699,0.286949,0.244893,0.131627,0.531331,0.10878,0.293533,0.23411,0.068302,0.436726,0.20831,0.186512,0.144024,0.08859,0.428841,0.26709,0.083494,0.041348,0.061902,0.163661,0.119095,0.067195,0.06682,0.060524,0.380079,0.165295,0.126892,0.138699,0.155555,0.577385,0.40453,0.15095,0.149127,0.152367,0.395147,0.239402,0.196653,0.131868,0.098855,0.323507,0.405484,0.332693,0.298777,0.305886,1.343949,0.72901,0.560663,0.17531,0.188438,0.889246,0.404586,0.362062,0.186733,0.174241,1.155552,0.947589,0.481409,0.255085,0.230889,1.032323,0.6663,0.824506,0.381812,0.262858
1769161424.34642,1769161424.347545,47.0,0.0,4288.717773,4293.205078,4273.333496,4330.256348,4277.692383,4283.589844,4279.615234,4297.563965,4289.871582,4276.794922,4567.179688,4521.153809,4405.512695,4490.256348,,,,,,,,,,,,,,,,,,,,,,,,,,,,,,,,,,,,,,,,,,,,,,,,,,,,,,,,,,,,,,,,,,,,,,
1769161424.354229,1769161424.355553,48.0,0.0,4288.717773,4293.205078,4273.205078,4324.487305,4276.025879,4280.512695,4279.358887,4291.922852,4285.512695,4280.769043,4567.820313,4514.743652,4411.666504,4492.05127,,,,,,,,,,,,,,,,,,,,,,,,,,,,,,,,,,,,,,,,,,,,,,,,,,,,,,,,,,,,,,,,,,,,,,
1769161424.362037,1769161424.363362,49.0,0.0,4280.384766,4293.974121,4273.974121,4326.153809,4278.077148,4284.102539,4282.179688,4299.230957,4290.0,4276.666504,4569.871582,4508.589844,4418.589844,4489.358887,,,,,,,,,,,,,,,,,,,,,,,,,,,,,,,,,,,,,,,,,,,,,,,,,,,,,,,,,,,,,,,,,,,,,,
1769161424.369846,1769161424.37127,50.0,0.0,4278.461426,4294.358887,4276.025879,4332.692383,4277.179688,4283.333496,4278.846191,4303.333496,4294.743652,4275.384766,4571.282227,4513.589844,4418.461426,4495.769043,,,,,,,,,,,,,,,,,,,,,,,,,,,,,,,,,,,,,,,,,,,,,,,,,,,,,,,,,,,,,,,,,,,,,,
1769161424.377654,1769161424.379079,51.0,0.0,4285.769043,4295.641113,4279.487305,4335.128418,4276.025879,4279.487305,4277.179688,4295.384766,4287.94873,4279.871582,4573.589844,4519.743652,4418.717773,4506.794922,,,,,,,,,,,,,,,,,,,,,,,,,,,,,,,,,,,,,,,,,,,,,,,,,,,,,,,,,,,,,,,,,,,,,,
1769161424.385463,1769161424.386687,52.0,0.0,4290.384766,4297.179688,4280.128418,4332.692383,4279.230957,4280.0,4279.102539,4290.256348,4284.102539,4291.282227,4580.897461,4514.487305,4425.769043,4508.205078,,,,,,,,,,,,,,,,,,,,,,,,,,,,,,,,,,,,,,,,,,,,,,,,,,,,,,,,,,,,,,,,,,,,,,
1769161424.393271,1769161424.394496,53.0,0.0,4287.692383,4296.282227,4278.974121,4331.153809,4282.307617,4281.153809,4278.461426,4294.358887,4293.077148,4296.410156,4585.897461,4508.974121,4431.794922,4506.282227,,,,,,,,,,,,,,,,,,,,,,,,,,,,,,,,,,,,,,,,,,,,,,,,,,,,,,,,,,,,,,,,,,,,,,
1769161424.40108,1769161424.402204,54.0,0.0,4280.897461,4295.0,4278.077148,4332.05127,4279.743652,4280.897461,4278.461426,4295.641113,4295.512695,4286.153809,4580.384766,4502.94873,4427.307617,4506.666504,,,,,,,,,,,,,,,,,,,,,,,,,,,,,,,,,,,,,,,,,,,,,,,,,,,,,,,,,,,,,,,,,,,,,,
1769161424.408888,1769161424.410013,55.0,0.0,4279.871582,4294.743652,4276.922852,4332.436035,4277.94873,4282.05127,4278.589844,4295.256348,4292.563965,4282.563965,4574.871582,4500.256348,4425.769043,4504.615234,,,,,,,,,,,,,,,,,,,,,,,,,,,,,,,,,,,,,,,,,,,,,,,,,,,,,,,,,,,,,,,,,,,,,,
1769161424.416696,1769161424.417621,56.0,0.0,4287.94873,4295.384766,4277.692383,4332.179688,4279.871582,4285.512695,4278.589844,4298.077148,4294.871582,4281.282227,4574.358887,4503.333496,4429.615234,4502.94873,,,,,,,,,,,,,,,,,,,,,,,,,,,,,,,,,,,,,,,,,,,,,,,,,,,,,,,,,,,,,,,,,,,,,,
1769161424.424505,1769161424.42543,57.0,0.0,4288.589844,4296.410156,4280.769043,4330.897461,4279.871582,4284.102539,4278.589844,4295.128418,4291.282227,4274.102539,4571.922852,4500.0,4421.538574,4506.153809,,,,,,,,,,,,,,,,,,,,,,,,,,,,,,,,,,,,,,,,,,,,,,,,,,,,,,,,,,,,,,,,,,,,,,
1769161424.432313,1769161424.433338,58.0,0.0,4280.384766,4297.563965,4283.077148,4333.205078,4282.179688,4280.128418,4278.589844,4291.922852,4287.820313,4276.922852,4571.410156,4492.436035,4419.743652,4509.358887,,,,,,,,,,,,,,,,,,,,,,,,,,,,,,,,,,,,,,,,,,,,,,,,,,,,,,,,,,,,,,,,,,,,,,
1769161424.440122,1769161424.441147,59.0,0.0,4276.410156,4298.077148,4282.307617,4336.538574,4289.615234,4286.794922,4278.974121,4294.615234,4292.692383,4283.461426,4573.461426,4490.384766,4427.436035,4508.589844,,,,,,,,,,,,,,,,,,,,,,,,,,,,,,,,,,,,,,,,,,,,,,,,,,,,,,,,,,,,,,,,,,,,,,
1769161424.44793,1769161424.448755,60.0,0.0,4279.358887,4296.538574,4278.846191,4332.179688,4295.641113,4297.692383,4278.205078,4295.384766,4293.717773,4281.794922,4576.794922,4489.487305,4424.230957,4506.666504,,,,,,,,,,,,,,,,,,,,,,,,,,,,,,,,,,,,,,,,,,,,,,,,,,,,,,,,,,,,,,,,,,,,,,
1769161424.455739,1769161424.456564,61.0,0.0,4281.025879,4295.128418,4279.487305,4327.436035,4292.05127,4293.461426,4278.205078,4292.820313,4292.307617,4279.358887,4580.641113,4489.102539,4421.282227,4508.461426,,,,,,,,,,,,,,,,,,,,,,,,,,,,,,,,,,,,,,,,,,,,,,,,,,,,,,,,,,,,,,,,,,,,,,
1769161424.463547,1769161424.464272,62.0,0.0,4278.461426,4294.743652,4282.563965,4327.563965,4279.743652,4282.05127,4279.743652,4295.0,4294.871582,4283.333496,4579.871582,4490.256348,4430.0,4511.922852,0.670036,0.284573,0.522457,0.283791,0.266792,0.786304,0.448824,0.316581,0.270067,0.136497,0.706467,0.136133,0.311897,0.271939,0.075408,0.523282,0.227753,0.225107,0.159461,0.091961,0.549879,0.314818,0.0997,0.039372,0.066973,0.147195,0.107382,0.0613,0.07339,0.061788,0.350607,0.199029,0.127474,0.176892,0.178188,0.464814,0.42366,0.109877,0.135131,0.1425,0.34648,0.232913,0.17989,0.131193,0.101694,0.333889,0.428519,0.334398,0.307407,0.303105,1.576731,0.823669,0.506141,0.19227,0.174919,1.17998,0.462546,0.403578,0.226712,0.161021,1.378188,1.014537,0.49616,0.286263,0.22133,1.248516,0.666439,0.832735,0.399644,0.24789
1769161424.471356,1769161424.472081,63.0,0.0,4276.025879,4294.743652,4281.153809,4327.94873,4276.282227,4281.922852,4277.179688,4295.512695,4290.641113,4280.256348,4571.538574,4480.897461,4424.102539,4507.307617,,,,,,,,,,,,,,,,,,,,,,,,,,,,,,,,,,,,,,,,,,,,,,,,,,,,,,,,,,,,,,,,,,,,,,
1769161424.479164,1769161424.479689,64.0,0.0,4277.436035,4295.769043,4281.538574,4328.205078,4283.717773,4287.563965,4274.615234,4289.102539,4281.794922,4268.077148,4567.436035,4471.025879,4407.692383,4498.846191,,,,,,,,,,,,,,,,,,,,,,,,,,,,,,,,,,,,,,,,,,,,,,,,,,,,,,,,,,,,,,,,,,,,,,
1769161424.486972,1769161424.487498,65.0,0.0,4281.410156,4296.794922,4289.871582,4330.256348,4285.641113,4288.717773,4278.205078,4289.615234,4285.128418,4267.820313,4572.05127,4477.692383,4416.922852,4501.538574,,,,,,,,,,,,,,,,,,,,,,,,,,,,,,,,,,,,,,,,,,,,,,,,,,,,,,,,,,,,,,,,,,,,,,
1769161424.494781,1769161424.495206,66.0,0.0,4279.358887,4296.538574,4292.179688,4330.641113,4279.615234,4291.282227,4282.563965,4295.256348,4292.692383,4280.641113,4573.589844,4482.94873,4431.922852,4510.128418,,,,,,,,,,,,,,,,,,,,,,,,,,,,,,,,,,,,,,,,,,,,,,,,,,,,,,,,,,,,,,,,,,,,,,
1769161424.502589,1769161424.503015,67.0,0.0,4274.230957,4295.128418,4285.641113,4328.461426,4279.615234,4293.589844,4281.666504,4293.846191,4288.461426,4284.102539,4570.0,4476.025879,4423.846191,4507.563965,,,,,,,,,,,,,,,,,,,,,,,,,,,,,,,,,,,,,,,,,,,,,,,,,,,,,,,,,,,,,,,,,,,,,,
1769161424.510398,1769161424.511023,68.0,0.0,4276.282227,4295.128418,4288.846191,4328.846191,4286.538574,4288.205078,4279.102539,4292.436035,4287.563965,4276.153809,4574.102539,4474.743652,4415.0,4501.538574,,,,,,,,,,,,,,,,,,,,,,,,,,,,,,,,,,,,,,,,,,,,,,,,,,,,,,,,,,,,,,,,,,,,,,
1769161424.518206,1769161424.518832,69.0,0.0,4280.641113,4295.897461,4296.153809,4331.666504,4290.512695,4285.769043,4279.743652,4295.769043,4293.846191,4278.717773,4582.692383,4480.769043,4422.179688,4504.358887,,,,,,,,,,,,,,,,,,,,,,,,,,,,,,,,,,,,,,,,,,,,,,,,,,,,,,,,,,,,,,,,,,,,,,
1769161424.526015,1769161424.52674,70.0,0.0,4281.282227,4296.794922,4295.128418,4336.025879,4288.461426,4290.641113,4281.025879,4295.128418,4289.102539,4283.205078,4580.641113,4478.077148,4428.077148,4508.589844,,,,,,,,,,,,,,,,,,,,,,,,,,,,,,,,,,,,,,,,,,,,,,,,,,,,,,,,,,,,,,,,,,,,,,
1769161424.533823,1769161424.534548,71.0,0.0,4276.410156,4299.487305,4297.563965,4338.077148,4285.0,4286.794922,4280.512695,4293.589844,4283.974121,4275.256348,4577.05127,4473.846191,4426.922852,4506.794922,,,,,,,,,,,,,,,,,,,,,,,,,,,,,,,,,,,,,,,,,,,,,,,,,,,,,,,,,,,,,,,,,,,,,,
1769161424.541632,1769161424.542557,72.0,0.0,4269.358887,4300.512695,4303.205078,4337.307617,4286.538574,4278.205078,4277.820313,4295.512695,4292.179688,4277.179688,4585.897461,4478.717773,4429.358887,4505.384766,,,,,,,,,,,,,,,,,,,,,,,,,,,,,,,,,,,,,,,,,,,,,,,,,,,,,,,,,,,,,,,,,,,,,,
1769161424.54944,1769161424.550365,73.0,0.0,4265.769043,4297.307617,4300.512695,4338.077148,4286.538574,4282.436035,4279.102539,4297.94873,4299.487305,4287.820313,4586.794922,4481.410156,4430.641113,4508.974121,,,,,,,,,,,,,,,,,,,,,,,,,,,,,,,,,,,,,,,,,,,,,,,,,,,,,,,,,,,,,,,,,,,,,,
1769161424.557248,1769161424.558074,74.0,0.0,4263.717773,4293.077148,4294.487305,4334.743652,4284.871582,4289.358887,4282.692383,4298.205078,4292.692383,4283.974121,4572.436035,4470.897461,4425.512695,4505.384766,,,,,,,,,,,,,,,,,,,,,,,,,,,,,,,,,,,,,,,,,,,,,,,,,,,,,,,,,,,,,,,,,,,,,,
1769161424.565057,1769161424.565882,75.0,0.0,4262.692383,4294.102539,4295.384766,4329.615234,4286.538574,4283.333496,4277.307617,4290.897461,4283.077148,4276.794922,4568.077148,4460.512695,4420.128418,4494.358887,,,,,,,,,,,,,,,,,,,,,,,,,,,,,,,,,,,,,,,,,,,,,,,,,,,,,,,,,,,,,,,,,,,,,,
1769161424.572865,1769161424.57389,76.0,0.0,4259.871582,4294.230957,4295.512695,4327.307617,4285.256348,4277.436035,4274.487305,4286.025879,4279.615234,4278.589844,4572.563965,4460.128418,4416.153809,4491.538574,,,,,,,,,,,,,,,,,,,,,,,,,,,,,,,,,,,,,,,,,,,,,,,,,,,,,,,,,,,,,,,,,,,,,,
1769161424.580674,1769161424.581699,77.0,0.0,4252.563965,4284.743652,4292.307617,4324.358887,4278.205078,4280.256348,4280.384766,4293.077148,4278.974121,4270.897461,4568.974121,4460.897461,4412.94873,4491.666504,,,,,,,,,,,,,,,,,,,,,,,,,,,,,,,,,,,,,,,,,,,,,,,,,,,,,,,,,,,,,,,,,,,,,,
1769161424.588482,1769161424.589407,78.0,0.0,4250.641113,4281.922852,4292.179688,4327.307617,4279.615234,4281.666504,4277.820313,4297.563965,4282.94873,4261.282227,4565.641113,4458.846191,4417.436035,4489.743652,0.871297,0.273327,0.516206,0.28898,0.258177,0.878046,0.465251,0.333392,0.284029,0.135749,0.887523,0.185713,0.336189,0.30028,0.08301,0.59189,0.238196,0.261085,0.174388,0.089995,0.639262,0.355453,0.115051,0.038515,0.06684,0.141459,0.106137,0.058125,0.083547,0.065732,0.288801,0.249256,0.138701,0.212438,0.203554,0.336966,0.413003,0.09163,0.118704,0.138766,0.282935,0.233702,0.169064,0.12618,0.105158,0.334495,0.440347,0.347486,0.314305,0.301339,1.746084,0.90177,0.471978,0.220572,0.166748,1.477806,0.509648,0.478368,0.278777,0.151832,1.663907,1.059093,0.560536,0.324318,0.215291,1.491699,0.700535,0.878113,0.431826,0.253123
1769161424.596291,1769161424.597216,79.0,0.0,4261.025879,4289.615234,4296.666504,4336.025879,4287.436035,4277.692383,4270.512695,4292.820313,4286.153809,4272.436035,4571.410156,4460.128418,4428.589844,4500.0,,,,,,,,,,,,,,,,,,,,,,,,,,,,,,,,,,,,,,,,,,,,,,,,,,,,,,,,,,,,,,,,,,,,,,
1769161424.604099,1769161424.604824,80.0,0.0,4263.461426,4289.871582,4297.563965,4335.128418,4283.717773,4278.205078,4275.512695,4293.846191,4287.820313,4283.461426,4573.333496,4460.897461,4431.025879,4508.846191,,,,,,,,,,,,,,,,,,,,,,,,,,,,,,,,,,,,,,,,,,,,,,,,,,,,,,,,,,,,,,,,,,,,,,
1769161424.611908,1769161424.612633,81.0,0.0,4251.666504,4285.769043,4294.743652,4329.102539,4276.153809,4283.205078,4281.794922,4298.205078,4290.128418,4280.769043,4567.307617,4457.179688,4421.282227,4495.0,,,,,,,,,,,,,,,,,,,,,,,,,,,,,,,,,,,,,,,,,,,,,,,,,,,,,,,,,,,,,,,,,,,,,,
1769161424.619716,1769161424.620341,82.0,0.0,4247.179688,4287.94873,4300.0,4332.436035,4280.256348,4283.077148,4280.0,4295.641113,4288.333496,4276.922852,4566.538574,4456.922852,4420.512695,4489.743652,,,,,,,,,,,,,,,,,,,,,,,,,,,,,,,,,,,,,,,,,,,,,,,,,,,,,,,,,,,,,,,,,,,,,,
1769161424.627525,1769161424.62815,83.0,0.0,4251.025879,4286.410156,4304.102539,4333.589844,4285.641113,4280.512695,4277.05127,4292.179688,4284.102539,4276.025879,4570.897461,4458.205078,4428.846191,4502.563965,,,,,,,,,,,,,,,,,,,,,,,,,,,,,,,,,,,,,,,,,,,,,,,,,,,,,,,,,,,,,,,,,,,,,,
1769161424.635333,1769161424.636158,84.0,0.0,4246.922852,4280.512695,4298.333496,4326.153809,4282.436035,4284.615234,4280.384766,4292.307617,4285.384766,4278.589844,4570.897461,4452.179688,4423.717773,4500.128418,,,,,,,,,,,,,,,,,,,,,,,,,,,,,,,,,,,,,,,,,,,,,,,,,,,,,,,,,,,,,,,,,,,,,,
1769161424.643141,1769161424.643966,85.0,0.0,4236.025879,4277.563965,4293.077148,4323.205078,4280.641113,4293.077148,4287.307617,4294.871582,4288.205078,4281.025879,4564.871582,4443.846191,4409.487305,4486.666504,,,,,,,,,,,,,,,,,,,,,,,,,,,,,,,,,,,,,,,,,,,,,,,,,,,,,,,,,,,,,,,,,,,,,,
1769161424.65095,1769161424.651675,86.0,0.0,4233.717773,4277.05127,4295.897461,4326.025879,4284.102539,4293.333496,4288.077148,4297.563965,4286.538574,4279.230957,4561.410156,4442.692383,4409.487305,4489.743652,,,,,,,,,,,,,,,,,,,,,,,,,,,,,,,,,,,,,,,,,,,,,,,,,,,,,,,,,,,,,,,,,,,,,,
1769161424.658758,1769161424.659483,87.0,0.0,4238.333496,4282.692383,4302.179688,4328.205078,4283.333496,4285.512695,4285.128418,4295.128418,4287.820313,4278.077148,4563.846191,4444.743652,4416.282227,4494.358887,,,,,,,,,,,,,,,,,,,,,,,,,,,,,,,,,,,,,,,,,,,,,,,,,,,,,,,,,,,,,,,,,,,,,,
1769161424.666567,1769161424.667092,88.0,0.0,4235.0,4287.692383,4307.179688,4324.871582,4281.282227,4279.358887,4285.128418,4296.410156,4291.538574,4279.102539,4566.538574,4446.282227,4411.794922,4490.384766,,,,,,,,,,,,,,,,,,,,,,,,,,,,,,,,,,,,,,,,,,,,,,,,,,,,,,,,,,,,,,,,,,,,,,
1769161424.674375,1769161424.674901,89.0,0.0,4235.512695,4288.205078,4310.128418,4323.974121,4286.282227,4282.05127,4284.358887,4303.461426,4293.717773,4277.820313,4570.897461,4454.230957,4416.410156,4497.179688,,,,,,,,,,,,,,,,,,,,,,,,,,,,,,,,,,,,,,,,,,,,,,,,,,,,,,,,,,,,,,,,,,,,,,
1769161424.682184,1769161424.682609,90.0,0.0,4248.717773,4296.025879,4311.282227,4336.410156,4295.0,4286.410156,4280.769043,4300.512695,4293.846191,4277.436035,4575.0,4456.922852,4430.769043,4508.974121,,,,,,,,,,,,,,,,,,,,,,,,,,,,,,,,,,,,,,,,,,,,,,,,,,,,,,,,,,,,,,,,,,,,,,
1769161424.689992,1769161424.690418,91.0,0.0,4252.307617,4297.820313,4314.743652,4340.256348,4295.0,4281.794922,4279.102539,4293.461426,4291.922852,4281.282227,4573.589844,4454.615234,4428.717773,4508.589844,,,,,,,,,,,,,,,,,,,,,,,,,,,,,,,,,,,,,,,,,,,,,,,,,,,,,,,,,,,,,,,,,,,,,,
1769161424.697801,1769161424.698426,92.0,0.0,4238.846191,4286.025879,4314.102539,4327.820313,4288.205078,4278.974121,4280.641113,4296.922852,4288.461426,4281.666504,4569.615234,4453.589844,4416.666504,4502.436035,,,,,,,,,,,,,,,,,,,,,,,,,,,,,,,,,,,,,,,,,,,,,,,,,,,,,,,,,,,,,,,,,,,,,,
1769161424.705609,1769161424.706234,93.0,0.0,4237.179688,4284.102539,4311.153809,4327.05127,4287.820313,4282.94873,4281.410156,4297.179688,4281.410156,4278.333496,4568.461426,4451.922852,4418.461426,4503.461426,,,,,,,,,,,,,,,,,,,,,,,,,,,,,,,,,,,,,,,,,,,,,,,,,,,,,,,,,,,,,,,,,,,,,,
1769161424.713417,1769161424.714143,94.0,0.0,4249.615234,4295.128418,4316.538574,4338.333496,4290.769043,4280.769043,4279.615234,4292.179688,4280.384766,4279.871582,4571.666504,4453.461426,4429.487305,4505.256348,1.050399,0.315269,0.518358,0.292562,0.245602,0.938677,0.4935,0.341876,0.282726,0.12896,1.087566,0.257928,0.367048,0.311302,0.089473,0.630638,0.242699,0.2894,0.18444,0.082975,0.678812,0.388529,0.128662,0.039912,0.0625,0.147597,0.114257,0.057416,0.094703,0.071478,0.219071,0.308083,0.154399,0.237061,0.22777,0.222256,0.382734,0.090997,0.106088,0.141123,0.22502,0.257774,0.16998,0.119766,0.108228,0.327312,0.43258,0.365074,0.322282,0.299462,1.805012,0.938827,0.483462,0.252813,0.161744,1.717667,0.537914,0.57288,0.332465,0.145823,1.936429,1.065611,0.6742,0.357132,0.210273,1.680046,0.752028,0.948452,0.468309,0.268871
1769161424.721226,1769161424.721951,95.0,0.0,4248.077148,4293.205078,4321.666504,4335.128418,4285.897461,4282.307617,4284.358887,4298.846191,4293.846191,4283.205078,4573.589844,4454.615234,4427.692383,4498.205078,,,,,,,,,,,,,,,,,,,,,,,,,,,,,,,,,,,,,,,,,,,,,,,,,,,,,,,,,,,,,,,,,,,,,,
1769161424.729034,1769161424.729959,96.0,0.0,4231.282227,4279.487305,4312.307617,4322.94873,4276.538574,4290.897461,4296.153809,4303.717773,4296.282227,4281.922852,4568.077148,4444.358887,4412.563965,4487.307617,,,,,,,,,,,,,,,,,,,,,,,,,,,,,,,,,,,,,,,,,,,,,,,,,,,,,,,,,,,,,,,,,,,,,,
1769161424.736843,1769161424.737768,97.0,0.0,4225.641113,4281.666504,4304.358887,4324.358887,4280.641113,4286.025879,4290.256348,4295.0,4283.846191,4277.05127,4563.974121,4436.410156,4410.384766,4488.717773,,,,,,,,,,,,,,,,,,,,,,,,,,,,,,,,,,,,,,,,,,,,,,,,,,,,,,,,,,,,,,,,,,,,,,
1769161424.744651,1769161424.745676,98.0,0.0,4233.974121,4297.307617,4314.102539,4333.461426,4290.128418,4272.692383,4274.743652,4292.436035,4288.461426,4277.307617,4570.256348,4445.512695,4426.025879,4503.077148,,,,,,,,,,,,,,,,,,,,,,,,,,,,,,,,,,,,,,,,,,,,,,,,,,,,,,,,,,,,,,,,,,,,,,
1769161424.75246,1769161424.753485,99.0,0.0,4236.794922,4301.282227,4322.436035,4337.820313,4286.153809,4273.717773,4275.512695,4296.794922,4296.538574,4283.846191,4575.256348,4450.0,4428.333496,4507.820313,,,,,,,,,,,,,,,,,,,,,,,,,,,,,,,,,,,,,,,,,,,,,,,,,,,,,,,,,,,,,,,,,,,,,,
1769161424.760268,1769161424.761493,100.0,0.0,4232.692383,4295.769043,4321.794922,4338.589844,4279.743652,4281.153809,4281.153809,4297.179688,4287.05127,4287.692383,4569.487305,4443.846191,4415.897461,4501.538574,,,,,,,,,,,,,,,,,,,,,,,,,,,,,,,,,,,,,,,,,,,,,,,,,,,,,,,,,,,,,,,,,,,,,,
1769161424.768077,1769161424.769301,101.0,0.0,4229.871582,4295.769043,4321.025879,4338.461426,4282.307617,4280.641113,4279.102539,4295.641113,4280.769043,4277.307617,4565.0,4441.666504,4410.641113,4499.487305,,,,,,,,,,,,,,,,,,,,,,,,,,,,,,,,,,,,,,,,,,,,,,,,,,,,,,,,,,,,,,,,,,,,,,
1769161424.775885,1769161424.77701,102.0,0.0,4231.153809,4297.94873,4317.436035,4340.641113,4284.358887,4278.077148,4278.077148,4296.794922,4289.230957,4268.846191,4568.461426,4448.205078,4415.256348,4504.102539,,,,,,,,,,,,,,,,,,,,,,,,,,,,,,,,,,,,,,,,,,,,,,,,,,,,,,,,,,,,,,,,,,,,,,
1769161424.783694,1769161424.784818,103.0,0.0,4234.615234,4296.153809,4312.05127,4341.666504,4281.025879,4277.820313,4281.153809,4297.05127,4290.769043,4276.282227,4571.794922,4455.897461,4423.974121,4508.589844,,,,,,,,,,,,,,,,,,,,,,,,,,,,,,,,,,,,,,,,,,,,,,,,,,,,,,,,,,,,,,,,,,,,,,
1769161424.791502,1769161424.792427,104.0,0.0,4231.794922,4293.461426,4310.0,4336.153809,4278.589844,4279.487305,4281.410156,4296.410156,4283.333496,4281.410156,4570.897461,4452.179688,4425.512695,4509.871582,,,,,,,,,,,,,,,,,,,,,,,,,,,,,,,,,,,,,,,,,,,,,,,,,,,,,,,,,,,,,,,,,,,,,,
1769161424.799311,1769161424.800235,105.0,0.0,4223.461426,4290.128418,4312.179688,4333.333496,4280.512695,4279.487305,4281.282227,4298.717773,4285.384766,4280.0,4571.666504,4444.358887,4417.820313,4503.077148,,,,,,,,,,,,,,,,,,,,,,,,,,,,,,,,,,,,,,,,,,,,,,,,,,,,,,,,,,,,,,,,,,,,,,
1769161424.807119,1769161424.807944,106.0,0.0,4219.102539,4286.153809,4311.666504,4335.897461,4280.769043,4279.871582,4289.743652,4300.897461,4290.384766,4278.589844,4571.025879,4443.717773,4410.384766,4492.179688,,,,,,,,,,,,,,,,,,,,,,,,,,,,,,,,,,,,,,,,,,,,,,,,,,,,,,,,,,,,,,,,,,,,,,
1769161424.814927,1769161424.815752,107.0,0.0,4217.436035,4284.615234,4307.179688,4335.256348,4277.563965,4283.589844,4296.153809,4297.820313,4286.538574,4272.179688,4566.025879,4450.512695,4411.025879,4494.358887,,,,,,,,,,,,,,,,,,,,,,,,,,,,,,,,,,,,,,,,,,,,,,,,,,,,,,,,,,,,,,,,,,,,,,
1769161424.822736,1769161424.823361,108.0,0.0,4220.128418,4288.974121,4306.025879,4336.153809,4280.384766,4277.563965,4284.871582,4293.077148,4287.307617,4279.743652,4570.897461,4458.205078,4422.436035,4506.538574,,,,,,,,,,,,,,,,,,,,,,,,,,,,,,,,,,,,,,,,,,,,,,,,,,,,,,,,,,,,,,,,,,,,,,
1769161424.830544,1769161424.831169,109.0,0.0,4224.871582,4294.871582,4309.358887,4340.0,4285.512695,4267.436035,4273.974121,4292.820313,4295.384766,4296.410156,4584.615234,4461.666504,4435.512695,4512.307617,,,,,,,,,,,,,,,,,,,,,,,,,,,,,,,,,,,,,,,,,,,,,,,,,,,,,,,,,,,,,,,,,,,,,,
1769161424.838353,1769161424.839078,110.0,0.0,4223.717773,4295.512695,4310.256348,4340.769043,4283.589844,4271.538574,4278.974121,4293.846191,4294.487305,4287.563965,4584.230957,4460.769043,4434.230957,4510.512695,1.14276,0.41226,0.534312,0.289739,0.230711,0.93402,0.52885,0.346981,0.265902,0.117329,1.192816,0.338547,0.395722,0.302264,0.09321,0.635822,0.246573,0.306399,0.187171,0.073062,0.664534,0.415796,0.142408,0.04514,0.057253,0.160233,0.127257,0.058693,0.103675,0.078214,0.158908,0.359392,0.167103,0.24414,0.245129,0.142362,0.345982,0.097798,0.101763,0.146315,0.180995,0.308904,0.185027,0.116583,0.110951,0.321039,0.405926,0.379067,0.333559,0.29788,1.724639,0.915884,0.544755,0.276964,0.157531,1.834418,0.54066,0.660903,0.37535,0.142326,2.092503,1.022207,0.810287,0.372635,0.206291,1.732568,0.783861,1.008391,0.493004,0.282482
1769161424.846161,1769161424.846886,111.0,0.0,4218.974121,4292.820313,4304.743652,4340.897461,4282.820313,4281.153809,4282.820313,4292.94873,4287.436035,4271.025879,4573.205078,4458.461426,4425.641113,4508.077148,,,,,,,,,,,,,,,,,,,,,,,,,,,,,,,,,,,,,,,,,,,,,,,,,,,,,,,,,,,,,,,,,,,,,,
1769161424.85397,1769161424.854495,112.0,0.0,4219.102539,4292.179688,4297.94873,4341.025879,4287.307617,4280.769043,4280.128418,4294.358887,4289.358887,4278.461426,4570.128418,4457.05127,4427.563965,4507.692383,,,,,,,,,,,,,,,,,,,,,,,,,,,,,,,,,,,,,,,,,,,,,,,,,,,,,,,,,,,,,,,,,,,,,,
1769161424.861778,1769161424.862303,113.0,0.0,4219.615234,4294.743652,4294.615234,4340.512695,4288.461426,4278.717773,4280.769043,4297.692383,4294.230957,4285.512695,4573.205078,4458.077148,4429.358887,4508.974121,,,,,,,,,,,,,,,,,,,,,,,,,,,,,,,,,,,,,,,,,,,,,,,,,,,,,,,,,,,,,,,,,,,,,,
1769161424.869587,1769161424.870012,114.0,0.0,4214.615234,4295.897461,4294.230957,4341.282227,4285.0,4280.769043,4280.769043,4296.410156,4294.230957,4278.077148,4571.666504,4459.230957,4419.743652,4508.205078,,,,,,,,,,,,,,,,,,,,,,,,,,,,,,,,,,,,,,,,,,,,,,,,,,,,,,,,,,,,,,,,,,,,,,
1769161424.877395,1769161424.87782,115.0,0.0,4211.922852,4291.538574,4291.922852,4337.94873,4282.05127,4280.641113,4278.846191,4293.717773,4289.102539,4275.769043,4568.205078,4456.410156,4417.436035,4505.256348,,,,,,,,,,,,,,,,,,,,,,,,,,,,,,,,,,,,,,,,,,,,,,,,,,,,,,,,,,,,,,,,,,,,,,
1769161424.885203,1769161424.885429,116.0,0.0,4212.179688,4287.563965,4291.922852,4335.512695,4281.025879,4280.512695,4280.769043,4298.205078,4289.615234,4278.974121,4569.743652,4456.282227,4428.461426,4505.897461,,,,,,,,,,,,,,,,,,,,,,,,,,,,,,,,,,,,,,,,,,,,,,,,,,,,,,,,,,,,,,,,,,,,,,
1769161424.893012,1769161424.893237,117.0,0.0,4214.615234,4290.128418,4293.846191,4342.436035,4280.769043,4280.897461,4283.077148,4301.153809,4292.179688,4272.94873,4571.282227,4460.769043,4428.461426,4508.461426,,,,,,,,,,,,,,,,,,,,,,,,,,,,,,,,,,,,,,,,,,,,,,,,,,,,,,,,,,,,,,,,,,,,,,
1769161424.90082,1769161424.901146,118.0,0.0,4213.974121,4292.179688,4287.692383,4347.05127,4278.461426,4280.897461,4281.410156,4295.0,4287.436035,4268.717773,4568.974121,4459.487305,4417.563965,4506.282227,,,,,,,,,,,,,,,,,,,,,,,,,,,,,,,,,,,,,,,,,,,,,,,,,,,,,,,,,,,,,,,,,,,,,,
1769161424.908629,1769161424.908954,119.0,0.0,4203.589844,4291.153809,4279.230957,4345.256348,4281.153809,4281.538574,4278.205078,4290.769043,4282.05127,4276.025879,4568.077148,4450.897461,4419.358887,4500.256348,,,,,,,,,,,,,,,,,,,,,,,,,,,,,,,,,,,,,,,,,,,,,,,,,,,,,,,,,,,,,,,,,,,,,,
1769161424.916437,1769161424.916962,120.0,0.0,4200.897461,4290.512695,4278.077148,4345.128418,4288.717773,4280.384766,4278.333496,4295.641113,4282.05127,4280.897461,4568.205078,4446.153809,4422.179688,4495.641113,,,,,,,,,,,,,,,,,,,,,,,,,,,,,,,,,,,,,,,,,,,,,,,,,,,,,,,,,,,,,,,,,,,,,,
1769161424.924246,1769161424.924771,121.0,0.0,4209.487305,4291.153809,4280.0,4345.256348,4287.436035,4278.717773,4279.615234,4297.94873,4281.922852,4275.384766,4566.922852,4452.307617,4412.692383,4493.205078,,,,,,,,,,,,,,,,,,,,,,,,,,,,,,,,,,,,,,,,,,,,,,,,,,,,,,,,,,,,,,,,,,,,,,
1769161424.932054,1769161424.932679,122.0,0.0,4210.897461,4294.487305,4277.563965,4346.538574,4283.589844,4275.769043,4276.153809,4292.563965,4283.974121,4276.794922,4568.077148,4460.256348,4411.538574,4494.871582,,,,,,,,,,,,,,,,,,,,,,,,,,,,,,,,,,,,,,,,,,,,,,,,,,,,,,,,,,,,,,,,,,,,,,
1769161424.939863,1769161424.940488,123.0,0.0,4201.538574,4292.820313,4268.589844,4345.384766,4282.820313,4279.102539,4282.692383,4299.358887,4292.563965,4282.307617,4569.102539,4461.410156,4415.128418,4494.871582,,,,,,,,,,,,,,,,,,,,,,,,,,,,,,,,,,,,,,,,,,,,,,,,,,,,,,,,,,,,,,,,,,,,,,
1769161424.947671,1769161424.948496,124.0,0.0,4198.077148,4283.846191,4260.0,4339.743652,4282.436035,4286.153809,4293.974121,4314.358887,4297.436035,4277.436035,4566.794922,4460.384766,4410.641113,4490.256348,,,,,,,,,,,,,,,,,,,,,,,,,,,,,,,,,,,,,,,,,,,,,,,,,,,,,,,,,,,,,,,,,,,,,,
1769161424.95548,1769161424.956304,125.0,0.0,4201.922852,4286.282227,4262.820313,4338.461426,4284.487305,4281.666504,4285.641113,4305.897461,4294.487305,4280.0,4568.461426,4460.769043,4412.820313,4496.025879,,,,,,,,,,,,,,,,,,,,,,,,,,,,,,,,,,,,,,,,,,,,,,,,,,,,,,,,,,,,,,,,,,,,,,
1769161424.963288,1769161424.964013,126.0,0.0,4204.871582,4293.974121,4265.897461,4341.922852,4288.717773,4273.077148,4272.563965,4288.589844,4292.436035,4285.0,4572.692383,4461.794922,4421.538574,4505.128418,1.122775,0.543707,0.553471,0.275254,0.216912,0.856107,0.566317,0.352227,0.237382,0.103822,1.194982,0.407429,0.411188,0.277048,0.093233,0.593169,0.257849,0.314867,0.183247,0.064352,0.615091,0.437779,0.158686,0.055354,0.055431,0.179161,0.140158,0.062609,0.108974,0.085883,0.126521,0.385939,0.173263,0.232171,0.250495,0.104418,0.310613,0.104908,0.105798,0.150258,0.157259,0.375036,0.211775,0.120712,0.113835,0.319765,0.368813,0.386979,0.348057,0.296113,1.513745,0.831313,0.638532,0.282068,0.151891,1.806533,0.516654,0.72119,0.397533,0.14059,2.052579,0.92809,0.930861,0.36484,0.20513,1.60262,0.770494,1.028107,0.491187,0.284294
1769161424.971096,1769161424.971821,127.0,0.0,4203.461426,4286.025879,4257.179688,4340.897461,4290.128418,4277.692383,4277.179688,4297.436035,4294.743652,4272.179688,4572.05127,4462.436035,4419.743652,4498.717773,,,,,,,,,,,,,,,,,,,,,,,,,,,,,,,,,,,,,,,,,,,,,,,,,,,,,,,,,,,,,,,,,,,,,,
1769161424.978905,1769161424.97943,0.0,0.0,4196.025879,4275.256348,4248.846191,4332.94873,4287.94873,4283.333496,4283.589844,4308.333496,4293.461426,4267.307617,4571.410156,4460.769043,4413.846191,4489.102539,,,,,,,,,,,,,,,,,,,,,,,,,,,,,,,,,,,,,,,,,,,,,,,,,,,,,,,,,,,,,,,,,,,,,,
1769161424.986713,1769161424.987238,1.0,0.0,4193.589844,4280.256348,4249.102539,4328.461426,4285.0,4278.461426,4280.641113,4299.487305,4284.743652,4281.025879,4569.743652,4457.820313,4411.410156,4491.922852,,,,,,,,,,,,,,,,,,,,,,,,,,,,,,,,,,,,,,,,,,,,,,,,,,,,,,,,,,,,,,,,,,,,,,
1769161424.994522,1769161424.994947,2.0,0.0,4193.077148,4281.282227,4248.461426,4327.179688,4280.512695,4278.205078,4281.538574,4294.102539,4276.666504,4276.794922,4559.358887,4454.230957,4407.820313,4490.897461,,,,,,,,,,,,,,,,,,,,,,,,,,,,,,,,,,,,,,,,,,,,,,,,,,,,,,,,,,,,,,,,,,,,,,
1769161425.00233,1769161425.002755,3.0,0.0,4190.769043,4273.846191,4242.563965,4326.410156,4279.358887,4282.820313,4282.94873,4296.025879,4274.230957,4261.025879,4552.94873,4453.717773,4403.846191,4485.897461,,,,,,,,,,,,,,,,,,,,,,,,,,,,,,,,,,,,,,,,,,,,,,,,,,,,,,,,,,,,,,,,,,,,,,
1769161425.010139,1769161425.010364,4.0,0.0,4197.436035,4283.205078,4244.871582,4329.743652,4286.666504,4279.615234,4278.205078,4293.974121,4280.897461,4273.077148,4562.307617,4457.563965,4407.179688,4490.641113,,,,,,,,,,,,,,,,,,,,,,,,,,,,,,,,,,,,,,,,,,,,,,,,,,,,,,,,,,,,,,,,,,,,,,
1769161425.017947,1769161425.018173,5.0,0.0,4204.358887,4297.820313,4249.615234,4335.897461,4290.641113,4272.820313,4276.410156,4293.333496,4289.871582,4285.0,4570.897461,4459.487305,4419.358887,4493.717773,,,,,,,,,,,,,,,,,,,,,,,,,,,,,,,,,,,,,,,,,,,,,,,,,,,,,,,,,,,,,,,,,,,,,,
1769161425.025756,1769161425.025881,6.0,0.0,4201.025879,4291.153809,4241.666504,4337.179688,4283.717773,4271.410156,4275.897461,4294.230957,4288.717773,4272.820313,4570.0,4457.94873,4427.179688,4491.922852,,,,,,,,,,,,,,,,,,,,,,,,,,,,,,,,,,,,,,,,,,,,,,,,,,,,,,,,,,,,,,,,,,,,,,
1769161425.033564,1769161425.03369,7.0,0.0,4199.487305,4281.025879,4233.077148,4330.641113,4280.897461,4276.282227,4277.179688,4293.589844,4287.179688,4277.436035,4571.025879,4458.589844,4425.512695,4492.94873,,,,,,,,,,,,,,,,,,,,,,,,,,,,,,,,,,,,,,,,,,,,,,,,,,,,,,,,,,,,,,,,,,,,,,
1769161425.041372,1769161425.041698,8.0,0.0,4204.102539,4290.0,4234.358887,4328.333496,4286.282227,4279.871582,4278.974121,4294.615234,4293.846191,4294.615234,4574.743652,4460.769043,4425.769043,4495.128418,,,,,,,,,,,,,,,,,,,,,,,,,,,,,,,,,,,,,,,,,,,,,,,,,,,,,,,,,,,,,,,,,,,,,,
1769161425.049181,1769161425.049506,9.0,0.0,4202.94873,4297.820313,4235.641113,4331.794922,4285.769043,4279.358887,4279.358887,4295.0,4291.282227,4288.333496,4571.153809,4459.358887,4427.307617,4496.025879,,,,,,,,,,,,,,,,,,,,,,,,,,,,,,,,,,,,,,,,,,,,,,,,,,,,,,,,,,,,,,,,,,,,,,
1769161425.056989,1769161425.057415,10.0,0.0,4200.384766,4290.256348,4232.692383,4335.256348,4284.102539,4278.589844,4278.333496,4293.461426,4281.025879,4275.641113,4565.384766,4459.102539,4423.846191,4492.692383,,,,,,,,,,,,,,,,,,,,,,,,,,,,,,,,,,,,,,,,,,,,,,,,,,,,,,,,,,,,,,,,,,,,,,
1769161425.064798,1769161425.065223,11.0,0.0,4202.05127,4285.769043,4234.615234,4336.666504,4289.102539,4280.0,4278.077148,4293.333496,4284.102539,4281.922852,4567.179688,4459.871582,4424.230957,4491.538574,,,,,,,,,,,,,,,,,,,,,,,,,,,,,,,,,,,,,,,,,,,,,,,,,,,,,,,,,,,,,,,,,,,,,,
1769161425.072606,1769161425.072832,12.0,0.0,4201.025879,4290.384766,4234.615234,4336.538574,4291.538574,4280.897461,4280.0,4294.358887,4292.692383,4281.794922,4572.05127,4460.897461,4431.410156,4499.743652,,,,,,,,,,,,,,,,,,,,,,,,,,,,,,,,,,,,,,,,,,,,,,,,,,,,,,,,,,,,,,,,,,,,,,
1769161425.080415,1769161425.08064,13.0,0.0,4202.563965,4292.436035,4229.358887,4338.717773,4289.230957,4280.512695,4281.410156,4296.666504,4293.077148,4273.846191,4572.692383,4467.820313,4431.922852,4506.666504,,,,,,,,,,,,,,,,,,,,,,,,,,,,,,,,,,,,,,,,,,,,,,,,,,,,,,,,,,,,,,,,,,,,,,
1769161425.088223,1769161425.088349,14.0,0.0,4208.077148,4293.461426,4230.128418,4340.897461,4288.717773,4282.563965,4281.538574,4297.563965,4292.820313,4282.94873,4570.128418,4474.102539,4428.205078,4505.384766,0.982302,0.670957,0.558092,0.246331,0.20786,0.724152,0.59022,0.358996,0.203021,0.09255,1.076838,0.444545,0.407444,0.243227,0.089786,0.530027,0.277759,0.322322,0.173953,0.061153,0.558916,0.451811,0.17904,0.069651,0.060263,0.204969,0.148428,0.071454,0.112287,0.094957,0.116964,0.379497,0.176465,0.206781,0.241714,0.093735,0.276212,0.109919,0.113996,0.150101,0.148384,0.429618,0.241064,0.13243,0.117616,0.322828,0.32761,0.386256,0.361234,0.293143,1.22477,0.696229,0.729634,0.263775,0.143866,1.61935,0.471673,0.741446,0.393893,0.139901,1.821845,0.79465,1.0027,0.338171,0.210732,1.336466,0.707842,0.999068,0.457315,0.272044
1769161425.096032,1769161425.096157,15.0,0.0,4208.846191,4297.692383,4231.410156,4343.205078,4291.025879,4280.897461,4278.974121,4297.05127,4292.563965,4290.769043,4573.333496,4472.307617,4429.743652,4503.974121,,,,,,,,,,,,,,,,,,,,,,,,,,,,,,,,,,,,,,,,,,,,,,,,,,,,,,,,,,,,,,,,,,,,,,
1769161425.10384,1769161425.104165,16.0,0.0,4200.384766,4293.077148,4222.436035,4339.615234,4291.153809,4281.922852,4280.769043,4296.153809,4284.743652,4279.487305,4569.871582,4463.717773,4426.922852,4501.282227,,,,,,,,,,,,,,,,,,,,,,,,,,,,,,,,,,,,,,,,,,,,,,,,,,,,,,,,,,,,,,,,,,,,,,
1769161425.111648,1769161425.111974,17.0,0.0,4186.538574,4280.0,4211.282227,4328.974121,4286.153809,4289.230957,4286.538574,4295.769043,4281.153809,4269.871582,4554.871582,4457.563965,4412.436035,4491.794922,,,,,,,,,,,,,,,,,,,,,,,,,,,,,,,,,,,,,,,,,,,,,,,,,,,,,,,,,,,,,,,,,,,,,,
1769161425.119457,1769161425.119882,18.0,0.0,4180.512695,4274.230957,4211.538574,4325.897461,4281.282227,4285.897461,4283.077148,4302.563965,4292.563965,4278.333496,4558.205078,4464.871582,4407.179688,4486.666504,,,,,,,,,,,,,,,,,,,,,,,,,,,,,,,,,,,,,,,,,,,,,,,,,,,,,,,,,,,,,,,,,,,,,,
1769161425.127265,1769161425.127691,19.0,0.0,4189.230957,4279.615234,4215.897461,4336.538574,4281.025879,4273.846191,4274.102539,4302.05127,4297.307617,4287.692383,4575.384766,4476.538574,4423.205078,4492.307617,,,,,,,,,,,,,,,,,,,,,,,,,,,,,,,,,,,,,,,,,,,,,,,,,,,,,,,,,,,,,,,,,,,,,,
1769161425.135074,1769161425.135699,20.0,0.0,4200.512695,4290.256348,4215.897461,4344.743652,4282.436035,4271.410156,4272.692383,4287.820313,4286.282227,4285.512695,4575.384766,4476.538574,4433.974121,4499.743652,,,,,,,,,,,,,,,,,,,,,,,,,,,,,,,,,,,,,,,,,,,,,,,,,,,,,,,,,,,,,,,,,,,,,,
1769161425.142882,1769161425.143507,21.0,0.0,4200.769043,4296.410156,4217.179688,4342.307617,4282.563965,4274.871582,4276.538574,4285.256348,4280.256348,4280.0,4568.333496,4472.692383,4428.461426,4503.974121,,,,,,,,,,,,,,,,,,,,,,,,,,,,,,,,,,,,,,,,,,,,,,,,,,,,,,,,,,,,,,,,,,,,,,
1769161425.150691,1769161425.151416,22.0,0.0,4195.641113,4288.205078,4213.974121,4339.871582,4279.102539,4274.102539,4279.358887,4294.743652,4282.307617,4280.641113,4569.615234,4475.897461,4425.769043,4502.692383,,,,,,,,,,,,,,,,,,,,,,,,,,,,,,,,,,,,,,,,,,,,,,,,,,,,,,,,,,,,,,,,,,,,,,
1769161425.158499,1769161425.159224,23.0,0.0,4198.717773,4281.794922,4206.538574,4340.512695,4277.563965,4272.307617,4273.717773,4292.179688,4281.282227,4277.436035,4569.358887,4476.025879,4430.128418,4504.487305,,,,,,,,,,,,,,,,,,,,,,,,,,,,,,,,,,,,,,,,,,,,,,,,,,,,,,,,,,,,,,,,,,,,,,
1769161425.166308,1769161425.166833,24.0,0.0,4199.230957,4287.307617,4208.717773,4341.794922,4281.282227,4273.974121,4265.769043,4287.307617,4280.641113,4266.538574,4565.512695,4472.05127,4427.820313,4505.128418,,,,,,,,,,,,,,,,,,,,,,,,,,,,,,,,,,,,,,,,,,,,,,,,,,,,,,,,,,,,,,,,,,,,,,
1769161425.174116,1769161425.174641,25.0,0.0,4191.410156,4284.743652,4215.769043,4342.179688,4280.384766,4276.025879,4270.897461,4294.487305,4280.641113,4269.615234,4561.538574,4472.94873,4419.230957,4497.820313,,,,,,,,,,,,,,,,,,,,,,,,,,,,,,,,,,,,,,,,,,,,,,,,,,,,,,,,,,,,,,,,,,,,,,
1769161425.181924,1769161425.18235,26.0,0.0,4186.153809,4278.974121,4216.538574,4339.743652,4274.615234,4275.128418,4278.077148,4296.282227,4279.358887,4281.538574,4562.692383,4474.871582,4419.871582,4498.205078,,,,,,,,,,,,,,,,,,,,,,,,,,,,,,,,,,,,,,,,,,,,,,,,,,,,,,,,,,,,,,,,,,,,,,
1769161425.189733,1769161425.190158,27.0,0.0,4188.077148,4283.333496,4213.717773,4339.615234,4276.666504,4273.974121,4276.922852,4292.692383,4277.692383,4279.615234,4564.358887,4475.128418,4423.717773,4506.025879,,,,,,,,,,,,,,,,,,,,,,,,,,,,,,,,,,,,,,,,,,,,,,,,,,,,,,,,,,,,,,,,,,,,,,
1769161425.197542,1769161425.197767,28.0,0.0,4190.384766,4287.05127,4208.333496,4342.692383,4282.94873,4278.205078,4276.794922,4294.230957,4278.846191,4273.589844,4560.512695,4475.384766,4422.820313,4509.871582,,,,,,,,,,,,,,,,,,,,,,,,,,,,,,,,,,,,,,,,,,,,,,,,,,,,,,,,,,,,,,,,,,,,,,
1769161425.20535,1769161425.205575,29.0,0.0,4186.922852,4286.794922,4199.615234,4341.922852,4282.820313,4279.230957,4278.589844,4295.512695,4283.974121,4277.820313,4558.589844,4472.179688,4422.05127,4506.153809,,,,,,,,,,,,,,,,,,,,,,,,,,,,,,,,,,,,,,,,,,,,,,,,,,,,,,,,,,,,,,,,,,,,,,
1769161425.213158,1769161425.213284,30.0,0.0,4181.794922,4288.974121,4198.461426,4339.230957,4279.743652,4275.897461,4279.871582,4298.333496,4286.153809,4279.358887,4560.128418,4465.512695,4419.615234,4497.179688,0.789551,0.756037,0.53671,0.205934,0.205571,0.570942,0.588443,0.366873,0.168226,0.087669,0.906502,0.43718,0.386834,0.210824,0.084644,0.451253,0.299194,0.335735,0.161071,0.065664,0.520074,0.450668,0.201739,0.085554,0.071826,0.238119,0.150805,0.086594,0.116692,0.105918,0.129975,0.343369,0.183408,0.177424,0.221161,0.095606,0.238297,0.112666,0.120911,0.146109,0.147035,0.451946,0.263314,0.148101,0.123128,0.323722,0.289986,0.373899,0.365754,0.289493,0.924814,0.534588,0.782053,0.227504,0.134834,1.363014,0.417529,0.719928,0.366321,0.139827,1.467888,0.638627,1.012665,0.305541,0.227465,1.005774,0.612119,0.940548,0.398081,0.25151
1769161425.220967,1769161425.221092,31.0,0.0,4187.05127,4293.846191,4202.94873,4344.487305,4279.871582,4279.230957,4277.820313,4293.974121,4279.743652,4277.94873,4560.897461,4466.282227,4415.769043,4494.102539,,,,,,,,,,,,,,,,,,,,,,,,,,,,,,,,,,,,,,,,,,,,,,,,,,,,,,,,,,,,,,,,,,,,,,
1769161425.228775,1769161425.229101,32.0,0.0,4201.922852,4301.922852,4203.974121,4354.102539,4281.666504,4281.538574,4268.205078,4282.307617,4277.692383,4283.974121,4567.179688,4475.384766,4424.615234,4505.384766,,,,,,,,,,,,,,,,,,,,,,,,,,,,,,,,,,,,,,,,,,,,,,,,,,,,,,,,,,,,,,,,,,,,,,
1769161425.236584,1769161425.236909,33.0,0.0,4202.94873,4302.692383,4204.487305,4354.230957,4280.0,4277.179688,4267.692383,4287.307617,4283.205078,4277.05127,4572.820313,4477.692383,4435.641113,4513.077148,,,,,,,,,,,,,,,,,,,,,,,,,,,,,,,,,,,,,,,,,,,,,,,,,,,,,,,,,,,,,,,,,,,,,,
1769161425.244392,1769161425.244817,34.0,0.0,4189.487305,4293.333496,4198.589844,4344.358887,4275.897461,4276.922852,4279.102539,4296.538574,4281.666504,4263.205078,4562.94873,4472.692383,4424.615234,4499.743652,,,,,,,,,,,,,,,,,,,,,,,,,,,,,,,,,,,,,,,,,,,,,,,,,,,,,,,,,,,,,,,,,,,,,,
1769161425.252201,1769161425.252626,35.0,0.0,4185.256348,4291.282227,4189.487305,4339.487305,4276.922852,4278.974121,4275.128418,4285.641113,4276.794922,4270.128418,4554.487305,4472.563965,4414.487305,4490.897461,,,,,,,,,,,,,,,,,,,,,,,,,,,,,,,,,,,,,,,,,,,,,,,,,,,,,,,,,,,,,,,,,,,,,,
1769161425.260009,1769161425.260634,36.0,0.0,4187.563965,4290.384766,4185.897461,4341.666504,4277.94873,4277.820313,4269.487305,4280.256348,4278.205078,4280.0,4557.820313,4474.230957,4422.307617,4494.871582,,,,,,,,,,,,,,,,,,,,,,,,,,,,,,,,,,,,,,,,,,,,,,,,,,,,,,,,,,,,,,,,,,,,,,
1769161425.267818,1769161425.268442,37.0,0.0,4187.05127,4282.179688,4185.641113,4342.436035,4274.615234,4277.563965,4276.794922,4294.743652,4280.256348,4276.410156,4558.717773,4472.692383,4424.230957,4495.512695,,,,,,,,,,,,,,,,,,,,,,,,,,,,,,,,,,,,,,,,,,,,,,,,,,,,,,,,,,,,,,,,,,,,,,
1769161425.275626,1769161425.276151,38.0,0.0,4187.820313,4283.205078,4188.461426,4343.077148,4276.666504,4277.436035,4276.410156,4291.153809,4280.769043,4272.692383,4556.666504,4474.358887,4417.94873,4494.871582,,,,,,,,,,,,,,,,,,,,,,,,,,,,,,,,,,,,,,,,,,,,,,,,,,,,,,,,,,,,,,,,,,,,,,
1769161425.283435,1769161425.283959,39.0,0.0,4183.974121,4291.538574,4189.871582,4343.974121,4281.410156,4274.871582,4271.410156,4274.743652,4280.641113,4270.384766,4555.256348,4476.794922,4420.512695,4499.487305,,,,,,,,,,,,,,,,,,,,,,,,,,,,,,,,,,,,,,,,,,,,,,,,,,,,,,,,,,,,,,,,,,,,,,
1769161425.291243,1769161425.291968,40.0,0.0,4186.538574,4291.410156,4187.820313,4343.717773,4279.230957,4276.153809,4277.05127,4279.615234,4280.897461,4272.436035,4558.333496,4476.538574,4431.922852,4507.307617,,,,,,,,,,,,,,,,,,,,,,,,,,,,,,,,,,,,,,,,,,,,,,,,,,,,,,,,,,,,,,,,,,,,,,
1769161425.299051,1769161425.299776,41.0,0.0,4197.179688,4292.94873,4187.820313,4347.94873,4279.487305,4280.384766,4280.769043,4287.05127,4281.153809,4281.282227,4558.205078,4475.128418,4429.743652,4505.0,,,,,,,,,,,,,,,,,,,,,,,,,,,,,,,,,,,,,,,,,,,,,,,,,,,,,,,,,,,,,,,,,,,,,,
1769161425.30686,1769161425.307684,42.0,0.0,4194.871582,4295.897461,4190.0,4351.794922,4280.897461,4278.077148,4275.897461,4284.743652,4281.410156,4282.179688,4555.641113,4474.743652,4416.153809,4497.692383,,,,,,,,,,,,,,,,,,,,,,,,,,,,,,,,,,,,,,,,,,,,,,,,,,,,,,,,,,,,,,,,,,,,,,
1769161425.314668,1769161425.315493,43.0,0.0,4183.974121,4288.717773,4185.769043,4346.282227,4273.461426,4274.743652,4275.384766,4288.205078,4280.256348,4275.512695,4557.820313,4475.128418,4414.615234,4498.461426,,,,,,,,,,,,,,,,,,,,,,,,,,,,,,,,,,,,,,,,,,,,,,,,,,,,,,,,,,,,,,,,,,,,,,
1769161425.322477,1769161425.323501,44.0,0.0,4183.846191,4280.512695,4181.153809,4338.974121,4264.743652,4273.846191,4278.461426,4290.897461,4277.692383,4274.871582,4558.974121,4477.307617,4424.871582,4505.769043,,,,,,,,,,,,,,,,,,,,,,,,,,,,,,,,,,,,,,,,,,,,,,,,,,,,,,,,,,,,,,,,,,,,,,
1769161425.330285,1769161425.33131,45.0,0.0,4186.025879,4278.333496,4183.077148,4337.179688,4265.897461,4273.974121,4279.487305,4286.025879,4276.922852,4273.461426,4557.563965,4476.794922,4428.461426,4506.153809,,,,,,,,,,,,,,,,,,,,,,,,,,,,,,,,,,,,,,,,,,,,,,,,,,,,,,,,,,,,,,,,,,,,,,
1769161425.338094,1769161425.339018,46.0,0.0,4183.846191,4280.512695,4183.205078,4340.256348,4271.794922,4277.692383,4277.307617,4288.077148,4279.102539,4275.256348,4560.512695,4474.743652,4423.974121,4499.230957,0.590873,0.782039,0.49911,0.16424,0.20927,0.43949,0.559893,0.378777,0.138253,0.093039,0.718528,0.389277,0.361155,0.188447,0.080332,0.386397,0.312618,0.358486,0.147012,0.077071,0.49944,0.426621,0.219452,0.100107,0.086821,0.272183,0.149231,0.106918,0.12438,0.118082,0.147211,0.289407,0.199931,0.154376,0.194799,0.101927,0.195421,0.114351,0.122396,0.141113,0.151164,0.443301,0.277955,0.163182,0.131126,0.312366,0.266969,0.34861,0.355775,0.288705,0.666783,0.387072,0.780242,0.187721,0.127736,1.062527,0.372616,0.668317,0.323575,0.140034,1.099319,0.499381,0.972587,0.283302,0.255435,0.692553,0.512132,0.882324,0.329809,0.231741
1769161425.345902,1769161425.346827,47.0,0.0,4192.179688,4289.487305,4182.307617,4345.256348,4272.436035,4277.563965,4276.538574,4292.563965,4284.487305,4282.436035,4566.922852,4481.025879,4426.282227,4502.563965,,,,,,,,,,,,,,,,,,,,,,,,,,,,,,,,,,,,,,,,,,,,,,,,,,,,,,,,,,,,,,,,,,,,,,
1769161425.353711,1769161425.354835,48.0,0.0,4202.179688,4296.922852,4182.820313,4346.410156,4274.487305,4274.743652,4279.230957,4284.230957,4288.333496,4275.256348,4570.128418,4491.538574,4433.461426,4511.538574,,,,,,,,,,,,,,,,,,,,,,,,,,,,,,,,,,,,,,,,,,,,,,,,,,,,,,,,,,,,,,,,,,,,,,
1769161425.361519,1769161425.362643,49.0,0.0,4200.641113,4295.512695,4182.94873,4343.589844,4278.077148,4279.358887,4280.512695,4279.871582,4287.820313,4273.589844,4571.794922,4492.94873,4435.384766,4512.307617,,,,,,,,,,,,,,,,,,,,,,,,,,,,,,,,,,,,,,,,,,,,,,,,,,,,,,,,,,,,,,,,,,,,,,
1769161425.369327,1769161425.370352,50.0,0.0,4197.94873,4292.94873,4182.94873,4342.692383,4272.05127,4279.743652,4278.589844,4287.307617,4290.128418,4290.0,4571.666504,4489.102539,4430.384766,4506.410156,,,,,,,,,,,,,,,,,,,,,,,,,,,,,,,,,,,,,,,,,,,,,,,,,,,,,,,,,,,,,,,,,,,,,,
1769161425.377136,1769161425.37816,51.0,0.0,4198.589844,4294.615234,4182.820313,4342.563965,4265.512695,4272.563965,4278.717773,4286.666504,4292.05127,4293.205078,4569.230957,4489.358887,4425.512695,4502.820313,,,,,,,,,,,,,,,,,,,,,,,,,,,,,,,,,,,,,,,,,,,,,,,,,,,,,,,,,,,,,,,,,,,,,,
1769161425.384944,1769161425.386169,52.0,0.0,4202.307617,4294.487305,4182.436035,4342.563965,4272.692383,4272.307617,4274.871582,4278.077148,4289.615234,4277.179688,4571.282227,4490.384766,4426.025879,4507.307617,,,,,,,,,,,,,,,,,,,,,,,,,,,,,,,,,,,,,,,,,,,,,,,,,,,,,,,,,,,,,,,,,,,,,,
1769161425.392753,1769161425.393977,53.0,0.0,4199.102539,4289.871582,4183.205078,4342.307617,4279.487305,4274.487305,4267.436035,4278.846191,4289.358887,4277.692383,4568.333496,4489.358887,4426.794922,4506.282227,,,,,,,,,,,,,,,,,,,,,,,,,,,,,,,,,,,,,,,,,,,,,,,,,,,,,,,,,,,,,,,,,,,,,,
1769161425.400561,1769161425.401686,54.0,0.0,4186.025879,4281.410156,4182.94873,4336.153809,4272.94873,4274.487305,4272.94873,4282.94873,4287.94873,4282.563965,4556.153809,4488.974121,4425.769043,4494.615234,,,,,,,,,,,,,,,,,,,,,,,,,,,,,,,,,,,,,,,,,,,,,,,,,,,,,,,,,,,,,,,,,,,,,,
1769161425.40837,1769161425.409494,55.0,0.0,4186.666504,4281.282227,4181.922852,4332.436035,4271.153809,4275.897461,4279.102539,4281.025879,4280.0,4268.077148,4557.179688,4489.102539,4426.025879,4493.846191,,,,,,,,,,,,,,,,,,,,,,,,,,,,,,,,,,,,,,,,,,,,,,,,,,,,,,,,,,,,,,,,,,,,,,
1769161425.416178,1769161425.417103,56.0,0.0,4203.077148,4289.743652,4184.743652,4338.333496,4277.436035,4270.769043,4269.871582,4276.922852,4276.153809,4266.282227,4564.743652,4492.179688,4426.153809,4506.410156,,,,,,,,,,,,,,,,,,,,,,,,,,,,,,,,,,,,,,,,,,,,,,,,,,,,,,,,,,,,,,,,,,,,,,
1769161425.423987,1769161425.424911,57.0,0.0,4204.230957,4292.179688,4189.871582,4342.05127,4276.794922,4265.769043,4266.410156,4280.256348,4279.743652,4281.153809,4559.871582,4495.384766,4426.025879,4509.230957,,,,,,,,,,,,,,,,,,,,,,,,,,,,,,,,,,,,,,,,,,,,,,,,,,,,,,,,,,,,,,,,,,,,,,
1769161425.431795,1769161425.432819,58.0,0.0,4194.102539,4289.487305,4189.358887,4337.179688,4268.974121,4273.333496,4278.205078,4285.512695,4279.487305,4281.025879,4556.538574,4495.769043,4426.282227,4503.205078,,,,,,,,,,,,,,,,,,,,,,,,,,,,,,,,,,,,,,,,,,,,,,,,,,,,,,,,,,,,,,,,,,,,,,
1769161425.439603,1769161425.440628,59.0,0.0,4198.333496,4286.025879,4184.102539,4333.205078,4264.102539,4279.230957,4281.282227,4287.307617,4277.94873,4274.230957,4564.102539,4499.230957,4426.282227,4504.487305,,,,,,,,,,,,,,,,,,,,,,,,,,,,,,,,,,,,,,,,,,,,,,,,,,,,,,,,,,,,,,,,,,,,,,
1769161425.447412,1769161425.448636,60.0,0.0,4203.077148,4281.666504,4185.0,4337.179688,4266.666504,4272.179688,4273.077148,4286.410156,4279.871582,4276.666504,4566.666504,4506.666504,4425.897461,4507.05127,,,,,,,,,,,,,,,,,,,,,,,,,,,,,,,,,,,,,,,,,,,,,,,,,,,,,,,,,,,,,,,,,,,,,,
1769161425.45522,1769161425.456445,61.0,0.0,4197.94873,4283.974121,4190.641113,4341.922852,4268.205078,4266.538574,4274.487305,4284.230957,4280.384766,4280.0,4566.794922,4510.512695,4426.666504,4506.025879,,,,,,,,,,,,,,,,,,,,,,,,,,,,,,,,,,,,,,,,,,,,,,,,,,,,,,,,,,,,,,,,,,,,,,
1769161425.463029,1769161425.464353,62.0,0.0,4197.307617,4287.94873,4189.230957,4340.0,4266.282227,4264.230957,4276.153809,4279.615234,4280.384766,4279.102539,4568.589844,4508.589844,4428.589844,4506.922852,0.442311,0.744314,0.463601,0.134961,0.215974,0.365133,0.508467,0.397366,0.120041,0.110135,0.567865,0.313918,0.33795,0.181732,0.078616,0.341445,0.30541,0.385253,0.134518,0.091937,0.486706,0.379687,0.223443,0.110535,0.100262,0.29938,0.146243,0.128781,0.134849,0.129076,0.162057,0.233308,0.226007,0.143716,0.170171,0.112912,0.15284,0.117974,0.117654,0.13947,0.162134,0.420375,0.291795,0.174826,0.14135,0.288795,0.266664,0.309636,0.331448,0.295632,0.490746,0.280258,0.725707,0.161181,0.125245,0.831046,0.340869,0.599917,0.278399,0.140163,0.835404,0.407328,0.900073,0.28283,0.288111,0.471634,0.435584,0.839572,0.272827,0.218714
1769161425.470837,1769161425.472161,63.0,0.0,4199.615234,4282.307617,4185.897461,4334.743652,4265.0,4265.256348,4270.769043,4276.153809,4275.0,4272.563965,4562.05127,4505.897461,4428.589844,4506.282227,,,,,,,,,,,,,,,,,,,,,,,,,,,,,,,,,,,,,,,,,,,,,,,,,,,,,,,,,,,,,,,,,,,,,,
1769161425.478646,1769161425.47977,64.0,0.0,4202.436035,4280.256348,4193.717773,4336.025879,4266.410156,4272.179688,4271.794922,4277.436035,4269.230957,4260.128418,4555.256348,4510.128418,4426.922852,4506.538574,,,,,,,,,,,,,,,,,,,,,,,,,,,,,,,,,,,,,,,,,,,,,,,,,,,,,,,,,,,,,,,,,,,,,,
1769161425.486454,1769161425.487578,65.0,0.0,4202.563965,4285.512695,4202.179688,4339.743652,4267.692383,4272.820313,4275.897461,4278.205078,4271.922852,4261.153809,4556.282227,4516.153809,4426.538574,4506.794922,,,,,,,,,,,,,,,,,,,,,,,,,,,,,,,,,,,,,,,,,,,,,,,,,,,,,,,,,,,,,,,,,,,,,,
1769161425.494263,1769161425.495287,66.0,0.0,4192.436035,4282.820313,4196.025879,4334.102539,4265.384766,4266.794922,4275.769043,4276.794922,4275.384766,4267.692383,4559.358887,4516.922852,4426.922852,4501.666504,,,,,,,,,,,,,,,,,,,,,,,,,,,,,,,,,,,,,,,,,,,,,,,,,,,,,,,,,,,,,,,,,,,,,,
1769161425.502071,1769161425.503095,67.0,0.0,4188.846191,4279.230957,4191.794922,4327.436035,4263.846191,4262.436035,4271.666504,4278.077148,4275.512695,4266.282227,4562.820313,4517.820313,4427.179688,4500.384766,,,,,,,,,,,,,,,,,,,,,,,,,,,,,,,,,,,,,,,,,,,,,,,,,,,,,,,,,,,,,,,,,,,,,,
1769161425.509879,1769161425.511104,68.0,0.0,4195.897461,4282.436035,4198.205078,4327.692383,4266.153809,4260.769043,4267.692383,4280.512695,4278.846191,4267.307617,4566.794922,4524.743652,4427.179688,4505.769043,,,,,,,,,,,,,,,,,,,,,,,,,,,,,,,,,,,,,,,,,,,,,,,,,,,,,,,,,,,,,,,,,,,,,,
1769161425.517688,1769161425.518912,69.0,0.0,4191.410156,4279.615234,4201.025879,4325.512695,4264.743652,4263.974121,4275.0,4282.563965,4282.563965,4271.410156,4567.05127,4527.307617,4426.410156,4503.974121,,,,,,,,,,,,,,,,,,,,,,,,,,,,,,,,,,,,,,,,,,,,,,,,,,,,,,,,,,,,,,,,,,,,,,
1769161425.525496,1769161425.52682,70.0,0.0,4185.897461,4278.205078,4200.128418,4326.153809,4263.846191,4270.384766,4280.512695,4279.743652,4280.897461,4275.897461,4565.0,4524.871582,4425.897461,4496.410156,,,,,,,,,,,,,,,,,,,,,,,,,,,,,,,,,,,,,,,,,,,,,,,,,,,,,,,,,,,,,,,,,,,,,,
1769161425.533305,1769161425.534629,71.0,0.0,4198.589844,4286.666504,4203.205078,4335.769043,4269.230957,4269.487305,4269.871582,4275.512695,4278.461426,4276.282227,4562.692383,4525.641113,4426.666504,4494.743652,,,,,,,,,,,,,,,,,,,,,,,,,,,,,,,,,,,,,,,,,,,,,,,,,,,,,,,,,,,,,,,,,,,,,,
1769161425.541113,1769161425.542238,72.0,0.0,4199.743652,4285.769043,4203.717773,4333.846191,4268.589844,4264.871582,4268.589844,4276.410156,4275.0,4266.153809,4556.922852,4523.974121,4426.153809,4492.05127,,,,,,,,,,,,,,,,,,,,,,,,,,,,,,,,,,,,,,,,,,,,,,,,,,,,,,,,,,,,,,,,,,,,,,
1769161425.548922,1769161425.550046,73.0,0.0,4190.0,4277.05127,4201.410156,4324.743652,4265.128418,4266.538574,4276.666504,4281.153809,4278.846191,4268.205078,4558.846191,4523.205078,4425.641113,4489.743652,,,,,,,,,,,,,,,,,,,,,,,,,,,,,,,,,,,,,,,,,,,,,,,,,,,,,,,,,,,,,,,,,,,,,,
1769161425.55673,1769161425.557954,74.0,0.0,4197.563965,4279.487305,4204.358887,4329.487305,4268.589844,4267.05127,4270.0,4282.307617,4290.512695,4278.205078,4568.205078,4529.102539,4429.102539,4495.897461,,,,,,,,,,,,,,,,,,,,,,,,,,,,,,,,,,,,,,,,,,,,,,,,,,,,,,,,,,,,,,,,,,,,,,
1769161425.564539,1769161425.565763,75.0,0.0,4201.794922,4283.717773,4204.615234,4333.077148,4270.897461,4266.538574,4266.666504,4280.0,4290.0,4271.666504,4569.230957,4532.94873,4433.461426,4496.282227,,,,,,,,,,,,,,,,,,,,,,,,,,,,,,,,,,,,,,,,,,,,,,,,,,,,,,,,,,,,,,,,,,,,,,
1769161425.572347,1769161425.573371,76.0,0.0,4193.461426,4279.102539,4202.307617,4326.282227,4266.794922,4265.897461,4276.153809,4279.871582,4280.641113,4269.743652,4565.256348,4534.230957,4433.589844,4490.128418,,,,,,,,,,,,,,,,,,,,,,,,,,,,,,,,,,,,,,,,,,,,,,,,,,,,,,,,,,,,,,,,,,,,,,
1769161425.580155,1769161425.58118,77.0,0.0,4194.615234,4278.333496,4208.205078,4325.512695,4266.025879,4264.358887,4278.717773,4280.384766,4278.974121,4279.230957,4565.0,4539.230957,4431.153809,4491.922852,,,,,,,,,,,,,,,,,,,,,,,,,,,,,,,,,,,,,,,,,,,,,,,,,,,,,,,,,,,,,,,,,,,,,,
1769161425.587964,1769161425.588888,78.0,0.0,4199.230957,4282.692383,4215.897461,4332.179688,4272.563965,4265.769043,4277.307617,4278.589844,4279.230957,4270.384766,4560.128418,4538.717773,4429.230957,4495.512695,0.366284,0.658189,0.451948,0.127636,0.22191,0.360034,0.444719,0.432396,0.119246,0.135731,0.467473,0.231485,0.318919,0.19214,0.079302,0.328336,0.272636,0.410965,0.127107,0.105576,0.465039,0.317871,0.211238,0.11562,0.107991,0.312757,0.143825,0.146116,0.144777,0.135765,0.171253,0.188722,0.254449,0.1454,0.153355,0.132072,0.121464,0.126465,0.109627,0.145758,0.185376,0.400851,0.309604,0.181497,0.151326,0.258239,0.290453,0.263819,0.299868,0.312622,0.387628,0.221936,0.63102,0.157546,0.127772,0.664474,0.316613,0.521431,0.241914,0.139518,0.724531,0.3692,0.81093,0.30443,0.315607,0.360639,0.392698,0.807067,0.241367,0.212806
1769161425.595772,1769161425.596697,79.0,0.0,4193.461426,4282.05127,4216.025879,4336.410156,4275.256348,4267.436035,4275.769043,4278.717773,4277.94873,4261.025879,4553.589844,4527.307617,4428.974121,4492.436035,,,,,,,,,,,,,,,,,,,,,,,,,,,,,,,,,,,,,,,,,,,,,,,,,,,,,,,,,,,,,,,,,,,,,,
1769161425.603581,1769161425.604306,80.0,0.0,4185.897461,4279.358887,4214.615234,4334.230957,4270.512695,4266.538574,4274.230957,4281.410156,4279.487305,4268.846191,4555.512695,4520.769043,4428.974121,4489.615234,,,,,,,,,,,,,,,,,,,,,,,,,,,,,,,,,,,,,,,,,,,,,,,,,,,,,,,,,,,,,,,,,,,,,,
1769161425.611389,1769161425.612114,81.0,0.0,4184.743652,4276.538574,4216.410156,4327.563965,4264.871582,4265.769043,4280.769043,4289.871582,4281.410156,4268.589844,4557.307617,4530.0,4427.307617,4488.205078,,,,,,,,,,,,,,,,,,,,,,,,,,,,,,,,,,,,,,,,,,,,,,,,,,,,,,,,,,,,,,,,,,,,,,
1769161425.619198,1769161425.619823,82.0,0.0,4192.820313,4274.871582,4218.846191,4324.230957,4263.846191,4263.846191,4282.692383,4295.512695,4281.153809,4264.230957,4556.538574,4538.333496,4426.538574,4488.974121,,,,,,,,,,,,,,,,,,,,,,,,,,,,,,,,,,,,,,,,,,,,,,,,,,,,,,,,,,,,,,,,,,,,,,
1769161425.627006,1769161425.627631,83.0,0.0,4202.05127,4276.538574,4220.512695,4326.538574,4265.384766,4263.846191,4275.512695,4286.794922,4280.897461,4266.922852,4556.538574,4530.641113,4428.846191,4492.692383,,,,,,,,,,,,,,,,,,,,,,,,,,,,,,,,,,,,,,,,,,,,,,,,,,,,,,,,,,,,,,,,,,,,,,
1769161425.634815,1769161425.635639,84.0,0.0,4196.153809,4280.512695,4219.102539,4327.563965,4266.922852,4265.897461,4273.974121,4278.974121,4280.769043,4264.230957,4555.0,4519.615234,4426.794922,4490.256348,,,,,,,,,,,,,,,,,,,,,,,,,,,,,,,,,,,,,,,,,,,,,,,,,,,,,,,,,,,,,,,,,,,,,,
1769161425.642623,1769161425.643448,85.0,0.0,4188.077148,4280.256348,4216.794922,4327.94873,4267.94873,4266.282227,4276.538574,4281.025879,4279.487305,4261.794922,4552.307617,4517.563965,4419.358887,4482.05127,,,,,,,,,,,,,,,,,,,,,,,,,,,,,,,,,,,,,,,,,,,,,,,,,,,,,,,,,,,,,,,,,,,,,,
1769161425.650432,1769161425.651356,86.0,0.0,4194.230957,4276.922852,4223.077148,4327.94873,4264.743652,4266.666504,4276.153809,4282.820313,4279.487305,4268.717773,4552.436035,4520.769043,4420.384766,4486.794922,,,,,,,,,,,,,,,,,,,,,,,,,,,,,,,,,,,,,,,,,,,,,,,,,,,,,,,,,,,,,,,,,,,,,,
1769161425.65824,1769161425.659164,87.0,0.0,4202.05127,4276.794922,4234.358887,4327.436035,4263.333496,4266.538574,4273.333496,4283.589844,4284.358887,4276.025879,4555.384766,4522.820313,4427.820313,4500.128418,,,,,,,,,,,,,,,,,,,,,,,,,,,,,,,,,,,,,,,,,,,,,,,,,,,,,,,,,,,,,,,,,,,,,,
1769161425.666049,1769161425.667173,88.0,0.0,4201.025879,4278.717773,4237.307617,4329.358887,4266.282227,4263.974121,4272.179688,4282.94873,4286.282227,4277.563965,4558.717773,4522.94873,4432.692383,4499.230957,,,,,,,,,,,,,,,,,,,,,,,,,,,,,,,,,,,,,,,,,,,,,,,,,,,,,,,,,,,,,,,,,,,,,,
1769161425.673857,1769161425.674981,89.0,0.0,4199.102539,4280.0,4233.077148,4330.769043,4266.922852,4263.974121,4275.384766,4276.922852,4281.410156,4275.897461,4556.666504,4519.615234,4433.461426,4490.0,,,,,,,,,,,,,,,,,,,,,,,,,,,,,,,,,,,,,,,,,,,,,,,,,,,,,,,,,,,,,,,,,,,,,,
1769161425.681666,1769161425.68269,90.0,0.0,4202.436035,4279.615234,4237.05127,4329.615234,4264.230957,4266.410156,4279.102539,4275.384766,4278.589844,4266.025879,4554.358887,4516.410156,4429.615234,4491.666504,,,,,,,,,,,,,,,,,,,,,,,,,,,,,,,,,,,,,,,,,,,,,,,,,,,,,,,,,,,,,,,,,,,,,,
1769161425.689474,1769161425.690498,91.0,0.0,4206.410156,4280.384766,4244.743652,4328.205078,4263.589844,4267.820313,4278.333496,4283.205078,4279.743652,4263.077148,4560.512695,4521.282227,4431.538574,4496.538574,,,,,,,,,,,,,,,,,,,,,,,,,,,,,,,,,,,,,,,,,,,,,,,,,,,,,,,,,,,,,,,,,,,,,,
1769161425.697282,1769161425.698506,92.0,0.0,4204.230957,4281.153809,4239.615234,4328.205078,4265.512695,4265.384766,4276.538574,4283.589844,4278.717773,4276.794922,4564.358887,4522.692383,4441.666504,4493.974121,,,,,,,,,,,,,,,,,,,,,,,,,,,,,,,,,,,,,,,,,,,,,,,,,,,,,,,,,,,,,,,,,,,,,,
1769161425.705091,1769161425.706315,93.0,0.0,4199.102539,4278.717773,4231.153809,4328.333496,4263.846191,4263.333496,4276.025879,4277.94873,4278.717773,4278.205078,4556.794922,4510.256348,4439.743652,4491.538574,,,,,,,,,,,,,,,,,,,,,,,,,,,,,,,,,,,,,,,,,,,,,,,,,,,,,,,,,,,,,,,,,,,,,,
1769161425.712899,1769161425.714023,94.0,0.0,4198.974121,4276.282227,4238.589844,4327.436035,4261.666504,4267.94873,4274.102539,4277.436035,4277.179688,4262.94873,4551.922852,4503.461426,4426.282227,4489.230957,0.329768,0.551584,0.481821,0.14243,0.22451,0.408125,0.381686,0.492818,0.136416,0.162644,0.393256,0.15983,0.299389,0.214381,0.080651,0.336134,0.221869,0.431678,0.126962,0.114443,0.425732,0.254665,0.187724,0.116713,0.108549,0.308287,0.14255,0.153046,0.150949,0.135941,0.17654,0.161721,0.273403,0.153822,0.14666,0.159389,0.112024,0.139912,0.102386,0.161688,0.224503,0.393723,0.332108,0.182718,0.157304,0.22631,0.334016,0.229537,0.272018,0.338284,0.328845,0.212316,0.523395,0.17476,0.133365,0.542941,0.29872,0.440203,0.219065,0.136737,0.711303,0.373725,0.718169,0.3367,0.328861,0.327988,0.374486,0.767942,0.236507,0.210211
1769161425.720708,1769161425.721832,95.0,0.0,4203.846191,4279.487305,4252.179688,4327.820313,4264.487305,4269.615234,4273.717773,4278.333496,4268.205078,4262.436035,4557.436035,4515.512695,4430.641113,4489.871582,,,,,,,,,,,,,,,,,,,,,,,,,,,,,,,,,,,,,,,,,,,,,,,,,,,,,,,,,,,,,,,,,,,,,,
1769161425.728516,1769161425.72944,96.0,0.0,4206.025879,4279.615234,4251.410156,4328.717773,4265.897461,4267.563965,4277.94873,4277.436035,4265.384766,4268.974121,4563.077148,4521.410156,4443.461426,4501.410156,,,,,,,,,,,,,,,,,,,,,,,,,,,,,,,,,,,,,,,,,,,,,,,,,,,,,,,,,,,,,,,,,,,,,,
1769161425.736325,1769161425.737249,97.0,0.0,4199.487305,4271.794922,4244.230957,4326.282227,4262.563965,4274.487305,4280.0,4277.179688,4273.589844,4263.077148,4562.94873,4513.205078,4438.205078,4505.0,,,,,,,,,,,,,,,,,,,,,,,,,,,,,,,,,,,,,,,,,,,,,,,,,,,,,,,,,,,,,,,,,,,,,,
1769161425.744133,1769161425.744957,98.0,0.0,4199.487305,4273.333496,4250.384766,4326.922852,4263.077148,4277.692383,4276.538574,4278.589844,4281.666504,4261.410156,4561.666504,4517.179688,4429.358887,4500.384766,,,,,,,,,,,,,,,,,,,,,,,,,,,,,,,,,,,,,,,,,,,,,,,,,,,,,,,,,,,,,,,,,,,,,,
1769161425.751942,1769161425.752766,99.0,0.0,4210.512695,4280.512695,4264.743652,4331.410156,4266.922852,4271.025879,4278.077148,4279.230957,4281.922852,4266.153809,4560.0,4525.769043,4430.897461,4501.025879,,,,,,,,,,,,,,,,,,,,,,,,,,,,,,,,,,,,,,,,,,,,,,,,,,,,,,,,,,,,,,,,,,,,,,
1769161425.75975,1769161425.760774,100.0,0.0,4209.102539,4273.077148,4262.179688,4329.102539,4265.256348,4271.410156,4281.410156,4279.230957,4277.820313,4265.769043,4557.692383,4517.307617,4432.94873,4499.743652,,,,,,,,,,,,,,,,,,,,,,,,,,,,,,,,,,,,,,,,,,,,,,,,,,,,,,,,,,,,,,,,,,,,,,
1769161425.767558,1769161425.768583,101.0,0.0,4192.820313,4262.436035,4246.153809,4321.922852,4263.205078,4276.282227,4272.692383,4279.615234,4277.820313,4263.077148,4553.205078,4503.205078,4427.563965,4489.358887,,,,,,,,,,,,,,,,,,,,,,,,,,,,,,,,,,,,,,,,,,,,,,,,,,,,,,,,,,,,,,,,,,,,,,
1769161425.775367,1769161425.776291,102.0,0.0,4187.692383,4262.692383,4244.871582,4321.538574,4267.179688,4276.922852,4267.05127,4278.205078,4279.743652,4264.358887,4552.436035,4502.05127,4423.717773,4485.0,,,,,,,,,,,,,,,,,,,,,,,,,,,,,,,,,,,,,,,,,,,,,,,,,,,,,,,,,,,,,,,,,,,,,,
1769161425.783175,1769161425.7841,103.0,0.0,4197.94873,4265.769043,4258.077148,4324.743652,4268.205078,4272.05127,4270.0,4276.794922,4280.0,4272.05127,4561.666504,4512.94873,4431.666504,4494.871582,,,,,,,,,,,,,,,,,,,,,,,,,,,,,,,,,,,,,,,,,,,,,,,,,,,,,,,,,,,,,,,,,,,,,,
1769161425.790984,1769161425.791708,104.0,0.0,4209.871582,4271.410156,4265.256348,4323.717773,4265.897461,4265.128418,4269.743652,4280.128418,4281.153809,4280.128418,4573.205078,4524.743652,4444.871582,4507.05127,,,,,,,,,,,,,,,,,,,,,,,,,,,,,,,,,,,,,,,,,,,,,,,,,,,,,,,,,,,,,,,,,,,,,,
1769161425.798792,1769161425.799517,105.0,0.0,4212.692383,4277.94873,4263.717773,4322.692383,4268.077148,4267.179688,4271.794922,4283.589844,4283.461426,4280.0,4576.153809,4525.769043,4448.974121,4511.025879,,,,,,,,,,,,,,,,,,,,,,,,,,,,,,,,,,,,,,,,,,,,,,,,,,,,,,,,,,,,,,,,,,,,,,
1769161425.806601,1769161425.807225,106.0,0.0,4205.769043,4272.820313,4263.077148,4327.05127,4270.512695,4272.94873,4278.333496,4282.436035,4280.897461,4270.641113,4567.820313,4515.0,4438.974121,4501.538574,,,,,,,,,,,,,,,,,,,,,,,,,,,,,,,,,,,,,,,,,,,,,,,,,,,,,,,,,,,,,,,,,,,,,,
1769161425.814409,1769161425.815034,107.0,0.0,4200.512695,4263.461426,4263.077148,4323.205078,4266.282227,4268.846191,4277.94873,4280.512695,4276.794922,4260.769043,4556.025879,4505.512695,4427.563965,4491.153809,,,,,,,,,,,,,,,,,,,,,,,,,,,,,,,,,,,,,,,,,,,,,,,,,,,,,,,,,,,,,,,,,,,,,,
1769161425.822218,1769161425.822642,108.0,0.0,4200.897461,4263.333496,4262.436035,4312.820313,4263.717773,4263.333496,4274.615234,4281.538574,4277.563965,4261.538574,4553.717773,4508.077148,4427.820313,4490.256348,,,,,,,,,,,,,,,,,,,,,,,,,,,,,,,,,,,,,,,,,,,,,,,,,,,,,,,,,,,,,,,,,,,,,,
1769161425.830026,1769161425.830451,109.0,0.0,4198.205078,4264.871582,4262.179688,4312.820313,4268.077148,4268.333496,4277.307617,4286.025879,4279.743652,4266.153809,4557.179688,4512.820313,4430.897461,4493.589844,,,,,,,,,,,,,,,,,,,,,,,,,,,,,,,,,,,,,,,,,,,,,,,,,,,,,,,,,,,,,,,,,,,,,,
1769161425.837834,1769161425.838359,110.0,0.0,4195.512695,4261.538574,4262.692383,4319.358887,4268.077148,4274.102539,4279.230957,4288.846191,4278.333496,4264.230957,4556.410156,4509.615234,4420.769043,4487.820313,0.307685,0.454096,0.549116,0.170278,0.224302,0.475493,0.32565,0.575916,0.166815,0.182647,0.340663,0.113528,0.275599,0.238603,0.080873,0.349126,0.169055,0.445502,0.134112,0.117644,0.375994,0.202269,0.163932,0.116671,0.103401,0.29047,0.141204,0.146269,0.152531,0.129447,0.180202,0.148963,0.27287,0.160516,0.14827,0.190781,0.127377,0.155196,0.099305,0.18388,0.285753,0.393341,0.352189,0.179386,0.156126,0.203585,0.382589,0.224826,0.254069,0.366308,0.297118,0.240728,0.430074,0.201764,0.138517,0.471862,0.286105,0.363059,0.208352,0.130916,0.72155,0.396068,0.62952,0.361854,0.322902,0.325773,0.361882,0.707378,0.247212,0.20673
1769161425.845643,1769161425.846168,111.0,0.0,4198.461426,4261.153809,4266.153809,4321.410156,4266.794922,4276.410156,4280.512695,4283.717773,4273.589844,4261.410156,4551.922852,4502.05127,4412.307617,4474.615234,,,,,,,,,,,,,,,,,,,,,,,,,,,,,,,,,,,,,,,,,,,,,,,,,,,,,,,,,,,,,,,,,,,,,,
1769161425.853451,1769161425.854176,112.0,0.0,4201.538574,4265.641113,4270.384766,4322.563965,4272.179688,4274.871582,4279.871582,4281.538574,4272.820313,4262.05127,4552.179688,4501.922852,4422.563965,4477.05127,,,,,,,,,,,,,,,,,,,,,,,,,,,,,,,,,,,,,,,,,,,,,,,,,,,,,,,,,,,,,,,,,,,,,,
1769161425.86126,1769161425.861984,113.0,0.0,4203.077148,4268.717773,4274.230957,4325.897461,4272.436035,4271.538574,4275.641113,4287.179688,4280.769043,4262.692383,4555.769043,4508.717773,4429.615234,4491.538574,,,,,,,,,,,,,,,,,,,,,,,,,,,,,,,,,,,,,,,,,,,,,,,,,,,,,,,,,,,,,,,,,,,,,,
1769161425.869068,1769161425.869893,114.0,0.0,4203.333496,4267.179688,4272.307617,4326.410156,4264.871582,4273.077148,4275.128418,4283.974121,4279.358887,4264.230957,4560.384766,4511.666504,4420.769043,4495.512695,,,,,,,,,,,,,,,,,,,,,,,,,,,,,,,,,,,,,,,,,,,,,,,,,,,,,,,,,,,,,,,,,,,,,,
1769161425.876877,1769161425.877701,115.0,0.0,4201.153809,4265.512695,4268.077148,4323.589844,4263.846191,4276.025879,4276.025879,4278.974121,4266.025879,4264.615234,4554.358887,4507.179688,4414.871582,4482.692383,,,,,,,,,,,,,,,,,,,,,,,,,,,,,,,,,,,,,,,,,,,,,,,,,,,,,,,,,,,,,,,,,,,,,,
1769161425.884685,1769161425.88531,116.0,0.0,4199.871582,4265.384766,4271.410156,4322.307617,4267.820313,4277.436035,4278.974121,4287.692383,4265.641113,4260.769043,4541.666504,4503.589844,4412.436035,4472.436035,,,,,,,,,,,,,,,,,,,,,,,,,,,,,,,,,,,,,,,,,,,,,,,,,,,,,,,,,,,,,,,,,,,,,,
1769161425.892494,1769161425.893118,117.0,0.0,4200.256348,4265.256348,4280.0,4324.230957,4267.436035,4277.05127,4280.897461,4290.641113,4276.538574,4261.282227,4543.717773,4505.897461,4408.974121,4480.641113,,,,,,,,,,,,,,,,,,,,,,,,,,,,,,,,,,,,,,,,,,,,,,,,,,,,,,,,,,,,,,,,,,,,,,
1769161425.900302,1769161425.901027,118.0,0.0,4200.0,4265.384766,4281.794922,4326.922852,4267.179688,4277.05127,4278.846191,4282.436035,4278.077148,4266.282227,4555.512695,4508.846191,4419.743652,4494.358887,,,,,,,,,,,,,,,,,,,,,,,,,,,,,,,,,,,,,,,,,,,,,,,,,,,,,,,,,,,,,,,,,,,,,,
1769161425.908111,1769161425.908835,119.0,0.0,4203.717773,4266.153809,4277.563965,4325.641113,4266.410156,4278.077148,4277.179688,4279.230957,4271.922852,4265.0,4557.94873,4509.230957,4429.743652,4495.128418,,,,,,,,,,,,,,,,,,,,,,,,,,,,,,,,,,,,,,,,,,,,,,,,,,,,,,,,,,,,,,,,,,,,,,
1769161425.915919,1769161425.916444,120.0,0.0,4210.512695,4267.820313,4278.461426,4325.769043,4264.871582,4278.333496,4276.282227,4279.615234,4266.922852,4263.077148,4548.205078,4508.205078,4418.589844,4484.487305,,,,,,,,,,,,,,,,,,,,,,,,,,,,,,,,,,,,,,,,,,,,,,,,,,,,,,,,,,,,,,,,,,,,,,
1769161425.923727,1769161425.924252,121.0,0.0,4208.589844,4267.692383,4281.794922,4325.897461,4264.743652,4276.410156,4276.025879,4278.717773,4264.487305,4263.717773,4541.153809,4507.05127,4409.358887,4477.94873,,,,,,,,,,,,,,,,,,,,,,,,,,,,,,,,,,,,,,,,,,,,,,,,,,,,,,,,,,,,,,,,,,,,,,
1769161425.931536,1769161425.931961,122.0,0.0,4201.410156,4263.589844,4281.666504,4323.589844,4263.205078,4278.077148,4278.974121,4279.871582,4265.384766,4261.153809,4540.769043,4507.179688,4412.692383,4476.538574,,,,,,,,,,,,,,,,,,,,,,,,,,,,,,,,,,,,,,,,,,,,,,,,,,,,,,,,,,,,,,,,,,,,,,
1769161425.939344,1769161425.939769,123.0,0.0,4201.410156,4262.436035,4280.0,4322.563965,4260.641113,4281.410156,4279.743652,4277.94873,4263.846191,4262.94873,4541.153809,4507.94873,4412.436035,4477.436035,,,,,,,,,,,,,,,,,,,,,,,,,,,,,,,,,,,,,,,,,,,,,,,,,,,,,,,,,,,,,,,,,,,,,,
1769161425.947153,1769161425.947378,124.0,0.0,4202.05127,4266.153809,4280.256348,4321.153809,4260.256348,4277.692383,4275.256348,4277.436035,4266.794922,4262.436035,4544.615234,4508.077148,4410.769043,4477.820313,,,,,,,,,,,,,,,,,,,,,,,,,,,,,,,,,,,,,,,,,,,,,,,,,,,,,,,,,,,,,,,,,,,,,,
1769161425.954961,1769161425.955186,125.0,0.0,4199.743652,4266.410156,4280.641113,4321.794922,4263.589844,4273.846191,4274.615234,4284.102539,4275.641113,4251.666504,4549.871582,4505.897461,4412.307617,4471.025879,,,,,,,,,,,,,,,,,,,,,,,,,,,,,,,,,,,,,,,,,,,,,,,,,,,,,,,,,,,,,,,,,,,,,,
1769161425.96277,1769161425.963095,126.0,0.0,4200.769043,4263.333496,4278.077148,4325.256348,4265.769043,4277.820313,4278.333496,4283.974121,4269.871582,4249.871582,4544.102539,4497.820313,4404.743652,4460.897461,0.276061,0.384942,0.6297,0.199201,0.224327,0.521904,0.275091,0.662886,0.200718,0.18976,0.284203,0.09478,0.247262,0.255241,0.080693,0.348112,0.126846,0.448059,0.145256,0.116719,0.326956,0.16717,0.147981,0.117305,0.095717,0.263946,0.137188,0.126616,0.151193,0.118038,0.182176,0.142425,0.25095,0.158761,0.153961,0.221394,0.160215,0.16705,0.101599,0.204688,0.3706,0.38615,0.35959,0.174113,0.147129,0.201092,0.423919,0.257915,0.2464,0.387324,0.29405,0.289148,0.367253,0.226827,0.13998,0.408064,0.273935,0.293373,0.206863,0.123356,0.700079,0.414671,0.549653,0.364784,0.299759,0.32864,0.338955,0.626175,0.2585,0.201432
1769161425.970578,1769161425.970903,127.0,0.0,4201.410156,4262.436035,4276.282227,4323.846191,4265.769043,4281.025879,4278.589844,4277.563965,4257.820313,4260.897461,4526.922852,4486.922852,4395.641113,4452.307617,,,,,,,,,,,,,,,,,,,,,,,,,,,,,,,,,,,,,,,,,,,,,,,,,,,,,,,,,,,,,,,,,,,,,,
1769161425.978387,1769161425.978512,0.0,0.0,4197.820313,4263.589844,4277.05127,4319.230957,4264.871582,4278.461426,4277.94873,4279.102539,4261.538574,4261.666504,4521.410156,4485.128418,4395.128418,4443.974121,,,,,,,,,,,,,,,,,,,,,,,,,,,,,,,,,,,,,,,,,,,,,,,,,,,,,,,,,,,,,,,,,,,,,,
1769161425.986195,1769161425.98632,1.0,0.0,4197.820313,4262.94873,4280.384766,4320.641113,4263.717773,4278.974121,4279.743652,4281.153809,4266.153809,4255.769043,4530.897461,4488.333496,4395.641113,4439.743652,,,,,,,,,,,,,,,,,,,,,,,,,,,,,,,,,,,,,,,,,,,,,,,,,,,,,,,,,,,,,,,,,,,,,,
1769161425.994003,1769161425.994029,2.0,0.0,4199.358887,4261.538574,4285.128418,4324.871582,4264.871582,4282.05127,4279.871582,4277.436035,4262.820313,4259.230957,4537.436035,4490.128418,4398.717773,4448.717773,,,,,,,,,,,,,,,,,,,,,,,,,,,,,,,,,,,,,,,,,,,,,,,,,,,,,,,,,,,,,,,,,,,,,,
1769161426.001812,1769161426.001837,3.0,0.0,4202.05127,4267.94873,4290.512695,4328.717773,4268.205078,4281.282227,4277.692383,4280.0,4269.615234,4263.846191,4539.743652,4499.615234,4407.692383,4461.922852,,,,,,,,,,,,,,,,,,,,,,,,,,,,,,,,,,,,,,,,,,,,,,,,,,,,,,,,,,,,,,,,,,,,,,
1769161426.00962,1769161426.009446,4.0,0.0,4208.589844,4276.794922,4292.307617,4330.641113,4266.666504,4280.384766,4278.589844,4284.871582,4279.358887,4264.615234,4540.256348,4505.0,4413.461426,4462.436035,,,,,,,,,,,,,,,,,,,,,,,,,,,,,,,,,,,,,,,,,,,,,,,,,,,,,,,,,,,,,,,,,,,,,,
1769161426.017429,1769161426.017254,5.0,0.0,4216.666504,4275.0,4292.692383,4328.717773,4261.794922,4280.512695,4280.384766,4283.589844,4277.179688,4266.025879,4540.0,4500.897461,4412.563965,4458.461426,,,,,,,,,,,,,,,,,,,,,,,,,,,,,,,,,,,,,,,,,,,,,,,,,,,,,,,,,,,,,,,,,,,,,,
1769161426.025237,1769161426.024963,6.0,0.0,4218.205078,4266.538574,4295.128418,4325.512695,4262.307617,4279.615234,4281.538574,4286.410156,4274.102539,4266.153809,4545.512695,4504.102539,4412.05127,4463.846191,,,,,,,,,,,,,,,,,,,,,,,,,,,,,,,,,,,,,,,,,,,,,,,,,,,,,,,,,,,,,,,,,,,,,,
1769161426.033046,1769161426.032771,7.0,0.0,4214.487305,4262.692383,4293.974121,4324.871582,4264.102539,4280.0,4284.102539,4294.615234,4280.384766,4266.282227,4553.717773,4512.179688,4412.820313,4466.282227,,,,,,,,,,,,,,,,,,,,,,,,,,,,,,,,,,,,,,,,,,,,,,,,,,,,,,,,,,,,,,,,,,,,,,
1769161426.040854,1769161426.040779,8.0,0.0,4215.0,4267.820313,4291.666504,4326.282227,4262.94873,4281.666504,4282.179688,4291.410156,4280.256348,4264.615234,4554.102539,4510.256348,4411.025879,4460.0,,,,,,,,,,,,,,,,,,,,,,,,,,,,,,,,,,,,,,,,,,,,,,,,,,,,,,,,,,,,,,,,,,,,,,
1769161426.048663,1769161426.048588,9.0,0.0,4219.230957,4273.717773,4291.025879,4327.307617,4262.05127,4279.102539,4275.256348,4278.717773,4267.436035,4262.05127,4549.487305,4504.871582,4410.384766,4464.615234,,,,,,,,,,,,,,,,,,,,,,,,,,,,,,,,,,,,,,,,,,,,,,,,,,,,,,,,,,,,,,,,,,,,,,
1769161426.056471,1769161426.056496,10.0,0.0,4218.974121,4270.512695,4289.743652,4325.384766,4262.179688,4276.025879,4274.487305,4275.769043,4265.0,4263.461426,4553.205078,4506.410156,4413.717773,4476.794922,,,,,,,,,,,,,,,,,,,,,,,,,,,,,,,,,,,,,,,,,,,,,,,,,,,,,,,,,,,,,,,,,,,,,,
1769161426.06428,1769161426.064305,11.0,0.0,4217.05127,4262.436035,4288.333496,4322.820313,4262.94873,4279.358887,4280.897461,4281.282227,4273.589844,4266.025879,4555.769043,4508.333496,4412.94873,4470.769043,,,,,,,,,,,,,,,,,,,,,,,,,,,,,,,,,,,,,,,,,,,,,,,,,,,,,,,,,,,,,,,,,,,,,,
1769161426.072088,1769161426.072313,12.0,0.0,4214.615234,4260.897461,4288.461426,4321.410156,4260.256348,4282.307617,4283.333496,4287.179688,4275.769043,4262.179688,4546.025879,4507.05127,4406.025879,4457.692383,,,,,,,,,,,,,,,,,,,,,,,,,,,,,,,,,,,,,,,,,,,,,,,,,,,,,,,,,,,,,,,,,,,,,,
1769161426.079897,1769161426.080121,13.0,0.0,4216.666504,4261.794922,4288.717773,4319.102539,4257.94873,4281.794922,4280.769043,4290.641113,4274.230957,4262.692383,4544.102539,4505.897461,4404.230957,4465.0,,,,,,,,,,,,,,,,,,,,,,,,,,,,,,,,,,,,,,,,,,,,,,,,,,,,,,,,,,,,,,,,,,,,,,
1769161426.087705,1769161426.08783,14.0,0.0,4222.820313,4261.153809,4291.538574,4321.538574,4258.077148,4281.025879,4280.384766,4288.205078,4277.563965,4272.820313,4555.256348,4510.0,4412.436035,4478.461426,0.235076,0.349405,0.690517,0.222569,0.227916,0.529921,0.227346,0.727471,0.22716,0.182958,0.233054,0.093382,0.222356,0.258555,0.083987,0.323923,0.100199,0.435715,0.154913,0.113988,0.290826,0.14615,0.140991,0.118401,0.088559,0.237154,0.128437,0.099756,0.149024,0.104568,0.184097,0.136838,0.216033,0.146439,0.159094,0.246641,0.197063,0.17114,0.10782,0.215608,0.470431,0.362569,0.347235,0.170494,0.132468,0.220378,0.450797,0.320248,0.246255,0.392692,0.319245,0.33428,0.336139,0.246747,0.136769,0.351611,0.255006,0.240125,0.217123,0.1184,0.637079,0.421681,0.476636,0.341941,0.267975,0.321993,0.299212,0.543044,0.262618,0.19769
1769161426.095513,1769161426.095638,15.0,0.0,4222.563965,4269.358887,4295.384766,4327.94873,4254.102539,4280.256348,4282.820313,4283.205078,4279.487305,4275.128418,4559.615234,4513.205078,4416.538574,4475.512695,,,,,,,,,,,,,,,,,,,,,,,,,,,,,,,,,,,,,,,,,,,,,,,,,,,,,,,,,,,,,,,,,,,,,,
1769161426.103322,1769161426.103647,16.0,0.0,4222.436035,4275.641113,4293.974121,4328.846191,4249.358887,4279.102539,4282.307617,4279.230957,4276.410156,4265.769043,4549.871582,4508.077148,4409.487305,4463.077148,,,,,,,,,,,,,,,,,,,,,,,,,,,,,,,,,,,,,,,,,,,,,,,,,,,,,,,,,,,,,,,,,,,,,,
1769161426.11113,1769161426.111455,17.0,0.0,4230.384766,4268.589844,4293.077148,4326.666504,4251.410156,4277.820313,4277.307617,4277.820313,4273.589844,4261.666504,4546.282227,4505.0,4405.769043,4455.128418,,,,,,,,,,,,,,,,,,,,,,,,,,,,,,,,,,,,,,,,,,,,,,,,,,,,,,,,,,,,,,,,,,,,,,
1769161426.118939,1769161426.119164,18.0,0.0,4233.974121,4266.410156,4295.384766,4325.641113,4252.94873,4277.179688,4281.666504,4286.538574,4278.461426,4265.0,4555.384766,4513.333496,4413.205078,4458.846191,,,,,,,,,,,,,,,,,,,,,,,,,,,,,,,,,,,,,,,,,,,,,,,,,,,,,,,,,,,,,,,,,,,,,,
1769161426.126747,1769161426.126972,19.0,0.0,4228.717773,4269.230957,4293.974121,4324.871582,4249.358887,4280.512695,4291.538574,4295.769043,4282.94873,4266.538574,4555.641113,4520.641113,4414.487305,4462.94873,,,,,,,,,,,,,,,,,,,,,,,,,,,,,,,,,,,,,,,,,,,,,,,,,,,,,,,,,,,,,,,,,,,,,,
1769161426.134556,1769161426.134581,20.0,0.0,4227.820313,4269.615234,4290.256348,4325.256348,4248.846191,4283.589844,4287.94873,4285.897461,4272.820313,4264.871582,4543.717773,4511.794922,4402.692383,4459.487305,,,,,,,,,,,,,,,,,,,,,,,,,,,,,,,,,,,,,,,,,,,,,,,,,,,,,,,,,,,,,,,,,,,,,,
1769161426.142364,1769161426.142389,21.0,0.0,4232.307617,4271.025879,4292.692383,4325.512695,4250.128418,4280.769043,4278.077148,4277.436035,4268.205078,4257.05127,4538.589844,4502.179688,4400.128418,4454.487305,,,,,,,,,,,,,,,,,,,,,,,,,,,,,,,,,,,,,,,,,,,,,,,,,,,,,,,,,,,,,,,,,,,,,,
1769161426.150173,1769161426.150098,22.0,0.0,4229.358887,4271.410156,4294.743652,4326.410156,4249.743652,4277.820313,4277.94873,4285.641113,4277.692383,4254.487305,4542.692383,4511.794922,4407.692383,4456.410156,,,,,,,,,,,,,,,,,,,,,,,,,,,,,,,,,,,,,,,,,,,,,,,,,,,,,,,,,,,,,,,,,,,,,,
1769161426.157981,1769161426.157906,23.0,0.0,4222.307617,4265.0,4286.922852,4325.769043,4249.743652,4279.743652,4280.769043,4291.794922,4281.410156,4263.589844,4541.410156,4520.897461,4402.94873,4462.05127,,,,,,,,,,,,,,,,,,,,,,,,,,,,,,,,,,,,,,,,,,,,,,,,,,,,,,,,,,,,,,,,,,,,,,
1769161426.165789,1769161426.165914,24.0,0.0,4218.974121,4260.641113,4278.205078,4317.307617,4247.436035,4281.922852,4279.102539,4291.025879,4278.333496,4265.641113,4538.077148,4511.538574,4392.94873,4456.922852,,,,,,,,,,,,,,,,,,,,,,,,,,,,,,,,,,,,,,,,,,,,,,,,,,,,,,,,,,,,,,,,,,,,,,
1769161426.173598,1769161426.173723,25.0,0.0,4217.94873,4263.461426,4279.230957,4313.205078,4245.256348,4282.563965,4285.256348,4288.461426,4277.436035,4258.717773,4537.563965,4503.333496,4392.692383,4444.102539,,,,,,,,,,,,,,,,,,,,,,,,,,,,,,,,,,,,,,,,,,,,,,,,,,,,,,,,,,,,,,,,,,,,,,
1769161426.181406,1769161426.181631,26.0,0.0,4217.820313,4264.743652,4284.743652,4321.410156,4246.025879,4282.307617,4292.820313,4283.461426,4276.282227,4259.871582,4539.487305,4509.487305,4396.282227,4445.0,,,,,,,,,,,,,,,,,,,,,,,,,,,,,,,,,,,,,,,,,,,,,,,,,,,,,,,,,,,,,,,,,,,,,,
1769161426.189215,1769161426.18944,27.0,0.0,4225.769043,4264.871582,4286.922852,4327.307617,4246.794922,4279.615234,4286.153809,4278.333496,4271.410156,4266.282227,4545.0,4518.717773,4398.333496,4458.205078,,,,,,,,,,,,,,,,,,,,,,,,,,,,,,,,,,,,,,,,,,,,,,,,,,,,,,,,,,,,,,,,,,,,,,
1769161426.197023,1769161426.197048,28.0,0.0,4234.743652,4264.487305,4289.743652,4324.615234,4246.282227,4278.461426,4277.436035,4277.307617,4268.589844,4263.717773,4548.974121,4521.922852,4399.487305,4463.461426,,,,,,,,,,,,,,,,,,,,,,,,,,,,,,,,,,,,,,,,,,,,,,,,,,,,,,,,,,,,,,,,,,,,,,
1769161426.204832,1769161426.204857,29.0,0.0,4233.077148,4264.743652,4290.256348,4322.179688,4245.128418,4282.436035,4283.974121,4280.897461,4271.282227,4259.230957,4550.128418,4522.436035,4394.871582,4461.282227,,,,,,,,,,,,,,,,,,,,,,,,,,,,,,,,,,,,,,,,,,,,,,,,,,,,,,,,,,,,,,,,,,,,,,
1769161426.21264,1769161426.212565,30.0,0.0,4228.333496,4263.974121,4283.461426,4321.794922,4244.230957,4282.436035,4291.410156,4281.282227,4276.794922,4261.025879,4552.307617,4521.025879,4395.512695,4461.922852,0.20216,0.340686,0.702901,0.239744,0.235524,0.4938,0.18148,0.743756,0.238431,0.165929,0.190107,0.097832,0.210786,0.246722,0.094798,0.280255,0.086803,0.404993,0.158217,0.110799,0.268062,0.129675,0.137073,0.11788,0.083336,0.214427,0.115609,0.072656,0.146896,0.091967,0.185625,0.132112,0.180831,0.126854,0.159928,0.266488,0.223673,0.166362,0.114853,0.211635,0.571601,0.322097,0.316431,0.171757,0.116512,0.255424,0.466984,0.388722,0.249526,0.378933,0.365709,0.360828,0.327026,0.267668,0.130582,0.321973,0.232356,0.214913,0.240681,0.12053,0.538727,0.426908,0.406713,0.303136,0.238284,0.326056,0.25653,0.480156,0.261323,0.200008
1769161426.220449,1769161426.220374,31.0,0.0,4226.538574,4264.487305,4276.794922,4323.333496,4244.615234,4278.717773,4286.794922,4280.512695,4279.230957,4263.846191,4555.256348,4520.256348,4408.077148,4461.153809,,,,,,,,,,,,,,,,,,,,,,,,,,,,,,,,,,,,,,,,,,,,,,,,,,,,,,,,,,,,,,,,,,,,,,
1769161426.228257,1769161426.228382,32.0,0.0,4230.769043,4272.05127,4283.333496,4326.794922,4244.615234,4283.461426,4289.487305,4290.769043,4280.897461,4263.589844,4556.922852,4523.717773,4411.922852,4460.256348,,,,,,,,,,,,,,,,,,,,,,,,,,,,,,,,,,,,,,,,,,,,,,,,,,,,,,,,,,,,,,,,,,,,,,
1769161426.236066,1769161426.23619,33.0,0.0,4244.102539,4277.307617,4294.230957,4329.230957,4245.769043,4293.077148,4297.307617,4295.128418,4281.794922,4262.820313,4556.282227,4527.563965,4403.717773,4463.077148,,,,,,,,,,,,,,,,,,,,,,,,,,,,,,,,,,,,,,,,,,,,,,,,,,,,,,,,,,,,,,,,,,,,,,
1769161426.243874,1769161426.244099,34.0,0.0,4246.922852,4273.846191,4289.102539,4326.922852,4247.94873,4292.94873,4294.358887,4280.0,4277.563965,4263.717773,4552.94873,4524.743652,4399.743652,4462.436035,,,,,,,,,,,,,,,,,,,,,,,,,,,,,,,,,,,,,,,,,,,,,,,,,,,,,,,,,,,,,,,,,,,,,,
1769161426.251682,1769161426.251907,35.0,0.0,4234.487305,4268.846191,4280.897461,4323.974121,4248.717773,4289.615234,4289.615234,4277.307617,4276.153809,4265.384766,4554.743652,4522.820313,4404.487305,4460.384766,,,,,,,,,,,,,,,,,,,,,,,,,,,,,,,,,,,,,,,,,,,,,,,,,,,,,,,,,,,,,,,,,,,,,,
1769161426.259491,1769161426.259915,36.0,0.0,4228.589844,4267.563965,4279.615234,4324.743652,4248.205078,4294.358887,4292.820313,4290.128418,4278.974121,4263.333496,4556.282227,4526.410156,4405.256348,4463.077148,,,,,,,,,,,,,,,,,,,,,,,,,,,,,,,,,,,,,,,,,,,,,,,,,,,,,,,,,,,,,,,,,,,,,,
1769161426.267299,1769161426.267724,37.0,0.0,4230.512695,4264.871582,4273.461426,4319.615234,4246.153809,4295.769043,4297.563965,4288.077148,4281.153809,4260.256348,4545.641113,4519.615234,4397.179688,4457.05127,,,,,,,,,,,,,,,,,,,,,,,,,,,,,,,,,,,,,,,,,,,,,,,,,,,,,,,,,,,,,,,,,,,,,,
1769161426.275108,1769161426.275632,38.0,0.0,4232.307617,4262.94873,4264.615234,4314.230957,4244.871582,4286.666504,4292.179688,4278.589844,4278.846191,4262.692383,4537.179688,4507.692383,4392.179688,4448.077148,,,,,,,,,,,,,,,,,,,,,,,,,,,,,,,,,,,,,,,,,,,,,,,,,,,,,,,,,,,,,,,,,,,,,,
1769161426.282916,1769161426.283441,39.0,0.0,4233.974121,4265.0,4265.256348,4319.102539,4246.282227,4278.333496,4280.769043,4274.615234,4267.563965,4266.025879,4539.871582,4506.410156,4396.410156,4453.717773,,,,,,,,,,,,,,,,,,,,,,,,,,,,,,,,,,,,,,,,,,,,,,,,,,,,,,,,,,,,,,,,,,,,,,
1769161426.290725,1769161426.291449,40.0,0.0,4232.307617,4266.922852,4267.692383,4322.94873,4247.05127,4278.974121,4279.487305,4273.589844,4263.846191,4264.230957,4542.307617,4508.974121,4397.563965,4457.436035,,,,,,,,,,,,,,,,,,,,,,,,,,,,,,,,,,,,,,,,,,,,,,,,,,,,,,,,,,,,,,,,,,,,,,
1769161426.298533,1769161426.299257,41.0,0.0,4228.077148,4266.410156,4263.717773,4318.846191,4245.512695,4286.666504,4291.410156,4277.05127,4273.974121,4262.563965,4540.384766,4508.333496,4389.358887,4446.282227,,,,,,,,,,,,,,,,,,,,,,,,,,,,,,,,,,,,,,,,,,,,,,,,,,,,,,,,,,,,,,,,,,,,,,
1769161426.306342,1769161426.306966,42.0,0.0,4227.05127,4265.0,4261.153809,4317.563965,4246.282227,4294.230957,4298.205078,4279.871582,4276.025879,4262.94873,4539.487305,4507.307617,4388.333496,4443.461426,,,,,,,,,,,,,,,,,,,,,,,,,,,,,,,,,,,,,,,,,,,,,,,,,,,,,,,,,,,,,,,,,,,,,,
1769161426.31415,1769161426.314774,43.0,0.0,4233.717773,4265.256348,4261.410156,4319.358887,4247.05127,4294.487305,4295.128418,4279.102539,4271.794922,4261.025879,4542.563965,4509.743652,4394.743652,4452.94873,,,,,,,,,,,,,,,,,,,,,,,,,,,,,,,,,,,,,,,,,,,,,,,,,,,,,,,,,,,,,,,,,,,,,,
1769161426.321958,1769161426.322383,44.0,0.0,4241.538574,4266.922852,4262.563965,4321.025879,4246.025879,4291.922852,4294.743652,4280.128418,4278.589844,4262.179688,4548.846191,4515.384766,4398.205078,4457.05127,,,,,,,,,,,,,,,,,,,,,,,,,,,,,,,,,,,,,,,,,,,,,,,,,,,,,,,,,,,,,,,,,,,,,,
1769161426.329767,1769161426.330191,45.0,0.0,4239.358887,4268.077148,4264.230957,4322.563965,4245.897461,4289.743652,4294.102539,4279.358887,4281.410156,4266.025879,4553.333496,4520.897461,4399.487305,4457.563965,,,,,,,,,,,,,,,,,,,,,,,,,,,,,,,,,,,,,,,,,,,,,,,,,,,,,,,,,,,,,,,,,,,,,,
1769161426.337575,1769161426.3379,46.0,0.0,4232.436035,4265.769043,4265.641113,4319.743652,4243.974121,4291.410156,4293.077148,4276.794922,4274.102539,4264.102539,4551.153809,4522.94873,4402.05127,4458.461426,0.172897,0.349328,0.655094,0.253681,0.242811,0.422046,0.143193,0.697942,0.235328,0.144739,0.156662,0.106977,0.215812,0.222592,0.113703,0.22881,0.083787,0.356664,0.153899,0.106795,0.258657,0.11125,0.128539,0.11273,0.079352,0.19751,0.102332,0.051097,0.143601,0.082176,0.183265,0.128323,0.155675,0.107629,0.154678,0.283688,0.228263,0.155974,0.121794,0.193791,0.653937,0.275918,0.276634,0.179109,0.104481,0.291055,0.482107,0.438028,0.250897,0.349245,0.425536,0.370017,0.328638,0.29976,0.12514,0.319778,0.221153,0.222679,0.275524,0.13164,0.431159,0.449008,0.344147,0.266517,0.218575,0.382975,0.237207,0.453304,0.265474,0.21174
1769161426.345384,1769161426.345708,47.0,0.0,4238.205078,4269.615234,4265.769043,4320.641113,4245.256348,4292.436035,4293.717773,4279.102539,4274.743652,4265.128418,4554.615234,4524.230957,4407.563965,4465.256348,,,,,,,,,,,,,,,,,,,,,,,,,,,,,,,,,,,,,,,,,,,,,,,,,,,,,,,,,,,,,,,,,,,,,,
1769161426.353192,1769161426.353317,48.0,0.0,4249.871582,4278.717773,4265.128418,4326.153809,4248.846191,4285.512695,4288.461426,4281.153809,4280.897461,4275.0,4563.717773,4525.512695,4412.94873,4474.358887,,,,,,,,,,,,,,,,,,,,,,,,,,,,,,,,,,,,,,,,,,,,,,,,,,,,,,,,,,,,,,,,,,,,,,
1769161426.361001,1769161426.361126,49.0,0.0,4251.922852,4280.512695,4271.538574,4326.922852,4247.05127,4281.922852,4284.102539,4282.05127,4280.256348,4281.282227,4567.436035,4528.717773,4413.589844,4475.641113,,,,,,,,,,,,,,,,,,,,,,,,,,,,,,,,,,,,,,,,,,,,,,,,,,,,,,,,,,,,,,,,,,,,,,
1769161426.368809,1769161426.369034,50.0,0.0,4250.512695,4279.743652,4281.410156,4326.538574,4246.282227,4289.358887,4288.461426,4286.794922,4278.461426,4279.230957,4570.0,4537.820313,4413.333496,4476.538574,,,,,,,,,,,,,,,,,,,,,,,,,,,,,,,,,,,,,,,,,,,,,,,,,,,,,,,,,,,,,,,,,,,,,,
1769161426.376618,1769161426.376842,51.0,0.0,4250.512695,4281.538574,4277.820313,4327.05127,4247.563965,4295.897461,4293.461426,4290.0,4278.846191,4277.563965,4570.128418,4541.922852,4414.871582,4480.0,,,,,,,,,,,,,,,,,,,,,,,,,,,,,,,,,,,,,,,,,,,,,,,,,,,,,,,,,,,,,,,,,,,,,,
1769161426.384426,1769161426.384851,52.0,0.0,4250.384766,4280.641113,4265.641113,4323.077148,4243.974121,4295.897461,4293.461426,4289.230957,4278.333496,4274.102539,4563.974121,4531.410156,4414.102539,4478.333496,,,,,,,,,,,,,,,,,,,,,,,,,,,,,,,,,,,,,,,,,,,,,,,,,,,,,,,,,,,,,,,,,,,,,,
1769161426.392234,1769161426.392659,53.0,0.0,4251.538574,4278.717773,4262.563965,4320.897461,4242.692383,4289.743652,4292.692383,4288.589844,4278.205078,4270.128418,4561.794922,4523.205078,4414.230957,4473.974121,,,,,,,,,,,,,,,,,,,,,,,,,,,,,,,,,,,,,,,,,,,,,,,,,,,,,,,,,,,,,,,,,,,,,,
1769161426.400043,1769161426.400368,54.0,0.0,4250.641113,4278.974121,4263.974121,4325.128418,4246.922852,4283.974121,4293.205078,4291.538574,4279.487305,4274.102539,4566.025879,4530.769043,4415.512695,4474.487305,,,,,,,,,,,,,,,,,,,,,,,,,,,,,,,,,,,,,,,,,,,,,,,,,,,,,,,,,,,,,,,,,,,,,,
1769161426.407851,1769161426.408176,55.0,0.0,4250.0,4278.077148,4261.794922,4326.794922,4246.410156,4289.102539,4295.384766,4296.282227,4280.897461,4272.692383,4566.025879,4537.820313,4414.358887,4475.769043,,,,,,,,,,,,,,,,,,,,,,,,,,,,,,,,,,,,,,,,,,,,,,,,,,,,,,,,,,,,,,,,,,,,,,
1769161426.41566,1769161426.415785,56.0,0.0,4249.358887,4278.589844,4262.692383,4325.256348,4245.256348,4289.487305,4294.102539,4293.461426,4281.410156,4262.05127,4564.487305,4533.717773,4414.743652,4475.769043,,,,,,,,,,,,,,,,,,,,,,,,,,,,,,,,,,,,,,,,,,,,,,,,,,,,,,,,,,,,,,,,,,,,,,
1769161426.423468,1769161426.423593,57.0,0.0,4248.846191,4280.897461,4264.358887,4325.512695,4249.230957,4281.025879,4290.384766,4288.846191,4279.615234,4267.05127,4567.563965,4532.563965,4417.436035,4475.897461,,,,,,,,,,,,,,,,,,,,,,,,,,,,,,,,,,,,,,,,,,,,,,,,,,,,,,,,,,,,,,,,,,,,,,
1769161426.431277,1769161426.431501,58.0,0.0,4252.179688,4279.871582,4262.05127,4323.717773,4246.282227,4284.102539,4293.717773,4293.717773,4277.563965,4281.666504,4569.230957,4539.102539,4417.563965,4477.05127,,,,,,,,,,,,,,,,,,,,,,,,,,,,,,,,,,,,,,,,,,,,,,,,,,,,,,,,,,,,,,,,,,,,,,
1769161426.439085,1769161426.43931,59.0,0.0,4255.769043,4276.025879,4258.846191,4318.205078,4237.94873,4289.615234,4296.410156,4296.282227,4281.922852,4282.436035,4565.512695,4539.615234,4417.179688,4473.974121,,,,,,,,,,,,,,,,,,,,,,,,,,,,,,,,,,,,,,,,,,,,,,,,,,,,,,,,,,,,,,,,,,,,,,
1769161426.446894,1769161426.447318,60.0,0.0,4258.846191,4274.871582,4260.641113,4318.974121,4242.563965,4282.436035,4290.769043,4297.820313,4291.153809,4282.692383,4567.820313,4537.179688,4422.563965,4474.615234,,,,,,,,,,,,,,,,,,,,,,,,,,,,,,,,,,,,,,,,,,,,,,,,,,,,,,,,,,,,,,,,,,,,,,
1769161426.454702,1769161426.455127,61.0,0.0,4263.974121,4278.717773,4265.769043,4324.230957,4247.692383,4278.461426,4288.846191,4305.384766,4296.922852,4293.333496,4578.846191,4541.282227,4429.615234,4490.641113,,,,,,,,,,,,,,,,,,,,,,,,,,,,,,,,,,,,,,,,,,,,,,,,,,,,,,,,,,,,,,,,,,,,,,
1769161426.46251,1769161426.463035,62.0,0.0,4266.922852,4280.256348,4265.641113,4324.358887,4237.563965,4281.410156,4293.461426,4303.205078,4293.077148,4290.641113,4579.871582,4541.922852,4429.230957,4494.487305,0.165533,0.372254,0.558757,0.268975,0.242859,0.333995,0.125065,0.598753,0.226286,0.124543,0.135153,0.129868,0.231879,0.194528,0.136228,0.187933,0.091298,0.296367,0.146053,0.100512,0.256835,0.090277,0.112806,0.101891,0.074666,0.184726,0.093684,0.038773,0.136373,0.075397,0.176218,0.124274,0.144182,0.096783,0.143393,0.301086,0.209642,0.147972,0.131607,0.168817,0.699732,0.24194,0.245109,0.19151,0.100494,0.320107,0.501321,0.450306,0.243826,0.310234,0.513412,0.371178,0.332022,0.346351,0.124301,0.361559,0.236872,0.258259,0.314434,0.15033,0.354055,0.50137,0.296654,0.248068,0.211396,0.547817,0.257522,0.462548,0.285656,0.232841
1769161426.470319,1769161426.470843,63.0,0.0,4264.358887,4275.641113,4262.692383,4321.922852,4234.615234,4280.897461,4294.230957,4293.589844,4284.871582,4280.128418,4571.666504,4542.179688,4425.641113,4478.846191,,,,,,,,,,,,,,,,,,,,,,,,,,,,,,,,,,,,,,,,,,,,,,,,,,,,,,,,,,,,,,,,,,,,,,
1769161426.478128,1769161426.478852,64.0,0.0,4262.436035,4272.436035,4263.589844,4322.05127,4244.102539,4281.922852,4294.230957,4294.615234,4281.666504,4280.897461,4571.538574,4545.641113,4427.820313,4479.102539,,,,,,,,,,,,,,,,,,,,,,,,,,,,,,,,,,,,,,,,,,,,,,,,,,,,,,,,,,,,,,,,,,,,,,
1769161426.485936,1769161426.48666,65.0,0.0,4263.333496,4275.512695,4265.0,4323.717773,4246.153809,4282.563965,4295.256348,4297.179688,4282.820313,4275.641113,4574.102539,4546.282227,4425.384766,4492.563965,,,,,,,,,,,,,,,,,,,,,,,,,,,,,,,,,,,,,,,,,,,,,,,,,,,,,,,,,,,,,,,,,,,,,,
1769161426.493744,1769161426.494369,66.0,0.0,4263.846191,4277.179688,4262.94873,4323.846191,4243.461426,4279.230957,4294.615234,4293.333496,4281.922852,4268.589844,4569.230957,4542.692383,4418.974121,4490.0,,,,,,,,,,,,,,,,,,,,,,,,,,,,,,,,,,,,,,,,,,,,,,,,,,,,,,,,,,,,,,,,,,,,,,
1769161426.501553,1769161426.502177,67.0,0.0,4267.307617,4276.922852,4262.563965,4322.179688,4245.897461,4279.871582,4293.461426,4291.794922,4280.897461,4279.487305,4570.384766,4543.205078,4423.717773,4486.153809,,,,,,,,,,,,,,,,,,,,,,,,,,,,,,,,,,,,,,,,,,,,,,,,,,,,,,,,,,,,,,,,,,,,,,
1769161426.509361,1769161426.509786,68.0,0.0,4268.589844,4276.153809,4265.641113,4321.538574,4248.205078,4281.666504,4291.922852,4286.282227,4278.846191,4283.333496,4574.102539,4543.717773,4425.769043,4488.077148,,,,,,,,,,,,,,,,,,,,,,,,,,,,,,,,,,,,,,,,,,,,,,,,,,,,,,,,,,,,,,,,,,,,,,
1769161426.51717,1769161426.517594,69.0,0.0,4264.102539,4270.512695,4264.102539,4322.563965,4244.615234,4282.05127,4292.05127,4274.871582,4271.922852,4265.641113,4564.230957,4538.589844,4414.615234,4479.743652,,,,,,,,,,,,,,,,,,,,,,,,,,,,,,,,,,,,,,,,,,,,,,,,,,,,,,,,,,,,,,,,,,,,,,
1769161426.524978,1769161426.525303,70.0,0.0,4265.384766,4267.436035,4264.230957,4322.563965,4241.025879,4286.794922,4293.717773,4277.820313,4272.179688,4262.820313,4559.743652,4543.846191,4410.128418,4478.846191,,,,,,,,,,,,,,,,,,,,,,,,,,,,,,,,,,,,,,,,,,,,,,,,,,,,,,,,,,,,,,,,,,,,,,
1769161426.532787,1769161426.533111,71.0,0.0,4274.230957,4274.487305,4271.153809,4323.205078,4241.410156,4290.0,4295.128418,4287.692383,4281.666504,4276.153809,4567.94873,4551.794922,4414.871582,4487.05127,,,,,,,,,,,,,,,,,,,,,,,,,,,,,,,,,,,,,,,,,,,,,,,,,,,,,,,,,,,,,,,,,,,,,,
1769161426.540595,1769161426.54072,72.0,0.0,4277.692383,4280.384766,4272.692383,4324.615234,4244.871582,4283.974121,4295.128418,4283.974121,4282.436035,4275.897461,4570.512695,4547.692383,4413.589844,4483.077148,,,,,,,,,,,,,,,,,,,,,,,,,,,,,,,,,,,,,,,,,,,,,,,,,,,,,,,,,,,,,,,,,,,,,,
1769161426.548404,1769161426.548528,73.0,0.0,4271.794922,4277.563965,4265.256348,4324.230957,4246.666504,4277.436035,4294.743652,4282.436035,4277.436035,4273.589844,4566.538574,4549.358887,4412.563965,4477.05127,,,,,,,,,,,,,,,,,,,,,,,,,,,,,,,,,,,,,,,,,,,,,,,,,,,,,,,,,,,,,,,,,,,,,,
1769161426.556212,1769161426.556237,74.0,0.0,4266.153809,4274.487305,4261.025879,4321.538574,4247.820313,4279.230957,4293.333496,4288.717773,4281.666504,4280.769043,4569.615234,4555.512695,4416.153809,4480.256348,,,,,,,,,,,,,,,,,,,,,,,,,,,,,,,,,,,,,,,,,,,,,,,,,,,,,,,,,,,,,,,,,,,,,,
1769161426.564021,1769161426.564045,75.0,0.0,4266.153809,4273.205078,4261.794922,4319.102539,4247.820313,4285.384766,4292.820313,4284.230957,4281.922852,4277.94873,4568.589844,4548.077148,4412.307617,4478.077148,,,,,,,,,,,,,,,,,,,,,,,,,,,,,,,,,,,,,,,,,,,,,,,,,,,,,,,,,,,,,,,,,,,,,,
1769161426.571829,1769161426.572053,76.0,0.0,4269.358887,4274.358887,4260.897461,4321.282227,4246.025879,4287.563965,4297.307617,4275.641113,4269.615234,4267.820313,4556.153809,4535.128418,4403.589844,4467.436035,,,,,,,,,,,,,,,,,,,,,,,,,,,,,,,,,,,,,,,,,,,,,,,,,,,,,,,,,,,,,,,,,,,,,,
1769161426.579637,1769161426.579862,77.0,0.0,4274.615234,4278.846191,4261.538574,4326.153809,4247.563965,4282.692383,4295.0,4274.358887,4263.333496,4268.974121,4551.794922,4536.666504,4404.615234,4467.179688,,,,,,,,,,,,,,,,,,,,,,,,,,,,,,,,,,,,,,,,,,,,,,,,,,,,,,,,,,,,,,,,,,,,,,
1769161426.587446,1769161426.58777,78.0,0.0,4279.615234,4281.794922,4264.615234,4329.102539,4249.487305,4276.538574,4281.794922,4273.846191,4265.512695,4268.077148,4557.692383,4541.025879,4415.384766,4475.128418,0.174976,0.41191,0.439395,0.28804,0.230768,0.251979,0.136345,0.469614,0.220814,0.107867,0.133877,0.180926,0.245234,0.173878,0.154717,0.166888,0.111255,0.231947,0.141086,0.090808,0.255508,0.070577,0.091325,0.087244,0.06779,0.174355,0.093782,0.040799,0.124453,0.071438,0.165013,0.119766,0.144102,0.098962,0.128495,0.313256,0.177857,0.149496,0.147686,0.14597,0.684864,0.231702,0.23516,0.20621,0.10549,0.327762,0.522168,0.423582,0.224648,0.268857,0.647103,0.377286,0.331826,0.398946,0.129859,0.444859,0.287219,0.305401,0.346704,0.171958,0.327077,0.583509,0.266097,0.250741,0.214261,0.835765,0.313408,0.489277,0.322576,0.259072
1769161426.595254,1769161426.595579,79.0,0.0,4281.410156,4280.256348,4265.256348,4328.461426,4247.563965,4278.333496,4281.282227,4276.922852,4264.358887,4259.743652,4558.461426,4539.487305,4413.205078,4476.666504,,,,,,,,,,,,,,,,,,,,,,,,,,,,,,,,,,,,,,,,,,,,,,,,,,,,,,,,,,,,,,,,,,,,,,
1769161426.603063,1769161426.603187,80.0,0.0,4278.205078,4277.436035,4261.282227,4326.282227,4245.641113,4281.153809,4291.410156,4275.641113,4260.256348,4262.692383,4552.436035,4536.794922,4400.769043,4473.077148,,,,,,,,,,,,,,,,,,,,,,,,,,,,,,,,,,,,,,,,,,,,,,,,,,,,,,,,,,,,,,,,,,,,,,
1769161426.610871,1769161426.610996,81.0,0.0,4278.077148,4282.563965,4258.589844,4325.256348,4247.179688,4280.256348,4287.692383,4265.0,4258.974121,4268.077148,4550.256348,4534.743652,4401.666504,4472.179688,,,,,,,,,,,,,,,,,,,,,,,,,,,,,,,,,,,,,,,,,,,,,,,,,,,,,,,,,,,,,,,,,,,,,,
1769161426.61868,1769161426.618704,82.0,0.0,4283.205078,4288.846191,4262.436035,4328.717773,4250.128418,4278.205078,4278.717773,4266.538574,4261.922852,4264.358887,4554.102539,4535.384766,4411.153809,4476.410156,,,,,,,,,,,,,,,,,,,,,,,,,,,,,,,,,,,,,,,,,,,,,,,,,,,,,,,,,,,,,,,,,,,,,,
1769161426.626488,1769161426.626513,83.0,0.0,4283.589844,4285.0,4260.769043,4332.179688,4250.769043,4275.512695,4283.974121,4274.102539,4267.436035,4267.436035,4557.563965,4535.512695,4414.230957,4477.820313,,,,,,,,,,,,,,,,,,,,,,,,,,,,,,,,,,,,,,,,,,,,,,,,,,,,,,,,,,,,,,,,,,,,,,
1769161426.634297,1769161426.634521,84.0,0.0,4278.077148,4280.384766,4252.307617,4328.717773,4250.0,4278.461426,4293.333496,4271.794922,4268.589844,4272.05127,4556.666504,4533.974121,4409.230957,4472.179688,,,,,,,,,,,,,,,,,,,,,,,,,,,,,,,,,,,,,,,,,,,,,,,,,,,,,,,,,,,,,,,,,,,,,,
1769161426.642105,1769161426.64233,85.0,0.0,4275.512695,4283.077148,4249.743652,4326.025879,4252.563965,4284.102539,4293.974121,4273.333496,4266.282227,4267.05127,4556.025879,4534.743652,4406.922852,4468.589844,,,,,,,,,,,,,,,,,,,,,,,,,,,,,,,,,,,,,,,,,,,,,,,,,,,,,,,,,,,,,,,,,,,,,,
1769161426.649913,1769161426.650238,86.0,0.0,4276.025879,4282.05127,4250.256348,4327.05127,4254.487305,4288.461426,4293.461426,4281.410156,4271.666504,4270.128418,4558.333496,4535.512695,4408.077148,4471.794922,,,,,,,,,,,,,,,,,,,,,,,,,,,,,,,,,,,,,,,,,,,,,,,,,,,,,,,,,,,,,,,,,,,,,,
1769161426.657722,1769161426.658046,87.0,0.0,4276.025879,4276.025879,4247.94873,4325.512695,4252.179688,4288.461426,4294.487305,4282.692383,4276.922852,4280.256348,4561.410156,4534.615234,4409.230957,4475.384766,,,,,,,,,,,,,,,,,,,,,,,,,,,,,,,,,,,,,,,,,,,,,,,,,,,,,,,,,,,,,,,,,,,,,,
1769161426.66553,1769161426.666055,88.0,0.0,4275.897461,4279.487305,4248.077148,4322.692383,4250.641113,4283.461426,4292.436035,4277.94873,4277.820313,4279.615234,4566.282227,4538.846191,4417.179688,4476.922852,,,,,,,,,,,,,,,,,,,,,,,,,,,,,,,,,,,,,,,,,,,,,,,,,,,,,,,,,,,,,,,,,,,,,,
1769161426.673339,1769161426.673863,89.0,0.0,4277.563965,4286.025879,4249.487305,4323.717773,4251.538574,4278.333496,4292.820313,4278.846191,4278.846191,4280.641113,4572.563965,4545.512695,4424.230957,4478.589844,,,,,,,,,,,,,,,,,,,,,,,,,,,,,,,,,,,,,,,,,,,,,,,,,,,,,,,,,,,,,,,,,,,,,,
1769161426.681147,1769161426.681572,90.0,0.0,4278.461426,4284.615234,4250.256348,4325.897461,4250.641113,4280.128418,4290.128418,4278.846191,4271.922852,4283.205078,4571.666504,4545.128418,4419.358887,4478.077148,,,,,,,,,,,,,,,,,,,,,,,,,,,,,,,,,,,,,,,,,,,,,,,,,,,,,,,,,,,,,,,,,,,,,,
1769161426.688956,1769161426.68938,91.0,0.0,4276.410156,4281.025879,4252.692383,4324.743652,4250.897461,4283.333496,4283.205078,4270.0,4264.615234,4270.0,4564.871582,4538.077148,4409.230957,4476.282227,,,,,,,,,,,,,,,,,,,,,,,,,,,,,,,,,,,,,,,,,,,,,,,,,,,,,,,,,,,,,,,,,,,,,,
1769161426.696764,1769161426.696989,92.0,0.0,4275.512695,4285.0,4250.897461,4322.563965,4250.512695,4280.128418,4284.743652,4266.922852,4272.05127,4267.179688,4566.025879,4535.384766,4410.512695,4475.128418,,,,,,,,,,,,,,,,,,,,,,,,,,,,,,,,,,,,,,,,,,,,,,,,,,,,,,,,,,,,,,,,,,,,,,
1769161426.704573,1769161426.704797,93.0,0.0,4278.589844,4291.794922,4248.461426,4322.820313,4248.846191,4283.333496,4296.666504,4278.974121,4281.410156,4288.205078,4572.179688,4544.358887,4421.282227,4475.0,,,,,,,,,,,,,,,,,,,,,,,,,,,,,,,,,,,,,,,,,,,,,,,,,,,,,,,,,,,,,,,,,,,,,,
1769161426.712381,1769161426.712506,94.0,0.0,4284.358887,4289.487305,4255.128418,4326.410156,4254.230957,4291.153809,4299.871582,4286.538574,4280.128418,4296.794922,4572.692383,4554.230957,4427.692383,4482.179688,0.20565,0.472771,0.326089,0.308827,0.207168,0.201963,0.175364,0.341243,0.223021,0.094763,0.167439,0.268338,0.243434,0.168868,0.162157,0.165896,0.143785,0.171001,0.141795,0.078179,0.250052,0.056394,0.068499,0.071167,0.059166,0.166552,0.101449,0.06321,0.110346,0.070712,0.148172,0.11583,0.152372,0.113233,0.114258,0.318265,0.148521,0.163027,0.170942,0.132388,0.60955,0.243432,0.248067,0.219939,0.116432,0.312448,0.541149,0.368411,0.195562,0.231317,0.841522,0.402515,0.324094,0.440181,0.140614,0.56025,0.368809,0.341436,0.362098,0.190578,0.35551,0.682478,0.247445,0.263668,0.221215,1.218108,0.386719,0.508236,0.365139,0.284135
1769161426.720189,1769161426.720314,95.0,0.0,4289.102539,4286.538574,4261.153809,4328.205078,4260.512695,4290.897461,4293.846191,4277.94873,4277.307617,4283.717773,4571.025879,4553.974121,4427.307617,4490.384766,,,,,,,,,,,,,,,,,,,,,,,,,,,,,,,,,,,,,,,,,,,,,,,,,,,,,,,,,,,,,,,,,,,,,,
1769161426.727998,1769161426.727923,96.0,0.0,4291.153809,4288.974121,4260.512695,4326.025879,4257.94873,4289.358887,4295.641113,4277.179688,4279.358887,4278.846191,4571.922852,4552.692383,4425.128418,4491.282227,,,,,,,,,,,,,,,,,,,,,,,,,,,,,,,,,,,,,,,,,,,,,,,,,,,,,,,,,,,,,,,,,,,,,,
1769161426.735806,1769161426.735731,97.0,0.0,4293.461426,4287.436035,4259.487305,4325.769043,4255.256348,4289.871582,4298.205078,4286.922852,4283.205078,4284.615234,4573.717773,4555.384766,4426.153809,4491.666504,,,,,,,,,,,,,,,,,,,,,,,,,,,,,,,,,,,,,,,,,,,,,,,,,,,,,,,,,,,,,,,,,,,,,,
1769161426.743615,1769161426.74344,98.0,0.0,4294.615234,4281.410156,4256.153809,4325.641113,4257.436035,4290.0,4294.615234,4287.05127,4284.487305,4282.692383,4573.077148,4556.794922,4422.94873,4491.794922,,,,,,,,,,,,,,,,,,,,,,,,,,,,,,,,,,,,,,,,,,,,,,,,,,,,,,,,,,,,,,,,,,,,,,
1769161426.751423,1769161426.751248,99.0,0.0,4293.077148,4279.230957,4249.615234,4321.666504,4256.410156,4290.256348,4295.769043,4276.538574,4275.512695,4279.743652,4566.538574,4550.384766,4415.641113,4482.692383,,,,,,,,,,,,,,,,,,,,,,,,,,,,,,,,,,,,,,,,,,,,,,,,,,,,,,,,,,,,,,,,,,,,,,
1769161426.759232,1769161426.759256,100.0,0.0,4291.410156,4282.563965,4249.358887,4320.897461,4255.256348,4288.333496,4296.922852,4271.794922,4269.743652,4278.846191,4560.384766,4542.692383,4412.94873,4477.05127,,,,,,,,,,,,,,,,,,,,,,,,,,,,,,,,,,,,,,,,,,,,,,,,,,,,,,,,,,,,,,,,,,,,,,
1769161426.76704,1769161426.767065,101.0,0.0,4290.769043,4282.820313,4252.563965,4324.615234,4259.102539,4281.153809,4288.589844,4278.333496,4277.179688,4275.128418,4563.974121,4543.717773,4413.461426,4487.692383,,,,,,,,,,,,,,,,,,,,,,,,,,,,,,,,,,,,,,,,,,,,,,,,,,,,,,,,,,,,,,,,,,,,,,
1769161426.774849,1769161426.774973,102.0,0.0,4289.102539,4280.769043,4250.512695,4324.230957,4260.641113,4275.384766,4278.589844,4282.05127,4283.205078,4275.0,4568.717773,4552.692383,4414.230957,4489.615234,,,,,,,,,,,,,,,,,,,,,,,,,,,,,,,,,,,,,,,,,,,,,,,,,,,,,,,,,,,,,,,,,,,,,,
1769161426.782657,1769161426.782782,103.0,0.0,4293.205078,4287.05127,4250.512695,4323.846191,4260.512695,4278.717773,4280.512695,4278.205078,4280.128418,4282.563965,4566.538574,4551.025879,4413.717773,4477.820313,,,,,,,,,,,,,,,,,,,,,,,,,,,,,,,,,,,,,,,,,,,,,,,,,,,,,,,,,,,,,,,,,,,,,,
1769161426.790465,1769161426.79079,104.0,0.0,4296.538574,4291.282227,4253.077148,4324.102539,4258.077148,4284.871582,4287.436035,4274.102539,4273.589844,4282.94873,4562.307617,4541.282227,4412.820313,4475.128418,,,,,,,,,,,,,,,,,,,,,,,,,,,,,,,,,,,,,,,,,,,,,,,,,,,,,,,,,,,,,,,,,,,,,,
1769161426.798274,1769161426.798598,105.0,0.0,4290.512695,4283.974121,4250.0,4318.589844,4254.230957,4285.0,4291.922852,4275.641113,4273.846191,4275.384766,4563.846191,4546.282227,4413.717773,4480.512695,,,,,,,,,,,,,,,,,,,,,,,,,,,,,,,,,,,,,,,,,,,,,,,,,,,,,,,,,,,,,,,,,,,,,,
1769161426.806082,1769161426.806307,106.0,0.0,4288.974121,4277.94873,4248.077148,4312.563965,4251.922852,4280.512695,4294.487305,4280.384766,4280.769043,4276.153809,4565.128418,4555.897461,4413.205078,4479.871582,,,,,,,,,,,,,,,,,,,,,,,,,,,,,,,,,,,,,,,,,,,,,,,,,,,,,,,,,,,,,,,,,,,,,,
1769161426.813891,1769161426.814115,107.0,0.0,4291.410156,4280.897461,4251.025879,4313.205078,4250.128418,4279.871582,4293.974121,4280.384766,4276.282227,4276.538574,4559.230957,4547.692383,4407.692383,4476.666504,,,,,,,,,,,,,,,,,,,,,,,,,,,,,,,,,,,,,,,,,,,,,,,,,,,,,,,,,,,,,,,,,,,,,,
1769161426.821699,1769161426.821724,108.0,0.0,4286.794922,4277.307617,4250.256348,4312.820313,4250.384766,4281.410156,4293.589844,4277.307617,4265.641113,4267.05127,4553.205078,4537.436035,4397.436035,4475.384766,,,,,,,,,,,,,,,,,,,,,,,,,,,,,,,,,,,,,,,,,,,,,,,,,,,,,,,,,,,,,,,,,,,,,,
1769161426.829508,1769161426.829532,109.0,0.0,4279.743652,4270.897461,4245.128418,4308.846191,4251.794922,4280.897461,4294.487305,4277.179688,4271.410156,4266.282227,4554.487305,4543.717773,4393.461426,4472.563965,,,,,,,,,,,,,,,,,,,,,,,,,,,,,,,,,,,,,,,,,,,,,,,,,,,,,,,,,,,,,,,,,,,,,,
1769161426.837316,1769161426.837441,110.0,0.0,4279.487305,4275.128418,4246.538574,4309.615234,4250.897461,4282.692383,4296.282227,4281.153809,4278.077148,4278.077148,4556.922852,4553.461426,4404.102539,4473.077148,0.254871,0.551678,0.242393,0.324898,0.177395,0.197042,0.232013,0.240876,0.229636,0.084075,0.244561,0.38413,0.222812,0.180832,0.155485,0.177535,0.182423,0.120066,0.146817,0.064915,0.233132,0.049249,0.05215,0.056352,0.050942,0.161131,0.113402,0.108359,0.098783,0.073559,0.131074,0.116495,0.169437,0.13347,0.105016,0.314493,0.13732,0.185788,0.198521,0.130271,0.487824,0.273232,0.27333,0.230349,0.128222,0.277759,0.566878,0.302643,0.162613,0.202452,1.074695,0.454671,0.30343,0.45248,0.152569,0.712969,0.468343,0.348019,0.354025,0.201564,0.423165,0.776505,0.229774,0.271544,0.226107,1.604535,0.454439,0.499935,0.395946,0.301988
1769161426.845125,1769161426.845249,111.0,0.0,4286.153809,4281.025879,4255.641113,4313.589844,4251.025879,4280.256348,4293.205078,4280.256348,4266.922852,4273.077148,4555.512695,4553.974121,4413.333496,4480.128418,,,,,,,,,,,,,,,,,,,,,,,,,,,,,,,,,,,,,,,,,,,,,,,,,,,,,,,,,,,,,,,,,,,,,,
1769161426.852933,1769161426.853257,112.0,0.0,4293.589844,4280.512695,4261.922852,4313.846191,4257.179688,4269.358887,4285.256348,4273.077148,4259.743652,4260.384766,4557.307617,4553.717773,4411.922852,4488.846191,,,,,,,,,,,,,,,,,,,,,,,,,,,,,,,,,,,,,,,,,,,,,,,,,,,,,,,,,,,,,,,,,,,,,,
1769161426.860742,1769161426.861066,113.0,0.0,4295.256348,4278.589844,4260.769043,4312.179688,4258.077148,4264.871582,4282.179688,4271.922852,4265.128418,4268.461426,4559.487305,4553.717773,4410.256348,4492.692383,,,,,,,,,,,,,,,,,,,,,,,,,,,,,,,,,,,,,,,,,,,,,,,,,,,,,,,,,,,,,,,,,,,,,,
1769161426.86855,1769161426.868974,114.0,0.0,4292.692383,4279.358887,4258.589844,4312.692383,4251.666504,4272.820313,4286.410156,4277.563965,4265.384766,4275.512695,4556.410156,4552.436035,4411.282227,4490.641113,,,,,,,,,,,,,,,,,,,,,,,,,,,,,,,,,,,,,,,,,,,,,,,,,,,,,,,,,,,,,,,,,,,,,,
1769161426.876358,1769161426.876783,115.0,0.0,4293.589844,4279.871582,4261.153809,4313.077148,4252.692383,4281.153809,4294.358887,4279.358887,4262.179688,4266.025879,4556.410156,4553.077148,4410.769043,4488.974121,,,,,,,,,,,,,,,,,,,,,,,,,,,,,,,,,,,,,,,,,,,,,,,,,,,,,,,,,,,,,,,,,,,,,,
1769161426.884167,1769161426.884791,116.0,0.0,4295.0,4279.871582,4263.333496,4312.436035,4260.641113,4279.487305,4296.666504,4276.922852,4263.077148,4263.333496,4559.871582,4553.846191,4410.897461,4488.461426,,,,,,,,,,,,,,,,,,,,,,,,,,,,,,,,,,,,,,,,,,,,,,,,,,,,,,,,,,,,,,,,,,,,,,
1769161426.891975,1769161426.892599,117.0,0.0,4295.256348,4281.666504,4261.282227,4313.717773,4264.102539,4277.05127,4292.179688,4277.94873,4264.358887,4268.333496,4559.358887,4554.615234,4412.94873,4491.410156,,,,,,,,,,,,,,,,,,,,,,,,,,,,,,,,,,,,,,,,,,,,,,,,,,,,,,,,,,,,,,,,,,,,,,
1769161426.899784,1769161426.900308,118.0,0.0,4293.589844,4279.615234,4258.717773,4311.153809,4260.641113,4278.077148,4290.897461,4280.0,4264.615234,4267.692383,4555.641113,4552.307617,4411.666504,4490.769043,,,,,,,,,,,,,,,,,,,,,,,,,,,,,,,,,,,,,,,,,,,,,,,,,,,,,,,,,,,,,,,,,,,,,,
1769161426.907592,1769161426.908116,119.0,0.0,4290.897461,4277.820313,4260.128418,4308.846191,4259.230957,4276.410156,4293.205078,4279.743652,4266.794922,4269.487305,4556.922852,4548.846191,4411.282227,4479.102539,,,,,,,,,,,,,,,,,,,,,,,,,,,,,,,,,,,,,,,,,,,,,,,,,,,,,,,,,,,,,,,,,,,,,,
1769161426.915401,1769161426.915725,120.0,0.0,4294.615234,4281.922852,4265.256348,4314.743652,4263.333496,4276.538574,4296.153809,4280.512695,4267.563965,4269.230957,4558.717773,4553.333496,4411.025879,4474.358887,,,,,,,,,,,,,,,,,,,,,,,,,,,,,,,,,,,,,,,,,,,,,,,,,,,,,,,,,,,,,,,,,,,,,,
1769161426.923209,1769161426.923533,121.0,0.0,4299.871582,4285.769043,4267.307617,4321.794922,4264.487305,4277.179688,4290.641113,4275.769043,4263.333496,4263.974121,4556.153809,4552.820313,4405.769043,4485.256348,,,,,,,,,,,,,,,,,,,,,,,,,,,,,,,,,,,,,,,,,,,,,,,,,,,,,,,,,,,,,,,,,,,,,,
1769161426.931018,1769161426.931242,122.0,0.0,4296.153809,4283.205078,4263.974121,4319.615234,4262.05127,4275.641113,4283.589844,4271.153809,4260.769043,4265.256348,4554.743652,4541.410156,4404.230957,4491.922852,,,,,,,,,,,,,,,,,,,,,,,,,,,,,,,,,,,,,,,,,,,,,,,,,,,,,,,,,,,,,,,,,,,,,,
1769161426.938826,1769161426.93905,123.0,0.0,4293.333496,4279.615234,4261.666504,4313.333496,4259.487305,4277.94873,4287.436035,4278.846191,4266.794922,4262.05127,4555.512695,4542.94873,4409.358887,4488.589844,,,,,,,,,,,,,,,,,,,,,,,,,,,,,,,,,,,,,,,,,,,,,,,,,,,,,,,,,,,,,,,,,,,,,,
1769161426.946635,1769161426.947059,124.0,0.0,4298.461426,4281.666504,4263.589844,4310.256348,4260.256348,4282.563965,4296.410156,4285.0,4268.846191,4259.487305,4555.641113,4553.333496,4410.641113,4485.512695,,,,,,,,,,,,,,,,,,,,,,,,,,,,,,,,,,,,,,,,,,,,,,,,,,,,,,,,,,,,,,,,,,,,,,
1769161426.954443,1769161426.954867,125.0,0.0,4300.641113,4287.179688,4265.0,4315.256348,4267.94873,4281.025879,4295.769043,4279.487305,4263.846191,4267.307617,4556.282227,4552.692383,4408.974121,4486.025879,,,,,,,,,,,,,,,,,,,,,,,,,,,,,,,,,,,,,,,,,,,,,,,,,,,,,,,,,,,,,,,,,,,,,,
1769161426.962252,1769161426.962776,126.0,0.0,4297.820313,4289.743652,4263.333496,4320.769043,4275.256348,4278.333496,4292.179688,4276.794922,4266.410156,4271.666504,4557.820313,4548.205078,4409.615234,4490.0,0.313604,0.632439,0.197401,0.329684,0.14766,0.232253,0.289841,0.180461,0.233768,0.074978,0.353452,0.504663,0.18966,0.204244,0.136972,0.193666,0.216308,0.082472,0.152243,0.053531,0.208323,0.048434,0.047148,0.045027,0.045483,0.15935,0.126266,0.172727,0.094334,0.079556,0.120106,0.129284,0.19922,0.152169,0.103328,0.319839,0.157046,0.212804,0.22433,0.137094,0.366965,0.322513,0.295201,0.235037,0.136452,0.241595,0.614641,0.24535,0.135261,0.185624,1.303246,0.52815,0.268315,0.427431,0.160568,0.853626,0.56226,0.318749,0.324468,0.203358,0.514207,0.839384,0.204771,0.264767,0.224406,1.892633,0.497849,0.456308,0.400198,0.307599
1769161426.97006,1769161426.970584,127.0,0.0,4296.666504,4285.384766,4261.794922,4315.769043,4270.641113,4282.307617,4295.769043,4281.538574,4271.025879,4266.538574,4555.769043,4544.230957,4405.897461,4485.897461,,,,,,,,,,,,,,,,,,,,,,,,,,,,,,,,,,,,,,,,,,,,,,,,,,,,,,,,,,,,,,,,,,,,,,
1769161426.977868,1769161426.978592,0.0,0.0,4295.384766,4279.487305,4262.94873,4308.077148,4263.717773,4282.820313,4296.794922,4281.538574,4264.615234,4262.05127,4552.820313,4539.487305,4400.512695,4473.974121,,,,,,,,,,,,,,,,,,,,,,,,,,,,,,,,,,,,,,,,,,,,,,,,,,,,,,,,,,,,,,,,,,,,,,
1769161426.985677,1769161426.986401,1.0,0.0,4297.179688,4278.846191,4265.256348,4308.846191,4264.102539,4279.230957,4293.333496,4278.461426,4260.897461,4263.461426,4554.615234,4546.282227,4404.230957,4478.717773,,,,,,,,,,,,,,,,,,,,,,,,,,,,,,,,,,,,,,,,,,,,,,,,,,,,,,,,,,,,,,,,,,,,,,
1769161426.993485,1769161426.994309,2.0,0.0,4305.256348,4282.179688,4266.538574,4313.205078,4268.589844,4278.717773,4291.922852,4277.05127,4270.769043,4268.717773,4559.102539,4557.307617,4412.436035,4494.230957,,,,,,,,,,,,,,,,,,,,,,,,,,,,,,,,,,,,,,,,,,,,,,,,,,,,,,,,,,,,,,,,,,,,,,
1769161427.001294,1769161427.002117,3.0,0.0,4305.641113,4282.692383,4266.025879,4312.692383,4274.358887,4279.487305,4293.461426,4283.205078,4278.974121,4270.512695,4559.743652,4554.871582,4411.922852,4492.692383,,,,,,,,,,,,,,,,,,,,,,,,,,,,,,,,,,,,,,,,,,,,,,,,,,,,,,,,,,,,,,,,,,,,,,
