Timestamp,OriginalTimestamp,EEG.Counter,EEG.Interpolated,EEG.AF3,EEG.F7,EEG.F3,EEG.FC5,EEG.T7,EEG.P7,EEG.O1,EEG.O2,EEG.P8,EEG.T8,EEG.FC6,EEG.F4,EEG.F8,EEG.AF4,POW.AF3.Theta,POW.AF3.Alpha,POW.AF3.BetaL,POW.AF3.BetaH,POW.AF3.Gamma,POW.F7.Theta,POW.F7.Alpha,POW.F7.BetaL,POW.F7.BetaH,POW.F7.Gamma,POW.F3.Theta,POW.F3.Alpha,POW.F3.BetaL,POW.F3.BetaH,POW.F3.Gamma,POW.FC5.Theta,POW.FC5.Alpha,POW.FC5.BetaL,POW.FC5.BetaH,POW.FC5.Gamma,POW.T7.Theta,POW.T7.Alpha,POW.T7.BetaL,POW.T7.BetaH,POW.T7.Gamma,POW.P7.Theta,POW.P7.Alpha,POW.P7.BetaL,POW.P7.BetaH,POW.P7.Gamma,POW.O1.Theta,POW.O1.Alpha,POW.O1.BetaL,POW.O1.BetaH,POW.O1.Gamma,POW.O2.Theta,POW.O2.Alpha,POW.O2.BetaL,POW.O2.BetaH,POW.O2.Gamma,POW.P8.Theta,POW.P8.Alpha,POW.P8.BetaL,POW.P8.BetaH,POW.P8.Gamma,POW.T8.Theta,POW.T8.Alpha,POW.T8.BetaL,POW.T8.BetaH,POW.T8.Gamma,POW.FC6.Theta,POW.FC6.Alpha,POW.FC6.BetaL,POW.FC6.BetaH,POW.FC6.Gamma,POW.F4.Theta,POW.F4.Alpha,POW.F4.BetaL,POW.F4.BetaH,POW.F4.Gamma,POW.F8.Theta,POW.F8.Alpha,POW.F8.BetaL,POW.F8.BetaH,POW.F8.Gamma,POW.AF4.Theta,POW.AF4.Alpha,POW.AF4.BetaL,POW.AF4.BetaH,POW.AF4.Gamma
1768972944.560688,1768972944.561894,97.0,0.0,4370.256348,4358.461426,4355.256348,4382.820313,4375.128418,4388.077148,4380.512695,4381.282227,4374.487305,4356.410156,4456.153809,4513.717773,4397.179688,4412.563965,,,,,,,,,,,,,,,,,,,,,,,,,,,,,,,,,,,,,,,,,,,,,,,,,,,,,,,,,,,,,,,,,,,,,,
1768972944.568497,1768972944.569602,98.0,0.0,4363.846191,4355.641113,4349.102539,4380.256348,4374.487305,4381.538574,4380.641113,4381.410156,4377.436035,4356.666504,4457.307617,4512.563965,4395.128418,4411.282227,,,,,,,,,,,,,,,,,,,,,,,,,,,,,,,,,,,,,,,,,,,,,,,,,,,,,,,,,,,,,,,,,,,,,,
1768972944.576305,1768972944.577411,99.0,0.0,4364.615234,4353.589844,4345.769043,4381.922852,4375.128418,4380.384766,4378.974121,4378.461426,4378.846191,4357.436035,4458.589844,4519.871582,4396.794922,4424.102539,,,,,,,,,,,,,,,,,,,,,,,,,,,,,,,,,,,,,,,,,,,,,,,,,,,,,,,,,,,,,,,,,,,,,,
1768972944.584114,1768972944.585019,100.0,0.0,4372.179688,4358.205078,4353.461426,4387.563965,4372.692383,4385.128418,4379.230957,4377.307617,4370.769043,4354.871582,4459.102539,4522.436035,4401.282227,4426.538574,,,,,,,,,,,,,,,,,,,,,,,,,,,,,,,,,,,,,,,,,,,,,,,,,,,,,,,,,,,,,,,,,,,,,,
1768972944.591922,1768972944.592828,101.0,0.0,4373.974121,4356.922852,4358.974121,4387.94873,4372.436035,4386.794922,4382.563965,4381.666504,4363.205078,4356.153809,4461.282227,4520.641113,4403.589844,4424.487305,,,,,,,,,,,,,,,,,,,,,,,,,,,,,,,,,,,,,,,,,,,,,,,,,,,,,,,,,,,,,,,,,,,,,,
1768972944.599731,1768972944.600736,102.0,0.0,4371.153809,4348.461426,4355.256348,4384.871582,4374.487305,4381.153809,4378.717773,4378.461426,4363.974121,4356.794922,4460.128418,4517.436035,4398.974121,4425.384766,,,,,,,,,,,,,,,,,,,,,,,,,,,,,,,,,,,,,,,,,,,,,,,,,,,,,,,,,,,,,,,,,,,,,,
1768972944.607539,1768972944.608544,103.0,0.0,4371.153809,4351.025879,4356.025879,4386.538574,4374.230957,4379.102539,4375.769043,4375.256348,4365.384766,4354.743652,4459.102539,4519.615234,4397.307617,4425.897461,,,,,,,,,,,,,,,,,,,,,,,,,,,,,,,,,,,,,,,,,,,,,,,,,,,,,,,,,,,,,,,,,,,,,,
1768972944.615348,1768972944.616153,104.0,0.0,4373.846191,4361.410156,4362.307617,4390.256348,4373.589844,4383.205078,4383.205078,4380.512695,4365.128418,4357.307617,4460.128418,4525.512695,4404.871582,4427.692383,,,,,,,,,,,,,,,,,,,,,,,,,,,,,,,,,,,,,,,,,,,,,,,,,,,,,,,,,,,,,,,,,,,,,,
1768972944.623156,1768972944.623961,105.0,0.0,4374.871582,4359.102539,4362.692383,4389.743652,4372.436035,4385.128418,4387.05127,4384.871582,4369.615234,4358.717773,4460.256348,4527.179688,4405.769043,4427.692383,,,,,,,,,,,,,,,,,,,,,,,,,,,,,,,,,,,,,,,,,,,,,,,,,,,,,,,,,,,,,,,,,,,,,,
1768972944.630964,1768972944.63167,106.0,0.0,4374.358887,4348.333496,4358.205078,4386.666504,4374.102539,4381.666504,4382.563965,4385.256348,4375.0,4356.922852,4461.794922,4527.05127,4402.179688,4427.307617,,,,,,,,,,,,,,,,,,,,,,,,,,,,,,,,,,,,,,,,,,,,,,,,,,,,,,,,,,,,,,,,,,,,,,
1768972944.638773,1768972944.639478,107.0,0.0,4372.563965,4343.589844,4360.128418,4386.922852,4375.384766,4375.641113,4380.897461,4387.692383,4373.461426,4355.769043,4462.820313,4530.128418,4407.307617,4427.94873,,,,,,,,,,,,,,,,,,,,,,,,,,,,,,,,,,,,,,,,,,,,,,,,,,,,,,,,,,,,,,,,,,,,,,
1768972944.646581,1768972944.647087,108.0,0.0,4375.128418,4342.307617,4363.333496,4386.410156,4370.256348,4374.743652,4382.307617,4386.922852,4368.077148,4354.358887,4459.743652,4530.512695,4412.05127,4427.179688,,,,,,,,,,,,,,,,,,,,,,,,,,,,,,,,,,,,,,,,,,,,,,,,,,,,,,,,,,,,,,,,,,,,,,
1768972944.65439,1768972944.654896,109.0,0.0,4379.487305,4342.436035,4362.307617,4385.256348,4369.102539,4382.05127,4383.589844,4384.487305,4370.128418,4354.743652,4459.487305,4529.615234,4410.897461,4428.333496,,,,,,,,,,,,,,,,,,,,,,,,,,,,,,,,,,,,,,,,,,,,,,,,,,,,,,,,,,,,,,,,,,,,,,
1768972944.662198,1768972944.662804,110.0,0.0,4376.794922,4348.077148,4363.717773,4391.153809,4372.820313,4384.487305,4380.384766,4385.512695,4374.743652,4357.307617,4464.358887,4536.282227,4412.05127,4433.846191,0.673101,0.186407,0.101974,0.219856,0.118201,0.711815,0.487103,0.229011,0.192426,0.093207,0.338934,0.259837,0.100647,0.121574,0.098774,0.360358,0.177068,0.047028,0.1542,0.101762,0.067558,0.129307,0.057935,0.067875,0.077927,0.189375,0.703049,0.784554,0.202313,0.222881,0.320079,0.493544,0.738551,0.211003,0.232416,0.166792,0.174478,0.246929,0.061091,0.069845,0.212961,0.456041,0.217839,0.089255,0.10172,0.311086,0.491937,0.133797,0.044971,0.137346,0.507711,0.533349,0.199588,0.106764,0.172941,0.63413,0.542324,0.178659,0.084632,0.233594,0.618968,0.61991,0.322538,0.127401,0.142295,0.613842,0.586548,0.21527,0.171623,0.219175
1768972944.670007,1768972944.670612,111.0,0.0,4376.922852,4351.538574,4363.461426,4396.410156,4373.077148,4377.820313,4376.153809,4387.179688,4374.358887,4356.794922,4464.487305,4538.974121,4413.077148,4436.153809,,,,,,,,,,,,,,,,,,,,,,,,,,,,,,,,,,,,,,,,,,,,,,,,,,,,,,,,,,,,,,,,,,,,,,
1768972944.677815,1768972944.678621,112.0,0.0,4380.0,4348.846191,4360.769043,4391.282227,4373.461426,4380.128418,4382.436035,4390.0,4373.461426,4354.230957,4460.512695,4534.102539,4410.769043,4432.436035,,,,,,,,,,,,,,,,,,,,,,,,,,,,,,,,,,,,,,,,,,,,,,,,,,,,,,,,,,,,,,,,,,,,,,
1768972944.685624,1768972944.686429,113.0,0.0,4377.692383,4350.512695,4362.563965,4387.820313,4376.538574,4387.820313,4389.871582,4389.102539,4375.769043,4355.384766,4462.307617,4530.0,4410.384766,4433.846191,,,,,,,,,,,,,,,,,,,,,,,,,,,,,,,,,,,,,,,,,,,,,,,,,,,,,,,,,,,,,,,,,,,,,,
1768972944.693432,1768972944.694337,114.0,0.0,4373.846191,4351.282227,4364.743652,4388.846191,4374.358887,4382.436035,4383.205078,4386.025879,4375.384766,4357.436035,4465.128418,4530.641113,4411.922852,4441.282227,,,,,,,,,,,,,,,,,,,,,,,,,,,,,,,,,,,,,,,,,,,,,,,,,,,,,,,,,,,,,,,,,,,,,,
1768972944.70124,1768972944.702146,115.0,0.0,4375.512695,4345.384766,4361.410156,4384.487305,4371.025879,4376.666504,4375.897461,4386.025879,4372.436035,4356.153809,4462.307617,4532.94873,4412.94873,4442.820313,,,,,,,,,,,,,,,,,,,,,,,,,,,,,,,,,,,,,,,,,,,,,,,,,,,,,,,,,,,,,,,,,,,,,,
1768972944.709049,1768972944.710154,116.0,0.0,4376.922852,4343.589844,4358.717773,4379.871582,4369.871582,4377.94873,4380.641113,4385.256348,4371.153809,4355.769043,4461.410156,4532.563965,4412.820313,4439.102539,,,,,,,,,,,,,,,,,,,,,,,,,,,,,,,,,,,,,,,,,,,,,,,,,,,,,,,,,,,,,,,,,,,,,,
1768972944.716857,1768972944.717963,117.0,0.0,4373.846191,4344.487305,4357.692383,4381.025879,4369.102539,4375.256348,4382.307617,4383.333496,4372.179688,4358.205078,4466.282227,4532.94873,4412.563965,4439.487305,,,,,,,,,,,,,,,,,,,,,,,,,,,,,,,,,,,,,,,,,,,,,,,,,,,,,,,,,,,,,,,,,,,,,,
1768972944.724666,1768972944.725871,118.0,0.0,4375.384766,4346.666504,4361.282227,4386.282227,4374.615234,4373.461426,4381.922852,4384.615234,4375.128418,4359.743652,4471.666504,4536.153809,4415.512695,4444.743652,,,,,,,,,,,,,,,,,,,,,,,,,,,,,,,,,,,,,,,,,,,,,,,,,,,,,,,,,,,,,,,,,,,,,,
1768972944.732474,1768972944.733679,119.0,0.0,4382.692383,4352.94873,4370.897461,4391.410156,4380.384766,4380.769043,4389.230957,4387.179688,4375.384766,4357.94873,4472.563965,4540.512695,4416.410156,4445.769043,,,,,,,,,,,,,,,,,,,,,,,,,,,,,,,,,,,,,,,,,,,,,,,,,,,,,,,,,,,,,,,,,,,,,,
1768972944.740283,1768972944.741288,120.0,0.0,4387.436035,4358.077148,4372.05127,4392.307617,4380.256348,4387.05127,4392.05127,4389.615234,4376.025879,4359.230957,4472.436035,4544.230957,4413.589844,4444.358887,,,,,,,,,,,,,,,,,,,,,,,,,,,,,,,,,,,,,,,,,,,,,,,,,,,,,,,,,,,,,,,,,,,,,,
1768972944.748091,1768972944.749096,121.0,0.0,4382.436035,4355.512695,4365.256348,4390.769043,4379.615234,4386.666504,4388.589844,4393.077148,4380.256348,4363.205078,4476.410156,4543.333496,4412.179688,4446.282227,,,,,,,,,,,,,,,,,,,,,,,,,,,,,,,,,,,,,,,,,,,,,,,,,,,,,,,,,,,,,,,,,,,,,,
1768972944.7559,1768972944.756805,122.0,0.0,4376.794922,4349.615234,4365.256348,4390.384766,4377.563965,4382.436035,4386.410156,4390.256348,4378.974121,4361.025879,4473.333496,4534.487305,4412.692383,4440.769043,,,,,,,,,,,,,,,,,,,,,,,,,,,,,,,,,,,,,,,,,,,,,,,,,,,,,,,,,,,,,,,,,,,,,,
1768972944.763708,1768972944.764613,123.0,0.0,4379.615234,4349.615234,4368.461426,4389.615234,4372.436035,4379.871582,4385.897461,4384.871582,4372.179688,4355.0,4462.179688,4527.692383,4411.282227,4429.230957,,,,,,,,,,,,,,,,,,,,,,,,,,,,,,,,,,,,,,,,,,,,,,,,,,,,,,,,,,,,,,,,,,,,,,
1768972944.771516,1768972944.772222,124.0,0.0,4379.487305,4350.769043,4371.282227,4387.307617,4372.436035,4381.666504,4384.615234,4385.128418,4370.256348,4354.358887,4463.846191,4529.230957,4410.641113,4432.820313,,,,,,,,,,,,,,,,,,,,,,,,,,,,,,,,,,,,,,,,,,,,,,,,,,,,,,,,,,,,,,,,,,,,,,
1768972944.779325,1768972944.780031,125.0,0.0,4374.102539,4351.153809,4371.410156,4388.974121,4375.769043,4381.538574,4386.410156,4385.769043,4375.256348,4360.128418,4474.871582,4530.384766,4412.436035,4441.410156,,,,,,,,,,,,,,,,,,,,,,,,,,,,,,,,,,,,,,,,,,,,,,,,,,,,,,,,,,,,,,,,,,,,,,
1768972944.787133,1768972944.787739,126.0,0.0,4372.820313,4352.307617,4368.205078,4392.94873,4372.94873,4379.743652,4390.0,4384.102539,4376.410156,4361.025879,4473.974121,4530.384766,4412.436035,4433.589844,0.659187,0.18961,0.138073,0.250271,0.107873,0.9358,0.536662,0.233024,0.206733,0.09296,0.301698,0.24035,0.122198,0.146253,0.100167,0.359314,0.20296,0.055328,0.166346,0.103951,0.077308,0.173449,0.073218,0.074594,0.0786,0.213422,0.599663,0.879405,0.197984,0.23342,0.341001,0.476158,0.763142,0.207144,0.255111,0.152432,0.174157,0.28539,0.064575,0.064724,0.214179,0.439503,0.273733,0.096494,0.095711,0.341752,0.511209,0.164768,0.061305,0.127875,0.532209,0.525646,0.233269,0.136354,0.176241,0.483153,0.521717,0.199026,0.081066,0.248465,0.560986,0.566837,0.379716,0.131573,0.139347,0.601223,0.545107,0.249801,0.203875,0.22111
1768972944.794942,1768972944.795548,127.0,0.0,4379.871582,4357.179688,4368.846191,4394.487305,4372.179688,4382.05127,4387.692383,4383.205078,4373.717773,4358.333496,4471.538574,4531.025879,4413.717773,4427.307617,,,,,,,,,,,,,,,,,,,,,,,,,,,,,,,,,,,,,,,,,,,,,,,,,,,,,,,,,,,,,,,,,,,,,,
1768972944.80275,1768972944.803556,0.0,0.0,4382.94873,4364.230957,4369.871582,4393.717773,4376.922852,4383.205078,4382.692383,4383.205078,4376.025879,4360.769043,4472.436035,4525.384766,4415.641113,4433.333496,,,,,,,,,,,,,,,,,,,,,,,,,,,,,,,,,,,,,,,,,,,,,,,,,,,,,,,,,,,,,,,,,,,,,,
1768972944.810559,1768972944.811364,1.0,0.0,4379.358887,4363.974121,4367.563965,4395.128418,4376.153809,4376.410156,4378.846191,4384.871582,4378.461426,4360.512695,4463.974121,4518.974121,4412.692383,4432.05127,,,,,,,,,,,,,,,,,,,,,,,,,,,,,,,,,,,,,,,,,,,,,,,,,,,,,,,,,,,,,,,,,,,,,,
1768972944.818367,1768972944.819073,2.0,0.0,4379.358887,4360.256348,4370.0,4396.794922,4373.333496,4376.794922,4382.05127,4387.563965,4375.897461,4358.077148,4463.333496,4524.743652,4412.05127,4426.410156,,,,,,,,,,,,,,,,,,,,,,,,,,,,,,,,,,,,,,,,,,,,,,,,,,,,,,,,,,,,,,,,,,,,,,
1768972944.826176,1768972944.826881,3.0,0.0,4380.256348,4362.820313,4370.256348,4395.512695,4377.820313,4386.794922,4385.512695,4387.94873,4377.05127,4361.153809,4475.769043,4531.538574,4415.256348,4427.820313,,,,,,,,,,,,,,,,,,,,,,,,,,,,,,,,,,,,,,,,,,,,,,,,,,,,,,,,,,,,,,,,,,,,,,
1768972944.833984,1768972944.83449,4.0,0.0,4381.153809,4368.589844,4369.743652,4396.410156,4381.538574,4391.410156,4387.94873,4387.692383,4383.205078,4362.563965,4473.846191,4532.05127,4415.0,4428.846191,,,,,,,,,,,,,,,,,,,,,,,,,,,,,,,,,,,,,,,,,,,,,,,,,,,,,,,,,,,,,,,,,,,,,,
1768972944.841792,1768972944.842298,5.0,0.0,4382.179688,4367.05127,4377.05127,4397.820313,4379.358887,4394.615234,4396.538574,4389.487305,4381.666504,4356.410156,4460.769043,4529.615234,4410.641113,4426.410156,,,,,,,,,,,,,,,,,,,,,,,,,,,,,,,,,,,,,,,,,,,,,,,,,,,,,,,,,,,,,,,,,,,,,,
1768972944.849601,1768972944.850207,6.0,0.0,4380.128418,4363.333496,4378.974121,4397.05127,4379.487305,4393.846191,4397.05127,4389.743652,4377.692383,4350.641113,4458.205078,4525.512695,4409.615234,4424.615234,,,,,,,,,,,,,,,,,,,,,,,,,,,,,,,,,,,,,,,,,,,,,,,,,,,,,,,,,,,,,,,,,,,,,,
1768972944.857409,1768972944.858015,7.0,0.0,4379.358887,4367.05127,4373.974121,4399.358887,4383.717773,4384.102539,4388.077148,4388.077148,4380.256348,4353.846191,4462.563965,4527.563965,4411.922852,4426.410156,,,,,,,,,,,,,,,,,,,,,,,,,,,,,,,,,,,,,,,,,,,,,,,,,,,,,,,,,,,,,,,,,,,,,,
1768972944.865218,1768972944.866023,8.0,0.0,4380.897461,4368.205078,4374.358887,4401.025879,4380.769043,4381.666504,4388.077148,4386.025879,4378.846191,4360.128418,4467.436035,4535.128418,4412.692383,4431.410156,,,,,,,,,,,,,,,,,,,,,,,,,,,,,,,,,,,,,,,,,,,,,,,,,,,,,,,,,,,,,,,,,,,,,,
1768972944.873026,1768972944.873832,9.0,0.0,4376.025879,4361.794922,4370.384766,4393.205078,4373.846191,4385.769043,4392.307617,4383.205078,4372.563965,4359.871582,4465.769043,4534.743652,4411.153809,4431.025879,,,,,,,,,,,,,,,,,,,,,,,,,,,,,,,,,,,,,,,,,,,,,,,,,,,,,,,,,,,,,,,,,,,,,,
1768972944.880835,1768972944.88174,10.0,0.0,4368.205078,4354.487305,4362.436035,4387.692383,4375.897461,4380.897461,4386.794922,4387.436035,4374.615234,4357.820313,4459.358887,4531.666504,4410.641113,4427.692383,,,,,,,,,,,,,,,,,,,,,,,,,,,,,,,,,,,,,,,,,,,,,,,,,,,,,,,,,,,,,,,,,,,,,,
1768972944.888643,1768972944.889549,11.0,0.0,4374.102539,4353.846191,4367.94873,4391.538574,4379.615234,4375.897461,4382.94873,4393.589844,4382.05127,4362.563965,4467.436035,4535.897461,4413.205078,4434.743652,,,,,,,,,,,,,,,,,,,,,,,,,,,,,,,,,,,,,,,,,,,,,,,,,,,,,,,,,,,,,,,,,,,,,,
1768972944.896452,1768972944.897557,12.0,0.0,4381.794922,4357.179688,4374.230957,4393.333496,4375.512695,4378.846191,4385.769043,4389.358887,4378.846191,4363.846191,4474.230957,4538.974121,4414.358887,4444.615234,,,,,,,,,,,,,,,,,,,,,,,,,,,,,,,,,,,,,,,,,,,,,,,,,,,,,,,,,,,,,,,,,,,,,,
1768972944.90426,1768972944.905365,13.0,0.0,4375.641113,4357.820313,4368.589844,4392.179688,4371.410156,4379.358887,4386.666504,4383.974121,4372.05127,4356.153809,4462.436035,4534.615234,4412.436035,4442.436035,,,,,,,,,,,,,,,,,,,,,,,,,,,,,,,,,,,,,,,,,,,,,,,,,,,,,,,,,,,,,,,,,,,,,,
1768972944.912068,1768972944.913074,14.0,0.0,4372.05127,4357.820313,4364.102539,4393.077148,4373.205078,4381.025879,4389.871582,4387.692383,4372.820313,4353.717773,4461.538574,4532.563965,4412.179688,4438.589844,0.608817,0.186656,0.19854,0.273585,0.101327,1.189314,0.57123,0.23192,0.204538,0.09512,0.273077,0.218896,0.149259,0.172657,0.101449,0.347956,0.21406,0.075366,0.171045,0.102115,0.103237,0.225065,0.086777,0.078654,0.077817,0.230484,0.480204,0.879498,0.178625,0.241949,0.343076,0.450622,0.720248,0.190389,0.276379,0.148574,0.179611,0.301945,0.067687,0.061172,0.222699,0.397798,0.315467,0.106815,0.091822,0.352273,0.49677,0.190365,0.081519,0.123332,0.536865,0.526815,0.259012,0.178004,0.1768,0.349356,0.484785,0.219297,0.099098,0.263614,0.480247,0.488377,0.411508,0.146356,0.143179,0.553623,0.454022,0.273465,0.255745,0.232008
1768972944.919877,1768972944.920882,15.0,0.0,4379.487305,4358.333496,4366.538574,4392.94873,4377.563965,4381.538574,4390.256348,4389.102539,4373.974121,4357.563965,4476.410156,4535.128418,4413.461426,4441.538574,,,,,,,,,,,,,,,,,,,,,,,,,,,,,,,,,,,,,,,,,,,,,,,,,,,,,,,,,,,,,,,,,,,,,,
1768972944.927685,1768972944.928691,16.0,0.0,4384.230957,4362.05127,4368.589844,4393.205078,4378.077148,4378.717773,4383.846191,4385.512695,4372.94873,4358.461426,4474.358887,4536.410156,4413.846191,4445.384766,,,,,,,,,,,,,,,,,,,,,,,,,,,,,,,,,,,,,,,,,,,,,,,,,,,,,,,,,,,,,,,,,,,,,,
1768972944.935494,1768972944.936499,17.0,0.0,4378.717773,4365.384766,4366.153809,4393.717773,4376.922852,4380.0,4381.538574,4385.128418,4371.153809,4356.538574,4459.743652,4532.820313,4414.487305,4443.077148,,,,,,,,,,,,,,,,,,,,,,,,,,,,,,,,,,,,,,,,,,,,,,,,,,,,,,,,,,,,,,,,,,,,,,
1768972944.943302,1768972944.944208,18.0,0.0,4371.153809,4363.717773,4362.05127,4391.153809,4376.666504,4381.666504,4385.641113,4382.436035,4370.769043,4355.512695,4458.077148,4526.538574,4412.436035,4435.128418,,,,,,,,,,,,,,,,,,,,,,,,,,,,,,,,,,,,,,,,,,,,,,,,,,,,,,,,,,,,,,,,,,,,,,
1768972944.951111,1768972944.952016,19.0,0.0,4373.974121,4367.307617,4364.230957,4391.282227,4376.025879,4379.615234,4387.94873,4381.025879,4371.922852,4356.922852,4466.666504,4529.487305,4412.820313,4433.974121,,,,,,,,,,,,,,,,,,,,,,,,,,,,,,,,,,,,,,,,,,,,,,,,,,,,,,,,,,,,,,,,,,,,,,
1768972944.958919,1768972944.959625,20.0,0.0,4385.256348,4376.922852,4373.077148,4401.410156,4376.794922,4382.307617,4388.974121,4385.256348,4373.077148,4358.974121,4473.974121,4539.102539,4421.794922,4442.820313,,,,,,,,,,,,,,,,,,,,,,,,,,,,,,,,,,,,,,,,,,,,,,,,,,,,,,,,,,,,,,,,,,,,,,
1768972944.966727,1768972944.967433,21.0,0.0,4389.358887,4376.922852,4373.333496,4405.384766,4380.384766,4386.025879,4388.077148,4385.897461,4376.922852,4360.384766,4475.512695,4541.153809,4428.077148,4447.179688,,,,,,,,,,,,,,,,,,,,,,,,,,,,,,,,,,,,,,,,,,,,,,,,,,,,,,,,,,,,,,,,,,,,,,
1768972944.974536,1768972944.975142,22.0,0.0,4385.512695,4370.512695,4367.94873,4398.974121,4379.871582,4381.922852,4383.717773,4383.974121,4381.025879,4360.897461,4473.589844,4538.589844,4425.256348,4442.94873,,,,,,,,,,,,,,,,,,,,,,,,,,,,,,,,,,,,,,,,,,,,,,,,,,,,,,,,,,,,,,,,,,,,,,
1768972944.982344,1768972944.98295,23.0,0.0,4387.820313,4374.615234,4371.666504,4401.794922,4376.666504,4376.282227,4380.256348,4382.94873,4379.102539,4363.461426,4473.461426,4537.94873,4425.512695,4444.230957,,,,,,,,,,,,,,,,,,,,,,,,,,,,,,,,,,,,,,,,,,,,,,,,,,,,,,,,,,,,,,,,,,,,,,
1768972944.990153,1768972944.990959,24.0,0.0,4389.487305,4381.410156,4374.358887,4407.820313,4377.820313,4376.025879,4378.717773,4383.333496,4377.05127,4365.897461,4478.974121,4540.769043,4431.666504,4450.128418,,,,,,,,,,,,,,,,,,,,,,,,,,,,,,,,,,,,,,,,,,,,,,,,,,,,,,,,,,,,,,,,,,,,,,
1768972944.997961,1768972944.998767,25.0,0.0,4381.153809,4376.666504,4368.974121,4400.769043,4380.256348,4377.692383,4379.743652,4386.538574,4381.410156,4362.05127,4476.794922,4540.641113,4426.153809,4443.077148,,,,,,,,,,,,,,,,,,,,,,,,,,,,,,,,,,,,,,,,,,,,,,,,,,,,,,,,,,,,,,,,,,,,,,
1768972945.00577,1768972945.006675,26.0,0.0,4371.282227,4365.384766,4362.94873,4390.0,4378.974121,4380.641113,4379.230957,4386.794922,4380.256348,4358.077148,4460.641113,4531.794922,4409.230957,4425.512695,,,,,,,,,,,,,,,,,,,,,,,,,,,,,,,,,,,,,,,,,,,,,,,,,,,,,,,,,,,,,,,,,,,,,,
1768972945.013578,1768972945.014484,27.0,0.0,4370.256348,4360.769043,4361.410156,4389.615234,4376.538574,4387.307617,4380.897461,4386.025879,4378.461426,4361.410156,4457.692383,4530.0,4408.205078,4425.0,,,,,,,,,,,,,,,,,,,,,,,,,,,,,,,,,,,,,,,,,,,,,,,,,,,,,,,,,,,,,,,,,,,,,,
1768972945.021387,1768972945.022092,28.0,0.0,4378.846191,4371.794922,4366.282227,4396.025879,4378.077148,4392.563965,4389.487305,4394.487305,4385.512695,4370.384766,4475.769043,4544.743652,4425.512695,4443.333496,,,,,,,,,,,,,,,,,,,,,,,,,,,,,,,,,,,,,,,,,,,,,,,,,,,,,,,,,,,,,,,,,,,,,,
1768972945.029195,1768972945.029901,29.0,0.0,4387.820313,4385.384766,4373.717773,4399.358887,4382.692383,4387.94873,4391.153809,4398.589844,4387.563965,4373.461426,4481.410156,4551.922852,4432.307617,4447.179688,,,,,,,,,,,,,,,,,,,,,,,,,,,,,,,,,,,,,,,,,,,,,,,,,,,,,,,,,,,,,,,,,,,,,,
1768972945.037003,1768972945.037609,30.0,0.0,4387.179688,4385.897461,4372.05127,4398.077148,4381.794922,4382.179688,4381.410156,4388.333496,4382.05127,4367.307617,4472.436035,4545.256348,4425.641113,4438.974121,0.546475,0.17784,0.268733,0.281171,0.098457,1.399282,0.580938,0.234076,0.189938,0.099265,0.253581,0.20008,0.174789,0.192406,0.10158,0.334122,0.207618,0.105623,0.168269,0.098457,0.139589,0.271455,0.095997,0.080761,0.075933,0.236768,0.373331,0.786801,0.149954,0.243189,0.317313,0.417516,0.621394,0.164456,0.287012,0.160337,0.188173,0.290583,0.067432,0.058359,0.2456,0.34994,0.32815,0.116428,0.088712,0.338882,0.446523,0.20022,0.099185,0.119267,0.528046,0.52427,0.265512,0.219851,0.170622,0.264498,0.443139,0.23164,0.13253,0.268805,0.388936,0.392181,0.404808,0.163689,0.145868,0.493887,0.332819,0.275288,0.313524,0.246311
1768972945.044812,1768972945.045418,31.0,0.0,4383.077148,4379.743652,4365.384766,4396.410156,4378.461426,4384.871582,4380.384766,4385.384766,4380.384766,4364.102539,4473.205078,4546.410156,4427.307617,4442.179688,,,,,,,,,,,,,,,,,,,,,,,,,,,,,,,,,,,,,,,,,,,,,,,,,,,,,,,,,,,,,,,,,,,,,,
1768972945.05262,1768972945.053426,32.0,0.0,4382.692383,4376.922852,4366.025879,4394.871582,4377.05127,4383.717773,4385.256348,4389.743652,4381.922852,4368.846191,4477.307617,4549.487305,4431.666504,4446.666504,,,,,,,,,,,,,,,,,,,,,,,,,,,,,,,,,,,,,,,,,,,,,,,,,,,,,,,,,,,,,,,,,,,,,,
1768972945.060429,1768972945.061235,33.0,0.0,4381.282227,4378.205078,4367.563965,4391.538574,4374.871582,4373.717773,4378.461426,4386.666504,4380.769043,4368.077148,4475.769043,4546.282227,4428.077148,4441.410156,,,,,,,,,,,,,,,,,,,,,,,,,,,,,,,,,,,,,,,,,,,,,,,,,,,,,,,,,,,,,,,,,,,,,,
1768972945.068237,1768972945.069143,34.0,0.0,4381.282227,4384.358887,4364.358887,4394.871582,4374.871582,4374.358887,4376.282227,4381.922852,4377.692383,4362.563965,4476.025879,4545.769043,4427.179688,4439.743652,,,,,,,,,,,,,,,,,,,,,,,,,,,,,,,,,,,,,,,,,,,,,,,,,,,,,,,,,,,,,,,,,,,,,,
1768972945.076046,1768972945.076951,35.0,0.0,4381.922852,4387.436035,4364.102539,4399.230957,4375.769043,4378.461426,4381.666504,4381.794922,4370.641113,4363.846191,4475.641113,4545.128418,4428.589844,4442.692383,,,,,,,,,,,,,,,,,,,,,,,,,,,,,,,,,,,,,,,,,,,,,,,,,,,,,,,,,,,,,,,,,,,,,,
1768972945.083854,1768972945.08496,36.0,0.0,4375.512695,4384.358887,4361.666504,4391.025879,4372.05127,4375.769043,4379.871582,4381.282227,4365.128418,4367.307617,4472.179688,4538.205078,4425.256348,4436.153809,,,,,,,,,,,,,,,,,,,,,,,,,,,,,,,,,,,,,,,,,,,,,,,,,,,,,,,,,,,,,,,,,,,,,,
1768972945.091663,1768972945.092768,37.0,0.0,4375.256348,4389.615234,4356.025879,4386.538574,4371.153809,4377.692383,4377.820313,4382.179688,4368.461426,4368.461426,4472.94873,4539.615234,4425.0,4433.205078,,,,,,,,,,,,,,,,,,,,,,,,,,,,,,,,,,,,,,,,,,,,,,,,,,,,,,,,,,,,,,,,,,,,,,
1768972945.099471,1768972945.100676,38.0,0.0,4381.153809,4396.410156,4359.487305,4395.769043,4375.384766,4382.436035,4383.589844,4385.384766,4372.179688,4368.717773,4473.205078,4545.0,4424.230957,4437.05127,,,,,,,,,,,,,,,,,,,,,,,,,,,,,,,,,,,,,,,,,,,,,,,,,,,,,,,,,,,,,,,,,,,,,,
1768972945.107279,1768972945.108485,39.0,0.0,4377.820313,4390.0,4365.512695,4398.717773,4375.897461,4380.769043,4385.769043,4382.692383,4371.025879,4366.153809,4465.512695,4537.692383,4417.307617,4433.077148,,,,,,,,,,,,,,,,,,,,,,,,,,,,,,,,,,,,,,,,,,,,,,,,,,,,,,,,,,,,,,,,,,,,,,
1768972945.115088,1768972945.116293,40.0,0.0,4372.307617,4384.102539,4362.436035,4390.641113,4374.230957,4380.512695,4382.307617,4378.205078,4369.487305,4363.846191,4460.512695,4532.307617,4411.282227,4428.717773,,,,,,,,,,,,,,,,,,,,,,,,,,,,,,,,,,,,,,,,,,,,,,,,,,,,,,,,,,,,,,,,,,,,,,
1768972945.122896,1768972945.124102,41.0,0.0,4372.563965,4386.153809,4360.256348,4388.333496,4372.94873,4383.333496,4383.333496,4379.871582,4370.256348,4364.487305,4466.922852,4538.077148,4414.871582,4433.077148,,,,,,,,,,,,,,,,,,,,,,,,,,,,,,,,,,,,,,,,,,,,,,,,,,,,,,,,,,,,,,,,,,,,,,
1768972945.130705,1768972945.13181,42.0,0.0,4374.615234,4387.05127,4368.077148,4394.743652,4373.205078,4378.846191,4382.94873,4383.461426,4371.666504,4365.0,4473.077148,4542.179688,4423.846191,4437.307617,,,,,,,,,,,,,,,,,,,,,,,,,,,,,,,,,,,,,,,,,,,,,,,,,,,,,,,,,,,,,,,,,,,,,,
1768972945.138513,1768972945.139619,43.0,0.0,4379.615234,4387.820313,4374.358887,4398.589844,4376.666504,4375.769043,4378.461426,4385.128418,4372.692383,4366.153809,4472.94873,4537.692383,4427.94873,4438.333496,,,,,,,,,,,,,,,,,,,,,,,,,,,,,,,,,,,,,,,,,,,,,,,,,,,,,,,,,,,,,,,,,,,,,,
1768972945.146322,1768972945.147227,44.0,0.0,4383.589844,4391.666504,4372.307617,4397.179688,4380.769043,4380.256348,4380.128418,4386.922852,4376.153809,4369.358887,4474.230957,4534.871582,4426.153809,4441.410156,,,,,,,,,,,,,,,,,,,,,,,,,,,,,,,,,,,,,,,,,,,,,,,,,,,,,,,,,,,,,,,,,,,,,,
1768972945.15413,1768972945.155036,45.0,0.0,4382.05127,4391.922852,4371.538574,4395.641113,4378.846191,4383.974121,4387.05127,4390.641113,4380.256348,4372.05127,4476.794922,4540.512695,4426.794922,4444.487305,,,,,,,,,,,,,,,,,,,,,,,,,,,,,,,,,,,,,,,,,,,,,,,,,,,,,,,,,,,,,,,,,,,,,,
1768972945.161939,1768972945.162744,46.0,0.0,4386.410156,4390.384766,4373.333496,4395.512695,4373.205078,4381.153809,4388.461426,4388.846191,4377.820313,4371.025879,4476.153809,4546.538574,4430.769043,4444.487305,0.477757,0.164499,0.327429,0.270801,0.098404,1.529925,0.559018,0.241076,0.172703,0.104194,0.241792,0.187024,0.191345,0.20085,0.100294,0.325354,0.185577,0.140659,0.161323,0.094816,0.176588,0.300991,0.099831,0.082432,0.073059,0.235894,0.298291,0.633392,0.120775,0.23394,0.269889,0.377829,0.491575,0.137139,0.281077,0.185499,0.195496,0.254543,0.063233,0.055324,0.284704,0.312841,0.305408,0.121884,0.08498,0.306658,0.369308,0.190882,0.108843,0.111974,0.514901,0.503139,0.2497,0.251131,0.158267,0.240601,0.404258,0.23206,0.171266,0.256834,0.299914,0.292151,0.357733,0.172693,0.141889,0.441157,0.213043,0.25228,0.358556,0.257194
1768972945.169747,1768972945.170553,47.0,0.0,4390.0,4387.307617,4373.461426,4395.641113,4372.179688,4378.461426,4381.153809,4382.563965,4371.153809,4363.589844,4473.846191,4541.153809,4422.05127,4440.128418,,,,,,,,,,,,,,,,,,,,,,,,,,,,,,,,,,,,,,,,,,,,,,,,,,,,,,,,,,,,,,,,,,,,,,
1768972945.177555,1768972945.178161,48.0,0.0,4384.743652,4381.538574,4371.282227,4396.538574,4375.897461,4381.025879,4379.102539,4383.077148,4374.102539,4362.436035,4473.205078,4535.0,4414.615234,4437.820313,,,,,,,,,,,,,,,,,,,,,,,,,,,,,,,,,,,,,,,,,,,,,,,,,,,,,,,,,,,,,,,,,,,,,,
1768972945.185364,1768972945.18597,49.0,0.0,4381.282227,4378.333496,4368.077148,4397.563965,4376.282227,4381.922852,4385.384766,4385.0,4381.153809,4369.230957,4474.871582,4537.563965,4423.333496,4442.94873,,,,,,,,,,,,,,,,,,,,,,,,,,,,,,,,,,,,,,,,,,,,,,,,,,,,,,,,,,,,,,,,,,,,,,
1768972945.193172,1768972945.193878,50.0,0.0,4382.05127,4375.384766,4365.512695,4397.563965,4373.461426,4384.102539,4389.358887,4385.128418,4377.563965,4366.922852,4475.0,4534.487305,4425.897461,4439.615234,,,,,,,,,,,,,,,,,,,,,,,,,,,,,,,,,,,,,,,,,,,,,,,,,,,,,,,,,,,,,,,,,,,,,,
1768972945.200981,1768972945.201687,51.0,0.0,4381.538574,4371.666504,4363.846191,4394.615234,4370.512695,4387.563965,4383.077148,4385.384766,4369.615234,4360.897461,4468.589844,4524.487305,4416.922852,4428.205078,,,,,,,,,,,,,,,,,,,,,,,,,,,,,,,,,,,,,,,,,,,,,,,,,,,,,,,,,,,,,,,,,,,,,,
1768972945.208789,1768972945.209695,52.0,0.0,4379.615234,4372.94873,4362.563965,4393.589844,4368.589844,4385.641113,4376.410156,4382.436035,4370.256348,4362.05127,4464.358887,4521.794922,4411.794922,4426.410156,,,,,,,,,,,,,,,,,,,,,,,,,,,,,,,,,,,,,,,,,,,,,,,,,,,,,,,,,,,,,,,,,,,,,,
1768972945.216598,1768972945.217503,53.0,0.0,4380.0,4376.666504,4365.897461,4396.538574,4369.487305,4382.05127,4380.0,4380.384766,4374.358887,4361.666504,4466.922852,4528.077148,4415.769043,4432.692383,,,,,,,,,,,,,,,,,,,,,,,,,,,,,,,,,,,,,,,,,,,,,,,,,,,,,,,,,,,,,,,,,,,,,,
1768972945.224406,1768972945.225212,54.0,0.0,4382.307617,4375.256348,4371.025879,4399.102539,4372.94873,4385.512695,4385.256348,4383.846191,4371.794922,4358.717773,4466.538574,4532.820313,4421.666504,4432.94873,,,,,,,,,,,,,,,,,,,,,,,,,,,,,,,,,,,,,,,,,,,,,,,,,,,,,,,,,,,,,,,,,,,,,,
1768972945.232215,1768972945.23302,55.0,0.0,4381.410156,4369.743652,4365.256348,4394.358887,4373.077148,4389.102539,4382.05127,4385.384766,4371.922852,4362.05127,4465.512695,4529.102539,4423.589844,4433.077148,,,,,,,,,,,,,,,,,,,,,,,,,,,,,,,,,,,,,,,,,,,,,,,,,,,,,,,,,,,,,,,,,,,,,,
1768972945.240023,1768972945.240629,56.0,0.0,4377.179688,4370.128418,4356.025879,4389.358887,4369.615234,4382.94873,4377.05127,4382.179688,4379.358887,4366.153809,4471.922852,4528.333496,4421.538574,4438.974121,,,,,,,,,,,,,,,,,,,,,,,,,,,,,,,,,,,,,,,,,,,,,,,,,,,,,,,,,,,,,,,,,,,,,,
1768972945.247831,1768972945.248437,57.0,0.0,4383.077148,4377.179688,4363.461426,4395.128418,4370.641113,4380.512695,4382.436035,4382.692383,4381.922852,4368.717773,4478.077148,4540.769043,4424.871582,4444.487305,,,,,,,,,,,,,,,,,,,,,,,,,,,,,,,,,,,,,,,,,,,,,,,,,,,,,,,,,,,,,,,,,,,,,,
1768972945.25564,1768972945.256346,58.0,0.0,4395.384766,4379.743652,4375.769043,4402.05127,4375.512695,4390.512695,4393.589844,4388.205078,4381.282227,4372.692383,4479.358887,4554.871582,4431.666504,4450.128418,,,,,,,,,,,,,,,,,,,,,,,,,,,,,,,,,,,,,,,,,,,,,,,,,,,,,,,,,,,,,,,,,,,,,,
1768972945.263448,1768972945.264154,59.0,0.0,4392.692383,4376.153809,4370.384766,4398.717773,4374.743652,4388.077148,4387.692383,4389.358887,4383.974121,4372.563965,4478.077148,4554.358887,4429.102539,4450.512695,,,,,,,,,,,,,,,,,,,,,,,,,,,,,,,,,,,,,,,,,,,,,,,,,,,,,,,,,,,,,,,,,,,,,,
1768972945.271257,1768972945.272162,60.0,0.0,4384.871582,4377.692383,4361.410156,4395.0,4370.897461,4377.563965,4378.717773,4385.897461,4383.333496,4373.205078,4475.641113,4549.102539,4426.282227,4445.128418,,,,,,,,,,,,,,,,,,,,,,,,,,,,,,,,,,,,,,,,,,,,,,,,,,,,,,,,,,,,,,,,,,,,,,
1768972945.279065,1768972945.279971,61.0,0.0,4392.820313,4382.179688,4367.692383,4398.717773,4374.487305,4388.974121,4392.05127,4390.769043,4378.974121,4375.256348,4481.410156,4555.256348,4428.589844,4450.512695,,,,,,,,,,,,,,,,,,,,,,,,,,,,,,,,,,,,,,,,,,,,,,,,,,,,,,,,,,,,,,,,,,,,,,
1768972945.286874,1768972945.287879,62.0,0.0,4401.794922,4379.102539,4376.282227,4400.0,4381.025879,4398.333496,4399.358887,4398.846191,4386.153809,4374.743652,4491.282227,4564.230957,4430.641113,4460.384766,0.41315,0.149867,0.359051,0.247302,0.100887,1.572109,0.507675,0.249617,0.164021,0.109032,0.234429,0.179532,0.19385,0.197709,0.098512,0.328294,0.155577,0.17359,0.154363,0.092156,0.206072,0.307144,0.097935,0.084414,0.069155,0.235116,0.262279,0.468002,0.100463,0.214576,0.210355,0.333729,0.360184,0.117762,0.258397,0.218656,0.198333,0.205045,0.056672,0.052272,0.341812,0.29352,0.254594,0.121521,0.080288,0.265672,0.282284,0.167224,0.107929,0.100815,0.514099,0.462025,0.219252,0.26567,0.146713,0.26651,0.368688,0.223975,0.204991,0.228433,0.228739,0.210468,0.286958,0.168726,0.131078,0.433609,0.124672,0.215952,0.376433,0.260717
1768972945.294682,1768972945.295688,63.0,0.0,4392.179688,4374.615234,4374.102539,4397.563965,4379.358887,4381.666504,4382.436035,4395.0,4395.897461,4373.461426,4486.410156,4559.358887,4429.358887,4453.589844,,,,,,,,,,,,,,,,,,,,,,,,,,,,,,,,,,,,,,,,,,,,,,,,,,,,,,,,,,,,,,,,,,,,,,
1768972945.302491,1768972945.303296,64.0,0.0,4382.307617,4373.717773,4370.384766,4396.922852,4376.922852,4375.256348,4376.922852,4388.333496,4391.794922,4372.05127,4474.743652,4545.0,4426.410156,4441.282227,,,,,,,,,,,,,,,,,,,,,,,,,,,,,,,,,,,,,,,,,,,,,,,,,,,,,,,,,,,,,,,,,,,,,,
1768972945.310299,1768972945.311105,65.0,0.0,4387.94873,4372.179688,4371.922852,4397.05127,4376.666504,4388.846191,4388.974121,4390.769043,4386.153809,4371.794922,4480.769043,4545.0,4426.282227,4450.384766,,,,,,,,,,,,,,,,,,,,,,,,,,,,,,,,,,,,,,,,,,,,,,,,,,,,,,,,,,,,,,,,,,,,,,
1768972945.318107,1768972945.318813,66.0,0.0,4389.871582,4369.743652,4375.256348,4397.436035,4373.846191,4387.94873,4385.769043,4391.538574,4389.102539,4374.230957,4494.358887,4559.615234,4427.820313,4460.384766,,,,,,,,,,,,,,,,,,,,,,,,,,,,,,,,,,,,,,,,,,,,,,,,,,,,,,,,,,,,,,,,,,,,,,
1768972945.325916,1768972945.326622,67.0,0.0,4383.205078,4369.615234,4375.897461,4397.436035,4373.205078,4378.333496,4377.94873,4385.128418,4390.384766,4374.102539,4489.102539,4560.0,4427.436035,4448.333496,,,,,,,,,,,,,,,,,,,,,,,,,,,,,,,,,,,,,,,,,,,,,,,,,,,,,,,,,,,,,,,,,,,,,,
1768972945.333724,1768972945.33423,68.0,0.0,4388.974121,4374.871582,4374.358887,4397.692383,4378.461426,4382.05127,4383.589844,4383.461426,4386.025879,4371.282227,4478.461426,4549.743652,4426.922852,4441.410156,,,,,,,,,,,,,,,,,,,,,,,,,,,,,,,,,,,,,,,,,,,,,,,,,,,,,,,,,,,,,,,,,,,,,,
1768972945.341533,1768972945.342039,69.0,0.0,4398.333496,4376.538574,4374.871582,4403.846191,4382.179688,4388.205078,4385.897461,4385.128418,4386.538574,4374.487305,4479.487305,4547.563965,4428.333496,4450.384766,,,,,,,,,,,,,,,,,,,,,,,,,,,,,,,,,,,,,,,,,,,,,,,,,,,,,,,,,,,,,,,,,,,,,,
1768972945.349341,1768972945.349747,70.0,0.0,4392.05127,4372.94873,4374.615234,4406.282227,4378.589844,4387.563965,4384.487305,4382.307617,4388.589844,4372.820313,4478.974121,4546.794922,4426.794922,4450.641113,,,,,,,,,,,,,,,,,,,,,,,,,,,,,,,,,,,,,,,,,,,,,,,,,,,,,,,,,,,,,,,,,,,,,,
1768972945.35715,1768972945.357556,71.0,0.0,4385.0,4371.410156,4369.871582,4400.128418,4375.641113,4385.128418,4387.436035,4384.230957,4389.871582,4366.153809,4479.230957,4548.205078,4424.871582,4448.333496,,,,,,,,,,,,,,,,,,,,,,,,,,,,,,,,,,,,,,,,,,,,,,,,,,,,,,,,,,,,,,,,,,,,,,
1768972945.364958,1768972945.365165,72.0,0.0,4387.307617,4372.05127,4367.436035,4399.230957,4377.692383,4384.358887,4388.333496,4392.179688,4393.846191,4373.461426,4489.487305,4555.769043,4427.820313,4456.538574,,,,,,,,,,,,,,,,,,,,,,,,,,,,,,,,,,,,,,,,,,,,,,,,,,,,,,,,,,,,,,,,,,,,,,
1768972945.372767,1768972945.372973,73.0,0.0,4387.94873,4373.589844,4371.922852,4402.94873,4381.025879,4388.461426,4387.94873,4393.461426,4393.846191,4375.512695,4487.563965,4553.717773,4428.717773,4453.846191,,,,,,,,,,,,,,,,,,,,,,,,,,,,,,,,,,,,,,,,,,,,,,,,,,,,,,,,,,,,,,,,,,,,,,
1768972945.380575,1768972945.380682,74.0,0.0,4388.717773,4374.102539,4377.179688,4402.307617,4381.410156,4390.128418,4389.871582,4385.512695,4387.307617,4362.563965,4473.589844,4541.538574,4426.025879,4444.487305,,,,,,,,,,,,,,,,,,,,,,,,,,,,,,,,,,,,,,,,,,,,,,,,,,,,,,,,,,,,,,,,,,,,,,
1768972945.388384,1768972945.38849,75.0,0.0,4389.487305,4371.025879,4375.384766,4402.436035,4379.743652,4388.077148,4392.307617,4381.538574,4384.743652,4360.128418,4473.717773,4539.871582,4425.128418,4446.538574,,,,,,,,,,,,,,,,,,,,,,,,,,,,,,,,,,,,,,,,,,,,,,,,,,,,,,,,,,,,,,,,,,,,,,
1768972945.396192,1768972945.396498,76.0,0.0,4386.666504,4373.461426,4374.871582,4408.205078,4380.256348,4389.102539,4395.641113,4388.205078,4391.538574,4369.230957,4479.230957,4544.871582,4427.05127,4449.487305,,,,,,,,,,,,,,,,,,,,,,,,,,,,,,,,,,,,,,,,,,,,,,,,,,,,,,,,,,,,,,,,,,,,,,
1768972945.404,1768972945.404307,77.0,0.0,4390.256348,4383.077148,4377.820313,4410.0,4383.333496,4390.512695,4394.487305,4393.846191,4393.077148,4369.615234,4475.641113,4541.794922,4424.743652,4448.205078,,,,,,,,,,,,,,,,,,,,,,,,,,,,,,,,,,,,,,,,,,,,,,,,,,,,,,,,,,,,,,,,,,,,,,
1768972945.411809,1768972945.412215,78.0,0.0,4393.077148,4382.563965,4376.025879,4405.128418,4382.563965,4387.94873,4390.128418,4390.256348,4389.358887,4366.922852,4476.025879,4538.333496,4421.025879,4449.871582,0.34847,0.144829,0.36079,0.220127,0.105951,1.557123,0.43855,0.253023,0.171511,0.113774,0.233533,0.17873,0.184182,0.185992,0.097934,0.342956,0.127406,0.198139,0.149868,0.091084,0.222633,0.289535,0.090925,0.086147,0.06444,0.243292,0.26044,0.332792,0.094491,0.188626,0.15301,0.290028,0.252221,0.112348,0.224381,0.25341,0.19686,0.157013,0.050668,0.050358,0.41744,0.287967,0.193777,0.115894,0.075569,0.226596,0.205725,0.139781,0.09851,0.088118,0.510394,0.416159,0.190494,0.26413,0.145257,0.321515,0.341238,0.216291,0.226018,0.192443,0.172296,0.171861,0.219435,0.155828,0.117827,0.471843,0.090626,0.186241,0.363365,0.257127
1768972945.419617,1768972945.420023,79.0,0.0,4390.512695,4373.589844,4370.641113,4400.641113,4376.410156,4385.256348,4386.794922,4385.769043,4388.974121,4368.205078,4481.153809,4540.256348,4426.922852,4449.358887,,,,,,,,,,,,,,,,,,,,,,,,,,,,,,,,,,,,,,,,,,,,,,,,,,,,,,,,,,,,,,,,,,,,,,
1768972945.427426,1768972945.427632,80.0,0.0,4392.820313,4373.333496,4367.563965,4399.230957,4372.179688,4385.512695,4385.384766,4387.692383,4387.94873,4365.769043,4479.615234,4540.769043,4430.256348,4445.769043,,,,,,,,,,,,,,,,,,,,,,,,,,,,,,,,,,,,,,,,,,,,,,,,,,,,,,,,,,,,,,,,,,,,,,
1768972945.435234,1768972945.435441,81.0,0.0,4392.692383,4372.05127,4366.153809,4400.0,4374.871582,4386.025879,4388.846191,4390.769043,4390.0,4364.230957,4476.025879,4538.077148,4421.922852,4443.205078,,,,,,,,,,,,,,,,,,,,,,,,,,,,,,,,,,,,,,,,,,,,,,,,,,,,,,,,,,,,,,,,,,,,,,
1768972945.443043,1768972945.443149,82.0,0.0,4383.461426,4371.410156,4364.743652,4399.615234,4380.128418,4390.641113,4396.922852,4391.922852,4396.794922,4366.666504,4476.538574,4536.538574,4421.794922,4443.077148,,,,,,,,,,,,,,,,,,,,,,,,,,,,,,,,,,,,,,,,,,,,,,,,,,,,,,,,,,,,,,,,,,,,,,
1768972945.450851,1768972945.450958,83.0,0.0,4378.077148,4371.410156,4366.025879,4399.358887,4382.05127,4397.05127,4402.820313,4390.769043,4395.641113,4366.282227,4476.282227,4535.512695,4425.641113,4442.692383,,,,,,,,,,,,,,,,,,,,,,,,,,,,,,,,,,,,,,,,,,,,,,,,,,,,,,,,,,,,,,,,,,,,,,
1768972945.45866,1768972945.458966,84.0,0.0,4380.897461,4363.205078,4367.05127,4397.820313,4380.897461,4398.205078,4403.077148,4385.769043,4386.153809,4361.538574,4473.077148,4532.820313,4416.794922,4440.256348,,,,,,,,,,,,,,,,,,,,,,,,,,,,,,,,,,,,,,,,,,,,,,,,,,,,,,,,,,,,,,,,,,,,,,
1768972945.466468,1768972945.466774,85.0,0.0,4385.256348,4362.307617,4366.794922,4396.410156,4382.692383,4397.692383,4400.641113,4383.461426,4386.794922,4362.692383,4474.102539,4533.846191,4416.538574,4443.333496,,,,,,,,,,,,,,,,,,,,,,,,,,,,,,,,,,,,,,,,,,,,,,,,,,,,,,,,,,,,,,,,,,,,,,
1768972945.474276,1768972945.474683,86.0,0.0,4387.820313,4371.666504,4368.461426,4397.563965,4385.256348,4396.025879,4395.641113,4385.641113,4390.512695,4373.077148,4478.077148,4537.563965,4428.974121,4448.717773,,,,,,,,,,,,,,,,,,,,,,,,,,,,,,,,,,,,,,,,,,,,,,,,,,,,,,,,,,,,,,,,,,,,,,
1768972945.482085,1768972945.482491,87.0,0.0,4385.769043,4371.794922,4367.436035,4395.897461,4381.922852,4394.871582,4395.384766,4385.769043,4383.717773,4371.282227,4476.922852,4536.153809,4423.589844,4445.512695,,,,,,,,,,,,,,,,,,,,,,,,,,,,,,,,,,,,,,,,,,,,,,,,,,,,,,,,,,,,,,,,,,,,,,
1768972945.489893,1768972945.490499,88.0,0.0,4385.897461,4367.563965,4366.794922,4395.256348,4379.615234,4394.102539,4397.820313,4383.077148,4382.05127,4358.205078,4473.461426,4537.179688,4411.538574,4441.025879,,,,,,,,,,,,,,,,,,,,,,,,,,,,,,,,,,,,,,,,,,,,,,,,,,,,,,,,,,,,,,,,,,,,,,
1768972945.497702,1768972945.498308,89.0,0.0,4390.0,4373.589844,4369.487305,4397.94873,4382.820313,4389.743652,4391.410156,4382.05127,4389.487305,4358.205078,4474.102539,4542.307617,4418.974121,4449.102539,,,,,,,,,,,,,,,,,,,,,,,,,,,,,,,,,,,,,,,,,,,,,,,,,,,,,,,,,,,,,,,,,,,,,,
1768972945.50551,1768972945.506016,90.0,0.0,4389.487305,4379.102539,4373.077148,4398.333496,4382.563965,4386.410156,4387.307617,4383.717773,4393.333496,4367.05127,4476.922852,4540.0,4430.0,4457.94873,,,,,,,,,,,,,,,,,,,,,,,,,,,,,,,,,,,,,,,,,,,,,,,,,,,,,,,,,,,,,,,,,,,,,,
1768972945.513319,1768972945.513825,91.0,0.0,4390.0,4373.461426,4374.615234,4396.666504,4376.538574,4387.820313,4392.94873,4385.128418,4385.384766,4363.589844,4475.769043,4532.692383,4422.820313,4450.512695,,,,,,,,,,,,,,,,,,,,,,,,,,,,,,,,,,,,,,,,,,,,,,,,,,,,,,,,,,,,,,,,,,,,,,
1768972945.521127,1768972945.521833,92.0,0.0,4394.358887,4366.666504,4373.205078,4396.282227,4371.922852,4385.0,4391.538574,4384.615234,4381.153809,4356.794922,4473.974121,4531.025879,4410.128418,4442.179688,,,,,,,,,,,,,,,,,,,,,,,,,,,,,,,,,,,,,,,,,,,,,,,,,,,,,,,,,,,,,,,,,,,,,,
1768972945.528936,1768972945.529641,93.0,0.0,4398.077148,4368.846191,4372.436035,4396.922852,4378.333496,4379.615234,4385.0,4384.871582,4390.641113,4361.410156,4476.794922,4531.153809,4416.153809,4448.974121,,,,,,,,,,,,,,,,,,,,,,,,,,,,,,,,,,,,,,,,,,,,,,,,,,,,,,,,,,,,,,,,,,,,,,
1768972945.536744,1768972945.53735,94.0,0.0,4395.384766,4374.358887,4373.333496,4397.94873,4383.589844,4384.871582,4389.743652,4389.743652,4397.94873,4368.205078,4478.974121,4534.615234,4427.94873,4453.077148,0.284585,0.16221,0.340618,0.1986,0.113788,1.498887,0.371032,0.245614,0.195136,0.11845,0.245632,0.18475,0.166389,0.170312,0.100643,0.364187,0.107612,0.209216,0.147734,0.092175,0.224909,0.254022,0.079343,0.086253,0.059813,0.260723,0.282159,0.245646,0.101877,0.16201,0.109162,0.255256,0.179603,0.120228,0.188635,0.285356,0.193427,0.121622,0.047351,0.050587,0.504542,0.2835,0.141857,0.1073,0.072462,0.202934,0.149312,0.117864,0.085737,0.0773,0.491786,0.382196,0.174793,0.252527,0.158811,0.387186,0.330283,0.213723,0.229292,0.161327,0.129178,0.190414,0.176179,0.14226,0.108227,0.54202,0.122197,0.177268,0.32558,0.249538
1768972945.544552,1768972945.545158,95.0,0.0,4388.846191,4374.358887,4373.717773,4399.230957,4377.692383,4389.615234,4396.538574,4393.846191,4393.589844,4366.794922,4477.05127,4539.358887,4421.282227,4445.897461,,,,,,,,,,,,,,,,,,,,,,,,,,,,,,,,,,,,,,,,,,,,,,,,,,,,,,,,,,,,,,,,,,,,,,
1768972945.552361,1768972945.552767,96.0,0.0,4390.897461,4375.897461,4376.025879,4399.487305,4371.410156,4383.589844,4392.179688,4390.769043,4388.461426,4364.230957,4476.922852,4538.589844,4414.230957,4443.974121,,,,,,,,,,,,,,,,,,,,,,,,,,,,,,,,,,,,,,,,,,,,,,,,,,,,,,,,,,,,,,,,,,,,,,
1768972945.560169,1768972945.560576,97.0,0.0,4395.769043,4380.641113,4377.307617,4398.461426,4373.461426,4382.05127,4388.589844,4387.179688,4390.769043,4366.538574,4479.487305,4538.077148,4422.94873,4447.692383,,,,,,,,,,,,,,,,,,,,,,,,,,,,,,,,,,,,,,,,,,,,,,,,,,,,,,,,,,,,,,,,,,,,,,
1768972945.567978,1768972945.568284,98.0,0.0,4392.179688,4380.897461,4372.563965,4396.794922,4378.461426,4388.974121,4391.538574,4388.461426,4393.717773,4368.205078,4479.358887,4536.410156,4426.666504,4445.384766,,,,,,,,,,,,,,,,,,,,,,,,,,,,,,,,,,,,,,,,,,,,,,,,,,,,,,,,,,,,,,,,,,,,,,
1768972945.575786,1768972945.576093,99.0,0.0,4386.410156,4380.512695,4370.384766,4397.179688,4375.641113,4388.589844,4389.230957,4385.512695,4388.974121,4364.102539,4476.922852,4531.153809,4418.974121,4443.077148,,,,,,,,,,,,,,,,,,,,,,,,,,,,,,,,,,,,,,,,,,,,,,,,,,,,,,,,,,,,,,,,,,,,,,
1768972945.583595,1768972945.584101,100.0,0.0,4386.025879,4381.538574,4372.179688,4399.230957,4370.641113,4382.436035,4384.615234,4378.846191,4380.256348,4360.0,4475.897461,4530.769043,4418.846191,4444.743652,,,,,,,,,,,,,,,,,,,,,,,,,,,,,,,,,,,,,,,,,,,,,,,,,,,,,,,,,,,,,,,,,,,,,,
1768972945.591403,1768972945.591909,101.0,0.0,4389.871582,4381.025879,4372.692383,4399.487305,4375.641113,4379.615234,4385.256348,4377.692383,4380.128418,4362.94873,4476.794922,4534.743652,4426.794922,4445.384766,,,,,,,,,,,,,,,,,,,,,,,,,,,,,,,,,,,,,,,,,,,,,,,,,,,,,,,,,,,,,,,,,,,,,,
1768972945.599212,1768972945.599818,102.0,0.0,4393.589844,4382.692383,4373.461426,4400.897461,4381.666504,4382.94873,4389.230957,4382.179688,4388.717773,4366.666504,4478.589844,4537.692383,4430.128418,4448.077148,,,,,,,,,,,,,,,,,,,,,,,,,,,,,,,,,,,,,,,,,,,,,,,,,,,,,,,,,,,,,,,,,,,,,,
1768972945.60702,1768972945.607626,103.0,0.0,4391.922852,4384.615234,4373.461426,4400.384766,4375.512695,4386.922852,4390.641113,4382.820313,4388.205078,4362.05127,4477.563965,4538.846191,4422.436035,4449.615234,,,,,,,,,,,,,,,,,,,,,,,,,,,,,,,,,,,,,,,,,,,,,,,,,,,,,,,,,,,,,,,,,,,,,,
1768972945.614828,1768972945.615634,104.0,0.0,4385.769043,4382.179688,4371.025879,4393.205078,4368.974121,4379.743652,4384.871582,4381.282227,4379.871582,4355.256348,4475.0,4535.512695,4412.05127,4444.871582,,,,,,,,,,,,,,,,,,,,,,,,,,,,,,,,,,,,,,,,,,,,,,,,,,,,,,,,,,,,,,,,,,,,,,
1768972945.622637,1768972945.623443,105.0,0.0,4385.256348,4381.025879,4371.794922,4390.512695,4376.282227,4372.820313,4382.05127,4385.0,4383.205078,4357.692383,4474.871582,4530.512695,4410.0,4443.717773,,,,,,,,,,,,,,,,,,,,,,,,,,,,,,,,,,,,,,,,,,,,,,,,,,,,,,,,,,,,,,,,,,,,,,
1768972945.630445,1768972945.631351,106.0,0.0,4388.461426,4386.666504,4376.153809,4396.666504,4379.615234,4382.563965,4390.384766,4391.666504,4393.846191,4364.358887,4477.05127,4533.333496,4414.230957,4446.282227,,,,,,,,,,,,,,,,,,,,,,,,,,,,,,,,,,,,,,,,,,,,,,,,,,,,,,,,,,,,,,,,,,,,,,
1768972945.638254,1768972945.639159,107.0,0.0,4387.563965,4391.538574,4377.94873,4397.820313,4373.589844,4388.717773,4395.897461,4391.153809,4393.974121,4366.153809,4476.922852,4538.589844,4413.846191,4445.641113,,,,,,,,,,,,,,,,,,,,,,,,,,,,,,,,,,,,,,,,,,,,,,,,,,,,,,,,,,,,,,,,,,,,,,
1768972945.646062,1768972945.646768,108.0,0.0,4385.384766,4388.974121,4377.05127,4395.512695,4375.128418,4382.05127,4391.538574,4386.538574,4389.487305,4365.384766,4477.05127,4536.794922,4411.794922,4443.974121,,,,,,,,,,,,,,,,,,,,,,,,,,,,,,,,,,,,,,,,,,,,,,,,,,,,,,,,,,,,,,,,,,,,,,
1768972945.653871,1768972945.654577,109.0,0.0,4384.743652,4387.820313,4376.538574,4399.102539,4378.974121,4379.102539,4386.410156,4386.538574,4390.0,4363.205078,4476.153809,4535.0,4412.563965,4442.820313,,,,,,,,,,,,,,,,,,,,,,,,,,,,,,,,,,,,,,,,,,,,,,,,,,,,,,,,,,,,,,,,,,,,,,
1768972945.661679,1768972945.662485,110.0,0.0,4389.230957,4391.410156,4379.102539,4399.230957,4376.153809,4382.05127,4385.0,4388.461426,4390.256348,4363.333496,4474.487305,4540.512695,4413.974121,4446.794922,0.227995,0.210923,0.313658,0.187748,0.124286,1.429587,0.322865,0.228011,0.225987,0.122618,0.279899,0.198928,0.146815,0.154261,0.107603,0.382554,0.098619,0.204926,0.145827,0.095423,0.215564,0.211498,0.06429,0.083726,0.056634,0.278792,0.318685,0.20029,0.1159,0.141601,0.082959,0.241878,0.141768,0.135591,0.161389,0.315171,0.191559,0.102564,0.047624,0.053534,0.589961,0.269629,0.109354,0.099034,0.072376,0.200133,0.114659,0.105528,0.075729,0.071288,0.462447,0.370328,0.171607,0.23953,0.185123,0.486077,0.350762,0.216545,0.216119,0.146135,0.101673,0.260613,0.160204,0.135424,0.106658,0.614618,0.215967,0.188265,0.275903,0.241913
1768972945.669488,1768972945.670293,111.0,0.0,4396.282227,4393.717773,4379.743652,4396.282227,4373.974121,4382.307617,4387.94873,4389.102539,4388.717773,4368.077148,4483.717773,4547.05127,4416.666504,4458.461426,,,,,,,,,,,,,,,,,,,,,,,,,,,,,,,,,,,,,,,,,,,,,,,,,,,,,,,,,,,,,,,,,,,,,,
1768972945.677296,1768972945.678302,112.0,0.0,4394.871582,4393.461426,4377.05127,4396.666504,4375.641113,4387.05127,4393.205078,4388.974121,4389.230957,4369.358887,4492.820313,4548.589844,4419.230957,4459.871582,,,,,,,,,,,,,,,,,,,,,,,,,,,,,,,,,,,,,,,,,,,,,,,,,,,,,,,,,,,,,,,,,,,,,,
1768972945.685104,1768972945.68611,113.0,0.0,4383.846191,4388.077148,4374.487305,4396.538574,4375.641113,4387.179688,4392.94873,4387.307617,4388.205078,4368.205078,4483.077148,4542.436035,4415.512695,4447.820313,,,,,,,,,,,,,,,,,,,,,,,,,,,,,,,,,,,,,,,,,,,,,,,,,,,,,,,,,,,,,,,,,,,,,,
1768972945.692913,1768972945.693819,114.0,0.0,4382.05127,4385.128418,4370.897461,4394.615234,4375.641113,4380.128418,4388.461426,4386.794922,4385.128418,4369.743652,4472.307617,4534.871582,4408.846191,4447.179688,,,,,,,,,,,,,,,,,,,,,,,,,,,,,,,,,,,,,,,,,,,,,,,,,,,,,,,,,,,,,,,,,,,,,,
1768972945.700721,1768972945.701627,115.0,0.0,4395.0,4394.615234,4368.589844,4397.307617,4374.487305,4378.205078,4388.333496,4386.025879,4382.692383,4368.846191,4478.717773,4538.846191,4416.153809,4459.615234,,,,,,,,,,,,,,,,,,,,,,,,,,,,,,,,,,,,,,,,,,,,,,,,,,,,,,,,,,,,,,,,,,,,,,
1768972945.70853,1768972945.709236,116.0,0.0,4401.282227,4402.436035,4372.307617,4401.153809,4371.538574,4377.307617,4389.102539,4383.846191,4382.179688,4367.820313,4482.307617,4547.436035,4424.743652,4465.512695,,,,,,,,,,,,,,,,,,,,,,,,,,,,,,,,,,,,,,,,,,,,,,,,,,,,,,,,,,,,,,,,,,,,,,
1768972945.716338,1768972945.717044,117.0,0.0,4393.077148,4394.102539,4376.282227,4399.487305,4372.307617,4375.256348,4388.077148,4386.666504,4383.717773,4369.358887,4474.743652,4541.794922,4417.436035,4455.769043,,,,,,,,,,,,,,,,,,,,,,,,,,,,,,,,,,,,,,,,,,,,,,,,,,,,,,,,,,,,,,,,,,,,,,
1768972945.724146,1768972945.724953,118.0,0.0,4381.666504,4385.512695,4370.641113,4395.256348,4372.692383,4372.563965,4384.358887,4388.846191,4381.794922,4366.666504,4470.512695,4528.077148,4409.358887,4442.563965,,,,,,,,,,,,,,,,,,,,,,,,,,,,,,,,,,,,,,,,,,,,,,,,,,,,,,,,,,,,,,,,,,,,,,
1768972945.731955,1768972945.732761,119.0,0.0,4374.743652,4384.102539,4361.538574,4391.153809,4372.820313,4373.077148,4382.307617,4385.897461,4379.743652,4360.769043,4466.794922,4525.128418,4407.179688,4441.282227,,,,,,,,,,,,,,,,,,,,,,,,,,,,,,,,,,,,,,,,,,,,,,,,,,,,,,,,,,,,,,,,,,,,,,
1768972945.739763,1768972945.74037,120.0,0.0,4370.769043,4380.128418,4357.820313,4387.692383,4374.102539,4376.922852,4382.563965,4384.871582,4381.538574,4357.94873,4459.358887,4525.384766,4398.974121,4438.333496,,,,,,,,,,,,,,,,,,,,,,,,,,,,,,,,,,,,,,,,,,,,,,,,,,,,,,,,,,,,,,,,,,,,,,
1768972945.747572,1768972945.748178,121.0,0.0,4371.794922,4385.0,4362.179688,4389.358887,4371.794922,4379.230957,4384.615234,4386.025879,4382.692383,4358.974121,4461.666504,4520.769043,4396.282227,4433.589844,,,,,,,,,,,,,,,,,,,,,,,,,,,,,,,,,,,,,,,,,,,,,,,,,,,,,,,,,,,,,,,,,,,,,,
1768972945.75538,1768972945.755887,122.0,0.0,4381.666504,4397.94873,4372.179688,4395.384766,4373.461426,4381.794922,4392.179688,4387.436035,4383.589844,4365.256348,4473.974121,4525.0,4409.487305,4443.077148,,,,,,,,,,,,,,,,,,,,,,,,,,,,,,,,,,,,,,,,,,,,,,,,,,,,,,,,,,,,,,,,,,,,,,
1768972945.763189,1768972945.763695,123.0,0.0,4391.153809,4400.512695,4377.820313,4398.846191,4378.589844,4383.205078,4395.256348,4389.230957,4387.692383,4374.358887,4479.615234,4534.615234,4417.179688,4451.794922,,,,,,,,,,,,,,,,,,,,,,,,,,,,,,,,,,,,,,,,,,,,,,,,,,,,,,,,,,,,,,,,,,,,,,
1768972945.770997,1768972945.771304,124.0,0.0,4389.358887,4393.333496,4374.743652,4394.358887,4376.538574,4380.384766,4388.333496,4388.333496,4387.05127,4374.230957,4477.307617,4532.179688,4412.692383,4444.871582,,,,,,,,,,,,,,,,,,,,,,,,,,,,,,,,,,,,,,,,,,,,,,,,,,,,,,,,,,,,,,,,,,,,,,
1768972945.778806,1768972945.779112,125.0,0.0,4384.230957,4389.743652,4368.717773,4389.615234,4373.461426,4374.871582,4385.0,4385.256348,4380.641113,4364.743652,4472.94873,4526.538574,4409.102539,4441.538574,,,,,,,,,,,,,,,,,,,,,,,,,,,,,,,,,,,,,,,,,,,,,,,,,,,,,,,,,,,,,,,,,,,,,,
1768972945.786614,1768972945.786821,126.0,0.0,4381.025879,4388.205078,4365.384766,4388.717773,4375.384766,4376.410156,4387.94873,4385.769043,4377.820313,4360.128418,4465.0,4528.846191,4403.974121,4441.282227,0.189036,0.286264,0.292767,0.18692,0.136337,1.318696,0.299979,0.206381,0.250759,0.125828,0.340532,0.221288,0.130077,0.139099,0.117413,0.390865,0.096937,0.187287,0.141759,0.099969,0.199519,0.174269,0.049242,0.078933,0.056219,0.289798,0.360618,0.17994,0.127332,0.131841,0.074737,0.254068,0.13065,0.150643,0.148937,0.348333,0.196952,0.096006,0.050765,0.059165,0.661365,0.248255,0.09613,0.093816,0.07656,0.221669,0.099474,0.101574,0.072144,0.071869,0.430793,0.381583,0.172167,0.23097,0.215488,0.632607,0.411153,0.219508,0.193299,0.150783,0.088921,0.361049,0.159741,0.138293,0.115171,0.662826,0.35565,0.206015,0.227779,0.237223
1768972945.794423,1768972945.794629,127.0,0.0,4378.077148,4382.692383,4366.922852,4390.128418,4374.487305,4381.410156,4387.692383,4388.333496,4381.538574,4360.897461,4458.461426,4528.461426,4396.922852,4430.641113,,,,,,,,,,,,,,,,,,,,,,,,,,,,,,,,,,,,,,,,,,,,,,,,,,,,,,,,,,,,,,,,,,,,,,
1768972945.802231,1768972945.802637,0.0,0.0,4381.025879,4380.769043,4368.846191,4389.743652,4374.487305,4382.563965,4389.102539,4386.794922,4381.922852,4358.333496,4460.256348,4523.205078,4396.153809,4426.025879,,,,,,,,,,,,,,,,,,,,,,,,,,,,,,,,,,,,,,,,,,,,,,,,,,,,,,,,,,,,,,,,,,,,,,
1768972945.810039,1768972945.810446,1.0,0.0,4380.0,4381.410156,4361.666504,4384.358887,4375.256348,4377.94873,4391.153809,4381.025879,4376.025879,4355.769043,4461.538574,4523.461426,4397.820313,4434.230957,,,,,,,,,,,,,,,,,,,,,,,,,,,,,,,,,,,,,,,,,,,,,,,,,,,,,,,,,,,,,,,,,,,,,,
1768972945.817848,1768972945.818354,2.0,0.0,4372.692383,4374.358887,4354.743652,4379.743652,4372.05127,4375.0,4388.077148,4378.846191,4372.563965,4357.692383,4459.743652,4527.94873,4399.743652,4441.282227,,,,,,,,,,,,,,,,,,,,,,,,,,,,,,,,,,,,,,,,,,,,,,,,,,,,,,,,,,,,,,,,,,,,,,
1768972945.825656,1768972945.826163,3.0,0.0,4375.769043,4367.436035,4357.94873,4381.666504,4374.358887,4382.563965,4390.384766,4381.153809,4373.974121,4358.589844,4460.641113,4525.256348,4404.615234,4441.666504,,,,,,,,,,,,,,,,,,,,,,,,,,,,,,,,,,,,,,,,,,,,,,,,,,,,,,,,,,,,,,,,,,,,,,
1768972945.833465,1768972945.834171,4.0,0.0,4384.743652,4371.538574,4362.692383,4385.897461,4381.666504,4386.153809,4392.05127,4378.974121,4374.102539,4357.179688,4459.871582,4520.0,4407.307617,4440.769043,,,,,,,,,,,,,,,,,,,,,,,,,,,,,,,,,,,,,,,,,,,,,,,,,,,,,,,,,,,,,,,,,,,,,,
1768972945.841273,1768972945.841979,5.0,0.0,4384.743652,4376.666504,4362.307617,4388.205078,4380.641113,4380.0,4387.94873,4377.307617,4373.717773,4359.230957,4463.589844,4524.871582,4408.717773,4443.589844,,,,,,,,,,,,,,,,,,,,,,,,,,,,,,,,,,,,,,,,,,,,,,,,,,,,,,,,,,,,,,,,,,,,,,
1768972945.849082,1768972945.849688,6.0,0.0,4381.410156,4371.410156,4365.769043,4389.871582,4378.461426,4379.230957,4389.230957,4382.692383,4378.205078,4363.333496,4472.820313,4532.179688,4411.538574,4445.0,,,,,,,,,,,,,,,,,,,,,,,,,,,,,,,,,,,,,,,,,,,,,,,,,,,,,,,,,,,,,,,,,,,,,,
1768972945.85689,1768972945.857496,7.0,0.0,4381.538574,4365.256348,4372.563965,4389.358887,4382.05127,4385.0,4394.487305,4386.794922,4383.077148,4368.333496,4476.794922,4534.743652,4411.794922,4442.94873,,,,,,,,,,,,,,,,,,,,,,,,,,,,,,,,,,,,,,,,,,,,,,,,,,,,,,,,,,,,,,,,,,,,,,
1768972945.864699,1768972945.865505,8.0,0.0,4383.333496,4369.615234,4371.410156,4387.692383,4381.666504,4382.94873,4391.922852,4384.871582,4380.512695,4371.025879,4476.282227,4535.769043,4410.897461,4442.94873,,,,,,,,,,,,,,,,,,,,,,,,,,,,,,,,,,,,,,,,,,,,,,,,,,,,,,,,,,,,,,,,,,,,,,
1768972945.872507,1768972945.873313,9.0,0.0,4382.94873,4373.589844,4365.512695,4389.358887,4377.563965,4375.897461,4386.794922,4384.871582,4375.0,4367.179688,4474.487305,4535.128418,4411.538574,4446.794922,,,,,,,,,,,,,,,,,,,,,,,,,,,,,,,,,,,,,,,,,,,,,,,,,,,,,,,,,,,,,,,,,,,,,,
1768972945.880315,1768972945.881022,10.0,0.0,4376.794922,4366.794922,4362.436035,4389.358887,4378.205078,4377.692383,4389.102539,4386.410156,4372.94873,4359.358887,4467.179688,4529.102539,4405.256348,4441.538574,,,,,,,,,,,,,,,,,,,,,,,,,,,,,,,,,,,,,,,,,,,,,,,,,,,,,,,,,,,,,,,,,,,,,,
1768972945.888124,1768972945.88883,11.0,0.0,4375.512695,4367.692383,4363.846191,4388.077148,4380.256348,4380.384766,4391.538574,4383.974121,4371.922852,4355.897461,4457.94873,4522.179688,4394.743652,4429.743652,,,,,,,,,,,,,,,,,,,,,,,,,,,,,,,,,,,,,,,,,,,,,,,,,,,,,,,,,,,,,,,,,,,,,,
1768972945.895932,1768972945.896439,12.0,0.0,4382.820313,4381.153809,4366.282227,4389.871582,4376.410156,4375.641113,4386.794922,4382.179688,4366.282227,4358.205078,4457.436035,4520.897461,4393.205078,4431.282227,,,,,,,,,,,,,,,,,,,,,,,,,,,,,,,,,,,,,,,,,,,,,,,,,,,,,,,,,,,,,,,,,,,,,,
1768972945.903741,1768972945.904247,13.0,0.0,4382.94873,4381.538574,4363.717773,4390.641113,4373.077148,4374.358887,4381.025879,4381.025879,4364.487305,4358.205078,4460.897461,4522.05127,4400.256348,4441.410156,,,,,,,,,,,,,,,,,,,,,,,,,,,,,,,,,,,,,,,,,,,,,,,,,,,,,,,,,,,,,,,,,,,,,,
1768972945.911549,1768972945.911956,14.0,0.0,4378.717773,4369.615234,4358.589844,4386.282227,4373.974121,4380.0,4382.179688,4380.512695,4368.461426,4357.436035,4461.666504,4523.974121,4405.769043,4443.589844,0.179737,0.370923,0.27883,0.19251,0.147901,1.148001,0.296316,0.189536,0.258568,0.127692,0.414545,0.248761,0.118444,0.124863,0.126243,0.374053,0.095924,0.160723,0.134312,0.103593,0.180834,0.149269,0.037207,0.073065,0.059447,0.290432,0.396012,0.165598,0.129106,0.133477,0.08183,0.283933,0.132757,0.159019,0.151354,0.383473,0.215403,0.096617,0.055002,0.066679,0.692368,0.229997,0.094735,0.091879,0.085827,0.249686,0.099557,0.101478,0.074537,0.078936,0.400557,0.40473,0.163959,0.226788,0.238647,0.811251,0.497575,0.214963,0.170329,0.170235,0.092492,0.459038,0.157731,0.148718,0.133272,0.684039,0.509221,0.21069,0.190034,0.236203
1768972945.919358,1768972945.919764,15.0,0.0,4378.589844,4367.820313,4354.871582,4381.794922,4372.307617,4382.820313,4387.94873,4383.846191,4370.641113,4358.717773,4461.025879,4524.358887,4401.282227,4436.153809,,,,,,,,,,,,,,,,,,,,,,,,,,,,,,,,,,,,,,,,,,,,,,,,,,,,,,,,,,,,,,,,,,,,,,
1768972945.927166,1768972945.927772,16.0,0.0,4376.666504,4371.282227,4354.102539,4383.717773,4372.820313,4383.974121,4386.410156,4383.717773,4369.743652,4357.563965,4459.230957,4518.717773,4395.897461,4428.974121,,,,,,,,,,,,,,,,,,,,,,,,,,,,,,,,,,,,,,,,,,,,,,,,,,,,,,,,,,,,,,,,,,,,,,
1768972945.934975,1768972945.935581,17.0,0.0,4374.743652,4374.102539,4356.282227,4386.282227,4377.563965,4383.205078,4379.743652,4376.794922,4370.512695,4357.94873,4458.846191,4512.307617,4397.94873,4427.307617,,,,,,,,,,,,,,,,,,,,,,,,,,,,,,,,,,,,,,,,,,,,,,,,,,,,,,,,,,,,,,,,,,,,,,
1768972945.942783,1768972945.943289,18.0,0.0,4376.153809,4379.358887,4357.692383,4383.717773,4375.128418,4377.94873,4377.179688,4377.436035,4370.897461,4358.077148,4459.743652,4508.333496,4398.846191,4428.461426,,,,,,,,,,,,,,,,,,,,,,,,,,,,,,,,,,,,,,,,,,,,,,,,,,,,,,,,,,,,,,,,,,,,,,
1768972945.950591,1768972945.951098,19.0,0.0,4372.692383,4380.0,4355.641113,4381.282227,4368.589844,4379.743652,4380.769043,4382.692383,4367.05127,4358.077148,4458.333496,4506.025879,4396.025879,4426.153809,,,,,,,,,,,,,,,,,,,,,,,,,,,,,,,,,,,,,,,,,,,,,,,,,,,,,,,,,,,,,,,,,,,,,,
1768972945.9584,1768972945.958706,20.0,0.0,4371.794922,4380.769043,4358.717773,4384.743652,4371.282227,4385.769043,4383.077148,4380.641113,4368.461426,4359.230957,4457.05127,4508.846191,4396.922852,4424.743652,,,,,,,,,,,,,,,,,,,,,,,,,,,,,,,,,,,,,,,,,,,,,,,,,,,,,,,,,,,,,,,,,,,,,,
1768972945.966208,1768972945.966515,21.0,0.0,4378.717773,4383.333496,4362.820313,4387.05127,4372.94873,4379.615234,4378.205078,4377.820313,4375.128418,4359.230957,4458.333496,4513.589844,4398.717773,4429.102539,,,,,,,,,,,,,,,,,,,,,,,,,,,,,,,,,,,,,,,,,,,,,,,,,,,,,,,,,,,,,,,,,,,,,,
1768972945.974017,1768972945.974223,22.0,0.0,4381.025879,4377.563965,4359.871582,4383.205078,4367.307617,4371.922852,4374.615234,4380.0,4376.282227,4357.692383,4458.717773,4511.538574,4398.333496,4430.769043,,,,,,,,,,,,,,,,,,,,,,,,,,,,,,,,,,,,,,,,,,,,,,,,,,,,,,,,,,,,,,,,,,,,,,
1768972945.981825,1768972945.982032,23.0,0.0,4379.743652,4372.307617,4359.230957,4382.179688,4368.846191,4377.563965,4379.871582,4380.769043,4372.179688,4357.05127,4457.563965,4509.358887,4397.436035,4426.922852,,,,,,,,,,,,,,,,,,,,,,,,,,,,,,,,,,,,,,,,,,,,,,,,,,,,,,,,,,,,,,,,,,,,,,
1768972945.989634,1768972945.99004,24.0,0.0,4383.974121,4377.563965,4361.794922,4386.666504,4373.717773,4383.333496,4386.666504,4378.974121,4369.230957,4356.922852,4459.230957,4516.922852,4395.769043,4426.794922,,,,,,,,,,,,,,,,,,,,,,,,,,,,,,,,,,,,,,,,,,,,,,,,,,,,,,,,,,,,,,,,,,,,,,
1768972945.997442,1768972945.997849,25.0,0.0,4386.025879,4383.205078,4361.538574,4390.512695,4372.05127,4383.077148,4383.846191,4379.743652,4371.153809,4358.077148,4461.922852,4525.897461,4401.153809,4436.538574,,,,,,,,,,,,,,,,,,,,,,,,,,,,,,,,,,,,,,,,,,,,,,,,,,,,,,,,,,,,,,,,,,,,,,
1768972946.005251,1768972946.005757,26.0,0.0,4382.436035,4385.384766,4362.692383,4389.487305,4371.794922,4385.128418,4380.384766,4380.0,4374.487305,4360.897461,4460.512695,4525.384766,4406.794922,4440.128418,,,,,,,,,,,,,,,,,,,,,,,,,,,,,,,,,,,,,,,,,,,,,,,,,,,,,,,,,,,,,,,,,,,,,,
1768972946.013059,1768972946.013565,27.0,0.0,4381.025879,4387.436035,4364.743652,4388.205078,4374.230957,4385.384766,4387.692383,4381.538574,4375.641113,4359.102539,4459.615234,4523.717773,4401.538574,4434.743652,,,,,,,,,,,,,,,,,,,,,,,,,,,,,,,,,,,,,,,,,,,,,,,,,,,,,,,,,,,,,,,,,,,,,,
1768972946.020867,1768972946.021574,28.0,0.0,4383.974121,4387.307617,4365.256348,4389.743652,4372.179688,4381.666504,4389.102539,4382.692383,4374.487305,4360.0,4462.563965,4527.307617,4396.538574,4434.487305,,,,,,,,,,,,,,,,,,,,,,,,,,,,,,,,,,,,,,,,,,,,,,,,,,,,,,,,,,,,,,,,,,,,,,
1768972946.028676,1768972946.029382,29.0,0.0,4384.871582,4389.102539,4363.717773,4390.128418,4371.153809,4379.102539,4379.871582,4376.794922,4373.846191,4363.589844,4463.589844,4526.153809,4398.205078,4433.717773,,,,,,,,,,,,,,,,,,,,,,,,,,,,,,,,,,,,,,,,,,,,,,,,,,,,,,,,,,,,,,,,,,,,,,
1768972946.036484,1768972946.03729,30.0,0.0,4381.794922,4390.897461,4361.538574,4387.563965,4372.05127,4376.025879,4377.820313,4373.077148,4372.563965,4360.641113,4460.769043,4520.256348,4397.05127,4431.922852,0.199362,0.443367,0.268302,0.203257,0.156646,0.943734,0.299444,0.18432,0.247846,0.128086,0.482557,0.277663,0.112225,0.114086,0.129974,0.340225,0.09094,0.131778,0.125152,0.103482,0.165125,0.135886,0.030066,0.06747,0.066237,0.285806,0.414557,0.145216,0.120046,0.143609,0.099484,0.31518,0.136324,0.159467,0.162853,0.411768,0.24923,0.100641,0.058738,0.074385,0.683024,0.226215,0.096582,0.091689,0.099586,0.289656,0.111278,0.102537,0.080609,0.090449,0.379687,0.4249,0.143748,0.224632,0.246054,0.988494,0.581443,0.200984,0.156454,0.193708,0.107741,0.52324,0.144097,0.163225,0.157643,0.665601,0.634568,0.195776,0.167649,0.237485
1768972946.044293,1768972946.045099,31.0,0.0,4380.641113,4389.487305,4360.128418,4387.692383,4372.563965,4376.282227,4381.794922,4376.538574,4373.333496,4360.256348,4462.820313,4521.153809,4399.615234,4440.641113,,,,,,,,,,,,,,,,,,,,,,,,,,,,,,,,,,,,,,,,,,,,,,,,,,,,,,,,,,,,,,,,,,,,,,
1768972946.052101,1768972946.053107,32.0,0.0,4382.436035,4386.025879,4358.717773,4386.666504,4370.0,4374.743652,4372.94873,4376.538574,4377.436035,4363.077148,4467.692383,4521.666504,4407.692383,4445.0,,,,,,,,,,,,,,,,,,,,,,,,,,,,,,,,,,,,,,,,,,,,,,,,,,,,,,,,,,,,,,,,,,,,,,
1768972946.05991,1768972946.060916,33.0,0.0,4380.897461,4381.794922,4357.563965,4384.871582,4367.692383,4368.077148,4363.974121,4369.487305,4374.358887,4358.846191,4461.282227,4515.769043,4402.820313,4430.897461,,,,,,,,,,,,,,,,,,,,,,,,,,,,,,,,,,,,,,,,,,,,,,,,,,,,,,,,,,,,,,,,,,,,,,
1768972946.067718,1768972946.068624,34.0,0.0,4379.487305,4384.615234,4360.512695,4388.717773,4372.94873,4370.384766,4372.05127,4366.410156,4369.615234,4354.102539,4453.461426,4514.871582,4396.538574,4425.384766,,,,,,,,,,,,,,,,,,,,,,,,,,,,,,,,,,,,,,,,,,,,,,,,,,,,,,,,,,,,,,,,,,,,,,
1768972946.075527,1768972946.076433,35.0,0.0,4385.128418,4392.563965,4364.102539,4392.307617,4377.94873,4377.94873,4381.025879,4371.922852,4375.641113,4359.871582,4464.871582,4519.871582,4407.94873,4438.717773,,,,,,,,,,,,,,,,,,,,,,,,,,,,,,,,,,,,,,,,,,,,,,,,,,,,,,,,,,,,,,,,,,,,,,
1768972946.083335,1768972946.084041,36.0,0.0,4389.230957,4392.05127,4364.102539,4391.922852,4376.666504,4379.102539,4382.05127,4375.128418,4382.179688,4362.94873,4476.025879,4526.025879,4414.230957,4447.94873,,,,,,,,,,,,,,,,,,,,,,,,,,,,,,,,,,,,,,,,,,,,,,,,,,,,,,,,,,,,,,,,,,,,,,
1768972946.091143,1768972946.09185,37.0,0.0,4384.871582,4387.94873,4366.410156,4391.538574,4375.512695,4378.333496,4380.128418,4373.333496,4381.666504,4358.974121,4466.025879,4529.230957,4400.897461,4438.974121,,,,,,,,,,,,,,,,,,,,,,,,,,,,,,,,,,,,,,,,,,,,,,,,,,,,,,,,,,,,,,,,,,,,,,
1768972946.098952,1768972946.099558,38.0,0.0,4383.717773,4390.384766,4369.871582,4394.358887,4378.974121,4376.153809,4377.179688,4373.333496,4379.487305,4357.820313,4456.794922,4530.256348,4395.0,4430.384766,,,,,,,,,,,,,,,,,,,,,,,,,,,,,,,,,,,,,,,,,,,,,,,,,,,,,,,,,,,,,,,,,,,,,,
1768972946.10676,1768972946.107367,39.0,0.0,4386.538574,4388.717773,4367.563965,4395.897461,4378.717773,4372.94873,4376.922852,4375.769043,4378.717773,4356.538574,4460.384766,4529.871582,4401.282227,4432.692383,,,,,,,,,,,,,,,,,,,,,,,,,,,,,,,,,,,,,,,,,,,,,,,,,,,,,,,,,,,,,,,,,,,,,,
1768972946.114569,1768972946.114975,40.0,0.0,4386.794922,4383.589844,4364.102539,4390.769043,4375.128418,4379.230957,4380.769043,4374.615234,4378.717773,4355.769043,4460.769043,4526.666504,4401.538574,4435.128418,,,,,,,,,,,,,,,,,,,,,,,,,,,,,,,,,,,,,,,,,,,,,,,,,,,,,,,,,,,,,,,,,,,,,,
1768972946.122377,1768972946.122784,41.0,0.0,4380.384766,4384.230957,4363.461426,4383.461426,4374.487305,4385.0,4379.487305,4374.102539,4380.512695,4361.282227,4460.128418,4523.205078,4404.102539,4438.333496,,,,,,,,,,,,,,,,,,,,,,,,,,,,,,,,,,,,,,,,,,,,,,,,,,,,,,,,,,,,,,,,,,,,,,
1768972946.130186,1768972946.130692,42.0,0.0,4372.563965,4382.563965,4362.05127,4381.538574,4372.692383,4378.589844,4371.410156,4375.128418,4381.538574,4365.0,4465.384766,4523.205078,4410.128418,4443.846191,,,,,,,,,,,,,,,,,,,,,,,,,,,,,,,,,,,,,,,,,,,,,,,,,,,,,,,,,,,,,,,,,,,,,,
1768972946.137994,1768972946.138501,43.0,0.0,4376.282227,4380.769043,4364.615234,4385.128418,4372.436035,4377.563965,4374.102539,4373.205078,4378.205078,4360.128418,4465.641113,4526.025879,4405.256348,4445.128418,,,,,,,,,,,,,,,,,,,,,,,,,,,,,,,,,,,,,,,,,,,,,,,,,,,,,,,,,,,,,,,,,,,,,,
1768972946.145803,1768972946.146109,44.0,0.0,4385.384766,4385.256348,4367.05127,4388.461426,4374.615234,4383.205078,4381.282227,4371.410156,4378.077148,4357.436035,4461.410156,4524.102539,4395.897461,4439.487305,,,,,,,,,,,,,,,,,,,,,,,,,,,,,,,,,,,,,,,,,,,,,,,,,,,,,,,,,,,,,,,,,,,,,,
1768972946.153611,1768972946.153918,45.0,0.0,4382.692383,4386.538574,4363.846191,4389.102539,4377.436035,4380.384766,4379.487305,4373.589844,4381.794922,4360.897461,4462.94873,4520.897461,4397.179688,4437.692383,,,,,,,,,,,,,,,,,,,,,,,,,,,,,,,,,,,,,,,,,,,,,,,,,,,,,,,,,,,,,,,,,,,,,,
1768972946.16142,1768972946.161626,46.0,0.0,4375.512695,4380.384766,4362.179688,4384.358887,4374.743652,4372.94873,4376.666504,4377.307617,4381.794922,4359.871582,4465.384766,4520.256348,4400.641113,4437.05127,0.238738,0.487127,0.264231,0.219858,0.160688,0.733961,0.301063,0.193578,0.227106,0.127309,0.520047,0.310822,0.111042,0.111449,0.126011,0.29522,0.084065,0.107084,0.11774,0.097494,0.151744,0.129544,0.02891,0.062663,0.075222,0.276649,0.414475,0.121698,0.104211,0.156531,0.126367,0.335324,0.140533,0.15533,0.174549,0.415985,0.29532,0.106161,0.060722,0.080212,0.615237,0.244563,0.097216,0.091693,0.115278,0.314494,0.134704,0.107275,0.088698,0.103014,0.366414,0.440911,0.125062,0.223482,0.235415,1.119812,0.638102,0.184737,0.15629,0.209926,0.137874,0.539854,0.130655,0.180431,0.182498,0.643167,0.696649,0.177834,0.162623,0.237962
1768972946.169228,1768972946.169435,47.0,0.0,4376.922852,4382.436035,4364.615234,4383.461426,4371.410156,4374.871582,4378.846191,4378.333496,4379.102539,4355.769043,4463.077148,4520.769043,4398.077148,4435.897461,,,,,,,,,,,,,,,,,,,,,,,,,,,,,,,,,,,,,,,,,,,,,,,,,,,,,,,,,,,,,,,,,,,,,,
1768972946.177036,1768972946.177043,48.0,0.0,4381.410156,4390.384766,4367.820313,4390.384766,4373.974121,4378.589844,4378.589844,4376.922852,4378.077148,4358.717773,4467.563965,4522.94873,4399.871582,4438.333496,,,,,,,,,,,,,,,,,,,,,,,,,,,,,,,,,,,,,,,,,,,,,,,,,,,,,,,,,,,,,,,,,,,,,,
1768972946.184845,1768972946.184852,49.0,0.0,4382.820313,4387.820313,4367.179688,4390.769043,4374.358887,4371.922852,4372.692383,4374.487305,4379.871582,4363.974121,4473.974121,4523.717773,4405.384766,4437.692383,,,,,,,,,,,,,,,,,,,,,,,,,,,,,,,,,,,,,,,,,,,,,,,,,,,,,,,,,,,,,,,,,,,,,,
1768972946.192653,1768972946.19276,50.0,0.0,4378.333496,4378.846191,4362.563965,4381.282227,4368.974121,4370.384766,4374.102539,4376.538574,4380.641113,4360.0,4466.794922,4522.820313,4402.94873,4430.769043,,,,,,,,,,,,,,,,,,,,,,,,,,,,,,,,,,,,,,,,,,,,,,,,,,,,,,,,,,,,,,,,,,,,,,
1768972946.200462,1768972946.200568,51.0,0.0,4372.436035,4381.025879,4360.256348,4379.743652,4369.358887,4379.102539,4382.692383,4382.563965,4380.641113,4355.641113,4462.307617,4521.538574,4398.333496,4424.102539,,,,,,,,,,,,,,,,,,,,,,,,,,,,,,,,,,,,,,,,,,,,,,,,,,,,,,,,,,,,,,,,,,,,,,
1768972946.20827,1768972946.208577,52.0,0.0,4376.794922,4393.205078,4364.358887,4389.102539,4378.846191,4382.692383,4386.666504,4384.871582,4384.102539,4361.794922,4473.461426,4527.563965,4406.666504,4431.794922,,,,,,,,,,,,,,,,,,,,,,,,,,,,,,,,,,,,,,,,,,,,,,,,,,,,,,,,,,,,,,,,,,,,,,
1768972946.216079,1768972946.216385,53.0,0.0,4384.102539,4396.025879,4365.897461,4393.077148,4380.384766,4381.282227,4385.256348,4387.436035,4390.384766,4367.563965,4480.641113,4536.794922,4416.666504,4443.846191,,,,,,,,,,,,,,,,,,,,,,,,,,,,,,,,,,,,,,,,,,,,,,,,,,,,,,,,,,,,,,,,,,,,,,
1768972946.223887,1768972946.224294,54.0,0.0,4382.820313,4387.563965,4362.692383,4390.256348,4376.282227,4385.256348,4388.589844,4389.743652,4391.538574,4366.410156,4475.897461,4533.205078,4411.666504,4442.436035,,,,,,,,,,,,,,,,,,,,,,,,,,,,,,,,,,,,,,,,,,,,,,,,,,,,,,,,,,,,,,,,,,,,,,
1768972946.231696,1768972946.232102,55.0,0.0,4378.589844,4384.230957,4367.307617,4390.641113,4378.974121,4390.256348,4394.102539,4387.820313,4388.077148,4363.461426,4474.871582,4522.05127,4403.846191,4432.05127,,,,,,,,,,,,,,,,,,,,,,,,,,,,,,,,,,,,,,,,,,,,,,,,,,,,,,,,,,,,,,,,,,,,,,
1768972946.239504,1768972946.24011,56.0,0.0,4378.717773,4385.256348,4370.256348,4390.897461,4380.0,4387.820313,4389.358887,4385.384766,4388.205078,4361.922852,4475.897461,4521.153809,4405.641113,4427.94873,,,,,,,,,,,,,,,,,,,,,,,,,,,,,,,,,,,,,,,,,,,,,,,,,,,,,,,,,,,,,,,,,,,,,,
1768972946.247312,1768972946.247919,57.0,0.0,4380.384766,4381.794922,4365.384766,4386.922852,4377.307617,4381.922852,4381.410156,4386.410156,4390.0,4364.871582,4476.153809,4528.461426,4411.922852,4436.410156,,,,,,,,,,,,,,,,,,,,,,,,,,,,,,,,,,,,,,,,,,,,,,,,,,,,,,,,,,,,,,,,,,,,,,
1768972946.255121,1768972946.255627,58.0,0.0,4381.922852,4384.743652,4365.0,4387.94873,4378.846191,4381.282227,4380.0,4386.153809,4385.384766,4362.94873,4476.282227,4529.102539,4409.487305,4438.717773,,,,,,,,,,,,,,,,,,,,,,,,,,,,,,,,,,,,,,,,,,,,,,,,,,,,,,,,,,,,,,,,,,,,,,
1768972946.262929,1768972946.263436,59.0,0.0,4381.922852,4394.487305,4367.563965,4393.846191,4380.641113,4385.512695,4384.358887,4382.563965,4380.384766,4356.153809,4472.94873,4524.230957,4404.743652,4430.769043,,,,,,,,,,,,,,,,,,,,,,,,,,,,,,,,,,,,,,,,,,,,,,,,,,,,,,,,,,,,,,,,,,,,,,
1768972946.270738,1768972946.271044,60.0,0.0,4380.128418,4397.307617,4363.974121,4393.589844,4377.307617,4384.102539,4385.0,4383.333496,4384.102539,4358.974121,4473.717773,4521.410156,4408.974121,4431.282227,,,,,,,,,,,,,,,,,,,,,,,,,,,,,,,,,,,,,,,,,,,,,,,,,,,,,,,,,,,,,,,,,,,,,,
1768972946.278546,1768972946.278853,61.0,0.0,4380.256348,4396.153809,4362.692383,4390.641113,4377.820313,4379.102539,4380.256348,4386.922852,4391.025879,4368.205078,4477.692383,4527.820313,4414.487305,4442.05127,,,,,,,,,,,,,,,,,,,,,,,,,,,,,,,,,,,,,,,,,,,,,,,,,,,,,,,,,,,,,,,,,,,,,,
1768972946.286355,1768972946.286561,62.0,0.0,4381.666504,4396.666504,4367.820313,4394.487305,4383.077148,4381.922852,4381.410156,4385.512695,4389.615234,4366.794922,4477.179688,4534.230957,4413.333496,4446.153809,0.284914,0.495293,0.276121,0.241979,0.159334,0.569752,0.298783,0.218385,0.209774,0.125991,0.519858,0.353195,0.115988,0.120382,0.114315,0.252561,0.080753,0.093566,0.114836,0.085694,0.144136,0.125397,0.033696,0.05836,0.084048,0.266326,0.400673,0.103516,0.087795,0.166436,0.155381,0.338049,0.14857,0.150472,0.179635,0.38991,0.344816,0.112209,0.060407,0.082468,0.508213,0.28266,0.096619,0.091655,0.128781,0.324159,0.171289,0.119755,0.098899,0.112612,0.372479,0.46381,0.128522,0.224698,0.210769,1.205189,0.655579,0.17681,0.169903,0.211809,0.191029,0.514719,0.136624,0.200393,0.201435,0.642329,0.681403,0.178349,0.174649,0.235423
1768972946.294163,1768972946.29437,63.0,0.0,4380.256348,4392.307617,4368.974121,4400.512695,4384.487305,4386.282227,4385.897461,4383.077148,4383.717773,4359.487305,4475.256348,4530.512695,4411.666504,4441.794922,,,,,,,,,,,,,,,,,,,,,,,,,,,,,,,,,,,,,,,,,,,,,,,,,,,,,,,,,,,,,,,,,,,,,,
1768972946.301972,1768972946.301978,64.0,0.0,4376.922852,4383.717773,4365.897461,4396.282227,4380.897461,4382.436035,4383.461426,4384.102539,4381.153809,4356.410156,4472.692383,4527.179688,4410.897461,4437.820313,,,,,,,,,,,,,,,,,,,,,,,,,,,,,,,,,,,,,,,,,,,,,,,,,,,,,,,,,,,,,,,,,,,,,,
1768972946.30978,1768972946.309787,65.0,0.0,4374.358887,4378.974121,4363.717773,4388.077148,4378.589844,4380.384766,4379.487305,4383.333496,4382.05127,4357.436035,4469.102539,4527.692383,4409.871582,4433.333496,,,,,,,,,,,,,,,,,,,,,,,,,,,,,,,,,,,,,,,,,,,,,,,,,,,,,,,,,,,,,,,,,,,,,,
1768972946.317588,1768972946.317495,66.0,0.0,4372.820313,4374.743652,4360.384766,4385.512695,4380.641113,4383.205078,4381.666504,4381.538574,4382.94873,4360.128418,4470.769043,4526.410156,4409.743652,4428.333496,,,,,,,,,,,,,,,,,,,,,,,,,,,,,,,,,,,,,,,,,,,,,,,,,,,,,,,,,,,,,,,,,,,,,,
1768972946.325397,1768972946.325304,67.0,0.0,4375.256348,4369.615234,4359.358887,4386.538574,4381.922852,4381.153809,4382.820313,4383.717773,4382.563965,4360.0,4475.256348,4523.077148,4410.384766,4426.794922,,,,,,,,,,,,,,,,,,,,,,,,,,,,,,,,,,,,,,,,,,,,,,,,,,,,,,,,,,,,,,,,,,,,,,
1768972946.333205,1768972946.333312,68.0,0.0,4380.384766,4369.358887,4367.307617,4386.025879,4381.153809,4379.230957,4382.179688,4383.205078,4381.153809,4356.153809,4472.94873,4526.410156,4410.384766,4433.333496,,,,,,,,,,,,,,,,,,,,,,,,,,,,,,,,,,,,,,,,,,,,,,,,,,,,,,,,,,,,,,,,,,,,,,
1768972946.341014,1768972946.341121,69.0,0.0,4383.846191,4373.461426,4371.153809,4383.461426,4380.897461,4382.563965,4384.487305,4381.282227,4380.256348,4356.410156,4471.410156,4534.487305,4411.794922,4441.153809,,,,,,,,,,,,,,,,,,,,,,,,,,,,,,,,,,,,,,,,,,,,,,,,,,,,,,,,,,,,,,,,,,,,,,
1768972946.348822,1768972946.348829,70.0,0.0,4386.922852,4377.307617,4366.410156,4385.769043,4380.641113,4381.410156,4384.358887,4383.333496,4382.179688,4362.179688,4477.307617,4536.410156,4410.769043,4438.974121,,,,,,,,,,,,,,,,,,,,,,,,,,,,,,,,,,,,,,,,,,,,,,,,,,,,,,,,,,,,,,,,,,,,,,
1768972946.356631,1768972946.356638,71.0,0.0,4386.666504,4375.769043,4366.538574,4389.871582,4379.615234,4375.384766,4379.871582,4382.94873,4382.436035,4362.436035,4473.205078,4534.358887,4408.077148,4432.692383,,,,,,,,,,,,,,,,,,,,,,,,,,,,,,,,,,,,,,,,,,,,,,,,,,,,,,,,,,,,,,,,,,,,,,
1768972946.364439,1768972946.364246,72.0,0.0,4381.794922,4372.179688,4369.487305,4389.102539,4378.589844,4377.307617,4378.974121,4380.769043,4380.897461,4356.666504,4460.641113,4535.256348,4406.538574,4431.922852,,,,,,,,,,,,,,,,,,,,,,,,,,,,,,,,,,,,,,,,,,,,,,,,,,,,,,,,,,,,,,,,,,,,,,
1768972946.372248,1768972946.372055,73.0,0.0,4382.563965,4372.820313,4371.794922,4387.820313,4379.871582,4382.05127,4386.153809,4380.512695,4379.871582,4355.641113,4463.974121,4535.897461,4405.769043,4436.282227,,,,,,,,,,,,,,,,,,,,,,,,,,,,,,,,,,,,,,,,,,,,,,,,,,,,,,,,,,,,,,,,,,,,,,
1768972946.380056,1768972946.379763,74.0,0.0,4386.282227,4375.128418,4371.666504,4389.615234,4379.871582,4379.871582,4385.769043,4377.436035,4374.871582,4356.410156,4474.615234,4533.333496,4406.922852,4442.436035,,,,,,,,,,,,,,,,,,,,,,,,,,,,,,,,,,,,,,,,,,,,,,,,,,,,,,,,,,,,,,,,,,,,,,
1768972946.387864,1768972946.387572,75.0,0.0,4384.230957,4371.794922,4368.461426,4388.077148,4376.025879,4374.358887,4373.974121,4373.974121,4374.102539,4355.384766,4475.512695,4531.922852,4408.461426,4443.974121,,,,,,,,,,,,,,,,,,,,,,,,,,,,,,,,,,,,,,,,,,,,,,,,,,,,,,,,,,,,,,,,,,,,,,
1768972946.395673,1768972946.39558,76.0,0.0,4384.487305,4370.769043,4369.230957,4388.077148,4375.128418,4373.077148,4373.205078,4376.282227,4379.230957,4358.589844,4470.0,4529.487305,4404.487305,4436.922852,,,,,,,,,,,,,,,,,,,,,,,,,,,,,,,,,,,,,,,,,,,,,,,,,,,,,,,,,,,,,,,,,,,,,,
1768972946.403481,1768972946.403388,77.0,0.0,4388.589844,4376.794922,4373.589844,4392.307617,4375.128418,4375.897461,4383.717773,4378.974121,4376.922852,4360.641113,4464.871582,4526.666504,4395.384766,4431.666504,,,,,,,,,,,,,,,,,,,,,,,,,,,,,,,,,,,,,,,,,,,,,,,,,,,,,,,,,,,,,,,,,,,,,,
1768972946.41129,1768972946.411297,78.0,0.0,4388.205078,4379.230957,4372.563965,4390.512695,4371.794922,4375.256348,4380.641113,4375.128418,4370.128418,4356.025879,4465.128418,4530.384766,4394.871582,4435.512695,0.317856,0.47253,0.310545,0.265172,0.153869,0.451409,0.296163,0.257653,0.205485,0.125289,0.481591,0.40431,0.128282,0.138416,0.097375,0.22034,0.086407,0.094629,0.116135,0.071137,0.143622,0.121252,0.043189,0.053867,0.090187,0.256149,0.381325,0.095149,0.075898,0.16928,0.183061,0.323041,0.160505,0.146022,0.175778,0.333127,0.382492,0.11709,0.05842,0.080567,0.374829,0.327035,0.096066,0.092319,0.135857,0.303779,0.217518,0.140953,0.111616,0.115849,0.379478,0.50018,0.164833,0.230988,0.179851,1.235599,0.643365,0.184442,0.192939,0.197641,0.258813,0.467399,0.175992,0.223991,0.210236,0.686883,0.599217,0.211565,0.203668,0.229667
1768972946.419098,1768972946.419105,79.0,0.0,4388.846191,4380.256348,4374.487305,4389.871582,4373.717773,4371.282227,4370.769043,4375.128418,4375.0,4357.436035,4473.974121,4537.307617,4405.769043,4444.487305,,,,,,,,,,,,,,,,,,,,,,,,,,,,,,,,,,,,,,,,,,,,,,,,,,,,,,,,,,,,,,,,,,,,,,
1768972946.426907,1768972946.427113,80.0,0.0,4389.230957,4382.436035,4381.025879,4394.230957,4379.743652,4375.128418,4377.307617,4380.897461,4382.05127,4364.615234,4479.358887,4537.436035,4407.05127,4445.0,,,,,,,,,,,,,,,,,,,,,,,,,,,,,,,,,,,,,,,,,,,,,,,,,,,,,,,,,,,,,,,,,,,,,,
1768972946.434715,1768972946.434922,81.0,0.0,4384.743652,4382.307617,4377.05127,4393.846191,4383.461426,4381.025879,4383.205078,4381.666504,4381.794922,4365.128418,4473.205078,4532.307617,4400.512695,4435.897461,,,,,,,,,,,,,,,,,,,,,,,,,,,,,,,,,,,,,,,,,,,,,,,,,,,,,,,,,,,,,,,,,,,,,,
1768972946.442524,1768972946.44283,82.0,0.0,4388.461426,4385.897461,4373.589844,4393.205078,4382.307617,4378.717773,4376.282227,4380.128418,4380.641113,4363.205078,4472.94873,4533.717773,4405.0,4437.436035,,,,,,,,,,,,,,,,,,,,,,,,,,,,,,,,,,,,,,,,,,,,,,,,,,,,,,,,,,,,,,,,,,,,,,
1768972946.450332,1768972946.450639,83.0,0.0,4400.769043,4391.666504,4380.512695,4398.589844,4378.846191,4376.666504,4376.922852,4379.871582,4376.922852,4363.461426,4479.871582,4535.256348,4410.897461,4447.820313,,,,,,,,,,,,,,,,,,,,,,,,,,,,,,,,,,,,,,,,,,,,,,,,,,,,,,,,,,,,,,,,,,,,,,
1768972946.45814,1768972946.458247,84.0,0.0,4396.666504,4385.0,4376.922852,4395.256348,4373.846191,4380.128418,4383.077148,4378.974121,4372.05127,4357.179688,4473.333496,4528.589844,4400.769043,4445.512695,,,,,,,,,,,,,,,,,,,,,,,,,,,,,,,,,,,,,,,,,,,,,,,,,,,,,,,,,,,,,,,,,,,,,,
1768972946.465949,1768972946.466056,85.0,0.0,4377.307617,4375.0,4362.692383,4385.128418,4371.538574,4375.512695,4378.974121,4377.563965,4375.384766,4352.05127,4458.846191,4524.615234,4391.666504,4434.743652,,,,,,,,,,,,,,,,,,,,,,,,,,,,,,,,,,,,,,,,,,,,,,,,,,,,,,,,,,,,,,,,,,,,,,
1768972946.473757,1768972946.473764,86.0,0.0,4379.102539,4382.307617,4364.871582,4389.230957,4373.717773,4371.410156,4373.461426,4379.230957,4381.538574,4357.563965,4464.102539,4535.384766,4401.538574,4437.05127,,,,,,,,,,,,,,,,,,,,,,,,,,,,,,,,,,,,,,,,,,,,,,,,,,,,,,,,,,,,,,,,,,,,,,
1768972946.481566,1768972946.481573,87.0,0.0,4396.025879,4391.922852,4378.205078,4398.461426,4374.871582,4376.025879,4374.871582,4381.666504,4379.358887,4361.538574,4477.820313,4542.820313,4410.897461,4446.025879,,,,,,,,,,,,,,,,,,,,,,,,,,,,,,,,,,,,,,,,,,,,,,,,,,,,,,,,,,,,,,,,,,,,,,
1768972946.489374,1768972946.489181,88.0,0.0,4394.743652,4388.205078,4378.205078,4395.512695,4374.487305,4376.153809,4375.128418,4381.538574,4372.563965,4356.666504,4472.820313,4536.282227,4405.256348,4444.487305,,,,,,,,,,,,,,,,,,,,,,,,,,,,,,,,,,,,,,,,,,,,,,,,,,,,,,,,,,,,,,,,,,,,,,
1768972946.497182,1768972946.49699,89.0,0.0,4384.871582,4383.589844,4369.358887,4385.897461,4373.333496,4371.025879,4373.717773,4380.641113,4372.05127,4354.487305,4468.589844,4533.589844,4398.333496,4440.641113,,,,,,,,,,,,,,,,,,,,,,,,,,,,,,,,,,,,,,,,,,,,,,,,,,,,,,,,,,,,,,,,,,,,,,
1768972946.504991,1768972946.504698,90.0,0.0,4387.563965,4389.615234,4369.230957,4387.820313,4372.436035,4369.871582,4371.282227,4381.666504,4377.307617,4359.358887,4476.282227,4540.256348,4404.102539,4443.589844,,,,,,,,,,,,,,,,,,,,,,,,,,,,,,,,,,,,,,,,,,,,,,,,,,,,,,,,,,,,,,,,,,,,,,
1768972946.512799,1768972946.512507,91.0,0.0,4395.897461,4396.922852,4376.794922,4394.871582,4373.205078,4372.05127,4373.717773,4385.641113,4377.94873,4362.307617,4477.307617,4546.153809,4409.743652,4446.794922,,,,,,,,,,,,,,,,,,,,,,,,,,,,,,,,,,,,,,,,,,,,,,,,,,,,,,,,,,,,,,,,,,,,,,
1768972946.520608,1768972946.520515,92.0,0.0,4399.230957,4398.589844,4375.384766,4394.230957,4375.256348,4375.0,4380.512695,4385.897461,4374.358887,4357.563965,4473.589844,4543.205078,4406.025879,4445.384766,,,,,,,,,,,,,,,,,,,,,,,,,,,,,,,,,,,,,,,,,,,,,,,,,,,,,,,,,,,,,,,,,,,,,,
1768972946.528416,1768972946.528323,93.0,0.0,4396.025879,4399.102539,4368.974121,4390.641113,4373.846191,4374.871582,4379.102539,4381.922852,4374.871582,4354.230957,4473.333496,4535.0,4402.94873,4444.102539,,,,,,,,,,,,,,,,,,,,,,,,,,,,,,,,,,,,,,,,,,,,,,,,,,,,,,,,,,,,,,,,,,,,,,
1768972946.536225,1768972946.536232,94.0,0.0,4387.307617,4396.153809,4369.102539,4387.94873,4366.922852,4369.487305,4373.205078,4381.666504,4376.282227,4358.077148,4471.922852,4531.794922,4401.282227,4443.461426,0.332639,0.430448,0.358853,0.280762,0.146478,0.387164,0.299945,0.307026,0.214409,0.12615,0.417777,0.454824,0.14648,0.157753,0.079211,0.202656,0.10226,0.108219,0.117692,0.058816,0.153707,0.115461,0.055304,0.048238,0.091953,0.245089,0.364396,0.100318,0.070275,0.163997,0.203161,0.299181,0.177923,0.140442,0.165618,0.260188,0.396933,0.119063,0.055815,0.07522,0.252374,0.361348,0.097111,0.093771,0.133984,0.262841,0.265234,0.165615,0.125039,0.111879,0.387088,0.543508,0.225293,0.242287,0.151225,1.228023,0.623971,0.209409,0.217349,0.172172,0.333504,0.418911,0.243926,0.249959,0.208294,0.768552,0.478286,0.272732,0.247386,0.221653
1768972946.544033,1768972946.54404,95.0,0.0,4386.538574,4394.102539,4372.563965,4387.563965,4366.282227,4370.128418,4377.563965,4382.94873,4376.282227,4359.743652,4472.179688,4534.102539,4398.077148,4442.179688,,,,,,,,,,,,,,,,,,,,,,,,,,,,,,,,,,,,,,,,,,,,,,,,,,,,,,,,,,,,,,,,,,,,,,
1768972946.551842,1768972946.552048,96.0,0.0,4392.563965,4396.025879,4373.846191,4388.974121,4372.94873,4377.179688,4386.153809,4383.205078,4378.333496,4356.282227,4473.846191,4533.717773,4396.666504,4440.897461,,,,,,,,,,,,,,,,,,,,,,,,,,,,,,,,,,,,,,,,,,,,,,,,,,,,,,,,,,,,,,,,,,,,,,
1768972946.55965,1768972946.559857,97.0,0.0,4390.641113,4395.384766,4370.384766,4389.230957,4375.256348,4377.307617,4385.512695,4387.179688,4381.922852,4355.512695,4473.077148,4533.333496,4400.769043,4441.538574,,,,,,,,,,,,,,,,,,,,,,,,,,,,,,,,,,,,,,,,,,,,,,,,,,,,,,,,,,,,,,,,,,,,,,
1768972946.567459,1768972946.567565,98.0,0.0,4388.461426,4393.461426,4366.666504,4387.563965,4373.077148,4375.0,4381.025879,4386.666504,4379.743652,4358.974121,4473.589844,4534.487305,4404.871582,4443.974121,,,,,,,,,,,,,,,,,,,,,,,,,,,,,,,,,,,,,,,,,,,,,,,,,,,,,,,,,,,,,,,,,,,,,,
1768972946.575267,1768972946.575374,99.0,0.0,4390.128418,4393.333496,4367.436035,4389.358887,4371.794922,4375.897461,4378.333496,4380.0,4374.743652,4356.538574,4474.615234,4531.282227,4402.179688,4438.974121,,,,,,,,,,,,,,,,,,,,,,,,,,,,,,,,,,,,,,,,,,,,,,,,,,,,,,,,,,,,,,,,,,,,,,
1768972946.583075,1768972946.583382,100.0,0.0,4388.717773,4389.230957,4370.641113,4391.153809,4372.563965,4375.384766,4376.666504,4381.025879,4371.666504,4353.974121,4473.077148,4527.692383,4394.102539,4427.307617,,,,,,,,,,,,,,,,,,,,,,,,,,,,,,,,,,,,,,,,,,,,,,,,,,,,,,,,,,,,,,,,,,,,,,
1768972946.590884,1768972946.591191,101.0,0.0,4386.410156,4388.205078,4370.0,4385.897461,4370.641113,4369.102539,4374.102539,4383.974121,4372.307617,4359.615234,4473.717773,4528.974121,4394.615234,4429.871582,,,,,,,,,,,,,,,,,,,,,,,,,,,,,,,,,,,,,,,,,,,,,,,,,,,,,,,,,,,,,,,,,,,,,,
1768972946.598692,1768972946.599099,102.0,0.0,4386.282227,4394.743652,4365.128418,4382.05127,4367.94873,4363.974121,4371.153809,4381.153809,4375.256348,4363.717773,4476.666504,4530.512695,4407.94873,4444.743652,,,,,,,,,,,,,,,,,,,,,,,,,,,,,,,,,,,,,,,,,,,,,,,,,,,,,,,,,,,,,,,,,,,,,,
1768972946.606501,1768972946.606907,103.0,0.0,4383.205078,4395.769043,4363.846191,4384.743652,4368.974121,4370.769043,4372.692383,4379.871582,4374.615234,4359.743652,4476.794922,4527.820313,4412.05127,4444.102539,,,,,,,,,,,,,,,,,,,,,,,,,,,,,,,,,,,,,,,,,,,,,,,,,,,,,,,,,,,,,,,,,,,,,,
1768972946.614309,1768972946.614916,104.0,0.0,4378.077148,4391.794922,4370.512695,4389.743652,4373.717773,4381.282227,4380.641113,4382.05127,4373.333496,4355.769043,4476.410156,4524.487305,4401.922852,4434.102539,,,,,,,,,,,,,,,,,,,,,,,,,,,,,,,,,,,,,,,,,,,,,,,,,,,,,,,,,,,,,,,,,,,,,,
1768972946.622118,1768972946.622724,105.0,0.0,4379.102539,4390.897461,4372.94873,4389.871582,4375.384766,4377.94873,4384.487305,4382.94873,4375.128418,4356.153809,4471.538574,4523.077148,4397.05127,4437.563965,,,,,,,,,,,,,,,,,,,,,,,,,,,,,,,,,,,,,,,,,,,,,,,,,,,,,,,,,,,,,,,,,,,,,,
1768972946.629926,1768972946.630632,106.0,0.0,4386.025879,4388.589844,4367.179688,4387.563965,4370.0,4367.436035,4375.897461,4382.179688,4373.974121,4356.922852,4467.179688,4525.128418,4403.846191,4443.846191,,,,,,,,,,,,,,,,,,,,,,,,,,,,,,,,,,,,,,,,,,,,,,,,,,,,,,,,,,,,,,,,,,,,,,
1768972946.637735,1768972946.638441,107.0,0.0,4388.461426,4386.922852,4366.794922,4388.846191,4364.487305,4367.563965,4370.0,4381.153809,4372.94873,4357.692383,4473.077148,4528.589844,4407.05127,4443.205078,,,,,,,,,,,,,,,,,,,,,,,,,,,,,,,,,,,,,,,,,,,,,,,,,,,,,,,,,,,,,,,,,,,,,,
1768972946.645543,1768972946.646449,108.0,0.0,4382.94873,4388.205078,4370.256348,4388.333496,4365.0,4370.384766,4373.461426,4380.512695,4377.307617,4356.794922,4473.077148,4525.128418,4401.282227,4440.128418,,,,,,,,,,,,,,,,,,,,,,,,,,,,,,,,,,,,,,,,,,,,,,,,,,,,,,,,,,,,,,,,,,,,,,
1768972946.653351,1768972946.654258,109.0,0.0,4378.846191,4385.512695,4370.897461,4384.487305,4366.153809,4372.05127,4378.461426,4382.820313,4378.333496,4354.487305,4460.769043,4523.461426,4391.922852,4431.538574,,,,,,,,,,,,,,,,,,,,,,,,,,,,,,,,,,,,,,,,,,,,,,,,,,,,,,,,,,,,,,,,,,,,,,
1768972946.66116,1768972946.661966,110.0,0.0,4380.897461,4377.563965,4369.615234,4383.077148,4364.358887,4377.820313,4381.025879,4383.589844,4373.205078,4355.512695,4456.922852,4526.282227,4388.461426,4423.461426,0.32353,0.38259,0.402312,0.279548,0.139403,0.399028,0.312855,0.364929,0.227222,0.128331,0.344029,0.488228,0.167628,0.168859,0.064447,0.203296,0.124469,0.131075,0.114878,0.053291,0.172188,0.108391,0.068948,0.041396,0.088931,0.231121,0.352927,0.117485,0.069096,0.152894,0.214064,0.278567,0.201087,0.131233,0.154826,0.193284,0.384334,0.116616,0.053174,0.06806,0.163863,0.371267,0.100906,0.094689,0.12396,0.215749,0.30098,0.186042,0.135178,0.102802,0.390294,0.574122,0.288899,0.254376,0.13133,1.184483,0.618343,0.24821,0.233474,0.143574,0.400006,0.378566,0.319868,0.272966,0.198192,0.84273,0.352666,0.344188,0.299404,0.213378
1768972946.668968,1768972946.669775,111.0,0.0,4382.94873,4372.179688,4367.563965,4382.563965,4362.179688,4377.563965,4375.384766,4380.384766,4371.410156,4354.102539,4463.205078,4522.436035,4395.0,4427.179688,,,,,,,,,,,,,,,,,,,,,,,,,,,,,,,,,,,,,,,,,,,,,,,,,,,,,,,,,,,,,,,,,,,,,,
1768972946.676777,1768972946.677383,112.0,0.0,4383.974121,4375.0,4368.846191,4380.897461,4361.666504,4373.589844,4371.922852,4379.102539,4372.820313,4349.230957,4462.05127,4518.589844,4402.436035,4434.487305,,,,,,,,,,,,,,,,,,,,,,,,,,,,,,,,,,,,,,,,,,,,,,,,,,,,,,,,,,,,,,,,,,,,,,
1768972946.684585,1768972946.685192,113.0,0.0,4384.871582,4382.307617,4369.615234,4382.436035,4363.333496,4377.563965,4376.025879,4380.512695,4373.974121,4351.922852,4459.615234,4523.205078,4405.512695,4435.0,,,,,,,,,,,,,,,,,,,,,,,,,,,,,,,,,,,,,,,,,,,,,,,,,,,,,,,,,,,,,,,,,,,,,,
1768972946.692394,1768972946.6929,114.0,0.0,4386.794922,4387.563965,4367.307617,4387.692383,4366.922852,4382.179688,4376.538574,4382.820313,4379.743652,4360.769043,4470.384766,4530.641113,4408.589844,4438.846191,,,,,,,,,,,,,,,,,,,,,,,,,,,,,,,,,,,,,,,,,,,,,,,,,,,,,,,,,,,,,,,,,,,,,,
1768972946.700202,1768972946.700709,115.0,0.0,4389.102539,4388.205078,4370.384766,4388.846191,4367.692383,4376.794922,4371.794922,4384.487305,4383.589844,4362.436035,4476.794922,4536.282227,4411.538574,4441.922852,,,,,,,,,,,,,,,,,,,,,,,,,,,,,,,,,,,,,,,,,,,,,,,,,,,,,,,,,,,,,,,,,,,,,,
1768972946.708011,1768972946.708317,116.0,0.0,4388.333496,4386.538574,4374.358887,4387.563965,4365.0,4369.230957,4371.410156,4382.179688,4375.641113,4356.922852,4467.05127,4535.256348,4412.179688,4437.563965,,,,,,,,,,,,,,,,,,,,,,,,,,,,,,,,,,,,,,,,,,,,,,,,,,,,,,,,,,,,,,,,,,,,,,
1768972946.715819,1768972946.716126,117.0,0.0,4388.333496,4388.077148,4371.025879,4388.333496,4367.563965,4373.589844,4376.410156,4377.179688,4370.128418,4354.102539,4464.230957,4531.025879,4412.179688,4436.922852,,,,,,,,,,,,,,,,,,,,,,,,,,,,,,,,,,,,,,,,,,,,,,,,,,,,,,,,,,,,,,,,,,,,,,
1768972946.723627,1768972946.724034,118.0,0.0,4390.641113,4387.820313,4368.846191,4388.974121,4371.153809,4382.820313,4380.512695,4376.794922,4375.0,4359.871582,4475.897461,4535.641113,4412.692383,4445.128418,,,,,,,,,,,,,,,,,,,,,,,,,,,,,,,,,,,,,,,,,,,,,,,,,,,,,,,,,,,,,,,,,,,,,,
1768972946.731436,1768972946.731843,119.0,0.0,4391.153809,4382.179688,4369.358887,4387.820313,4367.563965,4376.666504,4375.128418,4378.717773,4376.025879,4366.794922,4480.0,4536.410156,4415.512695,4448.717773,,,,,,,,,,,,,,,,,,,,,,,,,,,,,,,,,,,,,,,,,,,,,,,,,,,,,,,,,,,,,,,,,,,,,,
1768972946.739244,1768972946.739851,120.0,0.0,4389.743652,4381.025879,4371.666504,4388.077148,4364.871582,4364.487305,4367.179688,4375.897461,4373.974121,4364.102539,4475.384766,4529.358887,4416.922852,4443.461426,,,,,,,,,,,,,,,,,,,,,,,,,,,,,,,,,,,,,,,,,,,,,,,,,,,,,,,,,,,,,,,,,,,,,,
1768972946.747053,1768972946.747659,121.0,0.0,4386.025879,4383.717773,4373.461426,4389.102539,4368.589844,4370.128418,4371.025879,4372.563965,4378.333496,4357.05127,4472.05127,4530.128418,4414.230957,4442.820313,,,,,,,,,,,,,,,,,,,,,,,,,,,,,,,,,,,,,,,,,,,,,,,,,,,,,,,,,,,,,,,,,,,,,,
1768972946.754861,1768972946.755568,122.0,0.0,4381.153809,4376.153809,4368.974121,4385.512695,4371.922852,4379.487305,4378.333496,4375.512695,4380.769043,4357.05127,4466.025879,4532.436035,4412.820313,4445.256348,,,,,,,,,,,,,,,,,,,,,,,,,,,,,,,,,,,,,,,,,,,,,,,,,,,,,,,,,,,,,,,,,,,,,,
1768972946.76267,1768972946.763376,123.0,0.0,4379.615234,4365.384766,4365.641113,4380.897461,4371.538574,4379.487305,4382.179688,4382.179688,4377.820313,4358.461426,4461.153809,4527.692383,4412.820313,4437.94873,,,,,,,,,,,,,,,,,,,,,,,,,,,,,,,,,,,,,,,,,,,,,,,,,,,,,,,,,,,,,,,,,,,,,,
1768972946.770478,1768972946.770985,124.0,0.0,4378.205078,4363.974121,4362.179688,4378.717773,4368.077148,4376.666504,4380.897461,4381.922852,4378.974121,4355.769043,4459.743652,4522.179688,4411.922852,4425.641113,,,,,,,,,,,,,,,,,,,,,,,,,,,,,,,,,,,,,,,,,,,,,,,,,,,,,,,,,,,,,,,,,,,,,,
1768972946.778287,1768972946.778793,125.0,0.0,4375.256348,4366.025879,4359.615234,4378.461426,4366.025879,4370.384766,4373.461426,4377.94873,4381.538574,4356.538574,4460.128418,4522.307617,4411.282227,4429.743652,,,,,,,,,,,,,,,,,,,,,,,,,,,,,,,,,,,,,,,,,,,,,,,,,,,,,,,,,,,,,,,,,,,,,,
1768972946.786095,1768972946.786701,126.0,0.0,4380.384766,4362.563965,4362.05127,4381.153809,4368.461426,4373.077148,4374.743652,4378.205078,4380.641113,4359.743652,4464.358887,4527.307617,4413.589844,4443.461426,0.299132,0.337305,0.41907,0.257277,0.135966,0.486275,0.333631,0.429421,0.232329,0.130842,0.277535,0.488543,0.187383,0.165371,0.057286,0.221303,0.145232,0.157397,0.105082,0.056533,0.193786,0.101755,0.084563,0.035452,0.082032,0.215259,0.344916,0.139996,0.069097,0.139842,0.215708,0.269982,0.225032,0.117107,0.148514,0.148501,0.347939,0.109609,0.050446,0.060801,0.119883,0.352176,0.10727,0.094061,0.109712,0.176723,0.311924,0.19551,0.138085,0.092789,0.390458,0.571155,0.329548,0.261667,0.123434,1.110057,0.628092,0.292651,0.23424,0.119854,0.445804,0.345891,0.375789,0.285811,0.185388,0.863065,0.250306,0.399686,0.348249,0.207541
1768972946.793903,1768972946.79451,127.0,0.0,4383.589844,4355.769043,4362.820313,4380.641113,4369.358887,4382.820313,4383.974121,4380.512695,4379.743652,4359.871582,4463.717773,4530.641113,4413.846191,4439.102539,,,,,,,,,,,,,,,,,,,,,,,,,,,,,,,,,,,,,,,,,,,,,,,,,,,,,,,,,,,,,,,,,,,,,,
1768972946.801712,1768972946.802518,0.0,0.0,4376.538574,4355.384766,4360.512695,4379.102539,4367.692383,4379.487305,4380.128418,4382.436035,4380.641113,4357.436035,4458.717773,4525.897461,4412.563965,4427.563965,,,,,,,,,,,,,,,,,,,,,,,,,,,,,,,,,,,,,,,,,,,,,,,,,,,,,,,,,,,,,,,,,,,,,,
1768972946.80952,1768972946.810327,1.0,0.0,4373.846191,4361.666504,4361.282227,4381.922852,4369.358887,4372.05127,4370.897461,4381.538574,4381.282227,4356.025879,4458.846191,4518.461426,4412.94873,4427.179688,,,,,,,,,,,,,,,,,,,,,,,,,,,,,,,,,,,,,,,,,,,,,,,,,,,,,,,,,,,,,,,,,,,,,,
1768972946.817329,1768972946.818135,2.0,0.0,4382.05127,4369.102539,4364.102539,4386.282227,4371.922852,4375.512695,4374.871582,4380.512695,4380.769043,4357.05127,4461.153809,4518.846191,4413.205078,4430.384766,,,,,,,,,,,,,,,,,,,,,,,,,,,,,,,,,,,,,,,,,,,,,,,,,,,,,,,,,,,,,,,,,,,,,,
1768972946.825137,1768972946.825944,3.0,0.0,4390.256348,4373.846191,4364.358887,4389.487305,4371.922852,4377.820313,4378.717773,4381.282227,4379.743652,4358.461426,4462.94873,4522.692383,4413.205078,4430.384766,,,,,,,,,,,,,,,,,,,,,,,,,,,,,,,,,,,,,,,,,,,,,,,,,,,,,,,,,,,,,,,,,,,,,,
1768972946.832946,1768972946.833552,4.0,0.0,4387.563965,4372.94873,4362.94873,4387.94873,4373.077148,4376.025879,4373.846191,4380.0,4379.230957,4356.666504,4463.846191,4524.743652,4411.794922,4430.641113,,,,,,,,,,,,,,,,,,,,,,,,,,,,,,,,,,,,,,,,,,,,,,,,,,,,,,,,,,,,,,,,,,,,,,
1768972946.840754,1768972946.841361,5.0,0.0,4380.769043,4371.282227,4362.94873,4383.205078,4374.743652,4377.820313,4372.94873,4376.410156,4380.512695,4355.384766,4462.307617,4522.692383,4412.94873,4429.743652,,,,,,,,,,,,,,,,,,,,,,,,,,,,,,,,,,,,,,,,,,,,,,,,,,,,,,,,,,,,,,,,,,,,,,
1768972946.848563,1768972946.849069,6.0,0.0,4384.102539,4372.179688,4362.692383,4382.307617,4375.0,4380.512695,4375.897461,4374.487305,4383.077148,4357.563965,4461.282227,4520.641113,4417.05127,4430.128418,,,,,,,,,,,,,,,,,,,,,,,,,,,,,,,,,,,,,,,,,,,,,,,,,,,,,,,,,,,,,,,,,,,,,,
1768972946.856371,1768972946.856878,7.0,0.0,4387.307617,4370.0,4359.102539,4383.333496,4375.0,4380.384766,4373.205078,4373.461426,4378.333496,4356.666504,4461.282227,4520.512695,4415.512695,4431.153809,,,,,,,,,,,,,,,,,,,,,,,,,,,,,,,,,,,,,,,,,,,,,,,,,,,,,,,,,,,,,,,,,,,,,,
1768972946.864179,1768972946.864486,8.0,0.0,4383.333496,4366.666504,4355.512695,4380.512695,4373.333496,4378.333496,4368.717773,4373.461426,4373.461426,4354.487305,4459.743652,4523.846191,4412.692383,4434.615234,,,,,,,,,,,,,,,,,,,,,,,,,,,,,,,,,,,,,,,,,,,,,,,,,,,,,,,,,,,,,,,,,,,,,,
1768972946.871988,1768972946.872295,9.0,0.0,4384.358887,4366.538574,4358.205078,4381.025879,4374.487305,4377.692383,4372.179688,4374.743652,4377.179688,4357.692383,4461.666504,4528.205078,4416.410156,4438.846191,,,,,,,,,,,,,,,,,,,,,,,,,,,,,,,,,,,,,,,,,,,,,,,,,,,,,,,,,,,,,,,,,,,,,,
1768972946.879796,1768972946.880003,10.0,0.0,4388.461426,4363.717773,4360.769043,4386.153809,4374.358887,4375.128418,4373.846191,4372.692383,4378.846191,4359.102539,4461.922852,4526.666504,4416.025879,4433.333496,,,,,,,,,,,,,,,,,,,,,,,,,,,,,,,,,,,,,,,,,,,,,,,,,,,,,,,,,,,,,,,,,,,,,,
1768972946.887605,1768972946.887812,11.0,0.0,4389.230957,4363.333496,4360.0,4389.230957,4372.05127,4371.153809,4370.512695,4371.282227,4372.179688,4354.102539,4457.307617,4523.461426,4409.615234,4430.256348,,,,,,,,,,,,,,,,,,,,,,,,,,,,,,,,,,,,,,,,,,,,,,,,,,,,,,,,,,,,,,,,,,,,,,
1768972946.895413,1768972946.89542,12.0,0.0,4390.128418,4366.666504,4360.641113,4388.461426,4372.820313,4374.743652,4373.461426,4375.641113,4372.563965,4353.846191,4464.230957,4527.307617,4416.410156,4442.563965,,,,,,,,,,,,,,,,,,,,,,,,,,,,,,,,,,,,,,,,,,,,,,,,,,,,,,,,,,,,,,,,,,,,,,
1768972946.903222,1768972946.903229,13.0,0.0,4383.077148,4359.487305,4358.589844,4382.307617,4373.077148,4375.897461,4375.0,4377.820313,4381.794922,4359.230957,4472.692383,4532.307617,4424.102539,4444.102539,,,,,,,,,,,,,,,,,,,,,,,,,,,,,,,,,,,,,,,,,,,,,,,,,,,,,,,,,,,,,,,,,,,,,,
1768972946.91103,1768972946.910937,14.0,0.0,4376.922852,4354.102539,4356.794922,4378.974121,4369.487305,4369.358887,4366.410156,4373.205078,4381.153809,4353.589844,4463.589844,4528.589844,4413.589844,4428.333496,0.264023,0.294931,0.396977,0.218313,0.139205,0.639547,0.357449,0.491523,0.223882,0.132094,0.226811,0.447345,0.199682,0.147044,0.059817,0.251118,0.156772,0.180154,0.089904,0.067011,0.212577,0.09749,0.102514,0.033471,0.073149,0.196262,0.335849,0.158861,0.069718,0.129006,0.207131,0.275395,0.243089,0.101483,0.149089,0.127234,0.298932,0.100246,0.047276,0.054587,0.11081,0.310612,0.114723,0.091974,0.095885,0.152415,0.293255,0.190343,0.132031,0.086002,0.386338,0.523875,0.328586,0.260417,0.127316,1.007264,0.636833,0.331842,0.218683,0.105678,0.468119,0.316637,0.391706,0.283991,0.176001,0.80588,0.188366,0.419817,0.381611,0.20613
1768972946.918839,1768972946.918746,15.0,0.0,4385.897461,4360.769043,4357.307617,4381.922852,4366.922852,4368.974121,4362.307617,4367.692383,4372.820313,4343.589844,4454.487305,4521.410156,4405.256348,4423.077148,,,,,,,,,,,,,,,,,,,,,,,,,,,,,,,,,,,,,,,,,,,,,,,,,,,,,,,,,,,,,,,,,,,,,,
1768972946.926647,1768972946.926754,16.0,0.0,4394.102539,4360.769043,4354.487305,4381.922852,4367.94873,4373.717773,4367.05127,4367.179688,4371.538574,4346.282227,4459.358887,4517.307617,4412.05127,4430.0,,,,,,,,,,,,,,,,,,,,,,,,,,,,,,,,,,,,,,,,,,,,,,,,,,,,,,,,,,,,,,,,,,,,,,
1768972946.934456,1768972946.934562,17.0,0.0,4388.717773,4355.769043,4353.717773,4380.128418,4366.410156,4371.794922,4367.563965,4371.538574,4373.589844,4352.436035,4462.179688,4518.077148,4416.282227,4433.461426,,,,,,,,,,,,,,,,,,,,,,,,,,,,,,,,,,,,,,,,,,,,,,,,,,,,,,,,,,,,,,,,,,,,,,
1768972946.942264,1768972946.942471,18.0,0.0,4381.538574,4358.461426,4357.179688,4381.794922,4364.487305,4370.641113,4368.205078,4372.820313,4371.666504,4352.179688,4460.128418,4522.05127,4413.333496,4431.922852,,,,,,,,,,,,,,,,,,,,,,,,,,,,,,,,,,,,,,,,,,,,,,,,,,,,,,,,,,,,,,,,,,,,,,
1768972946.950072,1768972946.950279,19.0,0.0,4381.410156,4355.256348,4359.487305,4380.641113,4366.153809,4378.077148,4374.230957,4370.256348,4370.256348,4350.769043,4462.05127,4522.820313,4412.692383,4430.512695,,,,,,,,,,,,,,,,,,,,,,,,,,,,,,,,,,,,,,,,,,,,,,,,,,,,,,,,,,,,,,,,,,,,,,
1768972946.957881,1768972946.958288,20.0,0.0,4381.153809,4347.179688,4357.179688,4375.256348,4365.128418,4372.692383,4366.794922,4367.563965,4366.410156,4348.717773,4457.436035,4515.256348,4409.102539,4429.358887,,,,,,,,,,,,,,,,,,,,,,,,,,,,,,,,,,,,,,,,,,,,,,,,,,,,,,,,,,,,,,,,,,,,,,
1768972946.965689,1768972946.966096,21.0,0.0,4376.153809,4351.794922,4352.436035,4372.820313,4361.794922,4361.025879,4354.487305,4366.025879,4357.307617,4344.487305,4445.512695,4501.794922,4398.333496,4422.179688,,,,,,,,,,,,,,,,,,,,,,,,,,,,,,,,,,,,,,,,,,,,,,,,,,,,,,,,,,,,,,,,,,,,,,
1768972946.973498,1768972946.973805,22.0,0.0,4371.153809,4354.102539,4349.743652,4373.333496,4360.0,4368.846191,4362.94873,4368.333496,4356.025879,4341.153809,4439.487305,4498.589844,4392.307617,4417.05127,,,,,,,,,,,,,,,,,,,,,,,,,,,,,,,,,,,,,,,,,,,,,,,,,,,,,,,,,,,,,,,,,,,,,,
1768972946.981306,1768972946.981613,23.0,0.0,4371.282227,4344.743652,4349.102539,4371.666504,4359.871582,4372.436035,4367.94873,4369.102539,4362.563965,4341.538574,4446.922852,4509.615234,4400.128418,4423.077148,,,,,,,,,,,,,,,,,,,,,,,,,,,,,,,,,,,,,,,,,,,,,,,,,,,,,,,,,,,,,,,,,,,,,,
1768972946.989115,1768972946.989621,24.0,0.0,4375.769043,4342.94873,4351.282227,4371.538574,4358.717773,4357.307617,4357.94873,4368.205078,4365.512695,4346.538574,4459.102539,4518.461426,4411.025879,4431.666504,,,,,,,,,,,,,,,,,,,,,,,,,,,,,,,,,,,,,,,,,,,,,,,,,,,,,,,,,,,,,,,,,,,,,,
1768972946.996923,1768972946.99743,25.0,0.0,4382.436035,4351.410156,4356.666504,4378.461426,4359.871582,4358.077148,4362.820313,4370.512695,4364.487305,4348.077148,4456.538574,4515.641113,4408.846191,4433.974121,,,,,,,,,,,,,,,,,,,,,,,,,,,,,,,,,,,,,,,,,,,,,,,,,,,,,,,,,,,,,,,,,,,,,,
1768972947.004732,1768972947.005338,26.0,0.0,4381.282227,4356.410156,4357.692383,4383.333496,4364.615234,4378.461426,4376.538574,4372.94873,4363.846191,4340.512695,4442.436035,4508.205078,4396.666504,4430.0,,,,,,,,,,,,,,,,,,,,,,,,,,,,,,,,,,,,,,,,,,,,,,,,,,,,,,,,,,,,,,,,,,,,,,
1768972947.01254,1768972947.013146,27.0,0.0,4374.230957,4358.717773,4355.256348,4380.384766,4364.230957,4379.871582,4373.974121,4373.461426,4363.974121,4340.0,4445.0,4509.358887,4394.102539,4428.717773,,,,,,,,,,,,,,,,,,,,,,,,,,,,,,,,,,,,,,,,,,,,,,,,,,,,,,,,,,,,,,,,,,,,,,
1768972947.020348,1768972947.020755,28.0,0.0,4378.846191,4361.410156,4357.05127,4381.794922,4361.922852,4370.256348,4372.307617,4376.538574,4367.179688,4347.692383,4460.256348,4521.922852,4407.179688,4436.153809,,,,,,,,,,,,,,,,,,,,,,,,,,,,,,,,,,,,,,,,,,,,,,,,,,,,,,,,,,,,,,,,,,,,,,
1768972947.028157,1768972947.028564,29.0,0.0,4383.974121,4359.102539,4356.794922,4383.717773,4362.179688,4370.0,4376.282227,4376.282227,4366.538574,4346.153809,4457.179688,4524.743652,4408.205078,4439.230957,,,,,,,,,,,,,,,,,,,,,,,,,,,,,,,,,,,,,,,,,,,,,,,,,,,,,,,,,,,,,,,,,,,,,,
1768972947.035965,1768972947.036272,30.0,0.0,4373.974121,4357.307617,4352.05127,4376.922852,4359.230957,4364.358887,4364.615234,4370.0,4358.461426,4338.846191,4442.179688,4508.717773,4391.922852,4428.461426,0.239375,0.254224,0.339117,0.173259,0.149751,0.815879,0.392741,0.534913,0.203572,0.130802,0.19292,0.371005,0.199863,0.119273,0.070755,0.285385,0.1587,0.192245,0.073372,0.080376,0.223423,0.095867,0.120808,0.036935,0.064465,0.176251,0.321203,0.165972,0.072017,0.123437,0.191512,0.287181,0.247947,0.089395,0.155157,0.124346,0.247011,0.09078,0.043197,0.049789,0.117983,0.256771,0.121716,0.089293,0.085658,0.142008,0.251254,0.172742,0.119162,0.084675,0.384693,0.444556,0.286402,0.251145,0.140019,0.885154,0.619136,0.357263,0.191912,0.101189,0.472562,0.290521,0.365057,0.268141,0.173579,0.68943,0.173227,0.400863,0.391965,0.209554
1768972947.043774,1768972947.044081,31.0,0.0,4371.922852,4363.717773,4353.205078,4377.94873,4357.307617,4361.153809,4359.358887,4367.563965,4358.205078,4340.256348,4442.692383,4500.897461,4388.205078,4424.871582,,,,,,,,,,,,,,,,,,,,,,,,,,,,,,,,,,,,,,,,,,,,,,,,,,,,,,,,,,,,,,,,,,,,,,
1768972947.051582,1768972947.052089,32.0,0.0,4378.974121,4366.025879,4357.307617,4387.179688,4363.461426,4370.897461,4375.897461,4371.025879,4365.0,4345.256348,4449.871582,4507.94873,4399.230957,4431.538574,,,,,,,,,,,,,,,,,,,,,,,,,,,,,,,,,,,,,,,,,,,,,,,,,,,,,,,,,,,,,,,,,,,,,,
1768972947.059391,1768972947.059897,33.0,0.0,4375.769043,4359.615234,4356.666504,4383.333496,4363.846191,4372.820313,4378.974121,4370.897461,4362.307617,4344.487305,4450.769043,4508.077148,4399.871582,4427.307617,,,,,,,,,,,,,,,,,,,,,,,,,,,,,,,,,,,,,,,,,,,,,,,,,,,,,,,,,,,,,,,,,,,,,,
1768972947.067199,1768972947.067606,34.0,0.0,4373.846191,4360.128418,4357.436035,4375.897461,4354.358887,4363.846191,4363.974121,4366.922852,4359.102539,4345.769043,4454.230957,4505.769043,4395.641113,4426.025879,,,,,,,,,,,,,,,,,,,,,,,,,,,,,,,,,,,,,,,,,,,,,,,,,,,,,,,,,,,,,,,,,,,,,,
1768972947.075008,1768972947.075414,35.0,0.0,4382.307617,4366.922852,4362.307617,4379.871582,4354.615234,4365.256348,4364.230957,4370.0,4364.102539,4353.717773,4460.384766,4514.102539,4402.05127,4441.153809,,,,,,,,,,,,,,,,,,,,,,,,,,,,,,,,,,,,,,,,,,,,,,,,,,,,,,,,,,,,,,,,,,,,,,
1768972947.082816,1768972947.083023,36.0,0.0,4385.0,4368.205078,4361.922852,4383.717773,4359.487305,4371.922852,4373.333496,4372.820313,4367.179688,4357.05127,4460.384766,4519.871582,4406.922852,4445.769043,,,,,,,,,,,,,,,,,,,,,,,,,,,,,,,,,,,,,,,,,,,,,,,,,,,,,,,,,,,,,,,,,,,,,,
1768972947.090624,1768972947.090831,37.0,0.0,4382.179688,4368.589844,4358.205078,4380.256348,4355.128418,4367.05127,4367.692383,4367.436035,4365.0,4354.358887,4457.692383,4513.461426,4404.871582,4436.153809,,,,,,,,,,,,,,,,,,,,,,,,,,,,,,,,,,,,,,,,,,,,,,,,,,,,,,,,,,,,,,,,,,,,,,
1768972947.098433,1768972947.09854,38.0,0.0,4385.0,4372.307617,4358.974121,4380.384766,4353.461426,4366.282227,4366.025879,4368.717773,4362.436035,4354.743652,4457.692383,4511.538574,4403.589844,4435.769043,,,,,,,,,,,,,,,,,,,,,,,,,,,,,,,,,,,,,,,,,,,,,,,,,,,,,,,,,,,,,,,,,,,,,,
1768972947.106241,1768972947.106348,39.0,0.0,4384.615234,4375.384766,4358.205078,4381.538574,4356.538574,4370.897461,4373.333496,4374.487305,4357.563965,4358.461426,4458.717773,4517.307617,4403.333496,4443.333496,,,,,,,,,,,,,,,,,,,,,,,,,,,,,,,,,,,,,,,,,,,,,,,,,,,,,,,,,,,,,,,,,,,,,,
1768972947.11405,1768972947.114357,40.0,0.0,4381.153809,4381.538574,4352.563965,4376.410156,4351.282227,4364.102539,4367.692383,4370.384766,4357.179688,4357.94873,4457.820313,4517.563965,4401.282227,4443.205078,,,,,,,,,,,,,,,,,,,,,,,,,,,,,,,,,,,,,,,,,,,,,,,,,,,,,,,,,,,,,,,,,,,,,,
1768972947.121858,1768972947.122165,41.0,0.0,4381.922852,4388.717773,4354.615234,4374.230957,4347.179688,4356.410156,4359.743652,4365.256348,4363.461426,4355.897461,4458.461426,4512.820313,4397.94873,4439.230957,,,,,,,,,,,,,,,,,,,,,,,,,,,,,,,,,,,,,,,,,,,,,,,,,,,,,,,,,,,,,,,,,,,,,,
1768972947.129667,1768972947.130073,42.0,0.0,4381.153809,4386.922852,4361.538574,4378.846191,4352.436035,4362.820313,4368.461426,4370.0,4363.974121,4355.384766,4459.358887,4511.282227,4397.563965,4433.974121,,,,,,,,,,,,,,,,,,,,,,,,,,,,,,,,,,,,,,,,,,,,,,,,,,,,,,,,,,,,,,,,,,,,,,
1768972947.137475,1768972947.137882,43.0,0.0,4378.974121,4381.025879,4360.897461,4378.974121,4354.102539,4369.871582,4375.128418,4369.743652,4358.205078,4352.94873,4458.077148,4510.0,4397.563965,4429.487305,,,,,,,,,,,,,,,,,,,,,,,,,,,,,,,,,,,,,,,,,,,,,,,,,,,,,,,,,,,,,,,,,,,,,,
1768972947.145284,1768972947.14589,44.0,0.0,4377.436035,4380.0,4357.05127,4373.589844,4351.025879,4366.282227,4372.05127,4364.871582,4359.743652,4351.794922,4457.820313,4508.205078,4396.025879,4438.077148,,,,,,,,,,,,,,,,,,,,,,,,,,,,,,,,,,,,,,,,,,,,,,,,,,,,,,,,,,,,,,,,,,,,,,
1768972947.153092,1768972947.153698,45.0,0.0,4370.128418,4380.384766,4356.922852,4371.794922,4351.922852,4367.307617,4375.0,4370.128418,4367.563965,4353.974121,4459.743652,4510.641113,4396.666504,4444.615234,,,,,,,,,,,,,,,,,,,,,,,,,,,,,,,,,,,,,,,,,,,,,,,,,,,,,,,,,,,,,,,,,,,,,,
1768972947.1609,1768972947.161607,46.0,0.0,4364.743652,4379.871582,4354.615234,4373.205078,4350.897461,4371.666504,4377.563965,4373.333496,4366.153809,4351.666504,4457.05127,4508.717773,4396.538574,4435.128418,0.244241,0.219174,0.263987,0.134661,0.165104,0.960773,0.454379,0.544924,0.17896,0.126939,0.173014,0.278726,0.18871,0.090222,0.085762,0.311134,0.157541,0.191412,0.060116,0.091629,0.22748,0.094158,0.135778,0.044662,0.057386,0.154755,0.298274,0.160227,0.077766,0.12478,0.172106,0.293278,0.235943,0.084664,0.163242,0.127399,0.199447,0.082578,0.038399,0.046314,0.121789,0.202079,0.126279,0.087071,0.079845,0.136983,0.199188,0.147907,0.104467,0.088087,0.389069,0.365381,0.22122,0.238541,0.156497,0.766825,0.559697,0.364976,0.161854,0.103547,0.467054,0.272991,0.312487,0.24428,0.177863,0.559643,0.200784,0.355697,0.379074,0.217175
1768972947.168709,1768972947.169415,47.0,0.0,4375.128418,4383.717773,4351.538574,4377.307617,4350.256348,4365.384766,4370.384766,4368.077148,4361.025879,4350.384766,4453.974121,4505.384766,4394.871582,4432.692383,,,,,,,,,,,,,,,,,,,,,,,,,,,,,,,,,,,,,,,,,,,,,,,,,,,,,,,,,,,,,,,,,,,,,,
1768972947.176517,1768972947.177424,48.0,0.0,4382.692383,4387.436035,4353.461426,4380.384766,4356.794922,4361.922852,4368.077148,4369.487305,4361.666504,4357.692383,4459.871582,4513.589844,4398.333496,4445.769043,,,,,,,,,,,,,,,,,,,,,,,,,,,,,,,,,,,,,,,,,,,,,,,,,,,,,,,,,,,,,,,,,,,,,,
1768972947.184326,1768972947.185232,49.0,0.0,4376.922852,4384.615234,4353.846191,4377.692383,4359.871582,4369.102539,4373.717773,4373.077148,4361.282227,4360.128418,4461.153809,4518.846191,4402.179688,4446.410156,,,,,,,,,,,,,,,,,,,,,,,,,,,,,,,,,,,,,,,,,,,,,,,,,,,,,,,,,,,,,,,,,,,,,,
1768972947.192134,1768972947.19314,50.0,0.0,4370.384766,4378.205078,4348.589844,4372.94873,4355.0,4368.846191,4372.179688,4365.256348,4357.179688,4348.974121,4450.128418,4505.897461,4393.717773,4429.358887,,,,,,,,,,,,,,,,,,,,,,,,,,,,,,,,,,,,,,,,,,,,,,,,,,,,,,,,,,,,,,,,,,,,,,
1768972947.199943,1768972947.200949,51.0,0.0,4364.743652,4370.769043,4343.205078,4368.846191,4354.102539,4364.871582,4370.0,4361.282227,4357.307617,4341.410156,4440.256348,4494.871582,4380.256348,4421.666504,,,,,,,,,,,,,,,,,,,,,,,,,,,,,,,,,,,,,,,,,,,,,,,,,,,,,,,,,,,,,,,,,,,,,,
1768972947.207751,1768972947.208557,52.0,0.0,4363.589844,4372.563965,4344.487305,4369.487305,4358.333496,4370.512695,4371.538574,4368.077148,4362.820313,4349.615234,4444.743652,4500.256348,4381.666504,4426.153809,,,,,,,,,,,,,,,,,,,,,,,,,,,,,,,,,,,,,,,,,,,,,,,,,,,,,,,,,,,,,,,,,,,,,,
1768972947.215559,1768972947.216366,53.0,0.0,4371.666504,4380.769043,4353.205078,4374.743652,4355.384766,4364.358887,4363.589844,4370.128418,4367.307617,4359.743652,4458.077148,4510.512695,4395.384766,4432.179688,,,,,,,,,,,,,,,,,,,,,,,,,,,,,,,,,,,,,,,,,,,,,,,,,,,,,,,,,,,,,,,,,,,,,,
1768972947.223368,1768972947.224074,54.0,0.0,4375.897461,4381.666504,4356.153809,4374.743652,4350.641113,4349.230957,4353.589844,4367.307617,4366.282227,4359.871582,4457.179688,4516.922852,4399.871582,4435.256348,,,,,,,,,,,,,,,,,,,,,,,,,,,,,,,,,,,,,,,,,,,,,,,,,,,,,,,,,,,,,,,,,,,,,,
1768972947.231176,1768972947.231883,55.0,0.0,4370.384766,4382.94873,4350.256348,4371.538574,4354.615234,4354.871582,4359.871582,4365.384766,4363.717773,4355.128418,4447.307617,4516.794922,4392.179688,4430.769043,,,,,,,,,,,,,,,,,,,,,,,,,,,,,,,,,,,,,,,,,,,,,,,,,,,,,,,,,,,,,,,,,,,,,,
1768972947.238985,1768972947.239492,56.0,0.0,4368.589844,4389.358887,4349.358887,4373.205078,4357.94873,4365.897461,4367.692383,4366.282227,4366.153809,4354.230957,4449.230957,4513.717773,4386.794922,4426.282227,,,,,,,,,,,,,,,,,,,,,,,,,,,,,,,,,,,,,,,,,,,,,,,,,,,,,,,,,,,,,,,,,,,,,,
1768972947.246793,1768972947.2473,57.0,0.0,4371.410156,4390.0,4352.820313,4375.0,4353.077148,4355.897461,4360.384766,4367.179688,4365.769043,4351.666504,4454.102539,4511.666504,4389.487305,4429.358887,,,,,,,,,,,,,,,,,,,,,,,,,,,,,,,,,,,,,,,,,,,,,,,,,,,,,,,,,,,,,,,,,,,,,,
1768972947.254602,1768972947.255208,58.0,0.0,4369.615234,4384.615234,4348.333496,4370.641113,4349.102539,4347.820313,4356.794922,4366.282227,4357.563965,4345.897461,4447.05127,4505.256348,4391.410156,4432.05127,,,,,,,,,,,,,,,,,,,,,,,,,,,,,,,,,,,,,,,,,,,,,,,,,,,,,,,,,,,,,,,,,,,,,,
1768972947.26241,1768972947.263017,59.0,0.0,4365.256348,4383.333496,4343.974121,4366.794922,4351.538574,4357.692383,4365.0,4365.256348,4351.538574,4342.820313,4440.384766,4497.179688,4387.179688,4424.871582,,,,,,,,,,,,,,,,,,,,,,,,,,,,,,,,,,,,,,,,,,,,,,,,,,,,,,,,,,,,,,,,,,,,,,
1768972947.270218,1768972947.270625,60.0,0.0,4361.025879,4385.128418,4345.128418,4368.974121,4353.846191,4365.256348,4369.358887,4367.563965,4355.0,4342.307617,4443.205078,4501.538574,4382.05127,4418.846191,,,,,,,,,,,,,,,,,,,,,,,,,,,,,,,,,,,,,,,,,,,,,,,,,,,,,,,,,,,,,,,,,,,,,,
1768972947.278027,1768972947.278434,61.0,0.0,4358.077148,4383.333496,4345.256348,4371.794922,4351.922852,4361.794922,4367.436035,4369.102539,4359.358887,4341.922852,4444.487305,4510.512695,4383.077148,4423.205078,,,,,,,,,,,,,,,,,,,,,,,,,,,,,,,,,,,,,,,,,,,,,,,,,,,,,,,,,,,,,,,,,,,,,,
1768972947.285835,1768972947.286142,62.0,0.0,4359.615234,4380.769043,4346.922852,4368.974121,4349.358887,4354.743652,4365.384766,4365.512695,4354.871582,4344.743652,4443.589844,4507.179688,4386.666504,4428.333496,0.288001,0.194458,0.194305,0.111964,0.18044,1.049026,0.543056,0.512516,0.157843,0.121682,0.162016,0.193632,0.170595,0.067715,0.099135,0.322088,0.160066,0.179226,0.054293,0.097258,0.224649,0.089606,0.143416,0.053757,0.052201,0.134267,0.266052,0.147536,0.08833,0.134059,0.15242,0.283452,0.210066,0.089613,0.171338,0.130595,0.161869,0.076797,0.034281,0.044063,0.113741,0.157438,0.12842,0.086986,0.077756,0.133317,0.151838,0.122557,0.093642,0.093305,0.405048,0.317476,0.157187,0.229732,0.172,0.679319,0.469555,0.356769,0.138478,0.110373,0.458059,0.272116,0.257174,0.221565,0.185984,0.46558,0.255632,0.304045,0.350112,0.227168
1768972947.293644,1768972947.293951,63.0,0.0,4365.512695,4383.461426,4349.743652,4367.05127,4349.487305,4355.384766,4364.743652,4365.128418,4352.05127,4348.589844,4450.512695,4506.922852,4389.871582,4427.436035,,,,,,,,,,,,,,,,,,,,,,,,,,,,,,,,,,,,,,,,,,,,,,,,,,,,,,,,,,,,,,,,,,,,,,
1768972947.301452,1768972947.301559,64.0,0.0,4366.666504,4384.743652,4347.179688,4368.461426,4353.077148,4362.94873,4370.641113,4375.128418,4360.769043,4349.615234,4457.692383,4511.538574,4387.94873,4426.282227,,,,,,,,,,,,,,,,,,,,,,,,,,,,,,,,,,,,,,,,,,,,,,,,,,,,,,,,,,,,,,,,,,,,,,
1768972947.309261,1768972947.309368,65.0,0.0,4363.717773,4380.769043,4343.205078,4366.666504,4354.358887,4363.333496,4375.897461,4380.0,4366.025879,4349.615234,4450.769043,4508.589844,4381.922852,4426.538574,,,,,,,,,,,,,,,,,,,,,,,,,,,,,,,,,,,,,,,,,,,,,,,,,,,,,,,,,,,,,,,,,,,,,,
1768972947.317069,1768972947.317076,66.0,0.0,4368.846191,4383.205078,4347.179688,4369.358887,4352.436035,4356.922852,4367.563965,4371.538574,4360.128418,4351.538574,4445.128418,4507.179688,4383.333496,4426.794922,,,,,,,,,,,,,,,,,,,,,,,,,,,,,,,,,,,,,,,,,,,,,,,,,,,,,,,,,,,,,,,,,,,,,,
1768972947.324878,1768972947.324885,67.0,0.0,4376.666504,4391.153809,4354.615234,4378.077148,4353.589844,4358.589844,4364.102539,4371.025879,4359.358887,4352.692383,4454.230957,4512.692383,4391.794922,4430.769043,,,,,,,,,,,,,,,,,,,,,,,,,,,,,,,,,,,,,,,,,,,,,,,,,,,,,,,,,,,,,,,,,,,,,,
1768972947.332686,1768972947.332893,68.0,0.0,4374.871582,4388.205078,4354.487305,4376.538574,4356.794922,4362.307617,4369.230957,4376.538574,4362.179688,4350.512695,4454.102539,4506.282227,4390.0,4431.282227,,,,,,,,,,,,,,,,,,,,,,,,,,,,,,,,,,,,,,,,,,,,,,,,,,,,,,,,,,,,,,,,,,,,,,
1768972947.340495,1768972947.340702,69.0,0.0,4371.666504,4380.384766,4348.205078,4366.282227,4357.05127,4356.922852,4365.384766,4370.128418,4357.820313,4348.077148,4442.436035,4494.230957,4382.436035,4426.922852,,,,,,,,,,,,,,,,,,,,,,,,,,,,,,,,,,,,,,,,,,,,,,,,,,,,,,,,,,,,,,,,,,,,,,
1768972947.348303,1768972947.34861,70.0,0.0,4372.307617,4383.461426,4347.820313,4363.461426,4355.769043,4357.05127,4360.897461,4365.384766,4355.384766,4350.769043,4442.692383,4497.820313,4385.641113,4427.692383,,,,,,,,,,,,,,,,,,,,,,,,,,,,,,,,,,,,,,,,,,,,,,,,,,,,,,,,,,,,,,,,,,,,,,
1768972947.356111,1768972947.356418,71.0,0.0,4373.333496,4390.512695,4354.871582,4369.230957,4357.692383,4362.436035,4365.897461,4369.871582,4357.179688,4351.282227,4447.307617,4505.512695,4388.717773,4428.974121,,,,,,,,,,,,,,,,,,,,,,,,,,,,,,,,,,,,,,,,,,,,,,,,,,,,,,,,,,,,,,,,,,,,,,
1768972947.36392,1768972947.364427,72.0,0.0,4374.358887,4391.410156,4356.282227,4372.820313,4362.05127,4356.282227,4364.102539,4370.0,4355.512695,4344.871582,4443.717773,4504.102539,4382.05127,4426.922852,,,,,,,,,,,,,,,,,,,,,,,,,,,,,,,,,,,,,,,,,,,,,,,,,,,,,,,,,,,,,,,,,,,,,,
1768972947.371728,1768972947.372235,73.0,0.0,4372.563965,4388.333496,4350.512695,4369.871582,4364.102539,4348.846191,4354.230957,4362.436035,4351.666504,4340.256348,4442.05127,4499.230957,4379.487305,4426.282227,,,,,,,,,,,,,,,,,,,,,,,,,,,,,,,,,,,,,,,,,,,,,,,,,,,,,,,,,,,,,,,,,,,,,,
1768972947.379537,1768972947.379944,74.0,0.0,4366.794922,4384.230957,4349.358887,4365.641113,4362.563965,4354.871582,4357.692383,4360.512695,4350.256348,4339.871582,4442.563965,4496.794922,4383.717773,4424.230957,,,,,,,,,,,,,,,,,,,,,,,,,,,,,,,,,,,,,,,,,,,,,,,,,,,,,,,,,,,,,,,,,,,,,,
1768972947.387345,1768972947.387752,75.0,0.0,4366.410156,4376.922852,4351.025879,4365.512695,4361.538574,4364.102539,4366.153809,4365.256348,4352.692383,4339.230957,4437.05127,4493.717773,4383.589844,4417.692383,,,,,,,,,,,,,,,,,,,,,,,,,,,,,,,,,,,,,,,,,,,,,,,,,,,,,,,,,,,,,,,,,,,,,,
1768972947.395154,1768972947.39576,76.0,0.0,4370.256348,4370.641113,4349.230957,4366.282227,4364.743652,4365.897461,4367.436035,4367.436035,4354.743652,4338.461426,4433.461426,4493.333496,4379.487305,4414.230957,,,,,,,,,,,,,,,,,,,,,,,,,,,,,,,,,,,,,,,,,,,,,,,,,,,,,,,,,,,,,,,,,,,,,,
1768972947.402962,1768972947.403569,77.0,0.0,4369.743652,4373.717773,4347.436035,4367.179688,4366.666504,4361.025879,4364.615234,4362.563965,4352.307617,4339.102539,4438.717773,4497.692383,4379.743652,4415.128418,,,,,,,,,,,,,,,,,,,,,,,,,,,,,,,,,,,,,,,,,,,,,,,,,,,,,,,,,,,,,,,,,,,,,,
1768972947.410771,1768972947.411277,78.0,0.0,4369.230957,4378.333496,4347.307617,4369.230957,4364.102539,4356.025879,4358.333496,4357.94873,4353.205078,4341.025879,4443.589844,4498.205078,4382.179688,4419.615234,0.368419,0.183752,0.145043,0.107292,0.190928,1.095931,0.641925,0.439475,0.145258,0.116299,0.15448,0.133302,0.152381,0.056167,0.106016,0.318959,0.169663,0.160146,0.057526,0.096231,0.224822,0.081978,0.140787,0.061135,0.048659,0.115087,0.226381,0.137763,0.103938,0.151878,0.140405,0.2566,0.179199,0.104282,0.180607,0.131383,0.136234,0.07363,0.032107,0.043245,0.098611,0.12844,0.131673,0.089238,0.078034,0.137085,0.119743,0.102052,0.09008,0.097237,0.442311,0.310684,0.112415,0.230129,0.184387,0.649368,0.375356,0.336101,0.131091,0.121451,0.456627,0.284956,0.216011,0.206473,0.194563,0.43712,0.315106,0.2634,0.31585,0.238193
1768972947.418579,1768972947.419086,79.0,0.0,4370.256348,4375.512695,4347.94873,4369.871582,4361.282227,4360.256348,4357.820313,4361.538574,4357.692383,4343.461426,4438.461426,4497.692383,4383.077148,4424.743652,,,,,,,,,,,,,,,,,,,,,,,,,,,,,,,,,,,,,,,,,,,,,,,,,,,,,,,,,,,,,,,,,,,,,,
1768972947.426387,1768972947.426694,80.0,0.0,4366.410156,4371.025879,4347.94873,4370.769043,4361.794922,4366.538574,4363.461426,4363.974121,4355.512695,4342.179688,4435.384766,4499.230957,4379.230957,4422.563965,,,,,,,,,,,,,,,,,,,,,,,,,,,,,,,,,,,,,,,,,,,,,,,,,,,,,,,,,,,,,,,,,,,,,,
1768972947.434196,1768972947.434503,81.0,0.0,4361.922852,4367.94873,4347.692383,4370.897461,4363.846191,4363.333496,4366.153809,4365.512695,4353.461426,4339.358887,4439.871582,4503.717773,4378.589844,4419.358887,,,,,,,,,,,,,,,,,,,,,,,,,,,,,,,,,,,,,,,,,,,,,,,,,,,,,,,,,,,,,,,,,,,,,,
1768972947.442004,1768972947.442211,82.0,0.0,4366.153809,4369.615234,4347.94873,4371.666504,4363.589844,4362.05127,4364.358887,4371.410156,4360.128418,4347.692383,4443.974121,4511.538574,4391.025879,4425.769043,,,,,,,,,,,,,,,,,,,,,,,,,,,,,,,,,,,,,,,,,,,,,,,,,,,,,,,,,,,,,,,,,,,,,,
1768972947.449813,1768972947.45002,83.0,0.0,4373.974121,4375.128418,4349.102539,4375.769043,4363.205078,4366.025879,4363.717773,4374.230957,4365.384766,4356.410156,4450.0,4517.307617,4400.769043,4438.205078,,,,,,,,,,,,,,,,,,,,,,,,,,,,,,,,,,,,,,,,,,,,,,,,,,,,,,,,,,,,,,,,,,,,,,
1768972947.457621,1768972947.458028,84.0,0.0,4374.487305,4370.897461,4353.205078,4376.282227,4365.512695,4369.487305,4368.589844,4372.820313,4365.384766,4353.333496,4459.358887,4521.538574,4398.589844,4443.589844,,,,,,,,,,,,,,,,,,,,,,,,,,,,,,,,,,,,,,,,,,,,,,,,,,,,,,,,,,,,,,,,,,,,,,
1768972947.46543,1768972947.465837,85.0,0.0,4371.282227,4361.153809,4353.333496,4371.282227,4365.769043,4371.153809,4372.94873,4371.282227,4364.743652,4350.128418,4460.256348,4523.461426,4397.563965,4436.666504,,,,,,,,,,,,,,,,,,,,,,,,,,,,,,,,,,,,,,,,,,,,,,,,,,,,,,,,,,,,,,,,,,,,,,
1768972947.473238,1768972947.473545,86.0,0.0,4370.897461,4364.358887,4348.461426,4370.641113,4361.410156,4364.487305,4367.307617,4369.230957,4360.128418,4347.436035,4449.615234,4517.94873,4395.256348,4428.846191,,,,,,,,,,,,,,,,,,,,,,,,,,,,,,,,,,,,,,,,,,,,,,,,,,,,,,,,,,,,,,,,,,,,,,
1768972947.481047,1768972947.481354,87.0,0.0,4375.128418,4373.077148,4348.077148,4375.256348,4361.025879,4357.563965,4362.563965,4368.077148,4356.922852,4343.589844,4449.743652,4514.871582,4391.410156,4434.743652,,,,,,,,,,,,,,,,,,,,,,,,,,,,,,,,,,,,,,,,,,,,,,,,,,,,,,,,,,,,,,,,,,,,,,
1768972947.488855,1768972947.488962,88.0,0.0,4378.846191,4370.769043,4351.153809,4376.794922,4367.436035,4364.615234,4371.794922,4368.077148,4361.153809,4348.333496,4460.512695,4518.205078,4394.230957,4445.0,,,,,,,,,,,,,,,,,,,,,,,,,,,,,,,,,,,,,,,,,,,,,,,,,,,,,,,,,,,,,,,,,,,,,,
1768972947.496663,1768972947.496771,89.0,0.0,4376.922852,4366.025879,4350.512695,4374.615234,4365.769043,4365.769043,4369.871582,4366.153809,4363.333496,4353.717773,4458.333496,4514.487305,4395.256348,4439.102539,,,,,,,,,,,,,,,,,,,,,,,,,,,,,,,,,,,,,,,,,,,,,,,,,,,,,,,,,,,,,,,,,,,,,,
