title:remote_4, start timestamp:1768202627.616470, stop timestamp:1768202658.163037, headset type:EPOCX, headset serial:E5020E3B, headset firmware:730, channels:156, sampling rate:eeg_128;pm_0.1;pow_8, samples:3913      , version:2.2, 
Timestamp,OriginalTimestamp,EEG.Counter,EEG.Interpolated,EEG.AF3,EEG.F7,EEG.F3,EEG.FC5,EEG.T7,EEG.P7,EEG.O1,EEG.O2,EEG.P8,EEG.T8,EEG.FC6,EEG.F4,EEG.F8,EEG.AF4,EEG.RawCq,EEG.Battery,EEG.BatteryPercent,MarkerIndex,MarkerType,MarkerValueInt,EEG.MarkerHardware,CQ.AF3,CQ.F7,CQ.F3,CQ.FC5,CQ.T7,CQ.P7,CQ.O1,CQ.O2,CQ.P8,CQ.T8,CQ.FC6,CQ.F4,CQ.F8,CQ.AF4,CQ.Overall,EQ.SampleRateQuality,EQ.OVERALL,EQ.AF3,EQ.F7,EQ.F3,EQ.FC5,EQ.T7,EQ.P7,EQ.O1,EQ.O2,EQ.P8,EQ.T8,EQ.FC6,EQ.F4,EQ.F8,EQ.AF4,PM.Attention.IsActive,PM.Attention.Scaled,PM.Attention.Raw,PM.Attention.Min,PM.Attention.Max,PM.Engagement.IsActive,PM.Engagement.Scaled,PM.Engagement.Raw,PM.Engagement.Min,PM.Engagement.Max,PM.Excitement.IsActive,PM.Excitement.Scaled,PM.Excitement.Raw,PM.Excitement.Min,PM.Excitement.Max,PM.LongTermExcitement,PM.Stress.IsActive,PM.Stress.Scaled,PM.Stress.Raw,PM.Stress.Min,PM.Stress.Max,PM.Relaxation.IsActive,PM.Relaxation.Scaled,PM.Relaxation.Raw,PM.Relaxation.Min,PM.Relaxation.Max,PM.Interest.IsActive,PM.Interest.Scaled,PM.Interest.Raw,PM.Interest.Min,PM.Interest.Max,POW.AF3.Theta,POW.AF3.Alpha,POW.AF3.BetaL,POW.AF3.BetaH,POW.AF3.Gamma,POW.F7.Theta,POW.F7.Alpha,POW.F7.BetaL,POW.F7.BetaH,POW.F7.Gamma,POW.F3.Theta,POW.F3.Alpha,POW.F3.BetaL,POW.F3.BetaH,POW.F3.Gamma,POW.FC5.Theta,POW.FC5.Alpha,POW.FC5.BetaL,POW.FC5.BetaH,POW.FC5.Gamma,POW.T7.Theta,POW.T7.Alpha,POW.T7.BetaL,POW.T7.BetaH,POW.T7.Gamma,POW.P7.Theta,POW.P7.Alpha,POW.P7.BetaL,POW.P7.BetaH,POW.P7.Gamma,POW.O1.Theta,POW.O1.Alpha,POW.O1.BetaL,POW.O1.BetaH,POW.O1.Gamma,POW.O2.Theta,POW.O2.Alpha,POW.O2.BetaL,POW.O2.BetaH,POW.O2.Gamma,POW.P8.Theta,POW.P8.Alpha,POW.P8.BetaL,POW.P8.BetaH,POW.P8.Gamma,POW.T8.Theta,POW.T8.Alpha,POW.T8.BetaL,POW.T8.BetaH,POW.T8.Gamma,POW.FC6.Theta,POW.FC6.Alpha,POW.FC6.BetaL,POW.FC6.BetaH,POW.FC6.Gamma,POW.F4.Theta,POW.F4.Alpha,POW.F4.BetaL,POW.F4.BetaH,POW.F4.Gamma,POW.F8.Theta,POW.F8.Alpha,POW.F8.BetaL,POW.F8.BetaH,POW.F8.Gamma,POW.AF4.Theta,POW.AF4.Alpha,POW.AF4.BetaL,POW.AF4.BetaH,POW.AF4.Gamma
1768202627.616470,1768202627.617467,81.000000,0.000000,4355.897461,4342.692383,4328.205078,4358.846191,4339.230957,4366.666504,4351.282227,4348.205078,4337.692383,4329.743652,4489.871582,4512.948730,4407.820313,4456.666504,4303.000000,3.000000,59.000000,,,,0.000000,4.000000,4.000000,2.000000,4.000000,4.000000,2.000000,4.000000,4.000000,4.000000,4.000000,4.000000,4.000000,4.000000,4.000000,66.666664,,,,,,,,,,,,,,,,,,,,,,,,,,,,,,,,,,,,,,,,,,,,,,,,,,,,,,,,,,,,,,,,,,,,,,,,,,,,,,,,,,,,,,,,,,,,,,,,,,,,,,,,,,,,,,,,,,,,,
1768202627.624278,1768202627.625176,82.000000,0.000000,4362.820313,4342.692383,4329.358887,4357.179688,4340.512695,4362.948730,4351.922852,4342.179688,4334.102539,4330.512695,4489.230957,4514.871582,4412.692383,4458.974121,4253.000000,3.000000,59.000000,,,,0.000000,4.000000,4.000000,2.000000,4.000000,4.000000,2.000000,4.000000,4.000000,4.000000,4.000000,4.000000,4.000000,4.000000,4.000000,66.666664,,,,,,,,,,,,,,,,,,,,,,,,,,,,,,,,,,,,,,,,,,,,,,,,,,,,,,,,,,,,,,,,,,,,,,,,,,,,,,,,,,,,,,,,,,,,,,,,,,,,,,,,,,,,,,,,,,,,,
1768202627.632087,1768202627.632984,83.000000,0.000000,4364.743652,4343.717773,4330.512695,4356.922852,4341.025879,4360.512695,4346.794922,4341.153809,4335.000000,4333.205078,4490.000000,4510.128418,4413.846191,4459.358887,4769.000000,3.000000,59.000000,,,,0.000000,4.000000,4.000000,2.000000,4.000000,4.000000,2.000000,4.000000,4.000000,4.000000,4.000000,4.000000,4.000000,4.000000,4.000000,66.666664,,,,,,,,,,,,,,,,,,,,,,,,,,,,,,,,,,,,,,,,,,,,,,,,,,,,,,,,,,,,,,,,,,,,,,,,,,,,,,,,,,,,,,,,,,,,,,,,,,,,,,,,,,,,,,,,,,,,,
1768202627.639895,1768202627.640593,84.000000,0.000000,4357.051270,4342.820313,4330.641113,4357.948730,4340.769043,4364.871582,4347.948730,4344.358887,4338.077148,4338.077148,4491.410156,4505.000000,4410.897461,4459.358887,5225.000000,3.000000,59.000000,,,,0.000000,4.000000,4.000000,2.000000,4.000000,4.000000,2.000000,4.000000,4.000000,4.000000,4.000000,4.000000,4.000000,4.000000,4.000000,66.666664,,,,,,,,,,,,,,,,,,,,,,,,,,,,,,,,,,,,,,,,,,,,,,,,,,,,,,,,,,,,,,,,,,,,,,,,,,,,,,,,,,,,,,,,,,,,,,,,,,,,,,,,,,,,,,,,,,,,,
1768202627.647703,1768202627.648402,85.000000,0.000000,4356.410156,4339.871582,4329.102539,4353.589844,4340.256348,4365.897461,4353.717773,4343.461426,4335.384766,4338.974121,4489.230957,4502.307617,4411.025879,4455.000000,4303.000000,3.000000,59.000000,,,,0.000000,4.000000,4.000000,2.000000,4.000000,4.000000,2.000000,4.000000,4.000000,4.000000,4.000000,4.000000,4.000000,4.000000,4.000000,66.666664,,,,,,,,,,,,,,,,,,,,,,,,,,,,,,,,,,,,,,,,,,,,,,,,,,,,,,,,,,,,,,,,,,,,,,,,,,,,,,,,,,,,,,,,,,,,,,,,,,,,,,,,,,,,,,,,,,,,,
1768202627.655512,1768202627.656310,86.000000,0.000000,4357.179688,4340.384766,4327.692383,4352.820313,4342.692383,4363.333496,4351.410156,4340.641113,4329.615234,4331.153809,4488.461426,4500.897461,4409.230957,4447.051270,4253.000000,3.000000,59.000000,,,,0.000000,4.000000,4.000000,2.000000,4.000000,4.000000,2.000000,4.000000,4.000000,4.000000,4.000000,4.000000,4.000000,4.000000,4.000000,66.666664,,,,,,,,,,,,,,,,,,,,,,,,,,,,,,,,,,,,,,,,,,,,,,,,,,,,,,,,,,,,,,,,,,,,,,,,,,,,,,,,,,,,,,,,,,,,,,,,,,,,,,,,,,,,,,,,,,,,,
1768202627.663320,1768202627.664118,87.000000,0.000000,4357.692383,4346.538574,4329.871582,4360.769043,4342.820313,4365.128418,4350.769043,4344.230957,4334.743652,4331.794922,4494.358887,4508.461426,4410.897461,4454.871582,4769.000000,3.000000,59.000000,,,,0.000000,4.000000,4.000000,2.000000,4.000000,4.000000,2.000000,4.000000,4.000000,4.000000,4.000000,4.000000,4.000000,4.000000,4.000000,66.666664,,,,,,,,,,,,,,,,,,,,,,,,,,,,,,,,,,,,,,,,,,,,,,,,,,,,,,,,,,,,,,,,,,,,,,,,,,,,,,,,,,,,,,,,,,,,,,,,,,,,,,,,,,,,,,,,,,,,,
1768202627.671129,1768202627.672127,88.000000,0.000000,4358.461426,4348.846191,4332.051270,4363.077148,4341.410156,4366.922852,4357.436035,4350.256348,4342.307617,4340.897461,4494.743652,4517.436035,4413.461426,4460.769043,5225.000000,3.000000,59.000000,,,,0.000000,4.000000,4.000000,2.000000,4.000000,4.000000,2.000000,4.000000,4.000000,4.000000,4.000000,4.000000,4.000000,4.000000,4.000000,66.666664,,,,,,,,,,,,,,,,,,,,,,,,,,,,,,,,,,,,,,,,,,,,,,,,,,,,,,,,,,,,,,,,,,,,,,,,,,,,,,,,,,,,,,,,,,,,,,,,,,,,,,,,,,,,,,,,,,,,,
1768202627.678937,1768202627.679935,89.000000,0.000000,4356.410156,4342.563965,4330.641113,4357.051270,4341.025879,4364.615234,4359.230957,4352.179688,4340.641113,4342.692383,4497.563965,4517.436035,4412.051270,4454.358887,4303.000000,3.000000,59.000000,,,,0.000000,4.000000,4.000000,2.000000,4.000000,4.000000,2.000000,4.000000,4.000000,4.000000,4.000000,4.000000,4.000000,4.000000,4.000000,66.666664,,,,,,,,,,,,,,,,,,,,,,,,,,,,,,,,,,,,,,,,,,,,,,,,,,,,,,,,,,,,,,,,,,,,,,,,,,,,,,,,,,,,,,,,,,,,,,,,,,,,,,,,,,,,,,,,,,,,,
1768202627.686746,1768202627.687743,90.000000,0.000000,4357.179688,4340.769043,4326.666504,4357.436035,4342.307617,4364.615234,4355.897461,4353.077148,4340.512695,4341.538574,4506.410156,4514.743652,4413.589844,4456.025879,4253.000000,3.000000,59.000000,,,,0.000000,4.000000,4.000000,2.000000,4.000000,4.000000,2.000000,4.000000,4.000000,4.000000,4.000000,4.000000,4.000000,4.000000,4.000000,66.666664,,,,,,,,,,,,,,,,,,,,,,,,,,,,,,,,,,,,,,,,,,,,,,,,,,,,,,,,,,,,,,,,,,,,,,,,,,,,,,,,,,,,,,,,,,,,,,,,,,,,,,,,,,,,,,,,,,,,,
1768202627.694554,1768202627.695552,91.000000,0.000000,4357.692383,4342.948730,4325.641113,4361.153809,4341.025879,4365.641113,4352.948730,4351.153809,4339.102539,4338.205078,4501.922852,4512.563965,4413.974121,4457.563965,4769.000000,3.000000,59.000000,,,,0.000000,4.000000,4.000000,2.000000,4.000000,4.000000,2.000000,4.000000,4.000000,4.000000,4.000000,4.000000,4.000000,4.000000,4.000000,66.666664,,,,,,,,,,,,,,,,,,,,,,,,,,,,,,,,,,,,,,,,,,,,,,,,,,,,,,,,,,,,,,,,,,,,,,,,,,,,,,,,,,,,,,,,,,,,,,,,,,,,,,,,,,,,,,,,,,,,,
1768202627.702362,1768202627.703161,92.000000,0.000000,4349.230957,4340.641113,4327.692383,4357.563965,4336.153809,4361.282227,4343.717773,4343.974121,4327.179688,4327.051270,4489.358887,4504.102539,4406.666504,4445.384766,5225.000000,3.000000,59.000000,,,,0.000000,4.000000,4.000000,2.000000,4.000000,4.000000,2.000000,4.000000,4.000000,4.000000,4.000000,4.000000,4.000000,4.000000,4.000000,66.666664,,,,,,,,,,,,,,,,,,,,,,,,,,,,,,,,,,,,,,,,,,,,,,,,,,,,,,,,,,,,,,,,,,,,,,,,,,,,,,,,,,,,,,,,,,,,,,,,,,,,,,,,,,,,,,,,,,,,,
1768202627.710171,1768202627.710969,93.000000,0.000000,4341.410156,4337.692383,4326.666504,4352.563965,4330.512695,4360.128418,4336.922852,4339.487305,4322.307617,4324.487305,4486.282227,4498.205078,4400.000000,4439.487305,4303.000000,3.000000,59.000000,,,,0.000000,4.000000,4.000000,2.000000,4.000000,4.000000,2.000000,4.000000,4.000000,4.000000,4.000000,4.000000,4.000000,4.000000,4.000000,66.666664,,,,,,,,,,,,,,,,,,,,,,,,,,,,,,,,,,,,,,,,,,,,,,,,,,,,,,,,,,,,,,,,,,,,,,,,,,,,,,,,,,,,,,,,,,,,,,,,,,,,,,,,,,,,,,,,,,,,,
1768202627.717979,1768202627.718678,94.000000,0.000000,4341.410156,4337.051270,4324.871582,4350.384766,4328.974121,4363.974121,4344.487305,4341.666504,4327.820313,4329.743652,4484.615234,4500.512695,4400.384766,4444.358887,4253.000000,3.000000,59.000000,,,,0.000000,4.000000,4.000000,2.000000,4.000000,4.000000,2.000000,4.000000,4.000000,4.000000,4.000000,4.000000,4.000000,4.000000,4.000000,66.666664,,,,,,,,,,,,,,,,,,,,,,,,,,,,,,,,,,,,,,,,,,,,,,,,0.872428,0.625105,0.228045,0.255917,0.137630,0.915297,0.562854,0.262038,0.167376,0.074025,0.163642,0.057813,0.016739,0.038559,0.041103,0.452347,0.319192,0.145014,0.086240,0.049351,0.175685,0.389632,0.211749,0.084015,0.064940,0.025500,0.022998,0.044500,0.023692,0.027123,0.428406,0.334725,0.282156,0.139779,0.294173,0.194942,0.534068,0.191312,0.136704,0.097854,0.318895,0.444481,0.248187,0.119490,0.104956,0.272248,0.372798,0.106538,0.126984,0.102391,0.512147,0.717314,0.142159,0.341063,0.131323,0.550792,0.577918,0.194027,0.273882,0.163606,1.354077,0.775896,0.390085,0.361704,0.173089,0.956570,0.531996,0.241515,0.497157,0.197408
1768202627.725788,1768202627.726486,95.000000,0.000000,4340.384766,4330.769043,4324.102539,4348.846191,4330.769043,4365.384766,4352.051270,4347.948730,4329.487305,4326.794922,4476.282227,4498.974121,4394.615234,4441.153809,4769.000000,3.000000,59.000000,,,,0.000000,4.000000,4.000000,2.000000,4.000000,4.000000,2.000000,4.000000,4.000000,4.000000,4.000000,4.000000,4.000000,4.000000,4.000000,66.666664,,,,,,,,,,,,,,,,,,,,,,,,,,,,,,,,,,,,,,,,,,,,,,,,,,,,,,,,,,,,,,,,,,,,,,,,,,,,,,,,,,,,,,,,,,,,,,,,,,,,,,,,,,,,,,,,,,,,,
1768202627.733596,1768202627.734095,96.000000,0.000000,4340.512695,4325.897461,4325.641113,4352.051270,4333.077148,4365.000000,4354.487305,4357.051270,4335.641113,4328.461426,4480.128418,4501.153809,4389.358887,4439.358887,5225.000000,3.000000,59.000000,,,,0.000000,4.000000,4.000000,2.000000,4.000000,4.000000,2.000000,4.000000,4.000000,4.000000,4.000000,4.000000,4.000000,4.000000,4.000000,66.666664,,,,,,,,,,,,,,,,,,,,,,,,,,,,,,,,,,,,,,,,,,,,,,,,,,,,,,,,,,,,,,,,,,,,,,,,,,,,,,,,,,,,,,,,,,,,,,,,,,,,,,,,,,,,,,,,,,,,,
1768202627.741404,1768202627.741903,97.000000,0.000000,4351.410156,4336.153809,4330.256348,4357.948730,4342.051270,4363.717773,4356.794922,4364.102539,4350.000000,4343.717773,4501.025879,4518.077148,4406.922852,4453.077148,4303.000000,3.000000,59.000000,,,,0.000000,4.000000,4.000000,2.000000,4.000000,4.000000,2.000000,4.000000,4.000000,4.000000,4.000000,4.000000,4.000000,4.000000,4.000000,66.666664,,,,,,,,,,,,,,,,,,,,,,,,,,,,,,,,,,,,,,,,,,,,,,,,,,,,,,,,,,,,,,,,,,,,,,,,,,,,,,,,,,,,,,,,,,,,,,,,,,,,,,,,,,,,,,,,,,,,,
1768202627.749213,1768202627.749612,98.000000,0.000000,4361.794922,4348.974121,4333.461426,4360.256348,4350.128418,4361.794922,4356.025879,4364.102539,4353.205078,4353.077148,4512.051270,4529.230957,4425.384766,4464.743652,4253.000000,3.000000,59.000000,,,,0.000000,4.000000,4.000000,2.000000,4.000000,4.000000,2.000000,4.000000,4.000000,4.000000,4.000000,4.000000,4.000000,4.000000,4.000000,66.666664,,,,,,,,,,,,,,,,,,,,,,,,,,,,,,,,,,,,,,,,,,,,,,,,,,,,,,,,,,,,,,,,,,,,,,,,,,,,,,,,,,,,,,,,,,,,,,,,,,,,,,,,,,,,,,,,,,,,,
1768202627.757021,1768202627.757420,99.000000,0.000000,4361.538574,4347.179688,4330.641113,4358.846191,4347.179688,4362.051270,4355.256348,4359.358887,4346.794922,4347.820313,4501.153809,4519.358887,4419.871582,4462.307617,4769.000000,3.000000,59.000000,,,,0.000000,4.000000,4.000000,2.000000,4.000000,4.000000,2.000000,4.000000,4.000000,4.000000,4.000000,4.000000,4.000000,4.000000,4.000000,66.666664,,,,,,,,,,,,,,,,,,,,,,,,,,,,,,,,,,,,,,,,,,,,,,,,,,,,,,,,,,,,,,,,,,,,,,,,,,,,,,,,,,,,,,,,,,,,,,,,,,,,,,,,,,,,,,,,,,,,,
1768202627.764830,1768202627.765029,100.000000,0.000000,4356.666504,4339.230957,4327.051270,4357.307617,4343.333496,4363.717773,4354.743652,4352.820313,4340.641113,4339.743652,4490.128418,4507.179688,4407.563965,4457.820313,5225.000000,3.000000,59.000000,,,,0.000000,4.000000,4.000000,2.000000,4.000000,4.000000,2.000000,4.000000,4.000000,4.000000,4.000000,4.000000,4.000000,4.000000,4.000000,66.666664,,,,,,,,,,,,,,,,,,,,,,,,,,,,,,,,,,,,,,,,,,,,,,,,,,,,,,,,,,,,,,,,,,,,,,,,,,,,,,,,,,,,,,,,,,,,,,,,,,,,,,,,,,,,,,,,,,,,,
1768202627.772638,1768202627.772837,101.000000,0.000000,4353.974121,4339.615234,4328.461426,4356.538574,4344.487305,4362.948730,4352.179688,4346.794922,4332.948730,4333.461426,4490.641113,4504.102539,4403.461426,4455.384766,4303.000000,3.000000,59.000000,,,,0.000000,4.000000,4.000000,2.000000,4.000000,4.000000,2.000000,4.000000,4.000000,4.000000,4.000000,4.000000,4.000000,4.000000,4.000000,66.666664,,,,,,,,,,,,,,,,,,,,,,,,,,,,,,,,,,,,,,,,,,,,,,,,,,,,,,,,,,,,,,,,,,,,,,,,,,,,,,,,,,,,,,,,,,,,,,,,,,,,,,,,,,,,,,,,,,,,,
1768202627.780447,1768202627.780546,102.000000,0.000000,4355.128418,4340.000000,4329.102539,4357.563965,4343.205078,4363.717773,4354.487305,4344.358887,4328.846191,4329.743652,4491.282227,4504.102539,4401.922852,4449.230957,4253.000000,3.000000,59.000000,,,,0.000000,4.000000,4.000000,2.000000,4.000000,4.000000,2.000000,4.000000,4.000000,4.000000,4.000000,4.000000,4.000000,4.000000,4.000000,66.666664,,,,,,,,,,,,,,,,,,,,,,,,,,,,,,,,,,,,,,,,,,,,,,,,,,,,,,,,,,,,,,,,,,,,,,,,,,,,,,,,,,,,,,,,,,,,,,,,,,,,,,,,,,,,,,,,,,,,,
1768202627.788255,1768202627.788354,103.000000,0.000000,4352.948730,4335.641113,4325.769043,4357.051270,4339.615234,4363.589844,4357.051270,4342.692383,4329.743652,4329.615234,4484.871582,4502.692383,4399.358887,4444.487305,4769.000000,3.000000,59.000000,,,,0.000000,4.000000,4.000000,2.000000,4.000000,4.000000,2.000000,4.000000,4.000000,4.000000,4.000000,4.000000,4.000000,4.000000,4.000000,66.666664,,,,,,,,,,,,,,,,,,,,,,,,,,,,,,,,,,,,,,,,,,,,,,,,,,,,,,,,,,,,,,,,,,,,,,,,,,,,,,,,,,,,,,,,,,,,,,,,,,,,,,,,,,,,,,,,,,,,,
1768202627.796064,1768202627.796362,104.000000,0.000000,4343.333496,4333.205078,4323.333496,4352.820313,4337.179688,4360.641113,4348.333496,4340.641113,4327.692383,4329.743652,4477.436035,4500.641113,4398.846191,4443.461426,5225.000000,3.000000,59.000000,,,,0.000000,4.000000,4.000000,2.000000,4.000000,4.000000,2.000000,4.000000,4.000000,4.000000,4.000000,4.000000,4.000000,4.000000,4.000000,66.666664,,,,,,,,,,,,,,,,,,,,,,,,,,,,,,,,,,,,,,,,,,,,,,,,,,,,,,,,,,,,,,,,,,,,,,,,,,,,,,,,,,,,,,,,,,,,,,,,,,,,,,,,,,,,,,,,,,,,,
1768202627.803872,1768202627.804171,105.000000,0.000000,4341.922852,4335.641113,4324.871582,4352.820313,4336.025879,4363.461426,4346.410156,4343.974121,4327.307617,4330.000000,4480.512695,4504.358887,4399.743652,4439.615234,4303.000000,3.000000,59.000000,,,,0.000000,4.000000,4.000000,2.000000,4.000000,4.000000,2.000000,4.000000,4.000000,4.000000,4.000000,4.000000,4.000000,4.000000,4.000000,66.666664,,,,,,,,,,,,,,,,,,,,,,,,,,,,,,,,,,,,,,,,,,,,,,,,,,,,,,,,,,,,,,,,,,,,,,,,,,,,,,,,,,,,,,,,,,,,,,,,,,,,,,,,,,,,,,,,,,,,,
1768202627.811680,1768202627.812079,106.000000,0.000000,4353.333496,4338.333496,4327.051270,4357.948730,4338.846191,4367.948730,4358.717773,4348.205078,4330.897461,4330.897461,4490.000000,4513.205078,4400.000000,4443.589844,4253.000000,3.000000,59.000000,,,,0.000000,4.000000,4.000000,2.000000,4.000000,4.000000,2.000000,4.000000,4.000000,4.000000,4.000000,4.000000,4.000000,4.000000,4.000000,66.666664,,,,,,,,,,,,,,,,,,,,,,,,,,,,,,,,,,,,,,,,,,,,,,,,,,,,,,,,,,,,,,,,,,,,,,,,,,,,,,,,,,,,,,,,,,,,,,,,,,,,,,,,,,,,,,,,,,,,,
1768202627.819489,1768202627.819888,107.000000,0.000000,4357.692383,4338.717773,4326.922852,4359.743652,4341.666504,4364.615234,4353.717773,4343.077148,4329.871582,4328.333496,4490.512695,4514.230957,4400.769043,4454.871582,4769.000000,3.000000,59.000000,,,,0.000000,4.000000,4.000000,2.000000,4.000000,4.000000,2.000000,4.000000,4.000000,4.000000,4.000000,4.000000,4.000000,4.000000,4.000000,66.666664,,,,,,,,,,,,,,,,,,,,,,,,,,,,,,,,,,,,,,,,,,,,,,,,,,,,,,,,,,,,,,,,,,,,,,,,,,,,,,,,,,,,,,,,,,,,,,,,,,,,,,,,,,,,,,,,,,,,,
1768202627.827297,1768202627.827896,108.000000,0.000000,4352.948730,4340.256348,4325.128418,4358.461426,4338.974121,4358.974121,4337.563965,4339.358887,4327.436035,4327.436035,4486.025879,4508.589844,4402.692383,4455.897461,5225.000000,3.000000,59.000000,,,,0.000000,4.000000,4.000000,2.000000,4.000000,4.000000,2.000000,4.000000,4.000000,4.000000,4.000000,4.000000,4.000000,4.000000,4.000000,66.666664,,,,,,,,,,,,,,,,,,,,,,,,,,,,,,,,,,,,,,,,,,,,,,,,,,,,,,,,,,,,,,,,,,,,,,,,,,,,,,,,,,,,,,,,,,,,,,,,,,,,,,,,,,,,,,,,,,,,,
1768202627.835106,1768202627.835704,109.000000,0.000000,4354.102539,4343.205078,4326.282227,4359.358887,4336.282227,4361.025879,4345.256348,4344.230957,4331.153809,4333.717773,4487.692383,4509.871582,4402.563965,4454.230957,4303.000000,3.000000,59.000000,,,,0.000000,4.000000,4.000000,2.000000,4.000000,4.000000,2.000000,4.000000,4.000000,4.000000,4.000000,4.000000,4.000000,4.000000,4.000000,66.666664,,,,,,,,,,,,,,,,,,,,,,,,,,,,,,,,,,,,,,,,,,,,,,,,,,,,,,,,,,,,,,,,,,,,,,,,,,,,,,,,,,,,,,,,,,,,,,,,,,,,,,,,,,,,,,,,,,,,,
1768202627.842914,1768202627.843413,110.000000,0.000000,4358.974121,4343.846191,4327.820313,4358.333496,4336.282227,4363.717773,4357.436035,4343.461426,4331.153809,4337.436035,4488.846191,4514.743652,4401.410156,4459.102539,4253.000000,3.000000,59.000000,,,,0.000000,4.000000,4.000000,2.000000,4.000000,4.000000,2.000000,4.000000,4.000000,4.000000,4.000000,4.000000,4.000000,4.000000,4.000000,66.666664,,,,,,,,,,,,,,,,,,,,,,,,,,,,,,,,,,,,,,,,,,,,,,,,0.736347,0.685900,0.239150,0.271844,0.150614,0.821296,0.528353,0.251690,0.195755,0.081854,0.149231,0.076242,0.017378,0.040013,0.049963,0.445527,0.341939,0.142057,0.094489,0.053363,0.197145,0.414828,0.225427,0.083163,0.068405,0.023562,0.019748,0.052119,0.029235,0.027711,0.411303,0.346803,0.282461,0.150770,0.299917,0.208687,0.513989,0.254466,0.128042,0.097626,0.270140,0.463530,0.305600,0.119932,0.100820,0.244763,0.377180,0.142945,0.129916,0.108202,0.463043,0.772854,0.165970,0.378092,0.141694,0.481046,0.626272,0.238768,0.287490,0.171816,1.280030,0.869851,0.451174,0.375029,0.199216,0.924207,0.672590,0.267954,0.533551,0.215089
1768202627.850722,1768202627.851221,111.000000,0.000000,4360.512695,4341.794922,4325.384766,4358.974121,4338.205078,4362.179688,4347.948730,4340.000000,4327.051270,4333.077148,4486.666504,4515.769043,4402.179688,4461.538574,4769.000000,3.000000,59.000000,,,,0.000000,4.000000,4.000000,2.000000,4.000000,4.000000,2.000000,4.000000,4.000000,4.000000,4.000000,4.000000,4.000000,4.000000,4.000000,66.666664,,,,,,,,,,,,,,,,,,,,,,,,,,,,,,,,,,,,,,,,,,,,,,,,,,,,,,,,,,,,,,,,,,,,,,,,,,,,,,,,,,,,,,,,,,,,,,,,,,,,,,,,,,,,,,,,,,,,,
1768202627.858531,1768202627.859230,112.000000,0.000000,4358.205078,4343.974121,4323.461426,4361.410156,4340.384766,4362.563965,4342.307617,4343.846191,4326.538574,4327.307617,4489.487305,4514.358887,4403.461426,4460.000000,5225.000000,3.000000,59.000000,,,,0.000000,4.000000,4.000000,2.000000,4.000000,4.000000,2.000000,4.000000,4.000000,4.000000,4.000000,4.000000,4.000000,4.000000,4.000000,66.666664,,,,,,,,,,,,,,,,,,,,,,,,,,,,,,,,,,,,,,,,,,,,,,,,,,,,,,,,,,,,,,,,,,,,,,,,,,,,,,,,,,,,,,,,,,,,,,,,,,,,,,,,,,,,,,,,,,,,,
1768202627.866339,1768202627.867038,113.000000,0.000000,4355.384766,4349.871582,4324.871582,4358.974121,4340.897461,4364.615234,4351.794922,4345.128418,4329.358887,4327.179688,4489.102539,4511.025879,4402.436035,4456.922852,4303.000000,3.000000,59.000000,,,,0.000000,4.000000,4.000000,2.000000,4.000000,4.000000,2.000000,4.000000,4.000000,4.000000,4.000000,4.000000,4.000000,4.000000,4.000000,66.666664,,,,,,,,,,,,,,,,,,,,,,,,,,,,,,,,,,,,,,,,,,,,,,,,,,,,,,,,,,,,,,,,,,,,,,,,,,,,,,,,,,,,,,,,,,,,,,,,,,,,,,,,,,,,,,,,,,,,,
1768202627.874148,1768202627.874946,114.000000,0.000000,4357.051270,4352.307617,4327.307617,4358.589844,4340.897461,4364.615234,4358.974121,4342.820313,4330.000000,4330.000000,4480.128418,4507.436035,4397.307617,4450.384766,4253.000000,3.000000,59.000000,,,,0.000000,4.000000,4.000000,2.000000,4.000000,4.000000,2.000000,4.000000,4.000000,4.000000,4.000000,4.000000,4.000000,4.000000,4.000000,66.666664,,,,,,,,,,,,,,,,,,,,,,,,,,,,,,,,,,,,,,,,,,,,,,,,,,,,,,,,,,,,,,,,,,,,,,,,,,,,,,,,,,,,,,,,,,,,,,,,,,,,,,,,,,,,,,,,,,,,,
1768202627.881956,1768202627.882755,115.000000,0.000000,4360.000000,4353.846191,4329.487305,4363.717773,4340.512695,4364.615234,4360.641113,4346.666504,4328.717773,4328.589844,4479.743652,4508.589844,4397.692383,4447.948730,4769.000000,3.000000,59.000000,,,,0.000000,4.000000,4.000000,2.000000,4.000000,4.000000,2.000000,4.000000,4.000000,4.000000,4.000000,4.000000,4.000000,4.000000,4.000000,66.666664,,,,,,,,,,,,,,,,,,,,,,,,,,,,,,,,,,,,,,,,,,,,,,,,,,,,,,,,,,,,,,,,,,,,,,,,,,,,,,,,,,,,,,,,,,,,,,,,,,,,,,,,,,,,,,,,,,,,,
1768202627.889765,1768202627.890563,116.000000,0.000000,4358.589844,4353.589844,4329.358887,4366.153809,4341.153809,4365.769043,4360.641113,4350.641113,4329.743652,4325.256348,4484.102539,4513.205078,4407.948730,4450.256348,5225.000000,3.000000,59.000000,,,,0.000000,4.000000,4.000000,2.000000,4.000000,4.000000,2.000000,4.000000,4.000000,4.000000,4.000000,4.000000,4.000000,4.000000,4.000000,66.666664,,,,,,,,,,,,,,,,,,,,,,,,,,,,,,,,,,,,,,,,,,,,,,,,,,,,,,,,,,,,,,,,,,,,,,,,,,,,,,,,,,,,,,,,,,,,,,,,,,,,,,,,,,,,,,,,,,,,,
1768202627.897573,1768202627.898372,117.000000,0.000000,4356.922852,4352.820313,4326.410156,4363.205078,4342.692383,4365.897461,4358.717773,4345.384766,4332.179688,4326.666504,4480.897461,4509.871582,4414.358887,4447.307617,4303.000000,3.000000,59.000000,,,,0.000000,4.000000,4.000000,2.000000,4.000000,4.000000,2.000000,4.000000,4.000000,4.000000,4.000000,4.000000,4.000000,4.000000,4.000000,66.666664,,,,,,,,,,,,,,,,,,,,,,,,,,,,,,,,,,,,,,,,,,,,,,,,,,,,,,,,,,,,,,,,,,,,,,,,,,,,,,,,,,,,,,,,,,,,,,,,,,,,,,,,,,,,,,,,,,,,,
1768202627.905382,1768202627.906280,118.000000,0.000000,4360.128418,4356.794922,4325.000000,4360.769043,4341.666504,4365.512695,4356.282227,4341.666504,4332.436035,4331.538574,4482.948730,4502.307617,4419.102539,4446.794922,4253.000000,3.000000,59.000000,,,,0.000000,4.000000,4.000000,2.000000,4.000000,4.000000,2.000000,4.000000,4.000000,4.000000,4.000000,4.000000,4.000000,4.000000,4.000000,66.666664,,,,,,,,,,,,,,,,,,,,,,,,,,,,,,,,,,,,,,,,,,,,,,,,,,,,,,,,,,,,,,,,,,,,,,,,,,,,,,,,,,,,,,,,,,,,,,,,,,,,,,,,,,,,,,,,,,,,,
1768202627.913190,1768202627.914089,119.000000,0.000000,4361.666504,4360.000000,4324.230957,4358.205078,4340.641113,4363.589844,4351.025879,4343.077148,4331.666504,4331.794922,4489.487305,4499.871582,4423.589844,4450.512695,4769.000000,3.000000,59.000000,,,,0.000000,4.000000,4.000000,2.000000,4.000000,4.000000,2.000000,4.000000,4.000000,4.000000,4.000000,4.000000,4.000000,4.000000,4.000000,66.666664,,,,,,,,,,,,,,,,,,,,,,,,,,,,,,,,,,,,,,,,,,,,,,,,,,,,,,,,,,,,,,,,,,,,,,,,,,,,,,,,,,,,,,,,,,,,,,,,,,,,,,,,,,,,,,,,,,,,,
1768202627.920998,1768202627.922097,120.000000,0.000000,4356.153809,4356.666504,4323.333496,4355.641113,4339.358887,4361.794922,4343.461426,4338.461426,4326.153809,4324.743652,4478.846191,4498.589844,4416.153809,4444.871582,5225.000000,3.000000,59.000000,,,,0.000000,4.000000,4.000000,2.000000,4.000000,4.000000,2.000000,4.000000,4.000000,4.000000,4.000000,4.000000,4.000000,4.000000,4.000000,66.666664,,,,,,,,,,,,,,,,,,,,,,,,,,,,,,,,,,,,,,,,,,,,,,,,,,,,,,,,,,,,,,,,,,,,,,,,,,,,,,,,,,,,,,,,,,,,,,,,,,,,,,,,,,,,,,,,,,,,,
1768202627.928807,1768202627.929905,121.000000,0.000000,4352.307617,4355.128418,4324.102539,4356.922852,4340.641113,4363.461426,4345.769043,4335.128418,4323.461426,4321.410156,4468.974121,4499.358887,4414.487305,4438.846191,4303.000000,3.000000,59.000000,,,,0.000000,4.000000,4.000000,2.000000,4.000000,4.000000,2.000000,4.000000,4.000000,4.000000,4.000000,4.000000,4.000000,4.000000,4.000000,66.666664,,,,,,,,,,,,,,,,,,,,,,,,,,,,,,,,,,,,,,,,,,,,,,,,,,,,,,,,,,,,,,,,,,,,,,,,,,,,,,,,,,,,,,,,,,,,,,,,,,,,,,,,,,,,,,,,,,,,,
1768202627.936615,1768202627.937614,122.000000,0.000000,4355.897461,4358.333496,4324.743652,4358.717773,4346.410156,4367.307617,4358.205078,4345.128418,4334.871582,4328.974121,4484.871582,4509.230957,4430.000000,4451.153809,4253.000000,3.000000,59.000000,,,,0.000000,4.000000,4.000000,2.000000,4.000000,4.000000,2.000000,4.000000,4.000000,4.000000,4.000000,4.000000,4.000000,4.000000,4.000000,66.666664,,,,,,,,,,,,,,,,,,,,,,,,,,,,,,,,,,,,,,,,,,,,,,,,,,,,,,,,,,,,,,,,,,,,,,,,,,,,,,,,,,,,,,,,,,,,,,,,,,,,,,,,,,,,,,,,,,,,,
1768202627.944424,1768202627.945422,123.000000,0.000000,4358.846191,4361.282227,4326.025879,4359.487305,4350.512695,4367.948730,4364.615234,4354.615234,4345.128418,4331.666504,4494.743652,4516.153809,4432.307617,4461.538574,4769.000000,3.000000,59.000000,,,,0.000000,4.000000,4.000000,2.000000,4.000000,4.000000,2.000000,4.000000,4.000000,4.000000,4.000000,4.000000,4.000000,4.000000,4.000000,66.666664,,,,,,,,,,,,,,,,,,,,,,,,,,,,,,,,,,,,,,,,,,,,,,,,,,,,,,,,,,,,,,,,,,,,,,,,,,,,,,,,,,,,,,,,,,,,,,,,,,,,,,,,,,,,,,,,,,,,,
1768202627.952232,1768202627.953430,124.000000,0.000000,4356.025879,4363.589844,4329.230957,4357.307617,4350.897461,4366.410156,4360.256348,4348.333496,4338.461426,4325.641113,4482.563965,4506.666504,4419.615234,4452.051270,5225.000000,3.000000,59.000000,,,,0.000000,4.000000,4.000000,2.000000,4.000000,4.000000,2.000000,4.000000,4.000000,4.000000,4.000000,4.000000,4.000000,4.000000,4.000000,66.666664,,,,,,,,,,,,,,,,,,,,,,,,,,,,,,,,,,,,,,,,,,,,,,,,,,,,,,,,,,,,,,,,,,,,,,,,,,,,,,,,,,,,,,,,,,,,,,,,,,,,,,,,,,,,,,,,,,,,,
1768202627.960040,1768202627.961239,125.000000,0.000000,4359.358887,4366.282227,4330.000000,4360.384766,4354.230957,4366.153809,4358.461426,4343.333496,4335.256348,4329.358887,4480.769043,4503.461426,4424.358887,4450.000000,4303.000000,3.000000,59.000000,,,,0.000000,4.000000,4.000000,2.000000,4.000000,4.000000,2.000000,4.000000,4.000000,4.000000,4.000000,4.000000,4.000000,4.000000,4.000000,66.666664,,,,,,,,,,,,,,,,,,,,,,,,,,,,,,,,,,,,,,,,,,,,,,,,,,,,,,,,,,,,,,,,,,,,,,,,,,,,,,,,,,,,,,,,,,,,,,,,,,,,,,,,,,,,,,,,,,,,,
1768202627.967849,1768202627.968947,126.000000,0.000000,4363.846191,4365.769043,4324.743652,4363.974121,4356.282227,4364.871582,4358.461426,4348.333496,4343.589844,4336.153809,4489.230957,4510.769043,4430.128418,4459.871582,4253.000000,3.000000,59.000000,,,,0.000000,4.000000,4.000000,2.000000,4.000000,4.000000,2.000000,4.000000,4.000000,4.000000,4.000000,4.000000,4.000000,4.000000,4.000000,66.666664,,,,,,,,,,,,,,,,,,,,,,,,,,,,,,,,,,,,,,,,,,,,,,,,0.593423,0.704315,0.262964,0.279159,0.166128,0.685410,0.495970,0.244052,0.216366,0.093688,0.133526,0.093201,0.020840,0.043506,0.056536,0.436784,0.344861,0.140026,0.099509,0.060084,0.223871,0.407452,0.234216,0.082753,0.069383,0.023578,0.019637,0.057162,0.035215,0.028475,0.389224,0.330060,0.282753,0.156011,0.295012,0.224469,0.476759,0.314323,0.118405,0.100777,0.222532,0.447015,0.359832,0.118822,0.098081,0.218649,0.372828,0.201567,0.134070,0.112746,0.434109,0.793371,0.199909,0.408292,0.147449,0.430055,0.625263,0.284663,0.292467,0.183862,1.236891,0.982831,0.534705,0.388535,0.215583,0.916322,0.809244,0.305726,0.551480,0.231458
1768202627.975657,1768202627.976756,127.000000,0.000000,4360.128418,4362.948730,4321.794922,4360.512695,4353.461426,4365.128418,4349.230957,4345.384766,4340.384766,4331.025879,4482.179688,4506.410156,4417.436035,4456.666504,59.000000,3.000000,59.000000,,,,0.000000,4.000000,4.000000,2.000000,4.000000,4.000000,2.000000,4.000000,4.000000,4.000000,4.000000,4.000000,4.000000,4.000000,4.000000,66.666664,,,,,,,,,,,,,,,,,,,,,,,,,,,,,,,,,,,,,,,,,,,,,,,,,,,,,,,,,,,,,,,,,,,,,,,,,,,,,,,,,,,,,,,,,,,,,,,,,,,,,,,,,,,,,,,,,,,,,
1768202627.983466,1768202627.984764,0.000000,0.000000,4360.384766,4363.333496,4324.102539,4360.128418,4353.717773,4366.282227,4347.692383,4341.794922,4332.820313,4326.025879,4477.692383,4499.743652,4413.974121,4452.179688,1025.000000,3.000000,59.000000,,,,0.000000,4.000000,4.000000,2.000000,4.000000,4.000000,2.000000,4.000000,4.000000,4.000000,4.000000,4.000000,4.000000,4.000000,4.000000,66.666664,,,,,,,,,,,,,,,,,,,,,,,,,,,,,,,,,,,,,,,,,,,,,,,,,,,,,,,,,,,,,,,,,,,,,,,,,,,,,,,,,,,,,,,,,,,,,,,,,,,,,,,,,,,,,,,,,,,,,
1768202627.991274,1768202627.992573,1.000000,0.000000,4364.102539,4366.538574,4328.461426,4365.384766,4356.538574,4365.256348,4357.051270,4346.922852,4339.358887,4332.307617,4491.025879,4503.717773,4426.794922,4461.025879,2803.000000,3.000000,59.000000,,,,0.000000,4.000000,4.000000,2.000000,4.000000,4.000000,2.000000,4.000000,4.000000,4.000000,4.000000,4.000000,4.000000,4.000000,4.000000,66.666664,,,,,,,,,,,,,,,,,,,,,,,,,,,,,,,,,,,,,,,,,,,,,,,,,,,,,,,,,,,,,,,,,,,,,,,,,,,,,,,,,,,,,,,,,,,,,,,,,,,,,,,,,,,,,,,,,,,,,
1768202627.999083,1768202628.000481,2.000000,0.000000,4362.563965,4367.692383,4329.230957,4366.794922,4358.717773,4363.461426,4356.922852,4347.051270,4345.384766,4340.512695,4497.307617,4509.615234,4430.384766,4464.615234,3759.000000,3.000000,59.000000,,,,0.000000,4.000000,4.000000,2.000000,4.000000,4.000000,2.000000,4.000000,4.000000,4.000000,4.000000,4.000000,4.000000,4.000000,4.000000,66.666664,,,,,,,,,,,,,,,,,,,,,,,,,,,,,,,,,,,,,,,,,,,,,,,,,,,,,,,,,,,,,,,,,,,,,,,,,,,,,,,,,,,,,,,,,,,,,,,,,,,,,,,,,,,,,,,,,,,,,
1768202628.006891,1768202628.008289,3.000000,0.000000,4365.128418,4365.641113,4328.717773,4366.410156,4361.666504,4362.563965,4350.128418,4343.717773,4343.333496,4341.922852,4495.000000,4510.512695,4425.000000,4463.077148,3745.000000,3.000000,59.000000,,,,0.000000,4.000000,4.000000,2.000000,4.000000,4.000000,2.000000,4.000000,4.000000,4.000000,4.000000,4.000000,4.000000,4.000000,4.000000,66.666664,,,,,,,,,,,,,,,,,,,,,,,,,,,,,,,,,,,,,,,,,,,,,,,,,,,,,,,,,,,,,,,,,,,,,,,,,,,,,,,,,,,,,,,,,,,,,,,,,,,,,,,,,,,,,,,,,,,,,
1768202628.014700,1768202628.016298,4.000000,0.000000,4371.153809,4364.871582,4331.410156,4367.692383,4360.512695,4362.948730,4353.077148,4346.922852,4343.461426,4339.358887,4495.769043,4512.179688,4426.666504,4465.128418,3739.000000,3.000000,59.000000,,,,0.000000,4.000000,4.000000,2.000000,4.000000,4.000000,2.000000,4.000000,4.000000,4.000000,4.000000,4.000000,4.000000,4.000000,4.000000,66.666664,,,,,,,,,,,,,,,,,,,,,,,,,,,,,,,,,,,,,,,,,,,,,,,,,,,,,,,,,,,,,,,,,,,,,,,,,,,,,,,,,,,,,,,,,,,,,,,,,,,,,,,,,,,,,,,,,,,,,
1768202628.022508,1768202628.024106,5.000000,0.000000,4364.743652,4364.871582,4330.256348,4366.153809,4357.179688,4364.102539,4355.000000,4346.666504,4343.333496,4336.153809,4494.102539,4510.512695,4427.436035,4461.282227,798.000000,3.000000,59.000000,,,,0.000000,4.000000,4.000000,2.000000,4.000000,4.000000,2.000000,4.000000,4.000000,4.000000,4.000000,4.000000,4.000000,4.000000,4.000000,66.666664,,,,,,,,,,,,,,,,,,,,,,,,,,,,,,,,,,,,,,,,,,,,,,,,,,,,,,,,,,,,,,,,,,,,,,,,,,,,,,,,,,,,,,,,,,,,,,,,,,,,,,,,,,,,,,,,,,,,,
1768202628.030316,1768202628.032014,6.000000,0.000000,4356.666504,4362.051270,4325.769043,4363.333496,4355.769043,4365.000000,4345.384766,4339.487305,4339.230957,4334.102539,4490.512695,4505.641113,4421.153809,4457.051270,3966.000000,3.000000,59.000000,,,,0.000000,4.000000,4.000000,2.000000,4.000000,4.000000,2.000000,4.000000,4.000000,4.000000,4.000000,4.000000,4.000000,4.000000,4.000000,66.666664,,,,,,,,,,,,,,,,,,,,,,,,,,,,,,,,,,,,,,,,,,,,,,,,,,,,,,,,,,,,,,,,,,,,,,,,,,,,,,,,,,,,,,,,,,,,,,,,,,,,,,,,,,,,,,,,,,,,,
1768202628.038125,1768202628.039823,7.000000,0.000000,4362.820313,4364.102539,4326.538574,4365.897461,4356.025879,4365.000000,4345.000000,4342.436035,4341.025879,4335.256348,4494.487305,4508.846191,4420.897461,4460.641113,4114.000000,3.000000,59.000000,,,,0.000000,4.000000,4.000000,2.000000,4.000000,4.000000,2.000000,4.000000,4.000000,4.000000,4.000000,4.000000,4.000000,4.000000,4.000000,66.666664,,,,,,,,,,,,,,,,,,,,,,,,,,,,,,,,,,,,,,,,,,,,,,,,,,,,,,,,,,,,,,,,,,,,,,,,,,,,,,,,,,,,,,,,,,,,,,,,,,,,,,,,,,,,,,,,,,,,,
1768202628.045933,1768202628.047831,8.000000,0.000000,4371.794922,4369.230957,4329.358887,4371.025879,4357.436035,4365.384766,4357.948730,4353.461426,4345.256348,4340.128418,4499.102539,4515.769043,4425.897461,4462.563965,4084.000000,3.000000,59.000000,,,,0.000000,4.000000,4.000000,2.000000,4.000000,4.000000,2.000000,4.000000,4.000000,4.000000,4.000000,4.000000,4.000000,4.000000,4.000000,66.666664,,,,,,,,,,,,,,,,,,,,,,,,,,,,,,,,,,,,,,,,,,,,,,,,,,,,,,,,,,,,,,,,,,,,,,,,,,,,,,,,,,,,,,,,,,,,,,,,,,,,,,,,,,,,,,,,,,,,,
1768202628.053742,1768202628.055640,9.000000,0.000000,4371.794922,4368.461426,4330.128418,4371.538574,4358.846191,4365.897461,4362.948730,4354.102539,4344.102539,4337.436035,4496.410156,4516.794922,4425.256348,4460.000000,4111.000000,3.000000,59.000000,,,,0.000000,4.000000,4.000000,2.000000,4.000000,4.000000,2.000000,4.000000,4.000000,4.000000,4.000000,4.000000,4.000000,4.000000,4.000000,66.666664,,,,,,,,,,,,,,,,,,,,,,,,,,,,,,,,,,,,,,,,,,,,,,,,,,,,,,,,,,,,,,,,,,,,,,,,,,,,,,,,,,,,,,,,,,,,,,,,,,,,,,,,,,,,,,,,,,,,,
1768202628.061550,1768202628.063548,10.000000,0.000000,4366.538574,4364.487305,4329.102539,4365.641113,4355.769043,4365.384766,4357.307617,4348.846191,4341.025879,4330.256348,4490.512695,4513.461426,4419.743652,4458.333496,4251.000000,3.000000,59.000000,,,,0.000000,4.000000,4.000000,2.000000,4.000000,4.000000,2.000000,4.000000,4.000000,4.000000,4.000000,4.000000,4.000000,4.000000,4.000000,66.666664,,,,,,,,,,,,,,,,,,,,,,,,,,,,,,,,,,,,,,,,,,,,,,,,,,,,,,,,,,,,,,,,,,,,,,,,,,,,,,,,,,,,,,,,,,,,,,,,,,,,,,,,,,,,,,,,,,,,,
1768202628.069358,1768202628.071356,11.000000,0.000000,4362.948730,4365.384766,4326.282227,4364.871582,4354.358887,4364.358887,4354.743652,4350.384766,4342.179688,4331.538574,4491.666504,4515.000000,4418.461426,4460.384766,4767.000000,3.000000,59.000000,,,,0.000000,4.000000,4.000000,2.000000,4.000000,4.000000,2.000000,4.000000,4.000000,4.000000,4.000000,4.000000,4.000000,4.000000,4.000000,66.666664,,,,,,,,,,,,,,,,,,,,,,,,,,,,,,,,,,,,,,,,,,,,,,,,,,,,,,,,,,,,,,,,,,,,,,,,,,,,,,,,,,,,,,,,,,,,,,,,,,,,,,,,,,,,,,,,,,,,,
1768202628.077167,1768202628.078965,12.000000,0.000000,4358.974121,4363.077148,4326.153809,4368.205078,4357.436035,4364.615234,4356.538574,4350.512695,4343.717773,4335.000000,4495.000000,4518.717773,4418.333496,4461.538574,5225.000000,3.000000,59.000000,,,,0.000000,4.000000,4.000000,2.000000,4.000000,4.000000,2.000000,4.000000,4.000000,4.000000,4.000000,4.000000,4.000000,4.000000,4.000000,66.666664,,,,,,,,,,,,,,,,,,,,,,,,,,,,,,,,,,,,,,,,,,,,,,,,,,,,,,,,,,,,,,,,,,,,,,,,,,,,,,,,,,,,,,,,,,,,,,,,,,,,,,,,,,,,,,,,,,,,,
1768202628.084975,1768202628.086773,13.000000,0.000000,4355.512695,4356.282227,4328.717773,4365.769043,4355.769043,4364.871582,4352.948730,4345.128418,4341.025879,4332.692383,4491.025879,4515.897461,4412.820313,4459.615234,4303.000000,3.000000,59.000000,,,,0.000000,4.000000,4.000000,2.000000,4.000000,4.000000,2.000000,4.000000,4.000000,4.000000,4.000000,4.000000,4.000000,4.000000,4.000000,66.666664,,,,,,,,,,,,,,,,,,,,,,,,,,,,,,,,,,,,,,,,,,,,,,,,,,,,,,,,,,,,,,,,,,,,,,,,,,,,,,,,,,,,,,,,,,,,,,,,,,,,,,,,,,,,,,,,,,,,,
1768202628.092784,1768202628.094482,14.000000,0.000000,4357.179688,4356.666504,4327.179688,4363.333496,4348.974121,4364.615234,4351.282227,4346.025879,4340.384766,4329.230957,4487.563965,4507.692383,4410.897461,4454.230957,4251.000000,3.000000,59.000000,,,,0.000000,4.000000,4.000000,2.000000,4.000000,4.000000,2.000000,4.000000,4.000000,4.000000,4.000000,4.000000,4.000000,4.000000,4.000000,66.666664,1.000000,8.333333,4.000000,4.000000,0.000000,1.000000,4.000000,0.000000,4.000000,4.000000,4.000000,4.000000,4.000000,4.000000,4.000000,4.000000,,,,,,,,,,,,,,,,,,,,,,,,,,,,,,,,0.484443,0.682608,0.295857,0.269842,0.179744,0.578658,0.477483,0.235937,0.225447,0.105044,0.118359,0.106214,0.025853,0.047114,0.059411,0.433047,0.326095,0.140639,0.099949,0.066974,0.256941,0.382758,0.236600,0.084138,0.068092,0.024385,0.022396,0.058388,0.040636,0.029688,0.368916,0.291260,0.286626,0.155938,0.285615,0.249399,0.423116,0.372132,0.111546,0.106264,0.196631,0.402789,0.406944,0.119043,0.097604,0.205136,0.372133,0.272734,0.137672,0.115756,0.428874,0.777343,0.255312,0.417196,0.149173,0.398502,0.573752,0.348731,0.286085,0.197941,1.221149,1.087309,0.639518,0.396764,0.222964,0.905209,0.917515,0.356778,0.541095,0.244149
1768202628.100592,1768202628.102290,15.000000,0.000000,4357.307617,4357.179688,4324.487305,4366.153809,4344.102539,4365.128418,4355.256348,4352.051270,4343.717773,4329.358887,4491.153809,4505.897461,4413.974121,4449.487305,4767.000000,3.000000,59.000000,,,,0.000000,4.000000,4.000000,2.000000,4.000000,4.000000,2.000000,4.000000,4.000000,4.000000,4.000000,4.000000,4.000000,4.000000,4.000000,66.666664,,,,,,,,,,,,,,,,,,,,,,,,,,,,,,,,,,,,,,,,,,,,,,,,,,,,,,,,,,,,,,,,,,,,,,,,,,,,,,,,,,,,,,,,,,,,,,,,,,,,,,,,,,,,,,,,,,,,,
1768202628.108401,1768202628.109899,16.000000,0.000000,4353.717773,4350.897461,4322.948730,4365.897461,4342.948730,4363.589844,4351.538574,4350.384766,4342.948730,4330.256348,4487.692383,4507.948730,4410.128418,4447.436035,0.000000,3.000000,59.000000,,,,0.000000,4.000000,4.000000,2.000000,4.000000,4.000000,2.000000,4.000000,4.000000,4.000000,4.000000,4.000000,4.000000,4.000000,4.000000,66.666664,,,,,,,,,,,,,,,,,,,,,,,,,,,,,,,,,,,,,,,,,,,,,,,,,,,,,,,,,,,,,,,,,,,,,,,,,,,,,,,,,,,,,,,,,,,,,,,,,,,,,,,,,,,,,,,,,,,,,
1768202628.116209,1768202628.117708,17.000000,0.000000,4353.077148,4349.230957,4322.820313,4362.436035,4342.948730,4362.820313,4340.384766,4344.230957,4336.922852,4329.230957,4478.717773,4506.025879,4402.436035,4446.410156,0.000000,3.000000,59.000000,,,,0.000000,4.000000,4.000000,2.000000,4.000000,4.000000,2.000000,4.000000,4.000000,4.000000,4.000000,4.000000,4.000000,4.000000,4.000000,66.666664,,,,,,,,,,,,,,,,,,,,,,,,,,,,,,,,,,,,,,,,,,,,,,,,,,,,,,,,,,,,,,,,,,,,,,,,,,,,,,,,,,,,,,,,,,,,,,,,,,,,,,,,,,,,,,,,,,,,,
1768202628.124017,1768202628.125416,18.000000,0.000000,4356.282227,4355.000000,4327.051270,4360.000000,4346.538574,4363.974121,4343.205078,4345.769043,4339.358887,4331.282227,4482.948730,4507.563965,4406.282227,4450.128418,0.000000,3.000000,59.000000,,,,0.000000,4.000000,4.000000,2.000000,4.000000,4.000000,2.000000,4.000000,4.000000,4.000000,4.000000,4.000000,4.000000,4.000000,4.000000,66.666664,,,,,,,,,,,,,,,,,,,,,,,,,,,,,,,,,,,,,,,,,,,,,,,,,,,,,,,,,,,,,,,,,,,,,,,,,,,,,,,,,,,,,,,,,,,,,,,,,,,,,,,,,,,,,,,,,,,,,
1768202628.131826,1768202628.133225,19.000000,0.000000,4356.666504,4353.974121,4327.051270,4358.589844,4347.307617,4364.230957,4351.794922,4347.948730,4341.282227,4332.820313,4486.410156,4508.333496,4410.641113,4452.307617,0.000000,3.000000,59.000000,,,,0.000000,4.000000,4.000000,2.000000,4.000000,4.000000,2.000000,4.000000,4.000000,4.000000,4.000000,4.000000,4.000000,4.000000,4.000000,66.666664,,,,,,,,,,,,,,,,,,,,,,,,,,,,,,,,,,,,,,,,,,,,,,,,,,,,,,,,,,,,,,,,,,,,,,,,,,,,,,,,,,,,,,,,,,,,,,,,,,,,,,,,,,,,,,,,,,,,,
1768202628.139634,1768202628.140833,20.000000,0.000000,4354.487305,4349.487305,4321.794922,4360.384766,4343.077148,4365.384766,4344.487305,4342.179688,4331.538574,4328.077148,4476.282227,4503.333496,4399.615234,4446.410156,0.000000,3.000000,59.000000,,,,0.000000,4.000000,4.000000,2.000000,4.000000,4.000000,2.000000,4.000000,4.000000,4.000000,4.000000,4.000000,4.000000,4.000000,4.000000,66.666664,,,,,,,,,,,,,,,,,,,,,,,,,,,,,,,,,,,,,,,,,,,,,,,,,,,,,,,,,,,,,,,,,,,,,,,,,,,,,,,,,,,,,,,,,,,,,,,,,,,,,,,,,,,,,,,,,,,,,
1768202628.147443,1768202628.148642,21.000000,0.000000,4354.230957,4354.615234,4324.230957,4365.000000,4345.128418,4367.307617,4341.794922,4337.948730,4332.307617,4325.128418,4477.820313,4504.230957,4396.410156,4441.794922,0.000000,3.000000,59.000000,,,,0.000000,4.000000,4.000000,2.000000,4.000000,4.000000,2.000000,4.000000,4.000000,4.000000,4.000000,4.000000,4.000000,4.000000,4.000000,66.666664,,,,,,,,,,,,,,,,,,,,,,,,,,,,,,,,,,,,,,,,,,,,,,,,,,,,,,,,,,,,,,,,,,,,,,,,,,,,,,,,,,,,,,,,,,,,,,,,,,,,,,,,,,,,,,,,,,,,,
1768202628.155251,1768202628.156350,22.000000,0.000000,4358.205078,4360.000000,4328.333496,4365.897461,4350.897461,4366.794922,4354.871582,4344.102539,4344.487305,4333.077148,4491.922852,4512.563965,4410.128418,4450.769043,0.000000,3.000000,59.000000,,,,0.000000,4.000000,4.000000,2.000000,4.000000,4.000000,2.000000,4.000000,4.000000,4.000000,4.000000,4.000000,4.000000,4.000000,4.000000,66.666664,,,,,,,,,,,,,,,,,,,,,,,,,,,,,,,,,,,,,,,,,,,,,,,,,,,,,,,,,,,,,,,,,,,,,,,,,,,,,,,,,,,,,,,,,,,,,,,,,,,,,,,,,,,,,,,,,,,,,
1768202628.163060,1768202628.164159,23.000000,0.000000,4364.871582,4357.436035,4324.871582,4363.974121,4352.051270,4364.743652,4357.692383,4347.948730,4345.512695,4337.307617,4493.974121,4512.051270,4415.897461,4460.384766,0.000000,3.000000,59.000000,,,,0.000000,4.000000,4.000000,2.000000,4.000000,4.000000,2.000000,4.000000,4.000000,4.000000,4.000000,4.000000,4.000000,4.000000,4.000000,66.666664,,,,,,,,,,,,,,,,,,,,,,,,,,,,,,,,,,,,,,,,,,,,,,,,,,,,,,,,,,,,,,,,,,,,,,,,,,,,,,,,,,,,,,,,,,,,,,,,,,,,,,,,,,,,,,,,,,,,,
1768202628.170868,1768202628.171767,24.000000,0.000000,4366.282227,4356.538574,4327.307617,4366.025879,4352.051270,4365.641113,4354.230957,4345.897461,4339.230957,4330.897461,4489.358887,4511.282227,4409.102539,4456.282227,0.000000,3.000000,59.000000,,,,0.000000,4.000000,4.000000,2.000000,4.000000,4.000000,2.000000,4.000000,4.000000,4.000000,4.000000,4.000000,4.000000,4.000000,4.000000,66.666664,,,,,,,,,,,,,,,,,,,,,,,,,,,,,,,,,,,,,,,,,,,,,,,,,,,,,,,,,,,,,,,,,,,,,,,,,,,,,,,,,,,,,,,,,,,,,,,,,,,,,,,,,,,,,,,,,,,,,
1768202628.178676,1768202628.179576,25.000000,0.000000,4363.077148,4358.205078,4332.436035,4367.820313,4356.025879,4369.230957,4358.846191,4353.461426,4342.692383,4331.922852,4492.563965,4518.846191,4406.538574,4453.077148,0.000000,3.000000,59.000000,,,,0.000000,4.000000,4.000000,2.000000,4.000000,4.000000,2.000000,4.000000,4.000000,4.000000,4.000000,4.000000,4.000000,4.000000,4.000000,66.666664,,,,,,,,,,,,,,,,,,,,,,,,,,,,,,,,,,,,,,,,,,,,,,,,,,,,,,,,,,,,,,,,,,,,,,,,,,,,,,,,,,,,,,,,,,,,,,,,,,,,,,,,,,,,,,,,,,,,,
1768202628.186485,1768202628.187484,26.000000,0.000000,4363.461426,4356.666504,4326.666504,4364.487305,4354.615234,4368.333496,4356.538574,4358.589844,4347.563965,4339.102539,4494.487305,4518.846191,4411.794922,4456.666504,0.000000,3.000000,59.000000,,,,0.000000,4.000000,4.000000,2.000000,4.000000,4.000000,2.000000,4.000000,4.000000,4.000000,4.000000,4.000000,4.000000,4.000000,4.000000,66.666664,,,,,,,,,,,,,,,,,,,,,,,,,,,,,,,,,,,,,,,,,,,,,,,,,,,,,,,,,,,,,,,,,,,,,,,,,,,,,,,,,,,,,,,,,,,,,,,,,,,,,,,,,,,,,,,,,,,,,
1768202628.194293,1768202628.195293,27.000000,0.000000,4365.128418,4356.666504,4324.358887,4363.205078,4350.128418,4364.487305,4349.487305,4352.948730,4344.230957,4338.461426,4492.948730,4513.717773,4415.384766,4459.358887,0.000000,3.000000,59.000000,,,,0.000000,4.000000,4.000000,2.000000,4.000000,4.000000,2.000000,4.000000,4.000000,4.000000,4.000000,4.000000,4.000000,4.000000,4.000000,66.666664,,,,,,,,,,,,,,,,,,,,,,,,,,,,,,,,,,,,,,,,,,,,,,,,,,,,,,,,,,,,,,,,,,,,,,,,,,,,,,,,,,,,,,,,,,,,,,,,,,,,,,,,,,,,,,,,,,,,,
1768202628.202102,1768202628.203301,28.000000,0.000000,4366.410156,4359.358887,4331.025879,4366.025879,4354.615234,4366.794922,4358.974121,4356.410156,4344.230957,4335.769043,4493.077148,4516.282227,4413.205078,4457.563965,0.000000,3.000000,59.000000,,,,0.000000,4.000000,4.000000,2.000000,4.000000,4.000000,2.000000,4.000000,4.000000,4.000000,4.000000,4.000000,4.000000,4.000000,4.000000,66.666664,,,,,,,,,,,,,,,,,,,,,,,,,,,,,,,,,,,,,,,,,,,,,,,,,,,,,,,,,,,,,,,,,,,,,,,,,,,,,,,,,,,,,,,,,,,,,,,,,,,,,,,,,,,,,,,,,,,,,
1768202628.209910,1768202628.211109,29.000000,0.000000,4366.794922,4358.461426,4331.153809,4366.153809,4354.743652,4370.512695,4364.102539,4364.615234,4347.051270,4336.282227,4495.256348,4523.461426,4410.000000,4458.333496,0.000000,3.000000,59.000000,,,,0.000000,4.000000,4.000000,2.000000,4.000000,4.000000,2.000000,4.000000,4.000000,4.000000,4.000000,4.000000,4.000000,4.000000,4.000000,66.666664,,,,,,,,,,,,,,,,,,,,,,,,,,,,,,,,,,,,,,,,,,,,,,,,,,,,,,,,,,,,,,,,,,,,,,,,,,,,,,,,,,,,,,,,,,,,,,,,,,,,,,,,,,,,,,,,,,,,,
1768202628.217718,1768202628.219018,30.000000,0.000000,4364.487305,4356.410156,4327.179688,4364.102539,4345.641113,4367.563965,4348.846191,4356.666504,4344.487305,4333.974121,4494.358887,4519.743652,4408.205078,4460.641113,0.000000,3.000000,59.000000,,,,0.000000,4.000000,4.000000,2.000000,4.000000,4.000000,2.000000,4.000000,4.000000,4.000000,4.000000,4.000000,4.000000,4.000000,4.000000,66.666664,,,,,,,,,,,,,,,,,,,,,,,,,,,,,,,,,,,,,,,,,,,,,,,,0.435001,0.644297,0.336088,0.241023,0.186748,0.531667,0.483591,0.224481,0.222943,0.111106,0.103091,0.113603,0.031777,0.049034,0.058233,0.432505,0.294178,0.145455,0.095329,0.071449,0.300107,0.364847,0.233218,0.087813,0.065335,0.024360,0.026587,0.056303,0.044502,0.031320,0.350534,0.249863,0.303040,0.154592,0.278707,0.287242,0.361558,0.436115,0.110688,0.112018,0.197107,0.353318,0.455366,0.123540,0.099545,0.208111,0.391276,0.346318,0.141224,0.117949,0.430241,0.737576,0.343871,0.401294,0.150906,0.373401,0.497877,0.450421,0.270788,0.210999,1.202140,1.145157,0.756451,0.395932,0.225404,0.867393,0.990738,0.427748,0.499223,0.250878
1768202628.225527,1768202628.226826,31.000000,0.000000,4362.436035,4356.410156,4328.974121,4364.230957,4343.077148,4364.487305,4344.102539,4346.538574,4339.230957,4330.897461,4490.000000,4511.025879,4406.153809,4454.102539,0.000000,3.000000,59.000000,,,,0.000000,4.000000,4.000000,2.000000,4.000000,4.000000,2.000000,4.000000,4.000000,4.000000,4.000000,4.000000,4.000000,4.000000,4.000000,66.666664,,,,,,,,,,,,,,,,,,,,,,,,,,,,,,,,,,,,,,,,,,,,,,,,,,,,,,,,,,,,,,,,,,,,,,,,,,,,,,,,,,,,,,,,,,,,,,,,,,,,,,,,,,,,,,,,,,,,,
1768202628.233335,1768202628.234435,32.000000,0.000000,4362.563965,4356.922852,4331.794922,4364.871582,4351.153809,4364.615234,4357.692383,4354.230957,4340.769043,4334.102539,4490.256348,4513.077148,4408.974121,4449.743652,0.000000,3.000000,59.000000,,,,0.000000,4.000000,4.000000,2.000000,4.000000,4.000000,2.000000,4.000000,4.000000,4.000000,4.000000,4.000000,4.000000,4.000000,4.000000,66.666664,,,,,,,,,,,,,,,,,,,,,,,,,,,,,,,,,,,,,,,,,,,,,,,,,,,,,,,,,,,,,,,,,,,,,,,,,,,,,,,,,,,,,,,,,,,,,,,,,,,,,,,,,,,,,,,,,,,,,
1768202628.241144,1768202628.242243,33.000000,0.000000,4364.743652,4357.820313,4330.769043,4364.615234,4356.410156,4363.205078,4363.974121,4360.128418,4344.743652,4338.589844,4492.820313,4521.282227,4412.307617,4455.256348,0.000000,3.000000,59.000000,,,,0.000000,4.000000,4.000000,2.000000,4.000000,4.000000,2.000000,4.000000,4.000000,4.000000,4.000000,4.000000,4.000000,4.000000,4.000000,66.666664,,,,,,,,,,,,,,,,,,,,,,,,,,,,,,,,,,,,,,,,,,,,,,,,,,,,,,,,,,,,,,,,,,,,,,,,,,,,,,,,,,,,,,,,,,,,,,,,,,,,,,,,,,,,,,,,,,,,,
1768202628.248952,1768202628.250151,34.000000,0.000000,4368.589844,4356.794922,4329.102539,4364.487305,4352.948730,4363.846191,4361.410156,4356.538574,4343.717773,4341.410156,4492.692383,4520.128418,4412.179688,4461.282227,0.000000,3.000000,59.000000,,,,0.000000,4.000000,4.000000,2.000000,4.000000,4.000000,2.000000,4.000000,4.000000,4.000000,4.000000,4.000000,4.000000,4.000000,4.000000,66.666664,,,,,,,,,,,,,,,,,,,,,,,,,,,,,,,,,,,,,,,,,,,,,,,,,,,,,,,,,,,,,,,,,,,,,,,,,,,,,,,,,,,,,,,,,,,,,,,,,,,,,,,,,,,,,,,,,,,,,
1768202628.256761,1768202628.257960,35.000000,0.000000,4371.153809,4352.820313,4330.641113,4364.615234,4348.077148,4368.589844,4360.128418,4356.025879,4341.666504,4340.512695,4492.051270,4516.538574,4411.538574,4459.230957,0.000000,3.000000,59.000000,,,,0.000000,4.000000,4.000000,2.000000,4.000000,4.000000,2.000000,4.000000,4.000000,4.000000,4.000000,4.000000,4.000000,4.000000,4.000000,66.666664,,,,,,,,,,,,,,,,,,,,,,,,,,,,,,,,,,,,,,,,,,,,,,,,,,,,,,,,,,,,,,,,,,,,,,,,,,,,,,,,,,,,,,,,,,,,,,,,,,,,,,,,,,,,,,,,,,,,,
1768202628.264569,1768202628.265569,36.000000,0.000000,4368.717773,4352.820313,4332.948730,4364.487305,4347.692383,4370.128418,4360.384766,4359.358887,4344.743652,4338.461426,4492.948730,4523.461426,4412.307617,4457.436035,0.000000,3.000000,59.000000,,,,0.000000,4.000000,4.000000,2.000000,4.000000,4.000000,2.000000,4.000000,4.000000,4.000000,4.000000,4.000000,4.000000,4.000000,4.000000,66.666664,,,,,,,,,,,,,,,,,,,,,,,,,,,,,,,,,,,,,,,,,,,,,,,,,,,,,,,,,,,,,,,,,,,,,,,,,,,,,,,,,,,,,,,,,,,,,,,,,,,,,,,,,,,,,,,,,,,,,
1768202628.272378,1768202628.273377,37.000000,0.000000,4365.128418,4355.897461,4329.871582,4364.358887,4352.948730,4368.333496,4363.717773,4360.000000,4347.051270,4342.051270,4491.794922,4523.846191,4412.307617,4458.333496,0.000000,3.000000,59.000000,,,,0.000000,4.000000,4.000000,2.000000,4.000000,4.000000,2.000000,4.000000,4.000000,4.000000,4.000000,4.000000,4.000000,4.000000,4.000000,66.666664,,,,,,,,,,,,,,,,,,,,,,,,,,,,,,,,,,,,,,,,,,,,,,,,,,,,,,,,,,,,,,,,,,,,,,,,,,,,,,,,,,,,,,,,,,,,,,,,,,,,,,,,,,,,,,,,,,,,,
1768202628.280186,1768202628.281086,38.000000,0.000000,4364.615234,4356.410156,4328.461426,4365.384766,4357.051270,4369.871582,4370.769043,4360.641113,4342.820313,4343.205078,4492.563965,4519.615234,4413.717773,4457.051270,0.000000,3.000000,59.000000,,,,0.000000,4.000000,4.000000,2.000000,4.000000,4.000000,2.000000,4.000000,4.000000,4.000000,4.000000,4.000000,4.000000,4.000000,4.000000,66.666664,,,,,,,,,,,,,,,,,,,,,,,,,,,,,,,,,,,,,,,,,,,,,,,,,,,,,,,,,,,,,,,,,,,,,,,,,,,,,,,,,,,,,,,,,,,,,,,,,,,,,,,,,,,,,,,,,,,,,
1768202628.287995,1768202628.288894,39.000000,0.000000,4369.615234,4356.025879,4333.205078,4366.410156,4355.384766,4371.153809,4373.205078,4365.000000,4343.589844,4340.897461,4497.820313,4522.948730,4417.051270,4460.384766,0.000000,3.000000,59.000000,,,,0.000000,4.000000,4.000000,2.000000,4.000000,4.000000,2.000000,4.000000,4.000000,4.000000,4.000000,4.000000,4.000000,4.000000,4.000000,66.666664,,,,,,,,,,,,,,,,,,,,,,,,,,,,,,,,,,,,,,,,,,,,,,,,,,,,,,,,,,,,,,,,,,,,,,,,,,,,,,,,,,,,,,,,,,,,,,,,,,,,,,,,,,,,,,,,,,,,,
1768202628.295803,1768202628.296503,40.000000,0.000000,4374.487305,4356.666504,4334.358887,4366.410156,4351.538574,4368.974121,4366.538574,4364.487305,4347.820313,4341.153809,4498.461426,4523.589844,4419.102539,4462.563965,0.000000,3.000000,59.000000,,,,0.000000,4.000000,4.000000,2.000000,4.000000,4.000000,2.000000,4.000000,4.000000,4.000000,4.000000,4.000000,4.000000,4.000000,4.000000,66.666664,,,,,,,,,,,,,,,,,,,,,,,,,,,,,,,,,,,,,,,,,,,,,,,,,,,,,,,,,,,,,,,,,,,,,,,,,,,,,,,,,,,,,,,,,,,,,,,,,,,,,,,,,,,,,,,,,,,,,
1768202628.303611,1768202628.304311,41.000000,0.000000,4371.794922,4359.871582,4328.846191,4366.410156,4351.794922,4366.922852,4355.384766,4356.410156,4342.307617,4340.897461,4494.871582,4518.333496,4422.179688,4460.769043,0.000000,3.000000,59.000000,,,,0.000000,4.000000,4.000000,2.000000,4.000000,4.000000,2.000000,4.000000,4.000000,4.000000,4.000000,4.000000,4.000000,4.000000,4.000000,66.666664,,,,,,,,,,,,,,,,,,,,,,,,,,,,,,,,,,,,,,,,,,,,,,,,,,,,,,,,,,,,,,,,,,,,,,,,,,,,,,,,,,,,,,,,,,,,,,,,,,,,,,,,,,,,,,,,,,,,,
1768202628.311420,1768202628.312219,42.000000,0.000000,4371.025879,4364.102539,4327.692383,4366.666504,4357.307617,4367.692383,4356.282227,4355.512695,4338.846191,4341.794922,4496.025879,4519.358887,4424.102539,4461.153809,0.000000,3.000000,59.000000,,,,0.000000,4.000000,4.000000,2.000000,4.000000,4.000000,2.000000,4.000000,4.000000,4.000000,4.000000,4.000000,4.000000,4.000000,4.000000,66.666664,,,,,,,,,,,,,,,,,,,,,,,,,,,,,,,,,,,,,,,,,,,,,,,,,,,,,,,,,,,,,,,,,,,,,,,,,,,,,,,,,,,,,,,,,,,,,,,,,,,,,,,,,,,,,,,,,,,,,
1768202628.319228,1768202628.320028,43.000000,0.000000,4375.128418,4361.282227,4330.769043,4366.282227,4358.717773,4368.974121,4365.384766,4359.487305,4344.615234,4342.820313,4496.666504,4521.410156,4422.179688,4462.820313,0.000000,3.000000,59.000000,,,,0.000000,4.000000,4.000000,2.000000,4.000000,4.000000,2.000000,4.000000,4.000000,4.000000,4.000000,4.000000,4.000000,4.000000,4.000000,66.666664,,,,,,,,,,,,,,,,,,,,,,,,,,,,,,,,,,,,,,,,,,,,,,,,,,,,,,,,,,,,,,,,,,,,,,,,,,,,,,,,,,,,,,,,,,,,,,,,,,,,,,,,,,,,,,,,,,,,,
1768202628.327037,1768202628.327637,44.000000,0.000000,4369.102539,4356.282227,4329.615234,4366.666504,4350.897461,4367.948730,4359.615234,4356.922852,4345.128418,4342.820313,4493.461426,4517.820313,4419.102539,4461.410156,0.000000,3.000000,59.000000,,,,0.000000,4.000000,4.000000,2.000000,4.000000,4.000000,2.000000,4.000000,4.000000,4.000000,4.000000,4.000000,4.000000,4.000000,4.000000,66.666664,,,,,,,,,,,,,,,,,,,,,,,,,,,,,,,,,,,,,,,,,,,,,,,,,,,,,,,,,,,,,,,,,,,,,,,,,,,,,,,,,,,,,,,,,,,,,,,,,,,,,,,,,,,,,,,,,,,,,
1768202628.334845,1768202628.335445,45.000000,0.000000,4359.487305,4359.743652,4326.922852,4367.307617,4347.051270,4365.256348,4345.128418,4353.077148,4341.410156,4342.692383,4492.692383,4518.205078,4416.153809,4455.256348,0.000000,3.000000,59.000000,,,,0.000000,4.000000,4.000000,2.000000,4.000000,4.000000,2.000000,4.000000,4.000000,4.000000,4.000000,4.000000,4.000000,4.000000,4.000000,66.666664,,,,,,,,,,,,,,,,,,,,,,,,,,,,,,,,,,,,,,,,,,,,,,,,,,,,,,,,,,,,,,,,,,,,,,,,,,,,,,,,,,,,,,,,,,,,,,,,,,,,,,,,,,,,,,,,,,,,,
1768202628.342653,1768202628.343154,46.000000,0.000000,4360.128418,4360.897461,4326.282227,4365.897461,4350.897461,4365.512695,4345.641113,4353.333496,4341.153809,4338.589844,4492.307617,4518.077148,4412.948730,4451.282227,0.000000,3.000000,59.000000,,,,0.000000,4.000000,4.000000,2.000000,4.000000,4.000000,2.000000,4.000000,4.000000,4.000000,4.000000,4.000000,4.000000,4.000000,4.000000,66.666664,,,,,,,,,,,,,,,,,,,,,,,,,,,,,,,,,,,,,,,,,,,,,,,,0.444997,0.613821,0.379722,0.198380,0.184835,0.532631,0.511144,0.211150,0.211228,0.109258,0.087808,0.114510,0.038730,0.048669,0.053815,0.426327,0.260190,0.153116,0.086330,0.072143,0.356129,0.372392,0.227104,0.093064,0.061852,0.022839,0.030350,0.052331,0.046034,0.032865,0.330514,0.228907,0.337210,0.157660,0.278070,0.339500,0.308298,0.508793,0.117191,0.116284,0.222071,0.324545,0.512963,0.133218,0.103468,0.225953,0.438395,0.412107,0.147662,0.120551,0.425636,0.690535,0.463343,0.369793,0.157546,0.345429,0.434134,0.590437,0.253156,0.219195,1.137534,1.126790,0.863015,0.386550,0.227293,0.796106,1.028657,0.517476,0.432536,0.250037
1768202628.350462,1768202628.350962,47.000000,0.000000,4363.205078,4355.000000,4327.436035,4365.897461,4349.871582,4369.358887,4355.000000,4353.846191,4339.743652,4335.256348,4490.769043,4516.538574,4412.436035,4452.820313,0.000000,3.000000,59.000000,,,,0.000000,4.000000,4.000000,2.000000,4.000000,4.000000,2.000000,4.000000,4.000000,4.000000,4.000000,4.000000,4.000000,4.000000,4.000000,66.666664,,,,,,,,,,,,,,,,,,,,,,,,,,,,,,,,,,,,,,,,,,,,,,,,,,,,,,,,,,,,,,,,,,,,,,,,,,,,,,,,,,,,,,,,,,,,,,,,,,,,,,,,,,,,,,,,,,,,,
1768202628.358270,1768202628.358571,48.000000,0.000000,4363.846191,4356.922852,4329.615234,4368.333496,4346.666504,4369.487305,4353.333496,4354.871582,4342.179688,4342.179688,4494.230957,4519.615234,4414.743652,4458.205078,0.000000,3.000000,59.000000,,,,0.000000,4.000000,4.000000,2.000000,4.000000,4.000000,2.000000,4.000000,4.000000,4.000000,4.000000,4.000000,4.000000,4.000000,4.000000,66.666664,,,,,,,,,,,,,,,,,,,,,,,,,,,,,,,,,,,,,,,,,,,,,,,,,,,,,,,,,,,,,,,,,,,,,,,,,,,,,,,,,,,,,,,,,,,,,,,,,,,,,,,,,,,,,,,,,,,,,
1768202628.366079,1768202628.366379,49.000000,0.000000,4361.922852,4358.846191,4329.102539,4365.769043,4347.692383,4365.897461,4347.436035,4352.307617,4342.051270,4341.922852,4496.153809,4516.410156,4413.461426,4458.717773,0.000000,3.000000,59.000000,,,,0.000000,4.000000,4.000000,2.000000,4.000000,4.000000,2.000000,4.000000,4.000000,4.000000,4.000000,4.000000,4.000000,4.000000,4.000000,66.666664,,,,,,,,,,,,,,,,,,,,,,,,,,,,,,,,,,,,,,,,,,,,,,,,,,,,,,,,,,,,,,,,,,,,,,,,,,,,,,,,,,,,,,,,,,,,,,,,,,,,,,,,,,,,,,,,,,,,,
1768202628.373887,1768202628.374088,50.000000,0.000000,4358.846191,4347.307617,4326.666504,4357.948730,4345.897461,4364.487305,4343.717773,4343.846191,4330.000000,4327.820313,4487.948730,4503.974121,4411.538574,4452.436035,0.000000,3.000000,59.000000,,,,0.000000,4.000000,4.000000,2.000000,4.000000,4.000000,2.000000,4.000000,4.000000,4.000000,4.000000,4.000000,4.000000,4.000000,4.000000,66.666664,,,,,,,,,,,,,,,,,,,,,,,,,,,,,,,,,,,,,,,,,,,,,,,,,,,,,,,,,,,,,,,,,,,,,,,,,,,,,,,,,,,,,,,,,,,,,,,,,,,,,,,,,,,,,,,,,,,,,
1768202628.381696,1768202628.381896,51.000000,0.000000,4357.307617,4341.538574,4325.256348,4355.769043,4340.000000,4365.256348,4342.692383,4340.000000,4324.743652,4323.717773,4485.256348,4502.051270,4413.077148,4449.615234,0.000000,3.000000,59.000000,,,,0.000000,4.000000,4.000000,2.000000,4.000000,4.000000,2.000000,4.000000,4.000000,4.000000,4.000000,4.000000,4.000000,4.000000,4.000000,66.666664,,,,,,,,,,,,,,,,,,,,,,,,,,,,,,,,,,,,,,,,,,,,,,,,,,,,,,,,,,,,,,,,,,,,,,,,,,,,,,,,,,,,,,,,,,,,,,,,,,,,,,,,,,,,,,,,,,,,,
1768202628.389504,1768202628.389904,52.000000,0.000000,4358.717773,4346.922852,4327.563965,4359.358887,4341.282227,4366.410156,4348.461426,4345.000000,4333.846191,4328.974121,4489.102539,4512.179688,4410.897461,4448.846191,0.000000,3.000000,59.000000,,,,0.000000,4.000000,4.000000,2.000000,4.000000,4.000000,2.000000,4.000000,4.000000,4.000000,4.000000,4.000000,4.000000,4.000000,4.000000,66.666664,,,,,,,,,,,,,,,,,,,,,,,,,,,,,,,,,,,,,,,,,,,,,,,,,,,,,,,,,,,,,,,,,,,,,,,,,,,,,,,,,,,,,,,,,,,,,,,,,,,,,,,,,,,,,,,,,,,,,
1768202628.397313,1768202628.397713,53.000000,0.000000,4358.717773,4346.410156,4328.589844,4360.000000,4343.333496,4366.282227,4348.717773,4345.641113,4333.333496,4326.025879,4483.077148,4512.307617,4405.128418,4447.436035,0.000000,3.000000,59.000000,,,,0.000000,4.000000,4.000000,2.000000,4.000000,4.000000,2.000000,4.000000,4.000000,4.000000,4.000000,4.000000,4.000000,4.000000,4.000000,66.666664,,,,,,,,,,,,,,,,,,,,,,,,,,,,,,,,,,,,,,,,,,,,,,,,,,,,,,,,,,,,,,,,,,,,,,,,,,,,,,,,,,,,,,,,,,,,,,,,,,,,,,,,,,,,,,,,,,,,,
1768202628.405121,1768202628.405621,54.000000,0.000000,4356.538574,4344.743652,4326.025879,4358.205078,4341.025879,4363.333496,4340.897461,4340.641113,4324.102539,4326.025879,4478.205078,4507.179688,4405.000000,4447.051270,0.000000,3.000000,59.000000,,,,0.000000,4.000000,4.000000,2.000000,4.000000,4.000000,2.000000,4.000000,4.000000,4.000000,4.000000,4.000000,4.000000,4.000000,4.000000,66.666664,,,,,,,,,,,,,,,,,,,,,,,,,,,,,,,,,,,,,,,,,,,,,,,,,,,,,,,,,,,,,,,,,,,,,,,,,,,,,,,,,,,,,,,,,,,,,,,,,,,,,,,,,,,,,,,,,,,,,
1768202628.412929,1768202628.413430,55.000000,0.000000,4356.922852,4349.102539,4324.358887,4360.897461,4343.333496,4363.461426,4339.743652,4341.282227,4325.641113,4332.820313,4485.769043,4512.307617,4409.871582,4446.025879,0.000000,3.000000,59.000000,,,,0.000000,4.000000,4.000000,2.000000,4.000000,4.000000,2.000000,4.000000,4.000000,4.000000,4.000000,4.000000,4.000000,4.000000,4.000000,66.666664,,,,,,,,,,,,,,,,,,,,,,,,,,,,,,,,,,,,,,,,,,,,,,,,,,,,,,,,,,,,,,,,,,,,,,,,,,,,,,,,,,,,,,,,,,,,,,,,,,,,,,,,,,,,,,,,,,,,,
1768202628.420738,1768202628.421438,56.000000,0.000000,4357.692383,4352.563965,4326.922852,4366.666504,4342.563965,4368.717773,4348.333496,4345.512695,4329.743652,4328.205078,4494.743652,4519.487305,4413.846191,4449.102539,0.000000,3.000000,59.000000,,,,0.000000,4.000000,4.000000,2.000000,4.000000,4.000000,2.000000,4.000000,4.000000,4.000000,4.000000,4.000000,4.000000,4.000000,4.000000,66.666664,,,,,,,,,,,,,,,,,,,,,,,,,,,,,,,,,,,,,,,,,,,,,,,,,,,,,,,,,,,,,,,,,,,,,,,,,,,,,,,,,,,,,,,,,,,,,,,,,,,,,,,,,,,,,,,,,,,,,
1768202628.428546,1768202628.429246,57.000000,0.000000,4358.589844,4350.128418,4327.436035,4366.153809,4340.256348,4369.230957,4348.717773,4343.589844,4324.358887,4320.256348,4490.256348,4513.333496,4408.717773,4453.589844,0.000000,3.000000,59.000000,,,,0.000000,4.000000,4.000000,2.000000,4.000000,4.000000,2.000000,4.000000,4.000000,4.000000,4.000000,4.000000,4.000000,4.000000,4.000000,66.666664,,,,,,,,,,,,,,,,,,,,,,,,,,,,,,,,,,,,,,,,,,,,,,,,,,,,,,,,,,,,,,,,,,,,,,,,,,,,,,,,,,,,,,,,,,,,,,,,,,,,,,,,,,,,,,,,,,,,,
1768202628.436355,1768202628.436955,58.000000,0.000000,4359.230957,4348.717773,4326.538574,4361.666504,4343.333496,4366.666504,4341.410156,4339.743652,4321.922852,4325.000000,4481.538574,4505.641113,4397.948730,4450.384766,0.000000,3.000000,59.000000,,,,0.000000,4.000000,4.000000,2.000000,4.000000,4.000000,2.000000,4.000000,4.000000,4.000000,4.000000,4.000000,4.000000,4.000000,4.000000,66.666664,,,,,,,,,,,,,,,,,,,,,,,,,,,,,,,,,,,,,,,,,,,,,,,,,,,,,,,,,,,,,,,,,,,,,,,,,,,,,,,,,,,,,,,,,,,,,,,,,,,,,,,,,,,,,,,,,,,,,
1768202628.444163,1768202628.444763,59.000000,0.000000,4358.333496,4349.102539,4327.436035,4357.820313,4343.461426,4365.512695,4342.179688,4340.512695,4325.512695,4328.846191,4483.077148,4507.179688,4398.846191,4440.128418,0.000000,3.000000,59.000000,,,,0.000000,4.000000,4.000000,2.000000,4.000000,4.000000,2.000000,4.000000,4.000000,4.000000,4.000000,4.000000,4.000000,4.000000,4.000000,66.666664,,,,,,,,,,,,,,,,,,,,,,,,,,,,,,,,,,,,,,,,,,,,,,,,,,,,,,,,,,,,,,,,,,,,,,,,,,,,,,,,,,,,,,,,,,,,,,,,,,,,,,,,,,,,,,,,,,,,,
1768202628.451971,1768202628.452672,60.000000,0.000000,4356.794922,4350.769043,4326.282227,4357.179688,4341.538574,4365.384766,4349.358887,4342.051270,4326.025879,4326.410156,4490.897461,4511.025879,4406.538574,4441.538574,0.000000,3.000000,59.000000,,,,0.000000,4.000000,4.000000,2.000000,4.000000,4.000000,2.000000,4.000000,4.000000,4.000000,4.000000,4.000000,4.000000,4.000000,4.000000,66.666664,,,,,,,,,,,,,,,,,,,,,,,,,,,,,,,,,,,,,,,,,,,,,,,,,,,,,,,,,,,,,,,,,,,,,,,,,,,,,,,,,,,,,,,,,,,,,,,,,,,,,,,,,,,,,,,,,,,,,
1768202628.459780,1768202628.460480,61.000000,0.000000,4358.717773,4352.692383,4326.282227,4362.051270,4346.153809,4367.436035,4353.205078,4343.333496,4326.666504,4330.641113,4497.307617,4514.358887,4409.358887,4454.487305,0.000000,3.000000,59.000000,,,,0.000000,4.000000,4.000000,2.000000,4.000000,4.000000,2.000000,4.000000,4.000000,4.000000,4.000000,4.000000,4.000000,4.000000,4.000000,66.666664,,,,,,,,,,,,,,,,,,,,,,,,,,,,,,,,,,,,,,,,,,,,,,,,,,,,,,,,,,,,,,,,,,,,,,,,,,,,,,,,,,,,,,,,,,,,,,,,,,,,,,,,,,,,,,,,,,,,,
1768202628.467588,1768202628.468189,62.000000,0.000000,4358.589844,4348.205078,4325.641113,4363.589844,4346.666504,4368.717773,4350.384766,4342.307617,4327.948730,4332.820313,4488.974121,4512.820313,4403.846191,4453.846191,0.000000,3.000000,59.000000,,,,0.000000,4.000000,4.000000,2.000000,4.000000,4.000000,2.000000,4.000000,4.000000,4.000000,4.000000,4.000000,4.000000,4.000000,4.000000,66.666664,,,,,,,,,,,,,,,,,,,,,,,,,,,,,,,,,,,,,,,,,,,,,,,,0.496147,0.600065,0.418712,0.155439,0.174859,0.542076,0.539454,0.197829,0.194394,0.100234,0.074530,0.109137,0.046484,0.046824,0.047977,0.406918,0.231252,0.159920,0.075229,0.069156,0.427940,0.404793,0.220499,0.098599,0.058232,0.019863,0.032453,0.048011,0.045046,0.033561,0.306422,0.244668,0.382894,0.168796,0.283118,0.397862,0.279359,0.580870,0.129242,0.118621,0.261335,0.328652,0.575308,0.145548,0.108604,0.255432,0.501050,0.458625,0.158489,0.124075,0.421829,0.645621,0.589869,0.336621,0.171117,0.327363,0.410851,0.741171,0.237966,0.219226,1.030789,1.023139,0.929614,0.371053,0.230782,0.717354,1.034496,0.608709,0.355341,0.241194
1768202628.475397,1768202628.475997,63.000000,0.000000,4352.563965,4344.358887,4324.487305,4359.743652,4343.717773,4367.948730,4352.307617,4338.717773,4325.000000,4325.897461,4475.512695,4507.179688,4395.384766,4443.205078,0.000000,3.000000,59.000000,,,,0.000000,4.000000,4.000000,2.000000,4.000000,4.000000,2.000000,4.000000,4.000000,4.000000,4.000000,4.000000,4.000000,4.000000,4.000000,66.666664,,,,,,,,,,,,,,,,,,,,,,,,,,,,,,,,,,,,,,,,,,,,,,,,,,,,,,,,,,,,,,,,,,,,,,,,,,,,,,,,,,,,,,,,,,,,,,,,,,,,,,,,,,,,,,,,,,,,,
1768202628.483205,1768202628.483606,64.000000,0.000000,4351.666504,4347.692383,4325.128418,4357.820313,4348.333496,4367.051270,4355.128418,4340.897461,4324.871582,4324.102539,4477.820313,4504.871582,4394.743652,4441.538574,1028.000000,3.000000,59.000000,,,,0.000000,4.000000,4.000000,2.000000,4.000000,4.000000,2.000000,4.000000,4.000000,4.000000,4.000000,4.000000,4.000000,4.000000,4.000000,66.666664,,,,,,,,,,,,,,,,,,,,,,,,,,,,,,,,,,,,,,,,,,,,,,,,,,,,,,,,,,,,,,,,,,,,,,,,,,,,,,,,,,,,,,,,,,,,,,,,,,,,,,,,,,,,,,,,,,,,,
1768202628.491014,1768202628.491414,65.000000,0.000000,4356.282227,4354.743652,4327.179688,4359.102539,4349.358887,4367.692383,4348.333496,4341.922852,4326.410156,4328.205078,4486.282227,4504.358887,4402.436035,4447.436035,2803.000000,3.000000,59.000000,,,,0.000000,4.000000,4.000000,2.000000,4.000000,4.000000,2.000000,4.000000,4.000000,4.000000,4.000000,4.000000,4.000000,4.000000,4.000000,66.666664,,,,,,,,,,,,,,,,,,,,,,,,,,,,,,,,,,,,,,,,,,,,,,,,,,,,,,,,,,,,,,,,,,,,,,,,,,,,,,,,,,,,,,,,,,,,,,,,,,,,,,,,,,,,,,,,,,,,,
1768202628.498822,1768202628.499123,66.000000,0.000000,4359.102539,4357.051270,4328.846191,4362.820313,4347.436035,4367.179688,4340.384766,4332.820313,4320.897461,4326.410156,4480.128418,4503.717773,4403.077148,4445.384766,3769.000000,3.000000,59.000000,,,,0.000000,4.000000,4.000000,2.000000,4.000000,4.000000,2.000000,4.000000,4.000000,4.000000,4.000000,4.000000,4.000000,4.000000,4.000000,66.666664,,,,,,,,,,,,,,,,,,,,,,,,,,,,,,,,,,,,,,,,,,,,,,,,,,,,,,,,,,,,,,,,,,,,,,,,,,,,,,,,,,,,,,,,,,,,,,,,,,,,,,,,,,,,,,,,,,,,,
1768202628.506630,1768202628.506931,67.000000,0.000000,4356.666504,4350.641113,4326.922852,4364.358887,4349.487305,4366.794922,4343.717773,4330.256348,4319.230957,4323.461426,4472.051270,4506.666504,4394.102539,4441.282227,3745.000000,3.000000,59.000000,,,,0.000000,4.000000,4.000000,2.000000,4.000000,4.000000,2.000000,4.000000,4.000000,4.000000,4.000000,4.000000,4.000000,4.000000,4.000000,66.666664,,,,,,,,,,,,,,,,,,,,,,,,,,,,,,,,,,,,,,,,,,,,,,,,,,,,,,,,,,,,,,,,,,,,,,,,,,,,,,,,,,,,,,,,,,,,,,,,,,,,,,,,,,,,,,,,,,,,,
1768202628.514439,1768202628.514939,68.000000,0.000000,4352.051270,4342.179688,4324.102539,4358.077148,4345.897461,4367.436035,4351.025879,4341.922852,4328.205078,4324.102539,4475.384766,4509.230957,4388.717773,4441.153809,3742.000000,3.000000,59.000000,,,,0.000000,4.000000,4.000000,2.000000,4.000000,4.000000,2.000000,4.000000,4.000000,4.000000,4.000000,4.000000,4.000000,4.000000,4.000000,66.666664,,,,,,,,,,,,,,,,,,,,,,,,,,,,,,,,,,,,,,,,,,,,,,,,,,,,,,,,,,,,,,,,,,,,,,,,,,,,,,,,,,,,,,,,,,,,,,,,,,,,,,,,,,,,,,,,,,,,,
1768202628.522247,1768202628.522748,69.000000,0.000000,4353.589844,4341.794922,4325.769043,4353.846191,4340.384766,4367.051270,4351.410156,4349.230957,4334.102539,4328.205078,4478.717773,4507.563965,4388.205078,4443.077148,803.000000,3.000000,59.000000,,,,0.000000,4.000000,4.000000,2.000000,4.000000,4.000000,2.000000,4.000000,4.000000,4.000000,4.000000,4.000000,4.000000,4.000000,4.000000,66.666664,,,,,,,,,,,,,,,,,,,,,,,,,,,,,,,,,,,,,,,,,,,,,,,,,,,,,,,,,,,,,,,,,,,,,,,,,,,,,,,,,,,,,,,,,,,,,,,,,,,,,,,,,,,,,,,,,,,,,
1768202628.530056,1768202628.530656,70.000000,0.000000,4362.948730,4352.692383,4331.922852,4362.692383,4345.128418,4367.307617,4351.153809,4349.487305,4338.589844,4338.717773,4486.922852,4515.384766,4397.948730,4454.871582,3967.000000,3.000000,59.000000,,,,0.000000,4.000000,4.000000,2.000000,4.000000,4.000000,2.000000,4.000000,4.000000,4.000000,4.000000,4.000000,4.000000,4.000000,4.000000,66.666664,,,,,,,,,,,,,,,,,,,,,,,,,,,,,,,,,,,,,,,,,,,,,,,,,,,,,,,,,,,,,,,,,,,,,,,,,,,,,,,,,,,,,,,,,,,,,,,,,,,,,,,,,,,,,,,,,,,,,
1768202628.537864,1768202628.538465,71.000000,0.000000,4368.205078,4359.743652,4332.051270,4367.948730,4352.051270,4367.948730,4353.589844,4352.307617,4345.512695,4345.000000,4496.794922,4524.615234,4410.897461,4463.333496,4116.000000,3.000000,59.000000,,,,0.000000,4.000000,4.000000,2.000000,4.000000,4.000000,2.000000,4.000000,4.000000,4.000000,4.000000,4.000000,4.000000,4.000000,4.000000,66.666664,,,,,,,,,,,,,,,,,,,,,,,,,,,,,,,,,,,,,,,,,,,,,,,,,,,,,,,,,,,,,,,,,,,,,,,,,,,,,,,,,,,,,,,,,,,,,,,,,,,,,,,,,,,,,,,,,,,,,
1768202628.545673,1768202628.546073,72.000000,0.000000,4363.717773,4356.538574,4328.205078,4361.282227,4353.333496,4365.512695,4351.153809,4350.769043,4340.384766,4337.820313,4493.461426,4518.589844,4407.051270,4460.128418,4084.000000,3.000000,59.000000,,,,0.000000,4.000000,4.000000,2.000000,4.000000,4.000000,2.000000,4.000000,4.000000,4.000000,4.000000,4.000000,4.000000,4.000000,4.000000,66.666664,,,,,,,,,,,,,,,,,,,,,,,,,,,,,,,,,,,,,,,,,,,,,,,,,,,,,,,,,,,,,,,,,,,,,,,,,,,,,,,,,,,,,,,,,,,,,,,,,,,,,,,,,,,,,,,,,,,,,
1768202628.553481,1768202628.553882,73.000000,0.000000,4357.692383,4352.179688,4328.077148,4356.025879,4353.974121,4362.307617,4343.974121,4343.717773,4327.563965,4328.333496,4484.230957,4509.102539,4396.282227,4452.436035,4111.000000,3.000000,59.000000,,,,0.000000,4.000000,4.000000,2.000000,4.000000,4.000000,2.000000,4.000000,4.000000,4.000000,4.000000,4.000000,4.000000,4.000000,4.000000,66.666664,,,,,,,,,,,,,,,,,,,,,,,,,,,,,,,,,,,,,,,,,,,,,,,,,,,,,,,,,,,,,,,,,,,,,,,,,,,,,,,,,,,,,,,,,,,,,,,,,,,,,,,,,,,,,,,,,,,,,
1768202628.561289,1768202628.561590,74.000000,0.000000,4355.000000,4352.051270,4327.948730,4356.666504,4355.256348,4363.589844,4342.307617,4341.794922,4325.128418,4328.077148,4482.436035,4510.384766,4394.615234,4446.025879,4256.000000,3.000000,59.000000,,,,0.000000,4.000000,4.000000,2.000000,4.000000,4.000000,2.000000,4.000000,4.000000,4.000000,4.000000,4.000000,4.000000,4.000000,4.000000,66.666664,,,,,,,,,,,,,,,,,,,,,,,,,,,,,,,,,,,,,,,,,,,,,,,,,,,,,,,,,,,,,,,,,,,,,,,,,,,,,,,,,,,,,,,,,,,,,,,,,,,,,,,,,,,,,,,,,,,,,
1768202628.569098,1768202628.569399,75.000000,0.000000,4356.922852,4351.153809,4326.025879,4359.871582,4353.974121,4366.922852,4349.615234,4341.538574,4328.717773,4329.230957,4484.615234,4511.410156,4397.820313,4443.717773,4767.000000,3.000000,59.000000,,,,0.000000,4.000000,4.000000,2.000000,4.000000,4.000000,2.000000,4.000000,4.000000,4.000000,4.000000,4.000000,4.000000,4.000000,4.000000,66.666664,,,,,,,,,,,,,,,,,,,,,,,,,,,,,,,,,,,,,,,,,,,,,,,,,,,,,,,,,,,,,,,,,,,,,,,,,,,,,,,,,,,,,,,,,,,,,,,,,,,,,,,,,,,,,,,,,,,,,
1768202628.576906,1768202628.577407,76.000000,0.000000,4357.179688,4343.974121,4326.025879,4358.333496,4347.820313,4364.487305,4347.692383,4335.384766,4325.384766,4325.641113,4479.230957,4505.000000,4396.025879,4444.102539,5228.000000,3.000000,59.000000,,,,0.000000,4.000000,4.000000,2.000000,4.000000,4.000000,2.000000,4.000000,4.000000,4.000000,4.000000,4.000000,4.000000,4.000000,4.000000,66.666664,,,,,,,,,,,,,,,,,,,,,,,,,,,,,,,,,,,,,,,,,,,,,,,,,,,,,,,,,,,,,,,,,,,,,,,,,,,,,,,,,,,,,,,,,,,,,,,,,,,,,,,,,,,,,,,,,,,,,
1768202628.584715,1768202628.585215,77.000000,0.000000,4354.487305,4340.512695,4328.717773,4355.128418,4346.282227,4360.769043,4337.436035,4335.897461,4322.051270,4325.897461,4475.512695,4503.461426,4393.077148,4443.205078,4306.000000,3.000000,59.000000,,,,0.000000,4.000000,4.000000,2.000000,4.000000,4.000000,2.000000,4.000000,4.000000,4.000000,4.000000,4.000000,4.000000,4.000000,4.000000,66.666664,,,,,,,,,,,,,,,,,,,,,,,,,,,,,,,,,,,,,,,,,,,,,,,,,,,,,,,,,,,,,,,,,,,,,,,,,,,,,,,,,,,,,,,,,,,,,,,,,,,,,,,,,,,,,,,,,,,,,
1768202628.592523,1768202628.593124,78.000000,0.000000,4357.051270,4343.974121,4327.692383,4360.512695,4352.563965,4362.820313,4342.051270,4346.794922,4329.358887,4333.077148,4486.794922,4513.333496,4397.051270,4445.000000,4256.000000,3.000000,59.000000,,,,0.000000,4.000000,4.000000,2.000000,4.000000,4.000000,2.000000,4.000000,4.000000,4.000000,4.000000,4.000000,4.000000,4.000000,4.000000,66.666664,1.000000,8.333333,4.000000,4.000000,0.000000,1.000000,4.000000,0.000000,4.000000,4.000000,4.000000,4.000000,4.000000,4.000000,4.000000,4.000000,,,,,,,,,,,,,,,,,,,,,,,,,,,,,,,,0.568826,0.591431,0.440747,0.125314,0.159529,0.530135,0.543500,0.184460,0.175959,0.087382,0.067820,0.098711,0.053915,0.045040,0.042914,0.375030,0.208926,0.160745,0.064512,0.063588,0.515519,0.442638,0.212194,0.102646,0.055490,0.016762,0.033453,0.044855,0.042057,0.032836,0.284857,0.298687,0.422043,0.186572,0.290614,0.445229,0.279191,0.631253,0.141735,0.120103,0.298821,0.354897,0.621970,0.154742,0.114189,0.288042,0.548585,0.473168,0.171209,0.127457,0.433208,0.603511,0.683556,0.309847,0.189079,0.334517,0.432645,0.855725,0.224554,0.210416,0.898248,0.857477,0.928880,0.349327,0.234277,0.668081,1.009430,0.670512,0.281687,0.225089
1768202628.600331,1768202628.600932,79.000000,0.000000,4360.000000,4345.897461,4324.871582,4363.461426,4353.461426,4365.512695,4352.820313,4348.077148,4337.692383,4340.897461,4495.256348,4518.077148,4401.410156,4451.410156,4767.000000,3.000000,59.000000,,,,0.000000,4.000000,4.000000,2.000000,4.000000,4.000000,2.000000,4.000000,4.000000,4.000000,4.000000,4.000000,4.000000,4.000000,4.000000,66.666664,,,,,,,,,,,,,,,,,,,,,,,,,,,,,,,,,,,,,,,,,,,,,,,,,,,,,,,,,,,,,,,,,,,,,,,,,,,,,,,,,,,,,,,,,,,,,,,,,,,,,,,,,,,,,,,,,,,,,
1768202628.608140,1768202628.608940,80.000000,0.000000,4357.179688,4343.461426,4323.333496,4358.333496,4348.333496,4364.615234,4346.410156,4341.153809,4333.974121,4340.512695,4490.000000,4511.666504,4399.487305,4448.461426,5228.000000,3.000000,59.000000,,,,0.000000,4.000000,4.000000,2.000000,4.000000,4.000000,2.000000,4.000000,4.000000,4.000000,4.000000,4.000000,4.000000,4.000000,4.000000,66.666664,,,,,,,,,,,,,,,,,,,,,,,,,,,,,,,,,,,,,,,,,,,,,,,,,,,,,,,,,,,,,,,,,,,,,,,,,,,,,,,,,,,,,,,,,,,,,,,,,,,,,,,,,,,,,,,,,,,,,
1768202628.615948,1768202628.616749,81.000000,0.000000,4357.307617,4343.077148,4325.384766,4356.538574,4348.461426,4366.153809,4340.769043,4343.333496,4328.333496,4337.307617,4489.358887,4510.256348,4395.384766,4446.153809,4306.000000,3.000000,59.000000,,,,0.000000,4.000000,4.000000,2.000000,4.000000,4.000000,2.000000,4.000000,4.000000,4.000000,4.000000,4.000000,4.000000,4.000000,4.000000,66.666664,,,,,,,,,,,,,,,,,,,,,,,,,,,,,,,,,,,,,,,,,,,,,,,,,,,,,,,,,,,,,,,,,,,,,,,,,,,,,,,,,,,,,,,,,,,,,,,,,,,,,,,,,,,,,,,,,,,,,
1768202628.623757,1768202628.624657,82.000000,0.000000,4363.974121,4347.436035,4327.948730,4359.615234,4352.307617,4367.436035,4347.820313,4347.563965,4331.282227,4334.102539,4491.153809,4513.077148,4394.615234,4450.769043,4256.000000,3.000000,59.000000,,,,0.000000,4.000000,4.000000,2.000000,4.000000,4.000000,2.000000,4.000000,4.000000,4.000000,4.000000,4.000000,4.000000,4.000000,4.000000,66.666664,,,,,,,,,,,,,,,,,,,,,,,,,,,,,,,,,,,,,,,,,,,,,,,,,,,,,,,,,,,,,,,,,,,,,,,,,,,,,,,,,,,,,,,,,,,,,,,,,,,,,,,,,,,,,,,,,,,,,
1768202628.631565,1768202628.632466,83.000000,0.000000,4367.307617,4350.897461,4325.000000,4361.794922,4352.051270,4364.358887,4347.179688,4342.692383,4331.282227,4329.743652,4486.922852,4509.102539,4395.256348,4448.589844,4767.000000,3.000000,59.000000,,,,0.000000,4.000000,4.000000,2.000000,4.000000,4.000000,2.000000,4.000000,4.000000,4.000000,4.000000,4.000000,4.000000,4.000000,4.000000,66.666664,,,,,,,,,,,,,,,,,,,,,,,,,,,,,,,,,,,,,,,,,,,,,,,,,,,,,,,,,,,,,,,,,,,,,,,,,,,,,,,,,,,,,,,,,,,,,,,,,,,,,,,,,,,,,,,,,,,,,
1768202628.639374,1768202628.640074,84.000000,0.000000,4365.897461,4350.512695,4323.461426,4365.256348,4350.384766,4363.846191,4341.282227,4339.230957,4327.307617,4330.512695,4487.307617,4506.410156,4396.794922,4448.205078,5228.000000,3.000000,59.000000,,,,0.000000,4.000000,4.000000,2.000000,4.000000,4.000000,2.000000,4.000000,4.000000,4.000000,4.000000,4.000000,4.000000,4.000000,4.000000,66.666664,,,,,,,,,,,,,,,,,,,,,,,,,,,,,,,,,,,,,,,,,,,,,,,,,,,,,,,,,,,,,,,,,,,,,,,,,,,,,,,,,,,,,,,,,,,,,,,,,,,,,,,,,,,,,,,,,,,,,
1768202628.647182,1768202628.647883,85.000000,0.000000,4365.256348,4352.179688,4325.128418,4366.666504,4351.922852,4367.948730,4345.641113,4343.077148,4328.846191,4334.487305,4492.051270,4512.436035,4397.179688,4458.205078,4306.000000,3.000000,59.000000,,,,0.000000,4.000000,4.000000,2.000000,4.000000,4.000000,2.000000,4.000000,4.000000,4.000000,4.000000,4.000000,4.000000,4.000000,4.000000,66.666664,,,,,,,,,,,,,,,,,,,,,,,,,,,,,,,,,,,,,,,,,,,,,,,,,,,,,,,,,,,,,,,,,,,,,,,,,,,,,,,,,,,,,,,,,,,,,,,,,,,,,,,,,,,,,,,,,,,,,
1768202628.654991,1768202628.655591,86.000000,0.000000,4364.743652,4356.538574,4325.641113,4364.487305,4355.256348,4369.102539,4355.769043,4349.230957,4333.205078,4335.897461,4494.743652,4519.743652,4396.025879,4461.538574,4256.000000,3.000000,59.000000,,,,0.000000,4.000000,4.000000,2.000000,4.000000,4.000000,2.000000,4.000000,4.000000,4.000000,4.000000,4.000000,4.000000,4.000000,4.000000,66.666664,,,,,,,,,,,,,,,,,,,,,,,,,,,,,,,,,,,,,,,,,,,,,,,,,,,,,,,,,,,,,,,,,,,,,,,,,,,,,,,,,,,,,,,,,,,,,,,,,,,,,,,,,,,,,,,,,,,,,
1768202628.662799,1768202628.663400,87.000000,0.000000,4367.563965,4356.666504,4324.743652,4363.589844,4355.897461,4367.179688,4358.461426,4352.563965,4333.974121,4335.641113,4494.615234,4519.358887,4399.743652,4457.436035,4767.000000,3.000000,59.000000,,,,0.000000,4.000000,4.000000,2.000000,4.000000,4.000000,2.000000,4.000000,4.000000,4.000000,4.000000,4.000000,4.000000,4.000000,4.000000,66.666664,,,,,,,,,,,,,,,,,,,,,,,,,,,,,,,,,,,,,,,,,,,,,,,,,,,,,,,,,,,,,,,,,,,,,,,,,,,,,,,,,,,,,,,,,,,,,,,,,,,,,,,,,,,,,,,,,,,,,
1768202628.670607,1768202628.671008,88.000000,0.000000,4368.717773,4353.205078,4325.384766,4359.871582,4349.743652,4365.769043,4348.077148,4348.205078,4330.384766,4333.461426,4491.282227,4516.282227,4401.922852,4457.307617,5228.000000,3.000000,59.000000,,,,0.000000,4.000000,4.000000,2.000000,4.000000,4.000000,2.000000,4.000000,4.000000,4.000000,4.000000,4.000000,4.000000,4.000000,4.000000,66.666664,,,,,,,,,,,,,,,,,,,,,,,,,,,,,,,,,,,,,,,,,,,,,,,,,,,,,,,,,,,,,,,,,,,,,,,,,,,,,,,,,,,,,,,,,,,,,,,,,,,,,,,,,,,,,,,,,,,,,
1768202628.678416,1768202628.678817,89.000000,0.000000,4362.307617,4350.512695,4326.666504,4356.153809,4344.487305,4365.512695,4339.102539,4342.051270,4326.794922,4326.538574,4489.743652,4515.000000,4400.384766,4454.230957,4306.000000,3.000000,59.000000,,,,0.000000,4.000000,4.000000,2.000000,4.000000,4.000000,2.000000,4.000000,4.000000,4.000000,4.000000,4.000000,4.000000,4.000000,4.000000,66.666664,,,,,,,,,,,,,,,,,,,,,,,,,,,,,,,,,,,,,,,,,,,,,,,,,,,,,,,,,,,,,,,,,,,,,,,,,,,,,,,,,,,,,,,,,,,,,,,,,,,,,,,,,,,,,,,,,,,,,
1768202628.686224,1768202628.686525,90.000000,0.000000,4356.025879,4350.000000,4326.410156,4357.948730,4346.410156,4366.025879,4343.077148,4340.512695,4325.897461,4322.692383,4487.820313,4511.666504,4404.615234,4444.743652,4256.000000,3.000000,59.000000,,,,0.000000,4.000000,4.000000,2.000000,4.000000,4.000000,2.000000,4.000000,4.000000,4.000000,4.000000,4.000000,4.000000,4.000000,4.000000,66.666664,,,,,,,,,,,,,,,,,,,,,,,,,,,,,,,,,,,,,,,,,,,,,,,,,,,,,,,,,,,,,,,,,,,,,,,,,,,,,,,,,,,,,,,,,,,,,,,,,,,,,,,,,,,,,,,,,,,,,
1768202628.694033,1768202628.694334,91.000000,0.000000,4358.205078,4353.205078,4325.384766,4358.589844,4347.563965,4366.538574,4347.051270,4338.974121,4324.102539,4326.666504,4480.641113,4505.897461,4412.307617,4441.153809,4767.000000,3.000000,59.000000,,,,0.000000,4.000000,4.000000,2.000000,4.000000,4.000000,2.000000,4.000000,4.000000,4.000000,4.000000,4.000000,4.000000,4.000000,4.000000,66.666664,,,,,,,,,,,,,,,,,,,,,,,,,,,,,,,,,,,,,,,,,,,,,,,,,,,,,,,,,,,,,,,,,,,,,,,,,,,,,,,,,,,,,,,,,,,,,,,,,,,,,,,,,,,,,,,,,,,,,
1768202628.701841,1768202628.701942,92.000000,0.000000,4363.461426,4355.769043,4325.512695,4357.436035,4342.563965,4366.153809,4341.410156,4335.897461,4321.153809,4327.820313,4481.538574,4503.846191,4415.000000,4449.230957,5228.000000,3.000000,59.000000,,,,0.000000,4.000000,4.000000,2.000000,4.000000,4.000000,2.000000,4.000000,4.000000,4.000000,4.000000,4.000000,4.000000,4.000000,4.000000,66.666664,,,,,,,,,,,,,,,,,,,,,,,,,,,,,,,,,,,,,,,,,,,,,,,,,,,,,,,,,,,,,,,,,,,,,,,,,,,,,,,,,,,,,,,,,,,,,,,,,,,,,,,,,,,,,,,,,,,,,
1768202628.709649,1768202628.709751,93.000000,0.000000,4364.358887,4356.666504,4325.897461,4357.179688,4339.230957,4365.256348,4339.102539,4336.538574,4323.974121,4326.282227,4489.615234,4505.000000,4413.974121,4456.538574,4306.000000,3.000000,59.000000,,,,0.000000,4.000000,4.000000,2.000000,4.000000,4.000000,2.000000,4.000000,4.000000,4.000000,4.000000,4.000000,4.000000,4.000000,4.000000,66.666664,,,,,,,,,,,,,,,,,,,,,,,,,,,,,,,,,,,,,,,,,,,,,,,,,,,,,,,,,,,,,,,,,,,,,,,,,,,,,,,,,,,,,,,,,,,,,,,,,,,,,,,,,,,,,,,,,,,,,
1768202628.717458,1768202628.717659,94.000000,0.000000,4361.025879,4357.307617,4326.794922,4358.205078,4344.102539,4365.769043,4345.128418,4340.128418,4329.358887,4326.538574,4490.128418,4502.820313,4414.871582,4450.512695,4256.000000,3.000000,59.000000,,,,0.000000,4.000000,4.000000,2.000000,4.000000,4.000000,2.000000,4.000000,4.000000,4.000000,4.000000,4.000000,4.000000,4.000000,4.000000,66.666664,,,,,,,,,,,,,,,,,,,,,,,,,,,,,,,,,,,,,,,,,,,,,,,,0.633219,0.561533,0.434511,0.113274,0.141804,0.492306,0.511534,0.170041,0.157383,0.075099,0.068985,0.084167,0.058847,0.044253,0.040093,0.337675,0.188644,0.152093,0.055942,0.057325,0.604444,0.460239,0.199145,0.103750,0.054903,0.015211,0.034235,0.043496,0.037994,0.030775,0.288573,0.375149,0.433574,0.204669,0.297357,0.463283,0.299567,0.636703,0.148399,0.122197,0.314079,0.380050,0.624939,0.154694,0.119549,0.319464,0.551900,0.447425,0.181034,0.128852,0.463699,0.558860,0.705527,0.288659,0.206168,0.368597,0.476393,0.888126,0.208615,0.195578,0.768634,0.673342,0.848867,0.321034,0.233995,0.662607,0.949185,0.670965,0.221325,0.204306
1768202628.725266,1768202628.725468,95.000000,0.000000,4357.051270,4357.948730,4327.692383,4360.641113,4348.077148,4367.820313,4349.871582,4342.307617,4328.333496,4326.282227,4486.410156,4498.333496,4413.974121,4443.333496,4767.000000,3.000000,59.000000,,,,0.000000,4.000000,4.000000,2.000000,4.000000,4.000000,2.000000,4.000000,4.000000,4.000000,4.000000,4.000000,4.000000,4.000000,4.000000,66.666664,,,,,,,,,,,,,,,,,,,,,,,,,,,,,,,,,,,,,,,,,,,,,,,,,,,,,,,,,,,,,,,,,,,,,,,,,,,,,,,,,,,,,,,,,,,,,,,,,,,,,,,,,,,,,,,,,,,,,
1768202628.733075,1768202628.733476,96.000000,0.000000,4357.436035,4359.487305,4326.282227,4361.666504,4346.025879,4368.077148,4350.384766,4342.563965,4326.153809,4325.897461,4485.128418,4498.205078,4412.692383,4446.282227,5228.000000,3.000000,59.000000,,,,0.000000,4.000000,4.000000,2.000000,4.000000,4.000000,2.000000,4.000000,4.000000,4.000000,4.000000,4.000000,4.000000,4.000000,4.000000,66.666664,,,,,,,,,,,,,,,,,,,,,,,,,,,,,,,,,,,,,,,,,,,,,,,,,,,,,,,,,,,,,,,,,,,,,,,,,,,,,,,,,,,,,,,,,,,,,,,,,,,,,,,,,,,,,,,,,,,,,
1768202628.740883,1768202628.741284,97.000000,0.000000,4359.102539,4358.589844,4324.358887,4360.512695,4342.692383,4366.922852,4348.717773,4342.051270,4329.871582,4326.666504,4481.666504,4498.077148,4411.153809,4446.666504,4306.000000,3.000000,59.000000,,,,0.000000,4.000000,4.000000,2.000000,4.000000,4.000000,2.000000,4.000000,4.000000,4.000000,4.000000,4.000000,4.000000,4.000000,4.000000,66.666664,,,,,,,,,,,,,,,,,,,,,,,,,,,,,,,,,,,,,,,,,,,,,,,,,,,,,,,,,,,,,,,,,,,,,,,,,,,,,,,,,,,,,,,,,,,,,,,,,,,,,,,,,,,,,,,,,,,,,
1768202628.748692,1768202628.748993,98.000000,0.000000,4355.000000,4355.384766,4322.820313,4355.000000,4341.410156,4366.025879,4350.128418,4342.307617,4335.128418,4325.128418,4476.410156,4494.230957,4403.333496,4440.769043,4256.000000,3.000000,59.000000,,,,0.000000,4.000000,4.000000,2.000000,4.000000,4.000000,2.000000,4.000000,4.000000,4.000000,4.000000,4.000000,4.000000,4.000000,4.000000,66.666664,,,,,,,,,,,,,,,,,,,,,,,,,,,,,,,,,,,,,,,,,,,,,,,,,,,,,,,,,,,,,,,,,,,,,,,,,,,,,,,,,,,,,,,,,,,,,,,,,,,,,,,,,,,,,,,,,,,,,
1768202628.756500,1768202628.756801,99.000000,0.000000,4352.051270,4356.410156,4322.820313,4352.051270,4343.333496,4364.102539,4352.436035,4342.820313,4336.282227,4324.871582,4479.743652,4493.077148,4401.666504,4440.512695,4767.000000,3.000000,59.000000,,,,0.000000,4.000000,4.000000,2.000000,4.000000,4.000000,2.000000,4.000000,4.000000,4.000000,4.000000,4.000000,4.000000,4.000000,4.000000,66.666664,,,,,,,,,,,,,,,,,,,,,,,,,,,,,,,,,,,,,,,,,,,,,,,,,,,,,,,,,,,,,,,,,,,,,,,,,,,,,,,,,,,,,,,,,,,,,,,,,,,,,,,,,,,,,,,,,,,,,
1768202628.764309,1768202628.764410,100.000000,0.000000,4356.410156,4358.846191,4324.358887,4359.743652,4347.692383,4361.666504,4349.871582,4342.307617,4338.077148,4332.436035,4488.333496,4497.051270,4410.000000,4447.307617,5228.000000,3.000000,59.000000,,,,0.000000,4.000000,4.000000,2.000000,4.000000,4.000000,2.000000,4.000000,4.000000,4.000000,4.000000,4.000000,4.000000,4.000000,4.000000,66.666664,,,,,,,,,,,,,,,,,,,,,,,,,,,,,,,,,,,,,,,,,,,,,,,,,,,,,,,,,,,,,,,,,,,,,,,,,,,,,,,,,,,,,,,,,,,,,,,,,,,,,,,,,,,,,,,,,,,,,
1768202628.772117,1768202628.772219,101.000000,0.000000,4360.512695,4356.410156,4324.487305,4365.000000,4350.512695,4362.692383,4344.743652,4342.692383,4339.487305,4335.897461,4492.948730,4501.282227,4413.461426,4451.410156,4306.000000,3.000000,59.000000,,,,0.000000,4.000000,4.000000,2.000000,4.000000,4.000000,2.000000,4.000000,4.000000,4.000000,4.000000,4.000000,4.000000,4.000000,4.000000,66.666664,,,,,,,,,,,,,,,,,,,,,,,,,,,,,,,,,,,,,,,,,,,,,,,,,,,,,,,,,,,,,,,,,,,,,,,,,,,,,,,,,,,,,,,,,,,,,,,,,,,,,,,,,,,,,,,,,,,,,
1768202628.779925,1768202628.780127,102.000000,0.000000,4357.820313,4357.563965,4323.205078,4357.948730,4351.666504,4365.512695,4341.794922,4341.794922,4339.615234,4333.589844,4491.153809,4502.692383,4415.769043,4446.538574,4256.000000,3.000000,59.000000,,,,0.000000,4.000000,4.000000,2.000000,4.000000,4.000000,2.000000,4.000000,4.000000,4.000000,4.000000,4.000000,4.000000,4.000000,4.000000,66.666664,,,,,,,,,,,,,,,,,,,,,,,,,,,,,,,,,,,,,,,,,,,,,,,,,,,,,,,,,,,,,,,,,,,,,,,,,,,,,,,,,,,,,,,,,,,,,,,,,,,,,,,,,,,,,,,,,,,,,
1768202628.787734,1768202628.787935,103.000000,0.000000,4358.589844,4362.179688,4325.000000,4356.025879,4354.230957,4366.794922,4344.487305,4339.487305,4340.897461,4337.051270,4492.436035,4503.077148,4424.102539,4445.897461,4767.000000,3.000000,59.000000,,,,0.000000,4.000000,4.000000,2.000000,4.000000,4.000000,2.000000,4.000000,4.000000,4.000000,4.000000,4.000000,4.000000,4.000000,4.000000,66.666664,,,,,,,,,,,,,,,,,,,,,,,,,,,,,,,,,,,,,,,,,,,,,,,,,,,,,,,,,,,,,,,,,,,,,,,,,,,,,,,,,,,,,,,,,,,,,,,,,,,,,,,,,,,,,,,,,,,,,
1768202628.795542,1768202628.795944,104.000000,0.000000,4367.051270,4360.000000,4330.000000,4363.589844,4353.333496,4366.538574,4345.256348,4338.717773,4339.358887,4340.256348,4495.256348,4503.205078,4423.974121,4457.307617,5228.000000,3.000000,59.000000,,,,0.000000,4.000000,4.000000,2.000000,4.000000,4.000000,2.000000,4.000000,4.000000,4.000000,4.000000,4.000000,4.000000,4.000000,4.000000,66.666664,,,,,,,,,,,,,,,,,,,,,,,,,,,,,,,,,,,,,,,,,,,,,,,,,,,,,,,,,,,,,,,,,,,,,,,,,,,,,,,,,,,,,,,,,,,,,,,,,,,,,,,,,,,,,,,,,,,,,
1768202628.803351,1768202628.803752,105.000000,0.000000,4372.051270,4361.153809,4329.615234,4366.666504,4351.025879,4365.000000,4341.025879,4339.615234,4336.153809,4338.333496,4491.153809,4504.487305,4415.769043,4460.128418,4306.000000,3.000000,59.000000,,,,0.000000,4.000000,4.000000,2.000000,4.000000,4.000000,2.000000,4.000000,4.000000,4.000000,4.000000,4.000000,4.000000,4.000000,4.000000,66.666664,,,,,,,,,,,,,,,,,,,,,,,,,,,,,,,,,,,,,,,,,,,,,,,,,,,,,,,,,,,,,,,,,,,,,,,,,,,,,,,,,,,,,,,,,,,,,,,,,,,,,,,,,,,,,,,,,,,,,
1768202628.811159,1768202628.811660,106.000000,0.000000,4368.846191,4364.743652,4325.384766,4364.358887,4354.615234,4365.256348,4344.102539,4341.794922,4339.358887,4336.666504,4489.615234,4502.692383,4415.256348,4446.922852,4256.000000,3.000000,59.000000,,,,0.000000,4.000000,4.000000,2.000000,4.000000,4.000000,2.000000,4.000000,4.000000,4.000000,4.000000,4.000000,4.000000,4.000000,4.000000,66.666664,,,,,,,,,,,,,,,,,,,,,,,,,,,,,,,,,,,,,,,,,,,,,,,,,,,,,,,,,,,,,,,,,,,,,,,,,,,,,,,,,,,,,,,,,,,,,,,,,,,,,,,,,,,,,,,,,,,,,
1768202628.818967,1768202628.819469,107.000000,0.000000,4364.102539,4360.769043,4323.589844,4361.153809,4356.922852,4367.307617,4352.820313,4345.641113,4343.461426,4336.025879,4491.794922,4501.666504,4415.000000,4441.794922,4767.000000,3.000000,59.000000,,,,0.000000,4.000000,4.000000,2.000000,4.000000,4.000000,2.000000,4.000000,4.000000,4.000000,4.000000,4.000000,4.000000,4.000000,4.000000,66.666664,,,,,,,,,,,,,,,,,,,,,,,,,,,,,,,,,,,,,,,,,,,,,,,,,,,,,,,,,,,,,,,,,,,,,,,,,,,,,,,,,,,,,,,,,,,,,,,,,,,,,,,,,,,,,,,,,,,,,
1768202628.826776,1768202628.827477,108.000000,0.000000,4365.000000,4360.512695,4325.256348,4358.461426,4354.871582,4367.179688,4350.384766,4345.000000,4339.487305,4337.563965,4491.282227,4508.717773,4410.897461,4451.794922,5228.000000,3.000000,59.000000,,,,0.000000,4.000000,4.000000,2.000000,4.000000,4.000000,2.000000,4.000000,4.000000,4.000000,4.000000,4.000000,4.000000,4.000000,4.000000,66.666664,,,,,,,,,,,,,,,,,,,,,,,,,,,,,,,,,,,,,,,,,,,,,,,,,,,,,,,,,,,,,,,,,,,,,,,,,,,,,,,,,,,,,,,,,,,,,,,,,,,,,,,,,,,,,,,,,,,,,
1768202628.834584,1768202628.835285,109.000000,0.000000,4365.641113,4364.615234,4326.282227,4359.102539,4352.948730,4365.641113,4339.230957,4341.025879,4337.692383,4341.922852,4491.410156,4511.922852,4411.922852,4453.846191,4306.000000,3.000000,59.000000,,,,0.000000,4.000000,4.000000,2.000000,4.000000,4.000000,2.000000,4.000000,4.000000,4.000000,4.000000,4.000000,4.000000,4.000000,4.000000,66.666664,,,,,,,,,,,,,,,,,,,,,,,,,,,,,,,,,,,,,,,,,,,,,,,,,,,,,,,,,,,,,,,,,,,,,,,,,,,,,,,,,,,,,,,,,,,,,,,,,,,,,,,,,,,,,,,,,,,,,
1768202628.842393,1768202628.842994,110.000000,0.000000,4359.358887,4359.743652,4324.743652,4358.205078,4350.897461,4366.025879,4342.436035,4346.282227,4342.051270,4342.563965,4492.307617,4503.846191,4412.179688,4445.000000,4256.000000,3.000000,59.000000,,,,0.000000,4.000000,4.000000,2.000000,4.000000,4.000000,2.000000,4.000000,4.000000,4.000000,4.000000,4.000000,4.000000,4.000000,4.000000,66.666664,,,,,,,,,,,,,,,,,,,,,,,,,,,,,,,,,,,,,,,,,,,,,,,,0.671074,0.499811,0.395781,0.115957,0.123992,0.450596,0.449649,0.153347,0.140005,0.066980,0.077408,0.066812,0.059031,0.044380,0.039767,0.300789,0.165558,0.134481,0.050531,0.052696,0.672164,0.440373,0.178189,0.101670,0.057322,0.017117,0.035559,0.043442,0.033838,0.028168,0.337370,0.450807,0.405383,0.216308,0.301888,0.450786,0.326003,0.589528,0.146555,0.125884,0.320144,0.385657,0.574709,0.144066,0.124209,0.351780,0.503405,0.389185,0.184898,0.126951,0.514983,0.513083,0.643636,0.268266,0.217374,0.414427,0.513039,0.824487,0.187763,0.179531,0.682049,0.511130,0.702878,0.289721,0.227230,0.691988,0.855332,0.600399,0.181341,0.182654
1768202628.850201,1768202628.850802,111.000000,0.000000,4356.410156,4355.256348,4324.230957,4356.922852,4351.153809,4366.282227,4353.717773,4352.179688,4342.307617,4337.692383,4488.974121,4497.563965,4408.333496,4441.538574,4767.000000,3.000000,59.000000,,,,0.000000,4.000000,4.000000,2.000000,4.000000,4.000000,2.000000,4.000000,4.000000,4.000000,4.000000,4.000000,4.000000,4.000000,4.000000,66.666664,,,,,,,,,,,,,,,,,,,,,,,,,,,,,,,,,,,,,,,,,,,,,,,,,,,,,,,,,,,,,,,,,,,,,,,,,,,,,,,,,,,,,,,,,,,,,,,,,,,,,,,,,,,,,,,,,,,,,
1768202628.858010,1768202628.858411,112.000000,0.000000,4359.487305,4358.333496,4324.358887,4357.436035,4356.794922,4364.230957,4349.871582,4348.974121,4340.384766,4336.666504,4489.230957,4499.487305,4410.000000,4445.897461,5228.000000,3.000000,59.000000,,,,0.000000,4.000000,4.000000,2.000000,4.000000,4.000000,2.000000,4.000000,4.000000,4.000000,4.000000,4.000000,4.000000,4.000000,4.000000,66.666664,,,,,,,,,,,,,,,,,,,,,,,,,,,,,,,,,,,,,,,,,,,,,,,,,,,,,,,,,,,,,,,,,,,,,,,,,,,,,,,,,,,,,,,,,,,,,,,,,,,,,,,,,,,,,,,,,,,,,
1768202628.865818,1768202628.866220,113.000000,0.000000,4359.871582,4356.794922,4322.948730,4358.205078,4357.051270,4363.717773,4339.487305,4342.051270,4338.333496,4337.948730,4491.282227,4497.692383,4411.922852,4447.692383,4306.000000,3.000000,59.000000,,,,0.000000,4.000000,4.000000,2.000000,4.000000,4.000000,2.000000,4.000000,4.000000,4.000000,4.000000,4.000000,4.000000,4.000000,4.000000,66.666664,,,,,,,,,,,,,,,,,,,,,,,,,,,,,,,,,,,,,,,,,,,,,,,,,,,,,,,,,,,,,,,,,,,,,,,,,,,,,,,,,,,,,,,,,,,,,,,,,,,,,,,,,,,,,,,,,,,,,
1768202628.873626,1768202628.873928,114.000000,0.000000,4356.025879,4354.615234,4321.666504,4357.948730,4350.000000,4366.025879,4339.487305,4340.128418,4335.769043,4334.358887,4480.000000,4492.820313,4404.358887,4440.512695,4256.000000,3.000000,59.000000,,,,0.000000,4.000000,4.000000,2.000000,4.000000,4.000000,2.000000,4.000000,4.000000,4.000000,4.000000,4.000000,4.000000,4.000000,4.000000,66.666664,,,,,,,,,,,,,,,,,,,,,,,,,,,,,,,,,,,,,,,,,,,,,,,,,,,,,,,,,,,,,,,,,,,,,,,,,,,,,,,,,,,,,,,,,,,,,,,,,,,,,,,,,,,,,,,,,,,,,
1768202628.881435,1768202628.881737,115.000000,0.000000,4357.948730,4357.436035,4323.589844,4358.589844,4347.179688,4366.153809,4343.589844,4345.000000,4337.948730,4331.666504,4477.051270,4495.128418,4401.666504,4435.128418,4767.000000,3.000000,59.000000,,,,0.000000,4.000000,4.000000,2.000000,4.000000,4.000000,2.000000,4.000000,4.000000,4.000000,4.000000,4.000000,4.000000,4.000000,4.000000,66.666664,,,,,,,,,,,,,,,,,,,,,,,,,,,,,,,,,,,,,,,,,,,,,,,,,,,,,,,,,,,,,,,,,,,,,,,,,,,,,,,,,,,,,,,,,,,,,,,,,,,,,,,,,,,,,,,,,,,,,
1768202628.889243,1768202628.889345,116.000000,0.000000,4362.436035,4357.692383,4324.230957,4358.974121,4347.563965,4363.205078,4342.820313,4347.307617,4337.820313,4332.051270,4486.794922,4500.897461,4405.897461,4438.974121,5228.000000,3.000000,59.000000,,,,0.000000,4.000000,4.000000,2.000000,4.000000,4.000000,2.000000,4.000000,4.000000,4.000000,4.000000,4.000000,4.000000,4.000000,4.000000,66.666664,,,,,,,,,,,,,,,,,,,,,,,,,,,,,,,,,,,,,,,,,,,,,,,,,,,,,,,,,,,,,,,,,,,,,,,,,,,,,,,,,,,,,,,,,,,,,,,,,,,,,,,,,,,,,,,,,,,,,
1768202628.897052,1768202628.897154,117.000000,0.000000,4362.051270,4355.000000,4324.871582,4358.205078,4345.897461,4362.563965,4341.025879,4341.538574,4330.897461,4328.846191,4481.153809,4499.230957,4400.384766,4444.487305,4306.000000,3.000000,59.000000,,,,0.000000,4.000000,4.000000,2.000000,4.000000,4.000000,2.000000,4.000000,4.000000,4.000000,4.000000,4.000000,4.000000,4.000000,4.000000,66.666664,,,,,,,,,,,,,,,,,,,,,,,,,,,,,,,,,,,,,,,,,,,,,,,,,,,,,,,,,,,,,,,,,,,,,,,,,,,,,,,,,,,,,,,,,,,,,,,,,,,,,,,,,,,,,,,,,,,,,
1768202628.904860,1768202628.904862,118.000000,0.000000,4361.153809,4354.871582,4326.666504,4359.615234,4346.025879,4363.846191,4342.179688,4342.436035,4333.461426,4327.436035,4475.897461,4497.436035,4398.333496,4442.051270,4256.000000,3.000000,59.000000,,,,0.000000,4.000000,4.000000,2.000000,4.000000,4.000000,2.000000,4.000000,4.000000,4.000000,4.000000,4.000000,4.000000,4.000000,4.000000,66.666664,,,,,,,,,,,,,,,,,,,,,,,,,,,,,,,,,,,,,,,,,,,,,,,,,,,,,,,,,,,,,,,,,,,,,,,,,,,,,,,,,,,,,,,,,,,,,,,,,,,,,,,,,,,,,,,,,,,,,
1768202628.912669,1768202628.912671,119.000000,0.000000,4364.743652,4358.461426,4326.282227,4363.589844,4351.025879,4365.256348,4349.102539,4352.179688,4343.205078,4334.487305,4488.846191,4507.307617,4408.205078,4440.512695,4767.000000,3.000000,59.000000,,,,0.000000,4.000000,4.000000,2.000000,4.000000,4.000000,2.000000,4.000000,4.000000,4.000000,4.000000,4.000000,4.000000,4.000000,4.000000,66.666664,,,,,,,,,,,,,,,,,,,,,,,,,,,,,,,,,,,,,,,,,,,,,,,,,,,,,,,,,,,,,,,,,,,,,,,,,,,,,,,,,,,,,,,,,,,,,,,,,,,,,,,,,,,,,,,,,,,,,
1768202628.920477,1768202628.920679,120.000000,0.000000,4369.102539,4360.256348,4325.384766,4367.307617,4355.256348,4365.769043,4353.974121,4353.077148,4344.102539,4340.000000,4494.871582,4516.666504,4412.692383,4452.436035,5228.000000,3.000000,59.000000,,,,0.000000,4.000000,4.000000,2.000000,4.000000,4.000000,2.000000,4.000000,4.000000,4.000000,4.000000,4.000000,4.000000,4.000000,4.000000,66.666664,,,,,,,,,,,,,,,,,,,,,,,,,,,,,,,,,,,,,,,,,,,,,,,,,,,,,,,,,,,,,,,,,,,,,,,,,,,,,,,,,,,,,,,,,,,,,,,,,,,,,,,,,,,,,,,,,,,,,
1768202628.928285,1768202628.928487,121.000000,0.000000,4365.897461,4358.717773,4324.358887,4365.512695,4353.846191,4364.102539,4346.538574,4350.384766,4342.307617,4341.153809,4489.487305,4516.922852,4410.256348,4459.102539,4306.000000,3.000000,59.000000,,,,0.000000,4.000000,4.000000,2.000000,4.000000,4.000000,2.000000,4.000000,4.000000,4.000000,4.000000,4.000000,4.000000,4.000000,4.000000,66.666664,,,,,,,,,,,,,,,,,,,,,,,,,,,,,,,,,,,,,,,,,,,,,,,,,,,,,,,,,,,,,,,,,,,,,,,,,,,,,,,,,,,,,,,,,,,,,,,,,,,,,,,,,,,,,,,,,,,,,
1768202628.936094,1768202628.936396,122.000000,0.000000,4358.077148,4356.538574,4320.769043,4357.820313,4351.153809,4365.512695,4345.769043,4355.128418,4343.846191,4341.922852,4490.641113,4511.410156,4407.692383,4448.589844,4256.000000,3.000000,59.000000,,,,0.000000,4.000000,4.000000,2.000000,4.000000,4.000000,2.000000,4.000000,4.000000,4.000000,4.000000,4.000000,4.000000,4.000000,4.000000,66.666664,,,,,,,,,,,,,,,,,,,,,,,,,,,,,,,,,,,,,,,,,,,,,,,,,,,,,,,,,,,,,,,,,,,,,,,,,,,,,,,,,,,,,,,,,,,,,,,,,,,,,,,,,,,,,,,,,,,,,
1768202628.943902,1768202628.944204,123.000000,0.000000,4361.922852,4356.025879,4320.769043,4356.794922,4350.512695,4366.538574,4355.641113,4359.230957,4345.769043,4340.128418,4492.307617,4511.153809,4404.743652,4445.000000,4767.000000,3.000000,59.000000,,,,0.000000,4.000000,4.000000,2.000000,4.000000,4.000000,2.000000,4.000000,4.000000,4.000000,4.000000,4.000000,4.000000,4.000000,4.000000,66.666664,,,,,,,,,,,,,,,,,,,,,,,,,,,,,,,,,,,,,,,,,,,,,,,,,,,,,,,,,,,,,,,,,,,,,,,,,,,,,,,,,,,,,,,,,,,,,,,,,,,,,,,,,,,,,,,,,,,,,
1768202628.951711,1768202628.951813,124.000000,0.000000,4371.282227,4357.179688,4326.538574,4361.794922,4351.282227,4364.230957,4352.436035,4357.692383,4346.922852,4341.282227,4494.743652,4518.077148,4408.589844,4457.436035,5228.000000,3.000000,59.000000,,,,0.000000,4.000000,4.000000,2.000000,4.000000,4.000000,2.000000,4.000000,4.000000,4.000000,4.000000,4.000000,4.000000,4.000000,4.000000,66.666664,,,,,,,,,,,,,,,,,,,,,,,,,,,,,,,,,,,,,,,,,,,,,,,,,,,,,,,,,,,,,,,,,,,,,,,,,,,,,,,,,,,,,,,,,,,,,,,,,,,,,,,,,,,,,,,,,,,,,
1768202628.959519,1768202628.959621,125.000000,0.000000,4367.948730,4355.384766,4326.794922,4360.384766,4350.128418,4364.358887,4342.051270,4351.666504,4343.077148,4344.358887,4496.282227,4520.128418,4413.589844,4463.974121,4306.000000,3.000000,59.000000,,,,0.000000,4.000000,4.000000,2.000000,4.000000,4.000000,2.000000,4.000000,4.000000,4.000000,4.000000,4.000000,4.000000,4.000000,4.000000,66.666664,,,,,,,,,,,,,,,,,,,,,,,,,,,,,,,,,,,,,,,,,,,,,,,,,,,,,,,,,,,,,,,,,,,,,,,,,,,,,,,,,,,,,,,,,,,,,,,,,,,,,,,,,,,,,,,,,,,,,
1768202628.967327,1768202628.967330,126.000000,0.000000,4357.820313,4351.666504,4323.589844,4355.769043,4351.025879,4365.256348,4345.256348,4350.256348,4339.871582,4341.153809,4490.769043,4514.358887,4405.128418,4456.025879,4256.000000,3.000000,59.000000,,,,0.000000,4.000000,4.000000,2.000000,4.000000,4.000000,2.000000,4.000000,4.000000,4.000000,4.000000,4.000000,4.000000,4.000000,4.000000,66.666664,,,,,,,,,,,,,,,,,,,,,,,,,,,,,,,,,,,,,,,,,,,,,,,,0.674661,0.418558,0.329186,0.125532,0.107830,0.429651,0.381145,0.135801,0.126259,0.064306,0.087871,0.049023,0.053161,0.044319,0.041041,0.269255,0.140795,0.113357,0.048718,0.051489,0.699472,0.385923,0.149212,0.097872,0.062650,0.023545,0.037293,0.043494,0.030287,0.026044,0.425166,0.504708,0.343083,0.217582,0.304804,0.403750,0.348268,0.504897,0.137935,0.130821,0.317151,0.369415,0.488368,0.127135,0.127827,0.381385,0.420071,0.320956,0.184398,0.121663,0.561051,0.475669,0.520382,0.247288,0.220022,0.448111,0.525867,0.687724,0.163159,0.166402,0.630427,0.396180,0.525418,0.262273,0.213809,0.717152,0.741801,0.476126,0.166888,0.163868
1768202628.975136,1768202628.975138,127.000000,0.000000,4358.205078,4354.615234,4326.025879,4358.717773,4355.128418,4363.974121,4352.820313,4355.128418,4343.461426,4336.153809,4489.358887,4511.794922,4397.307617,4448.333496,59.000000,3.000000,59.000000,,,,0.000000,4.000000,4.000000,2.000000,4.000000,4.000000,2.000000,4.000000,4.000000,4.000000,4.000000,4.000000,4.000000,4.000000,4.000000,66.666664,,,,,,,,,,,,,,,,,,,,,,,,,,,,,,,,,,,,,,,,,,,,,,,,,,,,,,,,,,,,,,,,,,,,,,,,,,,,,,,,,,,,,,,,,,,,,,,,,,,,,,,,,,,,,,,,,,,,,
1768202628.982944,1768202628.983146,0.000000,0.000000,4361.538574,4357.948730,4326.153809,4360.256348,4357.051270,4364.743652,4354.487305,4357.307617,4343.717773,4336.922852,4493.077148,4515.128418,4400.384766,4443.077148,1028.000000,3.000000,59.000000,,,,0.000000,4.000000,4.000000,2.000000,4.000000,4.000000,2.000000,4.000000,4.000000,4.000000,4.000000,4.000000,4.000000,4.000000,4.000000,66.666664,,,,,,,,,,,,,,,,,,,,,,,,,,,,,,,,,,,,,,,,,,,,,,,,,,,,,,,,,,,,,,,,,,,,,,,,,,,,,,,,,,,,,,,,,,,,,,,,,,,,,,,,,,,,,,,,,,,,,
1768202628.990753,1768202628.990955,1.000000,0.000000,4360.897461,4356.410156,4323.589844,4357.563965,4355.256348,4367.051270,4352.820313,4353.461426,4341.025879,4334.615234,4491.025879,4509.102539,4401.410156,4441.922852,2803.000000,3.000000,59.000000,,,,0.000000,4.000000,4.000000,2.000000,4.000000,4.000000,2.000000,4.000000,4.000000,4.000000,4.000000,4.000000,4.000000,4.000000,4.000000,66.666664,,,,,,,,,,,,,,,,,,,,,,,,,,,,,,,,,,,,,,,,,,,,,,,,,,,,,,,,,,,,,,,,,,,,,,,,,,,,,,,,,,,,,,,,,,,,,,,,,,,,,,,,,,,,,,,,,,,,,
1768202628.998561,1768202628.998863,2.000000,0.000000,4363.717773,4356.794922,4325.512695,4357.563965,4353.077148,4367.948730,4351.538574,4349.615234,4341.410156,4329.487305,4487.820313,4502.692383,4398.205078,4451.025879,3765.000000,3.000000,59.000000,,,,0.000000,4.000000,4.000000,2.000000,4.000000,4.000000,2.000000,4.000000,4.000000,4.000000,4.000000,4.000000,4.000000,4.000000,4.000000,66.666664,,,,,,,,,,,,,,,,,,,,,,,,,,,,,,,,,,,,,,,,,,,,,,,,,,,,,,,,,,,,,,,,,,,,,,,,,,,,,,,,,,,,,,,,,,,,,,,,,,,,,,,,,,,,,,,,,,,,,
1768202629.006370,1768202629.006672,3.000000,0.000000,4366.794922,4357.820313,4327.051270,4358.589844,4354.615234,4367.948730,4357.436035,4351.153809,4341.666504,4332.563965,4490.000000,4508.205078,4399.743652,4456.410156,3745.000000,3.000000,59.000000,,,,0.000000,4.000000,4.000000,2.000000,4.000000,4.000000,2.000000,4.000000,4.000000,4.000000,4.000000,4.000000,4.000000,4.000000,4.000000,66.666664,,,,,,,,,,,,,,,,,,,,,,,,,,,,,,,,,,,,,,,,,,,,,,,,,,,,,,,,,,,,,,,,,,,,,,,,,,,,,,,,,,,,,,,,,,,,,,,,,,,,,,,,,,,,,,,,,,,,,
1768202629.014178,1768202629.014680,4.000000,0.000000,4363.846191,4354.487305,4327.179688,4359.358887,4355.384766,4367.948730,4362.948730,4355.512695,4340.641113,4335.000000,4486.025879,4509.615234,4396.922852,4449.487305,3742.000000,3.000000,59.000000,,,,0.000000,4.000000,4.000000,2.000000,4.000000,4.000000,2.000000,4.000000,4.000000,4.000000,4.000000,4.000000,4.000000,4.000000,4.000000,66.666664,,,,,,,,,,,,,,,,,,,,,,,,,,,,,,,,,,,,,,,,,,,,,,,,,,,,,,,,,,,,,,,,,,,,,,,,,,,,,,,,,,,,,,,,,,,,,,,,,,,,,,,,,,,,,,,,,,,,,
1768202629.021987,1768202629.022488,5.000000,0.000000,4361.538574,4355.512695,4329.487305,4360.256348,4354.615234,4367.948730,4355.641113,4353.589844,4340.641113,4327.820313,4475.128418,4501.282227,4387.051270,4440.897461,804.000000,3.000000,59.000000,,,,0.000000,4.000000,4.000000,2.000000,4.000000,4.000000,2.000000,4.000000,4.000000,4.000000,4.000000,4.000000,4.000000,4.000000,4.000000,66.666664,,,,,,,,,,,,,,,,,,,,,,,,,,,,,,,,,,,,,,,,,,,,,,,,,,,,,,,,,,,,,,,,,,,,,,,,,,,,,,,,,,,,,,,,,,,,,,,,,,,,,,,,,,,,,,,,,,,,,
1768202629.029795,1768202629.030397,6.000000,0.000000,4361.538574,4359.102539,4327.692383,4359.358887,4351.153809,4367.051270,4347.563965,4344.615234,4335.256348,4324.102539,4473.717773,4498.974121,4387.436035,4442.436035,3969.000000,3.000000,59.000000,,,,0.000000,4.000000,4.000000,2.000000,4.000000,4.000000,2.000000,4.000000,4.000000,4.000000,4.000000,4.000000,4.000000,4.000000,4.000000,66.666664,,,,,,,,,,,,,,,,,,,,,,,,,,,,,,,,,,,,,,,,,,,,,,,,,,,,,,,,,,,,,,,,,,,,,,,,,,,,,,,,,,,,,,,,,,,,,,,,,,,,,,,,,,,,,,,,,,,,,
1768202629.037604,1768202629.038205,7.000000,0.000000,4361.538574,4353.717773,4324.743652,4358.205078,4348.205078,4366.153809,4351.794922,4344.871582,4331.282227,4327.948730,4478.461426,4506.282227,4394.102539,4448.333496,4116.000000,3.000000,59.000000,,,,0.000000,4.000000,4.000000,2.000000,4.000000,4.000000,2.000000,4.000000,4.000000,4.000000,4.000000,4.000000,4.000000,4.000000,4.000000,66.666664,,,,,,,,,,,,,,,,,,,,,,,,,,,,,,,,,,,,,,,,,,,,,,,,,,,,,,,,,,,,,,,,,,,,,,,,,,,,,,,,,,,,,,,,,,,,,,,,,,,,,,,,,,,,,,,,,,,,,
1768202629.045412,1768202629.045814,8.000000,0.000000,4357.563965,4343.461426,4327.307617,4356.794922,4347.692383,4367.692383,4352.307617,4350.128418,4335.128418,4328.333496,4476.666504,4503.974121,4390.256348,4447.051270,4084.000000,3.000000,59.000000,,,,0.000000,4.000000,4.000000,2.000000,4.000000,4.000000,2.000000,4.000000,4.000000,4.000000,4.000000,4.000000,4.000000,4.000000,4.000000,66.666664,,,,,,,,,,,,,,,,,,,,,,,,,,,,,,,,,,,,,,,,,,,,,,,,,,,,,,,,,,,,,,,,,,,,,,,,,,,,,,,,,,,,,,,,,,,,,,,,,,,,,,,,,,,,,,,,,,,,,
1768202629.053220,1768202629.053622,9.000000,0.000000,4355.384766,4341.282227,4328.846191,4355.384766,4345.512695,4367.820313,4346.666504,4346.666504,4334.871582,4326.922852,4474.871582,4498.333496,4382.692383,4438.974121,4111.000000,3.000000,59.000000,,,,0.000000,4.000000,4.000000,2.000000,4.000000,4.000000,2.000000,4.000000,4.000000,4.000000,4.000000,4.000000,4.000000,4.000000,4.000000,66.666664,,,,,,,,,,,,,,,,,,,,,,,,,,,,,,,,,,,,,,,,,,,,,,,,,,,,,,,,,,,,,,,,,,,,,,,,,,,,,,,,,,,,,,,,,,,,,,,,,,,,,,,,,,,,,,,,,,,,,
1768202629.061029,1768202629.061331,10.000000,0.000000,4356.282227,4348.077148,4326.025879,4356.794922,4345.000000,4366.538574,4349.487305,4340.512695,4328.205078,4324.487305,4475.128418,4499.358887,4381.282227,4434.615234,4251.000000,3.000000,59.000000,,,,0.000000,4.000000,4.000000,2.000000,4.000000,4.000000,2.000000,4.000000,4.000000,4.000000,4.000000,4.000000,4.000000,4.000000,4.000000,66.666664,,,,,,,,,,,,,,,,,,,,,,,,,,,,,,,,,,,,,,,,,,,,,,,,,,,,,,,,,,,,,,,,,,,,,,,,,,,,,,,,,,,,,,,,,,,,,,,,,,,,,,,,,,,,,,,,,,,,,
1768202629.068837,1768202629.069139,11.000000,0.000000,4357.179688,4351.282227,4323.846191,4358.333496,4348.717773,4365.256348,4354.615234,4338.717773,4325.128418,4322.436035,4472.563965,4500.000000,4381.025879,4440.256348,4767.000000,3.000000,59.000000,,,,0.000000,4.000000,4.000000,2.000000,4.000000,4.000000,2.000000,4.000000,4.000000,4.000000,4.000000,4.000000,4.000000,4.000000,4.000000,66.666664,,,,,,,,,,,,,,,,,,,,,,,,,,,,,,,,,,,,,,,,,,,,,,,,,,,,,,,,,,,,,,,,,,,,,,,,,,,,,,,,,,,,,,,,,,,,,,,,,,,,,,,,,,,,,,,,,,,,,
1768202629.076645,1768202629.077148,12.000000,0.000000,4357.436035,4349.230957,4324.358887,4357.051270,4351.153809,4366.794922,4356.794922,4344.358887,4328.589844,4326.794922,4475.128418,4502.436035,4382.820313,4444.743652,5227.000000,3.000000,59.000000,,,,0.000000,4.000000,4.000000,2.000000,4.000000,4.000000,2.000000,4.000000,4.000000,4.000000,4.000000,4.000000,4.000000,4.000000,4.000000,66.666664,,,,,,,,,,,,,,,,,,,,,,,,,,,,,,,,,,,,,,,,,,,,,,,,,,,,,,,,,,,,,,,,,,,,,,,,,,,,,,,,,,,,,,,,,,,,,,,,,,,,,,,,,,,,,,,,,,,,,
1768202629.084454,1768202629.084956,13.000000,0.000000,4358.077148,4350.000000,4324.871582,4357.563965,4350.128418,4368.333496,4359.230957,4350.000000,4332.692383,4328.333496,4478.589844,4503.589844,4386.025879,4443.717773,4308.000000,3.000000,59.000000,,,,0.000000,4.000000,4.000000,2.000000,4.000000,4.000000,2.000000,4.000000,4.000000,4.000000,4.000000,4.000000,4.000000,4.000000,4.000000,66.666664,,,,,,,,,,,,,,,,,,,,,,,,,,,,,,,,,,,,,,,,,,,,,,,,,,,,,,,,,,,,,,,,,,,,,,,,,,,,,,,,,,,,,,,,,,,,,,,,,,,,,,,,,,,,,,,,,,,,,
1768202629.092262,1768202629.092864,14.000000,0.000000,4358.717773,4347.436035,4323.461426,4359.871582,4348.205078,4367.692383,4354.871582,4346.666504,4331.282227,4324.871582,4474.871582,4496.666504,4382.820313,4435.769043,4251.000000,3.000000,59.000000,,,,0.000000,4.000000,4.000000,2.000000,4.000000,4.000000,2.000000,4.000000,4.000000,4.000000,4.000000,4.000000,4.000000,4.000000,4.000000,66.666664,1.000000,8.333333,4.000000,4.000000,0.000000,1.000000,4.000000,0.000000,4.000000,4.000000,4.000000,4.000000,4.000000,4.000000,4.000000,4.000000,,,,,,,,,,,,,,,,,,,,,,,,,,,,,,,,0.641655,0.344195,0.247657,0.134375,0.094497,0.434801,0.330577,0.120557,0.118585,0.065915,0.096571,0.034547,0.042089,0.042987,0.042374,0.240483,0.120786,0.095802,0.050409,0.054356,0.675475,0.313898,0.117775,0.094675,0.069472,0.033872,0.038580,0.042395,0.027528,0.024951,0.533008,0.525952,0.268532,0.208315,0.306363,0.346567,0.364926,0.417470,0.127027,0.135066,0.328679,0.342458,0.404012,0.111304,0.129821,0.407579,0.330230,0.271623,0.184558,0.114318,0.584130,0.452655,0.386936,0.230512,0.214604,0.471964,0.516969,0.528621,0.140449,0.157295,0.594651,0.335148,0.362946,0.245173,0.195799,0.707244,0.628677,0.339259,0.178830,0.151349
1768202629.100071,1768202629.100673,15.000000,0.000000,4357.179688,4345.000000,4324.487305,4358.846191,4346.410156,4367.307617,4346.666504,4343.461426,4329.102539,4326.025879,4473.717773,4491.538574,4380.256348,4429.358887,4767.000000,3.000000,59.000000,,,,0.000000,4.000000,4.000000,2.000000,4.000000,4.000000,2.000000,4.000000,4.000000,4.000000,4.000000,4.000000,4.000000,4.000000,4.000000,66.666664,,,,,,,,,,,,,,,,,,,,,,,,,,,,,,,,,,,,,,,,,,,,,,,,,,,,,,,,,,,,,,,,,,,,,,,,,,,,,,,,,,,,,,,,,,,,,,,,,,,,,,,,,,,,,,,,,,,,,
1768202629.107879,1768202629.108681,16.000000,0.000000,4356.922852,4348.974121,4323.974121,4356.666504,4345.769043,4366.538574,4353.205078,4348.589844,4332.820313,4328.846191,4477.692383,4495.641113,4385.512695,4436.922852,0.000000,3.000000,59.000000,,,,0.000000,4.000000,4.000000,2.000000,4.000000,4.000000,2.000000,4.000000,4.000000,4.000000,4.000000,4.000000,4.000000,4.000000,4.000000,66.666664,,,,,,,,,,,,,,,,,,,,,,,,,,,,,,,,,,,,,,,,,,,,,,,,,,,,,,,,,,,,,,,,,,,,,,,,,,,,,,,,,,,,,,,,,,,,,,,,,,,,,,,,,,,,,,,,,,,,,
1768202629.115688,1768202629.116489,17.000000,0.000000,4356.922852,4348.846191,4321.666504,4356.922852,4345.256348,4365.128418,4358.974121,4350.128418,4336.794922,4326.538574,4476.538574,4496.922852,4386.794922,4442.051270,0.000000,3.000000,59.000000,,,,0.000000,4.000000,4.000000,2.000000,4.000000,4.000000,2.000000,4.000000,4.000000,4.000000,4.000000,4.000000,4.000000,4.000000,4.000000,66.666664,,,,,,,,,,,,,,,,,,,,,,,,,,,,,,,,,,,,,,,,,,,,,,,,,,,,,,,,,,,,,,,,,,,,,,,,,,,,,,,,,,,,,,,,,,,,,,,,,,,,,,,,,,,,,,,,,,,,,
1768202629.123496,1768202629.124398,18.000000,0.000000,4354.230957,4342.307617,4323.461426,4355.256348,4340.128418,4364.230957,4347.051270,4345.641113,4336.410156,4328.333496,4477.179688,4493.205078,4385.384766,4432.563965,0.000000,3.000000,59.000000,,,,0.000000,4.000000,4.000000,2.000000,4.000000,4.000000,2.000000,4.000000,4.000000,4.000000,4.000000,4.000000,4.000000,4.000000,4.000000,66.666664,,,,,,,,,,,,,,,,,,,,,,,,,,,,,,,,,,,,,,,,,,,,,,,,,,,,,,,,,,,,,,,,,,,,,,,,,,,,,,,,,,,,,,,,,,,,,,,,,,,,,,,,,,,,,,,,,,,,,
1768202629.131305,1768202629.132206,19.000000,0.000000,4354.102539,4341.153809,4323.077148,4352.692383,4338.717773,4364.358887,4337.179688,4345.000000,4337.692383,4332.948730,4481.025879,4495.512695,4391.025879,4430.512695,0.000000,3.000000,59.000000,,,,0.000000,4.000000,4.000000,2.000000,4.000000,4.000000,2.000000,4.000000,4.000000,4.000000,4.000000,4.000000,4.000000,4.000000,4.000000,66.666664,,,,,,,,,,,,,,,,,,,,,,,,,,,,,,,,,,,,,,,,,,,,,,,,,,,,,,,,,,,,,,,,,,,,,,,,,,,,,,,,,,,,,,,,,,,,,,,,,,,,,,,,,,,,,,,,,,,,,
1768202629.139113,1768202629.140214,20.000000,0.000000,4356.410156,4343.333496,4320.000000,4353.589844,4342.179688,4364.743652,4339.743652,4344.615234,4336.922852,4329.230957,4482.692383,4498.205078,4393.717773,4440.128418,0.000000,3.000000,59.000000,,,,0.000000,4.000000,4.000000,2.000000,4.000000,4.000000,2.000000,4.000000,4.000000,4.000000,4.000000,4.000000,4.000000,4.000000,4.000000,66.666664,,,,,,,,,,,,,,,,,,,,,,,,,,,,,,,,,,,,,,,,,,,,,,,,,,,,,,,,,,,,,,,,,,,,,,,,,,,,,,,,,,,,,,,,,,,,,,,,,,,,,,,,,,,,,,,,,,,,,
1768202629.146922,1768202629.148023,21.000000,0.000000,4356.794922,4341.410156,4322.307617,4355.000000,4344.230957,4365.256348,4350.000000,4347.563965,4333.589844,4325.769043,4482.948730,4496.794922,4390.256348,4442.436035,0.000000,3.000000,59.000000,,,,0.000000,4.000000,4.000000,2.000000,4.000000,4.000000,2.000000,4.000000,4.000000,4.000000,4.000000,4.000000,4.000000,4.000000,4.000000,66.666664,,,,,,,,,,,,,,,,,,,,,,,,,,,,,,,,,,,,,,,,,,,,,,,,,,,,,,,,,,,,,,,,,,,,,,,,,,,,,,,,,,,,,,,,,,,,,,,,,,,,,,,,,,,,,,,,,,,,,
1768202629.154730,1768202629.155731,22.000000,0.000000,4355.641113,4341.538574,4327.436035,4356.153809,4345.512695,4366.922852,4356.538574,4355.897461,4335.384766,4328.461426,4480.512695,4498.846191,4386.153809,4441.666504,0.000000,3.000000,59.000000,,,,0.000000,4.000000,4.000000,2.000000,4.000000,4.000000,2.000000,4.000000,4.000000,4.000000,4.000000,4.000000,4.000000,4.000000,4.000000,66.666664,,,,,,,,,,,,,,,,,,,,,,,,,,,,,,,,,,,,,,,,,,,,,,,,,,,,,,,,,,,,,,,,,,,,,,,,,,,,,,,,,,,,,,,,,,,,,,,,,,,,,,,,,,,,,,,,,,,,,
1768202629.162538,1768202629.163540,23.000000,0.000000,4357.563965,4347.436035,4327.051270,4357.692383,4348.333496,4367.307617,4357.948730,4357.179688,4334.487305,4327.563965,4479.487305,4505.128418,4383.333496,4442.179688,0.000000,3.000000,59.000000,,,,0.000000,4.000000,4.000000,2.000000,4.000000,4.000000,2.000000,4.000000,4.000000,4.000000,4.000000,4.000000,4.000000,4.000000,4.000000,66.666664,,,,,,,,,,,,,,,,,,,,,,,,,,,,,,,,,,,,,,,,,,,,,,,,,,,,,,,,,,,,,,,,,,,,,,,,,,,,,,,,,,,,,,,,,,,,,,,,,,,,,,,,,,,,,,,,,,,,,
1768202629.170347,1768202629.171149,24.000000,0.000000,4360.128418,4350.641113,4326.153809,4359.615234,4348.077148,4367.692383,4356.282227,4352.948730,4328.461426,4324.230957,4478.974121,4505.000000,4383.717773,4442.436035,0.000000,3.000000,59.000000,,,,0.000000,4.000000,4.000000,2.000000,4.000000,4.000000,2.000000,4.000000,4.000000,4.000000,4.000000,4.000000,4.000000,4.000000,4.000000,66.666664,,,,,,,,,,,,,,,,,,,,,,,,,,,,,,,,,,,,,,,,,,,,,,,,,,,,,,,,,,,,,,,,,,,,,,,,,,,,,,,,,,,,,,,,,,,,,,,,,,,,,,,,,,,,,,,,,,,,,
1768202629.178155,1768202629.178957,25.000000,0.000000,4357.820313,4346.282227,4328.333496,4359.358887,4343.333496,4367.692383,4350.641113,4349.487305,4326.666504,4324.871582,4475.384766,4500.641113,4383.333496,4442.692383,0.000000,3.000000,59.000000,,,,0.000000,4.000000,4.000000,2.000000,4.000000,4.000000,2.000000,4.000000,4.000000,4.000000,4.000000,4.000000,4.000000,4.000000,4.000000,66.666664,,,,,,,,,,,,,,,,,,,,,,,,,,,,,,,,,,,,,,,,,,,,,,,,,,,,,,,,,,,,,,,,,,,,,,,,,,,,,,,,,,,,,,,,,,,,,,,,,,,,,,,,,,,,,,,,,,,,,
1768202629.185964,1768202629.186865,26.000000,0.000000,4356.666504,4341.538574,4329.230957,4359.743652,4343.717773,4366.282227,4353.974121,4350.512695,4330.512695,4325.512695,4478.333496,4503.717773,4382.820313,4442.563965,0.000000,3.000000,59.000000,,,,0.000000,4.000000,4.000000,2.000000,4.000000,4.000000,2.000000,4.000000,4.000000,4.000000,4.000000,4.000000,4.000000,4.000000,4.000000,66.666664,,,,,,,,,,,,,,,,,,,,,,,,,,,,,,,,,,,,,,,,,,,,,,,,,,,,,,,,,,,,,,,,,,,,,,,,,,,,,,,,,,,,,,,,,,,,,,,,,,,,,,,,,,,,,,,,,,,,,
1768202629.193772,1768202629.194674,27.000000,0.000000,4359.230957,4341.538574,4328.205078,4362.179688,4349.871582,4367.179688,4362.692383,4354.230957,4334.487305,4326.025879,4485.384766,4508.846191,4386.282227,4444.487305,0.000000,3.000000,59.000000,,,,0.000000,4.000000,4.000000,2.000000,4.000000,4.000000,2.000000,4.000000,4.000000,4.000000,4.000000,4.000000,4.000000,4.000000,4.000000,66.666664,,,,,,,,,,,,,,,,,,,,,,,,,,,,,,,,,,,,,,,,,,,,,,,,,,,,,,,,,,,,,,,,,,,,,,,,,,,,,,,,,,,,,,,,,,,,,,,,,,,,,,,,,,,,,,,,,,,,,
1768202629.201580,1768202629.202682,28.000000,0.000000,4359.358887,4340.769043,4326.410156,4360.000000,4352.307617,4368.461426,4362.692383,4356.794922,4335.512695,4327.948730,4484.358887,4504.615234,4387.436035,4444.871582,0.000000,3.000000,59.000000,,,,0.000000,4.000000,4.000000,2.000000,4.000000,4.000000,2.000000,4.000000,4.000000,4.000000,4.000000,4.000000,4.000000,4.000000,4.000000,66.666664,,,,,,,,,,,,,,,,,,,,,,,,,,,,,,,,,,,,,,,,,,,,,,,,,,,,,,,,,,,,,,,,,,,,,,,,,,,,,,,,,,,,,,,,,,,,,,,,,,,,,,,,,,,,,,,,,,,,,
1768202629.209389,1768202629.210491,29.000000,0.000000,4356.282227,4338.846191,4325.256348,4356.153809,4348.077148,4366.025879,4355.384766,4354.871582,4336.666504,4327.948730,4475.897461,4497.820313,4381.153809,4440.769043,0.000000,3.000000,59.000000,,,,0.000000,4.000000,4.000000,2.000000,4.000000,4.000000,2.000000,4.000000,4.000000,4.000000,4.000000,4.000000,4.000000,4.000000,4.000000,66.666664,,,,,,,,,,,,,,,,,,,,,,,,,,,,,,,,,,,,,,,,,,,,,,,,,,,,,,,,,,,,,,,,,,,,,,,,,,,,,,,,,,,,,,,,,,,,,,,,,,,,,,,,,,,,,,,,,,,,,
1768202629.217197,1768202629.218199,30.000000,0.000000,4355.384766,4340.512695,4324.487305,4356.153809,4343.461426,4363.589844,4353.589844,4352.307617,4335.256348,4326.794922,4476.025879,4498.974121,4384.102539,4440.000000,0.000000,3.000000,59.000000,,,,0.000000,4.000000,4.000000,2.000000,4.000000,4.000000,2.000000,4.000000,4.000000,4.000000,4.000000,4.000000,4.000000,4.000000,4.000000,66.666664,,,,,,,,,,,,,,,,,,,,,,,,,,,,,,,,,,,,,,,,,,,,,,,,0.587750,0.303042,0.169927,0.138345,0.084726,0.458265,0.310742,0.110895,0.117831,0.069389,0.099363,0.026783,0.028972,0.040360,0.042357,0.212628,0.111498,0.086615,0.054927,0.060744,0.620075,0.245114,0.092840,0.094056,0.075120,0.045560,0.038650,0.039602,0.025534,0.024662,0.624015,0.515541,0.206750,0.191179,0.304572,0.290114,0.377501,0.357845,0.117627,0.136315,0.370284,0.319782,0.354735,0.102252,0.129225,0.441261,0.259812,0.259288,0.189373,0.106467,0.584596,0.438426,0.293368,0.224027,0.204336,0.507338,0.495740,0.397384,0.126728,0.150856,0.578291,0.317156,0.256354,0.238783,0.176599,0.672391,0.532755,0.233128,0.210308,0.148091
1768202629.225006,1768202629.226008,31.000000,0.000000,4358.846191,4343.205078,4326.922852,4359.102539,4341.282227,4366.025879,4357.436035,4352.307617,4329.743652,4326.282227,4484.487305,4504.230957,4393.077148,4444.358887,0.000000,3.000000,59.000000,,,,0.000000,4.000000,4.000000,2.000000,4.000000,4.000000,2.000000,4.000000,4.000000,4.000000,4.000000,4.000000,4.000000,4.000000,4.000000,66.666664,,,,,,,,,,,,,,,,,,,,,,,,,,,,,,,,,,,,,,,,,,,,,,,,,,,,,,,,,,,,,,,,,,,,,,,,,,,,,,,,,,,,,,,,,,,,,,,,,,,,,,,,,,,,,,,,,,,,,
1768202629.232814,1768202629.234016,32.000000,0.000000,4356.666504,4342.051270,4329.230957,4359.871582,4341.153809,4367.820313,4355.256348,4347.179688,4325.769043,4326.410156,4485.384766,4503.461426,4390.512695,4442.820313,0.000000,3.000000,59.000000,,,,0.000000,4.000000,4.000000,2.000000,4.000000,4.000000,2.000000,4.000000,4.000000,4.000000,4.000000,4.000000,4.000000,4.000000,4.000000,66.666664,,,,,,,,,,,,,,,,,,,,,,,,,,,,,,,,,,,,,,,,,,,,,,,,,,,,,,,,,,,,,,,,,,,,,,,,,,,,,,,,,,,,,,,,,,,,,,,,,,,,,,,,,,,,,,,,,,,,,
1768202629.240623,1768202629.241824,33.000000,0.000000,4346.922852,4337.563965,4325.128418,4356.666504,4339.358887,4365.512695,4346.282227,4342.051270,4326.282227,4327.307617,4475.641113,4495.769043,4384.487305,4436.282227,0.000000,3.000000,59.000000,,,,0.000000,4.000000,4.000000,2.000000,4.000000,4.000000,2.000000,4.000000,4.000000,4.000000,4.000000,4.000000,4.000000,4.000000,4.000000,66.666664,,,,,,,,,,,,,,,,,,,,,,,,,,,,,,,,,,,,,,,,,,,,,,,,,,,,,,,,,,,,,,,,,,,,,,,,,,,,,,,,,,,,,,,,,,,,,,,,,,,,,,,,,,,,,,,,,,,,,
1768202629.248431,1768202629.249533,34.000000,0.000000,4345.384766,4337.307617,4322.307617,4355.769043,4338.461426,4365.128418,4344.358887,4345.769043,4330.384766,4327.436035,4475.384766,4495.128418,4386.025879,4436.794922,0.000000,3.000000,59.000000,,,,0.000000,4.000000,4.000000,2.000000,4.000000,4.000000,2.000000,4.000000,4.000000,4.000000,4.000000,4.000000,4.000000,4.000000,4.000000,66.666664,,,,,,,,,,,,,,,,,,,,,,,,,,,,,,,,,,,,,,,,,,,,,,,,,,,,,,,,,,,,,,,,,,,,,,,,,,,,,,,,,,,,,,,,,,,,,,,,,,,,,,,,,,,,,,,,,,,,,
1768202629.256239,1768202629.257341,35.000000,0.000000,4355.769043,4341.282227,4325.384766,4360.384766,4341.410156,4365.641113,4355.512695,4352.948730,4335.769043,4329.358887,4490.256348,4508.333496,4393.333496,4450.512695,0.000000,3.000000,59.000000,,,,0.000000,4.000000,4.000000,2.000000,4.000000,4.000000,2.000000,4.000000,4.000000,4.000000,4.000000,4.000000,4.000000,4.000000,4.000000,66.666664,,,,,,,,,,,,,,,,,,,,,,,,,,,,,,,,,,,,,,,,,,,,,,,,,,,,,,,,,,,,,,,,,,,,,,,,,,,,,,,,,,,,,,,,,,,,,,,,,,,,,,,,,,,,,,,,,,,,,
1768202629.264048,1768202629.264950,36.000000,0.000000,4360.384766,4344.358887,4326.794922,4366.153809,4342.307617,4364.871582,4360.000000,4354.743652,4338.589844,4334.871582,4495.000000,4516.410156,4395.897461,4461.282227,0.000000,3.000000,59.000000,,,,0.000000,4.000000,4.000000,2.000000,4.000000,4.000000,2.000000,4.000000,4.000000,4.000000,4.000000,4.000000,4.000000,4.000000,4.000000,66.666664,,,,,,,,,,,,,,,,,,,,,,,,,,,,,,,,,,,,,,,,,,,,,,,,,,,,,,,,,,,,,,,,,,,,,,,,,,,,,,,,,,,,,,,,,,,,,,,,,,,,,,,,,,,,,,,,,,,,,
