title:remote_11, start timestamp:1768294531.224860, stop timestamp:1768294561.958833, headset type:EPOCX, headset serial:E5020E3B, headset firmware:730, channels:156, sampling rate:eeg_128;pm_0.1;pow_8, samples:3937      , version:2.2, 
Timestamp,OriginalTimestamp,EEG.Counter,EEG.Interpolated,EEG.AF3,EEG.F7,EEG.F3,EEG.FC5,EEG.T7,EEG.P7,EEG.O1,EEG.O2,EEG.P8,EEG.T8,EEG.FC6,EEG.F4,EEG.F8,EEG.AF4,EEG.RawCq,EEG.Battery,EEG.BatteryPercent,MarkerIndex,MarkerType,MarkerValueInt,EEG.MarkerHardware,CQ.AF3,CQ.F7,CQ.F3,CQ.FC5,CQ.T7,CQ.P7,CQ.O1,CQ.O2,CQ.P8,CQ.T8,CQ.FC6,CQ.F4,CQ.F8,CQ.AF4,CQ.Overall,EQ.SampleRateQuality,EQ.OVERALL,EQ.AF3,EQ.F7,EQ.F3,EQ.FC5,EQ.T7,EQ.P7,EQ.O1,EQ.O2,EQ.P8,EQ.T8,EQ.FC6,EQ.F4,EQ.F8,EQ.AF4,PM.Attention.IsActive,PM.Attention.Scaled,PM.Attention.Raw,PM.Attention.Min,PM.Attention.Max,PM.Engagement.IsActive,PM.Engagement.Scaled,PM.Engagement.Raw,PM.Engagement.Min,PM.Engagement.Max,PM.Excitement.IsActive,PM.Excitement.Scaled,PM.Excitement.Raw,PM.Excitement.Min,PM.Excitement.Max,PM.LongTermExcitement,PM.Stress.IsActive,PM.Stress.Scaled,PM.Stress.Raw,PM.Stress.Min,PM.Stress.Max,PM.Relaxation.IsActive,PM.Relaxation.Scaled,PM.Relaxation.Raw,PM.Relaxation.Min,PM.Relaxation.Max,PM.Interest.IsActive,PM.Interest.Scaled,PM.Interest.Raw,PM.Interest.Min,PM.Interest.Max,POW.AF3.Theta,POW.AF3.Alpha,POW.AF3.BetaL,POW.AF3.BetaH,POW.AF3.Gamma,POW.F7.Theta,POW.F7.Alpha,POW.F7.BetaL,POW.F7.BetaH,POW.F7.Gamma,POW.F3.Theta,POW.F3.Alpha,POW.F3.BetaL,POW.F3.BetaH,POW.F3.Gamma,POW.FC5.Theta,POW.FC5.Alpha,POW.FC5.BetaL,POW.FC5.BetaH,POW.FC5.Gamma,POW.T7.Theta,POW.T7.Alpha,POW.T7.BetaL,POW.T7.BetaH,POW.T7.Gamma,POW.P7.Theta,POW.P7.Alpha,POW.P7.BetaL,POW.P7.BetaH,POW.P7.Gamma,POW.O1.Theta,POW.O1.Alpha,POW.O1.BetaL,POW.O1.BetaH,POW.O1.Gamma,POW.O2.Theta,POW.O2.Alpha,POW.O2.BetaL,POW.O2.BetaH,POW.O2.Gamma,POW.P8.Theta,POW.P8.Alpha,POW.P8.BetaL,POW.P8.BetaH,POW.P8.Gamma,POW.T8.Theta,POW.T8.Alpha,POW.T8.BetaL,POW.T8.BetaH,POW.T8.Gamma,POW.FC6.Theta,POW.FC6.Alpha,POW.FC6.BetaL,POW.FC6.BetaH,POW.FC6.Gamma,POW.F4.Theta,POW.F4.Alpha,POW.F4.BetaL,POW.F4.BetaH,POW.F4.Gamma,POW.F8.Theta,POW.F8.Alpha,POW.F8.BetaL,POW.F8.BetaH,POW.F8.Gamma,POW.AF4.Theta,POW.AF4.Alpha,POW.AF4.BetaL,POW.AF4.BetaH,POW.AF4.Gamma
1768294531.224860,1768294531.225409,57.000000,0.000000,4362.307617,4329.871582,4351.025879,4351.282227,4312.307617,4314.487305,4315.641113,4332.051270,4330.000000,4319.743652,4505.000000,4550.897461,4427.563965,4492.563965,0.000000,2.000000,42.000000,,,,0.000000,4.000000,4.000000,4.000000,4.000000,4.000000,4.000000,4.000000,4.000000,4.000000,4.000000,4.000000,4.000000,4.000000,4.000000,100.000000,,,,,,,,,,,,,,,,,,,,,,,,,,,,,,,,,,,,,,,,,,,,,,,,,,,,,,,,,,,,,,,,,,,,,,,,,,,,,,,,,,,,,,,,,,,,,,,,,,,,,,,,,,,,,,,,,,,,,
1768294531.232669,1768294531.233318,58.000000,0.000000,4365.128418,4328.717773,4358.205078,4353.333496,4308.974121,4316.666504,4314.230957,4331.410156,4330.512695,4323.461426,4500.128418,4552.179688,4427.436035,4492.307617,0.000000,2.000000,42.000000,,,,0.000000,4.000000,4.000000,4.000000,4.000000,4.000000,4.000000,4.000000,4.000000,4.000000,4.000000,4.000000,4.000000,4.000000,4.000000,100.000000,,,,,,,,,,,,,,,,,,,,,,,,,,,,,,,,,,,,,,,,,,,,,,,,,,,,,,,,,,,,,,,,,,,,,,,,,,,,,,,,,,,,,,,,,,,,,,,,,,,,,,,,,,,,,,,,,,,,,
1768294531.240477,1768294531.241126,59.000000,0.000000,4351.666504,4323.333496,4348.205078,4344.871582,4306.666504,4317.436035,4303.077148,4312.436035,4318.333496,4311.666504,4492.692383,4531.282227,4410.384766,4475.256348,0.000000,2.000000,42.000000,,,,0.000000,4.000000,4.000000,4.000000,4.000000,4.000000,4.000000,4.000000,4.000000,4.000000,4.000000,4.000000,4.000000,4.000000,4.000000,100.000000,,,,,,,,,,,,,,,,,,,,,,,,,,,,,,,,,,,,,,,,,,,,,,,,,,,,,,,,,,,,,,,,,,,,,,,,,,,,,,,,,,,,,,,,,,,,,,,,,,,,,,,,,,,,,,,,,,,,,
1768294531.248285,1768294531.249134,60.000000,0.000000,4348.077148,4320.897461,4339.871582,4344.102539,4307.179688,4313.589844,4302.051270,4314.871582,4318.846191,4304.102539,4495.512695,4529.358887,4410.769043,4477.179688,0.000000,2.000000,42.000000,,,,0.000000,4.000000,4.000000,4.000000,4.000000,4.000000,4.000000,4.000000,4.000000,4.000000,4.000000,4.000000,4.000000,4.000000,4.000000,100.000000,,,,,,,,,,,,,,,,,,,,,,,,,,,,,,,,,,,,,,,,,,,,,,,,,,,,,,,,,,,,,,,,,,,,,,,,,,,,,,,,,,,,,,,,,,,,,,,,,,,,,,,,,,,,,,,,,,,,,
1768294531.256094,1768294531.256943,61.000000,0.000000,4360.641113,4325.000000,4346.922852,4352.307617,4307.820313,4313.205078,4308.717773,4333.589844,4330.256348,4310.641113,4503.717773,4550.769043,4427.563965,4494.230957,0.000000,2.000000,42.000000,,,,0.000000,4.000000,4.000000,4.000000,4.000000,4.000000,4.000000,4.000000,4.000000,4.000000,4.000000,4.000000,4.000000,4.000000,4.000000,100.000000,,,,,,,,,,,,,,,,,,,,,,,,,,,,,,,,,,,,,,,,,,,,,,,,,,,,,,,,,,,,,,,,,,,,,,,,,,,,,,,,,,,,,,,,,,,,,,,,,,,,,,,,,,,,,,,,,,,,,
1768294531.263902,1768294531.264651,62.000000,0.000000,4366.666504,4330.512695,4354.743652,4355.128418,4311.025879,4316.794922,4311.794922,4330.256348,4326.153809,4312.051270,4502.436035,4554.358887,4427.051270,4494.230957,0.000000,2.000000,42.000000,,,,0.000000,4.000000,4.000000,4.000000,4.000000,4.000000,4.000000,4.000000,4.000000,4.000000,4.000000,4.000000,4.000000,4.000000,4.000000,100.000000,,,,,,,,,,,,,,,,,,,,,,,,,,,,,,,,,,,,,,,,,,,,,,,,0.598685,0.525810,0.384674,0.265824,0.219549,4.754942,0.495541,0.409144,0.214857,0.175336,0.501433,0.703926,0.329001,0.298421,0.183622,0.433670,0.237272,0.268266,0.176942,0.128036,0.636901,0.126438,0.176803,0.134216,0.066541,0.080742,0.184072,0.150404,0.082110,0.106742,0.287869,0.908676,0.427766,0.230489,0.246848,0.735681,0.898808,0.290469,0.475253,0.286515,0.465087,0.341217,0.139054,0.222539,0.075156,1.027688,0.632839,0.368355,0.169912,0.161264,0.294074,0.223715,0.213642,0.159246,0.074561,1.827652,1.478977,0.765461,0.597095,0.238002,0.817133,0.366064,0.246576,0.309736,0.333967,1.214575,0.994720,0.503605,0.304833,0.167493
1768294531.271711,1768294531.272460,63.000000,0.000000,4362.563965,4331.538574,4355.128418,4356.153809,4316.666504,4316.282227,4310.641113,4318.333496,4318.077148,4306.153809,4495.128418,4538.205078,4417.179688,4480.128418,0.000000,2.000000,42.000000,,,,0.000000,4.000000,4.000000,4.000000,4.000000,4.000000,4.000000,4.000000,4.000000,4.000000,4.000000,4.000000,4.000000,4.000000,4.000000,100.000000,,,,,,,,,,,,,,,,,,,,,,,,,,,,,,,,,,,,,,,,,,,,,,,,,,,,,,,,,,,,,,,,,,,,,,,,,,,,,,,,,,,,,,,,,,,,,,,,,,,,,,,,,,,,,,,,,,,,,
1768294531.279519,1768294531.280068,64.000000,0.000000,4360.512695,4325.641113,4351.410156,4354.230957,4314.102539,4311.025879,4302.948730,4321.538574,4322.692383,4308.974121,4498.461426,4539.230957,4422.436035,4480.256348,4206.000000,2.000000,42.000000,,,,0.000000,4.000000,4.000000,4.000000,4.000000,4.000000,4.000000,4.000000,4.000000,4.000000,4.000000,4.000000,4.000000,4.000000,4.000000,100.000000,,,,,,,,,,,,,,,,,,,,,,,,,,,,,,,,,,,,,,,,,,,,,,,,,,,,,,,,,,,,,,,,,,,,,,,,,,,,,,,,,,,,,,,,,,,,,,,,,,,,,,,,,,,,,,,,,,,,,
1768294531.287327,1768294531.287877,65.000000,0.000000,4355.641113,4320.641113,4342.692383,4345.769043,4308.846191,4306.922852,4295.256348,4317.948730,4323.077148,4314.102539,4503.205078,4548.846191,4425.897461,4485.384766,3867.000000,2.000000,42.000000,,,,0.000000,4.000000,4.000000,4.000000,4.000000,4.000000,4.000000,4.000000,4.000000,4.000000,4.000000,4.000000,4.000000,4.000000,4.000000,100.000000,,,,,,,,,,,,,,,,,,,,,,,,,,,,,,,,,,,,,,,,,,,,,,,,,,,,,,,,,,,,,,,,,,,,,,,,,,,,,,,,,,,,,,,,,,,,,,,,,,,,,,,,,,,,,,,,,,,,,
1768294531.295136,1768294531.295585,66.000000,0.000000,4348.589844,4322.051270,4337.436035,4343.077148,4310.641113,4307.179688,4300.897461,4315.897461,4318.077148,4313.589844,4499.102539,4546.025879,4417.692383,4478.846191,4024.000000,2.000000,42.000000,,,,0.000000,4.000000,4.000000,4.000000,4.000000,4.000000,4.000000,4.000000,4.000000,4.000000,4.000000,4.000000,4.000000,4.000000,4.000000,100.000000,,,,,,,,,,,,,,,,,,,,,,,,,,,,,,,,,,,,,,,,,,,,,,,,,,,,,,,,,,,,,,,,,,,,,,,,,,,,,,,,,,,,,,,,,,,,,,,,,,,,,,,,,,,,,,,,,,,,,
1768294531.302944,1768294531.303394,67.000000,0.000000,4347.692383,4325.000000,4337.948730,4344.102539,4311.794922,4308.974121,4305.256348,4326.153809,4320.641113,4312.948730,4495.512695,4537.051270,4412.692383,4472.051270,3912.000000,2.000000,42.000000,,,,0.000000,4.000000,4.000000,4.000000,4.000000,4.000000,4.000000,4.000000,4.000000,4.000000,4.000000,4.000000,4.000000,4.000000,4.000000,100.000000,,,,,,,,,,,,,,,,,,,,,,,,,,,,,,,,,,,,,,,,,,,,,,,,,,,,,,,,,,,,,,,,,,,,,,,,,,,,,,,,,,,,,,,,,,,,,,,,,,,,,,,,,,,,,,,,,,,,,
1768294531.310753,1768294531.311003,68.000000,0.000000,4350.256348,4320.000000,4337.820313,4338.846191,4310.000000,4310.000000,4301.922852,4321.794922,4324.615234,4310.769043,4497.436035,4531.794922,4412.307617,4470.897461,3797.000000,2.000000,42.000000,,,,0.000000,4.000000,4.000000,4.000000,4.000000,4.000000,4.000000,4.000000,4.000000,4.000000,4.000000,4.000000,4.000000,4.000000,4.000000,100.000000,,,,,,,,,,,,,,,,,,,,,,,,,,,,,,,,,,,,,,,,,,,,,,,,,,,,,,,,,,,,,,,,,,,,,,,,,,,,,,,,,,,,,,,,,,,,,,,,,,,,,,,,,,,,,,,,,,,,,
1768294531.318561,1768294531.318811,69.000000,0.000000,4357.692383,4318.846191,4345.897461,4341.666504,4315.384766,4316.410156,4309.487305,4314.743652,4323.077148,4306.666504,4500.512695,4538.589844,4417.563965,4476.282227,3037.000000,2.000000,42.000000,,,,0.000000,4.000000,4.000000,4.000000,4.000000,4.000000,4.000000,4.000000,4.000000,4.000000,4.000000,4.000000,4.000000,4.000000,4.000000,100.000000,,,,,,,,,,,,,,,,,,,,,,,,,,,,,,,,,,,,,,,,,,,,,,,,,,,,,,,,,,,,,,,,,,,,,,,,,,,,,,,,,,,,,,,,,,,,,,,,,,,,,,,,,,,,,,,,,,,,,
1768294531.326370,1768294531.326520,70.000000,0.000000,4357.179688,4319.487305,4343.077148,4345.256348,4315.512695,4317.948730,4312.563965,4318.974121,4320.256348,4305.897461,4499.358887,4542.820313,4417.563965,4479.615234,3455.000000,2.000000,42.000000,,,,0.000000,4.000000,4.000000,4.000000,4.000000,4.000000,4.000000,4.000000,4.000000,4.000000,4.000000,4.000000,4.000000,4.000000,4.000000,100.000000,,,,,,,,,,,,,,,,,,,,,,,,,,,,,,,,,,,,,,,,,,,,,,,,,,,,,,,,,,,,,,,,,,,,,,,,,,,,,,,,,,,,,,,,,,,,,,,,,,,,,,,,,,,,,,,,,,,,,
1768294531.334178,1768294531.334328,71.000000,0.000000,4338.974121,4301.922852,4317.820313,4327.179688,4301.538574,4306.538574,4294.615234,4315.512695,4316.666504,4304.615234,4491.025879,4525.769043,4400.384766,4460.897461,3585.000000,2.000000,42.000000,,,,0.000000,4.000000,4.000000,4.000000,4.000000,4.000000,4.000000,4.000000,4.000000,4.000000,4.000000,4.000000,4.000000,4.000000,4.000000,100.000000,,,,,,,,,,,,,,,,,,,,,,,,,,,,,,,,,,,,,,,,,,,,,,,,,,,,,,,,,,,,,,,,,,,,,,,,,,,,,,,,,,,,,,,,,,,,,,,,,,,,,,,,,,,,,,,,,,,,,
1768294531.341987,1768294531.342336,72.000000,0.000000,4332.179688,4288.333496,4310.512695,4313.461426,4298.974121,4305.384766,4292.563965,4315.384766,4321.282227,4309.358887,4485.384766,4515.897461,4394.871582,4447.692383,2723.000000,2.000000,42.000000,,,,0.000000,4.000000,4.000000,4.000000,4.000000,4.000000,4.000000,4.000000,4.000000,4.000000,4.000000,4.000000,4.000000,4.000000,4.000000,100.000000,,,,,,,,,,,,,,,,,,,,,,,,,,,,,,,,,,,,,,,,,,,,,,,,,,,,,,,,,,,,,,,,,,,,,,,,,,,,,,,,,,,,,,,,,,,,,,,,,,,,,,,,,,,,,,,,,,,,,
1768294531.349795,1768294531.350145,73.000000,0.000000,4351.282227,4298.974121,4330.128418,4327.307617,4310.641113,4316.538574,4311.538574,4334.102539,4333.205078,4323.974121,4493.974121,4536.794922,4413.589844,4467.563965,3513.000000,2.000000,42.000000,,,,0.000000,4.000000,4.000000,4.000000,4.000000,4.000000,4.000000,4.000000,4.000000,4.000000,4.000000,4.000000,4.000000,4.000000,4.000000,100.000000,,,,,,,,,,,,,,,,,,,,,,,,,,,,,,,,,,,,,,,,,,,,,,,,,,,,,,,,,,,,,,,,,,,,,,,,,,,,,,,,,,,,,,,,,,,,,,,,,,,,,,,,,,,,,,,,,,,,,
1768294531.357603,1768294531.358053,74.000000,0.000000,4365.897461,4309.230957,4336.153809,4340.000000,4314.487305,4316.153809,4314.358887,4337.307617,4331.410156,4326.153809,4500.000000,4547.307617,4419.102539,4480.256348,3937.000000,2.000000,42.000000,,,,0.000000,4.000000,4.000000,4.000000,4.000000,4.000000,4.000000,4.000000,4.000000,4.000000,4.000000,4.000000,4.000000,4.000000,4.000000,100.000000,,,,,,,,,,,,,,,,,,,,,,,,,,,,,,,,,,,,,,,,,,,,,,,,,,,,,,,,,,,,,,,,,,,,,,,,,,,,,,,,,,,,,,,,,,,,,,,,,,,,,,,,,,,,,,,,,,,,,
1768294531.365412,1768294531.365861,75.000000,0.000000,4365.641113,4308.333496,4324.743652,4336.025879,4312.948730,4311.282227,4306.538574,4320.256348,4317.948730,4309.615234,4491.666504,4527.692383,4402.820313,4462.820313,4706.000000,2.000000,42.000000,,,,0.000000,4.000000,4.000000,4.000000,4.000000,4.000000,4.000000,4.000000,4.000000,4.000000,4.000000,4.000000,4.000000,4.000000,4.000000,100.000000,,,,,,,,,,,,,,,,,,,,,,,,,,,,,,,,,,,,,,,,,,,,,,,,,,,,,,,,,,,,,,,,,,,,,,,,,,,,,,,,,,,,,,,,,,,,,,,,,,,,,,,,,,,,,,,,,,,,,
1768294531.373220,1768294531.373470,76.000000,0.000000,4364.615234,4300.000000,4319.615234,4327.948730,4308.974121,4311.282227,4306.025879,4313.077148,4311.922852,4298.333496,4484.615234,4514.102539,4392.307617,4448.846191,2309.000000,2.000000,42.000000,,,,0.000000,4.000000,4.000000,4.000000,4.000000,4.000000,4.000000,4.000000,4.000000,4.000000,4.000000,4.000000,4.000000,4.000000,4.000000,100.000000,,,,,,,,,,,,,,,,,,,,,,,,,,,,,,,,,,,,,,,,,,,,,,,,,,,,,,,,,,,,,,,,,,,,,,,,,,,,,,,,,,,,,,,,,,,,,,,,,,,,,,,,,,,,,,,,,,,,,
1768294531.381029,1768294531.381279,77.000000,0.000000,4352.307617,4286.153809,4313.333496,4316.922852,4301.410156,4307.179688,4302.051270,4307.436035,4312.179688,4296.410156,4483.205078,4512.307617,4386.922852,4443.589844,5477.000000,2.000000,42.000000,,,,0.000000,4.000000,4.000000,4.000000,4.000000,4.000000,4.000000,4.000000,4.000000,4.000000,4.000000,4.000000,4.000000,4.000000,4.000000,100.000000,,,,,,,,,,,,,,,,,,,,,,,,,,,,,,,,,,,,,,,,,,,,,,,,,,,,,,,,,,,,,,,,,,,,,,,,,,,,,,,,,,,,,,,,,,,,,,,,,,,,,,,,,,,,,,,,,,,,,
1768294531.388837,1768294531.388987,78.000000,0.000000,4339.230957,4282.051270,4306.282227,4308.589844,4299.358887,4304.487305,4298.846191,4301.666504,4313.589844,4294.230957,4481.282227,4509.743652,4380.256348,4437.436035,3937.000000,2.000000,42.000000,,,,0.000000,4.000000,4.000000,4.000000,4.000000,4.000000,4.000000,4.000000,4.000000,4.000000,4.000000,4.000000,4.000000,4.000000,4.000000,100.000000,1.000000,75.000000,4.000000,4.000000,4.000000,4.000000,4.000000,1.000000,4.000000,4.000000,4.000000,4.000000,4.000000,4.000000,4.000000,4.000000,,,,,,,,,,,,,,,,,,,,,,,,,,,,,,,,0.784527,0.478187,0.355355,0.270359,0.208139,4.449351,0.582768,0.373459,0.215472,0.199801,0.660922,0.608221,0.309556,0.293581,0.185938,0.411070,0.233593,0.222119,0.176078,0.121657,0.670109,0.140175,0.161923,0.127605,0.063560,0.093901,0.184548,0.160528,0.082029,0.101921,0.358259,0.840186,0.474806,0.208229,0.254225,0.739320,0.854733,0.345649,0.494637,0.276457,0.466941,0.337234,0.144565,0.222772,0.075194,1.138660,0.492241,0.383723,0.183675,0.160970,0.301129,0.204314,0.207042,0.153414,0.078433,1.869070,1.283194,0.651808,0.615842,0.228507,0.914498,0.290487,0.182798,0.269841,0.319103,1.190755,0.827141,0.429386,0.284980,0.179514
1768294531.396645,1768294531.396796,79.000000,0.000000,4342.307617,4288.205078,4309.487305,4313.717773,4303.974121,4311.666504,4309.615234,4317.307617,4315.512695,4291.922852,4481.922852,4505.384766,4383.974121,4434.487305,4706.000000,2.000000,42.000000,,,,0.000000,4.000000,4.000000,4.000000,4.000000,4.000000,4.000000,4.000000,4.000000,4.000000,4.000000,4.000000,4.000000,4.000000,4.000000,100.000000,,,,,,,,,,,,,,,,,,,,,,,,,,,,,,,,,,,,,,,,,,,,,,,,,,,,,,,,,,,,,,,,,,,,,,,,,,,,,,,,,,,,,,,,,,,,,,,,,,,,,,,,,,,,,,,,,,,,,
1768294531.404454,1768294531.404804,80.000000,0.000000,4347.563965,4290.000000,4315.769043,4321.538574,4306.282227,4317.436035,4316.922852,4326.538574,4314.358887,4293.717773,4482.692383,4502.948730,4391.153809,4433.461426,2309.000000,2.000000,42.000000,,,,0.000000,4.000000,4.000000,4.000000,4.000000,4.000000,4.000000,4.000000,4.000000,4.000000,4.000000,4.000000,4.000000,4.000000,4.000000,100.000000,,,,,,,,,,,,,,,,,,,,,,,,,,,,,,,,,,,,,,,,,,,,,,,,,,,,,,,,,,,,,,,,,,,,,,,,,,,,,,,,,,,,,,,,,,,,,,,,,,,,,,,,,,,,,,,,,,,,,
1768294531.412262,1768294531.412612,81.000000,0.000000,4347.051270,4290.000000,4317.307617,4320.897461,4305.641113,4309.743652,4303.974121,4308.333496,4310.897461,4297.179688,4481.794922,4504.871582,4390.897461,4436.922852,5477.000000,2.000000,42.000000,,,,0.000000,4.000000,4.000000,4.000000,4.000000,4.000000,4.000000,4.000000,4.000000,4.000000,4.000000,4.000000,4.000000,4.000000,4.000000,100.000000,,,,,,,,,,,,,,,,,,,,,,,,,,,,,,,,,,,,,,,,,,,,,,,,,,,,,,,,,,,,,,,,,,,,,,,,,,,,,,,,,,,,,,,,,,,,,,,,,,,,,,,,,,,,,,,,,,,,,
1768294531.420071,1768294531.420521,82.000000,0.000000,4350.384766,4294.102539,4316.922852,4321.025879,4307.563965,4304.358887,4294.615234,4305.641113,4314.230957,4301.538574,4484.358887,4513.846191,4389.230957,4447.692383,3937.000000,2.000000,42.000000,,,,0.000000,4.000000,4.000000,4.000000,4.000000,4.000000,4.000000,4.000000,4.000000,4.000000,4.000000,4.000000,4.000000,4.000000,4.000000,100.000000,,,,,,,,,,,,,,,,,,,,,,,,,,,,,,,,,,,,,,,,,,,,,,,,,,,,,,,,,,,,,,,,,,,,,,,,,,,,,,,,,,,,,,,,,,,,,,,,,,,,,,,,,,,,,,,,,,,,,
1768294531.427879,1768294531.428329,83.000000,0.000000,4360.769043,4298.333496,4322.307617,4329.230957,4313.077148,4311.153809,4303.077148,4321.410156,4320.128418,4303.589844,4486.025879,4518.717773,4393.717773,4451.410156,4706.000000,2.000000,42.000000,,,,0.000000,4.000000,4.000000,4.000000,4.000000,4.000000,4.000000,4.000000,4.000000,4.000000,4.000000,4.000000,4.000000,4.000000,4.000000,100.000000,,,,,,,,,,,,,,,,,,,,,,,,,,,,,,,,,,,,,,,,,,,,,,,,,,,,,,,,,,,,,,,,,,,,,,,,,,,,,,,,,,,,,,,,,,,,,,,,,,,,,,,,,,,,,,,,,,,,,
1768294531.435688,1768294531.436337,84.000000,0.000000,4364.358887,4303.077148,4327.563965,4333.077148,4315.384766,4313.333496,4308.205078,4317.307617,4318.461426,4300.384766,4485.384766,4512.563965,4398.077148,4446.794922,2309.000000,2.000000,42.000000,,,,0.000000,4.000000,4.000000,4.000000,4.000000,4.000000,4.000000,4.000000,4.000000,4.000000,4.000000,4.000000,4.000000,4.000000,4.000000,100.000000,,,,,,,,,,,,,,,,,,,,,,,,,,,,,,,,,,,,,,,,,,,,,,,,,,,,,,,,,,,,,,,,,,,,,,,,,,,,,,,,,,,,,,,,,,,,,,,,,,,,,,,,,,,,,,,,,,,,,
1768294531.443496,1768294531.444146,85.000000,0.000000,4359.358887,4300.897461,4325.256348,4325.641113,4310.384766,4303.205078,4298.974121,4304.102539,4313.205078,4296.025879,4484.743652,4505.512695,4397.436035,4446.153809,5477.000000,2.000000,42.000000,,,,0.000000,4.000000,4.000000,4.000000,4.000000,4.000000,4.000000,4.000000,4.000000,4.000000,4.000000,4.000000,4.000000,4.000000,4.000000,100.000000,,,,,,,,,,,,,,,,,,,,,,,,,,,,,,,,,,,,,,,,,,,,,,,,,,,,,,,,,,,,,,,,,,,,,,,,,,,,,,,,,,,,,,,,,,,,,,,,,,,,,,,,,,,,,,,,,,,,,
1768294531.451304,1768294531.451854,86.000000,0.000000,4355.769043,4292.820313,4318.461426,4321.538574,4306.538574,4294.871582,4292.820313,4301.922852,4308.589844,4291.025879,4481.794922,4500.128418,4386.922852,4442.820313,3937.000000,2.000000,42.000000,,,,0.000000,4.000000,4.000000,4.000000,4.000000,4.000000,4.000000,4.000000,4.000000,4.000000,4.000000,4.000000,4.000000,4.000000,4.000000,100.000000,,,,,,,,,,,,,,,,,,,,,,,,,,,,,,,,,,,,,,,,,,,,,,,,,,,,,,,,,,,,,,,,,,,,,,,,,,,,,,,,,,,,,,,,,,,,,,,,,,,,,,,,,,,,,,,,,,,,,
1768294531.459113,1768294531.459663,87.000000,0.000000,4355.384766,4293.333496,4319.487305,4325.897461,4309.230957,4304.230957,4303.077148,4309.871582,4310.769043,4288.717773,4480.000000,4501.666504,4372.436035,4434.358887,4706.000000,2.000000,42.000000,,,,0.000000,4.000000,4.000000,4.000000,4.000000,4.000000,4.000000,4.000000,4.000000,4.000000,4.000000,4.000000,4.000000,4.000000,4.000000,100.000000,,,,,,,,,,,,,,,,,,,,,,,,,,,,,,,,,,,,,,,,,,,,,,,,,,,,,,,,,,,,,,,,,,,,,,,,,,,,,,,,,,,,,,,,,,,,,,,,,,,,,,,,,,,,,,,,,,,,,
1768294531.466921,1768294531.467271,88.000000,0.000000,4352.179688,4295.000000,4321.282227,4325.256348,4307.692383,4313.333496,4308.205078,4313.974121,4315.128418,4290.641113,4479.102539,4503.077148,4371.922852,4430.512695,2309.000000,2.000000,42.000000,,,,0.000000,4.000000,4.000000,4.000000,4.000000,4.000000,4.000000,4.000000,4.000000,4.000000,4.000000,4.000000,4.000000,4.000000,4.000000,100.000000,,,,,,,,,,,,,,,,,,,,,,,,,,,,,,,,,,,,,,,,,,,,,,,,,,,,,,,,,,,,,,,,,,,,,,,,,,,,,,,,,,,,,,,,,,,,,,,,,,,,,,,,,,,,,,,,,,,,,
1768294531.474730,1768294531.475080,89.000000,0.000000,4347.179688,4297.948730,4314.230957,4321.282227,4302.692383,4308.717773,4303.589844,4311.025879,4311.410156,4292.948730,4481.282227,4500.641113,4381.282227,4434.615234,5477.000000,2.000000,42.000000,,,,0.000000,4.000000,4.000000,4.000000,4.000000,4.000000,4.000000,4.000000,4.000000,4.000000,4.000000,4.000000,4.000000,4.000000,4.000000,100.000000,,,,,,,,,,,,,,,,,,,,,,,,,,,,,,,,,,,,,,,,,,,,,,,,,,,,,,,,,,,,,,,,,,,,,,,,,,,,,,,,,,,,,,,,,,,,,,,,,,,,,,,,,,,,,,,,,,,,,
1768294531.482538,1768294531.482788,90.000000,0.000000,4346.282227,4307.179688,4309.615234,4326.282227,4302.051270,4305.641113,4310.000000,4315.769043,4308.717773,4291.538574,4483.461426,4500.769043,4382.179688,4439.487305,3937.000000,2.000000,42.000000,,,,0.000000,4.000000,4.000000,4.000000,4.000000,4.000000,4.000000,4.000000,4.000000,4.000000,4.000000,4.000000,4.000000,4.000000,4.000000,100.000000,,,,,,,,,,,,,,,,,,,,,,,,,,,,,,,,,,,,,,,,,,,,,,,,,,,,,,,,,,,,,,,,,,,,,,,,,,,,,,,,,,,,,,,,,,,,,,,,,,,,,,,,,,,,,,,,,,,,,
1768294531.490347,1768294531.490597,91.000000,0.000000,4339.358887,4308.077148,4310.000000,4324.743652,4298.589844,4302.436035,4305.641113,4314.487305,4310.000000,4285.128418,4473.846191,4492.436035,4369.358887,4429.615234,4706.000000,2.000000,42.000000,,,,0.000000,4.000000,4.000000,4.000000,4.000000,4.000000,4.000000,4.000000,4.000000,4.000000,4.000000,4.000000,4.000000,4.000000,4.000000,100.000000,,,,,,,,,,,,,,,,,,,,,,,,,,,,,,,,,,,,,,,,,,,,,,,,,,,,,,,,,,,,,,,,,,,,,,,,,,,,,,,,,,,,,,,,,,,,,,,,,,,,,,,,,,,,,,,,,,,,,
1768294531.498155,1768294531.498205,92.000000,0.000000,4330.512695,4306.666504,4308.333496,4314.102539,4292.436035,4293.717773,4285.897461,4300.384766,4305.769043,4277.692383,4465.384766,4485.000000,4360.512695,4417.179688,2309.000000,2.000000,42.000000,,,,0.000000,4.000000,4.000000,4.000000,4.000000,4.000000,4.000000,4.000000,4.000000,4.000000,4.000000,4.000000,4.000000,4.000000,4.000000,100.000000,,,,,,,,,,,,,,,,,,,,,,,,,,,,,,,,,,,,,,,,,,,,,,,,,,,,,,,,,,,,,,,,,,,,,,,,,,,,,,,,,,,,,,,,,,,,,,,,,,,,,,,,,,,,,,,,,,,,,
1768294531.505963,1768294531.506014,93.000000,0.000000,4333.461426,4317.820313,4309.615234,4317.820313,4296.025879,4296.025879,4291.922852,4306.922852,4305.256348,4275.384766,4471.794922,4495.128418,4364.230957,4420.641113,5477.000000,2.000000,42.000000,,,,0.000000,4.000000,4.000000,4.000000,4.000000,4.000000,4.000000,4.000000,4.000000,4.000000,4.000000,4.000000,4.000000,4.000000,4.000000,100.000000,,,,,,,,,,,,,,,,,,,,,,,,,,,,,,,,,,,,,,,,,,,,,,,,,,,,,,,,,,,,,,,,,,,,,,,,,,,,,,,,,,,,,,,,,,,,,,,,,,,,,,,,,,,,,,,,,,,,,
1768294531.513772,1768294531.513722,94.000000,0.000000,4336.922852,4320.000000,4309.358887,4323.846191,4296.794922,4302.820313,4300.897461,4317.948730,4310.641113,4279.358887,4476.025879,4499.871582,4366.410156,4423.717773,3937.000000,2.000000,42.000000,,,,0.000000,4.000000,4.000000,4.000000,4.000000,4.000000,4.000000,4.000000,4.000000,4.000000,4.000000,4.000000,4.000000,4.000000,4.000000,100.000000,,,,,,,,,,,,,,,,,,,,,,,,,,,,,,,,,,,,,,,,,,,,,,,,1.024140,0.450461,0.303327,0.274058,0.195296,4.127852,0.673471,0.313255,0.202551,0.216956,0.927488,0.492613,0.290594,0.280897,0.186902,0.431201,0.241056,0.176574,0.171974,0.114823,0.760116,0.156064,0.152403,0.113858,0.061020,0.128650,0.187685,0.162829,0.077199,0.094401,0.457280,0.711963,0.485921,0.184385,0.269521,0.776791,0.751760,0.385300,0.476202,0.263022,0.486154,0.304956,0.142559,0.206886,0.076481,1.258855,0.366253,0.358807,0.202042,0.161096,0.341267,0.177673,0.185451,0.136332,0.083593,2.166154,1.043340,0.511461,0.616283,0.228688,1.076887,0.234151,0.133717,0.234664,0.321946,1.379280,0.664526,0.349893,0.260991,0.207093
1768294531.521580,1768294531.521531,95.000000,0.000000,4320.256348,4300.384766,4298.461426,4308.077148,4287.179688,4295.000000,4281.025879,4293.333496,4304.102539,4279.743652,4463.846191,4478.717773,4351.666504,4405.512695,4706.000000,2.000000,42.000000,,,,0.000000,4.000000,4.000000,4.000000,4.000000,4.000000,4.000000,4.000000,4.000000,4.000000,4.000000,4.000000,4.000000,4.000000,4.000000,100.000000,,,,,,,,,,,,,,,,,,,,,,,,,,,,,,,,,,,,,,,,,,,,,,,,,,,,,,,,,,,,,,,,,,,,,,,,,,,,,,,,,,,,,,,,,,,,,,,,,,,,,,,,,,,,,,,,,,,,,
1768294531.529389,1768294531.529539,96.000000,0.000000,4314.871582,4307.436035,4299.487305,4305.897461,4290.897461,4300.256348,4282.436035,4280.384766,4300.897461,4281.153809,4458.333496,4470.641113,4344.230957,4398.846191,2309.000000,2.000000,42.000000,,,,0.000000,4.000000,4.000000,4.000000,4.000000,4.000000,4.000000,4.000000,4.000000,4.000000,4.000000,4.000000,4.000000,4.000000,4.000000,100.000000,,,,,,,,,,,,,,,,,,,,,,,,,,,,,,,,,,,,,,,,,,,,,,,,,,,,,,,,,,,,,,,,,,,,,,,,,,,,,,,,,,,,,,,,,,,,,,,,,,,,,,,,,,,,,,,,,,,,,
1768294531.537197,1768294531.537348,97.000000,0.000000,4337.307617,4333.589844,4312.563965,4327.051270,4300.769043,4311.410156,4298.077148,4301.153809,4312.436035,4284.615234,4469.230957,4490.769043,4358.974121,4417.692383,5477.000000,2.000000,42.000000,,,,0.000000,4.000000,4.000000,4.000000,4.000000,4.000000,4.000000,4.000000,4.000000,4.000000,4.000000,4.000000,4.000000,4.000000,4.000000,100.000000,,,,,,,,,,,,,,,,,,,,,,,,,,,,,,,,,,,,,,,,,,,,,,,,,,,,,,,,,,,,,,,,,,,,,,,,,,,,,,,,,,,,,,,,,,,,,,,,,,,,,,,,,,,,,,,,,,,,,
1768294531.545006,1768294531.545256,98.000000,0.000000,4347.948730,4330.384766,4316.153809,4330.128418,4296.922852,4301.153809,4287.692383,4307.307617,4314.102539,4284.743652,4476.282227,4503.846191,4369.615234,4430.641113,3937.000000,2.000000,42.000000,,,,0.000000,4.000000,4.000000,4.000000,4.000000,4.000000,4.000000,4.000000,4.000000,4.000000,4.000000,4.000000,4.000000,4.000000,4.000000,100.000000,,,,,,,,,,,,,,,,,,,,,,,,,,,,,,,,,,,,,,,,,,,,,,,,,,,,,,,,,,,,,,,,,,,,,,,,,,,,,,,,,,,,,,,,,,,,,,,,,,,,,,,,,,,,,,,,,,,,,
1768294531.552814,1768294531.553064,99.000000,0.000000,4342.692383,4321.282227,4316.666504,4322.563965,4296.025879,4298.461426,4291.538574,4312.436035,4309.230957,4290.384766,4476.922852,4503.333496,4367.820313,4436.538574,4706.000000,2.000000,42.000000,,,,0.000000,4.000000,4.000000,4.000000,4.000000,4.000000,4.000000,4.000000,4.000000,4.000000,4.000000,4.000000,4.000000,4.000000,4.000000,100.000000,,,,,,,,,,,,,,,,,,,,,,,,,,,,,,,,,,,,,,,,,,,,,,,,,,,,,,,,,,,,,,,,,,,,,,,,,,,,,,,,,,,,,,,,,,,,,,,,,,,,,,,,,,,,,,,,,,,,,
1768294531.560622,1768294531.561073,100.000000,0.000000,4341.282227,4328.077148,4316.025879,4328.717773,4301.666504,4307.563965,4302.692383,4317.692383,4307.179688,4295.256348,4476.794922,4496.153809,4361.794922,4435.641113,2309.000000,2.000000,42.000000,,,,0.000000,4.000000,4.000000,4.000000,4.000000,4.000000,4.000000,4.000000,4.000000,4.000000,4.000000,4.000000,4.000000,4.000000,4.000000,100.000000,,,,,,,,,,,,,,,,,,,,,,,,,,,,,,,,,,,,,,,,,,,,,,,,,,,,,,,,,,,,,,,,,,,,,,,,,,,,,,,,,,,,,,,,,,,,,,,,,,,,,,,,,,,,,,,,,,,,,
1768294531.568431,1768294531.568881,101.000000,0.000000,4338.589844,4325.384766,4309.102539,4326.794922,4296.666504,4297.820313,4279.487305,4300.897461,4301.282227,4291.538574,4476.794922,4490.769043,4354.487305,4423.974121,5477.000000,2.000000,42.000000,,,,0.000000,4.000000,4.000000,4.000000,4.000000,4.000000,4.000000,4.000000,4.000000,4.000000,4.000000,4.000000,4.000000,4.000000,4.000000,100.000000,,,,,,,,,,,,,,,,,,,,,,,,,,,,,,,,,,,,,,,,,,,,,,,,,,,,,,,,,,,,,,,,,,,,,,,,,,,,,,,,,,,,,,,,,,,,,,,,,,,,,,,,,,,,,,,,,,,,,
1768294531.576239,1768294531.576590,102.000000,0.000000,4333.846191,4311.794922,4304.615234,4314.871582,4287.820313,4287.051270,4266.922852,4297.948730,4302.051270,4288.717773,4479.743652,4494.102539,4350.641113,4418.589844,3937.000000,2.000000,42.000000,,,,0.000000,4.000000,4.000000,4.000000,4.000000,4.000000,4.000000,4.000000,4.000000,4.000000,4.000000,4.000000,4.000000,4.000000,4.000000,100.000000,,,,,,,,,,,,,,,,,,,,,,,,,,,,,,,,,,,,,,,,,,,,,,,,,,,,,,,,,,,,,,,,,,,,,,,,,,,,,,,,,,,,,,,,,,,,,,,,,,,,,,,,,,,,,,,,,,,,,
1768294531.584048,1768294531.584398,103.000000,0.000000,4339.230957,4311.410156,4308.205078,4317.948730,4292.307617,4291.794922,4283.205078,4305.000000,4307.436035,4295.000000,4481.922852,4496.282227,4355.641113,4423.205078,4706.000000,2.000000,42.000000,,,,0.000000,4.000000,4.000000,4.000000,4.000000,4.000000,4.000000,4.000000,4.000000,4.000000,4.000000,4.000000,4.000000,4.000000,4.000000,100.000000,,,,,,,,,,,,,,,,,,,,,,,,,,,,,,,,,,,,,,,,,,,,,,,,,,,,,,,,,,,,,,,,,,,,,,,,,,,,,,,,,,,,,,,,,,,,,,,,,,,,,,,,,,,,,,,,,,,,,
1768294531.591856,1768294531.592406,104.000000,0.000000,4343.717773,4318.717773,4312.563965,4328.205078,4300.128418,4294.102539,4283.205078,4293.461426,4303.974121,4294.230957,4478.205078,4489.487305,4360.256348,4424.743652,2309.000000,2.000000,42.000000,,,,0.000000,4.000000,4.000000,4.000000,4.000000,4.000000,4.000000,4.000000,4.000000,4.000000,4.000000,4.000000,4.000000,4.000000,4.000000,100.000000,,,,,,,,,,,,,,,,,,,,,,,,,,,,,,,,,,,,,,,,,,,,,,,,,,,,,,,,,,,,,,,,,,,,,,,,,,,,,,,,,,,,,,,,,,,,,,,,,,,,,,,,,,,,,,,,,,,,,
1768294531.599665,1768294531.600215,105.000000,0.000000,4331.025879,4317.307617,4311.666504,4324.871582,4300.512695,4293.589844,4273.974121,4288.077148,4298.589844,4285.000000,4476.153809,4479.615234,4354.102539,4417.692383,5477.000000,2.000000,42.000000,,,,0.000000,4.000000,4.000000,4.000000,4.000000,4.000000,4.000000,4.000000,4.000000,4.000000,4.000000,4.000000,4.000000,4.000000,4.000000,100.000000,,,,,,,,,,,,,,,,,,,,,,,,,,,,,,,,,,,,,,,,,,,,,,,,,,,,,,,,,,,,,,,,,,,,,,,,,,,,,,,,,,,,,,,,,,,,,,,,,,,,,,,,,,,,,,,,,,,,,
1768294531.607473,1768294531.608123,106.000000,0.000000,4321.410156,4315.897461,4307.436035,4322.179688,4302.179688,4297.179688,4283.205078,4295.000000,4299.615234,4281.794922,4477.436035,4478.589844,4351.282227,4412.179688,3937.000000,2.000000,42.000000,,,,0.000000,4.000000,4.000000,4.000000,4.000000,4.000000,4.000000,4.000000,4.000000,4.000000,4.000000,4.000000,4.000000,4.000000,4.000000,100.000000,,,,,,,,,,,,,,,,,,,,,,,,,,,,,,,,,,,,,,,,,,,,,,,,,,,,,,,,,,,,,,,,,,,,,,,,,,,,,,,,,,,,,,,,,,,,,,,,,,,,,,,,,,,,,,,,,,,,,
1768294531.615281,1768294531.615932,107.000000,0.000000,4332.948730,4318.461426,4310.384766,4328.974121,4303.717773,4299.615234,4292.692383,4296.153809,4302.436035,4285.769043,4478.974121,4487.820313,4360.512695,4417.436035,4706.000000,2.000000,42.000000,,,,0.000000,4.000000,4.000000,4.000000,4.000000,4.000000,4.000000,4.000000,4.000000,4.000000,4.000000,4.000000,4.000000,4.000000,4.000000,100.000000,,,,,,,,,,,,,,,,,,,,,,,,,,,,,,,,,,,,,,,,,,,,,,,,,,,,,,,,,,,,,,,,,,,,,,,,,,,,,,,,,,,,,,,,,,,,,,,,,,,,,,,,,,,,,,,,,,,,,
1768294531.623090,1768294531.623940,108.000000,0.000000,4343.717773,4315.000000,4316.025879,4327.436035,4297.051270,4298.589844,4286.153809,4300.384766,4305.256348,4288.717773,4482.692383,4494.230957,4368.589844,4429.358887,2309.000000,2.000000,42.000000,,,,0.000000,4.000000,4.000000,4.000000,4.000000,4.000000,4.000000,4.000000,4.000000,4.000000,4.000000,4.000000,4.000000,4.000000,4.000000,100.000000,,,,,,,,,,,,,,,,,,,,,,,,,,,,,,,,,,,,,,,,,,,,,,,,,,,,,,,,,,,,,,,,,,,,,,,,,,,,,,,,,,,,,,,,,,,,,,,,,,,,,,,,,,,,,,,,,,,,,
1768294531.630898,1768294531.631748,109.000000,0.000000,4330.641113,4307.692383,4311.025879,4319.230957,4293.333496,4299.102539,4280.897461,4300.384766,4301.538574,4286.538574,4479.743652,4485.256348,4361.538574,4427.307617,5477.000000,2.000000,42.000000,,,,0.000000,4.000000,4.000000,4.000000,4.000000,4.000000,4.000000,4.000000,4.000000,4.000000,4.000000,4.000000,4.000000,4.000000,4.000000,100.000000,,,,,,,,,,,,,,,,,,,,,,,,,,,,,,,,,,,,,,,,,,,,,,,,,,,,,,,,,,,,,,,,,,,,,,,,,,,,,,,,,,,,,,,,,,,,,,,,,,,,,,,,,,,,,,,,,,,,,
1768294531.638707,1768294531.639457,110.000000,0.000000,4319.615234,4310.384766,4307.436035,4321.282227,4298.461426,4301.282227,4284.102539,4289.102539,4293.717773,4278.974121,4470.384766,4473.589844,4351.794922,4412.307617,3937.000000,2.000000,42.000000,,,,0.000000,4.000000,4.000000,4.000000,4.000000,4.000000,4.000000,4.000000,4.000000,4.000000,4.000000,4.000000,4.000000,4.000000,4.000000,100.000000,,,,,,,,,,,,,,,,,,,,,,,,,,,,,,,,,,,,,,,,,,,,,,,,1.285267,0.430810,0.241878,0.282906,0.185328,3.884423,0.730205,0.245518,0.185780,0.220649,1.297803,0.381379,0.270375,0.270889,0.186708,0.540006,0.247002,0.142792,0.172317,0.110179,0.905024,0.171768,0.155719,0.098253,0.059618,0.177867,0.192657,0.153522,0.070485,0.088066,0.569241,0.572147,0.446810,0.170420,0.289348,0.851035,0.632706,0.395436,0.438881,0.252577,0.526971,0.259670,0.133980,0.184234,0.080682,1.386732,0.272177,0.311689,0.221473,0.161985,0.418307,0.152360,0.153916,0.113192,0.090230,2.724828,0.815731,0.379212,0.596302,0.244835,1.307614,0.197132,0.111689,0.207957,0.342239,1.789874,0.519928,0.273740,0.240060,0.249610
1768294531.646515,1768294531.647265,111.000000,0.000000,4334.615234,4316.538574,4320.256348,4326.922852,4299.743652,4300.000000,4288.205078,4293.589844,4297.820313,4275.000000,4472.692383,4481.666504,4358.077148,4416.153809,4706.000000,2.000000,42.000000,,,,0.000000,4.000000,4.000000,4.000000,4.000000,4.000000,4.000000,4.000000,4.000000,4.000000,4.000000,4.000000,4.000000,4.000000,4.000000,100.000000,,,,,,,,,,,,,,,,,,,,,,,,,,,,,,,,,,,,,,,,,,,,,,,,,,,,,,,,,,,,,,,,,,,,,,,,,,,,,,,,,,,,,,,,,,,,,,,,,,,,,,,,,,,,,,,,,,,,,
1768294531.654323,1768294531.654874,112.000000,0.000000,4349.743652,4316.410156,4328.205078,4327.692383,4298.461426,4300.128418,4291.282227,4306.025879,4304.487305,4279.743652,4481.282227,4497.692383,4367.948730,4432.820313,2309.000000,2.000000,42.000000,,,,0.000000,4.000000,4.000000,4.000000,4.000000,4.000000,4.000000,4.000000,4.000000,4.000000,4.000000,4.000000,4.000000,4.000000,4.000000,100.000000,,,,,,,,,,,,,,,,,,,,,,,,,,,,,,,,,,,,,,,,,,,,,,,,,,,,,,,,,,,,,,,,,,,,,,,,,,,,,,,,,,,,,,,,,,,,,,,,,,,,,,,,,,,,,,,,,,,,,
1768294531.662132,1768294531.662682,113.000000,0.000000,4353.205078,4322.051270,4319.615234,4329.615234,4299.871582,4299.871582,4287.307617,4291.794922,4297.307617,4281.538574,4478.589844,4492.563965,4366.282227,4433.717773,5477.000000,2.000000,42.000000,,,,0.000000,4.000000,4.000000,4.000000,4.000000,4.000000,4.000000,4.000000,4.000000,4.000000,4.000000,4.000000,4.000000,4.000000,4.000000,100.000000,,,,,,,,,,,,,,,,,,,,,,,,,,,,,,,,,,,,,,,,,,,,,,,,,,,,,,,,,,,,,,,,,,,,,,,,,,,,,,,,,,,,,,,,,,,,,,,,,,,,,,,,,,,,,,,,,,,,,
1768294531.669940,1768294531.670391,114.000000,0.000000,4352.820313,4320.769043,4318.077148,4329.358887,4298.077148,4297.948730,4281.410156,4273.974121,4291.153809,4279.743652,4473.974121,4484.102539,4365.128418,4429.102539,3937.000000,2.000000,42.000000,,,,0.000000,4.000000,4.000000,4.000000,4.000000,4.000000,4.000000,4.000000,4.000000,4.000000,4.000000,4.000000,4.000000,4.000000,4.000000,100.000000,,,,,,,,,,,,,,,,,,,,,,,,,,,,,,,,,,,,,,,,,,,,,,,,,,,,,,,,,,,,,,,,,,,,,,,,,,,,,,,,,,,,,,,,,,,,,,,,,,,,,,,,,,,,,,,,,,,,,
1768294531.677749,1768294531.678199,115.000000,0.000000,4346.282227,4305.769043,4327.563965,4325.384766,4298.974121,4299.871582,4285.641113,4287.436035,4298.974121,4284.230957,4478.333496,4498.333496,4370.641113,4436.282227,4706.000000,2.000000,42.000000,,,,0.000000,4.000000,4.000000,4.000000,4.000000,4.000000,4.000000,4.000000,4.000000,4.000000,4.000000,4.000000,4.000000,4.000000,4.000000,100.000000,,,,,,,,,,,,,,,,,,,,,,,,,,,,,,,,,,,,,,,,,,,,,,,,,,,,,,,,,,,,,,,,,,,,,,,,,,,,,,,,,,,,,,,,,,,,,,,,,,,,,,,,,,,,,,,,,,,,,
1768294531.685557,1768294531.685808,116.000000,0.000000,4342.948730,4309.871582,4328.717773,4331.025879,4304.743652,4300.641113,4289.743652,4299.487305,4302.820313,4283.974121,4479.230957,4502.820313,4369.743652,4438.589844,2309.000000,2.000000,42.000000,,,,0.000000,4.000000,4.000000,4.000000,4.000000,4.000000,4.000000,4.000000,4.000000,4.000000,4.000000,4.000000,4.000000,4.000000,4.000000,100.000000,,,,,,,,,,,,,,,,,,,,,,,,,,,,,,,,,,,,,,,,,,,,,,,,,,,,,,,,,,,,,,,,,,,,,,,,,,,,,,,,,,,,,,,,,,,,,,,,,,,,,,,,,,,,,,,,,,,,,
1768294531.693366,1768294531.693616,117.000000,0.000000,4350.769043,4328.205078,4325.000000,4336.282227,4303.717773,4301.794922,4291.922852,4291.794922,4297.563965,4277.563965,4475.512695,4488.846191,4361.922852,4431.282227,5477.000000,2.000000,42.000000,,,,0.000000,4.000000,4.000000,4.000000,4.000000,4.000000,4.000000,4.000000,4.000000,4.000000,4.000000,4.000000,4.000000,4.000000,4.000000,100.000000,,,,,,,,,,,,,,,,,,,,,,,,,,,,,,,,,,,,,,,,,,,,,,,,,,,,,,,,,,,,,,,,,,,,,,,,,,,,,,,,,,,,,,,,,,,,,,,,,,,,,,,,,,,,,,,,,,,,,
1768294531.701174,1768294531.701325,118.000000,0.000000,4359.102539,4330.512695,4329.358887,4331.666504,4301.025879,4305.256348,4297.307617,4293.974121,4298.589844,4281.410156,4477.436035,4495.384766,4363.333496,4433.717773,3937.000000,2.000000,42.000000,,,,0.000000,4.000000,4.000000,4.000000,4.000000,4.000000,4.000000,4.000000,4.000000,4.000000,4.000000,4.000000,4.000000,4.000000,4.000000,100.000000,,,,,,,,,,,,,,,,,,,,,,,,,,,,,,,,,,,,,,,,,,,,,,,,,,,,,,,,,,,,,,,,,,,,,,,,,,,,,,,,,,,,,,,,,,,,,,,,,,,,,,,,,,,,,,,,,,,,,
1768294531.708983,1768294531.709133,119.000000,0.000000,4355.256348,4321.153809,4331.666504,4327.820313,4302.436035,4302.179688,4293.846191,4298.846191,4301.025879,4286.922852,4477.948730,4505.769043,4370.897461,4437.948730,4706.000000,2.000000,42.000000,,,,0.000000,4.000000,4.000000,4.000000,4.000000,4.000000,4.000000,4.000000,4.000000,4.000000,4.000000,4.000000,4.000000,4.000000,4.000000,100.000000,,,,,,,,,,,,,,,,,,,,,,,,,,,,,,,,,,,,,,,,,,,,,,,,,,,,,,,,,,,,,,,,,,,,,,,,,,,,,,,,,,,,,,,,,,,,,,,,,,,,,,,,,,,,,,,,,,,,,
1768294531.716791,1768294531.716742,120.000000,0.000000,4347.948730,4318.589844,4328.589844,4329.871582,4301.282227,4299.487305,4286.153809,4296.025879,4300.512695,4283.717773,4477.307617,4497.563965,4372.948730,4431.922852,2309.000000,2.000000,42.000000,,,,0.000000,4.000000,4.000000,4.000000,4.000000,4.000000,4.000000,4.000000,4.000000,4.000000,4.000000,4.000000,4.000000,4.000000,4.000000,100.000000,,,,,,,,,,,,,,,,,,,,,,,,,,,,,,,,,,,,,,,,,,,,,,,,,,,,,,,,,,,,,,,,,,,,,,,,,,,,,,,,,,,,,,,,,,,,,,,,,,,,,,,,,,,,,,,,,,,,,
1768294531.724599,1768294531.724551,121.000000,0.000000,4342.307617,4320.641113,4327.051270,4333.974121,4300.128418,4303.717773,4289.871582,4300.000000,4301.538574,4285.512695,4478.974121,4496.025879,4369.743652,4427.948730,5477.000000,2.000000,42.000000,,,,0.000000,4.000000,4.000000,4.000000,4.000000,4.000000,4.000000,4.000000,4.000000,4.000000,4.000000,4.000000,4.000000,4.000000,4.000000,100.000000,,,,,,,,,,,,,,,,,,,,,,,,,,,,,,,,,,,,,,,,,,,,,,,,,,,,,,,,,,,,,,,,,,,,,,,,,,,,,,,,,,,,,,,,,,,,,,,,,,,,,,,,,,,,,,,,,,,,,
1768294531.732408,1768294531.732459,122.000000,0.000000,4343.077148,4322.179688,4325.000000,4334.230957,4302.051270,4305.384766,4294.615234,4304.230957,4301.794922,4285.384766,4478.717773,4501.153809,4369.871582,4430.897461,3937.000000,2.000000,42.000000,,,,0.000000,4.000000,4.000000,4.000000,4.000000,4.000000,4.000000,4.000000,4.000000,4.000000,4.000000,4.000000,4.000000,4.000000,4.000000,100.000000,,,,,,,,,,,,,,,,,,,,,,,,,,,,,,,,,,,,,,,,,,,,,,,,,,,,,,,,,,,,,,,,,,,,,,,,,,,,,,,,,,,,,,,,,,,,,,,,,,,,,,,,,,,,,,,,,,,,,
1768294531.740216,1768294531.740267,123.000000,0.000000,4350.000000,4322.436035,4326.282227,4329.358887,4303.974121,4304.102539,4293.205078,4301.410156,4301.153809,4283.077148,4479.487305,4498.974121,4375.256348,4436.153809,4706.000000,2.000000,42.000000,,,,0.000000,4.000000,4.000000,4.000000,4.000000,4.000000,4.000000,4.000000,4.000000,4.000000,4.000000,4.000000,4.000000,4.000000,4.000000,100.000000,,,,,,,,,,,,,,,,,,,,,,,,,,,,,,,,,,,,,,,,,,,,,,,,,,,,,,,,,,,,,,,,,,,,,,,,,,,,,,,,,,,,,,,,,,,,,,,,,,,,,,,,,,,,,,,,,,,,,
1768294531.748025,1768294531.748276,124.000000,0.000000,4345.641113,4320.769043,4328.461426,4324.743652,4304.487305,4305.128418,4291.666504,4297.948730,4300.000000,4285.512695,4481.282227,4497.563965,4376.794922,4434.487305,2309.000000,2.000000,42.000000,,,,0.000000,4.000000,4.000000,4.000000,4.000000,4.000000,4.000000,4.000000,4.000000,4.000000,4.000000,4.000000,4.000000,4.000000,4.000000,100.000000,,,,,,,,,,,,,,,,,,,,,,,,,,,,,,,,,,,,,,,,,,,,,,,,,,,,,,,,,,,,,,,,,,,,,,,,,,,,,,,,,,,,,,,,,,,,,,,,,,,,,,,,,,,,,,,,,,,,,
1768294531.755833,1768294531.756084,125.000000,0.000000,4343.589844,4324.743652,4328.333496,4326.410156,4306.410156,4306.410156,4294.358887,4298.589844,4301.922852,4287.051270,4482.051270,4504.102539,4376.666504,4435.256348,5477.000000,2.000000,42.000000,,,,0.000000,4.000000,4.000000,4.000000,4.000000,4.000000,4.000000,4.000000,4.000000,4.000000,4.000000,4.000000,4.000000,4.000000,4.000000,100.000000,,,,,,,,,,,,,,,,,,,,,,,,,,,,,,,,,,,,,,,,,,,,,,,,,,,,,,,,,,,,,,,,,,,,,,,,,,,,,,,,,,,,,,,,,,,,,,,,,,,,,,,,,,,,,,,,,,,,,
1768294531.763641,1768294531.763992,126.000000,0.000000,4349.871582,4328.974121,4328.589844,4330.128418,4306.410156,4308.589844,4299.230957,4304.358887,4307.051270,4291.666504,4484.487305,4511.666504,4380.384766,4443.077148,3937.000000,2.000000,42.000000,,,,0.000000,4.000000,4.000000,4.000000,4.000000,4.000000,4.000000,4.000000,4.000000,4.000000,4.000000,4.000000,4.000000,4.000000,4.000000,100.000000,,,,,,,,,,,,,,,,,,,,,,,,,,,,,,,,,,,,,,,,,,,,,,,,1.494130,0.425113,0.194462,0.309764,0.182985,3.703357,0.721956,0.192602,0.182821,0.211360,1.723860,0.302898,0.250655,0.277942,0.186598,0.723004,0.246131,0.129440,0.188582,0.111628,1.070465,0.185669,0.174339,0.088806,0.060197,0.224006,0.195674,0.138811,0.067303,0.087288,0.666689,0.463322,0.375105,0.178422,0.310245,0.930536,0.535528,0.389948,0.409100,0.253425,0.569809,0.220516,0.123503,0.166299,0.089193,1.493014,0.221713,0.277036,0.240073,0.163674,0.518368,0.136519,0.121468,0.090652,0.098603,3.394068,0.642507,0.293739,0.558330,0.281046,1.552661,0.179554,0.127323,0.194357,0.373214,2.307703,0.414543,0.221769,0.232528,0.302895
1768294531.771450,1768294531.771801,127.000000,0.000000,4347.692383,4328.717773,4332.692383,4334.871582,4306.666504,4310.512695,4302.051270,4310.128418,4308.717773,4299.102539,4488.974121,4516.282227,4385.641113,4446.153809,42.000000,2.000000,42.000000,,,,0.000000,4.000000,4.000000,4.000000,4.000000,4.000000,4.000000,4.000000,4.000000,4.000000,4.000000,4.000000,4.000000,4.000000,4.000000,100.000000,,,,,,,,,,,,,,,,,,,,,,,,,,,,,,,,,,,,,,,,,,,,,,,,,,,,,,,,,,,,,,,,,,,,,,,,,,,,,,,,,,,,,,,,,,,,,,,,,,,,,,,,,,,,,,,,,,,,,
1768294531.779258,1768294531.779409,0.000000,0.000000,4346.025879,4330.769043,4341.282227,4341.922852,4313.589844,4311.794922,4306.025879,4316.410156,4310.769043,4304.615234,4492.179688,4526.794922,4392.948730,4450.128418,4215.000000,2.000000,42.000000,,,,0.000000,4.000000,4.000000,4.000000,4.000000,4.000000,4.000000,4.000000,4.000000,4.000000,4.000000,4.000000,4.000000,4.000000,4.000000,100.000000,,,,,,,,,,,,,,,,,,,,,,,,,,,,,,,,,,,,,,,,,,,,,,,,,,,,,,,,,,,,,,,,,,,,,,,,,,,,,,,,,,,,,,,,,,,,,,,,,,,,,,,,,,,,,,,,,,,,,
1768294531.787067,1768294531.787218,1.000000,0.000000,4353.974121,4332.307617,4342.948730,4343.077148,4318.077148,4312.820313,4305.384766,4316.794922,4313.846191,4305.256348,4489.358887,4530.769043,4394.743652,4453.717773,3869.000000,2.000000,42.000000,,,,0.000000,4.000000,4.000000,4.000000,4.000000,4.000000,4.000000,4.000000,4.000000,4.000000,4.000000,4.000000,4.000000,4.000000,4.000000,100.000000,,,,,,,,,,,,,,,,,,,,,,,,,,,,,,,,,,,,,,,,,,,,,,,,,,,,,,,,,,,,,,,,,,,,,,,,,,,,,,,,,,,,,,,,,,,,,,,,,,,,,,,,,,,,,,,,,,,,,
1768294531.794875,1768294531.794926,2.000000,0.000000,4353.461426,4331.410156,4339.358887,4339.487305,4315.897461,4311.666504,4306.025879,4315.897461,4312.179688,4301.794922,4486.538574,4523.461426,4391.794922,4450.769043,4031.000000,2.000000,42.000000,,,,0.000000,4.000000,4.000000,4.000000,4.000000,4.000000,4.000000,4.000000,4.000000,4.000000,4.000000,4.000000,4.000000,4.000000,4.000000,100.000000,,,,,,,,,,,,,,,,,,,,,,,,,,,,,,,,,,,,,,,,,,,,,,,,,,,,,,,,,,,,,,,,,,,,,,,,,,,,,,,,,,,,,,,,,,,,,,,,,,,,,,,,,,,,,,,,,,,,,
1768294531.802684,1768294531.802735,3.000000,0.000000,4350.000000,4333.205078,4346.538574,4343.717773,4316.538574,4316.538574,4321.025879,4330.769043,4314.487305,4302.692383,4494.102539,4533.077148,4394.871582,4455.512695,3917.000000,2.000000,42.000000,,,,0.000000,4.000000,4.000000,4.000000,4.000000,4.000000,4.000000,4.000000,4.000000,4.000000,4.000000,4.000000,4.000000,4.000000,4.000000,100.000000,,,,,,,,,,,,,,,,,,,,,,,,,,,,,,,,,,,,,,,,,,,,,,,,,,,,,,,,,,,,,,,,,,,,,,,,,,,,,,,,,,,,,,,,,,,,,,,,,,,,,,,,,,,,,,,,,,,,,
1768294531.810492,1768294531.810743,4.000000,0.000000,4361.282227,4338.589844,4356.025879,4348.333496,4320.256348,4317.179688,4324.871582,4336.282227,4317.820313,4308.077148,4497.051270,4548.077148,4401.538574,4465.128418,3797.000000,2.000000,42.000000,,,,0.000000,4.000000,4.000000,4.000000,4.000000,4.000000,4.000000,4.000000,4.000000,4.000000,4.000000,4.000000,4.000000,4.000000,4.000000,100.000000,,,,,,,,,,,,,,,,,,,,,,,,,,,,,,,,,,,,,,,,,,,,,,,,,,,,,,,,,,,,,,,,,,,,,,,,,,,,,,,,,,,,,,,,,,,,,,,,,,,,,,,,,,,,,,,,,,,,,
1768294531.818301,1768294531.818552,5.000000,0.000000,4367.436035,4339.102539,4352.051270,4343.333496,4318.974121,4307.948730,4305.512695,4315.897461,4310.512695,4305.641113,4486.666504,4534.358887,4402.051270,4461.666504,3037.000000,2.000000,42.000000,,,,0.000000,4.000000,4.000000,4.000000,4.000000,4.000000,4.000000,4.000000,4.000000,4.000000,4.000000,4.000000,4.000000,4.000000,4.000000,100.000000,,,,,,,,,,,,,,,,,,,,,,,,,,,,,,,,,,,,,,,,,,,,,,,,,,,,,,,,,,,,,,,,,,,,,,,,,,,,,,,,,,,,,,,,,,,,,,,,,,,,,,,,,,,,,,,,,,,,,
1768294531.826109,1768294531.826460,6.000000,0.000000,4368.717773,4340.769043,4350.000000,4344.230957,4320.000000,4306.153809,4298.205078,4309.358887,4310.512695,4303.717773,4487.436035,4527.051270,4407.820313,4461.153809,3453.000000,2.000000,42.000000,,,,0.000000,4.000000,4.000000,4.000000,4.000000,4.000000,4.000000,4.000000,4.000000,4.000000,4.000000,4.000000,4.000000,4.000000,4.000000,100.000000,,,,,,,,,,,,,,,,,,,,,,,,,,,,,,,,,,,,,,,,,,,,,,,,,,,,,,,,,,,,,,,,,,,,,,,,,,,,,,,,,,,,,,,,,,,,,,,,,,,,,,,,,,,,,,,,,,,,,
1768294531.833918,1768294531.834268,7.000000,0.000000,4375.512695,4347.051270,4359.743652,4353.333496,4326.794922,4314.487305,4315.000000,4325.769043,4320.512695,4313.717773,4502.563965,4547.307617,4421.794922,4481.282227,3578.000000,2.000000,42.000000,,,,0.000000,4.000000,4.000000,4.000000,4.000000,4.000000,4.000000,4.000000,4.000000,4.000000,4.000000,4.000000,4.000000,4.000000,4.000000,100.000000,,,,,,,,,,,,,,,,,,,,,,,,,,,,,,,,,,,,,,,,,,,,,,,,,,,,,,,,,,,,,,,,,,,,,,,,,,,,,,,,,,,,,,,,,,,,,,,,,,,,,,,,,,,,,,,,,,,,,
1768294531.841726,1768294531.842277,8.000000,0.000000,4371.153809,4343.974121,4360.128418,4352.179688,4327.436035,4318.077148,4323.589844,4323.205078,4317.307617,4313.717773,4501.794922,4546.025879,4420.128418,4484.487305,2735.000000,2.000000,42.000000,,,,0.000000,4.000000,4.000000,4.000000,4.000000,4.000000,4.000000,4.000000,4.000000,4.000000,4.000000,4.000000,4.000000,4.000000,4.000000,100.000000,,,,,,,,,,,,,,,,,,,,,,,,,,,,,,,,,,,,,,,,,,,,,,,,,,,,,,,,,,,,,,,,,,,,,,,,,,,,,,,,,,,,,,,,,,,,,,,,,,,,,,,,,,,,,,,,,,,,,
1768294531.849534,1768294531.850085,9.000000,0.000000,4364.743652,4339.487305,4354.487305,4349.615234,4325.256348,4316.153809,4317.179688,4308.077148,4311.538574,4312.820313,4493.333496,4533.589844,4414.743652,4470.000000,3535.000000,2.000000,42.000000,,,,0.000000,4.000000,4.000000,4.000000,4.000000,4.000000,4.000000,4.000000,4.000000,4.000000,4.000000,4.000000,4.000000,4.000000,4.000000,100.000000,,,,,,,,,,,,,,,,,,,,,,,,,,,,,,,,,,,,,,,,,,,,,,,,,,,,,,,,,,,,,,,,,,,,,,,,,,,,,,,,,,,,,,,,,,,,,,,,,,,,,,,,,,,,,,,,,,,,,
1768294531.857343,1768294531.857794,10.000000,0.000000,4381.025879,4353.717773,4367.692383,4364.358887,4332.436035,4320.256348,4325.256348,4324.487305,4324.230957,4335.000000,4507.820313,4562.820313,4431.666504,4484.230957,3952.000000,2.000000,42.000000,,,,0.000000,4.000000,4.000000,4.000000,4.000000,4.000000,4.000000,4.000000,4.000000,4.000000,4.000000,4.000000,4.000000,4.000000,4.000000,100.000000,,,,,,,,,,,,,,,,,,,,,,,,,,,,,,,,,,,,,,,,,,,,,,,,,,,,,,,,,,,,,,,,,,,,,,,,,,,,,,,,,,,,,,,,,,,,,,,,,,,,,,,,,,,,,,,,,,,,,
1768294531.865151,1768294531.865602,11.000000,0.000000,4400.769043,4367.692383,4385.769043,4377.179688,4340.384766,4321.538574,4341.538574,4349.102539,4337.179688,4353.461426,4521.410156,4592.436035,4451.666504,4510.769043,4716.000000,2.000000,42.000000,,,,0.000000,4.000000,4.000000,4.000000,4.000000,4.000000,4.000000,4.000000,4.000000,4.000000,4.000000,4.000000,4.000000,4.000000,4.000000,100.000000,,,,,,,,,,,,,,,,,,,,,,,,,,,,,,,,,,,,,,,,,,,,,,,,,,,,,,,,,,,,,,,,,,,,,,,,,,,,,,,,,,,,,,,,,,,,,,,,,,,,,,,,,,,,,,,,,,,,,
1768294531.872960,1768294531.873211,12.000000,0.000000,4393.077148,4360.512695,4378.205078,4367.563965,4336.025879,4315.641113,4333.205078,4339.358887,4328.846191,4340.000000,4508.461426,4575.641113,4448.589844,4504.487305,2306.000000,2.000000,42.000000,,,,0.000000,4.000000,4.000000,4.000000,4.000000,4.000000,4.000000,4.000000,4.000000,4.000000,4.000000,4.000000,4.000000,4.000000,4.000000,100.000000,,,,,,,,,,,,,,,,,,,,,,,,,,,,,,,,,,,,,,,,,,,,,,,,,,,,,,,,,,,,,,,,,,,,,,,,,,,,,,,,,,,,,,,,,,,,,,,,,,,,,,,,,,,,,,,,,,,,,
1768294531.880768,1768294531.881019,13.000000,0.000000,4376.794922,4351.538574,4362.948730,4358.589844,4328.589844,4315.000000,4319.230957,4316.153809,4313.717773,4317.436035,4495.641113,4553.846191,4433.846191,4483.717773,5482.000000,2.000000,42.000000,,,,0.000000,4.000000,4.000000,4.000000,4.000000,4.000000,4.000000,4.000000,4.000000,4.000000,4.000000,4.000000,4.000000,4.000000,4.000000,100.000000,,,,,,,,,,,,,,,,,,,,,,,,,,,,,,,,,,,,,,,,,,,,,,,,,,,,,,,,,,,,,,,,,,,,,,,,,,,,,,,,,,,,,,,,,,,,,,,,,,,,,,,,,,,,,,,,,,,,,
1768294531.888576,1768294531.888728,14.000000,0.000000,4376.153809,4354.487305,4366.666504,4363.333496,4332.820313,4318.461426,4325.897461,4320.000000,4315.512695,4319.615234,4503.077148,4561.666504,4432.307617,4487.436035,3952.000000,2.000000,42.000000,,,,0.000000,4.000000,4.000000,4.000000,4.000000,4.000000,4.000000,4.000000,4.000000,4.000000,4.000000,4.000000,4.000000,4.000000,4.000000,100.000000,1.000000,100.000000,4.000000,4.000000,4.000000,4.000000,4.000000,4.000000,4.000000,4.000000,4.000000,4.000000,4.000000,4.000000,4.000000,4.000000,,,,,,,,,,,,,,,,,,,,,,,,,,,,,,,,1.602126,0.458402,0.181113,0.364062,0.193835,3.602010,0.642323,0.173105,0.208814,0.197193,2.103026,0.275337,0.233338,0.310166,0.188416,0.955018,0.238119,0.138920,0.228250,0.122929,1.193875,0.197087,0.204716,0.092107,0.063491,0.250492,0.192640,0.130686,0.072067,0.094928,0.712039,0.403822,0.308198,0.212311,0.331753,0.974603,0.479666,0.401669,0.403887,0.273666,0.597367,0.201104,0.115956,0.159529,0.102499,1.568475,0.220582,0.283689,0.256486,0.165413,0.617230,0.134885,0.097246,0.074349,0.109343,3.949762,0.546939,0.275667,0.509367,0.337740,1.736540,0.182882,0.186077,0.196399,0.406583,2.748545,0.383768,0.219580,0.246167,0.360687
1768294531.896385,1768294531.896536,15.000000,0.000000,4378.717773,4353.205078,4369.102539,4364.358887,4336.922852,4316.282227,4325.512695,4335.384766,4324.871582,4331.153809,4508.846191,4568.589844,4436.922852,4497.307617,4716.000000,2.000000,42.000000,,,,0.000000,4.000000,4.000000,4.000000,4.000000,4.000000,4.000000,4.000000,4.000000,4.000000,4.000000,4.000000,4.000000,4.000000,4.000000,100.000000,,,,,,,,,,,,,,,,,,,,,,,,,,,,,,,,,,,,,,,,,,,,,,,,,,,,,,,,,,,,,,,,,,,,,,,,,,,,,,,,,,,,,,,,,,,,,,,,,,,,,,,,,,,,,,,,,,,,,
1768294531.904193,1768294531.904145,16.000000,0.000000,4376.153809,4349.615234,4365.512695,4360.512695,4333.077148,4311.282227,4313.717773,4328.974121,4320.512695,4325.641113,4500.000000,4555.128418,4431.025879,4489.743652,0.000000,2.000000,42.000000,,,,0.000000,4.000000,4.000000,4.000000,4.000000,4.000000,4.000000,4.000000,4.000000,4.000000,4.000000,4.000000,4.000000,4.000000,4.000000,100.000000,,,,,,,,,,,,,,,,,,,,,,,,,,,,,,,,,,,,,,,,,,,,,,,,,,,,,,,,,,,,,,,,,,,,,,,,,,,,,,,,,,,,,,,,,,,,,,,,,,,,,,,,,,,,,,,,,,,,,
1768294531.912002,1768294531.911953,17.000000,0.000000,4380.256348,4351.410156,4372.307617,4363.205078,4331.794922,4314.358887,4318.205078,4324.615234,4316.538574,4319.102539,4497.307617,4554.102539,4427.820313,4487.051270,0.000000,2.000000,42.000000,,,,0.000000,4.000000,4.000000,4.000000,4.000000,4.000000,4.000000,4.000000,4.000000,4.000000,4.000000,4.000000,4.000000,4.000000,4.000000,100.000000,,,,,,,,,,,,,,,,,,,,,,,,,,,,,,,,,,,,,,,,,,,,,,,,,,,,,,,,,,,,,,,,,,,,,,,,,,,,,,,,,,,,,,,,,,,,,,,,,,,,,,,,,,,,,,,,,,,,,
1768294531.919810,1768294531.919662,18.000000,0.000000,4382.051270,4350.384766,4371.153809,4362.436035,4333.077148,4315.641113,4322.307617,4321.666504,4318.846191,4324.358887,4501.794922,4563.077148,4438.205078,4498.589844,0.000000,2.000000,42.000000,,,,0.000000,4.000000,4.000000,4.000000,4.000000,4.000000,4.000000,4.000000,4.000000,4.000000,4.000000,4.000000,4.000000,4.000000,4.000000,100.000000,,,,,,,,,,,,,,,,,,,,,,,,,,,,,,,,,,,,,,,,,,,,,,,,,,,,,,,,,,,,,,,,,,,,,,,,,,,,,,,,,,,,,,,,,,,,,,,,,,,,,,,,,,,,,,,,,,,,,
1768294531.927619,1768294531.927470,19.000000,0.000000,4371.666504,4343.846191,4359.358887,4354.358887,4333.333496,4314.102539,4314.487305,4309.102539,4316.282227,4324.358887,4499.743652,4557.179688,4438.205078,4497.948730,0.000000,2.000000,42.000000,,,,0.000000,4.000000,4.000000,4.000000,4.000000,4.000000,4.000000,4.000000,4.000000,4.000000,4.000000,4.000000,4.000000,4.000000,4.000000,100.000000,,,,,,,,,,,,,,,,,,,,,,,,,,,,,,,,,,,,,,,,,,,,,,,,,,,,,,,,,,,,,,,,,,,,,,,,,,,,,,,,,,,,,,,,,,,,,,,,,,,,,,,,,,,,,,,,,,,,,
1768294531.935427,1768294531.935478,20.000000,0.000000,4368.846191,4341.282227,4362.820313,4354.487305,4333.461426,4316.794922,4314.615234,4319.230957,4316.666504,4317.948730,4499.102539,4551.538574,4425.000000,4484.358887,0.000000,2.000000,42.000000,,,,0.000000,4.000000,4.000000,4.000000,4.000000,4.000000,4.000000,4.000000,4.000000,4.000000,4.000000,4.000000,4.000000,4.000000,4.000000,100.000000,,,,,,,,,,,,,,,,,,,,,,,,,,,,,,,,,,,,,,,,,,,,,,,,,,,,,,,,,,,,,,,,,,,,,,,,,,,,,,,,,,,,,,,,,,,,,,,,,,,,,,,,,,,,,,,,,,,,,
1768294531.943236,1768294531.943287,21.000000,0.000000,4376.794922,4342.692383,4370.128418,4358.461426,4332.051270,4316.794922,4318.077148,4329.230957,4318.974121,4316.025879,4501.794922,4553.589844,4426.153809,4482.948730,0.000000,2.000000,42.000000,,,,0.000000,4.000000,4.000000,4.000000,4.000000,4.000000,4.000000,4.000000,4.000000,4.000000,4.000000,4.000000,4.000000,4.000000,4.000000,100.000000,,,,,,,,,,,,,,,,,,,,,,,,,,,,,,,,,,,,,,,,,,,,,,,,,,,,,,,,,,,,,,,,,,,,,,,,,,,,,,,,,,,,,,,,,,,,,,,,,,,,,,,,,,,,,,,,,,,,,
1768294531.951044,1768294531.951195,22.000000,0.000000,4366.794922,4332.692383,4359.615234,4351.153809,4330.256348,4316.794922,4316.538574,4316.666504,4317.179688,4315.256348,4498.461426,4553.333496,4432.179688,4484.358887,0.000000,2.000000,42.000000,,,,0.000000,4.000000,4.000000,4.000000,4.000000,4.000000,4.000000,4.000000,4.000000,4.000000,4.000000,4.000000,4.000000,4.000000,4.000000,100.000000,,,,,,,,,,,,,,,,,,,,,,,,,,,,,,,,,,,,,,,,,,,,,,,,,,,,,,,,,,,,,,,,,,,,,,,,,,,,,,,,,,,,,,,,,,,,,,,,,,,,,,,,,,,,,,,,,,,,,
1768294531.958852,1768294531.959004,23.000000,0.000000,4344.358887,4321.666504,4347.948730,4342.948730,4331.282227,4318.077148,4317.051270,4319.358887,4319.230957,4312.948730,4496.410156,4547.307617,4424.743652,4471.666504,0.000000,2.000000,42.000000,,,,0.000000,4.000000,4.000000,4.000000,4.000000,4.000000,4.000000,4.000000,4.000000,4.000000,4.000000,4.000000,4.000000,4.000000,4.000000,100.000000,,,,,,,,,,,,,,,,,,,,,,,,,,,,,,,,,,,,,,,,,,,,,,,,,,,,,,,,,,,,,,,,,,,,,,,,,,,,,,,,,,,,,,,,,,,,,,,,,,,,,,,,,,,,,,,,,,,,,
1768294531.966661,1768294531.967012,24.000000,0.000000,4346.922852,4332.307617,4346.153809,4347.692383,4332.051270,4317.051270,4317.051270,4329.358887,4320.897461,4311.538574,4494.743652,4539.487305,4419.871582,4463.589844,0.000000,2.000000,42.000000,,,,0.000000,4.000000,4.000000,4.000000,4.000000,4.000000,4.000000,4.000000,4.000000,4.000000,4.000000,4.000000,4.000000,4.000000,4.000000,100.000000,,,,,,,,,,,,,,,,,,,,,,,,,,,,,,,,,,,,,,,,,,,,,,,,,,,,,,,,,,,,,,,,,,,,,,,,,,,,,,,,,,,,,,,,,,,,,,,,,,,,,,,,,,,,,,,,,,,,,
1768294531.974469,1768294531.974820,25.000000,0.000000,4366.922852,4351.922852,4349.871582,4357.307617,4331.025879,4317.436035,4316.922852,4318.205078,4315.641113,4310.769043,4490.512695,4535.769043,4424.230957,4474.230957,0.000000,2.000000,42.000000,,,,0.000000,4.000000,4.000000,4.000000,4.000000,4.000000,4.000000,4.000000,4.000000,4.000000,4.000000,4.000000,4.000000,4.000000,4.000000,100.000000,,,,,,,,,,,,,,,,,,,,,,,,,,,,,,,,,,,,,,,,,,,,,,,,,,,,,,,,,,,,,,,,,,,,,,,,,,,,,,,,,,,,,,,,,,,,,,,,,,,,,,,,,,,,,,,,,,,,,
1768294531.982278,1768294531.982529,26.000000,0.000000,4370.000000,4358.205078,4356.794922,4360.000000,4330.256348,4320.000000,4321.794922,4318.077148,4314.487305,4310.128418,4492.563965,4537.948730,4429.871582,4480.641113,0.000000,2.000000,42.000000,,,,0.000000,4.000000,4.000000,4.000000,4.000000,4.000000,4.000000,4.000000,4.000000,4.000000,4.000000,4.000000,4.000000,4.000000,4.000000,100.000000,,,,,,,,,,,,,,,,,,,,,,,,,,,,,,,,,,,,,,,,,,,,,,,,,,,,,,,,,,,,,,,,,,,,,,,,,,,,,,,,,,,,,,,,,,,,,,,,,,,,,,,,,,,,,,,,,,,,,
1768294531.990086,1768294531.990337,27.000000,0.000000,4360.384766,4356.922852,4357.051270,4355.128418,4329.487305,4319.615234,4319.871582,4329.743652,4317.307617,4309.871582,4495.512695,4537.307617,4428.846191,4472.307617,0.000000,2.000000,42.000000,,,,0.000000,4.000000,4.000000,4.000000,4.000000,4.000000,4.000000,4.000000,4.000000,4.000000,4.000000,4.000000,4.000000,4.000000,4.000000,100.000000,,,,,,,,,,,,,,,,,,,,,,,,,,,,,,,,,,,,,,,,,,,,,,,,,,,,,,,,,,,,,,,,,,,,,,,,,,,,,,,,,,,,,,,,,,,,,,,,,,,,,,,,,,,,,,,,,,,,,
1768294531.997894,1768294531.998346,28.000000,0.000000,4356.666504,4360.128418,4348.974121,4351.282227,4325.512695,4316.922852,4313.461426,4324.871582,4315.769043,4310.897461,4494.102539,4532.436035,4424.230957,4466.922852,0.000000,2.000000,42.000000,,,,0.000000,4.000000,4.000000,4.000000,4.000000,4.000000,4.000000,4.000000,4.000000,4.000000,4.000000,4.000000,4.000000,4.000000,4.000000,100.000000,,,,,,,,,,,,,,,,,,,,,,,,,,,,,,,,,,,,,,,,,,,,,,,,,,,,,,,,,,,,,,,,,,,,,,,,,,,,,,,,,,,,,,,,,,,,,,,,,,,,,,,,,,,,,,,,,,,,,
1768294532.005703,1768294532.006154,29.000000,0.000000,4356.410156,4368.461426,4345.512695,4355.512695,4322.307617,4317.051270,4315.769043,4315.769043,4315.000000,4314.743652,4493.974121,4535.256348,4425.256348,4468.974121,0.000000,2.000000,42.000000,,,,0.000000,4.000000,4.000000,4.000000,4.000000,4.000000,4.000000,4.000000,4.000000,4.000000,4.000000,4.000000,4.000000,4.000000,4.000000,100.000000,,,,,,,,,,,,,,,,,,,,,,,,,,,,,,,,,,,,,,,,,,,,,,,,,,,,,,,,,,,,,,,,,,,,,,,,,,,,,,,,,,,,,,,,,,,,,,,,,,,,,,,,,,,,,,,,,,,,,
1768294532.013511,1768294532.014062,30.000000,0.000000,4354.743652,4376.666504,4348.461426,4359.102539,4322.692383,4314.615234,4316.538574,4314.615234,4317.692383,4317.692383,4493.974121,4540.512695,4427.692383,4470.128418,0.000000,2.000000,42.000000,,,,0.000000,4.000000,4.000000,4.000000,4.000000,4.000000,4.000000,4.000000,4.000000,4.000000,4.000000,4.000000,4.000000,4.000000,4.000000,100.000000,,,,,,,,,,,,,,,,,,,,,,,,,,,,,,,,,,,,,,,,,,,,,,,,1.607262,0.564709,0.205463,0.444225,0.221620,3.523076,0.518212,0.191778,0.267909,0.189338,2.346879,0.303364,0.219890,0.363105,0.193719,1.165844,0.231819,0.167409,0.288882,0.145195,1.248166,0.206642,0.238381,0.109446,0.069520,0.250412,0.182012,0.139075,0.085249,0.110325,0.701223,0.383749,0.283382,0.264165,0.355938,0.971962,0.458469,0.466004,0.423578,0.318173,0.594955,0.202614,0.114654,0.162503,0.119805,1.628937,0.272963,0.341679,0.270699,0.165979,0.703334,0.147526,0.086650,0.066828,0.122865,4.229292,0.539103,0.323934,0.458801,0.411311,1.829905,0.213467,0.281938,0.214876,0.435005,2.982894,0.461273,0.281229,0.281635,0.416007
1768294532.021320,1768294532.021871,31.000000,0.000000,4357.179688,4377.692383,4353.205078,4358.205078,4324.615234,4313.461426,4312.563965,4317.179688,4318.717773,4319.358887,4495.000000,4543.205078,4427.820313,4473.589844,0.000000,2.000000,42.000000,,,,0.000000,4.000000,4.000000,4.000000,4.000000,4.000000,4.000000,4.000000,4.000000,4.000000,4.000000,4.000000,4.000000,4.000000,4.000000,100.000000,,,,,,,,,,,,,,,,,,,,,,,,,,,,,,,,,,,,,,,,,,,,,,,,,,,,,,,,,,,,,,,,,,,,,,,,,,,,,,,,,,,,,,,,,,,,,,,,,,,,,,,,,,,,,,,,,,,,,
1768294532.029128,1768294532.029679,32.000000,0.000000,4356.153809,4372.179688,4355.000000,4356.025879,4327.051270,4318.077148,4318.077148,4320.128418,4318.333496,4321.538574,4493.333496,4540.384766,4424.358887,4472.948730,0.000000,2.000000,42.000000,,,,0.000000,4.000000,4.000000,4.000000,4.000000,4.000000,4.000000,4.000000,4.000000,4.000000,4.000000,4.000000,4.000000,4.000000,4.000000,100.000000,,,,,,,,,,,,,,,,,,,,,,,,,,,,,,,,,,,,,,,,,,,,,,,,,,,,,,,,,,,,,,,,,,,,,,,,,,,,,,,,,,,,,,,,,,,,,,,,,,,,,,,,,,,,,,,,,,,,,
1768294532.036937,1768294532.037488,33.000000,0.000000,4348.077148,4369.102539,4348.077148,4351.282227,4325.897461,4320.256348,4322.820313,4320.384766,4317.436035,4316.666504,4488.077148,4536.282227,4420.641113,4462.051270,0.000000,2.000000,42.000000,,,,0.000000,4.000000,4.000000,4.000000,4.000000,4.000000,4.000000,4.000000,4.000000,4.000000,4.000000,4.000000,4.000000,4.000000,4.000000,100.000000,,,,,,,,,,,,,,,,,,,,,,,,,,,,,,,,,,,,,,,,,,,,,,,,,,,,,,,,,,,,,,,,,,,,,,,,,,,,,,,,,,,,,,,,,,,,,,,,,,,,,,,,,,,,,,,,,,,,,
1768294532.044745,1768294532.045196,34.000000,0.000000,4345.897461,4372.692383,4341.153809,4352.563965,4323.461426,4317.436035,4315.256348,4320.128418,4317.179688,4311.153809,4487.692383,4542.563965,4423.974121,4460.641113,0.000000,2.000000,42.000000,,,,0.000000,4.000000,4.000000,4.000000,4.000000,4.000000,4.000000,4.000000,4.000000,4.000000,4.000000,4.000000,4.000000,4.000000,4.000000,100.000000,,,,,,,,,,,,,,,,,,,,,,,,,,,,,,,,,,,,,,,,,,,,,,,,,,,,,,,,,,,,,,,,,,,,,,,,,,,,,,,,,,,,,,,,,,,,,,,,,,,,,,,,,,,,,,,,,,,,,
1768294532.052553,1768294532.053005,35.000000,0.000000,4355.128418,4380.000000,4345.000000,4361.282227,4326.922852,4316.666504,4318.717773,4331.410156,4323.974121,4314.615234,4492.307617,4550.512695,4429.743652,4470.384766,0.000000,2.000000,42.000000,,,,0.000000,4.000000,4.000000,4.000000,4.000000,4.000000,4.000000,4.000000,4.000000,4.000000,4.000000,4.000000,4.000000,4.000000,4.000000,100.000000,,,,,,,,,,,,,,,,,,,,,,,,,,,,,,,,,,,,,,,,,,,,,,,,,,,,,,,,,,,,,,,,,,,,,,,,,,,,,,,,,,,,,,,,,,,,,,,,,,,,,,,,,,,,,,,,,,,,,
1768294532.060362,1768294532.061013,36.000000,0.000000,4359.230957,4378.589844,4350.128418,4362.820313,4332.436035,4317.692383,4325.000000,4337.179688,4328.333496,4319.102539,4494.230957,4547.051270,4427.948730,4470.512695,0.000000,2.000000,42.000000,,,,0.000000,4.000000,4.000000,4.000000,4.000000,4.000000,4.000000,4.000000,4.000000,4.000000,4.000000,4.000000,4.000000,4.000000,4.000000,100.000000,,,,,,,,,,,,,,,,,,,,,,,,,,,,,,,,,,,,,,,,,,,,,,,,,,,,,,,,,,,,,,,,,,,,,,,,,,,,,,,,,,,,,,,,,,,,,,,,,,,,,,,,,,,,,,,,,,,,,
1768294532.068170,1768294532.068821,37.000000,0.000000,4355.256348,4370.897461,4351.025879,4358.717773,4331.922852,4318.333496,4319.871582,4322.692383,4320.897461,4319.230957,4494.230957,4542.692383,4422.436035,4465.384766,0.000000,2.000000,42.000000,,,,0.000000,4.000000,4.000000,4.000000,4.000000,4.000000,4.000000,4.000000,4.000000,4.000000,4.000000,4.000000,4.000000,4.000000,4.000000,100.000000,,,,,,,,,,,,,,,,,,,,,,,,,,,,,,,,,,,,,,,,,,,,,,,,,,,,,,,,,,,,,,,,,,,,,,,,,,,,,,,,,,,,,,,,,,,,,,,,,,,,,,,,,,,,,,,,,,,,,
1768294532.075979,1768294532.076530,38.000000,0.000000,4358.205078,4370.256348,4353.589844,4360.384766,4332.307617,4323.589844,4321.922852,4322.051270,4320.128418,4324.743652,4499.230957,4552.436035,4426.794922,4473.205078,0.000000,2.000000,42.000000,,,,0.000000,4.000000,4.000000,4.000000,4.000000,4.000000,4.000000,4.000000,4.000000,4.000000,4.000000,4.000000,4.000000,4.000000,4.000000,100.000000,,,,,,,,,,,,,,,,,,,,,,,,,,,,,,,,,,,,,,,,,,,,,,,,,,,,,,,,,,,,,,,,,,,,,,,,,,,,,,,,,,,,,,,,,,,,,,,,,,,,,,,,,,,,,,,,,,,,,
1768294532.083787,1768294532.084338,39.000000,0.000000,4358.846191,4369.102539,4352.436035,4360.769043,4334.230957,4324.358887,4327.948730,4339.871582,4331.282227,4333.205078,4504.871582,4562.692383,4434.487305,4483.974121,0.000000,2.000000,42.000000,,,,0.000000,4.000000,4.000000,4.000000,4.000000,4.000000,4.000000,4.000000,4.000000,4.000000,4.000000,4.000000,4.000000,4.000000,4.000000,100.000000,,,,,,,,,,,,,,,,,,,,,,,,,,,,,,,,,,,,,,,,,,,,,,,,,,,,,,,,,,,,,,,,,,,,,,,,,,,,,,,,,,,,,,,,,,,,,,,,,,,,,,,,,,,,,,,,,,,,,
1768294532.091596,1768294532.091947,40.000000,0.000000,4348.717773,4359.615234,4346.153809,4355.000000,4328.974121,4317.051270,4321.666504,4343.077148,4330.512695,4331.922852,4502.692383,4557.307617,4432.307617,4482.436035,0.000000,2.000000,42.000000,,,,0.000000,4.000000,4.000000,4.000000,4.000000,4.000000,4.000000,4.000000,4.000000,4.000000,4.000000,4.000000,4.000000,4.000000,4.000000,100.000000,,,,,,,,,,,,,,,,,,,,,,,,,,,,,,,,,,,,,,,,,,,,,,,,,,,,,,,,,,,,,,,,,,,,,,,,,,,,,,,,,,,,,,,,,,,,,,,,,,,,,,,,,,,,,,,,,,,,,
1768294532.099404,1768294532.099756,41.000000,0.000000,4346.282227,4356.794922,4346.153809,4354.871582,4324.487305,4314.358887,4313.589844,4336.922852,4325.000000,4327.307617,4496.666504,4555.000000,4425.512695,4480.256348,0.000000,2.000000,42.000000,,,,0.000000,4.000000,4.000000,4.000000,4.000000,4.000000,4.000000,4.000000,4.000000,4.000000,4.000000,4.000000,4.000000,4.000000,4.000000,100.000000,,,,,,,,,,,,,,,,,,,,,,,,,,,,,,,,,,,,,,,,,,,,,,,,,,,,,,,,,,,,,,,,,,,,,,,,,,,,,,,,,,,,,,,,,,,,,,,,,,,,,,,,,,,,,,,,,,,,,
1768294532.107212,1768294532.107464,42.000000,0.000000,4354.871582,4361.922852,4353.333496,4360.128418,4326.922852,4317.307617,4316.922852,4339.102539,4330.128418,4327.436035,4495.512695,4562.307617,4426.794922,4483.846191,0.000000,2.000000,42.000000,,,,0.000000,4.000000,4.000000,4.000000,4.000000,4.000000,4.000000,4.000000,4.000000,4.000000,4.000000,4.000000,4.000000,4.000000,4.000000,100.000000,,,,,,,,,,,,,,,,,,,,,,,,,,,,,,,,,,,,,,,,,,,,,,,,,,,,,,,,,,,,,,,,,,,,,,,,,,,,,,,,,,,,,,,,,,,,,,,,,,,,,,,,,,,,,,,,,,,,,
1768294532.115021,1768294532.115273,43.000000,0.000000,4359.230957,4358.461426,4357.692383,4362.307617,4330.512695,4321.410156,4322.820313,4339.871582,4330.000000,4328.461426,4500.897461,4563.205078,4431.666504,4485.256348,0.000000,2.000000,42.000000,,,,0.000000,4.000000,4.000000,4.000000,4.000000,4.000000,4.000000,4.000000,4.000000,4.000000,4.000000,4.000000,4.000000,4.000000,4.000000,100.000000,,,,,,,,,,,,,,,,,,,,,,,,,,,,,,,,,,,,,,,,,,,,,,,,,,,,,,,,,,,,,,,,,,,,,,,,,,,,,,,,,,,,,,,,,,,,,,,,,,,,,,,,,,,,,,,,,,,,,
1768294532.122829,1768294532.123281,44.000000,0.000000,4356.025879,4353.589844,4358.717773,4361.666504,4331.025879,4322.692383,4322.948730,4343.333496,4326.538574,4327.692383,4504.487305,4560.256348,4430.512695,4485.128418,0.000000,2.000000,42.000000,,,,0.000000,4.000000,4.000000,4.000000,4.000000,4.000000,4.000000,4.000000,4.000000,4.000000,4.000000,4.000000,4.000000,4.000000,4.000000,100.000000,,,,,,,,,,,,,,,,,,,,,,,,,,,,,,,,,,,,,,,,,,,,,,,,,,,,,,,,,,,,,,,,,,,,,,,,,,,,,,,,,,,,,,,,,,,,,,,,,,,,,,,,,,,,,,,,,,,,,
1768294532.130638,1768294532.131089,45.000000,0.000000,4352.692383,4356.410156,4355.512695,4361.025879,4330.128418,4319.358887,4317.051270,4343.461426,4327.051270,4329.230957,4501.538574,4558.077148,4428.077148,4481.794922,0.000000,2.000000,42.000000,,,,0.000000,4.000000,4.000000,4.000000,4.000000,4.000000,4.000000,4.000000,4.000000,4.000000,4.000000,4.000000,4.000000,4.000000,4.000000,100.000000,,,,,,,,,,,,,,,,,,,,,,,,,,,,,,,,,,,,,,,,,,,,,,,,,,,,,,,,,,,,,,,,,,,,,,,,,,,,,,,,,,,,,,,,,,,,,,,,,,,,,,,,,,,,,,,,,,,,,
1768294532.138446,1768294532.138998,46.000000,0.000000,4356.538574,4355.897461,4351.538574,4361.153809,4332.436035,4317.948730,4316.794922,4329.102539,4319.743652,4329.230957,4496.538574,4550.641113,4428.717773,4478.333496,0.000000,2.000000,42.000000,,,,0.000000,4.000000,4.000000,4.000000,4.000000,4.000000,4.000000,4.000000,4.000000,4.000000,4.000000,4.000000,4.000000,4.000000,4.000000,100.000000,,,,,,,,,,,,,,,,,,,,,,,,,,,,,,,,,,,,,,,,,,,,,,,,1.602219,0.738663,0.254975,0.537617,0.265814,3.394352,0.394174,0.237608,0.348971,0.195762,2.406733,0.363622,0.211723,0.419014,0.203244,1.298646,0.234115,0.208145,0.355616,0.174874,1.217098,0.214314,0.263663,0.134699,0.077197,0.225107,0.167551,0.167489,0.103341,0.129320,0.649652,0.380316,0.320512,0.318871,0.384943,0.915318,0.458469,0.600183,0.454206,0.386201,0.554797,0.215836,0.121044,0.167944,0.139315,1.677445,0.361960,0.440217,0.282591,0.165527,0.765955,0.168046,0.090150,0.065657,0.139620,4.140632,0.597292,0.425689,0.415448,0.494596,1.827612,0.265130,0.395600,0.245882,0.452922,2.955420,0.628967,0.398002,0.329475,0.463610
1768294532.146254,1768294532.146806,47.000000,0.000000,4364.230957,4352.307617,4355.128418,4361.794922,4336.794922,4321.153809,4318.974121,4324.230957,4314.358887,4327.436035,4496.153809,4547.563965,4428.205078,4481.794922,0.000000,2.000000,42.000000,,,,0.000000,4.000000,4.000000,4.000000,4.000000,4.000000,4.000000,4.000000,4.000000,4.000000,4.000000,4.000000,4.000000,4.000000,4.000000,100.000000,,,,,,,,,,,,,,,,,,,,,,,,,,,,,,,,,,,,,,,,,,,,,,,,,,,,,,,,,,,,,,,,,,,,,,,,,,,,,,,,,,,,,,,,,,,,,,,,,,,,,,,,,,,,,,,,,,,,,
1768294532.154063,1768294532.154814,48.000000,0.000000,4362.563965,4349.871582,4360.000000,4361.922852,4335.000000,4321.025879,4316.282227,4341.153809,4322.692383,4329.487305,4501.666504,4558.461426,4431.153809,4487.179688,0.000000,2.000000,42.000000,,,,0.000000,4.000000,4.000000,4.000000,4.000000,4.000000,4.000000,4.000000,4.000000,4.000000,4.000000,4.000000,4.000000,4.000000,4.000000,100.000000,,,,,,,,,,,,,,,,,,,,,,,,,,,,,,,,,,,,,,,,,,,,,,,,,,,,,,,,,,,,,,,,,,,,,,,,,,,,,,,,,,,,,,,,,,,,,,,,,,,,,,,,,,,,,,,,,,,,,
1768294532.161871,1768294532.162623,49.000000,0.000000,4358.589844,4345.384766,4360.384766,4360.512695,4331.666504,4318.974121,4319.743652,4350.769043,4326.025879,4331.666504,4505.897461,4567.051270,4438.205078,4490.128418,0.000000,2.000000,42.000000,,,,0.000000,4.000000,4.000000,4.000000,4.000000,4.000000,4.000000,4.000000,4.000000,4.000000,4.000000,4.000000,4.000000,4.000000,4.000000,100.000000,,,,,,,,,,,,,,,,,,,,,,,,,,,,,,,,,,,,,,,,,,,,,,,,,,,,,,,,,,,,,,,,,,,,,,,,,,,,,,,,,,,,,,,,,,,,,,,,,,,,,,,,,,,,,,,,,,,,,
1768294532.169680,1768294532.170531,50.000000,0.000000,4362.820313,4344.358887,4361.922852,4361.282227,4333.589844,4318.589844,4321.282227,4345.128418,4322.563965,4330.000000,4501.410156,4565.769043,4442.436035,4492.051270,0.000000,2.000000,42.000000,,,,0.000000,4.000000,4.000000,4.000000,4.000000,4.000000,4.000000,4.000000,4.000000,4.000000,4.000000,4.000000,4.000000,4.000000,4.000000,100.000000,,,,,,,,,,,,,,,,,,,,,,,,,,,,,,,,,,,,,,,,,,,,,,,,,,,,,,,,,,,,,,,,,,,,,,,,,,,,,,,,,,,,,,,,,,,,,,,,,,,,,,,,,,,,,,,,,,,,,
1768294532.177488,1768294532.178340,51.000000,0.000000,4364.230957,4347.948730,4364.743652,4362.179688,4334.102539,4319.615234,4318.461426,4346.922852,4327.179688,4330.641113,4499.358887,4568.333496,4440.512695,4492.692383,0.000000,2.000000,42.000000,,,,0.000000,4.000000,4.000000,4.000000,4.000000,4.000000,4.000000,4.000000,4.000000,4.000000,4.000000,4.000000,4.000000,4.000000,4.000000,100.000000,,,,,,,,,,,,,,,,,,,,,,,,,,,,,,,,,,,,,,,,,,,,,,,,,,,,,,,,,,,,,,,,,,,,,,,,,,,,,,,,,,,,,,,,,,,,,,,,,,,,,,,,,,,,,,,,,,,,,
1768294532.185297,1768294532.186348,52.000000,0.000000,4362.051270,4345.512695,4364.615234,4358.077148,4333.846191,4320.897461,4321.282227,4351.538574,4330.256348,4333.717773,4505.256348,4571.025879,4434.358887,4490.512695,0.000000,2.000000,42.000000,,,,0.000000,4.000000,4.000000,4.000000,4.000000,4.000000,4.000000,4.000000,4.000000,4.000000,4.000000,4.000000,4.000000,4.000000,4.000000,100.000000,,,,,,,,,,,,,,,,,,,,,,,,,,,,,,,,,,,,,,,,,,,,,,,,,,,,,,,,,,,,,,,,,,,,,,,,,,,,,,,,,,,,,,,,,,,,,,,,,,,,,,,,,,,,,,,,,,,,,
1768294532.193105,1768294532.194156,53.000000,0.000000,4356.025879,4342.051270,4357.051270,4355.384766,4335.128418,4316.410156,4320.384766,4347.179688,4324.102539,4331.538574,4506.410156,4566.025879,4429.102539,4488.461426,0.000000,2.000000,42.000000,,,,0.000000,4.000000,4.000000,4.000000,4.000000,4.000000,4.000000,4.000000,4.000000,4.000000,4.000000,4.000000,4.000000,4.000000,4.000000,100.000000,,,,,,,,,,,,,,,,,,,,,,,,,,,,,,,,,,,,,,,,,,,,,,,,,,,,,,,,,,,,,,,,,,,,,,,,,,,,,,,,,,,,,,,,,,,,,,,,,,,,,,,,,,,,,,,,,,,,,
1768294532.200914,1768294532.201865,54.000000,0.000000,4345.641113,4342.307617,4346.410156,4352.820313,4331.794922,4311.666504,4314.230957,4341.025879,4319.230957,4323.717773,4500.256348,4556.922852,4425.641113,4481.666504,0.000000,2.000000,42.000000,,,,0.000000,4.000000,4.000000,4.000000,4.000000,4.000000,4.000000,4.000000,4.000000,4.000000,4.000000,4.000000,4.000000,4.000000,4.000000,100.000000,,,,,,,,,,,,,,,,,,,,,,,,,,,,,,,,,,,,,,,,,,,,,,,,,,,,,,,,,,,,,,,,,,,,,,,,,,,,,,,,,,,,,,,,,,,,,,,,,,,,,,,,,,,,,,,,,,,,,
1768294532.208722,1768294532.209673,55.000000,0.000000,4344.230957,4343.333496,4347.692383,4351.922852,4333.333496,4316.794922,4318.077148,4339.743652,4320.897461,4320.512695,4497.563965,4553.461426,4425.384766,4474.487305,0.000000,2.000000,42.000000,,,,0.000000,4.000000,4.000000,4.000000,4.000000,4.000000,4.000000,4.000000,4.000000,4.000000,4.000000,4.000000,4.000000,4.000000,4.000000,100.000000,,,,,,,,,,,,,,,,,,,,,,,,,,,,,,,,,,,,,,,,,,,,,,,,,,,,,,,,,,,,,,,,,,,,,,,,,,,,,,,,,,,,,,,,,,,,,,,,,,,,,,,,,,,,,,,,,,,,,
1768294532.216530,1768294532.217582,56.000000,0.000000,4348.846191,4344.230957,4354.358887,4355.769043,4337.436035,4321.025879,4324.487305,4345.000000,4325.769043,4324.358887,4501.666504,4557.051270,4427.692383,4476.922852,0.000000,2.000000,42.000000,,,,0.000000,4.000000,4.000000,4.000000,4.000000,4.000000,4.000000,4.000000,4.000000,4.000000,4.000000,4.000000,4.000000,4.000000,4.000000,100.000000,,,,,,,,,,,,,,,,,,,,,,,,,,,,,,,,,,,,,,,,,,,,,,,,,,,,,,,,,,,,,,,,,,,,,,,,,,,,,,,,,,,,,,,,,,,,,,,,,,,,,,,,,,,,,,,,,,,,,
1768294532.224339,1768294532.225390,57.000000,0.000000,4343.461426,4339.743652,4346.025879,4351.922852,4328.974121,4316.922852,4318.205078,4347.051270,4323.717773,4324.615234,4501.410156,4554.871582,4425.512695,4478.205078,0.000000,2.000000,42.000000,,,,0.000000,4.000000,4.000000,4.000000,4.000000,4.000000,4.000000,4.000000,4.000000,4.000000,4.000000,4.000000,4.000000,4.000000,4.000000,100.000000,,,,,,,,,,,,,,,,,,,,,,,,,,,,,,,,,,,,,,,,,,,,,,,,,,,,,,,,,,,,,,,,,,,,,,,,,,,,,,,,,,,,,,,,,,,,,,,,,,,,,,,,,,,,,,,,,,,,,
1768294532.232147,1768294532.233099,58.000000,0.000000,4337.051270,4331.922852,4337.563965,4342.948730,4320.256348,4311.282227,4314.871582,4342.820313,4318.461426,4318.461426,4497.820313,4547.179688,4423.077148,4472.307617,0.000000,2.000000,42.000000,,,,0.000000,4.000000,4.000000,4.000000,4.000000,4.000000,4.000000,4.000000,4.000000,4.000000,4.000000,4.000000,4.000000,4.000000,4.000000,100.000000,,,,,,,,,,,,,,,,,,,,,,,,,,,,,,,,,,,,,,,,,,,,,,,,,,,,,,,,,,,,,,,,,,,,,,,,,,,,,,,,,,,,,,,,,,,,,,,,,,,,,,,,,,,,,,,,,,,,,
1768294532.239956,1768294532.240907,59.000000,0.000000,4337.692383,4329.615234,4340.769043,4343.974121,4323.717773,4313.205078,4323.461426,4341.794922,4320.384766,4319.743652,4497.692383,4544.871582,4425.128418,4469.615234,0.000000,2.000000,42.000000,,,,0.000000,4.000000,4.000000,4.000000,4.000000,4.000000,4.000000,4.000000,4.000000,4.000000,4.000000,4.000000,4.000000,4.000000,4.000000,100.000000,,,,,,,,,,,,,,,,,,,,,,,,,,,,,,,,,,,,,,,,,,,,,,,,,,,,,,,,,,,,,,,,,,,,,,,,,,,,,,,,,,,,,,,,,,,,,,,,,,,,,,,,,,,,,,,,,,,,,
1768294532.247764,1768294532.248516,60.000000,0.000000,4331.794922,4330.512695,4337.948730,4347.179688,4322.179688,4314.743652,4322.051270,4344.358887,4320.512695,4325.641113,4498.589844,4540.897461,4426.410156,4468.461426,0.000000,2.000000,42.000000,,,,0.000000,4.000000,4.000000,4.000000,4.000000,4.000000,4.000000,4.000000,4.000000,4.000000,4.000000,4.000000,4.000000,4.000000,4.000000,100.000000,,,,,,,,,,,,,,,,,,,,,,,,,,,,,,,,,,,,,,,,,,,,,,,,,,,,,,,,,,,,,,,,,,,,,,,,,,,,,,,,,,,,,,,,,,,,,,,,,,,,,,,,,,,,,,,,,,,,,
1768294532.255572,1768294532.256324,61.000000,0.000000,4324.743652,4329.358887,4334.358887,4344.615234,4316.410156,4310.897461,4310.256348,4345.256348,4320.128418,4324.358887,4500.769043,4537.820313,4425.641113,4467.051270,0.000000,2.000000,42.000000,,,,0.000000,4.000000,4.000000,4.000000,4.000000,4.000000,4.000000,4.000000,4.000000,4.000000,4.000000,4.000000,4.000000,4.000000,4.000000,100.000000,,,,,,,,,,,,,,,,,,,,,,,,,,,,,,,,,,,,,,,,,,,,,,,,,,,,,,,,,,,,,,,,,,,,,,,,,,,,,,,,,,,,,,,,,,,,,,,,,,,,,,,,,,,,,,,,,,,,,
1768294532.263381,1768294532.264232,62.000000,0.000000,4328.461426,4328.205078,4340.128418,4345.512695,4320.384766,4311.025879,4311.794922,4343.077148,4322.948730,4322.820313,4501.282227,4544.871582,4425.256348,4473.589844,0.000000,2.000000,42.000000,,,,0.000000,4.000000,4.000000,4.000000,4.000000,4.000000,4.000000,4.000000,4.000000,4.000000,4.000000,4.000000,4.000000,4.000000,4.000000,100.000000,,,,,,,,,,,,,,,,,,,,,,,,,,,,,,,,,,,,,,,,,,,,,,,,1.665606,0.929328,0.308825,0.625072,0.321121,3.281715,0.301539,0.291784,0.429642,0.217232,2.296969,0.420155,0.210098,0.457836,0.216052,1.332339,0.245783,0.251963,0.407344,0.204839,1.108157,0.219058,0.270183,0.157676,0.084679,0.183704,0.154859,0.209085,0.120120,0.145581,0.585140,0.374181,0.408052,0.359286,0.416071,0.818027,0.465614,0.779248,0.476329,0.469661,0.484879,0.228800,0.133403,0.167481,0.158579,1.735722,0.456221,0.551386,0.292737,0.166135,0.803761,0.188468,0.103823,0.066341,0.159470,3.739521,0.683481,0.554679,0.383382,0.576711,1.770165,0.322861,0.498538,0.280050,0.456967,2.735009,0.826783,0.536600,0.373356,0.500891
1768294532.271189,1768294532.272041,63.000000,0.000000,4332.948730,4329.487305,4341.410156,4349.102539,4322.436035,4310.769043,4313.333496,4331.025879,4317.563965,4326.025879,4498.589844,4544.871582,4422.948730,4477.307617,0.000000,2.000000,42.000000,,,,0.000000,4.000000,4.000000,4.000000,4.000000,4.000000,4.000000,4.000000,4.000000,4.000000,4.000000,4.000000,4.000000,4.000000,4.000000,100.000000,,,,,,,,,,,,,,,,,,,,,,,,,,,,,,,,,,,,,,,,,,,,,,,,,,,,,,,,,,,,,,,,,,,,,,,,,,,,,,,,,,,,,,,,,,,,,,,,,,,,,,,,,,,,,,,,,,,,,
1768294532.278998,1768294532.280049,64.000000,0.000000,4331.922852,4330.641113,4340.641113,4351.794922,4320.897461,4309.615234,4307.563965,4323.589844,4311.153809,4324.615234,4496.153809,4538.333496,4424.102539,4474.102539,4215.000000,2.000000,42.000000,,,,0.000000,4.000000,4.000000,4.000000,4.000000,4.000000,4.000000,4.000000,4.000000,4.000000,4.000000,4.000000,4.000000,4.000000,4.000000,100.000000,,,,,,,,,,,,,,,,,,,,,,,,,,,,,,,,,,,,,,,,,,,,,,,,,,,,,,,,,,,,,,,,,,,,,,,,,,,,,,,,,,,,,,,,,,,,,,,,,,,,,,,,,,,,,,,,,,,,,
1768294532.286806,1768294532.287858,65.000000,0.000000,4334.871582,4330.000000,4348.461426,4354.102539,4325.897461,4314.615234,4313.974121,4336.922852,4319.487305,4322.051270,4496.794922,4548.205078,4429.102539,4478.205078,3869.000000,2.000000,42.000000,,,,0.000000,4.000000,4.000000,4.000000,4.000000,4.000000,4.000000,4.000000,4.000000,4.000000,4.000000,4.000000,4.000000,4.000000,4.000000,100.000000,,,,,,,,,,,,,,,,,,,,,,,,,,,,,,,,,,,,,,,,,,,,,,,,,,,,,,,,,,,,,,,,,,,,,,,,,,,,,,,,,,,,,,,,,,,,,,,,,,,,,,,,,,,,,,,,,,,,,
1768294532.294615,1768294532.295566,66.000000,0.000000,4343.589844,4329.358887,4353.974121,4350.384766,4325.641113,4317.179688,4322.179688,4348.205078,4325.769043,4323.846191,4498.846191,4560.384766,4426.410156,4482.563965,4031.000000,2.000000,42.000000,,,,0.000000,4.000000,4.000000,4.000000,4.000000,4.000000,4.000000,4.000000,4.000000,4.000000,4.000000,4.000000,4.000000,4.000000,4.000000,100.000000,,,,,,,,,,,,,,,,,,,,,,,,,,,,,,,,,,,,,,,,,,,,,,,,,,,,,,,,,,,,,,,,,,,,,,,,,,,,,,,,,,,,,,,,,,,,,,,,,,,,,,,,,,,,,,,,,,,,,
1768294532.302423,1768294532.303375,67.000000,0.000000,4345.641113,4332.307617,4354.230957,4347.820313,4321.025879,4313.205078,4317.051270,4341.538574,4319.871582,4325.512695,4499.743652,4560.000000,4424.102539,4481.794922,3917.000000,2.000000,42.000000,,,,0.000000,4.000000,4.000000,4.000000,4.000000,4.000000,4.000000,4.000000,4.000000,4.000000,4.000000,4.000000,4.000000,4.000000,4.000000,100.000000,,,,,,,,,,,,,,,,,,,,,,,,,,,,,,,,,,,,,,,,,,,,,,,,,,,,,,,,,,,,,,,,,,,,,,,,,,,,,,,,,,,,,,,,,,,,,,,,,,,,,,,,,,,,,,,,,,,,,
1768294532.310232,1768294532.310983,68.000000,0.000000,4341.153809,4328.333496,4354.102539,4349.102539,4320.000000,4312.307617,4312.307617,4335.384766,4320.000000,4326.538574,4498.461426,4557.692383,4427.692383,4483.846191,3797.000000,2.000000,42.000000,,,,0.000000,4.000000,4.000000,4.000000,4.000000,4.000000,4.000000,4.000000,4.000000,4.000000,4.000000,4.000000,4.000000,4.000000,4.000000,100.000000,,,,,,,,,,,,,,,,,,,,,,,,,,,,,,,,,,,,,,,,,,,,,,,,,,,,,,,,,,,,,,,,,,,,,,,,,,,,,,,,,,,,,,,,,,,,,,,,,,,,,,,,,,,,,,,,,,,,,
1768294532.318040,1768294532.318792,69.000000,0.000000,4339.102539,4317.692383,4353.077148,4348.717773,4318.846191,4317.051270,4317.563965,4344.358887,4326.922852,4330.512695,4501.025879,4560.769043,4429.102539,4486.410156,3037.000000,2.000000,42.000000,,,,0.000000,4.000000,4.000000,4.000000,4.000000,4.000000,4.000000,4.000000,4.000000,4.000000,4.000000,4.000000,4.000000,4.000000,4.000000,100.000000,,,,,,,,,,,,,,,,,,,,,,,,,,,,,,,,,,,,,,,,,,,,,,,,,,,,,,,,,,,,,,,,,,,,,,,,,,,,,,,,,,,,,,,,,,,,,,,,,,,,,,,,,,,,,,,,,,,,,
1768294532.325848,1768294532.326500,70.000000,0.000000,4337.436035,4317.820313,4351.025879,4348.333496,4319.487305,4316.794922,4319.230957,4349.230957,4326.282227,4331.282227,4505.769043,4564.871582,4429.102539,4484.615234,3456.000000,2.000000,42.000000,,,,0.000000,4.000000,4.000000,4.000000,4.000000,4.000000,4.000000,4.000000,4.000000,4.000000,4.000000,4.000000,4.000000,4.000000,4.000000,100.000000,,,,,,,,,,,,,,,,,,,,,,,,,,,,,,,,,,,,,,,,,,,,,,,,,,,,,,,,,,,,,,,,,,,,,,,,,,,,,,,,,,,,,,,,,,,,,,,,,,,,,,,,,,,,,,,,,,,,,
1768294532.333657,1768294532.334309,71.000000,0.000000,4332.820313,4315.000000,4343.205078,4339.743652,4319.102539,4311.282227,4310.512695,4340.256348,4319.102539,4326.153809,4499.358887,4558.461426,4425.512695,4477.820313,3577.000000,2.000000,42.000000,,,,0.000000,4.000000,4.000000,4.000000,4.000000,4.000000,4.000000,4.000000,4.000000,4.000000,4.000000,4.000000,4.000000,4.000000,4.000000,100.000000,,,,,,,,,,,,,,,,,,,,,,,,,,,,,,,,,,,,,,,,,,,,,,,,,,,,,,,,,,,,,,,,,,,,,,,,,,,,,,,,,,,,,,,,,,,,,,,,,,,,,,,,,,,,,,,,,,,,,
1768294532.341465,1768294532.342317,72.000000,0.000000,4324.615234,4299.230957,4335.000000,4327.436035,4313.333496,4310.256348,4309.102539,4341.794922,4319.102539,4321.410156,4491.025879,4548.333496,4417.179688,4468.461426,2732.000000,2.000000,42.000000,,,,0.000000,4.000000,4.000000,4.000000,4.000000,4.000000,4.000000,4.000000,4.000000,4.000000,4.000000,4.000000,4.000000,4.000000,4.000000,100.000000,,,,,,,,,,,,,,,,,,,,,,,,,,,,,,,,,,,,,,,,,,,,,,,,,,,,,,,,,,,,,,,,,,,,,,,,,,,,,,,,,,,,,,,,,,,,,,,,,,,,,,,,,,,,,,,,,,,,,
1768294532.349274,1768294532.350125,73.000000,0.000000,4326.666504,4301.153809,4346.025879,4333.717773,4315.256348,4318.589844,4325.512695,4354.230957,4327.307617,4323.974121,4498.077148,4556.153809,4420.897461,4473.461426,3530.000000,2.000000,42.000000,,,,0.000000,4.000000,4.000000,4.000000,4.000000,4.000000,4.000000,4.000000,4.000000,4.000000,4.000000,4.000000,4.000000,4.000000,4.000000,100.000000,,,,,,,,,,,,,,,,,,,,,,,,,,,,,,,,,,,,,,,,,,,,,,,,,,,,,,,,,,,,,,,,,,,,,,,,,,,,,,,,,,,,,,,,,,,,,,,,,,,,,,,,,,,,,,,,,,,,,
1768294532.357082,1768294532.358034,74.000000,0.000000,4344.743652,4323.461426,4365.000000,4349.871582,4322.563965,4322.179688,4330.769043,4361.794922,4336.282227,4337.051270,4512.820313,4577.436035,4440.512695,4495.384766,3944.000000,2.000000,42.000000,,,,0.000000,4.000000,4.000000,4.000000,4.000000,4.000000,4.000000,4.000000,4.000000,4.000000,4.000000,4.000000,4.000000,4.000000,4.000000,100.000000,,,,,,,,,,,,,,,,,,,,,,,,,,,,,,,,,,,,,,,,,,,,,,,,,,,,,,,,,,,,,,,,,,,,,,,,,,,,,,,,,,,,,,,,,,,,,,,,,,,,,,,,,,,,,,,,,,,,,
1768294532.364890,1768294532.365842,75.000000,0.000000,4352.436035,4326.153809,4362.307617,4348.589844,4321.666504,4316.282227,4316.922852,4357.051270,4337.179688,4344.743652,4514.615234,4580.769043,4448.589844,4501.153809,4716.000000,2.000000,42.000000,,,,0.000000,4.000000,4.000000,4.000000,4.000000,4.000000,4.000000,4.000000,4.000000,4.000000,4.000000,4.000000,4.000000,4.000000,4.000000,100.000000,,,,,,,,,,,,,,,,,,,,,,,,,,,,,,,,,,,,,,,,,,,,,,,,,,,,,,,,,,,,,,,,,,,,,,,,,,,,,,,,,,,,,,,,,,,,,,,,,,,,,,,,,,,,,,,,,,,,,
1768294532.372699,1768294532.373850,76.000000,0.000000,4339.102539,4310.897461,4353.205078,4339.615234,4318.589844,4315.769043,4320.256348,4352.820313,4328.974121,4337.051270,4503.846191,4566.794922,4433.717773,4487.692383,2321.000000,2.000000,42.000000,,,,0.000000,4.000000,4.000000,4.000000,4.000000,4.000000,4.000000,4.000000,4.000000,4.000000,4.000000,4.000000,4.000000,4.000000,4.000000,100.000000,,,,,,,,,,,,,,,,,,,,,,,,,,,,,,,,,,,,,,,,,,,,,,,,,,,,,,,,,,,,,,,,,,,,,,,,,,,,,,,,,,,,,,,,,,,,,,,,,,,,,,,,,,,,,,,,,,,,,
1768294532.380507,1768294532.381659,77.000000,0.000000,4325.769043,4309.358887,4354.358887,4339.230957,4315.256348,4316.153809,4328.846191,4355.641113,4325.897461,4325.769043,4497.948730,4558.974121,4421.666504,4480.897461,5479.000000,2.000000,42.000000,,,,0.000000,4.000000,4.000000,4.000000,4.000000,4.000000,4.000000,4.000000,4.000000,4.000000,4.000000,4.000000,4.000000,4.000000,4.000000,100.000000,,,,,,,,,,,,,,,,,,,,,,,,,,,,,,,,,,,,,,,,,,,,,,,,,,,,,,,,,,,,,,,,,,,,,,,,,,,,,,,,,,,,,,,,,,,,,,,,,,,,,,,,,,,,,,,,,,,,,
1768294532.388316,1768294532.389367,78.000000,0.000000,4325.256348,4316.025879,4349.102539,4339.230957,4316.282227,4310.000000,4316.025879,4351.666504,4326.922852,4323.589844,4497.563965,4556.410156,4424.487305,4478.461426,3944.000000,2.000000,42.000000,,,,0.000000,4.000000,4.000000,4.000000,4.000000,4.000000,4.000000,4.000000,4.000000,4.000000,4.000000,4.000000,4.000000,4.000000,4.000000,100.000000,1.000000,100.000000,4.000000,4.000000,4.000000,4.000000,4.000000,4.000000,4.000000,4.000000,4.000000,4.000000,4.000000,4.000000,4.000000,4.000000,,,,,,,,,,,,,,,,,,,,,,,,,,,,,,,,1.877694,1.071045,0.349773,0.689120,0.378328,3.162021,0.263532,0.337674,0.486389,0.246812,2.092052,0.449324,0.217010,0.467923,0.229603,1.287750,0.263060,0.289867,0.426618,0.227298,0.964956,0.222196,0.253678,0.168694,0.089796,0.139298,0.147312,0.248185,0.129384,0.152967,0.537971,0.360336,0.509771,0.372673,0.441051,0.694730,0.471379,0.948071,0.477240,0.555075,0.408883,0.233215,0.149458,0.157291,0.175267,1.806943,0.527198,0.646160,0.300612,0.170236,0.816939,0.205042,0.124424,0.065537,0.180545,3.191506,0.766655,0.688232,0.362854,0.644674,1.721144,0.371010,0.565921,0.306805,0.445753,2.472375,0.989923,0.657448,0.398922,0.526275
1768294532.396124,1768294532.397176,79.000000,0.000000,4327.436035,4315.000000,4337.948730,4337.948730,4323.846191,4309.743652,4310.256348,4344.615234,4327.692383,4325.641113,4496.794922,4550.256348,4430.769043,4471.922852,4716.000000,2.000000,42.000000,,,,0.000000,4.000000,4.000000,4.000000,4.000000,4.000000,4.000000,4.000000,4.000000,4.000000,4.000000,4.000000,4.000000,4.000000,4.000000,100.000000,,,,,,,,,,,,,,,,,,,,,,,,,,,,,,,,,,,,,,,,,,,,,,,,,,,,,,,,,,,,,,,,,,,,,,,,,,,,,,,,,,,,,,,,,,,,,,,,,,,,,,,,,,,,,,,,,,,,,
1768294532.403933,1768294532.404884,80.000000,0.000000,4326.538574,4310.384766,4336.410156,4337.948730,4316.282227,4315.128418,4318.461426,4339.487305,4324.743652,4324.743652,4493.846191,4540.256348,4426.922852,4468.589844,2321.000000,2.000000,42.000000,,,,0.000000,4.000000,4.000000,4.000000,4.000000,4.000000,4.000000,4.000000,4.000000,4.000000,4.000000,4.000000,4.000000,4.000000,4.000000,100.000000,,,,,,,,,,,,,,,,,,,,,,,,,,,,,,,,,,,,,,,,,,,,,,,,,,,,,,,,,,,,,,,,,,,,,,,,,,,,,,,,,,,,,,,,,,,,,,,,,,,,,,,,,,,,,,,,,,,,,
1768294532.411741,1768294532.412693,81.000000,0.000000,4324.871582,4306.282227,4339.230957,4334.743652,4307.051270,4313.205078,4314.615234,4333.205078,4318.589844,4319.358887,4491.666504,4535.384766,4418.846191,4467.948730,5479.000000,2.000000,42.000000,,,,0.000000,4.000000,4.000000,4.000000,4.000000,4.000000,4.000000,4.000000,4.000000,4.000000,4.000000,4.000000,4.000000,4.000000,4.000000,100.000000,,,,,,,,,,,,,,,,,,,,,,,,,,,,,,,,,,,,,,,,,,,,,,,,,,,,,,,,,,,,,,,,,,,,,,,,,,,,,,,,,,,,,,,,,,,,,,,,,,,,,,,,,,,,,,,,,,,,,
1768294532.419550,1768294532.420401,82.000000,0.000000,4322.179688,4299.230957,4339.743652,4328.589844,4313.205078,4309.487305,4306.025879,4333.077148,4316.538574,4316.666504,4493.205078,4542.692383,4418.205078,4467.692383,3944.000000,2.000000,42.000000,,,,0.000000,4.000000,4.000000,4.000000,4.000000,4.000000,4.000000,4.000000,4.000000,4.000000,4.000000,4.000000,4.000000,4.000000,4.000000,100.000000,,,,,,,,,,,,,,,,,,,,,,,,,,,,,,,,,,,,,,,,,,,,,,,,,,,,,,,,,,,,,,,,,,,,,,,,,,,,,,,,,,,,,,,,,,,,,,,,,,,,,,,,,,,,,,,,,,,,,
1768294532.427358,1768294532.428210,83.000000,0.000000,4324.102539,4295.256348,4346.922852,4327.436035,4310.897461,4312.436035,4313.461426,4343.717773,4322.692383,4323.717773,4499.487305,4559.487305,4424.871582,4477.948730,4716.000000,2.000000,42.000000,,,,0.000000,4.000000,4.000000,4.000000,4.000000,4.000000,4.000000,4.000000,4.000000,4.000000,4.000000,4.000000,4.000000,4.000000,4.000000,100.000000,,,,,,,,,,,,,,,,,,,,,,,,,,,,,,,,,,,,,,,,,,,,,,,,,,,,,,,,,,,,,,,,,,,,,,,,,,,,,,,,,,,,,,,,,,,,,,,,,,,,,,,,,,,,,,,,,,,,,
1768294532.435166,1768294532.435818,84.000000,0.000000,4328.846191,4295.641113,4354.102539,4328.589844,4300.384766,4314.615234,4322.948730,4350.641113,4325.897461,4325.641113,4503.333496,4565.897461,4423.846191,4486.153809,2321.000000,2.000000,42.000000,,,,0.000000,4.000000,4.000000,4.000000,4.000000,4.000000,4.000000,4.000000,4.000000,4.000000,4.000000,4.000000,4.000000,4.000000,4.000000,100.000000,,,,,,,,,,,,,,,,,,,,,,,,,,,,,,,,,,,,,,,,,,,,,,,,,,,,,,,,,,,,,,,,,,,,,,,,,,,,,,,,,,,,,,,,,,,,,,,,,,,,,,,,,,,,,,,,,,,,,
1768294532.442975,1768294532.443627,85.000000,0.000000,4329.102539,4295.128418,4354.230957,4330.384766,4297.563965,4313.589844,4323.077148,4346.282227,4320.384766,4316.025879,4498.077148,4556.282227,4412.948730,4475.512695,5479.000000,2.000000,42.000000,,,,0.000000,4.000000,4.000000,4.000000,4.000000,4.000000,4.000000,4.000000,4.000000,4.000000,4.000000,4.000000,4.000000,4.000000,4.000000,100.000000,,,,,,,,,,,,,,,,,,,,,,,,,,,,,,,,,,,,,,,,,,,,,,,,,,,,,,,,,,,,,,,,,,,,,,,,,,,,,,,,,,,,,,,,,,,,,,,,,,,,,,,,,,,,,,,,,,,,,
1768294532.450783,1768294532.451335,86.000000,0.000000,4325.512695,4294.358887,4351.538574,4333.077148,4292.051270,4313.974121,4326.282227,4342.820313,4320.128418,4312.692383,4493.077148,4553.333496,4409.615234,4465.128418,3944.000000,2.000000,42.000000,,,,0.000000,4.000000,4.000000,4.000000,4.000000,4.000000,4.000000,4.000000,4.000000,4.000000,4.000000,4.000000,4.000000,4.000000,4.000000,100.000000,,,,,,,,,,,,,,,,,,,,,,,,,,,,,,,,,,,,,,,,,,,,,,,,,,,,,,,,,,,,,,,,,,,,,,,,,,,,,,,,,,,,,,,,,,,,,,,,,,,,,,,,,,,,,,,,,,,,,
1768294532.458592,1768294532.459144,87.000000,0.000000,4323.589844,4292.179688,4346.922852,4332.051270,4282.051270,4315.128418,4328.717773,4349.230957,4327.179688,4318.077148,4498.461426,4562.563965,4418.333496,4472.179688,4716.000000,2.000000,42.000000,,,,0.000000,4.000000,4.000000,4.000000,4.000000,4.000000,4.000000,4.000000,4.000000,4.000000,4.000000,4.000000,4.000000,4.000000,4.000000,100.000000,,,,,,,,,,,,,,,,,,,,,,,,,,,,,,,,,,,,,,,,,,,,,,,,,,,,,,,,,,,,,,,,,,,,,,,,,,,,,,,,,,,,,,,,,,,,,,,,,,,,,,,,,,,,,,,,,,,,,
1768294532.466400,1768294532.467152,88.000000,0.000000,4326.282227,4293.974121,4348.717773,4331.666504,4280.897461,4315.128418,4325.641113,4362.179688,4331.410156,4323.077148,4504.487305,4568.846191,4423.205078,4481.922852,2321.000000,2.000000,42.000000,,,,0.000000,4.000000,4.000000,4.000000,4.000000,4.000000,4.000000,4.000000,4.000000,4.000000,4.000000,4.000000,4.000000,4.000000,4.000000,100.000000,,,,,,,,,,,,,,,,,,,,,,,,,,,,,,,,,,,,,,,,,,,,,,,,,,,,,,,,,,,,,,,,,,,,,,,,,,,,,,,,,,,,,,,,,,,,,,,,,,,,,,,,,,,,,,,,,,,,,
1768294532.474208,1768294532.474961,89.000000,0.000000,4328.461426,4305.128418,4356.282227,4339.871582,4278.333496,4315.128418,4326.666504,4362.436035,4327.051270,4324.743652,4503.077148,4564.230957,4422.436035,4482.692383,5479.000000,2.000000,42.000000,,,,0.000000,4.000000,4.000000,4.000000,4.000000,4.000000,4.000000,4.000000,4.000000,4.000000,4.000000,4.000000,4.000000,4.000000,4.000000,100.000000,,,,,,,,,,,,,,,,,,,,,,,,,,,,,,,,,,,,,,,,,,,,,,,,,,,,,,,,,,,,,,,,,,,,,,,,,,,,,,,,,,,,,,,,,,,,,,,,,,,,,,,,,,,,,,,,,,,,,
1768294532.482017,1768294532.482869,90.000000,0.000000,4327.948730,4312.179688,4351.410156,4343.333496,4272.948730,4313.846191,4326.922852,4347.436035,4322.436035,4325.512695,4500.512695,4555.769043,4419.615234,4479.487305,3944.000000,2.000000,42.000000,,,,0.000000,4.000000,4.000000,4.000000,4.000000,4.000000,4.000000,4.000000,4.000000,4.000000,4.000000,4.000000,4.000000,4.000000,4.000000,100.000000,,,,,,,,,,,,,,,,,,,,,,,,,,,,,,,,,,,,,,,,,,,,,,,,,,,,,,,,,,,,,,,,,,,,,,,,,,,,,,,,,,,,,,,,,,,,,,,,,,,,,,,,,,,,,,,,,,,,,
1768294532.489825,1768294532.490678,91.000000,0.000000,4324.102539,4306.282227,4339.102539,4335.384766,4268.589844,4313.205078,4318.077148,4339.102539,4324.615234,4323.846191,4499.487305,4549.487305,4415.256348,4473.717773,4716.000000,2.000000,42.000000,,,,0.000000,4.000000,4.000000,4.000000,4.000000,4.000000,4.000000,4.000000,4.000000,4.000000,4.000000,4.000000,4.000000,4.000000,4.000000,100.000000,,,,,,,,,,,,,,,,,,,,,,,,,,,,,,,,,,,,,,,,,,,,,,,,,,,,,,,,,,,,,,,,,,,,,,,,,,,,,,,,,,,,,,,,,,,,,,,,,,,,,,,,,,,,,,,,,,,,,
1768294532.497634,1768294532.498287,92.000000,0.000000,4320.769043,4305.000000,4338.846191,4333.846191,4259.871582,4317.051270,4315.641113,4342.563965,4324.102539,4320.897461,4497.563965,4546.538574,4413.461426,4470.384766,2321.000000,2.000000,42.000000,,,,0.000000,4.000000,4.000000,4.000000,4.000000,4.000000,4.000000,4.000000,4.000000,4.000000,4.000000,4.000000,4.000000,4.000000,4.000000,100.000000,,,,,,,,,,,,,,,,,,,,,,,,,,,,,,,,,,,,,,,,,,,,,,,,,,,,,,,,,,,,,,,,,,,,,,,,,,,,,,,,,,,,,,,,,,,,,,,,,,,,,,,,,,,,,,,,,,,,,
1768294532.505442,1768294532.506095,93.000000,0.000000,4320.769043,4313.974121,4343.077148,4340.128418,4256.282227,4318.077148,4320.512695,4343.717773,4322.179688,4318.333496,4493.205078,4541.282227,4415.256348,4468.461426,5479.000000,2.000000,42.000000,,,,0.000000,4.000000,4.000000,4.000000,4.000000,4.000000,4.000000,4.000000,4.000000,4.000000,4.000000,4.000000,4.000000,4.000000,4.000000,100.000000,,,,,,,,,,,,,,,,,,,,,,,,,,,,,,,,,,,,,,,,,,,,,,,,,,,,,,,,,,,,,,,,,,,,,,,,,,,,,,,,,,,,,,,,,,,,,,,,,,,,,,,,,,,,,,,,,,,,,
1768294532.513251,1768294532.513804,94.000000,0.000000,4320.769043,4317.563965,4340.384766,4336.410156,4260.512695,4313.846191,4317.307617,4338.717773,4323.077148,4315.897461,4489.230957,4536.666504,4412.307617,4463.589844,3944.000000,2.000000,42.000000,,,,0.000000,4.000000,4.000000,4.000000,4.000000,4.000000,4.000000,4.000000,4.000000,4.000000,4.000000,4.000000,4.000000,4.000000,4.000000,100.000000,,,,,,,,,,,,,,,,,,,,,,,,,,,,,,,,,,,,,,,,,,,,,,,,2.223969,1.108949,0.378102,0.721123,0.424513,3.202670,0.280684,0.369831,0.505016,0.272775,1.902858,0.447829,0.236527,0.454023,0.240482,1.213076,0.277660,0.316969,0.408517,0.236748,0.816485,0.224147,0.220230,0.163703,0.091180,0.102845,0.145271,0.268864,0.128553,0.148641,0.519673,0.351189,0.587599,0.357097,0.449956,0.574218,0.478504,1.057069,0.457710,0.625755,0.348355,0.227830,0.168765,0.140524,0.187405,1.881977,0.557898,0.709101,0.305546,0.178463,0.806926,0.216630,0.150277,0.064062,0.199117,2.741154,0.835734,0.810736,0.353505,0.685251,1.721889,0.397368,0.587492,0.321413,0.420178,2.336201,1.068689,0.730283,0.402318,0.536598
1768294532.521059,1768294532.521612,95.000000,0.000000,4318.846191,4313.461426,4338.461426,4326.538574,4255.769043,4312.948730,4314.102539,4334.230957,4317.563965,4317.563965,4491.153809,4539.615234,4407.436035,4461.666504,4716.000000,2.000000,42.000000,,,,0.000000,4.000000,4.000000,4.000000,4.000000,4.000000,4.000000,4.000000,4.000000,4.000000,4.000000,4.000000,4.000000,4.000000,4.000000,100.000000,,,,,,,,,,,,,,,,,,,,,,,,,,,,,,,,,,,,,,,,,,,,,,,,,,,,,,,,,,,,,,,,,,,,,,,,,,,,,,,,,,,,,,,,,,,,,,,,,,,,,,,,,,,,,,,,,,,,,
1768294532.528868,1768294532.529620,96.000000,0.000000,4318.846191,4314.102539,4338.589844,4329.487305,4243.205078,4316.025879,4316.153809,4332.948730,4311.410156,4318.589844,4494.230957,4544.615234,4416.410156,4464.230957,2321.000000,2.000000,42.000000,,,,0.000000,4.000000,4.000000,4.000000,4.000000,4.000000,4.000000,4.000000,4.000000,4.000000,4.000000,4.000000,4.000000,4.000000,4.000000,100.000000,,,,,,,,,,,,,,,,,,,,,,,,,,,,,,,,,,,,,,,,,,,,,,,,,,,,,,,,,,,,,,,,,,,,,,,,,,,,,,,,,,,,,,,,,,,,,,,,,,,,,,,,,,,,,,,,,,,,,
1768294532.536676,1768294532.537429,97.000000,0.000000,4325.641113,4322.692383,4341.538574,4341.666504,4246.025879,4318.717773,4317.820313,4337.948730,4320.512695,4318.077148,4496.410156,4545.897461,4426.410156,4467.820313,5479.000000,2.000000,42.000000,,,,0.000000,4.000000,4.000000,4.000000,4.000000,4.000000,4.000000,4.000000,4.000000,4.000000,4.000000,4.000000,4.000000,4.000000,4.000000,100.000000,,,,,,,,,,,,,,,,,,,,,,,,,,,,,,,,,,,,,,,,,,,,,,,,,,,,,,,,,,,,,,,,,,,,,,,,,,,,,,,,,,,,,,,,,,,,,,,,,,,,,,,,,,,,,,,,,,,,,
1768294532.544484,1768294532.545337,98.000000,0.000000,4333.846191,4329.487305,4348.717773,4347.051270,4254.743652,4317.948730,4323.589844,4347.051270,4328.333496,4320.769043,4497.179688,4548.077148,4420.000000,4473.461426,3944.000000,2.000000,42.000000,,,,0.000000,4.000000,4.000000,4.000000,4.000000,4.000000,4.000000,4.000000,4.000000,4.000000,4.000000,4.000000,4.000000,4.000000,4.000000,100.000000,,,,,,,,,,,,,,,,,,,,,,,,,,,,,,,,,,,,,,,,,,,,,,,,,,,,,,,,,,,,,,,,,,,,,,,,,,,,,,,,,,,,,,,,,,,,,,,,,,,,,,,,,,,,,,,,,,,,,
1768294532.552293,1768294532.553145,99.000000,0.000000,4331.538574,4329.358887,4350.641113,4345.641113,4251.794922,4316.666504,4327.307617,4350.128418,4322.307617,4319.615234,4496.922852,4551.025879,4416.153809,4476.538574,4716.000000,2.000000,42.000000,,,,0.000000,4.000000,4.000000,4.000000,4.000000,4.000000,4.000000,4.000000,4.000000,4.000000,4.000000,4.000000,4.000000,4.000000,4.000000,100.000000,,,,,,,,,,,,,,,,,,,,,,,,,,,,,,,,,,,,,,,,,,,,,,,,,,,,,,,,,,,,,,,,,,,,,,,,,,,,,,,,,,,,,,,,,,,,,,,,,,,,,,,,,,,,,,,,,,,,,
1768294532.560101,1768294532.561154,100.000000,0.000000,4324.615234,4326.025879,4343.333496,4342.179688,4245.512695,4318.205078,4319.615234,4346.153809,4320.000000,4314.615234,4496.282227,4549.487305,4424.871582,4470.000000,2321.000000,2.000000,42.000000,,,,0.000000,4.000000,4.000000,4.000000,4.000000,4.000000,4.000000,4.000000,4.000000,4.000000,4.000000,4.000000,4.000000,4.000000,4.000000,100.000000,,,,,,,,,,,,,,,,,,,,,,,,,,,,,,,,,,,,,,,,,,,,,,,,,,,,,,,,,,,,,,,,,,,,,,,,,,,,,,,,,,,,,,,,,,,,,,,,,,,,,,,,,,,,,,,,,,,,,
1768294532.567910,1768294532.568962,101.000000,0.000000,4327.307617,4326.025879,4341.153809,4342.051270,4245.384766,4321.025879,4314.615234,4343.333496,4325.128418,4313.589844,4495.384766,4549.487305,4428.205078,4467.307617,5479.000000,2.000000,42.000000,,,,0.000000,4.000000,4.000000,4.000000,4.000000,4.000000,4.000000,4.000000,4.000000,4.000000,4.000000,4.000000,4.000000,4.000000,4.000000,100.000000,,,,,,,,,,,,,,,,,,,,,,,,,,,,,,,,,,,,,,,,,,,,,,,,,,,,,,,,,,,,,,,,,,,,,,,,,,,,,,,,,,,,,,,,,,,,,,,,,,,,,,,,,,,,,,,,,,,,,
1768294532.575718,1768294532.576870,102.000000,0.000000,4336.922852,4327.179688,4349.230957,4345.384766,4249.743652,4321.538574,4318.717773,4345.128418,4323.589844,4316.410156,4496.025879,4553.077148,4423.205078,4477.307617,3944.000000,2.000000,42.000000,,,,0.000000,4.000000,4.000000,4.000000,4.000000,4.000000,4.000000,4.000000,4.000000,4.000000,4.000000,4.000000,4.000000,4.000000,4.000000,100.000000,,,,,,,,,,,,,,,,,,,,,,,,,,,,,,,,,,,,,,,,,,,,,,,,,,,,,,,,,,,,,,,,,,,,,,,,,,,,,,,,,,,,,,,,,,,,,,,,,,,,,,,,,,,,,,,,,,,,,
1768294532.583526,1768294532.584679,103.000000,0.000000,4342.820313,4327.563965,4357.051270,4346.538574,4249.743652,4318.333496,4318.077148,4342.051270,4318.333496,4318.974121,4498.461426,4556.153809,4424.230957,4484.871582,4716.000000,2.000000,42.000000,,,,0.000000,4.000000,4.000000,4.000000,4.000000,4.000000,4.000000,4.000000,4.000000,4.000000,4.000000,4.000000,4.000000,4.000000,4.000000,100.000000,,,,,,,,,,,,,,,,,,,,,,,,,,,,,,,,,,,,,,,,,,,,,,,,,,,,,,,,,,,,,,,,,,,,,,,,,,,,,,,,,,,,,,,,,,,,,,,,,,,,,,,,,,,,,,,,,,,,,
1768294532.591335,1768294532.592288,104.000000,0.000000,4341.282227,4324.871582,4355.641113,4344.615234,4245.384766,4316.538574,4315.256348,4343.333496,4321.282227,4323.333496,4502.307617,4563.717773,4433.717773,4485.897461,2321.000000,2.000000,42.000000,,,,0.000000,4.000000,4.000000,4.000000,4.000000,4.000000,4.000000,4.000000,4.000000,4.000000,4.000000,4.000000,4.000000,4.000000,4.000000,100.000000,,,,,,,,,,,,,,,,,,,,,,,,,,,,,,,,,,,,,,,,,,,,,,,,,,,,,,,,,,,,,,,,,,,,,,,,,,,,,,,,,,,,,,,,,,,,,,,,,,,,,,,,,,,,,,,,,,,,,
1768294532.599143,1768294532.600096,105.000000,0.000000,4336.922852,4319.743652,4347.948730,4343.333496,4246.153809,4317.563965,4318.461426,4354.102539,4329.102539,4327.692383,4507.179688,4570.897461,4441.666504,4487.436035,5479.000000,2.000000,42.000000,,,,0.000000,4.000000,4.000000,4.000000,4.000000,4.000000,4.000000,4.000000,4.000000,4.000000,4.000000,4.000000,4.000000,4.000000,4.000000,100.000000,,,,,,,,,,,,,,,,,,,,,,,,,,,,,,,,,,,,,,,,,,,,,,,,,,,,,,,,,,,,,,,,,,,,,,,,,,,,,,,,,,,,,,,,,,,,,,,,,,,,,,,,,,,,,,,,,,,,,
1768294532.606952,1768294532.607805,106.000000,0.000000,4332.820313,4317.692383,4340.769043,4345.256348,4250.512695,4316.538574,4318.077148,4348.717773,4327.692383,4327.820313,4505.128418,4557.436035,4437.563965,4482.436035,3944.000000,2.000000,42.000000,,,,0.000000,4.000000,4.000000,4.000000,4.000000,4.000000,4.000000,4.000000,4.000000,4.000000,4.000000,4.000000,4.000000,4.000000,4.000000,100.000000,,,,,,,,,,,,,,,,,,,,,,,,,,,,,,,,,,,,,,,,,,,,,,,,,,,,,,,,,,,,,,,,,,,,,,,,,,,,,,,,,,,,,,,,,,,,,,,,,,,,,,,,,,,,,,,,,,,,,
1768294532.614760,1768294532.615613,107.000000,0.000000,4331.410156,4317.563965,4341.666504,4349.743652,4250.128418,4318.333496,4317.307617,4338.205078,4322.179688,4322.051270,4500.512695,4540.897461,4426.538574,4472.307617,4716.000000,2.000000,42.000000,,,,0.000000,4.000000,4.000000,4.000000,4.000000,4.000000,4.000000,4.000000,4.000000,4.000000,4.000000,4.000000,4.000000,4.000000,4.000000,100.000000,,,,,,,,,,,,,,,,,,,,,,,,,,,,,,,,,,,,,,,,,,,,,,,,,,,,,,,,,,,,,,,,,,,,,,,,,,,,,,,,,,,,,,,,,,,,,,,,,,,,,,,,,,,,,,,,,,,,,
1768294532.622569,1768294532.623222,108.000000,0.000000,4332.051270,4313.717773,4345.384766,4348.846191,4249.230957,4322.692383,4322.307617,4341.794922,4324.871582,4315.000000,4501.538574,4545.769043,4423.589844,4470.384766,2321.000000,2.000000,42.000000,,,,0.000000,4.000000,4.000000,4.000000,4.000000,4.000000,4.000000,4.000000,4.000000,4.000000,4.000000,4.000000,4.000000,4.000000,4.000000,100.000000,,,,,,,,,,,,,,,,,,,,,,,,,,,,,,,,,,,,,,,,,,,,,,,,,,,,,,,,,,,,,,,,,,,,,,,,,,,,,,,,,,,,,,,,,,,,,,,,,,,,,,,,,,,,,,,,,,,,,
1768294532.630377,1768294532.631030,109.000000,0.000000,4330.512695,4308.846191,4341.922852,4342.436035,4251.922852,4321.153809,4318.974121,4339.487305,4324.871582,4316.282227,4499.230957,4552.051270,4425.128418,4471.153809,5479.000000,2.000000,42.000000,,,,0.000000,4.000000,4.000000,4.000000,4.000000,4.000000,4.000000,4.000000,4.000000,4.000000,4.000000,4.000000,4.000000,4.000000,4.000000,100.000000,,,,,,,,,,,,,,,,,,,,,,,,,,,,,,,,,,,,,,,,,,,,,,,,,,,,,,,,,,,,,,,,,,,,,,,,,,,,,,,,,,,,,,,,,,,,,,,,,,,,,,,,,,,,,,,,,,,,,
1768294532.638186,1768294532.638739,110.000000,0.000000,4326.922852,4308.205078,4338.974121,4340.256348,4250.256348,4317.820313,4315.512695,4337.436035,4321.410156,4318.077148,4493.846191,4546.922852,4423.205078,4467.563965,3944.000000,2.000000,42.000000,,,,0.000000,4.000000,4.000000,4.000000,4.000000,4.000000,4.000000,4.000000,4.000000,4.000000,4.000000,4.000000,4.000000,4.000000,4.000000,100.000000,,,,,,,,,,,,,,,,,,,,,,,,,,,,,,,,,,,,,,,,,,,,,,,,2.628610,1.021493,0.405203,0.720634,0.447114,3.420758,0.342200,0.388819,0.482523,0.285485,1.816222,0.424358,0.273090,0.430648,0.244903,1.151421,0.284392,0.329251,0.360337,0.231744,0.729370,0.226691,0.181971,0.144321,0.088983,0.078689,0.145024,0.262505,0.118424,0.134050,0.522136,0.358397,0.616519,0.318680,0.436868,0.485753,0.496714,1.081144,0.426890,0.666673,0.319608,0.217754,0.187769,0.122964,0.193946,1.933210,0.544491,0.732460,0.306172,0.188053,0.772177,0.224579,0.176688,0.065250,0.211070,2.556934,0.885001,0.911956,0.352464,0.689448,1.774013,0.397554,0.564740,0.322010,0.382963,2.405299,1.045720,0.744494,0.388931,0.527527
1768294532.645994,1768294532.646547,111.000000,0.000000,4328.846191,4311.282227,4344.230957,4343.205078,4252.307617,4321.922852,4322.307617,4348.846191,4325.000000,4319.358887,4499.230957,4549.102539,4427.307617,4472.563965,4716.000000,2.000000,42.000000,,,,0.000000,4.000000,4.000000,4.000000,4.000000,4.000000,4.000000,4.000000,4.000000,4.000000,4.000000,4.000000,4.000000,4.000000,4.000000,100.000000,,,,,,,,,,,,,,,,,,,,,,,,,,,,,,,,,,,,,,,,,,,,,,,,,,,,,,,,,,,,,,,,,,,,,,,,,,,,,,,,,,,,,,,,,,,,,,,,,,,,,,,,,,,,,,,,,,,,,
1768294532.653802,1768294532.654156,112.000000,0.000000,4337.692383,4314.743652,4347.820313,4344.358887,4260.512695,4325.000000,4323.846191,4353.589844,4327.820313,4323.846191,4507.307617,4558.333496,4434.102539,4484.487305,2321.000000,2.000000,42.000000,,,,0.000000,4.000000,4.000000,4.000000,4.000000,4.000000,4.000000,4.000000,4.000000,4.000000,4.000000,4.000000,4.000000,4.000000,4.000000,100.000000,,,,,,,,,,,,,,,,,,,,,,,,,,,,,,,,,,,,,,,,,,,,,,,,,,,,,,,,,,,,,,,,,,,,,,,,,,,,,,,,,,,,,,,,,,,,,,,,,,,,,,,,,,,,,,,,,,,,,
1768294532.661611,1768294532.661964,113.000000,0.000000,4341.025879,4311.666504,4342.948730,4345.641113,4261.282227,4321.025879,4317.692383,4341.282227,4320.897461,4320.641113,4501.025879,4553.589844,4427.307617,4482.051270,5479.000000,2.000000,42.000000,,,,0.000000,4.000000,4.000000,4.000000,4.000000,4.000000,4.000000,4.000000,4.000000,4.000000,4.000000,4.000000,4.000000,4.000000,4.000000,100.000000,,,,,,,,,,,,,,,,,,,,,,,,,,,,,,,,,,,,,,,,,,,,,,,,,,,,,,,,,,,,,,,,,,,,,,,,,,,,,,,,,,,,,,,,,,,,,,,,,,,,,,,,,,,,,,,,,,,,,
1768294532.669419,1768294532.669873,114.000000,0.000000,4335.512695,4305.384766,4341.666504,4345.384766,4258.205078,4317.692383,4315.384766,4331.538574,4317.307617,4317.563965,4493.589844,4543.461426,4416.282227,4472.820313,3944.000000,2.000000,42.000000,,,,0.000000,4.000000,4.000000,4.000000,4.000000,4.000000,4.000000,4.000000,4.000000,4.000000,4.000000,4.000000,4.000000,4.000000,4.000000,100.000000,,,,,,,,,,,,,,,,,,,,,,,,,,,,,,,,,,,,,,,,,,,,,,,,,,,,,,,,,,,,,,,,,,,,,,,,,,,,,,,,,,,,,,,,,,,,,,,,,,,,,,,,,,,,,,,,,,,,,
1768294532.677228,1768294532.677681,115.000000,0.000000,4335.256348,4309.615234,4349.487305,4346.666504,4265.512695,4319.487305,4317.051270,4334.487305,4323.333496,4322.948730,4499.743652,4550.641113,4420.897461,4477.307617,4716.000000,2.000000,42.000000,,,,0.000000,4.000000,4.000000,4.000000,4.000000,4.000000,4.000000,4.000000,4.000000,4.000000,4.000000,4.000000,4.000000,4.000000,4.000000,100.000000,,,,,,,,,,,,,,,,,,,,,,,,,,,,,,,,,,,,,,,,,,,,,,,,,,,,,,,,,,,,,,,,,,,,,,,,,,,,,,,,,,,,,,,,,,,,,,,,,,,,,,,,,,,,,,,,,,,,,
1768294532.685036,1768294532.685689,116.000000,0.000000,4343.077148,4315.769043,4355.128418,4352.051270,4273.589844,4319.487305,4316.922852,4343.205078,4327.436035,4322.692383,4503.974121,4562.948730,4433.077148,4485.897461,2321.000000,2.000000,42.000000,,,,0.000000,4.000000,4.000000,4.000000,4.000000,4.000000,4.000000,4.000000,4.000000,4.000000,4.000000,4.000000,4.000000,4.000000,4.000000,100.000000,,,,,,,,,,,,,,,,,,,,,,,,,,,,,,,,,,,,,,,,,,,,,,,,,,,,,,,,,,,,,,,,,,,,,,,,,,,,,,,,,,,,,,,,,,,,,,,,,,,,,,,,,,,,,,,,,,,,,
1768294532.692845,1768294532.693498,117.000000,0.000000,4344.102539,4310.897461,4350.897461,4351.153809,4270.256348,4315.769043,4310.897461,4343.846191,4322.563965,4314.487305,4497.436035,4555.641113,4430.769043,4485.128418,5479.000000,2.000000,42.000000,,,,0.000000,4.000000,4.000000,4.000000,4.000000,4.000000,4.000000,4.000000,4.000000,4.000000,4.000000,4.000000,4.000000,4.000000,4.000000,100.000000,,,,,,,,,,,,,,,,,,,,,,,,,,,,,,,,,,,,,,,,,,,,,,,,,,,,,,,,,,,,,,,,,,,,,,,,,,,,,,,,,,,,,,,,,,,,,,,,,,,,,,,,,,,,,,,,,,,,,
1768294532.700653,1768294532.701206,118.000000,0.000000,4332.179688,4305.769043,4341.922852,4341.794922,4267.692383,4314.615234,4306.153809,4332.692383,4318.717773,4311.794922,4493.205078,4542.051270,4420.512695,4477.563965,3944.000000,2.000000,42.000000,,,,0.000000,4.000000,4.000000,4.000000,4.000000,4.000000,4.000000,4.000000,4.000000,4.000000,4.000000,4.000000,4.000000,4.000000,4.000000,100.000000,,,,,,,,,,,,,,,,,,,,,,,,,,,,,,,,,,,,,,,,,,,,,,,,,,,,,,,,,,,,,,,,,,,,,,,,,,,,,,,,,,,,,,,,,,,,,,,,,,,,,,,,,,,,,,,,,,,,,
1768294532.708461,1768294532.709015,119.000000,0.000000,4325.384766,4310.769043,4340.000000,4340.128418,4275.769043,4319.230957,4315.384766,4333.077148,4324.230957,4315.641113,4497.948730,4545.000000,4420.256348,4471.666504,4716.000000,2.000000,42.000000,,,,0.000000,4.000000,4.000000,4.000000,4.000000,4.000000,4.000000,4.000000,4.000000,4.000000,4.000000,4.000000,4.000000,4.000000,4.000000,100.000000,,,,,,,,,,,,,,,,,,,,,,,,,,,,,,,,,,,,,,,,,,,,,,,,,,,,,,,,,,,,,,,,,,,,,,,,,,,,,,,,,,,,,,,,,,,,,,,,,,,,,,,,,,,,,,,,,,,,,
1768294532.716270,1768294532.717023,120.000000,0.000000,4327.051270,4311.410156,4341.666504,4343.077148,4282.436035,4320.897461,4323.717773,4346.153809,4328.333496,4316.410156,4500.128418,4549.358887,4425.384766,4470.384766,2321.000000,2.000000,42.000000,,,,0.000000,4.000000,4.000000,4.000000,4.000000,4.000000,4.000000,4.000000,4.000000,4.000000,4.000000,4.000000,4.000000,4.000000,4.000000,100.000000,,,,,,,,,,,,,,,,,,,,,,,,,,,,,,,,,,,,,,,,,,,,,,,,,,,,,,,,,,,,,,,,,,,,,,,,,,,,,,,,,,,,,,,,,,,,,,,,,,,,,,,,,,,,,,,,,,,,,
1768294532.724078,1768294532.724831,121.000000,0.000000,4329.358887,4307.820313,4339.871582,4340.128418,4280.384766,4317.436035,4316.794922,4338.846191,4320.641113,4312.820313,4493.717773,4540.512695,4420.897461,4468.589844,5479.000000,2.000000,42.000000,,,,0.000000,4.000000,4.000000,4.000000,4.000000,4.000000,4.000000,4.000000,4.000000,4.000000,4.000000,4.000000,4.000000,4.000000,4.000000,100.000000,,,,,,,,,,,,,,,,,,,,,,,,,,,,,,,,,,,,,,,,,,,,,,,,,,,,,,,,,,,,,,,,,,,,,,,,,,,,,,,,,,,,,,,,,,,,,,,,,,,,,,,,,,,,,,,,,,,,,
1768294532.731887,1768294532.732740,122.000000,0.000000,4331.922852,4310.512695,4342.179688,4341.666504,4280.256348,4319.487305,4318.205078,4326.538574,4315.769043,4312.436035,4492.179688,4536.794922,4412.948730,4465.641113,3944.000000,2.000000,42.000000,,,,0.000000,4.000000,4.000000,4.000000,4.000000,4.000000,4.000000,4.000000,4.000000,4.000000,4.000000,4.000000,4.000000,4.000000,4.000000,100.000000,,,,,,,,,,,,,,,,,,,,,,,,,,,,,,,,,,,,,,,,,,,,,,,,,,,,,,,,,,,,,,,,,,,,,,,,,,,,,,,,,,,,,,,,,,,,,,,,,,,,,,,,,,,,,,,,,,,,,
1768294532.739695,1768294532.740548,123.000000,0.000000,4330.641113,4315.641113,4350.000000,4347.692383,4287.563965,4322.948730,4328.461426,4339.615234,4319.102539,4316.410156,4498.205078,4546.538574,4417.436035,4466.666504,4716.000000,2.000000,42.000000,,,,0.000000,4.000000,4.000000,4.000000,4.000000,4.000000,4.000000,4.000000,4.000000,4.000000,4.000000,4.000000,4.000000,4.000000,4.000000,100.000000,,,,,,,,,,,,,,,,,,,,,,,,,,,,,,,,,,,,,,,,,,,,,,,,,,,,,,,,,,,,,,,,,,,,,,,,,,,,,,,,,,,,,,,,,,,,,,,,,,,,,,,,,,,,,,,,,,,,,
1768294532.747503,1768294532.748556,124.000000,0.000000,4326.025879,4315.512695,4348.077148,4343.846191,4295.128418,4317.051270,4322.307617,4344.615234,4321.025879,4316.922852,4497.692383,4547.307617,4424.615234,4469.871582,2321.000000,2.000000,42.000000,,,,0.000000,4.000000,4.000000,4.000000,4.000000,4.000000,4.000000,4.000000,4.000000,4.000000,4.000000,4.000000,4.000000,4.000000,4.000000,100.000000,,,,,,,,,,,,,,,,,,,,,,,,,,,,,,,,,,,,,,,,,,,,,,,,,,,,,,,,,,,,,,,,,,,,,,,,,,,,,,,,,,,,,,,,,,,,,,,,,,,,,,,,,,,,,,,,,,,,,
1768294532.755312,1768294532.756365,125.000000,0.000000,4324.487305,4313.589844,4340.512695,4339.487305,4296.410156,4310.512695,4311.025879,4329.230957,4320.641113,4315.897461,4494.743652,4540.769043,4424.102539,4471.025879,5479.000000,2.000000,42.000000,,,,0.000000,4.000000,4.000000,4.000000,4.000000,4.000000,4.000000,4.000000,4.000000,4.000000,4.000000,4.000000,4.000000,4.000000,4.000000,100.000000,,,,,,,,,,,,,,,,,,,,,,,,,,,,,,,,,,,,,,,,,,,,,,,,,,,,,,,,,,,,,,,,,,,,,,,,,,,,,,,,,,,,,,,,,,,,,,,,,,,,,,,,,,,,,,,,,,,,,
1768294532.763120,1768294532.764173,126.000000,0.000000,4327.179688,4318.461426,4343.077148,4344.102539,4296.538574,4312.307617,4310.641113,4324.487305,4319.358887,4321.282227,4497.692383,4541.794922,4425.769043,4471.025879,3944.000000,2.000000,42.000000,,,,0.000000,4.000000,4.000000,4.000000,4.000000,4.000000,4.000000,4.000000,4.000000,4.000000,4.000000,4.000000,4.000000,4.000000,4.000000,100.000000,,,,,,,,,,,,,,,,,,,,,,,,,,,,,,,,,,,,,,,,,,,,,,,,2.964946,0.839096,0.437942,0.692731,0.440060,3.748106,0.429274,0.396356,0.427637,0.282551,1.845212,0.398417,0.328981,0.410420,0.241162,1.118479,0.288146,0.326067,0.298780,0.215673,0.733823,0.231391,0.150973,0.116082,0.085455,0.068620,0.140823,0.230543,0.102772,0.114062,0.519745,0.383518,0.592029,0.268573,0.403489,0.466400,0.543792,1.023228,0.395670,0.669726,0.328653,0.211783,0.202062,0.109557,0.195177,1.931710,0.498359,0.714648,0.302142,0.193824,0.716531,0.232086,0.195593,0.073054,0.213512,2.691132,0.928909,0.983212,0.355793,0.655916,1.837428,0.379703,0.509034,0.311651,0.339558,2.632883,0.949683,0.708843,0.369733,0.496780
1768294532.770929,1768294532.771982,127.000000,0.000000,4332.563965,4321.794922,4348.461426,4349.487305,4299.358887,4314.871582,4312.820313,4332.820313,4320.256348,4321.153809,4497.820313,4545.641113,4428.461426,4473.461426,42.000000,2.000000,42.000000,,,,0.000000,4.000000,4.000000,4.000000,4.000000,4.000000,4.000000,4.000000,4.000000,4.000000,4.000000,4.000000,4.000000,4.000000,4.000000,100.000000,,,,,,,,,,,,,,,,,,,,,,,,,,,,,,,,,,,,,,,,,,,,,,,,,,,,,,,,,,,,,,,,,,,,,,,,,,,,,,,,,,,,,,,,,,,,,,,,,,,,,,,,,,,,,,,,,,,,,
1768294532.778737,1768294532.779590,0.000000,0.000000,4335.384766,4318.077148,4349.615234,4348.461426,4300.641113,4314.102539,4313.974121,4342.051270,4324.743652,4315.897461,4497.307617,4549.615234,4427.692383,4477.563965,4216.000000,2.000000,42.000000,,,,0.000000,4.000000,4.000000,4.000000,4.000000,4.000000,4.000000,4.000000,4.000000,4.000000,4.000000,4.000000,4.000000,4.000000,4.000000,100.000000,,,,,,,,,,,,,,,,,,,,,,,,,,,,,,,,,,,,,,,,,,,,,,,,,,,,,,,,,,,,,,,,,,,,,,,,,,,,,,,,,,,,,,,,,,,,,,,,,,,,,,,,,,,,,,,,,,,,,
1768294532.786546,1768294532.787399,1.000000,0.000000,4329.871582,4313.333496,4341.025879,4342.179688,4298.846191,4314.487305,4313.717773,4340.256348,4323.974121,4318.974121,4497.948730,4546.538574,4426.282227,4473.461426,3872.000000,2.000000,42.000000,,,,0.000000,4.000000,4.000000,4.000000,4.000000,4.000000,4.000000,4.000000,4.000000,4.000000,4.000000,4.000000,4.000000,4.000000,4.000000,100.000000,,,,,,,,,,,,,,,,,,,,,,,,,,,,,,,,,,,,,,,,,,,,,,,,,,,,,,,,,,,,,,,,,,,,,,,,,,,,,,,,,,,,,,,,,,,,,,,,,,,,,,,,,,,,,,,,,,,,,
1768294532.794354,1768294532.795107,2.000000,0.000000,4319.871582,4310.512695,4327.948730,4335.256348,4296.666504,4312.820313,4313.205078,4331.410156,4321.410156,4321.410156,4495.769043,4538.461426,4425.641113,4462.820313,4031.000000,2.000000,42.000000,,,,0.000000,4.000000,4.000000,4.000000,4.000000,4.000000,4.000000,4.000000,4.000000,4.000000,4.000000,4.000000,4.000000,4.000000,4.000000,100.000000,,,,,,,,,,,,,,,,,,,,,,,,,,,,,,,,,,,,,,,,,,,,,,,,,,,,,,,,,,,,,,,,,,,,,,,,,,,,,,,,,,,,,,,,,,,,,,,,,,,,,,,,,,,,,,,,,,,,,
1768294532.802163,1768294532.802916,3.000000,0.000000,4324.102539,4313.461426,4334.102539,4340.897461,4304.102539,4313.461426,4317.820313,4333.461426,4323.846191,4317.820313,4497.436035,4542.051270,4426.922852,4469.615234,3917.000000,2.000000,42.000000,,,,0.000000,4.000000,4.000000,4.000000,4.000000,4.000000,4.000000,4.000000,4.000000,4.000000,4.000000,4.000000,4.000000,4.000000,4.000000,100.000000,,,,,,,,,,,,,,,,,,,,,,,,,,,,,,,,,,,,,,,,,,,,,,,,,,,,,,,,,,,,,,,,,,,,,,,,,,,,,,,,,,,,,,,,,,,,,,,,,,,,,,,,,,,,,,,,,,,,,
1768294532.809971,1768294532.810525,4.000000,0.000000,4337.563965,4321.025879,4348.974121,4351.153809,4313.589844,4316.282227,4324.487305,4341.025879,4323.974121,4318.205078,4500.769043,4549.102539,4430.000000,4482.307617,3789.000000,2.000000,42.000000,,,,0.000000,4.000000,4.000000,4.000000,4.000000,4.000000,4.000000,4.000000,4.000000,4.000000,4.000000,4.000000,4.000000,4.000000,4.000000,100.000000,,,,,,,,,,,,,,,,,,,,,,,,,,,,,,,,,,,,,,,,,,,,,,,,,,,,,,,,,,,,,,,,,,,,,,,,,,,,,,,,,,,,,,,,,,,,,,,,,,,,,,,,,,,,,,,,,,,,,
1768294532.817779,1768294532.818333,5.000000,0.000000,4336.538574,4319.358887,4343.589844,4345.000000,4308.717773,4313.589844,4320.256348,4339.487305,4323.077148,4323.717773,4498.333496,4542.307617,4427.948730,4474.102539,3044.000000,2.000000,42.000000,,,,0.000000,4.000000,4.000000,4.000000,4.000000,4.000000,4.000000,4.000000,4.000000,4.000000,4.000000,4.000000,4.000000,4.000000,4.000000,100.000000,,,,,,,,,,,,,,,,,,,,,,,,,,,,,,,,,,,,,,,,,,,,,,,,,,,,,,,,,,,,,,,,,,,,,,,,,,,,,,,,,,,,,,,,,,,,,,,,,,,,,,,,,,,,,,,,,,,,,
1768294532.825588,1768294532.826042,6.000000,0.000000,4326.153809,4310.128418,4332.820313,4337.307617,4304.358887,4314.358887,4313.333496,4338.461426,4328.846191,4325.897461,4496.538574,4537.179688,4424.102539,4463.333496,3458.000000,2.000000,42.000000,,,,0.000000,4.000000,4.000000,4.000000,4.000000,4.000000,4.000000,4.000000,4.000000,4.000000,4.000000,4.000000,4.000000,4.000000,4.000000,100.000000,,,,,,,,,,,,,,,,,,,,,,,,,,,,,,,,,,,,,,,,,,,,,,,,,,,,,,,,,,,,,,,,,,,,,,,,,,,,,,,,,,,,,,,,,,,,,,,,,,,,,,,,,,,,,,,,,,,,,
1768294532.833396,1768294532.833850,7.000000,0.000000,4320.769043,4308.461426,4333.333496,4340.384766,4312.563965,4318.974121,4317.692383,4347.051270,4331.666504,4323.717773,4497.307617,4543.589844,4423.205078,4464.743652,3582.000000,2.000000,42.000000,,,,0.000000,4.000000,4.000000,4.000000,4.000000,4.000000,4.000000,4.000000,4.000000,4.000000,4.000000,4.000000,4.000000,4.000000,4.000000,100.000000,,,,,,,,,,,,,,,,,,,,,,,,,,,,,,,,,,,,,,,,,,,,,,,,,,,,,,,,,,,,,,,,,,,,,,,,,,,,,,,,,,,,,,,,,,,,,,,,,,,,,,,,,,,,,,,,,,,,,
1768294532.841205,1768294532.841459,8.000000,0.000000,4313.077148,4302.179688,4327.563965,4334.743652,4312.436035,4317.307617,4322.436035,4342.948730,4325.256348,4315.128418,4491.922852,4536.410156,4415.000000,4457.692383,2728.000000,2.000000,42.000000,,,,0.000000,4.000000,4.000000,4.000000,4.000000,4.000000,4.000000,4.000000,4.000000,4.000000,4.000000,4.000000,4.000000,4.000000,4.000000,100.000000,,,,,,,,,,,,,,,,,,,,,,,,,,,,,,,,,,,,,,,,,,,,,,,,,,,,,,,,,,,,,,,,,,,,,,,,,,,,,,,,,,,,,,,,,,,,,,,,,,,,,,,,,,,,,,,,,,,,,
1768294532.849013,1768294532.849267,9.000000,0.000000,4310.384766,4288.717773,4322.692383,4325.897461,4303.846191,4312.563965,4314.487305,4331.794922,4324.871582,4310.641113,4488.717773,4526.666504,4407.820313,4448.846191,3530.000000,2.000000,42.000000,,,,0.000000,4.000000,4.000000,4.000000,4.000000,4.000000,4.000000,4.000000,4.000000,4.000000,4.000000,4.000000,4.000000,4.000000,4.000000,100.000000,,,,,,,,,,,,,,,,,,,,,,,,,,,,,,,,,,,,,,,,,,,,,,,,,,,,,,,,,,,,,,,,,,,,,,,,,,,,,,,,,,,,,,,,,,,,,,,,,,,,,,,,,,,,,,,,,,,,,
1768294532.856821,1768294532.856976,10.000000,0.000000,4323.717773,4292.436035,4340.128418,4332.563965,4309.743652,4315.128418,4312.051270,4342.307617,4335.256348,4326.282227,4499.358887,4546.794922,4420.897461,4464.102539,3939.000000,2.000000,42.000000,,,,0.000000,4.000000,4.000000,4.000000,4.000000,4.000000,4.000000,4.000000,4.000000,4.000000,4.000000,4.000000,4.000000,4.000000,4.000000,100.000000,,,,,,,,,,,,,,,,,,,,,,,,,,,,,,,,,,,,,,,,,,,,,,,,,,,,,,,,,,,,,,,,,,,,,,,,,,,,,,,,,,,,,,,,,,,,,,,,,,,,,,,,,,,,,,,,,,,,,
1768294532.864630,1768294532.864784,11.000000,0.000000,4331.922852,4308.846191,4353.974121,4342.820313,4322.436035,4318.974121,4322.563965,4354.487305,4340.641113,4343.077148,4505.897461,4567.436035,4436.666504,4480.512695,4709.000000,2.000000,42.000000,,,,0.000000,4.000000,4.000000,4.000000,4.000000,4.000000,4.000000,4.000000,4.000000,4.000000,4.000000,4.000000,4.000000,4.000000,4.000000,100.000000,,,,,,,,,,,,,,,,,,,,,,,,,,,,,,,,,,,,,,,,,,,,,,,,,,,,,,,,,,,,,,,,,,,,,,,,,,,,,,,,,,,,,,,,,,,,,,,,,,,,,,,,,,,,,,,,,,,,,
