title:remote_16, start timestamp:1768295115.950625, stop timestamp:1768295146.528409, headset type:EPOCX, headset serial:E5020E3B, headset firmware:730, channels:156, sampling rate:eeg_128;pm_0.1;pow_8, samples:3917      , version:2.2, 
Timestamp,OriginalTimestamp,EEG.Counter,EEG.Interpolated,EEG.AF3,EEG.F7,EEG.F3,EEG.FC5,EEG.T7,EEG.P7,EEG.O1,EEG.O2,EEG.P8,EEG.T8,EEG.FC6,EEG.F4,EEG.F8,EEG.AF4,EEG.RawCq,EEG.Battery,EEG.BatteryPercent,MarkerIndex,MarkerType,MarkerValueInt,EEG.MarkerHardware,CQ.AF3,CQ.F7,CQ.F3,CQ.FC5,CQ.T7,CQ.P7,CQ.O1,CQ.O2,CQ.P8,CQ.T8,CQ.FC6,CQ.F4,CQ.F8,CQ.AF4,CQ.Overall,EQ.SampleRateQuality,EQ.OVERALL,EQ.AF3,EQ.F7,EQ.F3,EQ.FC5,EQ.T7,EQ.P7,EQ.O1,EQ.O2,EQ.P8,EQ.T8,EQ.FC6,EQ.F4,EQ.F8,EQ.AF4,PM.Attention.IsActive,PM.Attention.Scaled,PM.Attention.Raw,PM.Attention.Min,PM.Attention.Max,PM.Engagement.IsActive,PM.Engagement.Scaled,PM.Engagement.Raw,PM.Engagement.Min,PM.Engagement.Max,PM.Excitement.IsActive,PM.Excitement.Scaled,PM.Excitement.Raw,PM.Excitement.Min,PM.Excitement.Max,PM.LongTermExcitement,PM.Stress.IsActive,PM.Stress.Scaled,PM.Stress.Raw,PM.Stress.Min,PM.Stress.Max,PM.Relaxation.IsActive,PM.Relaxation.Scaled,PM.Relaxation.Raw,PM.Relaxation.Min,PM.Relaxation.Max,PM.Interest.IsActive,PM.Interest.Scaled,PM.Interest.Raw,PM.Interest.Min,PM.Interest.Max,POW.AF3.Theta,POW.AF3.Alpha,POW.AF3.BetaL,POW.AF3.BetaH,POW.AF3.Gamma,POW.F7.Theta,POW.F7.Alpha,POW.F7.BetaL,POW.F7.BetaH,POW.F7.Gamma,POW.F3.Theta,POW.F3.Alpha,POW.F3.BetaL,POW.F3.BetaH,POW.F3.Gamma,POW.FC5.Theta,POW.FC5.Alpha,POW.FC5.BetaL,POW.FC5.BetaH,POW.FC5.Gamma,POW.T7.Theta,POW.T7.Alpha,POW.T7.BetaL,POW.T7.BetaH,POW.T7.Gamma,POW.P7.Theta,POW.P7.Alpha,POW.P7.BetaL,POW.P7.BetaH,POW.P7.Gamma,POW.O1.Theta,POW.O1.Alpha,POW.O1.BetaL,POW.O1.BetaH,POW.O1.Gamma,POW.O2.Theta,POW.O2.Alpha,POW.O2.BetaL,POW.O2.BetaH,POW.O2.Gamma,POW.P8.Theta,POW.P8.Alpha,POW.P8.BetaL,POW.P8.BetaH,POW.P8.Gamma,POW.T8.Theta,POW.T8.Alpha,POW.T8.BetaL,POW.T8.BetaH,POW.T8.Gamma,POW.FC6.Theta,POW.FC6.Alpha,POW.FC6.BetaL,POW.FC6.BetaH,POW.FC6.Gamma,POW.F4.Theta,POW.F4.Alpha,POW.F4.BetaL,POW.F4.BetaH,POW.F4.Gamma,POW.F8.Theta,POW.F8.Alpha,POW.F8.BetaL,POW.F8.BetaH,POW.F8.Gamma,POW.AF4.Theta,POW.AF4.Alpha,POW.AF4.BetaL,POW.AF4.BetaH,POW.AF4.Gamma
1768295115.950625,1768295115.951186,61.000000,0.000000,4316.153809,4296.922852,4347.179688,4345.641113,4311.153809,4309.358887,4303.846191,4330.256348,4319.487305,4307.307617,4506.538574,4538.205078,4414.487305,4484.230957,0.000000,2.000000,40.000000,,,,0.000000,4.000000,4.000000,4.000000,4.000000,4.000000,4.000000,4.000000,4.000000,4.000000,4.000000,4.000000,4.000000,4.000000,4.000000,100.000000,,,,,,,,,,,,,,,,,,,,,,,,,,,,,,,,,,,,,,,,,,,,,,,,,,,,,,,,,,,,,,,,,,,,,,,,,,,,,,,,,,,,,,,,,,,,,,,,,,,,,,,,,,,,,,,,,,,,,
1768295115.958433,1768295115.958895,62.000000,0.000000,4320.641113,4300.384766,4346.410156,4345.897461,4308.333496,4311.282227,4297.820313,4331.922852,4324.102539,4303.333496,4506.410156,4538.461426,4415.384766,4481.794922,0.000000,2.000000,40.000000,,,,0.000000,4.000000,4.000000,4.000000,4.000000,4.000000,4.000000,4.000000,4.000000,4.000000,4.000000,4.000000,4.000000,4.000000,4.000000,100.000000,,,,,,,,,,,,,,,,,,,,,,,,,,,,,,,,,,,,,,,,,,,,,,,,1.044788,0.680001,0.428286,0.497001,0.326344,1.554776,0.540635,0.240988,0.370558,0.235652,1.241525,0.736924,0.281541,0.355484,0.215990,0.508751,0.399390,0.239783,0.195359,0.155572,0.304753,0.186689,0.222682,0.107584,0.087373,0.162259,0.143825,0.116650,0.095998,0.096664,0.139949,0.431907,0.523534,0.218074,0.223111,0.321078,0.535792,0.878181,0.235061,0.215541,0.161679,0.209394,0.245349,0.137850,0.079375,0.952136,0.696947,0.732032,0.529183,0.237392,0.579206,0.257260,0.250446,0.109217,0.064729,2.552323,1.009449,0.632196,0.543807,0.395916,1.158445,0.570485,0.405038,0.285790,0.170354,3.600074,1.306614,0.313932,0.544797,0.303274
1768295115.966241,1768295115.966703,63.000000,0.000000,4315.128418,4299.358887,4340.897461,4342.563965,4304.871582,4308.974121,4302.307617,4331.153809,4321.025879,4295.641113,4499.871582,4530.384766,4410.641113,4470.384766,0.000000,2.000000,40.000000,,,,0.000000,4.000000,4.000000,4.000000,4.000000,4.000000,4.000000,4.000000,4.000000,4.000000,4.000000,4.000000,4.000000,4.000000,4.000000,100.000000,,,,,,,,,,,,,,,,,,,,,,,,,,,,,,,,,,,,,,,,,,,,,,,,,,,,,,,,,,,,,,,,,,,,,,,,,,,,,,,,,,,,,,,,,,,,,,,,,,,,,,,,,,,,,,,,,,,,,
1768295115.974050,1768295115.974712,64.000000,0.000000,4315.512695,4298.717773,4341.922852,4344.102539,4308.461426,4308.974121,4309.487305,4326.794922,4318.846191,4301.666504,4498.846191,4527.179688,4409.358887,4471.922852,4233.000000,2.000000,40.000000,,,,0.000000,4.000000,4.000000,4.000000,4.000000,4.000000,4.000000,4.000000,4.000000,4.000000,4.000000,4.000000,4.000000,4.000000,4.000000,100.000000,,,,,,,,,,,,,,,,,,,,,,,,,,,,,,,,,,,,,,,,,,,,,,,,,,,,,,,,,,,,,,,,,,,,,,,,,,,,,,,,,,,,,,,,,,,,,,,,,,,,,,,,,,,,,,,,,,,,,
1768295115.981858,1768295115.982520,65.000000,0.000000,4318.589844,4299.487305,4346.666504,4346.922852,4312.307617,4314.615234,4313.589844,4329.615234,4321.538574,4306.025879,4506.025879,4539.102539,4414.102539,4480.512695,3820.000000,2.000000,40.000000,,,,0.000000,4.000000,4.000000,4.000000,4.000000,4.000000,4.000000,4.000000,4.000000,4.000000,4.000000,4.000000,4.000000,4.000000,4.000000,100.000000,,,,,,,,,,,,,,,,,,,,,,,,,,,,,,,,,,,,,,,,,,,,,,,,,,,,,,,,,,,,,,,,,,,,,,,,,,,,,,,,,,,,,,,,,,,,,,,,,,,,,,,,,,,,,,,,,,,,,
1768295115.989667,1768295115.990428,66.000000,0.000000,4317.051270,4297.051270,4344.358887,4342.051270,4308.205078,4315.384766,4312.436035,4332.692383,4320.384766,4300.641113,4506.794922,4542.692383,4416.410156,4477.563965,4034.000000,2.000000,40.000000,,,,0.000000,4.000000,4.000000,4.000000,4.000000,4.000000,4.000000,4.000000,4.000000,4.000000,4.000000,4.000000,4.000000,4.000000,4.000000,100.000000,,,,,,,,,,,,,,,,,,,,,,,,,,,,,,,,,,,,,,,,,,,,,,,,,,,,,,,,,,,,,,,,,,,,,,,,,,,,,,,,,,,,,,,,,,,,,,,,,,,,,,,,,,,,,,,,,,,,,
1768295115.997475,1768295115.998237,67.000000,0.000000,4314.615234,4299.102539,4335.512695,4339.102539,4302.692383,4306.666504,4302.692383,4325.000000,4315.641113,4292.563965,4500.000000,4523.974121,4412.436035,4470.769043,3916.000000,2.000000,40.000000,,,,0.000000,4.000000,4.000000,4.000000,4.000000,4.000000,4.000000,4.000000,4.000000,4.000000,4.000000,4.000000,4.000000,4.000000,4.000000,100.000000,,,,,,,,,,,,,,,,,,,,,,,,,,,,,,,,,,,,,,,,,,,,,,,,,,,,,,,,,,,,,,,,,,,,,,,,,,,,,,,,,,,,,,,,,,,,,,,,,,,,,,,,,,,,,,,,,,,,,
1768295116.005283,1768295116.006245,68.000000,0.000000,4314.230957,4308.333496,4331.666504,4342.179688,4300.512695,4303.846191,4297.436035,4319.230957,4310.897461,4293.077148,4496.666504,4509.743652,4410.256348,4464.871582,3790.000000,2.000000,40.000000,,,,0.000000,4.000000,4.000000,4.000000,4.000000,4.000000,4.000000,4.000000,4.000000,4.000000,4.000000,4.000000,4.000000,4.000000,4.000000,100.000000,,,,,,,,,,,,,,,,,,,,,,,,,,,,,,,,,,,,,,,,,,,,,,,,,,,,,,,,,,,,,,,,,,,,,,,,,,,,,,,,,,,,,,,,,,,,,,,,,,,,,,,,,,,,,,,,,,,,,
1768295116.013092,1768295116.014054,69.000000,0.000000,4318.077148,4315.512695,4335.256348,4341.666504,4299.615234,4305.641113,4301.922852,4318.077148,4307.563965,4301.666504,4498.717773,4519.871582,4413.461426,4464.358887,3224.000000,2.000000,40.000000,,,,0.000000,4.000000,4.000000,4.000000,4.000000,4.000000,4.000000,4.000000,4.000000,4.000000,4.000000,4.000000,4.000000,4.000000,4.000000,100.000000,,,,,,,,,,,,,,,,,,,,,,,,,,,,,,,,,,,,,,,,,,,,,,,,,,,,,,,,,,,,,,,,,,,,,,,,,,,,,,,,,,,,,,,,,,,,,,,,,,,,,,,,,,,,,,,,,,,,,
1768295116.020900,1768295116.021962,70.000000,0.000000,4321.282227,4318.077148,4334.358887,4341.153809,4297.307617,4300.256348,4300.641113,4315.128418,4308.974121,4305.384766,4500.384766,4531.538574,4414.102539,4471.922852,3501.000000,2.000000,40.000000,,,,0.000000,4.000000,4.000000,4.000000,4.000000,4.000000,4.000000,4.000000,4.000000,4.000000,4.000000,4.000000,4.000000,4.000000,4.000000,100.000000,,,,,,,,,,,,,,,,,,,,,,,,,,,,,,,,,,,,,,,,,,,,,,,,,,,,,,,,,,,,,,,,,,,,,,,,,,,,,,,,,,,,,,,,,,,,,,,,,,,,,,,,,,,,,,,,,,,,,
1768295116.028709,1768295116.029770,71.000000,0.000000,4316.794922,4320.128418,4330.128418,4340.384766,4296.410156,4297.948730,4294.615234,4316.794922,4314.615234,4296.922852,4498.974121,4523.461426,4412.307617,4471.025879,3450.000000,2.000000,40.000000,,,,0.000000,4.000000,4.000000,4.000000,4.000000,4.000000,4.000000,4.000000,4.000000,4.000000,4.000000,4.000000,4.000000,4.000000,4.000000,100.000000,,,,,,,,,,,,,,,,,,,,,,,,,,,,,,,,,,,,,,,,,,,,,,,,,,,,,,,,,,,,,,,,,,,,,,,,,,,,,,,,,,,,,,,,,,,,,,,,,,,,,,,,,,,,,,,,,,,,,
1768295116.036517,1768295116.037379,72.000000,0.000000,4312.692383,4326.282227,4331.666504,4340.256348,4300.000000,4306.538574,4301.282227,4324.743652,4317.436035,4293.461426,4496.282227,4516.282227,4412.563965,4462.692383,2588.000000,2.000000,40.000000,,,,0.000000,4.000000,4.000000,4.000000,4.000000,4.000000,4.000000,4.000000,4.000000,4.000000,4.000000,4.000000,4.000000,4.000000,4.000000,100.000000,,,,,,,,,,,,,,,,,,,,,,,,,,,,,,,,,,,,,,,,,,,,,,,,,,,,,,,,,,,,,,,,,,,,,,,,,,,,,,,,,,,,,,,,,,,,,,,,,,,,,,,,,,,,,,,,,,,,,
1768295116.044326,1768295116.045188,73.000000,0.000000,4316.666504,4330.384766,4333.077148,4343.846191,4302.820313,4311.410156,4309.871582,4324.230957,4315.769043,4297.692383,4496.153809,4519.102539,4412.948730,4461.922852,3532.000000,2.000000,40.000000,,,,0.000000,4.000000,4.000000,4.000000,4.000000,4.000000,4.000000,4.000000,4.000000,4.000000,4.000000,4.000000,4.000000,4.000000,4.000000,100.000000,,,,,,,,,,,,,,,,,,,,,,,,,,,,,,,,,,,,,,,,,,,,,,,,,,,,,,,,,,,,,,,,,,,,,,,,,,,,,,,,,,,,,,,,,,,,,,,,,,,,,,,,,,,,,,,,,,,,,
1768295116.052134,1768295116.052896,74.000000,0.000000,4319.871582,4328.589844,4335.000000,4344.487305,4303.077148,4309.871582,4308.333496,4319.615234,4317.948730,4297.948730,4497.692383,4523.205078,4411.410156,4465.897461,3819.000000,2.000000,40.000000,,,,0.000000,4.000000,4.000000,4.000000,4.000000,4.000000,4.000000,4.000000,4.000000,4.000000,4.000000,4.000000,4.000000,4.000000,4.000000,100.000000,,,,,,,,,,,,,,,,,,,,,,,,,,,,,,,,,,,,,,,,,,,,,,,,,,,,,,,,,,,,,,,,,,,,,,,,,,,,,,,,,,,,,,,,,,,,,,,,,,,,,,,,,,,,,,,,,,,,,
1768295116.059942,1768295116.060705,75.000000,0.000000,4317.436035,4329.230957,4340.641113,4342.436035,4304.871582,4310.512695,4307.307617,4325.000000,4323.589844,4299.230957,4496.538574,4525.769043,4408.077148,4464.358887,4689.000000,2.000000,40.000000,,,,0.000000,4.000000,4.000000,4.000000,4.000000,4.000000,4.000000,4.000000,4.000000,4.000000,4.000000,4.000000,4.000000,4.000000,4.000000,100.000000,,,,,,,,,,,,,,,,,,,,,,,,,,,,,,,,,,,,,,,,,,,,,,,,,,,,,,,,,,,,,,,,,,,,,,,,,,,,,,,,,,,,,,,,,,,,,,,,,,,,,,,,,,,,,,,,,,,,,
1768295116.067751,1768295116.068313,76.000000,0.000000,4314.358887,4332.948730,4339.487305,4345.256348,4307.179688,4310.897461,4305.512695,4328.205078,4321.538574,4298.717773,4493.974121,4521.282227,4398.205078,4458.589844,2381.000000,2.000000,40.000000,,,,0.000000,4.000000,4.000000,4.000000,4.000000,4.000000,4.000000,4.000000,4.000000,4.000000,4.000000,4.000000,4.000000,4.000000,4.000000,100.000000,,,,,,,,,,,,,,,,,,,,,,,,,,,,,,,,,,,,,,,,,,,,,,,,,,,,,,,,,,,,,,,,,,,,,,,,,,,,,,,,,,,,,,,,,,,,,,,,,,,,,,,,,,,,,,,,,,,,,
1768295116.075559,1768295116.076122,77.000000,0.000000,4320.512695,4333.717773,4339.102539,4350.384766,4305.641113,4310.000000,4303.333496,4328.717773,4316.794922,4291.538574,4494.487305,4520.000000,4393.461426,4459.230957,5427.000000,2.000000,40.000000,,,,0.000000,4.000000,4.000000,4.000000,4.000000,4.000000,4.000000,4.000000,4.000000,4.000000,4.000000,4.000000,4.000000,4.000000,4.000000,100.000000,,,,,,,,,,,,,,,,,,,,,,,,,,,,,,,,,,,,,,,,,,,,,,,,,,,,,,,,,,,,,,,,,,,,,,,,,,,,,,,,,,,,,,,,,,,,,,,,,,,,,,,,,,,,,,,,,,,,,
1768295116.083368,1768295116.084030,78.000000,0.000000,4327.948730,4330.769043,4345.769043,4350.641113,4301.666504,4309.487305,4306.666504,4336.410156,4318.717773,4287.563965,4500.000000,4531.282227,4403.205078,4469.358887,3819.000000,2.000000,40.000000,,,,0.000000,4.000000,4.000000,4.000000,4.000000,4.000000,4.000000,4.000000,4.000000,4.000000,4.000000,4.000000,4.000000,4.000000,4.000000,100.000000,1.000000,50.000000,4.000000,4.000000,4.000000,4.000000,4.000000,1.000000,4.000000,4.000000,1.000000,4.000000,4.000000,4.000000,4.000000,4.000000,,,,,,,,,,,,,,,,,,,,,,,,,,,,,,,,1.316454,0.696129,0.389093,0.459357,0.337638,1.504910,0.485963,0.244362,0.361465,0.243307,1.582759,0.821437,0.245362,0.325177,0.259955,0.540397,0.367502,0.269626,0.204100,0.157314,0.346971,0.189658,0.188573,0.097759,0.079967,0.143315,0.129254,0.104230,0.088668,0.096663,0.130094,0.304844,0.498696,0.203690,0.219822,0.393865,0.561458,0.812907,0.250669,0.215130,0.236667,0.207238,0.226119,0.142822,0.078320,1.239799,0.562582,0.617504,0.457656,0.232159,0.822853,0.262895,0.218953,0.096600,0.066751,3.554987,1.093949,0.673205,0.515170,0.394323,1.819843,0.550192,0.417800,0.263022,0.158884,4.993818,1.427865,0.347558,0.482886,0.283381
1768295116.091176,1768295116.091838,79.000000,0.000000,4322.563965,4330.384766,4343.589844,4349.871582,4304.102539,4309.615234,4307.820313,4336.922852,4321.153809,4293.461426,4502.948730,4538.846191,4410.384766,4473.461426,4689.000000,2.000000,40.000000,,,,0.000000,4.000000,4.000000,4.000000,4.000000,4.000000,4.000000,4.000000,4.000000,4.000000,4.000000,4.000000,4.000000,4.000000,4.000000,100.000000,,,,,,,,,,,,,,,,,,,,,,,,,,,,,,,,,,,,,,,,,,,,,,,,,,,,,,,,,,,,,,,,,,,,,,,,,,,,,,,,,,,,,,,,,,,,,,,,,,,,,,,,,,,,,,,,,,,,,
1768295116.098985,1768295116.099447,80.000000,0.000000,4317.692383,4330.769043,4336.282227,4348.589844,4305.512695,4310.256348,4304.487305,4329.743652,4320.384766,4295.897461,4499.743652,4532.307617,4409.487305,4462.307617,2381.000000,2.000000,40.000000,,,,0.000000,4.000000,4.000000,4.000000,4.000000,4.000000,4.000000,4.000000,4.000000,4.000000,4.000000,4.000000,4.000000,4.000000,4.000000,100.000000,,,,,,,,,,,,,,,,,,,,,,,,,,,,,,,,,,,,,,,,,,,,,,,,,,,,,,,,,,,,,,,,,,,,,,,,,,,,,,,,,,,,,,,,,,,,,,,,,,,,,,,,,,,,,,,,,,,,,
1768295116.106793,1768295116.107256,81.000000,0.000000,4322.948730,4324.358887,4334.615234,4341.666504,4300.000000,4309.358887,4303.205078,4332.563965,4318.717773,4289.102539,4496.666504,4526.666504,4407.692383,4455.769043,5427.000000,2.000000,40.000000,,,,0.000000,4.000000,4.000000,4.000000,4.000000,4.000000,4.000000,4.000000,4.000000,4.000000,4.000000,4.000000,4.000000,4.000000,4.000000,100.000000,,,,,,,,,,,,,,,,,,,,,,,,,,,,,,,,,,,,,,,,,,,,,,,,,,,,,,,,,,,,,,,,,,,,,,,,,,,,,,,,,,,,,,,,,,,,,,,,,,,,,,,,,,,,,,,,,,,,,
1768295116.114601,1768295116.115164,82.000000,0.000000,4328.589844,4322.692383,4338.846191,4338.974121,4300.256348,4308.717773,4304.743652,4335.384766,4319.743652,4298.461426,4499.487305,4531.410156,4411.410156,4466.410156,3819.000000,2.000000,40.000000,,,,0.000000,4.000000,4.000000,4.000000,4.000000,4.000000,4.000000,4.000000,4.000000,4.000000,4.000000,4.000000,4.000000,4.000000,4.000000,100.000000,,,,,,,,,,,,,,,,,,,,,,,,,,,,,,,,,,,,,,,,,,,,,,,,,,,,,,,,,,,,,,,,,,,,,,,,,,,,,,,,,,,,,,,,,,,,,,,,,,,,,,,,,,,,,,,,,,,,,
1768295116.122410,1768295116.122972,83.000000,0.000000,4328.589844,4328.461426,4346.153809,4345.000000,4306.922852,4312.692383,4307.692383,4339.871582,4327.692383,4318.974121,4510.384766,4542.563965,4422.051270,4480.512695,4689.000000,2.000000,40.000000,,,,0.000000,4.000000,4.000000,4.000000,4.000000,4.000000,4.000000,4.000000,4.000000,4.000000,4.000000,4.000000,4.000000,4.000000,4.000000,100.000000,,,,,,,,,,,,,,,,,,,,,,,,,,,,,,,,,,,,,,,,,,,,,,,,,,,,,,,,,,,,,,,,,,,,,,,,,,,,,,,,,,,,,,,,,,,,,,,,,,,,,,,,,,,,,,,,,,,,,
1768295116.130218,1768295116.130981,84.000000,0.000000,4328.333496,4326.922852,4345.256348,4347.563965,4308.333496,4310.641113,4307.563965,4340.256348,4326.922852,4316.410156,4513.717773,4546.282227,4424.102539,4481.410156,2381.000000,2.000000,40.000000,,,,0.000000,4.000000,4.000000,4.000000,4.000000,4.000000,4.000000,4.000000,4.000000,4.000000,4.000000,4.000000,4.000000,4.000000,4.000000,100.000000,,,,,,,,,,,,,,,,,,,,,,,,,,,,,,,,,,,,,,,,,,,,,,,,,,,,,,,,,,,,,,,,,,,,,,,,,,,,,,,,,,,,,,,,,,,,,,,,,,,,,,,,,,,,,,,,,,,,,
1768295116.138027,1768295116.138789,85.000000,0.000000,4330.769043,4318.846191,4341.794922,4344.871582,4305.384766,4304.230957,4303.974121,4324.102539,4318.205078,4301.922852,4504.102539,4534.615234,4414.102539,4473.974121,5427.000000,2.000000,40.000000,,,,0.000000,4.000000,4.000000,4.000000,4.000000,4.000000,4.000000,4.000000,4.000000,4.000000,4.000000,4.000000,4.000000,4.000000,4.000000,100.000000,,,,,,,,,,,,,,,,,,,,,,,,,,,,,,,,,,,,,,,,,,,,,,,,,,,,,,,,,,,,,,,,,,,,,,,,,,,,,,,,,,,,,,,,,,,,,,,,,,,,,,,,,,,,,,,,,,,,,
1768295116.145835,1768295116.146498,86.000000,0.000000,4332.692383,4316.282227,4345.641113,4344.358887,4306.025879,4306.794922,4303.974121,4321.794922,4319.871582,4303.846191,4499.358887,4528.077148,4410.641113,4472.948730,3819.000000,2.000000,40.000000,,,,0.000000,4.000000,4.000000,4.000000,4.000000,4.000000,4.000000,4.000000,4.000000,4.000000,4.000000,4.000000,4.000000,4.000000,4.000000,100.000000,,,,,,,,,,,,,,,,,,,,,,,,,,,,,,,,,,,,,,,,,,,,,,,,,,,,,,,,,,,,,,,,,,,,,,,,,,,,,,,,,,,,,,,,,,,,,,,,,,,,,,,,,,,,,,,,,,,,,
1768295116.153643,1768295116.154306,87.000000,0.000000,4331.538574,4315.000000,4343.974121,4342.563965,4306.538574,4309.487305,4308.589844,4335.000000,4325.641113,4309.102539,4502.307617,4533.461426,4414.743652,4476.794922,4689.000000,2.000000,40.000000,,,,0.000000,4.000000,4.000000,4.000000,4.000000,4.000000,4.000000,4.000000,4.000000,4.000000,4.000000,4.000000,4.000000,4.000000,4.000000,100.000000,,,,,,,,,,,,,,,,,,,,,,,,,,,,,,,,,,,,,,,,,,,,,,,,,,,,,,,,,,,,,,,,,,,,,,,,,,,,,,,,,,,,,,,,,,,,,,,,,,,,,,,,,,,,,,,,,,,,,
1768295116.161452,1768295116.161915,88.000000,0.000000,4331.282227,4312.563965,4341.282227,4341.794922,4304.358887,4309.487305,4315.000000,4334.615234,4324.102539,4306.794922,4505.384766,4542.307617,4415.769043,4484.102539,2381.000000,2.000000,40.000000,,,,0.000000,4.000000,4.000000,4.000000,4.000000,4.000000,4.000000,4.000000,4.000000,4.000000,4.000000,4.000000,4.000000,4.000000,4.000000,100.000000,,,,,,,,,,,,,,,,,,,,,,,,,,,,,,,,,,,,,,,,,,,,,,,,,,,,,,,,,,,,,,,,,,,,,,,,,,,,,,,,,,,,,,,,,,,,,,,,,,,,,,,,,,,,,,,,,,,,,
1768295116.169260,1768295116.169723,89.000000,0.000000,4335.000000,4312.179688,4346.282227,4342.307617,4303.846191,4307.820313,4310.256348,4327.051270,4320.897461,4306.153809,4506.282227,4545.256348,4416.794922,4489.230957,5427.000000,2.000000,40.000000,,,,0.000000,4.000000,4.000000,4.000000,4.000000,4.000000,4.000000,4.000000,4.000000,4.000000,4.000000,4.000000,4.000000,4.000000,4.000000,100.000000,,,,,,,,,,,,,,,,,,,,,,,,,,,,,,,,,,,,,,,,,,,,,,,,,,,,,,,,,,,,,,,,,,,,,,,,,,,,,,,,,,,,,,,,,,,,,,,,,,,,,,,,,,,,,,,,,,,,,
1768295116.177069,1768295116.177631,90.000000,0.000000,4336.794922,4310.512695,4347.436035,4341.282227,4305.769043,4305.512695,4300.769043,4329.743652,4320.512695,4302.051270,4504.487305,4538.333496,4415.512695,4482.820313,3819.000000,2.000000,40.000000,,,,0.000000,4.000000,4.000000,4.000000,4.000000,4.000000,4.000000,4.000000,4.000000,4.000000,4.000000,4.000000,4.000000,4.000000,4.000000,100.000000,,,,,,,,,,,,,,,,,,,,,,,,,,,,,,,,,,,,,,,,,,,,,,,,,,,,,,,,,,,,,,,,,,,,,,,,,,,,,,,,,,,,,,,,,,,,,,,,,,,,,,,,,,,,,,,,,,,,,
1768295116.184877,1768295116.185440,91.000000,0.000000,4336.025879,4307.436035,4342.692383,4343.077148,4306.922852,4308.205078,4305.512695,4337.948730,4323.846191,4299.358887,4504.102539,4538.461426,4410.769043,4479.615234,4689.000000,2.000000,40.000000,,,,0.000000,4.000000,4.000000,4.000000,4.000000,4.000000,4.000000,4.000000,4.000000,4.000000,4.000000,4.000000,4.000000,4.000000,4.000000,100.000000,,,,,,,,,,,,,,,,,,,,,,,,,,,,,,,,,,,,,,,,,,,,,,,,,,,,,,,,,,,,,,,,,,,,,,,,,,,,,,,,,,,,,,,,,,,,,,,,,,,,,,,,,,,,,,,,,,,,,
1768295116.192686,1768295116.193448,92.000000,0.000000,4336.922852,4302.692383,4343.974121,4344.487305,4305.000000,4311.153809,4313.589844,4339.230957,4327.563965,4305.128418,4509.358887,4548.717773,4412.563965,4489.615234,2381.000000,2.000000,40.000000,,,,0.000000,4.000000,4.000000,4.000000,4.000000,4.000000,4.000000,4.000000,4.000000,4.000000,4.000000,4.000000,4.000000,4.000000,4.000000,100.000000,,,,,,,,,,,,,,,,,,,,,,,,,,,,,,,,,,,,,,,,,,,,,,,,,,,,,,,,,,,,,,,,,,,,,,,,,,,,,,,,,,,,,,,,,,,,,,,,,,,,,,,,,,,,,,,,,,,,,
1768295116.200494,1768295116.201257,93.000000,0.000000,4335.641113,4297.179688,4342.307617,4340.512695,4302.179688,4306.794922,4306.538574,4332.692383,4323.333496,4310.128418,4511.666504,4552.179688,4416.666504,4495.897461,5427.000000,2.000000,40.000000,,,,0.000000,4.000000,4.000000,4.000000,4.000000,4.000000,4.000000,4.000000,4.000000,4.000000,4.000000,4.000000,4.000000,4.000000,4.000000,100.000000,,,,,,,,,,,,,,,,,,,,,,,,,,,,,,,,,,,,,,,,,,,,,,,,,,,,,,,,,,,,,,,,,,,,,,,,,,,,,,,,,,,,,,,,,,,,,,,,,,,,,,,,,,,,,,,,,,,,,
1768295116.208303,1768295116.209165,94.000000,0.000000,4330.000000,4293.717773,4332.948730,4337.307617,4299.230957,4303.461426,4299.487305,4327.051270,4318.333496,4311.153809,4505.897461,4543.205078,4415.128418,4487.820313,3819.000000,2.000000,40.000000,,,,0.000000,4.000000,4.000000,4.000000,4.000000,4.000000,4.000000,4.000000,4.000000,4.000000,4.000000,4.000000,4.000000,4.000000,4.000000,100.000000,,,,,,,,,,,,,,,,,,,,,,,,,,,,,,,,,,,,,,,,,,,,,,,,1.718827,0.681190,0.341162,0.413902,0.336240,1.558071,0.468783,0.254062,0.349655,0.242353,1.890322,0.892630,0.231945,0.301547,0.305028,0.588960,0.338008,0.296240,0.218367,0.162241,0.377372,0.192385,0.149392,0.094292,0.075799,0.127356,0.138201,0.094441,0.084463,0.099127,0.121068,0.214486,0.426641,0.205945,0.215828,0.483354,0.561014,0.702820,0.261035,0.202896,0.326260,0.200528,0.208134,0.147124,0.074482,1.479248,0.439090,0.488448,0.406801,0.226761,1.033505,0.261186,0.184862,0.085287,0.067120,4.411628,1.147803,0.728467,0.477766,0.371408,2.453936,0.531392,0.436016,0.259883,0.149031,6.139910,1.468497,0.401564,0.433867,0.262120
1768295116.216111,1768295116.216973,95.000000,0.000000,4330.384766,4296.922852,4333.333496,4338.974121,4302.563965,4307.436035,4303.717773,4332.179688,4321.153809,4304.487305,4501.666504,4537.307617,4412.948730,4478.205078,4689.000000,2.000000,40.000000,,,,0.000000,4.000000,4.000000,4.000000,4.000000,4.000000,4.000000,4.000000,4.000000,4.000000,4.000000,4.000000,4.000000,4.000000,4.000000,100.000000,,,,,,,,,,,,,,,,,,,,,,,,,,,,,,,,,,,,,,,,,,,,,,,,,,,,,,,,,,,,,,,,,,,,,,,,,,,,,,,,,,,,,,,,,,,,,,,,,,,,,,,,,,,,,,,,,,,,,
1768295116.223919,1768295116.224982,96.000000,0.000000,4341.025879,4307.692383,4344.230957,4345.897461,4310.256348,4308.974121,4307.436035,4340.384766,4325.128418,4298.461426,4505.641113,4546.538574,4413.974121,4482.179688,2381.000000,2.000000,40.000000,,,,0.000000,4.000000,4.000000,4.000000,4.000000,4.000000,4.000000,4.000000,4.000000,4.000000,4.000000,4.000000,4.000000,4.000000,4.000000,100.000000,,,,,,,,,,,,,,,,,,,,,,,,,,,,,,,,,,,,,,,,,,,,,,,,,,,,,,,,,,,,,,,,,,,,,,,,,,,,,,,,,,,,,,,,,,,,,,,,,,,,,,,,,,,,,,,,,,,,,
1768295116.231728,1768295116.232790,97.000000,0.000000,4346.410156,4314.487305,4347.307617,4353.077148,4310.769043,4308.333496,4308.077148,4337.051270,4325.256348,4309.743652,4510.897461,4554.230957,4414.871582,4491.410156,5427.000000,2.000000,40.000000,,,,0.000000,4.000000,4.000000,4.000000,4.000000,4.000000,4.000000,4.000000,4.000000,4.000000,4.000000,4.000000,4.000000,4.000000,4.000000,100.000000,,,,,,,,,,,,,,,,,,,,,,,,,,,,,,,,,,,,,,,,,,,,,,,,,,,,,,,,,,,,,,,,,,,,,,,,,,,,,,,,,,,,,,,,,,,,,,,,,,,,,,,,,,,,,,,,,,,,,
1768295116.239536,1768295116.240499,98.000000,0.000000,4338.333496,4312.179688,4337.948730,4349.615234,4306.025879,4309.615234,4305.384766,4327.948730,4323.333496,4317.820313,4508.461426,4543.589844,4414.102539,4486.025879,3819.000000,2.000000,40.000000,,,,0.000000,4.000000,4.000000,4.000000,4.000000,4.000000,4.000000,4.000000,4.000000,4.000000,4.000000,4.000000,4.000000,4.000000,4.000000,100.000000,,,,,,,,,,,,,,,,,,,,,,,,,,,,,,,,,,,,,,,,,,,,,,,,,,,,,,,,,,,,,,,,,,,,,,,,,,,,,,,,,,,,,,,,,,,,,,,,,,,,,,,,,,,,,,,,,,,,,
1768295116.247345,1768295116.248307,99.000000,0.000000,4328.974121,4311.153809,4332.692383,4343.205078,4305.256348,4304.871582,4301.282227,4325.256348,4321.025879,4303.333496,4499.487305,4525.128418,4403.846191,4465.256348,4689.000000,2.000000,40.000000,,,,0.000000,4.000000,4.000000,4.000000,4.000000,4.000000,4.000000,4.000000,4.000000,4.000000,4.000000,4.000000,4.000000,4.000000,4.000000,100.000000,,,,,,,,,,,,,,,,,,,,,,,,,,,,,,,,,,,,,,,,,,,,,,,,,,,,,,,,,,,,,,,,,,,,,,,,,,,,,,,,,,,,,,,,,,,,,,,,,,,,,,,,,,,,,,,,,,,,,
1768295116.255153,1768295116.255916,100.000000,0.000000,4329.102539,4313.205078,4335.384766,4346.025879,4306.538574,4300.000000,4301.538574,4326.025879,4317.307617,4293.974121,4493.974121,4520.897461,4394.102539,4453.717773,2381.000000,2.000000,40.000000,,,,0.000000,4.000000,4.000000,4.000000,4.000000,4.000000,4.000000,4.000000,4.000000,4.000000,4.000000,4.000000,4.000000,4.000000,4.000000,100.000000,,,,,,,,,,,,,,,,,,,,,,,,,,,,,,,,,,,,,,,,,,,,,,,,,,,,,,,,,,,,,,,,,,,,,,,,,,,,,,,,,,,,,,,,,,,,,,,,,,,,,,,,,,,,,,,,,,,,,
1768295116.262962,1768295116.263724,101.000000,0.000000,4336.538574,4314.102539,4334.615234,4347.820313,4304.871582,4304.615234,4304.102539,4327.307617,4318.846191,4302.820313,4500.000000,4534.615234,4403.333496,4465.384766,5427.000000,2.000000,40.000000,,,,0.000000,4.000000,4.000000,4.000000,4.000000,4.000000,4.000000,4.000000,4.000000,4.000000,4.000000,4.000000,4.000000,4.000000,4.000000,100.000000,,,,,,,,,,,,,,,,,,,,,,,,,,,,,,,,,,,,,,,,,,,,,,,,,,,,,,,,,,,,,,,,,,,,,,,,,,,,,,,,,,,,,,,,,,,,,,,,,,,,,,,,,,,,,,,,,,,,,
1768295116.270770,1768295116.271632,102.000000,0.000000,4339.487305,4314.743652,4332.692383,4343.077148,4303.974121,4311.410156,4306.153809,4331.153809,4321.538574,4302.307617,4506.666504,4543.461426,4415.769043,4478.077148,3819.000000,2.000000,40.000000,,,,0.000000,4.000000,4.000000,4.000000,4.000000,4.000000,4.000000,4.000000,4.000000,4.000000,4.000000,4.000000,4.000000,4.000000,4.000000,100.000000,,,,,,,,,,,,,,,,,,,,,,,,,,,,,,,,,,,,,,,,,,,,,,,,,,,,,,,,,,,,,,,,,,,,,,,,,,,,,,,,,,,,,,,,,,,,,,,,,,,,,,,,,,,,,,,,,,,,,
1768295116.278578,1768295116.279441,103.000000,0.000000,4336.025879,4315.256348,4332.820313,4342.179688,4304.743652,4309.743652,4308.333496,4331.282227,4318.846191,4292.563965,4505.256348,4536.410156,4411.282227,4474.102539,4689.000000,2.000000,40.000000,,,,0.000000,4.000000,4.000000,4.000000,4.000000,4.000000,4.000000,4.000000,4.000000,4.000000,4.000000,4.000000,4.000000,4.000000,4.000000,100.000000,,,,,,,,,,,,,,,,,,,,,,,,,,,,,,,,,,,,,,,,,,,,,,,,,,,,,,,,,,,,,,,,,,,,,,,,,,,,,,,,,,,,,,,,,,,,,,,,,,,,,,,,,,,,,,,,,,,,,
1768295116.286387,1768295116.287449,104.000000,0.000000,4330.897461,4312.948730,4331.025879,4342.436035,4302.948730,4309.230957,4308.077148,4327.051270,4319.102539,4301.025879,4505.000000,4527.948730,4407.436035,4464.358887,2381.000000,2.000000,40.000000,,,,0.000000,4.000000,4.000000,4.000000,4.000000,4.000000,4.000000,4.000000,4.000000,4.000000,4.000000,4.000000,4.000000,4.000000,4.000000,100.000000,,,,,,,,,,,,,,,,,,,,,,,,,,,,,,,,,,,,,,,,,,,,,,,,,,,,,,,,,,,,,,,,,,,,,,,,,,,,,,,,,,,,,,,,,,,,,,,,,,,,,,,,,,,,,,,,,,,,,
1768295116.294195,1768295116.295258,105.000000,0.000000,4325.512695,4307.436035,4327.179688,4339.871582,4302.563965,4310.641113,4302.820313,4326.410156,4324.487305,4315.641113,4505.384766,4530.256348,4413.461426,4465.384766,5427.000000,2.000000,40.000000,,,,0.000000,4.000000,4.000000,4.000000,4.000000,4.000000,4.000000,4.000000,4.000000,4.000000,4.000000,4.000000,4.000000,4.000000,4.000000,100.000000,,,,,,,,,,,,,,,,,,,,,,,,,,,,,,,,,,,,,,,,,,,,,,,,,,,,,,,,,,,,,,,,,,,,,,,,,,,,,,,,,,,,,,,,,,,,,,,,,,,,,,,,,,,,,,,,,,,,,
1768295116.302004,1768295116.303166,106.000000,0.000000,4324.230957,4301.666504,4327.692383,4340.000000,4304.358887,4307.820313,4301.794922,4329.487305,4323.333496,4311.922852,4503.974121,4536.282227,4413.077148,4473.077148,3819.000000,2.000000,40.000000,,,,0.000000,4.000000,4.000000,4.000000,4.000000,4.000000,4.000000,4.000000,4.000000,4.000000,4.000000,4.000000,4.000000,4.000000,4.000000,100.000000,,,,,,,,,,,,,,,,,,,,,,,,,,,,,,,,,,,,,,,,,,,,,,,,,,,,,,,,,,,,,,,,,,,,,,,,,,,,,,,,,,,,,,,,,,,,,,,,,,,,,,,,,,,,,,,,,,,,,
1768295116.309812,1768295116.310974,107.000000,0.000000,4328.974121,4303.333496,4330.256348,4342.307617,4304.743652,4307.948730,4305.897461,4327.820313,4317.692383,4302.179688,4502.948730,4534.615234,4411.666504,4474.230957,4689.000000,2.000000,40.000000,,,,0.000000,4.000000,4.000000,4.000000,4.000000,4.000000,4.000000,4.000000,4.000000,4.000000,4.000000,4.000000,4.000000,4.000000,4.000000,100.000000,,,,,,,,,,,,,,,,,,,,,,,,,,,,,,,,,,,,,,,,,,,,,,,,,,,,,,,,,,,,,,,,,,,,,,,,,,,,,,,,,,,,,,,,,,,,,,,,,,,,,,,,,,,,,,,,,,,,,
1768295116.317620,1768295116.318983,108.000000,0.000000,4336.538574,4310.512695,4333.077148,4345.256348,4305.641113,4312.179688,4307.820313,4323.846191,4318.077148,4303.205078,4502.051270,4532.051270,4412.436035,4471.922852,2381.000000,2.000000,40.000000,,,,0.000000,4.000000,4.000000,4.000000,4.000000,4.000000,4.000000,4.000000,4.000000,4.000000,4.000000,4.000000,4.000000,4.000000,4.000000,100.000000,,,,,,,,,,,,,,,,,,,,,,,,,,,,,,,,,,,,,,,,,,,,,,,,,,,,,,,,,,,,,,,,,,,,,,,,,,,,,,,,,,,,,,,,,,,,,,,,,,,,,,,,,,,,,,,,,,,,,
1768295116.325429,1768295116.326791,109.000000,0.000000,4338.717773,4310.256348,4338.205078,4345.641113,4305.384766,4310.512695,4308.589844,4329.102539,4321.410156,4304.871582,4503.333496,4537.563965,4411.538574,4474.358887,5427.000000,2.000000,40.000000,,,,0.000000,4.000000,4.000000,4.000000,4.000000,4.000000,4.000000,4.000000,4.000000,4.000000,4.000000,4.000000,4.000000,4.000000,4.000000,100.000000,,,,,,,,,,,,,,,,,,,,,,,,,,,,,,,,,,,,,,,,,,,,,,,,,,,,,,,,,,,,,,,,,,,,,,,,,,,,,,,,,,,,,,,,,,,,,,,,,,,,,,,,,,,,,,,,,,,,,
1768295116.333237,1768295116.334699,110.000000,0.000000,4333.974121,4302.692383,4339.615234,4342.820313,4301.025879,4306.025879,4308.333496,4332.692383,4319.102539,4302.820313,4504.102539,4539.102539,4411.025879,4478.333496,3819.000000,2.000000,40.000000,,,,0.000000,4.000000,4.000000,4.000000,4.000000,4.000000,4.000000,4.000000,4.000000,4.000000,4.000000,4.000000,4.000000,4.000000,4.000000,100.000000,,,,,,,,,,,,,,,,,,,,,,,,,,,,,,,,,,,,,,,,,,,,,,,,2.192906,0.653754,0.303276,0.368676,0.324313,1.695603,0.493836,0.263083,0.337291,0.234786,2.124094,0.951289,0.247004,0.292785,0.341777,0.645421,0.326068,0.315149,0.233551,0.169034,0.402605,0.203561,0.121424,0.097327,0.076583,0.120758,0.178131,0.090649,0.083274,0.103725,0.115125,0.178421,0.334956,0.234954,0.211567,0.555863,0.534499,0.572324,0.259285,0.180448,0.403490,0.197532,0.199026,0.147922,0.069887,1.601305,0.360149,0.370998,0.404689,0.224868,1.155881,0.255253,0.159064,0.078687,0.067394,4.876431,1.159800,0.783110,0.443059,0.333976,2.887711,0.539164,0.463421,0.273724,0.140823,6.703355,1.437596,0.458534,0.407821,0.241307
1768295116.341046,1768295116.342508,111.000000,0.000000,4334.102539,4299.487305,4339.743652,4341.922852,4301.282227,4308.077148,4311.922852,4326.922852,4316.153809,4307.051270,4504.102539,4535.512695,4412.436035,4480.512695,4689.000000,2.000000,40.000000,,,,0.000000,4.000000,4.000000,4.000000,4.000000,4.000000,4.000000,4.000000,4.000000,4.000000,4.000000,4.000000,4.000000,4.000000,4.000000,100.000000,,,,,,,,,,,,,,,,,,,,,,,,,,,,,,,,,,,,,,,,,,,,,,,,,,,,,,,,,,,,,,,,,,,,,,,,,,,,,,,,,,,,,,,,,,,,,,,,,,,,,,,,,,,,,,,,,,,,,
1768295116.348854,1768295116.350117,112.000000,0.000000,4340.000000,4305.641113,4345.769043,4343.974121,4307.948730,4310.512695,4315.512695,4325.769043,4319.487305,4309.230957,4505.384766,4544.358887,4414.871582,4484.615234,2381.000000,2.000000,40.000000,,,,0.000000,4.000000,4.000000,4.000000,4.000000,4.000000,4.000000,4.000000,4.000000,4.000000,4.000000,4.000000,4.000000,4.000000,4.000000,100.000000,,,,,,,,,,,,,,,,,,,,,,,,,,,,,,,,,,,,,,,,,,,,,,,,,,,,,,,,,,,,,,,,,,,,,,,,,,,,,,,,,,,,,,,,,,,,,,,,,,,,,,,,,,,,,,,,,,,,,
1768295116.356663,1768295116.357925,113.000000,0.000000,4343.461426,4308.461426,4349.743652,4344.743652,4307.820313,4306.538574,4309.615234,4331.538574,4324.871582,4310.769043,4505.897461,4552.563965,4418.974121,4489.615234,5427.000000,2.000000,40.000000,,,,0.000000,4.000000,4.000000,4.000000,4.000000,4.000000,4.000000,4.000000,4.000000,4.000000,4.000000,4.000000,4.000000,4.000000,4.000000,100.000000,,,,,,,,,,,,,,,,,,,,,,,,,,,,,,,,,,,,,,,,,,,,,,,,,,,,,,,,,,,,,,,,,,,,,,,,,,,,,,,,,,,,,,,,,,,,,,,,,,,,,,,,,,,,,,,,,,,,,
1768295116.364471,1768295116.365634,114.000000,0.000000,4341.666504,4300.000000,4346.794922,4340.769043,4301.538574,4303.589844,4301.666504,4334.743652,4324.487305,4313.717773,4504.743652,4545.769043,4423.205078,4488.077148,3819.000000,2.000000,40.000000,,,,0.000000,4.000000,4.000000,4.000000,4.000000,4.000000,4.000000,4.000000,4.000000,4.000000,4.000000,4.000000,4.000000,4.000000,4.000000,100.000000,,,,,,,,,,,,,,,,,,,,,,,,,,,,,,,,,,,,,,,,,,,,,,,,,,,,,,,,,,,,,,,,,,,,,,,,,,,,,,,,,,,,,,,,,,,,,,,,,,,,,,,,,,,,,,,,,,,,,
1768295116.372279,1768295116.373442,115.000000,0.000000,4340.641113,4298.717773,4346.153809,4338.589844,4300.769043,4306.794922,4303.077148,4327.307617,4321.794922,4309.102539,4503.205078,4541.153809,4420.769043,4482.692383,4689.000000,2.000000,40.000000,,,,0.000000,4.000000,4.000000,4.000000,4.000000,4.000000,4.000000,4.000000,4.000000,4.000000,4.000000,4.000000,4.000000,4.000000,4.000000,100.000000,,,,,,,,,,,,,,,,,,,,,,,,,,,,,,,,,,,,,,,,,,,,,,,,,,,,,,,,,,,,,,,,,,,,,,,,,,,,,,,,,,,,,,,,,,,,,,,,,,,,,,,,,,,,,,,,,,,,,
1768295116.380088,1768295116.381450,116.000000,0.000000,4344.102539,4310.128418,4352.051270,4341.922852,4308.717773,4311.922852,4310.000000,4325.512695,4324.358887,4309.487305,4505.769043,4546.922852,4421.794922,4483.461426,2381.000000,2.000000,40.000000,,,,0.000000,4.000000,4.000000,4.000000,4.000000,4.000000,4.000000,4.000000,4.000000,4.000000,4.000000,4.000000,4.000000,4.000000,4.000000,100.000000,,,,,,,,,,,,,,,,,,,,,,,,,,,,,,,,,,,,,,,,,,,,,,,,,,,,,,,,,,,,,,,,,,,,,,,,,,,,,,,,,,,,,,,,,,,,,,,,,,,,,,,,,,,,,,,,,,,,,
1768295116.387896,1768295116.389259,117.000000,0.000000,4346.538574,4311.666504,4356.153809,4345.128418,4313.077148,4307.563965,4310.641113,4334.487305,4326.282227,4313.589844,4509.871582,4550.000000,4425.000000,4486.538574,5427.000000,2.000000,40.000000,,,,0.000000,4.000000,4.000000,4.000000,4.000000,4.000000,4.000000,4.000000,4.000000,4.000000,4.000000,4.000000,4.000000,4.000000,4.000000,100.000000,,,,,,,,,,,,,,,,,,,,,,,,,,,,,,,,,,,,,,,,,,,,,,,,,,,,,,,,,,,,,,,,,,,,,,,,,,,,,,,,,,,,,,,,,,,,,,,,,,,,,,,,,,,,,,,,,,,,,
1768295116.395705,1768295116.397167,118.000000,0.000000,4342.179688,4301.538574,4352.179688,4340.512695,4307.179688,4299.230957,4303.846191,4333.333496,4320.769043,4305.384766,4504.230957,4544.871582,4418.461426,4482.820313,3819.000000,2.000000,40.000000,,,,0.000000,4.000000,4.000000,4.000000,4.000000,4.000000,4.000000,4.000000,4.000000,4.000000,4.000000,4.000000,4.000000,4.000000,4.000000,100.000000,,,,,,,,,,,,,,,,,,,,,,,,,,,,,,,,,,,,,,,,,,,,,,,,,,,,,,,,,,,,,,,,,,,,,,,,,,,,,,,,,,,,,,,,,,,,,,,,,,,,,,,,,,,,,,,,,,,,,
1768295116.403513,1768295116.404975,119.000000,0.000000,4339.230957,4299.230957,4345.897461,4337.051270,4303.077148,4302.692383,4300.000000,4325.128418,4315.897461,4296.666504,4496.666504,4540.384766,4410.641113,4478.717773,4689.000000,2.000000,40.000000,,,,0.000000,4.000000,4.000000,4.000000,4.000000,4.000000,4.000000,4.000000,4.000000,4.000000,4.000000,4.000000,4.000000,4.000000,4.000000,100.000000,,,,,,,,,,,,,,,,,,,,,,,,,,,,,,,,,,,,,,,,,,,,,,,,,,,,,,,,,,,,,,,,,,,,,,,,,,,,,,,,,,,,,,,,,,,,,,,,,,,,,,,,,,,,,,,,,,,,,
1768295116.411322,1768295116.412584,120.000000,0.000000,4341.922852,4297.692383,4345.256348,4340.128418,4305.641113,4306.538574,4305.128418,4328.205078,4318.333496,4296.153809,4499.358887,4539.230957,4406.282227,4475.128418,2381.000000,2.000000,40.000000,,,,0.000000,4.000000,4.000000,4.000000,4.000000,4.000000,4.000000,4.000000,4.000000,4.000000,4.000000,4.000000,4.000000,4.000000,4.000000,100.000000,,,,,,,,,,,,,,,,,,,,,,,,,,,,,,,,,,,,,,,,,,,,,,,,,,,,,,,,,,,,,,,,,,,,,,,,,,,,,,,,,,,,,,,,,,,,,,,,,,,,,,,,,,,,,,,,,,,,,
1768295116.419130,1768295116.420393,121.000000,0.000000,4335.000000,4283.589844,4342.563965,4331.282227,4301.538574,4302.820313,4308.333496,4332.820313,4318.974121,4293.205078,4499.743652,4533.461426,4399.230957,4463.974121,5427.000000,2.000000,40.000000,,,,0.000000,4.000000,4.000000,4.000000,4.000000,4.000000,4.000000,4.000000,4.000000,4.000000,4.000000,4.000000,4.000000,4.000000,4.000000,100.000000,,,,,,,,,,,,,,,,,,,,,,,,,,,,,,,,,,,,,,,,,,,,,,,,,,,,,,,,,,,,,,,,,,,,,,,,,,,,,,,,,,,,,,,,,,,,,,,,,,,,,,,,,,,,,,,,,,,,,
1768295116.426938,1768295116.428101,122.000000,0.000000,4331.922852,4276.410156,4340.256348,4322.820313,4294.102539,4301.153809,4308.974121,4327.692383,4316.794922,4296.282227,4498.846191,4535.512695,4401.153809,4466.025879,3819.000000,2.000000,40.000000,,,,0.000000,4.000000,4.000000,4.000000,4.000000,4.000000,4.000000,4.000000,4.000000,4.000000,4.000000,4.000000,4.000000,4.000000,4.000000,100.000000,,,,,,,,,,,,,,,,,,,,,,,,,,,,,,,,,,,,,,,,,,,,,,,,,,,,,,,,,,,,,,,,,,,,,,,,,,,,,,,,,,,,,,,,,,,,,,,,,,,,,,,,,,,,,,,,,,,,,
1768295116.434747,1768295116.435910,123.000000,0.000000,4352.692383,4291.666504,4354.358887,4338.589844,4298.974121,4304.743652,4316.025879,4332.051270,4327.051270,4318.205078,4510.897461,4562.307617,4422.692383,4495.384766,4689.000000,2.000000,40.000000,,,,0.000000,4.000000,4.000000,4.000000,4.000000,4.000000,4.000000,4.000000,4.000000,4.000000,4.000000,4.000000,4.000000,4.000000,4.000000,100.000000,,,,,,,,,,,,,,,,,,,,,,,,,,,,,,,,,,,,,,,,,,,,,,,,,,,,,,,,,,,,,,,,,,,,,,,,,,,,,,,,,,,,,,,,,,,,,,,,,,,,,,,,,,,,,,,,,,,,,
1768295116.442555,1768295116.443518,124.000000,0.000000,4367.692383,4305.769043,4368.717773,4352.820313,4307.179688,4307.692383,4320.128418,4348.461426,4338.846191,4329.102539,4521.538574,4583.333496,4435.897461,4511.666504,2381.000000,2.000000,40.000000,,,,0.000000,4.000000,4.000000,4.000000,4.000000,4.000000,4.000000,4.000000,4.000000,4.000000,4.000000,4.000000,4.000000,4.000000,4.000000,100.000000,,,,,,,,,,,,,,,,,,,,,,,,,,,,,,,,,,,,,,,,,,,,,,,,,,,,,,,,,,,,,,,,,,,,,,,,,,,,,,,,,,,,,,,,,,,,,,,,,,,,,,,,,,,,,,,,,,,,,
1768295116.450364,1768295116.451327,125.000000,0.000000,4359.358887,4300.512695,4363.205078,4345.256348,4307.692383,4305.256348,4316.025879,4346.794922,4331.794922,4318.461426,4514.230957,4570.641113,4426.282227,4495.769043,5427.000000,2.000000,40.000000,,,,0.000000,4.000000,4.000000,4.000000,4.000000,4.000000,4.000000,4.000000,4.000000,4.000000,4.000000,4.000000,4.000000,4.000000,4.000000,100.000000,,,,,,,,,,,,,,,,,,,,,,,,,,,,,,,,,,,,,,,,,,,,,,,,,,,,,,,,,,,,,,,,,,,,,,,,,,,,,,,,,,,,,,,,,,,,,,,,,,,,,,,,,,,,,,,,,,,,,
1768295116.458172,1768295116.459035,126.000000,0.000000,4349.615234,4288.974121,4352.692383,4335.641113,4304.102539,4301.025879,4310.641113,4327.307617,4319.358887,4310.000000,4505.000000,4549.102539,4414.615234,4482.436035,3819.000000,2.000000,40.000000,,,,0.000000,4.000000,4.000000,4.000000,4.000000,4.000000,4.000000,4.000000,4.000000,4.000000,4.000000,4.000000,4.000000,4.000000,4.000000,100.000000,,,,,,,,,,,,,,,,,,,,,,,,,,,,,,,,,,,,,,,,,,,,,,,,2.686470,0.631827,0.283378,0.327586,0.304464,1.933839,0.566096,0.265505,0.324267,0.222980,2.294521,0.998076,0.284490,0.299192,0.360277,0.708982,0.340082,0.321762,0.243597,0.174313,0.433779,0.232691,0.116193,0.103955,0.081949,0.128686,0.245351,0.095774,0.084247,0.108456,0.118132,0.195614,0.252629,0.288359,0.206214,0.591154,0.491272,0.443845,0.242557,0.154182,0.451510,0.204902,0.200704,0.143482,0.066914,1.588106,0.336256,0.282078,0.457706,0.230515,1.159826,0.246851,0.144454,0.078633,0.069693,4.881866,1.123327,0.813426,0.416236,0.297011,3.027390,0.586645,0.497541,0.296688,0.134421,6.603154,1.358678,0.502701,0.402068,0.226036
1768295116.465980,1768295116.466844,127.000000,0.000000,4349.230957,4286.153809,4350.641113,4334.358887,4300.769043,4303.461426,4309.871582,4321.538574,4318.974121,4309.487305,4505.897461,4544.230957,4412.307617,4485.897461,40.000000,2.000000,40.000000,,,,0.000000,4.000000,4.000000,4.000000,4.000000,4.000000,4.000000,4.000000,4.000000,4.000000,4.000000,4.000000,4.000000,4.000000,4.000000,100.000000,,,,,,,,,,,,,,,,,,,,,,,,,,,,,,,,,,,,,,,,,,,,,,,,,,,,,,,,,,,,,,,,,,,,,,,,,,,,,,,,,,,,,,,,,,,,,,,,,,,,,,,,,,,,,,,,,,,,,
1768295116.473789,1768295116.474452,0.000000,0.000000,4349.871582,4289.358887,4350.384766,4331.794922,4299.615234,4307.820313,4311.922852,4327.692383,4321.794922,4307.563965,4503.077148,4546.922852,4410.128418,4484.230957,4233.000000,2.000000,40.000000,,,,0.000000,4.000000,4.000000,4.000000,4.000000,4.000000,4.000000,4.000000,4.000000,4.000000,4.000000,4.000000,4.000000,4.000000,4.000000,100.000000,,,,,,,,,,,,,,,,,,,,,,,,,,,,,,,,,,,,,,,,,,,,,,,,,,,,,,,,,,,,,,,,,,,,,,,,,,,,,,,,,,,,,,,,,,,,,,,,,,,,,,,,,,,,,,,,,,,,,
1768295116.481597,1768295116.482261,1.000000,0.000000,4351.025879,4287.307617,4347.820313,4331.922852,4298.974121,4301.666504,4306.153809,4326.025879,4317.692383,4300.256348,4498.333496,4543.974121,4405.641113,4474.871582,3820.000000,2.000000,40.000000,,,,0.000000,4.000000,4.000000,4.000000,4.000000,4.000000,4.000000,4.000000,4.000000,4.000000,4.000000,4.000000,4.000000,4.000000,4.000000,100.000000,,,,,,,,,,,,,,,,,,,,,,,,,,,,,,,,,,,,,,,,,,,,,,,,,,,,,,,,,,,,,,,,,,,,,,,,,,,,,,,,,,,,,,,,,,,,,,,,,,,,,,,,,,,,,,,,,,,,,
1768295116.489406,1768295116.489969,2.000000,0.000000,4354.358887,4286.025879,4350.384766,4338.333496,4300.000000,4297.307617,4301.666504,4328.461426,4319.102539,4300.897461,4502.051270,4544.487305,4409.487305,4474.743652,4034.000000,2.000000,40.000000,,,,0.000000,4.000000,4.000000,4.000000,4.000000,4.000000,4.000000,4.000000,4.000000,4.000000,4.000000,4.000000,4.000000,4.000000,4.000000,100.000000,,,,,,,,,,,,,,,,,,,,,,,,,,,,,,,,,,,,,,,,,,,,,,,,,,,,,,,,,,,,,,,,,,,,,,,,,,,,,,,,,,,,,,,,,,,,,,,,,,,,,,,,,,,,,,,,,,,,,
1768295116.497214,1768295116.497778,3.000000,0.000000,4356.538574,4290.128418,4353.589844,4339.871582,4301.538574,4305.128418,4311.153809,4336.666504,4325.384766,4308.077148,4504.615234,4551.410156,4413.974121,4479.358887,3916.000000,2.000000,40.000000,,,,0.000000,4.000000,4.000000,4.000000,4.000000,4.000000,4.000000,4.000000,4.000000,4.000000,4.000000,4.000000,4.000000,4.000000,4.000000,100.000000,,,,,,,,,,,,,,,,,,,,,,,,,,,,,,,,,,,,,,,,,,,,,,,,,,,,,,,,,,,,,,,,,,,,,,,,,,,,,,,,,,,,,,,,,,,,,,,,,,,,,,,,,,,,,,,,,,,,,
1768295116.505023,1768295116.505786,4.000000,0.000000,4355.641113,4290.641113,4350.384766,4336.282227,4301.025879,4307.563965,4315.641113,4333.846191,4323.333496,4306.538574,4501.666504,4551.410156,4410.384766,4478.461426,3790.000000,2.000000,40.000000,,,,0.000000,4.000000,4.000000,4.000000,4.000000,4.000000,4.000000,4.000000,4.000000,4.000000,4.000000,4.000000,4.000000,4.000000,4.000000,100.000000,,,,,,,,,,,,,,,,,,,,,,,,,,,,,,,,,,,,,,,,,,,,,,,,,,,,,,,,,,,,,,,,,,,,,,,,,,,,,,,,,,,,,,,,,,,,,,,,,,,,,,,,,,,,,,,,,,,,,
1768295116.512831,1768295116.513594,5.000000,0.000000,4355.384766,4289.102539,4351.794922,4337.563965,4302.820313,4304.743652,4305.256348,4329.615234,4319.358887,4302.692383,4500.897461,4545.256348,4410.384766,4475.641113,3224.000000,2.000000,40.000000,,,,0.000000,4.000000,4.000000,4.000000,4.000000,4.000000,4.000000,4.000000,4.000000,4.000000,4.000000,4.000000,4.000000,4.000000,4.000000,100.000000,,,,,,,,,,,,,,,,,,,,,,,,,,,,,,,,,,,,,,,,,,,,,,,,,,,,,,,,,,,,,,,,,,,,,,,,,,,,,,,,,,,,,,,,,,,,,,,,,,,,,,,,,,,,,,,,,,,,,
1768295116.520640,1768295116.521503,6.000000,0.000000,4357.179688,4294.230957,4356.538574,4341.410156,4305.000000,4305.897461,4305.128418,4333.205078,4321.025879,4302.179688,4500.641113,4544.102539,4414.871582,4474.615234,3501.000000,2.000000,40.000000,,,,0.000000,4.000000,4.000000,4.000000,4.000000,4.000000,4.000000,4.000000,4.000000,4.000000,4.000000,4.000000,4.000000,4.000000,4.000000,100.000000,,,,,,,,,,,,,,,,,,,,,,,,,,,,,,,,,,,,,,,,,,,,,,,,,,,,,,,,,,,,,,,,,,,,,,,,,,,,,,,,,,,,,,,,,,,,,,,,,,,,,,,,,,,,,,,,,,,,,
1768295116.528448,1768295116.529311,7.000000,0.000000,4352.436035,4294.487305,4353.205078,4339.358887,4302.692383,4308.333496,4316.794922,4331.282227,4321.410156,4299.743652,4498.461426,4542.307617,4410.512695,4472.051270,3460.000000,2.000000,40.000000,,,,0.000000,4.000000,4.000000,4.000000,4.000000,4.000000,4.000000,4.000000,4.000000,4.000000,4.000000,4.000000,4.000000,4.000000,4.000000,100.000000,,,,,,,,,,,,,,,,,,,,,,,,,,,,,,,,,,,,,,,,,,,,,,,,,,,,,,,,,,,,,,,,,,,,,,,,,,,,,,,,,,,,,,,,,,,,,,,,,,,,,,,,,,,,,,,,,,,,,
1768295116.536256,1768295116.537319,8.000000,0.000000,4351.153809,4290.128418,4349.487305,4338.205078,4301.922852,4308.461426,4313.717773,4323.461426,4316.794922,4297.820313,4497.563965,4535.128418,4406.410156,4469.358887,2581.000000,2.000000,40.000000,,,,0.000000,4.000000,4.000000,4.000000,4.000000,4.000000,4.000000,4.000000,4.000000,4.000000,4.000000,4.000000,4.000000,4.000000,4.000000,100.000000,,,,,,,,,,,,,,,,,,,,,,,,,,,,,,,,,,,,,,,,,,,,,,,,,,,,,,,,,,,,,,,,,,,,,,,,,,,,,,,,,,,,,,,,,,,,,,,,,,,,,,,,,,,,,,,,,,,,,
1768295116.544065,1768295116.545128,9.000000,0.000000,4358.205078,4294.743652,4350.769043,4340.000000,4305.641113,4308.846191,4306.922852,4325.128418,4317.051270,4302.692383,4499.615234,4535.897461,4411.794922,4470.897461,3553.000000,2.000000,40.000000,,,,0.000000,4.000000,4.000000,4.000000,4.000000,4.000000,4.000000,4.000000,4.000000,4.000000,4.000000,4.000000,4.000000,4.000000,4.000000,100.000000,,,,,,,,,,,,,,,,,,,,,,,,,,,,,,,,,,,,,,,,,,,,,,,,,,,,,,,,,,,,,,,,,,,,,,,,,,,,,,,,,,,,,,,,,,,,,,,,,,,,,,,,,,,,,,,,,,,,,
1768295116.551873,1768295116.552836,10.000000,0.000000,4353.077148,4299.743652,4344.615234,4336.922852,4307.179688,4310.769043,4316.538574,4327.820313,4319.615234,4307.692383,4499.487305,4539.230957,4411.025879,4469.230957,3819.000000,2.000000,40.000000,,,,0.000000,4.000000,4.000000,4.000000,4.000000,4.000000,4.000000,4.000000,4.000000,4.000000,4.000000,4.000000,4.000000,4.000000,4.000000,100.000000,,,,,,,,,,,,,,,,,,,,,,,,,,,,,,,,,,,,,,,,,,,,,,,,,,,,,,,,,,,,,,,,,,,,,,,,,,,,,,,,,,,,,,,,,,,,,,,,,,,,,,,,,,,,,,,,,,,,,
1768295116.559682,1768295116.560645,11.000000,0.000000,4340.000000,4299.102539,4337.692383,4334.358887,4303.717773,4308.589844,4317.948730,4326.922852,4317.179688,4306.282227,4497.948730,4535.512695,4407.051270,4466.153809,4689.000000,2.000000,40.000000,,,,0.000000,4.000000,4.000000,4.000000,4.000000,4.000000,4.000000,4.000000,4.000000,4.000000,4.000000,4.000000,4.000000,4.000000,4.000000,100.000000,,,,,,,,,,,,,,,,,,,,,,,,,,,,,,,,,,,,,,,,,,,,,,,,,,,,,,,,,,,,,,,,,,,,,,,,,,,,,,,,,,,,,,,,,,,,,,,,,,,,,,,,,,,,,,,,,,,,,
1768295116.567490,1768295116.568254,12.000000,0.000000,4341.410156,4303.846191,4339.615234,4339.230957,4298.717773,4303.846191,4303.589844,4327.820313,4315.512695,4299.358887,4498.205078,4533.333496,4409.871582,4468.205078,2374.000000,2.000000,40.000000,,,,0.000000,4.000000,4.000000,4.000000,4.000000,4.000000,4.000000,4.000000,4.000000,4.000000,4.000000,4.000000,4.000000,4.000000,4.000000,100.000000,,,,,,,,,,,,,,,,,,,,,,,,,,,,,,,,,,,,,,,,,,,,,,,,,,,,,,,,,,,,,,,,,,,,,,,,,,,,,,,,,,,,,,,,,,,,,,,,,,,,,,,,,,,,,,,,,,,,,
1768295116.575298,1768295116.576062,13.000000,0.000000,4351.153809,4314.487305,4341.282227,4346.153809,4301.025879,4301.794922,4298.461426,4323.077148,4315.384766,4295.128418,4497.436035,4533.846191,4409.871582,4467.563965,5424.000000,2.000000,40.000000,,,,0.000000,4.000000,4.000000,4.000000,4.000000,4.000000,4.000000,4.000000,4.000000,4.000000,4.000000,4.000000,4.000000,4.000000,4.000000,100.000000,,,,,,,,,,,,,,,,,,,,,,,,,,,,,,,,,,,,,,,,,,,,,,,,,,,,,,,,,,,,,,,,,,,,,,,,,,,,,,,,,,,,,,,,,,,,,,,,,,,,,,,,,,,,,,,,,,,,,
1768295116.583107,1768295116.583970,14.000000,0.000000,4350.512695,4320.512695,4339.743652,4347.307617,4304.743652,4304.230957,4303.461426,4323.589844,4316.410156,4299.615234,4496.153809,4531.025879,4406.794922,4460.384766,3819.000000,2.000000,40.000000,,,,0.000000,4.000000,4.000000,4.000000,4.000000,4.000000,4.000000,4.000000,4.000000,4.000000,4.000000,4.000000,4.000000,4.000000,4.000000,100.000000,1.000000,75.000000,4.000000,4.000000,4.000000,4.000000,4.000000,1.000000,4.000000,4.000000,4.000000,4.000000,4.000000,4.000000,4.000000,4.000000,,,,,,,,,,,,,,,,,,,,,,,,,,,,,,,,3.078201,0.621030,0.276849,0.293822,0.279024,2.295248,0.676979,0.263404,0.311129,0.208531,2.386140,1.023619,0.326947,0.314234,0.354669,0.774421,0.374732,0.314548,0.245124,0.174193,0.473796,0.277812,0.134683,0.110326,0.089445,0.150794,0.322688,0.108866,0.086989,0.110895,0.134180,0.242166,0.193831,0.351261,0.198350,0.597047,0.440762,0.329685,0.213490,0.132952,0.463840,0.219756,0.210607,0.133889,0.067245,1.462788,0.357394,0.239278,0.547332,0.246214,1.063345,0.236495,0.139577,0.085035,0.075795,4.487933,1.039475,0.798590,0.399573,0.277431,2.876577,0.670162,0.535854,0.318058,0.130562,5.955175,1.254262,0.525439,0.405949,0.224064
1768295116.590915,1768295116.591779,15.000000,0.000000,4339.871582,4319.871582,4337.692383,4342.307617,4297.563965,4309.487305,4304.230957,4326.666504,4314.230957,4297.179688,4494.871582,4524.871582,4404.615234,4452.948730,4689.000000,2.000000,40.000000,,,,0.000000,4.000000,4.000000,4.000000,4.000000,4.000000,4.000000,4.000000,4.000000,4.000000,4.000000,4.000000,4.000000,4.000000,4.000000,100.000000,,,,,,,,,,,,,,,,,,,,,,,,,,,,,,,,,,,,,,,,,,,,,,,,,,,,,,,,,,,,,,,,,,,,,,,,,,,,,,,,,,,,,,,,,,,,,,,,,,,,,,,,,,,,,,,,,,,,,
1768295116.598724,1768295116.599787,16.000000,0.000000,4333.205078,4317.692383,4338.589844,4339.743652,4291.282227,4311.666504,4303.974121,4322.051270,4315.384766,4286.666504,4491.922852,4523.717773,4401.538574,4451.922852,0.000000,2.000000,40.000000,,,,0.000000,4.000000,4.000000,4.000000,4.000000,4.000000,4.000000,4.000000,4.000000,4.000000,4.000000,4.000000,4.000000,4.000000,4.000000,100.000000,,,,,,,,,,,,,,,,,,,,,,,,,,,,,,,,,,,,,,,,,,,,,,,,,,,,,,,,,,,,,,,,,,,,,,,,,,,,,,,,,,,,,,,,,,,,,,,,,,,,,,,,,,,,,,,,,,,,,
1768295116.606532,1768295116.607595,17.000000,0.000000,4337.051270,4322.051270,4340.256348,4343.205078,4296.922852,4311.153809,4304.743652,4324.871582,4323.589844,4291.282227,4493.333496,4530.128418,4398.974121,4455.000000,0.000000,2.000000,40.000000,,,,0.000000,4.000000,4.000000,4.000000,4.000000,4.000000,4.000000,4.000000,4.000000,4.000000,4.000000,4.000000,4.000000,4.000000,4.000000,100.000000,,,,,,,,,,,,,,,,,,,,,,,,,,,,,,,,,,,,,,,,,,,,,,,,,,,,,,,,,,,,,,,,,,,,,,,,,,,,,,,,,,,,,,,,,,,,,,,,,,,,,,,,,,,,,,,,,,,,,
1768295116.614340,1768295116.615304,18.000000,0.000000,4343.461426,4328.589844,4339.487305,4346.025879,4300.897461,4312.307617,4304.230957,4328.974121,4325.641113,4304.871582,4497.820313,4532.948730,4399.743652,4455.000000,0.000000,2.000000,40.000000,,,,0.000000,4.000000,4.000000,4.000000,4.000000,4.000000,4.000000,4.000000,4.000000,4.000000,4.000000,4.000000,4.000000,4.000000,4.000000,100.000000,,,,,,,,,,,,,,,,,,,,,,,,,,,,,,,,,,,,,,,,,,,,,,,,,,,,,,,,,,,,,,,,,,,,,,,,,,,,,,,,,,,,,,,,,,,,,,,,,,,,,,,,,,,,,,,,,,,,,
1768295116.622149,1768295116.623112,19.000000,0.000000,4339.615234,4322.692383,4339.615234,4344.615234,4296.153809,4313.205078,4307.051270,4325.897461,4321.153809,4304.230957,4499.230957,4529.102539,4401.922852,4451.794922,0.000000,2.000000,40.000000,,,,0.000000,4.000000,4.000000,4.000000,4.000000,4.000000,4.000000,4.000000,4.000000,4.000000,4.000000,4.000000,4.000000,4.000000,4.000000,100.000000,,,,,,,,,,,,,,,,,,,,,,,,,,,,,,,,,,,,,,,,,,,,,,,,,,,,,,,,,,,,,,,,,,,,,,,,,,,,,,,,,,,,,,,,,,,,,,,,,,,,,,,,,,,,,,,,,,,,,
1768295116.629957,1768295116.630721,20.000000,0.000000,4334.487305,4314.230957,4339.615234,4343.205078,4293.461426,4307.436035,4307.179688,4325.769043,4320.512695,4296.282227,4497.563965,4528.589844,4401.666504,4453.846191,0.000000,2.000000,40.000000,,,,0.000000,4.000000,4.000000,4.000000,4.000000,4.000000,4.000000,4.000000,4.000000,4.000000,4.000000,4.000000,4.000000,4.000000,4.000000,100.000000,,,,,,,,,,,,,,,,,,,,,,,,,,,,,,,,,,,,,,,,,,,,,,,,,,,,,,,,,,,,,,,,,,,,,,,,,,,,,,,,,,,,,,,,,,,,,,,,,,,,,,,,,,,,,,,,,,,,,
1768295116.637766,1768295116.638530,21.000000,0.000000,4331.922852,4311.922852,4339.102539,4341.666504,4295.641113,4301.153809,4298.974121,4325.897461,4322.179688,4296.922852,4495.641113,4532.820313,4402.436035,4456.538574,0.000000,2.000000,40.000000,,,,0.000000,4.000000,4.000000,4.000000,4.000000,4.000000,4.000000,4.000000,4.000000,4.000000,4.000000,4.000000,4.000000,4.000000,4.000000,100.000000,,,,,,,,,,,,,,,,,,,,,,,,,,,,,,,,,,,,,,,,,,,,,,,,,,,,,,,,,,,,,,,,,,,,,,,,,,,,,,,,,,,,,,,,,,,,,,,,,,,,,,,,,,,,,,,,,,,,,
1768295116.645574,1768295116.646238,22.000000,0.000000,4330.641113,4311.666504,4340.000000,4340.769043,4298.205078,4304.743652,4295.641113,4329.358887,4325.384766,4302.820313,4499.615234,4538.205078,4404.615234,4455.769043,0.000000,2.000000,40.000000,,,,0.000000,4.000000,4.000000,4.000000,4.000000,4.000000,4.000000,4.000000,4.000000,4.000000,4.000000,4.000000,4.000000,4.000000,4.000000,100.000000,,,,,,,,,,,,,,,,,,,,,,,,,,,,,,,,,,,,,,,,,,,,,,,,,,,,,,,,,,,,,,,,,,,,,,,,,,,,,,,,,,,,,,,,,,,,,,,,,,,,,,,,,,,,,,,,,,,,,
1768295116.653383,1768295116.654047,23.000000,0.000000,4339.230957,4314.358887,4344.487305,4345.769043,4301.153809,4310.512695,4306.410156,4338.461426,4330.897461,4307.948730,4505.000000,4543.589844,4404.743652,4458.974121,0.000000,2.000000,40.000000,,,,0.000000,4.000000,4.000000,4.000000,4.000000,4.000000,4.000000,4.000000,4.000000,4.000000,4.000000,4.000000,4.000000,4.000000,4.000000,100.000000,,,,,,,,,,,,,,,,,,,,,,,,,,,,,,,,,,,,,,,,,,,,,,,,,,,,,,,,,,,,,,,,,,,,,,,,,,,,,,,,,,,,,,,,,,,,,,,,,,,,,,,,,,,,,,,,,,,,,
1768295116.661191,1768295116.661655,24.000000,0.000000,4348.846191,4316.666504,4348.717773,4349.102539,4302.307617,4311.410156,4316.410156,4335.641113,4327.307617,4306.025879,4502.820313,4542.179688,4401.922852,4466.282227,0.000000,2.000000,40.000000,,,,0.000000,4.000000,4.000000,4.000000,4.000000,4.000000,4.000000,4.000000,4.000000,4.000000,4.000000,4.000000,4.000000,4.000000,4.000000,100.000000,,,,,,,,,,,,,,,,,,,,,,,,,,,,,,,,,,,,,,,,,,,,,,,,,,,,,,,,,,,,,,,,,,,,,,,,,,,,,,,,,,,,,,,,,,,,,,,,,,,,,,,,,,,,,,,,,,,,,
1768295116.669000,1768295116.669464,25.000000,0.000000,4349.871582,4315.769043,4348.846191,4346.538574,4300.769043,4306.410156,4310.897461,4326.666504,4322.051270,4300.128418,4498.974121,4536.025879,4398.974121,4466.794922,0.000000,2.000000,40.000000,,,,0.000000,4.000000,4.000000,4.000000,4.000000,4.000000,4.000000,4.000000,4.000000,4.000000,4.000000,4.000000,4.000000,4.000000,4.000000,100.000000,,,,,,,,,,,,,,,,,,,,,,,,,,,,,,,,,,,,,,,,,,,,,,,,,,,,,,,,,,,,,,,,,,,,,,,,,,,,,,,,,,,,,,,,,,,,,,,,,,,,,,,,,,,,,,,,,,,,,
1768295116.676808,1768295116.677172,26.000000,0.000000,4348.589844,4314.487305,4347.692383,4347.307617,4300.000000,4300.000000,4301.922852,4331.025879,4327.820313,4301.410156,4500.769043,4536.538574,4400.000000,4464.358887,0.000000,2.000000,40.000000,,,,0.000000,4.000000,4.000000,4.000000,4.000000,4.000000,4.000000,4.000000,4.000000,4.000000,4.000000,4.000000,4.000000,4.000000,4.000000,100.000000,,,,,,,,,,,,,,,,,,,,,,,,,,,,,,,,,,,,,,,,,,,,,,,,,,,,,,,,,,,,,,,,,,,,,,,,,,,,,,,,,,,,,,,,,,,,,,,,,,,,,,,,,,,,,,,,,,,,,
1768295116.684616,1768295116.684981,27.000000,0.000000,4348.717773,4310.128418,4347.563965,4348.205078,4301.538574,4304.230957,4304.230957,4333.974121,4329.615234,4306.282227,4505.000000,4539.743652,4405.897461,4468.333496,0.000000,2.000000,40.000000,,,,0.000000,4.000000,4.000000,4.000000,4.000000,4.000000,4.000000,4.000000,4.000000,4.000000,4.000000,4.000000,4.000000,4.000000,4.000000,100.000000,,,,,,,,,,,,,,,,,,,,,,,,,,,,,,,,,,,,,,,,,,,,,,,,,,,,,,,,,,,,,,,,,,,,,,,,,,,,,,,,,,,,,,,,,,,,,,,,,,,,,,,,,,,,,,,,,,,,,
1768295116.692425,1768295116.692589,28.000000,0.000000,4347.179688,4304.871582,4345.641113,4343.077148,4300.769043,4308.077148,4306.153809,4324.102539,4322.051270,4305.897461,4503.846191,4534.871582,4406.025879,4466.794922,0.000000,2.000000,40.000000,,,,0.000000,4.000000,4.000000,4.000000,4.000000,4.000000,4.000000,4.000000,4.000000,4.000000,4.000000,4.000000,4.000000,4.000000,4.000000,100.000000,,,,,,,,,,,,,,,,,,,,,,,,,,,,,,,,,,,,,,,,,,,,,,,,,,,,,,,,,,,,,,,,,,,,,,,,,,,,,,,,,,,,,,,,,,,,,,,,,,,,,,,,,,,,,,,,,,,,,
1768295116.700233,1768295116.700398,29.000000,0.000000,4345.128418,4303.974121,4340.897461,4340.897461,4298.974121,4301.666504,4301.025879,4320.000000,4317.820313,4300.512695,4500.256348,4528.461426,4400.256348,4458.205078,0.000000,2.000000,40.000000,,,,0.000000,4.000000,4.000000,4.000000,4.000000,4.000000,4.000000,4.000000,4.000000,4.000000,4.000000,4.000000,4.000000,4.000000,4.000000,100.000000,,,,,,,,,,,,,,,,,,,,,,,,,,,,,,,,,,,,,,,,,,,,,,,,,,,,,,,,,,,,,,,,,,,,,,,,,,,,,,,,,,,,,,,,,,,,,,,,,,,,,,,,,,,,,,,,,,,,,
1768295116.708042,1768295116.708306,30.000000,0.000000,4346.410156,4305.641113,4341.538574,4342.692383,4299.871582,4302.179688,4306.282227,4329.487305,4320.000000,4299.358887,4500.384766,4530.897461,4401.025879,4462.307617,0.000000,2.000000,40.000000,,,,0.000000,4.000000,4.000000,4.000000,4.000000,4.000000,4.000000,4.000000,4.000000,4.000000,4.000000,4.000000,4.000000,4.000000,4.000000,100.000000,,,,,,,,,,,,,,,,,,,,,,,,,,,,,,,,,,,,,,,,,,,,,,,,3.202610,0.616685,0.269546,0.273299,0.249671,2.718304,0.803257,0.258580,0.300525,0.192713,2.402645,1.013672,0.354175,0.329348,0.325361,0.829302,0.412412,0.293876,0.240204,0.166207,0.513034,0.324287,0.166182,0.114219,0.095727,0.181444,0.383218,0.125332,0.090733,0.109896,0.158095,0.291434,0.156092,0.401990,0.187971,0.580307,0.389720,0.235303,0.181905,0.123779,0.443573,0.232228,0.226249,0.121571,0.071268,1.272891,0.406801,0.251229,0.636650,0.269846,0.903175,0.225266,0.142264,0.096973,0.085926,3.861862,0.924356,0.742080,0.400124,0.284434,2.514374,0.767347,0.582335,0.331148,0.130407,5.044555,1.144222,0.531266,0.413546,0.241119
1768295116.715850,1768295116.716115,31.000000,0.000000,4347.307617,4303.974121,4346.025879,4341.153809,4298.589844,4309.358887,4311.538574,4332.820313,4321.153809,4305.641113,4502.051270,4536.794922,4403.077148,4467.820313,0.000000,2.000000,40.000000,,,,0.000000,4.000000,4.000000,4.000000,4.000000,4.000000,4.000000,4.000000,4.000000,4.000000,4.000000,4.000000,4.000000,4.000000,4.000000,100.000000,,,,,,,,,,,,,,,,,,,,,,,,,,,,,,,,,,,,,,,,,,,,,,,,,,,,,,,,,,,,,,,,,,,,,,,,,,,,,,,,,,,,,,,,,,,,,,,,,,,,,,,,,,,,,,,,,,,,,
1768295116.723658,1768295116.724123,32.000000,0.000000,4346.538574,4300.256348,4344.487305,4339.743652,4297.051270,4306.410156,4300.641113,4331.025879,4321.282227,4306.282227,4500.641113,4537.179688,4402.179688,4460.512695,0.000000,2.000000,40.000000,,,,0.000000,4.000000,4.000000,4.000000,4.000000,4.000000,4.000000,4.000000,4.000000,4.000000,4.000000,4.000000,4.000000,4.000000,4.000000,100.000000,,,,,,,,,,,,,,,,,,,,,,,,,,,,,,,,,,,,,,,,,,,,,,,,,,,,,,,,,,,,,,,,,,,,,,,,,,,,,,,,,,,,,,,,,,,,,,,,,,,,,,,,,,,,,,,,,,,,,
1768295116.731467,1768295116.731931,33.000000,0.000000,4345.512695,4299.871582,4338.461426,4340.000000,4301.794922,4299.615234,4295.000000,4330.897461,4317.563965,4295.897461,4496.794922,4528.846191,4403.077148,4454.615234,0.000000,2.000000,40.000000,,,,0.000000,4.000000,4.000000,4.000000,4.000000,4.000000,4.000000,4.000000,4.000000,4.000000,4.000000,4.000000,4.000000,4.000000,4.000000,100.000000,,,,,,,,,,,,,,,,,,,,,,,,,,,,,,,,,,,,,,,,,,,,,,,,,,,,,,,,,,,,,,,,,,,,,,,,,,,,,,,,,,,,,,,,,,,,,,,,,,,,,,,,,,,,,,,,,,,,,
1768295116.739275,1768295116.739840,34.000000,0.000000,4345.512695,4301.794922,4337.179688,4339.615234,4305.897461,4302.820313,4304.871582,4326.922852,4315.256348,4295.769043,4496.153809,4522.179688,4403.974121,4456.922852,0.000000,2.000000,40.000000,,,,0.000000,4.000000,4.000000,4.000000,4.000000,4.000000,4.000000,4.000000,4.000000,4.000000,4.000000,4.000000,4.000000,4.000000,4.000000,100.000000,,,,,,,,,,,,,,,,,,,,,,,,,,,,,,,,,,,,,,,,,,,,,,,,,,,,,,,,,,,,,,,,,,,,,,,,,,,,,,,,,,,,,,,,,,,,,,,,,,,,,,,,,,,,,,,,,,,,,
1768295116.747084,1768295116.747648,35.000000,0.000000,4349.487305,4300.128418,4344.102539,4341.794922,4303.589844,4306.025879,4310.769043,4332.179688,4321.282227,4309.102539,4500.128418,4531.025879,4400.769043,4461.538574,0.000000,2.000000,40.000000,,,,0.000000,4.000000,4.000000,4.000000,4.000000,4.000000,4.000000,4.000000,4.000000,4.000000,4.000000,4.000000,4.000000,4.000000,4.000000,100.000000,,,,,,,,,,,,,,,,,,,,,,,,,,,,,,,,,,,,,,,,,,,,,,,,,,,,,,,,,,,,,,,,,,,,,,,,,,,,,,,,,,,,,,,,,,,,,,,,,,,,,,,,,,,,,,,,,,,,,
1768295116.754892,1768295116.755257,36.000000,0.000000,4358.077148,4297.820313,4351.538574,4343.717773,4302.948730,4306.538574,4305.897461,4339.358887,4323.205078,4313.589844,4502.436035,4539.358887,4398.333496,4465.512695,0.000000,2.000000,40.000000,,,,0.000000,4.000000,4.000000,4.000000,4.000000,4.000000,4.000000,4.000000,4.000000,4.000000,4.000000,4.000000,4.000000,4.000000,4.000000,100.000000,,,,,,,,,,,,,,,,,,,,,,,,,,,,,,,,,,,,,,,,,,,,,,,,,,,,,,,,,,,,,,,,,,,,,,,,,,,,,,,,,,,,,,,,,,,,,,,,,,,,,,,,,,,,,,,,,,,,,
1768295116.762700,1768295116.763065,37.000000,0.000000,4363.461426,4300.769043,4350.256348,4340.897461,4304.615234,4307.051270,4303.846191,4327.820313,4318.333496,4310.897461,4500.256348,4533.077148,4401.025879,4467.820313,0.000000,2.000000,40.000000,,,,0.000000,4.000000,4.000000,4.000000,4.000000,4.000000,4.000000,4.000000,4.000000,4.000000,4.000000,4.000000,4.000000,4.000000,4.000000,100.000000,,,,,,,,,,,,,,,,,,,,,,,,,,,,,,,,,,,,,,,,,,,,,,,,,,,,,,,,,,,,,,,,,,,,,,,,,,,,,,,,,,,,,,,,,,,,,,,,,,,,,,,,,,,,,,,,,,,,,
1768295116.770509,1768295116.770774,38.000000,0.000000,4360.641113,4304.615234,4344.358887,4340.384766,4305.897461,4302.179688,4306.794922,4318.461426,4315.384766,4309.487305,4498.077148,4529.102539,4411.025879,4467.948730,0.000000,2.000000,40.000000,,,,0.000000,4.000000,4.000000,4.000000,4.000000,4.000000,4.000000,4.000000,4.000000,4.000000,4.000000,4.000000,4.000000,4.000000,4.000000,100.000000,,,,,,,,,,,,,,,,,,,,,,,,,,,,,,,,,,,,,,,,,,,,,,,,,,,,,,,,,,,,,,,,,,,,,,,,,,,,,,,,,,,,,,,,,,,,,,,,,,,,,,,,,,,,,,,,,,,,,
1768295116.778317,1768295116.778582,39.000000,0.000000,4356.410156,4305.000000,4338.974121,4342.307617,4306.410156,4300.769043,4309.487305,4329.230957,4317.820313,4310.000000,4499.358887,4531.282227,4416.666504,4466.794922,0.000000,2.000000,40.000000,,,,0.000000,4.000000,4.000000,4.000000,4.000000,4.000000,4.000000,4.000000,4.000000,4.000000,4.000000,4.000000,4.000000,4.000000,4.000000,100.000000,,,,,,,,,,,,,,,,,,,,,,,,,,,,,,,,,,,,,,,,,,,,,,,,,,,,,,,,,,,,,,,,,,,,,,,,,,,,,,,,,,,,,,,,,,,,,,,,,,,,,,,,,,,,,,,,,,,,,
1768295116.786126,1768295116.786590,40.000000,0.000000,4349.871582,4299.871582,4335.641113,4341.666504,4303.717773,4305.384766,4305.641113,4338.205078,4321.666504,4312.563965,4503.717773,4529.615234,4409.102539,4462.948730,0.000000,2.000000,40.000000,,,,0.000000,4.000000,4.000000,4.000000,4.000000,4.000000,4.000000,4.000000,4.000000,4.000000,4.000000,4.000000,4.000000,4.000000,4.000000,100.000000,,,,,,,,,,,,,,,,,,,,,,,,,,,,,,,,,,,,,,,,,,,,,,,,,,,,,,,,,,,,,,,,,,,,,,,,,,,,,,,,,,,,,,,,,,,,,,,,,,,,,,,,,,,,,,,,,,,,,
1768295116.793934,1768295116.794399,41.000000,0.000000,4348.205078,4300.128418,4339.871582,4342.563965,4302.436035,4304.743652,4300.000000,4330.128418,4321.410156,4313.077148,4504.871582,4527.179688,4405.769043,4463.589844,0.000000,2.000000,40.000000,,,,0.000000,4.000000,4.000000,4.000000,4.000000,4.000000,4.000000,4.000000,4.000000,4.000000,4.000000,4.000000,4.000000,4.000000,4.000000,100.000000,,,,,,,,,,,,,,,,,,,,,,,,,,,,,,,,,,,,,,,,,,,,,,,,,,,,,,,,,,,,,,,,,,,,,,,,,,,,,,,,,,,,,,,,,,,,,,,,,,,,,,,,,,,,,,,,,,,,,
1768295116.801743,1768295116.802307,42.000000,0.000000,4358.974121,4310.769043,4345.769043,4346.410156,4305.000000,4299.230957,4303.846191,4326.666504,4320.000000,4310.384766,4501.794922,4530.769043,4409.230957,4472.051270,0.000000,2.000000,40.000000,,,,0.000000,4.000000,4.000000,4.000000,4.000000,4.000000,4.000000,4.000000,4.000000,4.000000,4.000000,4.000000,4.000000,4.000000,4.000000,100.000000,,,,,,,,,,,,,,,,,,,,,,,,,,,,,,,,,,,,,,,,,,,,,,,,,,,,,,,,,,,,,,,,,,,,,,,,,,,,,,,,,,,,,,,,,,,,,,,,,,,,,,,,,,,,,,,,,,,,,
1768295116.809551,1768295116.810116,43.000000,0.000000,4361.410156,4312.820313,4342.563965,4344.487305,4305.769043,4299.487305,4307.948730,4332.179688,4319.487305,4309.358887,4500.512695,4534.615234,4408.333496,4471.666504,0.000000,2.000000,40.000000,,,,0.000000,4.000000,4.000000,4.000000,4.000000,4.000000,4.000000,4.000000,4.000000,4.000000,4.000000,4.000000,4.000000,4.000000,4.000000,100.000000,,,,,,,,,,,,,,,,,,,,,,,,,,,,,,,,,,,,,,,,,,,,,,,,,,,,,,,,,,,,,,,,,,,,,,,,,,,,,,,,,,,,,,,,,,,,,,,,,,,,,,,,,,,,,,,,,,,,,
1768295116.817360,1768295116.817824,44.000000,0.000000,4350.512695,4306.538574,4336.282227,4339.230957,4302.436035,4299.230957,4301.025879,4331.410156,4318.333496,4308.205078,4500.641113,4531.922852,4408.846191,4467.179688,0.000000,2.000000,40.000000,,,,0.000000,4.000000,4.000000,4.000000,4.000000,4.000000,4.000000,4.000000,4.000000,4.000000,4.000000,4.000000,4.000000,4.000000,4.000000,100.000000,,,,,,,,,,,,,,,,,,,,,,,,,,,,,,,,,,,,,,,,,,,,,,,,,,,,,,,,,,,,,,,,,,,,,,,,,,,,,,,,,,,,,,,,,,,,,,,,,,,,,,,,,,,,,,,,,,,,,
1768295116.825168,1768295116.825633,45.000000,0.000000,4349.487305,4307.692383,4336.794922,4339.615234,4301.025879,4294.230957,4295.000000,4324.358887,4316.922852,4306.025879,4499.487305,4530.512695,4408.077148,4469.615234,0.000000,2.000000,40.000000,,,,0.000000,4.000000,4.000000,4.000000,4.000000,4.000000,4.000000,4.000000,4.000000,4.000000,4.000000,4.000000,4.000000,4.000000,4.000000,100.000000,,,,,,,,,,,,,,,,,,,,,,,,,,,,,,,,,,,,,,,,,,,,,,,,,,,,,,,,,,,,,,,,,,,,,,,,,,,,,,,,,,,,,,,,,,,,,,,,,,,,,,,,,,,,,,,,,,,,,
1768295116.832976,1768295116.833341,46.000000,0.000000,4355.000000,4310.000000,4341.025879,4343.077148,4303.717773,4297.051270,4301.666504,4321.794922,4318.461426,4307.563965,4500.384766,4533.077148,4401.538574,4470.512695,0.000000,2.000000,40.000000,,,,0.000000,4.000000,4.000000,4.000000,4.000000,4.000000,4.000000,4.000000,4.000000,4.000000,4.000000,4.000000,4.000000,4.000000,4.000000,100.000000,,,,,,,,,,,,,,,,,,,,,,,,,,,,,,,,,,,,,,,,,,,,,,,,2.979486,0.603646,0.254374,0.273574,0.219383,3.093868,0.907980,0.256794,0.295904,0.177019,2.312849,0.958438,0.360228,0.338132,0.279441,0.849427,0.432593,0.265754,0.235069,0.151128,0.532101,0.353396,0.195900,0.115611,0.098439,0.211559,0.402605,0.138810,0.093548,0.106118,0.181880,0.328694,0.128682,0.421850,0.177394,0.551338,0.344265,0.170237,0.161119,0.128822,0.401270,0.232587,0.248369,0.111026,0.078118,1.064537,0.473077,0.322446,0.691425,0.295836,0.724398,0.215663,0.153733,0.113511,0.098212,3.165478,0.809708,0.681319,0.430562,0.314802,2.050008,0.848948,0.645947,0.337495,0.135050,4.092684,1.043482,0.538074,0.430457,0.277186
1768295116.840785,1768295116.841150,47.000000,0.000000,4351.282227,4307.436035,4340.641113,4341.666504,4303.461426,4298.717773,4302.692383,4323.846191,4318.974121,4304.743652,4501.794922,4533.589844,4401.794922,4467.563965,0.000000,2.000000,40.000000,,,,0.000000,4.000000,4.000000,4.000000,4.000000,4.000000,4.000000,4.000000,4.000000,4.000000,4.000000,4.000000,4.000000,4.000000,4.000000,100.000000,,,,,,,,,,,,,,,,,,,,,,,,,,,,,,,,,,,,,,,,,,,,,,,,,,,,,,,,,,,,,,,,,,,,,,,,,,,,,,,,,,,,,,,,,,,,,,,,,,,,,,,,,,,,,,,,,,,,,
1768295116.848593,1768295116.848758,48.000000,0.000000,4348.077148,4308.333496,4337.948730,4334.743652,4299.102539,4293.077148,4291.410156,4319.743652,4316.666504,4301.153809,4498.077148,4530.384766,4408.846191,4468.333496,0.000000,2.000000,40.000000,,,,0.000000,4.000000,4.000000,4.000000,4.000000,4.000000,4.000000,4.000000,4.000000,4.000000,4.000000,4.000000,4.000000,4.000000,4.000000,100.000000,,,,,,,,,,,,,,,,,,,,,,,,,,,,,,,,,,,,,,,,,,,,,,,,,,,,,,,,,,,,,,,,,,,,,,,,,,,,,,,,,,,,,,,,,,,,,,,,,,,,,,,,,,,,,,,,,,,,,
1768295116.856402,1768295116.856567,49.000000,0.000000,4348.589844,4308.205078,4340.128418,4332.820313,4300.000000,4293.589844,4290.769043,4316.025879,4315.512695,4304.230957,4495.641113,4531.410156,4405.512695,4468.717773,0.000000,2.000000,40.000000,,,,0.000000,4.000000,4.000000,4.000000,4.000000,4.000000,4.000000,4.000000,4.000000,4.000000,4.000000,4.000000,4.000000,4.000000,4.000000,100.000000,,,,,,,,,,,,,,,,,,,,,,,,,,,,,,,,,,,,,,,,,,,,,,,,,,,,,,,,,,,,,,,,,,,,,,,,,,,,,,,,,,,,,,,,,,,,,,,,,,,,,,,,,,,,,,,,,,,,,
1768295116.864210,1768295116.864275,50.000000,0.000000,4346.538574,4303.461426,4344.871582,4338.974121,4307.051270,4301.794922,4302.820313,4326.025879,4318.205078,4306.922852,4500.128418,4536.282227,4399.230957,4463.333496,0.000000,2.000000,40.000000,,,,0.000000,4.000000,4.000000,4.000000,4.000000,4.000000,4.000000,4.000000,4.000000,4.000000,4.000000,4.000000,4.000000,4.000000,4.000000,100.000000,,,,,,,,,,,,,,,,,,,,,,,,,,,,,,,,,,,,,,,,,,,,,,,,,,,,,,,,,,,,,,,,,,,,,,,,,,,,,,,,,,,,,,,,,,,,,,,,,,,,,,,,,,,,,,,,,,,,,
1768295116.872018,1768295116.872084,51.000000,0.000000,4345.769043,4303.589844,4342.563965,4342.436035,4310.512695,4302.692383,4306.410156,4330.641113,4320.128418,4303.205078,4498.974121,4532.307617,4400.384766,4462.307617,0.000000,2.000000,40.000000,,,,0.000000,4.000000,4.000000,4.000000,4.000000,4.000000,4.000000,4.000000,4.000000,4.000000,4.000000,4.000000,4.000000,4.000000,4.000000,100.000000,,,,,,,,,,,,,,,,,,,,,,,,,,,,,,,,,,,,,,,,,,,,,,,,,,,,,,,,,,,,,,,,,,,,,,,,,,,,,,,,,,,,,,,,,,,,,,,,,,,,,,,,,,,,,,,,,,,,,
1768295116.879827,1768295116.879692,52.000000,0.000000,4345.641113,4304.615234,4338.846191,4341.025879,4310.256348,4297.179688,4303.589844,4321.922852,4316.666504,4294.358887,4493.333496,4525.128418,4397.179688,4459.358887,0.000000,2.000000,40.000000,,,,0.000000,4.000000,4.000000,4.000000,4.000000,4.000000,4.000000,4.000000,4.000000,4.000000,4.000000,4.000000,4.000000,4.000000,4.000000,100.000000,,,,,,,,,,,,,,,,,,,,,,,,,,,,,,,,,,,,,,,,,,,,,,,,,,,,,,,,,,,,,,,,,,,,,,,,,,,,,,,,,,,,,,,,,,,,,,,,,,,,,,,,,,,,,,,,,,,,,
1768295116.887635,1768295116.887501,53.000000,0.000000,4344.487305,4300.256348,4341.410156,4342.692383,4309.102539,4298.205078,4311.025879,4323.205078,4317.307617,4297.563965,4496.538574,4530.000000,4395.641113,4459.102539,0.000000,2.000000,40.000000,,,,0.000000,4.000000,4.000000,4.000000,4.000000,4.000000,4.000000,4.000000,4.000000,4.000000,4.000000,4.000000,4.000000,4.000000,4.000000,100.000000,,,,,,,,,,,,,,,,,,,,,,,,,,,,,,,,,,,,,,,,,,,,,,,,,,,,,,,,,,,,,,,,,,,,,,,,,,,,,,,,,,,,,,,,,,,,,,,,,,,,,,,,,,,,,,,,,,,,,
1768295116.895444,1768295116.895209,54.000000,0.000000,4346.025879,4303.974121,4342.307617,4346.282227,4307.179688,4302.948730,4318.077148,4331.922852,4322.563965,4316.025879,4499.102539,4537.051270,4405.769043,4463.333496,0.000000,2.000000,40.000000,,,,0.000000,4.000000,4.000000,4.000000,4.000000,4.000000,4.000000,4.000000,4.000000,4.000000,4.000000,4.000000,4.000000,4.000000,4.000000,100.000000,,,,,,,,,,,,,,,,,,,,,,,,,,,,,,,,,,,,,,,,,,,,,,,,,,,,,,,,,,,,,,,,,,,,,,,,,,,,,,,,,,,,,,,,,,,,,,,,,,,,,,,,,,,,,,,,,,,,,
1768295116.903252,1768295116.903018,55.000000,0.000000,4349.615234,4312.948730,4337.820313,4347.051270,4306.410156,4303.205078,4309.230957,4325.769043,4320.256348,4322.692383,4495.384766,4530.000000,4410.000000,4458.974121,0.000000,2.000000,40.000000,,,,0.000000,4.000000,4.000000,4.000000,4.000000,4.000000,4.000000,4.000000,4.000000,4.000000,4.000000,4.000000,4.000000,4.000000,4.000000,100.000000,,,,,,,,,,,,,,,,,,,,,,,,,,,,,,,,,,,,,,,,,,,,,,,,,,,,,,,,,,,,,,,,,,,,,,,,,,,,,,,,,,,,,,,,,,,,,,,,,,,,,,,,,,,,,,,,,,,,,
1768295116.911061,1768295116.911026,56.000000,0.000000,4352.692383,4312.948730,4338.974121,4352.051270,4306.538574,4299.358887,4298.461426,4317.563965,4316.282227,4309.487305,4494.871582,4523.846191,4406.153809,4454.871582,0.000000,2.000000,40.000000,,,,0.000000,4.000000,4.000000,4.000000,4.000000,4.000000,4.000000,4.000000,4.000000,4.000000,4.000000,4.000000,4.000000,4.000000,4.000000,100.000000,,,,,,,,,,,,,,,,,,,,,,,,,,,,,,,,,,,,,,,,,,,,,,,,,,,,,,,,,,,,,,,,,,,,,,,,,,,,,,,,,,,,,,,,,,,,,,,,,,,,,,,,,,,,,,,,,,,,,
1768295116.918869,1768295116.918834,57.000000,0.000000,4355.769043,4311.922852,4346.410156,4354.102539,4306.410156,4299.871582,4305.769043,4323.077148,4320.000000,4308.717773,4497.051270,4530.897461,4405.897461,4461.538574,0.000000,2.000000,40.000000,,,,0.000000,4.000000,4.000000,4.000000,4.000000,4.000000,4.000000,4.000000,4.000000,4.000000,4.000000,4.000000,4.000000,4.000000,4.000000,100.000000,,,,,,,,,,,,,,,,,,,,,,,,,,,,,,,,,,,,,,,,,,,,,,,,,,,,,,,,,,,,,,,,,,,,,,,,,,,,,,,,,,,,,,,,,,,,,,,,,,,,,,,,,,,,,,,,,,,,,
1768295116.926677,1768295116.926743,58.000000,0.000000,4357.948730,4315.128418,4347.692383,4348.589844,4306.282227,4303.077148,4311.666504,4329.615234,4321.922852,4316.410156,4497.436035,4537.436035,4410.512695,4465.769043,0.000000,2.000000,40.000000,,,,0.000000,4.000000,4.000000,4.000000,4.000000,4.000000,4.000000,4.000000,4.000000,4.000000,4.000000,4.000000,4.000000,4.000000,4.000000,100.000000,,,,,,,,,,,,,,,,,,,,,,,,,,,,,,,,,,,,,,,,,,,,,,,,,,,,,,,,,,,,,,,,,,,,,,,,,,,,,,,,,,,,,,,,,,,,,,,,,,,,,,,,,,,,,,,,,,,,,
1768295116.934486,1768295116.934551,59.000000,0.000000,4359.230957,4312.179688,4343.333496,4346.922852,4307.051270,4302.307617,4302.563965,4325.769043,4318.333496,4311.025879,4498.589844,4534.871582,4412.948730,4463.333496,0.000000,2.000000,40.000000,,,,0.000000,4.000000,4.000000,4.000000,4.000000,4.000000,4.000000,4.000000,4.000000,4.000000,4.000000,4.000000,4.000000,4.000000,4.000000,100.000000,,,,,,,,,,,,,,,,,,,,,,,,,,,,,,,,,,,,,,,,,,,,,,,,,,,,,,,,,,,,,,,,,,,,,,,,,,,,,,,,,,,,,,,,,,,,,,,,,,,,,,,,,,,,,,,,,,,,,
1768295116.942294,1768295116.942560,60.000000,0.000000,4359.358887,4304.871582,4340.512695,4347.692383,4305.512695,4300.384766,4297.307617,4317.948730,4317.692383,4306.922852,4500.000000,4528.333496,4412.948730,4465.512695,0.000000,2.000000,40.000000,,,,0.000000,4.000000,4.000000,4.000000,4.000000,4.000000,4.000000,4.000000,4.000000,4.000000,4.000000,4.000000,4.000000,4.000000,4.000000,100.000000,,,,,,,,,,,,,,,,,,,,,,,,,,,,,,,,,,,,,,,,,,,,,,,,,,,,,,,,,,,,,,,,,,,,,,,,,,,,,,,,,,,,,,,,,,,,,,,,,,,,,,,,,,,,,,,,,,,,,
1768295116.950103,1768295116.950368,61.000000,0.000000,4360.512695,4304.743652,4342.692383,4344.871582,4303.974121,4299.230957,4300.128418,4314.487305,4318.333496,4311.282227,4498.461426,4527.692383,4411.538574,4470.128418,0.000000,2.000000,40.000000,,,,0.000000,4.000000,4.000000,4.000000,4.000000,4.000000,4.000000,4.000000,4.000000,4.000000,4.000000,4.000000,4.000000,4.000000,4.000000,100.000000,,,,,,,,,,,,,,,,,,,,,,,,,,,,,,,,,,,,,,,,,,,,,,,,,,,,,,,,,,,,,,,,,,,,,,,,,,,,,,,,,,,,,,,,,,,,,,,,,,,,,,,,,,,,,,,,,,,,,
1768295116.957911,1768295116.958077,62.000000,0.000000,4366.794922,4311.282227,4346.410156,4343.461426,4306.282227,4300.256348,4302.820313,4315.769043,4314.358887,4311.025879,4496.666504,4531.794922,4408.974121,4472.436035,0.000000,2.000000,40.000000,,,,0.000000,4.000000,4.000000,4.000000,4.000000,4.000000,4.000000,4.000000,4.000000,4.000000,4.000000,4.000000,4.000000,4.000000,4.000000,100.000000,,,,,,,,,,,,,,,,,,,,,,,,,,,,,,,,,,,,,,,,,,,,,,,,2.412688,0.572426,0.238274,0.298364,0.192284,3.300923,0.955032,0.267560,0.300443,0.163080,2.116845,0.859232,0.353807,0.338485,0.227408,0.812282,0.421971,0.240836,0.235353,0.132564,0.516848,0.352328,0.213305,0.114763,0.097032,0.229849,0.372845,0.146683,0.094099,0.101278,0.196045,0.353981,0.106521,0.404948,0.170465,0.513169,0.310118,0.145470,0.159942,0.145308,0.359680,0.218413,0.277425,0.106548,0.086281,0.872756,0.550895,0.445113,0.693253,0.317065,0.567171,0.211825,0.174908,0.132438,0.109118,2.555848,0.724607,0.655489,0.493918,0.353510,1.600540,0.888478,0.727822,0.340847,0.142710,3.312896,0.959405,0.558008,0.459721,0.321992
1768295116.965720,1768295116.965885,63.000000,0.000000,4367.948730,4314.743652,4345.000000,4344.358887,4308.974121,4303.846191,4302.948730,4321.025879,4310.256348,4303.589844,4498.077148,4530.769043,4407.051270,4470.512695,0.000000,2.000000,40.000000,,,,0.000000,4.000000,4.000000,4.000000,4.000000,4.000000,4.000000,4.000000,4.000000,4.000000,4.000000,4.000000,4.000000,4.000000,4.000000,100.000000,,,,,,,,,,,,,,,,,,,,,,,,,,,,,,,,,,,,,,,,,,,,,,,,,,,,,,,,,,,,,,,,,,,,,,,,,,,,,,,,,,,,,,,,,,,,,,,,,,,,,,,,,,,,,,,,,,,,,
1768295116.973528,1768295116.973893,64.000000,0.000000,4359.743652,4310.128418,4338.589844,4342.051270,4307.436035,4304.487305,4299.615234,4320.256348,4309.358887,4299.487305,4495.128418,4523.974121,4402.436035,4464.358887,4233.000000,2.000000,40.000000,,,,0.000000,4.000000,4.000000,4.000000,4.000000,4.000000,4.000000,4.000000,4.000000,4.000000,4.000000,4.000000,4.000000,4.000000,4.000000,100.000000,,,,,,,,,,,,,,,,,,,,,,,,,,,,,,,,,,,,,,,,,,,,,,,,,,,,,,,,,,,,,,,,,,,,,,,,,,,,,,,,,,,,,,,,,,,,,,,,,,,,,,,,,,,,,,,,,,,,,
1768295116.981336,1768295116.981702,65.000000,0.000000,4353.589844,4301.282227,4331.794922,4338.461426,4302.820313,4305.128418,4302.948730,4316.282227,4308.846191,4297.563965,4487.436035,4518.717773,4389.743652,4457.179688,3820.000000,2.000000,40.000000,,,,0.000000,4.000000,4.000000,4.000000,4.000000,4.000000,4.000000,4.000000,4.000000,4.000000,4.000000,4.000000,4.000000,4.000000,4.000000,100.000000,,,,,,,,,,,,,,,,,,,,,,,,,,,,,,,,,,,,,,,,,,,,,,,,,,,,,,,,,,,,,,,,,,,,,,,,,,,,,,,,,,,,,,,,,,,,,,,,,,,,,,,,,,,,,,,,,,,,,
1768295116.989145,1768295116.989610,66.000000,0.000000,4353.077148,4295.641113,4331.025879,4337.820313,4301.538574,4308.205078,4311.025879,4322.307617,4310.769043,4297.820313,4488.974121,4518.077148,4383.205078,4451.666504,4029.000000,2.000000,40.000000,,,,0.000000,4.000000,4.000000,4.000000,4.000000,4.000000,4.000000,4.000000,4.000000,4.000000,4.000000,4.000000,4.000000,4.000000,4.000000,100.000000,,,,,,,,,,,,,,,,,,,,,,,,,,,,,,,,,,,,,,,,,,,,,,,,,,,,,,,,,,,,,,,,,,,,,,,,,,,,,,,,,,,,,,,,,,,,,,,,,,,,,,,,,,,,,,,,,,,,,
1768295116.996953,1768295116.997418,67.000000,0.000000,4360.897461,4304.487305,4341.025879,4345.000000,4308.077148,4304.358887,4305.897461,4332.948730,4320.897461,4312.307617,4499.615234,4534.743652,4402.692383,4463.333496,3916.000000,2.000000,40.000000,,,,0.000000,4.000000,4.000000,4.000000,4.000000,4.000000,4.000000,4.000000,4.000000,4.000000,4.000000,4.000000,4.000000,4.000000,4.000000,100.000000,,,,,,,,,,,,,,,,,,,,,,,,,,,,,,,,,,,,,,,,,,,,,,,,,,,,,,,,,,,,,,,,,,,,,,,,,,,,,,,,,,,,,,,,,,,,,,,,,,,,,,,,,,,,,,,,,,,,,
1768295117.004762,1768295117.005427,68.000000,0.000000,4375.641113,4322.051270,4352.948730,4359.615234,4317.948730,4302.436035,4300.000000,4340.769043,4331.538574,4332.179688,4507.179688,4559.743652,4430.512695,4487.307617,3790.000000,2.000000,40.000000,,,,0.000000,4.000000,4.000000,4.000000,4.000000,4.000000,4.000000,4.000000,4.000000,4.000000,4.000000,4.000000,4.000000,4.000000,4.000000,100.000000,,,,,,,,,,,,,,,,,,,,,,,,,,,,,,,,,,,,,,,,,,,,,,,,,,,,,,,,,,,,,,,,,,,,,,,,,,,,,,,,,,,,,,,,,,,,,,,,,,,,,,,,,,,,,,,,,,,,,
1768295117.012570,1768295117.013235,69.000000,0.000000,4376.538574,4324.871582,4352.820313,4361.538574,4320.641113,4311.410156,4308.846191,4343.717773,4329.615234,4330.769043,4504.358887,4558.333496,4426.538574,4490.897461,3224.000000,2.000000,40.000000,,,,0.000000,4.000000,4.000000,4.000000,4.000000,4.000000,4.000000,4.000000,4.000000,4.000000,4.000000,4.000000,4.000000,4.000000,4.000000,100.000000,,,,,,,,,,,,,,,,,,,,,,,,,,,,,,,,,,,,,,,,,,,,,,,,,,,,,,,,,,,,,,,,,,,,,,,,,,,,,,,,,,,,,,,,,,,,,,,,,,,,,,,,,,,,,,,,,,,,,
1768295117.020378,1768295117.020944,70.000000,0.000000,4362.948730,4315.384766,4345.641113,4348.589844,4315.641113,4309.615234,4308.333496,4339.487305,4320.384766,4309.615234,4498.717773,4540.897461,4406.666504,4474.102539,3498.000000,2.000000,40.000000,,,,0.000000,4.000000,4.000000,4.000000,4.000000,4.000000,4.000000,4.000000,4.000000,4.000000,4.000000,4.000000,4.000000,4.000000,4.000000,100.000000,,,,,,,,,,,,,,,,,,,,,,,,,,,,,,,,,,,,,,,,,,,,,,,,,,,,,,,,,,,,,,,,,,,,,,,,,,,,,,,,,,,,,,,,,,,,,,,,,,,,,,,,,,,,,,,,,,,,,
1768295117.028187,1768295117.028752,71.000000,0.000000,4355.769043,4309.615234,4342.948730,4344.230957,4309.102539,4300.897461,4295.769043,4331.153809,4316.282227,4300.000000,4497.692383,4534.102539,4405.769043,4463.974121,3451.000000,2.000000,40.000000,,,,0.000000,4.000000,4.000000,4.000000,4.000000,4.000000,4.000000,4.000000,4.000000,4.000000,4.000000,4.000000,4.000000,4.000000,4.000000,100.000000,,,,,,,,,,,,,,,,,,,,,,,,,,,,,,,,,,,,,,,,,,,,,,,,,,,,,,,,,,,,,,,,,,,,,,,,,,,,,,,,,,,,,,,,,,,,,,,,,,,,,,,,,,,,,,,,,,,,,
1768295117.035995,1768295117.036760,72.000000,0.000000,4357.820313,4310.641113,4342.820313,4350.000000,4309.487305,4306.025879,4295.641113,4327.692383,4318.461426,4304.102539,4496.410156,4533.589844,4410.512695,4463.589844,2581.000000,2.000000,40.000000,,,,0.000000,4.000000,4.000000,4.000000,4.000000,4.000000,4.000000,4.000000,4.000000,4.000000,4.000000,4.000000,4.000000,4.000000,4.000000,100.000000,,,,,,,,,,,,,,,,,,,,,,,,,,,,,,,,,,,,,,,,,,,,,,,,,,,,,,,,,,,,,,,,,,,,,,,,,,,,,,,,,,,,,,,,,,,,,,,,,,,,,,,,,,,,,,,,,,,,,
1768295117.043804,1768295117.044569,73.000000,0.000000,4359.743652,4311.410156,4340.384766,4348.461426,4314.230957,4310.769043,4303.461426,4326.794922,4319.487305,4305.128418,4496.282227,4532.948730,4407.051270,4467.307617,3547.000000,2.000000,40.000000,,,,0.000000,4.000000,4.000000,4.000000,4.000000,4.000000,4.000000,4.000000,4.000000,4.000000,4.000000,4.000000,4.000000,4.000000,4.000000,100.000000,,,,,,,,,,,,,,,,,,,,,,,,,,,,,,,,,,,,,,,,,,,,,,,,,,,,,,,,,,,,,,,,,,,,,,,,,,,,,,,,,,,,,,,,,,,,,,,,,,,,,,,,,,,,,,,,,,,,,
1768295117.051612,1768295117.052277,74.000000,0.000000,4359.358887,4307.820313,4337.563965,4343.589844,4312.051270,4307.179688,4303.077148,4322.948730,4316.922852,4305.256348,4498.333496,4533.333496,4409.487305,4471.025879,3815.000000,2.000000,40.000000,,,,0.000000,4.000000,4.000000,4.000000,4.000000,4.000000,4.000000,4.000000,4.000000,4.000000,4.000000,4.000000,4.000000,4.000000,4.000000,100.000000,,,,,,,,,,,,,,,,,,,,,,,,,,,,,,,,,,,,,,,,,,,,,,,,,,,,,,,,,,,,,,,,,,,,,,,,,,,,,,,,,,,,,,,,,,,,,,,,,,,,,,,,,,,,,,,,,,,,,
1768295117.059421,1768295117.060086,75.000000,0.000000,4355.512695,4307.692383,4338.974121,4345.769043,4311.153809,4311.153809,4302.563965,4326.410156,4316.666504,4307.051270,4498.846191,4531.282227,4415.000000,4466.282227,4684.000000,2.000000,40.000000,,,,0.000000,4.000000,4.000000,4.000000,4.000000,4.000000,4.000000,4.000000,4.000000,4.000000,4.000000,4.000000,4.000000,4.000000,4.000000,100.000000,,,,,,,,,,,,,,,,,,,,,,,,,,,,,,,,,,,,,,,,,,,,,,,,,,,,,,,,,,,,,,,,,,,,,,,,,,,,,,,,,,,,,,,,,,,,,,,,,,,,,,,,,,,,,,,,,,,,,
1768295117.067229,1768295117.067694,76.000000,0.000000,4351.666504,4311.794922,4339.743652,4347.179688,4312.051270,4311.025879,4305.384766,4329.358887,4318.717773,4303.333496,4496.666504,4528.205078,4408.205078,4459.487305,2386.000000,2.000000,40.000000,,,,0.000000,4.000000,4.000000,4.000000,4.000000,4.000000,4.000000,4.000000,4.000000,4.000000,4.000000,4.000000,4.000000,4.000000,4.000000,100.000000,,,,,,,,,,,,,,,,,,,,,,,,,,,,,,,,,,,,,,,,,,,,,,,,,,,,,,,,,,,,,,,,,,,,,,,,,,,,,,,,,,,,,,,,,,,,,,,,,,,,,,,,,,,,,,,,,,,,,
1768295117.075037,1768295117.075503,77.000000,0.000000,4352.179688,4313.205078,4338.077148,4344.615234,4309.102539,4299.871582,4303.717773,4323.205078,4317.051270,4298.589844,4497.051270,4528.846191,4401.922852,4460.641113,5422.000000,2.000000,40.000000,,,,0.000000,4.000000,4.000000,4.000000,4.000000,4.000000,4.000000,4.000000,4.000000,4.000000,4.000000,4.000000,4.000000,4.000000,4.000000,100.000000,,,,,,,,,,,,,,,,,,,,,,,,,,,,,,,,,,,,,,,,,,,,,,,,,,,,,,,,,,,,,,,,,,,,,,,,,,,,,,,,,,,,,,,,,,,,,,,,,,,,,,,,,,,,,,,,,,,,,
1768295117.082846,1768295117.083211,78.000000,0.000000,4350.769043,4310.769043,4339.871582,4344.615234,4311.025879,4301.282227,4303.077148,4323.589844,4316.153809,4300.000000,4498.717773,4533.717773,4408.077148,4465.384766,3815.000000,2.000000,40.000000,,,,0.000000,4.000000,4.000000,4.000000,4.000000,4.000000,4.000000,4.000000,4.000000,4.000000,4.000000,4.000000,4.000000,4.000000,4.000000,100.000000,1.000000,75.000000,4.000000,4.000000,4.000000,4.000000,4.000000,1.000000,4.000000,4.000000,4.000000,4.000000,4.000000,4.000000,4.000000,4.000000,,,,,,,,,,,,,,,,,,,,,,,,,,,,,,,,1.831432,0.520866,0.232204,0.342619,0.172203,3.290207,0.927081,0.292979,0.312436,0.152620,1.831237,0.726490,0.346678,0.331822,0.179104,0.705700,0.377663,0.227139,0.242210,0.114858,0.463299,0.319194,0.213809,0.111485,0.092443,0.228211,0.305190,0.147962,0.092435,0.097411,0.196066,0.373799,0.091225,0.359173,0.170541,0.459537,0.279403,0.160942,0.176470,0.168074,0.333953,0.190145,0.306339,0.109063,0.094210,0.709199,0.623378,0.587444,0.642296,0.327394,0.445283,0.212885,0.201805,0.150085,0.115085,2.090204,0.671291,0.676901,0.576580,0.381395,1.216875,0.865058,0.812992,0.344830,0.149274,2.718750,0.894283,0.588457,0.496391,0.358431
1768295117.090654,1768295117.091020,79.000000,0.000000,4344.358887,4310.256348,4341.538574,4343.974121,4314.358887,4307.948730,4304.743652,4331.666504,4317.948730,4301.025879,4496.922852,4536.410156,4410.128418,4467.051270,4684.000000,2.000000,40.000000,,,,0.000000,4.000000,4.000000,4.000000,4.000000,4.000000,4.000000,4.000000,4.000000,4.000000,4.000000,4.000000,4.000000,4.000000,4.000000,100.000000,,,,,,,,,,,,,,,,,,,,,,,,,,,,,,,,,,,,,,,,,,,,,,,,,,,,,,,,,,,,,,,,,,,,,,,,,,,,,,,,,,,,,,,,,,,,,,,,,,,,,,,,,,,,,,,,,,,,,
1768295117.098463,1768295117.098629,80.000000,0.000000,4339.615234,4305.000000,4335.897461,4339.487305,4309.487305,4303.077148,4303.461426,4332.692383,4315.128418,4297.692383,4493.717773,4532.563965,4402.948730,4462.436035,2386.000000,2.000000,40.000000,,,,0.000000,4.000000,4.000000,4.000000,4.000000,4.000000,4.000000,4.000000,4.000000,4.000000,4.000000,4.000000,4.000000,4.000000,4.000000,100.000000,,,,,,,,,,,,,,,,,,,,,,,,,,,,,,,,,,,,,,,,,,,,,,,,,,,,,,,,,,,,,,,,,,,,,,,,,,,,,,,,,,,,,,,,,,,,,,,,,,,,,,,,,,,,,,,,,,,,,
1768295117.106271,1768295117.106437,81.000000,0.000000,4341.410156,4298.205078,4332.948730,4337.051270,4304.102539,4303.974121,4304.102539,4332.563965,4316.153809,4297.179688,4494.743652,4532.307617,4399.487305,4458.717773,5422.000000,2.000000,40.000000,,,,0.000000,4.000000,4.000000,4.000000,4.000000,4.000000,4.000000,4.000000,4.000000,4.000000,4.000000,4.000000,4.000000,4.000000,4.000000,100.000000,,,,,,,,,,,,,,,,,,,,,,,,,,,,,,,,,,,,,,,,,,,,,,,,,,,,,,,,,,,,,,,,,,,,,,,,,,,,,,,,,,,,,,,,,,,,,,,,,,,,,,,,,,,,,,,,,,,,,
1768295117.114080,1768295117.114345,82.000000,0.000000,4346.794922,4301.538574,4337.948730,4338.974121,4306.025879,4311.794922,4303.717773,4329.743652,4318.846191,4301.794922,4498.205078,4535.384766,4400.512695,4461.025879,3815.000000,2.000000,40.000000,,,,0.000000,4.000000,4.000000,4.000000,4.000000,4.000000,4.000000,4.000000,4.000000,4.000000,4.000000,4.000000,4.000000,4.000000,4.000000,100.000000,,,,,,,,,,,,,,,,,,,,,,,,,,,,,,,,,,,,,,,,,,,,,,,,,,,,,,,,,,,,,,,,,,,,,,,,,,,,,,,,,,,,,,,,,,,,,,,,,,,,,,,,,,,,,,,,,,,,,
1768295117.121888,1768295117.122154,83.000000,0.000000,4347.051270,4306.794922,4341.666504,4341.025879,4309.358887,4310.256348,4304.615234,4324.615234,4314.487305,4303.333496,4497.948730,4533.333496,4399.615234,4460.384766,4684.000000,2.000000,40.000000,,,,0.000000,4.000000,4.000000,4.000000,4.000000,4.000000,4.000000,4.000000,4.000000,4.000000,4.000000,4.000000,4.000000,4.000000,4.000000,100.000000,,,,,,,,,,,,,,,,,,,,,,,,,,,,,,,,,,,,,,,,,,,,,,,,,,,,,,,,,,,,,,,,,,,,,,,,,,,,,,,,,,,,,,,,,,,,,,,,,,,,,,,,,,,,,,,,,,,,,
1768295117.129696,1768295117.130162,84.000000,0.000000,4347.179688,4312.948730,4344.743652,4346.025879,4312.436035,4309.358887,4313.846191,4329.358887,4312.563965,4297.436035,4496.922852,4533.717773,4399.615234,4459.102539,2386.000000,2.000000,40.000000,,,,0.000000,4.000000,4.000000,4.000000,4.000000,4.000000,4.000000,4.000000,4.000000,4.000000,4.000000,4.000000,4.000000,4.000000,4.000000,100.000000,,,,,,,,,,,,,,,,,,,,,,,,,,,,,,,,,,,,,,,,,,,,,,,,,,,,,,,,,,,,,,,,,,,,,,,,,,,,,,,,,,,,,,,,,,,,,,,,,,,,,,,,,,,,,,,,,,,,,
1768295117.137505,1768295117.137970,85.000000,0.000000,4355.000000,4325.128418,4347.563965,4348.846191,4311.666504,4313.589844,4317.307617,4333.333496,4316.538574,4296.153809,4496.538574,4539.615234,4401.282227,4464.743652,5422.000000,2.000000,40.000000,,,,0.000000,4.000000,4.000000,4.000000,4.000000,4.000000,4.000000,4.000000,4.000000,4.000000,4.000000,4.000000,4.000000,4.000000,4.000000,100.000000,,,,,,,,,,,,,,,,,,,,,,,,,,,,,,,,,,,,,,,,,,,,,,,,,,,,,,,,,,,,,,,,,,,,,,,,,,,,,,,,,,,,,,,,,,,,,,,,,,,,,,,,,,,,,,,,,,,,,
1768295117.145313,1768295117.145879,86.000000,0.000000,4356.410156,4332.692383,4347.692383,4347.563965,4304.358887,4308.974121,4306.922852,4332.179688,4318.461426,4300.512695,4496.410156,4542.563965,4400.384766,4468.077148,3815.000000,2.000000,40.000000,,,,0.000000,4.000000,4.000000,4.000000,4.000000,4.000000,4.000000,4.000000,4.000000,4.000000,4.000000,4.000000,4.000000,4.000000,4.000000,100.000000,,,,,,,,,,,,,,,,,,,,,,,,,,,,,,,,,,,,,,,,,,,,,,,,,,,,,,,,,,,,,,,,,,,,,,,,,,,,,,,,,,,,,,,,,,,,,,,,,,,,,,,,,,,,,,,,,,,,,
1768295117.153122,1768295117.153687,87.000000,0.000000,4346.922852,4327.820313,4343.461426,4347.307617,4301.025879,4302.307617,4299.230957,4329.358887,4317.692383,4295.769043,4494.615234,4533.846191,4395.384766,4457.436035,4684.000000,2.000000,40.000000,,,,0.000000,4.000000,4.000000,4.000000,4.000000,4.000000,4.000000,4.000000,4.000000,4.000000,4.000000,4.000000,4.000000,4.000000,4.000000,100.000000,,,,,,,,,,,,,,,,,,,,,,,,,,,,,,,,,,,,,,,,,,,,,,,,,,,,,,,,,,,,,,,,,,,,,,,,,,,,,,,,,,,,,,,,,,,,,,,,,,,,,,,,,,,,,,,,,,,,,
1768295117.160930,1768295117.161296,88.000000,0.000000,4339.230957,4325.384766,4336.538574,4347.563965,4301.410156,4303.333496,4302.948730,4323.589844,4316.282227,4291.538574,4490.897461,4520.512695,4392.820313,4448.205078,2386.000000,2.000000,40.000000,,,,0.000000,4.000000,4.000000,4.000000,4.000000,4.000000,4.000000,4.000000,4.000000,4.000000,4.000000,4.000000,4.000000,4.000000,4.000000,100.000000,,,,,,,,,,,,,,,,,,,,,,,,,,,,,,,,,,,,,,,,,,,,,,,,,,,,,,,,,,,,,,,,,,,,,,,,,,,,,,,,,,,,,,,,,,,,,,,,,,,,,,,,,,,,,,,,,,,,,
1768295117.168738,1768295117.169104,89.000000,0.000000,4331.025879,4326.153809,4328.846191,4341.153809,4299.358887,4308.077148,4308.846191,4325.897461,4314.743652,4294.487305,4490.000000,4517.307617,4394.230957,4450.000000,5422.000000,2.000000,40.000000,,,,0.000000,4.000000,4.000000,4.000000,4.000000,4.000000,4.000000,4.000000,4.000000,4.000000,4.000000,4.000000,4.000000,4.000000,4.000000,100.000000,,,,,,,,,,,,,,,,,,,,,,,,,,,,,,,,,,,,,,,,,,,,,,,,,,,,,,,,,,,,,,,,,,,,,,,,,,,,,,,,,,,,,,,,,,,,,,,,,,,,,,,,,,,,,,,,,,,,,
1768295117.176547,1768295117.177013,90.000000,0.000000,4322.051270,4322.948730,4325.512695,4337.436035,4297.051270,4312.179688,4308.974121,4331.794922,4316.922852,4293.717773,4489.358887,4520.641113,4392.820313,4447.307617,3815.000000,2.000000,40.000000,,,,0.000000,4.000000,4.000000,4.000000,4.000000,4.000000,4.000000,4.000000,4.000000,4.000000,4.000000,4.000000,4.000000,4.000000,4.000000,100.000000,,,,,,,,,,,,,,,,,,,,,,,,,,,,,,,,,,,,,,,,,,,,,,,,,,,,,,,,,,,,,,,,,,,,,,,,,,,,,,,,,,,,,,,,,,,,,,,,,,,,,,,,,,,,,,,,,,,,,
1768295117.184355,1768295117.184821,91.000000,0.000000,4323.461426,4324.743652,4327.307617,4341.282227,4296.410156,4309.487305,4302.179688,4327.820313,4318.846191,4290.769043,4488.077148,4514.230957,4389.102539,4437.563965,4684.000000,2.000000,40.000000,,,,0.000000,4.000000,4.000000,4.000000,4.000000,4.000000,4.000000,4.000000,4.000000,4.000000,4.000000,4.000000,4.000000,4.000000,4.000000,100.000000,,,,,,,,,,,,,,,,,,,,,,,,,,,,,,,,,,,,,,,,,,,,,,,,,,,,,,,,,,,,,,,,,,,,,,,,,,,,,,,,,,,,,,,,,,,,,,,,,,,,,,,,,,,,,,,,,,,,,
1768295117.192164,1768295117.192829,92.000000,0.000000,4330.641113,4330.512695,4325.897461,4342.051270,4301.153809,4302.051270,4295.641113,4319.615234,4316.025879,4294.487305,4488.589844,4504.102539,4389.487305,4435.000000,2386.000000,2.000000,40.000000,,,,0.000000,4.000000,4.000000,4.000000,4.000000,4.000000,4.000000,4.000000,4.000000,4.000000,4.000000,4.000000,4.000000,4.000000,4.000000,100.000000,,,,,,,,,,,,,,,,,,,,,,,,,,,,,,,,,,,,,,,,,,,,,,,,,,,,,,,,,,,,,,,,,,,,,,,,,,,,,,,,,,,,,,,,,,,,,,,,,,,,,,,,,,,,,,,,,,,,,
1768295117.199972,1768295117.200638,93.000000,0.000000,4331.282227,4331.025879,4325.769043,4341.794922,4305.641113,4303.589844,4302.179688,4320.769043,4316.538574,4297.051270,4492.307617,4513.333496,4394.230957,4446.282227,5422.000000,2.000000,40.000000,,,,0.000000,4.000000,4.000000,4.000000,4.000000,4.000000,4.000000,4.000000,4.000000,4.000000,4.000000,4.000000,4.000000,4.000000,4.000000,100.000000,,,,,,,,,,,,,,,,,,,,,,,,,,,,,,,,,,,,,,,,,,,,,,,,,,,,,,,,,,,,,,,,,,,,,,,,,,,,,,,,,,,,,,,,,,,,,,,,,,,,,,,,,,,,,,,,,,,,,
1768295117.207781,1768295117.208346,94.000000,0.000000,4329.358887,4326.794922,4328.461426,4343.077148,4304.743652,4309.615234,4311.410156,4328.333496,4320.128418,4301.282227,4496.922852,4526.410156,4399.358887,4455.128418,3815.000000,2.000000,40.000000,,,,0.000000,4.000000,4.000000,4.000000,4.000000,4.000000,4.000000,4.000000,4.000000,4.000000,4.000000,4.000000,4.000000,4.000000,4.000000,100.000000,,,,,,,,,,,,,,,,,,,,,,,,,,,,,,,,,,,,,,,,,,,,,,,,1.290816,0.457434,0.246196,0.392909,0.160728,3.102205,0.835854,0.327504,0.325707,0.146546,1.495126,0.577754,0.347631,0.321781,0.140705,0.551517,0.313809,0.224559,0.251544,0.101296,0.381874,0.264677,0.198415,0.106080,0.086479,0.209459,0.223243,0.141807,0.089272,0.096022,0.185593,0.394437,0.082033,0.301462,0.179753,0.384812,0.251126,0.202429,0.198692,0.191761,0.330266,0.154210,0.324474,0.115777,0.100452,0.567613,0.676964,0.707876,0.559091,0.324734,0.355956,0.214152,0.226421,0.161967,0.114067,1.734511,0.633970,0.730620,0.653240,0.384839,0.914437,0.784621,0.879057,0.352759,0.151706,2.251537,0.840358,0.617484,0.530576,0.370356
1768295117.215589,1768295117.216155,95.000000,0.000000,4332.692383,4326.025879,4325.897461,4345.384766,4303.461426,4307.307617,4304.102539,4328.846191,4319.743652,4312.436035,4498.077148,4523.846191,4405.897461,4450.384766,4684.000000,2.000000,40.000000,,,,0.000000,4.000000,4.000000,4.000000,4.000000,4.000000,4.000000,4.000000,4.000000,4.000000,4.000000,4.000000,4.000000,4.000000,4.000000,100.000000,,,,,,,,,,,,,,,,,,,,,,,,,,,,,,,,,,,,,,,,,,,,,,,,,,,,,,,,,,,,,,,,,,,,,,,,,,,,,,,,,,,,,,,,,,,,,,,,,,,,,,,,,,,,,,,,,,,,,
1768295117.223398,1768295117.223764,96.000000,0.000000,4340.384766,4328.333496,4324.743652,4350.000000,4305.641113,4305.256348,4298.589844,4328.846191,4320.512695,4316.666504,4498.846191,4522.051270,4408.717773,4449.487305,2386.000000,2.000000,40.000000,,,,0.000000,4.000000,4.000000,4.000000,4.000000,4.000000,4.000000,4.000000,4.000000,4.000000,4.000000,4.000000,4.000000,4.000000,4.000000,100.000000,,,,,,,,,,,,,,,,,,,,,,,,,,,,,,,,,,,,,,,,,,,,,,,,,,,,,,,,,,,,,,,,,,,,,,,,,,,,,,,,,,,,,,,,,,,,,,,,,,,,,,,,,,,,,,,,,,,,,
1768295117.231206,1768295117.231572,97.000000,0.000000,4343.974121,4327.179688,4329.743652,4352.563965,4306.153809,4310.384766,4307.051270,4330.128418,4322.051270,4312.820313,4498.589844,4524.615234,4407.307617,4456.282227,5422.000000,2.000000,40.000000,,,,0.000000,4.000000,4.000000,4.000000,4.000000,4.000000,4.000000,4.000000,4.000000,4.000000,4.000000,4.000000,4.000000,4.000000,4.000000,100.000000,,,,,,,,,,,,,,,,,,,,,,,,,,,,,,,,,,,,,,,,,,,,,,,,,,,,,,,,,,,,,,,,,,,,,,,,,,,,,,,,,,,,,,,,,,,,,,,,,,,,,,,,,,,,,,,,,,,,,
1768295117.239014,1768295117.239480,98.000000,0.000000,4341.282227,4323.205078,4333.717773,4351.794922,4305.641113,4309.358887,4308.205078,4330.384766,4321.153809,4312.436035,4495.000000,4525.384766,4407.948730,4458.205078,3815.000000,2.000000,40.000000,,,,0.000000,4.000000,4.000000,4.000000,4.000000,4.000000,4.000000,4.000000,4.000000,4.000000,4.000000,4.000000,4.000000,4.000000,4.000000,100.000000,,,,,,,,,,,,,,,,,,,,,,,,,,,,,,,,,,,,,,,,,,,,,,,,,,,,,,,,,,,,,,,,,,,,,,,,,,,,,,,,,,,,,,,,,,,,,,,,,,,,,,,,,,,,,,,,,,,,,
1768295117.246823,1768295117.247289,99.000000,0.000000,4344.615234,4323.974121,4337.051270,4355.512695,4308.717773,4307.051270,4308.333496,4338.589844,4323.717773,4314.743652,4498.717773,4536.922852,4411.025879,4463.717773,4684.000000,2.000000,40.000000,,,,0.000000,4.000000,4.000000,4.000000,4.000000,4.000000,4.000000,4.000000,4.000000,4.000000,4.000000,4.000000,4.000000,4.000000,4.000000,100.000000,,,,,,,,,,,,,,,,,,,,,,,,,,,,,,,,,,,,,,,,,,,,,,,,,,,,,,,,,,,,,,,,,,,,,,,,,,,,,,,,,,,,,,,,,,,,,,,,,,,,,,,,,,,,,,,,,,,,,
1768295117.254631,1768295117.255297,100.000000,0.000000,4354.871582,4329.230957,4345.769043,4362.820313,4312.820313,4312.307617,4316.153809,4340.641113,4328.077148,4314.230957,4506.538574,4552.948730,4415.384766,4476.922852,2386.000000,2.000000,40.000000,,,,0.000000,4.000000,4.000000,4.000000,4.000000,4.000000,4.000000,4.000000,4.000000,4.000000,4.000000,4.000000,4.000000,4.000000,4.000000,100.000000,,,,,,,,,,,,,,,,,,,,,,,,,,,,,,,,,,,,,,,,,,,,,,,,,,,,,,,,,,,,,,,,,,,,,,,,,,,,,,,,,,,,,,,,,,,,,,,,,,,,,,,,,,,,,,,,,,,,,
1768295117.262440,1768295117.263105,101.000000,0.000000,4362.820313,4330.897461,4351.025879,4363.461426,4313.589844,4312.948730,4312.179688,4331.794922,4326.025879,4311.794922,4505.128418,4550.256348,4415.897461,4479.358887,5422.000000,2.000000,40.000000,,,,0.000000,4.000000,4.000000,4.000000,4.000000,4.000000,4.000000,4.000000,4.000000,4.000000,4.000000,4.000000,4.000000,4.000000,4.000000,100.000000,,,,,,,,,,,,,,,,,,,,,,,,,,,,,,,,,,,,,,,,,,,,,,,,,,,,,,,,,,,,,,,,,,,,,,,,,,,,,,,,,,,,,,,,,,,,,,,,,,,,,,,,,,,,,,,,,,,,,
1768295117.270248,1768295117.270814,102.000000,0.000000,4358.461426,4323.974121,4344.358887,4357.948730,4308.461426,4308.461426,4300.897461,4328.846191,4320.256348,4305.897461,4498.589844,4536.666504,4412.436035,4470.128418,3815.000000,2.000000,40.000000,,,,0.000000,4.000000,4.000000,4.000000,4.000000,4.000000,4.000000,4.000000,4.000000,4.000000,4.000000,4.000000,4.000000,4.000000,4.000000,100.000000,,,,,,,,,,,,,,,,,,,,,,,,,,,,,,,,,,,,,,,,,,,,,,,,,,,,,,,,,,,,,,,,,,,,,,,,,,,,,,,,,,,,,,,,,,,,,,,,,,,,,,,,,,,,,,,,,,,,,
1768295117.278057,1768295117.278622,103.000000,0.000000,4350.256348,4314.615234,4340.769043,4349.102539,4308.589844,4308.717773,4301.922852,4332.563965,4319.615234,4303.589844,4497.948730,4535.641113,4412.820313,4467.820313,4684.000000,2.000000,40.000000,,,,0.000000,4.000000,4.000000,4.000000,4.000000,4.000000,4.000000,4.000000,4.000000,4.000000,4.000000,4.000000,4.000000,4.000000,4.000000,100.000000,,,,,,,,,,,,,,,,,,,,,,,,,,,,,,,,,,,,,,,,,,,,,,,,,,,,,,,,,,,,,,,,,,,,,,,,,,,,,,,,,,,,,,,,,,,,,,,,,,,,,,,,,,,,,,,,,,,,,
1768295117.285865,1768295117.286231,104.000000,0.000000,4352.307617,4311.666504,4344.743652,4342.948730,4312.692383,4309.871582,4304.743652,4333.205078,4321.794922,4307.692383,4501.666504,4541.666504,4416.538574,4471.922852,2386.000000,2.000000,40.000000,,,,0.000000,4.000000,4.000000,4.000000,4.000000,4.000000,4.000000,4.000000,4.000000,4.000000,4.000000,4.000000,4.000000,4.000000,4.000000,100.000000,,,,,,,,,,,,,,,,,,,,,,,,,,,,,,,,,,,,,,,,,,,,,,,,,,,,,,,,,,,,,,,,,,,,,,,,,,,,,,,,,,,,,,,,,,,,,,,,,,,,,,,,,,,,,,,,,,,,,
1768295117.293673,1768295117.294040,105.000000,0.000000,4357.820313,4313.846191,4344.102539,4343.461426,4308.846191,4308.461426,4298.461426,4328.205078,4321.153809,4306.666504,4500.128418,4539.230957,4415.512695,4470.641113,5422.000000,2.000000,40.000000,,,,0.000000,4.000000,4.000000,4.000000,4.000000,4.000000,4.000000,4.000000,4.000000,4.000000,4.000000,4.000000,4.000000,4.000000,4.000000,100.000000,,,,,,,,,,,,,,,,,,,,,,,,,,,,,,,,,,,,,,,,,,,,,,,,,,,,,,,,,,,,,,,,,,,,,,,,,,,,,,,,,,,,,,,,,,,,,,,,,,,,,,,,,,,,,,,,,,,,,
1768295117.301482,1768295117.301748,106.000000,0.000000,4355.897461,4313.846191,4340.897461,4345.000000,4307.563965,4310.384766,4302.436035,4325.897461,4318.846191,4302.563965,4497.563965,4532.692383,4408.589844,4466.538574,3815.000000,2.000000,40.000000,,,,0.000000,4.000000,4.000000,4.000000,4.000000,4.000000,4.000000,4.000000,4.000000,4.000000,4.000000,4.000000,4.000000,4.000000,4.000000,100.000000,,,,,,,,,,,,,,,,,,,,,,,,,,,,,,,,,,,,,,,,,,,,,,,,,,,,,,,,,,,,,,,,,,,,,,,,,,,,,,,,,,,,,,,,,,,,,,,,,,,,,,,,,,,,,,,,,,,,,
1768295117.309290,1768295117.309557,107.000000,0.000000,4350.000000,4309.487305,4341.410156,4343.461426,4311.025879,4313.077148,4311.025879,4328.974121,4318.974121,4305.769043,4499.615234,4532.948730,4408.205078,4464.743652,4684.000000,2.000000,40.000000,,,,0.000000,4.000000,4.000000,4.000000,4.000000,4.000000,4.000000,4.000000,4.000000,4.000000,4.000000,4.000000,4.000000,4.000000,4.000000,100.000000,,,,,,,,,,,,,,,,,,,,,,,,,,,,,,,,,,,,,,,,,,,,,,,,,,,,,,,,,,,,,,,,,,,,,,,,,,,,,,,,,,,,,,,,,,,,,,,,,,,,,,,,,,,,,,,,,,,,,
1768295117.317099,1768295117.317565,108.000000,0.000000,4351.922852,4307.820313,4345.641113,4343.974121,4311.153809,4310.641113,4309.102539,4331.410156,4319.743652,4308.205078,4500.384766,4537.307617,4411.922852,4469.358887,2386.000000,2.000000,40.000000,,,,0.000000,4.000000,4.000000,4.000000,4.000000,4.000000,4.000000,4.000000,4.000000,4.000000,4.000000,4.000000,4.000000,4.000000,4.000000,100.000000,,,,,,,,,,,,,,,,,,,,,,,,,,,,,,,,,,,,,,,,,,,,,,,,,,,,,,,,,,,,,,,,,,,,,,,,,,,,,,,,,,,,,,,,,,,,,,,,,,,,,,,,,,,,,,,,,,,,,
1768295117.324907,1768295117.325373,109.000000,0.000000,4360.256348,4311.410156,4349.102539,4349.743652,4310.769043,4309.487305,4309.743652,4329.871582,4317.307617,4303.205078,4500.256348,4541.025879,4412.948730,4475.512695,5422.000000,2.000000,40.000000,,,,0.000000,4.000000,4.000000,4.000000,4.000000,4.000000,4.000000,4.000000,4.000000,4.000000,4.000000,4.000000,4.000000,4.000000,4.000000,100.000000,,,,,,,,,,,,,,,,,,,,,,,,,,,,,,,,,,,,,,,,,,,,,,,,,,,,,,,,,,,,,,,,,,,,,,,,,,,,,,,,,,,,,,,,,,,,,,,,,,,,,,,,,,,,,,,,,,,,,
1768295117.332715,1768295117.333282,110.000000,0.000000,4359.487305,4314.487305,4347.179688,4351.282227,4312.051270,4306.025879,4308.717773,4326.153809,4315.512695,4303.461426,4498.461426,4539.743652,4412.051270,4472.051270,3815.000000,2.000000,40.000000,,,,0.000000,4.000000,4.000000,4.000000,4.000000,4.000000,4.000000,4.000000,4.000000,4.000000,4.000000,4.000000,4.000000,4.000000,4.000000,100.000000,,,,,,,,,,,,,,,,,,,,,,,,,,,,,,,,,,,,,,,,,,,,,,,,0.899664,0.404150,0.282029,0.434123,0.155804,2.742063,0.713652,0.362824,0.335359,0.143700,1.147751,0.444006,0.361420,0.312440,0.113927,0.386395,0.260971,0.231524,0.256653,0.092876,0.294208,0.210621,0.175287,0.100177,0.080830,0.181053,0.152172,0.130159,0.085289,0.097491,0.172997,0.422724,0.079094,0.248946,0.196806,0.298390,0.246205,0.254429,0.212867,0.211383,0.336396,0.126988,0.327238,0.122628,0.103642,0.446760,0.711083,0.772175,0.475989,0.311521,0.279347,0.212160,0.241395,0.164909,0.106403,1.410433,0.614072,0.790346,0.700730,0.361599,0.661627,0.678144,0.906689,0.368322,0.150783,1.788432,0.800457,0.635466,0.554428,0.351024
1768295117.340524,1768295117.341090,111.000000,0.000000,4349.871582,4312.692383,4337.563965,4344.615234,4306.025879,4302.179688,4300.384766,4326.922852,4317.436035,4306.922852,4496.538574,4532.179688,4412.563965,4464.102539,4684.000000,2.000000,40.000000,,,,0.000000,4.000000,4.000000,4.000000,4.000000,4.000000,4.000000,4.000000,4.000000,4.000000,4.000000,4.000000,4.000000,4.000000,4.000000,100.000000,,,,,,,,,,,,,,,,,,,,,,,,,,,,,,,,,,,,,,,,,,,,,,,,,,,,,,,,,,,,,,,,,,,,,,,,,,,,,,,,,,,,,,,,,,,,,,,,,,,,,,,,,,,,,,,,,,,,,
1768295117.348332,1768295117.349098,112.000000,0.000000,4346.666504,4310.769043,4332.436035,4340.641113,4300.769043,4302.563965,4297.436035,4323.846191,4318.717773,4304.487305,4496.025879,4525.256348,4411.538574,4462.563965,2386.000000,2.000000,40.000000,,,,0.000000,4.000000,4.000000,4.000000,4.000000,4.000000,4.000000,4.000000,4.000000,4.000000,4.000000,4.000000,4.000000,4.000000,4.000000,100.000000,,,,,,,,,,,,,,,,,,,,,,,,,,,,,,,,,,,,,,,,,,,,,,,,,,,,,,,,,,,,,,,,,,,,,,,,,,,,,,,,,,,,,,,,,,,,,,,,,,,,,,,,,,,,,,,,,,,,,
1768295117.356141,1768295117.356907,113.000000,0.000000,4351.410156,4317.051270,4337.820313,4343.077148,4304.230957,4300.769043,4297.563965,4318.717773,4315.512695,4302.820313,4494.743652,4525.000000,4407.948730,4465.000000,5422.000000,2.000000,40.000000,,,,0.000000,4.000000,4.000000,4.000000,4.000000,4.000000,4.000000,4.000000,4.000000,4.000000,4.000000,4.000000,4.000000,4.000000,4.000000,100.000000,,,,,,,,,,,,,,,,,,,,,,,,,,,,,,,,,,,,,,,,,,,,,,,,,,,,,,,,,,,,,,,,,,,,,,,,,,,,,,,,,,,,,,,,,,,,,,,,,,,,,,,,,,,,,,,,,,,,,
1768295117.363949,1768295117.364615,114.000000,0.000000,4355.769043,4325.128418,4342.307617,4346.666504,4305.384766,4301.153809,4295.000000,4325.384766,4315.256348,4302.948730,4493.717773,4529.487305,4408.589844,4464.743652,3815.000000,2.000000,40.000000,,,,0.000000,4.000000,4.000000,4.000000,4.000000,4.000000,4.000000,4.000000,4.000000,4.000000,4.000000,4.000000,4.000000,4.000000,4.000000,100.000000,,,,,,,,,,,,,,,,,,,,,,,,,,,,,,,,,,,,,,,,,,,,,,,,,,,,,,,,,,,,,,,,,,,,,,,,,,,,,,,,,,,,,,,,,,,,,,,,,,,,,,,,,,,,,,,,,,,,,
1768295117.371758,1768295117.372424,115.000000,0.000000,4356.666504,4328.333496,4341.282227,4348.717773,4306.282227,4305.641113,4298.589844,4327.820313,4318.077148,4299.102539,4494.487305,4528.717773,4411.153809,4465.512695,4684.000000,2.000000,40.000000,,,,0.000000,4.000000,4.000000,4.000000,4.000000,4.000000,4.000000,4.000000,4.000000,4.000000,4.000000,4.000000,4.000000,4.000000,4.000000,100.000000,,,,,,,,,,,,,,,,,,,,,,,,,,,,,,,,,,,,,,,,,,,,,,,,,,,,,,,,,,,,,,,,,,,,,,,,,,,,,,,,,,,,,,,,,,,,,,,,,,,,,,,,,,,,,,,,,,,,,
1768295117.379566,1768295117.380432,116.000000,0.000000,4350.256348,4323.077148,4332.051270,4346.666504,4307.948730,4304.358887,4302.436035,4316.410156,4313.717773,4297.051270,4495.512695,4517.307617,4409.743652,4461.282227,2386.000000,2.000000,40.000000,,,,0.000000,4.000000,4.000000,4.000000,4.000000,4.000000,4.000000,4.000000,4.000000,4.000000,4.000000,4.000000,4.000000,4.000000,4.000000,100.000000,,,,,,,,,,,,,,,,,,,,,,,,,,,,,,,,,,,,,,,,,,,,,,,,,,,,,,,,,,,,,,,,,,,,,,,,,,,,,,,,,,,,,,,,,,,,,,,,,,,,,,,,,,,,,,,,,,,,,
1768295117.387374,1768295117.388240,117.000000,0.000000,4345.000000,4316.794922,4328.461426,4342.179688,4304.871582,4301.666504,4299.487305,4315.384766,4310.256348,4298.461426,4492.692383,4510.512695,4406.153809,4455.256348,5422.000000,2.000000,40.000000,,,,0.000000,4.000000,4.000000,4.000000,4.000000,4.000000,4.000000,4.000000,4.000000,4.000000,4.000000,4.000000,4.000000,4.000000,4.000000,100.000000,,,,,,,,,,,,,,,,,,,,,,,,,,,,,,,,,,,,,,,,,,,,,,,,,,,,,,,,,,,,,,,,,,,,,,,,,,,,,,,,,,,,,,,,,,,,,,,,,,,,,,,,,,,,,,,,,,,,,
1768295117.395183,1768295117.395949,118.000000,0.000000,4351.538574,4317.179688,4338.717773,4341.153809,4304.102539,4307.820313,4304.358887,4325.897461,4313.333496,4298.333496,4491.666504,4515.641113,4403.846191,4457.436035,3815.000000,2.000000,40.000000,,,,0.000000,4.000000,4.000000,4.000000,4.000000,4.000000,4.000000,4.000000,4.000000,4.000000,4.000000,4.000000,4.000000,4.000000,4.000000,100.000000,,,,,,,,,,,,,,,,,,,,,,,,,,,,,,,,,,,,,,,,,,,,,,,,,,,,,,,,,,,,,,,,,,,,,,,,,,,,,,,,,,,,,,,,,,,,,,,,,,,,,,,,,,,,,,,,,,,,,
1768295117.402991,1768295117.403757,119.000000,0.000000,4359.487305,4319.102539,4344.102539,4345.384766,4307.436035,4310.384766,4307.563965,4326.666504,4314.230957,4296.282227,4495.512695,4520.512695,4401.025879,4459.743652,4684.000000,2.000000,40.000000,,,,0.000000,4.000000,4.000000,4.000000,4.000000,4.000000,4.000000,4.000000,4.000000,4.000000,4.000000,4.000000,4.000000,4.000000,4.000000,100.000000,,,,,,,,,,,,,,,,,,,,,,,,,,,,,,,,,,,,,,,,,,,,,,,,,,,,,,,,,,,,,,,,,,,,,,,,,,,,,,,,,,,,,,,,,,,,,,,,,,,,,,,,,,,,,,,,,,,,,
1768295117.410800,1768295117.411366,120.000000,0.000000,4359.358887,4321.922852,4339.230957,4348.077148,4308.205078,4304.358887,4302.307617,4321.282227,4312.692383,4294.487305,4497.051270,4520.128418,4396.025879,4460.384766,2386.000000,2.000000,40.000000,,,,0.000000,4.000000,4.000000,4.000000,4.000000,4.000000,4.000000,4.000000,4.000000,4.000000,4.000000,4.000000,4.000000,4.000000,4.000000,100.000000,,,,,,,,,,,,,,,,,,,,,,,,,,,,,,,,,,,,,,,,,,,,,,,,,,,,,,,,,,,,,,,,,,,,,,,,,,,,,,,,,,,,,,,,,,,,,,,,,,,,,,,,,,,,,,,,,,,,,
1768295117.418608,1768295117.419174,121.000000,0.000000,4355.769043,4322.179688,4338.974121,4347.179688,4305.897461,4307.820313,4306.282227,4318.333496,4311.922852,4295.000000,4495.000000,4519.615234,4398.974121,4464.102539,5422.000000,2.000000,40.000000,,,,0.000000,4.000000,4.000000,4.000000,4.000000,4.000000,4.000000,4.000000,4.000000,4.000000,4.000000,4.000000,4.000000,4.000000,4.000000,100.000000,,,,,,,,,,,,,,,,,,,,,,,,,,,,,,,,,,,,,,,,,,,,,,,,,,,,,,,,,,,,,,,,,,,,,,,,,,,,,,,,,,,,,,,,,,,,,,,,,,,,,,,,,,,,,,,,,,,,,
1768295117.426417,1768295117.426883,122.000000,0.000000,4352.948730,4319.743652,4341.153809,4344.615234,4304.615234,4310.512695,4309.358887,4319.102539,4313.205078,4300.512695,4494.615234,4521.153809,4409.102539,4465.897461,3815.000000,2.000000,40.000000,,,,0.000000,4.000000,4.000000,4.000000,4.000000,4.000000,4.000000,4.000000,4.000000,4.000000,4.000000,4.000000,4.000000,4.000000,4.000000,100.000000,,,,,,,,,,,,,,,,,,,,,,,,,,,,,,,,,,,,,,,,,,,,,,,,,,,,,,,,,,,,,,,,,,,,,,,,,,,,,,,,,,,,,,,,,,,,,,,,,,,,,,,,,,,,,,,,,,,,,
1768295117.434225,1768295117.434691,123.000000,0.000000,4352.820313,4318.974121,4337.307617,4341.794922,4304.358887,4301.922852,4299.871582,4321.410156,4316.538574,4301.794922,4493.589844,4518.461426,4406.153809,4462.820313,4684.000000,2.000000,40.000000,,,,0.000000,4.000000,4.000000,4.000000,4.000000,4.000000,4.000000,4.000000,4.000000,4.000000,4.000000,4.000000,4.000000,4.000000,4.000000,100.000000,,,,,,,,,,,,,,,,,,,,,,,,,,,,,,,,,,,,,,,,,,,,,,,,,,,,,,,,,,,,,,,,,,,,,,,,,,,,,,,,,,,,,,,,,,,,,,,,,,,,,,,,,,,,,,,,,,,,,
1768295117.442033,1768295117.442700,124.000000,0.000000,4356.153809,4321.153809,4337.692383,4341.794922,4306.666504,4301.794922,4298.333496,4320.641113,4317.051270,4296.794922,4491.410156,4517.436035,4398.717773,4461.794922,2386.000000,2.000000,40.000000,,,,0.000000,4.000000,4.000000,4.000000,4.000000,4.000000,4.000000,4.000000,4.000000,4.000000,4.000000,4.000000,4.000000,4.000000,4.000000,100.000000,,,,,,,,,,,,,,,,,,,,,,,,,,,,,,,,,,,,,,,,,,,,,,,,,,,,,,,,,,,,,,,,,,,,,,,,,,,,,,,,,,,,,,,,,,,,,,,,,,,,,,,,,,,,,,,,,,,,,
1768295117.449842,1768295117.450508,125.000000,0.000000,4360.769043,4323.974121,4345.384766,4347.051270,4309.102539,4314.743652,4313.974121,4325.769043,4315.000000,4301.538574,4495.769043,4529.487305,4406.025879,4467.692383,5422.000000,2.000000,40.000000,,,,0.000000,4.000000,4.000000,4.000000,4.000000,4.000000,4.000000,4.000000,4.000000,4.000000,4.000000,4.000000,4.000000,4.000000,4.000000,100.000000,,,,,,,,,,,,,,,,,,,,,,,,,,,,,,,,,,,,,,,,,,,,,,,,,,,,,,,,,,,,,,,,,,,,,,,,,,,,,,,,,,,,,,,,,,,,,,,,,,,,,,,,,,,,,,,,,,,,,
1768295117.457650,1768295117.458417,126.000000,0.000000,4360.769043,4321.025879,4348.974121,4348.461426,4312.179688,4316.410156,4319.102539,4331.794922,4318.589844,4315.641113,4499.871582,4538.077148,4412.436035,4474.102539,3815.000000,2.000000,40.000000,,,,0.000000,4.000000,4.000000,4.000000,4.000000,4.000000,4.000000,4.000000,4.000000,4.000000,4.000000,4.000000,4.000000,4.000000,4.000000,100.000000,,,,,,,,,,,,,,,,,,,,,,,,,,,,,,,,,,,,,,,,,,,,,,,,0.772523,0.392943,0.333538,0.455943,0.153175,2.260064,0.600677,0.392543,0.342026,0.141262,0.836462,0.360180,0.385600,0.306721,0.096971,0.248611,0.254170,0.245281,0.252699,0.088278,0.227638,0.177561,0.154160,0.096765,0.076245,0.154439,0.107841,0.117047,0.081083,0.101317,0.167489,0.459215,0.082287,0.211800,0.217740,0.226385,0.288344,0.304320,0.211839,0.223602,0.342848,0.123789,0.316779,0.126762,0.102852,0.365395,0.739260,0.765105,0.421428,0.292857,0.213395,0.206291,0.243053,0.158714,0.094410,1.108909,0.627038,0.834949,0.710113,0.320910,0.474791,0.593033,0.890057,0.393866,0.150760,1.330168,0.770832,0.642026,0.567006,0.306326
1768295117.465459,1768295117.466225,127.000000,0.000000,4359.487305,4319.102539,4348.717773,4346.025879,4315.128418,4307.051270,4306.282227,4332.179688,4322.051270,4318.974121,4499.615234,4532.692383,4407.051270,4473.077148,40.000000,2.000000,40.000000,,,,0.000000,4.000000,4.000000,4.000000,4.000000,4.000000,4.000000,4.000000,4.000000,4.000000,4.000000,4.000000,4.000000,4.000000,4.000000,100.000000,,,,,,,,,,,,,,,,,,,,,,,,,,,,,,,,,,,,,,,,,,,,,,,,,,,,,,,,,,,,,,,,,,,,,,,,,,,,,,,,,,,,,,,,,,,,,,,,,,,,,,,,,,,,,,,,,,,,,
1768295117.473267,1768295117.473834,0.000000,0.000000,4362.179688,4321.922852,4350.641113,4350.512695,4312.436035,4307.692383,4301.410156,4328.717773,4317.179688,4309.358887,4499.743652,4527.307617,4403.205078,4466.538574,4233.000000,2.000000,40.000000,,,,0.000000,4.000000,4.000000,4.000000,4.000000,4.000000,4.000000,4.000000,4.000000,4.000000,4.000000,4.000000,4.000000,4.000000,4.000000,100.000000,,,,,,,,,,,,,,,,,,,,,,,,,,,,,,,,,,,,,,,,,,,,,,,,,,,,,,,,,,,,,,,,,,,,,,,,,,,,,,,,,,,,,,,,,,,,,,,,,,,,,,,,,,,,,,,,,,,,,
1768295117.481075,1768295117.481642,1.000000,0.000000,4361.153809,4321.025879,4350.128418,4352.051270,4308.461426,4311.666504,4307.563965,4323.846191,4315.256348,4303.205078,4498.717773,4527.563965,4407.179688,4466.282227,3820.000000,2.000000,40.000000,,,,0.000000,4.000000,4.000000,4.000000,4.000000,4.000000,4.000000,4.000000,4.000000,4.000000,4.000000,4.000000,4.000000,4.000000,4.000000,100.000000,,,,,,,,,,,,,,,,,,,,,,,,,,,,,,,,,,,,,,,,,,,,,,,,,,,,,,,,,,,,,,,,,,,,,,,,,,,,,,,,,,,,,,,,,,,,,,,,,,,,,,,,,,,,,,,,,,,,,
1768295117.488884,1768295117.489351,2.000000,0.000000,4359.615234,4317.051270,4348.846191,4345.641113,4310.000000,4311.666504,4312.051270,4326.025879,4318.333496,4306.025879,4499.230957,4530.512695,4411.666504,4471.153809,4026.000000,2.000000,40.000000,,,,0.000000,4.000000,4.000000,4.000000,4.000000,4.000000,4.000000,4.000000,4.000000,4.000000,4.000000,4.000000,4.000000,4.000000,4.000000,100.000000,,,,,,,,,,,,,,,,,,,,,,,,,,,,,,,,,,,,,,,,,,,,,,,,,,,,,,,,,,,,,,,,,,,,,,,,,,,,,,,,,,,,,,,,,,,,,,,,,,,,,,,,,,,,,,,,,,,,,
1768295117.496692,1768295117.497159,3.000000,0.000000,4363.461426,4318.846191,4353.333496,4347.692383,4315.512695,4312.692383,4313.717773,4328.974121,4318.077148,4305.641113,4500.384766,4536.153809,4411.410156,4471.922852,3916.000000,2.000000,40.000000,,,,0.000000,4.000000,4.000000,4.000000,4.000000,4.000000,4.000000,4.000000,4.000000,4.000000,4.000000,4.000000,4.000000,4.000000,4.000000,100.000000,,,,,,,,,,,,,,,,,,,,,,,,,,,,,,,,,,,,,,,,,,,,,,,,,,,,,,,,,,,,,,,,,,,,,,,,,,,,,,,,,,,,,,,,,,,,,,,,,,,,,,,,,,,,,,,,,,,,,
1768295117.504501,1768295117.505167,4.000000,0.000000,4364.102539,4321.282227,4355.256348,4352.820313,4316.922852,4311.666504,4311.922852,4322.948730,4314.358887,4298.589844,4499.358887,4537.179688,4406.666504,4471.922852,3790.000000,2.000000,40.000000,,,,0.000000,4.000000,4.000000,4.000000,4.000000,4.000000,4.000000,4.000000,4.000000,4.000000,4.000000,4.000000,4.000000,4.000000,4.000000,100.000000,,,,,,,,,,,,,,,,,,,,,,,,,,,,,,,,,,,,,,,,,,,,,,,,,,,,,,,,,,,,,,,,,,,,,,,,,,,,,,,,,,,,,,,,,,,,,,,,,,,,,,,,,,,,,,,,,,,,,
1768295117.512309,1768295117.512976,5.000000,0.000000,4360.897461,4318.589844,4350.641113,4350.128418,4313.077148,4306.794922,4305.384766,4317.307617,4312.179688,4301.410156,4498.333496,4533.461426,4405.641113,4471.153809,3219.000000,2.000000,40.000000,,,,0.000000,4.000000,4.000000,4.000000,4.000000,4.000000,4.000000,4.000000,4.000000,4.000000,4.000000,4.000000,4.000000,4.000000,4.000000,100.000000,,,,,,,,,,,,,,,,,,,,,,,,,,,,,,,,,,,,,,,,,,,,,,,,,,,,,,,,,,,,,,,,,,,,,,,,,,,,,,,,,,,,,,,,,,,,,,,,,,,,,,,,,,,,,,,,,,,,,
1768295117.520118,1768295117.520884,6.000000,0.000000,4360.256348,4317.307617,4345.641113,4346.410156,4311.282227,4305.769043,4304.871582,4325.512695,4317.948730,4311.666504,4498.205078,4532.820313,4407.820313,4469.102539,3496.000000,2.000000,40.000000,,,,0.000000,4.000000,4.000000,4.000000,4.000000,4.000000,4.000000,4.000000,4.000000,4.000000,4.000000,4.000000,4.000000,4.000000,4.000000,100.000000,,,,,,,,,,,,,,,,,,,,,,,,,,,,,,,,,,,,,,,,,,,,,,,,,,,,,,,,,,,,,,,,,,,,,,,,,,,,,,,,,,,,,,,,,,,,,,,,,,,,,,,,,,,,,,,,,,,,,
1768295117.527926,1768295117.528693,7.000000,0.000000,4360.256348,4316.153809,4346.153809,4346.794922,4314.615234,4310.641113,4312.820313,4333.974121,4324.871582,4311.538574,4498.974121,4534.487305,4407.563965,4469.487305,3453.000000,2.000000,40.000000,,,,0.000000,4.000000,4.000000,4.000000,4.000000,4.000000,4.000000,4.000000,4.000000,4.000000,4.000000,4.000000,4.000000,4.000000,4.000000,100.000000,,,,,,,,,,,,,,,,,,,,,,,,,,,,,,,,,,,,,,,,,,,,,,,,,,,,,,,,,,,,,,,,,,,,,,,,,,,,,,,,,,,,,,,,,,,,,,,,,,,,,,,,,,,,,,,,,,,,,
1768295117.535735,1768295117.536701,8.000000,0.000000,4362.948730,4316.282227,4351.153809,4349.358887,4317.948730,4312.563965,4317.692383,4328.846191,4321.410156,4313.589844,4499.230957,4534.871582,4408.333496,4469.743652,2581.000000,2.000000,40.000000,,,,0.000000,4.000000,4.000000,4.000000,4.000000,4.000000,4.000000,4.000000,4.000000,4.000000,4.000000,4.000000,4.000000,4.000000,4.000000,100.000000,,,,,,,,,,,,,,,,,,,,,,,,,,,,,,,,,,,,,,,,,,,,,,,,,,,,,,,,,,,,,,,,,,,,,,,,,,,,,,,,,,,,,,,,,,,,,,,,,,,,,,,,,,,,,,,,,,,,,
1768295117.543543,1768295117.544509,9.000000,0.000000,4361.794922,4316.410156,4351.282227,4348.461426,4316.794922,4311.282227,4317.692383,4323.974121,4316.410156,4314.615234,4496.410156,4531.025879,4402.307617,4464.230957,3550.000000,2.000000,40.000000,,,,0.000000,4.000000,4.000000,4.000000,4.000000,4.000000,4.000000,4.000000,4.000000,4.000000,4.000000,4.000000,4.000000,4.000000,4.000000,100.000000,,,,,,,,,,,,,,,,,,,,,,,,,,,,,,,,,,,,,,,,,,,,,,,,,,,,,,,,,,,,,,,,,,,,,,,,,,,,,,,,,,,,,,,,,,,,,,,,,,,,,,,,,,,,,,,,,,,,,
1768295117.551351,1768295117.552418,10.000000,0.000000,4349.487305,4308.205078,4340.384766,4341.153809,4314.358887,4313.205078,4316.794922,4324.487305,4316.922852,4301.153809,4488.846191,4520.512695,4392.051270,4454.487305,3815.000000,2.000000,40.000000,,,,0.000000,4.000000,4.000000,4.000000,4.000000,4.000000,4.000000,4.000000,4.000000,4.000000,4.000000,4.000000,4.000000,4.000000,4.000000,100.000000,,,,,,,,,,,,,,,,,,,,,,,,,,,,,,,,,,,,,,,,,,,,,,,,,,,,,,,,,,,,,,,,,,,,,,,,,,,,,,,,,,,,,,,,,,,,,,,,,,,,,,,,,,,,,,,,,,,,,
1768295117.559160,1768295117.560226,11.000000,0.000000,4341.922852,4300.000000,4332.563965,4335.641113,4312.307617,4315.384766,4311.025879,4325.897461,4316.538574,4296.410156,4486.025879,4517.692383,4392.179688,4451.153809,4684.000000,2.000000,40.000000,,,,0.000000,4.000000,4.000000,4.000000,4.000000,4.000000,4.000000,4.000000,4.000000,4.000000,4.000000,4.000000,4.000000,4.000000,4.000000,100.000000,,,,,,,,,,,,,,,,,,,,,,,,,,,,,,,,,,,,,,,,,,,,,,,,,,,,,,,,,,,,,,,,,,,,,,,,,,,,,,,,,,,,,,,,,,,,,,,,,,,,,,,,,,,,,,,,,,,,,
1768295117.566968,1768295117.567835,12.000000,0.000000,4355.769043,4309.487305,4346.153809,4344.230957,4315.128418,4311.922852,4315.000000,4337.179688,4323.589844,4314.102539,4497.051270,4536.410156,4407.051270,4469.743652,2388.000000,2.000000,40.000000,,,,0.000000,4.000000,4.000000,4.000000,4.000000,4.000000,4.000000,4.000000,4.000000,4.000000,4.000000,4.000000,4.000000,4.000000,4.000000,100.000000,,,,,,,,,,,,,,,,,,,,,,,,,,,,,,,,,,,,,,,,,,,,,,,,,,,,,,,,,,,,,,,,,,,,,,,,,,,,,,,,,,,,,,,,,,,,,,,,,,,,,,,,,,,,,,,,,,,,,
1768295117.574777,1768295117.575643,13.000000,0.000000,4374.358887,4327.436035,4368.589844,4361.794922,4321.794922,4312.820313,4333.717773,4351.410156,4337.436035,4330.000000,4509.102539,4561.922852,4422.563965,4497.436035,5422.000000,2.000000,40.000000,,,,0.000000,4.000000,4.000000,4.000000,4.000000,4.000000,4.000000,4.000000,4.000000,4.000000,4.000000,4.000000,4.000000,4.000000,4.000000,100.000000,,,,,,,,,,,,,,,,,,,,,,,,,,,,,,,,,,,,,,,,,,,,,,,,,,,,,,,,,,,,,,,,,,,,,,,,,,,,,,,,,,,,,,,,,,,,,,,,,,,,,,,,,,,,,,,,,,,,,
1768295117.582585,1768295117.583352,14.000000,0.000000,4372.051270,4326.794922,4366.666504,4364.102539,4321.025879,4317.692383,4331.410156,4347.948730,4335.384766,4326.666504,4507.820313,4565.897461,4420.384766,4497.563965,3815.000000,2.000000,40.000000,,,,0.000000,4.000000,4.000000,4.000000,4.000000,4.000000,4.000000,4.000000,4.000000,4.000000,4.000000,4.000000,4.000000,4.000000,4.000000,100.000000,1.000000,75.000000,4.000000,4.000000,4.000000,4.000000,4.000000,1.000000,4.000000,4.000000,4.000000,4.000000,4.000000,4.000000,4.000000,4.000000,,,,,,,,,,,,,,,,,,,,,,,,,,,,,,,,0.821098,0.437588,0.388348,0.455411,0.150053,1.773723,0.530189,0.412026,0.350681,0.137075,0.628016,0.339208,0.410471,0.304913,0.086976,0.168441,0.312864,0.262550,0.239863,0.085361,0.207435,0.171303,0.142886,0.098765,0.072302,0.139008,0.091150,0.106893,0.077115,0.106202,0.176601,0.496687,0.094173,0.191067,0.237134,0.201577,0.382544,0.342812,0.197306,0.227617,0.341394,0.147682,0.297979,0.127227,0.098078,0.348062,0.776460,0.696720,0.406359,0.272944,0.171381,0.196458,0.231539,0.146278,0.081242,0.915770,0.688634,0.853624,0.688070,0.278565,0.395280,0.554156,0.834479,0.427547,0.155487,0.999185,0.745503,0.639554,0.573048,0.251644
