title:remote_17, start timestamp:1768295158.241068, stop timestamp:1768295189.037490, headset type:EPOCX, headset serial:E5020E3B, headset firmware:730, channels:156, sampling rate:eeg_128;pm_0.1;pow_8, samples:3945      , version:2.2, 
Timestamp,OriginalTimestamp,EEG.Counter,EEG.Interpolated,EEG.AF3,EEG.F7,EEG.F3,EEG.FC5,EEG.T7,EEG.P7,EEG.O1,EEG.O2,EEG.P8,EEG.T8,EEG.FC6,EEG.F4,EEG.F8,EEG.AF4,EEG.RawCq,EEG.Battery,EEG.BatteryPercent,MarkerIndex,MarkerType,MarkerValueInt,EEG.MarkerHardware,CQ.AF3,CQ.F7,CQ.F3,CQ.FC5,CQ.T7,CQ.P7,CQ.O1,CQ.O2,CQ.P8,CQ.T8,CQ.FC6,CQ.F4,CQ.F8,CQ.AF4,CQ.Overall,EQ.SampleRateQuality,EQ.OVERALL,EQ.AF3,EQ.F7,EQ.F3,EQ.FC5,EQ.T7,EQ.P7,EQ.O1,EQ.O2,EQ.P8,EQ.T8,EQ.FC6,EQ.F4,EQ.F8,EQ.AF4,PM.Attention.IsActive,PM.Attention.Scaled,PM.Attention.Raw,PM.Attention.Min,PM.Attention.Max,PM.Engagement.IsActive,PM.Engagement.Scaled,PM.Engagement.Raw,PM.Engagement.Min,PM.Engagement.Max,PM.Excitement.IsActive,PM.Excitement.Scaled,PM.Excitement.Raw,PM.Excitement.Min,PM.Excitement.Max,PM.LongTermExcitement,PM.Stress.IsActive,PM.Stress.Scaled,PM.Stress.Raw,PM.Stress.Min,PM.Stress.Max,PM.Relaxation.IsActive,PM.Relaxation.Scaled,PM.Relaxation.Raw,PM.Relaxation.Min,PM.Relaxation.Max,PM.Interest.IsActive,PM.Interest.Scaled,PM.Interest.Raw,PM.Interest.Min,PM.Interest.Max,POW.AF3.Theta,POW.AF3.Alpha,POW.AF3.BetaL,POW.AF3.BetaH,POW.AF3.Gamma,POW.F7.Theta,POW.F7.Alpha,POW.F7.BetaL,POW.F7.BetaH,POW.F7.Gamma,POW.F3.Theta,POW.F3.Alpha,POW.F3.BetaL,POW.F3.BetaH,POW.F3.Gamma,POW.FC5.Theta,POW.FC5.Alpha,POW.FC5.BetaL,POW.FC5.BetaH,POW.FC5.Gamma,POW.T7.Theta,POW.T7.Alpha,POW.T7.BetaL,POW.T7.BetaH,POW.T7.Gamma,POW.P7.Theta,POW.P7.Alpha,POW.P7.BetaL,POW.P7.BetaH,POW.P7.Gamma,POW.O1.Theta,POW.O1.Alpha,POW.O1.BetaL,POW.O1.BetaH,POW.O1.Gamma,POW.O2.Theta,POW.O2.Alpha,POW.O2.BetaL,POW.O2.BetaH,POW.O2.Gamma,POW.P8.Theta,POW.P8.Alpha,POW.P8.BetaL,POW.P8.BetaH,POW.P8.Gamma,POW.T8.Theta,POW.T8.Alpha,POW.T8.BetaL,POW.T8.BetaH,POW.T8.Gamma,POW.FC6.Theta,POW.FC6.Alpha,POW.FC6.BetaL,POW.FC6.BetaH,POW.FC6.Gamma,POW.F4.Theta,POW.F4.Alpha,POW.F4.BetaL,POW.F4.BetaH,POW.F4.Gamma,POW.F8.Theta,POW.F8.Alpha,POW.F8.BetaL,POW.F8.BetaH,POW.F8.Gamma,POW.AF4.Theta,POW.AF4.Alpha,POW.AF4.BetaL,POW.AF4.BetaH,POW.AF4.Gamma
1768295158.241068,1768295158.242038,101.000000,0.000000,4331.025879,4312.307617,4330.512695,4346.666504,4306.794922,4311.025879,4305.641113,4305.128418,4322.436035,4291.153809,4499.102539,4532.179688,4415.641113,4472.307617,5435.000000,2.000000,40.000000,,,,0.000000,4.000000,4.000000,4.000000,4.000000,4.000000,4.000000,4.000000,4.000000,4.000000,4.000000,4.000000,4.000000,4.000000,4.000000,100.000000,,,,,,,,,,,,,,,,,,,,,,,,,,,,,,,,,,,,,,,,,,,,,,,,,,,,,,,,,,,,,,,,,,,,,,,,,,,,,,,,,,,,,,,,,,,,,,,,,,,,,,,,,,,,,,,,,,,,,
1768295158.248877,1768295158.249747,102.000000,0.000000,4333.077148,4315.512695,4331.794922,4345.769043,4304.102539,4310.128418,4306.282227,4312.051270,4326.922852,4294.871582,4499.358887,4534.358887,4409.871582,4467.820313,3817.000000,2.000000,40.000000,,,,0.000000,4.000000,4.000000,4.000000,4.000000,4.000000,4.000000,4.000000,4.000000,4.000000,4.000000,4.000000,4.000000,4.000000,4.000000,100.000000,,,,,,,,,,,,,,,,,,,,,,,,,,,,,,,,,,,,,,,,,,,,,,,,,,,,,,,,,,,,,,,,,,,,,,,,,,,,,,,,,,,,,,,,,,,,,,,,,,,,,,,,,,,,,,,,,,,,,
1768295158.256685,1768295158.257555,103.000000,0.000000,4329.230957,4313.461426,4333.974121,4350.769043,4301.538574,4312.179688,4308.589844,4315.769043,4325.641113,4303.717773,4497.948730,4533.333496,4406.025879,4468.333496,4691.000000,2.000000,40.000000,,,,0.000000,4.000000,4.000000,4.000000,4.000000,4.000000,4.000000,4.000000,4.000000,4.000000,4.000000,4.000000,4.000000,4.000000,4.000000,100.000000,,,,,,,,,,,,,,,,,,,,,,,,,,,,,,,,,,,,,,,,,,,,,,,,,,,,,,,,,,,,,,,,,,,,,,,,,,,,,,,,,,,,,,,,,,,,,,,,,,,,,,,,,,,,,,,,,,,,,
1768295158.264494,1768295158.265164,104.000000,0.000000,4333.974121,4315.897461,4340.384766,4352.692383,4306.666504,4310.256348,4307.820313,4310.384766,4321.410156,4304.615234,4498.461426,4537.563965,4411.922852,4470.897461,2394.000000,2.000000,40.000000,,,,0.000000,4.000000,4.000000,4.000000,4.000000,4.000000,4.000000,4.000000,4.000000,4.000000,4.000000,4.000000,4.000000,4.000000,4.000000,100.000000,,,,,,,,,,,,,,,,,,,,,,,,,,,,,,,,,,,,,,,,,,,,,,,,,,,,,,,,,,,,,,,,,,,,,,,,,,,,,,,,,,,,,,,,,,,,,,,,,,,,,,,,,,,,,,,,,,,,,
1768295158.272302,1768295158.272972,105.000000,0.000000,4338.717773,4318.717773,4343.589844,4353.077148,4307.436035,4308.077148,4302.307617,4308.974121,4325.128418,4299.487305,4499.871582,4539.102539,4413.077148,4473.205078,5435.000000,2.000000,40.000000,,,,0.000000,4.000000,4.000000,4.000000,4.000000,4.000000,4.000000,4.000000,4.000000,4.000000,4.000000,4.000000,4.000000,4.000000,4.000000,100.000000,,,,,,,,,,,,,,,,,,,,,,,,,,,,,,,,,,,,,,,,,,,,,,,,,,,,,,,,,,,,,,,,,,,,,,,,,,,,,,,,,,,,,,,,,,,,,,,,,,,,,,,,,,,,,,,,,,,,,
1768295158.280110,1768295158.280681,106.000000,0.000000,4338.589844,4317.563965,4345.128418,4358.461426,4308.717773,4311.794922,4305.641113,4314.871582,4329.615234,4301.025879,4502.436035,4539.743652,4412.692383,4478.333496,3817.000000,2.000000,40.000000,,,,0.000000,4.000000,4.000000,4.000000,4.000000,4.000000,4.000000,4.000000,4.000000,4.000000,4.000000,4.000000,4.000000,4.000000,4.000000,100.000000,,,,,,,,,,,,,,,,,,,,,,,,,,,,,,,,,,,,,,,,,,,,,,,,,,,,,,,,,,,,,,,,,,,,,,,,,,,,,,,,,,,,,,,,,,,,,,,,,,,,,,,,,,,,,,,,,,,,,
1768295158.287919,1768295158.288489,107.000000,0.000000,4342.563965,4317.692383,4347.051270,4361.025879,4315.256348,4314.615234,4315.641113,4316.666504,4327.307617,4307.820313,4505.897461,4543.846191,4420.769043,4483.333496,4691.000000,2.000000,40.000000,,,,0.000000,4.000000,4.000000,4.000000,4.000000,4.000000,4.000000,4.000000,4.000000,4.000000,4.000000,4.000000,4.000000,4.000000,4.000000,100.000000,,,,,,,,,,,,,,,,,,,,,,,,,,,,,,,,,,,,,,,,,,,,,,,,,,,,,,,,,,,,,,,,,,,,,,,,,,,,,,,,,,,,,,,,,,,,,,,,,,,,,,,,,,,,,,,,,,,,,
1768295158.295727,1768295158.296098,108.000000,0.000000,4344.487305,4318.205078,4343.461426,4357.051270,4317.820313,4314.230957,4319.615234,4313.461426,4326.282227,4306.025879,4507.307617,4544.102539,4426.153809,4484.102539,2394.000000,2.000000,40.000000,,,,0.000000,4.000000,4.000000,4.000000,4.000000,4.000000,4.000000,4.000000,4.000000,4.000000,4.000000,4.000000,4.000000,4.000000,4.000000,100.000000,,,,,,,,,,,,,,,,,,,,,,,,,,,,,,,,,,,,,,,,,,,,,,,,,,,,,,,,,,,,,,,,,,,,,,,,,,,,,,,,,,,,,,,,,,,,,,,,,,,,,,,,,,,,,,,,,,,,,
1768295158.303536,1768295158.303906,109.000000,0.000000,4342.051270,4318.077148,4341.538574,4355.384766,4315.128418,4311.922852,4309.743652,4315.128418,4331.538574,4300.384766,4506.666504,4543.333496,4420.256348,4485.128418,5435.000000,2.000000,40.000000,,,,0.000000,4.000000,4.000000,4.000000,4.000000,4.000000,4.000000,4.000000,4.000000,4.000000,4.000000,4.000000,4.000000,4.000000,4.000000,100.000000,,,,,,,,,,,,,,,,,,,,,,,,,,,,,,,,,,,,,,,,,,,,,,,,,,,,,,,,,,,,,,,,,,,,,,,,,,,,,,,,,,,,,,,,,,,,,,,,,,,,,,,,,,,,,,,,,,,,,
1768295158.311344,1768295158.311815,110.000000,0.000000,4342.051270,4316.666504,4343.205078,4357.820313,4313.461426,4309.743652,4298.461426,4313.717773,4329.358887,4302.948730,4505.000000,4539.358887,4414.871582,4485.256348,3817.000000,2.000000,40.000000,,,,0.000000,4.000000,4.000000,4.000000,4.000000,4.000000,4.000000,4.000000,4.000000,4.000000,4.000000,4.000000,4.000000,4.000000,4.000000,100.000000,,,,,,,,,,,,,,,,,,,,,,,,,,,,,,,,,,,,,,,,,,,,,,,,0.825105,0.880291,0.204615,0.310542,0.262162,0.532935,0.691866,0.191190,0.216452,0.094616,1.034329,0.803198,0.228711,0.237713,0.187390,0.503075,0.299324,0.104717,0.269345,0.090238,0.611824,0.155914,0.206736,0.092908,0.060384,0.159952,0.132139,0.247421,0.098372,0.074074,0.187344,0.265633,0.514658,0.279522,0.329898,0.584856,0.479694,0.182983,0.237911,0.215140,0.173088,0.331824,0.158756,0.097444,0.067281,0.426562,0.965291,0.371740,0.573051,0.218639,0.078567,0.344841,0.089360,0.089524,0.045182,0.611150,1.567273,0.311423,0.617173,0.211661,0.491391,0.805661,0.470118,0.507015,0.240365,0.588423,1.094105,0.390302,0.596540,0.246960
1768295158.319152,1768295158.319623,111.000000,0.000000,4339.230957,4314.487305,4339.615234,4354.230957,4312.051270,4310.641113,4301.666504,4308.974121,4323.077148,4306.794922,4502.692383,4533.077148,4415.641113,4480.897461,4691.000000,2.000000,40.000000,,,,0.000000,4.000000,4.000000,4.000000,4.000000,4.000000,4.000000,4.000000,4.000000,4.000000,4.000000,4.000000,4.000000,4.000000,4.000000,100.000000,,,,,,,,,,,,,,,,,,,,,,,,,,,,,,,,,,,,,,,,,,,,,,,,,,,,,,,,,,,,,,,,,,,,,,,,,,,,,,,,,,,,,,,,,,,,,,,,,,,,,,,,,,,,,,,,,,,,,
1768295158.326961,1768295158.327632,112.000000,0.000000,4336.922852,4313.205078,4336.538574,4347.179688,4307.179688,4311.666504,4309.358887,4313.589844,4325.000000,4304.871582,4502.307617,4534.102539,4415.384766,4478.205078,2394.000000,2.000000,40.000000,,,,0.000000,4.000000,4.000000,4.000000,4.000000,4.000000,4.000000,4.000000,4.000000,4.000000,4.000000,4.000000,4.000000,4.000000,4.000000,100.000000,,,,,,,,,,,,,,,,,,,,,,,,,,,,,,,,,,,,,,,,,,,,,,,,,,,,,,,,,,,,,,,,,,,,,,,,,,,,,,,,,,,,,,,,,,,,,,,,,,,,,,,,,,,,,,,,,,,,,
1768295158.334769,1768295158.335440,113.000000,0.000000,4334.102539,4306.282227,4332.692383,4343.846191,4303.077148,4309.230957,4308.974121,4313.974121,4323.461426,4292.051270,4499.487305,4531.794922,4405.641113,4471.922852,5435.000000,2.000000,40.000000,,,,0.000000,4.000000,4.000000,4.000000,4.000000,4.000000,4.000000,4.000000,4.000000,4.000000,4.000000,4.000000,4.000000,4.000000,4.000000,100.000000,,,,,,,,,,,,,,,,,,,,,,,,,,,,,,,,,,,,,,,,,,,,,,,,,,,,,,,,,,,,,,,,,,,,,,,,,,,,,,,,,,,,,,,,,,,,,,,,,,,,,,,,,,,,,,,,,,,,,
1768295158.342578,1768295158.343149,114.000000,0.000000,4328.717773,4296.410156,4328.846191,4340.641113,4304.615234,4308.846191,4307.692383,4310.128418,4321.282227,4285.512695,4496.025879,4527.051270,4399.615234,4465.641113,3817.000000,2.000000,40.000000,,,,0.000000,4.000000,4.000000,4.000000,4.000000,4.000000,4.000000,4.000000,4.000000,4.000000,4.000000,4.000000,4.000000,4.000000,4.000000,100.000000,,,,,,,,,,,,,,,,,,,,,,,,,,,,,,,,,,,,,,,,,,,,,,,,,,,,,,,,,,,,,,,,,,,,,,,,,,,,,,,,,,,,,,,,,,,,,,,,,,,,,,,,,,,,,,,,,,,,,
1768295158.350386,1768295158.350957,115.000000,0.000000,4339.358887,4302.179688,4344.230957,4343.333496,4307.692383,4315.000000,4314.358887,4322.051270,4335.384766,4305.897461,4504.230957,4544.487305,4414.615234,4481.025879,4691.000000,2.000000,40.000000,,,,0.000000,4.000000,4.000000,4.000000,4.000000,4.000000,4.000000,4.000000,4.000000,4.000000,4.000000,4.000000,4.000000,4.000000,4.000000,100.000000,,,,,,,,,,,,,,,,,,,,,,,,,,,,,,,,,,,,,,,,,,,,,,,,,,,,,,,,,,,,,,,,,,,,,,,,,,,,,,,,,,,,,,,,,,,,,,,,,,,,,,,,,,,,,,,,,,,,,
1768295158.358194,1768295158.358566,116.000000,0.000000,4358.846191,4318.974121,4363.589844,4355.384766,4311.794922,4316.666504,4322.051270,4336.794922,4348.974121,4329.487305,4516.666504,4568.333496,4433.974121,4503.077148,2394.000000,2.000000,40.000000,,,,0.000000,4.000000,4.000000,4.000000,4.000000,4.000000,4.000000,4.000000,4.000000,4.000000,4.000000,4.000000,4.000000,4.000000,4.000000,100.000000,,,,,,,,,,,,,,,,,,,,,,,,,,,,,,,,,,,,,,,,,,,,,,,,,,,,,,,,,,,,,,,,,,,,,,,,,,,,,,,,,,,,,,,,,,,,,,,,,,,,,,,,,,,,,,,,,,,,,
1768295158.366003,1768295158.366374,117.000000,0.000000,4354.487305,4320.512695,4357.307617,4357.179688,4314.102539,4311.025879,4319.871582,4330.512695,4341.025879,4325.897461,4515.512695,4562.820313,4432.307617,4499.743652,5435.000000,2.000000,40.000000,,,,0.000000,4.000000,4.000000,4.000000,4.000000,4.000000,4.000000,4.000000,4.000000,4.000000,4.000000,4.000000,4.000000,4.000000,4.000000,100.000000,,,,,,,,,,,,,,,,,,,,,,,,,,,,,,,,,,,,,,,,,,,,,,,,,,,,,,,,,,,,,,,,,,,,,,,,,,,,,,,,,,,,,,,,,,,,,,,,,,,,,,,,,,,,,,,,,,,,,
1768295158.373811,1768295158.374282,118.000000,0.000000,4340.897461,4307.948730,4344.230957,4347.307617,4310.000000,4306.538574,4306.410156,4309.487305,4326.666504,4306.666504,4505.128418,4540.512695,4417.948730,4482.563965,3817.000000,2.000000,40.000000,,,,0.000000,4.000000,4.000000,4.000000,4.000000,4.000000,4.000000,4.000000,4.000000,4.000000,4.000000,4.000000,4.000000,4.000000,4.000000,100.000000,,,,,,,,,,,,,,,,,,,,,,,,,,,,,,,,,,,,,,,,,,,,,,,,,,,,,,,,,,,,,,,,,,,,,,,,,,,,,,,,,,,,,,,,,,,,,,,,,,,,,,,,,,,,,,,,,,,,,
1768295158.381620,1768295158.382091,119.000000,0.000000,4345.256348,4308.333496,4346.282227,4346.025879,4308.846191,4308.461426,4301.153809,4303.717773,4324.487305,4296.025879,4502.692383,4531.922852,4408.846191,4477.563965,4691.000000,2.000000,40.000000,,,,0.000000,4.000000,4.000000,4.000000,4.000000,4.000000,4.000000,4.000000,4.000000,4.000000,4.000000,4.000000,4.000000,4.000000,4.000000,100.000000,,,,,,,,,,,,,,,,,,,,,,,,,,,,,,,,,,,,,,,,,,,,,,,,,,,,,,,,,,,,,,,,,,,,,,,,,,,,,,,,,,,,,,,,,,,,,,,,,,,,,,,,,,,,,,,,,,,,,
1768295158.389428,1768295158.390099,120.000000,0.000000,4349.615234,4313.974121,4350.128418,4347.692383,4312.563965,4313.974121,4310.384766,4312.179688,4325.641113,4295.769043,4506.794922,4535.128418,4409.102539,4482.307617,2394.000000,2.000000,40.000000,,,,0.000000,4.000000,4.000000,4.000000,4.000000,4.000000,4.000000,4.000000,4.000000,4.000000,4.000000,4.000000,4.000000,4.000000,4.000000,100.000000,,,,,,,,,,,,,,,,,,,,,,,,,,,,,,,,,,,,,,,,,,,,,,,,,,,,,,,,,,,,,,,,,,,,,,,,,,,,,,,,,,,,,,,,,,,,,,,,,,,,,,,,,,,,,,,,,,,,,
1768295158.397237,1768295158.397908,121.000000,0.000000,4337.820313,4311.282227,4340.512695,4342.179688,4312.436035,4311.025879,4308.205078,4308.717773,4321.794922,4302.563965,4503.717773,4530.384766,4412.692383,4481.922852,5435.000000,2.000000,40.000000,,,,0.000000,4.000000,4.000000,4.000000,4.000000,4.000000,4.000000,4.000000,4.000000,4.000000,4.000000,4.000000,4.000000,4.000000,4.000000,100.000000,,,,,,,,,,,,,,,,,,,,,,,,,,,,,,,,,,,,,,,,,,,,,,,,,,,,,,,,,,,,,,,,,,,,,,,,,,,,,,,,,,,,,,,,,,,,,,,,,,,,,,,,,,,,,,,,,,,,,
1768295158.405045,1768295158.405816,122.000000,0.000000,4327.563965,4309.230957,4330.769043,4340.000000,4311.410156,4307.692383,4298.846191,4304.230957,4320.512695,4304.230957,4498.461426,4525.897461,4412.820313,4474.102539,3817.000000,2.000000,40.000000,,,,0.000000,4.000000,4.000000,4.000000,4.000000,4.000000,4.000000,4.000000,4.000000,4.000000,4.000000,4.000000,4.000000,4.000000,4.000000,100.000000,,,,,,,,,,,,,,,,,,,,,,,,,,,,,,,,,,,,,,,,,,,,,,,,,,,,,,,,,,,,,,,,,,,,,,,,,,,,,,,,,,,,,,,,,,,,,,,,,,,,,,,,,,,,,,,,,,,,,
1768295158.412854,1768295158.413624,123.000000,0.000000,4331.025879,4307.051270,4337.436035,4341.410156,4309.615234,4312.307617,4306.282227,4314.487305,4324.871582,4297.692383,4502.948730,4534.743652,4411.922852,4472.948730,4691.000000,2.000000,40.000000,,,,0.000000,4.000000,4.000000,4.000000,4.000000,4.000000,4.000000,4.000000,4.000000,4.000000,4.000000,4.000000,4.000000,4.000000,4.000000,100.000000,,,,,,,,,,,,,,,,,,,,,,,,,,,,,,,,,,,,,,,,,,,,,,,,,,,,,,,,,,,,,,,,,,,,,,,,,,,,,,,,,,,,,,,,,,,,,,,,,,,,,,,,,,,,,,,,,,,,,
1768295158.420662,1768295158.421633,124.000000,0.000000,4344.615234,4307.307617,4348.717773,4343.461426,4308.333496,4316.153809,4312.179688,4319.743652,4326.922852,4297.820313,4508.846191,4541.794922,4413.846191,4480.512695,2394.000000,2.000000,40.000000,,,,0.000000,4.000000,4.000000,4.000000,4.000000,4.000000,4.000000,4.000000,4.000000,4.000000,4.000000,4.000000,4.000000,4.000000,4.000000,100.000000,,,,,,,,,,,,,,,,,,,,,,,,,,,,,,,,,,,,,,,,,,,,,,,,,,,,,,,,,,,,,,,,,,,,,,,,,,,,,,,,,,,,,,,,,,,,,,,,,,,,,,,,,,,,,,,,,,,,,
1768295158.428470,1768295158.429441,125.000000,0.000000,4353.333496,4316.025879,4348.077148,4350.512695,4311.025879,4313.333496,4305.512695,4314.615234,4325.897461,4300.256348,4507.820313,4537.051270,4415.769043,4482.948730,5435.000000,2.000000,40.000000,,,,0.000000,4.000000,4.000000,4.000000,4.000000,4.000000,4.000000,4.000000,4.000000,4.000000,4.000000,4.000000,4.000000,4.000000,4.000000,100.000000,,,,,,,,,,,,,,,,,,,,,,,,,,,,,,,,,,,,,,,,,,,,,,,,,,,,,,,,,,,,,,,,,,,,,,,,,,,,,,,,,,,,,,,,,,,,,,,,,,,,,,,,,,,,,,,,,,,,,
1768295158.436279,1768295158.437150,126.000000,0.000000,4353.846191,4325.897461,4348.077148,4357.948730,4314.358887,4312.820313,4308.205078,4312.436035,4324.615234,4298.589844,4504.615234,4535.128418,4415.512695,4481.282227,3817.000000,2.000000,40.000000,,,,0.000000,4.000000,4.000000,4.000000,4.000000,4.000000,4.000000,4.000000,4.000000,4.000000,4.000000,4.000000,4.000000,4.000000,4.000000,100.000000,,,,,,,,,,,,,,,,,,,,,,,,,,,,,,,,,,,,,,,,,,,,,,,,0.867011,0.906033,0.181902,0.306093,0.232439,0.570424,0.735644,0.170161,0.211315,0.094993,1.145419,0.824912,0.233169,0.224076,0.171152,0.607953,0.326018,0.108573,0.262440,0.088466,0.639446,0.153447,0.193937,0.093291,0.064028,0.181345,0.125615,0.226790,0.087956,0.086017,0.172719,0.227815,0.466580,0.243461,0.355413,0.638875,0.564525,0.176648,0.238221,0.207230,0.194528,0.395516,0.154635,0.098991,0.063518,0.378961,0.905406,0.333498,0.613876,0.240761,0.075770,0.336560,0.085235,0.087016,0.043783,0.728786,1.567991,0.260095,0.588658,0.209400,0.535860,0.751610,0.410309,0.463670,0.229497,0.679483,1.138629,0.371973,0.540445,0.236133
1768295158.444087,1768295158.444958,127.000000,0.000000,4352.563965,4324.102539,4353.077148,4355.512695,4313.205078,4317.436035,4316.153809,4316.025879,4324.230957,4299.358887,4506.025879,4541.025879,4414.230957,4485.256348,40.000000,2.000000,40.000000,,,,0.000000,4.000000,4.000000,4.000000,4.000000,4.000000,4.000000,4.000000,4.000000,4.000000,4.000000,4.000000,4.000000,4.000000,4.000000,100.000000,,,,,,,,,,,,,,,,,,,,,,,,,,,,,,,,,,,,,,,,,,,,,,,,,,,,,,,,,,,,,,,,,,,,,,,,,,,,,,,,,,,,,,,,,,,,,,,,,,,,,,,,,,,,,,,,,,,,,
1768295158.451896,1768295158.452567,0.000000,0.000000,4348.205078,4319.615234,4346.794922,4348.205078,4309.230957,4316.666504,4311.794922,4313.974121,4325.256348,4298.717773,4506.153809,4539.487305,4413.461426,4483.333496,4240.000000,2.000000,40.000000,,,,0.000000,4.000000,4.000000,4.000000,4.000000,4.000000,4.000000,4.000000,4.000000,4.000000,4.000000,4.000000,4.000000,4.000000,4.000000,100.000000,,,,,,,,,,,,,,,,,,,,,,,,,,,,,,,,,,,,,,,,,,,,,,,,,,,,,,,,,,,,,,,,,,,,,,,,,,,,,,,,,,,,,,,,,,,,,,,,,,,,,,,,,,,,,,,,,,,,,
1768295158.459704,1768295158.460375,1.000000,0.000000,4341.794922,4317.436035,4338.846191,4345.256348,4309.358887,4313.205078,4302.692383,4305.256348,4325.769043,4294.487305,4502.948730,4533.205078,4412.948730,4476.538574,3822.000000,2.000000,40.000000,,,,0.000000,4.000000,4.000000,4.000000,4.000000,4.000000,4.000000,4.000000,4.000000,4.000000,4.000000,4.000000,4.000000,4.000000,4.000000,100.000000,,,,,,,,,,,,,,,,,,,,,,,,,,,,,,,,,,,,,,,,,,,,,,,,,,,,,,,,,,,,,,,,,,,,,,,,,,,,,,,,,,,,,,,,,,,,,,,,,,,,,,,,,,,,,,,,,,,,,
1768295158.467512,1768295158.468084,2.000000,0.000000,4340.641113,4315.384766,4341.794922,4346.025879,4313.077148,4315.512695,4306.538574,4309.358887,4325.512695,4297.820313,4503.205078,4535.000000,4413.077148,4479.871582,4031.000000,2.000000,40.000000,,,,0.000000,4.000000,4.000000,4.000000,4.000000,4.000000,4.000000,4.000000,4.000000,4.000000,4.000000,4.000000,4.000000,4.000000,4.000000,100.000000,,,,,,,,,,,,,,,,,,,,,,,,,,,,,,,,,,,,,,,,,,,,,,,,,,,,,,,,,,,,,,,,,,,,,,,,,,,,,,,,,,,,,,,,,,,,,,,,,,,,,,,,,,,,,,,,,,,,,
1768295158.475321,1768295158.475892,3.000000,0.000000,4344.230957,4319.487305,4344.615234,4345.512695,4315.128418,4318.077148,4315.256348,4313.717773,4323.461426,4304.230957,4499.871582,4536.538574,4407.436035,4483.205078,3921.000000,2.000000,40.000000,,,,0.000000,4.000000,4.000000,4.000000,4.000000,4.000000,4.000000,4.000000,4.000000,4.000000,4.000000,4.000000,4.000000,4.000000,4.000000,100.000000,,,,,,,,,,,,,,,,,,,,,,,,,,,,,,,,,,,,,,,,,,,,,,,,,,,,,,,,,,,,,,,,,,,,,,,,,,,,,,,,,,,,,,,,,,,,,,,,,,,,,,,,,,,,,,,,,,,,,
1768295158.483129,1768295158.483501,4.000000,0.000000,4339.871582,4323.717773,4337.051270,4340.897461,4306.922852,4314.358887,4308.461426,4299.358887,4318.717773,4302.307617,4492.820313,4529.102539,4401.025879,4475.512695,3795.000000,2.000000,40.000000,,,,0.000000,4.000000,4.000000,4.000000,4.000000,4.000000,4.000000,4.000000,4.000000,4.000000,4.000000,4.000000,4.000000,4.000000,4.000000,100.000000,,,,,,,,,,,,,,,,,,,,,,,,,,,,,,,,,,,,,,,,,,,,,,,,,,,,,,,,,,,,,,,,,,,,,,,,,,,,,,,,,,,,,,,,,,,,,,,,,,,,,,,,,,,,,,,,,,,,,
1768295158.490938,1768295158.491309,5.000000,0.000000,4328.717773,4322.563965,4327.436035,4338.974121,4299.743652,4312.820313,4299.487305,4291.538574,4316.410156,4296.794922,4494.102539,4522.051270,4400.641113,4468.589844,3228.000000,2.000000,40.000000,,,,0.000000,4.000000,4.000000,4.000000,4.000000,4.000000,4.000000,4.000000,4.000000,4.000000,4.000000,4.000000,4.000000,4.000000,4.000000,100.000000,,,,,,,,,,,,,,,,,,,,,,,,,,,,,,,,,,,,,,,,,,,,,,,,,,,,,,,,,,,,,,,,,,,,,,,,,,,,,,,,,,,,,,,,,,,,,,,,,,,,,,,,,,,,,,,,,,,,,
1768295158.498746,1768295158.499218,6.000000,0.000000,4324.743652,4325.769043,4325.000000,4338.974121,4301.538574,4314.230957,4301.025879,4303.461426,4318.974121,4295.128418,4497.436035,4522.307617,4403.333496,4466.153809,3501.000000,2.000000,40.000000,,,,0.000000,4.000000,4.000000,4.000000,4.000000,4.000000,4.000000,4.000000,4.000000,4.000000,4.000000,4.000000,4.000000,4.000000,4.000000,100.000000,,,,,,,,,,,,,,,,,,,,,,,,,,,,,,,,,,,,,,,,,,,,,,,,,,,,,,,,,,,,,,,,,,,,,,,,,,,,,,,,,,,,,,,,,,,,,,,,,,,,,,,,,,,,,,,,,,,,,
1768295158.506555,1768295158.507026,7.000000,0.000000,4327.051270,4332.307617,4325.897461,4337.563965,4300.641113,4309.487305,4299.102539,4306.025879,4320.128418,4292.436035,4496.282227,4521.794922,4404.743652,4458.333496,3468.000000,2.000000,40.000000,,,,0.000000,4.000000,4.000000,4.000000,4.000000,4.000000,4.000000,4.000000,4.000000,4.000000,4.000000,4.000000,4.000000,4.000000,4.000000,100.000000,,,,,,,,,,,,,,,,,,,,,,,,,,,,,,,,,,,,,,,,,,,,,,,,,,,,,,,,,,,,,,,,,,,,,,,,,,,,,,,,,,,,,,,,,,,,,,,,,,,,,,,,,,,,,,,,,,,,,
1768295158.514363,1768295158.515034,8.000000,0.000000,4323.461426,4327.692383,4322.820313,4334.487305,4297.051270,4305.897461,4294.230957,4294.871582,4317.307617,4282.820313,4494.358887,4518.589844,4398.461426,4449.871582,2586.000000,2.000000,40.000000,,,,0.000000,4.000000,4.000000,4.000000,4.000000,4.000000,4.000000,4.000000,4.000000,4.000000,4.000000,4.000000,4.000000,4.000000,4.000000,100.000000,,,,,,,,,,,,,,,,,,,,,,,,,,,,,,,,,,,,,,,,,,,,,,,,,,,,,,,,,,,,,,,,,,,,,,,,,,,,,,,,,,,,,,,,,,,,,,,,,,,,,,,,,,,,,,,,,,,,,
1768295158.522171,1768295158.522843,9.000000,0.000000,4318.846191,4322.051270,4320.512695,4333.077148,4295.641113,4311.153809,4299.743652,4297.179688,4316.153809,4280.128418,4490.897461,4515.128418,4390.000000,4447.307617,3565.000000,2.000000,40.000000,,,,0.000000,4.000000,4.000000,4.000000,4.000000,4.000000,4.000000,4.000000,4.000000,4.000000,4.000000,4.000000,4.000000,4.000000,4.000000,100.000000,,,,,,,,,,,,,,,,,,,,,,,,,,,,,,,,,,,,,,,,,,,,,,,,,,,,,,,,,,,,,,,,,,,,,,,,,,,,,,,,,,,,,,,,,,,,,,,,,,,,,,,,,,,,,,,,,,,,,
1768295158.529980,1768295158.530751,10.000000,0.000000,4325.769043,4330.512695,4325.000000,4338.461426,4299.743652,4314.358887,4308.717773,4307.436035,4318.333496,4289.358887,4490.897461,4516.410156,4393.461426,4449.230957,3812.000000,2.000000,40.000000,,,,0.000000,4.000000,4.000000,4.000000,4.000000,4.000000,4.000000,4.000000,4.000000,4.000000,4.000000,4.000000,4.000000,4.000000,4.000000,100.000000,,,,,,,,,,,,,,,,,,,,,,,,,,,,,,,,,,,,,,,,,,,,,,,,,,,,,,,,,,,,,,,,,,,,,,,,,,,,,,,,,,,,,,,,,,,,,,,,,,,,,,,,,,,,,,,,,,,,,
1768295158.537788,1768295158.538559,11.000000,0.000000,4325.897461,4332.692383,4327.436035,4343.077148,4304.871582,4314.871582,4313.717773,4308.077148,4318.589844,4294.487305,4492.948730,4519.615234,4400.000000,4450.256348,4691.000000,2.000000,40.000000,,,,0.000000,4.000000,4.000000,4.000000,4.000000,4.000000,4.000000,4.000000,4.000000,4.000000,4.000000,4.000000,4.000000,4.000000,4.000000,100.000000,,,,,,,,,,,,,,,,,,,,,,,,,,,,,,,,,,,,,,,,,,,,,,,,,,,,,,,,,,,,,,,,,,,,,,,,,,,,,,,,,,,,,,,,,,,,,,,,,,,,,,,,,,,,,,,,,,,,,
1768295158.545597,1768295158.546168,12.000000,0.000000,4313.205078,4321.794922,4322.692383,4336.538574,4300.512695,4320.000000,4319.615234,4307.820313,4317.820313,4288.077148,4488.846191,4515.512695,4391.282227,4445.641113,2396.000000,2.000000,40.000000,,,,0.000000,4.000000,4.000000,4.000000,4.000000,4.000000,4.000000,4.000000,4.000000,4.000000,4.000000,4.000000,4.000000,4.000000,4.000000,100.000000,,,,,,,,,,,,,,,,,,,,,,,,,,,,,,,,,,,,,,,,,,,,,,,,,,,,,,,,,,,,,,,,,,,,,,,,,,,,,,,,,,,,,,,,,,,,,,,,,,,,,,,,,,,,,,,,,,,,,
1768295158.553405,1768295158.553977,13.000000,0.000000,4307.692383,4320.128418,4319.615234,4329.871582,4294.743652,4320.128418,4314.487305,4308.077148,4316.153809,4280.512695,4483.333496,4507.051270,4380.000000,4438.974121,5429.000000,2.000000,40.000000,,,,0.000000,4.000000,4.000000,4.000000,4.000000,4.000000,4.000000,4.000000,4.000000,4.000000,4.000000,4.000000,4.000000,4.000000,4.000000,100.000000,,,,,,,,,,,,,,,,,,,,,,,,,,,,,,,,,,,,,,,,,,,,,,,,,,,,,,,,,,,,,,,,,,,,,,,,,,,,,,,,,,,,,,,,,,,,,,,,,,,,,,,,,,,,,,,,,,,,,
1768295158.561214,1768295158.561685,14.000000,0.000000,4312.436035,4324.358887,4325.256348,4335.897461,4300.000000,4318.589844,4305.641113,4304.230957,4316.922852,4283.717773,4484.230957,4505.897461,4385.641113,4437.051270,3812.000000,2.000000,40.000000,,,,0.000000,4.000000,4.000000,4.000000,4.000000,4.000000,4.000000,4.000000,4.000000,4.000000,4.000000,4.000000,4.000000,4.000000,4.000000,100.000000,1.000000,75.000000,4.000000,4.000000,4.000000,4.000000,4.000000,1.000000,4.000000,4.000000,4.000000,4.000000,4.000000,4.000000,4.000000,4.000000,,,,,,,,,,,,,,,,,,,,,,,,,,,,,,,,1.076476,1.003435,0.170803,0.308279,0.194701,0.679497,0.756988,0.156466,0.212350,0.095570,1.234207,0.861244,0.236467,0.211938,0.152100,0.732137,0.333480,0.116424,0.247873,0.084743,0.637115,0.146210,0.168786,0.093489,0.066434,0.221755,0.125642,0.200536,0.078872,0.100195,0.184088,0.209335,0.401392,0.208571,0.378481,0.733382,0.681968,0.183913,0.233619,0.199269,0.216307,0.446905,0.155656,0.098646,0.061079,0.343241,0.822960,0.333650,0.660061,0.266166,0.095618,0.336770,0.082602,0.087690,0.043485,0.992795,1.550512,0.250577,0.558332,0.203656,0.591159,0.714685,0.362943,0.423795,0.215755,0.891512,1.221153,0.370504,0.493713,0.221244
1768295158.569022,1768295158.569494,15.000000,0.000000,4311.922852,4316.794922,4327.820313,4338.846191,4303.974121,4321.025879,4307.692383,4305.897461,4323.589844,4290.512695,4490.000000,4513.589844,4392.051270,4442.948730,4691.000000,2.000000,40.000000,,,,0.000000,4.000000,4.000000,4.000000,4.000000,4.000000,4.000000,4.000000,4.000000,4.000000,4.000000,4.000000,4.000000,4.000000,4.000000,100.000000,,,,,,,,,,,,,,,,,,,,,,,,,,,,,,,,,,,,,,,,,,,,,,,,,,,,,,,,,,,,,,,,,,,,,,,,,,,,,,,,,,,,,,,,,,,,,,,,,,,,,,,,,,,,,,,,,,,,,
1768295158.576831,1768295158.577502,16.000000,0.000000,4313.589844,4313.974121,4327.948730,4335.769043,4296.666504,4320.000000,4308.333496,4310.897461,4326.025879,4292.051270,4495.512695,4522.307617,4392.179688,4454.102539,0.000000,2.000000,40.000000,,,,0.000000,4.000000,4.000000,4.000000,4.000000,4.000000,4.000000,4.000000,4.000000,4.000000,4.000000,4.000000,4.000000,4.000000,4.000000,100.000000,,,,,,,,,,,,,,,,,,,,,,,,,,,,,,,,,,,,,,,,,,,,,,,,,,,,,,,,,,,,,,,,,,,,,,,,,,,,,,,,,,,,,,,,,,,,,,,,,,,,,,,,,,,,,,,,,,,,,
1768295158.584639,1768295158.585310,17.000000,0.000000,4321.025879,4320.769043,4333.461426,4341.025879,4294.743652,4319.102539,4305.128418,4309.615234,4322.563965,4295.769043,4498.589844,4528.974121,4395.256348,4461.538574,0.000000,2.000000,40.000000,,,,0.000000,4.000000,4.000000,4.000000,4.000000,4.000000,4.000000,4.000000,4.000000,4.000000,4.000000,4.000000,4.000000,4.000000,4.000000,100.000000,,,,,,,,,,,,,,,,,,,,,,,,,,,,,,,,,,,,,,,,,,,,,,,,,,,,,,,,,,,,,,,,,,,,,,,,,,,,,,,,,,,,,,,,,,,,,,,,,,,,,,,,,,,,,,,,,,,,,
1768295158.592447,1768295158.593219,18.000000,0.000000,4317.307617,4314.487305,4332.692383,4343.589844,4300.897461,4317.692383,4305.000000,4306.794922,4322.692383,4300.256348,4494.743652,4527.692383,4399.871582,4456.025879,0.000000,2.000000,40.000000,,,,0.000000,4.000000,4.000000,4.000000,4.000000,4.000000,4.000000,4.000000,4.000000,4.000000,4.000000,4.000000,4.000000,4.000000,4.000000,100.000000,,,,,,,,,,,,,,,,,,,,,,,,,,,,,,,,,,,,,,,,,,,,,,,,,,,,,,,,,,,,,,,,,,,,,,,,,,,,,,,,,,,,,,,,,,,,,,,,,,,,,,,,,,,,,,,,,,,,,
1768295158.600256,1768295158.601027,19.000000,0.000000,4310.641113,4303.846191,4325.641113,4337.436035,4300.384766,4314.487305,4303.974121,4304.358887,4326.282227,4299.102539,4490.769043,4520.384766,4400.512695,4449.487305,0.000000,2.000000,40.000000,,,,0.000000,4.000000,4.000000,4.000000,4.000000,4.000000,4.000000,4.000000,4.000000,4.000000,4.000000,4.000000,4.000000,4.000000,4.000000,100.000000,,,,,,,,,,,,,,,,,,,,,,,,,,,,,,,,,,,,,,,,,,,,,,,,,,,,,,,,,,,,,,,,,,,,,,,,,,,,,,,,,,,,,,,,,,,,,,,,,,,,,,,,,,,,,,,,,,,,,
1768295158.608064,1768295158.608636,20.000000,0.000000,4312.820313,4309.615234,4331.153809,4337.948730,4298.974121,4316.922852,4307.948730,4310.000000,4326.666504,4297.436035,4497.179688,4524.743652,4399.871582,4454.230957,0.000000,2.000000,40.000000,,,,0.000000,4.000000,4.000000,4.000000,4.000000,4.000000,4.000000,4.000000,4.000000,4.000000,4.000000,4.000000,4.000000,4.000000,4.000000,100.000000,,,,,,,,,,,,,,,,,,,,,,,,,,,,,,,,,,,,,,,,,,,,,,,,,,,,,,,,,,,,,,,,,,,,,,,,,,,,,,,,,,,,,,,,,,,,,,,,,,,,,,,,,,,,,,,,,,,,,
1768295158.615873,1768295158.616444,21.000000,0.000000,4312.948730,4315.512695,4340.769043,4340.512695,4304.615234,4320.128418,4313.974121,4316.922852,4325.000000,4298.589844,4498.846191,4535.128418,4400.128418,4457.307617,0.000000,2.000000,40.000000,,,,0.000000,4.000000,4.000000,4.000000,4.000000,4.000000,4.000000,4.000000,4.000000,4.000000,4.000000,4.000000,4.000000,4.000000,4.000000,100.000000,,,,,,,,,,,,,,,,,,,,,,,,,,,,,,,,,,,,,,,,,,,,,,,,,,,,,,,,,,,,,,,,,,,,,,,,,,,,,,,,,,,,,,,,,,,,,,,,,,,,,,,,,,,,,,,,,,,,,
1768295158.623681,1768295158.624153,22.000000,0.000000,4308.333496,4309.871582,4334.487305,4332.436035,4305.512695,4316.282227,4313.205078,4315.512695,4325.128418,4294.102539,4491.794922,4532.307617,4398.589844,4451.410156,0.000000,2.000000,40.000000,,,,0.000000,4.000000,4.000000,4.000000,4.000000,4.000000,4.000000,4.000000,4.000000,4.000000,4.000000,4.000000,4.000000,4.000000,4.000000,100.000000,,,,,,,,,,,,,,,,,,,,,,,,,,,,,,,,,,,,,,,,,,,,,,,,,,,,,,,,,,,,,,,,,,,,,,,,,,,,,,,,,,,,,,,,,,,,,,,,,,,,,,,,,,,,,,,,,,,,,
1768295158.631489,1768295158.631961,23.000000,0.000000,4308.461426,4306.794922,4330.256348,4330.128418,4302.436035,4314.358887,4309.743652,4311.794922,4325.384766,4291.794922,4492.948730,4528.333496,4397.563965,4449.615234,0.000000,2.000000,40.000000,,,,0.000000,4.000000,4.000000,4.000000,4.000000,4.000000,4.000000,4.000000,4.000000,4.000000,4.000000,4.000000,4.000000,4.000000,4.000000,100.000000,,,,,,,,,,,,,,,,,,,,,,,,,,,,,,,,,,,,,,,,,,,,,,,,,,,,,,,,,,,,,,,,,,,,,,,,,,,,,,,,,,,,,,,,,,,,,,,,,,,,,,,,,,,,,,,,,,,,,
1768295158.639298,1768295158.639570,24.000000,0.000000,4310.512695,4311.153809,4337.948730,4338.205078,4302.948730,4317.051270,4305.256348,4308.717773,4325.128418,4290.512695,4500.000000,4531.538574,4398.461426,4455.641113,0.000000,2.000000,40.000000,,,,0.000000,4.000000,4.000000,4.000000,4.000000,4.000000,4.000000,4.000000,4.000000,4.000000,4.000000,4.000000,4.000000,4.000000,4.000000,100.000000,,,,,,,,,,,,,,,,,,,,,,,,,,,,,,,,,,,,,,,,,,,,,,,,,,,,,,,,,,,,,,,,,,,,,,,,,,,,,,,,,,,,,,,,,,,,,,,,,,,,,,,,,,,,,,,,,,,,,
1768295158.647106,1768295158.647378,25.000000,0.000000,4312.307617,4312.692383,4338.589844,4338.333496,4302.051270,4315.512695,4302.563965,4308.205078,4324.230957,4282.948730,4500.000000,4531.410156,4397.692383,4459.102539,0.000000,2.000000,40.000000,,,,0.000000,4.000000,4.000000,4.000000,4.000000,4.000000,4.000000,4.000000,4.000000,4.000000,4.000000,4.000000,4.000000,4.000000,4.000000,100.000000,,,,,,,,,,,,,,,,,,,,,,,,,,,,,,,,,,,,,,,,,,,,,,,,,,,,,,,,,,,,,,,,,,,,,,,,,,,,,,,,,,,,,,,,,,,,,,,,,,,,,,,,,,,,,,,,,,,,,
1768295158.654915,1768295158.655087,26.000000,0.000000,4315.769043,4309.358887,4330.897461,4333.974121,4300.128418,4313.333496,4306.410156,4306.025879,4322.179688,4290.512695,4495.897461,4530.000000,4399.615234,4460.512695,0.000000,2.000000,40.000000,,,,0.000000,4.000000,4.000000,4.000000,4.000000,4.000000,4.000000,4.000000,4.000000,4.000000,4.000000,4.000000,4.000000,4.000000,4.000000,100.000000,,,,,,,,,,,,,,,,,,,,,,,,,,,,,,,,,,,,,,,,,,,,,,,,,,,,,,,,,,,,,,,,,,,,,,,,,,,,,,,,,,,,,,,,,,,,,,,,,,,,,,,,,,,,,,,,,,,,,
1768295158.662723,1768295158.662895,27.000000,0.000000,4315.384766,4304.230957,4330.384766,4333.205078,4301.538574,4313.077148,4313.589844,4303.077148,4322.307617,4305.256348,4496.282227,4533.461426,4406.282227,4463.461426,0.000000,2.000000,40.000000,,,,0.000000,4.000000,4.000000,4.000000,4.000000,4.000000,4.000000,4.000000,4.000000,4.000000,4.000000,4.000000,4.000000,4.000000,4.000000,100.000000,,,,,,,,,,,,,,,,,,,,,,,,,,,,,,,,,,,,,,,,,,,,,,,,,,,,,,,,,,,,,,,,,,,,,,,,,,,,,,,,,,,,,,,,,,,,,,,,,,,,,,,,,,,,,,,,,,,,,
1768295158.670531,1768295158.670504,28.000000,0.000000,4318.077148,4300.641113,4336.025879,4331.025879,4301.794922,4313.717773,4310.256348,4305.512695,4325.256348,4301.410156,4498.846191,4531.538574,4408.077148,4466.410156,0.000000,2.000000,40.000000,,,,0.000000,4.000000,4.000000,4.000000,4.000000,4.000000,4.000000,4.000000,4.000000,4.000000,4.000000,4.000000,4.000000,4.000000,4.000000,100.000000,,,,,,,,,,,,,,,,,,,,,,,,,,,,,,,,,,,,,,,,,,,,,,,,,,,,,,,,,,,,,,,,,,,,,,,,,,,,,,,,,,,,,,,,,,,,,,,,,,,,,,,,,,,,,,,,,,,,,
1768295158.678340,1768295158.678312,29.000000,0.000000,4319.871582,4300.128418,4333.205078,4329.230957,4298.846191,4313.974121,4301.153809,4308.589844,4327.179688,4298.077148,4497.820313,4523.205078,4405.512695,4463.333496,0.000000,2.000000,40.000000,,,,0.000000,4.000000,4.000000,4.000000,4.000000,4.000000,4.000000,4.000000,4.000000,4.000000,4.000000,4.000000,4.000000,4.000000,4.000000,100.000000,,,,,,,,,,,,,,,,,,,,,,,,,,,,,,,,,,,,,,,,,,,,,,,,,,,,,,,,,,,,,,,,,,,,,,,,,,,,,,,,,,,,,,,,,,,,,,,,,,,,,,,,,,,,,,,,,,,,,
1768295158.686148,1768295158.686021,30.000000,0.000000,4316.025879,4300.769043,4329.743652,4333.846191,4301.282227,4314.102539,4303.846191,4312.436035,4329.615234,4308.077148,4498.846191,4525.128418,4407.692383,4457.563965,0.000000,2.000000,40.000000,,,,0.000000,4.000000,4.000000,4.000000,4.000000,4.000000,4.000000,4.000000,4.000000,4.000000,4.000000,4.000000,4.000000,4.000000,4.000000,100.000000,,,,,,,,,,,,,,,,,,,,,,,,,,,,,,,,,,,,,,,,,,,,,,,,1.373036,1.120793,0.172335,0.309473,0.161561,0.847121,0.745937,0.154257,0.216777,0.096005,1.277764,0.916467,0.234321,0.202998,0.136169,0.857898,0.320990,0.129532,0.229162,0.081386,0.602752,0.136325,0.138526,0.091789,0.067212,0.264580,0.127330,0.175008,0.071684,0.112919,0.209197,0.214035,0.339670,0.178579,0.395654,0.839205,0.791352,0.196931,0.221880,0.192860,0.234681,0.466233,0.163083,0.097818,0.061059,0.330566,0.729652,0.351746,0.697281,0.287325,0.128265,0.335713,0.083536,0.090426,0.044845,1.310450,1.514729,0.269771,0.531440,0.194532,0.638632,0.679681,0.337124,0.389075,0.202217,1.124092,1.280527,0.376508,0.461121,0.208641
1768295158.693957,1768295158.693829,31.000000,0.000000,4320.000000,4305.256348,4333.717773,4339.358887,4308.077148,4317.051270,4310.000000,4315.256348,4330.384766,4310.384766,4500.897461,4528.461426,4406.410156,4456.794922,0.000000,2.000000,40.000000,,,,0.000000,4.000000,4.000000,4.000000,4.000000,4.000000,4.000000,4.000000,4.000000,4.000000,4.000000,4.000000,4.000000,4.000000,4.000000,100.000000,,,,,,,,,,,,,,,,,,,,,,,,,,,,,,,,,,,,,,,,,,,,,,,,,,,,,,,,,,,,,,,,,,,,,,,,,,,,,,,,,,,,,,,,,,,,,,,,,,,,,,,,,,,,,,,,,,,,,
1768295158.701765,1768295158.701838,32.000000,0.000000,4323.333496,4307.051270,4335.384766,4340.256348,4307.307617,4318.717773,4311.153809,4316.025879,4325.769043,4302.820313,4498.846191,4523.974121,4400.897461,4459.487305,0.000000,2.000000,40.000000,,,,0.000000,4.000000,4.000000,4.000000,4.000000,4.000000,4.000000,4.000000,4.000000,4.000000,4.000000,4.000000,4.000000,4.000000,4.000000,100.000000,,,,,,,,,,,,,,,,,,,,,,,,,,,,,,,,,,,,,,,,,,,,,,,,,,,,,,,,,,,,,,,,,,,,,,,,,,,,,,,,,,,,,,,,,,,,,,,,,,,,,,,,,,,,,,,,,,,,,
1768295158.709574,1768295158.709646,33.000000,0.000000,4316.282227,4303.717773,4328.974121,4337.307617,4300.512695,4315.897461,4307.179688,4313.461426,4321.794922,4295.000000,4496.538574,4519.487305,4399.358887,4456.410156,0.000000,2.000000,40.000000,,,,0.000000,4.000000,4.000000,4.000000,4.000000,4.000000,4.000000,4.000000,4.000000,4.000000,4.000000,4.000000,4.000000,4.000000,4.000000,100.000000,,,,,,,,,,,,,,,,,,,,,,,,,,,,,,,,,,,,,,,,,,,,,,,,,,,,,,,,,,,,,,,,,,,,,,,,,,,,,,,,,,,,,,,,,,,,,,,,,,,,,,,,,,,,,,,,,,,,,
1768295158.717382,1768295158.717554,34.000000,0.000000,4314.743652,4305.256348,4325.256348,4332.948730,4299.487305,4312.692383,4301.282227,4307.820313,4321.666504,4292.692383,4494.871582,4517.692383,4397.563965,4450.128418,0.000000,2.000000,40.000000,,,,0.000000,4.000000,4.000000,4.000000,4.000000,4.000000,4.000000,4.000000,4.000000,4.000000,4.000000,4.000000,4.000000,4.000000,4.000000,100.000000,,,,,,,,,,,,,,,,,,,,,,,,,,,,,,,,,,,,,,,,,,,,,,,,,,,,,,,,,,,,,,,,,,,,,,,,,,,,,,,,,,,,,,,,,,,,,,,,,,,,,,,,,,,,,,,,,,,,,
1768295158.725191,1768295158.725363,35.000000,0.000000,4326.282227,4313.846191,4333.589844,4338.077148,4305.256348,4313.333496,4300.256348,4304.615234,4320.641113,4301.153809,4495.512695,4521.538574,4399.615234,4458.974121,0.000000,2.000000,40.000000,,,,0.000000,4.000000,4.000000,4.000000,4.000000,4.000000,4.000000,4.000000,4.000000,4.000000,4.000000,4.000000,4.000000,4.000000,4.000000,100.000000,,,,,,,,,,,,,,,,,,,,,,,,,,,,,,,,,,,,,,,,,,,,,,,,,,,,,,,,,,,,,,,,,,,,,,,,,,,,,,,,,,,,,,,,,,,,,,,,,,,,,,,,,,,,,,,,,,,,,
1768295158.732999,1768295158.733371,36.000000,0.000000,4338.717773,4321.153809,4346.410156,4350.128418,4308.717773,4315.000000,4304.871582,4303.077148,4320.128418,4308.077148,4498.205078,4528.077148,4407.563965,4473.333496,0.000000,2.000000,40.000000,,,,0.000000,4.000000,4.000000,4.000000,4.000000,4.000000,4.000000,4.000000,4.000000,4.000000,4.000000,4.000000,4.000000,4.000000,4.000000,100.000000,,,,,,,,,,,,,,,,,,,,,,,,,,,,,,,,,,,,,,,,,,,,,,,,,,,,,,,,,,,,,,,,,,,,,,,,,,,,,,,,,,,,,,,,,,,,,,,,,,,,,,,,,,,,,,,,,,,,,
1768295158.740807,1768295158.741180,37.000000,0.000000,4341.538574,4319.615234,4349.743652,4351.282227,4305.512695,4314.615234,4305.897461,4301.794922,4323.717773,4301.922852,4498.077148,4529.615234,4403.205078,4469.871582,0.000000,2.000000,40.000000,,,,0.000000,4.000000,4.000000,4.000000,4.000000,4.000000,4.000000,4.000000,4.000000,4.000000,4.000000,4.000000,4.000000,4.000000,4.000000,100.000000,,,,,,,,,,,,,,,,,,,,,,,,,,,,,,,,,,,,,,,,,,,,,,,,,,,,,,,,,,,,,,,,,,,,,,,,,,,,,,,,,,,,,,,,,,,,,,,,,,,,,,,,,,,,,,,,,,,,,
1768295158.748616,1768295158.748888,38.000000,0.000000,4334.358887,4317.307617,4342.436035,4344.487305,4301.794922,4315.641113,4301.410156,4307.820313,4325.769043,4294.615234,4497.051270,4526.025879,4393.846191,4457.563965,0.000000,2.000000,40.000000,,,,0.000000,4.000000,4.000000,4.000000,4.000000,4.000000,4.000000,4.000000,4.000000,4.000000,4.000000,4.000000,4.000000,4.000000,4.000000,100.000000,,,,,,,,,,,,,,,,,,,,,,,,,,,,,,,,,,,,,,,,,,,,,,,,,,,,,,,,,,,,,,,,,,,,,,,,,,,,,,,,,,,,,,,,,,,,,,,,,,,,,,,,,,,,,,,,,,,,,
1768295158.756424,1768295158.756697,39.000000,0.000000,4327.051270,4318.461426,4337.179688,4343.974121,4302.948730,4316.282227,4301.922852,4312.948730,4322.179688,4300.769043,4496.153809,4520.897461,4396.666504,4453.461426,0.000000,2.000000,40.000000,,,,0.000000,4.000000,4.000000,4.000000,4.000000,4.000000,4.000000,4.000000,4.000000,4.000000,4.000000,4.000000,4.000000,4.000000,4.000000,100.000000,,,,,,,,,,,,,,,,,,,,,,,,,,,,,,,,,,,,,,,,,,,,,,,,,,,,,,,,,,,,,,,,,,,,,,,,,,,,,,,,,,,,,,,,,,,,,,,,,,,,,,,,,,,,,,,,,,,,,
1768295158.764233,1768295158.764705,40.000000,0.000000,4325.000000,4316.282227,4333.846191,4347.179688,4305.512695,4313.846191,4307.820313,4308.717773,4319.871582,4308.589844,4491.794922,4514.487305,4399.358887,4451.153809,0.000000,2.000000,40.000000,,,,0.000000,4.000000,4.000000,4.000000,4.000000,4.000000,4.000000,4.000000,4.000000,4.000000,4.000000,4.000000,4.000000,4.000000,4.000000,100.000000,,,,,,,,,,,,,,,,,,,,,,,,,,,,,,,,,,,,,,,,,,,,,,,,,,,,,,,,,,,,,,,,,,,,,,,,,,,,,,,,,,,,,,,,,,,,,,,,,,,,,,,,,,,,,,,,,,,,,
1768295158.772041,1768295158.772513,41.000000,0.000000,4322.436035,4311.538574,4334.487305,4347.179688,4308.846191,4313.717773,4309.615234,4309.230957,4323.205078,4302.436035,4490.256348,4516.153809,4396.794922,4454.487305,0.000000,2.000000,40.000000,,,,0.000000,4.000000,4.000000,4.000000,4.000000,4.000000,4.000000,4.000000,4.000000,4.000000,4.000000,4.000000,4.000000,4.000000,4.000000,100.000000,,,,,,,,,,,,,,,,,,,,,,,,,,,,,,,,,,,,,,,,,,,,,,,,,,,,,,,,,,,,,,,,,,,,,,,,,,,,,,,,,,,,,,,,,,,,,,,,,,,,,,,,,,,,,,,,,,,,,
1768295158.779849,1768295158.780422,42.000000,0.000000,4323.205078,4314.102539,4339.230957,4346.153809,4310.641113,4315.000000,4306.666504,4318.077148,4326.410156,4296.794922,4496.794922,4530.128418,4405.128418,4471.666504,0.000000,2.000000,40.000000,,,,0.000000,4.000000,4.000000,4.000000,4.000000,4.000000,4.000000,4.000000,4.000000,4.000000,4.000000,4.000000,4.000000,4.000000,4.000000,100.000000,,,,,,,,,,,,,,,,,,,,,,,,,,,,,,,,,,,,,,,,,,,,,,,,,,,,,,,,,,,,,,,,,,,,,,,,,,,,,,,,,,,,,,,,,,,,,,,,,,,,,,,,,,,,,,,,,,,,,
1768295158.787658,1768295158.788230,43.000000,0.000000,4324.871582,4312.820313,4336.538574,4343.333496,4306.153809,4314.230957,4304.743652,4316.922852,4322.179688,4299.102539,4499.230957,4531.666504,4408.205078,4475.641113,0.000000,2.000000,40.000000,,,,0.000000,4.000000,4.000000,4.000000,4.000000,4.000000,4.000000,4.000000,4.000000,4.000000,4.000000,4.000000,4.000000,4.000000,4.000000,100.000000,,,,,,,,,,,,,,,,,,,,,,,,,,,,,,,,,,,,,,,,,,,,,,,,,,,,,,,,,,,,,,,,,,,,,,,,,,,,,,,,,,,,,,,,,,,,,,,,,,,,,,,,,,,,,,,,,,,,,
1768295158.795466,1768295158.796038,44.000000,0.000000,4321.922852,4306.410156,4331.922852,4344.487305,4305.897461,4314.743652,4305.512695,4309.743652,4319.102539,4294.487305,4494.743652,4518.974121,4394.358887,4460.384766,0.000000,2.000000,40.000000,,,,0.000000,4.000000,4.000000,4.000000,4.000000,4.000000,4.000000,4.000000,4.000000,4.000000,4.000000,4.000000,4.000000,4.000000,4.000000,100.000000,,,,,,,,,,,,,,,,,,,,,,,,,,,,,,,,,,,,,,,,,,,,,,,,,,,,,,,,,,,,,,,,,,,,,,,,,,,,,,,,,,,,,,,,,,,,,,,,,,,,,,,,,,,,,,,,,,,,,
1768295158.803275,1768295158.803847,45.000000,0.000000,4323.461426,4310.128418,4334.615234,4347.820313,4312.948730,4315.000000,4304.871582,4312.179688,4322.948730,4288.205078,4495.769043,4516.666504,4393.205078,4459.230957,0.000000,2.000000,40.000000,,,,0.000000,4.000000,4.000000,4.000000,4.000000,4.000000,4.000000,4.000000,4.000000,4.000000,4.000000,4.000000,4.000000,4.000000,4.000000,100.000000,,,,,,,,,,,,,,,,,,,,,,,,,,,,,,,,,,,,,,,,,,,,,,,,,,,,,,,,,,,,,,,,,,,,,,,,,,,,,,,,,,,,,,,,,,,,,,,,,,,,,,,,,,,,,,,,,,,,,
1768295158.811083,1768295158.811555,46.000000,0.000000,4331.025879,4318.333496,4340.256348,4347.051270,4308.333496,4311.410156,4300.641113,4312.820313,4323.205078,4293.589844,4500.128418,4521.922852,4406.410156,4469.487305,0.000000,2.000000,40.000000,,,,0.000000,4.000000,4.000000,4.000000,4.000000,4.000000,4.000000,4.000000,4.000000,4.000000,4.000000,4.000000,4.000000,4.000000,4.000000,100.000000,,,,,,,,,,,,,,,,,,,,,,,,,,,,,,,,,,,,,,,,,,,,,,,,1.638970,1.207794,0.199475,0.306912,0.143207,1.041340,0.705070,0.167892,0.222584,0.097536,1.256416,0.989202,0.234072,0.199521,0.128773,0.967115,0.294599,0.154904,0.209945,0.080377,0.546154,0.129611,0.113930,0.087684,0.066728,0.291322,0.126160,0.154707,0.065831,0.120644,0.233393,0.244316,0.300687,0.157676,0.403268,0.902476,0.861749,0.213023,0.204884,0.190795,0.247573,0.448857,0.181205,0.099549,0.063967,0.333968,0.646320,0.378623,0.718160,0.299665,0.159139,0.326193,0.093259,0.094342,0.048394,1.551810,1.465679,0.316910,0.512828,0.185040,0.656132,0.634565,0.341568,0.364241,0.192564,1.270729,1.270634,0.384162,0.446325,0.203683
1768295158.818892,1768295158.819364,47.000000,0.000000,4338.717773,4319.358887,4346.538574,4349.487305,4302.563965,4311.153809,4298.333496,4304.230957,4317.436035,4295.512695,4498.717773,4522.692383,4405.512695,4468.846191,0.000000,2.000000,40.000000,,,,0.000000,4.000000,4.000000,4.000000,4.000000,4.000000,4.000000,4.000000,4.000000,4.000000,4.000000,4.000000,4.000000,4.000000,4.000000,100.000000,,,,,,,,,,,,,,,,,,,,,,,,,,,,,,,,,,,,,,,,,,,,,,,,,,,,,,,,,,,,,,,,,,,,,,,,,,,,,,,,,,,,,,,,,,,,,,,,,,,,,,,,,,,,,,,,,,,,,
1768295158.826700,1768295158.827372,48.000000,0.000000,4337.948730,4316.922852,4346.794922,4352.563965,4311.666504,4315.641113,4302.307617,4306.025879,4318.717773,4290.769043,4498.077148,4524.871582,4399.230957,4466.153809,0.000000,2.000000,40.000000,,,,0.000000,4.000000,4.000000,4.000000,4.000000,4.000000,4.000000,4.000000,4.000000,4.000000,4.000000,4.000000,4.000000,4.000000,4.000000,100.000000,,,,,,,,,,,,,,,,,,,,,,,,,,,,,,,,,,,,,,,,,,,,,,,,,,,,,,,,,,,,,,,,,,,,,,,,,,,,,,,,,,,,,,,,,,,,,,,,,,,,,,,,,,,,,,,,,,,,,
1768295158.834508,1768295158.835181,49.000000,0.000000,4326.922852,4319.102539,4338.974121,4350.128418,4313.846191,4318.333496,4305.384766,4313.974121,4324.358887,4300.384766,4498.333496,4528.461426,4403.717773,4468.717773,0.000000,2.000000,40.000000,,,,0.000000,4.000000,4.000000,4.000000,4.000000,4.000000,4.000000,4.000000,4.000000,4.000000,4.000000,4.000000,4.000000,4.000000,4.000000,100.000000,,,,,,,,,,,,,,,,,,,,,,,,,,,,,,,,,,,,,,,,,,,,,,,,,,,,,,,,,,,,,,,,,,,,,,,,,,,,,,,,,,,,,,,,,,,,,,,,,,,,,,,,,,,,,,,,,,,,,
1768295158.842317,1768295158.843089,50.000000,0.000000,4323.974121,4321.282227,4336.794922,4347.563965,4306.282227,4311.153809,4296.666504,4312.692383,4323.205078,4310.512695,4496.025879,4527.436035,4406.153809,4470.384766,0.000000,2.000000,40.000000,,,,0.000000,4.000000,4.000000,4.000000,4.000000,4.000000,4.000000,4.000000,4.000000,4.000000,4.000000,4.000000,4.000000,4.000000,4.000000,100.000000,,,,,,,,,,,,,,,,,,,,,,,,,,,,,,,,,,,,,,,,,,,,,,,,,,,,,,,,,,,,,,,,,,,,,,,,,,,,,,,,,,,,,,,,,,,,,,,,,,,,,,,,,,,,,,,,,,,,,
1768295158.850125,1768295158.850897,51.000000,0.000000,4339.358887,4320.128418,4342.948730,4346.922852,4305.769043,4305.128418,4290.897461,4312.563965,4322.436035,4302.948730,4497.179688,4532.179688,4403.974121,4476.666504,0.000000,2.000000,40.000000,,,,0.000000,4.000000,4.000000,4.000000,4.000000,4.000000,4.000000,4.000000,4.000000,4.000000,4.000000,4.000000,4.000000,4.000000,4.000000,100.000000,,,,,,,,,,,,,,,,,,,,,,,,,,,,,,,,,,,,,,,,,,,,,,,,,,,,,,,,,,,,,,,,,,,,,,,,,,,,,,,,,,,,,,,,,,,,,,,,,,,,,,,,,,,,,,,,,,,,,
1768295158.857934,1768295158.858506,52.000000,0.000000,4352.820313,4321.410156,4347.436035,4346.922852,4309.615234,4309.615234,4299.871582,4313.974121,4324.487305,4300.512695,4500.897461,4540.256348,4408.333496,4483.589844,0.000000,2.000000,40.000000,,,,0.000000,4.000000,4.000000,4.000000,4.000000,4.000000,4.000000,4.000000,4.000000,4.000000,4.000000,4.000000,4.000000,4.000000,4.000000,100.000000,,,,,,,,,,,,,,,,,,,,,,,,,,,,,,,,,,,,,,,,,,,,,,,,,,,,,,,,,,,,,,,,,,,,,,,,,,,,,,,,,,,,,,,,,,,,,,,,,,,,,,,,,,,,,,,,,,,,,
1768295158.865742,1768295158.866314,53.000000,0.000000,4351.025879,4320.128418,4347.051270,4349.743652,4310.897461,4311.922852,4302.692383,4311.282227,4323.461426,4306.025879,4500.512695,4535.000000,4410.128418,4478.333496,0.000000,2.000000,40.000000,,,,0.000000,4.000000,4.000000,4.000000,4.000000,4.000000,4.000000,4.000000,4.000000,4.000000,4.000000,4.000000,4.000000,4.000000,4.000000,100.000000,,,,,,,,,,,,,,,,,,,,,,,,,,,,,,,,,,,,,,,,,,,,,,,,,,,,,,,,,,,,,,,,,,,,,,,,,,,,,,,,,,,,,,,,,,,,,,,,,,,,,,,,,,,,,,,,,,,,,
1768295158.873551,1768295158.874023,54.000000,0.000000,4342.563965,4315.256348,4341.538574,4348.589844,4312.307617,4310.769043,4300.128418,4309.230957,4320.256348,4298.589844,4498.205078,4520.897461,4404.358887,4466.282227,0.000000,2.000000,40.000000,,,,0.000000,4.000000,4.000000,4.000000,4.000000,4.000000,4.000000,4.000000,4.000000,4.000000,4.000000,4.000000,4.000000,4.000000,4.000000,100.000000,,,,,,,,,,,,,,,,,,,,,,,,,,,,,,,,,,,,,,,,,,,,,,,,,,,,,,,,,,,,,,,,,,,,,,,,,,,,,,,,,,,,,,,,,,,,,,,,,,,,,,,,,,,,,,,,,,,,,
1768295158.881359,1768295158.881831,55.000000,0.000000,4334.487305,4311.282227,4335.769043,4343.589844,4310.128418,4310.769043,4299.487305,4308.974121,4317.436035,4286.922852,4494.615234,4517.563965,4399.615234,4457.307617,0.000000,2.000000,40.000000,,,,0.000000,4.000000,4.000000,4.000000,4.000000,4.000000,4.000000,4.000000,4.000000,4.000000,4.000000,4.000000,4.000000,4.000000,4.000000,100.000000,,,,,,,,,,,,,,,,,,,,,,,,,,,,,,,,,,,,,,,,,,,,,,,,,,,,,,,,,,,,,,,,,,,,,,,,,,,,,,,,,,,,,,,,,,,,,,,,,,,,,,,,,,,,,,,,,,,,,
1768295158.889167,1768295158.889440,56.000000,0.000000,4330.128418,4308.205078,4333.717773,4341.153809,4302.563965,4308.717773,4293.589844,4310.000000,4316.794922,4286.025879,4491.922852,4523.205078,4396.538574,4456.794922,0.000000,2.000000,40.000000,,,,0.000000,4.000000,4.000000,4.000000,4.000000,4.000000,4.000000,4.000000,4.000000,4.000000,4.000000,4.000000,4.000000,4.000000,4.000000,100.000000,,,,,,,,,,,,,,,,,,,,,,,,,,,,,,,,,,,,,,,,,,,,,,,,,,,,,,,,,,,,,,,,,,,,,,,,,,,,,,,,,,,,,,,,,,,,,,,,,,,,,,,,,,,,,,,,,,,,,
1768295158.896976,1768295158.897249,57.000000,0.000000,4325.384766,4298.974121,4335.384766,4339.230957,4299.743652,4309.358887,4294.871582,4311.666504,4317.692383,4281.794922,4492.692383,4520.769043,4393.333496,4459.487305,0.000000,2.000000,40.000000,,,,0.000000,4.000000,4.000000,4.000000,4.000000,4.000000,4.000000,4.000000,4.000000,4.000000,4.000000,4.000000,4.000000,4.000000,4.000000,100.000000,,,,,,,,,,,,,,,,,,,,,,,,,,,,,,,,,,,,,,,,,,,,,,,,,,,,,,,,,,,,,,,,,,,,,,,,,,,,,,,,,,,,,,,,,,,,,,,,,,,,,,,,,,,,,,,,,,,,,
1768295158.904784,1768295158.905157,58.000000,0.000000,4323.974121,4295.512695,4339.615234,4338.589844,4304.358887,4315.512695,4309.358887,4321.538574,4324.358887,4285.769043,4500.384766,4527.436035,4396.538574,4462.563965,0.000000,2.000000,40.000000,,,,0.000000,4.000000,4.000000,4.000000,4.000000,4.000000,4.000000,4.000000,4.000000,4.000000,4.000000,4.000000,4.000000,4.000000,4.000000,100.000000,,,,,,,,,,,,,,,,,,,,,,,,,,,,,,,,,,,,,,,,,,,,,,,,,,,,,,,,,,,,,,,,,,,,,,,,,,,,,,,,,,,,,,,,,,,,,,,,,,,,,,,,,,,,,,,,,,,,,
1768295158.912593,1768295158.912965,59.000000,0.000000,4336.538574,4309.230957,4346.153809,4344.615234,4309.615234,4317.307617,4311.922852,4334.615234,4335.897461,4314.871582,4509.358887,4549.230957,4411.666504,4475.897461,0.000000,2.000000,40.000000,,,,0.000000,4.000000,4.000000,4.000000,4.000000,4.000000,4.000000,4.000000,4.000000,4.000000,4.000000,4.000000,4.000000,4.000000,4.000000,100.000000,,,,,,,,,,,,,,,,,,,,,,,,,,,,,,,,,,,,,,,,,,,,,,,,,,,,,,,,,,,,,,,,,,,,,,,,,,,,,,,,,,,,,,,,,,,,,,,,,,,,,,,,,,,,,,,,,,,,,
1768295158.920401,1768295158.920974,60.000000,0.000000,4349.358887,4322.563965,4355.000000,4355.897461,4313.589844,4312.436035,4300.897461,4330.897461,4335.512695,4328.333496,4508.846191,4556.410156,4420.512695,4486.666504,0.000000,2.000000,40.000000,,,,0.000000,4.000000,4.000000,4.000000,4.000000,4.000000,4.000000,4.000000,4.000000,4.000000,4.000000,4.000000,4.000000,4.000000,4.000000,100.000000,,,,,,,,,,,,,,,,,,,,,,,,,,,,,,,,,,,,,,,,,,,,,,,,,,,,,,,,,,,,,,,,,,,,,,,,,,,,,,,,,,,,,,,,,,,,,,,,,,,,,,,,,,,,,,,,,,,,,
1768295158.928209,1768295158.928782,61.000000,0.000000,4348.589844,4321.922852,4361.410156,4361.282227,4315.769043,4311.025879,4298.077148,4315.641113,4321.153809,4306.153809,4505.384766,4544.743652,4411.410156,4477.820313,0.000000,2.000000,40.000000,,,,0.000000,4.000000,4.000000,4.000000,4.000000,4.000000,4.000000,4.000000,4.000000,4.000000,4.000000,4.000000,4.000000,4.000000,4.000000,100.000000,,,,,,,,,,,,,,,,,,,,,,,,,,,,,,,,,,,,,,,,,,,,,,,,,,,,,,,,,,,,,,,,,,,,,,,,,,,,,,,,,,,,,,,,,,,,,,,,,,,,,,,,,,,,,,,,,,,,,
1768295158.936018,1768295158.936690,62.000000,0.000000,4340.641113,4316.922852,4358.205078,4354.487305,4311.922852,4311.794922,4299.358887,4310.512695,4315.641113,4287.436035,4502.051270,4534.487305,4399.871582,4461.282227,0.000000,2.000000,40.000000,,,,0.000000,4.000000,4.000000,4.000000,4.000000,4.000000,4.000000,4.000000,4.000000,4.000000,4.000000,4.000000,4.000000,4.000000,4.000000,100.000000,,,,,,,,,,,,,,,,,,,,,,,,,,,,,,,,,,,,,,,,,,,,,,,,1.783600,1.228720,0.267855,0.300782,0.141908,1.220910,0.647364,0.199733,0.227476,0.101785,1.204194,1.064527,0.249404,0.201536,0.131806,1.046367,0.262269,0.198517,0.192496,0.082338,0.492338,0.131431,0.104273,0.081484,0.065985,0.291322,0.122036,0.141073,0.060315,0.121178,0.241714,0.300319,0.295240,0.149637,0.398357,0.923281,0.884090,0.233840,0.187590,0.195376,0.255435,0.405222,0.211126,0.106053,0.069459,0.341144,0.591958,0.411759,0.720053,0.302501,0.183782,0.305846,0.115831,0.098397,0.054417,1.667747,1.403110,0.392631,0.503475,0.178661,0.646193,0.576910,0.380319,0.350779,0.188044,1.332472,1.182675,0.398042,0.447751,0.206136
1768295158.943826,1768295158.944499,63.000000,0.000000,4334.358887,4315.769043,4349.743652,4345.641113,4306.153809,4310.384766,4300.256348,4313.077148,4320.000000,4293.846191,4497.948730,4530.897461,4396.794922,4454.487305,0.000000,2.000000,40.000000,,,,0.000000,4.000000,4.000000,4.000000,4.000000,4.000000,4.000000,4.000000,4.000000,4.000000,4.000000,4.000000,4.000000,4.000000,4.000000,100.000000,,,,,,,,,,,,,,,,,,,,,,,,,,,,,,,,,,,,,,,,,,,,,,,,,,,,,,,,,,,,,,,,,,,,,,,,,,,,,,,,,,,,,,,,,,,,,,,,,,,,,,,,,,,,,,,,,,,,,
1768295158.951635,1768295158.952107,64.000000,0.000000,4327.179688,4312.948730,4340.769043,4341.153809,4306.794922,4309.871582,4303.077148,4312.179688,4318.846191,4300.641113,4498.205078,4525.897461,4397.307617,4452.179688,4240.000000,2.000000,40.000000,,,,0.000000,4.000000,4.000000,4.000000,4.000000,4.000000,4.000000,4.000000,4.000000,4.000000,4.000000,4.000000,4.000000,4.000000,4.000000,100.000000,,,,,,,,,,,,,,,,,,,,,,,,,,,,,,,,,,,,,,,,,,,,,,,,,,,,,,,,,,,,,,,,,,,,,,,,,,,,,,,,,,,,,,,,,,,,,,,,,,,,,,,,,,,,,,,,,,,,,
1768295158.959443,1768295158.959916,65.000000,0.000000,4323.846191,4309.871582,4337.436035,4341.025879,4307.948730,4310.897461,4303.333496,4315.512695,4318.846191,4297.307617,4500.128418,4525.641113,4399.230957,4451.538574,3822.000000,2.000000,40.000000,,,,0.000000,4.000000,4.000000,4.000000,4.000000,4.000000,4.000000,4.000000,4.000000,4.000000,4.000000,4.000000,4.000000,4.000000,4.000000,100.000000,,,,,,,,,,,,,,,,,,,,,,,,,,,,,,,,,,,,,,,,,,,,,,,,,,,,,,,,,,,,,,,,,,,,,,,,,,,,,,,,,,,,,,,,,,,,,,,,,,,,,,,,,,,,,,,,,,,,,
1768295158.967252,1768295158.967624,66.000000,0.000000,4326.410156,4312.307617,4341.794922,4341.282227,4303.846191,4309.743652,4301.410156,4322.948730,4325.000000,4293.717773,4500.897461,4532.179688,4404.871582,4456.538574,4031.000000,2.000000,40.000000,,,,0.000000,4.000000,4.000000,4.000000,4.000000,4.000000,4.000000,4.000000,4.000000,4.000000,4.000000,4.000000,4.000000,4.000000,4.000000,100.000000,,,,,,,,,,,,,,,,,,,,,,,,,,,,,,,,,,,,,,,,,,,,,,,,,,,,,,,,,,,,,,,,,,,,,,,,,,,,,,,,,,,,,,,,,,,,,,,,,,,,,,,,,,,,,,,,,,,,,
1768295158.975060,1768295158.975433,67.000000,0.000000,4325.128418,4311.410156,4340.384766,4338.846191,4302.820313,4307.307617,4300.000000,4317.692383,4322.948730,4297.179688,4500.384766,4533.461426,4405.897461,4459.615234,3921.000000,2.000000,40.000000,,,,0.000000,4.000000,4.000000,4.000000,4.000000,4.000000,4.000000,4.000000,4.000000,4.000000,4.000000,4.000000,4.000000,4.000000,4.000000,100.000000,,,,,,,,,,,,,,,,,,,,,,,,,,,,,,,,,,,,,,,,,,,,,,,,,,,,,,,,,,,,,,,,,,,,,,,,,,,,,,,,,,,,,,,,,,,,,,,,,,,,,,,,,,,,,,,,,,,,,
1768295158.982869,1768295158.983441,68.000000,0.000000,4324.230957,4310.256348,4338.589844,4337.948730,4306.025879,4310.641113,4303.077148,4311.410156,4318.974121,4307.820313,4501.025879,4534.871582,4405.641113,4463.333496,3795.000000,2.000000,40.000000,,,,0.000000,4.000000,4.000000,4.000000,4.000000,4.000000,4.000000,4.000000,4.000000,4.000000,4.000000,4.000000,4.000000,4.000000,4.000000,100.000000,,,,,,,,,,,,,,,,,,,,,,,,,,,,,,,,,,,,,,,,,,,,,,,,,,,,,,,,,,,,,,,,,,,,,,,,,,,,,,,,,,,,,,,,,,,,,,,,,,,,,,,,,,,,,,,,,,,,,
1768295158.990677,1768295158.991250,69.000000,0.000000,4327.948730,4311.410156,4344.487305,4341.153809,4303.589844,4314.871582,4306.794922,4318.974121,4322.179688,4307.051270,4502.179688,4540.897461,4407.820313,4465.641113,3228.000000,2.000000,40.000000,,,,0.000000,4.000000,4.000000,4.000000,4.000000,4.000000,4.000000,4.000000,4.000000,4.000000,4.000000,4.000000,4.000000,4.000000,4.000000,100.000000,,,,,,,,,,,,,,,,,,,,,,,,,,,,,,,,,,,,,,,,,,,,,,,,,,,,,,,,,,,,,,,,,,,,,,,,,,,,,,,,,,,,,,,,,,,,,,,,,,,,,,,,,,,,,,,,,,,,,
1768295158.998485,1768295158.998958,70.000000,0.000000,4331.666504,4308.717773,4343.717773,4339.871582,4299.102539,4312.307617,4302.820313,4318.205078,4321.153809,4296.153809,4501.410156,4536.538574,4403.589844,4459.871582,3508.000000,2.000000,40.000000,,,,0.000000,4.000000,4.000000,4.000000,4.000000,4.000000,4.000000,4.000000,4.000000,4.000000,4.000000,4.000000,4.000000,4.000000,4.000000,100.000000,,,,,,,,,,,,,,,,,,,,,,,,,,,,,,,,,,,,,,,,,,,,,,,,,,,,,,,,,,,,,,,,,,,,,,,,,,,,,,,,,,,,,,,,,,,,,,,,,,,,,,,,,,,,,,,,,,,,,
1768295159.006294,1768295159.006767,71.000000,0.000000,4330.769043,4304.230957,4336.025879,4336.410156,4300.384766,4309.743652,4300.512695,4313.717773,4321.153809,4293.461426,4499.871582,4530.769043,4402.179688,4459.487305,3468.000000,2.000000,40.000000,,,,0.000000,4.000000,4.000000,4.000000,4.000000,4.000000,4.000000,4.000000,4.000000,4.000000,4.000000,4.000000,4.000000,4.000000,4.000000,100.000000,,,,,,,,,,,,,,,,,,,,,,,,,,,,,,,,,,,,,,,,,,,,,,,,,,,,,,,,,,,,,,,,,,,,,,,,,,,,,,,,,,,,,,,,,,,,,,,,,,,,,,,,,,,,,,,,,,,,,
1768295159.014102,1768295159.014775,72.000000,0.000000,4329.102539,4302.436035,4336.794922,4337.307617,4302.948730,4308.717773,4302.051270,4318.461426,4323.846191,4297.820313,4499.615234,4535.897461,4408.974121,4470.000000,2586.000000,2.000000,40.000000,,,,0.000000,4.000000,4.000000,4.000000,4.000000,4.000000,4.000000,4.000000,4.000000,4.000000,4.000000,4.000000,4.000000,4.000000,4.000000,100.000000,,,,,,,,,,,,,,,,,,,,,,,,,,,,,,,,,,,,,,,,,,,,,,,,,,,,,,,,,,,,,,,,,,,,,,,,,,,,,,,,,,,,,,,,,,,,,,,,,,,,,,,,,,,,,,,,,,,,,
1768295159.021911,1768295159.022583,73.000000,0.000000,4336.153809,4305.897461,4345.128418,4340.128418,4306.025879,4309.743652,4300.641113,4317.436035,4321.153809,4298.974121,4504.871582,4543.589844,4413.717773,4474.615234,3577.000000,2.000000,40.000000,,,,0.000000,4.000000,4.000000,4.000000,4.000000,4.000000,4.000000,4.000000,4.000000,4.000000,4.000000,4.000000,4.000000,4.000000,4.000000,100.000000,,,,,,,,,,,,,,,,,,,,,,,,,,,,,,,,,,,,,,,,,,,,,,,,,,,,,,,,,,,,,,,,,,,,,,,,,,,,,,,,,,,,,,,,,,,,,,,,,,,,,,,,,,,,,,,,,,,,,
1768295159.029719,1768295159.030292,74.000000,0.000000,4346.538574,4311.538574,4348.461426,4342.820313,4310.512695,4314.615234,4304.743652,4316.025879,4322.436035,4302.820313,4511.538574,4547.179688,4413.846191,4473.205078,3810.000000,2.000000,40.000000,,,,0.000000,4.000000,4.000000,4.000000,4.000000,4.000000,4.000000,4.000000,4.000000,4.000000,4.000000,4.000000,4.000000,4.000000,4.000000,100.000000,,,,,,,,,,,,,,,,,,,,,,,,,,,,,,,,,,,,,,,,,,,,,,,,,,,,,,,,,,,,,,,,,,,,,,,,,,,,,,,,,,,,,,,,,,,,,,,,,,,,,,,,,,,,,,,,,,,,,
1768295159.037527,1768295159.038100,75.000000,0.000000,4342.692383,4313.205078,4342.563965,4340.769043,4310.769043,4315.384766,4309.743652,4318.077148,4325.641113,4311.153809,4508.589844,4543.205078,4412.692383,4470.512695,4691.000000,2.000000,40.000000,,,,0.000000,4.000000,4.000000,4.000000,4.000000,4.000000,4.000000,4.000000,4.000000,4.000000,4.000000,4.000000,4.000000,4.000000,4.000000,100.000000,,,,,,,,,,,,,,,,,,,,,,,,,,,,,,,,,,,,,,,,,,,,,,,,,,,,,,,,,,,,,,,,,,,,,,,,,,,,,,,,,,,,,,,,,,,,,,,,,,,,,,,,,,,,,,,,,,,,,
1768295159.045336,1768295159.046109,76.000000,0.000000,4327.948730,4313.205078,4335.384766,4335.641113,4303.205078,4309.102539,4305.000000,4315.897461,4319.615234,4307.179688,4501.153809,4531.153809,4407.051270,4462.307617,2393.000000,2.000000,40.000000,,,,0.000000,4.000000,4.000000,4.000000,4.000000,4.000000,4.000000,4.000000,4.000000,4.000000,4.000000,4.000000,4.000000,4.000000,4.000000,100.000000,,,,,,,,,,,,,,,,,,,,,,,,,,,,,,,,,,,,,,,,,,,,,,,,,,,,,,,,,,,,,,,,,,,,,,,,,,,,,,,,,,,,,,,,,,,,,,,,,,,,,,,,,,,,,,,,,,,,,
1768295159.053144,1768295159.053917,77.000000,0.000000,4328.333496,4319.871582,4338.974121,4336.922852,4298.717773,4306.922852,4301.666504,4314.487305,4315.384766,4295.769043,4497.948730,4524.743652,4398.846191,4456.153809,5430.000000,2.000000,40.000000,,,,0.000000,4.000000,4.000000,4.000000,4.000000,4.000000,4.000000,4.000000,4.000000,4.000000,4.000000,4.000000,4.000000,4.000000,4.000000,100.000000,,,,,,,,,,,,,,,,,,,,,,,,,,,,,,,,,,,,,,,,,,,,,,,,,,,,,,,,,,,,,,,,,,,,,,,,,,,,,,,,,,,,,,,,,,,,,,,,,,,,,,,,,,,,,,,,,,,,,
1768295159.060953,1768295159.061626,78.000000,0.000000,4335.384766,4327.820313,4341.538574,4341.410156,4300.641113,4309.743652,4300.384766,4316.538574,4318.077148,4293.846191,4493.974121,4524.871582,4395.000000,4454.487305,3810.000000,2.000000,40.000000,,,,0.000000,4.000000,4.000000,4.000000,4.000000,4.000000,4.000000,4.000000,4.000000,4.000000,4.000000,4.000000,4.000000,4.000000,4.000000,100.000000,1.000000,25.000000,4.000000,4.000000,4.000000,4.000000,4.000000,1.000000,4.000000,4.000000,1.000000,4.000000,1.000000,4.000000,4.000000,4.000000,,,,,,,,,,,,,,,,,,,,,,,,,,,,,,,,1.763039,1.164989,0.382314,0.295511,0.152856,1.349336,0.592849,0.240978,0.229740,0.109909,1.129110,1.112653,0.286702,0.208065,0.143291,1.074844,0.229271,0.256706,0.178754,0.086684,0.453442,0.140416,0.112835,0.075096,0.066863,0.270362,0.117784,0.132851,0.054834,0.114204,0.227582,0.374905,0.320559,0.156419,0.379275,0.874282,0.865048,0.265355,0.175783,0.205588,0.259967,0.350620,0.247339,0.117701,0.076155,0.338897,0.574344,0.455956,0.706106,0.299622,0.205221,0.273626,0.149336,0.101655,0.062416,1.645022,1.311613,0.491696,0.501999,0.177589,0.619603,0.507249,0.446060,0.345526,0.187285,1.344694,1.034649,0.425335,0.460477,0.212890
1768295159.068761,1768295159.069434,79.000000,0.000000,4330.128418,4331.794922,4335.000000,4340.897461,4300.512695,4309.358887,4296.538574,4317.436035,4316.282227,4290.000000,4494.487305,4523.461426,4401.538574,4454.358887,4691.000000,2.000000,40.000000,,,,0.000000,4.000000,4.000000,4.000000,4.000000,4.000000,4.000000,4.000000,4.000000,4.000000,4.000000,4.000000,4.000000,4.000000,4.000000,100.000000,,,,,,,,,,,,,,,,,,,,,,,,,,,,,,,,,,,,,,,,,,,,,,,,,,,,,,,,,,,,,,,,,,,,,,,,,,,,,,,,,,,,,,,,,,,,,,,,,,,,,,,,,,,,,,,,,,,,,
1768295159.076569,1768295159.077442,80.000000,0.000000,4325.641113,4335.256348,4339.230957,4341.153809,4298.974121,4308.846191,4299.615234,4320.000000,4316.666504,4285.641113,4502.692383,4527.820313,4410.256348,4462.051270,2393.000000,2.000000,40.000000,,,,0.000000,4.000000,4.000000,4.000000,4.000000,4.000000,4.000000,4.000000,4.000000,4.000000,4.000000,4.000000,4.000000,4.000000,4.000000,100.000000,,,,,,,,,,,,,,,,,,,,,,,,,,,,,,,,,,,,,,,,,,,,,,,,,,,,,,,,,,,,,,,,,,,,,,,,,,,,,,,,,,,,,,,,,,,,,,,,,,,,,,,,,,,,,,,,,,,,,
1768295159.084378,1768295159.085251,81.000000,0.000000,4325.769043,4332.179688,4343.846191,4341.922852,4301.153809,4312.051270,4304.743652,4321.025879,4320.384766,4295.384766,4502.692383,4529.743652,4403.205078,4461.666504,5430.000000,2.000000,40.000000,,,,0.000000,4.000000,4.000000,4.000000,4.000000,4.000000,4.000000,4.000000,4.000000,4.000000,4.000000,4.000000,4.000000,4.000000,4.000000,100.000000,,,,,,,,,,,,,,,,,,,,,,,,,,,,,,,,,,,,,,,,,,,,,,,,,,,,,,,,,,,,,,,,,,,,,,,,,,,,,,,,,,,,,,,,,,,,,,,,,,,,,,,,,,,,,,,,,,,,,
1768295159.092186,1768295159.092959,82.000000,0.000000,4324.230957,4329.102539,4337.051270,4342.820313,4305.897461,4313.589844,4299.615234,4314.615234,4318.589844,4302.436035,4495.512695,4520.897461,4391.538574,4448.077148,3810.000000,2.000000,40.000000,,,,0.000000,4.000000,4.000000,4.000000,4.000000,4.000000,4.000000,4.000000,4.000000,4.000000,4.000000,4.000000,4.000000,4.000000,4.000000,100.000000,,,,,,,,,,,,,,,,,,,,,,,,,,,,,,,,,,,,,,,,,,,,,,,,,,,,,,,,,,,,,,,,,,,,,,,,,,,,,,,,,,,,,,,,,,,,,,,,,,,,,,,,,,,,,,,,,,,,,
1768295159.099995,1768295159.100768,83.000000,0.000000,4329.102539,4335.512695,4335.000000,4347.179688,4305.128418,4313.333496,4299.871582,4310.256348,4314.615234,4297.179688,4494.615234,4518.077148,4397.436035,4446.794922,4691.000000,2.000000,40.000000,,,,0.000000,4.000000,4.000000,4.000000,4.000000,4.000000,4.000000,4.000000,4.000000,4.000000,4.000000,4.000000,4.000000,4.000000,4.000000,100.000000,,,,,,,,,,,,,,,,,,,,,,,,,,,,,,,,,,,,,,,,,,,,,,,,,,,,,,,,,,,,,,,,,,,,,,,,,,,,,,,,,,,,,,,,,,,,,,,,,,,,,,,,,,,,,,,,,,,,,
1768295159.107803,1768295159.108776,84.000000,0.000000,4337.436035,4338.974121,4334.871582,4348.077148,4299.743652,4313.333496,4303.846191,4313.589844,4315.256348,4295.641113,4498.333496,4522.820313,4404.230957,4458.333496,2393.000000,2.000000,40.000000,,,,0.000000,4.000000,4.000000,4.000000,4.000000,4.000000,4.000000,4.000000,4.000000,4.000000,4.000000,4.000000,4.000000,4.000000,4.000000,100.000000,,,,,,,,,,,,,,,,,,,,,,,,,,,,,,,,,,,,,,,,,,,,,,,,,,,,,,,,,,,,,,,,,,,,,,,,,,,,,,,,,,,,,,,,,,,,,,,,,,,,,,,,,,,,,,,,,,,,,
1768295159.115612,1768295159.116584,85.000000,0.000000,4335.897461,4337.179688,4331.153809,4345.897461,4301.922852,4310.897461,4297.307617,4310.897461,4316.153809,4298.717773,4498.846191,4520.512695,4401.538574,4458.205078,5430.000000,2.000000,40.000000,,,,0.000000,4.000000,4.000000,4.000000,4.000000,4.000000,4.000000,4.000000,4.000000,4.000000,4.000000,4.000000,4.000000,4.000000,4.000000,100.000000,,,,,,,,,,,,,,,,,,,,,,,,,,,,,,,,,,,,,,,,,,,,,,,,,,,,,,,,,,,,,,,,,,,,,,,,,,,,,,,,,,,,,,,,,,,,,,,,,,,,,,,,,,,,,,,,,,,,,
1768295159.123420,1768295159.124493,86.000000,0.000000,4328.589844,4335.256348,4330.256348,4345.256348,4305.897461,4311.538574,4295.384766,4304.615234,4311.538574,4297.051270,4498.461426,4516.666504,4402.820313,4451.282227,3810.000000,2.000000,40.000000,,,,0.000000,4.000000,4.000000,4.000000,4.000000,4.000000,4.000000,4.000000,4.000000,4.000000,4.000000,4.000000,4.000000,4.000000,4.000000,100.000000,,,,,,,,,,,,,,,,,,,,,,,,,,,,,,,,,,,,,,,,,,,,,,,,,,,,,,,,,,,,,,,,,,,,,,,,,,,,,,,,,,,,,,,,,,,,,,,,,,,,,,,,,,,,,,,,,,,,,
1768295159.131229,1768295159.132301,87.000000,0.000000,4326.153809,4330.769043,4329.102539,4341.025879,4299.615234,4312.307617,4300.897461,4311.410156,4311.025879,4297.820313,4499.743652,4522.179688,4406.794922,4455.512695,4691.000000,2.000000,40.000000,,,,0.000000,4.000000,4.000000,4.000000,4.000000,4.000000,4.000000,4.000000,4.000000,4.000000,4.000000,4.000000,4.000000,4.000000,4.000000,100.000000,,,,,,,,,,,,,,,,,,,,,,,,,,,,,,,,,,,,,,,,,,,,,,,,,,,,,,,,,,,,,,,,,,,,,,,,,,,,,,,,,,,,,,,,,,,,,,,,,,,,,,,,,,,,,,,,,,,,,
1768295159.139037,1768295159.140309,88.000000,0.000000,4331.922852,4330.128418,4330.000000,4342.436035,4293.333496,4304.743652,4299.230957,4317.948730,4316.922852,4297.179688,4500.512695,4529.487305,4409.487305,4465.769043,2393.000000,2.000000,40.000000,,,,0.000000,4.000000,4.000000,4.000000,4.000000,4.000000,4.000000,4.000000,4.000000,4.000000,4.000000,4.000000,4.000000,4.000000,4.000000,100.000000,,,,,,,,,,,,,,,,,,,,,,,,,,,,,,,,,,,,,,,,,,,,,,,,,,,,,,,,,,,,,,,,,,,,,,,,,,,,,,,,,,,,,,,,,,,,,,,,,,,,,,,,,,,,,,,,,,,,,
1768295159.146845,1768295159.148118,89.000000,0.000000,4338.589844,4334.487305,4339.230957,4348.589844,4297.436035,4304.230957,4300.641113,4315.897461,4319.871582,4294.871582,4502.436035,4533.205078,4412.051270,4471.410156,5430.000000,2.000000,40.000000,,,,0.000000,4.000000,4.000000,4.000000,4.000000,4.000000,4.000000,4.000000,4.000000,4.000000,4.000000,4.000000,4.000000,4.000000,4.000000,100.000000,,,,,,,,,,,,,,,,,,,,,,,,,,,,,,,,,,,,,,,,,,,,,,,,,,,,,,,,,,,,,,,,,,,,,,,,,,,,,,,,,,,,,,,,,,,,,,,,,,,,,,,,,,,,,,,,,,,,,
1768295159.154654,1768295159.156026,90.000000,0.000000,4338.461426,4329.871582,4341.025879,4344.230957,4301.922852,4307.436035,4306.282227,4312.820313,4317.307617,4300.641113,4501.922852,4532.948730,4411.153809,4468.974121,3810.000000,2.000000,40.000000,,,,0.000000,4.000000,4.000000,4.000000,4.000000,4.000000,4.000000,4.000000,4.000000,4.000000,4.000000,4.000000,4.000000,4.000000,4.000000,100.000000,,,,,,,,,,,,,,,,,,,,,,,,,,,,,,,,,,,,,,,,,,,,,,,,,,,,,,,,,,,,,,,,,,,,,,,,,,,,,,,,,,,,,,,,,,,,,,,,,,,,,,,,,,,,,,,,,,,,,
1768295159.162462,1768295159.163835,91.000000,0.000000,4337.692383,4324.358887,4335.769043,4339.358887,4300.384766,4302.563965,4300.769043,4311.153809,4315.000000,4303.589844,4498.461426,4530.128418,4408.461426,4465.769043,4691.000000,2.000000,40.000000,,,,0.000000,4.000000,4.000000,4.000000,4.000000,4.000000,4.000000,4.000000,4.000000,4.000000,4.000000,4.000000,4.000000,4.000000,4.000000,100.000000,,,,,,,,,,,,,,,,,,,,,,,,,,,,,,,,,,,,,,,,,,,,,,,,,,,,,,,,,,,,,,,,,,,,,,,,,,,,,,,,,,,,,,,,,,,,,,,,,,,,,,,,,,,,,,,,,,,,,
1768295159.170271,1768295159.171443,92.000000,0.000000,4340.384766,4328.846191,4341.666504,4349.358887,4299.615234,4301.666504,4298.974121,4315.897461,4316.794922,4298.077148,4499.743652,4533.333496,4410.384766,4468.717773,2393.000000,2.000000,40.000000,,,,0.000000,4.000000,4.000000,4.000000,4.000000,4.000000,4.000000,4.000000,4.000000,4.000000,4.000000,4.000000,4.000000,4.000000,4.000000,100.000000,,,,,,,,,,,,,,,,,,,,,,,,,,,,,,,,,,,,,,,,,,,,,,,,,,,,,,,,,,,,,,,,,,,,,,,,,,,,,,,,,,,,,,,,,,,,,,,,,,,,,,,,,,,,,,,,,,,,,
1768295159.178079,1768295159.179252,93.000000,0.000000,4341.794922,4331.794922,4346.282227,4353.461426,4301.794922,4307.436035,4307.436035,4321.410156,4320.000000,4295.256348,4503.589844,4537.948730,4411.282227,4470.384766,5430.000000,2.000000,40.000000,,,,0.000000,4.000000,4.000000,4.000000,4.000000,4.000000,4.000000,4.000000,4.000000,4.000000,4.000000,4.000000,4.000000,4.000000,4.000000,100.000000,,,,,,,,,,,,,,,,,,,,,,,,,,,,,,,,,,,,,,,,,,,,,,,,,,,,,,,,,,,,,,,,,,,,,,,,,,,,,,,,,,,,,,,,,,,,,,,,,,,,,,,,,,,,,,,,,,,,,
1768295159.185887,1768295159.186960,94.000000,0.000000,4342.563965,4328.717773,4342.948730,4346.153809,4303.333496,4305.512695,4304.615234,4316.538574,4318.846191,4298.205078,4502.820313,4535.641113,4408.846191,4468.974121,3810.000000,2.000000,40.000000,,,,0.000000,4.000000,4.000000,4.000000,4.000000,4.000000,4.000000,4.000000,4.000000,4.000000,4.000000,4.000000,4.000000,4.000000,4.000000,100.000000,,,,,,,,,,,,,,,,,,,,,,,,,,,,,,,,,,,,,,,,,,,,,,,,1.593161,1.035872,0.534183,0.302526,0.167726,1.385561,0.568878,0.278337,0.229109,0.120940,1.047300,1.111819,0.340269,0.220605,0.158215,1.037119,0.203899,0.315371,0.171450,0.091543,0.421824,0.151543,0.134199,0.071244,0.070608,0.238052,0.115890,0.126440,0.049713,0.101427,0.198050,0.450240,0.360559,0.175056,0.346582,0.778139,0.817362,0.315817,0.172981,0.216711,0.258589,0.298902,0.281794,0.133575,0.082027,0.315583,0.595245,0.528947,0.685734,0.297012,0.221993,0.233178,0.186134,0.105187,0.070703,1.528254,1.178529,0.609863,0.509816,0.182164,0.595259,0.432702,0.522050,0.346877,0.187401,1.361097,0.865764,0.481788,0.484941,0.220182
1768295159.193696,1768295159.194769,95.000000,0.000000,4344.743652,4326.282227,4344.743652,4348.974121,4304.743652,4303.589844,4299.230957,4312.179688,4315.000000,4297.307617,4501.410156,4536.922852,4410.641113,4472.692383,4691.000000,2.000000,40.000000,,,,0.000000,4.000000,4.000000,4.000000,4.000000,4.000000,4.000000,4.000000,4.000000,4.000000,4.000000,4.000000,4.000000,4.000000,4.000000,100.000000,,,,,,,,,,,,,,,,,,,,,,,,,,,,,,,,,,,,,,,,,,,,,,,,,,,,,,,,,,,,,,,,,,,,,,,,,,,,,,,,,,,,,,,,,,,,,,,,,,,,,,,,,,,,,,,,,,,,,
1768295159.201504,1768295159.202377,96.000000,0.000000,4348.717773,4326.153809,4352.948730,4354.871582,4310.641113,4311.282227,4307.307617,4323.974121,4319.615234,4292.436035,4506.666504,4545.769043,4412.436035,4481.410156,2393.000000,2.000000,40.000000,,,,0.000000,4.000000,4.000000,4.000000,4.000000,4.000000,4.000000,4.000000,4.000000,4.000000,4.000000,4.000000,4.000000,4.000000,4.000000,100.000000,,,,,,,,,,,,,,,,,,,,,,,,,,,,,,,,,,,,,,,,,,,,,,,,,,,,,,,,,,,,,,,,,,,,,,,,,,,,,,,,,,,,,,,,,,,,,,,,,,,,,,,,,,,,,,,,,,,,,
1768295159.209313,1768295159.210186,97.000000,0.000000,4350.512695,4328.589844,4355.769043,4350.512695,4312.307617,4310.256348,4309.743652,4329.358887,4324.871582,4294.871582,4511.025879,4546.666504,4411.410156,4481.538574,5430.000000,2.000000,40.000000,,,,0.000000,4.000000,4.000000,4.000000,4.000000,4.000000,4.000000,4.000000,4.000000,4.000000,4.000000,4.000000,4.000000,4.000000,4.000000,100.000000,,,,,,,,,,,,,,,,,,,,,,,,,,,,,,,,,,,,,,,,,,,,,,,,,,,,,,,,,,,,,,,,,,,,,,,,,,,,,,,,,,,,,,,,,,,,,,,,,,,,,,,,,,,,,,,,,,,,,
1768295159.217121,1768295159.217894,98.000000,0.000000,4348.205078,4330.897461,4350.769043,4346.794922,4307.563965,4301.794922,4299.871582,4313.717773,4319.358887,4303.333496,4505.384766,4537.051270,4408.974121,4471.538574,3810.000000,2.000000,40.000000,,,,0.000000,4.000000,4.000000,4.000000,4.000000,4.000000,4.000000,4.000000,4.000000,4.000000,4.000000,4.000000,4.000000,4.000000,4.000000,100.000000,,,,,,,,,,,,,,,,,,,,,,,,,,,,,,,,,,,,,,,,,,,,,,,,,,,,,,,,,,,,,,,,,,,,,,,,,,,,,,,,,,,,,,,,,,,,,,,,,,,,,,,,,,,,,,,,,,,,,
1768295159.224930,1768295159.225703,99.000000,0.000000,4343.333496,4322.820313,4345.000000,4347.436035,4307.692383,4303.333496,4300.897461,4306.282227,4314.615234,4304.358887,4500.128418,4535.384766,4408.077148,4466.153809,4691.000000,2.000000,40.000000,,,,0.000000,4.000000,4.000000,4.000000,4.000000,4.000000,4.000000,4.000000,4.000000,4.000000,4.000000,4.000000,4.000000,4.000000,4.000000,100.000000,,,,,,,,,,,,,,,,,,,,,,,,,,,,,,,,,,,,,,,,,,,,,,,,,,,,,,,,,,,,,,,,,,,,,,,,,,,,,,,,,,,,,,,,,,,,,,,,,,,,,,,,,,,,,,,,,,,,,
1768295159.232738,1768295159.233711,100.000000,0.000000,4341.282227,4316.794922,4347.307617,4347.307617,4311.153809,4312.051270,4312.307617,4316.153809,4317.563965,4294.230957,4502.307617,4541.410156,4408.205078,4472.948730,2393.000000,2.000000,40.000000,,,,0.000000,4.000000,4.000000,4.000000,4.000000,4.000000,4.000000,4.000000,4.000000,4.000000,4.000000,4.000000,4.000000,4.000000,4.000000,100.000000,,,,,,,,,,,,,,,,,,,,,,,,,,,,,,,,,,,,,,,,,,,,,,,,,,,,,,,,,,,,,,,,,,,,,,,,,,,,,,,,,,,,,,,,,,,,,,,,,,,,,,,,,,,,,,,,,,,,,
1768295159.240546,1768295159.241519,101.000000,0.000000,4344.358887,4320.897461,4353.974121,4345.384766,4308.974121,4312.051270,4312.820313,4321.794922,4322.948730,4293.589844,4504.230957,4542.436035,4407.692383,4481.538574,5430.000000,2.000000,40.000000,,,,0.000000,4.000000,4.000000,4.000000,4.000000,4.000000,4.000000,4.000000,4.000000,4.000000,4.000000,4.000000,4.000000,4.000000,4.000000,100.000000,,,,,,,,,,,,,,,,,,,,,,,,,,,,,,,,,,,,,,,,,,,,,,,,,,,,,,,,,,,,,,,,,,,,,,,,,,,,,,,,,,,,,,,,,,,,,,,,,,,,,,,,,,,,,,,,,,,,,
1768295159.248355,1768295159.249428,102.000000,0.000000,4345.769043,4318.717773,4352.692383,4345.641113,4303.589844,4305.897461,4303.333496,4320.128418,4324.102539,4300.641113,4503.717773,4542.179688,4408.461426,4479.615234,3810.000000,2.000000,40.000000,,,,0.000000,4.000000,4.000000,4.000000,4.000000,4.000000,4.000000,4.000000,4.000000,4.000000,4.000000,4.000000,4.000000,4.000000,4.000000,100.000000,,,,,,,,,,,,,,,,,,,,,,,,,,,,,,,,,,,,,,,,,,,,,,,,,,,,,,,,,,,,,,,,,,,,,,,,,,,,,,,,,,,,,,,,,,,,,,,,,,,,,,,,,,,,,,,,,,,,,
1768295159.256163,1768295159.257236,103.000000,0.000000,4341.794922,4316.282227,4349.358887,4347.436035,4303.717773,4307.179688,4301.410156,4319.358887,4320.256348,4294.358887,4502.436035,4543.333496,4407.307617,4471.025879,4691.000000,2.000000,40.000000,,,,0.000000,4.000000,4.000000,4.000000,4.000000,4.000000,4.000000,4.000000,4.000000,4.000000,4.000000,4.000000,4.000000,4.000000,4.000000,100.000000,,,,,,,,,,,,,,,,,,,,,,,,,,,,,,,,,,,,,,,,,,,,,,,,,,,,,,,,,,,,,,,,,,,,,,,,,,,,,,,,,,,,,,,,,,,,,,,,,,,,,,,,,,,,,,,,,,,,,
1768295159.263972,1768295159.264845,104.000000,0.000000,4337.179688,4323.589844,4351.410156,4351.025879,4307.692383,4311.153809,4305.641113,4317.820313,4318.205078,4292.051270,4501.282227,4540.641113,4405.000000,4472.563965,2393.000000,2.000000,40.000000,,,,0.000000,4.000000,4.000000,4.000000,4.000000,4.000000,4.000000,4.000000,4.000000,4.000000,4.000000,4.000000,4.000000,4.000000,4.000000,100.000000,,,,,,,,,,,,,,,,,,,,,,,,,,,,,,,,,,,,,,,,,,,,,,,,,,,,,,,,,,,,,,,,,,,,,,,,,,,,,,,,,,,,,,,,,,,,,,,,,,,,,,,,,,,,,,,,,,,,,
1768295159.271780,1768295159.272653,105.000000,0.000000,4339.102539,4327.179688,4354.102539,4355.769043,4308.077148,4312.820313,4309.230957,4322.179688,4323.077148,4309.487305,4504.871582,4543.589844,4410.769043,4481.538574,5430.000000,2.000000,40.000000,,,,0.000000,4.000000,4.000000,4.000000,4.000000,4.000000,4.000000,4.000000,4.000000,4.000000,4.000000,4.000000,4.000000,4.000000,4.000000,100.000000,,,,,,,,,,,,,,,,,,,,,,,,,,,,,,,,,,,,,,,,,,,,,,,,,,,,,,,,,,,,,,,,,,,,,,,,,,,,,,,,,,,,,,,,,,,,,,,,,,,,,,,,,,,,,,,,,,,,,
1768295159.279589,1768295159.280362,106.000000,0.000000,4345.000000,4326.153809,4356.922852,4358.461426,4311.410156,4314.871582,4314.615234,4330.512695,4327.179688,4321.538574,4511.025879,4554.102539,4420.769043,4486.538574,3810.000000,2.000000,40.000000,,,,0.000000,4.000000,4.000000,4.000000,4.000000,4.000000,4.000000,4.000000,4.000000,4.000000,4.000000,4.000000,4.000000,4.000000,4.000000,100.000000,,,,,,,,,,,,,,,,,,,,,,,,,,,,,,,,,,,,,,,,,,,,,,,,,,,,,,,,,,,,,,,,,,,,,,,,,,,,,,,,,,,,,,,,,,,,,,,,,,,,,,,,,,,,,,,,,,,,,
1768295159.287397,1768295159.288170,107.000000,0.000000,4345.256348,4329.615234,4358.974121,4354.743652,4315.769043,4313.589844,4315.128418,4327.563965,4324.871582,4313.333496,4512.820313,4552.820313,4418.974121,4483.333496,4691.000000,2.000000,40.000000,,,,0.000000,4.000000,4.000000,4.000000,4.000000,4.000000,4.000000,4.000000,4.000000,4.000000,4.000000,4.000000,4.000000,4.000000,4.000000,100.000000,,,,,,,,,,,,,,,,,,,,,,,,,,,,,,,,,,,,,,,,,,,,,,,,,,,,,,,,,,,,,,,,,,,,,,,,,,,,,,,,,,,,,,,,,,,,,,,,,,,,,,,,,,,,,,,,,,,,,
1768295159.295205,1768295159.295779,108.000000,0.000000,4342.692383,4328.205078,4353.717773,4346.922852,4312.307617,4309.487305,4301.282227,4312.948730,4318.846191,4301.922852,4508.333496,4537.563965,4409.102539,4474.871582,2393.000000,2.000000,40.000000,,,,0.000000,4.000000,4.000000,4.000000,4.000000,4.000000,4.000000,4.000000,4.000000,4.000000,4.000000,4.000000,4.000000,4.000000,4.000000,100.000000,,,,,,,,,,,,,,,,,,,,,,,,,,,,,,,,,,,,,,,,,,,,,,,,,,,,,,,,,,,,,,,,,,,,,,,,,,,,,,,,,,,,,,,,,,,,,,,,,,,,,,,,,,,,,,,,,,,,,
1768295159.303014,1768295159.303587,109.000000,0.000000,4337.948730,4319.358887,4345.128418,4342.563965,4303.077148,4306.666504,4289.358887,4310.897461,4317.436035,4299.230957,4503.589844,4532.179688,4406.153809,4466.922852,5430.000000,2.000000,40.000000,,,,0.000000,4.000000,4.000000,4.000000,4.000000,4.000000,4.000000,4.000000,4.000000,4.000000,4.000000,4.000000,4.000000,4.000000,4.000000,100.000000,,,,,,,,,,,,,,,,,,,,,,,,,,,,,,,,,,,,,,,,,,,,,,,,,,,,,,,,,,,,,,,,,,,,,,,,,,,,,,,,,,,,,,,,,,,,,,,,,,,,,,,,,,,,,,,,,,,,,
1768295159.310822,1768295159.311496,110.000000,0.000000,4332.563965,4316.538574,4343.461426,4342.692383,4302.307617,4309.230957,4296.922852,4324.358887,4323.205078,4298.717773,4506.538574,4541.153809,4407.948730,4471.666504,3810.000000,2.000000,40.000000,,,,0.000000,4.000000,4.000000,4.000000,4.000000,4.000000,4.000000,4.000000,4.000000,4.000000,4.000000,4.000000,4.000000,4.000000,4.000000,100.000000,,,,,,,,,,,,,,,,,,,,,,,,,,,,,,,,,,,,,,,,,,,,,,,,1.332325,0.893899,0.698185,0.335245,0.179446,1.294809,0.598502,0.302738,0.227074,0.131979,0.948666,1.065423,0.396511,0.242675,0.170684,0.933648,0.195617,0.357186,0.173777,0.094856,0.378480,0.159427,0.159603,0.072751,0.076970,0.204866,0.116450,0.117540,0.045870,0.085965,0.161072,0.502886,0.393609,0.198117,0.303666,0.647661,0.753207,0.386506,0.179531,0.222456,0.243341,0.258201,0.306859,0.151642,0.085175,0.269779,0.647801,0.647890,0.671755,0.299990,0.231815,0.195116,0.215500,0.112605,0.076752,1.360453,1.021436,0.737262,0.531223,0.189354,0.574228,0.366725,0.586434,0.356883,0.185765,1.374553,0.729665,0.577263,0.527380,0.224355
1768295159.318631,1768295159.319304,111.000000,0.000000,4332.692383,4319.487305,4346.153809,4346.282227,4307.436035,4313.461426,4305.000000,4319.743652,4321.922852,4293.461426,4508.589844,4542.179688,4411.153809,4480.512695,4691.000000,2.000000,40.000000,,,,0.000000,4.000000,4.000000,4.000000,4.000000,4.000000,4.000000,4.000000,4.000000,4.000000,4.000000,4.000000,4.000000,4.000000,4.000000,100.000000,,,,,,,,,,,,,,,,,,,,,,,,,,,,,,,,,,,,,,,,,,,,,,,,,,,,,,,,,,,,,,,,,,,,,,,,,,,,,,,,,,,,,,,,,,,,,,,,,,,,,,,,,,,,,,,,,,,,,
1768295159.326439,1768295159.327313,112.000000,0.000000,4336.410156,4318.974121,4344.743652,4346.538574,4305.384766,4310.641113,4298.717773,4304.358887,4313.846191,4291.666504,4503.077148,4529.102539,4409.487305,4474.102539,2393.000000,2.000000,40.000000,,,,0.000000,4.000000,4.000000,4.000000,4.000000,4.000000,4.000000,4.000000,4.000000,4.000000,4.000000,4.000000,4.000000,4.000000,4.000000,100.000000,,,,,,,,,,,,,,,,,,,,,,,,,,,,,,,,,,,,,,,,,,,,,,,,,,,,,,,,,,,,,,,,,,,,,,,,,,,,,,,,,,,,,,,,,,,,,,,,,,,,,,,,,,,,,,,,,,,,,
1768295159.334247,1768295159.335121,113.000000,0.000000,4338.846191,4315.512695,4341.025879,4340.384766,4302.307617,4305.000000,4296.153809,4307.436035,4316.794922,4301.282227,4499.230957,4523.717773,4403.077148,4466.794922,5430.000000,2.000000,40.000000,,,,0.000000,4.000000,4.000000,4.000000,4.000000,4.000000,4.000000,4.000000,4.000000,4.000000,4.000000,4.000000,4.000000,4.000000,4.000000,100.000000,,,,,,,,,,,,,,,,,,,,,,,,,,,,,,,,,,,,,,,,,,,,,,,,,,,,,,,,,,,,,,,,,,,,,,,,,,,,,,,,,,,,,,,,,,,,,,,,,,,,,,,,,,,,,,,,,,,,,
1768295159.342056,1768295159.343029,114.000000,0.000000,4339.487305,4314.102539,4343.205078,4339.102539,4302.051270,4307.692383,4301.538574,4314.358887,4322.307617,4304.358887,4500.128418,4527.948730,4403.589844,4469.743652,3810.000000,2.000000,40.000000,,,,0.000000,4.000000,4.000000,4.000000,4.000000,4.000000,4.000000,4.000000,4.000000,4.000000,4.000000,4.000000,4.000000,4.000000,4.000000,100.000000,,,,,,,,,,,,,,,,,,,,,,,,,,,,,,,,,,,,,,,,,,,,,,,,,,,,,,,,,,,,,,,,,,,,,,,,,,,,,,,,,,,,,,,,,,,,,,,,,,,,,,,,,,,,,,,,,,,,,
1768295159.349864,1768295159.350838,115.000000,0.000000,4337.307617,4314.871582,4344.102539,4341.025879,4301.025879,4310.128418,4302.563965,4311.025879,4319.487305,4297.051270,4501.538574,4527.692383,4406.410156,4472.563965,4691.000000,2.000000,40.000000,,,,0.000000,4.000000,4.000000,4.000000,4.000000,4.000000,4.000000,4.000000,4.000000,4.000000,4.000000,4.000000,4.000000,4.000000,4.000000,100.000000,,,,,,,,,,,,,,,,,,,,,,,,,,,,,,,,,,,,,,,,,,,,,,,,,,,,,,,,,,,,,,,,,,,,,,,,,,,,,,,,,,,,,,,,,,,,,,,,,,,,,,,,,,,,,,,,,,,,,
1768295159.357673,1768295159.358446,116.000000,0.000000,4335.769043,4316.153809,4341.538574,4341.153809,4301.410156,4304.743652,4298.461426,4309.102539,4316.922852,4296.025879,4501.025879,4527.051270,4405.128418,4474.358887,2393.000000,2.000000,40.000000,,,,0.000000,4.000000,4.000000,4.000000,4.000000,4.000000,4.000000,4.000000,4.000000,4.000000,4.000000,4.000000,4.000000,4.000000,4.000000,100.000000,,,,,,,,,,,,,,,,,,,,,,,,,,,,,,,,,,,,,,,,,,,,,,,,,,,,,,,,,,,,,,,,,,,,,,,,,,,,,,,,,,,,,,,,,,,,,,,,,,,,,,,,,,,,,,,,,,,,,
1768295159.365481,1768295159.366255,117.000000,0.000000,4343.846191,4321.538574,4346.153809,4346.922852,4306.666504,4303.333496,4303.333496,4316.666504,4318.846191,4301.922852,4504.487305,4536.538574,4409.615234,4480.384766,5430.000000,2.000000,40.000000,,,,0.000000,4.000000,4.000000,4.000000,4.000000,4.000000,4.000000,4.000000,4.000000,4.000000,4.000000,4.000000,4.000000,4.000000,4.000000,100.000000,,,,,,,,,,,,,,,,,,,,,,,,,,,,,,,,,,,,,,,,,,,,,,,,,,,,,,,,,,,,,,,,,,,,,,,,,,,,,,,,,,,,,,,,,,,,,,,,,,,,,,,,,,,,,,,,,,,,,
1768295159.373290,1768295159.373963,118.000000,0.000000,4350.000000,4327.051270,4354.871582,4354.871582,4308.205078,4310.000000,4310.128418,4319.871582,4318.077148,4300.000000,4509.487305,4541.538574,4415.769043,4482.948730,3810.000000,2.000000,40.000000,,,,0.000000,4.000000,4.000000,4.000000,4.000000,4.000000,4.000000,4.000000,4.000000,4.000000,4.000000,4.000000,4.000000,4.000000,4.000000,100.000000,,,,,,,,,,,,,,,,,,,,,,,,,,,,,,,,,,,,,,,,,,,,,,,,,,,,,,,,,,,,,,,,,,,,,,,,,,,,,,,,,,,,,,,,,,,,,,,,,,,,,,,,,,,,,,,,,,,,,
1768295159.381098,1768295159.381772,119.000000,0.000000,4346.410156,4323.846191,4353.846191,4353.461426,4307.051270,4311.922852,4304.615234,4315.384766,4315.384766,4292.563965,4506.538574,4536.282227,4411.410156,4477.820313,4691.000000,2.000000,40.000000,,,,0.000000,4.000000,4.000000,4.000000,4.000000,4.000000,4.000000,4.000000,4.000000,4.000000,4.000000,4.000000,4.000000,4.000000,4.000000,100.000000,,,,,,,,,,,,,,,,,,,,,,,,,,,,,,,,,,,,,,,,,,,,,,,,,,,,,,,,,,,,,,,,,,,,,,,,,,,,,,,,,,,,,,,,,,,,,,,,,,,,,,,,,,,,,,,,,,,,,
1768295159.388906,1768295159.389381,120.000000,0.000000,4348.461426,4320.256348,4349.743652,4352.820313,4311.538574,4308.974121,4302.051270,4317.179688,4318.077148,4296.410156,4505.384766,4540.000000,4411.025879,4478.589844,2393.000000,2.000000,40.000000,,,,0.000000,4.000000,4.000000,4.000000,4.000000,4.000000,4.000000,4.000000,4.000000,4.000000,4.000000,4.000000,4.000000,4.000000,4.000000,100.000000,,,,,,,,,,,,,,,,,,,,,,,,,,,,,,,,,,,,,,,,,,,,,,,,,,,,,,,,,,,,,,,,,,,,,,,,,,,,,,,,,,,,,,,,,,,,,,,,,,,,,,,,,,,,,,,,,,,,,
1768295159.396715,1768295159.397189,121.000000,0.000000,4350.000000,4321.538574,4347.563965,4354.487305,4312.563965,4306.538574,4304.230957,4317.436035,4319.743652,4308.461426,4507.563965,4540.897461,4415.512695,4481.025879,5430.000000,2.000000,40.000000,,,,0.000000,4.000000,4.000000,4.000000,4.000000,4.000000,4.000000,4.000000,4.000000,4.000000,4.000000,4.000000,4.000000,4.000000,4.000000,100.000000,,,,,,,,,,,,,,,,,,,,,,,,,,,,,,,,,,,,,,,,,,,,,,,,,,,,,,,,,,,,,,,,,,,,,,,,,,,,,,,,,,,,,,,,,,,,,,,,,,,,,,,,,,,,,,,,,,,,,
1768295159.404523,1768295159.404898,122.000000,0.000000,4343.077148,4320.256348,4341.922852,4348.077148,4309.230957,4307.179688,4302.436035,4315.897461,4318.461426,4306.794922,4506.282227,4530.512695,4409.102539,4481.282227,3810.000000,2.000000,40.000000,,,,0.000000,4.000000,4.000000,4.000000,4.000000,4.000000,4.000000,4.000000,4.000000,4.000000,4.000000,4.000000,4.000000,4.000000,4.000000,100.000000,,,,,,,,,,,,,,,,,,,,,,,,,,,,,,,,,,,,,,,,,,,,,,,,,,,,,,,,,,,,,,,,,,,,,,,,,,,,,,,,,,,,,,,,,,,,,,,,,,,,,,,,,,,,,,,,,,,,,
1768295159.412332,1768295159.412706,123.000000,0.000000,4340.128418,4314.358887,4341.410156,4345.769043,4311.025879,4308.974121,4305.000000,4319.871582,4318.974121,4296.794922,4504.487305,4531.538574,4407.436035,4480.769043,4691.000000,2.000000,40.000000,,,,0.000000,4.000000,4.000000,4.000000,4.000000,4.000000,4.000000,4.000000,4.000000,4.000000,4.000000,4.000000,4.000000,4.000000,4.000000,100.000000,,,,,,,,,,,,,,,,,,,,,,,,,,,,,,,,,,,,,,,,,,,,,,,,,,,,,,,,,,,,,,,,,,,,,,,,,,,,,,,,,,,,,,,,,,,,,,,,,,,,,,,,,,,,,,,,,,,,,
1768295159.420140,1768295159.420315,124.000000,0.000000,4344.871582,4313.589844,4348.589844,4354.743652,4311.666504,4310.769043,4309.615234,4319.487305,4318.974121,4300.897461,4506.410156,4540.000000,4415.128418,4478.205078,2393.000000,2.000000,40.000000,,,,0.000000,4.000000,4.000000,4.000000,4.000000,4.000000,4.000000,4.000000,4.000000,4.000000,4.000000,4.000000,4.000000,4.000000,4.000000,100.000000,,,,,,,,,,,,,,,,,,,,,,,,,,,,,,,,,,,,,,,,,,,,,,,,,,,,,,,,,,,,,,,,,,,,,,,,,,,,,,,,,,,,,,,,,,,,,,,,,,,,,,,,,,,,,,,,,,,,,
1768295159.427949,1768295159.428123,125.000000,0.000000,4345.897461,4314.871582,4350.256348,4353.333496,4305.256348,4310.897461,4303.461426,4316.666504,4316.794922,4301.153809,4507.436035,4539.743652,4414.487305,4476.282227,5430.000000,2.000000,40.000000,,,,0.000000,4.000000,4.000000,4.000000,4.000000,4.000000,4.000000,4.000000,4.000000,4.000000,4.000000,4.000000,4.000000,4.000000,4.000000,100.000000,,,,,,,,,,,,,,,,,,,,,,,,,,,,,,,,,,,,,,,,,,,,,,,,,,,,,,,,,,,,,,,,,,,,,,,,,,,,,,,,,,,,,,,,,,,,,,,,,,,,,,,,,,,,,,,,,,,,,
1768295159.435757,1768295159.436031,126.000000,0.000000,4340.512695,4308.974121,4346.153809,4343.717773,4302.948730,4303.205078,4295.769043,4311.282227,4312.563965,4289.358887,4503.974121,4536.282227,4406.410156,4474.102539,3810.000000,2.000000,40.000000,,,,0.000000,4.000000,4.000000,4.000000,4.000000,4.000000,4.000000,4.000000,4.000000,4.000000,4.000000,4.000000,4.000000,4.000000,4.000000,100.000000,,,,,,,,,,,,,,,,,,,,,,,,,,,,,,,,,,,,,,,,,,,,,,,,1.075187,0.795088,0.835809,0.395813,0.184871,1.112337,0.681756,0.309637,0.224146,0.139777,0.834546,0.998787,0.439209,0.273845,0.176319,0.788015,0.213653,0.369108,0.185373,0.095675,0.320216,0.164295,0.180782,0.081396,0.084360,0.178373,0.119060,0.104932,0.044868,0.071322,0.129597,0.514957,0.403814,0.219120,0.256052,0.511406,0.682739,0.465918,0.193372,0.218324,0.215352,0.229501,0.317055,0.168995,0.084921,0.222569,0.723964,0.806577,0.673744,0.310281,0.232182,0.173256,0.226938,0.127545,0.078408,1.197681,0.882392,0.851442,0.566554,0.194162,0.571349,0.325063,0.616083,0.376973,0.181614,1.388910,0.662788,0.698334,0.589073,0.223816
1768295159.443565,1768295159.443840,127.000000,0.000000,4333.589844,4302.948730,4342.820313,4339.102539,4304.615234,4296.025879,4295.897461,4304.230957,4310.769043,4293.589844,4499.871582,4533.461426,4402.692383,4469.358887,40.000000,2.000000,40.000000,,,,0.000000,4.000000,4.000000,4.000000,4.000000,4.000000,4.000000,4.000000,4.000000,4.000000,4.000000,4.000000,4.000000,4.000000,4.000000,100.000000,,,,,,,,,,,,,,,,,,,,,,,,,,,,,,,,,,,,,,,,,,,,,,,,,,,,,,,,,,,,,,,,,,,,,,,,,,,,,,,,,,,,,,,,,,,,,,,,,,,,,,,,,,,,,,,,,,,,,
1768295159.451374,1768295159.451848,0.000000,0.000000,4319.743652,4293.717773,4334.230957,4331.282227,4299.487305,4302.948730,4296.538574,4308.589844,4312.179688,4298.589844,4496.922852,4524.102539,4399.358887,4459.102539,4235.000000,2.000000,40.000000,,,,0.000000,4.000000,4.000000,4.000000,4.000000,4.000000,4.000000,4.000000,4.000000,4.000000,4.000000,4.000000,4.000000,4.000000,4.000000,100.000000,,,,,,,,,,,,,,,,,,,,,,,,,,,,,,,,,,,,,,,,,,,,,,,,,,,,,,,,,,,,,,,,,,,,,,,,,,,,,,,,,,,,,,,,,,,,,,,,,,,,,,,,,,,,,,,,,,,,,
1768295159.459182,1768295159.459657,1.000000,0.000000,4314.230957,4289.230957,4331.922852,4330.512695,4300.769043,4313.974121,4302.563965,4322.563965,4318.589844,4292.563965,4498.974121,4524.358887,4399.615234,4460.512695,3822.000000,2.000000,40.000000,,,,0.000000,4.000000,4.000000,4.000000,4.000000,4.000000,4.000000,4.000000,4.000000,4.000000,4.000000,4.000000,4.000000,4.000000,4.000000,100.000000,,,,,,,,,,,,,,,,,,,,,,,,,,,,,,,,,,,,,,,,,,,,,,,,,,,,,,,,,,,,,,,,,,,,,,,,,,,,,,,,,,,,,,,,,,,,,,,,,,,,,,,,,,,,,,,,,,,,,
1768295159.466991,1768295159.467365,2.000000,0.000000,4335.384766,4305.000000,4351.666504,4348.846191,4312.948730,4316.666504,4316.410156,4335.769043,4330.512695,4304.102539,4512.563965,4550.000000,4415.641113,4484.102539,4031.000000,2.000000,40.000000,,,,0.000000,4.000000,4.000000,4.000000,4.000000,4.000000,4.000000,4.000000,4.000000,4.000000,4.000000,4.000000,4.000000,4.000000,4.000000,100.000000,,,,,,,,,,,,,,,,,,,,,,,,,,,,,,,,,,,,,,,,,,,,,,,,,,,,,,,,,,,,,,,,,,,,,,,,,,,,,,,,,,,,,,,,,,,,,,,,,,,,,,,,,,,,,,,,,,,,,
1768295159.474799,1768295159.475174,3.000000,0.000000,4359.358887,4321.794922,4369.230957,4362.692383,4316.922852,4315.256348,4321.025879,4343.461426,4338.846191,4330.000000,4524.358887,4572.436035,4433.461426,4505.256348,3921.000000,2.000000,40.000000,,,,0.000000,4.000000,4.000000,4.000000,4.000000,4.000000,4.000000,4.000000,4.000000,4.000000,4.000000,4.000000,4.000000,4.000000,4.000000,100.000000,,,,,,,,,,,,,,,,,,,,,,,,,,,,,,,,,,,,,,,,,,,,,,,,,,,,,,,,,,,,,,,,,,,,,,,,,,,,,,,,,,,,,,,,,,,,,,,,,,,,,,,,,,,,,,,,,,,,,
1768295159.482607,1768295159.482782,4.000000,0.000000,4354.358887,4318.461426,4363.846191,4358.333496,4312.179688,4314.743652,4313.461426,4334.487305,4330.512695,4324.230957,4517.307617,4560.897461,4428.589844,4498.205078,3795.000000,2.000000,40.000000,,,,0.000000,4.000000,4.000000,4.000000,4.000000,4.000000,4.000000,4.000000,4.000000,4.000000,4.000000,4.000000,4.000000,4.000000,4.000000,100.000000,,,,,,,,,,,,,,,,,,,,,,,,,,,,,,,,,,,,,,,,,,,,,,,,,,,,,,,,,,,,,,,,,,,,,,,,,,,,,,,,,,,,,,,,,,,,,,,,,,,,,,,,,,,,,,,,,,,,,
1768295159.490416,1768295159.490591,5.000000,0.000000,4341.794922,4310.384766,4353.077148,4352.051270,4310.769043,4313.717773,4306.794922,4316.794922,4315.641113,4293.461426,4504.871582,4539.615234,4412.051270,4478.589844,3233.000000,2.000000,40.000000,,,,0.000000,4.000000,4.000000,4.000000,4.000000,4.000000,4.000000,4.000000,4.000000,4.000000,4.000000,4.000000,4.000000,4.000000,4.000000,100.000000,,,,,,,,,,,,,,,,,,,,,,,,,,,,,,,,,,,,,,,,,,,,,,,,,,,,,,,,,,,,,,,,,,,,,,,,,,,,,,,,,,,,,,,,,,,,,,,,,,,,,,,,,,,,,,,,,,,,,
1768295159.498224,1768295159.498299,6.000000,0.000000,4347.820313,4313.333496,4355.769043,4354.230957,4311.666504,4312.436035,4304.743652,4316.410156,4316.538574,4292.179688,4503.846191,4541.282227,4407.948730,4475.512695,3510.000000,2.000000,40.000000,,,,0.000000,4.000000,4.000000,4.000000,4.000000,4.000000,4.000000,4.000000,4.000000,4.000000,4.000000,4.000000,4.000000,4.000000,4.000000,100.000000,,,,,,,,,,,,,,,,,,,,,,,,,,,,,,,,,,,,,,,,,,,,,,,,,,,,,,,,,,,,,,,,,,,,,,,,,,,,,,,,,,,,,,,,,,,,,,,,,,,,,,,,,,,,,,,,,,,,,
1768295159.506033,1768295159.506108,7.000000,0.000000,4355.128418,4315.897461,4360.256348,4357.179688,4311.922852,4313.461426,4306.025879,4325.769043,4324.615234,4310.512695,4508.461426,4547.051270,4411.410156,4478.717773,3461.000000,2.000000,40.000000,,,,0.000000,4.000000,4.000000,4.000000,4.000000,4.000000,4.000000,4.000000,4.000000,4.000000,4.000000,4.000000,4.000000,4.000000,4.000000,100.000000,,,,,,,,,,,,,,,,,,,,,,,,,,,,,,,,,,,,,,,,,,,,,,,,,,,,,,,,,,,,,,,,,,,,,,,,,,,,,,,,,,,,,,,,,,,,,,,,,,,,,,,,,,,,,,,,,,,,,
1768295159.513841,1768295159.514116,8.000000,0.000000,4351.282227,4312.307617,4354.871582,4357.436035,4311.538574,4315.897461,4314.487305,4327.948730,4323.717773,4307.820313,4506.282227,4540.384766,4409.743652,4472.436035,2583.000000,2.000000,40.000000,,,,0.000000,4.000000,4.000000,4.000000,4.000000,4.000000,4.000000,4.000000,4.000000,4.000000,4.000000,4.000000,4.000000,4.000000,4.000000,100.000000,,,,,,,,,,,,,,,,,,,,,,,,,,,,,,,,,,,,,,,,,,,,,,,,,,,,,,,,,,,,,,,,,,,,,,,,,,,,,,,,,,,,,,,,,,,,,,,,,,,,,,,,,,,,,,,,,,,,,
1768295159.521650,1768295159.521924,9.000000,0.000000,4345.641113,4306.922852,4347.307617,4351.794922,4311.282227,4316.025879,4315.256348,4326.025879,4320.512695,4293.717773,4498.846191,4534.615234,4406.410156,4462.436035,3550.000000,2.000000,40.000000,,,,0.000000,4.000000,4.000000,4.000000,4.000000,4.000000,4.000000,4.000000,4.000000,4.000000,4.000000,4.000000,4.000000,4.000000,4.000000,100.000000,,,,,,,,,,,,,,,,,,,,,,,,,,,,,,,,,,,,,,,,,,,,,,,,,,,,,,,,,,,,,,,,,,,,,,,,,,,,,,,,,,,,,,,,,,,,,,,,,,,,,,,,,,,,,,,,,,,,,
1768295159.529458,1768295159.529833,10.000000,0.000000,4347.051270,4305.256348,4348.589844,4348.205078,4311.538574,4313.846191,4305.256348,4329.230957,4323.461426,4295.256348,4501.153809,4538.333496,4407.179688,4466.666504,3807.000000,2.000000,40.000000,,,,0.000000,4.000000,4.000000,4.000000,4.000000,4.000000,4.000000,4.000000,4.000000,4.000000,4.000000,4.000000,4.000000,4.000000,4.000000,100.000000,,,,,,,,,,,,,,,,,,,,,,,,,,,,,,,,,,,,,,,,,,,,,,,,,,,,,,,,,,,,,,,,,,,,,,,,,,,,,,,,,,,,,,,,,,,,,,,,,,,,,,,,,,,,,,,,,,,,,
1768295159.537267,1768295159.537641,11.000000,0.000000,4352.563965,4308.333496,4355.512695,4351.538574,4313.333496,4312.948730,4303.974121,4331.410156,4325.256348,4303.461426,4507.820313,4543.974121,4408.974121,4480.384766,4684.000000,2.000000,40.000000,,,,0.000000,4.000000,4.000000,4.000000,4.000000,4.000000,4.000000,4.000000,4.000000,4.000000,4.000000,4.000000,4.000000,4.000000,4.000000,100.000000,,,,,,,,,,,,,,,,,,,,,,,,,,,,,,,,,,,,,,,,,,,,,,,,,,,,,,,,,,,,,,,,,,,,,,,,,,,,,,,,,,,,,,,,,,,,,,,,,,,,,,,,,,,,,,,,,,,,,
1768295159.545075,1768295159.545649,12.000000,0.000000,4350.384766,4304.358887,4353.077148,4350.384766,4311.282227,4309.102539,4306.794922,4323.717773,4320.641113,4300.384766,4504.871582,4539.743652,4408.333496,4478.333496,2384.000000,2.000000,40.000000,,,,0.000000,4.000000,4.000000,4.000000,4.000000,4.000000,4.000000,4.000000,4.000000,4.000000,4.000000,4.000000,4.000000,4.000000,4.000000,100.000000,,,,,,,,,,,,,,,,,,,,,,,,,,,,,,,,,,,,,,,,,,,,,,,,,,,,,,,,,,,,,,,,,,,,,,,,,,,,,,,,,,,,,,,,,,,,,,,,,,,,,,,,,,,,,,,,,,,,,
1768295159.552883,1768295159.553458,13.000000,0.000000,4341.025879,4298.974121,4341.794922,4343.717773,4309.230957,4308.077148,4302.436035,4314.487305,4315.256348,4292.051270,4499.615234,4532.820313,4405.641113,4467.563965,5424.000000,2.000000,40.000000,,,,0.000000,4.000000,4.000000,4.000000,4.000000,4.000000,4.000000,4.000000,4.000000,4.000000,4.000000,4.000000,4.000000,4.000000,4.000000,100.000000,,,,,,,,,,,,,,,,,,,,,,,,,,,,,,,,,,,,,,,,,,,,,,,,,,,,,,,,,,,,,,,,,,,,,,,,,,,,,,,,,,,,,,,,,,,,,,,,,,,,,,,,,,,,,,,,,,,,,
1768295159.560692,1768295159.561166,14.000000,0.000000,4340.512695,4300.128418,4338.846191,4341.538574,4309.230957,4311.794922,4302.436035,4313.333496,4315.512695,4289.871582,4498.333496,4531.922852,4402.436035,4463.589844,3807.000000,2.000000,40.000000,,,,0.000000,4.000000,4.000000,4.000000,4.000000,4.000000,4.000000,4.000000,4.000000,4.000000,4.000000,4.000000,4.000000,4.000000,4.000000,100.000000,1.000000,75.000000,4.000000,4.000000,4.000000,4.000000,4.000000,1.000000,4.000000,4.000000,4.000000,4.000000,4.000000,4.000000,4.000000,4.000000,,,,,,,,,,,,,,,,,,,,,,,,,,,,,,,,0.897351,0.756879,0.911534,0.473520,0.183412,0.931151,0.795823,0.301645,0.220380,0.141548,0.721514,0.928864,0.454544,0.309062,0.173003,0.628268,0.258404,0.348910,0.201873,0.093932,0.258543,0.171286,0.191277,0.097039,0.090398,0.160520,0.122070,0.090015,0.047911,0.060666,0.112555,0.479477,0.383833,0.237119,0.211145,0.394622,0.605410,0.531268,0.211522,0.205952,0.175699,0.204323,0.309972,0.182998,0.082542,0.184025,0.795020,0.968245,0.694304,0.324948,0.221846,0.172047,0.215242,0.150523,0.075116,1.077613,0.782709,0.923179,0.608665,0.193330,0.578661,0.305993,0.599796,0.404330,0.174397,1.389177,0.658361,0.818018,0.662617,0.218789
1768295159.568500,1768295159.568975,15.000000,0.000000,4344.358887,4300.512695,4343.205078,4342.436035,4303.846191,4310.128418,4304.230957,4318.205078,4319.230957,4297.820313,4500.000000,4531.794922,4399.230957,4461.538574,4684.000000,2.000000,40.000000,,,,0.000000,4.000000,4.000000,4.000000,4.000000,4.000000,4.000000,4.000000,4.000000,4.000000,4.000000,4.000000,4.000000,4.000000,4.000000,100.000000,,,,,,,,,,,,,,,,,,,,,,,,,,,,,,,,,,,,,,,,,,,,,,,,,,,,,,,,,,,,,,,,,,,,,,,,,,,,,,,,,,,,,,,,,,,,,,,,,,,,,,,,,,,,,,,,,,,,,
1768295159.576309,1768295159.576583,16.000000,0.000000,4342.436035,4302.051270,4340.512695,4339.615234,4303.461426,4306.666504,4302.307617,4315.128418,4315.769043,4303.974121,4501.794922,4526.922852,4399.102539,4457.820313,0.000000,2.000000,40.000000,,,,0.000000,4.000000,4.000000,4.000000,4.000000,4.000000,4.000000,4.000000,4.000000,4.000000,4.000000,4.000000,4.000000,4.000000,4.000000,100.000000,,,,,,,,,,,,,,,,,,,,,,,,,,,,,,,,,,,,,,,,,,,,,,,,,,,,,,,,,,,,,,,,,,,,,,,,,,,,,,,,,,,,,,,,,,,,,,,,,,,,,,,,,,,,,,,,,,,,,
1768295159.584117,1768295159.584392,17.000000,0.000000,4341.153809,4305.128418,4339.230957,4340.512695,4311.538574,4311.538574,4309.358887,4314.615234,4312.307617,4299.358887,4502.436035,4528.077148,4402.563965,4461.666504,0.000000,2.000000,40.000000,,,,0.000000,4.000000,4.000000,4.000000,4.000000,4.000000,4.000000,4.000000,4.000000,4.000000,4.000000,4.000000,4.000000,4.000000,4.000000,100.000000,,,,,,,,,,,,,,,,,,,,,,,,,,,,,,,,,,,,,,,,,,,,,,,,,,,,,,,,,,,,,,,,,,,,,,,,,,,,,,,,,,,,,,,,,,,,,,,,,,,,,,,,,,,,,,,,,,,,,
1768295159.591926,1768295159.592100,18.000000,0.000000,4341.666504,4305.000000,4344.358887,4344.102539,4313.974121,4317.307617,4318.077148,4321.794922,4318.077148,4298.974121,4502.179688,4534.871582,4402.436035,4468.205078,0.000000,2.000000,40.000000,,,,0.000000,4.000000,4.000000,4.000000,4.000000,4.000000,4.000000,4.000000,4.000000,4.000000,4.000000,4.000000,4.000000,4.000000,4.000000,100.000000,,,,,,,,,,,,,,,,,,,,,,,,,,,,,,,,,,,,,,,,,,,,,,,,,,,,,,,,,,,,,,,,,,,,,,,,,,,,,,,,,,,,,,,,,,,,,,,,,,,,,,,,,,,,,,,,,,,,,
1768295159.599734,1768295159.599909,19.000000,0.000000,4337.179688,4306.922852,4341.922852,4343.205078,4307.436035,4311.538574,4310.769043,4319.871582,4319.102539,4299.743652,4499.871582,4532.051270,4398.205078,4465.256348,0.000000,2.000000,40.000000,,,,0.000000,4.000000,4.000000,4.000000,4.000000,4.000000,4.000000,4.000000,4.000000,4.000000,4.000000,4.000000,4.000000,4.000000,4.000000,100.000000,,,,,,,,,,,,,,,,,,,,,,,,,,,,,,,,,,,,,,,,,,,,,,,,,,,,,,,,,,,,,,,,,,,,,,,,,,,,,,,,,,,,,,,,,,,,,,,,,,,,,,,,,,,,,,,,,,,,,
1768295159.607542,1768295159.607518,20.000000,0.000000,4333.333496,4317.307617,4336.538574,4343.974121,4304.230957,4306.538574,4308.974121,4320.512695,4316.666504,4288.333496,4498.333496,4526.282227,4399.743652,4459.615234,0.000000,2.000000,40.000000,,,,0.000000,4.000000,4.000000,4.000000,4.000000,4.000000,4.000000,4.000000,4.000000,4.000000,4.000000,4.000000,4.000000,4.000000,4.000000,100.000000,,,,,,,,,,,,,,,,,,,,,,,,,,,,,,,,,,,,,,,,,,,,,,,,,,,,,,,,,,,,,,,,,,,,,,,,,,,,,,,,,,,,,,,,,,,,,,,,,,,,,,,,,,,,,,,,,,,,,
1768295159.615351,1768295159.615326,21.000000,0.000000,4334.102539,4323.589844,4337.820313,4345.256348,4306.153809,4312.051270,4315.512695,4325.000000,4320.000000,4286.666504,4498.077148,4526.794922,4403.461426,4455.512695,0.000000,2.000000,40.000000,,,,0.000000,4.000000,4.000000,4.000000,4.000000,4.000000,4.000000,4.000000,4.000000,4.000000,4.000000,4.000000,4.000000,4.000000,4.000000,100.000000,,,,,,,,,,,,,,,,,,,,,,,,,,,,,,,,,,,,,,,,,,,,,,,,,,,,,,,,,,,,,,,,,,,,,,,,,,,,,,,,,,,,,,,,,,,,,,,,,,,,,,,,,,,,,,,,,,,,,
1768295159.623159,1768295159.623234,22.000000,0.000000,4332.563965,4322.436035,4339.487305,4341.922852,4303.077148,4313.205078,4303.589844,4317.307617,4316.922852,4300.512695,4497.307617,4526.794922,4400.384766,4453.333496,0.000000,2.000000,40.000000,,,,0.000000,4.000000,4.000000,4.000000,4.000000,4.000000,4.000000,4.000000,4.000000,4.000000,4.000000,4.000000,4.000000,4.000000,4.000000,100.000000,,,,,,,,,,,,,,,,,,,,,,,,,,,,,,,,,,,,,,,,,,,,,,,,,,,,,,,,,,,,,,,,,,,,,,,,,,,,,,,,,,,,,,,,,,,,,,,,,,,,,,,,,,,,,,,,,,,,,
1768295159.630968,1768295159.631043,23.000000,0.000000,4327.692383,4326.922852,4338.589844,4342.436035,4300.128418,4306.666504,4291.538574,4309.102539,4310.512695,4300.897461,4496.794922,4524.487305,4396.538574,4452.051270,0.000000,2.000000,40.000000,,,,0.000000,4.000000,4.000000,4.000000,4.000000,4.000000,4.000000,4.000000,4.000000,4.000000,4.000000,4.000000,4.000000,4.000000,4.000000,100.000000,,,,,,,,,,,,,,,,,,,,,,,,,,,,,,,,,,,,,,,,,,,,,,,,,,,,,,,,,,,,,,,,,,,,,,,,,,,,,,,,,,,,,,,,,,,,,,,,,,,,,,,,,,,,,,,,,,,,,
1768295159.638776,1768295159.639051,24.000000,0.000000,4325.384766,4334.871582,4339.487305,4348.974121,4302.307617,4308.974121,4307.051270,4316.282227,4315.128418,4295.384766,4499.102539,4525.384766,4399.487305,4454.743652,0.000000,2.000000,40.000000,,,,0.000000,4.000000,4.000000,4.000000,4.000000,4.000000,4.000000,4.000000,4.000000,4.000000,4.000000,4.000000,4.000000,4.000000,4.000000,100.000000,,,,,,,,,,,,,,,,,,,,,,,,,,,,,,,,,,,,,,,,,,,,,,,,,,,,,,,,,,,,,,,,,,,,,,,,,,,,,,,,,,,,,,,,,,,,,,,,,,,,,,,,,,,,,,,,,,,,,
1768295159.646584,1768295159.646859,25.000000,0.000000,4326.922852,4335.256348,4337.948730,4350.256348,4303.589844,4320.000000,4320.384766,4322.948730,4321.794922,4298.846191,4501.794922,4527.563965,4404.615234,4461.153809,0.000000,2.000000,40.000000,,,,0.000000,4.000000,4.000000,4.000000,4.000000,4.000000,4.000000,4.000000,4.000000,4.000000,4.000000,4.000000,4.000000,4.000000,4.000000,100.000000,,,,,,,,,,,,,,,,,,,,,,,,,,,,,,,,,,,,,,,,,,,,,,,,,,,,,,,,,,,,,,,,,,,,,,,,,,,,,,,,,,,,,,,,,,,,,,,,,,,,,,,,,,,,,,,,,,,,,
1768295159.654393,1768295159.654768,26.000000,0.000000,4331.410156,4330.641113,4336.410156,4348.333496,4304.615234,4318.846191,4312.179688,4315.512695,4318.077148,4297.436035,4501.410156,4525.897461,4406.666504,4466.025879,0.000000,2.000000,40.000000,,,,0.000000,4.000000,4.000000,4.000000,4.000000,4.000000,4.000000,4.000000,4.000000,4.000000,4.000000,4.000000,4.000000,4.000000,4.000000,100.000000,,,,,,,,,,,,,,,,,,,,,,,,,,,,,,,,,,,,,,,,,,,,,,,,,,,,,,,,,,,,,,,,,,,,,,,,,,,,,,,,,,,,,,,,,,,,,,,,,,,,,,,,,,,,,,,,,,,,,
1768295159.662201,1768295159.662576,27.000000,0.000000,4331.025879,4329.871582,4337.179688,4345.641113,4305.641113,4312.307617,4307.179688,4306.922852,4314.615234,4293.333496,4498.333496,4524.487305,4405.256348,4463.077148,0.000000,2.000000,40.000000,,,,0.000000,4.000000,4.000000,4.000000,4.000000,4.000000,4.000000,4.000000,4.000000,4.000000,4.000000,4.000000,4.000000,4.000000,4.000000,100.000000,,,,,,,,,,,,,,,,,,,,,,,,,,,,,,,,,,,,,,,,,,,,,,,,,,,,,,,,,,,,,,,,,,,,,,,,,,,,,,,,,,,,,,,,,,,,,,,,,,,,,,,,,,,,,,,,,,,,,
1768295159.670010,1768295159.670185,28.000000,0.000000,4328.589844,4330.128418,4338.077148,4344.230957,4303.461426,4317.051270,4314.358887,4312.820313,4320.000000,4301.666504,4500.000000,4527.436035,4403.077148,4460.769043,0.000000,2.000000,40.000000,,,,0.000000,4.000000,4.000000,4.000000,4.000000,4.000000,4.000000,4.000000,4.000000,4.000000,4.000000,4.000000,4.000000,4.000000,4.000000,100.000000,,,,,,,,,,,,,,,,,,,,,,,,,,,,,,,,,,,,,,,,,,,,,,,,,,,,,,,,,,,,,,,,,,,,,,,,,,,,,,,,,,,,,,,,,,,,,,,,,,,,,,,,,,,,,,,,,,,,,
1768295159.677818,1768295159.677993,29.000000,0.000000,4335.000000,4330.897461,4344.615234,4348.589844,4299.743652,4320.128418,4317.436035,4322.307617,4324.487305,4302.436035,4507.948730,4535.512695,4407.820313,4471.410156,0.000000,2.000000,40.000000,,,,0.000000,4.000000,4.000000,4.000000,4.000000,4.000000,4.000000,4.000000,4.000000,4.000000,4.000000,4.000000,4.000000,4.000000,4.000000,100.000000,,,,,,,,,,,,,,,,,,,,,,,,,,,,,,,,,,,,,,,,,,,,,,,,,,,,,,,,,,,,,,,,,,,,,,,,,,,,,,,,,,,,,,,,,,,,,,,,,,,,,,,,,,,,,,,,,,,,,
1768295159.685627,1768295159.685702,30.000000,0.000000,4342.692383,4331.538574,4350.000000,4353.077148,4298.846191,4310.769043,4307.436035,4318.846191,4321.666504,4298.077148,4511.025879,4543.974121,4417.436035,4480.769043,0.000000,2.000000,40.000000,,,,0.000000,4.000000,4.000000,4.000000,4.000000,4.000000,4.000000,4.000000,4.000000,4.000000,4.000000,4.000000,4.000000,4.000000,4.000000,100.000000,,,,,,,,,,,,,,,,,,,,,,,,,,,,,,,,,,,,,,,,,,,,,,,,0.822525,0.768155,0.906771,0.548345,0.176344,0.820656,0.907367,0.285195,0.215748,0.136808,0.624353,0.865539,0.437916,0.340369,0.161898,0.480493,0.328139,0.305374,0.218056,0.090611,0.209305,0.188467,0.188224,0.116735,0.093235,0.152162,0.123630,0.075422,0.055139,0.056214,0.114726,0.407714,0.337400,0.255160,0.175981,0.301728,0.524506,0.562664,0.232320,0.193102,0.131365,0.175540,0.287810,0.192538,0.080723,0.162500,0.831050,1.084008,0.727919,0.340292,0.200693,0.189686,0.183437,0.177930,0.068893,1.008484,0.734501,0.932697,0.646842,0.188788,0.579014,0.302587,0.540825,0.432237,0.164760,1.361494,0.689630,0.907911,0.733015,0.212069
1768295159.693435,1768295159.693510,31.000000,0.000000,4340.128418,4328.461426,4347.948730,4354.102539,4300.897461,4307.948730,4303.077148,4316.666504,4320.256348,4307.820313,4506.666504,4542.563965,4421.922852,4477.179688,0.000000,2.000000,40.000000,,,,0.000000,4.000000,4.000000,4.000000,4.000000,4.000000,4.000000,4.000000,4.000000,4.000000,4.000000,4.000000,4.000000,4.000000,4.000000,100.000000,,,,,,,,,,,,,,,,,,,,,,,,,,,,,,,,,,,,,,,,,,,,,,,,,,,,,,,,,,,,,,,,,,,,,,,,,,,,,,,,,,,,,,,,,,,,,,,,,,,,,,,,,,,,,,,,,,,,,
1768295159.701244,1768295159.701519,32.000000,0.000000,4333.333496,4326.025879,4345.641113,4354.102539,4301.538574,4313.077148,4311.153809,4321.410156,4325.641113,4310.256348,4503.333496,4535.000000,4414.487305,4469.230957,0.000000,2.000000,40.000000,,,,0.000000,4.000000,4.000000,4.000000,4.000000,4.000000,4.000000,4.000000,4.000000,4.000000,4.000000,4.000000,4.000000,4.000000,4.000000,100.000000,,,,,,,,,,,,,,,,,,,,,,,,,,,,,,,,,,,,,,,,,,,,,,,,,,,,,,,,,,,,,,,,,,,,,,,,,,,,,,,,,,,,,,,,,,,,,,,,,,,,,,,,,,,,,,,,,,,,,
1768295159.709052,1768295159.709327,33.000000,0.000000,4329.743652,4322.948730,4343.205078,4352.051270,4299.487305,4309.230957,4307.820313,4319.871582,4323.974121,4297.692383,4505.128418,4535.128418,4407.692383,4468.589844,0.000000,2.000000,40.000000,,,,0.000000,4.000000,4.000000,4.000000,4.000000,4.000000,4.000000,4.000000,4.000000,4.000000,4.000000,4.000000,4.000000,4.000000,4.000000,100.000000,,,,,,,,,,,,,,,,,,,,,,,,,,,,,,,,,,,,,,,,,,,,,,,,,,,,,,,,,,,,,,,,,,,,,,,,,,,,,,,,,,,,,,,,,,,,,,,,,,,,,,,,,,,,,,,,,,,,,
1768295159.716860,1768295159.717235,34.000000,0.000000,4334.615234,4322.820313,4348.077148,4352.820313,4302.692383,4308.333496,4301.538574,4318.205078,4320.256348,4300.641113,4509.487305,4546.282227,4418.717773,4477.436035,0.000000,2.000000,40.000000,,,,0.000000,4.000000,4.000000,4.000000,4.000000,4.000000,4.000000,4.000000,4.000000,4.000000,4.000000,4.000000,4.000000,4.000000,4.000000,100.000000,,,,,,,,,,,,,,,,,,,,,,,,,,,,,,,,,,,,,,,,,,,,,,,,,,,,,,,,,,,,,,,,,,,,,,,,,,,,,,,,,,,,,,,,,,,,,,,,,,,,,,,,,,,,,,,,,,,,,
1768295159.724669,1768295159.725044,35.000000,0.000000,4342.820313,4322.051270,4356.282227,4356.794922,4306.666504,4313.589844,4307.692383,4322.820313,4323.846191,4310.000000,4511.794922,4554.871582,4430.641113,4487.436035,0.000000,2.000000,40.000000,,,,0.000000,4.000000,4.000000,4.000000,4.000000,4.000000,4.000000,4.000000,4.000000,4.000000,4.000000,4.000000,4.000000,4.000000,4.000000,100.000000,,,,,,,,,,,,,,,,,,,,,,,,,,,,,,,,,,,,,,,,,,,,,,,,,,,,,,,,,,,,,,,,,,,,,,,,,,,,,,,,,,,,,,,,,,,,,,,,,,,,,,,,,,,,,,,,,,,,,
1768295159.732477,1768295159.733052,36.000000,0.000000,4342.692383,4316.666504,4352.179688,4353.974121,4302.307617,4312.563965,4305.641113,4319.358887,4321.153809,4297.948730,4508.846191,4552.436035,4428.205078,4487.948730,0.000000,2.000000,40.000000,,,,0.000000,4.000000,4.000000,4.000000,4.000000,4.000000,4.000000,4.000000,4.000000,4.000000,4.000000,4.000000,4.000000,4.000000,4.000000,100.000000,,,,,,,,,,,,,,,,,,,,,,,,,,,,,,,,,,,,,,,,,,,,,,,,,,,,,,,,,,,,,,,,,,,,,,,,,,,,,,,,,,,,,,,,,,,,,,,,,,,,,,,,,,,,,,,,,,,,,
1768295159.740286,1768295159.740861,37.000000,0.000000,4337.051270,4315.769043,4343.077148,4349.102539,4298.589844,4308.974121,4297.051270,4315.512695,4317.307617,4292.820313,4505.128418,4545.128418,4422.563965,4480.384766,0.000000,2.000000,40.000000,,,,0.000000,4.000000,4.000000,4.000000,4.000000,4.000000,4.000000,4.000000,4.000000,4.000000,4.000000,4.000000,4.000000,4.000000,4.000000,100.000000,,,,,,,,,,,,,,,,,,,,,,,,,,,,,,,,,,,,,,,,,,,,,,,,,,,,,,,,,,,,,,,,,,,,,,,,,,,,,,,,,,,,,,,,,,,,,,,,,,,,,,,,,,,,,,,,,,,,,
1768295159.748094,1768295159.748569,38.000000,0.000000,4336.922852,4318.589844,4346.410156,4352.563965,4304.615234,4312.179688,4306.666504,4324.487305,4325.000000,4311.282227,4508.205078,4544.487305,4426.282227,4481.410156,0.000000,2.000000,40.000000,,,,0.000000,4.000000,4.000000,4.000000,4.000000,4.000000,4.000000,4.000000,4.000000,4.000000,4.000000,4.000000,4.000000,4.000000,4.000000,100.000000,,,,,,,,,,,,,,,,,,,,,,,,,,,,,,,,,,,,,,,,,,,,,,,,,,,,,,,,,,,,,,,,,,,,,,,,,,,,,,,,,,,,,,,,,,,,,,,,,,,,,,,,,,,,,,,,,,,,,
1768295159.755902,1768295159.756378,39.000000,0.000000,4341.410156,4315.769043,4351.025879,4353.974121,4307.179688,4315.384766,4312.948730,4324.743652,4326.794922,4316.410156,4509.358887,4545.128418,4429.487305,4485.256348,0.000000,2.000000,40.000000,,,,0.000000,4.000000,4.000000,4.000000,4.000000,4.000000,4.000000,4.000000,4.000000,4.000000,4.000000,4.000000,4.000000,4.000000,4.000000,100.000000,,,,,,,,,,,,,,,,,,,,,,,,,,,,,,,,,,,,,,,,,,,,,,,,,,,,,,,,,,,,,,,,,,,,,,,,,,,,,,,,,,,,,,,,,,,,,,,,,,,,,,,,,,,,,,,,,,,,,
1768295159.763711,1768295159.763986,40.000000,0.000000,4340.256348,4310.128418,4347.179688,4348.846191,4301.922852,4311.153809,4307.179688,4314.615234,4316.794922,4301.282227,4503.077148,4538.333496,4421.538574,4476.410156,0.000000,2.000000,40.000000,,,,0.000000,4.000000,4.000000,4.000000,4.000000,4.000000,4.000000,4.000000,4.000000,4.000000,4.000000,4.000000,4.000000,4.000000,4.000000,100.000000,,,,,,,,,,,,,,,,,,,,,,,,,,,,,,,,,,,,,,,,,,,,,,,,,,,,,,,,,,,,,,,,,,,,,,,,,,,,,,,,,,,,,,,,,,,,,,,,,,,,,,,,,,,,,,,,,,,,,
1768295159.771519,1768295159.771795,41.000000,0.000000,4331.282227,4310.000000,4344.102539,4343.589844,4299.615234,4309.358887,4305.897461,4313.974121,4314.615234,4297.820313,4502.692383,4532.051270,4415.512695,4472.820313,0.000000,2.000000,40.000000,,,,0.000000,4.000000,4.000000,4.000000,4.000000,4.000000,4.000000,4.000000,4.000000,4.000000,4.000000,4.000000,4.000000,4.000000,4.000000,100.000000,,,,,,,,,,,,,,,,,,,,,,,,,,,,,,,,,,,,,,,,,,,,,,,,,,,,,,,,,,,,,,,,,,,,,,,,,,,,,,,,,,,,,,,,,,,,,,,,,,,,,,,,,,,,,,,,,,,,,
1768295159.779328,1768295159.779503,42.000000,0.000000,4324.871582,4308.205078,4341.922852,4341.153809,4300.000000,4310.000000,4302.179688,4316.922852,4320.641113,4306.794922,4507.820313,4533.333496,4416.922852,4478.717773,0.000000,2.000000,40.000000,,,,0.000000,4.000000,4.000000,4.000000,4.000000,4.000000,4.000000,4.000000,4.000000,4.000000,4.000000,4.000000,4.000000,4.000000,4.000000,100.000000,,,,,,,,,,,,,,,,,,,,,,,,,,,,,,,,,,,,,,,,,,,,,,,,,,,,,,,,,,,,,,,,,,,,,,,,,,,,,,,,,,,,,,,,,,,,,,,,,,,,,,,,,,,,,,,,,,,,,
1768295159.787136,1768295159.787312,43.000000,0.000000,4325.512695,4300.128418,4340.384766,4341.025879,4298.717773,4309.230957,4299.487305,4317.179688,4322.436035,4302.948730,4507.051270,4538.589844,4414.743652,4474.871582,0.000000,2.000000,40.000000,,,,0.000000,4.000000,4.000000,4.000000,4.000000,4.000000,4.000000,4.000000,4.000000,4.000000,4.000000,4.000000,4.000000,4.000000,4.000000,100.000000,,,,,,,,,,,,,,,,,,,,,,,,,,,,,,,,,,,,,,,,,,,,,,,,,,,,,,,,,,,,,,,,,,,,,,,,,,,,,,,,,,,,,,,,,,,,,,,,,,,,,,,,,,,,,,,,,,,,,
1768295159.794944,1768295159.794920,44.000000,0.000000,4327.820313,4299.102539,4342.436035,4340.128418,4298.717773,4308.589844,4302.436035,4317.307617,4319.615234,4294.230957,4504.615234,4538.974121,4411.538574,4470.000000,0.000000,2.000000,40.000000,,,,0.000000,4.000000,4.000000,4.000000,4.000000,4.000000,4.000000,4.000000,4.000000,4.000000,4.000000,4.000000,4.000000,4.000000,4.000000,100.000000,,,,,,,,,,,,,,,,,,,,,,,,,,,,,,,,,,,,,,,,,,,,,,,,,,,,,,,,,,,,,,,,,,,,,,,,,,,,,,,,,,,,,,,,,,,,,,,,,,,,,,,,,,,,,,,,,,,,,
1768295159.802753,1768295159.802729,45.000000,0.000000,4331.153809,4305.769043,4345.256348,4340.512695,4301.153809,4310.897461,4306.025879,4314.358887,4319.230957,4294.487305,4505.128418,4533.717773,4416.153809,4475.000000,0.000000,2.000000,40.000000,,,,0.000000,4.000000,4.000000,4.000000,4.000000,4.000000,4.000000,4.000000,4.000000,4.000000,4.000000,4.000000,4.000000,4.000000,4.000000,100.000000,,,,,,,,,,,,,,,,,,,,,,,,,,,,,,,,,,,,,,,,,,,,,,,,,,,,,,,,,,,,,,,,,,,,,,,,,,,,,,,,,,,,,,,,,,,,,,,,,,,,,,,,,,,,,,,,,,,,,
1768295159.810561,1768295159.810437,46.000000,0.000000,4330.256348,4305.769043,4345.384766,4343.846191,4301.410156,4313.717773,4309.743652,4317.436035,4323.974121,4298.461426,4504.743652,4533.333496,4412.692383,4475.256348,0.000000,2.000000,40.000000,,,,0.000000,4.000000,4.000000,4.000000,4.000000,4.000000,4.000000,4.000000,4.000000,4.000000,4.000000,4.000000,4.000000,4.000000,4.000000,100.000000,,,,,,,,,,,,,,,,,,,,,,,,,,,,,,,,,,,,,,,,,,,,,,,,0.829905,0.807556,0.828371,0.600759,0.167856,0.788694,0.992180,0.267537,0.211121,0.128355,0.565827,0.817862,0.396552,0.362441,0.148038,0.364860,0.423163,0.253713,0.232376,0.087643,0.179044,0.221852,0.173967,0.135891,0.092420,0.156153,0.124166,0.064125,0.066476,0.058361,0.137408,0.328916,0.280274,0.279114,0.154674,0.244065,0.459135,0.558445,0.258337,0.188882,0.099260,0.146545,0.261440,0.198995,0.082167,0.164312,0.825694,1.123747,0.762067,0.356773,0.176239,0.224558,0.143578,0.204335,0.063819,0.996816,0.745791,0.879204,0.673714,0.187808,0.562461,0.318536,0.459590,0.455308,0.155023,1.299421,0.736395,0.951625,0.783981,0.209194
1768295159.818370,1768295159.818246,47.000000,0.000000,4324.615234,4301.666504,4341.282227,4342.307617,4298.589844,4310.256348,4306.282227,4324.487305,4325.000000,4302.692383,4502.948730,4536.025879,4403.717773,4472.948730,0.000000,2.000000,40.000000,,,,0.000000,4.000000,4.000000,4.000000,4.000000,4.000000,4.000000,4.000000,4.000000,4.000000,4.000000,4.000000,4.000000,4.000000,4.000000,100.000000,,,,,,,,,,,,,,,,,,,,,,,,,,,,,,,,,,,,,,,,,,,,,,,,,,,,,,,,,,,,,,,,,,,,,,,,,,,,,,,,,,,,,,,,,,,,,,,,,,,,,,,,,,,,,,,,,,,,,
1768295159.826178,1768295159.825854,48.000000,0.000000,4325.256348,4307.692383,4341.538574,4340.641113,4300.128418,4309.358887,4301.538574,4322.563965,4319.615234,4304.102539,4507.051270,4538.846191,4414.230957,4482.692383,0.000000,2.000000,40.000000,,,,0.000000,4.000000,4.000000,4.000000,4.000000,4.000000,4.000000,4.000000,4.000000,4.000000,4.000000,4.000000,4.000000,4.000000,4.000000,100.000000,,,,,,,,,,,,,,,,,,,,,,,,,,,,,,,,,,,,,,,,,,,,,,,,,,,,,,,,,,,,,,,,,,,,,,,,,,,,,,,,,,,,,,,,,,,,,,,,,,,,,,,,,,,,,,,,,,,,,
1768295159.833987,1768295159.833663,49.000000,0.000000,4332.179688,4313.205078,4345.256348,4346.666504,4300.256348,4312.436035,4302.179688,4314.358887,4315.512695,4303.846191,4511.025879,4535.512695,4426.025879,4486.410156,0.000000,2.000000,40.000000,,,,0.000000,4.000000,4.000000,4.000000,4.000000,4.000000,4.000000,4.000000,4.000000,4.000000,4.000000,4.000000,4.000000,4.000000,4.000000,100.000000,,,,,,,,,,,,,,,,,,,,,,,,,,,,,,,,,,,,,,,,,,,,,,,,,,,,,,,,,,,,,,,,,,,,,,,,,,,,,,,,,,,,,,,,,,,,,,,,,,,,,,,,,,,,,,,,,,,,,
1768295159.841795,1768295159.841571,50.000000,0.000000,4334.743652,4311.794922,4345.384766,4348.717773,4297.179688,4310.512695,4296.922852,4314.615234,4318.717773,4301.922852,4504.743652,4531.410156,4415.000000,4478.333496,0.000000,2.000000,40.000000,,,,0.000000,4.000000,4.000000,4.000000,4.000000,4.000000,4.000000,4.000000,4.000000,4.000000,4.000000,4.000000,4.000000,4.000000,4.000000,100.000000,,,,,,,,,,,,,,,,,,,,,,,,,,,,,,,,,,,,,,,,,,,,,,,,,,,,,,,,,,,,,,,,,,,,,,,,,,,,,,,,,,,,,,,,,,,,,,,,,,,,,,,,,,,,,,,,,,,,,
1768295159.849604,1768295159.849380,51.000000,0.000000,4331.666504,4313.333496,4346.538574,4345.256348,4298.205078,4307.948730,4298.846191,4325.256348,4323.974121,4302.820313,4501.922852,4535.897461,4406.153809,4479.230957,0.000000,2.000000,40.000000,,,,0.000000,4.000000,4.000000,4.000000,4.000000,4.000000,4.000000,4.000000,4.000000,4.000000,4.000000,4.000000,4.000000,4.000000,4.000000,100.000000,,,,,,,,,,,,,,,,,,,,,,,,,,,,,,,,,,,,,,,,,,,,,,,,,,,,,,,,,,,,,,,,,,,,,,,,,,,,,,,,,,,,,,,,,,,,,,,,,,,,,,,,,,,,,,,,,,,,,
1768295159.857412,1768295159.857388,52.000000,0.000000,4327.436035,4314.487305,4350.000000,4349.487305,4304.230957,4311.282227,4309.871582,4324.871582,4322.436035,4303.205078,4507.179688,4542.436035,4414.743652,4484.743652,0.000000,2.000000,40.000000,,,,0.000000,4.000000,4.000000,4.000000,4.000000,4.000000,4.000000,4.000000,4.000000,4.000000,4.000000,4.000000,4.000000,4.000000,4.000000,100.000000,,,,,,,,,,,,,,,,,,,,,,,,,,,,,,,,,,,,,,,,,,,,,,,,,,,,,,,,,,,,,,,,,,,,,,,,,,,,,,,,,,,,,,,,,,,,,,,,,,,,,,,,,,,,,,,,,,,,,
1768295159.865220,1768295159.865196,53.000000,0.000000,4324.102539,4310.000000,4347.692383,4350.897461,4303.974121,4313.333496,4301.922852,4315.128418,4316.666504,4298.717773,4509.615234,4540.641113,4417.307617,4480.641113,0.000000,2.000000,40.000000,,,,0.000000,4.000000,4.000000,4.000000,4.000000,4.000000,4.000000,4.000000,4.000000,4.000000,4.000000,4.000000,4.000000,4.000000,4.000000,100.000000,,,,,,,,,,,,,,,,,,,,,,,,,,,,,,,,,,,,,,,,,,,,,,,,,,,,,,,,,,,,,,,,,,,,,,,,,,,,,,,,,,,,,,,,,,,,,,,,,,,,,,,,,,,,,,,,,,,,,
1768295159.873029,1768295159.872905,54.000000,0.000000,4323.205078,4306.538574,4342.307617,4342.563965,4296.666504,4308.717773,4291.538574,4315.384766,4316.794922,4299.102539,4504.615234,4532.179688,4407.820313,4473.205078,0.000000,2.000000,40.000000,,,,0.000000,4.000000,4.000000,4.000000,4.000000,4.000000,4.000000,4.000000,4.000000,4.000000,4.000000,4.000000,4.000000,4.000000,4.000000,100.000000,,,,,,,,,,,,,,,,,,,,,,,,,,,,,,,,,,,,,,,,,,,,,,,,,,,,,,,,,,,,,,,,,,,,,,,,,,,,,,,,,,,,,,,,,,,,,,,,,,,,,,,,,,,,,,,,,,,,,
1768295159.880837,1768295159.880713,55.000000,0.000000,4324.487305,4308.589844,4343.846191,4342.820313,4297.820313,4310.641113,4304.358887,4323.205078,4319.871582,4308.077148,4501.922852,4530.512695,4407.692383,4475.512695,0.000000,2.000000,40.000000,,,,0.000000,4.000000,4.000000,4.000000,4.000000,4.000000,4.000000,4.000000,4.000000,4.000000,4.000000,4.000000,4.000000,4.000000,4.000000,100.000000,,,,,,,,,,,,,,,,,,,,,,,,,,,,,,,,,,,,,,,,,,,,,,,,,,,,,,,,,,,,,,,,,,,,,,,,,,,,,,,,,,,,,,,,,,,,,,,,,,,,,,,,,,,,,,,,,,,,,
