title:remote_20, start timestamp:1768295542.321414, stop timestamp:1768295572.524386, headset type:EPOCX, headset serial:E5020E3B, headset firmware:730, channels:156, sampling rate:eeg_128;pm_0.1;pow_8, samples:3869      , version:2.2, 
Timestamp,OriginalTimestamp,EEG.Counter,EEG.Interpolated,EEG.AF3,EEG.F7,EEG.F3,EEG.FC5,EEG.T7,EEG.P7,EEG.O1,EEG.O2,EEG.P8,EEG.T8,EEG.FC6,EEG.F4,EEG.F8,EEG.AF4,EEG.RawCq,EEG.Battery,EEG.BatteryPercent,MarkerIndex,MarkerType,MarkerValueInt,EEG.MarkerHardware,CQ.AF3,CQ.F7,CQ.F3,CQ.FC5,CQ.T7,CQ.P7,CQ.O1,CQ.O2,CQ.P8,CQ.T8,CQ.FC6,CQ.F4,CQ.F8,CQ.AF4,CQ.Overall,EQ.SampleRateQuality,EQ.OVERALL,EQ.AF3,EQ.F7,EQ.F3,EQ.FC5,EQ.T7,EQ.P7,EQ.O1,EQ.O2,EQ.P8,EQ.T8,EQ.FC6,EQ.F4,EQ.F8,EQ.AF4,PM.Attention.IsActive,PM.Attention.Scaled,PM.Attention.Raw,PM.Attention.Min,PM.Attention.Max,PM.Engagement.IsActive,PM.Engagement.Scaled,PM.Engagement.Raw,PM.Engagement.Min,PM.Engagement.Max,PM.Excitement.IsActive,PM.Excitement.Scaled,PM.Excitement.Raw,PM.Excitement.Min,PM.Excitement.Max,PM.LongTermExcitement,PM.Stress.IsActive,PM.Stress.Scaled,PM.Stress.Raw,PM.Stress.Min,PM.Stress.Max,PM.Relaxation.IsActive,PM.Relaxation.Scaled,PM.Relaxation.Raw,PM.Relaxation.Min,PM.Relaxation.Max,PM.Interest.IsActive,PM.Interest.Scaled,PM.Interest.Raw,PM.Interest.Min,PM.Interest.Max,POW.AF3.Theta,POW.AF3.Alpha,POW.AF3.BetaL,POW.AF3.BetaH,POW.AF3.Gamma,POW.F7.Theta,POW.F7.Alpha,POW.F7.BetaL,POW.F7.BetaH,POW.F7.Gamma,POW.F3.Theta,POW.F3.Alpha,POW.F3.BetaL,POW.F3.BetaH,POW.F3.Gamma,POW.FC5.Theta,POW.FC5.Alpha,POW.FC5.BetaL,POW.FC5.BetaH,POW.FC5.Gamma,POW.T7.Theta,POW.T7.Alpha,POW.T7.BetaL,POW.T7.BetaH,POW.T7.Gamma,POW.P7.Theta,POW.P7.Alpha,POW.P7.BetaL,POW.P7.BetaH,POW.P7.Gamma,POW.O1.Theta,POW.O1.Alpha,POW.O1.BetaL,POW.O1.BetaH,POW.O1.Gamma,POW.O2.Theta,POW.O2.Alpha,POW.O2.BetaL,POW.O2.BetaH,POW.O2.Gamma,POW.P8.Theta,POW.P8.Alpha,POW.P8.BetaL,POW.P8.BetaH,POW.P8.Gamma,POW.T8.Theta,POW.T8.Alpha,POW.T8.BetaL,POW.T8.BetaH,POW.T8.Gamma,POW.FC6.Theta,POW.FC6.Alpha,POW.FC6.BetaL,POW.FC6.BetaH,POW.FC6.Gamma,POW.F4.Theta,POW.F4.Alpha,POW.F4.BetaL,POW.F4.BetaH,POW.F4.Gamma,POW.F8.Theta,POW.F8.Alpha,POW.F8.BetaL,POW.F8.BetaH,POW.F8.Gamma,POW.AF4.Theta,POW.AF4.Alpha,POW.AF4.BetaL,POW.AF4.BetaH,POW.AF4.Gamma
1768295542.321414,1768295542.322331,9.000000,0.000000,4323.205078,4325.897461,4342.307617,4340.384766,4297.436035,4304.358887,4302.436035,4327.948730,4327.563965,4307.692383,4497.563965,4534.358887,4407.436035,4461.410156,3623.000000,2.000000,38.000000,,,,0.000000,4.000000,4.000000,4.000000,4.000000,4.000000,4.000000,4.000000,4.000000,4.000000,4.000000,4.000000,4.000000,4.000000,4.000000,100.000000,,,,,,,,,,,,,,,,,,,,,,,,,,,,,,,,,,,,,,,,,,,,,,,,,,,,,,,,,,,,,,,,,,,,,,,,,,,,,,,,,,,,,,,,,,,,,,,,,,,,,,,,,,,,,,,,,,,,,
1768295542.329223,1768295542.330240,10.000000,0.000000,4323.205078,4325.384766,4340.641113,4339.871582,4296.410156,4301.794922,4298.846191,4327.051270,4324.487305,4305.512695,4499.230957,4532.820313,4405.384766,4466.666504,3625.000000,2.000000,38.000000,,,,0.000000,4.000000,4.000000,4.000000,4.000000,4.000000,4.000000,4.000000,4.000000,4.000000,4.000000,4.000000,4.000000,4.000000,4.000000,100.000000,,,,,,,,,,,,,,,,,,,,,,,,,,,,,,,,,,,,,,,,,,,,,,,,,,,,,,,,,,,,,,,,,,,,,,,,,,,,,,,,,,,,,,,,,,,,,,,,,,,,,,,,,,,,,,,,,,,,,
1768295542.337031,1768295542.338048,11.000000,0.000000,4330.256348,4325.897461,4343.205078,4343.846191,4297.436035,4305.641113,4301.666504,4326.794922,4322.948730,4304.358887,4499.358887,4536.153809,4409.102539,4477.179688,4677.000000,2.000000,38.000000,,,,0.000000,4.000000,4.000000,4.000000,4.000000,4.000000,4.000000,4.000000,4.000000,4.000000,4.000000,4.000000,4.000000,4.000000,4.000000,100.000000,,,,,,,,,,,,,,,,,,,,,,,,,,,,,,,,,,,,,,,,,,,,,,,,,,,,,,,,,,,,,,,,,,,,,,,,,,,,,,,,,,,,,,,,,,,,,,,,,,,,,,,,,,,,,,,,,,,,,
1768295542.344840,1768295542.346057,12.000000,0.000000,4337.563965,4328.333496,4350.641113,4348.846191,4299.230957,4309.743652,4309.615234,4325.384766,4324.102539,4304.743652,4500.512695,4542.820313,4413.077148,4481.153809,2282.000000,2.000000,38.000000,,,,0.000000,4.000000,4.000000,4.000000,4.000000,4.000000,4.000000,4.000000,4.000000,4.000000,4.000000,4.000000,4.000000,4.000000,4.000000,100.000000,,,,,,,,,,,,,,,,,,,,,,,,,,,,,,,,,,,,,,,,,,,,,,,,,,,,,,,,,,,,,,,,,,,,,,,,,,,,,,,,,,,,,,,,,,,,,,,,,,,,,,,,,,,,,,,,,,,,,
1768295542.352648,1768295542.353865,13.000000,0.000000,4340.256348,4328.974121,4355.128418,4345.769043,4301.153809,4307.692383,4306.410156,4326.794922,4323.846191,4304.358887,4502.307617,4541.282227,4408.589844,4478.205078,5410.000000,2.000000,38.000000,,,,0.000000,4.000000,4.000000,4.000000,4.000000,4.000000,4.000000,4.000000,4.000000,4.000000,4.000000,4.000000,4.000000,4.000000,4.000000,100.000000,,,,,,,,,,,,,,,,,,,,,,,,,,,,,,,,,,,,,,,,,,,,,,,,,,,,,,,,,,,,,,,,,,,,,,,,,,,,,,,,,,,,,,,,,,,,,,,,,,,,,,,,,,,,,,,,,,,,,
1768295542.360457,1768295542.361773,14.000000,0.000000,4339.102539,4327.051270,4354.743652,4341.666504,4301.794922,4308.333496,4302.563965,4328.846191,4323.205078,4303.974121,4500.641113,4537.051270,4402.307617,4478.846191,3625.000000,2.000000,38.000000,,,,0.000000,4.000000,4.000000,4.000000,4.000000,4.000000,4.000000,4.000000,4.000000,4.000000,4.000000,4.000000,4.000000,4.000000,4.000000,100.000000,1.000000,16.666666,4.000000,4.000000,4.000000,4.000000,4.000000,0.000000,4.000000,4.000000,1.000000,4.000000,1.000000,4.000000,4.000000,4.000000,,,,,,,,,,,,,,,,,,,,,,,,,,,,,,,,0.357161,0.448981,0.318760,0.255363,0.199713,0.988567,0.495686,0.250565,0.367615,0.135545,0.861461,0.590760,0.422026,0.205340,0.143554,0.497023,0.437803,0.301749,0.166830,0.086718,0.332293,0.278932,0.056764,0.129667,0.039168,0.064103,0.070933,0.068999,0.074709,0.044045,0.182416,0.269967,0.266626,0.194542,0.187308,0.277857,0.478267,0.331295,0.206557,0.146898,0.111219,0.210381,0.165299,0.080306,0.056017,0.339923,0.333427,0.218739,0.276732,0.126477,0.202658,0.246215,0.124613,0.065938,0.074010,1.413658,0.929913,0.669008,0.361652,0.273020,0.501118,0.413741,0.361632,0.243662,0.185006,1.522826,0.743414,0.541217,0.372351,0.379387
1768295542.368265,1768295542.369582,15.000000,0.000000,4335.128418,4326.538574,4352.436035,4344.230957,4300.256348,4308.846191,4304.743652,4325.512695,4320.384766,4301.538574,4498.846191,4540.384766,4402.948730,4481.794922,4677.000000,2.000000,38.000000,,,,0.000000,4.000000,4.000000,4.000000,4.000000,4.000000,4.000000,4.000000,4.000000,4.000000,4.000000,4.000000,4.000000,4.000000,4.000000,100.000000,,,,,,,,,,,,,,,,,,,,,,,,,,,,,,,,,,,,,,,,,,,,,,,,,,,,,,,,,,,,,,,,,,,,,,,,,,,,,,,,,,,,,,,,,,,,,,,,,,,,,,,,,,,,,,,,,,,,,
1768295542.376073,1768295542.377190,16.000000,0.000000,4335.769043,4324.871582,4353.333496,4348.846191,4298.846191,4307.436035,4304.615234,4323.461426,4320.128418,4296.538574,4500.641113,4545.769043,4406.794922,4482.820313,0.000000,2.000000,38.000000,,,,0.000000,4.000000,4.000000,4.000000,4.000000,4.000000,4.000000,4.000000,4.000000,4.000000,4.000000,4.000000,4.000000,4.000000,4.000000,100.000000,,,,,,,,,,,,,,,,,,,,,,,,,,,,,,,,,,,,,,,,,,,,,,,,,,,,,,,,,,,,,,,,,,,,,,,,,,,,,,,,,,,,,,,,,,,,,,,,,,,,,,,,,,,,,,,,,,,,,
1768295542.383882,1768295542.384999,17.000000,0.000000,4339.615234,4319.102539,4354.358887,4349.871582,4297.820313,4308.846191,4306.538574,4330.000000,4322.820313,4298.333496,4502.820313,4549.230957,4407.563965,4488.333496,0.000000,2.000000,38.000000,,,,0.000000,4.000000,4.000000,4.000000,4.000000,4.000000,4.000000,4.000000,4.000000,4.000000,4.000000,4.000000,4.000000,4.000000,4.000000,100.000000,,,,,,,,,,,,,,,,,,,,,,,,,,,,,,,,,,,,,,,,,,,,,,,,,,,,,,,,,,,,,,,,,,,,,,,,,,,,,,,,,,,,,,,,,,,,,,,,,,,,,,,,,,,,,,,,,,,,,
1768295542.391690,1768295542.392707,18.000000,0.000000,4335.641113,4315.512695,4350.384766,4345.000000,4296.282227,4306.538574,4304.102539,4330.000000,4322.436035,4299.743652,4501.538574,4545.000000,4401.666504,4482.820313,0.000000,2.000000,38.000000,,,,0.000000,4.000000,4.000000,4.000000,4.000000,4.000000,4.000000,4.000000,4.000000,4.000000,4.000000,4.000000,4.000000,4.000000,4.000000,100.000000,,,,,,,,,,,,,,,,,,,,,,,,,,,,,,,,,,,,,,,,,,,,,,,,,,,,,,,,,,,,,,,,,,,,,,,,,,,,,,,,,,,,,,,,,,,,,,,,,,,,,,,,,,,,,,,,,,,,,
1768295542.399499,1768295542.400516,19.000000,0.000000,4330.000000,4312.307617,4344.871582,4339.102539,4296.666504,4299.743652,4292.692383,4319.743652,4321.922852,4296.794922,4498.974121,4537.692383,4395.897461,4468.333496,0.000000,2.000000,38.000000,,,,0.000000,4.000000,4.000000,4.000000,4.000000,4.000000,4.000000,4.000000,4.000000,4.000000,4.000000,4.000000,4.000000,4.000000,4.000000,100.000000,,,,,,,,,,,,,,,,,,,,,,,,,,,,,,,,,,,,,,,,,,,,,,,,,,,,,,,,,,,,,,,,,,,,,,,,,,,,,,,,,,,,,,,,,,,,,,,,,,,,,,,,,,,,,,,,,,,,,
1768295542.407307,1768295542.408124,20.000000,0.000000,4335.128418,4312.307617,4345.641113,4343.717773,4300.897461,4301.153809,4298.333496,4324.230957,4325.641113,4298.717773,4502.307617,4542.307617,4402.179688,4473.846191,0.000000,2.000000,38.000000,,,,0.000000,4.000000,4.000000,4.000000,4.000000,4.000000,4.000000,4.000000,4.000000,4.000000,4.000000,4.000000,4.000000,4.000000,4.000000,100.000000,,,,,,,,,,,,,,,,,,,,,,,,,,,,,,,,,,,,,,,,,,,,,,,,,,,,,,,,,,,,,,,,,,,,,,,,,,,,,,,,,,,,,,,,,,,,,,,,,,,,,,,,,,,,,,,,,,,,,
1768295542.415115,1768295542.415933,21.000000,0.000000,4339.487305,4316.922852,4347.948730,4351.666504,4302.563965,4310.641113,4316.922852,4333.461426,4326.282227,4298.333496,4507.436035,4544.743652,4409.102539,4486.538574,0.000000,2.000000,38.000000,,,,0.000000,4.000000,4.000000,4.000000,4.000000,4.000000,4.000000,4.000000,4.000000,4.000000,4.000000,4.000000,4.000000,4.000000,4.000000,100.000000,,,,,,,,,,,,,,,,,,,,,,,,,,,,,,,,,,,,,,,,,,,,,,,,,,,,,,,,,,,,,,,,,,,,,,,,,,,,,,,,,,,,,,,,,,,,,,,,,,,,,,,,,,,,,,,,,,,,,
1768295542.422924,1768295542.423641,22.000000,0.000000,4332.307617,4314.871582,4345.512695,4348.846191,4298.846191,4311.922852,4314.358887,4329.871582,4322.692383,4295.000000,4506.025879,4535.512695,4405.512695,4478.717773,0.000000,2.000000,38.000000,,,,0.000000,4.000000,4.000000,4.000000,4.000000,4.000000,4.000000,4.000000,4.000000,4.000000,4.000000,4.000000,4.000000,4.000000,4.000000,100.000000,,,,,,,,,,,,,,,,,,,,,,,,,,,,,,,,,,,,,,,,,,,,,,,,,,,,,,,,,,,,,,,,,,,,,,,,,,,,,,,,,,,,,,,,,,,,,,,,,,,,,,,,,,,,,,,,,,,,,
1768295542.430732,1768295542.431450,23.000000,0.000000,4330.641113,4308.717773,4344.102539,4344.871582,4298.589844,4304.487305,4300.897461,4322.948730,4322.563965,4297.436035,4501.153809,4531.794922,4400.384766,4467.948730,0.000000,2.000000,38.000000,,,,0.000000,4.000000,4.000000,4.000000,4.000000,4.000000,4.000000,4.000000,4.000000,4.000000,4.000000,4.000000,4.000000,4.000000,4.000000,100.000000,,,,,,,,,,,,,,,,,,,,,,,,,,,,,,,,,,,,,,,,,,,,,,,,,,,,,,,,,,,,,,,,,,,,,,,,,,,,,,,,,,,,,,,,,,,,,,,,,,,,,,,,,,,,,,,,,,,,,
1768295542.438541,1768295542.439458,24.000000,0.000000,4337.436035,4311.282227,4344.487305,4346.794922,4301.282227,4300.897461,4297.563965,4317.436035,4321.410156,4300.384766,4500.384766,4535.384766,4402.563965,4472.692383,0.000000,2.000000,38.000000,,,,0.000000,4.000000,4.000000,4.000000,4.000000,4.000000,4.000000,4.000000,4.000000,4.000000,4.000000,4.000000,4.000000,4.000000,4.000000,100.000000,,,,,,,,,,,,,,,,,,,,,,,,,,,,,,,,,,,,,,,,,,,,,,,,,,,,,,,,,,,,,,,,,,,,,,,,,,,,,,,,,,,,,,,,,,,,,,,,,,,,,,,,,,,,,,,,,,,,,
1768295542.446349,1768295542.447267,25.000000,0.000000,4335.641113,4314.743652,4344.871582,4345.384766,4301.410156,4304.102539,4301.153809,4321.282227,4321.282227,4300.000000,4505.000000,4538.461426,4405.897461,4477.307617,0.000000,2.000000,38.000000,,,,0.000000,4.000000,4.000000,4.000000,4.000000,4.000000,4.000000,4.000000,4.000000,4.000000,4.000000,4.000000,4.000000,4.000000,4.000000,100.000000,,,,,,,,,,,,,,,,,,,,,,,,,,,,,,,,,,,,,,,,,,,,,,,,,,,,,,,,,,,,,,,,,,,,,,,,,,,,,,,,,,,,,,,,,,,,,,,,,,,,,,,,,,,,,,,,,,,,,
1768295542.454157,1768295542.454975,26.000000,0.000000,4332.820313,4312.820313,4345.384766,4344.871582,4303.333496,4308.589844,4306.153809,4330.000000,4325.897461,4303.077148,4505.256348,4541.282227,4403.846191,4473.333496,0.000000,2.000000,38.000000,,,,0.000000,4.000000,4.000000,4.000000,4.000000,4.000000,4.000000,4.000000,4.000000,4.000000,4.000000,4.000000,4.000000,4.000000,4.000000,100.000000,,,,,,,,,,,,,,,,,,,,,,,,,,,,,,,,,,,,,,,,,,,,,,,,,,,,,,,,,,,,,,,,,,,,,,,,,,,,,,,,,,,,,,,,,,,,,,,,,,,,,,,,,,,,,,,,,,,,,
1768295542.461966,1768295542.462784,27.000000,0.000000,4333.333496,4313.589844,4345.897461,4347.692383,4305.000000,4309.102539,4305.897461,4329.230957,4326.666504,4303.717773,4499.102539,4535.384766,4400.000000,4467.307617,0.000000,2.000000,38.000000,,,,0.000000,4.000000,4.000000,4.000000,4.000000,4.000000,4.000000,4.000000,4.000000,4.000000,4.000000,4.000000,4.000000,4.000000,4.000000,100.000000,,,,,,,,,,,,,,,,,,,,,,,,,,,,,,,,,,,,,,,,,,,,,,,,,,,,,,,,,,,,,,,,,,,,,,,,,,,,,,,,,,,,,,,,,,,,,,,,,,,,,,,,,,,,,,,,,,,,,
1768295542.469774,1768295542.470392,28.000000,0.000000,4330.128418,4314.487305,4344.102539,4347.692383,4302.436035,4307.820313,4301.794922,4328.846191,4324.871582,4301.666504,4500.000000,4528.333496,4400.384766,4466.025879,0.000000,2.000000,38.000000,,,,0.000000,4.000000,4.000000,4.000000,4.000000,4.000000,4.000000,4.000000,4.000000,4.000000,4.000000,4.000000,4.000000,4.000000,4.000000,100.000000,,,,,,,,,,,,,,,,,,,,,,,,,,,,,,,,,,,,,,,,,,,,,,,,,,,,,,,,,,,,,,,,,,,,,,,,,,,,,,,,,,,,,,,,,,,,,,,,,,,,,,,,,,,,,,,,,,,,,
1768295542.477583,1768295542.478201,29.000000,0.000000,4329.102539,4312.948730,4343.717773,4346.538574,4300.512695,4308.333496,4303.846191,4331.282227,4324.102539,4305.641113,4507.051270,4534.615234,4402.563965,4471.025879,0.000000,2.000000,38.000000,,,,0.000000,4.000000,4.000000,4.000000,4.000000,4.000000,4.000000,4.000000,4.000000,4.000000,4.000000,4.000000,4.000000,4.000000,4.000000,100.000000,,,,,,,,,,,,,,,,,,,,,,,,,,,,,,,,,,,,,,,,,,,,,,,,,,,,,,,,,,,,,,,,,,,,,,,,,,,,,,,,,,,,,,,,,,,,,,,,,,,,,,,,,,,,,,,,,,,,,
1768295542.485391,1768295542.485909,30.000000,0.000000,4332.948730,4312.051270,4345.256348,4346.153809,4300.512695,4307.692383,4304.871582,4326.282227,4323.589844,4302.179688,4508.077148,4539.230957,4402.179688,4474.358887,0.000000,2.000000,38.000000,,,,0.000000,4.000000,4.000000,4.000000,4.000000,4.000000,4.000000,4.000000,4.000000,4.000000,4.000000,4.000000,4.000000,4.000000,4.000000,100.000000,,,,,,,,,,,,,,,,,,,,,,,,,,,,,,,,,,,,,,,,,,,,,,,,0.298958,0.536579,0.308445,0.274485,0.207611,0.904503,0.572146,0.235585,0.387553,0.132230,0.651141,0.650697,0.373142,0.208018,0.151848,0.400892,0.524028,0.294711,0.174594,0.093831,0.340816,0.355134,0.066719,0.126225,0.037610,0.062723,0.085111,0.066338,0.075971,0.043707,0.191653,0.364928,0.232018,0.178921,0.187947,0.238766,0.550557,0.314047,0.166978,0.146723,0.114672,0.235511,0.157506,0.075041,0.056421,0.413312,0.379220,0.242915,0.274082,0.122804,0.191706,0.285087,0.127059,0.068567,0.071770,1.254652,1.027896,0.712992,0.364618,0.269889,0.478133,0.501280,0.351891,0.259235,0.197589,1.494172,0.853091,0.530704,0.360625,0.388005
1768295542.493200,1768295542.493718,31.000000,0.000000,4332.307617,4313.974121,4342.692383,4344.743652,4301.025879,4305.000000,4296.410156,4326.538574,4324.871582,4295.384766,4503.461426,4534.487305,4402.820313,4472.820313,0.000000,2.000000,38.000000,,,,0.000000,4.000000,4.000000,4.000000,4.000000,4.000000,4.000000,4.000000,4.000000,4.000000,4.000000,4.000000,4.000000,4.000000,4.000000,100.000000,,,,,,,,,,,,,,,,,,,,,,,,,,,,,,,,,,,,,,,,,,,,,,,,,,,,,,,,,,,,,,,,,,,,,,,,,,,,,,,,,,,,,,,,,,,,,,,,,,,,,,,,,,,,,,,,,,,,,
1768295542.501008,1768295542.501726,32.000000,0.000000,4328.333496,4315.641113,4343.333496,4344.102539,4302.179688,4307.692383,4301.794922,4335.000000,4327.307617,4300.897461,4502.307617,4531.282227,4400.641113,4471.282227,0.000000,2.000000,38.000000,,,,0.000000,4.000000,4.000000,4.000000,4.000000,4.000000,4.000000,4.000000,4.000000,4.000000,4.000000,4.000000,4.000000,4.000000,4.000000,100.000000,,,,,,,,,,,,,,,,,,,,,,,,,,,,,,,,,,,,,,,,,,,,,,,,,,,,,,,,,,,,,,,,,,,,,,,,,,,,,,,,,,,,,,,,,,,,,,,,,,,,,,,,,,,,,,,,,,,,,
1768295542.508817,1768295542.509534,33.000000,0.000000,4327.692383,4313.461426,4346.282227,4348.077148,4305.000000,4315.897461,4320.641113,4336.025879,4326.153809,4306.025879,4505.769043,4532.307617,4397.948730,4470.384766,0.000000,2.000000,38.000000,,,,0.000000,4.000000,4.000000,4.000000,4.000000,4.000000,4.000000,4.000000,4.000000,4.000000,4.000000,4.000000,4.000000,4.000000,4.000000,100.000000,,,,,,,,,,,,,,,,,,,,,,,,,,,,,,,,,,,,,,,,,,,,,,,,,,,,,,,,,,,,,,,,,,,,,,,,,,,,,,,,,,,,,,,,,,,,,,,,,,,,,,,,,,,,,,,,,,,,,
1768295542.516625,1768295542.517443,34.000000,0.000000,4328.205078,4314.102539,4343.077148,4351.666504,4306.025879,4314.102539,4315.384766,4327.820313,4323.589844,4300.128418,4502.948730,4530.128418,4398.461426,4466.025879,0.000000,2.000000,38.000000,,,,0.000000,4.000000,4.000000,4.000000,4.000000,4.000000,4.000000,4.000000,4.000000,4.000000,4.000000,4.000000,4.000000,4.000000,4.000000,100.000000,,,,,,,,,,,,,,,,,,,,,,,,,,,,,,,,,,,,,,,,,,,,,,,,,,,,,,,,,,,,,,,,,,,,,,,,,,,,,,,,,,,,,,,,,,,,,,,,,,,,,,,,,,,,,,,,,,,,,
1768295542.524433,1768295542.525251,35.000000,0.000000,4329.743652,4316.922852,4340.000000,4349.102539,4301.153809,4306.025879,4296.410156,4320.384766,4323.333496,4296.282227,4495.897461,4527.051270,4393.333496,4460.128418,0.000000,2.000000,38.000000,,,,0.000000,4.000000,4.000000,4.000000,4.000000,4.000000,4.000000,4.000000,4.000000,4.000000,4.000000,4.000000,4.000000,4.000000,4.000000,100.000000,,,,,,,,,,,,,,,,,,,,,,,,,,,,,,,,,,,,,,,,,,,,,,,,,,,,,,,,,,,,,,,,,,,,,,,,,,,,,,,,,,,,,,,,,,,,,,,,,,,,,,,,,,,,,,,,,,,,,
1768295542.532242,1768295542.533259,36.000000,0.000000,4327.307617,4312.563965,4343.461426,4342.948730,4299.230957,4306.282227,4296.538574,4319.230957,4322.179688,4296.666504,4495.897461,4528.974121,4391.153809,4459.230957,0.000000,2.000000,38.000000,,,,0.000000,4.000000,4.000000,4.000000,4.000000,4.000000,4.000000,4.000000,4.000000,4.000000,4.000000,4.000000,4.000000,4.000000,4.000000,100.000000,,,,,,,,,,,,,,,,,,,,,,,,,,,,,,,,,,,,,,,,,,,,,,,,,,,,,,,,,,,,,,,,,,,,,,,,,,,,,,,,,,,,,,,,,,,,,,,,,,,,,,,,,,,,,,,,,,,,,
1768295542.540050,1768295542.541068,37.000000,0.000000,4319.102539,4306.538574,4340.897461,4340.769043,4302.820313,4308.461426,4303.205078,4324.102539,4321.538574,4294.871582,4499.102539,4530.384766,4394.615234,4460.769043,0.000000,2.000000,38.000000,,,,0.000000,4.000000,4.000000,4.000000,4.000000,4.000000,4.000000,4.000000,4.000000,4.000000,4.000000,4.000000,4.000000,4.000000,4.000000,100.000000,,,,,,,,,,,,,,,,,,,,,,,,,,,,,,,,,,,,,,,,,,,,,,,,,,,,,,,,,,,,,,,,,,,,,,,,,,,,,,,,,,,,,,,,,,,,,,,,,,,,,,,,,,,,,,,,,,,,,
1768295542.547859,1768295542.548976,38.000000,0.000000,4319.743652,4309.743652,4331.922852,4342.051270,4303.333496,4306.922852,4303.461426,4330.769043,4323.846191,4297.436035,4502.179688,4528.974121,4396.666504,4463.205078,0.000000,2.000000,38.000000,,,,0.000000,4.000000,4.000000,4.000000,4.000000,4.000000,4.000000,4.000000,4.000000,4.000000,4.000000,4.000000,4.000000,4.000000,4.000000,100.000000,,,,,,,,,,,,,,,,,,,,,,,,,,,,,,,,,,,,,,,,,,,,,,,,,,,,,,,,,,,,,,,,,,,,,,,,,,,,,,,,,,,,,,,,,,,,,,,,,,,,,,,,,,,,,,,,,,,,,
1768295542.555667,1768295542.556785,39.000000,0.000000,4326.794922,4314.102539,4335.000000,4342.307617,4298.974121,4302.436035,4301.538574,4328.333496,4325.256348,4303.333496,4501.153809,4529.871582,4397.820313,4466.794922,0.000000,2.000000,38.000000,,,,0.000000,4.000000,4.000000,4.000000,4.000000,4.000000,4.000000,4.000000,4.000000,4.000000,4.000000,4.000000,4.000000,4.000000,4.000000,100.000000,,,,,,,,,,,,,,,,,,,,,,,,,,,,,,,,,,,,,,,,,,,,,,,,,,,,,,,,,,,,,,,,,,,,,,,,,,,,,,,,,,,,,,,,,,,,,,,,,,,,,,,,,,,,,,,,,,,,,
1768295542.563475,1768295542.564793,40.000000,0.000000,4326.922852,4311.666504,4341.538574,4341.922852,4297.563965,4300.641113,4298.846191,4328.077148,4327.179688,4304.230957,4498.846191,4537.307617,4400.000000,4467.948730,0.000000,2.000000,38.000000,,,,0.000000,4.000000,4.000000,4.000000,4.000000,4.000000,4.000000,4.000000,4.000000,4.000000,4.000000,4.000000,4.000000,4.000000,4.000000,100.000000,,,,,,,,,,,,,,,,,,,,,,,,,,,,,,,,,,,,,,,,,,,,,,,,,,,,,,,,,,,,,,,,,,,,,,,,,,,,,,,,,,,,,,,,,,,,,,,,,,,,,,,,,,,,,,,,,,,,,
1768295542.571284,1768295542.572601,41.000000,0.000000,4330.128418,4309.230957,4343.461426,4342.563965,4300.256348,4307.307617,4303.333496,4336.410156,4329.871582,4304.743652,4503.974121,4543.974121,4405.128418,4474.230957,0.000000,2.000000,38.000000,,,,0.000000,4.000000,4.000000,4.000000,4.000000,4.000000,4.000000,4.000000,4.000000,4.000000,4.000000,4.000000,4.000000,4.000000,4.000000,100.000000,,,,,,,,,,,,,,,,,,,,,,,,,,,,,,,,,,,,,,,,,,,,,,,,,,,,,,,,,,,,,,,,,,,,,,,,,,,,,,,,,,,,,,,,,,,,,,,,,,,,,,,,,,,,,,,,,,,,,
1768295542.579092,1768295542.580310,42.000000,0.000000,4337.948730,4312.820313,4346.153809,4345.641113,4303.205078,4312.307617,4307.692383,4336.410156,4329.102539,4311.410156,4507.820313,4545.128418,4410.256348,4481.922852,0.000000,2.000000,38.000000,,,,0.000000,4.000000,4.000000,4.000000,4.000000,4.000000,4.000000,4.000000,4.000000,4.000000,4.000000,4.000000,4.000000,4.000000,4.000000,100.000000,,,,,,,,,,,,,,,,,,,,,,,,,,,,,,,,,,,,,,,,,,,,,,,,,,,,,,,,,,,,,,,,,,,,,,,,,,,,,,,,,,,,,,,,,,,,,,,,,,,,,,,,,,,,,,,,,,,,,
1768295542.586901,1768295542.588118,43.000000,0.000000,4333.461426,4313.846191,4342.563965,4345.769043,4302.820313,4308.077148,4303.333496,4332.563965,4326.025879,4314.615234,4504.487305,4543.461426,4409.743652,4477.563965,0.000000,2.000000,38.000000,,,,0.000000,4.000000,4.000000,4.000000,4.000000,4.000000,4.000000,4.000000,4.000000,4.000000,4.000000,4.000000,4.000000,4.000000,4.000000,100.000000,,,,,,,,,,,,,,,,,,,,,,,,,,,,,,,,,,,,,,,,,,,,,,,,,,,,,,,,,,,,,,,,,,,,,,,,,,,,,,,,,,,,,,,,,,,,,,,,,,,,,,,,,,,,,,,,,,,,,
1768295542.594709,1768295542.595727,44.000000,0.000000,4327.307617,4309.487305,4338.333496,4344.743652,4303.974121,4307.563965,4306.922852,4332.692383,4323.333496,4310.512695,4503.846191,4538.461426,4407.948730,4470.641113,0.000000,2.000000,38.000000,,,,0.000000,4.000000,4.000000,4.000000,4.000000,4.000000,4.000000,4.000000,4.000000,4.000000,4.000000,4.000000,4.000000,4.000000,4.000000,100.000000,,,,,,,,,,,,,,,,,,,,,,,,,,,,,,,,,,,,,,,,,,,,,,,,,,,,,,,,,,,,,,,,,,,,,,,,,,,,,,,,,,,,,,,,,,,,,,,,,,,,,,,,,,,,,,,,,,,,,
1768295542.602517,1768295542.603535,45.000000,0.000000,4333.461426,4308.846191,4343.717773,4345.641113,4306.794922,4311.153809,4312.948730,4329.102539,4322.563965,4306.025879,4507.436035,4536.025879,4410.641113,4475.128418,0.000000,2.000000,38.000000,,,,0.000000,4.000000,4.000000,4.000000,4.000000,4.000000,4.000000,4.000000,4.000000,4.000000,4.000000,4.000000,4.000000,4.000000,4.000000,100.000000,,,,,,,,,,,,,,,,,,,,,,,,,,,,,,,,,,,,,,,,,,,,,,,,,,,,,,,,,,,,,,,,,,,,,,,,,,,,,,,,,,,,,,,,,,,,,,,,,,,,,,,,,,,,,,,,,,,,,
1768295542.610326,1768295542.611244,46.000000,0.000000,4340.897461,4311.666504,4346.666504,4343.974121,4304.102539,4303.974121,4303.846191,4319.102539,4323.974121,4302.820313,4504.871582,4536.666504,4404.615234,4475.641113,0.000000,2.000000,38.000000,,,,0.000000,4.000000,4.000000,4.000000,4.000000,4.000000,4.000000,4.000000,4.000000,4.000000,4.000000,4.000000,4.000000,4.000000,4.000000,100.000000,,,,,,,,,,,,,,,,,,,,,,,,,,,,,,,,,,,,,,,,,,,,,,,,0.329297,0.590097,0.280401,0.277525,0.211216,0.838130,0.600094,0.208419,0.397578,0.125967,0.593528,0.650067,0.313368,0.198552,0.155189,0.360223,0.565791,0.261955,0.176273,0.101243,0.366848,0.398827,0.083288,0.126106,0.036531,0.068533,0.102569,0.074268,0.074310,0.043922,0.193486,0.492091,0.217228,0.162350,0.196413,0.191115,0.576551,0.287239,0.144541,0.152665,0.122386,0.238737,0.144623,0.075235,0.055851,0.519384,0.421476,0.262848,0.272332,0.116243,0.196864,0.307710,0.124218,0.069320,0.069271,1.224985,1.018206,0.708967,0.348688,0.263374,0.499912,0.551614,0.331054,0.261774,0.200636,1.539082,0.927174,0.498025,0.322922,0.371078
1768295542.618134,1768295542.619052,47.000000,0.000000,4340.384766,4312.948730,4340.512695,4343.333496,4301.025879,4297.948730,4296.666504,4313.589844,4321.666504,4303.077148,4498.333496,4531.794922,4394.358887,4467.436035,0.000000,2.000000,38.000000,,,,0.000000,4.000000,4.000000,4.000000,4.000000,4.000000,4.000000,4.000000,4.000000,4.000000,4.000000,4.000000,4.000000,4.000000,4.000000,100.000000,,,,,,,,,,,,,,,,,,,,,,,,,,,,,,,,,,,,,,,,,,,,,,,,,,,,,,,,,,,,,,,,,,,,,,,,,,,,,,,,,,,,,,,,,,,,,,,,,,,,,,,,,,,,,,,,,,,,,
1768295542.625943,1768295542.626661,48.000000,0.000000,4335.000000,4313.846191,4336.666504,4345.641113,4301.666504,4302.563965,4297.692383,4318.333496,4319.615234,4307.051270,4501.153809,4526.666504,4398.461426,4468.077148,0.000000,2.000000,38.000000,,,,0.000000,4.000000,4.000000,4.000000,4.000000,4.000000,4.000000,4.000000,4.000000,4.000000,4.000000,4.000000,4.000000,4.000000,4.000000,100.000000,,,,,,,,,,,,,,,,,,,,,,,,,,,,,,,,,,,,,,,,,,,,,,,,,,,,,,,,,,,,,,,,,,,,,,,,,,,,,,,,,,,,,,,,,,,,,,,,,,,,,,,,,,,,,,,,,,,,,
1768295542.633751,1768295542.634470,49.000000,0.000000,4330.128418,4312.179688,4337.948730,4343.846191,4302.948730,4303.589844,4292.692383,4318.333496,4320.769043,4306.410156,4505.384766,4528.717773,4402.436035,4469.743652,0.000000,2.000000,38.000000,,,,0.000000,4.000000,4.000000,4.000000,4.000000,4.000000,4.000000,4.000000,4.000000,4.000000,4.000000,4.000000,4.000000,4.000000,4.000000,100.000000,,,,,,,,,,,,,,,,,,,,,,,,,,,,,,,,,,,,,,,,,,,,,,,,,,,,,,,,,,,,,,,,,,,,,,,,,,,,,,,,,,,,,,,,,,,,,,,,,,,,,,,,,,,,,,,,,,,,,
1768295542.641560,1768295542.642378,50.000000,0.000000,4329.743652,4307.948730,4337.820313,4338.846191,4304.358887,4300.256348,4292.307617,4312.563965,4320.641113,4302.563965,4502.051270,4531.282227,4396.282227,4467.692383,0.000000,2.000000,38.000000,,,,0.000000,4.000000,4.000000,4.000000,4.000000,4.000000,4.000000,4.000000,4.000000,4.000000,4.000000,4.000000,4.000000,4.000000,4.000000,100.000000,,,,,,,,,,,,,,,,,,,,,,,,,,,,,,,,,,,,,,,,,,,,,,,,,,,,,,,,,,,,,,,,,,,,,,,,,,,,,,,,,,,,,,,,,,,,,,,,,,,,,,,,,,,,,,,,,,,,,
1768295542.649368,1768295542.650186,51.000000,0.000000,4329.871582,4306.794922,4334.358887,4338.461426,4303.717773,4300.256348,4301.794922,4320.000000,4323.717773,4301.025879,4500.641113,4530.128418,4395.000000,4468.846191,0.000000,2.000000,38.000000,,,,0.000000,4.000000,4.000000,4.000000,4.000000,4.000000,4.000000,4.000000,4.000000,4.000000,4.000000,4.000000,4.000000,4.000000,4.000000,100.000000,,,,,,,,,,,,,,,,,,,,,,,,,,,,,,,,,,,,,,,,,,,,,,,,,,,,,,,,,,,,,,,,,,,,,,,,,,,,,,,,,,,,,,,,,,,,,,,,,,,,,,,,,,,,,,,,,,,,,
1768295542.657177,1768295542.657795,52.000000,0.000000,4325.000000,4303.974121,4326.666504,4336.410156,4298.461426,4299.102539,4298.974121,4327.051270,4325.000000,4299.487305,4500.256348,4523.077148,4393.333496,4460.769043,0.000000,2.000000,38.000000,,,,0.000000,4.000000,4.000000,4.000000,4.000000,4.000000,4.000000,4.000000,4.000000,4.000000,4.000000,4.000000,4.000000,4.000000,4.000000,100.000000,,,,,,,,,,,,,,,,,,,,,,,,,,,,,,,,,,,,,,,,,,,,,,,,,,,,,,,,,,,,,,,,,,,,,,,,,,,,,,,,,,,,,,,,,,,,,,,,,,,,,,,,,,,,,,,,,,,,,
1768295542.664985,1768295542.665603,53.000000,0.000000,4315.641113,4294.487305,4319.615234,4328.205078,4295.128418,4299.871582,4296.410156,4323.974121,4319.871582,4294.871582,4496.025879,4513.461426,4380.769043,4446.794922,0.000000,2.000000,38.000000,,,,0.000000,4.000000,4.000000,4.000000,4.000000,4.000000,4.000000,4.000000,4.000000,4.000000,4.000000,4.000000,4.000000,4.000000,4.000000,100.000000,,,,,,,,,,,,,,,,,,,,,,,,,,,,,,,,,,,,,,,,,,,,,,,,,,,,,,,,,,,,,,,,,,,,,,,,,,,,,,,,,,,,,,,,,,,,,,,,,,,,,,,,,,,,,,,,,,,,,
1768295542.672793,1768295542.673312,54.000000,0.000000,4309.358887,4290.512695,4321.025879,4325.641113,4299.487305,4309.615234,4314.230957,4324.358887,4320.897461,4295.000000,4496.538574,4513.717773,4376.282227,4446.794922,0.000000,2.000000,38.000000,,,,0.000000,4.000000,4.000000,4.000000,4.000000,4.000000,4.000000,4.000000,4.000000,4.000000,4.000000,4.000000,4.000000,4.000000,4.000000,100.000000,,,,,,,,,,,,,,,,,,,,,,,,,,,,,,,,,,,,,,,,,,,,,,,,,,,,,,,,,,,,,,,,,,,,,,,,,,,,,,,,,,,,,,,,,,,,,,,,,,,,,,,,,,,,,,,,,,,,,
1768295542.680602,1768295542.681120,55.000000,0.000000,4320.000000,4301.666504,4332.436035,4336.538574,4305.384766,4312.948730,4320.128418,4329.102539,4330.897461,4305.641113,4501.282227,4527.948730,4389.743652,4459.743652,0.000000,2.000000,38.000000,,,,0.000000,4.000000,4.000000,4.000000,4.000000,4.000000,4.000000,4.000000,4.000000,4.000000,4.000000,4.000000,4.000000,4.000000,4.000000,100.000000,,,,,,,,,,,,,,,,,,,,,,,,,,,,,,,,,,,,,,,,,,,,,,,,,,,,,,,,,,,,,,,,,,,,,,,,,,,,,,,,,,,,,,,,,,,,,,,,,,,,,,,,,,,,,,,,,,,,,
1768295542.688410,1768295542.688729,56.000000,0.000000,4332.820313,4312.820313,4344.102539,4346.025879,4305.897461,4307.307617,4304.743652,4331.282227,4335.769043,4315.769043,4505.512695,4543.205078,4401.538574,4473.461426,0.000000,2.000000,38.000000,,,,0.000000,4.000000,4.000000,4.000000,4.000000,4.000000,4.000000,4.000000,4.000000,4.000000,4.000000,4.000000,4.000000,4.000000,4.000000,100.000000,,,,,,,,,,,,,,,,,,,,,,,,,,,,,,,,,,,,,,,,,,,,,,,,,,,,,,,,,,,,,,,,,,,,,,,,,,,,,,,,,,,,,,,,,,,,,,,,,,,,,,,,,,,,,,,,,,,,,
1768295542.696219,1768295542.696538,57.000000,0.000000,4328.589844,4309.871582,4343.717773,4342.820313,4303.846191,4307.820313,4302.179688,4327.436035,4330.000000,4313.333496,4502.820313,4540.769043,4400.000000,4475.641113,0.000000,2.000000,38.000000,,,,0.000000,4.000000,4.000000,4.000000,4.000000,4.000000,4.000000,4.000000,4.000000,4.000000,4.000000,4.000000,4.000000,4.000000,4.000000,100.000000,,,,,,,,,,,,,,,,,,,,,,,,,,,,,,,,,,,,,,,,,,,,,,,,,,,,,,,,,,,,,,,,,,,,,,,,,,,,,,,,,,,,,,,,,,,,,,,,,,,,,,,,,,,,,,,,,,,,,
1768295542.704027,1768295542.704446,58.000000,0.000000,4324.487305,4304.230957,4337.051270,4340.000000,4308.717773,4313.333496,4311.153809,4323.846191,4327.563965,4302.436035,4498.846191,4528.717773,4391.666504,4461.153809,0.000000,2.000000,38.000000,,,,0.000000,4.000000,4.000000,4.000000,4.000000,4.000000,4.000000,4.000000,4.000000,4.000000,4.000000,4.000000,4.000000,4.000000,4.000000,100.000000,,,,,,,,,,,,,,,,,,,,,,,,,,,,,,,,,,,,,,,,,,,,,,,,,,,,,,,,,,,,,,,,,,,,,,,,,,,,,,,,,,,,,,,,,,,,,,,,,,,,,,,,,,,,,,,,,,,,,
1768295542.711836,1768295542.712254,59.000000,0.000000,4327.307617,4308.589844,4337.307617,4341.794922,4313.077148,4312.179688,4304.743652,4323.461426,4328.974121,4297.948730,4498.974121,4526.282227,4389.102539,4451.538574,0.000000,2.000000,38.000000,,,,0.000000,4.000000,4.000000,4.000000,4.000000,4.000000,4.000000,4.000000,4.000000,4.000000,4.000000,4.000000,4.000000,4.000000,4.000000,100.000000,,,,,,,,,,,,,,,,,,,,,,,,,,,,,,,,,,,,,,,,,,,,,,,,,,,,,,,,,,,,,,,,,,,,,,,,,,,,,,,,,,,,,,,,,,,,,,,,,,,,,,,,,,,,,,,,,,,,,
1768295542.719644,1768295542.720263,60.000000,0.000000,4327.820313,4309.743652,4338.205078,4341.666504,4308.974121,4304.743652,4293.974121,4323.717773,4326.538574,4303.205078,4498.205078,4530.256348,4393.205078,4462.307617,0.000000,2.000000,38.000000,,,,0.000000,4.000000,4.000000,4.000000,4.000000,4.000000,4.000000,4.000000,4.000000,4.000000,4.000000,4.000000,4.000000,4.000000,4.000000,100.000000,,,,,,,,,,,,,,,,,,,,,,,,,,,,,,,,,,,,,,,,,,,,,,,,,,,,,,,,,,,,,,,,,,,,,,,,,,,,,,,,,,,,,,,,,,,,,,,,,,,,,,,,,,,,,,,,,,,,,
1768295542.727452,1768295542.728071,61.000000,0.000000,4327.051270,4301.794922,4336.666504,4342.179688,4304.743652,4302.307617,4297.820313,4330.256348,4326.282227,4307.563965,4501.922852,4532.051270,4394.358887,4473.846191,0.000000,2.000000,38.000000,,,,0.000000,4.000000,4.000000,4.000000,4.000000,4.000000,4.000000,4.000000,4.000000,4.000000,4.000000,4.000000,4.000000,4.000000,4.000000,100.000000,,,,,,,,,,,,,,,,,,,,,,,,,,,,,,,,,,,,,,,,,,,,,,,,,,,,,,,,,,,,,,,,,,,,,,,,,,,,,,,,,,,,,,,,,,,,,,,,,,,,,,,,,,,,,,,,,,,,,
1768295542.735261,1768295542.735979,62.000000,0.000000,4326.410156,4301.666504,4336.410156,4341.922852,4305.000000,4302.820313,4300.128418,4328.846191,4327.051270,4303.974121,4502.948730,4526.922852,4390.641113,4464.102539,0.000000,2.000000,38.000000,,,,0.000000,4.000000,4.000000,4.000000,4.000000,4.000000,4.000000,4.000000,4.000000,4.000000,4.000000,4.000000,4.000000,4.000000,4.000000,100.000000,,,,,,,,,,,,,,,,,,,,,,,,,,,,,,,,,,,,,,,,,,,,,,,,0.458550,0.593237,0.239216,0.264257,0.208099,0.801980,0.567334,0.173821,0.398718,0.117642,0.751807,0.590587,0.248787,0.179518,0.151552,0.426597,0.552928,0.210167,0.170233,0.107625,0.419322,0.395306,0.103444,0.128384,0.035874,0.090153,0.119682,0.090639,0.070894,0.045495,0.196308,0.611136,0.217956,0.146542,0.205369,0.156250,0.558080,0.251546,0.142149,0.160816,0.131109,0.222735,0.128844,0.080665,0.053540,0.640751,0.460577,0.273718,0.267996,0.106914,0.207894,0.305075,0.114681,0.067482,0.067439,1.389048,0.909433,0.643721,0.315737,0.250453,0.544887,0.560573,0.299964,0.249371,0.193665,1.685342,0.952098,0.447341,0.266877,0.331155
1768295542.743069,1768295542.743788,63.000000,0.000000,4324.743652,4307.179688,4333.974121,4339.102539,4309.102539,4304.230957,4301.666504,4322.179688,4324.102539,4298.333496,4498.077148,4521.538574,4389.487305,4454.871582,0.000000,2.000000,38.000000,,,,0.000000,4.000000,4.000000,4.000000,4.000000,4.000000,4.000000,4.000000,4.000000,4.000000,4.000000,4.000000,4.000000,4.000000,4.000000,100.000000,,,,,,,,,,,,,,,,,,,,,,,,,,,,,,,,,,,,,,,,,,,,,,,,,,,,,,,,,,,,,,,,,,,,,,,,,,,,,,,,,,,,,,,,,,,,,,,,,,,,,,,,,,,,,,,,,,,,,
1768295542.750878,1768295542.751796,64.000000,0.000000,4325.897461,4308.589844,4331.922852,4339.230957,4310.897461,4308.589844,4308.461426,4328.846191,4324.358887,4300.641113,4499.230957,4528.589844,4392.307617,4464.230957,4251.000000,2.000000,38.000000,,,,0.000000,4.000000,4.000000,4.000000,4.000000,4.000000,4.000000,4.000000,4.000000,4.000000,4.000000,4.000000,4.000000,4.000000,4.000000,100.000000,,,,,,,,,,,,,,,,,,,,,,,,,,,,,,,,,,,,,,,,,,,,,,,,,,,,,,,,,,,,,,,,,,,,,,,,,,,,,,,,,,,,,,,,,,,,,,,,,,,,,,,,,,,,,,,,,,,,,
1768295542.758686,1768295542.759605,65.000000,0.000000,4326.794922,4304.615234,4335.000000,4341.794922,4307.948730,4307.692383,4307.820313,4332.179688,4326.922852,4303.589844,4503.461426,4535.512695,4396.410156,4471.410156,3815.000000,2.000000,38.000000,,,,0.000000,4.000000,4.000000,4.000000,4.000000,4.000000,4.000000,4.000000,4.000000,4.000000,4.000000,4.000000,4.000000,4.000000,4.000000,100.000000,,,,,,,,,,,,,,,,,,,,,,,,,,,,,,,,,,,,,,,,,,,,,,,,,,,,,,,,,,,,,,,,,,,,,,,,,,,,,,,,,,,,,,,,,,,,,,,,,,,,,,,,,,,,,,,,,,,,,
1768295542.766494,1768295542.767313,66.000000,0.000000,4325.641113,4300.641113,4335.256348,4339.743652,4303.717773,4300.384766,4298.077148,4320.256348,4325.128418,4299.358887,4502.820313,4528.589844,4397.820313,4467.948730,4039.000000,2.000000,38.000000,,,,0.000000,4.000000,4.000000,4.000000,4.000000,4.000000,4.000000,4.000000,4.000000,4.000000,4.000000,4.000000,4.000000,4.000000,4.000000,100.000000,,,,,,,,,,,,,,,,,,,,,,,,,,,,,,,,,,,,,,,,,,,,,,,,,,,,,,,,,,,,,,,,,,,,,,,,,,,,,,,,,,,,,,,,,,,,,,,,,,,,,,,,,,,,,,,,,,,,,
1768295542.774303,1768295542.775121,67.000000,0.000000,4329.230957,4303.205078,4337.948730,4338.974121,4307.051270,4302.051270,4302.948730,4318.589844,4324.487305,4300.128418,4501.153809,4526.538574,4397.179688,4468.974121,3931.000000,2.000000,38.000000,,,,0.000000,4.000000,4.000000,4.000000,4.000000,4.000000,4.000000,4.000000,4.000000,4.000000,4.000000,4.000000,4.000000,4.000000,4.000000,100.000000,,,,,,,,,,,,,,,,,,,,,,,,,,,,,,,,,,,,,,,,,,,,,,,,,,,,,,,,,,,,,,,,,,,,,,,,,,,,,,,,,,,,,,,,,,,,,,,,,,,,,,,,,,,,,,,,,,,,,
1768295542.782111,1768295542.782730,68.000000,0.000000,4332.820313,4306.282227,4346.153809,4342.820313,4312.820313,4313.974121,4322.692383,4331.794922,4328.333496,4305.769043,4505.897461,4537.692383,4401.282227,4472.820313,3815.000000,2.000000,38.000000,,,,0.000000,4.000000,4.000000,4.000000,4.000000,4.000000,4.000000,4.000000,4.000000,4.000000,4.000000,4.000000,4.000000,4.000000,4.000000,100.000000,,,,,,,,,,,,,,,,,,,,,,,,,,,,,,,,,,,,,,,,,,,,,,,,,,,,,,,,,,,,,,,,,,,,,,,,,,,,,,,,,,,,,,,,,,,,,,,,,,,,,,,,,,,,,,,,,,,,,
1768295542.789920,1768295542.790539,69.000000,0.000000,4331.025879,4302.692383,4343.589844,4342.563965,4307.820313,4309.871582,4320.256348,4336.666504,4328.589844,4303.717773,4508.205078,4542.436035,4405.000000,4470.641113,3299.000000,2.000000,38.000000,,,,0.000000,4.000000,4.000000,4.000000,4.000000,4.000000,4.000000,4.000000,4.000000,4.000000,4.000000,4.000000,4.000000,4.000000,4.000000,100.000000,,,,,,,,,,,,,,,,,,,,,,,,,,,,,,,,,,,,,,,,,,,,,,,,,,,,,,,,,,,,,,,,,,,,,,,,,,,,,,,,,,,,,,,,,,,,,,,,,,,,,,,,,,,,,,,,,,,,,
1768295542.797728,1768295542.798247,70.000000,0.000000,4323.333496,4296.666504,4332.563965,4333.589844,4300.000000,4293.205078,4297.692383,4329.743652,4325.641113,4297.051270,4504.487305,4534.230957,4398.461426,4466.922852,3530.000000,2.000000,38.000000,,,,0.000000,4.000000,4.000000,4.000000,4.000000,4.000000,4.000000,4.000000,4.000000,4.000000,4.000000,4.000000,4.000000,4.000000,4.000000,100.000000,,,,,,,,,,,,,,,,,,,,,,,,,,,,,,,,,,,,,,,,,,,,,,,,,,,,,,,,,,,,,,,,,,,,,,,,,,,,,,,,,,,,,,,,,,,,,,,,,,,,,,,,,,,,,,,,,,,,,
1768295542.805537,1768295542.806056,71.000000,0.000000,4315.641113,4295.769043,4328.205078,4326.794922,4299.230957,4290.512695,4292.820313,4322.179688,4325.128418,4297.692383,4502.307617,4525.897461,4392.563965,4465.384766,3393.000000,2.000000,38.000000,,,,0.000000,4.000000,4.000000,4.000000,4.000000,4.000000,4.000000,4.000000,4.000000,4.000000,4.000000,4.000000,4.000000,4.000000,4.000000,100.000000,,,,,,,,,,,,,,,,,,,,,,,,,,,,,,,,,,,,,,,,,,,,,,,,,,,,,,,,,,,,,,,,,,,,,,,,,,,,,,,,,,,,,,,,,,,,,,,,,,,,,,,,,,,,,,,,,,,,,
1768295542.813345,1768295542.813664,72.000000,0.000000,4318.717773,4302.692383,4327.820313,4332.563965,4303.589844,4299.230957,4304.102539,4317.436035,4324.102539,4299.230957,4500.897461,4523.974121,4400.256348,4466.282227,2294.000000,2.000000,38.000000,,,,0.000000,4.000000,4.000000,4.000000,4.000000,4.000000,4.000000,4.000000,4.000000,4.000000,4.000000,4.000000,4.000000,4.000000,4.000000,100.000000,,,,,,,,,,,,,,,,,,,,,,,,,,,,,,,,,,,,,,,,,,,,,,,,,,,,,,,,,,,,,,,,,,,,,,,,,,,,,,,,,,,,,,,,,,,,,,,,,,,,,,,,,,,,,,,,,,,,,
1768295542.821153,1768295542.821473,73.000000,0.000000,4326.538574,4313.846191,4330.000000,4340.000000,4308.205078,4300.897461,4303.974121,4318.461426,4321.922852,4302.051270,4498.333496,4528.974121,4408.717773,4466.153809,3623.000000,2.000000,38.000000,,,,0.000000,4.000000,4.000000,4.000000,4.000000,4.000000,4.000000,4.000000,4.000000,4.000000,4.000000,4.000000,4.000000,4.000000,4.000000,100.000000,,,,,,,,,,,,,,,,,,,,,,,,,,,,,,,,,,,,,,,,,,,,,,,,,,,,,,,,,,,,,,,,,,,,,,,,,,,,,,,,,,,,,,,,,,,,,,,,,,,,,,,,,,,,,,,,,,,,,
1768295542.828962,1768295542.829181,74.000000,0.000000,4327.820313,4319.743652,4332.307617,4340.384766,4304.102539,4298.461426,4300.897461,4320.128418,4322.179688,4302.563965,4498.717773,4529.615234,4405.641113,4460.641113,3628.000000,2.000000,38.000000,,,,0.000000,4.000000,4.000000,4.000000,4.000000,4.000000,4.000000,4.000000,4.000000,4.000000,4.000000,4.000000,4.000000,4.000000,4.000000,100.000000,,,,,,,,,,,,,,,,,,,,,,,,,,,,,,,,,,,,,,,,,,,,,,,,,,,,,,,,,,,,,,,,,,,,,,,,,,,,,,,,,,,,,,,,,,,,,,,,,,,,,,,,,,,,,,,,,,,,,
1768295542.836770,1768295542.836990,75.000000,0.000000,4321.025879,4315.897461,4327.436035,4336.153809,4295.897461,4300.512695,4300.769043,4316.410156,4321.794922,4294.487305,4496.922852,4518.717773,4397.436035,4452.692383,4679.000000,2.000000,38.000000,,,,0.000000,4.000000,4.000000,4.000000,4.000000,4.000000,4.000000,4.000000,4.000000,4.000000,4.000000,4.000000,4.000000,4.000000,4.000000,100.000000,,,,,,,,,,,,,,,,,,,,,,,,,,,,,,,,,,,,,,,,,,,,,,,,,,,,,,,,,,,,,,,,,,,,,,,,,,,,,,,,,,,,,,,,,,,,,,,,,,,,,,,,,,,,,,,,,,,,,
1768295542.844579,1768295542.844998,76.000000,0.000000,4312.436035,4311.153809,4322.820313,4330.897461,4295.000000,4298.077148,4292.692383,4315.384766,4319.487305,4291.922852,4492.563965,4510.512695,4391.922852,4446.922852,2289.000000,2.000000,38.000000,,,,0.000000,4.000000,4.000000,4.000000,4.000000,4.000000,4.000000,4.000000,4.000000,4.000000,4.000000,4.000000,4.000000,4.000000,4.000000,100.000000,,,,,,,,,,,,,,,,,,,,,,,,,,,,,,,,,,,,,,,,,,,,,,,,,,,,,,,,,,,,,,,,,,,,,,,,,,,,,,,,,,,,,,,,,,,,,,,,,,,,,,,,,,,,,,,,,,,,,
1768295542.852387,1768295542.852806,77.000000,0.000000,4310.384766,4313.846191,4322.307617,4331.153809,4293.461426,4292.948730,4292.436035,4317.563965,4319.871582,4294.487305,4493.717773,4510.256348,4391.538574,4445.512695,5415.000000,2.000000,38.000000,,,,0.000000,4.000000,4.000000,4.000000,4.000000,4.000000,4.000000,4.000000,4.000000,4.000000,4.000000,4.000000,4.000000,4.000000,4.000000,100.000000,,,,,,,,,,,,,,,,,,,,,,,,,,,,,,,,,,,,,,,,,,,,,,,,,,,,,,,,,,,,,,,,,,,,,,,,,,,,,,,,,,,,,,,,,,,,,,,,,,,,,,,,,,,,,,,,,,,,,
1768295542.860196,1768295542.860715,78.000000,0.000000,4312.820313,4322.820313,4322.948730,4336.282227,4290.769043,4296.025879,4301.282227,4314.102539,4321.025879,4294.230957,4493.717773,4508.333496,4393.333496,4448.205078,3628.000000,2.000000,38.000000,,,,0.000000,4.000000,4.000000,4.000000,4.000000,4.000000,4.000000,4.000000,4.000000,4.000000,4.000000,4.000000,4.000000,4.000000,4.000000,100.000000,1.000000,25.000000,4.000000,4.000000,4.000000,4.000000,4.000000,1.000000,4.000000,4.000000,1.000000,4.000000,1.000000,4.000000,4.000000,4.000000,,,,,,,,,,,,,,,,,,,,,,,,,,,,,,,,0.691559,0.545589,0.193696,0.239360,0.197544,0.840630,0.481400,0.141228,0.389475,0.107986,1.104387,0.493573,0.186524,0.156139,0.141190,0.611253,0.491672,0.153045,0.157550,0.111423,0.482899,0.345889,0.121850,0.130480,0.035406,0.127352,0.132853,0.108751,0.069080,0.049543,0.202694,0.682671,0.221620,0.140077,0.210743,0.147053,0.517396,0.208762,0.155213,0.166573,0.134550,0.198002,0.112023,0.088415,0.049369,0.750813,0.495942,0.273201,0.256416,0.095391,0.213324,0.275777,0.100031,0.063147,0.066961,1.740195,0.743850,0.524778,0.274770,0.230796,0.597729,0.534520,0.262720,0.224454,0.179358,1.939869,0.924402,0.389052,0.206322,0.280785
1768295542.868004,1768295542.868523,79.000000,0.000000,4314.358887,4324.487305,4324.743652,4335.897461,4293.077148,4302.820313,4301.538574,4314.487305,4320.384766,4294.871582,4492.563965,4508.717773,4395.384766,4453.333496,4679.000000,2.000000,38.000000,,,,0.000000,4.000000,4.000000,4.000000,4.000000,4.000000,4.000000,4.000000,4.000000,4.000000,4.000000,4.000000,4.000000,4.000000,4.000000,100.000000,,,,,,,,,,,,,,,,,,,,,,,,,,,,,,,,,,,,,,,,,,,,,,,,,,,,,,,,,,,,,,,,,,,,,,,,,,,,,,,,,,,,,,,,,,,,,,,,,,,,,,,,,,,,,,,,,,,,,
1768295542.875812,1768295542.876132,80.000000,0.000000,4317.307617,4320.384766,4325.000000,4334.230957,4293.205078,4302.179688,4297.436035,4315.641113,4318.461426,4295.384766,4492.563965,4511.922852,4395.641113,4453.205078,2289.000000,2.000000,38.000000,,,,0.000000,4.000000,4.000000,4.000000,4.000000,4.000000,4.000000,4.000000,4.000000,4.000000,4.000000,4.000000,4.000000,4.000000,4.000000,100.000000,,,,,,,,,,,,,,,,,,,,,,,,,,,,,,,,,,,,,,,,,,,,,,,,,,,,,,,,,,,,,,,,,,,,,,,,,,,,,,,,,,,,,,,,,,,,,,,,,,,,,,,,,,,,,,,,,,,,,
1768295542.883621,1768295542.883940,81.000000,0.000000,4322.307617,4323.974121,4325.256348,4340.000000,4292.563965,4297.436035,4301.538574,4318.974121,4320.000000,4293.077148,4490.128418,4511.922852,4393.717773,4450.256348,5415.000000,2.000000,38.000000,,,,0.000000,4.000000,4.000000,4.000000,4.000000,4.000000,4.000000,4.000000,4.000000,4.000000,4.000000,4.000000,4.000000,4.000000,4.000000,100.000000,,,,,,,,,,,,,,,,,,,,,,,,,,,,,,,,,,,,,,,,,,,,,,,,,,,,,,,,,,,,,,,,,,,,,,,,,,,,,,,,,,,,,,,,,,,,,,,,,,,,,,,,,,,,,,,,,,,,,
1768295542.891429,1768295542.891649,82.000000,0.000000,4321.922852,4327.820313,4329.358887,4343.333496,4295.769043,4297.436035,4303.461426,4330.769043,4325.897461,4297.692383,4492.436035,4514.102539,4395.000000,4450.384766,3628.000000,2.000000,38.000000,,,,0.000000,4.000000,4.000000,4.000000,4.000000,4.000000,4.000000,4.000000,4.000000,4.000000,4.000000,4.000000,4.000000,4.000000,4.000000,100.000000,,,,,,,,,,,,,,,,,,,,,,,,,,,,,,,,,,,,,,,,,,,,,,,,,,,,,,,,,,,,,,,,,,,,,,,,,,,,,,,,,,,,,,,,,,,,,,,,,,,,,,,,,,,,,,,,,,,,,
1768295542.899238,1768295542.899457,83.000000,0.000000,4322.436035,4324.102539,4332.179688,4340.769043,4298.205078,4301.538574,4300.512695,4328.846191,4325.256348,4305.769043,4498.589844,4518.461426,4400.897461,4456.153809,4679.000000,2.000000,38.000000,,,,0.000000,4.000000,4.000000,4.000000,4.000000,4.000000,4.000000,4.000000,4.000000,4.000000,4.000000,4.000000,4.000000,4.000000,4.000000,100.000000,,,,,,,,,,,,,,,,,,,,,,,,,,,,,,,,,,,,,,,,,,,,,,,,,,,,,,,,,,,,,,,,,,,,,,,,,,,,,,,,,,,,,,,,,,,,,,,,,,,,,,,,,,,,,,,,,,,,,
1768295542.907046,1768295542.907466,84.000000,0.000000,4325.256348,4321.025879,4330.256348,4340.000000,4296.282227,4302.436035,4300.897461,4317.436035,4321.666504,4302.051270,4501.153809,4523.717773,4407.563965,4463.333496,2289.000000,2.000000,38.000000,,,,0.000000,4.000000,4.000000,4.000000,4.000000,4.000000,4.000000,4.000000,4.000000,4.000000,4.000000,4.000000,4.000000,4.000000,4.000000,100.000000,,,,,,,,,,,,,,,,,,,,,,,,,,,,,,,,,,,,,,,,,,,,,,,,,,,,,,,,,,,,,,,,,,,,,,,,,,,,,,,,,,,,,,,,,,,,,,,,,,,,,,,,,,,,,,,,,,,,,
1768295542.914854,1768295542.915274,85.000000,0.000000,4326.282227,4322.051270,4333.974121,4340.256348,4292.820313,4299.615234,4299.102539,4321.410156,4325.897461,4298.589844,4499.871582,4530.897461,4407.436035,4465.128418,5415.000000,2.000000,38.000000,,,,0.000000,4.000000,4.000000,4.000000,4.000000,4.000000,4.000000,4.000000,4.000000,4.000000,4.000000,4.000000,4.000000,4.000000,4.000000,100.000000,,,,,,,,,,,,,,,,,,,,,,,,,,,,,,,,,,,,,,,,,,,,,,,,,,,,,,,,,,,,,,,,,,,,,,,,,,,,,,,,,,,,,,,,,,,,,,,,,,,,,,,,,,,,,,,,,,,,,
1768295542.922663,1768295542.923182,86.000000,0.000000,4326.666504,4317.436035,4340.641113,4340.128418,4291.666504,4297.692383,4296.794922,4332.563965,4332.820313,4302.948730,4499.871582,4535.769043,4404.487305,4466.282227,3628.000000,2.000000,38.000000,,,,0.000000,4.000000,4.000000,4.000000,4.000000,4.000000,4.000000,4.000000,4.000000,4.000000,4.000000,4.000000,4.000000,4.000000,4.000000,100.000000,,,,,,,,,,,,,,,,,,,,,,,,,,,,,,,,,,,,,,,,,,,,,,,,,,,,,,,,,,,,,,,,,,,,,,,,,,,,,,,,,,,,,,,,,,,,,,,,,,,,,,,,,,,,,,,,,,,,,
1768295542.930471,1768295542.930991,87.000000,0.000000,4322.436035,4311.153809,4338.589844,4339.358887,4294.871582,4298.205078,4301.025879,4333.461426,4332.307617,4306.410156,4502.436035,4537.563965,4406.025879,4468.077148,4679.000000,2.000000,38.000000,,,,0.000000,4.000000,4.000000,4.000000,4.000000,4.000000,4.000000,4.000000,4.000000,4.000000,4.000000,4.000000,4.000000,4.000000,4.000000,100.000000,,,,,,,,,,,,,,,,,,,,,,,,,,,,,,,,,,,,,,,,,,,,,,,,,,,,,,,,,,,,,,,,,,,,,,,,,,,,,,,,,,,,,,,,,,,,,,,,,,,,,,,,,,,,,,,,,,,,,
1768295542.938280,1768295542.938999,88.000000,0.000000,4320.641113,4317.051270,4331.282227,4338.846191,4296.922852,4296.922852,4299.615234,4323.974121,4325.384766,4306.666504,4500.897461,4535.000000,4408.205078,4468.205078,2289.000000,2.000000,38.000000,,,,0.000000,4.000000,4.000000,4.000000,4.000000,4.000000,4.000000,4.000000,4.000000,4.000000,4.000000,4.000000,4.000000,4.000000,4.000000,100.000000,,,,,,,,,,,,,,,,,,,,,,,,,,,,,,,,,,,,,,,,,,,,,,,,,,,,,,,,,,,,,,,,,,,,,,,,,,,,,,,,,,,,,,,,,,,,,,,,,,,,,,,,,,,,,,,,,,,,,
1768295542.946088,1768295542.946807,89.000000,0.000000,4325.897461,4320.897461,4325.897461,4339.358887,4294.230957,4294.230957,4287.436035,4315.512695,4322.307617,4304.102539,4500.128418,4528.333496,4408.846191,4468.589844,5415.000000,2.000000,38.000000,,,,0.000000,4.000000,4.000000,4.000000,4.000000,4.000000,4.000000,4.000000,4.000000,4.000000,4.000000,4.000000,4.000000,4.000000,4.000000,100.000000,,,,,,,,,,,,,,,,,,,,,,,,,,,,,,,,,,,,,,,,,,,,,,,,,,,,,,,,,,,,,,,,,,,,,,,,,,,,,,,,,,,,,,,,,,,,,,,,,,,,,,,,,,,,,,,,,,,,,
1768295542.953896,1768295542.954516,90.000000,0.000000,4327.692383,4314.358887,4330.000000,4340.769043,4294.743652,4294.487305,4287.307617,4316.410156,4324.487305,4304.615234,4502.692383,4528.077148,4406.794922,4469.102539,3628.000000,2.000000,38.000000,,,,0.000000,4.000000,4.000000,4.000000,4.000000,4.000000,4.000000,4.000000,4.000000,4.000000,4.000000,4.000000,4.000000,4.000000,4.000000,100.000000,,,,,,,,,,,,,,,,,,,,,,,,,,,,,,,,,,,,,,,,,,,,,,,,,,,,,,,,,,,,,,,,,,,,,,,,,,,,,,,,,,,,,,,,,,,,,,,,,,,,,,,,,,,,,,,,,,,,,
1768295542.961705,1768295542.962324,91.000000,0.000000,4327.051270,4313.846191,4340.128418,4343.333496,4297.820313,4298.461426,4300.512695,4328.205078,4325.384766,4305.769043,4502.563965,4537.051270,4405.384766,4469.102539,4679.000000,2.000000,38.000000,,,,0.000000,4.000000,4.000000,4.000000,4.000000,4.000000,4.000000,4.000000,4.000000,4.000000,4.000000,4.000000,4.000000,4.000000,4.000000,100.000000,,,,,,,,,,,,,,,,,,,,,,,,,,,,,,,,,,,,,,,,,,,,,,,,,,,,,,,,,,,,,,,,,,,,,,,,,,,,,,,,,,,,,,,,,,,,,,,,,,,,,,,,,,,,,,,,,,,,,
1768295542.969513,1768295542.970033,92.000000,0.000000,4327.563965,4317.948730,4337.948730,4343.205078,4298.846191,4303.589844,4301.538574,4332.563965,4326.025879,4302.563965,4499.358887,4535.256348,4405.512695,4469.102539,2289.000000,2.000000,38.000000,,,,0.000000,4.000000,4.000000,4.000000,4.000000,4.000000,4.000000,4.000000,4.000000,4.000000,4.000000,4.000000,4.000000,4.000000,4.000000,100.000000,,,,,,,,,,,,,,,,,,,,,,,,,,,,,,,,,,,,,,,,,,,,,,,,,,,,,,,,,,,,,,,,,,,,,,,,,,,,,,,,,,,,,,,,,,,,,,,,,,,,,,,,,,,,,,,,,,,,,
1768295542.977322,1768295542.977841,93.000000,0.000000,4321.922852,4309.487305,4324.230957,4336.410156,4298.461426,4303.205078,4296.153809,4316.794922,4323.333496,4297.179688,4496.538574,4519.615234,4400.000000,4464.102539,5415.000000,2.000000,38.000000,,,,0.000000,4.000000,4.000000,4.000000,4.000000,4.000000,4.000000,4.000000,4.000000,4.000000,4.000000,4.000000,4.000000,4.000000,4.000000,100.000000,,,,,,,,,,,,,,,,,,,,,,,,,,,,,,,,,,,,,,,,,,,,,,,,,,,,,,,,,,,,,,,,,,,,,,,,,,,,,,,,,,,,,,,,,,,,,,,,,,,,,,,,,,,,,,,,,,,,,
1768295542.985130,1768295542.985550,94.000000,0.000000,4317.820313,4300.256348,4323.846191,4332.948730,4296.922852,4298.974121,4300.769043,4312.948730,4321.153809,4298.589844,4498.589844,4518.589844,4396.666504,4461.410156,3628.000000,2.000000,38.000000,,,,0.000000,4.000000,4.000000,4.000000,4.000000,4.000000,4.000000,4.000000,4.000000,4.000000,4.000000,4.000000,4.000000,4.000000,4.000000,100.000000,,,,,,,,,,,,,,,,,,,,,,,,,,,,,,,,,,,,,,,,,,,,,,,,0.992383,0.471977,0.156470,0.211283,0.181998,0.932839,0.366758,0.122964,0.367525,0.098177,1.545521,0.397446,0.138403,0.134876,0.126721,0.857066,0.403197,0.105931,0.141912,0.111541,0.532439,0.267994,0.132468,0.129279,0.035130,0.173848,0.142453,0.123219,0.072903,0.057272,0.208586,0.697543,0.219296,0.150901,0.215303,0.163634,0.488395,0.166036,0.175433,0.167527,0.128856,0.178199,0.095637,0.094541,0.044149,0.819978,0.527283,0.261451,0.237708,0.083338,0.206893,0.230299,0.083759,0.057317,0.068003,2.179075,0.587664,0.381716,0.238231,0.208737,0.660545,0.493888,0.227524,0.195732,0.162588,2.258344,0.859926,0.338802,0.158237,0.237092
1768295542.992939,1768295542.993358,95.000000,0.000000,4328.333496,4305.384766,4334.743652,4338.846191,4293.205078,4297.820313,4299.487305,4330.897461,4326.410156,4303.205078,4502.307617,4531.410156,4402.563965,4471.922852,4679.000000,2.000000,38.000000,,,,0.000000,4.000000,4.000000,4.000000,4.000000,4.000000,4.000000,4.000000,4.000000,4.000000,4.000000,4.000000,4.000000,4.000000,4.000000,100.000000,,,,,,,,,,,,,,,,,,,,,,,,,,,,,,,,,,,,,,,,,,,,,,,,,,,,,,,,,,,,,,,,,,,,,,,,,,,,,,,,,,,,,,,,,,,,,,,,,,,,,,,,,,,,,,,,,,,,,
1768295543.000747,1768295543.000967,96.000000,0.000000,4333.589844,4310.000000,4336.410156,4337.948730,4293.974121,4296.153809,4287.948730,4328.717773,4328.077148,4299.871582,4498.974121,4527.307617,4400.897461,4472.179688,2289.000000,2.000000,38.000000,,,,0.000000,4.000000,4.000000,4.000000,4.000000,4.000000,4.000000,4.000000,4.000000,4.000000,4.000000,4.000000,4.000000,4.000000,4.000000,100.000000,,,,,,,,,,,,,,,,,,,,,,,,,,,,,,,,,,,,,,,,,,,,,,,,,,,,,,,,,,,,,,,,,,,,,,,,,,,,,,,,,,,,,,,,,,,,,,,,,,,,,,,,,,,,,,,,,,,,,
1768295543.008556,1768295543.008776,97.000000,0.000000,4322.948730,4301.922852,4329.230957,4329.871582,4296.153809,4292.563965,4291.153809,4310.256348,4321.025879,4295.769043,4493.333496,4510.897461,4390.641113,4457.179688,5415.000000,2.000000,38.000000,,,,0.000000,4.000000,4.000000,4.000000,4.000000,4.000000,4.000000,4.000000,4.000000,4.000000,4.000000,4.000000,4.000000,4.000000,4.000000,100.000000,,,,,,,,,,,,,,,,,,,,,,,,,,,,,,,,,,,,,,,,,,,,,,,,,,,,,,,,,,,,,,,,,,,,,,,,,,,,,,,,,,,,,,,,,,,,,,,,,,,,,,,,,,,,,,,,,,,,,
1768295543.016364,1768295543.016484,98.000000,0.000000,4318.077148,4296.794922,4326.794922,4331.025879,4293.461426,4293.717773,4300.256348,4311.666504,4318.846191,4299.871582,4492.820313,4512.307617,4393.077148,4457.820313,3628.000000,2.000000,38.000000,,,,0.000000,4.000000,4.000000,4.000000,4.000000,4.000000,4.000000,4.000000,4.000000,4.000000,4.000000,4.000000,4.000000,4.000000,4.000000,100.000000,,,,,,,,,,,,,,,,,,,,,,,,,,,,,,,,,,,,,,,,,,,,,,,,,,,,,,,,,,,,,,,,,,,,,,,,,,,,,,,,,,,,,,,,,,,,,,,,,,,,,,,,,,,,,,,,,,,,,
1768295543.024172,1768295543.024293,99.000000,0.000000,4325.769043,4304.358887,4333.589844,4339.615234,4291.794922,4298.205078,4293.333496,4322.948730,4323.333496,4304.487305,4495.769043,4525.769043,4402.948730,4469.871582,4679.000000,2.000000,38.000000,,,,0.000000,4.000000,4.000000,4.000000,4.000000,4.000000,4.000000,4.000000,4.000000,4.000000,4.000000,4.000000,4.000000,4.000000,4.000000,100.000000,,,,,,,,,,,,,,,,,,,,,,,,,,,,,,,,,,,,,,,,,,,,,,,,,,,,,,,,,,,,,,,,,,,,,,,,,,,,,,,,,,,,,,,,,,,,,,,,,,,,,,,,,,,,,,,,,,,,,
1768295543.031981,1768295543.032301,100.000000,0.000000,4334.230957,4311.666504,4340.512695,4342.820313,4298.205078,4303.205078,4291.666504,4321.538574,4324.358887,4302.179688,4497.692383,4526.794922,4402.436035,4471.538574,2289.000000,2.000000,38.000000,,,,0.000000,4.000000,4.000000,4.000000,4.000000,4.000000,4.000000,4.000000,4.000000,4.000000,4.000000,4.000000,4.000000,4.000000,4.000000,100.000000,,,,,,,,,,,,,,,,,,,,,,,,,,,,,,,,,,,,,,,,,,,,,,,,,,,,,,,,,,,,,,,,,,,,,,,,,,,,,,,,,,,,,,,,,,,,,,,,,,,,,,,,,,,,,,,,,,,,,
1768295543.039789,1768295543.040109,101.000000,0.000000,4333.589844,4311.538574,4340.641113,4341.153809,4303.974121,4308.974121,4304.615234,4315.128418,4322.436035,4304.230957,4499.743652,4523.333496,4401.410156,4472.436035,5415.000000,2.000000,38.000000,,,,0.000000,4.000000,4.000000,4.000000,4.000000,4.000000,4.000000,4.000000,4.000000,4.000000,4.000000,4.000000,4.000000,4.000000,4.000000,100.000000,,,,,,,,,,,,,,,,,,,,,,,,,,,,,,,,,,,,,,,,,,,,,,,,,,,,,,,,,,,,,,,,,,,,,,,,,,,,,,,,,,,,,,,,,,,,,,,,,,,,,,,,,,,,,,,,,,,,,
1768295543.047598,1768295543.048018,102.000000,0.000000,4329.230957,4310.512695,4337.051270,4340.384766,4301.666504,4310.256348,4308.205078,4321.025879,4324.102539,4309.871582,4501.666504,4529.230957,4406.794922,4479.358887,3628.000000,2.000000,38.000000,,,,0.000000,4.000000,4.000000,4.000000,4.000000,4.000000,4.000000,4.000000,4.000000,4.000000,4.000000,4.000000,4.000000,4.000000,4.000000,100.000000,,,,,,,,,,,,,,,,,,,,,,,,,,,,,,,,,,,,,,,,,,,,,,,,,,,,,,,,,,,,,,,,,,,,,,,,,,,,,,,,,,,,,,,,,,,,,,,,,,,,,,,,,,,,,,,,,,,,,
1768295543.055406,1768295543.055826,103.000000,0.000000,4332.179688,4315.256348,4338.846191,4345.000000,4305.256348,4307.179688,4305.128418,4328.205078,4326.153809,4309.487305,4500.769043,4536.410156,4410.128418,4482.179688,4679.000000,2.000000,38.000000,,,,0.000000,4.000000,4.000000,4.000000,4.000000,4.000000,4.000000,4.000000,4.000000,4.000000,4.000000,4.000000,4.000000,4.000000,4.000000,100.000000,,,,,,,,,,,,,,,,,,,,,,,,,,,,,,,,,,,,,,,,,,,,,,,,,,,,,,,,,,,,,,,,,,,,,,,,,,,,,,,,,,,,,,,,,,,,,,,,,,,,,,,,,,,,,,,,,,,,,
1768295543.063214,1768295543.063834,104.000000,0.000000,4338.077148,4317.692383,4341.410156,4349.743652,4308.461426,4300.512695,4300.769043,4326.025879,4325.512695,4307.692383,4499.871582,4535.512695,4408.846191,4482.436035,2289.000000,2.000000,38.000000,,,,0.000000,4.000000,4.000000,4.000000,4.000000,4.000000,4.000000,4.000000,4.000000,4.000000,4.000000,4.000000,4.000000,4.000000,4.000000,100.000000,,,,,,,,,,,,,,,,,,,,,,,,,,,,,,,,,,,,,,,,,,,,,,,,,,,,,,,,,,,,,,,,,,,,,,,,,,,,,,,,,,,,,,,,,,,,,,,,,,,,,,,,,,,,,,,,,,,,,
1768295543.071023,1768295543.071643,105.000000,0.000000,4337.051270,4314.871582,4338.846191,4343.717773,4303.589844,4294.358887,4292.563965,4321.794922,4323.077148,4307.820313,4500.641113,4527.436035,4405.641113,4481.666504,5415.000000,2.000000,38.000000,,,,0.000000,4.000000,4.000000,4.000000,4.000000,4.000000,4.000000,4.000000,4.000000,4.000000,4.000000,4.000000,4.000000,4.000000,4.000000,100.000000,,,,,,,,,,,,,,,,,,,,,,,,,,,,,,,,,,,,,,,,,,,,,,,,,,,,,,,,,,,,,,,,,,,,,,,,,,,,,,,,,,,,,,,,,,,,,,,,,,,,,,,,,,,,,,,,,,,,,
1768295543.078831,1768295543.079351,106.000000,0.000000,4335.769043,4316.410156,4333.205078,4339.871582,4302.436035,4295.641113,4293.461426,4315.000000,4320.769043,4306.666504,4498.717773,4521.153809,4402.820313,4479.230957,3628.000000,2.000000,38.000000,,,,0.000000,4.000000,4.000000,4.000000,4.000000,4.000000,4.000000,4.000000,4.000000,4.000000,4.000000,4.000000,4.000000,4.000000,4.000000,100.000000,,,,,,,,,,,,,,,,,,,,,,,,,,,,,,,,,,,,,,,,,,,,,,,,,,,,,,,,,,,,,,,,,,,,,,,,,,,,,,,,,,,,,,,,,,,,,,,,,,,,,,,,,,,,,,,,,,,,,
1768295543.086640,1768295543.087160,107.000000,0.000000,4336.794922,4316.794922,4330.512695,4345.000000,4302.692383,4300.384766,4301.666504,4314.615234,4320.384766,4306.922852,4498.333496,4525.641113,4403.589844,4481.410156,4679.000000,2.000000,38.000000,,,,0.000000,4.000000,4.000000,4.000000,4.000000,4.000000,4.000000,4.000000,4.000000,4.000000,4.000000,4.000000,4.000000,4.000000,4.000000,100.000000,,,,,,,,,,,,,,,,,,,,,,,,,,,,,,,,,,,,,,,,,,,,,,,,,,,,,,,,,,,,,,,,,,,,,,,,,,,,,,,,,,,,,,,,,,,,,,,,,,,,,,,,,,,,,,,,,,,,,
1768295543.094448,1768295543.095168,108.000000,0.000000,4337.563965,4312.563965,4335.641113,4344.871582,4301.153809,4300.256348,4301.153809,4323.077148,4321.922852,4309.487305,4500.641113,4527.948730,4407.051270,4483.077148,2289.000000,2.000000,38.000000,,,,0.000000,4.000000,4.000000,4.000000,4.000000,4.000000,4.000000,4.000000,4.000000,4.000000,4.000000,4.000000,4.000000,4.000000,4.000000,100.000000,,,,,,,,,,,,,,,,,,,,,,,,,,,,,,,,,,,,,,,,,,,,,,,,,,,,,,,,,,,,,,,,,,,,,,,,,,,,,,,,,,,,,,,,,,,,,,,,,,,,,,,,,,,,,,,,,,,,,
1768295543.102256,1768295543.102976,109.000000,0.000000,4338.589844,4315.000000,4339.358887,4341.282227,4300.128418,4299.487305,4298.333496,4326.282227,4321.538574,4304.615234,4499.743652,4522.563965,4406.538574,4477.179688,5415.000000,2.000000,38.000000,,,,0.000000,4.000000,4.000000,4.000000,4.000000,4.000000,4.000000,4.000000,4.000000,4.000000,4.000000,4.000000,4.000000,4.000000,4.000000,100.000000,,,,,,,,,,,,,,,,,,,,,,,,,,,,,,,,,,,,,,,,,,,,,,,,,,,,,,,,,,,,,,,,,,,,,,,,,,,,,,,,,,,,,,,,,,,,,,,,,,,,,,,,,,,,,,,,,,,,,
1768295543.110065,1768295543.110885,110.000000,0.000000,4333.205078,4317.179688,4333.717773,4342.692383,4301.153809,4300.384766,4302.436035,4323.461426,4320.641113,4296.153809,4500.641113,4525.512695,4406.153809,4476.666504,3628.000000,2.000000,38.000000,,,,0.000000,4.000000,4.000000,4.000000,4.000000,4.000000,4.000000,4.000000,4.000000,4.000000,4.000000,4.000000,4.000000,4.000000,4.000000,100.000000,,,,,,,,,,,,,,,,,,,,,,,,,,,,,,,,,,,,,,,,,,,,,,,,1.292527,0.405538,0.138687,0.190131,0.166042,1.040072,0.259306,0.128592,0.333707,0.090578,1.923932,0.340326,0.117205,0.123019,0.112517,1.075532,0.316509,0.079665,0.128945,0.108173,0.540844,0.188157,0.131741,0.123449,0.035798,0.217829,0.153121,0.132306,0.084631,0.069754,0.207384,0.677683,0.213123,0.180137,0.226956,0.203410,0.499176,0.133440,0.195917,0.164615,0.118084,0.174469,0.080816,0.096251,0.039334,0.831451,0.555302,0.240353,0.217612,0.073758,0.192134,0.184851,0.069847,0.051650,0.070195,2.557683,0.507313,0.253152,0.217157,0.191308,0.733370,0.465910,0.202811,0.174573,0.148312,2.548974,0.784878,0.308500,0.138672,0.213192
1768295543.117873,1768295543.118693,111.000000,0.000000,4325.256348,4310.897461,4325.384766,4340.897461,4300.256348,4297.307617,4300.769043,4322.948730,4321.410156,4298.077148,4502.948730,4528.589844,4410.512695,4483.589844,4679.000000,2.000000,38.000000,,,,0.000000,4.000000,4.000000,4.000000,4.000000,4.000000,4.000000,4.000000,4.000000,4.000000,4.000000,4.000000,4.000000,4.000000,4.000000,100.000000,,,,,,,,,,,,,,,,,,,,,,,,,,,,,,,,,,,,,,,,,,,,,,,,,,,,,,,,,,,,,,,,,,,,,,,,,,,,,,,,,,,,,,,,,,,,,,,,,,,,,,,,,,,,,,,,,,,,,
1768295543.125682,1768295543.126701,112.000000,0.000000,4324.871582,4307.307617,4326.282227,4335.512695,4299.743652,4297.179688,4295.256348,4321.410156,4322.051270,4301.922852,4499.358887,4518.846191,4404.358887,4476.410156,2289.000000,2.000000,38.000000,,,,0.000000,4.000000,4.000000,4.000000,4.000000,4.000000,4.000000,4.000000,4.000000,4.000000,4.000000,4.000000,4.000000,4.000000,4.000000,100.000000,,,,,,,,,,,,,,,,,,,,,,,,,,,,,,,,,,,,,,,,,,,,,,,,,,,,,,,,,,,,,,,,,,,,,,,,,,,,,,,,,,,,,,,,,,,,,,,,,,,,,,,,,,,,,,,,,,,,,
1768295543.133490,1768295543.134510,113.000000,0.000000,4325.128418,4309.230957,4331.410156,4335.769043,4298.205078,4299.358887,4296.666504,4315.256348,4320.512695,4294.102539,4493.333496,4510.384766,4390.512695,4457.563965,5415.000000,2.000000,38.000000,,,,0.000000,4.000000,4.000000,4.000000,4.000000,4.000000,4.000000,4.000000,4.000000,4.000000,4.000000,4.000000,4.000000,4.000000,4.000000,100.000000,,,,,,,,,,,,,,,,,,,,,,,,,,,,,,,,,,,,,,,,,,,,,,,,,,,,,,,,,,,,,,,,,,,,,,,,,,,,,,,,,,,,,,,,,,,,,,,,,,,,,,,,,,,,,,,,,,,,,
1768295543.141299,1768295543.142218,114.000000,0.000000,4322.436035,4306.153809,4329.615234,4332.436035,4295.256348,4298.846191,4302.948730,4318.717773,4320.384766,4291.282227,4494.102539,4517.051270,4390.256348,4454.358887,3628.000000,2.000000,38.000000,,,,0.000000,4.000000,4.000000,4.000000,4.000000,4.000000,4.000000,4.000000,4.000000,4.000000,4.000000,4.000000,4.000000,4.000000,4.000000,100.000000,,,,,,,,,,,,,,,,,,,,,,,,,,,,,,,,,,,,,,,,,,,,,,,,,,,,,,,,,,,,,,,,,,,,,,,,,,,,,,,,,,,,,,,,,,,,,,,,,,,,,,,,,,,,,,,,,,,,,
1768295543.149107,1768295543.150027,115.000000,0.000000,4323.846191,4301.025879,4329.230957,4326.025879,4298.589844,4298.846191,4307.692383,4325.897461,4322.948730,4297.820313,4501.025879,4525.769043,4398.077148,4466.410156,4679.000000,2.000000,38.000000,,,,0.000000,4.000000,4.000000,4.000000,4.000000,4.000000,4.000000,4.000000,4.000000,4.000000,4.000000,4.000000,4.000000,4.000000,4.000000,100.000000,,,,,,,,,,,,,,,,,,,,,,,,,,,,,,,,,,,,,,,,,,,,,,,,,,,,,,,,,,,,,,,,,,,,,,,,,,,,,,,,,,,,,,,,,,,,,,,,,,,,,,,,,,,,,,,,,,,,,
1768295543.156916,1768295543.157635,116.000000,0.000000,4324.743652,4302.563965,4335.000000,4330.897461,4302.051270,4296.666504,4300.769043,4317.051270,4322.307617,4296.153809,4501.794922,4522.692383,4399.615234,4469.615234,2289.000000,2.000000,38.000000,,,,0.000000,4.000000,4.000000,4.000000,4.000000,4.000000,4.000000,4.000000,4.000000,4.000000,4.000000,4.000000,4.000000,4.000000,4.000000,100.000000,,,,,,,,,,,,,,,,,,,,,,,,,,,,,,,,,,,,,,,,,,,,,,,,,,,,,,,,,,,,,,,,,,,,,,,,,,,,,,,,,,,,,,,,,,,,,,,,,,,,,,,,,,,,,,,,,,,,,
1768295543.164724,1768295543.165444,117.000000,0.000000,4326.025879,4311.153809,4344.102539,4342.051270,4302.820313,4297.051270,4297.179688,4314.615234,4321.282227,4292.307617,4497.692383,4518.846191,4400.897461,4466.025879,5415.000000,2.000000,38.000000,,,,0.000000,4.000000,4.000000,4.000000,4.000000,4.000000,4.000000,4.000000,4.000000,4.000000,4.000000,4.000000,4.000000,4.000000,4.000000,100.000000,,,,,,,,,,,,,,,,,,,,,,,,,,,,,,,,,,,,,,,,,,,,,,,,,,,,,,,,,,,,,,,,,,,,,,,,,,,,,,,,,,,,,,,,,,,,,,,,,,,,,,,,,,,,,,,,,,,,,
1768295543.172532,1768295543.173152,118.000000,0.000000,4331.025879,4315.256348,4345.384766,4344.358887,4305.000000,4303.846191,4303.589844,4328.077148,4324.358887,4297.820313,4498.589844,4522.436035,4403.077148,4468.717773,3628.000000,2.000000,38.000000,,,,0.000000,4.000000,4.000000,4.000000,4.000000,4.000000,4.000000,4.000000,4.000000,4.000000,4.000000,4.000000,4.000000,4.000000,4.000000,100.000000,,,,,,,,,,,,,,,,,,,,,,,,,,,,,,,,,,,,,,,,,,,,,,,,,,,,,,,,,,,,,,,,,,,,,,,,,,,,,,,,,,,,,,,,,,,,,,,,,,,,,,,,,,,,,,,,,,,,,
1768295543.180341,1768295543.180961,119.000000,0.000000,4329.871582,4312.436035,4341.538574,4341.410156,4308.974121,4304.102539,4303.333496,4328.846191,4326.666504,4307.051270,4498.461426,4523.589844,4398.717773,4470.769043,4679.000000,2.000000,38.000000,,,,0.000000,4.000000,4.000000,4.000000,4.000000,4.000000,4.000000,4.000000,4.000000,4.000000,4.000000,4.000000,4.000000,4.000000,4.000000,100.000000,,,,,,,,,,,,,,,,,,,,,,,,,,,,,,,,,,,,,,,,,,,,,,,,,,,,,,,,,,,,,,,,,,,,,,,,,,,,,,,,,,,,,,,,,,,,,,,,,,,,,,,,,,,,,,,,,,,,,
1768295543.188149,1768295543.188570,120.000000,0.000000,4326.794922,4311.922852,4341.410156,4342.051270,4309.871582,4301.922852,4302.307617,4323.461426,4324.358887,4307.307617,4498.846191,4524.358887,4400.897461,4471.538574,2289.000000,2.000000,38.000000,,,,0.000000,4.000000,4.000000,4.000000,4.000000,4.000000,4.000000,4.000000,4.000000,4.000000,4.000000,4.000000,4.000000,4.000000,4.000000,100.000000,,,,,,,,,,,,,,,,,,,,,,,,,,,,,,,,,,,,,,,,,,,,,,,,,,,,,,,,,,,,,,,,,,,,,,,,,,,,,,,,,,,,,,,,,,,,,,,,,,,,,,,,,,,,,,,,,,,,,
1768295543.195958,1768295543.196378,121.000000,0.000000,4332.051270,4315.128418,4343.717773,4343.846191,4309.615234,4306.666504,4305.128418,4329.230957,4324.487305,4307.563965,4505.384766,4531.794922,4410.641113,4478.077148,5415.000000,2.000000,38.000000,,,,0.000000,4.000000,4.000000,4.000000,4.000000,4.000000,4.000000,4.000000,4.000000,4.000000,4.000000,4.000000,4.000000,4.000000,4.000000,100.000000,,,,,,,,,,,,,,,,,,,,,,,,,,,,,,,,,,,,,,,,,,,,,,,,,,,,,,,,,,,,,,,,,,,,,,,,,,,,,,,,,,,,,,,,,,,,,,,,,,,,,,,,,,,,,,,,,,,,,
1768295543.203766,1768295543.204087,122.000000,0.000000,4333.974121,4311.282227,4345.000000,4342.307617,4307.820313,4307.179688,4307.307617,4335.512695,4330.000000,4315.256348,4508.974121,4541.025879,4412.948730,4483.589844,3628.000000,2.000000,38.000000,,,,0.000000,4.000000,4.000000,4.000000,4.000000,4.000000,4.000000,4.000000,4.000000,4.000000,4.000000,4.000000,4.000000,4.000000,4.000000,100.000000,,,,,,,,,,,,,,,,,,,,,,,,,,,,,,,,,,,,,,,,,,,,,,,,,,,,,,,,,,,,,,,,,,,,,,,,,,,,,,,,,,,,,,,,,,,,,,,,,,,,,,,,,,,,,,,,,,,,,
1768295543.211574,1768295543.211895,123.000000,0.000000,4325.641113,4302.820313,4340.897461,4339.743652,4305.512695,4301.666504,4309.487305,4336.153809,4333.717773,4318.461426,4507.692383,4543.846191,4412.436035,4483.974121,4679.000000,2.000000,38.000000,,,,0.000000,4.000000,4.000000,4.000000,4.000000,4.000000,4.000000,4.000000,4.000000,4.000000,4.000000,4.000000,4.000000,4.000000,4.000000,100.000000,,,,,,,,,,,,,,,,,,,,,,,,,,,,,,,,,,,,,,,,,,,,,,,,,,,,,,,,,,,,,,,,,,,,,,,,,,,,,,,,,,,,,,,,,,,,,,,,,,,,,,,,,,,,,,,,,,,,,
1768295543.219383,1768295543.219903,124.000000,0.000000,4323.205078,4300.769043,4337.436035,4336.025879,4306.025879,4300.128418,4308.717773,4331.794922,4331.666504,4314.358887,4504.358887,4537.051270,4412.307617,4479.358887,2289.000000,2.000000,38.000000,,,,0.000000,4.000000,4.000000,4.000000,4.000000,4.000000,4.000000,4.000000,4.000000,4.000000,4.000000,4.000000,4.000000,4.000000,4.000000,100.000000,,,,,,,,,,,,,,,,,,,,,,,,,,,,,,,,,,,,,,,,,,,,,,,,,,,,,,,,,,,,,,,,,,,,,,,,,,,,,,,,,,,,,,,,,,,,,,,,,,,,,,,,,,,,,,,,,,,,,
1768295543.227191,1768295543.227712,125.000000,0.000000,4324.871582,4301.538574,4338.846191,4332.307617,4305.641113,4303.461426,4304.743652,4329.102539,4328.461426,4311.025879,4502.692383,4532.051270,4409.871582,4473.205078,5415.000000,2.000000,38.000000,,,,0.000000,4.000000,4.000000,4.000000,4.000000,4.000000,4.000000,4.000000,4.000000,4.000000,4.000000,4.000000,4.000000,4.000000,4.000000,100.000000,,,,,,,,,,,,,,,,,,,,,,,,,,,,,,,,,,,,,,,,,,,,,,,,,,,,,,,,,,,,,,,,,,,,,,,,,,,,,,,,,,,,,,,,,,,,,,,,,,,,,,,,,,,,,,,,,,,,,
1768295543.235000,1768295543.235620,126.000000,0.000000,4325.000000,4295.256348,4344.871582,4334.871582,4305.769043,4307.179688,4310.384766,4332.948730,4328.717773,4311.025879,4503.717773,4538.461426,4409.102539,4473.589844,3628.000000,2.000000,38.000000,,,,0.000000,4.000000,4.000000,4.000000,4.000000,4.000000,4.000000,4.000000,4.000000,4.000000,4.000000,4.000000,4.000000,4.000000,4.000000,100.000000,,,,,,,,,,,,,,,,,,,,,,,,,,,,,,,,,,,,,,,,,,,,,,,,1.514086,0.369007,0.144161,0.182267,0.153041,1.129236,0.191517,0.159795,0.292413,0.087615,2.112097,0.339289,0.129758,0.124597,0.102725,1.190726,0.254791,0.077564,0.122853,0.102540,0.503753,0.130835,0.121140,0.113423,0.038434,0.250338,0.169786,0.138468,0.102649,0.086512,0.195260,0.658378,0.208435,0.220333,0.251699,0.264076,0.553562,0.118897,0.212877,0.162920,0.112373,0.188978,0.068382,0.092504,0.036602,0.787888,0.579642,0.212726,0.202565,0.069287,0.186196,0.152265,0.060610,0.047799,0.072287,2.783242,0.537867,0.169982,0.215455,0.183893,0.826732,0.472265,0.192737,0.168359,0.138854,2.747634,0.723043,0.299742,0.153641,0.211140
1768295543.242808,1768295543.243429,127.000000,0.000000,4323.589844,4292.179688,4342.436035,4336.282227,4304.743652,4302.820313,4312.692383,4332.948730,4326.025879,4305.641113,4501.538574,4537.820313,4406.410156,4473.333496,38.000000,2.000000,38.000000,,,,0.000000,4.000000,4.000000,4.000000,4.000000,4.000000,4.000000,4.000000,4.000000,4.000000,4.000000,4.000000,4.000000,4.000000,4.000000,100.000000,,,,,,,,,,,,,,,,,,,,,,,,,,,,,,,,,,,,,,,,,,,,,,,,,,,,,,,,,,,,,,,,,,,,,,,,,,,,,,,,,,,,,,,,,,,,,,,,,,,,,,,,,,,,,,,,,,,,,
1768295543.250616,1768295543.251437,0.000000,0.000000,4315.256348,4293.846191,4329.358887,4327.179688,4298.077148,4295.000000,4301.538574,4325.384766,4322.948730,4298.717773,4496.282227,4523.717773,4396.153809,4464.743652,4255.000000,2.000000,38.000000,,,,0.000000,4.000000,4.000000,4.000000,4.000000,4.000000,4.000000,4.000000,4.000000,4.000000,4.000000,4.000000,4.000000,4.000000,4.000000,100.000000,,,,,,,,,,,,,,,,,,,,,,,,,,,,,,,,,,,,,,,,,,,,,,,,,,,,,,,,,,,,,,,,,,,,,,,,,,,,,,,,,,,,,,,,,,,,,,,,,,,,,,,,,,,,,,,,,,,,,
1768295543.258425,1768295543.259246,1.000000,0.000000,4311.282227,4289.871582,4331.794922,4324.871582,4299.487305,4300.128418,4306.025879,4329.615234,4328.461426,4300.897461,4495.769043,4526.538574,4392.563965,4464.487305,3815.000000,2.000000,38.000000,,,,0.000000,4.000000,4.000000,4.000000,4.000000,4.000000,4.000000,4.000000,4.000000,4.000000,4.000000,4.000000,4.000000,4.000000,4.000000,100.000000,,,,,,,,,,,,,,,,,,,,,,,,,,,,,,,,,,,,,,,,,,,,,,,,,,,,,,,,,,,,,,,,,,,,,,,,,,,,,,,,,,,,,,,,,,,,,,,,,,,,,,,,,,,,,,,,,,,,,
1768295543.266233,1768295543.267154,2.000000,0.000000,4326.025879,4295.384766,4348.717773,4338.333496,4310.384766,4310.256348,4320.641113,4345.512695,4336.794922,4310.512695,4508.333496,4550.256348,4407.948730,4482.179688,4039.000000,2.000000,38.000000,,,,0.000000,4.000000,4.000000,4.000000,4.000000,4.000000,4.000000,4.000000,4.000000,4.000000,4.000000,4.000000,4.000000,4.000000,4.000000,100.000000,,,,,,,,,,,,,,,,,,,,,,,,,,,,,,,,,,,,,,,,,,,,,,,,,,,,,,,,,,,,,,,,,,,,,,,,,,,,,,,,,,,,,,,,,,,,,,,,,,,,,,,,,,,,,,,,,,,,,
1768295543.274042,1768295543.274962,3.000000,0.000000,4340.128418,4313.589844,4355.256348,4347.179688,4315.512695,4307.948730,4313.717773,4344.358887,4336.922852,4319.358887,4519.743652,4561.794922,4422.051270,4496.282227,3931.000000,2.000000,38.000000,,,,0.000000,4.000000,4.000000,4.000000,4.000000,4.000000,4.000000,4.000000,4.000000,4.000000,4.000000,4.000000,4.000000,4.000000,4.000000,100.000000,,,,,,,,,,,,,,,,,,,,,,,,,,,,,,,,,,,,,,,,,,,,,,,,,,,,,,,,,,,,,,,,,,,,,,,,,,,,,,,,,,,,,,,,,,,,,,,,,,,,,,,,,,,,,,,,,,,,,
1768295543.281850,1768295543.282971,4.000000,0.000000,4332.436035,4310.128418,4348.205078,4342.563965,4313.077148,4299.487305,4296.666504,4330.384766,4328.846191,4316.025879,4511.538574,4553.717773,4415.512695,4490.384766,3817.000000,2.000000,38.000000,,,,0.000000,4.000000,4.000000,4.000000,4.000000,4.000000,4.000000,4.000000,4.000000,4.000000,4.000000,4.000000,4.000000,4.000000,4.000000,100.000000,,,,,,,,,,,,,,,,,,,,,,,,,,,,,,,,,,,,,,,,,,,,,,,,,,,,,,,,,,,,,,,,,,,,,,,,,,,,,,,,,,,,,,,,,,,,,,,,,,,,,,,,,,,,,,,,,,,,,
1768295543.289659,1768295543.290779,5.000000,0.000000,4326.666504,4296.025879,4343.205078,4341.025879,4308.333496,4301.025879,4301.410156,4329.358887,4324.102539,4304.230957,4502.051270,4545.000000,4405.384766,4481.794922,3301.000000,2.000000,38.000000,,,,0.000000,4.000000,4.000000,4.000000,4.000000,4.000000,4.000000,4.000000,4.000000,4.000000,4.000000,4.000000,4.000000,4.000000,4.000000,100.000000,,,,,,,,,,,,,,,,,,,,,,,,,,,,,,,,,,,,,,,,,,,,,,,,,,,,,,,,,,,,,,,,,,,,,,,,,,,,,,,,,,,,,,,,,,,,,,,,,,,,,,,,,,,,,,,,,,,,,
1768295543.297467,1768295543.298688,6.000000,0.000000,4336.153809,4306.538574,4346.410156,4343.461426,4304.743652,4308.717773,4314.358887,4332.179688,4322.692383,4299.871582,4503.717773,4537.563965,4407.051270,4480.897461,3537.000000,2.000000,38.000000,,,,0.000000,4.000000,4.000000,4.000000,4.000000,4.000000,4.000000,4.000000,4.000000,4.000000,4.000000,4.000000,4.000000,4.000000,4.000000,100.000000,,,,,,,,,,,,,,,,,,,,,,,,,,,,,,,,,,,,,,,,,,,,,,,,,,,,,,,,,,,,,,,,,,,,,,,,,,,,,,,,,,,,,,,,,,,,,,,,,,,,,,,,,,,,,,,,,,,,,
1768295543.305276,1768295543.306496,7.000000,0.000000,4337.563965,4319.102539,4348.846191,4343.589844,4309.487305,4308.846191,4310.256348,4327.179688,4322.563965,4302.436035,4506.794922,4535.897461,4410.384766,4475.641113,3381.000000,2.000000,38.000000,,,,0.000000,4.000000,4.000000,4.000000,4.000000,4.000000,4.000000,4.000000,4.000000,4.000000,4.000000,4.000000,4.000000,4.000000,4.000000,100.000000,,,,,,,,,,,,,,,,,,,,,,,,,,,,,,,,,,,,,,,,,,,,,,,,,,,,,,,,,,,,,,,,,,,,,,,,,,,,,,,,,,,,,,,,,,,,,,,,,,,,,,,,,,,,,,,,,,,,,
1768295543.313084,1768295543.314505,8.000000,0.000000,4331.538574,4311.794922,4348.205078,4345.384766,4315.000000,4304.871582,4305.512695,4328.846191,4326.666504,4300.897461,4505.897461,4547.563965,4410.000000,4473.717773,2281.000000,2.000000,38.000000,,,,0.000000,4.000000,4.000000,4.000000,4.000000,4.000000,4.000000,4.000000,4.000000,4.000000,4.000000,4.000000,4.000000,4.000000,4.000000,100.000000,,,,,,,,,,,,,,,,,,,,,,,,,,,,,,,,,,,,,,,,,,,,,,,,,,,,,,,,,,,,,,,,,,,,,,,,,,,,,,,,,,,,,,,,,,,,,,,,,,,,,,,,,,,,,,,,,,,,,
1768295543.320892,1768295543.322314,9.000000,0.000000,4332.692383,4309.615234,4346.538574,4348.205078,4312.307617,4306.538574,4310.641113,4333.717773,4328.205078,4296.410156,4503.974121,4551.153809,4407.563965,4480.128418,3625.000000,2.000000,38.000000,,,,0.000000,4.000000,4.000000,4.000000,4.000000,4.000000,4.000000,4.000000,4.000000,4.000000,4.000000,4.000000,4.000000,4.000000,4.000000,100.000000,,,,,,,,,,,,,,,,,,,,,,,,,,,,,,,,,,,,,,,,,,,,,,,,,,,,,,,,,,,,,,,,,,,,,,,,,,,,,,,,,,,,,,,,,,,,,,,,,,,,,,,,,,,,,,,,,,,,,
1768295543.328701,1768295543.330222,10.000000,0.000000,4333.717773,4314.615234,4345.256348,4345.512695,4312.179688,4308.717773,4311.282227,4330.128418,4325.384766,4293.974121,4501.666504,4540.000000,4403.846191,4478.589844,3628.000000,2.000000,38.000000,,,,0.000000,4.000000,4.000000,4.000000,4.000000,4.000000,4.000000,4.000000,4.000000,4.000000,4.000000,4.000000,4.000000,4.000000,4.000000,100.000000,,,,,,,,,,,,,,,,,,,,,,,,,,,,,,,,,,,,,,,,,,,,,,,,,,,,,,,,,,,,,,,,,,,,,,,,,,,,,,,,,,,,,,,,,,,,,,,,,,,,,,,,,,,,,,,,,,,,,
1768295543.336509,1768295543.338030,11.000000,0.000000,4327.051270,4311.282227,4343.974121,4344.230957,4317.948730,4308.717773,4306.666504,4325.769043,4321.794922,4293.846191,4497.948730,4532.692383,4401.794922,4468.333496,4679.000000,2.000000,38.000000,,,,0.000000,4.000000,4.000000,4.000000,4.000000,4.000000,4.000000,4.000000,4.000000,4.000000,4.000000,4.000000,4.000000,4.000000,4.000000,100.000000,,,,,,,,,,,,,,,,,,,,,,,,,,,,,,,,,,,,,,,,,,,,,,,,,,,,,,,,,,,,,,,,,,,,,,,,,,,,,,,,,,,,,,,,,,,,,,,,,,,,,,,,,,,,,,,,,,,,,
1768295543.344318,1768295543.346039,12.000000,0.000000,4324.615234,4306.538574,4342.563965,4346.538574,4317.563965,4309.230957,4307.436035,4327.820313,4322.948730,4297.563965,4497.307617,4529.487305,4400.256348,4463.846191,2282.000000,2.000000,38.000000,,,,0.000000,4.000000,4.000000,4.000000,4.000000,4.000000,4.000000,4.000000,4.000000,4.000000,4.000000,4.000000,4.000000,4.000000,4.000000,100.000000,,,,,,,,,,,,,,,,,,,,,,,,,,,,,,,,,,,,,,,,,,,,,,,,,,,,,,,,,,,,,,,,,,,,,,,,,,,,,,,,,,,,,,,,,,,,,,,,,,,,,,,,,,,,,,,,,,,,,
1768295543.352126,1768295543.353847,13.000000,0.000000,4328.077148,4310.384766,4341.794922,4343.717773,4309.102539,4307.307617,4306.153809,4330.384766,4325.000000,4298.974121,4499.358887,4532.307617,4399.743652,4472.436035,5412.000000,2.000000,38.000000,,,,0.000000,4.000000,4.000000,4.000000,4.000000,4.000000,4.000000,4.000000,4.000000,4.000000,4.000000,4.000000,4.000000,4.000000,4.000000,100.000000,,,,,,,,,,,,,,,,,,,,,,,,,,,,,,,,,,,,,,,,,,,,,,,,,,,,,,,,,,,,,,,,,,,,,,,,,,,,,,,,,,,,,,,,,,,,,,,,,,,,,,,,,,,,,,,,,,,,,
1768295543.359934,1768295543.361756,14.000000,0.000000,4331.666504,4313.974121,4342.436035,4340.512695,4307.563965,4306.538574,4300.000000,4324.102539,4321.666504,4295.128418,4500.384766,4536.922852,4400.769043,4481.410156,3628.000000,2.000000,38.000000,,,,0.000000,4.000000,4.000000,4.000000,4.000000,4.000000,4.000000,4.000000,4.000000,4.000000,4.000000,4.000000,4.000000,4.000000,4.000000,100.000000,1.000000,25.000000,4.000000,4.000000,4.000000,4.000000,4.000000,1.000000,4.000000,4.000000,1.000000,4.000000,1.000000,4.000000,4.000000,4.000000,,,,,,,,,,,,,,,,,,,,,,,,,,,,,,,,1.606426,0.364111,0.166664,0.187676,0.143880,1.198774,0.177289,0.208974,0.249506,0.090553,2.054100,0.382790,0.169790,0.138262,0.100055,1.164076,0.226660,0.096062,0.123503,0.096511,0.433775,0.109074,0.106578,0.100747,0.043592,0.264768,0.193526,0.149603,0.122715,0.104675,0.173334,0.664780,0.211307,0.260407,0.288106,0.341480,0.625319,0.123247,0.223485,0.169553,0.122514,0.212872,0.058550,0.083896,0.037051,0.712354,0.594840,0.182039,0.194499,0.070603,0.203902,0.136328,0.055667,0.047194,0.072564,2.822825,0.661408,0.140670,0.228349,0.188508,0.929439,0.511952,0.194397,0.177578,0.133327,2.809138,0.683687,0.302211,0.195151,0.222691
1768295543.367743,1768295543.369564,15.000000,0.000000,4329.230957,4308.461426,4343.205078,4342.563965,4313.205078,4308.846191,4301.666504,4324.743652,4322.179688,4294.871582,4501.922852,4532.948730,4401.666504,4476.153809,4679.000000,2.000000,38.000000,,,,0.000000,4.000000,4.000000,4.000000,4.000000,4.000000,4.000000,4.000000,4.000000,4.000000,4.000000,4.000000,4.000000,4.000000,4.000000,100.000000,,,,,,,,,,,,,,,,,,,,,,,,,,,,,,,,,,,,,,,,,,,,,,,,,,,,,,,,,,,,,,,,,,,,,,,,,,,,,,,,,,,,,,,,,,,,,,,,,,,,,,,,,,,,,,,,,,,,,
1768295543.375551,1768295543.377573,16.000000,0.000000,4321.922852,4303.333496,4341.794922,4342.307617,4311.410156,4308.717773,4305.128418,4329.487305,4326.538574,4295.128418,4498.846191,4526.282227,4398.974121,4462.820313,0.000000,2.000000,38.000000,,,,0.000000,4.000000,4.000000,4.000000,4.000000,4.000000,4.000000,4.000000,4.000000,4.000000,4.000000,4.000000,4.000000,4.000000,4.000000,100.000000,,,,,,,,,,,,,,,,,,,,,,,,,,,,,,,,,,,,,,,,,,,,,,,,,,,,,,,,,,,,,,,,,,,,,,,,,,,,,,,,,,,,,,,,,,,,,,,,,,,,,,,,,,,,,,,,,,,,,
1768295543.383360,1768295543.385381,17.000000,0.000000,4322.692383,4309.102539,4337.307617,4341.794922,4308.077148,4305.769043,4303.461426,4324.871582,4326.666504,4292.179688,4496.538574,4529.230957,4397.307617,4458.461426,0.000000,2.000000,38.000000,,,,0.000000,4.000000,4.000000,4.000000,4.000000,4.000000,4.000000,4.000000,4.000000,4.000000,4.000000,4.000000,4.000000,4.000000,4.000000,100.000000,,,,,,,,,,,,,,,,,,,,,,,,,,,,,,,,,,,,,,,,,,,,,,,,,,,,,,,,,,,,,,,,,,,,,,,,,,,,,,,,,,,,,,,,,,,,,,,,,,,,,,,,,,,,,,,,,,,,,
1768295543.391168,1768295543.393289,18.000000,0.000000,4323.589844,4313.974121,4332.692383,4340.384766,4309.358887,4307.051270,4298.974121,4322.436035,4323.846191,4291.666504,4498.589844,4530.000000,4399.230957,4460.384766,0.000000,2.000000,38.000000,,,,0.000000,4.000000,4.000000,4.000000,4.000000,4.000000,4.000000,4.000000,4.000000,4.000000,4.000000,4.000000,4.000000,4.000000,4.000000,100.000000,,,,,,,,,,,,,,,,,,,,,,,,,,,,,,,,,,,,,,,,,,,,,,,,,,,,,,,,,,,,,,,,,,,,,,,,,,,,,,,,,,,,,,,,,,,,,,,,,,,,,,,,,,,,,,,,,,,,,
1768295543.398976,1768295543.401098,19.000000,0.000000,4318.846191,4312.179688,4333.333496,4337.307617,4309.615234,4310.512695,4302.051270,4322.436035,4322.307617,4296.025879,4495.512695,4522.051270,4400.128418,4458.846191,0.000000,2.000000,38.000000,,,,0.000000,4.000000,4.000000,4.000000,4.000000,4.000000,4.000000,4.000000,4.000000,4.000000,4.000000,4.000000,4.000000,4.000000,4.000000,100.000000,,,,,,,,,,,,,,,,,,,,,,,,,,,,,,,,,,,,,,,,,,,,,,,,,,,,,,,,,,,,,,,,,,,,,,,,,,,,,,,,,,,,,,,,,,,,,,,,,,,,,,,,,,,,,,,,,,,,,
1768295543.406785,1768295543.408706,20.000000,0.000000,4321.666504,4316.025879,4339.615234,4339.358887,4308.846191,4311.410156,4313.717773,4326.794922,4324.230957,4298.077148,4493.717773,4525.256348,4404.871582,4463.205078,0.000000,2.000000,38.000000,,,,0.000000,4.000000,4.000000,4.000000,4.000000,4.000000,4.000000,4.000000,4.000000,4.000000,4.000000,4.000000,4.000000,4.000000,4.000000,100.000000,,,,,,,,,,,,,,,,,,,,,,,,,,,,,,,,,,,,,,,,,,,,,,,,,,,,,,,,,,,,,,,,,,,,,,,,,,,,,,,,,,,,,,,,,,,,,,,,,,,,,,,,,,,,,,,,,,,,,
1768295543.414593,1768295543.416515,21.000000,0.000000,4326.666504,4322.820313,4341.410156,4342.436035,4309.358887,4310.641113,4311.282227,4330.512695,4325.128418,4296.922852,4499.230957,4536.410156,4412.307617,4469.358887,0.000000,2.000000,38.000000,,,,0.000000,4.000000,4.000000,4.000000,4.000000,4.000000,4.000000,4.000000,4.000000,4.000000,4.000000,4.000000,4.000000,4.000000,4.000000,100.000000,,,,,,,,,,,,,,,,,,,,,,,,,,,,,,,,,,,,,,,,,,,,,,,,,,,,,,,,,,,,,,,,,,,,,,,,,,,,,,,,,,,,,,,,,,,,,,,,,,,,,,,,,,,,,,,,,,,,,
1768295543.422402,1768295543.424223,22.000000,0.000000,4326.410156,4324.358887,4339.615234,4342.563965,4305.512695,4307.307617,4298.589844,4329.743652,4325.384766,4298.205078,4501.153809,4540.384766,4411.538574,4469.487305,0.000000,2.000000,38.000000,,,,0.000000,4.000000,4.000000,4.000000,4.000000,4.000000,4.000000,4.000000,4.000000,4.000000,4.000000,4.000000,4.000000,4.000000,4.000000,100.000000,,,,,,,,,,,,,,,,,,,,,,,,,,,,,,,,,,,,,,,,,,,,,,,,,,,,,,,,,,,,,,,,,,,,,,,,,,,,,,,,,,,,,,,,,,,,,,,,,,,,,,,,,,,,,,,,,,,,,
1768295543.430210,1768295543.432032,23.000000,0.000000,4326.666504,4327.179688,4343.333496,4342.563965,4298.974121,4304.102539,4299.743652,4331.282227,4325.128418,4300.897461,4499.358887,4537.692383,4408.461426,4470.512695,0.000000,2.000000,38.000000,,,,0.000000,4.000000,4.000000,4.000000,4.000000,4.000000,4.000000,4.000000,4.000000,4.000000,4.000000,4.000000,4.000000,4.000000,4.000000,100.000000,,,,,,,,,,,,,,,,,,,,,,,,,,,,,,,,,,,,,,,,,,,,,,,,,,,,,,,,,,,,,,,,,,,,,,,,,,,,,,,,,,,,,,,,,,,,,,,,,,,,,,,,,,,,,,,,,,,,,
1768295543.438019,1768295543.440040,24.000000,0.000000,4327.436035,4329.230957,4345.641113,4343.205078,4300.000000,4306.410156,4304.615234,4330.000000,4322.436035,4303.846191,4499.102539,4536.282227,4413.589844,4473.846191,0.000000,2.000000,38.000000,,,,0.000000,4.000000,4.000000,4.000000,4.000000,4.000000,4.000000,4.000000,4.000000,4.000000,4.000000,4.000000,4.000000,4.000000,4.000000,100.000000,,,,,,,,,,,,,,,,,,,,,,,,,,,,,,,,,,,,,,,,,,,,,,,,,,,,,,,,,,,,,,,,,,,,,,,,,,,,,,,,,,,,,,,,,,,,,,,,,,,,,,,,,,,,,,,,,,,,,
1768295543.445827,1768295543.447849,25.000000,0.000000,4326.922852,4328.333496,4344.230957,4342.820313,4300.897461,4309.871582,4301.666504,4326.282227,4319.487305,4303.589844,4499.487305,4542.436035,4415.897461,4477.179688,0.000000,2.000000,38.000000,,,,0.000000,4.000000,4.000000,4.000000,4.000000,4.000000,4.000000,4.000000,4.000000,4.000000,4.000000,4.000000,4.000000,4.000000,4.000000,100.000000,,,,,,,,,,,,,,,,,,,,,,,,,,,,,,,,,,,,,,,,,,,,,,,,,,,,,,,,,,,,,,,,,,,,,,,,,,,,,,,,,,,,,,,,,,,,,,,,,,,,,,,,,,,,,,,,,,,,,
1768295543.453635,1768295543.455757,26.000000,0.000000,4323.846191,4331.153809,4342.692383,4341.666504,4298.333496,4308.077148,4306.410156,4322.436035,4318.974121,4301.282227,4498.333496,4539.230957,4406.538574,4470.256348,0.000000,2.000000,38.000000,,,,0.000000,4.000000,4.000000,4.000000,4.000000,4.000000,4.000000,4.000000,4.000000,4.000000,4.000000,4.000000,4.000000,4.000000,4.000000,100.000000,,,,,,,,,,,,,,,,,,,,,,,,,,,,,,,,,,,,,,,,,,,,,,,,,,,,,,,,,,,,,,,,,,,,,,,,,,,,,,,,,,,,,,,,,,,,,,,,,,,,,,,,,,,,,,,,,,,,,
1768295543.461444,1768295543.463565,27.000000,0.000000,4317.563965,4332.179688,4338.205078,4340.641113,4297.820313,4307.179688,4314.358887,4322.820313,4321.153809,4299.743652,4494.102539,4524.743652,4397.436035,4457.179688,0.000000,2.000000,38.000000,,,,0.000000,4.000000,4.000000,4.000000,4.000000,4.000000,4.000000,4.000000,4.000000,4.000000,4.000000,4.000000,4.000000,4.000000,4.000000,100.000000,,,,,,,,,,,,,,,,,,,,,,,,,,,,,,,,,,,,,,,,,,,,,,,,,,,,,,,,,,,,,,,,,,,,,,,,,,,,,,,,,,,,,,,,,,,,,,,,,,,,,,,,,,,,,,,,,,,,,
1768295543.469252,1768295543.471574,28.000000,0.000000,4316.025879,4330.641113,4337.820313,4345.000000,4302.307617,4310.512695,4308.846191,4324.743652,4323.205078,4300.897461,4491.153809,4523.589844,4400.897461,4457.436035,0.000000,2.000000,38.000000,,,,0.000000,4.000000,4.000000,4.000000,4.000000,4.000000,4.000000,4.000000,4.000000,4.000000,4.000000,4.000000,4.000000,4.000000,4.000000,100.000000,,,,,,,,,,,,,,,,,,,,,,,,,,,,,,,,,,,,,,,,,,,,,,,,,,,,,,,,,,,,,,,,,,,,,,,,,,,,,,,,,,,,,,,,,,,,,,,,,,,,,,,,,,,,,,,,,,,,,
1768295543.477061,1768295543.479382,29.000000,0.000000,4322.307617,4334.230957,4342.436035,4349.743652,4305.384766,4304.743652,4294.358887,4318.589844,4323.461426,4302.051270,4493.077148,4533.717773,4407.307617,4465.641113,0.000000,2.000000,38.000000,,,,0.000000,4.000000,4.000000,4.000000,4.000000,4.000000,4.000000,4.000000,4.000000,4.000000,4.000000,4.000000,4.000000,4.000000,4.000000,100.000000,,,,,,,,,,,,,,,,,,,,,,,,,,,,,,,,,,,,,,,,,,,,,,,,,,,,,,,,,,,,,,,,,,,,,,,,,,,,,,,,,,,,,,,,,,,,,,,,,,,,,,,,,,,,,,,,,,,,,
1768295543.484869,1768295543.487091,30.000000,0.000000,4326.666504,4335.256348,4345.512695,4345.769043,4300.128418,4296.025879,4289.615234,4316.153809,4322.948730,4300.641113,4497.179688,4535.128418,4409.102539,4470.384766,0.000000,2.000000,38.000000,,,,0.000000,4.000000,4.000000,4.000000,4.000000,4.000000,4.000000,4.000000,4.000000,4.000000,4.000000,4.000000,4.000000,4.000000,4.000000,100.000000,,,,,,,,,,,,,,,,,,,,,,,,,,,,,,,,,,,,,,,,,,,,,,,,1.549522,0.379383,0.193095,0.200102,0.137640,1.262428,0.219691,0.260867,0.210256,0.099222,1.788298,0.443208,0.218980,0.157426,0.105568,1.023454,0.232254,0.127122,0.127209,0.092214,0.359692,0.120307,0.096144,0.087946,0.050781,0.265269,0.219161,0.173051,0.140307,0.120279,0.146731,0.693787,0.220938,0.288806,0.327079,0.429700,0.674006,0.141513,0.226255,0.189647,0.151290,0.231683,0.051912,0.072820,0.040594,0.644126,0.591592,0.154250,0.190002,0.076433,0.248689,0.133646,0.053829,0.051343,0.070294,2.717878,0.825071,0.154541,0.248736,0.203912,1.031001,0.566904,0.200648,0.198430,0.129524,2.735884,0.668162,0.302632,0.247946,0.235763
1768295543.492678,1768295543.494899,31.000000,0.000000,4326.666504,4329.743652,4347.179688,4341.153809,4298.461426,4300.897461,4298.205078,4324.487305,4322.179688,4300.000000,4499.487305,4532.436035,4407.948730,4471.025879,0.000000,2.000000,38.000000,,,,0.000000,4.000000,4.000000,4.000000,4.000000,4.000000,4.000000,4.000000,4.000000,4.000000,4.000000,4.000000,4.000000,4.000000,4.000000,100.000000,,,,,,,,,,,,,,,,,,,,,,,,,,,,,,,,,,,,,,,,,,,,,,,,,,,,,,,,,,,,,,,,,,,,,,,,,,,,,,,,,,,,,,,,,,,,,,,,,,,,,,,,,,,,,,,,,,,,,
1768295543.500486,1768295543.502508,32.000000,0.000000,4325.384766,4323.461426,4346.922852,4341.410156,4303.589844,4308.333496,4305.128418,4328.589844,4323.333496,4297.563965,4498.461426,4532.307617,4402.563965,4468.077148,0.000000,2.000000,38.000000,,,,0.000000,4.000000,4.000000,4.000000,4.000000,4.000000,4.000000,4.000000,4.000000,4.000000,4.000000,4.000000,4.000000,4.000000,4.000000,100.000000,,,,,,,,,,,,,,,,,,,,,,,,,,,,,,,,,,,,,,,,,,,,,,,,,,,,,,,,,,,,,,,,,,,,,,,,,,,,,,,,,,,,,,,,,,,,,,,,,,,,,,,,,,,,,,,,,,,,,
1768295543.508294,1768295543.510316,33.000000,0.000000,4324.487305,4320.128418,4345.769043,4342.820313,4305.128418,4307.692383,4308.846191,4329.230957,4326.282227,4298.077148,4499.487305,4535.769043,4402.820313,4467.692383,0.000000,2.000000,38.000000,,,,0.000000,4.000000,4.000000,4.000000,4.000000,4.000000,4.000000,4.000000,4.000000,4.000000,4.000000,4.000000,4.000000,4.000000,4.000000,100.000000,,,,,,,,,,,,,,,,,,,,,,,,,,,,,,,,,,,,,,,,,,,,,,,,,,,,,,,,,,,,,,,,,,,,,,,,,,,,,,,,,,,,,,,,,,,,,,,,,,,,,,,,,,,,,,,,,,,,,
1768295543.516103,1768295543.518025,34.000000,0.000000,4324.871582,4319.871582,4346.025879,4344.230957,4304.102539,4307.948730,4311.282227,4331.538574,4326.282227,4307.051270,4501.282227,4539.487305,4410.897461,4473.846191,0.000000,2.000000,38.000000,,,,0.000000,4.000000,4.000000,4.000000,4.000000,4.000000,4.000000,4.000000,4.000000,4.000000,4.000000,4.000000,4.000000,4.000000,4.000000,100.000000,,,,,,,,,,,,,,,,,,,,,,,,,,,,,,,,,,,,,,,,,,,,,,,,,,,,,,,,,,,,,,,,,,,,,,,,,,,,,,,,,,,,,,,,,,,,,,,,,,,,,,,,,,,,,,,,,,,,,
1768295543.523911,1768295543.525833,35.000000,0.000000,4322.820313,4319.102539,4345.769043,4343.077148,4308.717773,4308.077148,4306.153809,4330.897461,4323.974121,4305.641113,4502.307617,4536.153809,4411.025879,4476.282227,0.000000,2.000000,38.000000,,,,0.000000,4.000000,4.000000,4.000000,4.000000,4.000000,4.000000,4.000000,4.000000,4.000000,4.000000,4.000000,4.000000,4.000000,4.000000,100.000000,,,,,,,,,,,,,,,,,,,,,,,,,,,,,,,,,,,,,,,,,,,,,,,,,,,,,,,,,,,,,,,,,,,,,,,,,,,,,,,,,,,,,,,,,,,,,,,,,,,,,,,,,,,,,,,,,,,,,
1768295543.531720,1768295543.533442,36.000000,0.000000,4320.897461,4315.769043,4342.179688,4339.871582,4310.512695,4306.282227,4302.563965,4330.512695,4323.846191,4295.384766,4502.307617,4531.666504,4405.256348,4470.512695,0.000000,2.000000,38.000000,,,,0.000000,4.000000,4.000000,4.000000,4.000000,4.000000,4.000000,4.000000,4.000000,4.000000,4.000000,4.000000,4.000000,4.000000,4.000000,100.000000,,,,,,,,,,,,,,,,,,,,,,,,,,,,,,,,,,,,,,,,,,,,,,,,,,,,,,,,,,,,,,,,,,,,,,,,,,,,,,,,,,,,,,,,,,,,,,,,,,,,,,,,,,,,,,,,,,,,,
1768295543.539528,1768295543.541250,37.000000,0.000000,4324.743652,4320.128418,4342.179688,4341.025879,4309.230957,4310.769043,4312.820313,4331.794922,4327.051270,4303.461426,4499.871582,4535.256348,4408.333496,4469.358887,0.000000,2.000000,38.000000,,,,0.000000,4.000000,4.000000,4.000000,4.000000,4.000000,4.000000,4.000000,4.000000,4.000000,4.000000,4.000000,4.000000,4.000000,4.000000,100.000000,,,,,,,,,,,,,,,,,,,,,,,,,,,,,,,,,,,,,,,,,,,,,,,,,,,,,,,,,,,,,,,,,,,,,,,,,,,,,,,,,,,,,,,,,,,,,,,,,,,,,,,,,,,,,,,,,,,,,
1768295543.547336,1768295543.548959,38.000000,0.000000,4328.846191,4328.589844,4345.641113,4343.846191,4310.512695,4313.589844,4316.922852,4331.922852,4329.230957,4313.205078,4501.153809,4540.128418,4411.666504,4472.948730,0.000000,2.000000,38.000000,,,,0.000000,4.000000,4.000000,4.000000,4.000000,4.000000,4.000000,4.000000,4.000000,4.000000,4.000000,4.000000,4.000000,4.000000,4.000000,100.000000,,,,,,,,,,,,,,,,,,,,,,,,,,,,,,,,,,,,,,,,,,,,,,,,,,,,,,,,,,,,,,,,,,,,,,,,,,,,,,,,,,,,,,,,,,,,,,,,,,,,,,,,,,,,,,,,,,,,,
1768295543.555145,1768295543.556767,39.000000,0.000000,4327.307617,4326.666504,4344.230957,4341.794922,4308.846191,4301.410156,4299.871582,4327.820313,4325.641113,4303.974121,4504.615234,4539.102539,4409.487305,4477.820313,0.000000,2.000000,38.000000,,,,0.000000,4.000000,4.000000,4.000000,4.000000,4.000000,4.000000,4.000000,4.000000,4.000000,4.000000,4.000000,4.000000,4.000000,4.000000,100.000000,,,,,,,,,,,,,,,,,,,,,,,,,,,,,,,,,,,,,,,,,,,,,,,,,,,,,,,,,,,,,,,,,,,,,,,,,,,,,,,,,,,,,,,,,,,,,,,,,,,,,,,,,,,,,,,,,,,,,
1768295543.562953,1768295543.564776,40.000000,0.000000,4324.487305,4318.333496,4344.102539,4340.512695,4305.128418,4294.615234,4293.077148,4325.641113,4321.666504,4303.974121,4502.051270,4535.641113,4408.846191,4480.384766,0.000000,2.000000,38.000000,,,,0.000000,4.000000,4.000000,4.000000,4.000000,4.000000,4.000000,4.000000,4.000000,4.000000,4.000000,4.000000,4.000000,4.000000,4.000000,100.000000,,,,,,,,,,,,,,,,,,,,,,,,,,,,,,,,,,,,,,,,,,,,,,,,,,,,,,,,,,,,,,,,,,,,,,,,,,,,,,,,,,,,,,,,,,,,,,,,,,,,,,,,,,,,,,,,,,,,,
1768295543.570762,1768295543.572584,41.000000,0.000000,4326.282227,4318.461426,4342.436035,4341.538574,4305.641113,4303.077148,4305.769043,4327.051270,4323.846191,4311.410156,4498.077148,4528.589844,4410.384766,4472.307617,0.000000,2.000000,38.000000,,,,0.000000,4.000000,4.000000,4.000000,4.000000,4.000000,4.000000,4.000000,4.000000,4.000000,4.000000,4.000000,4.000000,4.000000,4.000000,100.000000,,,,,,,,,,,,,,,,,,,,,,,,,,,,,,,,,,,,,,,,,,,,,,,,,,,,,,,,,,,,,,,,,,,,,,,,,,,,,,,,,,,,,,,,,,,,,,,,,,,,,,,,,,,,,,,,,,,,,
1768295543.578570,1768295543.580293,42.000000,0.000000,4331.153809,4323.717773,4341.153809,4342.820313,4307.820313,4309.743652,4313.077148,4326.410156,4327.051270,4307.436035,4498.846191,4527.179688,4413.846191,4464.230957,0.000000,2.000000,38.000000,,,,0.000000,4.000000,4.000000,4.000000,4.000000,4.000000,4.000000,4.000000,4.000000,4.000000,4.000000,4.000000,4.000000,4.000000,4.000000,100.000000,,,,,,,,,,,,,,,,,,,,,,,,,,,,,,,,,,,,,,,,,,,,,,,,,,,,,,,,,,,,,,,,,,,,,,,,,,,,,,,,,,,,,,,,,,,,,,,,,,,,,,,,,,,,,,,,,,,,,
1768295543.586379,1768295543.588101,43.000000,0.000000,4329.358887,4318.846191,4344.358887,4341.025879,4305.897461,4309.230957,4308.077148,4329.487305,4329.487305,4307.179688,4503.717773,4537.820313,4414.743652,4473.333496,0.000000,2.000000,38.000000,,,,0.000000,4.000000,4.000000,4.000000,4.000000,4.000000,4.000000,4.000000,4.000000,4.000000,4.000000,4.000000,4.000000,4.000000,4.000000,100.000000,,,,,,,,,,,,,,,,,,,,,,,,,,,,,,,,,,,,,,,,,,,,,,,,,,,,,,,,,,,,,,,,,,,,,,,,,,,,,,,,,,,,,,,,,,,,,,,,,,,,,,,,,,,,,,,,,,,,,
1768295543.594187,1768295543.595710,44.000000,0.000000,4324.615234,4309.487305,4345.384766,4338.589844,4305.128418,4303.205078,4303.846191,4332.820313,4329.871582,4312.948730,4507.051270,4543.589844,4411.410156,4488.333496,0.000000,2.000000,38.000000,,,,0.000000,4.000000,4.000000,4.000000,4.000000,4.000000,4.000000,4.000000,4.000000,4.000000,4.000000,4.000000,4.000000,4.000000,4.000000,100.000000,,,,,,,,,,,,,,,,,,,,,,,,,,,,,,,,,,,,,,,,,,,,,,,,,,,,,,,,,,,,,,,,,,,,,,,,,,,,,,,,,,,,,,,,,,,,,,,,,,,,,,,,,,,,,,,,,,,,,
1768295543.601995,1768295543.603518,45.000000,0.000000,4326.282227,4309.743652,4342.307617,4338.589844,4307.051270,4298.717773,4306.282227,4331.666504,4328.461426,4309.871582,4502.948730,4539.358887,4410.512695,4484.871582,0.000000,2.000000,38.000000,,,,0.000000,4.000000,4.000000,4.000000,4.000000,4.000000,4.000000,4.000000,4.000000,4.000000,4.000000,4.000000,4.000000,4.000000,4.000000,100.000000,,,,,,,,,,,,,,,,,,,,,,,,,,,,,,,,,,,,,,,,,,,,,,,,,,,,,,,,,,,,,,,,,,,,,,,,,,,,,,,,,,,,,,,,,,,,,,,,,,,,,,,,,,,,,,,,,,,,,
1768295543.609804,1768295543.611227,46.000000,0.000000,4326.025879,4311.538574,4340.256348,4337.820313,4304.102539,4302.436035,4310.769043,4332.563965,4328.846191,4304.358887,4502.179688,4535.897461,4409.102539,4472.820313,0.000000,2.000000,38.000000,,,,0.000000,4.000000,4.000000,4.000000,4.000000,4.000000,4.000000,4.000000,4.000000,4.000000,4.000000,4.000000,4.000000,4.000000,4.000000,100.000000,,,,,,,,,,,,,,,,,,,,,,,,,,,,,,,,,,,,,,,,,,,,,,,,1.380043,0.402513,0.210958,0.211473,0.133970,1.315623,0.311702,0.299205,0.179148,0.113009,1.431785,0.491864,0.256920,0.174572,0.118945,0.836246,0.264618,0.160196,0.129069,0.091491,0.304832,0.151798,0.095165,0.078090,0.058641,0.257021,0.237003,0.209162,0.151695,0.130040,0.126869,0.716206,0.230027,0.298889,0.356963,0.515707,0.668862,0.166753,0.222275,0.222648,0.192189,0.234072,0.049923,0.063871,0.045917,0.635476,0.570129,0.139148,0.184699,0.084551,0.309360,0.139347,0.056172,0.062003,0.066618,2.562398,0.969657,0.191449,0.276656,0.227139,1.109172,0.619252,0.206765,0.226099,0.126780,2.577497,0.674974,0.300351,0.301933,0.242212
1768295543.617612,1768295543.619035,47.000000,0.000000,4325.128418,4313.333496,4343.974121,4337.948730,4302.051270,4304.743652,4311.666504,4327.948730,4324.358887,4301.410156,4503.717773,4535.000000,4403.333496,4472.307617,0.000000,2.000000,38.000000,,,,0.000000,4.000000,4.000000,4.000000,4.000000,4.000000,4.000000,4.000000,4.000000,4.000000,4.000000,4.000000,4.000000,4.000000,4.000000,100.000000,,,,,,,,,,,,,,,,,,,,,,,,,,,,,,,,,,,,,,,,,,,,,,,,,,,,,,,,,,,,,,,,,,,,,,,,,,,,,,,,,,,,,,,,,,,,,,,,,,,,,,,,,,,,,,,,,,,,,
1768295543.625421,1768295543.627043,48.000000,0.000000,4333.205078,4316.410156,4348.205078,4342.179688,4307.051270,4304.230957,4308.717773,4322.051270,4323.077148,4300.256348,4501.025879,4539.615234,4404.102539,4480.256348,0.000000,2.000000,38.000000,,,,0.000000,4.000000,4.000000,4.000000,4.000000,4.000000,4.000000,4.000000,4.000000,4.000000,4.000000,4.000000,4.000000,4.000000,4.000000,100.000000,,,,,,,,,,,,,,,,,,,,,,,,,,,,,,,,,,,,,,,,,,,,,,,,,,,,,,,,,,,,,,,,,,,,,,,,,,,,,,,,,,,,,,,,,,,,,,,,,,,,,,,,,,,,,,,,,,,,,
1768295543.633229,1768295543.634852,49.000000,0.000000,4339.358887,4315.897461,4349.230957,4345.000000,4310.769043,4306.410156,4305.256348,4332.692383,4330.256348,4305.128418,4502.051270,4551.410156,4411.410156,4488.717773,0.000000,2.000000,38.000000,,,,0.000000,4.000000,4.000000,4.000000,4.000000,4.000000,4.000000,4.000000,4.000000,4.000000,4.000000,4.000000,4.000000,4.000000,4.000000,100.000000,,,,,,,,,,,,,,,,,,,,,,,,,,,,,,,,,,,,,,,,,,,,,,,,,,,,,,,,,,,,,,,,,,,,,,,,,,,,,,,,,,,,,,,,,,,,,,,,,,,,,,,,,,,,,,,,,,,,,
1768295543.641038,1768295543.642760,50.000000,0.000000,4332.051270,4314.871582,4346.922852,4340.897461,4307.436035,4305.384766,4300.384766,4334.615234,4327.820313,4304.230957,4502.051270,4547.692383,4413.333496,4484.743652,0.000000,2.000000,38.000000,,,,0.000000,4.000000,4.000000,4.000000,4.000000,4.000000,4.000000,4.000000,4.000000,4.000000,4.000000,4.000000,4.000000,4.000000,4.000000,100.000000,,,,,,,,,,,,,,,,,,,,,,,,,,,,,,,,,,,,,,,,,,,,,,,,,,,,,,,,,,,,,,,,,,,,,,,,,,,,,,,,,,,,,,,,,,,,,,,,,,,,,,,,,,,,,,,,,,,,,
1768295543.648846,1768295543.650569,51.000000,0.000000,4326.153809,4318.333496,4343.205078,4340.000000,4305.128418,4302.563965,4301.025879,4321.794922,4321.922852,4299.871582,4500.384766,4532.820313,4410.256348,4472.948730,0.000000,2.000000,38.000000,,,,0.000000,4.000000,4.000000,4.000000,4.000000,4.000000,4.000000,4.000000,4.000000,4.000000,4.000000,4.000000,4.000000,4.000000,4.000000,100.000000,,,,,,,,,,,,,,,,,,,,,,,,,,,,,,,,,,,,,,,,,,,,,,,,,,,,,,,,,,,,,,,,,,,,,,,,,,,,,,,,,,,,,,,,,,,,,,,,,,,,,,,,,,,,,,,,,,,,,
1768295543.656654,1768295543.658577,52.000000,0.000000,4328.205078,4321.153809,4345.769043,4345.897461,4307.179688,4303.717773,4304.615234,4324.358887,4326.282227,4302.436035,4501.025879,4532.307617,4406.153809,4468.205078,0.000000,2.000000,38.000000,,,,0.000000,4.000000,4.000000,4.000000,4.000000,4.000000,4.000000,4.000000,4.000000,4.000000,4.000000,4.000000,4.000000,4.000000,4.000000,100.000000,,,,,,,,,,,,,,,,,,,,,,,,,,,,,,,,,,,,,,,,,,,,,,,,,,,,,,,,,,,,,,,,,,,,,,,,,,,,,,,,,,,,,,,,,,,,,,,,,,,,,,,,,,,,,,,,,,,,,
1768295543.664463,1768295543.666385,53.000000,0.000000,4329.358887,4318.333496,4350.512695,4346.410156,4305.256348,4301.282227,4296.153809,4331.922852,4328.846191,4302.179688,4501.410156,4540.000000,4406.025879,4471.025879,0.000000,2.000000,38.000000,,,,0.000000,4.000000,4.000000,4.000000,4.000000,4.000000,4.000000,4.000000,4.000000,4.000000,4.000000,4.000000,4.000000,4.000000,4.000000,100.000000,,,,,,,,,,,,,,,,,,,,,,,,,,,,,,,,,,,,,,,,,,,,,,,,,,,,,,,,,,,,,,,,,,,,,,,,,,,,,,,,,,,,,,,,,,,,,,,,,,,,,,,,,,,,,,,,,,,,,
1768295543.672271,1768295543.674294,54.000000,0.000000,4332.179688,4315.000000,4355.769043,4344.487305,4303.717773,4297.948730,4288.974121,4331.538574,4326.666504,4300.897461,4502.179688,4545.897461,4409.230957,4476.410156,0.000000,2.000000,38.000000,,,,0.000000,4.000000,4.000000,4.000000,4.000000,4.000000,4.000000,4.000000,4.000000,4.000000,4.000000,4.000000,4.000000,4.000000,4.000000,100.000000,,,,,,,,,,,,,,,,,,,,,,,,,,,,,,,,,,,,,,,,,,,,,,,,,,,,,,,,,,,,,,,,,,,,,,,,,,,,,,,,,,,,,,,,,,,,,,,,,,,,,,,,,,,,,,,,,,,,,
1768295543.680080,1768295543.682102,55.000000,0.000000,4332.051270,4315.000000,4355.769043,4346.410156,4306.922852,4305.256348,4302.307617,4332.436035,4326.538574,4303.717773,4501.282227,4548.077148,4408.717773,4478.205078,0.000000,2.000000,38.000000,,,,0.000000,4.000000,4.000000,4.000000,4.000000,4.000000,4.000000,4.000000,4.000000,4.000000,4.000000,4.000000,4.000000,4.000000,4.000000,100.000000,,,,,,,,,,,,,,,,,,,,,,,,,,,,,,,,,,,,,,,,,,,,,,,,,,,,,,,,,,,,,,,,,,,,,,,,,,,,,,,,,,,,,,,,,,,,,,,,,,,,,,,,,,,,,,,,,,,,,
1768295543.687888,1768295543.689711,56.000000,0.000000,4327.692383,4314.743652,4349.871582,4346.153809,4307.692383,4311.410156,4313.717773,4334.230957,4325.512695,4302.948730,4499.230957,4544.102539,4406.538574,4474.615234,0.000000,2.000000,38.000000,,,,0.000000,4.000000,4.000000,4.000000,4.000000,4.000000,4.000000,4.000000,4.000000,4.000000,4.000000,4.000000,4.000000,4.000000,4.000000,100.000000,,,,,,,,,,,,,,,,,,,,,,,,,,,,,,,,,,,,,,,,,,,,,,,,,,,,,,,,,,,,,,,,,,,,,,,,,,,,,,,,,,,,,,,,,,,,,,,,,,,,,,,,,,,,,,,,,,,,,
1768295543.695696,1768295543.697519,57.000000,0.000000,4329.102539,4313.077148,4347.179688,4342.307617,4303.846191,4305.384766,4303.974121,4330.897461,4324.358887,4299.743652,4496.538574,4536.794922,4409.358887,4468.589844,0.000000,2.000000,38.000000,,,,0.000000,4.000000,4.000000,4.000000,4.000000,4.000000,4.000000,4.000000,4.000000,4.000000,4.000000,4.000000,4.000000,4.000000,4.000000,100.000000,,,,,,,,,,,,,,,,,,,,,,,,,,,,,,,,,,,,,,,,,,,,,,,,,,,,,,,,,,,,,,,,,,,,,,,,,,,,,,,,,,,,,,,,,,,,,,,,,,,,,,,,,,,,,,,,,,,,,
1768295543.703505,1768295543.705228,58.000000,0.000000,4330.000000,4312.948730,4346.666504,4342.563965,4305.769043,4299.615234,4296.282227,4330.128418,4324.871582,4300.384766,4495.128418,4534.487305,4409.487305,4466.538574,0.000000,2.000000,38.000000,,,,0.000000,4.000000,4.000000,4.000000,4.000000,4.000000,4.000000,4.000000,4.000000,4.000000,4.000000,4.000000,4.000000,4.000000,4.000000,100.000000,,,,,,,,,,,,,,,,,,,,,,,,,,,,,,,,,,,,,,,,,,,,,,,,,,,,,,,,,,,,,,,,,,,,,,,,,,,,,,,,,,,,,,,,,,,,,,,,,,,,,,,,,,,,,,,,,,,,,
1768295543.711313,1768295543.713036,59.000000,0.000000,4329.230957,4313.461426,4346.153809,4342.563965,4309.871582,4305.256348,4305.384766,4333.846191,4323.846191,4298.846191,4497.307617,4537.948730,4405.769043,4471.794922,0.000000,2.000000,38.000000,,,,0.000000,4.000000,4.000000,4.000000,4.000000,4.000000,4.000000,4.000000,4.000000,4.000000,4.000000,4.000000,4.000000,4.000000,4.000000,100.000000,,,,,,,,,,,,,,,,,,,,,,,,,,,,,,,,,,,,,,,,,,,,,,,,,,,,,,,,,,,,,,,,,,,,,,,,,,,,,,,,,,,,,,,,,,,,,,,,,,,,,,,,,,,,,,,,,,,,,
1768295543.719122,1768295543.720645,60.000000,0.000000,4333.077148,4314.743652,4348.333496,4341.282227,4309.358887,4313.717773,4314.871582,4330.641113,4322.179688,4300.512695,4500.897461,4539.487305,4408.077148,4477.179688,0.000000,2.000000,38.000000,,,,0.000000,4.000000,4.000000,4.000000,4.000000,4.000000,4.000000,4.000000,4.000000,4.000000,4.000000,4.000000,4.000000,4.000000,4.000000,100.000000,,,,,,,,,,,,,,,,,,,,,,,,,,,,,,,,,,,,,,,,,,,,,,,,,,,,,,,,,,,,,,,,,,,,,,,,,,,,,,,,,,,,,,,,,,,,,,,,,,,,,,,,,,,,,,,,,,,,,
1768295543.726930,1768295543.728453,61.000000,0.000000,4330.384766,4315.769043,4345.769043,4343.717773,4311.410156,4310.000000,4310.128418,4324.615234,4321.666504,4301.153809,4497.948730,4532.051270,4407.692383,4468.333496,0.000000,2.000000,38.000000,,,,0.000000,4.000000,4.000000,4.000000,4.000000,4.000000,4.000000,4.000000,4.000000,4.000000,4.000000,4.000000,4.000000,4.000000,4.000000,100.000000,,,,,,,,,,,,,,,,,,,,,,,,,,,,,,,,,,,,,,,,,,,,,,,,,,,,,,,,,,,,,,,,,,,,,,,,,,,,,,,,,,,,,,,,,,,,,,,,,,,,,,,,,,,,,,,,,,,,,
1768295543.734739,1768295543.736162,62.000000,0.000000,4319.102539,4308.974121,4338.461426,4341.794922,4310.256348,4300.256348,4296.153809,4320.512695,4319.358887,4293.589844,4489.230957,4520.256348,4395.897461,4451.282227,0.000000,2.000000,38.000000,,,,0.000000,4.000000,4.000000,4.000000,4.000000,4.000000,4.000000,4.000000,4.000000,4.000000,4.000000,4.000000,4.000000,4.000000,4.000000,100.000000,,,,,,,,,,,,,,,,,,,,,,,,,,,,,,,,,,,,,,,,,,,,,,,,1.161269,0.430923,0.217519,0.215913,0.133684,1.351852,0.438213,0.314103,0.158433,0.130662,1.115422,0.516364,0.275234,0.184907,0.137648,0.677332,0.314738,0.187060,0.126369,0.094790,0.281549,0.190022,0.105051,0.073438,0.065430,0.244216,0.238804,0.250407,0.156229,0.132964,0.121261,0.697026,0.232502,0.295676,0.370194,0.578626,0.601675,0.192066,0.213810,0.260556,0.230113,0.216090,0.053129,0.061582,0.050977,0.713608,0.538366,0.146676,0.175867,0.092886,0.363291,0.149258,0.066297,0.079667,0.063791,2.430421,1.052779,0.240309,0.317729,0.254232,1.147188,0.659173,0.214963,0.256095,0.126224,2.390941,0.702603,0.316539,0.352205,0.241286
1768295543.742547,1768295543.743970,63.000000,0.000000,4319.615234,4304.230957,4338.205078,4337.436035,4305.641113,4298.205078,4288.717773,4320.000000,4320.000000,4294.358887,4488.846191,4519.743652,4396.025879,4451.410156,0.000000,2.000000,38.000000,,,,0.000000,4.000000,4.000000,4.000000,4.000000,4.000000,4.000000,4.000000,4.000000,4.000000,4.000000,4.000000,4.000000,4.000000,4.000000,100.000000,,,,,,,,,,,,,,,,,,,,,,,,,,,,,,,,,,,,,,,,,,,,,,,,,,,,,,,,,,,,,,,,,,,,,,,,,,,,,,,,,,,,,,,,,,,,,,,,,,,,,,,,,,,,,,,,,,,,,
1768295543.750355,1768295543.751579,64.000000,0.000000,4330.384766,4312.051270,4345.641113,4343.717773,4309.230957,4305.128418,4299.358887,4326.666504,4326.538574,4302.820313,4499.743652,4532.820313,4409.487305,4469.230957,4255.000000,2.000000,38.000000,,,,0.000000,4.000000,4.000000,4.000000,4.000000,4.000000,4.000000,4.000000,4.000000,4.000000,4.000000,4.000000,4.000000,4.000000,4.000000,100.000000,,,,,,,,,,,,,,,,,,,,,,,,,,,,,,,,,,,,,,,,,,,,,,,,,,,,,,,,,,,,,,,,,,,,,,,,,,,,,,,,,,,,,,,,,,,,,,,,,,,,,,,,,,,,,,,,,,,,,
1768295543.758164,1768295543.759387,65.000000,0.000000,4336.153809,4321.282227,4351.410156,4354.102539,4316.282227,4311.538574,4315.000000,4331.666504,4328.846191,4305.512695,4503.974121,4545.128418,4411.666504,4481.153809,3815.000000,2.000000,38.000000,,,,0.000000,4.000000,4.000000,4.000000,4.000000,4.000000,4.000000,4.000000,4.000000,4.000000,4.000000,4.000000,4.000000,4.000000,4.000000,100.000000,,,,,,,,,,,,,,,,,,,,,,,,,,,,,,,,,,,,,,,,,,,,,,,,,,,,,,,,,,,,,,,,,,,,,,,,,,,,,,,,,,,,,,,,,,,,,,,,,,,,,,,,,,,,,,,,,,,,,
1768295543.765972,1768295543.767296,66.000000,0.000000,4334.487305,4320.128418,4350.897461,4351.538574,4315.512695,4310.897461,4316.794922,4329.615234,4326.922852,4302.307617,4498.846191,4546.410156,4405.128418,4476.025879,4039.000000,2.000000,38.000000,,,,0.000000,4.000000,4.000000,4.000000,4.000000,4.000000,4.000000,4.000000,4.000000,4.000000,4.000000,4.000000,4.000000,4.000000,4.000000,100.000000,,,,,,,,,,,,,,,,,,,,,,,,,,,,,,,,,,,,,,,,,,,,,,,,,,,,,,,,,,,,,,,,,,,,,,,,,,,,,,,,,,,,,,,,,,,,,,,,,,,,,,,,,,,,,,,,,,,,,
1768295543.773781,1768295543.775104,67.000000,0.000000,4327.563965,4310.897461,4346.410156,4342.179688,4310.000000,4306.794922,4305.641113,4330.128418,4328.333496,4296.922852,4498.333496,4540.256348,4399.230957,4468.205078,3931.000000,2.000000,38.000000,,,,0.000000,4.000000,4.000000,4.000000,4.000000,4.000000,4.000000,4.000000,4.000000,4.000000,4.000000,4.000000,4.000000,4.000000,4.000000,100.000000,,,,,,,,,,,,,,,,,,,,,,,,,,,,,,,,,,,,,,,,,,,,,,,,,,,,,,,,,,,,,,,,,,,,,,,,,,,,,,,,,,,,,,,,,,,,,,,,,,,,,,,,,,,,,,,,,,,,,
1768295543.781589,1768295543.783112,68.000000,0.000000,4322.692383,4306.922852,4342.948730,4341.282227,4312.436035,4303.205078,4297.692383,4327.179688,4327.436035,4296.153809,4497.179688,4532.179688,4395.000000,4462.948730,3822.000000,2.000000,38.000000,,,,0.000000,4.000000,4.000000,4.000000,4.000000,4.000000,4.000000,4.000000,4.000000,4.000000,4.000000,4.000000,4.000000,4.000000,4.000000,100.000000,,,,,,,,,,,,,,,,,,,,,,,,,,,,,,,,,,,,,,,,,,,,,,,,,,,,,,,,,,,,,,,,,,,,,,,,,,,,,,,,,,,,,,,,,,,,,,,,,,,,,,,,,,,,,,,,,,,,,
1768295543.789398,1768295543.790921,69.000000,0.000000,4322.179688,4309.871582,4340.769043,4343.589844,4314.487305,4303.205078,4298.846191,4319.230957,4322.563965,4296.666504,4493.461426,4524.871582,4398.589844,4459.230957,3303.000000,2.000000,38.000000,,,,0.000000,4.000000,4.000000,4.000000,4.000000,4.000000,4.000000,4.000000,4.000000,4.000000,4.000000,4.000000,4.000000,4.000000,4.000000,100.000000,,,,,,,,,,,,,,,,,,,,,,,,,,,,,,,,,,,,,,,,,,,,,,,,,,,,,,,,,,,,,,,,,,,,,,,,,,,,,,,,,,,,,,,,,,,,,,,,,,,,,,,,,,,,,,,,,,,,,
1768295543.797206,1768295543.798629,70.000000,0.000000,4327.692383,4317.820313,4342.692383,4347.179688,4312.692383,4307.051270,4301.282227,4321.410156,4323.974121,4295.384766,4495.897461,4527.051270,4408.461426,4468.205078,3532.000000,2.000000,38.000000,,,,0.000000,4.000000,4.000000,4.000000,4.000000,4.000000,4.000000,4.000000,4.000000,4.000000,4.000000,4.000000,4.000000,4.000000,4.000000,100.000000,,,,,,,,,,,,,,,,,,,,,,,,,,,,,,,,,,,,,,,,,,,,,,,,,,,,,,,,,,,,,,,,,,,,,,,,,,,,,,,,,,,,,,,,,,,,,,,,,,,,,,,,,,,,,,,,,,,,,
1768295543.805014,1768295543.806438,71.000000,0.000000,4339.102539,4323.589844,4352.051270,4354.230957,4315.512695,4310.897461,4307.051270,4331.538574,4328.717773,4300.000000,4502.051270,4541.666504,4411.794922,4485.256348,3386.000000,2.000000,38.000000,,,,0.000000,4.000000,4.000000,4.000000,4.000000,4.000000,4.000000,4.000000,4.000000,4.000000,4.000000,4.000000,4.000000,4.000000,4.000000,100.000000,,,,,,,,,,,,,,,,,,,,,,,,,,,,,,,,,,,,,,,,,,,,,,,,,,,,,,,,,,,,,,,,,,,,,,,,,,,,,,,,,,,,,,,,,,,,,,,,,,,,,,,,,,,,,,,,,,,,,
1768295543.812823,1768295543.814046,72.000000,0.000000,4339.871582,4319.230957,4352.051270,4352.307617,4316.538574,4313.461426,4311.282227,4334.871582,4330.128418,4302.179688,4501.922852,4546.666504,4407.692383,4482.948730,2281.000000,2.000000,38.000000,,,,0.000000,4.000000,4.000000,4.000000,4.000000,4.000000,4.000000,4.000000,4.000000,4.000000,4.000000,4.000000,4.000000,4.000000,4.000000,100.000000,,,,,,,,,,,,,,,,,,,,,,,,,,,,,,,,,,,,,,,,,,,,,,,,,,,,,,,,,,,,,,,,,,,,,,,,,,,,,,,,,,,,,,,,,,,,,,,,,,,,,,,,,,,,,,,,,,,,,
1768295543.820631,1768295543.821855,73.000000,0.000000,4324.487305,4312.563965,4336.410156,4342.948730,4313.205078,4312.948730,4305.128418,4327.948730,4330.000000,4296.538574,4497.948730,4531.410156,4406.794922,4466.025879,3625.000000,2.000000,38.000000,,,,0.000000,4.000000,4.000000,4.000000,4.000000,4.000000,4.000000,4.000000,4.000000,4.000000,4.000000,4.000000,4.000000,4.000000,4.000000,100.000000,,,,,,,,,,,,,,,,,,,,,,,,,,,,,,,,,,,,,,,,,,,,,,,,,,,,,,,,,,,,,,,,,,,,,,,,,,,,,,,,,,,,,,,,,,,,,,,,,,,,,,,,,,,,,,,,,,,,,
1768295543.828440,1768295543.829563,74.000000,0.000000,4311.538574,4309.615234,4327.179688,4340.128418,4313.846191,4310.256348,4302.307617,4330.000000,4330.384766,4297.436035,4499.487305,4525.000000,4408.717773,4462.692383,3628.000000,2.000000,38.000000,,,,0.000000,4.000000,4.000000,4.000000,4.000000,4.000000,4.000000,4.000000,4.000000,4.000000,4.000000,4.000000,4.000000,4.000000,4.000000,100.000000,,,,,,,,,,,,,,,,,,,,,,,,,,,,,,,,,,,,,,,,,,,,,,,,,,,,,,,,,,,,,,,,,,,,,,,,,,,,,,,,,,,,,,,,,,,,,,,,,,,,,,,,,,,,,,,,,,,,,
1768295543.836248,1768295543.837372,75.000000,0.000000,4311.410156,4305.641113,4328.333496,4339.487305,4312.820313,4307.436035,4302.563965,4333.974121,4327.307617,4298.333496,4496.922852,4524.230957,4404.487305,4458.589844,4679.000000,2.000000,38.000000,,,,0.000000,4.000000,4.000000,4.000000,4.000000,4.000000,4.000000,4.000000,4.000000,4.000000,4.000000,4.000000,4.000000,4.000000,4.000000,100.000000,,,,,,,,,,,,,,,,,,,,,,,,,,,,,,,,,,,,,,,,,,,,,,,,,,,,,,,,,,,,,,,,,,,,,,,,,,,,,,,,,,,,,,,,,,,,,,,,,,,,,,,,,,,,,,,,,,,,,
1768295543.844056,1768295543.845380,76.000000,0.000000,4318.974121,4300.000000,4330.256348,4334.743652,4305.128418,4307.051270,4297.563965,4326.025879,4321.666504,4290.128418,4486.538574,4513.974121,4390.000000,4445.769043,2282.000000,2.000000,38.000000,,,,0.000000,4.000000,4.000000,4.000000,4.000000,4.000000,4.000000,4.000000,4.000000,4.000000,4.000000,4.000000,4.000000,4.000000,4.000000,100.000000,,,,,,,,,,,,,,,,,,,,,,,,,,,,,,,,,,,,,,,,,,,,,,,,,,,,,,,,,,,,,,,,,,,,,,,,,,,,,,,,,,,,,,,,,,,,,,,,,,,,,,,,,,,,,,,,,,,,,
1768295543.851865,1768295543.853189,77.000000,0.000000,4331.666504,4309.102539,4335.512695,4341.025879,4308.077148,4310.897461,4304.743652,4328.205078,4327.692383,4297.563965,4489.102539,4523.589844,4394.230957,4458.333496,5415.000000,2.000000,38.000000,,,,0.000000,4.000000,4.000000,4.000000,4.000000,4.000000,4.000000,4.000000,4.000000,4.000000,4.000000,4.000000,4.000000,4.000000,4.000000,100.000000,,,,,,,,,,,,,,,,,,,,,,,,,,,,,,,,,,,,,,,,,,,,,,,,,,,,,,,,,,,,,,,,,,,,,,,,,,,,,,,,,,,,,,,,,,,,,,,,,,,,,,,,,,,,,,,,,,,,,
1768295543.859673,1768295543.861097,78.000000,0.000000,4339.743652,4322.948730,4344.230957,4354.615234,4321.666504,4314.743652,4318.717773,4340.897461,4338.589844,4320.897461,4504.871582,4553.333496,4424.871582,4486.538574,3628.000000,2.000000,38.000000,,,,0.000000,4.000000,4.000000,4.000000,4.000000,4.000000,4.000000,4.000000,4.000000,4.000000,4.000000,4.000000,4.000000,4.000000,4.000000,100.000000,1.000000,41.666668,4.000000,4.000000,4.000000,4.000000,4.000000,4.000000,4.000000,4.000000,0.000000,4.000000,1.000000,4.000000,4.000000,4.000000,,,,,,,,,,,,,,,,,,,,,,,,,,,,,,,,0.957336,0.464381,0.217036,0.211359,0.136920,1.381556,0.577507,0.303716,0.145580,0.149355,0.914763,0.514085,0.273457,0.186099,0.156294,0.586078,0.369375,0.200271,0.118630,0.100347,0.294720,0.222028,0.121403,0.074049,0.069675,0.228248,0.221951,0.283296,0.154963,0.130141,0.127736,0.619116,0.226355,0.287327,0.366060,0.601070,0.493237,0.214316,0.203281,0.290320,0.250589,0.181747,0.060591,0.068075,0.053930,0.858361,0.504463,0.179131,0.163251,0.100012,0.388172,0.160113,0.086739,0.102336,0.063472,2.333854,1.060764,0.296662,0.375561,0.280166,1.138301,0.684684,0.227682,0.283261,0.128328,2.213657,0.744948,0.372523,0.397807,0.237727
1768295543.867482,1768295543.868905,79.000000,0.000000,4328.205078,4317.563965,4337.948730,4350.512695,4320.384766,4310.769043,4308.461426,4338.589844,4335.128418,4322.563965,4507.563965,4551.410156,4431.922852,4483.461426,4679.000000,2.000000,38.000000,,,,0.000000,4.000000,4.000000,4.000000,4.000000,4.000000,4.000000,4.000000,4.000000,4.000000,4.000000,4.000000,4.000000,4.000000,4.000000,100.000000,,,,,,,,,,,,,,,,,,,,,,,,,,,,,,,,,,,,,,,,,,,,,,,,,,,,,,,,,,,,,,,,,,,,,,,,,,,,,,,,,,,,,,,,,,,,,,,,,,,,,,,,,,,,,,,,,,,,,
1768295543.875290,1768295543.876914,80.000000,0.000000,4319.871582,4312.436035,4327.692383,4339.743652,4310.384766,4306.282227,4292.307617,4323.333496,4323.205078,4304.615234,4494.743652,4524.230957,4403.974121,4459.871582,2282.000000,2.000000,38.000000,,,,0.000000,4.000000,4.000000,4.000000,4.000000,4.000000,4.000000,4.000000,4.000000,4.000000,4.000000,4.000000,4.000000,4.000000,4.000000,100.000000,,,,,,,,,,,,,,,,,,,,,,,,,,,,,,,,,,,,,,,,,,,,,,,,,,,,,,,,,,,,,,,,,,,,,,,,,,,,,,,,,,,,,,,,,,,,,,,,,,,,,,,,,,,,,,,,,,,,,
1768295543.883098,1768295543.884722,81.000000,0.000000,4333.717773,4321.025879,4339.743652,4342.820313,4312.436035,4305.512695,4298.974121,4324.487305,4323.077148,4298.717773,4490.256348,4523.846191,4391.922852,4460.641113,5415.000000,2.000000,38.000000,,,,0.000000,4.000000,4.000000,4.000000,4.000000,4.000000,4.000000,4.000000,4.000000,4.000000,4.000000,4.000000,4.000000,4.000000,4.000000,100.000000,,,,,,,,,,,,,,,,,,,,,,,,,,,,,,,,,,,,,,,,,,,,,,,,,,,,,,,,,,,,,,,,,,,,,,,,,,,,,,,,,,,,,,,,,,,,,,,,,,,,,,,,,,,,,,,,,,,,,
1768295543.890907,1768295543.892431,82.000000,0.000000,4344.743652,4321.153809,4352.179688,4347.307617,4314.230957,4305.897461,4310.000000,4334.871582,4328.205078,4300.769043,4498.205078,4538.717773,4407.179688,4474.487305,3628.000000,2.000000,38.000000,,,,0.000000,4.000000,4.000000,4.000000,4.000000,4.000000,4.000000,4.000000,4.000000,4.000000,4.000000,4.000000,4.000000,4.000000,4.000000,100.000000,,,,,,,,,,,,,,,,,,,,,,,,,,,,,,,,,,,,,,,,,,,,,,,,,,,,,,,,,,,,,,,,,,,,,,,,,,,,,,,,,,,,,,,,,,,,,,,,,,,,,,,,,,,,,,,,,,,,,
1768295543.898715,1768295543.900239,83.000000,0.000000,4335.512695,4310.000000,4347.563965,4342.820313,4308.974121,4308.077148,4306.666504,4327.692383,4324.615234,4296.666504,4499.487305,4537.051270,4409.358887,4472.563965,4679.000000,2.000000,38.000000,,,,0.000000,4.000000,4.000000,4.000000,4.000000,4.000000,4.000000,4.000000,4.000000,4.000000,4.000000,4.000000,4.000000,4.000000,4.000000,100.000000,,,,,,,,,,,,,,,,,,,,,,,,,,,,,,,,,,,,,,,,,,,,,,,,,,,,,,,,,,,,,,,,,,,,,,,,,,,,,,,,,,,,,,,,,,,,,,,,,,,,,,,,,,,,,,,,,,,,,
1768295543.906524,1768295543.907848,84.000000,0.000000,4320.769043,4308.333496,4339.102539,4340.512695,4307.051270,4310.128418,4305.384766,4318.589844,4321.666504,4294.871582,4496.282227,4530.897461,4402.820313,4462.820313,2282.000000,2.000000,38.000000,,,,0.000000,4.000000,4.000000,4.000000,4.000000,4.000000,4.000000,4.000000,4.000000,4.000000,4.000000,4.000000,4.000000,4.000000,4.000000,100.000000,,,,,,,,,,,,,,,,,,,,,,,,,,,,,,,,,,,,,,,,,,,,,,,,,,,,,,,,,,,,,,,,,,,,,,,,,,,,,,,,,,,,,,,,,,,,,,,,,,,,,,,,,,,,,,,,,,,,,
1768295543.914332,1768295543.915656,85.000000,0.000000,4316.666504,4310.256348,4334.871582,4343.461426,4311.282227,4304.615234,4310.897461,4323.077148,4323.974121,4296.666504,4498.717773,4530.128418,4406.922852,4458.077148,5415.000000,2.000000,38.000000,,,,0.000000,4.000000,4.000000,4.000000,4.000000,4.000000,4.000000,4.000000,4.000000,4.000000,4.000000,4.000000,4.000000,4.000000,4.000000,100.000000,,,,,,,,,,,,,,,,,,,,,,,,,,,,,,,,,,,,,,,,,,,,,,,,,,,,,,,,,,,,,,,,,,,,,,,,,,,,,,,,,,,,,,,,,,,,,,,,,,,,,,,,,,,,,,,,,,,,,
1768295543.922141,1768295543.923365,86.000000,0.000000,4322.820313,4307.436035,4333.846191,4341.410156,4312.436035,4297.051270,4303.974121,4328.205078,4325.256348,4296.410156,4495.769043,4523.717773,4404.743652,4456.410156,3628.000000,2.000000,38.000000,,,,0.000000,4.000000,4.000000,4.000000,4.000000,4.000000,4.000000,4.000000,4.000000,4.000000,4.000000,4.000000,4.000000,4.000000,4.000000,100.000000,,,,,,,,,,,,,,,,,,,,,,,,,,,,,,,,,,,,,,,,,,,,,,,,,,,,,,,,,,,,,,,,,,,,,,,,,,,,,,,,,,,,,,,,,,,,,,,,,,,,,,,,,,,,,,,,,,,,,
1768295543.929949,1768295543.931173,87.000000,0.000000,4338.205078,4310.512695,4341.282227,4341.538574,4310.897461,4298.846191,4296.282227,4327.563965,4324.102539,4296.922852,4494.358887,4523.077148,4403.461426,4464.487305,4679.000000,2.000000,38.000000,,,,0.000000,4.000000,4.000000,4.000000,4.000000,4.000000,4.000000,4.000000,4.000000,4.000000,4.000000,4.000000,4.000000,4.000000,4.000000,100.000000,,,,,,,,,,,,,,,,,,,,,,,,,,,,,,,,,,,,,,,,,,,,,,,,,,,,,,,,,,,,,,,,,,,,,,,,,,,,,,,,,,,,,,,,,,,,,,,,,,,,,,,,,,,,,,,,,,,,,
1768295543.937758,1768295543.938782,88.000000,0.000000,4351.025879,4316.153809,4353.846191,4348.205078,4312.948730,4301.282227,4301.922852,4318.589844,4322.307617,4296.922852,4498.974121,4534.487305,4412.307617,4482.051270,2282.000000,2.000000,38.000000,,,,0.000000,4.000000,4.000000,4.000000,4.000000,4.000000,4.000000,4.000000,4.000000,4.000000,4.000000,4.000000,4.000000,4.000000,4.000000,100.000000,,,,,,,,,,,,,,,,,,,,,,,,,,,,,,,,,,,,,,,,,,,,,,,,,,,,,,,,,,,,,,,,,,,,,,,,,,,,,,,,,,,,,,,,,,,,,,,,,,,,,,,,,,,,,,,,,,,,,
1768295543.945566,1768295543.946590,89.000000,0.000000,4344.358887,4314.871582,4350.641113,4347.563965,4314.871582,4300.897461,4301.666504,4309.102539,4320.128418,4293.077148,4496.025879,4533.974121,4410.897461,4482.436035,5415.000000,2.000000,38.000000,,,,0.000000,4.000000,4.000000,4.000000,4.000000,4.000000,4.000000,4.000000,4.000000,4.000000,4.000000,4.000000,4.000000,4.000000,4.000000,100.000000,,,,,,,,,,,,,,,,,,,,,,,,,,,,,,,,,,,,,,,,,,,,,,,,,,,,,,,,,,,,,,,,,,,,,,,,,,,,,,,,,,,,,,,,,,,,,,,,,,,,,,,,,,,,,,,,,,,,,
1768295543.953374,1768295543.954299,90.000000,0.000000,4327.820313,4308.717773,4334.487305,4337.307617,4311.538574,4301.538574,4295.256348,4316.153809,4321.666504,4292.051270,4490.769043,4523.333496,4399.615234,4465.769043,3628.000000,2.000000,38.000000,,,,0.000000,4.000000,4.000000,4.000000,4.000000,4.000000,4.000000,4.000000,4.000000,4.000000,4.000000,4.000000,4.000000,4.000000,4.000000,100.000000,,,,,,,,,,,,,,,,,,,,,,,,,,,,,,,,,,,,,,,,,,,,,,,,,,,,,,,,,,,,,,,,,,,,,,,,,,,,,,,,,,,,,,,,,,,,,,,,,,,,,,,,,,,,,,,,,,,,,
1768295543.961183,1768295543.962107,91.000000,0.000000,4320.897461,4306.794922,4329.102539,4334.743652,4306.922852,4302.692383,4299.871582,4324.102539,4323.717773,4296.794922,4491.538574,4519.743652,4399.743652,4460.000000,4679.000000,2.000000,38.000000,,,,0.000000,4.000000,4.000000,4.000000,4.000000,4.000000,4.000000,4.000000,4.000000,4.000000,4.000000,4.000000,4.000000,4.000000,4.000000,100.000000,,,,,,,,,,,,,,,,,,,,,,,,,,,,,,,,,,,,,,,,,,,,,,,,,,,,,,,,,,,,,,,,,,,,,,,,,,,,,,,,,,,,,,,,,,,,,,,,,,,,,,,,,,,,,,,,,,,,,
