title:remote_19, start timestamp:1768295499.094011, stop timestamp:1768295529.453151, headset type:EPOCX, headset serial:E5020E3B, headset firmware:730, channels:156, sampling rate:eeg_128;pm_0.1;pow_8, samples:3889      , version:2.2, 
Timestamp,OriginalTimestamp,EEG.Counter,EEG.Interpolated,EEG.AF3,EEG.F7,EEG.F3,EEG.FC5,EEG.T7,EEG.P7,EEG.O1,EEG.O2,EEG.P8,EEG.T8,EEG.FC6,EEG.F4,EEG.F8,EEG.AF4,EEG.RawCq,EEG.Battery,EEG.BatteryPercent,MarkerIndex,MarkerType,MarkerValueInt,EEG.MarkerHardware,CQ.AF3,CQ.F7,CQ.F3,CQ.FC5,CQ.T7,CQ.P7,CQ.O1,CQ.O2,CQ.P8,CQ.T8,CQ.FC6,CQ.F4,CQ.F8,CQ.AF4,CQ.Overall,EQ.SampleRateQuality,EQ.OVERALL,EQ.AF3,EQ.F7,EQ.F3,EQ.FC5,EQ.T7,EQ.P7,EQ.O1,EQ.O2,EQ.P8,EQ.T8,EQ.FC6,EQ.F4,EQ.F8,EQ.AF4,PM.Attention.IsActive,PM.Attention.Scaled,PM.Attention.Raw,PM.Attention.Min,PM.Attention.Max,PM.Engagement.IsActive,PM.Engagement.Scaled,PM.Engagement.Raw,PM.Engagement.Min,PM.Engagement.Max,PM.Excitement.IsActive,PM.Excitement.Scaled,PM.Excitement.Raw,PM.Excitement.Min,PM.Excitement.Max,PM.LongTermExcitement,PM.Stress.IsActive,PM.Stress.Scaled,PM.Stress.Raw,PM.Stress.Min,PM.Stress.Max,PM.Relaxation.IsActive,PM.Relaxation.Scaled,PM.Relaxation.Raw,PM.Relaxation.Min,PM.Relaxation.Max,PM.Interest.IsActive,PM.Interest.Scaled,PM.Interest.Raw,PM.Interest.Min,PM.Interest.Max,POW.AF3.Theta,POW.AF3.Alpha,POW.AF3.BetaL,POW.AF3.BetaH,POW.AF3.Gamma,POW.F7.Theta,POW.F7.Alpha,POW.F7.BetaL,POW.F7.BetaH,POW.F7.Gamma,POW.F3.Theta,POW.F3.Alpha,POW.F3.BetaL,POW.F3.BetaH,POW.F3.Gamma,POW.FC5.Theta,POW.FC5.Alpha,POW.FC5.BetaL,POW.FC5.BetaH,POW.FC5.Gamma,POW.T7.Theta,POW.T7.Alpha,POW.T7.BetaL,POW.T7.BetaH,POW.T7.Gamma,POW.P7.Theta,POW.P7.Alpha,POW.P7.BetaL,POW.P7.BetaH,POW.P7.Gamma,POW.O1.Theta,POW.O1.Alpha,POW.O1.BetaL,POW.O1.BetaH,POW.O1.Gamma,POW.O2.Theta,POW.O2.Alpha,POW.O2.BetaL,POW.O2.BetaH,POW.O2.Gamma,POW.P8.Theta,POW.P8.Alpha,POW.P8.BetaL,POW.P8.BetaH,POW.P8.Gamma,POW.T8.Theta,POW.T8.Alpha,POW.T8.BetaL,POW.T8.BetaH,POW.T8.Gamma,POW.FC6.Theta,POW.FC6.Alpha,POW.FC6.BetaL,POW.FC6.BetaH,POW.FC6.Gamma,POW.F4.Theta,POW.F4.Alpha,POW.F4.BetaL,POW.F4.BetaH,POW.F4.Gamma,POW.F8.Theta,POW.F8.Alpha,POW.F8.BetaL,POW.F8.BetaH,POW.F8.Gamma,POW.AF4.Theta,POW.AF4.Alpha,POW.AF4.BetaL,POW.AF4.BetaH,POW.AF4.Gamma
1768295499.094011,1768295499.094770,105.000000,0.000000,4328.846191,4322.051270,4329.102539,4336.025879,4299.230957,4299.102539,4294.615234,4319.743652,4319.358887,4295.256348,4499.358887,4525.897461,4407.692383,4469.615234,5417.000000,2.000000,38.000000,,,,0.000000,4.000000,4.000000,4.000000,4.000000,4.000000,4.000000,4.000000,4.000000,4.000000,4.000000,4.000000,4.000000,4.000000,4.000000,100.000000,,,,,,,,,,,,,,,,,,,,,,,,,,,,,,,,,,,,,,,,,,,,,,,,,,,,,,,,,,,,,,,,,,,,,,,,,,,,,,,,,,,,,,,,,,,,,,,,,,,,,,,,,,,,,,,,,,,,,
1768295499.101819,1768295499.102478,106.000000,0.000000,4331.025879,4324.230957,4332.692383,4338.461426,4300.641113,4299.230957,4299.871582,4324.615234,4322.179688,4296.282227,4499.743652,4531.410156,4403.205078,4474.102539,3638.000000,2.000000,38.000000,,,,0.000000,4.000000,4.000000,4.000000,4.000000,4.000000,4.000000,4.000000,4.000000,4.000000,4.000000,4.000000,4.000000,4.000000,4.000000,100.000000,,,,,,,,,,,,,,,,,,,,,,,,,,,,,,,,,,,,,,,,,,,,,,,,,,,,,,,,,,,,,,,,,,,,,,,,,,,,,,,,,,,,,,,,,,,,,,,,,,,,,,,,,,,,,,,,,,,,,
1768295499.109628,1768295499.110287,107.000000,0.000000,4331.794922,4329.358887,4329.871582,4340.000000,4300.000000,4302.436035,4293.461426,4320.897461,4317.307617,4296.538574,4494.743652,4526.538574,4395.897461,4470.000000,4681.000000,2.000000,38.000000,,,,0.000000,4.000000,4.000000,4.000000,4.000000,4.000000,4.000000,4.000000,4.000000,4.000000,4.000000,4.000000,4.000000,4.000000,4.000000,100.000000,,,,,,,,,,,,,,,,,,,,,,,,,,,,,,,,,,,,,,,,,,,,,,,,,,,,,,,,,,,,,,,,,,,,,,,,,,,,,,,,,,,,,,,,,,,,,,,,,,,,,,,,,,,,,,,,,,,,,
1768295499.117436,1768295499.118295,108.000000,0.000000,4330.384766,4335.512695,4330.256348,4340.000000,4301.794922,4310.384766,4295.897461,4319.871582,4315.897461,4297.436035,4494.487305,4525.128418,4398.333496,4462.179688,2261.000000,2.000000,38.000000,,,,0.000000,4.000000,4.000000,4.000000,4.000000,4.000000,4.000000,4.000000,4.000000,4.000000,4.000000,4.000000,4.000000,4.000000,4.000000,100.000000,,,,,,,,,,,,,,,,,,,,,,,,,,,,,,,,,,,,,,,,,,,,,,,,,,,,,,,,,,,,,,,,,,,,,,,,,,,,,,,,,,,,,,,,,,,,,,,,,,,,,,,,,,,,,,,,,,,,,
1768295499.125245,1768295499.126103,109.000000,0.000000,4330.769043,4336.538574,4339.743652,4342.820313,4302.436035,4311.666504,4309.743652,4324.743652,4320.384766,4302.307617,4499.615234,4536.410156,4406.282227,4467.307617,5417.000000,2.000000,38.000000,,,,0.000000,4.000000,4.000000,4.000000,4.000000,4.000000,4.000000,4.000000,4.000000,4.000000,4.000000,4.000000,4.000000,4.000000,4.000000,100.000000,,,,,,,,,,,,,,,,,,,,,,,,,,,,,,,,,,,,,,,,,,,,,,,,,,,,,,,,,,,,,,,,,,,,,,,,,,,,,,,,,,,,,,,,,,,,,,,,,,,,,,,,,,,,,,,,,,,,,
1768295499.133053,1768295499.133812,110.000000,0.000000,4332.948730,4336.025879,4342.692383,4344.487305,4301.794922,4308.077148,4312.051270,4333.717773,4322.692383,4303.077148,4501.922852,4542.436035,4403.461426,4476.025879,3638.000000,2.000000,38.000000,,,,0.000000,4.000000,4.000000,4.000000,4.000000,4.000000,4.000000,4.000000,4.000000,4.000000,4.000000,4.000000,4.000000,4.000000,4.000000,100.000000,,,,,,,,,,,,,,,,,,,,,,,,,,,,,,,,,,,,,,,,,,,,,,,,0.777268,0.841080,0.650160,0.232650,0.170472,1.016011,0.399678,0.339787,0.231726,0.172254,1.364372,0.841908,0.567916,0.284663,0.146785,0.365387,0.475593,0.231384,0.152657,0.153893,0.506929,0.219090,0.062806,0.097925,0.105724,0.249263,0.173139,0.100580,0.059129,0.133022,0.425391,0.539458,0.262129,0.250461,0.327010,0.232706,1.094478,0.319764,0.217051,0.207303,0.225406,0.325756,0.128174,0.094586,0.072544,0.644899,0.392510,0.229651,0.261224,0.166103,0.226231,0.444681,0.212742,0.087603,0.075112,0.882715,1.139676,0.985127,0.310655,0.239075,0.471492,0.625947,0.567931,0.230850,0.168504,0.836944,1.090773,0.846204,0.343568,0.215007
1768295499.140861,1768295499.141620,111.000000,0.000000,4332.948730,4338.333496,4339.615234,4343.461426,4306.025879,4309.487305,4303.333496,4331.538574,4320.000000,4296.794922,4496.922852,4534.487305,4397.436035,4475.384766,4681.000000,2.000000,38.000000,,,,0.000000,4.000000,4.000000,4.000000,4.000000,4.000000,4.000000,4.000000,4.000000,4.000000,4.000000,4.000000,4.000000,4.000000,4.000000,100.000000,,,,,,,,,,,,,,,,,,,,,,,,,,,,,,,,,,,,,,,,,,,,,,,,,,,,,,,,,,,,,,,,,,,,,,,,,,,,,,,,,,,,,,,,,,,,,,,,,,,,,,,,,,,,,,,,,,,,,
1768295499.148670,1768295499.149229,112.000000,0.000000,4328.974121,4336.794922,4340.384766,4343.461426,4311.666504,4312.948730,4303.717773,4322.307617,4317.179688,4295.769043,4492.692383,4527.820313,4397.051270,4472.692383,2261.000000,2.000000,38.000000,,,,0.000000,4.000000,4.000000,4.000000,4.000000,4.000000,4.000000,4.000000,4.000000,4.000000,4.000000,4.000000,4.000000,4.000000,4.000000,100.000000,,,,,,,,,,,,,,,,,,,,,,,,,,,,,,,,,,,,,,,,,,,,,,,,,,,,,,,,,,,,,,,,,,,,,,,,,,,,,,,,,,,,,,,,,,,,,,,,,,,,,,,,,,,,,,,,,,,,,
1768295499.156478,1768295499.157037,113.000000,0.000000,4326.410156,4334.358887,4341.794922,4346.025879,4311.410156,4312.563965,4312.179688,4321.666504,4316.410156,4303.974121,4493.333496,4527.948730,4397.820313,4467.820313,5417.000000,2.000000,38.000000,,,,0.000000,4.000000,4.000000,4.000000,4.000000,4.000000,4.000000,4.000000,4.000000,4.000000,4.000000,4.000000,4.000000,4.000000,4.000000,100.000000,,,,,,,,,,,,,,,,,,,,,,,,,,,,,,,,,,,,,,,,,,,,,,,,,,,,,,,,,,,,,,,,,,,,,,,,,,,,,,,,,,,,,,,,,,,,,,,,,,,,,,,,,,,,,,,,,,,,,
1768295499.164287,1768295499.164746,114.000000,0.000000,4335.128418,4339.615234,4342.179688,4349.871582,4311.153809,4312.948730,4313.077148,4326.282227,4319.230957,4302.307617,4498.333496,4534.615234,4401.794922,4467.692383,3638.000000,2.000000,38.000000,,,,0.000000,4.000000,4.000000,4.000000,4.000000,4.000000,4.000000,4.000000,4.000000,4.000000,4.000000,4.000000,4.000000,4.000000,4.000000,100.000000,,,,,,,,,,,,,,,,,,,,,,,,,,,,,,,,,,,,,,,,,,,,,,,,,,,,,,,,,,,,,,,,,,,,,,,,,,,,,,,,,,,,,,,,,,,,,,,,,,,,,,,,,,,,,,,,,,,,,
1768295499.172095,1768295499.172554,115.000000,0.000000,4344.102539,4344.487305,4347.051270,4354.358887,4311.282227,4314.615234,4308.717773,4323.461426,4322.436035,4297.692383,4504.615234,4545.769043,4410.512695,4480.769043,4681.000000,2.000000,38.000000,,,,0.000000,4.000000,4.000000,4.000000,4.000000,4.000000,4.000000,4.000000,4.000000,4.000000,4.000000,4.000000,4.000000,4.000000,4.000000,100.000000,,,,,,,,,,,,,,,,,,,,,,,,,,,,,,,,,,,,,,,,,,,,,,,,,,,,,,,,,,,,,,,,,,,,,,,,,,,,,,,,,,,,,,,,,,,,,,,,,,,,,,,,,,,,,,,,,,,,,
1768295499.179903,1768295499.180563,116.000000,0.000000,4336.538574,4337.436035,4349.487305,4355.000000,4312.436035,4315.384766,4310.897461,4323.205078,4322.692383,4304.102539,4502.563965,4547.692383,4412.692383,4486.153809,2261.000000,2.000000,38.000000,,,,0.000000,4.000000,4.000000,4.000000,4.000000,4.000000,4.000000,4.000000,4.000000,4.000000,4.000000,4.000000,4.000000,4.000000,4.000000,100.000000,,,,,,,,,,,,,,,,,,,,,,,,,,,,,,,,,,,,,,,,,,,,,,,,,,,,,,,,,,,,,,,,,,,,,,,,,,,,,,,,,,,,,,,,,,,,,,,,,,,,,,,,,,,,,,,,,,,,,
1768295499.187712,1768295499.188371,117.000000,0.000000,4324.615234,4327.948730,4341.666504,4347.820313,4315.384766,4314.358887,4309.230957,4332.051270,4321.666504,4308.333496,4498.974121,4541.794922,4407.436035,4473.077148,5417.000000,2.000000,38.000000,,,,0.000000,4.000000,4.000000,4.000000,4.000000,4.000000,4.000000,4.000000,4.000000,4.000000,4.000000,4.000000,4.000000,4.000000,4.000000,100.000000,,,,,,,,,,,,,,,,,,,,,,,,,,,,,,,,,,,,,,,,,,,,,,,,,,,,,,,,,,,,,,,,,,,,,,,,,,,,,,,,,,,,,,,,,,,,,,,,,,,,,,,,,,,,,,,,,,,,,
1768295499.195520,1768295499.196279,118.000000,0.000000,4329.615234,4330.769043,4338.461426,4347.051270,4311.153809,4310.384766,4299.615234,4329.615234,4321.922852,4305.128418,4501.922852,4540.769043,4412.179688,4469.487305,3638.000000,2.000000,38.000000,,,,0.000000,4.000000,4.000000,4.000000,4.000000,4.000000,4.000000,4.000000,4.000000,4.000000,4.000000,4.000000,4.000000,4.000000,4.000000,100.000000,,,,,,,,,,,,,,,,,,,,,,,,,,,,,,,,,,,,,,,,,,,,,,,,,,,,,,,,,,,,,,,,,,,,,,,,,,,,,,,,,,,,,,,,,,,,,,,,,,,,,,,,,,,,,,,,,,,,,
1768295499.203329,1768295499.204088,119.000000,0.000000,4341.666504,4335.512695,4346.922852,4354.615234,4306.282227,4310.384766,4302.820313,4322.820313,4325.000000,4303.974121,4505.512695,4547.436035,4420.128418,4485.000000,4681.000000,2.000000,38.000000,,,,0.000000,4.000000,4.000000,4.000000,4.000000,4.000000,4.000000,4.000000,4.000000,4.000000,4.000000,4.000000,4.000000,4.000000,4.000000,100.000000,,,,,,,,,,,,,,,,,,,,,,,,,,,,,,,,,,,,,,,,,,,,,,,,,,,,,,,,,,,,,,,,,,,,,,,,,,,,,,,,,,,,,,,,,,,,,,,,,,,,,,,,,,,,,,,,,,,,,
1768295499.211137,1768295499.212096,120.000000,0.000000,4340.384766,4331.153809,4349.615234,4355.000000,4309.358887,4313.205078,4310.641113,4326.538574,4324.871582,4303.589844,4505.769043,4553.717773,4416.922852,4490.256348,2261.000000,2.000000,38.000000,,,,0.000000,4.000000,4.000000,4.000000,4.000000,4.000000,4.000000,4.000000,4.000000,4.000000,4.000000,4.000000,4.000000,4.000000,4.000000,100.000000,,,,,,,,,,,,,,,,,,,,,,,,,,,,,,,,,,,,,,,,,,,,,,,,,,,,,,,,,,,,,,,,,,,,,,,,,,,,,,,,,,,,,,,,,,,,,,,,,,,,,,,,,,,,,,,,,,,,,
1768295499.218945,1768295499.219904,121.000000,0.000000,4333.974121,4325.000000,4343.077148,4350.000000,4314.487305,4311.538574,4311.282227,4328.846191,4322.436035,4301.666504,4502.436035,4550.384766,4413.717773,4479.358887,5417.000000,2.000000,38.000000,,,,0.000000,4.000000,4.000000,4.000000,4.000000,4.000000,4.000000,4.000000,4.000000,4.000000,4.000000,4.000000,4.000000,4.000000,4.000000,100.000000,,,,,,,,,,,,,,,,,,,,,,,,,,,,,,,,,,,,,,,,,,,,,,,,,,,,,,,,,,,,,,,,,,,,,,,,,,,,,,,,,,,,,,,,,,,,,,,,,,,,,,,,,,,,,,,,,,,,,
1768295499.226754,1768295499.227813,122.000000,0.000000,4331.282227,4323.717773,4342.436035,4350.128418,4313.717773,4312.436035,4312.948730,4329.230957,4324.871582,4306.025879,4502.948730,4545.641113,4420.000000,4477.436035,3638.000000,2.000000,38.000000,,,,0.000000,4.000000,4.000000,4.000000,4.000000,4.000000,4.000000,4.000000,4.000000,4.000000,4.000000,4.000000,4.000000,4.000000,4.000000,100.000000,,,,,,,,,,,,,,,,,,,,,,,,,,,,,,,,,,,,,,,,,,,,,,,,,,,,,,,,,,,,,,,,,,,,,,,,,,,,,,,,,,,,,,,,,,,,,,,,,,,,,,,,,,,,,,,,,,,,,
1768295499.234562,1768295499.235621,123.000000,0.000000,4328.589844,4322.948730,4343.846191,4351.794922,4308.589844,4315.897461,4310.897461,4329.487305,4324.615234,4309.358887,4505.641113,4543.333496,4420.769043,4483.589844,4681.000000,2.000000,38.000000,,,,0.000000,4.000000,4.000000,4.000000,4.000000,4.000000,4.000000,4.000000,4.000000,4.000000,4.000000,4.000000,4.000000,4.000000,4.000000,100.000000,,,,,,,,,,,,,,,,,,,,,,,,,,,,,,,,,,,,,,,,,,,,,,,,,,,,,,,,,,,,,,,,,,,,,,,,,,,,,,,,,,,,,,,,,,,,,,,,,,,,,,,,,,,,,,,,,,,,,
1768295499.242371,1768295499.243530,124.000000,0.000000,4325.512695,4321.410156,4340.256348,4348.205078,4305.641113,4311.538574,4306.794922,4321.794922,4319.743652,4303.205078,4501.922852,4537.051270,4410.769043,4480.384766,2261.000000,2.000000,38.000000,,,,0.000000,4.000000,4.000000,4.000000,4.000000,4.000000,4.000000,4.000000,4.000000,4.000000,4.000000,4.000000,4.000000,4.000000,4.000000,100.000000,,,,,,,,,,,,,,,,,,,,,,,,,,,,,,,,,,,,,,,,,,,,,,,,,,,,,,,,,,,,,,,,,,,,,,,,,,,,,,,,,,,,,,,,,,,,,,,,,,,,,,,,,,,,,,,,,,,,,
1768295499.250179,1768295499.251338,125.000000,0.000000,4326.410156,4319.487305,4341.538574,4344.102539,4308.589844,4307.692383,4310.384766,4318.846191,4320.256348,4298.077148,4498.077148,4530.641113,4406.794922,4468.846191,5417.000000,2.000000,38.000000,,,,0.000000,4.000000,4.000000,4.000000,4.000000,4.000000,4.000000,4.000000,4.000000,4.000000,4.000000,4.000000,4.000000,4.000000,4.000000,100.000000,,,,,,,,,,,,,,,,,,,,,,,,,,,,,,,,,,,,,,,,,,,,,,,,,,,,,,,,,,,,,,,,,,,,,,,,,,,,,,,,,,,,,,,,,,,,,,,,,,,,,,,,,,,,,,,,,,,,,
1768295499.257988,1768295499.259047,126.000000,0.000000,4328.333496,4317.179688,4341.282227,4342.179688,4310.769043,4308.846191,4306.153809,4326.538574,4323.205078,4297.820313,4500.000000,4533.205078,4408.077148,4465.256348,3638.000000,2.000000,38.000000,,,,0.000000,4.000000,4.000000,4.000000,4.000000,4.000000,4.000000,4.000000,4.000000,4.000000,4.000000,4.000000,4.000000,4.000000,4.000000,100.000000,,,,,,,,,,,,,,,,,,,,,,,,,,,,,,,,,,,,,,,,,,,,,,,,0.601133,0.742866,0.631460,0.271120,0.183326,0.952634,0.382061,0.386267,0.254850,0.173399,1.226773,0.790217,0.592657,0.312118,0.139301,0.260999,0.432880,0.275176,0.163095,0.161755,0.463332,0.204157,0.082413,0.097553,0.097758,0.236670,0.184985,0.080357,0.058702,0.113019,0.377644,0.559808,0.284511,0.251348,0.277286,0.212306,1.052157,0.404901,0.231106,0.183870,0.181501,0.338748,0.159722,0.104944,0.066593,0.591200,0.354514,0.243552,0.273668,0.157221,0.191571,0.344752,0.213606,0.094492,0.064523,0.863306,1.035261,0.959698,0.325983,0.192457,0.443986,0.528610,0.488753,0.260737,0.141010,0.739105,0.868225,0.803910,0.368312,0.173591
1768295499.265796,1768295499.266855,127.000000,0.000000,4329.743652,4316.282227,4334.615234,4343.077148,4305.512695,4305.641113,4292.948730,4330.769043,4320.897461,4297.948730,4504.358887,4539.358887,4406.794922,4473.077148,38.000000,2.000000,38.000000,,,,0.000000,4.000000,4.000000,4.000000,4.000000,4.000000,4.000000,4.000000,4.000000,4.000000,4.000000,4.000000,4.000000,4.000000,4.000000,100.000000,,,,,,,,,,,,,,,,,,,,,,,,,,,,,,,,,,,,,,,,,,,,,,,,,,,,,,,,,,,,,,,,,,,,,,,,,,,,,,,,,,,,,,,,,,,,,,,,,,,,,,,,,,,,,,,,,,,,,
1768295499.273605,1768295499.274464,0.000000,0.000000,4332.820313,4312.179688,4333.589844,4343.846191,4304.615234,4304.102539,4294.230957,4327.820313,4320.384766,4296.282227,4502.692383,4538.077148,4404.615234,4478.717773,4253.000000,2.000000,38.000000,,,,0.000000,4.000000,4.000000,4.000000,4.000000,4.000000,4.000000,4.000000,4.000000,4.000000,4.000000,4.000000,4.000000,4.000000,4.000000,100.000000,,,,,,,,,,,,,,,,,,,,,,,,,,,,,,,,,,,,,,,,,,,,,,,,,,,,,,,,,,,,,,,,,,,,,,,,,,,,,,,,,,,,,,,,,,,,,,,,,,,,,,,,,,,,,,,,,,,,,
1768295499.281413,1768295499.282272,1.000000,0.000000,4332.179688,4307.179688,4340.897461,4341.794922,4311.153809,4312.307617,4304.230957,4321.794922,4323.589844,4298.333496,4497.051270,4533.846191,4400.769043,4474.487305,3815.000000,2.000000,38.000000,,,,0.000000,4.000000,4.000000,4.000000,4.000000,4.000000,4.000000,4.000000,4.000000,4.000000,4.000000,4.000000,4.000000,4.000000,4.000000,100.000000,,,,,,,,,,,,,,,,,,,,,,,,,,,,,,,,,,,,,,,,,,,,,,,,,,,,,,,,,,,,,,,,,,,,,,,,,,,,,,,,,,,,,,,,,,,,,,,,,,,,,,,,,,,,,,,,,,,,,
1768295499.289221,1768295499.289981,2.000000,0.000000,4327.051270,4309.358887,4344.615234,4342.436035,4313.974121,4317.820313,4309.615234,4322.692383,4323.461426,4302.307617,4499.871582,4533.589844,4399.615234,4466.538574,4041.000000,2.000000,38.000000,,,,0.000000,4.000000,4.000000,4.000000,4.000000,4.000000,4.000000,4.000000,4.000000,4.000000,4.000000,4.000000,4.000000,4.000000,4.000000,100.000000,,,,,,,,,,,,,,,,,,,,,,,,,,,,,,,,,,,,,,,,,,,,,,,,,,,,,,,,,,,,,,,,,,,,,,,,,,,,,,,,,,,,,,,,,,,,,,,,,,,,,,,,,,,,,,,,,,,,,
1768295499.297030,1768295499.297789,3.000000,0.000000,4330.512695,4315.128418,4344.230957,4349.871582,4312.051270,4315.384766,4316.922852,4328.205078,4321.666504,4299.615234,4503.333496,4533.974121,4403.846191,4463.717773,3932.000000,2.000000,38.000000,,,,0.000000,4.000000,4.000000,4.000000,4.000000,4.000000,4.000000,4.000000,4.000000,4.000000,4.000000,4.000000,4.000000,4.000000,4.000000,100.000000,,,,,,,,,,,,,,,,,,,,,,,,,,,,,,,,,,,,,,,,,,,,,,,,,,,,,,,,,,,,,,,,,,,,,,,,,,,,,,,,,,,,,,,,,,,,,,,,,,,,,,,,,,,,,,,,,,,,,
1768295499.304838,1768295499.305797,4.000000,0.000000,4337.179688,4314.487305,4344.615234,4353.461426,4310.256348,4311.025879,4316.025879,4328.333496,4322.692383,4295.128418,4499.743652,4532.692383,4398.077148,4464.487305,3817.000000,2.000000,38.000000,,,,0.000000,4.000000,4.000000,4.000000,4.000000,4.000000,4.000000,4.000000,4.000000,4.000000,4.000000,4.000000,4.000000,4.000000,4.000000,100.000000,,,,,,,,,,,,,,,,,,,,,,,,,,,,,,,,,,,,,,,,,,,,,,,,,,,,,,,,,,,,,,,,,,,,,,,,,,,,,,,,,,,,,,,,,,,,,,,,,,,,,,,,,,,,,,,,,,,,,
1768295499.312647,1768295499.313606,5.000000,0.000000,4329.230957,4306.410156,4342.307617,4345.512695,4309.615234,4309.871582,4304.871582,4319.230957,4323.205078,4295.641113,4497.820313,4532.436035,4390.769043,4468.077148,3293.000000,2.000000,38.000000,,,,0.000000,4.000000,4.000000,4.000000,4.000000,4.000000,4.000000,4.000000,4.000000,4.000000,4.000000,4.000000,4.000000,4.000000,4.000000,100.000000,,,,,,,,,,,,,,,,,,,,,,,,,,,,,,,,,,,,,,,,,,,,,,,,,,,,,,,,,,,,,,,,,,,,,,,,,,,,,,,,,,,,,,,,,,,,,,,,,,,,,,,,,,,,,,,,,,,,,
1768295499.320455,1768295499.321514,6.000000,0.000000,4319.102539,4305.641113,4337.820313,4338.589844,4310.384766,4310.384766,4301.153809,4316.538574,4322.692383,4297.179688,4499.102539,4530.384766,4402.307617,4465.256348,3523.000000,2.000000,38.000000,,,,0.000000,4.000000,4.000000,4.000000,4.000000,4.000000,4.000000,4.000000,4.000000,4.000000,4.000000,4.000000,4.000000,4.000000,4.000000,100.000000,,,,,,,,,,,,,,,,,,,,,,,,,,,,,,,,,,,,,,,,,,,,,,,,,,,,,,,,,,,,,,,,,,,,,,,,,,,,,,,,,,,,,,,,,,,,,,,,,,,,,,,,,,,,,,,,,,,,,
1768295499.328263,1768295499.329323,7.000000,0.000000,4322.051270,4310.384766,4335.512695,4338.974121,4309.358887,4308.205078,4306.538574,4327.051270,4325.128418,4296.410156,4499.615234,4528.589844,4411.538574,4455.128418,3406.000000,2.000000,38.000000,,,,0.000000,4.000000,4.000000,4.000000,4.000000,4.000000,4.000000,4.000000,4.000000,4.000000,4.000000,4.000000,4.000000,4.000000,4.000000,100.000000,,,,,,,,,,,,,,,,,,,,,,,,,,,,,,,,,,,,,,,,,,,,,,,,,,,,,,,,,,,,,,,,,,,,,,,,,,,,,,,,,,,,,,,,,,,,,,,,,,,,,,,,,,,,,,,,,,,,,
1768295499.336072,1768295499.336931,8.000000,0.000000,4325.384766,4308.589844,4338.205078,4339.102539,4306.153809,4306.410156,4308.205078,4321.666504,4324.358887,4295.641113,4497.051270,4527.179688,4402.948730,4453.974121,2297.000000,2.000000,38.000000,,,,0.000000,4.000000,4.000000,4.000000,4.000000,4.000000,4.000000,4.000000,4.000000,4.000000,4.000000,4.000000,4.000000,4.000000,4.000000,100.000000,,,,,,,,,,,,,,,,,,,,,,,,,,,,,,,,,,,,,,,,,,,,,,,,,,,,,,,,,,,,,,,,,,,,,,,,,,,,,,,,,,,,,,,,,,,,,,,,,,,,,,,,,,,,,,,,,,,,,
1768295499.343880,1768295499.344740,9.000000,0.000000,4326.025879,4308.333496,4340.769043,4341.922852,4305.769043,4307.563965,4307.820313,4310.128418,4320.641113,4296.922852,4496.025879,4528.717773,4401.922852,4465.641113,3623.000000,2.000000,38.000000,,,,0.000000,4.000000,4.000000,4.000000,4.000000,4.000000,4.000000,4.000000,4.000000,4.000000,4.000000,4.000000,4.000000,4.000000,4.000000,100.000000,,,,,,,,,,,,,,,,,,,,,,,,,,,,,,,,,,,,,,,,,,,,,,,,,,,,,,,,,,,,,,,,,,,,,,,,,,,,,,,,,,,,,,,,,,,,,,,,,,,,,,,,,,,,,,,,,,,,,
1768295499.351689,1768295499.352448,10.000000,0.000000,4325.769043,4310.769043,4339.871582,4345.000000,4307.948730,4310.256348,4306.666504,4318.461426,4322.307617,4297.563965,4499.358887,4532.820313,4408.846191,4472.563965,3637.000000,2.000000,38.000000,,,,0.000000,4.000000,4.000000,4.000000,4.000000,4.000000,4.000000,4.000000,4.000000,4.000000,4.000000,4.000000,4.000000,4.000000,4.000000,100.000000,,,,,,,,,,,,,,,,,,,,,,,,,,,,,,,,,,,,,,,,,,,,,,,,,,,,,,,,,,,,,,,,,,,,,,,,,,,,,,,,,,,,,,,,,,,,,,,,,,,,,,,,,,,,,,,,,,,,,
1768295499.359497,1768295499.360257,11.000000,0.000000,4323.461426,4308.717773,4341.538574,4340.769043,4305.641113,4310.256348,4300.897461,4322.051270,4321.794922,4297.563965,4499.358887,4531.282227,4402.692383,4466.666504,4684.000000,2.000000,38.000000,,,,0.000000,4.000000,4.000000,4.000000,4.000000,4.000000,4.000000,4.000000,4.000000,4.000000,4.000000,4.000000,4.000000,4.000000,4.000000,100.000000,,,,,,,,,,,,,,,,,,,,,,,,,,,,,,,,,,,,,,,,,,,,,,,,,,,,,,,,,,,,,,,,,,,,,,,,,,,,,,,,,,,,,,,,,,,,,,,,,,,,,,,,,,,,,,,,,,,,,
1768295499.367305,1768295499.367865,12.000000,0.000000,4327.436035,4309.743652,4348.717773,4341.282227,4301.666504,4310.000000,4300.384766,4320.384766,4319.871582,4298.974121,4499.230957,4535.769043,4400.256348,4469.102539,2266.000000,2.000000,38.000000,,,,0.000000,4.000000,4.000000,4.000000,4.000000,4.000000,4.000000,4.000000,4.000000,4.000000,4.000000,4.000000,4.000000,4.000000,4.000000,100.000000,,,,,,,,,,,,,,,,,,,,,,,,,,,,,,,,,,,,,,,,,,,,,,,,,,,,,,,,,,,,,,,,,,,,,,,,,,,,,,,,,,,,,,,,,,,,,,,,,,,,,,,,,,,,,,,,,,,,,
1768295499.375114,1768295499.375674,13.000000,0.000000,4340.897461,4320.512695,4358.589844,4350.512695,4306.282227,4312.820313,4306.666504,4326.922852,4321.922852,4299.487305,4503.205078,4545.897461,4411.538574,4481.153809,5420.000000,2.000000,38.000000,,,,0.000000,4.000000,4.000000,4.000000,4.000000,4.000000,4.000000,4.000000,4.000000,4.000000,4.000000,4.000000,4.000000,4.000000,4.000000,100.000000,,,,,,,,,,,,,,,,,,,,,,,,,,,,,,,,,,,,,,,,,,,,,,,,,,,,,,,,,,,,,,,,,,,,,,,,,,,,,,,,,,,,,,,,,,,,,,,,,,,,,,,,,,,,,,,,,,,,,
1768295499.382922,1768295499.383582,14.000000,0.000000,4344.230957,4322.307617,4357.820313,4351.538574,4312.563965,4314.615234,4312.307617,4325.641113,4323.589844,4298.205078,4503.333496,4542.307617,4411.922852,4481.282227,3637.000000,2.000000,38.000000,,,,0.000000,4.000000,4.000000,4.000000,4.000000,4.000000,4.000000,4.000000,4.000000,4.000000,4.000000,4.000000,4.000000,4.000000,4.000000,100.000000,1.000000,75.000000,4.000000,4.000000,4.000000,4.000000,4.000000,4.000000,4.000000,4.000000,1.000000,4.000000,4.000000,4.000000,4.000000,4.000000,,,,,,,,,,,,,,,,,,,,,,,,,,,,,,,,0.462438,0.653057,0.611216,0.304379,0.197047,0.906500,0.401297,0.451998,0.274494,0.177521,1.065228,0.719702,0.593219,0.332427,0.135469,0.207961,0.374213,0.306208,0.178445,0.167418,0.422931,0.176701,0.105279,0.098173,0.087246,0.224943,0.186515,0.064915,0.059490,0.097843,0.331137,0.550891,0.285838,0.255826,0.246268,0.220712,0.966409,0.468861,0.244149,0.164445,0.135256,0.331916,0.183581,0.115783,0.060098,0.504944,0.319478,0.286727,0.284651,0.153286,0.154128,0.253383,0.217334,0.104653,0.060010,0.874699,0.923008,0.920539,0.347195,0.158706,0.391314,0.447327,0.421846,0.291197,0.121305,0.653274,0.677284,0.763024,0.387226,0.142384
1768295499.390731,1768295499.391391,15.000000,0.000000,4328.846191,4312.436035,4342.436035,4342.563965,4309.487305,4312.563965,4308.974121,4317.436035,4321.922852,4296.153809,4498.205078,4528.974121,4400.000000,4468.077148,4684.000000,2.000000,38.000000,,,,0.000000,4.000000,4.000000,4.000000,4.000000,4.000000,4.000000,4.000000,4.000000,4.000000,4.000000,4.000000,4.000000,4.000000,4.000000,100.000000,,,,,,,,,,,,,,,,,,,,,,,,,,,,,,,,,,,,,,,,,,,,,,,,,,,,,,,,,,,,,,,,,,,,,,,,,,,,,,,,,,,,,,,,,,,,,,,,,,,,,,,,,,,,,,,,,,,,,
1768295499.398539,1768295499.399399,16.000000,0.000000,4324.743652,4312.307617,4336.410156,4342.307617,4307.820313,4310.897461,4303.077148,4316.538574,4320.897461,4297.692383,4498.077148,4527.948730,4398.205078,4462.820313,0.000000,2.000000,38.000000,,,,0.000000,4.000000,4.000000,4.000000,4.000000,4.000000,4.000000,4.000000,4.000000,4.000000,4.000000,4.000000,4.000000,4.000000,4.000000,100.000000,,,,,,,,,,,,,,,,,,,,,,,,,,,,,,,,,,,,,,,,,,,,,,,,,,,,,,,,,,,,,,,,,,,,,,,,,,,,,,,,,,,,,,,,,,,,,,,,,,,,,,,,,,,,,,,,,,,,,
1768295499.406348,1768295499.407207,17.000000,0.000000,4340.256348,4323.846191,4349.102539,4350.256348,4311.922852,4311.538574,4308.333496,4322.307617,4324.102539,4301.538574,4504.743652,4539.230957,4408.846191,4473.974121,0.000000,2.000000,38.000000,,,,0.000000,4.000000,4.000000,4.000000,4.000000,4.000000,4.000000,4.000000,4.000000,4.000000,4.000000,4.000000,4.000000,4.000000,4.000000,100.000000,,,,,,,,,,,,,,,,,,,,,,,,,,,,,,,,,,,,,,,,,,,,,,,,,,,,,,,,,,,,,,,,,,,,,,,,,,,,,,,,,,,,,,,,,,,,,,,,,,,,,,,,,,,,,,,,,,,,,
1768295499.414156,1768295499.415116,18.000000,0.000000,4347.563965,4327.051270,4356.153809,4351.410156,4309.358887,4309.871582,4306.153809,4323.333496,4326.538574,4304.487305,4504.230957,4543.205078,4415.769043,4482.692383,0.000000,2.000000,38.000000,,,,0.000000,4.000000,4.000000,4.000000,4.000000,4.000000,4.000000,4.000000,4.000000,4.000000,4.000000,4.000000,4.000000,4.000000,4.000000,100.000000,,,,,,,,,,,,,,,,,,,,,,,,,,,,,,,,,,,,,,,,,,,,,,,,,,,,,,,,,,,,,,,,,,,,,,,,,,,,,,,,,,,,,,,,,,,,,,,,,,,,,,,,,,,,,,,,,,,,,
1768295499.421964,1768295499.422924,19.000000,0.000000,4337.307617,4317.436035,4348.461426,4347.436035,4305.512695,4307.307617,4299.358887,4317.948730,4325.128418,4303.077148,4498.333496,4540.641113,4411.538574,4478.077148,0.000000,2.000000,38.000000,,,,0.000000,4.000000,4.000000,4.000000,4.000000,4.000000,4.000000,4.000000,4.000000,4.000000,4.000000,4.000000,4.000000,4.000000,4.000000,100.000000,,,,,,,,,,,,,,,,,,,,,,,,,,,,,,,,,,,,,,,,,,,,,,,,,,,,,,,,,,,,,,,,,,,,,,,,,,,,,,,,,,,,,,,,,,,,,,,,,,,,,,,,,,,,,,,,,,,,,
1768295499.429773,1768295499.430932,20.000000,0.000000,4331.538574,4312.436035,4346.025879,4344.743652,4310.897461,4308.974121,4305.769043,4318.589844,4323.589844,4300.512695,4501.025879,4543.589844,4406.794922,4473.077148,0.000000,2.000000,38.000000,,,,0.000000,4.000000,4.000000,4.000000,4.000000,4.000000,4.000000,4.000000,4.000000,4.000000,4.000000,4.000000,4.000000,4.000000,4.000000,100.000000,,,,,,,,,,,,,,,,,,,,,,,,,,,,,,,,,,,,,,,,,,,,,,,,,,,,,,,,,,,,,,,,,,,,,,,,,,,,,,,,,,,,,,,,,,,,,,,,,,,,,,,,,,,,,,,,,,,,,
1768295499.437581,1768295499.438741,21.000000,0.000000,4332.436035,4314.615234,4350.256348,4343.205078,4311.025879,4311.153809,4308.846191,4324.615234,4324.230957,4303.333496,4503.589844,4547.692383,4410.641113,4475.128418,0.000000,2.000000,38.000000,,,,0.000000,4.000000,4.000000,4.000000,4.000000,4.000000,4.000000,4.000000,4.000000,4.000000,4.000000,4.000000,4.000000,4.000000,4.000000,100.000000,,,,,,,,,,,,,,,,,,,,,,,,,,,,,,,,,,,,,,,,,,,,,,,,,,,,,,,,,,,,,,,,,,,,,,,,,,,,,,,,,,,,,,,,,,,,,,,,,,,,,,,,,,,,,,,,,,,,,
1768295499.445390,1768295499.446449,22.000000,0.000000,4332.051270,4313.461426,4348.461426,4341.922852,4303.846191,4309.615234,4305.897461,4328.205078,4327.307617,4305.384766,4502.307617,4545.384766,4417.820313,4480.384766,0.000000,2.000000,38.000000,,,,0.000000,4.000000,4.000000,4.000000,4.000000,4.000000,4.000000,4.000000,4.000000,4.000000,4.000000,4.000000,4.000000,4.000000,4.000000,100.000000,,,,,,,,,,,,,,,,,,,,,,,,,,,,,,,,,,,,,,,,,,,,,,,,,,,,,,,,,,,,,,,,,,,,,,,,,,,,,,,,,,,,,,,,,,,,,,,,,,,,,,,,,,,,,,,,,,,,,
1768295499.453198,1768295499.454258,23.000000,0.000000,4334.102539,4308.846191,4345.256348,4341.153809,4306.025879,4309.615234,4311.922852,4324.358887,4328.333496,4302.948730,4502.948730,4542.692383,4416.794922,4483.461426,0.000000,2.000000,38.000000,,,,0.000000,4.000000,4.000000,4.000000,4.000000,4.000000,4.000000,4.000000,4.000000,4.000000,4.000000,4.000000,4.000000,4.000000,4.000000,100.000000,,,,,,,,,,,,,,,,,,,,,,,,,,,,,,,,,,,,,,,,,,,,,,,,,,,,,,,,,,,,,,,,,,,,,,,,,,,,,,,,,,,,,,,,,,,,,,,,,,,,,,,,,,,,,,,,,,,,,
1768295499.461007,1768295499.461966,24.000000,0.000000,4335.384766,4309.615234,4348.589844,4341.153809,4308.461426,4310.128418,4312.436035,4324.743652,4328.205078,4301.922852,4504.102539,4545.641113,4409.743652,4478.077148,0.000000,2.000000,38.000000,,,,0.000000,4.000000,4.000000,4.000000,4.000000,4.000000,4.000000,4.000000,4.000000,4.000000,4.000000,4.000000,4.000000,4.000000,4.000000,100.000000,,,,,,,,,,,,,,,,,,,,,,,,,,,,,,,,,,,,,,,,,,,,,,,,,,,,,,,,,,,,,,,,,,,,,,,,,,,,,,,,,,,,,,,,,,,,,,,,,,,,,,,,,,,,,,,,,,,,,
1768295499.468815,1768295499.469775,25.000000,0.000000,4335.897461,4311.538574,4350.512695,4342.820313,4302.563965,4308.717773,4307.179688,4331.025879,4330.641113,4302.051270,4502.563965,4546.794922,4406.922852,4471.538574,0.000000,2.000000,38.000000,,,,0.000000,4.000000,4.000000,4.000000,4.000000,4.000000,4.000000,4.000000,4.000000,4.000000,4.000000,4.000000,4.000000,4.000000,4.000000,100.000000,,,,,,,,,,,,,,,,,,,,,,,,,,,,,,,,,,,,,,,,,,,,,,,,,,,,,,,,,,,,,,,,,,,,,,,,,,,,,,,,,,,,,,,,,,,,,,,,,,,,,,,,,,,,,,,,,,,,,
1768295499.476623,1768295499.477483,26.000000,0.000000,4336.153809,4309.487305,4344.743652,4341.538574,4302.692383,4308.077148,4309.358887,4325.384766,4326.922852,4296.922852,4497.051270,4537.692383,4406.025879,4470.384766,0.000000,2.000000,38.000000,,,,0.000000,4.000000,4.000000,4.000000,4.000000,4.000000,4.000000,4.000000,4.000000,4.000000,4.000000,4.000000,4.000000,4.000000,4.000000,100.000000,,,,,,,,,,,,,,,,,,,,,,,,,,,,,,,,,,,,,,,,,,,,,,,,,,,,,,,,,,,,,,,,,,,,,,,,,,,,,,,,,,,,,,,,,,,,,,,,,,,,,,,,,,,,,,,,,,,,,
1768295499.484432,1768295499.485292,27.000000,0.000000,4332.948730,4308.461426,4340.769043,4335.897461,4305.000000,4307.051270,4306.538574,4314.358887,4317.051270,4292.051270,4493.461426,4528.974121,4403.461426,4471.538574,0.000000,2.000000,38.000000,,,,0.000000,4.000000,4.000000,4.000000,4.000000,4.000000,4.000000,4.000000,4.000000,4.000000,4.000000,4.000000,4.000000,4.000000,4.000000,100.000000,,,,,,,,,,,,,,,,,,,,,,,,,,,,,,,,,,,,,,,,,,,,,,,,,,,,,,,,,,,,,,,,,,,,,,,,,,,,,,,,,,,,,,,,,,,,,,,,,,,,,,,,,,,,,,,,,,,,,
1768295499.492240,1768295499.492900,28.000000,0.000000,4328.461426,4306.538574,4341.025879,4335.000000,4299.615234,4307.820313,4302.692383,4317.820313,4317.948730,4293.205078,4496.922852,4529.102539,4399.230957,4468.717773,0.000000,2.000000,38.000000,,,,0.000000,4.000000,4.000000,4.000000,4.000000,4.000000,4.000000,4.000000,4.000000,4.000000,4.000000,4.000000,4.000000,4.000000,4.000000,100.000000,,,,,,,,,,,,,,,,,,,,,,,,,,,,,,,,,,,,,,,,,,,,,,,,,,,,,,,,,,,,,,,,,,,,,,,,,,,,,,,,,,,,,,,,,,,,,,,,,,,,,,,,,,,,,,,,,,,,,
1768295499.500049,1768295499.500709,29.000000,0.000000,4329.615234,4302.948730,4341.153809,4336.666504,4299.871582,4310.512695,4305.000000,4325.512695,4324.358887,4293.205078,4500.256348,4530.000000,4397.692383,4465.256348,0.000000,2.000000,38.000000,,,,0.000000,4.000000,4.000000,4.000000,4.000000,4.000000,4.000000,4.000000,4.000000,4.000000,4.000000,4.000000,4.000000,4.000000,4.000000,100.000000,,,,,,,,,,,,,,,,,,,,,,,,,,,,,,,,,,,,,,,,,,,,,,,,,,,,,,,,,,,,,,,,,,,,,,,,,,,,,,,,,,,,,,,,,,,,,,,,,,,,,,,,,,,,,,,,,,,,,
1768295499.507857,1768295499.508417,30.000000,0.000000,4340.512695,4306.922852,4347.948730,4341.153809,4309.487305,4310.897461,4305.641113,4327.179688,4326.153809,4295.641113,4502.051270,4537.820313,4409.358887,4475.641113,0.000000,2.000000,38.000000,,,,0.000000,4.000000,4.000000,4.000000,4.000000,4.000000,4.000000,4.000000,4.000000,4.000000,4.000000,4.000000,4.000000,4.000000,4.000000,100.000000,,,,,,,,,,,,,,,,,,,,,,,,,,,,,,,,,,,,,,,,,,,,,,,,0.401994,0.590676,0.598323,0.328486,0.206608,0.887059,0.460150,0.534831,0.287138,0.183890,0.943565,0.646617,0.573230,0.344514,0.133780,0.218892,0.316533,0.321717,0.196558,0.166583,0.389014,0.148576,0.127333,0.100249,0.076146,0.218103,0.181868,0.055675,0.061901,0.088365,0.305786,0.536586,0.267403,0.262491,0.233419,0.259403,0.860854,0.494450,0.255904,0.151393,0.100403,0.302993,0.195427,0.127987,0.054165,0.411157,0.295725,0.354483,0.296218,0.155857,0.127158,0.186207,0.219986,0.117550,0.059676,0.951948,0.808815,0.873948,0.380341,0.140347,0.349936,0.389365,0.381758,0.323270,0.110392,0.633088,0.538372,0.730915,0.401185,0.124990
1768295499.515665,1768295499.516226,31.000000,0.000000,4352.820313,4321.538574,4360.384766,4352.307617,4315.512695,4309.871582,4309.487305,4329.230957,4329.871582,4309.871582,4508.461426,4555.512695,4425.384766,4493.717773,0.000000,2.000000,38.000000,,,,0.000000,4.000000,4.000000,4.000000,4.000000,4.000000,4.000000,4.000000,4.000000,4.000000,4.000000,4.000000,4.000000,4.000000,4.000000,100.000000,,,,,,,,,,,,,,,,,,,,,,,,,,,,,,,,,,,,,,,,,,,,,,,,,,,,,,,,,,,,,,,,,,,,,,,,,,,,,,,,,,,,,,,,,,,,,,,,,,,,,,,,,,,,,,,,,,,,,
1768295499.523474,1768295499.524234,32.000000,0.000000,4353.461426,4324.487305,4357.820313,4354.230957,4316.410156,4312.436035,4312.563965,4327.051270,4331.025879,4317.307617,4510.256348,4558.461426,4424.102539,4494.230957,0.000000,2.000000,38.000000,,,,0.000000,4.000000,4.000000,4.000000,4.000000,4.000000,4.000000,4.000000,4.000000,4.000000,4.000000,4.000000,4.000000,4.000000,4.000000,100.000000,,,,,,,,,,,,,,,,,,,,,,,,,,,,,,,,,,,,,,,,,,,,,,,,,,,,,,,,,,,,,,,,,,,,,,,,,,,,,,,,,,,,,,,,,,,,,,,,,,,,,,,,,,,,,,,,,,,,,
1768295499.531282,1768295499.532043,33.000000,0.000000,4342.692383,4311.282227,4346.025879,4348.077148,4314.615234,4314.102539,4306.410156,4317.820313,4323.974121,4304.230957,4502.820313,4541.538574,4412.179688,4480.512695,0.000000,2.000000,38.000000,,,,0.000000,4.000000,4.000000,4.000000,4.000000,4.000000,4.000000,4.000000,4.000000,4.000000,4.000000,4.000000,4.000000,4.000000,4.000000,100.000000,,,,,,,,,,,,,,,,,,,,,,,,,,,,,,,,,,,,,,,,,,,,,,,,,,,,,,,,,,,,,,,,,,,,,,,,,,,,,,,,,,,,,,,,,,,,,,,,,,,,,,,,,,,,,,,,,,,,,
1768295499.539091,1768295499.539751,34.000000,0.000000,4338.461426,4308.589844,4347.948730,4350.256348,4314.230957,4311.025879,4302.436035,4313.589844,4319.358887,4293.589844,4499.743652,4534.358887,4410.256348,4477.563965,0.000000,2.000000,38.000000,,,,0.000000,4.000000,4.000000,4.000000,4.000000,4.000000,4.000000,4.000000,4.000000,4.000000,4.000000,4.000000,4.000000,4.000000,4.000000,100.000000,,,,,,,,,,,,,,,,,,,,,,,,,,,,,,,,,,,,,,,,,,,,,,,,,,,,,,,,,,,,,,,,,,,,,,,,,,,,,,,,,,,,,,,,,,,,,,,,,,,,,,,,,,,,,,,,,,,,,
1768295499.546899,1768295499.547560,35.000000,0.000000,4339.615234,4314.871582,4352.179688,4352.563965,4316.153809,4311.025879,4306.282227,4319.230957,4323.077148,4297.563965,4503.461426,4539.871582,4411.666504,4478.846191,0.000000,2.000000,38.000000,,,,0.000000,4.000000,4.000000,4.000000,4.000000,4.000000,4.000000,4.000000,4.000000,4.000000,4.000000,4.000000,4.000000,4.000000,4.000000,100.000000,,,,,,,,,,,,,,,,,,,,,,,,,,,,,,,,,,,,,,,,,,,,,,,,,,,,,,,,,,,,,,,,,,,,,,,,,,,,,,,,,,,,,,,,,,,,,,,,,,,,,,,,,,,,,,,,,,,,,
1768295499.554708,1768295499.555168,36.000000,0.000000,4341.538574,4315.256348,4349.487305,4350.000000,4316.025879,4316.282227,4317.307617,4322.436035,4325.256348,4303.333496,4505.769043,4540.641113,4411.025879,4475.641113,0.000000,2.000000,38.000000,,,,0.000000,4.000000,4.000000,4.000000,4.000000,4.000000,4.000000,4.000000,4.000000,4.000000,4.000000,4.000000,4.000000,4.000000,4.000000,100.000000,,,,,,,,,,,,,,,,,,,,,,,,,,,,,,,,,,,,,,,,,,,,,,,,,,,,,,,,,,,,,,,,,,,,,,,,,,,,,,,,,,,,,,,,,,,,,,,,,,,,,,,,,,,,,,,,,,,,,
1768295499.562516,1768295499.562977,37.000000,0.000000,4339.487305,4312.563965,4349.615234,4348.717773,4313.077148,4314.615234,4316.922852,4319.358887,4322.179688,4302.820313,4503.333496,4535.000000,4411.538574,4473.333496,0.000000,2.000000,38.000000,,,,0.000000,4.000000,4.000000,4.000000,4.000000,4.000000,4.000000,4.000000,4.000000,4.000000,4.000000,4.000000,4.000000,4.000000,4.000000,100.000000,,,,,,,,,,,,,,,,,,,,,,,,,,,,,,,,,,,,,,,,,,,,,,,,,,,,,,,,,,,,,,,,,,,,,,,,,,,,,,,,,,,,,,,,,,,,,,,,,,,,,,,,,,,,,,,,,,,,,
1768295499.570324,1768295499.570885,38.000000,0.000000,4329.743652,4310.000000,4344.871582,4344.230957,4309.743652,4307.692383,4300.000000,4319.615234,4322.948730,4298.333496,4499.615234,4528.333496,4406.025879,4465.384766,0.000000,2.000000,38.000000,,,,0.000000,4.000000,4.000000,4.000000,4.000000,4.000000,4.000000,4.000000,4.000000,4.000000,4.000000,4.000000,4.000000,4.000000,4.000000,100.000000,,,,,,,,,,,,,,,,,,,,,,,,,,,,,,,,,,,,,,,,,,,,,,,,,,,,,,,,,,,,,,,,,,,,,,,,,,,,,,,,,,,,,,,,,,,,,,,,,,,,,,,,,,,,,,,,,,,,,
1768295499.578133,1768295499.578693,39.000000,0.000000,4328.077148,4308.205078,4340.128418,4341.794922,4312.179688,4309.743652,4302.948730,4321.282227,4325.000000,4296.922852,4499.358887,4532.051270,4401.410156,4463.974121,0.000000,2.000000,38.000000,,,,0.000000,4.000000,4.000000,4.000000,4.000000,4.000000,4.000000,4.000000,4.000000,4.000000,4.000000,4.000000,4.000000,4.000000,4.000000,100.000000,,,,,,,,,,,,,,,,,,,,,,,,,,,,,,,,,,,,,,,,,,,,,,,,,,,,,,,,,,,,,,,,,,,,,,,,,,,,,,,,,,,,,,,,,,,,,,,,,,,,,,,,,,,,,,,,,,,,,
1768295499.585941,1768295499.586702,40.000000,0.000000,4334.230957,4308.461426,4345.897461,4345.769043,4313.846191,4314.102539,4315.000000,4322.436035,4323.205078,4298.717773,4503.846191,4543.205078,4408.333496,4476.538574,0.000000,2.000000,38.000000,,,,0.000000,4.000000,4.000000,4.000000,4.000000,4.000000,4.000000,4.000000,4.000000,4.000000,4.000000,4.000000,4.000000,4.000000,4.000000,100.000000,,,,,,,,,,,,,,,,,,,,,,,,,,,,,,,,,,,,,,,,,,,,,,,,,,,,,,,,,,,,,,,,,,,,,,,,,,,,,,,,,,,,,,,,,,,,,,,,,,,,,,,,,,,,,,,,,,,,,
1768295499.593750,1768295499.594510,41.000000,0.000000,4334.230957,4308.333496,4345.641113,4342.948730,4308.461426,4310.897461,4303.461426,4319.230957,4319.615234,4294.615234,4504.358887,4540.384766,4413.461426,4480.128418,0.000000,2.000000,38.000000,,,,0.000000,4.000000,4.000000,4.000000,4.000000,4.000000,4.000000,4.000000,4.000000,4.000000,4.000000,4.000000,4.000000,4.000000,4.000000,100.000000,,,,,,,,,,,,,,,,,,,,,,,,,,,,,,,,,,,,,,,,,,,,,,,,,,,,,,,,,,,,,,,,,,,,,,,,,,,,,,,,,,,,,,,,,,,,,,,,,,,,,,,,,,,,,,,,,,,,,
1768295499.601558,1768295499.602418,42.000000,0.000000,4332.179688,4307.307617,4338.205078,4338.974121,4306.538574,4308.461426,4295.000000,4310.256348,4318.717773,4291.282227,4499.871582,4527.179688,4408.974121,4470.128418,0.000000,2.000000,38.000000,,,,0.000000,4.000000,4.000000,4.000000,4.000000,4.000000,4.000000,4.000000,4.000000,4.000000,4.000000,4.000000,4.000000,4.000000,4.000000,100.000000,,,,,,,,,,,,,,,,,,,,,,,,,,,,,,,,,,,,,,,,,,,,,,,,,,,,,,,,,,,,,,,,,,,,,,,,,,,,,,,,,,,,,,,,,,,,,,,,,,,,,,,,,,,,,,,,,,,,,
1768295499.609367,1768295499.610227,43.000000,0.000000,4332.051270,4305.641113,4338.846191,4341.410156,4308.846191,4310.128418,4305.000000,4309.743652,4321.282227,4296.282227,4502.692383,4530.128418,4407.948730,4470.769043,0.000000,2.000000,38.000000,,,,0.000000,4.000000,4.000000,4.000000,4.000000,4.000000,4.000000,4.000000,4.000000,4.000000,4.000000,4.000000,4.000000,4.000000,4.000000,100.000000,,,,,,,,,,,,,,,,,,,,,,,,,,,,,,,,,,,,,,,,,,,,,,,,,,,,,,,,,,,,,,,,,,,,,,,,,,,,,,,,,,,,,,,,,,,,,,,,,,,,,,,,,,,,,,,,,,,,,
1768295499.617175,1768295499.618235,44.000000,0.000000,4326.410156,4304.358887,4338.717773,4340.128418,4308.461426,4310.256348,4304.102539,4315.897461,4322.948730,4297.948730,4505.256348,4537.948730,4410.769043,4473.846191,0.000000,2.000000,38.000000,,,,0.000000,4.000000,4.000000,4.000000,4.000000,4.000000,4.000000,4.000000,4.000000,4.000000,4.000000,4.000000,4.000000,4.000000,4.000000,100.000000,,,,,,,,,,,,,,,,,,,,,,,,,,,,,,,,,,,,,,,,,,,,,,,,,,,,,,,,,,,,,,,,,,,,,,,,,,,,,,,,,,,,,,,,,,,,,,,,,,,,,,,,,,,,,,,,,,,,,
1768295499.624983,1768295499.626044,45.000000,0.000000,4323.589844,4307.436035,4334.487305,4338.333496,4308.461426,4308.589844,4297.692383,4316.538574,4322.948730,4294.615234,4500.897461,4531.666504,4410.000000,4469.487305,0.000000,2.000000,38.000000,,,,0.000000,4.000000,4.000000,4.000000,4.000000,4.000000,4.000000,4.000000,4.000000,4.000000,4.000000,4.000000,4.000000,4.000000,4.000000,100.000000,,,,,,,,,,,,,,,,,,,,,,,,,,,,,,,,,,,,,,,,,,,,,,,,,,,,,,,,,,,,,,,,,,,,,,,,,,,,,,,,,,,,,,,,,,,,,,,,,,,,,,,,,,,,,,,,,,,,,
1768295499.632792,1768295499.633752,46.000000,0.000000,4331.666504,4311.025879,4337.179688,4344.358887,4310.769043,4310.256348,4302.948730,4317.436035,4321.666504,4293.461426,4498.333496,4526.153809,4408.589844,4467.948730,0.000000,2.000000,38.000000,,,,0.000000,4.000000,4.000000,4.000000,4.000000,4.000000,4.000000,4.000000,4.000000,4.000000,4.000000,4.000000,4.000000,4.000000,4.000000,100.000000,,,,,,,,,,,,,,,,,,,,,,,,,,,,,,,,,,,,,,,,,,,,,,,,0.433400,0.555982,0.589467,0.342769,0.209523,0.912135,0.534970,0.617674,0.289968,0.189920,0.901825,0.577692,0.542821,0.349373,0.132157,0.297203,0.270454,0.323609,0.213686,0.157305,0.378669,0.131763,0.142726,0.102491,0.066381,0.221637,0.178051,0.053982,0.065723,0.083660,0.307352,0.534111,0.241636,0.272689,0.232368,0.316778,0.757050,0.478697,0.264183,0.145993,0.086154,0.255961,0.194632,0.140502,0.049537,0.335812,0.284781,0.427816,0.307929,0.161952,0.126864,0.144739,0.217332,0.131373,0.061218,1.111958,0.688940,0.825476,0.424512,0.134611,0.378745,0.348387,0.364330,0.355890,0.107760,0.721693,0.445987,0.707588,0.411198,0.123386
1768295499.640600,1768295499.641561,47.000000,0.000000,4337.307617,4311.025879,4340.641113,4348.461426,4310.256348,4311.666504,4302.051270,4316.282227,4319.487305,4293.077148,4497.179688,4530.769043,4409.487305,4470.000000,0.000000,2.000000,38.000000,,,,0.000000,4.000000,4.000000,4.000000,4.000000,4.000000,4.000000,4.000000,4.000000,4.000000,4.000000,4.000000,4.000000,4.000000,4.000000,100.000000,,,,,,,,,,,,,,,,,,,,,,,,,,,,,,,,,,,,,,,,,,,,,,,,,,,,,,,,,,,,,,,,,,,,,,,,,,,,,,,,,,,,,,,,,,,,,,,,,,,,,,,,,,,,,,,,,,,,,
1768295499.648409,1768295499.649169,48.000000,0.000000,4335.128418,4313.974121,4336.025879,4343.846191,4304.743652,4309.487305,4298.846191,4311.794922,4320.384766,4296.282227,4499.102539,4538.461426,4412.948730,4474.871582,0.000000,2.000000,38.000000,,,,0.000000,4.000000,4.000000,4.000000,4.000000,4.000000,4.000000,4.000000,4.000000,4.000000,4.000000,4.000000,4.000000,4.000000,4.000000,100.000000,,,,,,,,,,,,,,,,,,,,,,,,,,,,,,,,,,,,,,,,,,,,,,,,,,,,,,,,,,,,,,,,,,,,,,,,,,,,,,,,,,,,,,,,,,,,,,,,,,,,,,,,,,,,,,,,,,,,,
1768295499.656217,1768295499.656978,49.000000,0.000000,4336.922852,4320.769043,4337.436035,4341.410156,4305.512695,4309.358887,4309.358887,4315.897461,4323.461426,4307.820313,4504.871582,4544.230957,4416.922852,4482.820313,0.000000,2.000000,38.000000,,,,0.000000,4.000000,4.000000,4.000000,4.000000,4.000000,4.000000,4.000000,4.000000,4.000000,4.000000,4.000000,4.000000,4.000000,4.000000,100.000000,,,,,,,,,,,,,,,,,,,,,,,,,,,,,,,,,,,,,,,,,,,,,,,,,,,,,,,,,,,,,,,,,,,,,,,,,,,,,,,,,,,,,,,,,,,,,,,,,,,,,,,,,,,,,,,,,,,,,
1768295499.664025,1768295499.664686,50.000000,0.000000,4339.358887,4325.128418,4341.666504,4345.000000,4308.205078,4313.589844,4317.436035,4324.743652,4322.948730,4304.487305,4504.615234,4541.153809,4411.794922,4482.179688,0.000000,2.000000,38.000000,,,,0.000000,4.000000,4.000000,4.000000,4.000000,4.000000,4.000000,4.000000,4.000000,4.000000,4.000000,4.000000,4.000000,4.000000,4.000000,100.000000,,,,,,,,,,,,,,,,,,,,,,,,,,,,,,,,,,,,,,,,,,,,,,,,,,,,,,,,,,,,,,,,,,,,,,,,,,,,,,,,,,,,,,,,,,,,,,,,,,,,,,,,,,,,,,,,,,,,,
1768295499.671834,1768295499.672495,51.000000,0.000000,4332.948730,4326.666504,4335.897461,4344.743652,4304.230957,4312.051270,4304.871582,4316.922852,4321.025879,4292.948730,4497.820313,4528.461426,4402.436035,4471.538574,0.000000,2.000000,38.000000,,,,0.000000,4.000000,4.000000,4.000000,4.000000,4.000000,4.000000,4.000000,4.000000,4.000000,4.000000,4.000000,4.000000,4.000000,4.000000,100.000000,,,,,,,,,,,,,,,,,,,,,,,,,,,,,,,,,,,,,,,,,,,,,,,,,,,,,,,,,,,,,,,,,,,,,,,,,,,,,,,,,,,,,,,,,,,,,,,,,,,,,,,,,,,,,,,,,,,,,
1768295499.679642,1768295499.680103,52.000000,0.000000,4330.000000,4328.846191,4329.358887,4340.256348,4298.717773,4303.077148,4288.461426,4293.205078,4320.256348,4319.358887,4496.666504,4522.820313,4406.282227,4466.538574,0.000000,2.000000,38.000000,,,,0.000000,4.000000,4.000000,4.000000,4.000000,4.000000,4.000000,4.000000,4.000000,4.000000,4.000000,4.000000,4.000000,4.000000,4.000000,100.000000,,,,,,,,,,,,,,,,,,,,,,,,,,,,,,,,,,,,,,,,,,,,,,,,,,,,,,,,,,,,,,,,,,,,,,,,,,,,,,,,,,,,,,,,,,,,,,,,,,,,,,,,,,,,,,,,,,,,,
1768295499.687451,1768295499.687912,53.000000,0.000000,4333.205078,4328.717773,4330.769043,4339.615234,4295.128418,4297.563965,4283.461426,4286.282227,4317.820313,4339.487305,4500.769043,4526.282227,4408.461426,4468.461426,0.000000,2.000000,38.000000,,,,0.000000,4.000000,4.000000,4.000000,4.000000,4.000000,4.000000,4.000000,4.000000,4.000000,4.000000,4.000000,4.000000,4.000000,4.000000,100.000000,,,,,,,,,,,,,,,,,,,,,,,,,,,,,,,,,,,,,,,,,,,,,,,,,,,,,,,,,,,,,,,,,,,,,,,,,,,,,,,,,,,,,,,,,,,,,,,,,,,,,,,,,,,,,,,,,,,,,
1768295499.695259,1768295499.695620,54.000000,0.000000,4327.948730,4325.128418,4332.179688,4341.153809,4298.717773,4298.589844,4282.692383,4298.974121,4313.974121,4299.743652,4495.897461,4521.025879,4394.487305,4461.666504,0.000000,2.000000,38.000000,,,,0.000000,4.000000,4.000000,4.000000,4.000000,4.000000,4.000000,4.000000,4.000000,4.000000,4.000000,4.000000,4.000000,4.000000,4.000000,100.000000,,,,,,,,,,,,,,,,,,,,,,,,,,,,,,,,,,,,,,,,,,,,,,,,,,,,,,,,,,,,,,,,,,,,,,,,,,,,,,,,,,,,,,,,,,,,,,,,,,,,,,,,,,,,,,,,,,,,,
1768295499.703068,1768295499.703429,55.000000,0.000000,4321.282227,4324.871582,4331.794922,4340.384766,4303.974121,4303.461426,4286.538574,4308.205078,4310.641113,4264.743652,4488.974121,4515.641113,4388.077148,4453.589844,0.000000,2.000000,38.000000,,,,0.000000,4.000000,4.000000,4.000000,4.000000,4.000000,4.000000,4.000000,4.000000,4.000000,4.000000,4.000000,4.000000,4.000000,4.000000,100.000000,,,,,,,,,,,,,,,,,,,,,,,,,,,,,,,,,,,,,,,,,,,,,,,,,,,,,,,,,,,,,,,,,,,,,,,,,,,,,,,,,,,,,,,,,,,,,,,,,,,,,,,,,,,,,,,,,,,,,
1768295499.710876,1768295499.711437,56.000000,0.000000,4327.948730,4329.615234,4335.769043,4341.538574,4303.846191,4307.948730,4295.769043,4311.538574,4311.538574,4282.307617,4494.358887,4524.102539,4396.282227,4459.358887,0.000000,2.000000,38.000000,,,,0.000000,4.000000,4.000000,4.000000,4.000000,4.000000,4.000000,4.000000,4.000000,4.000000,4.000000,4.000000,4.000000,4.000000,4.000000,100.000000,,,,,,,,,,,,,,,,,,,,,,,,,,,,,,,,,,,,,,,,,,,,,,,,,,,,,,,,,,,,,,,,,,,,,,,,,,,,,,,,,,,,,,,,,,,,,,,,,,,,,,,,,,,,,,,,,,,,,
1768295499.718684,1768295499.719245,57.000000,0.000000,4336.794922,4331.282227,4341.922852,4346.025879,4305.384766,4309.487305,4300.769043,4311.153809,4316.153809,4302.692383,4499.871582,4533.077148,4400.769043,4468.461426,0.000000,2.000000,38.000000,,,,0.000000,4.000000,4.000000,4.000000,4.000000,4.000000,4.000000,4.000000,4.000000,4.000000,4.000000,4.000000,4.000000,4.000000,4.000000,100.000000,,,,,,,,,,,,,,,,,,,,,,,,,,,,,,,,,,,,,,,,,,,,,,,,,,,,,,,,,,,,,,,,,,,,,,,,,,,,,,,,,,,,,,,,,,,,,,,,,,,,,,,,,,,,,,,,,,,,,
1768295499.726493,1768295499.727154,58.000000,0.000000,4336.282227,4330.256348,4344.358887,4350.384766,4312.563965,4312.692383,4304.102539,4312.820313,4320.641113,4304.230957,4499.615234,4535.641113,4405.256348,4468.589844,0.000000,2.000000,38.000000,,,,0.000000,4.000000,4.000000,4.000000,4.000000,4.000000,4.000000,4.000000,4.000000,4.000000,4.000000,4.000000,4.000000,4.000000,4.000000,100.000000,,,,,,,,,,,,,,,,,,,,,,,,,,,,,,,,,,,,,,,,,,,,,,,,,,,,,,,,,,,,,,,,,,,,,,,,,,,,,,,,,,,,,,,,,,,,,,,,,,,,,,,,,,,,,,,,,,,,,
1768295499.734301,1768295499.734962,59.000000,0.000000,4337.179688,4333.846191,4343.589844,4352.820313,4312.692383,4312.307617,4306.538574,4317.179688,4321.282227,4307.563965,4501.538574,4540.128418,4411.794922,4471.538574,0.000000,2.000000,38.000000,,,,0.000000,4.000000,4.000000,4.000000,4.000000,4.000000,4.000000,4.000000,4.000000,4.000000,4.000000,4.000000,4.000000,4.000000,4.000000,100.000000,,,,,,,,,,,,,,,,,,,,,,,,,,,,,,,,,,,,,,,,,,,,,,,,,,,,,,,,,,,,,,,,,,,,,,,,,,,,,,,,,,,,,,,,,,,,,,,,,,,,,,,,,,,,,,,,,,,,,
1768295499.742110,1768295499.742571,60.000000,0.000000,4347.820313,4341.025879,4349.358887,4356.666504,4310.641113,4315.000000,4316.538574,4321.025879,4320.000000,4313.461426,4503.589844,4547.948730,4415.128418,4483.461426,0.000000,2.000000,38.000000,,,,0.000000,4.000000,4.000000,4.000000,4.000000,4.000000,4.000000,4.000000,4.000000,4.000000,4.000000,4.000000,4.000000,4.000000,4.000000,100.000000,,,,,,,,,,,,,,,,,,,,,,,,,,,,,,,,,,,,,,,,,,,,,,,,,,,,,,,,,,,,,,,,,,,,,,,,,,,,,,,,,,,,,,,,,,,,,,,,,,,,,,,,,,,,,,,,,,,,,
1768295499.749918,1768295499.750379,61.000000,0.000000,4354.487305,4343.077148,4358.205078,4361.666504,4316.410156,4320.641113,4326.794922,4323.589844,4321.794922,4315.897461,4508.589844,4553.846191,4421.666504,4492.692383,0.000000,2.000000,38.000000,,,,0.000000,4.000000,4.000000,4.000000,4.000000,4.000000,4.000000,4.000000,4.000000,4.000000,4.000000,4.000000,4.000000,4.000000,4.000000,100.000000,,,,,,,,,,,,,,,,,,,,,,,,,,,,,,,,,,,,,,,,,,,,,,,,,,,,,,,,,,,,,,,,,,,,,,,,,,,,,,,,,,,,,,,,,,,,,,,,,,,,,,,,,,,,,,,,,,,,,
1768295499.757727,1768295499.758088,62.000000,0.000000,4344.743652,4336.153809,4354.487305,4358.333496,4310.000000,4312.307617,4306.538574,4316.410156,4321.410156,4312.563965,4506.410156,4548.589844,4419.615234,4488.077148,0.000000,2.000000,38.000000,,,,0.000000,4.000000,4.000000,4.000000,4.000000,4.000000,4.000000,4.000000,4.000000,4.000000,4.000000,4.000000,4.000000,4.000000,4.000000,100.000000,,,,,,,,,,,,,,,,,,,,,,,,,,,,,,,,,,,,,,,,,,,,,,,,0.539596,0.537820,0.573617,0.350593,0.207661,0.991053,0.588738,0.672511,0.283172,0.193223,0.935606,0.512045,0.514514,0.349755,0.130440,0.427437,0.241028,0.317020,0.226061,0.141630,0.387630,0.135500,0.147867,0.102895,0.059821,0.234864,0.179613,0.060182,0.070005,0.081507,0.326586,0.543773,0.224119,0.289108,0.234486,0.371744,0.665426,0.437109,0.267553,0.148568,0.087126,0.200666,0.183993,0.150978,0.046545,0.288512,0.283177,0.483079,0.316457,0.166249,0.150224,0.120844,0.208018,0.143121,0.063241,1.328604,0.568754,0.789266,0.472279,0.136936,0.506686,0.322066,0.359031,0.384125,0.113372,0.928143,0.387369,0.698877,0.417515,0.138828
1768295499.765535,1768295499.765896,63.000000,0.000000,4336.666504,4327.179688,4347.436035,4350.769043,4296.538574,4300.384766,4281.794922,4311.025879,4317.692383,4306.794922,4497.307617,4539.871582,4410.769043,4482.051270,0.000000,2.000000,38.000000,,,,0.000000,4.000000,4.000000,4.000000,4.000000,4.000000,4.000000,4.000000,4.000000,4.000000,4.000000,4.000000,4.000000,4.000000,4.000000,100.000000,,,,,,,,,,,,,,,,,,,,,,,,,,,,,,,,,,,,,,,,,,,,,,,,,,,,,,,,,,,,,,,,,,,,,,,,,,,,,,,,,,,,,,,,,,,,,,,,,,,,,,,,,,,,,,,,,,,,,
1768295499.773343,1768295499.773905,64.000000,0.000000,4341.410156,4326.538574,4348.589844,4352.820313,4300.641113,4306.153809,4297.179688,4321.794922,4320.000000,4311.153809,4502.179688,4545.000000,4415.000000,4486.282227,4253.000000,2.000000,38.000000,,,,0.000000,4.000000,4.000000,4.000000,4.000000,4.000000,4.000000,4.000000,4.000000,4.000000,4.000000,4.000000,4.000000,4.000000,4.000000,100.000000,,,,,,,,,,,,,,,,,,,,,,,,,,,,,,,,,,,,,,,,,,,,,,,,,,,,,,,,,,,,,,,,,,,,,,,,,,,,,,,,,,,,,,,,,,,,,,,,,,,,,,,,,,,,,,,,,,,,,
1768295499.781152,1768295499.781713,65.000000,0.000000,4345.384766,4331.153809,4353.461426,4358.717773,4307.820313,4317.436035,4320.128418,4326.153809,4325.769043,4319.487305,4509.358887,4553.589844,4423.974121,4490.384766,3815.000000,2.000000,38.000000,,,,0.000000,4.000000,4.000000,4.000000,4.000000,4.000000,4.000000,4.000000,4.000000,4.000000,4.000000,4.000000,4.000000,4.000000,4.000000,100.000000,,,,,,,,,,,,,,,,,,,,,,,,,,,,,,,,,,,,,,,,,,,,,,,,,,,,,,,,,,,,,,,,,,,,,,,,,,,,,,,,,,,,,,,,,,,,,,,,,,,,,,,,,,,,,,,,,,,,,
1768295499.788960,1768295499.789621,66.000000,0.000000,4343.205078,4332.179688,4359.230957,4359.743652,4303.974121,4317.436035,4312.692383,4316.666504,4325.000000,4320.000000,4506.666504,4555.384766,4425.128418,4491.410156,4041.000000,2.000000,38.000000,,,,0.000000,4.000000,4.000000,4.000000,4.000000,4.000000,4.000000,4.000000,4.000000,4.000000,4.000000,4.000000,4.000000,4.000000,4.000000,100.000000,,,,,,,,,,,,,,,,,,,,,,,,,,,,,,,,,,,,,,,,,,,,,,,,,,,,,,,,,,,,,,,,,,,,,,,,,,,,,,,,,,,,,,,,,,,,,,,,,,,,,,,,,,,,,,,,,,,,,
1768295499.796769,1768295499.797430,67.000000,0.000000,4344.358887,4327.692383,4361.025879,4358.589844,4302.436035,4313.333496,4300.769043,4315.000000,4321.025879,4316.282227,4505.384766,4556.153809,4420.897461,4493.846191,3932.000000,2.000000,38.000000,,,,0.000000,4.000000,4.000000,4.000000,4.000000,4.000000,4.000000,4.000000,4.000000,4.000000,4.000000,4.000000,4.000000,4.000000,4.000000,100.000000,,,,,,,,,,,,,,,,,,,,,,,,,,,,,,,,,,,,,,,,,,,,,,,,,,,,,,,,,,,,,,,,,,,,,,,,,,,,,,,,,,,,,,,,,,,,,,,,,,,,,,,,,,,,,,,,,,,,,
1768295499.804577,1768295499.805438,68.000000,0.000000,4341.153809,4321.538574,4351.025879,4351.153809,4301.922852,4309.102539,4300.000000,4315.256348,4317.948730,4313.717773,4504.358887,4549.871582,4413.589844,4490.128418,3819.000000,2.000000,38.000000,,,,0.000000,4.000000,4.000000,4.000000,4.000000,4.000000,4.000000,4.000000,4.000000,4.000000,4.000000,4.000000,4.000000,4.000000,4.000000,100.000000,,,,,,,,,,,,,,,,,,,,,,,,,,,,,,,,,,,,,,,,,,,,,,,,,,,,,,,,,,,,,,,,,,,,,,,,,,,,,,,,,,,,,,,,,,,,,,,,,,,,,,,,,,,,,,,,,,,,,
1768295499.812385,1768295499.813247,69.000000,0.000000,4334.358887,4321.025879,4344.743652,4345.128418,4302.051270,4308.846191,4303.846191,4309.615234,4318.589844,4313.333496,4500.641113,4539.743652,4411.282227,4481.922852,3293.000000,2.000000,38.000000,,,,0.000000,4.000000,4.000000,4.000000,4.000000,4.000000,4.000000,4.000000,4.000000,4.000000,4.000000,4.000000,4.000000,4.000000,4.000000,100.000000,,,,,,,,,,,,,,,,,,,,,,,,,,,,,,,,,,,,,,,,,,,,,,,,,,,,,,,,,,,,,,,,,,,,,,,,,,,,,,,,,,,,,,,,,,,,,,,,,,,,,,,,,,,,,,,,,,,,,
1768295499.820194,1768295499.820955,70.000000,0.000000,4340.769043,4324.871582,4350.641113,4350.384766,4306.282227,4314.358887,4311.025879,4307.820313,4319.871582,4315.769043,4500.512695,4539.743652,4417.436035,4483.717773,3530.000000,2.000000,38.000000,,,,0.000000,4.000000,4.000000,4.000000,4.000000,4.000000,4.000000,4.000000,4.000000,4.000000,4.000000,4.000000,4.000000,4.000000,4.000000,100.000000,,,,,,,,,,,,,,,,,,,,,,,,,,,,,,,,,,,,,,,,,,,,,,,,,,,,,,,,,,,,,,,,,,,,,,,,,,,,,,,,,,,,,,,,,,,,,,,,,,,,,,,,,,,,,,,,,,,,,
1768295499.828002,1768295499.828764,71.000000,0.000000,4347.179688,4323.077148,4350.256348,4352.436035,4304.743652,4313.077148,4310.384766,4309.871582,4316.153809,4314.230957,4502.436035,4541.153809,4419.743652,4484.871582,3388.000000,2.000000,38.000000,,,,0.000000,4.000000,4.000000,4.000000,4.000000,4.000000,4.000000,4.000000,4.000000,4.000000,4.000000,4.000000,4.000000,4.000000,4.000000,100.000000,,,,,,,,,,,,,,,,,,,,,,,,,,,,,,,,,,,,,,,,,,,,,,,,,,,,,,,,,,,,,,,,,,,,,,,,,,,,,,,,,,,,,,,,,,,,,,,,,,,,,,,,,,,,,,,,,,,,,
1768295499.835811,1768295499.836772,72.000000,0.000000,4344.102539,4323.717773,4346.025879,4348.205078,4300.769043,4304.615234,4303.461426,4309.102539,4315.000000,4310.128418,4500.897461,4539.358887,4417.948730,4480.897461,2297.000000,2.000000,38.000000,,,,0.000000,4.000000,4.000000,4.000000,4.000000,4.000000,4.000000,4.000000,4.000000,4.000000,4.000000,4.000000,4.000000,4.000000,4.000000,100.000000,,,,,,,,,,,,,,,,,,,,,,,,,,,,,,,,,,,,,,,,,,,,,,,,,,,,,,,,,,,,,,,,,,,,,,,,,,,,,,,,,,,,,,,,,,,,,,,,,,,,,,,,,,,,,,,,,,,,,
1768295499.843619,1768295499.844580,73.000000,0.000000,4339.871582,4325.512695,4349.102539,4348.077148,4300.897461,4303.333496,4301.410156,4312.436035,4318.077148,4312.820313,4499.871582,4540.512695,4414.615234,4482.692383,3618.000000,2.000000,38.000000,,,,0.000000,4.000000,4.000000,4.000000,4.000000,4.000000,4.000000,4.000000,4.000000,4.000000,4.000000,4.000000,4.000000,4.000000,4.000000,100.000000,,,,,,,,,,,,,,,,,,,,,,,,,,,,,,,,,,,,,,,,,,,,,,,,,,,,,,,,,,,,,,,,,,,,,,,,,,,,,,,,,,,,,,,,,,,,,,,,,,,,,,,,,,,,,,,,,,,,,
1768295499.851428,1768295499.852289,74.000000,0.000000,4333.717773,4315.641113,4347.436035,4345.897461,4300.000000,4305.256348,4302.820313,4317.307617,4317.436035,4314.358887,4498.974121,4538.717773,4412.051270,4482.692383,3637.000000,2.000000,38.000000,,,,0.000000,4.000000,4.000000,4.000000,4.000000,4.000000,4.000000,4.000000,4.000000,4.000000,4.000000,4.000000,4.000000,4.000000,4.000000,100.000000,,,,,,,,,,,,,,,,,,,,,,,,,,,,,,,,,,,,,,,,,,,,,,,,,,,,,,,,,,,,,,,,,,,,,,,,,,,,,,,,,,,,,,,,,,,,,,,,,,,,,,,,,,,,,,,,,,,,,
1768295499.859236,1768295499.860097,75.000000,0.000000,4325.128418,4313.205078,4340.000000,4341.153809,4302.051270,4300.384766,4298.205078,4316.282227,4316.153809,4308.846191,4496.794922,4533.974121,4412.820313,4475.128418,4684.000000,2.000000,38.000000,,,,0.000000,4.000000,4.000000,4.000000,4.000000,4.000000,4.000000,4.000000,4.000000,4.000000,4.000000,4.000000,4.000000,4.000000,4.000000,100.000000,,,,,,,,,,,,,,,,,,,,,,,,,,,,,,,,,,,,,,,,,,,,,,,,,,,,,,,,,,,,,,,,,,,,,,,,,,,,,,,,,,,,,,,,,,,,,,,,,,,,,,,,,,,,,,,,,,,,,
1768295499.867044,1768295499.867706,76.000000,0.000000,4325.128418,4324.871582,4339.487305,4342.307617,4304.487305,4298.589844,4290.128418,4315.000000,4317.692383,4308.205078,4498.461426,4531.410156,4412.436035,4471.666504,2262.000000,2.000000,38.000000,,,,0.000000,4.000000,4.000000,4.000000,4.000000,4.000000,4.000000,4.000000,4.000000,4.000000,4.000000,4.000000,4.000000,4.000000,4.000000,100.000000,,,,,,,,,,,,,,,,,,,,,,,,,,,,,,,,,,,,,,,,,,,,,,,,,,,,,,,,,,,,,,,,,,,,,,,,,,,,,,,,,,,,,,,,,,,,,,,,,,,,,,,,,,,,,,,,,,,,,
1768295499.874853,1768295499.875514,77.000000,0.000000,4331.922852,4328.589844,4341.025879,4345.384766,4302.692383,4305.256348,4292.051270,4310.384766,4317.436035,4308.717773,4498.717773,4528.077148,4409.615234,4472.051270,5419.000000,2.000000,38.000000,,,,0.000000,4.000000,4.000000,4.000000,4.000000,4.000000,4.000000,4.000000,4.000000,4.000000,4.000000,4.000000,4.000000,4.000000,4.000000,100.000000,,,,,,,,,,,,,,,,,,,,,,,,,,,,,,,,,,,,,,,,,,,,,,,,,,,,,,,,,,,,,,,,,,,,,,,,,,,,,,,,,,,,,,,,,,,,,,,,,,,,,,,,,,,,,,,,,,,,,
1768295499.882661,1768295499.883223,78.000000,0.000000,4333.077148,4322.820313,4338.461426,4345.000000,4302.436035,4308.461426,4302.692383,4311.025879,4318.974121,4308.461426,4497.307617,4528.974121,4412.051270,4473.461426,3637.000000,2.000000,38.000000,,,,0.000000,4.000000,4.000000,4.000000,4.000000,4.000000,4.000000,4.000000,4.000000,4.000000,4.000000,4.000000,4.000000,4.000000,4.000000,100.000000,1.000000,50.000000,4.000000,4.000000,4.000000,4.000000,4.000000,4.000000,4.000000,4.000000,1.000000,4.000000,1.000000,4.000000,4.000000,4.000000,,,,,,,,,,,,,,,,,,,,,,,,,,,,,,,,0.668778,0.528481,0.538529,0.356201,0.205075,1.113495,0.591930,0.670394,0.267878,0.192627,0.997696,0.449135,0.493441,0.347605,0.130099,0.571502,0.233347,0.303634,0.230571,0.124161,0.406476,0.165319,0.142852,0.099627,0.057656,0.250657,0.188027,0.072858,0.073422,0.079308,0.340728,0.557348,0.226706,0.311297,0.233631,0.389277,0.587913,0.392427,0.266129,0.158080,0.093984,0.149334,0.167293,0.156687,0.045103,0.265169,0.284361,0.500057,0.320170,0.167032,0.183414,0.104815,0.193577,0.149116,0.065321,1.518189,0.467911,0.781270,0.511138,0.144156,0.696588,0.315459,0.356417,0.399521,0.127139,1.174682,0.352523,0.709251,0.415603,0.170209
1768295499.890470,1768295499.891031,79.000000,0.000000,4330.000000,4320.384766,4338.077148,4343.589844,4302.179688,4306.666504,4304.743652,4319.743652,4323.077148,4310.897461,4500.000000,4537.820313,4416.538574,4479.615234,4684.000000,2.000000,38.000000,,,,0.000000,4.000000,4.000000,4.000000,4.000000,4.000000,4.000000,4.000000,4.000000,4.000000,4.000000,4.000000,4.000000,4.000000,4.000000,100.000000,,,,,,,,,,,,,,,,,,,,,,,,,,,,,,,,,,,,,,,,,,,,,,,,,,,,,,,,,,,,,,,,,,,,,,,,,,,,,,,,,,,,,,,,,,,,,,,,,,,,,,,,,,,,,,,,,,,,,
1768295499.898278,1768295499.898640,80.000000,0.000000,4325.512695,4321.410156,4336.922852,4343.205078,4300.128418,4306.410156,4300.256348,4316.922852,4320.384766,4311.153809,4499.743652,4536.282227,4413.205078,4477.307617,2262.000000,2.000000,38.000000,,,,0.000000,4.000000,4.000000,4.000000,4.000000,4.000000,4.000000,4.000000,4.000000,4.000000,4.000000,4.000000,4.000000,4.000000,4.000000,100.000000,,,,,,,,,,,,,,,,,,,,,,,,,,,,,,,,,,,,,,,,,,,,,,,,,,,,,,,,,,,,,,,,,,,,,,,,,,,,,,,,,,,,,,,,,,,,,,,,,,,,,,,,,,,,,,,,,,,,,
1768295499.906087,1768295499.906448,81.000000,0.000000,4326.538574,4324.230957,4334.487305,4345.128418,4302.563965,4310.897461,4308.461426,4313.461426,4319.102539,4303.974121,4496.922852,4528.205078,4408.974121,4468.589844,5419.000000,2.000000,38.000000,,,,0.000000,4.000000,4.000000,4.000000,4.000000,4.000000,4.000000,4.000000,4.000000,4.000000,4.000000,4.000000,4.000000,4.000000,4.000000,100.000000,,,,,,,,,,,,,,,,,,,,,,,,,,,,,,,,,,,,,,,,,,,,,,,,,,,,,,,,,,,,,,,,,,,,,,,,,,,,,,,,,,,,,,,,,,,,,,,,,,,,,,,,,,,,,,,,,,,,,
1768295499.913895,1768295499.914357,82.000000,0.000000,4328.846191,4325.384766,4332.820313,4343.333496,4304.871582,4309.358887,4311.025879,4317.948730,4320.512695,4298.846191,4497.692383,4529.743652,4407.436035,4468.461426,3637.000000,2.000000,38.000000,,,,0.000000,4.000000,4.000000,4.000000,4.000000,4.000000,4.000000,4.000000,4.000000,4.000000,4.000000,4.000000,4.000000,4.000000,4.000000,100.000000,,,,,,,,,,,,,,,,,,,,,,,,,,,,,,,,,,,,,,,,,,,,,,,,,,,,,,,,,,,,,,,,,,,,,,,,,,,,,,,,,,,,,,,,,,,,,,,,,,,,,,,,,,,,,,,,,,,,,
1768295499.921703,1768295499.922165,83.000000,0.000000,4325.000000,4317.179688,4330.512695,4338.974121,4300.641113,4300.641113,4297.179688,4315.128418,4318.589844,4298.717773,4498.717773,4530.897461,4405.512695,4468.205078,4684.000000,2.000000,38.000000,,,,0.000000,4.000000,4.000000,4.000000,4.000000,4.000000,4.000000,4.000000,4.000000,4.000000,4.000000,4.000000,4.000000,4.000000,4.000000,100.000000,,,,,,,,,,,,,,,,,,,,,,,,,,,,,,,,,,,,,,,,,,,,,,,,,,,,,,,,,,,,,,,,,,,,,,,,,,,,,,,,,,,,,,,,,,,,,,,,,,,,,,,,,,,,,,,,,,,,,
1768295499.929512,1768295499.930173,84.000000,0.000000,4324.871582,4313.077148,4333.846191,4339.487305,4299.871582,4302.948730,4298.717773,4314.102539,4319.871582,4296.666504,4499.358887,4530.512695,4407.563965,4468.333496,2262.000000,2.000000,38.000000,,,,0.000000,4.000000,4.000000,4.000000,4.000000,4.000000,4.000000,4.000000,4.000000,4.000000,4.000000,4.000000,4.000000,4.000000,4.000000,100.000000,,,,,,,,,,,,,,,,,,,,,,,,,,,,,,,,,,,,,,,,,,,,,,,,,,,,,,,,,,,,,,,,,,,,,,,,,,,,,,,,,,,,,,,,,,,,,,,,,,,,,,,,,,,,,,,,,,,,,
1768295499.937320,1768295499.937982,85.000000,0.000000,4330.128418,4320.256348,4341.410156,4345.256348,4305.256348,4309.102539,4308.205078,4317.179688,4321.410156,4296.410156,4499.487305,4534.230957,4410.769043,4473.333496,5419.000000,2.000000,38.000000,,,,0.000000,4.000000,4.000000,4.000000,4.000000,4.000000,4.000000,4.000000,4.000000,4.000000,4.000000,4.000000,4.000000,4.000000,4.000000,100.000000,,,,,,,,,,,,,,,,,,,,,,,,,,,,,,,,,,,,,,,,,,,,,,,,,,,,,,,,,,,,,,,,,,,,,,,,,,,,,,,,,,,,,,,,,,,,,,,,,,,,,,,,,,,,,,,,,,,,,
1768295499.945129,1768295499.945690,86.000000,0.000000,4329.230957,4320.256348,4336.538574,4345.256348,4303.205078,4299.871582,4295.000000,4313.717773,4321.025879,4297.948730,4499.615234,4534.358887,4410.897461,4474.230957,3637.000000,2.000000,38.000000,,,,0.000000,4.000000,4.000000,4.000000,4.000000,4.000000,4.000000,4.000000,4.000000,4.000000,4.000000,4.000000,4.000000,4.000000,4.000000,100.000000,,,,,,,,,,,,,,,,,,,,,,,,,,,,,,,,,,,,,,,,,,,,,,,,,,,,,,,,,,,,,,,,,,,,,,,,,,,,,,,,,,,,,,,,,,,,,,,,,,,,,,,,,,,,,,,,,,,,,
1768295499.952937,1768295499.953499,87.000000,0.000000,4324.230957,4312.948730,4328.461426,4342.820313,4297.692383,4296.410156,4286.922852,4312.051270,4321.666504,4299.871582,4499.871582,4528.205078,4410.769043,4470.641113,4684.000000,2.000000,38.000000,,,,0.000000,4.000000,4.000000,4.000000,4.000000,4.000000,4.000000,4.000000,4.000000,4.000000,4.000000,4.000000,4.000000,4.000000,4.000000,100.000000,,,,,,,,,,,,,,,,,,,,,,,,,,,,,,,,,,,,,,,,,,,,,,,,,,,,,,,,,,,,,,,,,,,,,,,,,,,,,,,,,,,,,,,,,,,,,,,,,,,,,,,,,,,,,,,,,,,,,
1768295499.960745,1768295499.961108,88.000000,0.000000,4329.102539,4313.717773,4336.922852,4346.794922,4303.333496,4309.358887,4302.820313,4311.025879,4319.743652,4300.128418,4497.307617,4527.563965,4410.512695,4473.333496,2262.000000,2.000000,38.000000,,,,0.000000,4.000000,4.000000,4.000000,4.000000,4.000000,4.000000,4.000000,4.000000,4.000000,4.000000,4.000000,4.000000,4.000000,4.000000,100.000000,,,,,,,,,,,,,,,,,,,,,,,,,,,,,,,,,,,,,,,,,,,,,,,,,,,,,,,,,,,,,,,,,,,,,,,,,,,,,,,,,,,,,,,,,,,,,,,,,,,,,,,,,,,,,,,,,,,,,
1768295499.968554,1768295499.968916,89.000000,0.000000,4337.820313,4320.000000,4346.922852,4349.230957,4311.153809,4312.692383,4311.282227,4312.820313,4317.179688,4300.384766,4496.153809,4536.410156,4409.102539,4478.077148,5419.000000,2.000000,38.000000,,,,0.000000,4.000000,4.000000,4.000000,4.000000,4.000000,4.000000,4.000000,4.000000,4.000000,4.000000,4.000000,4.000000,4.000000,4.000000,100.000000,,,,,,,,,,,,,,,,,,,,,,,,,,,,,,,,,,,,,,,,,,,,,,,,,,,,,,,,,,,,,,,,,,,,,,,,,,,,,,,,,,,,,,,,,,,,,,,,,,,,,,,,,,,,,,,,,,,,,
1768295499.976362,1768295499.976824,90.000000,0.000000,4336.410156,4320.512695,4341.153809,4346.025879,4306.153809,4307.436035,4308.461426,4320.000000,4319.358887,4304.871582,4498.589844,4539.358887,4410.256348,4479.230957,3637.000000,2.000000,38.000000,,,,0.000000,4.000000,4.000000,4.000000,4.000000,4.000000,4.000000,4.000000,4.000000,4.000000,4.000000,4.000000,4.000000,4.000000,4.000000,100.000000,,,,,,,,,,,,,,,,,,,,,,,,,,,,,,,,,,,,,,,,,,,,,,,,,,,,,,,,,,,,,,,,,,,,,,,,,,,,,,,,,,,,,,,,,,,,,,,,,,,,,,,,,,,,,,,,,,,,,
1768295499.984171,1768295499.984633,91.000000,0.000000,4333.717773,4316.794922,4336.025879,4346.410156,4303.205078,4311.410156,4309.230957,4321.666504,4322.692383,4308.717773,4500.256348,4539.615234,4411.794922,4480.128418,4684.000000,2.000000,38.000000,,,,0.000000,4.000000,4.000000,4.000000,4.000000,4.000000,4.000000,4.000000,4.000000,4.000000,4.000000,4.000000,4.000000,4.000000,4.000000,100.000000,,,,,,,,,,,,,,,,,,,,,,,,,,,,,,,,,,,,,,,,,,,,,,,,,,,,,,,,,,,,,,,,,,,,,,,,,,,,,,,,,,,,,,,,,,,,,,,,,,,,,,,,,,,,,,,,,,,,,
1768295499.991979,1768295499.992641,92.000000,0.000000,4337.948730,4313.333496,4341.025879,4348.717773,4308.461426,4311.153809,4305.000000,4318.717773,4323.461426,4309.871582,4500.000000,4542.948730,4414.102539,4485.512695,2262.000000,2.000000,38.000000,,,,0.000000,4.000000,4.000000,4.000000,4.000000,4.000000,4.000000,4.000000,4.000000,4.000000,4.000000,4.000000,4.000000,4.000000,4.000000,100.000000,,,,,,,,,,,,,,,,,,,,,,,,,,,,,,,,,,,,,,,,,,,,,,,,,,,,,,,,,,,,,,,,,,,,,,,,,,,,,,,,,,,,,,,,,,,,,,,,,,,,,,,,,,,,,,,,,,,,,
1768295499.999787,1768295500.000449,93.000000,0.000000,4342.051270,4313.205078,4345.256348,4343.205078,4307.307617,4302.436035,4298.333496,4318.333496,4323.077148,4308.077148,4498.846191,4542.692383,4416.153809,4491.666504,5419.000000,2.000000,38.000000,,,,0.000000,4.000000,4.000000,4.000000,4.000000,4.000000,4.000000,4.000000,4.000000,4.000000,4.000000,4.000000,4.000000,4.000000,4.000000,100.000000,,,,,,,,,,,,,,,,,,,,,,,,,,,,,,,,,,,,,,,,,,,,,,,,,,,,,,,,,,,,,,,,,,,,,,,,,,,,,,,,,,,,,,,,,,,,,,,,,,,,,,,,,,,,,,,,,,,,,
1768295500.007596,1768295500.008358,94.000000,0.000000,4343.333496,4313.717773,4344.358887,4343.589844,4304.102539,4300.897461,4302.948730,4321.025879,4322.051270,4302.820313,4500.897461,4544.743652,4414.487305,4494.743652,3637.000000,2.000000,38.000000,,,,0.000000,4.000000,4.000000,4.000000,4.000000,4.000000,4.000000,4.000000,4.000000,4.000000,4.000000,4.000000,4.000000,4.000000,4.000000,100.000000,,,,,,,,,,,,,,,,,,,,,,,,,,,,,,,,,,,,,,,,,,,,,,,,0.779759,0.534388,0.488614,0.361519,0.205239,1.246161,0.544865,0.607629,0.245718,0.188470,1.042119,0.397494,0.478997,0.342213,0.132393,0.693057,0.255598,0.284142,0.226211,0.109402,0.427759,0.221451,0.131865,0.092299,0.060394,0.258599,0.203283,0.090670,0.074989,0.075853,0.339164,0.579027,0.259807,0.337324,0.230984,0.378112,0.529575,0.366447,0.260659,0.172649,0.097277,0.113790,0.149355,0.156134,0.044640,0.256636,0.299661,0.492091,0.330146,0.173377,0.212173,0.095667,0.179813,0.146516,0.067860,1.622254,0.420712,0.813300,0.527345,0.155460,0.889051,0.341749,0.356371,0.394014,0.147978,1.385408,0.350872,0.748867,0.398857,0.212388
1768295500.015404,1768295500.016166,95.000000,0.000000,4343.846191,4311.282227,4343.717773,4351.666504,4305.512695,4307.692383,4304.871582,4324.871582,4322.563965,4299.487305,4503.077148,4551.410156,4415.769043,4495.128418,4684.000000,2.000000,38.000000,,,,0.000000,4.000000,4.000000,4.000000,4.000000,4.000000,4.000000,4.000000,4.000000,4.000000,4.000000,4.000000,4.000000,4.000000,4.000000,100.000000,,,,,,,,,,,,,,,,,,,,,,,,,,,,,,,,,,,,,,,,,,,,,,,,,,,,,,,,,,,,,,,,,,,,,,,,,,,,,,,,,,,,,,,,,,,,,,,,,,,,,,,,,,,,,,,,,,,,,
1768295500.023213,1768295500.023975,96.000000,0.000000,4343.077148,4311.666504,4346.666504,4351.666504,4309.358887,4310.769043,4303.717773,4326.538574,4324.871582,4303.589844,4500.512695,4551.025879,4417.436035,4488.846191,2262.000000,2.000000,38.000000,,,,0.000000,4.000000,4.000000,4.000000,4.000000,4.000000,4.000000,4.000000,4.000000,4.000000,4.000000,4.000000,4.000000,4.000000,4.000000,100.000000,,,,,,,,,,,,,,,,,,,,,,,,,,,,,,,,,,,,,,,,,,,,,,,,,,,,,,,,,,,,,,,,,,,,,,,,,,,,,,,,,,,,,,,,,,,,,,,,,,,,,,,,,,,,,,,,,,,,,
1768295500.031021,1768295500.031783,97.000000,0.000000,4347.051270,4314.871582,4351.794922,4349.871582,4311.794922,4310.128418,4309.358887,4325.769043,4325.384766,4309.102539,4501.794922,4548.333496,4415.384766,4486.025879,5419.000000,2.000000,38.000000,,,,0.000000,4.000000,4.000000,4.000000,4.000000,4.000000,4.000000,4.000000,4.000000,4.000000,4.000000,4.000000,4.000000,4.000000,4.000000,100.000000,,,,,,,,,,,,,,,,,,,,,,,,,,,,,,,,,,,,,,,,,,,,,,,,,,,,,,,,,,,,,,,,,,,,,,,,,,,,,,,,,,,,,,,,,,,,,,,,,,,,,,,,,,,,,,,,,,,,,
1768295500.038830,1768295500.039492,98.000000,0.000000,4352.820313,4312.948730,4354.102539,4353.205078,4312.948730,4311.025879,4309.615234,4323.846191,4325.128418,4309.615234,4504.102539,4552.436035,4415.128418,4495.256348,3637.000000,2.000000,38.000000,,,,0.000000,4.000000,4.000000,4.000000,4.000000,4.000000,4.000000,4.000000,4.000000,4.000000,4.000000,4.000000,4.000000,4.000000,4.000000,100.000000,,,,,,,,,,,,,,,,,,,,,,,,,,,,,,,,,,,,,,,,,,,,,,,,,,,,,,,,,,,,,,,,,,,,,,,,,,,,,,,,,,,,,,,,,,,,,,,,,,,,,,,,,,,,,,,,,,,,,
1768295500.046638,1768295500.047300,99.000000,0.000000,4344.487305,4308.077148,4349.871582,4353.205078,4312.563965,4310.000000,4305.000000,4320.512695,4323.461426,4306.666504,4500.897461,4548.717773,4415.000000,4498.846191,4684.000000,2.000000,38.000000,,,,0.000000,4.000000,4.000000,4.000000,4.000000,4.000000,4.000000,4.000000,4.000000,4.000000,4.000000,4.000000,4.000000,4.000000,4.000000,100.000000,,,,,,,,,,,,,,,,,,,,,,,,,,,,,,,,,,,,,,,,,,,,,,,,,,,,,,,,,,,,,,,,,,,,,,,,,,,,,,,,,,,,,,,,,,,,,,,,,,,,,,,,,,,,,,,,,,,,,
1768295500.054447,1768295500.054909,100.000000,0.000000,4327.563965,4303.717773,4337.820313,4342.948730,4308.589844,4307.820313,4301.794922,4313.077148,4319.615234,4300.512695,4496.410156,4529.871582,4404.615234,4481.794922,2262.000000,2.000000,38.000000,,,,0.000000,4.000000,4.000000,4.000000,4.000000,4.000000,4.000000,4.000000,4.000000,4.000000,4.000000,4.000000,4.000000,4.000000,4.000000,100.000000,,,,,,,,,,,,,,,,,,,,,,,,,,,,,,,,,,,,,,,,,,,,,,,,,,,,,,,,,,,,,,,,,,,,,,,,,,,,,,,,,,,,,,,,,,,,,,,,,,,,,,,,,,,,,,,,,,,,,
1768295500.062255,1768295500.062717,101.000000,0.000000,4320.897461,4296.538574,4327.179688,4334.487305,4305.641113,4309.230957,4301.922852,4311.153809,4318.846191,4297.436035,4492.307617,4518.589844,4393.974121,4463.589844,5419.000000,2.000000,38.000000,,,,0.000000,4.000000,4.000000,4.000000,4.000000,4.000000,4.000000,4.000000,4.000000,4.000000,4.000000,4.000000,4.000000,4.000000,4.000000,100.000000,,,,,,,,,,,,,,,,,,,,,,,,,,,,,,,,,,,,,,,,,,,,,,,,,,,,,,,,,,,,,,,,,,,,,,,,,,,,,,,,,,,,,,,,,,,,,,,,,,,,,,,,,,,,,,,,,,,,,
1768295500.070063,1768295500.070626,102.000000,0.000000,4325.256348,4294.230957,4333.205078,4335.897461,4305.641113,4311.025879,4312.692383,4322.436035,4325.512695,4303.974121,4495.512695,4527.307617,4400.256348,4470.641113,3637.000000,2.000000,38.000000,,,,0.000000,4.000000,4.000000,4.000000,4.000000,4.000000,4.000000,4.000000,4.000000,4.000000,4.000000,4.000000,4.000000,4.000000,4.000000,100.000000,,,,,,,,,,,,,,,,,,,,,,,,,,,,,,,,,,,,,,,,,,,,,,,,,,,,,,,,,,,,,,,,,,,,,,,,,,,,,,,,,,,,,,,,,,,,,,,,,,,,,,,,,,,,,,,,,,,,,
1768295500.077872,1768295500.078434,103.000000,0.000000,4336.794922,4307.820313,4353.333496,4348.333496,4307.051270,4311.410156,4321.282227,4332.948730,4331.794922,4316.025879,4507.948730,4548.333496,4419.615234,4493.846191,4684.000000,2.000000,38.000000,,,,0.000000,4.000000,4.000000,4.000000,4.000000,4.000000,4.000000,4.000000,4.000000,4.000000,4.000000,4.000000,4.000000,4.000000,4.000000,100.000000,,,,,,,,,,,,,,,,,,,,,,,,,,,,,,,,,,,,,,,,,,,,,,,,,,,,,,,,,,,,,,,,,,,,,,,,,,,,,,,,,,,,,,,,,,,,,,,,,,,,,,,,,,,,,,,,,,,,,
1768295500.085680,1768295500.086043,104.000000,0.000000,4345.512695,4321.538574,4360.641113,4358.205078,4310.128418,4309.358887,4311.922852,4332.948730,4333.077148,4322.692383,4512.436035,4561.922852,4430.128418,4503.205078,2262.000000,2.000000,38.000000,,,,0.000000,4.000000,4.000000,4.000000,4.000000,4.000000,4.000000,4.000000,4.000000,4.000000,4.000000,4.000000,4.000000,4.000000,4.000000,100.000000,,,,,,,,,,,,,,,,,,,,,,,,,,,,,,,,,,,,,,,,,,,,,,,,,,,,,,,,,,,,,,,,,,,,,,,,,,,,,,,,,,,,,,,,,,,,,,,,,,,,,,,,,,,,,,,,,,,,,
1768295500.093489,1768295500.093851,105.000000,0.000000,4344.102539,4315.256348,4347.307617,4349.743652,4312.436035,4309.615234,4301.666504,4325.769043,4328.717773,4316.153809,4503.205078,4553.461426,4420.897461,4489.615234,5419.000000,2.000000,38.000000,,,,0.000000,4.000000,4.000000,4.000000,4.000000,4.000000,4.000000,4.000000,4.000000,4.000000,4.000000,4.000000,4.000000,4.000000,4.000000,100.000000,,,,,,,,,,,,,,,,,,,,,,,,,,,,,,,,,,,,,,,,,,,,,,,,,,,,,,,,,,,,,,,,,,,,,,,,,,,,,,,,,,,,,,,,,,,,,,,,,,,,,,,,,,,,,,,,,,,,,
1768295500.101297,1768295500.101759,106.000000,0.000000,4337.948730,4305.897461,4340.256348,4340.128418,4308.205078,4311.025879,4307.179688,4318.846191,4320.641113,4303.589844,4496.153809,4539.871582,4411.282227,4479.358887,3637.000000,2.000000,38.000000,,,,0.000000,4.000000,4.000000,4.000000,4.000000,4.000000,4.000000,4.000000,4.000000,4.000000,4.000000,4.000000,4.000000,4.000000,4.000000,100.000000,,,,,,,,,,,,,,,,,,,,,,,,,,,,,,,,,,,,,,,,,,,,,,,,,,,,,,,,,,,,,,,,,,,,,,,,,,,,,,,,,,,,,,,,,,,,,,,,,,,,,,,,,,,,,,,,,,,,,
1768295500.109105,1768295500.109568,107.000000,0.000000,4335.256348,4310.128418,4349.615234,4343.077148,4301.922852,4309.871582,4315.384766,4321.794922,4320.384766,4297.820313,4499.102539,4539.871582,4413.589844,4482.179688,4684.000000,2.000000,38.000000,,,,0.000000,4.000000,4.000000,4.000000,4.000000,4.000000,4.000000,4.000000,4.000000,4.000000,4.000000,4.000000,4.000000,4.000000,4.000000,100.000000,,,,,,,,,,,,,,,,,,,,,,,,,,,,,,,,,,,,,,,,,,,,,,,,,,,,,,,,,,,,,,,,,,,,,,,,,,,,,,,,,,,,,,,,,,,,,,,,,,,,,,,,,,,,,,,,,,,,,
1768295500.116914,1768295500.117576,108.000000,0.000000,4334.743652,4311.666504,4352.436035,4345.512695,4305.641113,4309.487305,4313.205078,4323.974121,4322.948730,4300.000000,4500.256348,4538.205078,4413.205078,4474.615234,2262.000000,2.000000,38.000000,,,,0.000000,4.000000,4.000000,4.000000,4.000000,4.000000,4.000000,4.000000,4.000000,4.000000,4.000000,4.000000,4.000000,4.000000,4.000000,100.000000,,,,,,,,,,,,,,,,,,,,,,,,,,,,,,,,,,,,,,,,,,,,,,,,,,,,,,,,,,,,,,,,,,,,,,,,,,,,,,,,,,,,,,,,,,,,,,,,,,,,,,,,,,,,,,,,,,,,,
1768295500.124722,1768295500.125385,109.000000,0.000000,4330.384766,4307.436035,4340.000000,4340.128418,4308.077148,4309.230957,4305.512695,4322.692383,4321.282227,4300.256348,4496.666504,4530.000000,4408.333496,4467.307617,5419.000000,2.000000,38.000000,,,,0.000000,4.000000,4.000000,4.000000,4.000000,4.000000,4.000000,4.000000,4.000000,4.000000,4.000000,4.000000,4.000000,4.000000,4.000000,100.000000,,,,,,,,,,,,,,,,,,,,,,,,,,,,,,,,,,,,,,,,,,,,,,,,,,,,,,,,,,,,,,,,,,,,,,,,,,,,,,,,,,,,,,,,,,,,,,,,,,,,,,,,,,,,,,,,,,,,,
1768295500.132531,1768295500.133293,110.000000,0.000000,4329.230957,4308.974121,4337.179688,4337.692383,4304.230957,4307.563965,4302.948730,4322.563965,4322.948730,4297.563965,4497.563965,4534.615234,4409.102539,4476.410156,3637.000000,2.000000,38.000000,,,,0.000000,4.000000,4.000000,4.000000,4.000000,4.000000,4.000000,4.000000,4.000000,4.000000,4.000000,4.000000,4.000000,4.000000,4.000000,100.000000,,,,,,,,,,,,,,,,,,,,,,,,,,,,,,,,,,,,,,,,,,,,,,,,0.856069,0.555232,0.436700,0.365359,0.208602,1.372716,0.464250,0.501601,0.219921,0.182104,1.055057,0.358758,0.465916,0.330536,0.136917,0.779757,0.305075,0.258758,0.214140,0.099409,0.449983,0.294460,0.122502,0.082408,0.067261,0.263727,0.223606,0.114326,0.075583,0.072591,0.330171,0.623410,0.331165,0.365158,0.235671,0.361741,0.490226,0.371726,0.252735,0.189926,0.098491,0.098053,0.134014,0.149864,0.044284,0.258403,0.340976,0.489385,0.364079,0.198816,0.229784,0.092011,0.171309,0.135068,0.071047,1.635073,0.435748,0.879749,0.513767,0.170278,1.031287,0.405490,0.364723,0.365132,0.172164,1.524502,0.388882,0.814345,0.363314,0.255116
1768295500.140339,1768295500.141101,111.000000,0.000000,4337.436035,4313.846191,4353.717773,4345.512695,4308.461426,4309.487305,4306.794922,4317.436035,4324.743652,4301.794922,4502.051270,4544.102539,4411.666504,4485.512695,4684.000000,2.000000,38.000000,,,,0.000000,4.000000,4.000000,4.000000,4.000000,4.000000,4.000000,4.000000,4.000000,4.000000,4.000000,4.000000,4.000000,4.000000,4.000000,100.000000,,,,,,,,,,,,,,,,,,,,,,,,,,,,,,,,,,,,,,,,,,,,,,,,,,,,,,,,,,,,,,,,,,,,,,,,,,,,,,,,,,,,,,,,,,,,,,,,,,,,,,,,,,,,,,,,,,,,,
1768295500.148147,1768295500.149110,112.000000,0.000000,4341.153809,4315.769043,4359.230957,4350.000000,4315.769043,4311.538574,4306.538574,4312.179688,4321.282227,4306.538574,4504.230957,4542.436035,4413.589844,4481.410156,2262.000000,2.000000,38.000000,,,,0.000000,4.000000,4.000000,4.000000,4.000000,4.000000,4.000000,4.000000,4.000000,4.000000,4.000000,4.000000,4.000000,4.000000,4.000000,100.000000,,,,,,,,,,,,,,,,,,,,,,,,,,,,,,,,,,,,,,,,,,,,,,,,,,,,,,,,,,,,,,,,,,,,,,,,,,,,,,,,,,,,,,,,,,,,,,,,,,,,,,,,,,,,,,,,,,,,,
1768295500.155956,1768295500.156918,113.000000,0.000000,4329.487305,4311.666504,4346.025879,4345.384766,4311.794922,4303.333496,4299.358887,4316.025879,4319.230957,4297.179688,4498.461426,4535.769043,4405.769043,4471.538574,5419.000000,2.000000,38.000000,,,,0.000000,4.000000,4.000000,4.000000,4.000000,4.000000,4.000000,4.000000,4.000000,4.000000,4.000000,4.000000,4.000000,4.000000,4.000000,100.000000,,,,,,,,,,,,,,,,,,,,,,,,,,,,,,,,,,,,,,,,,,,,,,,,,,,,,,,,,,,,,,,,,,,,,,,,,,,,,,,,,,,,,,,,,,,,,,,,,,,,,,,,,,,,,,,,,,,,,
1768295500.163764,1768295500.164627,114.000000,0.000000,4318.205078,4301.922852,4338.077148,4340.256348,4304.743652,4296.922852,4297.436035,4321.153809,4320.641113,4286.922852,4492.179688,4529.487305,4391.410156,4464.615234,3637.000000,2.000000,38.000000,,,,0.000000,4.000000,4.000000,4.000000,4.000000,4.000000,4.000000,4.000000,4.000000,4.000000,4.000000,4.000000,4.000000,4.000000,4.000000,100.000000,,,,,,,,,,,,,,,,,,,,,,,,,,,,,,,,,,,,,,,,,,,,,,,,,,,,,,,,,,,,,,,,,,,,,,,,,,,,,,,,,,,,,,,,,,,,,,,,,,,,,,,,,,,,,,,,,,,,,
1768295500.171573,1768295500.172435,115.000000,0.000000,4322.436035,4298.461426,4342.563965,4340.897461,4306.153809,4304.102539,4302.179688,4320.769043,4321.666504,4289.871582,4495.641113,4531.025879,4394.743652,4469.743652,4684.000000,2.000000,38.000000,,,,0.000000,4.000000,4.000000,4.000000,4.000000,4.000000,4.000000,4.000000,4.000000,4.000000,4.000000,4.000000,4.000000,4.000000,4.000000,100.000000,,,,,,,,,,,,,,,,,,,,,,,,,,,,,,,,,,,,,,,,,,,,,,,,,,,,,,,,,,,,,,,,,,,,,,,,,,,,,,,,,,,,,,,,,,,,,,,,,,,,,,,,,,,,,,,,,,,,,
1768295500.179381,1768295500.180443,116.000000,0.000000,4332.820313,4306.794922,4346.538574,4345.512695,4311.666504,4310.512695,4305.256348,4313.846191,4320.256348,4295.000000,4499.743652,4537.051270,4410.769043,4480.128418,2262.000000,2.000000,38.000000,,,,0.000000,4.000000,4.000000,4.000000,4.000000,4.000000,4.000000,4.000000,4.000000,4.000000,4.000000,4.000000,4.000000,4.000000,4.000000,100.000000,,,,,,,,,,,,,,,,,,,,,,,,,,,,,,,,,,,,,,,,,,,,,,,,,,,,,,,,,,,,,,,,,,,,,,,,,,,,,,,,,,,,,,,,,,,,,,,,,,,,,,,,,,,,,,,,,,,,,
1768295500.187190,1768295500.188252,117.000000,0.000000,4335.769043,4310.897461,4344.230957,4345.769043,4311.538574,4310.641113,4305.000000,4311.538574,4319.743652,4293.205078,4497.307617,4538.461426,4412.179688,4478.974121,5419.000000,2.000000,38.000000,,,,0.000000,4.000000,4.000000,4.000000,4.000000,4.000000,4.000000,4.000000,4.000000,4.000000,4.000000,4.000000,4.000000,4.000000,4.000000,100.000000,,,,,,,,,,,,,,,,,,,,,,,,,,,,,,,,,,,,,,,,,,,,,,,,,,,,,,,,,,,,,,,,,,,,,,,,,,,,,,,,,,,,,,,,,,,,,,,,,,,,,,,,,,,,,,,,,,,,,
1768295500.194998,1768295500.195960,118.000000,0.000000,4327.563965,4306.538574,4339.102539,4339.487305,4307.307617,4306.794922,4305.384766,4323.077148,4322.436035,4290.256348,4495.000000,4536.410156,4403.461426,4474.487305,3637.000000,2.000000,38.000000,,,,0.000000,4.000000,4.000000,4.000000,4.000000,4.000000,4.000000,4.000000,4.000000,4.000000,4.000000,4.000000,4.000000,4.000000,4.000000,100.000000,,,,,,,,,,,,,,,,,,,,,,,,,,,,,,,,,,,,,,,,,,,,,,,,,,,,,,,,,,,,,,,,,,,,,,,,,,,,,,,,,,,,,,,,,,,,,,,,,,,,,,,,,,,,,,,,,,,,,
1768295500.202807,1768295500.203769,119.000000,0.000000,4322.436035,4306.282227,4335.384766,4334.358887,4304.871582,4303.717773,4304.358887,4327.436035,4325.128418,4293.077148,4495.384766,4535.000000,4406.794922,4473.205078,4684.000000,2.000000,38.000000,,,,0.000000,4.000000,4.000000,4.000000,4.000000,4.000000,4.000000,4.000000,4.000000,4.000000,4.000000,4.000000,4.000000,4.000000,4.000000,100.000000,,,,,,,,,,,,,,,,,,,,,,,,,,,,,,,,,,,,,,,,,,,,,,,,,,,,,,,,,,,,,,,,,,,,,,,,,,,,,,,,,,,,,,,,,,,,,,,,,,,,,,,,,,,,,,,,,,,,,
1768295500.210615,1768295500.211377,120.000000,0.000000,4326.538574,4311.410156,4336.410156,4337.051270,4304.358887,4306.025879,4305.256348,4319.358887,4323.974121,4297.436035,4496.922852,4533.461426,4412.692383,4472.179688,2262.000000,2.000000,38.000000,,,,0.000000,4.000000,4.000000,4.000000,4.000000,4.000000,4.000000,4.000000,4.000000,4.000000,4.000000,4.000000,4.000000,4.000000,4.000000,100.000000,,,,,,,,,,,,,,,,,,,,,,,,,,,,,,,,,,,,,,,,,,,,,,,,,,,,,,,,,,,,,,,,,,,,,,,,,,,,,,,,,,,,,,,,,,,,,,,,,,,,,,,,,,,,,,,,,,,,,
1768295500.218423,1768295500.219186,121.000000,0.000000,4328.974121,4313.717773,4340.641113,4339.871582,4304.871582,4304.487305,4305.769043,4318.077148,4320.000000,4296.666504,4496.282227,4533.974121,4409.230957,4474.358887,5419.000000,2.000000,38.000000,,,,0.000000,4.000000,4.000000,4.000000,4.000000,4.000000,4.000000,4.000000,4.000000,4.000000,4.000000,4.000000,4.000000,4.000000,4.000000,100.000000,,,,,,,,,,,,,,,,,,,,,,,,,,,,,,,,,,,,,,,,,,,,,,,,,,,,,,,,,,,,,,,,,,,,,,,,,,,,,,,,,,,,,,,,,,,,,,,,,,,,,,,,,,,,,,,,,,,,,
1768295500.226232,1768295500.226894,122.000000,0.000000,4326.282227,4312.692383,4339.487305,4337.692383,4304.358887,4297.179688,4296.794922,4316.025879,4318.077148,4292.563965,4493.333496,4534.102539,4405.384766,4473.461426,3637.000000,2.000000,38.000000,,,,0.000000,4.000000,4.000000,4.000000,4.000000,4.000000,4.000000,4.000000,4.000000,4.000000,4.000000,4.000000,4.000000,4.000000,4.000000,100.000000,,,,,,,,,,,,,,,,,,,,,,,,,,,,,,,,,,,,,,,,,,,,,,,,,,,,,,,,,,,,,,,,,,,,,,,,,,,,,,,,,,,,,,,,,,,,,,,,,,,,,,,,,,,,,,,,,,,,,
1768295500.234040,1768295500.234703,123.000000,0.000000,4322.563965,4317.307617,4329.358887,4337.051270,4298.333496,4293.461426,4286.282227,4307.948730,4318.205078,4291.794922,4489.358887,4524.871582,4403.333496,4467.820313,4684.000000,2.000000,38.000000,,,,0.000000,4.000000,4.000000,4.000000,4.000000,4.000000,4.000000,4.000000,4.000000,4.000000,4.000000,4.000000,4.000000,4.000000,4.000000,100.000000,,,,,,,,,,,,,,,,,,,,,,,,,,,,,,,,,,,,,,,,,,,,,,,,,,,,,,,,,,,,,,,,,,,,,,,,,,,,,,,,,,,,,,,,,,,,,,,,,,,,,,,,,,,,,,,,,,,,,
1768295500.241849,1768295500.242711,124.000000,0.000000,4315.897461,4323.205078,4321.025879,4335.641113,4293.077148,4292.820313,4286.410156,4306.410156,4316.410156,4291.282227,4488.205078,4515.897461,4399.358887,4461.153809,2262.000000,2.000000,38.000000,,,,0.000000,4.000000,4.000000,4.000000,4.000000,4.000000,4.000000,4.000000,4.000000,4.000000,4.000000,4.000000,4.000000,4.000000,4.000000,100.000000,,,,,,,,,,,,,,,,,,,,,,,,,,,,,,,,,,,,,,,,,,,,,,,,,,,,,,,,,,,,,,,,,,,,,,,,,,,,,,,,,,,,,,,,,,,,,,,,,,,,,,,,,,,,,,,,,,,,,
1768295500.249657,1768295500.250520,125.000000,0.000000,4309.615234,4319.487305,4325.256348,4335.641113,4296.922852,4296.282227,4295.384766,4312.820313,4316.538574,4287.563965,4493.333496,4518.461426,4397.948730,4457.820313,5419.000000,2.000000,38.000000,,,,0.000000,4.000000,4.000000,4.000000,4.000000,4.000000,4.000000,4.000000,4.000000,4.000000,4.000000,4.000000,4.000000,4.000000,4.000000,100.000000,,,,,,,,,,,,,,,,,,,,,,,,,,,,,,,,,,,,,,,,,,,,,,,,,,,,,,,,,,,,,,,,,,,,,,,,,,,,,,,,,,,,,,,,,,,,,,,,,,,,,,,,,,,,,,,,,,,,,
1768295500.257465,1768295500.258228,126.000000,0.000000,4313.846191,4316.794922,4331.666504,4338.589844,4301.794922,4301.922852,4300.897461,4311.794922,4316.282227,4287.948730,4494.230957,4519.743652,4401.410156,4458.974121,3637.000000,2.000000,38.000000,,,,0.000000,4.000000,4.000000,4.000000,4.000000,4.000000,4.000000,4.000000,4.000000,4.000000,4.000000,4.000000,4.000000,4.000000,4.000000,100.000000,,,,,,,,,,,,,,,,,,,,,,,,,,,,,,,,,,,,,,,,,,,,,,,,0.902487,0.589061,0.396858,0.366863,0.211909,1.459345,0.376291,0.382969,0.195487,0.174841,1.047512,0.327931,0.442725,0.311637,0.142612,0.835456,0.365464,0.227263,0.197829,0.093483,0.467049,0.367124,0.120059,0.072499,0.076119,0.268070,0.244949,0.145791,0.077050,0.072738,0.327614,0.700292,0.438810,0.394172,0.257452,0.366764,0.467394,0.403621,0.246525,0.206175,0.100667,0.097759,0.122583,0.140774,0.043116,0.268764,0.408709,0.516742,0.432857,0.249677,0.238151,0.091385,0.168839,0.118459,0.074244,1.586797,0.497345,0.953871,0.478188,0.186672,1.099042,0.498295,0.385107,0.321404,0.193339,1.611379,0.462830,0.885363,0.316252,0.286369
1768295500.265274,1768295500.266037,127.000000,0.000000,4318.077148,4323.589844,4331.922852,4334.743652,4297.948730,4300.384766,4299.871582,4311.538574,4315.384766,4290.641113,4489.487305,4515.256348,4401.794922,4463.589844,38.000000,2.000000,38.000000,,,,0.000000,4.000000,4.000000,4.000000,4.000000,4.000000,4.000000,4.000000,4.000000,4.000000,4.000000,4.000000,4.000000,4.000000,4.000000,100.000000,,,,,,,,,,,,,,,,,,,,,,,,,,,,,,,,,,,,,,,,,,,,,,,,,,,,,,,,,,,,,,,,,,,,,,,,,,,,,,,,,,,,,,,,,,,,,,,,,,,,,,,,,,,,,,,,,,,,,
1768295500.273082,1768295500.273645,0.000000,0.000000,4312.948730,4330.000000,4327.307617,4329.358887,4294.230957,4298.717773,4301.025879,4320.384766,4319.487305,4292.051270,4492.436035,4517.948730,4405.641113,4466.922852,4253.000000,2.000000,38.000000,,,,0.000000,4.000000,4.000000,4.000000,4.000000,4.000000,4.000000,4.000000,4.000000,4.000000,4.000000,4.000000,4.000000,4.000000,4.000000,100.000000,,,,,,,,,,,,,,,,,,,,,,,,,,,,,,,,,,,,,,,,,,,,,,,,,,,,,,,,,,,,,,,,,,,,,,,,,,,,,,,,,,,,,,,,,,,,,,,,,,,,,,,,,,,,,,,,,,,,,
1768295500.280891,1768295500.281454,1.000000,0.000000,4313.205078,4330.384766,4324.615234,4335.769043,4299.230957,4307.948730,4307.179688,4324.743652,4323.717773,4295.512695,4498.205078,4527.051270,4415.128418,4470.512695,3815.000000,2.000000,38.000000,,,,0.000000,4.000000,4.000000,4.000000,4.000000,4.000000,4.000000,4.000000,4.000000,4.000000,4.000000,4.000000,4.000000,4.000000,4.000000,100.000000,,,,,,,,,,,,,,,,,,,,,,,,,,,,,,,,,,,,,,,,,,,,,,,,,,,,,,,,,,,,,,,,,,,,,,,,,,,,,,,,,,,,,,,,,,,,,,,,,,,,,,,,,,,,,,,,,,,,,
1768295500.288699,1768295500.289162,2.000000,0.000000,4322.948730,4330.512695,4329.871582,4344.230957,4303.974121,4312.307617,4308.333496,4324.358887,4321.922852,4297.436035,4500.128418,4534.358887,4418.333496,4475.512695,4041.000000,2.000000,38.000000,,,,0.000000,4.000000,4.000000,4.000000,4.000000,4.000000,4.000000,4.000000,4.000000,4.000000,4.000000,4.000000,4.000000,4.000000,4.000000,100.000000,,,,,,,,,,,,,,,,,,,,,,,,,,,,,,,,,,,,,,,,,,,,,,,,,,,,,,,,,,,,,,,,,,,,,,,,,,,,,,,,,,,,,,,,,,,,,,,,,,,,,,,,,,,,,,,,,,,,,
1768295500.296507,1768295500.296971,3.000000,0.000000,4330.256348,4332.179688,4341.025879,4342.051270,4305.000000,4308.205078,4303.077148,4326.025879,4322.820313,4298.717773,4501.794922,4539.487305,4415.000000,4480.128418,3932.000000,2.000000,38.000000,,,,0.000000,4.000000,4.000000,4.000000,4.000000,4.000000,4.000000,4.000000,4.000000,4.000000,4.000000,4.000000,4.000000,4.000000,4.000000,100.000000,,,,,,,,,,,,,,,,,,,,,,,,,,,,,,,,,,,,,,,,,,,,,,,,,,,,,,,,,,,,,,,,,,,,,,,,,,,,,,,,,,,,,,,,,,,,,,,,,,,,,,,,,,,,,,,,,,,,,
1768295500.304316,1768295500.304979,4.000000,0.000000,4330.897461,4329.615234,4342.436035,4340.641113,4304.871582,4308.589844,4302.307617,4330.897461,4327.820313,4305.384766,4501.025879,4539.230957,4417.692383,4479.230957,3819.000000,2.000000,38.000000,,,,0.000000,4.000000,4.000000,4.000000,4.000000,4.000000,4.000000,4.000000,4.000000,4.000000,4.000000,4.000000,4.000000,4.000000,4.000000,100.000000,,,,,,,,,,,,,,,,,,,,,,,,,,,,,,,,,,,,,,,,,,,,,,,,,,,,,,,,,,,,,,,,,,,,,,,,,,,,,,,,,,,,,,,,,,,,,,,,,,,,,,,,,,,,,,,,,,,,,
1768295500.312124,1768295500.312787,5.000000,0.000000,4326.922852,4324.487305,4331.794922,4342.948730,4302.436035,4310.769043,4305.641113,4330.128418,4327.436035,4312.179688,4501.538574,4533.461426,4421.666504,4474.743652,3293.000000,2.000000,38.000000,,,,0.000000,4.000000,4.000000,4.000000,4.000000,4.000000,4.000000,4.000000,4.000000,4.000000,4.000000,4.000000,4.000000,4.000000,4.000000,100.000000,,,,,,,,,,,,,,,,,,,,,,,,,,,,,,,,,,,,,,,,,,,,,,,,,,,,,,,,,,,,,,,,,,,,,,,,,,,,,,,,,,,,,,,,,,,,,,,,,,,,,,,,,,,,,,,,,,,,,
1768295500.319933,1768295500.320696,6.000000,0.000000,4325.000000,4325.512695,4330.128418,4339.487305,4302.179688,4308.077148,4304.615234,4317.820313,4324.358887,4308.333496,4504.358887,4530.256348,4418.589844,4474.615234,3532.000000,2.000000,38.000000,,,,0.000000,4.000000,4.000000,4.000000,4.000000,4.000000,4.000000,4.000000,4.000000,4.000000,4.000000,4.000000,4.000000,4.000000,4.000000,100.000000,,,,,,,,,,,,,,,,,,,,,,,,,,,,,,,,,,,,,,,,,,,,,,,,,,,,,,,,,,,,,,,,,,,,,,,,,,,,,,,,,,,,,,,,,,,,,,,,,,,,,,,,,,,,,,,,,,,,,
1768295500.327741,1768295500.328504,7.000000,0.000000,4332.692383,4327.563965,4340.641113,4338.974121,4303.589844,4306.025879,4301.666504,4319.358887,4326.153809,4304.487305,4505.641113,4537.948730,4419.487305,4485.384766,3410.000000,2.000000,38.000000,,,,0.000000,4.000000,4.000000,4.000000,4.000000,4.000000,4.000000,4.000000,4.000000,4.000000,4.000000,4.000000,4.000000,4.000000,4.000000,100.000000,,,,,,,,,,,,,,,,,,,,,,,,,,,,,,,,,,,,,,,,,,,,,,,,,,,,,,,,,,,,,,,,,,,,,,,,,,,,,,,,,,,,,,,,,,,,,,,,,,,,,,,,,,,,,,,,,,,,,
1768295500.335550,1768295500.336512,8.000000,0.000000,4340.384766,4322.948730,4349.871582,4346.922852,4303.974121,4308.589844,4302.948730,4330.256348,4326.666504,4308.077148,4504.743652,4545.897461,4421.538574,4490.897461,2287.000000,2.000000,38.000000,,,,0.000000,4.000000,4.000000,4.000000,4.000000,4.000000,4.000000,4.000000,4.000000,4.000000,4.000000,4.000000,4.000000,4.000000,4.000000,100.000000,,,,,,,,,,,,,,,,,,,,,,,,,,,,,,,,,,,,,,,,,,,,,,,,,,,,,,,,,,,,,,,,,,,,,,,,,,,,,,,,,,,,,,,,,,,,,,,,,,,,,,,,,,,,,,,,,,,,,
1768295500.343358,1768295500.344321,9.000000,0.000000,4339.743652,4322.051270,4350.384766,4350.512695,4304.358887,4309.102539,4303.461426,4321.410156,4322.692383,4305.128418,4500.384766,4542.436035,4416.153809,4482.948730,3613.000000,2.000000,38.000000,,,,0.000000,4.000000,4.000000,4.000000,4.000000,4.000000,4.000000,4.000000,4.000000,4.000000,4.000000,4.000000,4.000000,4.000000,4.000000,100.000000,,,,,,,,,,,,,,,,,,,,,,,,,,,,,,,,,,,,,,,,,,,,,,,,,,,,,,,,,,,,,,,,,,,,,,,,,,,,,,,,,,,,,,,,,,,,,,,,,,,,,,,,,,,,,,,,,,,,,
1768295500.351167,1768295500.352229,10.000000,0.000000,4338.461426,4326.538574,4348.333496,4349.230957,4304.487305,4308.205078,4301.538574,4314.358887,4322.307617,4301.538574,4500.384766,4539.615234,4413.205078,4479.358887,3635.000000,2.000000,38.000000,,,,0.000000,4.000000,4.000000,4.000000,4.000000,4.000000,4.000000,4.000000,4.000000,4.000000,4.000000,4.000000,4.000000,4.000000,4.000000,100.000000,,,,,,,,,,,,,,,,,,,,,,,,,,,,,,,,,,,,,,,,,,,,,,,,,,,,,,,,,,,,,,,,,,,,,,,,,,,,,,,,,,,,,,,,,,,,,,,,,,,,,,,,,,,,,,,,,,,,,
1768295500.358975,1768295500.360038,11.000000,0.000000,4339.871582,4326.410156,4349.743652,4350.512695,4305.256348,4311.538574,4303.846191,4326.538574,4326.538574,4306.153809,4505.769043,4544.230957,4418.077148,4482.179688,4684.000000,2.000000,38.000000,,,,0.000000,4.000000,4.000000,4.000000,4.000000,4.000000,4.000000,4.000000,4.000000,4.000000,4.000000,4.000000,4.000000,4.000000,4.000000,100.000000,,,,,,,,,,,,,,,,,,,,,,,,,,,,,,,,,,,,,,,,,,,,,,,,,,,,,,,,,,,,,,,,,,,,,,,,,,,,,,,,,,,,,,,,,,,,,,,,,,,,,,,,,,,,,,,,,,,,,
1768295500.366783,1768295500.367646,12.000000,0.000000,4340.384766,4326.922852,4351.282227,4352.307617,4306.153809,4311.025879,4306.922852,4334.358887,4327.948730,4308.077148,4506.025879,4549.743652,4423.333496,4485.000000,2261.000000,2.000000,38.000000,,,,0.000000,4.000000,4.000000,4.000000,4.000000,4.000000,4.000000,4.000000,4.000000,4.000000,4.000000,4.000000,4.000000,4.000000,4.000000,100.000000,,,,,,,,,,,,,,,,,,,,,,,,,,,,,,,,,,,,,,,,,,,,,,,,,,,,,,,,,,,,,,,,,,,,,,,,,,,,,,,,,,,,,,,,,,,,,,,,,,,,,,,,,,,,,,,,,,,,,
1768295500.374592,1768295500.375455,13.000000,0.000000,4340.512695,4329.230957,4356.282227,4354.358887,4307.692383,4307.692383,4309.487305,4329.871582,4325.769043,4302.563965,4502.948730,4555.641113,4423.589844,4487.436035,5419.000000,2.000000,38.000000,,,,0.000000,4.000000,4.000000,4.000000,4.000000,4.000000,4.000000,4.000000,4.000000,4.000000,4.000000,4.000000,4.000000,4.000000,4.000000,100.000000,,,,,,,,,,,,,,,,,,,,,,,,,,,,,,,,,,,,,,,,,,,,,,,,,,,,,,,,,,,,,,,,,,,,,,,,,,,,,,,,,,,,,,,,,,,,,,,,,,,,,,,,,,,,,,,,,,,,,
1768295500.382400,1768295500.383263,14.000000,0.000000,4340.256348,4323.205078,4361.538574,4354.230957,4306.153809,4308.846191,4313.589844,4329.358887,4323.974121,4299.102539,4504.102539,4557.820313,4420.000000,4488.846191,3635.000000,2.000000,38.000000,,,,0.000000,4.000000,4.000000,4.000000,4.000000,4.000000,4.000000,4.000000,4.000000,4.000000,4.000000,4.000000,4.000000,4.000000,4.000000,100.000000,1.000000,25.000000,4.000000,4.000000,4.000000,4.000000,4.000000,1.000000,4.000000,4.000000,1.000000,4.000000,1.000000,4.000000,4.000000,4.000000,,,,,,,,,,,,,,,,,,,,,,,,,,,,,,,,0.930555,0.631760,0.379628,0.368076,0.210885,1.450342,0.312009,0.282803,0.179122,0.167883,1.033216,0.302591,0.404848,0.290307,0.150433,0.862303,0.416232,0.195276,0.183131,0.090475,0.469505,0.420443,0.124364,0.065717,0.084667,0.272776,0.261463,0.185425,0.081288,0.079110,0.340660,0.800567,0.563206,0.423663,0.299048,0.409686,0.461339,0.447183,0.247531,0.216532,0.105343,0.104528,0.114157,0.132562,0.040720,0.287274,0.495260,0.576499,0.531377,0.318208,0.240687,0.092858,0.169243,0.103173,0.076662,1.516492,0.587142,1.006821,0.444552,0.201663,1.088157,0.604853,0.412114,0.280619,0.205765,1.677104,0.563075,0.933399,0.278630,0.299177
1768295500.390209,1768295500.391072,15.000000,0.000000,4338.461426,4314.230957,4357.563965,4347.436035,4303.589844,4312.307617,4311.794922,4332.820313,4324.102539,4297.563965,4503.974121,4548.461426,4415.769043,4483.974121,4684.000000,2.000000,38.000000,,,,0.000000,4.000000,4.000000,4.000000,4.000000,4.000000,4.000000,4.000000,4.000000,4.000000,4.000000,4.000000,4.000000,4.000000,4.000000,100.000000,,,,,,,,,,,,,,,,,,,,,,,,,,,,,,,,,,,,,,,,,,,,,,,,,,,,,,,,,,,,,,,,,,,,,,,,,,,,,,,,,,,,,,,,,,,,,,,,,,,,,,,,,,,,,,,,,,,,,
1768295500.398017,1768295500.398680,16.000000,0.000000,4335.256348,4312.051270,4347.563965,4342.820313,4304.871582,4308.205078,4305.128418,4329.487305,4323.589844,4295.000000,4498.461426,4535.897461,4414.871582,4471.666504,0.000000,2.000000,38.000000,,,,0.000000,4.000000,4.000000,4.000000,4.000000,4.000000,4.000000,4.000000,4.000000,4.000000,4.000000,4.000000,4.000000,4.000000,4.000000,100.000000,,,,,,,,,,,,,,,,,,,,,,,,,,,,,,,,,,,,,,,,,,,,,,,,,,,,,,,,,,,,,,,,,,,,,,,,,,,,,,,,,,,,,,,,,,,,,,,,,,,,,,,,,,,,,,,,,,,,,
1768295500.405826,1768295500.406489,17.000000,0.000000,4329.102539,4311.153809,4343.333496,4343.717773,4303.846191,4300.384766,4304.230957,4326.922852,4321.282227,4293.589844,4498.205078,4535.641113,4416.538574,4467.820313,0.000000,2.000000,38.000000,,,,0.000000,4.000000,4.000000,4.000000,4.000000,4.000000,4.000000,4.000000,4.000000,4.000000,4.000000,4.000000,4.000000,4.000000,4.000000,100.000000,,,,,,,,,,,,,,,,,,,,,,,,,,,,,,,,,,,,,,,,,,,,,,,,,,,,,,,,,,,,,,,,,,,,,,,,,,,,,,,,,,,,,,,,,,,,,,,,,,,,,,,,,,,,,,,,,,,,,
1768295500.413634,1768295500.414197,18.000000,0.000000,4330.641113,4310.512695,4346.025879,4343.205078,4300.256348,4302.179688,4305.641113,4328.333496,4319.487305,4294.230957,4501.922852,4540.000000,4417.948730,4476.410156,0.000000,2.000000,38.000000,,,,0.000000,4.000000,4.000000,4.000000,4.000000,4.000000,4.000000,4.000000,4.000000,4.000000,4.000000,4.000000,4.000000,4.000000,4.000000,100.000000,,,,,,,,,,,,,,,,,,,,,,,,,,,,,,,,,,,,,,,,,,,,,,,,,,,,,,,,,,,,,,,,,,,,,,,,,,,,,,,,,,,,,,,,,,,,,,,,,,,,,,,,,,,,,,,,,,,,,
1768295500.421442,1768295500.422006,19.000000,0.000000,4338.205078,4313.077148,4350.128418,4343.205078,4301.538574,4309.743652,4305.128418,4325.641113,4319.871582,4298.461426,4501.025879,4541.025879,4420.000000,4483.461426,0.000000,2.000000,38.000000,,,,0.000000,4.000000,4.000000,4.000000,4.000000,4.000000,4.000000,4.000000,4.000000,4.000000,4.000000,4.000000,4.000000,4.000000,4.000000,100.000000,,,,,,,,,,,,,,,,,,,,,,,,,,,,,,,,,,,,,,,,,,,,,,,,,,,,,,,,,,,,,,,,,,,,,,,,,,,,,,,,,,,,,,,,,,,,,,,,,,,,,,,,,,,,,,,,,,,,,
1768295500.429251,1768295500.429614,20.000000,0.000000,4335.641113,4312.692383,4348.846191,4346.922852,4304.230957,4310.897461,4308.717773,4325.769043,4322.692383,4302.563965,4500.512695,4543.589844,4422.307617,4482.692383,0.000000,2.000000,38.000000,,,,0.000000,4.000000,4.000000,4.000000,4.000000,4.000000,4.000000,4.000000,4.000000,4.000000,4.000000,4.000000,4.000000,4.000000,4.000000,100.000000,,,,,,,,,,,,,,,,,,,,,,,,,,,,,,,,,,,,,,,,,,,,,,,,,,,,,,,,,,,,,,,,,,,,,,,,,,,,,,,,,,,,,,,,,,,,,,,,,,,,,,,,,,,,,,,,,,,,,
1768295500.437059,1768295500.437423,21.000000,0.000000,4330.512695,4314.102539,4340.128418,4348.717773,4302.563965,4308.205078,4309.358887,4325.769043,4323.846191,4302.051270,4500.384766,4540.897461,4423.589844,4479.102539,0.000000,2.000000,38.000000,,,,0.000000,4.000000,4.000000,4.000000,4.000000,4.000000,4.000000,4.000000,4.000000,4.000000,4.000000,4.000000,4.000000,4.000000,4.000000,100.000000,,,,,,,,,,,,,,,,,,,,,,,,,,,,,,,,,,,,,,,,,,,,,,,,,,,,,,,,,,,,,,,,,,,,,,,,,,,,,,,,,,,,,,,,,,,,,,,,,,,,,,,,,,,,,,,,,,,,,
1768295500.444867,1768295500.445331,22.000000,0.000000,4332.820313,4318.974121,4340.000000,4346.922852,4304.871582,4310.384766,4309.615234,4321.282227,4322.436035,4301.410156,4500.000000,4538.077148,4423.589844,4476.538574,0.000000,2.000000,38.000000,,,,0.000000,4.000000,4.000000,4.000000,4.000000,4.000000,4.000000,4.000000,4.000000,4.000000,4.000000,4.000000,4.000000,4.000000,4.000000,100.000000,,,,,,,,,,,,,,,,,,,,,,,,,,,,,,,,,,,,,,,,,,,,,,,,,,,,,,,,,,,,,,,,,,,,,,,,,,,,,,,,,,,,,,,,,,,,,,,,,,,,,,,,,,,,,,,,,,,,,
1768295500.452676,1768295500.453140,23.000000,0.000000,4334.230957,4319.487305,4350.000000,4345.769043,4309.487305,4309.871582,4310.128418,4325.897461,4323.461426,4297.692383,4502.948730,4544.871582,4425.256348,4481.538574,0.000000,2.000000,38.000000,,,,0.000000,4.000000,4.000000,4.000000,4.000000,4.000000,4.000000,4.000000,4.000000,4.000000,4.000000,4.000000,4.000000,4.000000,4.000000,100.000000,,,,,,,,,,,,,,,,,,,,,,,,,,,,,,,,,,,,,,,,,,,,,,,,,,,,,,,,,,,,,,,,,,,,,,,,,,,,,,,,,,,,,,,,,,,,,,,,,,,,,,,,,,,,,,,,,,,,,
1768295500.460484,1768295500.460748,24.000000,0.000000,4330.641113,4321.282227,4350.641113,4346.794922,4310.256348,4304.230957,4301.666504,4329.743652,4323.461426,4293.461426,4501.282227,4544.487305,4424.358887,4485.128418,0.000000,2.000000,38.000000,,,,0.000000,4.000000,4.000000,4.000000,4.000000,4.000000,4.000000,4.000000,4.000000,4.000000,4.000000,4.000000,4.000000,4.000000,4.000000,100.000000,,,,,,,,,,,,,,,,,,,,,,,,,,,,,,,,,,,,,,,,,,,,,,,,,,,,,,,,,,,,,,,,,,,,,,,,,,,,,,,,,,,,,,,,,,,,,,,,,,,,,,,,,,,,,,,,,,,,,
1768295500.468293,1768295500.468557,25.000000,0.000000,4329.230957,4326.538574,4344.102539,4347.436035,4311.282227,4308.077148,4301.794922,4320.512695,4321.153809,4295.641113,4498.461426,4536.153809,4420.000000,4478.077148,0.000000,2.000000,38.000000,,,,0.000000,4.000000,4.000000,4.000000,4.000000,4.000000,4.000000,4.000000,4.000000,4.000000,4.000000,4.000000,4.000000,4.000000,4.000000,100.000000,,,,,,,,,,,,,,,,,,,,,,,,,,,,,,,,,,,,,,,,,,,,,,,,,,,,,,,,,,,,,,,,,,,,,,,,,,,,,,,,,,,,,,,,,,,,,,,,,,,,,,,,,,,,,,,,,,,,,
1768295500.476101,1768295500.476265,26.000000,0.000000,4327.179688,4326.153809,4339.743652,4343.461426,4309.615234,4307.563965,4309.102539,4315.256348,4321.794922,4297.820313,4500.000000,4533.974121,4418.974121,4471.794922,0.000000,2.000000,38.000000,,,,0.000000,4.000000,4.000000,4.000000,4.000000,4.000000,4.000000,4.000000,4.000000,4.000000,4.000000,4.000000,4.000000,4.000000,4.000000,100.000000,,,,,,,,,,,,,,,,,,,,,,,,,,,,,,,,,,,,,,,,,,,,,,,,,,,,,,,,,,,,,,,,,,,,,,,,,,,,,,,,,,,,,,,,,,,,,,,,,,,,,,,,,,,,,,,,,,,,,
1768295500.483910,1768295500.484074,27.000000,0.000000,4323.077148,4321.025879,4340.128418,4340.128418,4307.051270,4298.333496,4305.384766,4325.641113,4323.333496,4296.794922,4500.897461,4533.461426,4416.666504,4470.641113,0.000000,2.000000,38.000000,,,,0.000000,4.000000,4.000000,4.000000,4.000000,4.000000,4.000000,4.000000,4.000000,4.000000,4.000000,4.000000,4.000000,4.000000,4.000000,100.000000,,,,,,,,,,,,,,,,,,,,,,,,,,,,,,,,,,,,,,,,,,,,,,,,,,,,,,,,,,,,,,,,,,,,,,,,,,,,,,,,,,,,,,,,,,,,,,,,,,,,,,,,,,,,,,,,,,,,,
1768295500.491718,1768295500.491682,28.000000,0.000000,4324.743652,4320.000000,4343.589844,4343.974121,4307.051270,4303.077148,4304.230957,4334.487305,4323.077148,4297.307617,4500.512695,4533.846191,4413.333496,4470.128418,0.000000,2.000000,38.000000,,,,0.000000,4.000000,4.000000,4.000000,4.000000,4.000000,4.000000,4.000000,4.000000,4.000000,4.000000,4.000000,4.000000,4.000000,4.000000,100.000000,,,,,,,,,,,,,,,,,,,,,,,,,,,,,,,,,,,,,,,,,,,,,,,,,,,,,,,,,,,,,,,,,,,,,,,,,,,,,,,,,,,,,,,,,,,,,,,,,,,,,,,,,,,,,,,,,,,,,
1768295500.499526,1768295500.499491,29.000000,0.000000,4328.589844,4323.077148,4344.487305,4347.820313,4305.641113,4308.717773,4309.487305,4321.922852,4320.512695,4295.128418,4498.205078,4533.589844,4414.871582,4469.230957,0.000000,2.000000,38.000000,,,,0.000000,4.000000,4.000000,4.000000,4.000000,4.000000,4.000000,4.000000,4.000000,4.000000,4.000000,4.000000,4.000000,4.000000,4.000000,100.000000,,,,,,,,,,,,,,,,,,,,,,,,,,,,,,,,,,,,,,,,,,,,,,,,,,,,,,,,,,,,,,,,,,,,,,,,,,,,,,,,,,,,,,,,,,,,,,,,,,,,,,,,,,,,,,,,,,,,,
1768295500.507335,1768295500.507399,30.000000,0.000000,4328.974121,4322.051270,4341.282227,4345.512695,4305.128418,4300.897461,4306.538574,4312.436035,4320.256348,4289.871582,4498.077148,4530.256348,4414.615234,4468.205078,0.000000,2.000000,38.000000,,,,0.000000,4.000000,4.000000,4.000000,4.000000,4.000000,4.000000,4.000000,4.000000,4.000000,4.000000,4.000000,4.000000,4.000000,4.000000,100.000000,,,,,,,,,,,,,,,,,,,,,,,,,,,,,,,,,,,,,,,,,,,,,,,,0.928642,0.673318,0.383187,0.374266,0.203903,1.324925,0.285062,0.218711,0.177508,0.162260,1.011297,0.280021,0.358047,0.276150,0.164808,0.854113,0.436010,0.173615,0.175877,0.090428,0.453685,0.438254,0.131169,0.064284,0.091424,0.276414,0.268171,0.231031,0.089457,0.092027,0.368464,0.893158,0.673756,0.450460,0.352098,0.470238,0.474541,0.481929,0.258069,0.217507,0.113600,0.111421,0.108072,0.127654,0.037425,0.320067,0.582588,0.646879,0.637984,0.384175,0.238477,0.094306,0.168365,0.095323,0.078059,1.444051,0.687584,1.021076,0.438813,0.212447,1.015856,0.707512,0.432773,0.261684,0.207734,1.735486,0.670473,0.933976,0.275544,0.294396
1768295500.515143,1768295500.515208,31.000000,0.000000,4323.589844,4316.794922,4338.077148,4340.641113,4308.205078,4300.641113,4305.769043,4323.077148,4323.077148,4289.871582,4500.897461,4532.051270,4412.820313,4469.230957,0.000000,2.000000,38.000000,,,,0.000000,4.000000,4.000000,4.000000,4.000000,4.000000,4.000000,4.000000,4.000000,4.000000,4.000000,4.000000,4.000000,4.000000,4.000000,100.000000,,,,,,,,,,,,,,,,,,,,,,,,,,,,,,,,,,,,,,,,,,,,,,,,,,,,,,,,,,,,,,,,,,,,,,,,,,,,,,,,,,,,,,,,,,,,,,,,,,,,,,,,,,,,,,,,,,,,,
1768295500.522952,1768295500.523216,32.000000,0.000000,4320.128418,4314.102539,4340.128418,4340.384766,4307.948730,4307.948730,4312.179688,4326.794922,4320.769043,4292.051270,4496.922852,4532.307617,4411.794922,4466.538574,0.000000,2.000000,38.000000,,,,0.000000,4.000000,4.000000,4.000000,4.000000,4.000000,4.000000,4.000000,4.000000,4.000000,4.000000,4.000000,4.000000,4.000000,4.000000,100.000000,,,,,,,,,,,,,,,,,,,,,,,,,,,,,,,,,,,,,,,,,,,,,,,,,,,,,,,,,,,,,,,,,,,,,,,,,,,,,,,,,,,,,,,,,,,,,,,,,,,,,,,,,,,,,,,,,,,,,
1768295500.530760,1768295500.531024,33.000000,0.000000,4321.153809,4315.769043,4339.487305,4341.538574,4302.563965,4306.794922,4307.820313,4317.307617,4315.128418,4287.307617,4491.794922,4523.333496,4410.000000,4457.692383,0.000000,2.000000,38.000000,,,,0.000000,4.000000,4.000000,4.000000,4.000000,4.000000,4.000000,4.000000,4.000000,4.000000,4.000000,4.000000,4.000000,4.000000,4.000000,100.000000,,,,,,,,,,,,,,,,,,,,,,,,,,,,,,,,,,,,,,,,,,,,,,,,,,,,,,,,,,,,,,,,,,,,,,,,,,,,,,,,,,,,,,,,,,,,,,,,,,,,,,,,,,,,,,,,,,,,,
1768295500.538569,1768295500.538933,34.000000,0.000000,4323.205078,4318.717773,4337.179688,4344.615234,4305.256348,4304.743652,4302.436035,4314.487305,4316.410156,4285.512695,4494.230957,4521.410156,4411.538574,4456.922852,0.000000,2.000000,38.000000,,,,0.000000,4.000000,4.000000,4.000000,4.000000,4.000000,4.000000,4.000000,4.000000,4.000000,4.000000,4.000000,4.000000,4.000000,4.000000,100.000000,,,,,,,,,,,,,,,,,,,,,,,,,,,,,,,,,,,,,,,,,,,,,,,,,,,,,,,,,,,,,,,,,,,,,,,,,,,,,,,,,,,,,,,,,,,,,,,,,,,,,,,,,,,,,,,,,,,,,
1768295500.546377,1768295500.546741,35.000000,0.000000,4326.922852,4323.333496,4341.922852,4348.461426,4313.333496,4306.922852,4304.487305,4322.563965,4323.589844,4292.948730,4498.205078,4530.000000,4413.205078,4467.692383,0.000000,2.000000,38.000000,,,,0.000000,4.000000,4.000000,4.000000,4.000000,4.000000,4.000000,4.000000,4.000000,4.000000,4.000000,4.000000,4.000000,4.000000,4.000000,100.000000,,,,,,,,,,,,,,,,,,,,,,,,,,,,,,,,,,,,,,,,,,,,,,,,,,,,,,,,,,,,,,,,,,,,,,,,,,,,,,,,,,,,,,,,,,,,,,,,,,,,,,,,,,,,,,,,,,,,,
1768295500.554186,1768295500.554749,36.000000,0.000000,4328.974121,4325.769043,4344.230957,4347.820313,4310.256348,4301.794922,4297.436035,4321.922852,4324.487305,4296.922852,4499.871582,4531.410156,4415.128418,4471.666504,0.000000,2.000000,38.000000,,,,0.000000,4.000000,4.000000,4.000000,4.000000,4.000000,4.000000,4.000000,4.000000,4.000000,4.000000,4.000000,4.000000,4.000000,4.000000,100.000000,,,,,,,,,,,,,,,,,,,,,,,,,,,,,,,,,,,,,,,,,,,,,,,,,,,,,,,,,,,,,,,,,,,,,,,,,,,,,,,,,,,,,,,,,,,,,,,,,,,,,,,,,,,,,,,,,,,,,
1768295500.561994,1768295500.562558,37.000000,0.000000,4327.692383,4323.846191,4341.153809,4348.717773,4306.153809,4299.358887,4291.282227,4311.153809,4318.077148,4295.000000,4499.358887,4525.384766,4415.641113,4466.922852,0.000000,2.000000,38.000000,,,,0.000000,4.000000,4.000000,4.000000,4.000000,4.000000,4.000000,4.000000,4.000000,4.000000,4.000000,4.000000,4.000000,4.000000,4.000000,100.000000,,,,,,,,,,,,,,,,,,,,,,,,,,,,,,,,,,,,,,,,,,,,,,,,,,,,,,,,,,,,,,,,,,,,,,,,,,,,,,,,,,,,,,,,,,,,,,,,,,,,,,,,,,,,,,,,,,,,,
1768295500.569802,1768295500.570266,38.000000,0.000000,4326.410156,4323.333496,4342.563965,4353.205078,4313.077148,4309.615234,4307.692383,4313.589844,4319.615234,4294.230957,4498.589844,4527.563965,4409.743652,4463.461426,0.000000,2.000000,38.000000,,,,0.000000,4.000000,4.000000,4.000000,4.000000,4.000000,4.000000,4.000000,4.000000,4.000000,4.000000,4.000000,4.000000,4.000000,4.000000,100.000000,,,,,,,,,,,,,,,,,,,,,,,,,,,,,,,,,,,,,,,,,,,,,,,,,,,,,,,,,,,,,,,,,,,,,,,,,,,,,,,,,,,,,,,,,,,,,,,,,,,,,,,,,,,,,,,,,,,,,
1768295500.577611,1768295500.578075,39.000000,0.000000,4326.153809,4324.487305,4345.512695,4350.384766,4314.230957,4310.769043,4315.128418,4323.077148,4325.000000,4295.897461,4499.871582,4532.563965,4409.358887,4464.358887,0.000000,2.000000,38.000000,,,,0.000000,4.000000,4.000000,4.000000,4.000000,4.000000,4.000000,4.000000,4.000000,4.000000,4.000000,4.000000,4.000000,4.000000,4.000000,100.000000,,,,,,,,,,,,,,,,,,,,,,,,,,,,,,,,,,,,,,,,,,,,,,,,,,,,,,,,,,,,,,,,,,,,,,,,,,,,,,,,,,,,,,,,,,,,,,,,,,,,,,,,,,,,,,,,,,,,,
1768295500.585419,1768295500.586083,40.000000,0.000000,4326.153809,4322.692383,4345.384766,4346.282227,4307.436035,4299.743652,4300.512695,4324.230957,4324.743652,4298.846191,4500.897461,4531.410156,4418.205078,4470.384766,0.000000,2.000000,38.000000,,,,0.000000,4.000000,4.000000,4.000000,4.000000,4.000000,4.000000,4.000000,4.000000,4.000000,4.000000,4.000000,4.000000,4.000000,4.000000,100.000000,,,,,,,,,,,,,,,,,,,,,,,,,,,,,,,,,,,,,,,,,,,,,,,,,,,,,,,,,,,,,,,,,,,,,,,,,,,,,,,,,,,,,,,,,,,,,,,,,,,,,,,,,,,,,,,,,,,,,
1768295500.593228,1768295500.593891,41.000000,0.000000,4328.717773,4319.358887,4349.230957,4350.897461,4309.615234,4301.538574,4299.102539,4324.615234,4324.230957,4298.717773,4500.897461,4533.589844,4426.410156,4478.461426,0.000000,2.000000,38.000000,,,,0.000000,4.000000,4.000000,4.000000,4.000000,4.000000,4.000000,4.000000,4.000000,4.000000,4.000000,4.000000,4.000000,4.000000,4.000000,100.000000,,,,,,,,,,,,,,,,,,,,,,,,,,,,,,,,,,,,,,,,,,,,,,,,,,,,,,,,,,,,,,,,,,,,,,,,,,,,,,,,,,,,,,,,,,,,,,,,,,,,,,,,,,,,,,,,,,,,,
1768295500.601036,1768295500.601600,42.000000,0.000000,4331.282227,4319.230957,4352.307617,4352.436035,4318.077148,4310.897461,4307.820313,4323.717773,4324.230957,4295.256348,4498.717773,4540.769043,4429.230957,4484.230957,0.000000,2.000000,38.000000,,,,0.000000,4.000000,4.000000,4.000000,4.000000,4.000000,4.000000,4.000000,4.000000,4.000000,4.000000,4.000000,4.000000,4.000000,4.000000,100.000000,,,,,,,,,,,,,,,,,,,,,,,,,,,,,,,,,,,,,,,,,,,,,,,,,,,,,,,,,,,,,,,,,,,,,,,,,,,,,,,,,,,,,,,,,,,,,,,,,,,,,,,,,,,,,,,,,,,,,
1768295500.608844,1768295500.609408,43.000000,0.000000,4325.897461,4314.487305,4344.871582,4343.846191,4316.922852,4306.153809,4303.077148,4321.153809,4321.922852,4293.974121,4499.358887,4542.051270,4429.230957,4486.922852,0.000000,2.000000,38.000000,,,,0.000000,4.000000,4.000000,4.000000,4.000000,4.000000,4.000000,4.000000,4.000000,4.000000,4.000000,4.000000,4.000000,4.000000,4.000000,100.000000,,,,,,,,,,,,,,,,,,,,,,,,,,,,,,,,,,,,,,,,,,,,,,,,,,,,,,,,,,,,,,,,,,,,,,,,,,,,,,,,,,,,,,,,,,,,,,,,,,,,,,,,,,,,,,,,,,,,,
1768295500.616653,1768295500.617017,44.000000,0.000000,4320.512695,4308.077148,4340.384766,4338.205078,4311.282227,4303.333496,4300.128418,4320.384766,4320.769043,4294.871582,4502.051270,4537.179688,4425.512695,4484.487305,0.000000,2.000000,38.000000,,,,0.000000,4.000000,4.000000,4.000000,4.000000,4.000000,4.000000,4.000000,4.000000,4.000000,4.000000,4.000000,4.000000,4.000000,4.000000,100.000000,,,,,,,,,,,,,,,,,,,,,,,,,,,,,,,,,,,,,,,,,,,,,,,,,,,,,,,,,,,,,,,,,,,,,,,,,,,,,,,,,,,,,,,,,,,,,,,,,,,,,,,,,,,,,,,,,,,,,
1768295500.624461,1768295500.624826,45.000000,0.000000,4327.563965,4308.077148,4346.153809,4341.410156,4312.948730,4310.769043,4306.410156,4316.794922,4324.230957,4293.717773,4500.512695,4536.538574,4421.922852,4482.948730,0.000000,2.000000,38.000000,,,,0.000000,4.000000,4.000000,4.000000,4.000000,4.000000,4.000000,4.000000,4.000000,4.000000,4.000000,4.000000,4.000000,4.000000,4.000000,100.000000,,,,,,,,,,,,,,,,,,,,,,,,,,,,,,,,,,,,,,,,,,,,,,,,,,,,,,,,,,,,,,,,,,,,,,,,,,,,,,,,,,,,,,,,,,,,,,,,,,,,,,,,,,,,,,,,,,,,,
1768295500.632270,1768295500.632534,46.000000,0.000000,4328.846191,4306.153809,4348.077148,4341.025879,4312.179688,4309.615234,4304.871582,4320.256348,4326.282227,4289.743652,4497.563965,4539.615234,4418.846191,4483.077148,0.000000,2.000000,38.000000,,,,0.000000,4.000000,4.000000,4.000000,4.000000,4.000000,4.000000,4.000000,4.000000,4.000000,4.000000,4.000000,4.000000,4.000000,4.000000,100.000000,,,,,,,,,,,,,,,,,,,,,,,,,,,,,,,,,,,,,,,,,,,,,,,,0.917862,0.700644,0.395695,0.387703,0.192942,1.127498,0.283376,0.193210,0.190993,0.157859,0.991097,0.259800,0.314829,0.277222,0.190025,0.808924,0.412507,0.170773,0.177502,0.094015,0.424004,0.413768,0.135291,0.068331,0.095755,0.280129,0.263113,0.274445,0.099862,0.108615,0.395550,0.943320,0.738878,0.467567,0.399298,0.526194,0.510066,0.487647,0.274661,0.209035,0.125681,0.115801,0.104162,0.125926,0.033986,0.378944,0.649150,0.694927,0.720409,0.422726,0.237321,0.093679,0.163376,0.097131,0.078630,1.391790,0.785724,0.992920,0.471885,0.216788,0.909319,0.790834,0.435728,0.272447,0.201192,1.780575,0.756787,0.877274,0.319219,0.278586
1768295500.640078,1768295500.640343,47.000000,0.000000,4314.871582,4300.769043,4340.769043,4336.666504,4306.922852,4306.153809,4298.333496,4327.692383,4323.333496,4287.051270,4496.794922,4535.769043,4410.641113,4475.512695,0.000000,2.000000,38.000000,,,,0.000000,4.000000,4.000000,4.000000,4.000000,4.000000,4.000000,4.000000,4.000000,4.000000,4.000000,4.000000,4.000000,4.000000,4.000000,100.000000,,,,,,,,,,,,,,,,,,,,,,,,,,,,,,,,,,,,,,,,,,,,,,,,,,,,,,,,,,,,,,,,,,,,,,,,,,,,,,,,,,,,,,,,,,,,,,,,,,,,,,,,,,,,,,,,,,,,,
1768295500.647886,1768295500.648351,48.000000,0.000000,4316.410156,4301.538574,4338.717773,4338.333496,4307.948730,4311.666504,4303.589844,4329.615234,4325.000000,4292.820313,4500.128418,4536.282227,4414.487305,4474.871582,0.000000,2.000000,38.000000,,,,0.000000,4.000000,4.000000,4.000000,4.000000,4.000000,4.000000,4.000000,4.000000,4.000000,4.000000,4.000000,4.000000,4.000000,4.000000,100.000000,,,,,,,,,,,,,,,,,,,,,,,,,,,,,,,,,,,,,,,,,,,,,,,,,,,,,,,,,,,,,,,,,,,,,,,,,,,,,,,,,,,,,,,,,,,,,,,,,,,,,,,,,,,,,,,,,,,,,
1768295500.655695,1768295500.656159,49.000000,0.000000,4337.820313,4312.179688,4352.692383,4347.692383,4314.102539,4316.538574,4314.871582,4328.974121,4334.743652,4311.153809,4507.820313,4551.794922,4431.282227,4495.384766,0.000000,2.000000,38.000000,,,,0.000000,4.000000,4.000000,4.000000,4.000000,4.000000,4.000000,4.000000,4.000000,4.000000,4.000000,4.000000,4.000000,4.000000,4.000000,100.000000,,,,,,,,,,,,,,,,,,,,,,,,,,,,,,,,,,,,,,,,,,,,,,,,,,,,,,,,,,,,,,,,,,,,,,,,,,,,,,,,,,,,,,,,,,,,,,,,,,,,,,,,,,,,,,,,,,,,,
1768295500.663503,1768295500.663868,50.000000,0.000000,4346.794922,4321.922852,4364.871582,4354.871582,4316.282227,4314.743652,4315.897461,4332.692383,4335.384766,4319.743652,4511.922852,4563.333496,4437.179688,4510.512695,0.000000,2.000000,38.000000,,,,0.000000,4.000000,4.000000,4.000000,4.000000,4.000000,4.000000,4.000000,4.000000,4.000000,4.000000,4.000000,4.000000,4.000000,4.000000,100.000000,,,,,,,,,,,,,,,,,,,,,,,,,,,,,,,,,,,,,,,,,,,,,,,,,,,,,,,,,,,,,,,,,,,,,,,,,,,,,,,,,,,,,,,,,,,,,,,,,,,,,,,,,,,,,,,,,,,,,
1768295500.671312,1768295500.671676,51.000000,0.000000,4344.487305,4319.871582,4361.922852,4352.948730,4312.948730,4309.615234,4305.512695,4330.769043,4326.410156,4306.666504,4509.102539,4555.384766,4428.974121,4503.205078,0.000000,2.000000,38.000000,,,,0.000000,4.000000,4.000000,4.000000,4.000000,4.000000,4.000000,4.000000,4.000000,4.000000,4.000000,4.000000,4.000000,4.000000,4.000000,100.000000,,,,,,,,,,,,,,,,,,,,,,,,,,,,,,,,,,,,,,,,,,,,,,,,,,,,,,,,,,,,,,,,,,,,,,,,,,,,,,,,,,,,,,,,,,,,,,,,,,,,,,,,,,,,,,,,,,,,,
1768295500.679120,1768295500.679285,52.000000,0.000000,4342.820313,4310.769043,4355.128418,4348.205078,4308.846191,4306.282227,4297.307617,4320.512695,4322.051270,4299.358887,4502.179688,4543.974121,4420.000000,4489.871582,0.000000,2.000000,38.000000,,,,0.000000,4.000000,4.000000,4.000000,4.000000,4.000000,4.000000,4.000000,4.000000,4.000000,4.000000,4.000000,4.000000,4.000000,4.000000,100.000000,,,,,,,,,,,,,,,,,,,,,,,,,,,,,,,,,,,,,,,,,,,,,,,,,,,,,,,,,,,,,,,,,,,,,,,,,,,,,,,,,,,,,,,,,,,,,,,,,,,,,,,,,,,,,,,,,,,,,
1768295500.686929,1768295500.687093,53.000000,0.000000,4333.717773,4310.256348,4348.974121,4345.769043,4309.230957,4308.974121,4303.077148,4323.077148,4324.743652,4304.230957,4500.512695,4544.102539,4422.179688,4485.641113,0.000000,2.000000,38.000000,,,,0.000000,4.000000,4.000000,4.000000,4.000000,4.000000,4.000000,4.000000,4.000000,4.000000,4.000000,4.000000,4.000000,4.000000,4.000000,100.000000,,,,,,,,,,,,,,,,,,,,,,,,,,,,,,,,,,,,,,,,,,,,,,,,,,,,,,,,,,,,,,,,,,,,,,,,,,,,,,,,,,,,,,,,,,,,,,,,,,,,,,,,,,,,,,,,,,,,,
1768295500.694737,1768295500.695002,54.000000,0.000000,4329.230957,4312.692383,4346.410156,4346.538574,4309.487305,4313.846191,4309.615234,4330.000000,4325.897461,4299.871582,4503.717773,4543.589844,4426.410156,4485.769043,0.000000,2.000000,38.000000,,,,0.000000,4.000000,4.000000,4.000000,4.000000,4.000000,4.000000,4.000000,4.000000,4.000000,4.000000,4.000000,4.000000,4.000000,4.000000,100.000000,,,,,,,,,,,,,,,,,,,,,,,,,,,,,,,,,,,,,,,,,,,,,,,,,,,,,,,,,,,,,,,,,,,,,,,,,,,,,,,,,,,,,,,,,,,,,,,,,,,,,,,,,,,,,,,,,,,,,
1768295500.702546,1768295500.702810,55.000000,0.000000,4337.051270,4309.230957,4351.025879,4346.922852,4308.205078,4311.538574,4301.922852,4320.512695,4321.153809,4291.410156,4501.153809,4537.179688,4419.487305,4481.666504,0.000000,2.000000,38.000000,,,,0.000000,4.000000,4.000000,4.000000,4.000000,4.000000,4.000000,4.000000,4.000000,4.000000,4.000000,4.000000,4.000000,4.000000,4.000000,100.000000,,,,,,,,,,,,,,,,,,,,,,,,,,,,,,,,,,,,,,,,,,,,,,,,,,,,,,,,,,,,,,,,,,,,,,,,,,,,,,,,,,,,,,,,,,,,,,,,,,,,,,,,,,,,,,,,,,,,,
1768295500.710354,1768295500.710818,56.000000,0.000000,4335.641113,4310.897461,4353.717773,4346.025879,4309.230957,4307.692383,4300.128418,4313.717773,4317.307617,4294.358887,4498.077148,4535.384766,4413.589844,4477.436035,0.000000,2.000000,38.000000,,,,0.000000,4.000000,4.000000,4.000000,4.000000,4.000000,4.000000,4.000000,4.000000,4.000000,4.000000,4.000000,4.000000,4.000000,4.000000,100.000000,,,,,,,,,,,,,,,,,,,,,,,,,,,,,,,,,,,,,,,,,,,,,,,,,,,,,,,,,,,,,,,,,,,,,,,,,,,,,,,,,,,,,,,,,,,,,,,,,,,,,,,,,,,,,,,,,,,,,
1768295500.718162,1768295500.718627,57.000000,0.000000,4324.615234,4310.128418,4348.461426,4342.948730,4310.641113,4311.153809,4306.538574,4323.077148,4319.871582,4295.256348,4497.563965,4536.025879,4415.000000,4477.820313,0.000000,2.000000,38.000000,,,,0.000000,4.000000,4.000000,4.000000,4.000000,4.000000,4.000000,4.000000,4.000000,4.000000,4.000000,4.000000,4.000000,4.000000,4.000000,100.000000,,,,,,,,,,,,,,,,,,,,,,,,,,,,,,,,,,,,,,,,,,,,,,,,,,,,,,,,,,,,,,,,,,,,,,,,,,,,,,,,,,,,,,,,,,,,,,,,,,,,,,,,,,,,,,,,,,,,,
1768295500.725971,1768295500.726535,58.000000,0.000000,4321.025879,4300.384766,4345.128418,4341.025879,4310.128418,4312.051270,4303.974121,4328.717773,4325.641113,4291.666504,4497.179688,4533.461426,4416.153809,4481.794922,0.000000,2.000000,38.000000,,,,0.000000,4.000000,4.000000,4.000000,4.000000,4.000000,4.000000,4.000000,4.000000,4.000000,4.000000,4.000000,4.000000,4.000000,4.000000,100.000000,,,,,,,,,,,,,,,,,,,,,,,,,,,,,,,,,,,,,,,,,,,,,,,,,,,,,,,,,,,,,,,,,,,,,,,,,,,,,,,,,,,,,,,,,,,,,,,,,,,,,,,,,,,,,,,,,,,,,
1768295500.733779,1768295500.734344,59.000000,0.000000,4324.102539,4299.871582,4346.666504,4341.410156,4310.384766,4309.615234,4298.717773,4325.000000,4326.410156,4295.256348,4499.743652,4536.922852,4416.538574,4484.487305,0.000000,2.000000,38.000000,,,,0.000000,4.000000,4.000000,4.000000,4.000000,4.000000,4.000000,4.000000,4.000000,4.000000,4.000000,4.000000,4.000000,4.000000,4.000000,100.000000,,,,,,,,,,,,,,,,,,,,,,,,,,,,,,,,,,,,,,,,,,,,,,,,,,,,,,,,,,,,,,,,,,,,,,,,,,,,,,,,,,,,,,,,,,,,,,,,,,,,,,,,,,,,,,,,,,,,,
