Timestamp,OriginalTimestamp,EEG.Counter,EEG.Interpolated,EEG.AF3,EEG.F7,EEG.F3,EEG.FC5,EEG.T7,EEG.P7,EEG.O1,EEG.O2,EEG.P8,EEG.T8,EEG.FC6,EEG.F4,EEG.F8,EEG.AF4,POW.AF3.Theta,POW.AF3.Alpha,POW.AF3.BetaL,POW.AF3.BetaH,POW.AF3.Gamma,POW.F7.Theta,POW.F7.Alpha,POW.F7.BetaL,POW.F7.BetaH,POW.F7.Gamma,POW.F3.Theta,POW.F3.Alpha,POW.F3.BetaL,POW.F3.BetaH,POW.F3.Gamma,POW.FC5.Theta,POW.FC5.Alpha,POW.FC5.BetaL,POW.FC5.BetaH,POW.FC5.Gamma,POW.T7.Theta,POW.T7.Alpha,POW.T7.BetaL,POW.T7.BetaH,POW.T7.Gamma,POW.P7.Theta,POW.P7.Alpha,POW.P7.BetaL,POW.P7.BetaH,POW.P7.Gamma,POW.O1.Theta,POW.O1.Alpha,POW.O1.BetaL,POW.O1.BetaH,POW.O1.Gamma,POW.O2.Theta,POW.O2.Alpha,POW.O2.BetaL,POW.O2.BetaH,POW.O2.Gamma,POW.P8.Theta,POW.P8.Alpha,POW.P8.BetaL,POW.P8.BetaH,POW.P8.Gamma,POW.T8.Theta,POW.T8.Alpha,POW.T8.BetaL,POW.T8.BetaH,POW.T8.Gamma,POW.FC6.Theta,POW.FC6.Alpha,POW.FC6.BetaL,POW.FC6.BetaH,POW.FC6.Gamma,POW.F4.Theta,POW.F4.Alpha,POW.F4.BetaL,POW.F4.BetaH,POW.F4.Gamma,POW.F8.Theta,POW.F8.Alpha,POW.F8.BetaL,POW.F8.BetaH,POW.F8.Gamma,POW.AF4.Theta,POW.AF4.Alpha,POW.AF4.BetaL,POW.AF4.BetaH,POW.AF4.Gamma
1769163334.809623,1769163334.810118,105.0,0.0,4505.384766,4316.794922,4575.769043,4342.05127,4288.333496,4280.384766,4261.666504,4328.077148,4284.230957,4273.205078,4605.641113,4587.563965,4431.794922,4571.538574,,,,,,,,,,,,,,,,,,,,,,,,,,,,,,,,,,,,,,,,,,,,,,,,,,,,,,,,,,,,,,,,,,,,,,
1769163334.817432,1769163334.817826,106.0,0.0,4506.153809,4323.461426,4583.077148,4345.128418,4294.358887,4280.769043,4259.230957,4326.025879,4288.974121,4283.205078,4611.538574,4595.512695,4442.436035,4573.333496,,,,,,,,,,,,,,,,,,,,,,,,,,,,,,,,,,,,,,,,,,,,,,,,,,,,,,,,,,,,,,,,,,,,,,
1769163334.82524,1769163334.825635,107.0,0.0,4498.717773,4324.230957,4583.846191,4348.205078,4296.666504,4282.179688,4260.641113,4325.384766,4284.230957,4277.307617,4614.743652,4601.922852,4444.487305,4573.333496,,,,,,,,,,,,,,,,,,,,,,,,,,,,,,,,,,,,,,,,,,,,,,,,,,,,,,,,,,,,,,,,,,,,,,
1769163334.833048,1769163334.833243,108.0,0.0,4487.05127,4316.666504,4584.487305,4346.025879,4289.743652,4281.794922,4261.666504,4325.897461,4278.205078,4268.846191,4611.538574,4598.461426,4437.307617,4571.282227,,,,,,,,,,,,,,,,,,,,,,,,,,,,,,,,,,,,,,,,,,,,,,,,,,,,,,,,,,,,,,,,,,,,,,
1769163334.840857,1769163334.841052,109.0,0.0,4493.077148,4321.282227,4594.615234,4350.641113,4289.615234,4279.615234,4256.538574,4326.153809,4283.205078,4276.922852,4613.333496,4598.205078,4441.666504,4581.025879,,,,,,,,,,,,,,,,,,,,,,,,,,,,,,,,,,,,,,,,,,,,,,,,,,,,,,,,,,,,,,,,,,,,,,
1769163334.848665,1769163334.84876,110.0,0.0,4505.0,4333.846191,4603.333496,4359.615234,4291.282227,4276.282227,4255.0,4326.153809,4289.615234,4279.743652,4616.922852,4602.820313,4448.077148,4589.102539,0.406316,0.696663,0.407863,0.222875,0.13341,0.623023,0.307044,0.23228,0.216839,0.084076,0.292277,0.181708,0.250283,0.143036,0.084024,0.365975,0.329318,0.300069,0.1528,0.085932,0.346789,0.131956,0.132782,0.068062,0.047178,0.411301,0.386103,0.160361,0.212077,0.113761,0.164354,0.136902,0.111369,0.126502,0.076944,0.371111,0.276011,0.057946,0.128732,0.078685,0.674935,0.704879,0.07447,0.07592,0.096403,0.895768,0.805976,0.388125,0.228158,0.175977,0.745194,0.522421,0.341974,0.305756,0.140151,0.670712,0.401028,0.219979,0.357199,0.165454,1.115574,0.88967,0.376865,0.258434,0.160506,0.793529,0.933415,0.447386,0.319126,0.160587
1769163334.856474,1769163334.856569,111.0,0.0,4497.307617,4329.487305,4600.0,4355.384766,4284.487305,4277.94873,4264.102539,4325.641113,4288.461426,4267.436035,4612.94873,4600.897461,4441.922852,4576.282227,,,,,,,,,,,,,,,,,,,,,,,,,,,,,,,,,,,,,,,,,,,,,,,,,,,,,,,,,,,,,,,,,,,,,,
1769163334.864282,1769163334.864577,112.0,0.0,4482.05127,4320.0,4596.794922,4347.563965,4283.589844,4287.563965,4268.974121,4327.820313,4289.102539,4267.563965,4611.282227,4597.94873,4439.743652,4569.871582,,,,,,,,,,,,,,,,,,,,,,,,,,,,,,,,,,,,,,,,,,,,,,,,,,,,,,,,,,,,,,,,,,,,,,
1769163334.872091,1769163334.872385,113.0,0.0,4480.512695,4325.641113,4601.153809,4353.846191,4290.512695,4282.307617,4262.436035,4328.846191,4294.230957,4281.410156,4614.871582,4600.641113,4444.358887,4583.846191,,,,,,,,,,,,,,,,,,,,,,,,,,,,,,,,,,,,,,,,,,,,,,,,,,,,,,,,,,,,,,,,,,,,,,
1769163334.879899,1769163334.880294,114.0,0.0,4480.897461,4328.333496,4603.461426,4359.743652,4291.025879,4265.641113,4259.358887,4326.410156,4295.641113,4282.692383,4616.410156,4602.94873,4445.897461,4588.461426,,,,,,,,,,,,,,,,,,,,,,,,,,,,,,,,,,,,,,,,,,,,,,,,,,,,,,,,,,,,,,,,,,,,,,
1769163334.887708,1769163334.888102,115.0,0.0,4474.615234,4325.256348,4605.641113,4357.563965,4288.077148,4267.563965,4262.436035,4325.769043,4294.102539,4276.153809,4616.794922,4600.769043,4447.05127,4583.974121,,,,,,,,,,,,,,,,,,,,,,,,,,,,,,,,,,,,,,,,,,,,,,,,,,,,,,,,,,,,,,,,,,,,,,
1769163334.895516,1769163334.89611,116.0,0.0,4477.436035,4328.205078,4613.974121,4357.05127,4289.871582,4280.512695,4265.641113,4328.461426,4294.487305,4278.205078,4619.487305,4596.922852,4448.846191,4583.461426,,,,,,,,,,,,,,,,,,,,,,,,,,,,,,,,,,,,,,,,,,,,,,,,,,,,,,,,,,,,,,,,,,,,,,
1769163334.903324,1769163334.903919,117.0,0.0,4476.922852,4326.794922,4614.487305,4355.512695,4288.205078,4280.384766,4266.153809,4328.589844,4291.922852,4278.077148,4617.563965,4595.769043,4445.128418,4576.410156,,,,,,,,,,,,,,,,,,,,,,,,,,,,,,,,,,,,,,,,,,,,,,,,,,,,,,,,,,,,,,,,,,,,,,
1769163334.911133,1769163334.911627,118.0,0.0,4466.025879,4323.333496,4607.436035,4352.179688,4286.153809,4276.794922,4264.871582,4326.922852,4288.205078,4272.820313,4614.487305,4596.153809,4442.94873,4566.922852,,,,,,,,,,,,,,,,,,,,,,,,,,,,,,,,,,,,,,,,,,,,,,,,,,,,,,,,,,,,,,,,,,,,,,
1769163334.918941,1769163334.919436,119.0,0.0,4466.153809,4327.94873,4610.512695,4354.615234,4292.692383,4280.0,4267.307617,4326.922852,4292.436035,4275.769043,4622.94873,4601.153809,4450.897461,4571.410156,,,,,,,,,,,,,,,,,,,,,,,,,,,,,,,,,,,,,,,,,,,,,,,,,,,,,,,,,,,,,,,,,,,,,,
1769163334.92675,1769163334.927444,120.0,0.0,4471.794922,4331.922852,4619.102539,4359.230957,4296.538574,4282.179688,4267.692383,4329.230957,4297.179688,4281.794922,4628.333496,4607.820313,4453.589844,4577.94873,,,,,,,,,,,,,,,,,,,,,,,,,,,,,,,,,,,,,,,,,,,,,,,,,,,,,,,,,,,,,,,,,,,,,,
1769163334.934558,1769163334.935252,121.0,0.0,4458.589844,4327.436035,4618.974121,4358.333496,4291.922852,4282.94873,4266.282227,4328.205078,4287.692383,4274.230957,4618.717773,4599.487305,4443.077148,4567.94873,,,,,,,,,,,,,,,,,,,,,,,,,,,,,,,,,,,,,,,,,,,,,,,,,,,,,,,,,,,,,,,,,,,,,,
1769163334.942367,1769163334.943161,122.0,0.0,4444.358887,4324.487305,4612.692383,4354.230957,4289.487305,4282.05127,4266.666504,4324.230957,4280.512695,4262.436035,4610.641113,4586.538574,4437.436035,4556.794922,,,,,,,,,,,,,,,,,,,,,,,,,,,,,,,,,,,,,,,,,,,,,,,,,,,,,,,,,,,,,,,,,,,,,,
1769163334.950175,1769163334.950969,123.0,0.0,4446.025879,4324.487305,4611.538574,4351.794922,4293.846191,4279.487305,4266.538574,4328.461426,4291.666504,4267.692383,4613.461426,4588.974121,4443.333496,4561.922852,,,,,,,,,,,,,,,,,,,,,,,,,,,,,,,,,,,,,,,,,,,,,,,,,,,,,,,,,,,,,,,,,,,,,,
1769163334.957984,1769163334.958778,124.0,0.0,4446.538574,4322.94873,4613.974121,4350.897461,4290.128418,4280.128418,4265.897461,4333.589844,4297.307617,4276.666504,4614.487305,4591.410156,4444.615234,4564.743652,,,,,,,,,,,,,,,,,,,,,,,,,,,,,,,,,,,,,,,,,,,,,,,,,,,,,,,,,,,,,,,,,,,,,,
1769163334.965792,1769163334.966586,125.0,0.0,4442.820313,4321.922852,4614.102539,4348.205078,4281.025879,4281.922852,4267.179688,4328.589844,4283.333496,4273.205078,4611.666504,4585.128418,4440.256348,4557.692383,,,,,,,,,,,,,,,,,,,,,,,,,,,,,,,,,,,,,,,,,,,,,,,,,,,,,,,,,,,,,,,,,,,,,,
1769163334.973601,1769163334.974295,126.0,0.0,4441.410156,4323.333496,4615.512695,4346.666504,4283.205078,4281.153809,4266.410156,4325.512695,4279.102539,4271.794922,4615.384766,4590.769043,4441.666504,4561.666504,0.395228,0.743683,0.414568,0.249377,0.131082,0.677135,0.376762,0.263128,0.243055,0.087452,0.285487,0.232549,0.256999,0.16057,0.074398,0.443081,0.379659,0.29465,0.166739,0.074489,0.337109,0.133317,0.139013,0.072482,0.045512,0.42568,0.411852,0.148266,0.201259,0.10217,0.178898,0.151438,0.106114,0.105786,0.06771,0.368802,0.304419,0.059164,0.123548,0.080404,0.72714,0.680108,0.078262,0.081925,0.089599,1.158756,0.838673,0.408953,0.23857,0.14928,0.843971,0.540421,0.355717,0.330645,0.138788,0.562123,0.425892,0.227905,0.358969,0.162976,1.054684,0.925147,0.377334,0.28289,0.163013,0.671231,1.013389,0.505558,0.313123,0.15436
1769163334.981409,1769163334.982103,127.0,0.0,4439.230957,4322.307617,4618.717773,4348.846191,4289.743652,4278.717773,4264.487305,4330.641113,4292.436035,4277.436035,4618.717773,4603.205078,4444.871582,4572.436035,,,,,,,,,,,,,,,,,,,,,,,,,,,,,,,,,,,,,,,,,,,,,,,,,,,,,,,,,,,,,,,,,,,,,,
1769163334.989218,1769163334.989712,0.0,0.0,4434.487305,4319.615234,4620.384766,4349.743652,4288.974121,4282.307617,4271.538574,4335.256348,4298.333496,4282.94873,4619.358887,4602.436035,4444.743652,4570.384766,,,,,,,,,,,,,,,,,,,,,,,,,,,,,,,,,,,,,,,,,,,,,,,,,,,,,,,,,,,,,,,,,,,,,,
1769163334.997026,1769163334.99752,1.0,0.0,4430.897461,4320.128418,4621.153809,4348.974121,4289.358887,4284.230957,4278.077148,4335.769043,4297.179688,4288.717773,4623.205078,4599.487305,4445.0,4566.922852,,,,,,,,,,,,,,,,,,,,,,,,,,,,,,,,,,,,,,,,,,,,,,,,,,,,,,,,,,,,,,,,,,,,,,
1769163335.004835,1769163335.005229,2.0,0.0,4433.077148,4325.512695,4624.615234,4352.563965,4294.871582,4282.05127,4274.743652,4333.846191,4297.307617,4289.871582,4625.0,4602.94873,4448.589844,4572.563965,,,,,,,,,,,,,,,,,,,,,,,,,,,,,,,,,,,,,,,,,,,,,,,,,,,,,,,,,,,,,,,,,,,,,,
1769163335.012643,1769163335.013037,3.0,0.0,4433.846191,4325.384766,4626.922852,4354.743652,4295.384766,4286.410156,4274.358887,4331.025879,4296.922852,4281.410156,4621.538574,4600.897461,4447.563965,4570.897461,,,,,,,,,,,,,,,,,,,,,,,,,,,,,,,,,,,,,,,,,,,,,,,,,,,,,,,,,,,,,,,,,,,,,,
1769163335.020451,1769163335.020646,4.0,0.0,4428.974121,4318.333496,4627.179688,4350.0,4291.538574,4290.128418,4280.256348,4331.538574,4291.666504,4271.538574,4613.077148,4594.615234,4441.538574,4558.974121,,,,,,,,,,,,,,,,,,,,,,,,,,,,,,,,,,,,,,,,,,,,,,,,,,,,,,,,,,,,,,,,,,,,,,
1769163335.02826,1769163335.028454,5.0,0.0,4423.205078,4316.922852,4626.922852,4348.717773,4289.230957,4283.205078,4281.538574,4328.333496,4283.461426,4265.897461,4604.743652,4593.461426,4437.563965,4552.307617,,,,,,,,,,,,,,,,,,,,,,,,,,,,,,,,,,,,,,,,,,,,,,,,,,,,,,,,,,,,,,,,,,,,,,
1769163335.036068,1769163335.036163,6.0,0.0,4418.205078,4321.410156,4627.307617,4354.743652,4290.641113,4281.153809,4277.179688,4323.333496,4283.717773,4265.256348,4604.102539,4596.282227,4433.461426,4554.102539,,,,,,,,,,,,,,,,,,,,,,,,,,,,,,,,,,,,,,,,,,,,,,,,,,,,,,,,,,,,,,,,,,,,,,
1769163335.043877,1769163335.043971,7.0,0.0,4415.512695,4321.410156,4629.358887,4358.717773,4294.487305,4293.846191,4277.820313,4332.179688,4293.333496,4272.692383,4609.615234,4596.922852,4429.230957,4550.128418,,,,,,,,,,,,,,,,,,,,,,,,,,,,,,,,,,,,,,,,,,,,,,,,,,,,,,,,,,,,,,,,,,,,,,
1769163335.051685,1769163335.05158,8.0,0.0,4413.846191,4317.05127,4628.333496,4354.871582,4293.589844,4296.922852,4281.538574,4338.846191,4297.692383,4281.410156,4612.05127,4593.846191,4433.205078,4543.974121,,,,,,,,,,,,,,,,,,,,,,,,,,,,,,,,,,,,,,,,,,,,,,,,,,,,,,,,,,,,,,,,,,,,,,
1769163335.059494,1769163335.059388,9.0,0.0,4410.769043,4319.358887,4627.563965,4355.769043,4291.282227,4284.230957,4280.641113,4329.358887,4294.615234,4281.666504,4614.358887,4592.820313,4442.307617,4550.128418,,,,,,,,,,,,,,,,,,,,,,,,,,,,,,,,,,,,,,,,,,,,,,,,,,,,,,,,,,,,,,,,,,,,,,
1769163335.067302,1769163335.067297,10.0,0.0,4412.94873,4327.563965,4631.666504,4362.820313,4294.871582,4279.871582,4277.307617,4326.922852,4294.743652,4281.025879,4619.871582,4597.563965,4444.871582,4555.769043,,,,,,,,,,,,,,,,,,,,,,,,,,,,,,,,,,,,,,,,,,,,,,,,,,,,,,,,,,,,,,,,,,,,,,
1769163335.075111,1769163335.075105,11.0,0.0,4415.256348,4326.538574,4633.846191,4362.307617,4297.820313,4287.05127,4278.461426,4334.358887,4297.05127,4286.666504,4619.487305,4602.05127,4443.974121,4553.461426,,,,,,,,,,,,,,,,,,,,,,,,,,,,,,,,,,,,,,,,,,,,,,,,,,,,,,,,,,,,,,,,,,,,,,
1769163335.082919,1769163335.083113,12.0,0.0,4404.358887,4321.025879,4631.794922,4357.692383,4295.897461,4290.512695,4280.256348,4332.436035,4296.538574,4288.974121,4616.025879,4600.0,4442.820313,4551.410156,,,,,,,,,,,,,,,,,,,,,,,,,,,,,,,,,,,,,,,,,,,,,,,,,,,,,,,,,,,,,,,,,,,,,,
1769163335.090727,1769163335.090922,13.0,0.0,4394.615234,4320.0,4630.641113,4358.077148,4294.102539,4288.974121,4278.461426,4325.641113,4295.128418,4282.307617,4613.974121,4595.512695,4437.05127,4550.128418,,,,,,,,,,,,,,,,,,,,,,,,,,,,,,,,,,,,,,,,,,,,,,,,,,,,,,,,,,,,,,,,,,,,,,
1769163335.098536,1769163335.09883,14.0,0.0,4397.436035,4316.666504,4632.179688,4357.820313,4293.589844,4288.461426,4275.128418,4326.410156,4293.205078,4278.333496,4610.641113,4596.666504,4433.077148,4552.05127,0.395858,0.783003,0.410529,0.303339,0.133829,0.70594,0.445594,0.298789,0.275959,0.094836,0.296829,0.299855,0.251311,0.187145,0.071365,0.531022,0.414147,0.275869,0.186358,0.069072,0.312221,0.129782,0.137721,0.075637,0.04783,0.430086,0.455461,0.138043,0.186205,0.09836,0.174684,0.171886,0.10666,0.082066,0.064452,0.349239,0.299508,0.057246,0.108503,0.082264,0.753993,0.591056,0.089982,0.08418,0.084196,1.315218,0.819339,0.428866,0.235555,0.127385,0.900322,0.547002,0.352146,0.335877,0.141983,0.475764,0.464381,0.241656,0.340743,0.158738,0.990813,0.973242,0.380965,0.305143,0.173867,0.575968,1.11218,0.559258,0.306242,0.158562
1769163335.106344,1769163335.106639,15.0,0.0,4394.230957,4309.358887,4631.025879,4356.666504,4291.666504,4286.922852,4277.563965,4326.282227,4293.205078,4278.974121,4606.153809,4595.256348,4434.487305,4553.974121,,,,,,,,,,,,,,,,,,,,,,,,,,,,,,,,,,,,,,,,,,,,,,,,,,,,,,,,,,,,,,,,,,,,,,
1769163335.114153,1769163335.114247,16.0,0.0,4382.692383,4311.153809,4629.358887,4357.05127,4290.384766,4289.743652,4285.256348,4326.153809,4293.974121,4278.077148,4603.333496,4589.358887,4432.692383,4546.153809,,,,,,,,,,,,,,,,,,,,,,,,,,,,,,,,,,,,,,,,,,,,,,,,,,,,,,,,,,,,,,,,,,,,,,
1769163335.121961,1769163335.122056,17.0,0.0,4375.769043,4311.410156,4626.025879,4351.922852,4291.538574,4294.871582,4287.436035,4332.436035,4295.512695,4278.077148,4603.974121,4586.922852,4427.05127,4536.410156,,,,,,,,,,,,,,,,,,,,,,,,,,,,,,,,,,,,,,,,,,,,,,,,,,,,,,,,,,,,,,,,,,,,,,
1769163335.12977,1769163335.129964,18.0,0.0,4366.410156,4299.743652,4618.717773,4342.05127,4293.205078,4294.743652,4287.820313,4334.743652,4295.128418,4278.974121,4602.05127,4586.666504,4422.563965,4536.666504,,,,,,,,,,,,,,,,,,,,,,,,,,,,,,,,,,,,,,,,,,,,,,,,,,,,,,,,,,,,,,,,,,,,,,
1769163335.137578,1769163335.137773,19.0,0.0,4358.205078,4299.230957,4617.820313,4342.307617,4294.487305,4296.025879,4293.205078,4333.846191,4296.153809,4281.794922,4601.922852,4587.307617,4423.077148,4538.974121,,,,,,,,,,,,,,,,,,,,,,,,,,,,,,,,,,,,,,,,,,,,,,,,,,,,,,,,,,,,,,,,,,,,,,
1769163335.145387,1769163335.145781,20.0,0.0,4364.487305,4311.538574,4626.538574,4351.153809,4293.461426,4296.922852,4295.0,4336.410156,4301.025879,4290.256348,4610.641113,4594.230957,4434.358887,4540.769043,,,,,,,,,,,,,,,,,,,,,,,,,,,,,,,,,,,,,,,,,,,,,,,,,,,,,,,,,,,,,,,,,,,,,,
1769163335.153195,1769163335.153589,21.0,0.0,4372.307617,4314.102539,4630.897461,4356.538574,4290.769043,4285.769043,4288.717773,4334.743652,4302.05127,4297.05127,4618.461426,4601.794922,4444.358887,4546.666504,,,,,,,,,,,,,,,,,,,,,,,,,,,,,,,,,,,,,,,,,,,,,,,,,,,,,,,,,,,,,,,,,,,,,,
1769163335.161003,1769163335.161498,22.0,0.0,4366.538574,4307.820313,4627.820313,4356.794922,4291.666504,4279.487305,4286.025879,4329.102539,4297.179688,4293.717773,4618.589844,4601.538574,4440.769043,4552.436035,,,,,,,,,,,,,,,,,,,,,,,,,,,,,,,,,,,,,,,,,,,,,,,,,,,,,,,,,,,,,,,,,,,,,,
1769163335.168812,1769163335.169306,23.0,0.0,4362.436035,4307.179688,4629.615234,4355.641113,4294.102539,4290.256348,4291.025879,4331.025879,4294.487305,4287.563965,4616.666504,4598.846191,4433.589844,4553.717773,,,,,,,,,,,,,,,,,,,,,,,,,,,,,,,,,,,,,,,,,,,,,,,,,,,,,,,,,,,,,,,,,,,,,,
1769163335.17662,1769163335.177314,24.0,0.0,4366.153809,4309.487305,4633.333496,4355.512695,4291.538574,4295.897461,4294.230957,4336.025879,4296.153809,4288.333496,4618.589844,4598.846191,4432.820313,4553.205078,,,,,,,,,,,,,,,,,,,,,,,,,,,,,,,,,,,,,,,,,,,,,,,,,,,,,,,,,,,,,,,,,,,,,,
1769163335.184429,1769163335.185123,25.0,0.0,4363.589844,4308.589844,4631.538574,4356.025879,4288.717773,4290.769043,4294.102539,4334.487305,4296.922852,4289.615234,4622.05127,4598.846191,4437.563965,4552.820313,,,,,,,,,,,,,,,,,,,,,,,,,,,,,,,,,,,,,,,,,,,,,,,,,,,,,,,,,,,,,,,,,,,,,,
1769163335.192237,1769163335.192831,26.0,0.0,4361.794922,4310.512695,4631.666504,4356.794922,4294.102539,4291.666504,4292.820313,4335.128418,4296.282227,4291.025879,4622.94873,4599.358887,4442.820313,4553.717773,,,,,,,,,,,,,,,,,,,,,,,,,,,,,,,,,,,,,,,,,,,,,,,,,,,,,,,,,,,,,,,,,,,,,,
1769163335.200046,1769163335.20064,27.0,0.0,4363.333496,4314.743652,4638.333496,4357.563965,4297.94873,4295.128418,4293.846191,4337.179688,4297.563965,4293.333496,4619.230957,4600.512695,4443.205078,4556.282227,,,,,,,,,,,,,,,,,,,,,,,,,,,,,,,,,,,,,,,,,,,,,,,,,,,,,,,,,,,,,,,,,,,,,,
1769163335.207854,1769163335.208248,28.0,0.0,4361.282227,4318.205078,4643.589844,4357.94873,4293.205078,4288.333496,4295.0,4331.025879,4296.922852,4290.769043,4616.666504,4599.358887,4442.05127,4558.717773,,,,,,,,,,,,,,,,,,,,,,,,,,,,,,,,,,,,,,,,,,,,,,,,,,,,,,,,,,,,,,,,,,,,,,
1769163335.215663,1769163335.216057,29.0,0.0,4354.487305,4320.641113,4639.487305,4358.333496,4291.025879,4285.641113,4294.487305,4325.512695,4296.794922,4290.256348,4618.333496,4595.128418,4443.461426,4556.922852,,,,,,,,,,,,,,,,,,,,,,,,,,,,,,,,,,,,,,,,,,,,,,,,,,,,,,,,,,,,,,,,,,,,,,
1769163335.223471,1769163335.223765,30.0,0.0,4349.871582,4319.102539,4632.820313,4358.461426,4295.384766,4295.641113,4301.025879,4332.692383,4302.307617,4293.974121,4618.846191,4593.333496,4443.589844,4552.436035,0.421761,0.819879,0.385905,0.364119,0.140586,0.67251,0.500539,0.327703,0.301986,0.106181,0.32997,0.377655,0.235711,0.209823,0.074599,0.596308,0.429358,0.247596,0.204435,0.070354,0.276995,0.124171,0.132743,0.076437,0.055454,0.425525,0.521323,0.132539,0.179389,0.104261,0.163763,0.196099,0.116107,0.064023,0.066338,0.307924,0.266687,0.052593,0.088089,0.085861,0.738834,0.468023,0.109852,0.083537,0.08302,1.333625,0.783874,0.454422,0.220554,0.114267,0.884409,0.558623,0.339833,0.322021,0.15063,0.409217,0.524273,0.2625,0.306049,0.155124,0.925208,1.057066,0.395389,0.318254,0.192706,0.522718,1.236553,0.595338,0.30288,0.176063
1769163335.23128,1769163335.231574,31.0,0.0,4345.384766,4311.922852,4631.410156,4356.410156,4297.05127,4299.615234,4305.769043,4337.436035,4305.384766,4292.692383,4618.333496,4594.871582,4444.102539,4552.05127,,,,,,,,,,,,,,,,,,,,,,,,,,,,,,,,,,,,,,,,,,,,,,,,,,,,,,,,,,,,,,,,,,,,,,
1769163335.239088,1769163335.239183,32.0,0.0,4342.307617,4310.0,4634.358887,4355.384766,4294.487305,4292.436035,4300.128418,4331.666504,4300.128418,4290.641113,4619.102539,4596.153809,4444.358887,4554.743652,,,,,,,,,,,,,,,,,,,,,,,,,,,,,,,,,,,,,,,,,,,,,,,,,,,,,,,,,,,,,,,,,,,,,,
1769163335.246897,1769163335.246991,33.0,0.0,4347.563965,4320.0,4639.487305,4362.563965,4295.641113,4292.307617,4294.871582,4326.922852,4296.025879,4293.461426,4618.205078,4597.820313,4444.871582,4556.666504,,,,,,,,,,,,,,,,,,,,,,,,,,,,,,,,,,,,,,,,,,,,,,,,,,,,,,,,,,,,,,,,,,,,,,
1769163335.254705,1769163335.254899,34.0,0.0,4350.769043,4327.307617,4641.282227,4365.128418,4297.692383,4295.769043,4295.512695,4326.282227,4296.538574,4294.102539,4617.94873,4600.897461,4451.794922,4557.05127,,,,,,,,,,,,,,,,,,,,,,,,,,,,,,,,,,,,,,,,,,,,,,,,,,,,,,,,,,,,,,,,,,,,,,
1769163335.262514,1769163335.262708,35.0,0.0,4346.025879,4324.871582,4639.871582,4360.0,4295.512695,4288.333496,4295.897461,4325.769043,4297.307617,4293.077148,4622.820313,4601.410156,4454.487305,4555.769043,,,,,,,,,,,,,,,,,,,,,,,,,,,,,,,,,,,,,,,,,,,,,,,,,,,,,,,,,,,,,,,,,,,,,,
1769163335.270322,1769163335.270716,36.0,0.0,4340.512695,4320.256348,4638.846191,4362.179688,4292.94873,4283.974121,4296.282227,4326.666504,4291.922852,4289.487305,4623.717773,4598.333496,4447.436035,4556.794922,,,,,,,,,,,,,,,,,,,,,,,,,,,,,,,,,,,,,,,,,,,,,,,,,,,,,,,,,,,,,,,,,,,,,,
1769163335.27813,1769163335.278524,37.0,0.0,4338.846191,4313.077148,4633.717773,4365.256348,4292.05127,4288.717773,4297.436035,4327.05127,4284.358887,4280.769043,4615.769043,4597.05127,4443.717773,4554.743652,,,,,,,,,,,,,,,,,,,,,,,,,,,,,,,,,,,,,,,,,,,,,,,,,,,,,,,,,,,,,,,,,,,,,,
1769163335.285939,1769163335.286433,38.0,0.0,4333.589844,4308.846191,4632.179688,4362.307617,4291.282227,4287.563965,4296.410156,4327.05127,4287.692383,4284.358887,4613.333496,4597.94873,4445.641113,4546.666504,,,,,,,,,,,,,,,,,,,,,,,,,,,,,,,,,,,,,,,,,,,,,,,,,,,,,,,,,,,,,,,,,,,,,,
1769163335.293747,1769163335.294241,39.0,0.0,4326.666504,4312.179688,4637.692383,4361.538574,4291.538574,4283.846191,4295.128418,4330.512695,4291.666504,4290.641113,4616.025879,4591.922852,4444.743652,4540.897461,,,,,,,,,,,,,,,,,,,,,,,,,,,,,,,,,,,,,,,,,,,,,,,,,,,,,,,,,,,,,,,,,,,,,,
1769163335.301556,1769163335.302249,40.0,0.0,4325.769043,4314.743652,4638.974121,4361.410156,4291.666504,4289.487305,4296.282227,4332.820313,4284.230957,4281.282227,4612.436035,4585.384766,4442.94873,4537.692383,,,,,,,,,,,,,,,,,,,,,,,,,,,,,,,,,,,,,,,,,,,,,,,,,,,,,,,,,,,,,,,,,,,,,,
1769163335.309364,1769163335.310058,41.0,0.0,4324.487305,4316.922852,4637.307617,4356.282227,4291.794922,4292.179688,4304.487305,4336.538574,4287.820313,4279.358887,4611.025879,4592.94873,4444.358887,4539.487305,,,,,,,,,,,,,,,,,,,,,,,,,,,,,,,,,,,,,,,,,,,,,,,,,,,,,,,,,,,,,,,,,,,,,,
1769163335.317173,1769163335.317766,42.0,0.0,4325.512695,4319.487305,4641.922852,4356.025879,4293.077148,4288.333496,4310.128418,4340.0,4298.205078,4287.307617,4615.641113,4604.230957,4446.153809,4545.0,,,,,,,,,,,,,,,,,,,,,,,,,,,,,,,,,,,,,,,,,,,,,,,,,,,,,,,,,,,,,,,,,,,,,,
1769163335.324981,1769163335.325575,43.0,0.0,4326.025879,4316.794922,4643.205078,4359.743652,4292.94873,4282.436035,4300.384766,4331.794922,4288.461426,4282.94873,4616.794922,4600.641113,4446.282227,4544.487305,,,,,,,,,,,,,,,,,,,,,,,,,,,,,,,,,,,,,,,,,,,,,,,,,,,,,,,,,,,,,,,,,,,,,,
1769163335.33279,1769163335.333583,44.0,0.0,4320.641113,4310.769043,4635.641113,4358.205078,4291.922852,4280.897461,4296.794922,4323.974121,4277.436035,4276.025879,4612.307617,4590.897461,4444.615234,4538.589844,,,,,,,,,,,,,,,,,,,,,,,,,,,,,,,,,,,,,,,,,,,,,,,,,,,,,,,,,,,,,,,,,,,,,,
1769163335.340598,1769163335.341392,45.0,0.0,4317.94873,4311.153809,4631.282227,4354.230957,4292.820313,4291.153809,4310.384766,4326.794922,4279.487305,4277.05127,4604.487305,4584.871582,4442.05127,4536.410156,,,,,,,,,,,,,,,,,,,,,,,,,,,,,,,,,,,,,,,,,,,,,,,,,,,,,,,,,,,,,,,,,,,,,,
1769163335.348406,1769163335.3491,46.0,0.0,4319.743652,4317.94873,4633.333496,4355.0,4294.743652,4294.743652,4314.358887,4327.94873,4280.128418,4278.974121,4603.717773,4582.692383,4441.666504,4538.205078,0.437427,0.84685,0.334529,0.408244,0.150816,0.584697,0.530523,0.340835,0.308115,0.121086,0.30549,0.446853,0.206198,0.218235,0.08212,0.63399,0.423388,0.214341,0.212608,0.076842,0.242012,0.120393,0.129648,0.075306,0.067709,0.414978,0.597439,0.128696,0.187803,0.119248,0.146555,0.218441,0.131393,0.05725,0.07166,0.263518,0.219291,0.047836,0.068202,0.091813,0.674316,0.349591,0.137703,0.082535,0.088878,1.212373,0.772272,0.492354,0.199872,0.112748,0.795708,0.590272,0.335542,0.294016,0.163328,0.384865,0.600649,0.287001,0.262599,0.154197,0.829902,1.169565,0.423602,0.316462,0.217019,0.526832,1.374601,0.596173,0.303941,0.204847
1769163335.356215,1769163335.356909,47.0,0.0,4319.871582,4322.820313,4638.717773,4362.436035,4296.666504,4285.512695,4304.743652,4325.384766,4281.794922,4283.589844,4612.94873,4590.128418,4449.871582,4541.538574,,,,,,,,,,,,,,,,,,,,,,,,,,,,,,,,,,,,,,,,,,,,,,,,,,,,,,,,,,,,,,,,,,,,,,
1769163335.364023,1769163335.364517,48.0,0.0,4318.077148,4321.153809,4643.974121,4363.333496,4296.538574,4284.743652,4304.102539,4327.436035,4289.358887,4287.563965,4617.307617,4597.94873,4455.384766,4545.128418,,,,,,,,,,,,,,,,,,,,,,,,,,,,,,,,,,,,,,,,,,,,,,,,,,,,,,,,,,,,,,,,,,,,,,
1769163335.371832,1769163335.372326,49.0,0.0,4315.128418,4318.589844,4640.512695,4359.102539,4293.846191,4288.846191,4306.538574,4329.743652,4292.307617,4287.692383,4612.692383,4592.563965,4446.410156,4540.769043,,,,,,,,,,,,,,,,,,,,,,,,,,,,,,,,,,,,,,,,,,,,,,,,,,,,,,,,,,,,,,,,,,,,,,
1769163335.37964,1769163335.380034,50.0,0.0,4311.282227,4319.615234,4636.025879,4360.897461,4292.94873,4280.769043,4303.205078,4328.589844,4293.974121,4291.025879,4612.94873,4586.794922,4443.717773,4537.820313,,,,,,,,,,,,,,,,,,,,,,,,,,,,,,,,,,,,,,,,,,,,,,,,,,,,,,,,,,,,,,,,,,,,,,
1769163335.387449,1769163335.387843,51.0,0.0,4310.512695,4315.641113,4637.05127,4361.538574,4292.820313,4276.794922,4304.743652,4327.94873,4294.871582,4288.461426,4614.871582,4589.230957,4450.256348,4540.769043,,,,,,,,,,,,,,,,,,,,,,,,,,,,,,,,,,,,,,,,,,,,,,,,,,,,,,,,,,,,,,,,,,,,,,
1769163335.395257,1769163335.395851,52.0,0.0,4309.358887,4310.384766,4635.641113,4357.563965,4291.410156,4288.717773,4310.769043,4327.692383,4290.897461,4281.922852,4610.512695,4587.436035,4447.692383,4539.615234,,,,,,,,,,,,,,,,,,,,,,,,,,,,,,,,,,,,,,,,,,,,,,,,,,,,,,,,,,,,,,,,,,,,,,
1769163335.403066,1769163335.403659,53.0,0.0,4307.692383,4318.461426,4632.94873,4359.230957,4292.820313,4291.410156,4312.05127,4328.205078,4292.436035,4288.461426,4611.410156,4586.025879,4448.077148,4537.436035,,,,,,,,,,,,,,,,,,,,,,,,,,,,,,,,,,,,,,,,,,,,,,,,,,,,,,,,,,,,,,,,,,,,,,
1769163335.410874,1769163335.411568,54.0,0.0,4303.974121,4324.615234,4634.230957,4361.794922,4293.333496,4283.589844,4311.153809,4328.077148,4298.333496,4295.512695,4616.410156,4593.333496,4458.461426,4541.025879,,,,,,,,,,,,,,,,,,,,,,,,,,,,,,,,,,,,,,,,,,,,,,,,,,,,,,,,,,,,,,,,,,,,,,
1769163335.418682,1769163335.419376,55.0,0.0,4297.820313,4315.897461,4632.94873,4356.410156,4288.846191,4283.461426,4312.820313,4327.94873,4295.769043,4290.128418,4617.05127,4598.333496,4462.94873,4545.384766,,,,,,,,,,,,,,,,,,,,,,,,,,,,,,,,,,,,,,,,,,,,,,,,,,,,,,,,,,,,,,,,,,,,,,
1769163335.426491,1769163335.427384,56.0,0.0,4298.974121,4311.922852,4629.743652,4354.230957,4287.94873,4290.256348,4312.692383,4328.717773,4291.794922,4286.794922,4616.282227,4595.0,4456.666504,4543.205078,,,,,,,,,,,,,,,,,,,,,,,,,,,,,,,,,,,,,,,,,,,,,,,,,,,,,,,,,,,,,,,,,,,,,,
1769163335.434299,1769163335.435193,57.0,0.0,4307.179688,4322.563965,4632.05127,4361.153809,4292.563965,4289.871582,4309.743652,4327.436035,4295.128418,4290.256348,4618.974121,4594.102539,4452.436035,4540.769043,,,,,,,,,,,,,,,,,,,,,,,,,,,,,,,,,,,,,,,,,,,,,,,,,,,,,,,,,,,,,,,,,,,,,,
1769163335.442108,1769163335.443101,58.0,0.0,4306.153809,4327.436035,4634.102539,4365.0,4295.128418,4284.743652,4308.077148,4326.282227,4297.820313,4292.307617,4621.025879,4598.589844,4454.871582,4541.794922,,,,,,,,,,,,,,,,,,,,,,,,,,,,,,,,,,,,,,,,,,,,,,,,,,,,,,,,,,,,,,,,,,,,,,
1769163335.449916,1769163335.45091,59.0,0.0,4295.769043,4322.05127,4633.077148,4363.717773,4293.205078,4291.282227,4311.794922,4328.717773,4294.871582,4290.128418,4615.897461,4600.256348,4457.94873,4540.769043,,,,,,,,,,,,,,,,,,,,,,,,,,,,,,,,,,,,,,,,,,,,,,,,,,,,,,,,,,,,,,,,,,,,,,
1769163335.457725,1769163335.458918,60.0,0.0,4298.846191,4321.794922,4638.589844,4365.641113,4292.179688,4291.410156,4312.94873,4328.589844,4293.333496,4285.769043,4616.922852,4602.307617,4460.384766,4548.333496,,,,,,,,,,,,,,,,,,,,,,,,,,,,,,,,,,,,,,,,,,,,,,,,,,,,,,,,,,,,,,,,,,,,,,
1769163335.465533,1769163335.466726,61.0,0.0,4306.794922,4320.641113,4645.641113,4366.666504,4290.256348,4278.589844,4308.589844,4323.333496,4293.077148,4282.179688,4620.512695,4607.563965,4456.282227,4556.538574,,,,,,,,,,,,,,,,,,,,,,,,,,,,,,,,,,,,,,,,,,,,,,,,,,,,,,,,,,,,,,,,,,,,,,
1769163335.473342,1769163335.474635,62.0,0.0,4300.128418,4311.025879,4641.666504,4363.589844,4283.846191,4279.102539,4313.333496,4320.512695,4287.436035,4276.025879,4609.743652,4600.256348,4445.0,4546.538574,0.47506,0.854519,0.271588,0.421632,0.163138,0.47183,0.528349,0.336933,0.290626,0.137794,0.377045,0.49179,0.175924,0.209816,0.090549,0.65002,0.398621,0.182815,0.206478,0.085157,0.212431,0.119975,0.132135,0.073434,0.081739,0.395912,0.659014,0.122149,0.210491,0.140187,0.136355,0.233343,0.144855,0.061903,0.078099,0.21575,0.171385,0.048174,0.054323,0.099143,0.578697,0.267036,0.174166,0.084034,0.101964,1.005926,0.801918,0.545822,0.180566,0.12254,0.651917,0.644959,0.355884,0.257612,0.176168,0.385377,0.675423,0.314944,0.219703,0.155463,0.70863,1.270307,0.462976,0.298773,0.240823,0.577407,1.495308,0.559148,0.305698,0.237029
1769163335.48115,1769163335.482443,63.0,0.0,4295.769043,4313.461426,4635.128418,4367.307617,4283.333496,4287.179688,4320.384766,4326.666504,4289.743652,4276.282227,4606.410156,4588.205078,4440.0,4535.128418,,,,,,,,,,,,,,,,,,,,,,,,,,,,,,,,,,,,,,,,,,,,,,,,,,,,,,,,,,,,,,,,,,,,,,
1769163335.488959,1769163335.490451,64.0,0.0,4300.128418,4324.487305,4638.717773,4375.512695,4291.153809,4280.512695,4314.358887,4333.077148,4303.717773,4288.461426,4620.897461,4591.410156,4446.282227,4538.846191,,,,,,,,,,,,,,,,,,,,,,,,,,,,,,,,,,,,,,,,,,,,,,,,,,,,,,,,,,,,,,,,,,,,,,
1769163335.496767,1769163335.49826,65.0,0.0,4298.589844,4324.487305,4643.205078,4374.615234,4294.230957,4274.358887,4307.307617,4330.256348,4305.512695,4296.666504,4623.205078,4598.077148,4453.205078,4545.0,,,,,,,,,,,,,,,,,,,,,,,,,,,,,,,,,,,,,,,,,,,,,,,,,,,,,,,,,,,,,,,,,,,,,,
1769163335.504576,1769163335.506068,66.0,0.0,4297.436035,4321.410156,4641.538574,4373.077148,4293.333496,4280.512695,4311.666504,4324.743652,4295.384766,4290.769043,4614.743652,4596.538574,4457.179688,4546.538574,,,,,,,,,,,,,,,,,,,,,,,,,,,,,,,,,,,,,,,,,,,,,,,,,,,,,,,,,,,,,,,,,,,,,,
1769163335.512384,1769163335.513877,67.0,0.0,4305.0,4321.922852,4637.94873,4375.128418,4295.0,4281.666504,4316.666504,4325.0,4292.307617,4283.205078,4618.205078,4593.589844,4458.717773,4546.410156,,,,,,,,,,,,,,,,,,,,,,,,,,,,,,,,,,,,,,,,,,,,,,,,,,,,,,,,,,,,,,,,,,,,,,
1769163335.520193,1769163335.521485,68.0,0.0,4297.563965,4313.461426,4631.922852,4368.589844,4292.307617,4280.0,4316.922852,4326.538574,4295.512695,4281.282227,4618.333496,4589.487305,4447.436035,4541.025879,,,,,,,,,,,,,,,,,,,,,,,,,,,,,,,,,,,,,,,,,,,,,,,,,,,,,,,,,,,,,,,,,,,,,,
1769163335.528001,1769163335.529294,69.0,0.0,4283.846191,4306.153809,4627.563965,4363.077148,4287.820313,4282.563965,4316.025879,4325.256348,4292.436035,4278.589844,4610.0,4584.358887,4440.512695,4534.487305,,,,,,,,,,,,,,,,,,,,,,,,,,,,,,,,,,,,,,,,,,,,,,,,,,,,,,,,,,,,,,,,,,,,,,
1769163335.535809,1769163335.537002,70.0,0.0,4288.077148,4314.102539,4630.641113,4369.358887,4289.487305,4282.05127,4314.102539,4323.589844,4284.230957,4276.922852,4613.077148,4584.102539,4452.820313,4538.205078,,,,,,,,,,,,,,,,,,,,,,,,,,,,,,,,,,,,,,,,,,,,,,,,,,,,,,,,,,,,,,,,,,,,,,
1769163335.543618,1769163335.544811,71.0,0.0,4294.487305,4320.0,4633.461426,4375.128418,4291.794922,4282.820313,4316.666504,4321.922852,4282.05127,4278.589844,4619.487305,4585.897461,4460.769043,4548.077148,,,,,,,,,,,,,,,,,,,,,,,,,,,,,,,,,,,,,,,,,,,,,,,,,,,,,,,,,,,,,,,,,,,,,,
1769163335.551426,1769163335.552419,72.0,0.0,4290.128418,4315.769043,4629.743652,4373.461426,4291.794922,4282.820313,4319.487305,4324.358887,4291.153809,4281.282227,4619.102539,4587.179688,4458.461426,4549.615234,,,,,,,,,,,,,,,,,,,,,,,,,,,,,,,,,,,,,,,,,,,,,,,,,,,,,,,,,,,,,,,,,,,,,,
1769163335.559235,1769163335.560228,73.0,0.0,4282.307617,4311.025879,4626.153809,4369.358887,4292.179688,4279.487305,4319.871582,4329.102539,4297.436035,4283.717773,4617.692383,4588.077148,4458.461426,4542.179688,,,,,,,,,,,,,,,,,,,,,,,,,,,,,,,,,,,,,,,,,,,,,,,,,,,,,,,,,,,,,,,,,,,,,,
1769163335.567043,1769163335.567936,74.0,0.0,4279.743652,4310.0,4626.153809,4365.128418,4293.333496,4282.94873,4319.743652,4327.05127,4290.769043,4280.512695,4616.794922,4584.487305,4458.974121,4538.974121,,,,,,,,,,,,,,,,,,,,,,,,,,,,,,,,,,,,,,,,,,,,,,,,,,,,,,,,,,,,,,,,,,,,,,
1769163335.574852,1769163335.575745,75.0,0.0,4284.102539,4312.563965,4628.077148,4366.538574,4294.487305,4291.282227,4317.94873,4323.717773,4288.205078,4279.743652,4617.692383,4585.512695,4458.717773,4541.282227,,,,,,,,,,,,,,,,,,,,,,,,,,,,,,,,,,,,,,,,,,,,,,,,,,,,,,,,,,,,,,,,,,,,,,
1769163335.58266,1769163335.583753,76.0,0.0,4281.794922,4313.077148,4627.436035,4369.871582,4294.615234,4290.256348,4319.615234,4326.025879,4293.974121,4287.436035,4619.487305,4589.743652,4459.871582,4541.282227,,,,,,,,,,,,,,,,,,,,,,,,,,,,,,,,,,,,,,,,,,,,,,,,,,,,,,,,,,,,,,,,,,,,,,
1769163335.590469,1769163335.591562,77.0,0.0,4270.128418,4308.461426,4623.077148,4366.410156,4294.615234,4279.487305,4320.897461,4327.94873,4296.153809,4289.615234,4618.461426,4589.230957,4459.487305,4540.0,,,,,,,,,,,,,,,,,,,,,,,,,,,,,,,,,,,,,,,,,,,,,,,,,,,,,,,,,,,,,,,,,,,,,,
1769163335.598277,1769163335.59947,78.0,0.0,4269.743652,4309.487305,4623.205078,4365.641113,4294.743652,4280.256348,4319.871582,4327.05127,4294.743652,4284.358887,4615.0,4587.94873,4456.282227,4537.820313,0.581468,0.832904,0.218231,0.402395,0.174349,0.386242,0.4913,0.317032,0.2583,0.152894,0.36254,0.497474,0.146604,0.190072,0.096272,0.658396,0.361135,0.156026,0.187788,0.091754,0.189934,0.121485,0.13912,0.071946,0.093315,0.362385,0.67975,0.110633,0.239566,0.162754,0.136666,0.238474,0.147724,0.073935,0.083761,0.175939,0.133413,0.058693,0.050043,0.105627,0.476301,0.230139,0.220649,0.090549,0.119561,0.779198,0.858644,0.608076,0.168221,0.138948,0.500132,0.712318,0.403609,0.218747,0.183685,0.396935,0.721562,0.342761,0.18771,0.156277,0.582823,1.309131,0.502597,0.270736,0.255826,0.649489,1.557425,0.49446,0.303004,0.261463
1769163335.606085,1769163335.607278,79.0,0.0,4281.025879,4317.307617,4625.769043,4373.846191,4295.641113,4291.794922,4324.487305,4327.820313,4294.743652,4288.077148,4615.0,4589.102539,4454.487305,4538.077148,,,,,,,,,,,,,,,,,,,,,,,,,,,,,,,,,,,,,,,,,,,,,,,,,,,,,,,,,,,,,,,,,,,,,,
1769163335.613894,1769163335.615287,80.0,0.0,4279.871582,4316.153809,4622.436035,4376.794922,4298.077148,4297.436035,4330.897461,4329.230957,4296.025879,4291.025879,4617.179688,4587.563965,4452.436035,4541.666504,,,,,,,,,,,,,,,,,,,,,,,,,,,,,,,,,,,,,,,,,,,,,,,,,,,,,,,,,,,,,,,,,,,,,,
1769163335.621702,1769163335.623095,81.0,0.0,4272.307617,4310.0,4619.871582,4371.538574,4298.846191,4299.487305,4329.487305,4329.487305,4295.384766,4280.769043,4614.358887,4582.307617,4446.282227,4538.846191,,,,,,,,,,,,,,,,,,,,,,,,,,,,,,,,,,,,,,,,,,,,,,,,,,,,,,,,,,,,,,,,,,,,,,
1769163335.629511,1769163335.630804,82.0,0.0,4275.641113,4312.820313,4624.102539,4372.307617,4296.666504,4300.384766,4327.05127,4327.563965,4293.717773,4274.358887,4612.05127,4582.05127,4442.307617,4536.153809,,,,,,,,,,,,,,,,,,,,,,,,,,,,,,,,,,,,,,,,,,,,,,,,,,,,,,,,,,,,,,,,,,,,,,
1769163335.637319,1769163335.638612,83.0,0.0,4273.974121,4314.615234,4623.077148,4375.0,4295.512695,4296.153809,4327.692383,4322.436035,4290.769043,4277.563965,4615.512695,4587.179688,4448.077148,4545.256348,,,,,,,,,,,,,,,,,,,,,,,,,,,,,,,,,,,,,,,,,,,,,,,,,,,,,,,,,,,,,,,,,,,,,,
1769163335.645128,1769163335.646221,84.0,0.0,4264.743652,4308.333496,4613.589844,4367.692383,4295.512695,4293.717773,4329.102539,4319.743652,4287.307617,4277.436035,4616.153809,4588.846191,4453.974121,4553.589844,,,,,,,,,,,,,,,,,,,,,,,,,,,,,,,,,,,,,,,,,,,,,,,,,,,,,,,,,,,,,,,,,,,,,,
1769163335.652936,1769163335.654029,85.0,0.0,4271.282227,4312.563965,4616.538574,4364.487305,4294.230957,4296.538574,4330.384766,4321.410156,4289.743652,4278.717773,4615.128418,4585.384766,4453.846191,4553.461426,,,,,,,,,,,,,,,,,,,,,,,,,,,,,,,,,,,,,,,,,,,,,,,,,,,,,,,,,,,,,,,,,,,,,,
1769163335.660745,1769163335.661938,86.0,0.0,4277.820313,4323.205078,4626.922852,4371.410156,4293.461426,4294.743652,4328.974121,4323.461426,4295.128418,4286.153809,4617.307617,4586.282227,4452.563965,4546.282227,,,,,,,,,,,,,,,,,,,,,,,,,,,,,,,,,,,,,,,,,,,,,,,,,,,,,,,,,,,,,,,,,,,,,,
1769163335.668553,1769163335.669746,87.0,0.0,4267.94873,4318.717773,4623.077148,4371.794922,4294.615234,4291.153809,4326.794922,4324.358887,4296.282227,4292.820313,4619.230957,4590.897461,4452.94873,4540.256348,,,,,,,,,,,,,,,,,,,,,,,,,,,,,,,,,,,,,,,,,,,,,,,,,,,,,,,,,,,,,,,,,,,,,,
1769163335.676361,1769163335.677754,88.0,0.0,4261.922852,4312.94873,4617.436035,4365.769043,4295.769043,4290.256348,4326.410156,4328.333496,4301.282227,4296.282227,4622.94873,4593.333496,4456.538574,4546.153809,,,,,,,,,,,,,,,,,,,,,,,,,,,,,,,,,,,,,,,,,,,,,,,,,,,,,,,,,,,,,,,,,,,,,,
1769163335.68417,1769163335.685563,89.0,0.0,4268.846191,4318.205078,4624.358887,4367.436035,4296.025879,4288.974121,4325.256348,4331.410156,4311.538574,4297.94873,4629.230957,4596.025879,4462.436035,4551.922852,,,,,,,,,,,,,,,,,,,,,,,,,,,,,,,,,,,,,,,,,,,,,,,,,,,,,,,,,,,,,,,,,,,,,,
1769163335.691978,1769163335.693471,90.0,0.0,4269.358887,4317.436035,4626.538574,4369.102539,4294.230957,4291.538574,4323.333496,4328.461426,4311.282227,4296.538574,4625.512695,4595.641113,4455.512695,4541.538574,,,,,,,,,,,,,,,,,,,,,,,,,,,,,,,,,,,,,,,,,,,,,,,,,,,,,,,,,,,,,,,,,,,,,,
1769163335.699787,1769163335.701279,91.0,0.0,4264.615234,4307.820313,4618.717773,4365.897461,4291.666504,4293.717773,4327.05127,4325.897461,4303.589844,4293.077148,4618.846191,4593.589844,4446.666504,4536.282227,,,,,,,,,,,,,,,,,,,,,,,,,,,,,,,,,,,,,,,,,,,,,,,,,,,,,,,,,,,,,,,,,,,,,,
1769163335.707595,1769163335.709288,92.0,0.0,4264.871582,4309.358887,4615.769043,4365.897461,4290.769043,4291.666504,4332.436035,4328.461426,4301.282227,4292.820313,4623.717773,4596.794922,4456.666504,4551.153809,,,,,,,,,,,,,,,,,,,,,,,,,,,,,,,,,,,,,,,,,,,,,,,,,,,,,,,,,,,,,,,,,,,,,,
1769163335.715404,1769163335.717096,93.0,0.0,4265.0,4309.871582,4617.94873,4365.641113,4291.153809,4292.436035,4331.794922,4329.230957,4299.615234,4293.974121,4628.077148,4596.153809,4461.794922,4555.384766,,,,,,,,,,,,,,,,,,,,,,,,,,,,,,,,,,,,,,,,,,,,,,,,,,,,,,,,,,,,,,,,,,,,,,
1769163335.723212,1769163335.724805,94.0,0.0,4259.102539,4300.512695,4615.128418,4364.871582,4291.794922,4297.436035,4331.538574,4326.410156,4294.102539,4293.205078,4623.589844,4591.410156,4451.666504,4543.589844,0.671827,0.78299,0.18469,0.359372,0.18074,0.365332,0.429054,0.285916,0.228595,0.163075,0.462472,0.463749,0.129259,0.169133,0.097309,0.662334,0.322573,0.134391,0.162865,0.094674,0.172274,0.122061,0.147206,0.071465,0.098416,0.314874,0.644878,0.094976,0.26448,0.183102,0.146683,0.235675,0.136479,0.088457,0.088046,0.14856,0.110548,0.081566,0.056234,0.10891,0.393694,0.229455,0.275456,0.10366,0.13725,0.592651,0.90573,0.663046,0.165972,0.154496,0.380516,0.772489,0.464813,0.183357,0.181801,0.418113,0.722836,0.366481,0.174594,0.153937,0.481729,1.25336,0.526376,0.243977,0.255389,0.727913,1.530009,0.418556,0.292646,0.268961
1769163335.731021,1769163335.732613,95.0,0.0,4250.256348,4298.974121,4610.128418,4365.512695,4293.461426,4296.410156,4335.384766,4325.897461,4295.128418,4293.974121,4618.589844,4589.102539,4444.102539,4537.94873,,,,,,,,,,,,,,,,,,,,,,,,,,,,,,,,,,,,,,,,,,,,,,,,,,,,,,,,,,,,,,,,,,,,,,
1769163335.738829,1769163335.740222,96.0,0.0,4250.769043,4303.077148,4611.666504,4363.461426,4296.025879,4291.794922,4333.974121,4326.153809,4304.102539,4294.487305,4616.282227,4587.179688,4440.897461,4535.769043,,,,,,,,,,,,,,,,,,,,,,,,,,,,,,,,,,,,,,,,,,,,,,,,,,,,,,,,,,,,,,,,,,,,,,
1769163335.746637,1769163335.74803,97.0,0.0,4259.487305,4305.641113,4615.512695,4363.333496,4296.538574,4294.487305,4328.717773,4326.666504,4311.153809,4296.538574,4622.179688,4591.794922,4446.794922,4539.102539,,,,,,,,,,,,,,,,,,,,,,,,,,,,,,,,,,,,,,,,,,,,,,,,,,,,,,,,,,,,,,,,,,,,,,
1769163335.754446,1769163335.755739,98.0,0.0,4262.692383,4308.461426,4616.025879,4370.256348,4296.666504,4294.358887,4334.358887,4333.077148,4312.820313,4306.794922,4634.102539,4603.589844,4460.897461,4548.333496,,,,,,,,,,,,,,,,,,,,,,,,,,,,,,,,,,,,,,,,,,,,,,,,,,,,,,,,,,,,,,,,,,,,,,
1769163335.762255,1769163335.763547,99.0,0.0,4265.128418,4312.307617,4616.538574,4374.487305,4301.282227,4284.487305,4338.461426,4338.077148,4313.077148,4315.512695,4638.461426,4606.282227,4464.615234,4552.05127,,,,,,,,,,,,,,,,,,,,,,,,,,,,,,,,,,,,,,,,,,,,,,,,,,,,,,,,,,,,,,,,,,,,,,
1769163335.770063,1769163335.771156,100.0,0.0,4266.025879,4313.205078,4617.05127,4373.974121,4305.512695,4277.563965,4328.589844,4334.487305,4312.563965,4308.589844,4634.230957,4600.128418,4459.102539,4549.615234,,,,,,,,,,,,,,,,,,,,,,,,,,,,,,,,,,,,,,,,,,,,,,,,,,,,,,,,,,,,,,,,,,,,,,
1769163335.777871,1769163335.778964,101.0,0.0,4260.256348,4312.692383,4616.153809,4377.179688,4301.025879,4281.922852,4325.0,4333.717773,4307.307617,4294.615234,4629.615234,4598.846191,4457.820313,4550.256348,,,,,,,,,,,,,,,,,,,,,,,,,,,,,,,,,,,,,,,,,,,,,,,,,,,,,,,,,,,,,,,,,,,,,,
1769163335.78568,1769163335.786673,102.0,0.0,4261.666504,4312.692383,4618.846191,4379.615234,4295.0,4290.0,4331.922852,4339.743652,4307.179688,4292.692383,4632.307617,4603.205078,4461.666504,4553.077148,,,,,,,,,,,,,,,,,,,,,,,,,,,,,,,,,,,,,,,,,,,,,,,,,,,,,,,,,,,,,,,,,,,,,,
1769163335.793488,1769163335.794481,103.0,0.0,4262.563965,4311.153809,4615.641113,4374.102539,4295.897461,4293.846191,4335.256348,4336.410156,4308.077148,4297.05127,4631.666504,4601.025879,4459.102539,4546.410156,,,,,,,,,,,,,,,,,,,,,,,,,,,,,,,,,,,,,,,,,,,,,,,,,,,,,,,,,,,,,,,,,,,,,,
1769163335.801297,1769163335.80249,104.0,0.0,4251.282227,4310.384766,4603.717773,4368.846191,4297.05127,4294.487305,4335.0,4327.820313,4297.94873,4293.205078,4620.128418,4587.692383,4444.743652,4530.0,,,,,,,,,,,,,,,,,,,,,,,,,,,,,,,,,,,,,,,,,,,,,,,,,,,,,,,,,,,,,,,,,,,,,,
1769163335.809105,1769163335.810298,105.0,0.0,4252.05127,4309.615234,4603.717773,4370.0,4294.615234,4292.692383,4335.769043,4328.077148,4296.282227,4290.641113,4618.974121,4581.025879,4441.538574,4525.769043,,,,,,,,,,,,,,,,,,,,,,,,,,,,,,,,,,,,,,,,,,,,,,,,,,,,,,,,,,,,,,,,,,,,,,
1769163335.816914,1769163335.818206,106.0,0.0,4265.0,4312.94873,4610.256348,4371.666504,4293.205078,4290.128418,4331.282227,4330.512695,4304.487305,4296.282227,4632.563965,4589.230957,4458.205078,4538.846191,,,,,,,,,,,,,,,,,,,,,,,,,,,,,,,,,,,,,,,,,,,,,,,,,,,,,,,,,,,,,,,,,,,,,,
1769163335.824722,1769163335.826015,107.0,0.0,4265.256348,4316.922852,4606.538574,4371.794922,4295.128418,4288.333496,4326.153809,4326.282227,4299.230957,4297.179688,4633.717773,4592.692383,4460.0,4545.512695,,,,,,,,,,,,,,,,,,,,,,,,,,,,,,,,,,,,,,,,,,,,,,,,,,,,,,,,,,,,,,,,,,,,,,
1769163335.832531,1769163335.833623,108.0,0.0,4260.128418,4313.589844,4600.256348,4374.230957,4296.794922,4293.846191,4333.846191,4325.0,4294.358887,4292.179688,4624.230957,4585.512695,4446.794922,4538.589844,,,,,,,,,,,,,,,,,,,,,,,,,,,,,,,,,,,,,,,,,,,,,,,,,,,,,,,,,,,,,,,,,,,,,,
1769163335.840339,1769163335.841432,109.0,0.0,4262.307617,4310.128418,4600.897461,4375.512695,4296.410156,4297.179688,4341.410156,4332.436035,4307.820313,4295.769043,4627.692383,4586.410156,4451.922852,4539.871582,,,,,,,,,,,,,,,,,,,,,,,,,,,,,,,,,,,,,,,,,,,,,,,,,,,,,,,,,,,,,,,,,,,,,,
1769163335.848148,1769163335.84914,110.0,0.0,4263.974121,4312.05127,4602.820313,4374.230957,4295.0,4285.769043,4335.128418,4336.282227,4316.153809,4302.05127,4635.256348,4597.94873,4463.974121,4552.05127,0.830623,0.711131,0.171147,0.306116,0.180544,0.406193,0.354975,0.248247,0.218053,0.166244,0.478742,0.399551,0.116752,0.156333,0.094031,0.658407,0.291907,0.1163,0.139913,0.093889,0.158334,0.119689,0.151823,0.072194,0.095069,0.266686,0.561619,0.078226,0.277477,0.198141,0.164697,0.229056,0.115399,0.102026,0.091487,0.136701,0.101826,0.111975,0.070865,0.10791,0.346234,0.246174,0.330329,0.123009,0.150848,0.480598,0.911358,0.69268,0.174854,0.162928,0.318958,0.804054,0.514031,0.156179,0.169823,0.448969,0.677923,0.377124,0.183144,0.146529,0.435249,1.108744,0.524259,0.231642,0.237482,0.789949,1.405726,0.346845,0.277088,0.256398
1769163335.855956,1769163335.856949,111.0,0.0,4261.153809,4312.563965,4601.153809,4372.179688,4294.230957,4279.230957,4331.025879,4330.512695,4307.563965,4298.717773,4633.461426,4602.307617,4458.077148,4555.0,,,,,,,,,,,,,,,,,,,,,,,,,,,,,,,,,,,,,,,,,,,,,,,,,,,,,,,,,,,,,,,,,,,,,,
1769163335.863764,1769163335.864957,112.0,0.0,4254.871582,4308.205078,4598.333496,4372.563965,4292.94873,4285.384766,4334.743652,4325.641113,4305.897461,4295.256348,4629.871582,4597.820313,4451.666504,4543.717773,,,,,,,,,,,,,,,,,,,,,,,,,,,,,,,,,,,,,,,,,,,,,,,,,,,,,,,,,,,,,,,,,,,,,,
1769163335.871573,1769163335.872766,113.0,0.0,4249.743652,4303.461426,4595.384766,4371.922852,4292.563965,4288.461426,4334.743652,4327.692383,4310.512695,4296.410156,4629.615234,4593.205078,4453.846191,4537.436035,,,,,,,,,,,,,,,,,,,,,,,,,,,,,,,,,,,,,,,,,,,,,,,,,,,,,,,,,,,,,,,,,,,,,,
1769163335.879381,1769163335.880674,114.0,0.0,4248.717773,4298.205078,4591.922852,4364.230957,4291.666504,4286.794922,4334.743652,4327.94873,4305.897461,4297.05127,4630.384766,4590.769043,4452.436035,4543.717773,,,,,,,,,,,,,,,,,,,,,,,,,,,,,,,,,,,,,,,,,,,,,,,,,,,,,,,,,,,,,,,,,,,,,,
1769163335.88719,1769163335.888482,115.0,0.0,4242.307617,4293.333496,4586.025879,4356.282227,4285.512695,4288.461426,4336.794922,4325.0,4295.641113,4293.846191,4624.358887,4586.922852,4445.0,4537.179688,,,,,,,,,,,,,,,,,,,,,,,,,,,,,,,,,,,,,,,,,,,,,,,,,,,,,,,,,,,,,,,,,,,,,,
1769163335.894998,1769163335.896491,116.0,0.0,4241.410156,4293.077148,4583.846191,4360.384766,4283.077148,4290.641113,4335.641113,4324.871582,4293.461426,4288.461426,4615.0,4584.358887,4441.538574,4521.794922,,,,,,,,,,,,,,,,,,,,,,,,,,,,,,,,,,,,,,,,,,,,,,,,,,,,,,,,,,,,,,,,,,,,,,
1769163335.902807,1769163335.904299,117.0,0.0,4247.820313,4294.230957,4585.256348,4365.769043,4287.307617,4292.307617,4336.282227,4325.256348,4293.077148,4284.615234,4614.102539,4585.0,4442.692383,4521.666504,,,,,,,,,,,,,,,,,,,,,,,,,,,,,,,,,,,,,,,,,,,,,,,,,,,,,,,,,,,,,,,,,,,,,,
1769163335.910615,1769163335.912008,118.0,0.0,4240.128418,4291.538574,4581.922852,4359.615234,4289.358887,4293.205078,4337.436035,4325.384766,4285.0,4281.922852,4615.769043,4583.846191,4441.282227,4524.487305,,,,,,,,,,,,,,,,,,,,,,,,,,,,,,,,,,,,,,,,,,,,,,,,,,,,,,,,,,,,,,,,,,,,,,
1769163335.918424,1769163335.919816,119.0,0.0,4230.128418,4290.0,4580.769043,4357.179688,4290.384766,4289.615234,4332.692383,4325.769043,4283.205078,4280.897461,4612.94873,4581.538574,4440.256348,4521.282227,,,,,,,,,,,,,,,,,,,,,,,,,,,,,,,,,,,,,,,,,,,,,,,,,,,,,,,,,,,,,,,,,,,,,,
1769163335.926232,1769163335.927425,120.0,0.0,4240.769043,4294.871582,4588.461426,4365.512695,4292.820313,4285.0,4332.307617,4325.0,4288.077148,4285.897461,4617.05127,4584.743652,4444.102539,4527.05127,,,,,,,,,,,,,,,,,,,,,,,,,,,,,,,,,,,,,,,,,,,,,,,,,,,,,,,,,,,,,,,,,,,,,,
1769163335.93404,1769163335.935233,121.0,0.0,4250.641113,4296.025879,4592.05127,4368.461426,4291.922852,4283.077148,4333.077148,4324.358887,4286.025879,4292.94873,4627.307617,4592.179688,4448.846191,4537.307617,,,,,,,,,,,,,,,,,,,,,,,,,,,,,,,,,,,,,,,,,,,,,,,,,,,,,,,,,,,,,,,,,,,,,,
1769163335.941849,1769163335.942942,122.0,0.0,4247.179688,4296.666504,4585.512695,4366.025879,4290.384766,4284.615234,4330.384766,4326.025879,4287.307617,4294.615234,4626.794922,4591.410156,4448.589844,4537.179688,,,,,,,,,,,,,,,,,,,,,,,,,,,,,,,,,,,,,,,,,,,,,,,,,,,,,,,,,,,,,,,,,,,,,,
1769163335.949657,1769163335.95075,123.0,0.0,4248.205078,4304.743652,4583.077148,4370.641113,4289.615234,4285.384766,4332.307617,4328.333496,4295.256348,4293.205078,4623.846191,4587.307617,4443.974121,4533.589844,,,,,,,,,,,,,,,,,,,,,,,,,,,,,,,,,,,,,,,,,,,,,,,,,,,,,,,,,,,,,,,,,,,,,,
1769163335.957466,1769163335.958359,124.0,0.0,4249.615234,4304.230957,4587.05127,4374.743652,4285.256348,4286.282227,4333.205078,4322.94873,4290.641113,4288.205078,4627.820313,4589.102539,4444.230957,4537.436035,,,,,,,,,,,,,,,,,,,,,,,,,,,,,,,,,,,,,,,,,,,,,,,,,,,,,,,,,,,,,,,,,,,,,,
1769163335.965274,1769163335.966167,125.0,0.0,4245.641113,4294.743652,4583.846191,4370.128418,4285.0,4289.615234,4330.256348,4312.820313,4277.05127,4278.077148,4625.128418,4588.589844,4447.307617,4540.897461,,,,,,,,,,,,,,,,,,,,,,,,,,,,,,,,,,,,,,,,,,,,,,,,,,,,,,,,,,,,,,,,,,,,,,
1769163335.973083,1769163335.973876,126.0,0.0,4246.922852,4295.128418,4577.692383,4367.436035,4290.0,4288.589844,4330.641113,4310.256348,4276.666504,4276.153809,4613.205078,4581.282227,4442.692383,4531.794922,0.886875,0.627045,0.168635,0.254848,0.175874,0.482611,0.285003,0.21076,0.233531,0.162807,0.556199,0.326901,0.109077,0.155024,0.088884,0.639254,0.271703,0.10218,0.124845,0.090668,0.148583,0.113108,0.15092,0.074022,0.084124,0.232651,0.459418,0.063691,0.276843,0.205666,0.180307,0.223778,0.093361,0.113007,0.094601,0.138645,0.104651,0.140755,0.088861,0.103045,0.334711,0.271764,0.374324,0.14533,0.15787,0.433098,0.869976,0.690298,0.193691,0.161939,0.307421,0.794953,0.530054,0.140757,0.151208,0.486489,0.604156,0.367815,0.20963,0.134418,0.439907,0.920727,0.495091,0.242223,0.207246,0.829112,1.213076,0.288956,0.2623,0.228677
1769163335.980891,1769163335.981684,127.0,0.0,4244.230957,4298.589844,4577.820313,4370.384766,4289.487305,4289.230957,4334.871582,4313.077148,4282.05127,4278.717773,4604.743652,4576.666504,4434.102539,4521.538574,,,,,,,,,,,,,,,,,,,,,,,,,,,,,,,,,,,,,,,,,,,,,,,,,,,,,,,,,,,,,,,,,,,,,,
1769163335.9887,1769163335.989692,0.0,0.0,4236.538574,4293.461426,4580.256348,4370.512695,4287.436035,4296.025879,4335.384766,4312.692383,4279.358887,4276.538574,4610.0,4579.615234,4440.384766,4527.179688,,,,,,,,,,,,,,,,,,,,,,,,,,,,,,,,,,,,,,,,,,,,,,,,,,,,,,,,,,,,,,,,,,,,,,
1769163335.996508,1769163335.997501,1.0,0.0,4242.436035,4296.153809,4584.230957,4373.205078,4290.384766,4291.153809,4330.512695,4310.256348,4280.128418,4283.077148,4623.461426,4586.922852,4457.820313,4543.461426,,,,,,,,,,,,,,,,,,,,,,,,,,,,,,,,,,,,,,,,,,,,,,,,,,,,,,,,,,,,,,,,,,,,,,
1769163336.004316,1769163336.005409,2.0,0.0,4253.717773,4308.589844,4588.589844,4381.025879,4293.205078,4280.128418,4326.666504,4314.358887,4289.743652,4295.512695,4628.846191,4595.769043,4463.589844,4552.436035,,,,,,,,,,,,,,,,,,,,,,,,,,,,,,,,,,,,,,,,,,,,,,,,,,,,,,,,,,,,,,,,,,,,,,
1769163336.012125,1769163336.013218,3.0,0.0,4250.641113,4311.666504,4586.922852,4382.692383,4293.461426,4282.820313,4330.512695,4321.922852,4294.743652,4295.641113,4625.897461,4599.615234,4456.922852,4550.512695,,,,,,,,,,,,,,,,,,,,,,,,,,,,,,,,,,,,,,,,,,,,,,,,,,,,,,,,,,,,,,,,,,,,,,
1769163336.019934,1769163336.021226,4.0,0.0,4245.641113,4310.0,4582.179688,4382.563965,4295.769043,4285.769043,4334.615234,4322.94873,4293.461426,4292.05127,4628.461426,4599.871582,4455.384766,4548.974121,,,,,,,,,,,,,,,,,,,,,,,,,,,,,,,,,,,,,,,,,,,,,,,,,,,,,,,,,,,,,,,,,,,,,,
1769163336.027742,1769163336.029034,5.0,0.0,4250.641113,4311.666504,4581.922852,4385.128418,4297.436035,4282.820313,4331.025879,4324.487305,4295.384766,4296.538574,4635.769043,4604.743652,4463.974121,4553.974121,,,,,,,,,,,,,,,,,,,,,,,,,,,,,,,,,,,,,,,,,,,,,,,,,,,,,,,,,,,,,,,,,,,,,,
1769163336.03555,1769163336.036743,6.0,0.0,4248.717773,4306.282227,4578.846191,4380.0,4293.717773,4287.692383,4331.538574,4326.410156,4297.179688,4296.922852,4633.717773,4602.94873,4463.333496,4553.077148,,,,,,,,,,,,,,,,,,,,,,,,,,,,,,,,,,,,,,,,,,,,,,,,,,,,,,,,,,,,,,,,,,,,,,
1769163336.043359,1769163336.044551,7.0,0.0,4235.128418,4294.358887,4566.282227,4369.743652,4290.769043,4293.717773,4336.025879,4317.692383,4293.333496,4290.384766,4622.94873,4585.512695,4447.179688,4532.820313,,,,,,,,,,,,,,,,,,,,,,,,,,,,,,,,,,,,,,,,,,,,,,,,,,,,,,,,,,,,,,,,,,,,,,
1769163336.051167,1769163336.05216,8.0,0.0,4227.692383,4296.025879,4560.128418,4369.230957,4295.128418,4293.077148,4335.897461,4309.487305,4291.410156,4291.153809,4615.384766,4575.384766,4445.641113,4522.179688,,,,,,,,,,,,,,,,,,,,,,,,,,,,,,,,,,,,,,,,,,,,,,,,,,,,,,,,,,,,,,,,,,,,,,
1769163336.058976,1769163336.059969,9.0,0.0,4232.563965,4307.820313,4561.922852,4378.846191,4299.102539,4291.153809,4335.128418,4314.358887,4293.461426,4294.743652,4621.153809,4583.974121,4462.05127,4536.666504,,,,,,,,,,,,,,,,,,,,,,,,,,,,,,,,,,,,,,,,,,,,,,,,,,,,,,,,,,,,,,,,,,,,,,
1769163336.066784,1769163336.067877,10.0,0.0,4234.230957,4304.358887,4558.077148,4381.282227,4295.641113,4290.0,4335.128418,4319.102539,4293.717773,4291.410156,4625.897461,4586.538574,4459.487305,4537.94873,,,,,,,,,,,,,,,,,,,,,,,,,,,,,,,,,,,,,,,,,,,,,,,,,,,,,,,,,,,,,,,,,,,,,,
1769163336.074593,1769163336.075685,11.0,0.0,4229.487305,4294.102539,4556.153809,4373.846191,4292.307617,4291.410156,4335.128418,4317.05127,4292.307617,4288.974121,4620.384766,4581.410156,4446.794922,4522.692383,,,,,,,,,,,,,,,,,,,,,,,,,,,,,,,,,,,,,,,,,,,,,,,,,,,,,,,,,,,,,,,,,,,,,,
1769163336.082401,1769163336.083694,12.0,0.0,4231.922852,4300.384766,4566.153809,4371.153809,4295.128418,4290.769043,4335.897461,4320.897461,4294.615234,4294.358887,4621.410156,4589.615234,4455.641113,4527.94873,,,,,,,,,,,,,,,,,,,,,,,,,,,,,,,,,,,,,,,,,,,,,,,,,,,,,,,,,,,,,,,,,,,,,,
1769163336.09021,1769163336.091502,13.0,0.0,4237.820313,4312.179688,4573.717773,4378.717773,4297.307617,4287.692383,4334.230957,4326.025879,4300.256348,4298.846191,4629.102539,4600.256348,4464.871582,4543.205078,,,,,,,,,,,,,,,,,,,,,,,,,,,,,,,,,,,,,,,,,,,,,,,,,,,,,,,,,,,,,,,,,,,,,,
1769163336.098018,1769163336.099211,14.0,0.0,4234.743652,4308.589844,4569.102539,4381.666504,4293.974121,4289.615234,4333.974121,4326.282227,4306.538574,4297.436035,4629.615234,4599.358887,4458.077148,4539.743652,0.93913,0.541441,0.173804,0.213134,0.171686,0.560387,0.234997,0.180193,0.26773,0.155047,0.560094,0.266711,0.101668,0.16108,0.085105,0.603295,0.259594,0.095019,0.118588,0.086668,0.144583,0.104411,0.146349,0.07691,0.068778,0.224132,0.377252,0.054531,0.266496,0.204905,0.190924,0.220892,0.078417,0.120726,0.09755,0.143932,0.116396,0.160816,0.104006,0.095733,0.343582,0.32033,0.402234,0.165966,0.158504,0.425978,0.807931,0.655943,0.218396,0.152777,0.316492,0.743488,0.499493,0.137597,0.1327,0.526296,0.529532,0.338432,0.24332,0.120653,0.475013,0.750351,0.442862,0.274169,0.176224,0.834242,1.004322,0.251559,0.255172,0.197863
1769163336.105827,1769163336.107019,15.0,0.0,4230.0,4300.0,4564.871582,4377.692383,4291.538574,4294.871582,4341.538574,4328.077148,4310.512695,4297.563965,4628.974121,4597.307617,4457.94873,4534.487305,,,,,,,,,,,,,,,,,,,,,,,,,,,,,,,,,,,,,,,,,,,,,,,,,,,,,,,,,,,,,,,,,,,,,,
1769163336.113635,1769163336.114628,16.0,0.0,4233.589844,4302.692383,4568.205078,4380.384766,4292.307617,4293.461426,4342.307617,4326.922852,4304.487305,4297.820313,4628.717773,4600.897461,4458.461426,4537.563965,,,,,,,,,,,,,,,,,,,,,,,,,,,,,,,,,,,,,,,,,,,,,,,,,,,,,,,,,,,,,,,,,,,,,,
1769163336.121443,1769163336.122436,17.0,0.0,4235.512695,4303.205078,4567.820313,4381.410156,4289.102539,4286.025879,4332.179688,4325.897461,4294.487305,4289.871582,4621.282227,4602.436035,4447.563965,4532.307617,,,,,,,,,,,,,,,,,,,,,,,,,,,,,,,,,,,,,,,,,,,,,,,,,,,,,,,,,,,,,,,,,,,,,,
1769163336.129252,1769163336.130145,18.0,0.0,4231.666504,4298.333496,4560.512695,4375.897461,4286.922852,4280.128418,4331.153809,4326.025879,4292.692383,4282.94873,4616.794922,4596.153809,4442.94873,4527.563965,,,,,,,,,,,,,,,,,,,,,,,,,,,,,,,,,,,,,,,,,,,,,,,,,,,,,,,,,,,,,,,,,,,,,,
1769163336.13706,1769163336.137953,19.0,0.0,4231.794922,4295.897461,4552.436035,4374.743652,4287.820313,4278.205078,4335.0,4319.487305,4292.94873,4280.256348,4615.256348,4586.153809,4443.974121,4522.307617,,,,,,,,,,,,,,,,,,,,,,,,,,,,,,,,,,,,,,,,,,,,,,,,,,,,,,,,,,,,,,,,,,,,,,
1769163336.144869,1769163336.145562,20.0,0.0,4232.820313,4295.512695,4548.589844,4378.461426,4286.282227,4280.512695,4331.794922,4314.871582,4288.333496,4279.871582,4611.410156,4580.897461,4439.230957,4512.307617,,,,,,,,,,,,,,,,,,,,,,,,,,,,,,,,,,,,,,,,,,,,,,,,,,,,,,,,,,,,,,,,,,,,,,
1769163336.152677,1769163336.15337,21.0,0.0,4233.461426,4300.512695,4551.666504,4381.794922,4289.102539,4280.0,4330.0,4320.769043,4289.743652,4284.487305,4616.153809,4587.05127,4441.025879,4514.615234,,,,,,,,,,,,,,,,,,,,,,,,,,,,,,,,,,,,,,,,,,,,,,,,,,,,,,,,,,,,,,,,,,,,,,
1769163336.160486,1769163336.161079,22.0,0.0,4238.461426,4305.641113,4550.769043,4382.820313,4293.974121,4278.717773,4334.487305,4322.94873,4293.205078,4284.743652,4622.179688,4594.487305,4447.94873,4524.487305,,,,,,,,,,,,,,,,,,,,,,,,,,,,,,,,,,,,,,,,,,,,,,,,,,,,,,,,,,,,,,,,,,,,,,
1769163336.168294,1769163336.168887,23.0,0.0,4246.025879,4302.563965,4542.820313,4381.153809,4290.128418,4284.871582,4336.666504,4323.846191,4293.717773,4282.05127,4621.666504,4596.153809,4446.282227,4523.205078,,,,,,,,,,,,,,,,,,,,,,,,,,,,,,,,,,,,,,,,,,,,,,,,,,,,,,,,,,,,,,,,,,,,,,
1769163336.176103,1769163336.176496,24.0,0.0,4245.384766,4301.794922,4539.230957,4380.384766,4288.205078,4286.794922,4334.615234,4331.153809,4299.102539,4288.974121,4624.358887,4598.333496,4445.0,4521.153809,,,,,,,,,,,,,,,,,,,,,,,,,,,,,,,,,,,,,,,,,,,,,,,,,,,,,,,,,,,,,,,,,,,,,,
1769163336.183911,1769163336.184304,25.0,0.0,4235.512695,4306.025879,4536.025879,4381.922852,4295.256348,4281.666504,4333.077148,4330.897461,4304.615234,4295.897461,4630.0,4601.025879,4448.717773,4525.769043,,,,,,,,,,,,,,,,,,,,,,,,,,,,,,,,,,,,,,,,,,,,,,,,,,,,,,,,,,,,,,,,,,,,,,
1769163336.191719,1769163336.192013,26.0,0.0,4227.179688,4299.358887,4526.153809,4377.05127,4295.128418,4285.384766,4336.538574,4328.589844,4305.128418,4290.512695,4628.846191,4598.205078,4445.641113,4523.333496,,,,,,,,,,,,,,,,,,,,,,,,,,,,,,,,,,,,,,,,,,,,,,,,,,,,,,,,,,,,,,,,,,,,,,
1769163336.199528,1769163336.199821,27.0,0.0,4231.025879,4293.461426,4517.563965,4371.922852,4289.102539,4292.179688,4342.94873,4332.94873,4302.94873,4285.0,4624.102539,4596.538574,4441.538574,4521.025879,,,,,,,,,,,,,,,,,,,,,,,,,,,,,,,,,,,,,,,,,,,,,,,,,,,,,,,,,,,,,,,,,,,,,,
1769163336.207336,1769163336.20783,28.0,0.0,4232.436035,4297.692383,4513.589844,4375.256348,4289.487305,4288.077148,4339.615234,4332.179688,4298.461426,4288.205078,4621.538574,4597.307617,4444.487305,4526.025879,,,,,,,,,,,,,,,,,,,,,,,,,,,,,,,,,,,,,,,,,,,,,,,,,,,,,,,,,,,,,,,,,,,,,,
1769163336.215145,1769163336.215638,29.0,0.0,4219.487305,4295.897461,4503.846191,4376.666504,4292.179688,4286.153809,4332.820313,4325.769043,4295.256348,4290.384766,4620.641113,4593.333496,4446.922852,4526.282227,,,,,,,,,,,,,,,,,,,,,,,,,,,,,,,,,,,,,,,,,,,,,,,,,,,,,,,,,,,,,,,,,,,,,,
1769163336.222953,1769163336.223546,30.0,0.0,4217.307617,4290.897461,4495.0,4375.384766,4291.538574,4293.589844,4335.769043,4324.871582,4296.025879,4286.153809,4619.358887,4590.512695,4443.461426,4523.205078,0.882553,0.464033,0.191304,0.181724,0.173134,0.630047,0.215893,0.166702,0.302259,0.14594,0.58052,0.234528,0.103376,0.164465,0.085168,0.574716,0.252211,0.10255,0.117552,0.083436,0.152039,0.098534,0.141521,0.079573,0.05313,0.234703,0.342368,0.054003,0.252226,0.19664,0.187746,0.216913,0.073483,0.124796,0.10007,0.145602,0.137359,0.171614,0.110678,0.087721,0.354451,0.413429,0.422102,0.179298,0.155491,0.427934,0.768634,0.611484,0.241969,0.139187,0.321911,0.672662,0.441869,0.141723,0.121621,0.556788,0.48861,0.313944,0.268072,0.10991,0.517089,0.648218,0.388537,0.315125,0.157637,0.80472,0.836438,0.258186,0.259245,0.178508
1769163336.230762,1769163336.231355,31.0,0.0,4231.025879,4295.256348,4491.538574,4378.589844,4291.538574,4294.743652,4340.256348,4331.794922,4296.410156,4284.743652,4620.769043,4596.410156,4441.922852,4523.461426,,,,,,,,,,,,,,,,,,,,,,,,,,,,,,,,,,,,,,,,,,,,,,,,,,,,,,,,,,,,,,,,,,,,,,
1769163336.23857,1769163336.238963,32.0,0.0,4233.461426,4303.205078,4491.538574,4383.205078,4292.563965,4286.922852,4335.641113,4334.871582,4295.256348,4291.666504,4626.153809,4600.128418,4446.282227,4526.025879,,,,,,,,,,,,,,,,,,,,,,,,,,,,,,,,,,,,,,,,,,,,,,,,,,,,,,,,,,,,,,,,,,,,,,
1769163336.246379,1769163336.246772,33.0,0.0,4226.410156,4306.282227,4493.205078,4384.102539,4291.025879,4278.077148,4325.897461,4328.589844,4293.974121,4291.025879,4627.05127,4593.333496,4448.205078,4525.641113,,,,,,,,,,,,,,,,,,,,,,,,,,,,,,,,,,,,,,,,,,,,,,,,,,,,,,,,,,,,,,,,,,,,,,
1769163336.254187,1769163336.25448,34.0,0.0,4225.769043,4305.897461,4486.153809,4383.077148,4288.077148,4276.666504,4323.717773,4330.512695,4293.077148,4280.769043,4622.307617,4586.794922,4444.743652,4524.743652,,,,,,,,,,,,,,,,,,,,,,,,,,,,,,,,,,,,,,,,,,,,,,,,,,,,,,,,,,,,,,,,,,,,,,
1769163336.261995,1769163336.262289,35.0,0.0,4223.846191,4304.230957,4471.794922,4381.922852,4288.974121,4285.641113,4331.153809,4343.717773,4294.871582,4279.358887,4619.230957,4587.436035,4441.538574,4523.974121,,,,,,,,,,,,,,,,,,,,,,,,,,,,,,,,,,,,,,,,,,,,,,,,,,,,,,,,,,,,,,,,,,,,,,
1769163336.269804,1769163336.270297,36.0,0.0,4217.820313,4307.05127,4460.897461,4382.94873,4293.205078,4288.077148,4336.282227,4346.025879,4296.538574,4287.563965,4620.128418,4589.871582,4442.563965,4523.461426,,,,,,,,,,,,,,,,,,,,,,,,,,,,,,,,,,,,,,,,,,,,,,,,,,,,,,,,,,,,,,,,,,,,,,
1769163336.277612,1769163336.278106,37.0,0.0,4216.282227,4306.922852,4452.436035,4381.666504,4293.974121,4281.666504,4334.871582,4338.974121,4296.025879,4291.153809,4619.743652,4587.820313,4445.0,4522.94873,,,,,,,,,,,,,,,,,,,,,,,,,,,,,,,,,,,,,,,,,,,,,,,,,,,,,,,,,,,,,,,,,,,,,,
1769163336.285421,1769163336.286014,38.0,0.0,4215.641113,4299.871582,4444.487305,4375.769043,4292.179688,4283.333496,4334.743652,4338.461426,4295.897461,4287.307617,4618.846191,4584.615234,4445.0,4522.94873,,,,,,,,,,,,,,,,,,,,,,,,,,,,,,,,,,,,,,,,,,,,,,,,,,,,,,,,,,,,,,,,,,,,,,
1769163336.293229,1769163336.293822,39.0,0.0,4215.641113,4299.358887,4441.922852,4377.05127,4290.769043,4288.974121,4335.0,4343.461426,4297.05127,4286.922852,4621.666504,4587.563965,4443.589844,4523.589844,,,,,,,,,,,,,,,,,,,,,,,,,,,,,,,,,,,,,,,,,,,,,,,,,,,,,,,,,,,,,,,,,,,,,,
1769163336.301038,1769163336.301431,40.0,0.0,4218.846191,4308.974121,4440.0,4381.922852,4288.205078,4284.743652,4331.025879,4340.769043,4296.794922,4290.897461,4622.563965,4589.102539,4444.743652,4524.487305,,,,,,,,,,,,,,,,,,,,,,,,,,,,,,,,,,,,,,,,,,,,,,,,,,,,,,,,,,,,,,,,,,,,,,
1769163336.308846,1769163336.309239,41.0,0.0,4218.461426,4309.871582,4431.410156,4377.05127,4287.436035,4277.179688,4329.358887,4331.282227,4294.743652,4287.307617,4618.077148,4585.0,4445.769043,4524.871582,,,,,,,,,,,,,,,,,,,,,,,,,,,,,,,,,,,,,,,,,,,,,,,,,,,,,,,,,,,,,,,,,,,,,,
1769163336.316655,1769163336.316948,42.0,0.0,4213.717773,4301.410156,4423.461426,4370.128418,4288.461426,4278.077148,4333.589844,4329.358887,4293.333496,4278.589844,4620.0,4582.436035,4445.384766,4523.846191,,,,,,,,,,,,,,,,,,,,,,,,,,,,,,,,,,,,,,,,,,,,,,,,,,,,,,,,,,,,,,,,,,,,,,
1769163336.324463,1769163336.324756,43.0,0.0,4216.410156,4304.615234,4422.563965,4373.974121,4288.846191,4281.282227,4336.666504,4336.282227,4293.333496,4277.692383,4625.897461,4585.0,4445.897461,4524.487305,,,,,,,,,,,,,,,,,,,,,,,,,,,,,,,,,,,,,,,,,,,,,,,,,,,,,,,,,,,,,,,,,,,,,,
1769163336.332272,1769163336.332365,44.0,0.0,4221.153809,4305.769043,4420.512695,4376.153809,4286.025879,4282.179688,4333.461426,4335.512695,4293.333496,4280.384766,4618.717773,4585.128418,4444.358887,4524.230957,,,,,,,,,,,,,,,,,,,,,,,,,,,,,,,,,,,,,,,,,,,,,,,,,,,,,,,,,,,,,,,,,,,,,,
1769163336.34008,1769163336.340174,45.0,0.0,4217.820313,4296.282227,4411.666504,4368.461426,4283.077148,4281.538574,4328.333496,4332.692383,4295.256348,4284.487305,4611.666504,4579.358887,4440.897461,4521.282227,,,,,,,,,,,,,,,,,,,,,,,,,,,,,,,,,,,,,,,,,,,,,,,,,,,,,,,,,,,,,,,,,,,,,,
1769163336.347889,1769163336.347882,46.0,0.0,4210.897461,4296.666504,4400.769043,4362.436035,4281.794922,4279.230957,4327.179688,4338.205078,4297.692383,4290.128418,4619.358887,4579.102539,4442.94873,4518.846191,0.846825,0.401442,0.236742,0.158578,0.182254,0.704598,0.230088,0.183182,0.317743,0.138521,0.550276,0.238508,0.127981,0.156781,0.089715,0.565823,0.246282,0.131734,0.117629,0.082305,0.176532,0.099918,0.140381,0.080181,0.040693,0.262154,0.357404,0.066978,0.238387,0.18266,0.177965,0.205508,0.075962,0.125068,0.101596,0.142652,0.171291,0.184547,0.107641,0.080679,0.364006,0.560462,0.450723,0.182221,0.152195,0.420321,0.781335,0.587079,0.257759,0.125397,0.309539,0.620173,0.408017,0.147031,0.122455,0.567563,0.514592,0.33823,0.271919,0.106486,0.557672,0.62749,0.361476,0.346657,0.160762,0.763333,0.757927,0.342369,0.270851,0.181701
1769163336.355697,1769163336.355691,47.0,0.0,4211.410156,4305.0,4399.615234,4366.410156,4278.333496,4278.077148,4328.589844,4338.589844,4298.333496,4293.205078,4626.153809,4589.487305,4450.384766,4523.461426,,,,,,,,,,,,,,,,,,,,,,,,,,,,,,,,,,,,,,,,,,,,,,,,,,,,,,,,,,,,,,,,,,,,,,
1769163336.363505,1769163336.363299,48.0,0.0,4223.589844,4308.846191,4407.692383,4376.538574,4280.897461,4278.974121,4327.436035,4333.461426,4299.487305,4291.666504,4627.179688,4596.666504,4453.461426,4532.563965,,,,,,,,,,,,,,,,,,,,,,,,,,,,,,,,,,,,,,,,,,,,,,,,,,,,,,,,,,,,,,,,,,,,,,
1769163336.371314,1769163336.371108,49.0,0.0,4231.922852,4310.769043,4408.589844,4380.128418,4288.589844,4279.102539,4327.820313,4334.358887,4299.615234,4287.563965,4626.410156,4592.563965,4447.94873,4532.05127,,,,,,,,,,,,,,,,,,,,,,,,,,,,,,,,,,,,,,,,,,,,,,,,,,,,,,,,,,,,,,,,,,,,,,
1769163336.379122,1769163336.378816,50.0,0.0,4219.358887,4307.94873,4400.0,4374.871582,4286.282227,4278.974121,4335.0,4336.282227,4296.794922,4281.153809,4621.153809,4579.871582,4441.666504,4517.307617,,,,,,,,,,,,,,,,,,,,,,,,,,,,,,,,,,,,,,,,,,,,,,,,,,,,,,,,,,,,,,,,,,,,,,
1769163336.386931,1769163336.386625,51.0,0.0,4204.871582,4301.666504,4391.922852,4371.410156,4280.897461,4284.358887,4338.974121,4332.436035,4294.615234,4278.846191,4616.153809,4571.410156,4441.282227,4511.025879,,,,,,,,,,,,,,,,,,,,,,,,,,,,,,,,,,,,,,,,,,,,,,,,,,,,,,,,,,,,,,,,,,,,,,
1769163336.394739,1769163336.394633,52.0,0.0,4206.922852,4305.384766,4393.461426,4375.0,4286.922852,4289.615234,4334.358887,4331.666504,4296.794922,4286.922852,4620.641113,4581.025879,4446.025879,4518.589844,,,,,,,,,,,,,,,,,,,,,,,,,,,,,,,,,,,,,,,,,,,,,,,,,,,,,,,,,,,,,,,,,,,,,,
1769163336.402548,1769163336.402441,53.0,0.0,4207.436035,4305.0,4395.128418,4374.102539,4292.05127,4289.358887,4333.974121,4337.692383,4298.333496,4288.974121,4620.897461,4585.897461,4440.641113,4515.384766,,,,,,,,,,,,,,,,,,,,,,,,,,,,,,,,,,,,,,,,,,,,,,,,,,,,,,,,,,,,,,,,,,,,,,
1769163336.410356,1769163336.41035,54.0,0.0,4202.692383,4293.717773,4389.871582,4366.538574,4288.205078,4288.205078,4340.0,4335.384766,4294.615234,4277.820313,4611.538574,4571.538574,4428.461426,4504.358887,,,,,,,,,,,,,,,,,,,,,,,,,,,,,,,,,,,,,,,,,,,,,,,,,,,,,,,,,,,,,,,,,,,,,,
1769163336.418165,1769163336.418158,55.0,0.0,4210.512695,4295.384766,4391.666504,4367.179688,4288.333496,4285.128418,4336.922852,4327.94873,4293.717773,4274.358887,4611.922852,4573.205078,4433.205078,4506.666504,,,,,,,,,,,,,,,,,,,,,,,,,,,,,,,,,,,,,,,,,,,,,,,,,,,,,,,,,,,,,,,,,,,,,,
1769163336.425973,1769163336.426166,56.0,0.0,4213.846191,4301.922852,4396.794922,4367.820313,4287.307617,4279.102539,4327.436035,4327.692383,4296.666504,4281.538574,4621.282227,4588.077148,4442.820313,4512.436035,,,,,,,,,,,,,,,,,,,,,,,,,,,,,,,,,,,,,,,,,,,,,,,,,,,,,,,,,,,,,,,,,,,,,,
1769163336.433782,1769163336.433975,57.0,0.0,4201.922852,4296.025879,4391.666504,4361.410156,4282.179688,4277.692383,4325.512695,4329.743652,4296.538574,4280.128418,4617.307617,4580.256348,4435.256348,4507.307617,,,,,,,,,,,,,,,,,,,,,,,,,,,,,,,,,,,,,,,,,,,,,,,,,,,,,,,,,,,,,,,,,,,,,,
1769163336.44159,1769163336.441683,58.0,0.0,4197.94873,4295.897461,4385.384766,4358.205078,4281.922852,4278.333496,4327.692383,4327.94873,4294.487305,4273.333496,4605.769043,4567.307617,4426.282227,4496.282227,,,,,,,,,,,,,,,,,,,,,,,,,,,,,,,,,,,,,,,,,,,,,,,,,,,,,,,,,,,,,,,,,,,,,,
1769163336.449398,1769163336.449492,59.0,0.0,4203.717773,4304.358887,4389.230957,4361.282227,4282.820313,4276.410156,4327.05127,4326.666504,4294.102539,4273.461426,4605.384766,4569.487305,4427.179688,4490.128418,,,,,,,,,,,,,,,,,,,,,,,,,,,,,,,,,,,,,,,,,,,,,,,,,,,,,,,,,,,,,,,,,,,,,,
1769163336.457207,1769163336.4575,60.0,0.0,4202.179688,4301.410156,4391.153809,4360.256348,4279.871582,4277.307617,4326.922852,4326.666504,4293.589844,4277.436035,4609.487305,4570.128418,4429.358887,4499.358887,,,,,,,,,,,,,,,,,,,,,,,,,,,,,,,,,,,,,,,,,,,,,,,,,,,,,,,,,,,,,,,,,,,,,,
1769163336.465015,1769163336.465308,61.0,0.0,4197.94873,4292.94873,4385.0,4356.922852,4278.717773,4277.94873,4326.794922,4325.897461,4293.589844,4276.794922,4606.153809,4570.897461,4431.922852,4511.025879,,,,,,,,,,,,,,,,,,,,,,,,,,,,,,,,,,,,,,,,,,,,,,,,,,,,,,,,,,,,,,,,,,,,,,
1769163336.472824,1769163336.473217,62.0,0.0,4196.025879,4294.358887,4378.717773,4356.410156,4281.922852,4282.563965,4330.641113,4327.05127,4288.717773,4267.820313,4600.384766,4567.05127,4430.641113,4501.922852,0.795865,0.354309,0.31477,0.141422,0.19684,0.789656,0.266026,0.235133,0.304289,0.135141,0.545806,0.275602,0.189002,0.136405,0.097486,0.609281,0.23742,0.180738,0.116247,0.083972,0.215069,0.108489,0.144051,0.07781,0.033351,0.294171,0.40176,0.09664,0.226606,0.165626,0.160861,0.185209,0.080476,0.122056,0.101866,0.139566,0.226703,0.216585,0.097069,0.076183,0.374269,0.750281,0.504111,0.174206,0.150161,0.403716,0.845279,0.59951,0.261538,0.114656,0.291487,0.614081,0.445542,0.149904,0.134013,0.551745,0.622648,0.444311,0.25251,0.111675,0.598716,0.661365,0.379562,0.353356,0.185673,0.740676,0.785691,0.513278,0.281114,0.209257
1769163336.480632,1769163336.481025,63.0,0.0,4190.769043,4297.563965,4379.230957,4356.538574,4283.974121,4292.05127,4337.05127,4328.846191,4283.589844,4265.384766,4600.256348,4555.641113,4425.256348,4489.487305,,,,,,,,,,,,,,,,,,,,,,,,,,,,,,,,,,,,,,,,,,,,,,,,,,,,,,,,,,,,,,,,,,,,,,
1769163336.488441,1769163336.488734,64.0,0.0,4185.0,4293.717773,4382.692383,4358.717773,4281.025879,4290.0,4332.692383,4328.077148,4287.820313,4276.153809,4601.025879,4558.333496,4425.256348,4488.717773,,,,,,,,,,,,,,,,,,,,,,,,,,,,,,,,,,,,,,,,,,,,,,,,,,,,,,,,,,,,,,,,,,,,,,
1769163336.496249,1769163336.496542,65.0,0.0,4190.0,4291.538574,4379.743652,4356.666504,4281.410156,4281.282227,4324.102539,4325.0,4288.205078,4278.589844,4599.871582,4569.358887,4426.538574,4490.769043,,,,,,,,,,,,,,,,,,,,,,,,,,,,,,,,,,,,,,,,,,,,,,,,,,,,,,,,,,,,,,,,,,,,,,
1769163336.504058,1769163336.504251,66.0,0.0,4197.692383,4295.256348,4377.179688,4353.846191,4288.974121,4280.641113,4324.102539,4323.846191,4283.333496,4277.820313,4605.641113,4569.487305,4432.692383,4501.025879,,,,,,,,,,,,,,,,,,,,,,,,,,,,,,,,,,,,,,,,,,,,,,,,,,,,,,,,,,,,,,,,,,,,,,
1769163336.511866,1769163336.512059,67.0,0.0,4195.769043,4299.102539,4376.794922,4361.153809,4293.077148,4281.666504,4330.384766,4328.077148,4290.0,4286.153809,4611.153809,4567.820313,4441.025879,4509.487305,,,,,,,,,,,,,,,,,,,,,,,,,,,,,,,,,,,,,,,,,,,,,,,,,,,,,,,,,,,,,,,,,,,,,,
1769163336.519674,1769163336.520068,68.0,0.0,4189.487305,4296.282227,4373.974121,4365.128418,4289.487305,4278.846191,4334.230957,4331.025879,4293.846191,4285.128418,4605.256348,4568.461426,4432.307617,4497.179688,,,,,,,,,,,,,,,,,,,,,,,,,,,,,,,,,,,,,,,,,,,,,,,,,,,,,,,,,,,,,,,,,,,,,,
1769163336.527483,1769163336.527876,69.0,0.0,4190.384766,4292.05127,4376.282227,4358.461426,4287.820313,4280.769043,4335.384766,4327.563965,4286.282227,4276.025879,4600.641113,4570.384766,4422.820313,4490.256348,,,,,,,,,,,,,,,,,,,,,,,,,,,,,,,,,,,,,,,,,,,,,,,,,,,,,,,,,,,,,,,,,,,,,,
1769163336.535291,1769163336.535784,70.0,0.0,4191.410156,4293.974121,4382.179688,4355.512695,4286.538574,4284.102539,4333.333496,4326.538574,4284.871582,4281.153809,4610.128418,4577.820313,4435.128418,4506.282227,,,,,,,,,,,,,,,,,,,,,,,,,,,,,,,,,,,,,,,,,,,,,,,,,,,,,,,,,,,,,,,,,,,,,,
1769163336.5431,1769163336.543593,71.0,0.0,4185.897461,4295.0,4378.846191,4360.641113,4282.179688,4281.666504,4330.256348,4328.717773,4290.897461,4283.077148,4614.487305,4578.205078,4444.615234,4513.717773,,,,,,,,,,,,,,,,,,,,,,,,,,,,,,,,,,,,,,,,,,,,,,,,,,,,,,,,,,,,,,,,,,,,,,
1769163336.550908,1769163336.551201,72.0,0.0,4184.615234,4287.563965,4371.153809,4358.333496,4279.358887,4280.128418,4331.410156,4327.436035,4290.897461,4270.641113,4603.205078,4569.615234,4430.769043,4500.897461,,,,,,,,,,,,,,,,,,,,,,,,,,,,,,,,,,,,,,,,,,,,,,,,,,,,,,,,,,,,,,,,,,,,,,
1769163336.558717,1769163336.55901,73.0,0.0,4185.128418,4280.256348,4369.230957,4350.897461,4279.487305,4285.256348,4334.487305,4326.666504,4286.282227,4269.102539,4596.282227,4567.05127,4418.461426,4489.358887,,,,,,,,,,,,,,,,,,,,,,,,,,,,,,,,,,,,,,,,,,,,,,,,,,,,,,,,,,,,,,,,,,,,,,
1769163336.566525,1769163336.566718,74.0,0.0,4180.641113,4284.615234,4372.179688,4352.692383,4282.436035,4291.410156,4337.820313,4327.692383,4283.974121,4279.615234,4599.871582,4565.641113,4422.820313,4489.871582,,,,,,,,,,,,,,,,,,,,,,,,,,,,,,,,,,,,,,,,,,,,,,,,,,,,,,,,,,,,,,,,,,,,,,
1769163336.574334,1769163336.574527,75.0,0.0,4182.436035,4290.641113,4377.05127,4358.077148,4289.358887,4288.717773,4334.487305,4325.769043,4290.897461,4285.512695,4603.974121,4564.487305,4430.641113,4499.102539,,,,,,,,,,,,,,,,,,,,,,,,,,,,,,,,,,,,,,,,,,,,,,,,,,,,,,,,,,,,,,,,,,,,,,
1769163336.582142,1769163336.582135,76.0,0.0,4192.820313,4290.512695,4381.410156,4359.358887,4291.153809,4280.512695,4327.179688,4323.589844,4296.410156,4287.05127,4605.128418,4569.102539,4431.538574,4505.641113,,,,,,,,,,,,,,,,,,,,,,,,,,,,,,,,,,,,,,,,,,,,,,,,,,,,,,,,,,,,,,,,,,,,,,
1769163336.589951,1769163336.589944,77.0,0.0,4201.282227,4290.897461,4386.025879,4359.102539,4285.384766,4277.179688,4328.846191,4324.487305,4288.589844,4286.025879,4605.641113,4574.615234,4430.897461,4504.871582,,,,,,,,,,,,,,,,,,,,,,,,,,,,,,,,,,,,,,,,,,,,,,,,,,,,,,,,,,,,,,,,,,,,,,
1769163336.597759,1769163336.597852,78.0,0.0,4196.538574,4290.128418,4386.538574,4359.358887,4281.025879,4281.025879,4335.256348,4324.487305,4282.563965,4279.615234,4603.333496,4572.94873,4429.743652,4502.179688,0.842232,0.32398,0.420689,0.130011,0.211951,0.88034,0.308734,0.31839,0.265107,0.136687,0.580529,0.333123,0.293464,0.110401,0.105956,0.675655,0.226787,0.241819,0.11313,0.08831,0.259859,0.121945,0.150473,0.072469,0.031148,0.319594,0.450367,0.141047,0.216494,0.148531,0.146421,0.164616,0.083815,0.117518,0.101073,0.143991,0.306819,0.277564,0.083303,0.075628,0.38801,0.949084,0.58434,0.158093,0.147894,0.386289,0.933309,0.648666,0.254311,0.108223,0.27102,0.656658,0.569113,0.149389,0.150278,0.497561,0.799099,0.638102,0.21676,0.123528,0.641604,0.706101,0.442775,0.32995,0.223059,0.757263,0.902444,0.74761,0.280526,0.251956
1769163336.605568,1769163336.605661,79.0,0.0,4183.974121,4287.692383,4383.589844,4359.230957,4280.384766,4282.05127,4331.538574,4323.846191,4286.153809,4276.282227,4599.871582,4568.846191,4427.05127,4499.102539,,,,,,,,,,,,,,,,,,,,,,,,,,,,,,,,,,,,,,,,,,,,,,,,,,,,,,,,,,,,,,,,,,,,,,
1769163336.613376,1769163336.613669,80.0,0.0,4182.820313,4290.897461,4388.461426,4362.05127,4281.282227,4275.769043,4322.436035,4324.358887,4292.436035,4285.641113,4603.717773,4569.743652,4432.692383,4502.94873,,,,,,,,,,,,,,,,,,,,,,,,,,,,,,,,,,,,,,,,,,,,,,,,,,,,,,,,,,,,,,,,,,,,,,
1769163336.621184,1769163336.621477,81.0,0.0,4191.666504,4294.871582,4396.538574,4367.179688,4282.563965,4273.077148,4326.794922,4323.589844,4293.461426,4292.307617,4611.282227,4574.871582,4445.0,4516.282227,,,,,,,,,,,,,,,,,,,,,,,,,,,,,,,,,,,,,,,,,,,,,,,,,,,,,,,,,,,,,,,,,,,,,,
1769163336.628993,1769163336.629386,82.0,0.0,4190.897461,4288.974121,4397.563965,4365.128418,4279.102539,4278.077148,4336.153809,4321.025879,4285.512695,4284.743652,4610.512695,4574.871582,4445.769043,4520.256348,,,,,,,,,,,,,,,,,,,,,,,,,,,,,,,,,,,,,,,,,,,,,,,,,,,,,,,,,,,,,,,,,,,,,,
1769163336.636801,1769163336.637194,83.0,0.0,4185.256348,4281.153809,4393.974121,4359.743652,4275.128418,4278.589844,4333.846191,4317.179688,4282.307617,4276.666504,4603.589844,4570.128418,4433.846191,4510.256348,,,,,,,,,,,,,,,,,,,,,,,,,,,,,,,,,,,,,,,,,,,,,,,,,,,,,,,,,,,,,,,,,,,,,,
1769163336.64461,1769163336.644803,84.0,0.0,4186.410156,4280.512695,4389.743652,4357.94873,4277.436035,4274.230957,4328.205078,4319.743652,4290.128418,4279.871582,4602.820313,4568.974121,4427.94873,4506.666504,,,,,,,,,,,,,,,,,,,,,,,,,,,,,,,,,,,,,,,,,,,,,,,,,,,,,,,,,,,,,,,,,,,,,,
1769163336.652418,1769163336.652611,85.0,0.0,4186.025879,4283.077148,4386.538574,4358.461426,4280.897461,4275.512695,4327.307617,4326.025879,4294.615234,4281.025879,4608.205078,4567.436035,4437.05127,4510.256348,,,,,,,,,,,,,,,,,,,,,,,,,,,,,,,,,,,,,,,,,,,,,,,,,,,,,,,,,,,,,,,,,,,,,,
1769163336.660227,1769163336.66052,86.0,0.0,4185.256348,4283.717773,4389.102539,4358.461426,4279.358887,4279.358887,4328.589844,4320.128418,4290.641113,4277.563965,4608.461426,4566.025879,4442.563965,4510.128418,,,,,,,,,,,,,,,,,,,,,,,,,,,,,,,,,,,,,,,,,,,,,,,,,,,,,,,,,,,,,,,,,,,,,,
1769163336.668035,1769163336.668328,87.0,0.0,4182.436035,4280.769043,4389.358887,4357.05127,4278.333496,4280.897461,4331.282227,4311.410156,4289.871582,4278.717773,4602.820313,4566.153809,4434.230957,4505.769043,,,,,,,,,,,,,,,,,,,,,,,,,,,,,,,,,,,,,,,,,,,,,,,,,,,,,,,,,,,,,,,,,,,,,,
1769163336.675844,1769163336.676336,88.0,0.0,4172.307617,4280.641113,4381.025879,4357.179688,4280.0,4280.384766,4333.205078,4316.538574,4291.922852,4280.256348,4598.461426,4560.128418,4426.538574,4500.769043,,,,,,,,,,,,,,,,,,,,,,,,,,,,,,,,,,,,,,,,,,,,,,,,,,,,,,,,,,,,,,,,,,,,,,
1769163336.683652,1769163336.684145,89.0,0.0,4170.641113,4281.922852,4377.94873,4357.692383,4280.512695,4279.743652,4332.307617,4324.871582,4293.717773,4279.358887,4599.871582,4552.436035,4428.333496,4499.358887,,,,,,,,,,,,,,,,,,,,,,,,,,,,,,,,,,,,,,,,,,,,,,,,,,,,,,,,,,,,,,,,,,,,,,
1769163336.69146,1769163336.691853,90.0,0.0,4179.358887,4281.153809,4388.589844,4358.205078,4280.0,4279.743652,4330.128418,4322.820313,4294.871582,4277.820313,4604.102539,4555.769043,4434.230957,4502.436035,,,,,,,,,,,,,,,,,,,,,,,,,,,,,,,,,,,,,,,,,,,,,,,,,,,,,,,,,,,,,,,,,,,,,,
1769163336.699269,1769163336.699662,91.0,0.0,4186.282227,4285.897461,4398.461426,4362.692383,4280.641113,4276.794922,4327.692383,4318.717773,4293.846191,4282.436035,4610.0,4567.563965,4440.641113,4509.102539,,,,,,,,,,,,,,,,,,,,,,,,,,,,,,,,,,,,,,,,,,,,,,,,,,,,,,,,,,,,,,,,,,,,,,
1769163336.707077,1769163336.70727,92.0,0.0,4184.230957,4291.025879,4393.461426,4364.487305,4280.897461,4274.230957,4323.717773,4317.94873,4293.846191,4289.871582,4613.846191,4572.563965,4445.641113,4514.615234,,,,,,,,,,,,,,,,,,,,,,,,,,,,,,,,,,,,,,,,,,,,,,,,,,,,,,,,,,,,,,,,,,,,,,
1769163336.714886,1769163336.715079,93.0,0.0,4174.615234,4285.641113,4384.871582,4359.358887,4279.358887,4276.922852,4320.512695,4321.922852,4294.743652,4288.077148,4608.717773,4565.769043,4443.589844,4512.05127,,,,,,,,,,,,,,,,,,,,,,,,,,,,,,,,,,,,,,,,,,,,,,,,,,,,,,,,,,,,,,,,,,,,,,
1769163336.722694,1769163336.722787,94.0,0.0,4174.358887,4286.153809,4386.922852,4356.410156,4280.641113,4280.769043,4316.666504,4322.05127,4294.230957,4280.384766,4600.641113,4557.179688,4436.922852,4503.846191,0.869322,0.316328,0.540741,0.128493,0.222524,0.937854,0.350382,0.419478,0.213048,0.142557,0.644744,0.399556,0.429849,0.090489,0.112412,0.749092,0.222857,0.302807,0.108771,0.094449,0.302578,0.140897,0.155557,0.06547,0.032908,0.333041,0.487807,0.194482,0.206833,0.133564,0.129593,0.156663,0.086075,0.114329,0.100095,0.159536,0.40249,0.360559,0.070785,0.079536,0.40756,1.107517,0.674462,0.137571,0.142209,0.385354,1.007162,0.720649,0.239751,0.106145,0.260545,0.726168,0.748484,0.145306,0.164488,0.409264,1.003755,0.881718,0.177409,0.139783,0.679499,0.728704,0.528817,0.282065,0.259798,0.761141,1.065381,0.989078,0.266032,0.295479
1769163336.730503,1769163336.730596,95.0,0.0,4186.025879,4293.974121,4390.128418,4357.820313,4282.436035,4280.256348,4303.846191,4311.666504,4291.282227,4277.692383,4597.563965,4551.666504,4427.820313,4500.641113,,,,,,,,,,,,,,,,,,,,,,,,,,,,,,,,,,,,,,,,,,,,,,,,,,,,,,,,,,,,,,,,,,,,,,
1769163336.738311,1769163336.738604,96.0,0.0,4185.128418,4286.282227,4388.461426,4357.307617,4279.871582,4279.230957,4287.692383,4312.436035,4291.153809,4279.487305,4602.179688,4558.717773,4431.025879,4505.641113,,,,,,,,,,,,,,,,,,,,,,,,,,,,,,,,,,,,,,,,,,,,,,,,,,,,,,,,,,,,,,,,,,,,,,
1769163336.74612,1769163336.746413,97.0,0.0,4170.384766,4275.641113,4387.820313,4355.769043,4278.461426,4281.153809,4279.487305,4321.922852,4293.589844,4281.794922,4607.05127,4570.256348,4438.589844,4509.615234,,,,,,,,,,,,,,,,,,,,,,,,,,,,,,,,,,,,,,,,,,,,,,,,,,,,,,,,,,,,,,,,,,,,,,
1769163336.753928,1769163336.754121,98.0,0.0,4171.282227,4280.128418,4388.846191,4355.256348,4281.025879,4280.128418,4270.897461,4317.307617,4293.846191,4282.179688,4603.717773,4565.256348,4432.820313,4508.846191,,,,,,,,,,,,,,,,,,,,,,,,,,,,,,,,,,,,,,,,,,,,,,,,,,,,,,,,,,,,,,,,,,,,,,
1769163336.761737,1769163336.76193,99.0,0.0,4185.128418,4284.871582,4390.769043,4356.794922,4281.410156,4276.794922,4258.205078,4308.461426,4291.153809,4279.102539,4600.384766,4555.256348,4429.743652,4509.871582,,,,,,,,,,,,,,,,,,,,,,,,,,,,,,,,,,,,,,,,,,,,,,,,,,,,,,,,,,,,,,,,,,,,,,
1769163336.769545,1769163336.769538,100.0,0.0,4182.307617,4280.641113,4390.512695,4359.487305,4280.641113,4278.589844,4247.307617,4311.410156,4287.563965,4277.94873,4600.769043,4559.487305,4432.05127,4509.102539,,,,,,,,,,,,,,,,,,,,,,,,,,,,,,,,,,,,,,,,,,,,,,,,,,,,,,,,,,,,,,,,,,,,,,
1769163336.777353,1769163336.777347,101.0,0.0,4168.717773,4275.641113,4387.692383,4356.794922,4280.256348,4280.0,4236.922852,4314.743652,4288.974121,4278.974121,4600.384766,4566.153809,4431.410156,4507.563965,,,,,,,,,,,,,,,,,,,,,,,,,,,,,,,,,,,,,,,,,,,,,,,,,,,,,,,,,,,,,,,,,,,,,,
1769163336.785162,1769163336.785255,102.0,0.0,4172.307617,4276.025879,4389.743652,4353.846191,4278.205078,4276.282227,4229.102539,4311.153809,4293.717773,4278.846191,4603.333496,4569.871582,4437.307617,4516.282227,,,,,,,,,,,,,,,,,,,,,,,,,,,,,,,,,,,,,,,,,,,,,,,,,,,,,,,,,,,,,,,,,,,,,,
1769163336.79297,1769163336.793063,103.0,0.0,4185.512695,4279.102539,4394.743652,4357.307617,4282.436035,4278.205078,4228.077148,4311.538574,4294.230957,4280.897461,4609.487305,4572.563965,4445.128418,4526.410156,,,,,,,,,,,,,,,,,,,,,,,,,,,,,,,,,,,,,,,,,,,,,,,,,,,,,,,,,,,,,,,,,,,,,,
1769163336.800779,1769163336.801072,104.0,0.0,4186.538574,4279.615234,4396.666504,4359.230957,4288.589844,4283.846191,4221.153809,4316.666504,4292.307617,4282.820313,4608.205078,4564.487305,4439.102539,4516.410156,,,,,,,,,,,,,,,,,,,,,,,,,,,,,,,,,,,,,,,,,,,,,,,,,,,,,,,,,,,,,,,,,,,,,,
1769163336.808587,1769163336.80888,105.0,0.0,4180.0,4276.282227,4395.128418,4357.05127,4283.717773,4280.128418,4204.102539,4321.794922,4293.717773,4279.615234,4601.025879,4556.410156,4429.743652,4504.230957,,,,,,,,,,,,,,,,,,,,,,,,,,,,,,,,,,,,,,,,,,,,,,,,,,,,,,,,,,,,,,,,,,,,,,
1769163336.816396,1769163336.816788,106.0,0.0,4174.743652,4273.974121,4391.025879,4355.897461,4276.538574,4276.025879,4192.563965,4320.769043,4296.025879,4280.769043,4601.538574,4564.358887,4433.717773,4514.487305,,,,,,,,,,,,,,,,,,,,,,,,,,,,,,,,,,,,,,,,,,,,,,,,,,,,,,,,,,,,,,,,,,,,,,
1769163336.824204,1769163336.824597,107.0,0.0,4170.897461,4274.102539,4392.05127,4357.307617,4277.94873,4280.256348,4187.307617,4313.974121,4296.025879,4285.897461,4607.563965,4572.436035,4442.05127,4526.538574,,,,,,,,,,,,,,,,,,,,,,,,,,,,,,,,,,,,,,,,,,,,,,,,,,,,,,,,,,,,,,,,,,,,,,
1769163336.832013,1769163336.832605,108.0,0.0,4170.384766,4275.512695,4396.153809,4357.94873,4280.897461,4281.025879,4178.846191,4310.384766,4295.512695,4283.333496,4607.563965,4564.358887,4439.230957,4522.05127,,,,,,,,,,,,,,,,,,,,,,,,,,,,,,,,,,,,,,,,,,,,,,,,,,,,,,,,,,,,,,,,,,,,,,
1769163336.839821,1769163336.840414,109.0,0.0,4170.256348,4277.563965,4392.820313,4355.256348,4279.615234,4278.205078,4166.794922,4310.641113,4295.128418,4281.666504,4600.769043,4554.743652,4427.179688,4508.461426,,,,,,,,,,,,,,,,,,,,,,,,,,,,,,,,,,,,,,,,,,,,,,,,,,,,,,,,,,,,,,,,,,,,,,
1769163336.84763,1769163336.848322,110.0,0.0,4168.717773,4276.666504,4390.512695,4353.205078,4278.717773,4278.205078,4157.179688,4310.128418,4295.897461,4288.846191,4601.410156,4558.333496,4428.846191,4503.846191,0.949232,0.324272,0.645291,0.141886,0.225851,0.93959,0.384609,0.513753,0.163589,0.151004,0.759894,0.460435,0.56346,0.087457,0.114986,0.785839,0.233219,0.347337,0.103505,0.101107,0.334603,0.166213,0.155393,0.05946,0.037134,0.337767,0.507472,0.246801,0.196641,0.122081,0.129205,0.167974,0.088615,0.115293,0.100365,0.183289,0.493303,0.441383,0.061863,0.086834,0.426085,1.17875,0.742714,0.116323,0.131501,0.40514,1.027744,0.777968,0.223653,0.108647,0.267257,0.781905,0.91338,0.138257,0.173126,0.332726,1.178544,1.096774,0.148389,0.159055,0.702083,0.710996,0.592799,0.222809,0.286767,0.817187,1.207025,1.155091,0.24488,0.32888
1769163336.855438,1769163336.85613,111.0,0.0,4170.897461,4274.102539,4394.102539,4354.487305,4280.0,4277.94873,4150.512695,4312.820313,4297.307617,4291.410156,4611.666504,4570.128418,4442.436035,4515.256348,,,,,,,,,,,,,,,,,,,,,,,,,,,,,,,,,,,,,,,,,,,,,,,,,,,,,,,,,,,,,,,,,,,,,,
1769163336.863247,1769163336.864039,112.0,0.0,4172.307617,4273.461426,4392.94873,4356.153809,4280.897461,4277.563965,4142.436035,4321.794922,4297.94873,4287.94873,4617.179688,4576.666504,4447.307617,4527.692383,,,,,,,,,,,,,,,,,,,,,,,,,,,,,,,,,,,,,,,,,,,,,,,,,,,,,,,,,,,,,,,,,,,,,,
1769163336.871055,1769163336.871847,113.0,0.0,4170.641113,4274.102539,4390.512695,4354.230957,4278.846191,4279.615234,4134.743652,4328.077148,4298.461426,4287.436035,4616.538574,4574.487305,4445.512695,4529.102539,,,,,,,,,,,,,,,,,,,,,,,,,,,,,,,,,,,,,,,,,,,,,,,,,,,,,,,,,,,,,,,,,,,,,,
1769163336.878863,1769163336.879556,114.0,0.0,4171.410156,4274.871582,4393.974121,4351.410156,4277.436035,4279.871582,4124.230957,4327.436035,4296.282227,4288.077148,4616.922852,4572.179688,4443.461426,4523.974121,,,,,,,,,,,,,,,,,,,,,,,,,,,,,,,,,,,,,,,,,,,,,,,,,,,,,,,,,,,,,,,,,,,,,,
1769163336.886672,1769163336.887364,115.0,0.0,4172.820313,4277.94873,4396.922852,4354.871582,4280.0,4278.077148,4111.025879,4327.307617,4293.974121,4290.769043,4616.410156,4572.307617,4441.666504,4521.538574,,,,,,,,,,,,,,,,,,,,,,,,,,,,,,,,,,,,,,,,,,,,,,,,,,,,,,,,,,,,,,,,,,,,,,
1769163336.89448,1769163336.894973,116.0,0.0,4172.436035,4282.94873,4396.922852,4357.820313,4281.282227,4279.615234,4106.666504,4327.692383,4295.512695,4293.589844,4611.666504,4572.692383,4440.897461,4519.743652,,,,,,,,,,,,,,,,,,,,,,,,,,,,,,,,,,,,,,,,,,,,,,,,,,,,,,,,,,,,,,,,,,,,,,
1769163336.902289,1769163336.902781,117.0,0.0,4170.897461,4283.974121,4395.769043,4354.230957,4280.769043,4281.282227,4104.230957,4323.974121,4295.128418,4291.410156,4609.102539,4571.410156,4441.666504,4520.641113,,,,,,,,,,,,,,,,,,,,,,,,,,,,,,,,,,,,,,,,,,,,,,,,,,,,,,,,,,,,,,,,,,,,,,
1769163336.910097,1769163336.91049,118.0,0.0,4171.282227,4278.846191,4394.615234,4353.589844,4281.025879,4280.0,4092.692383,4320.256348,4293.589844,4290.0,4613.205078,4573.461426,4446.666504,4530.384766,,,,,,,,,,,,,,,,,,,,,,,,,,,,,,,,,,,,,,,,,,,,,,,,,,,,,,,,,,,,,,,,,,,,,,
1769163336.917906,1769163336.918298,119.0,0.0,4170.897461,4269.743652,4396.794922,4351.025879,4280.641113,4279.487305,4081.794922,4320.128418,4294.358887,4286.153809,4608.205078,4569.743652,4442.05127,4530.256348,,,,,,,,,,,,,,,,,,,,,,,,,,,,,,,,,,,,,,,,,,,,,,,,,,,,,,,,,,,,,,,,,,,,,,
1769163336.925714,1769163336.926307,120.0,0.0,4169.743652,4263.846191,4397.179688,4342.307617,4279.102539,4280.384766,4076.794922,4322.179688,4294.102539,4279.230957,4595.897461,4558.846191,4426.794922,4513.333496,,,,,,,,,,,,,,,,,,,,,,,,,,,,,,,,,,,,,,,,,,,,,,,,,,,,,,,,,,,,,,,,,,,,,,
1769163336.933523,1769163336.934115,121.0,0.0,4169.487305,4264.358887,4394.358887,4339.358887,4278.589844,4282.307617,4072.692383,4324.615234,4295.897461,4283.333496,4600.512695,4558.205078,4428.717773,4505.128418,,,,,,,,,,,,,,,,,,,,,,,,,,,,,,,,,,,,,,,,,,,,,,,,,,,,,,,,,,,,,,,,,,,,,,
1769163336.941331,1769163336.942023,122.0,0.0,4167.94873,4264.230957,4392.820313,4342.179688,4278.717773,4283.077148,4063.589844,4326.666504,4307.563965,4295.0,4615.256348,4570.512695,4444.102539,4518.205078,,,,,,,,,,,,,,,,,,,,,,,,,,,,,,,,,,,,,,,,,,,,,,,,,,,,,,,,,,,,,,,,,,,,,,
1769163336.949139,1769163336.949832,123.0,0.0,4168.205078,4266.025879,4395.769043,4343.589844,4278.846191,4280.256348,4055.256348,4329.743652,4313.974121,4297.94873,4620.0,4578.846191,4448.077148,4535.128418,,,,,,,,,,,,,,,,,,,,,,,,,,,,,,,,,,,,,,,,,,,,,,,,,,,,,,,,,,,,,,,,,,,,,,
1769163336.956948,1769163336.95744,124.0,0.0,4179.230957,4275.641113,4405.0,4347.563965,4278.974121,4278.077148,4051.538574,4325.128418,4301.410156,4293.974121,4620.512695,4575.897461,4445.256348,4544.358887,,,,,,,,,,,,,,,,,,,,,,,,,,,,,,,,,,,,,,,,,,,,,,,,,,,,,,,,,,,,,,,,,,,,,,
1769163336.964756,1769163336.965249,125.0,0.0,4190.0,4280.897461,4412.436035,4351.153809,4278.333496,4279.487305,4045.0,4318.717773,4292.692383,4290.0,4617.820313,4571.666504,4444.743652,4540.897461,,,,,,,,,,,,,,,,,,,,,,,,,,,,,,,,,,,,,,,,,,,,,,,,,,,,,,,,,,,,,,,,,,,,,,
1769163336.972565,1769163336.972957,126.0,0.0,4182.307617,4279.230957,4410.897461,4350.0,4278.205078,4280.384766,4033.076904,4320.897461,4299.487305,4291.025879,4612.179688,4569.487305,4441.922852,4527.307617,0.987499,0.335402,0.708494,0.169973,0.223863,0.851352,0.405671,0.572796,0.126488,0.159576,0.910526,0.500164,0.653135,0.105027,0.113886,0.7627,0.255707,0.361648,0.097082,0.106828,0.347175,0.197864,0.148802,0.057222,0.042326,0.337064,0.5099,0.287609,0.185129,0.114357,0.162926,0.19772,0.095821,0.121412,0.103045,0.205276,0.550817,0.486121,0.056577,0.095522,0.432728,1.137095,0.754217,0.096984,0.117334,0.44577,0.973446,0.786357,0.211851,0.116137,0.290186,0.785649,0.994291,0.131302,0.176297,0.295077,1.269082,1.20634,0.139856,0.180205,0.700096,0.653469,0.599579,0.170493,0.301586,0.846971,1.261765,1.185484,0.232961,0.34802
1769163336.980373,1769163336.980766,127.0,0.0,4168.205078,4278.589844,4404.743652,4350.256348,4281.666504,4278.974121,4025.256348,4320.897461,4301.666504,4295.256348,4612.563965,4568.589844,4443.717773,4520.256348,,,,,,,,,,,,,,,,,,,,,,,,,,,,,,,,,,,,,,,,,,,,,,,,,,,,,,,,,,,,,,,,,,,,,,
1769163336.988182,1769163336.988774,0.0,0.0,4165.641113,4273.846191,4401.538574,4347.94873,4282.563965,4278.846191,4019.871826,4312.436035,4294.358887,4295.128418,4613.589844,4570.0,4447.820313,4522.820313,,,,,,,,,,,,,,,,,,,,,,,,,,,,,,,,,,,,,,,,,,,,,,,,,,,,,,,,,,,,,,,,,,,,,,
1769163336.99599,1769163336.996583,1.0,0.0,4173.205078,4270.384766,4406.794922,4346.282227,4279.102539,4281.410156,4012.179443,4309.102539,4291.922852,4293.461426,4613.077148,4572.820313,4445.897461,4529.102539,,,,,,,,,,,,,,,,,,,,,,,,,,,,,,,,,,,,,,,,,,,,,,,,,,,,,,,,,,,,,,,,,,,,,,
1769163337.003799,1769163337.004491,2.0,0.0,4185.512695,4277.94873,4414.358887,4353.974121,4282.307617,4282.94873,4008.076904,4314.871582,4299.102539,4296.794922,4617.94873,4575.0,4446.922852,4541.410156,,,,,,,,,,,,,,,,,,,,,,,,,,,,,,,,,,,,,,,,,,,,,,,,,,,,,,,,,,,,,,,,,,,,,,
1769163337.011607,1769163337.012299,3.0,0.0,4188.974121,4283.333496,4412.692383,4354.615234,4290.384766,4280.641113,4001.281982,4318.589844,4306.538574,4298.205078,4621.153809,4571.922852,4449.743652,4539.230957,,,,,,,,,,,,,,,,,,,,,,,,,,,,,,,,,,,,,,,,,,,,,,,,,,,,,,,,,,,,,,,,,,,,,,
1769163337.019416,1769163337.020308,4.0,0.0,4175.384766,4276.282227,4406.282227,4344.871582,4289.743652,4278.974121,3992.564209,4318.846191,4308.333496,4294.615234,4614.615234,4565.641113,4444.487305,4515.384766,,,,,,,,,,,,,,,,,,,,,,,,,,,,,,,,,,,,,,,,,,,,,,,,,,,,,,,,,,,,,,,,,,,,,,
1769163337.027224,1769163337.028116,5.0,0.0,4166.410156,4271.282227,4408.077148,4343.077148,4282.05127,4280.512695,3990.641113,4316.666504,4305.769043,4291.922852,4608.717773,4564.358887,4434.743652,4507.436035,,,,,,,,,,,,,,,,,,,,,,,,,,,,,,,,,,,,,,,,,,,,,,,,,,,,,,,,,,,,,,,,,,,,,,
1769163337.035032,1769163337.036024,6.0,0.0,4175.384766,4271.794922,4413.205078,4349.615234,4277.820313,4280.769043,3984.743652,4312.563965,4304.487305,4290.769043,4610.128418,4569.615234,4432.692383,4522.820313,,,,,,,,,,,,,,,,,,,,,,,,,,,,,,,,,,,,,,,,,,,,,,,,,,,,,,,,,,,,,,,,,,,,,,
1769163337.042841,1769163337.043833,7.0,0.0,4184.743652,4271.922852,4413.589844,4349.615234,4277.692383,4279.743652,3975.384521,4313.205078,4303.205078,4288.974121,4610.897461,4571.153809,4438.205078,4528.077148,,,,,,,,,,,,,,,,,,,,,,,,,,,,,,,,,,,,,,,,,,,,,,,,,,,,,,,,,,,,,,,,,,,,,,
1769163337.050649,1769163337.051441,8.0,0.0,4183.333496,4275.128418,4413.461426,4346.794922,4276.794922,4280.641113,3969.871826,4316.410156,4299.102539,4289.230957,4608.589844,4567.436035,4443.205078,4522.179688,,,,,,,,,,,,,,,,,,,,,,,,,,,,,,,,,,,,,,,,,,,,,,,,,,,,,,,,,,,,,,,,,,,,,,
1769163337.058458,1769163337.05925,9.0,0.0,4175.897461,4272.692383,4414.615234,4349.358887,4276.794922,4281.025879,3965.384521,4316.282227,4297.05127,4292.563965,4610.769043,4566.538574,4444.358887,4525.769043,,,,,,,,,,,,,,,,,,,,,,,,,,,,,,,,,,,,,,,,,,,,,,,,,,,,,,,,,,,,,,,,,,,,,,
1769163337.066266,1769163337.066958,10.0,0.0,4169.487305,4263.333496,4412.307617,4349.871582,4278.846191,4279.743652,3956.153809,4313.974121,4299.358887,4295.512695,4613.974121,4568.205078,4438.846191,4523.333496,,,,,,,,,,,,,,,,,,,,,,,,,,,,,,,,,,,,,,,,,,,,,,,,,,,,,,,,,,,,,,,,,,,,,,
1769163337.074075,1769163337.074767,11.0,0.0,4171.410156,4266.282227,4410.0,4348.846191,4282.05127,4279.743652,3948.589844,4310.0,4295.384766,4290.128418,4606.282227,4565.256348,4428.846191,4512.563965,,,,,,,,,,,,,,,,,,,,,,,,,,,,,,,,,,,,,,,,,,,,,,,,,,,,,,,,,,,,,,,,,,,,,,
1769163337.081883,1769163337.082376,12.0,0.0,4176.153809,4280.0,4412.05127,4352.307617,4281.538574,4281.153809,3938.718018,4303.589844,4284.230957,4280.769043,4595.512695,4555.384766,4425.128418,4515.0,,,,,,,,,,,,,,,,,,,,,,,,,,,,,,,,,,,,,,,,,,,,,,,,,,,,,,,,,,,,,,,,,,,,,,
1769163337.089692,1769163337.090184,13.0,0.0,4175.769043,4281.922852,4413.461426,4355.512695,4279.615234,4282.820313,3926.410156,4301.922852,4282.179688,4282.820313,4599.871582,4551.282227,4435.128418,4523.974121,,,,,,,,,,,,,,,,,,,,,,,,,,,,,,,,,,,,,,,,,,,,,,,,,,,,,,,,,,,,,,,,,,,,,,
1769163337.0975,1769163337.097893,14.0,0.0,4173.461426,4272.307617,4412.563965,4353.717773,4280.0,4281.922852,3925.0,4305.128418,4289.230957,4290.384766,4610.128418,4561.282227,4445.641113,4533.333496,0.970813,0.335027,0.713826,0.207512,0.221885,0.696765,0.410918,0.575642,0.103712,0.165622,1.043357,0.50665,0.665819,0.137421,0.110818,0.684103,0.282408,0.340914,0.089056,0.109989,0.339631,0.232032,0.137381,0.059963,0.047226,0.331239,0.499012,0.308888,0.170628,0.109184,0.247926,0.238051,0.109651,0.129948,0.108225,0.215349,0.555532,0.474789,0.053893,0.103601,0.414436,0.992399,0.695103,0.081333,0.103791,0.479299,0.853483,0.731123,0.208778,0.127721,0.317082,0.725641,0.95531,0.130761,0.1756,0.322206,1.248584,1.166692,0.156908,0.202079,0.665051,0.576087,0.539771,0.144472,0.306929,0.861532,1.202175,1.067302,0.250743,0.354694
1769163337.105309,1769163337.105701,15.0,0.0,4174.358887,4268.461426,4414.102539,4348.846191,4280.128418,4278.974121,3928.333252,4307.05127,4292.94873,4288.333496,4610.128418,4570.128418,4446.410156,4537.307617,,,,,,,,,,,,,,,,,,,,,,,,,,,,,,,,,,,,,,,,,,,,,,,,,,,,,,,,,,,,,,,,,,,,,,
1769163337.113117,1769163337.11331,16.0,0.0,4173.589844,4265.641113,4414.487305,4344.743652,4277.94873,4278.333496,3922.564209,4309.743652,4293.974121,4285.128418,4609.487305,4569.358887,4443.717773,4530.512695,,,,,,,,,,,,,,,,,,,,,,,,,,,,,,,,,,,,,,,,,,,,,,,,,,,,,,,,,,,,,,,,,,,,,,
1769163337.120926,1769163337.121118,17.0,0.0,4166.922852,4262.436035,4408.589844,4340.512695,4277.692383,4278.589844,3915.512939,4314.102539,4295.641113,4290.384766,4614.358887,4569.102539,4443.846191,4519.487305,,,,,,,,,,,,,,,,,,,,,,,,,,,,,,,,,,,,,,,,,,,,,,,,,,,,,,,,,,,,,,,,,,,,,,
1769163337.128734,1769163337.129026,18.0,0.0,4169.487305,4269.871582,4413.461426,4343.077148,4279.358887,4275.769043,3909.743652,4313.461426,4296.025879,4296.153809,4616.794922,4570.897461,4444.230957,4519.102539,,,,,,,,,,,,,,,,,,,,,,,,,,,,,,,,,,,,,,,,,,,,,,,,,,,,,,,,,,,,,,,,,,,,,,
1769163337.136542,1769163337.136835,19.0,0.0,4183.333496,4280.769043,4425.897461,4352.307617,4279.230957,4266.025879,3899.230713,4310.384766,4298.717773,4298.717773,4617.179688,4571.153809,4444.230957,4528.461426,,,,,,,,,,,,,,,,,,,,,,,,,,,,,,,,,,,,,,,,,,,,,,,,,,,,,,,,,,,,,,,,,,,,,,
1769163337.144351,1769163337.144843,20.0,0.0,4187.94873,4280.384766,4424.871582,4357.94873,4278.589844,4259.743652,3890.512939,4308.974121,4295.384766,4295.256348,4616.282227,4569.358887,4447.05127,4532.94873,,,,,,,,,,,,,,,,,,,,,,,,,,,,,,,,,,,,,,,,,,,,,,,,,,,,,,,,,,,,,,,,,,,,,,
1769163337.152159,1769163337.152652,21.0,0.0,4181.538574,4276.153809,4418.333496,4355.769043,4276.282227,4266.794922,3887.307617,4306.922852,4282.820313,4280.641113,4607.820313,4562.436035,4440.769043,4527.563965,,,,,,,,,,,,,,,,,,,,,,,,,,,,,,,,,,,,,,,,,,,,,,,,,,,,,,,,,,,,,,,,,,,,,,
1769163337.159968,1769163337.16036,22.0,0.0,4181.922852,4278.974121,4418.461426,4350.512695,4278.717773,4278.461426,3883.076904,4307.692383,4281.666504,4273.974121,4597.179688,4553.077148,4430.384766,4515.128418,,,,,,,,,,,,,,,,,,,,,,,,,,,,,,,,,,,,,,,,,,,,,,,,,,,,,,,,,,,,,,,,,,,,,,
1769163337.167776,1769163337.168169,23.0,0.0,4185.897461,4281.025879,4420.769043,4349.743652,4288.461426,4282.692383,3878.205078,4302.692383,4290.128418,4283.077148,4593.077148,4546.025879,4425.769043,4506.025879,,,,,,,,,,,,,,,,,,,,,,,,,,,,,,,,,,,,,,,,,,,,,,,,,,,,,,,,,,,,,,,,,,,,,,
1769163337.175585,1769163337.175777,24.0,0.0,4183.461426,4278.589844,4422.05127,4352.307617,4290.384766,4282.307617,3876.538574,4295.0,4291.922852,4288.077148,4596.538574,4546.922852,4427.820313,4505.128418,,,,,,,,,,,,,,,,,,,,,,,,,,,,,,,,,,,,,,,,,,,,,,,,,,,,,,,,,,,,,,,,,,,,,,
1769163337.183393,1769163337.183586,25.0,0.0,4188.974121,4278.589844,4425.0,4353.717773,4281.538574,4281.922852,3877.05127,4301.666504,4292.94873,4289.615234,4604.743652,4561.410156,4438.717773,4516.025879,,,,,,,,,,,,,,,,,,,,,,,,,,,,,,,,,,,,,,,,,,,,,,,,,,,,,,,,,,,,,,,,,,,,,,
1769163337.191202,1769163337.191494,26.0,0.0,4197.692383,4280.384766,4426.153809,4352.94873,4279.615234,4279.487305,3873.974365,4311.794922,4298.333496,4294.743652,4607.692383,4573.205078,4443.205078,4526.410156,,,,,,,,,,,,,,,,,,,,,,,,,,,,,,,,,,,,,,,,,,,,,,,,,,,,,,,,,,,,,,,,,,,,,,
1769163337.19901,1769163337.199302,27.0,0.0,4191.666504,4277.692383,4425.384766,4349.871582,4283.205078,4279.615234,3868.589844,4310.641113,4295.769043,4294.871582,4602.179688,4567.94873,4434.230957,4521.922852,,,,,,,,,,,,,,,,,,,,,,,,,,,,,,,,,,,,,,,,,,,,,,,,,,,,,,,,,,,,,,,,,,,,,,
1769163337.206818,1769163337.207311,28.0,0.0,4182.307617,4274.615234,4427.94873,4349.615234,4280.512695,4281.666504,3862.564209,4310.897461,4297.436035,4294.102539,4602.179688,4563.589844,4435.641113,4518.974121,,,,,,,,,,,,,,,,,,,,,,,,,,,,,,,,,,,,,,,,,,,,,,,,,,,,,,,,,,,,,,,,,,,,,,
1769163337.214627,1769163337.215119,29.0,0.0,4187.179688,4277.179688,4429.102539,4353.717773,4278.333496,4276.282227,3856.538574,4314.615234,4307.05127,4297.94873,4607.820313,4570.384766,4442.563965,4521.538574,,,,,,,,,,,,,,,,,,,,,,,,,,,,,,,,,,,,,,,,,,,,,,,,,,,,,,,,,,,,,,,,,,,,,,
1769163337.222435,1769163337.223028,30.0,0.0,4203.846191,4280.384766,4430.897461,4356.153809,4280.641113,4266.922852,3847.692383,4314.102539,4302.820313,4295.128418,4609.743652,4572.563965,4436.282227,4523.461426,0.898912,0.320864,0.665911,0.247173,0.224995,0.512164,0.410329,0.527598,0.093084,0.166786,1.136678,0.482356,0.5983,0.173098,0.107815,0.567983,0.308453,0.293257,0.079728,0.109128,0.311236,0.261725,0.125957,0.066419,0.050942,0.317015,0.476384,0.306904,0.151956,0.104376,0.501539,0.278983,0.13008,0.135815,0.11467,0.210553,0.507317,0.419499,0.053325,0.109672,0.360258,0.788061,0.581012,0.070219,0.095145,0.478706,0.702049,0.625934,0.215524,0.140242,0.328346,0.626973,0.816071,0.142335,0.172792,0.384049,1.135147,0.994752,0.198744,0.222338,0.590979,0.511146,0.436475,0.156703,0.307818,0.815149,1.057212,0.847011,0.319333,0.352751
1769163337.230244,1769163337.230836,31.0,0.0,4214.358887,4283.205078,4439.487305,4357.94873,4281.666504,4263.077148,3838.205078,4312.820313,4295.897461,4288.333496,4612.436035,4571.922852,4438.205078,4533.589844,,,,,,,,,,,,,,,,,,,,,,,,,,,,,,,,,,,,,,,,,,,,,,,,,,,,,,,,,,,,,,,,,,,,,,
1769163337.238052,1769163337.238844,32.0,0.0,4209.102539,4280.769043,4442.563965,4359.230957,4280.384766,4265.0,3831.666748,4306.153809,4292.820313,4285.769043,4611.153809,4572.94873,4447.179688,4542.179688,,,,,,,,,,,,,,,,,,,,,,,,,,,,,,,,,,,,,,,,,,,,,,,,,,,,,,,,,,,,,,,,,,,,,,
1769163337.245861,1769163337.246653,33.0,0.0,4200.641113,4269.615234,4432.563965,4352.820313,4279.102539,4264.743652,3829.871826,4295.641113,4284.102539,4280.256348,4603.461426,4571.666504,4436.153809,4531.794922,,,,,,,,,,,,,,,,,,,,,,,,,,,,,,,,,,,,,,,,,,,,,,,,,,,,,,,,,,,,,,,,,,,,,,
1769163337.253669,1769163337.254361,34.0,0.0,4196.538574,4261.922852,4425.128418,4343.461426,4278.717773,4262.94873,3826.281982,4298.717773,4284.743652,4278.205078,4601.282227,4568.205078,4427.05127,4516.410156,,,,,,,,,,,,,,,,,,,,,,,,,,,,,,,,,,,,,,,,,,,,,,,,,,,,,,,,,,,,,,,,,,,,,,
1769163337.261478,1769163337.26217,35.0,0.0,4187.436035,4262.436035,4427.436035,4341.282227,4272.05127,4264.615234,3818.461426,4307.94873,4296.025879,4280.769043,4602.436035,4562.05127,4428.205078,4511.794922,,,,,,,,,,,,,,,,,,,,,,,,,,,,,,,,,,,,,,,,,,,,,,,,,,,,,,,,,,,,,,,,,,,,,,
1769163337.269286,1769163337.269778,36.0,0.0,4186.025879,4261.025879,4426.922852,4345.384766,4265.641113,4265.256348,3815.641113,4309.487305,4296.153809,4280.384766,4603.589844,4561.410156,4427.692383,4516.538574,,,,,,,,,,,,,,,,,,,,,,,,,,,,,,,,,,,,,,,,,,,,,,,,,,,,,,,,,,,,,,,,,,,,,,
1769163337.277094,1769163337.277587,37.0,0.0,4201.538574,4262.179688,4426.025879,4351.922852,4271.922852,4263.205078,3815.0,4308.077148,4294.487305,4286.025879,4610.0,4569.743652,4436.666504,4525.512695,,,,,,,,,,,,,,,,,,,,,,,,,,,,,,,,,,,,,,,,,,,,,,,,,,,,,,,,,,,,,,,,,,,,,,
1769163337.284903,1769163337.285295,38.0,0.0,4208.333496,4267.436035,4429.615234,4354.615234,4279.743652,4266.410156,3813.589844,4310.0,4299.230957,4290.641113,4615.769043,4574.487305,4440.897461,4528.846191,,,,,,,,,,,,,,,,,,,,,,,,,,,,,,,,,,,,,,,,,,,,,,,,,,,,,,,,,,,,,,,,,,,,,,
1769163337.292711,1769163337.293104,39.0,0.0,4201.282227,4265.128418,4430.641113,4348.846191,4278.077148,4273.717773,3812.307617,4312.692383,4296.666504,4286.282227,4611.153809,4572.307617,4433.717773,4522.563965,,,,,,,,,,,,,,,,,,,,,,,,,,,,,,,,,,,,,,,,,,,,,,,,,,,,,,,,,,,,,,,,,,,,,,
1769163337.30052,1769163337.300712,40.0,0.0,4202.05127,4264.230957,4428.205078,4346.922852,4278.461426,4272.179688,3801.025635,4312.94873,4298.077148,4287.563965,4612.563965,4572.692383,4439.102539,4522.05127,,,,,,,,,,,,,,,,,,,,,,,,,,,,,,,,,,,,,,,,,,,,,,,,,,,,,,,,,,,,,,,,,,,,,,
1769163337.308328,1769163337.308521,41.0,0.0,4209.871582,4274.871582,4427.820313,4354.358887,4281.794922,4262.94873,3788.589844,4310.384766,4304.230957,4298.205078,4621.666504,4573.974121,4451.025879,4534.102539,,,,,,,,,,,,,,,,,,,,,,,,,,,,,,,,,,,,,,,,,,,,,,,,,,,,,,,,,,,,,,,,,,,,,,
1769163337.316137,1769163337.316229,42.0,0.0,4215.384766,4282.692383,4433.461426,4360.128418,4280.128418,4262.692383,3790.128174,4312.179688,4300.256348,4297.436035,4621.794922,4572.94873,4450.384766,4539.487305,,,,,,,,,,,,,,,,,,,,,,,,,,,,,,,,,,,,,,,,,,,,,,,,,,,,,,,,,,,,,,,,,,,,,,
1769163337.323945,1769163337.324038,43.0,0.0,4215.128418,4279.230957,4437.307617,4360.0,4281.794922,4268.333496,3792.564209,4314.487305,4293.974121,4286.153809,4613.717773,4573.461426,4441.025879,4528.974121,,,,,,,,,,,,,,,,,,,,,,,,,,,,,,,,,,,,,,,,,,,,,,,,,,,,,,,,,,,,,,,,,,,,,,
1769163337.331754,1769163337.332046,44.0,0.0,4213.461426,4278.461426,4434.487305,4358.717773,4288.717773,4270.641113,3786.923096,4310.128418,4293.205078,4284.743652,4609.230957,4569.102539,4436.410156,4520.512695,,,,,,,,,,,,,,,,,,,,,,,,,,,,,,,,,,,,,,,,,,,,,,,,,,,,,,,,,,,,,,,,,,,,,,
1769163337.339562,1769163337.339855,45.0,0.0,4217.05127,4280.128418,4430.256348,4361.153809,4289.615234,4274.743652,3783.974365,4307.692383,4293.717773,4287.692383,4610.512695,4559.358887,4438.974121,4521.025879,,,,,,,,,,,,,,,,,,,,,,,,,,,,,,,,,,,,,,,,,,,,,,,,,,,,,,,,,,,,,,,,,,,,,,
1769163337.347371,1769163337.347763,46.0,0.0,4213.077148,4270.641113,4425.769043,4355.897461,4283.333496,4281.538574,3785.897461,4311.282227,4296.794922,4283.077148,4609.743652,4554.102539,4442.307617,4517.05127,0.770253,0.294988,0.576337,0.28582,0.23498,0.354233,0.413967,0.449226,0.094174,0.162246,1.133517,0.437099,0.470227,0.201284,0.105968,0.445152,0.330053,0.234658,0.071592,0.103751,0.271502,0.279661,0.118276,0.073518,0.053133,0.291597,0.44177,0.281573,0.130379,0.097782,0.777591,0.310811,0.15336,0.134648,0.120297,0.19712,0.425903,0.354536,0.056221,0.112923,0.281651,0.585558,0.447379,0.064958,0.093833,0.437954,0.558555,0.498844,0.229717,0.149715,0.324774,0.533516,0.630847,0.170512,0.169246,0.445018,0.981047,0.753848,0.260778,0.237549,0.497179,0.487424,0.328818,0.2087,0.308397,0.727376,0.888934,0.599802,0.45774,0.346004
1769163337.355179,1769163337.355571,47.0,0.0,4200.897461,4260.641113,4422.820313,4342.436035,4278.333496,4280.384766,3783.205078,4312.692383,4303.974121,4278.077148,4607.563965,4552.820313,4436.153809,4509.871582,,,,,,,,,,,,,,,,,,,,,,,,,,,,,,,,,,,,,,,,,,,,,,,,,,,,,,,,,,,,,,,,,,,,,,
1769163337.362988,1769163337.36318,48.0,0.0,4203.333496,4260.641113,4425.384766,4341.794922,4276.922852,4273.974121,3775.0,4312.05127,4303.333496,4282.820313,4608.461426,4555.769043,4428.461426,4509.487305,,,,,,,,,,,,,,,,,,,,,,,,,,,,,,,,,,,,,,,,,,,,,,,,,,,,,,,,,,,,,,,,,,,,,,
1769163337.370796,1769163337.370988,49.0,0.0,4214.102539,4265.0,4428.077148,4352.179688,4280.641113,4273.333496,3769.358887,4312.692383,4297.692383,4291.282227,4610.897461,4564.487305,4432.692383,4512.94873,,,,,,,,,,,,,,,,,,,,,,,,,,,,,,,,,,,,,,,,,,,,,,,,,,,,,,,,,,,,,,,,,,,,,,
1769163337.378605,1769163337.378697,50.0,0.0,4214.102539,4270.256348,4428.974121,4356.410156,4287.820313,4275.256348,3768.333252,4313.717773,4302.307617,4294.487305,4613.589844,4566.410156,4441.538574,4519.230957,,,,,,,,,,,,,,,,,,,,,,,,,,,,,,,,,,,,,,,,,,,,,,,,,,,,,,,,,,,,,,,,,,,,,,
1769163337.386413,1769163337.386505,51.0,0.0,4216.282227,4274.615234,4435.512695,4355.897461,4289.230957,4278.461426,3768.718018,4317.692383,4309.487305,4294.230957,4612.05127,4561.410156,4444.615234,4522.05127,,,,,,,,,,,,,,,,,,,,,,,,,,,,,,,,,,,,,,,,,,,,,,,,,,,,,,,,,,,,,,,,,,,,,,
1769163337.394221,1769163337.394514,52.0,0.0,4228.589844,4274.615234,4442.179688,4359.230957,4287.05127,4278.589844,3766.025635,4321.025879,4308.333496,4291.025879,4609.358887,4563.846191,4440.512695,4519.743652,,,,,,,,,,,,,,,,,,,,,,,,,,,,,,,,,,,,,,,,,,,,,,,,,,,,,,,,,,,,,,,,,,,,,,
1769163337.40203,1769163337.402322,53.0,0.0,4234.487305,4277.05127,4443.205078,4362.179688,4288.077148,4273.205078,3758.974365,4316.922852,4307.307617,4291.666504,4616.538574,4573.077148,4443.333496,4521.666504,,,,,,,,,,,,,,,,,,,,,,,,,,,,,,,,,,,,,,,,,,,,,,,,,,,,,,,,,,,,,,,,,,,,,,
1769163337.409838,1769163337.41023,54.0,0.0,4231.922852,4282.307617,4440.256348,4362.563965,4288.717773,4272.179688,3753.333252,4310.384766,4304.743652,4291.025879,4623.333496,4574.615234,4451.666504,4525.384766,,,,,,,,,,,,,,,,,,,,,,,,,,,,,,,,,,,,,,,,,,,,,,,,,,,,,,,,,,,,,,,,,,,,,,
1769163337.417647,1769163337.418039,55.0,0.0,4231.666504,4278.077148,4438.717773,4360.897461,4285.384766,4278.333496,3754.871826,4307.94873,4294.615234,4281.282227,4608.846191,4564.743652,4440.512695,4524.230957,,,,,,,,,,,,,,,,,,,,,,,,,,,,,,,,,,,,,,,,,,,,,,,,,,,,,,,,,,,,,,,,,,,,,,
1769163337.425455,1769163337.426047,56.0,0.0,4232.307617,4273.205078,4440.769043,4357.436035,4282.692383,4282.307617,3755.512939,4310.128418,4290.384766,4274.615234,4595.512695,4555.769043,4430.641113,4523.974121,,,,,,,,,,,,,,,,,,,,,,,,,,,,,,,,,,,,,,,,,,,,,,,,,,,,,,,,,,,,,,,,,,,,,,
1769163337.433264,1769163337.433856,57.0,0.0,4232.94873,4275.512695,4442.563965,4356.666504,4280.641113,4278.974121,3748.846191,4311.153809,4299.358887,4281.666504,4602.307617,4557.436035,4439.358887,4524.102539,,,,,,,,,,,,,,,,,,,,,,,,,,,,,,,,,,,,,,,,,,,,,,,,,,,,,,,,,,,,,,,,,,,,,,
1769163337.441072,1769163337.441764,58.0,0.0,4234.230957,4273.846191,4442.179688,4356.666504,4279.358887,4277.179688,3744.102539,4310.256348,4307.692383,4291.794922,4610.384766,4566.794922,4444.615234,4524.230957,,,,,,,,,,,,,,,,,,,,,,,,,,,,,,,,,,,,,,,,,,,,,,,,,,,,,,,,,,,,,,,,,,,,,,
1769163337.448881,1769163337.449572,59.0,0.0,4234.102539,4270.512695,4440.769043,4356.538574,4281.282227,4279.230957,3745.384521,4317.436035,4310.897461,4296.025879,4617.05127,4577.94873,4448.717773,4532.179688,,,,,,,,,,,,,,,,,,,,,,,,,,,,,,,,,,,,,,,,,,,,,,,,,,,,,,,,,,,,,,,,,,,,,,
1769163337.456689,1769163337.457181,60.0,0.0,4238.974121,4274.743652,4441.282227,4357.179688,4281.025879,4277.307617,3743.974365,4325.641113,4313.077148,4297.563965,4626.666504,4584.230957,4458.333496,4542.436035,,,,,,,,,,,,,,,,,,,,,,,,,,,,,,,,,,,,,,,,,,,,,,,,,,,,,,,,,,,,,,,,,,,,,,
1769163337.464497,1769163337.464989,61.0,0.0,4247.692383,4280.128418,4442.692383,4357.563965,4278.846191,4276.410156,3739.871826,4321.666504,4311.282227,4294.487305,4623.589844,4576.922852,4453.077148,4541.922852,,,,,,,,,,,,,,,,,,,,,,,,,,,,,,,,,,,,,,,,,,,,,,,,,,,,,,,,,,,,,,,,,,,,,,
1769163337.472306,1769163337.472698,62.0,0.0,4247.307617,4279.615234,4444.358887,4358.589844,4280.641113,4278.333496,3739.102539,4315.897461,4305.512695,4290.256348,4610.256348,4569.358887,4439.487305,4535.256348,0.647269,0.266557,0.470482,0.325913,0.249327,0.269124,0.42742,0.37049,0.109557,0.152915,1.054526,0.387088,0.32491,0.215995,0.104952,0.338839,0.343715,0.184238,0.06911,0.094465,0.227187,0.279228,0.115536,0.078871,0.054161,0.255298,0.403568,0.239947,0.109831,0.088585,1.162915,0.328007,0.180322,0.125842,0.122571,0.189024,0.349582,0.322612,0.063778,0.113053,0.211379,0.446858,0.333011,0.067382,0.099713,0.372003,0.45225,0.377148,0.247013,0.15331,0.319232,0.489011,0.461575,0.215859,0.165201,0.467007,0.850538,0.525629,0.33549,0.244348,0.408935,0.515694,0.247645,0.292639,0.3086,0.631552,0.758322,0.39373,0.670452,0.335642
1769163337.480114,1769163337.480506,63.0,0.0,4239.358887,4278.205078,4439.487305,4358.077148,4283.589844,4273.461426,3735.641113,4320.0,4305.128418,4295.0,4614.102539,4577.05127,4448.846191,4534.743652,,,,,,,,,,,,,,,,,,,,,,,,,,,,,,,,,,,,,,,,,,,,,,,,,,,,,,,,,,,,,,,,,,,,,,
1769163337.487923,1769163337.488115,64.0,0.0,4238.717773,4280.0,4431.025879,4356.538574,4282.436035,4267.94873,3727.435791,4325.0,4313.589844,4302.436035,4631.025879,4583.717773,4463.205078,4540.384766,,,,,,,,,,,,,,,,,,,,,,,,,,,,,,,,,,,,,,,,,,,,,,,,,,,,,,,,,,,,,,,,,,,,,,
1769163337.495731,1769163337.495924,65.0,0.0,4241.666504,4282.436035,4429.487305,4360.128418,4282.820313,4274.743652,3725.769287,4322.436035,4312.436035,4297.692383,4627.820313,4575.128418,4456.025879,4539.102539,,,,,,,,,,,,,,,,,,,,,,,,,,,,,,,,,,,,,,,,,,,,,,,,,,,,,,,,,,,,,,,,,,,,,,
1769163337.50354,1769163337.503632,66.0,0.0,4237.563965,4276.666504,4430.128418,4355.897461,4285.256348,4282.307617,3729.230713,4315.384766,4296.025879,4279.230957,4604.102539,4559.102539,4436.538574,4526.153809,,,,,,,,,,,,,,,,,,,,,,,,,,,,,,,,,,,,,,,,,,,,,,,,,,,,,,,,,,,,,,,,,,,,,,
1769163337.511348,1769163337.511441,67.0,0.0,4228.974121,4264.358887,4424.743652,4342.436035,4282.05127,4280.897461,3727.307617,4308.974121,4290.128418,4270.641113,4594.615234,4551.922852,4423.717773,4518.589844,,,,,,,,,,,,,,,,,,,,,,,,,,,,,,,,,,,,,,,,,,,,,,,,,,,,,,,,,,,,,,,,,,,,,,
1769163337.519157,1769163337.519449,68.0,0.0,4229.743652,4261.538574,4421.922852,4342.692383,4279.102539,4278.461426,3723.846191,4313.077148,4304.230957,4283.974121,4610.128418,4562.820313,4433.461426,4526.282227,,,,,,,,,,,,,,,,,,,,,,,,,,,,,,,,,,,,,,,,,,,,,,,,,,,,,,,,,,,,,,,,,,,,,,
1769163337.526965,1769163337.527257,69.0,0.0,4242.692383,4265.769043,4425.769043,4347.692383,4274.615234,4275.256348,3723.076904,4322.436035,4315.512695,4298.461426,4623.717773,4573.205078,4448.974121,4535.256348,,,,,,,,,,,,,,,,,,,,,,,,,,,,,,,,,,,,,,,,,,,,,,,,,,,,,,,,,,,,,,,,,,,,,,
1769163337.534773,1769163337.535166,70.0,0.0,4250.128418,4265.641113,4428.333496,4343.846191,4266.922852,4272.307617,3720.897461,4319.487305,4314.743652,4297.820313,4622.692383,4568.717773,4448.205078,4534.615234,,,,,,,,,,,,,,,,,,,,,,,,,,,,,,,,,,,,,,,,,,,,,,,,,,,,,,,,,,,,,,,,,,,,,,
1769163337.542582,1769163337.542974,71.0,0.0,4249.102539,4265.128418,4428.717773,4345.512695,4269.358887,4277.820313,3720.256348,4310.769043,4308.717773,4287.307617,4612.563965,4563.717773,4439.743652,4531.282227,,,,,,,,,,,,,,,,,,,,,,,,,,,,,,,,,,,,,,,,,,,,,,,,,,,,,,,,,,,,,,,,,,,,,,
1769163337.55039,1769163337.550982,72.0,0.0,4249.871582,4266.922852,4428.461426,4351.538574,4278.589844,4277.820313,3719.102539,4309.102539,4303.077148,4279.358887,4605.128418,4562.563965,4439.487305,4535.897461,,,,,,,,,,,,,,,,,,,,,,,,,,,,,,,,,,,,,,,,,,,,,,,,,,,,,,,,,,,,,,,,,,,,,,
1769163337.558199,1769163337.558791,73.0,0.0,4250.0,4266.282227,4426.410156,4349.230957,4279.487305,4266.282227,3713.589844,4312.692383,4304.743652,4281.410156,4609.487305,4562.05127,4444.230957,4539.743652,,,,,,,,,,,,,,,,,,,,,,,,,,,,,,,,,,,,,,,,,,,,,,,,,,,,,,,,,,,,,,,,,,,,,,
1769163337.566007,1769163337.566499,74.0,0.0,4252.94873,4266.794922,4425.512695,4348.205078,4274.743652,4267.179688,3714.743652,4313.846191,4307.563965,4286.410156,4614.102539,4566.153809,4439.615234,4528.077148,,,,,,,,,,,,,,,,,,,,,,,,,,,,,,,,,,,,,,,,,,,,,,,,,,,,,,,,,,,,,,,,,,,,,,
1769163337.573816,1769163337.574308,75.0,0.0,4267.94873,4275.512695,4429.487305,4355.897461,4273.333496,4278.077148,3716.281982,4312.436035,4306.538574,4288.461426,4614.743652,4571.025879,4436.410156,4519.487305,,,,,,,,,,,,,,,,,,,,,,,,,,,,,,,,,,,,,,,,,,,,,,,,,,,,,,,,,,,,,,,,,,,,,,
1769163337.581624,1769163337.581916,76.0,0.0,4277.436035,4284.615234,4433.974121,4361.922852,4278.077148,4272.179688,3706.153809,4310.897461,4308.077148,4293.974121,4622.692383,4575.256348,4445.769043,4532.692383,,,,,,,,,,,,,,,,,,,,,,,,,,,,,,,,,,,,,,,,,,,,,,,,,,,,,,,,,,,,,,,,,,,,,,
1769163337.589433,1769163337.589725,77.0,0.0,4264.358887,4275.769043,4428.589844,4355.0,4277.820313,4266.666504,3700.897461,4310.0,4303.846191,4291.666504,4625.897461,4571.794922,4450.769043,4541.666504,,,,,,,,,,,,,,,,,,,,,,,,,,,,,,,,,,,,,,,,,,,,,,,,,,,,,,,,,,,,,,,,,,,,,,
1769163337.597241,1769163337.597633,78.0,0.0,4252.307617,4259.871582,4419.615234,4341.410156,4269.487305,4277.05127,3704.871826,4307.692383,4292.179688,4275.128418,4613.461426,4559.358887,4444.615234,4534.230957,0.552503,0.253737,0.378962,0.374957,0.263104,0.269458,0.458942,0.323961,0.142066,0.141162,0.919253,0.34851,0.203432,0.218009,0.103502,0.260356,0.354801,0.160373,0.078626,0.083288,0.192754,0.260665,0.120531,0.082894,0.054775,0.22604,0.377053,0.195117,0.096108,0.077741,1.434935,0.330314,0.212479,0.112113,0.119838,0.185302,0.314009,0.348509,0.07543,0.110362,0.17815,0.409034,0.26708,0.079866,0.109793,0.303575,0.406312,0.291406,0.262269,0.15078,0.316231,0.521183,0.356362,0.270465,0.159901,0.436762,0.802696,0.377443,0.409153,0.240062,0.338649,0.595732,0.209766,0.389416,0.304987,0.543806,0.719063,0.274108,0.933555,0.320927
1769163337.605049,1769163337.605442,79.0,0.0,4263.974121,4264.487305,4421.794922,4343.589844,4267.307617,4274.487305,3700.512939,4304.102539,4294.102539,4274.615234,4608.077148,4557.05127,4441.538574,4532.179688,,,,,,,,,,,,,,,,,,,,,,,,,,,,,,,,,,,,,,,,,,,,,,,,,,,,,,,,,,,,,,,,,,,,,,
1769163337.612858,1769163337.61345,80.0,0.0,4279.615234,4277.436035,4430.641113,4354.615234,4274.102539,4261.025879,3693.974365,4305.769043,4305.128418,4288.077148,4615.769043,4570.128418,4443.846191,4538.846191,,,,,,,,,,,,,,,,,,,,,,,,,,,,,,,,,,,,,,,,,,,,,,,,,,,,,,,,,,,,,,,,,,,,,,
1769163337.620666,1769163337.621258,81.0,0.0,4275.128418,4272.94873,4430.769043,4351.410156,4273.974121,4266.153809,3697.05127,4309.615234,4305.256348,4285.897461,4621.538574,4574.358887,4445.256348,4538.846191,,,,,,,,,,,,,,,,,,,,,,,,,,,,,,,,,,,,,,,,,,,,,,,,,,,,,,,,,,,,,,,,,,,,,,
1769163337.628475,1769163337.628967,82.0,0.0,4258.205078,4261.922852,4418.077148,4341.666504,4270.897461,4276.153809,3699.358887,4310.128418,4299.487305,4277.692383,4617.692383,4562.05127,4440.256348,4529.487305,,,,,,,,,,,,,,,,,,,,,,,,,,,,,,,,,,,,,,,,,,,,,,,,,,,,,,,,,,,,,,,,,,,,,,
1769163337.636284,1769163337.636775,83.0,0.0,4254.230957,4258.717773,4409.487305,4339.743652,4273.717773,4274.358887,3697.179443,4309.615234,4295.128418,4277.692383,4604.871582,4548.589844,4429.743652,4519.358887,,,,,,,,,,,,,,,,,,,,,,,,,,,,,,,,,,,,,,,,,,,,,,,,,,,,,,,,,,,,,,,,,,,,,,
1769163337.644092,1769163337.644384,84.0,0.0,4268.333496,4260.769043,4418.717773,4345.256348,4270.897461,4272.436035,3696.923096,4307.820313,4294.487305,4279.102539,4597.436035,4546.025879,4424.615234,4516.282227,,,,,,,,,,,,,,,,,,,,,,,,,,,,,,,,,,,,,,,,,,,,,,,,,,,,,,,,,,,,,,,,,,,,,,
1769163337.6519,1769163337.652192,85.0,0.0,4280.641113,4267.692383,4428.974121,4353.205078,4267.436035,4271.410156,3693.589844,4303.461426,4297.563965,4283.846191,4606.410156,4558.974121,4429.743652,4525.897461,,,,,,,,,,,,,,,,,,,,,,,,,,,,,,,,,,,,,,,,,,,,,,,,,,,,,,,,,,,,,,,,,,,,,,
1769163337.659709,1769163337.660101,86.0,0.0,4280.384766,4276.025879,4427.436035,4356.410156,4274.230957,4271.922852,3691.410156,4303.077148,4295.641113,4291.538574,4615.897461,4568.589844,4432.307617,4537.692383,,,,,,,,,,,,,,,,,,,,,,,,,,,,,,,,,,,,,,,,,,,,,,,,,,,,,,,,,,,,,,,,,,,,,,
1769163337.667517,1769163337.667909,87.0,0.0,4275.256348,4272.563965,4424.358887,4354.358887,4279.358887,4272.307617,3694.358887,4309.487305,4291.153809,4287.94873,4611.794922,4560.384766,4430.256348,4532.563965,,,,,,,,,,,,,,,,,,,,,,,,,,,,,,,,,,,,,,,,,,,,,,,,,,,,,,,,,,,,,,,,,,,,,,
1769163337.675326,1769163337.675518,88.0,0.0,4274.487305,4263.589844,4424.615234,4355.512695,4276.538574,4270.0,3692.05127,4311.153809,4292.563965,4281.153809,4604.102539,4551.410156,4428.974121,4514.871582,,,,,,,,,,,,,,,,,,,,,,,,,,,,,,,,,,,,,,,,,,,,,,,,,,,,,,,,,,,,,,,,,,,,,,
1769163337.683134,1769163337.683326,89.0,0.0,4281.410156,4268.589844,4425.641113,4359.871582,4276.282227,4271.794922,3685.897461,4303.846191,4295.0,4285.128418,4600.897461,4551.794922,4426.153809,4512.179688,,,,,,,,,,,,,,,,,,,,,,,,,,,,,,,,,,,,,,,,,,,,,,,,,,,,,,,,,,,,,,,,,,,,,,
1769163337.690943,1769163337.691035,90.0,0.0,4288.717773,4276.794922,4424.871582,4359.230957,4281.153809,4274.358887,3684.102539,4300.897461,4294.487305,4290.384766,4603.589844,4557.436035,4426.922852,4525.641113,,,,,,,,,,,,,,,,,,,,,,,,,,,,,,,,,,,,,,,,,,,,,,,,,,,,,,,,,,,,,,,,,,,,,,
1769163337.698751,1769163337.698843,91.0,0.0,4278.589844,4269.230957,4418.077148,4351.025879,4273.589844,4274.102539,3689.230713,4309.230957,4293.717773,4287.436035,4607.94873,4559.615234,4430.641113,4526.538574,,,,,,,,,,,,,,,,,,,,,,,,,,,,,,,,,,,,,,,,,,,,,,,,,,,,,,,,,,,,,,,,,,,,,,
1769163337.70656,1769163337.706452,92.0,0.0,4262.436035,4254.230957,4409.102539,4342.05127,4263.974121,4280.384766,3695.384521,4313.077148,4293.717773,4280.512695,4598.461426,4549.230957,4422.436035,4509.487305,,,,,,,,,,,,,,,,,,,,,,,,,,,,,,,,,,,,,,,,,,,,,,,,,,,,,,,,,,,,,,,,,,,,,,
1769163337.714368,1769163337.71426,93.0,0.0,4270.0,4254.230957,4412.94873,4341.794922,4268.717773,4282.05127,3692.94873,4304.358887,4293.077148,4277.820313,4586.538574,4541.794922,4409.230957,4500.512695,,,,,,,,,,,,,,,,,,,,,,,,,,,,,,,,,,,,,,,,,,,,,,,,,,,,,,,,,,,,,,,,,,,,,,
1769163337.722176,1769163337.722169,94.0,0.0,4285.769043,4263.205078,4423.205078,4345.897461,4274.358887,4270.0,3685.256348,4300.512695,4292.820313,4281.794922,4592.820313,4550.897461,4413.589844,4514.615234,0.515996,0.275175,0.331938,0.437054,0.271218,0.352079,0.520885,0.334147,0.188875,0.129727,0.775406,0.329727,0.137723,0.212277,0.100513,0.210571,0.371602,0.174512,0.104131,0.073142,0.1779,0.232072,0.135703,0.088005,0.055602,0.226278,0.375711,0.160332,0.094271,0.067415,1.542717,0.323746,0.251067,0.097874,0.112028,0.186701,0.338591,0.427375,0.088919,0.105874,0.18257,0.477492,0.262126,0.105003,0.120247,0.247813,0.435238,0.268287,0.271904,0.145145,0.320183,0.630523,0.334449,0.323784,0.15418,0.387476,0.863879,0.343955,0.467472,0.224589,0.299534,0.717959,0.217209,0.474931,0.294779,0.499379,0.788489,0.252718,1.192242,0.300533
1769163337.729985,1769163337.729977,95.0,0.0,4280.769043,4265.641113,4420.128418,4344.487305,4272.563965,4267.692383,3682.307617,4308.205078,4295.128418,4287.563965,4605.641113,4556.794922,4428.589844,4527.563965,,,,,,,,,,,,,,,,,,,,,,,,,,,,,,,,,,,,,,,,,,,,,,,,,,,,,,,,,,,,,,,,,,,,,,
