Timestamp,OriginalTimestamp,EEG.Counter,EEG.Interpolated,EEG.AF3,EEG.F7,EEG.F3,EEG.FC5,EEG.T7,EEG.P7,EEG.O1,EEG.O2,EEG.P8,EEG.T8,EEG.FC6,EEG.F4,EEG.F8,EEG.AF4,POW.AF3.Theta,POW.AF3.Alpha,POW.AF3.BetaL,POW.AF3.BetaH,POW.AF3.Gamma,POW.F7.Theta,POW.F7.Alpha,POW.F7.BetaL,POW.F7.BetaH,POW.F7.Gamma,POW.F3.Theta,POW.F3.Alpha,POW.F3.BetaL,POW.F3.BetaH,POW.F3.Gamma,POW.FC5.Theta,POW.FC5.Alpha,POW.FC5.BetaL,POW.FC5.BetaH,POW.FC5.Gamma,POW.T7.Theta,POW.T7.Alpha,POW.T7.BetaL,POW.T7.BetaH,POW.T7.Gamma,POW.P7.Theta,POW.P7.Alpha,POW.P7.BetaL,POW.P7.BetaH,POW.P7.Gamma,POW.O1.Theta,POW.O1.Alpha,POW.O1.BetaL,POW.O1.BetaH,POW.O1.Gamma,POW.O2.Theta,POW.O2.Alpha,POW.O2.BetaL,POW.O2.BetaH,POW.O2.Gamma,POW.P8.Theta,POW.P8.Alpha,POW.P8.BetaL,POW.P8.BetaH,POW.P8.Gamma,POW.T8.Theta,POW.T8.Alpha,POW.T8.BetaL,POW.T8.BetaH,POW.T8.Gamma,POW.FC6.Theta,POW.FC6.Alpha,POW.FC6.BetaL,POW.FC6.BetaH,POW.FC6.Gamma,POW.F4.Theta,POW.F4.Alpha,POW.F4.BetaL,POW.F4.BetaH,POW.F4.Gamma,POW.F8.Theta,POW.F8.Alpha,POW.F8.BetaL,POW.F8.BetaH,POW.F8.Gamma,POW.AF4.Theta,POW.AF4.Alpha,POW.AF4.BetaL,POW.AF4.BetaH,POW.AF4.Gamma
1768973276.825742,1768973276.826328,25.0,0.0,4380.897461,4365.256348,4360.641113,4393.846191,4364.102539,4375.384766,4373.974121,4394.487305,4355.384766,4342.94873,4446.153809,4501.282227,4389.871582,4428.205078,,,,,,,,,,,,,,,,,,,,,,,,,,,,,,,,,,,,,,,,,,,,,,,,,,,,,,,,,,,,,,,,,,,,,,
1768973276.83355,1768973276.834037,26.0,0.0,4374.743652,4367.94873,4357.820313,4397.94873,4365.256348,4381.153809,4373.717773,4400.0,4365.256348,4346.153809,4454.102539,4505.641113,4396.538574,4427.94873,,,,,,,,,,,,,,,,,,,,,,,,,,,,,,,,,,,,,,,,,,,,,,,,,,,,,,,,,,,,,,,,,,,,,,
1768973276.841359,1768973276.841845,27.0,0.0,4370.641113,4362.05127,4351.794922,4391.282227,4366.922852,4377.436035,4374.102539,4400.897461,4368.846191,4347.820313,4459.615234,4505.512695,4397.179688,4428.333496,,,,,,,,,,,,,,,,,,,,,,,,,,,,,,,,,,,,,,,,,,,,,,,,,,,,,,,,,,,,,,,,,,,,,,
1768973276.849167,1768973276.849454,28.0,0.0,4372.692383,4363.333496,4353.205078,4392.05127,4365.641113,4374.358887,4374.743652,4397.692383,4363.077148,4348.077148,4458.461426,4498.974121,4392.692383,4429.487305,,,,,,,,,,,,,,,,,,,,,,,,,,,,,,,,,,,,,,,,,,,,,,,,,,,,,,,,,,,,,,,,,,,,,,
1768973276.856976,1768973276.857262,29.0,0.0,4375.0,4370.0,4356.538574,4399.615234,4362.307617,4376.410156,4373.077148,4401.025879,4366.666504,4348.077148,4453.974121,4495.512695,4389.615234,4423.589844,,,,,,,,,,,,,,,,,,,,,,,,,,,,,,,,,,,,,,,,,,,,,,,,,,,,,,,,,,,,,,,,,,,,,,
1768973276.864784,1768973276.864971,30.0,0.0,4372.692383,4365.384766,4352.563965,4393.333496,4358.846191,4373.461426,4368.974121,4398.333496,4369.871582,4344.102539,4449.102539,4498.333496,4388.077148,4417.179688,1.679814,0.179846,0.153075,0.138347,0.09278,2.39164,0.427061,0.333089,0.115627,0.083973,0.422373,0.168149,0.184749,0.160529,0.087648,0.748816,0.108079,0.08131,0.05355,0.077567,0.140892,0.092548,0.064194,0.029052,0.057129,0.493216,0.210364,0.149327,0.14206,0.091816,0.870771,0.24284,0.124247,0.159461,0.114667,0.655156,0.186407,0.150679,0.137564,0.08453,0.828002,0.275835,0.107739,0.12934,0.135785,0.95687,0.324117,0.159123,0.239355,0.120709,0.969819,0.266986,0.191765,0.486707,0.186364,0.803152,0.467101,0.270177,0.522824,0.134094,1.266354,0.242868,0.147218,0.393532,0.138191,1.664844,0.116994,0.110005,0.481552,0.190022
1768973276.872593,1768973276.872779,31.0,0.0,4366.025879,4355.384766,4351.922852,4384.102539,4358.077148,4370.641113,4373.717773,4395.128418,4369.102539,4344.230957,4451.794922,4499.230957,4389.487305,4421.025879,,,,,,,,,,,,,,,,,,,,,,,,,,,,,,,,,,,,,,,,,,,,,,,,,,,,,,,,,,,,,,,,,,,,,,
1768973276.880401,1768973276.880788,32.0,0.0,4368.461426,4362.179688,4360.897461,4392.692383,4361.282227,4376.666504,4381.282227,4405.384766,4373.333496,4351.282227,4461.025879,4500.512695,4394.358887,4427.94873,,,,,,,,,,,,,,,,,,,,,,,,,,,,,,,,,,,,,,,,,,,,,,,,,,,,,,,,,,,,,,,,,,,,,,
1768973276.888209,1768973276.888596,33.0,0.0,4378.717773,4376.282227,4365.0,4402.563965,4365.384766,4380.128418,4382.05127,4409.615234,4374.102539,4352.436035,4462.179688,4504.743652,4398.205078,4427.692383,,,,,,,,,,,,,,,,,,,,,,,,,,,,,,,,,,,,,,,,,,,,,,,,,,,,,,,,,,,,,,,,,,,,,,
1768973276.896018,1768973276.896504,34.0,0.0,4379.871582,4376.153809,4363.333496,4400.384766,4366.282227,4378.461426,4384.871582,4404.871582,4373.461426,4350.384766,4460.769043,4510.769043,4398.589844,4432.307617,,,,,,,,,,,,,,,,,,,,,,,,,,,,,,,,,,,,,,,,,,,,,,,,,,,,,,,,,,,,,,,,,,,,,,
1768973276.903826,1768973276.904313,35.0,0.0,4376.538574,4374.487305,4367.307617,4399.487305,4366.922852,4377.05127,4383.333496,4405.641113,4373.974121,4354.871582,4463.205078,4512.692383,4397.94873,4439.487305,,,,,,,,,,,,,,,,,,,,,,,,,,,,,,,,,,,,,,,,,,,,,,,,,,,,,,,,,,,,,,,,,,,,,,
1768973276.911635,1768973276.911922,36.0,0.0,4380.384766,4380.769043,4368.974121,4402.307617,4367.94873,4372.692383,4373.846191,4407.179688,4371.282227,4358.589844,4462.307617,4508.589844,4399.102539,4437.563965,,,,,,,,,,,,,,,,,,,,,,,,,,,,,,,,,,,,,,,,,,,,,,,,,,,,,,,,,,,,,,,,,,,,,,
1768973276.919443,1768973276.91973,37.0,0.0,4383.974121,4380.769043,4365.0,4404.871582,4363.846191,4370.256348,4371.025879,4406.025879,4372.820313,4354.230957,4461.025879,4503.333496,4398.589844,4431.153809,,,,,,,,,,,,,,,,,,,,,,,,,,,,,,,,,,,,,,,,,,,,,,,,,,,,,,,,,,,,,,,,,,,,,,
1768973276.927252,1768973276.927439,38.0,0.0,4380.641113,4378.077148,4363.205078,4403.333496,4362.563965,4374.102539,4374.358887,4403.846191,4372.820313,4348.461426,4462.436035,4501.282227,4395.641113,4428.974121,,,,,,,,,,,,,,,,,,,,,,,,,,,,,,,,,,,,,,,,,,,,,,,,,,,,,,,,,,,,,,,,,,,,,,
1768973276.93506,1768973276.935247,39.0,0.0,4377.820313,4382.05127,4365.0,4401.410156,4371.153809,4375.384766,4374.871582,4400.384766,4368.589844,4348.461426,4463.333496,4504.487305,4399.358887,4435.0,,,,,,,,,,,,,,,,,,,,,,,,,,,,,,,,,,,,,,,,,,,,,,,,,,,,,,,,,,,,,,,,,,,,,,
1768973276.942869,1768973276.943255,40.0,0.0,4379.615234,4384.102539,4368.589844,4406.025879,4374.871582,4376.282227,4377.179688,4401.922852,4375.0,4354.743652,4463.589844,4507.307617,4407.820313,4438.589844,,,,,,,,,,,,,,,,,,,,,,,,,,,,,,,,,,,,,,,,,,,,,,,,,,,,,,,,,,,,,,,,,,,,,,
1768973276.950677,1768973276.951064,41.0,0.0,4383.205078,4387.94873,4373.461426,4408.589844,4373.717773,4381.282227,4381.922852,4406.538574,4380.641113,4358.077148,4469.230957,4509.358887,4412.563965,4438.077148,,,,,,,,,,,,,,,,,,,,,,,,,,,,,,,,,,,,,,,,,,,,,,,,,,,,,,,,,,,,,,,,,,,,,,
1768973276.958485,1768973276.958972,42.0,0.0,4384.230957,4393.974121,4374.615234,4406.410156,4374.743652,4379.615234,4379.358887,4402.307617,4373.077148,4355.256348,4473.205078,4508.333496,4412.563965,4438.846191,,,,,,,,,,,,,,,,,,,,,,,,,,,,,,,,,,,,,,,,,,,,,,,,,,,,,,,,,,,,,,,,,,,,,,
1768973276.966294,1768973276.96678,43.0,0.0,4381.794922,4395.897461,4373.077148,4407.436035,4373.974121,4374.102539,4375.256348,4395.0,4368.205078,4351.538574,4468.846191,4507.820313,4411.025879,4438.974121,,,,,,,,,,,,,,,,,,,,,,,,,,,,,,,,,,,,,,,,,,,,,,,,,,,,,,,,,,,,,,,,,,,,,,
1768973276.974102,1768973276.974789,44.0,0.0,4381.922852,4399.102539,4372.563965,4411.794922,4373.333496,4374.615234,4376.025879,4397.179688,4371.025879,4352.05127,4466.153809,4508.974121,4409.871582,4436.025879,,,,,,,,,,,,,,,,,,,,,,,,,,,,,,,,,,,,,,,,,,,,,,,,,,,,,,,,,,,,,,,,,,,,,,
1768973276.981911,1768973276.982597,45.0,0.0,4383.846191,4396.922852,4371.410156,4410.512695,4374.358887,4374.871582,4376.922852,4401.282227,4372.436035,4355.641113,4471.410156,4509.230957,4411.025879,4435.512695,,,,,,,,,,,,,,,,,,,,,,,,,,,,,,,,,,,,,,,,,,,,,,,,,,,,,,,,,,,,,,,,,,,,,,
1768973276.989719,1768973276.990506,46.0,0.0,4384.358887,4387.307617,4369.743652,4403.974121,4371.538574,4373.333496,4375.769043,4401.025879,4375.384766,4355.769043,4475.641113,4508.974121,4413.205078,4439.615234,1.551135,0.163024,0.127081,0.148283,0.101989,2.24531,0.451639,0.307514,0.12264,0.086376,0.489694,0.142072,0.177833,0.146507,0.079025,0.734019,0.10173,0.065538,0.058281,0.068805,0.150974,0.093012,0.078682,0.037802,0.05077,0.468769,0.178143,0.182017,0.146227,0.086552,0.91531,0.21124,0.127105,0.168167,0.118413,0.70697,0.167326,0.150049,0.131374,0.074305,0.909687,0.24261,0.108055,0.101473,0.12545,0.920947,0.330957,0.188156,0.23778,0.124284,0.933089,0.241351,0.199197,0.430548,0.168085,0.78306,0.464981,0.28346,0.460612,0.125518,1.257686,0.267286,0.120349,0.38942,0.129084,1.491405,0.139102,0.108778,0.435748,0.178885
1768973276.997528,1768973276.998314,47.0,0.0,4383.846191,4387.820313,4368.846191,4398.846191,4369.743652,4372.563965,4372.820313,4397.692383,4375.769043,4356.666504,4471.025879,4511.922852,4413.205078,4441.153809,,,,,,,,,,,,,,,,,,,,,,,,,,,,,,,,,,,,,,,,,,,,,,,,,,,,,,,,,,,,,,,,,,,,,,
1768973277.005336,1768973277.005923,48.0,0.0,4383.077148,4395.128418,4366.794922,4398.205078,4373.333496,4372.05127,4373.077148,4396.153809,4371.410156,4357.307617,4466.538574,4515.256348,4412.94873,4443.205078,,,,,,,,,,,,,,,,,,,,,,,,,,,,,,,,,,,,,,,,,,,,,,,,,,,,,,,,,,,,,,,,,,,,,,
1768973277.013145,1768973277.013731,49.0,0.0,4381.410156,4393.589844,4363.077148,4399.102539,4370.641113,4373.077148,4376.282227,4399.871582,4372.307617,4351.153809,4464.102539,4514.358887,4413.589844,4442.820313,,,,,,,,,,,,,,,,,,,,,,,,,,,,,,,,,,,,,,,,,,,,,,,,,,,,,,,,,,,,,,,,,,,,,,
1768973277.020953,1768973277.02144,50.0,0.0,4380.512695,4388.205078,4363.461426,4396.538574,4367.436035,4374.743652,4376.794922,4401.794922,4373.077148,4349.102539,4462.692383,4512.820313,4410.897461,4438.717773,,,,,,,,,,,,,,,,,,,,,,,,,,,,,,,,,,,,,,,,,,,,,,,,,,,,,,,,,,,,,,,,,,,,,,
1768973277.028762,1768973277.029248,51.0,0.0,4381.153809,4388.717773,4365.512695,4396.410156,4369.615234,4371.666504,4373.974121,4400.0,4371.025879,4355.512695,4461.666504,4510.769043,4404.487305,4435.641113,,,,,,,,,,,,,,,,,,,,,,,,,,,,,,,,,,,,,,,,,,,,,,,,,,,,,,,,,,,,,,,,,,,,,,
1768973277.03657,1768973277.036857,52.0,0.0,4381.153809,4389.230957,4363.333496,4398.461426,4369.743652,4366.025879,4368.077148,4398.974121,4370.256348,4349.102539,4460.512695,4506.410156,4403.974121,4432.563965,,,,,,,,,,,,,,,,,,,,,,,,,,,,,,,,,,,,,,,,,,,,,,,,,,,,,,,,,,,,,,,,,,,,,,
1768973277.044378,1768973277.044665,53.0,0.0,4381.282227,4388.846191,4360.512695,4396.922852,4370.769043,4369.487305,4369.487305,4400.0,4373.461426,4338.974121,4461.538574,4505.897461,4410.641113,4435.0,,,,,,,,,,,,,,,,,,,,,,,,,,,,,,,,,,,,,,,,,,,,,,,,,,,,,,,,,,,,,,,,,,,,,,
1768973277.052187,1768973277.052374,54.0,0.0,4380.897461,4388.461426,4360.256348,4398.333496,4375.897461,4378.461426,4377.179688,4399.230957,4374.871582,4349.743652,4460.897461,4507.94873,4407.94873,4439.743652,,,,,,,,,,,,,,,,,,,,,,,,,,,,,,,,,,,,,,,,,,,,,,,,,,,,,,,,,,,,,,,,,,,,,,
1768973277.059995,1768973277.060182,55.0,0.0,4380.641113,4388.077148,4362.05127,4402.179688,4377.179688,4377.820313,4377.94873,4404.871582,4377.820313,4361.794922,4459.743652,4508.589844,4398.846191,4437.820313,,,,,,,,,,,,,,,,,,,,,,,,,,,,,,,,,,,,,,,,,,,,,,,,,,,,,,,,,,,,,,,,,,,,,,
1768973277.067804,1768973277.067791,56.0,0.0,4383.974121,4386.282227,4363.333496,4399.487305,4371.410156,4370.128418,4372.05127,4409.487305,4382.179688,4356.538574,4459.358887,4505.769043,4398.461426,4435.641113,,,,,,,,,,,,,,,,,,,,,,,,,,,,,,,,,,,,,,,,,,,,,,,,,,,,,,,,,,,,,,,,,,,,,,
1768973277.075612,1768973277.075599,57.0,0.0,4388.717773,4388.205078,4365.769043,4400.128418,4373.205078,4374.230957,4374.743652,4399.102539,4378.589844,4351.025879,4460.641113,4505.512695,4404.230957,4441.666504,,,,,,,,,,,,,,,,,,,,,,,,,,,,,,,,,,,,,,,,,,,,,,,,,,,,,,,,,,,,,,,,,,,,,,
1768973277.083421,1768973277.083508,58.0,0.0,4392.05127,4393.333496,4368.077148,4404.871582,4383.205078,4385.128418,4384.871582,4393.461426,4375.0,4354.487305,4465.128418,4512.436035,4405.897461,4447.179688,,,,,,,,,,,,,,,,,,,,,,,,,,,,,,,,,,,,,,,,,,,,,,,,,,,,,,,,,,,,,,,,,,,,,,
1768973277.091229,1768973277.091316,59.0,0.0,4388.717773,4391.538574,4367.307617,4398.077148,4383.205078,4382.307617,4380.641113,4401.922852,4377.436035,4356.922852,4467.692383,4517.436035,4401.538574,4444.487305,,,,,,,,,,,,,,,,,,,,,,,,,,,,,,,,,,,,,,,,,,,,,,,,,,,,,,,,,,,,,,,,,,,,,,
1768973277.099038,1768973277.099324,60.0,0.0,4381.025879,4387.692383,4366.794922,4390.641113,4376.794922,4373.974121,4371.538574,4405.641113,4375.512695,4352.05127,4463.974121,4516.282227,4396.922852,4440.0,,,,,,,,,,,,,,,,,,,,,,,,,,,,,,,,,,,,,,,,,,,,,,,,,,,,,,,,,,,,,,,,,,,,,,
1768973277.106846,1768973277.107133,61.0,0.0,4379.615234,4387.05127,4366.282227,4395.512695,4377.820313,4375.256348,4377.05127,4404.358887,4371.538574,4347.307617,4459.743652,4515.384766,4396.794922,4436.153809,,,,,,,,,,,,,,,,,,,,,,,,,,,,,,,,,,,,,,,,,,,,,,,,,,,,,,,,,,,,,,,,,,,,,,
1768973277.114654,1768973277.114841,62.0,0.0,4380.897461,4383.461426,4364.358887,4397.436035,4379.615234,4381.025879,4384.102539,4408.077148,4374.871582,4350.384766,4460.769043,4515.641113,4397.94873,4432.436035,1.385623,0.141909,0.11253,0.174773,0.116792,2.032301,0.458316,0.283954,0.145782,0.09313,0.629192,0.119135,0.164261,0.144162,0.073293,0.710324,0.098403,0.062507,0.069294,0.068019,0.156523,0.095556,0.095764,0.048915,0.046788,0.411182,0.182465,0.205415,0.154793,0.085685,0.895536,0.180559,0.133585,0.179065,0.126199,0.67814,0.144772,0.152493,0.126371,0.067209,0.89274,0.194338,0.119469,0.079451,0.117069,0.821624,0.315108,0.218053,0.23204,0.130394,0.864185,0.219413,0.203819,0.366644,0.147019,0.755659,0.454948,0.304985,0.392977,0.124953,1.224082,0.325513,0.096542,0.377331,0.12462,1.302582,0.192187,0.11922,0.391745,0.166689
1768973277.122463,1768973277.12265,63.0,0.0,4375.769043,4380.769043,4362.820313,4394.102539,4376.538574,4380.128418,4378.077148,4406.153809,4375.0,4353.461426,4461.666504,4515.512695,4397.820313,4435.128418,,,,,,,,,,,,,,,,,,,,,,,,,,,,,,,,,,,,,,,,,,,,,,,,,,,,,,,,,,,,,,,,,,,,,,
1768973277.130271,1768973277.130658,64.0,0.0,4372.307617,4382.820313,4361.794922,4393.717773,4376.666504,4374.102539,4373.333496,4400.897461,4370.769043,4350.769043,4459.743652,4514.743652,4398.205078,4440.384766,,,,,,,,,,,,,,,,,,,,,,,,,,,,,,,,,,,,,,,,,,,,,,,,,,,,,,,,,,,,,,,,,,,,,,
1768973277.13808,1768973277.138466,65.0,0.0,4374.487305,4381.922852,4359.615234,4392.692383,4375.512695,4370.512695,4380.256348,4407.05127,4376.410156,4351.025879,4460.128418,4515.0,4398.205078,4439.615234,,,,,,,,,,,,,,,,,,,,,,,,,,,,,,,,,,,,,,,,,,,,,,,,,,,,,,,,,,,,,,,,,,,,,,
1768973277.145888,1768973277.146375,66.0,0.0,4375.128418,4380.256348,4360.256348,4388.974121,4371.922852,4374.615234,4381.666504,4408.205078,4378.589844,4351.922852,4461.153809,4514.230957,4396.922852,4432.692383,,,,,,,,,,,,,,,,,,,,,,,,,,,,,,,,,,,,,,,,,,,,,,,,,,,,,,,,,,,,,,,,,,,,,,
1768973277.153697,1768973277.154183,67.0,0.0,4374.102539,4382.436035,4362.436035,4389.743652,4373.461426,4378.461426,4379.615234,4401.410156,4370.384766,4347.563965,4458.846191,4513.205078,4395.128418,4428.846191,,,,,,,,,,,,,,,,,,,,,,,,,,,,,,,,,,,,,,,,,,,,,,,,,,,,,,,,,,,,,,,,,,,,,,
1768973277.161505,1768973277.162191,68.0,0.0,4372.307617,4384.102539,4361.794922,4392.179688,4373.974121,4377.179688,4380.512695,4403.717773,4370.769043,4341.666504,4457.94873,4510.641113,4391.666504,4430.512695,,,,,,,,,,,,,,,,,,,,,,,,,,,,,,,,,,,,,,,,,,,,,,,,,,,,,,,,,,,,,,,,,,,,,,
1768973277.169314,1768973277.17,69.0,0.0,4374.743652,4385.897461,4364.615234,4393.461426,4374.487305,4378.205078,4376.666504,4406.025879,4374.102539,4340.769043,4455.384766,4508.846191,4388.461426,4429.743652,,,,,,,,,,,,,,,,,,,,,,,,,,,,,,,,,,,,,,,,,,,,,,,,,,,,,,,,,,,,,,,,,,,,,,
1768973277.177122,1768973277.177908,70.0,0.0,4380.897461,4385.256348,4370.128418,4393.589844,4379.615234,4381.666504,4372.820313,4396.153809,4363.077148,4341.282227,4445.384766,4511.282227,4387.05127,4425.512695,,,,,,,,,,,,,,,,,,,,,,,,,,,,,,,,,,,,,,,,,,,,,,,,,,,,,,,,,,,,,,,,,,,,,,
1768973277.18493,1768973277.185717,71.0,0.0,4382.563965,4384.230957,4369.615234,4394.102539,4381.282227,4376.666504,4373.333496,4390.128418,4355.897461,4340.769043,4441.025879,4514.871582,4386.922852,4428.461426,,,,,,,,,,,,,,,,,,,,,,,,,,,,,,,,,,,,,,,,,,,,,,,,,,,,,,,,,,,,,,,,,,,,,,
1768973277.192739,1768973277.193725,72.0,0.0,4383.589844,4389.230957,4369.871582,4397.436035,4378.205078,4372.563965,4373.461426,4398.717773,4365.128418,4342.692383,4453.077148,4520.641113,4393.205078,4439.102539,,,,,,,,,,,,,,,,,,,,,,,,,,,,,,,,,,,,,,,,,,,,,,,,,,,,,,,,,,,,,,,,,,,,,,
1768973277.200547,1768973277.201533,73.0,0.0,4388.589844,4391.282227,4370.512695,4399.230957,4373.974121,4376.538574,4372.563965,4402.179688,4370.897461,4345.641113,4462.05127,4524.615234,4399.615234,4447.436035,,,,,,,,,,,,,,,,,,,,,,,,,,,,,,,,,,,,,,,,,,,,,,,,,,,,,,,,,,,,,,,,,,,,,,
1768973277.208356,1768973277.209242,74.0,0.0,4388.717773,4384.487305,4370.128418,4395.128418,4372.820313,4378.077148,4375.0,4396.922852,4370.897461,4342.820313,4457.94873,4520.0,4395.897461,4446.410156,,,,,,,,,,,,,,,,,,,,,,,,,,,,,,,,,,,,,,,,,,,,,,,,,,,,,,,,,,,,,,,,,,,,,,
1768973277.216164,1768973277.21705,75.0,0.0,4387.179688,4381.153809,4370.384766,4392.563965,4374.358887,4378.846191,4377.94873,4396.794922,4373.589844,4339.487305,4455.897461,4513.717773,4391.410156,4441.794922,,,,,,,,,,,,,,,,,,,,,,,,,,,,,,,,,,,,,,,,,,,,,,,,,,,,,,,,,,,,,,,,,,,,,,
1768973277.223973,1768973277.224659,76.0,0.0,4387.820313,4386.153809,4369.871582,4393.205078,4373.974121,4382.05127,4381.666504,4399.871582,4373.077148,4347.05127,4459.487305,4515.769043,4395.769043,4443.846191,,,,,,,,,,,,,,,,,,,,,,,,,,,,,,,,,,,,,,,,,,,,,,,,,,,,,,,,,,,,,,,,,,,,,,
1768973277.231781,1768973277.232467,77.0,0.0,4383.333496,4383.974121,4371.410156,4392.307617,4372.307617,4379.743652,4381.025879,4400.256348,4372.179688,4355.512695,4460.256348,4519.230957,4402.05127,4447.436035,,,,,,,,,,,,,,,,,,,,,,,,,,,,,,,,,,,,,,,,,,,,,,,,,,,,,,,,,,,,,,,,,,,,,,
1768973277.23959,1768973277.240176,78.0,0.0,4379.487305,4379.871582,4371.410156,4389.102539,4372.563965,4373.077148,4373.205078,4397.820313,4372.179688,4351.922852,4457.94873,4513.846191,4397.692383,4440.0,1.251548,0.124741,0.114454,0.216756,0.134715,1.819604,0.453236,0.261817,0.179746,0.102008,0.817306,0.102249,0.148897,0.153558,0.070553,0.691622,0.099392,0.070275,0.083338,0.074865,0.157822,0.10099,0.11012,0.062079,0.045249,0.336835,0.225483,0.21435,0.1676,0.089045,0.815926,0.156669,0.146924,0.190051,0.135682,0.588263,0.122424,0.150402,0.120241,0.064844,0.791819,0.145459,0.137789,0.066013,0.112392,0.674253,0.284881,0.238308,0.223294,0.136844,0.752904,0.205249,0.208417,0.311232,0.126217,0.71242,0.437926,0.331993,0.339046,0.129313,1.169847,0.406927,0.080748,0.360022,0.122666,1.13993,0.258299,0.141141,0.363817,0.154493
1768973277.247398,1768973277.247984,79.0,0.0,4381.410156,4389.102539,4364.743652,4390.128418,4372.820313,4371.153809,4373.333496,4396.282227,4368.717773,4348.974121,4458.205078,4510.256348,4387.436035,4432.179688,,,,,,,,,,,,,,,,,,,,,,,,,,,,,,,,,,,,,,,,,,,,,,,,,,,,,,,,,,,,,,,,,,,,,,
1768973277.255206,1768973277.255593,80.0,0.0,4382.692383,4396.025879,4363.205078,4394.358887,4373.461426,4374.358887,4380.769043,4400.384766,4372.05127,4355.641113,4460.256348,4518.205078,4391.922852,4438.333496,,,,,,,,,,,,,,,,,,,,,,,,,,,,,,,,,,,,,,,,,,,,,,,,,,,,,,,,,,,,,,,,,,,,,,
1768973277.263015,1768973277.263402,81.0,0.0,4382.692383,4390.0,4367.563965,4396.794922,4377.436035,4378.333496,4378.717773,4403.974121,4378.461426,4360.384766,4462.179688,4523.717773,4407.820313,4447.820313,,,,,,,,,,,,,,,,,,,,,,,,,,,,,,,,,,,,,,,,,,,,,,,,,,,,,,,,,,,,,,,,,,,,,,
1768973277.270823,1768973277.27111,82.0,0.0,4380.512695,4387.05127,4363.077148,4395.641113,4378.333496,4381.538574,4374.358887,4397.563965,4370.641113,4357.05127,4461.922852,4516.025879,4407.692383,4445.256348,,,,,,,,,,,,,,,,,,,,,,,,,,,,,,,,,,,,,,,,,,,,,,,,,,,,,,,,,,,,,,,,,,,,,,
1768973277.278632,1768973277.278919,83.0,0.0,4375.0,4385.641113,4359.358887,4392.94873,4373.333496,4376.794922,4373.205078,4389.871582,4360.641113,4352.820313,4455.641113,4511.025879,4393.717773,4435.128418,,,,,,,,,,,,,,,,,,,,,,,,,,,,,,,,,,,,,,,,,,,,,,,,,,,,,,,,,,,,,,,,,,,,,,
1768973277.28644,1768973277.286927,84.0,0.0,4371.282227,4375.128418,4361.153809,4390.0,4371.922852,4368.205078,4368.461426,4391.538574,4366.922852,4349.871582,4445.128418,4513.205078,4388.077148,4426.538574,,,,,,,,,,,,,,,,,,,,,,,,,,,,,,,,,,,,,,,,,,,,,,,,,,,,,,,,,,,,,,,,,,,,,,
1768973277.294249,1768973277.294735,85.0,0.0,4370.384766,4367.563965,4359.358887,4383.333496,4374.230957,4372.94873,4372.94873,4398.077148,4373.974121,4348.077148,4443.205078,4513.205078,4388.846191,4427.179688,,,,,,,,,,,,,,,,,,,,,,,,,,,,,,,,,,,,,,,,,,,,,,,,,,,,,,,,,,,,,,,,,,,,,,
1768973277.302057,1768973277.302644,86.0,0.0,4372.436035,4371.153809,4360.512695,4379.102539,4373.717773,4382.692383,4381.922852,4397.94873,4370.769043,4353.077148,4452.563965,4511.538574,4391.025879,4437.179688,,,,,,,,,,,,,,,,,,,,,,,,,,,,,,,,,,,,,,,,,,,,,,,,,,,,,,,,,,,,,,,,,,,,,,
1768973277.309866,1768973277.310452,87.0,0.0,4379.871582,4375.512695,4363.333496,4384.871582,4371.282227,4371.922852,4372.820313,4392.563965,4370.256348,4359.487305,4459.615234,4518.461426,4397.563965,4443.205078,,,,,,,,,,,,,,,,,,,,,,,,,,,,,,,,,,,,,,,,,,,,,,,,,,,,,,,,,,,,,,,,,,,,,,
1768973277.317674,1768973277.318061,88.0,0.0,4383.077148,4377.563965,4362.563965,4386.538574,4371.922852,4358.974121,4363.589844,4395.384766,4375.384766,4362.94873,4461.282227,4526.666504,4401.666504,4442.94873,,,,,,,,,,,,,,,,,,,,,,,,,,,,,,,,,,,,,,,,,,,,,,,,,,,,,,,,,,,,,,,,,,,,,,
1768973277.325482,1768973277.325869,89.0,0.0,4379.102539,4379.102539,4362.692383,4380.512695,4375.641113,4367.820313,4371.666504,4399.102539,4375.384766,4359.487305,4462.692383,4525.128418,4399.487305,4444.743652,,,,,,,,,,,,,,,,,,,,,,,,,,,,,,,,,,,,,,,,,,,,,,,,,,,,,,,,,,,,,,,,,,,,,,
1768973277.333291,1768973277.333578,90.0,0.0,4381.153809,4379.871582,4366.025879,4381.282227,4375.128418,4375.256348,4374.230957,4397.436035,4369.230957,4346.922852,4462.179688,4523.589844,4396.282227,4448.846191,,,,,,,,,,,,,,,,,,,,,,,,,,,,,,,,,,,,,,,,,,,,,,,,,,,,,,,,,,,,,,,,,,,,,,
1768973277.341099,1768973277.341386,91.0,0.0,4390.0,4380.641113,4370.769043,4389.871582,4372.820313,4373.846191,4371.922852,4397.05127,4364.487305,4345.641113,4461.025879,4523.974121,4395.512695,4450.0,,,,,,,,,,,,,,,,,,,,,,,,,,,,,,,,,,,,,,,,,,,,,,,,,,,,,,,,,,,,,,,,,,,,,,
1768973277.348908,1768973277.349394,92.0,0.0,4389.487305,4379.743652,4372.820313,4389.230957,4375.0,4380.128418,4380.897461,4399.743652,4366.153809,4358.974121,4460.512695,4522.05127,4396.922852,4447.05127,,,,,,,,,,,,,,,,,,,,,,,,,,,,,,,,,,,,,,,,,,,,,,,,,,,,,,,,,,,,,,,,,,,,,,
1768973277.356716,1768973277.357203,93.0,0.0,4382.692383,4379.615234,4367.692383,4382.307617,4374.743652,4381.153809,4380.0,4402.436035,4374.743652,4362.820313,4460.0,4522.692383,4396.794922,4445.0,,,,,,,,,,,,,,,,,,,,,,,,,,,,,,,,,,,,,,,,,,,,,,,,,,,,,,,,,,,,,,,,,,,,,,
1768973277.364524,1768973277.365111,94.0,0.0,4383.461426,4385.256348,4361.538574,4382.307617,4370.897461,4371.794922,4370.641113,4400.0,4375.256348,4356.025879,4460.256348,4523.077148,4396.410156,4444.487305,1.166168,0.122936,0.131098,0.266331,0.151733,1.627082,0.453647,0.242555,0.21541,0.109987,1.006776,0.097149,0.137884,0.170119,0.069461,0.692425,0.104862,0.086622,0.097281,0.086077,0.159842,0.108387,0.117109,0.076192,0.04542,0.266296,0.29452,0.207638,0.180882,0.095684,0.697776,0.147233,0.169338,0.199069,0.14503,0.459814,0.105165,0.13838,0.111551,0.067835,0.651552,0.110109,0.158364,0.060653,0.111051,0.514848,0.253241,0.244039,0.212559,0.142316,0.610599,0.203125,0.216076,0.275678,0.109293,0.656446,0.41758,0.356544,0.311867,0.1336,1.098396,0.48422,0.075686,0.341741,0.121242,1.014792,0.319732,0.170804,0.35867,0.142236
1768973277.372333,1768973277.37292,95.0,0.0,4388.077148,4389.102539,4366.025879,4389.615234,4371.922852,4375.128418,4377.563965,4391.794922,4365.256348,4356.410156,4460.0,4521.538574,4397.94873,4443.333496,,,,,,,,,,,,,,,,,,,,,,,,,,,,,,,,,,,,,,,,,,,,,,,,,,,,,,,,,,,,,,,,,,,,,,
1768973277.380141,1768973277.380928,96.0,0.0,4388.589844,4388.205078,4371.025879,4393.205078,4374.615234,4382.563965,4384.102539,4383.717773,4360.256348,4357.563965,4457.820313,4523.589844,4398.333496,4443.461426,,,,,,,,,,,,,,,,,,,,,,,,,,,,,,,,,,,,,,,,,,,,,,,,,,,,,,,,,,,,,,,,,,,,,,
1768973277.38795,1768973277.388736,97.0,0.0,4390.384766,4392.05127,4367.05127,4392.05127,4373.717773,4375.512695,4373.717773,4389.230957,4365.512695,4356.410156,4461.153809,4529.871582,4398.846191,4445.512695,,,,,,,,,,,,,,,,,,,,,,,,,,,,,,,,,,,,,,,,,,,,,,,,,,,,,,,,,,,,,,,,,,,,,,
1768973277.395758,1768973277.396445,98.0,0.0,4388.974121,4394.615234,4363.974121,4390.384766,4373.077148,4369.230957,4370.128418,4398.717773,4370.0,4358.717773,4461.538574,4528.717773,4397.820313,4440.897461,,,,,,,,,,,,,,,,,,,,,,,,,,,,,,,,,,,,,,,,,,,,,,,,,,,,,,,,,,,,,,,,,,,,,,
1768973277.403567,1768973277.404253,99.0,0.0,4380.256348,4385.641113,4363.205078,4384.102539,4371.153809,4373.846191,4375.256348,4392.94873,4365.256348,4352.436035,4448.717773,4521.410156,4390.256348,4431.153809,,,,,,,,,,,,,,,,,,,,,,,,,,,,,,,,,,,,,,,,,,,,,,,,,,,,,,,,,,,,,,,,,,,,,,
1768973277.411375,1768973277.411862,100.0,0.0,4377.307617,4377.436035,4359.358887,4378.717773,4367.179688,4372.179688,4371.025879,4383.077148,4357.692383,4342.436035,4440.897461,4515.0,4382.436035,4428.461426,,,,,,,,,,,,,,,,,,,,,,,,,,,,,,,,,,,,,,,,,,,,,,,,,,,,,,,,,,,,,,,,,,,,,,
1768973277.419184,1768973277.41967,101.0,0.0,4383.461426,4380.512695,4359.743652,4380.0,4369.743652,4365.769043,4367.179688,4383.717773,4357.307617,4341.666504,4445.641113,4516.410156,4382.436035,4431.025879,,,,,,,,,,,,,,,,,,,,,,,,,,,,,,,,,,,,,,,,,,,,,,,,,,,,,,,,,,,,,,,,,,,,,,
1768973277.426992,1768973277.427379,102.0,0.0,4386.025879,4383.461426,4365.641113,4383.205078,4372.436035,4366.922852,4371.025879,4385.641113,4360.897461,4345.897461,4445.641113,4520.128418,4383.717773,4428.974121,,,,,,,,,,,,,,,,,,,,,,,,,,,,,,,,,,,,,,,,,,,,,,,,,,,,,,,,,,,,,,,,,,,,,,
1768973277.434801,1768973277.435187,103.0,0.0,4378.077148,4377.94873,4361.282227,4381.282227,4366.538574,4368.717773,4370.128418,4385.256348,4359.743652,4344.743652,4442.05127,4513.846191,4380.512695,4424.871582,,,,,,,,,,,,,,,,,,,,,,,,,,,,,,,,,,,,,,,,,,,,,,,,,,,,,,,,,,,,,,,,,,,,,,
1768973277.442609,1768973277.442796,104.0,0.0,4370.641113,4373.205078,4351.538574,4377.436035,4366.794922,4369.487305,4368.077148,4388.846191,4357.820313,4341.538574,4445.512695,4508.333496,4381.282227,4425.0,,,,,,,,,,,,,,,,,,,,,,,,,,,,,,,,,,,,,,,,,,,,,,,,,,,,,,,,,,,,,,,,,,,,,,
1768973277.450417,1768973277.450604,105.0,0.0,4376.410156,4376.666504,4354.487305,4380.769043,4373.077148,4374.358887,4375.256348,4390.769043,4362.05127,4343.589844,4448.077148,4515.897461,4383.974121,4427.307617,,,,,,,,,,,,,,,,,,,,,,,,,,,,,,,,,,,,,,,,,,,,,,,,,,,,,,,,,,,,,,,,,,,,,,
1768973277.458226,1768973277.458313,106.0,0.0,4382.179688,4377.179688,4359.487305,4384.102539,4369.615234,4375.641113,4380.128418,4398.717773,4368.461426,4349.615234,4447.820313,4525.641113,4378.461426,4429.615234,,,,,,,,,,,,,,,,,,,,,,,,,,,,,,,,,,,,,,,,,,,,,,,,,,,,,,,,,,,,,,,,,,,,,,
1768973277.466034,1768973277.466121,107.0,0.0,4374.871582,4371.410156,4354.487305,4378.846191,4365.897461,4377.436035,4376.153809,4406.410156,4369.358887,4354.102539,4450.0,4520.512695,4375.384766,4430.512695,,,,,,,,,,,,,,,,,,,,,,,,,,,,,,,,,,,,,,,,,,,,,,,,,,,,,,,,,,,,,,,,,,,,,,
1768973277.473843,1768973277.47413,108.0,0.0,4369.102539,4376.025879,4349.102539,4372.05127,4370.128418,4380.384766,4373.205078,4394.487305,4360.897461,4349.615234,4449.230957,4511.410156,4380.256348,4428.717773,,,,,,,,,,,,,,,,,,,,,,,,,,,,,,,,,,,,,,,,,,,,,,,,,,,,,,,,,,,,,,,,,,,,,,
1768973277.481651,1768973277.481938,109.0,0.0,4376.153809,4390.769043,4351.025879,4375.641113,4371.410156,4374.102539,4372.436035,4384.487305,4355.897461,4342.179688,4445.256348,4514.358887,4380.897461,4427.820313,,,,,,,,,,,,,,,,,,,,,,,,,,,,,,,,,,,,,,,,,,,,,,,,,,,,,,,,,,,,,,,,,,,,,,
1768973277.48946,1768973277.489847,110.0,0.0,4382.820313,4391.282227,4356.410156,4383.333496,4369.487305,4368.461426,4372.692383,4390.897461,4362.563965,4345.641113,4445.256348,4515.897461,4381.153809,4433.589844,1.129971,0.143324,0.154526,0.311116,0.162902,1.449835,0.465364,0.223642,0.24445,0.115025,1.153297,0.108965,0.136982,0.186507,0.067958,0.696741,0.112049,0.108794,0.108321,0.097264,0.168454,0.115884,0.114852,0.089421,0.046422,0.216366,0.364976,0.189973,0.189614,0.104536,0.570706,0.153692,0.199107,0.203966,0.153015,0.342704,0.097403,0.116424,0.101389,0.075561,0.520841,0.098681,0.177402,0.061999,0.111417,0.379189,0.230773,0.23605,0.20257,0.146881,0.475313,0.217564,0.228153,0.264204,0.099164,0.601918,0.400321,0.371444,0.313773,0.133264,1.009953,0.527767,0.082339,0.327252,0.119985,0.942228,0.367609,0.205385,0.374438,0.130147
1768973277.497268,1768973277.497655,111.0,0.0,4381.153809,4378.333496,4359.487305,4383.205078,4370.256348,4374.743652,4376.025879,4396.025879,4366.538574,4354.487305,4452.436035,4511.025879,4388.717773,4437.307617,,,,,,,,,,,,,,,,,,,,,,,,,,,,,,,,,,,,,,,,,,,,,,,,,,,,,,,,,,,,,,,,,,,,,,
1768973277.505077,1768973277.505663,112.0,0.0,4380.512695,4375.384766,4357.436035,4378.974121,4370.641113,4379.615234,4376.922852,4395.384766,4366.282227,4350.384766,4458.205078,4515.0,4392.05127,4436.025879,,,,,,,,,,,,,,,,,,,,,,,,,,,,,,,,,,,,,,,,,,,,,,,,,,,,,,,,,,,,,,,,,,,,,,
1768973277.512885,1768973277.513472,113.0,0.0,4380.512695,4381.282227,4352.179688,4379.230957,4370.641113,4380.512695,4375.128418,4396.538574,4369.743652,4348.205078,4458.461426,4524.102539,4387.94873,4438.077148,,,,,,,,,,,,,,,,,,,,,,,,,,,,,,,,,,,,,,,,,,,,,,,,,,,,,,,,,,,,,,,,,,,,,,
1768973277.520693,1768973277.52118,114.0,0.0,4375.641113,4378.589844,4350.256348,4381.025879,4371.282227,4381.153809,4377.94873,4392.94873,4367.94873,4358.846191,4458.717773,4523.461426,4390.897461,4436.538574,,,,,,,,,,,,,,,,,,,,,,,,,,,,,,,,,,,,,,,,,,,,,,,,,,,,,,,,,,,,,,,,,,,,,,
1768973277.528502,1768973277.528989,115.0,0.0,4375.128418,4370.256348,4353.333496,4380.641113,4368.974121,4381.794922,4381.282227,4392.820313,4363.974121,4360.256348,4458.846191,4520.0,4397.436035,4435.897461,,,,,,,,,,,,,,,,,,,,,,,,,,,,,,,,,,,,,,,,,,,,,,,,,,,,,,,,,,,,,,,,,,,,,,
1768973277.53631,1768973277.536997,116.0,0.0,4380.384766,4371.282227,4357.94873,4380.897461,4367.307617,4383.205078,4377.179688,4398.077148,4367.05127,4352.692383,4454.615234,4518.461426,4395.769043,4437.94873,,,,,,,,,,,,,,,,,,,,,,,,,,,,,,,,,,,,,,,,,,,,,,,,,,,,,,,,,,,,,,,,,,,,,,
1768973277.544119,1768973277.544805,117.0,0.0,4383.333496,4378.589844,4360.897461,4385.897461,4369.487305,4380.512695,4372.692383,4394.358887,4367.692383,4354.358887,4453.589844,4511.794922,4392.563965,4434.358887,,,,,,,,,,,,,,,,,,,,,,,,,,,,,,,,,,,,,,,,,,,,,,,,,,,,,,,,,,,,,,,,,,,,,,
1768973277.551927,1768973277.552714,118.0,0.0,4385.641113,4379.358887,4361.794922,4390.0,4372.436035,4376.666504,4375.512695,4392.94873,4365.384766,4360.384766,4458.846191,4512.94873,4396.794922,4433.205078,,,,,,,,,,,,,,,,,,,,,,,,,,,,,,,,,,,,,,,,,,,,,,,,,,,,,,,,,,,,,,,,,,,,,,
1768973277.559736,1768973277.560522,119.0,0.0,4386.666504,4371.794922,4361.666504,4386.410156,4374.871582,4377.179688,4378.461426,4398.077148,4367.436035,4359.102539,4461.922852,4523.589844,4400.769043,4442.436035,,,,,,,,,,,,,,,,,,,,,,,,,,,,,,,,,,,,,,,,,,,,,,,,,,,,,,,,,,,,,,,,,,,,,,
1768973277.567544,1768973277.56853,120.0,0.0,4381.922852,4371.794922,4359.487305,4381.153809,4372.436035,4380.0,4378.717773,4395.512695,4367.563965,4356.282227,4460.897461,4526.922852,4397.94873,4445.512695,,,,,,,,,,,,,,,,,,,,,,,,,,,,,,,,,,,,,,,,,,,,,,,,,,,,,,,,,,,,,,,,,,,,,,
1768973277.575353,1768973277.576339,121.0,0.0,4380.0,4380.641113,4358.846191,4380.641113,4367.436035,4382.179688,4378.333496,4390.384766,4365.512695,4357.307617,4460.769043,4524.615234,4399.615234,4440.512695,,,,,,,,,,,,,,,,,,,,,,,,,,,,,,,,,,,,,,,,,,,,,,,,,,,,,,,,,,,,,,,,,,,,,,
1768973277.583161,1768973277.584047,122.0,0.0,4385.256348,4380.641113,4362.563965,4382.436035,4368.461426,4384.743652,4380.128418,4394.487305,4371.025879,4361.666504,4464.743652,4527.05127,4407.692383,4443.589844,,,,,,,,,,,,,,,,,,,,,,,,,,,,,,,,,,,,,,,,,,,,,,,,,,,,,,,,,,,,,,,,,,,,,,
1768973277.590969,1768973277.591856,123.0,0.0,4388.589844,4377.692383,4366.666504,4383.461426,4373.205078,4381.410156,4382.05127,4394.743652,4375.769043,4365.128418,4468.461426,4530.769043,4411.666504,4447.94873,,,,,,,,,,,,,,,,,,,,,,,,,,,,,,,,,,,,,,,,,,,,,,,,,,,,,,,,,,,,,,,,,,,,,,
1768973277.598778,1768973277.599464,124.0,0.0,4387.563965,4382.179688,4366.153809,4385.0,4371.794922,4374.871582,4382.820313,4390.384766,4370.641113,4360.641113,4466.922852,4532.436035,4406.025879,4444.358887,,,,,,,,,,,,,,,,,,,,,,,,,,,,,,,,,,,,,,,,,,,,,,,,,,,,,,,,,,,,,,,,,,,,,,
1768973277.606586,1768973277.607273,125.0,0.0,4383.974121,4382.179688,4359.230957,4384.487305,4370.256348,4375.769043,4381.153809,4395.384766,4369.102539,4356.794922,4461.282227,4528.589844,4397.563965,4437.05127,,,,,,,,,,,,,,,,,,,,,,,,,,,,,,,,,,,,,,,,,,,,,,,,,,,,,,,,,,,,,,,,,,,,,,
1768973277.614395,1768973277.614981,126.0,0.0,4380.512695,4374.487305,4356.794922,4381.153809,4373.846191,4377.05127,4379.487305,4396.153809,4373.333496,4357.563965,4457.820313,4521.666504,4395.384766,4437.179688,1.121196,0.181431,0.174595,0.33677,0.164291,1.301124,0.483194,0.206652,0.259875,0.116701,1.231383,0.133998,0.143352,0.193386,0.064495,0.695526,0.120659,0.132852,0.114021,0.104968,0.185387,0.122529,0.104871,0.099195,0.047698,0.192259,0.413504,0.169716,0.190867,0.115361,0.456347,0.170665,0.230487,0.2025,0.159214,0.261809,0.100919,0.090407,0.093485,0.086909,0.431463,0.111325,0.193586,0.069261,0.11236,0.2889,0.218894,0.219802,0.196287,0.150749,0.382801,0.248513,0.240737,0.27188,0.095798,0.553525,0.386963,0.370116,0.333181,0.126281,0.894729,0.513523,0.096814,0.317815,0.119673,0.906397,0.39509,0.241247,0.399423,0.119416
1768973277.622203,1768973277.62279,127.0,0.0,4380.384766,4373.205078,4361.922852,4381.282227,4373.461426,4375.512695,4380.897461,4388.974121,4371.922852,4351.153809,4458.205078,4518.974121,4399.230957,4438.589844,,,,,,,,,,,,,,,,,,,,,,,,,,,,,,,,,,,,,,,,,,,,,,,,,,,,,,,,,,,,,,,,,,,,,,
1768973277.630012,1768973277.630399,0.0,0.0,4383.846191,4377.820313,4362.307617,4382.436035,4371.410156,4377.692383,4381.025879,4388.461426,4370.384766,4344.615234,4457.692383,4522.692383,4399.487305,4432.692383,,,,,,,,,,,,,,,,,,,,,,,,,,,,,,,,,,,,,,,,,,,,,,,,,,,,,,,,,,,,,,,,,,,,,,
1768973277.63782,1768973277.638207,1.0,0.0,4386.153809,4381.153809,4359.871582,4381.410156,4372.820313,4381.922852,4380.769043,4392.563965,4373.461426,4352.05127,4455.897461,4523.717773,4395.256348,4434.358887,,,,,,,,,,,,,,,,,,,,,,,,,,,,,,,,,,,,,,,,,,,,,,,,,,,,,,,,,,,,,,,,,,,,,,
1768973277.645629,1768973277.645916,2.0,0.0,4385.0,4383.846191,4362.05127,4383.461426,4373.717773,4383.717773,4377.820313,4390.512695,4369.230957,4358.974121,4457.94873,4521.538574,4395.384766,4444.487305,,,,,,,,,,,,,,,,,,,,,,,,,,,,,,,,,,,,,,,,,,,,,,,,,,,,,,,,,,,,,,,,,,,,,,
1768973277.653437,1768973277.653724,3.0,0.0,4383.589844,4382.436035,4363.589844,4386.666504,4373.846191,4379.358887,4373.205078,4386.666504,4363.589844,4355.384766,4462.307617,4521.282227,4398.974121,4445.384766,,,,,,,,,,,,,,,,,,,,,,,,,,,,,,,,,,,,,,,,,,,,,,,,,,,,,,,,,,,,,,,,,,,,,,
1768973277.661245,1768973277.661333,4.0,0.0,4384.358887,4378.974121,4361.794922,4386.794922,4372.692383,4374.743652,4374.102539,4389.615234,4368.717773,4354.102539,4461.025879,4521.666504,4401.538574,4441.025879,,,,,,,,,,,,,,,,,,,,,,,,,,,,,,,,,,,,,,,,,,,,,,,,,,,,,,,,,,,,,,,,,,,,,,
1768973277.669054,1768973277.669141,5.0,0.0,4386.025879,4378.717773,4362.94873,4388.077148,4371.666504,4374.358887,4377.307617,4393.333496,4373.974121,4358.077148,4465.512695,4522.820313,4403.717773,4443.205078,,,,,,,,,,,,,,,,,,,,,,,,,,,,,,,,,,,,,,,,,,,,,,,,,,,,,,,,,,,,,,,,,,,,,,
1768973277.676862,1768973277.677049,6.0,0.0,4389.487305,4382.94873,4367.05127,4389.615234,4373.077148,4372.820313,4375.384766,4394.102539,4372.436035,4358.333496,4475.512695,4527.94873,4403.333496,4448.333496,,,,,,,,,,,,,,,,,,,,,,,,,,,,,,,,,,,,,,,,,,,,,,,,,,,,,,,,,,,,,,,,,,,,,,
1768973277.684671,1768973277.684858,7.0,0.0,4390.897461,4384.743652,4367.436035,4390.384766,4373.461426,4371.794922,4373.974121,4394.358887,4372.436035,4356.153809,4471.666504,4531.922852,4399.358887,4452.436035,,,,,,,,,,,,,,,,,,,,,,,,,,,,,,,,,,,,,,,,,,,,,,,,,,,,,,,,,,,,,,,,,,,,,,
1768973277.692479,1768973277.692866,8.0,0.0,4386.410156,4382.307617,4365.384766,4389.615234,4372.692383,4376.153809,4378.589844,4400.641113,4376.538574,4356.666504,4466.922852,4532.179688,4397.307617,4451.538574,,,,,,,,,,,,,,,,,,,,,,,,,,,,,,,,,,,,,,,,,,,,,,,,,,,,,,,,,,,,,,,,,,,,,,
1768973277.700288,1768973277.700675,9.0,0.0,4382.563965,4382.05127,4364.102539,4386.922852,4373.333496,4379.358887,4381.282227,4401.410156,4376.794922,4360.512695,4469.743652,4528.717773,4398.846191,4447.692383,,,,,,,,,,,,,,,,,,,,,,,,,,,,,,,,,,,,,,,,,,,,,,,,,,,,,,,,,,,,,,,,,,,,,,
1768973277.708096,1768973277.708583,10.0,0.0,4381.282227,4380.128418,4362.94873,4384.102539,4373.717773,4376.410156,4377.820313,4388.974121,4368.589844,4357.692383,4463.717773,4520.512695,4394.871582,4443.974121,,,,,,,,,,,,,,,,,,,,,,,,,,,,,,,,,,,,,,,,,,,,,,,,,,,,,,,,,,,,,,,,,,,,,,
1768973277.715905,1768973277.716391,11.0,0.0,4381.666504,4375.0,4360.256348,4382.436035,4371.153809,4369.358887,4370.769043,4382.179688,4362.179688,4349.743652,4455.0,4517.692383,4390.128418,4439.743652,,,,,,,,,,,,,,,,,,,,,,,,,,,,,,,,,,,,,,,,,,,,,,,,,,,,,,,,,,,,,,,,,,,,,,
1768973277.723713,1768973277.724,12.0,0.0,4382.436035,4375.0,4357.179688,4380.256348,4369.358887,4364.487305,4367.436035,4387.436035,4366.025879,4349.102539,4458.333496,4524.487305,4392.307617,4440.641113,,,,,,,,,,,,,,,,,,,,,,,,,,,,,,,,,,,,,,,,,,,,,,,,,,,,,,,,,,,,,,,,,,,,,,
1768973277.731521,1768973277.731808,13.0,0.0,4380.641113,4377.94873,4358.077148,4380.384766,4369.615234,4369.230957,4372.436035,4390.897461,4372.179688,4353.974121,4460.769043,4526.410156,4396.538574,4444.615234,,,,,,,,,,,,,,,,,,,,,,,,,,,,,,,,,,,,,,,,,,,,,,,,,,,,,,,,,,,,,,,,,,,,,,
1768973277.73933,1768973277.739517,14.0,0.0,4380.897461,4376.794922,4361.666504,4381.410156,4371.538574,4374.743652,4376.410156,4388.205078,4373.717773,4355.384766,4456.794922,4523.333496,4395.512695,4440.897461,1.103793,0.227064,0.183628,0.334412,0.155378,1.149516,0.497364,0.197424,0.258777,0.116119,1.221998,0.163898,0.149334,0.185147,0.059447,0.668296,0.131132,0.153543,0.113843,0.107724,0.205696,0.127149,0.091055,0.103073,0.048908,0.189904,0.424499,0.152581,0.185891,0.128109,0.366663,0.189737,0.254108,0.193076,0.163872,0.232114,0.117139,0.068133,0.093184,0.10102,0.386076,0.138028,0.205401,0.081777,0.114406,0.263104,0.212798,0.205655,0.194736,0.154148,0.351722,0.291296,0.251442,0.287669,0.09677,0.505187,0.377343,0.356748,0.350773,0.114667,0.751045,0.441957,0.114523,0.311574,0.121332,0.883019,0.40553,0.276063,0.418129,0.111879
1768973277.747138,1768973277.747325,15.0,0.0,4382.820313,4374.743652,4362.820313,4378.846191,4371.153809,4371.410156,4373.461426,4385.256348,4371.025879,4350.769043,4457.94873,4519.487305,4394.230957,4434.358887,,,,,,,,,,,,,,,,,,,,,,,,,,,,,,,,,,,,,,,,,,,,,,,,,,,,,,,,,,,,,,,,,,,,,,
1768973277.754947,1768973277.755334,16.0,0.0,4381.794922,4376.666504,4361.538574,4379.358887,4368.205078,4372.179688,4372.05127,4384.230957,4365.769043,4346.538574,4458.846191,4515.256348,4395.769043,4438.333496,,,,,,,,,,,,,,,,,,,,,,,,,,,,,,,,,,,,,,,,,,,,,,,,,,,,,,,,,,,,,,,,,,,,,,
1768973277.762755,1768973277.763142,17.0,0.0,4380.897461,4379.743652,4361.922852,4382.436035,4370.384766,4375.384766,4374.230957,4386.025879,4367.307617,4351.922852,4457.692383,4517.179688,4395.512695,4443.974121,,,,,,,,,,,,,,,,,,,,,,,,,,,,,,,,,,,,,,,,,,,,,,,,,,,,,,,,,,,,,,,,,,,,,,
1768973277.770564,1768973277.771051,18.0,0.0,4381.666504,4381.025879,4362.05127,4381.538574,4374.358887,4373.333496,4373.589844,4391.153809,4374.743652,4358.589844,4460.384766,4520.769043,4396.410156,4438.717773,,,,,,,,,,,,,,,,,,,,,,,,,,,,,,,,,,,,,,,,,,,,,,,,,,,,,,,,,,,,,,,,,,,,,,
1768973277.778372,1768973277.778859,19.0,0.0,4381.282227,4380.128418,4361.410156,4381.666504,4372.94873,4372.179688,4373.205078,4391.794922,4373.974121,4355.384766,4462.436035,4518.077148,4396.410156,4431.794922,,,,,,,,,,,,,,,,,,,,,,,,,,,,,,,,,,,,,,,,,,,,,,,,,,,,,,,,,,,,,,,,,,,,,,
1768973277.786181,1768973277.786468,20.0,0.0,4381.282227,4378.974121,4362.436035,4382.179688,4373.717773,4372.179688,4373.589844,4383.205078,4364.230957,4348.333496,4458.461426,4514.871582,4389.743652,4433.333496,,,,,,,,,,,,,,,,,,,,,,,,,,,,,,,,,,,,,,,,,,,,,,,,,,,,,,,,,,,,,,,,,,,,,,
1768973277.793989,1768973277.794276,21.0,0.0,4379.615234,4382.436035,4361.922852,4379.358887,4378.461426,4372.05127,4367.692383,4378.077148,4361.025879,4347.05127,4455.0,4513.589844,4386.794922,4437.94873,,,,,,,,,,,,,,,,,,,,,,,,,,,,,,,,,,,,,,,,,,,,,,,,,,,,,,,,,,,,,,,,,,,,,,
1768973277.801798,1768973277.801985,22.0,0.0,4373.077148,4385.512695,4356.153809,4377.307617,4375.897461,4373.205078,4365.512695,4387.436035,4370.641113,4350.384766,4458.846191,4513.846191,4393.461426,4435.641113,,,,,,,,,,,,,,,,,,,,,,,,,,,,,,,,,,,,,,,,,,,,,,,,,,,,,,,,,,,,,,,,,,,,,,
1768973277.809606,1768973277.809793,23.0,0.0,4371.538574,4383.589844,4354.871582,4379.487305,4370.128418,4374.102539,4375.256348,4392.820313,4373.974121,4353.333496,4461.410156,4515.128418,4398.333496,4429.487305,,,,,,,,,,,,,,,,,,,,,,,,,,,,,,,,,,,,,,,,,,,,,,,,,,,,,,,,,,,,,,,,,,,,,,
1768973277.817414,1768973277.817402,24.0,0.0,4376.794922,4382.436035,4363.333496,4381.794922,4376.025879,4373.589844,4380.384766,4384.871582,4367.307617,4352.05127,4458.974121,4516.922852,4396.410156,4428.717773,,,,,,,,,,,,,,,,,,,,,,,,,,,,,,,,,,,,,,,,,,,,,,,,,,,,,,,,,,,,,,,,,,,,,,
1768973277.825223,1768973277.82521,25.0,0.0,4376.025879,4383.461426,4364.358887,4379.743652,4381.794922,4377.307617,4376.410156,4385.512695,4368.077148,4351.794922,4459.102539,4517.436035,4394.487305,4430.128418,,,,,,,,,,,,,,,,,,,,,,,,,,,,,,,,,,,,,,,,,,,,,,,,,,,,,,,,,,,,,,,,,,,,,,
1768973277.833031,1768973277.832919,26.0,0.0,4369.358887,4382.692383,4355.897461,4375.384766,4374.615234,4380.0,4374.487305,4394.487305,4375.128418,4355.256348,4461.282227,4517.563965,4394.487305,4428.333496,,,,,,,,,,,,,,,,,,,,,,,,,,,,,,,,,,,,,,,,,,,,,,,,,,,,,,,,,,,,,,,,,,,,,,
1768973277.84084,1768973277.840727,27.0,0.0,4368.974121,4379.743652,4354.615234,4372.307617,4372.179688,4375.128418,4375.512695,4395.641113,4375.128418,4355.769043,4460.0,4517.307617,4396.153809,4428.461426,,,,,,,,,,,,,,,,,,,,,,,,,,,,,,,,,,,,,,,,,,,,,,,,,,,,,,,,,,,,,,,,,,,,,,
1768973277.848648,1768973277.848336,28.0,0.0,4373.846191,4381.538574,4359.743652,4372.436035,4379.615234,4372.05127,4376.410156,4391.794922,4372.05127,4350.256348,4458.974121,4520.384766,4395.512695,4431.794922,,,,,,,,,,,,,,,,,,,,,,,,,,,,,,,,,,,,,,,,,,,,,,,,,,,,,,,,,,,,,,,,,,,,,,
1768973277.856457,1768973277.856144,29.0,0.0,4373.974121,4383.717773,4361.025879,4376.153809,4379.102539,4373.974121,4378.717773,4390.512695,4369.230957,4345.0,4455.256348,4525.256348,4389.487305,4431.153809,,,,,,,,,,,,,,,,,,,,,,,,,,,,,,,,,,,,,,,,,,,,,,,,,,,,,,,,,,,,,,,,,,,,,,
1768973277.864265,1768973277.863853,30.0,0.0,4373.333496,4381.025879,4358.846191,4380.256348,4372.179688,4374.358887,4377.94873,4385.769043,4365.512695,4343.974121,4449.358887,4522.94873,4386.410156,4426.282227,1.078141,0.264953,0.179042,0.305718,0.139178,1.022399,0.503471,0.204542,0.244617,0.115634,1.141503,0.188739,0.146741,0.163628,0.054862,0.617319,0.143916,0.165986,0.110282,0.106163,0.219675,0.128081,0.077726,0.099871,0.049723,0.200854,0.396819,0.140606,0.180219,0.141343,0.302336,0.203183,0.261458,0.175972,0.166905,0.237064,0.144462,0.054703,0.103446,0.116731,0.366565,0.164518,0.211052,0.098155,0.118445,0.297817,0.207179,0.203088,0.19685,0.157215,0.380218,0.338964,0.257661,0.300173,0.098914,0.454716,0.369343,0.340112,0.349809,0.102632,0.612523,0.336471,0.133736,0.304691,0.124949,0.875735,0.410099,0.306542,0.4174,0.108825
1768973277.872074,1768973277.871661,31.0,0.0,4379.358887,4380.769043,4359.102539,4382.179688,4371.794922,4370.641113,4371.282227,4381.282227,4367.692383,4349.230957,4452.179688,4524.743652,4391.794922,4431.666504,,,,,,,,,,,,,,,,,,,,,,,,,,,,,,,,,,,,,,,,,,,,,,,,,,,,,,,,,,,,,,,,,,,,,,
1768973277.879882,1768973277.879669,32.0,0.0,4385.256348,4385.384766,4361.794922,4383.589844,4376.666504,4368.846191,4369.487305,4386.410156,4373.974121,4357.05127,4461.025879,4531.282227,4400.897461,4443.974121,,,,,,,,,,,,,,,,,,,,,,,,,,,,,,,,,,,,,,,,,,,,,,,,,,,,,,,,,,,,,,,,,,,,,,
1768973277.88769,1768973277.887478,33.0,0.0,4382.820313,4384.615234,4362.05127,4383.461426,4380.0,4375.384766,4377.820313,4391.153809,4370.384766,4356.538574,4460.384766,4528.077148,4399.487305,4437.692383,,,,,,,,,,,,,,,,,,,,,,,,,,,,,,,,,,,,,,,,,,,,,,,,,,,,,,,,,,,,,,,,,,,,,,
1768973277.895499,1768973277.895386,34.0,0.0,4379.358887,4380.769043,4359.871582,4379.487305,4379.358887,4383.077148,4384.102539,4391.538574,4365.128418,4351.666504,4456.282227,4521.794922,4392.820313,4427.05127,,,,,,,,,,,,,,,,,,,,,,,,,,,,,,,,,,,,,,,,,,,,,,,,,,,,,,,,,,,,,,,,,,,,,,
1768973277.903307,1768973277.903195,35.0,0.0,4383.333496,4384.615234,4360.384766,4378.205078,4373.589844,4376.794922,4378.205078,4394.615234,4373.974121,4354.487305,4460.0,4524.102539,4402.820313,4437.436035,,,,,,,,,,,,,,,,,,,,,,,,,,,,,,,,,,,,,,,,,,,,,,,,,,,,,,,,,,,,,,,,,,,,,,
1768973277.911116,1768973277.911203,36.0,0.0,4388.461426,4389.615234,4362.307617,4379.230957,4370.0,4362.179688,4369.743652,4393.205078,4377.94873,4360.641113,4463.717773,4529.102539,4415.769043,4450.384766,,,,,,,,,,,,,,,,,,,,,,,,,,,,,,,,,,,,,,,,,,,,,,,,,,,,,,,,,,,,,,,,,,,,,,
1768973277.918924,1768973277.919011,37.0,0.0,4385.0,4386.153809,4360.128418,4377.179688,4374.102539,4363.974121,4374.102539,4386.922852,4366.153809,4358.717773,4461.025879,4526.153809,4406.538574,4445.128418,,,,,,,,,,,,,,,,,,,,,,,,,,,,,,,,,,,,,,,,,,,,,,,,,,,,,,,,,,,,,,,,,,,,,,
1768973277.926733,1768973277.92672,38.0,0.0,4376.794922,4377.94873,4358.077148,4375.128418,4377.563965,4378.333496,4385.512695,4389.230957,4365.641113,4353.974121,4459.743652,4522.820313,4393.717773,4436.922852,,,,,,,,,,,,,,,,,,,,,,,,,,,,,,,,,,,,,,,,,,,,,,,,,,,,,,,,,,,,,,,,,,,,,,
1768973277.934541,1768973277.934528,39.0,0.0,4371.794922,4375.769043,4361.538574,4376.153809,4375.0,4378.717773,4387.05127,4394.230957,4377.05127,4352.179688,4458.846191,4524.358887,4397.307617,4435.897461,,,,,,,,,,,,,,,,,,,,,,,,,,,,,,,,,,,,,,,,,,,,,,,,,,,,,,,,,,,,,,,,,,,,,,
1768973277.94235,1768973277.942537,40.0,0.0,4372.436035,4382.94873,4365.128418,4375.128418,4370.897461,4367.179688,4377.692383,4390.512695,4373.333496,4351.922852,4451.666504,4521.153809,4396.922852,4432.563965,,,,,,,,,,,,,,,,,,,,,,,,,,,,,,,,,,,,,,,,,,,,,,,,,,,,,,,,,,,,,,,,,,,,,,
1768973277.950158,1768973277.950345,41.0,0.0,4376.410156,4389.102539,4361.410156,4372.436035,4372.05127,4363.974121,4370.128418,4386.282227,4360.512695,4351.153809,4445.769043,4513.077148,4389.487305,4429.487305,,,,,,,,,,,,,,,,,,,,,,,,,,,,,,,,,,,,,,,,,,,,,,,,,,,,,,,,,,,,,,,,,,,,,,
1768973277.957966,1768973277.958253,42.0,0.0,4376.153809,4383.974121,4353.846191,4374.358887,4376.025879,4370.769043,4373.077148,4386.282227,4361.794922,4347.820313,4448.077148,4511.794922,4389.615234,4429.871582,,,,,,,,,,,,,,,,,,,,,,,,,,,,,,,,,,,,,,,,,,,,,,,,,,,,,,,,,,,,,,,,,,,,,,
1768973277.965775,1768973277.966062,43.0,0.0,4367.820313,4374.487305,4350.512695,4374.102539,4373.589844,4372.436035,4379.358887,4387.05127,4366.666504,4344.230957,4444.230957,4512.436035,4385.0,4423.717773,,,,,,,,,,,,,,,,,,,,,,,,,,,,,,,,,,,,,,,,,,,,,,,,,,,,,,,,,,,,,,,,,,,,,,
1768973277.973583,1768973277.97407,44.0,0.0,4360.769043,4369.102539,4350.512695,4363.461426,4367.179688,4367.179688,4377.179688,4385.128418,4361.922852,4341.153809,4433.974121,4502.563965,4376.282227,4415.769043,,,,,,,,,,,,,,,,,,,,,,,,,,,,,,,,,,,,,,,,,,,,,,,,,,,,,,,,,,,,,,,,,,,,,,
1768973277.981392,1768973277.981879,45.0,0.0,4364.743652,4370.256348,4352.820313,4359.743652,4366.666504,4366.666504,4371.666504,4385.641113,4365.769043,4344.358887,4439.487305,4502.820313,4385.128418,4423.333496,,,,,,,,,,,,,,,,,,,,,,,,,,,,,,,,,,,,,,,,,,,,,,,,,,,,,,,,,,,,,,,,,,,,,,
1768973277.9892,1768973277.989587,46.0,0.0,4373.205078,4379.358887,4360.256348,4372.179688,4372.179688,4372.94873,4378.461426,4393.461426,4379.743652,4354.615234,4452.563965,4517.94873,4398.205078,4435.256348,1.061977,0.282795,0.161572,0.261847,0.12081,0.929635,0.499921,0.226417,0.224986,0.117104,1.017507,0.202812,0.132685,0.13702,0.053098,0.555371,0.158029,0.167116,0.106806,0.101628,0.218746,0.124076,0.067353,0.090322,0.049885,0.215809,0.342225,0.132635,0.179824,0.152055,0.257866,0.207683,0.249494,0.154451,0.167726,0.257951,0.178765,0.05329,0.122564,0.132623,0.35115,0.180315,0.210759,0.115711,0.124787,0.384133,0.203047,0.215314,0.20061,0.159987,0.458463,0.389515,0.262811,0.302321,0.099678,0.4112,0.364025,0.332086,0.326726,0.094231,0.525787,0.234206,0.156366,0.294065,0.129115,0.896402,0.423754,0.326165,0.391073,0.10978
1768973277.997009,1768973277.997396,47.0,0.0,4374.615234,4383.717773,4363.717773,4377.179688,4373.589844,4373.461426,4384.230957,4393.589844,4373.205078,4354.358887,4448.974121,4519.230957,4390.769043,4426.922852,,,,,,,,,,,,,,,,,,,,,,,,,,,,,,,,,,,,,,,,,,,,,,,,,,,,,,,,,,,,,,,,,,,,,,
1768973278.004817,1768973278.005404,48.0,0.0,4373.205078,4380.256348,4357.563965,4371.538574,4371.666504,4363.846191,4374.615234,4382.692383,4357.692383,4341.666504,4440.384766,4506.666504,4382.307617,4418.846191,,,,,,,,,,,,,,,,,,,,,,,,,,,,,,,,,,,,,,,,,,,,,,,,,,,,,,,,,,,,,,,,,,,,,,
1768973278.012626,1768973278.013212,49.0,0.0,4379.743652,4379.358887,4356.922852,4371.794922,4373.205078,4360.897461,4371.538574,4383.461426,4362.692383,4339.230957,4442.820313,4505.769043,4389.358887,4426.025879,,,,,,,,,,,,,,,,,,,,,,,,,,,,,,,,,,,,,,,,,,,,,,,,,,,,,,,,,,,,,,,,,,,,,,
1768973278.020434,1768973278.021121,50.0,0.0,4383.717773,4379.615234,4360.897461,4372.436035,4375.128418,4369.358887,4380.0,4392.05127,4366.538574,4349.487305,4445.128418,4515.128418,4393.461426,4431.410156,,,,,,,,,,,,,,,,,,,,,,,,,,,,,,,,,,,,,,,,,,,,,,,,,,,,,,,,,,,,,,,,,,,,,,
1768973278.028242,1768973278.028929,51.0,0.0,4377.436035,4373.974121,4360.512695,4367.94873,4372.692383,4372.94873,4381.282227,4387.307617,4358.846191,4350.769043,4442.436035,4515.641113,4387.307617,4428.846191,,,,,,,,,,,,,,,,,,,,,,,,,,,,,,,,,,,,,,,,,,,,,,,,,,,,,,,,,,,,,,,,,,,,,,
1768973278.036051,1768973278.036538,52.0,0.0,4374.230957,4366.153809,4356.666504,4365.769043,4369.487305,4369.102539,4376.410156,4381.794922,4362.179688,4344.230957,4441.794922,4509.487305,4382.94873,4420.769043,,,,,,,,,,,,,,,,,,,,,,,,,,,,,,,,,,,,,,,,,,,,,,,,,,,,,,,,,,,,,,,,,,,,,,
1768973278.043859,1768973278.044346,53.0,0.0,4372.94873,4363.461426,4351.282227,4365.0,4370.512695,4369.615234,4374.487305,4383.846191,4367.436035,4340.512695,4442.179688,4503.589844,4380.897461,4412.692383,,,,,,,,,,,,,,,,,,,,,,,,,,,,,,,,,,,,,,,,,,,,,,,,,,,,,,,,,,,,,,,,,,,,,,
1768973278.051668,1768973278.052055,54.0,0.0,4367.179688,4362.307617,4350.256348,4362.94873,4371.025879,4369.487305,4374.743652,4384.487305,4362.563965,4341.153809,4442.05127,4503.974121,4381.538574,4416.666504,,,,,,,,,,,,,,,,,,,,,,,,,,,,,,,,,,,,,,,,,,,,,,,,,,,,,,,,,,,,,,,,,,,,,,
1768973278.059476,1768973278.059863,55.0,0.0,4367.179688,4360.769043,4352.179688,4366.025879,4370.641113,4365.384766,4374.871582,4385.769043,4364.487305,4343.205078,4444.102539,4512.179688,4388.717773,4428.974121,,,,,,,,,,,,,,,,,,,,,,,,,,,,,,,,,,,,,,,,,,,,,,,,,,,,,,,,,,,,,,,,,,,,,,
1768973278.067285,1768973278.067871,56.0,0.0,4373.461426,4359.743652,4352.692383,4369.615234,4371.922852,4368.461426,4377.692383,4386.025879,4371.025879,4343.333496,4444.871582,4511.794922,4389.871582,4431.282227,,,,,,,,,,,,,,,,,,,,,,,,,,,,,,,,,,,,,,,,,,,,,,,,,,,,,,,,,,,,,,,,,,,,,,
1768973278.075093,1768973278.07568,57.0,0.0,4373.461426,4359.615234,4353.077148,4367.436035,4370.128418,4372.563965,4378.589844,4384.743652,4369.743652,4342.179688,4443.974121,4505.384766,4383.205078,4424.615234,,,,,,,,,,,,,,,,,,,,,,,,,,,,,,,,,,,,,,,,,,,,,,,,,,,,,,,,,,,,,,,,,,,,,,
1768973278.082902,1768973278.083588,58.0,0.0,4371.025879,4360.256348,4353.461426,4367.436035,4368.333496,4367.307617,4373.846191,4384.871582,4368.077148,4344.743652,4445.384766,4510.0,4388.077148,4425.641113,,,,,,,,,,,,,,,,,,,,,,,,,,,,,,,,,,,,,,,,,,,,,,,,,,,,,,,,,,,,,,,,,,,,,,
1768973278.09071,1768973278.091397,59.0,0.0,4374.230957,4363.205078,4352.05127,4372.563965,4369.487305,4361.922852,4369.230957,4381.666504,4369.743652,4349.743652,4446.922852,4517.307617,4400.384766,4431.410156,,,,,,,,,,,,,,,,,,,,,,,,,,,,,,,,,,,,,,,,,,,,,,,,,,,,,,,,,,,,,,,,,,,,,,
1768973278.098518,1768973278.099405,60.0,0.0,4375.384766,4368.333496,4352.307617,4373.333496,4370.0,4366.410156,4372.05127,4378.974121,4366.794922,4347.05127,4443.461426,4510.256348,4395.0,4426.025879,,,,,,,,,,,,,,,,,,,,,,,,,,,,,,,,,,,,,,,,,,,,,,,,,,,,,,,,,,,,,,,,,,,,,,
1768973278.106327,1768973278.107213,61.0,0.0,4372.179688,4364.230957,4355.641113,4369.615234,4366.538574,4370.0,4376.410156,4382.563965,4364.230957,4342.05127,4440.769043,4500.384766,4381.538574,4412.563965,,,,,,,,,,,,,,,,,,,,,,,,,,,,,,,,,,,,,,,,,,,,,,,,,,,,,,,,,,,,,,,,,,,,,,
1768973278.114135,1768973278.115122,62.0,0.0,4370.512695,4356.922852,4358.333496,4368.974121,4365.641113,4365.641113,4375.512695,4382.692383,4364.743652,4341.153809,4442.692383,4506.025879,4383.846191,4414.230957,1.041322,0.27412,0.136367,0.218472,0.105287,0.88138,0.488336,0.249748,0.206416,0.120605,0.882145,0.204142,0.110307,0.114906,0.055641,0.494544,0.171587,0.157033,0.106377,0.095148,0.200338,0.113699,0.05984,0.07692,0.049768,0.228464,0.277939,0.126872,0.186676,0.157545,0.225463,0.200714,0.222553,0.13334,0.166002,0.277474,0.21271,0.066999,0.145114,0.147474,0.325877,0.179869,0.20724,0.131022,0.133568,0.485429,0.203032,0.237303,0.203258,0.162645,0.553696,0.439636,0.270726,0.291188,0.098402,0.391584,0.358309,0.334992,0.290172,0.091445,0.514621,0.163958,0.184761,0.277334,0.132299,0.934686,0.446335,0.327521,0.343259,0.114065
1768973278.121944,1768973278.12293,63.0,0.0,4373.461426,4361.153809,4360.512695,4371.666504,4371.410156,4364.615234,4375.641113,4380.0,4364.358887,4342.307617,4444.615234,4517.05127,4391.794922,4426.153809,,,,,,,,,,,,,,,,,,,,,,,,,,,,,,,,,,,,,,,,,,,,,,,,,,,,,,,,,,,,,,,,,,,,,,
1768973278.129752,1768973278.130539,64.0,0.0,4372.692383,4365.256348,4357.820313,4371.410156,4373.717773,4370.128418,4379.358887,4387.692383,4369.487305,4346.282227,4445.512695,4514.230957,4389.743652,4425.897461,,,,,,,,,,,,,,,,,,,,,,,,,,,,,,,,,,,,,,,,,,,,,,,,,,,,,,,,,,,,,,,,,,,,,,
1768973278.137561,1768973278.138347,65.0,0.0,4364.871582,4356.153809,4349.871582,4367.307617,4369.871582,4373.717773,4380.641113,4391.410156,4370.384766,4346.666504,4440.384766,4495.384766,4382.179688,4414.102539,,,,,,,,,,,,,,,,,,,,,,,,,,,,,,,,,,,,,,,,,,,,,,,,,,,,,,,,,,,,,,,,,,,,,,
1768973278.145369,1768973278.146256,66.0,0.0,4362.436035,4350.384766,4346.282227,4364.871582,4366.666504,4374.230957,4376.410156,4380.641113,4359.871582,4340.897461,4434.102539,4483.717773,4378.205078,4406.538574,,,,,,,,,,,,,,,,,,,,,,,,,,,,,,,,,,,,,,,,,,,,,,,,,,,,,,,,,,,,,,,,,,,,,,
1768973278.153178,1768973278.154064,67.0,0.0,4368.846191,4357.94873,4348.589844,4367.820313,4367.563965,4379.102539,4378.205078,4379.230957,4359.871582,4342.94873,4439.230957,4493.846191,4385.0,4416.410156,,,,,,,,,,,,,,,,,,,,,,,,,,,,,,,,,,,,,,,,,,,,,,,,,,,,,,,,,,,,,,,,,,,,,,
1768973278.160986,1768973278.161673,68.0,0.0,4367.05127,4359.487305,4347.94873,4368.461426,4371.025879,4382.563965,4384.615234,4387.05127,4371.794922,4354.102539,4447.436035,4505.641113,4395.256348,4427.563965,,,,,,,,,,,,,,,,,,,,,,,,,,,,,,,,,,,,,,,,,,,,,,,,,,,,,,,,,,,,,,,,,,,,,,
1768973278.168795,1768973278.169481,69.0,0.0,4358.589844,4356.538574,4344.102539,4363.589844,4371.153809,4376.410156,4380.256348,4384.743652,4372.05127,4357.05127,4445.0,4501.025879,4391.538574,4420.384766,,,,,,,,,,,,,,,,,,,,,,,,,,,,,,,,,,,,,,,,,,,,,,,,,,,,,,,,,,,,,,,,,,,,,,
1768973278.176603,1768973278.17719,70.0,0.0,4360.641113,4356.666504,4347.05127,4363.077148,4366.153809,4374.615234,4377.820313,4379.871582,4364.487305,4349.615234,4441.410156,4494.487305,4380.769043,4410.128418,,,,,,,,,,,,,,,,,,,,,,,,,,,,,,,,,,,,,,,,,,,,,,,,,,,,,,,,,,,,,,,,,,,,,,
1768973278.184411,1768973278.184998,71.0,0.0,4367.307617,4351.922852,4349.487305,4363.974121,4362.179688,4379.487305,4385.0,4383.846191,4367.179688,4346.922852,4444.230957,4500.256348,4383.589844,4416.794922,,,,,,,,,,,,,,,,,,,,,,,,,,,,,,,,,,,,,,,,,,,,,,,,,,,,,,,,,,,,,,,,,,,,,,
1768973278.19222,1768973278.192607,72.0,0.0,4364.615234,4347.307617,4342.563965,4358.846191,4361.025879,4375.512695,4381.794922,4386.025879,4372.692383,4349.487305,4443.974121,4503.717773,4388.846191,4425.256348,,,,,,,,,,,,,,,,,,,,,,,,,,,,,,,,,,,,,,,,,,,,,,,,,,,,,,,,,,,,,,,,,,,,,,
1768973278.200028,1768973278.200415,73.0,0.0,4362.820313,4352.179688,4340.641113,4359.615234,4360.769043,4369.358887,4370.512695,4377.307617,4369.102539,4352.563965,4442.563965,4498.974121,4386.922852,4421.538574,,,,,,,,,,,,,,,,,,,,,,,,,,,,,,,,,,,,,,,,,,,,,,,,,,,,,,,,,,,,,,,,,,,,,,
1768973278.207837,1768973278.208124,74.0,0.0,4371.282227,4360.384766,4350.0,4369.487305,4365.0,4374.487305,4371.410156,4366.794922,4362.307617,4352.563965,4444.230957,4501.025879,4387.563965,4421.794922,,,,,,,,,,,,,,,,,,,,,,,,,,,,,,,,,,,,,,,,,,,,,,,,,,,,,,,,,,,,,,,,,,,,,,
1768973278.215645,1768973278.215932,75.0,0.0,4376.410156,4360.641113,4352.820313,4371.153809,4369.358887,4378.846191,4379.102539,4370.128418,4364.871582,4350.897461,4444.102539,4509.871582,4390.641113,4428.333496,,,,,,,,,,,,,,,,,,,,,,,,,,,,,,,,,,,,,,,,,,,,,,,,,,,,,,,,,,,,,,,,,,,,,,
1768973278.223454,1768973278.22394,76.0,0.0,4371.922852,4356.410156,4345.512695,4366.410156,4367.692383,4376.922852,4380.256348,4379.743652,4372.94873,4355.769043,4446.025879,4510.641113,4392.05127,4432.820313,,,,,,,,,,,,,,,,,,,,,,,,,,,,,,,,,,,,,,,,,,,,,,,,,,,,,,,,,,,,,,,,,,,,,,
1768973278.231262,1768973278.231749,77.0,0.0,4372.179688,4359.230957,4346.922852,4369.358887,4369.615234,4380.384766,4383.974121,4381.282227,4373.589844,4360.769043,4454.358887,4507.307617,4395.0,4432.436035,,,,,,,,,,,,,,,,,,,,,,,,,,,,,,,,,,,,,,,,,,,,,,,,,,,,,,,,,,,,,,,,,,,,,,
1768973278.239071,1768973278.239457,78.0,0.0,4380.0,4369.743652,4355.769043,4376.538574,4374.102539,4383.974121,4388.589844,4380.256348,4373.205078,4360.0,4458.846191,4509.871582,4397.307617,4430.641113,1.002584,0.252357,0.112103,0.188209,0.095665,0.85139,0.478752,0.260357,0.19369,0.124815,0.750218,0.196547,0.087917,0.104698,0.061659,0.444479,0.184156,0.141699,0.10991,0.087349,0.169112,0.097285,0.053615,0.062964,0.050539,0.234358,0.219617,0.12227,0.198901,0.157727,0.199985,0.185165,0.190473,0.117299,0.162629,0.285432,0.237534,0.097024,0.16506,0.159605,0.285236,0.164525,0.204856,0.141673,0.144965,0.558749,0.209474,0.259493,0.201067,0.165239,0.629638,0.487512,0.28495,0.267444,0.096365,0.41719,0.350257,0.342407,0.253853,0.094242,0.561906,0.146542,0.221054,0.252482,0.135468,0.979555,0.474264,0.312171,0.284567,0.122553
1768973278.246879,1768973278.247266,79.0,0.0,4382.179688,4372.307617,4355.256348,4377.692383,4373.589844,4381.666504,4386.410156,4383.589844,4378.205078,4361.025879,4457.692383,4511.025879,4397.179688,4429.743652,,,,,,,,,,,,,,,,,,,,,,,,,,,,,,,,,,,,,,,,,,,,,,,,,,,,,,,,,,,,,,,,,,,,,,
1768973278.254687,1768973278.255274,80.0,0.0,4374.743652,4362.05127,4346.922852,4374.743652,4371.666504,4379.358887,4380.384766,4382.94873,4377.692383,4362.94873,4457.05127,4508.205078,4399.102539,4428.717773,,,,,,,,,,,,,,,,,,,,,,,,,,,,,,,,,,,,,,,,,,,,,,,,,,,,,,,,,,,,,,,,,,,,,,
1768973278.262496,1768973278.263083,81.0,0.0,4371.794922,4357.179688,4345.0,4371.922852,4371.282227,4379.358887,4378.717773,4376.153809,4366.666504,4357.436035,4450.0,4502.563965,4396.153809,4429.487305,,,,,,,,,,,,,,,,,,,,,,,,,,,,,,,,,,,,,,,,,,,,,,,,,,,,,,,,,,,,,,,,,,,,,,
1768973278.270304,1768973278.270791,82.0,0.0,4379.358887,4362.563965,4354.102539,4372.820313,4371.922852,4377.179688,4380.128418,4371.666504,4358.974121,4351.410156,4440.641113,4498.717773,4390.641113,4426.410156,,,,,,,,,,,,,,,,,,,,,,,,,,,,,,,,,,,,,,,,,,,,,,,,,,,,,,,,,,,,,,,,,,,,,,
1768973278.278113,1768973278.2786,83.0,0.0,4383.589844,4369.871582,4358.333496,4376.282227,4374.615234,4373.461426,4378.461426,4375.897461,4366.922852,4353.717773,4445.384766,4504.230957,4393.717773,4425.256348,,,,,,,,,,,,,,,,,,,,,,,,,,,,,,,,,,,,,,,,,,,,,,,,,,,,,,,,,,,,,,,,,,,,,,
1768973278.285921,1768973278.286608,84.0,0.0,4377.05127,4370.641113,4351.153809,4374.102539,4376.794922,4375.384766,4374.743652,4376.025879,4372.436035,4355.769043,4450.512695,4506.666504,4399.871582,4428.205078,,,,,,,,,,,,,,,,,,,,,,,,,,,,,,,,,,,,,,,,,,,,,,,,,,,,,,,,,,,,,,,,,,,,,,
1768973278.29373,1768973278.294416,85.0,0.0,4373.717773,4367.05127,4347.307617,4371.153809,4375.641113,4377.436035,4370.769043,4366.666504,4362.05127,4353.846191,4443.846191,4500.769043,4399.230957,4428.077148,,,,,,,,,,,,,,,,,,,,,,,,,,,,,,,,,,,,,,,,,,,,,,,,,,,,,,,,,,,,,,,,,,,,,,
1768973278.301538,1768973278.302325,86.0,0.0,4381.410156,4372.05127,4354.358887,4377.94873,4376.025879,4376.153809,4372.820313,4368.974121,4361.922852,4353.589844,4443.205078,4504.743652,4397.563965,4426.794922,,,,,,,,,,,,,,,,,,,,,,,,,,,,,,,,,,,,,,,,,,,,,,,,,,,,,,,,,,,,,,,,,,,,,,
1768973278.309347,1768973278.310133,87.0,0.0,4385.769043,4381.410156,4359.358887,4383.077148,4380.256348,4375.897461,4376.922852,4379.102539,4372.94873,4356.538574,4451.794922,4513.974121,4401.666504,4429.615234,,,,,,,,,,,,,,,,,,,,,,,,,,,,,,,,,,,,,,,,,,,,,,,,,,,,,,,,,,,,,,,,,,,,,,
1768973278.317155,1768973278.318141,88.0,0.0,4378.974121,4377.05127,4354.871582,4377.94873,4378.974121,4375.512695,4376.794922,4374.743652,4366.025879,4356.153809,4451.410156,4513.974121,4401.153809,4430.384766,,,,,,,,,,,,,,,,,,,,,,,,,,,,,,,,,,,,,,,,,,,,,,,,,,,,,,,,,,,,,,,,,,,,,,
1768973278.324963,1768973278.32595,89.0,0.0,4373.077148,4364.487305,4350.0,4372.179688,4372.436035,4377.05127,4379.358887,4370.128418,4357.307617,4354.358887,4445.0,4514.871582,4395.641113,4426.922852,,,,,,,,,,,,,,,,,,,,,,,,,,,,,,,,,,,,,,,,,,,,,,,,,,,,,,,,,,,,,,,,,,,,,,
1768973278.332772,1768973278.333658,90.0,0.0,4374.487305,4362.692383,4349.230957,4371.410156,4371.794922,4381.025879,4383.077148,4380.384766,4368.589844,4354.871582,4448.205078,4519.615234,4395.512695,4427.436035,,,,,,,,,,,,,,,,,,,,,,,,,,,,,,,,,,,,,,,,,,,,,,,,,,,,,,,,,,,,,,,,,,,,,,
1768973278.34058,1768973278.341467,91.0,0.0,4379.487305,4366.666504,4351.666504,4372.05127,4374.102539,4378.846191,4379.102539,4384.487305,4377.307617,4353.077148,4457.179688,4521.282227,4401.025879,4430.384766,,,,,,,,,,,,,,,,,,,,,,,,,,,,,,,,,,,,,,,,,,,,,,,,,,,,,,,,,,,,,,,,,,,,,,
1768973278.348389,1768973278.349075,92.0,0.0,4385.128418,4368.589844,4357.436035,4373.205078,4373.974121,4371.922852,4373.077148,4376.666504,4372.307617,4354.743652,4460.897461,4526.153809,4403.974121,4430.897461,,,,,,,,,,,,,,,,,,,,,,,,,,,,,,,,,,,,,,,,,,,,,,,,,,,,,,,,,,,,,,,,,,,,,,
1768973278.356197,1768973278.356884,93.0,0.0,4383.205078,4368.333496,4358.846191,4372.436035,4373.461426,4373.461426,4377.179688,4375.0,4370.384766,4358.077148,4454.487305,4528.846191,4400.384766,4428.333496,,,,,,,,,,,,,,,,,,,,,,,,,,,,,,,,,,,,,,,,,,,,,,,,,,,,,,,,,,,,,,,,,,,,,,
1768973278.364006,1768973278.364592,94.0,0.0,4375.256348,4365.0,4353.461426,4374.615234,4371.025879,4377.179688,4378.077148,4378.461426,4373.846191,4352.563965,4444.743652,4522.179688,4396.025879,4426.282227,0.940537,0.2434,0.093876,0.173639,0.091739,0.79376,0.47334,0.251067,0.187844,0.127791,0.625269,0.189568,0.072871,0.107605,0.068249,0.403521,0.197356,0.128897,0.115156,0.078933,0.135104,0.077162,0.047161,0.051334,0.053442,0.227167,0.174862,0.11876,0.211504,0.155202,0.174682,0.165564,0.163077,0.109274,0.159583,0.277376,0.245088,0.138963,0.177719,0.167211,0.23445,0.14061,0.206989,0.146938,0.158929,0.571499,0.221929,0.272892,0.190937,0.167054,0.663789,0.528001,0.305088,0.234025,0.09512,0.4938,0.338232,0.341165,0.22824,0.102319,0.635628,0.184409,0.263657,0.21873,0.14211,1.011132,0.497633,0.285687,0.225566,0.138003
1768973278.371814,1768973278.372401,95.0,0.0,4375.256348,4362.692383,4352.179688,4378.077148,4371.538574,4376.666504,4373.589844,4375.897461,4370.128418,4346.025879,4442.179688,4520.512695,4394.358887,4426.153809,,,,,,,,,,,,,,,,,,,,,,,,,,,,,,,,,,,,,,,,,,,,,,,,,,,,,,,,,,,,,,,,,,,,,,
1768973278.379623,1768973278.380409,96.0,0.0,4381.153809,4367.692383,4356.666504,4376.410156,4375.512695,4376.538574,4371.025879,4367.307617,4358.589844,4349.615234,4444.358887,4524.487305,4398.205078,4425.641113,,,,,,,,,,,,,,,,,,,,,,,,,,,,,,,,,,,,,,,,,,,,,,,,,,,,,,,,,,,,,,,,,,,,,,
1768973278.387431,1768973278.388217,97.0,0.0,4383.717773,4375.897461,4358.589844,4375.0,4374.615234,4370.384766,4364.743652,4364.230957,4357.692383,4355.641113,4447.563965,4523.974121,4406.282227,4427.179688,,,,,,,,,,,,,,,,,,,,,,,,,,,,,,,,,,,,,,,,,,,,,,,,,,,,,,,,,,,,,,,,,,,,,,
1768973278.395239,1768973278.396126,98.0,0.0,4381.538574,4375.641113,4356.538574,4375.384766,4370.641113,4365.0,4361.410156,4371.410156,4369.230957,4357.436035,4451.410156,4523.205078,4408.717773,4431.666504,,,,,,,,,,,,,,,,,,,,,,,,,,,,,,,,,,,,,,,,,,,,,,,,,,,,,,,,,,,,,,,,,,,,,,
1768973278.403048,1768973278.403934,99.0,0.0,4376.410156,4372.436035,4353.974121,4373.589844,4375.128418,4370.512695,4369.102539,4375.897461,4368.461426,4356.794922,4448.077148,4518.717773,4400.256348,4425.512695,,,,,,,,,,,,,,,,,,,,,,,,,,,,,,,,,,,,,,,,,,,,,,,,,,,,,,,,,,,,,,,,,,,,,,
1768973278.410856,1768973278.411943,100.0,0.0,4373.589844,4371.025879,4355.0,4375.641113,4381.666504,4376.794922,4374.871582,4374.102539,4361.794922,4352.94873,4441.153809,4509.487305,4394.871582,4415.128418,,,,,,,,,,,,,,,,,,,,,,,,,,,,,,,,,,,,,,,,,,,,,,,,,,,,,,,,,,,,,,,,,,,,,,
1768973278.418665,1768973278.419751,101.0,0.0,4372.692383,4364.230957,4356.410156,4375.384766,4377.94873,4375.0,4371.794922,4375.897461,4366.153809,4351.410156,4447.94873,4511.538574,4398.846191,4420.512695,,,,,,,,,,,,,,,,,,,,,,,,,,,,,,,,,,,,,,,,,,,,,,,,,,,,,,,,,,,,,,,,,,,,,,
1768973278.426473,1768973278.427659,102.0,0.0,4369.487305,4355.128418,4351.538574,4367.692383,4371.282227,4371.410156,4370.384766,4377.94873,4368.205078,4353.846191,4456.794922,4517.05127,4400.0,4428.333496,,,,,,,,,,,,,,,,,,,,,,,,,,,,,,,,,,,,,,,,,,,,,,,,,,,,,,,,,,,,,,,,,,,,,,
1768973278.434282,1768973278.435468,103.0,0.0,4370.769043,4355.641113,4348.974121,4367.563965,4373.333496,4371.025879,4373.205078,4376.666504,4363.717773,4355.0,4452.820313,4515.769043,4399.358887,4427.563965,,,,,,,,,,,,,,,,,,,,,,,,,,,,,,,,,,,,,,,,,,,,,,,,,,,,,,,,,,,,,,,,,,,,,,
1768973278.44209,1768973278.443076,104.0,0.0,4373.846191,4361.153809,4348.974121,4372.692383,4376.025879,4368.205078,4372.179688,4376.666504,4364.230957,4354.871582,4446.666504,4514.487305,4400.512695,4425.256348,,,,,,,,,,,,,,,,,,,,,,,,,,,,,,,,,,,,,,,,,,,,,,,,,,,,,,,,,,,,,,,,,,,,,,
1768973278.449899,1768973278.450885,105.0,0.0,4369.230957,4362.05127,4348.589844,4369.743652,4373.077148,4367.563965,4370.512695,4376.282227,4365.0,4356.794922,4447.436035,4513.717773,4398.589844,4423.461426,,,,,,,,,,,,,,,,,,,,,,,,,,,,,,,,,,,,,,,,,,,,,,,,,,,,,,,,,,,,,,,,,,,,,,
1768973278.457707,1768973278.458593,106.0,0.0,4370.128418,4364.102539,4356.153809,4368.846191,4374.743652,4374.102539,4373.974121,4378.589844,4367.179688,4359.487305,4450.512695,4516.410156,4400.0,4423.461426,,,,,,,,,,,,,,,,,,,,,,,,,,,,,,,,,,,,,,,,,,,,,,,,,,,,,,,,,,,,,,,,,,,,,,
1768973278.465516,1768973278.466402,107.0,0.0,4382.820313,4368.077148,4362.05127,4376.282227,4382.179688,4377.692383,4377.436035,4379.487305,4371.153809,4357.307617,4448.974121,4523.846191,4405.641113,4429.230957,,,,,,,,,,,,,,,,,,,,,,,,,,,,,,,,,,,,,,,,,,,,,,,,,,,,,,,,,,,,,,,,,,,,,,
1768973278.473324,1768973278.47441,108.0,0.0,4384.358887,4367.436035,4357.94873,4377.94873,4381.410156,4374.743652,4374.358887,4371.666504,4365.641113,4355.769043,4448.205078,4523.717773,4405.0,4431.922852,,,,,,,,,,,,,,,,,,,,,,,,,,,,,,,,,,,,,,,,,,,,,,,,,,,,,,,,,,,,,,,,,,,,,,
1768973278.481132,1768973278.482219,109.0,0.0,4374.615234,4364.230957,4354.871582,4373.461426,4377.179688,4371.153809,4370.256348,4370.641113,4361.794922,4358.589844,4450.384766,4516.666504,4402.563965,4426.794922,,,,,,,,,,,,,,,,,,,,,,,,,,,,,,,,,,,,,,,,,,,,,,,,,,,,,,,,,,,,,,,,,,,,,,
1768973278.488941,1768973278.490127,110.0,0.0,4375.128418,4367.179688,4356.282227,4376.282227,4377.05127,4370.769043,4370.641113,4376.922852,4368.077148,4357.692383,4449.871582,4514.102539,4407.307617,4424.358887,0.856057,0.268578,0.084709,0.168435,0.092163,0.680076,0.46728,0.227879,0.185626,0.128838,0.49929,0.193842,0.068114,0.1195,0.073002,0.369789,0.213183,0.125129,0.118347,0.071092,0.111968,0.05858,0.041011,0.043871,0.058723,0.204863,0.144585,0.116305,0.217496,0.153255,0.141766,0.147573,0.145932,0.10913,0.158475,0.252533,0.234906,0.184628,0.181685,0.169601,0.181893,0.118406,0.214449,0.148154,0.17517,0.516349,0.236795,0.273566,0.173069,0.1673,0.651537,0.555526,0.327986,0.195869,0.095693,0.618133,0.328665,0.322775,0.217264,0.116604,0.692189,0.260988,0.307941,0.177813,0.156158,1.011004,0.50421,0.258332,0.174316,0.163754
1768973278.496749,1768973278.497935,111.0,0.0,4382.94873,4373.077148,4357.94873,4382.94873,4377.692383,4373.077148,4371.794922,4372.307617,4365.0,4352.05127,4444.743652,4515.512695,4410.256348,4425.897461,,,,,,,,,,,,,,,,,,,,,,,,,,,,,,,,,,,,,,,,,,,,,,,,,,,,,,,,,,,,,,,,,,,,,,
1768973278.504558,1768973278.505944,112.0,0.0,4386.025879,4371.282227,4359.487305,4381.794922,4376.538574,4378.333496,4375.128418,4369.230957,4360.0,4350.384766,4442.94873,4515.897461,4405.897461,4428.205078,,,,,,,,,,,,,,,,,,,,,,,,,,,,,,,,,,,,,,,,,,,,,,,,,,,,,,,,,,,,,,,,,,,,,,
1768973278.512366,1768973278.513752,113.0,0.0,4385.512695,4368.205078,4358.333496,4377.692383,4374.871582,4379.358887,4377.436035,4375.128418,4366.666504,4353.461426,4448.717773,4517.692383,4404.871582,4426.410156,,,,,,,,,,,,,,,,,,,,,,,,,,,,,,,,,,,,,,,,,,,,,,,,,,,,,,,,,,,,,,,,,,,,,,
1768973278.520175,1768973278.521461,114.0,0.0,4387.05127,4374.743652,4358.589844,4381.153809,4377.179688,4377.436035,4379.487305,4377.436035,4373.077148,4357.307617,4456.025879,4523.974121,4409.615234,4429.615234,,,,,,,,,,,,,,,,,,,,,,,,,,,,,,,,,,,,,,,,,,,,,,,,,,,,,,,,,,,,,,,,,,,,,,
1768973278.527983,1768973278.529269,115.0,0.0,4392.563965,4380.128418,4363.461426,4386.922852,4380.769043,4382.179688,4387.436035,4378.461426,4372.307617,4360.769043,4462.94873,4532.94873,4414.871582,4443.846191,,,,,,,,,,,,,,,,,,,,,,,,,,,,,,,,,,,,,,,,,,,,,,,,,,,,,,,,,,,,,,,,,,,,,,
1768973278.535792,1768973278.536878,116.0,0.0,4395.641113,4376.282227,4364.358887,4384.230957,4376.666504,4382.692383,4385.512695,4380.384766,4369.487305,4359.102539,4461.282227,4531.282227,4413.333496,4445.641113,,,,,,,,,,,,,,,,,,,,,,,,,,,,,,,,,,,,,,,,,,,,,,,,,,,,,,,,,,,,,,,,,,,,,,
1768973278.5436,1768973278.544686,117.0,0.0,4389.871582,4371.666504,4362.436035,4375.128418,4371.025879,4372.307617,4371.666504,4375.0,4365.256348,4353.461426,4450.769043,4521.025879,4403.589844,4430.0,,,,,,,,,,,,,,,,,,,,,,,,,,,,,,,,,,,,,,,,,,,,,,,,,,,,,,,,,,,,,,,,,,,,,,
1768973278.551408,1768973278.552395,118.0,0.0,4384.102539,4371.025879,4362.179688,4371.025879,4373.717773,4369.743652,4372.563965,4378.461426,4369.487305,4355.256348,4451.922852,4520.897461,4400.128418,4422.94873,,,,,,,,,,,,,,,,,,,,,,,,,,,,,,,,,,,,,,,,,,,,,,,,,,,,,,,,,,,,,,,,,,,,,,
1768973278.559217,1768973278.560203,119.0,0.0,4387.307617,4372.179688,4363.205078,4374.871582,4379.743652,4378.974121,4384.230957,4388.205078,4375.384766,4360.641113,4458.717773,4526.666504,4402.563965,4428.846191,,,,,,,,,,,,,,,,,,,,,,,,,,,,,,,,,,,,,,,,,,,,,,,,,,,,,,,,,,,,,,,,,,,,,,
1768973278.567025,1768973278.567812,120.0,0.0,4388.205078,4372.436035,4362.307617,4378.846191,4376.794922,4382.94873,4381.025879,4378.461426,4366.794922,4358.205078,4450.256348,4522.563965,4398.717773,4429.358887,,,,,,,,,,,,,,,,,,,,,,,,,,,,,,,,,,,,,,,,,,,,,,,,,,,,,,,,,,,,,,,,,,,,,,
1768973278.574834,1768973278.57562,121.0,0.0,4386.538574,4372.94873,4361.538574,4379.487305,4372.692383,4377.94873,4370.256348,4366.666504,4360.384766,4355.641113,4443.589844,4518.333496,4398.077148,4425.512695,,,,,,,,,,,,,,,,,,,,,,,,,,,,,,,,,,,,,,,,,,,,,,,,,,,,,,,,,,,,,,,,,,,,,,
1768973278.582642,1768973278.583329,122.0,0.0,4392.436035,4377.563965,4363.974121,4382.179688,4376.666504,4377.820313,4371.922852,4374.871582,4369.230957,4359.487305,4455.897461,4520.512695,4408.974121,4427.307617,,,,,,,,,,,,,,,,,,,,,,,,,,,,,,,,,,,,,,,,,,,,,,,,,,,,,,,,,,,,,,,,,,,,,,
1768973278.590451,1768973278.591137,123.0,0.0,4395.128418,4382.05127,4363.974121,4385.384766,4380.384766,4386.282227,4380.0,4380.897461,4374.615234,4359.487305,4462.179688,4522.436035,4413.333496,4432.436035,,,,,,,,,,,,,,,,,,,,,,,,,,,,,,,,,,,,,,,,,,,,,,,,,,,,,,,,,,,,,,,,,,,,,,
1768973278.598259,1768973278.598746,124.0,0.0,4388.589844,4377.94873,4361.794922,4382.820313,4375.769043,4384.358887,4381.153809,4377.307617,4369.487305,4357.820313,4456.025879,4525.256348,4410.769043,4433.077148,,,,,,,,,,,,,,,,,,,,,,,,,,,,,,,,,,,,,,,,,,,,,,,,,,,,,,,,,,,,,,,,,,,,,,
1768973278.606068,1768973278.606554,125.0,0.0,4386.410156,4371.666504,4362.436035,4380.0,4375.769043,4374.871582,4375.769043,4379.615234,4370.384766,4361.153809,4458.333496,4526.410156,4413.846191,4429.487305,,,,,,,,,,,,,,,,,,,,,,,,,,,,,,,,,,,,,,,,,,,,,,,,,,,,,,,,,,,,,,,,,,,,,,
1768973278.613876,1768973278.614463,126.0,0.0,4389.230957,4373.205078,4362.563965,4383.077148,4381.794922,4376.666504,4376.153809,4383.717773,4375.0,4360.897461,4458.589844,4522.436035,4409.487305,4426.666504,0.764006,0.334208,0.084138,0.163376,0.096443,0.526636,0.458678,0.206759,0.18357,0.129452,0.37275,0.214851,0.069553,0.133767,0.07632,0.343985,0.231773,0.132237,0.116471,0.065523,0.10982,0.048013,0.037157,0.040855,0.065321,0.17193,0.128214,0.114147,0.212036,0.153597,0.103601,0.141921,0.137734,0.115008,0.159207,0.215687,0.219948,0.223586,0.178544,0.168057,0.138817,0.109443,0.224439,0.148209,0.193625,0.41422,0.2489,0.264131,0.151533,0.165865,0.604675,0.567455,0.345301,0.159983,0.099041,0.770188,0.33152,0.284525,0.216976,0.138151,0.711335,0.350676,0.348009,0.136223,0.178774,0.97548,0.487018,0.239415,0.135583,0.199679
1768973278.621684,1768973278.622271,127.0,0.0,4386.922852,4375.128418,4360.641113,4383.974121,4377.436035,4379.615234,4377.692383,4379.230957,4368.461426,4356.153809,4449.358887,4519.358887,4403.077148,4425.641113,,,,,,,,,,,,,,,,,,,,,,,,,,,,,,,,,,,,,,,,,,,,,,,,,,,,,,,,,,,,,,,,,,,,,,
1768973278.629493,1768973278.630279,0.0,0.0,4387.820313,4372.436035,4360.128418,4378.077148,4369.743652,4371.922852,4376.410156,4375.512695,4362.436035,4353.077148,4448.077148,4520.256348,4407.05127,4427.820313,,,,,,,,,,,,,,,,,,,,,,,,,,,,,,,,,,,,,,,,,,,,,,,,,,,,,,,,,,,,,,,,,,,,,,
1768973278.637301,1768973278.638088,1.0,0.0,4392.179688,4370.384766,4361.410156,4378.333496,4372.05127,4370.897461,4378.461426,4379.230957,4365.256348,4353.077148,4457.692383,4524.102539,4409.871582,4432.563965,,,,,,,,,,,,,,,,,,,,,,,,,,,,,,,,,,,,,,,,,,,,,,,,,,,,,,,,,,,,,,,,,,,,,,
1768973278.64511,1768973278.645796,2.0,0.0,4392.307617,4375.641113,4364.743652,4387.692383,4376.538574,4378.333496,4377.692383,4379.102539,4366.025879,4353.589844,4457.436035,4524.871582,4404.230957,4433.461426,,,,,,,,,,,,,,,,,,,,,,,,,,,,,,,,,,,,,,,,,,,,,,,,,,,,,,,,,,,,,,,,,,,,,,
1768973278.652918,1768973278.653605,3.0,0.0,4388.205078,4381.666504,4368.974121,4389.102539,4376.282227,4377.436035,4374.871582,4372.820313,4363.461426,4349.871582,4449.743652,4519.358887,4398.846191,4430.256348,,,,,,,,,,,,,,,,,,,,,,,,,,,,,,,,,,,,,,,,,,,,,,,,,,,,,,,,,,,,,,,,,,,,,,
1768973278.660726,1768973278.661613,4.0,0.0,4383.461426,4380.128418,4366.025879,4381.794922,4375.641113,4376.666504,4379.358887,4374.615234,4364.743652,4347.94873,4451.666504,4515.769043,4397.436035,4424.615234,,,,,,,,,,,,,,,,,,,,,,,,,,,,,,,,,,,,,,,,,,,,,,,,,,,,,,,,,,,,,,,,,,,,,,
1768973278.668535,1768973278.669421,5.0,0.0,4384.230957,4378.589844,4357.436035,4378.846191,4376.153809,4378.461426,4378.846191,4382.05127,4366.666504,4349.487305,4452.05127,4518.461426,4397.436035,4423.461426,,,,,,,,,,,,,,,,,,,,,,,,,,,,,,,,,,,,,,,,,,,,,,,,,,,,,,,,,,,,,,,,,,,,,,
1768973278.676343,1768973278.67733,6.0,0.0,4388.333496,4378.333496,4353.333496,4381.282227,4375.641113,4373.974121,4371.025879,4380.512695,4365.641113,4345.384766,4443.077148,4519.102539,4395.769043,4426.538574,,,,,,,,,,,,,,,,,,,,,,,,,,,,,,,,,,,,,,,,,,,,,,,,,,,,,,,,,,,,,,,,,,,,,,
1768973278.684152,1768973278.685138,7.0,0.0,4387.436035,4373.205078,4355.0,4381.794922,4372.307617,4373.589844,4373.846191,4376.153809,4365.512695,4339.358887,4444.743652,4517.94873,4394.102539,4426.922852,,,,,,,,,,,,,,,,,,,,,,,,,,,,,,,,,,,,,,,,,,,,,,,,,,,,,,,,,,,,,,,,,,,,,,
1768973278.69196,1768973278.693147,8.0,0.0,4388.589844,4374.358887,4358.717773,4381.153809,4371.410156,4380.384766,4382.820313,4380.641113,4369.487305,4349.230957,4457.692383,4525.641113,4403.205078,4434.102539,,,,,,,,,,,,,,,,,,,,,,,,,,,,,,,,,,,,,,,,,,,,,,,,,,,,,,,,,,,,,,,,,,,,,,
1768973278.699769,1768973278.700955,9.0,0.0,4393.846191,4387.436035,4361.025879,4384.358887,4378.589844,4379.230957,4381.153809,4385.641113,4375.512695,4362.307617,4463.077148,4531.410156,4415.384766,4440.0,,,,,,,,,,,,,,,,,,,,,,,,,,,,,,,,,,,,,,,,,,,,,,,,,,,,,,,,,,,,,,,,,,,,,,
1768973278.707577,1768973278.708763,10.0,0.0,4390.769043,4389.743652,4359.743652,4386.282227,4380.897461,4371.794922,4376.538574,4384.615234,4377.94873,4359.358887,4460.384766,4525.384766,4412.94873,4433.333496,,,,,,,,,,,,,,,,,,,,,,,,,,,,,,,,,,,,,,,,,,,,,,,,,,,,,,,,,,,,,,,,,,,,,,
1768973278.715386,1768973278.716572,11.0,0.0,4385.769043,4380.0,4359.487305,4383.846191,4375.384766,4373.461426,4375.384766,4380.0,4373.333496,4353.077148,4457.563965,4520.769043,4405.641113,4433.205078,,,,,,,,,,,,,,,,,,,,,,,,,,,,,,,,,,,,,,,,,,,,,,,,,,,,,,,,,,,,,,,,,,,,,,
1768973278.723194,1768973278.724181,12.0,0.0,4389.871582,4383.333496,4360.512695,4382.692383,4377.436035,4377.94873,4375.384766,4372.820313,4368.077148,4354.871582,4456.538574,4522.179688,4405.0,4439.743652,,,,,,,,,,,,,,,,,,,,,,,,,,,,,,,,,,,,,,,,,,,,,,,,,,,,,,,,,,,,,,,,,,,,,,
1768973278.731002,1768973278.731989,13.0,0.0,4391.922852,4390.384766,4360.641113,4385.0,4382.563965,4381.153809,4377.820313,4370.512695,4368.333496,4357.05127,4457.820313,4522.179688,4406.153809,4434.615234,,,,,,,,,,,,,,,,,,,,,,,,,,,,,,,,,,,,,,,,,,,,,,,,,,,,,,,,,,,,,,,,,,,,,,
1768973278.738811,1768973278.739698,14.0,0.0,4386.666504,4386.153809,4359.230957,4384.230957,4377.692383,4385.384766,4381.153809,4377.307617,4369.230957,4355.0,4457.94873,4523.974121,4404.487305,4430.256348,0.695093,0.423207,0.090267,0.152998,0.105094,0.383834,0.447768,0.20495,0.180162,0.13164,0.267311,0.24754,0.06987,0.143986,0.080476,0.33449,0.251766,0.146946,0.1091,0.063673,0.12819,0.049292,0.038288,0.041523,0.071585,0.137436,0.126495,0.112522,0.196227,0.155347,0.068015,0.158144,0.133354,0.124855,0.15995,0.174151,0.218176,0.245093,0.17119,0.165095,0.113073,0.120696,0.229222,0.150407,0.213608,0.3002,0.251999,0.250641,0.131945,0.162255,0.541198,0.567334,0.34501,0.13541,0.105835,0.930775,0.350544,0.233062,0.220397,0.166048,0.67876,0.429188,0.37227,0.102688,0.206064,0.90905,0.445152,0.231785,0.112633,0.239896
1768973278.746619,1768973278.747506,15.0,0.0,4384.615234,4388.077148,4360.128418,4384.743652,4374.871582,4386.282227,4383.846191,4383.589844,4371.153809,4357.820313,4458.077148,4532.05127,4403.077148,4435.512695,,,,,,,,,,,,,,,,,,,,,,,,,,,,,,,,,,,,,,,,,,,,,,,,,,,,,,,,,,,,,,,,,,,,,,
1768973278.754428,1768973278.755115,16.0,0.0,4388.077148,4397.307617,4363.589844,4388.589844,4379.230957,4384.615234,4386.666504,4388.205078,4376.666504,4362.179688,4459.615234,4531.410156,4399.615234,4431.794922,,,,,,,,,,,,,,,,,,,,,,,,,,,,,,,,,,,,,,,,,,,,,,,,,,,,,,,,,,,,,,,,,,,,,,
1768973278.762236,1768973278.762923,17.0,0.0,4387.94873,4393.846191,4361.794922,4387.05127,4377.307617,4380.128418,4382.436035,4389.230957,4378.333496,4359.358887,4456.153809,4520.641113,4395.256348,4425.641113,,,,,,,,,,,,,,,,,,,,,,,,,,,,,,,,,,,,,,,,,,,,,,,,,,,,,,,,,,,,,,,,,,,,,,
1768973278.770045,1768973278.770632,18.0,0.0,4382.307617,4386.794922,4357.179688,4381.666504,4371.922852,4372.179688,4372.436035,4383.974121,4368.717773,4353.461426,4448.846191,4519.102539,4395.128418,4427.820313,,,,,,,,,,,,,,,,,,,,,,,,,,,,,,,,,,,,,,,,,,,,,,,,,,,,,,,,,,,,,,,,,,,,,,
1768973278.777853,1768973278.77844,19.0,0.0,4379.615234,4388.846191,4354.743652,4381.282227,4371.922852,4369.102539,4372.692383,4381.025879,4364.615234,4350.512695,4446.025879,4525.512695,4396.282227,4428.461426,,,,,,,,,,,,,,,,,,,,,,,,,,,,,,,,,,,,,,,,,,,,,,,,,,,,,,,,,,,,,,,,,,,,,,
1768973278.785662,1768973278.786049,20.0,0.0,4381.025879,4390.897461,4355.256348,4384.230957,4376.794922,4376.153809,4381.666504,4383.205078,4371.153809,4350.769043,4447.179688,4523.974121,4396.538574,4425.0,,,,,,,,,,,,,,,,,,,,,,,,,,,,,,,,,,,,,,,,,,,,,,,,,,,,,,,,,,,,,,,,,,,,,,
1768973278.79347,1768973278.793857,21.0,0.0,4382.563965,4388.846191,4356.794922,4384.358887,4377.436035,4380.897461,4381.666504,4382.820313,4370.512695,4354.230957,4452.179688,4519.871582,4397.563965,4422.179688,,,,,,,,,,,,,,,,,,,,,,,,,,,,,,,,,,,,,,,,,,,,,,,,,,,,,,,,,,,,,,,,,,,,,,
1768973278.801278,1768973278.801566,22.0,0.0,4382.563965,4385.0,4352.820313,4381.410156,4375.0,4380.512695,4379.615234,4383.205078,4370.641113,4358.589844,4458.077148,4527.692383,4398.333496,4422.820313,,,,,,,,,,,,,,,,,,,,,,,,,,,,,,,,,,,,,,,,,,,,,,,,,,,,,,,,,,,,,,,,,,,,,,
1768973278.809087,1768973278.809374,23.0,0.0,4380.128418,4381.025879,4349.743652,4380.128418,4374.743652,4380.128418,4385.769043,4386.922852,4377.820313,4357.820313,4461.153809,4533.846191,4397.820313,4428.589844,,,,,,,,,,,,,,,,,,,,,,,,,,,,,,,,,,,,,,,,,,,,,,,,,,,,,,,,,,,,,,,,,,,,,,
1768973278.816895,1768973278.817382,24.0,0.0,4379.615234,4383.077148,4353.333496,4382.179688,4375.128418,4378.589844,4385.256348,4385.128418,4376.025879,4354.871582,4458.589844,4526.025879,4397.94873,4430.769043,,,,,,,,,,,,,,,,,,,,,,,,,,,,,,,,,,,,,,,,,,,,,,,,,,,,,,,,,,,,,,,,,,,,,,
1768973278.824704,1768973278.825191,25.0,0.0,4381.410156,4386.922852,4354.743652,4382.94873,4377.179688,4378.589844,4376.666504,4379.358887,4365.384766,4353.974121,4448.974121,4516.666504,4398.717773,4420.512695,,,,,,,,,,,,,,,,,,,,,,,,,,,,,,,,,,,,,,,,,,,,,,,,,,,,,,,,,,,,,,,,,,,,,,
1768973278.832512,1768973278.833099,26.0,0.0,4379.743652,4384.358887,4350.128418,4379.487305,4378.974121,4373.461426,4371.282227,4375.128418,4363.333496,4354.102539,4442.307617,4512.692383,4396.922852,4414.743652,,,,,,,,,,,,,,,,,,,,,,,,,,,,,,,,,,,,,,,,,,,,,,,,,,,,,,,,,,,,,,,,,,,,,,
1768973278.840321,1768973278.840908,27.0,0.0,4377.436035,4381.025879,4347.307617,4377.563965,4374.871582,4363.717773,4369.102539,4374.743652,4366.282227,4355.384766,4448.205078,4512.05127,4395.897461,4423.974121,,,,,,,,,,,,,,,,,,,,,,,,,,,,,,,,,,,,,,,,,,,,,,,,,,,,,,,,,,,,,,,,,,,,,,
1768973278.848129,1768973278.848516,28.0,0.0,4378.974121,4381.025879,4347.94873,4378.974121,4370.256348,4364.743652,4369.487305,4376.538574,4362.820313,4349.743652,4450.897461,4510.128418,4397.820313,4425.256348,,,,,,,,,,,,,,,,,,,,,,,,,,,,,,,,,,,,,,,,,,,,,,,,,,,,,,,,,,,,,,,,,,,,,,
1768973278.855938,1768973278.856325,29.0,0.0,4381.794922,4381.538574,4350.128418,4382.820313,4373.589844,4374.615234,4372.179688,4373.974121,4359.743652,4341.538574,4442.179688,4503.589844,4397.436035,4413.461426,,,,,,,,,,,,,,,,,,,,,,,,,,,,,,,,,,,,,,,,,,,,,,,,,,,,,,,,,,,,,,,,,,,,,,
1768973278.863746,1768973278.864033,30.0,0.0,4382.563965,4381.025879,4352.05127,4382.563965,4375.384766,4377.05127,4374.102539,4373.077148,4360.769043,4346.922852,4440.641113,4498.974121,4394.743652,4411.282227,0.672359,0.500781,0.100618,0.139382,0.118666,0.294218,0.437254,0.230925,0.176181,0.136453,0.206162,0.2795,0.064854,0.146788,0.087466,0.345378,0.268274,0.16257,0.098572,0.066311,0.15786,0.060117,0.045391,0.044849,0.076228,0.108014,0.140364,0.110803,0.174963,0.156287,0.044317,0.201577,0.128967,0.136458,0.159268,0.133624,0.243699,0.244364,0.162181,0.163333,0.104303,0.152735,0.222216,0.156708,0.232734,0.205668,0.240976,0.237569,0.118619,0.155492,0.472303,0.559401,0.322346,0.130447,0.116303,1.07502,0.381706,0.185743,0.222447,0.195694,0.599588,0.472153,0.371314,0.085451,0.230209,0.828611,0.384008,0.233956,0.107253,0.274421
1768973278.871554,1768973278.871842,31.0,0.0,4384.102539,4380.641113,4350.769043,4378.333496,4371.410156,4377.563965,4377.307617,4377.307617,4364.743652,4356.666504,4444.102539,4504.871582,4393.717773,4422.05127,,,,,,,,,,,,,,,,,,,,,,,,,,,,,,,,,,,,,,,,,,,,,,,,,,,,,,,,,,,,,,,,,,,,,,
1768973278.879363,1768973278.87985,32.0,0.0,4383.461426,4382.692383,4349.230957,4379.871582,4370.512695,4383.461426,4380.641113,4377.692383,4367.05127,4352.94873,4443.974121,4513.205078,4396.153809,4426.538574,,,,,,,,,,,,,,,,,,,,,,,,,,,,,,,,,,,,,,,,,,,,,,,,,,,,,,,,,,,,,,,,,,,,,,
1768973278.887171,1768973278.887658,33.0,0.0,4377.436035,4386.025879,4346.922852,4380.384766,4369.615234,4380.256348,4374.487305,4371.025879,4361.794922,4346.794922,4441.410156,4508.974121,4396.794922,4420.512695,,,,,,,,,,,,,,,,,,,,,,,,,,,,,,,,,,,,,,,,,,,,,,,,,,,,,,,,,,,,,,,,,,,,,,
1768973278.89498,1768973278.895567,34.0,0.0,4374.743652,4385.0,4343.589844,4374.487305,4366.025879,4372.563965,4370.0,4371.410156,4361.794922,4350.897461,4436.666504,4499.358887,4389.871582,4413.846191,,,,,,,,,,,,,,,,,,,,,,,,,,,,,,,,,,,,,,,,,,,,,,,,,,,,,,,,,,,,,,,,,,,,,,
1768973278.902788,1768973278.903375,35.0,0.0,4375.641113,4380.769043,4344.358887,4374.871582,4367.307617,4372.820313,4375.0,4377.692383,4369.358887,4352.820313,4435.641113,4498.077148,4386.538574,4414.358887,,,,,,,,,,,,,,,,,,,,,,,,,,,,,,,,,,,,,,,,,,,,,,,,,,,,,,,,,,,,,,,,,,,,,,
1768973278.910597,1768973278.911284,36.0,0.0,4374.102539,4378.717773,4344.615234,4381.410156,4371.153809,4372.692383,4373.974121,4375.0,4364.871582,4347.820313,4438.846191,4502.94873,4392.692383,4417.820313,,,,,,,,,,,,,,,,,,,,,,,,,,,,,,,,,,,,,,,,,,,,,,,,,,,,,,,,,,,,,,,,,,,,,,
1768973278.918405,1768973278.919092,37.0,0.0,4371.025879,4376.025879,4345.384766,4380.641113,4370.641113,4373.589844,4374.487305,4374.615234,4359.102539,4346.922852,4440.384766,4504.743652,4389.102539,4415.256348,,,,,,,,,,,,,,,,,,,,,,,,,,,,,,,,,,,,,,,,,,,,,,,,,,,,,,,,,,,,,,,,,,,,,,
1768973278.926214,1768973278.926801,38.0,0.0,4371.538574,4378.333496,4349.487305,4378.846191,4371.153809,4381.153809,4384.102539,4382.820313,4370.256348,4354.743652,4441.538574,4503.077148,4383.205078,4410.769043,,,,,,,,,,,,,,,,,,,,,,,,,,,,,,,,,,,,,,,,,,,,,,,,,,,,,,,,,,,,,,,,,,,,,,
1768973278.934022,1768973278.934609,39.0,0.0,4375.256348,4387.05127,4350.0,4382.94873,4372.94873,4381.153809,4381.666504,4381.410156,4376.282227,4358.461426,4443.974121,4507.05127,4394.743652,4416.538574,,,,,,,,,,,,,,,,,,,,,,,,,,,,,,,,,,,,,,,,,,,,,,,,,,,,,,,,,,,,,,,,,,,,,,
1768973278.941831,1768973278.942617,40.0,0.0,4378.974121,4391.410156,4348.077148,4382.179688,4368.333496,4371.282227,4370.512695,4370.384766,4364.871582,4352.05127,4443.333496,4514.743652,4402.05127,4427.436035,,,,,,,,,,,,,,,,,,,,,,,,,,,,,,,,,,,,,,,,,,,,,,,,,,,,,,,,,,,,,,,,,,,,,,
1768973278.949639,1768973278.950426,41.0,0.0,4382.563965,4391.025879,4352.692383,4379.743652,4363.205078,4370.0,4372.94873,4369.102539,4361.922852,4349.871582,4443.461426,4514.358887,4394.871582,4430.769043,,,,,,,,,,,,,,,,,,,,,,,,,,,,,,,,,,,,,,,,,,,,,,,,,,,,,,,,,,,,,,,,,,,,,,
1768973278.957447,1768973278.958134,42.0,0.0,4379.615234,4391.538574,4354.871582,4381.153809,4364.487305,4375.641113,4379.743652,4376.410156,4369.487305,4352.307617,4446.025879,4511.025879,4395.512695,4427.692383,,,,,,,,,,,,,,,,,,,,,,,,,,,,,,,,,,,,,,,,,,,,,,,,,,,,,,,,,,,,,,,,,,,,,,
1768973278.965256,1768973278.965943,43.0,0.0,4370.641113,4389.743652,4347.307617,4379.871582,4368.589844,4378.205078,4378.717773,4379.743652,4372.05127,4355.769043,4447.436035,4515.128418,4401.153809,4424.230957,,,,,,,,,,,,,,,,,,,,,,,,,,,,,,,,,,,,,,,,,,,,,,,,,,,,,,,,,,,,,,,,,,,,,,
1768973278.973064,1768973278.973551,44.0,0.0,4369.230957,4388.077148,4349.487305,4377.307617,4371.666504,4376.538574,4377.563965,4378.461426,4373.974121,4361.794922,4448.205078,4518.461426,4398.461426,4422.820313,,,,,,,,,,,,,,,,,,,,,,,,,,,,,,,,,,,,,,,,,,,,,,,,,,,,,,,,,,,,,,,,,,,,,,
1768973278.980873,1768973278.98136,45.0,0.0,4376.153809,4389.487305,4357.820313,4379.487305,4372.436035,4370.512695,4375.512695,4375.897461,4374.615234,4361.666504,4443.846191,4513.461426,4395.512695,4423.461426,,,,,,,,,,,,,,,,,,,,,,,,,,,,,,,,,,,,,,,,,,,,,,,,,,,,,,,,,,,,,,,,,,,,,,
1768973278.988681,1768973278.989068,46.0,0.0,4376.922852,4387.307617,4354.358887,4380.512695,4371.025879,4372.692383,4371.282227,4376.410156,4371.666504,4356.538574,4444.230957,4509.743652,4397.307617,4423.461426,0.68884,0.5326,0.1111,0.127755,0.135095,0.279737,0.430842,0.277875,0.173743,0.143531,0.188348,0.297464,0.055333,0.142943,0.09682,0.367818,0.276448,0.17346,0.08855,0.072873,0.187524,0.074109,0.056804,0.049756,0.078773,0.08892,0.164431,0.113364,0.155132,0.153993,0.03682,0.26511,0.122524,0.148183,0.15648,0.101285,0.296534,0.226135,0.153197,0.164233,0.110447,0.197913,0.201839,0.166431,0.246859,0.15112,0.217366,0.226356,0.112961,0.144923,0.4049,0.547286,0.282879,0.14852,0.129348,1.16471,0.411749,0.155631,0.222305,0.219131,0.495458,0.479583,0.344616,0.087324,0.242302,0.748949,0.31499,0.23828,0.118307,0.292666
1768973278.99649,1768973278.996877,47.0,0.0,4371.538574,4380.769043,4347.179688,4375.769043,4369.871582,4380.769043,4376.794922,4378.846191,4374.615234,4357.563965,4452.820313,4512.820313,4401.538574,4424.487305,,,,,,,,,,,,,,,,,,,,,,,,,,,,,,,,,,,,,,,,,,,,,,,,,,,,,,,,,,,,,,,,,,,,,,
1768973279.004298,1768973279.004885,48.0,0.0,4370.641113,4377.563965,4347.820313,4373.205078,4370.384766,4377.436035,4383.589844,4374.871582,4378.205078,4361.538574,4452.307617,4514.358887,4403.205078,4426.666504,,,,,,,,,,,,,,,,,,,,,,,,,,,,,,,,,,,,,,,,,,,,,,,,,,,,,,,,,,,,,,,,,,,,,,
1768973279.012107,1768973279.012693,49.0,0.0,4372.05127,4378.974121,4349.102539,4373.205078,4371.410156,4372.179688,4377.820313,4372.307617,4369.358887,4356.666504,4443.461426,4511.666504,4399.871582,4422.307617,,,,,,,,,,,,,,,,,,,,,,,,,,,,,,,,,,,,,,,,,,,,,,,,,,,,,,,,,,,,,,,,,,,,,,
1768973279.019915,1768973279.020602,50.0,0.0,4373.205078,4382.307617,4347.179688,4373.461426,4372.563965,4374.615234,4371.410156,4371.666504,4356.153809,4347.563965,4441.538574,4509.102539,4396.410156,4412.05127,,,,,,,,,,,,,,,,,,,,,,,,,,,,,,,,,,,,,,,,,,,,,,,,,,,,,,,,,,,,,,,,,,,,,,
1768973279.027723,1768973279.02841,51.0,0.0,4374.871582,4385.384766,4347.436035,4376.666504,4372.820313,4373.589844,4372.436035,4371.794922,4362.307617,4347.436035,4442.563965,4508.974121,4395.641113,4411.025879,,,,,,,,,,,,,,,,,,,,,,,,,,,,,,,,,,,,,,,,,,,,,,,,,,,,,,,,,,,,,,,,,,,,,,
1768973279.035532,1768973279.036418,52.0,0.0,4369.615234,4384.743652,4348.205078,4376.538574,4372.05127,4370.641113,4378.333496,4380.128418,4378.717773,4355.897461,4441.794922,4512.436035,4396.666504,4422.307617,,,,,,,,,,,,,,,,,,,,,,,,,,,,,,,,,,,,,,,,,,,,,,,,,,,,,,,,,,,,,,,,,,,,,,
1768973279.04334,1768973279.044227,53.0,0.0,4364.358887,4380.769043,4346.282227,4371.666504,4372.307617,4374.743652,4380.769043,4383.333496,4377.179688,4358.461426,4444.230957,4512.820313,4397.94873,4426.153809,,,,,,,,,,,,,,,,,,,,,,,,,,,,,,,,,,,,,,,,,,,,,,,,,,,,,,,,,,,,,,,,,,,,,,
1768973279.051149,1768973279.051935,54.0,0.0,4368.461426,4380.769043,4348.205078,4374.871582,4372.05127,4378.717773,4383.077148,4376.538574,4364.615234,4352.563965,4444.871582,4509.102539,4396.922852,4416.538574,,,,,,,,,,,,,,,,,,,,,,,,,,,,,,,,,,,,,,,,,,,,,,,,,,,,,,,,,,,,,,,,,,,,,,
1768973279.058957,1768973279.059744,55.0,0.0,4373.589844,4382.94873,4353.205078,4382.05127,4368.589844,4376.410156,4383.717773,4375.384766,4362.692383,4350.384766,4442.820313,4511.025879,4395.256348,4411.922852,,,,,,,,,,,,,,,,,,,,,,,,,,,,,,,,,,,,,,,,,,,,,,,,,,,,,,,,,,,,,,,,,,,,,,
1768973279.066766,1768973279.067752,56.0,0.0,4372.307617,4380.769043,4352.692383,4381.666504,4367.563965,4371.794922,4378.974121,4377.94873,4366.410156,4356.025879,4444.487305,4513.974121,4396.410156,4416.538574,,,,,,,,,,,,,,,,,,,,,,,,,,,,,,,,,,,,,,,,,,,,,,,,,,,,,,,,,,,,,,,,,,,,,,
1768973279.074574,1768973279.075561,57.0,0.0,4371.282227,4381.282227,4347.820313,4378.461426,4370.641113,4371.922852,4378.717773,4374.615234,4365.641113,4357.94873,4445.0,4511.922852,4396.794922,4421.922852,,,,,,,,,,,,,,,,,,,,,,,,,,,,,,,,,,,,,,,,,,,,,,,,,,,,,,,,,,,,,,,,,,,,,,
1768973279.082383,1768973279.083469,58.0,0.0,4373.461426,4385.128418,4346.922852,4378.717773,4371.666504,4376.538574,4379.358887,4373.974121,4364.871582,4355.256348,4443.589844,4511.410156,4395.256348,4424.871582,,,,,,,,,,,,,,,,,,,,,,,,,,,,,,,,,,,,,,,,,,,,,,,,,,,,,,,,,,,,,,,,,,,,,,
1768973279.090191,1768973279.091277,59.0,0.0,4373.205078,4385.769043,4350.256348,4379.743652,4370.641113,4378.077148,4377.307617,4374.871582,4366.666504,4353.717773,4443.333496,4513.461426,4396.666504,4421.282227,,,,,,,,,,,,,,,,,,,,,,,,,,,,,,,,,,,,,,,,,,,,,,,,,,,,,,,,,,,,,,,,,,,,,,
1768973279.097999,1768973279.098886,60.0,0.0,4372.307617,4387.05127,4353.077148,4380.769043,4372.563965,4380.384766,4380.384766,4369.615234,4365.384766,4352.563965,4442.307617,4508.974121,4395.256348,4412.05127,,,,,,,,,,,,,,,,,,,,,,,,,,,,,,,,,,,,,,,,,,,,,,,,,,,,,,,,,,,,,,,,,,,,,,
1768973279.105808,1768973279.106695,61.0,0.0,4375.256348,4389.615234,4354.102539,4383.205078,4372.94873,4382.05127,4384.230957,4370.128418,4364.871582,4349.871582,4440.0,4503.717773,4390.256348,4409.230957,,,,,,,,,,,,,,,,,,,,,,,,,,,,,,,,,,,,,,,,,,,,,,,,,,,,,,,,,,,,,,,,,,,,,,
1768973279.113616,1768973279.114403,62.0,0.0,4380.512695,4388.205078,4357.436035,4383.461426,4370.512695,4376.538574,4376.025879,4374.102539,4366.025879,4347.436035,4441.538574,4508.974121,4391.153809,4417.436035,0.714139,0.503189,0.118105,0.12264,0.149761,0.336102,0.424086,0.326634,0.174173,0.150522,0.199127,0.293464,0.04602,0.13535,0.105394,0.386652,0.274429,0.175093,0.08213,0.081153,0.208843,0.085722,0.068699,0.055089,0.079731,0.085814,0.185854,0.130072,0.142954,0.146942,0.048221,0.329861,0.1159,0.159701,0.151366,0.079009,0.361021,0.200956,0.146363,0.167038,0.129042,0.245434,0.169721,0.177503,0.251668,0.146917,0.189473,0.212247,0.115017,0.131272,0.347571,0.536571,0.235214,0.186984,0.142545,1.198603,0.432479,0.147939,0.221916,0.228952,0.397274,0.475077,0.297853,0.104858,0.236559,0.677324,0.252894,0.234773,0.141908,0.289413
1768973279.121425,1768973279.122212,63.0,0.0,4386.410156,4383.205078,4359.615234,4380.897461,4370.641113,4374.871582,4369.615234,4369.615234,4361.922852,4349.358887,4444.743652,4515.256348,4396.922852,4428.589844,,,,,,,,,,,,,,,,,,,,,,,,,,,,,,,,,,,,,,,,,,,,,,,,,,,,,,,,,,,,,,,,,,,,,,
1768973279.129233,1768973279.12982,64.0,0.0,4385.641113,4380.641113,4355.897461,4380.641113,4372.692383,4379.230957,4377.307617,4365.128418,4359.487305,4353.461426,4443.846191,4514.743652,4400.384766,4432.563965,,,,,,,,,,,,,,,,,,,,,,,,,,,,,,,,,,,,,,,,,,,,,,,,,,,,,,,,,,,,,,,,,,,,,,
1768973279.137042,1768973279.137629,65.0,0.0,4378.205078,4380.128418,4353.205078,4382.179688,4372.820313,4376.666504,4381.666504,4369.743652,4365.384766,4352.307617,4440.641113,4509.615234,4396.153809,4421.025879,,,,,,,,,,,,,,,,,,,,,,,,,,,,,,,,,,,,,,,,,,,,,,,,,,,,,,,,,,,,,,,,,,,,,,
1768973279.14485,1768973279.145537,66.0,0.0,4374.615234,4379.615234,4354.871582,4380.256348,4370.769043,4371.282227,4376.410156,4372.563965,4366.922852,4346.153809,4439.358887,4502.436035,4388.846191,4406.282227,,,,,,,,,,,,,,,,,,,,,,,,,,,,,,,,,,,,,,,,,,,,,,,,,,,,,,,,,,,,,,,,,,,,,,
1768973279.152659,1768973279.153345,67.0,0.0,4379.871582,4384.615234,4355.128418,4378.333496,4370.641113,4370.897461,4371.922852,4371.666504,4364.102539,4346.282227,4441.794922,4505.0,4389.743652,4409.230957,,,,,,,,,,,,,,,,,,,,,,,,,,,,,,,,,,,,,,,,,,,,,,,,,,,,,,,,,,,,,,,,,,,,,,
1768973279.160467,1768973279.160954,68.0,0.0,4387.563965,4390.384766,4358.974121,4381.153809,4370.641113,4371.922852,4374.871582,4375.256348,4364.871582,4351.922852,4445.769043,4518.205078,4397.563965,4424.871582,,,,,,,,,,,,,,,,,,,,,,,,,,,,,,,,,,,,,,,,,,,,,,,,,,,,,,,,,,,,,,,,,,,,,,
1768973279.168275,1768973279.168762,69.0,0.0,4389.358887,4385.897461,4361.666504,4378.974121,4368.846191,4375.769043,4380.384766,4375.512695,4365.897461,4352.563965,4446.794922,4525.641113,4399.487305,4431.666504,,,,,,,,,,,,,,,,,,,,,,,,,,,,,,,,,,,,,,,,,,,,,,,,,,,,,,,,,,,,,,,,,,,,,,
1768973279.176084,1768973279.176471,70.0,0.0,4381.410156,4377.820313,4354.743652,4373.974121,4369.230957,4381.666504,4383.846191,4374.487305,4365.769043,4351.410156,4444.487305,4522.692383,4396.410156,4426.410156,,,,,,,,,,,,,,,,,,,,,,,,,,,,,,,,,,,,,,,,,,,,,,,,,,,,,,,,,,,,,,,,,,,,,,
1768973279.183892,1768973279.184279,71.0,0.0,4372.307617,4381.666504,4348.846191,4375.897461,4371.282227,4382.307617,4385.256348,4378.974121,4367.05127,4350.384766,4442.307617,4520.256348,4392.692383,4421.538574,,,,,,,,,,,,,,,,,,,,,,,,,,,,,,,,,,,,,,,,,,,,,,,,,,,,,,,,,,,,,,,,,,,,,,
1768973279.191701,1768973279.191888,72.0,0.0,4370.769043,4383.846191,4354.615234,4375.641113,4369.743652,4377.179688,4380.512695,4377.05127,4365.641113,4349.230957,4442.05127,4517.563965,4388.333496,4422.692383,,,,,,,,,,,,,,,,,,,,,,,,,,,,,,,,,,,,,,,,,,,,,,,,,,,,,,,,,,,,,,,,,,,,,,
1768973279.199509,1768973279.199697,73.0,0.0,4372.436035,4373.077148,4358.974121,4371.153809,4366.666504,4373.717773,4378.077148,4371.282227,4365.0,4350.512695,4443.205078,4516.538574,4390.897461,4422.307617,,,,,,,,,,,,,,,,,,,,,,,,,,,,,,,,,,,,,,,,,,,,,,,,,,,,,,,,,,,,,,,,,,,,,,
1768973279.207318,1768973279.207405,74.0,0.0,4375.769043,4372.307617,4354.743652,4375.128418,4369.487305,4376.153809,4383.333496,4373.205078,4366.025879,4350.256348,4444.102539,4515.256348,4393.461426,4419.358887,,,,,,,,,,,,,,,,,,,,,,,,,,,,,,,,,,,,,,,,,,,,,,,,,,,,,,,,,,,,,,,,,,,,,,
1768973279.215126,1768973279.215214,75.0,0.0,4380.769043,4382.692383,4352.563965,4379.871582,4372.94873,4375.897461,4379.487305,4375.0,4363.974121,4348.717773,4442.179688,4511.666504,4390.128418,4420.512695,,,,,,,,,,,,,,,,,,,,,,,,,,,,,,,,,,,,,,,,,,,,,,,,,,,,,,,,,,,,,,,,,,,,,,
1768973279.222935,1768973279.223222,76.0,0.0,4382.05127,4382.05127,4352.692383,4376.025879,4373.589844,4372.563965,4371.922852,4374.358887,4365.384766,4351.666504,4444.487305,4517.563965,4393.974121,4428.974121,,,,,,,,,,,,,,,,,,,,,,,,,,,,,,,,,,,,,,,,,,,,,,,,,,,,,,,,,,,,,,,,,,,,,,
1768973279.230743,1768973279.23103,77.0,0.0,4381.666504,4376.538574,4349.358887,4371.794922,4372.563965,4376.538574,4380.128418,4378.205078,4370.128418,4357.179688,4454.871582,4522.563965,4400.897461,4433.461426,,,,,,,,,,,,,,,,,,,,,,,,,,,,,,,,,,,,,,,,,,,,,,,,,,,,,,,,,,,,,,,,,,,,,,
1768973279.238552,1768973279.238939,78.0,0.0,4379.743652,4380.897461,4346.538574,4374.102539,4368.846191,4376.410156,4380.128418,4378.717773,4369.102539,4357.436035,4457.05127,4516.282227,4399.102539,4429.743652,0.713352,0.425531,0.12029,0.123995,0.157171,0.436968,0.410171,0.356484,0.177074,0.153643,0.22071,0.269323,0.040535,0.126761,0.109173,0.387461,0.262906,0.164858,0.079985,0.087883,0.215042,0.092361,0.077022,0.060153,0.079893,0.09998,0.191201,0.169596,0.142801,0.136342,0.076987,0.371236,0.113123,0.172376,0.145169,0.073775,0.411297,0.179517,0.144126,0.169189,0.161725,0.28119,0.132817,0.188021,0.245809,0.191744,0.168516,0.190994,0.124673,0.117408,0.315033,0.528114,0.187822,0.23603,0.152927,1.190823,0.436026,0.159232,0.222531,0.222344,0.329399,0.487112,0.242237,0.129417,0.213819,0.619929,0.213386,0.220192,0.172111,0.267943
1768973279.24636,1768973279.246747,79.0,0.0,4378.589844,4381.153809,4348.846191,4375.769043,4368.717773,4368.333496,4365.128418,4375.128418,4368.589844,4355.256348,4451.922852,4515.384766,4396.538574,4428.077148,,,,,,,,,,,,,,,,,,,,,,,,,,,,,,,,,,,,,,,,,,,,,,,,,,,,,,,,,,,,,,,,,,,,,,
1768973279.254168,1768973279.254755,80.0,0.0,4381.410156,4372.436035,4352.94873,4375.256348,4373.717773,4369.615234,4367.307617,4375.512695,4368.717773,4356.794922,4449.743652,4519.615234,4397.436035,4427.820313,,,,,,,,,,,,,,,,,,,,,,,,,,,,,,,,,,,,,,,,,,,,,,,,,,,,,,,,,,,,,,,,,,,,,,
1768973279.261977,1768973279.262564,81.0,0.0,4381.153809,4371.025879,4351.666504,4377.820313,4374.487305,4376.666504,4377.05127,4377.563965,4365.512695,4358.077148,4446.794922,4515.512695,4396.153809,4426.025879,,,,,,,,,,,,,,,,,,,,,,,,,,,,,,,,,,,,,,,,,,,,,,,,,,,,,,,,,,,,,,,,,,,,,,
1768973279.269785,1768973279.270272,82.0,0.0,4376.538574,4368.717773,4350.897461,4377.820313,4371.153809,4374.487305,4371.794922,4377.563965,4365.512695,4356.410156,4443.077148,4509.487305,4395.128418,4423.333496,,,,,,,,,,,,,,,,,,,,,,,,,,,,,,,,,,,,,,,,,,,,,,,,,,,,,,,,,,,,,,,,,,,,,,
1768973279.277594,1768973279.278081,83.0,0.0,4374.230957,4360.769043,4352.179688,4373.205078,4372.307617,4370.384766,4366.666504,4372.563965,4367.179688,4352.94873,4442.436035,4509.871582,4395.512695,4423.589844,,,,,,,,,,,,,,,,,,,,,,,,,,,,,,,,,,,,,,,,,,,,,,,,,,,,,,,,,,,,,,,,,,,,,,
1768973279.285402,1768973279.286089,84.0,0.0,4376.794922,4359.871582,4351.410156,4374.871582,4374.743652,4374.102539,4370.897461,4370.384766,4367.436035,4354.743652,4444.358887,4512.179688,4396.922852,4427.692383,,,,,,,,,,,,,,,,,,,,,,,,,,,,,,,,,,,,,,,,,,,,,,,,,,,,,,,,,,,,,,,,,,,,,,
1768973279.293211,1768973279.293897,85.0,0.0,4380.641113,4362.563965,4353.846191,4380.512695,4372.94873,4377.436035,4378.333496,4380.256348,4369.871582,4361.025879,4446.153809,4518.589844,4398.717773,4427.436035,,,,,,,,,,,,,,,,,,,,,,,,,,,,,,,,,,,,,,,,,,,,,,,,,,,,,,,,,,,,,,,,,,,,,,
1768973279.301019,1768973279.301606,86.0,0.0,4380.769043,4359.358887,4358.077148,4376.922852,4372.692383,4377.692383,4384.615234,4387.05127,4373.461426,4360.384766,4446.025879,4522.179688,4397.94873,4424.615234,,,,,,,,,,,,,,,,,,,,,,,,,,,,,,,,,,,,,,,,,,,,,,,,,,,,,,,,,,,,,,,,,,,,,,
1768973279.308828,1768973279.309414,87.0,0.0,4377.05127,4352.94873,4356.025879,4371.282227,4372.563965,4378.717773,4384.358887,4382.692383,4372.94873,4356.025879,4448.717773,4517.692383,4396.282227,4427.563965,,,,,,,,,,,,,,,,,,,,,,,,,,,,,,,,,,,,,,,,,,,,,,,,,,,,,,,,,,,,,,,,,,,,,,
1768973279.316636,1768973279.317023,88.0,0.0,4378.333496,4353.077148,4354.102539,4374.487305,4371.025879,4375.384766,4380.769043,4381.922852,4373.717773,4358.077148,4455.384766,4518.589844,4399.743652,4434.487305,,,,,,,,,,,,,,,,,,,,,,,,,,,,,,,,,,,,,,,,,,,,,,,,,,,,,,,,,,,,,,,,,,,,,,
1768973279.324444,1768973279.324832,89.0,0.0,4382.692383,4359.871582,4356.282227,4378.589844,4370.641113,4372.563965,4379.102539,4384.358887,4376.410156,4361.410156,4453.717773,4521.666504,4401.410156,4434.230957,,,,,,,,,,,,,,,,,,,,,,,,,,,,,,,,,,,,,,,,,,,,,,,,,,,,,,,,,,,,,,,,,,,,,,
1768973279.332253,1768973279.33254,90.0,0.0,4381.025879,4363.717773,4355.897461,4378.333496,4372.307617,4376.922852,4378.461426,4377.563965,4369.487305,4355.769043,4442.436035,4516.153809,4395.256348,4426.666504,,,,,,,,,,,,,,,,,,,,,,,,,,,,,,,,,,,,,,,,,,,,,,,,,,,,,,,,,,,,,,,,,,,,,,
1768973279.340061,1768973279.340349,91.0,0.0,4380.512695,4364.230957,4356.410156,4375.128418,4373.077148,4378.461426,4377.179688,4371.025879,4361.538574,4348.717773,4439.743652,4510.641113,4391.666504,4426.153809,,,,,,,,,,,,,,,,,,,,,,,,,,,,,,,,,,,,,,,,,,,,,,,,,,,,,,,,,,,,,,,,,,,,,,
1768973279.34787,1768973279.348357,92.0,0.0,4384.615234,4364.487305,4361.282227,4374.230957,4372.563965,4375.641113,4376.922852,4374.358887,4365.256348,4349.743652,4444.358887,4512.94873,4394.615234,4429.102539,,,,,,,,,,,,,,,,,,,,,,,,,,,,,,,,,,,,,,,,,,,,,,,,,,,,,,,,,,,,,,,,,,,,,,
1768973279.355678,1768973279.356165,93.0,0.0,4383.717773,4361.922852,4358.974121,4376.538574,4372.436035,4378.333496,4379.102539,4380.897461,4372.820313,4351.153809,4440.384766,4514.230957,4392.307617,4423.077148,,,,,,,,,,,,,,,,,,,,,,,,,,,,,,,,,,,,,,,,,,,,,,,,,,,,,,,,,,,,,,,,,,,,,,
1768973279.363487,1768973279.363874,94.0,0.0,4373.974121,4355.384766,4350.641113,4373.205078,4372.563965,4383.846191,4383.077148,4381.025879,4372.692383,4344.743652,4431.025879,4509.358887,4379.871582,4416.025879,0.671715,0.330758,0.117529,0.129092,0.153888,0.545034,0.385535,0.359226,0.180416,0.149672,0.237973,0.2349,0.040083,0.119011,0.105662,0.364439,0.244443,0.144561,0.080302,0.090458,0.204912,0.094,0.079938,0.064814,0.079428,0.125926,0.174522,0.231321,0.155457,0.125137,0.117436,0.371665,0.117903,0.188396,0.139576,0.08926,0.426273,0.169268,0.147602,0.167948,0.211524,0.295674,0.102016,0.197565,0.232538,0.273548,0.163633,0.162025,0.140366,0.106797,0.315787,0.519174,0.149687,0.281791,0.157921,1.168929,0.419278,0.181217,0.224459,0.202566,0.297577,0.527148,0.190022,0.151087,0.181306,0.584867,0.204844,0.19791,0.206799,0.238399
1768973279.371295,1768973279.371682,95.0,0.0,4372.692383,4354.358887,4349.871582,4368.077148,4372.307617,4382.307617,4382.94873,4376.282227,4368.205078,4340.384766,4432.692383,4511.025879,4377.94873,4422.307617,,,,,,,,,,,,,,,,,,,,,,,,,,,,,,,,,,,,,,,,,,,,,,,,,,,,,,,,,,,,,,,,,,,,,,
1768973279.379104,1768973279.379291,96.0,0.0,4387.436035,4361.153809,4360.256348,4373.717773,4370.641113,4380.512695,4382.307617,4381.025879,4372.436035,4351.922852,4452.563965,4521.794922,4394.358887,4438.333496,,,,,,,,,,,,,,,,,,,,,,,,,,,,,,,,,,,,,,,,,,,,,,,,,,,,,,,,,,,,,,,,,,,,,,
1768973279.386912,1768973279.387099,97.0,0.0,4394.871582,4371.538574,4366.410156,4381.025879,4370.0,4378.077148,4383.589844,4386.410156,4379.230957,4363.461426,4461.410156,4523.461426,4403.205078,4442.307617,,,,,,,,,,,,,,,,,,,,,,,,,,,,,,,,,,,,,,,,,,,,,,,,,,,,,,,,,,,,,,,,,,,,,,
1768973279.39472,1768973279.394808,98.0,0.0,4389.358887,4379.871582,4362.436035,4380.512695,4373.077148,4373.589844,4378.846191,4377.307617,4370.512695,4352.436035,4447.563965,4513.205078,4394.743652,4435.256348,,,,,,,,,,,,,,,,,,,,,,,,,,,,,,,,,,,,,,,,,,,,,,,,,,,,,,,,,,,,,,,,,,,,,,
1768973279.402529,1768973279.402616,99.0,0.0,4388.333496,4380.897461,4364.230957,4380.384766,4374.487305,4376.153809,4377.94873,4370.512695,4357.820313,4342.692383,4441.025879,4513.717773,4391.922852,4433.717773,,,,,,,,,,,,,,,,,,,,,,,,,,,,,,,,,,,,,,,,,,,,,,,,,,,,,,,,,,,,,,,,,,,,,,
1768973279.410337,1768973279.410625,100.0,0.0,4392.307617,4379.743652,4366.922852,4383.077148,4372.692383,4379.487305,4382.692383,4377.05127,4363.077148,4353.589844,4446.666504,4522.94873,4397.05127,4433.717773,,,,,,,,,,,,,,,,,,,,,,,,,,,,,,,,,,,,,,,,,,,,,,,,,,,,,,,,,,,,,,,,,,,,,,
1768973279.418146,1768973279.418433,101.0,0.0,4388.974121,4378.846191,4362.563965,4384.230957,4373.717773,4375.0,4377.94873,4377.820313,4368.717773,4357.820313,4445.512695,4520.641113,4395.256348,4428.974121,,,,,,,,,,,,,,,,,,,,,,,,,,,,,,,,,,,,,,,,,,,,,,,,,,,,,,,,,,,,,,,,,,,,,,
1768973279.425954,1768973279.426341,102.0,0.0,4383.333496,4379.230957,4358.205078,4384.102539,4377.563965,4368.333496,4368.846191,4367.436035,4358.077148,4342.94873,4440.128418,4512.94873,4388.589844,4427.179688,,,,,,,,,,,,,,,,,,,,,,,,,,,,,,,,,,,,,,,,,,,,,,,,,,,,,,,,,,,,,,,,,,,,,,
1768973279.433763,1768973279.43415,103.0,0.0,4382.436035,4381.922852,4356.666504,4381.025879,4376.794922,4370.641113,4374.102539,4369.230957,4357.179688,4337.05127,4443.077148,4514.358887,4385.256348,4427.307617,,,,,,,,,,,,,,,,,,,,,,,,,,,,,,,,,,,,,,,,,,,,,,,,,,,,,,,,,,,,,,,,,,,,,,
1768973279.441571,1768973279.442158,104.0,0.0,4382.94873,4380.769043,4356.282227,4376.025879,4372.692383,4375.897461,4382.563965,4377.820313,4366.410156,4346.282227,4444.358887,4516.794922,4381.794922,4418.205078,,,,,,,,,,,,,,,,,,,,,,,,,,,,,,,,,,,,,,,,,,,,,,,,,,,,,,,,,,,,,,,,,,,,,,
1768973279.44938,1768973279.449966,105.0,0.0,4383.717773,4377.307617,4356.025879,4376.153809,4371.410156,4372.179688,4375.0,4376.538574,4366.025879,4349.102539,4439.487305,4513.589844,4379.615234,4412.94873,,,,,,,,,,,,,,,,,,,,,,,,,,,,,,,,,,,,,,,,,,,,,,,,,,,,,,,,,,,,,,,,,,,,,,
1768973279.457188,1768973279.457875,106.0,0.0,4386.538574,4381.025879,4357.94873,4380.512695,4372.692383,4370.512695,4368.589844,4377.820313,4365.0,4350.128418,4447.820313,4520.512695,4388.205078,4423.333496,,,,,,,,,,,,,,,,,,,,,,,,,,,,,,,,,,,,,,,,,,,,,,,,,,,,,,,,,,,,,,,,,,,,,,
1768973279.464996,1768973279.465683,107.0,0.0,4387.820313,4382.94873,4361.153809,4381.538574,4373.461426,4375.769043,4377.692383,4383.846191,4368.589844,4356.410156,4459.487305,4532.94873,4400.641113,4434.743652,,,,,,,,,,,,,,,,,,,,,,,,,,,,,,,,,,,,,,,,,,,,,,,,,,,,,,,,,,,,,,,,,,,,,,
1768973279.472805,1768973279.473692,108.0,0.0,4384.230957,4373.717773,4361.922852,4376.794922,4372.307617,4375.897461,4382.179688,4380.769043,4365.256348,4353.333496,4452.820313,4531.794922,4397.436035,4432.692383,,,,,,,,,,,,,,,,,,,,,,,,,,,,,,,,,,,,,,,,,,,,,,,,,,,,,,,,,,,,,,,,,,,,,,
1768973279.480613,1768973279.4815,109.0,0.0,4380.384766,4367.820313,4354.358887,4370.897461,4371.025879,4367.820313,4373.461426,4376.666504,4360.128418,4342.692383,4441.666504,4517.436035,4382.692383,4420.128418,,,,,,,,,,,,,,,,,,,,,,,,,,,,,,,,,,,,,,,,,,,,,,,,,,,,,,,,,,,,,,,,,,,,,,
1768973279.488422,1768973279.489209,110.0,0.0,4378.846191,4371.922852,4348.461426,4371.666504,4372.307617,4367.179688,4369.358887,4377.05127,4360.0,4339.358887,4441.794922,4505.512695,4378.333496,4416.410156,0.596166,0.246806,0.112463,0.1374,0.140636,0.627849,0.35026,0.343345,0.181726,0.138303,0.245405,0.199396,0.043643,0.113617,0.095715,0.321668,0.218833,0.118925,0.080496,0.088391,0.181432,0.091629,0.077217,0.068965,0.077644,0.152972,0.142992,0.303141,0.177375,0.116137,0.160776,0.331006,0.129524,0.208467,0.136141,0.1255,0.397175,0.168382,0.155551,0.161678,0.272408,0.285185,0.082853,0.20579,0.217391,0.369446,0.175821,0.130377,0.158276,0.101843,0.350673,0.499633,0.125512,0.310808,0.156057,1.15381,0.384317,0.205682,0.227901,0.177199,0.294828,0.577913,0.147612,0.163887,0.148771,0.568406,0.220423,0.172944,0.251231,0.212565
1768973279.49623,1768973279.497017,111.0,0.0,4381.025879,4373.589844,4356.410156,4376.410156,4373.846191,4374.358887,4372.820313,4373.974121,4359.102539,4342.436035,4443.205078,4507.563965,4386.153809,4425.256348,,,,,,,,,,,,,,,,,,,,,,,,,,,,,,,,,,,,,,,,,,,,,,,,,,,,,,,,,,,,,,,,,,,,,,
1768973279.504039,1768973279.505025,112.0,0.0,4385.641113,4368.461426,4362.436035,4374.743652,4372.307617,4374.358887,4374.230957,4373.846191,4359.743652,4342.307617,4443.461426,4512.307617,4388.846191,4429.743652,,,,,,,,,,,,,,,,,,,,,,,,,,,,,,,,,,,,,,,,,,,,,,,,,,,,,,,,,,,,,,,,,,,,,,
1768973279.511847,1768973279.512834,113.0,0.0,4381.538574,4364.102539,4357.692383,4372.05127,4368.974121,4370.256348,4373.461426,4376.282227,4364.358887,4341.025879,4441.410156,4506.410156,4383.077148,4421.794922,,,,,,,,,,,,,,,,,,,,,,,,,,,,,,,,,,,,,,,,,,,,,,,,,,,,,,,,,,,,,,,,,,,,,,
1768973279.519656,1768973279.520542,114.0,0.0,4374.615234,4365.0,4352.05127,4373.717773,4369.743652,4374.358887,4372.820313,4373.077148,4364.230957,4342.820313,4431.666504,4504.230957,4378.717773,4413.077148,,,,,,,,,,,,,,,,,,,,,,,,,,,,,,,,,,,,,,,,,,,,,,,,,,,,,,,,,,,,,,,,,,,,,,
1768973279.527464,1768973279.528351,115.0,0.0,4377.94873,4368.205078,4353.077148,4374.871582,4371.794922,4378.077148,4374.487305,4376.794922,4365.897461,4344.102539,4434.102539,4513.461426,4380.897461,4412.307617,,,,,,,,,,,,,,,,,,,,,,,,,,,,,,,,,,,,,,,,,,,,,,,,,,,,,,,,,,,,,,,,,,,,,,
1768973279.535272,1768973279.536359,116.0,0.0,4378.205078,4367.692383,4354.358887,4372.179688,4367.692383,4376.025879,4378.205078,4388.333496,4370.128418,4343.461426,4442.307617,4516.922852,4382.436035,4412.563965,,,,,,,,,,,,,,,,,,,,,,,,,,,,,,,,,,,,,,,,,,,,,,,,,,,,,,,,,,,,,,,,,,,,,,
1768973279.543081,1768973279.544167,117.0,0.0,4370.641113,4365.256348,4352.179688,4370.0,4366.153809,4376.025879,4377.692383,4384.102539,4364.871582,4345.897461,4436.922852,4514.871582,4382.436035,4412.436035,,,,,,,,,,,,,,,,,,,,,,,,,,,,,,,,,,,,,,,,,,,,,,,,,,,,,,,,,,,,,,,,,,,,,,
1768973279.550889,1768973279.552076,118.0,0.0,4374.102539,4365.769043,4354.615234,4372.563965,4369.230957,4376.410156,4372.692383,4370.641113,4358.846191,4347.563965,4435.0,4519.230957,4383.077148,4416.666504,,,,,,,,,,,,,,,,,,,,,,,,,,,,,,,,,,,,,,,,,,,,,,,,,,,,,,,,,,,,,,,,,,,,,,
1768973279.558698,1768973279.559884,119.0,0.0,4381.282227,4366.410156,4357.307617,4375.128418,4370.128418,4374.230957,4372.179688,4370.769043,4362.692383,4342.563965,4443.077148,4520.512695,4383.589844,4419.358887,,,,,,,,,,,,,,,,,,,,,,,,,,,,,,,,,,,,,,,,,,,,,,,,,,,,,,,,,,,,,,,,,,,,,,
1768973279.566506,1768973279.567493,120.0,0.0,4374.102539,4362.436035,4352.05127,4372.563965,4367.820313,4375.641113,4375.897461,4378.077148,4366.410156,4342.05127,4444.487305,4516.282227,4383.333496,4414.358887,,,,,,,,,,,,,,,,,,,,,,,,,,,,,,,,,,,,,,,,,,,,,,,,,,,,,,,,,,,,,,,,,,,,,,
1768973279.574315,1768973279.575301,121.0,0.0,4368.846191,4357.692383,4348.461426,4370.128418,4364.871582,4377.692383,4374.487305,4381.282227,4370.0,4350.641113,4442.179688,4518.333496,4382.436035,4412.94873,,,,,,,,,,,,,,,,,,,,,,,,,,,,,,,,,,,,,,,,,,,,,,,,,,,,,,,,,,,,,,,,,,,,,,
1768973279.582123,1768973279.58301,122.0,0.0,4377.563965,4356.538574,4352.05127,4372.563965,4364.871582,4373.205078,4372.179688,4379.871582,4372.692383,4353.974121,4444.358887,4522.179688,4382.179688,4417.179688,,,,,,,,,,,,,,,,,,,,,,,,,,,,,,,,,,,,,,,,,,,,,,,,,,,,,,,,,,,,,,,,,,,,,,
1768973279.589932,1768973279.590818,123.0,0.0,4381.922852,4355.769043,4352.179688,4375.384766,4365.256348,4370.897461,4373.846191,4376.410156,4370.769043,4347.563965,4442.563965,4516.282227,4381.922852,4414.871582,,,,,,,,,,,,,,,,,,,,,,,,,,,,,,,,,,,,,,,,,,,,,,,,,,,,,,,,,,,,,,,,,,,,,,
1768973279.59774,1768973279.598427,124.0,0.0,4378.846191,4356.794922,4346.666504,4373.333496,4361.666504,4373.333496,4373.461426,4376.282227,4370.256348,4344.230957,4438.333496,4510.641113,4379.871582,4412.05127,,,,,,,,,,,,,,,,,,,,,,,,,,,,,,,,,,,,,,,,,,,,,,,,,,,,,,,,,,,,,,,,,,,,,,
1768973279.605549,1768973279.606235,125.0,0.0,4378.589844,4362.307617,4348.846191,4372.307617,4359.358887,4373.333496,4370.769043,4378.333496,4371.538574,4346.794922,4438.461426,4512.820313,4381.282227,4413.205078,,,,,,,,,,,,,,,,,,,,,,,,,,,,,,,,,,,,,,,,,,,,,,,,,,,,,,,,,,,,,,,,,,,,,,
1768973279.613357,1768973279.614144,126.0,0.0,4381.410156,4366.025879,4356.282227,4377.436035,4362.94873,4372.179688,4372.179688,4375.384766,4366.410156,4349.871582,4441.538574,4520.512695,4388.333496,4417.179688,0.506261,0.188631,0.109563,0.151064,0.121987,0.680645,0.308652,0.325691,0.180918,0.122718,0.247112,0.169318,0.048662,0.111892,0.083064,0.27209,0.185233,0.093061,0.078761,0.08314,0.149821,0.086081,0.070096,0.072043,0.07344,0.17176,0.111142,0.364122,0.201372,0.110281,0.200658,0.268299,0.145547,0.22955,0.135587,0.176833,0.333816,0.174666,0.163871,0.150905,0.328319,0.253012,0.079236,0.210503,0.204849,0.450181,0.197748,0.106795,0.171971,0.10333,0.409825,0.463398,0.126417,0.313171,0.148309,1.148785,0.341278,0.229703,0.232612,0.154491,0.308671,0.60548,0.120117,0.166467,0.124099,0.563388,0.244856,0.155579,0.309203,0.197862
1768973279.621165,1768973279.621952,127.0,0.0,4381.794922,4364.871582,4355.641113,4381.282227,4363.589844,4374.358887,4373.846191,4374.487305,4366.922852,4350.641113,4443.846191,4526.538574,4391.282227,4421.922852,,,,,,,,,,,,,,,,,,,,,,,,,,,,,,,,,,,,,,,,,,,,,,,,,,,,,,,,,,,,,,,,,,,,,,
1768973279.628974,1768973279.62996,0.0,0.0,4378.717773,4365.256348,4350.897461,4379.615234,4361.538574,4376.538574,4372.436035,4378.974121,4372.692383,4351.153809,4444.487305,4524.487305,4388.077148,4421.922852,,,,,,,,,,,,,,,,,,,,,,,,,,,,,,,,,,,,,,,,,,,,,,,,,,,,,,,,,,,,,,,,,,,,,,
1768973279.636782,1768973279.637769,1.0,0.0,4380.384766,4367.307617,4350.897461,4378.461426,4364.102539,4374.487305,4374.615234,4379.743652,4369.615234,4353.205078,4444.615234,4516.666504,4391.410156,4421.025879,,,,,,,,,,,,,,,,,,,,,,,,,,,,,,,,,,,,,,,,,,,,,,,,,,,,,,,,,,,,,,,,,,,,,,
1768973279.644591,1768973279.645677,2.0,0.0,4382.179688,4368.077148,4353.077148,4383.205078,4367.692383,4376.538574,4381.025879,4377.94873,4369.230957,4355.641113,4444.230957,4514.102539,4394.230957,4424.871582,,,,,,,,,,,,,,,,,,,,,,,,,,,,,,,,,,,,,,,,,,,,,,,,,,,,,,,,,,,,,,,,,,,,,,
1768973279.652399,1768973279.653486,3.0,0.0,4380.769043,4371.666504,4358.077148,4389.358887,4371.538574,4382.563965,4385.256348,4380.256348,4376.153809,4356.282227,4448.205078,4523.589844,4390.128418,4427.94873,,,,,,,,,,,,,,,,,,,,,,,,,,,,,,,,,,,,,,,,,,,,,,,,,,,,,,,,,,,,,,,,,,,,,,
1768973279.660208,1768973279.661494,4.0,0.0,4387.436035,4376.922852,4367.179688,4390.641113,4373.589844,4379.871582,4382.94873,4383.077148,4375.256348,4356.410156,4456.025879,4536.794922,4396.538574,4428.846191,,,,,,,,,,,,,,,,,,,,,,,,,,,,,,,,,,,,,,,,,,,,,,,,,,,,,,,,,,,,,,,,,,,,,,
1768973279.668016,1768973279.669302,5.0,0.0,4396.922852,4378.974121,4367.692383,4388.333496,4372.307617,4375.0,4378.589844,4381.153809,4371.282227,4359.358887,4460.641113,4537.05127,4408.589844,4433.461426,,,,,,,,,,,,,,,,,,,,,,,,,,,,,,,,,,,,,,,,,,,,,,,,,,,,,,,,,,,,,,,,,,,,,,
1768973279.675825,1768973279.677011,6.0,0.0,4392.436035,4379.487305,4363.461426,4387.05127,4373.461426,4379.230957,4381.666504,4383.589844,4375.897461,4362.436035,4457.94873,4528.717773,4405.897461,4434.871582,,,,,,,,,,,,,,,,,,,,,,,,,,,,,,,,,,,,,,,,,,,,,,,,,,,,,,,,,,,,,,,,,,,,,,
1768973279.683633,1768973279.684819,7.0,0.0,4386.410156,4381.025879,4367.563965,4390.384766,4374.230957,4386.538574,4385.512695,4386.666504,4379.230957,4360.384766,4450.256348,4524.615234,4396.025879,4430.769043,,,,,,,,,,,,,,,,,,,,,,,,,,,,,,,,,,,,,,,,,,,,,,,,,,,,,,,,,,,,,,,,,,,,,,
1768973279.691441,1768973279.692428,8.0,0.0,4392.05127,4380.641113,4366.666504,4389.230957,4372.94873,4382.179688,4378.846191,4376.922852,4370.384766,4356.282227,4442.820313,4524.487305,4393.077148,4429.358887,,,,,,,,,,,,,,,,,,,,,,,,,,,,,,,,,,,,,,,,,,,,,,,,,,,,,,,,,,,,,,,,,,,,,,
1768973279.69925,1768973279.700236,9.0,0.0,4394.102539,4379.743652,4361.153809,4386.666504,4374.743652,4373.717773,4370.256348,4365.641113,4362.179688,4353.077148,4442.820313,4522.179688,4393.333496,4428.205078,,,,,,,,,,,,,,,,,,,,,,,,,,,,,,,,,,,,,,,,,,,,,,,,,,,,,,,,,,,,,,,,,,,,,,
1768973279.707058,1768973279.707945,10.0,0.0,4387.94873,4380.512695,4363.333496,4389.615234,4376.794922,4375.256348,4372.563965,4366.282227,4363.717773,4352.307617,4445.769043,4519.743652,4394.102539,4425.256348,,,,,,,,,,,,,,,,,,,,,,,,,,,,,,,,,,,,,,,,,,,,,,,,,,,,,,,,,,,,,,,,,,,,,,
1768973279.714867,1768973279.715753,11.0,0.0,4386.153809,4379.358887,4367.05127,4394.487305,4374.743652,4379.743652,4377.820313,4371.666504,4370.384766,4357.05127,4446.922852,4520.384766,4397.563965,4424.743652,,,,,,,,,,,,,,,,,,,,,,,,,,,,,,,,,,,,,,,,,,,,,,,,,,,,,,,,,,,,,,,,,,,,,,
1768973279.722675,1768973279.723362,12.0,0.0,4388.205078,4374.230957,4366.538574,4395.256348,4375.128418,4378.333496,4378.846191,4375.769043,4373.846191,4362.692383,4451.794922,4520.641113,4398.461426,4426.538574,,,,,,,,,,,,,,,,,,,,,,,,,,,,,,,,,,,,,,,,,,,,,,,,,,,,,,,,,,,,,,,,,,,,,,
1768973279.730484,1768973279.73117,13.0,0.0,4391.153809,4372.436035,4365.769043,4391.922852,4379.487305,4378.589844,4380.641113,4380.0,4374.102539,4361.922852,4459.487305,4522.563965,4397.307617,4428.589844,,,,,,,,,,,,,,,,,,,,,,,,,,,,,,,,,,,,,,,,,,,,,,,,,,,,,,,,,,,,,,,,,,,,,,
1768973279.738292,1768973279.738879,14.0,0.0,4389.487305,4374.102539,4361.538574,4390.897461,4378.077148,4382.692383,4381.666504,4379.743652,4375.0,4357.436035,4460.128418,4527.05127,4398.077148,4428.333496,0.425722,0.159823,0.111952,0.171701,0.103741,0.736485,0.270346,0.319148,0.178725,0.107684,0.250462,0.148042,0.053375,0.114558,0.072297,0.234016,0.147703,0.071179,0.074683,0.077098,0.117437,0.077703,0.061046,0.072894,0.06618,0.178889,0.091403,0.393209,0.219047,0.10635,0.236701,0.210245,0.161835,0.245115,0.137521,0.225681,0.257494,0.187619,0.166358,0.138468,0.35871,0.208564,0.094952,0.208229,0.196542,0.486999,0.216744,0.104266,0.175873,0.110982,0.465992,0.413656,0.166542,0.287794,0.139137,1.133798,0.305565,0.258463,0.23909,0.139567,0.321857,0.582678,0.113785,0.161862,0.111436,0.549622,0.267494,0.158398,0.376918,0.195187
1768973279.746101,1768973279.746687,15.0,0.0,4382.563965,4369.871582,4352.179688,4388.077148,4372.563965,4379.102539,4377.179688,4375.0,4372.179688,4354.102539,4449.871582,4524.743652,4396.153809,4423.846191,,,,,,,,,,,,,,,,,,,,,,,,,,,,,,,,,,,,,,,,,,,,,,,,,,,,,,,,,,,,,,,,,,,,,,
