Timestamp,OriginalTimestamp,EEG.Counter,EEG.Interpolated,EEG.AF3,EEG.F7,EEG.F3,EEG.FC5,EEG.T7,EEG.P7,EEG.O1,EEG.O2,EEG.P8,EEG.T8,EEG.FC6,EEG.F4,EEG.F8,EEG.AF4,POW.AF3.Theta,POW.AF3.Alpha,POW.AF3.BetaL,POW.AF3.BetaH,POW.AF3.Gamma,POW.F7.Theta,POW.F7.Alpha,POW.F7.BetaL,POW.F7.BetaH,POW.F7.Gamma,POW.F3.Theta,POW.F3.Alpha,POW.F3.BetaL,POW.F3.BetaH,POW.F3.Gamma,POW.FC5.Theta,POW.FC5.Alpha,POW.FC5.BetaL,POW.FC5.BetaH,POW.FC5.Gamma,POW.T7.Theta,POW.T7.Alpha,POW.T7.BetaL,POW.T7.BetaH,POW.T7.Gamma,POW.P7.Theta,POW.P7.Alpha,POW.P7.BetaL,POW.P7.BetaH,POW.P7.Gamma,POW.O1.Theta,POW.O1.Alpha,POW.O1.BetaL,POW.O1.BetaH,POW.O1.Gamma,POW.O2.Theta,POW.O2.Alpha,POW.O2.BetaL,POW.O2.BetaH,POW.O2.Gamma,POW.P8.Theta,POW.P8.Alpha,POW.P8.BetaL,POW.P8.BetaH,POW.P8.Gamma,POW.T8.Theta,POW.T8.Alpha,POW.T8.BetaL,POW.T8.BetaH,POW.T8.Gamma,POW.FC6.Theta,POW.FC6.Alpha,POW.FC6.BetaL,POW.FC6.BetaH,POW.FC6.Gamma,POW.F4.Theta,POW.F4.Alpha,POW.F4.BetaL,POW.F4.BetaH,POW.F4.Gamma,POW.F8.Theta,POW.F8.Alpha,POW.F8.BetaL,POW.F8.BetaH,POW.F8.Gamma,POW.AF4.Theta,POW.AF4.Alpha,POW.AF4.BetaL,POW.AF4.BetaH,POW.AF4.Gamma
1769163893.020095,1769163893.020968,41.0,0.0,4307.820313,4283.974121,4398.077148,4369.358887,4278.846191,4160.128418,4289.230957,4311.922852,4297.179688,4280.512695,4602.05127,4561.282227,4459.615234,4523.205078,,,,,,,,,,,,,,,,,,,,,,,,,,,,,,,,,,,,,,,,,,,,,,,,,,,,,,,,,,,,,,,,,,,,,,
1769163893.027903,1769163893.028877,42.0,0.0,4298.077148,4278.205078,4391.153809,4367.179688,4280.384766,4161.025879,4289.615234,4308.589844,4291.922852,4286.153809,4602.05127,4557.563965,4462.563965,4524.230957,,,,,,,,,,,,,,,,,,,,,,,,,,,,,,,,,,,,,,,,,,,,,,,,,,,,,,,,,,,,,,,,,,,,,,
1769163893.035712,1769163893.036685,43.0,0.0,4293.589844,4278.333496,4386.025879,4365.0,4280.512695,4168.717773,4296.538574,4309.487305,4294.358887,4290.256348,4604.230957,4563.077148,4462.563965,4523.589844,,,,,,,,,,,,,,,,,,,,,,,,,,,,,,,,,,,,,,,,,,,,,,,,,,,,,,,,,,,,,,,,,,,,,,
1769163893.04352,1769163893.044693,44.0,0.0,4297.94873,4281.410156,4390.641113,4365.128418,4279.615234,4170.128418,4297.179688,4313.717773,4297.179688,4284.358887,4603.846191,4569.487305,4461.538574,4520.897461,,,,,,,,,,,,,,,,,,,,,,,,,,,,,,,,,,,,,,,,,,,,,,,,,,,,,,,,,,,,,,,,,,,,,,
1769163893.051329,1769163893.052502,45.0,0.0,4299.871582,4282.692383,4390.0,4367.563965,4277.820313,4165.897461,4294.230957,4311.538574,4294.230957,4280.0,4598.846191,4562.05127,4459.487305,4516.538574,,,,,,,,,,,,,,,,,,,,,,,,,,,,,,,,,,,,,,,,,,,,,,,,,,,,,,,,,,,,,,,,,,,,,,
1769163893.059137,1769163893.06021,46.0,0.0,4291.666504,4278.205078,4380.512695,4364.743652,4277.307617,4165.897461,4295.512695,4310.256348,4293.846191,4281.153809,4596.282227,4554.358887,4457.307617,4517.94873,2.653372,0.216926,0.24598,0.365856,0.26139,1.287687,0.468171,0.483367,0.257168,0.2594,1.532534,0.217299,0.274308,0.272296,0.153825,0.936647,0.334983,0.301951,0.131893,0.107369,0.777564,0.156628,0.105614,0.065341,0.083988,0.907327,0.209768,0.40812,0.211661,0.240646,0.467975,0.24448,0.098813,0.209288,0.142042,2.054224,0.253903,0.236755,0.251878,0.296016,0.753039,0.303434,0.615053,0.191615,0.290363,1.471271,0.533992,0.473792,0.169815,0.163633,2.097315,0.365349,0.374408,0.184621,0.202983,2.476438,0.478357,0.394098,0.378249,0.236374,1.699845,0.403765,0.496702,0.194619,0.253842,2.456486,0.786611,0.406429,0.360464,0.349958
1769163893.066946,1769163893.068019,47.0,0.0,4285.0,4275.769043,4373.846191,4359.487305,4278.461426,4168.717773,4296.153809,4316.410156,4296.025879,4280.769043,4595.769043,4555.897461,4458.717773,4522.820313,,,,,,,,,,,,,,,,,,,,,,,,,,,,,,,,,,,,,,,,,,,,,,,,,,,,,,,,,,,,,,,,,,,,,,
1769163893.074754,1769163893.075627,48.0,0.0,4290.512695,4280.256348,4376.794922,4363.974121,4278.974121,4168.205078,4294.871582,4317.436035,4297.05127,4280.641113,4599.487305,4556.410156,4459.487305,4522.05127,,,,,,,,,,,,,,,,,,,,,,,,,,,,,,,,,,,,,,,,,,,,,,,,,,,,,,,,,,,,,,,,,,,,,,
1769163893.082563,1769163893.083436,49.0,0.0,4295.128418,4281.666504,4383.077148,4368.717773,4278.974121,4167.179688,4294.102539,4311.410156,4294.743652,4281.282227,4599.871582,4554.615234,4454.487305,4517.307617,,,,,,,,,,,,,,,,,,,,,,,,,,,,,,,,,,,,,,,,,,,,,,,,,,,,,,,,,,,,,,,,,,,,,,
1769163893.090371,1769163893.091144,50.0,0.0,4293.846191,4279.487305,4381.410156,4362.05127,4278.333496,4168.333496,4294.743652,4310.897461,4292.179688,4277.05127,4590.0,4552.692383,4446.410156,4509.230957,,,,,,,,,,,,,,,,,,,,,,,,,,,,,,,,,,,,,,,,,,,,,,,,,,,,,,,,,,,,,,,,,,,,,,
1769163893.098179,1769163893.098953,51.0,0.0,4291.153809,4275.0,4374.102539,4356.410156,4279.358887,4170.641113,4295.897461,4314.871582,4293.461426,4274.871582,4585.384766,4548.974121,4444.358887,4507.179688,,,,,,,,,,,,,,,,,,,,,,,,,,,,,,,,,,,,,,,,,,,,,,,,,,,,,,,,,,,,,,,,,,,,,,
1769163893.105988,1769163893.106961,52.0,0.0,4286.666504,4270.641113,4372.05127,4358.717773,4277.436035,4169.230957,4293.077148,4311.794922,4294.871582,4278.717773,4592.05127,4550.769043,4447.94873,4516.410156,,,,,,,,,,,,,,,,,,,,,,,,,,,,,,,,,,,,,,,,,,,,,,,,,,,,,,,,,,,,,,,,,,,,,,
1769163893.113796,1769163893.11477,53.0,0.0,4283.333496,4267.820313,4373.846191,4357.820313,4270.897461,4165.0,4291.153809,4313.589844,4293.717773,4279.615234,4591.025879,4553.589844,4445.897461,4513.077148,,,,,,,,,,,,,,,,,,,,,,,,,,,,,,,,,,,,,,,,,,,,,,,,,,,,,,,,,,,,,,,,,,,,,,
1769163893.121605,1769163893.122678,54.0,0.0,4285.128418,4267.563965,4373.717773,4356.666504,4265.769043,4163.846191,4293.589844,4325.128418,4296.153809,4276.410156,4587.692383,4551.922852,4443.333496,4503.333496,,,,,,,,,,,,,,,,,,,,,,,,,,,,,,,,,,,,,,,,,,,,,,,,,,,,,,,,,,,,,,,,,,,,,,
1769163893.129413,1769163893.130486,55.0,0.0,4284.230957,4270.256348,4372.692383,4357.820313,4265.769043,4165.128418,4290.897461,4322.563965,4295.384766,4276.410156,4592.179688,4552.436035,4445.512695,4513.717773,,,,,,,,,,,,,,,,,,,,,,,,,,,,,,,,,,,,,,,,,,,,,,,,,,,,,,,,,,,,,,,,,,,,,,
1769163893.137222,1769163893.138495,56.0,0.0,4282.307617,4275.128418,4372.94873,4356.922852,4270.512695,4168.846191,4292.307617,4314.230957,4286.666504,4279.102539,4591.025879,4552.179688,4445.897461,4524.615234,,,,,,,,,,,,,,,,,,,,,,,,,,,,,,,,,,,,,,,,,,,,,,,,,,,,,,,,,,,,,,,,,,,,,,
1769163893.14503,1769163893.146303,57.0,0.0,4291.410156,4278.846191,4375.897461,4362.307617,4270.512695,4171.153809,4296.794922,4321.025879,4286.794922,4277.692383,4588.846191,4551.025879,4449.358887,4523.974121,,,,,,,,,,,,,,,,,,,,,,,,,,,,,,,,,,,,,,,,,,,,,,,,,,,,,,,,,,,,,,,,,,,,,,
1769163893.152839,1769163893.154211,58.0,0.0,4298.077148,4279.230957,4382.307617,4371.153809,4267.436035,4163.717773,4289.102539,4329.230957,4295.384766,4278.974121,4598.846191,4560.256348,4457.94873,4530.128418,,,,,,,,,,,,,,,,,,,,,,,,,,,,,,,,,,,,,,,,,,,,,,,,,,,,,,,,,,,,,,,,,,,,,,
1769163893.160647,1769163893.16202,59.0,0.0,4298.205078,4280.0,4386.025879,4370.384766,4269.871582,4160.256348,4284.102539,4324.743652,4296.538574,4286.922852,4608.461426,4570.769043,4463.717773,4543.077148,,,,,,,,,,,,,,,,,,,,,,,,,,,,,,,,,,,,,,,,,,,,,,,,,,,,,,,,,,,,,,,,,,,,,,
1769163893.168456,1769163893.169628,60.0,0.0,4296.922852,4279.230957,4378.333496,4366.025879,4271.794922,4168.589844,4293.205078,4324.358887,4292.820313,4286.666504,4607.307617,4565.0,4462.436035,4540.769043,,,,,,,,,,,,,,,,,,,,,,,,,,,,,,,,,,,,,,,,,,,,,,,,,,,,,,,,,,,,,,,,,,,,,,
1769163893.176264,1769163893.177437,61.0,0.0,4291.282227,4274.871582,4370.512695,4362.179688,4266.922852,4171.410156,4296.922852,4327.94873,4292.179688,4278.589844,4598.333496,4555.641113,4456.666504,4527.692383,,,,,,,,,,,,,,,,,,,,,,,,,,,,,,,,,,,,,,,,,,,,,,,,,,,,,,,,,,,,,,,,,,,,,,
1769163893.184073,1769163893.185145,62.0,0.0,4289.743652,4273.205078,4375.384766,4361.410156,4264.615234,4164.487305,4290.256348,4326.410156,4294.358887,4277.692383,4589.102539,4556.153809,4449.615234,4522.820313,2.175269,0.2811,0.275032,0.281052,0.244899,1.205909,0.510262,0.560368,0.236919,0.238077,1.344474,0.239112,0.270918,0.262255,0.139012,0.879884,0.292689,0.31959,0.120802,0.109783,0.660833,0.14362,0.117823,0.063074,0.070204,0.992949,0.258808,0.38472,0.180679,0.255939,0.457507,0.299366,0.12074,0.192589,0.148521,1.924058,0.361321,0.263871,0.212212,0.284692,0.761357,0.341371,0.613665,0.170717,0.274993,1.457905,0.679265,0.526808,0.158597,0.165171,2.108885,0.408866,0.435303,0.158138,0.196361,2.348822,0.597219,0.506585,0.380174,0.225968,1.656785,0.355304,0.567973,0.174442,0.227747,2.058164,0.772062,0.477045,0.312557,0.302596
1769163893.191881,1769163893.192954,63.0,0.0,4290.641113,4273.846191,4380.128418,4362.436035,4267.94873,4165.128418,4292.436035,4325.897461,4293.974121,4280.512695,4590.0,4555.769043,4445.769043,4525.128418,,,,,,,,,,,,,,,,,,,,,,,,,,,,,,,,,,,,,,,,,,,,,,,,,,,,,,,,,,,,,,,,,,,,,,
1769163893.19969,1769163893.200563,64.0,0.0,4291.922852,4277.307617,4375.384766,4362.05127,4266.794922,4169.230957,4291.153809,4321.153809,4284.871582,4275.512695,4592.94873,4552.820313,4446.153809,4525.512695,,,,,,,,,,,,,,,,,,,,,,,,,,,,,,,,,,,,,,,,,,,,,,,,,,,,,,,,,,,,,,,,,,,,,,
1769163893.207498,1769163893.208371,65.0,0.0,4292.820313,4278.717773,4370.512695,4361.538574,4265.384766,4166.025879,4282.179688,4316.282227,4279.743652,4271.025879,4587.436035,4552.563965,4443.717773,4521.666504,,,,,,,,,,,,,,,,,,,,,,,,,,,,,,,,,,,,,,,,,,,,,,,,,,,,,,,,,,,,,,,,,,,,,,
1769163893.215306,1769163893.21608,66.0,0.0,4291.282227,4276.538574,4370.384766,4365.897461,4268.077148,4168.589844,4286.666504,4320.256348,4287.692383,4274.615234,4585.128418,4550.128418,4440.256348,4520.128418,,,,,,,,,,,,,,,,,,,,,,,,,,,,,,,,,,,,,,,,,,,,,,,,,,,,,,,,,,,,,,,,,,,,,,
1769163893.223115,1769163893.223888,67.0,0.0,4295.641113,4281.153809,4372.692383,4372.94873,4275.256348,4170.384766,4293.205078,4325.512695,4293.717773,4279.358887,4590.0,4550.897461,4443.589844,4524.615234,,,,,,,,,,,,,,,,,,,,,,,,,,,,,,,,,,,,,,,,,,,,,,,,,,,,,,,,,,,,,,,,,,,,,,
1769163893.230923,1769163893.231896,68.0,0.0,4297.563965,4282.179688,4375.0,4372.692383,4280.641113,4167.692383,4291.410156,4326.538574,4294.615234,4278.333496,4589.358887,4557.692383,4446.666504,4527.436035,,,,,,,,,,,,,,,,,,,,,,,,,,,,,,,,,,,,,,,,,,,,,,,,,,,,,,,,,,,,,,,,,,,,,,
1769163893.238732,1769163893.239705,69.0,0.0,4287.820313,4269.743652,4373.589844,4365.256348,4278.589844,4171.282227,4292.05127,4325.512695,4293.717773,4274.230957,4585.256348,4556.538574,4443.846191,4523.077148,,,,,,,,,,,,,,,,,,,,,,,,,,,,,,,,,,,,,,,,,,,,,,,,,,,,,,,,,,,,,,,,,,,,,,
1769163893.24654,1769163893.247613,70.0,0.0,4284.743652,4267.820313,4372.563965,4363.077148,4278.974121,4174.102539,4296.794922,4324.487305,4292.820313,4280.769043,4591.922852,4554.743652,4442.692383,4521.025879,,,,,,,,,,,,,,,,,,,,,,,,,,,,,,,,,,,,,,,,,,,,,,,,,,,,,,,,,,,,,,,,,,,,,,
1769163893.254349,1769163893.255421,71.0,0.0,4297.820313,4280.256348,4374.487305,4369.230957,4277.05127,4173.205078,4293.974121,4322.436035,4295.512695,4289.487305,4601.410156,4562.05127,4447.05127,4532.179688,,,,,,,,,,,,,,,,,,,,,,,,,,,,,,,,,,,,,,,,,,,,,,,,,,,,,,,,,,,,,,,,,,,,,,
1769163893.262157,1769163893.26303,72.0,0.0,4301.025879,4280.0,4373.461426,4369.102539,4268.461426,4172.179688,4291.025879,4320.512695,4296.794922,4283.589844,4597.94873,4563.333496,4447.94873,4536.794922,,,,,,,,,,,,,,,,,,,,,,,,,,,,,,,,,,,,,,,,,,,,,,,,,,,,,,,,,,,,,,,,,,,,,,
1769163893.269966,1769163893.270839,73.0,0.0,4288.589844,4272.179688,4371.922852,4364.358887,4270.0,4170.897461,4294.871582,4320.512695,4293.717773,4275.384766,4589.102539,4555.897461,4443.717773,4526.282227,,,,,,,,,,,,,,,,,,,,,,,,,,,,,,,,,,,,,,,,,,,,,,,,,,,,,,,,,,,,,,,,,,,,,,
1769163893.277774,1769163893.278547,74.0,0.0,4284.358887,4277.05127,4372.436035,4370.512695,4279.743652,4175.256348,4295.384766,4322.179688,4293.717773,4278.461426,4587.692383,4554.743652,4440.897461,4521.666504,,,,,,,,,,,,,,,,,,,,,,,,,,,,,,,,,,,,,,,,,,,,,,,,,,,,,,,,,,,,,,,,,,,,,,
1769163893.285582,1769163893.286356,75.0,0.0,4292.94873,4283.077148,4372.692383,4376.922852,4280.512695,4185.256348,4294.743652,4321.538574,4295.0,4281.410156,4591.025879,4556.922852,4442.307617,4528.461426,,,,,,,,,,,,,,,,,,,,,,,,,,,,,,,,,,,,,,,,,,,,,,,,,,,,,,,,,,,,,,,,,,,,,,
1769163893.293391,1769163893.293964,76.0,0.0,4295.0,4278.205078,4372.436035,4371.410156,4276.410156,4186.538574,4295.384766,4320.769043,4292.692383,4278.205078,4591.922852,4555.256348,4443.717773,4528.589844,,,,,,,,,,,,,,,,,,,,,,,,,,,,,,,,,,,,,,,,,,,,,,,,,,,,,,,,,,,,,,,,,,,,,,
1769163893.301199,1769163893.301773,77.0,0.0,4287.563965,4275.0,4371.282227,4364.871582,4276.410156,4180.897461,4295.512695,4321.666504,4288.077148,4277.436035,4592.436035,4555.641113,4442.692383,4525.897461,,,,,,,,,,,,,,,,,,,,,,,,,,,,,,,,,,,,,,,,,,,,,,,,,,,,,,,,,,,,,,,,,,,,,,
1769163893.309008,1769163893.309681,78.0,0.0,4287.307617,4277.436035,4368.461426,4365.897461,4277.307617,4178.589844,4289.358887,4316.410156,4284.358887,4277.94873,4593.205078,4556.153809,4440.897461,4529.230957,1.722973,0.372957,0.328617,0.212467,0.239558,1.057044,0.555383,0.633619,0.217871,0.210836,1.141094,0.257898,0.265704,0.253573,0.122127,0.786876,0.261231,0.341098,0.110558,0.111205,0.51947,0.162031,0.128832,0.065064,0.056337,1.010893,0.289632,0.3544,0.15835,0.256695,0.405363,0.347796,0.175155,0.18136,0.156777,1.646149,0.485316,0.284387,0.180628,0.266242,0.761774,0.366432,0.570975,0.151752,0.251756,1.298447,0.816348,0.54053,0.154948,0.166186,1.985699,0.450143,0.481065,0.141614,0.19526,2.25047,0.706315,0.602684,0.361375,0.219686,1.504176,0.313689,0.640854,0.178917,0.207302,1.69898,0.736903,0.540152,0.276071,0.255868
1769163893.316816,1769163893.317489,79.0,0.0,4292.05127,4280.0,4368.333496,4367.436035,4276.282227,4171.410156,4279.230957,4309.871582,4288.333496,4278.846191,4592.05127,4553.846191,4443.077148,4529.487305,,,,,,,,,,,,,,,,,,,,,,,,,,,,,,,,,,,,,,,,,,,,,,,,,,,,,,,,,,,,,,,,,,,,,,
1769163893.324625,1769163893.325498,80.0,0.0,4290.128418,4278.077148,4369.358887,4364.743652,4275.512695,4169.230957,4279.230957,4313.974121,4291.025879,4277.692383,4591.922852,4552.820313,4445.0,4522.563965,,,,,,,,,,,,,,,,,,,,,,,,,,,,,,,,,,,,,,,,,,,,,,,,,,,,,,,,,,,,,,,,,,,,,,
1769163893.332433,1769163893.333306,81.0,0.0,4289.615234,4274.230957,4367.94873,4364.487305,4275.384766,4176.153809,4284.871582,4317.820313,4285.256348,4272.820313,4593.589844,4552.179688,4441.282227,4518.077148,,,,,,,,,,,,,,,,,,,,,,,,,,,,,,,,,,,,,,,,,,,,,,,,,,,,,,,,,,,,,,,,,,,,,,
1769163893.340242,1769163893.341214,82.0,0.0,4293.333496,4273.974121,4366.794922,4365.897461,4272.820313,4173.589844,4282.179688,4315.384766,4288.974121,4274.615234,4596.282227,4554.358887,4440.0,4529.871582,,,,,,,,,,,,,,,,,,,,,,,,,,,,,,,,,,,,,,,,,,,,,,,,,,,,,,,,,,,,,,,,,,,,,,
1769163893.34805,1769163893.349023,83.0,0.0,4296.282227,4272.692383,4367.436035,4360.897461,4266.410156,4166.538574,4276.794922,4310.128418,4295.512695,4281.025879,4600.256348,4556.410156,4445.256348,4541.153809,,,,,,,,,,,,,,,,,,,,,,,,,,,,,,,,,,,,,,,,,,,,,,,,,,,,,,,,,,,,,,,,,,,,,,
1769163893.355858,1769163893.357031,84.0,0.0,4295.641113,4266.922852,4367.820313,4356.922852,4264.743652,4168.205078,4281.025879,4309.230957,4289.615234,4280.128418,4596.922852,4554.487305,4444.615234,4531.410156,,,,,,,,,,,,,,,,,,,,,,,,,,,,,,,,,,,,,,,,,,,,,,,,,,,,,,,,,,,,,,,,,,,,,,
1769163893.363667,1769163893.36484,85.0,0.0,4288.205078,4261.282227,4365.256348,4357.692383,4266.666504,4176.922852,4290.128418,4319.358887,4289.102539,4276.666504,4587.05127,4553.846191,4438.461426,4519.102539,,,,,,,,,,,,,,,,,,,,,,,,,,,,,,,,,,,,,,,,,,,,,,,,,,,,,,,,,,,,,,,,,,,,,,
1769163893.371475,1769163893.372548,86.0,0.0,4283.589844,4260.641113,4365.384766,4357.179688,4265.897461,4182.94873,4290.641113,4327.563965,4293.846191,4278.846191,4591.666504,4557.179688,4440.769043,4527.05127,,,,,,,,,,,,,,,,,,,,,,,,,,,,,,,,,,,,,,,,,,,,,,,,,,,,,,,,,,,,,,,,,,,,,,
1769163893.379284,1769163893.380357,87.0,0.0,4289.102539,4262.179688,4367.692383,4358.589844,4269.358887,4183.589844,4288.846191,4321.282227,4287.692383,4281.153809,4600.512695,4557.820313,4445.512695,4534.615234,,,,,,,,,,,,,,,,,,,,,,,,,,,,,,,,,,,,,,,,,,,,,,,,,,,,,,,,,,,,,,,,,,,,,,
1769163893.387092,1769163893.387965,88.0,0.0,4290.128418,4261.794922,4363.077148,4358.461426,4274.743652,4184.230957,4291.410156,4315.641113,4283.077148,4280.128418,4593.333496,4555.384766,4442.563965,4526.153809,,,,,,,,,,,,,,,,,,,,,,,,,,,,,,,,,,,,,,,,,,,,,,,,,,,,,,,,,,,,,,,,,,,,,,
1769163893.394901,1769163893.395774,89.0,0.0,4287.563965,4262.563965,4360.769043,4357.563965,4274.487305,4188.461426,4288.974121,4322.179688,4291.794922,4281.794922,4589.871582,4554.871582,4441.794922,4528.461426,,,,,,,,,,,,,,,,,,,,,,,,,,,,,,,,,,,,,,,,,,,,,,,,,,,,,,,,,,,,,,,,,,,,,,
1769163893.402709,1769163893.403482,90.0,0.0,4291.922852,4264.615234,4366.025879,4359.487305,4274.487305,4184.487305,4281.538574,4320.641113,4295.256348,4285.897461,4599.102539,4556.922852,4447.307617,4538.846191,,,,,,,,,,,,,,,,,,,,,,,,,,,,,,,,,,,,,,,,,,,,,,,,,,,,,,,,,,,,,,,,,,,,,,
1769163893.410518,1769163893.411291,91.0,0.0,4292.307617,4264.615234,4368.333496,4360.641113,4278.077148,4173.589844,4277.307617,4313.077148,4293.077148,4291.410156,4604.230957,4560.512695,4450.512695,4540.641113,,,,,,,,,,,,,,,,,,,,,,,,,,,,,,,,,,,,,,,,,,,,,,,,,,,,,,,,,,,,,,,,,,,,,,
1769163893.418326,1769163893.418899,92.0,0.0,4287.820313,4263.461426,4367.307617,4363.333496,4278.589844,4176.282227,4280.641113,4316.666504,4294.871582,4293.205078,4601.025879,4560.897461,4448.461426,4536.153809,,,,,,,,,,,,,,,,,,,,,,,,,,,,,,,,,,,,,,,,,,,,,,,,,,,,,,,,,,,,,,,,,,,,,,
1769163893.426134,1769163893.426708,93.0,0.0,4285.256348,4262.05127,4365.256348,4364.102539,4275.0,4189.871582,4287.307617,4319.743652,4287.436035,4283.077148,4591.025879,4551.410156,4442.94873,4525.897461,,,,,,,,,,,,,,,,,,,,,,,,,,,,,,,,,,,,,,,,,,,,,,,,,,,,,,,,,,,,,,,,,,,,,,
1769163893.433943,1769163893.434616,94.0,0.0,4280.769043,4260.256348,4359.615234,4357.692383,4275.256348,4193.077148,4290.897461,4321.282227,4281.666504,4275.641113,4585.256348,4545.512695,4441.153809,4520.897461,1.399049,0.458328,0.390072,0.171017,0.248829,0.877046,0.58295,0.683568,0.202348,0.185681,1.030881,0.262187,0.256528,0.247665,0.107952,0.715799,0.239182,0.360836,0.10365,0.11244,0.379372,0.201157,0.135356,0.069845,0.04431,0.961562,0.295197,0.326105,0.148333,0.24169,0.329402,0.377966,0.250154,0.177883,0.162263,1.331735,0.585257,0.28994,0.158123,0.244875,0.777784,0.368211,0.493872,0.13526,0.226847,1.05995,0.917579,0.511095,0.156307,0.161772,1.811582,0.488655,0.500814,0.139261,0.198575,2.236198,0.777497,0.656069,0.322933,0.216769,1.322094,0.310297,0.702712,0.201727,0.195119,1.422847,0.717765,0.589752,0.256019,0.218493
1769163893.441751,1769163893.442425,95.0,0.0,4282.05127,4262.179688,4358.461426,4359.487305,4279.358887,4186.666504,4286.666504,4323.205078,4290.897461,4287.820313,4595.256348,4553.205078,4449.871582,4531.922852,,,,,,,,,,,,,,,,,,,,,,,,,,,,,,,,,,,,,,,,,,,,,,,,,,,,,,,,,,,,,,,,,,,,,,
1769163893.44956,1769163893.450433,96.0,0.0,4287.692383,4266.794922,4361.666504,4366.538574,4280.128418,4191.538574,4285.128418,4318.974121,4294.871582,4296.922852,4600.769043,4558.077148,4454.230957,4534.743652,,,,,,,,,,,,,,,,,,,,,,,,,,,,,,,,,,,,,,,,,,,,,,,,,,,,,,,,,,,,,,,,,,,,,,
1769163893.457368,1769163893.458241,97.0,0.0,4285.897461,4265.0,4360.384766,4359.615234,4278.974121,4197.563965,4290.897461,4318.589844,4290.897461,4286.282227,4594.487305,4552.563965,4447.05127,4524.743652,,,,,,,,,,,,,,,,,,,,,,,,,,,,,,,,,,,,,,,,,,,,,,,,,,,,,,,,,,,,,,,,,,,,,,
1769163893.465177,1769163893.46595,98.0,0.0,4282.94873,4265.384766,4359.230957,4354.358887,4280.384766,4194.871582,4288.846191,4326.410156,4290.897461,4276.282227,4593.205078,4551.538574,4442.820313,4525.512695,,,,,,,,,,,,,,,,,,,,,,,,,,,,,,,,,,,,,,,,,,,,,,,,,,,,,,,,,,,,,,,,,,,,,,
1769163893.472985,1769163893.473758,99.0,0.0,4291.025879,4272.94873,4360.384766,4365.128418,4280.0,4191.538574,4282.94873,4326.922852,4288.974121,4277.179688,4591.538574,4555.769043,4444.358887,4531.666504,,,,,,,,,,,,,,,,,,,,,,,,,,,,,,,,,,,,,,,,,,,,,,,,,,,,,,,,,,,,,,,,,,,,,,
1769163893.480794,1769163893.481367,100.0,0.0,4296.922852,4272.179688,4360.0,4367.179688,4279.487305,4188.717773,4284.102539,4325.897461,4291.025879,4280.256348,4592.94873,4558.077148,4444.487305,4532.307617,,,,,,,,,,,,,,,,,,,,,,,,,,,,,,,,,,,,,,,,,,,,,,,,,,,,,,,,,,,,,,,,,,,,,,
1769163893.488602,1769163893.489175,101.0,0.0,4286.282227,4264.487305,4357.436035,4356.666504,4276.410156,4194.615234,4289.102539,4332.179688,4298.589844,4281.922852,4598.077148,4557.94873,4443.205078,4530.256348,,,,,,,,,,,,,,,,,,,,,,,,,,,,,,,,,,,,,,,,,,,,,,,,,,,,,,,,,,,,,,,,,,,,,,
1769163893.496411,1769163893.496884,102.0,0.0,4276.538574,4265.512695,4352.94873,4355.128418,4270.128418,4198.589844,4287.94873,4330.641113,4293.589844,4281.025879,4591.794922,4554.102539,4441.794922,4522.692383,,,,,,,,,,,,,,,,,,,,,,,,,,,,,,,,,,,,,,,,,,,,,,,,,,,,,,,,,,,,,,,,,,,,,,
1769163893.504219,1769163893.504692,103.0,0.0,4283.205078,4269.487305,4353.205078,4360.897461,4270.256348,4191.410156,4283.717773,4325.0,4287.94873,4280.641113,4585.512695,4552.179688,4441.538574,4522.94873,,,,,,,,,,,,,,,,,,,,,,,,,,,,,,,,,,,,,,,,,,,,,,,,,,,,,,,,,,,,,,,,,,,,,,
1769163893.512028,1769163893.512701,104.0,0.0,4286.794922,4265.512695,4357.307617,4360.897461,4270.384766,4188.205078,4281.666504,4328.205078,4295.512695,4282.05127,4590.512695,4556.410156,4443.717773,4533.333496,,,,,,,,,,,,,,,,,,,,,,,,,,,,,,,,,,,,,,,,,,,,,,,,,,,,,,,,,,,,,,,,,,,,,,
1769163893.519836,1769163893.520509,105.0,0.0,4284.230957,4267.692383,4357.436035,4361.153809,4268.846191,4196.538574,4281.153809,4326.794922,4293.205078,4280.641113,4594.871582,4557.307617,4444.230957,4531.666504,,,,,,,,,,,,,,,,,,,,,,,,,,,,,,,,,,,,,,,,,,,,,,,,,,,,,,,,,,,,,,,,,,,,,,
1769163893.527645,1769163893.528417,106.0,0.0,4285.769043,4273.461426,4357.436035,4368.205078,4272.436035,4205.128418,4285.769043,4324.487305,4286.153809,4277.692383,4591.410156,4552.563965,4442.436035,4523.717773,,,,,,,,,,,,,,,,,,,,,,,,,,,,,,,,,,,,,,,,,,,,,,,,,,,,,,,,,,,,,,,,,,,,,,
1769163893.535453,1769163893.536226,107.0,0.0,4285.128418,4267.820313,4357.563965,4367.05127,4275.512695,4214.615234,4288.589844,4329.743652,4290.256348,4278.717773,4587.563965,4550.769043,4441.794922,4520.641113,,,,,,,,,,,,,,,,,,,,,,,,,,,,,,,,,,,,,,,,,,,,,,,,,,,,,,,,,,,,,,,,,,,,,,
1769163893.543261,1769163893.544234,108.0,0.0,4286.153809,4266.025879,4356.410156,4359.743652,4276.025879,4219.102539,4281.794922,4322.94873,4288.846191,4283.333496,4592.692383,4552.692383,4443.717773,4524.358887,,,,,,,,,,,,,,,,,,,,,,,,,,,,,,,,,,,,,,,,,,,,,,,,,,,,,,,,,,,,,,,,,,,,,,
1769163893.55107,1769163893.552043,109.0,0.0,4290.512695,4272.436035,4356.666504,4365.897461,4280.384766,4213.846191,4274.230957,4312.05127,4281.153809,4285.641113,4600.384766,4553.333496,4446.794922,4531.666504,,,,,,,,,,,,,,,,,,,,,,,,,,,,,,,,,,,,,,,,,,,,,,,,,,,,,,,,,,,,,,,,,,,,,,
1769163893.558878,1769163893.559951,110.0,0.0,4283.333496,4266.666504,4355.769043,4370.128418,4280.256348,4224.102539,4279.358887,4321.025879,4280.897461,4280.128418,4593.846191,4553.333496,4444.743652,4526.922852,1.292932,0.511816,0.437599,0.155611,0.268416,0.718005,0.5777,0.694041,0.191314,0.167857,1.00962,0.248011,0.240507,0.241257,0.100152,0.629584,0.225069,0.372432,0.100759,0.113601,0.289143,0.241293,0.139603,0.076326,0.0356,0.865,0.276101,0.304246,0.147751,0.214611,0.253475,0.382254,0.324297,0.179715,0.162178,1.06989,0.625109,0.277115,0.142401,0.223639,0.811982,0.343829,0.396554,0.12208,0.203913,0.824358,0.963498,0.446154,0.159182,0.151681,1.662674,0.528837,0.489838,0.15208,0.203376,2.332316,0.802744,0.652909,0.274335,0.213667,1.174659,0.37159,0.736156,0.231682,0.188167,1.224289,0.755592,0.62041,0.250932,0.195726
1769163893.566687,1769163893.567759,111.0,0.0,4276.282227,4259.743652,4353.846191,4360.256348,4271.666504,4237.820313,4285.256348,4327.692383,4283.974121,4275.897461,4584.615234,4552.692383,4440.641113,4518.461426,,,,,,,,,,,,,,,,,,,,,,,,,,,,,,,,,,,,,,,,,,,,,,,,,,,,,,,,,,,,,,,,,,,,,,
1769163893.574495,1769163893.575368,112.0,0.0,4282.179688,4261.153809,4350.0,4356.025879,4268.077148,4236.025879,4285.128418,4325.256348,4287.820313,4278.333496,4593.205078,4553.461426,4441.282227,4521.922852,,,,,,,,,,,,,,,,,,,,,,,,,,,,,,,,,,,,,,,,,,,,,,,,,,,,,,,,,,,,,,,,,,,,,,
1769163893.582304,1769163893.583176,113.0,0.0,4281.794922,4253.974121,4342.436035,4359.615234,4265.128418,4241.282227,4290.384766,4336.025879,4298.461426,4279.358887,4600.256348,4555.256348,4440.897461,4521.282227,,,,,,,,,,,,,,,,,,,,,,,,,,,,,,,,,,,,,,,,,,,,,,,,,,,,,,,,,,,,,,,,,,,,,,
1769163893.590112,1769163893.591085,114.0,0.0,4272.820313,4247.820313,4341.410156,4357.563965,4262.563965,4252.307617,4295.512695,4343.846191,4301.282227,4276.666504,4591.153809,4549.487305,4437.820313,4510.384766,,,,,,,,,,,,,,,,,,,,,,,,,,,,,,,,,,,,,,,,,,,,,,,,,,,,,,,,,,,,,,,,,,,,,,
1769163893.597921,1769163893.598893,115.0,0.0,4275.769043,4257.820313,4348.333496,4354.615234,4268.846191,4250.384766,4290.897461,4326.282227,4286.794922,4275.897461,4584.358887,4544.871582,4439.615234,4512.436035,,,,,,,,,,,,,,,,,,,,,,,,,,,,,,,,,,,,,,,,,,,,,,,,,,,,,,,,,,,,,,,,,,,,,,
1769163893.605729,1769163893.606502,116.0,0.0,4288.461426,4269.358887,4348.461426,4362.563965,4277.563965,4247.563965,4280.512695,4311.922852,4279.743652,4278.333496,4592.179688,4551.282227,4443.077148,4521.922852,,,,,,,,,,,,,,,,,,,,,,,,,,,,,,,,,,,,,,,,,,,,,,,,,,,,,,,,,,,,,,,,,,,,,,
1769163893.613537,1769163893.61431,117.0,0.0,4293.205078,4267.94873,4344.615234,4369.230957,4281.153809,4257.436035,4279.615234,4318.717773,4289.358887,4285.128418,4600.769043,4556.410156,4446.025879,4527.94873,,,,,,,,,,,,,,,,,,,,,,,,,,,,,,,,,,,,,,,,,,,,,,,,,,,,,,,,,,,,,,,,,,,,,,
1769163893.621346,1769163893.622019,118.0,0.0,4288.717773,4263.974121,4347.94873,4366.538574,4280.641113,4267.05127,4290.384766,4327.436035,4297.94873,4290.512695,4601.410156,4557.05127,4452.820313,4536.025879,,,,,,,,,,,,,,,,,,,,,,,,,,,,,,,,,,,,,,,,,,,,,,,,,,,,,,,,,,,,,,,,,,,,,,
1769163893.629154,1769163893.629827,119.0,0.0,4298.846191,4272.820313,4355.256348,4372.179688,4280.641113,4269.487305,4297.436035,4329.230957,4296.410156,4288.333496,4606.666504,4566.153809,4460.256348,4543.333496,,,,,,,,,,,,,,,,,,,,,,,,,,,,,,,,,,,,,,,,,,,,,,,,,,,,,,,,,,,,,,,,,,,,,,
1769163893.636963,1769163893.637836,120.0,0.0,4313.589844,4282.05127,4360.641113,4381.282227,4281.922852,4273.333496,4294.871582,4327.820313,4294.102539,4283.717773,4612.436035,4574.743652,4461.538574,4544.102539,,,,,,,,,,,,,,,,,,,,,,,,,,,,,,,,,,,,,,,,,,,,,,,,,,,,,,,,,,,,,,,,,,,,,,
1769163893.644771,1769163893.645644,121.0,0.0,4310.256348,4276.153809,4359.871582,4377.563965,4282.05127,4280.384766,4292.436035,4326.410156,4294.102539,4281.153809,4606.282227,4570.512695,4458.717773,4541.025879,,,,,,,,,,,,,,,,,,,,,,,,,,,,,,,,,,,,,,,,,,,,,,,,,,,,,,,,,,,,,,,,,,,,,,
1769163893.65258,1769163893.653552,122.0,0.0,4307.179688,4273.974121,4358.205078,4376.153809,4280.897461,4283.589844,4297.307617,4329.230957,4296.025879,4281.922852,4602.307617,4567.563965,4456.538574,4538.717773,,,,,,,,,,,,,,,,,,,,,,,,,,,,,,,,,,,,,,,,,,,,,,,,,,,,,,,,,,,,,,,,,,,,,,
1769163893.660388,1769163893.661361,123.0,0.0,4315.897461,4280.897461,4361.538574,4383.205078,4279.358887,4284.615234,4298.717773,4333.717773,4299.102539,4282.820313,4608.205078,4570.384766,4457.94873,4540.256348,,,,,,,,,,,,,,,,,,,,,,,,,,,,,,,,,,,,,,,,,,,,,,,,,,,,,,,,,,,,,,,,,,,,,,
1769163893.668197,1769163893.668969,124.0,0.0,4309.871582,4273.461426,4361.153809,4378.461426,4278.974121,4290.897461,4296.538574,4333.846191,4297.05127,4280.641113,4610.641113,4571.794922,4458.974121,4545.897461,,,,,,,,,,,,,,,,,,,,,,,,,,,,,,,,,,,,,,,,,,,,,,,,,,,,,,,,,,,,,,,,,,,,,,
1769163893.676005,1769163893.676778,125.0,0.0,4292.820313,4262.05127,4354.102539,4369.743652,4280.256348,4295.641113,4299.743652,4332.307617,4298.205078,4282.94873,4610.0,4571.538574,4458.846191,4544.487305,,,,,,,,,,,,,,,,,,,,,,,,,,,,,,,,,,,,,,,,,,,,,,,,,,,,,,,,,,,,,,,,,,,,,,
1769163893.683813,1769163893.684486,126.0,0.0,4292.436035,4264.615234,4351.922852,4372.563965,4279.358887,4297.820313,4308.846191,4340.384766,4306.538574,4290.0,4612.563965,4571.282227,4456.410156,4539.743652,1.291065,0.51711,0.456512,0.157346,0.288126,0.585158,0.53494,0.660651,0.183394,0.158024,1.025195,0.217517,0.216752,0.229377,0.099154,0.625362,0.216256,0.37099,0.101046,0.11442,0.27648,0.265525,0.14999,0.083079,0.030873,0.746689,0.24345,0.289685,0.150809,0.183087,0.203968,0.363796,0.376744,0.181514,0.156301,0.889035,0.595976,0.251074,0.130792,0.203905,0.828612,0.301794,0.297931,0.113492,0.183613,0.636231,0.946782,0.362532,0.161931,0.139701,1.522245,0.571584,0.453496,0.176945,0.206432,2.374659,0.787767,0.596601,0.227415,0.206228,1.077845,0.49813,0.726528,0.256638,0.180367,1.086343,0.865738,0.630558,0.256128,0.189705
1769163893.691622,1769163893.692295,127.0,0.0,4306.025879,4273.461426,4356.666504,4380.384766,4278.205078,4297.94873,4309.743652,4341.282227,4309.102539,4295.384766,4619.102539,4576.282227,4459.230957,4547.94873,,,,,,,,,,,,,,,,,,,,,,,,,,,,,,,,,,,,,,,,,,,,,,,,,,,,,,,,,,,,,,,,,,,,,,
1769163893.69943,1769163893.700303,0.0,0.0,4312.563965,4279.871582,4360.0,4386.153809,4280.384766,4289.487305,4298.077148,4327.820313,4308.461426,4299.487305,4627.05127,4585.384766,4469.487305,4558.846191,,,,,,,,,,,,,,,,,,,,,,,,,,,,,,,,,,,,,,,,,,,,,,,,,,,,,,,,,,,,,,,,,,,,,,
1769163893.707239,1769163893.708112,1.0,0.0,4308.333496,4279.230957,4356.025879,4384.615234,4281.922852,4276.666504,4290.641113,4323.077148,4307.692383,4300.897461,4629.102539,4588.077148,4476.153809,4557.05127,,,,,,,,,,,,,,,,,,,,,,,,,,,,,,,,,,,,,,,,,,,,,,,,,,,,,,,,,,,,,,,,,,,,,,
1769163893.715047,1769163893.71602,2.0,0.0,4307.820313,4277.05127,4351.410156,4379.230957,4280.256348,4278.717773,4294.487305,4333.205078,4304.743652,4296.282227,4630.641113,4586.666504,4477.307617,4554.358887,,,,,,,,,,,,,,,,,,,,,,,,,,,,,,,,,,,,,,,,,,,,,,,,,,,,,,,,,,,,,,,,,,,,,,
1769163893.722856,1769163893.723828,3.0,0.0,4311.538574,4278.589844,4353.846191,4381.025879,4281.153809,4290.769043,4298.589844,4337.436035,4302.692383,4291.922852,4631.153809,4588.077148,4475.769043,4557.563965,,,,,,,,,,,,,,,,,,,,,,,,,,,,,,,,,,,,,,,,,,,,,,,,,,,,,,,,,,,,,,,,,,,,,,
1769163893.730664,1769163893.731837,4.0,0.0,4308.846191,4278.205078,4353.589844,4382.820313,4279.871582,4294.743652,4298.077148,4329.615234,4297.307617,4290.897461,4620.897461,4582.307617,4465.897461,4553.205078,,,,,,,,,,,,,,,,,,,,,,,,,,,,,,,,,,,,,,,,,,,,,,,,,,,,,,,,,,,,,,,,,,,,,,
1769163893.738473,1769163893.739645,5.0,0.0,4302.94873,4275.897461,4348.077148,4380.641113,4272.563965,4291.538574,4296.666504,4329.230957,4294.743652,4291.666504,4616.410156,4576.538574,4459.743652,4550.641113,,,,,,,,,,,,,,,,,,,,,,,,,,,,,,,,,,,,,,,,,,,,,,,,,,,,,,,,,,,,,,,,,,,,,,
1769163893.746281,1769163893.747354,6.0,0.0,4301.666504,4277.05127,4344.487305,4377.436035,4271.410156,4288.717773,4295.769043,4336.025879,4305.384766,4293.589844,4623.589844,4580.0,4466.153809,4552.307617,,,,,,,,,,,,,,,,,,,,,,,,,,,,,,,,,,,,,,,,,,,,,,,,,,,,,,,,,,,,,,,,,,,,,,
1769163893.754089,1769163893.755162,7.0,0.0,4304.230957,4277.692383,4340.641113,4373.717773,4274.487305,4288.974121,4295.128418,4332.307617,4306.922852,4287.820313,4620.512695,4576.538574,4465.128418,4542.820313,,,,,,,,,,,,,,,,,,,,,,,,,,,,,,,,,,,,,,,,,,,,,,,,,,,,,,,,,,,,,,,,,,,,,,
1769163893.761898,1769163893.76317,8.0,0.0,4307.563965,4278.974121,4341.666504,4376.410156,4272.307617,4292.05127,4295.256348,4322.563965,4291.538574,4281.538574,4615.256348,4567.436035,4462.563965,4540.0,,,,,,,,,,,,,,,,,,,,,,,,,,,,,,,,,,,,,,,,,,,,,,,,,,,,,,,,,,,,,,,,,,,,,,
1769163893.769706,1769163893.770979,9.0,0.0,4310.0,4279.871582,4346.282227,4382.05127,4271.922852,4294.358887,4292.94873,4323.205078,4289.743652,4288.333496,4625.0,4573.717773,4475.0,4556.538574,,,,,,,,,,,,,,,,,,,,,,,,,,,,,,,,,,,,,,,,,,,,,,,,,,,,,,,,,,,,,,,,,,,,,,
1769163893.777515,1769163893.778687,10.0,0.0,4310.769043,4278.461426,4348.589844,4381.666504,4278.077148,4293.077148,4295.384766,4328.461426,4298.974121,4298.461426,4635.512695,4586.538574,4482.307617,4565.641113,,,,,,,,,,,,,,,,,,,,,,,,,,,,,,,,,,,,,,,,,,,,,,,,,,,,,,,,,,,,,,,,,,,,,,
1769163893.785324,1769163893.786496,11.0,0.0,4311.922852,4283.461426,4351.922852,4383.717773,4281.025879,4295.384766,4300.384766,4328.205078,4297.820313,4296.025879,4632.563965,4582.436035,4477.94873,4556.794922,,,,,,,,,,,,,,,,,,,,,,,,,,,,,,,,,,,,,,,,,,,,,,,,,,,,,,,,,,,,,,,,,,,,,,
1769163893.793132,1769163893.794104,12.0,0.0,4313.077148,4288.974121,4354.102539,4388.077148,4277.563965,4302.820313,4298.717773,4327.05127,4295.641113,4284.743652,4621.282227,4571.282227,4472.94873,4550.256348,,,,,,,,,,,,,,,,,,,,,,,,,,,,,,,,,,,,,,,,,,,,,,,,,,,,,,,,,,,,,,,,,,,,,,
1769163893.80094,1769163893.801913,13.0,0.0,4313.077148,4284.743652,4349.871582,4387.179688,4277.94873,4300.769043,4296.666504,4330.256348,4298.589844,4283.205078,4615.769043,4568.974121,4467.563965,4552.692383,,,,,,,,,,,,,,,,,,,,,,,,,,,,,,,,,,,,,,,,,,,,,,,,,,,,,,,,,,,,,,,,,,,,,,
1769163893.808749,1769163893.809621,14.0,0.0,4312.94873,4278.333496,4348.717773,4382.692383,4281.282227,4297.563965,4298.717773,4334.358887,4302.820313,4287.179688,4619.358887,4572.820313,4461.538574,4552.436035,1.394156,0.474221,0.448552,0.166923,0.29786,0.559576,0.468506,0.596282,0.176506,0.153112,1.042163,0.181489,0.188522,0.209454,0.102177,0.618146,0.21572,0.357728,0.10292,0.115118,0.350166,0.265458,0.178738,0.088495,0.02979,0.660435,0.217028,0.280322,0.152664,0.155988,0.19764,0.33266,0.396109,0.178435,0.146304,0.760374,0.517662,0.220716,0.122517,0.186476,0.806728,0.255497,0.215726,0.111991,0.16578,0.512322,0.875168,0.278593,0.164072,0.130573,1.376495,0.609383,0.403509,0.206577,0.206551,2.298129,0.745589,0.506394,0.189982,0.192423,1.019143,0.658382,0.669083,0.266714,0.16675,0.997226,1.016123,0.618239,0.264489,0.199511
1769163893.816557,1769163893.81743,15.0,0.0,4310.769043,4277.563965,4349.871582,4380.512695,4280.0,4301.666504,4298.846191,4335.384766,4308.333496,4286.794922,4617.692383,4572.05127,4459.615234,4548.846191,,,,,,,,,,,,,,,,,,,,,,,,,,,,,,,,,,,,,,,,,,,,,,,,,,,,,,,,,,,,,,,,,,,,,,
1769163893.824366,1769163893.825038,16.0,0.0,4309.615234,4277.692383,4349.871582,4380.384766,4277.05127,4302.94873,4300.0,4338.333496,4310.128418,4289.487305,4615.384766,4570.641113,4462.94873,4549.102539,,,,,,,,,,,,,,,,,,,,,,,,,,,,,,,,,,,,,,,,,,,,,,,,,,,,,,,,,,,,,,,,,,,,,,
1769163893.832174,1769163893.832847,17.0,0.0,4315.512695,4280.256348,4354.230957,4382.94873,4277.307617,4297.307617,4305.897461,4342.307617,4311.922852,4298.717773,4626.282227,4577.436035,4473.589844,4554.743652,,,,,,,,,,,,,,,,,,,,,,,,,,,,,,,,,,,,,,,,,,,,,,,,,,,,,,,,,,,,,,,,,,,,,,
1769163893.839983,1769163893.840755,18.0,0.0,4321.025879,4286.922852,4355.128418,4385.512695,4278.205078,4296.025879,4305.512695,4337.436035,4311.153809,4298.974121,4632.179688,4583.717773,4479.615234,4558.589844,,,,,,,,,,,,,,,,,,,,,,,,,,,,,,,,,,,,,,,,,,,,,,,,,,,,,,,,,,,,,,,,,,,,,,
1769163893.847791,1769163893.848564,19.0,0.0,4322.179688,4286.922852,4353.077148,4386.538574,4277.94873,4300.0,4296.538574,4326.666504,4302.563965,4290.384766,4622.563965,4579.871582,4474.615234,4556.922852,,,,,,,,,,,,,,,,,,,,,,,,,,,,,,,,,,,,,,,,,,,,,,,,,,,,,,,,,,,,,,,,,,,,,,
1769163893.8556,1769163893.856572,20.0,0.0,4320.128418,4283.077148,4355.512695,4387.436035,4279.743652,4300.897461,4293.974121,4325.128418,4302.436035,4291.282227,4620.769043,4572.179688,4472.692383,4551.282227,,,,,,,,,,,,,,,,,,,,,,,,,,,,,,,,,,,,,,,,,,,,,,,,,,,,,,,,,,,,,,,,,,,,,,
1769163893.863408,1769163893.86438,21.0,0.0,4315.641113,4284.487305,4354.615234,4385.256348,4280.897461,4304.358887,4301.538574,4332.179688,4309.487305,4296.794922,4627.179688,4570.641113,4475.897461,4546.153809,,,,,,,,,,,,,,,,,,,,,,,,,,,,,,,,,,,,,,,,,,,,,,,,,,,,,,,,,,,,,,,,,,,,,,
1769163893.871216,1769163893.872289,22.0,0.0,4310.769043,4287.05127,4350.256348,4382.179688,4280.128418,4307.05127,4306.922852,4332.692383,4303.333496,4296.538574,4625.128418,4572.179688,4472.436035,4548.077148,,,,,,,,,,,,,,,,,,,,,,,,,,,,,,,,,,,,,,,,,,,,,,,,,,,,,,,,,,,,,,,,,,,,,,
1769163893.879025,1769163893.880097,23.0,0.0,4313.846191,4287.307617,4351.794922,4383.589844,4278.974121,4306.153809,4303.589844,4326.153809,4293.846191,4290.769043,4620.0,4572.179688,4465.0,4553.333496,,,,,,,,,,,,,,,,,,,,,,,,,,,,,,,,,,,,,,,,,,,,,,,,,,,,,,,,,,,,,,,,,,,,,,
1769163893.886833,1769163893.887706,24.0,0.0,4322.436035,4289.230957,4356.410156,4384.102539,4278.461426,4306.410156,4301.538574,4324.871582,4295.769043,4286.794922,4620.256348,4572.179688,4463.077148,4555.0,,,,,,,,,,,,,,,,,,,,,,,,,,,,,,,,,,,,,,,,,,,,,,,,,,,,,,,,,,,,,,,,,,,,,,
1769163893.894642,1769163893.895514,25.0,0.0,4322.179688,4286.666504,4356.666504,4380.0,4279.102539,4310.0,4308.589844,4329.230957,4297.436035,4287.94873,4618.717773,4571.282227,4463.333496,4553.717773,,,,,,,,,,,,,,,,,,,,,,,,,,,,,,,,,,,,,,,,,,,,,,,,,,,,,,,,,,,,,,,,,,,,,,
1769163893.90245,1769163893.903423,26.0,0.0,4315.769043,4277.436035,4349.615234,4373.974121,4278.717773,4311.538574,4308.589844,4329.230957,4299.743652,4290.384766,4616.025879,4569.615234,4460.256348,4552.436035,,,,,,,,,,,,,,,,,,,,,,,,,,,,,,,,,,,,,,,,,,,,,,,,,,,,,,,,,,,,,,,,,,,,,,
1769163893.910259,1769163893.911231,27.0,0.0,4315.512695,4280.512695,4345.641113,4371.922852,4278.717773,4308.077148,4299.743652,4327.179688,4309.743652,4294.230957,4618.717773,4568.333496,4462.436035,4553.077148,,,,,,,,,,,,,,,,,,,,,,,,,,,,,,,,,,,,,,,,,,,,,,,,,,,,,,,,,,,,,,,,,,,,,,
1769163893.918067,1769163893.919239,28.0,0.0,4323.846191,4291.282227,4353.205078,4377.436035,4281.794922,4307.307617,4301.666504,4329.102539,4309.871582,4295.512695,4619.230957,4570.769043,4466.794922,4556.794922,,,,,,,,,,,,,,,,,,,,,,,,,,,,,,,,,,,,,,,,,,,,,,,,,,,,,,,,,,,,,,,,,,,,,,
1769163893.925876,1769163893.927048,29.0,0.0,4325.0,4285.897461,4354.358887,4381.025879,4280.897461,4309.102539,4304.871582,4328.717773,4298.589844,4290.897461,4616.666504,4570.384766,4463.461426,4557.820313,,,,,,,,,,,,,,,,,,,,,,,,,,,,,,,,,,,,,,,,,,,,,,,,,,,,,,,,,,,,,,,,,,,,,,
1769163893.933684,1769163893.934756,30.0,0.0,4316.025879,4275.384766,4344.615234,4376.153809,4275.769043,4309.102539,4300.256348,4324.358887,4294.230957,4287.05127,4614.743652,4560.512695,4460.384766,4556.025879,1.380266,0.40368,0.430366,0.178286,0.293671,0.576853,0.397032,0.522502,0.168181,0.149854,0.965488,0.154539,0.162278,0.182785,0.105109,0.648984,0.222872,0.33632,0.104831,0.116671,0.468906,0.247056,0.234571,0.092244,0.031148,0.617411,0.217872,0.274101,0.153872,0.1401,0.225127,0.301868,0.384436,0.171388,0.135557,0.647684,0.428781,0.195437,0.120681,0.173417,0.717559,0.220763,0.159456,0.120378,0.151296,0.436369,0.76733,0.209816,0.165947,0.126741,1.177561,0.627359,0.356282,0.23211,0.205043,2.012099,0.690457,0.410626,0.163034,0.173655,0.956569,0.798205,0.578104,0.257666,0.146656,0.935483,1.145716,0.588359,0.268826,0.221304
1769163893.941492,1769163893.942565,31.0,0.0,4313.205078,4280.897461,4341.282227,4372.94873,4278.333496,4306.922852,4300.0,4323.205078,4296.794922,4289.487305,4614.487305,4555.769043,4462.307617,4554.743652,,,,,,,,,,,,,,,,,,,,,,,,,,,,,,,,,,,,,,,,,,,,,,,,,,,,,,,,,,,,,,,,,,,,,,
1769163893.949301,1769163893.950173,32.0,0.0,4311.282227,4279.487305,4342.179688,4371.282227,4278.461426,4309.358887,4310.0,4328.205078,4295.897461,4290.256348,4614.102539,4560.0,4460.0,4547.436035,,,,,,,,,,,,,,,,,,,,,,,,,,,,,,,,,,,,,,,,,,,,,,,,,,,,,,,,,,,,,,,,,,,,,,
1769163893.957109,1769163893.957982,33.0,0.0,4304.102539,4264.487305,4340.256348,4364.230957,4268.461426,4312.692383,4311.538574,4329.358887,4293.461426,4285.769043,4608.333496,4560.897461,4457.563965,4544.871582,,,,,,,,,,,,,,,,,,,,,,,,,,,,,,,,,,,,,,,,,,,,,,,,,,,,,,,,,,,,,,,,,,,,,,
1769163893.964918,1769163893.96589,34.0,0.0,4306.666504,4266.153809,4342.692383,4363.205078,4263.717773,4304.487305,4301.282227,4324.871582,4293.461426,4283.717773,4601.538574,4558.461426,4461.410156,4552.05127,,,,,,,,,,,,,,,,,,,,,,,,,,,,,,,,,,,,,,,,,,,,,,,,,,,,,,,,,,,,,,,,,,,,,,
1769163893.972726,1769163893.973699,35.0,0.0,4312.94873,4277.94873,4344.102539,4369.102539,4265.769043,4293.717773,4295.897461,4323.205078,4293.974121,4289.487305,4601.794922,4557.05127,4456.666504,4547.05127,,,,,,,,,,,,,,,,,,,,,,,,,,,,,,,,,,,,,,,,,,,,,,,,,,,,,,,,,,,,,,,,,,,,,,
1769163893.980535,1769163893.981307,36.0,0.0,4303.205078,4276.922852,4337.94873,4367.820313,4267.307617,4291.794922,4295.256348,4322.820313,4293.974121,4292.94873,4602.563965,4553.846191,4449.871582,4534.743652,,,,,,,,,,,,,,,,,,,,,,,,,,,,,,,,,,,,,,,,,,,,,,,,,,,,,,,,,,,,,,,,,,,,,,
1769163893.988343,1769163893.989116,37.0,0.0,4296.282227,4275.128418,4335.512695,4368.589844,4273.205078,4296.410156,4295.0,4321.025879,4294.615234,4289.487305,4600.769043,4552.307617,4454.358887,4537.94873,,,,,,,,,,,,,,,,,,,,,,,,,,,,,,,,,,,,,,,,,,,,,,,,,,,,,,,,,,,,,,,,,,,,,,
1769163893.996152,1769163893.996824,38.0,0.0,4305.256348,4281.025879,4336.538574,4375.512695,4280.384766,4301.282227,4297.94873,4320.256348,4294.743652,4287.820313,4602.94873,4554.487305,4459.230957,4544.487305,,,,,,,,,,,,,,,,,,,,,,,,,,,,,,,,,,,,,,,,,,,,,,,,,,,,,,,,,,,,,,,,,,,,,,
1769163894.00396,1769163894.004633,39.0,0.0,4308.461426,4280.897461,4337.692383,4374.358887,4279.743652,4304.871582,4305.128418,4321.025879,4294.743652,4288.077148,4603.461426,4551.922852,4458.077148,4539.102539,,,,,,,,,,,,,,,,,,,,,,,,,,,,,,,,,,,,,,,,,,,,,,,,,,,,,,,,,,,,,,,,,,,,,,
1769163894.011768,1769163894.012241,40.0,0.0,4304.743652,4275.0,4340.769043,4368.717773,4277.563965,4306.538574,4306.538574,4321.153809,4295.0,4288.205078,4600.384766,4549.615234,4455.256348,4538.974121,,,,,,,,,,,,,,,,,,,,,,,,,,,,,,,,,,,,,,,,,,,,,,,,,,,,,,,,,,,,,,,,,,,,,,
1769163894.019577,1769163894.02005,41.0,0.0,4303.461426,4277.436035,4341.794922,4372.307617,4279.743652,4305.641113,4306.282227,4323.846191,4295.512695,4287.820313,4600.641113,4550.897461,4451.282227,4540.641113,,,,,,,,,,,,,,,,,,,,,,,,,,,,,,,,,,,,,,,,,,,,,,,,,,,,,,,,,,,,,,,,,,,,,,
1769163894.027385,1769163894.027758,42.0,0.0,4299.358887,4278.333496,4337.692383,4374.358887,4280.641113,4306.538574,4310.256348,4327.94873,4296.025879,4283.333496,4594.743652,4544.230957,4445.384766,4528.589844,,,,,,,,,,,,,,,,,,,,,,,,,,,,,,,,,,,,,,,,,,,,,,,,,,,,,,,,,,,,,,,,,,,,,,
1769163894.035194,1769163894.035567,43.0,0.0,4291.025879,4270.0,4331.794922,4366.794922,4276.538574,4309.871582,4312.307617,4328.077148,4294.230957,4275.256348,4584.743652,4537.307617,4442.307617,4518.077148,,,,,,,,,,,,,,,,,,,,,,,,,,,,,,,,,,,,,,,,,,,,,,,,,,,,,,,,,,,,,,,,,,,,,,
1769163894.043002,1769163894.043575,44.0,0.0,4291.794922,4268.846191,4330.897461,4363.205078,4267.692383,4307.820313,4310.512695,4321.922852,4289.358887,4272.563965,4587.179688,4544.358887,4441.538574,4527.94873,,,,,,,,,,,,,,,,,,,,,,,,,,,,,,,,,,,,,,,,,,,,,,,,,,,,,,,,,,,,,,,,,,,,,,
1769163894.050811,1769163894.051384,45.0,0.0,4302.05127,4279.487305,4337.692383,4368.846191,4263.589844,4293.333496,4300.897461,4316.922852,4286.666504,4277.692383,4597.307617,4555.128418,4443.461426,4543.205078,,,,,,,,,,,,,,,,,,,,,,,,,,,,,,,,,,,,,,,,,,,,,,,,,,,,,,,,,,,,,,,,,,,,,,
1769163894.058619,1769163894.059292,46.0,0.0,4303.846191,4281.410156,4344.871582,4366.794922,4266.538574,4285.0,4291.153809,4323.077148,4291.153809,4281.410156,4598.205078,4554.358887,4447.05127,4542.307617,1.281129,0.337874,0.423167,0.186685,0.278126,0.638107,0.344194,0.461071,0.156647,0.145984,0.841927,0.148569,0.145329,0.152447,0.104225,0.633192,0.238061,0.314176,0.104333,0.11974,0.588739,0.224114,0.3149,0.093882,0.033419,0.658026,0.260042,0.269984,0.158709,0.13669,0.277058,0.281233,0.353758,0.166594,0.127065,0.515952,0.365669,0.18495,0.131438,0.167194,0.582439,0.209778,0.128062,0.142398,0.141722,0.382756,0.644522,0.169322,0.168721,0.127132,0.913991,0.609837,0.331341,0.245477,0.204108,1.570473,0.629468,0.339188,0.143345,0.153821,0.849714,0.868234,0.492482,0.23128,0.12346,0.896787,1.198704,0.555434,0.264973,0.247892
1769163894.066428,1769163894.0671,47.0,0.0,4294.615234,4272.179688,4336.410156,4356.410156,4265.641113,4293.205078,4297.820313,4325.0,4295.384766,4283.333496,4592.179688,4550.512695,4443.717773,4535.512695,,,,,,,,,,,,,,,,,,,,,,,,,,,,,,,,,,,,,,,,,,,,,,,,,,,,,,,,,,,,,,,,,,,,,,
1769163894.074236,1769163894.075109,48.0,0.0,4293.974121,4271.282227,4325.384766,4358.461426,4265.641113,4298.846191,4304.743652,4317.05127,4294.615234,4283.205078,4588.333496,4554.102539,4438.077148,4537.307617,,,,,,,,,,,,,,,,,,,,,,,,,,,,,,,,,,,,,,,,,,,,,,,,,,,,,,,,,,,,,,,,,,,,,,
1769163894.082044,1769163894.082917,49.0,0.0,4299.102539,4277.307617,4333.333496,4366.794922,4268.846191,4294.487305,4297.436035,4313.077148,4294.102539,4279.871582,4587.436035,4552.307617,4434.871582,4536.538574,,,,,,,,,,,,,,,,,,,,,,,,,,,,,,,,,,,,,,,,,,,,,,,,,,,,,,,,,,,,,,,,,,,,,,
1769163894.089853,1769163894.090626,50.0,0.0,4296.794922,4276.666504,4340.769043,4369.743652,4268.589844,4292.436035,4297.05127,4315.256348,4293.589844,4278.461426,4586.153809,4544.102539,4433.205078,4529.102539,,,,,,,,,,,,,,,,,,,,,,,,,,,,,,,,,,,,,,,,,,,,,,,,,,,,,,,,,,,,,,,,,,,,,,
1769163894.097661,1769163894.098434,51.0,0.0,4293.589844,4270.128418,4331.538574,4367.692383,4266.666504,4296.794922,4304.615234,4315.641113,4290.256348,4274.871582,4581.666504,4537.436035,4430.256348,4525.256348,,,,,,,,,,,,,,,,,,,,,,,,,,,,,,,,,,,,,,,,,,,,,,,,,,,,,,,,,,,,,,,,,,,,,,
1769163894.10547,1769163894.106442,52.0,0.0,4293.333496,4264.487305,4324.487305,4360.384766,4266.666504,4299.102539,4305.641113,4315.641113,4286.410156,4266.794922,4579.615234,4537.820313,4424.871582,4521.025879,,,,,,,,,,,,,,,,,,,,,,,,,,,,,,,,,,,,,,,,,,,,,,,,,,,,,,,,,,,,,,,,,,,,,,
1769163894.113279,1769163894.114251,53.0,0.0,4293.461426,4264.230957,4330.128418,4357.436035,4265.384766,4298.333496,4307.307617,4320.641113,4286.794922,4268.077148,4585.256348,4547.563965,4424.487305,4519.230957,,,,,,,,,,,,,,,,,,,,,,,,,,,,,,,,,,,,,,,,,,,,,,,,,,,,,,,,,,,,,,,,,,,,,,
1769163894.121087,1769163894.121959,54.0,0.0,4294.871582,4266.794922,4334.615234,4365.128418,4263.717773,4298.077148,4309.871582,4325.256348,4290.641113,4278.974121,4591.410156,4555.769043,4436.666504,4532.820313,,,,,,,,,,,,,,,,,,,,,,,,,,,,,,,,,,,,,,,,,,,,,,,,,,,,,,,,,,,,,,,,,,,,,,
1769163894.128895,1769163894.129768,55.0,0.0,4296.410156,4266.025879,4336.410156,4370.384766,4263.717773,4297.179688,4306.282227,4328.846191,4295.897461,4279.358887,4592.436035,4556.410156,4442.94873,4540.769043,,,,,,,,,,,,,,,,,,,,,,,,,,,,,,,,,,,,,,,,,,,,,,,,,,,,,,,,,,,,,,,,,,,,,,
1769163894.136704,1769163894.137376,56.0,0.0,4295.256348,4264.358887,4337.94873,4368.589844,4261.410156,4295.769043,4303.333496,4325.512695,4294.487305,4273.333496,4587.692383,4553.589844,4430.384766,4526.922852,,,,,,,,,,,,,,,,,,,,,,,,,,,,,,,,,,,,,,,,,,,,,,,,,,,,,,,,,,,,,,,,,,,,,,
1769163894.144512,1769163894.145185,57.0,0.0,4293.717773,4271.666504,4336.666504,4370.897461,4260.512695,4294.615234,4303.846191,4316.282227,4288.589844,4276.153809,4585.897461,4552.05127,4426.922852,4524.102539,,,,,,,,,,,,,,,,,,,,,,,,,,,,,,,,,,,,,,,,,,,,,,,,,,,,,,,,,,,,,,,,,,,,,,
1769163894.152321,1769163894.152893,58.0,0.0,4299.871582,4278.333496,4336.025879,4373.717773,4262.94873,4294.230957,4305.0,4310.769043,4289.102539,4282.307617,4594.615234,4551.794922,4442.179688,4540.897461,,,,,,,,,,,,,,,,,,,,,,,,,,,,,,,,,,,,,,,,,,,,,,,,,,,,,,,,,,,,,,,,,,,,,,
1769163894.160129,1769163894.160702,59.0,0.0,4307.692383,4275.384766,4337.820313,4372.179688,4264.743652,4295.128418,4308.077148,4311.922852,4294.487305,4284.358887,4598.077148,4547.179688,4448.461426,4542.820313,,,,,,,,,,,,,,,,,,,,,,,,,,,,,,,,,,,,,,,,,,,,,,,,,,,,,,,,,,,,,,,,,,,,,,
1769163894.167938,1769163894.16871,60.0,0.0,4302.94873,4276.410156,4336.410156,4373.205078,4267.692383,4297.820313,4307.563965,4317.307617,4295.256348,4280.128418,4587.94873,4540.256348,4441.794922,4532.94873,,,,,,,,,,,,,,,,,,,,,,,,,,,,,,,,,,,,,,,,,,,,,,,,,,,,,,,,,,,,,,,,,,,,,,
1769163894.175746,1769163894.176518,61.0,0.0,4296.410156,4280.128418,4331.282227,4373.461426,4268.717773,4296.794922,4304.615234,4317.94873,4290.384766,4275.256348,4582.436035,4537.94873,4435.897461,4532.820313,,,,,,,,,,,,,,,,,,,,,,,,,,,,,,,,,,,,,,,,,,,,,,,,,,,,,,,,,,,,,,,,,,,,,,
1769163894.183555,1769163894.184227,62.0,0.0,4293.077148,4270.769043,4329.358887,4368.333496,4265.641113,4296.922852,4309.230957,4320.384766,4291.153809,4280.512695,4588.205078,4542.179688,4429.871582,4533.077148,1.111053,0.304846,0.438804,0.190572,0.257688,0.689481,0.329217,0.426315,0.143311,0.141623,0.715704,0.166436,0.140826,0.123968,0.098008,0.592567,0.260263,0.299899,0.101077,0.123911,0.67851,0.211739,0.402958,0.092625,0.035422,0.753494,0.339719,0.266056,0.170283,0.141881,0.344084,0.271853,0.319191,0.170971,0.122668,0.393352,0.342494,0.193452,0.158158,0.168262,0.455345,0.228413,0.116359,0.178742,0.137894,0.349001,0.522594,0.166345,0.174485,0.12882,0.638786,0.548509,0.345183,0.243982,0.204915,1.109228,0.55967,0.312418,0.12769,0.136926,0.700781,0.843653,0.462271,0.196365,0.102319,0.879393,1.145321,0.536494,0.253459,0.270566
1769163894.191363,1769163894.192035,63.0,0.0,4284.487305,4258.333496,4329.487305,4362.436035,4263.333496,4302.05127,4315.384766,4322.820313,4294.102539,4280.128418,4589.743652,4541.538574,4426.922852,4525.641113,,,,,,,,,,,,,,,,,,,,,,,,,,,,,,,,,,,,,,,,,,,,,,,,,,,,,,,,,,,,,,,,,,,,,,
1769163894.199171,1769163894.199644,64.0,0.0,4284.230957,4261.666504,4326.410156,4364.743652,4265.0,4301.410156,4311.282227,4316.538574,4289.615234,4266.794922,4583.974121,4535.384766,4426.153809,4521.410156,,,,,,,,,,,,,,,,,,,,,,,,,,,,,,,,,,,,,,,,,,,,,,,,,,,,,,,,,,,,,,,,,,,,,,
1769163894.20698,1769163894.207453,65.0,0.0,4296.794922,4274.358887,4328.077148,4373.589844,4265.128418,4293.846191,4305.512695,4311.922852,4286.410156,4265.0,4583.589844,4536.794922,4424.615234,4527.05127,,,,,,,,,,,,,,,,,,,,,,,,,,,,,,,,,,,,,,,,,,,,,,,,,,,,,,,,,,,,,,,,,,,,,,
1769163894.214788,1769163894.215161,66.0,0.0,4298.333496,4275.128418,4335.128418,4372.692383,4262.94873,4290.384766,4307.692383,4318.205078,4292.307617,4277.436035,4589.102539,4542.179688,4429.102539,4539.102539,,,,,,,,,,,,,,,,,,,,,,,,,,,,,,,,,,,,,,,,,,,,,,,,,,,,,,,,,,,,,,,,,,,,,,
1769163894.222597,1769163894.22297,67.0,0.0,4291.153809,4265.641113,4333.205078,4361.922852,4262.436035,4294.615234,4311.410156,4320.0,4294.871582,4278.333496,4589.743652,4540.897461,4432.692383,4540.128418,,,,,,,,,,,,,,,,,,,,,,,,,,,,,,,,,,,,,,,,,,,,,,,,,,,,,,,,,,,,,,,,,,,,,,
1769163894.230405,1769163894.230978,68.0,0.0,4295.641113,4270.769043,4331.153809,4362.179688,4263.846191,4296.410156,4309.487305,4316.153809,4291.922852,4271.794922,4585.897461,4538.717773,4428.589844,4528.846191,,,,,,,,,,,,,,,,,,,,,,,,,,,,,,,,,,,,,,,,,,,,,,,,,,,,,,,,,,,,,,,,,,,,,,
1769163894.238214,1769163894.238786,69.0,0.0,4298.717773,4281.153809,4337.563965,4369.615234,4264.615234,4295.512695,4309.615234,4323.461426,4295.897461,4270.897461,4585.128418,4540.384766,4426.410156,4529.230957,,,,,,,,,,,,,,,,,,,,,,,,,,,,,,,,,,,,,,,,,,,,,,,,,,,,,,,,,,,,,,,,,,,,,,
1769163894.246022,1769163894.246695,70.0,0.0,4294.487305,4275.641113,4339.358887,4369.230957,4262.436035,4294.230957,4310.769043,4324.487305,4294.358887,4268.077148,4585.512695,4539.615234,4428.461426,4539.358887,,,,,,,,,,,,,,,,,,,,,,,,,,,,,,,,,,,,,,,,,,,,,,,,,,,,,,,,,,,,,,,,,,,,,,
1769163894.253831,1769163894.254503,71.0,0.0,4296.410156,4273.077148,4334.743652,4366.794922,4261.025879,4292.563965,4306.538574,4310.641113,4282.179688,4265.897461,4586.025879,4536.282227,4427.94873,4534.487305,,,,,,,,,,,,,,,,,,,,,,,,,,,,,,,,,,,,,,,,,,,,,,,,,,,,,,,,,,,,,,,,,,,,,,
1769163894.261639,1769163894.262511,72.0,0.0,4295.384766,4278.333496,4329.871582,4367.94873,4263.717773,4293.846191,4305.769043,4307.307617,4276.410156,4267.05127,4587.179688,4532.05127,4429.358887,4522.307617,,,,,,,,,,,,,,,,,,,,,,,,,,,,,,,,,,,,,,,,,,,,,,,,,,,,,,,,,,,,,,,,,,,,,,
1769163894.269447,1769163894.27032,73.0,0.0,4288.717773,4275.384766,4326.025879,4366.153809,4265.641113,4293.717773,4309.230957,4315.128418,4282.563965,4265.256348,4584.358887,4525.128418,4430.0,4520.897461,,,,,,,,,,,,,,,,,,,,,,,,,,,,,,,,,,,,,,,,,,,,,,,,,,,,,,,,,,,,,,,,,,,,,,
1769163894.277256,1769163894.278228,74.0,0.0,4291.922852,4274.358887,4326.153809,4363.333496,4265.128418,4292.692383,4307.563965,4314.102539,4288.461426,4266.922852,4583.077148,4527.436035,4425.769043,4527.307617,,,,,,,,,,,,,,,,,,,,,,,,,,,,,,,,,,,,,,,,,,,,,,,,,,,,,,,,,,,,,,,,,,,,,,
1769163894.285064,1769163894.286037,75.0,0.0,4294.871582,4278.333496,4327.436035,4364.487305,4265.641113,4294.871582,4306.410156,4312.05127,4288.589844,4272.563965,4590.641113,4538.333496,4432.820313,4534.358887,,,,,,,,,,,,,,,,,,,,,,,,,,,,,,,,,,,,,,,,,,,,,,,,,,,,,,,,,,,,,,,,,,,,,,
1769163894.292873,1769163894.294045,76.0,0.0,4287.179688,4276.025879,4321.794922,4364.230957,4265.512695,4296.153809,4309.743652,4321.666504,4291.666504,4272.94873,4593.589844,4539.615234,4442.692383,4538.974121,,,,,,,,,,,,,,,,,,,,,,,,,,,,,,,,,,,,,,,,,,,,,,,,,,,,,,,,,,,,,,,,,,,,,,
1769163894.300681,1769163894.301853,77.0,0.0,4289.102539,4274.871582,4320.384766,4365.641113,4263.333496,4293.717773,4310.256348,4324.358887,4298.077148,4273.205078,4588.846191,4538.461426,4440.128418,4539.102539,,,,,,,,,,,,,,,,,,,,,,,,,,,,,,,,,,,,,,,,,,,,,,,,,,,,,,,,,,,,,,,,,,,,,,
1769163894.30849,1769163894.309762,78.0,0.0,4298.333496,4277.307617,4328.333496,4369.102539,4263.077148,4294.358887,4310.897461,4314.615234,4293.333496,4270.512695,4587.563965,4545.0,4434.871582,4538.589844,0.97504,0.31453,0.47558,0.192633,0.239049,0.727235,0.353497,0.41955,0.132407,0.139565,0.660763,0.197931,0.146796,0.103678,0.088791,0.544441,0.285415,0.301444,0.096664,0.128033,0.725747,0.22272,0.478252,0.088568,0.036737,0.926992,0.440799,0.266253,0.187377,0.149478,0.412411,0.271821,0.295549,0.186563,0.122539,0.30463,0.352074,0.217929,0.195492,0.174535,0.394481,0.270613,0.120836,0.223683,0.139154,0.347015,0.411849,0.200995,0.183203,0.129351,0.439478,0.448975,0.401576,0.230709,0.206773,0.786238,0.475134,0.332744,0.116382,0.125748,0.55713,0.735136,0.517929,0.165621,0.087496,0.890041,0.997084,0.542495,0.239655,0.283105
1769163894.316298,1769163894.31757,79.0,0.0,4297.05127,4276.410156,4328.717773,4371.538574,4263.717773,4290.512695,4307.820313,4309.358887,4282.692383,4263.077148,4589.230957,4547.436035,4437.307617,4541.025879,,,,,,,,,,,,,,,,,,,,,,,,,,,,,,,,,,,,,,,,,,,,,,,,,,,,,,,,,,,,,,,,,,,,,,
1769163894.324107,1769163894.325179,80.0,0.0,4294.615234,4277.05127,4318.205078,4371.410156,4263.205078,4279.743652,4298.717773,4312.307617,4284.871582,4267.307617,4588.846191,4539.102539,4435.769043,4538.077148,,,,,,,,,,,,,,,,,,,,,,,,,,,,,,,,,,,,,,,,,,,,,,,,,,,,,,,,,,,,,,,,,,,,,,
1769163894.331915,1769163894.332987,81.0,0.0,4293.589844,4278.846191,4309.102539,4367.820313,4263.205078,4282.820313,4297.179688,4312.692383,4289.871582,4279.358887,4587.436035,4532.307617,4427.94873,4526.922852,,,,,,,,,,,,,,,,,,,,,,,,,,,,,,,,,,,,,,,,,,,,,,,,,,,,,,,,,,,,,,,,,,,,,,
1769163894.339723,1769163894.340696,82.0,0.0,4290.256348,4279.615234,4308.974121,4365.641113,4264.102539,4289.230957,4300.897461,4310.384766,4283.333496,4277.820313,4588.077148,4535.769043,4433.717773,4528.205078,,,,,,,,,,,,,,,,,,,,,,,,,,,,,,,,,,,,,,,,,,,,,,,,,,,,,,,,,,,,,,,,,,,,,,
1769163894.347532,1769163894.348504,83.0,0.0,4295.384766,4280.641113,4315.256348,4367.692383,4264.230957,4280.256348,4296.025879,4310.512695,4277.692383,4268.205078,4588.461426,4541.538574,4442.436035,4540.641113,,,,,,,,,,,,,,,,,,,,,,,,,,,,,,,,,,,,,,,,,,,,,,,,,,,,,,,,,,,,,,,,,,,,,,
1769163894.35534,1769163894.356113,84.0,0.0,4305.512695,4281.666504,4321.538574,4371.794922,4263.974121,4278.461426,4294.102539,4311.025879,4280.769043,4265.384766,4585.897461,4542.05127,4433.461426,4536.922852,,,,,,,,,,,,,,,,,,,,,,,,,,,,,,,,,,,,,,,,,,,,,,,,,,,,,,,,,,,,,,,,,,,,,,
1769163894.363149,1769163894.363921,85.0,0.0,4309.615234,4285.641113,4321.025879,4372.436035,4263.846191,4287.563965,4302.179688,4310.512695,4282.179688,4266.025879,4583.974121,4540.512695,4422.307617,4527.94873,,,,,,,,,,,,,,,,,,,,,,,,,,,,,,,,,,,,,,,,,,,,,,,,,,,,,,,,,,,,,,,,,,,,,,
1769163894.370957,1769163894.37183,86.0,0.0,4304.487305,4286.538574,4312.94873,4366.153809,4264.102539,4286.025879,4305.641113,4310.641113,4281.025879,4266.410156,4584.743652,4539.487305,4427.436035,4531.410156,,,,,,,,,,,,,,,,,,,,,,,,,,,,,,,,,,,,,,,,,,,,,,,,,,,,,,,,,,,,,,,,,,,,,,
1769163894.378766,1769163894.379638,87.0,0.0,4296.410156,4280.769043,4307.692383,4361.666504,4263.974121,4282.307617,4305.897461,4313.333496,4284.102539,4264.230957,4581.922852,4537.563965,4428.077148,4528.077148,,,,,,,,,,,,,,,,,,,,,,,,,,,,,,,,,,,,,,,,,,,,,,,,,,,,,,,,,,,,,,,,,,,,,,
1769163894.386574,1769163894.387247,88.0,0.0,4296.153809,4277.307617,4305.128418,4360.384766,4263.205078,4289.230957,4308.461426,4311.538574,4289.615234,4261.025879,4576.282227,4536.538574,4416.282227,4521.282227,,,,,,,,,,,,,,,,,,,,,,,,,,,,,,,,,,,,,,,,,,,,,,,,,,,,,,,,,,,,,,,,,,,,,,
1769163894.394383,1769163894.395055,89.0,0.0,4292.820313,4270.897461,4298.333496,4348.974121,4262.307617,4298.077148,4311.410156,4311.922852,4295.128418,4264.358887,4578.717773,4536.922852,4414.358887,4523.205078,,,,,,,,,,,,,,,,,,,,,,,,,,,,,,,,,,,,,,,,,,,,,,,,,,,,,,,,,,,,,,,,,,,,,,
1769163894.402191,1769163894.402764,90.0,0.0,4287.692383,4263.205078,4297.307617,4339.102539,4261.922852,4298.461426,4314.487305,4320.769043,4298.333496,4273.589844,4585.897461,4537.563965,4420.769043,4522.820313,,,,,,,,,,,,,,,,,,,,,,,,,,,,,,,,,,,,,,,,,,,,,,,,,,,,,,,,,,,,,,,,,,,,,,
1769163894.409999,1769163894.410572,91.0,0.0,4299.615234,4273.846191,4305.0,4348.846191,4265.0,4286.025879,4307.05127,4319.358887,4296.794922,4282.94873,4588.846191,4540.512695,4435.0,4527.05127,,,,,,,,,,,,,,,,,,,,,,,,,,,,,,,,,,,,,,,,,,,,,,,,,,,,,,,,,,,,,,,,,,,,,,
1769163894.417808,1769163894.418181,92.0,0.0,4309.871582,4292.94873,4309.871582,4357.436035,4269.487305,4277.307617,4296.794922,4307.820313,4291.922852,4284.615234,4588.077148,4541.538574,4443.205078,4538.077148,,,,,,,,,,,,,,,,,,,,,,,,,,,,,,,,,,,,,,,,,,,,,,,,,,,,,,,,,,,,,,,,,,,,,,
1769163894.425617,1769163894.425989,93.0,0.0,4297.94873,4292.05127,4307.563965,4350.0,4272.436035,4283.333496,4302.563965,4307.563965,4290.0,4278.846191,4587.820313,4538.717773,4434.358887,4538.461426,,,,,,,,,,,,,,,,,,,,,,,,,,,,,,,,,,,,,,,,,,,,,,,,,,,,,,,,,,,,,,,,,,,,,,
1769163894.433425,1769163894.433898,94.0,0.0,4291.794922,4287.692383,4307.05127,4347.05127,4271.922852,4286.794922,4312.436035,4311.922852,4289.230957,4274.615234,4587.05127,4535.128418,4426.666504,4527.563965,0.930692,0.35741,0.519457,0.196335,0.225488,0.744457,0.401994,0.432556,0.127946,0.142741,0.687659,0.231515,0.157598,0.09544,0.081777,0.510219,0.30561,0.318385,0.093776,0.130983,0.72102,0.259812,0.524403,0.082305,0.037368,1.085285,0.541902,0.276195,0.204164,0.154083,0.464977,0.279811,0.291136,0.208171,0.125539,0.268995,0.374629,0.249279,0.23286,0.182067,0.408394,0.320601,0.138533,0.266568,0.142703,0.373088,0.32146,0.263704,0.193053,0.128534,0.35573,0.331814,0.486572,0.211918,0.207741,0.662946,0.384142,0.392036,0.1136,0.121128,0.45491,0.582414,0.649918,0.149105,0.08114,0.929958,0.802199,0.57158,0.230481,0.285134
1769163894.441234,1769163894.441706,95.0,0.0,4302.820313,4292.820313,4310.769043,4351.794922,4268.717773,4280.641113,4306.538574,4310.0,4291.153809,4278.077148,4588.077148,4539.743652,4429.871582,4521.794922,,,,,,,,,,,,,,,,,,,,,,,,,,,,,,,,,,,,,,,,,,,,,,,,,,,,,,,,,,,,,,,,,,,,,,
1769163894.449042,1769163894.449714,96.0,0.0,4306.922852,4289.743652,4312.94873,4347.05127,4266.794922,4277.820313,4300.256348,4309.358887,4293.589844,4279.230957,4591.666504,4547.436035,4431.538574,4531.666504,,,,,,,,,,,,,,,,,,,,,,,,,,,,,,,,,,,,,,,,,,,,,,,,,,,,,,,,,,,,,,,,,,,,,,
1769163894.45685,1769163894.457523,97.0,0.0,4301.538574,4282.179688,4310.641113,4341.410156,4267.05127,4280.0,4303.077148,4308.717773,4288.717773,4271.666504,4589.743652,4545.0,4428.846191,4536.666504,,,,,,,,,,,,,,,,,,,,,,,,,,,,,,,,,,,,,,,,,,,,,,,,,,,,,,,,,,,,,,,,,,,,,,
1769163894.464659,1769163894.465431,98.0,0.0,4296.538574,4281.282227,4308.461426,4342.307617,4265.512695,4281.153809,4303.333496,4311.538574,4290.0,4268.333496,4585.256348,4539.102539,4429.230957,4528.717773,,,,,,,,,,,,,,,,,,,,,,,,,,,,,,,,,,,,,,,,,,,,,,,,,,,,,,,,,,,,,,,,,,,,,,
1769163894.472467,1769163894.473239,99.0,0.0,4294.871582,4283.077148,4307.820313,4341.410156,4264.615234,4281.666504,4303.077148,4321.410156,4294.871582,4269.615234,4586.282227,4539.358887,4426.282227,4529.358887,,,,,,,,,,,,,,,,,,,,,,,,,,,,,,,,,,,,,,,,,,,,,,,,,,,,,,,,,,,,,,,,,,,,,,
1769163894.480276,1769163894.481248,100.0,0.0,4295.256348,4281.282227,4305.0,4335.769043,4269.615234,4287.436035,4308.205078,4325.512695,4286.922852,4265.897461,4583.974121,4538.333496,4416.666504,4530.769043,,,,,,,,,,,,,,,,,,,,,,,,,,,,,,,,,,,,,,,,,,,,,,,,,,,,,,,,,,,,,,,,,,,,,,
1769163894.488084,1769163894.489056,101.0,0.0,4295.256348,4281.410156,4306.282227,4335.897461,4272.436035,4293.077148,4309.615234,4324.871582,4283.461426,4266.410156,4580.384766,4536.025879,4417.94873,4522.692383,,,,,,,,,,,,,,,,,,,,,,,,,,,,,,,,,,,,,,,,,,,,,,,,,,,,,,,,,,,,,,,,,,,,,,
1769163894.495893,1769163894.496765,102.0,0.0,4295.0,4281.538574,4310.641113,4339.358887,4266.794922,4291.538574,4309.743652,4328.974121,4296.922852,4272.05127,4586.153809,4540.384766,4427.307617,4530.0,,,,,,,,,,,,,,,,,,,,,,,,,,,,,,,,,,,,,,,,,,,,,,,,,,,,,,,,,,,,,,,,,,,,,,
1769163894.503701,1769163894.504573,103.0,0.0,4295.256348,4279.615234,4311.025879,4337.307617,4262.692383,4288.077148,4312.436035,4330.128418,4299.487305,4268.717773,4590.384766,4543.846191,4426.153809,4538.717773,,,,,,,,,,,,,,,,,,,,,,,,,,,,,,,,,,,,,,,,,,,,,,,,,,,,,,,,,,,,,,,,,,,,,,
1769163894.51151,1769163894.512581,104.0,0.0,4298.717773,4283.077148,4308.589844,4337.563965,4265.512695,4281.153809,4305.641113,4318.846191,4283.589844,4263.205078,4583.717773,4538.846191,4420.256348,4526.538574,,,,,,,,,,,,,,,,,,,,,,,,,,,,,,,,,,,,,,,,,,,,,,,,,,,,,,,,,,,,,,,,,,,,,,
1769163894.519318,1769163894.52039,105.0,0.0,4306.153809,4288.461426,4310.128418,4343.333496,4268.461426,4268.205078,4292.820313,4309.102539,4278.974121,4270.769043,4585.384766,4538.589844,4424.871582,4526.025879,,,,,,,,,,,,,,,,,,,,,,,,,,,,,,,,,,,,,,,,,,,,,,,,,,,,,,,,,,,,,,,,,,,,,,
1769163894.527126,1769163894.528098,106.0,0.0,4312.307617,4292.179688,4317.563965,4345.128418,4266.410156,4261.922852,4291.666504,4311.153809,4283.333496,4279.487305,4597.179688,4545.769043,4431.922852,4545.256348,,,,,,,,,,,,,,,,,,,,,,,,,,,,,,,,,,,,,,,,,,,,,,,,,,,,,,,,,,,,,,,,,,,,,,
1769163894.534935,1769163894.535907,107.0,0.0,4315.128418,4295.769043,4321.410156,4342.692383,4265.128418,4268.205078,4296.410156,4317.94873,4280.128418,4276.666504,4598.077148,4547.179688,4430.0,4544.871582,,,,,,,,,,,,,,,,,,,,,,,,,,,,,,,,,,,,,,,,,,,,,,,,,,,,,,,,,,,,,,,,,,,,,,
1769163894.542743,1769163894.543515,108.0,0.0,4310.0,4292.692383,4316.153809,4343.205078,4266.025879,4275.128418,4297.692383,4323.333496,4282.05127,4270.384766,4588.974121,4539.230957,4423.077148,4527.179688,,,,,,,,,,,,,,,,,,,,,,,,,,,,,,,,,,,,,,,,,,,,,,,,,,,,,,,,,,,,,,,,,,,,,,
1769163894.550552,1769163894.551324,109.0,0.0,4299.743652,4284.871582,4309.358887,4343.589844,4266.410156,4277.820313,4300.641113,4326.794922,4291.538574,4268.205078,4584.871582,4532.436035,4415.256348,4521.153809,,,,,,,,,,,,,,,,,,,,,,,,,,,,,,,,,,,,,,,,,,,,,,,,,,,,,,,,,,,,,,,,,,,,,,
1769163894.55836,1769163894.559032,110.0,0.0,4295.0,4277.179688,4310.384766,4337.563965,4265.769043,4277.307617,4305.641113,4326.922852,4290.512695,4268.077148,4587.436035,4532.307617,4413.974121,4527.179688,0.952908,0.40484,0.550367,0.20354,0.216301,0.727246,0.446709,0.449073,0.130159,0.151899,0.749694,0.256865,0.168416,0.098734,0.081675,0.49927,0.308493,0.339899,0.094963,0.131937,0.666696,0.312633,0.533159,0.07465,0.037365,1.183455,0.625306,0.296156,0.212721,0.152925,0.484618,0.297177,0.303553,0.225858,0.129789,0.262767,0.390087,0.276157,0.260459,0.185809,0.458722,0.362584,0.168103,0.29603,0.144498,0.40962,0.258286,0.337948,0.200448,0.127854,0.357258,0.225016,0.571416,0.1927,0.204981,0.687607,0.309348,0.47435,0.122566,0.12167,0.404965,0.43493,0.810788,0.150355,0.082739,0.948958,0.621033,0.61384,0.232323,0.281181
1769163894.566169,1769163894.566841,111.0,0.0,4289.487305,4270.256348,4309.358887,4330.897461,4265.128418,4277.307617,4306.794922,4327.94873,4281.282227,4266.922852,4587.94873,4530.897461,4415.641113,4526.794922,,,,,,,,,,,,,,,,,,,,,,,,,,,,,,,,,,,,,,,,,,,,,,,,,,,,,,,,,,,,,,,,,,,,,,
1769163894.573977,1769163894.574849,112.0,0.0,4279.358887,4268.589844,4300.897461,4328.846191,4266.153809,4280.512695,4306.538574,4328.974121,4280.512695,4262.692383,4581.025879,4524.358887,4406.410156,4518.717773,,,,,,,,,,,,,,,,,,,,,,,,,,,,,,,,,,,,,,,,,,,,,,,,,,,,,,,,,,,,,,,,,,,,,,
1769163894.581786,1769163894.582658,113.0,0.0,4279.871582,4273.846191,4298.205078,4332.05127,4265.384766,4277.94873,4302.94873,4318.205078,4278.974121,4259.358887,4573.333496,4518.974121,4400.512695,4517.94873,,,,,,,,,,,,,,,,,,,,,,,,,,,,,,,,,,,,,,,,,,,,,,,,,,,,,,,,,,,,,,,,,,,,,,
1769163894.589594,1769163894.590366,114.0,0.0,4289.230957,4277.05127,4302.563965,4334.102539,4262.94873,4274.230957,4302.307617,4311.666504,4279.102539,4260.384766,4570.0,4519.743652,4405.897461,4523.846191,,,,,,,,,,,,,,,,,,,,,,,,,,,,,,,,,,,,,,,,,,,,,,,,,,,,,,,,,,,,,,,,,,,,,,
1769163894.597402,1769163894.598175,115.0,0.0,4291.666504,4276.666504,4303.077148,4330.769043,4262.436035,4279.230957,4308.589844,4321.025879,4285.128418,4260.128418,4570.128418,4521.922852,4405.769043,4521.410156,,,,,,,,,,,,,,,,,,,,,,,,,,,,,,,,,,,,,,,,,,,,,,,,,,,,,,,,,,,,,,,,,,,,,,
1769163894.605211,1769163894.605783,116.0,0.0,4290.512695,4277.563965,4303.461426,4329.615234,4264.358887,4278.333496,4305.512695,4321.666504,4281.922852,4260.769043,4575.512695,4523.205078,4405.512695,4520.128418,,,,,,,,,,,,,,,,,,,,,,,,,,,,,,,,,,,,,,,,,,,,,,,,,,,,,,,,,,,,,,,,,,,,,,
1769163894.613019,1769163894.613592,117.0,0.0,4294.871582,4279.743652,4310.641113,4339.358887,4271.282227,4266.282227,4292.563965,4310.641113,4276.410156,4265.641113,4586.538574,4525.897461,4421.025879,4534.487305,,,,,,,,,,,,,,,,,,,,,,,,,,,,,,,,,,,,,,,,,,,,,,,,,,,,,,,,,,,,,,,,,,,,,,
1769163894.620828,1769163894.6213,118.0,0.0,4298.333496,4284.358887,4314.743652,4346.666504,4276.666504,4262.05127,4288.589844,4311.538574,4280.128418,4268.974121,4590.641113,4525.769043,4429.102539,4541.794922,,,,,,,,,,,,,,,,,,,,,,,,,,,,,,,,,,,,,,,,,,,,,,,,,,,,,,,,,,,,,,,,,,,,,,
1769163894.628636,1769163894.629109,119.0,0.0,4298.846191,4287.436035,4312.692383,4341.922852,4271.794922,4267.179688,4293.589844,4315.512695,4281.538574,4267.179688,4586.282227,4525.128418,4416.538574,4527.94873,,,,,,,,,,,,,,,,,,,,,,,,,,,,,,,,,,,,,,,,,,,,,,,,,,,,,,,,,,,,,,,,,,,,,,
1769163894.636445,1769163894.637117,120.0,0.0,4298.077148,4283.205078,4311.666504,4338.974121,4263.717773,4266.410156,4295.512695,4312.94873,4280.0,4266.538574,4584.615234,4523.589844,4411.538574,4521.410156,,,,,,,,,,,,,,,,,,,,,,,,,,,,,,,,,,,,,,,,,,,,,,,,,,,,,,,,,,,,,,,,,,,,,,
1769163894.644253,1769163894.644925,121.0,0.0,4295.384766,4277.307617,4309.871582,4339.615234,4262.179688,4264.871582,4296.025879,4316.666504,4282.820313,4265.897461,4583.717773,4520.769043,4415.641113,4527.179688,,,,,,,,,,,,,,,,,,,,,,,,,,,,,,,,,,,,,,,,,,,,,,,,,,,,,,,,,,,,,,,,,,,,,,
1769163894.652062,1769163894.652834,122.0,0.0,4291.538574,4275.384766,4307.307617,4335.0,4263.205078,4267.94873,4297.563965,4320.256348,4283.589844,4263.333496,4583.077148,4521.410156,4413.205078,4529.102539,,,,,,,,,,,,,,,,,,,,,,,,,,,,,,,,,,,,,,,,,,,,,,,,,,,,,,,,,,,,,,,,,,,,,,
1769163894.65987,1769163894.660642,123.0,0.0,4293.205078,4281.666504,4308.974121,4335.256348,4263.461426,4265.769043,4295.897461,4313.717773,4280.256348,4262.820313,4580.897461,4517.563965,4412.05127,4522.436035,,,,,,,,,,,,,,,,,,,,,,,,,,,,,,,,,,,,,,,,,,,,,,,,,,,,,,,,,,,,,,,,,,,,,,
1769163894.667678,1769163894.66865,124.0,0.0,4297.94873,4286.794922,4311.025879,4338.205078,4265.897461,4267.307617,4297.179688,4308.589844,4277.05127,4263.461426,4574.615234,4507.05127,4414.871582,4513.205078,,,,,,,,,,,,,,,,,,,,,,,,,,,,,,,,,,,,,,,,,,,,,,,,,,,,,,,,,,,,,,,,,,,,,,
1769163894.675487,1769163894.676459,125.0,0.0,4290.897461,4280.256348,4309.230957,4334.102539,4266.025879,4276.025879,4299.615234,4315.897461,4279.487305,4259.743652,4575.512695,4508.846191,4412.692383,4512.179688,,,,,,,,,,,,,,,,,,,,,,,,,,,,,,,,,,,,,,,,,,,,,,,,,,,,,,,,,,,,,,,,,,,,,,
1769163894.683295,1769163894.684267,126.0,0.0,4287.94873,4277.436035,4312.94873,4335.128418,4264.743652,4274.102539,4297.307617,4321.025879,4285.0,4262.436035,4585.128418,4521.410156,4414.102539,4523.205078,0.970172,0.434192,0.555408,0.216393,0.208793,0.670794,0.476192,0.458931,0.137541,0.164953,0.769359,0.273256,0.177997,0.111096,0.089962,0.502218,0.293836,0.353224,0.102193,0.130937,0.578751,0.362624,0.506986,0.066589,0.036738,1.163792,0.681303,0.319526,0.209749,0.146881,0.468477,0.326887,0.321542,0.230901,0.133476,0.256332,0.395238,0.288412,0.274179,0.182191,0.496981,0.391592,0.207547,0.305743,0.141682,0.437446,0.228093,0.404731,0.202189,0.129125,0.384385,0.150647,0.622936,0.175713,0.196103,0.752125,0.270306,0.557881,0.142556,0.124044,0.406754,0.329908,0.936101,0.16809,0.091004,0.939277,0.493675,0.65436,0.249103,0.277524
1769163894.691104,1769163894.692076,127.0,0.0,4303.077148,4292.05127,4321.410156,4344.743652,4268.205078,4261.282227,4293.461426,4313.717773,4282.436035,4274.102539,4593.461426,4525.0,4426.282227,4535.769043,,,,,,,,,,,,,,,,,,,,,,,,,,,,,,,,,,,,,,,,,,,,,,,,,,,,,,,,,,,,,,,,,,,,,,
1769163894.698912,1769163894.700084,0.0,0.0,4309.871582,4297.692383,4322.692383,4345.256348,4270.897461,4257.563965,4292.563965,4308.077148,4278.077148,4274.487305,4593.974121,4520.769043,4432.436035,4538.589844,,,,,,,,,,,,,,,,,,,,,,,,,,,,,,,,,,,,,,,,,,,,,,,,,,,,,,,,,,,,,,,,,,,,,,
1769163894.706721,1769163894.707892,1.0,0.0,4297.436035,4284.358887,4318.205078,4338.589844,4273.077148,4264.743652,4295.0,4311.025879,4281.282227,4266.410156,4589.102539,4518.333496,4427.436035,4532.179688,,,,,,,,,,,,,,,,,,,,,,,,,,,,,,,,,,,,,,,,,,,,,,,,,,,,,,,,,,,,,,,,,,,,,,
1769163894.714529,1769163894.715601,2.0,0.0,4294.743652,4279.871582,4317.05127,4341.794922,4275.512695,4266.282227,4296.538574,4313.461426,4284.358887,4271.282227,4588.974121,4525.0,4425.128418,4527.05127,,,,,,,,,,,,,,,,,,,,,,,,,,,,,,,,,,,,,,,,,,,,,,,,,,,,,,,,,,,,,,,,,,,,,,
1769163894.722338,1769163894.723409,3.0,0.0,4301.538574,4282.436035,4316.410156,4342.94873,4271.666504,4265.0,4296.153809,4311.153809,4281.282227,4274.615234,4589.871582,4527.307617,4422.307617,4527.436035,,,,,,,,,,,,,,,,,,,,,,,,,,,,,,,,,,,,,,,,,,,,,,,,,,,,,,,,,,,,,,,,,,,,,,
1769163894.730146,1769163894.731018,4.0,0.0,4293.333496,4273.077148,4309.230957,4330.769043,4262.820313,4266.410156,4296.538574,4309.358887,4278.717773,4260.256348,4577.94873,4506.410156,4412.820313,4525.512695,,,,,,,,,,,,,,,,,,,,,,,,,,,,,,,,,,,,,,,,,,,,,,,,,,,,,,,,,,,,,,,,,,,,,,
1769163894.737955,1769163894.738827,5.0,0.0,4285.897461,4268.717773,4306.666504,4325.769043,4262.692383,4264.230957,4296.282227,4310.641113,4279.230957,4255.0,4569.615234,4489.743652,4410.512695,4519.743652,,,,,,,,,,,,,,,,,,,,,,,,,,,,,,,,,,,,,,,,,,,,,,,,,,,,,,,,,,,,,,,,,,,,,,
1769163894.745763,1769163894.746535,6.0,0.0,4293.077148,4279.487305,4313.205078,4339.487305,4271.282227,4261.410156,4294.487305,4311.153809,4279.358887,4264.230957,4579.743652,4502.179688,4417.05127,4521.025879,,,,,,,,,,,,,,,,,,,,,,,,,,,,,,,,,,,,,,,,,,,,,,,,,,,,,,,,,,,,,,,,,,,,,,
1769163894.753572,1769163894.754344,7.0,0.0,4298.077148,4282.436035,4318.461426,4347.307617,4270.256348,4260.256348,4292.820313,4302.436035,4278.717773,4266.025879,4584.743652,4515.897461,4418.846191,4525.0,,,,,,,,,,,,,,,,,,,,,,,,,,,,,,,,,,,,,,,,,,,,,,,,,,,,,,,,,,,,,,,,,,,,,,
1769163894.76138,1769163894.762352,8.0,0.0,4295.512695,4277.820313,4316.922852,4339.230957,4261.794922,4260.0,4293.589844,4294.871582,4278.333496,4262.692383,4577.05127,4505.512695,4415.256348,4524.230957,,,,,,,,,,,,,,,,,,,,,,,,,,,,,,,,,,,,,,,,,,,,,,,,,,,,,,,,,,,,,,,,,,,,,,
1769163894.769189,1769163894.77016,9.0,0.0,4295.641113,4278.846191,4312.94873,4337.179688,4264.871582,4263.333496,4298.205078,4303.589844,4280.384766,4262.692383,4570.384766,4490.769043,4410.769043,4518.589844,,,,,,,,,,,,,,,,,,,,,,,,,,,,,,,,,,,,,,,,,,,,,,,,,,,,,,,,,,,,,,,,,,,,,,
1769163894.776997,1769163894.778069,10.0,0.0,4297.692383,4280.512695,4311.922852,4343.589844,4272.692383,4264.487305,4299.615234,4307.05127,4280.769043,4264.102539,4571.153809,4494.102539,4411.410156,4516.538574,,,,,,,,,,,,,,,,,,,,,,,,,,,,,,,,,,,,,,,,,,,,,,,,,,,,,,,,,,,,,,,,,,,,,,
1769163894.784805,1769163894.785877,11.0,0.0,4295.256348,4279.230957,4311.794922,4338.974121,4267.820313,4258.461426,4295.128418,4300.256348,4279.487305,4264.230957,4578.974121,4506.153809,4416.410156,4522.179688,,,,,,,,,,,,,,,,,,,,,,,,,,,,,,,,,,,,,,,,,,,,,,,,,,,,,,,,,,,,,,,,,,,,,,
1769163894.792614,1769163894.793885,12.0,0.0,4293.461426,4275.128418,4311.666504,4327.179688,4260.256348,4258.461426,4295.256348,4303.717773,4279.743652,4261.794922,4581.794922,4507.820313,4415.0,4525.0,,,,,,,,,,,,,,,,,,,,,,,,,,,,,,,,,,,,,,,,,,,,,,,,,,,,,,,,,,,,,,,,,,,,,,
1769163894.800422,1769163894.801694,13.0,0.0,4294.102539,4272.563965,4311.922852,4327.820313,4264.102539,4262.307617,4297.820313,4305.897461,4280.128418,4259.615234,4572.436035,4500.384766,4412.05127,4522.05127,,,,,,,,,,,,,,,,,,,,,,,,,,,,,,,,,,,,,,,,,,,,,,,,,,,,,,,,,,,,,,,,,,,,,,
1769163894.808231,1769163894.809402,14.0,0.0,4295.256348,4276.666504,4311.538574,4337.820313,4267.692383,4258.205078,4294.615234,4297.436035,4279.230957,4261.538574,4569.743652,4500.897461,4412.692383,4520.897461,0.915997,0.450113,0.532727,0.234528,0.200941,0.584143,0.508829,0.458674,0.149254,0.177753,0.72115,0.288954,0.189531,0.129426,0.104112,0.513204,0.277226,0.349257,0.11554,0.129096,0.477859,0.392827,0.455851,0.059358,0.035511,1.02432,0.717869,0.335436,0.199171,0.138948,0.422519,0.375209,0.330712,0.221043,0.1356,0.233044,0.403449,0.287145,0.27587,0.171427,0.492254,0.408913,0.251713,0.297161,0.134747,0.455684,0.238044,0.44541,0.197361,0.133849,0.404647,0.124384,0.619601,0.161185,0.181335,0.775029,0.269196,0.623257,0.168265,0.125201,0.475029,0.297718,0.974162,0.197235,0.105623,0.864157,0.429769,0.677542,0.279935,0.280438
1769163894.816039,1769163894.817211,15.0,0.0,4295.128418,4279.743652,4313.333496,4340.897461,4266.153809,4257.436035,4292.563965,4294.487305,4278.589844,4264.358887,4579.871582,4505.512695,4414.230957,4528.846191,,,,,,,,,,,,,,,,,,,,,,,,,,,,,,,,,,,,,,,,,,,,,,,,,,,,,,,,,,,,,,,,,,,,,,
1769163894.823848,1769163894.824819,16.0,0.0,4295.0,4277.307617,4316.922852,4338.077148,4265.512695,4266.153809,4297.179688,4297.307617,4279.358887,4263.077148,4586.282227,4508.717773,4417.563965,4540.897461,,,,,,,,,,,,,,,,,,,,,,,,,,,,,,,,,,,,,,,,,,,,,,,,,,,,,,,,,,,,,,,,,,,,,,
1769163894.831656,1769163894.832628,17.0,0.0,4294.230957,4276.282227,4319.487305,4338.077148,4266.794922,4266.794922,4296.410156,4298.974121,4278.717773,4261.410156,4585.256348,4511.410156,4417.692383,4538.589844,,,,,,,,,,,,,,,,,,,,,,,,,,,,,,,,,,,,,,,,,,,,,,,,,,,,,,,,,,,,,,,,,,,,,,
1769163894.839465,1769163894.840536,18.0,0.0,4296.410156,4282.820313,4320.641113,4343.205078,4272.94873,4258.077148,4290.512695,4302.820313,4279.230957,4262.436035,4582.179688,4508.589844,4411.666504,4524.871582,,,,,,,,,,,,,,,,,,,,,,,,,,,,,,,,,,,,,,,,,,,,,,,,,,,,,,,,,,,,,,,,,,,,,,
1769163894.847273,1769163894.848345,19.0,0.0,4297.820313,4282.05127,4318.717773,4342.307617,4278.974121,4257.436035,4291.794922,4308.589844,4285.512695,4263.717773,4580.128418,4504.358887,4409.487305,4521.153809,,,,,,,,,,,,,,,,,,,,,,,,,,,,,,,,,,,,,,,,,,,,,,,,,,,,,,,,,,,,,,,,,,,,,,
1769163894.855081,1769163894.856353,20.0,0.0,4289.743652,4269.615234,4313.846191,4334.615234,4272.563965,4263.077148,4298.589844,4311.666504,4288.846191,4263.461426,4578.846191,4505.256348,4411.666504,4523.974121,,,,,,,,,,,,,,,,,,,,,,,,,,,,,,,,,,,,,,,,,,,,,,,,,,,,,,,,,,,,,,,,,,,,,,
1769163894.86289,1769163894.864161,21.0,0.0,4287.563965,4266.794922,4311.666504,4335.256348,4267.307617,4264.230957,4295.897461,4309.487305,4283.974121,4265.0,4580.897461,4505.0,4412.179688,4522.307617,,,,,,,,,,,,,,,,,,,,,,,,,,,,,,,,,,,,,,,,,,,,,,,,,,,,,,,,,,,,,,,,,,,,,,
1769163894.870698,1769163894.87197,22.0,0.0,4295.512695,4277.563965,4312.307617,4342.307617,4269.487305,4262.436035,4293.974121,4302.563965,4278.461426,4266.794922,4580.512695,4496.666504,4412.179688,4519.743652,,,,,,,,,,,,,,,,,,,,,,,,,,,,,,,,,,,,,,,,,,,,,,,,,,,,,,,,,,,,,,,,,,,,,,
1769163894.878507,1769163894.879778,23.0,0.0,4298.205078,4282.436035,4314.230957,4343.077148,4268.974121,4263.461426,4303.077148,4306.410156,4284.615234,4265.256348,4575.512695,4494.230957,4410.128418,4519.743652,,,,,,,,,,,,,,,,,,,,,,,,,,,,,,,,,,,,,,,,,,,,,,,,,,,,,,,,,,,,,,,,,,,,,,
1769163894.886315,1769163894.887786,24.0,0.0,4296.922852,4279.102539,4320.384766,4342.307617,4270.897461,4264.358887,4303.077148,4311.666504,4293.205078,4266.025879,4575.128418,4502.179688,4408.205078,4521.410156,,,,,,,,,,,,,,,,,,,,,,,,,,,,,,,,,,,,,,,,,,,,,,,,,,,,,,,,,,,,,,,,,,,,,,
1769163894.894124,1769163894.895595,25.0,0.0,4298.589844,4279.871582,4324.615234,4343.974121,4277.563965,4264.871582,4299.358887,4300.512695,4287.94873,4267.94873,4580.897461,4505.256348,4412.436035,4524.102539,,,,,,,,,,,,,,,,,,,,,,,,,,,,,,,,,,,,,,,,,,,,,,,,,,,,,,,,,,,,,,,,,,,,,,
1769163894.901932,1769163894.903303,26.0,0.0,4297.820313,4280.0,4320.384766,4342.05127,4279.230957,4265.512695,4303.077148,4292.692383,4285.0,4267.436035,4588.717773,4505.512695,4419.230957,4528.461426,,,,,,,,,,,,,,,,,,,,,,,,,,,,,,,,,,,,,,,,,,,,,,,,,,,,,,,,,,,,,,,,,,,,,,
1769163894.909741,1769163894.911112,27.0,0.0,4295.769043,4278.846191,4319.102539,4340.0,4277.179688,4263.589844,4302.307617,4296.794922,4288.589844,4266.794922,4584.487305,4507.692383,4418.461426,4526.538574,,,,,,,,,,,,,,,,,,,,,,,,,,,,,,,,,,,,,,,,,,,,,,,,,,,,,,,,,,,,,,,,,,,,,,
1769163894.917549,1769163894.918721,28.0,0.0,4298.333496,4282.563965,4322.563965,4342.179688,4278.077148,4263.717773,4298.846191,4295.641113,4282.179688,4264.871582,4572.820313,4505.641113,4409.871582,4520.512695,,,,,,,,,,,,,,,,,,,,,,,,,,,,,,,,,,,,,,,,,,,,,,,,,,,,,,,,,,,,,,,,,,,,,,
1769163894.925357,1769163894.926529,29.0,0.0,4301.282227,4282.820313,4323.333496,4343.461426,4277.94873,4265.897461,4300.128418,4291.666504,4275.128418,4265.256348,4577.436035,4504.743652,4414.487305,4528.717773,,,,,,,,,,,,,,,,,,,,,,,,,,,,,,,,,,,,,,,,,,,,,,,,,,,,,,,,,,,,,,,,,,,,,,
1769163894.933166,1769163894.934238,30.0,0.0,4306.153809,4279.230957,4325.0,4342.307617,4276.410156,4264.871582,4301.410156,4295.128418,4280.769043,4270.128418,4590.897461,4509.487305,4429.615234,4540.0,0.781618,0.480522,0.49645,0.254513,0.192809,0.486704,0.573083,0.456445,0.164556,0.186055,0.600782,0.314952,0.210407,0.149459,0.118572,0.530667,0.278944,0.330335,0.131291,0.127831,0.378869,0.394698,0.392833,0.054738,0.033991,0.79143,0.756329,0.337184,0.189619,0.132896,0.35872,0.446579,0.324259,0.201419,0.135956,0.193792,0.427991,0.283683,0.270841,0.157753,0.440908,0.418777,0.292104,0.278102,0.12687,0.453341,0.295899,0.449206,0.187101,0.142252,0.400228,0.151971,0.566858,0.148732,0.163796,0.7243,0.296272,0.660302,0.19101,0.125156,0.575253,0.350511,0.912998,0.230939,0.126206,0.751131,0.426582,0.67697,0.317509,0.293245
1769163894.940974,1769163894.942046,31.0,0.0,4311.922852,4280.384766,4328.717773,4345.128418,4276.025879,4263.846191,4302.307617,4298.205078,4284.743652,4273.846191,4589.615234,4510.256348,4427.307617,4529.871582,,,,,,,,,,,,,,,,,,,,,,,,,,,,,,,,,,,,,,,,,,,,,,,,,,,,,,,,,,,,,,,,,,,,,,
1769163894.948783,1769163894.949655,32.0,0.0,4313.846191,4289.230957,4329.871582,4351.282227,4276.025879,4263.974121,4302.563965,4296.153809,4281.282227,4273.205078,4582.307617,4506.025879,4414.871582,4517.94873,,,,,,,,,,,,,,,,,,,,,,,,,,,,,,,,,,,,,,,,,,,,,,,,,,,,,,,,,,,,,,,,,,,,,,
1769163894.956591,1769163894.957463,33.0,0.0,4311.922852,4292.692383,4327.563965,4350.256348,4277.692383,4262.05127,4297.94873,4293.589844,4278.461426,4269.487305,4586.025879,4504.615234,4414.102539,4522.436035,,,,,,,,,,,,,,,,,,,,,,,,,,,,,,,,,,,,,,,,,,,,,,,,,,,,,,,,,,,,,,,,,,,,,,
1769163894.9644,1769163894.965371,34.0,0.0,4312.05127,4285.384766,4327.05127,4344.615234,4278.846191,4260.897461,4295.512695,4293.589844,4280.0,4269.871582,4586.922852,4504.358887,4418.205078,4524.615234,,,,,,,,,,,,,,,,,,,,,,,,,,,,,,,,,,,,,,,,,,,,,,,,,,,,,,,,,,,,,,,,,,,,,,
1769163894.972208,1769163894.97318,35.0,0.0,4309.358887,4279.487305,4322.692383,4342.436035,4280.128418,4261.282227,4296.922852,4295.769043,4291.794922,4277.179688,4585.512695,4504.487305,4415.897461,4522.94873,,,,,,,,,,,,,,,,,,,,,,,,,,,,,,,,,,,,,,,,,,,,,,,,,,,,,,,,,,,,,,,,,,,,,,
1769163894.980017,1769163894.981188,36.0,0.0,4299.230957,4279.102539,4313.589844,4338.717773,4278.333496,4261.538574,4305.384766,4295.384766,4296.282227,4279.743652,4586.922852,4502.692383,4412.563965,4521.666504,,,,,,,,,,,,,,,,,,,,,,,,,,,,,,,,,,,,,,,,,,,,,,,,,,,,,,,,,,,,,,,,,,,,,,
1769163894.987825,1769163894.988997,37.0,0.0,4299.230957,4278.077148,4313.974121,4336.153809,4274.615234,4262.307617,4311.153809,4294.743652,4288.974121,4277.692383,4587.436035,4502.692383,4420.512695,4523.974121,,,,,,,,,,,,,,,,,,,,,,,,,,,,,,,,,,,,,,,,,,,,,,,,,,,,,,,,,,,,,,,,,,,,,,
1769163894.995633,1769163894.996905,38.0,0.0,4312.563965,4277.692383,4323.461426,4340.769043,4275.641113,4262.820313,4301.794922,4295.769043,4288.461426,4276.922852,4588.205078,4508.333496,4427.820313,4531.025879,,,,,,,,,,,,,,,,,,,,,,,,,,,,,,,,,,,,,,,,,,,,,,,,,,,,,,,,,,,,,,,,,,,,,,
1769163895.003442,1769163895.004713,39.0,0.0,4312.94873,4281.282227,4321.666504,4343.205078,4277.94873,4263.589844,4297.307617,4294.743652,4288.333496,4268.333496,4582.94873,4503.846191,4417.692383,4529.487305,,,,,,,,,,,,,,,,,,,,,,,,,,,,,,,,,,,,,,,,,,,,,,,,,,,,,,,,,,,,,,,,,,,,,,
1769163895.01125,1769163895.012322,40.0,0.0,4297.563965,4280.256348,4312.05127,4340.512695,4277.692383,4265.0,4304.743652,4293.974121,4279.487305,4258.974121,4577.436035,4491.538574,4410.769043,4522.692383,,,,,,,,,,,,,,,,,,,,,,,,,,,,,,,,,,,,,,,,,,,,,,,,,,,,,,,,,,,,,,,,,,,,,,
1769163895.019059,1769163895.02013,41.0,0.0,4294.871582,4276.538574,4314.230957,4340.641113,4278.461426,4263.974121,4307.820313,4296.153809,4276.153809,4261.410156,4581.025879,4495.256348,4422.307617,4524.871582,,,,,,,,,,,,,,,,,,,,,,,,,,,,,,,,,,,,,,,,,,,,,,,,,,,,,,,,,,,,,,,,,,,,,,
1769163895.026867,1769163895.027839,42.0,0.0,4307.692383,4286.410156,4324.230957,4344.743652,4281.153809,4263.333496,4307.563965,4296.025879,4286.153809,4266.666504,4588.205078,4506.922852,4428.333496,4528.333496,,,,,,,,,,,,,,,,,,,,,,,,,,,,,,,,,,,,,,,,,,,,,,,,,,,,,,,,,,,,,,,,,,,,,,
1769163895.034676,1769163895.035647,43.0,0.0,4313.205078,4296.922852,4328.205078,4346.794922,4281.410156,4265.256348,4306.538574,4294.102539,4291.666504,4273.205078,4593.077148,4506.538574,4425.897461,4529.615234,,,,,,,,,,,,,,,,,,,,,,,,,,,,,,,,,,,,,,,,,,,,,,,,,,,,,,,,,,,,,,,,,,,,,,
1769163895.042484,1769163895.043656,44.0,0.0,4308.846191,4295.0,4325.384766,4344.358887,4279.358887,4263.461426,4302.307617,4295.256348,4285.384766,4278.461426,4598.589844,4504.102539,4431.025879,4539.358887,,,,,,,,,,,,,,,,,,,,,,,,,,,,,,,,,,,,,,,,,,,,,,,,,,,,,,,,,,,,,,,,,,,,,,
1769163895.050293,1769163895.051464,45.0,0.0,4310.897461,4292.692383,4323.846191,4343.461426,4278.717773,4261.153809,4301.153809,4292.179688,4280.512695,4272.563965,4599.615234,4503.333496,4433.333496,4542.820313,,,,,,,,,,,,,,,,,,,,,,,,,,,,,,,,,,,,,,,,,,,,,,,,,,,,,,,,,,,,,,,,,,,,,,
1769163895.058101,1769163895.059372,46.0,0.0,4312.436035,4290.512695,4323.333496,4344.871582,4278.974121,4263.461426,4306.922852,4284.358887,4281.153809,4265.0,4590.897461,4495.256348,4425.256348,4531.025879,0.633161,0.554631,0.467999,0.271544,0.186061,0.405468,0.682902,0.463784,0.183258,0.187777,0.497958,0.354706,0.249322,0.166122,0.12755,0.541559,0.310838,0.3101,0.14484,0.128856,0.297789,0.368962,0.331329,0.054811,0.033271,0.535916,0.813166,0.324229,0.189126,0.131097,0.300366,0.533845,0.303887,0.180712,0.134326,0.15555,0.46878,0.292982,0.264706,0.146753,0.371509,0.420431,0.318479,0.25744,0.121047,0.452824,0.394255,0.417998,0.174131,0.152337,0.402591,0.226669,0.493419,0.139029,0.148171,0.644004,0.340168,0.667949,0.202716,0.128686,0.705605,0.478832,0.783334,0.262918,0.150088,0.613672,0.473509,0.65651,0.352098,0.31377
1769163895.06591,1769163895.067181,47.0,0.0,4302.179688,4280.641113,4320.512695,4342.820313,4277.307617,4264.743652,4308.717773,4279.487305,4281.153809,4264.615234,4582.820313,4488.717773,4419.615234,4520.897461,,,,,,,,,,,,,,,,,,,,,,,,,,,,,,,,,,,,,,,,,,,,,,,,,,,,,,,,,,,,,,,,,,,,,,
1769163895.073718,1769163895.075189,48.0,0.0,4301.282227,4277.307617,4321.666504,4340.256348,4276.153809,4262.94873,4304.487305,4279.871582,4278.077148,4262.820313,4586.025879,4495.0,4423.205078,4521.922852,,,,,,,,,,,,,,,,,,,,,,,,,,,,,,,,,,,,,,,,,,,,,,,,,,,,,,,,,,,,,,,,,,,,,,
1769163895.081527,1769163895.082998,49.0,0.0,4312.692383,4285.256348,4326.922852,4342.692383,4279.615234,4262.05127,4301.538574,4283.846191,4278.333496,4264.230957,4594.358887,4505.384766,4430.769043,4532.179688,,,,,,,,,,,,,,,,,,,,,,,,,,,,,,,,,,,,,,,,,,,,,,,,,,,,,,,,,,,,,,,,,,,,,,
1769163895.089335,1769163895.090706,50.0,0.0,4315.384766,4285.641113,4328.589844,4343.974121,4280.769043,4261.153809,4303.461426,4291.538574,4283.974121,4269.615234,4598.974121,4510.512695,4432.179688,4538.333496,,,,,,,,,,,,,,,,,,,,,,,,,,,,,,,,,,,,,,,,,,,,,,,,,,,,,,,,,,,,,,,,,,,,,,
1769163895.097144,1769163895.098515,51.0,0.0,4308.205078,4279.487305,4325.769043,4342.05127,4278.205078,4263.205078,4307.307617,4296.025879,4286.666504,4267.94873,4597.307617,4508.461426,4429.358887,4539.487305,,,,,,,,,,,,,,,,,,,,,,,,,,,,,,,,,,,,,,,,,,,,,,,,,,,,,,,,,,,,,,,,,,,,,,
1769163895.104952,1769163895.106123,52.0,0.0,4306.922852,4279.871582,4326.410156,4341.410156,4277.820313,4263.974121,4305.0,4293.717773,4281.922852,4264.615234,4592.179688,4502.436035,4428.846191,4535.769043,,,,,,,,,,,,,,,,,,,,,,,,,,,,,,,,,,,,,,,,,,,,,,,,,,,,,,,,,,,,,,,,,,,,,,
1769163895.11276,1769163895.113932,53.0,0.0,4310.128418,4281.410156,4329.358887,4342.307617,4278.974121,4256.538574,4297.436035,4292.94873,4277.05127,4263.589844,4586.922852,4499.615234,4427.94873,4527.94873,,,,,,,,,,,,,,,,,,,,,,,,,,,,,,,,,,,,,,,,,,,,,,,,,,,,,,,,,,,,,,,,,,,,,,
1769163895.120569,1769163895.12164,54.0,0.0,4309.871582,4280.512695,4329.487305,4343.205078,4279.358887,4256.410156,4297.563965,4294.743652,4277.692383,4265.512695,4587.94873,4503.589844,4426.410156,4529.615234,,,,,,,,,,,,,,,,,,,,,,,,,,,,,,,,,,,,,,,,,,,,,,,,,,,,,,,,,,,,,,,,,,,,,,
1769163895.128377,1769163895.129449,55.0,0.0,4310.897461,4286.666504,4328.077148,4343.846191,4278.846191,4260.0,4300.384766,4295.512695,4283.461426,4275.128418,4595.256348,4508.077148,4429.230957,4537.94873,,,,,,,,,,,,,,,,,,,,,,,,,,,,,,,,,,,,,,,,,,,,,,,,,,,,,,,,,,,,,,,,,,,,,,
1769163895.136186,1769163895.137057,56.0,0.0,4312.179688,4291.282227,4327.94873,4342.692383,4278.846191,4252.820313,4296.153809,4293.974121,4287.05127,4282.563965,4601.282227,4508.205078,4433.589844,4542.05127,,,,,,,,,,,,,,,,,,,,,,,,,,,,,,,,,,,,,,,,,,,,,,,,,,,,,,,,,,,,,,,,,,,,,,
1769163895.143994,1769163895.144866,57.0,0.0,4310.128418,4283.589844,4327.436035,4341.666504,4279.487305,4252.436035,4297.820313,4295.384766,4284.230957,4278.717773,4599.102539,4508.846191,4432.94873,4538.717773,,,,,,,,,,,,,,,,,,,,,,,,,,,,,,,,,,,,,,,,,,,,,,,,,,,,,,,,,,,,,,,,,,,,,,
1769163895.151803,1769163895.152574,58.0,0.0,4308.461426,4278.846191,4325.769043,4343.077148,4279.871582,4258.589844,4305.512695,4294.102539,4278.717773,4273.205078,4589.487305,4503.077148,4428.205078,4528.205078,,,,,,,,,,,,,,,,,,,,,,,,,,,,,,,,,,,,,,,,,,,,,,,,,,,,,,,,,,,,,,,,,,,,,,
1769163895.159611,1769163895.160383,59.0,0.0,4311.025879,4282.563965,4323.589844,4340.897461,4279.102539,4253.717773,4300.641113,4284.230957,4277.563965,4271.410156,4580.128418,4490.641113,4424.102539,4518.461426,,,,,,,,,,,,,,,,,,,,,,,,,,,,,,,,,,,,,,,,,,,,,,,,,,,,,,,,,,,,,,,,,,,,,,
1769163895.16742,1769163895.168391,60.0,0.0,4311.410156,4281.410156,4322.179688,4333.846191,4278.461426,4253.846191,4294.871582,4285.641113,4280.384766,4272.94873,4585.0,4495.0,4429.871582,4529.615234,,,,,,,,,,,,,,,,,,,,,,,,,,,,,,,,,,,,,,,,,,,,,,,,,,,,,,,,,,,,,,,,,,,,,,
1769163895.175228,1769163895.176199,61.0,0.0,4311.666504,4279.102539,4324.487305,4335.769043,4279.743652,4264.102539,4300.641113,4292.307617,4281.794922,4278.461426,4595.256348,4508.589844,4441.153809,4545.641113,,,,,,,,,,,,,,,,,,,,,,,,,,,,,,,,,,,,,,,,,,,,,,,,,,,,,,,,,,,,,,,,,,,,,,
1769163895.183036,1769163895.184108,62.0,0.0,4314.487305,4283.077148,4327.94873,4344.487305,4281.410156,4263.846191,4304.358887,4285.384766,4281.922852,4278.589844,4593.589844,4507.563965,4440.512695,4540.384766,0.522656,0.674286,0.460522,0.280256,0.182175,0.363732,0.824154,0.483649,0.203348,0.183515,0.427856,0.402597,0.308783,0.174616,0.127624,0.537106,0.367701,0.305072,0.152352,0.13313,0.237242,0.322355,0.280793,0.060302,0.034936,0.349798,0.88423,0.299018,0.199153,0.132746,0.257139,0.616569,0.273523,0.165267,0.130345,0.137698,0.512706,0.322995,0.259943,0.142234,0.303814,0.412932,0.325008,0.241012,0.118566,0.448143,0.508871,0.364797,0.161152,0.159836,0.418525,0.334238,0.433267,0.133518,0.139255,0.564101,0.396962,0.648889,0.199996,0.142242,0.814246,0.653581,0.636448,0.288121,0.172894,0.49307,0.561357,0.621631,0.37585,0.336158
1769163895.190845,1769163895.191916,63.0,0.0,4310.0,4280.384766,4325.897461,4338.717773,4280.897461,4260.0,4301.025879,4281.794922,4278.589844,4273.205078,4587.179688,4499.743652,4432.436035,4534.487305,,,,,,,,,,,,,,,,,,,,,,,,,,,,,,,,,,,,,,,,,,,,,,,,,,,,,,,,,,,,,,,,,,,,,,
1769163895.198653,1769163895.199925,64.0,0.0,4304.358887,4276.025879,4322.179688,4328.589844,4279.230957,4259.871582,4297.436035,4293.589844,4281.282227,4275.512695,4590.641113,4503.589844,4434.871582,4540.512695,,,,,,,,,,,,,,,,,,,,,,,,,,,,,,,,,,,,,,,,,,,,,,,,,,,,,,,,,,,,,,,,,,,,,,
1769163895.206462,1769163895.207733,65.0,0.0,4309.102539,4284.487305,4326.025879,4335.384766,4281.794922,4255.0,4296.282227,4295.897461,4289.358887,4280.769043,4596.282227,4510.256348,4439.487305,4543.589844,,,,,,,,,,,,,,,,,,,,,,,,,,,,,,,,,,,,,,,,,,,,,,,,,,,,,,,,,,,,,,,,,,,,,,
1769163895.21427,1769163895.215442,66.0,0.0,4317.307617,4294.102539,4333.205078,4345.0,4283.461426,4260.0,4298.077148,4288.846191,4288.333496,4280.0,4595.128418,4507.94873,4433.077148,4537.94873,,,,,,,,,,,,,,,,,,,,,,,,,,,,,,,,,,,,,,,,,,,,,,,,,,,,,,,,,,,,,,,,,,,,,,
1769163895.222079,1769163895.22325,67.0,0.0,4323.205078,4296.282227,4337.94873,4344.743652,4280.769043,4264.615234,4297.307617,4290.128418,4282.05127,4280.0,4593.589844,4507.820313,4432.307617,4538.077148,,,,,,,,,,,,,,,,,,,,,,,,,,,,,,,,,,,,,,,,,,,,,,,,,,,,,,,,,,,,,,,,,,,,,,
1769163895.229887,1769163895.231258,68.0,0.0,4321.025879,4294.102539,4335.641113,4341.025879,4282.436035,4253.846191,4294.743652,4289.230957,4281.025879,4280.512695,4596.666504,4514.102539,4442.05127,4548.589844,,,,,,,,,,,,,,,,,,,,,,,,,,,,,,,,,,,,,,,,,,,,,,,,,,,,,,,,,,,,,,,,,,,,,,
1769163895.237696,1769163895.239067,69.0,0.0,4312.436035,4290.897461,4328.589844,4337.05127,4287.692383,4252.179688,4298.461426,4287.563965,4283.717773,4280.897461,4601.538574,4514.871582,4444.615234,4551.922852,,,,,,,,,,,,,,,,,,,,,,,,,,,,,,,,,,,,,,,,,,,,,,,,,,,,,,,,,,,,,,,,,,,,,,
1769163895.245504,1769163895.246775,70.0,0.0,4312.05127,4293.333496,4329.102539,4336.922852,4290.641113,4263.974121,4303.846191,4286.410156,4281.794922,4281.282227,4600.641113,4507.563965,4436.282227,4542.820313,,,,,,,,,,,,,,,,,,,,,,,,,,,,,,,,,,,,,,,,,,,,,,,,,,,,,,,,,,,,,,,,,,,,,,
1769163895.253312,1769163895.254584,71.0,0.0,4321.794922,4299.615234,4334.743652,4339.358887,4289.487305,4265.897461,4303.717773,4282.436035,4277.820313,4273.974121,4589.358887,4502.179688,4426.922852,4535.256348,,,,,,,,,,,,,,,,,,,,,,,,,,,,,,,,,,,,,,,,,,,,,,,,,,,,,,,,,,,,,,,,,,,,,,
1769163895.261121,1769163895.262392,72.0,0.0,4327.692383,4300.0,4334.487305,4336.794922,4286.153809,4261.282227,4304.743652,4287.05127,4281.025879,4266.538574,4584.487305,4502.692383,4422.179688,4535.384766,,,,,,,,,,,,,,,,,,,,,,,,,,,,,,,,,,,,,,,,,,,,,,,,,,,,,,,,,,,,,,,,,,,,,,
1769163895.268929,1769163895.270201,73.0,0.0,4324.615234,4294.743652,4332.94873,4333.077148,4285.256348,4263.333496,4308.846191,4293.205078,4283.846191,4272.436035,4593.846191,4505.769043,4426.410156,4540.769043,,,,,,,,,,,,,,,,,,,,,,,,,,,,,,,,,,,,,,,,,,,,,,,,,,,,,,,,,,,,,,,,,,,,,,
1769163895.276738,1769163895.277909,74.0,0.0,4321.282227,4291.153809,4335.897461,4333.205078,4289.743652,4264.871582,4303.589844,4287.692383,4283.589844,4282.563965,4602.436035,4512.179688,4439.358887,4550.512695,,,,,,,,,,,,,,,,,,,,,,,,,,,,,,,,,,,,,,,,,,,,,,,,,,,,,,,,,,,,,,,,,,,,,,
1769163895.284546,1769163895.285718,75.0,0.0,4323.461426,4293.846191,4338.205078,4333.974121,4293.333496,4261.666504,4293.846191,4279.487305,4281.538574,4281.922852,4600.897461,4513.333496,4443.205078,4554.743652,,,,,,,,,,,,,,,,,,,,,,,,,,,,,,,,,,,,,,,,,,,,,,,,,,,,,,,,,,,,,,,,,,,,,,
1769163895.292355,1769163895.293726,76.0,0.0,4328.205078,4302.05127,4338.846191,4337.05127,4293.974121,4256.794922,4292.307617,4279.743652,4283.077148,4278.717773,4598.974121,4511.282227,4441.282227,4552.05127,,,,,,,,,,,,,,,,,,,,,,,,,,,,,,,,,,,,,,,,,,,,,,,,,,,,,,,,,,,,,,,,,,,,,,
1769163895.300163,1769163895.301534,77.0,0.0,4328.077148,4306.538574,4339.871582,4339.487305,4295.512695,4255.128418,4295.0,4283.461426,4289.871582,4281.538574,4602.05127,4517.436035,4443.077148,4552.94873,,,,,,,,,,,,,,,,,,,,,,,,,,,,,,,,,,,,,,,,,,,,,,,,,,,,,,,,,,,,,,,,,,,,,,
1769163895.307972,1769163895.309243,78.0,0.0,4326.538574,4305.384766,4340.897461,4335.256348,4294.358887,4260.512695,4298.077148,4286.538574,4295.128418,4282.563965,4601.666504,4523.717773,4443.461426,4555.384766,0.479006,0.809377,0.472685,0.277895,0.1812,0.360806,0.958767,0.512314,0.221236,0.175657,0.435216,0.446174,0.380897,0.173078,0.119361,0.501691,0.429364,0.326018,0.152238,0.139809,0.196013,0.265669,0.24579,0.070034,0.040002,0.208337,0.940875,0.265505,0.213547,0.134366,0.22587,0.668415,0.237149,0.157235,0.124191,0.159734,0.540516,0.367037,0.255236,0.14391,0.257969,0.393951,0.31161,0.230448,0.118672,0.447152,0.606867,0.306808,0.152798,0.16076,0.456531,0.451494,0.411347,0.136265,0.139891,0.52869,0.463273,0.610131,0.187397,0.168464,0.887286,0.829253,0.519258,0.303675,0.190628,0.400398,0.676761,0.575932,0.387366,0.353275
1769163895.31578,1769163895.317051,79.0,0.0,4329.743652,4302.820313,4339.743652,4329.743652,4291.025879,4262.692383,4303.333496,4288.846191,4294.102539,4278.974121,4598.974121,4525.897461,4443.205078,4558.717773,,,,,,,,,,,,,,,,,,,,,,,,,,,,,,,,,,,,,,,,,,,,,,,,,,,,,,,,,,,,,,,,,,,,,,
1769163895.323588,1769163895.32466,80.0,0.0,4326.538574,4295.128418,4333.077148,4327.05127,4286.922852,4258.461426,4304.615234,4288.077148,4292.05127,4278.589844,4596.410156,4522.94873,4440.128418,4556.922852,,,,,,,,,,,,,,,,,,,,,,,,,,,,,,,,,,,,,,,,,,,,,,,,,,,,,,,,,,,,,,,,,,,,,,
1769163895.331397,1769163895.332468,81.0,0.0,4316.282227,4289.743652,4327.436035,4324.615234,4283.461426,4257.692383,4303.205078,4284.487305,4289.743652,4276.922852,4591.666504,4514.615234,4431.282227,4545.641113,,,,,,,,,,,,,,,,,,,,,,,,,,,,,,,,,,,,,,,,,,,,,,,,,,,,,,,,,,,,,,,,,,,,,,
1769163895.339205,1769163895.340177,82.0,0.0,4310.256348,4289.615234,4324.487305,4322.436035,4280.897461,4263.205078,4307.563965,4279.230957,4280.897461,4268.077148,4584.487305,4505.384766,4423.846191,4538.333496,,,,,,,,,,,,,,,,,,,,,,,,,,,,,,,,,,,,,,,,,,,,,,,,,,,,,,,,,,,,,,,,,,,,,,
1769163895.347014,1769163895.347985,83.0,0.0,4313.333496,4287.563965,4321.025879,4319.743652,4279.615234,4261.025879,4306.282227,4280.897461,4279.871582,4268.077148,4582.179688,4502.307617,4425.769043,4540.641113,,,,,,,,,,,,,,,,,,,,,,,,,,,,,,,,,,,,,,,,,,,,,,,,,,,,,,,,,,,,,,,,,,,,,,
1769163895.354822,1769163895.355994,84.0,0.0,4322.307617,4289.871582,4322.179688,4321.153809,4285.384766,4251.025879,4297.94873,4288.077148,4291.153809,4279.102539,4590.769043,4511.282227,4432.179688,4542.179688,,,,,,,,,,,,,,,,,,,,,,,,,,,,,,,,,,,,,,,,,,,,,,,,,,,,,,,,,,,,,,,,,,,,,,
1769163895.362631,1769163895.363802,85.0,0.0,4324.358887,4296.025879,4325.512695,4325.641113,4289.230957,4247.692383,4296.922852,4291.922852,4297.436035,4281.153809,4598.717773,4524.102539,4434.487305,4542.436035,,,,,,,,,,,,,,,,,,,,,,,,,,,,,,,,,,,,,,,,,,,,,,,,,,,,,,,,,,,,,,,,,,,,,,
1769163895.370439,1769163895.37171,86.0,0.0,4315.128418,4294.102539,4323.717773,4324.358887,4283.205078,4251.922852,4298.974121,4290.128418,4295.897461,4280.256348,4594.615234,4522.692383,4429.871582,4541.410156,,,,,,,,,,,,,,,,,,,,,,,,,,,,,,,,,,,,,,,,,,,,,,,,,,,,,,,,,,,,,,,,,,,,,,
1769163895.378248,1769163895.379519,87.0,0.0,4308.589844,4290.769043,4321.153809,4316.922852,4280.0,4252.436035,4296.025879,4282.692383,4287.307617,4278.077148,4585.384766,4507.436035,4425.0,4531.922852,,,,,,,,,,,,,,,,,,,,,,,,,,,,,,,,,,,,,,,,,,,,,,,,,,,,,,,,,,,,,,,,,,,,,,
1769163895.386056,1769163895.387527,88.0,0.0,4311.666504,4294.102539,4320.641113,4315.641113,4284.230957,4248.589844,4294.615234,4277.563965,4278.333496,4269.487305,4581.538574,4502.820313,4425.769043,4524.102539,,,,,,,,,,,,,,,,,,,,,,,,,,,,,,,,,,,,,,,,,,,,,,,,,,,,,,,,,,,,,,,,,,,,,,
1769163895.393865,1769163895.395335,89.0,0.0,4312.436035,4294.743652,4319.487305,4319.743652,4283.205078,4252.05127,4299.615234,4278.717773,4279.487305,4270.256348,4581.922852,4508.205078,4426.538574,4525.897461,,,,,,,,,,,,,,,,,,,,,,,,,,,,,,,,,,,,,,,,,,,,,,,,,,,,,,,,,,,,,,,,,,,,,,
1769163895.401673,1769163895.403244,90.0,0.0,4307.94873,4292.436035,4318.846191,4318.077148,4281.666504,4259.871582,4301.666504,4278.974121,4280.769043,4276.922852,4581.922852,4505.512695,4425.641113,4525.384766,,,,,,,,,,,,,,,,,,,,,,,,,,,,,,,,,,,,,,,,,,,,,,,,,,,,,,,,,,,,,,,,,,,,,,
1769163895.409482,1769163895.411052,91.0,0.0,4309.743652,4299.102539,4319.615234,4318.717773,4289.102539,4258.077148,4297.179688,4278.205078,4277.179688,4275.256348,4584.358887,4501.922852,4427.436035,4523.589844,,,,,,,,,,,,,,,,,,,,,,,,,,,,,,,,,,,,,,,,,,,,,,,,,,,,,,,,,,,,,,,,,,,,,,
1769163895.41729,1769163895.418661,92.0,0.0,4314.230957,4306.922852,4320.256348,4326.794922,4298.461426,4253.333496,4293.846191,4280.512695,4283.333496,4275.769043,4586.282227,4505.256348,4428.077148,4527.05127,,,,,,,,,,,,,,,,,,,,,,,,,,,,,,,,,,,,,,,,,,,,,,,,,,,,,,,,,,,,,,,,,,,,,,
1769163895.425099,1769163895.426469,93.0,0.0,4310.512695,4300.256348,4316.410156,4325.512695,4295.128418,4257.94873,4300.769043,4281.025879,4286.922852,4279.487305,4583.077148,4504.871582,4424.743652,4525.769043,,,,,,,,,,,,,,,,,,,,,,,,,,,,,,,,,,,,,,,,,,,,,,,,,,,,,,,,,,,,,,,,,,,,,,
1769163895.432907,1769163895.434378,94.0,0.0,4308.589844,4290.641113,4312.307617,4317.307617,4283.846191,4258.846191,4305.641113,4280.256348,4279.615234,4278.077148,4581.410156,4501.282227,4422.94873,4524.230957,0.497882,0.911991,0.488757,0.267014,0.181716,0.379844,1.044773,0.537576,0.234067,0.16692,0.483084,0.473602,0.446491,0.163041,0.106251,0.437692,0.469367,0.367039,0.145517,0.146528,0.169325,0.209989,0.225808,0.080964,0.047923,0.152936,0.946421,0.227497,0.221649,0.132437,0.20378,0.670081,0.199308,0.154587,0.117011,0.222782,0.542801,0.407784,0.246413,0.148023,0.232624,0.365473,0.284745,0.223681,0.119832,0.447891,0.659524,0.259353,0.153551,0.153248,0.504697,0.552179,0.427776,0.152525,0.149349,0.527322,0.53542,0.55988,0.177556,0.203444,0.895614,0.954865,0.448794,0.310103,0.200854,0.34202,0.80137,0.52205,0.39368,0.358668
1769163895.440715,1769163895.442186,95.0,0.0,4320.256348,4297.94873,4317.563965,4320.256348,4283.461426,4248.717773,4296.794922,4281.282227,4286.666504,4280.512695,4585.897461,4504.871582,4426.410156,4534.487305,,,,,,,,,,,,,,,,,,,,,,,,,,,,,,,,,,,,,,,,,,,,,,,,,,,,,,,,,,,,,,,,,,,,,,
1769163895.448524,1769163895.449995,96.0,0.0,4327.179688,4309.102539,4320.897461,4329.230957,4293.333496,4243.974121,4287.436035,4279.358887,4297.563965,4283.846191,4589.743652,4510.641113,4429.743652,4542.05127,,,,,,,,,,,,,,,,,,,,,,,,,,,,,,,,,,,,,,,,,,,,,,,,,,,,,,,,,,,,,,,,,,,,,,
1769163895.456332,1769163895.457803,97.0,0.0,4317.692383,4304.871582,4311.794922,4325.641113,4293.205078,4250.128418,4291.153809,4277.179688,4291.025879,4277.820313,4586.666504,4506.666504,4427.820313,4538.333496,,,,,,,,,,,,,,,,,,,,,,,,,,,,,,,,,,,,,,,,,,,,,,,,,,,,,,,,,,,,,,,,,,,,,,
1769163895.464141,1769163895.465512,98.0,0.0,4308.717773,4294.230957,4306.666504,4315.641113,4283.717773,4259.230957,4300.384766,4279.615234,4286.666504,4276.025879,4584.230957,4502.692383,4425.512695,4536.282227,,,,,,,,,,,,,,,,,,,,,,,,,,,,,,,,,,,,,,,,,,,,,,,,,,,,,,,,,,,,,,,,,,,,,,
1769163895.471949,1769163895.47332,99.0,0.0,4305.769043,4292.307617,4309.358887,4315.384766,4281.410156,4265.256348,4300.256348,4280.897461,4289.358887,4280.256348,4586.538574,4504.871582,4428.333496,4539.487305,,,,,,,,,,,,,,,,,,,,,,,,,,,,,,,,,,,,,,,,,,,,,,,,,,,,,,,,,,,,,,,,,,,,,,
1769163895.479758,1769163895.480929,100.0,0.0,4304.358887,4294.871582,4309.615234,4320.256348,4282.179688,4259.102539,4292.820313,4277.563965,4282.307617,4277.820313,4580.641113,4501.794922,4426.538574,4532.307617,,,,,,,,,,,,,,,,,,,,,,,,,,,,,,,,,,,,,,,,,,,,,,,,,,,,,,,,,,,,,,,,,,,,,,
1769163895.487566,1769163895.488737,101.0,0.0,4308.589844,4294.615234,4308.333496,4321.410156,4280.384766,4252.94873,4293.846191,4277.179688,4276.922852,4269.358887,4571.794922,4500.128418,4421.794922,4525.384766,,,,,,,,,,,,,,,,,,,,,,,,,,,,,,,,,,,,,,,,,,,,,,,,,,,,,,,,,,,,,,,,,,,,,,
1769163895.495375,1769163895.496645,102.0,0.0,4314.230957,4294.102539,4306.153809,4323.205078,4278.077148,4257.94873,4300.641113,4279.743652,4279.358887,4265.641113,4574.358887,4500.0,4424.743652,4527.94873,,,,,,,,,,,,,,,,,,,,,,,,,,,,,,,,,,,,,,,,,,,,,,,,,,,,,,,,,,,,,,,,,,,,,,
1769163895.503183,1769163895.504454,103.0,0.0,4312.436035,4294.743652,4305.256348,4324.871582,4280.0,4257.563965,4298.461426,4279.102539,4277.563965,4268.461426,4579.487305,4493.717773,4427.94873,4526.794922,,,,,,,,,,,,,,,,,,,,,,,,,,,,,,,,,,,,,,,,,,,,,,,,,,,,,,,,,,,,,,,,,,,,,,
1769163895.510991,1769163895.512063,104.0,0.0,4311.666504,4301.922852,4309.615234,4325.512695,4286.282227,4248.846191,4294.230957,4278.077148,4277.563965,4274.743652,4581.282227,4496.282227,4427.563965,4529.102539,,,,,,,,,,,,,,,,,,,,,,,,,,,,,,,,,,,,,,,,,,,,,,,,,,,,,,,,,,,,,,,,,,,,,,
1769163895.5188,1769163895.519871,105.0,0.0,4319.230957,4308.589844,4312.436035,4327.436035,4287.179688,4247.820313,4294.615234,4278.589844,4281.538574,4281.153809,4586.666504,4508.846191,4432.05127,4542.179688,,,,,,,,,,,,,,,,,,,,,,,,,,,,,,,,,,,,,,,,,,,,,,,,,,,,,,,,,,,,,,,,,,,,,,
1769163895.526608,1769163895.52758,106.0,0.0,4318.846191,4299.871582,4309.230957,4326.666504,4280.512695,4250.769043,4295.0,4278.717773,4280.256348,4279.487305,4587.179688,4509.743652,4429.487305,4538.846191,,,,,,,,,,,,,,,,,,,,,,,,,,,,,,,,,,,,,,,,,,,,,,,,,,,,,,,,,,,,,,,,,,,,,,
1769163895.534417,1769163895.535388,107.0,0.0,4312.563965,4294.743652,4308.974121,4323.717773,4279.230957,4250.769043,4295.641113,4280.769043,4278.205078,4273.333496,4578.205078,4503.461426,4420.256348,4523.077148,,,,,,,,,,,,,,,,,,,,,,,,,,,,,,,,,,,,,,,,,,,,,,,,,,,,,,,,,,,,,,,,,,,,,,
1769163895.542225,1769163895.542997,108.0,0.0,4316.410156,4306.025879,4312.179688,4328.077148,4288.333496,4254.230957,4294.358887,4279.358887,4278.205078,4272.436035,4577.94873,4504.615234,4425.384766,4528.974121,,,,,,,,,,,,,,,,,,,,,,,,,,,,,,,,,,,,,,,,,,,,,,,,,,,,,,,,,,,,,,,,,,,,,,
1769163895.550034,1769163895.550805,109.0,0.0,4314.102539,4302.563965,4305.769043,4328.974121,4289.743652,4260.128418,4295.128418,4278.333496,4279.487305,4271.666504,4583.846191,4507.94873,4427.820313,4537.179688,,,,,,,,,,,,,,,,,,,,,,,,,,,,,,,,,,,,,,,,,,,,,,,,,,,,,,,,,,,,,,,,,,,,,,
1769163895.557842,1769163895.558514,110.0,0.0,4297.307617,4282.692383,4294.871582,4318.077148,4282.179688,4261.410156,4302.436035,4285.384766,4282.820313,4264.102539,4577.307617,4504.358887,4413.205078,4525.384766,0.530946,0.937324,0.489121,0.255402,0.181977,0.402501,1.062117,0.546113,0.241176,0.1587,0.550278,0.478746,0.483456,0.148951,0.092767,0.349508,0.470834,0.408511,0.134643,0.150655,0.151883,0.162792,0.217103,0.089454,0.056475,0.116889,0.879305,0.192705,0.214163,0.126112,0.178444,0.619802,0.167061,0.153007,0.110334,0.310967,0.522044,0.425041,0.231944,0.149763,0.217558,0.329814,0.253912,0.218437,0.120609,0.450481,0.653491,0.234766,0.166484,0.138926,0.540631,0.614168,0.463173,0.185874,0.164055,0.549374,0.602819,0.502625,0.185793,0.237625,0.840823,0.996689,0.413075,0.31106,0.203476,0.312086,0.906486,0.460764,0.406198,0.350453
1769163895.565651,1769163895.566322,111.0,0.0,4295.897461,4279.743652,4291.922852,4310.128418,4281.025879,4262.307617,4303.333496,4285.512695,4279.871582,4262.179688,4568.205078,4496.410156,4406.410156,4517.692383,,,,,,,,,,,,,,,,,,,,,,,,,,,,,,,,,,,,,,,,,,,,,,,,,,,,,,,,,,,,,,,,,,,,,,
1769163895.573459,1769163895.57433,112.0,0.0,4308.333496,4288.717773,4294.487305,4313.077148,4282.05127,4261.538574,4299.230957,4280.897461,4280.0,4270.384766,4572.307617,4496.025879,4412.94873,4521.538574,,,,,,,,,,,,,,,,,,,,,,,,,,,,,,,,,,,,,,,,,,,,,,,,,,,,,,,,,,,,,,,,,,,,,,
1769163895.581267,1769163895.582139,113.0,0.0,4311.794922,4292.820313,4297.563965,4320.641113,4280.641113,4256.538574,4301.025879,4285.0,4290.384766,4279.358887,4584.102539,4506.666504,4420.384766,4530.641113,,,,,,,,,,,,,,,,,,,,,,,,,,,,,,,,,,,,,,,,,,,,,,,,,,,,,,,,,,,,,,,,,,,,,,
1769163895.589076,1769163895.590047,114.0,0.0,4314.102539,4294.230957,4302.436035,4326.282227,4285.384766,4250.128418,4299.230957,4286.666504,4291.025879,4285.641113,4589.615234,4509.230957,4429.230957,4538.589844,,,,,,,,,,,,,,,,,,,,,,,,,,,,,,,,,,,,,,,,,,,,,,,,,,,,,,,,,,,,,,,,,,,,,,
1769163895.596884,1769163895.597856,115.0,0.0,4319.615234,4296.282227,4306.538574,4328.333496,4295.0,4247.820313,4293.077148,4279.743652,4281.666504,4286.538574,4588.333496,4508.333496,4434.102539,4542.307617,,,,,,,,,,,,,,,,,,,,,,,,,,,,,,,,,,,,,,,,,,,,,,,,,,,,,,,,,,,,,,,,,,,,,,
1769163895.604693,1769163895.605864,116.0,0.0,4323.974121,4302.94873,4309.358887,4328.717773,4296.410156,4249.102539,4295.0,4278.077148,4281.282227,4282.563965,4587.692383,4517.692383,4430.512695,4545.769043,,,,,,,,,,,,,,,,,,,,,,,,,,,,,,,,,,,,,,,,,,,,,,,,,,,,,,,,,,,,,,,,,,,,,,
1769163895.612501,1769163895.613672,117.0,0.0,4327.563965,4307.692383,4313.077148,4327.820313,4292.179688,4250.897461,4295.512695,4279.871582,4282.820313,4278.077148,4586.666504,4518.333496,4429.358887,4546.282227,,,,,,,,,,,,,,,,,,,,,,,,,,,,,,,,,,,,,,,,,,,,,,,,,,,,,,,,,,,,,,,,,,,,,,
1769163895.62031,1769163895.621381,118.0,0.0,4322.692383,4300.512695,4309.615234,4325.641113,4289.743652,4248.077148,4290.512695,4278.205078,4278.974121,4277.94873,4581.666504,4507.179688,4426.922852,4536.922852,,,,,,,,,,,,,,,,,,,,,,,,,,,,,,,,,,,,,,,,,,,,,,,,,,,,,,,,,,,,,,,,,,,,,,
1769163895.628118,1769163895.629189,119.0,0.0,4311.922852,4292.307617,4302.179688,4324.230957,4289.743652,4247.307617,4291.282227,4280.256348,4280.897461,4280.0,4574.743652,4507.179688,4420.769043,4535.384766,,,,,,,,,,,,,,,,,,,,,,,,,,,,,,,,,,,,,,,,,,,,,,,,,,,,,,,,,,,,,,,,,,,,,,
1769163895.635927,1769163895.637098,120.0,0.0,4309.871582,4294.358887,4302.307617,4323.717773,4287.820313,4257.179688,4296.922852,4279.615234,4281.794922,4272.692383,4571.025879,4512.05127,4417.94873,4540.128418,,,,,,,,,,,,,,,,,,,,,,,,,,,,,,,,,,,,,,,,,,,,,,,,,,,,,,,,,,,,,,,,,,,,,,
1769163895.643735,1769163895.644906,121.0,0.0,4311.666504,4294.102539,4304.871582,4322.179688,4282.94873,4264.358887,4301.538574,4279.743652,4277.563965,4262.307617,4571.410156,4507.05127,4415.769043,4533.717773,,,,,,,,,,,,,,,,,,,,,,,,,,,,,,,,,,,,,,,,,,,,,,,,,,,,,,,,,,,,,,,,,,,,,,
1769163895.651544,1769163895.652615,122.0,0.0,4309.487305,4291.025879,4306.282227,4322.563965,4283.205078,4261.666504,4301.794922,4290.0,4279.487305,4262.179688,4570.641113,4505.897461,4411.282227,4527.563965,,,,,,,,,,,,,,,,,,,,,,,,,,,,,,,,,,,,,,,,,,,,,,,,,,,,,,,,,,,,,,,,,,,,,,
1769163895.659352,1769163895.660423,123.0,0.0,4313.333496,4293.077148,4309.871582,4326.538574,4289.358887,4262.307617,4301.153809,4296.282227,4281.666504,4267.692383,4572.563965,4517.94873,4414.102539,4534.871582,,,,,,,,,,,,,,,,,,,,,,,,,,,,,,,,,,,,,,,,,,,,,,,,,,,,,,,,,,,,,,,,,,,,,,
1769163895.66716,1769163895.668032,124.0,0.0,4324.743652,4297.179688,4313.846191,4328.589844,4291.410156,4260.641113,4298.717773,4287.692383,4278.333496,4265.128418,4583.717773,4525.897461,4425.512695,4549.615234,,,,,,,,,,,,,,,,,,,,,,,,,,,,,,,,,,,,,,,,,,,,,,,,,,,,,,,,,,,,,,,,,,,,,,
1769163895.674969,1769163895.67584,125.0,0.0,4327.692383,4298.333496,4312.563965,4327.820313,4288.717773,4248.589844,4288.974121,4278.717773,4278.077148,4264.102539,4590.769043,4523.974121,4430.897461,4557.307617,,,,,,,,,,,,,,,,,,,,,,,,,,,,,,,,,,,,,,,,,,,,,,,,,,,,,,,,,,,,,,,,,,,,,,
1769163895.682777,1769163895.683549,126.0,0.0,4321.025879,4296.153809,4309.743652,4328.205078,4288.846191,4242.94873,4282.692383,4279.358887,4282.436035,4273.717773,4586.922852,4522.436035,4428.846191,4552.05127,0.562415,0.869586,0.469011,0.251962,0.180676,0.435299,1.016936,0.537724,0.244324,0.151342,0.589538,0.463749,0.480187,0.135093,0.082474,0.262986,0.433867,0.429289,0.122143,0.150777,0.149821,0.129106,0.213865,0.093916,0.063194,0.111536,0.741827,0.174392,0.189076,0.117968,0.152263,0.532579,0.153046,0.149838,0.105662,0.397263,0.489202,0.407804,0.215622,0.145768,0.200266,0.293636,0.231306,0.21571,0.120352,0.44775,0.592833,0.243296,0.191562,0.121776,0.542989,0.622856,0.495439,0.235068,0.178533,0.558022,0.651399,0.447846,0.221703,0.259814,0.730508,0.948798,0.391494,0.31134,0.200145,0.326458,0.961569,0.401629,0.431472,0.330384
1769163895.690586,1769163895.691357,127.0,0.0,4322.563965,4293.974121,4309.615234,4328.846191,4289.743652,4247.563965,4287.563965,4280.0,4283.077148,4280.256348,4589.615234,4523.717773,4428.333496,4548.589844,,,,,,,,,,,,,,,,,,,,,,,,,,,,,,,,,,,,,,,,,,,,,,,,,,,,,,,,,,,,,,,,,,,,,,
1769163895.698394,1769163895.699365,0.0,0.0,4320.769043,4292.692383,4310.128418,4327.307617,4289.102539,4247.692383,4294.102539,4279.743652,4280.769043,4281.410156,4598.717773,4523.974121,4431.666504,4551.282227,,,,,,,,,,,,,,,,,,,,,,,,,,,,,,,,,,,,,,,,,,,,,,,,,,,,,,,,,,,,,,,,,,,,,,
1769163895.706203,1769163895.707174,1.0,0.0,4312.179688,4293.461426,4311.282227,4327.179688,4291.666504,4247.94873,4296.153809,4280.769043,4279.743652,4281.666504,4595.128418,4523.589844,4432.436035,4547.692383,,,,,,,,,,,,,,,,,,,,,,,,,,,,,,,,,,,,,,,,,,,,,,,,,,,,,,,,,,,,,,,,,,,,,,
1769163895.714011,1769163895.715082,2.0,0.0,4317.05127,4295.384766,4309.615234,4327.563965,4292.436035,4249.871582,4297.05127,4279.358887,4278.717773,4277.692383,4584.615234,4522.05127,4424.871582,4538.333496,,,,,,,,,,,,,,,,,,,,,,,,,,,,,,,,,,,,,,,,,,,,,,,,,,,,,,,,,,,,,,,,,,,,,,
1769163895.72182,1769163895.722891,3.0,0.0,4321.666504,4293.333496,4306.153809,4326.282227,4289.615234,4247.94873,4295.512695,4278.846191,4278.717773,4274.230957,4585.256348,4522.436035,4422.307617,4540.512695,,,,,,,,,,,,,,,,,,,,,,,,,,,,,,,,,,,,,,,,,,,,,,,,,,,,,,,,,,,,,,,,,,,,,,
1769163895.729628,1769163895.730499,4.0,0.0,4310.641113,4287.692383,4303.974121,4324.615234,4288.974121,4256.025879,4299.102539,4280.256348,4279.102539,4273.717773,4584.102539,4520.0,4424.230957,4544.230957,,,,,,,,,,,,,,,,,,,,,,,,,,,,,,,,,,,,,,,,,,,,,,,,,,,,,,,,,,,,,,,,,,,,,,
1769163895.737437,1769163895.738308,5.0,0.0,4306.666504,4286.666504,4303.717773,4322.94873,4287.307617,4263.846191,4302.179688,4279.358887,4278.717773,4269.358887,4572.692383,4511.922852,4415.128418,4534.358887,,,,,,,,,,,,,,,,,,,,,,,,,,,,,,,,,,,,,,,,,,,,,,,,,,,,,,,,,,,,,,,,,,,,,,
1769163895.745245,1769163895.746016,6.0,0.0,4310.769043,4289.615234,4303.717773,4322.692383,4284.102539,4254.615234,4298.461426,4281.025879,4279.102539,4261.794922,4565.897461,4505.769043,4402.179688,4523.461426,,,,,,,,,,,,,,,,,,,,,,,,,,,,,,,,,,,,,,,,,,,,,,,,,,,,,,,,,,,,,,,,,,,,,,
1769163895.753054,1769163895.753825,7.0,0.0,4310.256348,4288.333496,4302.307617,4323.589844,4288.077148,4246.922852,4295.512695,4281.794922,4278.846191,4262.307617,4568.717773,4506.282227,4403.205078,4527.179688,,,,,,,,,,,,,,,,,,,,,,,,,,,,,,,,,,,,,,,,,,,,,,,,,,,,,,,,,,,,,,,,,,,,,,
1769163895.760862,1769163895.761833,8.0,0.0,4320.384766,4294.487305,4305.128418,4327.563965,4295.128418,4245.769043,4288.717773,4272.820313,4276.666504,4273.333496,4577.820313,4514.102539,4420.512695,4545.512695,,,,,,,,,,,,,,,,,,,,,,,,,,,,,,,,,,,,,,,,,,,,,,,,,,,,,,,,,,,,,,,,,,,,,,
1769163895.76867,1769163895.769641,9.0,0.0,4329.743652,4309.102539,4310.897461,4332.94873,4294.871582,4240.769043,4279.358887,4269.871582,4276.794922,4282.179688,4587.179688,4523.974121,4435.897461,4562.179688,,,,,,,,,,,,,,,,,,,,,,,,,,,,,,,,,,,,,,,,,,,,,,,,,,,,,,,,,,,,,,,,,,,,,,
1769163895.776479,1769163895.77755,10.0,0.0,4321.666504,4308.205078,4310.641113,4332.436035,4293.333496,4240.256348,4281.538574,4277.179688,4280.0,4280.128418,4587.820313,4524.743652,4430.384766,4558.205078,,,,,,,,,,,,,,,,,,,,,,,,,,,,,,,,,,,,,,,,,,,,,,,,,,,,,,,,,,,,,,,,,,,,,,
1769163895.784287,1769163895.785358,11.0,0.0,4320.769043,4296.538574,4306.666504,4326.922852,4294.358887,4247.05127,4291.410156,4278.077148,4280.384766,4274.743652,4576.922852,4516.410156,4415.769043,4542.179688,,,,,,,,,,,,,,,,,,,,,,,,,,,,,,,,,,,,,,,,,,,,,,,,,,,,,,,,,,,,,,,,,,,,,,
1769163895.792096,1769163895.793366,12.0,0.0,4326.666504,4294.615234,4305.641113,4324.358887,4293.205078,4248.077148,4294.358887,4275.384766,4279.102539,4277.820313,4573.846191,4517.179688,4417.563965,4538.077148,,,,,,,,,,,,,,,,,,,,,,,,,,,,,,,,,,,,,,,,,,,,,,,,,,,,,,,,,,,,,,,,,,,,,,
1769163895.799904,1769163895.801175,13.0,0.0,4319.102539,4298.205078,4304.102539,4326.922852,4293.205078,4248.077148,4294.358887,4279.230957,4280.769043,4281.794922,4579.230957,4522.94873,4421.666504,4543.461426,,,,,,,,,,,,,,,,,,,,,,,,,,,,,,,,,,,,,,,,,,,,,,,,,,,,,,,,,,,,,,,,,,,,,,
1769163895.807713,1769163895.809083,14.0,0.0,4309.871582,4295.384766,4300.769043,4327.179688,4293.846191,4249.871582,4294.743652,4279.230957,4280.512695,4276.922852,4574.487305,4516.538574,4412.05127,4540.769043,0.563152,0.731493,0.443138,0.262602,0.17739,0.467257,0.935598,0.520936,0.24715,0.145596,0.597964,0.438363,0.445113,0.123874,0.076687,0.199128,0.37527,0.419152,0.110669,0.146764,0.167984,0.110451,0.209813,0.096512,0.067086,0.123651,0.565307,0.187181,0.151692,0.111972,0.126741,0.431148,0.167167,0.144588,0.104101,0.447388,0.45713,0.359401,0.203394,0.135753,0.182682,0.26828,0.2282,0.217708,0.119487,0.439312,0.497485,0.289122,0.224079,0.106529,0.514641,0.578294,0.518061,0.291729,0.187657,0.543521,0.667118,0.412671,0.282468,0.262968,0.605253,0.837476,0.378555,0.314779,0.193114,0.413425,0.949802,0.368135,0.465724,0.303036
1769163895.815521,1769163895.816892,15.0,0.0,4309.102539,4293.717773,4302.563965,4325.512695,4294.358887,4251.410156,4295.384766,4275.641113,4278.333496,4274.743652,4573.589844,4512.820313,4412.05127,4537.05127,,,,,,,,,,,,,,,,,,,,,,,,,,,,,,,,,,,,,,,,,,,,,,,,,,,,,,,,,,,,,,,,,,,,,,
1769163895.82333,1769163895.8249,16.0,0.0,4311.025879,4295.256348,4304.230957,4325.256348,4295.897461,4257.94873,4302.179688,4286.025879,4283.333496,4279.358887,4582.692383,4520.256348,4420.769043,4539.615234,,,,,,,,,,,,,,,,,,,,,,,,,,,,,,,,,,,,,,,,,,,,,,,,,,,,,,,,,,,,,,,,,,,,,,
1769163895.831138,1769163895.832708,17.0,0.0,4313.461426,4295.512695,4301.666504,4324.615234,4294.102539,4259.358887,4304.487305,4294.743652,4288.077148,4279.102539,4581.282227,4523.846191,4416.282227,4538.974121,,,,,,,,,,,,,,,,,,,,,,,,,,,,,,,,,,,,,,,,,,,,,,,,,,,,,,,,,,,,,,,,,,,,,,
1769163895.838946,1769163895.840417,18.0,0.0,4316.410156,4298.461426,4303.974121,4326.538574,4291.538574,4251.025879,4297.307617,4285.384766,4282.307617,4275.769043,4573.461426,4521.025879,4412.179688,4538.589844,,,,,,,,,,,,,,,,,,,,,,,,,,,,,,,,,,,,,,,,,,,,,,,,,,,,,,,,,,,,,,,,,,,,,,
1769163895.846755,1769163895.848225,19.0,0.0,4327.692383,4303.717773,4311.410156,4329.743652,4294.102539,4244.230957,4289.743652,4274.615234,4277.05127,4279.743652,4580.641113,4524.615234,4422.436035,4547.05127,,,,,,,,,,,,,,,,,,,,,,,,,,,,,,,,,,,,,,,,,,,,,,,,,,,,,,,,,,,,,,,,,,,,,,
1769163895.854563,1769163895.855834,20.0,0.0,4334.487305,4306.153809,4312.563965,4329.743652,4296.538574,4243.589844,4290.0,4279.871582,4281.538574,4284.615234,4590.897461,4529.358887,4430.256348,4554.487305,,,,,,,,,,,,,,,,,,,,,,,,,,,,,,,,,,,,,,,,,,,,,,,,,,,,,,,,,,,,,,,,,,,,,,
1769163895.862372,1769163895.863643,21.0,0.0,4318.974121,4302.563965,4307.05127,4325.897461,4293.077148,4245.641113,4294.487305,4286.538574,4284.102539,4280.641113,4588.205078,4527.692383,4425.641113,4549.230957,,,,,,,,,,,,,,,,,,,,,,,,,,,,,,,,,,,,,,,,,,,,,,,,,,,,,,,,,,,,,,,,,,,,,,
1769163895.87018,1769163895.871351,22.0,0.0,4304.743652,4296.153809,4306.153809,4324.871582,4291.025879,4247.05127,4295.897461,4282.05127,4280.0,4278.461426,4583.077148,4526.153809,4423.846191,4543.333496,,,,,,,,,,,,,,,,,,,,,,,,,,,,,,,,,,,,,,,,,,,,,,,,,,,,,,,,,,,,,,,,,,,,,,
1769163895.877989,1769163895.879159,23.0,0.0,4316.153809,4295.128418,4309.871582,4327.436035,4292.94873,4246.282227,4293.461426,4278.846191,4280.0,4280.641113,4580.0,4525.769043,4426.794922,4545.769043,,,,,,,,,,,,,,,,,,,,,,,,,,,,,,,,,,,,,,,,,,,,,,,,,,,,,,,,,,,,,,,,,,,,,,
1769163895.885797,1769163895.886768,24.0,0.0,4325.641113,4300.769043,4310.128418,4328.077148,4292.820313,4246.794922,4293.589844,4280.384766,4280.384766,4277.05127,4579.230957,4524.743652,4424.102539,4549.615234,,,,,,,,,,,,,,,,,,,,,,,,,,,,,,,,,,,,,,,,,,,,,,,,,,,,,,,,,,,,,,,,,,,,,,
1769163895.893606,1769163895.894577,25.0,0.0,4321.025879,4306.666504,4307.179688,4326.410156,4291.794922,4248.717773,4295.0,4280.128418,4279.102539,4276.538574,4580.128418,4525.897461,4427.179688,4551.666504,,,,,,,,,,,,,,,,,,,,,,,,,,,,,,,,,,,,,,,,,,,,,,,,,,,,,,,,,,,,,,,,,,,,,,
1769163895.901414,1769163895.902485,26.0,0.0,4319.743652,4303.461426,4304.743652,4324.871582,4290.769043,4245.897461,4292.179688,4279.487305,4284.743652,4278.205078,4580.256348,4525.897461,4429.743652,4547.820313,,,,,,,,,,,,,,,,,,,,,,,,,,,,,,,,,,,,,,,,,,,,,,,,,,,,,,,,,,,,,,,,,,,,,,
1769163895.909222,1769163895.910293,27.0,0.0,4319.743652,4298.333496,4305.0,4325.384766,4289.487305,4244.487305,4292.436035,4281.538574,4286.538574,4272.94873,4578.461426,4523.333496,4417.563965,4536.025879,,,,,,,,,,,,,,,,,,,,,,,,,,,,,,,,,,,,,,,,,,,,,,,,,,,,,,,,,,,,,,,,,,,,,,
1769163895.917031,1769163895.918302,28.0,0.0,4322.94873,4300.897461,4309.487305,4326.794922,4291.410156,4251.153809,4299.358887,4282.307617,4280.512695,4271.153809,4578.846191,4529.487305,4412.05127,4535.256348,,,,,,,,,,,,,,,,,,,,,,,,,,,,,,,,,,,,,,,,,,,,,,,,,,,,,,,,,,,,,,,,,,,,,,
1769163895.924839,1769163895.92611,29.0,0.0,4325.769043,4305.512695,4312.820313,4328.717773,4293.974121,4251.282227,4296.922852,4280.512695,4282.692383,4278.974121,4590.0,4542.307617,4426.922852,4551.153809,,,,,,,,,,,,,,,,,,,,,,,,,,,,,,,,,,,,,,,,,,,,,,,,,,,,,,,,,,,,,,,,,,,,,,
1769163895.932648,1769163895.933819,30.0,0.0,4327.820313,4304.743652,4309.487305,4329.230957,4291.410156,4237.820313,4283.205078,4279.615234,4284.102539,4281.666504,4599.358887,4544.743652,4440.512695,4564.230957,0.542414,0.580311,0.442407,0.285684,0.172876,0.503713,0.851307,0.507707,0.251884,0.142921,0.573823,0.413193,0.399833,0.116938,0.074311,0.168071,0.317697,0.38264,0.103695,0.139356,0.212637,0.10539,0.200631,0.101379,0.069066,0.137395,0.402261,0.24562,0.113517,0.111116,0.105962,0.338387,0.216406,0.139197,0.105968,0.45279,0.431153,0.293105,0.197343,0.121785,0.174678,0.26271,0.246404,0.224024,0.118688,0.421347,0.409993,0.368678,0.256186,0.097175,0.461052,0.510479,0.546355,0.343343,0.188839,0.493486,0.646691,0.41412,0.354453,0.247821,0.479542,0.718806,0.385843,0.322896,0.184271,0.575416,0.88458,0.390965,0.498812,0.275241
1769163895.940456,1769163895.941627,31.0,0.0,4338.333496,4304.615234,4307.436035,4327.692383,4290.256348,4234.487305,4279.615234,4278.461426,4279.230957,4279.487305,4596.922852,4540.128418,4440.769043,4562.94873,,,,,,,,,,,,,,,,,,,,,,,,,,,,,,,,,,,,,,,,,,,,,,,,,,,,,,,,,,,,,,,,,,,,,,
