title:apple_9, start timestamp:1768292908.473878, stop timestamp:1768292939.020420, headset type:EPOCX, headset serial:E5020E3B, headset firmware:730, channels:156, sampling rate:eeg_128;pm_0.1;pow_8, samples:3913      , version:2.2, 
Timestamp,OriginalTimestamp,EEG.Counter,EEG.Interpolated,EEG.AF3,EEG.F7,EEG.F3,EEG.FC5,EEG.T7,EEG.P7,EEG.O1,EEG.O2,EEG.P8,EEG.T8,EEG.FC6,EEG.F4,EEG.F8,EEG.AF4,EEG.RawCq,EEG.Battery,EEG.BatteryPercent,MarkerIndex,MarkerType,MarkerValueInt,EEG.MarkerHardware,CQ.AF3,CQ.F7,CQ.F3,CQ.FC5,CQ.T7,CQ.P7,CQ.O1,CQ.O2,CQ.P8,CQ.T8,CQ.FC6,CQ.F4,CQ.F8,CQ.AF4,CQ.Overall,EQ.SampleRateQuality,EQ.OVERALL,EQ.AF3,EQ.F7,EQ.F3,EQ.FC5,EQ.T7,EQ.P7,EQ.O1,EQ.O2,EQ.P8,EQ.T8,EQ.FC6,EQ.F4,EQ.F8,EQ.AF4,PM.Attention.IsActive,PM.Attention.Scaled,PM.Attention.Raw,PM.Attention.Min,PM.Attention.Max,PM.Engagement.IsActive,PM.Engagement.Scaled,PM.Engagement.Raw,PM.Engagement.Min,PM.Engagement.Max,PM.Excitement.IsActive,PM.Excitement.Scaled,PM.Excitement.Raw,PM.Excitement.Min,PM.Excitement.Max,PM.LongTermExcitement,PM.Stress.IsActive,PM.Stress.Scaled,PM.Stress.Raw,PM.Stress.Min,PM.Stress.Max,PM.Relaxation.IsActive,PM.Relaxation.Scaled,PM.Relaxation.Raw,PM.Relaxation.Min,PM.Relaxation.Max,PM.Interest.IsActive,PM.Interest.Scaled,PM.Interest.Raw,PM.Interest.Min,PM.Interest.Max,POW.AF3.Theta,POW.AF3.Alpha,POW.AF3.BetaL,POW.AF3.BetaH,POW.AF3.Gamma,POW.F7.Theta,POW.F7.Alpha,POW.F7.BetaL,POW.F7.BetaH,POW.F7.Gamma,POW.F3.Theta,POW.F3.Alpha,POW.F3.BetaL,POW.F3.BetaH,POW.F3.Gamma,POW.FC5.Theta,POW.FC5.Alpha,POW.FC5.BetaL,POW.FC5.BetaH,POW.FC5.Gamma,POW.T7.Theta,POW.T7.Alpha,POW.T7.BetaL,POW.T7.BetaH,POW.T7.Gamma,POW.P7.Theta,POW.P7.Alpha,POW.P7.BetaL,POW.P7.BetaH,POW.P7.Gamma,POW.O1.Theta,POW.O1.Alpha,POW.O1.BetaL,POW.O1.BetaH,POW.O1.Gamma,POW.O2.Theta,POW.O2.Alpha,POW.O2.BetaL,POW.O2.BetaH,POW.O2.Gamma,POW.P8.Theta,POW.P8.Alpha,POW.P8.BetaL,POW.P8.BetaH,POW.P8.Gamma,POW.T8.Theta,POW.T8.Alpha,POW.T8.BetaL,POW.T8.BetaH,POW.T8.Gamma,POW.FC6.Theta,POW.FC6.Alpha,POW.FC6.BetaL,POW.FC6.BetaH,POW.FC6.Gamma,POW.F4.Theta,POW.F4.Alpha,POW.F4.BetaL,POW.F4.BetaH,POW.F4.Gamma,POW.F8.Theta,POW.F8.Alpha,POW.F8.BetaL,POW.F8.BetaH,POW.F8.Gamma,POW.AF4.Theta,POW.AF4.Alpha,POW.AF4.BetaL,POW.AF4.BetaH,POW.AF4.Gamma
1768292908.473878,1768292908.474456,59.000000,0.000000,4339.358887,4326.922852,4300.384766,4341.666504,4321.538574,4319.615234,4316.666504,4320.769043,4323.846191,4305.512695,4510.000000,4525.384766,4416.538574,4467.179688,0.000000,2.000000,44.000000,,,,0.000000,4.000000,4.000000,4.000000,4.000000,4.000000,4.000000,4.000000,4.000000,4.000000,4.000000,4.000000,4.000000,4.000000,4.000000,100.000000,,,,,,,,,,,,,,,,,,,,,,,,,,,,,,,,,,,,,,,,,,,,,,,,,,,,,,,,,,,,,,,,,,,,,,,,,,,,,,,,,,,,,,,,,,,,,,,,,,,,,,,,,,,,,,,,,,,,,
1768292908.481687,1768292908.482065,60.000000,0.000000,4335.512695,4328.205078,4300.256348,4340.897461,4324.358887,4319.615234,4317.307617,4324.743652,4325.641113,4312.436035,4522.563965,4538.461426,4425.512695,4475.769043,0.000000,2.000000,44.000000,,,,0.000000,4.000000,4.000000,4.000000,4.000000,4.000000,4.000000,4.000000,4.000000,4.000000,4.000000,4.000000,4.000000,4.000000,4.000000,100.000000,,,,,,,,,,,,,,,,,,,,,,,,,,,,,,,,,,,,,,,,,,,,,,,,,,,,,,,,,,,,,,,,,,,,,,,,,,,,,,,,,,,,,,,,,,,,,,,,,,,,,,,,,,,,,,,,,,,,,
1768292908.489495,1768292908.489873,61.000000,0.000000,4326.922852,4326.538574,4300.897461,4338.205078,4324.230957,4318.846191,4321.282227,4328.717773,4326.025879,4311.794922,4522.051270,4539.487305,4419.615234,4470.641113,0.000000,2.000000,44.000000,,,,0.000000,4.000000,4.000000,4.000000,4.000000,4.000000,4.000000,4.000000,4.000000,4.000000,4.000000,4.000000,4.000000,4.000000,4.000000,100.000000,,,,,,,,,,,,,,,,,,,,,,,,,,,,,,,,,,,,,,,,,,,,,,,,,,,,,,,,,,,,,,,,,,,,,,,,,,,,,,,,,,,,,,,,,,,,,,,,,,,,,,,,,,,,,,,,,,,,,
1768292908.497304,1768292908.497582,62.000000,0.000000,4322.948730,4325.641113,4296.538574,4338.974121,4323.846191,4318.717773,4322.948730,4325.641113,4325.000000,4308.589844,4516.025879,4534.615234,4413.589844,4467.179688,0.000000,2.000000,44.000000,,,,0.000000,4.000000,4.000000,4.000000,4.000000,4.000000,4.000000,4.000000,4.000000,4.000000,4.000000,4.000000,4.000000,4.000000,4.000000,100.000000,,,,,,,,,,,,,,,,,,,,,,,,,,,,,,,,,,,,,,,,,,,,,,,,,,,,,,,,,,,,,,,,,,,,,,,,,,,,,,,,,,,,,,,,,,,,,,,,,,,,,,,,,,,,,,,,,,,,,
1768292908.505112,1768292908.505390,63.000000,0.000000,4330.769043,4327.051270,4295.769043,4340.641113,4323.461426,4317.307617,4322.692383,4322.820313,4325.512695,4313.589844,4521.666504,4537.948730,4417.563965,4475.000000,0.000000,2.000000,44.000000,,,,0.000000,4.000000,4.000000,4.000000,4.000000,4.000000,4.000000,4.000000,4.000000,4.000000,4.000000,4.000000,4.000000,4.000000,4.000000,100.000000,,,,,,,,,,,,,,,,,,,,,,,,,,,,,,,,,,,,,,,,,,,,,,,,,,,,,,,,,,,,,,,,,,,,,,,,,,,,,,,,,,,,,,,,,,,,,,,,,,,,,,,,,,,,,,,,,,,,,
1768292908.512921,1768292908.513399,64.000000,0.000000,4333.974121,4327.692383,4297.692383,4338.333496,4321.153809,4320.000000,4326.025879,4325.897461,4325.512695,4314.871582,4524.230957,4538.333496,4417.179688,4477.179688,1833.000000,2.000000,44.000000,,,,0.000000,4.000000,4.000000,4.000000,4.000000,4.000000,4.000000,4.000000,4.000000,4.000000,4.000000,4.000000,4.000000,4.000000,4.000000,100.000000,,,,,,,,,,,,,,,,,,,,,,,,,,,,,,,,,,,,,,,,,,,,,,,,0.737355,0.432904,0.304064,0.370006,0.137080,0.902867,0.527146,0.226501,0.230321,0.077727,0.214059,0.162987,0.050208,0.072712,0.062768,0.437090,0.248024,0.168992,0.199234,0.147478,0.769052,0.245400,0.100948,0.149355,0.087172,0.280721,0.130400,0.157264,0.141080,0.200148,0.296568,0.253436,0.279569,0.261215,0.246961,0.508314,0.379248,0.225730,0.240065,0.098259,0.389248,0.413520,0.465887,0.168464,0.054006,1.450161,0.848598,0.599860,0.374846,0.144808,0.932240,0.534445,0.643806,0.272610,0.156988,1.144801,0.539371,0.765362,0.533213,0.211841,0.538260,0.561450,0.604196,0.442229,0.218895,1.009945,0.442197,0.573246,0.532263,0.132858
1768292908.520729,1768292908.521207,65.000000,0.000000,4328.589844,4326.538574,4298.077148,4334.230957,4320.897461,4326.922852,4332.436035,4329.615234,4327.051270,4311.282227,4519.102539,4538.974121,4412.179688,4475.769043,4014.000000,2.000000,44.000000,,,,0.000000,4.000000,4.000000,4.000000,4.000000,4.000000,4.000000,4.000000,4.000000,4.000000,4.000000,4.000000,4.000000,4.000000,4.000000,100.000000,,,,,,,,,,,,,,,,,,,,,,,,,,,,,,,,,,,,,,,,,,,,,,,,,,,,,,,,,,,,,,,,,,,,,,,,,,,,,,,,,,,,,,,,,,,,,,,,,,,,,,,,,,,,,,,,,,,,,
1768292908.528537,1768292908.529115,66.000000,0.000000,4324.102539,4321.025879,4299.358887,4330.769043,4319.487305,4322.051270,4327.820313,4325.000000,4325.128418,4310.256348,4512.307617,4534.487305,4411.922852,4470.769043,3979.000000,2.000000,44.000000,,,,0.000000,4.000000,4.000000,4.000000,4.000000,4.000000,4.000000,4.000000,4.000000,4.000000,4.000000,4.000000,4.000000,4.000000,4.000000,100.000000,,,,,,,,,,,,,,,,,,,,,,,,,,,,,,,,,,,,,,,,,,,,,,,,,,,,,,,,,,,,,,,,,,,,,,,,,,,,,,,,,,,,,,,,,,,,,,,,,,,,,,,,,,,,,,,,,,,,,
1768292908.536346,1768292908.536924,67.000000,0.000000,4316.538574,4311.282227,4298.333496,4325.384766,4311.538574,4312.692383,4319.871582,4319.743652,4318.974121,4308.205078,4505.256348,4518.846191,4407.051270,4457.820313,3892.000000,2.000000,44.000000,,,,0.000000,4.000000,4.000000,4.000000,4.000000,4.000000,4.000000,4.000000,4.000000,4.000000,4.000000,4.000000,4.000000,4.000000,4.000000,100.000000,,,,,,,,,,,,,,,,,,,,,,,,,,,,,,,,,,,,,,,,,,,,,,,,,,,,,,,,,,,,,,,,,,,,,,,,,,,,,,,,,,,,,,,,,,,,,,,,,,,,,,,,,,,,,,,,,,,,,
1768292908.544154,1768292908.544932,68.000000,0.000000,4310.769043,4306.794922,4294.358887,4323.205078,4307.820313,4317.051270,4323.974121,4327.436035,4323.333496,4307.692383,4504.743652,4519.615234,4403.333496,4458.461426,3737.000000,2.000000,44.000000,,,,0.000000,4.000000,4.000000,4.000000,4.000000,4.000000,4.000000,4.000000,4.000000,4.000000,4.000000,4.000000,4.000000,4.000000,4.000000,100.000000,,,,,,,,,,,,,,,,,,,,,,,,,,,,,,,,,,,,,,,,,,,,,,,,,,,,,,,,,,,,,,,,,,,,,,,,,,,,,,,,,,,,,,,,,,,,,,,,,,,,,,,,,,,,,,,,,,,,,
1768292908.551963,1768292908.552741,69.000000,0.000000,4320.897461,4315.897461,4297.436035,4331.410156,4314.871582,4322.563965,4325.897461,4339.487305,4337.307617,4318.974121,4517.436035,4542.179688,4414.230957,4477.948730,2762.000000,2.000000,44.000000,,,,0.000000,4.000000,4.000000,4.000000,4.000000,4.000000,4.000000,4.000000,4.000000,4.000000,4.000000,4.000000,4.000000,4.000000,4.000000,100.000000,,,,,,,,,,,,,,,,,,,,,,,,,,,,,,,,,,,,,,,,,,,,,,,,,,,,,,,,,,,,,,,,,,,,,,,,,,,,,,,,,,,,,,,,,,,,,,,,,,,,,,,,,,,,,,,,,,,,,
1768292908.559771,1768292908.560449,70.000000,0.000000,4342.307617,4327.563965,4306.538574,4342.436035,4322.948730,4320.384766,4324.358887,4345.769043,4344.230957,4334.615234,4536.282227,4559.743652,4431.282227,4493.461426,2565.000000,2.000000,44.000000,,,,0.000000,4.000000,4.000000,4.000000,4.000000,4.000000,4.000000,4.000000,4.000000,4.000000,4.000000,4.000000,4.000000,4.000000,4.000000,100.000000,,,,,,,,,,,,,,,,,,,,,,,,,,,,,,,,,,,,,,,,,,,,,,,,,,,,,,,,,,,,,,,,,,,,,,,,,,,,,,,,,,,,,,,,,,,,,,,,,,,,,,,,,,,,,,,,,,,,,
1768292908.567579,1768292908.568258,71.000000,0.000000,4345.128418,4329.871582,4306.282227,4345.512695,4324.871582,4323.077148,4332.948730,4344.230957,4340.512695,4337.563965,4539.487305,4560.512695,4434.615234,4491.794922,4066.000000,2.000000,44.000000,,,,0.000000,4.000000,4.000000,4.000000,4.000000,4.000000,4.000000,4.000000,4.000000,4.000000,4.000000,4.000000,4.000000,4.000000,4.000000,100.000000,,,,,,,,,,,,,,,,,,,,,,,,,,,,,,,,,,,,,,,,,,,,,,,,,,,,,,,,,,,,,,,,,,,,,,,,,,,,,,,,,,,,,,,,,,,,,,,,,,,,,,,,,,,,,,,,,,,,,
1768292908.575388,1768292908.576266,72.000000,0.000000,4330.256348,4327.307617,4299.358887,4339.358887,4321.794922,4326.666504,4333.461426,4334.871582,4334.487305,4325.000000,4527.692383,4550.897461,4422.948730,4481.538574,3271.000000,2.000000,44.000000,,,,0.000000,4.000000,4.000000,4.000000,4.000000,4.000000,4.000000,4.000000,4.000000,4.000000,4.000000,4.000000,4.000000,4.000000,4.000000,100.000000,,,,,,,,,,,,,,,,,,,,,,,,,,,,,,,,,,,,,,,,,,,,,,,,,,,,,,,,,,,,,,,,,,,,,,,,,,,,,,,,,,,,,,,,,,,,,,,,,,,,,,,,,,,,,,,,,,,,,
1768292908.583196,1768292908.584074,73.000000,0.000000,4325.512695,4320.256348,4296.025879,4334.230957,4318.589844,4318.333496,4317.948730,4324.871582,4327.179688,4312.179688,4517.563965,4540.384766,4413.974121,4478.461426,3839.000000,2.000000,44.000000,,,,0.000000,4.000000,4.000000,4.000000,4.000000,4.000000,4.000000,4.000000,4.000000,4.000000,4.000000,4.000000,4.000000,4.000000,4.000000,100.000000,,,,,,,,,,,,,,,,,,,,,,,,,,,,,,,,,,,,,,,,,,,,,,,,,,,,,,,,,,,,,,,,,,,,,,,,,,,,,,,,,,,,,,,,,,,,,,,,,,,,,,,,,,,,,,,,,,,,,
1768292908.591004,1768292908.591983,74.000000,0.000000,4330.641113,4311.922852,4297.307617,4335.512695,4321.025879,4310.128418,4311.410156,4321.794922,4320.641113,4309.358887,4514.871582,4538.846191,4413.974121,4480.769043,4336.000000,2.000000,44.000000,,,,0.000000,4.000000,4.000000,4.000000,4.000000,4.000000,4.000000,4.000000,4.000000,4.000000,4.000000,4.000000,4.000000,4.000000,4.000000,100.000000,,,,,,,,,,,,,,,,,,,,,,,,,,,,,,,,,,,,,,,,,,,,,,,,,,,,,,,,,,,,,,,,,,,,,,,,,,,,,,,,,,,,,,,,,,,,,,,,,,,,,,,,,,,,,,,,,,,,,
1768292908.598813,1768292908.599791,75.000000,0.000000,4328.077148,4313.205078,4298.205078,4338.077148,4324.487305,4315.641113,4320.897461,4322.436035,4322.948730,4310.897461,4513.333496,4540.384766,4414.871582,4471.153809,4754.000000,2.000000,44.000000,,,,0.000000,4.000000,4.000000,4.000000,4.000000,4.000000,4.000000,4.000000,4.000000,4.000000,4.000000,4.000000,4.000000,4.000000,4.000000,100.000000,,,,,,,,,,,,,,,,,,,,,,,,,,,,,,,,,,,,,,,,,,,,,,,,,,,,,,,,,,,,,,,,,,,,,,,,,,,,,,,,,,,,,,,,,,,,,,,,,,,,,,,,,,,,,,,,,,,,,
1768292908.606621,1768292908.607799,76.000000,0.000000,4321.922852,4319.230957,4296.666504,4338.461426,4323.461426,4319.358887,4326.153809,4324.487305,4326.410156,4311.282227,4513.077148,4535.512695,4411.410156,4457.563965,4590.000000,2.000000,44.000000,,,,0.000000,4.000000,4.000000,4.000000,4.000000,4.000000,4.000000,4.000000,4.000000,4.000000,4.000000,4.000000,4.000000,4.000000,4.000000,100.000000,,,,,,,,,,,,,,,,,,,,,,,,,,,,,,,,,,,,,,,,,,,,,,,,,,,,,,,,,,,,,,,,,,,,,,,,,,,,,,,,,,,,,,,,,,,,,,,,,,,,,,,,,,,,,,,,,,,,,
1768292908.614430,1768292908.615608,77.000000,0.000000,4322.179688,4318.974121,4296.538574,4337.948730,4323.205078,4311.794922,4319.102539,4325.000000,4321.538574,4310.897461,4515.000000,4531.025879,4409.871582,4461.153809,5678.000000,2.000000,44.000000,,,,0.000000,4.000000,4.000000,4.000000,4.000000,4.000000,4.000000,4.000000,4.000000,4.000000,4.000000,4.000000,4.000000,4.000000,4.000000,100.000000,,,,,,,,,,,,,,,,,,,,,,,,,,,,,,,,,,,,,,,,,,,,,,,,,,,,,,,,,,,,,,,,,,,,,,,,,,,,,,,,,,,,,,,,,,,,,,,,,,,,,,,,,,,,,,,,,,,,,
1768292908.622238,1768292908.623516,78.000000,0.000000,4329.615234,4323.461426,4298.717773,4341.794922,4325.641113,4314.230957,4318.589844,4322.307617,4318.333496,4309.487305,4521.922852,4535.897461,4413.717773,4474.358887,4336.000000,2.000000,44.000000,,,,0.000000,4.000000,4.000000,4.000000,4.000000,4.000000,4.000000,4.000000,4.000000,4.000000,4.000000,4.000000,4.000000,4.000000,4.000000,100.000000,,,,,,,,,,,,,,,,,,,,,,,,,,,,,,,,,,,,,,,,,,,,,,,,,,,,,,,,,,,,,,,,,,,,,,,,,,,,,,,,,,,,,,,,,,,,,,,,,,,,,,,,,,,,,,,,,,,,,
1768292908.630047,1768292908.631325,79.000000,0.000000,4336.410156,4330.641113,4299.615234,4344.358887,4326.794922,4322.179688,4323.717773,4324.615234,4324.358887,4311.153809,4525.256348,4543.461426,4416.153809,4479.743652,4754.000000,2.000000,44.000000,,,,0.000000,4.000000,4.000000,4.000000,4.000000,4.000000,4.000000,4.000000,4.000000,4.000000,4.000000,4.000000,4.000000,4.000000,4.000000,100.000000,,,,,,,,,,,,,,,,,,,,,,,,,,,,,,,,,,,,,,,,,,,,,,,,,,,,,,,,,,,,,,,,,,,,,,,,,,,,,,,,,,,,,,,,,,,,,,,,,,,,,,,,,,,,,,,,,,,,,
1768292908.637855,1768292908.639333,80.000000,0.000000,4328.077148,4324.871582,4295.641113,4338.205078,4325.128418,4313.589844,4313.205078,4324.743652,4323.974121,4311.666504,4514.358887,4536.282227,4410.512695,4472.948730,4590.000000,2.000000,44.000000,,,,0.000000,4.000000,4.000000,4.000000,4.000000,4.000000,4.000000,4.000000,4.000000,4.000000,4.000000,4.000000,4.000000,4.000000,4.000000,100.000000,1.000000,75.000000,4.000000,4.000000,1.000000,4.000000,4.000000,4.000000,4.000000,4.000000,4.000000,4.000000,4.000000,4.000000,4.000000,4.000000,,,,,,,,,,,,,,,,,,,,,,,,,,,,,,,,0.899244,0.454214,0.424779,0.451733,0.141548,0.894496,0.505413,0.253973,0.252307,0.080524,0.229473,0.190278,0.051562,0.077383,0.060014,0.533564,0.260695,0.195241,0.196180,0.142627,0.853612,0.288946,0.130475,0.147825,0.075272,0.329625,0.099174,0.143910,0.144102,0.205051,0.337659,0.264784,0.281407,0.272417,0.243988,0.548802,0.415517,0.279085,0.232483,0.091449,0.427053,0.547658,0.484463,0.176808,0.055348,1.552863,1.009145,0.719310,0.393125,0.141296,0.831354,0.652401,0.770478,0.289039,0.174211,1.151716,0.596967,0.857670,0.525544,0.212497,0.573197,0.670375,0.675767,0.412825,0.208304,1.015245,0.469450,0.720818,0.513210,0.150503
1768292908.645664,1768292908.647141,81.000000,0.000000,4320.256348,4319.743652,4295.769043,4337.563965,4323.205078,4305.769043,4306.666504,4313.974121,4313.717773,4301.794922,4502.692383,4518.974121,4398.974121,4461.153809,5678.000000,2.000000,44.000000,,,,0.000000,4.000000,4.000000,4.000000,4.000000,4.000000,4.000000,4.000000,4.000000,4.000000,4.000000,4.000000,4.000000,4.000000,4.000000,100.000000,,,,,,,,,,,,,,,,,,,,,,,,,,,,,,,,,,,,,,,,,,,,,,,,,,,,,,,,,,,,,,,,,,,,,,,,,,,,,,,,,,,,,,,,,,,,,,,,,,,,,,,,,,,,,,,,,,,,,
1768292908.653472,1768292908.654850,82.000000,0.000000,4329.871582,4327.436035,4299.230957,4345.256348,4326.025879,4313.077148,4320.000000,4307.692383,4310.769043,4296.794922,4503.846191,4516.153809,4393.974121,4458.333496,4336.000000,2.000000,44.000000,,,,0.000000,4.000000,4.000000,4.000000,4.000000,4.000000,4.000000,4.000000,4.000000,4.000000,4.000000,4.000000,4.000000,4.000000,4.000000,100.000000,,,,,,,,,,,,,,,,,,,,,,,,,,,,,,,,,,,,,,,,,,,,,,,,,,,,,,,,,,,,,,,,,,,,,,,,,,,,,,,,,,,,,,,,,,,,,,,,,,,,,,,,,,,,,,,,,,,,,
1768292908.661280,1768292908.662658,83.000000,0.000000,4334.487305,4327.820313,4296.538574,4345.897461,4329.102539,4317.179688,4323.974121,4313.846191,4315.256348,4305.256348,4506.666504,4524.871582,4401.025879,4464.743652,4754.000000,2.000000,44.000000,,,,0.000000,4.000000,4.000000,4.000000,4.000000,4.000000,4.000000,4.000000,4.000000,4.000000,4.000000,4.000000,4.000000,4.000000,4.000000,100.000000,,,,,,,,,,,,,,,,,,,,,,,,,,,,,,,,,,,,,,,,,,,,,,,,,,,,,,,,,,,,,,,,,,,,,,,,,,,,,,,,,,,,,,,,,,,,,,,,,,,,,,,,,,,,,,,,,,,,,
1768292908.669089,1768292908.670267,84.000000,0.000000,4325.256348,4320.384766,4294.615234,4342.563965,4325.897461,4315.897461,4318.717773,4320.000000,4319.230957,4310.256348,4506.153809,4525.897461,4408.589844,4465.769043,4590.000000,2.000000,44.000000,,,,0.000000,4.000000,4.000000,4.000000,4.000000,4.000000,4.000000,4.000000,4.000000,4.000000,4.000000,4.000000,4.000000,4.000000,4.000000,100.000000,,,,,,,,,,,,,,,,,,,,,,,,,,,,,,,,,,,,,,,,,,,,,,,,,,,,,,,,,,,,,,,,,,,,,,,,,,,,,,,,,,,,,,,,,,,,,,,,,,,,,,,,,,,,,,,,,,,,,
1768292908.676897,1768292908.678075,85.000000,0.000000,4323.974121,4322.307617,4298.846191,4349.230957,4324.230957,4320.897461,4323.846191,4321.666504,4319.487305,4306.666504,4507.051270,4522.436035,4404.358887,4460.128418,5678.000000,2.000000,44.000000,,,,0.000000,4.000000,4.000000,4.000000,4.000000,4.000000,4.000000,4.000000,4.000000,4.000000,4.000000,4.000000,4.000000,4.000000,4.000000,100.000000,,,,,,,,,,,,,,,,,,,,,,,,,,,,,,,,,,,,,,,,,,,,,,,,,,,,,,,,,,,,,,,,,,,,,,,,,,,,,,,,,,,,,,,,,,,,,,,,,,,,,,,,,,,,,,,,,,,,,
1768292908.684706,1768292908.685784,86.000000,0.000000,4329.871582,4327.563965,4301.794922,4355.000000,4328.461426,4325.000000,4326.153809,4322.948730,4317.179688,4301.922852,4509.358887,4525.128418,4398.846191,4459.102539,4336.000000,2.000000,44.000000,,,,0.000000,4.000000,4.000000,4.000000,4.000000,4.000000,4.000000,4.000000,4.000000,4.000000,4.000000,4.000000,4.000000,4.000000,4.000000,100.000000,,,,,,,,,,,,,,,,,,,,,,,,,,,,,,,,,,,,,,,,,,,,,,,,,,,,,,,,,,,,,,,,,,,,,,,,,,,,,,,,,,,,,,,,,,,,,,,,,,,,,,,,,,,,,,,,,,,,,
1768292908.692514,1768292908.693592,87.000000,0.000000,4327.179688,4326.666504,4297.307617,4348.974121,4327.948730,4326.282227,4320.000000,4318.846191,4313.205078,4296.153809,4507.051270,4524.615234,4400.256348,4459.102539,4754.000000,2.000000,44.000000,,,,0.000000,4.000000,4.000000,4.000000,4.000000,4.000000,4.000000,4.000000,4.000000,4.000000,4.000000,4.000000,4.000000,4.000000,4.000000,100.000000,,,,,,,,,,,,,,,,,,,,,,,,,,,,,,,,,,,,,,,,,,,,,,,,,,,,,,,,,,,,,,,,,,,,,,,,,,,,,,,,,,,,,,,,,,,,,,,,,,,,,,,,,,,,,,,,,,,,,
1768292908.700323,1768292908.701201,88.000000,0.000000,4321.666504,4321.153809,4292.563965,4341.025879,4319.487305,4323.846191,4316.025879,4314.743652,4310.641113,4291.410156,4504.871582,4519.871582,4402.179688,4455.384766,4590.000000,2.000000,44.000000,,,,0.000000,4.000000,4.000000,4.000000,4.000000,4.000000,4.000000,4.000000,4.000000,4.000000,4.000000,4.000000,4.000000,4.000000,4.000000,100.000000,,,,,,,,,,,,,,,,,,,,,,,,,,,,,,,,,,,,,,,,,,,,,,,,,,,,,,,,,,,,,,,,,,,,,,,,,,,,,,,,,,,,,,,,,,,,,,,,,,,,,,,,,,,,,,,,,,,,,
1768292908.708131,1768292908.709009,89.000000,0.000000,4322.948730,4314.358887,4293.846191,4339.743652,4312.563965,4319.487305,4319.487305,4320.384766,4315.897461,4294.102539,4516.794922,4525.512695,4406.666504,4458.589844,5678.000000,2.000000,44.000000,,,,0.000000,4.000000,4.000000,4.000000,4.000000,4.000000,4.000000,4.000000,4.000000,4.000000,4.000000,4.000000,4.000000,4.000000,4.000000,100.000000,,,,,,,,,,,,,,,,,,,,,,,,,,,,,,,,,,,,,,,,,,,,,,,,,,,,,,,,,,,,,,,,,,,,,,,,,,,,,,,,,,,,,,,,,,,,,,,,,,,,,,,,,,,,,,,,,,,,,
1768292908.715939,1768292908.716718,90.000000,0.000000,4327.563965,4314.487305,4298.974121,4342.820313,4310.128418,4322.436035,4326.410156,4326.922852,4325.512695,4296.666504,4531.794922,4538.205078,4413.589844,4467.307617,4336.000000,2.000000,44.000000,,,,0.000000,4.000000,4.000000,4.000000,4.000000,4.000000,4.000000,4.000000,4.000000,4.000000,4.000000,4.000000,4.000000,4.000000,4.000000,100.000000,,,,,,,,,,,,,,,,,,,,,,,,,,,,,,,,,,,,,,,,,,,,,,,,,,,,,,,,,,,,,,,,,,,,,,,,,,,,,,,,,,,,,,,,,,,,,,,,,,,,,,,,,,,,,,,,,,,,,
1768292908.723748,1768292908.724526,91.000000,0.000000,4328.333496,4324.230957,4301.025879,4349.615234,4310.512695,4327.820313,4326.666504,4324.743652,4327.563965,4295.000000,4529.743652,4541.153809,4411.410156,4469.102539,4754.000000,2.000000,44.000000,,,,0.000000,4.000000,4.000000,4.000000,4.000000,4.000000,4.000000,4.000000,4.000000,4.000000,4.000000,4.000000,4.000000,4.000000,4.000000,100.000000,,,,,,,,,,,,,,,,,,,,,,,,,,,,,,,,,,,,,,,,,,,,,,,,,,,,,,,,,,,,,,,,,,,,,,,,,,,,,,,,,,,,,,,,,,,,,,,,,,,,,,,,,,,,,,,,,,,,,
1768292908.731556,1768292908.732535,92.000000,0.000000,4324.871582,4328.846191,4298.333496,4352.820313,4309.743652,4324.743652,4317.051270,4321.538574,4323.846191,4293.461426,4522.179688,4532.051270,4403.717773,4462.820313,4590.000000,2.000000,44.000000,,,,0.000000,4.000000,4.000000,4.000000,4.000000,4.000000,4.000000,4.000000,4.000000,4.000000,4.000000,4.000000,4.000000,4.000000,4.000000,100.000000,,,,,,,,,,,,,,,,,,,,,,,,,,,,,,,,,,,,,,,,,,,,,,,,,,,,,,,,,,,,,,,,,,,,,,,,,,,,,,,,,,,,,,,,,,,,,,,,,,,,,,,,,,,,,,,,,,,,,
1768292908.739365,1768292908.740343,93.000000,0.000000,4322.051270,4323.589844,4297.692383,4346.538574,4307.436035,4320.128418,4313.077148,4322.051270,4324.487305,4293.333496,4521.922852,4526.538574,4402.820313,4459.487305,5678.000000,2.000000,44.000000,,,,0.000000,4.000000,4.000000,4.000000,4.000000,4.000000,4.000000,4.000000,4.000000,4.000000,4.000000,4.000000,4.000000,4.000000,4.000000,100.000000,,,,,,,,,,,,,,,,,,,,,,,,,,,,,,,,,,,,,,,,,,,,,,,,,,,,,,,,,,,,,,,,,,,,,,,,,,,,,,,,,,,,,,,,,,,,,,,,,,,,,,,,,,,,,,,,,,,,,
1768292908.747173,1768292908.748251,94.000000,0.000000,4321.666504,4322.820313,4299.743652,4342.179688,4307.563965,4323.461426,4317.436035,4321.153809,4327.307617,4293.846191,4525.000000,4531.410156,4407.563965,4466.025879,4336.000000,2.000000,44.000000,,,,0.000000,4.000000,4.000000,4.000000,4.000000,4.000000,4.000000,4.000000,4.000000,4.000000,4.000000,4.000000,4.000000,4.000000,4.000000,100.000000,,,,,,,,,,,,,,,,,,,,,,,,,,,,,,,,,,,,,,,,,,,,,,,,,,,,,,,,,,,,,,,,,,,,,,,,,,,,,,,,,,,,,,,,,,,,,,,,,,,,,,,,,,,,,,,,,,,,,
1768292908.754981,1768292908.756060,95.000000,0.000000,4325.256348,4326.410156,4298.333496,4346.538574,4308.333496,4325.769043,4322.179688,4319.102539,4325.897461,4293.974121,4531.153809,4538.333496,4417.692383,4474.615234,4754.000000,2.000000,44.000000,,,,0.000000,4.000000,4.000000,4.000000,4.000000,4.000000,4.000000,4.000000,4.000000,4.000000,4.000000,4.000000,4.000000,4.000000,4.000000,100.000000,,,,,,,,,,,,,,,,,,,,,,,,,,,,,,,,,,,,,,,,,,,,,,,,,,,,,,,,,,,,,,,,,,,,,,,,,,,,,,,,,,,,,,,,,,,,,,,,,,,,,,,,,,,,,,,,,,,,,
1768292908.762790,1768292908.763669,96.000000,0.000000,4328.717773,4326.794922,4294.871582,4347.307617,4307.692383,4325.512695,4324.102539,4320.641113,4323.333496,4294.358887,4535.769043,4538.589844,4426.538574,4477.051270,4590.000000,2.000000,44.000000,,,,0.000000,4.000000,4.000000,4.000000,4.000000,4.000000,4.000000,4.000000,4.000000,4.000000,4.000000,4.000000,4.000000,4.000000,4.000000,100.000000,,,,,,,,,,,,,,,,,,,,,,,,,,,,,,,,,,,,,,,,,,,,,,,,1.165399,0.474510,0.552319,0.523445,0.138941,0.935224,0.476629,0.284551,0.272229,0.083517,0.257668,0.213010,0.050648,0.080597,0.055277,0.641540,0.259146,0.219754,0.190674,0.130583,0.962573,0.348982,0.161988,0.151060,0.065769,0.374899,0.086006,0.142534,0.142247,0.200046,0.356545,0.285183,0.286712,0.274282,0.241199,0.567356,0.479149,0.323523,0.225908,0.086578,0.419080,0.675594,0.482552,0.180515,0.057393,1.547427,1.198105,0.815299,0.419899,0.139852,0.719072,0.762653,0.852012,0.308535,0.185058,1.164105,0.679697,0.896032,0.517042,0.209853,0.654207,0.777576,0.707336,0.397050,0.193417,1.044475,0.529252,0.835713,0.476502,0.164345
1768292908.770598,1768292908.771477,97.000000,0.000000,4327.692383,4325.512695,4297.692383,4341.538574,4306.666504,4326.538574,4322.692383,4322.948730,4323.077148,4293.589844,4530.512695,4536.922852,4421.410156,4475.256348,5678.000000,2.000000,44.000000,,,,0.000000,4.000000,4.000000,4.000000,4.000000,4.000000,4.000000,4.000000,4.000000,4.000000,4.000000,4.000000,4.000000,4.000000,4.000000,100.000000,,,,,,,,,,,,,,,,,,,,,,,,,,,,,,,,,,,,,,,,,,,,,,,,,,,,,,,,,,,,,,,,,,,,,,,,,,,,,,,,,,,,,,,,,,,,,,,,,,,,,,,,,,,,,,,,,,,,,
1768292908.778407,1768292908.779186,98.000000,0.000000,4325.000000,4325.641113,4300.641113,4341.025879,4308.077148,4324.871582,4323.077148,4323.333496,4323.589844,4294.230957,4525.384766,4538.974121,4412.948730,4473.846191,4336.000000,2.000000,44.000000,,,,0.000000,4.000000,4.000000,4.000000,4.000000,4.000000,4.000000,4.000000,4.000000,4.000000,4.000000,4.000000,4.000000,4.000000,4.000000,100.000000,,,,,,,,,,,,,,,,,,,,,,,,,,,,,,,,,,,,,,,,,,,,,,,,,,,,,,,,,,,,,,,,,,,,,,,,,,,,,,,,,,,,,,,,,,,,,,,,,,,,,,,,,,,,,,,,,,,,,
1768292908.786215,1768292908.786994,99.000000,0.000000,4325.128418,4325.641113,4297.820313,4347.307617,4311.538574,4326.922852,4324.615234,4324.358887,4321.282227,4294.487305,4526.282227,4538.077148,4413.846191,4473.717773,4754.000000,2.000000,44.000000,,,,0.000000,4.000000,4.000000,4.000000,4.000000,4.000000,4.000000,4.000000,4.000000,4.000000,4.000000,4.000000,4.000000,4.000000,4.000000,100.000000,,,,,,,,,,,,,,,,,,,,,,,,,,,,,,,,,,,,,,,,,,,,,,,,,,,,,,,,,,,,,,,,,,,,,,,,,,,,,,,,,,,,,,,,,,,,,,,,,,,,,,,,,,,,,,,,,,,,,
1768292908.794024,1768292908.795002,100.000000,0.000000,4330.128418,4326.538574,4298.077148,4350.769043,4313.205078,4326.794922,4321.538574,4324.487305,4321.922852,4293.717773,4525.641113,4537.820313,4416.794922,4474.743652,4590.000000,2.000000,44.000000,,,,0.000000,4.000000,4.000000,4.000000,4.000000,4.000000,4.000000,4.000000,4.000000,4.000000,4.000000,4.000000,4.000000,4.000000,4.000000,100.000000,,,,,,,,,,,,,,,,,,,,,,,,,,,,,,,,,,,,,,,,,,,,,,,,,,,,,,,,,,,,,,,,,,,,,,,,,,,,,,,,,,,,,,,,,,,,,,,,,,,,,,,,,,,,,,,,,,,,,
1768292908.801832,1768292908.802811,101.000000,0.000000,4334.102539,4328.974121,4301.025879,4347.563965,4310.897461,4316.282227,4318.077148,4321.922852,4326.410156,4295.000000,4527.179688,4537.820313,4417.179688,4477.179688,5678.000000,2.000000,44.000000,,,,0.000000,4.000000,4.000000,4.000000,4.000000,4.000000,4.000000,4.000000,4.000000,4.000000,4.000000,4.000000,4.000000,4.000000,4.000000,100.000000,,,,,,,,,,,,,,,,,,,,,,,,,,,,,,,,,,,,,,,,,,,,,,,,,,,,,,,,,,,,,,,,,,,,,,,,,,,,,,,,,,,,,,,,,,,,,,,,,,,,,,,,,,,,,,,,,,,,,
1768292908.809640,1768292908.810719,102.000000,0.000000,4328.461426,4327.179688,4297.692383,4340.256348,4306.922852,4308.077148,4316.025879,4316.538574,4322.820313,4293.077148,4522.179688,4526.922852,4414.487305,4473.461426,4336.000000,2.000000,44.000000,,,,0.000000,4.000000,4.000000,4.000000,4.000000,4.000000,4.000000,4.000000,4.000000,4.000000,4.000000,4.000000,4.000000,4.000000,4.000000,100.000000,,,,,,,,,,,,,,,,,,,,,,,,,,,,,,,,,,,,,,,,,,,,,,,,,,,,,,,,,,,,,,,,,,,,,,,,,,,,,,,,,,,,,,,,,,,,,,,,,,,,,,,,,,,,,,,,,,,,,
1768292908.817449,1768292908.818528,103.000000,0.000000,4321.025879,4326.153809,4295.641113,4340.897461,4308.077148,4315.769043,4316.538574,4317.436035,4315.128418,4289.743652,4513.205078,4520.128418,4410.000000,4471.153809,4754.000000,2.000000,44.000000,,,,0.000000,4.000000,4.000000,4.000000,4.000000,4.000000,4.000000,4.000000,4.000000,4.000000,4.000000,4.000000,4.000000,4.000000,4.000000,100.000000,,,,,,,,,,,,,,,,,,,,,,,,,,,,,,,,,,,,,,,,,,,,,,,,,,,,,,,,,,,,,,,,,,,,,,,,,,,,,,,,,,,,,,,,,,,,,,,,,,,,,,,,,,,,,,,,,,,,,
1768292908.825257,1768292908.826536,104.000000,0.000000,4326.153809,4333.461426,4299.487305,4350.512695,4312.820313,4325.384766,4321.922852,4325.128418,4318.461426,4293.461426,4516.025879,4528.717773,4410.897461,4475.256348,4590.000000,2.000000,44.000000,,,,0.000000,4.000000,4.000000,4.000000,4.000000,4.000000,4.000000,4.000000,4.000000,4.000000,4.000000,4.000000,4.000000,4.000000,4.000000,100.000000,,,,,,,,,,,,,,,,,,,,,,,,,,,,,,,,,,,,,,,,,,,,,,,,,,,,,,,,,,,,,,,,,,,,,,,,,,,,,,,,,,,,,,,,,,,,,,,,,,,,,,,,,,,,,,,,,,,,,
1768292908.833066,1768292908.834344,105.000000,0.000000,4336.410156,4340.256348,4301.666504,4354.871582,4312.692383,4319.615234,4322.563965,4322.820313,4321.282227,4297.179688,4522.692383,4530.128418,4415.256348,4476.794922,5678.000000,2.000000,44.000000,,,,0.000000,4.000000,4.000000,4.000000,4.000000,4.000000,4.000000,4.000000,4.000000,4.000000,4.000000,4.000000,4.000000,4.000000,4.000000,100.000000,,,,,,,,,,,,,,,,,,,,,,,,,,,,,,,,,,,,,,,,,,,,,,,,,,,,,,,,,,,,,,,,,,,,,,,,,,,,,,,,,,,,,,,,,,,,,,,,,,,,,,,,,,,,,,,,,,,,,
1768292908.840874,1768292908.842053,106.000000,0.000000,4336.410156,4335.128418,4301.538574,4352.051270,4308.974121,4315.256348,4319.102539,4311.153809,4313.205078,4294.487305,4520.384766,4522.436035,4415.512695,4475.000000,4336.000000,2.000000,44.000000,,,,0.000000,4.000000,4.000000,4.000000,4.000000,4.000000,4.000000,4.000000,4.000000,4.000000,4.000000,4.000000,4.000000,4.000000,4.000000,100.000000,,,,,,,,,,,,,,,,,,,,,,,,,,,,,,,,,,,,,,,,,,,,,,,,,,,,,,,,,,,,,,,,,,,,,,,,,,,,,,,,,,,,,,,,,,,,,,,,,,,,,,,,,,,,,,,,,,,,,
1768292908.848683,1768292908.849861,107.000000,0.000000,4331.538574,4329.230957,4301.538574,4349.102539,4310.128418,4322.692383,4327.307617,4308.846191,4309.230957,4293.205078,4514.102539,4526.153809,4411.153809,4475.897461,4754.000000,2.000000,44.000000,,,,0.000000,4.000000,4.000000,4.000000,4.000000,4.000000,4.000000,4.000000,4.000000,4.000000,4.000000,4.000000,4.000000,4.000000,4.000000,100.000000,,,,,,,,,,,,,,,,,,,,,,,,,,,,,,,,,,,,,,,,,,,,,,,,,,,,,,,,,,,,,,,,,,,,,,,,,,,,,,,,,,,,,,,,,,,,,,,,,,,,,,,,,,,,,,,,,,,,,
1768292908.856491,1768292908.857470,108.000000,0.000000,4326.794922,4330.641113,4298.974121,4345.769043,4312.307617,4322.820313,4332.307617,4316.153809,4313.846191,4295.769043,4510.897461,4530.512695,4408.846191,4476.153809,4590.000000,2.000000,44.000000,,,,0.000000,4.000000,4.000000,4.000000,4.000000,4.000000,4.000000,4.000000,4.000000,4.000000,4.000000,4.000000,4.000000,4.000000,4.000000,100.000000,,,,,,,,,,,,,,,,,,,,,,,,,,,,,,,,,,,,,,,,,,,,,,,,,,,,,,,,,,,,,,,,,,,,,,,,,,,,,,,,,,,,,,,,,,,,,,,,,,,,,,,,,,,,,,,,,,,,,
1768292908.864299,1768292908.865278,109.000000,0.000000,4320.128418,4330.384766,4295.256348,4340.384766,4309.487305,4308.974121,4315.897461,4314.102539,4314.230957,4296.666504,4508.589844,4522.820313,4410.641113,4472.948730,5678.000000,2.000000,44.000000,,,,0.000000,4.000000,4.000000,4.000000,4.000000,4.000000,4.000000,4.000000,4.000000,4.000000,4.000000,4.000000,4.000000,4.000000,4.000000,100.000000,,,,,,,,,,,,,,,,,,,,,,,,,,,,,,,,,,,,,,,,,,,,,,,,,,,,,,,,,,,,,,,,,,,,,,,,,,,,,,,,,,,,,,,,,,,,,,,,,,,,,,,,,,,,,,,,,,,,,
1768292908.872108,1768292908.872987,110.000000,0.000000,4318.846191,4326.794922,4297.307617,4340.000000,4308.333496,4308.205078,4305.128418,4309.358887,4310.641113,4295.897461,4509.102539,4520.128418,4412.436035,4472.692383,4336.000000,2.000000,44.000000,,,,0.000000,4.000000,4.000000,4.000000,4.000000,4.000000,4.000000,4.000000,4.000000,4.000000,4.000000,4.000000,4.000000,4.000000,4.000000,100.000000,,,,,,,,,,,,,,,,,,,,,,,,,,,,,,,,,,,,,,,,,,,,,,,,,,,,,,,,,,,,,,,,,,,,,,,,,,,,,,,,,,,,,,,,,,,,,,,,,,,,,,,,,,,,,,,,,,,,,
1768292908.879916,1768292908.880795,111.000000,0.000000,4326.794922,4326.025879,4303.205078,4344.230957,4313.974121,4322.179688,4317.692383,4317.820313,4312.820313,4298.589844,4513.461426,4529.230957,4412.948730,4476.538574,4754.000000,2.000000,44.000000,,,,0.000000,4.000000,4.000000,4.000000,4.000000,4.000000,4.000000,4.000000,4.000000,4.000000,4.000000,4.000000,4.000000,4.000000,4.000000,100.000000,,,,,,,,,,,,,,,,,,,,,,,,,,,,,,,,,,,,,,,,,,,,,,,,,,,,,,,,,,,,,,,,,,,,,,,,,,,,,,,,,,,,,,,,,,,,,,,,,,,,,,,,,,,,,,,,,,,,,
1768292908.887725,1768292908.888404,112.000000,0.000000,4327.307617,4326.282227,4302.948730,4343.974121,4318.846191,4322.820313,4327.948730,4328.461426,4317.820313,4306.410156,4519.102539,4536.153809,4412.436035,4477.948730,4590.000000,2.000000,44.000000,,,,0.000000,4.000000,4.000000,4.000000,4.000000,4.000000,4.000000,4.000000,4.000000,4.000000,4.000000,4.000000,4.000000,4.000000,4.000000,100.000000,,,,,,,,,,,,,,,,,,,,,,,,,,,,,,,,,,,,,,,,,,,,,,,,1.466681,0.501858,0.650451,0.575297,0.130854,1.022271,0.460634,0.317510,0.289621,0.085642,0.283488,0.226852,0.047588,0.082012,0.048996,0.731813,0.248513,0.236144,0.183423,0.112840,1.041106,0.416510,0.189209,0.153638,0.060765,0.410451,0.087065,0.153686,0.133928,0.186651,0.352712,0.304671,0.296615,0.263745,0.239584,0.570688,0.539231,0.349814,0.219640,0.083881,0.387493,0.760043,0.465627,0.179411,0.060651,1.434114,1.350812,0.864064,0.445318,0.139486,0.616805,0.821346,0.879928,0.326158,0.186550,1.169460,0.763037,0.884738,0.507235,0.207155,0.738611,0.849859,0.700132,0.386705,0.179169,1.086165,0.603740,0.893344,0.427747,0.171573
1768292908.895533,1768292908.896212,113.000000,0.000000,4312.692383,4321.410156,4297.692383,4338.205078,4318.846191,4314.743652,4316.538574,4326.282227,4318.717773,4308.333496,4521.538574,4535.641113,4411.410156,4475.897461,5678.000000,2.000000,44.000000,,,,0.000000,4.000000,4.000000,4.000000,4.000000,4.000000,4.000000,4.000000,4.000000,4.000000,4.000000,4.000000,4.000000,4.000000,4.000000,100.000000,,,,,,,,,,,,,,,,,,,,,,,,,,,,,,,,,,,,,,,,,,,,,,,,,,,,,,,,,,,,,,,,,,,,,,,,,,,,,,,,,,,,,,,,,,,,,,,,,,,,,,,,,,,,,,,,,,,,,
1768292908.903341,1768292908.903921,114.000000,0.000000,4306.410156,4319.358887,4295.512695,4337.692383,4318.077148,4313.846191,4311.025879,4319.358887,4317.179688,4302.692383,4518.461426,4535.128418,4411.025879,4474.743652,4336.000000,2.000000,44.000000,,,,0.000000,4.000000,4.000000,4.000000,4.000000,4.000000,4.000000,4.000000,4.000000,4.000000,4.000000,4.000000,4.000000,4.000000,4.000000,100.000000,,,,,,,,,,,,,,,,,,,,,,,,,,,,,,,,,,,,,,,,,,,,,,,,,,,,,,,,,,,,,,,,,,,,,,,,,,,,,,,,,,,,,,,,,,,,,,,,,,,,,,,,,,,,,,,,,,,,,
1768292908.911150,1768292908.911729,115.000000,0.000000,4320.512695,4324.358887,4302.563965,4349.230957,4321.410156,4323.717773,4330.512695,4323.333496,4318.717773,4303.077148,4519.743652,4538.333496,4410.000000,4478.974121,4754.000000,2.000000,44.000000,,,,0.000000,4.000000,4.000000,4.000000,4.000000,4.000000,4.000000,4.000000,4.000000,4.000000,4.000000,4.000000,4.000000,4.000000,4.000000,100.000000,,,,,,,,,,,,,,,,,,,,,,,,,,,,,,,,,,,,,,,,,,,,,,,,,,,,,,,,,,,,,,,,,,,,,,,,,,,,,,,,,,,,,,,,,,,,,,,,,,,,,,,,,,,,,,,,,,,,,
1768292908.918958,1768292908.919738,116.000000,0.000000,4331.794922,4327.692383,4310.384766,4354.230957,4320.128418,4328.461426,4334.743652,4327.179688,4322.563965,4304.230957,4524.743652,4539.743652,4411.153809,4481.666504,4590.000000,2.000000,44.000000,,,,0.000000,4.000000,4.000000,4.000000,4.000000,4.000000,4.000000,4.000000,4.000000,4.000000,4.000000,4.000000,4.000000,4.000000,4.000000,100.000000,,,,,,,,,,,,,,,,,,,,,,,,,,,,,,,,,,,,,,,,,,,,,,,,,,,,,,,,,,,,,,,,,,,,,,,,,,,,,,,,,,,,,,,,,,,,,,,,,,,,,,,,,,,,,,,,,,,,,
1768292908.926767,1768292908.927546,117.000000,0.000000,4326.282227,4325.512695,4307.051270,4345.128418,4312.563965,4316.025879,4312.179688,4321.922852,4321.794922,4298.205078,4524.487305,4537.051270,4413.333496,4480.512695,5678.000000,2.000000,44.000000,,,,0.000000,4.000000,4.000000,4.000000,4.000000,4.000000,4.000000,4.000000,4.000000,4.000000,4.000000,4.000000,4.000000,4.000000,4.000000,100.000000,,,,,,,,,,,,,,,,,,,,,,,,,,,,,,,,,,,,,,,,,,,,,,,,,,,,,,,,,,,,,,,,,,,,,,,,,,,,,,,,,,,,,,,,,,,,,,,,,,,,,,,,,,,,,,,,,,,,,
1768292908.934575,1768292908.935454,118.000000,0.000000,4321.025879,4323.846191,4302.051270,4343.974121,4313.717773,4311.025879,4312.563965,4320.512695,4315.897461,4296.025879,4522.051270,4537.307617,4414.871582,4482.436035,4336.000000,2.000000,44.000000,,,,0.000000,4.000000,4.000000,4.000000,4.000000,4.000000,4.000000,4.000000,4.000000,4.000000,4.000000,4.000000,4.000000,4.000000,4.000000,100.000000,,,,,,,,,,,,,,,,,,,,,,,,,,,,,,,,,,,,,,,,,,,,,,,,,,,,,,,,,,,,,,,,,,,,,,,,,,,,,,,,,,,,,,,,,,,,,,,,,,,,,,,,,,,,,,,,,,,,,
1768292908.942383,1768292908.943263,119.000000,0.000000,4325.384766,4325.000000,4305.384766,4352.436035,4323.717773,4324.102539,4332.179688,4324.743652,4311.666504,4298.205078,4522.051270,4538.974121,4412.563965,4481.025879,4754.000000,2.000000,44.000000,,,,0.000000,4.000000,4.000000,4.000000,4.000000,4.000000,4.000000,4.000000,4.000000,4.000000,4.000000,4.000000,4.000000,4.000000,4.000000,100.000000,,,,,,,,,,,,,,,,,,,,,,,,,,,,,,,,,,,,,,,,,,,,,,,,,,,,,,,,,,,,,,,,,,,,,,,,,,,,,,,,,,,,,,,,,,,,,,,,,,,,,,,,,,,,,,,,,,,,,
1768292908.950192,1768292908.951271,120.000000,0.000000,4326.922852,4326.153809,4306.794922,4351.538574,4322.179688,4325.256348,4324.487305,4322.948730,4312.820313,4296.025879,4521.282227,4537.948730,4407.692383,4474.102539,4590.000000,2.000000,44.000000,,,,0.000000,4.000000,4.000000,4.000000,4.000000,4.000000,4.000000,4.000000,4.000000,4.000000,4.000000,4.000000,4.000000,4.000000,4.000000,100.000000,,,,,,,,,,,,,,,,,,,,,,,,,,,,,,,,,,,,,,,,,,,,,,,,,,,,,,,,,,,,,,,,,,,,,,,,,,,,,,,,,,,,,,,,,,,,,,,,,,,,,,,,,,,,,,,,,,,,,
1768292908.958000,1768292908.959080,121.000000,0.000000,4326.538574,4326.153809,4300.128418,4347.051270,4311.666504,4316.025879,4312.692383,4318.461426,4312.051270,4292.820313,4519.487305,4536.153809,4406.666504,4478.974121,5678.000000,2.000000,44.000000,,,,0.000000,4.000000,4.000000,4.000000,4.000000,4.000000,4.000000,4.000000,4.000000,4.000000,4.000000,4.000000,4.000000,4.000000,4.000000,100.000000,,,,,,,,,,,,,,,,,,,,,,,,,,,,,,,,,,,,,,,,,,,,,,,,,,,,,,,,,,,,,,,,,,,,,,,,,,,,,,,,,,,,,,,,,,,,,,,,,,,,,,,,,,,,,,,,,,,,,
1768292908.965809,1768292908.966788,122.000000,0.000000,4325.641113,4322.692383,4297.563965,4350.000000,4310.384766,4322.307617,4326.282227,4322.563965,4312.051270,4295.384766,4520.000000,4538.846191,4409.615234,4491.025879,4336.000000,2.000000,44.000000,,,,0.000000,4.000000,4.000000,4.000000,4.000000,4.000000,4.000000,4.000000,4.000000,4.000000,4.000000,4.000000,4.000000,4.000000,4.000000,100.000000,,,,,,,,,,,,,,,,,,,,,,,,,,,,,,,,,,,,,,,,,,,,,,,,,,,,,,,,,,,,,,,,,,,,,,,,,,,,,,,,,,,,,,,,,,,,,,,,,,,,,,,,,,,,,,,,,,,,,
1768292908.973617,1768292908.974597,123.000000,0.000000,4326.153809,4320.000000,4303.077148,4350.000000,4313.589844,4325.897461,4333.846191,4328.077148,4317.179688,4296.282227,4522.179688,4546.666504,4411.922852,4492.563965,4754.000000,2.000000,44.000000,,,,0.000000,4.000000,4.000000,4.000000,4.000000,4.000000,4.000000,4.000000,4.000000,4.000000,4.000000,4.000000,4.000000,4.000000,4.000000,100.000000,,,,,,,,,,,,,,,,,,,,,,,,,,,,,,,,,,,,,,,,,,,,,,,,,,,,,,,,,,,,,,,,,,,,,,,,,,,,,,,,,,,,,,,,,,,,,,,,,,,,,,,,,,,,,,,,,,,,,
1768292908.981426,1768292908.982605,124.000000,0.000000,4333.846191,4323.461426,4307.179688,4348.461426,4314.871582,4317.948730,4324.102539,4326.153809,4320.256348,4296.922852,4524.871582,4552.051270,4412.948730,4495.512695,4590.000000,2.000000,44.000000,,,,0.000000,4.000000,4.000000,4.000000,4.000000,4.000000,4.000000,4.000000,4.000000,4.000000,4.000000,4.000000,4.000000,4.000000,4.000000,100.000000,,,,,,,,,,,,,,,,,,,,,,,,,,,,,,,,,,,,,,,,,,,,,,,,,,,,,,,,,,,,,,,,,,,,,,,,,,,,,,,,,,,,,,,,,,,,,,,,,,,,,,,,,,,,,,,,,,,,,
1768292908.989234,1768292908.990413,125.000000,0.000000,4342.948730,4328.077148,4308.333496,4355.256348,4319.102539,4321.025879,4323.846191,4322.948730,4318.717773,4302.948730,4526.794922,4553.589844,4415.384766,4504.102539,5678.000000,2.000000,44.000000,,,,0.000000,4.000000,4.000000,4.000000,4.000000,4.000000,4.000000,4.000000,4.000000,4.000000,4.000000,4.000000,4.000000,4.000000,4.000000,100.000000,,,,,,,,,,,,,,,,,,,,,,,,,,,,,,,,,,,,,,,,,,,,,,,,,,,,,,,,,,,,,,,,,,,,,,,,,,,,,,,,,,,,,,,,,,,,,,,,,,,,,,,,,,,,,,,,,,,,,
1768292908.997043,1768292908.998322,126.000000,0.000000,4342.948730,4330.000000,4308.846191,4360.256348,4324.487305,4328.205078,4328.589844,4325.769043,4320.641113,4305.256348,4525.897461,4554.230957,4415.897461,4500.512695,4336.000000,2.000000,44.000000,,,,0.000000,4.000000,4.000000,4.000000,4.000000,4.000000,4.000000,4.000000,4.000000,4.000000,4.000000,4.000000,4.000000,4.000000,4.000000,100.000000,,,,,,,,,,,,,,,,,,,,,,,,,,,,,,,,,,,,,,,,,,,,,,,,,,,,,,,,,,,,,,,,,,,,,,,,,,,,,,,,,,,,,,,,,,,,,,,,,,,,,,,,,,,,,,,,,,,,,
1768292909.004851,1768292909.006130,127.000000,0.000000,4337.436035,4329.871582,4304.615234,4356.794922,4321.666504,4320.128418,4322.307617,4323.974121,4319.102539,4301.794922,4523.974121,4549.487305,4411.922852,4490.384766,44.000000,2.000000,44.000000,,,,0.000000,4.000000,4.000000,4.000000,4.000000,4.000000,4.000000,4.000000,4.000000,4.000000,4.000000,4.000000,4.000000,4.000000,4.000000,100.000000,,,,,,,,,,,,,,,,,,,,,,,,,,,,,,,,,,,,,,,,,,,,,,,,,,,,,,,,,,,,,,,,,,,,,,,,,,,,,,,,,,,,,,,,,,,,,,,,,,,,,,,,,,,,,,,,,,,,,
1768292909.012659,1768292909.013739,0.000000,0.000000,4336.794922,4328.589844,4301.282227,4356.025879,4313.589844,4310.256348,4318.589844,4317.436035,4312.563965,4303.461426,4525.128418,4542.692383,4411.025879,4492.692383,1833.000000,2.000000,44.000000,,,,0.000000,4.000000,4.000000,4.000000,4.000000,4.000000,4.000000,4.000000,4.000000,4.000000,4.000000,4.000000,4.000000,4.000000,4.000000,100.000000,,,,,,,,,,,,,,,,,,,,,,,,,,,,,,,,,,,,,,,,,,,,,,,,1.695243,0.537205,0.688272,0.603633,0.122137,1.117810,0.463824,0.348535,0.306782,0.086644,0.283875,0.229029,0.042769,0.081685,0.042976,0.769167,0.237908,0.240419,0.179200,0.093754,1.051420,0.479031,0.207361,0.151900,0.060555,0.434255,0.096546,0.170808,0.122151,0.169273,0.335981,0.313464,0.305852,0.244449,0.239063,0.578888,0.565043,0.357659,0.215653,0.083376,0.373852,0.774738,0.440547,0.178264,0.065621,1.255298,1.410032,0.856347,0.464072,0.138314,0.574166,0.806092,0.870225,0.346514,0.179718,1.196081,0.820577,0.846970,0.501464,0.209422,0.791448,0.864484,0.666940,0.377590,0.168629,1.131233,0.674013,0.892678,0.384822,0.174370
1768292909.020468,1768292909.021547,1.000000,0.000000,4340.384766,4326.153809,4304.358887,4357.820313,4312.948730,4313.974121,4321.282227,4319.102539,4315.256348,4305.384766,4526.794922,4541.025879,4413.846191,4497.692383,4014.000000,2.000000,44.000000,,,,0.000000,4.000000,4.000000,4.000000,4.000000,4.000000,4.000000,4.000000,4.000000,4.000000,4.000000,4.000000,4.000000,4.000000,4.000000,100.000000,,,,,,,,,,,,,,,,,,,,,,,,,,,,,,,,,,,,,,,,,,,,,,,,,,,,,,,,,,,,,,,,,,,,,,,,,,,,,,,,,,,,,,,,,,,,,,,,,,,,,,,,,,,,,,,,,,,,,
1768292909.028276,1768292909.029256,2.000000,0.000000,4339.871582,4329.358887,4306.922852,4355.641113,4320.256348,4322.820313,4320.256348,4321.794922,4319.487305,4297.307617,4525.000000,4540.384766,4413.333496,4495.769043,3979.000000,2.000000,44.000000,,,,0.000000,4.000000,4.000000,4.000000,4.000000,4.000000,4.000000,4.000000,4.000000,4.000000,4.000000,4.000000,4.000000,4.000000,4.000000,100.000000,,,,,,,,,,,,,,,,,,,,,,,,,,,,,,,,,,,,,,,,,,,,,,,,,,,,,,,,,,,,,,,,,,,,,,,,,,,,,,,,,,,,,,,,,,,,,,,,,,,,,,,,,,,,,,,,,,,,,
1768292909.036085,1768292909.037064,3.000000,0.000000,4339.487305,4335.512695,4307.051270,4356.410156,4323.333496,4321.153809,4319.871582,4320.000000,4314.743652,4294.230957,4522.948730,4539.615234,4411.025879,4494.871582,3892.000000,2.000000,44.000000,,,,0.000000,4.000000,4.000000,4.000000,4.000000,4.000000,4.000000,4.000000,4.000000,4.000000,4.000000,4.000000,4.000000,4.000000,4.000000,100.000000,,,,,,,,,,,,,,,,,,,,,,,,,,,,,,,,,,,,,,,,,,,,,,,,,,,,,,,,,,,,,,,,,,,,,,,,,,,,,,,,,,,,,,,,,,,,,,,,,,,,,,,,,,,,,,,,,,,,,
1768292909.043893,1768292909.045072,4.000000,0.000000,4340.641113,4333.717773,4305.512695,4356.538574,4319.230957,4314.230957,4319.615234,4319.102539,4310.897461,4302.948730,4523.974121,4544.871582,4412.820313,4496.666504,3737.000000,2.000000,44.000000,,,,0.000000,4.000000,4.000000,4.000000,4.000000,4.000000,4.000000,4.000000,4.000000,4.000000,4.000000,4.000000,4.000000,4.000000,4.000000,100.000000,,,,,,,,,,,,,,,,,,,,,,,,,,,,,,,,,,,,,,,,,,,,,,,,,,,,,,,,,,,,,,,,,,,,,,,,,,,,,,,,,,,,,,,,,,,,,,,,,,,,,,,,,,,,,,,,,,,,,
1768292909.051701,1768292909.052881,5.000000,0.000000,4334.487305,4325.128418,4301.538574,4347.692383,4320.512695,4317.948730,4317.820313,4315.769043,4311.538574,4305.128418,4522.948730,4539.487305,4410.000000,4492.179688,2762.000000,2.000000,44.000000,,,,0.000000,4.000000,4.000000,4.000000,4.000000,4.000000,4.000000,4.000000,4.000000,4.000000,4.000000,4.000000,4.000000,4.000000,4.000000,100.000000,,,,,,,,,,,,,,,,,,,,,,,,,,,,,,,,,,,,,,,,,,,,,,,,,,,,,,,,,,,,,,,,,,,,,,,,,,,,,,,,,,,,,,,,,,,,,,,,,,,,,,,,,,,,,,,,,,,,,
1768292909.059510,1768292909.060589,6.000000,0.000000,4325.000000,4323.077148,4299.102539,4340.641113,4320.000000,4320.512695,4318.846191,4309.102539,4310.512695,4299.102539,4519.615234,4523.077148,4404.102539,4483.717773,2565.000000,2.000000,44.000000,,,,0.000000,4.000000,4.000000,4.000000,4.000000,4.000000,4.000000,4.000000,4.000000,4.000000,4.000000,4.000000,4.000000,4.000000,4.000000,100.000000,,,,,,,,,,,,,,,,,,,,,,,,,,,,,,,,,,,,,,,,,,,,,,,,,,,,,,,,,,,,,,,,,,,,,,,,,,,,,,,,,,,,,,,,,,,,,,,,,,,,,,,,,,,,,,,,,,,,,
1768292909.067318,1768292909.068398,7.000000,0.000000,4327.179688,4328.205078,4300.128418,4342.179688,4311.282227,4313.461426,4319.358887,4312.179688,4309.871582,4302.563965,4522.692383,4528.205078,4410.769043,4489.102539,4071.000000,2.000000,44.000000,,,,0.000000,4.000000,4.000000,4.000000,4.000000,4.000000,4.000000,4.000000,4.000000,4.000000,4.000000,4.000000,4.000000,4.000000,4.000000,100.000000,,,,,,,,,,,,,,,,,,,,,,,,,,,,,,,,,,,,,,,,,,,,,,,,,,,,,,,,,,,,,,,,,,,,,,,,,,,,,,,,,,,,,,,,,,,,,,,,,,,,,,,,,,,,,,,,,,,,,
1768292909.075127,1768292909.076006,8.000000,0.000000,4334.358887,4325.897461,4300.384766,4344.487305,4308.974121,4312.948730,4316.153809,4316.538574,4312.436035,4307.948730,4524.743652,4545.256348,4416.410156,4500.256348,3273.000000,2.000000,44.000000,,,,0.000000,4.000000,4.000000,4.000000,4.000000,4.000000,4.000000,4.000000,4.000000,4.000000,4.000000,4.000000,4.000000,4.000000,4.000000,100.000000,,,,,,,,,,,,,,,,,,,,,,,,,,,,,,,,,,,,,,,,,,,,,,,,,,,,,,,,,,,,,,,,,,,,,,,,,,,,,,,,,,,,,,,,,,,,,,,,,,,,,,,,,,,,,,,,,,,,,
1768292909.082935,1768292909.083815,9.000000,0.000000,4324.743652,4314.358887,4297.948730,4341.538574,4312.563965,4319.743652,4315.384766,4310.769043,4311.666504,4300.641113,4513.717773,4534.230957,4403.717773,4488.205078,3841.000000,2.000000,44.000000,,,,0.000000,4.000000,4.000000,4.000000,4.000000,4.000000,4.000000,4.000000,4.000000,4.000000,4.000000,4.000000,4.000000,4.000000,4.000000,100.000000,,,,,,,,,,,,,,,,,,,,,,,,,,,,,,,,,,,,,,,,,,,,,,,,,,,,,,,,,,,,,,,,,,,,,,,,,,,,,,,,,,,,,,,,,,,,,,,,,,,,,,,,,,,,,,,,,,,,,
1768292909.090743,1768292909.091523,10.000000,0.000000,4309.743652,4305.000000,4296.666504,4335.000000,4311.025879,4319.743652,4318.846191,4313.846191,4310.256348,4293.846191,4501.794922,4515.128418,4389.743652,4466.410156,4336.000000,2.000000,44.000000,,,,0.000000,4.000000,4.000000,4.000000,4.000000,4.000000,4.000000,4.000000,4.000000,4.000000,4.000000,4.000000,4.000000,4.000000,4.000000,100.000000,,,,,,,,,,,,,,,,,,,,,,,,,,,,,,,,,,,,,,,,,,,,,,,,,,,,,,,,,,,,,,,,,,,,,,,,,,,,,,,,,,,,,,,,,,,,,,,,,,,,,,,,,,,,,,,,,,,,,
1768292909.098552,1768292909.099332,11.000000,0.000000,4315.769043,4309.615234,4300.641113,4337.051270,4311.794922,4320.128418,4323.717773,4329.615234,4318.205078,4303.974121,4511.666504,4531.153809,4398.974121,4473.205078,4754.000000,2.000000,44.000000,,,,0.000000,4.000000,4.000000,4.000000,4.000000,4.000000,4.000000,4.000000,4.000000,4.000000,4.000000,4.000000,4.000000,4.000000,4.000000,100.000000,,,,,,,,,,,,,,,,,,,,,,,,,,,,,,,,,,,,,,,,,,,,,,,,,,,,,,,,,,,,,,,,,,,,,,,,,,,,,,,,,,,,,,,,,,,,,,,,,,,,,,,,,,,,,,,,,,,,,
1768292909.106360,1768292909.106941,12.000000,0.000000,4336.282227,4326.282227,4305.384766,4351.922852,4322.692383,4325.384766,4330.769043,4342.179688,4332.948730,4323.717773,4536.794922,4560.000000,4424.743652,4504.230957,4590.000000,2.000000,44.000000,,,,0.000000,4.000000,4.000000,4.000000,4.000000,4.000000,4.000000,4.000000,4.000000,4.000000,4.000000,4.000000,4.000000,4.000000,4.000000,100.000000,,,,,,,,,,,,,,,,,,,,,,,,,,,,,,,,,,,,,,,,,,,,,,,,,,,,,,,,,,,,,,,,,,,,,,,,,,,,,,,,,,,,,,,,,,,,,,,,,,,,,,,,,,,,,,,,,,,,,
1768292909.114169,1768292909.114749,13.000000,0.000000,4341.922852,4334.358887,4305.384766,4360.641113,4327.820313,4325.128418,4328.717773,4340.769043,4336.282227,4331.794922,4542.820313,4563.589844,4435.256348,4513.205078,5678.000000,2.000000,44.000000,,,,0.000000,4.000000,4.000000,4.000000,4.000000,4.000000,4.000000,4.000000,4.000000,4.000000,4.000000,4.000000,4.000000,4.000000,4.000000,100.000000,,,,,,,,,,,,,,,,,,,,,,,,,,,,,,,,,,,,,,,,,,,,,,,,,,,,,,,,,,,,,,,,,,,,,,,,,,,,,,,,,,,,,,,,,,,,,,,,,,,,,,,,,,,,,,,,,,,,,
1768292909.121977,1768292909.122657,14.000000,0.000000,4329.871582,4325.769043,4302.820313,4349.615234,4321.538574,4321.282227,4320.512695,4330.897461,4327.307617,4320.769043,4528.077148,4550.384766,4421.538574,4495.897461,4336.000000,2.000000,44.000000,,,,0.000000,4.000000,4.000000,4.000000,4.000000,4.000000,4.000000,4.000000,4.000000,4.000000,4.000000,4.000000,4.000000,4.000000,4.000000,100.000000,,,,,,,,,,,,,,,,,,,,,,,,,,,,,,,,,,,,,,,,,,,,,,,,,,,,,,,,,,,,,,,,,,,,,,,,,,,,,,,,,,,,,,,,,,,,,,,,,,,,,,,,,,,,,,,,,,,,,
1768292909.129786,1768292909.130466,15.000000,0.000000,4323.974121,4319.230957,4302.307617,4342.051270,4318.333496,4322.948730,4323.846191,4324.487305,4322.307617,4307.563965,4520.000000,4541.538574,4411.282227,4490.769043,4754.000000,2.000000,44.000000,,,,0.000000,4.000000,4.000000,4.000000,4.000000,4.000000,4.000000,4.000000,4.000000,4.000000,4.000000,4.000000,4.000000,4.000000,4.000000,100.000000,,,,,,,,,,,,,,,,,,,,,,,,,,,,,,,,,,,,,,,,,,,,,,,,,,,,,,,,,,,,,,,,,,,,,,,,,,,,,,,,,,,,,,,,,,,,,,,,,,,,,,,,,,,,,,,,,,,,,
1768292909.137594,1768292909.138474,16.000000,0.000000,4327.307617,4326.025879,4303.205078,4347.692383,4321.922852,4323.205078,4327.436035,4323.077148,4320.128418,4306.794922,4515.641113,4538.846191,4406.153809,4492.179688,0.000000,2.000000,44.000000,,,,0.000000,4.000000,4.000000,4.000000,4.000000,4.000000,4.000000,4.000000,4.000000,4.000000,4.000000,4.000000,4.000000,4.000000,4.000000,100.000000,1.000000,75.000000,4.000000,4.000000,1.000000,4.000000,4.000000,4.000000,4.000000,4.000000,4.000000,4.000000,4.000000,4.000000,4.000000,4.000000,,,,,,,,,,,,,,,,,,,,,,,,,,,,,,,,1.799365,0.568398,0.652420,0.610670,0.119136,1.176429,0.477192,0.367464,0.324783,0.086969,0.258557,0.219131,0.036697,0.080110,0.039637,0.736818,0.236023,0.230797,0.183498,0.079351,0.993208,0.519533,0.214010,0.145306,0.063619,0.448424,0.107824,0.186265,0.112490,0.154606,0.314688,0.303964,0.310387,0.224780,0.240738,0.609654,0.544726,0.353682,0.216961,0.085388,0.413572,0.719182,0.410905,0.182998,0.072403,1.080497,1.347906,0.797484,0.473902,0.134612,0.653323,0.721510,0.844657,0.377527,0.168340,1.299490,0.834545,0.806201,0.505335,0.219637,0.811763,0.812678,0.619409,0.369306,0.162048,1.197333,0.722181,0.844833,0.363437,0.176704
1768292909.145403,1768292909.146282,17.000000,0.000000,4327.051270,4326.282227,4303.717773,4347.179688,4323.717773,4315.641113,4319.358887,4321.666504,4317.692383,4309.102539,4507.436035,4533.205078,4396.025879,4477.820313,0.000000,2.000000,44.000000,,,,0.000000,4.000000,4.000000,4.000000,4.000000,4.000000,4.000000,4.000000,4.000000,4.000000,4.000000,4.000000,4.000000,4.000000,4.000000,100.000000,,,,,,,,,,,,,,,,,,,,,,,,,,,,,,,,,,,,,,,,,,,,,,,,,,,,,,,,,,,,,,,,,,,,,,,,,,,,,,,,,,,,,,,,,,,,,,,,,,,,,,,,,,,,,,,,,,,,,
1768292909.153211,1768292909.154191,18.000000,0.000000,4321.410156,4313.846191,4300.769043,4340.256348,4320.000000,4314.230957,4316.410156,4320.128418,4321.666504,4307.948730,4512.692383,4531.282227,4401.282227,4475.897461,0.000000,2.000000,44.000000,,,,0.000000,4.000000,4.000000,4.000000,4.000000,4.000000,4.000000,4.000000,4.000000,4.000000,4.000000,4.000000,4.000000,4.000000,4.000000,100.000000,,,,,,,,,,,,,,,,,,,,,,,,,,,,,,,,,,,,,,,,,,,,,,,,,,,,,,,,,,,,,,,,,,,,,,,,,,,,,,,,,,,,,,,,,,,,,,,,,,,,,,,,,,,,,,,,,,,,,
1768292909.161019,1768292909.161999,19.000000,0.000000,4320.000000,4309.102539,4297.179688,4339.230957,4319.743652,4317.179688,4320.128418,4319.871582,4322.563965,4309.743652,4522.820313,4534.230957,4413.077148,4488.717773,0.000000,2.000000,44.000000,,,,0.000000,4.000000,4.000000,4.000000,4.000000,4.000000,4.000000,4.000000,4.000000,4.000000,4.000000,4.000000,4.000000,4.000000,4.000000,100.000000,,,,,,,,,,,,,,,,,,,,,,,,,,,,,,,,,,,,,,,,,,,,,,,,,,,,,,,,,,,,,,,,,,,,,,,,,,,,,,,,,,,,,,,,,,,,,,,,,,,,,,,,,,,,,,,,,,,,,
1768292909.168828,1768292909.169608,20.000000,0.000000,4318.589844,4312.820313,4296.153809,4339.871582,4322.692383,4315.641113,4316.410156,4319.358887,4313.077148,4306.153809,4515.897461,4531.153809,4403.717773,4483.077148,0.000000,2.000000,44.000000,,,,0.000000,4.000000,4.000000,4.000000,4.000000,4.000000,4.000000,4.000000,4.000000,4.000000,4.000000,4.000000,4.000000,4.000000,4.000000,100.000000,,,,,,,,,,,,,,,,,,,,,,,,,,,,,,,,,,,,,,,,,,,,,,,,,,,,,,,,,,,,,,,,,,,,,,,,,,,,,,,,,,,,,,,,,,,,,,,,,,,,,,,,,,,,,,,,,,,,,
1768292909.176636,1768292909.177416,21.000000,0.000000,4313.333496,4310.512695,4295.128418,4334.871582,4320.641113,4315.000000,4315.769043,4320.384766,4308.333496,4298.846191,4506.282227,4522.563965,4392.051270,4470.256348,0.000000,2.000000,44.000000,,,,0.000000,4.000000,4.000000,4.000000,4.000000,4.000000,4.000000,4.000000,4.000000,4.000000,4.000000,4.000000,4.000000,4.000000,4.000000,100.000000,,,,,,,,,,,,,,,,,,,,,,,,,,,,,,,,,,,,,,,,,,,,,,,,,,,,,,,,,,,,,,,,,,,,,,,,,,,,,,,,,,,,,,,,,,,,,,,,,,,,,,,,,,,,,,,,,,,,,
1768292909.184445,1768292909.185325,22.000000,0.000000,4318.846191,4313.205078,4296.153809,4333.205078,4318.717773,4315.384766,4322.436035,4320.641113,4317.948730,4302.563965,4511.538574,4522.436035,4399.615234,4473.589844,0.000000,2.000000,44.000000,,,,0.000000,4.000000,4.000000,4.000000,4.000000,4.000000,4.000000,4.000000,4.000000,4.000000,4.000000,4.000000,4.000000,4.000000,4.000000,100.000000,,,,,,,,,,,,,,,,,,,,,,,,,,,,,,,,,,,,,,,,,,,,,,,,,,,,,,,,,,,,,,,,,,,,,,,,,,,,,,,,,,,,,,,,,,,,,,,,,,,,,,,,,,,,,,,,,,,,,
1768292909.192253,1768292909.193133,23.000000,0.000000,4329.102539,4324.230957,4298.717773,4338.846191,4319.871582,4316.538574,4323.077148,4318.717773,4322.563965,4305.128418,4516.538574,4531.666504,4404.871582,4485.256348,0.000000,2.000000,44.000000,,,,0.000000,4.000000,4.000000,4.000000,4.000000,4.000000,4.000000,4.000000,4.000000,4.000000,4.000000,4.000000,4.000000,4.000000,4.000000,100.000000,,,,,,,,,,,,,,,,,,,,,,,,,,,,,,,,,,,,,,,,,,,,,,,,,,,,,,,,,,,,,,,,,,,,,,,,,,,,,,,,,,,,,,,,,,,,,,,,,,,,,,,,,,,,,,,,,,,,,
1768292909.200061,1768292909.201042,24.000000,0.000000,4328.461426,4325.769043,4298.205078,4342.820313,4321.153809,4317.820313,4319.487305,4315.897461,4312.563965,4298.589844,4513.974121,4535.128418,4403.077148,4491.410156,0.000000,2.000000,44.000000,,,,0.000000,4.000000,4.000000,4.000000,4.000000,4.000000,4.000000,4.000000,4.000000,4.000000,4.000000,4.000000,4.000000,4.000000,4.000000,100.000000,,,,,,,,,,,,,,,,,,,,,,,,,,,,,,,,,,,,,,,,,,,,,,,,,,,,,,,,,,,,,,,,,,,,,,,,,,,,,,,,,,,,,,,,,,,,,,,,,,,,,,,,,,,,,,,,,,,,,
1768292909.207870,1768292909.208850,25.000000,0.000000,4324.487305,4318.974121,4300.384766,4340.128418,4321.410156,4316.153809,4316.922852,4310.128418,4310.384766,4298.974121,4514.358887,4529.487305,4407.692383,4486.794922,0.000000,2.000000,44.000000,,,,0.000000,4.000000,4.000000,4.000000,4.000000,4.000000,4.000000,4.000000,4.000000,4.000000,4.000000,4.000000,4.000000,4.000000,4.000000,100.000000,,,,,,,,,,,,,,,,,,,,,,,,,,,,,,,,,,,,,,,,,,,,,,,,,,,,,,,,,,,,,,,,,,,,,,,,,,,,,,,,,,,,,,,,,,,,,,,,,,,,,,,,,,,,,,,,,,,,,
1768292909.215678,1768292909.216559,26.000000,0.000000,4325.128418,4318.589844,4303.077148,4339.358887,4322.948730,4313.333496,4316.538574,4311.410156,4320.512695,4305.897461,4513.077148,4523.589844,4407.436035,4475.769043,0.000000,2.000000,44.000000,,,,0.000000,4.000000,4.000000,4.000000,4.000000,4.000000,4.000000,4.000000,4.000000,4.000000,4.000000,4.000000,4.000000,4.000000,4.000000,100.000000,,,,,,,,,,,,,,,,,,,,,,,,,,,,,,,,,,,,,,,,,,,,,,,,,,,,,,,,,,,,,,,,,,,,,,,,,,,,,,,,,,,,,,,,,,,,,,,,,,,,,,,,,,,,,,,,,,,,,
1768292909.223487,1768292909.224367,27.000000,0.000000,4326.794922,4322.179688,4300.897461,4344.230957,4324.230957,4316.153809,4319.615234,4321.282227,4321.794922,4307.307617,4510.128418,4529.871582,4403.846191,4477.820313,0.000000,2.000000,44.000000,,,,0.000000,4.000000,4.000000,4.000000,4.000000,4.000000,4.000000,4.000000,4.000000,4.000000,4.000000,4.000000,4.000000,4.000000,4.000000,100.000000,,,,,,,,,,,,,,,,,,,,,,,,,,,,,,,,,,,,,,,,,,,,,,,,,,,,,,,,,,,,,,,,,,,,,,,,,,,,,,,,,,,,,,,,,,,,,,,,,,,,,,,,,,,,,,,,,,,,,
1768292909.231295,1768292909.231976,28.000000,0.000000,4325.897461,4318.333496,4298.589844,4342.307617,4319.871582,4316.922852,4320.384766,4323.333496,4313.461426,4303.205078,4514.230957,4538.077148,4406.410156,4485.641113,0.000000,2.000000,44.000000,,,,0.000000,4.000000,4.000000,4.000000,4.000000,4.000000,4.000000,4.000000,4.000000,4.000000,4.000000,4.000000,4.000000,4.000000,4.000000,100.000000,,,,,,,,,,,,,,,,,,,,,,,,,,,,,,,,,,,,,,,,,,,,,,,,,,,,,,,,,,,,,,,,,,,,,,,,,,,,,,,,,,,,,,,,,,,,,,,,,,,,,,,,,,,,,,,,,,,,,
1768292909.239103,1768292909.239784,29.000000,0.000000,4317.948730,4312.820313,4301.025879,4336.922852,4313.846191,4315.384766,4319.871582,4320.256348,4310.384766,4298.974121,4521.538574,4535.512695,4410.128418,4481.666504,0.000000,2.000000,44.000000,,,,0.000000,4.000000,4.000000,4.000000,4.000000,4.000000,4.000000,4.000000,4.000000,4.000000,4.000000,4.000000,4.000000,4.000000,4.000000,100.000000,,,,,,,,,,,,,,,,,,,,,,,,,,,,,,,,,,,,,,,,,,,,,,,,,,,,,,,,,,,,,,,,,,,,,,,,,,,,,,,,,,,,,,,,,,,,,,,,,,,,,,,,,,,,,,,,,,,,,
1768292909.246912,1768292909.247493,30.000000,0.000000,4307.820313,4312.051270,4301.410156,4337.307617,4312.051270,4321.025879,4321.025879,4317.948730,4310.128418,4294.102539,4522.179688,4529.102539,4409.358887,4475.641113,0.000000,2.000000,44.000000,,,,0.000000,4.000000,4.000000,4.000000,4.000000,4.000000,4.000000,4.000000,4.000000,4.000000,4.000000,4.000000,4.000000,4.000000,4.000000,100.000000,,,,,,,,,,,,,,,,,,,,,,,,,,,,,,,,,,,,,,,,,,,,,,,,,,,,,,,,,,,,,,,,,,,,,,,,,,,,,,,,,,,,,,,,,,,,,,,,,,,,,,,,,,,,,,,,,,,,,
1768292909.254720,1768292909.255301,31.000000,0.000000,4310.128418,4312.948730,4296.538574,4337.436035,4311.025879,4324.615234,4316.922852,4313.077148,4311.922852,4292.179688,4521.025879,4526.153809,4404.487305,4474.230957,0.000000,2.000000,44.000000,,,,0.000000,4.000000,4.000000,4.000000,4.000000,4.000000,4.000000,4.000000,4.000000,4.000000,4.000000,4.000000,4.000000,4.000000,4.000000,100.000000,,,,,,,,,,,,,,,,,,,,,,,,,,,,,,,,,,,,,,,,,,,,,,,,,,,,,,,,,,,,,,,,,,,,,,,,,,,,,,,,,,,,,,,,,,,,,,,,,,,,,,,,,,,,,,,,,,,,,
1768292909.262529,1768292909.262910,32.000000,0.000000,4314.743652,4313.077148,4296.153809,4338.077148,4308.205078,4325.641113,4313.974121,4314.743652,4321.538574,4295.512695,4525.000000,4528.717773,4398.846191,4474.615234,0.000000,2.000000,44.000000,,,,0.000000,4.000000,4.000000,4.000000,4.000000,4.000000,4.000000,4.000000,4.000000,4.000000,4.000000,4.000000,4.000000,4.000000,4.000000,100.000000,,,,,,,,,,,,,,,,,,,,,,,,,,,,,,,,,,,,,,,,,,,,,,,,1.768753,0.577000,0.555961,0.600869,0.127764,1.181408,0.482362,0.365441,0.340969,0.087664,0.213331,0.199827,0.030905,0.078423,0.040805,0.649857,0.246005,0.207956,0.197248,0.074829,0.905147,0.528387,0.208587,0.137088,0.067557,0.457331,0.115841,0.195210,0.108918,0.149614,0.298778,0.275100,0.310449,0.212258,0.248539,0.669480,0.485844,0.347151,0.223947,0.090437,0.516000,0.614565,0.374320,0.195338,0.080356,0.944283,1.175742,0.701830,0.472612,0.127716,0.883179,0.587454,0.815289,0.421004,0.156729,1.529550,0.798431,0.772990,0.517705,0.236888,0.828698,0.701931,0.565753,0.364609,0.157950,1.330750,0.732051,0.771789,0.368054,0.181940
1768292909.270337,1768292909.270718,33.000000,0.000000,4308.717773,4311.410156,4297.179688,4337.820313,4306.282227,4327.563965,4320.000000,4320.256348,4324.102539,4297.820313,4526.410156,4529.230957,4401.538574,4475.641113,0.000000,2.000000,44.000000,,,,0.000000,4.000000,4.000000,4.000000,4.000000,4.000000,4.000000,4.000000,4.000000,4.000000,4.000000,4.000000,4.000000,4.000000,4.000000,100.000000,,,,,,,,,,,,,,,,,,,,,,,,,,,,,,,,,,,,,,,,,,,,,,,,,,,,,,,,,,,,,,,,,,,,,,,,,,,,,,,,,,,,,,,,,,,,,,,,,,,,,,,,,,,,,,,,,,,,,
1768292909.278146,1768292909.278427,34.000000,0.000000,4305.000000,4309.230957,4292.179688,4334.358887,4304.358887,4324.230957,4323.077148,4316.025879,4313.846191,4295.384766,4525.897461,4524.615234,4410.128418,4473.077148,0.000000,2.000000,44.000000,,,,0.000000,4.000000,4.000000,4.000000,4.000000,4.000000,4.000000,4.000000,4.000000,4.000000,4.000000,4.000000,4.000000,4.000000,4.000000,100.000000,,,,,,,,,,,,,,,,,,,,,,,,,,,,,,,,,,,,,,,,,,,,,,,,,,,,,,,,,,,,,,,,,,,,,,,,,,,,,,,,,,,,,,,,,,,,,,,,,,,,,,,,,,,,,,,,,,,,,
1768292909.285954,1768292909.286235,35.000000,0.000000,4309.615234,4310.000000,4290.000000,4336.282227,4301.794922,4322.179688,4322.179688,4315.128418,4311.538574,4290.512695,4523.205078,4521.282227,4406.282227,4468.846191,0.000000,2.000000,44.000000,,,,0.000000,4.000000,4.000000,4.000000,4.000000,4.000000,4.000000,4.000000,4.000000,4.000000,4.000000,4.000000,4.000000,4.000000,4.000000,100.000000,,,,,,,,,,,,,,,,,,,,,,,,,,,,,,,,,,,,,,,,,,,,,,,,,,,,,,,,,,,,,,,,,,,,,,,,,,,,,,,,,,,,,,,,,,,,,,,,,,,,,,,,,,,,,,,,,,,,,
1768292909.293763,1768292909.293844,36.000000,0.000000,4313.461426,4316.922852,4295.256348,4342.820313,4304.230957,4324.871582,4325.897461,4321.794922,4321.666504,4291.666504,4522.051270,4527.051270,4401.282227,4472.436035,0.000000,2.000000,44.000000,,,,0.000000,4.000000,4.000000,4.000000,4.000000,4.000000,4.000000,4.000000,4.000000,4.000000,4.000000,4.000000,4.000000,4.000000,4.000000,100.000000,,,,,,,,,,,,,,,,,,,,,,,,,,,,,,,,,,,,,,,,,,,,,,,,,,,,,,,,,,,,,,,,,,,,,,,,,,,,,,,,,,,,,,,,,,,,,,,,,,,,,,,,,,,,,,,,,,,,,
1768292909.301571,1768292909.301652,37.000000,0.000000,4313.333496,4321.282227,4299.102539,4343.846191,4307.820313,4326.153809,4326.025879,4322.563965,4326.538574,4295.512695,4527.307617,4536.922852,4409.230957,4478.974121,0.000000,2.000000,44.000000,,,,0.000000,4.000000,4.000000,4.000000,4.000000,4.000000,4.000000,4.000000,4.000000,4.000000,4.000000,4.000000,4.000000,4.000000,4.000000,100.000000,,,,,,,,,,,,,,,,,,,,,,,,,,,,,,,,,,,,,,,,,,,,,,,,,,,,,,,,,,,,,,,,,,,,,,,,,,,,,,,,,,,,,,,,,,,,,,,,,,,,,,,,,,,,,,,,,,,,,
1768292909.309379,1768292909.309361,38.000000,0.000000,4310.384766,4318.846191,4297.692383,4341.025879,4306.922852,4325.256348,4322.948730,4322.563965,4324.743652,4296.025879,4533.461426,4538.077148,4412.436035,4476.282227,0.000000,2.000000,44.000000,,,,0.000000,4.000000,4.000000,4.000000,4.000000,4.000000,4.000000,4.000000,4.000000,4.000000,4.000000,4.000000,4.000000,4.000000,4.000000,100.000000,,,,,,,,,,,,,,,,,,,,,,,,,,,,,,,,,,,,,,,,,,,,,,,,,,,,,,,,,,,,,,,,,,,,,,,,,,,,,,,,,,,,,,,,,,,,,,,,,,,,,,,,,,,,,,,,,,,,,
1768292909.317188,1768292909.317169,39.000000,0.000000,4312.307617,4321.025879,4296.666504,4341.282227,4306.410156,4326.153809,4327.051270,4325.384766,4325.256348,4294.230957,4536.922852,4538.077148,4406.666504,4479.358887,0.000000,2.000000,44.000000,,,,0.000000,4.000000,4.000000,4.000000,4.000000,4.000000,4.000000,4.000000,4.000000,4.000000,4.000000,4.000000,4.000000,4.000000,4.000000,100.000000,,,,,,,,,,,,,,,,,,,,,,,,,,,,,,,,,,,,,,,,,,,,,,,,,,,,,,,,,,,,,,,,,,,,,,,,,,,,,,,,,,,,,,,,,,,,,,,,,,,,,,,,,,,,,,,,,,,,,
1768292909.324996,1768292909.325177,40.000000,0.000000,4320.512695,4327.563965,4296.794922,4343.846191,4309.230957,4327.436035,4327.436035,4324.487305,4325.769043,4294.743652,4538.205078,4545.256348,4415.000000,4493.717773,0.000000,2.000000,44.000000,,,,0.000000,4.000000,4.000000,4.000000,4.000000,4.000000,4.000000,4.000000,4.000000,4.000000,4.000000,4.000000,4.000000,4.000000,4.000000,100.000000,,,,,,,,,,,,,,,,,,,,,,,,,,,,,,,,,,,,,,,,,,,,,,,,,,,,,,,,,,,,,,,,,,,,,,,,,,,,,,,,,,,,,,,,,,,,,,,,,,,,,,,,,,,,,,,,,,,,,
1768292909.332805,1768292909.332986,41.000000,0.000000,4325.000000,4328.974121,4298.974121,4344.358887,4309.743652,4323.589844,4317.179688,4323.205078,4324.230957,4301.025879,4540.000000,4548.974121,4427.051270,4498.589844,0.000000,2.000000,44.000000,,,,0.000000,4.000000,4.000000,4.000000,4.000000,4.000000,4.000000,4.000000,4.000000,4.000000,4.000000,4.000000,4.000000,4.000000,4.000000,100.000000,,,,,,,,,,,,,,,,,,,,,,,,,,,,,,,,,,,,,,,,,,,,,,,,,,,,,,,,,,,,,,,,,,,,,,,,,,,,,,,,,,,,,,,,,,,,,,,,,,,,,,,,,,,,,,,,,,,,,
1768292909.340613,1768292909.340894,42.000000,0.000000,4324.102539,4323.717773,4300.384766,4341.922852,4306.025879,4322.563965,4314.615234,4323.717773,4325.512695,4305.000000,4540.128418,4541.282227,4419.487305,4491.153809,0.000000,2.000000,44.000000,,,,0.000000,4.000000,4.000000,4.000000,4.000000,4.000000,4.000000,4.000000,4.000000,4.000000,4.000000,4.000000,4.000000,4.000000,4.000000,100.000000,,,,,,,,,,,,,,,,,,,,,,,,,,,,,,,,,,,,,,,,,,,,,,,,,,,,,,,,,,,,,,,,,,,,,,,,,,,,,,,,,,,,,,,,,,,,,,,,,,,,,,,,,,,,,,,,,,,,,
1768292909.348421,1768292909.348703,43.000000,0.000000,4325.897461,4321.538574,4299.230957,4341.153809,4305.769043,4325.641113,4324.358887,4323.333496,4326.794922,4304.487305,4535.256348,4537.948730,4409.487305,4487.948730,0.000000,2.000000,44.000000,,,,0.000000,4.000000,4.000000,4.000000,4.000000,4.000000,4.000000,4.000000,4.000000,4.000000,4.000000,4.000000,4.000000,4.000000,4.000000,100.000000,,,,,,,,,,,,,,,,,,,,,,,,,,,,,,,,,,,,,,,,,,,,,,,,,,,,,,,,,,,,,,,,,,,,,,,,,,,,,,,,,,,,,,,,,,,,,,,,,,,,,,,,,,,,,,,,,,,,,
1768292909.356230,1768292909.356711,44.000000,0.000000,4330.000000,4325.128418,4300.512695,4344.102539,4308.589844,4325.256348,4327.563965,4325.128418,4324.615234,4307.692383,4532.179688,4547.563965,4418.205078,4496.794922,0.000000,2.000000,44.000000,,,,0.000000,4.000000,4.000000,4.000000,4.000000,4.000000,4.000000,4.000000,4.000000,4.000000,4.000000,4.000000,4.000000,4.000000,4.000000,100.000000,,,,,,,,,,,,,,,,,,,,,,,,,,,,,,,,,,,,,,,,,,,,,,,,,,,,,,,,,,,,,,,,,,,,,,,,,,,,,,,,,,,,,,,,,,,,,,,,,,,,,,,,,,,,,,,,,,,,,
1768292909.364038,1768292909.364519,45.000000,0.000000,4331.538574,4326.410156,4300.384766,4342.948730,4308.205078,4323.077148,4320.512695,4326.153809,4323.589844,4310.512695,4538.589844,4555.384766,4424.615234,4508.077148,0.000000,2.000000,44.000000,,,,0.000000,4.000000,4.000000,4.000000,4.000000,4.000000,4.000000,4.000000,4.000000,4.000000,4.000000,4.000000,4.000000,4.000000,4.000000,100.000000,,,,,,,,,,,,,,,,,,,,,,,,,,,,,,,,,,,,,,,,,,,,,,,,,,,,,,,,,,,,,,,,,,,,,,,,,,,,,,,,,,,,,,,,,,,,,,,,,,,,,,,,,,,,,,,,,,,,,
1768292909.371847,1768292909.372228,46.000000,0.000000,4328.974121,4325.000000,4302.563965,4339.230957,4308.717773,4321.794922,4319.230957,4324.487305,4325.641113,4308.846191,4538.461426,4549.871582,4416.666504,4504.615234,0.000000,2.000000,44.000000,,,,0.000000,4.000000,4.000000,4.000000,4.000000,4.000000,4.000000,4.000000,4.000000,4.000000,4.000000,4.000000,4.000000,4.000000,4.000000,100.000000,,,,,,,,,,,,,,,,,,,,,,,,,,,,,,,,,,,,,,,,,,,,,,,,,,,,,,,,,,,,,,,,,,,,,,,,,,,,,,,,,,,,,,,,,,,,,,,,,,,,,,,,,,,,,,,,,,,,,
1768292909.379655,1768292909.380036,47.000000,0.000000,4326.025879,4325.384766,4306.153809,4340.128418,4311.794922,4324.102539,4324.358887,4324.358887,4325.256348,4307.948730,4526.666504,4540.128418,4412.820313,4492.692383,0.000000,2.000000,44.000000,,,,0.000000,4.000000,4.000000,4.000000,4.000000,4.000000,4.000000,4.000000,4.000000,4.000000,4.000000,4.000000,4.000000,4.000000,4.000000,100.000000,,,,,,,,,,,,,,,,,,,,,,,,,,,,,,,,,,,,,,,,,,,,,,,,,,,,,,,,,,,,,,,,,,,,,,,,,,,,,,,,,,,,,,,,,,,,,,,,,,,,,,,,,,,,,,,,,,,,,
1768292909.387463,1768292909.388045,48.000000,0.000000,4331.794922,4326.410156,4302.307617,4343.846191,4311.025879,4325.641113,4327.692383,4325.769043,4323.846191,4310.128418,4526.538574,4537.948730,4420.000000,4495.128418,0.000000,2.000000,44.000000,,,,0.000000,4.000000,4.000000,4.000000,4.000000,4.000000,4.000000,4.000000,4.000000,4.000000,4.000000,4.000000,4.000000,4.000000,4.000000,100.000000,,,,,,,,,,,,,,,,,,,,,,,,,,,,,,,,,,,,,,,,,,,,,,,,1.643871,0.557852,0.433438,0.578079,0.151383,1.113501,0.472865,0.342875,0.349798,0.091082,0.160542,0.177101,0.027244,0.077898,0.046654,0.534287,0.272085,0.175097,0.215911,0.082392,0.807931,0.507510,0.193241,0.132625,0.070812,0.462173,0.117660,0.197592,0.111554,0.158152,0.291466,0.231759,0.307174,0.209158,0.266098,0.750840,0.415627,0.346547,0.234999,0.098913,0.654904,0.501000,0.328786,0.211309,0.088815,0.849582,0.947526,0.585976,0.460558,0.119799,1.219474,0.444922,0.782620,0.474635,0.148867,1.841967,0.738088,0.745336,0.533316,0.259293,0.855624,0.567164,0.510589,0.374949,0.156229,1.466013,0.706274,0.699200,0.397048,0.193300
1768292909.395272,1768292909.395853,49.000000,0.000000,4338.974121,4326.282227,4299.230957,4345.000000,4310.000000,4326.025879,4326.666504,4325.256348,4325.384766,4310.769043,4538.333496,4541.025879,4426.922852,4507.436035,0.000000,2.000000,44.000000,,,,0.000000,4.000000,4.000000,4.000000,4.000000,4.000000,4.000000,4.000000,4.000000,4.000000,4.000000,4.000000,4.000000,4.000000,4.000000,100.000000,,,,,,,,,,,,,,,,,,,,,,,,,,,,,,,,,,,,,,,,,,,,,,,,,,,,,,,,,,,,,,,,,,,,,,,,,,,,,,,,,,,,,,,,,,,,,,,,,,,,,,,,,,,,,,,,,,,,,
1768292909.403080,1768292909.403562,50.000000,0.000000,4339.358887,4327.563965,4303.589844,4343.846191,4313.974121,4325.000000,4326.025879,4326.282227,4326.794922,4310.897461,4541.538574,4542.692383,4429.487305,4512.179688,0.000000,2.000000,44.000000,,,,0.000000,4.000000,4.000000,4.000000,4.000000,4.000000,4.000000,4.000000,4.000000,4.000000,4.000000,4.000000,4.000000,4.000000,4.000000,100.000000,,,,,,,,,,,,,,,,,,,,,,,,,,,,,,,,,,,,,,,,,,,,,,,,,,,,,,,,,,,,,,,,,,,,,,,,,,,,,,,,,,,,,,,,,,,,,,,,,,,,,,,,,,,,,,,,,,,,,
1768292909.410889,1768292909.411370,51.000000,0.000000,4338.589844,4327.563965,4304.487305,4342.179688,4314.102539,4319.743652,4327.563965,4328.974121,4326.153809,4312.436035,4533.077148,4541.922852,4426.538574,4504.871582,0.000000,2.000000,44.000000,,,,0.000000,4.000000,4.000000,4.000000,4.000000,4.000000,4.000000,4.000000,4.000000,4.000000,4.000000,4.000000,4.000000,4.000000,4.000000,100.000000,,,,,,,,,,,,,,,,,,,,,,,,,,,,,,,,,,,,,,,,,,,,,,,,,,,,,,,,,,,,,,,,,,,,,,,,,,,,,,,,,,,,,,,,,,,,,,,,,,,,,,,,,,,,,,,,,,,,,
1768292909.418697,1768292909.418979,52.000000,0.000000,4334.230957,4325.641113,4302.179688,4341.025879,4310.128418,4316.153809,4325.897461,4326.282227,4325.512695,4311.282227,4524.487305,4538.846191,4416.922852,4494.743652,0.000000,2.000000,44.000000,,,,0.000000,4.000000,4.000000,4.000000,4.000000,4.000000,4.000000,4.000000,4.000000,4.000000,4.000000,4.000000,4.000000,4.000000,4.000000,100.000000,,,,,,,,,,,,,,,,,,,,,,,,,,,,,,,,,,,,,,,,,,,,,,,,,,,,,,,,,,,,,,,,,,,,,,,,,,,,,,,,,,,,,,,,,,,,,,,,,,,,,,,,,,,,,,,,,,,,,
1768292909.426506,1768292909.426787,53.000000,0.000000,4328.589844,4326.794922,4303.974121,4342.948730,4311.538574,4317.051270,4322.563965,4322.307617,4326.666504,4310.384766,4523.589844,4537.563965,4413.205078,4492.948730,0.000000,2.000000,44.000000,,,,0.000000,4.000000,4.000000,4.000000,4.000000,4.000000,4.000000,4.000000,4.000000,4.000000,4.000000,4.000000,4.000000,4.000000,4.000000,100.000000,,,,,,,,,,,,,,,,,,,,,,,,,,,,,,,,,,,,,,,,,,,,,,,,,,,,,,,,,,,,,,,,,,,,,,,,,,,,,,,,,,,,,,,,,,,,,,,,,,,,,,,,,,,,,,,,,,,,,
1768292909.434314,1768292909.434496,54.000000,0.000000,4327.436035,4326.922852,4304.230957,4344.358887,4313.717773,4320.769043,4324.615234,4323.077148,4327.692383,4312.563965,4526.153809,4538.589844,4416.025879,4496.282227,0.000000,2.000000,44.000000,,,,0.000000,4.000000,4.000000,4.000000,4.000000,4.000000,4.000000,4.000000,4.000000,4.000000,4.000000,4.000000,4.000000,4.000000,4.000000,100.000000,,,,,,,,,,,,,,,,,,,,,,,,,,,,,,,,,,,,,,,,,,,,,,,,,,,,,,,,,,,,,,,,,,,,,,,,,,,,,,,,,,,,,,,,,,,,,,,,,,,,,,,,,,,,,,,,,,,,,
1768292909.442122,1768292909.442304,55.000000,0.000000,4325.641113,4322.307617,4301.410156,4341.794922,4311.538574,4320.512695,4326.025879,4322.563965,4321.666504,4313.205078,4526.153809,4539.358887,4414.615234,4494.230957,0.000000,2.000000,44.000000,,,,0.000000,4.000000,4.000000,4.000000,4.000000,4.000000,4.000000,4.000000,4.000000,4.000000,4.000000,4.000000,4.000000,4.000000,4.000000,100.000000,,,,,,,,,,,,,,,,,,,,,,,,,,,,,,,,,,,,,,,,,,,,,,,,,,,,,,,,,,,,,,,,,,,,,,,,,,,,,,,,,,,,,,,,,,,,,,,,,,,,,,,,,,,,,,,,,,,,,
1768292909.449931,1768292909.450312,56.000000,0.000000,4324.487305,4321.025879,4302.051270,4341.538574,4313.589844,4319.358887,4321.922852,4319.615234,4315.512695,4311.794922,4525.897461,4539.871582,4414.871582,4490.512695,0.000000,2.000000,44.000000,,,,0.000000,4.000000,4.000000,4.000000,4.000000,4.000000,4.000000,4.000000,4.000000,4.000000,4.000000,4.000000,4.000000,4.000000,4.000000,100.000000,,,,,,,,,,,,,,,,,,,,,,,,,,,,,,,,,,,,,,,,,,,,,,,,,,,,,,,,,,,,,,,,,,,,,,,,,,,,,,,,,,,,,,,,,,,,,,,,,,,,,,,,,,,,,,,,,,,,,
1768292909.457739,1768292909.458121,57.000000,0.000000,4329.230957,4326.153809,4303.974121,4344.743652,4320.000000,4322.563965,4323.589844,4322.692383,4320.384766,4310.769043,4528.333496,4541.282227,4416.666504,4492.692383,0.000000,2.000000,44.000000,,,,0.000000,4.000000,4.000000,4.000000,4.000000,4.000000,4.000000,4.000000,4.000000,4.000000,4.000000,4.000000,4.000000,4.000000,4.000000,100.000000,,,,,,,,,,,,,,,,,,,,,,,,,,,,,,,,,,,,,,,,,,,,,,,,,,,,,,,,,,,,,,,,,,,,,,,,,,,,,,,,,,,,,,,,,,,,,,,,,,,,,,,,,,,,,,,,,,,,,
1768292909.465548,1768292909.465829,58.000000,0.000000,4330.769043,4329.615234,4307.436035,4345.000000,4320.384766,4325.000000,4330.000000,4326.410156,4322.563965,4310.128418,4525.769043,4542.051270,4415.256348,4493.077148,0.000000,2.000000,44.000000,,,,0.000000,4.000000,4.000000,4.000000,4.000000,4.000000,4.000000,4.000000,4.000000,4.000000,4.000000,4.000000,4.000000,4.000000,4.000000,100.000000,,,,,,,,,,,,,,,,,,,,,,,,,,,,,,,,,,,,,,,,,,,,,,,,,,,,,,,,,,,,,,,,,,,,,,,,,,,,,,,,,,,,,,,,,,,,,,,,,,,,,,,,,,,,,,,,,,,,,
1768292909.473356,1768292909.473638,59.000000,0.000000,4327.820313,4326.025879,4311.153809,4342.051270,4319.487305,4325.128418,4329.487305,4324.230957,4318.205078,4309.230957,4525.000000,4541.282227,4414.358887,4490.384766,0.000000,2.000000,44.000000,,,,0.000000,4.000000,4.000000,4.000000,4.000000,4.000000,4.000000,4.000000,4.000000,4.000000,4.000000,4.000000,4.000000,4.000000,4.000000,100.000000,,,,,,,,,,,,,,,,,,,,,,,,,,,,,,,,,,,,,,,,,,,,,,,,,,,,,,,,,,,,,,,,,,,,,,,,,,,,,,,,,,,,,,,,,,,,,,,,,,,,,,,,,,,,,,,,,,,,,
1768292909.481165,1768292909.481247,60.000000,0.000000,4327.307617,4319.358887,4308.333496,4340.897461,4319.871582,4323.846191,4325.000000,4324.743652,4320.641113,4309.871582,4526.025879,4538.205078,4415.769043,4491.410156,0.000000,2.000000,44.000000,,,,0.000000,4.000000,4.000000,4.000000,4.000000,4.000000,4.000000,4.000000,4.000000,4.000000,4.000000,4.000000,4.000000,4.000000,4.000000,100.000000,,,,,,,,,,,,,,,,,,,,,,,,,,,,,,,,,,,,,,,,,,,,,,,,,,,,,,,,,,,,,,,,,,,,,,,,,,,,,,,,,,,,,,,,,,,,,,,,,,,,,,,,,,,,,,,,,,,,,
1768292909.488973,1768292909.489055,61.000000,0.000000,4325.769043,4318.846191,4305.000000,4341.794922,4318.333496,4325.256348,4323.205078,4327.436035,4323.846191,4311.153809,4525.897461,4536.666504,4416.025879,4492.563965,0.000000,2.000000,44.000000,,,,0.000000,4.000000,4.000000,4.000000,4.000000,4.000000,4.000000,4.000000,4.000000,4.000000,4.000000,4.000000,4.000000,4.000000,4.000000,100.000000,,,,,,,,,,,,,,,,,,,,,,,,,,,,,,,,,,,,,,,,,,,,,,,,,,,,,,,,,,,,,,,,,,,,,,,,,,,,,,,,,,,,,,,,,,,,,,,,,,,,,,,,,,,,,,,,,,,,,
1768292909.496781,1768292909.496764,62.000000,0.000000,4325.384766,4323.846191,4308.333496,4342.692383,4320.769043,4327.307617,4327.051270,4326.410156,4321.794922,4310.128418,4533.205078,4539.871582,4417.563965,4493.461426,0.000000,2.000000,44.000000,,,,0.000000,4.000000,4.000000,4.000000,4.000000,4.000000,4.000000,4.000000,4.000000,4.000000,4.000000,4.000000,4.000000,4.000000,4.000000,100.000000,,,,,,,,,,,,,,,,,,,,,,,,,,,,,,,,,,,,,,,,,,,,,,,,,,,,,,,,,,,,,,,,,,,,,,,,,,,,,,,,,,,,,,,,,,,,,,,,,,,,,,,,,,,,,,,,,,,,,
1768292909.504590,1768292909.504572,63.000000,0.000000,4326.922852,4322.436035,4307.051270,4342.563965,4322.051270,4324.358887,4328.333496,4325.128418,4321.666504,4306.922852,4536.410156,4541.922852,4416.410156,4492.820313,0.000000,2.000000,44.000000,,,,0.000000,4.000000,4.000000,4.000000,4.000000,4.000000,4.000000,4.000000,4.000000,4.000000,4.000000,4.000000,4.000000,4.000000,4.000000,100.000000,,,,,,,,,,,,,,,,,,,,,,,,,,,,,,,,,,,,,,,,,,,,,,,,,,,,,,,,,,,,,,,,,,,,,,,,,,,,,,,,,,,,,,,,,,,,,,,,,,,,,,,,,,,,,,,,,,,,,
1768292909.512398,1768292909.512580,64.000000,0.000000,4324.871582,4316.153809,4301.538574,4339.615234,4313.846191,4320.000000,4324.102539,4325.000000,4322.051270,4304.871582,4526.794922,4534.102539,4411.922852,4490.512695,1828.000000,2.000000,44.000000,,,,0.000000,4.000000,4.000000,4.000000,4.000000,4.000000,4.000000,4.000000,4.000000,4.000000,4.000000,4.000000,4.000000,4.000000,4.000000,100.000000,,,,,,,,,,,,,,,,,,,,,,,,,,,,,,,,,,,,,,,,,,,,,,,,1.453945,0.530992,0.323365,0.542820,0.188427,0.972223,0.467123,0.313981,0.344975,0.100057,0.111558,0.159752,0.027457,0.078952,0.055400,0.427533,0.321875,0.138384,0.231910,0.100503,0.715756,0.468437,0.172184,0.135910,0.073223,0.463257,0.112157,0.197243,0.116614,0.178075,0.292744,0.184680,0.301962,0.210716,0.292396,0.835611,0.370257,0.358463,0.246512,0.110029,0.790734,0.424340,0.279937,0.224406,0.098293,0.773862,0.743136,0.469266,0.442196,0.114770,1.554589,0.338140,0.745551,0.532161,0.146865,2.141057,0.706686,0.722947,0.547155,0.284818,0.877668,0.460122,0.460098,0.412787,0.157952,1.561340,0.669024,0.649496,0.444322,0.212924
1768292909.520207,1768292909.520389,65.000000,0.000000,4323.974121,4317.051270,4301.153809,4336.282227,4308.589844,4317.692383,4323.077148,4322.948730,4316.153809,4306.153809,4521.794922,4524.615234,4412.051270,4489.102539,4014.000000,2.000000,44.000000,,,,0.000000,4.000000,4.000000,4.000000,4.000000,4.000000,4.000000,4.000000,4.000000,4.000000,4.000000,4.000000,4.000000,4.000000,4.000000,100.000000,,,,,,,,,,,,,,,,,,,,,,,,,,,,,,,,,,,,,,,,,,,,,,,,,,,,,,,,,,,,,,,,,,,,,,,,,,,,,,,,,,,,,,,,,,,,,,,,,,,,,,,,,,,,,,,,,,,,,
1768292909.528015,1768292909.528297,66.000000,0.000000,4327.179688,4321.922852,4304.358887,4338.589844,4310.769043,4316.538574,4327.436035,4323.589844,4314.358887,4305.256348,4525.256348,4525.769043,4411.153809,4490.769043,3979.000000,2.000000,44.000000,,,,0.000000,4.000000,4.000000,4.000000,4.000000,4.000000,4.000000,4.000000,4.000000,4.000000,4.000000,4.000000,4.000000,4.000000,4.000000,100.000000,,,,,,,,,,,,,,,,,,,,,,,,,,,,,,,,,,,,,,,,,,,,,,,,,,,,,,,,,,,,,,,,,,,,,,,,,,,,,,,,,,,,,,,,,,,,,,,,,,,,,,,,,,,,,,,,,,,,,
1768292909.535823,1768292909.536105,67.000000,0.000000,4325.512695,4321.794922,4306.153809,4342.820313,4311.025879,4317.820313,4327.692383,4326.410156,4320.256348,4302.948730,4522.820313,4531.922852,4409.358887,4490.897461,3892.000000,2.000000,44.000000,,,,0.000000,4.000000,4.000000,4.000000,4.000000,4.000000,4.000000,4.000000,4.000000,4.000000,4.000000,4.000000,4.000000,4.000000,4.000000,100.000000,,,,,,,,,,,,,,,,,,,,,,,,,,,,,,,,,,,,,,,,,,,,,,,,,,,,,,,,,,,,,,,,,,,,,,,,,,,,,,,,,,,,,,,,,,,,,,,,,,,,,,,,,,,,,,,,,,,,,
1768292909.543632,1768292909.544114,68.000000,0.000000,4326.153809,4323.205078,4305.769043,4343.589844,4313.846191,4322.307617,4325.641113,4326.025879,4325.769043,4305.512695,4520.769043,4533.077148,4410.384766,4492.307617,3737.000000,2.000000,44.000000,,,,0.000000,4.000000,4.000000,4.000000,4.000000,4.000000,4.000000,4.000000,4.000000,4.000000,4.000000,4.000000,4.000000,4.000000,4.000000,100.000000,,,,,,,,,,,,,,,,,,,,,,,,,,,,,,,,,,,,,,,,,,,,,,,,,,,,,,,,,,,,,,,,,,,,,,,,,,,,,,,,,,,,,,,,,,,,,,,,,,,,,,,,,,,,,,,,,,,,,
1768292909.551440,1768292909.551922,69.000000,0.000000,4337.307617,4328.205078,4303.717773,4346.282227,4320.128418,4322.307617,4329.230957,4326.153809,4327.179688,4309.743652,4530.384766,4537.307617,4415.512695,4501.410156,2762.000000,2.000000,44.000000,,,,0.000000,4.000000,4.000000,4.000000,4.000000,4.000000,4.000000,4.000000,4.000000,4.000000,4.000000,4.000000,4.000000,4.000000,4.000000,100.000000,,,,,,,,,,,,,,,,,,,,,,,,,,,,,,,,,,,,,,,,,,,,,,,,,,,,,,,,,,,,,,,,,,,,,,,,,,,,,,,,,,,,,,,,,,,,,,,,,,,,,,,,,,,,,,,,,,,,,
1768292909.559249,1768292909.559830,70.000000,0.000000,4345.256348,4329.358887,4307.051270,4352.563965,4320.128418,4319.487305,4333.589844,4328.974121,4326.922852,4314.487305,4538.589844,4548.974121,4425.256348,4509.743652,2560.000000,2.000000,44.000000,,,,0.000000,4.000000,4.000000,4.000000,4.000000,4.000000,4.000000,4.000000,4.000000,4.000000,4.000000,4.000000,4.000000,4.000000,4.000000,100.000000,,,,,,,,,,,,,,,,,,,,,,,,,,,,,,,,,,,,,,,,,,,,,,,,,,,,,,,,,,,,,,,,,,,,,,,,,,,,,,,,,,,,,,,,,,,,,,,,,,,,,,,,,,,,,,,,,,,,,
1768292909.567057,1768292909.567639,71.000000,0.000000,4343.846191,4328.974121,4315.384766,4354.358887,4319.743652,4322.436035,4333.205078,4330.128418,4328.461426,4318.846191,4539.487305,4555.384766,4430.384766,4510.512695,4068.000000,2.000000,44.000000,,,,0.000000,4.000000,4.000000,4.000000,4.000000,4.000000,4.000000,4.000000,4.000000,4.000000,4.000000,4.000000,4.000000,4.000000,4.000000,100.000000,,,,,,,,,,,,,,,,,,,,,,,,,,,,,,,,,,,,,,,,,,,,,,,,,,,,,,,,,,,,,,,,,,,,,,,,,,,,,,,,,,,,,,,,,,,,,,,,,,,,,,,,,,,,,,,,,,,,,
1768292909.574866,1768292909.575248,72.000000,0.000000,4340.641113,4328.205078,4312.948730,4350.641113,4323.974121,4325.512695,4329.358887,4329.358887,4328.077148,4319.358887,4539.102539,4554.102539,4428.205078,4509.615234,3273.000000,2.000000,44.000000,,,,0.000000,4.000000,4.000000,4.000000,4.000000,4.000000,4.000000,4.000000,4.000000,4.000000,4.000000,4.000000,4.000000,4.000000,4.000000,100.000000,,,,,,,,,,,,,,,,,,,,,,,,,,,,,,,,,,,,,,,,,,,,,,,,,,,,,,,,,,,,,,,,,,,,,,,,,,,,,,,,,,,,,,,,,,,,,,,,,,,,,,,,,,,,,,,,,,,,,
1768292909.582674,1768292909.583056,73.000000,0.000000,4340.256348,4324.102539,4308.077148,4345.769043,4320.384766,4322.307617,4328.333496,4329.871582,4328.589844,4319.358887,4540.000000,4554.615234,4427.948730,4510.256348,3842.000000,2.000000,44.000000,,,,0.000000,4.000000,4.000000,4.000000,4.000000,4.000000,4.000000,4.000000,4.000000,4.000000,4.000000,4.000000,4.000000,4.000000,4.000000,100.000000,,,,,,,,,,,,,,,,,,,,,,,,,,,,,,,,,,,,,,,,,,,,,,,,,,,,,,,,,,,,,,,,,,,,,,,,,,,,,,,,,,,,,,,,,,,,,,,,,,,,,,,,,,,,,,,,,,,,,
1768292909.590482,1768292909.590964,74.000000,0.000000,4341.538574,4320.897461,4311.410156,4340.641113,4311.666504,4320.897461,4331.794922,4330.000000,4329.743652,4319.615234,4539.358887,4557.436035,4428.205078,4509.230957,4336.000000,2.000000,44.000000,,,,0.000000,4.000000,4.000000,4.000000,4.000000,4.000000,4.000000,4.000000,4.000000,4.000000,4.000000,4.000000,4.000000,4.000000,4.000000,100.000000,,,,,,,,,,,,,,,,,,,,,,,,,,,,,,,,,,,,,,,,,,,,,,,,,,,,,,,,,,,,,,,,,,,,,,,,,,,,,,,,,,,,,,,,,,,,,,,,,,,,,,,,,,,,,,,,,,,,,
1768292909.598291,1768292909.598773,75.000000,0.000000,4343.717773,4322.692383,4311.025879,4340.769043,4311.410156,4321.025879,4331.153809,4329.230957,4327.692383,4318.461426,4538.717773,4556.025879,4426.794922,4508.717773,4747.000000,2.000000,44.000000,,,,0.000000,4.000000,4.000000,4.000000,4.000000,4.000000,4.000000,4.000000,4.000000,4.000000,4.000000,4.000000,4.000000,4.000000,4.000000,100.000000,,,,,,,,,,,,,,,,,,,,,,,,,,,,,,,,,,,,,,,,,,,,,,,,,,,,,,,,,,,,,,,,,,,,,,,,,,,,,,,,,,,,,,,,,,,,,,,,,,,,,,,,,,,,,,,,,,,,,
1768292909.606099,1768292909.606381,76.000000,0.000000,4343.461426,4325.000000,4307.692383,4344.487305,4313.589844,4319.487305,4329.358887,4329.487305,4325.512695,4317.436035,4541.410156,4556.410156,4427.820313,4510.641113,4585.000000,2.000000,44.000000,,,,0.000000,4.000000,4.000000,4.000000,4.000000,4.000000,4.000000,4.000000,4.000000,4.000000,4.000000,4.000000,4.000000,4.000000,4.000000,100.000000,,,,,,,,,,,,,,,,,,,,,,,,,,,,,,,,,,,,,,,,,,,,,,,,,,,,,,,,,,,,,,,,,,,,,,,,,,,,,,,,,,,,,,,,,,,,,,,,,,,,,,,,,,,,,,,,,,,,,
1768292909.613908,1768292909.614190,77.000000,0.000000,4335.384766,4323.205078,4308.974121,4342.179688,4311.538574,4320.641113,4330.512695,4328.333496,4325.512695,4317.179688,4538.205078,4556.410156,4423.461426,4505.897461,5676.000000,2.000000,44.000000,,,,0.000000,4.000000,4.000000,4.000000,4.000000,4.000000,4.000000,4.000000,4.000000,4.000000,4.000000,4.000000,4.000000,4.000000,4.000000,100.000000,,,,,,,,,,,,,,,,,,,,,,,,,,,,,,,,,,,,,,,,,,,,,,,,,,,,,,,,,,,,,,,,,,,,,,,,,,,,,,,,,,,,,,,,,,,,,,,,,,,,,,,,,,,,,,,,,,,,,
1768292909.621716,1768292909.621898,78.000000,0.000000,4327.692383,4318.461426,4304.871582,4334.487305,4311.025879,4319.102539,4321.410156,4323.461426,4326.538574,4311.282227,4527.820313,4545.384766,4411.666504,4493.205078,4336.000000,2.000000,44.000000,,,,0.000000,4.000000,4.000000,4.000000,4.000000,4.000000,4.000000,4.000000,4.000000,4.000000,4.000000,4.000000,4.000000,4.000000,4.000000,100.000000,,,,,,,,,,,,,,,,,,,,,,,,,,,,,,,,,,,,,,,,,,,,,,,,,,,,,,,,,,,,,,,,,,,,,,,,,,,,,,,,,,,,,,,,,,,,,,,,,,,,,,,,,,,,,,,,,,,,,
1768292909.629525,1768292909.629707,79.000000,0.000000,4323.589844,4311.922852,4297.820313,4328.077148,4310.641113,4312.051270,4310.641113,4319.102539,4325.384766,4299.615234,4519.871582,4532.820313,4400.641113,4480.384766,4747.000000,2.000000,44.000000,,,,0.000000,4.000000,4.000000,4.000000,4.000000,4.000000,4.000000,4.000000,4.000000,4.000000,4.000000,4.000000,4.000000,4.000000,4.000000,100.000000,,,,,,,,,,,,,,,,,,,,,,,,,,,,,,,,,,,,,,,,,,,,,,,,,,,,,,,,,,,,,,,,,,,,,,,,,,,,,,,,,,,,,,,,,,,,,,,,,,,,,,,,,,,,,,,,,,,,,
1768292909.637333,1768292909.637316,80.000000,0.000000,4318.205078,4302.692383,4298.589844,4323.205078,4307.948730,4311.794922,4317.307617,4319.487305,4322.179688,4295.128418,4517.436035,4530.512695,4391.794922,4473.077148,4585.000000,2.000000,44.000000,,,,0.000000,4.000000,4.000000,4.000000,4.000000,4.000000,4.000000,4.000000,4.000000,4.000000,4.000000,4.000000,4.000000,4.000000,4.000000,100.000000,1.000000,75.000000,4.000000,4.000000,1.000000,4.000000,4.000000,4.000000,4.000000,4.000000,4.000000,4.000000,4.000000,4.000000,4.000000,4.000000,,,,,,,,,,,,,,,,,,,,,,,,,,,,,,,,1.289111,0.520676,0.251411,0.493359,0.231967,0.793194,0.484764,0.293503,0.321889,0.115656,0.077436,0.155761,0.031847,0.080584,0.064041,0.357217,0.394359,0.105384,0.237311,0.124213,0.643071,0.427669,0.148792,0.146241,0.075259,0.460190,0.101627,0.196819,0.118417,0.201326,0.296573,0.147555,0.294830,0.207799,0.319780,0.905437,0.372635,0.382447,0.254160,0.121378,0.880588,0.408888,0.237609,0.230061,0.109902,0.697232,0.622880,0.367980,0.424171,0.115456,1.762386,0.290691,0.704386,0.583367,0.150305,2.296410,0.752087,0.702718,0.554117,0.311153,0.860919,0.416033,0.418499,0.480378,0.164697,1.535139,0.644312,0.629028,0.500250,0.240990
1768292909.645141,1768292909.645124,81.000000,0.000000,4319.358887,4303.974121,4302.179688,4328.333496,4313.461426,4322.307617,4327.179688,4328.077148,4326.922852,4307.692383,4524.230957,4540.256348,4399.230957,4482.051270,5676.000000,2.000000,44.000000,,,,0.000000,4.000000,4.000000,4.000000,4.000000,4.000000,4.000000,4.000000,4.000000,4.000000,4.000000,4.000000,4.000000,4.000000,4.000000,100.000000,,,,,,,,,,,,,,,,,,,,,,,,,,,,,,,,,,,,,,,,,,,,,,,,,,,,,,,,,,,,,,,,,,,,,,,,,,,,,,,,,,,,,,,,,,,,,,,,,,,,,,,,,,,,,,,,,,,,,
1768292909.652950,1768292909.653032,82.000000,0.000000,4330.000000,4321.153809,4304.615234,4343.205078,4322.179688,4328.717773,4328.205078,4338.461426,4339.102539,4327.948730,4539.230957,4555.384766,4417.692383,4500.000000,4336.000000,2.000000,44.000000,,,,0.000000,4.000000,4.000000,4.000000,4.000000,4.000000,4.000000,4.000000,4.000000,4.000000,4.000000,4.000000,4.000000,4.000000,4.000000,100.000000,,,,,,,,,,,,,,,,,,,,,,,,,,,,,,,,,,,,,,,,,,,,,,,,,,,,,,,,,,,,,,,,,,,,,,,,,,,,,,,,,,,,,,,,,,,,,,,,,,,,,,,,,,,,,,,,,,,,,
1768292909.660758,1768292909.660841,83.000000,0.000000,4333.974121,4329.871582,4304.358887,4347.692383,4317.436035,4324.487305,4326.922852,4336.794922,4340.000000,4329.487305,4543.333496,4556.922852,4418.974121,4501.025879,4747.000000,2.000000,44.000000,,,,0.000000,4.000000,4.000000,4.000000,4.000000,4.000000,4.000000,4.000000,4.000000,4.000000,4.000000,4.000000,4.000000,4.000000,4.000000,100.000000,,,,,,,,,,,,,,,,,,,,,,,,,,,,,,,,,,,,,,,,,,,,,,,,,,,,,,,,,,,,,,,,,,,,,,,,,,,,,,,,,,,,,,,,,,,,,,,,,,,,,,,,,,,,,,,,,,,,,
1768292909.668567,1768292909.668849,84.000000,0.000000,4328.077148,4320.769043,4301.538574,4341.794922,4313.717773,4320.512695,4325.000000,4326.922852,4329.102539,4314.871582,4531.410156,4543.205078,4410.000000,4491.025879,4585.000000,2.000000,44.000000,,,,0.000000,4.000000,4.000000,4.000000,4.000000,4.000000,4.000000,4.000000,4.000000,4.000000,4.000000,4.000000,4.000000,4.000000,4.000000,100.000000,,,,,,,,,,,,,,,,,,,,,,,,,,,,,,,,,,,,,,,,,,,,,,,,,,,,,,,,,,,,,,,,,,,,,,,,,,,,,,,,,,,,,,,,,,,,,,,,,,,,,,,,,,,,,,,,,,,,,
1768292909.676375,1768292909.676657,85.000000,0.000000,4325.384766,4314.743652,4300.641113,4340.897461,4318.205078,4321.025879,4322.820313,4323.974121,4324.358887,4309.230957,4522.948730,4534.743652,4411.666504,4490.641113,5676.000000,2.000000,44.000000,,,,0.000000,4.000000,4.000000,4.000000,4.000000,4.000000,4.000000,4.000000,4.000000,4.000000,4.000000,4.000000,4.000000,4.000000,4.000000,100.000000,,,,,,,,,,,,,,,,,,,,,,,,,,,,,,,,,,,,,,,,,,,,,,,,,,,,,,,,,,,,,,,,,,,,,,,,,,,,,,,,,,,,,,,,,,,,,,,,,,,,,,,,,,,,,,,,,,,,,
1768292909.684183,1768292909.684366,86.000000,0.000000,4326.410156,4321.025879,4302.179688,4341.282227,4316.922852,4322.051270,4322.436035,4325.384766,4326.282227,4312.563965,4524.743652,4532.563965,4413.077148,4493.846191,4336.000000,2.000000,44.000000,,,,0.000000,4.000000,4.000000,4.000000,4.000000,4.000000,4.000000,4.000000,4.000000,4.000000,4.000000,4.000000,4.000000,4.000000,4.000000,100.000000,,,,,,,,,,,,,,,,,,,,,,,,,,,,,,,,,,,,,,,,,,,,,,,,,,,,,,,,,,,,,,,,,,,,,,,,,,,,,,,,,,,,,,,,,,,,,,,,,,,,,,,,,,,,,,,,,,,,,
1768292909.691992,1768292909.692174,87.000000,0.000000,4327.051270,4324.871582,4300.384766,4338.461426,4314.102539,4321.922852,4318.589844,4321.666504,4324.615234,4311.410156,4525.000000,4525.641113,4411.410156,4491.153809,4747.000000,2.000000,44.000000,,,,0.000000,4.000000,4.000000,4.000000,4.000000,4.000000,4.000000,4.000000,4.000000,4.000000,4.000000,4.000000,4.000000,4.000000,4.000000,100.000000,,,,,,,,,,,,,,,,,,,,,,,,,,,,,,,,,,,,,,,,,,,,,,,,,,,,,,,,,,,,,,,,,,,,,,,,,,,,,,,,,,,,,,,,,,,,,,,,,,,,,,,,,,,,,,,,,,,,,
1768292909.699800,1768292909.699783,88.000000,0.000000,4325.512695,4320.000000,4295.000000,4339.487305,4317.820313,4321.666504,4318.077148,4320.769043,4321.410156,4307.051270,4522.051270,4522.820313,4412.179688,4485.128418,4585.000000,2.000000,44.000000,,,,0.000000,4.000000,4.000000,4.000000,4.000000,4.000000,4.000000,4.000000,4.000000,4.000000,4.000000,4.000000,4.000000,4.000000,4.000000,100.000000,,,,,,,,,,,,,,,,,,,,,,,,,,,,,,,,,,,,,,,,,,,,,,,,,,,,,,,,,,,,,,,,,,,,,,,,,,,,,,,,,,,,,,,,,,,,,,,,,,,,,,,,,,,,,,,,,,,,,
1768292909.707609,1768292909.707592,89.000000,0.000000,4320.256348,4312.563965,4293.589844,4335.256348,4320.641113,4317.692383,4318.974121,4318.846191,4318.974121,4307.820313,4519.230957,4522.820313,4408.205078,4479.871582,5676.000000,2.000000,44.000000,,,,0.000000,4.000000,4.000000,4.000000,4.000000,4.000000,4.000000,4.000000,4.000000,4.000000,4.000000,4.000000,4.000000,4.000000,4.000000,100.000000,,,,,,,,,,,,,,,,,,,,,,,,,,,,,,,,,,,,,,,,,,,,,,,,,,,,,,,,,,,,,,,,,,,,,,,,,,,,,,,,,,,,,,,,,,,,,,,,,,,,,,,,,,,,,,,,,,,,,
1768292909.715417,1768292909.715500,90.000000,0.000000,4319.358887,4309.102539,4294.743652,4325.769043,4321.666504,4313.589844,4313.717773,4311.410156,4317.820313,4308.846191,4518.846191,4521.282227,4402.179688,4479.743652,4336.000000,2.000000,44.000000,,,,0.000000,4.000000,4.000000,4.000000,4.000000,4.000000,4.000000,4.000000,4.000000,4.000000,4.000000,4.000000,4.000000,4.000000,4.000000,100.000000,,,,,,,,,,,,,,,,,,,,,,,,,,,,,,,,,,,,,,,,,,,,,,,,,,,,,,,,,,,,,,,,,,,,,,,,,,,,,,,,,,,,,,,,,,,,,,,,,,,,,,,,,,,,,,,,,,,,,
1768292909.723226,1768292909.723308,91.000000,0.000000,4324.358887,4315.128418,4296.922852,4328.333496,4323.846191,4314.102539,4313.461426,4314.102539,4322.436035,4308.461426,4520.897461,4523.589844,4403.846191,4481.410156,4747.000000,2.000000,44.000000,,,,0.000000,4.000000,4.000000,4.000000,4.000000,4.000000,4.000000,4.000000,4.000000,4.000000,4.000000,4.000000,4.000000,4.000000,4.000000,100.000000,,,,,,,,,,,,,,,,,,,,,,,,,,,,,,,,,,,,,,,,,,,,,,,,,,,,,,,,,,,,,,,,,,,,,,,,,,,,,,,,,,,,,,,,,,,,,,,,,,,,,,,,,,,,,,,,,,,,,
1768292909.731034,1768292909.731317,92.000000,0.000000,4326.794922,4319.358887,4297.307617,4335.128418,4323.333496,4318.974121,4320.897461,4322.179688,4325.641113,4309.743652,4517.051270,4523.974121,4405.128418,4476.922852,4585.000000,2.000000,44.000000,,,,0.000000,4.000000,4.000000,4.000000,4.000000,4.000000,4.000000,4.000000,4.000000,4.000000,4.000000,4.000000,4.000000,4.000000,4.000000,100.000000,,,,,,,,,,,,,,,,,,,,,,,,,,,,,,,,,,,,,,,,,,,,,,,,,,,,,,,,,,,,,,,,,,,,,,,,,,,,,,,,,,,,,,,,,,,,,,,,,,,,,,,,,,,,,,,,,,,,,
1768292909.738842,1768292909.739125,93.000000,0.000000,4325.128418,4315.897461,4296.794922,4334.871582,4322.563965,4322.948730,4320.384766,4319.487305,4325.769043,4309.487305,4510.897461,4520.897461,4402.436035,4474.871582,5676.000000,2.000000,44.000000,,,,0.000000,4.000000,4.000000,4.000000,4.000000,4.000000,4.000000,4.000000,4.000000,4.000000,4.000000,4.000000,4.000000,4.000000,4.000000,100.000000,,,,,,,,,,,,,,,,,,,,,,,,,,,,,,,,,,,,,,,,,,,,,,,,,,,,,,,,,,,,,,,,,,,,,,,,,,,,,,,,,,,,,,,,,,,,,,,,,,,,,,,,,,,,,,,,,,,,,
1768292909.746651,1768292909.747033,94.000000,0.000000,4320.256348,4311.794922,4296.410156,4333.205078,4323.077148,4318.974121,4314.615234,4317.820313,4324.487305,4307.179688,4510.897461,4520.641113,4400.897461,4476.922852,4336.000000,2.000000,44.000000,,,,0.000000,4.000000,4.000000,4.000000,4.000000,4.000000,4.000000,4.000000,4.000000,4.000000,4.000000,4.000000,4.000000,4.000000,4.000000,100.000000,,,,,,,,,,,,,,,,,,,,,,,,,,,,,,,,,,,,,,,,,,,,,,,,,,,,,,,,,,,,,,,,,,,,,,,,,,,,,,,,,,,,,,,,,,,,,,,,,,,,,,,,,,,,,,,,,,,,,
1768292909.754459,1768292909.754842,95.000000,0.000000,4312.820313,4309.615234,4292.948730,4330.897461,4321.025879,4313.461426,4314.487305,4320.769043,4320.384766,4305.384766,4510.384766,4520.897461,4396.794922,4474.358887,4747.000000,2.000000,44.000000,,,,0.000000,4.000000,4.000000,4.000000,4.000000,4.000000,4.000000,4.000000,4.000000,4.000000,4.000000,4.000000,4.000000,4.000000,4.000000,100.000000,,,,,,,,,,,,,,,,,,,,,,,,,,,,,,,,,,,,,,,,,,,,,,,,,,,,,,,,,,,,,,,,,,,,,,,,,,,,,,,,,,,,,,,,,,,,,,,,,,,,,,,,,,,,,,,,,,,,,
1768292909.762268,1768292909.762850,96.000000,0.000000,4309.230957,4308.077148,4291.666504,4326.025879,4319.230957,4319.871582,4322.051270,4316.666504,4316.666504,4306.153809,4508.589844,4519.615234,4395.384766,4471.666504,4585.000000,2.000000,44.000000,,,,0.000000,4.000000,4.000000,4.000000,4.000000,4.000000,4.000000,4.000000,4.000000,4.000000,4.000000,4.000000,4.000000,4.000000,4.000000,100.000000,,,,,,,,,,,,,,,,,,,,,,,,,,,,,,,,,,,,,,,,,,,,,,,,1.218595,0.543148,0.222427,0.430697,0.270417,0.632458,0.531034,0.288729,0.281007,0.135239,0.062667,0.169064,0.038266,0.080795,0.069779,0.330187,0.479241,0.080871,0.226483,0.145943,0.598983,0.400171,0.126440,0.157579,0.077076,0.451201,0.092186,0.196244,0.112639,0.217004,0.297658,0.130474,0.284335,0.193800,0.337027,0.948284,0.417362,0.409407,0.253225,0.128943,0.907266,0.444103,0.207323,0.225657,0.123348,0.634363,0.594609,0.286283,0.407809,0.120856,1.785819,0.296401,0.660857,0.616401,0.155693,2.268874,0.892199,0.677283,0.548685,0.333227,0.806950,0.440961,0.383798,0.563895,0.175824,1.459473,0.646305,0.625345,0.553162,0.273777
1768292909.770076,1768292909.770659,97.000000,0.000000,4315.000000,4309.615234,4293.461426,4329.743652,4318.846191,4328.974121,4332.179688,4316.282227,4318.333496,4308.333496,4515.641113,4523.974121,4404.615234,4475.384766,5676.000000,2.000000,44.000000,,,,0.000000,4.000000,4.000000,4.000000,4.000000,4.000000,4.000000,4.000000,4.000000,4.000000,4.000000,4.000000,4.000000,4.000000,4.000000,100.000000,,,,,,,,,,,,,,,,,,,,,,,,,,,,,,,,,,,,,,,,,,,,,,,,,,,,,,,,,,,,,,,,,,,,,,,,,,,,,,,,,,,,,,,,,,,,,,,,,,,,,,,,,,,,,,,,,,,,,
1768292909.777885,1768292909.778367,98.000000,0.000000,4319.102539,4313.974121,4296.282227,4337.820313,4320.641113,4323.589844,4328.846191,4324.102539,4322.563965,4307.051270,4524.487305,4529.615234,4407.179688,4479.102539,4336.000000,2.000000,44.000000,,,,0.000000,4.000000,4.000000,4.000000,4.000000,4.000000,4.000000,4.000000,4.000000,4.000000,4.000000,4.000000,4.000000,4.000000,4.000000,100.000000,,,,,,,,,,,,,,,,,,,,,,,,,,,,,,,,,,,,,,,,,,,,,,,,,,,,,,,,,,,,,,,,,,,,,,,,,,,,,,,,,,,,,,,,,,,,,,,,,,,,,,,,,,,,,,,,,,,,,
1768292909.785693,1768292909.786176,99.000000,0.000000,4313.205078,4312.051270,4297.692383,4333.846191,4318.333496,4312.179688,4316.538574,4322.179688,4321.025879,4298.974121,4521.922852,4526.666504,4396.794922,4476.282227,4747.000000,2.000000,44.000000,,,,0.000000,4.000000,4.000000,4.000000,4.000000,4.000000,4.000000,4.000000,4.000000,4.000000,4.000000,4.000000,4.000000,4.000000,4.000000,100.000000,,,,,,,,,,,,,,,,,,,,,,,,,,,,,,,,,,,,,,,,,,,,,,,,,,,,,,,,,,,,,,,,,,,,,,,,,,,,,,,,,,,,,,,,,,,,,,,,,,,,,,,,,,,,,,,,,,,,,
1768292909.793502,1768292909.794184,100.000000,0.000000,4302.563965,4310.256348,4298.077148,4326.794922,4310.384766,4311.666504,4312.820313,4314.487305,4318.077148,4293.846191,4517.436035,4521.282227,4394.230957,4471.666504,4585.000000,2.000000,44.000000,,,,0.000000,4.000000,4.000000,4.000000,4.000000,4.000000,4.000000,4.000000,4.000000,4.000000,4.000000,4.000000,4.000000,4.000000,4.000000,100.000000,,,,,,,,,,,,,,,,,,,,,,,,,,,,,,,,,,,,,,,,,,,,,,,,,,,,,,,,,,,,,,,,,,,,,,,,,,,,,,,,,,,,,,,,,,,,,,,,,,,,,,,,,,,,,,,,,,,,,
1768292909.801310,1768292909.801992,101.000000,0.000000,4295.897461,4307.436035,4293.333496,4326.153809,4304.230957,4314.871582,4313.717773,4312.179688,4318.333496,4294.358887,4520.000000,4520.641113,4400.000000,4472.307617,5676.000000,2.000000,44.000000,,,,0.000000,4.000000,4.000000,4.000000,4.000000,4.000000,4.000000,4.000000,4.000000,4.000000,4.000000,4.000000,4.000000,4.000000,4.000000,100.000000,,,,,,,,,,,,,,,,,,,,,,,,,,,,,,,,,,,,,,,,,,,,,,,,,,,,,,,,,,,,,,,,,,,,,,,,,,,,,,,,,,,,,,,,,,,,,,,,,,,,,,,,,,,,,,,,,,,,,
1768292909.809118,1768292909.809701,102.000000,0.000000,4300.512695,4302.436035,4288.077148,4325.769043,4301.922852,4314.230957,4313.077148,4311.538574,4319.615234,4293.461426,4522.051270,4521.153809,4399.358887,4473.717773,4336.000000,2.000000,44.000000,,,,0.000000,4.000000,4.000000,4.000000,4.000000,4.000000,4.000000,4.000000,4.000000,4.000000,4.000000,4.000000,4.000000,4.000000,4.000000,100.000000,,,,,,,,,,,,,,,,,,,,,,,,,,,,,,,,,,,,,,,,,,,,,,,,,,,,,,,,,,,,,,,,,,,,,,,,,,,,,,,,,,,,,,,,,,,,,,,,,,,,,,,,,,,,,,,,,,,,,
1768292909.816927,1768292909.817509,103.000000,0.000000,4308.846191,4306.922852,4293.333496,4327.948730,4300.769043,4314.615234,4314.102539,4312.948730,4318.461426,4291.922852,4522.692383,4521.666504,4402.307617,4472.563965,4747.000000,2.000000,44.000000,,,,0.000000,4.000000,4.000000,4.000000,4.000000,4.000000,4.000000,4.000000,4.000000,4.000000,4.000000,4.000000,4.000000,4.000000,4.000000,100.000000,,,,,,,,,,,,,,,,,,,,,,,,,,,,,,,,,,,,,,,,,,,,,,,,,,,,,,,,,,,,,,,,,,,,,,,,,,,,,,,,,,,,,,,,,,,,,,,,,,,,,,,,,,,,,,,,,,,,,
1768292909.824735,1768292909.825118,104.000000,0.000000,4313.589844,4313.461426,4298.974121,4336.666504,4303.205078,4318.077148,4315.128418,4318.205078,4316.410156,4293.717773,4529.358887,4527.820313,4411.666504,4481.153809,4585.000000,2.000000,44.000000,,,,0.000000,4.000000,4.000000,4.000000,4.000000,4.000000,4.000000,4.000000,4.000000,4.000000,4.000000,4.000000,4.000000,4.000000,4.000000,100.000000,,,,,,,,,,,,,,,,,,,,,,,,,,,,,,,,,,,,,,,,,,,,,,,,,,,,,,,,,,,,,,,,,,,,,,,,,,,,,,,,,,,,,,,,,,,,,,,,,,,,,,,,,,,,,,,,,,,,,
1768292909.832543,1768292909.832926,105.000000,0.000000,4317.692383,4313.589844,4299.743652,4342.179688,4308.077148,4320.641113,4317.563965,4322.051270,4321.922852,4296.922852,4540.512695,4538.846191,4412.820313,4494.230957,5676.000000,2.000000,44.000000,,,,0.000000,4.000000,4.000000,4.000000,4.000000,4.000000,4.000000,4.000000,4.000000,4.000000,4.000000,4.000000,4.000000,4.000000,4.000000,100.000000,,,,,,,,,,,,,,,,,,,,,,,,,,,,,,,,,,,,,,,,,,,,,,,,,,,,,,,,,,,,,,,,,,,,,,,,,,,,,,,,,,,,,,,,,,,,,,,,,,,,,,,,,,,,,,,,,,,,,
1768292909.840352,1768292909.840635,106.000000,0.000000,4322.692383,4313.846191,4301.410156,4341.794922,4308.717773,4321.538574,4322.948730,4323.846191,4325.641113,4296.410156,4541.025879,4540.641113,4414.743652,4493.717773,4336.000000,2.000000,44.000000,,,,0.000000,4.000000,4.000000,4.000000,4.000000,4.000000,4.000000,4.000000,4.000000,4.000000,4.000000,4.000000,4.000000,4.000000,4.000000,100.000000,,,,,,,,,,,,,,,,,,,,,,,,,,,,,,,,,,,,,,,,,,,,,,,,,,,,,,,,,,,,,,,,,,,,,,,,,,,,,,,,,,,,,,,,,,,,,,,,,,,,,,,,,,,,,,,,,,,,,
1768292909.848160,1768292909.848443,107.000000,0.000000,4323.461426,4318.077148,4302.051270,4342.051270,4305.897461,4320.641113,4321.410156,4326.025879,4325.384766,4298.717773,4539.358887,4538.846191,4424.743652,4493.589844,4747.000000,2.000000,44.000000,,,,0.000000,4.000000,4.000000,4.000000,4.000000,4.000000,4.000000,4.000000,4.000000,4.000000,4.000000,4.000000,4.000000,4.000000,4.000000,100.000000,,,,,,,,,,,,,,,,,,,,,,,,,,,,,,,,,,,,,,,,,,,,,,,,,,,,,,,,,,,,,,,,,,,,,,,,,,,,,,,,,,,,,,,,,,,,,,,,,,,,,,,,,,,,,,,,,,,,,
1768292909.855969,1768292909.856452,108.000000,0.000000,4325.128418,4321.153809,4303.461426,4341.794922,4306.025879,4322.179688,4323.846191,4329.743652,4330.641113,4307.948730,4550.256348,4549.871582,4431.410156,4505.897461,4585.000000,2.000000,44.000000,,,,0.000000,4.000000,4.000000,4.000000,4.000000,4.000000,4.000000,4.000000,4.000000,4.000000,4.000000,4.000000,4.000000,4.000000,4.000000,100.000000,,,,,,,,,,,,,,,,,,,,,,,,,,,,,,,,,,,,,,,,,,,,,,,,,,,,,,,,,,,,,,,,,,,,,,,,,,,,,,,,,,,,,,,,,,,,,,,,,,,,,,,,,,,,,,,,,,,,,
1768292909.863777,1768292909.864260,109.000000,0.000000,4331.538574,4322.307617,4306.153809,4342.051270,4308.589844,4326.538574,4329.871582,4327.692383,4332.948730,4307.948730,4551.538574,4558.333496,4428.846191,4509.871582,5676.000000,2.000000,44.000000,,,,0.000000,4.000000,4.000000,4.000000,4.000000,4.000000,4.000000,4.000000,4.000000,4.000000,4.000000,4.000000,4.000000,4.000000,4.000000,100.000000,,,,,,,,,,,,,,,,,,,,,,,,,,,,,,,,,,,,,,,,,,,,,,,,,,,,,,,,,,,,,,,,,,,,,,,,,,,,,,,,,,,,,,,,,,,,,,,,,,,,,,,,,,,,,,,,,,,,,
1768292909.871585,1768292909.872168,110.000000,0.000000,4336.538574,4326.153809,4306.922852,4343.974121,4309.615234,4327.436035,4324.615234,4323.589844,4327.436035,4297.051270,4540.384766,4548.461426,4425.000000,4505.641113,4336.000000,2.000000,44.000000,,,,0.000000,4.000000,4.000000,4.000000,4.000000,4.000000,4.000000,4.000000,4.000000,4.000000,4.000000,4.000000,4.000000,4.000000,4.000000,100.000000,,,,,,,,,,,,,,,,,,,,,,,,,,,,,,,,,,,,,,,,,,,,,,,,,,,,,,,,,,,,,,,,,,,,,,,,,,,,,,,,,,,,,,,,,,,,,,,,,,,,,,,,,,,,,,,,,,,,,
1768292909.879394,1768292909.879977,111.000000,0.000000,4339.615234,4328.846191,4303.846191,4342.179688,4306.153809,4321.666504,4317.948730,4324.230957,4324.358887,4295.128418,4537.948730,4539.358887,4425.897461,4503.077148,4747.000000,2.000000,44.000000,,,,0.000000,4.000000,4.000000,4.000000,4.000000,4.000000,4.000000,4.000000,4.000000,4.000000,4.000000,4.000000,4.000000,4.000000,4.000000,100.000000,,,,,,,,,,,,,,,,,,,,,,,,,,,,,,,,,,,,,,,,,,,,,,,,,,,,,,,,,,,,,,,,,,,,,,,,,,,,,,,,,,,,,,,,,,,,,,,,,,,,,,,,,,,,,,,,,,,,,
1768292909.887202,1768292909.887585,112.000000,0.000000,4337.051270,4326.153809,4301.153809,4338.333496,4302.051270,4316.410156,4315.512695,4320.769043,4326.153809,4299.871582,4539.743652,4540.128418,4423.717773,4495.769043,4585.000000,2.000000,44.000000,,,,0.000000,4.000000,4.000000,4.000000,4.000000,4.000000,4.000000,4.000000,4.000000,4.000000,4.000000,4.000000,4.000000,4.000000,4.000000,100.000000,,,,,,,,,,,,,,,,,,,,,,,,,,,,,,,,,,,,,,,,,,,,,,,,1.268654,0.596304,0.221455,0.361853,0.291546,0.521058,0.594157,0.293796,0.229988,0.153462,0.063770,0.198030,0.043563,0.077889,0.071322,0.327331,0.560508,0.064675,0.201013,0.158222,0.564465,0.393459,0.108410,0.162205,0.078053,0.433247,0.092486,0.193018,0.099345,0.216302,0.289700,0.135735,0.267304,0.170033,0.334016,0.953788,0.472651,0.425890,0.241665,0.129007,0.870523,0.492312,0.189306,0.211680,0.136673,0.612653,0.618034,0.223998,0.391181,0.126840,1.612090,0.332407,0.615472,0.623338,0.158508,2.083081,1.096045,0.635756,0.529162,0.344141,0.725919,0.525909,0.349238,0.637794,0.187043,1.379668,0.679933,0.613520,0.592813,0.303848
1768292909.895011,1768292909.895394,113.000000,0.000000,4334.102539,4325.000000,4300.897461,4339.871582,4304.615234,4316.538574,4313.077148,4314.487305,4325.769043,4296.410156,4536.922852,4541.410156,4420.256348,4496.794922,5676.000000,2.000000,44.000000,,,,0.000000,4.000000,4.000000,4.000000,4.000000,4.000000,4.000000,4.000000,4.000000,4.000000,4.000000,4.000000,4.000000,4.000000,4.000000,100.000000,,,,,,,,,,,,,,,,,,,,,,,,,,,,,,,,,,,,,,,,,,,,,,,,,,,,,,,,,,,,,,,,,,,,,,,,,,,,,,,,,,,,,,,,,,,,,,,,,,,,,,,,,,,,,,,,,,,,,
1768292909.902819,1768292909.903102,114.000000,0.000000,4337.436035,4329.487305,4300.512695,4343.333496,4310.256348,4316.666504,4314.230957,4317.692383,4326.153809,4294.615234,4537.436035,4540.384766,4422.179688,4508.589844,4336.000000,2.000000,44.000000,,,,0.000000,4.000000,4.000000,4.000000,4.000000,4.000000,4.000000,4.000000,4.000000,4.000000,4.000000,4.000000,4.000000,4.000000,4.000000,100.000000,,,,,,,,,,,,,,,,,,,,,,,,,,,,,,,,,,,,,,,,,,,,,,,,,,,,,,,,,,,,,,,,,,,,,,,,,,,,,,,,,,,,,,,,,,,,,,,,,,,,,,,,,,,,,,,,,,,,,
1768292909.910628,1768292909.910911,115.000000,0.000000,4340.000000,4329.230957,4301.794922,4340.897461,4309.871582,4312.820313,4316.282227,4323.461426,4327.436035,4301.282227,4536.666504,4538.717773,4426.025879,4507.563965,4747.000000,2.000000,44.000000,,,,0.000000,4.000000,4.000000,4.000000,4.000000,4.000000,4.000000,4.000000,4.000000,4.000000,4.000000,4.000000,4.000000,4.000000,4.000000,100.000000,,,,,,,,,,,,,,,,,,,,,,,,,,,,,,,,,,,,,,,,,,,,,,,,,,,,,,,,,,,,,,,,,,,,,,,,,,,,,,,,,,,,,,,,,,,,,,,,,,,,,,,,,,,,,,,,,,,,,
1768292909.918436,1768292909.918919,116.000000,0.000000,4339.743652,4329.743652,4303.717773,4339.743652,4307.692383,4313.974121,4316.025879,4321.538574,4326.922852,4307.307617,4532.563965,4545.384766,4427.307617,4502.563965,4585.000000,2.000000,44.000000,,,,0.000000,4.000000,4.000000,4.000000,4.000000,4.000000,4.000000,4.000000,4.000000,4.000000,4.000000,4.000000,4.000000,4.000000,4.000000,100.000000,,,,,,,,,,,,,,,,,,,,,,,,,,,,,,,,,,,,,,,,,,,,,,,,,,,,,,,,,,,,,,,,,,,,,,,,,,,,,,,,,,,,,,,,,,,,,,,,,,,,,,,,,,,,,,,,,,,,,
1768292909.926245,1768292909.926728,117.000000,0.000000,4340.512695,4338.333496,4303.589844,4344.871582,4313.333496,4319.102539,4319.743652,4321.025879,4328.333496,4311.025879,4537.307617,4554.102539,4429.615234,4507.307617,5676.000000,2.000000,44.000000,,,,0.000000,4.000000,4.000000,4.000000,4.000000,4.000000,4.000000,4.000000,4.000000,4.000000,4.000000,4.000000,4.000000,4.000000,4.000000,100.000000,,,,,,,,,,,,,,,,,,,,,,,,,,,,,,,,,,,,,,,,,,,,,,,,,,,,,,,,,,,,,,,,,,,,,,,,,,,,,,,,,,,,,,,,,,,,,,,,,,,,,,,,,,,,,,,,,,,,,
1768292909.934053,1768292909.934636,118.000000,0.000000,4341.025879,4340.384766,4300.512695,4345.897461,4319.871582,4319.358887,4324.871582,4325.000000,4327.179688,4311.794922,4536.538574,4546.922852,4428.974121,4509.230957,4336.000000,2.000000,44.000000,,,,0.000000,4.000000,4.000000,4.000000,4.000000,4.000000,4.000000,4.000000,4.000000,4.000000,4.000000,4.000000,4.000000,4.000000,4.000000,100.000000,,,,,,,,,,,,,,,,,,,,,,,,,,,,,,,,,,,,,,,,,,,,,,,,,,,,,,,,,,,,,,,,,,,,,,,,,,,,,,,,,,,,,,,,,,,,,,,,,,,,,,,,,,,,,,,,,,,,,
1768292909.941861,1768292909.942444,119.000000,0.000000,4340.897461,4334.615234,4298.846191,4342.563965,4321.410156,4321.282227,4326.153809,4326.410156,4325.384766,4310.384766,4527.436035,4541.922852,4421.410156,4507.820313,4747.000000,2.000000,44.000000,,,,0.000000,4.000000,4.000000,4.000000,4.000000,4.000000,4.000000,4.000000,4.000000,4.000000,4.000000,4.000000,4.000000,4.000000,4.000000,100.000000,,,,,,,,,,,,,,,,,,,,,,,,,,,,,,,,,,,,,,,,,,,,,,,,,,,,,,,,,,,,,,,,,,,,,,,,,,,,,,,,,,,,,,,,,,,,,,,,,,,,,,,,,,,,,,,,,,,,,
1768292909.949670,1768292909.950453,120.000000,0.000000,4341.282227,4333.333496,4301.282227,4342.436035,4320.384766,4321.922852,4325.256348,4327.563965,4326.794922,4311.794922,4524.487305,4548.974121,4418.846191,4505.000000,4585.000000,2.000000,44.000000,,,,0.000000,4.000000,4.000000,4.000000,4.000000,4.000000,4.000000,4.000000,4.000000,4.000000,4.000000,4.000000,4.000000,4.000000,4.000000,100.000000,,,,,,,,,,,,,,,,,,,,,,,,,,,,,,,,,,,,,,,,,,,,,,,,,,,,,,,,,,,,,,,,,,,,,,,,,,,,,,,,,,,,,,,,,,,,,,,,,,,,,,,,,,,,,,,,,,,,,
1768292909.957478,1768292909.958261,121.000000,0.000000,4341.025879,4334.871582,4303.333496,4344.102539,4314.871582,4315.641113,4322.563965,4327.436035,4327.307617,4312.948730,4525.384766,4546.153809,4424.230957,4499.615234,5676.000000,2.000000,44.000000,,,,0.000000,4.000000,4.000000,4.000000,4.000000,4.000000,4.000000,4.000000,4.000000,4.000000,4.000000,4.000000,4.000000,4.000000,4.000000,100.000000,,,,,,,,,,,,,,,,,,,,,,,,,,,,,,,,,,,,,,,,,,,,,,,,,,,,,,,,,,,,,,,,,,,,,,,,,,,,,,,,,,,,,,,,,,,,,,,,,,,,,,,,,,,,,,,,,,,,,
1768292909.965287,1768292909.965970,122.000000,0.000000,4343.205078,4334.102539,4301.538574,4343.846191,4310.641113,4312.307617,4319.487305,4325.384766,4327.179688,4310.641113,4525.384766,4538.205078,4427.948730,4502.820313,4336.000000,2.000000,44.000000,,,,0.000000,4.000000,4.000000,4.000000,4.000000,4.000000,4.000000,4.000000,4.000000,4.000000,4.000000,4.000000,4.000000,4.000000,4.000000,100.000000,,,,,,,,,,,,,,,,,,,,,,,,,,,,,,,,,,,,,,,,,,,,,,,,,,,,,,,,,,,,,,,,,,,,,,,,,,,,,,,,,,,,,,,,,,,,,,,,,,,,,,,,,,,,,,,,,,,,,
1768292909.973095,1768292909.973778,123.000000,0.000000,4345.384766,4333.589844,4299.615234,4343.846191,4312.179688,4317.051270,4320.641113,4325.256348,4326.666504,4311.025879,4526.025879,4540.641113,4427.307617,4505.256348,4747.000000,2.000000,44.000000,,,,0.000000,4.000000,4.000000,4.000000,4.000000,4.000000,4.000000,4.000000,4.000000,4.000000,4.000000,4.000000,4.000000,4.000000,4.000000,100.000000,,,,,,,,,,,,,,,,,,,,,,,,,,,,,,,,,,,,,,,,,,,,,,,,,,,,,,,,,,,,,,,,,,,,,,,,,,,,,,,,,,,,,,,,,,,,,,,,,,,,,,,,,,,,,,,,,,,,,
1768292909.980904,1768292909.981387,124.000000,0.000000,4342.563965,4335.897461,4301.794922,4343.717773,4315.384766,4317.948730,4320.384766,4324.358887,4322.051270,4311.794922,4524.487305,4540.769043,4421.410156,4495.897461,4585.000000,2.000000,44.000000,,,,0.000000,4.000000,4.000000,4.000000,4.000000,4.000000,4.000000,4.000000,4.000000,4.000000,4.000000,4.000000,4.000000,4.000000,4.000000,100.000000,,,,,,,,,,,,,,,,,,,,,,,,,,,,,,,,,,,,,,,,,,,,,,,,,,,,,,,,,,,,,,,,,,,,,,,,,,,,,,,,,,,,,,,,,,,,,,,,,,,,,,,,,,,,,,,,,,,,,
1768292909.988712,1768292909.989195,125.000000,0.000000,4339.230957,4335.000000,4304.230957,4343.461426,4314.871582,4313.589844,4318.205078,4322.436035,4315.897461,4308.333496,4519.615234,4534.615234,4414.487305,4489.871582,5676.000000,2.000000,44.000000,,,,0.000000,4.000000,4.000000,4.000000,4.000000,4.000000,4.000000,4.000000,4.000000,4.000000,4.000000,4.000000,4.000000,4.000000,4.000000,100.000000,,,,,,,,,,,,,,,,,,,,,,,,,,,,,,,,,,,,,,,,,,,,,,,,,,,,,,,,,,,,,,,,,,,,,,,,,,,,,,,,,,,,,,,,,,,,,,,,,,,,,,,,,,,,,,,,,,,,,
1768292909.996520,1768292909.996904,126.000000,0.000000,4337.948730,4329.102539,4303.589844,4342.948730,4312.948730,4316.153809,4318.717773,4325.769043,4316.153809,4305.384766,4520.000000,4536.922852,4412.179688,4489.871582,4336.000000,2.000000,44.000000,,,,0.000000,4.000000,4.000000,4.000000,4.000000,4.000000,4.000000,4.000000,4.000000,4.000000,4.000000,4.000000,4.000000,4.000000,4.000000,100.000000,,,,,,,,,,,,,,,,,,,,,,,,,,,,,,,,,,,,,,,,,,,,,,,,,,,,,,,,,,,,,,,,,,,,,,,,,,,,,,,,,,,,,,,,,,,,,,,,,,,,,,,,,,,,,,,,,,,,,
1768292910.004329,1768292910.004712,127.000000,0.000000,4336.538574,4324.615234,4301.666504,4340.000000,4312.820313,4317.948730,4316.025879,4322.692383,4318.717773,4301.282227,4521.794922,4534.102539,4413.333496,4481.794922,44.000000,2.000000,44.000000,,,,0.000000,4.000000,4.000000,4.000000,4.000000,4.000000,4.000000,4.000000,4.000000,4.000000,4.000000,4.000000,4.000000,4.000000,4.000000,100.000000,,,,,,,,,,,,,,,,,,,,,,,,,,,,,,,,,,,,,,,,,,,,,,,,,,,,,,,,,,,,,,,,,,,,,,,,,,,,,,,,,,,,,,,,,,,,,,,,,,,,,,,,,,,,,,,,,,,,,
1768292910.012137,1768292910.012321,0.000000,0.000000,4336.922852,4324.230957,4300.128418,4337.051270,4310.769043,4313.333496,4312.692383,4312.692383,4318.846191,4296.282227,4521.794922,4527.692383,4412.051270,4477.051270,1830.000000,2.000000,44.000000,,,,0.000000,4.000000,4.000000,4.000000,4.000000,4.000000,4.000000,4.000000,4.000000,4.000000,4.000000,4.000000,4.000000,4.000000,4.000000,100.000000,,,,,,,,,,,,,,,,,,,,,,,,,,,,,,,,,,,,,,,,,,,,,,,,1.415242,0.665664,0.226427,0.299927,0.287504,0.456591,0.655883,0.297498,0.183368,0.165496,0.075110,0.236069,0.045116,0.072195,0.069048,0.326920,0.629289,0.054153,0.171882,0.157011,0.530442,0.404340,0.097576,0.155480,0.077308,0.405213,0.111205,0.182864,0.083237,0.197128,0.270985,0.162114,0.241060,0.145914,0.306704,0.913414,0.510252,0.420327,0.223157,0.120542,0.795055,0.520179,0.179227,0.192822,0.147022,0.642552,0.651475,0.184642,0.373840,0.129495,1.324205,0.386919,0.571838,0.607261,0.156641,1.859318,1.318317,0.575240,0.502570,0.338297,0.665084,0.666385,0.311735,0.679630,0.193484,1.408286,0.756799,0.575766,0.612679,0.322478
1768292910.019946,1768292910.020129,1.000000,0.000000,4335.897461,4325.769043,4301.794922,4339.743652,4309.102539,4314.871582,4317.307617,4316.025879,4319.358887,4296.153809,4524.743652,4529.487305,4412.948730,4481.922852,4014.000000,2.000000,44.000000,,,,0.000000,4.000000,4.000000,4.000000,4.000000,4.000000,4.000000,4.000000,4.000000,4.000000,4.000000,4.000000,4.000000,4.000000,4.000000,100.000000,,,,,,,,,,,,,,,,,,,,,,,,,,,,,,,,,,,,,,,,,,,,,,,,,,,,,,,,,,,,,,,,,,,,,,,,,,,,,,,,,,,,,,,,,,,,,,,,,,,,,,,,,,,,,,,,,,,,,
1768292910.027754,1768292910.027838,2.000000,0.000000,4329.743652,4325.897461,4303.974121,4339.615234,4311.282227,4320.769043,4322.179688,4321.025879,4317.307617,4296.922852,4519.743652,4530.769043,4413.717773,4481.025879,3979.000000,2.000000,44.000000,,,,0.000000,4.000000,4.000000,4.000000,4.000000,4.000000,4.000000,4.000000,4.000000,4.000000,4.000000,4.000000,4.000000,4.000000,4.000000,100.000000,,,,,,,,,,,,,,,,,,,,,,,,,,,,,,,,,,,,,,,,,,,,,,,,,,,,,,,,,,,,,,,,,,,,,,,,,,,,,,,,,,,,,,,,,,,,,,,,,,,,,,,,,,,,,,,,,,,,,
1768292910.035562,1768292910.035646,3.000000,0.000000,4322.692383,4320.769043,4298.717773,4329.230957,4311.025879,4313.846191,4313.461426,4311.025879,4311.025879,4294.358887,4508.717773,4520.897461,4407.436035,4472.692383,3892.000000,2.000000,44.000000,,,,0.000000,4.000000,4.000000,4.000000,4.000000,4.000000,4.000000,4.000000,4.000000,4.000000,4.000000,4.000000,4.000000,4.000000,4.000000,100.000000,,,,,,,,,,,,,,,,,,,,,,,,,,,,,,,,,,,,,,,,,,,,,,,,,,,,,,,,,,,,,,,,,,,,,,,,,,,,,,,,,,,,,,,,,,,,,,,,,,,,,,,,,,,,,,,,,,,,,
1768292910.043371,1768292910.043255,4.000000,0.000000,4322.179688,4317.436035,4294.615234,4326.153809,4308.974121,4309.487305,4308.333496,4310.000000,4312.436035,4295.256348,4511.153809,4519.615234,4405.256348,4473.974121,3737.000000,2.000000,44.000000,,,,0.000000,4.000000,4.000000,4.000000,4.000000,4.000000,4.000000,4.000000,4.000000,4.000000,4.000000,4.000000,4.000000,4.000000,4.000000,100.000000,,,,,,,,,,,,,,,,,,,,,,,,,,,,,,,,,,,,,,,,,,,,,,,,,,,,,,,,,,,,,,,,,,,,,,,,,,,,,,,,,,,,,,,,,,,,,,,,,,,,,,,,,,,,,,,,,,,,,
1768292910.051179,1768292910.051063,5.000000,0.000000,4326.282227,4322.436035,4300.000000,4337.307617,4311.538574,4320.000000,4321.922852,4323.205078,4322.307617,4297.307617,4525.384766,4531.794922,4412.948730,4482.948730,2762.000000,2.000000,44.000000,,,,0.000000,4.000000,4.000000,4.000000,4.000000,4.000000,4.000000,4.000000,4.000000,4.000000,4.000000,4.000000,4.000000,4.000000,4.000000,100.000000,,,,,,,,,,,,,,,,,,,,,,,,,,,,,,,,,,,,,,,,,,,,,,,,,,,,,,,,,,,,,,,,,,,,,,,,,,,,,,,,,,,,,,,,,,,,,,,,,,,,,,,,,,,,,,,,,,,,,
1768292910.058988,1768292910.058972,6.000000,0.000000,4325.897461,4324.743652,4301.794922,4340.769043,4313.077148,4321.538574,4324.358887,4323.205078,4322.692383,4294.743652,4523.205078,4530.641113,4415.641113,4480.769043,2561.000000,2.000000,44.000000,,,,0.000000,4.000000,4.000000,4.000000,4.000000,4.000000,4.000000,4.000000,4.000000,4.000000,4.000000,4.000000,4.000000,4.000000,4.000000,100.000000,,,,,,,,,,,,,,,,,,,,,,,,,,,,,,,,,,,,,,,,,,,,,,,,,,,,,,,,,,,,,,,,,,,,,,,,,,,,,,,,,,,,,,,,,,,,,,,,,,,,,,,,,,,,,,,,,,,,,
1768292910.066796,1768292910.066780,7.000000,0.000000,4321.153809,4321.410156,4298.717773,4334.230957,4310.000000,4318.461426,4315.897461,4316.794922,4314.230957,4293.205078,4508.717773,4519.615234,4404.230957,4472.307617,4064.000000,2.000000,44.000000,,,,0.000000,4.000000,4.000000,4.000000,4.000000,4.000000,4.000000,4.000000,4.000000,4.000000,4.000000,4.000000,4.000000,4.000000,4.000000,100.000000,,,,,,,,,,,,,,,,,,,,,,,,,,,,,,,,,,,,,,,,,,,,,,,,,,,,,,,,,,,,,,,,,,,,,,,,,,,,,,,,,,,,,,,,,,,,,,,,,,,,,,,,,,,,,,,,,,,,,
1768292910.074605,1768292910.074788,8.000000,0.000000,4320.256348,4321.794922,4298.717773,4336.282227,4314.230957,4325.769043,4323.077148,4322.948730,4318.461426,4294.743652,4510.512695,4522.307617,4397.948730,4473.589844,3273.000000,2.000000,44.000000,,,,0.000000,4.000000,4.000000,4.000000,4.000000,4.000000,4.000000,4.000000,4.000000,4.000000,4.000000,4.000000,4.000000,4.000000,4.000000,100.000000,,,,,,,,,,,,,,,,,,,,,,,,,,,,,,,,,,,,,,,,,,,,,,,,,,,,,,,,,,,,,,,,,,,,,,,,,,,,,,,,,,,,,,,,,,,,,,,,,,,,,,,,,,,,,,,,,,,,,
1768292910.082413,1768292910.082597,9.000000,0.000000,4322.563965,4321.282227,4298.589844,4340.000000,4321.282227,4327.436035,4330.512695,4326.922852,4325.769043,4295.512695,4521.153809,4533.333496,4403.974121,4477.820313,3841.000000,2.000000,44.000000,,,,0.000000,4.000000,4.000000,4.000000,4.000000,4.000000,4.000000,4.000000,4.000000,4.000000,4.000000,4.000000,4.000000,4.000000,4.000000,100.000000,,,,,,,,,,,,,,,,,,,,,,,,,,,,,,,,,,,,,,,,,,,,,,,,,,,,,,,,,,,,,,,,,,,,,,,,,,,,,,,,,,,,,,,,,,,,,,,,,,,,,,,,,,,,,,,,,,,,,
1768292910.090221,1768292910.090305,10.000000,0.000000,4323.974121,4320.512695,4299.102539,4337.436035,4316.666504,4317.820313,4321.282227,4322.436035,4320.000000,4295.512695,4522.307617,4536.282227,4404.615234,4476.794922,4336.000000,2.000000,44.000000,,,,0.000000,4.000000,4.000000,4.000000,4.000000,4.000000,4.000000,4.000000,4.000000,4.000000,4.000000,4.000000,4.000000,4.000000,4.000000,100.000000,,,,,,,,,,,,,,,,,,,,,,,,,,,,,,,,,,,,,,,,,,,,,,,,,,,,,,,,,,,,,,,,,,,,,,,,,,,,,,,,,,,,,,,,,,,,,,,,,,,,,,,,,,,,,,,,,,,,,
1768292910.098030,1768292910.098114,11.000000,0.000000,4326.025879,4322.563965,4302.692383,4338.077148,4309.615234,4315.000000,4315.769043,4322.051270,4318.333496,4295.641113,4515.641113,4529.487305,4396.538574,4478.077148,4747.000000,2.000000,44.000000,,,,0.000000,4.000000,4.000000,4.000000,4.000000,4.000000,4.000000,4.000000,4.000000,4.000000,4.000000,4.000000,4.000000,4.000000,4.000000,100.000000,,,,,,,,,,,,,,,,,,,,,,,,,,,,,,,,,,,,,,,,,,,,,,,,,,,,,,,,,,,,,,,,,,,,,,,,,,,,,,,,,,,,,,,,,,,,,,,,,,,,,,,,,,,,,,,,,,,,,
1768292910.105838,1768292910.105722,12.000000,0.000000,4325.384766,4320.512695,4300.897461,4338.077148,4312.820313,4318.589844,4318.461426,4326.153809,4326.282227,4295.384766,4512.307617,4526.025879,4394.743652,4477.051270,4585.000000,2.000000,44.000000,,,,0.000000,4.000000,4.000000,4.000000,4.000000,4.000000,4.000000,4.000000,4.000000,4.000000,4.000000,4.000000,4.000000,4.000000,4.000000,100.000000,,,,,,,,,,,,,,,,,,,,,,,,,,,,,,,,,,,,,,,,,,,,,,,,,,,,,,,,,,,,,,,,,,,,,,,,,,,,,,,,,,,,,,,,,,,,,,,,,,,,,,,,,,,,,,,,,,,,,
1768292910.113647,1768292910.113531,13.000000,0.000000,4324.487305,4320.384766,4298.974121,4338.077148,4319.102539,4321.282227,4318.333496,4326.025879,4327.692383,4299.102539,4517.436035,4531.410156,4405.641113,4476.153809,5676.000000,2.000000,44.000000,,,,0.000000,4.000000,4.000000,4.000000,4.000000,4.000000,4.000000,4.000000,4.000000,4.000000,4.000000,4.000000,4.000000,4.000000,4.000000,100.000000,,,,,,,,,,,,,,,,,,,,,,,,,,,,,,,,,,,,,,,,,,,,,,,,,,,,,,,,,,,,,,,,,,,,,,,,,,,,,,,,,,,,,,,,,,,,,,,,,,,,,,,,,,,,,,,,,,,,,
