title:apple_7, start timestamp:1768292825.704705, stop timestamp:1768292856.220018, headset type:EPOCX, headset serial:E5020E3B, headset firmware:730, channels:156, sampling rate:eeg_128;pm_0.1;pow_8, samples:3909      , version:2.2, 
Timestamp,OriginalTimestamp,EEG.Counter,EEG.Interpolated,EEG.AF3,EEG.F7,EEG.F3,EEG.FC5,EEG.T7,EEG.P7,EEG.O1,EEG.O2,EEG.P8,EEG.T8,EEG.FC6,EEG.F4,EEG.F8,EEG.AF4,EEG.RawCq,EEG.Battery,EEG.BatteryPercent,MarkerIndex,MarkerType,MarkerValueInt,EEG.MarkerHardware,CQ.AF3,CQ.F7,CQ.F3,CQ.FC5,CQ.T7,CQ.P7,CQ.O1,CQ.O2,CQ.P8,CQ.T8,CQ.FC6,CQ.F4,CQ.F8,CQ.AF4,CQ.Overall,EQ.SampleRateQuality,EQ.OVERALL,EQ.AF3,EQ.F7,EQ.F3,EQ.FC5,EQ.T7,EQ.P7,EQ.O1,EQ.O2,EQ.P8,EQ.T8,EQ.FC6,EQ.F4,EQ.F8,EQ.AF4,PM.Attention.IsActive,PM.Attention.Scaled,PM.Attention.Raw,PM.Attention.Min,PM.Attention.Max,PM.Engagement.IsActive,PM.Engagement.Scaled,PM.Engagement.Raw,PM.Engagement.Min,PM.Engagement.Max,PM.Excitement.IsActive,PM.Excitement.Scaled,PM.Excitement.Raw,PM.Excitement.Min,PM.Excitement.Max,PM.LongTermExcitement,PM.Stress.IsActive,PM.Stress.Scaled,PM.Stress.Raw,PM.Stress.Min,PM.Stress.Max,PM.Relaxation.IsActive,PM.Relaxation.Scaled,PM.Relaxation.Raw,PM.Relaxation.Min,PM.Relaxation.Max,PM.Interest.IsActive,PM.Interest.Scaled,PM.Interest.Raw,PM.Interest.Min,PM.Interest.Max,POW.AF3.Theta,POW.AF3.Alpha,POW.AF3.BetaL,POW.AF3.BetaH,POW.AF3.Gamma,POW.F7.Theta,POW.F7.Alpha,POW.F7.BetaL,POW.F7.BetaH,POW.F7.Gamma,POW.F3.Theta,POW.F3.Alpha,POW.F3.BetaL,POW.F3.BetaH,POW.F3.Gamma,POW.FC5.Theta,POW.FC5.Alpha,POW.FC5.BetaL,POW.FC5.BetaH,POW.FC5.Gamma,POW.T7.Theta,POW.T7.Alpha,POW.T7.BetaL,POW.T7.BetaH,POW.T7.Gamma,POW.P7.Theta,POW.P7.Alpha,POW.P7.BetaL,POW.P7.BetaH,POW.P7.Gamma,POW.O1.Theta,POW.O1.Alpha,POW.O1.BetaL,POW.O1.BetaH,POW.O1.Gamma,POW.O2.Theta,POW.O2.Alpha,POW.O2.BetaL,POW.O2.BetaH,POW.O2.Gamma,POW.P8.Theta,POW.P8.Alpha,POW.P8.BetaL,POW.P8.BetaH,POW.P8.Gamma,POW.T8.Theta,POW.T8.Alpha,POW.T8.BetaL,POW.T8.BetaH,POW.T8.Gamma,POW.FC6.Theta,POW.FC6.Alpha,POW.FC6.BetaL,POW.FC6.BetaH,POW.FC6.Gamma,POW.F4.Theta,POW.F4.Alpha,POW.F4.BetaL,POW.F4.BetaH,POW.F4.Gamma,POW.F8.Theta,POW.F8.Alpha,POW.F8.BetaL,POW.F8.BetaH,POW.F8.Gamma,POW.AF4.Theta,POW.AF4.Alpha,POW.AF4.BetaL,POW.AF4.BetaH,POW.AF4.Gamma
1768292825.704705,1768292825.704903,83.000000,0.000000,4354.230957,4332.179688,4317.692383,4355.256348,4327.051270,4322.948730,4323.205078,4310.128418,4312.307617,4310.512695,4526.153809,4539.102539,4402.179688,4477.307617,4752.000000,2.000000,45.000000,,,,0.000000,4.000000,4.000000,4.000000,4.000000,4.000000,4.000000,4.000000,4.000000,4.000000,4.000000,4.000000,4.000000,4.000000,4.000000,100.000000,,,,,,,,,,,,,,,,,,,,,,,,,,,,,,,,,,,,,,,,,,,,,,,,,,,,,,,,,,,,,,,,,,,,,,,,,,,,,,,,,,,,,,,,,,,,,,,,,,,,,,,,,,,,,,,,,,,,,
1768292825.712513,1768292825.712512,84.000000,0.000000,4351.153809,4326.666504,4313.846191,4353.974121,4321.538574,4319.102539,4315.897461,4310.897461,4312.692383,4313.846191,4526.922852,4537.820313,4400.256348,4474.358887,4617.000000,2.000000,45.000000,,,,0.000000,4.000000,4.000000,4.000000,4.000000,4.000000,4.000000,4.000000,4.000000,4.000000,4.000000,4.000000,4.000000,4.000000,4.000000,100.000000,,,,,,,,,,,,,,,,,,,,,,,,,,,,,,,,,,,,,,,,,,,,,,,,,,,,,,,,,,,,,,,,,,,,,,,,,,,,,,,,,,,,,,,,,,,,,,,,,,,,,,,,,,,,,,,,,,,,,
1768292825.720322,1768292825.720320,85.000000,0.000000,4347.563965,4325.256348,4311.153809,4347.179688,4322.307617,4315.512695,4313.077148,4312.948730,4313.461426,4312.307617,4523.461426,4525.897461,4398.717773,4473.461426,5672.000000,2.000000,45.000000,,,,0.000000,4.000000,4.000000,4.000000,4.000000,4.000000,4.000000,4.000000,4.000000,4.000000,4.000000,4.000000,4.000000,4.000000,4.000000,100.000000,,,,,,,,,,,,,,,,,,,,,,,,,,,,,,,,,,,,,,,,,,,,,,,,,,,,,,,,,,,,,,,,,,,,,,,,,,,,,,,,,,,,,,,,,,,,,,,,,,,,,,,,,,,,,,,,,,,,,
1768292825.728130,1768292825.728029,86.000000,0.000000,4341.922852,4326.282227,4311.282227,4342.179688,4321.922852,4313.461426,4314.871582,4312.563965,4311.666504,4310.128418,4528.333496,4523.333496,4400.384766,4472.179688,4342.000000,2.000000,45.000000,,,,0.000000,4.000000,4.000000,4.000000,4.000000,4.000000,4.000000,4.000000,4.000000,4.000000,4.000000,4.000000,4.000000,4.000000,4.000000,100.000000,,,,,,,,,,,,,,,,,,,,,,,,,,,,,,,,,,,,,,,,,,,,,,,,,,,,,,,,,,,,,,,,,,,,,,,,,,,,,,,,,,,,,,,,,,,,,,,,,,,,,,,,,,,,,,,,,,,,,
1768292825.735938,1768292825.735837,87.000000,0.000000,4341.922852,4322.692383,4312.563965,4345.128418,4314.615234,4312.692383,4316.410156,4311.666504,4311.153809,4310.512695,4538.333496,4536.538574,4408.333496,4476.153809,4752.000000,2.000000,45.000000,,,,0.000000,4.000000,4.000000,4.000000,4.000000,4.000000,4.000000,4.000000,4.000000,4.000000,4.000000,4.000000,4.000000,4.000000,4.000000,100.000000,,,,,,,,,,,,,,,,,,,,,,,,,,,,,,,,,,,,,,,,,,,,,,,,,,,,,,,,,,,,,,,,,,,,,,,,,,,,,,,,,,,,,,,,,,,,,,,,,,,,,,,,,,,,,,,,,,,,,
1768292825.743747,1768292825.743846,88.000000,0.000000,4344.743652,4321.794922,4314.615234,4349.230957,4309.102539,4311.282227,4313.717773,4311.922852,4312.563965,4304.230957,4537.179688,4538.077148,4409.615234,4478.205078,4617.000000,2.000000,45.000000,,,,0.000000,4.000000,4.000000,4.000000,4.000000,4.000000,4.000000,4.000000,4.000000,4.000000,4.000000,4.000000,4.000000,4.000000,4.000000,100.000000,,,,,,,,,,,,,,,,,,,,,,,,,,,,,,,,,,,,,,,,,,,,,,,,,,,,,,,,,,,,,,,,,,,,,,,,,,,,,,,,,,,,,,,,,,,,,,,,,,,,,,,,,,,,,,,,,,,,,
1768292825.751555,1768292825.751654,89.000000,0.000000,4343.461426,4325.256348,4314.102539,4348.717773,4307.179688,4314.871582,4312.948730,4310.897461,4311.922852,4295.128418,4533.333496,4524.358887,4404.230957,4473.846191,5672.000000,2.000000,45.000000,,,,0.000000,4.000000,4.000000,4.000000,4.000000,4.000000,4.000000,4.000000,4.000000,4.000000,4.000000,4.000000,4.000000,4.000000,4.000000,100.000000,,,,,,,,,,,,,,,,,,,,,,,,,,,,,,,,,,,,,,,,,,,,,,,,,,,,,,,,,,,,,,,,,,,,,,,,,,,,,,,,,,,,,,,,,,,,,,,,,,,,,,,,,,,,,,,,,,,,,
1768292825.759364,1768292825.759562,90.000000,0.000000,4343.077148,4327.307617,4310.384766,4348.589844,4305.128418,4322.307617,4320.769043,4308.846191,4309.743652,4292.179688,4537.436035,4521.410156,4408.717773,4474.230957,4342.000000,2.000000,45.000000,,,,0.000000,4.000000,4.000000,4.000000,4.000000,4.000000,4.000000,4.000000,4.000000,4.000000,4.000000,4.000000,4.000000,4.000000,4.000000,100.000000,,,,,,,,,,,,,,,,,,,,,,,,,,,,,,,,,,,,,,,,,,,,,,,,,,,,,,,,,,,,,,,,,,,,,,,,,,,,,,,,,,,,,,,,,,,,,,,,,,,,,,,,,,,,,,,,,,,,,
1768292825.767172,1768292825.767371,91.000000,0.000000,4344.358887,4327.179688,4309.358887,4347.436035,4304.102539,4320.128418,4323.461426,4309.487305,4308.717773,4293.717773,4538.974121,4527.948730,4415.512695,4477.820313,4752.000000,2.000000,45.000000,,,,0.000000,4.000000,4.000000,4.000000,4.000000,4.000000,4.000000,4.000000,4.000000,4.000000,4.000000,4.000000,4.000000,4.000000,4.000000,100.000000,,,,,,,,,,,,,,,,,,,,,,,,,,,,,,,,,,,,,,,,,,,,,,,,,,,,,,,,,,,,,,,,,,,,,,,,,,,,,,,,,,,,,,,,,,,,,,,,,,,,,,,,,,,,,,,,,,,,,
1768292825.774980,1768292825.775379,92.000000,0.000000,4342.948730,4326.922852,4312.179688,4343.077148,4301.666504,4314.871582,4314.358887,4309.871582,4309.615234,4292.307617,4536.538574,4525.512695,4410.512695,4475.384766,4617.000000,2.000000,45.000000,,,,0.000000,4.000000,4.000000,4.000000,4.000000,4.000000,4.000000,4.000000,4.000000,4.000000,4.000000,4.000000,4.000000,4.000000,4.000000,100.000000,,,,,,,,,,,,,,,,,,,,,,,,,,,,,,,,,,,,,,,,,,,,,,,,,,,,,,,,,,,,,,,,,,,,,,,,,,,,,,,,,,,,,,,,,,,,,,,,,,,,,,,,,,,,,,,,,,,,,
1768292825.782789,1768292825.783187,93.000000,0.000000,4340.512695,4327.563965,4312.436035,4341.922852,4298.333496,4318.205078,4312.436035,4308.589844,4310.897461,4287.307617,4538.333496,4523.333496,4405.128418,4471.153809,5672.000000,2.000000,45.000000,,,,0.000000,4.000000,4.000000,4.000000,4.000000,4.000000,4.000000,4.000000,4.000000,4.000000,4.000000,4.000000,4.000000,4.000000,4.000000,100.000000,,,,,,,,,,,,,,,,,,,,,,,,,,,,,,,,,,,,,,,,,,,,,,,,,,,,,,,,,,,,,,,,,,,,,,,,,,,,,,,,,,,,,,,,,,,,,,,,,,,,,,,,,,,,,,,,,,,,,
1768292825.790597,1768292825.791096,94.000000,0.000000,4344.871582,4331.410156,4309.487305,4347.820313,4301.025879,4321.153809,4319.487305,4309.230957,4311.025879,4288.077148,4540.000000,4531.410156,4406.410156,4477.692383,4342.000000,2.000000,45.000000,,,,0.000000,4.000000,4.000000,4.000000,4.000000,4.000000,4.000000,4.000000,4.000000,4.000000,4.000000,4.000000,4.000000,4.000000,4.000000,100.000000,,,,,,,,,,,,,,,,,,,,,,,,,,,,,,,,,,,,,,,,,,,,,,,,,,,,,,,,,,,,,,,,,,,,,,,,,,,,,,,,,,,,,,,,,,,,,,,,,,,,,,,,,,,,,,,,,,,,,
1768292825.798406,1768292825.798904,95.000000,0.000000,4355.512695,4336.410156,4312.307617,4350.512695,4302.436035,4319.743652,4316.666504,4311.153809,4311.538574,4294.743652,4540.897461,4539.487305,4416.025879,4490.641113,4752.000000,2.000000,45.000000,,,,0.000000,4.000000,4.000000,4.000000,4.000000,4.000000,4.000000,4.000000,4.000000,4.000000,4.000000,4.000000,4.000000,4.000000,4.000000,100.000000,,,,,,,,,,,,,,,,,,,,,,,,,,,,,,,,,,,,,,,,,,,,,,,,,,,,,,,,,,,,,,,,,,,,,,,,,,,,,,,,,,,,,,,,,,,,,,,,,,,,,,,,,,,,,,,,,,,,,
1768292825.806214,1768292825.806813,96.000000,0.000000,4356.922852,4336.538574,4316.922852,4343.461426,4299.230957,4316.794922,4308.974121,4311.153809,4312.948730,4296.282227,4542.820313,4540.897461,4423.846191,4493.205078,4617.000000,2.000000,45.000000,,,,0.000000,4.000000,4.000000,4.000000,4.000000,4.000000,4.000000,4.000000,4.000000,4.000000,4.000000,4.000000,4.000000,4.000000,4.000000,100.000000,,,,,,,,,,,,,,,,,,,,,,,,,,,,,,,,,,,,,,,,,,,,,,,,1.198990,0.218714,0.141608,0.274164,0.202044,1.091106,0.132070,0.126788,0.180308,0.151567,0.506288,0.172094,0.098748,0.067665,0.066157,0.494096,0.210457,0.098144,0.174396,0.115814,1.048412,0.113619,0.088387,0.066793,0.039387,0.193037,0.043419,0.124904,0.094946,0.135143,0.257039,0.077831,0.200760,0.203834,0.208364,1.075564,0.369975,0.185471,0.183436,0.094338,0.995865,0.433319,0.184767,0.143125,0.082788,1.584283,0.789209,0.287950,0.229620,0.064729,1.093412,0.716895,0.599444,0.252179,0.133051,1.486295,0.733464,0.491433,0.314329,0.135844,1.038063,0.646405,0.447006,0.311929,0.175462,1.366805,1.001927,0.381866,0.248752,0.238269
1768292825.814022,1768292825.814621,97.000000,0.000000,4350.769043,4336.666504,4314.743652,4344.871582,4300.256348,4317.307617,4313.846191,4311.666504,4313.589844,4293.461426,4543.333496,4541.794922,4422.820313,4490.384766,5672.000000,2.000000,45.000000,,,,0.000000,4.000000,4.000000,4.000000,4.000000,4.000000,4.000000,4.000000,4.000000,4.000000,4.000000,4.000000,4.000000,4.000000,4.000000,100.000000,,,,,,,,,,,,,,,,,,,,,,,,,,,,,,,,,,,,,,,,,,,,,,,,,,,,,,,,,,,,,,,,,,,,,,,,,,,,,,,,,,,,,,,,,,,,,,,,,,,,,,,,,,,,,,,,,,,,,
1768292825.821831,1768292825.822330,98.000000,0.000000,4355.384766,4342.436035,4313.205078,4355.641113,4304.487305,4321.410156,4319.358887,4313.205078,4311.922852,4295.512695,4541.922852,4541.538574,4420.000000,4493.333496,4342.000000,2.000000,45.000000,,,,0.000000,4.000000,4.000000,4.000000,4.000000,4.000000,4.000000,4.000000,4.000000,4.000000,4.000000,4.000000,4.000000,4.000000,4.000000,100.000000,,,,,,,,,,,,,,,,,,,,,,,,,,,,,,,,,,,,,,,,,,,,,,,,,,,,,,,,,,,,,,,,,,,,,,,,,,,,,,,,,,,,,,,,,,,,,,,,,,,,,,,,,,,,,,,,,,,,,
1768292825.829639,1768292825.830138,99.000000,0.000000,4362.307617,4344.743652,4313.333496,4356.025879,4304.230957,4321.025879,4316.282227,4312.820313,4310.897461,4297.820313,4540.512695,4537.692383,4417.436035,4488.461426,4752.000000,2.000000,45.000000,,,,0.000000,4.000000,4.000000,4.000000,4.000000,4.000000,4.000000,4.000000,4.000000,4.000000,4.000000,4.000000,4.000000,4.000000,4.000000,100.000000,,,,,,,,,,,,,,,,,,,,,,,,,,,,,,,,,,,,,,,,,,,,,,,,,,,,,,,,,,,,,,,,,,,,,,,,,,,,,,,,,,,,,,,,,,,,,,,,,,,,,,,,,,,,,,,,,,,,,
1768292825.837448,1768292825.837747,100.000000,0.000000,4352.948730,4338.589844,4309.743652,4349.102539,4302.948730,4318.333496,4315.512695,4310.128418,4311.282227,4295.256348,4539.871582,4536.153809,4414.871582,4476.282227,4617.000000,2.000000,45.000000,,,,0.000000,4.000000,4.000000,4.000000,4.000000,4.000000,4.000000,4.000000,4.000000,4.000000,4.000000,4.000000,4.000000,4.000000,4.000000,100.000000,,,,,,,,,,,,,,,,,,,,,,,,,,,,,,,,,,,,,,,,,,,,,,,,,,,,,,,,,,,,,,,,,,,,,,,,,,,,,,,,,,,,,,,,,,,,,,,,,,,,,,,,,,,,,,,,,,,,,
1768292825.845256,1768292825.845555,101.000000,0.000000,4346.153809,4333.461426,4309.743652,4350.000000,4306.666504,4322.692383,4317.948730,4311.922852,4312.179688,4294.743652,4539.743652,4538.974121,4414.487305,4474.230957,5672.000000,2.000000,45.000000,,,,0.000000,4.000000,4.000000,4.000000,4.000000,4.000000,4.000000,4.000000,4.000000,4.000000,4.000000,4.000000,4.000000,4.000000,4.000000,100.000000,,,,,,,,,,,,,,,,,,,,,,,,,,,,,,,,,,,,,,,,,,,,,,,,,,,,,,,,,,,,,,,,,,,,,,,,,,,,,,,,,,,,,,,,,,,,,,,,,,,,,,,,,,,,,,,,,,,,,
1768292825.853065,1768292825.853264,102.000000,0.000000,4352.563965,4338.077148,4314.358887,4353.717773,4310.641113,4328.077148,4319.102539,4320.000000,4312.436035,4300.000000,4539.615234,4538.717773,4416.410156,4476.794922,4342.000000,2.000000,45.000000,,,,0.000000,4.000000,4.000000,4.000000,4.000000,4.000000,4.000000,4.000000,4.000000,4.000000,4.000000,4.000000,4.000000,4.000000,4.000000,100.000000,,,,,,,,,,,,,,,,,,,,,,,,,,,,,,,,,,,,,,,,,,,,,,,,,,,,,,,,,,,,,,,,,,,,,,,,,,,,,,,,,,,,,,,,,,,,,,,,,,,,,,,,,,,,,,,,,,,,,
1768292825.860873,1768292825.861072,103.000000,0.000000,4355.000000,4345.641113,4313.333496,4351.922852,4311.922852,4325.769043,4319.358887,4320.256348,4312.051270,4302.820313,4539.743652,4536.922852,4415.128418,4474.487305,4752.000000,2.000000,45.000000,,,,0.000000,4.000000,4.000000,4.000000,4.000000,4.000000,4.000000,4.000000,4.000000,4.000000,4.000000,4.000000,4.000000,4.000000,4.000000,100.000000,,,,,,,,,,,,,,,,,,,,,,,,,,,,,,,,,,,,,,,,,,,,,,,,,,,,,,,,,,,,,,,,,,,,,,,,,,,,,,,,,,,,,,,,,,,,,,,,,,,,,,,,,,,,,,,,,,,,,
1768292825.868682,1768292825.869080,104.000000,0.000000,4348.589844,4342.563965,4310.384766,4347.820313,4312.179688,4320.512695,4319.871582,4313.461426,4312.179688,4298.333496,4538.461426,4535.512695,4412.307617,4472.563965,4617.000000,2.000000,45.000000,,,,0.000000,4.000000,4.000000,4.000000,4.000000,4.000000,4.000000,4.000000,4.000000,4.000000,4.000000,4.000000,4.000000,4.000000,4.000000,100.000000,,,,,,,,,,,,,,,,,,,,,,,,,,,,,,,,,,,,,,,,,,,,,,,,,,,,,,,,,,,,,,,,,,,,,,,,,,,,,,,,,,,,,,,,,,,,,,,,,,,,,,,,,,,,,,,,,,,,,
1768292825.876490,1768292825.876889,105.000000,0.000000,4348.205078,4337.820313,4309.615234,4348.717773,4313.974121,4323.974121,4322.692383,4315.000000,4312.307617,4296.282227,4537.820313,4535.512695,4413.333496,4475.000000,5672.000000,2.000000,45.000000,,,,0.000000,4.000000,4.000000,4.000000,4.000000,4.000000,4.000000,4.000000,4.000000,4.000000,4.000000,4.000000,4.000000,4.000000,4.000000,100.000000,,,,,,,,,,,,,,,,,,,,,,,,,,,,,,,,,,,,,,,,,,,,,,,,,,,,,,,,,,,,,,,,,,,,,,,,,,,,,,,,,,,,,,,,,,,,,,,,,,,,,,,,,,,,,,,,,,,,,
1768292825.884298,1768292825.884597,106.000000,0.000000,4355.512695,4339.230957,4309.743652,4351.025879,4313.974121,4325.512695,4319.743652,4316.025879,4312.307617,4297.820313,4535.641113,4535.897461,4413.461426,4475.512695,4342.000000,2.000000,45.000000,,,,0.000000,4.000000,4.000000,4.000000,4.000000,4.000000,4.000000,4.000000,4.000000,4.000000,4.000000,4.000000,4.000000,4.000000,4.000000,100.000000,,,,,,,,,,,,,,,,,,,,,,,,,,,,,,,,,,,,,,,,,,,,,,,,,,,,,,,,,,,,,,,,,,,,,,,,,,,,,,,,,,,,,,,,,,,,,,,,,,,,,,,,,,,,,,,,,,,,,
1768292825.892107,1768292825.892406,107.000000,0.000000,4357.692383,4338.717773,4310.256348,4347.563965,4310.512695,4316.538574,4308.077148,4308.333496,4311.666504,4297.563965,4531.922852,4533.846191,4410.256348,4475.256348,4752.000000,2.000000,45.000000,,,,0.000000,4.000000,4.000000,4.000000,4.000000,4.000000,4.000000,4.000000,4.000000,4.000000,4.000000,4.000000,4.000000,4.000000,4.000000,100.000000,,,,,,,,,,,,,,,,,,,,,,,,,,,,,,,,,,,,,,,,,,,,,,,,,,,,,,,,,,,,,,,,,,,,,,,,,,,,,,,,,,,,,,,,,,,,,,,,,,,,,,,,,,,,,,,,,,,,,
1768292825.899915,1768292825.900014,108.000000,0.000000,4356.153809,4338.717773,4310.256348,4347.307617,4311.666504,4316.666504,4310.641113,4309.487305,4310.897461,4299.358887,4535.384766,4535.128418,4410.769043,4476.666504,4617.000000,2.000000,45.000000,,,,0.000000,4.000000,4.000000,4.000000,4.000000,4.000000,4.000000,4.000000,4.000000,4.000000,4.000000,4.000000,4.000000,4.000000,4.000000,100.000000,,,,,,,,,,,,,,,,,,,,,,,,,,,,,,,,,,,,,,,,,,,,,,,,,,,,,,,,,,,,,,,,,,,,,,,,,,,,,,,,,,,,,,,,,,,,,,,,,,,,,,,,,,,,,,,,,,,,,
1768292825.907724,1768292825.907823,109.000000,0.000000,4357.436035,4340.256348,4310.128418,4352.820313,4313.333496,4325.128418,4321.153809,4315.384766,4311.025879,4303.333496,4535.897461,4537.307617,4413.077148,4475.512695,5672.000000,2.000000,45.000000,,,,0.000000,4.000000,4.000000,4.000000,4.000000,4.000000,4.000000,4.000000,4.000000,4.000000,4.000000,4.000000,4.000000,4.000000,4.000000,100.000000,,,,,,,,,,,,,,,,,,,,,,,,,,,,,,,,,,,,,,,,,,,,,,,,,,,,,,,,,,,,,,,,,,,,,,,,,,,,,,,,,,,,,,,,,,,,,,,,,,,,,,,,,,,,,,,,,,,,,
1768292825.915532,1768292825.915531,110.000000,0.000000,4359.102539,4337.563965,4313.461426,4351.666504,4310.000000,4322.820313,4313.461426,4312.436035,4312.051270,4306.538574,4530.641113,4536.153809,4410.512695,4472.563965,4342.000000,2.000000,45.000000,,,,0.000000,4.000000,4.000000,4.000000,4.000000,4.000000,4.000000,4.000000,4.000000,4.000000,4.000000,4.000000,4.000000,4.000000,4.000000,100.000000,,,,,,,,,,,,,,,,,,,,,,,,,,,,,,,,,,,,,,,,,,,,,,,,,,,,,,,,,,,,,,,,,,,,,,,,,,,,,,,,,,,,,,,,,,,,,,,,,,,,,,,,,,,,,,,,,,,,,
1768292825.923340,1768292825.923340,111.000000,0.000000,4359.615234,4335.384766,4314.743652,4349.487305,4313.717773,4320.897461,4307.307617,4310.641113,4312.051270,4310.641113,4533.589844,4536.538574,4410.128418,4473.205078,4752.000000,2.000000,45.000000,,,,0.000000,4.000000,4.000000,4.000000,4.000000,4.000000,4.000000,4.000000,4.000000,4.000000,4.000000,4.000000,4.000000,4.000000,4.000000,100.000000,,,,,,,,,,,,,,,,,,,,,,,,,,,,,,,,,,,,,,,,,,,,,,,,,,,,,,,,,,,,,,,,,,,,,,,,,,,,,,,,,,,,,,,,,,,,,,,,,,,,,,,,,,,,,,,,,,,,,
1768292825.931149,1768292825.931348,112.000000,0.000000,4358.589844,4336.025879,4314.487305,4352.820313,4321.794922,4327.051270,4315.128418,4313.333496,4312.179688,4309.743652,4537.051270,4538.846191,4413.461426,4475.769043,4617.000000,2.000000,45.000000,,,,0.000000,4.000000,4.000000,4.000000,4.000000,4.000000,4.000000,4.000000,4.000000,4.000000,4.000000,4.000000,4.000000,4.000000,4.000000,100.000000,,,,,,,,,,,,,,,,,,,,,,,,,,,,,,,,,,,,,,,,,,,,,,,,1.478605,0.186967,0.146109,0.273958,0.208997,1.172304,0.099146,0.127904,0.187598,0.164948,0.613339,0.164215,0.080574,0.060096,0.067861,0.590057,0.200143,0.112464,0.180874,0.131552,0.970586,0.110999,0.115506,0.073734,0.049230,0.168765,0.068728,0.157639,0.086931,0.130852,0.240911,0.127867,0.225320,0.195482,0.205947,1.118358,0.368595,0.143244,0.174683,0.097803,1.001937,0.434015,0.137795,0.133876,0.085576,1.509440,0.795846,0.299442,0.218127,0.077834,1.059541,0.685007,0.571499,0.273610,0.147806,1.544489,0.745233,0.491656,0.308507,0.144295,1.014943,0.531789,0.397306,0.350004,0.192412,1.282797,0.955928,0.328058,0.299061,0.223895
1768292825.938957,1768292825.939157,113.000000,0.000000,4357.436035,4334.487305,4317.563965,4352.820313,4322.563965,4327.307617,4318.717773,4314.871582,4314.358887,4305.897461,4530.769043,4538.077148,4410.256348,4474.102539,5672.000000,2.000000,45.000000,,,,0.000000,4.000000,4.000000,4.000000,4.000000,4.000000,4.000000,4.000000,4.000000,4.000000,4.000000,4.000000,4.000000,4.000000,4.000000,100.000000,,,,,,,,,,,,,,,,,,,,,,,,,,,,,,,,,,,,,,,,,,,,,,,,,,,,,,,,,,,,,,,,,,,,,,,,,,,,,,,,,,,,,,,,,,,,,,,,,,,,,,,,,,,,,,,,,,,,,
1768292825.946766,1768292825.947065,114.000000,0.000000,4360.897461,4335.512695,4318.461426,4352.692383,4323.974121,4326.153809,4323.077148,4320.641113,4317.563965,4309.358887,4532.307617,4541.794922,4406.282227,4472.692383,4342.000000,2.000000,45.000000,,,,0.000000,4.000000,4.000000,4.000000,4.000000,4.000000,4.000000,4.000000,4.000000,4.000000,4.000000,4.000000,4.000000,4.000000,4.000000,100.000000,,,,,,,,,,,,,,,,,,,,,,,,,,,,,,,,,,,,,,,,,,,,,,,,,,,,,,,,,,,,,,,,,,,,,,,,,,,,,,,,,,,,,,,,,,,,,,,,,,,,,,,,,,,,,,,,,,,,,
1768292825.954574,1768292825.954873,115.000000,0.000000,4365.384766,4338.205078,4317.948730,4358.461426,4325.384766,4328.205078,4327.820313,4328.205078,4325.128418,4314.230957,4541.922852,4551.153809,4412.307617,4476.538574,4752.000000,2.000000,45.000000,,,,0.000000,4.000000,4.000000,4.000000,4.000000,4.000000,4.000000,4.000000,4.000000,4.000000,4.000000,4.000000,4.000000,4.000000,4.000000,100.000000,,,,,,,,,,,,,,,,,,,,,,,,,,,,,,,,,,,,,,,,,,,,,,,,,,,,,,,,,,,,,,,,,,,,,,,,,,,,,,,,,,,,,,,,,,,,,,,,,,,,,,,,,,,,,,,,,,,,,
1768292825.962382,1768292825.962882,116.000000,0.000000,4361.025879,4336.666504,4316.922852,4360.769043,4319.615234,4326.538574,4323.846191,4324.615234,4324.615234,4313.589844,4541.025879,4552.307617,4416.922852,4479.230957,4617.000000,2.000000,45.000000,,,,0.000000,4.000000,4.000000,4.000000,4.000000,4.000000,4.000000,4.000000,4.000000,4.000000,4.000000,4.000000,4.000000,4.000000,4.000000,100.000000,,,,,,,,,,,,,,,,,,,,,,,,,,,,,,,,,,,,,,,,,,,,,,,,,,,,,,,,,,,,,,,,,,,,,,,,,,,,,,,,,,,,,,,,,,,,,,,,,,,,,,,,,,,,,,,,,,,,,
1768292825.970191,1768292825.970690,117.000000,0.000000,4356.153809,4333.974121,4313.974121,4358.589844,4317.820313,4326.666504,4321.025879,4318.205078,4314.102539,4313.333496,4537.692383,4548.717773,4414.743652,4477.436035,5672.000000,2.000000,45.000000,,,,0.000000,4.000000,4.000000,4.000000,4.000000,4.000000,4.000000,4.000000,4.000000,4.000000,4.000000,4.000000,4.000000,4.000000,4.000000,100.000000,,,,,,,,,,,,,,,,,,,,,,,,,,,,,,,,,,,,,,,,,,,,,,,,,,,,,,,,,,,,,,,,,,,,,,,,,,,,,,,,,,,,,,,,,,,,,,,,,,,,,,,,,,,,,,,,,,,,,
1768292825.977999,1768292825.978598,118.000000,0.000000,4357.436035,4331.025879,4312.051270,4356.153809,4322.820313,4326.025879,4318.846191,4321.153809,4314.487305,4314.230957,4539.358887,4547.948730,4414.615234,4475.384766,4342.000000,2.000000,45.000000,,,,0.000000,4.000000,4.000000,4.000000,4.000000,4.000000,4.000000,4.000000,4.000000,4.000000,4.000000,4.000000,4.000000,4.000000,4.000000,100.000000,,,,,,,,,,,,,,,,,,,,,,,,,,,,,,,,,,,,,,,,,,,,,,,,,,,,,,,,,,,,,,,,,,,,,,,,,,,,,,,,,,,,,,,,,,,,,,,,,,,,,,,,,,,,,,,,,,,,,
1768292825.985808,1768292825.986407,119.000000,0.000000,4354.743652,4328.077148,4312.948730,4352.948730,4321.153809,4324.102539,4310.256348,4322.820313,4322.563965,4312.307617,4539.615234,4543.589844,4414.615234,4475.384766,4752.000000,2.000000,45.000000,,,,0.000000,4.000000,4.000000,4.000000,4.000000,4.000000,4.000000,4.000000,4.000000,4.000000,4.000000,4.000000,4.000000,4.000000,4.000000,100.000000,,,,,,,,,,,,,,,,,,,,,,,,,,,,,,,,,,,,,,,,,,,,,,,,,,,,,,,,,,,,,,,,,,,,,,,,,,,,,,,,,,,,,,,,,,,,,,,,,,,,,,,,,,,,,,,,,,,,,
1768292825.993616,1768292825.994215,120.000000,0.000000,4352.563965,4328.077148,4314.358887,4353.205078,4318.333496,4324.615234,4310.641113,4319.102539,4321.794922,4311.025879,4538.717773,4537.948730,4413.461426,4475.897461,4617.000000,2.000000,45.000000,,,,0.000000,4.000000,4.000000,4.000000,4.000000,4.000000,4.000000,4.000000,4.000000,4.000000,4.000000,4.000000,4.000000,4.000000,4.000000,100.000000,,,,,,,,,,,,,,,,,,,,,,,,,,,,,,,,,,,,,,,,,,,,,,,,,,,,,,,,,,,,,,,,,,,,,,,,,,,,,,,,,,,,,,,,,,,,,,,,,,,,,,,,,,,,,,,,,,,,,
1768292826.001425,1768292826.002024,121.000000,0.000000,4351.922852,4327.820313,4314.743652,4356.153809,4321.922852,4326.025879,4320.641113,4320.384766,4317.948730,4311.794922,4537.563965,4538.333496,4414.743652,4473.205078,5672.000000,2.000000,45.000000,,,,0.000000,4.000000,4.000000,4.000000,4.000000,4.000000,4.000000,4.000000,4.000000,4.000000,4.000000,4.000000,4.000000,4.000000,4.000000,100.000000,,,,,,,,,,,,,,,,,,,,,,,,,,,,,,,,,,,,,,,,,,,,,,,,,,,,,,,,,,,,,,,,,,,,,,,,,,,,,,,,,,,,,,,,,,,,,,,,,,,,,,,,,,,,,,,,,,,,,
1768292826.009233,1768292826.009732,122.000000,0.000000,4343.717773,4324.487305,4311.794922,4350.512695,4322.051270,4326.282227,4321.410156,4323.461426,4320.769043,4310.384766,4536.922852,4540.384766,4413.974121,4471.666504,4342.000000,2.000000,45.000000,,,,0.000000,4.000000,4.000000,4.000000,4.000000,4.000000,4.000000,4.000000,4.000000,4.000000,4.000000,4.000000,4.000000,4.000000,4.000000,100.000000,,,,,,,,,,,,,,,,,,,,,,,,,,,,,,,,,,,,,,,,,,,,,,,,,,,,,,,,,,,,,,,,,,,,,,,,,,,,,,,,,,,,,,,,,,,,,,,,,,,,,,,,,,,,,,,,,,,,,
1768292826.017042,1768292826.017541,123.000000,0.000000,4339.487305,4324.230957,4307.563965,4343.461426,4318.974121,4325.128418,4319.358887,4322.179688,4319.487305,4309.615234,4539.358887,4539.743652,4412.692383,4473.717773,4752.000000,2.000000,45.000000,,,,0.000000,4.000000,4.000000,4.000000,4.000000,4.000000,4.000000,4.000000,4.000000,4.000000,4.000000,4.000000,4.000000,4.000000,4.000000,100.000000,,,,,,,,,,,,,,,,,,,,,,,,,,,,,,,,,,,,,,,,,,,,,,,,,,,,,,,,,,,,,,,,,,,,,,,,,,,,,,,,,,,,,,,,,,,,,,,,,,,,,,,,,,,,,,,,,,,,,
1768292826.024850,1768292826.025149,124.000000,0.000000,4343.974121,4327.051270,4311.153809,4345.384766,4318.589844,4326.666504,4322.307617,4321.538574,4313.846191,4309.615234,4535.512695,4539.615234,4412.692383,4468.717773,4617.000000,2.000000,45.000000,,,,0.000000,4.000000,4.000000,4.000000,4.000000,4.000000,4.000000,4.000000,4.000000,4.000000,4.000000,4.000000,4.000000,4.000000,4.000000,100.000000,,,,,,,,,,,,,,,,,,,,,,,,,,,,,,,,,,,,,,,,,,,,,,,,,,,,,,,,,,,,,,,,,,,,,,,,,,,,,,,,,,,,,,,,,,,,,,,,,,,,,,,,,,,,,,,,,,,,,
1768292826.032658,1768292826.032958,125.000000,0.000000,4346.025879,4328.205078,4315.897461,4348.974121,4319.230957,4328.333496,4322.820313,4321.282227,4311.282227,4305.512695,4524.615234,4537.563965,4410.769043,4461.410156,5672.000000,2.000000,45.000000,,,,0.000000,4.000000,4.000000,4.000000,4.000000,4.000000,4.000000,4.000000,4.000000,4.000000,4.000000,4.000000,4.000000,4.000000,4.000000,100.000000,,,,,,,,,,,,,,,,,,,,,,,,,,,,,,,,,,,,,,,,,,,,,,,,,,,,,,,,,,,,,,,,,,,,,,,,,,,,,,,,,,,,,,,,,,,,,,,,,,,,,,,,,,,,,,,,,,,,,
1768292826.040467,1768292826.040866,126.000000,0.000000,4345.769043,4329.615234,4313.589844,4352.820313,4320.512695,4326.666504,4321.666504,4319.102539,4311.282227,4304.230957,4525.384766,4536.794922,4413.333496,4467.179688,4342.000000,2.000000,45.000000,,,,0.000000,4.000000,4.000000,4.000000,4.000000,4.000000,4.000000,4.000000,4.000000,4.000000,4.000000,4.000000,4.000000,4.000000,4.000000,100.000000,,,,,,,,,,,,,,,,,,,,,,,,,,,,,,,,,,,,,,,,,,,,,,,,,,,,,,,,,,,,,,,,,,,,,,,,,,,,,,,,,,,,,,,,,,,,,,,,,,,,,,,,,,,,,,,,,,,,,
1768292826.048275,1768292826.048675,127.000000,0.000000,4349.743652,4331.025879,4311.538574,4356.282227,4321.538574,4325.000000,4322.051270,4317.051270,4315.641113,4307.436035,4536.025879,4543.974121,4417.948730,4475.897461,45.000000,2.000000,45.000000,,,,0.000000,4.000000,4.000000,4.000000,4.000000,4.000000,4.000000,4.000000,4.000000,4.000000,4.000000,4.000000,4.000000,4.000000,4.000000,100.000000,,,,,,,,,,,,,,,,,,,,,,,,,,,,,,,,,,,,,,,,,,,,,,,,,,,,,,,,,,,,,,,,,,,,,,,,,,,,,,,,,,,,,,,,,,,,,,,,,,,,,,,,,,,,,,,,,,,,,
1768292826.056084,1768292826.056283,0.000000,0.000000,4350.000000,4330.512695,4312.563965,4348.846191,4321.410156,4325.128418,4321.794922,4320.641113,4322.692383,4311.153809,4539.102539,4550.256348,4415.769043,4474.487305,1885.000000,2.000000,45.000000,,,,0.000000,4.000000,4.000000,4.000000,4.000000,4.000000,4.000000,4.000000,4.000000,4.000000,4.000000,4.000000,4.000000,4.000000,4.000000,100.000000,,,,,,,,,,,,,,,,,,,,,,,,,,,,,,,,,,,,,,,,,,,,,,,,1.763095,0.165322,0.162434,0.283405,0.210201,1.231027,0.076265,0.140259,0.196826,0.168896,0.692654,0.146502,0.064838,0.056600,0.067090,0.675107,0.185480,0.141923,0.191248,0.144440,0.839020,0.128037,0.144185,0.076480,0.057998,0.144125,0.117081,0.190637,0.081189,0.127447,0.215508,0.216298,0.254499,0.177851,0.200421,1.115750,0.372144,0.115107,0.168938,0.099218,0.980663,0.413409,0.110397,0.125351,0.084459,1.332854,0.780545,0.328289,0.212970,0.091131,1.034635,0.621307,0.553079,0.289436,0.156115,1.557291,0.776899,0.505258,0.323606,0.152824,0.984367,0.423236,0.351196,0.388077,0.201985,1.181974,0.879971,0.297708,0.355870,0.204304
1768292826.063892,1768292826.064092,1.000000,0.000000,4344.102539,4327.692383,4312.948730,4342.563965,4321.794922,4326.282227,4321.025879,4325.512695,4327.820313,4317.051270,4538.077148,4550.128418,4419.743652,4473.589844,4013.000000,2.000000,45.000000,,,,0.000000,4.000000,4.000000,4.000000,4.000000,4.000000,4.000000,4.000000,4.000000,4.000000,4.000000,4.000000,4.000000,4.000000,4.000000,100.000000,,,,,,,,,,,,,,,,,,,,,,,,,,,,,,,,,,,,,,,,,,,,,,,,,,,,,,,,,,,,,,,,,,,,,,,,,,,,,,,,,,,,,,,,,,,,,,,,,,,,,,,,,,,,,,,,,,,,,
1768292826.071700,1768292826.072000,2.000000,0.000000,4342.563965,4329.230957,4312.692383,4346.666504,4322.179688,4327.179688,4321.282227,4317.692383,4324.743652,4318.461426,4540.512695,4549.230957,4428.077148,4476.282227,3979.000000,2.000000,45.000000,,,,0.000000,4.000000,4.000000,4.000000,4.000000,4.000000,4.000000,4.000000,4.000000,4.000000,4.000000,4.000000,4.000000,4.000000,4.000000,100.000000,,,,,,,,,,,,,,,,,,,,,,,,,,,,,,,,,,,,,,,,,,,,,,,,,,,,,,,,,,,,,,,,,,,,,,,,,,,,,,,,,,,,,,,,,,,,,,,,,,,,,,,,,,,,,,,,,,,,,
1768292826.079509,1768292826.079809,3.000000,0.000000,4343.846191,4332.307617,4313.205078,4347.948730,4319.743652,4325.000000,4318.333496,4308.974121,4320.897461,4312.179688,4538.974121,4549.743652,4421.538574,4475.641113,3894.000000,2.000000,45.000000,,,,0.000000,4.000000,4.000000,4.000000,4.000000,4.000000,4.000000,4.000000,4.000000,4.000000,4.000000,4.000000,4.000000,4.000000,4.000000,100.000000,,,,,,,,,,,,,,,,,,,,,,,,,,,,,,,,,,,,,,,,,,,,,,,,,,,,,,,,,,,,,,,,,,,,,,,,,,,,,,,,,,,,,,,,,,,,,,,,,,,,,,,,,,,,,,,,,,,,,
1768292826.087317,1768292826.087817,4.000000,0.000000,4342.820313,4328.461426,4313.077148,4344.230957,4319.487305,4321.410156,4317.436035,4317.563965,4324.358887,4310.384766,4537.307617,4550.769043,4413.077148,4476.282227,3740.000000,2.000000,45.000000,,,,0.000000,4.000000,4.000000,4.000000,4.000000,4.000000,4.000000,4.000000,4.000000,4.000000,4.000000,4.000000,4.000000,4.000000,4.000000,100.000000,,,,,,,,,,,,,,,,,,,,,,,,,,,,,,,,,,,,,,,,,,,,,,,,,,,,,,,,,,,,,,,,,,,,,,,,,,,,,,,,,,,,,,,,,,,,,,,,,,,,,,,,,,,,,,,,,,,,,
1768292826.095126,1768292826.095625,5.000000,0.000000,4344.102539,4328.589844,4312.436035,4348.974121,4323.205078,4326.794922,4322.948730,4325.384766,4326.410156,4312.948730,4541.410156,4551.922852,4420.000000,4478.974121,2767.000000,2.000000,45.000000,,,,0.000000,4.000000,4.000000,4.000000,4.000000,4.000000,4.000000,4.000000,4.000000,4.000000,4.000000,4.000000,4.000000,4.000000,4.000000,100.000000,,,,,,,,,,,,,,,,,,,,,,,,,,,,,,,,,,,,,,,,,,,,,,,,,,,,,,,,,,,,,,,,,,,,,,,,,,,,,,,,,,,,,,,,,,,,,,,,,,,,,,,,,,,,,,,,,,,,,
1768292826.102934,1768292826.103334,6.000000,0.000000,4350.897461,4335.641113,4317.436035,4358.077148,4325.000000,4332.179688,4326.922852,4321.794922,4323.461426,4309.358887,4535.000000,4553.205078,4416.666504,4477.692383,2558.000000,2.000000,45.000000,,,,0.000000,4.000000,4.000000,4.000000,4.000000,4.000000,4.000000,4.000000,4.000000,4.000000,4.000000,4.000000,4.000000,4.000000,4.000000,100.000000,,,,,,,,,,,,,,,,,,,,,,,,,,,,,,,,,,,,,,,,,,,,,,,,,,,,,,,,,,,,,,,,,,,,,,,,,,,,,,,,,,,,,,,,,,,,,,,,,,,,,,,,,,,,,,,,,,,,,
1768292826.110742,1768292826.111142,7.000000,0.000000,4351.794922,4332.820313,4319.871582,4356.794922,4325.256348,4329.615234,4327.563965,4322.948730,4323.589844,4307.948730,4524.615234,4553.077148,4401.153809,4473.717773,4059.000000,2.000000,45.000000,,,,0.000000,4.000000,4.000000,4.000000,4.000000,4.000000,4.000000,4.000000,4.000000,4.000000,4.000000,4.000000,4.000000,4.000000,4.000000,100.000000,,,,,,,,,,,,,,,,,,,,,,,,,,,,,,,,,,,,,,,,,,,,,,,,,,,,,,,,,,,,,,,,,,,,,,,,,,,,,,,,,,,,,,,,,,,,,,,,,,,,,,,,,,,,,,,,,,,,,
1768292826.118551,1768292826.118751,8.000000,0.000000,4345.512695,4322.948730,4312.307617,4347.436035,4322.692383,4326.794922,4319.615234,4323.974121,4324.615234,4311.794922,4530.384766,4546.794922,4405.512695,4473.077148,3291.000000,2.000000,45.000000,,,,0.000000,4.000000,4.000000,4.000000,4.000000,4.000000,4.000000,4.000000,4.000000,4.000000,4.000000,4.000000,4.000000,4.000000,4.000000,100.000000,,,,,,,,,,,,,,,,,,,,,,,,,,,,,,,,,,,,,,,,,,,,,,,,,,,,,,,,,,,,,,,,,,,,,,,,,,,,,,,,,,,,,,,,,,,,,,,,,,,,,,,,,,,,,,,,,,,,,
1768292826.126359,1768292826.126559,9.000000,0.000000,4342.436035,4320.512695,4308.717773,4339.487305,4318.974121,4321.282227,4310.897461,4318.846191,4319.871582,4311.282227,4534.743652,4538.589844,4415.512695,4473.333496,3846.000000,2.000000,45.000000,,,,0.000000,4.000000,4.000000,4.000000,4.000000,4.000000,4.000000,4.000000,4.000000,4.000000,4.000000,4.000000,4.000000,4.000000,4.000000,100.000000,,,,,,,,,,,,,,,,,,,,,,,,,,,,,,,,,,,,,,,,,,,,,,,,,,,,,,,,,,,,,,,,,,,,,,,,,,,,,,,,,,,,,,,,,,,,,,,,,,,,,,,,,,,,,,,,,,,,,
1768292826.134168,1768292826.134468,10.000000,0.000000,4344.487305,4321.666504,4313.333496,4339.743652,4320.256348,4319.358887,4318.333496,4321.666504,4319.102539,4310.897461,4527.820313,4541.153809,4409.871582,4470.641113,4342.000000,2.000000,45.000000,,,,0.000000,4.000000,4.000000,4.000000,4.000000,4.000000,4.000000,4.000000,4.000000,4.000000,4.000000,4.000000,4.000000,4.000000,4.000000,100.000000,,,,,,,,,,,,,,,,,,,,,,,,,,,,,,,,,,,,,,,,,,,,,,,,,,,,,,,,,,,,,,,,,,,,,,,,,,,,,,,,,,,,,,,,,,,,,,,,,,,,,,,,,,,,,,,,,,,,,
1768292826.141976,1768292826.142276,11.000000,0.000000,4354.743652,4327.051270,4318.717773,4350.384766,4325.256348,4329.487305,4329.487305,4331.153809,4330.128418,4321.538574,4535.384766,4553.205078,4415.256348,4476.794922,4752.000000,2.000000,45.000000,,,,0.000000,4.000000,4.000000,4.000000,4.000000,4.000000,4.000000,4.000000,4.000000,4.000000,4.000000,4.000000,4.000000,4.000000,4.000000,100.000000,,,,,,,,,,,,,,,,,,,,,,,,,,,,,,,,,,,,,,,,,,,,,,,,,,,,,,,,,,,,,,,,,,,,,,,,,,,,,,,,,,,,,,,,,,,,,,,,,,,,,,,,,,,,,,,,,,,,,
1768292826.149785,1768292826.150284,12.000000,0.000000,4372.436035,4343.589844,4325.256348,4363.589844,4332.051270,4334.743652,4330.384766,4338.461426,4342.820313,4336.794922,4558.077148,4569.230957,4440.769043,4499.358887,4617.000000,2.000000,45.000000,,,,0.000000,4.000000,4.000000,4.000000,4.000000,4.000000,4.000000,4.000000,4.000000,4.000000,4.000000,4.000000,4.000000,4.000000,4.000000,100.000000,,,,,,,,,,,,,,,,,,,,,,,,,,,,,,,,,,,,,,,,,,,,,,,,,,,,,,,,,,,,,,,,,,,,,,,,,,,,,,,,,,,,,,,,,,,,,,,,,,,,,,,,,,,,,,,,,,,,,
1768292826.157593,1768292826.158093,13.000000,0.000000,4378.461426,4353.589844,4329.871582,4367.692383,4339.743652,4327.820313,4331.666504,4338.974121,4340.128418,4337.307617,4562.820313,4574.743652,4445.512695,4510.384766,5672.000000,2.000000,45.000000,,,,0.000000,4.000000,4.000000,4.000000,4.000000,4.000000,4.000000,4.000000,4.000000,4.000000,4.000000,4.000000,4.000000,4.000000,4.000000,100.000000,,,,,,,,,,,,,,,,,,,,,,,,,,,,,,,,,,,,,,,,,,,,,,,,,,,,,,,,,,,,,,,,,,,,,,,,,,,,,,,,,,,,,,,,,,,,,,,,,,,,,,,,,,,,,,,,,,,,,
1768292826.165402,1768292826.166001,14.000000,0.000000,4362.948730,4341.410156,4324.615234,4358.717773,4340.769043,4326.410156,4332.948730,4331.538574,4328.846191,4324.743652,4547.948730,4560.384766,4427.179688,4492.563965,4342.000000,2.000000,45.000000,,,,0.000000,4.000000,4.000000,4.000000,4.000000,4.000000,4.000000,4.000000,4.000000,4.000000,4.000000,4.000000,4.000000,4.000000,4.000000,100.000000,,,,,,,,,,,,,,,,,,,,,,,,,,,,,,,,,,,,,,,,,,,,,,,,,,,,,,,,,,,,,,,,,,,,,,,,,,,,,,,,,,,,,,,,,,,,,,,,,,,,,,,,,,,,,,,,,,,,,
1768292826.173210,1768292826.173810,15.000000,0.000000,4348.589844,4327.948730,4316.922852,4350.897461,4335.641113,4328.589844,4325.256348,4325.256348,4325.128418,4318.461426,4536.794922,4547.179688,4421.282227,4475.897461,4752.000000,2.000000,45.000000,,,,0.000000,4.000000,4.000000,4.000000,4.000000,4.000000,4.000000,4.000000,4.000000,4.000000,4.000000,4.000000,4.000000,4.000000,4.000000,100.000000,,,,,,,,,,,,,,,,,,,,,,,,,,,,,,,,,,,,,,,,,,,,,,,,,,,,,,,,,,,,,,,,,,,,,,,,,,,,,,,,,,,,,,,,,,,,,,,,,,,,,,,,,,,,,,,,,,,,,
1768292826.181018,1768292826.181818,16.000000,0.000000,4352.436035,4331.538574,4316.025879,4352.436035,4335.512695,4327.051270,4323.205078,4325.256348,4326.794922,4322.051270,4537.820313,4551.282227,4427.436035,4482.563965,0.000000,2.000000,45.000000,,,,0.000000,4.000000,4.000000,4.000000,4.000000,4.000000,4.000000,4.000000,4.000000,4.000000,4.000000,4.000000,4.000000,4.000000,4.000000,100.000000,1.000000,100.000000,4.000000,4.000000,4.000000,4.000000,4.000000,4.000000,4.000000,4.000000,4.000000,4.000000,4.000000,4.000000,4.000000,4.000000,,,,,,,,,,,,,,,,,,,,,,,,,,,,,,,,1.946769,0.159975,0.191297,0.303492,0.206011,1.252985,0.068218,0.164395,0.209093,0.163100,0.717566,0.124707,0.054031,0.058222,0.063448,0.719770,0.167602,0.184199,0.203079,0.152071,0.719677,0.149146,0.168462,0.074693,0.063128,0.120231,0.180420,0.208675,0.078096,0.124073,0.189672,0.336032,0.274707,0.155127,0.191506,1.065022,0.394058,0.103977,0.163966,0.097409,0.931794,0.383361,0.104343,0.117496,0.079279,1.112092,0.762572,0.359819,0.215402,0.103470,1.007242,0.544998,0.536764,0.294274,0.156110,1.493148,0.832835,0.516570,0.358885,0.162272,0.954145,0.339935,0.316245,0.421256,0.204964,1.073883,0.802107,0.292845,0.408195,0.189910
1768292826.188827,1768292826.189626,17.000000,0.000000,4359.615234,4337.051270,4319.230957,4356.922852,4339.871582,4329.743652,4328.589844,4325.256348,4325.641113,4324.871582,4541.794922,4556.153809,4427.820313,4493.077148,0.000000,2.000000,45.000000,,,,0.000000,4.000000,4.000000,4.000000,4.000000,4.000000,4.000000,4.000000,4.000000,4.000000,4.000000,4.000000,4.000000,4.000000,4.000000,100.000000,,,,,,,,,,,,,,,,,,,,,,,,,,,,,,,,,,,,,,,,,,,,,,,,,,,,,,,,,,,,,,,,,,,,,,,,,,,,,,,,,,,,,,,,,,,,,,,,,,,,,,,,,,,,,,,,,,,,,
1768292826.196635,1768292826.197335,18.000000,0.000000,4356.666504,4332.051270,4320.769043,4353.461426,4337.948730,4329.487305,4323.461426,4323.589844,4324.743652,4321.410156,4537.692383,4551.025879,4421.282227,4486.538574,0.000000,2.000000,45.000000,,,,0.000000,4.000000,4.000000,4.000000,4.000000,4.000000,4.000000,4.000000,4.000000,4.000000,4.000000,4.000000,4.000000,4.000000,4.000000,100.000000,,,,,,,,,,,,,,,,,,,,,,,,,,,,,,,,,,,,,,,,,,,,,,,,,,,,,,,,,,,,,,,,,,,,,,,,,,,,,,,,,,,,,,,,,,,,,,,,,,,,,,,,,,,,,,,,,,,,,
1768292826.204444,1768292826.205143,19.000000,0.000000,4351.666504,4326.922852,4316.282227,4346.666504,4334.358887,4325.256348,4320.769043,4324.230957,4326.282227,4317.307617,4534.102539,4548.461426,4420.000000,4478.589844,0.000000,2.000000,45.000000,,,,0.000000,4.000000,4.000000,4.000000,4.000000,4.000000,4.000000,4.000000,4.000000,4.000000,4.000000,4.000000,4.000000,4.000000,4.000000,100.000000,,,,,,,,,,,,,,,,,,,,,,,,,,,,,,,,,,,,,,,,,,,,,,,,,,,,,,,,,,,,,,,,,,,,,,,,,,,,,,,,,,,,,,,,,,,,,,,,,,,,,,,,,,,,,,,,,,,,,
1768292826.212252,1768292826.212752,20.000000,0.000000,4352.563965,4326.538574,4313.205078,4349.743652,4333.333496,4326.666504,4333.077148,4326.666504,4326.666504,4321.025879,4539.102539,4552.307617,4426.922852,4483.846191,0.000000,2.000000,45.000000,,,,0.000000,4.000000,4.000000,4.000000,4.000000,4.000000,4.000000,4.000000,4.000000,4.000000,4.000000,4.000000,4.000000,4.000000,4.000000,100.000000,,,,,,,,,,,,,,,,,,,,,,,,,,,,,,,,,,,,,,,,,,,,,,,,,,,,,,,,,,,,,,,,,,,,,,,,,,,,,,,,,,,,,,,,,,,,,,,,,,,,,,,,,,,,,,,,,,,,,
1768292826.220060,1768292826.220560,21.000000,0.000000,4354.743652,4326.794922,4315.641113,4353.461426,4331.025879,4326.410156,4334.230957,4327.051270,4328.077148,4325.769043,4540.256348,4554.358887,4430.256348,4488.461426,0.000000,2.000000,45.000000,,,,0.000000,4.000000,4.000000,4.000000,4.000000,4.000000,4.000000,4.000000,4.000000,4.000000,4.000000,4.000000,4.000000,4.000000,4.000000,100.000000,,,,,,,,,,,,,,,,,,,,,,,,,,,,,,,,,,,,,,,,,,,,,,,,,,,,,,,,,,,,,,,,,,,,,,,,,,,,,,,,,,,,,,,,,,,,,,,,,,,,,,,,,,,,,,,,,,,,,
1768292826.227869,1768292826.228269,22.000000,0.000000,4352.436035,4327.948730,4317.436035,4349.615234,4327.692383,4324.102539,4321.410156,4326.153809,4328.077148,4318.205078,4528.974121,4548.205078,4421.410156,4482.436035,0.000000,2.000000,45.000000,,,,0.000000,4.000000,4.000000,4.000000,4.000000,4.000000,4.000000,4.000000,4.000000,4.000000,4.000000,4.000000,4.000000,4.000000,4.000000,100.000000,,,,,,,,,,,,,,,,,,,,,,,,,,,,,,,,,,,,,,,,,,,,,,,,,,,,,,,,,,,,,,,,,,,,,,,,,,,,,,,,,,,,,,,,,,,,,,,,,,,,,,,,,,,,,,,,,,,,,
1768292826.235677,1768292826.236077,23.000000,0.000000,4350.641113,4327.179688,4316.410156,4346.282227,4327.563965,4326.025879,4322.948730,4326.538574,4324.615234,4313.205078,4524.871582,4541.922852,4413.077148,4477.436035,0.000000,2.000000,45.000000,,,,0.000000,4.000000,4.000000,4.000000,4.000000,4.000000,4.000000,4.000000,4.000000,4.000000,4.000000,4.000000,4.000000,4.000000,4.000000,100.000000,,,,,,,,,,,,,,,,,,,,,,,,,,,,,,,,,,,,,,,,,,,,,,,,,,,,,,,,,,,,,,,,,,,,,,,,,,,,,,,,,,,,,,,,,,,,,,,,,,,,,,,,,,,,,,,,,,,,,
1768292826.243486,1768292826.243686,24.000000,0.000000,4352.692383,4325.512695,4313.333496,4345.128418,4327.563965,4327.051270,4328.846191,4326.025879,4324.743652,4319.358887,4530.897461,4540.384766,4413.974121,4477.436035,0.000000,2.000000,45.000000,,,,0.000000,4.000000,4.000000,4.000000,4.000000,4.000000,4.000000,4.000000,4.000000,4.000000,4.000000,4.000000,4.000000,4.000000,4.000000,100.000000,,,,,,,,,,,,,,,,,,,,,,,,,,,,,,,,,,,,,,,,,,,,,,,,,,,,,,,,,,,,,,,,,,,,,,,,,,,,,,,,,,,,,,,,,,,,,,,,,,,,,,,,,,,,,,,,,,,,,
1768292826.251294,1768292826.251494,25.000000,0.000000,4350.769043,4325.128418,4311.538574,4342.179688,4325.256348,4325.000000,4324.487305,4323.077148,4328.077148,4319.358887,4528.846191,4539.871582,4412.820313,4475.256348,0.000000,2.000000,45.000000,,,,0.000000,4.000000,4.000000,4.000000,4.000000,4.000000,4.000000,4.000000,4.000000,4.000000,4.000000,4.000000,4.000000,4.000000,4.000000,100.000000,,,,,,,,,,,,,,,,,,,,,,,,,,,,,,,,,,,,,,,,,,,,,,,,,,,,,,,,,,,,,,,,,,,,,,,,,,,,,,,,,,,,,,,,,,,,,,,,,,,,,,,,,,,,,,,,,,,,,
1768292826.259102,1768292826.259203,26.000000,0.000000,4348.077148,4323.205078,4315.641113,4341.666504,4326.025879,4325.384766,4325.384766,4325.512695,4328.589844,4316.538574,4527.051270,4546.025879,4409.487305,4474.871582,0.000000,2.000000,45.000000,,,,0.000000,4.000000,4.000000,4.000000,4.000000,4.000000,4.000000,4.000000,4.000000,4.000000,4.000000,4.000000,4.000000,4.000000,4.000000,100.000000,,,,,,,,,,,,,,,,,,,,,,,,,,,,,,,,,,,,,,,,,,,,,,,,,,,,,,,,,,,,,,,,,,,,,,,,,,,,,,,,,,,,,,,,,,,,,,,,,,,,,,,,,,,,,,,,,,,,,
1768292826.266911,1768292826.267011,27.000000,0.000000,4352.051270,4320.512695,4317.820313,4343.589844,4327.179688,4325.000000,4326.794922,4329.230957,4327.692383,4318.717773,4534.871582,4552.820313,4411.410156,4477.307617,0.000000,2.000000,45.000000,,,,0.000000,4.000000,4.000000,4.000000,4.000000,4.000000,4.000000,4.000000,4.000000,4.000000,4.000000,4.000000,4.000000,4.000000,4.000000,100.000000,,,,,,,,,,,,,,,,,,,,,,,,,,,,,,,,,,,,,,,,,,,,,,,,,,,,,,,,,,,,,,,,,,,,,,,,,,,,,,,,,,,,,,,,,,,,,,,,,,,,,,,,,,,,,,,,,,,,,
1768292826.274719,1768292826.275020,28.000000,0.000000,4352.051270,4319.615234,4313.974121,4342.307617,4323.461426,4322.179688,4321.538574,4323.974121,4329.487305,4315.128418,4538.205078,4549.487305,4413.205078,4475.897461,0.000000,2.000000,45.000000,,,,0.000000,4.000000,4.000000,4.000000,4.000000,4.000000,4.000000,4.000000,4.000000,4.000000,4.000000,4.000000,4.000000,4.000000,4.000000,100.000000,,,,,,,,,,,,,,,,,,,,,,,,,,,,,,,,,,,,,,,,,,,,,,,,,,,,,,,,,,,,,,,,,,,,,,,,,,,,,,,,,,,,,,,,,,,,,,,,,,,,,,,,,,,,,,,,,,,,,
1768292826.282528,1768292826.282828,29.000000,0.000000,4347.948730,4321.410156,4312.948730,4342.307617,4320.769043,4323.461426,4323.974121,4324.743652,4330.897461,4309.871582,4536.794922,4548.333496,4413.461426,4476.282227,0.000000,2.000000,45.000000,,,,0.000000,4.000000,4.000000,4.000000,4.000000,4.000000,4.000000,4.000000,4.000000,4.000000,4.000000,4.000000,4.000000,4.000000,4.000000,100.000000,,,,,,,,,,,,,,,,,,,,,,,,,,,,,,,,,,,,,,,,,,,,,,,,,,,,,,,,,,,,,,,,,,,,,,,,,,,,,,,,,,,,,,,,,,,,,,,,,,,,,,,,,,,,,,,,,,,,,
1768292826.290336,1768292826.290736,30.000000,0.000000,4352.692383,4325.897461,4316.025879,4349.743652,4322.820313,4331.922852,4334.615234,4334.230957,4328.974121,4312.563965,4541.538574,4557.692383,4420.897461,4481.282227,0.000000,2.000000,45.000000,,,,0.000000,4.000000,4.000000,4.000000,4.000000,4.000000,4.000000,4.000000,4.000000,4.000000,4.000000,4.000000,4.000000,4.000000,4.000000,100.000000,,,,,,,,,,,,,,,,,,,,,,,,,,,,,,,,,,,,,,,,,,,,,,,,,,,,,,,,,,,,,,,,,,,,,,,,,,,,,,,,,,,,,,,,,,,,,,,,,,,,,,,,,,,,,,,,,,,,,
1768292826.298145,1768292826.298545,31.000000,0.000000,4353.974121,4329.230957,4315.769043,4355.641113,4323.205078,4335.000000,4335.000000,4331.922852,4326.282227,4312.051270,4542.563965,4554.102539,4424.358887,4480.000000,0.000000,2.000000,45.000000,,,,0.000000,4.000000,4.000000,4.000000,4.000000,4.000000,4.000000,4.000000,4.000000,4.000000,4.000000,4.000000,4.000000,4.000000,4.000000,100.000000,,,,,,,,,,,,,,,,,,,,,,,,,,,,,,,,,,,,,,,,,,,,,,,,,,,,,,,,,,,,,,,,,,,,,,,,,,,,,,,,,,,,,,,,,,,,,,,,,,,,,,,,,,,,,,,,,,,,,
1768292826.305953,1768292826.306154,32.000000,0.000000,4345.512695,4328.589844,4314.487305,4354.358887,4323.461426,4328.717773,4325.128418,4322.563965,4325.641113,4305.641113,4540.000000,4539.615234,4417.563965,4474.358887,0.000000,2.000000,45.000000,,,,0.000000,4.000000,4.000000,4.000000,4.000000,4.000000,4.000000,4.000000,4.000000,4.000000,4.000000,4.000000,4.000000,4.000000,4.000000,100.000000,,,,,,,,,,,,,,,,,,,,,,,,,,,,,,,,,,,,,,,,,,,,,,,,2.006762,0.181760,0.225524,0.326874,0.196946,1.258483,0.075219,0.191588,0.221684,0.149550,0.687893,0.105291,0.048492,0.063746,0.057385,0.724304,0.152885,0.226904,0.212164,0.153716,0.674587,0.169944,0.183012,0.069969,0.063361,0.097951,0.244242,0.202546,0.076818,0.119692,0.169055,0.467289,0.277865,0.133690,0.180134,0.980565,0.433678,0.102738,0.158016,0.092643,0.847596,0.359210,0.111870,0.110494,0.071553,0.926895,0.761786,0.375587,0.221967,0.112896,0.981839,0.474995,0.508265,0.285517,0.148606,1.379469,0.909394,0.502949,0.401474,0.171354,0.947178,0.288668,0.292187,0.442397,0.203720,0.998265,0.747953,0.303223,0.443153,0.186212
1768292826.313762,1768292826.313962,33.000000,0.000000,4343.077148,4327.179688,4312.436035,4348.333496,4321.025879,4324.743652,4315.897461,4321.794922,4326.153809,4301.282227,4541.538574,4536.410156,4414.230957,4474.102539,0.000000,2.000000,45.000000,,,,0.000000,4.000000,4.000000,4.000000,4.000000,4.000000,4.000000,4.000000,4.000000,4.000000,4.000000,4.000000,4.000000,4.000000,4.000000,100.000000,,,,,,,,,,,,,,,,,,,,,,,,,,,,,,,,,,,,,,,,,,,,,,,,,,,,,,,,,,,,,,,,,,,,,,,,,,,,,,,,,,,,,,,,,,,,,,,,,,,,,,,,,,,,,,,,,,,,,
1768292826.321570,1768292826.321671,34.000000,0.000000,4343.333496,4327.179688,4309.230957,4342.179688,4313.717773,4325.769043,4316.153809,4323.846191,4325.897461,4301.666504,4541.282227,4538.461426,4415.769043,4473.077148,0.000000,2.000000,45.000000,,,,0.000000,4.000000,4.000000,4.000000,4.000000,4.000000,4.000000,4.000000,4.000000,4.000000,4.000000,4.000000,4.000000,4.000000,4.000000,100.000000,,,,,,,,,,,,,,,,,,,,,,,,,,,,,,,,,,,,,,,,,,,,,,,,,,,,,,,,,,,,,,,,,,,,,,,,,,,,,,,,,,,,,,,,,,,,,,,,,,,,,,,,,,,,,,,,,,,,,
1768292826.329378,1768292826.329479,35.000000,0.000000,4340.769043,4330.128418,4311.025879,4345.769043,4315.897461,4329.230957,4330.769043,4325.256348,4325.897461,4305.000000,4540.512695,4537.820313,4414.615234,4473.205078,0.000000,2.000000,45.000000,,,,0.000000,4.000000,4.000000,4.000000,4.000000,4.000000,4.000000,4.000000,4.000000,4.000000,4.000000,4.000000,4.000000,4.000000,4.000000,100.000000,,,,,,,,,,,,,,,,,,,,,,,,,,,,,,,,,,,,,,,,,,,,,,,,,,,,,,,,,,,,,,,,,,,,,,,,,,,,,,,,,,,,,,,,,,,,,,,,,,,,,,,,,,,,,,,,,,,,,
1768292826.337187,1768292826.337487,36.000000,0.000000,4341.025879,4330.897461,4311.538574,4349.615234,4319.871582,4331.538574,4334.230957,4327.179688,4326.153809,4301.410156,4541.153809,4536.025879,4412.948730,4471.794922,0.000000,2.000000,45.000000,,,,0.000000,4.000000,4.000000,4.000000,4.000000,4.000000,4.000000,4.000000,4.000000,4.000000,4.000000,4.000000,4.000000,4.000000,4.000000,100.000000,,,,,,,,,,,,,,,,,,,,,,,,,,,,,,,,,,,,,,,,,,,,,,,,,,,,,,,,,,,,,,,,,,,,,,,,,,,,,,,,,,,,,,,,,,,,,,,,,,,,,,,,,,,,,,,,,,,,,
1768292826.344995,1768292826.345296,37.000000,0.000000,4342.563965,4329.230957,4305.384766,4345.384766,4312.307617,4328.589844,4316.410156,4324.102539,4325.641113,4294.743652,4537.948730,4533.205078,4411.922852,4463.205078,0.000000,2.000000,45.000000,,,,0.000000,4.000000,4.000000,4.000000,4.000000,4.000000,4.000000,4.000000,4.000000,4.000000,4.000000,4.000000,4.000000,4.000000,4.000000,100.000000,,,,,,,,,,,,,,,,,,,,,,,,,,,,,,,,,,,,,,,,,,,,,,,,,,,,,,,,,,,,,,,,,,,,,,,,,,,,,,,,,,,,,,,,,,,,,,,,,,,,,,,,,,,,,,,,,,,,,
1768292826.352804,1768292826.353204,38.000000,0.000000,4343.974121,4333.717773,4303.717773,4347.436035,4311.666504,4323.974121,4310.256348,4323.333496,4326.153809,4300.641113,4538.205078,4536.025879,4415.512695,4465.256348,0.000000,2.000000,45.000000,,,,0.000000,4.000000,4.000000,4.000000,4.000000,4.000000,4.000000,4.000000,4.000000,4.000000,4.000000,4.000000,4.000000,4.000000,4.000000,100.000000,,,,,,,,,,,,,,,,,,,,,,,,,,,,,,,,,,,,,,,,,,,,,,,,,,,,,,,,,,,,,,,,,,,,,,,,,,,,,,,,,,,,,,,,,,,,,,,,,,,,,,,,,,,,,,,,,,,,,
1768292826.360612,1768292826.361013,39.000000,0.000000,4351.666504,4342.307617,4308.461426,4356.410156,4322.436035,4326.538574,4325.512695,4328.974121,4326.666504,4312.051270,4546.282227,4544.743652,4426.538574,4478.846191,0.000000,2.000000,45.000000,,,,0.000000,4.000000,4.000000,4.000000,4.000000,4.000000,4.000000,4.000000,4.000000,4.000000,4.000000,4.000000,4.000000,4.000000,4.000000,100.000000,,,,,,,,,,,,,,,,,,,,,,,,,,,,,,,,,,,,,,,,,,,,,,,,,,,,,,,,,,,,,,,,,,,,,,,,,,,,,,,,,,,,,,,,,,,,,,,,,,,,,,,,,,,,,,,,,,,,,
1768292826.368420,1768292826.369021,40.000000,0.000000,4355.769043,4344.358887,4309.487305,4355.384766,4323.077148,4329.487305,4326.922852,4326.794922,4325.256348,4308.589844,4547.436035,4544.743652,4431.538574,4481.538574,0.000000,2.000000,45.000000,,,,0.000000,4.000000,4.000000,4.000000,4.000000,4.000000,4.000000,4.000000,4.000000,4.000000,4.000000,4.000000,4.000000,4.000000,4.000000,100.000000,,,,,,,,,,,,,,,,,,,,,,,,,,,,,,,,,,,,,,,,,,,,,,,,,,,,,,,,,,,,,,,,,,,,,,,,,,,,,,,,,,,,,,,,,,,,,,,,,,,,,,,,,,,,,,,,,,,,,
1768292826.376229,1768292826.376829,41.000000,0.000000,4352.051270,4341.538574,4307.948730,4350.128418,4317.948730,4326.922852,4317.051270,4321.794922,4324.615234,4298.205078,4540.641113,4539.487305,4424.102539,4475.769043,0.000000,2.000000,45.000000,,,,0.000000,4.000000,4.000000,4.000000,4.000000,4.000000,4.000000,4.000000,4.000000,4.000000,4.000000,4.000000,4.000000,4.000000,4.000000,100.000000,,,,,,,,,,,,,,,,,,,,,,,,,,,,,,,,,,,,,,,,,,,,,,,,,,,,,,,,,,,,,,,,,,,,,,,,,,,,,,,,,,,,,,,,,,,,,,,,,,,,,,,,,,,,,,,,,,,,,
1768292826.384037,1768292826.384538,42.000000,0.000000,4352.948730,4341.410156,4310.128418,4352.820313,4320.769043,4326.282227,4322.436035,4326.025879,4326.666504,4298.846191,4540.512695,4541.153809,4419.487305,4476.153809,0.000000,2.000000,45.000000,,,,0.000000,4.000000,4.000000,4.000000,4.000000,4.000000,4.000000,4.000000,4.000000,4.000000,4.000000,4.000000,4.000000,4.000000,4.000000,100.000000,,,,,,,,,,,,,,,,,,,,,,,,,,,,,,,,,,,,,,,,,,,,,,,,,,,,,,,,,,,,,,,,,,,,,,,,,,,,,,,,,,,,,,,,,,,,,,,,,,,,,,,,,,,,,,,,,,,,,
1768292826.391846,1768292826.392346,43.000000,0.000000,4357.436035,4341.922852,4310.384766,4354.487305,4322.948730,4326.538574,4326.282227,4329.230957,4327.179688,4306.410156,4542.692383,4542.436035,4423.974121,4479.487305,0.000000,2.000000,45.000000,,,,0.000000,4.000000,4.000000,4.000000,4.000000,4.000000,4.000000,4.000000,4.000000,4.000000,4.000000,4.000000,4.000000,4.000000,4.000000,100.000000,,,,,,,,,,,,,,,,,,,,,,,,,,,,,,,,,,,,,,,,,,,,,,,,,,,,,,,,,,,,,,,,,,,,,,,,,,,,,,,,,,,,,,,,,,,,,,,,,,,,,,,,,,,,,,,,,,,,,
1768292826.399654,1768292826.399955,44.000000,0.000000,4358.333496,4340.384766,4308.846191,4355.256348,4321.922852,4327.051270,4319.615234,4325.128418,4325.641113,4307.307617,4539.871582,4541.538574,4426.410156,4480.769043,0.000000,2.000000,45.000000,,,,0.000000,4.000000,4.000000,4.000000,4.000000,4.000000,4.000000,4.000000,4.000000,4.000000,4.000000,4.000000,4.000000,4.000000,4.000000,100.000000,,,,,,,,,,,,,,,,,,,,,,,,,,,,,,,,,,,,,,,,,,,,,,,,,,,,,,,,,,,,,,,,,,,,,,,,,,,,,,,,,,,,,,,,,,,,,,,,,,,,,,,,,,,,,,,,,,,,,
1768292826.407462,1768292826.407763,45.000000,0.000000,4356.025879,4337.179688,4310.384766,4356.410156,4322.179688,4328.717773,4320.641113,4323.717773,4326.666504,4303.846191,4538.333496,4541.410156,4422.179688,4479.102539,0.000000,2.000000,45.000000,,,,0.000000,4.000000,4.000000,4.000000,4.000000,4.000000,4.000000,4.000000,4.000000,4.000000,4.000000,4.000000,4.000000,4.000000,4.000000,100.000000,,,,,,,,,,,,,,,,,,,,,,,,,,,,,,,,,,,,,,,,,,,,,,,,,,,,,,,,,,,,,,,,,,,,,,,,,,,,,,,,,,,,,,,,,,,,,,,,,,,,,,,,,,,,,,,,,,,,,
1768292826.415271,1768292826.415472,46.000000,0.000000,4353.461426,4330.512695,4310.769043,4353.205078,4321.794922,4328.077148,4327.179688,4328.205078,4327.563965,4307.436035,4540.256348,4540.769043,4417.820313,4476.410156,0.000000,2.000000,45.000000,,,,0.000000,4.000000,4.000000,4.000000,4.000000,4.000000,4.000000,4.000000,4.000000,4.000000,4.000000,4.000000,4.000000,4.000000,4.000000,100.000000,,,,,,,,,,,,,,,,,,,,,,,,,,,,,,,,,,,,,,,,,,,,,,,,,,,,,,,,,,,,,,,,,,,,,,,,,,,,,,,,,,,,,,,,,,,,,,,,,,,,,,,,,,,,,,,,,,,,,
1768292826.423079,1768292826.423280,47.000000,0.000000,4353.333496,4325.897461,4309.615234,4350.256348,4320.000000,4326.410156,4327.948730,4328.717773,4326.153809,4312.563965,4539.358887,4544.102539,4415.384766,4475.641113,0.000000,2.000000,45.000000,,,,0.000000,4.000000,4.000000,4.000000,4.000000,4.000000,4.000000,4.000000,4.000000,4.000000,4.000000,4.000000,4.000000,4.000000,4.000000,100.000000,,,,,,,,,,,,,,,,,,,,,,,,,,,,,,,,,,,,,,,,,,,,,,,,,,,,,,,,,,,,,,,,,,,,,,,,,,,,,,,,,,,,,,,,,,,,,,,,,,,,,,,,,,,,,,,,,,,,,
1768292826.430888,1768292826.430889,48.000000,0.000000,4356.025879,4329.102539,4310.128418,4351.282227,4319.743652,4326.153809,4325.512695,4327.179688,4330.641113,4312.820313,4537.051270,4552.179688,4412.948730,4474.615234,0.000000,2.000000,45.000000,,,,0.000000,4.000000,4.000000,4.000000,4.000000,4.000000,4.000000,4.000000,4.000000,4.000000,4.000000,4.000000,4.000000,4.000000,4.000000,100.000000,,,,,,,,,,,,,,,,,,,,,,,,,,,,,,,,,,,,,,,,,,,,,,,,1.884440,0.234375,0.253313,0.344984,0.184066,1.227788,0.097801,0.213083,0.231598,0.132209,0.604012,0.093803,0.047406,0.071414,0.050301,0.687024,0.148234,0.258021,0.217523,0.150823,0.719699,0.190274,0.186472,0.065395,0.059199,0.077257,0.291371,0.174899,0.076494,0.114108,0.152553,0.579791,0.267859,0.119897,0.168592,0.872766,0.475786,0.101392,0.151484,0.086670,0.732747,0.349512,0.123808,0.105556,0.063924,0.804010,0.781784,0.363245,0.227068,0.117830,0.938134,0.425129,0.461043,0.265117,0.137848,1.228146,0.990151,0.452629,0.435154,0.177073,0.945541,0.270151,0.278924,0.442333,0.201723,0.923877,0.727982,0.315561,0.452161,0.192355
1768292826.438696,1768292826.438697,49.000000,0.000000,4357.563965,4332.820313,4311.794922,4352.307617,4322.179688,4327.563965,4327.307617,4332.051270,4335.128418,4314.230957,4539.102539,4556.538574,4418.589844,4481.922852,0.000000,2.000000,45.000000,,,,0.000000,4.000000,4.000000,4.000000,4.000000,4.000000,4.000000,4.000000,4.000000,4.000000,4.000000,4.000000,4.000000,4.000000,4.000000,100.000000,,,,,,,,,,,,,,,,,,,,,,,,,,,,,,,,,,,,,,,,,,,,,,,,,,,,,,,,,,,,,,,,,,,,,,,,,,,,,,,,,,,,,,,,,,,,,,,,,,,,,,,,,,,,,,,,,,,,,
1768292826.446505,1768292826.446606,50.000000,0.000000,4359.102539,4330.769043,4312.948730,4351.025879,4323.589844,4328.205078,4328.846191,4335.000000,4330.256348,4321.153809,4542.436035,4556.666504,4430.769043,4494.743652,0.000000,2.000000,45.000000,,,,0.000000,4.000000,4.000000,4.000000,4.000000,4.000000,4.000000,4.000000,4.000000,4.000000,4.000000,4.000000,4.000000,4.000000,4.000000,100.000000,,,,,,,,,,,,,,,,,,,,,,,,,,,,,,,,,,,,,,,,,,,,,,,,,,,,,,,,,,,,,,,,,,,,,,,,,,,,,,,,,,,,,,,,,,,,,,,,,,,,,,,,,,,,,,,,,,,,,
1768292826.454313,1768292826.454414,51.000000,0.000000,4358.717773,4326.153809,4311.922852,4349.358887,4321.666504,4325.641113,4323.717773,4330.256348,4325.384766,4321.153809,4539.615234,4553.974121,4426.153809,4489.102539,0.000000,2.000000,45.000000,,,,0.000000,4.000000,4.000000,4.000000,4.000000,4.000000,4.000000,4.000000,4.000000,4.000000,4.000000,4.000000,4.000000,4.000000,4.000000,100.000000,,,,,,,,,,,,,,,,,,,,,,,,,,,,,,,,,,,,,,,,,,,,,,,,,,,,,,,,,,,,,,,,,,,,,,,,,,,,,,,,,,,,,,,,,,,,,,,,,,,,,,,,,,,,,,,,,,,,,
1768292826.462122,1768292826.462422,52.000000,0.000000,4352.436035,4322.307617,4309.871582,4344.487305,4319.615234,4321.538574,4321.282227,4324.871582,4325.641113,4310.384766,4535.384766,4548.974121,4412.948730,4474.743652,0.000000,2.000000,45.000000,,,,0.000000,4.000000,4.000000,4.000000,4.000000,4.000000,4.000000,4.000000,4.000000,4.000000,4.000000,4.000000,4.000000,4.000000,4.000000,100.000000,,,,,,,,,,,,,,,,,,,,,,,,,,,,,,,,,,,,,,,,,,,,,,,,,,,,,,,,,,,,,,,,,,,,,,,,,,,,,,,,,,,,,,,,,,,,,,,,,,,,,,,,,,,,,,,,,,,,,
1768292826.469930,1768292826.470231,53.000000,0.000000,4349.487305,4321.538574,4309.871582,4342.179688,4320.128418,4321.538574,4322.948730,4325.641113,4326.794922,4310.000000,4536.153809,4548.077148,4415.512695,4481.538574,0.000000,2.000000,45.000000,,,,0.000000,4.000000,4.000000,4.000000,4.000000,4.000000,4.000000,4.000000,4.000000,4.000000,4.000000,4.000000,4.000000,4.000000,4.000000,100.000000,,,,,,,,,,,,,,,,,,,,,,,,,,,,,,,,,,,,,,,,,,,,,,,,,,,,,,,,,,,,,,,,,,,,,,,,,,,,,,,,,,,,,,,,,,,,,,,,,,,,,,,,,,,,,,,,,,,,,
1768292826.477739,1768292826.478139,54.000000,0.000000,4349.743652,4322.307617,4310.641113,4345.769043,4323.205078,4325.128418,4322.563965,4331.153809,4328.846191,4322.179688,4539.871582,4551.794922,4425.897461,4492.436035,0.000000,2.000000,45.000000,,,,0.000000,4.000000,4.000000,4.000000,4.000000,4.000000,4.000000,4.000000,4.000000,4.000000,4.000000,4.000000,4.000000,4.000000,4.000000,100.000000,,,,,,,,,,,,,,,,,,,,,,,,,,,,,,,,,,,,,,,,,,,,,,,,,,,,,,,,,,,,,,,,,,,,,,,,,,,,,,,,,,,,,,,,,,,,,,,,,,,,,,,,,,,,,,,,,,,,,
1768292826.485547,1768292826.485948,55.000000,0.000000,4345.384766,4320.897461,4308.589844,4345.897461,4323.205078,4327.436035,4325.384766,4335.384766,4329.871582,4325.000000,4540.384766,4550.897461,4425.769043,4484.102539,0.000000,2.000000,45.000000,,,,0.000000,4.000000,4.000000,4.000000,4.000000,4.000000,4.000000,4.000000,4.000000,4.000000,4.000000,4.000000,4.000000,4.000000,4.000000,100.000000,,,,,,,,,,,,,,,,,,,,,,,,,,,,,,,,,,,,,,,,,,,,,,,,,,,,,,,,,,,,,,,,,,,,,,,,,,,,,,,,,,,,,,,,,,,,,,,,,,,,,,,,,,,,,,,,,,,,,
1768292826.493355,1768292826.493956,56.000000,0.000000,4339.358887,4315.384766,4308.077148,4342.179688,4320.256348,4326.666504,4328.717773,4336.794922,4327.692383,4317.820313,4537.692383,4548.205078,4417.436035,4472.563965,0.000000,2.000000,45.000000,,,,0.000000,4.000000,4.000000,4.000000,4.000000,4.000000,4.000000,4.000000,4.000000,4.000000,4.000000,4.000000,4.000000,4.000000,4.000000,100.000000,,,,,,,,,,,,,,,,,,,,,,,,,,,,,,,,,,,,,,,,,,,,,,,,,,,,,,,,,,,,,,,,,,,,,,,,,,,,,,,,,,,,,,,,,,,,,,,,,,,,,,,,,,,,,,,,,,,,,
1768292826.501164,1768292826.501764,57.000000,0.000000,4342.436035,4316.025879,4308.077148,4342.692383,4322.563965,4326.025879,4327.307617,4332.820313,4327.436035,4318.717773,4536.794922,4551.282227,4416.538574,4475.128418,0.000000,2.000000,45.000000,,,,0.000000,4.000000,4.000000,4.000000,4.000000,4.000000,4.000000,4.000000,4.000000,4.000000,4.000000,4.000000,4.000000,4.000000,4.000000,100.000000,,,,,,,,,,,,,,,,,,,,,,,,,,,,,,,,,,,,,,,,,,,,,,,,,,,,,,,,,,,,,,,,,,,,,,,,,,,,,,,,,,,,,,,,,,,,,,,,,,,,,,,,,,,,,,,,,,,,,
1768292826.508972,1768292826.509473,58.000000,0.000000,4348.717773,4321.410156,4305.512695,4344.358887,4324.871582,4328.333496,4329.743652,4329.230957,4327.948730,4318.974121,4538.461426,4553.589844,4422.820313,4482.179688,0.000000,2.000000,45.000000,,,,0.000000,4.000000,4.000000,4.000000,4.000000,4.000000,4.000000,4.000000,4.000000,4.000000,4.000000,4.000000,4.000000,4.000000,4.000000,100.000000,,,,,,,,,,,,,,,,,,,,,,,,,,,,,,,,,,,,,,,,,,,,,,,,,,,,,,,,,,,,,,,,,,,,,,,,,,,,,,,,,,,,,,,,,,,,,,,,,,,,,,,,,,,,,,,,,,,,,
1768292826.516781,1768292826.517281,59.000000,0.000000,4347.436035,4320.769043,4306.410156,4343.461426,4322.307617,4329.743652,4330.897461,4331.025879,4327.307617,4314.358887,4539.487305,4551.666504,4428.333496,4482.563965,0.000000,2.000000,45.000000,,,,0.000000,4.000000,4.000000,4.000000,4.000000,4.000000,4.000000,4.000000,4.000000,4.000000,4.000000,4.000000,4.000000,4.000000,4.000000,100.000000,,,,,,,,,,,,,,,,,,,,,,,,,,,,,,,,,,,,,,,,,,,,,,,,,,,,,,,,,,,,,,,,,,,,,,,,,,,,,,,,,,,,,,,,,,,,,,,,,,,,,,,,,,,,,,,,,,,,,
1768292826.524589,1768292826.525290,60.000000,0.000000,4342.948730,4318.589844,4311.153809,4343.461426,4321.025879,4327.692383,4326.538574,4336.282227,4328.589844,4316.282227,4541.025879,4551.282227,4428.333496,4478.461426,0.000000,2.000000,45.000000,,,,0.000000,4.000000,4.000000,4.000000,4.000000,4.000000,4.000000,4.000000,4.000000,4.000000,4.000000,4.000000,4.000000,4.000000,4.000000,100.000000,,,,,,,,,,,,,,,,,,,,,,,,,,,,,,,,,,,,,,,,,,,,,,,,,,,,,,,,,,,,,,,,,,,,,,,,,,,,,,,,,,,,,,,,,,,,,,,,,,,,,,,,,,,,,,,,,,,,,
1768292826.532397,1768292826.533098,61.000000,0.000000,4341.410156,4320.384766,4311.922852,4344.102539,4321.666504,4325.384766,4328.461426,4334.230957,4329.102539,4317.692383,4539.358887,4547.820313,4421.410156,4475.256348,0.000000,2.000000,45.000000,,,,0.000000,4.000000,4.000000,4.000000,4.000000,4.000000,4.000000,4.000000,4.000000,4.000000,4.000000,4.000000,4.000000,4.000000,4.000000,100.000000,,,,,,,,,,,,,,,,,,,,,,,,,,,,,,,,,,,,,,,,,,,,,,,,,,,,,,,,,,,,,,,,,,,,,,,,,,,,,,,,,,,,,,,,,,,,,,,,,,,,,,,,,,,,,,,,,,,,,
1768292826.540206,1768292826.541006,62.000000,0.000000,4343.589844,4321.153809,4306.666504,4342.820313,4320.512695,4325.128418,4326.153809,4324.743652,4327.820313,4311.922852,4533.974121,4538.974121,4411.922852,4473.846191,0.000000,2.000000,45.000000,,,,0.000000,4.000000,4.000000,4.000000,4.000000,4.000000,4.000000,4.000000,4.000000,4.000000,4.000000,4.000000,4.000000,4.000000,4.000000,100.000000,,,,,,,,,,,,,,,,,,,,,,,,,,,,,,,,,,,,,,,,,,,,,,,,,,,,,,,,,,,,,,,,,,,,,,,,,,,,,,,,,,,,,,,,,,,,,,,,,,,,,,,,,,,,,,,,,,,,,
1768292826.548014,1768292826.548815,63.000000,0.000000,4344.358887,4322.307617,4305.128418,4342.563965,4322.307617,4326.410156,4318.461426,4325.256348,4327.563965,4309.102539,4535.512695,4538.333496,4408.461426,4474.358887,0.000000,2.000000,45.000000,,,,0.000000,4.000000,4.000000,4.000000,4.000000,4.000000,4.000000,4.000000,4.000000,4.000000,4.000000,4.000000,4.000000,4.000000,4.000000,100.000000,,,,,,,,,,,,,,,,,,,,,,,,,,,,,,,,,,,,,,,,,,,,,,,,,,,,,,,,,,,,,,,,,,,,,,,,,,,,,,,,,,,,,,,,,,,,,,,,,,,,,,,,,,,,,,,,,,,,,
1768292826.555822,1768292826.556723,64.000000,0.000000,4342.051270,4325.256348,4308.461426,4343.846191,4327.051270,4327.307617,4325.256348,4330.384766,4328.589844,4310.000000,4537.051270,4544.487305,4412.051270,4475.256348,1885.000000,2.000000,45.000000,,,,0.000000,4.000000,4.000000,4.000000,4.000000,4.000000,4.000000,4.000000,4.000000,4.000000,4.000000,4.000000,4.000000,4.000000,4.000000,100.000000,,,,,,,,,,,,,,,,,,,,,,,,,,,,,,,,,,,,,,,,,,,,,,,,1.644258,0.314690,0.270458,0.354887,0.169413,1.167978,0.135099,0.229132,0.238058,0.115705,0.490534,0.093311,0.050124,0.080272,0.044135,0.632366,0.156633,0.275975,0.222450,0.146272,0.830689,0.210918,0.180367,0.064068,0.052700,0.062178,0.308768,0.137343,0.077008,0.107790,0.137294,0.643266,0.256310,0.118384,0.161233,0.766553,0.497485,0.097097,0.147105,0.081959,0.607116,0.351821,0.137363,0.105378,0.058812,0.749749,0.808798,0.329252,0.226653,0.118388,0.884906,0.405050,0.413754,0.240112,0.129932,1.061375,1.053797,0.386699,0.451293,0.177344,0.947160,0.283751,0.293893,0.415738,0.202778,0.858599,0.733882,0.331956,0.435997,0.203775
1768292826.563631,1768292826.564532,65.000000,0.000000,4338.589844,4322.307617,4305.641113,4343.205078,4326.410156,4324.230957,4330.000000,4327.307617,4328.333496,4307.436035,4530.512695,4541.666504,4411.538574,4474.102539,4013.000000,2.000000,45.000000,,,,0.000000,4.000000,4.000000,4.000000,4.000000,4.000000,4.000000,4.000000,4.000000,4.000000,4.000000,4.000000,4.000000,4.000000,4.000000,100.000000,,,,,,,,,,,,,,,,,,,,,,,,,,,,,,,,,,,,,,,,,,,,,,,,,,,,,,,,,,,,,,,,,,,,,,,,,,,,,,,,,,,,,,,,,,,,,,,,,,,,,,,,,,,,,,,,,,,,,
1768292826.571439,1768292826.572240,66.000000,0.000000,4337.436035,4320.256348,4303.974121,4341.666504,4323.333496,4322.051270,4318.717773,4324.102539,4325.000000,4304.358887,4530.641113,4536.538574,4409.358887,4472.820313,3979.000000,2.000000,45.000000,,,,0.000000,4.000000,4.000000,4.000000,4.000000,4.000000,4.000000,4.000000,4.000000,4.000000,4.000000,4.000000,4.000000,4.000000,4.000000,100.000000,,,,,,,,,,,,,,,,,,,,,,,,,,,,,,,,,,,,,,,,,,,,,,,,,,,,,,,,,,,,,,,,,,,,,,,,,,,,,,,,,,,,,,,,,,,,,,,,,,,,,,,,,,,,,,,,,,,,,
1768292826.579248,1768292826.580049,67.000000,0.000000,4341.153809,4327.179688,4307.948730,4345.769043,4324.743652,4326.538574,4316.794922,4327.307617,4324.743652,4308.333496,4538.461426,4542.051270,4413.717773,4475.256348,3894.000000,2.000000,45.000000,,,,0.000000,4.000000,4.000000,4.000000,4.000000,4.000000,4.000000,4.000000,4.000000,4.000000,4.000000,4.000000,4.000000,4.000000,4.000000,100.000000,,,,,,,,,,,,,,,,,,,,,,,,,,,,,,,,,,,,,,,,,,,,,,,,,,,,,,,,,,,,,,,,,,,,,,,,,,,,,,,,,,,,,,,,,,,,,,,,,,,,,,,,,,,,,,,,,,,,,
1768292826.587056,1768292826.587657,68.000000,0.000000,4343.205078,4327.820313,4308.333496,4347.307617,4325.000000,4327.948730,4325.641113,4326.153809,4327.051270,4312.563965,4537.436035,4543.589844,4415.384766,4475.897461,3737.000000,2.000000,45.000000,,,,0.000000,4.000000,4.000000,4.000000,4.000000,4.000000,4.000000,4.000000,4.000000,4.000000,4.000000,4.000000,4.000000,4.000000,4.000000,100.000000,,,,,,,,,,,,,,,,,,,,,,,,,,,,,,,,,,,,,,,,,,,,,,,,,,,,,,,,,,,,,,,,,,,,,,,,,,,,,,,,,,,,,,,,,,,,,,,,,,,,,,,,,,,,,,,,,,,,,
1768292826.594865,1768292826.595466,69.000000,0.000000,4341.410156,4321.922852,4305.512695,4341.282227,4321.794922,4323.333496,4323.461426,4321.025879,4326.153809,4311.794922,4533.974121,4538.974121,4415.384766,4473.846191,2767.000000,2.000000,45.000000,,,,0.000000,4.000000,4.000000,4.000000,4.000000,4.000000,4.000000,4.000000,4.000000,4.000000,4.000000,4.000000,4.000000,4.000000,4.000000,100.000000,,,,,,,,,,,,,,,,,,,,,,,,,,,,,,,,,,,,,,,,,,,,,,,,,,,,,,,,,,,,,,,,,,,,,,,,,,,,,,,,,,,,,,,,,,,,,,,,,,,,,,,,,,,,,,,,,,,,,
1768292826.602673,1768292826.603174,70.000000,0.000000,4343.077148,4325.512695,4307.948730,4345.128418,4322.948730,4324.358887,4321.282227,4327.051270,4327.051270,4316.410156,4539.358887,4546.025879,4423.333496,4478.077148,2566.000000,2.000000,45.000000,,,,0.000000,4.000000,4.000000,4.000000,4.000000,4.000000,4.000000,4.000000,4.000000,4.000000,4.000000,4.000000,4.000000,4.000000,4.000000,100.000000,,,,,,,,,,,,,,,,,,,,,,,,,,,,,,,,,,,,,,,,,,,,,,,,,,,,,,,,,,,,,,,,,,,,,,,,,,,,,,,,,,,,,,,,,,,,,,,,,,,,,,,,,,,,,,,,,,,,,
1768292826.610482,1768292826.610983,71.000000,0.000000,4352.436035,4331.794922,4308.846191,4354.102539,4326.410156,4326.410156,4324.871582,4336.538574,4334.487305,4326.410156,4542.179688,4554.102539,4429.615234,4482.692383,4054.000000,2.000000,45.000000,,,,0.000000,4.000000,4.000000,4.000000,4.000000,4.000000,4.000000,4.000000,4.000000,4.000000,4.000000,4.000000,4.000000,4.000000,4.000000,100.000000,,,,,,,,,,,,,,,,,,,,,,,,,,,,,,,,,,,,,,,,,,,,,,,,,,,,,,,,,,,,,,,,,,,,,,,,,,,,,,,,,,,,,,,,,,,,,,,,,,,,,,,,,,,,,,,,,,,,,
1768292826.618290,1768292826.618591,72.000000,0.000000,4353.717773,4329.102539,4307.563965,4350.512695,4326.153809,4325.641113,4327.051270,4337.179688,4337.179688,4322.436035,4538.333496,4551.538574,4423.846191,4479.871582,3289.000000,2.000000,45.000000,,,,0.000000,4.000000,4.000000,4.000000,4.000000,4.000000,4.000000,4.000000,4.000000,4.000000,4.000000,4.000000,4.000000,4.000000,4.000000,100.000000,,,,,,,,,,,,,,,,,,,,,,,,,,,,,,,,,,,,,,,,,,,,,,,,,,,,,,,,,,,,,,,,,,,,,,,,,,,,,,,,,,,,,,,,,,,,,,,,,,,,,,,,,,,,,,,,,,,,,
1768292826.626099,1768292826.626400,73.000000,0.000000,4345.897461,4325.512695,4311.794922,4342.948730,4326.025879,4329.102539,4331.410156,4332.692383,4330.128418,4311.025879,4538.717773,4549.102539,4417.820313,4475.641113,3841.000000,2.000000,45.000000,,,,0.000000,4.000000,4.000000,4.000000,4.000000,4.000000,4.000000,4.000000,4.000000,4.000000,4.000000,4.000000,4.000000,4.000000,4.000000,100.000000,,,,,,,,,,,,,,,,,,,,,,,,,,,,,,,,,,,,,,,,,,,,,,,,,,,,,,,,,,,,,,,,,,,,,,,,,,,,,,,,,,,,,,,,,,,,,,,,,,,,,,,,,,,,,,,,,,,,,
1768292826.633907,1768292826.634308,74.000000,0.000000,4344.743652,4326.282227,4310.897461,4345.128418,4329.358887,4330.641113,4330.897461,4329.230957,4326.538574,4311.538574,4538.077148,4546.025879,4417.307617,4475.769043,4343.000000,2.000000,45.000000,,,,0.000000,4.000000,4.000000,4.000000,4.000000,4.000000,4.000000,4.000000,4.000000,4.000000,4.000000,4.000000,4.000000,4.000000,4.000000,100.000000,,,,,,,,,,,,,,,,,,,,,,,,,,,,,,,,,,,,,,,,,,,,,,,,,,,,,,,,,,,,,,,,,,,,,,,,,,,,,,,,,,,,,,,,,,,,,,,,,,,,,,,,,,,,,,,,,,,,,
1768292826.641715,1768292826.642117,75.000000,0.000000,4343.846191,4323.589844,4306.794922,4346.538574,4329.743652,4325.769043,4323.333496,4327.307617,4328.846191,4314.358887,4528.461426,4539.487305,4409.358887,4474.102539,4752.000000,2.000000,45.000000,,,,0.000000,4.000000,4.000000,4.000000,4.000000,4.000000,4.000000,4.000000,4.000000,4.000000,4.000000,4.000000,4.000000,4.000000,4.000000,100.000000,,,,,,,,,,,,,,,,,,,,,,,,,,,,,,,,,,,,,,,,,,,,,,,,,,,,,,,,,,,,,,,,,,,,,,,,,,,,,,,,,,,,,,,,,,,,,,,,,,,,,,,,,,,,,,,,,,,,,
1768292826.649524,1768292826.650125,76.000000,0.000000,4338.589844,4320.128418,4310.897461,4344.358887,4326.153809,4324.358887,4319.487305,4327.436035,4328.846191,4312.563965,4528.717773,4538.974121,4404.615234,4470.897461,4612.000000,2.000000,45.000000,,,,0.000000,4.000000,4.000000,4.000000,4.000000,4.000000,4.000000,4.000000,4.000000,4.000000,4.000000,4.000000,4.000000,4.000000,4.000000,100.000000,,,,,,,,,,,,,,,,,,,,,,,,,,,,,,,,,,,,,,,,,,,,,,,,,,,,,,,,,,,,,,,,,,,,,,,,,,,,,,,,,,,,,,,,,,,,,,,,,,,,,,,,,,,,,,,,,,,,,
1768292826.657332,1768292826.657933,77.000000,0.000000,4338.461426,4319.230957,4313.461426,4343.077148,4322.948730,4326.153809,4323.205078,4327.179688,4327.179688,4313.717773,4536.410156,4542.307617,4414.230957,4475.128418,5671.000000,2.000000,45.000000,,,,0.000000,4.000000,4.000000,4.000000,4.000000,4.000000,4.000000,4.000000,4.000000,4.000000,4.000000,4.000000,4.000000,4.000000,4.000000,100.000000,,,,,,,,,,,,,,,,,,,,,,,,,,,,,,,,,,,,,,,,,,,,,,,,,,,,,,,,,,,,,,,,,,,,,,,,,,,,,,,,,,,,,,,,,,,,,,,,,,,,,,,,,,,,,,,,,,,,,
1768292826.665141,1768292826.665842,78.000000,0.000000,4336.282227,4312.436035,4305.384766,4336.282227,4321.666504,4321.410156,4322.307617,4323.846191,4325.256348,4311.794922,4527.563965,4534.615234,4415.384766,4475.384766,4343.000000,2.000000,45.000000,,,,0.000000,4.000000,4.000000,4.000000,4.000000,4.000000,4.000000,4.000000,4.000000,4.000000,4.000000,4.000000,4.000000,4.000000,4.000000,100.000000,,,,,,,,,,,,,,,,,,,,,,,,,,,,,,,,,,,,,,,,,,,,,,,,,,,,,,,,,,,,,,,,,,,,,,,,,,,,,,,,,,,,,,,,,,,,,,,,,,,,,,,,,,,,,,,,,,,,,
1768292826.672949,1768292826.673650,79.000000,0.000000,4332.307617,4307.820313,4301.666504,4333.589844,4321.282227,4319.230957,4319.358887,4326.410156,4326.282227,4310.897461,4520.128418,4530.512695,4406.025879,4470.897461,4752.000000,2.000000,45.000000,,,,0.000000,4.000000,4.000000,4.000000,4.000000,4.000000,4.000000,4.000000,4.000000,4.000000,4.000000,4.000000,4.000000,4.000000,4.000000,100.000000,,,,,,,,,,,,,,,,,,,,,,,,,,,,,,,,,,,,,,,,,,,,,,,,,,,,,,,,,,,,,,,,,,,,,,,,,,,,,,,,,,,,,,,,,,,,,,,,,,,,,,,,,,,,,,,,,,,,,
1768292826.680757,1768292826.681658,80.000000,0.000000,4345.128418,4322.307617,4309.102539,4347.051270,4322.692383,4323.333496,4322.051270,4337.307617,4334.871582,4324.358887,4540.897461,4548.974121,4416.666504,4481.538574,4612.000000,2.000000,45.000000,,,,0.000000,4.000000,4.000000,4.000000,4.000000,4.000000,4.000000,4.000000,4.000000,4.000000,4.000000,4.000000,4.000000,4.000000,4.000000,100.000000,1.000000,50.000000,4.000000,4.000000,1.000000,4.000000,4.000000,1.000000,4.000000,4.000000,4.000000,4.000000,4.000000,4.000000,4.000000,4.000000,,,,,,,,,,,,,,,,,,,,,,,,,,,,,,,,1.366249,0.407819,0.279876,0.358913,0.155418,1.103890,0.184496,0.245976,0.242498,0.103433,0.379549,0.102712,0.056281,0.089586,0.040586,0.591538,0.174905,0.288177,0.231682,0.142444,0.956678,0.232694,0.167886,0.067163,0.046645,0.052223,0.292400,0.104057,0.078572,0.101575,0.118817,0.641991,0.255635,0.129942,0.162911,0.672227,0.485168,0.096496,0.147326,0.080325,0.486792,0.357094,0.154536,0.112242,0.057151,0.746679,0.823314,0.292729,0.220134,0.116832,0.822424,0.418137,0.394863,0.218998,0.129299,0.901230,1.082816,0.345443,0.450771,0.171914,0.933923,0.329711,0.359440,0.366383,0.208987,0.801850,0.743881,0.363378,0.403876,0.215429
1768292826.688566,1768292826.689467,81.000000,0.000000,4362.179688,4339.487305,4315.128418,4358.461426,4325.769043,4325.000000,4322.820313,4339.230957,4341.025879,4340.000000,4558.077148,4568.077148,4439.102539,4498.461426,5671.000000,2.000000,45.000000,,,,0.000000,4.000000,4.000000,4.000000,4.000000,4.000000,4.000000,4.000000,4.000000,4.000000,4.000000,4.000000,4.000000,4.000000,4.000000,100.000000,,,,,,,,,,,,,,,,,,,,,,,,,,,,,,,,,,,,,,,,,,,,,,,,,,,,,,,,,,,,,,,,,,,,,,,,,,,,,,,,,,,,,,,,,,,,,,,,,,,,,,,,,,,,,,,,,,,,,
1768292826.696374,1768292826.697375,82.000000,0.000000,4361.025879,4337.307617,4315.769043,4353.974121,4326.794922,4326.922852,4327.179688,4331.282227,4335.000000,4334.871582,4549.102539,4565.384766,4440.128418,4497.948730,4343.000000,2.000000,45.000000,,,,0.000000,4.000000,4.000000,4.000000,4.000000,4.000000,4.000000,4.000000,4.000000,4.000000,4.000000,4.000000,4.000000,4.000000,4.000000,100.000000,,,,,,,,,,,,,,,,,,,,,,,,,,,,,,,,,,,,,,,,,,,,,,,,,,,,,,,,,,,,,,,,,,,,,,,,,,,,,,,,,,,,,,,,,,,,,,,,,,,,,,,,,,,,,,,,,,,,,
1768292826.704183,1768292826.705184,83.000000,0.000000,4350.512695,4327.307617,4314.487305,4348.205078,4324.358887,4326.025879,4328.589844,4325.000000,4325.384766,4316.410156,4536.666504,4550.384766,4424.615234,4482.563965,4752.000000,2.000000,45.000000,,,,0.000000,4.000000,4.000000,4.000000,4.000000,4.000000,4.000000,4.000000,4.000000,4.000000,4.000000,4.000000,4.000000,4.000000,4.000000,100.000000,,,,,,,,,,,,,,,,,,,,,,,,,,,,,,,,,,,,,,,,,,,,,,,,,,,,,,,,,,,,,,,,,,,,,,,,,,,,,,,,,,,,,,,,,,,,,,,,,,,,,,,,,,,,,,,,,,,,,
1768292826.711991,1768292826.712792,84.000000,0.000000,4344.358887,4323.589844,4312.563965,4347.179688,4322.051270,4323.461426,4324.102539,4322.436035,4321.410156,4308.974121,4528.333496,4539.743652,4413.846191,4474.102539,4612.000000,2.000000,45.000000,,,,0.000000,4.000000,4.000000,4.000000,4.000000,4.000000,4.000000,4.000000,4.000000,4.000000,4.000000,4.000000,4.000000,4.000000,4.000000,100.000000,,,,,,,,,,,,,,,,,,,,,,,,,,,,,,,,,,,,,,,,,,,,,,,,,,,,,,,,,,,,,,,,,,,,,,,,,,,,,,,,,,,,,,,,,,,,,,,,,,,,,,,,,,,,,,,,,,,,,
1768292826.719799,1768292826.720601,85.000000,0.000000,4342.436035,4324.871582,4311.025879,4343.717773,4321.794922,4323.717773,4322.948730,4320.897461,4320.897461,4312.179688,4522.820313,4534.743652,4411.794922,4474.743652,5671.000000,2.000000,45.000000,,,,0.000000,4.000000,4.000000,4.000000,4.000000,4.000000,4.000000,4.000000,4.000000,4.000000,4.000000,4.000000,4.000000,4.000000,4.000000,100.000000,,,,,,,,,,,,,,,,,,,,,,,,,,,,,,,,,,,,,,,,,,,,,,,,,,,,,,,,,,,,,,,,,,,,,,,,,,,,,,,,,,,,,,,,,,,,,,,,,,,,,,,,,,,,,,,,,,,,,
1768292826.727608,1768292826.728309,86.000000,0.000000,4340.897461,4325.384766,4310.897461,4342.692383,4321.282227,4322.820313,4322.692383,4321.666504,4321.666504,4313.205078,4524.487305,4536.410156,4413.461426,4475.641113,4343.000000,2.000000,45.000000,,,,0.000000,4.000000,4.000000,4.000000,4.000000,4.000000,4.000000,4.000000,4.000000,4.000000,4.000000,4.000000,4.000000,4.000000,4.000000,100.000000,,,,,,,,,,,,,,,,,,,,,,,,,,,,,,,,,,,,,,,,,,,,,,,,,,,,,,,,,,,,,,,,,,,,,,,,,,,,,,,,,,,,,,,,,,,,,,,,,,,,,,,,,,,,,,,,,,,,,
1768292826.735416,1768292826.736118,87.000000,0.000000,4340.384766,4323.974121,4310.256348,4342.179688,4321.538574,4322.948730,4324.615234,4321.282227,4320.512695,4311.410156,4526.666504,4539.615234,4414.102539,4474.358887,4752.000000,2.000000,45.000000,,,,0.000000,4.000000,4.000000,4.000000,4.000000,4.000000,4.000000,4.000000,4.000000,4.000000,4.000000,4.000000,4.000000,4.000000,4.000000,100.000000,,,,,,,,,,,,,,,,,,,,,,,,,,,,,,,,,,,,,,,,,,,,,,,,,,,,,,,,,,,,,,,,,,,,,,,,,,,,,,,,,,,,,,,,,,,,,,,,,,,,,,,,,,,,,,,,,,,,,
1768292826.743225,1768292826.744126,88.000000,0.000000,4341.666504,4323.717773,4307.692383,4340.128418,4322.307617,4325.128418,4326.538574,4319.102539,4316.153809,4310.897461,4523.077148,4534.358887,4413.717773,4469.102539,4612.000000,2.000000,45.000000,,,,0.000000,4.000000,4.000000,4.000000,4.000000,4.000000,4.000000,4.000000,4.000000,4.000000,4.000000,4.000000,4.000000,4.000000,4.000000,100.000000,,,,,,,,,,,,,,,,,,,,,,,,,,,,,,,,,,,,,,,,,,,,,,,,,,,,,,,,,,,,,,,,,,,,,,,,,,,,,,,,,,,,,,,,,,,,,,,,,,,,,,,,,,,,,,,,,,,,,
1768292826.751033,1768292826.751934,89.000000,0.000000,4341.410156,4322.563965,4307.820313,4340.000000,4322.692383,4325.897461,4322.307617,4322.179688,4318.974121,4311.666504,4518.589844,4530.512695,4413.333496,4464.102539,5671.000000,2.000000,45.000000,,,,0.000000,4.000000,4.000000,4.000000,4.000000,4.000000,4.000000,4.000000,4.000000,4.000000,4.000000,4.000000,4.000000,4.000000,4.000000,100.000000,,,,,,,,,,,,,,,,,,,,,,,,,,,,,,,,,,,,,,,,,,,,,,,,,,,,,,,,,,,,,,,,,,,,,,,,,,,,,,,,,,,,,,,,,,,,,,,,,,,,,,,,,,,,,,,,,,,,,
1768292826.758842,1768292826.759643,90.000000,0.000000,4341.538574,4322.179688,4308.717773,4342.179688,4324.230957,4323.461426,4319.230957,4326.666504,4327.436035,4312.948730,4519.743652,4536.538574,4411.025879,4463.717773,4343.000000,2.000000,45.000000,,,,0.000000,4.000000,4.000000,4.000000,4.000000,4.000000,4.000000,4.000000,4.000000,4.000000,4.000000,4.000000,4.000000,4.000000,4.000000,100.000000,,,,,,,,,,,,,,,,,,,,,,,,,,,,,,,,,,,,,,,,,,,,,,,,,,,,,,,,,,,,,,,,,,,,,,,,,,,,,,,,,,,,,,,,,,,,,,,,,,,,,,,,,,,,,,,,,,,,,
1768292826.766650,1768292826.767451,91.000000,0.000000,4341.538574,4318.589844,4305.256348,4338.461426,4324.871582,4320.512695,4321.538574,4323.333496,4325.512695,4314.102539,4521.922852,4537.692383,4410.128418,4466.666504,4752.000000,2.000000,45.000000,,,,0.000000,4.000000,4.000000,4.000000,4.000000,4.000000,4.000000,4.000000,4.000000,4.000000,4.000000,4.000000,4.000000,4.000000,4.000000,100.000000,,,,,,,,,,,,,,,,,,,,,,,,,,,,,,,,,,,,,,,,,,,,,,,,,,,,,,,,,,,,,,,,,,,,,,,,,,,,,,,,,,,,,,,,,,,,,,,,,,,,,,,,,,,,,,,,,,,,,
1768292826.774459,1768292826.775060,92.000000,0.000000,4336.025879,4312.051270,4303.205078,4333.077148,4324.487305,4320.897461,4320.512695,4318.461426,4319.743652,4311.282227,4520.256348,4525.256348,4411.794922,4464.871582,4612.000000,2.000000,45.000000,,,,0.000000,4.000000,4.000000,4.000000,4.000000,4.000000,4.000000,4.000000,4.000000,4.000000,4.000000,4.000000,4.000000,4.000000,4.000000,100.000000,,,,,,,,,,,,,,,,,,,,,,,,,,,,,,,,,,,,,,,,,,,,,,,,,,,,,,,,,,,,,,,,,,,,,,,,,,,,,,,,,,,,,,,,,,,,,,,,,,,,,,,,,,,,,,,,,,,,,
1768292826.782267,1768292826.782868,93.000000,0.000000,4331.794922,4313.205078,4306.538574,4335.769043,4325.384766,4324.358887,4324.102539,4321.794922,4320.641113,4310.512695,4516.794922,4518.589844,4409.743652,4459.102539,5671.000000,2.000000,45.000000,,,,0.000000,4.000000,4.000000,4.000000,4.000000,4.000000,4.000000,4.000000,4.000000,4.000000,4.000000,4.000000,4.000000,4.000000,4.000000,100.000000,,,,,,,,,,,,,,,,,,,,,,,,,,,,,,,,,,,,,,,,,,,,,,,,,,,,,,,,,,,,,,,,,,,,,,,,,,,,,,,,,,,,,,,,,,,,,,,,,,,,,,,,,,,,,,,,,,,,,
1768292826.790075,1768292826.790577,94.000000,0.000000,4338.205078,4322.563965,4311.153809,4343.205078,4328.461426,4328.974121,4335.769043,4327.692383,4323.205078,4313.333496,4519.743652,4529.487305,4409.102539,4459.102539,4343.000000,2.000000,45.000000,,,,0.000000,4.000000,4.000000,4.000000,4.000000,4.000000,4.000000,4.000000,4.000000,4.000000,4.000000,4.000000,4.000000,4.000000,4.000000,100.000000,,,,,,,,,,,,,,,,,,,,,,,,,,,,,,,,,,,,,,,,,,,,,,,,,,,,,,,,,,,,,,,,,,,,,,,,,,,,,,,,,,,,,,,,,,,,,,,,,,,,,,,,,,,,,,,,,,,,,
1768292826.797884,1768292826.798385,95.000000,0.000000,4341.922852,4321.538574,4309.615234,4343.333496,4326.922852,4326.282227,4329.358887,4324.358887,4319.743652,4312.692383,4523.846191,4537.307617,4412.179688,4462.563965,4752.000000,2.000000,45.000000,,,,0.000000,4.000000,4.000000,4.000000,4.000000,4.000000,4.000000,4.000000,4.000000,4.000000,4.000000,4.000000,4.000000,4.000000,4.000000,100.000000,,,,,,,,,,,,,,,,,,,,,,,,,,,,,,,,,,,,,,,,,,,,,,,,,,,,,,,,,,,,,,,,,,,,,,,,,,,,,,,,,,,,,,,,,,,,,,,,,,,,,,,,,,,,,,,,,,,,,
1768292826.805692,1768292826.805994,96.000000,0.000000,4333.846191,4309.615234,4302.436035,4337.820313,4321.025879,4320.384766,4318.333496,4319.487305,4320.512695,4312.179688,4522.307617,4535.256348,4415.000000,4465.897461,4612.000000,2.000000,45.000000,,,,0.000000,4.000000,4.000000,4.000000,4.000000,4.000000,4.000000,4.000000,4.000000,4.000000,4.000000,4.000000,4.000000,4.000000,4.000000,100.000000,,,,,,,,,,,,,,,,,,,,,,,,,,,,,,,,,,,,,,,,,,,,,,,,1.166895,0.489789,0.287799,0.359946,0.143921,1.077057,0.235081,0.269555,0.245924,0.096471,0.296848,0.117096,0.063710,0.097867,0.040308,0.584421,0.195567,0.302389,0.245530,0.139679,1.044945,0.255006,0.152688,0.073075,0.043199,0.048785,0.249643,0.082482,0.080770,0.095588,0.097665,0.581639,0.267324,0.150565,0.175185,0.601020,0.436771,0.106311,0.151447,0.082165,0.388952,0.353833,0.174481,0.124962,0.057960,0.781253,0.805797,0.265924,0.209394,0.116612,0.784482,0.454102,0.410891,0.205955,0.136182,0.778065,1.068244,0.353255,0.437891,0.162621,0.918563,0.397775,0.474092,0.306315,0.219870,0.751882,0.731638,0.410651,0.367638,0.224898
1768292826.813501,1768292826.813803,97.000000,0.000000,4327.692383,4308.717773,4304.743652,4338.974121,4319.615234,4321.025879,4325.512695,4324.230957,4325.769043,4312.179688,4521.153809,4538.333496,4417.307617,4467.436035,5671.000000,2.000000,45.000000,,,,0.000000,4.000000,4.000000,4.000000,4.000000,4.000000,4.000000,4.000000,4.000000,4.000000,4.000000,4.000000,4.000000,4.000000,4.000000,100.000000,,,,,,,,,,,,,,,,,,,,,,,,,,,,,,,,,,,,,,,,,,,,,,,,,,,,,,,,,,,,,,,,,,,,,,,,,,,,,,,,,,,,,,,,,,,,,,,,,,,,,,,,,,,,,,,,,,,,,
1768292826.821309,1768292826.821511,98.000000,0.000000,4327.692383,4317.563965,4310.769043,4341.538574,4322.820313,4325.641113,4328.077148,4326.922852,4319.743652,4305.641113,4523.333496,4536.538574,4415.128418,4464.487305,4343.000000,2.000000,45.000000,,,,0.000000,4.000000,4.000000,4.000000,4.000000,4.000000,4.000000,4.000000,4.000000,4.000000,4.000000,4.000000,4.000000,4.000000,4.000000,100.000000,,,,,,,,,,,,,,,,,,,,,,,,,,,,,,,,,,,,,,,,,,,,,,,,,,,,,,,,,,,,,,,,,,,,,,,,,,,,,,,,,,,,,,,,,,,,,,,,,,,,,,,,,,,,,,,,,,,,,
1768292826.829117,1768292826.829320,99.000000,0.000000,4326.538574,4320.000000,4306.282227,4338.205078,4321.538574,4327.051270,4318.717773,4318.846191,4312.948730,4298.717773,4525.000000,4527.436035,4409.743652,4460.769043,4752.000000,2.000000,45.000000,,,,0.000000,4.000000,4.000000,4.000000,4.000000,4.000000,4.000000,4.000000,4.000000,4.000000,4.000000,4.000000,4.000000,4.000000,4.000000,100.000000,,,,,,,,,,,,,,,,,,,,,,,,,,,,,,,,,,,,,,,,,,,,,,,,,,,,,,,,,,,,,,,,,,,,,,,,,,,,,,,,,,,,,,,,,,,,,,,,,,,,,,,,,,,,,,,,,,,,,
1768292826.836926,1768292826.836928,100.000000,0.000000,4326.410156,4316.410156,4302.692383,4334.615234,4313.205078,4324.487305,4316.282227,4314.871582,4319.102539,4297.948730,4524.871582,4528.717773,4410.512695,4462.948730,4612.000000,2.000000,45.000000,,,,0.000000,4.000000,4.000000,4.000000,4.000000,4.000000,4.000000,4.000000,4.000000,4.000000,4.000000,4.000000,4.000000,4.000000,4.000000,100.000000,,,,,,,,,,,,,,,,,,,,,,,,,,,,,,,,,,,,,,,,,,,,,,,,,,,,,,,,,,,,,,,,,,,,,,,,,,,,,,,,,,,,,,,,,,,,,,,,,,,,,,,,,,,,,,,,,,,,,
1768292826.844734,1768292826.844737,101.000000,0.000000,4328.205078,4313.974121,4309.230957,4336.025879,4309.743652,4327.436035,4326.153809,4321.794922,4323.589844,4296.282227,4524.615234,4536.153809,4413.974121,4464.615234,5671.000000,2.000000,45.000000,,,,0.000000,4.000000,4.000000,4.000000,4.000000,4.000000,4.000000,4.000000,4.000000,4.000000,4.000000,4.000000,4.000000,4.000000,4.000000,100.000000,,,,,,,,,,,,,,,,,,,,,,,,,,,,,,,,,,,,,,,,,,,,,,,,,,,,,,,,,,,,,,,,,,,,,,,,,,,,,,,,,,,,,,,,,,,,,,,,,,,,,,,,,,,,,,,,,,,,,
1768292826.852543,1768292826.852445,102.000000,0.000000,4326.666504,4316.282227,4312.179688,4340.000000,4311.282227,4328.846191,4328.717773,4324.871582,4317.179688,4292.179688,4530.128418,4535.769043,4410.769043,4459.102539,4343.000000,2.000000,45.000000,,,,0.000000,4.000000,4.000000,4.000000,4.000000,4.000000,4.000000,4.000000,4.000000,4.000000,4.000000,4.000000,4.000000,4.000000,4.000000,100.000000,,,,,,,,,,,,,,,,,,,,,,,,,,,,,,,,,,,,,,,,,,,,,,,,,,,,,,,,,,,,,,,,,,,,,,,,,,,,,,,,,,,,,,,,,,,,,,,,,,,,,,,,,,,,,,,,,,,,,
1768292826.860351,1768292826.860254,103.000000,0.000000,4325.384766,4321.025879,4306.922852,4340.641113,4309.230957,4324.743652,4320.000000,4320.769043,4317.692383,4295.769043,4539.230957,4533.846191,4410.256348,4461.153809,4752.000000,2.000000,45.000000,,,,0.000000,4.000000,4.000000,4.000000,4.000000,4.000000,4.000000,4.000000,4.000000,4.000000,4.000000,4.000000,4.000000,4.000000,4.000000,100.000000,,,,,,,,,,,,,,,,,,,,,,,,,,,,,,,,,,,,,,,,,,,,,,,,,,,,,,,,,,,,,,,,,,,,,,,,,,,,,,,,,,,,,,,,,,,,,,,,,,,,,,,,,,,,,,,,,,,,,
1768292826.868159,1768292826.868262,104.000000,0.000000,4333.205078,4325.000000,4304.743652,4340.256348,4307.820313,4325.128418,4317.948730,4321.538574,4327.692383,4303.717773,4541.153809,4537.820313,4415.384766,4472.307617,4612.000000,2.000000,45.000000,,,,0.000000,4.000000,4.000000,4.000000,4.000000,4.000000,4.000000,4.000000,4.000000,4.000000,4.000000,4.000000,4.000000,4.000000,4.000000,100.000000,,,,,,,,,,,,,,,,,,,,,,,,,,,,,,,,,,,,,,,,,,,,,,,,,,,,,,,,,,,,,,,,,,,,,,,,,,,,,,,,,,,,,,,,,,,,,,,,,,,,,,,,,,,,,,,,,,,,,
1768292826.875968,1768292826.876070,105.000000,0.000000,4337.051270,4326.666504,4306.666504,4340.769043,4309.871582,4326.794922,4324.230957,4326.538574,4329.230957,4308.333496,4540.128418,4538.333496,4416.666504,4476.538574,5671.000000,2.000000,45.000000,,,,0.000000,4.000000,4.000000,4.000000,4.000000,4.000000,4.000000,4.000000,4.000000,4.000000,4.000000,4.000000,4.000000,4.000000,4.000000,100.000000,,,,,,,,,,,,,,,,,,,,,,,,,,,,,,,,,,,,,,,,,,,,,,,,,,,,,,,,,,,,,,,,,,,,,,,,,,,,,,,,,,,,,,,,,,,,,,,,,,,,,,,,,,,,,,,,,,,,,
1768292826.883776,1768292826.883979,106.000000,0.000000,4330.769043,4326.794922,4306.153809,4342.051270,4311.410156,4326.666504,4325.641113,4329.487305,4326.666504,4310.897461,4545.769043,4541.153809,4418.974121,4477.563965,4343.000000,2.000000,45.000000,,,,0.000000,4.000000,4.000000,4.000000,4.000000,4.000000,4.000000,4.000000,4.000000,4.000000,4.000000,4.000000,4.000000,4.000000,4.000000,100.000000,,,,,,,,,,,,,,,,,,,,,,,,,,,,,,,,,,,,,,,,,,,,,,,,,,,,,,,,,,,,,,,,,,,,,,,,,,,,,,,,,,,,,,,,,,,,,,,,,,,,,,,,,,,,,,,,,,,,,
1768292826.891585,1768292826.891787,107.000000,0.000000,4326.922852,4327.179688,4302.436035,4340.256348,4310.256348,4325.384766,4320.769043,4326.410156,4326.410156,4304.615234,4545.769043,4539.487305,4420.512695,4472.948730,4752.000000,2.000000,45.000000,,,,0.000000,4.000000,4.000000,4.000000,4.000000,4.000000,4.000000,4.000000,4.000000,4.000000,4.000000,4.000000,4.000000,4.000000,4.000000,100.000000,,,,,,,,,,,,,,,,,,,,,,,,,,,,,,,,,,,,,,,,,,,,,,,,,,,,,,,,,,,,,,,,,,,,,,,,,,,,,,,,,,,,,,,,,,,,,,,,,,,,,,,,,,,,,,,,,,,,,
1768292826.899393,1768292826.899795,108.000000,0.000000,4326.410156,4326.153809,4299.358887,4336.410156,4308.974121,4324.743652,4320.384766,4319.871582,4324.743652,4293.974121,4535.897461,4525.897461,4414.743652,4461.666504,4612.000000,2.000000,45.000000,,,,0.000000,4.000000,4.000000,4.000000,4.000000,4.000000,4.000000,4.000000,4.000000,4.000000,4.000000,4.000000,4.000000,4.000000,4.000000,100.000000,,,,,,,,,,,,,,,,,,,,,,,,,,,,,,,,,,,,,,,,,,,,,,,,,,,,,,,,,,,,,,,,,,,,,,,,,,,,,,,,,,,,,,,,,,,,,,,,,,,,,,,,,,,,,,,,,,,,,
1768292826.907202,1768292826.907604,109.000000,0.000000,4326.666504,4327.051270,4300.384766,4339.743652,4310.128418,4326.153809,4322.179688,4321.410156,4323.846191,4298.589844,4537.563965,4526.922852,4412.179688,4461.922852,5671.000000,2.000000,45.000000,,,,0.000000,4.000000,4.000000,4.000000,4.000000,4.000000,4.000000,4.000000,4.000000,4.000000,4.000000,4.000000,4.000000,4.000000,4.000000,100.000000,,,,,,,,,,,,,,,,,,,,,,,,,,,,,,,,,,,,,,,,,,,,,,,,,,,,,,,,,,,,,,,,,,,,,,,,,,,,,,,,,,,,,,,,,,,,,,,,,,,,,,,,,,,,,,,,,,,,,
1768292826.915010,1768292826.915312,110.000000,0.000000,4327.307617,4326.153809,4300.256348,4339.487305,4310.128418,4325.128418,4317.692383,4325.000000,4325.000000,4305.641113,4540.256348,4535.897461,4414.487305,4467.563965,4343.000000,2.000000,45.000000,,,,0.000000,4.000000,4.000000,4.000000,4.000000,4.000000,4.000000,4.000000,4.000000,4.000000,4.000000,4.000000,4.000000,4.000000,4.000000,100.000000,,,,,,,,,,,,,,,,,,,,,,,,,,,,,,,,,,,,,,,,,,,,,,,,,,,,,,,,,,,,,,,,,,,,,,,,,,,,,,,,,,,,,,,,,,,,,,,,,,,,,,,,,,,,,,,,,,,,,
1768292826.922819,1768292826.923121,111.000000,0.000000,4324.871582,4319.871582,4298.717773,4329.487305,4307.307617,4319.358887,4311.922852,4317.563965,4322.820313,4297.307617,4527.563965,4528.077148,4411.794922,4461.025879,4752.000000,2.000000,45.000000,,,,0.000000,4.000000,4.000000,4.000000,4.000000,4.000000,4.000000,4.000000,4.000000,4.000000,4.000000,4.000000,4.000000,4.000000,4.000000,100.000000,,,,,,,,,,,,,,,,,,,,,,,,,,,,,,,,,,,,,,,,,,,,,,,,,,,,,,,,,,,,,,,,,,,,,,,,,,,,,,,,,,,,,,,,,,,,,,,,,,,,,,,,,,,,,,,,,,,,,
1768292826.930627,1768292826.931129,112.000000,0.000000,4327.820313,4322.179688,4299.102539,4330.641113,4308.974121,4320.128418,4316.153809,4311.922852,4319.615234,4292.948730,4520.128418,4519.487305,4409.871582,4456.282227,4612.000000,2.000000,45.000000,,,,0.000000,4.000000,4.000000,4.000000,4.000000,4.000000,4.000000,4.000000,4.000000,4.000000,4.000000,4.000000,4.000000,4.000000,4.000000,100.000000,,,,,,,,,,,,,,,,,,,,,,,,,,,,,,,,,,,,,,,,,,,,,,,,1.102168,0.540993,0.304201,0.357681,0.135388,1.117617,0.275719,0.302783,0.247648,0.094112,0.252145,0.129624,0.070197,0.102989,0.042726,0.613196,0.213004,0.321681,0.258341,0.136862,1.060270,0.272452,0.137589,0.078235,0.042912,0.048169,0.195988,0.072892,0.081989,0.089264,0.079446,0.487696,0.282390,0.173076,0.195073,0.540736,0.362362,0.128762,0.156681,0.086750,0.312934,0.332720,0.193981,0.138723,0.059363,0.847162,0.751639,0.255876,0.198069,0.120926,0.760553,0.493866,0.446693,0.200393,0.147402,0.704390,1.018188,0.413266,0.417944,0.152894,0.883241,0.479444,0.618702,0.253171,0.232912,0.723635,0.684278,0.464577,0.337117,0.232576
1768292826.938435,1768292826.938937,113.000000,0.000000,4333.333496,4330.000000,4298.846191,4342.179688,4313.461426,4326.410156,4321.282227,4321.666504,4323.589844,4297.692383,4525.384766,4524.871582,4413.333496,4461.282227,5671.000000,2.000000,45.000000,,,,0.000000,4.000000,4.000000,4.000000,4.000000,4.000000,4.000000,4.000000,4.000000,4.000000,4.000000,4.000000,4.000000,4.000000,4.000000,100.000000,,,,,,,,,,,,,,,,,,,,,,,,,,,,,,,,,,,,,,,,,,,,,,,,,,,,,,,,,,,,,,,,,,,,,,,,,,,,,,,,,,,,,,,,,,,,,,,,,,,,,,,,,,,,,,,,,,,,,
1768292826.946244,1768292826.946746,114.000000,0.000000,4327.820313,4327.307617,4296.922852,4340.897461,4311.538574,4323.461426,4315.897461,4327.692383,4327.820313,4298.205078,4524.615234,4525.641113,4412.436035,4459.871582,4343.000000,2.000000,45.000000,,,,0.000000,4.000000,4.000000,4.000000,4.000000,4.000000,4.000000,4.000000,4.000000,4.000000,4.000000,4.000000,4.000000,4.000000,4.000000,100.000000,,,,,,,,,,,,,,,,,,,,,,,,,,,,,,,,,,,,,,,,,,,,,,,,,,,,,,,,,,,,,,,,,,,,,,,,,,,,,,,,,,,,,,,,,,,,,,,,,,,,,,,,,,,,,,,,,,,,,
1768292826.954052,1768292826.954554,115.000000,0.000000,4328.846191,4324.487305,4295.128418,4336.666504,4309.871582,4321.025879,4316.538574,4322.692383,4325.384766,4301.922852,4525.769043,4528.077148,4412.563965,4458.717773,4752.000000,2.000000,45.000000,,,,0.000000,4.000000,4.000000,4.000000,4.000000,4.000000,4.000000,4.000000,4.000000,4.000000,4.000000,4.000000,4.000000,4.000000,4.000000,100.000000,,,,,,,,,,,,,,,,,,,,,,,,,,,,,,,,,,,,,,,,,,,,,,,,,,,,,,,,,,,,,,,,,,,,,,,,,,,,,,,,,,,,,,,,,,,,,,,,,,,,,,,,,,,,,,,,,,,,,
1768292826.961861,1768292826.962163,116.000000,0.000000,4338.717773,4327.820313,4296.153809,4339.615234,4312.436035,4326.538574,4326.666504,4324.102539,4323.333496,4308.974121,4533.717773,4536.922852,4417.436035,4464.358887,4612.000000,2.000000,45.000000,,,,0.000000,4.000000,4.000000,4.000000,4.000000,4.000000,4.000000,4.000000,4.000000,4.000000,4.000000,4.000000,4.000000,4.000000,4.000000,100.000000,,,,,,,,,,,,,,,,,,,,,,,,,,,,,,,,,,,,,,,,,,,,,,,,,,,,,,,,,,,,,,,,,,,,,,,,,,,,,,,,,,,,,,,,,,,,,,,,,,,,,,,,,,,,,,,,,,,,,
1768292826.969669,1768292826.969971,117.000000,0.000000,4332.307617,4324.615234,4296.025879,4337.436035,4313.205078,4327.692383,4327.563965,4328.974121,4325.128418,4307.307617,4530.128418,4530.769043,4416.922852,4462.948730,5671.000000,2.000000,45.000000,,,,0.000000,4.000000,4.000000,4.000000,4.000000,4.000000,4.000000,4.000000,4.000000,4.000000,4.000000,4.000000,4.000000,4.000000,4.000000,100.000000,,,,,,,,,,,,,,,,,,,,,,,,,,,,,,,,,,,,,,,,,,,,,,,,,,,,,,,,,,,,,,,,,,,,,,,,,,,,,,,,,,,,,,,,,,,,,,,,,,,,,,,,,,,,,,,,,,,,,
1768292826.977477,1768292826.977680,118.000000,0.000000,4331.025879,4324.358887,4295.256348,4338.717773,4313.589844,4325.256348,4321.153809,4325.641113,4324.743652,4303.717773,4520.641113,4521.794922,4411.282227,4458.717773,4343.000000,2.000000,45.000000,,,,0.000000,4.000000,4.000000,4.000000,4.000000,4.000000,4.000000,4.000000,4.000000,4.000000,4.000000,4.000000,4.000000,4.000000,4.000000,100.000000,,,,,,,,,,,,,,,,,,,,,,,,,,,,,,,,,,,,,,,,,,,,,,,,,,,,,,,,,,,,,,,,,,,,,,,,,,,,,,,,,,,,,,,,,,,,,,,,,,,,,,,,,,,,,,,,,,,,,
1768292826.985286,1768292826.985488,119.000000,0.000000,4341.922852,4331.410156,4297.692383,4342.179688,4313.333496,4324.871582,4321.666504,4322.436035,4318.077148,4301.025879,4519.487305,4520.384766,4405.256348,4458.205078,4752.000000,2.000000,45.000000,,,,0.000000,4.000000,4.000000,4.000000,4.000000,4.000000,4.000000,4.000000,4.000000,4.000000,4.000000,4.000000,4.000000,4.000000,4.000000,100.000000,,,,,,,,,,,,,,,,,,,,,,,,,,,,,,,,,,,,,,,,,,,,,,,,,,,,,,,,,,,,,,,,,,,,,,,,,,,,,,,,,,,,,,,,,,,,,,,,,,,,,,,,,,,,,,,,,,,,,
1768292826.993094,1768292826.993497,120.000000,0.000000,4334.230957,4326.282227,4297.179688,4335.384766,4313.333496,4323.333496,4320.897461,4321.282227,4310.000000,4299.615234,4519.615234,4517.692383,4404.615234,4456.538574,4612.000000,2.000000,45.000000,,,,0.000000,4.000000,4.000000,4.000000,4.000000,4.000000,4.000000,4.000000,4.000000,4.000000,4.000000,4.000000,4.000000,4.000000,4.000000,100.000000,,,,,,,,,,,,,,,,,,,,,,,,,,,,,,,,,,,,,,,,,,,,,,,,,,,,,,,,,,,,,,,,,,,,,,,,,,,,,,,,,,,,,,,,,,,,,,,,,,,,,,,,,,,,,,,,,,,,,
1768292827.000903,1768292827.001305,121.000000,0.000000,4327.436035,4322.051270,4296.410156,4333.077148,4319.358887,4321.922852,4317.051270,4319.358887,4313.205078,4306.666504,4520.256348,4518.717773,4412.436035,4456.538574,5671.000000,2.000000,45.000000,,,,0.000000,4.000000,4.000000,4.000000,4.000000,4.000000,4.000000,4.000000,4.000000,4.000000,4.000000,4.000000,4.000000,4.000000,4.000000,100.000000,,,,,,,,,,,,,,,,,,,,,,,,,,,,,,,,,,,,,,,,,,,,,,,,,,,,,,,,,,,,,,,,,,,,,,,,,,,,,,,,,,,,,,,,,,,,,,,,,,,,,,,,,,,,,,,,,,,,,
1768292827.008711,1768292827.009213,122.000000,0.000000,4341.538574,4333.077148,4299.230957,4341.282227,4326.666504,4325.000000,4322.179688,4320.256348,4324.743652,4312.820313,4523.205078,4525.384766,4416.922852,4462.307617,4343.000000,2.000000,45.000000,,,,0.000000,4.000000,4.000000,4.000000,4.000000,4.000000,4.000000,4.000000,4.000000,4.000000,4.000000,4.000000,4.000000,4.000000,4.000000,100.000000,,,,,,,,,,,,,,,,,,,,,,,,,,,,,,,,,,,,,,,,,,,,,,,,,,,,,,,,,,,,,,,,,,,,,,,,,,,,,,,,,,,,,,,,,,,,,,,,,,,,,,,,,,,,,,,,,,,,,
1768292827.016519,1768292827.017022,123.000000,0.000000,4346.794922,4336.025879,4299.487305,4344.230957,4324.615234,4327.948730,4325.897461,4325.512695,4328.846191,4312.179688,4524.230957,4528.974121,4414.871582,4464.230957,4752.000000,2.000000,45.000000,,,,0.000000,4.000000,4.000000,4.000000,4.000000,4.000000,4.000000,4.000000,4.000000,4.000000,4.000000,4.000000,4.000000,4.000000,4.000000,100.000000,,,,,,,,,,,,,,,,,,,,,,,,,,,,,,,,,,,,,,,,,,,,,,,,,,,,,,,,,,,,,,,,,,,,,,,,,,,,,,,,,,,,,,,,,,,,,,,,,,,,,,,,,,,,,,,,,,,,,
1768292827.024328,1768292827.024631,124.000000,0.000000,4339.358887,4326.410156,4297.948730,4339.871582,4318.077148,4323.846191,4318.846191,4327.436035,4326.153809,4311.666504,4524.230957,4527.948730,4417.692383,4461.153809,4612.000000,2.000000,45.000000,,,,0.000000,4.000000,4.000000,4.000000,4.000000,4.000000,4.000000,4.000000,4.000000,4.000000,4.000000,4.000000,4.000000,4.000000,4.000000,100.000000,,,,,,,,,,,,,,,,,,,,,,,,,,,,,,,,,,,,,,,,,,,,,,,,,,,,,,,,,,,,,,,,,,,,,,,,,,,,,,,,,,,,,,,,,,,,,,,,,,,,,,,,,,,,,,,,,,,,,
1768292827.032136,1768292827.032439,125.000000,0.000000,4340.641113,4325.256348,4296.666504,4338.077148,4313.846191,4317.820313,4313.974121,4319.358887,4325.128418,4312.692383,4525.256348,4526.794922,4419.358887,4466.666504,5671.000000,2.000000,45.000000,,,,0.000000,4.000000,4.000000,4.000000,4.000000,4.000000,4.000000,4.000000,4.000000,4.000000,4.000000,4.000000,4.000000,4.000000,4.000000,100.000000,,,,,,,,,,,,,,,,,,,,,,,,,,,,,,,,,,,,,,,,,,,,,,,,,,,,,,,,,,,,,,,,,,,,,,,,,,,,,,,,,,,,,,,,,,,,,,,,,,,,,,,,,,,,,,,,,,,,,
1768292827.039945,1768292827.040148,126.000000,0.000000,4344.487305,4329.487305,4295.641113,4339.615234,4310.769043,4317.179688,4317.051270,4314.358887,4326.282227,4312.948730,4526.282227,4530.384766,4414.743652,4474.871582,4343.000000,2.000000,45.000000,,,,0.000000,4.000000,4.000000,4.000000,4.000000,4.000000,4.000000,4.000000,4.000000,4.000000,4.000000,4.000000,4.000000,4.000000,4.000000,100.000000,,,,,,,,,,,,,,,,,,,,,,,,,,,,,,,,,,,,,,,,,,,,,,,,,,,,,,,,,,,,,,,,,,,,,,,,,,,,,,,,,,,,,,,,,,,,,,,,,,,,,,,,,,,,,,,,,,,,,
1768292827.047753,1768292827.047956,127.000000,0.000000,4341.922852,4327.307617,4296.794922,4341.410156,4311.794922,4319.743652,4317.563965,4321.666504,4326.538574,4311.794922,4526.666504,4534.615234,4414.743652,4472.307617,45.000000,2.000000,45.000000,,,,0.000000,4.000000,4.000000,4.000000,4.000000,4.000000,4.000000,4.000000,4.000000,4.000000,4.000000,4.000000,4.000000,4.000000,4.000000,100.000000,,,,,,,,,,,,,,,,,,,,,,,,,,,,,,,,,,,,,,,,,,,,,,,,,,,,,,,,,,,,,,,,,,,,,,,,,,,,,,,,,,,,,,,,,,,,,,,,,,,,,,,,,,,,,,,,,,,,,
1768292827.055562,1768292827.055964,0.000000,0.000000,4338.077148,4323.589844,4298.717773,4340.769043,4317.436035,4322.051270,4321.153809,4329.358887,4327.307617,4312.307617,4526.666504,4534.615234,4419.102539,4471.025879,1885.000000,2.000000,45.000000,,,,0.000000,4.000000,4.000000,4.000000,4.000000,4.000000,4.000000,4.000000,4.000000,4.000000,4.000000,4.000000,4.000000,4.000000,4.000000,100.000000,,,,,,,,,,,,,,,,,,,,,,,,,,,,,,,,,,,,,,,,,,,,,,,,1.141089,0.556550,0.338194,0.349451,0.129521,1.221193,0.298540,0.342362,0.246888,0.095547,0.235192,0.133785,0.074578,0.103321,0.046712,0.654623,0.224264,0.340257,0.262158,0.132872,0.984129,0.276600,0.124046,0.079236,0.044695,0.048666,0.147021,0.069662,0.080927,0.082140,0.067485,0.391866,0.286659,0.189387,0.216477,0.481696,0.284127,0.159930,0.160028,0.093092,0.257011,0.296099,0.210590,0.147470,0.060373,0.916833,0.680881,0.267223,0.191236,0.131142,0.758515,0.525285,0.480165,0.200680,0.158899,0.685843,0.953504,0.508176,0.397949,0.147357,0.833134,0.571640,0.762318,0.223451,0.244702,0.729601,0.609113,0.509326,0.316764,0.239879
1768292827.063370,1768292827.063773,1.000000,0.000000,4340.128418,4325.897461,4298.589844,4342.820313,4319.487305,4325.769043,4329.487305,4328.846191,4327.563965,4312.820313,4526.794922,4537.563965,4419.487305,4475.000000,4013.000000,2.000000,45.000000,,,,0.000000,4.000000,4.000000,4.000000,4.000000,4.000000,4.000000,4.000000,4.000000,4.000000,4.000000,4.000000,4.000000,4.000000,4.000000,100.000000,,,,,,,,,,,,,,,,,,,,,,,,,,,,,,,,,,,,,,,,,,,,,,,,,,,,,,,,,,,,,,,,,,,,,,,,,,,,,,,,,,,,,,,,,,,,,,,,,,,,,,,,,,,,,,,,,,,,,
1768292827.071179,1768292827.071681,2.000000,0.000000,4341.282227,4325.000000,4296.666504,4341.794922,4313.205078,4324.358887,4326.410156,4325.512695,4323.333496,4309.743652,4525.512695,4537.179688,4415.128418,4466.666504,3977.000000,2.000000,45.000000,,,,0.000000,4.000000,4.000000,4.000000,4.000000,4.000000,4.000000,4.000000,4.000000,4.000000,4.000000,4.000000,4.000000,4.000000,4.000000,100.000000,,,,,,,,,,,,,,,,,,,,,,,,,,,,,,,,,,,,,,,,,,,,,,,,,,,,,,,,,,,,,,,,,,,,,,,,,,,,,,,,,,,,,,,,,,,,,,,,,,,,,,,,,,,,,,,,,,,,,
1768292827.078987,1768292827.079490,3.000000,0.000000,4335.128418,4316.282227,4294.102539,4331.666504,4309.358887,4319.487305,4317.436035,4324.487305,4321.410156,4306.666504,4523.589844,4529.487305,4411.666504,4456.025879,3894.000000,2.000000,45.000000,,,,0.000000,4.000000,4.000000,4.000000,4.000000,4.000000,4.000000,4.000000,4.000000,4.000000,4.000000,4.000000,4.000000,4.000000,4.000000,100.000000,,,,,,,,,,,,,,,,,,,,,,,,,,,,,,,,,,,,,,,,,,,,,,,,,,,,,,,,,,,,,,,,,,,,,,,,,,,,,,,,,,,,,,,,,,,,,,,,,,,,,,,,,,,,,,,,,,,,,
1768292827.086795,1768292827.087498,4.000000,0.000000,4333.205078,4315.000000,4295.512695,4328.461426,4312.563965,4322.820313,4322.051270,4328.333496,4325.256348,4310.641113,4524.358887,4531.410156,4412.692383,4465.128418,3737.000000,2.000000,45.000000,,,,0.000000,4.000000,4.000000,4.000000,4.000000,4.000000,4.000000,4.000000,4.000000,4.000000,4.000000,4.000000,4.000000,4.000000,4.000000,100.000000,,,,,,,,,,,,,,,,,,,,,,,,,,,,,,,,,,,,,,,,,,,,,,,,,,,,,,,,,,,,,,,,,,,,,,,,,,,,,,,,,,,,,,,,,,,,,,,,,,,,,,,,,,,,,,,,,,,,,
1768292827.094604,1768292827.095306,5.000000,0.000000,4338.589844,4318.333496,4301.410156,4334.358887,4313.205078,4328.333496,4333.589844,4331.922852,4327.436035,4313.717773,4526.922852,4540.897461,4415.128418,4476.922852,2763.000000,2.000000,45.000000,,,,0.000000,4.000000,4.000000,4.000000,4.000000,4.000000,4.000000,4.000000,4.000000,4.000000,4.000000,4.000000,4.000000,4.000000,4.000000,100.000000,,,,,,,,,,,,,,,,,,,,,,,,,,,,,,,,,,,,,,,,,,,,,,,,,,,,,,,,,,,,,,,,,,,,,,,,,,,,,,,,,,,,,,,,,,,,,,,,,,,,,,,,,,,,,,,,,,,,,
1768292827.102412,1768292827.103215,6.000000,0.000000,4339.871582,4313.077148,4300.000000,4336.282227,4311.153809,4327.692383,4331.538574,4328.333496,4326.666504,4310.641113,4525.512695,4539.487305,4413.589844,4475.256348,2563.000000,2.000000,45.000000,,,,0.000000,4.000000,4.000000,4.000000,4.000000,4.000000,4.000000,4.000000,4.000000,4.000000,4.000000,4.000000,4.000000,4.000000,4.000000,100.000000,,,,,,,,,,,,,,,,,,,,,,,,,,,,,,,,,,,,,,,,,,,,,,,,,,,,,,,,,,,,,,,,,,,,,,,,,,,,,,,,,,,,,,,,,,,,,,,,,,,,,,,,,,,,,,,,,,,,,
1768292827.110221,1768292827.111023,7.000000,0.000000,4338.846191,4313.589844,4296.410156,4335.128418,4314.871582,4324.358887,4321.538574,4330.512695,4327.820313,4310.128418,4524.230957,4536.666504,4411.538574,4473.077148,4054.000000,2.000000,45.000000,,,,0.000000,4.000000,4.000000,4.000000,4.000000,4.000000,4.000000,4.000000,4.000000,4.000000,4.000000,4.000000,4.000000,4.000000,4.000000,100.000000,,,,,,,,,,,,,,,,,,,,,,,,,,,,,,,,,,,,,,,,,,,,,,,,,,,,,,,,,,,,,,,,,,,,,,,,,,,,,,,,,,,,,,,,,,,,,,,,,,,,,,,,,,,,,,,,,,,,,
1768292827.118029,1768292827.118632,8.000000,0.000000,4341.666504,4321.538574,4302.436035,4338.077148,4320.256348,4325.897461,4322.820313,4338.846191,4328.974121,4312.307617,4524.871582,4538.461426,4409.358887,4471.025879,3288.000000,2.000000,45.000000,,,,0.000000,4.000000,4.000000,4.000000,4.000000,4.000000,4.000000,4.000000,4.000000,4.000000,4.000000,4.000000,4.000000,4.000000,4.000000,100.000000,,,,,,,,,,,,,,,,,,,,,,,,,,,,,,,,,,,,,,,,,,,,,,,,,,,,,,,,,,,,,,,,,,,,,,,,,,,,,,,,,,,,,,,,,,,,,,,,,,,,,,,,,,,,,,,,,,,,,
1768292827.125837,1768292827.126440,9.000000,0.000000,4343.461426,4321.153809,4308.461426,4341.025879,4320.256348,4329.487305,4331.025879,4336.153809,4328.333496,4312.948730,4524.102539,4539.487305,4408.717773,4469.358887,3841.000000,2.000000,45.000000,,,,0.000000,4.000000,4.000000,4.000000,4.000000,4.000000,4.000000,4.000000,4.000000,4.000000,4.000000,4.000000,4.000000,4.000000,4.000000,100.000000,,,,,,,,,,,,,,,,,,,,,,,,,,,,,,,,,,,,,,,,,,,,,,,,,,,,,,,,,,,,,,,,,,,,,,,,,,,,,,,,,,,,,,,,,,,,,,,,,,,,,,,,,,,,,,,,,,,,,
1768292827.133646,1768292827.134149,10.000000,0.000000,4341.666504,4318.846191,4307.692383,4341.282227,4320.641113,4327.307617,4330.256348,4332.692383,4328.205078,4312.051270,4523.461426,4540.000000,4409.487305,4472.948730,4343.000000,2.000000,45.000000,,,,0.000000,4.000000,4.000000,4.000000,4.000000,4.000000,4.000000,4.000000,4.000000,4.000000,4.000000,4.000000,4.000000,4.000000,4.000000,100.000000,,,,,,,,,,,,,,,,,,,,,,,,,,,,,,,,,,,,,,,,,,,,,,,,,,,,,,,,,,,,,,,,,,,,,,,,,,,,,,,,,,,,,,,,,,,,,,,,,,,,,,,,,,,,,,,,,,,,,
1768292827.141454,1768292827.141957,11.000000,0.000000,4342.307617,4323.077148,4308.077148,4344.487305,4323.589844,4325.256348,4326.153809,4336.538574,4326.410156,4310.256348,4523.589844,4540.128418,4406.025879,4474.230957,4752.000000,2.000000,45.000000,,,,0.000000,4.000000,4.000000,4.000000,4.000000,4.000000,4.000000,4.000000,4.000000,4.000000,4.000000,4.000000,4.000000,4.000000,4.000000,100.000000,,,,,,,,,,,,,,,,,,,,,,,,,,,,,,,,,,,,,,,,,,,,,,,,,,,,,,,,,,,,,,,,,,,,,,,,,,,,,,,,,,,,,,,,,,,,,,,,,,,,,,,,,,,,,,,,,,,,,
1768292827.149263,1768292827.149566,12.000000,0.000000,4351.153809,4324.487305,4312.692383,4348.333496,4324.743652,4328.461426,4327.563965,4332.820313,4324.871582,4310.384766,4523.974121,4546.025879,4406.794922,4473.717773,4612.000000,2.000000,45.000000,,,,0.000000,4.000000,4.000000,4.000000,4.000000,4.000000,4.000000,4.000000,4.000000,4.000000,4.000000,4.000000,4.000000,4.000000,4.000000,100.000000,,,,,,,,,,,,,,,,,,,,,,,,,,,,,,,,,,,,,,,,,,,,,,,,,,,,,,,,,,,,,,,,,,,,,,,,,,,,,,,,,,,,,,,,,,,,,,,,,,,,,,,,,,,,,,,,,,,,,
1768292827.157071,1768292827.157374,13.000000,0.000000,4357.563965,4324.230957,4312.307617,4347.436035,4322.820313,4329.743652,4328.717773,4324.358887,4324.743652,4311.666504,4523.461426,4552.179688,4409.743652,4477.051270,5671.000000,2.000000,45.000000,,,,0.000000,4.000000,4.000000,4.000000,4.000000,4.000000,4.000000,4.000000,4.000000,4.000000,4.000000,4.000000,4.000000,4.000000,4.000000,100.000000,,,,,,,,,,,,,,,,,,,,,,,,,,,,,,,,,,,,,,,,,,,,,,,,,,,,,,,,,,,,,,,,,,,,,,,,,,,,,,,,,,,,,,,,,,,,,,,,,,,,,,,,,,,,,,,,,,,,,
1768292827.164879,1768292827.165083,14.000000,0.000000,4352.692383,4325.512695,4304.487305,4342.179688,4322.692383,4327.563965,4328.974121,4325.512695,4324.487305,4311.153809,4521.922852,4545.256348,4404.743652,4476.538574,4343.000000,2.000000,45.000000,,,,0.000000,4.000000,4.000000,4.000000,4.000000,4.000000,4.000000,4.000000,4.000000,4.000000,4.000000,4.000000,4.000000,4.000000,4.000000,100.000000,,,,,,,,,,,,,,,,,,,,,,,,,,,,,,,,,,,,,,,,,,,,,,,,,,,,,,,,,,,,,,,,,,,,,,,,,,,,,,,,,,,,,,,,,,,,,,,,,,,,,,,,,,,,,,,,,,,,,
1768292827.172688,1768292827.172891,15.000000,0.000000,4350.641113,4325.000000,4304.743652,4341.410156,4325.000000,4327.179688,4329.615234,4328.333496,4325.384766,4310.769043,4521.922852,4536.794922,4400.000000,4473.077148,4752.000000,2.000000,45.000000,,,,0.000000,4.000000,4.000000,4.000000,4.000000,4.000000,4.000000,4.000000,4.000000,4.000000,4.000000,4.000000,4.000000,4.000000,4.000000,100.000000,,,,,,,,,,,,,,,,,,,,,,,,,,,,,,,,,,,,,,,,,,,,,,,,,,,,,,,,,,,,,,,,,,,,,,,,,,,,,,,,,,,,,,,,,,,,,,,,,,,,,,,,,,,,,,,,,,,,,
1768292827.180496,1768292827.180500,16.000000,0.000000,4350.641113,4323.461426,4310.256348,4341.794922,4324.743652,4326.666504,4328.589844,4327.692383,4325.769043,4311.794922,4522.820313,4538.974121,4404.487305,4472.051270,0.000000,2.000000,45.000000,,,,0.000000,4.000000,4.000000,4.000000,4.000000,4.000000,4.000000,4.000000,4.000000,4.000000,4.000000,4.000000,4.000000,4.000000,4.000000,100.000000,1.000000,75.000000,4.000000,4.000000,4.000000,4.000000,4.000000,1.000000,4.000000,4.000000,4.000000,4.000000,4.000000,4.000000,4.000000,4.000000,,,,,,,,,,,,,,,,,,,,,,,,,,,,,,,,1.186677,0.548626,0.390472,0.332629,0.125790,1.327066,0.304123,0.378745,0.243433,0.100500,0.229477,0.126442,0.076870,0.098365,0.051165,0.673554,0.232187,0.348360,0.251461,0.127491,0.839118,0.262829,0.113576,0.075148,0.046729,0.047014,0.112201,0.066086,0.077526,0.074336,0.062033,0.319505,0.269840,0.193851,0.232960,0.423411,0.226996,0.194091,0.159299,0.100376,0.219574,0.257798,0.224174,0.147289,0.061464,0.968994,0.632481,0.299749,0.193771,0.146114,0.788823,0.547203,0.496836,0.206216,0.167879,0.725067,0.901367,0.613527,0.385038,0.150358,0.763604,0.673048,0.872805,0.224511,0.251741,0.785825,0.533162,0.533083,0.305438,0.246517
1768292827.188305,1768292827.188308,17.000000,0.000000,4346.153809,4324.743652,4304.487305,4340.256348,4322.820313,4324.743652,4324.230957,4327.692383,4324.871582,4312.051270,4523.461426,4541.538574,4405.641113,4467.692383,0.000000,2.000000,45.000000,,,,0.000000,4.000000,4.000000,4.000000,4.000000,4.000000,4.000000,4.000000,4.000000,4.000000,4.000000,4.000000,4.000000,4.000000,4.000000,100.000000,,,,,,,,,,,,,,,,,,,,,,,,,,,,,,,,,,,,,,,,,,,,,,,,,,,,,,,,,,,,,,,,,,,,,,,,,,,,,,,,,,,,,,,,,,,,,,,,,,,,,,,,,,,,,,,,,,,,,
1768292827.196113,1768292827.196217,18.000000,0.000000,4340.128418,4322.692383,4297.692383,4339.358887,4323.589844,4325.384766,4322.692383,4327.179688,4325.256348,4310.641113,4520.384766,4536.410156,4398.589844,4460.384766,0.000000,2.000000,45.000000,,,,0.000000,4.000000,4.000000,4.000000,4.000000,4.000000,4.000000,4.000000,4.000000,4.000000,4.000000,4.000000,4.000000,4.000000,4.000000,100.000000,,,,,,,,,,,,,,,,,,,,,,,,,,,,,,,,,,,,,,,,,,,,,,,,,,,,,,,,,,,,,,,,,,,,,,,,,,,,,,,,,,,,,,,,,,,,,,,,,,,,,,,,,,,,,,,,,,,,,
1768292827.203922,1768292827.204025,19.000000,0.000000,4335.128418,4313.717773,4299.230957,4337.179688,4323.846191,4326.153809,4327.692383,4330.000000,4325.128418,4310.000000,4517.563965,4531.025879,4392.436035,4457.563965,0.000000,2.000000,45.000000,,,,0.000000,4.000000,4.000000,4.000000,4.000000,4.000000,4.000000,4.000000,4.000000,4.000000,4.000000,4.000000,4.000000,4.000000,4.000000,100.000000,,,,,,,,,,,,,,,,,,,,,,,,,,,,,,,,,,,,,,,,,,,,,,,,,,,,,,,,,,,,,,,,,,,,,,,,,,,,,,,,,,,,,,,,,,,,,,,,,,,,,,,,,,,,,,,,,,,,,
1768292827.211730,1768292827.212033,20.000000,0.000000,4336.666504,4313.717773,4302.563965,4336.666504,4321.282227,4325.384766,4327.563965,4338.974121,4328.077148,4318.717773,4524.230957,4535.897461,4399.615234,4464.487305,0.000000,2.000000,45.000000,,,,0.000000,4.000000,4.000000,4.000000,4.000000,4.000000,4.000000,4.000000,4.000000,4.000000,4.000000,4.000000,4.000000,4.000000,4.000000,100.000000,,,,,,,,,,,,,,,,,,,,,,,,,,,,,,,,,,,,,,,,,,,,,,,,,,,,,,,,,,,,,,,,,,,,,,,,,,,,,,,,,,,,,,,,,,,,,,,,,,,,,,,,,,,,,,,,,,,,,
1768292827.219539,1768292827.219842,21.000000,0.000000,4349.743652,4329.871582,4305.512695,4345.384766,4322.820313,4326.153809,4325.769043,4344.487305,4336.025879,4334.487305,4538.461426,4552.948730,4421.538574,4477.179688,0.000000,2.000000,45.000000,,,,0.000000,4.000000,4.000000,4.000000,4.000000,4.000000,4.000000,4.000000,4.000000,4.000000,4.000000,4.000000,4.000000,4.000000,4.000000,100.000000,,,,,,,,,,,,,,,,,,,,,,,,,,,,,,,,,,,,,,,,,,,,,,,,,,,,,,,,,,,,,,,,,,,,,,,,,,,,,,,,,,,,,,,,,,,,,,,,,,,,,,,,,,,,,,,,,,,,,
1768292827.227347,1768292827.227550,22.000000,0.000000,4357.563965,4338.974121,4306.025879,4355.384766,4330.897461,4328.077148,4331.538574,4342.948730,4336.282227,4338.846191,4544.871582,4561.025879,4428.974121,4482.563965,0.000000,2.000000,45.000000,,,,0.000000,4.000000,4.000000,4.000000,4.000000,4.000000,4.000000,4.000000,4.000000,4.000000,4.000000,4.000000,4.000000,4.000000,4.000000,100.000000,,,,,,,,,,,,,,,,,,,,,,,,,,,,,,,,,,,,,,,,,,,,,,,,,,,,,,,,,,,,,,,,,,,,,,,,,,,,,,,,,,,,,,,,,,,,,,,,,,,,,,,,,,,,,,,,,,,,,
1768292827.235155,1768292827.235359,23.000000,0.000000,4347.563965,4332.692383,4301.794922,4352.692383,4333.077148,4328.974121,4335.769043,4339.743652,4327.820313,4325.256348,4535.000000,4546.922852,4412.436035,4475.256348,0.000000,2.000000,45.000000,,,,0.000000,4.000000,4.000000,4.000000,4.000000,4.000000,4.000000,4.000000,4.000000,4.000000,4.000000,4.000000,4.000000,4.000000,4.000000,100.000000,,,,,,,,,,,,,,,,,,,,,,,,,,,,,,,,,,,,,,,,,,,,,,,,,,,,,,,,,,,,,,,,,,,,,,,,,,,,,,,,,,,,,,,,,,,,,,,,,,,,,,,,,,,,,,,,,,,,,
1768292827.242964,1768292827.242967,24.000000,0.000000,4340.384766,4327.692383,4299.871582,4343.205078,4327.179688,4326.666504,4329.871582,4332.948730,4322.436035,4311.794922,4523.461426,4535.641113,4404.615234,4466.282227,0.000000,2.000000,45.000000,,,,0.000000,4.000000,4.000000,4.000000,4.000000,4.000000,4.000000,4.000000,4.000000,4.000000,4.000000,4.000000,4.000000,4.000000,4.000000,100.000000,,,,,,,,,,,,,,,,,,,,,,,,,,,,,,,,,,,,,,,,,,,,,,,,,,,,,,,,,,,,,,,,,,,,,,,,,,,,,,,,,,,,,,,,,,,,,,,,,,,,,,,,,,,,,,,,,,,,,
1768292827.250772,1768292827.250776,25.000000,0.000000,4340.897461,4325.128418,4298.846191,4339.615234,4323.717773,4322.692383,4325.256348,4324.487305,4320.256348,4310.256348,4521.025879,4534.743652,4410.641113,4462.820313,0.000000,2.000000,45.000000,,,,0.000000,4.000000,4.000000,4.000000,4.000000,4.000000,4.000000,4.000000,4.000000,4.000000,4.000000,4.000000,4.000000,4.000000,4.000000,100.000000,,,,,,,,,,,,,,,,,,,,,,,,,,,,,,,,,,,,,,,,,,,,,,,,,,,,,,,,,,,,,,,,,,,,,,,,,,,,,,,,,,,,,,,,,,,,,,,,,,,,,,,,,,,,,,,,,,,,,
1768292827.258581,1768292827.258484,26.000000,0.000000,4337.692383,4322.436035,4294.230957,4341.282227,4325.000000,4321.282227,4322.436035,4324.743652,4318.461426,4311.538574,4521.922852,4528.589844,4407.948730,4460.256348,0.000000,2.000000,45.000000,,,,0.000000,4.000000,4.000000,4.000000,4.000000,4.000000,4.000000,4.000000,4.000000,4.000000,4.000000,4.000000,4.000000,4.000000,4.000000,100.000000,,,,,,,,,,,,,,,,,,,,,,,,,,,,,,,,,,,,,,,,,,,,,,,,,,,,,,,,,,,,,,,,,,,,,,,,,,,,,,,,,,,,,,,,,,,,,,,,,,,,,,,,,,,,,,,,,,,,,
1768292827.266389,1768292827.266293,27.000000,0.000000,4337.051270,4325.128418,4293.846191,4342.307617,4324.102539,4321.153809,4316.410156,4325.897461,4317.948730,4309.102539,4520.384766,4521.153809,4400.000000,4458.846191,0.000000,2.000000,45.000000,,,,0.000000,4.000000,4.000000,4.000000,4.000000,4.000000,4.000000,4.000000,4.000000,4.000000,4.000000,4.000000,4.000000,4.000000,4.000000,100.000000,,,,,,,,,,,,,,,,,,,,,,,,,,,,,,,,,,,,,,,,,,,,,,,,,,,,,,,,,,,,,,,,,,,,,,,,,,,,,,,,,,,,,,,,,,,,,,,,,,,,,,,,,,,,,,,,,,,,,
1768292827.274197,1768292827.274301,28.000000,0.000000,4341.794922,4327.820313,4296.153809,4342.051270,4323.589844,4318.461426,4317.692383,4320.897461,4315.897461,4307.436035,4516.025879,4521.025879,4397.436035,4457.692383,0.000000,2.000000,45.000000,,,,0.000000,4.000000,4.000000,4.000000,4.000000,4.000000,4.000000,4.000000,4.000000,4.000000,4.000000,4.000000,4.000000,4.000000,4.000000,100.000000,,,,,,,,,,,,,,,,,,,,,,,,,,,,,,,,,,,,,,,,,,,,,,,,,,,,,,,,,,,,,,,,,,,,,,,,,,,,,,,,,,,,,,,,,,,,,,,,,,,,,,,,,,,,,,,,,,,,,
1768292827.282006,1768292827.282110,29.000000,0.000000,4343.589844,4327.436035,4297.692383,4344.743652,4326.794922,4318.461426,4321.025879,4321.794922,4318.974121,4309.487305,4518.077148,4523.974121,4400.256348,4459.358887,0.000000,2.000000,45.000000,,,,0.000000,4.000000,4.000000,4.000000,4.000000,4.000000,4.000000,4.000000,4.000000,4.000000,4.000000,4.000000,4.000000,4.000000,4.000000,100.000000,,,,,,,,,,,,,,,,,,,,,,,,,,,,,,,,,,,,,,,,,,,,,,,,,,,,,,,,,,,,,,,,,,,,,,,,,,,,,,,,,,,,,,,,,,,,,,,,,,,,,,,,,,,,,,,,,,,,,
1768292827.289814,1768292827.290018,30.000000,0.000000,4340.256348,4327.436035,4297.948730,4342.692383,4327.179688,4323.333496,4320.128418,4327.051270,4327.179688,4310.512695,4523.974121,4525.897461,4408.333496,4462.692383,0.000000,2.000000,45.000000,,,,0.000000,4.000000,4.000000,4.000000,4.000000,4.000000,4.000000,4.000000,4.000000,4.000000,4.000000,4.000000,4.000000,4.000000,4.000000,100.000000,,,,,,,,,,,,,,,,,,,,,,,,,,,,,,,,,,,,,,,,,,,,,,,,,,,,,,,,,,,,,,,,,,,,,,,,,,,,,,,,,,,,,,,,,,,,,,,,,,,,,,,,,,,,,,,,,,,,,
1768292827.297623,1768292827.297826,31.000000,0.000000,4339.102539,4324.230957,4293.589844,4332.179688,4323.461426,4318.974121,4316.794922,4323.461426,4321.666504,4308.333496,4520.641113,4524.230957,4408.589844,4461.538574,0.000000,2.000000,45.000000,,,,0.000000,4.000000,4.000000,4.000000,4.000000,4.000000,4.000000,4.000000,4.000000,4.000000,4.000000,4.000000,4.000000,4.000000,4.000000,100.000000,,,,,,,,,,,,,,,,,,,,,,,,,,,,,,,,,,,,,,,,,,,,,,,,,,,,,,,,,,,,,,,,,,,,,,,,,,,,,,,,,,,,,,,,,,,,,,,,,,,,,,,,,,,,,,,,,,,,,
1768292827.305431,1768292827.305835,32.000000,0.000000,4340.128418,4320.256348,4293.589844,4325.000000,4322.307617,4309.871582,4317.820313,4320.000000,4312.051270,4308.461426,4514.871582,4519.743652,4400.512695,4459.102539,0.000000,2.000000,45.000000,,,,0.000000,4.000000,4.000000,4.000000,4.000000,4.000000,4.000000,4.000000,4.000000,4.000000,4.000000,4.000000,4.000000,4.000000,4.000000,100.000000,,,,,,,,,,,,,,,,,,,,,,,,,,,,,,,,,,,,,,,,,,,,,,,,1.161006,0.535359,0.448681,0.306609,0.124250,1.378211,0.298174,0.398983,0.237253,0.108902,0.224941,0.110091,0.077313,0.088886,0.055270,0.646240,0.241884,0.337142,0.227311,0.121732,0.676609,0.235025,0.107201,0.068597,0.047610,0.044381,0.092801,0.059075,0.072824,0.066653,0.060658,0.281084,0.231039,0.186134,0.240238,0.371970,0.207221,0.225517,0.154011,0.108107,0.204851,0.236299,0.237404,0.138065,0.064017,0.981865,0.637679,0.348246,0.206999,0.161788,0.882434,0.567614,0.492864,0.216038,0.172881,0.820453,0.875864,0.703006,0.382585,0.162540,0.681768,0.775403,0.928330,0.249357,0.250337,0.899921,0.483206,0.532987,0.299036,0.249022
1768292827.313239,1768292827.313643,33.000000,0.000000,4341.666504,4322.307617,4296.666504,4327.436035,4323.589844,4316.410156,4324.102539,4324.487305,4319.102539,4309.102539,4513.333496,4520.128418,4397.436035,4458.717773,0.000000,2.000000,45.000000,,,,0.000000,4.000000,4.000000,4.000000,4.000000,4.000000,4.000000,4.000000,4.000000,4.000000,4.000000,4.000000,4.000000,4.000000,4.000000,100.000000,,,,,,,,,,,,,,,,,,,,,,,,,,,,,,,,,,,,,,,,,,,,,,,,,,,,,,,,,,,,,,,,,,,,,,,,,,,,,,,,,,,,,,,,,,,,,,,,,,,,,,,,,,,,,,,,,,,,,
1768292827.321048,1768292827.321551,34.000000,0.000000,4341.153809,4317.692383,4295.769043,4327.179688,4322.436035,4327.436035,4325.512695,4327.051270,4327.948730,4308.717773,4513.205078,4524.230957,4397.563965,4458.846191,0.000000,2.000000,45.000000,,,,0.000000,4.000000,4.000000,4.000000,4.000000,4.000000,4.000000,4.000000,4.000000,4.000000,4.000000,4.000000,4.000000,4.000000,4.000000,100.000000,,,,,,,,,,,,,,,,,,,,,,,,,,,,,,,,,,,,,,,,,,,,,,,,,,,,,,,,,,,,,,,,,,,,,,,,,,,,,,,,,,,,,,,,,,,,,,,,,,,,,,,,,,,,,,,,,,,,,
1768292827.328856,1768292827.329360,35.000000,0.000000,4338.846191,4309.487305,4293.589844,4325.000000,4319.615234,4324.615234,4321.666504,4324.230957,4319.358887,4309.230957,4514.102539,4525.256348,4400.384766,4461.153809,0.000000,2.000000,45.000000,,,,0.000000,4.000000,4.000000,4.000000,4.000000,4.000000,4.000000,4.000000,4.000000,4.000000,4.000000,4.000000,4.000000,4.000000,4.000000,100.000000,,,,,,,,,,,,,,,,,,,,,,,,,,,,,,,,,,,,,,,,,,,,,,,,,,,,,,,,,,,,,,,,,,,,,,,,,,,,,,,,,,,,,,,,,,,,,,,,,,,,,,,,,,,,,,,,,,,,,
1768292827.336665,1768292827.336968,36.000000,0.000000,4338.846191,4316.153809,4295.128418,4329.358887,4320.256348,4317.051270,4318.846191,4321.922852,4308.461426,4306.410156,4512.436035,4523.589844,4402.820313,4464.358887,0.000000,2.000000,45.000000,,,,0.000000,4.000000,4.000000,4.000000,4.000000,4.000000,4.000000,4.000000,4.000000,4.000000,4.000000,4.000000,4.000000,4.000000,4.000000,100.000000,,,,,,,,,,,,,,,,,,,,,,,,,,,,,,,,,,,,,,,,,,,,,,,,,,,,,,,,,,,,,,,,,,,,,,,,,,,,,,,,,,,,,,,,,,,,,,,,,,,,,,,,,,,,,,,,,,,,,
1768292827.344473,1768292827.344777,37.000000,0.000000,4339.230957,4324.487305,4296.794922,4335.128418,4323.333496,4318.077148,4324.230957,4324.487305,4314.230957,4298.589844,4509.871582,4522.179688,4398.461426,4463.461426,0.000000,2.000000,45.000000,,,,0.000000,4.000000,4.000000,4.000000,4.000000,4.000000,4.000000,4.000000,4.000000,4.000000,4.000000,4.000000,4.000000,4.000000,4.000000,100.000000,,,,,,,,,,,,,,,,,,,,,,,,,,,,,,,,,,,,,,,,,,,,,,,,,,,,,,,,,,,,,,,,,,,,,,,,,,,,,,,,,,,,,,,,,,,,,,,,,,,,,,,,,,,,,,,,,,,,,
