Timestamp,OriginalTimestamp,EEG.Counter,EEG.Interpolated,EEG.AF3,EEG.F7,EEG.F3,EEG.FC5,EEG.T7,EEG.P7,EEG.O1,EEG.O2,EEG.P8,EEG.T8,EEG.FC6,EEG.F4,EEG.F8,EEG.AF4,POW.AF3.Theta,POW.AF3.Alpha,POW.AF3.BetaL,POW.AF3.BetaH,POW.AF3.Gamma,POW.F7.Theta,POW.F7.Alpha,POW.F7.BetaL,POW.F7.BetaH,POW.F7.Gamma,POW.F3.Theta,POW.F3.Alpha,POW.F3.BetaL,POW.F3.BetaH,POW.F3.Gamma,POW.FC5.Theta,POW.FC5.Alpha,POW.FC5.BetaL,POW.FC5.BetaH,POW.FC5.Gamma,POW.T7.Theta,POW.T7.Alpha,POW.T7.BetaL,POW.T7.BetaH,POW.T7.Gamma,POW.P7.Theta,POW.P7.Alpha,POW.P7.BetaL,POW.P7.BetaH,POW.P7.Gamma,POW.O1.Theta,POW.O1.Alpha,POW.O1.BetaL,POW.O1.BetaH,POW.O1.Gamma,POW.O2.Theta,POW.O2.Alpha,POW.O2.BetaL,POW.O2.BetaH,POW.O2.Gamma,POW.P8.Theta,POW.P8.Alpha,POW.P8.BetaL,POW.P8.BetaH,POW.P8.Gamma,POW.T8.Theta,POW.T8.Alpha,POW.T8.BetaL,POW.T8.BetaH,POW.T8.Gamma,POW.FC6.Theta,POW.FC6.Alpha,POW.FC6.BetaL,POW.FC6.BetaH,POW.FC6.Gamma,POW.F4.Theta,POW.F4.Alpha,POW.F4.BetaL,POW.F4.BetaH,POW.F4.Gamma,POW.F8.Theta,POW.F8.Alpha,POW.F8.BetaL,POW.F8.BetaH,POW.F8.Gamma,POW.AF4.Theta,POW.AF4.Alpha,POW.AF4.BetaL,POW.AF4.BetaH,POW.AF4.Gamma
1768918253.039541,1768918253.040173,79.0,0.0,4317.692383,4296.025879,4324.102539,4323.717773,4253.333496,4282.05127,4293.461426,4286.794922,4246.410156,4277.179688,4487.563965,4501.282227,4380.512695,4552.307617,,,,,,,,,,,,,,,,,,,,,,,,,,,,,,,,,,,,,,,,,,,,,,,,,,,,,,,,,,,,,,,,,,,,,,
1768918253.04735,1768918253.048181,80.0,0.0,4322.436035,4300.897461,4324.487305,4326.538574,4256.025879,4278.205078,4290.769043,4292.05127,4255.384766,4280.769043,4488.717773,4505.897461,4381.666504,4555.128418,0.649753,0.266061,0.38028,0.24091,0.114319,0.364556,0.248497,0.320846,0.215686,0.107665,0.545745,0.266862,0.224603,0.290168,0.13762,0.366226,0.379714,0.312041,0.26856,0.111604,0.270676,0.069315,0.299843,0.127844,0.192842,0.308139,0.156195,0.347458,0.336621,0.31097,0.337366,0.310798,0.633357,0.578556,0.647889,3.606441,1.321735,0.783796,0.69336,0.298342,0.413836,0.311736,0.229157,0.289527,0.160503,0.47253,0.249137,0.393132,0.329829,0.134583,0.325924,0.388849,0.282251,0.530135,0.241873,0.431242,0.336629,0.224881,0.787737,0.249423,0.517551,0.472298,0.396913,0.394092,0.253848,1.090348,0.658237,0.365599,0.757553,0.261869
1768918253.055158,1768918253.055989,81.0,0.0,4323.717773,4302.692383,4328.461426,4328.846191,4258.077148,4281.922852,4301.410156,4297.307617,4264.743652,4287.563965,4496.025879,4522.307617,4386.153809,4556.153809,,,,,,,,,,,,,,,,,,,,,,,,,,,,,,,,,,,,,,,,,,,,,,,,,,,,,,,,,,,,,,,,,,,,,,
1768918253.062967,1768918253.063896,82.0,0.0,4319.743652,4297.692383,4328.077148,4326.410156,4264.102539,4284.487305,4302.307617,4294.615234,4262.94873,4285.641113,4496.666504,4523.589844,4388.205078,4555.769043,,,,,,,,,,,,,,,,,,,,,,,,,,,,,,,,,,,,,,,,,,,,,,,,,,,,,,,,,,,,,,,,,,,,,,
1768918253.070775,1768918253.071704,83.0,0.0,4317.307617,4294.102539,4324.102539,4323.333496,4264.102539,4281.538574,4293.846191,4290.769043,4258.846191,4279.230957,4491.153809,4510.641113,4385.256348,4555.512695,,,,,,,,,,,,,,,,,,,,,,,,,,,,,,,,,,,,,,,,,,,,,,,,,,,,,,,,,,,,,,,,,,,,,,
1768918253.078584,1768918253.079711,84.0,0.0,4322.05127,4298.205078,4329.358887,4325.128418,4257.820313,4280.0,4296.410156,4293.461426,4262.179688,4280.769043,4490.128418,4510.512695,4383.333496,4556.153809,,,,,,,,,,,,,,,,,,,,,,,,,,,,,,,,,,,,,,,,,,,,,,,,,,,,,,,,,,,,,,,,,,,,,,
1768918253.086392,1768918253.087519,85.0,0.0,4324.743652,4301.410156,4336.025879,4325.897461,4260.0,4286.410156,4309.230957,4298.846191,4268.077148,4286.794922,4492.179688,4519.743652,4386.153809,4554.871582,,,,,,,,,,,,,,,,,,,,,,,,,,,,,,,,,,,,,,,,,,,,,,,,,,,,,,,,,,,,,,,,,,,,,,
1768918253.094201,1768918253.095427,86.0,0.0,4320.0,4301.153809,4331.025879,4323.974121,4261.025879,4293.461426,4313.589844,4299.871582,4267.307617,4291.410156,4492.94873,4518.717773,4392.692383,4558.077148,,,,,,,,,,,,,,,,,,,,,,,,,,,,,,,,,,,,,,,,,,,,,,,,,,,,,,,,,,,,,,,,,,,,,,
1768918253.102009,1768918253.103235,87.0,0.0,4320.0,4305.384766,4324.358887,4323.974121,4258.717773,4290.897461,4302.692383,4295.384766,4265.128418,4294.487305,4498.205078,4516.153809,4397.436035,4561.538574,,,,,,,,,,,,,,,,,,,,,,,,,,,,,,,,,,,,,,,,,,,,,,,,,,,,,,,,,,,,,,,,,,,,,,
1768918253.109818,1768918253.110843,88.0,0.0,4325.769043,4309.615234,4329.487305,4326.282227,4264.230957,4284.871582,4295.512695,4293.333496,4263.461426,4294.230957,4503.717773,4519.743652,4396.794922,4559.230957,,,,,,,,,,,,,,,,,,,,,,,,,,,,,,,,,,,,,,,,,,,,,,,,,,,,,,,,,,,,,,,,,,,,,,
1768918253.117626,1768918253.118651,89.0,0.0,4327.436035,4308.461426,4338.333496,4330.641113,4265.128418,4284.102539,4299.230957,4302.307617,4266.153809,4293.846191,4504.487305,4525.384766,4396.794922,4563.717773,,,,,,,,,,,,,,,,,,,,,,,,,,,,,,,,,,,,,,,,,,,,,,,,,,,,,,,,,,,,,,,,,,,,,,
1768918253.125435,1768918253.126359,90.0,0.0,4326.666504,4304.871582,4336.025879,4332.05127,4256.025879,4280.128418,4296.922852,4308.717773,4272.94873,4296.282227,4505.897461,4531.794922,4397.179688,4570.897461,,,,,,,,,,,,,,,,,,,,,,,,,,,,,,,,,,,,,,,,,,,,,,,,,,,,,,,,,,,,,,,,,,,,,,
1768918253.133243,1768918253.134166,91.0,0.0,4325.128418,4306.410156,4328.846191,4327.692383,4256.025879,4275.769043,4289.487305,4305.512695,4274.487305,4297.820313,4510.128418,4530.0,4395.384766,4570.641113,,,,,,,,,,,,,,,,,,,,,,,,,,,,,,,,,,,,,,,,,,,,,,,,,,,,,,,,,,,,,,,,,,,,,,
1768918253.141052,1768918253.141774,92.0,0.0,4325.0,4308.717773,4330.769043,4324.487305,4263.974121,4283.077148,4294.743652,4299.615234,4271.410156,4296.922852,4509.487305,4522.179688,4396.794922,4564.871582,,,,,,,,,,,,,,,,,,,,,,,,,,,,,,,,,,,,,,,,,,,,,,,,,,,,,,,,,,,,,,,,,,,,,,
1768918253.14886,1768918253.149582,93.0,0.0,4326.922852,4307.820313,4340.384766,4329.102539,4265.641113,4297.179688,4308.077148,4301.025879,4270.384766,4295.384766,4501.410156,4524.743652,4398.717773,4559.615234,,,,,,,,,,,,,,,,,,,,,,,,,,,,,,,,,,,,,,,,,,,,,,,,,,,,,,,,,,,,,,,,,,,,,,
1768918253.156669,1768918253.15729,94.0,0.0,4327.436035,4308.589844,4345.128418,4331.538574,4265.512695,4298.333496,4308.461426,4304.871582,4273.461426,4295.512695,4499.743652,4526.153809,4394.102539,4559.487305,,,,,,,,,,,,,,,,,,,,,,,,,,,,,,,,,,,,,,,,,,,,,,,,,,,,,,,,,,,,,,,,,,,,,,
1768918253.164477,1768918253.165098,95.0,0.0,4328.205078,4309.871582,4340.256348,4327.05127,4265.897461,4286.282227,4297.692383,4299.102539,4270.769043,4296.794922,4504.743652,4520.512695,4394.230957,4560.0,,,,,,,,,,,,,,,,,,,,,,,,,,,,,,,,,,,,,,,,,,,,,,,,,,,,,,,,,,,,,,,,,,,,,,
1768918253.172286,1768918253.173105,96.0,0.0,4329.871582,4308.333496,4336.025879,4324.743652,4261.025879,4285.384766,4301.538574,4301.922852,4270.256348,4296.666504,4509.230957,4528.205078,4397.820313,4559.615234,0.55304,0.27826,0.351933,0.217157,0.118346,0.319931,0.242874,0.288476,0.210886,0.109563,0.521753,0.300611,0.189078,0.277958,0.147146,0.359759,0.410262,0.301299,0.25554,0.117003,0.365164,0.06111,0.293983,0.141093,0.197111,0.326837,0.122051,0.348071,0.340596,0.320474,0.343014,0.273296,0.627764,0.591023,0.67172,3.774917,1.316119,0.795752,0.686899,0.312673,0.470826,0.251784,0.186312,0.300484,0.156903,0.505131,0.251652,0.370078,0.318736,0.141584,0.408627,0.317924,0.265611,0.499192,0.285367,0.530627,0.334188,0.25042,0.777191,0.273677,0.536424,0.455885,0.411935,0.382773,0.280825,0.880182,0.540312,0.299563,0.700344,0.301611
1768918253.180094,1768918253.180913,97.0,0.0,4328.333496,4305.897461,4338.333496,4325.897461,4258.461426,4295.0,4312.563965,4310.384766,4272.563965,4293.846191,4503.589844,4536.153809,4392.692383,4558.205078,,,,,,,,,,,,,,,,,,,,,,,,,,,,,,,,,,,,,,,,,,,,,,,,,,,,,,,,,,,,,,,,,,,,,,
1768918253.187903,1768918253.18882,98.0,0.0,4326.410156,4307.94873,4338.077148,4326.794922,4266.282227,4292.436035,4302.94873,4300.384766,4267.436035,4292.179688,4492.179688,4525.384766,4387.179688,4555.641113,,,,,,,,,,,,,,,,,,,,,,,,,,,,,,,,,,,,,,,,,,,,,,,,,,,,,,,,,,,,,,,,,,,,,,
1768918253.195711,1768918253.196628,99.0,0.0,4326.410156,4310.384766,4329.358887,4323.974121,4264.358887,4280.512695,4288.717773,4291.538574,4267.05127,4293.717773,4494.358887,4518.846191,4393.461426,4552.563965,,,,,,,,,,,,,,,,,,,,,,,,,,,,,,,,,,,,,,,,,,,,,,,,,,,,,,,,,,,,,,,,,,,,,,
1768918253.20352,1768918253.204636,100.0,0.0,4325.384766,4306.538574,4322.820313,4322.179688,4253.717773,4279.102539,4294.102539,4300.512695,4269.487305,4294.743652,4505.897461,4527.820313,4405.0,4556.922852,,,,,,,,,,,,,,,,,,,,,,,,,,,,,,,,,,,,,,,,,,,,,,,,,,,,,,,,,,,,,,,,,,,,,,
1768918253.211328,1768918253.212443,101.0,0.0,4324.743652,4303.589844,4329.102539,4325.128418,4256.666504,4281.538574,4297.820313,4302.563965,4266.025879,4294.487305,4507.692383,4532.05127,4411.410156,4566.410156,,,,,,,,,,,,,,,,,,,,,,,,,,,,,,,,,,,,,,,,,,,,,,,,,,,,,,,,,,,,,,,,,,,,,,
1768918253.219137,1768918253.220151,102.0,0.0,4325.256348,4306.025879,4338.846191,4328.717773,4261.666504,4278.589844,4290.512695,4295.897461,4267.94873,4296.538574,4504.230957,4530.256348,4412.05127,4570.641113,,,,,,,,,,,,,,,,,,,,,,,,,,,,,,,,,,,,,,,,,,,,,,,,,,,,,,,,,,,,,,,,,,,,,,
1768918253.226946,1768918253.227958,103.0,0.0,4326.794922,4305.512695,4338.589844,4328.974121,4250.256348,4281.666504,4294.230957,4306.282227,4277.820313,4298.717773,4503.461426,4532.307617,4410.769043,4565.256348,,,,,,,,,,,,,,,,,,,,,,,,,,,,,,,,,,,,,,,,,,,,,,,,,,,,,,,,,,,,,,,,,,,,,,
1768918253.234754,1768918253.235966,104.0,0.0,4327.05127,4304.230957,4332.05127,4326.794922,4246.153809,4283.461426,4298.077148,4308.589844,4270.384766,4293.717773,4496.282227,4524.871582,4411.153809,4556.025879,,,,,,,,,,,,,,,,,,,,,,,,,,,,,,,,,,,,,,,,,,,,,,,,,,,,,,,,,,,,,,,,,,,,,,
1768918253.242562,1768918253.243774,105.0,0.0,4325.0,4304.743652,4332.179688,4326.025879,4258.461426,4280.897461,4295.128418,4293.717773,4256.922852,4290.0,4489.102539,4517.563965,4411.538574,4557.692383,,,,,,,,,,,,,,,,,,,,,,,,,,,,,,,,,,,,,,,,,,,,,,,,,,,,,,,,,,,,,,,,,,,,,,
1768918253.250371,1768918253.251681,106.0,0.0,4325.128418,4299.743652,4338.974121,4325.512695,4257.94873,4282.179688,4295.128418,4295.641113,4264.871582,4294.358887,4495.512695,4530.128418,4411.410156,4567.563965,,,,,,,,,,,,,,,,,,,,,,,,,,,,,,,,,,,,,,,,,,,,,,,,,,,,,,,,,,,,,,,,,,,,,,
1768918253.25818,1768918253.259489,107.0,0.0,4327.820313,4297.307617,4340.384766,4323.717773,4249.615234,4284.487305,4296.410156,4309.487305,4271.794922,4297.179688,4502.05127,4540.384766,4413.333496,4566.538574,,,,,,,,,,,,,,,,,,,,,,,,,,,,,,,,,,,,,,,,,,,,,,,,,,,,,,,,,,,,,,,,,,,,,,
1768918253.265988,1768918253.267097,108.0,0.0,4327.94873,4305.769043,4337.179688,4323.205078,4253.205078,4280.384766,4297.179688,4306.282227,4265.128418,4295.897461,4497.94873,4530.384766,4415.512695,4557.692383,,,,,,,,,,,,,,,,,,,,,,,,,,,,,,,,,,,,,,,,,,,,,,,,,,,,,,,,,,,,,,,,,,,,,,
1768918253.273796,1768918253.274905,109.0,0.0,4325.641113,4308.461426,4334.230957,4321.025879,4254.871582,4277.820313,4293.205078,4293.205078,4262.307617,4293.717773,4488.589844,4518.333496,4413.333496,4552.307617,,,,,,,,,,,,,,,,,,,,,,,,,,,,,,,,,,,,,,,,,,,,,,,,,,,,,,,,,,,,,,,,,,,,,,
1768918253.281605,1768918253.282613,110.0,0.0,4325.641113,4302.436035,4335.769043,4317.563965,4249.358887,4283.589844,4295.641113,4297.94873,4270.512695,4293.205078,4490.769043,4522.179688,4407.307617,4550.512695,,,,,,,,,,,,,,,,,,,,,,,,,,,,,,,,,,,,,,,,,,,,,,,,,,,,,,,,,,,,,,,,,,,,,,
1768918253.289414,1768918253.29042,111.0,0.0,4326.538574,4301.922852,4339.358887,4321.410156,4247.307617,4286.538574,4307.05127,4312.05127,4278.974121,4298.717773,4505.769043,4538.333496,4413.717773,4554.358887,,,,,,,,,,,,,,,,,,,,,,,,,,,,,,,,,,,,,,,,,,,,,,,,,,,,,,,,,,,,,,,,,,,,,,
1768918253.297222,1768918253.298428,112.0,0.0,4326.282227,4302.05127,4335.769043,4326.025879,4252.563965,4281.025879,4303.846191,4311.025879,4278.846191,4304.230957,4511.794922,4541.794922,4427.05127,4556.794922,0.497446,0.306765,0.326468,0.19092,0.126735,0.285125,0.256621,0.254632,0.202835,0.109056,0.539385,0.332962,0.180565,0.256189,0.158185,0.345674,0.417249,0.284229,0.228065,0.117906,0.487956,0.056136,0.267186,0.154118,0.196398,0.3168,0.096943,0.324975,0.319694,0.315399,0.333977,0.254579,0.579001,0.570524,0.68684,3.387261,1.191949,0.741714,0.623755,0.332681,0.52152,0.192149,0.150092,0.294693,0.150735,0.519614,0.245814,0.317142,0.289341,0.145019,0.518386,0.264672,0.245551,0.457992,0.341998,0.671644,0.341317,0.315618,0.732974,0.33572,0.538983,0.421215,0.40943,0.355049,0.294494,0.716577,0.447,0.272262,0.624001,0.346274
1768918253.30503,1768918253.306236,113.0,0.0,4323.205078,4297.179688,4326.794922,4322.436035,4256.794922,4278.974121,4293.589844,4307.307617,4278.077148,4299.358887,4506.922852,4530.512695,4425.128418,4555.128418,,,,,,,,,,,,,,,,,,,,,,,,,,,,,,,,,,,,,,,,,,,,,,,,,,,,,,,,,,,,,,,,,,,,,,
1768918253.312839,1768918253.313944,114.0,0.0,4319.871582,4294.487305,4322.94873,4316.410156,4260.0,4284.871582,4299.871582,4314.102539,4279.230957,4296.410156,4505.641113,4527.179688,4415.641113,4554.743652,,,,,,,,,,,,,,,,,,,,,,,,,,,,,,,,,,,,,,,,,,,,,,,,,,,,,,,,,,,,,,,,,,,,,,
1768918253.320647,1768918253.321752,115.0,0.0,4321.538574,4295.384766,4326.410156,4314.358887,4261.538574,4290.384766,4309.102539,4316.794922,4280.128418,4304.102539,4507.94873,4535.0,4421.666504,4553.974121,,,,,,,,,,,,,,,,,,,,,,,,,,,,,,,,,,,,,,,,,,,,,,,,,,,,,,,,,,,,,,,,,,,,,,
1768918253.328456,1768918253.32936,116.0,0.0,4320.897461,4297.436035,4327.05127,4311.025879,4258.846191,4290.0,4309.743652,4315.256348,4285.384766,4310.256348,4510.384766,4539.487305,4430.384766,4555.897461,,,,,,,,,,,,,,,,,,,,,,,,,,,,,,,,,,,,,,,,,,,,,,,,,,,,,,,,,,,,,,,,,,,,,,
1768918253.336264,1768918253.337167,117.0,0.0,4312.94873,4296.922852,4326.025879,4311.282227,4259.102539,4291.666504,4309.871582,4315.641113,4287.692383,4311.282227,4510.256348,4536.153809,4422.563965,4552.692383,,,,,,,,,,,,,,,,,,,,,,,,,,,,,,,,,,,,,,,,,,,,,,,,,,,,,,,,,,,,,,,,,,,,,,
1768918253.344073,1768918253.344875,118.0,0.0,4312.05127,4296.153809,4326.666504,4318.461426,4263.717773,4292.563965,4306.794922,4313.333496,4281.025879,4307.820313,4503.846191,4526.538574,4411.794922,4542.307617,,,,,,,,,,,,,,,,,,,,,,,,,,,,,,,,,,,,,,,,,,,,,,,,,,,,,,,,,,,,,,,,,,,,,,
1768918253.351881,1768918253.352683,119.0,0.0,4322.820313,4297.179688,4327.94873,4319.743652,4265.897461,4288.974121,4304.102539,4309.102539,4276.410156,4298.333496,4499.743652,4521.153809,4410.641113,4541.666504,,,,,,,,,,,,,,,,,,,,,,,,,,,,,,,,,,,,,,,,,,,,,,,,,,,,,,,,,,,,,,,,,,,,,,
1768918253.35969,1768918253.360691,120.0,0.0,4325.512695,4294.487305,4330.128418,4314.871582,4263.077148,4290.0,4310.512695,4306.282227,4278.205078,4296.153809,4503.846191,4529.871582,4413.717773,4554.615234,,,,,,,,,,,,,,,,,,,,,,,,,,,,,,,,,,,,,,,,,,,,,,,,,,,,,,,,,,,,,,,,,,,,,,
1768918253.367499,1768918253.368499,121.0,0.0,4320.512695,4290.897461,4334.230957,4311.282227,4262.692383,4295.641113,4314.871582,4313.589844,4283.589844,4305.769043,4507.436035,4541.410156,4413.846191,4555.769043,,,,,,,,,,,,,,,,,,,,,,,,,,,,,,,,,,,,,,,,,,,,,,,,,,,,,,,,,,,,,,,,,,,,,,
1768918253.375307,1768918253.376406,122.0,0.0,4317.692383,4294.102539,4338.846191,4313.205078,4266.922852,4293.974121,4308.461426,4324.102539,4285.769043,4306.025879,4507.05127,4539.871582,4412.820313,4540.256348,,,,,,,,,,,,,,,,,,,,,,,,,,,,,,,,,,,,,,,,,,,,,,,,,,,,,,,,,,,,,,,,,,,,,,
1768918253.383115,1768918253.384214,123.0,0.0,4314.743652,4297.820313,4337.563965,4315.256348,4266.025879,4290.512695,4300.128418,4315.512695,4278.077148,4295.897461,4505.256348,4528.077148,4411.538574,4536.153809,,,,,,,,,,,,,,,,,,,,,,,,,,,,,,,,,,,,,,,,,,,,,,,,,,,,,,,,,,,,,,,,,,,,,,
1768918253.390924,1768918253.392221,124.0,0.0,4318.205078,4296.666504,4334.102539,4311.922852,4262.05127,4292.179688,4298.717773,4304.743652,4271.922852,4293.461426,4503.333496,4520.641113,4411.410156,4547.820313,,,,,,,,,,,,,,,,,,,,,,,,,,,,,,,,,,,,,,,,,,,,,,,,,,,,,,,,,,,,,,,,,,,,,,
1768918253.398733,1768918253.400029,125.0,0.0,4323.846191,4295.897461,4337.179688,4313.461426,4262.307617,4295.897461,4309.487305,4316.153809,4278.589844,4297.05127,4503.717773,4531.025879,4413.974121,4556.922852,,,,,,,,,,,,,,,,,,,,,,,,,,,,,,,,,,,,,,,,,,,,,,,,,,,,,,,,,,,,,,,,,,,,,,
1768918253.406541,1768918253.407937,126.0,0.0,4321.153809,4296.153809,4344.358887,4321.153809,4265.897461,4298.461426,4318.333496,4324.102539,4280.641113,4295.128418,4501.538574,4543.333496,4411.153809,4552.820313,,,,,,,,,,,,,,,,,,,,,,,,,,,,,,,,,,,,,,,,,,,,,,,,,,,,,,,,,,,,,,,,,,,,,,
1768918253.414349,1768918253.415745,127.0,0.0,4319.615234,4295.256348,4341.666504,4321.025879,4267.563965,4293.461426,4306.922852,4318.077148,4273.846191,4291.025879,4492.307617,4537.94873,4403.846191,4541.538574,,,,,,,,,,,,,,,,,,,,,,,,,,,,,,,,,,,,,,,,,,,,,,,,,,,,,,,,,,,,,,,,,,,,,,
1768918253.422158,1768918253.423352,0.0,0.0,4320.641113,4295.769043,4330.769043,4317.05127,4266.282227,4287.179688,4296.025879,4321.025879,4274.615234,4293.846191,4492.692383,4525.769043,4405.0,4538.333496,0.490408,0.331447,0.309361,0.167496,0.139183,0.28067,0.278572,0.23139,0.190441,0.105148,0.589138,0.351573,0.195674,0.231018,0.168426,0.3339,0.392618,0.271455,0.193541,0.114712,0.591553,0.06168,0.23012,0.166042,0.195654,0.290866,0.089514,0.275921,0.278424,0.300685,0.294786,0.266364,0.489064,0.525517,0.697919,2.646024,0.982776,0.627988,0.522679,0.353601,0.546399,0.14403,0.124417,0.267835,0.142936,0.5394,0.233313,0.248589,0.250107,0.145815,0.65078,0.242842,0.226271,0.415389,0.402423,0.848973,0.339772,0.408783,0.678091,0.431815,0.542492,0.380897,0.389834,0.322324,0.295174,0.680917,0.374294,0.286483,0.55109,0.389689
1768918253.429967,1768918253.43116,1.0,0.0,4314.615234,4296.666504,4327.436035,4318.205078,4267.05127,4292.563965,4306.025879,4325.769043,4278.589844,4298.205078,4500.128418,4522.179688,4410.0,4541.025879,,,,,,,,,,,,,,,,,,,,,,,,,,,,,,,,,,,,,,,,,,,,,,,,,,,,,,,,,,,,,,,,,,,,,,
1768918253.437775,1768918253.438868,2.0,0.0,4311.538574,4295.256348,4333.589844,4316.025879,4267.563965,4297.692383,4315.512695,4325.384766,4278.461426,4295.128418,4497.563965,4530.0,4410.512695,4540.641113,,,,,,,,,,,,,,,,,,,,,,,,,,,,,,,,,,,,,,,,,,,,,,,,,,,,,,,,,,,,,,,,,,,,,,
1768918253.445583,1768918253.446675,3.0,0.0,4318.077148,4295.0,4338.205078,4313.974121,4261.666504,4289.871582,4303.205078,4329.871582,4277.307617,4295.0,4497.05127,4538.205078,4411.153809,4535.641113,,,,,,,,,,,,,,,,,,,,,,,,,,,,,,,,,,,,,,,,,,,,,,,,,,,,,,,,,,,,,,,,,,,,,,
1768918253.453392,1768918253.454283,4.0,0.0,4318.589844,4297.563965,4333.077148,4320.0,4257.563965,4284.743652,4292.436035,4328.205078,4277.05127,4303.461426,4506.666504,4538.461426,4411.794922,4536.794922,,,,,,,,,,,,,,,,,,,,,,,,,,,,,,,,,,,,,,,,,,,,,,,,,,,,,,,,,,,,,,,,,,,,,,
1768918253.461201,1768918253.462091,5.0,0.0,4316.794922,4296.410156,4324.743652,4322.307617,4260.512695,4287.94873,4300.256348,4323.077148,4282.692383,4307.820313,4509.871582,4532.563965,4414.358887,4544.743652,,,,,,,,,,,,,,,,,,,,,,,,,,,,,,,,,,,,,,,,,,,,,,,,,,,,,,,,,,,,,,,,,,,,,,
1768918253.469009,1768918253.469799,6.0,0.0,4321.794922,4293.974121,4328.077148,4321.538574,4263.205078,4289.871582,4307.563965,4329.230957,4288.333496,4307.179688,4505.897461,4529.743652,4425.384766,4551.666504,,,,,,,,,,,,,,,,,,,,,,,,,,,,,,,,,,,,,,,,,,,,,,,,,,,,,,,,,,,,,,,,,,,,,,
1768918253.476817,1768918253.477607,7.0,0.0,4324.230957,4297.307617,4341.025879,4327.307617,4267.692383,4296.153809,4309.743652,4329.358887,4284.358887,4308.974121,4508.974121,4531.666504,4430.641113,4553.717773,,,,,,,,,,,,,,,,,,,,,,,,,,,,,,,,,,,,,,,,,,,,,,,,,,,,,,,,,,,,,,,,,,,,,,
1768918253.484626,1768918253.485215,8.0,0.0,4319.102539,4297.94873,4339.615234,4327.820313,4271.538574,4297.820313,4308.974121,4316.282227,4277.563965,4307.94873,4508.461426,4528.205078,4419.615234,4546.922852,,,,,,,,,,,,,,,,,,,,,,,,,,,,,,,,,,,,,,,,,,,,,,,,,,,,,,,,,,,,,,,,,,,,,,
1768918253.492435,1768918253.493022,9.0,0.0,4319.358887,4292.436035,4327.436035,4319.358887,4267.820313,4288.846191,4305.384766,4313.589844,4277.436035,4304.743652,4504.743652,4526.153809,4415.769043,4541.538574,,,,,,,,,,,,,,,,,,,,,,,,,,,,,,,,,,,,,,,,,,,,,,,,,,,,,,,,,,,,,,,,,,,,,,
1768918253.500243,1768918253.50093,10.0,0.0,4331.538574,4296.410156,4332.563965,4319.230957,4263.077148,4287.05127,4303.589844,4323.846191,4280.128418,4309.615234,4516.282227,4537.563965,4427.692383,4554.230957,,,,,,,,,,,,,,,,,,,,,,,,,,,,,,,,,,,,,,,,,,,,,,,,,,,,,,,,,,,,,,,,,,,,,,
1768918253.508052,1768918253.508738,11.0,0.0,4334.615234,4308.077148,4344.102539,4327.436035,4265.384766,4295.256348,4306.410156,4327.179688,4284.230957,4316.922852,4528.077148,4546.794922,4434.487305,4569.487305,,,,,,,,,,,,,,,,,,,,,,,,,,,,,,,,,,,,,,,,,,,,,,,,,,,,,,,,,,,,,,,,,,,,,,
1768918253.51586,1768918253.516346,12.0,0.0,4328.717773,4311.410156,4339.871582,4329.487305,4267.94873,4296.922852,4312.179688,4325.256348,4289.871582,4314.615234,4524.230957,4538.846191,4430.0,4562.692383,,,,,,,,,,,,,,,,,,,,,,,,,,,,,,,,,,,,,,,,,,,,,,,,,,,,,,,,,,,,,,,,,,,,,,
1768918253.523669,1768918253.524154,13.0,0.0,4331.025879,4308.077148,4338.846191,4326.410156,4267.436035,4293.846191,4312.692383,4324.615234,4288.077148,4310.641113,4520.512695,4537.179688,4429.230957,4551.666504,,,,,,,,,,,,,,,,,,,,,,,,,,,,,,,,,,,,,,,,,,,,,,,,,,,,,,,,,,,,,,,,,,,,,,
1768918253.531477,1768918253.531862,14.0,0.0,4334.743652,4310.256348,4345.641113,4327.94873,4267.179688,4296.153809,4304.102539,4316.922852,4280.256348,4312.692383,4520.128418,4542.94873,4433.974121,4554.871582,,,,,,,,,,,,,,,,,,,,,,,,,,,,,,,,,,,,,,,,,,,,,,,,,,,,,,,,,,,,,,,,,,,,,,
1768918253.539286,1768918253.539669,15.0,0.0,4327.563965,4311.538574,4337.436035,4328.333496,4265.512695,4291.282227,4293.205078,4307.307617,4276.794922,4310.897461,4511.538574,4531.538574,4427.05127,4550.128418,,,,,,,,,,,,,,,,,,,,,,,,,,,,,,,,,,,,,,,,,,,,,,,,,,,,,,,,,,,,,,,,,,,,,,
1768918253.547094,1768918253.547277,16.0,0.0,4319.487305,4304.487305,4325.0,4327.692383,4263.974121,4281.538574,4290.897461,4308.974121,4277.307617,4304.358887,4502.563965,4520.128418,4414.615234,4539.230957,0.520568,0.342203,0.30157,0.153791,0.153929,0.277719,0.297019,0.222587,0.175911,0.099182,0.678467,0.353598,0.222727,0.211358,0.177424,0.321397,0.343022,0.268162,0.16245,0.109494,0.671733,0.08549,0.197834,0.176865,0.198335,0.263812,0.103611,0.21539,0.229427,0.281694,0.254284,0.312668,0.382932,0.471094,0.700653,1.766877,0.744628,0.491231,0.414207,0.369888,0.555948,0.112986,0.114444,0.223427,0.135926,0.563954,0.220551,0.183188,0.212046,0.144753,0.81283,0.251362,0.215151,0.378606,0.450672,1.038138,0.317738,0.506832,0.628844,0.540425,0.5564,0.356372,0.360366,0.295873,0.285687,0.714373,0.324284,0.324388,0.497285,0.421054
1768918253.554903,1768918253.555085,17.0,0.0,4317.94873,4295.256348,4322.307617,4324.102539,4262.05127,4283.077148,4293.717773,4316.410156,4276.153809,4301.410156,4499.871582,4524.102539,4411.538574,4539.871582,,,,,,,,,,,,,,,,,,,,,,,,,,,,,,,,,,,,,,,,,,,,,,,,,,,,,,,,,,,,,,,,,,,,,,
1768918253.562711,1768918253.562992,18.0,0.0,4312.692383,4290.0,4317.563965,4313.461426,4264.743652,4290.897461,4295.0,4316.025879,4275.0,4298.717773,4492.179688,4521.410156,4406.794922,4538.333496,,,,,,,,,,,,,,,,,,,,,,,,,,,,,,,,,,,,,,,,,,,,,,,,,,,,,,,,,,,,,,,,,,,,,,
1768918253.57052,1768918253.5708,19.0,0.0,4310.256348,4288.205078,4315.256348,4310.897461,4269.230957,4293.077148,4298.974121,4312.05127,4277.05127,4296.922852,4486.922852,4511.025879,4399.102539,4530.384766,,,,,,,,,,,,,,,,,,,,,,,,,,,,,,,,,,,,,,,,,,,,,,,,,,,,,,,,,,,,,,,,,,,,,,
1768918253.578328,1768918253.578807,20.0,0.0,4315.897461,4292.94873,4322.307617,4322.179688,4268.461426,4291.025879,4304.487305,4315.769043,4281.794922,4305.641113,4495.256348,4514.102539,4403.461426,4532.94873,,,,,,,,,,,,,,,,,,,,,,,,,,,,,,,,,,,,,,,,,,,,,,,,,,,,,,,,,,,,,,,,,,,,,,
1768918253.586137,1768918253.586615,21.0,0.0,4320.641113,4300.256348,4323.717773,4328.333496,4265.512695,4293.205078,4310.256348,4323.333496,4290.128418,4316.025879,4506.025879,4523.846191,4415.641113,4538.717773,,,,,,,,,,,,,,,,,,,,,,,,,,,,,,,,,,,,,,,,,,,,,,,,,,,,,,,,,,,,,,,,,,,,,,
1768918253.593945,1768918253.594523,22.0,0.0,4323.717773,4298.717773,4321.666504,4323.717773,4265.256348,4296.410156,4311.794922,4331.410156,4296.410156,4316.410156,4511.410156,4526.794922,4419.615234,4540.641113,,,,,,,,,,,,,,,,,,,,,,,,,,,,,,,,,,,,,,,,,,,,,,,,,,,,,,,,,,,,,,,,,,,,,,
1768918253.601754,1768918253.60233,23.0,0.0,4325.897461,4296.153809,4326.153809,4323.077148,4270.897461,4298.589844,4306.410156,4330.128418,4289.358887,4311.282227,4504.358887,4524.615234,4416.282227,4541.282227,,,,,,,,,,,,,,,,,,,,,,,,,,,,,,,,,,,,,,,,,,,,,,,,,,,,,,,,,,,,,,,,,,,,,,
1768918253.609562,1768918253.610338,24.0,0.0,4325.897461,4299.871582,4327.692383,4326.025879,4278.077148,4296.282227,4303.717773,4318.846191,4277.179688,4306.282227,4491.538574,4523.974121,4411.538574,4542.820313,,,,,,,,,,,,,,,,,,,,,,,,,,,,,,,,,,,,,,,,,,,,,,,,,,,,,,,,,,,,,,,,,,,,,,
1768918253.617371,1768918253.618146,25.0,0.0,4325.512695,4300.128418,4325.769043,4327.94873,4280.769043,4294.871582,4308.974121,4318.205078,4278.589844,4305.897461,4497.05127,4528.589844,4410.769043,4548.589844,,,,,,,,,,,,,,,,,,,,,,,,,,,,,,,,,,,,,,,,,,,,,,,,,,,,,,,,,,,,,,,,,,,,,,
1768918253.625179,1768918253.625853,26.0,0.0,4326.538574,4296.794922,4327.05127,4328.333496,4277.563965,4299.230957,4308.205078,4320.897461,4282.563965,4308.846191,4507.563965,4527.563965,4413.461426,4550.0,,,,,,,,,,,,,,,,,,,,,,,,,,,,,,,,,,,,,,,,,,,,,,,,,,,,,,,,,,,,,,,,,,,,,,
1768918253.632988,1768918253.633661,27.0,0.0,4326.282227,4297.05127,4327.307617,4323.205078,4272.94873,4292.820313,4292.94873,4314.230957,4277.94873,4308.205078,4497.307617,4521.153809,4413.974121,4545.256348,,,,,,,,,,,,,,,,,,,,,,,,,,,,,,,,,,,,,,,,,,,,,,,,,,,,,,,,,,,,,,,,,,,,,,
1768918253.640796,1768918253.641668,28.0,0.0,4328.461426,4301.025879,4328.205078,4322.436035,4272.436035,4281.153809,4286.794922,4312.563965,4276.025879,4304.102539,4489.487305,4521.153809,4413.205078,4546.666504,,,,,,,,,,,,,,,,,,,,,,,,,,,,,,,,,,,,,,,,,,,,,,,,,,,,,,,,,,,,,,,,,,,,,,
1768918253.648605,1768918253.649476,29.0,0.0,4337.563965,4305.256348,4336.922852,4329.230957,4278.974121,4286.410156,4296.794922,4317.820313,4278.717773,4304.743652,4503.461426,4525.512695,4413.077148,4551.538574,,,,,,,,,,,,,,,,,,,,,,,,,,,,,,,,,,,,,,,,,,,,,,,,,,,,,,,,,,,,,,,,,,,,,,
1768918253.656413,1768918253.657184,30.0,0.0,4340.769043,4307.05127,4339.102539,4331.538574,4278.461426,4296.666504,4301.666504,4318.205078,4279.871582,4310.384766,4513.461426,4531.025879,4416.153809,4553.077148,,,,,,,,,,,,,,,,,,,,,,,,,,,,,,,,,,,,,,,,,,,,,,,,,,,,,,,,,,,,,,,,,,,,,,
1768918253.664222,1768918253.664992,31.0,0.0,4331.410156,4305.384766,4328.333496,4324.487305,4266.538574,4292.692383,4295.512695,4317.563965,4280.128418,4311.282227,4508.717773,4532.820313,4420.256348,4557.436035,,,,,,,,,,,,,,,,,,,,,,,,,,,,,,,,,,,,,,,,,,,,,,,,,,,,,,,,,,,,,,,,,,,,,,
1768918253.67203,1768918253.6726,32.0,0.0,4328.974121,4306.794922,4327.05127,4325.512695,4266.922852,4289.871582,4293.589844,4315.384766,4276.666504,4304.743652,4500.256348,4525.641113,4416.282227,4557.436035,0.570865,0.334986,0.296796,0.152051,0.167772,0.292755,0.298156,0.223041,0.161259,0.093411,0.795151,0.347233,0.245149,0.201312,0.18639,0.309172,0.281906,0.270727,0.142798,0.104425,0.69335,0.126269,0.178503,0.186427,0.203371,0.261003,0.135409,0.164262,0.186897,0.26219,0.230904,0.382317,0.29136,0.42056,0.686771,1.043517,0.539841,0.369962,0.323783,0.377599,0.571761,0.100491,0.121312,0.172975,0.132957,0.628992,0.211261,0.134241,0.184212,0.14242,0.993252,0.27793,0.217666,0.351108,0.471781,1.196564,0.2719,0.578074,0.58682,0.634643,0.605199,0.357031,0.329336,0.280621,0.270205,0.830028,0.292686,0.353399,0.465571,0.432078
1768918253.679839,1768918253.680407,33.0,0.0,4336.282227,4310.512695,4336.153809,4333.461426,4279.102539,4292.307617,4296.025879,4306.922852,4270.0,4296.282227,4490.641113,4518.717773,4409.871582,4548.589844,,,,,,,,,,,,,,,,,,,,,,,,,,,,,,,,,,,,,,,,,,,,,,,,,,,,,,,,,,,,,,,,,,,,,,
1768918253.687647,1768918253.688115,34.0,0.0,4338.077148,4311.666504,4336.922852,4333.717773,4281.666504,4287.692383,4291.794922,4309.871582,4271.282227,4295.128418,4492.307617,4522.94873,4408.461426,4547.820313,,,,,,,,,,,,,,,,,,,,,,,,,,,,,,,,,,,,,,,,,,,,,,,,,,,,,,,,,,,,,,,,,,,,,,
1768918253.695456,1768918253.695923,35.0,0.0,4335.641113,4311.282227,4335.641113,4333.077148,4275.641113,4288.333496,4295.641113,4325.0,4280.256348,4303.717773,4504.743652,4532.94873,4413.461426,4557.692383,,,,,,,,,,,,,,,,,,,,,,,,,,,,,,,,,,,,,,,,,,,,,,,,,,,,,,,,,,,,,,,,,,,,,,
1768918253.703264,1768918253.703931,36.0,0.0,4335.512695,4309.871582,4340.0,4334.230957,4274.871582,4296.410156,4312.05127,4325.512695,4282.179688,4308.077148,4508.974121,4537.820313,4419.358887,4561.025879,,,,,,,,,,,,,,,,,,,,,,,,,,,,,,,,,,,,,,,,,,,,,,,,,,,,,,,,,,,,,,,,,,,,,,
1768918253.711073,1768918253.711739,37.0,0.0,4334.615234,4309.743652,4340.128418,4334.358887,4278.205078,4296.025879,4309.871582,4312.563965,4274.615234,4302.94873,4506.153809,4535.769043,4417.179688,4564.743652,,,,,,,,,,,,,,,,,,,,,,,,,,,,,,,,,,,,,,,,,,,,,,,,,,,,,,,,,,,,,,,,,,,,,,
1768918253.718881,1768918253.719446,38.0,0.0,4335.897461,4310.641113,4338.846191,4337.307617,4277.94873,4291.153809,4297.692383,4312.307617,4272.307617,4305.256348,4507.94873,4536.538574,4412.692383,4586.794922,,,,,,,,,,,,,,,,,,,,,,,,,,,,,,,,,,,,,,,,,,,,,,,,,,,,,,,,,,,,,,,,,,,,,,
1768918253.72669,1768918253.727254,39.0,0.0,4340.512695,4310.769043,4341.666504,4338.846191,4281.666504,4294.871582,4304.615234,4324.487305,4280.0,4311.794922,4510.897461,4542.820313,4415.0,4602.692383,,,,,,,,,,,,,,,,,,,,,,,,,,,,,,,,,,,,,,,,,,,,,,,,,,,,,,,,,,,,,,,,,,,,,,
1768918253.734498,1768918253.734862,40.0,0.0,4335.641113,4309.615234,4338.717773,4332.563965,4287.94873,4296.666504,4306.153809,4321.410156,4279.871582,4305.0,4508.974121,4540.769043,4417.05127,4597.563965,,,,,,,,,,,,,,,,,,,,,,,,,,,,,,,,,,,,,,,,,,,,,,,,,,,,,,,,,,,,,,,,,,,,,,
1768918253.742307,1768918253.74267,41.0,0.0,4328.589844,4308.974121,4331.922852,4327.307617,4286.794922,4290.384766,4290.256348,4310.512695,4271.922852,4299.102539,4507.94873,4536.666504,4412.94873,4596.282227,,,,,,,,,,,,,,,,,,,,,,,,,,,,,,,,,,,,,,,,,,,,,,,,,,,,,,,,,,,,,,,,,,,,,,
1768918253.750115,1768918253.750377,42.0,0.0,4329.102539,4307.307617,4327.820313,4326.922852,4280.0,4290.512695,4291.666504,4319.102539,4275.512695,4306.153809,4509.358887,4539.615234,4412.563965,4601.282227,,,,,,,,,,,,,,,,,,,,,,,,,,,,,,,,,,,,,,,,,,,,,,,,,,,,,,,,,,,,,,,,,,,,,,
1768918253.757924,1768918253.758185,43.0,0.0,4327.307617,4306.282227,4326.410156,4327.179688,4281.666504,4294.487305,4299.871582,4324.871582,4281.410156,4311.410156,4509.871582,4538.717773,4416.666504,4599.615234,,,,,,,,,,,,,,,,,,,,,,,,,,,,,,,,,,,,,,,,,,,,,,,,,,,,,,,,,,,,,,,,,,,,,,
1768918253.765732,1768918253.766192,44.0,0.0,4327.05127,4309.230957,4331.282227,4333.717773,4286.794922,4292.94873,4293.589844,4316.794922,4277.94873,4306.794922,4508.333496,4537.563965,4418.077148,4600.0,,,,,,,,,,,,,,,,,,,,,,,,,,,,,,,,,,,,,,,,,,,,,,,,,,,,,,,,,,,,,,,,,,,,,,
1768918253.773541,1768918253.774,45.0,0.0,4334.102539,4313.205078,4338.846191,4340.0,4282.307617,4293.589844,4297.307617,4316.410156,4274.230957,4298.589844,4507.436035,4540.384766,4416.538574,4603.974121,,,,,,,,,,,,,,,,,,,,,,,,,,,,,,,,,,,,,,,,,,,,,,,,,,,,,,,,,,,,,,,,,,,,,,
1768918253.781349,1768918253.781908,46.0,0.0,4336.538574,4312.563965,4336.410156,4335.0,4275.512695,4295.512695,4305.256348,4320.512695,4273.717773,4297.436035,4507.436035,4534.230957,4413.589844,4598.589844,,,,,,,,,,,,,,,,,,,,,,,,,,,,,,,,,,,,,,,,,,,,,,,,,,,,,,,,,,,,,,,,,,,,,,
1768918253.789158,1768918253.789716,47.0,0.0,4328.974121,4311.666504,4327.820313,4328.333496,4276.282227,4291.025879,4295.897461,4314.358887,4271.666504,4300.128418,4503.589844,4523.077148,4412.307617,4588.717773,,,,,,,,,,,,,,,,,,,,,,,,,,,,,,,,,,,,,,,,,,,,,,,,,,,,,,,,,,,,,,,,,,,,,,
1768918253.796966,1768918253.797723,48.0,0.0,4325.512695,4311.410156,4322.94873,4326.538574,4280.512695,4289.230957,4289.615234,4306.282227,4269.102539,4302.307617,4500.0,4519.230957,4414.743652,4583.205078,0.619392,0.317819,0.284511,0.157851,0.176105,0.308868,0.279445,0.224533,0.147215,0.089346,0.935137,0.355473,0.251886,0.197218,0.196654,0.294918,0.22453,0.269245,0.136631,0.10083,0.684293,0.174725,0.172897,0.193022,0.205621,0.286443,0.178543,0.13771,0.161366,0.24373,0.241118,0.461506,0.23523,0.38145,0.650862,0.623646,0.405973,0.289177,0.263035,0.376012,0.615435,0.105422,0.141734,0.130412,0.135938,0.723074,0.209115,0.105157,0.169828,0.138606,1.195186,0.311634,0.239383,0.331851,0.458735,1.295449,0.21869,0.601496,0.545659,0.693272,0.690929,0.38412,0.302539,0.272791,0.252795,0.925884,0.292985,0.353308,0.446556,0.420889
1768918253.804775,1768918253.805531,49.0,0.0,4330.512695,4311.025879,4327.692383,4329.871582,4281.410156,4294.743652,4297.307617,4310.641113,4266.538574,4299.615234,4503.205078,4523.846191,4417.307617,4585.641113,,,,,,,,,,,,,,,,,,,,,,,,,,,,,,,,,,,,,,,,,,,,,,,,,,,,,,,,,,,,,,,,,,,,,,
1768918253.812583,1768918253.813438,50.0,0.0,4334.487305,4316.538574,4337.692383,4334.487305,4282.692383,4294.871582,4298.077148,4312.563965,4267.179688,4296.922852,4506.794922,4532.94873,4416.794922,4590.769043,,,,,,,,,,,,,,,,,,,,,,,,,,,,,,,,,,,,,,,,,,,,,,,,,,,,,,,,,,,,,,,,,,,,,,
1768918253.820392,1768918253.821246,51.0,0.0,4335.128418,4320.384766,4338.077148,4336.538574,4286.666504,4290.128418,4293.846191,4308.461426,4273.974121,4301.410156,4506.794922,4538.974121,4418.205078,4591.794922,,,,,,,,,,,,,,,,,,,,,,,,,,,,,,,,,,,,,,,,,,,,,,,,,,,,,,,,,,,,,,,,,,,,,,
1768918253.8282,1768918253.828854,52.0,0.0,4331.410156,4314.358887,4328.589844,4333.333496,4286.282227,4293.589844,4304.230957,4318.461426,4280.897461,4306.666504,4508.974121,4540.512695,4420.641113,4585.897461,,,,,,,,,,,,,,,,,,,,,,,,,,,,,,,,,,,,,,,,,,,,,,,,,,,,,,,,,,,,,,,,,,,,,,
1768918253.836009,1768918253.836662,53.0,0.0,4324.230957,4308.205078,4325.512695,4328.333496,4287.179688,4298.205078,4310.256348,4328.589844,4281.410156,4305.384766,4508.717773,4537.307617,4415.769043,4574.871582,,,,,,,,,,,,,,,,,,,,,,,,,,,,,,,,,,,,,,,,,,,,,,,,,,,,,,,,,,,,,,,,,,,,,,
1768918253.843817,1768918253.84437,54.0,0.0,4320.897461,4308.974121,4330.0,4325.641113,4288.974121,4293.974121,4295.769043,4311.282227,4271.025879,4303.077148,4502.179688,4526.538574,4409.615234,4567.94873,,,,,,,,,,,,,,,,,,,,,,,,,,,,,,,,,,,,,,,,,,,,,,,,,,,,,,,,,,,,,,,,,,,,,,
1768918253.851626,1768918253.852177,55.0,0.0,4323.974121,4310.769043,4329.615234,4326.666504,4283.205078,4291.153809,4288.205078,4295.641113,4262.05127,4305.641113,4501.153809,4521.794922,4409.487305,4572.307617,,,,,,,,,,,,,,,,,,,,,,,,,,,,,,,,,,,,,,,,,,,,,,,,,,,,,,,,,,,,,,,,,,,,,,
1768918253.859434,1768918253.859785,56.0,0.0,4328.077148,4312.563965,4325.897461,4331.025879,4281.794922,4295.256348,4305.384766,4312.94873,4271.666504,4307.307617,4507.307617,4530.128418,4412.05127,4578.077148,,,,,,,,,,,,,,,,,,,,,,,,,,,,,,,,,,,,,,,,,,,,,,,,,,,,,,,,,,,,,,,,,,,,,,
1768918253.867243,1768918253.867593,57.0,0.0,4327.563965,4314.615234,4328.205078,4331.666504,4291.922852,4295.641113,4313.333496,4323.846191,4281.282227,4305.897461,4509.871582,4530.641113,4412.436035,4575.0,,,,,,,,,,,,,,,,,,,,,,,,,,,,,,,,,,,,,,,,,,,,,,,,,,,,,,,,,,,,,,,,,,,,,,
1768918253.875051,1768918253.875301,58.0,0.0,4325.0,4311.922852,4332.436035,4328.077148,4297.563965,4293.846191,4303.205078,4311.025879,4274.358887,4302.820313,4505.641113,4524.102539,4410.769043,4570.512695,,,,,,,,,,,,,,,,,,,,,,,,,,,,,,,,,,,,,,,,,,,,,,,,,,,,,,,,,,,,,,,,,,,,,,
1768918253.88286,1768918253.883109,59.0,0.0,4322.692383,4311.410156,4330.769043,4326.666504,4289.230957,4294.102539,4299.102539,4313.589844,4272.692383,4301.282227,4503.846191,4525.769043,4410.384766,4570.769043,,,,,,,,,,,,,,,,,,,,,,,,,,,,,,,,,,,,,,,,,,,,,,,,,,,,,,,,,,,,,,,,,,,,,,
1768918253.890668,1768918253.891116,60.0,0.0,4320.384766,4311.410156,4325.0,4326.025879,4279.743652,4292.05127,4300.128418,4325.384766,4282.05127,4304.487305,4506.025879,4528.846191,4413.205078,4573.333496,,,,,,,,,,,,,,,,,,,,,,,,,,,,,,,,,,,,,,,,,,,,,,,,,,,,,,,,,,,,,,,,,,,,,,
1768918253.898477,1768918253.898924,61.0,0.0,4318.717773,4308.461426,4324.102539,4323.717773,4280.897461,4290.769043,4298.846191,4317.179688,4280.0,4305.128418,4505.512695,4527.820313,4412.436035,4577.179688,,,,,,,,,,,,,,,,,,,,,,,,,,,,,,,,,,,,,,,,,,,,,,,,,,,,,,,,,,,,,,,,,,,,,,
1768918253.906285,1768918253.906832,62.0,0.0,4322.563965,4308.717773,4328.077148,4324.102539,4288.974121,4292.436035,4301.153809,4306.794922,4273.333496,4304.487305,4505.0,4530.128418,4411.666504,4580.0,,,,,,,,,,,,,,,,,,,,,,,,,,,,,,,,,,,,,,,,,,,,,,,,,,,,,,,,,,,,,,,,,,,,,,
1768918253.914094,1768918253.91464,63.0,0.0,4329.871582,4311.922852,4330.384766,4329.615234,4291.922852,4291.153809,4302.94873,4311.282227,4276.922852,4307.307617,4508.589844,4533.846191,4414.487305,4579.871582,,,,,,,,,,,,,,,,,,,,,,,,,,,,,,,,,,,,,,,,,,,,,,,,,,,,,,,,,,,,,,,,,,,,,,
1768918253.921902,1768918253.922248,64.0,0.0,4326.282227,4311.282227,4325.0,4327.179688,4287.692383,4290.128418,4296.153809,4315.512695,4280.512695,4308.205078,4506.025879,4529.487305,4409.871582,4576.666504,0.668218,0.306055,0.257484,0.163605,0.175221,0.342412,0.253938,0.22492,0.133393,0.086925,1.071776,0.396682,0.24044,0.192406,0.207863,0.2799,0.181941,0.254171,0.140554,0.099181,0.645206,0.218179,0.174885,0.194758,0.199501,0.336028,0.227023,0.136576,0.154981,0.226268,0.28498,0.546033,0.217184,0.353,0.594606,0.50174,0.339806,0.254311,0.228572,0.367148,0.698005,0.124739,0.171789,0.105829,0.144446,0.868415,0.214976,0.095973,0.166404,0.132851,1.414742,0.350716,0.290961,0.317155,0.416537,1.313499,0.186232,0.576655,0.498418,0.705938,0.869989,0.431571,0.288276,0.263421,0.23559,1.07811,0.350888,0.323661,0.424067,0.391926
1768918253.929711,1768918253.930056,65.0,0.0,4320.641113,4308.974121,4323.974121,4323.974121,4288.461426,4293.333496,4298.846191,4313.589844,4275.384766,4304.102539,4502.307617,4530.384766,4405.384766,4580.0,,,,,,,,,,,,,,,,,,,,,,,,,,,,,,,,,,,,,,,,,,,,,,,,,,,,,,,,,,,,,,,,,,,,,,
1768918253.937519,1768918253.937764,66.0,0.0,4328.589844,4312.05127,4334.487305,4331.538574,4294.615234,4297.05127,4309.358887,4313.846191,4268.333496,4298.846191,4506.538574,4539.871582,4412.692383,4592.05127,,,,,,,,,,,,,,,,,,,,,,,,,,,,,,,,,,,,,,,,,,,,,,,,,,,,,,,,,,,,,,,,,,,,,,
1768918253.945328,1768918253.945571,67.0,0.0,4333.205078,4311.666504,4335.0,4335.384766,4292.05127,4294.743652,4302.692383,4312.307617,4265.384766,4292.563965,4504.230957,4537.436035,4413.589844,4590.384766,,,,,,,,,,,,,,,,,,,,,,,,,,,,,,,,,,,,,,,,,,,,,,,,,,,,,,,,,,,,,,,,,,,,,,
1768918253.953136,1768918253.953179,68.0,0.0,4326.025879,4310.0,4326.282227,4331.410156,4281.025879,4288.974121,4294.230957,4314.102539,4271.282227,4296.538574,4499.358887,4528.461426,4403.846191,4573.717773,,,,,,,,,,,,,,,,,,,,,,,,,,,,,,,,,,,,,,,,,,,,,,,,,,,,,,,,,,,,,,,,,,,,,,
1768918253.960945,1768918253.960986,69.0,0.0,4327.563965,4318.077148,4331.410156,4335.769043,4282.692383,4289.871582,4297.563965,4324.102539,4281.538574,4309.102539,4505.256348,4534.871582,4406.410156,4573.846191,,,,,,,,,,,,,,,,,,,,,,,,,,,,,,,,,,,,,,,,,,,,,,,,,,,,,,,,,,,,,,,,,,,,,,
1768918253.968753,1768918253.968894,70.0,0.0,4334.102539,4321.282227,4339.871582,4341.153809,4295.384766,4296.794922,4300.256348,4321.922852,4275.512695,4306.025879,4509.871582,4543.846191,4411.410156,4588.333496,,,,,,,,,,,,,,,,,,,,,,,,,,,,,,,,,,,,,,,,,,,,,,,,,,,,,,,,,,,,,,,,,,,,,,
1768918253.976562,1768918253.976702,71.0,0.0,4332.179688,4314.615234,4336.153809,4332.94873,4295.0,4295.128418,4299.615234,4307.692383,4263.077148,4293.974121,4505.0,4536.666504,4404.358887,4587.179688,,,,,,,,,,,,,,,,,,,,,,,,,,,,,,,,,,,,,,,,,,,,,,,,,,,,,,,,,,,,,,,,,,,,,,
1768918253.98437,1768918253.984709,72.0,0.0,4335.769043,4317.436035,4335.128418,4332.563965,4289.102539,4288.846191,4302.05127,4303.974121,4268.205078,4300.512695,4505.897461,4532.692383,4405.897461,4580.641113,,,,,,,,,,,,,,,,,,,,,,,,,,,,,,,,,,,,,,,,,,,,,,,,,,,,,,,,,,,,,,,,,,,,,,
1768918253.992179,1768918253.992517,73.0,0.0,4342.307617,4325.512695,4340.897461,4342.820313,4293.846191,4292.692383,4306.282227,4321.153809,4282.179688,4314.358887,4511.794922,4539.743652,4415.641113,4585.769043,,,,,,,,,,,,,,,,,,,,,,,,,,,,,,,,,,,,,,,,,,,,,,,,,,,,,,,,,,,,,,,,,,,,,,
1768918253.999987,1768918254.000424,74.0,0.0,4337.436035,4321.025879,4339.102539,4340.128418,4296.410156,4298.205078,4309.743652,4328.333496,4284.743652,4311.666504,4509.871582,4538.589844,4412.820313,4581.922852,,,,,,,,,,,,,,,,,,,,,,,,,,,,,,,,,,,,,,,,,,,,,,,,,,,,,,,,,,,,,,,,,,,,,,
1768918254.007796,1768918254.008232,75.0,0.0,4330.769043,4317.05127,4333.846191,4331.538574,4292.307617,4295.897461,4308.589844,4309.487305,4272.692383,4303.461426,4505.897461,4526.922852,4406.794922,4572.692383,,,,,,,,,,,,,,,,,,,,,,,,,,,,,,,,,,,,,,,,,,,,,,,,,,,,,,,,,,,,,,,,,,,,,,
1768918254.015604,1768918254.01624,76.0,0.0,4334.871582,4322.563965,4335.256348,4332.436035,4295.128418,4293.589844,4302.692383,4297.563965,4265.641113,4304.615234,4506.538574,4529.230957,4412.05127,4575.128418,,,,,,,,,,,,,,,,,,,,,,,,,,,,,,,,,,,,,,,,,,,,,,,,,,,,,,,,,,,,,,,,,,,,,,
1768918254.023413,1768918254.024047,77.0,0.0,4338.717773,4323.077148,4338.205078,4338.717773,4298.846191,4295.256348,4302.692383,4310.641113,4272.94873,4308.974121,4510.641113,4539.871582,4416.282227,4577.436035,,,,,,,,,,,,,,,,,,,,,,,,,,,,,,,,,,,,,,,,,,,,,,,,,,,,,,,,,,,,,,,,,,,,,,
1768918254.031222,1768918254.031755,78.0,0.0,4333.461426,4323.333496,4335.769043,4338.974121,4295.256348,4294.743652,4304.743652,4316.922852,4280.512695,4309.102539,4510.897461,4531.922852,4413.717773,4571.922852,,,,,,,,,,,,,,,,,,,,,,,,,,,,,,,,,,,,,,,,,,,,,,,,,,,,,,,,,,,,,,,,,,,,,,
1768918254.03903,1768918254.039563,79.0,0.0,4328.333496,4326.153809,4335.512695,4332.94873,4293.589844,4293.974121,4302.436035,4307.307617,4277.692383,4307.820313,4508.205078,4522.820313,4412.436035,4568.205078,,,,,,,,,,,,,,,,,,,,,,,,,,,,,,,,,,,,,,,,,,,,,,,,,,,,,,,,,,,,,,,,,,,,,,
1768918254.046838,1768918254.047171,80.0,0.0,4325.897461,4317.820313,4336.282227,4328.333496,4294.358887,4299.358887,4305.512695,4309.358887,4276.282227,4307.563965,4509.102539,4534.102539,4413.077148,4568.717773,0.713181,0.308604,0.217357,0.164965,0.164226,0.383056,0.237902,0.227103,0.119207,0.084626,1.187077,0.470132,0.215407,0.184978,0.217967,0.266631,0.155977,0.222559,0.150128,0.099397,0.60326,0.248196,0.176541,0.191067,0.183767,0.382168,0.273558,0.148709,0.161091,0.208927,0.345752,0.637082,0.223082,0.328607,0.527142,0.548833,0.313039,0.25295,0.209933,0.354506,0.788276,0.150414,0.206593,0.102857,0.155427,1.013037,0.225465,0.106602,0.169652,0.125601,1.627239,0.392952,0.376991,0.30689,0.359892,1.244615,0.198864,0.520797,0.451081,0.67396,1.096694,0.478543,0.29242,0.246851,0.219114,1.271793,0.481125,0.2834,0.38957,0.354432
1768918254.054647,1768918254.054979,81.0,0.0,4327.307617,4309.230957,4333.461426,4332.307617,4295.512695,4303.205078,4309.487305,4316.025879,4279.102539,4306.922852,4509.358887,4541.922852,4412.05127,4566.410156,,,,,,,,,,,,,,,,,,,,,,,,,,,,,,,,,,,,,,,,,,,,,,,,,,,,,,,,,,,,,,,,,,,,,,
1768918254.062456,1768918254.062686,82.0,0.0,4335.512695,4318.077148,4336.922852,4339.487305,4302.94873,4300.128418,4307.692383,4309.615234,4275.769043,4305.128418,4507.436035,4532.692383,4411.025879,4567.692383,,,,,,,,,,,,,,,,,,,,,,,,,,,,,,,,,,,,,,,,,,,,,,,,,,,,,,,,,,,,,,,,,,,,,,
1768918254.070264,1768918254.070494,83.0,0.0,4342.179688,4328.717773,4342.692383,4341.282227,4309.871582,4294.358887,4300.897461,4302.307617,4274.615234,4304.102539,4507.820313,4524.102539,4413.461426,4570.384766,,,,,,,,,,,,,,,,,,,,,,,,,,,,,,,,,,,,,,,,,,,,,,,,,,,,,,,,,,,,,,,,,,,,,,
1768918254.078072,1768918254.078102,84.0,0.0,4339.487305,4325.128418,4339.871582,4340.512695,4307.436035,4297.436035,4298.077148,4303.974121,4276.538574,4305.384766,4509.615234,4527.05127,4416.922852,4571.025879,,,,,,,,,,,,,,,,,,,,,,,,,,,,,,,,,,,,,,,,,,,,,,,,,,,,,,,,,,,,,,,,,,,,,,
1768918254.085881,1768918254.08591,85.0,0.0,4337.179688,4320.641113,4339.743652,4340.641113,4303.077148,4303.846191,4305.0,4310.256348,4279.487305,4307.692383,4510.512695,4537.820313,4415.897461,4572.563965,,,,,,,,,,,,,,,,,,,,,,,,,,,,,,,,,,,,,,,,,,,,,,,,,,,,,,,,,,,,,,,,,,,,,,
1768918254.09369,1768918254.093618,86.0,0.0,4340.128418,4323.205078,4344.487305,4341.794922,4306.538574,4299.871582,4310.641113,4319.743652,4285.384766,4310.128418,4516.025879,4542.05127,4414.615234,4573.846191,,,,,,,,,,,,,,,,,,,,,,,,,,,,,,,,,,,,,,,,,,,,,,,,,,,,,,,,,,,,,,,,,,,,,,
1768918254.101498,1768918254.101425,87.0,0.0,4338.077148,4325.384766,4341.025879,4342.307617,4308.205078,4297.436035,4310.512695,4322.94873,4290.384766,4311.794922,4522.692383,4536.922852,4422.307617,4574.615234,,,,,,,,,,,,,,,,,,,,,,,,,,,,,,,,,,,,,,,,,,,,,,,,,,,,,,,,,,,,,,,,,,,,,,
1768918254.109306,1768918254.109433,88.0,0.0,4337.05127,4324.871582,4335.512695,4342.94873,4304.358887,4305.512695,4310.0,4317.436035,4289.102539,4312.563965,4522.179688,4537.307617,4428.717773,4575.769043,,,,,,,,,,,,,,,,,,,,,,,,,,,,,,,,,,,,,,,,,,,,,,,,,,,,,,,,,,,,,,,,,,,,,,
1768918254.117115,1768918254.117241,89.0,0.0,4340.512695,4324.743652,4336.153809,4346.153809,4307.05127,4310.0,4309.230957,4315.897461,4283.717773,4311.666504,4520.0,4539.743652,4426.153809,4577.820313,,,,,,,,,,,,,,,,,,,,,,,,,,,,,,,,,,,,,,,,,,,,,,,,,,,,,,,,,,,,,,,,,,,,,,
1768918254.124924,1768918254.125149,90.0,0.0,4338.974121,4325.128418,4332.820313,4343.077148,4311.922852,4308.333496,4311.153809,4316.922852,4283.077148,4310.512695,4519.102539,4530.897461,4420.512695,4575.0,,,,,,,,,,,,,,,,,,,,,,,,,,,,,,,,,,,,,,,,,,,,,,,,,,,,,,,,,,,,,,,,,,,,,,
1768918254.132732,1768918254.132957,91.0,0.0,4333.846191,4324.487305,4328.846191,4335.128418,4312.179688,4307.692383,4308.333496,4311.794922,4282.563965,4311.922852,4513.461426,4521.282227,4417.436035,4568.846191,,,,,,,,,,,,,,,,,,,,,,,,,,,,,,,,,,,,,,,,,,,,,,,,,,,,,,,,,,,,,,,,,,,,,,
1768918254.14054,1768918254.140564,92.0,0.0,4333.461426,4324.487305,4330.256348,4334.615234,4311.025879,4300.641113,4299.358887,4308.974121,4280.128418,4310.384766,4506.922852,4527.436035,4421.282227,4569.871582,,,,,,,,,,,,,,,,,,,,,,,,,,,,,,,,,,,,,,,,,,,,,,,,,,,,,,,,,,,,,,,,,,,,,,
1768918254.148349,1768918254.148372,93.0,0.0,4337.436035,4325.128418,4330.897461,4338.461426,4311.282227,4293.589844,4302.94873,4321.410156,4288.077148,4308.974121,4513.205078,4541.794922,4426.922852,4575.256348,,,,,,,,,,,,,,,,,,,,,,,,,,,,,,,,,,,,,,,,,,,,,,,,,,,,,,,,,,,,,,,,,,,,,,
1768918254.156158,1768918254.156079,94.0,0.0,4334.102539,4323.717773,4326.538574,4335.897461,4306.538574,4299.102539,4311.282227,4329.358887,4295.384766,4311.666504,4518.205078,4540.384766,4422.563965,4573.461426,,,,,,,,,,,,,,,,,,,,,,,,,,,,,,,,,,,,,,,,,,,,,,,,,,,,,,,,,,,,,,,,,,,,,,
1768918254.163966,1768918254.163887,95.0,0.0,4328.589844,4322.436035,4325.512695,4332.692383,4304.102539,4303.589844,4304.487305,4318.589844,4283.333496,4311.282227,4509.358887,4525.256348,4414.871582,4568.974121,,,,,,,,,,,,,,,,,,,,,,,,,,,,,,,,,,,,,,,,,,,,,,,,,,,,,,,,,,,,,,,,,,,,,,
1768918254.171775,1768918254.171894,96.0,0.0,4328.461426,4324.102539,4330.897461,4337.820313,4309.871582,4306.410156,4305.512695,4313.461426,4276.922852,4309.102539,4510.256348,4525.641113,4417.05127,4571.410156,0.76771,0.322071,0.175616,0.16455,0.145741,0.44774,0.238848,0.234566,0.10602,0.080739,1.243382,0.555036,0.185806,0.18013,0.223868,0.266794,0.142488,0.18162,0.163923,0.100701,0.555117,0.262916,0.171799,0.183695,0.163541,0.40519,0.308804,0.156603,0.168973,0.190974,0.404557,0.729665,0.231579,0.305158,0.462507,0.619919,0.300873,0.265689,0.200917,0.344081,0.848002,0.170221,0.243822,0.119218,0.165688,1.126755,0.23455,0.137438,0.176262,0.118947,1.797343,0.433639,0.488395,0.300348,0.305679,1.115926,0.265905,0.46086,0.414623,0.607675,1.362081,0.49945,0.314218,0.224303,0.203586,1.680172,0.674669,0.253187,0.349459,0.318765
1768918254.179583,1768918254.179702,97.0,0.0,4326.538574,4325.641113,4330.641113,4341.282227,4312.436035,4307.05127,4314.615234,4320.769043,4288.589844,4309.743652,4517.307617,4534.230957,4417.05127,4570.512695,,,,,,,,,,,,,,,,,,,,,,,,,,,,,,,,,,,,,,,,,,,,,,,,,,,,,,,,,,,,,,,,,,,,,,
1768918254.187392,1768918254.18761,98.0,0.0,4328.589844,4326.282227,4325.512695,4338.717773,4308.974121,4299.743652,4304.487305,4320.0,4289.871582,4311.153809,4512.179688,4530.0,4413.974121,4568.333496,,,,,,,,,,,,,,,,,,,,,,,,,,,,,,,,,,,,,,,,,,,,,,,,,,,,,,,,,,,,,,,,,,,,,,
1768918254.1952,1768918254.195417,99.0,0.0,4340.512695,4326.538574,4329.102539,4340.256348,4304.487305,4300.0,4299.871582,4318.717773,4285.128418,4312.179688,4513.205078,4529.743652,4421.666504,4571.410156,,,,,,,,,,,,,,,,,,,,,,,,,,,,,,,,,,,,,,,,,,,,,,,,,,,,,,,,,,,,,,,,,,,,,,
1768918254.203009,1768918254.203425,100.0,0.0,4342.820313,4327.692383,4335.769043,4347.179688,4307.05127,4309.102539,4314.358887,4323.205078,4291.153809,4312.436035,4523.205078,4534.743652,4429.102539,4572.94873,,,,,,,,,,,,,,,,,,,,,,,,,,,,,,,,,,,,,,,,,,,,,,,,,,,,,,,,,,,,,,,,,,,,,,
1768918254.210817,1768918254.211233,101.0,0.0,4335.0,4329.871582,4335.0,4349.615234,4311.794922,4307.94873,4320.384766,4316.922852,4292.307617,4312.05127,4518.589844,4526.922852,4426.025879,4569.230957,,,,,,,,,,,,,,,,,,,,,,,,,,,,,,,,,,,,,,,,,,,,,,,,,,,,,,,,,,,,,,,,,,,,,,
1768918254.218626,1768918254.21914,102.0,0.0,4341.666504,4335.128418,4336.153809,4350.641113,4310.256348,4304.102539,4320.769043,4315.897461,4289.358887,4312.563965,4515.256348,4525.641113,4426.153809,4568.205078,,,,,,,,,,,,,,,,,,,,,,,,,,,,,,,,,,,,,,,,,,,,,,,,,,,,,,,,,,,,,,,,,,,,,,
1768918254.226434,1768918254.226948,103.0,0.0,4352.436035,4341.025879,4343.333496,4353.333496,4308.974121,4309.743652,4325.128418,4321.410156,4287.692383,4312.179688,4524.487305,4539.230957,4430.384766,4572.307617,,,,,,,,,,,,,,,,,,,,,,,,,,,,,,,,,,,,,,,,,,,,,,,,,,,,,,,,,,,,,,,,,,,,,,
1768918254.234243,1768918254.234556,104.0,0.0,4345.0,4336.538574,4344.743652,4349.102539,4311.666504,4310.0,4325.0,4314.871582,4282.692383,4310.128418,4520.897461,4539.230957,4424.871582,4573.077148,,,,,,,,,,,,,,,,,,,,,,,,,,,,,,,,,,,,,,,,,,,,,,,,,,,,,,,,,,,,,,,,,,,,,,
1768918254.242051,1768918254.242364,105.0,0.0,4337.820313,4328.077148,4341.538574,4344.487305,4311.922852,4303.974121,4323.333496,4311.025879,4285.897461,4310.256348,4512.692383,4530.384766,4422.436035,4570.897461,,,,,,,,,,,,,,,,,,,,,,,,,,,,,,,,,,,,,,,,,,,,,,,,,,,,,,,,,,,,,,,,,,,,,,
1768918254.24986,1768918254.250072,106.0,0.0,4344.358887,4331.153809,4341.153809,4350.641113,4309.615234,4305.769043,4327.307617,4315.769043,4291.794922,4311.666504,4516.538574,4534.102539,4425.128418,4570.769043,,,,,,,,,,,,,,,,,,,,,,,,,,,,,,,,,,,,,,,,,,,,,,,,,,,,,,,,,,,,,,,,,,,,,,
1768918254.257668,1768918254.257879,107.0,0.0,4352.307617,4340.641113,4347.179688,4358.717773,4309.230957,4303.717773,4325.384766,4310.128418,4282.436035,4311.153809,4523.717773,4541.538574,4419.230957,4572.692383,,,,,,,,,,,,,,,,,,,,,,,,,,,,,,,,,,,,,,,,,,,,,,,,,,,,,,,,,,,,,,,,,,,,,,
1768918254.265477,1768918254.265887,108.0,0.0,4350.641113,4339.871582,4351.153809,4357.820313,4308.205078,4296.538574,4317.307617,4300.256348,4273.974121,4309.743652,4521.282227,4536.282227,4412.05127,4572.179688,,,,,,,,,,,,,,,,,,,,,,,,,,,,,,,,,,,,,,,,,,,,,,,,,,,,,,,,,,,,,,,,,,,,,,
1768918254.273285,1768918254.273695,109.0,0.0,4345.512695,4330.769043,4347.692383,4353.717773,4309.743652,4297.436035,4316.025879,4299.615234,4277.563965,4308.974121,4512.307617,4529.615234,4413.717773,4569.358887,,,,,,,,,,,,,,,,,,,,,,,,,,,,,,,,,,,,,,,,,,,,,,,,,,,,,,,,,,,,,,,,,,,,,,
1768918254.281094,1768918254.281403,110.0,0.0,4344.743652,4326.410156,4343.333496,4351.410156,4311.153809,4304.487305,4324.230957,4306.666504,4279.743652,4309.487305,4507.820313,4533.333496,4415.256348,4569.487305,,,,,,,,,,,,,,,,,,,,,,,,,,,,,,,,,,,,,,,,,,,,,,,,,,,,,,,,,,,,,,,,,,,,,,
1768918254.288902,1768918254.289211,111.0,0.0,4344.615234,4322.307617,4342.436035,4348.974121,4306.153809,4309.358887,4332.692383,4315.256348,4279.230957,4305.897461,4507.307617,4535.128418,4409.230957,4570.641113,,,,,,,,,,,,,,,,,,,,,,,,,,,,,,,,,,,,,,,,,,,,,,,,,,,,,,,,,,,,,,,,,,,,,,
1768918254.296711,1768918254.297218,112.0,0.0,4342.179688,4320.0,4346.153809,4349.230957,4307.692383,4310.256348,4336.666504,4319.615234,4284.871582,4304.487305,4512.179688,4530.641113,4406.794922,4568.333496,0.810646,0.341984,0.146367,0.168641,0.125094,0.503252,0.254684,0.247588,0.097433,0.075544,1.220976,0.618867,0.159968,0.184892,0.22289,0.278934,0.140393,0.14448,0.181798,0.102439,0.501157,0.266966,0.162253,0.176365,0.146532,0.392225,0.325911,0.150405,0.171005,0.173016,0.443761,0.809236,0.23311,0.28681,0.412475,0.655838,0.287035,0.281016,0.203368,0.343147,0.845127,0.17887,0.281521,0.149768,0.174582,1.15544,0.241736,0.186307,0.184749,0.116373,1.863908,0.470461,0.601639,0.294536,0.265087,0.963114,0.37449,0.419291,0.396364,0.523095,1.551444,0.487868,0.346844,0.201967,0.189578,2.267589,0.903276,0.247801,0.319048,0.291846
1768918254.304519,1768918254.305026,113.0,0.0,4346.025879,4328.589844,4349.358887,4353.974121,4316.922852,4311.410156,4342.307617,4326.410156,4292.820313,4319.615234,4522.692383,4535.512695,4416.282227,4568.205078,,,,,,,,,,,,,,,,,,,,,,,,,,,,,,,,,,,,,,,,,,,,,,,,,,,,,,,,,,,,,,,,,,,,,,
1768918254.312328,1768918254.312934,114.0,0.0,4354.102539,4334.102539,4346.410156,4356.282227,4317.307617,4316.282227,4345.512695,4333.461426,4299.871582,4331.282227,4529.230957,4545.769043,4429.487305,4578.589844,,,,,,,,,,,,,,,,,,,,,,,,,,,,,,,,,,,,,,,,,,,,,,,,,,,,,,,,,,,,,,,,,,,,,,
1768918254.320136,1768918254.320742,115.0,0.0,4356.025879,4329.230957,4341.794922,4350.769043,4310.769043,4312.436035,4334.230957,4323.717773,4294.615234,4319.871582,4524.487305,4543.974121,4427.307617,4585.128418,,,,,,,,,,,,,,,,,,,,,,,,,,,,,,,,,,,,,,,,,,,,,,,,,,,,,,,,,,,,,,,,,,,,,,
1768918254.327945,1768918254.328749,116.0,0.0,4354.358887,4330.128418,4342.820313,4346.794922,4309.358887,4297.563965,4318.077148,4310.641113,4285.512695,4309.102539,4521.025879,4534.487305,4417.820313,4576.922852,,,,,,,,,,,,,,,,,,,,,,,,,,,,,,,,,,,,,,,,,,,,,,,,,,,,,,,,,,,,,,,,,,,,,,
1768918254.335753,1768918254.336557,117.0,0.0,4354.102539,4335.512695,4343.717773,4348.974121,4310.641113,4300.897461,4322.94873,4309.743652,4284.615234,4312.179688,4521.538574,4526.538574,4418.589844,4573.974121,,,,,,,,,,,,,,,,,,,,,,,,,,,,,,,,,,,,,,,,,,,,,,,,,,,,,,,,,,,,,,,,,,,,,,
1768918254.343562,1768918254.344265,118.0,0.0,4352.94873,4332.436035,4341.282227,4351.666504,4311.538574,4313.974121,4336.538574,4310.512695,4282.307617,4312.307617,4515.769043,4521.666504,4418.205078,4577.820313,,,,,,,,,,,,,,,,,,,,,,,,,,,,,,,,,,,,,,,,,,,,,,,,,,,,,,,,,,,,,,,,,,,,,,
1768918254.35137,1768918254.352072,119.0,0.0,4354.743652,4331.538574,4342.05127,4355.0,4311.922852,4304.871582,4328.077148,4306.282227,4281.153809,4309.102539,4514.230957,4529.871582,4417.179688,4579.487305,,,,,,,,,,,,,,,,,,,,,,,,,,,,,,,,,,,,,,,,,,,,,,,,,,,,,,,,,,,,,,,,,,,,,,
1768918254.359179,1768918254.36008,120.0,0.0,4362.563965,4338.974121,4350.769043,4358.461426,4310.0,4295.256348,4316.282227,4308.205078,4289.102539,4312.05127,4522.692383,4546.666504,4424.102539,4586.025879,,,,,,,,,,,,,,,,,,,,,,,,,,,,,,,,,,,,,,,,,,,,,,,,,,,,,,,,,,,,,,,,,,,,,,
1768918254.366987,1768918254.367887,121.0,0.0,4369.487305,4342.563965,4361.282227,4358.717773,4310.256348,4304.358887,4324.230957,4312.436035,4288.589844,4313.717773,4527.05127,4550.384766,4425.128418,4594.358887,,,,,,,,,,,,,,,,,,,,,,,,,,,,,,,,,,,,,,,,,,,,,,,,,,,,,,,,,,,,,,,,,,,,,,
1768918254.374796,1768918254.375795,122.0,0.0,4365.0,4334.871582,4354.871582,4357.692383,4311.922852,4310.384766,4330.641113,4312.563965,4278.589844,4310.256348,4520.641113,4538.077148,4412.692383,4587.307617,,,,,,,,,,,,,,,,,,,,,,,,,,,,,,,,,,,,,,,,,,,,,,,,,,,,,,,,,,,,,,,,,,,,,,
1768918254.382604,1768918254.383603,123.0,0.0,4356.025879,4328.589844,4341.666504,4356.794922,4309.871582,4307.436035,4327.94873,4313.717773,4283.974121,4309.871582,4518.717773,4533.974121,4407.436035,4574.230957,,,,,,,,,,,,,,,,,,,,,,,,,,,,,,,,,,,,,,,,,,,,,,,,,,,,,,,,,,,,,,,,,,,,,,
1768918254.390413,1768918254.39151,124.0,0.0,4355.256348,4335.0,4343.846191,4354.102539,4309.230957,4308.846191,4333.077148,4319.102539,4297.307617,4317.436035,4525.769043,4542.05127,4417.820313,4578.077148,,,,,,,,,,,,,,,,,,,,,,,,,,,,,,,,,,,,,,,,,,,,,,,,,,,,,,,,,,,,,,,,,,,,,,
1768918254.398221,1768918254.399318,125.0,0.0,4357.692383,4341.538574,4352.436035,4354.615234,4310.512695,4311.538574,4336.666504,4317.692383,4294.871582,4323.333496,4526.922852,4543.461426,4421.410156,4587.436035,,,,,,,,,,,,,,,,,,,,,,,,,,,,,,,,,,,,,,,,,,,,,,,,,,,,,,,,,,,,,,,,,,,,,,
1768918254.40603,1768918254.407026,126.0,0.0,4355.769043,4333.461426,4352.307617,4355.128418,4310.128418,4309.743652,4333.077148,4310.897461,4288.333496,4319.358887,4521.538574,4536.666504,4413.589844,4583.333496,,,,,,,,,,,,,,,,,,,,,,,,,,,,,,,,,,,,,,,,,,,,,,,,,,,,,,,,,,,,,,,,,,,,,,
1768918254.413838,1768918254.414834,127.0,0.0,4352.692383,4325.641113,4347.436035,4350.641113,4308.589844,4309.871582,4334.871582,4316.410156,4293.333496,4314.487305,4521.794922,4538.077148,4411.025879,4575.512695,,,,,,,,,,,,,,,,,,,,,,,,,,,,,,,,,,,,,,,,,,,,,,,,,,,,,,,,,,,,,,,,,,,,,,
1768918254.421647,1768918254.422442,0.0,0.0,4348.589844,4327.179688,4342.820313,4347.820313,4306.794922,4308.717773,4331.666504,4321.153809,4299.358887,4313.717773,4522.820313,4538.461426,4413.077148,4575.0,0.837194,0.360742,0.135786,0.180763,0.108108,0.557297,0.272256,0.258258,0.096111,0.071507,1.122909,0.639058,0.14127,0.199562,0.214069,0.30922,0.149894,0.117816,0.201098,0.104506,0.440367,0.26504,0.15301,0.172307,0.137913,0.34426,0.321501,0.130522,0.165429,0.156603,0.451399,0.852126,0.223649,0.278593,0.380139,0.667543,0.270313,0.294245,0.222069,0.35661,0.770139,0.178473,0.313005,0.188838,0.183833,1.087169,0.247103,0.239774,0.192056,0.119405,1.800831,0.498667,0.680428,0.286479,0.238773,0.846753,0.490839,0.399694,0.395688,0.436869,1.615022,0.453958,0.371397,0.185174,0.176534,3.034942,1.112929,0.263362,0.307881,0.273189
1768918254.429455,1768918254.430249,1.0,0.0,4344.102539,4327.436035,4340.384766,4347.94873,4306.153809,4303.461426,4324.102539,4313.846191,4288.461426,4311.153809,4513.717773,4529.230957,4405.512695,4573.333496,,,,,,,,,,,,,,,,,,,,,,,,,,,,,,,,,,,,,,,,,,,,,,,,,,,,,,,,,,,,,,,,,,,,,,
1768918254.437264,1768918254.437957,2.0,0.0,4340.641113,4321.922852,4342.436035,4344.743652,4305.769043,4302.563965,4328.589844,4314.358887,4281.538574,4306.666504,4505.128418,4529.102539,4395.384766,4565.897461,,,,,,,,,,,,,,,,,,,,,,,,,,,,,,,,,,,,,,,,,,,,,,,,,,,,,,,,,,,,,,,,,,,,,,
1768918254.445072,1768918254.445765,3.0,0.0,4335.512695,4318.205078,4341.922852,4341.794922,4303.846191,4310.128418,4334.102539,4321.025879,4290.0,4306.666504,4507.94873,4535.384766,4395.641113,4563.974121,,,,,,,,,,,,,,,,,,,,,,,,,,,,,,,,,,,,,,,,,,,,,,,,,,,,,,,,,,,,,,,,,,,,,,
1768918254.452881,1768918254.453373,4.0,0.0,4337.436035,4322.563965,4340.769043,4342.307617,4305.128418,4307.179688,4325.641113,4309.358887,4287.563965,4308.846191,4511.025879,4530.769043,4399.871582,4568.333496,,,,,,,,,,,,,,,,,,,,,,,,,,,,,,,,,,,,,,,,,,,,,,,,,,,,,,,,,,,,,,,,,,,,,,
1768918254.460689,1768918254.46118,5.0,0.0,4344.358887,4327.692383,4342.94873,4344.102539,4311.410156,4297.563965,4321.025879,4297.436035,4274.615234,4308.077148,4507.94873,4523.333496,4400.128418,4569.230957,,,,,,,,,,,,,,,,,,,,,,,,,,,,,,,,,,,,,,,,,,,,,,,,,,,,,,,,,,,,,,,,,,,,,,
1768918254.468498,1768918254.468888,6.0,0.0,4335.897461,4324.358887,4338.974121,4341.025879,4314.358887,4302.307617,4332.563965,4307.05127,4280.641113,4305.128418,4503.461426,4522.179688,4395.897461,4561.538574,,,,,,,,,,,,,,,,,,,,,,,,,,,,,,,,,,,,,,,,,,,,,,,,,,,,,,,,,,,,,,,,,,,,,,
1768918254.476306,1768918254.476696,7.0,0.0,4324.230957,4319.871582,4332.179688,4334.102539,4312.692383,4308.461426,4342.563965,4310.769043,4288.717773,4304.743652,4501.410156,4519.743652,4394.487305,4553.717773,,,,,,,,,,,,,,,,,,,,,,,,,,,,,,,,,,,,,,,,,,,,,,,,,,,,,,,,,,,,,,,,,,,,,,
1768918254.484115,1768918254.484304,8.0,0.0,4333.333496,4322.05127,4335.769043,4334.487305,4311.153809,4304.230957,4342.94873,4308.846191,4285.897461,4304.358887,4503.205078,4521.538574,4400.769043,4556.794922,,,,,,,,,,,,,,,,,,,,,,,,,,,,,,,,,,,,,,,,,,,,,,,,,,,,,,,,,,,,,,,,,,,,,,
1768918254.491923,1768918254.492112,9.0,0.0,4342.436035,4326.025879,4343.205078,4343.333496,4309.743652,4303.333496,4340.897461,4312.94873,4288.333496,4301.666504,4502.94873,4525.769043,4400.128418,4560.0,,,,,,,,,,,,,,,,,,,,,,,,,,,,,,,,,,,,,,,,,,,,,,,,,,,,,,,,,,,,,,,,,,,,,,
1768918254.499732,1768918254.500019,10.0,0.0,4336.410156,4325.0,4343.717773,4344.358887,4310.0,4307.436035,4341.922852,4307.05127,4285.769043,4300.512695,4500.256348,4520.128418,4389.358887,4552.820313,,,,,,,,,,,,,,,,,,,,,,,,,,,,,,,,,,,,,,,,,,,,,,,,,,,,,,,,,,,,,,,,,,,,,,
1768918254.50754,1768918254.507827,11.0,0.0,4335.512695,4323.589844,4341.025879,4340.641113,4311.666504,4311.538574,4347.05127,4300.256348,4281.153809,4304.487305,4503.077148,4519.102539,4394.615234,4554.230957,,,,,,,,,,,,,,,,,,,,,,,,,,,,,,,,,,,,,,,,,,,,,,,,,,,,,,,,,,,,,,,,,,,,,,
1768918254.515349,1768918254.515835,12.0,0.0,4340.128418,4319.743652,4333.846191,4340.128418,4308.333496,4306.025879,4341.922852,4308.974121,4290.0,4306.794922,4510.384766,4526.922852,4411.666504,4566.410156,,,,,,,,,,,,,,,,,,,,,,,,,,,,,,,,,,,,,,,,,,,,,,,,,,,,,,,,,,,,,,,,,,,,,,
1768918254.523157,1768918254.523642,13.0,0.0,4331.922852,4311.538574,4324.871582,4336.282227,4304.487305,4296.153809,4329.487305,4311.922852,4291.025879,4302.692383,4507.05127,4523.077148,4408.077148,4566.282227,,,,,,,,,,,,,,,,,,,,,,,,,,,,,,,,,,,,,,,,,,,,,,,,,,,,,,,,,,,,,,,,,,,,,,
1768918254.530966,1768918254.53155,14.0,0.0,4323.205078,4311.153809,4327.94873,4333.846191,4309.615234,4298.589844,4328.205078,4299.487305,4278.333496,4300.512695,4493.589844,4511.666504,4393.846191,4554.615234,,,,,,,,,,,,,,,,,,,,,,,,,,,,,,,,,,,,,,,,,,,,,,,,,,,,,,,,,,,,,,,,,,,,,,
1768918254.538774,1768918254.539358,15.0,0.0,4328.077148,4320.512695,4338.974121,4338.461426,4315.0,4307.692383,4333.846191,4302.179688,4281.538574,4303.846191,4493.205078,4514.743652,4394.358887,4551.410156,,,,,,,,,,,,,,,,,,,,,,,,,,,,,,,,,,,,,,,,,,,,,,,,,,,,,,,,,,,,,,,,,,,,,,
1768918254.546583,1768918254.546965,16.0,0.0,4330.384766,4321.922852,4339.358887,4341.666504,4309.102539,4309.358887,4340.256348,4316.025879,4295.256348,4308.846191,4505.256348,4523.589844,4399.230957,4555.769043,0.822818,0.371139,0.139073,0.199021,0.098842,0.579768,0.278238,0.254569,0.102428,0.071228,0.989705,0.607058,0.12698,0.216127,0.198921,0.347668,0.167951,0.101311,0.217151,0.106622,0.367975,0.258969,0.148803,0.171228,0.137831,0.27175,0.300392,0.103825,0.155345,0.143239,0.433435,0.842269,0.205829,0.280988,0.358431,0.640064,0.258098,0.302886,0.255924,0.382361,0.641959,0.176573,0.330864,0.230345,0.195807,0.930656,0.24873,0.279647,0.194064,0.126574,1.58705,0.514388,0.694454,0.273722,0.219727,0.754874,0.57622,0.391164,0.404611,0.362295,1.49944,0.420561,0.367103,0.17561,0.163228,3.721753,1.244841,0.281738,0.312619,0.256043
1768918254.554391,1768918254.554773,17.0,0.0,4326.666504,4317.179688,4334.358887,4342.179688,4308.589844,4308.717773,4342.436035,4315.897461,4295.0,4311.410156,4509.871582,4521.025879,4398.974121,4556.025879,,,,,,,,,,,,,,,,,,,,,,,,,,,,,,,,,,,,,,,,,,,,,,,,,,,,,,,,,,,,,,,,,,,,,,
1768918254.5622,1768918254.562681,18.0,0.0,4331.538574,4320.769043,4338.461426,4343.589844,4319.358887,4308.589844,4334.102539,4309.871582,4288.589844,4307.307617,4505.256348,4520.512695,4401.538574,4557.692383,,,,,,,,,,,,,,,,,,,,,,,,,,,,,,,,,,,,,,,,,,,,,,,,,,,,,,,,,,,,,,,,,,,,,,
1768918254.570008,1768918254.570488,19.0,0.0,4337.94873,4327.179688,4344.487305,4344.102539,4319.615234,4306.282227,4328.077148,4311.794922,4286.794922,4301.282227,4504.230957,4525.641113,4401.666504,4557.94873,,,,,,,,,,,,,,,,,,,,,,,,,,,,,,,,,,,,,,,,,,,,,,,,,,,,,,,,,,,,,,,,,,,,,,
1768918254.577817,1768918254.578496,20.0,0.0,4337.94873,4327.436035,4342.179688,4343.205078,4309.871582,4307.05127,4331.282227,4315.384766,4290.384766,4304.230957,4505.512695,4522.820313,4398.333496,4552.94873,,,,,,,,,,,,,,,,,,,,,,,,,,,,,,,,,,,,,,,,,,,,,,,,,,,,,,,,,,,,,,,,,,,,,,
1768918254.585625,1768918254.586304,21.0,0.0,4339.102539,4326.282227,4338.846191,4342.692383,4308.846191,4308.717773,4330.769043,4313.333496,4295.128418,4310.0,4509.871582,4524.102539,4400.256348,4553.717773,,,,,,,,,,,,,,,,,,,,,,,,,,,,,,,,,,,,,,,,,,,,,,,,,,,,,,,,,,,,,,,,,,,,,,
1768918254.593434,1768918254.594211,22.0,0.0,4338.589844,4324.871582,4341.153809,4344.615234,4312.94873,4307.436035,4324.871582,4314.871582,4295.769043,4310.512695,4516.410156,4535.512695,4406.410156,4558.974121,,,,,,,,,,,,,,,,,,,,,,,,,,,,,,,,,,,,,,,,,,,,,,,,,,,,,,,,,,,,,,,,,,,,,,
1768918254.601242,1768918254.602019,23.0,0.0,4332.563965,4322.307617,4339.743652,4348.205078,4312.563965,4310.0,4326.922852,4316.410156,4292.563965,4309.358887,4512.436035,4534.743652,4407.179688,4557.05127,,,,,,,,,,,,,,,,,,,,,,,,,,,,,,,,,,,,,,,,,,,,,,,,,,,,,,,,,,,,,,,,,,,,,,
1768918254.609051,1768918254.609627,24.0,0.0,4335.384766,4323.589844,4337.563965,4349.358887,4313.205078,4309.615234,4332.179688,4314.230957,4291.922852,4310.256348,4510.512695,4529.230957,4404.358887,4551.794922,,,,,,,,,,,,,,,,,,,,,,,,,,,,,,,,,,,,,,,,,,,,,,,,,,,,,,,,,,,,,,,,,,,,,,
1768918254.616859,1768918254.617435,25.0,0.0,4345.256348,4326.282227,4343.846191,4349.230957,4313.205078,4307.307617,4332.820313,4323.461426,4300.256348,4313.333496,4522.436035,4537.692383,4409.102539,4556.794922,,,,,,,,,,,,,,,,,,,,,,,,,,,,,,,,,,,,,,,,,,,,,,,,,,,,,,,,,,,,,,,,,,,,,,
1768918254.624668,1768918254.625142,26.0,0.0,4343.846191,4326.666504,4349.487305,4348.461426,4307.563965,4313.846191,4331.666504,4329.358887,4303.333496,4314.358887,4528.333496,4545.512695,4414.743652,4561.410156,,,,,,,,,,,,,,,,,,,,,,,,,,,,,,,,,,,,,,,,,,,,,,,,,,,,,,,,,,,,,,,,,,,,,,
1768918254.632476,1768918254.63295,27.0,0.0,4335.897461,4328.461426,4346.794922,4347.179688,4309.230957,4318.205078,4326.282227,4316.538574,4294.871582,4311.922852,4513.846191,4539.743652,4408.333496,4555.641113,,,,,,,,,,,,,,,,,,,,,,,,,,,,,,,,,,,,,,,,,,,,,,,,,,,,,,,,,,,,,,,,,,,,,,
1768918254.640285,1768918254.640558,28.0,0.0,4336.410156,4329.615234,4345.0,4348.589844,4318.974121,4314.102539,4322.692383,4309.102539,4291.025879,4310.384766,4504.743652,4533.974121,4398.846191,4550.897461,,,,,,,,,,,,,,,,,,,,,,,,,,,,,,,,,,,,,,,,,,,,,,,,,,,,,,,,,,,,,,,,,,,,,,
1768918254.648093,1768918254.648366,29.0,0.0,4340.897461,4326.922852,4348.333496,4350.512695,4319.358887,4311.538574,4326.282227,4323.717773,4297.436035,4312.692383,4518.333496,4535.897461,4401.794922,4552.820313,,,,,,,,,,,,,,,,,,,,,,,,,,,,,,,,,,,,,,,,,,,,,,,,,,,,,,,,,,,,,,,,,,,,,,
1768918254.655902,1768918254.656074,30.0,0.0,4337.820313,4326.025879,4346.025879,4348.077148,4311.410156,4312.820313,4324.743652,4329.743652,4298.717773,4314.230957,4523.974121,4536.922852,4407.179688,4555.256348,,,,,,,,,,,,,,,,,,,,,,,,,,,,,,,,,,,,,,,,,,,,,,,,,,,,,,,,,,,,,,,,,,,,,,
1768918254.66371,1768918254.663881,31.0,0.0,4332.94873,4326.666504,4340.512695,4347.436035,4310.384766,4311.025879,4315.769043,4315.769043,4295.512695,4312.179688,4510.512695,4533.717773,4402.563965,4553.846191,,,,,,,,,,,,,,,,,,,,,,,,,,,,,,,,,,,,,,,,,,,,,,,,,,,,,,,,,,,,,,,,,,,,,,
1768918254.671519,1768918254.671489,32.0,0.0,4338.077148,4323.717773,4345.128418,4348.461426,4313.077148,4308.846191,4313.461426,4312.436035,4297.05127,4310.641113,4509.743652,4533.717773,4399.102539,4554.358887,0.783354,0.367567,0.144956,0.218956,0.097694,0.57868,0.267793,0.22775,0.115369,0.076432,0.860061,0.528099,0.111108,0.224227,0.180211,0.393211,0.186803,0.089002,0.226015,0.107756,0.302365,0.248016,0.150129,0.170071,0.141764,0.193935,0.27685,0.081777,0.145424,0.134553,0.410113,0.788853,0.193316,0.289743,0.3381,0.603599,0.26997,0.312666,0.295733,0.410391,0.496821,0.188702,0.330546,0.267548,0.211601,0.725132,0.246693,0.293506,0.189287,0.134915,1.269986,0.51534,0.637067,0.257311,0.201243,0.691339,0.599101,0.380902,0.414076,0.308176,1.235874,0.408746,0.325144,0.173575,0.150171,4.120344,1.248746,0.280482,0.321663,0.233952
1768918254.679327,1768918254.679297,33.0,0.0,4342.563965,4324.358887,4350.0,4351.410156,4313.846191,4310.512695,4320.897461,4321.153809,4297.179688,4311.666504,4521.666504,4535.641113,4402.563965,4552.820313,,,,,,,,,,,,,,,,,,,,,,,,,,,,,,,,,,,,,,,,,,,,,,,,,,,,,,,,,,,,,,,,,,,,,,
1768918254.687136,1768918254.687005,34.0,0.0,4334.358887,4326.666504,4343.717773,4354.358887,4312.94873,4311.666504,4321.410156,4320.128418,4293.846191,4312.820313,4516.410156,4528.589844,4402.179688,4546.410156,,,,,,,,,,,,,,,,,,,,,,,,,,,,,,,,,,,,,,,,,,,,,,,,,,,,,,,,,,,,,,,,,,,,,,
1768918254.694945,1768918254.694812,35.0,0.0,4323.461426,4321.538574,4337.307617,4349.615234,4308.717773,4309.615234,4314.487305,4311.153809,4293.333496,4310.384766,4504.487305,4519.487305,4396.666504,4539.230957,,,,,,,,,,,,,,,,,,,,,,,,,,,,,,,,,,,,,,,,,,,,,,,,,,,,,,,,,,,,,,,,,,,,,,
1768918254.702753,1768918254.70282,36.0,0.0,4326.282227,4319.230957,4341.922852,4345.128418,4306.025879,4307.179688,4309.102539,4313.974121,4295.512695,4308.333496,4507.05127,4521.794922,4397.94873,4537.563965,,,,,,,,,,,,,,,,,,,,,,,,,,,,,,,,,,,,,,,,,,,,,,,,,,,,,,,,,,,,,,,,,,,,,,
1768918254.710561,1768918254.710627,37.0,0.0,4336.922852,4323.205078,4344.871582,4349.102539,4310.641113,4310.0,4308.717773,4321.538574,4296.538574,4313.846191,4513.205078,4526.282227,4405.641113,4545.641113,,,,,,,,,,,,,,,,,,,,,,,,,,,,,,,,,,,,,,,,,,,,,,,,,,,,,,,,,,,,,,,,,,,,,,
1768918254.71837,1768918254.718535,38.0,0.0,4340.897461,4326.538574,4341.153809,4352.05127,4315.256348,4313.205078,4311.410156,4318.205078,4296.538574,4319.487305,4517.179688,4524.358887,4410.897461,4556.922852,,,,,,,,,,,,,,,,,,,,,,,,,,,,,,,,,,,,,,,,,,,,,,,,,,,,,,,,,,,,,,,,,,,,,,
1768918254.726179,1768918254.726343,39.0,0.0,4337.820313,4330.128418,4340.769043,4349.615234,4317.692383,4312.563965,4312.179688,4313.589844,4297.94873,4316.666504,4520.128418,4523.717773,4410.641113,4559.230957,,,,,,,,,,,,,,,,,,,,,,,,,,,,,,,,,,,,,,,,,,,,,,,,,,,,,,,,,,,,,,,,,,,,,,
1768918254.733987,1768918254.73435,40.0,0.0,4337.820313,4330.897461,4343.205078,4349.743652,4321.538574,4313.077148,4310.384766,4311.922852,4295.512695,4309.102539,4513.077148,4523.846191,4406.025879,4555.128418,,,,,,,,,,,,,,,,,,,,,,,,,,,,,,,,,,,,,,,,,,,,,,,,,,,,,,,,,,,,,,,,,,,,,,
1768918254.741795,1768918254.742158,41.0,0.0,4339.743652,4326.025879,4342.179688,4352.820313,4322.692383,4312.820313,4305.512695,4318.846191,4296.025879,4308.205078,4506.410156,4523.205078,4403.077148,4554.102539,,,,,,,,,,,,,,,,,,,,,,,,,,,,,,,,,,,,,,,,,,,,,,,,,,,,,,,,,,,,,,,,,,,,,,
1768918254.749604,1768918254.749866,42.0,0.0,4333.974121,4325.897461,4340.641113,4354.743652,4318.846191,4310.128418,4302.05127,4327.692383,4307.820313,4313.846191,4515.512695,4523.717773,4406.538574,4557.820313,,,,,,,,,,,,,,,,,,,,,,,,,,,,,,,,,,,,,,,,,,,,,,,,,,,,,,,,,,,,,,,,,,,,,,
1768918254.757413,1768918254.757673,43.0,0.0,4327.05127,4330.641113,4341.666504,4354.743652,4318.717773,4314.615234,4310.512695,4324.615234,4312.179688,4320.0,4525.641113,4528.077148,4412.692383,4562.307617,,,,,,,,,,,,,,,,,,,,,,,,,,,,,,,,,,,,,,,,,,,,,,,,,,,,,,,,,,,,,,,,,,,,,,
1768918254.765221,1768918254.765681,44.0,0.0,4335.641113,4333.205078,4342.307617,4355.256348,4322.179688,4319.230957,4312.436035,4319.743652,4304.230957,4321.025879,4524.615234,4535.128418,4415.641113,4568.589844,,,,,,,,,,,,,,,,,,,,,,,,,,,,,,,,,,,,,,,,,,,,,,,,,,,,,,,,,,,,,,,,,,,,,,
1768918254.773029,1768918254.773489,45.0,0.0,4350.641113,4338.589844,4346.922852,4362.05127,4317.307617,4314.871582,4300.384766,4325.256348,4305.256348,4315.897461,4523.589844,4542.05127,4414.743652,4572.692383,,,,,,,,,,,,,,,,,,,,,,,,,,,,,,,,,,,,,,,,,,,,,,,,,,,,,,,,,,,,,,,,,,,,,,
1768918254.780838,1768918254.781397,46.0,0.0,4350.641113,4343.717773,4350.641113,4367.563965,4312.94873,4312.563965,4298.205078,4327.692383,4306.538574,4315.769043,4527.179688,4539.871582,4413.077148,4565.897461,,,,,,,,,,,,,,,,,,,,,,,,,,,,,,,,,,,,,,,,,,,,,,,,,,,,,,,,,,,,,,,,,,,,,,
1768918254.788646,1768918254.789205,47.0,0.0,4341.538574,4341.538574,4344.871582,4366.025879,4318.717773,4312.179688,4301.025879,4319.102539,4297.05127,4317.692383,4524.743652,4528.461426,4412.820313,4551.794922,,,,,,,,,,,,,,,,,,,,,,,,,,,,,,,,,,,,,,,,,,,,,,,,,,,,,,,,,,,,,,,,,,,,,,
1768918254.796455,1768918254.796813,48.0,0.0,4340.512695,4338.333496,4341.538574,4364.358887,4322.692383,4312.307617,4300.641113,4324.487305,4298.974121,4313.205078,4521.538574,4529.102539,4410.384766,4548.333496,0.736304,0.350793,0.145228,0.236178,0.10288,0.553197,0.249128,0.182062,0.132333,0.087133,0.750454,0.422359,0.092949,0.219915,0.161549,0.435067,0.198114,0.074813,0.22576,0.106372,0.245821,0.227744,0.153938,0.164896,0.143955,0.128362,0.265682,0.074083,0.139534,0.132378,0.401511,0.719921,0.204106,0.298751,0.315723,0.562969,0.322622,0.332784,0.328484,0.428322,0.378592,0.229476,0.311661,0.293082,0.230365,0.523803,0.244273,0.281011,0.180242,0.141233,0.929622,0.502365,0.527969,0.239995,0.182055,0.627252,0.55037,0.363052,0.417893,0.278196,0.926098,0.426554,0.25421,0.179122,0.140969,4.068395,1.115643,0.251957,0.323545,0.206726
1768918254.804263,1768918254.80462,49.0,0.0,4343.589844,4337.692383,4349.487305,4363.205078,4321.922852,4320.641113,4312.05127,4336.153809,4310.384766,4313.717773,4530.641113,4540.128418,4414.358887,4555.641113,,,,,,,,,,,,,,,,,,,,,,,,,,,,,,,,,,,,,,,,,,,,,,,,,,,,,,,,,,,,,,,,,,,,,,
1768918254.812072,1768918254.812328,50.0,0.0,4345.641113,4339.102539,4353.205078,4358.589844,4316.666504,4322.436035,4313.974121,4330.0,4310.897461,4321.666504,4540.256348,4542.179688,4422.94873,4556.538574,,,,,,,,,,,,,,,,,,,,,,,,,,,,,,,,,,,,,,,,,,,,,,,,,,,,,,,,,,,,,,,,,,,,,,
1768918254.81988,1768918254.820136,51.0,0.0,4348.461426,4341.410156,4347.436035,4359.743652,4312.179688,4313.077148,4299.230957,4323.461426,4310.0,4326.922852,4535.512695,4538.333496,4422.05127,4551.410156,,,,,,,,,,,,,,,,,,,,,,,,,,,,,,,,,,,,,,,,,,,,,,,,,,,,,,,,,,,,,,,,,,,,,,
1768918254.827689,1768918254.828144,52.0,0.0,4350.769043,4343.974121,4343.077148,4366.025879,4318.077148,4312.436035,4296.153809,4327.05127,4308.077148,4324.615234,4524.487305,4538.077148,4413.974121,4550.256348,,,,,,,,,,,,,,,,,,,,,,,,,,,,,,,,,,,,,,,,,,,,,,,,,,,,,,,,,,,,,,,,,,,,,,
1768918254.835498,1768918254.835952,53.0,0.0,4347.94873,4342.692383,4340.256348,4367.179688,4322.436035,4317.307617,4303.205078,4327.436035,4298.077148,4316.025879,4521.666504,4533.717773,4413.589844,4551.922852,,,,,,,,,,,,,,,,,,,,,,,,,,,,,,,,,,,,,,,,,,,,,,,,,,,,,,,,,,,,,,,,,,,,,,
1768918254.843306,1768918254.843659,54.0,0.0,4347.436035,4336.538574,4345.256348,4365.384766,4312.563965,4312.563965,4298.077148,4324.615234,4295.512695,4310.384766,4529.487305,4535.256348,4423.205078,4555.769043,,,,,,,,,,,,,,,,,,,,,,,,,,,,,,,,,,,,,,,,,,,,,,,,,,,,,,,,,,,,,,,,,,,,,,
1768918254.851114,1768918254.851467,55.0,0.0,4353.974121,4330.897461,4356.410156,4362.563965,4309.615234,4306.794922,4291.538574,4325.128418,4302.820313,4318.461426,4538.974121,4550.128418,4427.820313,4558.974121,,,,,,,,,,,,,,,,,,,,,,,,,,,,,,,,,,,,,,,,,,,,,,,,,,,,,,,,,,,,,,,,,,,,,,
1768918254.858923,1768918254.859075,56.0,0.0,4358.717773,4332.692383,4355.0,4358.589844,4322.307617,4312.05127,4300.769043,4324.230957,4302.820313,4325.384766,4538.205078,4550.384766,4421.794922,4557.820313,,,,,,,,,,,,,,,,,,,,,,,,,,,,,,,,,,,,,,,,,,,,,,,,,,,,,,,,,,,,,,,,,,,,,,
1768918254.866732,1768918254.866883,57.0,0.0,4353.077148,4338.333496,4343.717773,4357.179688,4324.230957,4320.128418,4311.282227,4324.487305,4300.769043,4320.897461,4527.436035,4536.153809,4413.461426,4554.615234,,,,,,,,,,,,,,,,,,,,,,,,,,,,,,,,,,,,,,,,,,,,,,,,,,,,,,,,,,,,,,,,,,,,,,
1768918254.87454,1768918254.87459,58.0,0.0,4342.436035,4335.384766,4337.820313,4353.589844,4317.179688,4318.333496,4303.717773,4329.230957,4303.717773,4315.0,4522.94873,4532.05127,4414.743652,4553.205078,,,,,,,,,,,,,,,,,,,,,,,,,,,,,,,,,,,,,,,,,,,,,,,,,,,,,,,,,,,,,,,,,,,,,,
1768918254.882348,1768918254.882398,59.0,0.0,4339.230957,4329.615234,4339.102539,4349.487305,4320.384766,4311.666504,4295.0,4332.436035,4306.538574,4315.512695,4530.769043,4539.743652,4423.461426,4552.94873,,,,,,,,,,,,,,,,,,,,,,,,,,,,,,,,,,,,,,,,,,,,,,,,,,,,,,,,,,,,,,,,,,,,,,
1768918254.890157,1768918254.890405,60.0,0.0,4342.94873,4335.128418,4342.179688,4353.333496,4327.436035,4309.743652,4299.230957,4333.974121,4308.589844,4321.282227,4537.94873,4546.153809,4429.230957,4557.692383,,,,,,,,,,,,,,,,,,,,,,,,,,,,,,,,,,,,,,,,,,,,,,,,,,,,,,,,,,,,,,,,,,,,,,
1768918254.897966,1768918254.898213,61.0,0.0,4343.333496,4338.077148,4342.307617,4351.153809,4322.179688,4311.410156,4297.94873,4328.205078,4306.025879,4322.692383,4531.410156,4542.94873,4425.128418,4557.307617,,,,,,,,,,,,,,,,,,,,,,,,,,,,,,,,,,,,,,,,,,,,,,,,,,,,,,,,,,,,,,,,,,,,,,
1768918254.905774,1768918254.906121,62.0,0.0,4338.077148,4325.769043,4334.358887,4341.282227,4309.230957,4307.692383,4286.282227,4316.410156,4294.871582,4313.205078,4515.256348,4526.538574,4411.025879,4538.717773,,,,,,,,,,,,,,,,,,,,,,,,,,,,,,,,,,,,,,,,,,,,,,,,,,,,,,,,,,,,,,,,,,,,,,
1768918254.913582,1768918254.913929,63.0,0.0,4335.256348,4322.94873,4330.512695,4343.717773,4309.230957,4309.615234,4293.461426,4315.769043,4291.025879,4304.102539,4508.717773,4514.230957,4404.487305,4527.179688,,,,,,,,,,,,,,,,,,,,,,,,,,,,,,,,,,,,,,,,,,,,,,,,,,,,,,,,,,,,,,,,,,,,,,
1768918254.921391,1768918254.921936,64.0,0.0,4335.256348,4333.461426,4338.846191,4348.717773,4320.0,4318.461426,4308.846191,4325.512695,4302.05127,4310.0,4517.94873,4526.538574,4413.846191,4535.256348,0.719237,0.328148,0.139916,0.249004,0.112659,0.533415,0.236029,0.135167,0.150087,0.101277,0.675678,0.31544,0.079228,0.208523,0.146134,0.480371,0.196454,0.05931,0.217297,0.101306,0.205272,0.199736,0.155939,0.153707,0.140753,0.0847,0.274301,0.085874,0.139057,0.136773,0.417043,0.669654,0.252136,0.303462,0.293273,0.543863,0.415599,0.369313,0.344194,0.427954,0.300967,0.301852,0.281246,0.301369,0.249043,0.363193,0.244478,0.253111,0.171483,0.143072,0.660051,0.475768,0.402705,0.226435,0.166276,0.578644,0.445645,0.338546,0.417127,0.268932,0.678396,0.466123,0.17572,0.192221,0.139841,3.602314,0.887424,0.20296,0.314517,0.179954
1768918254.9292,1768918254.929744,65.0,0.0,4334.487305,4331.794922,4339.743652,4344.102539,4322.05127,4318.077148,4304.871582,4329.230957,4312.307617,4321.538574,4532.179688,4542.05127,4426.025879,4545.0,,,,,,,,,,,,,,,,,,,,,,,,,,,,,,,,,,,,,,,,,,,,,,,,,,,,,,,,,,,,,,,,,,,,,,
1768918254.937008,1768918254.937651,66.0,0.0,4337.563965,4324.487305,4329.230957,4340.384766,4317.692383,4309.615234,4294.871582,4325.384766,4310.256348,4323.077148,4537.692383,4536.922852,4428.846191,4546.538574,,,,,,,,,,,,,,,,,,,,,,,,,,,,,,,,,,,,,,,,,,,,,,,,,,,,,,,,,,,,,,,,,,,,,,
1768918254.944816,1768918254.945459,67.0,0.0,4341.410156,4327.436035,4325.256348,4342.820313,4318.589844,4306.025879,4292.692383,4323.974121,4306.922852,4318.077148,4533.717773,4528.205078,4425.128418,4543.205078,,,,,,,,,,,,,,,,,,,,,,,,,,,,,,,,,,,,,,,,,,,,,,,,,,,,,,,,,,,,,,,,,,,,,,
1768918254.952625,1768918254.953067,68.0,0.0,4341.666504,4333.333496,4338.333496,4347.05127,4322.94873,4316.153809,4301.025879,4328.589844,4310.0,4320.897461,4533.589844,4534.487305,4425.128418,4545.897461,,,,,,,,,,,,,,,,,,,,,,,,,,,,,,,,,,,,,,,,,,,,,,,,,,,,,,,,,,,,,,,,,,,,,,
1768918254.960434,1768918254.960874,69.0,0.0,4343.589844,4333.205078,4351.410156,4352.563965,4324.615234,4327.179688,4311.794922,4334.615234,4312.820313,4328.846191,4541.666504,4542.179688,4427.94873,4549.871582,,,,,,,,,,,,,,,,,,,,,,,,,,,,,,,,,,,,,,,,,,,,,,,,,,,,,,,,,,,,,,,,,,,,,,
1768918254.968242,1768918254.968782,70.0,0.0,4341.025879,4333.333496,4343.974121,4351.153809,4323.461426,4320.769043,4303.589844,4334.487305,4311.153809,4328.717773,4544.358887,4541.410156,4429.102539,4542.94873,,,,,,,,,,,,,,,,,,,,,,,,,,,,,,,,,,,,,,,,,,,,,,,,,,,,,,,,,,,,,,,,,,,,,,
1768918254.976051,1768918254.97659,71.0,0.0,4336.153809,4336.153809,4331.538574,4347.179688,4321.794922,4309.871582,4287.05127,4326.666504,4310.769043,4325.128418,4538.846191,4537.820313,4428.333496,4538.461426,,,,,,,,,,,,,,,,,,,,,,,,,,,,,,,,,,,,,,,,,,,,,,,,,,,,,,,,,,,,,,,,,,,,,,
1768918254.983859,1768918254.984298,72.0,0.0,4345.641113,4341.282227,4334.487305,4353.717773,4323.589844,4315.128418,4291.025879,4323.461426,4309.487305,4324.871582,4538.589844,4539.487305,4430.384766,4555.0,,,,,,,,,,,,,,,,,,,,,,,,,,,,,,,,,,,,,,,,,,,,,,,,,,,,,,,,,,,,,,,,,,,,,,
1768918254.991668,1768918254.992105,73.0,0.0,4358.974121,4349.487305,4344.615234,4361.538574,4325.384766,4319.358887,4300.0,4324.230957,4305.384766,4325.641113,4542.307617,4548.589844,4433.333496,4567.94873,,,,,,,,,,,,,,,,,,,,,,,,,,,,,,,,,,,,,,,,,,,,,,,,,,,,,,,,,,,,,,,,,,,,,,
1768918254.999476,1768918254.999813,74.0,0.0,4355.256348,4351.153809,4349.358887,4359.358887,4321.922852,4311.410156,4288.974121,4325.384766,4305.128418,4326.025879,4543.717773,4550.769043,4433.205078,4562.179688,,,,,,,,,,,,,,,,,,,,,,,,,,,,,,,,,,,,,,,,,,,,,,,,,,,,,,,,,,,,,,,,,,,,,,
1768918255.007285,1768918255.007621,75.0,0.0,4348.461426,4345.641113,4348.717773,4358.333496,4321.922852,4316.794922,4290.256348,4329.871582,4309.230957,4323.846191,4542.94873,4542.05127,4430.256348,4552.307617,,,,,,,,,,,,,,,,,,,,,,,,,,,,,,,,,,,,,,,,,,,,,,,,,,,,,,,,,,,,,,,,,,,,,,
1768918255.015093,1768918255.015629,76.0,0.0,4345.897461,4341.153809,4345.769043,4361.794922,4325.128418,4328.205078,4304.358887,4328.333496,4308.974121,4322.05127,4536.025879,4535.512695,4422.179688,4541.410156,,,,,,,,,,,,,,,,,,,,,,,,,,,,,,,,,,,,,,,,,,,,,,,,,,,,,,,,,,,,,,,,,,,,,,
1768918255.022902,1768918255.023437,77.0,0.0,4335.0,4338.077148,4341.282227,4353.846191,4325.641113,4322.692383,4297.820313,4324.487305,4307.179688,4323.589844,4532.436035,4535.769043,4413.717773,4536.666504,,,,,,,,,,,,,,,,,,,,,,,,,,,,,,,,,,,,,,,,,,,,,,,,,,,,,,,,,,,,,,,,,,,,,,
1768918255.03071,1768918255.031344,78.0,0.0,4328.333496,4328.846191,4337.05127,4341.153809,4323.077148,4318.589844,4292.436035,4337.692383,4310.384766,4321.025879,4537.179688,4537.05127,4412.692383,4538.333496,,,,,,,,,,,,,,,,,,,,,,,,,,,,,,,,,,,,,,,,,,,,,,,,,,,,,,,,,,,,,,,,,,,,,,
1768918255.038519,1768918255.039152,79.0,0.0,4334.230957,4322.179688,4332.94873,4340.512695,4318.846191,4326.410156,4308.846191,4350.897461,4313.717773,4315.641113,4533.077148,4534.102539,4410.641113,4537.179688,,,,,,,,,,,,,,,,,,,,,,,,,,,,,,,,,,,,,,,,,,,,,,,,,,,,,,,,,,,,,,,,,,,,,,
1768918255.046327,1768918255.04676,80.0,0.0,4341.025879,4331.282227,4336.410156,4344.871582,4320.897461,4330.897461,4321.153809,4344.487305,4313.333496,4320.897461,4528.589844,4531.922852,4412.307617,4537.307617,0.762007,0.313825,0.135051,0.259769,0.126153,0.543048,0.237975,0.105129,0.165546,0.11521,0.63295,0.229523,0.077927,0.199877,0.136147,0.534836,0.183453,0.047633,0.203635,0.09268,0.185363,0.172183,0.155487,0.137328,0.132303,0.06431,0.297676,0.113162,0.142428,0.145147,0.445027,0.656388,0.335235,0.302394,0.273581,0.54632,0.52866,0.420835,0.338634,0.408827,0.273008,0.390735,0.252241,0.290229,0.263165,0.268495,0.246366,0.223844,0.166298,0.139715,0.543424,0.439597,0.295849,0.222854,0.161101,0.594702,0.323389,0.313775,0.416742,0.270384,0.580156,0.510247,0.111705,0.21265,0.14792,2.907702,0.638856,0.148393,0.302396,0.159604
1768918255.054136,1768918255.054568,81.0,0.0,4344.102539,4342.05127,4347.05127,4347.307617,4327.94873,4325.384766,4309.230957,4337.94873,4312.94873,4330.0,4539.487305,4538.333496,4424.102539,4542.05127,,,,,,,,,,,,,,,,,,,,,,,,,,,,,,,,,,,,,,,,,,,,,,,,,,,,,,,,,,,,,,,,,,,,,,
1768918255.061944,1768918255.062276,82.0,0.0,4345.256348,4343.205078,4349.871582,4349.615234,4326.922852,4318.205078,4294.230957,4338.846191,4313.333496,4326.922852,4538.974121,4542.820313,4425.641113,4541.666504,,,,,,,,,,,,,,,,,,,,,,,,,,,,,,,,,,,,,,,,,,,,,,,,,,,,,,,,,,,,,,,,,,,,,,
1768918255.069753,1768918255.070083,83.0,0.0,4340.256348,4337.94873,4344.615234,4348.589844,4322.94873,4319.743652,4299.358887,4341.666504,4312.436035,4318.974121,4524.487305,4533.461426,4414.230957,4532.94873,,,,,,,,,,,,,,,,,,,,,,,,,,,,,,,,,,,,,,,,,,,,,,,,,,,,,,,,,,,,,,,,,,,,,,
1768918255.077561,1768918255.077691,84.0,0.0,4331.922852,4335.256348,4338.461426,4341.794922,4325.128418,4324.358887,4305.769043,4340.256348,4311.410156,4318.974121,4521.153809,4521.538574,4409.230957,4522.820313,,,,,,,,,,,,,,,,,,,,,,,,,,,,,,,,,,,,,,,,,,,,,,,,,,,,,,,,,,,,,,,,,,,,,,
1768918255.08537,1768918255.085498,85.0,0.0,4332.05127,4338.717773,4336.922852,4342.563965,4327.820313,4322.563965,4295.897461,4327.307617,4309.871582,4323.205078,4522.820313,4519.871582,4410.641113,4520.641113,,,,,,,,,,,,,,,,,,,,,,,,,,,,,,,,,,,,,,,,,,,,,,,,,,,,,,,,,,,,,,,,,,,,,,
1768918255.093178,1768918255.093406,86.0,0.0,4339.871582,4341.666504,4339.743652,4348.846191,4327.05127,4319.615234,4285.897461,4322.692383,4308.205078,4327.307617,4528.077148,4530.384766,4419.615234,4533.077148,,,,,,,,,,,,,,,,,,,,,,,,,,,,,,,,,,,,,,,,,,,,,,,,,,,,,,,,,,,,,,,,,,,,,,
1768918255.100987,1768918255.101214,87.0,0.0,4344.230957,4342.179688,4342.179688,4350.641113,4325.641113,4321.922852,4294.102539,4331.410156,4311.410156,4327.307617,4538.461426,4538.974121,4428.846191,4541.410156,,,,,,,,,,,,,,,,,,,,,,,,,,,,,,,,,,,,,,,,,,,,,,,,,,,,,,,,,,,,,,,,,,,,,,
1768918255.108795,1768918255.109221,88.0,0.0,4339.230957,4341.922852,4342.692383,4352.179688,4327.05127,4324.743652,4306.025879,4334.871582,4311.794922,4318.205078,4530.641113,4529.743652,4414.743652,4529.487305,,,,,,,,,,,,,,,,,,,,,,,,,,,,,,,,,,,,,,,,,,,,,,,,,,,,,,,,,,,,,,,,,,,,,,
1768918255.116604,1768918255.117029,89.0,0.0,4335.384766,4343.717773,4343.205078,4355.769043,4334.743652,4326.538574,4305.384766,4332.820313,4302.307617,4307.820313,4508.461426,4518.589844,4391.794922,4515.0,,,,,,,,,,,,,,,,,,,,,,,,,,,,,,,,,,,,,,,,,,,,,,,,,,,,,,,,,,,,,,,,,,,,,,
1768918255.124412,1768918255.124937,90.0,0.0,4338.717773,4343.461426,4345.641113,4355.384766,4337.692383,4325.897461,4298.333496,4332.94873,4298.589844,4306.538574,4503.077148,4523.077148,4390.769043,4516.666504,,,,,,,,,,,,,,,,,,,,,,,,,,,,,,,,,,,,,,,,,,,,,,,,,,,,,,,,,,,,,,,,,,,,,,
1768918255.132221,1768918255.132744,91.0,0.0,4339.871582,4338.333496,4344.487305,4351.153809,4329.871582,4320.384766,4292.692383,4332.692383,4303.589844,4310.0,4512.94873,4527.692383,4396.666504,4522.307617,,,,,,,,,,,,,,,,,,,,,,,,,,,,,,,,,,,,,,,,,,,,,,,,,,,,,,,,,,,,,,,,,,,,,,
1768918255.140029,1768918255.140752,92.0,0.0,4339.487305,4337.307617,4341.922852,4352.05127,4325.769043,4319.487305,4294.358887,4331.410156,4304.871582,4309.615234,4520.512695,4525.384766,4397.563965,4521.794922,,,,,,,,,,,,,,,,,,,,,,,,,,,,,,,,,,,,,,,,,,,,,,,,,,,,,,,,,,,,,,,,,,,,,,
1768918255.147838,1768918255.14856,93.0,0.0,4337.94873,4338.846191,4345.384766,4353.461426,4328.589844,4324.615234,4300.128418,4330.384766,4304.358887,4309.743652,4521.794922,4524.102539,4401.922852,4520.897461,,,,,,,,,,,,,,,,,,,,,,,,,,,,,,,,,,,,,,,,,,,,,,,,,,,,,,,,,,,,,,,,,,,,,,
1768918255.155646,1768918255.156267,94.0,0.0,4331.153809,4333.333496,4343.717773,4347.692383,4326.794922,4324.615234,4301.153809,4332.436035,4311.794922,4315.384766,4519.230957,4523.333496,4403.077148,4522.307617,,,,,,,,,,,,,,,,,,,,,,,,,,,,,,,,,,,,,,,,,,,,,,,,,,,,,,,,,,,,,,,,,,,,,,
1768918255.163455,1768918255.164075,95.0,0.0,4322.563965,4324.102539,4330.897461,4339.615234,4324.871582,4319.358887,4297.307617,4336.282227,4311.410156,4316.794922,4517.436035,4516.794922,4398.205078,4518.461426,,,,,,,,,,,,,,,,,,,,,,,,,,,,,,,,,,,,,,,,,,,,,,,,,,,,,,,,,,,,,,,,,,,,,,
1768918255.171263,1768918255.171683,96.0,0.0,4324.102539,4326.410156,4327.05127,4338.717773,4323.205078,4315.128418,4287.94873,4329.743652,4298.333496,4311.153809,4511.282227,4509.230957,4396.410156,4512.436035,0.879489,0.316949,0.135749,0.272853,0.141839,0.600027,0.256784,0.098412,0.176028,0.125228,0.623024,0.176372,0.090495,0.200593,0.133077,0.608905,0.165344,0.042437,0.188225,0.08209,0.17797,0.154664,0.156182,0.118221,0.122619,0.060473,0.31974,0.145369,0.147334,0.153695,0.462622,0.66564,0.435366,0.298622,0.259859,0.572566,0.624307,0.474545,0.314167,0.377548,0.276982,0.46577,0.236461,0.264726,0.269122,0.227529,0.245603,0.202325,0.166194,0.132678,0.596876,0.402268,0.225574,0.236502,0.172096,0.730493,0.229252,0.290312,0.417523,0.272016,0.616738,0.543505,0.07166,0.241204,0.162037,2.214223,0.460362,0.10384,0.301971,0.148138
1768918255.179072,1768918255.17949,97.0,0.0,4336.410156,4337.307617,4339.871582,4346.410156,4323.205078,4314.487305,4281.538574,4321.922852,4296.282227,4308.589844,4506.025879,4511.666504,4397.436035,4515.128418,,,,,,,,,,,,,,,,,,,,,,,,,,,,,,,,,,,,,,,,,,,,,,,,,,,,,,,,,,,,,,,,,,,,,,
1768918255.18688,1768918255.187198,98.0,0.0,4342.94873,4341.282227,4347.94873,4351.538574,4330.128418,4320.384766,4286.794922,4326.282227,4303.205078,4310.384766,4510.897461,4518.974121,4396.666504,4520.0,,,,,,,,,,,,,,,,,,,,,,,,,,,,,,,,,,,,,,,,,,,,,,,,,,,,,,,,,,,,,,,,,,,,,,
1768918255.194689,1768918255.195006,99.0,0.0,4338.333496,4340.897461,4346.282227,4349.871582,4334.487305,4327.179688,4297.436035,4333.461426,4305.897461,4310.256348,4521.666504,4527.94873,4401.025879,4528.846191,,,,,,,,,,,,,,,,,,,,,,,,,,,,,,,,,,,,,,,,,,,,,,,,,,,,,,,,,,,,,,,,,,,,,,
1768918255.202497,1768918255.202614,100.0,0.0,4336.153809,4338.974121,4345.256348,4350.512695,4328.589844,4327.563965,4300.128418,4333.461426,4307.563965,4310.769043,4526.153809,4531.922852,4403.589844,4537.820313,,,,,,,,,,,,,,,,,,,,,,,,,,,,,,,,,,,,,,,,,,,,,,,,,,,,,,,,,,,,,,,,,,,,,,
1768918255.210306,1768918255.210422,101.0,0.0,4337.05127,4332.436035,4343.717773,4351.282227,4325.0,4324.230957,4295.641113,4327.692383,4308.077148,4309.358887,4517.179688,4526.025879,4396.025879,4530.256348,,,,,,,,,,,,,,,,,,,,,,,,,,,,,,,,,,,,,,,,,,,,,,,,,,,,,,,,,,,,,,,,,,,,,,
1768918255.218114,1768918255.218129,102.0,0.0,4328.717773,4325.128418,4339.615234,4346.025879,4328.333496,4322.563965,4296.794922,4331.538574,4306.794922,4302.94873,4506.922852,4519.358887,4392.692383,4518.333496,,,,,,,,,,,,,,,,,,,,,,,,,,,,,,,,,,,,,,,,,,,,,,,,,,,,,,,,,,,,,,,,,,,,,,
1768918255.225923,1768918255.225937,103.0,0.0,4323.077148,4325.0,4333.589844,4343.589844,4328.461426,4321.282227,4298.205078,4340.128418,4309.230957,4302.436035,4508.205078,4518.461426,4396.410156,4522.692383,,,,,,,,,,,,,,,,,,,,,,,,,,,,,,,,,,,,,,,,,,,,,,,,,,,,,,,,,,,,,,,,,,,,,,
1768918255.233731,1768918255.233945,104.0,0.0,4331.538574,4333.077148,4328.333496,4351.153809,4326.025879,4320.769043,4291.538574,4332.820313,4310.256348,4309.358887,4514.230957,4517.692383,4398.077148,4526.794922,,,,,,,,,,,,,,,,,,,,,,,,,,,,,,,,,,,,,,,,,,,,,,,,,,,,,,,,,,,,,,,,,,,,,,
1768918255.24154,1768918255.241753,105.0,0.0,4334.102539,4335.256348,4331.538574,4354.871582,4325.0,4322.179688,4288.077148,4329.487305,4308.974121,4312.307617,4519.743652,4519.358887,4403.589844,4519.743652,,,,,,,,,,,,,,,,,,,,,,,,,,,,,,,,,,,,,,,,,,,,,,,,,,,,,,,,,,,,,,,,,,,,,,
1768918255.249348,1768918255.249661,106.0,0.0,4327.692383,4330.0,4339.743652,4350.641113,4323.589844,4324.743652,4296.666504,4343.589844,4313.077148,4311.794922,4525.128418,4526.666504,4407.436035,4522.820313,,,,,,,,,,,,,,,,,,,,,,,,,,,,,,,,,,,,,,,,,,,,,,,,,,,,,,,,,,,,,,,,,,,,,,
1768918255.257157,1768918255.257469,107.0,0.0,4326.153809,4329.102539,4340.128418,4348.589844,4324.102539,4322.692383,4295.897461,4340.128418,4305.384766,4308.846191,4518.077148,4523.846191,4399.615234,4525.384766,,,,,,,,,,,,,,,,,,,,,,,,,,,,,,,,,,,,,,,,,,,,,,,,,,,,,,,,,,,,,,,,,,,,,,
1768918255.264965,1768918255.265077,108.0,0.0,4327.307617,4329.615234,4338.461426,4348.846191,4325.384766,4320.128418,4282.563965,4323.717773,4294.230957,4305.641113,4505.384766,4517.692383,4393.846191,4511.410156,,,,,,,,,,,,,,,,,,,,,,,,,,,,,,,,,,,,,,,,,,,,,,,,,,,,,,,,,,,,,,,,,,,,,,
1768918255.272774,1768918255.272884,109.0,0.0,4327.94873,4328.974121,4341.410156,4349.358887,4325.384766,4320.256348,4286.794922,4331.538574,4302.436035,4306.410156,4510.128418,4521.922852,4396.538574,4505.512695,,,,,,,,,,,,,,,,,,,,,,,,,,,,,,,,,,,,,,,,,,,,,,,,,,,,,,,,,,,,,,,,,,,,,,
1768918255.280582,1768918255.280592,110.0,0.0,4333.205078,4333.205078,4343.077148,4352.436035,4322.05127,4316.282227,4296.410156,4340.128418,4308.846191,4307.436035,4520.897461,4526.922852,4397.436035,4512.179688,,,,,,,,,,,,,,,,,,,,,,,,,,,,,,,,,,,,,,,,,,,,,,,,,,,,,,,,,,,,,,,,,,,,,,
1768918255.288391,1768918255.2884,111.0,0.0,4339.358887,4339.102539,4343.205078,4356.410156,4320.641113,4311.153809,4288.589844,4333.461426,4301.666504,4304.487305,4523.205078,4526.025879,4397.05127,4514.230957,,,,,,,,,,,,,,,,,,,,,,,,,,,,,,,,,,,,,,,,,,,,,,,,,,,,,,,,,,,,,,,,,,,,,,
1768918255.296199,1768918255.296407,112.0,0.0,4343.333496,4340.384766,4344.871582,4358.205078,4325.769043,4317.820313,4286.922852,4336.153809,4303.461426,4304.358887,4520.769043,4523.205078,4397.436035,4511.666504,1.057437,0.334441,0.148315,0.293547,0.156893,0.709313,0.289489,0.112597,0.182302,0.129346,0.636961,0.151092,0.113606,0.213623,0.137973,0.720971,0.152226,0.045865,0.174475,0.072053,0.179186,0.153449,0.16312,0.099952,0.117276,0.075458,0.323873,0.173563,0.152954,0.159841,0.455414,0.673646,0.528475,0.296272,0.257228,0.610807,0.673113,0.512995,0.27883,0.344452,0.300622,0.500216,0.239586,0.234779,0.265473,0.230801,0.239277,0.189226,0.170899,0.125756,0.793571,0.368673,0.190339,0.273926,0.199087,0.993379,0.189625,0.264009,0.419475,0.26931,0.730696,0.558373,0.053386,0.282608,0.176208,1.698747,0.4064,0.078644,0.329391,0.14478
1768918255.304008,1768918255.304215,113.0,0.0,4342.820313,4340.384766,4344.230957,4355.641113,4328.717773,4323.846191,4299.358887,4345.384766,4308.077148,4304.102539,4514.615234,4523.846191,4395.769043,4511.282227,,,,,,,,,,,,,,,,,,,,,,,,,,,,,,,,,,,,,,,,,,,,,,,,,,,,,,,,,,,,,,,,,,,,,,
1768918255.311816,1768918255.312122,114.0,0.0,4331.282227,4335.641113,4340.256348,4350.769043,4325.256348,4316.410156,4293.974121,4342.05127,4299.487305,4299.743652,4508.974121,4525.384766,4395.769043,4509.615234,,,,,,,,,,,,,,,,,,,,,,,,,,,,,,,,,,,,,,,,,,,,,,,,,,,,,,,,,,,,,,,,,,,,,,
1768918255.319625,1768918255.31993,115.0,0.0,4321.666504,4327.692383,4340.128418,4348.077148,4323.717773,4308.846191,4277.820313,4331.666504,4294.102539,4300.384766,4508.333496,4522.94873,4394.871582,4505.769043,,,,,,,,,,,,,,,,,,,,,,,,,,,,,,,,,,,,,,,,,,,,,,,,,,,,,,,,,,,,,,,,,,,,,,
1768918255.327433,1768918255.327938,116.0,0.0,4328.974121,4326.282227,4342.563965,4349.487305,4325.256348,4310.897461,4280.897461,4325.512695,4298.974121,4306.922852,4506.666504,4520.897461,4391.794922,4505.641113,,,,,,,,,,,,,,,,,,,,,,,,,,,,,,,,,,,,,,,,,,,,,,,,,,,,,,,,,,,,,,,,,,,,,,
1768918255.335242,1768918255.335745,117.0,0.0,4336.538574,4327.307617,4343.205078,4350.897461,4325.0,4317.692383,4294.743652,4333.333496,4307.05127,4311.025879,4511.666504,4529.871582,4398.333496,4513.077148,,,,,,,,,,,,,,,,,,,,,,,,,,,,,,,,,,,,,,,,,,,,,,,,,,,,,,,,,,,,,,,,,,,,,,
1768918255.34305,1768918255.343653,118.0,0.0,4333.589844,4323.974121,4342.436035,4348.717773,4325.897461,4320.641113,4295.897461,4347.307617,4311.538574,4312.05127,4523.333496,4541.538574,4408.717773,4519.743652,,,,,,,,,,,,,,,,,,,,,,,,,,,,,,,,,,,,,,,,,,,,,,,,,,,,,,,,,,,,,,,,,,,,,,
1768918255.350859,1768918255.351461,119.0,0.0,4333.461426,4323.333496,4341.922852,4347.563965,4327.94873,4318.205078,4290.0,4345.256348,4310.897461,4314.230957,4524.230957,4540.769043,4408.461426,4518.333496,,,,,,,,,,,,,,,,,,,,,,,,,,,,,,,,,,,,,,,,,,,,,,,,,,,,,,,,,,,,,,,,,,,,,,
1768918255.358667,1768918255.359468,120.0,0.0,4336.153809,4324.615234,4343.077148,4349.615234,4326.538574,4318.974121,4293.461426,4336.025879,4309.102539,4314.358887,4520.769043,4535.256348,4405.897461,4516.282227,,,,,,,,,,,,,,,,,,,,,,,,,,,,,,,,,,,,,,,,,,,,,,,,,,,,,,,,,,,,,,,,,,,,,,
1768918255.366476,1768918255.367276,121.0,0.0,4334.487305,4323.077148,4342.05127,4350.128418,4324.230957,4321.666504,4297.436035,4336.410156,4308.974121,4310.384766,4523.589844,4537.179688,4410.0,4520.256348,,,,,,,,,,,,,,,,,,,,,,,,,,,,,,,,,,,,,,,,,,,,,,,,,,,,,,,,,,,,,,,,,,,,,,
1768918255.374284,1768918255.374984,122.0,0.0,4337.05127,4327.692383,4342.307617,4352.94873,4324.871582,4322.436035,4293.717773,4338.846191,4308.974121,4313.974121,4527.436035,4541.538574,4413.333496,4522.179688,,,,,,,,,,,,,,,,,,,,,,,,,,,,,,,,,,,,,,,,,,,,,,,,,,,,,,,,,,,,,,,,,,,,,,
1768918255.382093,1768918255.382792,123.0,0.0,4343.846191,4339.102539,4347.563965,4363.333496,4330.256348,4322.692383,4291.153809,4341.025879,4309.358887,4322.436035,4528.461426,4541.025879,4413.717773,4524.743652,,,,,,,,,,,,,,,,,,,,,,,,,,,,,,,,,,,,,,,,,,,,,,,,,,,,,,,,,,,,,,,,,,,,,,
1768918255.389901,1768918255.3904,124.0,0.0,4344.102539,4340.641113,4352.94873,4367.820313,4334.615234,4324.615234,4295.512695,4341.025879,4309.358887,4317.94873,4527.307617,4542.820313,4414.743652,4526.794922,,,,,,,,,,,,,,,,,,,,,,,,,,,,,,,,,,,,,,,,,,,,,,,,,,,,,,,,,,,,,,,,,,,,,,
1768918255.39771,1768918255.398207,125.0,0.0,4341.410156,4333.333496,4353.077148,4361.666504,4334.358887,4326.922852,4304.487305,4342.563965,4307.307617,4309.230957,4525.128418,4545.256348,4414.102539,4523.846191,,,,,,,,,,,,,,,,,,,,,,,,,,,,,,,,,,,,,,,,,,,,,,,,,,,,,,,,,,,,,,,,,,,,,,
1768918255.405518,1768918255.405915,126.0,0.0,4342.307617,4333.461426,4349.743652,4358.333496,4333.717773,4324.487305,4304.102539,4351.282227,4308.717773,4317.179688,4526.922852,4543.077148,4413.717773,4524.230957,,,,,,,,,,,,,,,,,,,,,,,,,,,,,,,,,,,,,,,,,,,,,,,,,,,,,,,,,,,,,,,,,,,,,,
1768918255.413327,1768918255.413723,127.0,0.0,4341.794922,4336.282227,4346.794922,4358.589844,4332.179688,4318.077148,4293.461426,4350.897461,4309.871582,4324.487305,4527.307617,4540.384766,4416.794922,4525.256348,,,,,,,,,,,,,,,,,,,,,,,,,,,,,,,,,,,,,,,,,,,,,,,,,,,,,,,,,,,,,,,,,,,,,,
1768918255.421135,1768918255.421731,0.0,0.0,4341.666504,4334.358887,4348.461426,4356.794922,4328.846191,4315.512695,4287.307617,4337.820313,4306.666504,4318.717773,4523.077148,4537.563965,4417.94873,4521.282227,1.233131,0.355688,0.176922,0.325889,0.167589,0.836425,0.330377,0.138393,0.188879,0.127711,0.653894,0.140699,0.142955,0.238075,0.15032,0.86783,0.153172,0.057961,0.165672,0.064722,0.175155,0.166478,0.178301,0.085108,0.120031,0.097583,0.300764,0.190626,0.158783,0.163124,0.419521,0.660959,0.587635,0.29856,0.271168,0.649118,0.66641,0.521733,0.241669,0.318807,0.329926,0.481661,0.257926,0.209671,0.252583,0.249659,0.231996,0.178077,0.179313,0.123162,1.034905,0.34602,0.175723,0.340003,0.235054,1.316193,0.208036,0.232216,0.424305,0.26529,0.829401,0.563502,0.048214,0.343881,0.185279,1.421558,0.487888,0.07242,0.394471,0.148088
1768918255.428944,1768918255.429539,1.0,0.0,4343.846191,4335.384766,4353.461426,4356.666504,4327.179688,4315.512695,4288.717773,4340.0,4308.974121,4320.256348,4528.717773,4538.333496,4420.897461,4521.025879,,,,,,,,,,,,,,,,,,,,,,,,,,,,,,,,,,,,,,,,,,,,,,,,,,,,,,,,,,,,,,,,,,,,,,
1768918255.436752,1768918255.437446,2.0,0.0,4341.794922,4337.436035,4349.230957,4356.410156,4326.153809,4312.436035,4283.846191,4349.487305,4314.102539,4328.333496,4538.717773,4544.871582,4427.05127,4525.128418,,,,,,,,,,,,,,,,,,,,,,,,,,,,,,,,,,,,,,,,,,,,,,,,,,,,,,,,,,,,,,,,,,,,,,
1768918255.444561,1768918255.445254,3.0,0.0,4340.128418,4336.410156,4338.846191,4354.230957,4326.282227,4309.871582,4278.077148,4344.743652,4313.333496,4327.436035,4537.820313,4546.282227,4428.974121,4523.589844,,,,,,,,,,,,,,,,,,,,,,,,,,,,,,,,,,,,,,,,,,,,,,,,,,,,,,,,,,,,,,,,,,,,,,
1768918255.452369,1768918255.453262,4.0,0.0,4346.794922,4338.333496,4344.487305,4354.743652,4328.205078,4314.615234,4285.769043,4340.512695,4309.871582,4321.666504,4535.0,4543.974121,4426.282227,4525.641113,,,,,,,,,,,,,,,,,,,,,,,,,,,,,,,,,,,,,,,,,,,,,,,,,,,,,,,,,,,,,,,,,,,,,,
1768918255.460178,1768918255.46107,5.0,0.0,4353.974121,4343.333496,4359.358887,4361.025879,4325.897461,4323.205078,4295.0,4346.666504,4310.769043,4322.692383,4538.974121,4549.230957,4428.589844,4532.692383,,,,,,,,,,,,,,,,,,,,,,,,,,,,,,,,,,,,,,,,,,,,,,,,,,,,,,,,,,,,,,,,,,,,,,
1768918255.467986,1768918255.468778,6.0,0.0,4351.538574,4345.0,4361.410156,4367.307617,4326.794922,4327.94873,4301.153809,4353.846191,4316.410156,4325.897461,4540.897461,4556.410156,4433.589844,4529.487305,,,,,,,,,,,,,,,,,,,,,,,,,,,,,,,,,,,,,,,,,,,,,,,,,,,,,,,,,,,,,,,,,,,,,,
1768918255.475795,1768918255.476586,7.0,0.0,4346.538574,4342.436035,4356.794922,4365.0,4338.333496,4326.666504,4303.717773,4354.358887,4320.128418,4325.769043,4538.589844,4554.487305,4432.05127,4528.333496,,,,,,,,,,,,,,,,,,,,,,,,,,,,,,,,,,,,,,,,,,,,,,,,,,,,,,,,,,,,,,,,,,,,,,
1768918255.483603,1768918255.484193,8.0,0.0,4347.563965,4340.384766,4356.538574,4359.743652,4343.461426,4325.384766,4299.102539,4349.230957,4318.077148,4324.358887,4539.102539,4546.794922,4428.461426,4532.692383,,,,,,,,,,,,,,,,,,,,,,,,,,,,,,,,,,,,,,,,,,,,,,,,,,,,,,,,,,,,,,,,,,,,,,
1768918255.491412,1768918255.492001,9.0,0.0,4350.641113,4340.256348,4356.410156,4359.358887,4337.05127,4328.461426,4300.128418,4349.615234,4318.589844,4322.307617,4538.717773,4545.0,4428.461426,4529.871582,,,,,,,,,,,,,,,,,,,,,,,,,,,,,,,,,,,,,,,,,,,,,,,,,,,,,,,,,,,,,,,,,,,,,,
1768918255.49922,1768918255.499908,10.0,0.0,4353.461426,4340.897461,4357.05127,4359.743652,4334.743652,4325.384766,4301.538574,4348.717773,4319.230957,4322.307617,4537.05127,4547.436035,4429.230957,4527.94873,,,,,,,,,,,,,,,,,,,,,,,,,,,,,,,,,,,,,,,,,,,,,,,,,,,,,,,,,,,,,,,,,,,,,,
1768918255.507029,1768918255.507716,11.0,0.0,4356.922852,4343.333496,4357.94873,4358.205078,4336.025879,4320.897461,4296.538574,4343.589844,4314.102539,4325.512695,4540.641113,4550.0,4431.538574,4535.128418,,,,,,,,,,,,,,,,,,,,,,,,,,,,,,,,,,,,,,,,,,,,,,,,,,,,,,,,,,,,,,,,,,,,,,
1768918255.514837,1768918255.515724,12.0,0.0,4355.641113,4341.282227,4352.179688,4358.077148,4332.179688,4320.256348,4296.410156,4345.641113,4314.102539,4326.794922,4540.641113,4548.846191,4432.05127,4535.512695,,,,,,,,,,,,,,,,,,,,,,,,,,,,,,,,,,,,,,,,,,,,,,,,,,,,,,,,,,,,,,,,,,,,,,
1768918255.522646,1768918255.523531,13.0,0.0,4349.871582,4335.769043,4346.538574,4356.666504,4326.410156,4315.0,4292.692383,4342.436035,4313.717773,4322.307617,4530.256348,4542.692383,4427.307617,4523.077148,,,,,,,,,,,,,,,,,,,,,,,,,,,,,,,,,,,,,,,,,,,,,,,,,,,,,,,,,,,,,,,,,,,,,,
1768918255.530455,1768918255.531439,14.0,0.0,4349.743652,4340.512695,4351.410156,4355.769043,4325.897461,4307.820313,4279.615234,4331.538574,4309.743652,4320.512695,4528.974121,4543.333496,4426.153809,4524.358887,,,,,,,,,,,,,,,,,,,,,,,,,,,,,,,,,,,,,,,,,,,,,,,,,,,,,,,,,,,,,,,,,,,,,,
1768918255.538263,1768918255.539247,15.0,0.0,4355.641113,4348.846191,4357.820313,4361.025879,4332.563965,4312.692383,4284.102539,4335.897461,4314.743652,4324.230957,4540.256348,4551.794922,4430.641113,4533.461426,,,,,,,,,,,,,,,,,,,,,,,,,,,,,,,,,,,,,,,,,,,,,,,,,,,,,,,,,,,,,,,,,,,,,,
1768918255.546071,1768918255.546855,16.0,0.0,4355.0,4346.922852,4356.538574,4364.230957,4336.794922,4320.641113,4299.615234,4346.282227,4318.589844,4323.589844,4540.512695,4551.794922,4430.256348,4531.153809,1.348777,0.373446,0.222421,0.371401,0.171469,0.949331,0.377252,0.16905,0.202461,0.122339,0.659747,0.136448,0.178718,0.268533,0.167353,1.043316,0.17295,0.076297,0.164725,0.061454,0.171262,0.186466,0.199121,0.074929,0.129877,0.124495,0.25448,0.193623,0.164722,0.164571,0.359555,0.623529,0.595329,0.307423,0.303438,0.668986,0.617954,0.496374,0.20958,0.304908,0.356794,0.414973,0.280442,0.195726,0.232144,0.272385,0.229866,0.162643,0.190341,0.126533,1.241528,0.333084,0.167537,0.437317,0.268472,1.592278,0.265835,0.200326,0.434823,0.264924,0.863278,0.571425,0.047976,0.427415,0.186126,1.341216,0.665981,0.078686,0.493367,0.156505
1768918255.55388,1768918255.554663,17.0,0.0,4349.358887,4340.512695,4352.692383,4360.128418,4330.641113,4319.230957,4294.358887,4345.256348,4314.743652,4319.487305,4531.538574,4545.128418,4426.410156,4528.589844,,,,,,,,,,,,,,,,,,,,,,,,,,,,,,,,,,,,,,,,,,,,,,,,,,,,,,,,,,,,,,,,,,,,,,
1768918255.561689,1768918255.56237,18.0,0.0,4348.589844,4340.769043,4352.820313,4355.897461,4326.410156,4320.128418,4295.512695,4346.538574,4319.487305,4320.256348,4533.717773,4549.230957,4429.230957,4532.692383,,,,,,,,,,,,,,,,,,,,,,,,,,,,,,,,,,,,,,,,,,,,,,,,,,,,,,,,,,,,,,,,,,,,,,
1768918255.569497,1768918255.570178,19.0,0.0,4350.512695,4338.333496,4354.102539,4356.410156,4328.974121,4325.512695,4310.128418,4354.358887,4325.769043,4321.538574,4543.461426,4556.538574,4430.384766,4529.743652,,,,,,,,,,,,,,,,,,,,,,,,,,,,,,,,,,,,,,,,,,,,,,,,,,,,,,,,,,,,,,,,,,,,,,
1768918255.577305,1768918255.577786,20.0,0.0,4349.743652,4331.794922,4353.717773,4355.897461,4327.436035,4322.94873,4302.179688,4352.179688,4319.871582,4322.179688,4537.820313,4554.230957,4422.563965,4521.666504,,,,,,,,,,,,,,,,,,,,,,,,,,,,,,,,,,,,,,,,,,,,,,,,,,,,,,,,,,,,,,,,,,,,,,
1768918255.585114,1768918255.585594,21.0,0.0,4348.333496,4330.0,4352.563965,4354.358887,4324.102539,4320.897461,4296.538574,4346.025879,4316.282227,4320.769043,4525.128418,4548.205078,4420.128418,4522.307617,,,,,,,,,,,,,,,,,,,,,,,,,,,,,,,,,,,,,,,,,,,,,,,,,,,,,,,,,,,,,,,,,,,,,,
1768918255.592923,1768918255.593302,22.0,0.0,4350.769043,4332.179688,4355.0,4360.128418,4328.717773,4327.05127,4312.436035,4350.641113,4321.153809,4316.666504,4529.487305,4547.436035,4425.128418,4523.333496,,,,,,,,,,,,,,,,,,,,,,,,,,,,,,,,,,,,,,,,,,,,,,,,,,,,,,,,,,,,,,,,,,,,,,
1768918255.600731,1768918255.601109,23.0,0.0,4356.282227,4338.974121,4361.153809,4369.358887,4336.025879,4327.820313,4309.871582,4350.384766,4319.102539,4315.641113,4537.692383,4553.589844,4423.333496,4523.077148,,,,,,,,,,,,,,,,,,,,,,,,,,,,,,,,,,,,,,,,,,,,,,,,,,,,,,,,,,,,,,,,,,,,,,
1768918255.608539,1768918255.608717,24.0,0.0,4356.025879,4339.358887,4360.384766,4364.615234,4333.461426,4322.94873,4291.794922,4341.153809,4313.077148,4316.153809,4528.589844,4553.205078,4415.512695,4524.615234,,,,,,,,,,,,,,,,,,,,,,,,,,,,,,,,,,,,,,,,,,,,,,,,,,,,,,,,,,,,,,,,,,,,,,
1768918255.616348,1768918255.616525,25.0,0.0,4348.205078,4331.410156,4352.820313,4355.384766,4325.769043,4321.282227,4293.077148,4346.538574,4317.820313,4313.205078,4521.025879,4550.256348,4412.05127,4522.820313,,,,,,,,,,,,,,,,,,,,,,,,,,,,,,,,,,,,,,,,,,,,,,,,,,,,,,,,,,,,,,,,,,,,,,
1768918255.624157,1768918255.624233,26.0,0.0,4347.307617,4330.897461,4349.871582,4360.769043,4325.384766,4322.307617,4300.769043,4355.256348,4322.179688,4311.025879,4526.025879,4553.333496,4412.563965,4522.05127,,,,,,,,,,,,,,,,,,,,,,,,,,,,,,,,,,,,,,,,,,,,,,,,,,,,,,,,,,,,,,,,,,,,,,
1768918255.631965,1768918255.632041,27.0,0.0,4354.615234,4337.179688,4352.820313,4365.512695,4328.846191,4321.153809,4295.897461,4343.461426,4312.05127,4312.436035,4525.384766,4548.077148,4415.0,4523.205078,,,,,,,,,,,,,,,,,,,,,,,,,,,,,,,,,,,,,,,,,,,,,,,,,,,,,,,,,,,,,,,,,,,,,,
1768918255.639773,1768918255.640048,28.0,0.0,4352.179688,4336.025879,4349.615234,4357.436035,4326.282227,4318.717773,4294.102539,4336.410156,4309.358887,4311.282227,4522.820313,4537.179688,4417.179688,4523.333496,,,,,,,,,,,,,,,,,,,,,,,,,,,,,,,,,,,,,,,,,,,,,,,,,,,,,,,,,,,,,,,,,,,,,,
1768918255.647582,1768918255.647856,29.0,0.0,4341.666504,4332.692383,4343.333496,4352.563965,4323.205078,4319.102539,4299.487305,4345.641113,4320.384766,4310.256348,4525.0,4539.871582,4414.743652,4518.205078,,,,,,,,,,,,,,,,,,,,,,,,,,,,,,,,,,,,,,,,,,,,,,,,,,,,,,,,,,,,,,,,,,,,,,
1768918255.655391,1768918255.655763,30.0,0.0,4339.230957,4338.077148,4345.897461,4356.666504,4326.153809,4323.846191,4303.717773,4346.922852,4323.974121,4313.077148,4525.384766,4545.512695,4413.717773,4515.641113,,,,,,,,,,,,,,,,,,,,,,,,,,,,,,,,,,,,,,,,,,,,,,,,,,,,,,,,,,,,,,,,,,,,,,
1768918255.663199,1768918255.663571,31.0,0.0,4342.820313,4340.128418,4348.077148,4357.94873,4328.461426,4326.666504,4306.794922,4346.153809,4320.384766,4310.256348,4523.717773,4540.256348,4412.307617,4519.487305,,,,,,,,,,,,,,,,,,,,,,,,,,,,,,,,,,,,,,,,,,,,,,,,,,,,,,,,,,,,,,,,,,,,,,
1768918255.671008,1768918255.671179,32.0,0.0,4347.307617,4337.179688,4342.94873,4355.256348,4326.410156,4325.256348,4307.307617,4349.102539,4321.153809,4309.743652,4524.358887,4538.205078,4411.922852,4522.820313,1.345369,0.387859,0.280354,0.425731,0.16805,1.002744,0.436513,0.202355,0.226813,0.115787,0.636236,0.140345,0.225373,0.297659,0.184166,1.192258,0.213506,0.098467,0.172161,0.06223,0.158245,0.206945,0.218849,0.069502,0.141273,0.149879,0.206932,0.184589,0.171046,0.16528,0.298003,0.585482,0.55332,0.322439,0.348302,0.660205,0.558818,0.446554,0.188021,0.300925,0.37938,0.325307,0.298445,0.194259,0.206763,0.291554,0.240529,0.142847,0.201602,0.133952,1.359951,0.32946,0.163275,0.559215,0.288438,1.720205,0.333614,0.18067,0.45131,0.268505,0.836939,0.590129,0.050692,0.524018,0.178692,1.390134,0.861011,0.088775,0.605979,0.16784
1768918255.678816,1768918255.678986,33.0,0.0,4354.871582,4338.589844,4342.179688,4355.641113,4324.615234,4322.94873,4301.410156,4342.692383,4322.94873,4317.692383,4530.512695,4545.128418,4421.025879,4524.230957,,,,,,,,,,,,,,,,,,,,,,,,,,,,,,,,,,,,,,,,,,,,,,,,,,,,,,,,,,,,,,,,,,,,,,
1768918255.686625,1768918255.686694,34.0,0.0,4359.487305,4343.333496,4354.358887,4362.94873,4329.615234,4325.256348,4306.153809,4346.410156,4326.922852,4326.538574,4541.025879,4555.0,4432.05127,4531.025879,,,,,,,,,,,,,,,,,,,,,,,,,,,,,,,,,,,,,,,,,,,,,,,,,,,,,,,,,,,,,,,,,,,,,,
1768918255.694433,1768918255.694501,35.0,0.0,4357.05127,4345.256348,4362.820313,4371.666504,4336.025879,4330.641113,4321.794922,4360.384766,4328.717773,4325.641113,4543.974121,4556.922852,4433.974121,4533.205078,,,,,,,,,,,,,,,,,,,,,,,,,,,,,,,,,,,,,,,,,,,,,,,,,,,,,,,,,,,,,,,,,,,,,,
1768918255.702242,1768918255.702509,36.0,0.0,4353.846191,4341.538574,4358.461426,4369.358887,4335.384766,4329.230957,4317.820313,4354.871582,4325.512695,4319.615234,4531.794922,4546.922852,4423.717773,4522.820313,,,,,,,,,,,,,,,,,,,,,,,,,,,,,,,,,,,,,,,,,,,,,,,,,,,,,,,,,,,,,,,,,,,,,,
1768918255.71005,1768918255.710317,37.0,0.0,4355.512695,4340.128418,4356.153809,4363.589844,4334.102539,4322.820313,4303.846191,4345.769043,4326.410156,4320.641113,4525.0,4544.743652,4413.589844,4525.256348,,,,,,,,,,,,,,,,,,,,,,,,,,,,,,,,,,,,,,,,,,,,,,,,,,,,,,,,,,,,,,,,,,,,,,
1768918255.717859,1768918255.718224,38.0,0.0,4360.128418,4343.461426,4359.358887,4365.256348,4337.436035,4324.615234,4308.205078,4351.794922,4328.589844,4327.05127,4535.641113,4553.717773,4418.333496,4543.846191,,,,,,,,,,,,,,,,,,,,,,,,,,,,,,,,,,,,,,,,,,,,,,,,,,,,,,,,,,,,,,,,,,,,,,
1768918255.725667,1768918255.726032,39.0,0.0,4357.179688,4343.205078,4357.820313,4363.846191,4335.512695,4326.922852,4312.820313,4352.692383,4325.641113,4327.94873,4541.922852,4553.974121,4428.589844,4548.461426,,,,,,,,,,,,,,,,,,,,,,,,,,,,,,,,,,,,,,,,,,,,,,,,,,,,,,,,,,,,,,,,,,,,,,
1768918255.733476,1768918255.73404,40.0,0.0,4352.436035,4340.128418,4353.589844,4359.230957,4327.94873,4322.563965,4306.922852,4346.410156,4324.743652,4324.871582,4536.922852,4547.563965,4427.692383,4538.333496,,,,,,,,,,,,,,,,,,,,,,,,,,,,,,,,,,,,,,,,,,,,,,,,,,,,,,,,,,,,,,,,,,,,,,
1768918255.741284,1768918255.741847,41.0,0.0,4356.025879,4341.794922,4356.666504,4360.128418,4326.666504,4324.487305,4307.05127,4349.615234,4327.05127,4325.897461,4536.794922,4551.538574,4422.94873,4538.205078,,,,,,,,,,,,,,,,,,,,,,,,,,,,,,,,,,,,,,,,,,,,,,,,,,,,,,,,,,,,,,,,,,,,,,
1768918255.749093,1768918255.749555,42.0,0.0,4358.461426,4342.820313,4357.94873,4360.641113,4327.94873,4329.358887,4308.461426,4352.563965,4325.897461,4326.538574,4541.153809,4555.128418,4425.256348,4542.692383,,,,,,,,,,,,,,,,,,,,,,,,,,,,,,,,,,,,,,,,,,,,,,,,,,,,,,,,,,,,,,,,,,,,,,
1768918255.756901,1768918255.757363,43.0,0.0,4354.615234,4339.615234,4355.128418,4356.794922,4328.077148,4326.794922,4308.846191,4354.487305,4325.384766,4326.153809,4540.897461,4553.717773,4427.820313,4539.615234,,,,,,,,,,,,,,,,,,,,,,,,,,,,,,,,,,,,,,,,,,,,,,,,,,,,,,,,,,,,,,,,,,,,,,
1768918255.76471,1768918255.764971,44.0,0.0,4352.692383,4338.077148,4357.05127,4356.410156,4331.922852,4327.179688,4312.563965,4362.307617,4327.307617,4329.743652,4539.743652,4555.0,4427.563965,4537.692383,,,,,,,,,,,,,,,,,,,,,,,,,,,,,,,,,,,,,,,,,,,,,,,,,,,,,,,,,,,,,,,,,,,,,,
1768918255.772518,1768918255.772779,45.0,0.0,4352.179688,4334.487305,4355.0,4358.333496,4333.589844,4329.102539,4309.871582,4357.94873,4325.512695,4329.230957,4540.641113,4556.410156,4428.205078,4539.358887,,,,,,,,,,,,,,,,,,,,,,,,,,,,,,,,,,,,,,,,,,,,,,,,,,,,,,,,,,,,,,,,,,,,,,
1768918255.780327,1768918255.780486,46.0,0.0,4348.333496,4327.563965,4345.769043,4356.922852,4329.102539,4324.230957,4308.589844,4348.461426,4323.077148,4326.410156,4542.05127,4553.205078,4426.794922,4537.179688,,,,,,,,,,,,,,,,,,,,,,,,,,,,,,,,,,,,,,,,,,,,,,,,,,,,,,,,,,,,,,,,,,,,,,
1768918255.788135,1768918255.788294,47.0,0.0,4340.769043,4321.025879,4338.846191,4352.307617,4324.230957,4322.692383,4312.05127,4350.512695,4322.307617,4321.538574,4536.282227,4543.077148,4418.461426,4527.563965,,,,,,,,,,,,,,,,,,,,,,,,,,,,,,,,,,,,,,,,,,,,,,,,,,,,,,,,,,,,,,,,,,,,,,
1768918255.795944,1768918255.795902,48.0,0.0,4339.743652,4321.666504,4342.94873,4352.05127,4325.128418,4326.666504,4306.410156,4352.563965,4321.794922,4317.94873,4533.333496,4541.538574,4417.692383,4526.282227,1.22805,0.403162,0.340458,0.478018,0.158516,0.996713,0.509307,0.238635,0.25951,0.109766,0.590926,0.158849,0.28427,0.318005,0.195278,1.27984,0.272272,0.124957,0.185557,0.06557,0.14725,0.225625,0.229846,0.067968,0.14769,0.175833,0.192552,0.167605,0.177032,0.165205,0.244227,0.591186,0.47731,0.340108,0.394257,0.623544,0.520868,0.386674,0.179393,0.301391,0.39173,0.246232,0.306289,0.20104,0.179794,0.301248,0.267541,0.123818,0.209538,0.141305,1.373386,0.338156,0.16596,0.68566,0.290368,1.654537,0.389512,0.183205,0.468629,0.271646,0.779403,0.618424,0.057847,0.612186,0.165536,1.486369,0.99562,0.098174,0.701036,0.178894
1768918255.803752,1768918255.80371,49.0,0.0,4353.974121,4331.666504,4358.205078,4362.563965,4331.025879,4328.077148,4307.820313,4355.384766,4331.794922,4330.384766,4548.974121,4561.282227,4437.436035,4543.974121,,,,,,,,,,,,,,,,,,,,,,,,,,,,,,,,,,,,,,,,,,,,,,,,,,,,,,,,,,,,,,,,,,,,,,
1768918255.811561,1768918255.811418,50.0,0.0,4363.846191,4338.205078,4366.794922,4372.179688,4331.666504,4327.307617,4321.922852,4368.974121,4344.871582,4343.974121,4563.461426,4575.769043,4452.307617,4557.94873,,,,,,,,,,,,,,,,,,,,,,,,,,,,,,,,,,,,,,,,,,,,,,,,,,,,,,,,,,,,,,,,,,,,,,
1768918255.819369,1768918255.819225,51.0,0.0,4357.692383,4335.256348,4359.871582,4368.589844,4328.461426,4326.410156,4320.641113,4367.436035,4337.436035,4333.974121,4552.94873,4563.974121,4442.436035,4550.769043,,,,,,,,,,,,,,,,,,,,,,,,,,,,,,,,,,,,,,,,,,,,,,,,,,,,,,,,,,,,,,,,,,,,,,
1768918255.827178,1768918255.827233,52.0,0.0,4356.282227,4335.641113,4356.282227,4364.743652,4331.538574,4324.487305,4307.436035,4345.0,4319.743652,4320.897461,4538.974121,4550.769043,4431.410156,4541.794922,,,,,,,,,,,,,,,,,,,,,,,,,,,,,,,,,,,,,,,,,,,,,,,,,,,,,,,,,,,,,,,,,,,,,,
1768918255.834986,1768918255.835041,53.0,0.0,4361.538574,4339.743652,4362.436035,4367.179688,4336.282227,4322.436035,4306.410156,4343.589844,4318.461426,4324.230957,4540.256348,4554.487305,4431.794922,4541.922852,,,,,,,,,,,,,,,,,,,,,,,,,,,,,,,,,,,,,,,,,,,,,,,,,,,,,,,,,,,,,,,,,,,,,,
1768918255.842795,1768918255.842948,54.0,0.0,4356.538574,4338.205078,4361.794922,4361.794922,4335.641113,4323.205078,4311.410156,4358.205078,4325.641113,4324.230957,4541.538574,4557.179688,4429.743652,4540.0,,,,,,,,,,,,,,,,,,,,,,,,,,,,,,,,,,,,,,,,,,,,,,,,,,,,,,,,,,,,,,,,,,,,,,
1768918255.850603,1768918255.850756,55.0,0.0,4351.153809,4336.538574,4355.128418,4352.436035,4334.487305,4325.384766,4309.358887,4357.179688,4323.717773,4317.692383,4537.820313,4551.666504,4426.282227,4537.307617,,,,,,,,,,,,,,,,,,,,,,,,,,,,,,,,,,,,,,,,,,,,,,,,,,,,,,,,,,,,,,,,,,,,,,
1768918255.858412,1768918255.858764,56.0,0.0,4357.563965,4341.025879,4355.256348,4356.538574,4336.282227,4325.641113,4309.615234,4351.794922,4320.384766,4320.256348,4538.589844,4550.641113,4428.333496,4538.717773,,,,,,,,,,,,,,,,,,,,,,,,,,,,,,,,,,,,,,,,,,,,,,,,,,,,,,,,,,,,,,,,,,,,,,
1768918255.86622,1768918255.866571,57.0,0.0,4360.128418,4346.794922,4361.922852,4365.897461,4337.05127,4325.641113,4315.897461,4353.846191,4322.563965,4324.615234,4540.384766,4556.410156,4429.743652,4540.256348,,,,,,,,,,,,,,,,,,,,,,,,,,,,,,,,,,,,,,,,,,,,,,,,,,,,,,,,,,,,,,,,,,,,,,
1768918255.874029,1768918255.874279,58.0,0.0,4358.333496,4346.922852,4365.256348,4365.512695,4336.794922,4328.846191,4318.974121,4357.05127,4325.256348,4323.461426,4541.794922,4562.563965,4428.461426,4543.461426,,,,,,,,,,,,,,,,,,,,,,,,,,,,,,,,,,,,,,,,,,,,,,,,,,,,,,,,,,,,,,,,,,,,,,
1768918255.881837,1768918255.882086,59.0,0.0,4362.179688,4346.410156,4365.128418,4365.128418,4336.666504,4335.769043,4320.256348,4359.871582,4326.025879,4323.461426,4545.128418,4567.436035,4429.230957,4546.538574,,,,,,,,,,,,,,,,,,,,,,,,,,,,,,,,,,,,,,,,,,,,,,,,,,,,,,,,,,,,,,,,,,,,,,
1768918255.889646,1768918255.890094,60.0,0.0,4363.717773,4348.717773,4370.256348,4372.692383,4337.563965,4340.128418,4325.769043,4360.128418,4327.05127,4325.256348,4543.589844,4566.538574,4429.102539,4543.846191,,,,,,,,,,,,,,,,,,,,,,,,,,,,,,,,,,,,,,,,,,,,,,,,,,,,,,,,,,,,,,,,,,,,,,
1768918255.897454,1768918255.897902,61.0,0.0,4358.205078,4347.05127,4374.487305,4377.563965,4337.563965,4336.538574,4330.128418,4357.179688,4328.461426,4323.333496,4539.102539,4561.794922,4427.692383,4538.717773,,,,,,,,,,,,,,,,,,,,,,,,,,,,,,,,,,,,,,,,,,,,,,,,,,,,,,,,,,,,,,,,,,,,,,
1768918255.905263,1768918255.905809,62.0,0.0,4357.307617,4342.436035,4366.538574,4372.436035,4337.179688,4329.102539,4319.871582,4350.769043,4323.974121,4320.128418,4540.512695,4557.179688,4427.05127,4535.897461,,,,,,,,,,,,,,,,,,,,,,,,,,,,,,,,,,,,,,,,,,,,,,,,,,,,,,,,,,,,,,,,,,,,,,
1768918255.913071,1768918255.913617,63.0,0.0,4356.153809,4340.512695,4358.461426,4364.743652,4336.025879,4325.0,4305.769043,4338.974121,4318.205078,4319.102539,4540.769043,4550.897461,4426.538574,4533.077148,,,,,,,,,,,,,,,,,,,,,,,,,,,,,,,,,,,,,,,,,,,,,,,,,,,,,,,,,,,,,,,,,,,,,,
1768918255.92088,1768918255.921625,64.0,0.0,4349.102539,4339.358887,4358.589844,4363.974121,4329.871582,4323.333496,4304.487305,4341.922852,4324.102539,4320.384766,4538.077148,4549.871582,4427.05127,4528.077148,1.019158,0.423262,0.38887,0.514845,0.14505,0.932387,0.584829,0.27624,0.291677,0.104637,0.51534,0.197819,0.349097,0.324271,0.197128,1.251952,0.340532,0.157893,0.20068,0.069514,0.133624,0.24496,0.227848,0.069483,0.145159,0.198483,0.238354,0.147077,0.179662,0.162715,0.208525,0.674657,0.389292,0.354122,0.429157,0.56082,0.51634,0.328301,0.181665,0.301952,0.394298,0.202572,0.300392,0.207689,0.15497,0.303591,0.303897,0.109143,0.210449,0.144426,1.291113,0.356248,0.175001,0.78589,0.276723,1.415867,0.424657,0.207996,0.476458,0.268398,0.723147,0.643029,0.069159,0.666419,0.149984,1.564753,1.018286,0.105948,0.749328,0.186096
1768918255.928688,1768918255.929433,65.0,0.0,4350.897461,4336.666504,4359.487305,4366.410156,4323.974121,4322.820313,4311.538574,4356.538574,4331.538574,4321.410156,4542.307617,4555.512695,4425.512695,4526.153809,,,,,,,,,,,,,,,,,,,,,,,,,,,,,,,,,,,,,,,,,,,,,,,,,,,,,,,,,,,,,,,,,,,,,,
1768918255.936497,1768918255.937141,66.0,0.0,4354.615234,4334.743652,4358.589844,4361.538574,4323.717773,4327.307617,4314.230957,4348.717773,4321.666504,4316.282227,4538.974121,4548.205078,4417.436035,4521.922852,,,,,,,,,,,,,,,,,,,,,,,,,,,,,,,,,,,,,,,,,,,,,,,,,,,,,,,,,,,,,,,,,,,,,,
1768918255.944305,1768918255.944948,67.0,0.0,4350.897461,4334.358887,4354.871582,4356.153809,4323.461426,4326.153809,4307.94873,4333.333496,4312.820313,4309.487305,4525.256348,4534.743652,4411.410156,4513.717773,,,,,,,,,,,,,,,,,,,,,,,,,,,,,,,,,,,,,,,,,,,,,,,,,,,,,,,,,,,,,,,,,,,,,,
1768918255.952114,1768918255.952556,68.0,0.0,4349.871582,4334.102539,4348.333496,4357.692383,4322.05127,4317.563965,4302.692383,4338.333496,4320.641113,4310.128418,4520.384766,4534.743652,4413.974121,4511.410156,,,,,,,,,,,,,,,,,,,,,,,,,,,,,,,,,,,,,,,,,,,,,,,,,,,,,,,,,,,,,,,,,,,,,,
1768918255.959922,1768918255.960364,69.0,0.0,4347.692383,4329.615234,4348.589844,4358.461426,4323.846191,4320.384766,4306.538574,4346.922852,4328.589844,4313.077148,4526.025879,4538.846191,4415.0,4512.563965,,,,,,,,,,,,,,,,,,,,,,,,,,,,,,,,,,,,,,,,,,,,,,,,,,,,,,,,,,,,,,,,,,,,,,
