Timestamp,OriginalTimestamp,EEG.Counter,EEG.Interpolated,EEG.AF3,EEG.F7,EEG.F3,EEG.FC5,EEG.T7,EEG.P7,EEG.O1,EEG.O2,EEG.P8,EEG.T8,EEG.FC6,EEG.F4,EEG.F8,EEG.AF4,POW.AF3.Theta,POW.AF3.Alpha,POW.AF3.BetaL,POW.AF3.BetaH,POW.AF3.Gamma,POW.F7.Theta,POW.F7.Alpha,POW.F7.BetaL,POW.F7.BetaH,POW.F7.Gamma,POW.F3.Theta,POW.F3.Alpha,POW.F3.BetaL,POW.F3.BetaH,POW.F3.Gamma,POW.FC5.Theta,POW.FC5.Alpha,POW.FC5.BetaL,POW.FC5.BetaH,POW.FC5.Gamma,POW.T7.Theta,POW.T7.Alpha,POW.T7.BetaL,POW.T7.BetaH,POW.T7.Gamma,POW.P7.Theta,POW.P7.Alpha,POW.P7.BetaL,POW.P7.BetaH,POW.P7.Gamma,POW.O1.Theta,POW.O1.Alpha,POW.O1.BetaL,POW.O1.BetaH,POW.O1.Gamma,POW.O2.Theta,POW.O2.Alpha,POW.O2.BetaL,POW.O2.BetaH,POW.O2.Gamma,POW.P8.Theta,POW.P8.Alpha,POW.P8.BetaL,POW.P8.BetaH,POW.P8.Gamma,POW.T8.Theta,POW.T8.Alpha,POW.T8.BetaL,POW.T8.BetaH,POW.T8.Gamma,POW.FC6.Theta,POW.FC6.Alpha,POW.FC6.BetaL,POW.FC6.BetaH,POW.FC6.Gamma,POW.F4.Theta,POW.F4.Alpha,POW.F4.BetaL,POW.F4.BetaH,POW.F4.Gamma,POW.F8.Theta,POW.F8.Alpha,POW.F8.BetaL,POW.F8.BetaH,POW.F8.Gamma,POW.AF4.Theta,POW.AF4.Alpha,POW.AF4.BetaL,POW.AF4.BetaH,POW.AF4.Gamma
1769163215.621251,1769163215.621884,73.0,0.0,4278.974121,4265.128418,4293.717773,4353.974121,4312.307617,4263.974121,4285.256348,4279.358887,4277.179688,4264.102539,4570.384766,4540.897461,4410.512695,4478.974121,,,,,,,,,,,,,,,,,,,,,,,,,,,,,,,,,,,,,,,,,,,,,,,,,,,,,,,,,,,,,,,,,,,,,,
1769163215.629059,1769163215.629793,74.0,0.0,4271.922852,4262.820313,4290.897461,4346.794922,4310.384766,4264.230957,4289.230957,4277.563965,4269.358887,4261.025879,4567.692383,4535.256348,4410.769043,4476.025879,,,,,,,,,,,,,,,,,,,,,,,,,,,,,,,,,,,,,,,,,,,,,,,,,,,,,,,,,,,,,,,,,,,,,,
1769163215.636867,1769163215.637601,75.0,0.0,4266.794922,4262.307617,4287.307617,4341.922852,4307.307617,4263.589844,4293.205078,4276.794922,4268.077148,4253.974121,4557.563965,4523.333496,4397.820313,4465.0,,,,,,,,,,,,,,,,,,,,,,,,,,,,,,,,,,,,,,,,,,,,,,,,,,,,,,,,,,,,,,,,,,,,,,
1769163215.644676,1769163215.645609,76.0,0.0,4266.538574,4262.563965,4280.897461,4341.538574,4308.077148,4263.589844,4292.05127,4279.230957,4274.743652,4256.794922,4550.384766,4518.077148,4389.871582,4453.077148,,,,,,,,,,,,,,,,,,,,,,,,,,,,,,,,,,,,,,,,,,,,,,,,,,,,,,,,,,,,,,,,,,,,,,
1769163215.652484,1769163215.653418,77.0,0.0,4271.410156,4263.077148,4283.974121,4345.512695,4311.538574,4263.589844,4286.794922,4281.794922,4280.256348,4266.922852,4562.94873,4528.461426,4404.871582,4461.538574,,,,,,,,,,,,,,,,,,,,,,,,,,,,,,,,,,,,,,,,,,,,,,,,,,,,,,,,,,,,,,,,,,,,,,
1769163215.660293,1769163215.661126,78.0,0.0,4279.615234,4270.0,4295.769043,4352.05127,4310.769043,4263.974121,4282.307617,4280.256348,4278.717773,4267.94873,4570.512695,4540.0,4416.538574,4479.230957,0.550171,0.305317,0.367001,0.350649,0.251034,0.789708,0.117535,0.406613,0.151483,0.145701,0.674768,0.321028,0.154143,0.208504,0.113082,0.259882,0.11118,0.242056,0.106886,0.120335,0.165437,0.157117,0.106392,0.04119,0.034629,0.211209,0.266707,0.108734,0.158209,0.19898,0.1425,0.262612,0.095022,0.169877,0.174962,0.362712,0.506225,0.123086,0.083087,0.050024,0.282856,1.11122,0.319755,0.230381,0.10226,0.419388,0.478195,0.148708,0.212999,0.083011,0.390106,0.708541,0.207371,0.307084,0.165099,0.309632,0.704506,0.193941,0.264048,0.201188,0.370799,0.68431,0.249709,0.446354,0.256192,0.607513,1.181412,0.233454,0.413663,0.32833
1769163215.668101,1769163215.668935,79.0,0.0,4287.563965,4278.974121,4296.666504,4353.717773,4307.563965,4264.615234,4285.0,4278.077148,4275.384766,4262.692383,4558.589844,4537.692383,4408.717773,4479.743652,,,,,,,,,,,,,,,,,,,,,,,,,,,,,,,,,,,,,,,,,,,,,,,,,,,,,,,,,,,,,,,,,,,,,,
1769163215.67591,1769163215.676544,80.0,0.0,4289.358887,4281.666504,4293.974121,4352.307617,4309.102539,4262.692383,4292.307617,4278.461426,4276.922852,4261.794922,4556.538574,4529.871582,4401.538574,4472.820313,,,,,,,,,,,,,,,,,,,,,,,,,,,,,,,,,,,,,,,,,,,,,,,,,,,,,,,,,,,,,,,,,,,,,,
1769163215.683718,1769163215.684352,81.0,0.0,4283.846191,4278.333496,4293.589844,4349.871582,4310.769043,4261.410156,4295.641113,4278.205078,4274.615234,4264.230957,4564.102539,4524.743652,4405.512695,4475.0,,,,,,,,,,,,,,,,,,,,,,,,,,,,,,,,,,,,,,,,,,,,,,,,,,,,,,,,,,,,,,,,,,,,,,
1769163215.691527,1769163215.692061,82.0,0.0,4278.461426,4272.05127,4286.025879,4345.512695,4309.743652,4258.461426,4294.358887,4278.205078,4273.205078,4264.871582,4561.153809,4525.256348,4406.794922,4473.589844,,,,,,,,,,,,,,,,,,,,,,,,,,,,,,,,,,,,,,,,,,,,,,,,,,,,,,,,,,,,,,,,,,,,,,
1769163215.699335,1769163215.699869,83.0,0.0,4278.461426,4266.153809,4278.589844,4340.897461,4308.589844,4250.0,4294.615234,4280.0,4275.897461,4263.077148,4556.922852,4525.897461,4398.333496,4461.538574,,,,,,,,,,,,,,,,,,,,,,,,,,,,,,,,,,,,,,,,,,,,,,,,,,,,,,,,,,,,,,,,,,,,,,
1769163215.707143,1769163215.707478,84.0,0.0,4279.230957,4266.025879,4281.153809,4339.358887,4306.153809,4247.179688,4295.128418,4279.743652,4271.410156,4261.922852,4556.794922,4521.025879,4394.102539,4454.358887,,,,,,,,,,,,,,,,,,,,,,,,,,,,,,,,,,,,,,,,,,,,,,,,,,,,,,,,,,,,,,,,,,,,,,
1769163215.714952,1769163215.715286,85.0,0.0,4277.436035,4272.05127,4287.692383,4339.487305,4304.487305,4249.615234,4292.05127,4277.820313,4264.871582,4261.666504,4555.641113,4525.769043,4399.743652,4461.666504,,,,,,,,,,,,,,,,,,,,,,,,,,,,,,,,,,,,,,,,,,,,,,,,,,,,,,,,,,,,,,,,,,,,,,
1769163215.72276,1769163215.722995,86.0,0.0,4280.0,4279.743652,4292.436035,4342.563965,4306.794922,4250.897461,4288.974121,4278.333496,4269.871582,4261.025879,4561.666504,4539.615234,4405.769043,4475.769043,,,,,,,,,,,,,,,,,,,,,,,,,,,,,,,,,,,,,,,,,,,,,,,,,,,,,,,,,,,,,,,,,,,,,,
1769163215.730569,1769163215.730803,87.0,0.0,4279.743652,4277.820313,4290.897461,4341.666504,4302.94873,4258.077148,4293.846191,4280.641113,4275.512695,4259.871582,4567.692383,4533.974121,4404.358887,4476.153809,,,,,,,,,,,,,,,,,,,,,,,,,,,,,,,,,,,,,,,,,,,,,,,,,,,,,,,,,,,,,,,,,,,,,,
1769163215.738377,1769163215.738811,88.0,0.0,4278.589844,4269.743652,4285.897461,4334.871582,4296.282227,4267.179688,4298.205078,4282.179688,4275.897461,4260.769043,4564.615234,4522.820313,4399.871582,4466.666504,,,,,,,,,,,,,,,,,,,,,,,,,,,,,,,,,,,,,,,,,,,,,,,,,,,,,,,,,,,,,,,,,,,,,,
1769163215.746186,1769163215.74662,89.0,0.0,4285.256348,4273.974121,4289.871582,4334.358887,4300.897461,4263.205078,4292.692383,4281.025879,4276.922852,4262.436035,4563.333496,4531.410156,4400.0,4468.077148,,,,,,,,,,,,,,,,,,,,,,,,,,,,,,,,,,,,,,,,,,,,,,,,,,,,,,,,,,,,,,,,,,,,,,
1769163215.753994,1769163215.754528,90.0,0.0,4289.358887,4281.922852,4297.05127,4337.820313,4302.820313,4257.692383,4290.0,4279.487305,4277.05127,4261.922852,4564.487305,4539.743652,4405.128418,4476.282227,,,,,,,,,,,,,,,,,,,,,,,,,,,,,,,,,,,,,,,,,,,,,,,,,,,,,,,,,,,,,,,,,,,,,,
1769163215.761803,1769163215.762337,91.0,0.0,4288.333496,4279.487305,4295.512695,4335.897461,4299.230957,4262.94873,4295.256348,4280.0,4277.179688,4261.794922,4566.922852,4537.05127,4412.692383,4477.307617,,,,,,,,,,,,,,,,,,,,,,,,,,,,,,,,,,,,,,,,,,,,,,,,,,,,,,,,,,,,,,,,,,,,,,
1769163215.769611,1769163215.769945,92.0,0.0,4291.794922,4278.717773,4295.384766,4334.358887,4304.230957,4267.05127,4296.153809,4280.128418,4277.05127,4263.461426,4568.461426,4535.897461,4414.871582,4475.384766,,,,,,,,,,,,,,,,,,,,,,,,,,,,,,,,,,,,,,,,,,,,,,,,,,,,,,,,,,,,,,,,,,,,,,
1769163215.777419,1769163215.777754,93.0,0.0,4293.461426,4282.179688,4296.538574,4334.102539,4306.410156,4264.487305,4292.563965,4279.358887,4275.256348,4265.384766,4568.077148,4537.692383,4412.436035,4477.692383,,,,,,,,,,,,,,,,,,,,,,,,,,,,,,,,,,,,,,,,,,,,,,,,,,,,,,,,,,,,,,,,,,,,,,
1769163215.785228,1769163215.785462,94.0,0.0,4286.794922,4282.179688,4290.897461,4327.820313,4296.794922,4262.307617,4292.436035,4278.589844,4277.179688,4266.025879,4571.025879,4533.974121,4410.128418,4479.487305,0.620665,0.308524,0.351631,0.341476,0.247549,0.714184,0.113224,0.355994,0.142941,0.142569,0.746281,0.258701,0.169308,0.203268,0.112699,0.281176,0.116494,0.224376,0.098075,0.118478,0.201208,0.146534,0.094554,0.041831,0.033432,0.22662,0.178299,0.067166,0.130288,0.199915,0.145882,0.185236,0.060714,0.141321,0.170101,0.399904,0.361031,0.131155,0.073259,0.041998,0.310405,0.914096,0.276101,0.206528,0.1062,0.468766,0.44811,0.130163,0.222608,0.089538,0.358503,0.62374,0.171968,0.285384,0.162688,0.32271,0.542392,0.158135,0.212265,0.176444,0.352642,0.578062,0.199134,0.405394,0.25723,0.548618,0.999558,0.207614,0.374212,0.317169
1769163215.793036,1769163215.793271,95.0,0.0,4279.358887,4277.820313,4284.871582,4321.410156,4292.05127,4268.589844,4294.615234,4278.461426,4277.436035,4263.461426,4567.692383,4526.666504,4406.410156,4477.05127,,,,,,,,,,,,,,,,,,,,,,,,,,,,,,,,,,,,,,,,,,,,,,,,,,,,,,,,,,,,,,,,,,,,,,
1769163215.800845,1769163215.801279,96.0,0.0,4281.794922,4278.717773,4287.05127,4320.769043,4296.153809,4273.974121,4294.871582,4278.589844,4273.077148,4261.025879,4556.922852,4526.153809,4405.0,4474.358887,,,,,,,,,,,,,,,,,,,,,,,,,,,,,,,,,,,,,,,,,,,,,,,,,,,,,,,,,,,,,,,,,,,,,,
1769163215.808653,1769163215.809087,97.0,0.0,4293.974121,4289.487305,4295.128418,4325.641113,4297.692383,4267.307617,4292.179688,4278.974121,4277.179688,4263.717773,4560.128418,4537.94873,4411.025879,4477.307617,,,,,,,,,,,,,,,,,,,,,,,,,,,,,,,,,,,,,,,,,,,,,,,,,,,,,,,,,,,,,,,,,,,,,,
1769163215.816462,1769163215.816996,98.0,0.0,4295.0,4292.05127,4296.282227,4330.641113,4297.05127,4265.0,4291.922852,4278.846191,4278.974121,4265.641113,4567.94873,4541.794922,4414.487305,4483.974121,,,,,,,,,,,,,,,,,,,,,,,,,,,,,,,,,,,,,,,,,,,,,,,,,,,,,,,,,,,,,,,,,,,,,,
1769163215.82427,1769163215.824804,99.0,0.0,4278.077148,4277.179688,4285.769043,4321.922852,4293.846191,4278.461426,4296.153809,4277.94873,4270.384766,4259.102539,4559.230957,4527.94873,4405.769043,4477.436035,,,,,,,,,,,,,,,,,,,,,,,,,,,,,,,,,,,,,,,,,,,,,,,,,,,,,,,,,,,,,,,,,,,,,,
1769163215.832079,1769163215.832812,100.0,0.0,4270.0,4267.820313,4276.153809,4308.205078,4290.256348,4281.666504,4296.538574,4279.230957,4271.922852,4256.794922,4551.153809,4518.717773,4393.974121,4463.461426,,,,,,,,,,,,,,,,,,,,,,,,,,,,,,,,,,,,,,,,,,,,,,,,,,,,,,,,,,,,,,,,,,,,,,
1769163215.839887,1769163215.840621,101.0,0.0,4277.563965,4274.230957,4278.461426,4310.512695,4289.615234,4268.589844,4293.846191,4281.025879,4281.538574,4262.563965,4557.563965,4522.307617,4396.153809,4462.692383,,,,,,,,,,,,,,,,,,,,,,,,,,,,,,,,,,,,,,,,,,,,,,,,,,,,,,,,,,,,,,,,,,,,,,
1769163215.847695,1769163215.848429,102.0,0.0,4284.871582,4279.743652,4289.102539,4322.307617,4286.922852,4264.230957,4293.461426,4280.512695,4282.05127,4265.641113,4566.410156,4531.666504,4408.974121,4476.538574,,,,,,,,,,,,,,,,,,,,,,,,,,,,,,,,,,,,,,,,,,,,,,,,,,,,,,,,,,,,,,,,,,,,,,
1769163215.855504,1769163215.856238,103.0,0.0,4291.282227,4279.358887,4294.487305,4323.717773,4280.641113,4265.512695,4293.333496,4280.769043,4278.974121,4265.0,4571.794922,4540.256348,4415.384766,4488.589844,,,,,,,,,,,,,,,,,,,,,,,,,,,,,,,,,,,,,,,,,,,,,,,,,,,,,,,,,,,,,,,,,,,,,,
1769163215.863312,1769163215.864246,104.0,0.0,4292.05127,4278.846191,4287.436035,4317.820313,4280.769043,4263.461426,4292.179688,4278.205078,4279.615234,4265.128418,4570.512695,4536.794922,4413.717773,4485.897461,,,,,,,,,,,,,,,,,,,,,,,,,,,,,,,,,,,,,,,,,,,,,,,,,,,,,,,,,,,,,,,,,,,,,,
1769163215.871121,1769163215.872054,105.0,0.0,4283.717773,4280.384766,4278.974121,4319.743652,4289.487305,4267.307617,4292.692383,4269.615234,4277.436035,4265.256348,4563.846191,4525.769043,4413.461426,4477.820313,,,,,,,,,,,,,,,,,,,,,,,,,,,,,,,,,,,,,,,,,,,,,,,,,,,,,,,,,,,,,,,,,,,,,,
1769163215.87893,1769163215.879763,106.0,0.0,4280.897461,4281.666504,4280.512695,4320.384766,4290.769043,4271.666504,4294.871582,4263.205078,4268.974121,4260.897461,4557.820313,4522.436035,4408.333496,4476.794922,,,,,,,,,,,,,,,,,,,,,,,,,,,,,,,,,,,,,,,,,,,,,,,,,,,,,,,,,,,,,,,,,,,,,,
1769163215.886738,1769163215.887571,107.0,0.0,4282.05127,4279.871582,4283.333496,4312.563965,4283.077148,4268.717773,4294.743652,4267.307617,4265.0,4256.794922,4554.487305,4523.974121,4401.794922,4476.410156,,,,,,,,,,,,,,,,,,,,,,,,,,,,,,,,,,,,,,,,,,,,,,,,,,,,,,,,,,,,,,,,,,,,,,
1769163215.894546,1769163215.89518,108.0,0.0,4277.436035,4277.563965,4278.461426,4307.307617,4279.102539,4265.384766,4293.589844,4273.717773,4271.410156,4259.230957,4558.974121,4522.563965,4406.794922,4473.717773,,,,,,,,,,,,,,,,,,,,,,,,,,,,,,,,,,,,,,,,,,,,,,,,,,,,,,,,,,,,,,,,,,,,,,
1769163215.902355,1769163215.902988,109.0,0.0,4279.615234,4278.205078,4278.974121,4311.538574,4278.974121,4265.897461,4294.230957,4274.102539,4277.692383,4263.717773,4564.358887,4527.436035,4413.589844,4483.333496,,,,,,,,,,,,,,,,,,,,,,,,,,,,,,,,,,,,,,,,,,,,,,,,,,,,,,,,,,,,,,,,,,,,,,
1769163215.910163,1769163215.910697,110.0,0.0,4285.769043,4281.025879,4286.410156,4314.358887,4278.461426,4266.282227,4296.410156,4273.846191,4276.922852,4263.846191,4563.589844,4534.871582,4412.307617,4491.666504,0.751616,0.302099,0.347536,0.337944,0.238489,0.592919,0.108958,0.299925,0.139496,0.139111,0.809103,0.212919,0.179131,0.201546,0.11177,0.299419,0.140383,0.208693,0.094659,0.114909,0.22416,0.128685,0.082766,0.045176,0.033372,0.249265,0.119988,0.047264,0.107058,0.193564,0.159991,0.136902,0.042624,0.119889,0.16233,0.472981,0.2538,0.143122,0.068211,0.038357,0.350447,0.697703,0.242981,0.180197,0.109186,0.522994,0.405936,0.132229,0.248835,0.099126,0.399413,0.534537,0.172462,0.262275,0.164513,0.394859,0.386284,0.146367,0.184697,0.165839,0.381959,0.481035,0.199102,0.364626,0.251818,0.550096,0.778954,0.239291,0.364814,0.313027
1769163215.917972,1769163215.918505,111.0,0.0,4282.94873,4281.025879,4286.410156,4311.922852,4278.205078,4267.307617,4294.871582,4277.563965,4277.820313,4264.743652,4562.94873,4535.256348,4411.153809,4481.025879,,,,,,,,,,,,,,,,,,,,,,,,,,,,,,,,,,,,,,,,,,,,,,,,,,,,,,,,,,,,,,,,,,,,,,
1769163215.92578,1769163215.926514,112.0,0.0,4279.230957,4278.333496,4281.410156,4312.179688,4277.179688,4266.282227,4291.922852,4280.769043,4281.153809,4268.205078,4568.205078,4532.563965,4413.461426,4480.256348,,,,,,,,,,,,,,,,,,,,,,,,,,,,,,,,,,,,,,,,,,,,,,,,,,,,,,,,,,,,,,,,,,,,,,
1769163215.933589,1769163215.934322,113.0,0.0,4282.94873,4277.179688,4281.666504,4313.333496,4271.666504,4264.743652,4292.94873,4279.871582,4280.128418,4266.666504,4571.410156,4530.384766,4413.974121,4494.358887,,,,,,,,,,,,,,,,,,,,,,,,,,,,,,,,,,,,,,,,,,,,,,,,,,,,,,,,,,,,,,,,,,,,,,
1769163215.941397,1769163215.942231,114.0,0.0,4282.307617,4276.538574,4281.410156,4311.025879,4266.025879,4267.307617,4294.615234,4274.230957,4274.487305,4263.077148,4566.153809,4523.717773,4412.563965,4492.436035,,,,,,,,,,,,,,,,,,,,,,,,,,,,,,,,,,,,,,,,,,,,,,,,,,,,,,,,,,,,,,,,,,,,,,
1769163215.949206,1769163215.950039,115.0,0.0,4281.153809,4276.025879,4282.05127,4313.205078,4265.384766,4267.692383,4294.871582,4268.205078,4269.615234,4264.230957,4563.846191,4522.692383,4411.153809,4478.205078,,,,,,,,,,,,,,,,,,,,,,,,,,,,,,,,,,,,,,,,,,,,,,,,,,,,,,,,,,,,,,,,,,,,,,
1769163215.957014,1769163215.958047,116.0,0.0,4288.846191,4280.128418,4290.897461,4322.307617,4267.179688,4264.230957,4293.077148,4266.666504,4266.794922,4265.769043,4569.358887,4531.153809,4412.05127,4479.358887,,,,,,,,,,,,,,,,,,,,,,,,,,,,,,,,,,,,,,,,,,,,,,,,,,,,,,,,,,,,,,,,,,,,,,
1769163215.964822,1769163215.965856,117.0,0.0,4288.461426,4279.743652,4291.153809,4321.282227,4264.743652,4263.589844,4291.282227,4264.487305,4265.128418,4264.230957,4566.666504,4530.128418,4411.538574,4486.538574,,,,,,,,,,,,,,,,,,,,,,,,,,,,,,,,,,,,,,,,,,,,,,,,,,,,,,,,,,,,,,,,,,,,,,
1769163215.972631,1769163215.973764,118.0,0.0,4276.025879,4265.641113,4279.358887,4308.461426,4261.282227,4267.436035,4294.487305,4265.384766,4267.436035,4261.538574,4554.358887,4521.410156,4404.358887,4479.358887,,,,,,,,,,,,,,,,,,,,,,,,,,,,,,,,,,,,,,,,,,,,,,,,,,,,,,,,,,,,,,,,,,,,,,
1769163215.980439,1769163215.981572,119.0,0.0,4279.230957,4263.974121,4283.077148,4310.897461,4263.205078,4267.436035,4297.563965,4274.487305,4271.153809,4262.436035,4556.666504,4523.461426,4403.846191,4473.461426,,,,,,,,,,,,,,,,,,,,,,,,,,,,,,,,,,,,,,,,,,,,,,,,,,,,,,,,,,,,,,,,,,,,,,
1769163215.988248,1769163215.989181,120.0,0.0,4294.358887,4277.307617,4296.025879,4326.922852,4266.025879,4265.384766,4295.256348,4273.461426,4267.563965,4265.128418,4564.102539,4528.717773,4409.871582,4480.256348,,,,,,,,,,,,,,,,,,,,,,,,,,,,,,,,,,,,,,,,,,,,,,,,,,,,,,,,,,,,,,,,,,,,,,
1769163215.996056,1769163215.99699,121.0,0.0,4293.717773,4274.743652,4293.974121,4328.077148,4264.102539,4269.743652,4293.974121,4264.871582,4260.0,4261.922852,4556.410156,4524.358887,4406.282227,4480.128418,,,,,,,,,,,,,,,,,,,,,,,,,,,,,,,,,,,,,,,,,,,,,,,,,,,,,,,,,,,,,,,,,,,,,,
1769163216.003865,1769163216.004898,122.0,0.0,4289.487305,4270.128418,4287.563965,4325.512695,4262.05127,4271.282227,4295.384766,4271.025879,4262.436035,4261.410156,4558.077148,4529.230957,4403.461426,4476.410156,,,,,,,,,,,,,,,,,,,,,,,,,,,,,,,,,,,,,,,,,,,,,,,,,,,,,,,,,,,,,,,,,,,,,,
1769163216.011673,1769163216.012706,123.0,0.0,4297.307617,4280.0,4291.922852,4333.846191,4265.0,4267.820313,4293.974121,4278.333496,4268.077148,4268.077148,4569.487305,4535.512695,4411.282227,4481.538574,,,,,,,,,,,,,,,,,,,,,,,,,,,,,,,,,,,,,,,,,,,,,,,,,,,,,,,,,,,,,,,,,,,,,,
1769163216.019482,1769163216.020715,124.0,0.0,4298.846191,4283.077148,4295.897461,4334.358887,4266.922852,4266.410156,4293.461426,4271.410156,4266.153809,4270.0,4561.282227,4527.436035,4414.102539,4480.0,,,,,,,,,,,,,,,,,,,,,,,,,,,,,,,,,,,,,,,,,,,,,,,,,,,,,,,,,,,,,,,,,,,,,,
1769163216.02729,1769163216.028523,125.0,0.0,4295.0,4277.436035,4292.436035,4328.077148,4264.102539,4267.436035,4295.128418,4271.153809,4265.897461,4266.410156,4555.0,4528.077148,4410.641113,4480.769043,,,,,,,,,,,,,,,,,,,,,,,,,,,,,,,,,,,,,,,,,,,,,,,,,,,,,,,,,,,,,,,,,,,,,,
1769163216.035098,1769163216.036232,126.0,0.0,4294.102539,4271.922852,4285.641113,4327.05127,4260.769043,4270.512695,4297.05127,4276.538574,4266.922852,4265.128418,4564.871582,4535.769043,4409.102539,4488.974121,0.876477,0.297885,0.35008,0.344323,0.225636,0.454176,0.104807,0.252509,0.146602,0.132697,0.83624,0.193488,0.184405,0.206678,0.109499,0.309522,0.184623,0.198054,0.098238,0.109918,0.240157,0.108564,0.074311,0.05092,0.03406,0.2768,0.093337,0.043407,0.0956,0.180016,0.190452,0.114993,0.033299,0.113422,0.152349,0.562002,0.189827,0.1509,0.067946,0.038336,0.404208,0.511392,0.211768,0.158031,0.110334,0.584408,0.361443,0.138874,0.281779,0.109727,0.523061,0.457764,0.189952,0.246364,0.170873,0.551758,0.266215,0.152886,0.192793,0.17315,0.455633,0.422401,0.225975,0.340699,0.244231,0.61366,0.575497,0.313272,0.398857,0.318904
1769163216.042907,1769163216.04404,127.0,0.0,4286.794922,4264.871582,4280.897461,4326.666504,4259.230957,4276.666504,4297.94873,4273.589844,4262.179688,4263.717773,4561.025879,4526.410156,4400.256348,4477.820313,,,,,,,,,,,,,,,,,,,,,,,,,,,,,,,,,,,,,,,,,,,,,,,,,,,,,,,,,,,,,,,,,,,,,,
1769163216.050715,1769163216.051649,0.0,0.0,4280.0,4268.077148,4281.153809,4328.589844,4258.205078,4273.333496,4296.410156,4271.666504,4260.769043,4261.025879,4551.153809,4516.153809,4393.205078,4461.538574,,,,,,,,,,,,,,,,,,,,,,,,,,,,,,,,,,,,,,,,,,,,,,,,,,,,,,,,,,,,,,,,,,,,,,
1769163216.058524,1769163216.059457,1.0,0.0,4287.692383,4277.692383,4286.025879,4337.436035,4257.05127,4262.307617,4293.077148,4275.384766,4267.05127,4263.589844,4560.0,4525.897461,4403.205078,4471.922852,,,,,,,,,,,,,,,,,,,,,,,,,,,,,,,,,,,,,,,,,,,,,,,,,,,,,,,,,,,,,,,,,,,,,,
1769163216.066332,1769163216.067166,2.0,0.0,4296.282227,4275.897461,4290.641113,4337.563965,4258.077148,4269.230957,4295.0,4276.922852,4268.077148,4267.179688,4568.846191,4535.512695,4410.128418,4489.230957,,,,,,,,,,,,,,,,,,,,,,,,,,,,,,,,,,,,,,,,,,,,,,,,,,,,,,,,,,,,,,,,,,,,,,
1769163216.074141,1769163216.074974,3.0,0.0,4296.282227,4276.282227,4293.205078,4331.666504,4257.179688,4280.641113,4300.641113,4277.05127,4267.94873,4266.794922,4568.333496,4537.94873,4407.563965,4492.05127,,,,,,,,,,,,,,,,,,,,,,,,,,,,,,,,,,,,,,,,,,,,,,,,,,,,,,,,,,,,,,,,,,,,,,
1769163216.081949,1769163216.082583,4.0,0.0,4295.641113,4280.897461,4295.769043,4338.205078,4253.333496,4277.94873,4300.512695,4281.153809,4277.692383,4267.94873,4572.307617,4541.282227,4410.769043,4492.179688,,,,,,,,,,,,,,,,,,,,,,,,,,,,,,,,,,,,,,,,,,,,,,,,,,,,,,,,,,,,,,,,,,,,,,
1769163216.089758,1769163216.090391,5.0,0.0,4295.128418,4277.692383,4290.512695,4339.871582,4250.897461,4274.487305,4297.563965,4282.563965,4280.0,4268.077148,4573.205078,4539.230957,4413.974121,4490.897461,,,,,,,,,,,,,,,,,,,,,,,,,,,,,,,,,,,,,,,,,,,,,,,,,,,,,,,,,,,,,,,,,,,,,,
1769163216.097566,1769163216.0981,6.0,0.0,4295.128418,4276.282227,4282.820313,4329.615234,4250.512695,4273.205078,4296.922852,4278.717773,4274.102539,4266.025879,4569.487305,4535.641113,4409.871582,4487.94873,,,,,,,,,,,,,,,,,,,,,,,,,,,,,,,,,,,,,,,,,,,,,,,,,,,,,,,,,,,,,,,,,,,,,,
1769163216.105374,1769163216.105908,7.0,0.0,4296.794922,4277.692383,4287.179688,4328.589844,4248.461426,4266.153809,4294.487305,4277.436035,4276.538574,4270.128418,4572.563965,4539.102539,4414.358887,4489.615234,,,,,,,,,,,,,,,,,,,,,,,,,,,,,,,,,,,,,,,,,,,,,,,,,,,,,,,,,,,,,,,,,,,,,,
1769163216.113183,1769163216.113517,8.0,0.0,4293.974121,4273.461426,4295.128418,4334.743652,4245.128418,4266.153809,4293.974121,4278.846191,4274.358887,4271.794922,4576.410156,4544.230957,4421.410156,4493.461426,,,,,,,,,,,,,,,,,,,,,,,,,,,,,,,,,,,,,,,,,,,,,,,,,,,,,,,,,,,,,,,,,,,,,,
1769163216.120991,1769163216.121325,9.0,0.0,4293.461426,4273.205078,4294.743652,4333.974121,4246.410156,4280.0,4301.410156,4279.230957,4263.974121,4265.256348,4571.153809,4539.871582,4412.692383,4491.410156,,,,,,,,,,,,,,,,,,,,,,,,,,,,,,,,,,,,,,,,,,,,,,,,,,,,,,,,,,,,,,,,,,,,,,
1769163216.1288,1769163216.129034,10.0,0.0,4302.94873,4279.615234,4293.077148,4335.0,4249.102539,4279.230957,4306.922852,4282.179688,4269.230957,4268.717773,4571.410156,4537.436035,4412.692383,4487.05127,,,,,,,,,,,,,,,,,,,,,,,,,,,,,,,,,,,,,,,,,,,,,,,,,,,,,,,,,,,,,,,,,,,,,,
1769163216.136608,1769163216.136842,11.0,0.0,4310.769043,4281.153809,4295.641113,4341.538574,4245.769043,4266.794922,4300.512695,4282.436035,4280.897461,4278.589844,4582.179688,4545.769043,4427.94873,4496.282227,,,,,,,,,,,,,,,,,,,,,,,,,,,,,,,,,,,,,,,,,,,,,,,,,,,,,,,,,,,,,,,,,,,,,,
1769163216.144417,1769163216.144851,12.0,0.0,4309.358887,4280.0,4301.410156,4342.436035,4242.820313,4268.205078,4294.487305,4281.025879,4279.230957,4279.615234,4587.692383,4555.641113,4432.563965,4507.563965,,,,,,,,,,,,,,,,,,,,,,,,,,,,,,,,,,,,,,,,,,,,,,,,,,,,,,,,,,,,,,,,,,,,,,
1769163216.152225,1769163216.152659,13.0,0.0,4311.025879,4285.0,4307.692383,4342.563965,4244.230957,4279.102539,4297.94873,4287.307617,4278.846191,4277.436035,4585.641113,4556.153809,4427.05127,4501.666504,,,,,,,,,,,,,,,,,,,,,,,,,,,,,,,,,,,,,,,,,,,,,,,,,,,,,,,,,,,,,,,,,,,,,,
1769163216.160034,1769163216.160567,14.0,0.0,4311.794922,4285.769043,4304.358887,4344.615234,4240.0,4278.333496,4301.025879,4288.077148,4278.974121,4272.307617,4579.487305,4544.615234,4420.769043,4490.897461,0.924415,0.30582,0.355459,0.360155,0.211966,0.330691,0.107103,0.226691,0.166243,0.123953,0.810019,0.196681,0.188873,0.222156,0.10727,0.305488,0.242091,0.196459,0.109585,0.105413,0.231087,0.0914,0.070862,0.058955,0.036005,0.313101,0.09269,0.056355,0.098442,0.162547,0.232918,0.108811,0.028706,0.121663,0.140878,0.63319,0.163697,0.152255,0.070989,0.040704,0.457741,0.388729,0.17996,0.143788,0.10983,0.640827,0.323535,0.141976,0.306796,0.118673,0.700489,0.400532,0.213755,0.240535,0.180862,0.771255,0.190643,0.168386,0.236949,0.194803,0.546648,0.41317,0.259889,0.342519,0.239209,0.722359,0.430872,0.407451,0.474391,0.332852
1769163216.167842,1769163216.168376,15.0,0.0,4304.871582,4281.410156,4294.358887,4344.358887,4233.077148,4269.615234,4298.077148,4279.871582,4272.179688,4262.179688,4571.282227,4535.512695,4413.974121,4489.743652,,,,,,,,,,,,,,,,,,,,,,,,,,,,,,,,,,,,,,,,,,,,,,,,,,,,,,,,,,,,,,,,,,,,,,
1769163216.175651,1769163216.176384,16.0,0.0,4305.256348,4285.384766,4294.358887,4342.94873,4234.358887,4269.102539,4294.871582,4280.128418,4273.333496,4261.538574,4570.256348,4539.230957,4412.563965,4492.179688,,,,,,,,,,,,,,,,,,,,,,,,,,,,,,,,,,,,,,,,,,,,,,,,,,,,,,,,,,,,,,,,,,,,,,
1769163216.183459,1769163216.184192,17.0,0.0,4312.307617,4287.820313,4302.307617,4340.256348,4235.769043,4270.897461,4294.743652,4283.077148,4276.153809,4265.128418,4572.307617,4542.05127,4415.256348,4491.538574,,,,,,,,,,,,,,,,,,,,,,,,,,,,,,,,,,,,,,,,,,,,,,,,,,,,,,,,,,,,,,,,,,,,,,
1769163216.191268,1769163216.192101,18.0,0.0,4313.205078,4283.333496,4303.333496,4342.563965,4234.230957,4270.897461,4294.615234,4280.384766,4271.025879,4263.589844,4571.025879,4538.205078,4413.077148,4490.0,,,,,,,,,,,,,,,,,,,,,,,,,,,,,,,,,,,,,,,,,,,,,,,,,,,,,,,,,,,,,,,,,,,,,,
1769163216.199076,1769163216.199909,19.0,0.0,4310.128418,4282.179688,4295.897461,4345.128418,4235.384766,4274.487305,4294.871582,4286.153809,4273.077148,4265.897461,4576.025879,4538.717773,4413.461426,4490.897461,,,,,,,,,,,,,,,,,,,,,,,,,,,,,,,,,,,,,,,,,,,,,,,,,,,,,,,,,,,,,,,,,,,,,,
1769163216.206885,1769163216.207918,20.0,0.0,4304.743652,4279.102539,4289.743652,4334.230957,4235.769043,4278.077148,4298.461426,4296.538574,4276.666504,4267.307617,4582.05127,4542.94873,4416.282227,4491.922852,,,,,,,,,,,,,,,,,,,,,,,,,,,,,,,,,,,,,,,,,,,,,,,,,,,,,,,,,,,,,,,,,,,,,,
1769163216.214693,1769163216.215726,21.0,0.0,4296.922852,4271.922852,4289.871582,4326.282227,4233.846191,4278.461426,4300.769043,4295.512695,4269.487305,4264.230957,4576.282227,4541.794922,4413.589844,4487.307617,,,,,,,,,,,,,,,,,,,,,,,,,,,,,,,,,,,,,,,,,,,,,,,,,,,,,,,,,,,,,,,,,,,,,,
1769163216.222501,1769163216.223434,22.0,0.0,4295.641113,4272.563965,4292.05127,4333.205078,4233.846191,4279.230957,4304.615234,4291.538574,4267.307617,4262.179688,4568.461426,4538.461426,4411.410156,4479.102539,,,,,,,,,,,,,,,,,,,,,,,,,,,,,,,,,,,,,,,,,,,,,,,,,,,,,,,,,,,,,,,,,,,,,,
1769163216.23031,1769163216.231243,23.0,0.0,4301.538574,4278.205078,4289.487305,4335.769043,4234.358887,4282.436035,4306.538574,4292.94873,4275.641113,4262.05127,4567.563965,4537.05127,4410.897461,4476.666504,,,,,,,,,,,,,,,,,,,,,,,,,,,,,,,,,,,,,,,,,,,,,,,,,,,,,,,,,,,,,,,,,,,,,,
1769163216.238118,1769163216.238852,24.0,0.0,4305.897461,4279.358887,4287.94873,4334.102539,4234.230957,4278.974121,4301.282227,4297.05127,4280.897461,4267.05127,4570.641113,4540.0,4411.794922,4484.358887,,,,,,,,,,,,,,,,,,,,,,,,,,,,,,,,,,,,,,,,,,,,,,,,,,,,,,,,,,,,,,,,,,,,,,
1769163216.245927,1769163216.24666,25.0,0.0,4308.846191,4278.205078,4288.205078,4335.0,4232.436035,4277.05127,4300.769043,4298.205078,4279.743652,4266.922852,4572.820313,4540.641113,4411.794922,4489.743652,,,,,,,,,,,,,,,,,,,,,,,,,,,,,,,,,,,,,,,,,,,,,,,,,,,,,,,,,,,,,,,,,,,,,,
1769163216.253735,1769163216.254369,26.0,0.0,4309.230957,4278.589844,4286.538574,4332.05127,4230.384766,4279.615234,4302.179688,4294.358887,4276.410156,4261.922852,4571.794922,4537.436035,4412.05127,4490.128418,,,,,,,,,,,,,,,,,,,,,,,,,,,,,,,,,,,,,,,,,,,,,,,,,,,,,,,,,,,,,,,,,,,,,,
1769163216.261544,1769163216.262177,27.0,0.0,4304.230957,4281.410156,4286.410156,4331.922852,4233.461426,4278.589844,4296.153809,4292.692383,4277.179688,4269.615234,4572.820313,4539.358887,4419.102539,4492.94873,,,,,,,,,,,,,,,,,,,,,,,,,,,,,,,,,,,,,,,,,,,,,,,,,,,,,,,,,,,,,,,,,,,,,,
1769163216.269352,1769163216.270185,28.0,0.0,4296.666504,4280.0,4287.563965,4333.717773,4231.538574,4277.05127,4296.922852,4294.487305,4279.358887,4274.230957,4572.94873,4541.410156,4417.05127,4490.641113,,,,,,,,,,,,,,,,,,,,,,,,,,,,,,,,,,,,,,,,,,,,,,,,,,,,,,,,,,,,,,,,,,,,,,
1769163216.277161,1769163216.277994,29.0,0.0,4291.153809,4272.692383,4286.410156,4326.666504,4221.025879,4278.461426,4301.025879,4293.974121,4275.256348,4261.538574,4567.307617,4538.333496,4403.589844,4484.743652,,,,,,,,,,,,,,,,,,,,,,,,,,,,,,,,,,,,,,,,,,,,,,,,,,,,,,,,,,,,,,,,,,,,,,
1769163216.284969,1769163216.285702,30.0,0.0,4291.153809,4275.256348,4288.333496,4324.358887,4217.307617,4278.589844,4296.922852,4293.205078,4273.974121,4259.871582,4567.05127,4539.615234,4404.743652,4488.589844,0.872861,0.330769,0.365353,0.381292,0.200016,0.246238,0.121018,0.230928,0.195467,0.11615,0.727971,0.210106,0.198154,0.248604,0.107258,0.289638,0.296901,0.207474,0.127867,0.104149,0.217992,0.082041,0.071813,0.0689,0.039812,0.358215,0.109231,0.086749,0.113507,0.146008,0.275919,0.106003,0.02864,0.137281,0.128334,0.659162,0.164807,0.151731,0.074723,0.044408,0.49591,0.335383,0.152729,0.137595,0.108185,0.669538,0.29683,0.138479,0.310204,0.122743,0.877158,0.362471,0.241167,0.241882,0.192551,1.012114,0.151698,0.185777,0.306803,0.221651,0.623406,0.444051,0.289652,0.367667,0.238358,0.838364,0.356083,0.498158,0.571245,0.348418
1769163216.292777,1769163216.293511,31.0,0.0,4294.487305,4280.384766,4289.871582,4329.487305,4220.384766,4278.333496,4298.077148,4296.922852,4281.153809,4270.512695,4577.307617,4543.717773,4415.512695,4495.897461,,,,,,,,,,,,,,,,,,,,,,,,,,,,,,,,,,,,,,,,,,,,,,,,,,,,,,,,,,,,,,,,,,,,,,
1769163216.300586,1769163216.301119,32.0,0.0,4295.256348,4271.282227,4282.820313,4326.538574,4218.333496,4280.641113,4302.436035,4297.436035,4281.922852,4267.436035,4578.205078,4542.563965,4412.307617,4490.769043,,,,,,,,,,,,,,,,,,,,,,,,,,,,,,,,,,,,,,,,,,,,,,,,,,,,,,,,,,,,,,,,,,,,,,
1769163216.308394,1769163216.308928,33.0,0.0,4293.205078,4266.794922,4277.820313,4324.102539,4215.641113,4276.922852,4297.820313,4293.205078,4277.307617,4265.384766,4572.307617,4540.256348,4407.820313,4486.794922,,,,,,,,,,,,,,,,,,,,,,,,,,,,,,,,,,,,,,,,,,,,,,,,,,,,,,,,,,,,,,,,,,,,,,
1769163216.316203,1769163216.316636,34.0,0.0,4294.615234,4276.410156,4282.692383,4327.307617,4219.102539,4270.897461,4298.846191,4293.846191,4277.820313,4272.05127,4575.641113,4542.307617,4413.333496,4491.922852,,,,,,,,,,,,,,,,,,,,,,,,,,,,,,,,,,,,,,,,,,,,,,,,,,,,,,,,,,,,,,,,,,,,,,
1769163216.324011,1769163216.324445,35.0,0.0,4297.820313,4277.179688,4283.205078,4326.538574,4220.897461,4276.538574,4307.563965,4297.05127,4278.589844,4267.563965,4577.820313,4541.538574,4410.641113,4492.94873,,,,,,,,,,,,,,,,,,,,,,,,,,,,,,,,,,,,,,,,,,,,,,,,,,,,,,,,,,,,,,,,,,,,,,
1769163216.33182,1769163216.332453,36.0,0.0,4296.538574,4265.128418,4277.94873,4325.641113,4216.666504,4283.717773,4306.794922,4295.256348,4275.128418,4261.538574,4570.512695,4537.563965,4405.641113,4490.512695,,,,,,,,,,,,,,,,,,,,,,,,,,,,,,,,,,,,,,,,,,,,,,,,,,,,,,,,,,,,,,,,,,,,,,
1769163216.339628,1769163216.340262,37.0,0.0,4291.538574,4264.487305,4275.256348,4325.769043,4213.974121,4273.589844,4298.846191,4292.05127,4273.717773,4269.615234,4571.538574,4537.820313,4412.05127,4489.871582,,,,,,,,,,,,,,,,,,,,,,,,,,,,,,,,,,,,,,,,,,,,,,,,,,,,,,,,,,,,,,,,,,,,,,
1769163216.347437,1769163216.34817,38.0,0.0,4294.743652,4277.179688,4283.205078,4326.410156,4215.769043,4260.0,4293.333496,4292.94873,4277.179688,4278.333496,4577.820313,4541.922852,4416.282227,4492.307617,,,,,,,,,,,,,,,,,,,,,,,,,,,,,,,,,,,,,,,,,,,,,,,,,,,,,,,,,,,,,,,,,,,,,,
1769163216.355245,1769163216.355978,39.0,0.0,4303.846191,4281.538574,4293.077148,4327.563965,4217.05127,4263.846191,4293.461426,4295.256348,4279.230957,4275.512695,4574.358887,4541.922852,4411.410156,4492.179688,,,,,,,,,,,,,,,,,,,,,,,,,,,,,,,,,,,,,,,,,,,,,,,,,,,,,,,,,,,,,,,,,,,,,,
1769163216.363053,1769163216.363987,40.0,0.0,4306.666504,4277.563965,4290.256348,4326.922852,4217.179688,4276.153809,4299.487305,4295.384766,4278.205078,4272.307617,4575.512695,4539.615234,4412.692383,4489.487305,,,,,,,,,,,,,,,,,,,,,,,,,,,,,,,,,,,,,,,,,,,,,,,,,,,,,,,,,,,,,,,,,,,,,,
1769163216.370862,1769163216.371795,41.0,0.0,4304.871582,4277.563965,4285.512695,4325.0,4218.077148,4278.846191,4302.05127,4293.974121,4280.256348,4275.0,4580.128418,4539.358887,4418.461426,4491.282227,,,,,,,,,,,,,,,,,,,,,,,,,,,,,,,,,,,,,,,,,,,,,,,,,,,,,,,,,,,,,,,,,,,,,,
1769163216.37867,1769163216.379703,42.0,0.0,4303.205078,4280.0,4284.230957,4323.974121,4217.563965,4269.743652,4296.794922,4293.205078,4283.333496,4276.025879,4575.384766,4538.846191,4415.128418,4493.333496,,,,,,,,,,,,,,,,,,,,,,,,,,,,,,,,,,,,,,,,,,,,,,,,,,,,,,,,,,,,,,,,,,,,,,
1769163216.386479,1769163216.387512,43.0,0.0,4305.769043,4279.871582,4285.0,4324.743652,4215.256348,4264.871582,4294.358887,4293.846191,4281.794922,4275.128418,4571.538574,4539.615234,4413.205078,4493.333496,,,,,,,,,,,,,,,,,,,,,,,,,,,,,,,,,,,,,,,,,,,,,,,,,,,,,,,,,,,,,,,,,,,,,,
1769163216.394287,1769163216.39512,44.0,0.0,4310.0,4281.153809,4288.974121,4326.153809,4215.641113,4276.666504,4301.538574,4295.0,4279.230957,4273.717773,4572.179688,4539.230957,4412.692383,4489.230957,,,,,,,,,,,,,,,,,,,,,,,,,,,,,,,,,,,,,,,,,,,,,,,,,,,,,,,,,,,,,,,,,,,,,,
1769163216.402096,1769163216.402929,45.0,0.0,4311.410156,4282.94873,4288.717773,4323.974121,4216.922852,4282.94873,4303.461426,4295.641113,4279.230957,4273.589844,4574.743652,4538.717773,4407.820313,4485.641113,,,,,,,,,,,,,,,,,,,,,,,,,,,,,,,,,,,,,,,,,,,,,,,,,,,,,,,,,,,,,,,,,,,,,,
1769163216.409904,1769163216.410837,46.0,0.0,4310.256348,4283.461426,4282.563965,4319.487305,4212.94873,4265.128418,4291.410156,4294.358887,4281.410156,4278.589844,4582.692383,4550.0,4418.077148,4497.307617,0.74744,0.369271,0.387676,0.402246,0.190572,0.207117,0.147297,0.263071,0.226772,0.11294,0.627533,0.22139,0.216798,0.282228,0.111687,0.271492,0.331687,0.232226,0.150111,0.108107,0.192546,0.082519,0.074015,0.079002,0.04523,0.406331,0.131158,0.129332,0.135351,0.135046,0.301385,0.098301,0.032775,0.150052,0.114925,0.614065,0.18033,0.158057,0.076958,0.048992,0.50604,0.331823,0.140518,0.138484,0.105764,0.648166,0.279061,0.131088,0.287675,0.119929,0.990348,0.338068,0.273727,0.245493,0.203719,1.182601,0.137166,0.205038,0.384949,0.244225,0.66578,0.491356,0.312076,0.405177,0.239278,0.930378,0.337779,0.569537,0.662431,0.359197
1769163216.417713,1769163216.418646,47.0,0.0,4311.153809,4282.563965,4280.256348,4316.282227,4209.102539,4259.230957,4290.256348,4293.205078,4282.94873,4279.358887,4586.153809,4557.307617,4430.256348,4508.077148,,,,,,,,,,,,,,,,,,,,,,,,,,,,,,,,,,,,,,,,,,,,,,,,,,,,,,,,,,,,,,,,,,,,,,
1769163216.425521,1769163216.426254,48.0,0.0,4311.153809,4280.512695,4284.871582,4313.333496,4210.897461,4279.743652,4299.487305,4294.615234,4279.358887,4274.871582,4579.102539,4546.153809,4418.205078,4497.179688,,,,,,,,,,,,,,,,,,,,,,,,,,,,,,,,,,,,,,,,,,,,,,,,,,,,,,,,,,,,,,,,,,,,,,
1769163216.433329,1769163216.434063,49.0,0.0,4309.102539,4281.794922,4286.538574,4313.717773,4215.512695,4280.384766,4296.153809,4295.384766,4276.410156,4274.743652,4579.102539,4538.589844,4409.615234,4486.410156,,,,,,,,,,,,,,,,,,,,,,,,,,,,,,,,,,,,,,,,,,,,,,,,,,,,,,,,,,,,,,,,,,,,,,
1769163216.441138,1769163216.441771,50.0,0.0,4309.230957,4281.666504,4283.589844,4310.512695,4214.230957,4263.846191,4289.743652,4292.94873,4276.153809,4273.077148,4582.563965,4541.666504,4416.922852,4491.282227,,,,,,,,,,,,,,,,,,,,,,,,,,,,,,,,,,,,,,,,,,,,,,,,,,,,,,,,,,,,,,,,,,,,,,
1769163216.448946,1769163216.44958,51.0,0.0,4307.692383,4278.205078,4279.871582,4300.769043,4207.692383,4267.820313,4293.205078,4292.179688,4276.666504,4270.128418,4578.205078,4543.077148,4417.436035,4491.922852,,,,,,,,,,,,,,,,,,,,,,,,,,,,,,,,,,,,,,,,,,,,,,,,,,,,,,,,,,,,,,,,,,,,,,
1769163216.456755,1769163216.457188,52.0,0.0,4305.0,4277.307617,4280.384766,4297.05127,4203.589844,4281.282227,4297.307617,4298.077148,4282.05127,4277.179688,4579.358887,4547.692383,4419.871582,4488.974121,,,,,,,,,,,,,,,,,,,,,,,,,,,,,,,,,,,,,,,,,,,,,,,,,,,,,,,,,,,,,,,,,,,,,,
1769163216.464563,1769163216.464997,53.0,0.0,4303.333496,4277.05127,4281.153809,4297.692383,4202.436035,4279.358887,4296.282227,4300.0,4284.615234,4283.205078,4586.025879,4554.871582,4430.897461,4495.256348,,,,,,,,,,,,,,,,,,,,,,,,,,,,,,,,,,,,,,,,,,,,,,,,,,,,,,,,,,,,,,,,,,,,,,
1769163216.472372,1769163216.472905,54.0,0.0,4305.769043,4276.282227,4281.025879,4297.563965,4202.179688,4272.05127,4293.846191,4293.974121,4279.871582,4277.94873,4584.487305,4553.974121,4428.077148,4494.487305,,,,,,,,,,,,,,,,,,,,,,,,,,,,,,,,,,,,,,,,,,,,,,,,,,,,,,,,,,,,,,,,,,,,,,
1769163216.48018,1769163216.480714,55.0,0.0,4312.436035,4280.256348,4287.307617,4300.897461,4202.94873,4274.871582,4295.769043,4297.94873,4279.743652,4275.641113,4580.512695,4552.05127,4418.461426,4490.769043,,,,,,,,,,,,,,,,,,,,,,,,,,,,,,,,,,,,,,,,,,,,,,,,,,,,,,,,,,,,,,,,,,,,,,
1769163216.487989,1769163216.488322,56.0,0.0,4315.256348,4284.487305,4288.589844,4301.282227,4204.743652,4279.743652,4299.102539,4305.512695,4282.307617,4277.563965,4583.333496,4553.846191,4420.641113,4498.205078,,,,,,,,,,,,,,,,,,,,,,,,,,,,,,,,,,,,,,,,,,,,,,,,,,,,,,,,,,,,,,,,,,,,,,
1769163216.495797,1769163216.496131,57.0,0.0,4312.05127,4284.487305,4280.897461,4294.871582,4203.589844,4279.102539,4296.666504,4300.384766,4278.974121,4275.0,4584.230957,4552.436035,4421.282227,4501.922852,,,,,,,,,,,,,,,,,,,,,,,,,,,,,,,,,,,,,,,,,,,,,,,,,,,,,,,,,,,,,,,,,,,,,,
1769163216.503606,1769163216.503839,58.0,0.0,4309.230957,4283.205078,4277.692383,4293.461426,4200.897461,4275.512695,4294.102539,4294.871582,4277.563965,4272.94873,4579.230957,4551.922852,4417.307617,4492.692383,,,,,,,,,,,,,,,,,,,,,,,,,,,,,,,,,,,,,,,,,,,,,,,,,,,,,,,,,,,,,,,,,,,,,,
1769163216.511414,1769163216.511648,59.0,0.0,4311.153809,4282.94873,4279.871582,4296.666504,4200.641113,4271.538574,4292.692383,4297.436035,4280.384766,4275.897461,4580.384766,4554.358887,4421.153809,4488.589844,,,,,,,,,,,,,,,,,,,,,,,,,,,,,,,,,,,,,,,,,,,,,,,,,,,,,,,,,,,,,,,,,,,,,,
1769163216.519223,1769163216.519256,60.0,0.0,4313.846191,4288.205078,4282.436035,4297.05127,4201.153809,4266.922852,4284.358887,4298.974121,4279.102539,4277.436035,4587.692383,4556.922852,4427.436035,4498.205078,,,,,,,,,,,,,,,,,,,,,,,,,,,,,,,,,,,,,,,,,,,,,,,,,,,,,,,,,,,,,,,,,,,,,,
1769163216.527031,1769163216.527065,61.0,0.0,4314.230957,4290.384766,4282.94873,4296.794922,4201.282227,4262.436035,4280.641113,4296.666504,4276.410156,4274.615234,4589.358887,4556.922852,4427.820313,4507.820313,,,,,,,,,,,,,,,,,,,,,,,,,,,,,,,,,,,,,,,,,,,,,,,,,,,,,,,,,,,,,,,,,,,,,,
1769163216.53484,1769163216.534973,62.0,0.0,4313.205078,4282.307617,4280.384766,4296.410156,4201.025879,4266.538574,4289.230957,4294.102539,4278.205078,4271.282227,4587.563965,4554.871582,4427.563965,4508.077148,0.59702,0.409629,0.422855,0.417403,0.182812,0.199101,0.184079,0.308663,0.250547,0.116048,0.534434,0.227838,0.241483,0.314608,0.121297,0.2477,0.337385,0.266747,0.171251,0.117456,0.173404,0.092784,0.074926,0.086981,0.051153,0.458677,0.147542,0.175236,0.158101,0.13213,0.301586,0.087922,0.039755,0.153169,0.100871,0.519281,0.201256,0.177661,0.077692,0.054431,0.494195,0.345827,0.151617,0.145707,0.103202,0.580431,0.264267,0.124173,0.246289,0.111014,1.025629,0.321526,0.311878,0.248767,0.212118,1.245208,0.140157,0.228523,0.453535,0.256961,0.680848,0.530312,0.32809,0.44059,0.237824,0.99245,0.349853,0.612126,0.724647,0.361945
1769163216.542648,1769163216.542782,63.0,0.0,4312.179688,4278.077148,4277.563965,4291.410156,4200.512695,4276.538574,4295.0,4296.282227,4280.128418,4269.230957,4587.692383,4553.461426,4429.615234,4499.230957,,,,,,,,,,,,,,,,,,,,,,,,,,,,,,,,,,,,,,,,,,,,,,,,,,,,,,,,,,,,,,,,,,,,,,
1769163216.550456,1769163216.55079,64.0,0.0,4309.743652,4281.666504,4276.794922,4286.025879,4201.282227,4281.794922,4293.333496,4305.641113,4279.615234,4271.538574,4586.282227,4552.307617,4427.307617,4489.743652,,,,,,,,,,,,,,,,,,,,,,,,,,,,,,,,,,,,,,,,,,,,,,,,,,,,,,,,,,,,,,,,,,,,,,
1769163216.558265,1769163216.558598,65.0,0.0,4306.922852,4281.538574,4277.94873,4284.871582,4202.820313,4280.0,4291.666504,4310.512695,4285.641113,4278.205078,4584.487305,4552.179688,4424.871582,4490.897461,,,,,,,,,,,,,,,,,,,,,,,,,,,,,,,,,,,,,,,,,,,,,,,,,,,,,,,,,,,,,,,,,,,,,,
1769163216.566073,1769163216.566507,66.0,0.0,4310.384766,4280.128418,4279.230957,4284.358887,4202.563965,4277.820313,4292.307617,4308.461426,4292.820313,4281.794922,4586.410156,4554.871582,4428.974121,4495.256348,,,,,,,,,,,,,,,,,,,,,,,,,,,,,,,,,,,,,,,,,,,,,,,,,,,,,,,,,,,,,,,,,,,,,,
1769163216.573882,1769163216.574315,67.0,0.0,4310.384766,4280.641113,4278.461426,4280.641113,4201.025879,4278.717773,4293.461426,4309.230957,4286.922852,4277.179688,4587.179688,4556.410156,4428.205078,4493.077148,,,,,,,,,,,,,,,,,,,,,,,,,,,,,,,,,,,,,,,,,,,,,,,,,,,,,,,,,,,,,,,,,,,,,,
1769163216.58169,1769163216.582323,68.0,0.0,4301.538574,4276.025879,4276.922852,4279.230957,4200.384766,4277.820313,4292.307617,4309.615234,4278.205078,4272.05127,4580.512695,4551.538574,4420.641113,4488.333496,,,,,,,,,,,,,,,,,,,,,,,,,,,,,,,,,,,,,,,,,,,,,,,,,,,,,,,,,,,,,,,,,,,,,,
1769163216.589499,1769163216.590132,69.0,0.0,4301.025879,4274.102539,4279.615234,4279.230957,4199.358887,4277.05127,4286.922852,4308.461426,4277.692383,4274.487305,4576.282227,4548.333496,4420.769043,4487.436035,,,,,,,,,,,,,,,,,,,,,,,,,,,,,,,,,,,,,,,,,,,,,,,,,,,,,,,,,,,,,,,,,,,,,,
1769163216.597307,1769163216.59784,70.0,0.0,4303.461426,4275.0,4280.641113,4276.922852,4197.307617,4275.256348,4287.820313,4308.333496,4278.205078,4277.563965,4581.538574,4555.0,4428.205078,4489.358887,,,,,,,,,,,,,,,,,,,,,,,,,,,,,,,,,,,,,,,,,,,,,,,,,,,,,,,,,,,,,,,,,,,,,,
1769163216.605116,1769163216.605649,71.0,0.0,4298.589844,4271.410156,4280.128418,4277.307617,4196.538574,4270.0,4290.384766,4307.692383,4275.769043,4277.179688,4587.307617,4559.871582,4429.358887,4492.820313,,,,,,,,,,,,,,,,,,,,,,,,,,,,,,,,,,,,,,,,,,,,,,,,,,,,,,,,,,,,,,,,,,,,,,
1769163216.612924,1769163216.613557,72.0,0.0,4300.769043,4271.410156,4286.410156,4279.487305,4198.205078,4268.717773,4284.102539,4308.333496,4275.641113,4276.922852,4586.666504,4554.743652,4427.05127,4492.436035,,,,,,,,,,,,,,,,,,,,,,,,,,,,,,,,,,,,,,,,,,,,,,,,,,,,,,,,,,,,,,,,,,,,,,
1769163216.620732,1769163216.621366,73.0,0.0,4311.666504,4281.666504,4290.641113,4280.128418,4202.436035,4274.102539,4279.230957,4309.615234,4278.205078,4281.025879,4586.025879,4554.230957,4429.615234,4492.179688,,,,,,,,,,,,,,,,,,,,,,,,,,,,,,,,,,,,,,,,,,,,,,,,,,,,,,,,,,,,,,,,,,,,,,
1769163216.628541,1769163216.629074,74.0,0.0,4306.666504,4278.205078,4282.94873,4278.974121,4202.436035,4280.128418,4288.461426,4311.025879,4279.743652,4282.692383,4587.820313,4556.410156,4428.846191,4493.717773,,,,,,,,,,,,,,,,,,,,,,,,,,,,,,,,,,,,,,,,,,,,,,,,,,,,,,,,,,,,,,,,,,,,,,
1769163216.636349,1769163216.636883,75.0,0.0,4291.025879,4263.589844,4275.128418,4276.025879,4197.692383,4281.153809,4296.282227,4311.666504,4277.563965,4279.230957,4584.102539,4546.666504,4422.05127,4487.179688,,,,,,,,,,,,,,,,,,,,,,,,,,,,,,,,,,,,,,,,,,,,,,,,,,,,,,,,,,,,,,,,,,,,,,
1769163216.644158,1769163216.644491,76.0,0.0,4293.717773,4268.205078,4279.102539,4277.436035,4198.461426,4277.94873,4290.641113,4310.641113,4277.820313,4278.333496,4578.461426,4542.05127,4421.282227,4480.512695,,,,,,,,,,,,,,,,,,,,,,,,,,,,,,,,,,,,,,,,,,,,,,,,,,,,,,,,,,,,,,,,,,,,,,
1769163216.651966,1769163216.6523,77.0,0.0,4301.794922,4280.128418,4282.94873,4280.128418,4200.256348,4278.205078,4292.563965,4310.0,4280.128418,4279.615234,4579.230957,4551.666504,4426.025879,4486.922852,,,,,,,,,,,,,,,,,,,,,,,,,,,,,,,,,,,,,,,,,,,,,,,,,,,,,,,,,,,,,,,,,,,,,,
1769163216.659775,1769163216.660008,78.0,0.0,4300.769043,4278.974121,4281.282227,4279.102539,4199.615234,4280.128418,4297.436035,4310.384766,4277.94873,4279.871582,4583.974121,4556.282227,4427.307617,4496.410156,0.496471,0.439108,0.46287,0.425729,0.174994,0.21125,0.227884,0.348536,0.259732,0.124382,0.491467,0.23065,0.262876,0.336196,0.134077,0.242702,0.317683,0.301804,0.186061,0.129556,0.164101,0.110535,0.073152,0.09163,0.056067,0.496907,0.152779,0.214369,0.177413,0.139363,0.270801,0.083078,0.048394,0.146234,0.087638,0.39797,0.220727,0.208129,0.077433,0.060421,0.463266,0.348207,0.185281,0.157589,0.100845,0.477389,0.246854,0.120568,0.200338,0.099603,0.972334,0.301879,0.348613,0.250316,0.215221,1.159043,0.152941,0.256991,0.49533,0.257945,0.672492,0.536338,0.334387,0.459777,0.230943,1.014807,0.359831,0.618963,0.740406,0.355289
1769163216.667583,1769163216.667817,79.0,0.0,4294.230957,4276.410156,4283.846191,4279.871582,4199.871582,4276.794922,4286.922852,4310.256348,4277.692383,4279.743652,4586.153809,4552.307617,4426.153809,4495.0,,,,,,,,,,,,,,,,,,,,,,,,,,,,,,,,,,,,,,,,,,,,,,,,,,,,,,,,,,,,,,,,,,,,,,
1769163216.675392,1769163216.675825,80.0,0.0,4294.230957,4279.358887,4289.615234,4282.307617,4196.025879,4272.179688,4278.461426,4309.358887,4279.615234,4280.128418,4585.128418,4552.436035,4427.94873,4492.179688,,,,,,,,,,,,,,,,,,,,,,,,,,,,,,,,,,,,,,,,,,,,,,,,,,,,,,,,,,,,,,,,,,,,,,
1769163216.6832,1769163216.683633,81.0,0.0,4304.871582,4281.666504,4292.179688,4281.153809,4191.794922,4273.461426,4281.922852,4308.717773,4276.153809,4278.333496,4586.025879,4555.0,4428.717773,4500.512695,,,,,,,,,,,,,,,,,,,,,,,,,,,,,,,,,,,,,,,,,,,,,,,,,,,,,,,,,,,,,,,,,,,,,,
1769163216.691008,1769163216.691342,82.0,0.0,4312.307617,4282.05127,4293.846191,4280.128418,4195.512695,4276.410156,4283.974121,4311.282227,4275.641113,4277.05127,4587.179688,4555.897461,4427.179688,4502.05127,,,,,,,,,,,,,,,,,,,,,,,,,,,,,,,,,,,,,,,,,,,,,,,,,,,,,,,,,,,,,,,,,,,,,,
1769163216.698817,1769163216.69915,83.0,0.0,4310.769043,4281.410156,4295.897461,4281.282227,4200.897461,4273.461426,4279.487305,4314.230957,4279.871582,4278.461426,4583.205078,4556.922852,4427.179688,4493.974121,,,,,,,,,,,,,,,,,,,,,,,,,,,,,,,,,,,,,,,,,,,,,,,,,,,,,,,,,,,,,,,,,,,,,,
1769163216.706625,1769163216.706759,84.0,0.0,4307.05127,4279.487305,4293.077148,4281.153809,4198.205078,4270.897461,4281.410156,4311.538574,4277.563965,4277.820313,4580.897461,4555.512695,4425.641113,4494.743652,,,,,,,,,,,,,,,,,,,,,,,,,,,,,,,,,,,,,,,,,,,,,,,,,,,,,,,,,,,,,,,,,,,,,,
1769163216.714434,1769163216.714567,85.0,0.0,4306.538574,4278.589844,4288.589844,4278.333496,4195.897461,4278.846191,4292.94873,4308.205078,4273.077148,4275.256348,4584.102539,4553.589844,4424.871582,4498.717773,,,,,,,,,,,,,,,,,,,,,,,,,,,,,,,,,,,,,,,,,,,,,,,,,,,,,,,,,,,,,,,,,,,,,,
1769163216.722242,1769163216.722276,86.0,0.0,4307.563965,4278.205078,4289.358887,4276.282227,4200.256348,4280.897461,4296.410156,4310.897461,4277.436035,4279.230957,4586.538574,4554.102539,4427.436035,4498.589844,,,,,,,,,,,,,,,,,,,,,,,,,,,,,,,,,,,,,,,,,,,,,,,,,,,,,,,,,,,,,,,,,,,,,,
1769163216.730051,1769163216.730084,87.0,0.0,4310.897461,4284.102539,4293.205078,4279.743652,4198.461426,4268.974121,4288.205078,4314.358887,4283.461426,4287.179688,4587.05127,4556.153809,4428.333496,4500.0,,,,,,,,,,,,,,,,,,,,,,,,,,,,,,,,,,,,,,,,,,,,,,,,,,,,,,,,,,,,,,,,,,,,,,
1769163216.737859,1769163216.738093,88.0,0.0,4312.820313,4288.589844,4294.487305,4282.563965,4186.922852,4271.282227,4287.94873,4313.205078,4281.282227,4285.512695,4588.205078,4555.0,4425.769043,4498.717773,,,,,,,,,,,,,,,,,,,,,,,,,,,,,,,,,,,,,,,,,,,,,,,,,,,,,,,,,,,,,,,,,,,,,,
1769163216.745668,1769163216.745901,89.0,0.0,4310.641113,4286.410156,4295.128418,4282.05127,4185.128418,4279.487305,4292.05127,4310.897461,4277.307617,4279.487305,4588.846191,4557.820313,4426.153809,4498.205078,,,,,,,,,,,,,,,,,,,,,,,,,,,,,,,,,,,,,,,,,,,,,,,,,,,,,,,,,,,,,,,,,,,,,,
1769163216.753476,1769163216.75381,90.0,0.0,4313.077148,4289.102539,4297.563965,4284.743652,4193.846191,4271.410156,4284.102539,4311.153809,4280.0,4280.128418,4587.692383,4562.05127,4428.846191,4506.538574,,,,,,,,,,,,,,,,,,,,,,,,,,,,,,,,,,,,,,,,,,,,,,,,,,,,,,,,,,,,,,,,,,,,,,
1769163216.761284,1769163216.761618,91.0,0.0,4314.102539,4293.333496,4297.692383,4289.743652,4190.512695,4267.05127,4280.384766,4312.563965,4282.307617,4280.512695,4586.666504,4559.487305,4429.358887,4509.487305,,,,,,,,,,,,,,,,,,,,,,,,,,,,,,,,,,,,,,,,,,,,,,,,,,,,,,,,,,,,,,,,,,,,,,
1769163216.769093,1769163216.769626,92.0,0.0,4310.0,4291.153809,4296.410156,4289.615234,4187.05127,4272.563965,4285.897461,4312.692383,4279.615234,4279.487305,4591.282227,4560.641113,4431.666504,4505.0,,,,,,,,,,,,,,,,,,,,,,,,,,,,,,,,,,,,,,,,,,,,,,,,,,,,,,,,,,,,,,,,,,,,,,
1769163216.776901,1769163216.777435,93.0,0.0,4310.769043,4291.410156,4297.820313,4285.384766,4194.230957,4268.717773,4283.589844,4311.025879,4278.461426,4281.794922,4596.538574,4565.128418,4435.256348,4509.487305,,,,,,,,,,,,,,,,,,,,,,,,,,,,,,,,,,,,,,,,,,,,,,,,,,,,,,,,,,,,,,,,,,,,,,
1769163216.78471,1769163216.785343,94.0,0.0,4313.333496,4292.563965,4297.436035,4282.692383,4192.563965,4264.230957,4280.512695,4310.769043,4279.743652,4281.153809,4590.0,4559.615234,4431.025879,4508.589844,0.473169,0.445895,0.489619,0.427912,0.164937,0.230433,0.273646,0.36721,0.251753,0.134604,0.496425,0.231264,0.270227,0.340868,0.146076,0.274998,0.287113,0.323554,0.190762,0.139634,0.173066,0.130899,0.069055,0.093113,0.058623,0.516526,0.14962,0.240383,0.190605,0.159038,0.219627,0.092329,0.060712,0.133443,0.078274,0.294993,0.232721,0.240709,0.07598,0.066418,0.428062,0.324459,0.230666,0.170584,0.098461,0.377972,0.22515,0.120715,0.165271,0.090358,0.871129,0.269435,0.373377,0.250602,0.210892,0.971407,0.163135,0.288535,0.499764,0.247512,0.656514,0.49964,0.329899,0.455968,0.21834,0.998092,0.34918,0.588529,0.706823,0.339698
1769163216.792519,1769163216.793151,95.0,0.0,4309.871582,4288.077148,4294.358887,4281.282227,4185.384766,4267.692383,4281.410156,4311.410156,4279.743652,4276.282227,4581.666504,4551.538574,4424.358887,4502.436035,,,,,,,,,,,,,,,,,,,,,,,,,,,,,,,,,,,,,,,,,,,,,,,,,,,,,,,,,,,,,,,,,,,,,,
1769163216.800327,1769163216.80116,96.0,0.0,4308.589844,4286.794922,4293.974121,4281.282227,4186.922852,4265.384766,4280.128418,4309.102539,4278.717773,4276.922852,4586.025879,4554.230957,4427.692383,4508.077148,,,,,,,,,,,,,,,,,,,,,,,,,,,,,,,,,,,,,,,,,,,,,,,,,,,,,,,,,,,,,,,,,,,,,,
1769163216.808135,1769163216.808968,97.0,0.0,4314.102539,4289.871582,4295.641113,4281.666504,4188.717773,4262.820313,4282.820313,4304.871582,4275.128418,4279.487305,4589.487305,4554.487305,4429.102539,4511.538574,,,,,,,,,,,,,,,,,,,,,,,,,,,,,,,,,,,,,,,,,,,,,,,,,,,,,,,,,,,,,,,,,,,,,,
1769163216.815944,1769163216.816677,98.0,0.0,4311.410156,4287.436035,4294.871582,4279.487305,4185.769043,4266.025879,4288.589844,4305.641113,4273.846191,4277.307617,4583.333496,4544.230957,4418.461426,4503.205078,,,,,,,,,,,,,,,,,,,,,,,,,,,,,,,,,,,,,,,,,,,,,,,,,,,,,,,,,,,,,,,,,,,,,,
1769163216.823752,1769163216.824485,99.0,0.0,4302.05127,4284.358887,4292.179688,4280.0,4185.641113,4269.487305,4291.153809,4307.307617,4276.538574,4274.102539,4577.692383,4537.307617,4411.410156,4498.205078,,,,,,,,,,,,,,,,,,,,,,,,,,,,,,,,,,,,,,,,,,,,,,,,,,,,,,,,,,,,,,,,,,,,,,
1769163216.831561,1769163216.832094,100.0,0.0,4306.153809,4290.641113,4293.974121,4284.230957,4188.717773,4266.666504,4286.410156,4305.897461,4279.230957,4276.666504,4581.282227,4545.0,4420.512695,4505.256348,,,,,,,,,,,,,,,,,,,,,,,,,,,,,,,,,,,,,,,,,,,,,,,,,,,,,,,,,,,,,,,,,,,,,,
1769163216.839369,1769163216.839902,101.0,0.0,4310.897461,4292.05127,4295.384766,4284.871582,4187.436035,4264.871582,4284.230957,4309.230957,4281.282227,4280.256348,4586.666504,4556.538574,4428.205078,4510.128418,,,,,,,,,,,,,,,,,,,,,,,,,,,,,,,,,,,,,,,,,,,,,,,,,,,,,,,,,,,,,,,,,,,,,,
1769163216.847178,1769163216.847611,102.0,0.0,4300.128418,4282.820313,4290.769043,4278.461426,4183.974121,4273.717773,4289.358887,4307.05127,4279.487305,4277.692383,4583.974121,4551.025879,4423.717773,4505.641113,,,,,,,,,,,,,,,,,,,,,,,,,,,,,,,,,,,,,,,,,,,,,,,,,,,,,,,,,,,,,,,,,,,,,,
1769163216.854986,1769163216.855419,103.0,0.0,4298.205078,4284.487305,4290.769043,4280.384766,4193.846191,4272.94873,4287.05127,4296.282227,4273.974121,4276.410156,4582.563965,4544.743652,4429.743652,4505.256348,,,,,,,,,,,,,,,,,,,,,,,,,,,,,,,,,,,,,,,,,,,,,,,,,,,,,,,,,,,,,,,,,,,,,,
1769163216.862795,1769163216.863427,104.0,0.0,4313.077148,4299.871582,4297.563965,4293.717773,4203.974121,4263.589844,4277.436035,4297.563965,4276.666504,4281.410156,4587.179688,4552.179688,4442.05127,4509.102539,,,,,,,,,,,,,,,,,,,,,,,,,,,,,,,,,,,,,,,,,,,,,,,,,,,,,,,,,,,,,,,,,,,,,,
1769163216.870603,1769163216.871236,105.0,0.0,4315.897461,4297.94873,4298.077148,4295.0,4192.307617,4264.102539,4277.692383,4303.077148,4282.436035,4282.179688,4590.0,4558.077148,4443.717773,4510.0,,,,,,,,,,,,,,,,,,,,,,,,,,,,,,,,,,,,,,,,,,,,,,,,,,,,,,,,,,,,,,,,,,,,,,
1769163216.878411,1769163216.879144,106.0,0.0,4307.820313,4284.871582,4295.0,4285.256348,4181.153809,4268.717773,4285.641113,4299.871582,4280.384766,4279.487305,4590.128418,4556.538574,4443.205078,4510.384766,,,,,,,,,,,,,,,,,,,,,,,,,,,,,,,,,,,,,,,,,,,,,,,,,,,,,,,,,,,,,,,,,,,,,,
1769163216.88622,1769163216.886953,107.0,0.0,4308.205078,4286.410156,4296.666504,4284.615234,4186.922852,4272.820313,4293.589844,4303.846191,4277.94873,4280.256348,4590.0,4555.256348,4438.333496,4509.743652,,,,,,,,,,,,,,,,,,,,,,,,,,,,,,,,,,,,,,,,,,,,,,,,,,,,,,,,,,,,,,,,,,,,,,
1769163216.894028,1769163216.894961,108.0,0.0,4310.897461,4291.794922,4296.922852,4293.205078,4190.384766,4276.666504,4296.282227,4310.769043,4280.0,4280.897461,4590.256348,4553.846191,4431.922852,4507.179688,,,,,,,,,,,,,,,,,,,,,,,,,,,,,,,,,,,,,,,,,,,,,,,,,,,,,,,,,,,,,,,,,,,,,,
1769163216.901837,1769163216.902769,109.0,0.0,4310.256348,4288.461426,4295.128418,4291.666504,4190.512695,4273.461426,4285.897461,4306.922852,4285.128418,4283.717773,4593.974121,4552.563965,4440.256348,4508.333496,,,,,,,,,,,,,,,,,,,,,,,,,,,,,,,,,,,,,,,,,,,,,,,,,,,,,,,,,,,,,,,,,,,,,,
1769163216.909645,1769163216.910478,110.0,0.0,4309.743652,4285.512695,4296.666504,4282.820313,4198.461426,4271.282227,4281.794922,4307.179688,4289.358887,4287.307617,4595.0,4555.0,4443.846191,4510.641113,0.528303,0.425262,0.487582,0.423378,0.1512,0.252372,0.315246,0.357389,0.229968,0.142898,0.526453,0.230968,0.26049,0.327167,0.152597,0.33447,0.262283,0.320978,0.184231,0.142546,0.202812,0.146943,0.064821,0.092071,0.058282,0.495142,0.148854,0.253317,0.196274,0.190612,0.159297,0.122996,0.083127,0.120588,0.075928,0.214419,0.233368,0.26351,0.072851,0.071682,0.389737,0.278711,0.269206,0.179591,0.095758,0.297028,0.20166,0.121572,0.149441,0.086362,0.736213,0.223316,0.378952,0.250067,0.198597,0.726963,0.161834,0.316812,0.467265,0.227641,0.632147,0.428561,0.319046,0.430926,0.203408,0.938079,0.317716,0.531384,0.635975,0.317966
1769163216.917454,1769163216.918286,111.0,0.0,4309.102539,4289.230957,4297.820313,4284.743652,4201.282227,4282.307617,4295.512695,4312.436035,4288.461426,4284.102539,4587.563965,4554.615234,4428.717773,4508.461426,,,,,,,,,,,,,,,,,,,,,,,,,,,,,,,,,,,,,,,,,,,,,,,,,,,,,,,,,,,,,,,,,,,,,,
1769163216.925262,1769163216.925895,112.0,0.0,4312.179688,4292.692383,4296.794922,4290.384766,4198.077148,4280.897461,4296.666504,4310.128418,4288.974121,4279.871582,4585.897461,4552.307617,4426.025879,4511.153809,,,,,,,,,,,,,,,,,,,,,,,,,,,,,,,,,,,,,,,,,,,,,,,,,,,,,,,,,,,,,,,,,,,,,,
1769163216.933071,1769163216.933703,113.0,0.0,4311.666504,4290.384766,4295.384766,4288.205078,4199.358887,4266.282227,4285.769043,4307.307617,4290.128418,4282.179688,4590.0,4551.922852,4435.641113,4515.769043,,,,,,,,,,,,,,,,,,,,,,,,,,,,,,,,,,,,,,,,,,,,,,,,,,,,,,,,,,,,,,,,,,,,,,
1769163216.940879,1769163216.941612,114.0,0.0,4306.153809,4289.102539,4295.128418,4285.897461,4200.128418,4266.922852,4287.820313,4306.794922,4287.05127,4283.077148,4588.461426,4551.410156,4427.94873,4511.025879,,,,,,,,,,,,,,,,,,,,,,,,,,,,,,,,,,,,,,,,,,,,,,,,,,,,,,,,,,,,,,,,,,,,,,
1769163216.948687,1769163216.94942,115.0,0.0,4312.563965,4292.179688,4298.846191,4290.0,4198.846191,4274.615234,4288.461426,4306.666504,4291.025879,4280.384766,4591.410156,4555.0,4425.897461,4512.179688,,,,,,,,,,,,,,,,,,,,,,,,,,,,,,,,,,,,,,,,,,,,,,,,,,,,,,,,,,,,,,,,,,,,,,
1769163216.956496,1769163216.957429,116.0,0.0,4327.692383,4298.461426,4302.436035,4297.563965,4201.282227,4273.077148,4281.282227,4305.897461,4295.0,4283.205078,4601.922852,4562.307617,4441.025879,4528.333496,,,,,,,,,,,,,,,,,,,,,,,,,,,,,,,,,,,,,,,,,,,,,,,,,,,,,,,,,,,,,,,,,,,,,,
1769163216.964304,1769163216.965237,117.0,0.0,4321.922852,4294.743652,4299.487305,4296.538574,4199.487305,4271.025879,4285.897461,4299.743652,4282.436035,4282.436035,4593.589844,4559.102539,4435.897461,4528.205078,,,,,,,,,,,,,,,,,,,,,,,,,,,,,,,,,,,,,,,,,,,,,,,,,,,,,,,,,,,,,,,,,,,,,,
1769163216.972113,1769163216.973145,118.0,0.0,4301.666504,4283.461426,4293.717773,4284.358887,4190.641113,4274.487305,4294.871582,4293.974121,4273.461426,4272.436035,4574.487305,4549.102539,4418.717773,4509.743652,,,,,,,,,,,,,,,,,,,,,,,,,,,,,,,,,,,,,,,,,,,,,,,,,,,,,,,,,,,,,,,,,,,,,,
1769163216.979921,1769163216.980954,119.0,0.0,4302.179688,4282.692383,4292.436035,4279.615234,4185.128418,4272.563965,4295.256348,4295.256348,4278.333496,4268.205078,4574.230957,4547.563965,4418.333496,4504.615234,,,,,,,,,,,,,,,,,,,,,,,,,,,,,,,,,,,,,,,,,,,,,,,,,,,,,,,,,,,,,,,,,,,,,,
1769163216.98773,1769163216.988562,120.0,0.0,4321.025879,4295.256348,4294.615234,4290.128418,4189.615234,4265.769043,4293.461426,4295.512695,4279.871582,4273.846191,4582.05127,4547.307617,4422.94873,4511.410156,,,,,,,,,,,,,,,,,,,,,,,,,,,,,,,,,,,,,,,,,,,,,,,,,,,,,,,,,,,,,,,,,,,,,,
1769163216.995538,1769163216.996371,121.0,0.0,4325.641113,4296.538574,4296.282227,4291.282227,4193.077148,4266.794922,4293.461426,4293.846191,4283.205078,4278.333496,4582.94873,4546.538574,4422.179688,4510.897461,,,,,,,,,,,,,,,,,,,,,,,,,,,,,,,,,,,,,,,,,,,,,,,,,,,,,,,,,,,,,,,,,,,,,,
1769163217.003347,1769163217.004079,122.0,0.0,4313.205078,4286.922852,4296.794922,4279.743652,4191.666504,4270.769043,4292.820313,4294.871582,4290.769043,4278.461426,4581.794922,4551.282227,4422.307617,4505.384766,,,,,,,,,,,,,,,,,,,,,,,,,,,,,,,,,,,,,,,,,,,,,,,,,,,,,,,,,,,,,,,,,,,,,,
1769163217.011155,1769163217.011888,123.0,0.0,4308.205078,4288.846191,4295.0,4277.307617,4193.974121,4269.102539,4291.153809,4296.282227,4290.769043,4279.230957,4579.487305,4553.717773,4423.974121,4503.974121,,,,,,,,,,,,,,,,,,,,,,,,,,,,,,,,,,,,,,,,,,,,,,,,,,,,,,,,,,,,,,,,,,,,,,
1769163217.018963,1769163217.019496,124.0,0.0,4314.102539,4296.282227,4294.743652,4280.384766,4199.743652,4263.077148,4287.307617,4298.589844,4290.641113,4282.179688,4580.897461,4554.102539,4426.410156,4507.307617,,,,,,,,,,,,,,,,,,,,,,,,,,,,,,,,,,,,,,,,,,,,,,,,,,,,,,,,,,,,,,,,,,,,,,
1769163217.026772,1769163217.027305,125.0,0.0,4314.615234,4295.897461,4295.384766,4279.487305,4199.615234,4268.461426,4288.974121,4304.487305,4292.820313,4281.025879,4584.358887,4553.846191,4427.05127,4507.179688,,,,,,,,,,,,,,,,,,,,,,,,,,,,,,,,,,,,,,,,,,,,,,,,,,,,,,,,,,,,,,,,,,,,,,
1769163217.03458,1769163217.035013,126.0,0.0,4314.871582,4295.0,4296.538574,4278.461426,4197.179688,4278.333496,4294.230957,4304.743652,4290.384766,4277.307617,4583.461426,4552.436035,4422.179688,4506.282227,0.610216,0.379758,0.451673,0.409153,0.135486,0.273198,0.345563,0.3205,0.200913,0.146977,0.541016,0.23106,0.240286,0.297611,0.150196,0.414556,0.255115,0.29216,0.16798,0.135306,0.235028,0.15156,0.063047,0.089401,0.055917,0.441791,0.164427,0.258825,0.193744,0.229089,0.106372,0.180272,0.122386,0.11234,0.082206,0.169598,0.223505,0.267739,0.067204,0.075215,0.35307,0.22763,0.286256,0.178773,0.092325,0.249213,0.18134,0.118979,0.150462,0.087558,0.604711,0.173061,0.362226,0.246154,0.179832,0.511709,0.150418,0.332327,0.40695,0.201759,0.600606,0.347275,0.305716,0.389445,0.190435,0.85851,0.277313,0.460543,0.544505,0.293854
1769163217.042389,1769163217.042822,127.0,0.0,4317.692383,4295.0,4300.897461,4280.512695,4200.0,4272.94873,4289.871582,4302.05127,4291.153809,4283.077148,4587.179688,4560.128418,4426.922852,4517.307617,,,,,,,,,,,,,,,,,,,,,,,,,,,,,,,,,,,,,,,,,,,,,,,,,,,,,,,,,,,,,,,,,,,,,,
1769163217.050197,1769163217.05083,0.0,0.0,4315.512695,4291.153809,4303.974121,4280.641113,4201.025879,4266.794922,4288.717773,4304.102539,4296.153809,4294.487305,4596.410156,4571.666504,4436.794922,4526.538574,,,,,,,,,,,,,,,,,,,,,,,,,,,,,,,,,,,,,,,,,,,,,,,,,,,,,,,,,,,,,,,,,,,,,,
1769163217.058006,1769163217.058639,1.0,0.0,4308.846191,4286.410156,4298.846191,4273.205078,4197.94873,4276.025879,4295.384766,4301.922852,4294.102539,4291.538574,4592.94873,4562.563965,4432.563965,4516.025879,,,,,,,,,,,,,,,,,,,,,,,,,,,,,,,,,,,,,,,,,,,,,,,,,,,,,,,,,,,,,,,,,,,,,,
1769163217.065814,1769163217.066547,2.0,0.0,4302.94873,4283.077148,4287.820313,4264.230957,4198.205078,4281.666504,4297.05127,4295.897461,4290.512695,4279.487305,4578.589844,4541.922852,4419.358887,4498.974121,,,,,,,,,,,,,,,,,,,,,,,,,,,,,,,,,,,,,,,,,,,,,,,,,,,,,,,,,,,,,,,,,,,,,,
1769163217.073623,1769163217.074355,3.0,0.0,4294.102539,4276.666504,4280.641113,4258.974121,4196.410156,4278.461426,4301.666504,4302.820313,4294.487305,4278.333496,4569.615234,4536.025879,4408.974121,4488.077148,,,,,,,,,,,,,,,,,,,,,,,,,,,,,,,,,,,,,,,,,,,,,,,,,,,,,,,,,,,,,,,,,,,,,,
1769163217.081431,1769163217.082364,4.0,0.0,4291.025879,4274.743652,4282.692383,4259.743652,4189.102539,4278.589844,4307.436035,4313.589844,4297.179688,4286.666504,4578.333496,4545.641113,4415.897461,4494.358887,,,,,,,,,,,,,,,,,,,,,,,,,,,,,,,,,,,,,,,,,,,,,,,,,,,,,,,,,,,,,,,,,,,,,,
1769163217.08924,1769163217.090172,5.0,0.0,4301.153809,4279.615234,4290.384766,4262.692383,4183.846191,4276.025879,4300.897461,4310.384766,4295.769043,4291.153809,4596.153809,4560.384766,4432.179688,4516.025879,,,,,,,,,,,,,,,,,,,,,,,,,,,,,,,,,,,,,,,,,,,,,,,,,,,,,,,,,,,,,,,,,,,,,,
1769163217.097048,1769163217.09808,6.0,0.0,4303.974121,4281.666504,4296.282227,4265.256348,4186.922852,4263.974121,4295.128418,4304.871582,4294.871582,4289.102539,4601.666504,4566.794922,4433.461426,4523.333496,,,,,,,,,,,,,,,,,,,,,,,,,,,,,,,,,,,,,,,,,,,,,,,,,,,,,,,,,,,,,,,,,,,,,,
1769163217.104857,1769163217.105889,7.0,0.0,4297.05127,4278.589844,4296.025879,4269.615234,4195.128418,4262.692383,4298.461426,4306.794922,4294.358887,4287.563965,4596.794922,4559.743652,4426.794922,4510.897461,,,,,,,,,,,,,,,,,,,,,,,,,,,,,,,,,,,,,,,,,,,,,,,,,,,,,,,,,,,,,,,,,,,,,,
1769163217.112665,1769163217.113498,8.0,0.0,4299.871582,4282.692383,4294.743652,4272.820313,4200.256348,4271.153809,4296.153809,4302.94873,4295.0,4287.05127,4593.717773,4553.846191,4429.102539,4506.153809,,,,,,,,,,,,,,,,,,,,,,,,,,,,,,,,,,,,,,,,,,,,,,,,,,,,,,,,,,,,,,,,,,,,,,
1769163217.120474,1769163217.121306,9.0,0.0,4311.153809,4291.025879,4294.102539,4277.563965,4200.128418,4269.487305,4291.410156,4295.769043,4293.333496,4283.589844,4588.077148,4557.692383,4431.538574,4509.871582,,,,,,,,,,,,,,,,,,,,,,,,,,,,,,,,,,,,,,,,,,,,,,,,,,,,,,,,,,,,,,,,,,,,,,
1769163217.128282,1769163217.129015,10.0,0.0,4312.692383,4287.692383,4294.358887,4278.333496,4198.333496,4263.077148,4293.333496,4294.871582,4284.615234,4278.717773,4584.230957,4555.769043,4425.256348,4508.205078,,,,,,,,,,,,,,,,,,,,,,,,,,,,,,,,,,,,,,,,,,,,,,,,,,,,,,,,,,,,,,,,,,,,,,
1769163217.13609,1769163217.136823,11.0,0.0,4301.666504,4279.230957,4290.897461,4270.256348,4196.794922,4264.615234,4293.589844,4295.897461,4279.358887,4276.153809,4584.487305,4542.820313,4421.794922,4503.589844,,,,,,,,,,,,,,,,,,,,,,,,,,,,,,,,,,,,,,,,,,,,,,,,,,,,,,,,,,,,,,,,,,,,,,
1769163217.143899,1769163217.144831,12.0,0.0,4293.077148,4279.102539,4282.692383,4265.897461,4196.794922,4266.538574,4292.05127,4295.512695,4284.743652,4276.410156,4583.846191,4540.512695,4426.153809,4503.717773,,,,,,,,,,,,,,,,,,,,,,,,,,,,,,,,,,,,,,,,,,,,,,,,,,,,,,,,,,,,,,,,,,,,,,
1769163217.151707,1769163217.15264,13.0,0.0,4293.205078,4282.692383,4281.794922,4272.436035,4198.461426,4264.358887,4294.871582,4294.615234,4290.384766,4280.384766,4587.563965,4552.436035,4428.717773,4505.384766,,,,,,,,,,,,,,,,,,,,,,,,,,,,,,,,,,,,,,,,,,,,,,,,,,,,,,,,,,,,,,,,,,,,,,
1769163217.159516,1769163217.160548,14.0,0.0,4296.025879,4279.615234,4289.743652,4276.282227,4198.974121,4266.794922,4296.666504,4296.538574,4291.794922,4286.666504,4595.769043,4557.94873,4428.333496,4508.974121,0.699218,0.321914,0.38988,0.381865,0.122718,0.298481,0.361602,0.265037,0.171776,0.147386,0.518564,0.231292,0.219034,0.258072,0.13846,0.476615,0.265647,0.241466,0.145725,0.119551,0.264376,0.14139,0.06849,0.087524,0.054087,0.368265,0.202956,0.263331,0.183658,0.266256,0.069574,0.26453,0.178981,0.110574,0.096934,0.147219,0.20662,0.251389,0.059069,0.07623,0.311311,0.189288,0.27495,0.165697,0.087711,0.228493,0.164189,0.110152,0.157888,0.090967,0.493049,0.132383,0.327499,0.235895,0.157717,0.379961,0.141988,0.327819,0.334456,0.17471,0.56533,0.288851,0.293293,0.338482,0.182289,0.774525,0.244218,0.388532,0.448494,0.270223
1769163217.167324,1769163217.168356,15.0,0.0,4297.179688,4276.282227,4296.282227,4275.512695,4197.692383,4273.717773,4297.05127,4303.717773,4294.102539,4289.230957,4599.230957,4554.871582,4431.666504,4516.666504,,,,,,,,,,,,,,,,,,,,,,,,,,,,,,,,,,,,,,,,,,,,,,,,,,,,,,,,,,,,,,,,,,,,,,
1769163217.175133,1769163217.176365,16.0,0.0,4297.05127,4281.025879,4297.436035,4279.615234,4198.717773,4279.615234,4302.820313,4310.641113,4295.769043,4285.769043,4598.077148,4555.384766,4431.282227,4518.205078,,,,,,,,,,,,,,,,,,,,,,,,,,,,,,,,,,,,,,,,,,,,,,,,,,,,,,,,,,,,,,,,,,,,,,
1769163217.182941,1769163217.184173,17.0,0.0,4296.794922,4288.461426,4292.563965,4280.256348,4199.615234,4278.333496,4304.487305,4307.179688,4292.436035,4282.179688,4595.641113,4557.820313,4427.05127,4511.282227,,,,,,,,,,,,,,,,,,,,,,,,,,,,,,,,,,,,,,,,,,,,,,,,,,,,,,,,,,,,,,,,,,,,,,
1769163217.19075,1769163217.191882,18.0,0.0,4298.461426,4290.256348,4283.717773,4279.102539,4199.230957,4269.487305,4298.077148,4298.717773,4289.230957,4282.05127,4591.410156,4553.333496,4428.333496,4507.436035,,,,,,,,,,,,,,,,,,,,,,,,,,,,,,,,,,,,,,,,,,,,,,,,,,,,,,,,,,,,,,,,,,,,,,
1769163217.198558,1769163217.19969,19.0,0.0,4292.307617,4283.077148,4279.102539,4280.641113,4199.487305,4268.974121,4300.128418,4297.436035,4289.743652,4281.538574,4587.05127,4547.692383,4426.282227,4506.153809,,,,,,,,,,,,,,,,,,,,,,,,,,,,,,,,,,,,,,,,,,,,,,,,,,,,,,,,,,,,,,,,,,,,,,
1769163217.206366,1769163217.207299,20.0,0.0,4278.974121,4276.922852,4280.256348,4278.205078,4199.102539,4273.974121,4306.922852,4297.94873,4286.794922,4278.589844,4584.487305,4546.922852,4420.769043,4503.333496,,,,,,,,,,,,,,,,,,,,,,,,,,,,,,,,,,,,,,,,,,,,,,,,,,,,,,,,,,,,,,,,,,,,,,
1769163217.214175,1769163217.215107,21.0,0.0,4283.974121,4284.102539,4281.153809,4281.538574,4199.615234,4269.358887,4301.410156,4295.641113,4280.769043,4276.922852,4583.589844,4547.692383,4419.871582,4504.487305,,,,,,,,,,,,,,,,,,,,,,,,,,,,,,,,,,,,,,,,,,,,,,,,,,,,,,,,,,,,,,,,,,,,,,
1769163217.221983,1769163217.222816,22.0,0.0,4298.461426,4290.897461,4281.922852,4290.0,4200.897461,4260.897461,4293.077148,4294.743652,4279.487305,4278.461426,4583.717773,4545.0,4417.307617,4504.743652,,,,,,,,,,,,,,,,,,,,,,,,,,,,,,,,,,,,,,,,,,,,,,,,,,,,,,,,,,,,,,,,,,,,,,
1769163217.229792,1769163217.230624,23.0,0.0,4295.256348,4283.846191,4282.179688,4290.256348,4200.512695,4262.563965,4292.692383,4296.025879,4280.128418,4279.871582,4580.0,4540.769043,4415.384766,4501.538574,,,,,,,,,,,,,,,,,,,,,,,,,,,,,,,,,,,,,,,,,,,,,,,,,,,,,,,,,,,,,,,,,,,,,,
1769163217.2376,1769163217.238233,24.0,0.0,4288.717773,4277.692383,4281.538574,4288.846191,4199.358887,4267.05127,4296.666504,4295.256348,4278.205078,4277.563965,4573.077148,4539.487305,4416.922852,4503.717773,,,,,,,,,,,,,,,,,,,,,,,,,,,,,,,,,,,,,,,,,,,,,,,,,,,,,,,,,,,,,,,,,,,,,,
1769163217.245409,1769163217.246041,25.0,0.0,4295.769043,4282.563965,4281.794922,4294.358887,4200.641113,4266.922852,4302.436035,4294.358887,4277.179688,4275.769043,4571.538574,4541.410156,4416.922852,4505.769043,,,,,,,,,,,,,,,,,,,,,,,,,,,,,,,,,,,,,,,,,,,,,,,,,,,,,,,,,,,,,,,,,,,,,,
1769163217.253217,1769163217.25375,26.0,0.0,4297.307617,4283.461426,4280.897461,4296.922852,4203.077148,4269.358887,4302.563965,4295.512695,4278.717773,4277.94873,4573.461426,4542.05127,4415.384766,4497.94873,,,,,,,,,,,,,,,,,,,,,,,,,,,,,,,,,,,,,,,,,,,,,,,,,,,,,,,,,,,,,,,,,,,,,,
1769163217.261026,1769163217.261558,27.0,0.0,4285.256348,4277.94873,4277.820313,4292.179688,4204.102539,4272.307617,4297.307617,4296.410156,4279.487305,4278.205078,4572.436035,4536.794922,4412.179688,4486.922852,,,,,,,,,,,,,,,,,,,,,,,,,,,,,,,,,,,,,,,,,,,,,,,,,,,,,,,,,,,,,,,,,,,,,,
1769163217.268834,1769163217.269567,28.0,0.0,4280.128418,4278.974121,4278.205078,4292.563965,4204.102539,4269.487305,4296.025879,4296.666504,4281.025879,4278.205078,4576.282227,4535.769043,4416.666504,4495.256348,,,,,,,,,,,,,,,,,,,,,,,,,,,,,,,,,,,,,,,,,,,,,,,,,,,,,,,,,,,,,,,,,,,,,,
1769163217.276642,1769163217.277375,29.0,0.0,4288.077148,4283.077148,4278.589844,4297.307617,4202.820313,4265.512695,4297.307617,4295.256348,4279.871582,4278.205078,4581.025879,4542.436035,4425.641113,4507.94873,,,,,,,,,,,,,,,,,,,,,,,,,,,,,,,,,,,,,,,,,,,,,,,,,,,,,,,,,,,,,,,,,,,,,,
1769163217.284451,1769163217.285283,30.0,0.0,4295.897461,4282.307617,4275.0,4296.025879,4200.769043,4265.256348,4295.384766,4294.230957,4277.820313,4269.871582,4574.230957,4537.05127,4419.615234,4498.205078,0.746946,0.267293,0.31971,0.345686,0.119583,0.327659,0.366409,0.202888,0.148449,0.14683,0.452639,0.231631,0.205779,0.217111,0.119378,0.520075,0.291113,0.18193,0.123427,0.101425,0.275992,0.127389,0.085076,0.089266,0.055714,0.302917,0.25847,0.270383,0.167669,0.29255,0.051832,0.369563,0.244108,0.114396,0.117622,0.153409,0.191805,0.220484,0.050705,0.074724,0.27148,0.176393,0.240372,0.144364,0.082197,0.226579,0.146885,0.094629,0.161723,0.093019,0.409952,0.11125,0.287431,0.222864,0.137056,0.337416,0.152006,0.308458,0.268835,0.151821,0.530534,0.27681,0.287318,0.286717,0.17993,0.68563,0.234348,0.329177,0.365545,0.249506
1769163217.292259,1769163217.293092,31.0,0.0,4289.358887,4278.205078,4274.230957,4293.333496,4201.025879,4264.230957,4294.358887,4292.820313,4276.410156,4261.282227,4566.025879,4524.102539,4407.05127,4484.358887,,,,,,,,,,,,,,,,,,,,,,,,,,,,,,,,,,,,,,,,,,,,,,,,,,,,,,,,,,,,,,,,,,,,,,
1769163217.300068,1769163217.3011,32.0,0.0,4278.846191,4273.974121,4276.410156,4294.102539,4202.05127,4263.589844,4295.769043,4287.05127,4271.666504,4261.794922,4567.563965,4520.512695,4408.333496,4487.692383,,,,,,,,,,,,,,,,,,,,,,,,,,,,,,,,,,,,,,,,,,,,,,,,,,,,,,,,,,,,,,,,,,,,,,
1769163217.307876,1769163217.308909,33.0,0.0,4283.205078,4274.615234,4275.256348,4293.589844,4200.384766,4265.897461,4294.615234,4280.0,4264.230957,4262.692383,4569.358887,4526.282227,4412.820313,4492.179688,,,,,,,,,,,,,,,,,,,,,,,,,,,,,,,,,,,,,,,,,,,,,,,,,,,,,,,,,,,,,,,,,,,,,,
1769163217.315685,1769163217.316617,34.0,0.0,4291.794922,4277.820313,4270.384766,4295.641113,4199.230957,4265.128418,4293.717773,4279.615234,4264.102539,4261.922852,4568.846191,4532.307617,4410.641113,4492.94873,,,,,,,,,,,,,,,,,,,,,,,,,,,,,,,,,,,,,,,,,,,,,,,,,,,,,,,,,,,,,,,,,,,,,,
1769163217.323493,1769163217.324426,35.0,0.0,4288.974121,4279.615234,4266.538574,4304.615234,4200.641113,4261.666504,4293.974121,4286.922852,4273.205078,4264.230957,4572.436035,4536.025879,4412.307617,4497.820313,,,,,,,,,,,,,,,,,,,,,,,,,,,,,,,,,,,,,,,,,,,,,,,,,,,,,,,,,,,,,,,,,,,,,,
1769163217.331302,1769163217.332434,36.0,0.0,4287.94873,4279.743652,4271.410156,4309.487305,4201.410156,4260.384766,4293.589844,4288.333496,4273.461426,4265.512695,4572.692383,4537.05127,4415.256348,4496.922852,,,,,,,,,,,,,,,,,,,,,,,,,,,,,,,,,,,,,,,,,,,,,,,,,,,,,,,,,,,,,,,,,,,,,,
1769163217.33911,1769163217.340242,37.0,0.0,4293.974121,4279.615234,4275.897461,4309.230957,4201.922852,4262.94873,4294.871582,4284.487305,4265.512695,4265.128418,4568.461426,4533.974121,4409.102539,4491.922852,,,,,,,,,,,,,,,,,,,,,,,,,,,,,,,,,,,,,,,,,,,,,,,,,,,,,,,,,,,,,,,,,,,,,,
1769163217.346918,1769163217.347951,38.0,0.0,4288.205078,4278.974121,4269.615234,4310.769043,4202.179688,4264.487305,4296.794922,4286.666504,4268.461426,4263.205078,4567.307617,4532.692383,4400.897461,4491.153809,,,,,,,,,,,,,,,,,,,,,,,,,,,,,,,,,,,,,,,,,,,,,,,,,,,,,,,,,,,,,,,,,,,,,,
1769163217.354727,1769163217.355759,39.0,0.0,4277.307617,4278.077148,4265.641113,4313.077148,4201.410156,4262.563965,4296.153809,4295.128418,4276.666504,4263.846191,4569.230957,4535.512695,4404.615234,4495.0,,,,,,,,,,,,,,,,,,,,,,,,,,,,,,,,,,,,,,,,,,,,,,,,,,,,,,,,,,,,,,,,,,,,,,
1769163217.362535,1769163217.363767,40.0,0.0,4279.871582,4279.615234,4269.743652,4316.666504,4202.436035,4261.922852,4294.615234,4296.153809,4276.794922,4270.769043,4573.333496,4538.333496,4415.256348,4497.820313,,,,,,,,,,,,,,,,,,,,,,,,,,,,,,,,,,,,,,,,,,,,,,,,,,,,,,,,,,,,,,,,,,,,,,
1769163217.370344,1769163217.371576,41.0,0.0,4280.384766,4280.0,4267.820313,4319.743652,4203.205078,4263.974121,4296.410156,4287.179688,4273.205078,4270.0,4573.333496,4537.05127,4413.974121,4492.692383,,,,,,,,,,,,,,,,,,,,,,,,,,,,,,,,,,,,,,,,,,,,,,,,,,,,,,,,,,,,,,,,,,,,,,
1769163217.378152,1769163217.379284,42.0,0.0,4277.307617,4279.102539,4266.666504,4319.743652,4202.05127,4262.307617,4293.589844,4284.230957,4273.974121,4265.0,4571.282227,4534.871582,4410.128418,4493.205078,,,,,,,,,,,,,,,,,,,,,,,,,,,,,,,,,,,,,,,,,,,,,,,,,,,,,,,,,,,,,,,,,,,,,,
1769163217.385961,1769163217.387093,43.0,0.0,4286.282227,4282.179688,4275.769043,4323.205078,4202.179688,4258.077148,4288.846191,4285.641113,4275.512695,4272.820313,4577.820313,4538.974121,4418.205078,4505.512695,,,,,,,,,,,,,,,,,,,,,,,,,,,,,,,,,,,,,,,,,,,,,,,,,,,,,,,,,,,,,,,,,,,,,,
1769163217.393769,1769163217.395101,44.0,0.0,4296.153809,4287.436035,4279.102539,4327.307617,4203.846191,4258.461426,4291.538574,4285.512695,4275.384766,4280.128418,4585.641113,4546.922852,4426.922852,4512.05127,,,,,,,,,,,,,,,,,,,,,,,,,,,,,,,,,,,,,,,,,,,,,,,,,,,,,,,,,,,,,,,,,,,,,,
1769163217.401578,1769163217.40291,45.0,0.0,4295.512695,4290.0,4279.487305,4326.025879,4203.461426,4262.307617,4295.641113,4287.692383,4275.128418,4275.897461,4583.333496,4549.615234,4426.410156,4507.820313,,,,,,,,,,,,,,,,,,,,,,,,,,,,,,,,,,,,,,,,,,,,,,,,,,,,,,,,,,,,,,,,,,,,,,
1769163217.409386,1769163217.410618,46.0,0.0,4295.128418,4286.538574,4280.128418,4326.538574,4203.461426,4264.230957,4296.282227,4290.769043,4276.025879,4270.384766,4581.922852,4543.077148,4426.282227,4507.820313,0.763046,0.234147,0.262796,0.311419,0.131907,0.363462,0.368223,0.150449,0.132998,0.148638,0.362008,0.23177,0.2099,0.185079,0.096994,0.528572,0.326815,0.133928,0.106985,0.088461,0.269699,0.13077,0.113044,0.096744,0.062139,0.266271,0.316098,0.274534,0.148861,0.300893,0.047493,0.481922,0.300702,0.121497,0.139831,0.190143,0.189605,0.186912,0.044697,0.071609,0.251465,0.191113,0.196336,0.122634,0.076792,0.244694,0.126509,0.076442,0.160156,0.092006,0.371185,0.109674,0.262228,0.218149,0.122497,0.35607,0.187008,0.29701,0.228658,0.138271,0.524927,0.309991,0.29468,0.244197,0.182513,0.601246,0.24979,0.300471,0.313186,0.234157
1769163217.417195,1769163217.418427,47.0,0.0,4290.641113,4280.256348,4270.256348,4327.179688,4202.820313,4264.615234,4296.794922,4288.077148,4274.615234,4269.102539,4586.282227,4537.563965,4426.794922,4507.94873,,,,,,,,,,,,,,,,,,,,,,,,,,,,,,,,,,,,,,,,,,,,,,,,,,,,,,,,,,,,,,,,,,,,,,
1769163217.425003,1769163217.426035,48.0,0.0,4281.153809,4277.820313,4265.256348,4324.743652,4203.205078,4264.102539,4296.410156,4285.0,4274.358887,4265.897461,4584.102539,4539.230957,4422.563965,4505.769043,,,,,,,,,,,,,,,,,,,,,,,,,,,,,,,,,,,,,,,,,,,,,,,,,,,,,,,,,,,,,,,,,,,,,,
1769163217.432812,1769163217.433844,49.0,0.0,4284.615234,4278.461426,4275.769043,4327.563965,4207.563965,4265.0,4297.05127,4290.0,4278.461426,4265.384766,4580.897461,4541.666504,4422.94873,4506.410156,,,,,,,,,,,,,,,,,,,,,,,,,,,,,,,,,,,,,,,,,,,,,,,,,,,,,,,,,,,,,,,,,,,,,,
1769163217.44062,1769163217.441552,50.0,0.0,4295.384766,4281.282227,4281.794922,4335.256348,4212.307617,4267.179688,4298.461426,4293.717773,4278.461426,4271.153809,4581.794922,4543.589844,4425.384766,4506.922852,,,,,,,,,,,,,,,,,,,,,,,,,,,,,,,,,,,,,,,,,,,,,,,,,,,,,,,,,,,,,,,,,,,,,,
1769163217.448429,1769163217.449361,51.0,0.0,4298.846191,4288.589844,4280.256348,4341.666504,4214.743652,4261.410156,4293.846191,4293.333496,4276.153809,4278.205078,4585.897461,4548.589844,4426.538574,4514.358887,,,,,,,,,,,,,,,,,,,,,,,,,,,,,,,,,,,,,,,,,,,,,,,,,,,,,,,,,,,,,,,,,,,,,,
1769163217.456237,1769163217.457369,52.0,0.0,4298.205078,4295.0,4282.692383,4344.615234,4216.153809,4255.769043,4291.025879,4293.589844,4280.897461,4281.538574,4593.717773,4553.846191,4437.563965,4526.153809,,,,,,,,,,,,,,,,,,,,,,,,,,,,,,,,,,,,,,,,,,,,,,,,,,,,,,,,,,,,,,,,,,,,,,
1769163217.464045,1769163217.465177,53.0,0.0,4295.512695,4293.846191,4280.0,4343.077148,4216.922852,4260.256348,4295.0,4295.641113,4283.205078,4281.153809,4593.589844,4554.358887,4445.128418,4522.179688,,,,,,,,,,,,,,,,,,,,,,,,,,,,,,,,,,,,,,,,,,,,,,,,,,,,,,,,,,,,,,,,,,,,,,
1769163217.471854,1769163217.473086,54.0,0.0,4293.461426,4293.461426,4273.333496,4342.179688,4216.666504,4261.282227,4294.230957,4291.025879,4278.461426,4282.94873,4586.410156,4550.128418,4435.897461,4514.487305,,,,,,,,,,,,,,,,,,,,,,,,,,,,,,,,,,,,,,,,,,,,,,,,,,,,,,,,,,,,,,,,,,,,,,
1769163217.479662,1769163217.480894,55.0,0.0,4296.666504,4297.436035,4275.769043,4348.205078,4216.538574,4259.102539,4292.692383,4283.333496,4277.563965,4283.846191,4586.666504,4545.128418,4427.820313,4516.922852,,,,,,,,,,,,,,,,,,,,,,,,,,,,,,,,,,,,,,,,,,,,,,,,,,,,,,,,,,,,,,,,,,,,,,
1769163217.487471,1769163217.488902,56.0,0.0,4295.128418,4296.538574,4280.897461,4351.538574,4217.436035,4262.179688,4294.615234,4286.794922,4278.589844,4280.769043,4587.563965,4541.922852,4432.563965,4515.0,,,,,,,,,,,,,,,,,,,,,,,,,,,,,,,,,,,,,,,,,,,,,,,,,,,,,,,,,,,,,,,,,,,,,,
1769163217.495279,1769163217.496711,57.0,0.0,4284.358887,4286.794922,4275.641113,4346.153809,4216.282227,4263.717773,4295.0,4292.179688,4276.282227,4274.487305,4577.307617,4538.077148,4430.897461,4506.666504,,,,,,,,,,,,,,,,,,,,,,,,,,,,,,,,,,,,,,,,,,,,,,,,,,,,,,,,,,,,,,,,,,,,,,
1769163217.503088,1769163217.504619,58.0,0.0,4277.94873,4275.897461,4265.0,4340.384766,4212.94873,4262.820313,4296.666504,4285.512695,4272.563965,4265.256348,4568.077148,4534.487305,4418.846191,4503.461426,,,,,,,,,,,,,,,,,,,,,,,,,,,,,,,,,,,,,,,,,,,,,,,,,,,,,,,,,,,,,,,,,,,,,,
1769163217.510896,1769163217.512428,59.0,0.0,4278.846191,4273.589844,4266.282227,4339.871582,4211.410156,4261.538574,4295.256348,4279.615234,4272.179688,4262.820313,4571.794922,4536.794922,4416.025879,4506.922852,,,,,,,,,,,,,,,,,,,,,,,,,,,,,,,,,,,,,,,,,,,,,,,,,,,,,,,,,,,,,,,,,,,,,,
1769163217.518705,1769163217.520036,60.0,0.0,4280.128418,4271.410156,4274.230957,4342.820313,4212.563965,4258.333496,4293.077148,4285.769043,4273.717773,4265.0,4576.410156,4540.256348,4419.230957,4510.256348,,,,,,,,,,,,,,,,,,,,,,,,,,,,,,,,,,,,,,,,,,,,,,,,,,,,,,,,,,,,,,,,,,,,,,
1769163217.526513,1769163217.527845,61.0,0.0,4277.307617,4266.025879,4270.384766,4341.922852,4211.153809,4262.436035,4300.897461,4293.974121,4273.205078,4262.307617,4570.641113,4538.974121,4412.563965,4500.897461,,,,,,,,,,,,,,,,,,,,,,,,,,,,,,,,,,,,,,,,,,,,,,,,,,,,,,,,,,,,,,,,,,,,,,
1769163217.534321,1769163217.535753,62.0,0.0,4275.384766,4271.666504,4262.692383,4340.256348,4211.282227,4265.384766,4305.0,4293.333496,4274.230957,4265.897461,4570.256348,4535.256348,4412.692383,4492.307617,0.746022,0.225702,0.233252,0.290573,0.161127,0.402795,0.373589,0.11886,0.12363,0.154794,0.277905,0.227177,0.236041,0.170113,0.076051,0.532798,0.364324,0.116415,0.100377,0.085627,0.258237,0.167438,0.148464,0.110042,0.071862,0.267698,0.364038,0.268328,0.131353,0.289977,0.052178,0.583458,0.330367,0.129063,0.158192,0.263893,0.207667,0.165378,0.043171,0.068481,0.257399,0.230534,0.159654,0.107684,0.072658,0.280773,0.107585,0.065036,0.157444,0.088321,0.382965,0.124041,0.272766,0.233968,0.116197,0.399181,0.238583,0.321483,0.224356,0.137021,0.565452,0.371217,0.319928,0.219801,0.188811,0.527294,0.279698,0.317389,0.303666,0.226843
1769163217.54213,1769163217.543562,63.0,0.0,4281.922852,4281.922852,4270.256348,4346.410156,4217.05127,4253.846191,4293.077148,4284.230957,4277.692383,4279.230957,4586.025879,4537.692383,4431.666504,4507.563965,,,,,,,,,,,,,,,,,,,,,,,,,,,,,,,,,,,,,,,,,,,,,,,,,,,,,,,,,,,,,,,,,,,,,,
1769163217.549938,1769163217.55117,64.0,0.0,4291.282227,4283.205078,4281.282227,4354.615234,4221.153809,4246.794922,4285.641113,4279.743652,4279.487305,4285.0,4597.436035,4548.974121,4440.641113,4526.025879,,,,,,,,,,,,,,,,,,,,,,,,,,,,,,,,,,,,,,,,,,,,,,,,,,,,,,,,,,,,,,,,,,,,,,
1769163217.557747,1769163217.558979,65.0,0.0,4296.666504,4284.871582,4282.307617,4355.128418,4220.384766,4254.102539,4291.666504,4287.307617,4278.846191,4281.538574,4593.205078,4558.717773,4432.563965,4521.153809,,,,,,,,,,,,,,,,,,,,,,,,,,,,,,,,,,,,,,,,,,,,,,,,,,,,,,,,,,,,,,,,,,,,,,
1769163217.565555,1769163217.566687,66.0,0.0,4293.974121,4286.666504,4279.487305,4351.666504,4220.128418,4260.0,4294.487305,4295.384766,4279.230957,4280.128418,4589.487305,4552.307617,4431.282227,4512.94873,,,,,,,,,,,,,,,,,,,,,,,,,,,,,,,,,,,,,,,,,,,,,,,,,,,,,,,,,,,,,,,,,,,,,,
1769163217.573364,1769163217.574496,67.0,0.0,4285.769043,4281.025879,4278.461426,4351.922852,4221.282227,4256.922852,4292.94873,4294.743652,4280.512695,4278.589844,4588.717773,4539.871582,4432.179688,4510.512695,,,,,,,,,,,,,,,,,,,,,,,,,,,,,,,,,,,,,,,,,,,,,,,,,,,,,,,,,,,,,,,,,,,,,,
1769163217.581172,1769163217.582104,68.0,0.0,4280.641113,4278.974121,4280.641113,4353.461426,4220.128418,4252.179688,4293.589844,4292.692383,4280.641113,4276.666504,4585.0,4544.230957,4426.538574,4506.666504,,,,,,,,,,,,,,,,,,,,,,,,,,,,,,,,,,,,,,,,,,,,,,,,,,,,,,,,,,,,,,,,,,,,,,
1769163217.588981,1769163217.589913,69.0,0.0,4281.922852,4283.589844,4282.05127,4352.563965,4217.94873,4250.384766,4294.615234,4292.692383,4279.487305,4274.230957,4581.922852,4552.179688,4425.512695,4511.153809,,,,,,,,,,,,,,,,,,,,,,,,,,,,,,,,,,,,,,,,,,,,,,,,,,,,,,,,,,,,,,,,,,,,,,
1769163217.596789,1769163217.597621,70.0,0.0,4283.333496,4283.589844,4279.358887,4351.666504,4218.717773,4253.077148,4292.05127,4290.641113,4277.179688,4269.358887,4578.077148,4546.153809,4430.512695,4520.0,,,,,,,,,,,,,,,,,,,,,,,,,,,,,,,,,,,,,,,,,,,,,,,,,,,,,,,,,,,,,,,,,,,,,,
1769163217.604597,1769163217.60543,71.0,0.0,4280.512695,4280.512695,4275.641113,4352.436035,4219.487305,4258.717773,4294.871582,4291.025879,4276.922852,4264.358887,4571.794922,4536.282227,4424.871582,4511.922852,,,,,,,,,,,,,,,,,,,,,,,,,,,,,,,,,,,,,,,,,,,,,,,,,,,,,,,,,,,,,,,,,,,,,,
1769163217.612406,1769163217.613038,72.0,0.0,4275.769043,4277.820313,4275.897461,4352.692383,4217.436035,4267.307617,4307.05127,4294.743652,4277.436035,4261.410156,4568.846191,4531.794922,4411.282227,4490.0,,,,,,,,,,,,,,,,,,,,,,,,,,,,,,,,,,,,,,,,,,,,,,,,,,,,,,,,,,,,,,,,,,,,,,
1769163217.620214,1769163217.620847,73.0,0.0,4280.897461,4280.0,4280.0,4355.0,4218.717773,4263.717773,4304.871582,4294.871582,4278.974121,4268.846191,4578.077148,4543.333496,4418.333496,4496.153809,,,,,,,,,,,,,,,,,,,,,,,,,,,,,,,,,,,,,,,,,,,,,,,,,,,,,,,,,,,,,,,,,,,,,,
1769163217.628023,1769163217.628555,74.0,0.0,4288.717773,4282.05127,4281.025879,4356.538574,4220.384766,4252.307617,4292.692383,4294.487305,4281.282227,4281.794922,4590.641113,4554.743652,4437.563965,4521.794922,,,,,,,,,,,,,,,,,,,,,,,,,,,,,,,,,,,,,,,,,,,,,,,,,,,,,,,,,,,,,,,,,,,,,,
1769163217.635831,1769163217.636364,75.0,0.0,4282.563965,4279.743652,4278.974121,4354.102539,4218.333496,4257.692383,4293.205078,4296.025879,4279.230957,4280.128418,4587.307617,4545.0,4433.461426,4517.179688,,,,,,,,,,,,,,,,,,,,,,,,,,,,,,,,,,,,,,,,,,,,,,,,,,,,,,,,,,,,,,,,,,,,,,
1769163217.64364,1769163217.643972,76.0,0.0,4280.0,4283.205078,4280.769043,4355.384766,4221.025879,4261.794922,4296.410156,4294.487305,4276.794922,4276.538574,4581.538574,4539.358887,4424.230957,4502.179688,,,,,,,,,,,,,,,,,,,,,,,,,,,,,,,,,,,,,,,,,,,,,,,,,,,,,,,,,,,,,,,,,,,,,,
1769163217.651448,1769163217.651781,77.0,0.0,4286.666504,4284.871582,4281.666504,4358.205078,4229.487305,4250.897461,4292.179688,4293.333496,4279.230957,4286.794922,4592.179688,4553.333496,4438.077148,4515.769043,,,,,,,,,,,,,,,,,,,,,,,,,,,,,,,,,,,,,,,,,,,,,,,,,,,,,,,,,,,,,,,,,,,,,,
1769163217.659257,1769163217.659489,78.0,0.0,4286.153809,4279.615234,4277.820313,4357.436035,4232.179688,4252.692383,4291.794922,4295.641113,4282.692383,4290.641113,4600.641113,4559.102539,4448.974121,4530.128418,0.723843,0.233641,0.236841,0.290926,0.202188,0.445074,0.382946,0.108538,0.117702,0.163997,0.218225,0.212866,0.280846,0.175509,0.060644,0.53411,0.398114,0.133664,0.103693,0.092525,0.229125,0.238526,0.181808,0.125876,0.080949,0.296929,0.397327,0.24642,0.119037,0.264151,0.062317,0.655785,0.321634,0.135113,0.168355,0.36382,0.250339,0.165907,0.04773,0.067127,0.2891,0.28796,0.142194,0.102224,0.070579,0.333479,0.098402,0.070218,0.158196,0.084048,0.454866,0.148361,0.326757,0.275291,0.116992,0.450879,0.286528,0.395024,0.253961,0.147067,0.648994,0.433182,0.360298,0.21705,0.197817,0.494492,0.30418,0.38129,0.337166,0.228611
1769163217.667065,1769163217.667298,79.0,0.0,4287.179688,4283.205078,4285.128418,4360.641113,4229.358887,4263.589844,4292.94873,4296.538574,4281.794922,4281.666504,4591.025879,4553.974121,4435.769043,4517.94873,,,,,,,,,,,,,,,,,,,,,,,,,,,,,,,,,,,,,,,,,,,,,,,,,,,,,,,,,,,,,,,,,,,,,,
1769163217.674873,1769163217.675306,80.0,0.0,4295.897461,4295.0,4295.769043,4366.025879,4229.871582,4256.025879,4289.743652,4292.307617,4277.94873,4278.461426,4588.205078,4554.487305,4425.128418,4510.641113,,,,,,,,,,,,,,,,,,,,,,,,,,,,,,,,,,,,,,,,,,,,,,,,,,,,,,,,,,,,,,,,,,,,,,
1769163217.682682,1769163217.683115,81.0,0.0,4299.358887,4296.794922,4290.128418,4366.538574,4232.179688,4246.666504,4290.512695,4288.333496,4275.769043,4279.102539,4595.128418,4553.846191,4436.153809,4520.384766,,,,,,,,,,,,,,,,,,,,,,,,,,,,,,,,,,,,,,,,,,,,,,,,,,,,,,,,,,,,,,,,,,,,,,
1769163217.690491,1769163217.691023,82.0,0.0,4292.307617,4286.410156,4282.307617,4363.333496,4231.666504,4256.282227,4292.94873,4289.487305,4276.025879,4277.05127,4592.820313,4551.410156,4443.077148,4521.025879,,,,,,,,,,,,,,,,,,,,,,,,,,,,,,,,,,,,,,,,,,,,,,,,,,,,,,,,,,,,,,,,,,,,,,
1769163217.698299,1769163217.698831,83.0,0.0,4284.102539,4279.871582,4286.282227,4358.461426,4229.743652,4264.487305,4295.384766,4293.717773,4277.05127,4274.358887,4585.512695,4551.153809,4431.025879,4508.461426,,,,,,,,,,,,,,,,,,,,,,,,,,,,,,,,,,,,,,,,,,,,,,,,,,,,,,,,,,,,,,,,,,,,,,
1769163217.706108,1769163217.70684,84.0,0.0,4287.94873,4286.282227,4290.897461,4359.230957,4232.692383,4261.538574,4294.102539,4293.974121,4276.922852,4272.692383,4585.512695,4551.153809,4423.974121,4503.974121,,,,,,,,,,,,,,,,,,,,,,,,,,,,,,,,,,,,,,,,,,,,,,,,,,,,,,,,,,,,,,,,,,,,,,
1769163217.713916,1769163217.714648,85.0,0.0,4293.974121,4293.461426,4287.307617,4364.230957,4235.897461,4258.077148,4290.769043,4291.538574,4278.077148,4275.128418,4590.0,4554.102539,4431.538574,4512.820313,,,,,,,,,,,,,,,,,,,,,,,,,,,,,,,,,,,,,,,,,,,,,,,,,,,,,,,,,,,,,,,,,,,,,,
1769163217.721724,1769163217.722357,86.0,0.0,4282.179688,4281.538574,4278.077148,4357.820313,4233.461426,4263.846191,4297.820313,4295.897461,4282.820313,4275.0,4586.153809,4548.077148,4426.153809,4507.94873,,,,,,,,,,,,,,,,,,,,,,,,,,,,,,,,,,,,,,,,,,,,,,,,,,,,,,,,,,,,,,,,,,,,,,
1769163217.729533,1769163217.730165,87.0,0.0,4280.512695,4274.358887,4278.205078,4352.563965,4237.820313,4269.487305,4304.487305,4298.974121,4287.179688,4276.666504,4583.205078,4544.358887,4423.077148,4502.05127,,,,,,,,,,,,,,,,,,,,,,,,,,,,,,,,,,,,,,,,,,,,,,,,,,,,,,,,,,,,,,,,,,,,,,
1769163217.737341,1769163217.738173,88.0,0.0,4301.153809,4291.025879,4295.897461,4365.641113,4247.307617,4259.615234,4295.0,4295.769043,4293.589844,4291.922852,4600.897461,4564.230957,4452.563965,4525.384766,,,,,,,,,,,,,,,,,,,,,,,,,,,,,,,,,,,,,,,,,,,,,,,,,,,,,,,,,,,,,,,,,,,,,,
1769163217.74515,1769163217.745982,89.0,0.0,4304.358887,4300.512695,4305.897461,4373.846191,4247.692383,4248.717773,4287.563965,4295.128418,4295.897461,4297.05127,4615.384766,4576.410156,4463.205078,4540.769043,,,,,,,,,,,,,,,,,,,,,,,,,,,,,,,,,,,,,,,,,,,,,,,,,,,,,,,,,,,,,,,,,,,,,,
1769163217.752958,1769163217.75369,90.0,0.0,4291.922852,4293.974121,4295.384766,4367.436035,4244.102539,4254.230957,4292.692383,4295.641113,4285.128418,4280.256348,4596.538574,4557.436035,4432.692383,4517.05127,,,,,,,,,,,,,,,,,,,,,,,,,,,,,,,,,,,,,,,,,,,,,,,,,,,,,,,,,,,,,,,,,,,,,,
1769163217.760767,1769163217.761499,91.0,0.0,4294.871582,4291.410156,4289.102539,4365.0,4246.153809,4264.230957,4295.897461,4292.820313,4277.820313,4272.179688,4583.717773,4546.538574,4425.512695,4503.846191,,,,,,,,,,,,,,,,,,,,,,,,,,,,,,,,,,,,,,,,,,,,,,,,,,,,,,,,,,,,,,,,,,,,,,
1769163217.768575,1769163217.769107,92.0,0.0,4296.153809,4287.820313,4290.256348,4363.589844,4247.307617,4264.487305,4295.769043,4292.179688,4285.128418,4282.820313,4597.563965,4558.974121,4443.589844,4516.666504,,,,,,,,,,,,,,,,,,,,,,,,,,,,,,,,,,,,,,,,,,,,,,,,,,,,,,,,,,,,,,,,,,,,,,
1769163217.776384,1769163217.776916,93.0,0.0,4281.410156,4278.589844,4288.205078,4357.307617,4244.871582,4264.102539,4296.538574,4295.128418,4286.410156,4281.282227,4596.282227,4554.358887,4435.128418,4513.717773,,,,,,,,,,,,,,,,,,,,,,,,,,,,,,,,,,,,,,,,,,,,,,,,,,,,,,,,,,,,,,,,,,,,,,
1769163217.784192,1769163217.784624,94.0,0.0,4275.512695,4277.820313,4286.922852,4357.179688,4245.384766,4267.94873,4297.820313,4294.615234,4275.641113,4265.769043,4582.179688,4537.436035,4421.410156,4503.589844,0.702115,0.257735,0.276859,0.313115,0.245016,0.480492,0.407756,0.122205,0.113925,0.171943,0.200532,0.190939,0.33473,0.198452,0.053378,0.553395,0.430173,0.176889,0.113715,0.103804,0.22038,0.327437,0.201719,0.138055,0.084875,0.33043,0.418253,0.210227,0.114126,0.230728,0.07631,0.68477,0.274858,0.138857,0.168205,0.467737,0.314297,0.188105,0.059221,0.068723,0.332583,0.355115,0.144644,0.103528,0.070326,0.392485,0.122395,0.101003,0.163454,0.081428,0.570122,0.190238,0.410399,0.332857,0.121778,0.500405,0.320626,0.505948,0.302666,0.164184,0.746888,0.480382,0.403974,0.231244,0.208317,0.499833,0.319782,0.473839,0.399388,0.238979
1769163217.792,1769163217.792433,95.0,0.0,4286.666504,4282.05127,4290.0,4363.333496,4249.358887,4264.871582,4296.666504,4293.205078,4275.128418,4265.897461,4584.743652,4542.436035,4429.487305,4508.589844,,,,,,,,,,,,,,,,,,,,,,,,,,,,,,,,,,,,,,,,,,,,,,,,,,,,,,,,,,,,,,,,,,,,,,
1769163217.799809,1769163217.800441,96.0,0.0,4294.871582,4282.307617,4293.333496,4367.692383,4250.512695,4259.102539,4292.692383,4293.589844,4281.922852,4273.846191,4588.846191,4555.0,4430.512695,4510.128418,,,,,,,,,,,,,,,,,,,,,,,,,,,,,,,,,,,,,,,,,,,,,,,,,,,,,,,,,,,,,,,,,,,,,,
1769163217.807617,1769163217.80825,97.0,0.0,4294.487305,4287.692383,4295.512695,4370.0,4248.589844,4260.0,4291.666504,4293.205078,4282.307617,4272.05127,4588.333496,4555.897461,4426.538574,4507.307617,,,,,,,,,,,,,,,,,,,,,,,,,,,,,,,,,,,,,,,,,,,,,,,,,,,,,,,,,,,,,,,,,,,,,,
1769163217.815426,1769163217.815958,98.0,0.0,4294.102539,4291.922852,4294.615234,4370.641113,4253.205078,4262.94873,4293.205078,4293.205078,4280.769043,4269.743652,4593.205078,4554.743652,4432.94873,4511.410156,,,,,,,,,,,,,,,,,,,,,,,,,,,,,,,,,,,,,,,,,,,,,,,,,,,,,,,,,,,,,,,,,,,,,,
1769163217.823234,1769163217.823767,99.0,0.0,4293.974121,4288.461426,4293.205078,4370.384766,4262.692383,4263.077148,4295.769043,4293.974121,4280.256348,4274.102539,4594.358887,4554.487305,4434.102539,4509.743652,,,,,,,,,,,,,,,,,,,,,,,,,,,,,,,,,,,,,,,,,,,,,,,,,,,,,,,,,,,,,,,,,,,,,,
1769163217.831043,1769163217.831375,100.0,0.0,4293.846191,4290.128418,4295.512695,4372.563965,4265.0,4265.512695,4300.128418,4293.461426,4279.615234,4277.179688,4593.205078,4552.692383,4434.358887,4507.820313,,,,,,,,,,,,,,,,,,,,,,,,,,,,,,,,,,,,,,,,,,,,,,,,,,,,,,,,,,,,,,,,,,,,,,
1769163217.838851,1769163217.839184,101.0,0.0,4295.641113,4296.410156,4298.205078,4376.410156,4263.717773,4270.512695,4300.512695,4292.436035,4279.871582,4278.461426,4599.358887,4555.128418,4443.461426,4515.256348,,,,,,,,,,,,,,,,,,,,,,,,,,,,,,,,,,,,,,,,,,,,,,,,,,,,,,,,,,,,,,,,,,,,,,
1769163217.84666,1769163217.846892,102.0,0.0,4295.641113,4292.820313,4295.0,4374.487305,4266.025879,4268.205078,4295.641113,4293.077148,4281.410156,4279.871582,4598.846191,4556.153809,4444.230957,4513.205078,,,,,,,,,,,,,,,,,,,,,,,,,,,,,,,,,,,,,,,,,,,,,,,,,,,,,,,,,,,,,,,,,,,,,,
1769163217.854468,1769163217.854701,103.0,0.0,4290.769043,4283.077148,4286.666504,4367.179688,4264.358887,4262.563965,4295.384766,4295.641113,4282.307617,4277.05127,4590.256348,4553.974121,4435.128418,4505.769043,,,,,,,,,,,,,,,,,,,,,,,,,,,,,,,,,,,,,,,,,,,,,,,,,,,,,,,,,,,,,,,,,,,,,,
1769163217.862276,1769163217.862709,104.0,0.0,4283.333496,4277.820313,4279.871582,4363.205078,4262.307617,4263.205078,4298.205078,4296.666504,4282.05127,4278.717773,4587.692383,4555.384766,4430.769043,4505.897461,,,,,,,,,,,,,,,,,,,,,,,,,,,,,,,,,,,,,,,,,,,,,,,,,,,,,,,,,,,,,,,,,,,,,,
1769163217.870085,1769163217.870517,105.0,0.0,4282.05127,4277.692383,4279.743652,4363.846191,4268.077148,4266.153809,4295.384766,4293.461426,4279.743652,4277.563965,4587.692383,4552.820313,4430.0,4505.897461,,,,,,,,,,,,,,,,,,,,,,,,,,,,,,,,,,,,,,,,,,,,,,,,,,,,,,,,,,,,,,,,,,,,,,
1769163217.877893,1769163217.878426,106.0,0.0,4290.128418,4281.025879,4281.025879,4365.897461,4269.615234,4265.128418,4293.333496,4290.897461,4276.153809,4270.128418,4585.641113,4549.615234,4426.666504,4503.077148,,,,,,,,,,,,,,,,,,,,,,,,,,,,,,,,,,,,,,,,,,,,,,,,,,,,,,,,,,,,,,,,,,,,,,
1769163217.885702,1769163217.886234,107.0,0.0,4295.384766,4281.666504,4279.230957,4366.538574,4265.384766,4264.487305,4295.128418,4293.717773,4278.205078,4268.461426,4585.256348,4553.846191,4427.436035,4502.179688,,,,,,,,,,,,,,,,,,,,,,,,,,,,,,,,,,,,,,,,,,,,,,,,,,,,,,,,,,,,,,,,,,,,,,
1769163217.89351,1769163217.894242,108.0,0.0,4292.692383,4280.897461,4278.589844,4367.179688,4268.974121,4265.897461,4296.025879,4289.615234,4279.358887,4269.487305,4583.461426,4552.436035,4426.794922,4495.384766,,,,,,,,,,,,,,,,,,,,,,,,,,,,,,,,,,,,,,,,,,,,,,,,,,,,,,,,,,,,,,,,,,,,,,
1769163217.901319,1769163217.902051,109.0,0.0,4292.692383,4284.230957,4281.410156,4369.871582,4277.05127,4267.563965,4295.384766,4279.871582,4272.692383,4270.641113,4579.743652,4544.487305,4422.820313,4488.717773,,,,,,,,,,,,,,,,,,,,,,,,,,,,,,,,,,,,,,,,,,,,,,,,,,,,,,,,,,,,,,,,,,,,,,
1769163217.909127,1769163217.909959,110.0,0.0,4295.897461,4287.94873,4282.05127,4373.589844,4278.461426,4268.077148,4295.897461,4285.0,4273.205078,4276.410156,4586.153809,4547.692383,4430.128418,4496.666504,0.681695,0.302238,0.346324,0.3479,0.278601,0.512519,0.465155,0.161166,0.112043,0.17444,0.218448,0.170724,0.381876,0.230149,0.055343,0.584625,0.462822,0.227247,0.125142,0.112413,0.20009,0.408456,0.198982,0.140929,0.0811,0.348816,0.431682,0.167596,0.116911,0.198051,0.091144,0.668537,0.206578,0.140412,0.158765,0.544824,0.385762,0.221577,0.077251,0.073305,0.367336,0.417668,0.158515,0.105408,0.070638,0.451383,0.215999,0.160936,0.169877,0.081832,0.709077,0.273542,0.495932,0.385631,0.128348,0.542581,0.345172,0.617511,0.348916,0.184096,0.846432,0.521014,0.436572,0.253211,0.220771,0.553674,0.338915,0.561871,0.466154,0.259316
1769163217.916936,1769163217.917768,111.0,0.0,4295.641113,4290.128418,4281.282227,4374.358887,4279.358887,4269.615234,4296.410156,4296.794922,4287.179688,4286.282227,4596.666504,4557.179688,4447.05127,4509.102539,,,,,,,,,,,,,,,,,,,,,,,,,,,,,,,,,,,,,,,,,,,,,,,,,,,,,,,,,,,,,,,,,,,,,,
1769163217.924744,1769163217.925376,112.0,0.0,4293.205078,4290.0,4281.410156,4374.487305,4281.794922,4272.307617,4296.794922,4295.0,4291.025879,4288.077148,4595.256348,4557.436035,4445.128418,4509.615234,,,,,,,,,,,,,,,,,,,,,,,,,,,,,,,,,,,,,,,,,,,,,,,,,,,,,,,,,,,,,,,,,,,,,,
1769163217.932552,1769163217.933185,113.0,0.0,4294.230957,4283.589844,4280.769043,4372.820313,4280.769043,4273.461426,4298.589844,4291.410156,4280.128418,4282.307617,4586.922852,4553.589844,4428.461426,4503.717773,,,,,,,,,,,,,,,,,,,,,,,,,,,,,,,,,,,,,,,,,,,,,,,,,,,,,,,,,,,,,,,,,,,,,,
1769163217.940361,1769163217.940893,114.0,0.0,4293.846191,4276.538574,4279.487305,4365.897461,4279.743652,4268.333496,4298.205078,4294.615234,4276.666504,4281.153809,4587.05127,4554.871582,4434.871582,4507.179688,,,,,,,,,,,,,,,,,,,,,,,,,,,,,,,,,,,,,,,,,,,,,,,,,,,,,,,,,,,,,,,,,,,,,,
1769163217.948169,1769163217.948702,115.0,0.0,4287.820313,4276.794922,4279.743652,4364.487305,4279.615234,4266.666504,4295.769043,4293.589844,4282.05127,4283.461426,4594.230957,4557.692383,4443.974121,4511.410156,,,,,,,,,,,,,,,,,,,,,,,,,,,,,,,,,,,,,,,,,,,,,,,,,,,,,,,,,,,,,,,,,,,,,,
1769163217.955978,1769163217.95631,116.0,0.0,4279.743652,4276.666504,4277.436035,4367.820313,4279.358887,4273.205078,4298.846191,4293.077148,4282.820313,4280.256348,4593.717773,4557.94873,4431.666504,4506.153809,,,,,,,,,,,,,,,,,,,,,,,,,,,,,,,,,,,,,,,,,,,,,,,,,,,,,,,,,,,,,,,,,,,,,,
1769163217.963786,1769163217.964119,117.0,0.0,4280.769043,4276.794922,4272.94873,4367.692383,4280.256348,4273.333496,4305.128418,4296.025879,4281.025879,4276.025879,4592.436035,4555.897461,4432.436035,4505.128418,,,,,,,,,,,,,,,,,,,,,,,,,,,,,,,,,,,,,,,,,,,,,,,,,,,,,,,,,,,,,,,,,,,,,,
1769163217.971595,1769163217.971827,118.0,0.0,4289.487305,4283.205078,4273.333496,4370.641113,4281.666504,4267.436035,4303.846191,4295.384766,4280.512695,4280.641113,4596.410156,4556.282227,4443.077148,4509.615234,,,,,,,,,,,,,,,,,,,,,,,,,,,,,,,,,,,,,,,,,,,,,,,,,,,,,,,,,,,,,,,,,,,,,,
1769163217.979403,1769163217.979636,119.0,0.0,4288.974121,4285.256348,4275.897461,4373.974121,4283.461426,4264.230957,4297.179688,4295.512695,4279.871582,4282.179688,4596.538574,4556.922852,4436.410156,4508.205078,,,,,,,,,,,,,,,,,,,,,,,,,,,,,,,,,,,,,,,,,,,,,,,,,,,,,,,,,,,,,,,,,,,,,,
1769163217.987212,1769163217.987644,120.0,0.0,4280.256348,4281.025879,4273.589844,4370.0,4283.077148,4263.333496,4294.102539,4299.102539,4278.974121,4278.333496,4592.692383,4555.256348,4433.589844,4504.871582,,,,,,,,,,,,,,,,,,,,,,,,,,,,,,,,,,,,,,,,,,,,,,,,,,,,,,,,,,,,,,,,,,,,,,
1769163217.99502,1769163217.995452,121.0,0.0,4278.333496,4280.0,4268.717773,4365.641113,4280.897461,4263.333496,4295.256348,4297.94873,4277.94873,4277.436035,4590.769043,4553.077148,4443.846191,4506.538574,,,,,,,,,,,,,,,,,,,,,,,,,,,,,,,,,,,,,,,,,,,,,,,,,,,,,,,,,,,,,,,,,,,,,,
1769163218.002829,1769163218.003361,122.0,0.0,4283.589844,4283.205078,4267.563965,4365.641113,4282.05127,4262.436035,4295.0,4296.666504,4277.05127,4278.846191,4589.102539,4553.333496,4444.230957,4507.820313,,,,,,,,,,,,,,,,,,,,,,,,,,,,,,,,,,,,,,,,,,,,,,,,,,,,,,,,,,,,,,,,,,,,,,
1769163218.010637,1769163218.011169,123.0,0.0,4288.077148,4282.820313,4267.820313,4365.0,4286.666504,4262.436035,4293.077148,4300.128418,4277.94873,4278.974121,4590.512695,4555.897461,4440.512695,4506.282227,,,,,,,,,,,,,,,,,,,,,,,,,,,,,,,,,,,,,,,,,,,,,,,,,,,,,,,,,,,,,,,,,,,,,,
1769163218.018446,1769163218.019177,124.0,0.0,4287.94873,4280.256348,4266.282227,4364.102539,4289.871582,4262.179688,4290.641113,4299.358887,4278.974121,4278.846191,4592.307617,4553.333496,4439.871582,4505.256348,,,,,,,,,,,,,,,,,,,,,,,,,,,,,,,,,,,,,,,,,,,,,,,,,,,,,,,,,,,,,,,,,,,,,,
1769163218.026254,1769163218.026986,125.0,0.0,4285.897461,4280.256348,4267.563965,4363.846191,4291.410156,4263.589844,4292.179688,4296.153809,4279.487305,4278.589844,4587.563965,4548.717773,4440.0,4507.307617,,,,,,,,,,,,,,,,,,,,,,,,,,,,,,,,,,,,,,,,,,,,,,,,,,,,,,,,,,,,,,,,,,,,,,
1769163218.034063,1769163218.034694,126.0,0.0,4281.153809,4281.282227,4271.794922,4364.615234,4292.436035,4265.0,4298.077148,4297.179688,4278.205078,4277.692383,4587.563965,4550.512695,4443.077148,4509.743652,0.655028,0.372235,0.428111,0.379684,0.296623,0.540361,0.564892,0.2195,0.111725,0.170873,0.257392,0.163682,0.405206,0.258404,0.06747,0.577137,0.494114,0.263466,0.132858,0.114028,0.195477,0.459714,0.172557,0.132306,0.070424,0.340471,0.438778,0.129608,0.126071,0.173278,0.102521,0.615397,0.136922,0.140355,0.143934,0.569908,0.444649,0.249061,0.099329,0.079858,0.377502,0.463638,0.171391,0.102494,0.070571,0.490484,0.41398,0.2404,0.172051,0.086651,0.825603,0.427981,0.552062,0.411284,0.138171,0.566819,0.379651,0.686407,0.374098,0.206202,0.909911,0.587791,0.446901,0.27491,0.240263,0.617589,0.388702,0.611647,0.513863,0.294667
1769163218.041871,1769163218.042503,127.0,0.0,4280.256348,4280.897461,4272.94873,4366.153809,4293.461426,4265.769043,4299.871582,4297.692383,4279.230957,4278.974121,4594.743652,4556.025879,4442.820313,4511.153809,,,,,,,,,,,,,,,,,,,,,,,,,,,,,,,,,,,,,,,,,,,,,,,,,,,,,,,,,,,,,,,,,,,,,,
1769163218.049679,1769163218.050112,0.0,0.0,4288.333496,4283.333496,4270.769043,4366.025879,4294.743652,4265.128418,4295.641113,4296.153809,4287.692383,4282.05127,4599.743652,4558.589844,4440.641113,4512.05127,,,,,,,,,,,,,,,,,,,,,,,,,,,,,,,,,,,,,,,,,,,,,,,,,,,,,,,,,,,,,,,,,,,,,,
1769163218.057488,1769163218.05792,1.0,0.0,4296.794922,4290.256348,4271.153809,4367.820313,4297.307617,4263.974121,4294.358887,4295.512695,4289.871582,4281.666504,4596.922852,4556.282227,4443.077148,4509.358887,,,,,,,,,,,,,,,,,,,,,,,,,,,,,,,,,,,,,,,,,,,,,,,,,,,,,,,,,,,,,,,,,,,,,,
1769163218.065296,1769163218.065828,2.0,0.0,4295.256348,4294.102539,4275.641113,4371.410156,4299.871582,4263.717773,4296.410156,4294.358887,4282.436035,4279.743652,4590.128418,4553.589844,4444.102539,4507.179688,,,,,,,,,,,,,,,,,,,,,,,,,,,,,,,,,,,,,,,,,,,,,,,,,,,,,,,,,,,,,,,,,,,,,,
1769163218.073105,1769163218.073637,3.0,0.0,4293.461426,4295.512695,4278.461426,4372.307617,4302.436035,4264.871582,4295.769043,4293.717773,4284.230957,4283.589844,4590.897461,4552.563965,4443.333496,4508.717773,,,,,,,,,,,,,,,,,,,,,,,,,,,,,,,,,,,,,,,,,,,,,,,,,,,,,,,,,,,,,,,,,,,,,,
1769163218.080913,1769163218.081645,4.0,0.0,4298.846191,4297.307617,4277.563965,4372.563965,4307.436035,4265.897461,4294.230957,4295.641113,4289.871582,4291.666504,4596.794922,4554.358887,4444.230957,4508.846191,,,,,,,,,,,,,,,,,,,,,,,,,,,,,,,,,,,,,,,,,,,,,,,,,,,,,,,,,,,,,,,,,,,,,,
1769163218.088722,1769163218.089454,5.0,0.0,4301.025879,4297.436035,4278.589844,4374.487305,4309.871582,4265.641113,4295.641113,4294.615234,4284.743652,4291.282227,4598.846191,4555.769043,4444.487305,4513.974121,,,,,,,,,,,,,,,,,,,,,,,,,,,,,,,,,,,,,,,,,,,,,,,,,,,,,,,,,,,,,,,,,,,,,,
1769163218.09653,1769163218.097362,6.0,0.0,4297.820313,4295.128418,4280.897461,4374.615234,4306.538574,4265.0,4296.922852,4290.256348,4280.128418,4285.641113,4600.128418,4556.922852,4445.256348,4521.153809,,,,,,,,,,,,,,,,,,,,,,,,,,,,,,,,,,,,,,,,,,,,,,,,,,,,,,,,,,,,,,,,,,,,,,
1769163218.104339,1769163218.10517,7.0,0.0,4296.666504,4293.846191,4280.897461,4372.179688,4304.102539,4263.974121,4295.128418,4287.820313,4282.94873,4286.666504,4606.282227,4558.461426,4450.512695,4516.922852,,,,,,,,,,,,,,,,,,,,,,,,,,,,,,,,,,,,,,,,,,,,,,,,,,,,,,,,,,,,,,,,,,,,,,
1769163218.112147,1769163218.113179,8.0,0.0,4292.692383,4287.05127,4279.358887,4368.589844,4306.410156,4263.589844,4295.0,4290.128418,4282.307617,4285.384766,4599.615234,4554.230957,4443.589844,4506.025879,,,,,,,,,,,,,,,,,,,,,,,,,,,,,,,,,,,,,,,,,,,,,,,,,,,,,,,,,,,,,,,,,,,,,,
1769163218.119955,1769163218.120987,9.0,0.0,4287.692383,4279.230957,4278.974121,4366.282227,4307.820313,4266.666504,4297.307617,4293.077148,4280.897461,4276.025879,4586.410156,4547.692383,4427.94873,4502.563965,,,,,,,,,,,,,,,,,,,,,,,,,,,,,,,,,,,,,,,,,,,,,,,,,,,,,,,,,,,,,,,,,,,,,,
1769163218.127764,1769163218.128696,10.0,0.0,4289.615234,4284.102539,4283.461426,4368.846191,4308.077148,4267.307617,4297.179688,4295.256348,4283.461426,4276.282227,4592.05127,4551.666504,4433.974121,4506.666504,,,,,,,,,,,,,,,,,,,,,,,,,,,,,,,,,,,,,,,,,,,,,,,,,,,,,,,,,,,,,,,,,,,,,,
1769163218.135572,1769163218.136504,11.0,0.0,4295.384766,4290.384766,4287.307617,4370.897461,4311.025879,4264.615234,4297.563965,4293.461426,4283.205078,4283.077148,4600.641113,4558.333496,4446.410156,4510.0,,,,,,,,,,,,,,,,,,,,,,,,,,,,,,,,,,,,,,,,,,,,,,,,,,,,,,,,,,,,,,,,,,,,,,
1769163218.143381,1769163218.144113,12.0,0.0,4295.769043,4283.846191,4284.358887,4368.205078,4312.692383,4263.717773,4297.563965,4286.538574,4279.487305,4279.358887,4591.666504,4554.487305,4436.922852,4507.179688,,,,,,,,,,,,,,,,,,,,,,,,,,,,,,,,,,,,,,,,,,,,,,,,,,,,,,,,,,,,,,,,,,,,,,
1769163218.151189,1769163218.151921,13.0,0.0,4293.077148,4279.487305,4280.897461,4365.128418,4311.410156,4262.05127,4295.384766,4285.0,4278.205078,4275.897461,4582.563965,4551.153809,4426.025879,4500.769043,,,,,,,,,,,,,,,,,,,,,,,,,,,,,,,,,,,,,,,,,,,,,,,,,,,,,,,,,,,,,,,,,,,,,,
1769163218.158998,1769163218.15963,14.0,0.0,4294.871582,4287.563965,4282.436035,4366.282227,4311.922852,4261.538574,4294.487305,4288.205078,4280.512695,4281.666504,4591.153809,4554.743652,4430.384766,4502.179688,0.616381,0.470159,0.512106,0.393812,0.298399,0.560742,0.702812,0.294432,0.113542,0.163878,0.299022,0.181807,0.402022,0.273529,0.088971,0.548932,0.520494,0.279319,0.134655,0.108343,0.197527,0.476017,0.132237,0.11395,0.056478,0.30395,0.437742,0.105276,0.139435,0.159783,0.107207,0.542056,0.081851,0.139762,0.128788,0.535858,0.470268,0.256703,0.121018,0.08683,0.361402,0.486751,0.172925,0.093186,0.070738,0.50596,0.724317,0.319376,0.166289,0.096953,0.901785,0.665677,0.564024,0.397098,0.155451,0.578578,0.444927,0.68793,0.368548,0.232475,0.934054,0.724227,0.43567,0.291716,0.274479,0.674128,0.49453,0.607178,0.529021,0.34847
1769163218.166806,1769163218.167438,15.0,0.0,4297.05127,4291.794922,4282.436035,4368.205078,4317.563965,4262.820313,4293.974121,4285.897461,4281.282227,4282.307617,4594.871582,4550.769043,4431.410156,4507.179688,,,,,,,,,,,,,,,,,,,,,,,,,,,,,,,,,,,,,,,,,,,,,,,,,,,,,,,,,,,,,,,,,,,,,,
1769163218.174615,1769163218.175446,16.0,0.0,4291.282227,4288.846191,4280.128418,4366.025879,4321.410156,4260.897461,4291.666504,4280.384766,4279.615234,4277.179688,4585.256348,4539.358887,4426.666504,4502.179688,,,,,,,,,,,,,,,,,,,,,,,,,,,,,,,,,,,,,,,,,,,,,,,,,,,,,,,,,,,,,,,,,,,,,,
1769163218.182423,1769163218.183255,17.0,0.0,4281.922852,4286.538574,4279.102539,4364.871582,4319.871582,4260.0,4293.205078,4280.512695,4278.333496,4276.153809,4583.333496,4538.077148,4426.922852,4492.05127,,,,,,,,,,,,,,,,,,,,,,,,,,,,,,,,,,,,,,,,,,,,,,,,,,,,,,,,,,,,,,,,,,,,,,
1769163218.190231,1769163218.190963,18.0,0.0,4277.563965,4283.077148,4277.563965,4365.256348,4321.282227,4263.717773,4295.641113,4285.384766,4279.358887,4278.461426,4588.589844,4547.05127,4426.794922,4488.974121,,,,,,,,,,,,,,,,,,,,,,,,,,,,,,,,,,,,,,,,,,,,,,,,,,,,,,,,,,,,,,,,,,,,,,
1769163218.19804,1769163218.198772,19.0,0.0,4276.922852,4279.358887,4277.692383,4361.922852,4324.871582,4266.410156,4295.256348,4288.333496,4281.666504,4279.487305,4586.153809,4549.358887,4422.05127,4491.794922,,,,,,,,,,,,,,,,,,,,,,,,,,,,,,,,,,,,,,,,,,,,,,,,,,,,,,,,,,,,,,,,,,,,,,
1769163218.205848,1769163218.20678,20.0,0.0,4278.205078,4278.717773,4279.743652,4357.94873,4323.461426,4266.153809,4297.692383,4284.487305,4281.538574,4278.589844,4579.358887,4541.538574,4418.205078,4490.512695,,,,,,,,,,,,,,,,,,,,,,,,,,,,,,,,,,,,,,,,,,,,,,,,,,,,,,,,,,,,,,,,,,,,,,
1769163218.213657,1769163218.214588,21.0,0.0,4283.846191,4278.717773,4280.512695,4357.94873,4321.410156,4262.179688,4291.282227,4277.820313,4279.743652,4278.205078,4578.974121,4537.692383,4424.102539,4491.025879,,,,,,,,,,,,,,,,,,,,,,,,,,,,,,,,,,,,,,,,,,,,,,,,,,,,,,,,,,,,,,,,,,,,,,
1769163218.221465,1769163218.222497,22.0,0.0,4288.461426,4278.846191,4280.769043,4358.589844,4324.230957,4258.717773,4281.282227,4275.512695,4277.820313,4277.692383,4579.358887,4543.717773,4427.820313,4498.333496,,,,,,,,,,,,,,,,,,,,,,,,,,,,,,,,,,,,,,,,,,,,,,,,,,,,,,,,,,,,,,,,,,,,,,
1769163218.229274,1769163218.230305,23.0,0.0,4291.282227,4281.666504,4283.974121,4358.077148,4326.025879,4261.538574,4287.820313,4277.307617,4276.922852,4275.256348,4580.256348,4549.871582,4424.358887,4506.666504,,,,,,,,,,,,,,,,,,,,,,,,,,,,,,,,,,,,,,,,,,,,,,,,,,,,,,,,,,,,,,,,,,,,,,
1769163218.237082,1769163218.237914,24.0,0.0,4294.230957,4283.333496,4288.077148,4360.0,4324.871582,4264.871582,4295.128418,4283.846191,4279.358887,4276.794922,4586.025879,4554.230957,4428.333496,4509.102539,,,,,,,,,,,,,,,,,,,,,,,,,,,,,,,,,,,,,,,,,,,,,,,,,,,,,,,,,,,,,,,,,,,,,,
1769163218.244891,1769163218.245722,25.0,0.0,4289.102539,4280.897461,4284.871582,4361.282227,4325.128418,4263.461426,4293.077148,4289.743652,4280.769043,4278.846191,4586.794922,4553.077148,4425.641113,4500.641113,,,,,,,,,,,,,,,,,,,,,,,,,,,,,,,,,,,,,,,,,,,,,,,,,,,,,,,,,,,,,,,,,,,,,,
1769163218.252699,1769163218.253431,26.0,0.0,4280.0,4278.333496,4277.94873,4358.717773,4326.025879,4262.05127,4292.820313,4287.307617,4277.436035,4274.230957,4581.282227,4542.820313,4415.641113,4490.897461,,,,,,,,,,,,,,,,,,,,,,,,,,,,,,,,,,,,,,,,,,,,,,,,,,,,,,,,,,,,,,,,,,,,,,
1769163218.260507,1769163218.261239,27.0,0.0,4278.974121,4278.205078,4277.94873,4353.974121,4326.025879,4260.769043,4290.641113,4285.769043,4276.922852,4274.487305,4581.538574,4537.820313,4422.436035,4491.794922,,,,,,,,,,,,,,,,,,,,,,,,,,,,,,,,,,,,,,,,,,,,,,,,,,,,,,,,,,,,,,,,,,,,,,
1769163218.268316,1769163218.269248,28.0,0.0,4279.743652,4278.717773,4281.282227,4353.717773,4329.871582,4259.615234,4286.922852,4289.487305,4279.743652,4280.384766,4585.128418,4540.0,4430.0,4494.487305,,,,,,,,,,,,,,,,,,,,,,,,,,,,,,,,,,,,,,,,,,,,,,,,,,,,,,,,,,,,,,,,,,,,,,
1769163218.276124,1769163218.277056,29.0,0.0,4278.589844,4279.487305,4281.922852,4357.820313,4335.256348,4262.563965,4289.871582,4291.922852,4279.871582,4279.871582,4585.384766,4539.230957,4422.563965,4487.563965,,,,,,,,,,,,,,,,,,,,,,,,,,,,,,,,,,,,,,,,,,,,,,,,,,,,,,,,,,,,,,,,,,,,,,
1769163218.283933,1769163218.284964,30.0,0.0,4280.512695,4279.743652,4281.666504,4356.794922,4335.897461,4265.128418,4293.589844,4292.179688,4278.717773,4277.05127,4584.615234,4538.077148,4422.94873,4488.205078,0.581211,0.587759,0.58984,0.385368,0.28734,0.561896,0.860116,0.384575,0.11845,0.156844,0.337452,0.227855,0.378914,0.271659,0.115732,0.473714,0.540524,0.283336,0.131604,0.098187,0.189754,0.465498,0.092418,0.091034,0.043844,0.250959,0.422458,0.097504,0.153966,0.156201,0.104022,0.465374,0.049663,0.138836,0.116963,0.454119,0.451141,0.239827,0.136659,0.09243,0.325757,0.487474,0.161508,0.07966,0.073032,0.490272,1.107384,0.37572,0.153134,0.112513,0.901431,0.960254,0.5342,0.346661,0.182584,0.567324,0.544515,0.625396,0.333812,0.263416,0.885757,0.943042,0.412137,0.301446,0.327681,0.681185,0.658868,0.553359,0.511124,0.415002
1769163218.291741,1769163218.292773,31.0,0.0,4280.128418,4278.717773,4280.256348,4352.179688,4336.538574,4264.487305,4292.820313,4290.897461,4280.384766,4278.333496,4586.922852,4542.307617,4431.922852,4500.641113,,,,,,,,,,,,,,,,,,,,,,,,,,,,,,,,,,,,,,,,,,,,,,,,,,,,,,,,,,,,,,,,,,,,,,
1769163218.29955,1769163218.300681,32.0,0.0,4276.666504,4278.846191,4277.820313,4351.794922,4339.743652,4265.512695,4292.94873,4290.128418,4282.05127,4279.871582,4588.717773,4542.436035,4430.256348,4501.282227,,,,,,,,,,,,,,,,,,,,,,,,,,,,,,,,,,,,,,,,,,,,,,,,,,,,,,,,,,,,,,,,,,,,,,
1769163218.307358,1769163218.30849,33.0,0.0,4276.282227,4279.615234,4277.94873,4355.512695,4339.358887,4266.153809,4293.077148,4292.307617,4280.384766,4280.256348,4587.179688,4537.94873,4427.563965,4491.922852,,,,,,,,,,,,,,,,,,,,,,,,,,,,,,,,,,,,,,,,,,,,,,,,,,,,,,,,,,,,,,,,,,,,,,
1769163218.315167,1769163218.316198,34.0,0.0,4276.282227,4278.846191,4281.153809,4356.794922,4336.666504,4265.128418,4293.846191,4294.358887,4283.846191,4281.025879,4589.358887,4542.307617,4429.230957,4488.846191,,,,,,,,,,,,,,,,,,,,,,,,,,,,,,,,,,,,,,,,,,,,,,,,,,,,,,,,,,,,,,,,,,,,,,
1769163218.322975,1769163218.324007,35.0,0.0,4276.410156,4278.461426,4282.563965,4355.128418,4338.461426,4265.384766,4297.820313,4294.743652,4292.563965,4281.153809,4592.820313,4553.846191,4430.0,4497.179688,,,,,,,,,,,,,,,,,,,,,,,,,,,,,,,,,,,,,,,,,,,,,,,,,,,,,,,,,,,,,,,,,,,,,,
1769163218.330784,1769163218.331615,36.0,0.0,4281.794922,4282.307617,4281.922852,4357.820313,4342.692383,4265.897461,4296.538574,4294.358887,4289.871582,4281.410156,4591.282227,4556.153809,4432.05127,4503.589844,,,,,,,,,,,,,,,,,,,,,,,,,,,,,,,,,,,,,,,,,,,,,,,,,,,,,,,,,,,,,,,,,,,,,,
1769163218.338592,1769163218.339424,37.0,0.0,4276.410156,4281.794922,4280.769043,4360.0,4342.436035,4266.666504,4293.717773,4294.615234,4280.769043,4279.102539,4586.282227,4545.0,4427.307617,4496.794922,,,,,,,,,,,,,,,,,,,,,,,,,,,,,,,,,,,,,,,,,,,,,,,,,,,,,,,,,,,,,,,,,,,,,,
1769163218.346401,1769163218.347132,38.0,0.0,4264.358887,4277.05127,4280.384766,4356.794922,4340.256348,4265.256348,4293.333496,4294.871582,4283.846191,4277.307617,4584.743652,4538.205078,4421.794922,4487.94873,,,,,,,,,,,,,,,,,,,,,,,,,,,,,,,,,,,,,,,,,,,,,,,,,,,,,,,,,,,,,,,,,,,,,,
1769163218.354209,1769163218.354941,39.0,0.0,4268.205078,4278.717773,4280.897461,4353.077148,4344.358887,4265.256348,4294.743652,4294.102539,4284.743652,4277.692383,4585.0,4541.666504,4423.077148,4490.512695,,,,,,,,,,,,,,,,,,,,,,,,,,,,,,,,,,,,,,,,,,,,,,,,,,,,,,,,,,,,,,,,,,,,,,
1769163218.362018,1769163218.362549,40.0,0.0,4272.179688,4277.307617,4280.897461,4351.025879,4350.769043,4271.922852,4295.897461,4292.820313,4276.922852,4275.0,4581.538574,4539.871582,4418.589844,4490.384766,,,,,,,,,,,,,,,,,,,,,,,,,,,,,,,,,,,,,,,,,,,,,,,,,,,,,,,,,,,,,,,,,,,,,,
1769163218.369826,1769163218.370358,41.0,0.0,4263.333496,4271.153809,4278.846191,4348.077148,4348.333496,4273.333496,4293.205078,4292.563965,4284.743652,4277.94873,4583.077148,4537.179688,4416.282227,4485.0,,,,,,,,,,,,,,,,,,,,,,,,,,,,,,,,,,,,,,,,,,,,,,,,,,,,,,,,,,,,,,,,,,,,,,
1769163218.377634,1769163218.378066,42.0,0.0,4265.769043,4273.589844,4279.358887,4347.820313,4341.410156,4264.230957,4292.05127,4294.871582,4297.436035,4289.743652,4594.615234,4544.102539,4433.077148,4497.94873,,,,,,,,,,,,,,,,,,,,,,,,,,,,,,,,,,,,,,,,,,,,,,,,,,,,,,,,,,,,,,,,,,,,,,
1769163218.385443,1769163218.385875,43.0,0.0,4281.538574,4283.974121,4288.205078,4354.102539,4346.153809,4262.820313,4296.153809,4299.230957,4296.410156,4297.179688,4605.0,4554.230957,4443.589844,4509.487305,,,,,,,,,,,,,,,,,,,,,,,,,,,,,,,,,,,,,,,,,,,,,,,,,,,,,,,,,,,,,,,,,,,,,,
1769163218.393251,1769163218.393883,44.0,0.0,4283.589844,4286.794922,4295.384766,4358.077148,4356.794922,4274.615234,4299.743652,4299.102539,4292.563965,4292.436035,4599.743652,4554.102539,4431.538574,4497.05127,,,,,,,,,,,,,,,,,,,,,,,,,,,,,,,,,,,,,,,,,,,,,,,,,,,,,,,,,,,,,,,,,,,,,,
1769163218.40106,1769163218.401691,45.0,0.0,4274.615234,4280.897461,4290.897461,4353.846191,4356.153809,4279.615234,4297.179688,4294.871582,4288.461426,4283.205078,4588.589844,4547.05127,4424.871582,4487.307617,,,,,,,,,,,,,,,,,,,,,,,,,,,,,,,,,,,,,,,,,,,,,,,,,,,,,,,,,,,,,,,,,,,,,,
1769163218.408868,1769163218.4096,46.0,0.0,4274.487305,4277.563965,4288.333496,4349.871582,4351.282227,4272.820313,4293.974121,4292.820313,4280.512695,4278.461426,4586.410156,4546.282227,4431.410156,4497.436035,0.561729,0.704704,0.65787,0.359156,0.268335,0.540213,1.007246,0.484202,0.126055,0.151859,0.366156,0.289143,0.345563,0.254354,0.140471,0.384506,0.551711,0.287512,0.126416,0.087158,0.196151,0.444451,0.06532,0.070099,0.035903,0.194565,0.389233,0.102344,0.165519,0.157732,0.09434,0.396973,0.039586,0.136859,0.109592,0.35611,0.39162,0.206221,0.14183,0.095112,0.285072,0.470818,0.143098,0.066201,0.07903,0.459411,1.47755,0.393733,0.136394,0.131122,0.83753,1.24339,0.473778,0.277956,0.216886,0.53521,0.655931,0.521832,0.281664,0.294596,0.786211,1.204578,0.38534,0.303678,0.394864,0.63464,0.845591,0.47232,0.470322,0.477603
1769163218.416677,1769163218.417408,47.0,0.0,4280.641113,4280.641113,4294.615234,4352.307617,4352.692383,4268.846191,4294.871582,4291.538574,4279.230957,4279.230957,4588.846191,4550.128418,4430.897461,4505.0,,,,,,,,,,,,,,,,,,,,,,,,,,,,,,,,,,,,,,,,,,,,,,,,,,,,,,,,,,,,,,,,,,,,,,
1769163218.424485,1769163218.425417,48.0,0.0,4281.666504,4282.179688,4295.128418,4352.05127,4354.743652,4270.512695,4298.205078,4289.871582,4281.794922,4280.641113,4589.615234,4549.230957,4429.102539,4501.538574,,,,,,,,,,,,,,,,,,,,,,,,,,,,,,,,,,,,,,,,,,,,,,,,,,,,,,,,,,,,,,,,,,,,,,
1769163218.432294,1769163218.433225,49.0,0.0,4277.05127,4281.922852,4291.922852,4349.230957,4355.512695,4270.512695,4297.94873,4293.589844,4280.128418,4279.743652,4590.256348,4550.0,4437.94873,4502.820313,,,,,,,,,,,,,,,,,,,,,,,,,,,,,,,,,,,,,,,,,,,,,,,,,,,,,,,,,,,,,,,,,,,,,,
1769163218.440102,1769163218.440934,50.0,0.0,4278.589844,4288.077148,4296.410156,4353.205078,4358.461426,4265.641113,4288.333496,4295.256348,4281.025879,4279.102539,4591.025879,4556.922852,4439.743652,4507.307617,,,,,,,,,,,,,,,,,,,,,,,,,,,,,,,,,,,,,,,,,,,,,,,,,,,,,,,,,,,,,,,,,,,,,,
1769163218.44791,1769163218.448742,51.0,0.0,4281.410156,4293.974121,4297.307617,4351.410156,4359.615234,4262.820313,4282.820313,4287.436035,4281.282227,4278.205078,4589.487305,4555.128418,4430.512695,4507.820313,,,,,,,,,,,,,,,,,,,,,,,,,,,,,,,,,,,,,,,,,,,,,,,,,,,,,,,,,,,,,,,,,,,,,,
1769163218.455719,1769163218.456351,52.0,0.0,4277.94873,4291.794922,4291.282227,4345.769043,4358.974121,4264.102539,4287.179688,4282.94873,4278.461426,4276.922852,4588.333496,4547.05127,4429.358887,4506.410156,,,,,,,,,,,,,,,,,,,,,,,,,,,,,,,,,,,,,,,,,,,,,,,,,,,,,,,,,,,,,,,,,,,,,,
1769163218.463527,1769163218.464159,53.0,0.0,4276.922852,4286.922852,4290.769043,4346.666504,4358.461426,4264.871582,4291.922852,4288.974121,4278.333496,4278.589844,4588.974121,4549.615234,4433.589844,4506.922852,,,,,,,,,,,,,,,,,,,,,,,,,,,,,,,,,,,,,,,,,,,,,,,,,,,,,,,,,,,,,,,,,,,,,,
1769163218.471336,1769163218.472067,54.0,0.0,4279.230957,4284.871582,4294.615234,4347.179688,4357.05127,4265.512695,4293.333496,4291.410156,4279.358887,4278.461426,4587.820313,4551.153809,4430.769043,4509.487305,,,,,,,,,,,,,,,,,,,,,,,,,,,,,,,,,,,,,,,,,,,,,,,,,,,,,,,,,,,,,,,,,,,,,,
1769163218.479144,1769163218.479876,55.0,0.0,4276.794922,4287.692383,4291.025879,4342.307617,4358.717773,4263.461426,4286.538574,4282.179688,4277.820313,4273.717773,4584.743652,4542.563965,4425.897461,4503.717773,,,,,,,,,,,,,,,,,,,,,,,,,,,,,,,,,,,,,,,,,,,,,,,,,,,,,,,,,,,,,,,,,,,,,,
1769163218.486953,1769163218.487884,56.0,0.0,4273.333496,4289.230957,4283.205078,4341.666504,4360.0,4261.666504,4279.230957,4278.461426,4276.282227,4273.717773,4582.05127,4535.769043,4426.794922,4491.025879,,,,,,,,,,,,,,,,,,,,,,,,,,,,,,,,,,,,,,,,,,,,,,,,,,,,,,,,,,,,,,,,,,,,,,
1769163218.494761,1769163218.495693,57.0,0.0,4273.717773,4286.922852,4282.563965,4345.512695,4356.922852,4265.512695,4287.179688,4286.282227,4276.794922,4278.461426,4582.307617,4536.025879,4428.461426,4492.563965,,,,,,,,,,,,,,,,,,,,,,,,,,,,,,,,,,,,,,,,,,,,,,,,,,,,,,,,,,,,,,,,,,,,,,
1769163218.50257,1769163218.503401,58.0,0.0,4277.179688,4292.179688,4290.384766,4351.538574,4358.717773,4267.94873,4293.333496,4285.0,4274.743652,4278.717773,4584.871582,4539.358887,4430.0,4502.307617,,,,,,,,,,,,,,,,,,,,,,,,,,,,,,,,,,,,,,,,,,,,,,,,,,,,,,,,,,,,,,,,,,,,,,
1769163218.510378,1769163218.51121,59.0,0.0,4278.846191,4293.846191,4295.0,4352.05127,4366.538574,4263.461426,4285.0,4279.487305,4272.94873,4277.563965,4584.230957,4541.153809,4428.846191,4494.743652,,,,,,,,,,,,,,,,,,,,,,,,,,,,,,,,,,,,,,,,,,,,,,,,,,,,,,,,,,,,,,,,,,,,,,
1769163218.518186,1769163218.518818,60.0,0.0,4277.436035,4284.230957,4290.384766,4343.589844,4367.820313,4262.563965,4284.615234,4283.077148,4275.128418,4278.205078,4578.333496,4539.102539,4427.820313,4489.615234,,,,,,,,,,,,,,,,,,,,,,,,,,,,,,,,,,,,,,,,,,,,,,,,,,,,,,,,,,,,,,,,,,,,,,
1769163218.525995,1769163218.526627,61.0,0.0,4277.307617,4285.384766,4289.358887,4344.230957,4365.384766,4268.205078,4291.282227,4283.205078,4274.615234,4278.717773,4573.077148,4536.538574,4430.128418,4499.358887,,,,,,,,,,,,,,,,,,,,,,,,,,,,,,,,,,,,,,,,,,,,,,,,,,,,,,,,,,,,,,,,,,,,,,
1769163218.533803,1769163218.534335,62.0,0.0,4280.128418,4291.410156,4293.205078,4350.128418,4366.410156,4269.487305,4290.641113,4277.94873,4268.974121,4275.641113,4572.692383,4537.05127,4425.512695,4498.333496,0.566795,0.795732,0.717145,0.324712,0.245196,0.499811,1.111655,0.580432,0.133855,0.148434,0.384991,0.347266,0.31161,0.226313,0.155428,0.297183,0.548018,0.298973,0.121252,0.077451,0.187376,0.422914,0.055289,0.055921,0.033444,0.153348,0.339101,0.11109,0.169726,0.158744,0.083686,0.34003,0.043805,0.132668,0.105115,0.271879,0.30724,0.168631,0.135785,0.094182,0.248948,0.441851,0.126228,0.05627,0.088361,0.418657,1.730355,0.373159,0.120336,0.148347,0.721601,1.42784,0.402492,0.212932,0.250733,0.4808,0.744286,0.414024,0.229388,0.317292,0.644127,1.425855,0.361214,0.2989,0.460865,0.546936,0.99887,0.395618,0.420574,0.515737
1769163218.541612,1769163218.542144,63.0,0.0,4276.153809,4283.461426,4292.179688,4344.102539,4363.461426,4266.922852,4289.102539,4280.128418,4265.512695,4269.487305,4571.922852,4536.666504,4414.230957,4486.922852,,,,,,,,,,,,,,,,,,,,,,,,,,,,,,,,,,,,,,,,,,,,,,,,,,,,,,,,,,,,,,,,,,,,,,
