Timestamp,OriginalTimestamp,EEG.Counter,EEG.Interpolated,EEG.AF3,EEG.F7,EEG.F3,EEG.FC5,EEG.T7,EEG.P7,EEG.O1,EEG.O2,EEG.P8,EEG.T8,EEG.FC6,EEG.F4,EEG.F8,EEG.AF4,POW.AF3.Theta,POW.AF3.Alpha,POW.AF3.BetaL,POW.AF3.BetaH,POW.AF3.Gamma,POW.F7.Theta,POW.F7.Alpha,POW.F7.BetaL,POW.F7.BetaH,POW.F7.Gamma,POW.F3.Theta,POW.F3.Alpha,POW.F3.BetaL,POW.F3.BetaH,POW.F3.Gamma,POW.FC5.Theta,POW.FC5.Alpha,POW.FC5.BetaL,POW.FC5.BetaH,POW.FC5.Gamma,POW.T7.Theta,POW.T7.Alpha,POW.T7.BetaL,POW.T7.BetaH,POW.T7.Gamma,POW.P7.Theta,POW.P7.Alpha,POW.P7.BetaL,POW.P7.BetaH,POW.P7.Gamma,POW.O1.Theta,POW.O1.Alpha,POW.O1.BetaL,POW.O1.BetaH,POW.O1.Gamma,POW.O2.Theta,POW.O2.Alpha,POW.O2.BetaL,POW.O2.BetaH,POW.O2.Gamma,POW.P8.Theta,POW.P8.Alpha,POW.P8.BetaL,POW.P8.BetaH,POW.P8.Gamma,POW.T8.Theta,POW.T8.Alpha,POW.T8.BetaL,POW.T8.BetaH,POW.T8.Gamma,POW.FC6.Theta,POW.FC6.Alpha,POW.FC6.BetaL,POW.FC6.BetaH,POW.FC6.Gamma,POW.F4.Theta,POW.F4.Alpha,POW.F4.BetaL,POW.F4.BetaH,POW.F4.Gamma,POW.F8.Theta,POW.F8.Alpha,POW.F8.BetaL,POW.F8.BetaH,POW.F8.Gamma,POW.AF4.Theta,POW.AF4.Alpha,POW.AF4.BetaL,POW.AF4.BetaH,POW.AF4.Gamma
1768918376.695177,1768918376.695483,43.0,0.0,4341.410156,4343.077148,4349.102539,4367.436035,4340.769043,4320.769043,4319.615234,4327.436035,4330.0,4316.794922,4528.333496,4537.94873,4429.871582,4481.666504,,,,,,,,,,,,,,,,,,,,,,,,,,,,,,,,,,,,,,,,,,,,,,,,,,,,,,,,,,,,,,,,,,,,,,
1768918376.702985,1768918376.703491,44.0,0.0,4346.794922,4341.538574,4350.128418,4366.922852,4337.820313,4311.025879,4311.025879,4335.256348,4330.641113,4318.717773,4527.692383,4541.666504,4427.563965,4480.384766,,,,,,,,,,,,,,,,,,,,,,,,,,,,,,,,,,,,,,,,,,,,,,,,,,,,,,,,,,,,,,,,,,,,,,
1768918376.710794,1768918376.7113,45.0,0.0,4351.666504,4342.692383,4349.102539,4364.871582,4334.358887,4311.794922,4316.794922,4335.641113,4327.307617,4313.461426,4525.128418,4535.641113,4424.871582,4477.436035,,,,,,,,,,,,,,,,,,,,,,,,,,,,,,,,,,,,,,,,,,,,,,,,,,,,,,,,,,,,,,,,,,,,,,
1768918376.718602,1768918376.719208,46.0,0.0,4347.820313,4344.871582,4347.94873,4364.358887,4336.025879,4318.717773,4321.153809,4329.871582,4326.538574,4310.384766,4523.333496,4527.94873,4424.743652,4476.922852,,,,,,,,,,,,,,,,,,,,,,,,,,,,,,,,,,,,,,,,,,,,,,,,,,,,,,,,,,,,,,,,,,,,,,
1768918376.726411,1768918376.727016,47.0,0.0,4342.307617,4347.563965,4349.743652,4367.179688,4340.0,4321.666504,4317.436035,4330.769043,4327.692383,4312.820313,4524.230957,4526.282227,4422.05127,4477.05127,,,,,,,,,,,,,,,,,,,,,,,,,,,,,,,,,,,,,,,,,,,,,,,,,,,,,,,,,,,,,,,,,,,,,,
1768918376.734219,1768918376.735023,48.0,0.0,4342.436035,4347.436035,4351.794922,4370.641113,4336.666504,4323.205078,4322.436035,4335.256348,4327.820313,4313.205078,4527.05127,4530.0,4415.897461,4475.769043,0.539524,0.499049,0.294448,0.396006,0.123106,0.691613,0.17956,0.216516,0.107989,0.110192,1.056221,0.590403,0.168828,0.196285,0.143494,0.253543,0.311371,0.211702,0.126696,0.076446,0.166107,0.32319,0.101277,0.136546,0.08179,0.255621,0.253088,0.208246,0.125724,0.146475,0.60307,0.996282,0.124385,0.23049,0.237446,0.341493,0.503669,0.341885,0.135897,0.161601,0.269199,0.626077,0.432356,0.132441,0.100719,0.27723,0.565006,0.409782,0.164019,0.064266,0.497344,0.631005,0.612692,0.245638,0.170123,0.997042,0.869314,0.34577,0.269854,0.213574,0.611787,0.54913,0.634614,0.304633,0.154725,0.72274,0.660794,0.433688,0.251309,0.162292
1768918376.742028,1768918376.742831,49.0,0.0,4343.846191,4342.692383,4350.128418,4368.077148,4329.230957,4321.410156,4327.307617,4333.333496,4326.282227,4310.256348,4520.897461,4526.410156,4409.615234,4471.666504,,,,,,,,,,,,,,,,,,,,,,,,,,,,,,,,,,,,,,,,,,,,,,,,,,,,,,,,,,,,,,,,,,,,,,
1768918376.749836,1768918376.750739,50.0,0.0,4342.563965,4339.743652,4348.333496,4360.641113,4328.846191,4318.846191,4320.512695,4328.589844,4325.641113,4307.563965,4515.0,4519.871582,4407.05127,4468.077148,,,,,,,,,,,,,,,,,,,,,,,,,,,,,,,,,,,,,,,,,,,,,,,,,,,,,,,,,,,,,,,,,,,,,,
1768918376.757645,1768918376.758547,51.0,0.0,4341.153809,4338.846191,4350.256348,4357.820313,4331.410156,4321.538574,4317.692383,4331.153809,4326.538574,4310.0,4519.743652,4523.589844,4411.666504,4473.077148,,,,,,,,,,,,,,,,,,,,,,,,,,,,,,,,,,,,,,,,,,,,,,,,,,,,,,,,,,,,,,,,,,,,,,
1768918376.765453,1768918376.766555,52.0,0.0,4339.615234,4337.05127,4350.0,4358.589844,4329.743652,4321.922852,4322.820313,4333.974121,4325.384766,4312.563965,4525.384766,4525.384766,4415.384766,4474.743652,,,,,,,,,,,,,,,,,,,,,,,,,,,,,,,,,,,,,,,,,,,,,,,,,,,,,,,,,,,,,,,,,,,,,,
1768918376.773262,1768918376.774363,53.0,0.0,4333.974121,4336.282227,4346.538574,4357.820313,4328.077148,4319.102539,4323.974121,4335.128418,4324.487305,4308.974121,4522.179688,4521.666504,4411.025879,4464.871582,,,,,,,,,,,,,,,,,,,,,,,,,,,,,,,,,,,,,,,,,,,,,,,,,,,,,,,,,,,,,,,,,,,,,,
1768918376.78107,1768918376.782071,54.0,0.0,4329.358887,4338.717773,4348.461426,4356.922852,4326.025879,4320.769043,4323.846191,4336.666504,4326.282227,4306.794922,4513.846191,4521.282227,4404.615234,4456.025879,,,,,,,,,,,,,,,,,,,,,,,,,,,,,,,,,,,,,,,,,,,,,,,,,,,,,,,,,,,,,,,,,,,,,,
1768918376.788879,1768918376.789879,55.0,0.0,4333.589844,4340.512695,4352.94873,4357.563965,4326.794922,4323.333496,4325.897461,4330.769043,4324.615234,4307.179688,4506.666504,4521.922852,4400.641113,4455.128418,,,,,,,,,,,,,,,,,,,,,,,,,,,,,,,,,,,,,,,,,,,,,,,,,,,,,,,,,,,,,,,,,,,,,,
1768918376.796687,1768918376.797487,56.0,0.0,4339.743652,4341.922852,4353.205078,4356.666504,4331.666504,4321.025879,4322.436035,4325.769043,4323.846191,4306.282227,4509.102539,4523.717773,4400.384766,4461.794922,,,,,,,,,,,,,,,,,,,,,,,,,,,,,,,,,,,,,,,,,,,,,,,,,,,,,,,,,,,,,,,,,,,,,,
1768918376.804496,1768918376.805295,57.0,0.0,4342.179688,4344.871582,4355.0,4358.077148,4333.333496,4319.230957,4318.589844,4331.282227,4326.666504,4305.897461,4521.282227,4530.769043,4406.666504,4472.436035,,,,,,,,,,,,,,,,,,,,,,,,,,,,,,,,,,,,,,,,,,,,,,,,,,,,,,,,,,,,,,,,,,,,,,
1768918376.812304,1768918376.813003,58.0,0.0,4347.94873,4350.769043,4361.538574,4363.077148,4334.230957,4321.538574,4320.512695,4333.333496,4326.538574,4311.794922,4530.256348,4537.436035,4419.102539,4478.333496,,,,,,,,,,,,,,,,,,,,,,,,,,,,,,,,,,,,,,,,,,,,,,,,,,,,,,,,,,,,,,,,,,,,,,
1768918376.820113,1768918376.820811,59.0,0.0,4355.0,4354.743652,4362.179688,4366.666504,4334.487305,4321.922852,4322.94873,4328.461426,4327.307617,4322.820313,4536.282227,4540.769043,4428.589844,4478.589844,,,,,,,,,,,,,,,,,,,,,,,,,,,,,,,,,,,,,,,,,,,,,,,,,,,,,,,,,,,,,,,,,,,,,,
1768918376.827921,1768918376.828819,60.0,0.0,4349.743652,4348.461426,4357.563965,4366.922852,4327.94873,4320.512695,4325.512695,4338.205078,4336.666504,4325.512695,4541.025879,4545.897461,4423.461426,4479.743652,,,,,,,,,,,,,,,,,,,,,,,,,,,,,,,,,,,,,,,,,,,,,,,,,,,,,,,,,,,,,,,,,,,,,,
1768918376.83573,1768918376.836627,61.0,0.0,4345.128418,4342.436035,4362.436035,4367.563965,4325.769043,4321.922852,4327.179688,4351.410156,4342.563965,4319.743652,4536.538574,4545.897461,4413.846191,4478.846191,,,,,,,,,,,,,,,,,,,,,,,,,,,,,,,,,,,,,,,,,,,,,,,,,,,,,,,,,,,,,,,,,,,,,,
1768918376.843538,1768918376.844335,62.0,0.0,4349.102539,4342.436035,4367.563965,4366.153809,4332.05127,4322.692383,4323.717773,4340.897461,4336.666504,4318.205078,4530.641113,4539.358887,4416.025879,4474.230957,,,,,,,,,,,,,,,,,,,,,,,,,,,,,,,,,,,,,,,,,,,,,,,,,,,,,,,,,,,,,,,,,,,,,,
1768918376.851347,1768918376.852143,63.0,0.0,4347.820313,4340.897461,4362.179688,4363.333496,4335.641113,4320.512695,4318.974121,4331.153809,4333.717773,4320.641113,4532.563965,4535.769043,4424.615234,4472.563965,,,,,,,,,,,,,,,,,,,,,,,,,,,,,,,,,,,,,,,,,,,,,,,,,,,,,,,,,,,,,,,,,,,,,,
1768918376.859155,1768918376.859752,64.0,0.0,4346.153809,4342.436035,4362.179688,4368.205078,4335.512695,4323.974121,4323.589844,4341.538574,4339.358887,4320.0,4538.974121,4538.974121,4426.538574,4476.153809,0.580099,0.482042,0.322074,0.419523,0.113359,0.670713,0.174725,0.305689,0.122616,0.118685,0.962735,0.466593,0.174593,0.209222,0.144171,0.29962,0.30131,0.221351,0.121765,0.095764,0.196798,0.353212,0.143343,0.1342,0.082647,0.271822,0.211044,0.249853,0.116782,0.152939,0.677184,0.967888,0.136087,0.224943,0.237721,0.35011,0.628373,0.285799,0.143191,0.16889,0.276251,0.734722,0.420238,0.138182,0.11285,0.301614,0.717023,0.442819,0.170257,0.067925,0.604976,0.613173,0.577297,0.243306,0.189706,0.999348,0.742418,0.308728,0.255539,0.252053,0.689169,0.49262,0.711777,0.316656,0.178203,0.901782,0.529921,0.502499,0.264491,0.187049
1768918376.866964,1768918376.867559,65.0,0.0,4348.974121,4343.077148,4366.794922,4371.666504,4333.461426,4331.666504,4333.205078,4348.846191,4343.205078,4320.641113,4541.025879,4542.820313,4420.641113,4478.974121,,,,,,,,,,,,,,,,,,,,,,,,,,,,,,,,,,,,,,,,,,,,,,,,,,,,,,,,,,,,,,,,,,,,,,
1768918376.874772,1768918376.875268,66.0,0.0,4346.282227,4337.692383,4360.384766,4365.256348,4331.794922,4330.128418,4330.769043,4344.230957,4342.563965,4323.717773,4532.436035,4541.666504,4418.589844,4476.666504,,,,,,,,,,,,,,,,,,,,,,,,,,,,,,,,,,,,,,,,,,,,,,,,,,,,,,,,,,,,,,,,,,,,,,
1768918376.882581,1768918376.883076,67.0,0.0,4350.0,4342.94873,4354.871582,4364.871582,4333.589844,4322.94873,4318.333496,4340.256348,4340.128418,4322.563965,4525.897461,4538.077148,4426.794922,4476.410156,,,,,,,,,,,,,,,,,,,,,,,,,,,,,,,,,,,,,,,,,,,,,,,,,,,,,,,,,,,,,,,,,,,,,,
1768918376.890389,1768918376.891083,68.0,0.0,4361.538574,4354.230957,4358.461426,4368.974121,4330.897461,4321.153809,4313.846191,4339.871582,4338.205078,4316.025879,4528.077148,4538.077148,4430.769043,4480.0,,,,,,,,,,,,,,,,,,,,,,,,,,,,,,,,,,,,,,,,,,,,,,,,,,,,,,,,,,,,,,,,,,,,,,
1768918376.898198,1768918376.898891,69.0,0.0,4349.743652,4339.743652,4347.94873,4358.205078,4322.307617,4320.897461,4317.307617,4338.717773,4336.025879,4308.461426,4524.230957,4534.230957,4416.922852,4474.743652,,,,,,,,,,,,,,,,,,,,,,,,,,,,,,,,,,,,,,,,,,,,,,,,,,,,,,,,,,,,,,,,,,,,,,
1768918376.906006,1768918376.906799,70.0,0.0,4332.05127,4322.692383,4336.794922,4348.717773,4322.307617,4322.307617,4323.077148,4342.179688,4340.384766,4314.871582,4523.333496,4533.205078,4412.05127,4473.589844,,,,,,,,,,,,,,,,,,,,,,,,,,,,,,,,,,,,,,,,,,,,,,,,,,,,,,,,,,,,,,,,,,,,,,
1768918376.913815,1768918376.914607,71.0,0.0,4348.589844,4335.769043,4354.743652,4360.641113,4325.128418,4327.692383,4330.128418,4353.846191,4355.256348,4336.410156,4545.897461,4551.538574,4435.641113,4491.282227,,,,,,,,,,,,,,,,,,,,,,,,,,,,,,,,,,,,,,,,,,,,,,,,,,,,,,,,,,,,,,,,,,,,,,
1768918376.921623,1768918376.922615,72.0,0.0,4367.563965,4348.077148,4371.025879,4369.102539,4321.538574,4327.179688,4327.436035,4357.820313,4361.282227,4341.922852,4557.820313,4565.0,4447.436035,4502.179688,,,,,,,,,,,,,,,,,,,,,,,,,,,,,,,,,,,,,,,,,,,,,,,,,,,,,,,,,,,,,,,,,,,,,,
1768918376.929432,1768918376.930423,73.0,0.0,4360.512695,4341.410156,4361.282227,4364.615234,4324.102539,4321.666504,4321.025879,4348.846191,4347.94873,4328.589844,4542.563965,4551.922852,4433.974121,4489.358887,,,,,,,,,,,,,,,,,,,,,,,,,,,,,,,,,,,,,,,,,,,,,,,,,,,,,,,,,,,,,,,,,,,,,,
1768918376.93724,1768918376.938331,74.0,0.0,4347.179688,4338.974121,4351.794922,4365.384766,4331.794922,4323.589844,4325.0,4343.077148,4338.205078,4323.205078,4535.256348,4539.615234,4424.487305,4478.461426,,,,,,,,,,,,,,,,,,,,,,,,,,,,,,,,,,,,,,,,,,,,,,,,,,,,,,,,,,,,,,,,,,,,,,
1768918376.945049,1768918376.946139,75.0,0.0,4342.94873,4343.974121,4352.692383,4370.256348,4333.077148,4327.692383,4327.94873,4347.179688,4342.563965,4324.871582,4534.230957,4534.743652,4424.230957,4476.538574,,,,,,,,,,,,,,,,,,,,,,,,,,,,,,,,,,,,,,,,,,,,,,,,,,,,,,,,,,,,,,,,,,,,,,
1768918376.952858,1768918376.953747,76.0,0.0,4342.05127,4345.0,4350.0,4367.05127,4329.487305,4326.666504,4324.102539,4348.974121,4339.102539,4320.641113,4523.589844,4526.794922,4423.974121,4470.128418,,,,,,,,,,,,,,,,,,,,,,,,,,,,,,,,,,,,,,,,,,,,,,,,,,,,,,,,,,,,,,,,,,,,,,
1768918376.960666,1768918376.961555,77.0,0.0,4341.282227,4342.692383,4346.282227,4361.025879,4324.743652,4323.461426,4322.179688,4340.0,4327.436035,4315.0,4519.230957,4521.282227,4421.410156,4467.307617,,,,,,,,,,,,,,,,,,,,,,,,,,,,,,,,,,,,,,,,,,,,,,,,,,,,,,,,,,,,,,,,,,,,,,
1768918376.968475,1768918376.969263,78.0,0.0,4344.358887,4341.666504,4348.974121,4361.153809,4323.974121,4325.256348,4321.538574,4329.230957,4326.282227,4311.282227,4521.922852,4521.538574,4419.743652,4471.922852,,,,,,,,,,,,,,,,,,,,,,,,,,,,,,,,,,,,,,,,,,,,,,,,,,,,,,,,,,,,,,,,,,,,,,
1768918376.976283,1768918376.977071,79.0,0.0,4351.794922,4342.94873,4355.897461,4360.897461,4329.487305,4326.153809,4323.461426,4329.487305,4329.871582,4309.487305,4522.307617,4527.820313,4422.05127,4477.179688,,,,,,,,,,,,,,,,,,,,,,,,,,,,,,,,,,,,,,,,,,,,,,,,,,,,,,,,,,,,,,,,,,,,,,
1768918376.984092,1768918376.984679,80.0,0.0,4357.94873,4343.205078,4359.230957,4357.94873,4329.487305,4317.563965,4324.615234,4338.717773,4328.333496,4314.358887,4529.487305,4536.922852,4427.436035,4481.922852,0.620267,0.478224,0.319002,0.440208,0.109488,0.654977,0.177307,0.384307,0.147652,0.129535,0.881748,0.358989,0.167725,0.229104,0.135656,0.347855,0.286521,0.220219,0.124325,0.118961,0.226714,0.366861,0.184744,0.126125,0.082213,0.311625,0.177916,0.283734,0.113822,0.154799,0.741029,0.879278,0.162951,0.223869,0.236644,0.355987,0.743436,0.243913,0.146874,0.17543,0.323583,0.82651,0.434763,0.14153,0.127055,0.367489,0.846942,0.4848,0.184881,0.071098,0.739703,0.583388,0.568273,0.241452,0.206079,1.0581,0.59738,0.296295,0.242418,0.288239,0.853762,0.449737,0.796909,0.340839,0.196347,1.101721,0.417755,0.547154,0.287604,0.213021
1768918376.9919,1768918376.992487,81.0,0.0,4358.717773,4343.205078,4356.666504,4360.897461,4321.025879,4311.794922,4316.922852,4344.102539,4332.436035,4321.410156,4540.128418,4540.128418,4429.487305,4481.666504,,,,,,,,,,,,,,,,,,,,,,,,,,,,,,,,,,,,,,,,,,,,,,,,,,,,,,,,,,,,,,,,,,,,,,
1768918376.999709,1768918377.000195,82.0,0.0,4350.897461,4342.436035,4354.230957,4364.230957,4320.897461,4317.692383,4312.94873,4344.230957,4341.794922,4318.333496,4537.820313,4538.974121,4426.922852,4476.538574,,,,,,,,,,,,,,,,,,,,,,,,,,,,,,,,,,,,,,,,,,,,,,,,,,,,,,,,,,,,,,,,,,,,,,
1768918377.007517,1768918377.008003,83.0,0.0,4340.256348,4334.615234,4353.846191,4360.0,4322.692383,4322.05127,4318.717773,4344.487305,4338.717773,4310.769043,4530.641113,4539.743652,4422.94873,4472.692383,,,,,,,,,,,,,,,,,,,,,,,,,,,,,,,,,,,,,,,,,,,,,,,,,,,,,,,,,,,,,,,,,,,,,,
1768918377.015326,1768918377.016011,84.0,0.0,4343.077148,4326.282227,4355.384766,4355.897461,4317.563965,4319.871582,4320.512695,4345.769043,4328.333496,4313.589844,4533.461426,4540.897461,4422.94873,4476.794922,,,,,,,,,,,,,,,,,,,,,,,,,,,,,,,,,,,,,,,,,,,,,,,,,,,,,,,,,,,,,,,,,,,,,,
1768918377.023134,1768918377.023819,85.0,0.0,4351.282227,4328.077148,4358.461426,4357.563965,4320.128418,4320.384766,4318.589844,4343.846191,4327.179688,4317.307617,4540.641113,4540.0,4430.641113,4483.205078,,,,,,,,,,,,,,,,,,,,,,,,,,,,,,,,,,,,,,,,,,,,,,,,,,,,,,,,,,,,,,,,,,,,,,
1768918377.030943,1768918377.031727,86.0,0.0,4345.641113,4335.128418,4354.487305,4358.974121,4327.563965,4321.794922,4318.333496,4338.461426,4328.461426,4311.153809,4536.666504,4535.897461,4429.743652,4483.589844,,,,,,,,,,,,,,,,,,,,,,,,,,,,,,,,,,,,,,,,,,,,,,,,,,,,,,,,,,,,,,,,,,,,,,
1768918377.038751,1768918377.039535,87.0,0.0,4338.333496,4333.974121,4347.563965,4358.077148,4326.794922,4322.05127,4317.307617,4339.230957,4326.282227,4307.692383,4525.897461,4530.256348,4416.794922,4477.179688,,,,,,,,,,,,,,,,,,,,,,,,,,,,,,,,,,,,,,,,,,,,,,,,,,,,,,,,,,,,,,,,,,,,,,
1768918377.04656,1768918377.047143,88.0,0.0,4340.641113,4329.615234,4347.692383,4355.897461,4321.410156,4325.769043,4321.666504,4340.897461,4325.256348,4310.512695,4522.820313,4525.384766,4413.974121,4472.436035,,,,,,,,,,,,,,,,,,,,,,,,,,,,,,,,,,,,,,,,,,,,,,,,,,,,,,,,,,,,,,,,,,,,,,
1768918377.054368,1768918377.054951,89.0,0.0,4342.307617,4334.358887,4350.0,4360.256348,4322.307617,4328.205078,4329.230957,4336.025879,4326.153809,4312.05127,4528.333496,4522.94873,4426.410156,4475.128418,,,,,,,,,,,,,,,,,,,,,,,,,,,,,,,,,,,,,,,,,,,,,,,,,,,,,,,,,,,,,,,,,,,,,,
1768918377.062177,1768918377.062659,90.0,0.0,4342.179688,4337.436035,4349.487305,4365.384766,4325.256348,4324.743652,4321.153809,4335.384766,4327.307617,4312.563965,4530.0,4528.846191,4430.769043,4478.333496,,,,,,,,,,,,,,,,,,,,,,,,,,,,,,,,,,,,,,,,,,,,,,,,,,,,,,,,,,,,,,,,,,,,,,
1768918377.069985,1768918377.070467,91.0,0.0,4340.384766,4328.333496,4347.179688,4359.230957,4324.487305,4318.846191,4310.769043,4338.205078,4326.666504,4312.179688,4523.077148,4526.282227,4417.692383,4473.333496,,,,,,,,,,,,,,,,,,,,,,,,,,,,,,,,,,,,,,,,,,,,,,,,,,,,,,,,,,,,,,,,,,,,,,
1768918377.077794,1768918377.078475,92.0,0.0,4335.0,4320.769043,4342.692383,4353.461426,4324.230957,4318.846191,4315.641113,4329.358887,4323.717773,4308.461426,4519.102539,4511.666504,4407.692383,4463.333496,,,,,,,,,,,,,,,,,,,,,,,,,,,,,,,,,,,,,,,,,,,,,,,,,,,,,,,,,,,,,,,,,,,,,,
1768918377.085602,1768918377.086283,93.0,0.0,4335.897461,4325.512695,4340.897461,4357.94873,4326.538574,4322.820313,4322.179688,4321.794922,4322.94873,4307.94873,4520.128418,4509.230957,4412.05127,4459.615234,,,,,,,,,,,,,,,,,,,,,,,,,,,,,,,,,,,,,,,,,,,,,,,,,,,,,,,,,,,,,,,,,,,,,,
1768918377.093411,1768918377.094191,94.0,0.0,4340.256348,4326.794922,4342.820313,4358.974121,4327.307617,4323.717773,4318.333496,4325.256348,4323.333496,4307.307617,4515.128418,4513.077148,4413.717773,4462.436035,,,,,,,,,,,,,,,,,,,,,,,,,,,,,,,,,,,,,,,,,,,,,,,,,,,,,,,,,,,,,,,,,,,,,,
1768918377.101219,1768918377.101999,95.0,0.0,4337.05127,4321.153809,4340.256348,4356.153809,4324.102539,4320.769043,4317.820313,4325.512695,4321.922852,4301.538574,4507.307617,4504.615234,4403.205078,4460.256348,,,,,,,,,,,,,,,,,,,,,,,,,,,,,,,,,,,,,,,,,,,,,,,,,,,,,,,,,,,,,,,,,,,,,,
1768918377.109028,1768918377.110007,96.0,0.0,4332.307617,4321.666504,4334.358887,4356.666504,4322.179688,4317.94873,4320.128418,4322.05127,4320.769043,4296.922852,4507.94873,4500.0,4397.94873,4458.077148,0.641387,0.490258,0.287348,0.453667,0.108848,0.643514,0.190563,0.433083,0.177897,0.137834,0.84701,0.292253,0.153485,0.249127,0.120674,0.378919,0.277249,0.210152,0.132808,0.139474,0.256188,0.349962,0.213865,0.113096,0.080122,0.371762,0.151117,0.295802,0.118628,0.149949,0.780601,0.742927,0.192497,0.233079,0.232134,0.355041,0.813447,0.224288,0.146378,0.179661,0.400146,0.855703,0.467957,0.139478,0.137643,0.44203,0.904123,0.514841,0.203522,0.073623,0.851288,0.549219,0.569555,0.247825,0.216134,1.126584,0.474338,0.298293,0.234827,0.313167,1.041748,0.421846,0.850945,0.379407,0.204675,1.261615,0.347314,0.543105,0.322964,0.234603
1768918377.116836,1768918377.117815,97.0,0.0,4333.205078,4325.128418,4332.94873,4355.128418,4324.615234,4319.615234,4315.769043,4323.077148,4321.666504,4295.128418,4508.974121,4505.512695,4406.410156,4461.282227,,,,,,,,,,,,,,,,,,,,,,,,,,,,,,,,,,,,,,,,,,,,,,,,,,,,,,,,,,,,,,,,,,,,,,
1768918377.124645,1768918377.125722,98.0,0.0,4332.563965,4326.538574,4335.384766,4352.563965,4328.205078,4322.179688,4315.897461,4325.641113,4323.333496,4298.205078,4509.230957,4504.743652,4413.846191,4460.769043,,,,,,,,,,,,,,,,,,,,,,,,,,,,,,,,,,,,,,,,,,,,,,,,,,,,,,,,,,,,,,,,,,,,,,
1768918377.132453,1768918377.13353,99.0,0.0,4332.563965,4326.153809,4338.717773,4352.307617,4326.282227,4319.871582,4322.307617,4328.077148,4325.384766,4304.615234,4516.153809,4507.563965,4412.820313,4461.025879,,,,,,,,,,,,,,,,,,,,,,,,,,,,,,,,,,,,,,,,,,,,,,,,,,,,,,,,,,,,,,,,,,,,,,
1768918377.140262,1768918377.141139,100.0,0.0,4342.436035,4325.512695,4345.128418,4355.0,4323.717773,4319.487305,4323.717773,4330.641113,4330.256348,4310.384766,4524.743652,4518.974121,4416.794922,4471.025879,,,,,,,,,,,,,,,,,,,,,,,,,,,,,,,,,,,,,,,,,,,,,,,,,,,,,,,,,,,,,,,,,,,,,,
1768918377.14807,1768918377.148947,101.0,0.0,4348.974121,4329.871582,4350.0,4357.820313,4326.794922,4323.589844,4324.871582,4336.025879,4335.641113,4314.743652,4530.128418,4525.384766,4424.358887,4478.589844,,,,,,,,,,,,,,,,,,,,,,,,,,,,,,,,,,,,,,,,,,,,,,,,,,,,,,,,,,,,,,,,,,,,,,
1768918377.155879,1768918377.156655,102.0,0.0,4345.641113,4331.922852,4348.974121,4356.922852,4324.743652,4324.102539,4328.974121,4342.94873,4340.128418,4319.230957,4531.538574,4524.871582,4427.179688,4476.153809,,,,,,,,,,,,,,,,,,,,,,,,,,,,,,,,,,,,,,,,,,,,,,,,,,,,,,,,,,,,,,,,,,,,,,
1768918377.163687,1768918377.164463,103.0,0.0,4346.025879,4329.743652,4349.102539,4356.153809,4321.025879,4323.461426,4327.563965,4344.102539,4343.717773,4320.0,4528.077148,4524.358887,4425.128418,4475.128418,,,,,,,,,,,,,,,,,,,,,,,,,,,,,,,,,,,,,,,,,,,,,,,,,,,,,,,,,,,,,,,,,,,,,,
1768918377.171496,1768918377.172071,104.0,0.0,4347.820313,4331.922852,4350.128418,4358.333496,4329.487305,4327.692383,4324.871582,4339.743652,4342.94873,4313.717773,4524.358887,4524.743652,4416.153809,4477.436035,,,,,,,,,,,,,,,,,,,,,,,,,,,,,,,,,,,,,,,,,,,,,,,,,,,,,,,,,,,,,,,,,,,,,,
1768918377.179304,1768918377.179879,105.0,0.0,4345.641113,4335.128418,4348.077148,4359.615234,4335.0,4327.179688,4327.179688,4341.282227,4338.077148,4310.128418,4525.641113,4523.205078,4415.769043,4475.512695,,,,,,,,,,,,,,,,,,,,,,,,,,,,,,,,,,,,,,,,,,,,,,,,,,,,,,,,,,,,,,,,,,,,,,
1768918377.187113,1768918377.187587,106.0,0.0,4346.282227,4333.589844,4349.487305,4358.333496,4328.717773,4320.256348,4326.025879,4339.358887,4337.307617,4311.922852,4526.922852,4524.102539,4428.205078,4474.487305,,,,,,,,,,,,,,,,,,,,,,,,,,,,,,,,,,,,,,,,,,,,,,,,,,,,,,,,,,,,,,,,,,,,,,
1768918377.194921,1768918377.195395,107.0,0.0,4346.282227,4332.05127,4352.563965,4356.538574,4326.794922,4321.282227,4325.128418,4332.179688,4338.974121,4313.461426,4526.410156,4525.512695,4427.94873,4476.538574,,,,,,,,,,,,,,,,,,,,,,,,,,,,,,,,,,,,,,,,,,,,,,,,,,,,,,,,,,,,,,,,,,,,,,
1768918377.20273,1768918377.203403,108.0,0.0,4341.025879,4335.384766,4350.0,4357.692383,4331.666504,4326.538574,4326.153809,4330.512695,4335.384766,4311.025879,4524.871582,4522.436035,4413.974121,4475.769043,,,,,,,,,,,,,,,,,,,,,,,,,,,,,,,,,,,,,,,,,,,,,,,,,,,,,,,,,,,,,,,,,,,,,,
1768918377.210538,1768918377.211211,109.0,0.0,4339.871582,4338.333496,4349.487305,4364.230957,4329.615234,4323.333496,4325.897461,4331.282227,4333.077148,4308.205078,4521.025879,4518.717773,4412.820313,4475.897461,,,,,,,,,,,,,,,,,,,,,,,,,,,,,,,,,,,,,,,,,,,,,,,,,,,,,,,,,,,,,,,,,,,,,,
1768918377.218347,1768918377.219119,110.0,0.0,4347.179688,4333.717773,4352.307617,4364.871582,4323.205078,4318.589844,4324.358887,4330.897461,4335.128418,4310.128418,4520.769043,4521.922852,4418.846191,4477.94873,,,,,,,,,,,,,,,,,,,,,,,,,,,,,,,,,,,,,,,,,,,,,,,,,,,,,,,,,,,,,,,,,,,,,,
1768918377.226155,1768918377.226927,111.0,0.0,4350.0,4326.538574,4352.307617,4358.717773,4327.94873,4319.871582,4324.230957,4334.230957,4335.256348,4311.538574,4522.692383,4525.128418,4417.563965,4478.077148,,,,,,,,,,,,,,,,,,,,,,,,,,,,,,,,,,,,,,,,,,,,,,,,,,,,,,,,,,,,,,,,,,,,,,
1768918377.233964,1768918377.234935,112.0,0.0,4344.102539,4326.666504,4352.563965,4359.615234,4338.846191,4323.846191,4326.282227,4339.615234,4333.333496,4310.0,4523.205078,4517.05127,4415.769043,4476.538574,0.628739,0.512129,0.242494,0.458466,0.110976,0.635442,0.213841,0.443381,0.205843,0.140965,0.865841,0.270045,0.143961,0.265418,0.105301,0.379279,0.280591,0.195433,0.142746,0.151533,0.287799,0.302725,0.22453,0.098655,0.077537,0.435918,0.128665,0.279463,0.130256,0.138725,0.786808,0.582488,0.213628,0.254149,0.223476,0.348001,0.817427,0.224411,0.144174,0.182038,0.496037,0.802118,0.503182,0.132809,0.141017,0.509504,0.868577,0.515842,0.223344,0.076676,0.920005,0.533569,0.566895,0.272595,0.219574,1.167094,0.416807,0.310971,0.237355,0.320309,1.20394,0.406228,0.841501,0.432094,0.205505,1.34159,0.337246,0.489165,0.370974,0.246548
1768918377.241772,1768918377.242743,113.0,0.0,4339.743652,4333.333496,4353.333496,4362.05127,4340.128418,4326.410156,4326.922852,4338.461426,4330.256348,4310.0,4521.282227,4511.153809,4415.128418,4474.487305,,,,,,,,,,,,,,,,,,,,,,,,,,,,,,,,,,,,,,,,,,,,,,,,,,,,,,,,,,,,,,,,,,,,,,
1768918377.249581,1768918377.250451,114.0,0.0,4340.0,4333.846191,4351.282227,4358.461426,4334.230957,4327.179688,4325.256348,4330.897461,4325.128418,4310.0,4517.94873,4516.666504,4411.538574,4471.922852,,,,,,,,,,,,,,,,,,,,,,,,,,,,,,,,,,,,,,,,,,,,,,,,,,,,,,,,,,,,,,,,,,,,,,
1768918377.257389,1768918377.258259,115.0,0.0,4343.077148,4334.743652,4350.769043,4359.871582,4335.256348,4324.871582,4323.205078,4329.358887,4328.077148,4309.487305,4519.743652,4523.717773,4414.358887,4475.0,,,,,,,,,,,,,,,,,,,,,,,,,,,,,,,,,,,,,,,,,,,,,,,,,,,,,,,,,,,,,,,,,,,,,,
1768918377.265198,1768918377.265867,116.0,0.0,4346.410156,4343.589844,4356.538574,4367.179688,4336.410156,4326.153809,4326.666504,4337.05127,4339.743652,4312.94873,4526.922852,4525.641113,4426.153809,4482.179688,,,,,,,,,,,,,,,,,,,,,,,,,,,,,,,,,,,,,,,,,,,,,,,,,,,,,,,,,,,,,,,,,,,,,,
1768918377.273006,1768918377.273675,117.0,0.0,4345.641113,4345.384766,4360.769043,4367.436035,4329.487305,4327.563965,4327.436035,4337.436035,4337.94873,4313.846191,4525.641113,4522.179688,4429.102539,4476.410156,,,,,,,,,,,,,,,,,,,,,,,,,,,,,,,,,,,,,,,,,,,,,,,,,,,,,,,,,,,,,,,,,,,,,,
1768918377.280815,1768918377.281383,118.0,0.0,4342.94873,4339.102539,4359.102539,4362.563965,4326.538574,4318.333496,4317.05127,4333.333496,4328.333496,4311.025879,4522.05127,4524.871582,4424.743652,4473.974121,,,,,,,,,,,,,,,,,,,,,,,,,,,,,,,,,,,,,,,,,,,,,,,,,,,,,,,,,,,,,,,,,,,,,,
1768918377.288623,1768918377.289191,119.0,0.0,4344.743652,4338.461426,4357.05127,4363.461426,4328.589844,4311.025879,4310.128418,4340.512695,4334.615234,4312.307617,4528.461426,4534.871582,4427.94873,4488.333496,,,,,,,,,,,,,,,,,,,,,,,,,,,,,,,,,,,,,,,,,,,,,,,,,,,,,,,,,,,,,,,,,,,,,,
1768918377.296432,1768918377.297199,120.0,0.0,4344.615234,4342.179688,4358.461426,4363.717773,4328.717773,4318.205078,4319.487305,4343.461426,4342.563965,4313.333496,4530.512695,4535.512695,4427.692383,4489.615234,,,,,,,,,,,,,,,,,,,,,,,,,,,,,,,,,,,,,,,,,,,,,,,,,,,,,,,,,,,,,,,,,,,,,,
1768918377.30424,1768918377.305007,121.0,0.0,4340.0,4341.282227,4357.820313,4360.512695,4328.846191,4328.974121,4330.641113,4334.230957,4333.974121,4310.384766,4522.436035,4524.743652,4418.589844,4474.230957,,,,,,,,,,,,,,,,,,,,,,,,,,,,,,,,,,,,,,,,,,,,,,,,,,,,,,,,,,,,,,,,,,,,,,
1768918377.312049,1768918377.312914,122.0,0.0,4337.692383,4337.820313,4351.025879,4357.820313,4329.102539,4325.0,4321.025879,4327.692383,4326.666504,4309.743652,4519.487305,4515.0,4416.153809,4470.641113,,,,,,,,,,,,,,,,,,,,,,,,,,,,,,,,,,,,,,,,,,,,,,,,,,,,,,,,,,,,,,,,,,,,,,
1768918377.319857,1768918377.320722,123.0,0.0,4336.153809,4335.897461,4346.538574,4353.461426,4326.410156,4314.358887,4309.102539,4331.794922,4328.333496,4311.282227,4522.94873,4513.589844,4418.333496,4477.179688,,,,,,,,,,,,,,,,,,,,,,,,,,,,,,,,,,,,,,,,,,,,,,,,,,,,,,,,,,,,,,,,,,,,,,
1768918377.327666,1768918377.32873,124.0,0.0,4335.769043,4336.410156,4348.333496,4348.333496,4324.230957,4316.538574,4315.769043,4336.922852,4327.94873,4309.871582,4523.461426,4517.179688,4416.922852,4473.846191,,,,,,,,,,,,,,,,,,,,,,,,,,,,,,,,,,,,,,,,,,,,,,,,,,,,,,,,,,,,,,,,,,,,,,
1768918377.335474,1768918377.336538,125.0,0.0,4338.974121,4341.538574,4350.128418,4351.410156,4327.692383,4322.05127,4322.436035,4334.871582,4327.563965,4308.974121,4523.717773,4521.410156,4421.666504,4475.256348,,,,,,,,,,,,,,,,,,,,,,,,,,,,,,,,,,,,,,,,,,,,,,,,,,,,,,,,,,,,,,,,,,,,,,
1768918377.343283,1768918377.344246,126.0,0.0,4341.538574,4345.256348,4348.589844,4357.436035,4329.487305,4320.769043,4318.589844,4330.897461,4328.589844,4310.256348,4525.769043,4524.230957,4431.282227,4485.897461,,,,,,,,,,,,,,,,,,,,,,,,,,,,,,,,,,,,,,,,,,,,,,,,,,,,,,,,,,,,,,,,,,,,,,
1768918377.351092,1768918377.352054,127.0,0.0,4339.743652,4342.94873,4344.102539,4353.589844,4324.743652,4319.102539,4318.205078,4334.358887,4328.717773,4310.641113,4524.871582,4521.025879,4426.153809,4483.333496,,,,,,,,,,,,,,,,,,,,,,,,,,,,,,,,,,,,,,,,,,,,,,,,,,,,,,,,,,,,,,,,,,,,,,
1768918377.3589,1768918377.359662,0.0,0.0,4335.0,4341.025879,4340.769043,4350.769043,4322.563965,4321.410156,4324.871582,4339.487305,4327.179688,4309.871582,4521.538574,4513.974121,4411.153809,4473.846191,0.580362,0.531651,0.206042,0.457684,0.117625,0.619072,0.242652,0.419726,0.224849,0.140167,0.91144,0.275838,0.15007,0.277592,0.09566,0.348519,0.296497,0.18013,0.149624,0.152348,0.32035,0.239718,0.21727,0.087885,0.075994,0.480574,0.11268,0.238616,0.145106,0.123894,0.749775,0.426707,0.218473,0.280955,0.211617,0.342326,0.761295,0.235704,0.144239,0.18407,0.598741,0.678561,0.524305,0.125283,0.137128,0.554598,0.758445,0.485817,0.24171,0.081891,0.94561,0.560764,0.558747,0.318092,0.217832,1.17613,0.45454,0.337105,0.251317,0.307897,1.300669,0.397412,0.759522,0.490695,0.206344,1.330456,0.391502,0.404973,0.426862,0.245919
1768918377.366708,1768918377.36747,1.0,0.0,4335.384766,4343.717773,4345.128418,4355.512695,4324.102539,4321.922852,4325.769043,4339.487305,4328.846191,4309.358887,4521.538574,4512.563965,4413.846191,4472.94873,,,,,,,,,,,,,,,,,,,,,,,,,,,,,,,,,,,,,,,,,,,,,,,,,,,,,,,,,,,,,,,,,,,,,,
1768918377.374517,1768918377.375178,2.0,0.0,4341.922852,4346.282227,4352.820313,4355.897461,4322.820313,4320.0,4321.538574,4342.307617,4333.205078,4312.436035,4525.128418,4521.794922,4427.179688,4477.94873,,,,,,,,,,,,,,,,,,,,,,,,,,,,,,,,,,,,,,,,,,,,,,,,,,,,,,,,,,,,,,,,,,,,,,
1768918377.382326,1768918377.382986,3.0,0.0,4344.358887,4343.717773,4354.102539,4352.94873,4321.922852,4317.179688,4318.589844,4346.666504,4336.282227,4317.307617,4528.077148,4531.666504,4427.692383,4484.743652,,,,,,,,,,,,,,,,,,,,,,,,,,,,,,,,,,,,,,,,,,,,,,,,,,,,,,,,,,,,,,,,,,,,,,
1768918377.390134,1768918377.390595,4.0,0.0,4342.05127,4345.384766,4352.94873,4355.384766,4325.897461,4317.179688,4319.487305,4345.641113,4334.487305,4320.256348,4529.487305,4531.666504,4424.230957,4485.769043,,,,,,,,,,,,,,,,,,,,,,,,,,,,,,,,,,,,,,,,,,,,,,,,,,,,,,,,,,,,,,,,,,,,,,
1768918377.397942,1768918377.398403,5.0,0.0,4340.512695,4352.307617,4355.128418,4359.615234,4329.358887,4323.589844,4323.205078,4340.384766,4329.487305,4318.333496,4530.256348,4527.563965,4428.974121,4483.205078,,,,,,,,,,,,,,,,,,,,,,,,,,,,,,,,,,,,,,,,,,,,,,,,,,,,,,,,,,,,,,,,,,,,,,
1768918377.405751,1768918377.406111,6.0,0.0,4340.641113,4350.897461,4356.282227,4357.94873,4326.410156,4326.922852,4323.589844,4339.102539,4327.307617,4313.846191,4529.871582,4528.205078,4431.922852,4484.871582,,,,,,,,,,,,,,,,,,,,,,,,,,,,,,,,,,,,,,,,,,,,,,,,,,,,,,,,,,,,,,,,,,,,,,
1768918377.41356,1768918377.413919,7.0,0.0,4341.410156,4348.846191,4353.333496,4355.384766,4326.282227,4324.358887,4321.025879,4342.94873,4326.922852,4311.922852,4527.179688,4529.487305,4427.436035,4485.128418,,,,,,,,,,,,,,,,,,,,,,,,,,,,,,,,,,,,,,,,,,,,,,,,,,,,,,,,,,,,,,,,,,,,,,
1768918377.421368,1768918377.421926,8.0,0.0,4341.282227,4352.436035,4350.641113,4355.128418,4333.974121,4324.615234,4320.769043,4341.153809,4326.153809,4313.461426,4524.358887,4523.974121,4424.102539,4477.307617,,,,,,,,,,,,,,,,,,,,,,,,,,,,,,,,,,,,,,,,,,,,,,,,,,,,,,,,,,,,,,,,,,,,,,
1768918377.429177,1768918377.429734,9.0,0.0,4340.769043,4348.717773,4350.256348,4353.333496,4336.666504,4325.384766,4323.589844,4339.358887,4327.307617,4314.743652,4524.487305,4520.897461,4426.794922,4474.743652,,,,,,,,,,,,,,,,,,,,,,,,,,,,,,,,,,,,,,,,,,,,,,,,,,,,,,,,,,,,,,,,,,,,,,
1768918377.436985,1768918377.437642,10.0,0.0,4341.282227,4340.897461,4351.794922,4350.512695,4330.128418,4324.487305,4323.589844,4343.333496,4327.820313,4313.205078,4525.769043,4524.102539,4425.256348,4476.922852,,,,,,,,,,,,,,,,,,,,,,,,,,,,,,,,,,,,,,,,,,,,,,,,,,,,,,,,,,,,,,,,,,,,,,
1768918377.444794,1768918377.44545,11.0,0.0,4341.282227,4342.563965,4353.461426,4349.230957,4325.769043,4322.307617,4319.230957,4341.794922,4323.846191,4311.666504,4523.717773,4521.666504,4418.589844,4474.230957,,,,,,,,,,,,,,,,,,,,,,,,,,,,,,,,,,,,,,,,,,,,,,,,,,,,,,,,,,,,,,,,,,,,,,
1768918377.452602,1768918377.453058,12.0,0.0,4341.794922,4348.974121,4356.666504,4350.128418,4326.538574,4321.153809,4318.846191,4340.256348,4324.230957,4312.05127,4522.307617,4523.717773,4421.794922,4476.025879,,,,,,,,,,,,,,,,,,,,,,,,,,,,,,,,,,,,,,,,,,,,,,,,,,,,,,,,,,,,,,,,,,,,,,
1768918377.460411,1768918377.460866,13.0,0.0,4339.743652,4347.179688,4358.846191,4350.128418,4324.743652,4321.666504,4325.769043,4346.794922,4329.487305,4311.410156,4526.153809,4528.846191,4426.794922,4478.974121,,,,,,,,,,,,,,,,,,,,,,,,,,,,,,,,,,,,,,,,,,,,,,,,,,,,,,,,,,,,,,,,,,,,,,
1768918377.468219,1768918377.468574,14.0,0.0,4337.820313,4344.743652,4352.94873,4348.846191,4325.128418,4323.974121,4340.897461,4345.384766,4323.846191,4307.820313,4522.307617,4517.179688,4416.794922,4473.974121,,,,,,,,,,,,,,,,,,,,,,,,,,,,,,,,,,,,,,,,,,,,,,,,,,,,,,,,,,,,,,,,,,,,,,
1768918377.476028,1768918377.476382,15.0,0.0,4337.436035,4342.05127,4346.538574,4346.666504,4326.282227,4321.282227,4357.05127,4339.102539,4316.794922,4303.589844,4511.410156,4506.538574,4408.717773,4466.410156,,,,,,,,,,,,,,,,,,,,,,,,,,,,,,,,,,,,,,,,,,,,,,,,,,,,,,,,,,,,,,,,,,,,,,
1768918377.483836,1768918377.48439,16.0,0.0,4331.666504,4332.179688,4346.025879,4340.769043,4322.05127,4311.666504,4358.717773,4344.487305,4321.666504,4301.025879,4507.692383,4511.538574,4411.666504,4461.153809,0.513232,0.536361,0.192987,0.455766,0.130281,0.585436,0.272363,0.377774,0.230435,0.139333,0.960769,0.287639,0.174818,0.285258,0.094603,0.299703,0.319444,0.166764,0.150813,0.143204,0.350484,0.181455,0.19989,0.08392,0.076557,0.486935,0.108997,0.186684,0.15779,0.109104,0.666993,0.300711,0.204424,0.302518,0.198086,0.354193,0.678061,0.252512,0.149343,0.186435,0.693129,0.53233,0.525339,0.121105,0.128854,0.572686,0.6296,0.444991,0.256088,0.089997,0.953678,0.648877,0.559731,0.375339,0.212544,1.189225,0.593812,0.383312,0.272655,0.279687,1.320382,0.402648,0.630521,0.540358,0.215598,1.256415,0.497457,0.32124,0.478816,0.233412
1768918377.491645,1768918377.492198,17.0,0.0,4328.974121,4333.205078,4345.897461,4341.794922,4322.179688,4311.922852,4355.256348,4344.102539,4321.410156,4301.153809,4511.410156,4513.333496,4413.846191,4460.897461,,,,,,,,,,,,,,,,,,,,,,,,,,,,,,,,,,,,,,,,,,,,,,,,,,,,,,,,,,,,,,,,,,,,,,
1768918377.499453,1768918377.500106,18.0,0.0,4336.666504,4343.974121,4342.94873,4348.846191,4326.666504,4317.692383,4355.769043,4327.94873,4309.743652,4297.179688,4508.205078,4505.128418,4412.05127,4462.179688,,,,,,,,,,,,,,,,,,,,,,,,,,,,,,,,,,,,,,,,,,,,,,,,,,,,,,,,,,,,,,,,,,,,,,
1768918377.507262,1768918377.507914,19.0,0.0,4341.153809,4346.666504,4341.153809,4349.615234,4325.512695,4315.769043,4351.794922,4323.077148,4307.820313,4293.077148,4504.358887,4501.794922,4409.230957,4464.871582,,,,,,,,,,,,,,,,,,,,,,,,,,,,,,,,,,,,,,,,,,,,,,,,,,,,,,,,,,,,,,,,,,,,,,
1768918377.51507,1768918377.515922,20.0,0.0,4339.230957,4346.666504,4341.922852,4351.666504,4324.743652,4316.538574,4349.871582,4333.717773,4320.256348,4301.538574,4514.743652,4507.692383,4413.846191,4472.179688,,,,,,,,,,,,,,,,,,,,,,,,,,,,,,,,,,,,,,,,,,,,,,,,,,,,,,,,,,,,,,,,,,,,,,
1768918377.522879,1768918377.52373,21.0,0.0,4341.282227,4351.794922,4345.256348,4354.230957,4328.974121,4324.102539,4358.974121,4339.743652,4326.153809,4311.922852,4523.974121,4516.410156,4420.897461,4475.897461,,,,,,,,,,,,,,,,,,,,,,,,,,,,,,,,,,,,,,,,,,,,,,,,,,,,,,,,,,,,,,,,,,,,,,
1768918377.530687,1768918377.531438,22.0,0.0,4342.692383,4349.102539,4349.871582,4347.05127,4327.820313,4325.0,4361.153809,4339.230957,4319.871582,4308.589844,4519.871582,4518.974121,4416.538574,4470.384766,,,,,,,,,,,,,,,,,,,,,,,,,,,,,,,,,,,,,,,,,,,,,,,,,,,,,,,,,,,,,,,,,,,,,,
1768918377.538496,1768918377.539246,23.0,0.0,4340.128418,4345.512695,4351.282227,4343.333496,4322.820313,4322.563965,4353.077148,4339.615234,4316.282227,4302.692383,4517.436035,4515.384766,4416.410156,4467.820313,,,,,,,,,,,,,,,,,,,,,,,,,,,,,,,,,,,,,,,,,,,,,,,,,,,,,,,,,,,,,,,,,,,,,,
1768918377.546304,1768918377.547254,24.0,0.0,4342.05127,4355.0,4348.846191,4353.077148,4327.820313,4325.512695,4348.717773,4341.025879,4320.384766,4307.692383,4524.102539,4517.820313,4427.436035,4472.307617,,,,,,,,,,,,,,,,,,,,,,,,,,,,,,,,,,,,,,,,,,,,,,,,,,,,,,,,,,,,,,,,,,,,,,
1768918377.554113,1768918377.555062,25.0,0.0,4341.794922,4357.94873,4344.230957,4352.307617,4327.307617,4325.256348,4345.128418,4343.974121,4322.563965,4310.128418,4526.922852,4523.333496,4424.487305,4474.358887,,,,,,,,,,,,,,,,,,,,,,,,,,,,,,,,,,,,,,,,,,,,,,,,,,,,,,,,,,,,,,,,,,,,,,
1768918377.561921,1768918377.56277,26.0,0.0,4337.307617,4349.487305,4341.282227,4341.666504,4316.282227,4322.94873,4344.230957,4343.717773,4319.102539,4305.769043,4522.179688,4520.384766,4413.333496,4473.333496,,,,,,,,,,,,,,,,,,,,,,,,,,,,,,,,,,,,,,,,,,,,,,,,,,,,,,,,,,,,,,,,,,,,,,
1768918377.56973,1768918377.570578,27.0,0.0,4338.077148,4347.692383,4346.922852,4345.384766,4316.153809,4318.846191,4342.94873,4337.563965,4319.615234,4307.563965,4521.025879,4518.589844,4420.128418,4472.820313,,,,,,,,,,,,,,,,,,,,,,,,,,,,,,,,,,,,,,,,,,,,,,,,,,,,,,,,,,,,,,,,,,,,,,
1768918377.577538,1768918377.578186,28.0,0.0,4342.692383,4356.282227,4354.102539,4355.0,4325.0,4315.256348,4337.307617,4341.410156,4327.563965,4313.717773,4524.615234,4523.589844,4431.538574,4476.282227,,,,,,,,,,,,,,,,,,,,,,,,,,,,,,,,,,,,,,,,,,,,,,,,,,,,,,,,,,,,,,,,,,,,,,
1768918377.585347,1768918377.585994,29.0,0.0,4341.922852,4360.512695,4352.436035,4354.487305,4324.358887,4320.512695,4337.820313,4344.102539,4327.179688,4313.846191,4526.666504,4525.641113,4430.384766,4480.641113,,,,,,,,,,,,,,,,,,,,,,,,,,,,,,,,,,,,,,,,,,,,,,,,,,,,,,,,,,,,,,,,,,,,,,
1768918377.593155,1768918377.593702,30.0,0.0,4340.641113,4354.102539,4348.589844,4348.461426,4319.615234,4325.641113,4344.102539,4331.410156,4315.512695,4309.358887,4524.230957,4521.922852,4427.563965,4480.0,,,,,,,,,,,,,,,,,,,,,,,,,,,,,,,,,,,,,,,,,,,,,,,,,,,,,,,,,,,,,,,,,,,,,,
1768918377.600964,1768918377.60151,31.0,0.0,4342.820313,4348.717773,4349.871582,4346.794922,4320.769043,4322.94873,4343.461426,4328.205078,4312.05127,4307.179688,4522.307617,4520.384766,4427.94873,4478.974121,,,,,,,,,,,,,,,,,,,,,,,,,,,,,,,,,,,,,,,,,,,,,,,,,,,,,,,,,,,,,,,,,,,,,,
1768918377.608772,1768918377.609518,32.0,0.0,4334.230957,4342.692383,4346.794922,4342.820313,4317.179688,4321.025879,4340.384766,4343.205078,4318.846191,4305.897461,4522.563965,4522.436035,4421.282227,4475.128418,0.452858,0.520956,0.202196,0.455018,0.147821,0.531657,0.299641,0.334726,0.22167,0.14194,0.990432,0.292122,0.210815,0.286543,0.100252,0.250443,0.340323,0.15539,0.14619,0.128522,0.374319,0.143631,0.182008,0.086881,0.079117,0.452308,0.119784,0.139504,0.164175,0.097466,0.550443,0.21946,0.176096,0.310231,0.184716,0.403423,0.609127,0.272927,0.160075,0.188147,0.774895,0.42023,0.511758,0.122807,0.120549,0.566248,0.542096,0.420431,0.263954,0.099748,0.973631,0.791153,0.58832,0.42726,0.204701,1.252601,0.81062,0.452288,0.295913,0.243859,1.276543,0.436032,0.498415,0.564572,0.237855,1.1629,0.629529,0.263794,0.51393,0.214135
1768918377.616581,1768918377.617326,33.0,0.0,4320.128418,4332.563965,4336.153809,4331.410156,4309.743652,4322.563965,4341.153809,4346.282227,4321.794922,4304.358887,4518.333496,4520.256348,4410.128418,4462.692383,,,,,,,,,,,,,,,,,,,,,,,,,,,,,,,,,,,,,,,,,,,,,,,,,,,,,,,,,,,,,,,,,,,,,,
1768918377.624389,1768918377.625234,34.0,0.0,4328.717773,4335.641113,4337.563965,4334.102539,4314.230957,4321.538574,4341.025879,4340.641113,4322.179688,4310.897461,4519.230957,4523.077148,4417.05127,4463.461426,,,,,,,,,,,,,,,,,,,,,,,,,,,,,,,,,,,,,,,,,,,,,,,,,,,,,,,,,,,,,,,,,,,,,,
1768918377.632198,1768918377.633042,35.0,0.0,4349.358887,4350.641113,4354.230957,4354.743652,4326.410156,4323.333496,4345.384766,4350.897461,4326.666504,4325.769043,4536.025879,4537.05127,4440.0,4484.615234,,,,,,,,,,,,,,,,,,,,,,,,,,,,,,,,,,,,,,,,,,,,,,,,,,,,,,,,,,,,,,,,,,,,,,
1768918377.640006,1768918377.641049,36.0,0.0,4349.871582,4351.666504,4363.717773,4362.307617,4328.846191,4325.897461,4348.077148,4357.820313,4328.846191,4328.974121,4543.205078,4545.512695,4445.128418,4492.820313,,,,,,,,,,,,,,,,,,,,,,,,,,,,,,,,,,,,,,,,,,,,,,,,,,,,,,,,,,,,,,,,,,,,,,
1768918377.647815,1768918377.648857,37.0,0.0,4336.282227,4338.717773,4353.846191,4347.563965,4321.153809,4322.179688,4341.538574,4350.128418,4324.230957,4314.615234,4529.102539,4537.179688,4429.743652,4477.692383,,,,,,,,,,,,,,,,,,,,,,,,,,,,,,,,,,,,,,,,,,,,,,,,,,,,,,,,,,,,,,,,,,,,,,
1768918377.655623,1768918377.656765,38.0,0.0,4338.461426,4337.820313,4345.512695,4343.333496,4321.794922,4317.94873,4337.692383,4345.384766,4320.769043,4306.538574,4521.410156,4527.820313,4425.512695,4470.128418,,,,,,,,,,,,,,,,,,,,,,,,,,,,,,,,,,,,,,,,,,,,,,,,,,,,,,,,,,,,,,,,,,,,,,
1768918377.663432,1768918377.664573,39.0,0.0,4344.615234,4346.282227,4351.666504,4352.563965,4327.436035,4318.461426,4336.025879,4343.589844,4319.102539,4310.769043,4524.102539,4526.410156,4424.743652,4472.563965,,,,,,,,,,,,,,,,,,,,,,,,,,,,,,,,,,,,,,,,,,,,,,,,,,,,,,,,,,,,,,,,,,,,,,
1768918377.67124,1768918377.672181,40.0,0.0,4331.538574,4342.820313,4354.871582,4348.717773,4325.0,4321.410156,4332.820313,4339.358887,4320.256348,4312.179688,4521.153809,4527.05127,4413.974121,4465.641113,,,,,,,,,,,,,,,,,,,,,,,,,,,,,,,,,,,,,,,,,,,,,,,,,,,,,,,,,,,,,,,,,,,,,,
1768918377.679049,1768918377.679989,41.0,0.0,4327.05127,4335.512695,4349.487305,4340.256348,4323.205078,4324.743652,4336.410156,4342.436035,4321.282227,4310.128418,4519.102539,4525.256348,4416.025879,4462.820313,,,,,,,,,,,,,,,,,,,,,,,,,,,,,,,,,,,,,,,,,,,,,,,,,,,,,,,,,,,,,,,,,,,,,,
1768918377.686857,1768918377.687897,42.0,0.0,4344.871582,4342.179688,4348.846191,4346.794922,4327.436035,4319.230957,4336.538574,4344.615234,4315.769043,4309.615234,4521.025879,4523.205078,4421.922852,4473.077148,,,,,,,,,,,,,,,,,,,,,,,,,,,,,,,,,,,,,,,,,,,,,,,,,,,,,,,,,,,,,,,,,,,,,,
1768918377.694666,1768918377.695705,43.0,0.0,4352.179688,4353.461426,4353.717773,4358.589844,4328.333496,4312.436035,4325.256348,4334.358887,4310.128418,4309.358887,4519.743652,4522.820313,4418.077148,4476.025879,,,,,,,,,,,,,,,,,,,,,,,,,,,,,,,,,,,,,,,,,,,,,,,,,,,,,,,,,,,,,,,,,,,,,,
1768918377.702474,1768918377.703513,44.0,0.0,4347.05127,4350.128418,4356.153809,4356.794922,4326.922852,4315.512695,4320.128418,4331.282227,4313.205078,4309.871582,4522.05127,4522.436035,4422.307617,4473.589844,,,,,,,,,,,,,,,,,,,,,,,,,,,,,,,,,,,,,,,,,,,,,,,,,,,,,,,,,,,,,,,,,,,,,,
1768918377.710283,1768918377.711321,45.0,0.0,4347.05127,4342.179688,4358.333496,4349.230957,4328.205078,4318.589844,4325.512695,4339.230957,4317.307617,4311.410156,4526.025879,4526.922852,4434.102539,4481.282227,,,,,,,,,,,,,,,,,,,,,,,,,,,,,,,,,,,,,,,,,,,,,,,,,,,,,,,,,,,,,,,,,,,,,,
1768918377.718091,1768918377.719029,46.0,0.0,4346.538574,4344.230957,4359.615234,4346.666504,4326.666504,4322.94873,4333.589844,4340.641113,4314.871582,4311.666504,4526.410156,4533.974121,4433.589844,4485.512695,,,,,,,,,,,,,,,,,,,,,,,,,,,,,,,,,,,,,,,,,,,,,,,,,,,,,,,,,,,,,,,,,,,,,,
1768918377.7259,1768918377.726837,47.0,0.0,4342.94873,4346.025879,4355.128418,4347.05127,4326.410156,4325.256348,4337.05127,4334.743652,4312.05127,4308.589844,4525.512695,4529.743652,4422.94873,4478.589844,,,,,,,,,,,,,,,,,,,,,,,,,,,,,,,,,,,,,,,,,,,,,,,,,,,,,,,,,,,,,,,,,,,,,,
1768918377.733709,1768918377.734445,48.0,0.0,4341.153809,4342.563965,4348.974121,4345.641113,4327.820313,4315.769043,4325.769043,4328.717773,4310.641113,4305.897461,4519.743652,4517.692383,4414.743652,4474.102539,0.418226,0.487112,0.217726,0.452067,0.165229,0.470094,0.322642,0.302024,0.202358,0.14821,0.993382,0.287749,0.244838,0.278842,0.107708,0.215177,0.349823,0.145314,0.137801,0.113609,0.382044,0.130549,0.170562,0.094057,0.082688,0.389629,0.142406,0.106323,0.162758,0.09069,0.432884,0.188446,0.142375,0.303098,0.173207,0.498077,0.579506,0.295523,0.17308,0.187009,0.842697,0.375083,0.492059,0.129304,0.115851,0.55545,0.523866,0.427908,0.262635,0.108042,1.028811,0.945881,0.644139,0.454934,0.194238,1.402372,1.048108,0.532948,0.315655,0.210084,1.206097,0.500522,0.405746,0.554476,0.2699,1.090492,0.749063,0.24239,0.52437,0.194183
1768918377.741517,1768918377.742253,49.0,0.0,4338.077148,4340.769043,4346.410156,4342.94873,4325.0,4314.743652,4318.974121,4331.794922,4310.384766,4308.333496,4516.410156,4515.256348,4416.153809,4473.077148,,,,,,,,,,,,,,,,,,,,,,,,,,,,,,,,,,,,,,,,,,,,,,,,,,,,,,,,,,,,,,,,,,,,,,
1768918377.749325,1768918377.750161,50.0,0.0,4338.461426,4342.179688,4351.025879,4344.743652,4324.871582,4328.717773,4327.436035,4340.512695,4313.974121,4310.512695,4522.94873,4523.205078,4426.922852,4473.974121,,,,,,,,,,,,,,,,,,,,,,,,,,,,,,,,,,,,,,,,,,,,,,,,,,,,,,,,,,,,,,,,,,,,,,
1768918377.757134,1768918377.75797,51.0,0.0,4343.333496,4344.743652,4353.974121,4348.846191,4329.102539,4324.230957,4321.666504,4336.410156,4312.436035,4305.512695,4522.692383,4527.05127,4426.025879,4479.615234,,,,,,,,,,,,,,,,,,,,,,,,,,,,,,,,,,,,,,,,,,,,,,,,,,,,,,,,,,,,,,,,,,,,,,
1768918377.764943,1768918377.765578,52.0,0.0,4342.563965,4345.512695,4346.282227,4348.846191,4327.563965,4310.256348,4307.05127,4323.717773,4306.025879,4297.692383,4510.0,4519.743652,4414.230957,4476.410156,,,,,,,,,,,,,,,,,,,,,,,,,,,,,,,,,,,,,,,,,,,,,,,,,,,,,,,,,,,,,,,,,,,,,,
1768918377.772751,1768918377.773386,53.0,0.0,4339.230957,4341.153809,4338.846191,4344.230957,4324.743652,4315.769043,4312.692383,4325.897461,4305.384766,4294.487305,4504.358887,4509.487305,4410.384766,4462.692383,,,,,,,,,,,,,,,,,,,,,,,,,,,,,,,,,,,,,,,,,,,,,,,,,,,,,,,,,,,,,,,,,,,,,,
1768918377.780559,1768918377.781094,54.0,0.0,4338.846191,4339.743652,4343.461426,4340.769043,4327.179688,4321.410156,4321.794922,4335.769043,4308.846191,4295.384766,4509.102539,4512.179688,4413.846191,4463.846191,,,,,,,,,,,,,,,,,,,,,,,,,,,,,,,,,,,,,,,,,,,,,,,,,,,,,,,,,,,,,,,,,,,,,,
1768918377.788368,1768918377.788902,55.0,0.0,4338.717773,4341.538574,4351.153809,4342.436035,4326.282227,4318.846191,4321.538574,4333.461426,4307.820313,4296.922852,4510.769043,4521.794922,4415.512695,4474.487305,,,,,,,,,,,,,,,,,,,,,,,,,,,,,,,,,,,,,,,,,,,,,,,,,,,,,,,,,,,,,,,,,,,,,,
1768918377.796177,1768918377.79651,56.0,0.0,4337.307617,4336.025879,4350.897461,4344.102539,4321.410156,4321.666504,4321.025879,4328.333496,4303.846191,4295.128418,4508.589844,4525.256348,4413.205078,4471.282227,,,,,,,,,,,,,,,,,,,,,,,,,,,,,,,,,,,,,,,,,,,,,,,,,,,,,,,,,,,,,,,,,,,,,,
1768918377.803985,1768918377.804318,57.0,0.0,4331.666504,4327.307617,4343.205078,4337.820313,4320.512695,4321.282227,4316.025879,4335.512695,4309.102539,4292.692383,4507.94873,4519.358887,4411.410156,4461.282227,,,,,,,,,,,,,,,,,,,,,,,,,,,,,,,,,,,,,,,,,,,,,,,,,,,,,,,,,,,,,,,,,,,,,,
1768918377.811793,1768918377.812026,58.0,0.0,4327.307617,4323.461426,4335.256348,4327.179688,4322.820313,4319.871582,4313.205078,4337.436035,4310.897461,4293.974121,4507.692383,4508.077148,4409.358887,4457.692383,,,,,,,,,,,,,,,,,,,,,,,,,,,,,,,,,,,,,,,,,,,,,,,,,,,,,,,,,,,,,,,,,,,,,,
1768918377.819602,1768918377.819834,59.0,0.0,4326.153809,4319.743652,4335.769043,4326.282227,4323.589844,4324.102539,4317.94873,4324.743652,4299.871582,4293.717773,4507.179688,4502.563965,4408.333496,4456.922852,,,,,,,,,,,,,,,,,,,,,,,,,,,,,,,,,,,,,,,,,,,,,,,,,,,,,,,,,,,,,,,,,,,,,,
1768918377.827411,1768918377.827842,60.0,0.0,4324.743652,4315.769043,4340.256348,4329.743652,4322.692383,4319.743652,4314.358887,4318.589844,4297.179688,4292.05127,4506.922852,4506.666504,4410.641113,4456.922852,,,,,,,,,,,,,,,,,,,,,,,,,,,,,,,,,,,,,,,,,,,,,,,,,,,,,,,,,,,,,,,,,,,,,,
1768918377.835219,1768918377.83565,61.0,0.0,4325.0,4314.102539,4341.025879,4327.05127,4322.563965,4311.025879,4304.871582,4323.974121,4305.512695,4293.846191,4507.563965,4510.0,4411.666504,4454.743652,,,,,,,,,,,,,,,,,,,,,,,,,,,,,,,,,,,,,,,,,,,,,,,,,,,,,,,,,,,,,,,,,,,,,,
1768918377.843027,1768918377.843558,62.0,0.0,4326.538574,4312.692383,4340.897461,4326.922852,4324.615234,4318.717773,4308.589844,4329.230957,4309.102539,4296.153809,4508.077148,4506.153809,4409.487305,4450.641113,,,,,,,,,,,,,,,,,,,,,,,,,,,,,,,,,,,,,,,,,,,,,,,,,,,,,,,,,,,,,,,,,,,,,,
1768918377.850836,1768918377.851366,63.0,0.0,4327.692383,4314.487305,4344.102539,4334.487305,4326.410156,4329.743652,4318.589844,4331.025879,4308.717773,4295.641113,4509.487305,4506.282227,4411.666504,4455.512695,,,,,,,,,,,,,,,,,,,,,,,,,,,,,,,,,,,,,,,,,,,,,,,,,,,,,,,,,,,,,,,,,,,,,,
1768918377.858645,1768918377.859373,64.0,0.0,4328.846191,4318.589844,4347.94873,4340.512695,4324.230957,4327.94873,4321.794922,4331.794922,4310.769043,4296.794922,4514.102539,4513.461426,4417.692383,4462.820313,0.415416,0.437553,0.225071,0.440248,0.176326,0.426542,0.336812,0.282422,0.181527,0.155157,0.989247,0.280621,0.268464,0.262544,0.112487,0.202089,0.340124,0.136475,0.130242,0.103089,0.373104,0.13654,0.165342,0.102194,0.086436,0.318844,0.170084,0.088212,0.154811,0.088938,0.384346,0.204516,0.117252,0.288647,0.164784,0.633532,0.596416,0.31696,0.182567,0.182102,0.896146,0.392005,0.467668,0.136839,0.116651,0.566107,0.556894,0.459181,0.251549,0.112115,1.122349,1.055034,0.701924,0.445941,0.18126,1.626554,1.244385,0.603276,0.327476,0.185706,1.15249,0.577042,0.372509,0.514776,0.301993,1.059632,0.810432,0.250582,0.512155,0.177832
1768918377.866453,1768918377.867181,65.0,0.0,4334.102539,4320.769043,4352.179688,4342.820313,4325.897461,4326.153809,4318.205078,4331.666504,4312.820313,4301.794922,4520.128418,4522.05127,4418.205078,4460.0,,,,,,,,,,,,,,,,,,,,,,,,,,,,,,,,,,,,,,,,,,,,,,,,,,,,,,,,,,,,,,,,,,,,,,
1768918377.874262,1768918377.874889,66.0,0.0,4340.769043,4322.820313,4356.025879,4344.615234,4331.666504,4325.512695,4310.0,4332.307617,4313.461426,4306.922852,4522.820313,4526.666504,4419.102539,4460.641113,,,,,,,,,,,,,,,,,,,,,,,,,,,,,,,,,,,,,,,,,,,,,,,,,,,,,,,,,,,,,,,,,,,,,,
1768918377.88207,1768918377.882697,67.0,0.0,4340.512695,4326.025879,4354.102539,4344.743652,4329.743652,4321.922852,4307.692383,4331.922852,4312.94873,4308.974121,4522.307617,4525.256348,4422.563965,4470.384766,,,,,,,,,,,,,,,,,,,,,,,,,,,,,,,,,,,,,,,,,,,,,,,,,,,,,,,,,,,,,,,,,,,,,,
1768918377.889879,1768918377.890705,68.0,0.0,4336.282227,4328.077148,4350.641113,4343.333496,4327.436035,4322.179688,4312.05127,4329.743652,4315.769043,4308.717773,4522.820313,4523.974121,4424.871582,4472.692383,,,,,,,,,,,,,,,,,,,,,,,,,,,,,,,,,,,,,,,,,,,,,,,,,,,,,,,,,,,,,,,,,,,,,,
1768918377.897687,1768918377.898513,69.0,0.0,4336.282227,4327.307617,4353.974121,4342.820313,4333.461426,4321.666504,4311.794922,4333.717773,4326.538574,4310.769043,4525.128418,4525.897461,4426.922852,4472.94873,,,,,,,,,,,,,,,,,,,,,,,,,,,,,,,,,,,,,,,,,,,,,,,,,,,,,,,,,,,,,,,,,,,,,,
1768918377.905496,1768918377.906421,70.0,0.0,4338.589844,4326.922852,4358.077148,4343.333496,4339.743652,4322.94873,4309.615234,4336.282227,4327.94873,4311.922852,4525.128418,4526.410156,4423.589844,4471.410156,,,,,,,,,,,,,,,,,,,,,,,,,,,,,,,,,,,,,,,,,,,,,,,,,,,,,,,,,,,,,,,,,,,,,,
1768918377.913304,1768918377.914229,71.0,0.0,4339.487305,4325.512695,4356.282227,4343.717773,4338.077148,4327.94873,4315.641113,4329.871582,4319.743652,4310.0,4523.717773,4524.230957,4414.871582,4463.846191,,,,,,,,,,,,,,,,,,,,,,,,,,,,,,,,,,,,,,,,,,,,,,,,,,,,,,,,,,,,,,,,,,,,,,
1768918377.921113,1768918377.922237,72.0,0.0,4340.641113,4326.666504,4351.410156,4343.461426,4334.871582,4327.563965,4321.538574,4325.769043,4317.179688,4308.589844,4522.563965,4520.641113,4411.538574,4464.743652,,,,,,,,,,,,,,,,,,,,,,,,,,,,,,,,,,,,,,,,,,,,,,,,,,,,,,,,,,,,,,,,,,,,,,
1768918377.928921,1768918377.930045,73.0,0.0,4337.94873,4328.205078,4348.974121,4344.358887,4339.230957,4324.487305,4321.538574,4329.871582,4319.871582,4308.077148,4521.538574,4520.769043,4414.102539,4472.05127,,,,,,,,,,,,,,,,,,,,,,,,,,,,,,,,,,,,,,,,,,,,,,,,,,,,,,,,,,,,,,,,,,,,,,
1768918377.93673,1768918377.937753,74.0,0.0,4326.666504,4317.820313,4345.256348,4340.384766,4340.512695,4327.179688,4320.641113,4336.025879,4321.025879,4306.410156,4521.794922,4521.666504,4412.94873,4465.769043,,,,,,,,,,,,,,,,,,,,,,,,,,,,,,,,,,,,,,,,,,,,,,,,,,,,,,,,,,,,,,,,,,,,,,
1768918377.944538,1768918377.945561,75.0,0.0,4320.512695,4307.436035,4340.256348,4331.153809,4330.769043,4325.0,4316.153809,4336.025879,4321.153809,4306.922852,4523.333496,4519.743652,4410.256348,4454.871582,,,,,,,,,,,,,,,,,,,,,,,,,,,,,,,,,,,,,,,,,,,,,,,,,,,,,,,,,,,,,,,,,,,,,,
1768918377.952347,1768918377.953569,76.0,0.0,4332.05127,4319.102539,4345.641113,4336.666504,4327.05127,4318.205078,4309.743652,4333.205078,4324.230957,4309.743652,4523.717773,4520.512695,4414.102539,4461.666504,,,,,,,,,,,,,,,,,,,,,,,,,,,,,,,,,,,,,,,,,,,,,,,,,,,,,,,,,,,,,,,,,,,,,,
1768918377.960155,1768918377.961377,77.0,0.0,4345.512695,4335.384766,4353.717773,4349.102539,4335.256348,4318.717773,4307.820313,4329.615234,4322.307617,4309.358887,4521.025879,4523.077148,4417.94873,4468.717773,,,,,,,,,,,,,,,,,,,,,,,,,,,,,,,,,,,,,,,,,,,,,,,,,,,,,,,,,,,,,,,,,,,,,,
1768918377.967964,1768918377.969086,78.0,0.0,4345.0,4330.897461,4350.128418,4344.743652,4334.487305,4319.743652,4309.230957,4326.153809,4314.358887,4307.05127,4517.820313,4518.717773,4411.666504,4460.897461,,,,,,,,,,,,,,,,,,,,,,,,,,,,,,,,,,,,,,,,,,,,,,,,,,,,,,,,,,,,,,,,,,,,,,
1768918377.975772,1768918377.976893,79.0,0.0,4339.743652,4323.077148,4349.743652,4341.153809,4330.256348,4318.589844,4310.641113,4331.025879,4314.615234,4308.205078,4518.846191,4518.205078,4411.025879,4460.0,,,,,,,,,,,,,,,,,,,,,,,,,,,,,,,,,,,,,,,,,,,,,,,,,,,,,,,,,,,,,,,,,,,,,,
1768918377.983581,1768918377.984502,80.0,0.0,4342.820313,4330.897461,4361.538574,4352.436035,4338.846191,4323.461426,4312.563965,4336.922852,4320.897461,4312.94873,4524.871582,4527.94873,4425.512695,4475.128418,0.440832,0.375184,0.218021,0.417429,0.178033,0.430367,0.337964,0.271131,0.17073,0.159293,0.991518,0.272334,0.283021,0.242941,0.112958,0.218101,0.312129,0.133136,0.131448,0.100206,0.357925,0.150453,0.160689,0.10944,0.090002,0.260013,0.196291,0.081762,0.144086,0.091944,0.45948,0.258136,0.116542,0.27799,0.160321,0.77568,0.645186,0.333231,0.184342,0.175451,0.937943,0.438337,0.43335,0.141391,0.12225,0.613049,0.595007,0.487041,0.234285,0.111093,1.226502,1.073294,0.724858,0.40157,0.166937,1.868519,1.345867,0.63972,0.329912,0.173294,1.13128,0.635425,0.388354,0.463928,0.323887,1.06399,0.787608,0.272057,0.488537,0.167321
1768918377.991389,1768918377.99231,81.0,0.0,4344.743652,4336.922852,4362.179688,4352.820313,4343.461426,4327.692383,4311.922852,4335.384766,4321.922852,4314.102539,4528.077148,4528.461426,4427.05127,4478.846191,,,,,,,,,,,,,,,,,,,,,,,,,,,,,,,,,,,,,,,,,,,,,,,,,,,,,,,,,,,,,,,,,,,,,,
1768918377.999198,1768918378.000018,82.0,0.0,4337.692383,4331.410156,4350.384766,4341.410156,4337.05127,4325.256348,4312.307617,4337.179688,4318.333496,4306.794922,4518.589844,4520.128418,4411.922852,4461.410156,,,,,,,,,,,,,,,,,,,,,,,,,,,,,,,,,,,,,,,,,,,,,,,,,,,,,,,,,,,,,,,,,,,,,,
1768918378.007006,1768918378.007826,83.0,0.0,4336.153809,4325.769043,4350.384766,4342.05127,4334.871582,4324.230957,4314.743652,4338.461426,4314.102539,4299.102539,4509.615234,4517.94873,4408.974121,4453.846191,,,,,,,,,,,,,,,,,,,,,,,,,,,,,,,,,,,,,,,,,,,,,,,,,,,,,,,,,,,,,,,,,,,,,,
1768918378.014815,1768918378.015833,84.0,0.0,4340.384766,4326.666504,4352.820313,4345.897461,4339.358887,4327.692383,4316.282227,4330.512695,4312.436035,4301.282227,4515.769043,4517.94873,4416.282227,4463.077148,,,,,,,,,,,,,,,,,,,,,,,,,,,,,,,,,,,,,,,,,,,,,,,,,,,,,,,,,,,,,,,,,,,,,,
1768918378.022623,1768918378.023641,85.0,0.0,4340.384766,4326.922852,4344.871582,4342.563965,4334.743652,4324.615234,4312.94873,4331.282227,4318.205078,4308.589844,4524.358887,4518.205078,4415.512695,4467.820313,,,,,,,,,,,,,,,,,,,,,,,,,,,,,,,,,,,,,,,,,,,,,,,,,,,,,,,,,,,,,,,,,,,,,,
1768918378.030432,1768918378.031549,86.0,0.0,4336.794922,4323.077148,4339.871582,4341.025879,4325.256348,4317.307617,4308.846191,4339.871582,4321.282227,4304.871582,4520.641113,4517.820313,4411.410156,4464.102539,,,,,,,,,,,,,,,,,,,,,,,,,,,,,,,,,,,,,,,,,,,,,,,,,,,,,,,,,,,,,,,,,,,,,,
1768918378.03824,1768918378.039357,87.0,0.0,4339.615234,4326.538574,4347.05127,4343.846191,4331.538574,4322.05127,4319.871582,4336.538574,4318.205078,4296.666504,4517.179688,4519.871582,4411.922852,4460.641113,,,,,,,,,,,,,,,,,,,,,,,,,,,,,,,,,,,,,,,,,,,,,,,,,,,,,,,,,,,,,,,,,,,,,,
1768918378.046049,1768918378.047365,88.0,0.0,4341.922852,4333.077148,4353.077148,4344.487305,4343.461426,4330.897461,4329.743652,4333.461426,4319.615234,4302.179688,4519.615234,4524.487305,4414.487305,4462.436035,,,,,,,,,,,,,,,,,,,,,,,,,,,,,,,,,,,,,,,,,,,,,,,,,,,,,,,,,,,,,,,,,,,,,,
1768918378.053857,1768918378.055173,89.0,0.0,4332.692383,4329.871582,4345.769043,4341.282227,4337.179688,4321.153809,4314.615234,4337.94873,4317.563965,4305.0,4515.512695,4519.230957,4412.436035,4461.282227,,,,,,,,,,,,,,,,,,,,,,,,,,,,,,,,,,,,,,,,,,,,,,,,,,,,,,,,,,,,,,,,,,,,,,
1768918378.061666,1768918378.063081,90.0,0.0,4324.615234,4323.846191,4339.102539,4339.743652,4324.487305,4308.461426,4301.410156,4337.436035,4311.922852,4295.897461,4508.846191,4510.897461,4407.563965,4455.256348,,,,,,,,,,,,,,,,,,,,,,,,,,,,,,,,,,,,,,,,,,,,,,,,,,,,,,,,,,,,,,,,,,,,,,
1768918378.069474,1768918378.070889,91.0,0.0,4331.538574,4326.666504,4344.358887,4341.666504,4323.205078,4314.871582,4311.410156,4336.025879,4309.871582,4296.153809,4507.94873,4513.974121,4406.153809,4457.179688,,,,,,,,,,,,,,,,,,,,,,,,,,,,,,,,,,,,,,,,,,,,,,,,,,,,,,,,,,,,,,,,,,,,,,
1768918378.077283,1768918378.078497,92.0,0.0,4336.666504,4326.153809,4350.641113,4343.461426,4331.025879,4325.0,4315.384766,4336.794922,4311.538574,4304.743652,4512.179688,4521.282227,4408.205078,4462.563965,,,,,,,,,,,,,,,,,,,,,,,,,,,,,,,,,,,,,,,,,,,,,,,,,,,,,,,,,,,,,,,,,,,,,,
1768918378.085091,1768918378.086305,93.0,0.0,4329.615234,4321.282227,4352.820313,4342.436035,4336.410156,4323.717773,4310.512695,4337.563965,4319.230957,4308.717773,4520.897461,4522.563965,4409.487305,4458.974121,,,,,,,,,,,,,,,,,,,,,,,,,,,,,,,,,,,,,,,,,,,,,,,,,,,,,,,,,,,,,,,,,,,,,,
1768918378.0929,1768918378.094013,94.0,0.0,4331.666504,4329.487305,4350.641113,4342.436035,4331.153809,4320.641113,4315.512695,4340.769043,4323.333496,4307.820313,4521.666504,4519.615234,4411.922852,4458.589844,,,,,,,,,,,,,,,,,,,,,,,,,,,,,,,,,,,,,,,,,,,,,,,,,,,,,,,,,,,,,,,,,,,,,,
1768918378.100708,1768918378.101821,95.0,0.0,4342.05127,4335.128418,4345.0,4344.358887,4324.102539,4320.641113,4316.282227,4343.461426,4315.128418,4301.538574,4510.384766,4519.358887,4412.692383,4466.666504,,,,,,,,,,,,,,,,,,,,,,,,,,,,,,,,,,,,,,,,,,,,,,,,,,,,,,,,,,,,,,,,,,,,,,
1768918378.108517,1768918378.109429,96.0,0.0,4341.666504,4328.846191,4345.384766,4344.487305,4325.897461,4319.615234,4310.769043,4338.717773,4309.230957,4295.384766,4503.974121,4519.615234,4404.102539,4467.05127,0.483152,0.313857,0.210361,0.386059,0.171635,0.509027,0.33446,0.261607,0.177113,0.158882,0.995882,0.267084,0.296751,0.22677,0.110933,0.261534,0.280155,0.141217,0.147537,0.105887,0.354083,0.163174,0.151427,0.115047,0.093143,0.223595,0.217892,0.085686,0.134535,0.099459,0.665963,0.32826,0.151412,0.278463,0.160313,0.881236,0.696087,0.341803,0.178189,0.171683,0.958942,0.475485,0.381237,0.142105,0.13018,0.692691,0.597997,0.482671,0.21805,0.106351,1.301711,0.995241,0.685908,0.337158,0.153163,2.032471,1.338506,0.631722,0.324507,0.171151,1.131397,0.653325,0.427498,0.426536,0.330178,1.085449,0.695466,0.296411,0.466972,0.163502
1768918378.116326,1768918378.117237,97.0,0.0,4339.871582,4330.769043,4348.333496,4343.717773,4325.512695,4316.666504,4311.282227,4329.871582,4311.538574,4295.897461,4507.179688,4513.974121,4399.102539,4458.846191,,,,,,,,,,,,,,,,,,,,,,,,,,,,,,,,,,,,,,,,,,,,,,,,,,,,,,,,,,,,,,,,,,,,,,
1768918378.124134,1768918378.124945,98.0,0.0,4342.563965,4336.153809,4347.307617,4343.846191,4317.820313,4316.282227,4310.256348,4326.666504,4311.025879,4297.436035,4508.717773,4511.922852,4406.025879,4458.589844,,,,,,,,,,,,,,,,,,,,,,,,,,,,,,,,,,,,,,,,,,,,,,,,,,,,,,,,,,,,,,,,,,,,,,
1768918378.131942,1768918378.132753,99.0,0.0,4341.153809,4329.102539,4348.461426,4343.205078,4319.487305,4322.94873,4310.769043,4331.922852,4311.794922,4300.641113,4509.102539,4522.94873,4408.205078,4463.461426,,,,,,,,,,,,,,,,,,,,,,,,,,,,,,,,,,,,,,,,,,,,,,,,,,,,,,,,,,,,,,,,,,,,,,
1768918378.139751,1768918378.140761,100.0,0.0,4339.871582,4326.153809,4349.871582,4342.436035,4325.512695,4322.692383,4312.820313,4334.615234,4314.871582,4307.820313,4509.743652,4525.769043,4403.461426,4461.666504,,,,,,,,,,,,,,,,,,,,,,,,,,,,,,,,,,,,,,,,,,,,,,,,,,,,,,,,,,,,,,,,,,,,,,
1768918378.14756,1768918378.148569,101.0,0.0,4342.179688,4331.410156,4343.205078,4342.179688,4324.615234,4313.461426,4302.05127,4330.769043,4312.820313,4308.077148,4509.102539,4515.641113,4402.563965,4457.436035,,,,,,,,,,,,,,,,,,,,,,,,,,,,,,,,,,,,,,,,,,,,,,,,,,,,,,,,,,,,,,,,,,,,,,
1768918378.155368,1768918378.156478,102.0,0.0,4339.487305,4327.94873,4338.589844,4341.282227,4320.897461,4312.820313,4294.487305,4330.128418,4311.282227,4300.769043,4509.615234,4514.615234,4401.538574,4458.077148,,,,,,,,,,,,,,,,,,,,,,,,,,,,,,,,,,,,,,,,,,,,,,,,,,,,,,,,,,,,,,,,,,,,,,
1768918378.163176,1768918378.164286,103.0,0.0,4337.820313,4324.743652,4342.179688,4340.769043,4319.615234,4319.615234,4303.974121,4333.589844,4313.205078,4299.615234,4509.615234,4521.794922,4398.333496,4461.282227,,,,,,,,,,,,,,,,,,,,,,,,,,,,,,,,,,,,,,,,,,,,,,,,,,,,,,,,,,,,,,,,,,,,,,
1768918378.170985,1768918378.171894,104.0,0.0,4339.358887,4327.563965,4342.692383,4341.025879,4322.436035,4323.205078,4309.871582,4334.743652,4314.743652,4302.05127,4508.717773,4520.256348,4399.743652,4458.717773,,,,,,,,,,,,,,,,,,,,,,,,,,,,,,,,,,,,,,,,,,,,,,,,,,,,,,,,,,,,,,,,,,,,,,
1768918378.178794,1768918378.179702,105.0,0.0,4339.230957,4327.179688,4341.922852,4342.436035,4326.538574,4325.384766,4308.205078,4333.717773,4311.922852,4299.358887,4509.615234,4514.743652,4400.384766,4452.820313,,,,,,,,,,,,,,,,,,,,,,,,,,,,,,,,,,,,,,,,,,,,,,,,,,,,,,,,,,,,,,,,,,,,,,
1768918378.186602,1768918378.18741,106.0,0.0,4340.0,4325.897461,4345.0,4344.230957,4327.179688,4326.922852,4311.282227,4333.974121,4311.153809,4295.769043,4508.589844,4516.538574,4398.974121,4449.871582,,,,,,,,,,,,,,,,,,,,,,,,,,,,,,,,,,,,,,,,,,,,,,,,,,,,,,,,,,,,,,,,,,,,,,
1768918378.19441,1768918378.195218,107.0,0.0,4340.769043,4323.717773,4348.846191,4344.102539,4322.820313,4322.563965,4309.358887,4337.692383,4318.077148,4298.846191,4507.436035,4523.077148,4398.205078,4445.384766,,,,,,,,,,,,,,,,,,,,,,,,,,,,,,,,,,,,,,,,,,,,,,,,,,,,,,,,,,,,,,,,,,,,,,
1768918378.202219,1768918378.203226,108.0,0.0,4343.205078,4321.538574,4353.077148,4343.333496,4325.256348,4322.94873,4309.358887,4340.256348,4320.384766,4304.615234,4509.871582,4525.641113,4401.025879,4443.077148,,,,,,,,,,,,,,,,,,,,,,,,,,,,,,,,,,,,,,,,,,,,,,,,,,,,,,,,,,,,,,,,,,,,,,
1768918378.210028,1768918378.211034,109.0,0.0,4341.153809,4321.666504,4355.384766,4345.0,4327.563965,4328.974121,4321.922852,4337.820313,4313.461426,4302.179688,4510.512695,4524.487305,4404.487305,4446.538574,,,,,,,,,,,,,,,,,,,,,,,,,,,,,,,,,,,,,,,,,,,,,,,,,,,,,,,,,,,,,,,,,,,,,,
1768918378.217836,1768918378.218941,110.0,0.0,4332.307617,4317.94873,4350.256348,4342.94873,4318.333496,4320.512695,4314.743652,4331.666504,4309.487305,4296.410156,4507.307617,4522.692383,4400.769043,4447.307617,,,,,,,,,,,,,,,,,,,,,,,,,,,,,,,,,,,,,,,,,,,,,,,,,,,,,,,,,,,,,,,,,,,,,,
1768918378.225644,1768918378.226749,111.0,0.0,4328.461426,4310.641113,4342.436035,4336.025879,4313.333496,4306.922852,4290.641113,4323.717773,4309.743652,4294.358887,4503.717773,4515.0,4395.128418,4442.179688,,,,,,,,,,,,,,,,,,,,,,,,,,,,,,,,,,,,,,,,,,,,,,,,,,,,,,,,,,,,,,,,,,,,,,
1768918378.233453,1768918378.234757,112.0,0.0,4330.384766,4308.077148,4341.153809,4336.410156,4319.358887,4312.436035,4294.487305,4328.077148,4313.333496,4293.589844,4503.461426,4509.871582,4395.128418,4437.94873,0.53402,0.273412,0.219078,0.354302,0.161998,0.664834,0.346099,0.251151,0.199621,0.155618,0.990529,0.27025,0.314685,0.219812,0.110249,0.331215,0.268695,0.163785,0.178941,0.119147,0.371893,0.173047,0.138203,0.11841,0.09622,0.206222,0.23174,0.099166,0.128807,0.110227,0.945747,0.390351,0.22114,0.290234,0.163854,0.911925,0.722537,0.342798,0.168231,0.174469,0.945701,0.480534,0.310392,0.142304,0.137156,0.787342,0.558382,0.434919,0.209323,0.100735,1.323809,0.856153,0.58843,0.274325,0.142388,2.06216,1.250319,0.588419,0.314827,0.175422,1.124901,0.629473,0.465514,0.419159,0.321965,1.105947,0.574383,0.321131,0.455736,0.167435
1768918378.241262,1768918378.242565,113.0,0.0,4328.077148,4307.05127,4342.563965,4343.077148,4323.461426,4324.615234,4315.256348,4338.717773,4319.487305,4295.897461,4506.538574,4513.974121,4396.922852,4438.717773,,,,,,,,,,,,,,,,,,,,,,,,,,,,,,,,,,,,,,,,,,,,,,,,,,,,,,,,,,,,,,,,,,,,,,
1768918378.24907,1768918378.250473,114.0,0.0,4325.641113,4306.922852,4341.538574,4344.102539,4320.128418,4321.410156,4311.538574,4336.153809,4320.256348,4299.871582,4508.077148,4515.512695,4399.230957,4441.538574,,,,,,,,,,,,,,,,,,,,,,,,,,,,,,,,,,,,,,,,,,,,,,,,,,,,,,,,,,,,,,,,,,,,,,
1768918378.256879,1768918378.258281,115.0,0.0,4328.974121,4309.358887,4342.179688,4340.512695,4314.615234,4315.512695,4305.0,4331.538574,4319.358887,4303.077148,4508.974121,4518.077148,4402.94873,4442.94873,,,,,,,,,,,,,,,,,,,,,,,,,,,,,,,,,,,,,,,,,,,,,,,,,,,,,,,,,,,,,,,,,,,,,,
1768918378.264687,1768918378.265989,116.0,0.0,4328.205078,4306.922852,4343.205078,4340.512695,4314.743652,4316.153809,4311.666504,4333.846191,4321.794922,4304.743652,4510.0,4521.153809,4399.615234,4442.820313,,,,,,,,,,,,,,,,,,,,,,,,,,,,,,,,,,,,,,,,,,,,,,,,,,,,,,,,,,,,,,,,,,,,,,
1768918378.272496,1768918378.273797,117.0,0.0,4324.871582,4302.94873,4340.512695,4343.077148,4320.769043,4312.692383,4306.153809,4332.94873,4322.05127,4307.436035,4507.436035,4514.358887,4398.846191,4443.205078,,,,,,,,,,,,,,,,,,,,,,,,,,,,,,,,,,,,,,,,,,,,,,,,,,,,,,,,,,,,,,,,,,,,,,
1768918378.280304,1768918378.281505,118.0,0.0,4327.563965,4307.692383,4338.589844,4345.128418,4324.743652,4308.846191,4298.846191,4332.692383,4323.333496,4310.0,4511.666504,4510.641113,4409.230957,4446.410156,,,,,,,,,,,,,,,,,,,,,,,,,,,,,,,,,,,,,,,,,,,,,,,,,,,,,,,,,,,,,,,,,,,,,,
1768918378.288113,1768918378.289313,119.0,0.0,4328.974121,4310.256348,4341.538574,4343.974121,4323.974121,4315.897461,4311.410156,4337.436035,4326.794922,4310.641113,4521.410156,4521.025879,4415.512695,4448.333496,,,,,,,,,,,,,,,,,,,,,,,,,,,,,,,,,,,,,,,,,,,,,,,,,,,,,,,,,,,,,,,,,,,,,,
1768918378.295921,1768918378.296921,120.0,0.0,4325.897461,4303.974121,4344.615234,4340.897461,4320.512695,4321.410156,4316.794922,4338.846191,4323.974121,4310.769043,4517.820313,4520.384766,4410.384766,4446.153809,,,,,,,,,,,,,,,,,,,,,,,,,,,,,,,,,,,,,,,,,,,,,,,,,,,,,,,,,,,,,,,,,,,,,,
1768918378.30373,1768918378.304729,121.0,0.0,4329.871582,4305.256348,4343.717773,4341.153809,4314.871582,4313.205078,4298.974121,4334.871582,4317.692383,4307.94873,4507.94873,4506.794922,4409.102539,4451.538574,,,,,,,,,,,,,,,,,,,,,,,,,,,,,,,,,,,,,,,,,,,,,,,,,,,,,,,,,,,,,,,,,,,,,,
1768918378.311538,1768918378.312437,122.0,0.0,4340.769043,4316.922852,4340.641113,4343.205078,4314.871582,4304.230957,4289.358887,4330.641113,4311.410156,4303.717773,4507.307617,4505.897461,4412.307617,4456.410156,,,,,,,,,,,,,,,,,,,,,,,,,,,,,,,,,,,,,,,,,,,,,,,,,,,,,,,,,,,,,,,,,,,,,,
1768918378.319347,1768918378.320245,123.0,0.0,4341.794922,4319.102539,4337.692383,4342.692383,4320.384766,4307.563965,4296.153809,4327.05127,4308.846191,4301.922852,4510.0,4509.615234,4406.153809,4451.025879,,,,,,,,,,,,,,,,,,,,,,,,,,,,,,,,,,,,,,,,,,,,,,,,,,,,,,,,,,,,,,,,,,,,,,
1768918378.327155,1768918378.328253,124.0,0.0,4337.179688,4312.820313,4338.461426,4343.461426,4321.025879,4313.589844,4298.461426,4328.461426,4316.666504,4307.179688,4512.563965,4511.410156,4404.743652,4451.794922,,,,,,,,,,,,,,,,,,,,,,,,,,,,,,,,,,,,,,,,,,,,,,,,,,,,,,,,,,,,,,,,,,,,,,
1768918378.334964,1768918378.336062,125.0,0.0,4336.153809,4310.897461,4338.589844,4347.179688,4320.641113,4311.794922,4294.487305,4329.102539,4319.871582,4311.538574,4513.974121,4515.897461,4412.94873,4459.102539,,,,,,,,,,,,,,,,,,,,,,,,,,,,,,,,,,,,,,,,,,,,,,,,,,,,,,,,,,,,,,,,,,,,,,
1768918378.342772,1768918378.34377,126.0,0.0,4328.333496,4308.846191,4330.0,4345.0,4319.487305,4310.512695,4294.358887,4324.487305,4311.794922,4302.820313,4505.769043,4505.384766,4407.179688,4451.538574,,,,,,,,,,,,,,,,,,,,,,,,,,,,,,,,,,,,,,,,,,,,,,,,,,,,,,,,,,,,,,,,,,,,,,
1768918378.350581,1768918378.351578,127.0,0.0,4317.692383,4305.384766,4322.436035,4338.589844,4315.512695,4312.820313,4298.846191,4322.179688,4308.974121,4293.846191,4501.794922,4488.846191,4394.743652,4435.128418,,,,,,,,,,,,,,,,,,,,,,,,,,,,,,,,,,,,,,,,,,,,,,,,,,,,,,,,,,,,,,,,,,,,,,
1768918378.358389,1768918378.359585,0.0,0.0,4319.871582,4306.153809,4327.179688,4337.05127,4311.922852,4312.307617,4300.897461,4323.846191,4314.102539,4296.282227,4508.333496,4496.794922,4396.410156,4435.897461,0.594347,0.269035,0.254005,0.332067,0.15541,0.868468,0.388627,0.243066,0.22811,0.154252,0.968153,0.288472,0.336747,0.223642,0.114433,0.420276,0.294311,0.19757,0.217704,0.137504,0.407842,0.180482,0.126079,0.11969,0.100582,0.196926,0.235092,0.120468,0.127714,0.122668,1.202563,0.427387,0.311848,0.30594,0.170257,0.855021,0.71059,0.336555,0.160167,0.183523,0.878062,0.451306,0.232873,0.147131,0.140213,0.862862,0.498625,0.359054,0.210359,0.097133,1.278386,0.708588,0.464379,0.230427,0.136621,1.933129,1.125182,0.532383,0.304721,0.182014,1.080731,0.580251,0.492131,0.43828,0.30507,1.11271,0.471374,0.349393,0.451202,0.18031
1768918378.366198,1768918378.367393,1.0,0.0,4322.436035,4303.333496,4329.102539,4334.358887,4309.230957,4314.615234,4306.666504,4328.077148,4317.563965,4295.641113,4502.436035,4506.025879,4396.538574,4438.717773,,,,,,,,,,,,,,,,,,,,,,,,,,,,,,,,,,,,,,,,,,,,,,,,,,,,,,,,,,,,,,,,,,,,,,
1768918378.374006,1768918378.375101,2.0,0.0,4321.282227,4302.692383,4325.0,4331.282227,4313.461426,4316.794922,4311.410156,4328.461426,4317.307617,4292.692383,4493.717773,4493.077148,4393.974121,4436.153809,,,,,,,,,,,,,,,,,,,,,,,,,,,,,,,,,,,,,,,,,,,,,,,,,,,,,,,,,,,,,,,,,,,,,,
1768918378.381815,1768918378.382909,3.0,0.0,4329.230957,4314.487305,4331.794922,4337.05127,4323.717773,4314.743652,4308.846191,4332.563965,4325.769043,4305.0,4508.589844,4496.538574,4406.153809,4446.666504,,,,,,,,,,,,,,,,,,,,,,,,,,,,,,,,,,,,,,,,,,,,,,,,,,,,,,,,,,,,,,,,,,,,,,
1768918378.389623,1768918378.390518,4.0,0.0,4334.230957,4318.846191,4340.641113,4342.307617,4322.179688,4316.922852,4310.384766,4344.743652,4334.615234,4317.94873,4523.589844,4516.794922,4418.589844,4458.589844,,,,,,,,,,,,,,,,,,,,,,,,,,,,,,,,,,,,,,,,,,,,,,,,,,,,,,,,,,,,,,,,,,,,,,
1768918378.397432,1768918378.398325,5.0,0.0,4332.436035,4312.05127,4340.384766,4339.230957,4315.897461,4319.230957,4310.897461,4336.153809,4322.563965,4310.128418,4514.871582,4515.512695,4414.743652,4451.666504,,,,,,,,,,,,,,,,,,,,,,,,,,,,,,,,,,,,,,,,,,,,,,,,,,,,,,,,,,,,,,,,,,,,,,
1768918378.40524,1768918378.406034,6.0,0.0,4333.717773,4310.641113,4337.820313,4339.230957,4317.436035,4311.538574,4297.307617,4321.794922,4308.333496,4297.179688,4505.128418,4505.128418,4406.538574,4441.922852,,,,,,,,,,,,,,,,,,,,,,,,,,,,,,,,,,,,,,,,,,,,,,,,,,,,,,,,,,,,,,,,,,,,,,
1768918378.413049,1768918378.413842,7.0,0.0,4333.077148,4312.05127,4336.922852,4343.974121,4314.743652,4309.871582,4290.128418,4325.0,4312.563965,4295.128418,4506.922852,4504.871582,4402.563965,4446.538574,,,,,,,,,,,,,,,,,,,,,,,,,,,,,,,,,,,,,,,,,,,,,,,,,,,,,,,,,,,,,,,,,,,,,,
1768918378.420857,1768918378.421849,8.0,0.0,4325.897461,4310.384766,4335.641113,4343.589844,4308.205078,4320.897461,4303.461426,4322.307617,4315.128418,4297.307617,4506.666504,4500.897461,4401.410156,4447.692383,,,,,,,,,,,,,,,,,,,,,,,,,,,,,,,,,,,,,,,,,,,,,,,,,,,,,,,,,,,,,,,,,,,,,,
1768918378.428666,1768918378.429657,9.0,0.0,4321.794922,4311.153809,4331.410156,4340.769043,4314.358887,4324.230957,4311.794922,4312.563965,4310.384766,4298.333496,4506.666504,4500.128418,4402.436035,4442.820313,,,,,,,,,,,,,,,,,,,,,,,,,,,,,,,,,,,,,,,,,,,,,,,,,,,,,,,,,,,,,,,,,,,,,,
1768918378.436474,1768918378.437565,10.0,0.0,4325.128418,4312.820313,4330.384766,4341.538574,4322.436035,4320.897461,4308.974121,4324.487305,4320.128418,4306.282227,4510.384766,4515.512695,4405.769043,4448.589844,,,,,,,,,,,,,,,,,,,,,,,,,,,,,,,,,,,,,,,,,,,,,,,,,,,,,,,,,,,,,,,,,,,,,,
1768918378.444283,1768918378.445374,11.0,0.0,4326.922852,4310.897461,4336.794922,4342.05127,4321.538574,4322.179688,4308.077148,4338.077148,4328.717773,4312.820313,4510.641113,4523.461426,4405.128418,4456.922852,,,,,,,,,,,,,,,,,,,,,,,,,,,,,,,,,,,,,,,,,,,,,,,,,,,,,,,,,,,,,,,,,,,,,,
1768918378.452091,1768918378.453382,12.0,0.0,4329.102539,4313.974121,4344.102539,4342.563965,4320.512695,4324.743652,4309.358887,4331.794922,4319.487305,4306.794922,4507.692383,4511.538574,4399.102539,4454.102539,,,,,,,,,,,,,,,,,,,,,,,,,,,,,,,,,,,,,,,,,,,,,,,,,,,,,,,,,,,,,,,,,,,,,,
1768918378.4599,1768918378.46119,13.0,0.0,4333.589844,4320.641113,4345.641113,4345.641113,4321.794922,4323.077148,4311.153809,4326.282227,4311.666504,4297.94873,4507.05127,4507.692383,4396.538574,4450.769043,,,,,,,,,,,,,,,,,,,,,,,,,,,,,,,,,,,,,,,,,,,,,,,,,,,,,,,,,,,,,,,,,,,,,,
1768918378.467708,1768918378.469098,14.0,0.0,4334.102539,4318.461426,4340.128418,4345.769043,4320.128418,4318.846191,4307.692383,4326.410156,4310.641113,4298.461426,4508.205078,4515.384766,4402.05127,4451.538574,,,,,,,,,,,,,,,,,,,,,,,,,,,,,,,,,,,,,,,,,,,,,,,,,,,,,,,,,,,,,,,,,,,,,,
1768918378.475517,1768918378.476906,15.0,0.0,4328.717773,4312.563965,4331.794922,4340.0,4318.461426,4321.153809,4302.05127,4327.307617,4315.384766,4302.436035,4507.436035,4513.974121,4405.897461,4448.461426,,,,,,,,,,,,,,,,,,,,,,,,,,,,,,,,,,,,,,,,,,,,,,,,,,,,,,,,,,,,,,,,,,,,,,
1768918378.483325,1768918378.484514,16.0,0.0,4323.589844,4312.179688,4331.794922,4338.974121,4315.128418,4327.436035,4308.077148,4332.307617,4322.436035,4303.717773,4507.94873,4513.589844,4403.461426,4449.487305,0.668649,0.30532,0.309272,0.322357,0.155238,1.065653,0.460991,0.239427,0.248505,0.158124,0.924752,0.33186,0.357779,0.234158,0.123848,0.509644,0.353408,0.232035,0.249441,0.156077,0.447597,0.185909,0.118728,0.120276,0.107698,0.187139,0.228299,0.147634,0.131403,0.135742,1.335528,0.436833,0.404385,0.317267,0.181556,0.730903,0.660078,0.323382,0.158398,0.194327,0.765141,0.395916,0.166017,0.160448,0.137929,0.898642,0.440423,0.281915,0.218804,0.096872,1.173201,0.584744,0.349482,0.212032,0.135317,1.687104,0.99923,0.48355,0.296939,0.187045,0.988101,0.52769,0.504802,0.46207,0.284607,1.116098,0.41325,0.375111,0.442577,0.200157
1768918378.491134,1768918378.492322,17.0,0.0,4330.384766,4312.307617,4342.820313,4342.692383,4311.282227,4327.820313,4311.666504,4335.128418,4319.487305,4302.94873,4510.641113,4522.94873,4403.077148,4458.846191,,,,,,,,,,,,,,,,,,,,,,,,,,,,,,,,,,,,,,,,,,,,,,,,,,,,,,,,,,,,,,,,,,,,,,
1768918378.498943,1768918378.50003,18.0,0.0,4337.436035,4310.256348,4343.974121,4341.025879,4309.615234,4319.230957,4299.230957,4328.461426,4309.871582,4299.871582,4509.230957,4520.512695,4402.307617,4456.666504,,,,,,,,,,,,,,,,,,,,,,,,,,,,,,,,,,,,,,,,,,,,,,,,,,,,,,,,,,,,,,,,,,,,,,
1768918378.506751,1768918378.507838,19.0,0.0,4332.05127,4311.025879,4332.436035,4339.358887,4307.94873,4311.794922,4290.897461,4318.461426,4307.179688,4295.128418,4505.384766,4503.333496,4398.461426,4444.615234,,,,,,,,,,,,,,,,,,,,,,,,,,,,,,,,,,,,,,,,,,,,,,,,,,,,,,,,,,,,,,,,,,,,,,
1768918378.514559,1768918378.515446,20.0,0.0,4325.128418,4310.0,4324.358887,4341.794922,4310.641113,4313.077148,4298.205078,4319.487305,4310.897461,4291.538574,4503.333496,4493.589844,4396.666504,4443.205078,,,,,,,,,,,,,,,,,,,,,,,,,,,,,,,,,,,,,,,,,,,,,,,,,,,,,,,,,,,,,,,,,,,,,,
1768918378.522368,1768918378.523254,21.0,0.0,4325.256348,4305.256348,4325.512695,4339.871582,4318.205078,4318.717773,4303.205078,4324.615234,4311.153809,4288.717773,4501.922852,4497.820313,4393.333496,4442.94873,,,,,,,,,,,,,,,,,,,,,,,,,,,,,,,,,,,,,,,,,,,,,,,,,,,,,,,,,,,,,,,,,,,,,,
1768918378.530177,1768918378.530963,22.0,0.0,4329.358887,4305.512695,4334.743652,4338.333496,4321.666504,4323.846191,4299.743652,4320.128418,4308.974121,4290.769043,4503.333496,4505.897461,4391.666504,4441.410156,,,,,,,,,,,,,,,,,,,,,,,,,,,,,,,,,,,,,,,,,,,,,,,,,,,,,,,,,,,,,,,,,,,,,,
1768918378.537985,1768918378.53877,23.0,0.0,4329.102539,4305.0,4337.820313,4342.307617,4317.94873,4320.384766,4297.05127,4313.077148,4306.666504,4292.436035,4503.589844,4503.205078,4394.743652,4446.410156,,,,,,,,,,,,,,,,,,,,,,,,,,,,,,,,,,,,,,,,,,,,,,,,,,,,,,,,,,,,,,,,,,,,,,
1768918378.545793,1768918378.546778,24.0,0.0,4323.205078,4295.0,4327.563965,4341.282227,4313.717773,4314.358887,4294.743652,4312.179688,4303.333496,4286.538574,4495.384766,4486.666504,4390.384766,4440.897461,,,,,,,,,,,,,,,,,,,,,,,,,,,,,,,,,,,,,,,,,,,,,,,,,,,,,,,,,,,,,,,,,,,,,,
1768918378.553602,1768918378.554587,25.0,0.0,4319.230957,4292.05127,4321.410156,4338.974121,4311.794922,4314.230957,4291.922852,4312.05127,4302.05127,4283.589844,4487.94873,4479.743652,4380.384766,4427.05127,,,,,,,,,,,,,,,,,,,,,,,,,,,,,,,,,,,,,,,,,,,,,,,,,,,,,,,,,,,,,,,,,,,,,,
1768918378.561411,1768918378.562495,26.0,0.0,4323.589844,4304.102539,4326.922852,4347.436035,4310.128418,4316.666504,4293.846191,4311.794922,4302.820313,4288.077148,4489.871582,4488.846191,4381.538574,4430.128418,,,,,,,,,,,,,,,,,,,,,,,,,,,,,,,,,,,,,,,,,,,,,,,,,,,,,,,,,,,,,,,,,,,,,,
1768918378.569219,1768918378.570303,27.0,0.0,4328.846191,4309.230957,4330.512695,4351.666504,4312.692383,4313.205078,4296.794922,4315.256348,4306.153809,4285.128418,4493.333496,4495.641113,4384.743652,4439.230957,,,,,,,,,,,,,,,,,,,,,,,,,,,,,,,,,,,,,,,,,,,,,,,,,,,,,,,,,,,,,,,,,,,,,,
1768918378.577027,1768918378.57831,28.0,0.0,4326.153809,4301.153809,4324.615234,4343.717773,4316.922852,4309.743652,4294.871582,4315.897461,4306.282227,4278.205078,4491.922852,4490.128418,4380.0,4437.05127,,,,,,,,,,,,,,,,,,,,,,,,,,,,,,,,,,,,,,,,,,,,,,,,,,,,,,,,,,,,,,,,,,,,,,
1768918378.584836,1768918378.586118,29.0,0.0,4324.615234,4301.666504,4321.410156,4340.897461,4319.871582,4315.128418,4295.128418,4309.615234,4299.487305,4280.128418,4490.384766,4478.589844,4380.897461,4436.794922,,,,,,,,,,,,,,,,,,,,,,,,,,,,,,,,,,,,,,,,,,,,,,,,,,,,,,,,,,,,,,,,,,,,,,
1768918378.592645,1768918378.593826,30.0,0.0,4324.743652,4306.538574,4325.0,4344.871582,4320.512695,4322.820313,4304.871582,4309.102539,4297.820313,4280.256348,4489.358887,4475.769043,4381.282227,4438.077148,,,,,,,,,,,,,,,,,,,,,,,,,,,,,,,,,,,,,,,,,,,,,,,,,,,,,,,,,,,,,,,,,,,,,,
1768918378.600453,1768918378.601634,31.0,0.0,4323.205078,4301.410156,4326.666504,4343.589844,4322.307617,4325.769043,4312.05127,4320.256348,4307.05127,4278.333496,4488.077148,4483.717773,4378.974121,4436.282227,,,,,,,,,,,,,,,,,,,,,,,,,,,,,,,,,,,,,,,,,,,,,,,,,,,,,,,,,,,,,,,,,,,,,,
1768918378.608261,1768918378.609642,32.0,0.0,4325.0,4298.974121,4323.077148,4340.128418,4322.94873,4322.179688,4308.846191,4327.94873,4314.487305,4289.102539,4497.94873,4495.128418,4390.256348,4442.563965,0.748164,0.374282,0.369373,0.319391,0.159425,1.209482,0.543868,0.240899,0.250316,0.166383,0.852544,0.405586,0.372363,0.244681,0.134827,0.570613,0.42308,0.255419,0.260919,0.168318,0.470264,0.187814,0.114895,0.123267,0.118097,0.174549,0.216008,0.176164,0.140897,0.149111,1.302311,0.43089,0.477808,0.319258,0.201378,0.576102,0.584834,0.304437,0.164107,0.200363,0.63405,0.334135,0.120799,0.183324,0.130769,0.888388,0.394771,0.226505,0.23196,0.099467,1.021839,0.490835,0.267419,0.21497,0.136509,1.365838,0.886714,0.449964,0.292961,0.189635,0.863226,0.490334,0.499311,0.466146,0.26319,1.124286,0.398388,0.38791,0.419054,0.22171
1768918378.61607,1768918378.61745,33.0,0.0,4327.05127,4303.205078,4320.897461,4341.666504,4319.230957,4318.846191,4304.487305,4321.794922,4312.436035,4295.897461,4503.461426,4493.461426,4400.512695,4448.077148,,,,,,,,,,,,,,,,,,,,,,,,,,,,,,,,,,,,,,,,,,,,,,,,,,,,,,,,,,,,,,,,,,,,,,
1768918378.623879,1768918378.625358,34.0,0.0,4325.256348,4306.410156,4327.307617,4346.794922,4322.307617,4324.487305,4311.153809,4317.94873,4309.487305,4290.0,4494.102539,4487.436035,4392.820313,4441.794922,,,,,,,,,,,,,,,,,,,,,,,,,,,,,,,,,,,,,,,,,,,,,,,,,,,,,,,,,,,,,,,,,,,,,,
1768918378.631687,1768918378.633166,35.0,0.0,4325.769043,4308.717773,4335.512695,4351.666504,4328.974121,4323.461426,4313.589844,4326.538574,4310.512695,4287.179688,4494.487305,4497.307617,4389.615234,4440.384766,,,,,,,,,,,,,,,,,,,,,,,,,,,,,,,,,,,,,,,,,,,,,,,,,,,,,,,,,,,,,,,,,,,,,,
1768918378.639495,1768918378.641174,36.0,0.0,4332.94873,4309.743652,4338.846191,4350.897461,4329.102539,4314.743652,4303.077148,4332.05127,4314.871582,4295.641113,4508.589844,4508.205078,4398.846191,4447.179688,,,,,,,,,,,,,,,,,,,,,,,,,,,,,,,,,,,,,,,,,,,,,,,,,,,,,,,,,,,,,,,,,,,,,,
1768918378.647304,1768918378.648982,37.0,0.0,4334.743652,4309.743652,4337.436035,4351.153809,4324.102539,4314.230957,4297.05127,4325.256348,4320.256348,4305.256348,4512.692383,4507.94873,4400.641113,4448.333496,,,,,,,,,,,,,,,,,,,,,,,,,,,,,,,,,,,,,,,,,,,,,,,,,,,,,,,,,,,,,,,,,,,,,,
1768918378.655113,1768918378.65669,38.0,0.0,4329.743652,4312.179688,4335.384766,4356.025879,4321.410156,4320.128418,4302.692383,4316.922852,4317.692383,4304.743652,4507.563965,4506.538574,4395.0,4445.897461,,,,,,,,,,,,,,,,,,,,,,,,,,,,,,,,,,,,,,,,,,,,,,,,,,,,,,,,,,,,,,,,,,,,,,
1768918378.662921,1768918378.664498,39.0,0.0,4330.128418,4310.897461,4337.820313,4352.94873,4321.410156,4320.897461,4306.794922,4316.922852,4311.410156,4297.307617,4508.461426,4505.641113,4395.641113,4446.666504,,,,,,,,,,,,,,,,,,,,,,,,,,,,,,,,,,,,,,,,,,,,,,,,,,,,,,,,,,,,,,,,,,,,,,
1768918378.67073,1768918378.672106,40.0,0.0,4336.282227,4305.641113,4342.436035,4349.102539,4321.794922,4318.077148,4302.820313,4315.897461,4310.256348,4294.615234,4511.025879,4505.128418,4403.205078,4453.589844,,,,,,,,,,,,,,,,,,,,,,,,,,,,,,,,,,,,,,,,,,,,,,,,,,,,,,,,,,,,,,,,,,,,,,
1768918378.678538,1768918378.679914,41.0,0.0,4341.153809,4308.846191,4344.230957,4354.230957,4322.436035,4319.615234,4303.077148,4314.102539,4311.666504,4297.05127,4510.128418,4508.974121,4406.794922,4463.077148,,,,,,,,,,,,,,,,,,,,,,,,,,,,,,,,,,,,,,,,,,,,,,,,,,,,,,,,,,,,,,,,,,,,,,
1768918378.686347,1768918378.687622,42.0,0.0,4337.05127,4310.512695,4342.692383,4354.871582,4320.512695,4323.717773,4309.487305,4318.077148,4311.282227,4296.282227,4507.820313,4510.128418,4400.641113,4458.205078,,,,,,,,,,,,,,,,,,,,,,,,,,,,,,,,,,,,,,,,,,,,,,,,,,,,,,,,,,,,,,,,,,,,,,
1768918378.694155,1768918378.69543,43.0,0.0,4328.717773,4304.743652,4343.077148,4350.769043,4320.897461,4318.974121,4306.538574,4316.025879,4309.230957,4294.102539,4507.563965,4507.94873,4395.128418,4445.641113,,,,,,,,,,,,,,,,,,,,,,,,,,,,,,,,,,,,,,,,,,,,,,,,,,,,,,,,,,,,,,,,,,,,,,
1768918378.701964,1768918378.703038,44.0,0.0,4327.820313,4304.230957,4342.05127,4352.307617,4317.692383,4310.512695,4300.128418,4310.897461,4309.743652,4294.230957,4510.384766,4507.179688,4397.692383,4447.692383,,,,,,,,,,,,,,,,,,,,,,,,,,,,,,,,,,,,,,,,,,,,,,,,,,,,,,,,,,,,,,,,,,,,,,
1768918378.709772,1768918378.710846,45.0,0.0,4332.436035,4306.922852,4336.153809,4350.256348,4309.871582,4314.230957,4304.487305,4319.358887,4316.794922,4297.563965,4508.461426,4505.128418,4398.589844,4452.179688,,,,,,,,,,,,,,,,,,,,,,,,,,,,,,,,,,,,,,,,,,,,,,,,,,,,,,,,,,,,,,,,,,,,,,
1768918378.717581,1768918378.718554,46.0,0.0,4336.538574,4305.128418,4340.641113,4346.794922,4314.487305,4326.666504,4313.461426,4327.563965,4321.282227,4305.641113,4506.410156,4509.743652,4397.05127,4449.615234,,,,,,,,,,,,,,,,,,,,,,,,,,,,,,,,,,,,,,,,,,,,,,,,,,,,,,,,,,,,,,,,,,,,,,
1768918378.725389,1768918378.726362,47.0,0.0,4344.358887,4306.282227,4357.94873,4355.128418,4327.563965,4326.025879,4312.692383,4323.461426,4319.358887,4309.102539,4514.102539,4522.179688,4402.179688,4455.641113,,,,,,,,,,,,,,,,,,,,,,,,,,,,,,,,,,,,,,,,,,,,,,,,,,,,,,,,,,,,,,,,,,,,,,
1768918378.733198,1768918378.73437,48.0,0.0,4345.128418,4309.102539,4361.153809,4357.436035,4325.769043,4317.94873,4308.077148,4326.922852,4321.410156,4305.897461,4523.589844,4527.94873,4406.153809,4464.358887,0.818537,0.457862,0.420578,0.313193,0.161941,1.263069,0.60638,0.247819,0.230707,0.174311,0.763727,0.500731,0.376758,0.250125,0.141969,0.582312,0.471501,0.259153,0.245913,0.168635,0.459693,0.184735,0.114536,0.132094,0.130458,0.165785,0.203967,0.199106,0.158336,0.162233,1.114923,0.431605,0.521989,0.316299,0.231196,0.431131,0.506482,0.280694,0.177129,0.197323,0.526605,0.287874,0.097473,0.215357,0.121013,0.864133,0.360229,0.200178,0.250203,0.102857,0.871748,0.413901,0.219619,0.228494,0.138104,1.084792,0.778633,0.425208,0.296259,0.192335,0.745652,0.47653,0.471006,0.437751,0.240597,1.151126,0.402641,0.38013,0.378079,0.238384
1768918378.741006,1768918378.742178,49.0,0.0,4330.897461,4306.282227,4342.94873,4348.589844,4316.282227,4315.769043,4305.641113,4329.230957,4318.461426,4303.974121,4517.820313,4523.589844,4401.666504,4457.692383,,,,,,,,,,,,,,,,,,,,,,,,,,,,,,,,,,,,,,,,,,,,,,,,,,,,,,,,,,,,,,,,,,,,,,
1768918378.748815,1768918378.750086,50.0,0.0,4326.153809,4306.153809,4335.384766,4350.384766,4322.820313,4321.410156,4308.717773,4321.666504,4310.384766,4307.820313,4507.179688,4518.461426,4399.615234,4452.820313,,,,,,,,,,,,,,,,,,,,,,,,,,,,,,,,,,,,,,,,,,,,,,,,,,,,,,,,,,,,,,,,,,,,,,
1768918378.756623,1768918378.757894,51.0,0.0,4336.922852,4310.641113,4343.077148,4357.692383,4324.102539,4322.94873,4314.615234,4323.077148,4316.794922,4310.0,4511.794922,4518.846191,4403.461426,4459.487305,,,,,,,,,,,,,,,,,,,,,,,,,,,,,,,,,,,,,,,,,,,,,,,,,,,,,,,,,,,,,,,,,,,,,,
1768918378.764432,1768918378.765902,52.0,0.0,4344.358887,4311.666504,4344.743652,4355.641113,4313.461426,4313.205078,4307.692383,4327.307617,4322.563965,4303.846191,4522.179688,4525.512695,4406.922852,4462.179688,,,,,,,,,,,,,,,,,,,,,,,,,,,,,,,,,,,,,,,,,,,,,,,,,,,,,,,,,,,,,,,,,,,,,,
1768918378.77224,1768918378.77371,53.0,0.0,4342.307617,4308.333496,4341.025879,4353.846191,4316.282227,4312.820313,4306.282227,4324.871582,4314.230957,4299.615234,4524.487305,4529.358887,4410.256348,4464.230957,,,,,,,,,,,,,,,,,,,,,,,,,,,,,,,,,,,,,,,,,,,,,,,,,,,,,,,,,,,,,,,,,,,,,,
1768918378.780049,1768918378.781618,54.0,0.0,4340.512695,4306.922852,4341.153809,4356.666504,4325.769043,4328.461426,4322.563965,4326.282227,4310.769043,4301.794922,4518.717773,4524.743652,4413.589844,4470.0,,,,,,,,,,,,,,,,,,,,,,,,,,,,,,,,,,,,,,,,,,,,,,,,,,,,,,,,,,,,,,,,,,,,,,
1768918378.787857,1768918378.789426,55.0,0.0,4348.333496,4314.871582,4346.794922,4358.461426,4324.230957,4329.230957,4321.538574,4322.179688,4314.615234,4302.692383,4509.871582,4521.025879,4412.05127,4472.436035,,,,,,,,,,,,,,,,,,,,,,,,,,,,,,,,,,,,,,,,,,,,,,,,,,,,,,,,,,,,,,,,,,,,,,
1768918378.795666,1768918378.797034,56.0,0.0,4357.307617,4323.974121,4351.153809,4360.769043,4321.538574,4313.846191,4302.436035,4314.487305,4312.563965,4301.282227,4510.769043,4524.102539,4409.743652,4472.436035,,,,,,,,,,,,,,,,,,,,,,,,,,,,,,,,,,,,,,,,,,,,,,,,,,,,,,,,,,,,,,,,,,,,,,
1768918378.803474,1768918378.804842,57.0,0.0,4353.717773,4322.179688,4347.436035,4361.282227,4323.333496,4312.307617,4303.205078,4318.589844,4310.897461,4304.487305,4518.974121,4527.563965,4414.615234,4476.794922,,,,,,,,,,,,,,,,,,,,,,,,,,,,,,,,,,,,,,,,,,,,,,,,,,,,,,,,,,,,,,,,,,,,,,
1768918378.811283,1768918378.81275,58.0,0.0,4345.0,4319.871582,4340.384766,4358.205078,4321.666504,4320.128418,4312.820313,4318.205078,4311.922852,4302.94873,4513.974121,4520.128418,4411.538574,4473.589844,,,,,,,,,,,,,,,,,,,,,,,,,,,,,,,,,,,,,,,,,,,,,,,,,,,,,,,,,,,,,,,,,,,,,,
1768918378.819091,1768918378.820558,59.0,0.0,4340.641113,4323.077148,4340.641113,4358.205078,4322.94873,4320.384766,4305.897461,4313.205078,4312.307617,4295.512695,4503.461426,4513.205078,4394.615234,4457.692383,,,,,,,,,,,,,,,,,,,,,,,,,,,,,,,,,,,,,,,,,,,,,,,,,,,,,,,,,,,,,,,,,,,,,,
1768918378.8269,1768918378.828565,60.0,0.0,4340.897461,4322.692383,4345.0,4360.384766,4326.922852,4320.384766,4305.0,4318.461426,4314.487305,4299.358887,4511.794922,4520.641113,4399.358887,4459.358887,,,,,,,,,,,,,,,,,,,,,,,,,,,,,,,,,,,,,,,,,,,,,,,,,,,,,,,,,,,,,,,,,,,,,,
1768918378.834708,1768918378.836373,61.0,0.0,4345.641113,4322.94873,4344.358887,4358.846191,4325.384766,4317.94873,4312.436035,4318.461426,4312.307617,4307.692383,4522.820313,4528.461426,4424.871582,4477.563965,,,,,,,,,,,,,,,,,,,,,,,,,,,,,,,,,,,,,,,,,,,,,,,,,,,,,,,,,,,,,,,,,,,,,,
1768918378.842517,1768918378.844081,62.0,0.0,4345.256348,4325.0,4340.256348,4357.692383,4323.077148,4312.820313,4305.512695,4317.307617,4312.563965,4305.512695,4521.282227,4523.974121,4427.307617,4478.589844,,,,,,,,,,,,,,,,,,,,,,,,,,,,,,,,,,,,,,,,,,,,,,,,,,,,,,,,,,,,,,,,,,,,,,
1768918378.850325,1768918378.851889,63.0,0.0,4337.307617,4316.794922,4339.102539,4358.205078,4322.05127,4315.641113,4302.436035,4324.743652,4319.487305,4304.102539,4518.333496,4517.563965,4412.436035,4470.256348,,,,,,,,,,,,,,,,,,,,,,,,,,,,,,,,,,,,,,,,,,,,,,,,,,,,,,,,,,,,,,,,,,,,,,
1768918378.858134,1768918378.859498,64.0,0.0,4335.641113,4308.205078,4340.384766,4355.512695,4321.153809,4323.846191,4313.461426,4322.692383,4317.94873,4305.897461,4516.666504,4519.487305,4412.820313,4475.512695,0.864562,0.53512,0.452655,0.295214,0.157745,1.224164,0.624149,0.258392,0.194836,0.176865,0.686125,0.595731,0.367258,0.248495,0.142805,0.542939,0.475893,0.242351,0.208204,0.155746,0.417079,0.177054,0.121578,0.148397,0.141483,0.172981,0.196272,0.209497,0.183633,0.173931,0.869006,0.458997,0.537882,0.3151,0.267849,0.326884,0.452693,0.255523,0.196236,0.186182,0.455889,0.274093,0.088167,0.255302,0.112264,0.838572,0.333076,0.195151,0.277447,0.105404,0.744439,0.343535,0.188073,0.242956,0.139554,0.936739,0.664088,0.390843,0.313607,0.201141,0.653241,0.486762,0.415114,0.383075,0.216277,1.188273,0.401536,0.34609,0.328322,0.245555
1768918378.865942,1768918378.867306,65.0,0.0,4340.769043,4310.256348,4338.333496,4354.743652,4321.794922,4325.0,4316.922852,4315.641113,4311.025879,4301.025879,4515.128418,4522.436035,4416.410156,4474.487305,,,,,,,,,,,,,,,,,,,,,,,,,,,,,,,,,,,,,,,,,,,,,,,,,,,,,,,,,,,,,,,,,,,,,,
1768918378.873751,1768918378.875014,66.0,0.0,4340.128418,4313.077148,4335.128418,4357.692383,4323.333496,4322.436035,4310.128418,4322.436035,4314.871582,4299.871582,4518.974121,4522.563965,4411.538574,4461.153809,,,,,,,,,,,,,,,,,,,,,,,,,,,,,,,,,,,,,,,,,,,,,,,,,,,,,,,,,,,,,,,,,,,,,,
1768918378.881559,1768918378.882822,67.0,0.0,4336.153809,4312.307617,4337.05127,4356.922852,4321.153809,4321.025879,4307.307617,4327.563965,4322.179688,4305.384766,4523.077148,4526.922852,4411.666504,4463.589844,,,,,,,,,,,,,,,,,,,,,,,,,,,,,,,,,,,,,,,,,,,,,,,,,,,,,,,,,,,,,,,,,,,,,,
1768918378.889368,1768918378.89043,68.0,0.0,4339.743652,4311.794922,4341.025879,4356.666504,4318.846191,4320.897461,4308.717773,4325.128418,4320.512695,4304.871582,4520.256348,4531.922852,4415.384766,4473.461426,,,,,,,,,,,,,,,,,,,,,,,,,,,,,,,,,,,,,,,,,,,,,,,,,,,,,,,,,,,,,,,,,,,,,,
1768918378.897176,1768918378.898238,69.0,0.0,4347.563965,4311.282227,4345.769043,4359.871582,4318.717773,4323.461426,4314.230957,4324.615234,4317.05127,4302.307617,4520.641113,4529.871582,4415.769043,4472.692383,,,,,,,,,,,,,,,,,,,,,,,,,,,,,,,,,,,,,,,,,,,,,,,,,,,,,,,,,,,,,,,,,,,,,,
1768918378.904985,1768918378.905946,70.0,0.0,4347.307617,4310.769043,4343.846191,4353.333496,4314.743652,4324.358887,4322.563965,4325.384766,4316.794922,4303.846191,4524.230957,4524.230957,4414.615234,4466.282227,,,,,,,,,,,,,,,,,,,,,,,,,,,,,,,,,,,,,,,,,,,,,,,,,,,,,,,,,,,,,,,,,,,,,,
1768918378.912793,1768918378.913754,71.0,0.0,4337.94873,4309.230957,4333.846191,4343.717773,4307.820313,4321.538574,4326.410156,4327.05127,4319.487305,4304.230957,4523.205078,4521.922852,4415.256348,4463.077148,,,,,,,,,,,,,,,,,,,,,,,,,,,,,,,,,,,,,,,,,,,,,,,,,,,,,,,,,,,,,,,,,,,,,,
1768918378.920602,1768918378.921362,72.0,0.0,4338.461426,4311.282227,4336.282227,4350.641113,4312.307617,4322.692383,4321.666504,4325.897461,4319.102539,4303.589844,4522.179688,4523.974121,4416.282227,4466.410156,,,,,,,,,,,,,,,,,,,,,,,,,,,,,,,,,,,,,,,,,,,,,,,,,,,,,,,,,,,,,,,,,,,,,,
1768918378.92841,1768918378.92917,73.0,0.0,4346.025879,4317.05127,4350.641113,4361.025879,4324.487305,4325.897461,4317.307617,4322.179688,4313.846191,4301.666504,4522.05127,4527.179688,4412.820313,4473.205078,,,,,,,,,,,,,,,,,,,,,,,,,,,,,,,,,,,,,,,,,,,,,,,,,,,,,,,,,,,,,,,,,,,,,,
1768918378.936219,1768918378.936878,74.0,0.0,4345.769043,4321.794922,4352.94873,4359.358887,4328.461426,4325.512695,4320.128418,4322.820313,4313.461426,4297.563965,4521.538574,4530.641113,4410.897461,4476.282227,,,,,,,,,,,,,,,,,,,,,,,,,,,,,,,,,,,,,,,,,,,,,,,,,,,,,,,,,,,,,,,,,,,,,,
1768918378.944027,1768918378.944686,75.0,0.0,4341.922852,4320.769043,4344.487305,4357.94873,4324.487305,4324.487305,4324.230957,4326.922852,4320.128418,4297.820313,4522.563965,4531.922852,4414.358887,4475.0,,,,,,,,,,,,,,,,,,,,,,,,,,,,,,,,,,,,,,,,,,,,,,,,,,,,,,,,,,,,,,,,,,,,,,
1768918378.951836,1768918378.952694,76.0,0.0,4340.0,4315.384766,4340.384766,4359.230957,4322.436035,4324.743652,4323.333496,4330.769043,4323.333496,4297.820313,4524.230957,4531.025879,4415.128418,4472.436035,,,,,,,,,,,,,,,,,,,,,,,,,,,,,,,,,,,,,,,,,,,,,,,,,,,,,,,,,,,,,,,,,,,,,,
1768918378.959644,1768918378.960502,77.0,0.0,4338.589844,4311.025879,4342.563965,4357.05127,4325.0,4324.102539,4321.025879,4327.820313,4316.794922,4297.05127,4522.563965,4532.94873,4412.436035,4471.794922,,,,,,,,,,,,,,,,,,,,,,,,,,,,,,,,,,,,,,,,,,,,,,,,,,,,,,,,,,,,,,,,,,,,,,
1768918378.967453,1768918378.96841,78.0,0.0,4340.384766,4309.871582,4348.589844,4356.794922,4324.102539,4323.205078,4319.615234,4324.230957,4310.641113,4298.461426,4522.179688,4535.769043,4412.307617,4473.077148,,,,,,,,,,,,,,,,,,,,,,,,,,,,,,,,,,,,,,,,,,,,,,,,,,,,,,,,,,,,,,,,,,,,,,
1768918378.975262,1768918378.976218,79.0,0.0,4342.820313,4310.641113,4349.871582,4359.487305,4318.974121,4321.410156,4319.871582,4327.05127,4311.153809,4296.282227,4518.974121,4531.666504,4407.436035,4469.615234,,,,,,,,,,,,,,,,,,,,,,,,,,,,,,,,,,,,,,,,,,,,,,,,,,,,,,,,,,,,,,,,,,,,,,
1768918378.98307,1768918378.984225,80.0,0.0,4334.615234,4308.974121,4343.077148,4356.410156,4317.94873,4321.794922,4320.769043,4327.94873,4313.077148,4291.794922,4510.641113,4522.820313,4396.153809,4458.846191,0.864078,0.589832,0.467893,0.265488,0.147253,1.115705,0.587465,0.270282,0.154099,0.172132,0.649642,0.66321,0.348008,0.24314,0.140261,0.464239,0.433888,0.212443,0.159779,0.133722,0.359347,0.16799,0.140677,0.170863,0.147169,0.206243,0.193548,0.204414,0.212554,0.182999,0.662411,0.518979,0.531999,0.317633,0.30405,0.292106,0.444187,0.233313,0.218653,0.172861,0.435663,0.299118,0.084215,0.299583,0.108143,0.836329,0.316852,0.195388,0.315519,0.107223,0.673756,0.287609,0.157461,0.254031,0.142602,0.993605,0.551059,0.33723,0.350588,0.221625,0.610965,0.514052,0.339289,0.322853,0.191888,1.222492,0.384899,0.295875,0.286251,0.242507
1768918378.990878,1768918378.992033,81.0,0.0,4324.487305,4303.974121,4340.0,4348.589844,4319.102539,4322.820313,4318.461426,4326.153809,4312.436035,4292.179688,4505.256348,4519.358887,4389.358887,4453.333496,,,,,,,,,,,,,,,,,,,,,,,,,,,,,,,,,,,,,,,,,,,,,,,,,,,,,,,,,,,,,,,,,,,,,,
1768918378.998687,1768918378.999741,82.0,0.0,4329.615234,4301.794922,4341.922852,4347.179688,4314.871582,4316.538574,4312.436035,4327.179688,4309.871582,4294.358887,4508.333496,4526.922852,4396.025879,4462.692383,,,,,,,,,,,,,,,,,,,,,,,,,,,,,,,,,,,,,,,,,,,,,,,,,,,,,,,,,,,,,,,,,,,,,,
1768918379.006496,1768918379.007549,83.0,0.0,4338.077148,4303.077148,4342.820313,4350.384766,4309.615234,4309.871582,4306.922852,4318.461426,4305.641113,4291.538574,4513.717773,4534.102539,4408.461426,4471.025879,,,,,,,,,,,,,,,,,,,,,,,,,,,,,,,,,,,,,,,,,,,,,,,,,,,,,,,,,,,,,,,,,,,,,,
1768918379.014304,1768918379.015557,84.0,0.0,4333.205078,4303.205078,4344.743652,4352.563965,4310.769043,4319.358887,4313.077148,4311.282227,4303.846191,4291.794922,4511.282227,4531.153809,4408.974121,4465.256348,,,,,,,,,,,,,,,,,,,,,,,,,,,,,,,,,,,,,,,,,,,,,,,,,,,,,,,,,,,,,,,,,,,,,,
1768918379.022112,1768918379.023365,85.0,0.0,4324.487305,4303.461426,4342.820313,4350.512695,4312.563965,4329.871582,4325.641113,4321.282227,4309.615234,4294.871582,4506.922852,4526.410156,4399.615234,4462.307617,,,,,,,,,,,,,,,,,,,,,,,,,,,,,,,,,,,,,,,,,,,,,,,,,,,,,,,,,,,,,,,,,,,,,,
1768918379.029921,1768918379.031273,86.0,0.0,4328.461426,4307.820313,4339.102539,4345.897461,4313.846191,4318.461426,4317.563965,4324.871582,4313.205078,4294.358887,4512.94873,4531.153809,4399.102539,4470.384766,,,,,,,,,,,,,,,,,,,,,,,,,,,,,,,,,,,,,,,,,,,,,,,,,,,,,,,,,,,,,,,,,,,,,,
1768918379.03773,1768918379.039081,87.0,0.0,4340.256348,4310.256348,4346.794922,4346.666504,4312.436035,4305.256348,4303.974121,4318.589844,4309.743652,4297.563965,4524.743652,4538.589844,4409.743652,4476.153809,,,,,,,,,,,,,,,,,,,,,,,,,,,,,,,,,,,,,,,,,,,,,,,,,,,,,,,,,,,,,,,,,,,,,,
1768918379.045538,1768918379.046689,88.0,0.0,4345.897461,4310.641113,4352.179688,4351.922852,4310.256348,4319.743652,4318.205078,4324.871582,4311.794922,4305.641113,4528.205078,4540.0,4414.102539,4474.871582,,,,,,,,,,,,,,,,,,,,,,,,,,,,,,,,,,,,,,,,,,,,,,,,,,,,,,,,,,,,,,,,,,,,,,
1768918379.053347,1768918379.054497,89.0,0.0,4340.0,4311.922852,4344.615234,4352.179688,4316.538574,4338.717773,4335.128418,4333.589844,4319.615234,4305.384766,4524.615234,4537.94873,4411.410156,4472.05127,,,,,,,,,,,,,,,,,,,,,,,,,,,,,,,,,,,,,,,,,,,,,,,,,,,,,,,,,,,,,,,,,,,,,,
1768918379.061155,1768918379.062205,90.0,0.0,4336.794922,4312.94873,4343.333496,4350.0,4326.025879,4333.717773,4327.179688,4330.384766,4317.05127,4297.563965,4523.846191,4537.692383,4409.102539,4470.512695,,,,,,,,,,,,,,,,,,,,,,,,,,,,,,,,,,,,,,,,,,,,,,,,,,,,,,,,,,,,,,,,,,,,,,
1768918379.068964,1768918379.070013,91.0,0.0,4341.666504,4313.333496,4350.897461,4351.025879,4323.077148,4321.282227,4317.94873,4321.025879,4309.358887,4295.641113,4526.410156,4537.436035,4406.282227,4472.563965,,,,,,,,,,,,,,,,,,,,,,,,,,,,,,,,,,,,,,,,,,,,,,,,,,,,,,,,,,,,,,,,,,,,,,
1768918379.076772,1768918379.078021,92.0,0.0,4335.769043,4310.128418,4347.563965,4347.436035,4313.333496,4322.05127,4322.563965,4318.589844,4309.487305,4297.692383,4525.769043,4531.282227,4407.05127,4470.0,,,,,,,,,,,,,,,,,,,,,,,,,,,,,,,,,,,,,,,,,,,,,,,,,,,,,,,,,,,,,,,,,,,,,,
1768918379.084581,1768918379.085829,93.0,0.0,4323.846191,4307.94873,4335.0,4342.05127,4311.538574,4328.461426,4329.358887,4320.128418,4309.743652,4295.512695,4513.846191,4521.538574,4405.256348,4460.384766,,,,,,,,,,,,,,,,,,,,,,,,,,,,,,,,,,,,,,,,,,,,,,,,,,,,,,,,,,,,,,,,,,,,,,
1768918379.092389,1768918379.093537,94.0,0.0,4326.282227,4315.512695,4334.871582,4344.358887,4311.666504,4328.717773,4327.692383,4318.333496,4306.794922,4292.563965,4505.384766,4516.922852,4399.102539,4460.128418,,,,,,,,,,,,,,,,,,,,,,,,,,,,,,,,,,,,,,,,,,,,,,,,,,,,,,,,,,,,,,,,,,,,,,
1768918379.100198,1768918379.101345,95.0,0.0,4331.922852,4316.666504,4336.794922,4345.512695,4308.077148,4321.794922,4319.871582,4318.205078,4308.717773,4290.128418,4508.974121,4515.641113,4396.025879,4461.410156,,,,,,,,,,,,,,,,,,,,,,,,,,,,,,,,,,,,,,,,,,,,,,,,,,,,,,,,,,,,,,,,,,,,,,
1768918379.108006,1768918379.108954,96.0,0.0,4322.05127,4301.153809,4327.692383,4339.743652,4308.589844,4320.0,4318.333496,4319.871582,4309.230957,4288.205078,4507.94873,4514.102539,4397.436035,4455.0,0.806766,0.610494,0.476162,0.233052,0.135953,0.983408,0.506253,0.278376,0.120508,0.161609,0.668209,0.682121,0.329288,0.242059,0.140589,0.371725,0.359088,0.181045,0.115138,0.109934,0.3152,0.161316,0.172134,0.195132,0.145183,0.261379,0.191983,0.187162,0.238207,0.189593,0.569208,0.590504,0.510438,0.320273,0.331772,0.33106,0.482491,0.2194,0.239406,0.164117,0.446879,0.353899,0.083754,0.341094,0.110507,0.846934,0.320756,0.193932,0.359885,0.10964,0.662241,0.261558,0.131224,0.260948,0.15057,1.236204,0.460273,0.280912,0.405996,0.253952,0.617381,0.543969,0.267002,0.279404,0.17236,1.226207,0.351641,0.250624,0.266534,0.233133
1768918379.115815,1768918379.116761,97.0,0.0,4320.128418,4298.846191,4330.384766,4338.589844,4312.05127,4326.282227,4326.025879,4320.384766,4310.769043,4294.615234,4510.0,4523.974121,4404.871582,4460.512695,,,,,,,,,,,,,,,,,,,,,,,,,,,,,,,,,,,,,,,,,,,,,,,,,,,,,,,,,,,,,,,,,,,,,,
1768918379.123623,1768918379.12447,98.0,0.0,4337.563965,4317.820313,4346.666504,4348.205078,4311.794922,4327.563965,4329.102539,4326.666504,4324.743652,4309.743652,4525.128418,4539.358887,4421.922852,4476.666504,,,,,,,,,,,,,,,,,,,,,,,,,,,,,,,,,,,,,,,,,,,,,,,,,,,,,,,,,,,,,,,,,,,,,,
1768918379.131432,1768918379.132278,99.0,0.0,4342.94873,4324.871582,4348.461426,4353.974121,4311.794922,4322.179688,4324.615234,4335.256348,4329.487305,4314.615234,4529.102539,4536.025879,4427.179688,4478.589844,,,,,,,,,,,,,,,,,,,,,,,,,,,,,,,,,,,,,,,,,,,,,,,,,,,,,,,,,,,,,,,,,,,,,,
1768918379.13924,1768918379.140285,100.0,0.0,4334.615234,4318.974121,4339.358887,4351.794922,4318.974121,4323.077148,4322.05127,4328.077148,4315.641113,4306.794922,4522.563965,4524.615234,4416.282227,4470.0,,,,,,,,,,,,,,,,,,,,,,,,,,,,,,,,,,,,,,,,,,,,,,,,,,,,,,,,,,,,,,,,,,,,,,
1768918379.147049,1768918379.148093,101.0,0.0,4334.871582,4322.307617,4341.538574,4349.358887,4322.563965,4326.794922,4326.410156,4320.897461,4313.974121,4309.230957,4528.974121,4532.820313,4420.384766,4472.563965,,,,,,,,,,,,,,,,,,,,,,,,,,,,,,,,,,,,,,,,,,,,,,,,,,,,,,,,,,,,,,,,,,,,,,
1768918379.154857,1768918379.156001,102.0,0.0,4335.641113,4325.256348,4345.0,4345.897461,4313.974121,4325.384766,4329.743652,4330.769043,4323.461426,4311.282227,4533.205078,4547.179688,4427.563965,4477.563965,,,,,,,,,,,,,,,,,,,,,,,,,,,,,,,,,,,,,,,,,,,,,,,,,,,,,,,,,,,,,,,,,,,,,,
1768918379.162666,1768918379.163809,103.0,0.0,4331.153809,4320.0,4339.743652,4340.769043,4312.05127,4323.717773,4324.230957,4328.589844,4316.794922,4299.358887,4521.410156,4535.128418,4411.153809,4470.641113,,,,,,,,,,,,,,,,,,,,,,,,,,,,,,,,,,,,,,,,,,,,,,,,,,,,,,,,,,,,,,,,,,,,,,
1768918379.170474,1768918379.171817,104.0,0.0,4335.641113,4321.282227,4337.563965,4340.641113,4322.307617,4324.487305,4318.077148,4313.974121,4305.769043,4298.717773,4515.256348,4519.358887,4401.922852,4467.179688,,,,,,,,,,,,,,,,,,,,,,,,,,,,,,,,,,,,,,,,,,,,,,,,,,,,,,,,,,,,,,,,,,,,,,
1768918379.178283,1768918379.179625,105.0,0.0,4339.871582,4324.615234,4339.487305,4342.692383,4322.94873,4324.230957,4322.436035,4318.717773,4314.230957,4311.538574,4528.077148,4527.436035,4421.025879,4480.256348,,,,,,,,,,,,,,,,,,,,,,,,,,,,,,,,,,,,,,,,,,,,,,,,,,,,,,,,,,,,,,,,,,,,,,
1768918379.186091,1768918379.187533,106.0,0.0,4337.05127,4323.077148,4342.94873,4343.077148,4315.769043,4324.358887,4329.615234,4335.0,4326.538574,4314.358887,4538.333496,4541.153809,4431.538574,4490.512695,,,,,,,,,,,,,,,,,,,,,,,,,,,,,,,,,,,,,,,,,,,,,,,,,,,,,,,,,,,,,,,,,,,,,,
1768918379.1939,1768918379.195341,107.0,0.0,4340.128418,4323.717773,4346.153809,4342.94873,4313.205078,4324.871582,4328.077148,4327.179688,4320.897461,4308.589844,4531.153809,4543.077148,4420.769043,4482.563965,,,,,,,,,,,,,,,,,,,,,,,,,,,,,,,,,,,,,,,,,,,,,,,,,,,,,,,,,,,,,,,,,,,,,,
1768918379.201708,1768918379.202949,108.0,0.0,4343.333496,4326.282227,4347.05127,4343.205078,4311.410156,4323.077148,4321.410156,4310.128418,4309.230957,4303.717773,4519.743652,4537.179688,4410.256348,4472.307617,,,,,,,,,,,,,,,,,,,,,,,,,,,,,,,,,,,,,,,,,,,,,,,,,,,,,,,,,,,,,,,,,,,,,,
1768918379.209517,1768918379.210757,109.0,0.0,4341.922852,4326.153809,4347.820313,4345.128418,4312.05127,4323.717773,4323.077148,4316.922852,4309.358887,4302.179688,4520.641113,4538.461426,4411.410156,4475.512695,,,,,,,,,,,,,,,,,,,,,,,,,,,,,,,,,,,,,,,,,,,,,,,,,,,,,,,,,,,,,,,,,,,,,,
1768918379.217325,1768918379.218665,110.0,0.0,4345.384766,4326.922852,4351.794922,4350.897461,4320.256348,4329.102539,4333.846191,4332.05127,4320.128418,4309.230957,4532.820313,4549.102539,4421.538574,4487.820313,,,,,,,,,,,,,,,,,,,,,,,,,,,,,,,,,,,,,,,,,,,,,,,,,,,,,,,,,,,,,,,,,,,,,,
1768918379.225134,1768918379.226473,111.0,0.0,4343.846191,4327.94873,4351.410156,4353.461426,4322.692383,4327.94873,4333.846191,4332.692383,4325.641113,4314.102539,4537.563965,4550.0,4424.102539,4489.102539,,,,,,,,,,,,,,,,,,,,,,,,,,,,,,,,,,,,,,,,,,,,,,,,,,,,,,,,,,,,,,,,,,,,,,
1768918379.232942,1768918379.234081,112.0,0.0,4336.410156,4326.153809,4346.025879,4347.436035,4317.179688,4323.333496,4323.461426,4326.538574,4320.0,4310.384766,4534.615234,4540.0,4416.794922,4480.0,0.708872,0.597015,0.482979,0.207939,0.130986,0.87818,0.410128,0.278351,0.101328,0.147963,0.727061,0.646789,0.316755,0.250494,0.149568,0.290429,0.275974,0.157487,0.084852,0.091524,0.299614,0.16299,0.208502,0.214969,0.136108,0.322669,0.185805,0.164984,0.25286,0.19555,0.598426,0.636997,0.475335,0.315977,0.345868,0.43589,0.548675,0.213714,0.252041,0.16298,0.481085,0.414982,0.086832,0.368196,0.118151,0.867071,0.346583,0.188075,0.395836,0.11349,0.712672,0.266635,0.114239,0.260452,0.165517,1.580568,0.400518,0.239227,0.466122,0.291923,0.673682,0.562236,0.214545,0.263919,0.163484,1.191457,0.314115,0.221595,0.273027,0.224132
1768918379.240751,1768918379.241889,113.0,0.0,4336.922852,4324.743652,4349.102539,4342.563965,4316.666504,4329.230957,4328.205078,4324.358887,4313.461426,4309.102539,4533.846191,4542.692383,4413.974121,4483.077148,,,,,,,,,,,,,,,,,,,,,,,,,,,,,,,,,,,,,,,,,,,,,,,,,,,,,,,,,,,,,,,,,,,,,,
1768918379.248559,1768918379.249597,114.0,0.0,4343.461426,4327.179688,4357.05127,4348.333496,4321.025879,4335.128418,4339.230957,4326.025879,4311.794922,4303.461426,4531.666504,4551.794922,4415.384766,4488.205078,,,,,,,,,,,,,,,,,,,,,,,,,,,,,,,,,,,,,,,,,,,,,,,,,,,,,,,,,,,,,,,,,,,,,,
1768918379.256368,1768918379.257405,115.0,0.0,4344.487305,4326.666504,4355.512695,4352.94873,4319.871582,4329.743652,4337.307617,4326.666504,4312.05127,4294.615234,4523.077148,4545.128418,4407.307617,4479.487305,,,,,,,,,,,,,,,,,,,,,,,,,,,,,,,,,,,,,,,,,,,,,,,,,,,,,,,,,,,,,,,,,,,,,,
1768918379.264176,1768918379.265013,116.0,0.0,4335.512695,4316.538574,4346.025879,4346.922852,4312.179688,4325.128418,4333.205078,4324.743652,4310.128418,4294.102539,4516.794922,4536.025879,4398.333496,4471.153809,,,,,,,,,,,,,,,,,,,,,,,,,,,,,,,,,,,,,,,,,,,,,,,,,,,,,,,,,,,,,,,,,,,,,,
1768918379.271985,1768918379.272821,117.0,0.0,4323.974121,4306.410156,4339.743652,4339.102539,4307.436035,4326.666504,4332.05127,4325.641113,4310.384766,4295.897461,4521.153809,4535.897461,4398.717773,4470.512695,,,,,,,,,,,,,,,,,,,,,,,,,,,,,,,,,,,,,,,,,,,,,,,,,,,,,,,,,,,,,,,,,,,,,,
1768918379.279793,1768918379.280729,118.0,0.0,4323.333496,4306.666504,4341.153809,4338.846191,4310.897461,4323.846191,4326.410156,4328.077148,4310.256348,4294.743652,4520.128418,4532.307617,4399.230957,4470.769043,,,,,,,,,,,,,,,,,,,,,,,,,,,,,,,,,,,,,,,,,,,,,,,,,,,,,,,,,,,,,,,,,,,,,,
1768918379.287602,1768918379.288537,119.0,0.0,4330.0,4309.871582,4342.94873,4341.410156,4315.384766,4321.666504,4323.589844,4323.205078,4306.153809,4294.358887,4512.94873,4526.794922,4398.717773,4471.666504,,,,,,,,,,,,,,,,,,,,,,,,,,,,,,,,,,,,,,,,,,,,,,,,,,,,,,,,,,,,,,,,,,,,,,
1768918379.29541,1768918379.296145,120.0,0.0,4327.307617,4307.692383,4339.615234,4340.0,4321.153809,4324.615234,4324.743652,4316.794922,4304.102539,4291.538574,4505.641113,4523.333496,4394.487305,4465.384766,,,,,,,,,,,,,,,,,,,,,,,,,,,,,,,,,,,,,,,,,,,,,,,,,,,,,,,,,,,,,,,,,,,,,,
1768918379.303219,1768918379.303953,121.0,0.0,4325.0,4310.256348,4337.94873,4339.743652,4321.410156,4321.922852,4320.384766,4315.256348,4307.05127,4287.820313,4505.769043,4518.717773,4390.128418,4456.794922,,,,,,,,,,,,,,,,,,,,,,,,,,,,,,,,,,,,,,,,,,,,,,,,,,,,,,,,,,,,,,,,,,,,,,
1768918379.311027,1768918379.311662,122.0,0.0,4336.282227,4318.846191,4345.0,4346.282227,4316.025879,4320.769043,4320.256348,4315.384766,4310.512695,4292.179688,4513.974121,4519.230957,4393.333496,4462.94873,,,,,,,,,,,,,,,,,,,,,,,,,,,,,,,,,,,,,,,,,,,,,,,,,,,,,,,,,,,,,,,,,,,,,,
1768918379.318836,1768918379.31947,123.0,0.0,4340.256348,4317.820313,4346.538574,4347.05127,4316.025879,4327.307617,4327.692383,4322.307617,4312.05127,4297.436035,4514.615234,4525.0,4398.717773,4467.820313,,,,,,,,,,,,,,,,,,,,,,,,,,,,,,,,,,,,,,,,,,,,,,,,,,,,,,,,,,,,,,,,,,,,,,
1768918379.326644,1768918379.327078,124.0,0.0,4327.179688,4308.077148,4333.974121,4337.94873,4317.94873,4328.717773,4327.436035,4326.794922,4311.794922,4295.897461,4508.461426,4521.922852,4397.692383,4459.487305,,,,,,,,,,,,,,,,,,,,,,,,,,,,,,,,,,,,,,,,,,,,,,,,,,,,,,,,,,,,,,,,,,,,,,
1768918379.334453,1768918379.334886,125.0,0.0,4320.0,4306.666504,4327.436035,4335.641113,4312.179688,4321.922852,4320.128418,4315.769043,4308.717773,4290.897461,4506.153809,4509.871582,4391.922852,4455.769043,,,,,,,,,,,,,,,,,,,,,,,,,,,,,,,,,,,,,,,,,,,,,,,,,,,,,,,,,,,,,,,,,,,,,,
1768918379.342261,1768918379.342594,126.0,0.0,4327.94873,4313.077148,4336.666504,4341.153809,4309.615234,4318.717773,4318.077148,4308.846191,4306.794922,4290.128418,4505.769043,4509.102539,4390.897461,4463.589844,,,,,,,,,,,,,,,,,,,,,,,,,,,,,,,,,,,,,,,,,,,,,,,,,,,,,,,,,,,,,,,,,,,,,,
1768918379.35007,1768918379.350402,127.0,0.0,4333.846191,4313.205078,4342.820313,4341.538574,4316.794922,4323.589844,4321.282227,4318.846191,4310.897461,4293.205078,4507.820313,4521.794922,4394.358887,4470.128418,,,,,,,,,,,,,,,,,,,,,,,,,,,,,,,,,,,,,,,,,,,,,,,,,,,,,,,,,,,,,,,,,,,,,,
1768918379.357878,1768918379.358409,0.0,0.0,4334.871582,4310.897461,4338.717773,4340.256348,4317.436035,4326.538574,4324.102539,4325.641113,4314.358887,4295.512695,4513.461426,4527.436035,4399.102539,4470.256348,0.609729,0.562027,0.485805,0.196096,0.137165,0.827159,0.3378,0.26823,0.097139,0.134064,0.799984,0.572667,0.311155,0.267274,0.168682,0.236525,0.209806,0.145914,0.072925,0.082019,0.312212,0.182021,0.238809,0.225173,0.123471,0.371514,0.172714,0.145009,0.251519,0.204953,0.702317,0.630136,0.427804,0.298693,0.347444,0.575794,0.615004,0.214869,0.250937,0.167973,0.520357,0.458724,0.095015,0.369812,0.128141,0.883727,0.388039,0.180867,0.407104,0.117707,0.812825,0.3042,0.107611,0.249729,0.185692,1.91888,0.377692,0.223069,0.51013,0.324884,0.759813,0.571581,0.185977,0.276421,0.16862,1.120161,0.296883,0.206562,0.298008,0.221152
1768918379.365687,1768918379.366217,1.0,0.0,4333.077148,4311.282227,4337.179688,4341.282227,4313.461426,4321.666504,4320.512695,4320.128418,4312.820313,4295.512695,4512.692383,4521.794922,4398.717773,4470.897461,,,,,,,,,,,,,,,,,,,,,,,,,,,,,,,,,,,,,,,,,,,,,,,,,,,,,,,,,,,,,,,,,,,,,,
1768918379.373495,1768918379.374125,2.0,0.0,4329.358887,4310.256348,4338.974121,4338.589844,4320.641113,4317.179688,4313.205078,4319.487305,4311.410156,4295.256348,4510.897461,4520.641113,4395.512695,4474.615234,,,,,,,,,,,,,,,,,,,,,,,,,,,,,,,,,,,,,,,,,,,,,,,,,,,,,,,,,,,,,,,,,,,,,,
1768918379.381304,1768918379.381933,3.0,0.0,4333.077148,4310.128418,4340.512695,4338.205078,4328.461426,4319.615234,4313.461426,4321.153809,4312.563965,4298.077148,4521.282227,4531.282227,4399.102539,4475.512695,,,,,,,,,,,,,,,,,,,,,,,,,,,,,,,,,,,,,,,,,,,,,,,,,,,,,,,,,,,,,,,,,,,,,,
1768918379.389112,1768918379.389941,4.0,0.0,4341.922852,4312.563965,4345.769043,4342.179688,4326.410156,4323.846191,4320.0,4315.641113,4312.692383,4298.333496,4521.666504,4537.307617,4402.94873,4474.102539,,,,,,,,,,,,,,,,,,,,,,,,,,,,,,,,,,,,,,,,,,,,,,,,,,,,,,,,,,,,,,,,,,,,,,
1768918379.396921,1768918379.397749,5.0,0.0,4342.94873,4314.230957,4348.589844,4343.333496,4325.0,4325.641113,4323.974121,4313.077148,4312.179688,4293.974121,4509.743652,4529.230957,4400.256348,4473.974121,,,,,,,,,,,,,,,,,,,,,,,,,,,,,,,,,,,,,,,,,,,,,,,,,,,,,,,,,,,,,,,,,,,,,,
1768918379.404729,1768918379.405457,6.0,0.0,4339.358887,4317.94873,4346.025879,4346.025879,4329.743652,4327.692383,4320.897461,4316.538574,4312.05127,4296.666504,4514.743652,4521.538574,4402.05127,4474.871582,,,,,,,,,,,,,,,,,,,,,,,,,,,,,,,,,,,,,,,,,,,,,,,,,,,,,,,,,,,,,,,,,,,,,,
1768918379.412538,1768918379.413265,7.0,0.0,4338.846191,4323.077148,4343.974121,4349.743652,4327.820313,4324.102539,4312.94873,4313.589844,4311.666504,4304.358887,4523.846191,4526.282227,4410.384766,4472.94873,,,,,,,,,,,,,,,,,,,,,,,,,,,,,,,,,,,,,,,,,,,,,,,,,,,,,,,,,,,,,,,,,,,,,,
1768918379.420347,1768918379.421172,8.0,0.0,4337.307617,4319.487305,4342.436035,4345.769043,4322.179688,4317.307617,4310.641113,4309.487305,4311.666504,4301.282227,4513.717773,4527.05127,4408.205078,4469.487305,,,,,,,,,,,,,,,,,,,,,,,,,,,,,,,,,,,,,,,,,,,,,,,,,,,,,,,,,,,,,,,,,,,,,,
1768918379.428155,1768918379.42898,9.0,0.0,4333.974121,4315.0,4342.05127,4338.974121,4323.846191,4322.179688,4323.077148,4316.666504,4312.563965,4293.974121,4508.974121,4520.769043,4400.512695,4471.153809,,,,,,,,,,,,,,,,,,,,,,,,,,,,,,,,,,,,,,,,,,,,,,,,,,,,,,,,,,,,,,,,,,,,,,
1768918379.435964,1768918379.436688,10.0,0.0,4335.0,4318.333496,4343.205078,4339.102539,4326.922852,4327.820313,4327.820313,4324.871582,4313.461426,4296.922852,4521.025879,4528.077148,4406.410156,4476.538574,,,,,,,,,,,,,,,,,,,,,,,,,,,,,,,,,,,,,,,,,,,,,,,,,,,,,,,,,,,,,,,,,,,,,,
1768918379.443772,1768918379.444496,11.0,0.0,4334.871582,4319.487305,4343.077148,4339.102539,4324.743652,4318.077148,4311.666504,4324.487305,4313.589844,4297.692383,4524.487305,4538.461426,4413.205078,4477.05127,,,,,,,,,,,,,,,,,,,,,,,,,,,,,,,,,,,,,,,,,,,,,,,,,,,,,,,,,,,,,,,,,,,,,,
1768918379.451581,1768918379.452105,12.0,0.0,4331.282227,4316.538574,4340.897461,4339.871582,4324.615234,4312.94873,4306.666504,4317.436035,4311.538574,4294.743652,4518.205078,4530.384766,4409.487305,4471.153809,,,,,,,,,,,,,,,,,,,,,,,,,,,,,,,,,,,,,,,,,,,,,,,,,,,,,,,,,,,,,,,,,,,,,,
1768918379.459389,1768918379.459913,13.0,0.0,4331.153809,4320.641113,4342.179688,4348.717773,4328.077148,4320.256348,4316.922852,4314.743652,4311.153809,4301.282227,4523.205078,4520.512695,4410.384766,4469.102539,,,,,,,,,,,,,,,,,,,,,,,,,,,,,,,,,,,,,,,,,,,,,,,,,,,,,,,,,,,,,,,,,,,,,,
1768918379.467198,1768918379.467621,14.0,0.0,4331.794922,4321.410156,4345.0,4349.743652,4326.153809,4317.692383,4316.153809,4322.563965,4313.589844,4305.897461,4522.563965,4524.358887,4410.512695,4466.666504,,,,,,,,,,,,,,,,,,,,,,,,,,,,,,,,,,,,,,,,,,,,,,,,,,,,,,,,,,,,,,,,,,,,,,
1768918379.475006,1768918379.475429,15.0,0.0,4326.794922,4313.205078,4343.717773,4341.153809,4323.717773,4312.05127,4305.128418,4320.128418,4311.153809,4299.102539,4508.077148,4523.077148,4401.153809,4462.563965,,,,,,,,,,,,,,,,,,,,,,,,,,,,,,,,,,,,,,,,,,,,,,,,,,,,,,,,,,,,,,,,,,,,,,
1768918379.482815,1768918379.483437,16.0,0.0,4324.358887,4315.512695,4342.307617,4342.179688,4326.282227,4318.589844,4305.769043,4306.153809,4304.871582,4294.743652,4508.333496,4518.077148,4400.0,4466.666504,0.546796,0.525627,0.477679,0.197442,0.154885,0.833354,0.317488,0.248749,0.104772,0.122556,0.860773,0.488035,0.30905,0.28492,0.193989,0.210454,0.178002,0.144654,0.077227,0.08045,0.335654,0.227566,0.253389,0.223979,0.112477,0.393874,0.155274,0.129792,0.234504,0.221124,0.80617,0.561215,0.367143,0.267866,0.342862,0.705716,0.654936,0.22124,0.234752,0.176588,0.556382,0.472166,0.108995,0.342658,0.138914,0.885895,0.433966,0.178934,0.386424,0.120674,0.936819,0.380238,0.111854,0.230235,0.207326,2.158356,0.403802,0.234082,0.520229,0.344542,0.84966,0.584916,0.174543,0.308805,0.188144,1.026968,0.321919,0.196598,0.327357,0.226963
1768918379.490623,1768918379.491245,17.0,0.0,4330.128418,4323.717773,4346.410156,4351.153809,4327.05127,4323.589844,4313.205078,4307.820313,4304.615234,4297.563965,4522.820313,4530.128418,4410.384766,4475.0,,,,,,,,,,,,,,,,,,,,,,,,,,,,,,,,,,,,,,,,,,,,,,,,,,,,,,,,,,,,,,,,,,,,,,
1768918379.498432,1768918379.498953,18.0,0.0,4335.769043,4325.641113,4351.282227,4351.922852,4325.641113,4323.846191,4311.666504,4319.358887,4309.487305,4298.461426,4526.282227,4542.692383,4413.846191,4482.307617,,,,,,,,,,,,,,,,,,,,,,,,,,,,,,,,,,,,,,,,,,,,,,,,,,,,,,,,,,,,,,,,,,,,,,
1768918379.50624,1768918379.506761,19.0,0.0,4338.205078,4325.641113,4350.384766,4349.615234,4326.538574,4326.922852,4311.922852,4315.897461,4310.769043,4296.410156,4520.897461,4538.717773,4411.922852,4486.538574,,,,,,,,,,,,,,,,,,,,,,,,,,,,,,,,,,,,,,,,,,,,,,,,,,,,,,,,,,,,,,,,,,,,,,
1768918379.514049,1768918379.514369,20.0,0.0,4339.743652,4329.102539,4351.666504,4355.384766,4327.05127,4328.461426,4316.666504,4311.922852,4309.102539,4295.641113,4521.410156,4533.205078,4410.641113,4483.077148,,,,,,,,,,,,,,,,,,,,,,,,,,,,,,,,,,,,,,,,,,,,,,,,,,,,,,,,,,,,,,,,,,,,,,
1768918379.521857,1768918379.522177,21.0,0.0,4336.794922,4325.641113,4355.641113,4355.512695,4327.05127,4327.94873,4316.153809,4320.897461,4312.179688,4295.641113,4521.538574,4535.897461,4406.922852,4473.589844,,,,,,,,,,,,,,,,,,,,,,,,,,,,,,,,,,,,,,,,,,,,,,,,,,,,,,,,,,,,,,,,,,,,,,
1768918379.529666,1768918379.529885,22.0,0.0,4328.974121,4315.128418,4351.153809,4345.256348,4327.563965,4325.897461,4309.358887,4322.563965,4314.102539,4297.563965,4520.128418,4537.820313,4406.282227,4472.436035,,,,,,,,,,,,,,,,,,,,,,,,,,,,,,,,,,,,,,,,,,,,,,,,,,,,,,,,,,,,,,,,,,,,,,
1768918379.537474,1768918379.537693,23.0,0.0,4325.641113,4313.077148,4343.077148,4339.487305,4324.102539,4320.512695,4306.410156,4313.717773,4304.230957,4297.05127,4523.717773,4538.717773,4407.179688,4475.512695,,,,,,,,,,,,,,,,,,,,,,,,,,,,,,,,,,,,,,,,,,,,,,,,,,,,,,,,,,,,,,,,,,,,,,
1768918379.545283,1768918379.545701,24.0,0.0,4329.230957,4317.820313,4340.641113,4342.820313,4320.384766,4320.384766,4309.871582,4313.333496,4297.820313,4291.922852,4522.179688,4536.922852,4401.153809,4473.717773,,,,,,,,,,,,,,,,,,,,,,,,,,,,,,,,,,,,,,,,,,,,,,,,,,,,,,,,,,,,,,,,,,,,,,
1768918379.553091,1768918379.553509,25.0,0.0,4331.282227,4321.922852,4343.077148,4345.256348,4320.769043,4323.717773,4311.794922,4317.820313,4303.205078,4289.102539,4512.94873,4527.307617,4398.333496,4474.358887,,,,,,,,,,,,,,,,,,,,,,,,,,,,,,,,,,,,,,,,,,,,,,,,,,,,,,,,,,,,,,,,,,,,,,
1768918379.5609,1768918379.561417,26.0,0.0,4334.102539,4324.743652,4345.0,4343.333496,4320.769043,4319.615234,4308.461426,4311.538574,4305.641113,4290.384766,4510.128418,4520.384766,4406.538574,4475.384766,,,,,,,,,,,,,,,,,,,,,,,,,,,,,,,,,,,,,,,,,,,,,,,,,,,,,,,,,,,,,,,,,,,,,,
1768918379.568708,1768918379.569225,27.0,0.0,4333.333496,4326.153809,4344.230957,4341.410156,4319.615234,4315.256348,4304.487305,4306.410156,4302.820313,4293.077148,4518.205078,4523.589844,4412.820313,4474.871582,,,,,,,,,,,,,,,,,,,,,,,,,,,,,,,,,,,,,,,,,,,,,,,,,,,,,,,,,,,,,,,,,,,,,,
1768918379.576517,1768918379.577232,28.0,0.0,4326.025879,4321.922852,4340.512695,4339.743652,4320.384766,4321.538574,4311.025879,4312.307617,4307.94873,4297.94873,4523.461426,4531.282227,4409.743652,4473.974121,,,,,,,,,,,,,,,,,,,,,,,,,,,,,,,,,,,,,,,,,,,,,,,,,,,,,,,,,,,,,,,,,,,,,,
1768918379.584325,1768918379.58504,29.0,0.0,4327.820313,4317.692383,4342.94873,4341.153809,4320.641113,4328.205078,4318.333496,4324.230957,4317.820313,4305.256348,4522.94873,4536.666504,4409.487305,4473.333496,,,,,,,,,,,,,,,,,,,,,,,,,,,,,,,,,,,,,,,,,,,,,,,,,,,,,,,,,,,,,,,,,,,,,,
1768918379.592134,1768918379.592948,30.0,0.0,4335.512695,4322.05127,4350.384766,4345.641113,4321.153809,4326.025879,4318.077148,4326.794922,4318.974121,4307.05127,4523.717773,4537.436035,4412.307617,4471.538574,,,,,,,,,,,,,,,,,,,,,,,,,,,,,,,,,,,,,,,,,,,,,,,,,,,,,,,,,,,,,,,,,,,,,,
1768918379.599942,1768918379.600756,31.0,0.0,4330.769043,4326.666504,4347.94873,4350.384766,4319.487305,4324.871582,4321.538574,4317.820313,4313.333496,4302.179688,4523.589844,4534.358887,4412.179688,4471.282227,,,,,,,,,,,,,,,,,,,,,,,,,,,,,,,,,,,,,,,,,,,,,,,,,,,,,,,,,,,,,,,,,,,,,,
1768918379.607751,1768918379.608764,32.0,0.0,4323.589844,4325.512695,4341.410156,4355.256348,4313.205078,4327.436035,4323.333496,4313.205078,4310.384766,4300.897461,4523.205078,4530.512695,4410.0,4468.846191,0.544296,0.507338,0.454203,0.207059,0.180093,0.862637,0.354654,0.222252,0.120564,0.115176,0.893325,0.419247,0.306222,0.293257,0.217882,0.206086,0.184453,0.148956,0.092586,0.08301,0.351377,0.300187,0.252131,0.213704,0.107374,0.386474,0.139867,0.117399,0.205885,0.242782,0.856992,0.450721,0.298587,0.229084,0.338808,0.774169,0.654851,0.232092,0.208284,0.187454,0.577278,0.457404,0.128221,0.29402,0.150017,0.865671,0.474248,0.187596,0.341097,0.121036,1.055905,0.495608,0.128203,0.209509,0.226358,2.256204,0.482601,0.267105,0.489776,0.349196,0.917575,0.614548,0.168191,0.350171,0.21828,0.945627,0.392995,0.184132,0.347668,0.240009
1768918379.615559,1768918379.616572,33.0,0.0,4330.256348,4321.794922,4345.128418,4354.743652,4309.615234,4323.717773,4314.615234,4317.436035,4313.077148,4304.230957,4523.846191,4531.666504,4410.128418,4466.025879,,,,,,,,,,,,,,,,,,,,,,,,,,,,,,,,,,,,,,,,,,,,,,,,,,,,,,,,,,,,,,,,,,,,,,
