Timestamp,OriginalTimestamp,EEG.Counter,EEG.Interpolated,EEG.AF3,EEG.F7,EEG.F3,EEG.FC5,EEG.T7,EEG.P7,EEG.O1,EEG.O2,EEG.P8,EEG.T8,EEG.FC6,EEG.F4,EEG.F8,EEG.AF4,POW.AF3.Theta,POW.AF3.Alpha,POW.AF3.BetaL,POW.AF3.BetaH,POW.AF3.Gamma,POW.F7.Theta,POW.F7.Alpha,POW.F7.BetaL,POW.F7.BetaH,POW.F7.Gamma,POW.F3.Theta,POW.F3.Alpha,POW.F3.BetaL,POW.F3.BetaH,POW.F3.Gamma,POW.FC5.Theta,POW.FC5.Alpha,POW.FC5.BetaL,POW.FC5.BetaH,POW.FC5.Gamma,POW.T7.Theta,POW.T7.Alpha,POW.T7.BetaL,POW.T7.BetaH,POW.T7.Gamma,POW.P7.Theta,POW.P7.Alpha,POW.P7.BetaL,POW.P7.BetaH,POW.P7.Gamma,POW.O1.Theta,POW.O1.Alpha,POW.O1.BetaL,POW.O1.BetaH,POW.O1.Gamma,POW.O2.Theta,POW.O2.Alpha,POW.O2.BetaL,POW.O2.BetaH,POW.O2.Gamma,POW.P8.Theta,POW.P8.Alpha,POW.P8.BetaL,POW.P8.BetaH,POW.P8.Gamma,POW.T8.Theta,POW.T8.Alpha,POW.T8.BetaL,POW.T8.BetaH,POW.T8.Gamma,POW.FC6.Theta,POW.FC6.Alpha,POW.FC6.BetaL,POW.FC6.BetaH,POW.FC6.Gamma,POW.F4.Theta,POW.F4.Alpha,POW.F4.BetaL,POW.F4.BetaH,POW.F4.Gamma,POW.F8.Theta,POW.F8.Alpha,POW.F8.BetaL,POW.F8.BetaH,POW.F8.Gamma,POW.AF4.Theta,POW.AF4.Alpha,POW.AF4.BetaL,POW.AF4.BetaH,POW.AF4.Gamma
1768918332.280364,1768918332.281424,115.0,0.0,4342.436035,4212.94873,4368.974121,4342.436035,4232.436035,4294.871582,4312.563965,4338.205078,4270.256348,4282.307617,4523.589844,4538.974121,4398.333496,4463.077148,,,,,,,,,,,,,,,,,,,,,,,,,,,,,,,,,,,,,,,,,,,,,,,,,,,,,,,,,,,,,,,,,,,,,,
1768918332.288172,1768918332.289432,116.0,0.0,4338.846191,4211.538574,4365.256348,4339.743652,4232.179688,4293.589844,4316.922852,4337.692383,4268.077148,4281.025879,4524.102539,4538.077148,4394.102539,4458.717773,,,,,,,,,,,,,,,,,,,,,,,,,,,,,,,,,,,,,,,,,,,,,,,,,,,,,,,,,,,,,,,,,,,,,,
1768918332.295981,1768918332.29724,117.0,0.0,4335.128418,4213.077148,4358.461426,4340.769043,4231.025879,4290.384766,4311.666504,4337.563965,4269.615234,4276.666504,4523.205078,4537.820313,4395.769043,4457.307617,,,,,,,,,,,,,,,,,,,,,,,,,,,,,,,,,,,,,,,,,,,,,,,,,,,,,,,,,,,,,,,,,,,,,,
1768918332.303789,1768918332.304948,118.0,0.0,4338.205078,4214.487305,4364.615234,4342.692383,4233.461426,4293.589844,4316.410156,4343.717773,4274.615234,4280.641113,4530.641113,4542.820313,4400.897461,4464.358887,,,,,,,,,,,,,,,,,,,,,,,,,,,,,,,,,,,,,,,,,,,,,,,,,,,,,,,,,,,,,,,,,,,,,,
1768918332.311598,1768918332.312756,119.0,0.0,4347.94873,4217.94873,4380.512695,4349.230957,4232.436035,4302.692383,4329.615234,4349.102539,4275.512695,4287.307617,4541.282227,4547.436035,4405.769043,4471.538574,,,,,,,,,,,,,,,,,,,,,,,,,,,,,,,,,,,,,,,,,,,,,,,,,,,,,,,,,,,,,,,,,,,,,,
1768918332.319406,1768918332.320364,120.0,0.0,4352.820313,4222.307617,4382.05127,4353.589844,4229.358887,4296.025879,4319.358887,4346.025879,4271.282227,4282.563965,4539.102539,4542.563965,4407.692383,4466.794922,,,,,,,,,,,,,,,,,,,,,,,,,,,,,,,,,,,,,,,,,,,,,,,,,,,,,,,,,,,,,,,,,,,,,,
1768918332.327215,1768918332.328172,121.0,0.0,4349.358887,4220.256348,4370.512695,4350.512695,4229.743652,4280.769043,4300.256348,4335.897461,4264.871582,4278.077148,4531.153809,4535.0,4409.230957,4459.102539,,,,,,,,,,,,,,,,,,,,,,,,,,,,,,,,,,,,,,,,,,,,,,,,,,,,,,,,,,,,,,,,,,,,,,
1768918332.335023,1768918332.33588,122.0,0.0,4345.384766,4217.820313,4368.333496,4350.897461,4232.05127,4286.282227,4306.153809,4333.205078,4264.743652,4283.717773,4533.589844,4539.230957,4412.436035,4466.153809,,,,,,,,,,,,,,,,,,,,,,,,,,,,,,,,,,,,,,,,,,,,,,,,,,,,,,,,,,,,,,,,,,,,,,
1768918332.342832,1768918332.343688,123.0,0.0,4342.05127,4225.256348,4371.410156,4355.384766,4231.794922,4301.025879,4321.282227,4342.436035,4273.077148,4285.897461,4540.128418,4548.077148,4414.615234,4476.025879,,,,,,,,,,,,,,,,,,,,,,,,,,,,,,,,,,,,,,,,,,,,,,,,,,,,,,,,,,,,,,,,,,,,,,
1768918332.35064,1768918332.351696,124.0,0.0,4341.282227,4232.692383,4366.282227,4354.230957,4232.692383,4297.436035,4318.461426,4342.692383,4275.128418,4280.128418,4534.871582,4542.692383,4412.436035,4470.0,,,,,,,,,,,,,,,,,,,,,,,,,,,,,,,,,,,,,,,,,,,,,,,,,,,,,,,,,,,,,,,,,,,,,,
1768918332.358449,1768918332.359504,125.0,0.0,4345.128418,4232.05127,4365.128418,4352.692383,4233.974121,4288.589844,4310.512695,4333.077148,4267.94873,4279.102539,4523.333496,4532.692383,4407.179688,4463.333496,,,,,,,,,,,,,,,,,,,,,,,,,,,,,,,,,,,,,,,,,,,,,,,,,,,,,,,,,,,,,,,,,,,,,,
1768918332.366257,1768918332.367412,126.0,0.0,4346.282227,4230.128418,4367.820313,4354.871582,4231.025879,4290.384766,4308.077148,4328.717773,4265.512695,4282.05127,4521.922852,4536.025879,4401.666504,4466.794922,,,,,,,,,,,,,,,,,,,,,,,,,,,,,,,,,,,,,,,,,,,,,,,,,,,,,,,,,,,,,,,,,,,,,,
1768918332.374066,1768918332.37522,127.0,0.0,4341.922852,4230.256348,4363.589844,4354.102539,4229.358887,4292.692383,4310.512695,4332.307617,4266.922852,4279.871582,4525.897461,4539.102539,4399.487305,4467.179688,,,,,,,,,,,,,,,,,,,,,,,,,,,,,,,,,,,,,,,,,,,,,,,,,,,,,,,,,,,,,,,,,,,,,,
1768918332.381874,1768918332.382828,0.0,0.0,4337.179688,4230.0,4355.512695,4350.128418,4230.128418,4290.128418,4311.538574,4332.307617,4261.922852,4277.179688,4523.333496,4527.94873,4397.563965,4460.641113,0.635638,0.79767,0.258236,0.348221,0.179294,0.893326,0.596561,0.42329,0.247682,0.107743,0.976232,0.778669,0.304974,0.193237,0.17258,0.678105,0.72238,0.239939,0.175959,0.094394,0.43301,0.260167,0.141437,0.228621,0.118662,0.206258,0.157086,0.161568,0.153581,0.199776,0.198006,0.545001,0.266149,0.237151,0.287863,0.755114,0.367058,0.35195,0.360695,0.159375,0.739605,0.397697,0.202932,0.229156,0.106404,1.163335,0.349058,0.316214,0.370939,0.105616,1.230323,0.404452,0.240688,0.447305,0.156164,1.69766,1.058092,0.948828,0.778091,0.26056,0.954704,0.599023,0.345819,0.62449,0.251181,0.945427,0.760773,0.406286,0.453412,0.297228
1768918332.389683,1768918332.390636,1.0,0.0,4335.128418,4229.615234,4351.794922,4349.230957,4227.05127,4289.102539,4307.820313,4328.461426,4258.461426,4274.358887,4518.846191,4517.692383,4393.077148,4457.692383,,,,,,,,,,,,,,,,,,,,,,,,,,,,,,,,,,,,,,,,,,,,,,,,,,,,,,,,,,,,,,,,,,,,,,
1768918332.397491,1768918332.398343,2.0,0.0,4337.692383,4228.846191,4355.384766,4350.512695,4223.461426,4287.307617,4306.153809,4327.436035,4260.897461,4268.589844,4518.461426,4523.077148,4390.897461,4456.666504,,,,,,,,,,,,,,,,,,,,,,,,,,,,,,,,,,,,,,,,,,,,,,,,,,,,,,,,,,,,,,,,,,,,,,
1768918332.4053,1768918332.406151,3.0,0.0,4342.307617,4228.461426,4358.717773,4352.307617,4226.282227,4285.128418,4312.692383,4329.358887,4261.410156,4268.589844,4522.179688,4532.94873,4395.256348,4460.128418,,,,,,,,,,,,,,,,,,,,,,,,,,,,,,,,,,,,,,,,,,,,,,,,,,,,,,,,,,,,,,,,,,,,,,
1768918332.413108,1768918332.413759,4.0,0.0,4338.333496,4226.922852,4353.717773,4350.128418,4223.589844,4281.922852,4313.717773,4331.410156,4261.153809,4270.128418,4521.153809,4530.384766,4393.974121,4459.358887,,,,,,,,,,,,,,,,,,,,,,,,,,,,,,,,,,,,,,,,,,,,,,,,,,,,,,,,,,,,,,,,,,,,,,
1768918332.420917,1768918332.421567,5.0,0.0,4325.384766,4217.820313,4341.794922,4339.871582,4214.743652,4279.487305,4299.358887,4328.846191,4258.717773,4265.641113,4507.563965,4516.538574,4378.846191,4443.333496,,,,,,,,,,,,,,,,,,,,,,,,,,,,,,,,,,,,,,,,,,,,,,,,,,,,,,,,,,,,,,,,,,,,,,
1768918332.428725,1768918332.429475,6.0,0.0,4320.641113,4213.205078,4336.025879,4334.358887,4219.102539,4285.256348,4300.769043,4330.512695,4259.615234,4267.307617,4505.384766,4513.717773,4374.358887,4439.487305,,,,,,,,,,,,,,,,,,,,,,,,,,,,,,,,,,,,,,,,,,,,,,,,,,,,,,,,,,,,,,,,,,,,,,
1768918332.436534,1768918332.437283,7.0,0.0,4328.589844,4224.743652,4345.512695,4343.846191,4229.102539,4290.641113,4320.384766,4343.333496,4273.077148,4284.358887,4528.846191,4530.0,4397.563965,4462.563965,,,,,,,,,,,,,,,,,,,,,,,,,,,,,,,,,,,,,,,,,,,,,,,,,,,,,,,,,,,,,,,,,,,,,,
1768918332.444342,1768918332.44529,8.0,0.0,4339.102539,4236.538574,4356.025879,4356.794922,4231.538574,4283.589844,4313.077148,4353.589844,4287.179688,4298.333496,4547.820313,4544.487305,4418.846191,4476.025879,,,,,,,,,,,,,,,,,,,,,,,,,,,,,,,,,,,,,,,,,,,,,,,,,,,,,,,,,,,,,,,,,,,,,,
1768918332.452151,1768918332.453098,9.0,0.0,4340.512695,4234.487305,4354.743652,4357.179688,4231.666504,4277.05127,4291.794922,4345.512695,4281.794922,4294.615234,4538.589844,4539.358887,4412.436035,4466.410156,,,,,,,,,,,,,,,,,,,,,,,,,,,,,,,,,,,,,,,,,,,,,,,,,,,,,,,,,,,,,,,,,,,,,,
1768918332.459959,1768918332.461006,10.0,0.0,4335.0,4230.128418,4348.333496,4350.641113,4227.05127,4280.0,4297.436035,4325.897461,4264.743652,4277.563965,4514.487305,4517.94873,4392.307617,4456.025879,,,,,,,,,,,,,,,,,,,,,,,,,,,,,,,,,,,,,,,,,,,,,,,,,,,,,,,,,,,,,,,,,,,,,,
1768918332.467768,1768918332.468814,11.0,0.0,4332.94873,4232.820313,4349.743652,4348.846191,4222.563965,4279.230957,4309.487305,4322.179688,4259.871582,4266.025879,4506.538574,4506.538574,4386.410156,4450.641113,,,,,,,,,,,,,,,,,,,,,,,,,,,,,,,,,,,,,,,,,,,,,,,,,,,,,,,,,,,,,,,,,,,,,,
1768918332.475576,1768918332.476822,12.0,0.0,4335.256348,4234.230957,4351.282227,4348.461426,4227.563965,4276.538574,4307.05127,4330.641113,4265.128418,4270.0,4514.358887,4515.128418,4396.153809,4451.282227,,,,,,,,,,,,,,,,,,,,,,,,,,,,,,,,,,,,,,,,,,,,,,,,,,,,,,,,,,,,,,,,,,,,,,
1768918332.483385,1768918332.48463,13.0,0.0,4335.769043,4230.128418,4347.820313,4343.461426,4228.205078,4279.743652,4305.641113,4329.358887,4263.589844,4275.0,4511.666504,4520.0,4397.307617,4456.666504,,,,,,,,,,,,,,,,,,,,,,,,,,,,,,,,,,,,,,,,,,,,,,,,,,,,,,,,,,,,,,,,,,,,,,
1768918332.491193,1768918332.492338,14.0,0.0,4335.769043,4227.436035,4350.256348,4340.256348,4217.692383,4278.333496,4307.307617,4327.563965,4261.922852,4274.615234,4507.94873,4518.205078,4391.666504,4455.128418,,,,,,,,,,,,,,,,,,,,,,,,,,,,,,,,,,,,,,,,,,,,,,,,,,,,,,,,,,,,,,,,,,,,,,
1768918332.499002,1768918332.500145,15.0,0.0,4340.0,4230.0,4356.153809,4343.461426,4217.820313,4276.538574,4308.974121,4333.077148,4265.384766,4274.743652,4517.307617,4520.512695,4392.563965,4451.922852,,,,,,,,,,,,,,,,,,,,,,,,,,,,,,,,,,,,,,,,,,,,,,,,,,,,,,,,,,,,,,,,,,,,,,
1768918332.506811,1768918332.507754,16.0,0.0,4342.692383,4233.461426,4358.974121,4344.102539,4229.615234,4284.102539,4314.102539,4333.589844,4264.743652,4274.871582,4518.846191,4523.974121,4395.128418,4454.871582,0.618766,0.736382,0.278147,0.354276,0.18004,0.915323,0.563909,0.402524,0.256515,0.104595,1.024692,0.769491,0.312485,0.196939,0.16898,0.702737,0.721309,0.211728,0.185997,0.094087,0.371352,0.214767,0.126824,0.230808,0.120226,0.212003,0.182008,0.160999,0.17456,0.185178,0.26597,0.58322,0.30831,0.276012,0.313736,0.832268,0.413145,0.345479,0.364103,0.169771,0.89694,0.477194,0.196934,0.231147,0.109408,1.153617,0.408557,0.313,0.341021,0.110606,1.350638,0.484211,0.27217,0.40047,0.17735,1.746107,1.174682,1.01359,0.697733,0.284547,1.036974,0.580566,0.380048,0.627086,0.285372,0.937072,0.76119,0.4901,0.446618,0.329967
1768918332.514619,1768918332.515562,17.0,0.0,4341.794922,4232.820313,4357.563965,4341.666504,4228.333496,4287.692383,4310.512695,4331.153809,4264.871582,4277.820313,4514.871582,4523.974121,4396.538574,4459.743652,,,,,,,,,,,,,,,,,,,,,,,,,,,,,,,,,,,,,,,,,,,,,,,,,,,,,,,,,,,,,,,,,,,,,,
1768918332.522427,1768918332.52327,18.0,0.0,4339.230957,4230.128418,4353.846191,4340.769043,4219.743652,4279.487305,4301.153809,4333.205078,4268.846191,4279.743652,4518.077148,4523.077148,4394.871582,4459.871582,,,,,,,,,,,,,,,,,,,,,,,,,,,,,,,,,,,,,,,,,,,,,,,,,,,,,,,,,,,,,,,,,,,,,,
1768918332.530236,1768918332.531078,19.0,0.0,4335.897461,4229.487305,4354.615234,4339.358887,4220.256348,4274.358887,4301.282227,4332.563965,4267.307617,4275.897461,4514.743652,4522.05127,4389.102539,4456.410156,,,,,,,,,,,,,,,,,,,,,,,,,,,,,,,,,,,,,,,,,,,,,,,,,,,,,,,,,,,,,,,,,,,,,,
1768918332.538045,1768918332.538686,20.0,0.0,4335.769043,4229.743652,4358.717773,4337.692383,4223.461426,4277.05127,4305.641113,4327.692383,4263.461426,4274.615234,4507.563965,4521.025879,4387.563965,4452.820313,,,,,,,,,,,,,,,,,,,,,,,,,,,,,,,,,,,,,,,,,,,,,,,,,,,,,,,,,,,,,,,,,,,,,,
1768918332.545853,1768918332.546494,21.0,0.0,4338.461426,4230.128418,4356.794922,4336.538574,4220.128418,4278.846191,4307.436035,4322.307617,4262.820313,4276.153809,4508.974121,4521.410156,4388.974121,4454.743652,,,,,,,,,,,,,,,,,,,,,,,,,,,,,,,,,,,,,,,,,,,,,,,,,,,,,,,,,,,,,,,,,,,,,,
1768918332.553661,1768918332.554202,22.0,0.0,4339.743652,4230.897461,4353.589844,4336.410156,4216.794922,4276.153809,4307.179688,4321.025879,4263.974121,4268.717773,4508.974121,4521.153809,4383.717773,4462.692383,,,,,,,,,,,,,,,,,,,,,,,,,,,,,,,,,,,,,,,,,,,,,,,,,,,,,,,,,,,,,,,,,,,,,,
1768918332.56147,1768918332.56201,23.0,0.0,4336.282227,4224.358887,4356.794922,4334.615234,4216.410156,4267.820313,4298.205078,4321.025879,4259.487305,4260.128418,4504.102539,4520.128418,4378.717773,4457.179688,,,,,,,,,,,,,,,,,,,,,,,,,,,,,,,,,,,,,,,,,,,,,,,,,,,,,,,,,,,,,,,,,,,,,,
1768918332.569279,1768918332.570018,24.0,0.0,4334.487305,4217.307617,4357.307617,4333.077148,4212.94873,4264.615234,4292.563965,4320.0,4251.794922,4260.512695,4503.974121,4520.897461,4380.769043,4444.615234,,,,,,,,,,,,,,,,,,,,,,,,,,,,,,,,,,,,,,,,,,,,,,,,,,,,,,,,,,,,,,,,,,,,,,
1768918332.577087,1768918332.577826,25.0,0.0,4334.871582,4221.794922,4355.512695,4337.94873,4216.153809,4277.05127,4308.077148,4323.589844,4255.769043,4264.615234,4508.333496,4523.974121,4382.179688,4450.128418,,,,,,,,,,,,,,,,,,,,,,,,,,,,,,,,,,,,,,,,,,,,,,,,,,,,,,,,,,,,,,,,,,,,,,
1768918332.584895,1768918332.585733,26.0,0.0,4330.128418,4224.102539,4356.922852,4342.563965,4220.641113,4280.641113,4313.461426,4323.589844,4259.871582,4262.307617,4504.358887,4524.230957,4378.589844,4455.512695,,,,,,,,,,,,,,,,,,,,,,,,,,,,,,,,,,,,,,,,,,,,,,,,,,,,,,,,,,,,,,,,,,,,,,
1768918332.592704,1768918332.593541,27.0,0.0,4326.922852,4217.820313,4355.384766,4339.615234,4216.410156,4267.94873,4297.05127,4315.384766,4252.436035,4257.563965,4497.307617,4522.05127,4377.179688,4446.538574,,,,,,,,,,,,,,,,,,,,,,,,,,,,,,,,,,,,,,,,,,,,,,,,,,,,,,,,,,,,,,,,,,,,,,
1768918332.600513,1768918332.601149,28.0,0.0,4326.153809,4215.128418,4347.436035,4331.410156,4214.615234,4265.512695,4292.563965,4317.692383,4253.077148,4260.384766,4501.153809,4522.179688,4376.282227,4443.205078,,,,,,,,,,,,,,,,,,,,,,,,,,,,,,,,,,,,,,,,,,,,,,,,,,,,,,,,,,,,,,,,,,,,,,
1768918332.608321,1768918332.608957,29.0,0.0,4326.025879,4216.922852,4345.641113,4327.563965,4216.410156,4268.974121,4297.94873,4325.769043,4264.102539,4264.615234,4507.179688,4521.025879,4372.692383,4446.410156,,,,,,,,,,,,,,,,,,,,,,,,,,,,,,,,,,,,,,,,,,,,,,,,,,,,,,,,,,,,,,,,,,,,,,
1768918332.61613,1768918332.616665,30.0,0.0,4332.307617,4218.333496,4355.641113,4334.358887,4214.102539,4263.717773,4296.282227,4324.230957,4261.025879,4260.512695,4503.717773,4522.436035,4375.256348,4448.846191,,,,,,,,,,,,,,,,,,,,,,,,,,,,,,,,,,,,,,,,,,,,,,,,,,,,,,,,,,,,,,,,,,,,,,
1768918332.623938,1768918332.624473,31.0,0.0,4337.94873,4219.102539,4362.05127,4340.641113,4211.282227,4265.512695,4296.922852,4319.102539,4251.538574,4256.538574,4502.563965,4527.563965,4381.410156,4456.153809,,,,,,,,,,,,,,,,,,,,,,,,,,,,,,,,,,,,,,,,,,,,,,,,,,,,,,,,,,,,,,,,,,,,,,
1768918332.631747,1768918332.63248,32.0,0.0,4336.666504,4216.410156,4356.538574,4334.615234,4215.128418,4273.461426,4306.922852,4317.820313,4256.153809,4260.384766,4506.282227,4527.05127,4380.769043,4457.307617,0.560973,0.629505,0.286564,0.337927,0.181934,0.883226,0.52496,0.370226,0.24953,0.100685,0.999508,0.715232,0.300021,0.187746,0.165996,0.680136,0.706725,0.176806,0.182776,0.096225,0.293263,0.183286,0.116632,0.219939,0.118889,0.199815,0.195757,0.154655,0.202952,0.186757,0.335565,0.586548,0.343111,0.330013,0.356703,0.835397,0.437526,0.329905,0.353592,0.1772,0.977018,0.54721,0.182129,0.223532,0.106625,1.057437,0.473781,0.326939,0.30169,0.116743,1.380834,0.6153,0.310821,0.334695,0.191992,1.635833,1.226271,0.987392,0.596468,0.299887,1.112313,0.595887,0.389605,0.583617,0.298805,0.88148,0.722895,0.552849,0.413128,0.342454
1768918332.639555,1768918332.640288,33.0,0.0,4336.666504,4214.230957,4349.487305,4326.666504,4218.461426,4268.333496,4306.025879,4317.94873,4263.333496,4264.358887,4506.922852,4526.282227,4383.205078,4452.307617,,,,,,,,,,,,,,,,,,,,,,,,,,,,,,,,,,,,,,,,,,,,,,,,,,,,,,,,,,,,,,,,,,,,,,
1768918332.647364,1768918332.648196,34.0,0.0,4334.102539,4215.256348,4348.846191,4327.820313,4215.256348,4261.922852,4298.205078,4322.307617,4263.461426,4264.358887,4507.692383,4527.179688,4388.974121,4454.230957,,,,,,,,,,,,,,,,,,,,,,,,,,,,,,,,,,,,,,,,,,,,,,,,,,,,,,,,,,,,,,,,,,,,,,
1768918332.655172,1768918332.656004,35.0,0.0,4328.333496,4213.205078,4353.205078,4328.205078,4213.974121,4267.563965,4304.615234,4323.846191,4258.846191,4262.820313,4506.794922,4525.128418,4384.230957,4456.282227,,,,,,,,,,,,,,,,,,,,,,,,,,,,,,,,,,,,,,,,,,,,,,,,,,,,,,,,,,,,,,,,,,,,,,
1768918332.662981,1768918332.664012,36.0,0.0,4331.538574,4214.102539,4359.102539,4326.153809,4216.538574,4274.487305,4315.512695,4321.538574,4261.538574,4265.384766,4508.461426,4526.666504,4386.794922,4457.692383,,,,,,,,,,,,,,,,,,,,,,,,,,,,,,,,,,,,,,,,,,,,,,,,,,,,,,,,,,,,,,,,,,,,,,
1768918332.670789,1768918332.67182,37.0,0.0,4331.666504,4217.563965,4354.230957,4327.179688,4218.333496,4274.871582,4316.153809,4327.692383,4270.512695,4269.230957,4511.538574,4528.846191,4396.666504,4457.820313,,,,,,,,,,,,,,,,,,,,,,,,,,,,,,,,,,,,,,,,,,,,,,,,,,,,,,,,,,,,,,,,,,,,,,
1768918332.678598,1768918332.679528,38.0,0.0,4322.436035,4215.897461,4340.256348,4325.512695,4217.94873,4267.692383,4310.0,4331.153809,4269.230957,4267.179688,4507.436035,4523.077148,4391.153809,4451.922852,,,,,,,,,,,,,,,,,,,,,,,,,,,,,,,,,,,,,,,,,,,,,,,,,,,,,,,,,,,,,,,,,,,,,,
1768918332.686406,1768918332.687336,39.0,0.0,4327.692383,4214.230957,4343.461426,4326.538574,4216.410156,4263.205078,4308.205078,4324.487305,4264.230957,4269.230957,4511.538574,4519.615234,4387.436035,4452.692383,,,,,,,,,,,,,,,,,,,,,,,,,,,,,,,,,,,,,,,,,,,,,,,,,,,,,,,,,,,,,,,,,,,,,,
1768918332.694215,1768918332.694944,40.0,0.0,4344.358887,4224.358887,4360.128418,4337.563965,4218.077148,4268.717773,4311.025879,4322.307617,4263.589844,4275.128418,4521.922852,4528.077148,4398.333496,4462.436035,,,,,,,,,,,,,,,,,,,,,,,,,,,,,,,,,,,,,,,,,,,,,,,,,,,,,,,,,,,,,,,,,,,,,,
1768918332.702023,1768918332.702752,41.0,0.0,4346.410156,4234.230957,4361.794922,4342.692383,4220.641113,4271.282227,4313.717773,4329.230957,4266.282227,4273.717773,4515.769043,4533.589844,4398.333496,4465.384766,,,,,,,,,,,,,,,,,,,,,,,,,,,,,,,,,,,,,,,,,,,,,,,,,,,,,,,,,,,,,,,,,,,,,,
1768918332.709832,1768918332.71046,42.0,0.0,4335.384766,4228.717773,4348.461426,4336.025879,4220.128418,4267.179688,4310.256348,4332.94873,4270.128418,4271.282227,4506.025879,4526.922852,4390.769043,4460.641113,,,,,,,,,,,,,,,,,,,,,,,,,,,,,,,,,,,,,,,,,,,,,,,,,,,,,,,,,,,,,,,,,,,,,,
1768918332.71764,1768918332.718268,43.0,0.0,4328.461426,4222.307617,4339.615234,4331.410156,4215.256348,4262.820313,4303.205078,4326.025879,4270.0,4273.077148,4513.077148,4521.666504,4394.102539,4457.820313,,,,,,,,,,,,,,,,,,,,,,,,,,,,,,,,,,,,,,,,,,,,,,,,,,,,,,,,,,,,,,,,,,,,,,
1768918332.725449,1768918332.725876,44.0,0.0,4337.563965,4228.333496,4341.666504,4337.563965,4217.94873,4268.205078,4311.794922,4324.615234,4270.769043,4275.256348,4523.974121,4528.974121,4399.487305,4464.358887,,,,,,,,,,,,,,,,,,,,,,,,,,,,,,,,,,,,,,,,,,,,,,,,,,,,,,,,,,,,,,,,,,,,,,
1768918332.733257,1768918332.733684,45.0,0.0,4349.871582,4234.615234,4349.230957,4343.846191,4226.282227,4275.0,4323.846191,4328.717773,4275.641113,4279.615234,4524.615234,4532.820313,4398.333496,4470.641113,,,,,,,,,,,,,,,,,,,,,,,,,,,,,,,,,,,,,,,,,,,,,,,,,,,,,,,,,,,,,,,,,,,,,,
1768918332.741066,1768918332.741392,46.0,0.0,4345.384766,4231.666504,4355.0,4340.641113,4223.205078,4268.333496,4312.05127,4325.641113,4273.717773,4277.05127,4515.384766,4522.307617,4390.641113,4462.563965,,,,,,,,,,,,,,,,,,,,,,,,,,,,,,,,,,,,,,,,,,,,,,,,,,,,,,,,,,,,,,,,,,,,,,
1768918332.748874,1768918332.7492,47.0,0.0,4338.461426,4230.256348,4357.05127,4338.846191,4216.025879,4262.436035,4302.692383,4322.436035,4264.487305,4269.102539,4507.307617,4520.512695,4381.025879,4458.461426,,,,,,,,,,,,,,,,,,,,,,,,,,,,,,,,,,,,,,,,,,,,,,,,,,,,,,,,,,,,,,,,,,,,,,
1768918332.756683,1768918332.757208,48.0,0.0,4339.487305,4231.153809,4352.94873,4338.846191,4214.871582,4267.820313,4314.230957,4328.589844,4266.922852,4269.230957,4508.589844,4527.94873,4379.102539,4463.205078,0.482006,0.496442,0.277502,0.305128,0.186421,0.780482,0.48677,0.326966,0.228236,0.097254,0.939772,0.623634,0.271161,0.17311,0.169713,0.627764,0.673605,0.143868,0.169618,0.101263,0.268182,0.169429,0.110411,0.19927,0.113911,0.200109,0.194496,0.147247,0.234057,0.200795,0.383951,0.545867,0.35841,0.384224,0.401631,0.768338,0.446358,0.314367,0.334731,0.180239,1.006824,0.611648,0.167161,0.210637,0.10055,0.948128,0.549067,0.361165,0.261131,0.123705,1.320326,0.801407,0.350413,0.274841,0.200155,1.426289,1.215217,0.880086,0.502048,0.306017,1.164162,0.679183,0.370206,0.508825,0.290737,0.784098,0.666122,0.57359,0.363481,0.335167
1768918332.764491,1768918332.765016,49.0,0.0,4336.666504,4229.358887,4341.666504,4331.025879,4216.153809,4269.743652,4318.461426,4328.974121,4270.128418,4270.384766,4509.743652,4524.230957,4383.461426,4459.102539,,,,,,,,,,,,,,,,,,,,,,,,,,,,,,,,,,,,,,,,,,,,,,,,,,,,,,,,,,,,,,,,,,,,,,
1768918332.7723,1768918332.772924,50.0,0.0,4333.974121,4230.384766,4338.589844,4323.461426,4216.794922,4270.256348,4314.615234,4325.0,4268.077148,4265.512695,4508.077148,4521.410156,4388.333496,4455.384766,,,,,,,,,,,,,,,,,,,,,,,,,,,,,,,,,,,,,,,,,,,,,,,,,,,,,,,,,,,,,,,,,,,,,,
1768918332.780108,1768918332.780732,51.0,0.0,4339.230957,4232.94873,4346.153809,4327.307617,4218.717773,4276.282227,4318.077148,4328.205078,4271.153809,4264.487305,4509.102539,4526.538574,4390.128418,4460.897461,,,,,,,,,,,,,,,,,,,,,,,,,,,,,,,,,,,,,,,,,,,,,,,,,,,,,,,,,,,,,,,,,,,,,,
1768918332.787917,1768918332.78874,52.0,0.0,4338.846191,4232.563965,4346.282227,4329.487305,4218.205078,4269.871582,4313.589844,4322.820313,4267.94873,4268.077148,4508.974121,4525.769043,4388.333496,4460.512695,,,,,,,,,,,,,,,,,,,,,,,,,,,,,,,,,,,,,,,,,,,,,,,,,,,,,,,,,,,,,,,,,,,,,,
1768918332.795725,1768918332.796548,53.0,0.0,4328.974121,4228.461426,4337.94873,4322.94873,4216.153809,4263.333496,4307.94873,4312.94873,4261.410156,4270.897461,4506.153809,4520.641113,4389.487305,4455.769043,,,,,,,,,,,,,,,,,,,,,,,,,,,,,,,,,,,,,,,,,,,,,,,,,,,,,,,,,,,,,,,,,,,,,,
1768918332.803534,1768918332.804256,54.0,0.0,4326.282227,4229.358887,4338.589844,4327.307617,4217.307617,4270.128418,4314.230957,4317.307617,4262.94873,4273.589844,4506.794922,4522.820313,4393.461426,4461.410156,,,,,,,,,,,,,,,,,,,,,,,,,,,,,,,,,,,,,,,,,,,,,,,,,,,,,,,,,,,,,,,,,,,,,,
1768918332.811342,1768918332.812063,55.0,0.0,4330.641113,4240.0,4343.589844,4341.282227,4218.077148,4273.077148,4314.102539,4323.846191,4266.794922,4272.179688,4509.102539,4525.512695,4392.436035,4475.256348,,,,,,,,,,,,,,,,,,,,,,,,,,,,,,,,,,,,,,,,,,,,,,,,,,,,,,,,,,,,,,,,,,,,,,
1768918332.819151,1768918332.819671,56.0,0.0,4332.307617,4248.846191,4344.102539,4340.897461,4218.974121,4273.717773,4315.512695,4323.461426,4270.512695,4268.589844,4507.563965,4521.410156,4387.179688,4485.128418,,,,,,,,,,,,,,,,,,,,,,,,,,,,,,,,,,,,,,,,,,,,,,,,,,,,,,,,,,,,,,,,,,,,,,
1768918332.826959,1768918332.827479,57.0,0.0,4335.128418,4248.846191,4343.461426,4329.358887,4220.128418,4278.333496,4328.717773,4326.282227,4278.333496,4274.743652,4507.436035,4517.94873,4387.05127,4488.333496,,,,,,,,,,,,,,,,,,,,,,,,,,,,,,,,,,,,,,,,,,,,,,,,,,,,,,,,,,,,,,,,,,,,,,
1768918332.834768,1768918332.835387,58.0,0.0,4337.820313,4243.717773,4342.05127,4325.256348,4220.384766,4279.743652,4331.025879,4331.538574,4282.692383,4285.256348,4513.974121,4522.307617,4392.692383,4487.820313,,,,,,,,,,,,,,,,,,,,,,,,,,,,,,,,,,,,,,,,,,,,,,,,,,,,,,,,,,,,,,,,,,,,,,
1768918332.842576,1768918332.843195,59.0,0.0,4333.333496,4239.871582,4341.282227,4327.179688,4217.692383,4276.410156,4324.102539,4333.589844,4279.615234,4288.077148,4523.205078,4529.743652,4397.05127,4490.769043,,,,,,,,,,,,,,,,,,,,,,,,,,,,,,,,,,,,,,,,,,,,,,,,,,,,,,,,,,,,,,,,,,,,,,
1768918332.850385,1768918332.851203,60.0,0.0,4325.512695,4235.641113,4342.05127,4325.897461,4214.102539,4269.358887,4323.974121,4334.358887,4278.974121,4282.307617,4526.153809,4529.358887,4398.589844,4490.641113,,,,,,,,,,,,,,,,,,,,,,,,,,,,,,,,,,,,,,,,,,,,,,,,,,,,,,,,,,,,,,,,,,,,,,
1768918332.858193,1768918332.859011,61.0,0.0,4322.820313,4232.94873,4342.563965,4324.871582,4216.666504,4262.563965,4326.538574,4332.307617,4279.102539,4280.641113,4520.769043,4524.102539,4397.307617,4481.282227,,,,,,,,,,,,,,,,,,,,,,,,,,,,,,,,,,,,,,,,,,,,,,,,,,,,,,,,,,,,,,,,,,,,,,
1768918332.866002,1768918332.866918,62.0,0.0,4321.794922,4237.820313,4341.794922,4326.282227,4220.769043,4270.128418,4326.025879,4328.717773,4277.94873,4278.974121,4510.512695,4516.794922,4389.487305,4472.563965,,,,,,,,,,,,,,,,,,,,,,,,,,,,,,,,,,,,,,,,,,,,,,,,,,,,,,,,,,,,,,,,,,,,,,
1768918332.87381,1768918332.874726,63.0,0.0,4317.563965,4242.94873,4339.871582,4331.025879,4218.974121,4279.102539,4324.230957,4329.102539,4276.025879,4270.512695,4501.410156,4511.025879,4381.282227,4472.563965,,,,,,,,,,,,,,,,,,,,,,,,,,,,,,,,,,,,,,,,,,,,,,,,,,,,,,,,,,,,,,,,,,,,,,
1768918332.881619,1768918332.882335,64.0,0.0,4321.794922,4244.615234,4342.179688,4337.307617,4218.717773,4273.077148,4322.820313,4332.05127,4277.820313,4272.179688,4510.769043,4519.230957,4389.487305,4480.256348,0.420486,0.358978,0.254191,0.270154,0.192858,0.715831,0.455017,0.279872,0.199084,0.095503,0.895451,0.506683,0.233825,0.165561,0.182717,0.558473,0.615514,0.121829,0.15555,0.10934,0.213405,0.169749,0.111109,0.173508,0.106744,0.176754,0.177712,0.143211,0.258772,0.220344,0.39929,0.46518,0.346521,0.424927,0.436492,0.667346,0.448311,0.30987,0.314259,0.180064,0.951873,0.673506,0.163504,0.19889,0.095849,0.833133,0.641191,0.413576,0.229705,0.130615,1.196117,1.02598,0.38802,0.246173,0.206213,1.193875,1.15874,0.731712,0.434263,0.306726,1.191808,0.850336,0.332179,0.430374,0.269737,0.672306,0.616664,0.549441,0.314065,0.317301
1768918332.889427,1768918332.890142,65.0,0.0,4331.282227,4245.0,4350.0,4339.358887,4221.794922,4270.0,4323.717773,4330.384766,4280.512695,4279.871582,4521.282227,4529.743652,4400.256348,4487.05127,,,,,,,,,,,,,,,,,,,,,,,,,,,,,,,,,,,,,,,,,,,,,,,,,,,,,,,,,,,,,,,,,,,,,,
1768918332.897236,1768918332.897851,66.0,0.0,4330.897461,4246.025879,4356.538574,4340.512695,4217.820313,4274.871582,4324.487305,4322.820313,4272.436035,4270.769043,4514.358887,4527.179688,4395.128418,4489.743652,,,,,,,,,,,,,,,,,,,,,,,,,,,,,,,,,,,,,,,,,,,,,,,,,,,,,,,,,,,,,,,,,,,,,,
1768918332.905044,1768918332.905659,67.0,0.0,4327.179688,4246.666504,4356.922852,4343.846191,4217.820313,4275.641113,4324.230957,4321.922852,4264.230957,4261.153809,4506.410156,4527.563965,4388.205078,4487.563965,,,,,,,,,,,,,,,,,,,,,,,,,,,,,,,,,,,,,,,,,,,,,,,,,,,,,,,,,,,,,,,,,,,,,,
1768918332.912853,1768918332.913267,68.0,0.0,4331.153809,4246.922852,4357.05127,4344.230957,4222.820313,4272.563965,4323.077148,4327.179688,4268.717773,4268.717773,4508.333496,4537.692383,4389.230957,4485.0,,,,,,,,,,,,,,,,,,,,,,,,,,,,,,,,,,,,,,,,,,,,,,,,,,,,,,,,,,,,,,,,,,,,,,
1768918332.920661,1768918332.921075,69.0,0.0,4333.846191,4248.461426,4357.563965,4342.307617,4223.205078,4273.077148,4322.05127,4329.102539,4277.307617,4276.538574,4515.641113,4539.487305,4393.461426,4488.333496,,,,,,,,,,,,,,,,,,,,,,,,,,,,,,,,,,,,,,,,,,,,,,,,,,,,,,,,,,,,,,,,,,,,,,
1768918332.92847,1768918332.928783,70.0,0.0,4328.077148,4246.282227,4353.589844,4340.897461,4222.436035,4271.410156,4321.153809,4330.384766,4278.077148,4275.641113,4515.641113,4534.358887,4395.384766,4486.794922,,,,,,,,,,,,,,,,,,,,,,,,,,,,,,,,,,,,,,,,,,,,,,,,,,,,,,,,,,,,,,,,,,,,,,
1768918332.936278,1768918332.936591,71.0,0.0,4325.256348,4244.743652,4348.461426,4339.871582,4222.563965,4265.128418,4319.615234,4330.0,4277.563965,4277.179688,4516.153809,4532.692383,4395.128418,4484.487305,,,,,,,,,,,,,,,,,,,,,,,,,,,,,,,,,,,,,,,,,,,,,,,,,,,,,,,,,,,,,,,,,,,,,,
1768918332.944087,1768918332.944199,72.0,0.0,4327.563965,4248.077148,4348.077148,4339.743652,4219.615234,4268.205078,4323.333496,4329.230957,4279.743652,4280.0,4518.461426,4530.256348,4396.025879,4485.0,,,,,,,,,,,,,,,,,,,,,,,,,,,,,,,,,,,,,,,,,,,,,,,,,,,,,,,,,,,,,,,,,,,,,,
1768918332.951895,1768918332.952007,73.0,0.0,4328.846191,4245.384766,4353.717773,4338.333496,4215.769043,4275.512695,4324.358887,4325.897461,4278.717773,4280.0,4515.128418,4529.487305,4396.794922,4483.205078,,,,,,,,,,,,,,,,,,,,,,,,,,,,,,,,,,,,,,,,,,,,,,,,,,,,,,,,,,,,,,,,,,,,,,
1768918332.959704,1768918332.959915,74.0,0.0,4327.94873,4239.230957,4356.025879,4335.769043,4215.897461,4270.0,4312.94873,4323.846191,4277.94873,4279.487305,4515.0,4537.179688,4394.615234,4478.717773,,,,,,,,,,,,,,,,,,,,,,,,,,,,,,,,,,,,,,,,,,,,,,,,,,,,,,,,,,,,,,,,,,,,,,
1768918332.967512,1768918332.967723,75.0,0.0,4326.794922,4243.205078,4352.692383,4338.077148,4222.307617,4262.692383,4310.0,4331.025879,4282.05127,4279.615234,4518.717773,4542.05127,4392.05127,4478.333496,,,,,,,,,,,,,,,,,,,,,,,,,,,,,,,,,,,,,,,,,,,,,,,,,,,,,,,,,,,,,,,,,,,,,,
1768918332.975321,1768918332.97573,76.0,0.0,4328.461426,4250.256348,4348.461426,4342.307617,4229.615234,4272.436035,4325.897461,4331.666504,4282.05127,4278.846191,4513.461426,4531.410156,4390.641113,4476.282227,,,,,,,,,,,,,,,,,,,,,,,,,,,,,,,,,,,,,,,,,,,,,,,,,,,,,,,,,,,,,,,,,,,,,,
1768918332.983129,1768918332.983538,77.0,0.0,4327.94873,4247.820313,4346.666504,4342.436035,4230.641113,4281.153809,4329.871582,4322.05127,4277.94873,4275.641113,4503.077148,4517.436035,4387.436035,4469.487305,,,,,,,,,,,,,,,,,,,,,,,,,,,,,,,,,,,,,,,,,,,,,,,,,,,,,,,,,,,,,,,,,,,,,,
1768918332.990938,1768918332.991446,78.0,0.0,4327.307617,4246.666504,4348.974121,4341.538574,4229.615234,4274.615234,4316.922852,4323.461426,4279.230957,4274.230957,4503.846191,4519.358887,4387.820313,4471.025879,,,,,,,,,,,,,,,,,,,,,,,,,,,,,,,,,,,,,,,,,,,,,,,,,,,,,,,,,,,,,,,,,,,,,,
1768918332.998747,1768918332.999254,79.0,0.0,4333.333496,4250.641113,4351.282227,4342.436035,4226.025879,4270.256348,4313.077148,4330.0,4281.538574,4277.436035,4507.179688,4530.128418,4393.974121,4475.769043,,,,,,,,,,,,,,,,,,,,,,,,,,,,,,,,,,,,,,,,,,,,,,,,,,,,,,,,,,,,,,,,,,,,,,
1768918333.006555,1768918333.006862,80.0,0.0,4336.666504,4249.102539,4350.384766,4342.307617,4221.282227,4274.615234,4319.871582,4324.871582,4282.05127,4279.871582,4514.230957,4534.102539,4400.256348,4478.589844,0.416681,0.244269,0.229483,0.24727,0.198806,0.656217,0.435768,0.235342,0.170316,0.096134,0.904597,0.382941,0.197496,0.176908,0.202727,0.493814,0.540621,0.115325,0.150728,0.119919,0.209691,0.175047,0.119628,0.146468,0.099927,0.168931,0.149002,0.146012,0.267585,0.239674,0.385598,0.363759,0.310214,0.440282,0.457234,0.571057,0.449507,0.322787,0.296152,0.178587,0.882027,0.729597,0.179417,0.193584,0.096862,0.776052,0.746696,0.477141,0.215044,0.136267,1.05693,1.245587,0.421967,0.261892,0.215543,0.996596,1.07824,0.590171,0.398559,0.307355,1.226705,1.080243,0.292464,0.373766,0.24832,0.575659,0.602131,0.494352,0.27803,0.300749
1768918333.014364,1768918333.01467,81.0,0.0,4328.846191,4247.05127,4350.769043,4340.512695,4229.358887,4277.563965,4327.179688,4326.538574,4290.897461,4279.743652,4523.846191,4531.282227,4401.153809,4479.743652,,,,,,,,,,,,,,,,,,,,,,,,,,,,,,,,,,,,,,,,,,,,,,,,,,,,,,,,,,,,,,,,,,,,,,
1768918333.022172,1768918333.022378,82.0,0.0,4323.589844,4249.743652,4350.384766,4340.256348,4233.333496,4277.563965,4327.05127,4334.358887,4295.384766,4278.333496,4516.153809,4526.922852,4397.307617,4474.871582,,,,,,,,,,,,,,,,,,,,,,,,,,,,,,,,,,,,,,,,,,,,,,,,,,,,,,,,,,,,,,,,,,,,,,
1768918333.029981,1768918333.030186,83.0,0.0,4327.05127,4251.922852,4345.0,4341.538574,4221.153809,4275.512695,4316.922852,4329.230957,4286.922852,4280.256348,4505.128418,4525.256348,4393.333496,4469.871582,,,,,,,,,,,,,,,,,,,,,,,,,,,,,,,,,,,,,,,,,,,,,,,,,,,,,,,,,,,,,,,,,,,,,,
1768918333.037789,1768918333.038193,84.0,0.0,4329.615234,4252.436035,4342.179688,4342.307617,4215.256348,4272.179688,4313.077148,4323.461426,4280.512695,4278.461426,4505.384766,4526.153809,4394.871582,4472.94873,,,,,,,,,,,,,,,,,,,,,,,,,,,,,,,,,,,,,,,,,,,,,,,,,,,,,,,,,,,,,,,,,,,,,,
1768918333.045598,1768918333.046001,85.0,0.0,4328.589844,4250.128418,4345.512695,4341.282227,4218.846191,4266.410156,4313.589844,4323.846191,4281.410156,4270.128418,4506.922852,4525.897461,4396.282227,4473.461426,,,,,,,,,,,,,,,,,,,,,,,,,,,,,,,,,,,,,,,,,,,,,,,,,,,,,,,,,,,,,,,,,,,,,,
1768918333.053406,1768918333.053909,86.0,0.0,4325.769043,4246.794922,4344.102539,4338.846191,4216.153809,4263.077148,4308.974121,4325.128418,4283.205078,4267.94873,4505.384766,4521.410156,4389.487305,4463.717773,,,,,,,,,,,,,,,,,,,,,,,,,,,,,,,,,,,,,,,,,,,,,,,,,,,,,,,,,,,,,,,,,,,,,,
1768918333.061215,1768918333.061717,87.0,0.0,4324.743652,4246.153809,4339.358887,4336.282227,4218.589844,4272.94873,4317.94873,4328.846191,4286.410156,4277.179688,4504.871582,4516.538574,4384.487305,4465.897461,,,,,,,,,,,,,,,,,,,,,,,,,,,,,,,,,,,,,,,,,,,,,,,,,,,,,,,,,,,,,,,,,,,,,,
1768918333.069023,1768918333.069525,88.0,0.0,4326.025879,4247.179688,4340.769043,4334.230957,4228.333496,4284.615234,4332.307617,4334.487305,4287.05127,4280.0,4505.384766,4519.358887,4388.846191,4473.589844,,,,,,,,,,,,,,,,,,,,,,,,,,,,,,,,,,,,,,,,,,,,,,,,,,,,,,,,,,,,,,,,,,,,,,
1768918333.076832,1768918333.077333,89.0,0.0,4325.128418,4246.666504,4343.461426,4334.102539,4230.641113,4276.025879,4321.794922,4329.743652,4282.436035,4269.743652,4505.769043,4520.641113,4390.256348,4467.179688,,,,,,,,,,,,,,,,,,,,,,,,,,,,,,,,,,,,,,,,,,,,,,,,,,,,,,,,,,,,,,,,,,,,,,
1768918333.08464,1768918333.085041,90.0,0.0,4326.410156,4246.922852,4340.512695,4338.077148,4226.922852,4264.358887,4306.538574,4316.922852,4276.794922,4264.743652,4504.358887,4509.230957,4384.102539,4459.230957,,,,,,,,,,,,,,,,,,,,,,,,,,,,,,,,,,,,,,,,,,,,,,,,,,,,,,,,,,,,,,,,,,,,,,
1768918333.092449,1768918333.092849,91.0,0.0,4332.307617,4250.384766,4340.641113,4342.307617,4226.666504,4268.077148,4310.897461,4318.717773,4276.282227,4272.307617,4502.05127,4504.615234,4384.615234,4461.410156,,,,,,,,,,,,,,,,,,,,,,,,,,,,,,,,,,,,,,,,,,,,,,,,,,,,,,,,,,,,,,,,,,,,,,
1768918333.100257,1768918333.100457,92.0,0.0,4334.358887,4251.025879,4345.641113,4342.307617,4229.871582,4271.794922,4319.102539,4331.666504,4283.589844,4279.102539,4504.871582,4517.436035,4392.820313,4466.538574,,,,,,,,,,,,,,,,,,,,,,,,,,,,,,,,,,,,,,,,,,,,,,,,,,,,,,,,,,,,,,,,,,,,,,
1768918333.108066,1768918333.108265,93.0,0.0,4334.615234,4249.743652,4343.846191,4340.384766,4231.410156,4270.641113,4320.769043,4331.794922,4292.94873,4281.794922,4513.974121,4525.128418,4399.230957,4473.717773,,,,,,,,,,,,,,,,,,,,,,,,,,,,,,,,,,,,,,,,,,,,,,,,,,,,,,,,,,,,,,,,,,,,,,
1768918333.115874,1768918333.115973,94.0,0.0,4339.102539,4255.769043,4340.897461,4341.794922,4230.641113,4276.025879,4321.922852,4327.563965,4295.769043,4285.641113,4521.538574,4523.846191,4400.641113,4478.717773,,,,,,,,,,,,,,,,,,,,,,,,,,,,,,,,,,,,,,,,,,,,,,,,,,,,,,,,,,,,,,,,,,,,,,
1768918333.123683,1768918333.123781,95.0,0.0,4339.487305,4261.666504,4349.743652,4343.077148,4232.05127,4282.179688,4326.153809,4334.743652,4294.230957,4285.256348,4521.025879,4525.769043,4397.563965,4474.871582,,,,,,,,,,,,,,,,,,,,,,,,,,,,,,,,,,,,,,,,,,,,,,,,,,,,,,,,,,,,,,,,,,,,,,
1768918333.131491,1768918333.131389,96.0,0.0,4337.563965,4257.692383,4358.461426,4342.94873,4235.897461,4281.025879,4328.333496,4335.0,4293.846191,4279.871582,4516.153809,4528.461426,4396.410156,4475.0,0.484816,0.173912,0.218271,0.245716,0.201768,0.634499,0.433008,0.20328,0.150667,0.099109,0.960555,0.272747,0.172697,0.213327,0.223729,0.456859,0.472491,0.128571,0.161224,0.131897,0.178453,0.175159,0.132801,0.121144,0.095475,0.149237,0.115866,0.155837,0.256267,0.254581,0.35562,0.268282,0.262172,0.424473,0.465054,0.50967,0.452113,0.351896,0.280487,0.176566,0.800903,0.768149,0.213419,0.196677,0.104897,0.769408,0.84807,0.538015,0.218058,0.13972,0.93361,1.402219,0.451242,0.31743,0.230318,0.84456,0.98473,0.487986,0.386272,0.310103,1.282256,1.296902,0.266658,0.351557,0.23589,0.513902,0.638598,0.431777,0.259545,0.292396
1768918333.1393,1768918333.139197,97.0,0.0,4343.205078,4257.692383,4359.230957,4347.820313,4236.666504,4281.025879,4325.256348,4327.05127,4295.256348,4284.230957,4517.436035,4530.256348,4398.333496,4478.589844,,,,,,,,,,,,,,,,,,,,,,,,,,,,,,,,,,,,,,,,,,,,,,,,,,,,,,,,,,,,,,,,,,,,,,
1768918333.147108,1768918333.146905,98.0,0.0,4346.538574,4265.256348,4359.358887,4352.436035,4234.102539,4277.307617,4318.461426,4326.794922,4293.974121,4288.846191,4516.666504,4526.666504,4393.717773,4472.05127,,,,,,,,,,,,,,,,,,,,,,,,,,,,,,,,,,,,,,,,,,,,,,,,,,,,,,,,,,,,,,,,,,,,,,
1768918333.154917,1768918333.154712,99.0,0.0,4340.384766,4262.563965,4358.333496,4349.230957,4234.487305,4275.897461,4323.846191,4331.410156,4294.743652,4286.025879,4510.0,4523.333496,4386.794922,4467.307617,,,,,,,,,,,,,,,,,,,,,,,,,,,,,,,,,,,,,,,,,,,,,,,,,,,,,,,,,,,,,,,,,,,,,,
1768918333.162725,1768918333.16272,100.0,0.0,4335.512695,4250.128418,4354.487305,4344.615234,4237.94873,4288.589844,4338.077148,4340.384766,4306.025879,4285.128418,4515.512695,4532.436035,4392.820313,4472.307617,,,,,,,,,,,,,,,,,,,,,,,,,,,,,,,,,,,,,,,,,,,,,,,,,,,,,,,,,,,,,,,,,,,,,,
1768918333.170534,1768918333.170528,101.0,0.0,4335.641113,4247.820313,4353.846191,4342.436035,4237.692383,4291.282227,4336.410156,4344.102539,4311.153809,4284.102539,4522.692383,4534.358887,4396.666504,4470.384766,,,,,,,,,,,,,,,,,,,,,,,,,,,,,,,,,,,,,,,,,,,,,,,,,,,,,,,,,,,,,,,,,,,,,,
1768918333.178342,1768918333.178436,102.0,0.0,4337.94873,4257.179688,4356.922852,4344.615234,4234.743652,4279.102539,4322.563965,4331.666504,4299.615234,4279.871582,4518.974121,4526.922852,4391.153809,4467.563965,,,,,,,,,,,,,,,,,,,,,,,,,,,,,,,,,,,,,,,,,,,,,,,,,,,,,,,,,,,,,,,,,,,,,,
1768918333.186151,1768918333.186244,103.0,0.0,4342.307617,4266.538574,4360.897461,4351.282227,4234.102539,4275.384766,4321.922852,4320.897461,4291.922852,4280.384766,4514.358887,4530.0,4392.563965,4472.436035,,,,,,,,,,,,,,,,,,,,,,,,,,,,,,,,,,,,,,,,,,,,,,,,,,,,,,,,,,,,,,,,,,,,,,
1768918333.193959,1768918333.194252,104.0,0.0,4341.794922,4260.897461,4359.615234,4350.0,4233.589844,4281.410156,4326.794922,4327.436035,4294.615234,4280.256348,4511.025879,4532.05127,4390.0,4468.589844,,,,,,,,,,,,,,,,,,,,,,,,,,,,,,,,,,,,,,,,,,,,,,,,,,,,,,,,,,,,,,,,,,,,,,
1768918333.201768,1768918333.20206,105.0,0.0,4337.05127,4248.717773,4352.563965,4339.230957,4231.794922,4279.743652,4322.307617,4335.128418,4298.717773,4278.589844,4510.384766,4527.05127,4381.153809,4462.436035,,,,,,,,,,,,,,,,,,,,,,,,,,,,,,,,,,,,,,,,,,,,,,,,,,,,,,,,,,,,,,,,,,,,,,
1768918333.209576,1768918333.209768,106.0,0.0,4338.205078,4252.820313,4351.922852,4337.436035,4231.922852,4277.05127,4323.974121,4336.025879,4303.974121,4286.153809,4519.743652,4532.820313,4388.974121,4472.179688,,,,,,,,,,,,,,,,,,,,,,,,,,,,,,,,,,,,,,,,,,,,,,,,,,,,,,,,,,,,,,,,,,,,,,
1768918333.217385,1768918333.217575,107.0,0.0,4343.205078,4265.384766,4362.179688,4344.487305,4233.205078,4279.871582,4329.487305,4343.333496,4310.769043,4294.615234,4528.846191,4544.358887,4402.436035,4480.641113,,,,,,,,,,,,,,,,,,,,,,,,,,,,,,,,,,,,,,,,,,,,,,,,,,,,,,,,,,,,,,,,,,,,,,
1768918333.225193,1768918333.225583,108.0,0.0,4342.436035,4266.153809,4357.94873,4344.743652,4232.820313,4277.692383,4323.717773,4346.025879,4310.641113,4293.589844,4526.025879,4539.102539,4399.615234,4474.102539,,,,,,,,,,,,,,,,,,,,,,,,,,,,,,,,,,,,,,,,,,,,,,,,,,,,,,,,,,,,,,,,,,,,,,
1768918333.233002,1768918333.233391,109.0,0.0,4340.128418,4263.589844,4342.692383,4340.897461,4233.461426,4277.05127,4319.743652,4335.128418,4301.153809,4286.922852,4522.94873,4527.563965,4393.717773,4472.05127,,,,,,,,,,,,,,,,,,,,,,,,,,,,,,,,,,,,,,,,,,,,,,,,,,,,,,,,,,,,,,,,,,,,,,
1768918333.24081,1768918333.241299,110.0,0.0,4341.282227,4267.05127,4348.717773,4340.897461,4233.205078,4276.922852,4320.897461,4329.487305,4294.487305,4280.897461,4522.94873,4529.358887,4395.0,4476.794922,,,,,,,,,,,,,,,,,,,,,,,,,,,,,,,,,,,,,,,,,,,,,,,,,,,,,,,,,,,,,,,,,,,,,,
1768918333.248619,1768918333.249107,111.0,0.0,4341.922852,4267.307617,4361.794922,4340.0,4229.871582,4272.179688,4313.846191,4330.512695,4294.102539,4279.358887,4521.282227,4532.820313,4394.871582,4471.794922,,,,,,,,,,,,,,,,,,,,,,,,,,,,,,,,,,,,,,,,,,,,,,,,,,,,,,,,,,,,,,,,,,,,,,
1768918333.256427,1768918333.257115,112.0,0.0,4340.512695,4262.94873,4352.692383,4337.563965,4230.512695,4270.897461,4307.820313,4328.974121,4296.538574,4280.256348,4520.384766,4524.615234,4394.743652,4467.307617,0.5938,0.154906,0.227075,0.263522,0.199836,0.621345,0.444028,0.188511,0.143976,0.103124,1.017789,0.189748,0.164125,0.269815,0.238537,0.460299,0.434435,0.157629,0.183552,0.142884,0.188298,0.165903,0.144687,0.100598,0.093866,0.14174,0.086865,0.170295,0.231345,0.262496,0.338002,0.200479,0.217481,0.384153,0.462433,0.494928,0.453537,0.385293,0.264943,0.173046,0.74906,0.774865,0.252859,0.206856,0.117019,0.825914,0.920221,0.576339,0.230411,0.140571,0.850405,1.446556,0.470594,0.393019,0.247598,0.713485,0.878911,0.429071,0.381712,0.312586,1.351934,1.41503,0.261613,0.357651,0.233881,0.49669,0.723285,0.380365,0.253488,0.290717
1768918333.264236,1768918333.264923,113.0,0.0,4336.282227,4262.692383,4341.025879,4337.94873,4235.256348,4278.333496,4320.256348,4333.974121,4301.922852,4283.077148,4521.666504,4518.461426,4397.436035,4470.256348,,,,,,,,,,,,,,,,,,,,,,,,,,,,,,,,,,,,,,,,,,,,,,,,,,,,,,,,,,,,,,,,,,,,,,
1768918333.272044,1768918333.272631,114.0,0.0,4332.307617,4263.077148,4343.589844,4339.358887,4234.487305,4284.743652,4329.102539,4339.102539,4305.256348,4286.794922,4523.846191,4523.846191,4395.769043,4469.230957,,,,,,,,,,,,,,,,,,,,,,,,,,,,,,,,,,,,,,,,,,,,,,,,,,,,,,,,,,,,,,,,,,,,,,
1768918333.279853,1768918333.280439,115.0,0.0,4334.743652,4262.94873,4345.0,4338.974121,4230.384766,4276.025879,4314.615234,4324.743652,4297.179688,4285.384766,4520.897461,4521.922852,4389.358887,4461.794922,,,,,,,,,,,,,,,,,,,,,,,,,,,,,,,,,,,,,,,,,,,,,,,,,,,,,,,,,,,,,,,,,,,,,,
1768918333.287661,1768918333.288446,116.0,0.0,4340.384766,4265.0,4343.589844,4341.025879,4232.179688,4266.153809,4304.230957,4313.333496,4289.358887,4283.717773,4519.230957,4517.307617,4390.512695,4461.922852,,,,,,,,,,,,,,,,,,,,,,,,,,,,,,,,,,,,,,,,,,,,,,,,,,,,,,,,,,,,,,,,,,,,,,
1768918333.29547,1768918333.296254,117.0,0.0,4336.282227,4263.333496,4344.358887,4342.436035,4232.94873,4272.820313,4316.666504,4322.563965,4295.128418,4285.512695,4523.077148,4523.589844,4396.666504,4463.333496,,,,,,,,,,,,,,,,,,,,,,,,,,,,,,,,,,,,,,,,,,,,,,,,,,,,,,,,,,,,,,,,,,,,,,
1768918333.303278,1768918333.303963,118.0,0.0,4327.692383,4259.358887,4341.666504,4340.769043,4230.641113,4280.384766,4322.05127,4327.692383,4297.307617,4284.230957,4523.461426,4521.025879,4395.256348,4458.205078,,,,,,,,,,,,,,,,,,,,,,,,,,,,,,,,,,,,,,,,,,,,,,,,,,,,,,,,,,,,,,,,,,,,,,
1768918333.311087,1768918333.31177,119.0,0.0,4326.794922,4257.94873,4340.769043,4342.820313,4233.205078,4276.922852,4312.307617,4321.922852,4293.205078,4286.794922,4521.922852,4510.641113,4396.282227,4460.0,,,,,,,,,,,,,,,,,,,,,,,,,,,,,,,,,,,,,,,,,,,,,,,,,,,,,,,,,,,,,,,,,,,,,,
1768918333.318895,1768918333.319379,120.0,0.0,4324.230957,4250.512695,4342.05127,4342.94873,4236.922852,4274.358887,4309.871582,4320.769043,4294.871582,4292.179688,4522.820313,4511.666504,4397.436035,4462.563965,,,,,,,,,,,,,,,,,,,,,,,,,,,,,,,,,,,,,,,,,,,,,,,,,,,,,,,,,,,,,,,,,,,,,,
1768918333.326704,1768918333.327187,121.0,0.0,4328.205078,4249.102539,4343.589844,4340.128418,4237.05127,4280.0,4314.358887,4325.0,4296.538574,4287.307617,4523.205078,4520.769043,4393.333496,4459.102539,,,,,,,,,,,,,,,,,,,,,,,,,,,,,,,,,,,,,,,,,,,,,,,,,,,,,,,,,,,,,,,,,,,,,,
1768918333.334512,1768918333.334894,122.0,0.0,4345.0,4262.94873,4345.769043,4343.974121,4235.0,4278.974121,4313.846191,4328.717773,4294.487305,4280.897461,4523.461426,4522.692383,4394.487305,4462.307617,,,,,,,,,,,,,,,,,,,,,,,,,,,,,,,,,,,,,,,,,,,,,,,,,,,,,,,,,,,,,,,,,,,,,,
1768918333.342321,1768918333.342702,123.0,0.0,4350.641113,4270.897461,4345.384766,4349.487305,4236.538574,4272.436035,4309.230957,4324.743652,4293.846191,4281.794922,4523.589844,4521.794922,4395.897461,4465.769043,,,,,,,,,,,,,,,,,,,,,,,,,,,,,,,,,,,,,,,,,,,,,,,,,,,,,,,,,,,,,,,,,,,,,,
1768918333.350129,1768918333.35031,124.0,0.0,4341.922852,4264.743652,4342.820313,4347.692383,4240.384766,4270.0,4306.410156,4316.153809,4294.743652,4281.794922,4521.282227,4524.230957,4389.615234,4462.692383,,,,,,,,,,,,,,,,,,,,,,,,,,,,,,,,,,,,,,,,,,,,,,,,,,,,,,,,,,,,,,,,,,,,,,
1768918333.357938,1768918333.358118,125.0,0.0,4340.256348,4262.179688,4342.05127,4343.333496,4238.461426,4267.94873,4305.0,4318.333496,4294.615234,4283.589844,4520.128418,4522.179688,4386.794922,4466.538574,,,,,,,,,,,,,,,,,,,,,,,,,,,,,,,,,,,,,,,,,,,,,,,,,,,,,,,,,,,,,,,,,,,,,,
1768918333.365746,1768918333.366026,126.0,0.0,4343.589844,4262.179688,4342.692383,4341.794922,4234.743652,4267.820313,4307.820313,4325.384766,4295.897461,4284.743652,4523.077148,4520.769043,4390.128418,4472.692383,,,,,,,,,,,,,,,,,,,,,,,,,,,,,,,,,,,,,,,,,,,,,,,,,,,,,,,,,,,,,,,,,,,,,,
1768918333.373555,1768918333.373834,127.0,0.0,4339.743652,4255.897461,4343.846191,4341.794922,4234.230957,4271.538574,4312.820313,4322.692383,4296.410156,4279.358887,4522.692383,4525.256348,4389.358887,4465.384766,,,,,,,,,,,,,,,,,,,,,,,,,,,,,,,,,,,,,,,,,,,,,,,,,,,,,,,,,,,,,,,,,,,,,,
1768918333.381364,1768918333.381841,0.0,0.0,4333.205078,4252.436035,4342.307617,4340.0,4234.358887,4275.384766,4311.025879,4315.641113,4292.563965,4280.384766,4514.230957,4520.256348,4385.384766,4459.487305,0.701294,0.179599,0.250476,0.288276,0.192129,0.587716,0.457697,0.187118,0.148717,0.106678,1.029205,0.141859,0.170186,0.330756,0.241491,0.505239,0.434999,0.190704,0.206986,0.14948,0.187711,0.153393,0.149814,0.088653,0.093818,0.139484,0.068152,0.182563,0.206602,0.263183,0.342421,0.166029,0.183016,0.338086,0.45158,0.514475,0.446538,0.403111,0.249362,0.167062,0.7332,0.741195,0.27874,0.222889,0.127695,0.915838,0.940491,0.572178,0.240384,0.139421,0.80464,1.363317,0.470081,0.466156,0.26046,0.585068,0.763801,0.393674,0.372883,0.309576,1.400301,1.381052,0.272133,0.373187,0.236059,0.508892,0.837174,0.347551,0.251157,0.288114
1768918333.389172,1768918333.389649,1.0,0.0,4327.05127,4251.153809,4334.230957,4335.0,4237.94873,4276.538574,4309.230957,4320.0,4292.820313,4282.179688,4506.666504,4506.410156,4378.589844,4455.769043,,,,,,,,,,,,,,,,,,,,,,,,,,,,,,,,,,,,,,,,,,,,,,,,,,,,,,,,,,,,,,,,,,,,,,
1768918333.39698,1768918333.397557,2.0,0.0,4323.589844,4248.077148,4330.641113,4332.820313,4242.05127,4279.615234,4314.102539,4326.153809,4296.153809,4271.410156,4505.641113,4501.153809,4372.307617,4447.692383,,,,,,,,,,,,,,,,,,,,,,,,,,,,,,,,,,,,,,,,,,,,,,,,,,,,,,,,,,,,,,,,,,,,,,
1768918333.404789,1768918333.405365,3.0,0.0,4326.794922,4248.077148,4338.589844,4339.615234,4236.794922,4282.692383,4316.153809,4318.333496,4288.974121,4263.717773,4506.153809,4505.769043,4373.333496,4445.769043,,,,,,,,,,,,,,,,,,,,,,,,,,,,,,,,,,,,,,,,,,,,,,,,,,,,,,,,,,,,,,,,,,,,,,
1768918333.412598,1768918333.412973,4.0,0.0,4329.230957,4249.743652,4345.128418,4343.846191,4232.436035,4281.410156,4311.666504,4309.487305,4279.615234,4270.0,4505.256348,4506.282227,4373.846191,4451.410156,,,,,,,,,,,,,,,,,,,,,,,,,,,,,,,,,,,,,,,,,,,,,,,,,,,,,,,,,,,,,,,,,,,,,,
1768918333.420406,1768918333.420781,5.0,0.0,4327.05127,4246.794922,4339.615234,4335.0,4236.922852,4279.358887,4307.94873,4312.05127,4283.846191,4274.230957,4506.025879,4504.102539,4372.436035,4454.102539,,,,,,,,,,,,,,,,,,,,,,,,,,,,,,,,,,,,,,,,,,,,,,,,,,,,,,,,,,,,,,,,,,,,,,
1768918333.428214,1768918333.428689,6.0,0.0,4321.794922,4243.974121,4332.05127,4327.05127,4234.871582,4275.384766,4305.512695,4317.563965,4292.307617,4273.717773,4507.692383,4507.436035,4375.769043,4452.05127,,,,,,,,,,,,,,,,,,,,,,,,,,,,,,,,,,,,,,,,,,,,,,,,,,,,,,,,,,,,,,,,,,,,,,
1768918333.436023,1768918333.436497,7.0,0.0,4322.307617,4249.358887,4335.384766,4332.179688,4232.436035,4274.743652,4303.974121,4318.333496,4295.0,4278.205078,4507.820313,4510.897461,4381.538574,4452.436035,,,,,,,,,,,,,,,,,,,,,,,,,,,,,,,,,,,,,,,,,,,,,,,,,,,,,,,,,,,,,,,,,,,,,,
1768918333.443832,1768918333.444505,8.0,0.0,4328.205078,4253.846191,4342.05127,4336.794922,4240.641113,4280.897461,4311.922852,4323.717773,4296.282227,4281.153809,4507.307617,4508.077148,4380.769043,4456.410156,,,,,,,,,,,,,,,,,,,,,,,,,,,,,,,,,,,,,,,,,,,,,,,,,,,,,,,,,,,,,,,,,,,,,,
1768918333.45164,1768918333.452313,9.0,0.0,4327.94873,4251.025879,4341.922852,4334.230957,4247.563965,4284.102539,4319.871582,4328.205078,4295.769043,4276.794922,4507.307617,4505.256348,4377.307617,4458.717773,,,,,,,,,,,,,,,,,,,,,,,,,,,,,,,,,,,,,,,,,,,,,,,,,,,,,,,,,,,,,,,,,,,,,,
1768918333.459448,1768918333.460021,10.0,0.0,4322.692383,4248.974121,4335.256348,4333.333496,4246.025879,4278.077148,4311.922852,4323.589844,4298.589844,4274.871582,4509.358887,4513.974121,4380.0,4458.589844,,,,,,,,,,,,,,,,,,,,,,,,,,,,,,,,,,,,,,,,,,,,,,,,,,,,,,,,,,,,,,,,,,,,,,
1768918333.467257,1768918333.467829,11.0,0.0,4320.769043,4253.205078,4328.077148,4335.256348,4244.230957,4275.641113,4304.615234,4324.871582,4304.358887,4277.563965,4509.102539,4518.205078,4379.358887,4454.358887,,,,,,,,,,,,,,,,,,,,,,,,,,,,,,,,,,,,,,,,,,,,,,,,,,,,,,,,,,,,,,,,,,,,,,
1768918333.475066,1768918333.475836,12.0,0.0,4322.436035,4261.922852,4329.102539,4336.025879,4247.436035,4281.794922,4316.025879,4331.410156,4300.769043,4277.820313,4505.512695,4510.769043,4373.846191,4448.461426,,,,,,,,,,,,,,,,,,,,,,,,,,,,,,,,,,,,,,,,,,,,,,,,,,,,,,,,,,,,,,,,,,,,,,
1768918333.482874,1768918333.483644,13.0,0.0,4323.846191,4268.333496,4339.102539,4339.358887,4249.743652,4282.94873,4319.871582,4325.0,4293.717773,4273.589844,4504.615234,4507.94873,4375.256348,4449.358887,,,,,,,,,,,,,,,,,,,,,,,,,,,,,,,,,,,,,,,,,,,,,,,,,,,,,,,,,,,,,,,,,,,,,,
1768918333.490682,1768918333.491552,14.0,0.0,4328.846191,4265.384766,4345.128418,4341.794922,4248.589844,4276.794922,4302.05127,4310.512695,4291.922852,4271.922852,4505.641113,4511.666504,4380.384766,4458.333496,,,,,,,,,,,,,,,,,,,,,,,,,,,,,,,,,,,,,,,,,,,,,,,,,,,,,,,,,,,,,,,,,,,,,,
1768918333.498491,1768918333.49936,15.0,0.0,4334.358887,4264.743652,4343.717773,4343.333496,4249.615234,4276.410156,4297.436035,4308.717773,4293.717773,4276.794922,4507.179688,4514.615234,4383.077148,4467.692383,,,,,,,,,,,,,,,,,,,,,,,,,,,,,,,,,,,,,,,,,,,,,,,,,,,,,,,,,,,,,,,,,,,,,,
1768918333.5063,1768918333.507368,16.0,0.0,4331.794922,4273.461426,4343.717773,4345.0,4251.538574,4282.05127,4312.179688,4322.563965,4304.102539,4283.974121,4509.743652,4518.589844,4384.871582,4468.717773,0.767128,0.231877,0.272416,0.303269,0.179132,0.536763,0.465498,0.188639,0.160001,0.109547,0.984147,0.125701,0.182792,0.376929,0.231765,0.582722,0.461524,0.214936,0.220265,0.148942,0.214174,0.146312,0.145989,0.087873,0.092979,0.148194,0.061041,0.189057,0.196881,0.258268,0.376453,0.155292,0.16179,0.308643,0.434087,0.540992,0.425517,0.392182,0.240501,0.159342,0.745133,0.671736,0.277108,0.247275,0.131729,1.000587,0.902558,0.518774,0.241717,0.136775,0.778815,1.180366,0.440004,0.520189,0.261392,0.480227,0.649671,0.360328,0.357146,0.297211,1.385019,1.204609,0.283117,0.378679,0.232743,0.54205,0.951737,0.327392,0.244439,0.276097
1768918333.514108,1768918333.515176,17.0,0.0,4326.282227,4273.846191,4343.205078,4342.692383,4249.358887,4277.692383,4312.563965,4327.563965,4310.0,4282.563965,4508.461426,4521.025879,4381.794922,4460.256348,,,,,,,,,,,,,,,,,,,,,,,,,,,,,,,,,,,,,,,,,,,,,,,,,,,,,,,,,,,,,,,,,,,,,,
1768918333.521917,1768918333.522884,18.0,0.0,4325.897461,4268.461426,4340.897461,4339.743652,4247.179688,4273.846191,4306.410156,4316.410156,4301.025879,4275.641113,4503.461426,4517.179688,4376.282227,4453.846191,,,,,,,,,,,,,,,,,,,,,,,,,,,,,,,,,,,,,,,,,,,,,,,,,,,,,,,,,,,,,,,,,,,,,,
1768918333.529725,1768918333.530691,19.0,0.0,4324.102539,4265.512695,4342.820313,4340.641113,4250.384766,4283.461426,4316.922852,4314.230957,4302.179688,4280.769043,4504.615234,4519.487305,4379.358887,4452.94873,,,,,,,,,,,,,,,,,,,,,,,,,,,,,,,,,,,,,,,,,,,,,,,,,,,,,,,,,,,,,,,,,,,,,,
1768918333.537534,1768918333.538299,20.0,0.0,4323.461426,4263.846191,4345.897461,4342.692383,4252.307617,4288.461426,4320.641113,4327.563965,4314.743652,4288.205078,4510.256348,4526.410156,4383.333496,4451.794922,,,,,,,,,,,,,,,,,,,,,,,,,,,,,,,,,,,,,,,,,,,,,,,,,,,,,,,,,,,,,,,,,,,,,,
1768918333.545342,1768918333.546107,21.0,0.0,4331.922852,4271.025879,4344.230957,4340.128418,4249.230957,4277.05127,4307.436035,4326.153809,4311.410156,4282.820313,4508.846191,4522.436035,4378.846191,4454.358887,,,,,,,,,,,,,,,,,,,,,,,,,,,,,,,,,,,,,,,,,,,,,,,,,,,,,,,,,,,,,,,,,,,,,,
1768918333.553151,1768918333.554015,22.0,0.0,4337.05127,4281.922852,4340.897461,4335.641113,4245.512695,4265.769043,4297.307617,4313.717773,4303.846191,4281.282227,4505.641113,4519.615234,4377.820313,4461.922852,,,,,,,,,,,,,,,,,,,,,,,,,,,,,,,,,,,,,,,,,,,,,,,,,,,,,,,,,,,,,,,,,,,,,,
1768918333.560959,1768918333.561823,23.0,0.0,4334.358887,4280.0,4341.410156,4337.563965,4246.410156,4269.871582,4300.384766,4319.358887,4309.230957,4292.179688,4514.487305,4526.538574,4387.94873,4467.692383,,,,,,,,,,,,,,,,,,,,,,,,,,,,,,,,,,,,,,,,,,,,,,,,,,,,,,,,,,,,,,,,,,,,,,
1768918333.568768,1768918333.569831,24.0,0.0,4333.205078,4276.153809,4344.743652,4343.717773,4254.102539,4279.102539,4309.358887,4328.717773,4314.102539,4297.05127,4525.384766,4529.615234,4397.692383,4470.512695,,,,,,,,,,,,,,,,,,,,,,,,,,,,,,,,,,,,,,,,,,,,,,,,,,,,,,,,,,,,,,,,,,,,,,
1768918333.576576,1768918333.577639,25.0,0.0,4331.153809,4281.922852,4343.717773,4343.846191,4259.743652,4281.410156,4313.205078,4324.102539,4312.563965,4294.102539,4523.461426,4528.589844,4398.974121,4468.461426,,,,,,,,,,,,,,,,,,,,,,,,,,,,,,,,,,,,,,,,,,,,,,,,,,,,,,,,,,,,,,,,,,,,,,
1768918333.584385,1768918333.585547,26.0,0.0,4325.769043,4280.641113,4341.410156,4337.05127,4253.461426,4277.05127,4309.871582,4322.94873,4310.384766,4295.769043,4520.384766,4533.974121,4397.179688,4467.05127,,,,,,,,,,,,,,,,,,,,,,,,,,,,,,,,,,,,,,,,,,,,,,,,,,,,,,,,,,,,,,,,,,,,,,
1768918333.592193,1768918333.593355,27.0,0.0,4326.538574,4276.282227,4349.615234,4335.384766,4247.94873,4276.794922,4308.461426,4328.333496,4312.05127,4297.563965,4526.282227,4539.871582,4398.717773,4474.102539,,,,,,,,,,,,,,,,,,,,,,,,,,,,,,,,,,,,,,,,,,,,,,,,,,,,,,,,,,,,,,,,,,,,,,
1768918333.600002,1768918333.601362,28.0,0.0,4334.230957,4279.615234,4359.743652,4341.153809,4253.461426,4282.307617,4314.615234,4327.436035,4319.743652,4297.94873,4529.358887,4542.563965,4400.0,4478.717773,,,,,,,,,,,,,,,,,,,,,,,,,,,,,,,,,,,,,,,,,,,,,,,,,,,,,,,,,,,,,,,,,,,,,,
1768918333.60781,1768918333.60917,29.0,0.0,4337.692383,4280.897461,4353.077148,4343.333496,4252.307617,4277.94873,4312.563965,4323.589844,4321.410156,4297.436035,4525.128418,4539.102539,4397.820313,4472.692383,,,,,,,,,,,,,,,,,,,,,,,,,,,,,,,,,,,,,,,,,,,,,,,,,,,,,,,,,,,,,,,,,,,,,,
1768918333.615619,1768918333.616878,30.0,0.0,4334.358887,4279.487305,4340.256348,4340.897461,4246.153809,4272.563965,4307.692383,4327.94873,4313.077148,4295.0,4520.897461,4529.615234,4396.282227,4467.179688,,,,,,,,,,,,,,,,,,,,,,,,,,,,,,,,,,,,,,,,,,,,,,,,,,,,,,,,,,,,,,,,,,,,,,
1768918333.623427,1768918333.624686,31.0,0.0,4333.589844,4279.487305,4343.077148,4338.589844,4256.922852,4277.692383,4313.461426,4335.256348,4313.974121,4295.128418,4523.589844,4530.128418,4397.563965,4470.897461,,,,,,,,,,,,,,,,,,,,,,,,,,,,,,,,,,,,,,,,,,,,,,,,,,,,,,,,,,,,,,,,,,,,,,
1768918333.631236,1768918333.632294,32.0,0.0,4337.05127,4280.256348,4350.641113,4336.794922,4266.538574,4282.94873,4320.769043,4337.05127,4324.230957,4296.282227,4529.871582,4541.282227,4400.128418,4477.820313,0.779249,0.301196,0.2829,0.298041,0.16319,0.459842,0.46918,0.185718,0.172755,0.112624,0.912264,0.133522,0.193522,0.392844,0.214486,0.659027,0.486824,0.222129,0.217373,0.140988,0.243365,0.150091,0.134666,0.097323,0.089465,0.168749,0.065055,0.190498,0.207294,0.249719,0.415562,0.151315,0.151068,0.30736,0.411519,0.540141,0.393171,0.348995,0.248147,0.153555,0.759468,0.584558,0.246572,0.284286,0.127201,1.041392,0.819947,0.428793,0.235815,0.132795,0.74677,0.956981,0.379794,0.54698,0.247172,0.438815,0.557855,0.322702,0.337531,0.277114,1.274934,0.954003,0.281981,0.364224,0.218347,0.576565,1.044322,0.311219,0.230585,0.25182
1768918333.639044,1768918333.640102,33.0,0.0,4336.282227,4279.487305,4351.538574,4336.410156,4256.282227,4278.333496,4321.153809,4333.077148,4322.05127,4294.615234,4528.846191,4542.436035,4399.743652,4475.256348,,,,,,,,,,,,,,,,,,,,,,,,,,,,,,,,,,,,,,,,,,,,,,,,,,,,,,,,,,,,,,,,,,,,,,
1768918333.646853,1768918333.64781,34.0,0.0,4335.0,4278.974121,4354.230957,4339.871582,4253.974121,4279.871582,4320.897461,4328.077148,4312.307617,4292.94873,4523.589844,4538.589844,4397.436035,4471.153809,,,,,,,,,,,,,,,,,,,,,,,,,,,,,,,,,,,,,,,,,,,,,,,,,,,,,,,,,,,,,,,,,,,,,,
1768918333.654661,1768918333.655618,35.0,0.0,4341.282227,4279.230957,4359.743652,4345.128418,4259.871582,4288.077148,4324.487305,4327.820313,4311.153809,4293.717773,4524.102539,4539.230957,4396.538574,4474.743652,,,,,,,,,,,,,,,,,,,,,,,,,,,,,,,,,,,,,,,,,,,,,,,,,,,,,,,,,,,,,,,,,,,,,,
1768918333.66247,1768918333.663226,36.0,0.0,4346.153809,4282.307617,4364.230957,4348.846191,4252.94873,4285.641113,4326.410156,4332.436035,4314.102539,4292.307617,4527.94873,4540.897461,4397.179688,4475.384766,,,,,,,,,,,,,,,,,,,,,,,,,,,,,,,,,,,,,,,,,,,,,,,,,,,,,,,,,,,,,,,,,,,,,,
1768918333.670278,1768918333.671034,37.0,0.0,4345.0,4287.692383,4367.94873,4351.794922,4251.025879,4280.256348,4323.589844,4333.974121,4314.102539,4295.0,4530.128418,4543.846191,4398.846191,4475.384766,,,,,,,,,,,,,,,,,,,,,,,,,,,,,,,,,,,,,,,,,,,,,,,,,,,,,,,,,,,,,,,,,,,,,,
1768918333.678087,1768918333.678742,38.0,0.0,4342.05127,4284.615234,4365.256348,4348.846191,4262.179688,4279.230957,4315.128418,4327.436035,4311.538574,4294.615234,4528.077148,4543.077148,4396.282227,4476.794922,,,,,,,,,,,,,,,,,,,,,,,,,,,,,,,,,,,,,,,,,,,,,,,,,,,,,,,,,,,,,,,,,,,,,,
1768918333.685895,1768918333.68655,39.0,0.0,4339.230957,4280.641113,4357.563965,4342.436035,4264.230957,4278.461426,4308.717773,4322.179688,4308.974121,4284.230957,4522.179688,4537.05127,4389.615234,4472.179688,,,,,,,,,,,,,,,,,,,,,,,,,,,,,,,,,,,,,,,,,,,,,,,,,,,,,,,,,,,,,,,,,,,,,,
1768918333.693704,1768918333.694558,40.0,0.0,4337.307617,4286.025879,4358.205078,4342.94873,4259.358887,4277.179688,4309.487305,4328.077148,4311.025879,4284.358887,4521.538574,4536.538574,4387.692383,4470.641113,,,,,,,,,,,,,,,,,,,,,,,,,,,,,,,,,,,,,,,,,,,,,,,,,,,,,,,,,,,,,,,,,,,,,,
1768918333.701512,1768918333.702366,41.0,0.0,4336.794922,4285.897461,4357.94873,4343.461426,4261.922852,4277.94873,4309.615234,4332.820313,4314.871582,4292.307617,4525.641113,4538.461426,4389.615234,4471.410156,,,,,,,,,,,,,,,,,,,,,,,,,,,,,,,,,,,,,,,,,,,,,,,,,,,,,,,,,,,,,,,,,,,,,,
1768918333.709321,1768918333.710274,42.0,0.0,4335.128418,4277.94873,4347.94873,4340.128418,4262.436035,4282.563965,4314.230957,4329.358887,4311.794922,4286.538574,4520.897461,4532.05127,4384.358887,4465.384766,,,,,,,,,,,,,,,,,,,,,,,,,,,,,,,,,,,,,,,,,,,,,,,,,,,,,,,,,,,,,,,,,,,,,,
1768918333.717129,1768918333.718082,43.0,0.0,4331.153809,4279.358887,4344.743652,4340.128418,4257.820313,4284.358887,4320.256348,4326.538574,4307.820313,4280.128418,4515.897461,4524.743652,4378.974121,4459.230957,,,,,,,,,,,,,,,,,,,,,,,,,,,,,,,,,,,,,,,,,,,,,,,,,,,,,,,,,,,,,,,,,,,,,,
1768918333.724938,1768918333.72569,44.0,0.0,4328.077148,4283.461426,4349.743652,4340.256348,4261.025879,4280.769043,4313.333496,4323.333496,4308.461426,4289.230957,4519.102539,4522.94873,4383.846191,4460.384766,,,,,,,,,,,,,,,,,,,,,,,,,,,,,,,,,,,,,,,,,,,,,,,,,,,,,,,,,,,,,,,,,,,,,,
1768918333.732746,1768918333.733497,45.0,0.0,4327.05127,4279.487305,4346.025879,4335.897461,4261.410156,4277.820313,4308.974121,4318.461426,4308.461426,4291.794922,4519.615234,4522.820313,4388.589844,4460.256348,,,,,,,,,,,,,,,,,,,,,,,,,,,,,,,,,,,,,,,,,,,,,,,,,,,,,,,,,,,,,,,,,,,,,,
1768918333.740555,1768918333.741205,46.0,0.0,4326.282227,4276.666504,4340.769043,4331.794922,4253.974121,4280.0,4319.230957,4321.153809,4308.717773,4283.205078,4517.307617,4525.384766,4387.820313,4458.077148,,,,,,,,,,,,,,,,,,,,,,,,,,,,,,,,,,,,,,,,,,,,,,,,,,,,,,,,,,,,,,,,,,,,,,
1768918333.748363,1768918333.749013,47.0,0.0,4326.666504,4278.974121,4345.128418,4333.077148,4253.846191,4281.153809,4319.615234,4325.769043,4310.641113,4283.846191,4516.410156,4527.436035,4387.563965,4460.128418,,,,,,,,,,,,,,,,,,,,,,,,,,,,,,,,,,,,,,,,,,,,,,,,,,,,,,,,,,,,,,,,,,,,,,
1768918333.756172,1768918333.757021,48.0,0.0,4328.333496,4282.436035,4350.128418,4337.436035,4262.05127,4282.563965,4316.410156,4325.0,4311.410156,4290.897461,4516.794922,4524.871582,4390.256348,4461.794922,0.747345,0.378797,0.28268,0.273558,0.147342,0.386729,0.476533,0.181478,0.184734,0.117364,0.863089,0.156098,0.195186,0.373636,0.197355,0.718603,0.485585,0.211247,0.199806,0.128256,0.286469,0.164172,0.121395,0.112627,0.083145,0.201666,0.079286,0.191312,0.230909,0.238928,0.449044,0.141649,0.148911,0.329336,0.386622,0.501191,0.356589,0.28544,0.275985,0.154528,0.742736,0.500594,0.201486,0.333245,0.116536,1.004961,0.719346,0.329397,0.22685,0.12755,0.694668,0.760562,0.301569,0.54432,0.219468,0.494035,0.507147,0.284322,0.317632,0.25396,1.074887,0.720722,0.266972,0.33125,0.19454,0.597912,1.1017,0.298338,0.213841,0.219206
1768918333.763981,1768918333.764829,49.0,0.0,4328.333496,4283.077148,4350.769043,4341.666504,4266.153809,4284.487305,4322.563965,4325.128418,4312.692383,4292.179688,4519.358887,4522.820313,4395.256348,4462.94873,,,,,,,,,,,,,,,,,,,,,,,,,,,,,,,,,,,,,,,,,,,,,,,,,,,,,,,,,,,,,,,,,,,,,,
1768918333.771789,1768918333.772737,50.0,0.0,4327.563965,4280.512695,4348.589844,4339.615234,4261.282227,4278.974121,4314.743652,4328.974121,4314.871582,4288.846191,4521.794922,4524.615234,4397.05127,4464.743652,,,,,,,,,,,,,,,,,,,,,,,,,,,,,,,,,,,,,,,,,,,,,,,,,,,,,,,,,,,,,,,,,,,,,,
1768918333.779597,1768918333.780545,51.0,0.0,4329.358887,4279.615234,4344.230957,4331.153809,4255.512695,4278.333496,4306.794922,4329.230957,4313.077148,4289.871582,4520.384766,4522.820313,4392.179688,4462.692383,,,,,,,,,,,,,,,,,,,,,,,,,,,,,,,,,,,,,,,,,,,,,,,,,,,,,,,,,,,,,,,,,,,,,,
1768918333.787406,1768918333.788552,52.0,0.0,4327.436035,4281.282227,4341.153809,4327.307617,4254.487305,4284.358887,4317.307617,4325.897461,4310.0,4288.205078,4519.102539,4519.230957,4389.487305,4458.333496,,,,,,,,,,,,,,,,,,,,,,,,,,,,,,,,,,,,,,,,,,,,,,,,,,,,,,,,,,,,,,,,,,,,,,
1768918333.795215,1768918333.79636,53.0,0.0,4326.153809,4284.871582,4343.717773,4333.205078,4253.461426,4280.897461,4311.666504,4324.487305,4310.897461,4282.179688,4519.487305,4521.794922,4394.871582,4457.94873,,,,,,,,,,,,,,,,,,,,,,,,,,,,,,,,,,,,,,,,,,,,,,,,,,,,,,,,,,,,,,,,,,,,,,
1768918333.803023,1768918333.804268,54.0,0.0,4332.179688,4289.487305,4349.358887,4341.666504,4251.922852,4272.820313,4293.846191,4324.743652,4312.05127,4281.922852,4512.05127,4524.487305,4397.820313,4459.871582,,,,,,,,,,,,,,,,,,,,,,,,,,,,,,,,,,,,,,,,,,,,,,,,,,,,,,,,,,,,,,,,,,,,,,
1768918333.810831,1768918333.812076,55.0,0.0,4335.512695,4287.94873,4349.871582,4340.897461,4254.487305,4275.384766,4296.025879,4323.589844,4310.512695,4282.05127,4505.769043,4522.05127,4395.256348,4458.461426,,,,,,,,,,,,,,,,,,,,,,,,,,,,,,,,,,,,,,,,,,,,,,,,,,,,,,,,,,,,,,,,,,,,,,
1768918333.81864,1768918333.819984,56.0,0.0,4335.897461,4281.666504,4348.974121,4337.820313,4260.256348,4280.897461,4304.871582,4322.05127,4309.743652,4280.897461,4515.128418,4528.974121,4395.0,4463.589844,,,,,,,,,,,,,,,,,,,,,,,,,,,,,,,,,,,,,,,,,,,,,,,,,,,,,,,,,,,,,,,,,,,,,,
1768918333.826449,1768918333.827792,57.0,0.0,4338.717773,4282.05127,4351.410156,4340.641113,4262.563965,4280.897461,4306.538574,4325.0,4311.025879,4286.282227,4525.641113,4537.820313,4398.846191,4472.692383,,,,,,,,,,,,,,,,,,,,,,,,,,,,,,,,,,,,,,,,,,,,,,,,,,,,,,,,,,,,,,,,,,,,,,
1768918333.834257,1768918333.8355,58.0,0.0,4340.256348,4284.487305,4351.794922,4338.974121,4261.282227,4280.0,4301.153809,4324.743652,4309.743652,4291.410156,4521.666504,4530.384766,4396.282227,4473.461426,,,,,,,,,,,,,,,,,,,,,,,,,,,,,,,,,,,,,,,,,,,,,,,,,,,,,,,,,,,,,,,,,,,,,,
1768918333.842065,1768918333.843308,59.0,0.0,4340.256348,4281.922852,4350.641113,4337.307617,4260.0,4279.871582,4294.615234,4322.436035,4309.102539,4291.922852,4518.333496,4524.743652,4395.769043,4470.769043,,,,,,,,,,,,,,,,,,,,,,,,,,,,,,,,,,,,,,,,,,,,,,,,,,,,,,,,,,,,,,,,,,,,,,
1768918333.849874,1768918333.850916,60.0,0.0,4341.538574,4288.974121,4355.0,4347.94873,4263.205078,4282.94873,4303.077148,4326.153809,4312.307617,4294.871582,4526.538574,4536.153809,4407.563965,4475.0,,,,,,,,,,,,,,,,,,,,,,,,,,,,,,,,,,,,,,,,,,,,,,,,,,,,,,,,,,,,,,,,,,,,,,
1768918333.857683,1768918333.858724,61.0,0.0,4342.436035,4303.077148,4361.025879,4358.205078,4267.820313,4288.077148,4315.128418,4327.94873,4313.974121,4297.307617,4529.102539,4544.102539,4411.025879,4478.077148,,,,,,,,,,,,,,,,,,,,,,,,,,,,,,,,,,,,,,,,,,,,,,,,,,,,,,,,,,,,,,,,,,,,,,
1768918333.865491,1768918333.866432,62.0,0.0,4341.794922,4303.333496,4356.153809,4351.282227,4263.846191,4289.358887,4309.358887,4322.436035,4312.05127,4294.615234,4522.05127,4532.692383,4399.102539,4470.128418,,,,,,,,,,,,,,,,,,,,,,,,,,,,,,,,,,,,,,,,,,,,,,,,,,,,,,,,,,,,,,,,,,,,,,
1768918333.873299,1768918333.87424,63.0,0.0,4340.0,4293.205078,4346.666504,4341.794922,4260.384766,4287.307617,4300.897461,4321.538574,4311.025879,4294.358887,4519.487305,4523.589844,4396.538574,4465.512695,,,,,,,,,,,,,,,,,,,,,,,,,,,,,,,,,,,,,,,,,,,,,,,,,,,,,,,,,,,,,,,,,,,,,,
1768918333.881108,1768918333.882248,64.0,0.0,4340.0,4293.717773,4347.563965,4341.794922,4263.333496,4283.846191,4303.589844,4332.179688,4313.333496,4295.128418,4523.846191,4532.179688,4405.384766,4472.05127,0.701546,0.448766,0.278684,0.241746,0.133576,0.346375,0.492294,0.18196,0.194963,0.12453,0.861717,0.184167,0.186617,0.32811,0.186541,0.747179,0.447147,0.185943,0.174376,0.114215,0.327686,0.18176,0.110397,0.128002,0.075948,0.236996,0.100075,0.197045,0.255373,0.227446,0.459375,0.12626,0.158792,0.360472,0.363921,0.437804,0.324159,0.223331,0.318474,0.166286,0.684843,0.433105,0.162615,0.38518,0.105618,0.90365,0.623103,0.249849,0.217897,0.121762,0.619571,0.632802,0.224346,0.513217,0.184086,0.620056,0.501179,0.254694,0.29971,0.232268,0.832477,0.565106,0.246893,0.287924,0.167577,0.596169,1.113103,0.295241,0.201469,0.185351
1768918333.888917,1768918333.890056,65.0,0.0,4344.871582,4304.871582,4354.358887,4343.461426,4264.743652,4279.615234,4306.410156,4332.05127,4312.94873,4295.897461,4525.512695,4537.179688,4403.974121,4477.94873,,,,,,,,,,,,,,,,,,,,,,,,,,,,,,,,,,,,,,,,,,,,,,,,,,,,,,,,,,,,,,,,,,,,,,
1768918333.896725,1768918333.897964,66.0,0.0,4345.0,4309.615234,4353.077148,4344.871582,4264.230957,4278.205078,4302.307617,4317.563965,4308.205078,4293.974121,4520.641113,4526.794922,4397.563965,4474.871582,,,,,,,,,,,,,,,,,,,,,,,,,,,,,,,,,,,,,,,,,,,,,,,,,,,,,,,,,,,,,,,,,,,,,,
1768918333.904534,1768918333.905772,67.0,0.0,4339.615234,4306.153809,4347.563965,4347.307617,4263.077148,4279.230957,4291.922852,4311.025879,4302.307617,4285.512695,4517.05127,4518.974121,4398.589844,4473.717773,,,,,,,,,,,,,,,,,,,,,,,,,,,,,,,,,,,,,,,,,,,,,,,,,,,,,,,,,,,,,,,,,,,,,,
1768918333.912342,1768918333.91378,68.0,0.0,4340.128418,4305.512695,4348.205078,4348.333496,4263.461426,4278.333496,4290.256348,4318.974121,4300.0,4283.717773,4521.538574,4526.794922,4402.436035,4477.94873,,,,,,,,,,,,,,,,,,,,,,,,,,,,,,,,,,,,,,,,,,,,,,,,,,,,,,,,,,,,,,,,,,,,,,
1768918333.920151,1768918333.921588,69.0,0.0,4343.461426,4311.025879,4351.666504,4346.282227,4265.256348,4277.94873,4299.230957,4327.563965,4306.153809,4293.846191,4525.128418,4530.128418,4402.563965,4476.410156,,,,,,,,,,,,,,,,,,,,,,,,,,,,,,,,,,,,,,,,,,,,,,,,,,,,,,,,,,,,,,,,,,,,,,
1768918333.927959,1768918333.929295,70.0,0.0,4343.461426,4312.563965,4349.358887,4346.794922,4265.256348,4279.743652,4297.307617,4322.436035,4310.641113,4296.153809,4518.205078,4524.230957,4399.743652,4469.230957,,,,,,,,,,,,,,,,,,,,,,,,,,,,,,,,,,,,,,,,,,,,,,,,,,,,,,,,,,,,,,,,,,,,,,
1768918333.935768,1768918333.937103,71.0,0.0,4334.743652,4302.307617,4343.717773,4344.230957,4264.487305,4278.589844,4290.384766,4315.769043,4305.256348,4283.717773,4507.307617,4520.897461,4391.153809,4462.05127,,,,,,,,,,,,,,,,,,,,,,,,,,,,,,,,,,,,,,,,,,,,,,,,,,,,,,,,,,,,,,,,,,,,,,
1768918333.943576,1768918333.944711,72.0,0.0,4323.717773,4290.641113,4338.589844,4334.230957,4263.717773,4278.205078,4296.410156,4318.974121,4302.05127,4276.794922,4500.512695,4518.077148,4377.05127,4455.769043,,,,,,,,,,,,,,,,,,,,,,,,,,,,,,,,,,,,,,,,,,,,,,,,,,,,,,,,,,,,,,,,,,,,,,
1768918333.951385,1768918333.952519,73.0,0.0,4328.974121,4292.820313,4340.512695,4334.615234,4263.846191,4285.128418,4306.922852,4326.282227,4311.666504,4287.692383,4506.025879,4520.512695,4381.282227,4461.666504,,,,,,,,,,,,,,,,,,,,,,,,,,,,,,,,,,,,,,,,,,,,,,,,,,,,,,,,,,,,,,,,,,,,,,
1768918333.959193,1768918333.960427,74.0,0.0,4347.692383,4309.487305,4355.769043,4350.256348,4269.743652,4292.436035,4313.077148,4328.846191,4322.179688,4304.615234,4523.333496,4533.077148,4406.666504,4482.692383,,,,,,,,,,,,,,,,,,,,,,,,,,,,,,,,,,,,,,,,,,,,,,,,,,,,,,,,,,,,,,,,,,,,,,
1768918333.967002,1768918333.968235,75.0,0.0,4358.205078,4323.461426,4368.461426,4360.897461,4276.666504,4290.641113,4308.974121,4328.077148,4320.256348,4308.461426,4532.436035,4544.358887,4419.102539,4494.230957,,,,,,,,,,,,,,,,,,,,,,,,,,,,,,,,,,,,,,,,,,,,,,,,,,,,,,,,,,,,,,,,,,,,,,
1768918333.97481,1768918333.976242,76.0,0.0,4354.487305,4318.461426,4362.436035,4355.128418,4274.487305,4281.538574,4295.0,4326.282227,4313.974121,4299.230957,4527.436035,4541.282227,4412.179688,4490.641113,,,,,,,,,,,,,,,,,,,,,,,,,,,,,,,,,,,,,,,,,,,,,,,,,,,,,,,,,,,,,,,,,,,,,,
1768918333.982619,1768918333.98405,77.0,0.0,4348.461426,4310.384766,4354.487305,4349.358887,4272.179688,4277.94873,4290.128418,4322.05127,4311.153809,4295.512695,4523.846191,4535.384766,4405.641113,4486.025879,,,,,,,,,,,,,,,,,,,,,,,,,,,,,,,,,,,,,,,,,,,,,,,,,,,,,,,,,,,,,,,,,,,,,,
1768918333.990427,1768918333.991958,78.0,0.0,4349.871582,4315.769043,4358.589844,4352.692383,4279.487305,4290.512695,4305.384766,4324.615234,4313.205078,4297.563965,4526.282227,4537.820313,4403.974121,4482.436035,,,,,,,,,,,,,,,,,,,,,,,,,,,,,,,,,,,,,,,,,,,,,,,,,,,,,,,,,,,,,,,,,,,,,,
1768918333.998236,1768918333.999766,79.0,0.0,4352.05127,4320.256348,4357.820313,4352.692383,4282.436035,4297.563965,4313.077148,4330.512695,4316.666504,4296.794922,4526.025879,4540.128418,4404.615234,4479.230957,,,,,,,,,,,,,,,,,,,,,,,,,,,,,,,,,,,,,,,,,,,,,,,,,,,,,,,,,,,,,,,,,,,,,,
1768918334.006044,1768918334.007374,80.0,0.0,4345.0,4312.563965,4349.358887,4347.820313,4279.358887,4287.05127,4302.307617,4327.563965,4313.717773,4295.0,4523.077148,4536.410156,4403.589844,4478.077148,0.67025,0.49787,0.278947,0.216275,0.122048,0.341494,0.511504,0.18938,0.200975,0.133064,0.905619,0.213073,0.175357,0.273376,0.18397,0.749822,0.37967,0.153582,0.150561,0.102027,0.357232,0.193126,0.105207,0.139717,0.071473,0.271512,0.121502,0.209669,0.268513,0.21643,0.458804,0.117613,0.185193,0.385279,0.348007,0.378952,0.300808,0.183249,0.361544,0.188681,0.595655,0.381783,0.145433,0.424018,0.100595,0.763891,0.537665,0.208278,0.208793,0.116986,0.531756,0.569942,0.166607,0.457244,0.148832,0.760548,0.519963,0.241841,0.282696,0.214275,0.615508,0.492391,0.233126,0.243175,0.14413,0.575709,1.075425,0.31167,0.196543,0.156126
1768918334.013853,1768918334.015182,81.0,0.0,4338.333496,4308.333496,4347.563965,4345.641113,4283.205078,4280.641113,4298.205078,4322.820313,4309.358887,4295.641113,4519.615234,4531.794922,4398.461426,4474.743652,,,,,,,,,,,,,,,,,,,,,,,,,,,,,,,,,,,,,,,,,,,,,,,,,,,,,,,,,,,,,,,,,,,,,,
1768918334.021661,1768918334.02289,82.0,0.0,4342.436035,4315.897461,4352.820313,4350.0,4288.717773,4287.692383,4305.512695,4324.871582,4316.025879,4297.307617,4520.384766,4536.410156,4399.358887,4475.512695,,,,,,,,,,,,,,,,,,,,,,,,,,,,,,,,,,,,,,,,,,,,,,,,,,,,,,,,,,,,,,,,,,,,,,
1768918334.02947,1768918334.030698,83.0,0.0,4345.256348,4322.820313,4356.025879,4354.487305,4286.025879,4293.589844,4310.384766,4330.769043,4322.179688,4297.820313,4523.846191,4537.436035,4402.692383,4477.563965,,,,,,,,,,,,,,,,,,,,,,,,,,,,,,,,,,,,,,,,,,,,,,,,,,,,,,,,,,,,,,,,,,,,,,
1768918334.037278,1768918334.038307,84.0,0.0,4341.794922,4321.025879,4354.487305,4353.205078,4285.384766,4290.641113,4307.94873,4327.692383,4314.615234,4295.641113,4520.512695,4528.205078,4397.179688,4470.128418,,,,,,,,,,,,,,,,,,,,,,,,,,,,,,,,,,,,,,,,,,,,,,,,,,,,,,,,,,,,,,,,,,,,,,
1768918334.045087,1768918334.046114,85.0,0.0,4340.769043,4314.487305,4355.512695,4351.410156,4291.410156,4293.589844,4310.0,4324.615234,4313.077148,4294.230957,4520.128418,4527.05127,4395.512695,4468.589844,,,,,,,,,,,,,,,,,,,,,,,,,,,,,,,,,,,,,,,,,,,,,,,,,,,,,,,,,,,,,,,,,,,,,,
1768918334.052895,1768918334.053823,86.0,0.0,4342.179688,4311.538574,4357.94873,4350.384766,4289.615234,4298.717773,4315.897461,4328.974121,4320.0,4297.179688,4523.974121,4531.153809,4400.256348,4478.333496,,,,,,,,,,,,,,,,,,,,,,,,,,,,,,,,,,,,,,,,,,,,,,,,,,,,,,,,,,,,,,,,,,,,,,
1768918334.060704,1768918334.061631,87.0,0.0,4339.615234,4314.102539,4352.179688,4346.538574,4281.538574,4290.128418,4308.333496,4328.205078,4315.512695,4295.641113,4515.769043,4524.487305,4394.487305,4477.563965,,,,,,,,,,,,,,,,,,,,,,,,,,,,,,,,,,,,,,,,,,,,,,,,,,,,,,,,,,,,,,,,,,,,,,
1768918334.068512,1768918334.069239,88.0,0.0,4334.358887,4312.436035,4343.846191,4345.641113,4280.384766,4281.922852,4294.230957,4319.871582,4309.615234,4292.563965,4505.769043,4518.333496,4387.436035,4466.922852,,,,,,,,,,,,,,,,,,,,,,,,,,,,,,,,,,,,,,,,,,,,,,,,,,,,,,,,,,,,,,,,,,,,,,
1768918334.076321,1768918334.077047,89.0,0.0,4334.487305,4308.846191,4345.256348,4350.769043,4280.128418,4285.0,4291.922852,4317.179688,4311.666504,4293.077148,4507.179688,4521.666504,4391.153809,4466.666504,,,,,,,,,,,,,,,,,,,,,,,,,,,,,,,,,,,,,,,,,,,,,,,,,,,,,,,,,,,,,,,,,,,,,,
1768918334.084129,1768918334.084755,90.0,0.0,4338.077148,4308.333496,4350.256348,4350.897461,4277.563965,4286.025879,4298.717773,4317.94873,4310.384766,4288.205078,4508.846191,4521.794922,4392.307617,4468.333496,,,,,,,,,,,,,,,,,,,,,,,,,,,,,,,,,,,,,,,,,,,,,,,,,,,,,,,,,,,,,,,,,,,,,,
1768918334.091938,1768918334.092562,91.0,0.0,4336.282227,4307.820313,4348.717773,4349.102539,4278.974121,4282.94873,4304.615234,4316.410156,4308.077148,4280.256348,4508.589844,4521.922852,4391.410156,4464.743652,,,,,,,,,,,,,,,,,,,,,,,,,,,,,,,,,,,,,,,,,,,,,,,,,,,,,,,,,,,,,,,,,,,,,,
1768918334.099746,1768918334.10057,92.0,0.0,4333.589844,4305.384766,4347.563965,4351.025879,4281.666504,4288.589844,4309.871582,4316.410156,4310.384766,4279.615234,4507.307617,4525.0,4388.333496,4461.410156,,,,,,,,,,,,,,,,,,,,,,,,,,,,,,,,,,,,,,,,,,,,,,,,,,,,,,,,,,,,,,,,,,,,,,
1768918334.107555,1768918334.108378,93.0,0.0,4338.461426,4304.743652,4353.333496,4347.05127,4282.179688,4288.846191,4302.692383,4316.153809,4310.384766,4280.897461,4503.846191,4525.641113,4380.0,4457.692383,,,,,,,,,,,,,,,,,,,,,,,,,,,,,,,,,,,,,,,,,,,,,,,,,,,,,,,,,,,,,,,,,,,,,,
1768918334.115363,1768918334.116286,94.0,0.0,4342.820313,4303.974121,4358.205078,4342.179688,4285.641113,4285.256348,4293.717773,4320.0,4310.769043,4283.333496,4511.538574,4532.179688,4384.230957,4463.077148,,,,,,,,,,,,,,,,,,,,,,,,,,,,,,,,,,,,,,,,,,,,,,,,,,,,,,,,,,,,,,,,,,,,,,
1768918334.123172,1768918334.124094,95.0,0.0,4337.692383,4300.256348,4353.077148,4341.666504,4289.871582,4288.974121,4299.230957,4322.94873,4313.205078,4287.692383,4517.94873,4534.358887,4399.230957,4473.077148,,,,,,,,,,,,,,,,,,,,,,,,,,,,,,,,,,,,,,,,,,,,,,,,,,,,,,,,,,,,,,,,,,,,,,
1768918334.13098,1768918334.131702,96.0,0.0,4331.794922,4295.128418,4343.205078,4337.436035,4289.230957,4289.358887,4301.922852,4316.153809,4313.077148,4287.05127,4510.128418,4525.128418,4402.436035,4474.487305,0.681803,0.516007,0.287491,0.203849,0.111737,0.348934,0.523321,0.202472,0.202032,0.140612,0.959462,0.24033,0.172331,0.226701,0.187064,0.733379,0.299918,0.124013,0.138411,0.093499,0.370016,0.190934,0.107611,0.146601,0.072556,0.288109,0.140175,0.224872,0.263319,0.205536,0.441213,0.139055,0.226884,0.391346,0.340925,0.342403,0.287385,0.175033,0.388363,0.216251,0.493881,0.344703,0.154455,0.433105,0.104194,0.630258,0.463195,0.204348,0.197304,0.11498,0.459052,0.537884,0.13902,0.383548,0.121125,0.862879,0.532666,0.246412,0.262852,0.200541,0.505758,0.46786,0.232212,0.202989,0.128398,0.558866,0.99183,0.355073,0.196461,0.134073
1768918334.138789,1768918334.139509,97.0,0.0,4336.153809,4292.05127,4342.307617,4336.410156,4287.94873,4291.025879,4303.077148,4314.230957,4313.333496,4286.922852,4509.230957,4522.563965,4399.358887,4473.461426,,,,,,,,,,,,,,,,,,,,,,,,,,,,,,,,,,,,,,,,,,,,,,,,,,,,,,,,,,,,,,,,,,,,,,
1768918334.146597,1768918334.147417,98.0,0.0,4340.384766,4297.179688,4349.743652,4341.410156,4288.589844,4293.205078,4304.487305,4315.897461,4312.05127,4290.512695,4513.717773,4526.666504,4400.641113,4472.179688,,,,,,,,,,,,,,,,,,,,,,,,,,,,,,,,,,,,,,,,,,,,,,,,,,,,,,,,,,,,,,,,,,,,,,
1768918334.154406,1768918334.155225,99.0,0.0,4336.410156,4304.743652,4350.897461,4341.794922,4291.922852,4288.846191,4297.94873,4313.589844,4309.230957,4288.846191,4508.461426,4521.794922,4398.461426,4467.05127,,,,,,,,,,,,,,,,,,,,,,,,,,,,,,,,,,,,,,,,,,,,,,,,,,,,,,,,,,,,,,,,,,,,,,
1768918334.162214,1768918334.163233,100.0,0.0,4336.025879,4307.692383,4346.922852,4339.358887,4295.769043,4288.974121,4297.179688,4314.615234,4316.153809,4288.077148,4505.897461,4517.94873,4400.384766,4469.102539,,,,,,,,,,,,,,,,,,,,,,,,,,,,,,,,,,,,,,,,,,,,,,,,,,,,,,,,,,,,,,,,,,,,,,
1768918334.170023,1768918334.171041,101.0,0.0,4342.05127,4308.974121,4347.94873,4340.512695,4295.769043,4295.0,4307.692383,4318.205078,4321.538574,4293.333496,4511.282227,4523.333496,4405.256348,4477.692383,,,,,,,,,,,,,,,,,,,,,,,,,,,,,,,,,,,,,,,,,,,,,,,,,,,,,,,,,,,,,,,,,,,,,,
1768918334.177832,1768918334.178949,102.0,0.0,4343.205078,4308.589844,4352.436035,4340.256348,4294.102539,4294.487305,4313.205078,4320.512695,4314.102539,4292.563965,4510.769043,4523.589844,4401.794922,4474.487305,,,,,,,,,,,,,,,,,,,,,,,,,,,,,,,,,,,,,,,,,,,,,,,,,,,,,,,,,,,,,,,,,,,,,,
1768918334.18564,1768918334.186757,103.0,0.0,4341.538574,4307.05127,4352.179688,4339.230957,4293.717773,4290.384766,4309.743652,4323.846191,4312.692383,4288.461426,4508.846191,4522.179688,4402.05127,4470.512695,,,,,,,,,,,,,,,,,,,,,,,,,,,,,,,,,,,,,,,,,,,,,,,,,,,,,,,,,,,,,,,,,,,,,,
1768918334.193448,1768918334.194465,104.0,0.0,4343.205078,4308.974121,4348.077148,4340.512695,4294.230957,4290.512695,4303.974121,4320.897461,4318.589844,4289.358887,4511.025879,4522.179688,4404.487305,4474.743652,,,,,,,,,,,,,,,,,,,,,,,,,,,,,,,,,,,,,,,,,,,,,,,,,,,,,,,,,,,,,,,,,,,,,,
1768918334.201257,1768918334.202273,105.0,0.0,4343.205078,4313.205078,4346.410156,4343.077148,4293.974121,4292.94873,4303.077148,4317.692383,4318.461426,4291.794922,4510.128418,4522.179688,4402.692383,4474.743652,,,,,,,,,,,,,,,,,,,,,,,,,,,,,,,,,,,,,,,,,,,,,,,,,,,,,,,,,,,,,,,,,,,,,,
1768918334.209066,1768918334.210081,106.0,0.0,4341.025879,4312.692383,4349.615234,4344.358887,4291.410156,4294.743652,4309.230957,4325.0,4319.615234,4293.846191,4508.077148,4523.846191,4403.077148,4467.436035,,,,,,,,,,,,,,,,,,,,,,,,,,,,,,,,,,,,,,,,,,,,,,,,,,,,,,,,,,,,,,,,,,,,,,
1768918334.216874,1768918334.217889,107.0,0.0,4339.871582,4308.846191,4350.384766,4341.282227,4290.769043,4294.102539,4310.128418,4325.641113,4322.94873,4294.230957,4512.820313,4527.307617,4406.410156,4465.384766,,,,,,,,,,,,,,,,,,,,,,,,,,,,,,,,,,,,,,,,,,,,,,,,,,,,,,,,,,,,,,,,,,,,,,
1768918334.224682,1768918334.225497,108.0,0.0,4340.128418,4310.128418,4349.871582,4343.461426,4300.384766,4294.871582,4308.589844,4322.436035,4320.897461,4293.846191,4521.666504,4530.256348,4409.102539,4472.307617,,,,,,,,,,,,,,,,,,,,,,,,,,,,,,,,,,,,,,,,,,,,,,,,,,,,,,,,,,,,,,,,,,,,,,
1768918334.232491,1768918334.233305,109.0,0.0,4343.461426,4317.94873,4354.487305,4353.205078,4307.05127,4297.94873,4313.589844,4328.461426,4323.589844,4295.512695,4523.974121,4536.666504,4412.563965,4478.077148,,,,,,,,,,,,,,,,,,,,,,,,,,,,,,,,,,,,,,,,,,,,,,,,,,,,,,,,,,,,,,,,,,,,,,
1768918334.2403,1768918334.241013,110.0,0.0,4343.974121,4318.333496,4353.589844,4351.922852,4300.512695,4295.128418,4312.05127,4329.358887,4327.820313,4297.307617,4520.769043,4537.563965,4411.538574,4476.666504,,,,,,,,,,,,,,,,,,,,,,,,,,,,,,,,,,,,,,,,,,,,,,,,,,,,,,,,,,,,,,,,,,,,,,
1768918334.248108,1768918334.248821,111.0,0.0,4338.205078,4311.025879,4349.487305,4341.794922,4296.922852,4293.717773,4308.589844,4323.974121,4322.179688,4294.615234,4520.128418,4526.025879,4403.974121,4470.512695,,,,,,,,,,,,,,,,,,,,,,,,,,,,,,,,,,,,,,,,,,,,,,,,,,,,,,,,,,,,,,,,,,,,,,
1768918334.255916,1768918334.256429,112.0,0.0,4338.077148,4311.025879,4353.205078,4340.256348,4300.0,4300.512695,4314.358887,4324.102539,4319.615234,4292.563965,4521.666504,4525.641113,4401.666504,4467.563965,0.740906,0.499012,0.305456,0.203608,0.102685,0.393208,0.516744,0.217315,0.20301,0.146726,0.988701,0.26421,0.189611,0.198519,0.191653,0.709817,0.226957,0.1069,0.145973,0.089827,0.363122,0.172181,0.11707,0.148756,0.079507,0.285783,0.158248,0.235223,0.242338,0.193406,0.423053,0.210664,0.275617,0.375269,0.340793,0.329966,0.277672,0.191688,0.38583,0.240686,0.403009,0.317565,0.179794,0.402838,0.114825,0.54158,0.399234,0.220531,0.181823,0.117093,0.434579,0.500879,0.146167,0.304009,0.105542,0.925516,0.51702,0.26132,0.237566,0.191088,0.531834,0.449222,0.249353,0.174057,0.122167,0.56466,0.873557,0.434942,0.198985,0.118891
1768918334.263725,1768918334.264237,113.0,0.0,4340.897461,4313.333496,4353.077148,4339.102539,4298.846191,4298.205078,4308.846191,4328.333496,4324.102539,4296.153809,4523.589844,4536.538574,4407.94873,4472.436035,,,,,,,,,,,,,,,,,,,,,,,,,,,,,,,,,,,,,,,,,,,,,,,,,,,,,,,,,,,,,,,,,,,,,,
1768918334.271534,1768918334.271945,114.0,0.0,4336.282227,4307.692383,4346.794922,4332.563965,4293.333496,4286.282227,4295.641113,4328.974121,4325.769043,4298.846191,4524.102539,4532.436035,4412.692383,4475.641113,,,,,,,,,,,,,,,,,,,,,,,,,,,,,,,,,,,,,,,,,,,,,,,,,,,,,,,,,,,,,,,,,,,,,,
1768918334.279342,1768918334.279753,115.0,0.0,4335.128418,4310.769043,4348.461426,4335.256348,4292.692383,4286.666504,4299.487305,4326.025879,4326.410156,4296.153809,4521.410156,4520.897461,4410.512695,4472.820313,,,,,,,,,,,,,,,,,,,,,,,,,,,,,,,,,,,,,,,,,,,,,,,,,,,,,,,,,,,,,,,,,,,,,,
1768918334.287151,1768918334.287761,116.0,0.0,4342.563965,4322.692383,4348.846191,4339.615234,4295.769043,4293.717773,4309.871582,4324.743652,4325.512695,4295.128418,4521.153809,4520.641113,4406.153809,4471.922852,,,,,,,,,,,,,,,,,,,,,,,,,,,,,,,,,,,,,,,,,,,,,,,,,,,,,,,,,,,,,,,,,,,,,,
1768918334.294959,1768918334.295569,117.0,0.0,4341.922852,4319.615234,4342.307617,4335.0,4296.666504,4292.820313,4306.794922,4322.05127,4320.512695,4295.128418,4520.769043,4523.717773,4402.307617,4472.94873,,,,,,,,,,,,,,,,,,,,,,,,,,,,,,,,,,,,,,,,,,,,,,,,,,,,,,,,,,,,,,,,,,,,,,
1768918334.302768,1768918334.303476,118.0,0.0,4337.94873,4311.282227,4348.589844,4334.743652,4296.538574,4293.333496,4304.615234,4322.05127,4320.512695,4296.153809,4520.512695,4529.230957,4403.461426,4472.436035,,,,,,,,,,,,,,,,,,,,,,,,,,,,,,,,,,,,,,,,,,,,,,,,,,,,,,,,,,,,,,,,,,,,,,
1768918334.310576,1768918334.311284,119.0,0.0,4347.436035,4316.410156,4360.769043,4341.282227,4295.897461,4295.897461,4310.897461,4328.333496,4327.307617,4303.461426,4526.153809,4541.922852,4410.256348,4476.282227,,,,,,,,,,,,,,,,,,,,,,,,,,,,,,,,,,,,,,,,,,,,,,,,,,,,,,,,,,,,,,,,,,,,,,
1768918334.318385,1768918334.319292,120.0,0.0,4352.05127,4323.461426,4357.05127,4341.153809,4294.102539,4293.461426,4310.512695,4328.974121,4327.94873,4303.461426,4530.256348,4541.538574,4412.820313,4482.179688,,,,,,,,,,,,,,,,,,,,,,,,,,,,,,,,,,,,,,,,,,,,,,,,,,,,,,,,,,,,,,,,,,,,,,
1768918334.326193,1768918334.3271,121.0,0.0,4350.0,4325.0,4353.717773,4341.282227,4297.692383,4293.974121,4310.384766,4325.128418,4324.743652,4299.358887,4532.05127,4538.333496,4417.563965,4487.05127,,,,,,,,,,,,,,,,,,,,,,,,,,,,,,,,,,,,,,,,,,,,,,,,,,,,,,,,,,,,,,,,,,,,,,
1768918334.334002,1768918334.334808,122.0,0.0,4355.256348,4326.025879,4362.05127,4347.436035,4302.563965,4298.077148,4315.256348,4328.333496,4326.025879,4305.897461,4537.436035,4549.615234,4424.358887,4491.282227,,,,,,,,,,,,,,,,,,,,,,,,,,,,,,,,,,,,,,,,,,,,,,,,,,,,,,,,,,,,,,,,,,,,,,
1768918334.34181,1768918334.342616,123.0,0.0,4353.974121,4323.974121,4360.256348,4344.102539,4297.692383,4294.615234,4309.871582,4330.0,4327.05127,4307.563965,4536.410156,4552.820313,4424.358887,4489.615234,,,,,,,,,,,,,,,,,,,,,,,,,,,,,,,,,,,,,,,,,,,,,,,,,,,,,,,,,,,,,,,,,,,,,,
1768918334.349619,1768918334.350224,124.0,0.0,4343.717773,4319.871582,4353.333496,4334.871582,4297.436035,4291.922852,4306.538574,4322.563965,4325.769043,4295.128418,4523.846191,4540.512695,4410.512695,4475.641113,,,,,,,,,,,,,,,,,,,,,,,,,,,,,,,,,,,,,,,,,,,,,,,,,,,,,,,,,,,,,,,,,,,,,,
1768918334.357427,1768918334.358031,125.0,0.0,4340.769043,4315.512695,4357.179688,4332.05127,4304.102539,4296.538574,4312.307617,4323.589844,4326.153809,4290.641113,4517.692383,4536.282227,4392.94873,4462.563965,,,,,,,,,,,,,,,,,,,,,,,,,,,,,,,,,,,,,,,,,,,,,,,,,,,,,,,,,,,,,,,,,,,,,,
1768918334.365236,1768918334.365939,126.0,0.0,4343.589844,4314.102539,4356.282227,4331.410156,4299.358887,4294.358887,4306.666504,4328.589844,4326.666504,4299.102539,4523.333496,4541.794922,4400.769043,4470.128418,,,,,,,,,,,,,,,,,,,,,,,,,,,,,,,,,,,,,,,,,,,,,,,,,,,,,,,,,,,,,,,,,,,,,,
1768918334.373044,1768918334.373747,127.0,0.0,4342.179688,4318.333496,4348.589844,4332.179688,4292.94873,4287.94873,4296.794922,4319.615234,4324.358887,4303.589844,4523.717773,4540.256348,4421.153809,4484.230957,,,,,,,,,,,,,,,,,,,,,,,,,,,,,,,,,,,,,,,,,,,,,,,,,,,,,,,,,,,,,,,,,,,,,,
1768918334.380853,1768918334.381755,0.0,0.0,4341.794922,4321.922852,4351.153809,4335.512695,4297.436035,4290.0,4304.487305,4314.871582,4323.205078,4304.102539,4523.589844,4537.563965,4424.487305,4487.820313,0.825399,0.451981,0.331143,0.209277,0.096853,0.420846,0.489853,0.231539,0.210717,0.152964,0.97369,0.283516,0.238049,0.189427,0.194771,0.686303,0.176289,0.109305,0.174921,0.091629,0.361492,0.143571,0.131438,0.146493,0.0898,0.266089,0.179286,0.234796,0.215587,0.179961,0.40013,0.331597,0.31958,0.346039,0.343607,0.331726,0.265583,0.215334,0.351609,0.254285,0.337397,0.298955,0.20498,0.336908,0.127915,0.506051,0.355875,0.234352,0.163907,0.123422,0.471118,0.451108,0.186958,0.232331,0.102314,0.978272,0.47613,0.276537,0.206923,0.186358,0.66836,0.423577,0.283897,0.164955,0.12508,0.60886,0.741877,0.551892,0.203635,0.109316
1768918334.388661,1768918334.389563,1.0,0.0,4341.410156,4321.025879,4357.05127,4336.282227,4298.205078,4294.230957,4312.692383,4324.871582,4325.769043,4304.743652,4533.205078,4541.538574,4421.282227,4485.512695,,,,,,,,,,,,,,,,,,,,,,,,,,,,,,,,,,,,,,,,,,,,,,,,,,,,,,,,,,,,,,,,,,,,,,
1768918334.39647,1768918334.397271,2.0,0.0,4338.077148,4317.563965,4355.128418,4333.717773,4294.871582,4292.820313,4309.743652,4331.025879,4330.0,4304.615234,4536.794922,4543.205078,4424.102539,4480.769043,,,,,,,,,,,,,,,,,,,,,,,,,,,,,,,,,,,,,,,,,,,,,,,,,,,,,,,,,,,,,,,,,,,,,,
1768918334.404278,1768918334.405079,3.0,0.0,4336.538574,4312.307617,4355.769043,4334.871582,4295.256348,4291.282227,4308.589844,4327.692383,4333.205078,4305.128418,4525.512695,4541.282227,4418.974121,4476.410156,,,,,,,,,,,,,,,,,,,,,,,,,,,,,,,,,,,,,,,,,,,,,,,,,,,,,,,,,,,,,,,,,,,,,,
1768918334.412087,1768918334.413087,4.0,0.0,4334.743652,4308.077148,4355.128418,4334.102539,4293.077148,4292.307617,4309.358887,4330.128418,4336.025879,4305.897461,4522.94873,4540.512695,4413.205078,4476.666504,,,,,,,,,,,,,,,,,,,,,,,,,,,,,,,,,,,,,,,,,,,,,,,,,,,,,,,,,,,,,,,,,,,,,,
1768918334.419895,1768918334.420895,5.0,0.0,4334.871582,4308.846191,4346.282227,4333.205078,4293.974121,4294.230957,4311.153809,4333.077148,4333.974121,4306.025879,4533.333496,4541.153809,4416.794922,4478.205078,,,,,,,,,,,,,,,,,,,,,,,,,,,,,,,,,,,,,,,,,,,,,,,,,,,,,,,,,,,,,,,,,,,,,,
1768918334.427704,1768918334.428603,6.0,0.0,4334.487305,4309.487305,4342.563965,4337.307617,4300.128418,4294.871582,4310.641113,4325.897461,4328.205078,4304.358887,4531.025879,4538.974121,4417.179688,4476.282227,,,,,,,,,,,,,,,,,,,,,,,,,,,,,,,,,,,,,,,,,,,,,,,,,,,,,,,,,,,,,,,,,,,,,,
1768918334.435512,1768918334.436411,7.0,0.0,4334.743652,4310.897461,4350.0,4342.307617,4303.333496,4293.846191,4304.358887,4323.717773,4330.256348,4307.436035,4528.717773,4537.563965,4422.436035,4477.692383,,,,,,,,,,,,,,,,,,,,,,,,,,,,,,,,,,,,,,,,,,,,,,,,,,,,,,,,,,,,,,,,,,,,,,
1768918334.443321,1768918334.444019,8.0,0.0,4339.358887,4312.05127,4354.615234,4342.94873,4304.615234,4295.384766,4305.384766,4327.820313,4336.666504,4311.538574,4537.94873,4538.974121,4428.589844,4477.563965,,,,,,,,,,,,,,,,,,,,,,,,,,,,,,,,,,,,,,,,,,,,,,,,,,,,,,,,,,,,,,,,,,,,,,
1768918334.451129,1768918334.451827,9.0,0.0,4341.282227,4309.487305,4349.871582,4342.436035,4305.769043,4297.94873,4311.922852,4328.974121,4337.05127,4309.487305,4536.922852,4537.563965,4426.153809,4475.128418,,,,,,,,,,,,,,,,,,,,,,,,,,,,,,,,,,,,,,,,,,,,,,,,,,,,,,,,,,,,,,,,,,,,,,
1768918334.458938,1768918334.459535,10.0,0.0,4340.897461,4310.641113,4348.589844,4347.05127,4306.666504,4295.897461,4312.563965,4335.0,4336.282227,4308.589844,4530.0,4535.897461,4427.179688,4481.922852,,,,,,,,,,,,,,,,,,,,,,,,,,,,,,,,,,,,,,,,,,,,,,,,,,,,,,,,,,,,,,,,,,,,,,
1768918334.466746,1768918334.467343,11.0,0.0,4342.563965,4313.717773,4354.358887,4350.641113,4304.615234,4295.0,4311.153809,4343.205078,4340.256348,4311.410156,4537.436035,4539.487305,4429.615234,4486.922852,,,,,,,,,,,,,,,,,,,,,,,,,,,,,,,,,,,,,,,,,,,,,,,,,,,,,,,,,,,,,,,,,,,,,,
1768918334.474555,1768918334.474951,12.0,0.0,4342.307617,4312.563965,4355.641113,4350.128418,4301.282227,4296.410156,4312.563965,4336.410156,4336.666504,4310.384766,4539.102539,4544.358887,4431.410156,4483.077148,,,,,,,,,,,,,,,,,,,,,,,,,,,,,,,,,,,,,,,,,,,,,,,,,,,,,,,,,,,,,,,,,,,,,,
1768918334.482363,1768918334.482759,13.0,0.0,4340.128418,4310.256348,4352.307617,4348.717773,4303.461426,4296.666504,4309.871582,4326.282227,4325.897461,4304.743652,4523.846191,4541.025879,4427.563965,4475.897461,,,,,,,,,,,,,,,,,,,,,,,,,,,,,,,,,,,,,,,,,,,,,,,,,,,,,,,,,,,,,,,,,,,,,,
1768918334.490172,1768918334.490666,14.0,0.0,4341.153809,4316.025879,4354.358887,4349.743652,4309.743652,4301.922852,4313.846191,4329.102539,4324.487305,4303.974121,4521.922852,4535.256348,4420.641113,4472.563965,,,,,,,,,,,,,,,,,,,,,,,,,,,,,,,,,,,,,,,,,,,,,,,,,,,,,,,,,,,,,,,,,,,,,,
1768918334.49798,1768918334.498474,15.0,0.0,4342.307617,4320.641113,4359.102539,4352.436035,4309.615234,4304.487305,4322.307617,4334.358887,4332.820313,4308.974121,4535.384766,4540.512695,4423.461426,4481.025879,,,,,,,,,,,,,,,,,,,,,,,,,,,,,,,,,,,,,,,,,,,,,,,,,,,,,,,,,,,,,,,,,,,,,,
1768918334.505789,1768918334.506482,16.0,0.0,4340.0,4313.077148,4354.871582,4349.358887,4302.94873,4296.538574,4317.179688,4335.897461,4340.256348,4312.94873,4542.94873,4550.256348,4432.820313,4490.512695,0.901644,0.390373,0.360137,0.213575,0.09596,0.461832,0.446345,0.242889,0.229429,0.16098,0.931303,0.297696,0.3169,0.192648,0.194685,0.664794,0.15567,0.131246,0.219519,0.097802,0.37565,0.11773,0.147735,0.139881,0.099471,0.240773,0.205095,0.220804,0.192081,0.166218,0.383067,0.474215,0.348762,0.319236,0.345053,0.342497,0.247226,0.229543,0.295606,0.252675,0.314268,0.288087,0.217672,0.252172,0.138447,0.513456,0.341968,0.231024,0.148861,0.132392,0.55437,0.3998,0.252998,0.181791,0.109006,1.048337,0.435003,0.284376,0.174702,0.187529,0.845266,0.398493,0.327499,0.185073,0.135943,0.6801,0.61992,0.689156,0.213558,0.105158
1768918334.513597,1768918334.51429,17.0,0.0,4340.0,4306.538574,4349.102539,4343.717773,4300.897461,4291.025879,4308.589844,4332.307617,4335.769043,4311.025879,4539.230957,4546.538574,4431.025879,4484.102539,,,,,,,,,,,,,,,,,,,,,,,,,,,,,,,,,,,,,,,,,,,,,,,,,,,,,,,,,,,,,,,,,,,,,,
1768918334.521406,1768918334.522198,18.0,0.0,4338.077148,4308.461426,4350.256348,4339.743652,4303.205078,4292.94873,4307.05127,4324.871582,4330.256348,4305.384766,4528.333496,4532.692383,4418.846191,4471.153809,,,,,,,,,,,,,,,,,,,,,,,,,,,,,,,,,,,,,,,,,,,,,,,,,,,,,,,,,,,,,,,,,,,,,,
1768918334.529214,1768918334.530006,19.0,0.0,4333.846191,4310.256348,4350.0,4341.153809,4303.974121,4297.436035,4311.410156,4324.487305,4331.794922,4305.769043,4522.307617,4530.641113,4411.282227,4472.94873,,,,,,,,,,,,,,,,,,,,,,,,,,,,,,,,,,,,,,,,,,,,,,,,,,,,,,,,,,,,,,,,,,,,,,
1768918334.537023,1768918334.537614,20.0,0.0,4335.641113,4307.94873,4349.230957,4347.692383,4304.615234,4301.666504,4315.769043,4331.153809,4331.922852,4307.820313,4526.282227,4538.589844,4412.436035,4477.94873,,,,,,,,,,,,,,,,,,,,,,,,,,,,,,,,,,,,,,,,,,,,,,,,,,,,,,,,,,,,,,,,,,,,,,
1768918334.544831,1768918334.545422,21.0,0.0,4337.307617,4306.794922,4350.897461,4352.307617,4307.05127,4307.307617,4317.94873,4333.589844,4330.641113,4305.128418,4526.538574,4539.743652,4414.358887,4474.487305,,,,,,,,,,,,,,,,,,,,,,,,,,,,,,,,,,,,,,,,,,,,,,,,,,,,,,,,,,,,,,,,,,,,,,
1768918334.55264,1768918334.553129,22.0,0.0,4329.487305,4305.128418,4348.461426,4347.563965,4310.128418,4307.05127,4316.282227,4330.128418,4332.179688,4302.307617,4523.205078,4536.025879,4411.794922,4471.922852,,,,,,,,,,,,,,,,,,,,,,,,,,,,,,,,,,,,,,,,,,,,,,,,,,,,,,,,,,,,,,,,,,,,,,
1768918334.560448,1768918334.560937,23.0,0.0,4325.769043,4303.333496,4342.94873,4341.282227,4309.743652,4301.153809,4314.102539,4328.589844,4336.282227,4306.538574,4531.922852,4537.307617,4413.974121,4473.461426,,,,,,,,,,,,,,,,,,,,,,,,,,,,,,,,,,,,,,,,,,,,,,,,,,,,,,,,,,,,,,,,,,,,,,
1768918334.568257,1768918334.568945,24.0,0.0,4336.794922,4306.282227,4343.846191,4343.717773,4309.358887,4301.410156,4318.461426,4331.922852,4336.538574,4308.333496,4536.538574,4540.384766,4419.871582,4477.820313,,,,,,,,,,,,,,,,,,,,,,,,,,,,,,,,,,,,,,,,,,,,,,,,,,,,,,,,,,,,,,,,,,,,,,
1768918334.576065,1768918334.576753,25.0,0.0,4341.282227,4308.077148,4348.974121,4345.128418,4311.282227,4304.102539,4321.538574,4328.717773,4329.358887,4299.743652,4525.641113,4538.077148,4414.358887,4476.794922,,,,,,,,,,,,,,,,,,,,,,,,,,,,,,,,,,,,,,,,,,,,,,,,,,,,,,,,,,,,,,,,,,,,,,
1768918334.583874,1768918334.584461,26.0,0.0,4333.717773,4308.461426,4349.871582,4341.922852,4309.230957,4301.153809,4318.461426,4322.307617,4325.128418,4299.615234,4523.589844,4533.589844,4412.820313,4470.0,,,,,,,,,,,,,,,,,,,,,,,,,,,,,,,,,,,,,,,,,,,,,,,,,,,,,,,,,,,,,,,,,,,,,,
1768918334.591682,1768918334.592269,27.0,0.0,4334.358887,4315.0,4349.358887,4343.205078,4304.871582,4292.692383,4309.102539,4325.256348,4331.666504,4311.153809,4536.666504,4534.358887,4425.128418,4470.512695,,,,,,,,,,,,,,,,,,,,,,,,,,,,,,,,,,,,,,,,,,,,,,,,,,,,,,,,,,,,,,,,,,,,,,
1768918334.599491,1768918334.599877,28.0,0.0,4343.077148,4321.153809,4352.94873,4349.358887,4305.897461,4293.077148,4303.717773,4329.358887,4339.358887,4314.487305,4542.820313,4545.128418,4430.897461,4481.282227,,,,,,,,,,,,,,,,,,,,,,,,,,,,,,,,,,,,,,,,,,,,,,,,,,,,,,,,,,,,,,,,,,,,,,
1768918334.607299,1768918334.607685,29.0,0.0,4345.0,4320.897461,4357.94873,4351.282227,4310.512695,4303.974121,4316.922852,4328.846191,4338.077148,4308.717773,4539.358887,4552.307617,4428.589844,4486.538574,,,,,,,,,,,,,,,,,,,,,,,,,,,,,,,,,,,,,,,,,,,,,,,,,,,,,,,,,,,,,,,,,,,,,,
1768918334.615108,1768918334.615493,30.0,0.0,4342.692383,4321.025879,4355.769043,4351.153809,4312.307617,4314.871582,4329.102539,4329.615234,4337.05127,4309.615234,4540.384766,4547.179688,4429.358887,4480.128418,,,,,,,,,,,,,,,,,,,,,,,,,,,,,,,,,,,,,,,,,,,,,,,,,,,,,,,,,,,,,,,,,,,,,,
1768918334.622916,1768918334.623301,31.0,0.0,4341.410156,4320.384766,4350.769043,4350.128418,4310.769043,4310.769043,4320.256348,4328.589844,4334.743652,4311.153809,4536.922852,4538.974121,4424.871582,4473.717773,,,,,,,,,,,,,,,,,,,,,,,,,,,,,,,,,,,,,,,,,,,,,,,,,,,,,,,,,,,,,,,,,,,,,,
1768918334.630725,1768918334.631309,32.0,0.0,4340.897461,4315.641113,4355.0,4347.179688,4310.384766,4297.692383,4308.333496,4324.102539,4329.743652,4305.0,4527.307617,4536.794922,4419.871582,4474.102539,0.943718,0.333738,0.386418,0.210192,0.099438,0.485433,0.395325,0.252254,0.257404,0.170728,0.875887,0.304549,0.410884,0.196536,0.190637,0.6415,0.166938,0.167333,0.266696,0.105244,0.42384,0.108089,0.161503,0.128443,0.105264,0.226276,0.233214,0.193734,0.176173,0.153436,0.378327,0.595834,0.358422,0.306905,0.342379,0.35955,0.224276,0.226166,0.234609,0.236635,0.319704,0.281331,0.210449,0.171341,0.143238,0.536254,0.35612,0.210062,0.142992,0.141075,0.65019,0.365459,0.331249,0.160547,0.121233,1.137874,0.425199,0.284328,0.147586,0.194539,0.984175,0.386862,0.372426,0.241846,0.152088,0.763258,0.524398,0.819312,0.234802,0.106279
1768918334.638533,1768918334.639117,33.0,0.0,4345.512695,4319.615234,4361.794922,4346.666504,4311.410156,4301.025879,4312.820313,4327.307617,4333.589844,4304.871582,4530.769043,4544.743652,4425.641113,4483.846191,,,,,,,,,,,,,,,,,,,,,,,,,,,,,,,,,,,,,,,,,,,,,,,,,,,,,,,,,,,,,,,,,,,,,,
1768918334.646342,1768918334.646825,34.0,0.0,4348.205078,4326.153809,4357.692383,4347.05127,4311.025879,4305.0,4316.666504,4334.102539,4340.0,4311.410156,4540.512695,4548.589844,4430.512695,4488.205078,,,,,,,,,,,,,,,,,,,,,,,,,,,,,,,,,,,,,,,,,,,,,,,,,,,,,,,,,,,,,,,,,,,,,,
1768918334.65415,1768918334.654633,35.0,0.0,4342.692383,4321.153809,4347.94873,4341.922852,4307.563965,4296.025879,4308.461426,4331.025879,4335.641113,4309.230957,4534.615234,4541.922852,4425.256348,4482.563965,,,,,,,,,,,,,,,,,,,,,,,,,,,,,,,,,,,,,,,,,,,,,,,,,,,,,,,,,,,,,,,,,,,,,,
1768918334.661959,1768918334.662241,36.0,0.0,4339.102539,4320.384766,4348.461426,4339.615234,4304.358887,4290.0,4302.436035,4322.307617,4327.05127,4300.641113,4523.717773,4536.153809,4422.179688,4480.256348,,,,,,,,,,,,,,,,,,,,,,,,,,,,,,,,,,,,,,,,,,,,,,,,,,,,,,,,,,,,,,,,,,,,,,
1768918334.669768,1768918334.670049,37.0,0.0,4342.436035,4325.128418,4352.94873,4343.974121,4307.563965,4295.769043,4311.282227,4320.0,4326.666504,4298.974121,4524.487305,4533.846191,4421.794922,4481.282227,,,,,,,,,,,,,,,,,,,,,,,,,,,,,,,,,,,,,,,,,,,,,,,,,,,,,,,,,,,,,,,,,,,,,,
1768918334.677576,1768918334.677956,38.0,0.0,4337.179688,4314.358887,4345.641113,4342.436035,4309.871582,4304.871582,4321.153809,4321.922852,4327.05127,4297.563965,4521.666504,4524.358887,4410.897461,4474.487305,,,,,,,,,,,,,,,,,,,,,,,,,,,,,,,,,,,,,,,,,,,,,,,,,,,,,,,,,,,,,,,,,,,,,,
1768918334.685385,1768918334.685764,39.0,0.0,4325.0,4301.538574,4335.384766,4335.0,4305.641113,4306.282227,4314.871582,4322.179688,4323.333496,4292.05127,4512.179688,4516.538574,4401.538574,4465.512695,,,,,,,,,,,,,,,,,,,,,,,,,,,,,,,,,,,,,,,,,,,,,,,,,,,,,,,,,,,,,,,,,,,,,,
1768918334.693193,1768918334.693772,40.0,0.0,4333.205078,4310.897461,4344.487305,4340.384766,4304.871582,4305.128418,4312.179688,4327.436035,4327.05127,4299.615234,4519.102539,4528.205078,4413.333496,4472.436035,,,,,,,,,,,,,,,,,,,,,,,,,,,,,,,,,,,,,,,,,,,,,,,,,,,,,,,,,,,,,,,,,,,,,,
1768918334.701002,1768918334.70158,41.0,0.0,4352.692383,4328.333496,4362.94873,4359.230957,4312.05127,4304.487305,4320.0,4335.512695,4340.384766,4317.436035,4538.333496,4543.974121,4433.461426,4489.615234,,,,,,,,,,,,,,,,,,,,,,,,,,,,,,,,,,,,,,,,,,,,,,,,,,,,,,,,,,,,,,,,,,,,,,
1768918334.70881,1768918334.709488,42.0,0.0,4353.461426,4329.871582,4364.615234,4364.615234,4314.487305,4307.05127,4320.512695,4333.846191,4342.436035,4321.025879,4542.563965,4546.153809,4436.922852,4491.922852,,,,,,,,,,,,,,,,,,,,,,,,,,,,,,,,,,,,,,,,,,,,,,,,,,,,,,,,,,,,,,,,,,,,,,
1768918334.716619,1768918334.717296,43.0,0.0,4342.179688,4322.563965,4353.205078,4352.307617,4307.563965,4305.897461,4312.05127,4325.769043,4329.743652,4311.025879,4529.615234,4537.692383,4429.230957,4480.641113,,,,,,,,,,,,,,,,,,,,,,,,,,,,,,,,,,,,,,,,,,,,,,,,,,,,,,,,,,,,,,,,,,,,,,
1768918334.724427,1768918334.725304,44.0,0.0,4339.102539,4322.05127,4347.05127,4349.871582,4309.230957,4302.179688,4309.871582,4323.846191,4323.589844,4305.0,4520.641113,4529.358887,4426.025879,4480.769043,,,,,,,,,,,,,,,,,,,,,,,,,,,,,,,,,,,,,,,,,,,,,,,,,,,,,,,,,,,,,,,,,,,,,,
1768918334.732236,1768918334.733112,45.0,0.0,4341.794922,4327.179688,4351.410156,4358.589844,4318.333496,4308.333496,4323.077148,4328.205078,4329.743652,4307.563965,4527.05127,4533.333496,4427.692383,4491.025879,,,,,,,,,,,,,,,,,,,,,,,,,,,,,,,,,,,,,,,,,,,,,,,,,,,,,,,,,,,,,,,,,,,,,,
1768918334.740044,1768918334.74082,46.0,0.0,4342.94873,4329.358887,4357.692383,4360.512695,4315.512695,4311.025879,4328.461426,4327.307617,4334.102539,4310.384766,4538.205078,4543.717773,4429.615234,4491.410156,,,,,,,,,,,,,,,,,,,,,,,,,,,,,,,,,,,,,,,,,,,,,,,,,,,,,,,,,,,,,,,,,,,,,,
1768918334.747853,1768918334.748627,47.0,0.0,4346.153809,4325.512695,4359.615234,4356.794922,4310.769043,4304.358887,4314.230957,4325.641113,4333.717773,4311.922852,4540.512695,4546.666504,4428.974121,4490.0,,,,,,,,,,,,,,,,,,,,,,,,,,,,,,,,,,,,,,,,,,,,,,,,,,,,,,,,,,,,,,,,,,,,,,
1768918334.755661,1768918334.756635,48.0,0.0,4350.384766,4324.487305,4356.794922,4356.666504,4316.538574,4305.512695,4309.102539,4332.563965,4337.563965,4315.128418,4537.692383,4541.153809,4430.641113,4491.666504,0.947674,0.298534,0.403271,0.196665,0.105078,0.524599,0.345386,0.258566,0.286876,0.179333,0.809945,0.300787,0.495048,0.192912,0.183644,0.620404,0.202615,0.207789,0.301156,0.110552,0.484392,0.121508,0.168698,0.112423,0.105661,0.219954,0.256743,0.159602,0.166375,0.142514,0.378454,0.658462,0.349987,0.308934,0.333882,0.380117,0.19921,0.208463,0.183948,0.211161,0.350098,0.27297,0.186389,0.113303,0.141501,0.557178,0.384981,0.181125,0.147135,0.145974,0.724199,0.362156,0.404438,0.168513,0.134306,1.212983,0.468246,0.281852,0.129388,0.204502,1.060088,0.39706,0.414878,0.332751,0.169253,0.820733,0.462867,0.913813,0.272556,0.111754
1768918334.76347,1768918334.764443,49.0,0.0,4350.641113,4327.820313,4355.897461,4356.282227,4314.871582,4310.256348,4320.769043,4335.256348,4341.922852,4315.512695,4538.589844,4538.846191,4435.128418,4490.512695,,,,,,,,,,,,,,,,,,,,,,,,,,,,,,,,,,,,,,,,,,,,,,,,,,,,,,,,,,,,,,,,,,,,,,
1768918334.771278,1768918334.772151,50.0,0.0,4345.512695,4326.282227,4359.230957,4354.487305,4307.563965,4304.358887,4322.436035,4331.538574,4340.769043,4314.358887,4540.769043,4541.922852,4435.769043,4492.05127,,,,,,,,,,,,,,,,,,,,,,,,,,,,,,,,,,,,,,,,,,,,,,,,,,,,,,,,,,,,,,,,,,,,,,
1768918334.779087,1768918334.779959,51.0,0.0,4341.282227,4321.153809,4359.487305,4355.897461,4315.384766,4302.563965,4317.179688,4337.94873,4339.230957,4317.692383,4539.487305,4544.871582,4432.94873,4492.692383,,,,,,,,,,,,,,,,,,,,,,,,,,,,,,,,,,,,,,,,,,,,,,,,,,,,,,,,,,,,,,,,,,,,,,
1768918334.786895,1768918334.787567,52.0,0.0,4342.307617,4322.05127,4357.05127,4358.333496,4326.025879,4312.179688,4322.692383,4341.282227,4341.666504,4323.205078,4539.615234,4544.230957,4430.769043,4489.102539,,,,,,,,,,,,,,,,,,,,,,,,,,,,,,,,,,,,,,,,,,,,,,,,,,,,,,,,,,,,,,,,,,,,,,
1768918334.794704,1768918334.795375,53.0,0.0,4344.102539,4325.256348,4356.410156,4357.820313,4323.717773,4315.128418,4331.410156,4335.256348,4343.077148,4319.871582,4540.897461,4540.128418,4429.615234,4491.410156,,,,,,,,,,,,,,,,,,,,,,,,,,,,,,,,,,,,,,,,,,,,,,,,,,,,,,,,,,,,,,,,,,,,,,
1768918334.802512,1768918334.803083,54.0,0.0,4345.256348,4320.384766,4358.974121,4357.820313,4320.512695,4312.307617,4334.358887,4332.820313,4337.179688,4311.153809,4535.512695,4538.461426,4426.794922,4491.922852,,,,,,,,,,,,,,,,,,,,,,,,,,,,,,,,,,,,,,,,,,,,,,,,,,,,,,,,,,,,,,,,,,,,,,
1768918334.810321,1768918334.810891,55.0,0.0,4343.717773,4314.230957,4360.384766,4359.871582,4322.05127,4312.563965,4329.230957,4332.820313,4332.179688,4309.230957,4525.0,4539.358887,4423.205078,4483.461426,,,,,,,,,,,,,,,,,,,,,,,,,,,,,,,,,,,,,,,,,,,,,,,,,,,,,,,,,,,,,,,,,,,,,,
1768918334.818129,1768918334.818899,56.0,0.0,4338.461426,4315.128418,4358.846191,4358.974121,4320.641113,4310.641113,4324.743652,4335.0,4336.282227,4310.512695,4521.282227,4536.025879,4418.461426,4479.358887,,,,,,,,,,,,,,,,,,,,,,,,,,,,,,,,,,,,,,,,,,,,,,,,,,,,,,,,,,,,,,,,,,,,,,
1768918334.825938,1768918334.826707,57.0,0.0,4337.692383,4317.179688,4355.897461,4358.717773,4318.846191,4310.641113,4327.179688,4337.05127,4336.666504,4308.333496,4524.743652,4535.0,4417.179688,4481.922852,,,,,,,,,,,,,,,,,,,,,,,,,,,,,,,,,,,,,,,,,,,,,,,,,,,,,,,,,,,,,,,,,,,,,,
1768918334.833746,1768918334.834615,58.0,0.0,4344.487305,4321.666504,4355.384766,4361.282227,4322.179688,4315.128418,4326.410156,4335.512695,4328.717773,4306.922852,4526.794922,4537.179688,4426.282227,4482.94873,,,,,,,,,,,,,,,,,,,,,,,,,,,,,,,,,,,,,,,,,,,,,,,,,,,,,,,,,,,,,,,,,,,,,,
1768918334.841555,1768918334.842423,59.0,0.0,4345.769043,4322.05127,4361.794922,4361.025879,4326.282227,4318.846191,4328.461426,4337.692383,4330.128418,4309.871582,4526.153809,4538.461426,4428.205078,4478.846191,,,,,,,,,,,,,,,,,,,,,,,,,,,,,,,,,,,,,,,,,,,,,,,,,,,,,,,,,,,,,,,,,,,,,,
1768918334.849363,1768918334.850031,60.0,0.0,4335.256348,4313.205078,4364.615234,4358.333496,4323.974121,4315.384766,4330.897461,4345.0,4339.871582,4310.256348,4523.717773,4540.128418,4413.717773,4472.820313,,,,,,,,,,,,,,,,,,,,,,,,,,,,,,,,,,,,,,,,,,,,,,,,,,,,,,,,,,,,,,,,,,,,,,
1768918334.857172,1768918334.857838,61.0,0.0,4335.384766,4312.94873,4359.615234,4358.974121,4320.641113,4313.333496,4326.666504,4346.282227,4342.692383,4309.358887,4524.743652,4541.538574,4413.077148,4481.025879,,,,,,,,,,,,,,,,,,,,,,,,,,,,,,,,,,,,,,,,,,,,,,,,,,,,,,,,,,,,,,,,,,,,,,
1768918334.86498,1768918334.865546,62.0,0.0,4346.410156,4323.461426,4355.641113,4360.769043,4322.436035,4316.922852,4328.205078,4334.102539,4335.512695,4308.717773,4527.05127,4540.897461,4428.974121,4491.538574,,,,,,,,,,,,,,,,,,,,,,,,,,,,,,,,,,,,,,,,,,,,,,,,,,,,,,,,,,,,,,,,,,,,,,
1768918334.872789,1768918334.873354,63.0,0.0,4342.820313,4320.512695,4356.538574,4357.179688,4323.589844,4313.717773,4326.282227,4326.922852,4328.333496,4306.794922,4524.871582,4538.205078,4431.282227,4485.641113,,,,,,,,,,,,,,,,,,,,,,,,,,,,,,,,,,,,,,,,,,,,,,,,,,,,,,,,,,,,,,,,,,,,,,
1768918334.880597,1768918334.880962,64.0,0.0,4335.897461,4313.589844,4354.871582,4351.153809,4322.820313,4307.307617,4317.436035,4333.333496,4331.794922,4307.94873,4523.205078,4537.436035,4424.743652,4479.230957,0.926577,0.286609,0.404352,0.174565,0.110705,0.557436,0.30265,0.260759,0.308551,0.182602,0.72947,0.286247,0.543904,0.180282,0.176026,0.61798,0.250542,0.244463,0.311055,0.111825,0.534941,0.155571,0.167739,0.09395,0.101008,0.221377,0.268191,0.134532,0.159603,0.134127,0.375844,0.64602,0.3327,0.316395,0.319874,0.40132,0.173905,0.188427,0.152524,0.183177,0.372953,0.25766,0.155195,0.088666,0.134631,0.560771,0.405551,0.157535,0.157276,0.144731,0.757959,0.387449,0.453447,0.198859,0.146026,1.23478,0.557079,0.282093,0.121563,0.213401,1.089616,0.425069,0.455608,0.442697,0.182777,0.839128,0.430884,0.952915,0.325515,0.120686
1768918334.888406,1768918334.88877,65.0,0.0,4339.615234,4319.102539,4346.410156,4350.256348,4323.333496,4312.05127,4318.461426,4338.333496,4337.307617,4310.897461,4525.128418,4538.205078,4425.641113,4482.820313,,,,,,,,,,,,,,,,,,,,,,,,,,,,,,,,,,,,,,,,,,,,,,,,,,,,,,,,,,,,,,,,,,,,,,
1768918334.896214,1768918334.896678,66.0,0.0,4338.846191,4320.0,4342.05127,4352.436035,4324.615234,4321.025879,4326.025879,4336.666504,4335.256348,4311.282227,4524.743652,4538.461426,4425.256348,4480.0,,,,,,,,,,,,,,,,,,,,,,,,,,,,,,,,,,,,,,,,,,,,,,,,,,,,,,,,,,,,,,,,,,,,,,
1768918334.904023,1768918334.904486,67.0,0.0,4331.025879,4313.205078,4344.871582,4351.922852,4322.820313,4320.512695,4327.563965,4336.025879,4331.282227,4308.333496,4523.717773,4538.077148,4423.974121,4476.025879,,,,,,,,,,,,,,,,,,,,,,,,,,,,,,,,,,,,,,,,,,,,,,,,,,,,,,,,,,,,,,,,,,,,,,
1768918334.911831,1768918334.912494,68.0,0.0,4327.179688,4310.641113,4346.153809,4348.974121,4319.615234,4314.230957,4326.410156,4334.615234,4329.487305,4301.538574,4525.256348,4539.871582,4423.077148,4477.563965,,,,,,,,,,,,,,,,,,,,,,,,,,,,,,,,,,,,,,,,,,,,,,,,,,,,,,,,,,,,,,,,,,,,,,
1768918334.91964,1768918334.920302,69.0,0.0,4325.256348,4311.922852,4342.820313,4347.692383,4322.563965,4310.897461,4326.153809,4331.025879,4328.077148,4299.102539,4523.846191,4537.179688,4414.358887,4474.230957,,,,,,,,,,,,,,,,,,,,,,,,,,,,,,,,,,,,,,,,,,,,,,,,,,,,,,,,,,,,,,,,,,,,,,
1768918334.927448,1768918334.92821,70.0,0.0,4326.794922,4315.384766,4340.769043,4347.307617,4323.974121,4313.461426,4327.307617,4334.358887,4332.563965,4305.384766,4521.282227,4526.538574,4411.025879,4472.94873,,,,,,,,,,,,,,,,,,,,,,,,,,,,,,,,,,,,,,,,,,,,,,,,,,,,,,,,,,,,,,,,,,,,,,
1768918334.935257,1768918334.936018,71.0,0.0,4336.025879,4322.307617,4343.974121,4348.461426,4319.102539,4319.487305,4331.666504,4340.128418,4339.743652,4310.0,4523.589844,4528.974121,4420.641113,4476.794922,,,,,,,,,,,,,,,,,,,,,,,,,,,,,,,,,,,,,,,,,,,,,,,,,,,,,,,,,,,,,,,,,,,,,,
1768918334.943065,1768918334.944025,72.0,0.0,4338.974121,4321.410156,4346.025879,4349.487305,4319.358887,4319.871582,4328.846191,4339.102539,4338.461426,4307.05127,4526.153809,4541.922852,4424.743652,4477.436035,,,,,,,,,,,,,,,,,,,,,,,,,,,,,,,,,,,,,,,,,,,,,,,,,,,,,,,,,,,,,,,,,,,,,,
1768918334.950874,1768918334.951833,73.0,0.0,4330.769043,4312.692383,4344.743652,4345.769043,4322.94873,4311.666504,4322.05127,4333.589844,4332.692383,4303.461426,4523.461426,4538.333496,4415.512695,4475.512695,,,,,,,,,,,,,,,,,,,,,,,,,,,,,,,,,,,,,,,,,,,,,,,,,,,,,,,,,,,,,,,,,,,,,,
1768918334.958682,1768918334.959541,74.0,0.0,4329.743652,4312.820313,4342.307617,4344.487305,4321.153809,4306.538574,4322.820313,4330.384766,4334.615234,4305.512695,4520.512695,4527.820313,4411.025879,4476.153809,,,,,,,,,,,,,,,,,,,,,,,,,,,,,,,,,,,,,,,,,,,,,,,,,,,,,,,,,,,,,,,,,,,,,,
1768918334.966491,1768918334.967349,75.0,0.0,4338.461426,4322.307617,4342.820313,4353.846191,4321.666504,4314.102539,4330.128418,4341.538574,4345.128418,4310.512695,4524.102539,4533.717773,4421.666504,4481.538574,,,,,,,,,,,,,,,,,,,,,,,,,,,,,,,,,,,,,,,,,,,,,,,,,,,,,,,,,,,,,,,,,,,,,,
1768918334.974299,1768918334.974958,76.0,0.0,4338.846191,4325.897461,4344.487305,4360.384766,4327.94873,4325.512695,4340.641113,4348.589844,4350.384766,4312.307617,4527.05127,4541.794922,4425.128418,4482.307617,,,,,,,,,,,,,,,,,,,,,,,,,,,,,,,,,,,,,,,,,,,,,,,,,,,,,,,,,,,,,,,,,,,,,,
1768918334.982108,1768918334.982765,77.0,0.0,4332.179688,4321.282227,4343.717773,4354.615234,4329.487305,4327.94873,4345.641113,4339.871582,4344.615234,4308.077148,4522.307617,4535.641113,4413.846191,4475.384766,,,,,,,,,,,,,,,,,,,,,,,,,,,,,,,,,,,,,,,,,,,,,,,,,,,,,,,,,,,,,,,,,,,,,,
1768918334.989916,1768918334.990474,78.0,0.0,4333.974121,4322.05127,4341.922852,4349.102539,4325.384766,4321.922852,4340.128418,4339.615234,4341.025879,4306.794922,4521.794922,4534.230957,4413.205078,4474.743652,,,,,,,,,,,,,,,,,,,,,,,,,,,,,,,,,,,,,,,,,,,,,,,,,,,,,,,,,,,,,,,,,,,,,,
1768918334.997725,1768918334.998282,79.0,0.0,4339.230957,4324.871582,4345.512695,4350.384766,4324.487305,4322.179688,4339.743652,4346.794922,4344.871582,4311.922852,4534.743652,4546.153809,4427.94873,4486.666504,,,,,,,,,,,,,,,,,,,,,,,,,,,,,,,,,,,,,,,,,,,,,,,,,,,,,,,,,,,,,,,,,,,,,,
1768918335.005533,1768918335.00589,80.0,0.0,4340.769043,4325.128418,4350.128418,4353.077148,4326.794922,4327.94873,4342.307617,4339.615234,4345.384766,4314.743652,4539.615234,4550.0,4433.333496,4491.538574,0.895297,0.286011,0.385981,0.152157,0.115363,0.610306,0.267499,0.257669,0.317707,0.1777,0.635489,0.267545,0.545796,0.163605,0.170338,0.642869,0.30192,0.273427,0.294688,0.109599,0.550259,0.197952,0.159238,0.077305,0.093498,0.219979,0.264007,0.135819,0.154342,0.12893,0.363567,0.567683,0.317674,0.319287,0.303192,0.416092,0.147919,0.178904,0.140658,0.158735,0.382834,0.232744,0.127977,0.09756,0.125422,0.537335,0.39929,0.150919,0.168928,0.137737,0.755994,0.420386,0.465959,0.2458,0.157459,1.182952,0.658447,0.286802,0.128632,0.218394,1.091619,0.453581,0.495651,0.55075,0.189581,0.801436,0.409186,0.929328,0.385561,0.132341
1768918335.013342,1768918335.013698,81.0,0.0,4338.077148,4324.230957,4342.05127,4350.0,4329.102539,4317.436035,4331.282227,4326.410156,4335.0,4308.461426,4525.128418,4533.974121,4422.820313,4482.05127,,,,,,,,,,,,,,,,,,,,,,,,,,,,,,,,,,,,,,,,,,,,,,,,,,,,,,,,,,,,,,,,,,,,,,
1768918335.02115,1768918335.021406,82.0,0.0,4332.179688,4322.307617,4333.589844,4342.307617,4328.461426,4305.897461,4319.615234,4325.769043,4326.794922,4304.230957,4517.563965,4525.897461,4418.589844,4473.717773,,,,,,,,,,,,,,,,,,,,,,,,,,,,,,,,,,,,,,,,,,,,,,,,,,,,,,,,,,,,,,,,,,,,,,
1768918335.028959,1768918335.029214,83.0,0.0,4334.358887,4327.820313,4339.230957,4343.205078,4326.025879,4316.025879,4326.153809,4329.487305,4331.282227,4308.461426,4525.512695,4536.538574,4424.487305,4475.384766,,,,,,,,,,,,,,,,,,,,,,,,,,,,,,,,,,,,,,,,,,,,,,,,,,,,,,,,,,,,,,,,,,,,,,
1768918335.036767,1768918335.037221,84.0,0.0,4344.230957,4335.128418,4350.769043,4355.769043,4329.230957,4325.0,4336.025879,4327.563965,4335.897461,4312.179688,4529.102539,4544.230957,4430.512695,4485.256348,,,,,,,,,,,,,,,,,,,,,,,,,,,,,,,,,,,,,,,,,,,,,,,,,,,,,,,,,,,,,,,,,,,,,,
1768918335.044576,1768918335.045029,85.0,0.0,4345.641113,4332.94873,4354.871582,4362.820313,4336.153809,4319.871582,4332.05127,4327.94873,4334.871582,4312.179688,4526.922852,4541.794922,4429.230957,4490.769043,,,,,,,,,,,,,,,,,,,,,,,,,,,,,,,,,,,,,,,,,,,,,,,,,,,,,,,,,,,,,,,,,,,,,,
1768918335.052385,1768918335.052737,86.0,0.0,4337.820313,4325.512695,4347.563965,4356.538574,4332.820313,4317.179688,4327.563965,4331.794922,4333.717773,4311.025879,4525.897461,4533.205078,4421.025879,4482.563965,,,,,,,,,,,,,,,,,,,,,,,,,,,,,,,,,,,,,,,,,,,,,,,,,,,,,,,,,,,,,,,,,,,,,,
1768918335.060193,1768918335.060545,87.0,0.0,4333.846191,4324.871582,4339.230957,4353.461426,4325.0,4315.897461,4327.94873,4330.512695,4330.0,4310.897461,4523.333496,4530.769043,4420.769043,4472.820313,,,,,,,,,,,,,,,,,,,,,,,,,,,,,,,,,,,,,,,,,,,,,,,,,,,,,,,,,,,,,,,,,,,,,,
1768918335.068001,1768918335.068153,88.0,0.0,4338.846191,4331.025879,4345.769043,4358.333496,4331.025879,4311.153809,4327.179688,4328.077148,4326.410156,4311.922852,4526.666504,4538.589844,4427.436035,4477.307617,,,,,,,,,,,,,,,,,,,,,,,,,,,,,,,,,,,,,,,,,,,,,,,,,,,,,,,,,,,,,,,,,,,,,,
1768918335.07581,1768918335.075961,89.0,0.0,4343.846191,4335.769043,4355.641113,4359.230957,4338.717773,4315.641113,4327.563965,4327.179688,4327.436035,4304.487305,4524.871582,4535.256348,4423.589844,4482.05127,,,,,,,,,,,,,,,,,,,,,,,,,,,,,,,,,,,,,,,,,,,,,,,,,,,,,,,,,,,,,,,,,,,,,,
1768918335.083619,1768918335.083869,90.0,0.0,4336.025879,4333.333496,4347.307617,4354.358887,4331.794922,4319.743652,4326.666504,4325.512695,4326.666504,4291.794922,4508.077148,4517.692383,4410.128418,4470.897461,,,,,,,,,,,,,,,,,,,,,,,,,,,,,,,,,,,,,,,,,,,,,,,,,,,,,,,,,,,,,,,,,,,,,,
1768918335.091427,1768918335.091677,91.0,0.0,4325.512695,4326.794922,4335.769043,4352.820313,4325.256348,4318.077148,4330.0,4326.025879,4325.512695,4295.128418,4507.94873,4515.769043,4409.871582,4462.05127,,,,,,,,,,,,,,,,,,,,,,,,,,,,,,,,,,,,,,,,,,,,,,,,,,,,,,,,,,,,,,,,,,,,,,
1768918335.099235,1768918335.099684,92.0,0.0,4328.077148,4325.384766,4338.077148,4354.615234,4328.333496,4321.410156,4339.230957,4327.563965,4327.179688,4306.538574,4523.717773,4524.871582,4416.410156,4464.230957,,,,,,,,,,,,,,,,,,,,,,,,,,,,,,,,,,,,,,,,,,,,,,,,,,,,,,,,,,,,,,,,,,,,,,
1768918335.107044,1768918335.107492,93.0,0.0,4333.461426,4328.077148,4343.974121,4355.641113,4330.256348,4322.692383,4338.717773,4325.0,4326.666504,4301.794922,4517.563965,4520.897461,4411.794922,4461.538574,,,,,,,,,,,,,,,,,,,,,,,,,,,,,,,,,,,,,,,,,,,,,,,,,,,,,,,,,,,,,,,,,,,,,,
1768918335.114853,1768918335.1154,94.0,0.0,4337.05127,4334.230957,4346.922852,4362.307617,4331.025879,4317.563965,4326.922852,4320.256348,4325.128418,4293.077148,4504.743652,4517.05127,4408.461426,4460.256348,,,,,,,,,,,,,,,,,,,,,,,,,,,,,,,,,,,,,,,,,,,,,,,,,,,,,,,,,,,,,,,,,,,,,,
1768918335.122661,1768918335.123208,95.0,0.0,4340.641113,4339.871582,4344.230957,4367.05127,4334.615234,4318.589844,4325.641113,4322.94873,4325.897461,4298.717773,4515.256348,4521.794922,4413.205078,4470.897461,,,,,,,,,,,,,,,,,,,,,,,,,,,,,,,,,,,,,,,,,,,,,,,,,,,,,,,,,,,,,,,,,,,,,,
1768918335.130469,1768918335.131216,96.0,0.0,4338.589844,4331.922852,4337.820313,4360.384766,4337.05127,4321.153809,4330.384766,4325.897461,4326.282227,4305.769043,4526.538574,4525.256348,4414.871582,4476.538574,0.870783,0.282773,0.347437,0.139643,0.11956,0.660063,0.240263,0.246393,0.313976,0.165564,0.549894,0.256859,0.502444,0.14966,0.167762,0.69206,0.352425,0.290737,0.259781,0.106215,0.503226,0.233955,0.146016,0.067312,0.086279,0.205023,0.246067,0.17033,0.151504,0.12781,0.345062,0.452945,0.31136,0.313076,0.288358,0.416986,0.120621,0.188871,0.143047,0.141396,0.370817,0.200769,0.11219,0.131476,0.117487,0.501953,0.365878,0.166165,0.179891,0.128145,0.760796,0.442205,0.442809,0.30523,0.17062,1.080849,0.733404,0.293074,0.156341,0.218718,1.117311,0.468614,0.534655,0.6366,0.190339,0.727679,0.38377,0.849616,0.439841,0.146193
1768918335.138278,1768918335.139024,97.0,0.0,4336.410156,4323.974121,4336.666504,4356.025879,4336.410156,4313.589844,4324.615234,4322.307617,4325.256348,4301.922852,4522.05127,4523.461426,4413.333496,4472.692383,,,,,,,,,,,,,,,,,,,,,,,,,,,,,,,,,,,,,,,,,,,,,,,,,,,,,,,,,,,,,,,,,,,,,,
1768918335.146087,1768918335.146832,98.0,0.0,4342.692383,4331.666504,4342.692383,4365.0,4338.974121,4312.692383,4326.922852,4323.461426,4325.256348,4300.641113,4520.512695,4523.205078,4414.102539,4470.0,,,,,,,,,,,,,,,,,,,,,,,,,,,,,,,,,,,,,,,,,,,,,,,,,,,,,,,,,,,,,,,,,,,,,,
1768918335.153895,1768918335.15464,99.0,0.0,4345.897461,4336.538574,4345.641113,4372.05127,4339.871582,4325.769043,4345.256348,4329.230957,4327.94873,4305.512695,4523.974121,4525.0,4411.666504,4469.230957,,,,,,,,,,,,,,,,,,,,,,,,,,,,,,,,,,,,,,,,,,,,,,,,,,,,,,,,,,,,,,,,,,,,,,
1768918335.161703,1768918335.162448,100.0,0.0,4334.871582,4329.102539,4342.307617,4363.077148,4330.769043,4325.897461,4345.384766,4327.436035,4328.205078,4304.615234,4523.077148,4523.077148,4407.307617,4469.358887,,,,,,,,,,,,,,,,,,,,,,,,,,,,,,,,,,,,,,,,,,,,,,,,,,,,,,,,,,,,,,,,,,,,,,
1768918335.169512,1768918335.170256,101.0,0.0,4326.282227,4325.512695,4339.871582,4356.922852,4329.743652,4315.256348,4327.05127,4322.820313,4326.794922,4303.077148,4521.153809,4522.307617,4409.871582,4472.179688,,,,,,,,,,,,,,,,,,,,,,,,,,,,,,,,,,,,,,,,,,,,,,,,,,,,,,,,,,,,,,,,,,,,,,
1768918335.177321,1768918335.177964,102.0,0.0,4332.563965,4328.717773,4341.025879,4363.717773,4338.717773,4320.256348,4332.820313,4325.641113,4327.05127,4307.179688,4523.461426,4524.358887,4414.102539,4473.717773,,,,,,,,,,,,,,,,,,,,,,,,,,,,,,,,,,,,,,,,,,,,,,,,,,,,,,,,,,,,,,,,,,,,,,
1768918335.185129,1768918335.185772,103.0,0.0,4341.410156,4326.538574,4343.333496,4365.0,4334.871582,4323.974121,4345.256348,4325.0,4326.666504,4303.717773,4522.563965,4524.871582,4407.307617,4468.589844,,,,,,,,,,,,,,,,,,,,,,,,,,,,,,,,,,,,,,,,,,,,,,,,,,,,,,,,,,,,,,,,,,,,,,
1768918335.192938,1768918335.19338,104.0,0.0,4341.410156,4324.487305,4344.102539,4358.333496,4323.717773,4312.820313,4333.717773,4318.461426,4325.128418,4298.461426,4517.94873,4522.820313,4400.256348,4464.487305,,,,,,,,,,,,,,,,,,,,,,,,,,,,,,,,,,,,,,,,,,,,,,,,,,,,,,,,,,,,,,,,,,,,,,
1768918335.200746,1768918335.201188,105.0,0.0,4335.256348,4325.769043,4342.563965,4356.794922,4326.153809,4311.025879,4324.871582,4317.563965,4324.871582,4304.743652,4518.205078,4521.538574,4404.615234,4468.717773,,,,,,,,,,,,,,,,,,,,,,,,,,,,,,,,,,,,,,,,,,,,,,,,,,,,,,,,,,,,,,,,,,,,,,
1768918335.208555,1768918335.208896,106.0,0.0,4331.538574,4325.641113,4340.641113,4358.461426,4328.974121,4320.769043,4336.282227,4323.717773,4325.769043,4309.102539,4521.666504,4521.922852,4406.410156,4471.282227,,,,,,,,,,,,,,,,,,,,,,,,,,,,,,,,,,,,,,,,,,,,,,,,,,,,,,,,,,,,,,,,,,,,,,
1768918335.216363,1768918335.216704,107.0,0.0,4332.179688,4329.102539,4340.384766,4357.563965,4322.94873,4320.256348,4343.717773,4327.179688,4326.666504,4304.230957,4522.307617,4523.974121,4402.307617,4466.794922,,,,,,,,,,,,,,,,,,,,,,,,,,,,,,,,,,,,,,,,,,,,,,,,,,,,,,,,,,,,,,,,,,,,,,
