title:apple_10, start timestamp:1768293055.334720, stop timestamp:1768293086.099902, headset type:EPOCX, headset serial:E5020E3B, headset firmware:730, channels:156, sampling rate:eeg_128;pm_0.1;pow_8, samples:3941      , version:2.2, 
Timestamp,OriginalTimestamp,EEG.Counter,EEG.Interpolated,EEG.AF3,EEG.F7,EEG.F3,EEG.FC5,EEG.T7,EEG.P7,EEG.O1,EEG.O2,EEG.P8,EEG.T8,EEG.FC6,EEG.F4,EEG.F8,EEG.AF4,EEG.RawCq,EEG.Battery,EEG.BatteryPercent,MarkerIndex,MarkerType,MarkerValueInt,EEG.MarkerHardware,CQ.AF3,CQ.F7,CQ.F3,CQ.FC5,CQ.T7,CQ.P7,CQ.O1,CQ.O2,CQ.P8,CQ.T8,CQ.FC6,CQ.F4,CQ.F8,CQ.AF4,CQ.Overall,EQ.SampleRateQuality,EQ.OVERALL,EQ.AF3,EQ.F7,EQ.F3,EQ.FC5,EQ.T7,EQ.P7,EQ.O1,EQ.O2,EQ.P8,EQ.T8,EQ.FC6,EQ.F4,EQ.F8,EQ.AF4,PM.Attention.IsActive,PM.Attention.Scaled,PM.Attention.Raw,PM.Attention.Min,PM.Attention.Max,PM.Engagement.IsActive,PM.Engagement.Scaled,PM.Engagement.Raw,PM.Engagement.Min,PM.Engagement.Max,PM.Excitement.IsActive,PM.Excitement.Scaled,PM.Excitement.Raw,PM.Excitement.Min,PM.Excitement.Max,PM.LongTermExcitement,PM.Stress.IsActive,PM.Stress.Scaled,PM.Stress.Raw,PM.Stress.Min,PM.Stress.Max,PM.Relaxation.IsActive,PM.Relaxation.Scaled,PM.Relaxation.Raw,PM.Relaxation.Min,PM.Relaxation.Max,PM.Interest.IsActive,PM.Interest.Scaled,PM.Interest.Raw,PM.Interest.Min,PM.Interest.Max,POW.AF3.Theta,POW.AF3.Alpha,POW.AF3.BetaL,POW.AF3.BetaH,POW.AF3.Gamma,POW.F7.Theta,POW.F7.Alpha,POW.F7.BetaL,POW.F7.BetaH,POW.F7.Gamma,POW.F3.Theta,POW.F3.Alpha,POW.F3.BetaL,POW.F3.BetaH,POW.F3.Gamma,POW.FC5.Theta,POW.FC5.Alpha,POW.FC5.BetaL,POW.FC5.BetaH,POW.FC5.Gamma,POW.T7.Theta,POW.T7.Alpha,POW.T7.BetaL,POW.T7.BetaH,POW.T7.Gamma,POW.P7.Theta,POW.P7.Alpha,POW.P7.BetaL,POW.P7.BetaH,POW.P7.Gamma,POW.O1.Theta,POW.O1.Alpha,POW.O1.BetaL,POW.O1.BetaH,POW.O1.Gamma,POW.O2.Theta,POW.O2.Alpha,POW.O2.BetaL,POW.O2.BetaH,POW.O2.Gamma,POW.P8.Theta,POW.P8.Alpha,POW.P8.BetaL,POW.P8.BetaH,POW.P8.Gamma,POW.T8.Theta,POW.T8.Alpha,POW.T8.BetaL,POW.T8.BetaH,POW.T8.Gamma,POW.FC6.Theta,POW.FC6.Alpha,POW.FC6.BetaL,POW.FC6.BetaH,POW.FC6.Gamma,POW.F4.Theta,POW.F4.Alpha,POW.F4.BetaL,POW.F4.BetaH,POW.F4.Gamma,POW.F8.Theta,POW.F8.Alpha,POW.F8.BetaL,POW.F8.BetaH,POW.F8.Gamma,POW.AF4.Theta,POW.AF4.Alpha,POW.AF4.BetaL,POW.AF4.BetaH,POW.AF4.Gamma
1768293055.334720,1768293055.335627,51.000000,0.000000,4332.692383,4318.717773,4299.230957,4340.128418,4315.256348,4325.128418,4319.230957,4325.384766,4323.974121,4307.948730,4523.974121,4537.563965,4405.641113,4474.230957,0.000000,2.000000,44.000000,,,,0.000000,4.000000,4.000000,4.000000,4.000000,4.000000,4.000000,4.000000,4.000000,4.000000,4.000000,4.000000,4.000000,4.000000,4.000000,100.000000,,,,,,,,,,,,,,,,,,,,,,,,,,,,,,,,,,,,,,,,,,,,,,,,,,,,,,,,,,,,,,,,,,,,,,,,,,,,,,,,,,,,,,,,,,,,,,,,,,,,,,,,,,,,,,,,,,,,,
1768293055.342529,1768293055.343635,52.000000,0.000000,4327.051270,4315.641113,4298.205078,4340.512695,4319.358887,4328.077148,4319.230957,4335.769043,4328.589844,4306.153809,4522.436035,4537.051270,4402.820313,4463.077148,0.000000,2.000000,44.000000,,,,0.000000,4.000000,4.000000,4.000000,4.000000,4.000000,4.000000,4.000000,4.000000,4.000000,4.000000,4.000000,4.000000,4.000000,4.000000,100.000000,,,,,,,,,,,,,,,,,,,,,,,,,,,,,,,,,,,,,,,,,,,,,,,,,,,,,,,,,,,,,,,,,,,,,,,,,,,,,,,,,,,,,,,,,,,,,,,,,,,,,,,,,,,,,,,,,,,,,
1768293055.350337,1768293055.351444,53.000000,0.000000,4328.846191,4321.922852,4302.307617,4340.769043,4318.589844,4327.820313,4324.615234,4335.256348,4330.000000,4302.436035,4525.256348,4530.000000,4401.666504,4461.025879,0.000000,2.000000,44.000000,,,,0.000000,4.000000,4.000000,4.000000,4.000000,4.000000,4.000000,4.000000,4.000000,4.000000,4.000000,4.000000,4.000000,4.000000,4.000000,100.000000,,,,,,,,,,,,,,,,,,,,,,,,,,,,,,,,,,,,,,,,,,,,,,,,,,,,,,,,,,,,,,,,,,,,,,,,,,,,,,,,,,,,,,,,,,,,,,,,,,,,,,,,,,,,,,,,,,,,,
1768293055.358146,1768293055.359152,54.000000,0.000000,4331.794922,4325.128418,4299.230957,4341.794922,4313.717773,4326.153809,4322.436035,4314.871582,4317.179688,4293.461426,4514.487305,4520.256348,4395.384766,4458.717773,0.000000,2.000000,44.000000,,,,0.000000,4.000000,4.000000,4.000000,4.000000,4.000000,4.000000,4.000000,4.000000,4.000000,4.000000,4.000000,4.000000,4.000000,4.000000,100.000000,,,,,,,,,,,,,,,,,,,,,,,,,,,,,,,,,,,,,,,,,,,,,,,,,,,,,,,,,,,,,,,,,,,,,,,,,,,,,,,,,,,,,,,,,,,,,,,,,,,,,,,,,,,,,,,,,,,,,
1768293055.365954,1768293055.366961,55.000000,0.000000,4333.461426,4324.743652,4299.230957,4340.384766,4312.307617,4323.846191,4320.384766,4313.846191,4312.563965,4292.563965,4510.128418,4523.205078,4394.743652,4460.769043,0.000000,2.000000,44.000000,,,,0.000000,4.000000,4.000000,4.000000,4.000000,4.000000,4.000000,4.000000,4.000000,4.000000,4.000000,4.000000,4.000000,4.000000,4.000000,100.000000,,,,,,,,,,,,,,,,,,,,,,,,,,,,,,,,,,,,,,,,,,,,,,,,,,,,,,,,,,,,,,,,,,,,,,,,,,,,,,,,,,,,,,,,,,,,,,,,,,,,,,,,,,,,,,,,,,,,,
1768293055.373763,1768293055.374969,56.000000,0.000000,4330.897461,4324.102539,4301.282227,4337.563965,4313.461426,4323.846191,4320.256348,4333.205078,4323.333496,4297.563965,4521.282227,4528.077148,4401.025879,4466.794922,0.000000,2.000000,44.000000,,,,0.000000,4.000000,4.000000,4.000000,4.000000,4.000000,4.000000,4.000000,4.000000,4.000000,4.000000,4.000000,4.000000,4.000000,4.000000,100.000000,,,,,,,,,,,,,,,,,,,,,,,,,,,,,,,,,,,,,,,,,,,,,,,,,,,,,,,,,,,,,,,,,,,,,,,,,,,,,,,,,,,,,,,,,,,,,,,,,,,,,,,,,,,,,,,,,,,,,
1768293055.381571,1768293055.382777,57.000000,0.000000,4326.153809,4320.512695,4297.307617,4335.897461,4310.512695,4325.641113,4320.000000,4328.205078,4321.794922,4292.692383,4520.641113,4523.333496,4398.077148,4464.743652,0.000000,2.000000,44.000000,,,,0.000000,4.000000,4.000000,4.000000,4.000000,4.000000,4.000000,4.000000,4.000000,4.000000,4.000000,4.000000,4.000000,4.000000,4.000000,100.000000,,,,,,,,,,,,,,,,,,,,,,,,,,,,,,,,,,,,,,,,,,,,,,,,,,,,,,,,,,,,,,,,,,,,,,,,,,,,,,,,,,,,,,,,,,,,,,,,,,,,,,,,,,,,,,,,,,,,,
1768293055.389380,1768293055.390486,58.000000,0.000000,4325.641113,4318.846191,4295.384766,4333.205078,4307.436035,4323.205078,4314.615234,4309.743652,4312.948730,4293.461426,4510.384766,4516.153809,4390.641113,4455.641113,0.000000,2.000000,44.000000,,,,0.000000,4.000000,4.000000,4.000000,4.000000,4.000000,4.000000,4.000000,4.000000,4.000000,4.000000,4.000000,4.000000,4.000000,4.000000,100.000000,,,,,,,,,,,,,,,,,,,,,,,,,,,,,,,,,,,,,,,,,,,,,,,,,,,,,,,,,,,,,,,,,,,,,,,,,,,,,,,,,,,,,,,,,,,,,,,,,,,,,,,,,,,,,,,,,,,,,
1768293055.397188,1768293055.398294,59.000000,0.000000,4329.230957,4321.410156,4296.794922,4334.487305,4307.179688,4319.358887,4307.692383,4314.615234,4317.563965,4307.179688,4516.538574,4518.846191,4400.000000,4463.205078,0.000000,2.000000,44.000000,,,,0.000000,4.000000,4.000000,4.000000,4.000000,4.000000,4.000000,4.000000,4.000000,4.000000,4.000000,4.000000,4.000000,4.000000,4.000000,100.000000,,,,,,,,,,,,,,,,,,,,,,,,,,,,,,,,,,,,,,,,,,,,,,,,,,,,,,,,,,,,,,,,,,,,,,,,,,,,,,,,,,,,,,,,,,,,,,,,,,,,,,,,,,,,,,,,,,,,,
1768293055.404996,1768293055.406303,60.000000,0.000000,4336.282227,4327.692383,4300.384766,4340.897461,4307.563965,4322.948730,4316.794922,4327.692383,4325.769043,4312.051270,4527.692383,4531.666504,4410.384766,4478.077148,0.000000,2.000000,44.000000,,,,0.000000,4.000000,4.000000,4.000000,4.000000,4.000000,4.000000,4.000000,4.000000,4.000000,4.000000,4.000000,4.000000,4.000000,4.000000,100.000000,,,,,,,,,,,,,,,,,,,,,,,,,,,,,,,,,,,,,,,,,,,,,,,,,,,,,,,,,,,,,,,,,,,,,,,,,,,,,,,,,,,,,,,,,,,,,,,,,,,,,,,,,,,,,,,,,,,,,
1768293055.412805,1768293055.414111,61.000000,0.000000,4341.666504,4332.051270,4302.307617,4345.384766,4312.051270,4328.205078,4326.538574,4330.128418,4325.897461,4308.333496,4526.025879,4539.615234,4400.384766,4476.922852,0.000000,2.000000,44.000000,,,,0.000000,4.000000,4.000000,4.000000,4.000000,4.000000,4.000000,4.000000,4.000000,4.000000,4.000000,4.000000,4.000000,4.000000,4.000000,100.000000,,,,,,,,,,,,,,,,,,,,,,,,,,,,,,,,,,,,,,,,,,,,,,,,,,,,,,,,,,,,,,,,,,,,,,,,,,,,,,,,,,,,,,,,,,,,,,,,,,,,,,,,,,,,,,,,,,,,,
1768293055.420613,1768293055.422019,62.000000,0.000000,4338.974121,4328.205078,4303.461426,4347.179688,4315.897461,4325.128418,4318.974121,4326.666504,4320.256348,4307.820313,4524.358887,4534.102539,4397.436035,4472.820313,0.000000,2.000000,44.000000,,,,0.000000,4.000000,4.000000,4.000000,4.000000,4.000000,4.000000,4.000000,4.000000,4.000000,4.000000,4.000000,4.000000,4.000000,4.000000,100.000000,,,,,,,,,,,,,,,,,,,,,,,,,,,,,,,,,,,,,,,,,,,,,,,,,,,,,,,,,,,,,,,,,,,,,,,,,,,,,,,,,,,,,,,,,,,,,,,,,,,,,,,,,,,,,,,,,,,,,
1768293055.428422,1768293055.429828,63.000000,0.000000,4338.846191,4324.743652,4303.974121,4348.974121,4313.974121,4319.487305,4312.563965,4318.846191,4313.333496,4310.897461,4525.256348,4526.794922,4410.512695,4473.077148,0.000000,2.000000,44.000000,,,,0.000000,4.000000,4.000000,4.000000,4.000000,4.000000,4.000000,4.000000,4.000000,4.000000,4.000000,4.000000,4.000000,4.000000,4.000000,100.000000,,,,,,,,,,,,,,,,,,,,,,,,,,,,,,,,,,,,,,,,,,,,,,,,,,,,,,,,,,,,,,,,,,,,,,,,,,,,,,,,,,,,,,,,,,,,,,,,,,,,,,,,,,,,,,,,,,,,,
1768293055.436230,1768293055.437436,64.000000,0.000000,4343.846191,4328.333496,4300.769043,4347.692383,4313.205078,4318.077148,4316.410156,4310.256348,4314.102539,4312.563965,4523.333496,4523.974121,4412.948730,4473.846191,1663.000000,2.000000,44.000000,,,,0.000000,4.000000,4.000000,4.000000,4.000000,4.000000,4.000000,4.000000,4.000000,4.000000,4.000000,4.000000,4.000000,4.000000,4.000000,100.000000,,,,,,,,,,,,,,,,,,,,,,,,,,,,,,,,,,,,,,,,,,,,,,,,1.701230,0.951474,0.378997,0.205848,0.130577,2.411043,0.475639,0.373624,0.142759,0.089530,0.190175,0.156294,0.058278,0.076289,0.044854,0.756382,0.551307,0.237365,0.169786,0.079522,1.204163,0.250762,0.058935,0.110957,0.069032,0.325473,0.117605,0.047147,0.064055,0.082725,0.151323,0.225058,0.095540,0.110314,0.157735,0.829334,0.729101,0.228167,0.336514,0.312302,0.527814,0.370216,0.159659,0.139185,0.101891,1.093614,1.139346,0.298308,0.387433,0.238089,0.983618,0.680879,0.412510,0.327734,0.166923,1.260312,1.244733,0.493688,0.395171,0.191128,1.176666,0.717798,0.546270,0.358072,0.241223,1.225269,1.386621,0.608178,0.358817,0.200837
1768293055.444039,1768293055.445245,65.000000,0.000000,4345.769043,4333.717773,4301.153809,4346.922852,4315.769043,4322.692383,4320.000000,4311.410156,4320.769043,4312.692383,4526.153809,4524.871582,4407.820313,4477.436035,4026.000000,2.000000,44.000000,,,,0.000000,4.000000,4.000000,4.000000,4.000000,4.000000,4.000000,4.000000,4.000000,4.000000,4.000000,4.000000,4.000000,4.000000,4.000000,100.000000,,,,,,,,,,,,,,,,,,,,,,,,,,,,,,,,,,,,,,,,,,,,,,,,,,,,,,,,,,,,,,,,,,,,,,,,,,,,,,,,,,,,,,,,,,,,,,,,,,,,,,,,,,,,,,,,,,,,,
1768293055.451847,1768293055.452953,66.000000,0.000000,4345.128418,4331.666504,4299.487305,4347.820313,4315.256348,4324.743652,4319.230957,4318.205078,4321.153809,4310.512695,4528.717773,4532.307617,4411.282227,4480.384766,3999.000000,2.000000,44.000000,,,,0.000000,4.000000,4.000000,4.000000,4.000000,4.000000,4.000000,4.000000,4.000000,4.000000,4.000000,4.000000,4.000000,4.000000,4.000000,100.000000,,,,,,,,,,,,,,,,,,,,,,,,,,,,,,,,,,,,,,,,,,,,,,,,,,,,,,,,,,,,,,,,,,,,,,,,,,,,,,,,,,,,,,,,,,,,,,,,,,,,,,,,,,,,,,,,,,,,,
1768293055.459655,1768293055.460762,67.000000,0.000000,4343.205078,4325.897461,4299.230957,4342.692383,4313.077148,4320.897461,4318.077148,4325.512695,4324.230957,4311.153809,4525.256348,4536.282227,4411.666504,4476.410156,3927.000000,2.000000,44.000000,,,,0.000000,4.000000,4.000000,4.000000,4.000000,4.000000,4.000000,4.000000,4.000000,4.000000,4.000000,4.000000,4.000000,4.000000,4.000000,100.000000,,,,,,,,,,,,,,,,,,,,,,,,,,,,,,,,,,,,,,,,,,,,,,,,,,,,,,,,,,,,,,,,,,,,,,,,,,,,,,,,,,,,,,,,,,,,,,,,,,,,,,,,,,,,,,,,,,,,,
1768293055.467464,1768293055.468770,68.000000,0.000000,4338.461426,4322.051270,4304.102539,4338.461426,4315.256348,4321.538574,4320.897461,4327.563965,4330.000000,4308.333496,4522.692383,4526.922852,4405.641113,4473.461426,3750.000000,2.000000,44.000000,,,,0.000000,4.000000,4.000000,4.000000,4.000000,4.000000,4.000000,4.000000,4.000000,4.000000,4.000000,4.000000,4.000000,4.000000,4.000000,100.000000,,,,,,,,,,,,,,,,,,,,,,,,,,,,,,,,,,,,,,,,,,,,,,,,,,,,,,,,,,,,,,,,,,,,,,,,,,,,,,,,,,,,,,,,,,,,,,,,,,,,,,,,,,,,,,,,,,,,,
1768293055.475272,1768293055.476579,69.000000,0.000000,4337.179688,4316.153809,4300.000000,4341.666504,4315.128418,4324.615234,4320.641113,4318.205078,4322.820313,4300.769043,4520.897461,4520.384766,4402.307617,4474.487305,2510.000000,2.000000,44.000000,,,,0.000000,4.000000,4.000000,4.000000,4.000000,4.000000,4.000000,4.000000,4.000000,4.000000,4.000000,4.000000,4.000000,4.000000,4.000000,100.000000,,,,,,,,,,,,,,,,,,,,,,,,,,,,,,,,,,,,,,,,,,,,,,,,,,,,,,,,,,,,,,,,,,,,,,,,,,,,,,,,,,,,,,,,,,,,,,,,,,,,,,,,,,,,,,,,,,,,,
1768293055.483081,1768293055.484487,70.000000,0.000000,4333.846191,4309.871582,4295.512695,4337.820313,4309.871582,4322.820313,4313.461426,4311.025879,4312.820313,4296.282227,4512.948730,4523.333496,4397.692383,4468.974121,2535.000000,2.000000,44.000000,,,,0.000000,4.000000,4.000000,4.000000,4.000000,4.000000,4.000000,4.000000,4.000000,4.000000,4.000000,4.000000,4.000000,4.000000,4.000000,100.000000,,,,,,,,,,,,,,,,,,,,,,,,,,,,,,,,,,,,,,,,,,,,,,,,,,,,,,,,,,,,,,,,,,,,,,,,,,,,,,,,,,,,,,,,,,,,,,,,,,,,,,,,,,,,,,,,,,,,,
1768293055.490889,1768293055.492295,71.000000,0.000000,4324.487305,4306.153809,4297.563965,4327.692383,4308.333496,4322.307617,4312.436035,4321.410156,4318.846191,4299.102539,4510.384766,4523.461426,4395.256348,4463.717773,4078.000000,2.000000,44.000000,,,,0.000000,4.000000,4.000000,4.000000,4.000000,4.000000,4.000000,4.000000,4.000000,4.000000,4.000000,4.000000,4.000000,4.000000,4.000000,100.000000,,,,,,,,,,,,,,,,,,,,,,,,,,,,,,,,,,,,,,,,,,,,,,,,,,,,,,,,,,,,,,,,,,,,,,,,,,,,,,,,,,,,,,,,,,,,,,,,,,,,,,,,,,,,,,,,,,,,,
1768293055.498697,1768293055.499904,72.000000,0.000000,4330.256348,4309.230957,4298.846191,4333.461426,4312.179688,4327.179688,4324.615234,4336.538574,4330.769043,4312.051270,4524.358887,4530.128418,4404.743652,4470.897461,3223.000000,2.000000,44.000000,,,,0.000000,4.000000,4.000000,4.000000,4.000000,4.000000,4.000000,4.000000,4.000000,4.000000,4.000000,4.000000,4.000000,4.000000,4.000000,100.000000,,,,,,,,,,,,,,,,,,,,,,,,,,,,,,,,,,,,,,,,,,,,,,,,,,,,,,,,,,,,,,,,,,,,,,,,,,,,,,,,,,,,,,,,,,,,,,,,,,,,,,,,,,,,,,,,,,,,,
1768293055.506506,1768293055.507712,73.000000,0.000000,4348.589844,4318.974121,4302.436035,4348.974121,4315.769043,4326.666504,4330.128418,4341.794922,4336.794922,4325.897461,4540.641113,4551.538574,4424.487305,4492.563965,3852.000000,2.000000,44.000000,,,,0.000000,4.000000,4.000000,4.000000,4.000000,4.000000,4.000000,4.000000,4.000000,4.000000,4.000000,4.000000,4.000000,4.000000,4.000000,100.000000,,,,,,,,,,,,,,,,,,,,,,,,,,,,,,,,,,,,,,,,,,,,,,,,,,,,,,,,,,,,,,,,,,,,,,,,,,,,,,,,,,,,,,,,,,,,,,,,,,,,,,,,,,,,,,,,,,,,,
1768293055.514314,1768293055.515421,74.000000,0.000000,4350.384766,4321.153809,4303.717773,4348.461426,4313.846191,4321.153809,4321.025879,4344.102539,4338.717773,4330.000000,4542.179688,4562.563965,4432.051270,4504.615234,4342.000000,2.000000,44.000000,,,,0.000000,4.000000,4.000000,4.000000,4.000000,4.000000,4.000000,4.000000,4.000000,4.000000,4.000000,4.000000,4.000000,4.000000,4.000000,100.000000,,,,,,,,,,,,,,,,,,,,,,,,,,,,,,,,,,,,,,,,,,,,,,,,,,,,,,,,,,,,,,,,,,,,,,,,,,,,,,,,,,,,,,,,,,,,,,,,,,,,,,,,,,,,,,,,,,,,,
1768293055.522123,1768293055.523229,75.000000,0.000000,4334.871582,4310.512695,4299.615234,4334.871582,4311.025879,4319.615234,4318.461426,4339.871582,4332.179688,4315.384766,4532.179688,4544.871582,4418.717773,4490.384766,4761.000000,2.000000,44.000000,,,,0.000000,4.000000,4.000000,4.000000,4.000000,4.000000,4.000000,4.000000,4.000000,4.000000,4.000000,4.000000,4.000000,4.000000,4.000000,100.000000,,,,,,,,,,,,,,,,,,,,,,,,,,,,,,,,,,,,,,,,,,,,,,,,,,,,,,,,,,,,,,,,,,,,,,,,,,,,,,,,,,,,,,,,,,,,,,,,,,,,,,,,,,,,,,,,,,,,,
1768293055.529931,1768293055.530838,76.000000,0.000000,4325.256348,4305.000000,4296.666504,4328.461426,4312.307617,4321.025879,4320.769043,4325.256348,4320.769043,4296.794922,4524.487305,4522.948730,4404.871582,4473.461426,4335.000000,2.000000,44.000000,,,,0.000000,4.000000,4.000000,4.000000,4.000000,4.000000,4.000000,4.000000,4.000000,4.000000,4.000000,4.000000,4.000000,4.000000,4.000000,100.000000,,,,,,,,,,,,,,,,,,,,,,,,,,,,,,,,,,,,,,,,,,,,,,,,,,,,,,,,,,,,,,,,,,,,,,,,,,,,,,,,,,,,,,,,,,,,,,,,,,,,,,,,,,,,,,,,,,,,,
1768293055.537740,1768293055.538647,77.000000,0.000000,4327.179688,4308.589844,4296.666504,4327.307617,4309.871582,4321.153809,4319.743652,4316.282227,4314.871582,4301.922852,4515.512695,4518.589844,4398.077148,4468.589844,5696.000000,2.000000,44.000000,,,,0.000000,4.000000,4.000000,4.000000,4.000000,4.000000,4.000000,4.000000,4.000000,4.000000,4.000000,4.000000,4.000000,4.000000,4.000000,100.000000,,,,,,,,,,,,,,,,,,,,,,,,,,,,,,,,,,,,,,,,,,,,,,,,,,,,,,,,,,,,,,,,,,,,,,,,,,,,,,,,,,,,,,,,,,,,,,,,,,,,,,,,,,,,,,,,,,,,,
1768293055.545548,1768293055.546355,78.000000,0.000000,4329.871582,4307.563965,4298.846191,4325.384766,4306.794922,4319.487305,4322.179688,4319.487305,4316.794922,4316.538574,4511.282227,4524.230957,4397.307617,4470.641113,4342.000000,2.000000,44.000000,,,,0.000000,4.000000,4.000000,4.000000,4.000000,4.000000,4.000000,4.000000,4.000000,4.000000,4.000000,4.000000,4.000000,4.000000,4.000000,100.000000,,,,,,,,,,,,,,,,,,,,,,,,,,,,,,,,,,,,,,,,,,,,,,,,,,,,,,,,,,,,,,,,,,,,,,,,,,,,,,,,,,,,,,,,,,,,,,,,,,,,,,,,,,,,,,,,,,,,,
1768293055.553356,1768293055.554164,79.000000,0.000000,4331.922852,4305.512695,4300.512695,4326.922852,4309.487305,4320.000000,4322.692383,4321.025879,4319.358887,4315.000000,4515.000000,4523.974121,4398.846191,4473.205078,4761.000000,2.000000,44.000000,,,,0.000000,4.000000,4.000000,4.000000,4.000000,4.000000,4.000000,4.000000,4.000000,4.000000,4.000000,4.000000,4.000000,4.000000,4.000000,100.000000,,,,,,,,,,,,,,,,,,,,,,,,,,,,,,,,,,,,,,,,,,,,,,,,,,,,,,,,,,,,,,,,,,,,,,,,,,,,,,,,,,,,,,,,,,,,,,,,,,,,,,,,,,,,,,,,,,,,,
1768293055.561165,1768293055.561772,80.000000,0.000000,4333.205078,4304.871582,4301.538574,4329.358887,4310.384766,4322.948730,4320.769043,4317.436035,4318.974121,4306.410156,4514.102539,4521.025879,4394.743652,4475.256348,4335.000000,2.000000,44.000000,,,,0.000000,4.000000,4.000000,4.000000,4.000000,4.000000,4.000000,4.000000,4.000000,4.000000,4.000000,4.000000,4.000000,4.000000,4.000000,100.000000,1.000000,50.000000,4.000000,4.000000,1.000000,4.000000,4.000000,1.000000,4.000000,4.000000,4.000000,4.000000,4.000000,4.000000,4.000000,4.000000,,,,,,,,,,,,,,,,,,,,,,,,,,,,,,,,1.426372,0.992650,0.349609,0.186322,0.131269,2.595176,0.476951,0.353542,0.156107,0.102101,0.206408,0.162413,0.059157,0.066129,0.040105,0.756967,0.577414,0.243382,0.174077,0.077774,1.149189,0.272902,0.062027,0.102625,0.072274,0.351077,0.109455,0.058851,0.058077,0.080075,0.173457,0.176789,0.100393,0.109254,0.155504,0.837254,0.657159,0.215877,0.330733,0.303511,0.628024,0.347174,0.147917,0.143021,0.112816,1.095804,0.918057,0.276457,0.359279,0.248026,1.012540,0.676869,0.385581,0.287509,0.169820,1.240545,1.227923,0.474350,0.362717,0.221219,1.116838,0.628501,0.502859,0.322923,0.215624,1.186219,1.396727,0.595136,0.312893,0.203833
1768293055.568973,1768293055.569581,81.000000,0.000000,4332.692383,4301.025879,4302.820313,4331.153809,4307.948730,4322.436035,4322.051270,4321.666504,4320.512695,4308.077148,4513.333496,4528.461426,4392.307617,4475.128418,5696.000000,2.000000,44.000000,,,,0.000000,4.000000,4.000000,4.000000,4.000000,4.000000,4.000000,4.000000,4.000000,4.000000,4.000000,4.000000,4.000000,4.000000,4.000000,100.000000,,,,,,,,,,,,,,,,,,,,,,,,,,,,,,,,,,,,,,,,,,,,,,,,,,,,,,,,,,,,,,,,,,,,,,,,,,,,,,,,,,,,,,,,,,,,,,,,,,,,,,,,,,,,,,,,,,,,,
1768293055.576782,1768293055.577289,82.000000,0.000000,4335.256348,4301.025879,4303.333496,4334.102539,4312.307617,4319.871582,4325.769043,4327.948730,4323.717773,4310.384766,4519.871582,4537.179688,4404.102539,4476.153809,4342.000000,2.000000,44.000000,,,,0.000000,4.000000,4.000000,4.000000,4.000000,4.000000,4.000000,4.000000,4.000000,4.000000,4.000000,4.000000,4.000000,4.000000,4.000000,100.000000,,,,,,,,,,,,,,,,,,,,,,,,,,,,,,,,,,,,,,,,,,,,,,,,,,,,,,,,,,,,,,,,,,,,,,,,,,,,,,,,,,,,,,,,,,,,,,,,,,,,,,,,,,,,,,,,,,,,,
1768293055.584590,1768293055.585098,83.000000,0.000000,4338.077148,4304.871582,4304.487305,4336.538574,4317.051270,4323.205078,4328.589844,4326.282227,4323.717773,4309.102539,4524.230957,4536.666504,4412.436035,4479.743652,4761.000000,2.000000,44.000000,,,,0.000000,4.000000,4.000000,4.000000,4.000000,4.000000,4.000000,4.000000,4.000000,4.000000,4.000000,4.000000,4.000000,4.000000,4.000000,100.000000,,,,,,,,,,,,,,,,,,,,,,,,,,,,,,,,,,,,,,,,,,,,,,,,,,,,,,,,,,,,,,,,,,,,,,,,,,,,,,,,,,,,,,,,,,,,,,,,,,,,,,,,,,,,,,,,,,,,,
1768293055.592399,1768293055.593106,84.000000,0.000000,4332.179688,4300.384766,4303.205078,4334.743652,4311.666504,4323.589844,4322.948730,4322.820313,4321.410156,4308.974121,4520.384766,4535.512695,4403.077148,4477.179688,4335.000000,2.000000,44.000000,,,,0.000000,4.000000,4.000000,4.000000,4.000000,4.000000,4.000000,4.000000,4.000000,4.000000,4.000000,4.000000,4.000000,4.000000,4.000000,100.000000,,,,,,,,,,,,,,,,,,,,,,,,,,,,,,,,,,,,,,,,,,,,,,,,,,,,,,,,,,,,,,,,,,,,,,,,,,,,,,,,,,,,,,,,,,,,,,,,,,,,,,,,,,,,,,,,,,,,,
1768293055.600207,1768293055.600914,85.000000,0.000000,4329.230957,4295.769043,4302.692383,4334.487305,4310.641113,4321.410156,4318.205078,4324.743652,4323.974121,4306.282227,4517.692383,4539.230957,4398.077148,4473.846191,5696.000000,2.000000,44.000000,,,,0.000000,4.000000,4.000000,4.000000,4.000000,4.000000,4.000000,4.000000,4.000000,4.000000,4.000000,4.000000,4.000000,4.000000,4.000000,100.000000,,,,,,,,,,,,,,,,,,,,,,,,,,,,,,,,,,,,,,,,,,,,,,,,,,,,,,,,,,,,,,,,,,,,,,,,,,,,,,,,,,,,,,,,,,,,,,,,,,,,,,,,,,,,,,,,,,,,,
1768293055.608015,1768293055.608823,86.000000,0.000000,4337.307617,4302.436035,4305.384766,4340.256348,4316.794922,4329.230957,4324.743652,4326.153809,4328.205078,4309.487305,4520.384766,4540.769043,4399.230957,4477.692383,4342.000000,2.000000,44.000000,,,,0.000000,4.000000,4.000000,4.000000,4.000000,4.000000,4.000000,4.000000,4.000000,4.000000,4.000000,4.000000,4.000000,4.000000,4.000000,100.000000,,,,,,,,,,,,,,,,,,,,,,,,,,,,,,,,,,,,,,,,,,,,,,,,,,,,,,,,,,,,,,,,,,,,,,,,,,,,,,,,,,,,,,,,,,,,,,,,,,,,,,,,,,,,,,,,,,,,,
1768293055.615824,1768293055.616631,87.000000,0.000000,4337.563965,4308.333496,4306.282227,4343.205078,4319.615234,4334.102539,4326.410156,4327.692383,4324.871582,4311.922852,4517.436035,4538.846191,4390.384766,4477.692383,4761.000000,2.000000,44.000000,,,,0.000000,4.000000,4.000000,4.000000,4.000000,4.000000,4.000000,4.000000,4.000000,4.000000,4.000000,4.000000,4.000000,4.000000,4.000000,100.000000,,,,,,,,,,,,,,,,,,,,,,,,,,,,,,,,,,,,,,,,,,,,,,,,,,,,,,,,,,,,,,,,,,,,,,,,,,,,,,,,,,,,,,,,,,,,,,,,,,,,,,,,,,,,,,,,,,,,,
1768293055.623632,1768293055.624639,88.000000,0.000000,4327.051270,4308.717773,4304.230957,4340.512695,4316.794922,4327.179688,4319.615234,4322.948730,4316.538574,4298.974121,4511.282227,4534.102539,4387.436035,4467.307617,4335.000000,2.000000,44.000000,,,,0.000000,4.000000,4.000000,4.000000,4.000000,4.000000,4.000000,4.000000,4.000000,4.000000,4.000000,4.000000,4.000000,4.000000,4.000000,100.000000,,,,,,,,,,,,,,,,,,,,,,,,,,,,,,,,,,,,,,,,,,,,,,,,,,,,,,,,,,,,,,,,,,,,,,,,,,,,,,,,,,,,,,,,,,,,,,,,,,,,,,,,,,,,,,,,,,,,,
1768293055.631441,1768293055.632448,89.000000,0.000000,4328.333496,4315.384766,4302.307617,4340.128418,4316.153809,4321.794922,4319.871582,4315.128418,4314.102539,4290.512695,4512.436035,4531.538574,4397.820313,4466.922852,5696.000000,2.000000,44.000000,,,,0.000000,4.000000,4.000000,4.000000,4.000000,4.000000,4.000000,4.000000,4.000000,4.000000,4.000000,4.000000,4.000000,4.000000,4.000000,100.000000,,,,,,,,,,,,,,,,,,,,,,,,,,,,,,,,,,,,,,,,,,,,,,,,,,,,,,,,,,,,,,,,,,,,,,,,,,,,,,,,,,,,,,,,,,,,,,,,,,,,,,,,,,,,,,,,,,,,,
1768293055.639249,1768293055.640156,90.000000,0.000000,4335.256348,4324.358887,4305.769043,4342.692383,4317.563965,4324.743652,4323.974121,4321.282227,4321.025879,4300.641113,4515.641113,4535.256348,4398.589844,4471.538574,4342.000000,2.000000,44.000000,,,,0.000000,4.000000,4.000000,4.000000,4.000000,4.000000,4.000000,4.000000,4.000000,4.000000,4.000000,4.000000,4.000000,4.000000,4.000000,100.000000,,,,,,,,,,,,,,,,,,,,,,,,,,,,,,,,,,,,,,,,,,,,,,,,,,,,,,,,,,,,,,,,,,,,,,,,,,,,,,,,,,,,,,,,,,,,,,,,,,,,,,,,,,,,,,,,,,,,,
1768293055.647057,1768293055.647965,91.000000,0.000000,4332.820313,4326.666504,4309.487305,4344.102539,4314.743652,4327.179688,4325.256348,4324.230957,4321.410156,4305.512695,4514.102539,4534.871582,4392.179688,4465.256348,4761.000000,2.000000,44.000000,,,,0.000000,4.000000,4.000000,4.000000,4.000000,4.000000,4.000000,4.000000,4.000000,4.000000,4.000000,4.000000,4.000000,4.000000,4.000000,100.000000,,,,,,,,,,,,,,,,,,,,,,,,,,,,,,,,,,,,,,,,,,,,,,,,,,,,,,,,,,,,,,,,,,,,,,,,,,,,,,,,,,,,,,,,,,,,,,,,,,,,,,,,,,,,,,,,,,,,,
1768293055.654866,1768293055.655573,92.000000,0.000000,4327.820313,4330.000000,4304.871582,4345.256348,4311.794922,4325.128418,4325.384766,4315.641113,4316.538574,4295.769043,4516.282227,4530.256348,4393.846191,4463.461426,4335.000000,2.000000,44.000000,,,,0.000000,4.000000,4.000000,4.000000,4.000000,4.000000,4.000000,4.000000,4.000000,4.000000,4.000000,4.000000,4.000000,4.000000,4.000000,100.000000,,,,,,,,,,,,,,,,,,,,,,,,,,,,,,,,,,,,,,,,,,,,,,,,,,,,,,,,,,,,,,,,,,,,,,,,,,,,,,,,,,,,,,,,,,,,,,,,,,,,,,,,,,,,,,,,,,,,,
1768293055.662674,1768293055.663382,93.000000,0.000000,4325.000000,4331.025879,4303.077148,4343.717773,4310.512695,4325.000000,4326.153809,4315.641113,4320.128418,4291.666504,4517.692383,4526.922852,4395.128418,4465.128418,5696.000000,2.000000,44.000000,,,,0.000000,4.000000,4.000000,4.000000,4.000000,4.000000,4.000000,4.000000,4.000000,4.000000,4.000000,4.000000,4.000000,4.000000,4.000000,100.000000,,,,,,,,,,,,,,,,,,,,,,,,,,,,,,,,,,,,,,,,,,,,,,,,,,,,,,,,,,,,,,,,,,,,,,,,,,,,,,,,,,,,,,,,,,,,,,,,,,,,,,,,,,,,,,,,,,,,,
1768293055.670483,1768293055.671290,94.000000,0.000000,4323.846191,4328.589844,4302.051270,4342.179688,4308.974121,4328.461426,4324.743652,4322.179688,4323.333496,4294.743652,4514.102539,4523.333496,4393.846191,4460.641113,4342.000000,2.000000,44.000000,,,,0.000000,4.000000,4.000000,4.000000,4.000000,4.000000,4.000000,4.000000,4.000000,4.000000,4.000000,4.000000,4.000000,4.000000,4.000000,100.000000,,,,,,,,,,,,,,,,,,,,,,,,,,,,,,,,,,,,,,,,,,,,,,,,,,,,,,,,,,,,,,,,,,,,,,,,,,,,,,,,,,,,,,,,,,,,,,,,,,,,,,,,,,,,,,,,,,,,,
1768293055.678291,1768293055.679099,95.000000,0.000000,4326.538574,4335.384766,4297.436035,4347.563965,4307.692383,4330.256348,4322.692383,4322.820313,4323.589844,4294.230957,4519.871582,4525.769043,4397.948730,4459.743652,4761.000000,2.000000,44.000000,,,,0.000000,4.000000,4.000000,4.000000,4.000000,4.000000,4.000000,4.000000,4.000000,4.000000,4.000000,4.000000,4.000000,4.000000,4.000000,100.000000,,,,,,,,,,,,,,,,,,,,,,,,,,,,,,,,,,,,,,,,,,,,,,,,,,,,,,,,,,,,,,,,,,,,,,,,,,,,,,,,,,,,,,,,,,,,,,,,,,,,,,,,,,,,,,,,,,,,,
1768293055.686100,1768293055.687107,96.000000,0.000000,4328.846191,4341.666504,4298.717773,4350.897461,4308.846191,4329.615234,4326.794922,4324.487305,4326.794922,4292.948730,4525.512695,4533.846191,4399.743652,4463.589844,4335.000000,2.000000,44.000000,,,,0.000000,4.000000,4.000000,4.000000,4.000000,4.000000,4.000000,4.000000,4.000000,4.000000,4.000000,4.000000,4.000000,4.000000,4.000000,100.000000,,,,,,,,,,,,,,,,,,,,,,,,,,,,,,,,,,,,,,,,,,,,,,,,1.150907,0.970830,0.350442,0.205028,0.135982,2.676851,0.478401,0.331064,0.181780,0.115797,0.204940,0.164650,0.060581,0.061553,0.037600,0.708996,0.568421,0.241944,0.180121,0.078735,1.115437,0.274964,0.061571,0.098274,0.073632,0.342784,0.101639,0.070651,0.050458,0.076478,0.183816,0.151494,0.105370,0.109711,0.156641,0.796189,0.604274,0.229944,0.319446,0.300359,0.726807,0.329229,0.138171,0.155608,0.125939,1.114392,0.812483,0.283103,0.357452,0.259100,0.950940,0.655811,0.355709,0.259985,0.172410,1.152923,1.178379,0.461642,0.352394,0.247222,0.947117,0.544228,0.442306,0.287140,0.187511,1.155958,1.297642,0.558322,0.286473,0.207671
1768293055.693908,1768293055.694915,97.000000,0.000000,4328.974121,4339.230957,4299.487305,4347.692383,4312.179688,4329.230957,4327.563965,4327.563965,4329.102539,4290.769043,4520.769043,4533.077148,4398.077148,4466.410156,5696.000000,2.000000,44.000000,,,,0.000000,4.000000,4.000000,4.000000,4.000000,4.000000,4.000000,4.000000,4.000000,4.000000,4.000000,4.000000,4.000000,4.000000,4.000000,100.000000,,,,,,,,,,,,,,,,,,,,,,,,,,,,,,,,,,,,,,,,,,,,,,,,,,,,,,,,,,,,,,,,,,,,,,,,,,,,,,,,,,,,,,,,,,,,,,,,,,,,,,,,,,,,,,,,,,,,,
1768293055.701716,1768293055.702624,98.000000,0.000000,4330.897461,4337.179688,4297.563965,4347.436035,4311.666504,4330.128418,4324.615234,4324.743652,4328.077148,4291.153809,4521.794922,4527.692383,4400.769043,4469.230957,4342.000000,2.000000,44.000000,,,,0.000000,4.000000,4.000000,4.000000,4.000000,4.000000,4.000000,4.000000,4.000000,4.000000,4.000000,4.000000,4.000000,4.000000,4.000000,100.000000,,,,,,,,,,,,,,,,,,,,,,,,,,,,,,,,,,,,,,,,,,,,,,,,,,,,,,,,,,,,,,,,,,,,,,,,,,,,,,,,,,,,,,,,,,,,,,,,,,,,,,,,,,,,,,,,,,,,,
1768293055.709525,1768293055.710432,99.000000,0.000000,4334.358887,4336.153809,4298.461426,4347.820313,4305.641113,4328.589844,4322.948730,4325.000000,4325.641113,4292.820313,4525.000000,4534.487305,4405.897461,4472.692383,4761.000000,2.000000,44.000000,,,,0.000000,4.000000,4.000000,4.000000,4.000000,4.000000,4.000000,4.000000,4.000000,4.000000,4.000000,4.000000,4.000000,4.000000,4.000000,100.000000,,,,,,,,,,,,,,,,,,,,,,,,,,,,,,,,,,,,,,,,,,,,,,,,,,,,,,,,,,,,,,,,,,,,,,,,,,,,,,,,,,,,,,,,,,,,,,,,,,,,,,,,,,,,,,,,,,,,,
1768293055.717333,1768293055.718041,100.000000,0.000000,4336.538574,4335.128418,4299.102539,4345.128418,4302.820313,4325.512695,4323.589844,4328.974121,4326.410156,4290.769043,4524.615234,4539.230957,4411.666504,4472.948730,4335.000000,2.000000,44.000000,,,,0.000000,4.000000,4.000000,4.000000,4.000000,4.000000,4.000000,4.000000,4.000000,4.000000,4.000000,4.000000,4.000000,4.000000,4.000000,100.000000,,,,,,,,,,,,,,,,,,,,,,,,,,,,,,,,,,,,,,,,,,,,,,,,,,,,,,,,,,,,,,,,,,,,,,,,,,,,,,,,,,,,,,,,,,,,,,,,,,,,,,,,,,,,,,,,,,,,,
1768293055.725142,1768293055.725849,101.000000,0.000000,4338.205078,4337.563965,4299.487305,4345.256348,4304.743652,4325.512695,4325.641113,4324.102539,4327.820313,4292.563965,4524.102539,4528.077148,4410.128418,4467.179688,5696.000000,2.000000,44.000000,,,,0.000000,4.000000,4.000000,4.000000,4.000000,4.000000,4.000000,4.000000,4.000000,4.000000,4.000000,4.000000,4.000000,4.000000,4.000000,100.000000,,,,,,,,,,,,,,,,,,,,,,,,,,,,,,,,,,,,,,,,,,,,,,,,,,,,,,,,,,,,,,,,,,,,,,,,,,,,,,,,,,,,,,,,,,,,,,,,,,,,,,,,,,,,,,,,,,,,,
1768293055.732950,1768293055.733758,102.000000,0.000000,4337.820313,4340.769043,4298.333496,4348.974121,4301.794922,4325.641113,4320.769043,4314.615234,4326.282227,4296.153809,4521.922852,4522.436035,4404.871582,4463.461426,4342.000000,2.000000,44.000000,,,,0.000000,4.000000,4.000000,4.000000,4.000000,4.000000,4.000000,4.000000,4.000000,4.000000,4.000000,4.000000,4.000000,4.000000,4.000000,100.000000,,,,,,,,,,,,,,,,,,,,,,,,,,,,,,,,,,,,,,,,,,,,,,,,,,,,,,,,,,,,,,,,,,,,,,,,,,,,,,,,,,,,,,,,,,,,,,,,,,,,,,,,,,,,,,,,,,,,,
1768293055.740759,1768293055.741566,103.000000,0.000000,4335.641113,4337.692383,4299.230957,4349.743652,4298.974121,4325.641113,4318.205078,4318.333496,4323.717773,4290.256348,4523.333496,4532.051270,4408.974121,4472.948730,4761.000000,2.000000,44.000000,,,,0.000000,4.000000,4.000000,4.000000,4.000000,4.000000,4.000000,4.000000,4.000000,4.000000,4.000000,4.000000,4.000000,4.000000,4.000000,100.000000,,,,,,,,,,,,,,,,,,,,,,,,,,,,,,,,,,,,,,,,,,,,,,,,,,,,,,,,,,,,,,,,,,,,,,,,,,,,,,,,,,,,,,,,,,,,,,,,,,,,,,,,,,,,,,,,,,,,,
1768293055.748567,1768293055.749175,104.000000,0.000000,4333.461426,4333.077148,4299.743652,4345.641113,4303.846191,4324.743652,4320.641113,4327.692383,4323.205078,4288.333496,4525.256348,4533.974121,4409.487305,4482.051270,4335.000000,2.000000,44.000000,,,,0.000000,4.000000,4.000000,4.000000,4.000000,4.000000,4.000000,4.000000,4.000000,4.000000,4.000000,4.000000,4.000000,4.000000,4.000000,100.000000,,,,,,,,,,,,,,,,,,,,,,,,,,,,,,,,,,,,,,,,,,,,,,,,,,,,,,,,,,,,,,,,,,,,,,,,,,,,,,,,,,,,,,,,,,,,,,,,,,,,,,,,,,,,,,,,,,,,,
1768293055.756375,1768293055.756983,105.000000,0.000000,4333.205078,4332.436035,4295.000000,4343.461426,4307.563965,4321.794922,4318.589844,4325.000000,4322.563965,4303.077148,4522.948730,4521.794922,4403.077148,4473.333496,5696.000000,2.000000,44.000000,,,,0.000000,4.000000,4.000000,4.000000,4.000000,4.000000,4.000000,4.000000,4.000000,4.000000,4.000000,4.000000,4.000000,4.000000,4.000000,100.000000,,,,,,,,,,,,,,,,,,,,,,,,,,,,,,,,,,,,,,,,,,,,,,,,,,,,,,,,,,,,,,,,,,,,,,,,,,,,,,,,,,,,,,,,,,,,,,,,,,,,,,,,,,,,,,,,,,,,,
1768293055.764184,1768293055.764692,106.000000,0.000000,4334.615234,4333.077148,4295.769043,4346.282227,4307.051270,4323.589844,4319.358887,4322.307617,4323.974121,4311.025879,4522.563965,4521.410156,4407.436035,4466.153809,4342.000000,2.000000,44.000000,,,,0.000000,4.000000,4.000000,4.000000,4.000000,4.000000,4.000000,4.000000,4.000000,4.000000,4.000000,4.000000,4.000000,4.000000,4.000000,100.000000,,,,,,,,,,,,,,,,,,,,,,,,,,,,,,,,,,,,,,,,,,,,,,,,,,,,,,,,,,,,,,,,,,,,,,,,,,,,,,,,,,,,,,,,,,,,,,,,,,,,,,,,,,,,,,,,,,,,,
1768293055.771992,1768293055.772500,107.000000,0.000000,4331.922852,4330.000000,4297.820313,4347.307617,4307.563965,4325.897461,4323.205078,4329.358887,4327.692383,4307.563965,4525.512695,4532.692383,4415.897461,4470.641113,4761.000000,2.000000,44.000000,,,,0.000000,4.000000,4.000000,4.000000,4.000000,4.000000,4.000000,4.000000,4.000000,4.000000,4.000000,4.000000,4.000000,4.000000,4.000000,100.000000,,,,,,,,,,,,,,,,,,,,,,,,,,,,,,,,,,,,,,,,,,,,,,,,,,,,,,,,,,,,,,,,,,,,,,,,,,,,,,,,,,,,,,,,,,,,,,,,,,,,,,,,,,,,,,,,,,,,,
1768293055.779801,1768293055.780109,108.000000,0.000000,4326.282227,4324.358887,4297.436035,4341.794922,4308.846191,4327.692383,4326.153809,4331.153809,4321.410156,4307.692383,4524.871582,4530.641113,4413.077148,4473.461426,4335.000000,2.000000,44.000000,,,,0.000000,4.000000,4.000000,4.000000,4.000000,4.000000,4.000000,4.000000,4.000000,4.000000,4.000000,4.000000,4.000000,4.000000,4.000000,100.000000,,,,,,,,,,,,,,,,,,,,,,,,,,,,,,,,,,,,,,,,,,,,,,,,,,,,,,,,,,,,,,,,,,,,,,,,,,,,,,,,,,,,,,,,,,,,,,,,,,,,,,,,,,,,,,,,,,,,,
1768293055.787609,1768293055.787917,109.000000,0.000000,4331.410156,4325.897461,4297.692383,4341.794922,4310.384766,4331.794922,4329.230957,4324.871582,4315.000000,4301.794922,4520.641113,4521.282227,4410.897461,4474.102539,5696.000000,2.000000,44.000000,,,,0.000000,4.000000,4.000000,4.000000,4.000000,4.000000,4.000000,4.000000,4.000000,4.000000,4.000000,4.000000,4.000000,4.000000,4.000000,100.000000,,,,,,,,,,,,,,,,,,,,,,,,,,,,,,,,,,,,,,,,,,,,,,,,,,,,,,,,,,,,,,,,,,,,,,,,,,,,,,,,,,,,,,,,,,,,,,,,,,,,,,,,,,,,,,,,,,,,,
1768293055.795417,1768293055.795626,110.000000,0.000000,4341.282227,4328.461426,4294.487305,4344.871582,4310.128418,4328.589844,4324.487305,4319.358887,4317.692383,4298.333496,4519.230957,4523.846191,4412.948730,4472.692383,4342.000000,2.000000,44.000000,,,,0.000000,4.000000,4.000000,4.000000,4.000000,4.000000,4.000000,4.000000,4.000000,4.000000,4.000000,4.000000,4.000000,4.000000,4.000000,100.000000,,,,,,,,,,,,,,,,,,,,,,,,,,,,,,,,,,,,,,,,,,,,,,,,,,,,,,,,,,,,,,,,,,,,,,,,,,,,,,,,,,,,,,,,,,,,,,,,,,,,,,,,,,,,,,,,,,,,,
1768293055.803226,1768293055.803434,111.000000,0.000000,4342.563965,4326.282227,4295.384766,4342.436035,4307.307617,4321.282227,4317.820313,4317.692383,4316.410156,4304.487305,4524.102539,4535.128418,4413.717773,4477.179688,4761.000000,2.000000,44.000000,,,,0.000000,4.000000,4.000000,4.000000,4.000000,4.000000,4.000000,4.000000,4.000000,4.000000,4.000000,4.000000,4.000000,4.000000,4.000000,100.000000,,,,,,,,,,,,,,,,,,,,,,,,,,,,,,,,,,,,,,,,,,,,,,,,,,,,,,,,,,,,,,,,,,,,,,,,,,,,,,,,,,,,,,,,,,,,,,,,,,,,,,,,,,,,,,,,,,,,,
1768293055.811034,1768293055.811443,112.000000,0.000000,4342.820313,4326.282227,4298.589844,4343.589844,4310.512695,4322.436035,4319.102539,4317.051270,4312.948730,4303.461426,4527.179688,4541.282227,4415.512695,4486.538574,4335.000000,2.000000,44.000000,,,,0.000000,4.000000,4.000000,4.000000,4.000000,4.000000,4.000000,4.000000,4.000000,4.000000,4.000000,4.000000,4.000000,4.000000,4.000000,100.000000,,,,,,,,,,,,,,,,,,,,,,,,,,,,,,,,,,,,,,,,,,,,,,,,0.972925,0.903780,0.373103,0.258960,0.143775,2.646342,0.475499,0.308455,0.209616,0.127172,0.186614,0.163281,0.065319,0.062006,0.037358,0.641352,0.537873,0.234419,0.184305,0.082330,1.107789,0.260717,0.058017,0.096190,0.072572,0.304826,0.098348,0.080873,0.043761,0.073909,0.179421,0.156759,0.107307,0.117093,0.161078,0.724576,0.587390,0.248706,0.312791,0.307179,0.802937,0.326785,0.130219,0.178421,0.138874,1.125737,0.813546,0.295936,0.370936,0.267721,0.813120,0.636961,0.325793,0.247777,0.175254,1.034935,1.157745,0.454786,0.376045,0.262132,0.727189,0.487617,0.383468,0.254807,0.166819,1.157778,1.140022,0.508966,0.291528,0.213982
1768293055.818843,1768293055.819251,113.000000,0.000000,4343.461426,4325.769043,4298.077148,4344.615234,4313.717773,4326.025879,4322.820313,4314.743652,4312.692383,4298.205078,4521.666504,4539.102539,4412.179688,4484.743652,5696.000000,2.000000,44.000000,,,,0.000000,4.000000,4.000000,4.000000,4.000000,4.000000,4.000000,4.000000,4.000000,4.000000,4.000000,4.000000,4.000000,4.000000,4.000000,100.000000,,,,,,,,,,,,,,,,,,,,,,,,,,,,,,,,,,,,,,,,,,,,,,,,,,,,,,,,,,,,,,,,,,,,,,,,,,,,,,,,,,,,,,,,,,,,,,,,,,,,,,,,,,,,,,,,,,,,,
1768293055.826651,1768293055.827159,114.000000,0.000000,4342.563965,4321.538574,4298.717773,4341.153809,4309.871582,4324.358887,4318.589844,4317.820313,4315.000000,4298.589844,4524.871582,4539.102539,4410.641113,4482.436035,4342.000000,2.000000,44.000000,,,,0.000000,4.000000,4.000000,4.000000,4.000000,4.000000,4.000000,4.000000,4.000000,4.000000,4.000000,4.000000,4.000000,4.000000,4.000000,100.000000,,,,,,,,,,,,,,,,,,,,,,,,,,,,,,,,,,,,,,,,,,,,,,,,,,,,,,,,,,,,,,,,,,,,,,,,,,,,,,,,,,,,,,,,,,,,,,,,,,,,,,,,,,,,,,,,,,,,,
1768293055.834460,1768293055.834968,115.000000,0.000000,4345.641113,4322.436035,4301.666504,4343.461426,4311.666504,4323.974121,4316.025879,4325.000000,4318.205078,4301.794922,4536.153809,4543.846191,4417.948730,4490.256348,4761.000000,2.000000,44.000000,,,,0.000000,4.000000,4.000000,4.000000,4.000000,4.000000,4.000000,4.000000,4.000000,4.000000,4.000000,4.000000,4.000000,4.000000,4.000000,100.000000,,,,,,,,,,,,,,,,,,,,,,,,,,,,,,,,,,,,,,,,,,,,,,,,,,,,,,,,,,,,,,,,,,,,,,,,,,,,,,,,,,,,,,,,,,,,,,,,,,,,,,,,,,,,,,,,,,,,,
1768293055.842268,1768293055.842577,116.000000,0.000000,4348.846191,4325.641113,4305.256348,4347.436035,4319.743652,4329.230957,4330.000000,4327.692383,4322.436035,4307.051270,4531.922852,4543.461426,4415.512695,4487.307617,4335.000000,2.000000,44.000000,,,,0.000000,4.000000,4.000000,4.000000,4.000000,4.000000,4.000000,4.000000,4.000000,4.000000,4.000000,4.000000,4.000000,4.000000,4.000000,100.000000,,,,,,,,,,,,,,,,,,,,,,,,,,,,,,,,,,,,,,,,,,,,,,,,,,,,,,,,,,,,,,,,,,,,,,,,,,,,,,,,,,,,,,,,,,,,,,,,,,,,,,,,,,,,,,,,,,,,,
1768293055.850076,1768293055.850385,117.000000,0.000000,4342.051270,4317.692383,4302.692383,4341.282227,4317.051270,4329.358887,4334.487305,4326.538574,4324.615234,4312.051270,4521.153809,4536.538574,4405.512695,4472.436035,5696.000000,2.000000,44.000000,,,,0.000000,4.000000,4.000000,4.000000,4.000000,4.000000,4.000000,4.000000,4.000000,4.000000,4.000000,4.000000,4.000000,4.000000,4.000000,100.000000,,,,,,,,,,,,,,,,,,,,,,,,,,,,,,,,,,,,,,,,,,,,,,,,,,,,,,,,,,,,,,,,,,,,,,,,,,,,,,,,,,,,,,,,,,,,,,,,,,,,,,,,,,,,,,,,,,,,,
1768293055.857885,1768293055.858293,118.000000,0.000000,4332.307617,4309.871582,4296.922852,4336.282227,4310.256348,4323.461426,4320.769043,4325.641113,4322.948730,4308.717773,4522.179688,4535.256348,4411.153809,4471.410156,4342.000000,2.000000,44.000000,,,,0.000000,4.000000,4.000000,4.000000,4.000000,4.000000,4.000000,4.000000,4.000000,4.000000,4.000000,4.000000,4.000000,4.000000,4.000000,100.000000,,,,,,,,,,,,,,,,,,,,,,,,,,,,,,,,,,,,,,,,,,,,,,,,,,,,,,,,,,,,,,,,,,,,,,,,,,,,,,,,,,,,,,,,,,,,,,,,,,,,,,,,,,,,,,,,,,,,,
1768293055.865693,1768293055.866102,119.000000,0.000000,4335.256348,4315.256348,4296.666504,4340.641113,4311.538574,4322.307617,4319.871582,4325.897461,4320.641113,4303.846191,4527.179688,4537.436035,4420.641113,4481.538574,4761.000000,2.000000,44.000000,,,,0.000000,4.000000,4.000000,4.000000,4.000000,4.000000,4.000000,4.000000,4.000000,4.000000,4.000000,4.000000,4.000000,4.000000,4.000000,100.000000,,,,,,,,,,,,,,,,,,,,,,,,,,,,,,,,,,,,,,,,,,,,,,,,,,,,,,,,,,,,,,,,,,,,,,,,,,,,,,,,,,,,,,,,,,,,,,,,,,,,,,,,,,,,,,,,,,,,,
1768293055.873502,1768293055.874110,120.000000,0.000000,4342.179688,4321.922852,4297.820313,4340.641113,4314.358887,4324.358887,4325.128418,4326.922852,4316.794922,4300.256348,4527.948730,4538.077148,4417.563965,4483.974121,4335.000000,2.000000,44.000000,,,,0.000000,4.000000,4.000000,4.000000,4.000000,4.000000,4.000000,4.000000,4.000000,4.000000,4.000000,4.000000,4.000000,4.000000,4.000000,100.000000,,,,,,,,,,,,,,,,,,,,,,,,,,,,,,,,,,,,,,,,,,,,,,,,,,,,,,,,,,,,,,,,,,,,,,,,,,,,,,,,,,,,,,,,,,,,,,,,,,,,,,,,,,,,,,,,,,,,,
1768293055.881310,1768293055.881918,121.000000,0.000000,4341.153809,4323.077148,4298.974121,4337.820313,4314.230957,4324.358887,4322.051270,4325.769043,4314.743652,4293.846191,4527.179688,4538.974121,4411.410156,4481.025879,5696.000000,2.000000,44.000000,,,,0.000000,4.000000,4.000000,4.000000,4.000000,4.000000,4.000000,4.000000,4.000000,4.000000,4.000000,4.000000,4.000000,4.000000,4.000000,100.000000,,,,,,,,,,,,,,,,,,,,,,,,,,,,,,,,,,,,,,,,,,,,,,,,,,,,,,,,,,,,,,,,,,,,,,,,,,,,,,,,,,,,,,,,,,,,,,,,,,,,,,,,,,,,,,,,,,,,,
1768293055.889119,1768293055.889627,122.000000,0.000000,4338.974121,4325.641113,4301.282227,4340.384766,4314.615234,4324.102539,4324.102539,4317.051270,4310.641113,4293.077148,4522.563965,4531.922852,4408.974121,4475.769043,4342.000000,2.000000,44.000000,,,,0.000000,4.000000,4.000000,4.000000,4.000000,4.000000,4.000000,4.000000,4.000000,4.000000,4.000000,4.000000,4.000000,4.000000,4.000000,100.000000,,,,,,,,,,,,,,,,,,,,,,,,,,,,,,,,,,,,,,,,,,,,,,,,,,,,,,,,,,,,,,,,,,,,,,,,,,,,,,,,,,,,,,,,,,,,,,,,,,,,,,,,,,,,,,,,,,,,,
1768293055.896927,1768293055.897435,123.000000,0.000000,4340.769043,4327.436035,4301.153809,4342.307617,4312.948730,4325.256348,4329.615234,4312.307617,4309.102539,4296.153809,4520.641113,4522.692383,4410.769043,4474.230957,4761.000000,2.000000,44.000000,,,,0.000000,4.000000,4.000000,4.000000,4.000000,4.000000,4.000000,4.000000,4.000000,4.000000,4.000000,4.000000,4.000000,4.000000,4.000000,100.000000,,,,,,,,,,,,,,,,,,,,,,,,,,,,,,,,,,,,,,,,,,,,,,,,,,,,,,,,,,,,,,,,,,,,,,,,,,,,,,,,,,,,,,,,,,,,,,,,,,,,,,,,,,,,,,,,,,,,,
1768293055.904735,1768293055.905044,124.000000,0.000000,4340.384766,4323.461426,4299.102539,4340.897461,4310.000000,4325.000000,4323.077148,4317.820313,4312.948730,4292.307617,4522.436035,4522.563965,4406.666504,4476.153809,4335.000000,2.000000,44.000000,,,,0.000000,4.000000,4.000000,4.000000,4.000000,4.000000,4.000000,4.000000,4.000000,4.000000,4.000000,4.000000,4.000000,4.000000,4.000000,100.000000,,,,,,,,,,,,,,,,,,,,,,,,,,,,,,,,,,,,,,,,,,,,,,,,,,,,,,,,,,,,,,,,,,,,,,,,,,,,,,,,,,,,,,,,,,,,,,,,,,,,,,,,,,,,,,,,,,,,,
1768293055.912544,1768293055.912853,125.000000,0.000000,4338.461426,4323.077148,4298.461426,4341.538574,4314.615234,4324.230957,4315.256348,4318.461426,4312.179688,4288.077148,4519.358887,4523.333496,4398.846191,4472.820313,5696.000000,2.000000,44.000000,,,,0.000000,4.000000,4.000000,4.000000,4.000000,4.000000,4.000000,4.000000,4.000000,4.000000,4.000000,4.000000,4.000000,4.000000,4.000000,100.000000,,,,,,,,,,,,,,,,,,,,,,,,,,,,,,,,,,,,,,,,,,,,,,,,,,,,,,,,,,,,,,,,,,,,,,,,,,,,,,,,,,,,,,,,,,,,,,,,,,,,,,,,,,,,,,,,,,,,,
1768293055.920352,1768293055.920561,126.000000,0.000000,4341.282227,4328.333496,4301.153809,4343.974121,4319.487305,4326.153809,4323.333496,4308.589844,4309.358887,4292.563965,4518.974121,4521.794922,4403.846191,4471.666504,4342.000000,2.000000,44.000000,,,,0.000000,4.000000,4.000000,4.000000,4.000000,4.000000,4.000000,4.000000,4.000000,4.000000,4.000000,4.000000,4.000000,4.000000,4.000000,100.000000,,,,,,,,,,,,,,,,,,,,,,,,,,,,,,,,,,,,,,,,,,,,,,,,,,,,,,,,,,,,,,,,,,,,,,,,,,,,,,,,,,,,,,,,,,,,,,,,,,,,,,,,,,,,,,,,,,,,,
1768293055.928161,1768293055.928370,127.000000,0.000000,4342.436035,4324.743652,4301.922852,4341.282227,4313.461426,4325.384766,4328.077148,4309.743652,4311.794922,4289.871582,4523.205078,4524.871582,4412.307617,4473.589844,44.000000,2.000000,44.000000,,,,0.000000,4.000000,4.000000,4.000000,4.000000,4.000000,4.000000,4.000000,4.000000,4.000000,4.000000,4.000000,4.000000,4.000000,4.000000,100.000000,,,,,,,,,,,,,,,,,,,,,,,,,,,,,,,,,,,,,,,,,,,,,,,,,,,,,,,,,,,,,,,,,,,,,,,,,,,,,,,,,,,,,,,,,,,,,,,,,,,,,,,,,,,,,,,,,,,,,
1768293055.935969,1768293055.936378,0.000000,0.000000,4339.102539,4314.743652,4296.282227,4335.384766,4307.948730,4320.769043,4317.051270,4320.000000,4314.358887,4285.769043,4524.102539,4528.461426,4408.717773,4473.974121,1670.000000,2.000000,44.000000,,,,0.000000,4.000000,4.000000,4.000000,4.000000,4.000000,4.000000,4.000000,4.000000,4.000000,4.000000,4.000000,4.000000,4.000000,4.000000,100.000000,,,,,,,,,,,,,,,,,,,,,,,,,,,,,,,,,,,,,,,,,,,,,,,,0.916159,0.820182,0.404078,0.331314,0.151742,2.515481,0.470416,0.286840,0.230222,0.133325,0.162073,0.158653,0.074375,0.064923,0.038194,0.585409,0.505387,0.226110,0.184885,0.087714,1.101841,0.239472,0.052900,0.093395,0.069291,0.251261,0.101289,0.087272,0.040258,0.073757,0.163413,0.184827,0.105277,0.133475,0.166468,0.657464,0.615235,0.260368,0.325255,0.321584,0.850469,0.349541,0.129653,0.213045,0.148886,1.110411,0.880374,0.300343,0.391032,0.271841,0.653016,0.643846,0.312673,0.251833,0.177338,0.915983,1.218385,0.466081,0.437979,0.262922,0.525955,0.479110,0.364206,0.234777,0.160220,1.189453,0.994772,0.466077,0.331461,0.222225
1768293055.943777,1768293055.944186,1.000000,0.000000,4338.717773,4318.333496,4295.512695,4335.641113,4310.384766,4320.000000,4311.794922,4316.666504,4313.333496,4298.974121,4523.846191,4528.846191,4407.307617,4476.153809,4026.000000,2.000000,44.000000,,,,0.000000,4.000000,4.000000,4.000000,4.000000,4.000000,4.000000,4.000000,4.000000,4.000000,4.000000,4.000000,4.000000,4.000000,4.000000,100.000000,,,,,,,,,,,,,,,,,,,,,,,,,,,,,,,,,,,,,,,,,,,,,,,,,,,,,,,,,,,,,,,,,,,,,,,,,,,,,,,,,,,,,,,,,,,,,,,,,,,,,,,,,,,,,,,,,,,,,
1768293055.951586,1768293055.951895,2.000000,0.000000,4345.128418,4328.846191,4297.179688,4343.974121,4316.410156,4324.871582,4320.256348,4311.922852,4315.384766,4310.384766,4525.384766,4533.717773,4413.589844,4477.820313,3999.000000,2.000000,44.000000,,,,0.000000,4.000000,4.000000,4.000000,4.000000,4.000000,4.000000,4.000000,4.000000,4.000000,4.000000,4.000000,4.000000,4.000000,4.000000,100.000000,,,,,,,,,,,,,,,,,,,,,,,,,,,,,,,,,,,,,,,,,,,,,,,,,,,,,,,,,,,,,,,,,,,,,,,,,,,,,,,,,,,,,,,,,,,,,,,,,,,,,,,,,,,,,,,,,,,,,
1768293055.959394,1768293055.959703,3.000000,0.000000,4348.717773,4328.974121,4297.692383,4348.717773,4320.512695,4328.077148,4325.384766,4317.051270,4316.025879,4303.717773,4523.717773,4536.538574,4411.025879,4477.179688,3927.000000,2.000000,44.000000,,,,0.000000,4.000000,4.000000,4.000000,4.000000,4.000000,4.000000,4.000000,4.000000,4.000000,4.000000,4.000000,4.000000,4.000000,4.000000,100.000000,,,,,,,,,,,,,,,,,,,,,,,,,,,,,,,,,,,,,,,,,,,,,,,,,,,,,,,,,,,,,,,,,,,,,,,,,,,,,,,,,,,,,,,,,,,,,,,,,,,,,,,,,,,,,,,,,,,,,
1768293055.967203,1768293055.967312,4.000000,0.000000,4345.128418,4324.743652,4301.025879,4344.871582,4318.333496,4327.179688,4323.589844,4321.153809,4315.769043,4301.153809,4523.461426,4534.230957,4408.974121,4476.153809,3750.000000,2.000000,44.000000,,,,0.000000,4.000000,4.000000,4.000000,4.000000,4.000000,4.000000,4.000000,4.000000,4.000000,4.000000,4.000000,4.000000,4.000000,4.000000,100.000000,,,,,,,,,,,,,,,,,,,,,,,,,,,,,,,,,,,,,,,,,,,,,,,,,,,,,,,,,,,,,,,,,,,,,,,,,,,,,,,,,,,,,,,,,,,,,,,,,,,,,,,,,,,,,,,,,,,,,
1768293055.975011,1768293055.975120,5.000000,0.000000,4341.794922,4322.051270,4300.000000,4343.846191,4314.871582,4325.256348,4322.179688,4325.897461,4321.282227,4311.282227,4529.102539,4534.615234,4414.102539,4475.641113,2506.000000,2.000000,44.000000,,,,0.000000,4.000000,4.000000,4.000000,4.000000,4.000000,4.000000,4.000000,4.000000,4.000000,4.000000,4.000000,4.000000,4.000000,4.000000,100.000000,,,,,,,,,,,,,,,,,,,,,,,,,,,,,,,,,,,,,,,,,,,,,,,,,,,,,,,,,,,,,,,,,,,,,,,,,,,,,,,,,,,,,,,,,,,,,,,,,,,,,,,,,,,,,,,,,,,,,
1768293055.982820,1768293055.982829,6.000000,0.000000,4335.897461,4316.153809,4297.436035,4341.153809,4315.128418,4323.461426,4324.230957,4327.820313,4325.128418,4312.820313,4528.846191,4535.256348,4412.436035,4475.897461,2523.000000,2.000000,44.000000,,,,0.000000,4.000000,4.000000,4.000000,4.000000,4.000000,4.000000,4.000000,4.000000,4.000000,4.000000,4.000000,4.000000,4.000000,4.000000,100.000000,,,,,,,,,,,,,,,,,,,,,,,,,,,,,,,,,,,,,,,,,,,,,,,,,,,,,,,,,,,,,,,,,,,,,,,,,,,,,,,,,,,,,,,,,,,,,,,,,,,,,,,,,,,,,,,,,,,,,
1768293055.990628,1768293055.990637,7.000000,0.000000,4329.871582,4309.487305,4296.794922,4333.077148,4315.128418,4320.000000,4322.563965,4317.820313,4321.282227,4305.512695,4521.922852,4533.461426,4408.205078,4473.974121,4076.000000,2.000000,44.000000,,,,0.000000,4.000000,4.000000,4.000000,4.000000,4.000000,4.000000,4.000000,4.000000,4.000000,4.000000,4.000000,4.000000,4.000000,4.000000,100.000000,,,,,,,,,,,,,,,,,,,,,,,,,,,,,,,,,,,,,,,,,,,,,,,,,,,,,,,,,,,,,,,,,,,,,,,,,,,,,,,,,,,,,,,,,,,,,,,,,,,,,,,,,,,,,,,,,,,,,
1768293055.998436,1768293055.998646,8.000000,0.000000,4332.948730,4310.897461,4299.358887,4331.153809,4313.974121,4320.769043,4318.717773,4311.666504,4316.410156,4303.333496,4520.256348,4534.358887,4407.563965,4471.410156,3221.000000,2.000000,44.000000,,,,0.000000,4.000000,4.000000,4.000000,4.000000,4.000000,4.000000,4.000000,4.000000,4.000000,4.000000,4.000000,4.000000,4.000000,4.000000,100.000000,,,,,,,,,,,,,,,,,,,,,,,,,,,,,,,,,,,,,,,,,,,,,,,,,,,,,,,,,,,,,,,,,,,,,,,,,,,,,,,,,,,,,,,,,,,,,,,,,,,,,,,,,,,,,,,,,,,,,
1768293056.006245,1768293056.006454,9.000000,0.000000,4335.641113,4312.307617,4298.333496,4332.436035,4316.538574,4323.589844,4321.922852,4318.846191,4317.051270,4305.128418,4524.615234,4533.077148,4405.512695,4474.230957,3851.000000,2.000000,44.000000,,,,0.000000,4.000000,4.000000,4.000000,4.000000,4.000000,4.000000,4.000000,4.000000,4.000000,4.000000,4.000000,4.000000,4.000000,4.000000,100.000000,,,,,,,,,,,,,,,,,,,,,,,,,,,,,,,,,,,,,,,,,,,,,,,,,,,,,,,,,,,,,,,,,,,,,,,,,,,,,,,,,,,,,,,,,,,,,,,,,,,,,,,,,,,,,,,,,,,,,
1768293056.014053,1768293056.014362,10.000000,0.000000,4327.051270,4303.205078,4287.948730,4327.051270,4313.974121,4320.641113,4322.563965,4323.205078,4319.871582,4302.179688,4520.000000,4524.871582,4399.358887,4473.846191,4342.000000,2.000000,44.000000,,,,0.000000,4.000000,4.000000,4.000000,4.000000,4.000000,4.000000,4.000000,4.000000,4.000000,4.000000,4.000000,4.000000,4.000000,4.000000,100.000000,,,,,,,,,,,,,,,,,,,,,,,,,,,,,,,,,,,,,,,,,,,,,,,,,,,,,,,,,,,,,,,,,,,,,,,,,,,,,,,,,,,,,,,,,,,,,,,,,,,,,,,,,,,,,,,,,,,,,
1768293056.021862,1768293056.022171,11.000000,0.000000,4319.102539,4293.846191,4287.563965,4319.743652,4308.205078,4321.666504,4320.384766,4323.589844,4322.436035,4296.282227,4513.205078,4524.102539,4396.282227,4464.743652,4761.000000,2.000000,44.000000,,,,0.000000,4.000000,4.000000,4.000000,4.000000,4.000000,4.000000,4.000000,4.000000,4.000000,4.000000,4.000000,4.000000,4.000000,4.000000,100.000000,,,,,,,,,,,,,,,,,,,,,,,,,,,,,,,,,,,,,,,,,,,,,,,,,,,,,,,,,,,,,,,,,,,,,,,,,,,,,,,,,,,,,,,,,,,,,,,,,,,,,,,,,,,,,,,,,,,,,
1768293056.029670,1768293056.030179,12.000000,0.000000,4325.641113,4301.538574,4299.358887,4326.025879,4315.128418,4329.487305,4324.230957,4328.333496,4327.051270,4308.846191,4523.974121,4541.153809,4405.897461,4469.358887,4335.000000,2.000000,44.000000,,,,0.000000,4.000000,4.000000,4.000000,4.000000,4.000000,4.000000,4.000000,4.000000,4.000000,4.000000,4.000000,4.000000,4.000000,4.000000,100.000000,,,,,,,,,,,,,,,,,,,,,,,,,,,,,,,,,,,,,,,,,,,,,,,,,,,,,,,,,,,,,,,,,,,,,,,,,,,,,,,,,,,,,,,,,,,,,,,,,,,,,,,,,,,,,,,,,,,,,
1768293056.037479,1768293056.037988,13.000000,0.000000,4342.948730,4318.717773,4306.666504,4343.333496,4327.436035,4330.512695,4331.282227,4339.102539,4336.025879,4331.025879,4540.512695,4560.641113,4424.743652,4489.615234,5698.000000,2.000000,44.000000,,,,0.000000,4.000000,4.000000,4.000000,4.000000,4.000000,4.000000,4.000000,4.000000,4.000000,4.000000,4.000000,4.000000,4.000000,4.000000,100.000000,,,,,,,,,,,,,,,,,,,,,,,,,,,,,,,,,,,,,,,,,,,,,,,,,,,,,,,,,,,,,,,,,,,,,,,,,,,,,,,,,,,,,,,,,,,,,,,,,,,,,,,,,,,,,,,,,,,,,
1768293056.045287,1768293056.045896,14.000000,0.000000,4350.000000,4321.282227,4305.000000,4348.589844,4326.153809,4328.077148,4334.487305,4344.615234,4336.922852,4326.538574,4545.384766,4565.256348,4433.461426,4499.102539,4342.000000,2.000000,44.000000,,,,0.000000,4.000000,4.000000,4.000000,4.000000,4.000000,4.000000,4.000000,4.000000,4.000000,4.000000,4.000000,4.000000,4.000000,4.000000,100.000000,,,,,,,,,,,,,,,,,,,,,,,,,,,,,,,,,,,,,,,,,,,,,,,,,,,,,,,,,,,,,,,,,,,,,,,,,,,,,,,,,,,,,,,,,,,,,,,,,,,,,,,,,,,,,,,,,,,,,
1768293056.053095,1768293056.053704,15.000000,0.000000,4340.000000,4313.974121,4299.230957,4339.743652,4317.820313,4326.922852,4327.692383,4334.743652,4326.922852,4311.666504,4538.205078,4557.436035,4420.384766,4492.307617,4761.000000,2.000000,44.000000,,,,0.000000,4.000000,4.000000,4.000000,4.000000,4.000000,4.000000,4.000000,4.000000,4.000000,4.000000,4.000000,4.000000,4.000000,4.000000,100.000000,,,,,,,,,,,,,,,,,,,,,,,,,,,,,,,,,,,,,,,,,,,,,,,,,,,,,,,,,,,,,,,,,,,,,,,,,,,,,,,,,,,,,,,,,,,,,,,,,,,,,,,,,,,,,,,,,,,,,
1768293056.060904,1768293056.061713,16.000000,0.000000,4333.461426,4312.563965,4300.128418,4336.153809,4316.025879,4323.974121,4321.282227,4322.307617,4323.205078,4315.897461,4528.077148,4546.666504,4405.641113,4481.794922,0.000000,2.000000,44.000000,,,,0.000000,4.000000,4.000000,4.000000,4.000000,4.000000,4.000000,4.000000,4.000000,4.000000,4.000000,4.000000,4.000000,4.000000,4.000000,100.000000,1.000000,50.000000,4.000000,4.000000,1.000000,4.000000,4.000000,1.000000,4.000000,4.000000,4.000000,4.000000,4.000000,4.000000,4.000000,4.000000,,,,,,,,,,,,,,,,,,,,,,,,,,,,,,,,0.935643,0.749309,0.431405,0.398158,0.156629,2.354846,0.465706,0.268641,0.238646,0.132769,0.138561,0.149814,0.086428,0.067412,0.038384,0.563395,0.483036,0.223823,0.181990,0.093196,1.064998,0.219530,0.049075,0.087545,0.064644,0.197227,0.109322,0.088237,0.041185,0.075740,0.141610,0.217898,0.100738,0.155393,0.169718,0.617593,0.686934,0.263910,0.362200,0.335389,0.861473,0.404078,0.142281,0.256940,0.153600,1.070550,0.968521,0.296319,0.414593,0.271413,0.503389,0.685690,0.330928,0.268895,0.176724,0.811566,1.366709,0.497238,0.527953,0.252479,0.387933,0.523898,0.413749,0.233610,0.167552,1.197927,0.910028,0.444210,0.398136,0.229695
1768293056.068712,1768293056.069521,17.000000,0.000000,4339.487305,4315.769043,4302.436035,4340.384766,4316.666504,4321.410156,4322.563965,4324.358887,4326.538574,4319.230957,4523.846191,4541.282227,4407.948730,4482.436035,0.000000,2.000000,44.000000,,,,0.000000,4.000000,4.000000,4.000000,4.000000,4.000000,4.000000,4.000000,4.000000,4.000000,4.000000,4.000000,4.000000,4.000000,4.000000,100.000000,,,,,,,,,,,,,,,,,,,,,,,,,,,,,,,,,,,,,,,,,,,,,,,,,,,,,,,,,,,,,,,,,,,,,,,,,,,,,,,,,,,,,,,,,,,,,,,,,,,,,,,,,,,,,,,,,,,,,
1768293056.076521,1768293056.077230,18.000000,0.000000,4342.820313,4313.077148,4297.948730,4338.974121,4316.666504,4319.615234,4322.820313,4327.051270,4322.692383,4307.692383,4523.974121,4541.794922,4411.282227,4485.384766,0.000000,2.000000,44.000000,,,,0.000000,4.000000,4.000000,4.000000,4.000000,4.000000,4.000000,4.000000,4.000000,4.000000,4.000000,4.000000,4.000000,4.000000,4.000000,100.000000,,,,,,,,,,,,,,,,,,,,,,,,,,,,,,,,,,,,,,,,,,,,,,,,,,,,,,,,,,,,,,,,,,,,,,,,,,,,,,,,,,,,,,,,,,,,,,,,,,,,,,,,,,,,,,,,,,,,,
1768293056.084329,1768293056.085038,19.000000,0.000000,4339.615234,4308.077148,4296.666504,4332.179688,4318.589844,4320.128418,4318.589844,4323.717773,4317.692383,4305.256348,4525.897461,4539.487305,4408.205078,4481.025879,0.000000,2.000000,44.000000,,,,0.000000,4.000000,4.000000,4.000000,4.000000,4.000000,4.000000,4.000000,4.000000,4.000000,4.000000,4.000000,4.000000,4.000000,4.000000,100.000000,,,,,,,,,,,,,,,,,,,,,,,,,,,,,,,,,,,,,,,,,,,,,,,,,,,,,,,,,,,,,,,,,,,,,,,,,,,,,,,,,,,,,,,,,,,,,,,,,,,,,,,,,,,,,,,,,,,,,
1768293056.092137,1768293056.092647,20.000000,0.000000,4340.384766,4308.717773,4299.487305,4331.538574,4320.897461,4323.205078,4318.205078,4322.563965,4320.384766,4311.538574,4526.922852,4537.692383,4410.000000,4482.948730,0.000000,2.000000,44.000000,,,,0.000000,4.000000,4.000000,4.000000,4.000000,4.000000,4.000000,4.000000,4.000000,4.000000,4.000000,4.000000,4.000000,4.000000,4.000000,100.000000,,,,,,,,,,,,,,,,,,,,,,,,,,,,,,,,,,,,,,,,,,,,,,,,,,,,,,,,,,,,,,,,,,,,,,,,,,,,,,,,,,,,,,,,,,,,,,,,,,,,,,,,,,,,,,,,,,,,,
1768293056.099946,1768293056.100455,21.000000,0.000000,4348.205078,4311.410156,4300.256348,4335.897461,4323.461426,4325.897461,4325.384766,4323.589844,4323.846191,4311.153809,4529.743652,4546.410156,4416.025879,4489.230957,0.000000,2.000000,44.000000,,,,0.000000,4.000000,4.000000,4.000000,4.000000,4.000000,4.000000,4.000000,4.000000,4.000000,4.000000,4.000000,4.000000,4.000000,4.000000,100.000000,,,,,,,,,,,,,,,,,,,,,,,,,,,,,,,,,,,,,,,,,,,,,,,,,,,,,,,,,,,,,,,,,,,,,,,,,,,,,,,,,,,,,,,,,,,,,,,,,,,,,,,,,,,,,,,,,,,,,
1768293056.107754,1768293056.108164,22.000000,0.000000,4354.743652,4313.846191,4300.897461,4337.948730,4325.897461,4326.538574,4327.307617,4326.025879,4326.153809,4307.563965,4534.487305,4553.846191,4417.436035,4488.717773,0.000000,2.000000,44.000000,,,,0.000000,4.000000,4.000000,4.000000,4.000000,4.000000,4.000000,4.000000,4.000000,4.000000,4.000000,4.000000,4.000000,4.000000,4.000000,100.000000,,,,,,,,,,,,,,,,,,,,,,,,,,,,,,,,,,,,,,,,,,,,,,,,,,,,,,,,,,,,,,,,,,,,,,,,,,,,,,,,,,,,,,,,,,,,,,,,,,,,,,,,,,,,,,,,,,,,,
1768293056.115563,1768293056.115972,23.000000,0.000000,4354.102539,4315.000000,4299.487305,4338.333496,4325.256348,4325.256348,4322.692383,4328.717773,4322.948730,4305.769043,4532.820313,4545.769043,4412.692383,4484.230957,0.000000,2.000000,44.000000,,,,0.000000,4.000000,4.000000,4.000000,4.000000,4.000000,4.000000,4.000000,4.000000,4.000000,4.000000,4.000000,4.000000,4.000000,4.000000,100.000000,,,,,,,,,,,,,,,,,,,,,,,,,,,,,,,,,,,,,,,,,,,,,,,,,,,,,,,,,,,,,,,,,,,,,,,,,,,,,,,,,,,,,,,,,,,,,,,,,,,,,,,,,,,,,,,,,,,,,
1768293056.123371,1768293056.123581,24.000000,0.000000,4352.820313,4311.794922,4298.077148,4338.974121,4322.307617,4323.589844,4323.589844,4324.743652,4317.179688,4311.666504,4525.897461,4538.846191,4409.871582,4481.025879,0.000000,2.000000,44.000000,,,,0.000000,4.000000,4.000000,4.000000,4.000000,4.000000,4.000000,4.000000,4.000000,4.000000,4.000000,4.000000,4.000000,4.000000,4.000000,100.000000,,,,,,,,,,,,,,,,,,,,,,,,,,,,,,,,,,,,,,,,,,,,,,,,,,,,,,,,,,,,,,,,,,,,,,,,,,,,,,,,,,,,,,,,,,,,,,,,,,,,,,,,,,,,,,,,,,,,,
1768293056.131179,1768293056.131389,25.000000,0.000000,4355.641113,4311.025879,4298.461426,4338.717773,4323.589844,4323.077148,4323.846191,4319.743652,4317.179688,4317.436035,4523.589844,4540.128418,4412.436035,4478.846191,0.000000,2.000000,44.000000,,,,0.000000,4.000000,4.000000,4.000000,4.000000,4.000000,4.000000,4.000000,4.000000,4.000000,4.000000,4.000000,4.000000,4.000000,4.000000,100.000000,,,,,,,,,,,,,,,,,,,,,,,,,,,,,,,,,,,,,,,,,,,,,,,,,,,,,,,,,,,,,,,,,,,,,,,,,,,,,,,,,,,,,,,,,,,,,,,,,,,,,,,,,,,,,,,,,,,,,
1768293056.138988,1768293056.139298,26.000000,0.000000,4355.384766,4316.666504,4302.436035,4338.333496,4325.769043,4325.641113,4325.128418,4327.051270,4320.256348,4313.846191,4526.794922,4542.051270,4413.846191,4478.974121,0.000000,2.000000,44.000000,,,,0.000000,4.000000,4.000000,4.000000,4.000000,4.000000,4.000000,4.000000,4.000000,4.000000,4.000000,4.000000,4.000000,4.000000,4.000000,100.000000,,,,,,,,,,,,,,,,,,,,,,,,,,,,,,,,,,,,,,,,,,,,,,,,,,,,,,,,,,,,,,,,,,,,,,,,,,,,,,,,,,,,,,,,,,,,,,,,,,,,,,,,,,,,,,,,,,,,,
1768293056.146796,1768293056.147106,27.000000,0.000000,4349.743652,4317.307617,4302.692383,4337.436035,4322.051270,4324.230957,4330.128418,4328.717773,4316.282227,4306.666504,4527.436035,4538.846191,4406.282227,4477.179688,0.000000,2.000000,44.000000,,,,0.000000,4.000000,4.000000,4.000000,4.000000,4.000000,4.000000,4.000000,4.000000,4.000000,4.000000,4.000000,4.000000,4.000000,4.000000,100.000000,,,,,,,,,,,,,,,,,,,,,,,,,,,,,,,,,,,,,,,,,,,,,,,,,,,,,,,,,,,,,,,,,,,,,,,,,,,,,,,,,,,,,,,,,,,,,,,,,,,,,,,,,,,,,,,,,,,,,
1768293056.154605,1768293056.154715,28.000000,0.000000,4343.077148,4312.820313,4295.256348,4329.743652,4315.512695,4318.333496,4323.589844,4316.025879,4309.230957,4303.077148,4518.589844,4530.512695,4400.000000,4472.692383,0.000000,2.000000,44.000000,,,,0.000000,4.000000,4.000000,4.000000,4.000000,4.000000,4.000000,4.000000,4.000000,4.000000,4.000000,4.000000,4.000000,4.000000,4.000000,100.000000,,,,,,,,,,,,,,,,,,,,,,,,,,,,,,,,,,,,,,,,,,,,,,,,,,,,,,,,,,,,,,,,,,,,,,,,,,,,,,,,,,,,,,,,,,,,,,,,,,,,,,,,,,,,,,,,,,,,,
1768293056.162413,1768293056.162523,29.000000,0.000000,4341.794922,4316.282227,4295.512695,4323.846191,4315.897461,4319.871582,4318.077148,4311.410156,4311.538574,4303.461426,4511.922852,4522.948730,4401.538574,4471.794922,0.000000,2.000000,44.000000,,,,0.000000,4.000000,4.000000,4.000000,4.000000,4.000000,4.000000,4.000000,4.000000,4.000000,4.000000,4.000000,4.000000,4.000000,4.000000,100.000000,,,,,,,,,,,,,,,,,,,,,,,,,,,,,,,,,,,,,,,,,,,,,,,,,,,,,,,,,,,,,,,,,,,,,,,,,,,,,,,,,,,,,,,,,,,,,,,,,,,,,,,,,,,,,,,,,,,,,
1768293056.170222,1768293056.170232,30.000000,0.000000,4342.307617,4322.436035,4297.563965,4326.410156,4318.333496,4322.051270,4319.743652,4319.230957,4317.051270,4301.153809,4515.897461,4521.538574,4401.410156,4465.256348,0.000000,2.000000,44.000000,,,,0.000000,4.000000,4.000000,4.000000,4.000000,4.000000,4.000000,4.000000,4.000000,4.000000,4.000000,4.000000,4.000000,4.000000,4.000000,100.000000,,,,,,,,,,,,,,,,,,,,,,,,,,,,,,,,,,,,,,,,,,,,,,,,,,,,,,,,,,,,,,,,,,,,,,,,,,,,,,,,,,,,,,,,,,,,,,,,,,,,,,,,,,,,,,,,,,,,,
1768293056.178030,1768293056.178040,31.000000,0.000000,4333.589844,4321.794922,4292.436035,4326.410156,4312.692383,4320.641113,4322.436035,4324.487305,4316.410156,4293.974121,4518.461426,4522.948730,4394.358887,4458.333496,0.000000,2.000000,44.000000,,,,0.000000,4.000000,4.000000,4.000000,4.000000,4.000000,4.000000,4.000000,4.000000,4.000000,4.000000,4.000000,4.000000,4.000000,4.000000,100.000000,,,,,,,,,,,,,,,,,,,,,,,,,,,,,,,,,,,,,,,,,,,,,,,,,,,,,,,,,,,,,,,,,,,,,,,,,,,,,,,,,,,,,,,,,,,,,,,,,,,,,,,,,,,,,,,,,,,,,
1768293056.185839,1768293056.185649,32.000000,0.000000,4322.563965,4321.794922,4292.820313,4325.641113,4308.205078,4326.153809,4328.205078,4321.794922,4315.256348,4291.025879,4515.384766,4521.794922,4389.102539,4457.948730,0.000000,2.000000,44.000000,,,,0.000000,4.000000,4.000000,4.000000,4.000000,4.000000,4.000000,4.000000,4.000000,4.000000,4.000000,4.000000,4.000000,4.000000,4.000000,100.000000,,,,,,,,,,,,,,,,,,,,,,,,,,,,,,,,,,,,,,,,,,,,,,,,0.953343,0.706682,0.443195,0.437193,0.156443,2.276075,0.461513,0.254884,0.234114,0.126415,0.124310,0.135898,0.098530,0.067337,0.037012,0.582967,0.468809,0.227913,0.175256,0.096834,0.988594,0.205680,0.049384,0.077864,0.060103,0.154590,0.118309,0.083154,0.046354,0.078070,0.120006,0.237334,0.096370,0.174859,0.169732,0.612777,0.791062,0.263081,0.412252,0.339341,0.842828,0.483717,0.166836,0.300361,0.151560,1.032837,1.047762,0.285110,0.439113,0.266643,0.401796,0.746435,0.375127,0.290264,0.171430,0.749985,1.557305,0.528695,0.620683,0.237209,0.330554,0.601786,0.523407,0.250345,0.182456,1.156335,0.892278,0.441619,0.472931,0.232812
1768293056.193647,1768293056.193457,33.000000,0.000000,4325.256348,4327.948730,4296.410156,4325.641113,4308.461426,4326.794922,4327.179688,4313.333496,4314.871582,4291.922852,4515.000000,4517.948730,4393.333496,4456.025879,0.000000,2.000000,44.000000,,,,0.000000,4.000000,4.000000,4.000000,4.000000,4.000000,4.000000,4.000000,4.000000,4.000000,4.000000,4.000000,4.000000,4.000000,4.000000,100.000000,,,,,,,,,,,,,,,,,,,,,,,,,,,,,,,,,,,,,,,,,,,,,,,,,,,,,,,,,,,,,,,,,,,,,,,,,,,,,,,,,,,,,,,,,,,,,,,,,,,,,,,,,,,,,,,,,,,,,
1768293056.201455,1768293056.201366,34.000000,0.000000,4333.717773,4328.589844,4297.820313,4325.256348,4304.230957,4317.051270,4316.794922,4306.153809,4313.589844,4289.871582,4517.563965,4517.692383,4397.692383,4455.769043,0.000000,2.000000,44.000000,,,,0.000000,4.000000,4.000000,4.000000,4.000000,4.000000,4.000000,4.000000,4.000000,4.000000,4.000000,4.000000,4.000000,4.000000,4.000000,100.000000,,,,,,,,,,,,,,,,,,,,,,,,,,,,,,,,,,,,,,,,,,,,,,,,,,,,,,,,,,,,,,,,,,,,,,,,,,,,,,,,,,,,,,,,,,,,,,,,,,,,,,,,,,,,,,,,,,,,,
1768293056.209264,1768293056.209174,35.000000,0.000000,4331.666504,4327.692383,4296.794922,4326.410156,4302.179688,4318.205078,4315.641113,4312.692383,4316.538574,4293.846191,4518.974121,4521.922852,4395.897461,4459.358887,0.000000,2.000000,44.000000,,,,0.000000,4.000000,4.000000,4.000000,4.000000,4.000000,4.000000,4.000000,4.000000,4.000000,4.000000,4.000000,4.000000,4.000000,4.000000,100.000000,,,,,,,,,,,,,,,,,,,,,,,,,,,,,,,,,,,,,,,,,,,,,,,,,,,,,,,,,,,,,,,,,,,,,,,,,,,,,,,,,,,,,,,,,,,,,,,,,,,,,,,,,,,,,,,,,,,,,
1768293056.217072,1768293056.217182,36.000000,0.000000,4327.948730,4334.743652,4298.205078,4330.512695,4307.436035,4328.717773,4327.051270,4324.230957,4324.743652,4294.615234,4522.307617,4525.897461,4398.846191,4459.102539,0.000000,2.000000,44.000000,,,,0.000000,4.000000,4.000000,4.000000,4.000000,4.000000,4.000000,4.000000,4.000000,4.000000,4.000000,4.000000,4.000000,4.000000,4.000000,100.000000,,,,,,,,,,,,,,,,,,,,,,,,,,,,,,,,,,,,,,,,,,,,,,,,,,,,,,,,,,,,,,,,,,,,,,,,,,,,,,,,,,,,,,,,,,,,,,,,,,,,,,,,,,,,,,,,,,,,,
1768293056.224881,1768293056.224991,37.000000,0.000000,4337.307617,4342.051270,4301.153809,4333.589844,4308.846191,4328.717773,4330.256348,4329.102539,4327.563965,4289.102539,4525.512695,4530.641113,4403.077148,4459.615234,0.000000,2.000000,44.000000,,,,0.000000,4.000000,4.000000,4.000000,4.000000,4.000000,4.000000,4.000000,4.000000,4.000000,4.000000,4.000000,4.000000,4.000000,4.000000,100.000000,,,,,,,,,,,,,,,,,,,,,,,,,,,,,,,,,,,,,,,,,,,,,,,,,,,,,,,,,,,,,,,,,,,,,,,,,,,,,,,,,,,,,,,,,,,,,,,,,,,,,,,,,,,,,,,,,,,,,
1768293056.232689,1768293056.232899,38.000000,0.000000,4347.563965,4340.641113,4299.230957,4334.487305,4305.641113,4322.692383,4322.692383,4332.179688,4325.384766,4298.461426,4527.692383,4538.333496,4403.846191,4470.512695,0.000000,2.000000,44.000000,,,,0.000000,4.000000,4.000000,4.000000,4.000000,4.000000,4.000000,4.000000,4.000000,4.000000,4.000000,4.000000,4.000000,4.000000,4.000000,100.000000,,,,,,,,,,,,,,,,,,,,,,,,,,,,,,,,,,,,,,,,,,,,,,,,,,,,,,,,,,,,,,,,,,,,,,,,,,,,,,,,,,,,,,,,,,,,,,,,,,,,,,,,,,,,,,,,,,,,,
1768293056.240497,1768293056.240707,39.000000,0.000000,4343.974121,4335.256348,4301.153809,4334.743652,4303.461426,4322.179688,4321.538574,4327.563965,4323.846191,4310.256348,4528.077148,4540.128418,4407.051270,4479.615234,0.000000,2.000000,44.000000,,,,0.000000,4.000000,4.000000,4.000000,4.000000,4.000000,4.000000,4.000000,4.000000,4.000000,4.000000,4.000000,4.000000,4.000000,4.000000,100.000000,,,,,,,,,,,,,,,,,,,,,,,,,,,,,,,,,,,,,,,,,,,,,,,,,,,,,,,,,,,,,,,,,,,,,,,,,,,,,,,,,,,,,,,,,,,,,,,,,,,,,,,,,,,,,,,,,,,,,
1768293056.248306,1768293056.248716,40.000000,0.000000,4340.384766,4335.769043,4304.102539,4331.538574,4304.743652,4323.461426,4321.922852,4320.256348,4322.051270,4300.512695,4523.846191,4535.512695,4407.563965,4475.128418,0.000000,2.000000,44.000000,,,,0.000000,4.000000,4.000000,4.000000,4.000000,4.000000,4.000000,4.000000,4.000000,4.000000,4.000000,4.000000,4.000000,4.000000,4.000000,100.000000,,,,,,,,,,,,,,,,,,,,,,,,,,,,,,,,,,,,,,,,,,,,,,,,,,,,,,,,,,,,,,,,,,,,,,,,,,,,,,,,,,,,,,,,,,,,,,,,,,,,,,,,,,,,,,,,,,,,,
1768293056.256114,1768293056.256524,41.000000,0.000000,4346.922852,4338.846191,4301.666504,4330.256348,4307.051270,4325.000000,4318.461426,4325.512695,4323.589844,4294.871582,4527.692383,4539.230957,4406.794922,4477.563965,0.000000,2.000000,44.000000,,,,0.000000,4.000000,4.000000,4.000000,4.000000,4.000000,4.000000,4.000000,4.000000,4.000000,4.000000,4.000000,4.000000,4.000000,4.000000,100.000000,,,,,,,,,,,,,,,,,,,,,,,,,,,,,,,,,,,,,,,,,,,,,,,,,,,,,,,,,,,,,,,,,,,,,,,,,,,,,,,,,,,,,,,,,,,,,,,,,,,,,,,,,,,,,,,,,,,,,
1768293056.263923,1768293056.264432,42.000000,0.000000,4347.948730,4332.307617,4303.077148,4337.820313,4309.358887,4328.717773,4327.307617,4334.871582,4329.615234,4304.871582,4538.589844,4551.538574,4413.333496,4491.282227,0.000000,2.000000,44.000000,,,,0.000000,4.000000,4.000000,4.000000,4.000000,4.000000,4.000000,4.000000,4.000000,4.000000,4.000000,4.000000,4.000000,4.000000,4.000000,100.000000,,,,,,,,,,,,,,,,,,,,,,,,,,,,,,,,,,,,,,,,,,,,,,,,,,,,,,,,,,,,,,,,,,,,,,,,,,,,,,,,,,,,,,,,,,,,,,,,,,,,,,,,,,,,,,,,,,,,,
1768293056.271731,1768293056.272241,43.000000,0.000000,4346.922852,4329.102539,4305.128418,4344.487305,4309.487305,4329.102539,4335.384766,4331.922852,4328.717773,4302.563965,4536.922852,4555.128418,4416.410156,4492.948730,0.000000,2.000000,44.000000,,,,0.000000,4.000000,4.000000,4.000000,4.000000,4.000000,4.000000,4.000000,4.000000,4.000000,4.000000,4.000000,4.000000,4.000000,4.000000,100.000000,,,,,,,,,,,,,,,,,,,,,,,,,,,,,,,,,,,,,,,,,,,,,,,,,,,,,,,,,,,,,,,,,,,,,,,,,,,,,,,,,,,,,,,,,,,,,,,,,,,,,,,,,,,,,,,,,,,,,
1768293056.279539,1768293056.279850,44.000000,0.000000,4356.922852,4342.948730,4306.282227,4343.589844,4309.615234,4325.128418,4326.282227,4323.205078,4322.051270,4296.282227,4526.538574,4547.307617,4412.307617,4485.512695,0.000000,2.000000,44.000000,,,,0.000000,4.000000,4.000000,4.000000,4.000000,4.000000,4.000000,4.000000,4.000000,4.000000,4.000000,4.000000,4.000000,4.000000,4.000000,100.000000,,,,,,,,,,,,,,,,,,,,,,,,,,,,,,,,,,,,,,,,,,,,,,,,,,,,,,,,,,,,,,,,,,,,,,,,,,,,,,,,,,,,,,,,,,,,,,,,,,,,,,,,,,,,,,,,,,,,,
1768293056.287348,1768293056.287658,45.000000,0.000000,4360.000000,4346.666504,4308.077148,4341.025879,4309.743652,4322.436035,4320.641113,4320.769043,4320.897461,4304.615234,4532.051270,4542.179688,4414.871582,4488.717773,0.000000,2.000000,44.000000,,,,0.000000,4.000000,4.000000,4.000000,4.000000,4.000000,4.000000,4.000000,4.000000,4.000000,4.000000,4.000000,4.000000,4.000000,4.000000,100.000000,,,,,,,,,,,,,,,,,,,,,,,,,,,,,,,,,,,,,,,,,,,,,,,,,,,,,,,,,,,,,,,,,,,,,,,,,,,,,,,,,,,,,,,,,,,,,,,,,,,,,,,,,,,,,,,,,,,,,
1768293056.295156,1768293056.295367,46.000000,0.000000,4345.256348,4330.897461,4302.948730,4339.230957,4306.538574,4322.948730,4322.820313,4326.922852,4326.666504,4311.922852,4540.000000,4542.692383,4418.589844,4487.179688,0.000000,2.000000,44.000000,,,,0.000000,4.000000,4.000000,4.000000,4.000000,4.000000,4.000000,4.000000,4.000000,4.000000,4.000000,4.000000,4.000000,4.000000,4.000000,100.000000,,,,,,,,,,,,,,,,,,,,,,,,,,,,,,,,,,,,,,,,,,,,,,,,,,,,,,,,,,,,,,,,,,,,,,,,,,,,,,,,,,,,,,,,,,,,,,,,,,,,,,,,,,,,,,,,,,,,,
1768293056.302965,1768293056.303175,47.000000,0.000000,4336.794922,4325.641113,4297.692383,4335.256348,4304.358887,4321.922852,4320.512695,4328.846191,4328.205078,4306.282227,4530.769043,4537.179688,4411.538574,4475.897461,0.000000,2.000000,44.000000,,,,0.000000,4.000000,4.000000,4.000000,4.000000,4.000000,4.000000,4.000000,4.000000,4.000000,4.000000,4.000000,4.000000,4.000000,4.000000,100.000000,,,,,,,,,,,,,,,,,,,,,,,,,,,,,,,,,,,,,,,,,,,,,,,,,,,,,,,,,,,,,,,,,,,,,,,,,,,,,,,,,,,,,,,,,,,,,,,,,,,,,,,,,,,,,,,,,,,,,
1768293056.310773,1768293056.311183,48.000000,0.000000,4343.461426,4331.794922,4299.871582,4337.563965,4306.794922,4320.384766,4316.282227,4321.025879,4321.410156,4301.922852,4527.307617,4536.025879,4409.743652,4480.769043,0.000000,2.000000,44.000000,,,,0.000000,4.000000,4.000000,4.000000,4.000000,4.000000,4.000000,4.000000,4.000000,4.000000,4.000000,4.000000,4.000000,4.000000,4.000000,100.000000,,,,,,,,,,,,,,,,,,,,,,,,,,,,,,,,,,,,,,,,,,,,,,,,0.912496,0.682991,0.435293,0.438491,0.152684,2.323197,0.453141,0.249933,0.220172,0.118168,0.121746,0.117399,0.109024,0.064556,0.034909,0.624806,0.451119,0.237915,0.164703,0.098387,0.886033,0.195105,0.057048,0.066406,0.057576,0.126560,0.124842,0.075692,0.054259,0.078478,0.103280,0.233407,0.096866,0.183647,0.167837,0.630323,0.903196,0.263114,0.451997,0.328500,0.796389,0.568674,0.194768,0.328907,0.142780,1.017089,1.096360,0.268441,0.457560,0.258635,0.331288,0.793617,0.424691,0.305319,0.161519,0.749494,1.718858,0.541094,0.686293,0.223778,0.319098,0.677657,0.653050,0.276279,0.197032,1.048476,0.903086,0.446204,0.533519,0.229742
1768293056.318582,1768293056.318992,49.000000,0.000000,4349.487305,4332.563965,4306.025879,4345.512695,4312.692383,4323.974121,4323.077148,4320.769043,4318.077148,4304.230957,4533.717773,4546.282227,4414.871582,4491.410156,0.000000,2.000000,44.000000,,,,0.000000,4.000000,4.000000,4.000000,4.000000,4.000000,4.000000,4.000000,4.000000,4.000000,4.000000,4.000000,4.000000,4.000000,4.000000,100.000000,,,,,,,,,,,,,,,,,,,,,,,,,,,,,,,,,,,,,,,,,,,,,,,,,,,,,,,,,,,,,,,,,,,,,,,,,,,,,,,,,,,,,,,,,,,,,,,,,,,,,,,,,,,,,,,,,,,,,
1768293056.326390,1768293056.326700,50.000000,0.000000,4349.487305,4331.538574,4307.179688,4346.794922,4317.948730,4328.846191,4327.820313,4327.948730,4320.769043,4307.436035,4530.897461,4547.948730,4409.487305,4481.794922,0.000000,2.000000,44.000000,,,,0.000000,4.000000,4.000000,4.000000,4.000000,4.000000,4.000000,4.000000,4.000000,4.000000,4.000000,4.000000,4.000000,4.000000,4.000000,100.000000,,,,,,,,,,,,,,,,,,,,,,,,,,,,,,,,,,,,,,,,,,,,,,,,,,,,,,,,,,,,,,,,,,,,,,,,,,,,,,,,,,,,,,,,,,,,,,,,,,,,,,,,,,,,,,,,,,,,,
1768293056.334199,1768293056.334509,51.000000,0.000000,4349.871582,4332.820313,4301.410156,4341.794922,4321.025879,4327.692383,4323.333496,4329.743652,4323.205078,4308.717773,4525.384766,4537.307617,4399.871582,4470.769043,0.000000,2.000000,44.000000,,,,0.000000,4.000000,4.000000,4.000000,4.000000,4.000000,4.000000,4.000000,4.000000,4.000000,4.000000,4.000000,4.000000,4.000000,4.000000,100.000000,,,,,,,,,,,,,,,,,,,,,,,,,,,,,,,,,,,,,,,,,,,,,,,,,,,,,,,,,,,,,,,,,,,,,,,,,,,,,,,,,,,,,,,,,,,,,,,,,,,,,,,,,,,,,,,,,,,,,
1768293056.342007,1768293056.342517,52.000000,0.000000,4352.820313,4332.692383,4300.128418,4342.948730,4322.948730,4326.282227,4326.025879,4328.974121,4326.025879,4303.589844,4528.974121,4536.666504,4406.794922,4478.205078,0.000000,2.000000,44.000000,,,,0.000000,4.000000,4.000000,4.000000,4.000000,4.000000,4.000000,4.000000,4.000000,4.000000,4.000000,4.000000,4.000000,4.000000,4.000000,100.000000,,,,,,,,,,,,,,,,,,,,,,,,,,,,,,,,,,,,,,,,,,,,,,,,,,,,,,,,,,,,,,,,,,,,,,,,,,,,,,,,,,,,,,,,,,,,,,,,,,,,,,,,,,,,,,,,,,,,,
1768293056.349815,1768293056.350325,53.000000,0.000000,4351.153809,4330.384766,4303.077148,4346.282227,4322.179688,4329.615234,4328.589844,4331.282227,4327.820313,4303.846191,4527.820313,4543.461426,4417.563965,4481.922852,0.000000,2.000000,44.000000,,,,0.000000,4.000000,4.000000,4.000000,4.000000,4.000000,4.000000,4.000000,4.000000,4.000000,4.000000,4.000000,4.000000,4.000000,4.000000,100.000000,,,,,,,,,,,,,,,,,,,,,,,,,,,,,,,,,,,,,,,,,,,,,,,,,,,,,,,,,,,,,,,,,,,,,,,,,,,,,,,,,,,,,,,,,,,,,,,,,,,,,,,,,,,,,,,,,,,,,
1768293056.357624,1768293056.358034,54.000000,0.000000,4347.692383,4325.897461,4303.461426,4344.871582,4325.256348,4333.461426,4331.153809,4329.102539,4320.128418,4312.820313,4523.717773,4540.384766,4411.538574,4475.128418,0.000000,2.000000,44.000000,,,,0.000000,4.000000,4.000000,4.000000,4.000000,4.000000,4.000000,4.000000,4.000000,4.000000,4.000000,4.000000,4.000000,4.000000,4.000000,100.000000,,,,,,,,,,,,,,,,,,,,,,,,,,,,,,,,,,,,,,,,,,,,,,,,,,,,,,,,,,,,,,,,,,,,,,,,,,,,,,,,,,,,,,,,,,,,,,,,,,,,,,,,,,,,,,,,,,,,,
1768293056.365432,1768293056.365842,55.000000,0.000000,4348.205078,4325.641113,4301.153809,4340.769043,4323.205078,4333.333496,4331.922852,4324.743652,4314.358887,4311.410156,4522.563965,4533.846191,4401.794922,4472.563965,0.000000,2.000000,44.000000,,,,0.000000,4.000000,4.000000,4.000000,4.000000,4.000000,4.000000,4.000000,4.000000,4.000000,4.000000,4.000000,4.000000,4.000000,4.000000,100.000000,,,,,,,,,,,,,,,,,,,,,,,,,,,,,,,,,,,,,,,,,,,,,,,,,,,,,,,,,,,,,,,,,,,,,,,,,,,,,,,,,,,,,,,,,,,,,,,,,,,,,,,,,,,,,,,,,,,,,
1768293056.373241,1768293056.373451,56.000000,0.000000,4346.153809,4327.948730,4297.563965,4337.563965,4315.512695,4326.538574,4322.948730,4325.897461,4317.563965,4301.282227,4520.897461,4535.256348,4403.333496,4473.846191,0.000000,2.000000,44.000000,,,,0.000000,4.000000,4.000000,4.000000,4.000000,4.000000,4.000000,4.000000,4.000000,4.000000,4.000000,4.000000,4.000000,4.000000,4.000000,100.000000,,,,,,,,,,,,,,,,,,,,,,,,,,,,,,,,,,,,,,,,,,,,,,,,,,,,,,,,,,,,,,,,,,,,,,,,,,,,,,,,,,,,,,,,,,,,,,,,,,,,,,,,,,,,,,,,,,,,,
1768293056.381049,1768293056.381259,57.000000,0.000000,4341.410156,4325.000000,4298.846191,4337.820313,4315.256348,4325.641113,4324.487305,4326.538574,4318.205078,4300.769043,4523.333496,4538.333496,4414.102539,4477.436035,0.000000,2.000000,44.000000,,,,0.000000,4.000000,4.000000,4.000000,4.000000,4.000000,4.000000,4.000000,4.000000,4.000000,4.000000,4.000000,4.000000,4.000000,4.000000,100.000000,,,,,,,,,,,,,,,,,,,,,,,,,,,,,,,,,,,,,,,,,,,,,,,,,,,,,,,,,,,,,,,,,,,,,,,,,,,,,,,,,,,,,,,,,,,,,,,,,,,,,,,,,,,,,,,,,,,,,
1768293056.388857,1768293056.388968,58.000000,0.000000,4343.846191,4324.871582,4302.948730,4341.538574,4319.871582,4330.897461,4334.871582,4325.897461,4316.153809,4303.205078,4524.358887,4538.333496,4415.128418,4478.333496,0.000000,2.000000,44.000000,,,,0.000000,4.000000,4.000000,4.000000,4.000000,4.000000,4.000000,4.000000,4.000000,4.000000,4.000000,4.000000,4.000000,4.000000,4.000000,100.000000,,,,,,,,,,,,,,,,,,,,,,,,,,,,,,,,,,,,,,,,,,,,,,,,,,,,,,,,,,,,,,,,,,,,,,,,,,,,,,,,,,,,,,,,,,,,,,,,,,,,,,,,,,,,,,,,,,,,,
1768293056.396666,1768293056.396776,59.000000,0.000000,4346.153809,4330.256348,4304.487305,4342.692383,4320.000000,4327.051270,4329.615234,4325.769043,4315.000000,4298.717773,4518.974121,4535.000000,4404.102539,4475.512695,0.000000,2.000000,44.000000,,,,0.000000,4.000000,4.000000,4.000000,4.000000,4.000000,4.000000,4.000000,4.000000,4.000000,4.000000,4.000000,4.000000,4.000000,4.000000,100.000000,,,,,,,,,,,,,,,,,,,,,,,,,,,,,,,,,,,,,,,,,,,,,,,,,,,,,,,,,,,,,,,,,,,,,,,,,,,,,,,,,,,,,,,,,,,,,,,,,,,,,,,,,,,,,,,,,,,,,
1768293056.404474,1768293056.404785,60.000000,0.000000,4342.179688,4330.897461,4304.615234,4338.717773,4319.615234,4322.307617,4321.794922,4322.820313,4312.563965,4296.666504,4517.692383,4534.615234,4402.820313,4474.358887,0.000000,2.000000,44.000000,,,,0.000000,4.000000,4.000000,4.000000,4.000000,4.000000,4.000000,4.000000,4.000000,4.000000,4.000000,4.000000,4.000000,4.000000,4.000000,100.000000,,,,,,,,,,,,,,,,,,,,,,,,,,,,,,,,,,,,,,,,,,,,,,,,,,,,,,,,,,,,,,,,,,,,,,,,,,,,,,,,,,,,,,,,,,,,,,,,,,,,,,,,,,,,,,,,,,,,,
1768293056.412283,1768293056.412593,61.000000,0.000000,4340.384766,4327.563965,4301.922852,4336.538574,4323.077148,4326.794922,4327.563965,4327.051270,4317.307617,4301.282227,4523.205078,4537.307617,4412.948730,4475.128418,0.000000,2.000000,44.000000,,,,0.000000,4.000000,4.000000,4.000000,4.000000,4.000000,4.000000,4.000000,4.000000,4.000000,4.000000,4.000000,4.000000,4.000000,4.000000,100.000000,,,,,,,,,,,,,,,,,,,,,,,,,,,,,,,,,,,,,,,,,,,,,,,,,,,,,,,,,,,,,,,,,,,,,,,,,,,,,,,,,,,,,,,,,,,,,,,,,,,,,,,,,,,,,,,,,,,,,
1768293056.420091,1768293056.420502,62.000000,0.000000,4340.256348,4328.717773,4302.948730,4339.358887,4322.948730,4333.717773,4333.205078,4338.333496,4326.410156,4306.153809,4526.282227,4538.846191,4412.692383,4475.128418,0.000000,2.000000,44.000000,,,,0.000000,4.000000,4.000000,4.000000,4.000000,4.000000,4.000000,4.000000,4.000000,4.000000,4.000000,4.000000,4.000000,4.000000,4.000000,100.000000,,,,,,,,,,,,,,,,,,,,,,,,,,,,,,,,,,,,,,,,,,,,,,,,,,,,,,,,,,,,,,,,,,,,,,,,,,,,,,,,,,,,,,,,,,,,,,,,,,,,,,,,,,,,,,,,,,,,,
1768293056.427899,1768293056.428310,63.000000,0.000000,4342.436035,4331.153809,4305.256348,4342.563965,4323.974121,4334.871582,4331.153809,4336.025879,4325.384766,4301.025879,4523.333496,4539.615234,4405.000000,4476.282227,0.000000,2.000000,44.000000,,,,0.000000,4.000000,4.000000,4.000000,4.000000,4.000000,4.000000,4.000000,4.000000,4.000000,4.000000,4.000000,4.000000,4.000000,4.000000,100.000000,,,,,,,,,,,,,,,,,,,,,,,,,,,,,,,,,,,,,,,,,,,,,,,,,,,,,,,,,,,,,,,,,,,,,,,,,,,,,,,,,,,,,,,,,,,,,,,,,,,,,,,,,,,,,,,,,,,,,
1768293056.435708,1768293056.436318,64.000000,0.000000,4343.589844,4327.692383,4300.897461,4341.025879,4325.641113,4331.025879,4328.461426,4326.410156,4320.897461,4296.410156,4522.436035,4539.871582,4403.846191,4476.282227,1675.000000,2.000000,44.000000,,,,0.000000,4.000000,4.000000,4.000000,4.000000,4.000000,4.000000,4.000000,4.000000,4.000000,4.000000,4.000000,4.000000,4.000000,4.000000,100.000000,,,,,,,,,,,,,,,,,,,,,,,,,,,,,,,,,,,,,,,,,,,,,,,,0.858996,0.660759,0.415593,0.406245,0.149315,2.417494,0.434819,0.261153,0.202342,0.112955,0.132789,0.097483,0.119090,0.060563,0.034206,0.659189,0.420487,0.259366,0.151412,0.099126,0.776824,0.182970,0.074974,0.057557,0.058345,0.108636,0.128668,0.073426,0.062970,0.075742,0.093992,0.210497,0.109083,0.178954,0.166137,0.664112,0.997518,0.274198,0.460654,0.304226,0.745618,0.635083,0.219745,0.331162,0.128717,1.043673,1.109062,0.255509,0.460862,0.249756,0.300909,0.798541,0.462235,0.308099,0.149560,0.863865,1.791784,0.538391,0.705357,0.215815,0.346287,0.720237,0.756601,0.302915,0.205834,0.960983,0.892135,0.445945,0.562903,0.220938
1768293056.443516,1768293056.444127,65.000000,0.000000,4339.358887,4323.846191,4299.871582,4337.692383,4321.153809,4329.230957,4330.256348,4335.769043,4326.282227,4302.051270,4524.358887,4542.051270,4405.128418,4474.230957,4026.000000,2.000000,44.000000,,,,0.000000,4.000000,4.000000,4.000000,4.000000,4.000000,4.000000,4.000000,4.000000,4.000000,4.000000,4.000000,4.000000,4.000000,4.000000,100.000000,,,,,,,,,,,,,,,,,,,,,,,,,,,,,,,,,,,,,,,,,,,,,,,,,,,,,,,,,,,,,,,,,,,,,,,,,,,,,,,,,,,,,,,,,,,,,,,,,,,,,,,,,,,,,,,,,,,,,
1768293056.451325,1768293056.451935,66.000000,0.000000,4340.512695,4325.769043,4303.077148,4340.512695,4321.025879,4330.256348,4332.948730,4342.692383,4326.922852,4302.051270,4523.077148,4542.436035,4400.512695,4473.717773,3999.000000,2.000000,44.000000,,,,0.000000,4.000000,4.000000,4.000000,4.000000,4.000000,4.000000,4.000000,4.000000,4.000000,4.000000,4.000000,4.000000,4.000000,4.000000,100.000000,,,,,,,,,,,,,,,,,,,,,,,,,,,,,,,,,,,,,,,,,,,,,,,,,,,,,,,,,,,,,,,,,,,,,,,,,,,,,,,,,,,,,,,,,,,,,,,,,,,,,,,,,,,,,,,,,,,,,
1768293056.459133,1768293056.459744,67.000000,0.000000,4349.871582,4331.025879,4305.897461,4345.000000,4325.128418,4332.179688,4331.922852,4324.102539,4318.333496,4296.922852,4520.256348,4538.589844,4392.307617,4472.051270,3927.000000,2.000000,44.000000,,,,0.000000,4.000000,4.000000,4.000000,4.000000,4.000000,4.000000,4.000000,4.000000,4.000000,4.000000,4.000000,4.000000,4.000000,4.000000,100.000000,,,,,,,,,,,,,,,,,,,,,,,,,,,,,,,,,,,,,,,,,,,,,,,,,,,,,,,,,,,,,,,,,,,,,,,,,,,,,,,,,,,,,,,,,,,,,,,,,,,,,,,,,,,,,,,,,,,,,
1768293056.466942,1768293056.467752,68.000000,0.000000,4349.102539,4330.769043,4308.461426,4344.743652,4326.025879,4330.897461,4330.512695,4321.794922,4319.102539,4308.205078,4521.153809,4544.871582,4397.051270,4472.179688,3750.000000,2.000000,44.000000,,,,0.000000,4.000000,4.000000,4.000000,4.000000,4.000000,4.000000,4.000000,4.000000,4.000000,4.000000,4.000000,4.000000,4.000000,4.000000,100.000000,,,,,,,,,,,,,,,,,,,,,,,,,,,,,,,,,,,,,,,,,,,,,,,,,,,,,,,,,,,,,,,,,,,,,,,,,,,,,,,,,,,,,,,,,,,,,,,,,,,,,,,,,,,,,,,,,,,,,
1768293056.474750,1768293056.475560,69.000000,0.000000,4343.974121,4329.743652,4308.333496,4343.333496,4324.487305,4330.384766,4330.128418,4338.974121,4326.666504,4318.333496,4524.358887,4553.333496,4414.102539,4477.051270,2511.000000,2.000000,44.000000,,,,0.000000,4.000000,4.000000,4.000000,4.000000,4.000000,4.000000,4.000000,4.000000,4.000000,4.000000,4.000000,4.000000,4.000000,4.000000,100.000000,,,,,,,,,,,,,,,,,,,,,,,,,,,,,,,,,,,,,,,,,,,,,,,,,,,,,,,,,,,,,,,,,,,,,,,,,,,,,,,,,,,,,,,,,,,,,,,,,,,,,,,,,,,,,,,,,,,,,
1768293056.482559,1768293056.483269,70.000000,0.000000,4348.461426,4334.102539,4307.051270,4343.589844,4325.641113,4334.102539,4329.743652,4332.820313,4323.974121,4310.897461,4524.358887,4544.230957,4414.358887,4476.922852,2533.000000,2.000000,44.000000,,,,0.000000,4.000000,4.000000,4.000000,4.000000,4.000000,4.000000,4.000000,4.000000,4.000000,4.000000,4.000000,4.000000,4.000000,4.000000,100.000000,,,,,,,,,,,,,,,,,,,,,,,,,,,,,,,,,,,,,,,,,,,,,,,,,,,,,,,,,,,,,,,,,,,,,,,,,,,,,,,,,,,,,,,,,,,,,,,,,,,,,,,,,,,,,,,,,,,,,
1768293056.490367,1768293056.491077,71.000000,0.000000,4350.128418,4336.153809,4305.256348,4346.794922,4327.051270,4334.358887,4331.025879,4322.692383,4320.000000,4309.358887,4522.820313,4536.025879,4404.230957,4472.820313,4066.000000,2.000000,44.000000,,,,0.000000,4.000000,4.000000,4.000000,4.000000,4.000000,4.000000,4.000000,4.000000,4.000000,4.000000,4.000000,4.000000,4.000000,4.000000,100.000000,,,,,,,,,,,,,,,,,,,,,,,,,,,,,,,,,,,,,,,,,,,,,,,,,,,,,,,,,,,,,,,,,,,,,,,,,,,,,,,,,,,,,,,,,,,,,,,,,,,,,,,,,,,,,,,,,,,,,
1768293056.498176,1768293056.498686,72.000000,0.000000,4344.358887,4328.974121,4305.256348,4346.666504,4324.743652,4329.615234,4332.436035,4331.025879,4325.256348,4312.948730,4521.538574,4541.410156,4409.615234,4473.846191,3216.000000,2.000000,44.000000,,,,0.000000,4.000000,4.000000,4.000000,4.000000,4.000000,4.000000,4.000000,4.000000,4.000000,4.000000,4.000000,4.000000,4.000000,4.000000,100.000000,,,,,,,,,,,,,,,,,,,,,,,,,,,,,,,,,,,,,,,,,,,,,,,,,,,,,,,,,,,,,,,,,,,,,,,,,,,,,,,,,,,,,,,,,,,,,,,,,,,,,,,,,,,,,,,,,,,,,
1768293056.505984,1768293056.506494,73.000000,0.000000,4345.000000,4324.102539,4304.230957,4342.051270,4323.333496,4330.256348,4328.461426,4336.025879,4328.846191,4309.358887,4524.615234,4541.794922,4415.897461,4475.897461,3842.000000,2.000000,44.000000,,,,0.000000,4.000000,4.000000,4.000000,4.000000,4.000000,4.000000,4.000000,4.000000,4.000000,4.000000,4.000000,4.000000,4.000000,4.000000,100.000000,,,,,,,,,,,,,,,,,,,,,,,,,,,,,,,,,,,,,,,,,,,,,,,,,,,,,,,,,,,,,,,,,,,,,,,,,,,,,,,,,,,,,,,,,,,,,,,,,,,,,,,,,,,,,,,,,,,,,
1768293056.513792,1768293056.514203,74.000000,0.000000,4351.153809,4329.230957,4301.666504,4344.487305,4325.128418,4333.589844,4326.153809,4332.307617,4326.922852,4309.230957,4527.436035,4541.666504,4408.333496,4473.717773,4338.000000,2.000000,44.000000,,,,0.000000,4.000000,4.000000,4.000000,4.000000,4.000000,4.000000,4.000000,4.000000,4.000000,4.000000,4.000000,4.000000,4.000000,4.000000,100.000000,,,,,,,,,,,,,,,,,,,,,,,,,,,,,,,,,,,,,,,,,,,,,,,,,,,,,,,,,,,,,,,,,,,,,,,,,,,,,,,,,,,,,,,,,,,,,,,,,,,,,,,,,,,,,,,,,,,,,
1768293056.521601,1768293056.522011,75.000000,0.000000,4350.256348,4330.256348,4306.153809,4347.820313,4325.897461,4330.641113,4333.077148,4340.000000,4329.487305,4317.436035,4527.307617,4552.820313,4407.307617,4472.436035,4761.000000,2.000000,44.000000,,,,0.000000,4.000000,4.000000,4.000000,4.000000,4.000000,4.000000,4.000000,4.000000,4.000000,4.000000,4.000000,4.000000,4.000000,4.000000,100.000000,,,,,,,,,,,,,,,,,,,,,,,,,,,,,,,,,,,,,,,,,,,,,,,,,,,,,,,,,,,,,,,,,,,,,,,,,,,,,,,,,,,,,,,,,,,,,,,,,,,,,,,,,,,,,,,,,,,,,
1768293056.529409,1768293056.530020,76.000000,0.000000,4344.358887,4325.512695,4307.692383,4344.743652,4323.461426,4327.307617,4335.384766,4343.461426,4330.512695,4313.077148,4531.282227,4554.615234,4412.563965,4475.128418,4335.000000,2.000000,44.000000,,,,0.000000,4.000000,4.000000,4.000000,4.000000,4.000000,4.000000,4.000000,4.000000,4.000000,4.000000,4.000000,4.000000,4.000000,4.000000,100.000000,,,,,,,,,,,,,,,,,,,,,,,,,,,,,,,,,,,,,,,,,,,,,,,,,,,,,,,,,,,,,,,,,,,,,,,,,,,,,,,,,,,,,,,,,,,,,,,,,,,,,,,,,,,,,,,,,,,,,
1768293056.537218,1768293056.537828,77.000000,0.000000,4345.384766,4323.333496,4304.102539,4341.666504,4326.282227,4329.102539,4330.769043,4332.179688,4322.051270,4299.871582,4529.615234,4545.384766,4408.333496,4475.000000,5694.000000,2.000000,44.000000,,,,0.000000,4.000000,4.000000,4.000000,4.000000,4.000000,4.000000,4.000000,4.000000,4.000000,4.000000,4.000000,4.000000,4.000000,4.000000,100.000000,,,,,,,,,,,,,,,,,,,,,,,,,,,,,,,,,,,,,,,,,,,,,,,,,,,,,,,,,,,,,,,,,,,,,,,,,,,,,,,,,,,,,,,,,,,,,,,,,,,,,,,,,,,,,,,,,,,,,
1768293056.545026,1768293056.545736,78.000000,0.000000,4341.922852,4315.641113,4304.230957,4334.487305,4326.410156,4328.077148,4328.333496,4324.102539,4315.256348,4303.205078,4516.153809,4536.794922,4397.563965,4464.102539,4338.000000,2.000000,44.000000,,,,0.000000,4.000000,4.000000,4.000000,4.000000,4.000000,4.000000,4.000000,4.000000,4.000000,4.000000,4.000000,4.000000,4.000000,4.000000,100.000000,,,,,,,,,,,,,,,,,,,,,,,,,,,,,,,,,,,,,,,,,,,,,,,,,,,,,,,,,,,,,,,,,,,,,,,,,,,,,,,,,,,,,,,,,,,,,,,,,,,,,,,,,,,,,,,,,,,,,
1768293056.552834,1768293056.553545,79.000000,0.000000,4326.666504,4301.410156,4297.692383,4321.153809,4315.897461,4320.384766,4322.307617,4324.358887,4316.410156,4312.307617,4508.589844,4527.563965,4391.410156,4450.897461,4761.000000,2.000000,44.000000,,,,0.000000,4.000000,4.000000,4.000000,4.000000,4.000000,4.000000,4.000000,4.000000,4.000000,4.000000,4.000000,4.000000,4.000000,4.000000,100.000000,,,,,,,,,,,,,,,,,,,,,,,,,,,,,,,,,,,,,,,,,,,,,,,,,,,,,,,,,,,,,,,,,,,,,,,,,,,,,,,,,,,,,,,,,,,,,,,,,,,,,,,,,,,,,,,,,,,,,
1768293056.560643,1768293056.561153,80.000000,0.000000,4334.615234,4309.743652,4297.051270,4331.153809,4322.692383,4323.846191,4327.563965,4339.230957,4327.563965,4321.922852,4527.179688,4539.102539,4405.000000,4466.153809,4335.000000,2.000000,44.000000,,,,0.000000,4.000000,4.000000,4.000000,4.000000,4.000000,4.000000,4.000000,4.000000,4.000000,4.000000,4.000000,4.000000,4.000000,4.000000,100.000000,1.000000,50.000000,4.000000,4.000000,1.000000,4.000000,4.000000,1.000000,4.000000,4.000000,4.000000,4.000000,4.000000,4.000000,4.000000,4.000000,,,,,,,,,,,,,,,,,,,,,,,,,,,,,,,,0.880875,0.635908,0.396539,0.357154,0.150901,2.449164,0.407515,0.290994,0.186773,0.114849,0.153351,0.082052,0.131497,0.057966,0.036961,0.668413,0.381707,0.298490,0.138161,0.100536,0.686613,0.168038,0.103103,0.055715,0.062436,0.093076,0.129957,0.084087,0.071045,0.070430,0.091256,0.181016,0.136411,0.165050,0.166042,0.696860,1.050503,0.302851,0.432762,0.273112,0.702054,0.662186,0.241763,0.305520,0.112191,1.122994,1.097655,0.256237,0.442847,0.243430,0.307792,0.752524,0.481805,0.299313,0.139306,1.128144,1.758325,0.540326,0.677411,0.212545,0.398781,0.718592,0.801210,0.324973,0.207630,0.999722,0.836856,0.437061,0.554924,0.209327
1768293056.568451,1768293056.568962,81.000000,0.000000,4367.051270,4338.333496,4310.769043,4360.000000,4344.358887,4338.589844,4340.256348,4358.846191,4343.974121,4340.512695,4553.846191,4570.897461,4432.692383,4498.205078,5694.000000,2.000000,44.000000,,,,0.000000,4.000000,4.000000,4.000000,4.000000,4.000000,4.000000,4.000000,4.000000,4.000000,4.000000,4.000000,4.000000,4.000000,4.000000,100.000000,,,,,,,,,,,,,,,,,,,,,,,,,,,,,,,,,,,,,,,,,,,,,,,,,,,,,,,,,,,,,,,,,,,,,,,,,,,,,,,,,,,,,,,,,,,,,,,,,,,,,,,,,,,,,,,,,,,,,
1768293056.576259,1768293056.576670,82.000000,0.000000,4369.615234,4340.000000,4315.641113,4357.948730,4340.000000,4338.333496,4337.436035,4359.615234,4346.538574,4346.922852,4553.077148,4574.358887,4436.538574,4494.358887,4338.000000,2.000000,44.000000,,,,0.000000,4.000000,4.000000,4.000000,4.000000,4.000000,4.000000,4.000000,4.000000,4.000000,4.000000,4.000000,4.000000,4.000000,4.000000,100.000000,,,,,,,,,,,,,,,,,,,,,,,,,,,,,,,,,,,,,,,,,,,,,,,,,,,,,,,,,,,,,,,,,,,,,,,,,,,,,,,,,,,,,,,,,,,,,,,,,,,,,,,,,,,,,,,,,,,,,
1768293056.584068,1768293056.584479,83.000000,0.000000,4346.410156,4321.666504,4306.922852,4338.077148,4323.589844,4329.358887,4329.358887,4342.436035,4331.410156,4326.025879,4538.974121,4549.358887,4416.025879,4472.051270,4761.000000,2.000000,44.000000,,,,0.000000,4.000000,4.000000,4.000000,4.000000,4.000000,4.000000,4.000000,4.000000,4.000000,4.000000,4.000000,4.000000,4.000000,4.000000,100.000000,,,,,,,,,,,,,,,,,,,,,,,,,,,,,,,,,,,,,,,,,,,,,,,,,,,,,,,,,,,,,,,,,,,,,,,,,,,,,,,,,,,,,,,,,,,,,,,,,,,,,,,,,,,,,,,,,,,,,
1768293056.591876,1768293056.592487,84.000000,0.000000,4345.769043,4320.897461,4300.641113,4340.384766,4326.410156,4331.410156,4329.358887,4332.307617,4322.179688,4311.922852,4531.282227,4543.333496,4408.974121,4478.846191,4335.000000,2.000000,44.000000,,,,0.000000,4.000000,4.000000,4.000000,4.000000,4.000000,4.000000,4.000000,4.000000,4.000000,4.000000,4.000000,4.000000,4.000000,4.000000,100.000000,,,,,,,,,,,,,,,,,,,,,,,,,,,,,,,,,,,,,,,,,,,,,,,,,,,,,,,,,,,,,,,,,,,,,,,,,,,,,,,,,,,,,,,,,,,,,,,,,,,,,,,,,,,,,,,,,,,,,
1768293056.599685,1768293056.600296,85.000000,0.000000,4357.820313,4326.410156,4306.794922,4348.589844,4329.871582,4335.769043,4334.743652,4338.717773,4328.205078,4317.436035,4529.487305,4554.743652,4416.282227,4487.692383,5694.000000,2.000000,44.000000,,,,0.000000,4.000000,4.000000,4.000000,4.000000,4.000000,4.000000,4.000000,4.000000,4.000000,4.000000,4.000000,4.000000,4.000000,4.000000,100.000000,,,,,,,,,,,,,,,,,,,,,,,,,,,,,,,,,,,,,,,,,,,,,,,,,,,,,,,,,,,,,,,,,,,,,,,,,,,,,,,,,,,,,,,,,,,,,,,,,,,,,,,,,,,,,,,,,,,,,
1768293056.607493,1768293056.608204,86.000000,0.000000,4357.948730,4325.000000,4310.384766,4344.615234,4325.384766,4332.820313,4337.820313,4340.897461,4330.769043,4322.563965,4532.307617,4556.794922,4415.512695,4481.025879,4338.000000,2.000000,44.000000,,,,0.000000,4.000000,4.000000,4.000000,4.000000,4.000000,4.000000,4.000000,4.000000,4.000000,4.000000,4.000000,4.000000,4.000000,4.000000,100.000000,,,,,,,,,,,,,,,,,,,,,,,,,,,,,,,,,,,,,,,,,,,,,,,,,,,,,,,,,,,,,,,,,,,,,,,,,,,,,,,,,,,,,,,,,,,,,,,,,,,,,,,,,,,,,,,,,,,,,
1768293056.615302,1768293056.616012,87.000000,0.000000,4356.025879,4326.538574,4304.358887,4342.948730,4326.410156,4329.743652,4332.948730,4334.230957,4325.641113,4323.461426,4535.512695,4550.641113,4411.666504,4482.563965,4761.000000,2.000000,44.000000,,,,0.000000,4.000000,4.000000,4.000000,4.000000,4.000000,4.000000,4.000000,4.000000,4.000000,4.000000,4.000000,4.000000,4.000000,4.000000,100.000000,,,,,,,,,,,,,,,,,,,,,,,,,,,,,,,,,,,,,,,,,,,,,,,,,,,,,,,,,,,,,,,,,,,,,,,,,,,,,,,,,,,,,,,,,,,,,,,,,,,,,,,,,,,,,,,,,,,,,
1768293056.623110,1768293056.624021,88.000000,0.000000,4358.589844,4328.077148,4302.948730,4345.384766,4327.179688,4330.384766,4331.153809,4330.128418,4323.717773,4313.589844,4528.589844,4543.717773,4411.282227,4484.358887,4335.000000,2.000000,44.000000,,,,0.000000,4.000000,4.000000,4.000000,4.000000,4.000000,4.000000,4.000000,4.000000,4.000000,4.000000,4.000000,4.000000,4.000000,4.000000,100.000000,,,,,,,,,,,,,,,,,,,,,,,,,,,,,,,,,,,,,,,,,,,,,,,,,,,,,,,,,,,,,,,,,,,,,,,,,,,,,,,,,,,,,,,,,,,,,,,,,,,,,,,,,,,,,,,,,,,,,
1768293056.630919,1768293056.631829,89.000000,0.000000,4359.487305,4323.974121,4304.871582,4344.230957,4325.000000,4329.487305,4333.846191,4333.717773,4326.153809,4307.563965,4521.794922,4543.974121,4410.000000,4474.615234,5694.000000,2.000000,44.000000,,,,0.000000,4.000000,4.000000,4.000000,4.000000,4.000000,4.000000,4.000000,4.000000,4.000000,4.000000,4.000000,4.000000,4.000000,4.000000,100.000000,,,,,,,,,,,,,,,,,,,,,,,,,,,,,,,,,,,,,,,,,,,,,,,,,,,,,,,,,,,,,,,,,,,,,,,,,,,,,,,,,,,,,,,,,,,,,,,,,,,,,,,,,,,,,,,,,,,,,
1768293056.638727,1768293056.639538,90.000000,0.000000,4352.948730,4318.974121,4304.358887,4341.922852,4325.000000,4327.692383,4325.769043,4326.410156,4323.589844,4317.307617,4522.820313,4542.563965,4409.743652,4472.948730,4338.000000,2.000000,44.000000,,,,0.000000,4.000000,4.000000,4.000000,4.000000,4.000000,4.000000,4.000000,4.000000,4.000000,4.000000,4.000000,4.000000,4.000000,4.000000,100.000000,,,,,,,,,,,,,,,,,,,,,,,,,,,,,,,,,,,,,,,,,,,,,,,,,,,,,,,,,,,,,,,,,,,,,,,,,,,,,,,,,,,,,,,,,,,,,,,,,,,,,,,,,,,,,,,,,,,,,
1768293056.646536,1768293056.647346,91.000000,0.000000,4348.846191,4317.307617,4302.948730,4336.666504,4320.897461,4323.461426,4314.230957,4309.102539,4312.948730,4318.846191,4519.615234,4529.615234,4411.666504,4477.820313,4761.000000,2.000000,44.000000,,,,0.000000,4.000000,4.000000,4.000000,4.000000,4.000000,4.000000,4.000000,4.000000,4.000000,4.000000,4.000000,4.000000,4.000000,4.000000,100.000000,,,,,,,,,,,,,,,,,,,,,,,,,,,,,,,,,,,,,,,,,,,,,,,,,,,,,,,,,,,,,,,,,,,,,,,,,,,,,,,,,,,,,,,,,,,,,,,,,,,,,,,,,,,,,,,,,,,,,
1768293056.654344,1768293056.654955,92.000000,0.000000,4354.871582,4323.461426,4300.641113,4336.794922,4317.692383,4320.641113,4316.410156,4308.717773,4307.307617,4311.025879,4514.615234,4524.487305,4413.205078,4475.000000,4335.000000,2.000000,44.000000,,,,0.000000,4.000000,4.000000,4.000000,4.000000,4.000000,4.000000,4.000000,4.000000,4.000000,4.000000,4.000000,4.000000,4.000000,4.000000,100.000000,,,,,,,,,,,,,,,,,,,,,,,,,,,,,,,,,,,,,,,,,,,,,,,,,,,,,,,,,,,,,,,,,,,,,,,,,,,,,,,,,,,,,,,,,,,,,,,,,,,,,,,,,,,,,,,,,,,,,
1768293056.662152,1768293056.662763,93.000000,0.000000,4353.846191,4325.128418,4301.538574,4339.615234,4319.615234,4325.000000,4325.000000,4320.128418,4313.846191,4315.000000,4517.179688,4534.358887,4410.897461,4475.512695,5694.000000,2.000000,44.000000,,,,0.000000,4.000000,4.000000,4.000000,4.000000,4.000000,4.000000,4.000000,4.000000,4.000000,4.000000,4.000000,4.000000,4.000000,4.000000,100.000000,,,,,,,,,,,,,,,,,,,,,,,,,,,,,,,,,,,,,,,,,,,,,,,,,,,,,,,,,,,,,,,,,,,,,,,,,,,,,,,,,,,,,,,,,,,,,,,,,,,,,,,,,,,,,,,,,,,,,
1768293056.669961,1768293056.670472,94.000000,0.000000,4342.948730,4317.179688,4303.205078,4335.128418,4321.410156,4327.563965,4324.102539,4324.358887,4319.743652,4319.615234,4520.000000,4538.461426,4406.153809,4476.794922,4338.000000,2.000000,44.000000,,,,0.000000,4.000000,4.000000,4.000000,4.000000,4.000000,4.000000,4.000000,4.000000,4.000000,4.000000,4.000000,4.000000,4.000000,4.000000,100.000000,,,,,,,,,,,,,,,,,,,,,,,,,,,,,,,,,,,,,,,,,,,,,,,,,,,,,,,,,,,,,,,,,,,,,,,,,,,,,,,,,,,,,,,,,,,,,,,,,,,,,,,,,,,,,,,,,,,,,
1768293056.677769,1768293056.678280,95.000000,0.000000,4340.512695,4318.077148,4302.692383,4335.128418,4321.410156,4330.128418,4325.384766,4325.897461,4316.538574,4309.743652,4518.333496,4535.769043,4408.589844,4469.487305,4761.000000,2.000000,44.000000,,,,0.000000,4.000000,4.000000,4.000000,4.000000,4.000000,4.000000,4.000000,4.000000,4.000000,4.000000,4.000000,4.000000,4.000000,4.000000,100.000000,,,,,,,,,,,,,,,,,,,,,,,,,,,,,,,,,,,,,,,,,,,,,,,,,,,,,,,,,,,,,,,,,,,,,,,,,,,,,,,,,,,,,,,,,,,,,,,,,,,,,,,,,,,,,,,,,,,,,
1768293056.685578,1768293056.685889,96.000000,0.000000,4342.307617,4326.922852,4300.000000,4338.461426,4318.461426,4329.358887,4330.769043,4323.974121,4312.436035,4305.256348,4517.820313,4534.615234,4412.692383,4470.384766,4335.000000,2.000000,44.000000,,,,0.000000,4.000000,4.000000,4.000000,4.000000,4.000000,4.000000,4.000000,4.000000,4.000000,4.000000,4.000000,4.000000,4.000000,4.000000,100.000000,,,,,,,,,,,,,,,,,,,,,,,,,,,,,,,,,,,,,,,,,,,,,,,,1.044725,0.613535,0.383061,0.311751,0.158987,2.386132,0.373704,0.329693,0.178801,0.124606,0.177141,0.074129,0.146317,0.058758,0.043580,0.660084,0.347925,0.350253,0.128561,0.102895,0.631714,0.153694,0.137252,0.062793,0.068366,0.076542,0.128771,0.109487,0.077521,0.064667,0.091505,0.157148,0.174239,0.150737,0.167672,0.725717,1.047742,0.342980,0.379389,0.244290,0.690734,0.641089,0.261818,0.260788,0.096850,1.245332,1.076534,0.270135,0.403629,0.241734,0.375944,0.661981,0.480887,0.283426,0.133474,1.541742,1.632703,0.555165,0.618817,0.209965,0.501732,0.680091,0.773410,0.338749,0.205253,1.242813,0.744134,0.415210,0.513820,0.198443
1768293056.693386,1768293056.693697,97.000000,0.000000,4337.692383,4329.102539,4295.128418,4332.563965,4313.077148,4323.846191,4323.589844,4315.897461,4311.153809,4306.666504,4518.589844,4528.205078,4409.102539,4473.461426,5694.000000,2.000000,44.000000,,,,0.000000,4.000000,4.000000,4.000000,4.000000,4.000000,4.000000,4.000000,4.000000,4.000000,4.000000,4.000000,4.000000,4.000000,4.000000,100.000000,,,,,,,,,,,,,,,,,,,,,,,,,,,,,,,,,,,,,,,,,,,,,,,,,,,,,,,,,,,,,,,,,,,,,,,,,,,,,,,,,,,,,,,,,,,,,,,,,,,,,,,,,,,,,,,,,,,,,
1768293056.701194,1768293056.701406,98.000000,0.000000,4334.230957,4330.641113,4296.025879,4327.436035,4308.589844,4322.692383,4316.410156,4311.922852,4309.615234,4297.820313,4516.922852,4520.641113,4406.410156,4463.717773,4338.000000,2.000000,44.000000,,,,0.000000,4.000000,4.000000,4.000000,4.000000,4.000000,4.000000,4.000000,4.000000,4.000000,4.000000,4.000000,4.000000,4.000000,4.000000,100.000000,,,,,,,,,,,,,,,,,,,,,,,,,,,,,,,,,,,,,,,,,,,,,,,,,,,,,,,,,,,,,,,,,,,,,,,,,,,,,,,,,,,,,,,,,,,,,,,,,,,,,,,,,,,,,,,,,,,,,
1768293056.709003,1768293056.709214,99.000000,0.000000,4334.230957,4338.333496,4299.743652,4332.820313,4307.179688,4321.666504,4319.230957,4313.717773,4311.922852,4286.922852,4516.922852,4523.205078,4410.000000,4463.205078,4761.000000,2.000000,44.000000,,,,0.000000,4.000000,4.000000,4.000000,4.000000,4.000000,4.000000,4.000000,4.000000,4.000000,4.000000,4.000000,4.000000,4.000000,4.000000,100.000000,,,,,,,,,,,,,,,,,,,,,,,,,,,,,,,,,,,,,,,,,,,,,,,,,,,,,,,,,,,,,,,,,,,,,,,,,,,,,,,,,,,,,,,,,,,,,,,,,,,,,,,,,,,,,,,,,,,,,
1768293056.716811,1768293056.717223,100.000000,0.000000,4339.871582,4345.897461,4300.641113,4340.641113,4308.077148,4321.153809,4324.871582,4317.051270,4316.794922,4295.769043,4524.487305,4528.846191,4412.436035,4471.410156,4335.000000,2.000000,44.000000,,,,0.000000,4.000000,4.000000,4.000000,4.000000,4.000000,4.000000,4.000000,4.000000,4.000000,4.000000,4.000000,4.000000,4.000000,4.000000,100.000000,,,,,,,,,,,,,,,,,,,,,,,,,,,,,,,,,,,,,,,,,,,,,,,,,,,,,,,,,,,,,,,,,,,,,,,,,,,,,,,,,,,,,,,,,,,,,,,,,,,,,,,,,,,,,,,,,,,,,
1768293056.724620,1768293056.725031,101.000000,0.000000,4341.153809,4345.256348,4299.871582,4340.897461,4306.922852,4323.333496,4323.589844,4316.666504,4316.153809,4309.871582,4526.922852,4526.538574,4412.563965,4466.538574,5694.000000,2.000000,44.000000,,,,0.000000,4.000000,4.000000,4.000000,4.000000,4.000000,4.000000,4.000000,4.000000,4.000000,4.000000,4.000000,4.000000,4.000000,4.000000,100.000000,,,,,,,,,,,,,,,,,,,,,,,,,,,,,,,,,,,,,,,,,,,,,,,,,,,,,,,,,,,,,,,,,,,,,,,,,,,,,,,,,,,,,,,,,,,,,,,,,,,,,,,,,,,,,,,,,,,,,
1768293056.732428,1768293056.732939,102.000000,0.000000,4332.436035,4344.487305,4299.487305,4336.153809,4305.897461,4325.000000,4321.666504,4313.846191,4313.589844,4304.358887,4522.436035,4522.179688,4415.384766,4461.410156,4338.000000,2.000000,44.000000,,,,0.000000,4.000000,4.000000,4.000000,4.000000,4.000000,4.000000,4.000000,4.000000,4.000000,4.000000,4.000000,4.000000,4.000000,4.000000,100.000000,,,,,,,,,,,,,,,,,,,,,,,,,,,,,,,,,,,,,,,,,,,,,,,,,,,,,,,,,,,,,,,,,,,,,,,,,,,,,,,,,,,,,,,,,,,,,,,,,,,,,,,,,,,,,,,,,,,,,
1768293056.740236,1768293056.740748,103.000000,0.000000,4328.461426,4351.025879,4304.487305,4336.153809,4304.743652,4325.769043,4326.666504,4320.128418,4318.333496,4295.128418,4523.077148,4524.615234,4415.512695,4465.384766,4761.000000,2.000000,44.000000,,,,0.000000,4.000000,4.000000,4.000000,4.000000,4.000000,4.000000,4.000000,4.000000,4.000000,4.000000,4.000000,4.000000,4.000000,4.000000,100.000000,,,,,,,,,,,,,,,,,,,,,,,,,,,,,,,,,,,,,,,,,,,,,,,,,,,,,,,,,,,,,,,,,,,,,,,,,,,,,,,,,,,,,,,,,,,,,,,,,,,,,,,,,,,,,,,,,,,,,
1768293056.748045,1768293056.748756,104.000000,0.000000,4332.307617,4352.820313,4304.102539,4342.692383,4302.051270,4325.897461,4324.487305,4326.538574,4322.820313,4298.077148,4523.461426,4526.153809,4412.948730,4466.538574,4335.000000,2.000000,44.000000,,,,0.000000,4.000000,4.000000,4.000000,4.000000,4.000000,4.000000,4.000000,4.000000,4.000000,4.000000,4.000000,4.000000,4.000000,4.000000,100.000000,,,,,,,,,,,,,,,,,,,,,,,,,,,,,,,,,,,,,,,,,,,,,,,,,,,,,,,,,,,,,,,,,,,,,,,,,,,,,,,,,,,,,,,,,,,,,,,,,,,,,,,,,,,,,,,,,,,,,
1768293056.755853,1768293056.756564,105.000000,0.000000,4334.102539,4346.153809,4299.871582,4342.948730,4301.666504,4325.128418,4320.641113,4323.589844,4322.692383,4297.948730,4521.922852,4523.717773,4414.871582,4470.641113,5694.000000,2.000000,44.000000,,,,0.000000,4.000000,4.000000,4.000000,4.000000,4.000000,4.000000,4.000000,4.000000,4.000000,4.000000,4.000000,4.000000,4.000000,4.000000,100.000000,,,,,,,,,,,,,,,,,,,,,,,,,,,,,,,,,,,,,,,,,,,,,,,,,,,,,,,,,,,,,,,,,,,,,,,,,,,,,,,,,,,,,,,,,,,,,,,,,,,,,,,,,,,,,,,,,,,,,
1768293056.763662,1768293056.764273,106.000000,0.000000,4329.871582,4340.897461,4301.922852,4336.410156,4301.025879,4325.641113,4324.615234,4325.000000,4324.487305,4294.230957,4523.846191,4525.641113,4413.333496,4476.153809,4338.000000,2.000000,44.000000,,,,0.000000,4.000000,4.000000,4.000000,4.000000,4.000000,4.000000,4.000000,4.000000,4.000000,4.000000,4.000000,4.000000,4.000000,4.000000,100.000000,,,,,,,,,,,,,,,,,,,,,,,,,,,,,,,,,,,,,,,,,,,,,,,,,,,,,,,,,,,,,,,,,,,,,,,,,,,,,,,,,,,,,,,,,,,,,,,,,,,,,,,,,,,,,,,,,,,,,
1768293056.771470,1768293056.772081,107.000000,0.000000,4330.897461,4343.974121,4301.922852,4339.230957,4301.153809,4328.333496,4325.897461,4329.230957,4326.794922,4297.820313,4526.410156,4532.563965,4409.615234,4474.102539,4761.000000,2.000000,44.000000,,,,0.000000,4.000000,4.000000,4.000000,4.000000,4.000000,4.000000,4.000000,4.000000,4.000000,4.000000,4.000000,4.000000,4.000000,4.000000,100.000000,,,,,,,,,,,,,,,,,,,,,,,,,,,,,,,,,,,,,,,,,,,,,,,,,,,,,,,,,,,,,,,,,,,,,,,,,,,,,,,,,,,,,,,,,,,,,,,,,,,,,,,,,,,,,,,,,,,,,
1768293056.779279,1768293056.779690,108.000000,0.000000,4337.692383,4349.102539,4304.871582,4347.051270,4306.922852,4332.051270,4326.794922,4326.538574,4327.051270,4297.179688,4528.205078,4539.102539,4415.384766,4477.436035,4335.000000,2.000000,44.000000,,,,0.000000,4.000000,4.000000,4.000000,4.000000,4.000000,4.000000,4.000000,4.000000,4.000000,4.000000,4.000000,4.000000,4.000000,4.000000,100.000000,,,,,,,,,,,,,,,,,,,,,,,,,,,,,,,,,,,,,,,,,,,,,,,,,,,,,,,,,,,,,,,,,,,,,,,,,,,,,,,,,,,,,,,,,,,,,,,,,,,,,,,,,,,,,,,,,,,,,
1768293056.787087,1768293056.787499,109.000000,0.000000,4341.025879,4347.563965,4309.358887,4347.563965,4311.025879,4335.256348,4331.282227,4330.641113,4327.948730,4298.717773,4533.077148,4542.307617,4421.922852,4482.179688,5694.000000,2.000000,44.000000,,,,0.000000,4.000000,4.000000,4.000000,4.000000,4.000000,4.000000,4.000000,4.000000,4.000000,4.000000,4.000000,4.000000,4.000000,4.000000,100.000000,,,,,,,,,,,,,,,,,,,,,,,,,,,,,,,,,,,,,,,,,,,,,,,,,,,,,,,,,,,,,,,,,,,,,,,,,,,,,,,,,,,,,,,,,,,,,,,,,,,,,,,,,,,,,,,,,,,,,
1768293056.794896,1768293056.795407,110.000000,0.000000,4340.128418,4341.666504,4306.410156,4341.282227,4306.794922,4329.102539,4325.128418,4332.820313,4327.307617,4314.102539,4532.307617,4539.871582,4416.538574,4476.666504,4338.000000,2.000000,44.000000,,,,0.000000,4.000000,4.000000,4.000000,4.000000,4.000000,4.000000,4.000000,4.000000,4.000000,4.000000,4.000000,4.000000,4.000000,4.000000,100.000000,,,,,,,,,,,,,,,,,,,,,,,,,,,,,,,,,,,,,,,,,,,,,,,,,,,,,,,,,,,,,,,,,,,,,,,,,,,,,,,,,,,,,,,,,,,,,,,,,,,,,,,,,,,,,,,,,,,,,
1768293056.802704,1768293056.803215,111.000000,0.000000,4338.077148,4337.307617,4306.538574,4338.974121,4302.051270,4322.563965,4315.769043,4320.000000,4322.692383,4315.128418,4525.128418,4536.410156,4410.769043,4474.358887,4761.000000,2.000000,44.000000,,,,0.000000,4.000000,4.000000,4.000000,4.000000,4.000000,4.000000,4.000000,4.000000,4.000000,4.000000,4.000000,4.000000,4.000000,4.000000,100.000000,,,,,,,,,,,,,,,,,,,,,,,,,,,,,,,,,,,,,,,,,,,,,,,,,,,,,,,,,,,,,,,,,,,,,,,,,,,,,,,,,,,,,,,,,,,,,,,,,,,,,,,,,,,,,,,,,,,,,
1768293056.810512,1768293056.811224,112.000000,0.000000,4338.717773,4338.461426,4309.230957,4343.077148,4305.256348,4328.205078,4317.820313,4315.769043,4321.025879,4301.282227,4524.615234,4537.436035,4413.846191,4481.794922,4335.000000,2.000000,44.000000,,,,0.000000,4.000000,4.000000,4.000000,4.000000,4.000000,4.000000,4.000000,4.000000,4.000000,4.000000,4.000000,4.000000,4.000000,4.000000,100.000000,,,,,,,,,,,,,,,,,,,,,,,,,,,,,,,,,,,,,,,,,,,,,,,,1.365608,0.606351,0.368618,0.286444,0.172701,2.188499,0.339634,0.360398,0.183754,0.139768,0.201675,0.073496,0.159387,0.063734,0.052870,0.647429,0.328963,0.397985,0.127581,0.106761,0.639626,0.148567,0.171197,0.077146,0.074514,0.060206,0.127214,0.144855,0.082024,0.061330,0.092976,0.145165,0.211077,0.143683,0.170263,0.760266,0.989921,0.380962,0.324217,0.226871,0.716099,0.581467,0.280164,0.213730,0.086843,1.379292,1.057605,0.286884,0.354400,0.244231,0.518925,0.550015,0.459579,0.269028,0.133317,2.075640,1.455188,0.573758,0.557883,0.205454,0.665310,0.629130,0.686059,0.345561,0.204313,1.710308,0.644341,0.375571,0.453805,0.191769
1768293056.818321,1768293056.819032,113.000000,0.000000,4337.948730,4337.563965,4307.179688,4343.461426,4308.717773,4331.666504,4325.256348,4325.256348,4326.538574,4305.384766,4527.051270,4541.666504,4415.128418,4484.743652,5694.000000,2.000000,44.000000,,,,0.000000,4.000000,4.000000,4.000000,4.000000,4.000000,4.000000,4.000000,4.000000,4.000000,4.000000,4.000000,4.000000,4.000000,4.000000,100.000000,,,,,,,,,,,,,,,,,,,,,,,,,,,,,,,,,,,,,,,,,,,,,,,,,,,,,,,,,,,,,,,,,,,,,,,,,,,,,,,,,,,,,,,,,,,,,,,,,,,,,,,,,,,,,,,,,,,,,
1768293056.826129,1768293056.826940,114.000000,0.000000,4337.692383,4330.256348,4304.358887,4339.230957,4307.820313,4325.769043,4327.820313,4328.333496,4327.692383,4317.820313,4530.000000,4539.871582,4412.307617,4480.512695,4338.000000,2.000000,44.000000,,,,0.000000,4.000000,4.000000,4.000000,4.000000,4.000000,4.000000,4.000000,4.000000,4.000000,4.000000,4.000000,4.000000,4.000000,4.000000,100.000000,,,,,,,,,,,,,,,,,,,,,,,,,,,,,,,,,,,,,,,,,,,,,,,,,,,,,,,,,,,,,,,,,,,,,,,,,,,,,,,,,,,,,,,,,,,,,,,,,,,,,,,,,,,,,,,,,,,,,
1768293056.833938,1768293056.834749,115.000000,0.000000,4337.563965,4326.153809,4305.384766,4340.512695,4307.692383,4324.230957,4323.205078,4326.025879,4326.282227,4313.461426,4531.153809,4538.717773,4418.589844,4484.871582,4761.000000,2.000000,44.000000,,,,0.000000,4.000000,4.000000,4.000000,4.000000,4.000000,4.000000,4.000000,4.000000,4.000000,4.000000,4.000000,4.000000,4.000000,4.000000,100.000000,,,,,,,,,,,,,,,,,,,,,,,,,,,,,,,,,,,,,,,,,,,,,,,,,,,,,,,,,,,,,,,,,,,,,,,,,,,,,,,,,,,,,,,,,,,,,,,,,,,,,,,,,,,,,,,,,,,,,
1768293056.841746,1768293056.842357,116.000000,0.000000,4338.717773,4330.769043,4306.410156,4345.384766,4311.282227,4329.102539,4321.153809,4327.179688,4327.692383,4308.077148,4531.538574,4547.948730,4422.563965,4492.563965,4335.000000,2.000000,44.000000,,,,0.000000,4.000000,4.000000,4.000000,4.000000,4.000000,4.000000,4.000000,4.000000,4.000000,4.000000,4.000000,4.000000,4.000000,4.000000,100.000000,,,,,,,,,,,,,,,,,,,,,,,,,,,,,,,,,,,,,,,,,,,,,,,,,,,,,,,,,,,,,,,,,,,,,,,,,,,,,,,,,,,,,,,,,,,,,,,,,,,,,,,,,,,,,,,,,,,,,
1768293056.849554,1768293056.850166,117.000000,0.000000,4343.717773,4333.333496,4304.102539,4345.128418,4315.512695,4328.846191,4324.230957,4327.563965,4327.051270,4312.179688,4530.769043,4553.205078,4416.153809,4490.512695,5694.000000,2.000000,44.000000,,,,0.000000,4.000000,4.000000,4.000000,4.000000,4.000000,4.000000,4.000000,4.000000,4.000000,4.000000,4.000000,4.000000,4.000000,4.000000,100.000000,,,,,,,,,,,,,,,,,,,,,,,,,,,,,,,,,,,,,,,,,,,,,,,,,,,,,,,,,,,,,,,,,,,,,,,,,,,,,,,,,,,,,,,,,,,,,,,,,,,,,,,,,,,,,,,,,,,,,
1768293056.857363,1768293056.857974,118.000000,0.000000,4344.230957,4326.922852,4305.256348,4341.410156,4318.205078,4327.948730,4327.179688,4327.563965,4326.794922,4311.410156,4527.820313,4550.384766,4415.769043,4487.692383,4338.000000,2.000000,44.000000,,,,0.000000,4.000000,4.000000,4.000000,4.000000,4.000000,4.000000,4.000000,4.000000,4.000000,4.000000,4.000000,4.000000,4.000000,4.000000,100.000000,,,,,,,,,,,,,,,,,,,,,,,,,,,,,,,,,,,,,,,,,,,,,,,,,,,,,,,,,,,,,,,,,,,,,,,,,,,,,,,,,,,,,,,,,,,,,,,,,,,,,,,,,,,,,,,,,,,,,
1768293056.865171,1768293056.865783,119.000000,0.000000,4341.410156,4324.743652,4308.077148,4340.769043,4316.794922,4326.410156,4325.769043,4329.102539,4327.692383,4308.461426,4527.051270,4551.794922,4426.794922,4490.641113,4761.000000,2.000000,44.000000,,,,0.000000,4.000000,4.000000,4.000000,4.000000,4.000000,4.000000,4.000000,4.000000,4.000000,4.000000,4.000000,4.000000,4.000000,4.000000,100.000000,,,,,,,,,,,,,,,,,,,,,,,,,,,,,,,,,,,,,,,,,,,,,,,,,,,,,,,,,,,,,,,,,,,,,,,,,,,,,,,,,,,,,,,,,,,,,,,,,,,,,,,,,,,,,,,,,,,,,
1768293056.872980,1768293056.873391,120.000000,0.000000,4345.641113,4327.307617,4306.025879,4343.589844,4316.794922,4322.692383,4318.461426,4327.820313,4326.666504,4313.205078,4530.256348,4551.922852,4430.769043,4492.563965,4335.000000,2.000000,44.000000,,,,0.000000,4.000000,4.000000,4.000000,4.000000,4.000000,4.000000,4.000000,4.000000,4.000000,4.000000,4.000000,4.000000,4.000000,4.000000,100.000000,,,,,,,,,,,,,,,,,,,,,,,,,,,,,,,,,,,,,,,,,,,,,,,,,,,,,,,,,,,,,,,,,,,,,,,,,,,,,,,,,,,,,,,,,,,,,,,,,,,,,,,,,,,,,,,,,,,,,
1768293056.880788,1768293056.881200,121.000000,0.000000,4347.948730,4326.794922,4306.794922,4342.692383,4318.846191,4325.128418,4319.487305,4326.410156,4323.846191,4311.153809,4529.871582,4542.563965,4422.307617,4488.205078,5694.000000,2.000000,44.000000,,,,0.000000,4.000000,4.000000,4.000000,4.000000,4.000000,4.000000,4.000000,4.000000,4.000000,4.000000,4.000000,4.000000,4.000000,4.000000,100.000000,,,,,,,,,,,,,,,,,,,,,,,,,,,,,,,,,,,,,,,,,,,,,,,,,,,,,,,,,,,,,,,,,,,,,,,,,,,,,,,,,,,,,,,,,,,,,,,,,,,,,,,,,,,,,,,,,,,,,
1768293056.888596,1768293056.888908,122.000000,0.000000,4338.846191,4322.179688,4305.641113,4333.974121,4317.692383,4328.846191,4322.563965,4325.897461,4321.410156,4307.179688,4521.282227,4535.897461,4414.487305,4479.615234,4338.000000,2.000000,44.000000,,,,0.000000,4.000000,4.000000,4.000000,4.000000,4.000000,4.000000,4.000000,4.000000,4.000000,4.000000,4.000000,4.000000,4.000000,4.000000,100.000000,,,,,,,,,,,,,,,,,,,,,,,,,,,,,,,,,,,,,,,,,,,,,,,,,,,,,,,,,,,,,,,,,,,,,,,,,,,,,,,,,,,,,,,,,,,,,,,,,,,,,,,,,,,,,,,,,,,,,
1768293056.896405,1768293056.896717,123.000000,0.000000,4332.436035,4320.256348,4300.641113,4333.846191,4320.384766,4325.641113,4318.205078,4324.743652,4320.256348,4317.179688,4520.769043,4537.179688,4411.153809,4476.794922,4761.000000,2.000000,44.000000,,,,0.000000,4.000000,4.000000,4.000000,4.000000,4.000000,4.000000,4.000000,4.000000,4.000000,4.000000,4.000000,4.000000,4.000000,4.000000,100.000000,,,,,,,,,,,,,,,,,,,,,,,,,,,,,,,,,,,,,,,,,,,,,,,,,,,,,,,,,,,,,,,,,,,,,,,,,,,,,,,,,,,,,,,,,,,,,,,,,,,,,,,,,,,,,,,,,,,,,
1768293056.904213,1768293056.904326,124.000000,0.000000,4335.128418,4322.820313,4302.436035,4337.307617,4321.410156,4323.974121,4318.461426,4324.230957,4321.538574,4322.820313,4524.871582,4537.820313,4411.794922,4480.000000,4335.000000,2.000000,44.000000,,,,0.000000,4.000000,4.000000,4.000000,4.000000,4.000000,4.000000,4.000000,4.000000,4.000000,4.000000,4.000000,4.000000,4.000000,4.000000,100.000000,,,,,,,,,,,,,,,,,,,,,,,,,,,,,,,,,,,,,,,,,,,,,,,,,,,,,,,,,,,,,,,,,,,,,,,,,,,,,,,,,,,,,,,,,,,,,,,,,,,,,,,,,,,,,,,,,,,,,
1768293056.912022,1768293056.912134,125.000000,0.000000,4337.051270,4323.461426,4302.948730,4333.333496,4317.179688,4325.256348,4320.769043,4325.000000,4325.256348,4312.436035,4523.589844,4537.307617,4415.384766,4479.358887,5694.000000,2.000000,44.000000,,,,0.000000,4.000000,4.000000,4.000000,4.000000,4.000000,4.000000,4.000000,4.000000,4.000000,4.000000,4.000000,4.000000,4.000000,4.000000,100.000000,,,,,,,,,,,,,,,,,,,,,,,,,,,,,,,,,,,,,,,,,,,,,,,,,,,,,,,,,,,,,,,,,,,,,,,,,,,,,,,,,,,,,,,,,,,,,,,,,,,,,,,,,,,,,,,,,,,,,
1768293056.919830,1768293056.919843,126.000000,0.000000,4336.025879,4321.282227,4300.000000,4329.615234,4316.794922,4325.897461,4320.641113,4326.153809,4324.871582,4309.871582,4523.205078,4536.538574,4417.179688,4477.436035,4338.000000,2.000000,44.000000,,,,0.000000,4.000000,4.000000,4.000000,4.000000,4.000000,4.000000,4.000000,4.000000,4.000000,4.000000,4.000000,4.000000,4.000000,4.000000,100.000000,,,,,,,,,,,,,,,,,,,,,,,,,,,,,,,,,,,,,,,,,,,,,,,,,,,,,,,,,,,,,,,,,,,,,,,,,,,,,,,,,,,,,,,,,,,,,,,,,,,,,,,,,,,,,,,,,,,,,
1768293056.927639,1768293056.927651,127.000000,0.000000,4331.666504,4319.871582,4299.102539,4329.358887,4318.974121,4325.641113,4321.538574,4326.025879,4322.307617,4316.410156,4523.205078,4536.538574,4416.025879,4476.922852,44.000000,2.000000,44.000000,,,,0.000000,4.000000,4.000000,4.000000,4.000000,4.000000,4.000000,4.000000,4.000000,4.000000,4.000000,4.000000,4.000000,4.000000,4.000000,100.000000,,,,,,,,,,,,,,,,,,,,,,,,,,,,,,,,,,,,,,,,,,,,,,,,,,,,,,,,,,,,,,,,,,,,,,,,,,,,,,,,,,,,,,,,,,,,,,,,,,,,,,,,,,,,,,,,,,,,,
1768293056.935447,1768293056.935659,0.000000,0.000000,4329.102539,4321.666504,4296.538574,4331.153809,4314.871582,4324.487305,4322.307617,4327.307617,4324.871582,4312.051270,4522.692383,4537.563965,4411.538574,4473.974121,1676.000000,2.000000,44.000000,,,,0.000000,4.000000,4.000000,4.000000,4.000000,4.000000,4.000000,4.000000,4.000000,4.000000,4.000000,4.000000,4.000000,4.000000,4.000000,100.000000,,,,,,,,,,,,,,,,,,,,,,,,,,,,,,,,,,,,,,,,,,,,,,,,1.755361,0.614352,0.347076,0.288228,0.191452,1.904852,0.312057,0.368690,0.206329,0.156729,0.222042,0.077147,0.165585,0.072061,0.062884,0.648254,0.322011,0.424357,0.140704,0.114226,0.682775,0.156719,0.198625,0.095205,0.080529,0.050589,0.128937,0.180626,0.085010,0.062600,0.094245,0.144759,0.236712,0.148062,0.172771,0.806592,0.893141,0.403146,0.297439,0.226885,0.775153,0.497612,0.297417,0.184350,0.085772,1.458131,1.046849,0.301394,0.316409,0.250278,0.730092,0.444142,0.423813,0.268821,0.139208,2.587279,1.260215,0.576829,0.524585,0.201810,0.863917,0.592167,0.575586,0.351822,0.211195,2.275504,0.565990,0.322218,0.395028,0.193810
1768293056.943256,1768293056.943468,1.000000,0.000000,4332.051270,4323.333496,4298.077148,4334.358887,4316.025879,4327.948730,4325.512695,4336.025879,4329.487305,4306.922852,4524.358887,4538.461426,4411.794922,4475.384766,4031.000000,2.000000,44.000000,,,,0.000000,4.000000,4.000000,4.000000,4.000000,4.000000,4.000000,4.000000,4.000000,4.000000,4.000000,4.000000,4.000000,4.000000,4.000000,100.000000,,,,,,,,,,,,,,,,,,,,,,,,,,,,,,,,,,,,,,,,,,,,,,,,,,,,,,,,,,,,,,,,,,,,,,,,,,,,,,,,,,,,,,,,,,,,,,,,,,,,,,,,,,,,,,,,,,,,,
1768293056.951064,1768293056.951376,2.000000,0.000000,4330.512695,4321.153809,4299.615234,4333.205078,4325.000000,4332.179688,4329.102539,4338.717773,4326.410156,4312.179688,4525.897461,4537.692383,4414.358887,4478.077148,3999.000000,2.000000,44.000000,,,,0.000000,4.000000,4.000000,4.000000,4.000000,4.000000,4.000000,4.000000,4.000000,4.000000,4.000000,4.000000,4.000000,4.000000,4.000000,100.000000,,,,,,,,,,,,,,,,,,,,,,,,,,,,,,,,,,,,,,,,,,,,,,,,,,,,,,,,,,,,,,,,,,,,,,,,,,,,,,,,,,,,,,,,,,,,,,,,,,,,,,,,,,,,,,,,,,,,,
1768293056.958872,1768293056.959184,3.000000,0.000000,4325.512695,4319.743652,4297.307617,4330.512695,4324.871582,4329.871582,4328.974121,4333.717773,4323.717773,4311.282227,4525.641113,4536.794922,4412.692383,4476.282227,3927.000000,2.000000,44.000000,,,,0.000000,4.000000,4.000000,4.000000,4.000000,4.000000,4.000000,4.000000,4.000000,4.000000,4.000000,4.000000,4.000000,4.000000,4.000000,100.000000,,,,,,,,,,,,,,,,,,,,,,,,,,,,,,,,,,,,,,,,,,,,,,,,,,,,,,,,,,,,,,,,,,,,,,,,,,,,,,,,,,,,,,,,,,,,,,,,,,,,,,,,,,,,,,,,,,,,,
1768293056.966681,1768293056.967193,4.000000,0.000000,4327.436035,4323.846191,4297.179688,4333.846191,4325.512695,4328.077148,4326.666504,4337.948730,4329.487305,4302.179688,4527.820313,4540.769043,4411.538574,4477.307617,3750.000000,2.000000,44.000000,,,,0.000000,4.000000,4.000000,4.000000,4.000000,4.000000,4.000000,4.000000,4.000000,4.000000,4.000000,4.000000,4.000000,4.000000,4.000000,100.000000,,,,,,,,,,,,,,,,,,,,,,,,,,,,,,,,,,,,,,,,,,,,,,,,,,,,,,,,,,,,,,,,,,,,,,,,,,,,,,,,,,,,,,,,,,,,,,,,,,,,,,,,,,,,,,,,,,,,,
1768293056.974489,1768293056.975001,5.000000,0.000000,4326.410156,4324.230957,4296.282227,4331.025879,4325.641113,4326.410156,4321.538574,4337.051270,4326.666504,4302.820313,4522.179688,4535.769043,4410.897461,4472.948730,2510.000000,2.000000,44.000000,,,,0.000000,4.000000,4.000000,4.000000,4.000000,4.000000,4.000000,4.000000,4.000000,4.000000,4.000000,4.000000,4.000000,4.000000,4.000000,100.000000,,,,,,,,,,,,,,,,,,,,,,,,,,,,,,,,,,,,,,,,,,,,,,,,,,,,,,,,,,,,,,,,,,,,,,,,,,,,,,,,,,,,,,,,,,,,,,,,,,,,,,,,,,,,,,,,,,,,,
