title:apple_1, start timestamp:1768292347.579450, stop timestamp:1768292378.001066, headset type:EPOCX, headset serial:E5020E3B, headset firmware:730, channels:156, sampling rate:eeg_128;pm_0.1;pow_8, samples:3897      , version:2.2, 
Timestamp,OriginalTimestamp,EEG.Counter,EEG.Interpolated,EEG.AF3,EEG.F7,EEG.F3,EEG.FC5,EEG.T7,EEG.P7,EEG.O1,EEG.O2,EEG.P8,EEG.T8,EEG.FC6,EEG.F4,EEG.F8,EEG.AF4,EEG.RawCq,EEG.Battery,EEG.BatteryPercent,MarkerIndex,MarkerType,MarkerValueInt,EEG.MarkerHardware,CQ.AF3,CQ.F7,CQ.F3,CQ.FC5,CQ.T7,CQ.P7,CQ.O1,CQ.O2,CQ.P8,CQ.T8,CQ.FC6,CQ.F4,CQ.F8,CQ.AF4,CQ.Overall,EQ.SampleRateQuality,EQ.OVERALL,EQ.AF3,EQ.F7,EQ.F3,EQ.FC5,EQ.T7,EQ.P7,EQ.O1,EQ.O2,EQ.P8,EQ.T8,EQ.FC6,EQ.F4,EQ.F8,EQ.AF4,PM.Attention.IsActive,PM.Attention.Scaled,PM.Attention.Raw,PM.Attention.Min,PM.Attention.Max,PM.Engagement.IsActive,PM.Engagement.Scaled,PM.Engagement.Raw,PM.Engagement.Min,PM.Engagement.Max,PM.Excitement.IsActive,PM.Excitement.Scaled,PM.Excitement.Raw,PM.Excitement.Min,PM.Excitement.Max,PM.LongTermExcitement,PM.Stress.IsActive,PM.Stress.Scaled,PM.Stress.Raw,PM.Stress.Min,PM.Stress.Max,PM.Relaxation.IsActive,PM.Relaxation.Scaled,PM.Relaxation.Raw,PM.Relaxation.Min,PM.Relaxation.Max,PM.Interest.IsActive,PM.Interest.Scaled,PM.Interest.Raw,PM.Interest.Min,PM.Interest.Max,POW.AF3.Theta,POW.AF3.Alpha,POW.AF3.BetaL,POW.AF3.BetaH,POW.AF3.Gamma,POW.F7.Theta,POW.F7.Alpha,POW.F7.BetaL,POW.F7.BetaH,POW.F7.Gamma,POW.F3.Theta,POW.F3.Alpha,POW.F3.BetaL,POW.F3.BetaH,POW.F3.Gamma,POW.FC5.Theta,POW.FC5.Alpha,POW.FC5.BetaL,POW.FC5.BetaH,POW.FC5.Gamma,POW.T7.Theta,POW.T7.Alpha,POW.T7.BetaL,POW.T7.BetaH,POW.T7.Gamma,POW.P7.Theta,POW.P7.Alpha,POW.P7.BetaL,POW.P7.BetaH,POW.P7.Gamma,POW.O1.Theta,POW.O1.Alpha,POW.O1.BetaL,POW.O1.BetaH,POW.O1.Gamma,POW.O2.Theta,POW.O2.Alpha,POW.O2.BetaL,POW.O2.BetaH,POW.O2.Gamma,POW.P8.Theta,POW.P8.Alpha,POW.P8.BetaL,POW.P8.BetaH,POW.P8.Gamma,POW.T8.Theta,POW.T8.Alpha,POW.T8.BetaL,POW.T8.BetaH,POW.T8.Gamma,POW.FC6.Theta,POW.FC6.Alpha,POW.FC6.BetaL,POW.FC6.BetaH,POW.FC6.Gamma,POW.F4.Theta,POW.F4.Alpha,POW.F4.BetaL,POW.F4.BetaH,POW.F4.Gamma,POW.F8.Theta,POW.F8.Alpha,POW.F8.BetaL,POW.F8.BetaH,POW.F8.Gamma,POW.AF4.Theta,POW.AF4.Alpha,POW.AF4.BetaL,POW.AF4.BetaH,POW.AF4.Gamma
1768292347.579450,1768292347.579845,35.000000,0.000000,4335.641113,4324.487305,4322.692383,4349.230957,4327.307617,4318.077148,4322.051270,4314.230957,4311.794922,4300.128418,4510.769043,4512.436035,4401.666504,4475.769043,0.000000,2.000000,47.000000,,,,0.000000,4.000000,4.000000,4.000000,4.000000,4.000000,4.000000,4.000000,4.000000,4.000000,4.000000,4.000000,4.000000,4.000000,4.000000,100.000000,,,,,,,,,,,,,,,,,,,,,,,,,,,,,,,,,,,,,,,,,,,,,,,,,,,,,,,,,,,,,,,,,,,,,,,,,,,,,,,,,,,,,,,,,,,,,,,,,,,,,,,,,,,,,,,,,,,,,
1768292347.587259,1768292347.587853,36.000000,0.000000,4327.692383,4316.922852,4317.692383,4343.846191,4318.589844,4315.769043,4319.871582,4314.615234,4313.205078,4295.000000,4508.461426,4513.077148,4405.641113,4472.563965,0.000000,2.000000,47.000000,,,,0.000000,4.000000,4.000000,4.000000,4.000000,4.000000,4.000000,4.000000,4.000000,4.000000,4.000000,4.000000,4.000000,4.000000,4.000000,100.000000,,,,,,,,,,,,,,,,,,,,,,,,,,,,,,,,,,,,,,,,,,,,,,,,,,,,,,,,,,,,,,,,,,,,,,,,,,,,,,,,,,,,,,,,,,,,,,,,,,,,,,,,,,,,,,,,,,,,,
1768292347.595067,1768292347.595661,37.000000,0.000000,4325.512695,4314.871582,4320.641113,4341.282227,4309.487305,4320.000000,4318.333496,4322.692383,4311.538574,4298.461426,4510.769043,4518.205078,4410.769043,4464.102539,0.000000,2.000000,47.000000,,,,0.000000,4.000000,4.000000,4.000000,4.000000,4.000000,4.000000,4.000000,4.000000,4.000000,4.000000,4.000000,4.000000,4.000000,4.000000,100.000000,,,,,,,,,,,,,,,,,,,,,,,,,,,,,,,,,,,,,,,,,,,,,,,,,,,,,,,,,,,,,,,,,,,,,,,,,,,,,,,,,,,,,,,,,,,,,,,,,,,,,,,,,,,,,,,,,,,,,
1768292347.602876,1768292347.603370,38.000000,0.000000,4330.769043,4317.051270,4325.641113,4342.563965,4306.922852,4320.384766,4317.051270,4322.051270,4309.871582,4297.948730,4509.102539,4520.641113,4412.307617,4466.538574,0.000000,2.000000,47.000000,,,,0.000000,4.000000,4.000000,4.000000,4.000000,4.000000,4.000000,4.000000,4.000000,4.000000,4.000000,4.000000,4.000000,4.000000,4.000000,100.000000,,,,,,,,,,,,,,,,,,,,,,,,,,,,,,,,,,,,,,,,,,,,,,,,,,,,,,,,,,,,,,,,,,,,,,,,,,,,,,,,,,,,,,,,,,,,,,,,,,,,,,,,,,,,,,,,,,,,,
1768292347.610684,1768292347.611178,39.000000,0.000000,4336.666504,4319.615234,4323.333496,4343.589844,4305.769043,4316.025879,4314.871582,4311.410156,4310.256348,4292.436035,4510.000000,4520.128418,4410.128418,4475.769043,0.000000,2.000000,47.000000,,,,0.000000,4.000000,4.000000,4.000000,4.000000,4.000000,4.000000,4.000000,4.000000,4.000000,4.000000,4.000000,4.000000,4.000000,4.000000,100.000000,,,,,,,,,,,,,,,,,,,,,,,,,,,,,,,,,,,,,,,,,,,,,,,,,,,,,,,,,,,,,,,,,,,,,,,,,,,,,,,,,,,,,,,,,,,,,,,,,,,,,,,,,,,,,,,,,,,,,
1768292347.618492,1768292347.618787,40.000000,0.000000,4340.128418,4325.641113,4323.461426,4346.922852,4302.436035,4318.205078,4318.974121,4310.641113,4310.769043,4286.922852,4519.615234,4523.589844,4411.922852,4477.436035,0.000000,2.000000,47.000000,,,,0.000000,4.000000,4.000000,4.000000,4.000000,4.000000,4.000000,4.000000,4.000000,4.000000,4.000000,4.000000,4.000000,4.000000,4.000000,100.000000,,,,,,,,,,,,,,,,,,,,,,,,,,,,,,,,,,,,,,,,,,,,,,,,,,,,,,,,,,,,,,,,,,,,,,,,,,,,,,,,,,,,,,,,,,,,,,,,,,,,,,,,,,,,,,,,,,,,,
1768292347.626301,1768292347.626595,41.000000,0.000000,4340.769043,4326.025879,4326.538574,4348.717773,4296.922852,4322.051270,4318.589844,4313.589844,4307.179688,4281.538574,4521.794922,4524.615234,4413.589844,4474.871582,0.000000,2.000000,47.000000,,,,0.000000,4.000000,4.000000,4.000000,4.000000,4.000000,4.000000,4.000000,4.000000,4.000000,4.000000,4.000000,4.000000,4.000000,4.000000,100.000000,,,,,,,,,,,,,,,,,,,,,,,,,,,,,,,,,,,,,,,,,,,,,,,,,,,,,,,,,,,,,,,,,,,,,,,,,,,,,,,,,,,,,,,,,,,,,,,,,,,,,,,,,,,,,,,,,,,,,
1768292347.634109,1768292347.634504,42.000000,0.000000,4334.230957,4319.230957,4321.282227,4342.948730,4291.922852,4317.948730,4307.563965,4311.282227,4303.333496,4280.512695,4511.153809,4512.820313,4406.410156,4468.205078,0.000000,2.000000,47.000000,,,,0.000000,4.000000,4.000000,4.000000,4.000000,4.000000,4.000000,4.000000,4.000000,4.000000,4.000000,4.000000,4.000000,4.000000,4.000000,100.000000,,,,,,,,,,,,,,,,,,,,,,,,,,,,,,,,,,,,,,,,,,,,,,,,,,,,,,,,,,,,,,,,,,,,,,,,,,,,,,,,,,,,,,,,,,,,,,,,,,,,,,,,,,,,,,,,,,,,,
1768292347.641918,1768292347.642312,43.000000,0.000000,4325.641113,4318.333496,4315.384766,4340.769043,4293.077148,4311.538574,4303.461426,4310.128418,4304.615234,4277.820313,4504.230957,4502.820313,4401.282227,4460.256348,0.000000,2.000000,47.000000,,,,0.000000,4.000000,4.000000,4.000000,4.000000,4.000000,4.000000,4.000000,4.000000,4.000000,4.000000,4.000000,4.000000,4.000000,4.000000,100.000000,,,,,,,,,,,,,,,,,,,,,,,,,,,,,,,,,,,,,,,,,,,,,,,,,,,,,,,,,,,,,,,,,,,,,,,,,,,,,,,,,,,,,,,,,,,,,,,,,,,,,,,,,,,,,,,,,,,,,
1768292347.649726,1768292347.649921,44.000000,0.000000,4326.922852,4325.897461,4318.077148,4348.205078,4295.512695,4313.461426,4311.153809,4312.820313,4310.000000,4275.512695,4511.794922,4509.487305,4404.871582,4463.846191,0.000000,2.000000,47.000000,,,,0.000000,4.000000,4.000000,4.000000,4.000000,4.000000,4.000000,4.000000,4.000000,4.000000,4.000000,4.000000,4.000000,4.000000,4.000000,100.000000,,,,,,,,,,,,,,,,,,,,,,,,,,,,,,,,,,,,,,,,,,,,,,,,,,,,,,,,,,,,,,,,,,,,,,,,,,,,,,,,,,,,,,,,,,,,,,,,,,,,,,,,,,,,,,,,,,,,,
1768292347.657535,1768292347.657729,45.000000,0.000000,4334.871582,4330.897461,4323.333496,4354.743652,4292.948730,4322.051270,4318.717773,4320.769043,4311.794922,4288.846191,4525.000000,4522.051270,4412.692383,4475.897461,0.000000,2.000000,47.000000,,,,0.000000,4.000000,4.000000,4.000000,4.000000,4.000000,4.000000,4.000000,4.000000,4.000000,4.000000,4.000000,4.000000,4.000000,4.000000,100.000000,,,,,,,,,,,,,,,,,,,,,,,,,,,,,,,,,,,,,,,,,,,,,,,,,,,,,,,,,,,,,,,,,,,,,,,,,,,,,,,,,,,,,,,,,,,,,,,,,,,,,,,,,,,,,,,,,,,,,
1768292347.665343,1768292347.665438,46.000000,0.000000,4339.102539,4330.384766,4327.692383,4356.282227,4293.077148,4325.384766,4319.358887,4327.820313,4311.282227,4300.384766,4533.461426,4535.000000,4422.820313,4486.666504,0.000000,2.000000,47.000000,,,,0.000000,4.000000,4.000000,4.000000,4.000000,4.000000,4.000000,4.000000,4.000000,4.000000,4.000000,4.000000,4.000000,4.000000,4.000000,100.000000,,,,,,,,,,,,,,,,,,,,,,,,,,,,,,,,,,,,,,,,,,,,,,,,,,,,,,,,,,,,,,,,,,,,,,,,,,,,,,,,,,,,,,,,,,,,,,,,,,,,,,,,,,,,,,,,,,,,,
1768292347.673152,1768292347.673246,47.000000,0.000000,4338.589844,4328.333496,4327.307617,4357.307617,4295.897461,4321.538574,4316.410156,4327.051270,4314.871582,4294.487305,4533.077148,4539.487305,4427.436035,4490.000000,0.000000,2.000000,47.000000,,,,0.000000,4.000000,4.000000,4.000000,4.000000,4.000000,4.000000,4.000000,4.000000,4.000000,4.000000,4.000000,4.000000,4.000000,4.000000,100.000000,,,,,,,,,,,,,,,,,,,,,,,,,,,,,,,,,,,,,,,,,,,,,,,,,,,,,,,,,,,,,,,,,,,,,,,,,,,,,,,,,,,,,,,,,,,,,,,,,,,,,,,,,,,,,,,,,,,,,
1768292347.680960,1768292347.680855,48.000000,0.000000,4336.282227,4326.666504,4321.666504,4356.410156,4293.333496,4318.846191,4314.102539,4322.307617,4313.461426,4289.615234,4528.589844,4528.461426,4420.000000,4481.666504,0.000000,2.000000,47.000000,,,,0.000000,4.000000,4.000000,4.000000,4.000000,4.000000,4.000000,4.000000,4.000000,4.000000,4.000000,4.000000,4.000000,4.000000,4.000000,100.000000,,,,,,,,,,,,,,,,,,,,,,,,,,,,,,,,,,,,,,,,,,,,,,,,2.002584,0.899363,0.386455,0.239636,0.106308,2.039747,0.393093,0.410378,0.185043,0.085530,0.574210,0.606342,0.258509,0.184776,0.057489,1.399570,0.910536,0.674706,0.165459,0.075495,2.790541,0.310144,0.217822,0.153459,0.064201,0.113072,0.183042,0.382542,0.203712,0.113395,0.091845,0.207000,0.397481,0.231602,0.155621,0.596961,0.683898,0.384658,0.347293,0.199000,0.573708,0.341922,0.315161,0.220063,0.115538,1.119302,1.066837,0.404372,0.486376,0.248335,2.626975,0.629965,0.633872,0.276293,0.177698,1.927635,1.294165,0.844173,0.360518,0.157642,3.581564,0.690888,0.624920,0.351034,0.164916,3.397951,0.848132,0.465587,0.304982,0.140201
1768292347.688769,1768292347.688663,49.000000,0.000000,4338.333496,4329.358887,4322.948730,4356.153809,4295.769043,4319.743652,4316.153809,4323.461426,4309.102539,4293.846191,4526.794922,4524.871582,4414.487305,4475.128418,0.000000,2.000000,47.000000,,,,0.000000,4.000000,4.000000,4.000000,4.000000,4.000000,4.000000,4.000000,4.000000,4.000000,4.000000,4.000000,4.000000,4.000000,4.000000,100.000000,,,,,,,,,,,,,,,,,,,,,,,,,,,,,,,,,,,,,,,,,,,,,,,,,,,,,,,,,,,,,,,,,,,,,,,,,,,,,,,,,,,,,,,,,,,,,,,,,,,,,,,,,,,,,,,,,,,,,
1768292347.696577,1768292347.696572,50.000000,0.000000,4342.436035,4333.974121,4330.000000,4358.077148,4301.025879,4318.333496,4318.077148,4330.512695,4318.077148,4295.000000,4525.897461,4532.051270,4416.538574,4478.205078,0.000000,2.000000,47.000000,,,,0.000000,4.000000,4.000000,4.000000,4.000000,4.000000,4.000000,4.000000,4.000000,4.000000,4.000000,4.000000,4.000000,4.000000,4.000000,100.000000,,,,,,,,,,,,,,,,,,,,,,,,,,,,,,,,,,,,,,,,,,,,,,,,,,,,,,,,,,,,,,,,,,,,,,,,,,,,,,,,,,,,,,,,,,,,,,,,,,,,,,,,,,,,,,,,,,,,,
1768292347.704385,1768292347.704380,51.000000,0.000000,4341.153809,4331.410156,4327.692383,4357.948730,4297.436035,4317.436035,4316.538574,4330.512695,4324.358887,4291.922852,4523.461426,4526.025879,4412.948730,4479.230957,0.000000,2.000000,47.000000,,,,0.000000,4.000000,4.000000,4.000000,4.000000,4.000000,4.000000,4.000000,4.000000,4.000000,4.000000,4.000000,4.000000,4.000000,4.000000,100.000000,,,,,,,,,,,,,,,,,,,,,,,,,,,,,,,,,,,,,,,,,,,,,,,,,,,,,,,,,,,,,,,,,,,,,,,,,,,,,,,,,,,,,,,,,,,,,,,,,,,,,,,,,,,,,,,,,,,,,
1768292347.712194,1768292347.712388,52.000000,0.000000,4338.461426,4326.666504,4323.077148,4354.743652,4296.794922,4320.000000,4320.256348,4324.358887,4315.384766,4291.922852,4523.077148,4522.563965,4410.000000,4476.666504,0.000000,2.000000,47.000000,,,,0.000000,4.000000,4.000000,4.000000,4.000000,4.000000,4.000000,4.000000,4.000000,4.000000,4.000000,4.000000,4.000000,4.000000,4.000000,100.000000,,,,,,,,,,,,,,,,,,,,,,,,,,,,,,,,,,,,,,,,,,,,,,,,,,,,,,,,,,,,,,,,,,,,,,,,,,,,,,,,,,,,,,,,,,,,,,,,,,,,,,,,,,,,,,,,,,,,,
1768292347.720002,1768292347.720197,53.000000,0.000000,4335.512695,4324.743652,4325.897461,4349.230957,4302.436035,4321.153809,4325.256348,4325.128418,4313.205078,4296.538574,4525.128418,4532.307617,4413.846191,4477.436035,0.000000,2.000000,47.000000,,,,0.000000,4.000000,4.000000,4.000000,4.000000,4.000000,4.000000,4.000000,4.000000,4.000000,4.000000,4.000000,4.000000,4.000000,4.000000,100.000000,,,,,,,,,,,,,,,,,,,,,,,,,,,,,,,,,,,,,,,,,,,,,,,,,,,,,,,,,,,,,,,,,,,,,,,,,,,,,,,,,,,,,,,,,,,,,,,,,,,,,,,,,,,,,,,,,,,,,
1768292347.727811,1768292347.728105,54.000000,0.000000,4329.615234,4321.410156,4324.358887,4342.051270,4301.282227,4318.717773,4319.871582,4328.717773,4318.846191,4297.948730,4525.897461,4528.077148,4414.487305,4475.769043,0.000000,2.000000,47.000000,,,,0.000000,4.000000,4.000000,4.000000,4.000000,4.000000,4.000000,4.000000,4.000000,4.000000,4.000000,4.000000,4.000000,4.000000,4.000000,100.000000,,,,,,,,,,,,,,,,,,,,,,,,,,,,,,,,,,,,,,,,,,,,,,,,,,,,,,,,,,,,,,,,,,,,,,,,,,,,,,,,,,,,,,,,,,,,,,,,,,,,,,,,,,,,,,,,,,,,,
1768292347.735619,1768292347.735914,55.000000,0.000000,4329.871582,4318.461426,4318.589844,4338.717773,4295.641113,4316.538574,4313.205078,4327.948730,4316.153809,4290.897461,4525.128418,4522.820313,4413.205078,4474.358887,0.000000,2.000000,47.000000,,,,0.000000,4.000000,4.000000,4.000000,4.000000,4.000000,4.000000,4.000000,4.000000,4.000000,4.000000,4.000000,4.000000,4.000000,4.000000,100.000000,,,,,,,,,,,,,,,,,,,,,,,,,,,,,,,,,,,,,,,,,,,,,,,,,,,,,,,,,,,,,,,,,,,,,,,,,,,,,,,,,,,,,,,,,,,,,,,,,,,,,,,,,,,,,,,,,,,,,
1768292347.743427,1768292347.743922,56.000000,0.000000,4336.025879,4323.205078,4322.563965,4342.436035,4299.358887,4319.358887,4321.282227,4327.692383,4314.230957,4294.358887,4522.948730,4531.153809,4411.025879,4474.358887,0.000000,2.000000,47.000000,,,,0.000000,4.000000,4.000000,4.000000,4.000000,4.000000,4.000000,4.000000,4.000000,4.000000,4.000000,4.000000,4.000000,4.000000,4.000000,100.000000,,,,,,,,,,,,,,,,,,,,,,,,,,,,,,,,,,,,,,,,,,,,,,,,,,,,,,,,,,,,,,,,,,,,,,,,,,,,,,,,,,,,,,,,,,,,,,,,,,,,,,,,,,,,,,,,,,,,,
1768292347.751236,1768292347.751730,57.000000,0.000000,4335.000000,4324.615234,4326.025879,4342.948730,4303.974121,4321.538574,4327.820313,4325.769043,4315.128418,4308.205078,4521.025879,4530.256348,4407.436035,4475.128418,0.000000,2.000000,47.000000,,,,0.000000,4.000000,4.000000,4.000000,4.000000,4.000000,4.000000,4.000000,4.000000,4.000000,4.000000,4.000000,4.000000,4.000000,4.000000,100.000000,,,,,,,,,,,,,,,,,,,,,,,,,,,,,,,,,,,,,,,,,,,,,,,,,,,,,,,,,,,,,,,,,,,,,,,,,,,,,,,,,,,,,,,,,,,,,,,,,,,,,,,,,,,,,,,,,,,,,
1768292347.759044,1768292347.759439,58.000000,0.000000,4331.410156,4317.948730,4320.897461,4339.871582,4298.461426,4318.461426,4318.461426,4320.128418,4310.384766,4307.820313,4520.384766,4520.897461,4403.333496,4475.384766,0.000000,2.000000,47.000000,,,,0.000000,4.000000,4.000000,4.000000,4.000000,4.000000,4.000000,4.000000,4.000000,4.000000,4.000000,4.000000,4.000000,4.000000,4.000000,100.000000,,,,,,,,,,,,,,,,,,,,,,,,,,,,,,,,,,,,,,,,,,,,,,,,,,,,,,,,,,,,,,,,,,,,,,,,,,,,,,,,,,,,,,,,,,,,,,,,,,,,,,,,,,,,,,,,,,,,,
1768292347.766853,1768292347.767247,59.000000,0.000000,4330.000000,4318.205078,4319.871582,4340.641113,4295.000000,4315.256348,4311.666504,4320.897461,4310.897461,4300.256348,4521.794922,4521.153809,4402.820313,4473.333496,0.000000,2.000000,47.000000,,,,0.000000,4.000000,4.000000,4.000000,4.000000,4.000000,4.000000,4.000000,4.000000,4.000000,4.000000,4.000000,4.000000,4.000000,4.000000,100.000000,,,,,,,,,,,,,,,,,,,,,,,,,,,,,,,,,,,,,,,,,,,,,,,,,,,,,,,,,,,,,,,,,,,,,,,,,,,,,,,,,,,,,,,,,,,,,,,,,,,,,,,,,,,,,,,,,,,,,
1768292347.774661,1768292347.775255,60.000000,0.000000,4324.615234,4319.743652,4321.538574,4341.153809,4301.153809,4313.333496,4315.256348,4326.410156,4320.128418,4306.794922,4522.692383,4524.615234,4405.512695,4472.692383,0.000000,2.000000,47.000000,,,,0.000000,4.000000,4.000000,4.000000,4.000000,4.000000,4.000000,4.000000,4.000000,4.000000,4.000000,4.000000,4.000000,4.000000,4.000000,100.000000,,,,,,,,,,,,,,,,,,,,,,,,,,,,,,,,,,,,,,,,,,,,,,,,,,,,,,,,,,,,,,,,,,,,,,,,,,,,,,,,,,,,,,,,,,,,,,,,,,,,,,,,,,,,,,,,,,,,,
1768292347.782469,1768292347.783064,61.000000,0.000000,4324.230957,4313.589844,4315.897461,4340.000000,4307.820313,4317.307617,4320.897461,4327.051270,4323.077148,4310.512695,4524.102539,4523.461426,4408.077148,4473.333496,0.000000,2.000000,47.000000,,,,0.000000,4.000000,4.000000,4.000000,4.000000,4.000000,4.000000,4.000000,4.000000,4.000000,4.000000,4.000000,4.000000,4.000000,4.000000,100.000000,,,,,,,,,,,,,,,,,,,,,,,,,,,,,,,,,,,,,,,,,,,,,,,,,,,,,,,,,,,,,,,,,,,,,,,,,,,,,,,,,,,,,,,,,,,,,,,,,,,,,,,,,,,,,,,,,,,,,
1768292347.790278,1768292347.790772,62.000000,0.000000,4328.461426,4309.615234,4313.333496,4339.743652,4307.948730,4323.974121,4322.179688,4326.538574,4316.794922,4301.025879,4521.794922,4524.102539,4405.769043,4470.000000,0.000000,2.000000,47.000000,,,,0.000000,4.000000,4.000000,4.000000,4.000000,4.000000,4.000000,4.000000,4.000000,4.000000,4.000000,4.000000,4.000000,4.000000,4.000000,100.000000,,,,,,,,,,,,,,,,,,,,,,,,,,,,,,,,,,,,,,,,,,,,,,,,,,,,,,,,,,,,,,,,,,,,,,,,,,,,,,,,,,,,,,,,,,,,,,,,,,,,,,,,,,,,,,,,,,,,,
1768292347.798086,1768292347.798581,63.000000,0.000000,4324.487305,4309.102539,4317.820313,4340.256348,4308.333496,4318.333496,4317.051270,4321.794922,4310.512695,4295.384766,4512.179688,4521.666504,4398.333496,4462.307617,0.000000,2.000000,47.000000,,,,0.000000,4.000000,4.000000,4.000000,4.000000,4.000000,4.000000,4.000000,4.000000,4.000000,4.000000,4.000000,4.000000,4.000000,4.000000,100.000000,,,,,,,,,,,,,,,,,,,,,,,,,,,,,,,,,,,,,,,,,,,,,,,,,,,,,,,,,,,,,,,,,,,,,,,,,,,,,,,,,,,,,,,,,,,,,,,,,,,,,,,,,,,,,,,,,,,,,
1768292347.805895,1768292347.806289,64.000000,0.000000,4326.282227,4313.717773,4317.948730,4343.589844,4312.307617,4309.871582,4313.589844,4317.820313,4311.025879,4293.461426,4506.282227,4518.717773,4395.128418,4458.333496,2656.000000,2.000000,47.000000,,,,0.000000,4.000000,4.000000,4.000000,4.000000,4.000000,4.000000,4.000000,4.000000,4.000000,4.000000,4.000000,4.000000,4.000000,4.000000,100.000000,,,,,,,,,,,,,,,,,,,,,,,,,,,,,,,,,,,,,,,,,,,,,,,,2.218692,0.935297,0.383693,0.255073,0.116042,2.027823,0.419100,0.431162,0.178515,0.095522,0.555280,0.559931,0.244333,0.197002,0.056143,1.368012,0.919830,0.645447,0.179602,0.087214,2.801212,0.287795,0.244581,0.151330,0.066656,0.090822,0.148168,0.358741,0.202616,0.119820,0.082181,0.189527,0.378624,0.222012,0.148218,0.588403,0.573567,0.321436,0.359497,0.238112,0.594053,0.297504,0.328814,0.221551,0.141911,1.121288,0.925559,0.307264,0.417092,0.278002,2.838865,0.524616,0.523989,0.229580,0.215877,1.974486,1.074367,0.650984,0.326024,0.201391,3.801930,0.586156,0.507645,0.296172,0.183386,3.269435,0.709912,0.441143,0.299267,0.158291
1768292347.813703,1768292347.814098,65.000000,0.000000,4333.461426,4320.512695,4317.820313,4346.922852,4313.717773,4313.333496,4316.025879,4322.307617,4312.820313,4291.410156,4509.487305,4521.794922,4397.948730,4460.384766,3991.000000,2.000000,47.000000,,,,0.000000,4.000000,4.000000,4.000000,4.000000,4.000000,4.000000,4.000000,4.000000,4.000000,4.000000,4.000000,4.000000,4.000000,4.000000,100.000000,,,,,,,,,,,,,,,,,,,,,,,,,,,,,,,,,,,,,,,,,,,,,,,,,,,,,,,,,,,,,,,,,,,,,,,,,,,,,,,,,,,,,,,,,,,,,,,,,,,,,,,,,,,,,,,,,,,,,
1768292347.821512,1768292347.821806,66.000000,0.000000,4324.487305,4310.897461,4321.922852,4341.538574,4311.025879,4316.282227,4315.256348,4320.384766,4310.256348,4294.615234,4512.436035,4521.538574,4397.436035,4459.743652,3931.000000,2.000000,47.000000,,,,0.000000,4.000000,4.000000,4.000000,4.000000,4.000000,4.000000,4.000000,4.000000,4.000000,4.000000,4.000000,4.000000,4.000000,4.000000,100.000000,,,,,,,,,,,,,,,,,,,,,,,,,,,,,,,,,,,,,,,,,,,,,,,,,,,,,,,,,,,,,,,,,,,,,,,,,,,,,,,,,,,,,,,,,,,,,,,,,,,,,,,,,,,,,,,,,,,,,
1768292347.829320,1768292347.829615,67.000000,0.000000,4315.512695,4302.563965,4320.512695,4337.307617,4308.589844,4312.436035,4313.717773,4313.461426,4308.974121,4299.358887,4510.000000,4518.077148,4391.666504,4455.769043,3872.000000,2.000000,47.000000,,,,0.000000,4.000000,4.000000,4.000000,4.000000,4.000000,4.000000,4.000000,4.000000,4.000000,4.000000,4.000000,4.000000,4.000000,4.000000,100.000000,,,,,,,,,,,,,,,,,,,,,,,,,,,,,,,,,,,,,,,,,,,,,,,,,,,,,,,,,,,,,,,,,,,,,,,,,,,,,,,,,,,,,,,,,,,,,,,,,,,,,,,,,,,,,,,,,,,,,
1768292347.837129,1768292347.837623,68.000000,0.000000,4325.128418,4315.128418,4315.384766,4342.307617,4309.487305,4314.230957,4319.230957,4320.769043,4312.948730,4297.692383,4511.153809,4521.410156,4391.025879,4458.077148,3715.000000,2.000000,47.000000,,,,0.000000,4.000000,4.000000,4.000000,4.000000,4.000000,4.000000,4.000000,4.000000,4.000000,4.000000,4.000000,4.000000,4.000000,4.000000,100.000000,,,,,,,,,,,,,,,,,,,,,,,,,,,,,,,,,,,,,,,,,,,,,,,,,,,,,,,,,,,,,,,,,,,,,,,,,,,,,,,,,,,,,,,,,,,,,,,,,,,,,,,,,,,,,,,,,,,,,
1768292347.844937,1768292347.845432,69.000000,0.000000,4330.512695,4318.461426,4313.461426,4342.692383,4310.769043,4314.871582,4317.051270,4324.102539,4313.077148,4293.974121,4515.384766,4524.102539,4396.153809,4463.077148,2949.000000,2.000000,47.000000,,,,0.000000,4.000000,4.000000,4.000000,4.000000,4.000000,4.000000,4.000000,4.000000,4.000000,4.000000,4.000000,4.000000,4.000000,4.000000,100.000000,,,,,,,,,,,,,,,,,,,,,,,,,,,,,,,,,,,,,,,,,,,,,,,,,,,,,,,,,,,,,,,,,,,,,,,,,,,,,,,,,,,,,,,,,,,,,,,,,,,,,,,,,,,,,,,,,,,,,
1768292347.852745,1768292347.853140,70.000000,0.000000,4328.077148,4306.666504,4314.487305,4341.025879,4310.641113,4311.666504,4310.641113,4310.384766,4308.846191,4295.256348,4517.948730,4520.384766,4402.948730,4460.128418,2661.000000,2.000000,47.000000,,,,0.000000,4.000000,4.000000,4.000000,4.000000,4.000000,4.000000,4.000000,4.000000,4.000000,4.000000,4.000000,4.000000,4.000000,4.000000,100.000000,,,,,,,,,,,,,,,,,,,,,,,,,,,,,,,,,,,,,,,,,,,,,,,,,,,,,,,,,,,,,,,,,,,,,,,,,,,,,,,,,,,,,,,,,,,,,,,,,,,,,,,,,,,,,,,,,,,,,
1768292347.860554,1768292347.860949,71.000000,0.000000,4335.000000,4310.769043,4319.487305,4344.487305,4310.512695,4315.641113,4316.538574,4312.436035,4312.820313,4301.794922,4521.794922,4524.358887,4411.153809,4461.922852,4014.000000,2.000000,47.000000,,,,0.000000,4.000000,4.000000,4.000000,4.000000,4.000000,4.000000,4.000000,4.000000,4.000000,4.000000,4.000000,4.000000,4.000000,4.000000,100.000000,,,,,,,,,,,,,,,,,,,,,,,,,,,,,,,,,,,,,,,,,,,,,,,,,,,,,,,,,,,,,,,,,,,,,,,,,,,,,,,,,,,,,,,,,,,,,,,,,,,,,,,,,,,,,,,,,,,,,
1768292347.868362,1768292347.868557,72.000000,0.000000,4342.563965,4323.205078,4325.000000,4347.436035,4310.769043,4321.282227,4323.717773,4328.077148,4318.717773,4307.820313,4525.897461,4536.538574,4414.487305,4473.717773,3507.000000,2.000000,47.000000,,,,0.000000,4.000000,4.000000,4.000000,4.000000,4.000000,4.000000,4.000000,4.000000,4.000000,4.000000,4.000000,4.000000,4.000000,4.000000,100.000000,,,,,,,,,,,,,,,,,,,,,,,,,,,,,,,,,,,,,,,,,,,,,,,,,,,,,,,,,,,,,,,,,,,,,,,,,,,,,,,,,,,,,,,,,,,,,,,,,,,,,,,,,,,,,,,,,,,,,
1768292347.876171,1768292347.876366,73.000000,0.000000,4340.641113,4319.358887,4325.641113,4345.256348,4310.128418,4317.692383,4319.102539,4326.025879,4314.743652,4302.307617,4527.820313,4541.025879,4413.846191,4478.461426,3827.000000,2.000000,47.000000,,,,0.000000,4.000000,4.000000,4.000000,4.000000,4.000000,4.000000,4.000000,4.000000,4.000000,4.000000,4.000000,4.000000,4.000000,4.000000,100.000000,,,,,,,,,,,,,,,,,,,,,,,,,,,,,,,,,,,,,,,,,,,,,,,,,,,,,,,,,,,,,,,,,,,,,,,,,,,,,,,,,,,,,,,,,,,,,,,,,,,,,,,,,,,,,,,,,,,,,
1768292347.883979,1768292347.884074,74.000000,0.000000,4336.410156,4312.563965,4321.922852,4342.692383,4307.436035,4314.871582,4313.846191,4320.897461,4310.641113,4293.333496,4526.153809,4538.974121,4413.205078,4475.256348,4323.000000,2.000000,47.000000,,,,0.000000,4.000000,4.000000,4.000000,4.000000,4.000000,4.000000,4.000000,4.000000,4.000000,4.000000,4.000000,4.000000,4.000000,4.000000,100.000000,,,,,,,,,,,,,,,,,,,,,,,,,,,,,,,,,,,,,,,,,,,,,,,,,,,,,,,,,,,,,,,,,,,,,,,,,,,,,,,,,,,,,,,,,,,,,,,,,,,,,,,,,,,,,,,,,,,,,
1768292347.891787,1768292347.891883,75.000000,0.000000,4336.282227,4314.358887,4319.871582,4342.820313,4305.769043,4319.358887,4316.538574,4325.897461,4313.846191,4295.641113,4524.743652,4540.000000,4412.820313,4477.563965,4726.000000,2.000000,47.000000,,,,0.000000,4.000000,4.000000,4.000000,4.000000,4.000000,4.000000,4.000000,4.000000,4.000000,4.000000,4.000000,4.000000,4.000000,4.000000,100.000000,,,,,,,,,,,,,,,,,,,,,,,,,,,,,,,,,,,,,,,,,,,,,,,,,,,,,,,,,,,,,,,,,,,,,,,,,,,,,,,,,,,,,,,,,,,,,,,,,,,,,,,,,,,,,,,,,,,,,
1768292347.899596,1768292347.899891,76.000000,0.000000,4340.512695,4321.282227,4325.128418,4347.307617,4309.615234,4316.282227,4318.461426,4327.948730,4316.794922,4297.948730,4525.512695,4541.410156,4412.436035,4479.871582,4741.000000,2.000000,47.000000,,,,0.000000,4.000000,4.000000,4.000000,4.000000,4.000000,4.000000,4.000000,4.000000,4.000000,4.000000,4.000000,4.000000,4.000000,4.000000,100.000000,,,,,,,,,,,,,,,,,,,,,,,,,,,,,,,,,,,,,,,,,,,,,,,,,,,,,,,,,,,,,,,,,,,,,,,,,,,,,,,,,,,,,,,,,,,,,,,,,,,,,,,,,,,,,,,,,,,,,
1768292347.907404,1768292347.907699,77.000000,0.000000,4340.641113,4325.000000,4329.871582,4352.820313,4310.897461,4307.436035,4317.307617,4327.179688,4322.179688,4291.794922,4526.794922,4541.666504,4413.461426,4477.307617,5574.000000,2.000000,47.000000,,,,0.000000,4.000000,4.000000,4.000000,4.000000,4.000000,4.000000,4.000000,4.000000,4.000000,4.000000,4.000000,4.000000,4.000000,4.000000,100.000000,,,,,,,,,,,,,,,,,,,,,,,,,,,,,,,,,,,,,,,,,,,,,,,,,,,,,,,,,,,,,,,,,,,,,,,,,,,,,,,,,,,,,,,,,,,,,,,,,,,,,,,,,,,,,,,,,,,,,
1768292347.915213,1768292347.915608,78.000000,0.000000,4334.871582,4321.922852,4322.692383,4352.820313,4308.333496,4312.179688,4320.512695,4327.820313,4325.000000,4293.846191,4527.179688,4540.384766,4413.461426,4476.282227,4323.000000,2.000000,47.000000,,,,0.000000,4.000000,4.000000,4.000000,4.000000,4.000000,4.000000,4.000000,4.000000,4.000000,4.000000,4.000000,4.000000,4.000000,4.000000,100.000000,,,,,,,,,,,,,,,,,,,,,,,,,,,,,,,,,,,,,,,,,,,,,,,,,,,,,,,,,,,,,,,,,,,,,,,,,,,,,,,,,,,,,,,,,,,,,,,,,,,,,,,,,,,,,,,,,,,,,
1768292347.923021,1768292347.923416,79.000000,0.000000,4335.897461,4322.307617,4315.000000,4352.307617,4310.641113,4322.820313,4323.974121,4325.128418,4316.025879,4306.025879,4525.256348,4538.333496,4412.563965,4476.025879,4726.000000,2.000000,47.000000,,,,0.000000,4.000000,4.000000,4.000000,4.000000,4.000000,4.000000,4.000000,4.000000,4.000000,4.000000,4.000000,4.000000,4.000000,4.000000,100.000000,,,,,,,,,,,,,,,,,,,,,,,,,,,,,,,,,,,,,,,,,,,,,,,,,,,,,,,,,,,,,,,,,,,,,,,,,,,,,,,,,,,,,,,,,,,,,,,,,,,,,,,,,,,,,,,,,,,,,
1768292347.930829,1768292347.931424,80.000000,0.000000,4339.358887,4326.410156,4319.230957,4350.512695,4313.333496,4320.512695,4321.538574,4322.692383,4310.256348,4306.282227,4523.974121,4535.128418,4412.179688,4476.153809,4741.000000,2.000000,47.000000,,,,0.000000,4.000000,4.000000,4.000000,4.000000,4.000000,4.000000,4.000000,4.000000,4.000000,4.000000,4.000000,4.000000,4.000000,4.000000,100.000000,1.000000,75.000000,4.000000,4.000000,4.000000,4.000000,4.000000,1.000000,4.000000,4.000000,4.000000,4.000000,4.000000,4.000000,4.000000,4.000000,,,,,,,,,,,,,,,,,,,,,,,,,,,,,,,,2.296322,0.895953,0.373772,0.273510,0.125341,2.042188,0.414487,0.439444,0.172850,0.106087,0.502318,0.476860,0.233284,0.206081,0.056810,1.351638,0.845712,0.571476,0.193645,0.098491,2.747691,0.283318,0.255502,0.148758,0.069151,0.068650,0.117621,0.323973,0.192243,0.125168,0.076823,0.173145,0.355346,0.211595,0.141672,0.588894,0.467536,0.290857,0.366706,0.288798,0.597758,0.279904,0.361511,0.223098,0.169272,1.141476,0.788714,0.252519,0.353297,0.301163,2.937151,0.420663,0.447658,0.193846,0.247472,1.925451,0.856597,0.506461,0.310877,0.244223,3.777878,0.474144,0.411103,0.246905,0.196753,2.988434,0.573363,0.426039,0.316188,0.180651
1768292347.938638,1768292347.939233,81.000000,0.000000,4335.000000,4325.897461,4321.025879,4346.282227,4311.025879,4314.487305,4319.230957,4322.820313,4313.589844,4298.589844,4527.436035,4530.512695,4413.333496,4472.948730,5574.000000,2.000000,47.000000,,,,0.000000,4.000000,4.000000,4.000000,4.000000,4.000000,4.000000,4.000000,4.000000,4.000000,4.000000,4.000000,4.000000,4.000000,4.000000,100.000000,,,,,,,,,,,,,,,,,,,,,,,,,,,,,,,,,,,,,,,,,,,,,,,,,,,,,,,,,,,,,,,,,,,,,,,,,,,,,,,,,,,,,,,,,,,,,,,,,,,,,,,,,,,,,,,,,,,,,
1768292347.946446,1768292347.947141,82.000000,0.000000,4323.717773,4316.282227,4309.615234,4339.743652,4307.563965,4315.769043,4316.922852,4319.871582,4310.512695,4293.461426,4521.538574,4522.692383,4407.692383,4462.820313,4323.000000,2.000000,47.000000,,,,0.000000,4.000000,4.000000,4.000000,4.000000,4.000000,4.000000,4.000000,4.000000,4.000000,4.000000,4.000000,4.000000,4.000000,4.000000,100.000000,,,,,,,,,,,,,,,,,,,,,,,,,,,,,,,,,,,,,,,,,,,,,,,,,,,,,,,,,,,,,,,,,,,,,,,,,,,,,,,,,,,,,,,,,,,,,,,,,,,,,,,,,,,,,,,,,,,,,
1768292347.954255,1768292347.954950,83.000000,0.000000,4315.128418,4307.563965,4301.794922,4334.358887,4307.307617,4319.102539,4320.769043,4323.974121,4308.717773,4289.230957,4507.307617,4518.461426,4394.230957,4452.692383,4726.000000,2.000000,47.000000,,,,0.000000,4.000000,4.000000,4.000000,4.000000,4.000000,4.000000,4.000000,4.000000,4.000000,4.000000,4.000000,4.000000,4.000000,4.000000,100.000000,,,,,,,,,,,,,,,,,,,,,,,,,,,,,,,,,,,,,,,,,,,,,,,,,,,,,,,,,,,,,,,,,,,,,,,,,,,,,,,,,,,,,,,,,,,,,,,,,,,,,,,,,,,,,,,,,,,,,
1768292347.962063,1768292347.962958,84.000000,0.000000,4321.922852,4313.974121,4311.666504,4340.897461,4313.974121,4322.051270,4332.563965,4336.666504,4321.153809,4295.384766,4511.282227,4528.974121,4396.282227,4458.717773,4741.000000,2.000000,47.000000,,,,0.000000,4.000000,4.000000,4.000000,4.000000,4.000000,4.000000,4.000000,4.000000,4.000000,4.000000,4.000000,4.000000,4.000000,4.000000,100.000000,,,,,,,,,,,,,,,,,,,,,,,,,,,,,,,,,,,,,,,,,,,,,,,,,,,,,,,,,,,,,,,,,,,,,,,,,,,,,,,,,,,,,,,,,,,,,,,,,,,,,,,,,,,,,,,,,,,,,
1768292347.969872,1768292347.970766,85.000000,0.000000,4340.000000,4329.871582,4326.025879,4355.769043,4322.051270,4322.179688,4330.769043,4337.563965,4331.666504,4315.769043,4527.948730,4543.333496,4414.230957,4474.615234,5574.000000,2.000000,47.000000,,,,0.000000,4.000000,4.000000,4.000000,4.000000,4.000000,4.000000,4.000000,4.000000,4.000000,4.000000,4.000000,4.000000,4.000000,4.000000,100.000000,,,,,,,,,,,,,,,,,,,,,,,,,,,,,,,,,,,,,,,,,,,,,,,,,,,,,,,,,,,,,,,,,,,,,,,,,,,,,,,,,,,,,,,,,,,,,,,,,,,,,,,,,,,,,,,,,,,,,
1768292347.977680,1768292347.978475,86.000000,0.000000,4345.000000,4336.922852,4325.769043,4360.769043,4325.641113,4319.615234,4317.307617,4327.820313,4328.077148,4323.589844,4530.128418,4543.333496,4416.538574,4476.282227,4323.000000,2.000000,47.000000,,,,0.000000,4.000000,4.000000,4.000000,4.000000,4.000000,4.000000,4.000000,4.000000,4.000000,4.000000,4.000000,4.000000,4.000000,4.000000,100.000000,,,,,,,,,,,,,,,,,,,,,,,,,,,,,,,,,,,,,,,,,,,,,,,,,,,,,,,,,,,,,,,,,,,,,,,,,,,,,,,,,,,,,,,,,,,,,,,,,,,,,,,,,,,,,,,,,,,,,
1768292347.985489,1768292347.986283,87.000000,0.000000,4329.487305,4330.512695,4316.153809,4350.000000,4324.358887,4317.563965,4316.538574,4325.000000,4317.820313,4303.205078,4517.179688,4530.128418,4401.410156,4463.205078,4726.000000,2.000000,47.000000,,,,0.000000,4.000000,4.000000,4.000000,4.000000,4.000000,4.000000,4.000000,4.000000,4.000000,4.000000,4.000000,4.000000,4.000000,4.000000,100.000000,,,,,,,,,,,,,,,,,,,,,,,,,,,,,,,,,,,,,,,,,,,,,,,,,,,,,,,,,,,,,,,,,,,,,,,,,,,,,,,,,,,,,,,,,,,,,,,,,,,,,,,,,,,,,,,,,,,,,
1768292347.993297,1768292347.993892,88.000000,0.000000,4317.051270,4325.641113,4314.230957,4345.000000,4321.538574,4316.538574,4323.205078,4328.077148,4313.333496,4289.358887,4508.077148,4521.922852,4395.641113,4451.794922,4741.000000,2.000000,47.000000,,,,0.000000,4.000000,4.000000,4.000000,4.000000,4.000000,4.000000,4.000000,4.000000,4.000000,4.000000,4.000000,4.000000,4.000000,4.000000,100.000000,,,,,,,,,,,,,,,,,,,,,,,,,,,,,,,,,,,,,,,,,,,,,,,,,,,,,,,,,,,,,,,,,,,,,,,,,,,,,,,,,,,,,,,,,,,,,,,,,,,,,,,,,,,,,,,,,,,,,
1768292348.001105,1768292348.001700,89.000000,0.000000,4318.717773,4327.820313,4318.589844,4348.846191,4320.897461,4316.922852,4320.384766,4324.230957,4318.077148,4304.102539,4507.563965,4524.102539,4398.461426,4454.230957,5574.000000,2.000000,47.000000,,,,0.000000,4.000000,4.000000,4.000000,4.000000,4.000000,4.000000,4.000000,4.000000,4.000000,4.000000,4.000000,4.000000,4.000000,4.000000,100.000000,,,,,,,,,,,,,,,,,,,,,,,,,,,,,,,,,,,,,,,,,,,,,,,,,,,,,,,,,,,,,,,,,,,,,,,,,,,,,,,,,,,,,,,,,,,,,,,,,,,,,,,,,,,,,,,,,,,,,
1768292348.008914,1768292348.009409,90.000000,0.000000,4320.384766,4327.436035,4316.922852,4346.410156,4321.282227,4316.538574,4314.871582,4317.692383,4320.641113,4315.512695,4507.820313,4522.307617,4397.307617,4457.307617,4323.000000,2.000000,47.000000,,,,0.000000,4.000000,4.000000,4.000000,4.000000,4.000000,4.000000,4.000000,4.000000,4.000000,4.000000,4.000000,4.000000,4.000000,4.000000,100.000000,,,,,,,,,,,,,,,,,,,,,,,,,,,,,,,,,,,,,,,,,,,,,,,,,,,,,,,,,,,,,,,,,,,,,,,,,,,,,,,,,,,,,,,,,,,,,,,,,,,,,,,,,,,,,,,,,,,,,
1768292348.016722,1768292348.017217,91.000000,0.000000,4321.538574,4324.487305,4311.282227,4344.358887,4320.769043,4312.820313,4312.692383,4317.051270,4318.717773,4307.563965,4508.974121,4517.820313,4399.871582,4458.205078,4726.000000,2.000000,47.000000,,,,0.000000,4.000000,4.000000,4.000000,4.000000,4.000000,4.000000,4.000000,4.000000,4.000000,4.000000,4.000000,4.000000,4.000000,4.000000,100.000000,,,,,,,,,,,,,,,,,,,,,,,,,,,,,,,,,,,,,,,,,,,,,,,,,,,,,,,,,,,,,,,,,,,,,,,,,,,,,,,,,,,,,,,,,,,,,,,,,,,,,,,,,,,,,,,,,,,,,
1768292348.024531,1768292348.025226,92.000000,0.000000,4326.922852,4326.922852,4314.743652,4351.410156,4322.948730,4314.743652,4316.410156,4324.230957,4323.333496,4303.205078,4511.794922,4526.538574,4408.461426,4464.743652,4741.000000,2.000000,47.000000,,,,0.000000,4.000000,4.000000,4.000000,4.000000,4.000000,4.000000,4.000000,4.000000,4.000000,4.000000,4.000000,4.000000,4.000000,4.000000,100.000000,,,,,,,,,,,,,,,,,,,,,,,,,,,,,,,,,,,,,,,,,,,,,,,,,,,,,,,,,,,,,,,,,,,,,,,,,,,,,,,,,,,,,,,,,,,,,,,,,,,,,,,,,,,,,,,,,,,,,
1768292348.032339,1768292348.033034,93.000000,0.000000,4327.563965,4329.358887,4319.230957,4354.102539,4326.922852,4321.153809,4320.512695,4327.692383,4325.128418,4309.743652,4511.538574,4533.717773,4408.461426,4466.153809,5574.000000,2.000000,47.000000,,,,0.000000,4.000000,4.000000,4.000000,4.000000,4.000000,4.000000,4.000000,4.000000,4.000000,4.000000,4.000000,4.000000,4.000000,4.000000,100.000000,,,,,,,,,,,,,,,,,,,,,,,,,,,,,,,,,,,,,,,,,,,,,,,,,,,,,,,,,,,,,,,,,,,,,,,,,,,,,,,,,,,,,,,,,,,,,,,,,,,,,,,,,,,,,,,,,,,,,
1768292348.040147,1768292348.040942,94.000000,0.000000,4322.820313,4327.051270,4313.974121,4346.025879,4324.487305,4318.589844,4317.948730,4325.769043,4322.179688,4309.358887,4514.102539,4527.307617,4398.461426,4461.410156,4323.000000,2.000000,47.000000,,,,0.000000,4.000000,4.000000,4.000000,4.000000,4.000000,4.000000,4.000000,4.000000,4.000000,4.000000,4.000000,4.000000,4.000000,4.000000,100.000000,,,,,,,,,,,,,,,,,,,,,,,,,,,,,,,,,,,,,,,,,,,,,,,,,,,,,,,,,,,,,,,,,,,,,,,,,,,,,,,,,,,,,,,,,,,,,,,,,,,,,,,,,,,,,,,,,,,,,
1768292348.047956,1768292348.048751,95.000000,0.000000,4325.769043,4325.384766,4311.794922,4341.153809,4321.666504,4313.846191,4317.179688,4329.871582,4323.846191,4305.512695,4520.641113,4528.077148,4395.384766,4461.538574,4726.000000,2.000000,47.000000,,,,0.000000,4.000000,4.000000,4.000000,4.000000,4.000000,4.000000,4.000000,4.000000,4.000000,4.000000,4.000000,4.000000,4.000000,4.000000,100.000000,,,,,,,,,,,,,,,,,,,,,,,,,,,,,,,,,,,,,,,,,,,,,,,,,,,,,,,,,,,,,,,,,,,,,,,,,,,,,,,,,,,,,,,,,,,,,,,,,,,,,,,,,,,,,,,,,,,,,
1768292348.055764,1768292348.056360,96.000000,0.000000,4328.205078,4324.102539,4316.538574,4341.666504,4322.820313,4315.384766,4319.358887,4331.153809,4320.128418,4309.102539,4516.410156,4529.615234,4401.153809,4464.358887,4741.000000,2.000000,47.000000,,,,0.000000,4.000000,4.000000,4.000000,4.000000,4.000000,4.000000,4.000000,4.000000,4.000000,4.000000,4.000000,4.000000,4.000000,4.000000,100.000000,,,,,,,,,,,,,,,,,,,,,,,,,,,,,,,,,,,,,,,,,,,,,,,,2.238740,0.782563,0.363889,0.283155,0.132853,2.099898,0.377512,0.437072,0.164603,0.115742,0.430685,0.372270,0.226851,0.203613,0.058787,1.376473,0.711644,0.468499,0.198193,0.106543,2.611860,0.291987,0.241088,0.141147,0.070076,0.050063,0.095196,0.283450,0.175591,0.127025,0.081014,0.158778,0.327125,0.205297,0.133993,0.605103,0.390902,0.301979,0.364010,0.333173,0.588234,0.287905,0.402822,0.222195,0.190785,1.184644,0.690358,0.242760,0.307307,0.311016,2.939873,0.345878,0.397308,0.173376,0.261083,1.858977,0.685696,0.433019,0.313762,0.273032,3.588559,0.385968,0.349887,0.205780,0.198430,2.720028,0.467363,0.416557,0.348349,0.201980
1768292348.063573,1768292348.064168,97.000000,0.000000,4328.077148,4324.615234,4321.538574,4343.974121,4322.436035,4319.871582,4323.333496,4324.615234,4309.743652,4311.282227,4511.922852,4524.615234,4406.410156,4461.025879,5574.000000,2.000000,47.000000,,,,0.000000,4.000000,4.000000,4.000000,4.000000,4.000000,4.000000,4.000000,4.000000,4.000000,4.000000,4.000000,4.000000,4.000000,4.000000,100.000000,,,,,,,,,,,,,,,,,,,,,,,,,,,,,,,,,,,,,,,,,,,,,,,,,,,,,,,,,,,,,,,,,,,,,,,,,,,,,,,,,,,,,,,,,,,,,,,,,,,,,,,,,,,,,,,,,,,,,
1768292348.071381,1768292348.071877,98.000000,0.000000,4333.077148,4325.769043,4324.230957,4346.282227,4322.179688,4318.333496,4324.358887,4324.230957,4311.025879,4305.256348,4520.512695,4530.000000,4406.794922,4460.128418,4323.000000,2.000000,47.000000,,,,0.000000,4.000000,4.000000,4.000000,4.000000,4.000000,4.000000,4.000000,4.000000,4.000000,4.000000,4.000000,4.000000,4.000000,4.000000,100.000000,,,,,,,,,,,,,,,,,,,,,,,,,,,,,,,,,,,,,,,,,,,,,,,,,,,,,,,,,,,,,,,,,,,,,,,,,,,,,,,,,,,,,,,,,,,,,,,,,,,,,,,,,,,,,,,,,,,,,
1768292348.079190,1768292348.079685,99.000000,0.000000,4332.692383,4319.871582,4319.487305,4343.333496,4322.563965,4312.051270,4317.307617,4330.641113,4317.179688,4301.153809,4523.077148,4536.922852,4405.000000,4462.307617,4726.000000,2.000000,47.000000,,,,0.000000,4.000000,4.000000,4.000000,4.000000,4.000000,4.000000,4.000000,4.000000,4.000000,4.000000,4.000000,4.000000,4.000000,4.000000,100.000000,,,,,,,,,,,,,,,,,,,,,,,,,,,,,,,,,,,,,,,,,,,,,,,,,,,,,,,,,,,,,,,,,,,,,,,,,,,,,,,,,,,,,,,,,,,,,,,,,,,,,,,,,,,,,,,,,,,,,
1768292348.086998,1768292348.087294,100.000000,0.000000,4323.974121,4314.743652,4313.461426,4340.769043,4323.717773,4312.820313,4315.000000,4327.179688,4312.948730,4309.102539,4518.717773,4529.615234,4408.077148,4460.897461,4741.000000,2.000000,47.000000,,,,0.000000,4.000000,4.000000,4.000000,4.000000,4.000000,4.000000,4.000000,4.000000,4.000000,4.000000,4.000000,4.000000,4.000000,4.000000,100.000000,,,,,,,,,,,,,,,,,,,,,,,,,,,,,,,,,,,,,,,,,,,,,,,,,,,,,,,,,,,,,,,,,,,,,,,,,,,,,,,,,,,,,,,,,,,,,,,,,,,,,,,,,,,,,,,,,,,,,
1768292348.094806,1768292348.095102,101.000000,0.000000,4322.179688,4318.974121,4316.410156,4345.769043,4323.846191,4319.230957,4318.077148,4318.333496,4307.820313,4312.436035,4520.769043,4520.769043,4413.077148,4458.717773,5574.000000,2.000000,47.000000,,,,0.000000,4.000000,4.000000,4.000000,4.000000,4.000000,4.000000,4.000000,4.000000,4.000000,4.000000,4.000000,4.000000,4.000000,4.000000,100.000000,,,,,,,,,,,,,,,,,,,,,,,,,,,,,,,,,,,,,,,,,,,,,,,,,,,,,,,,,,,,,,,,,,,,,,,,,,,,,,,,,,,,,,,,,,,,,,,,,,,,,,,,,,,,,,,,,,,,,
1768292348.102615,1768292348.103010,102.000000,0.000000,4324.487305,4321.794922,4320.384766,4349.487305,4321.666504,4321.153809,4317.179688,4318.461426,4310.128418,4301.666504,4521.794922,4518.205078,4412.948730,4455.256348,4323.000000,2.000000,47.000000,,,,0.000000,4.000000,4.000000,4.000000,4.000000,4.000000,4.000000,4.000000,4.000000,4.000000,4.000000,4.000000,4.000000,4.000000,4.000000,100.000000,,,,,,,,,,,,,,,,,,,,,,,,,,,,,,,,,,,,,,,,,,,,,,,,,,,,,,,,,,,,,,,,,,,,,,,,,,,,,,,,,,,,,,,,,,,,,,,,,,,,,,,,,,,,,,,,,,,,,
1768292348.110423,1768292348.110819,103.000000,0.000000,4316.666504,4320.256348,4315.769043,4344.871582,4317.563965,4316.025879,4313.077148,4321.666504,4311.794922,4293.333496,4519.615234,4516.025879,4409.871582,4453.205078,4726.000000,2.000000,47.000000,,,,0.000000,4.000000,4.000000,4.000000,4.000000,4.000000,4.000000,4.000000,4.000000,4.000000,4.000000,4.000000,4.000000,4.000000,4.000000,100.000000,,,,,,,,,,,,,,,,,,,,,,,,,,,,,,,,,,,,,,,,,,,,,,,,,,,,,,,,,,,,,,,,,,,,,,,,,,,,,,,,,,,,,,,,,,,,,,,,,,,,,,,,,,,,,,,,,,,,,
1768292348.118232,1768292348.118827,104.000000,0.000000,4310.000000,4322.051270,4315.512695,4341.153809,4312.820313,4312.436035,4312.051270,4323.077148,4311.538574,4293.077148,4523.846191,4521.282227,4410.897461,4456.794922,4741.000000,2.000000,47.000000,,,,0.000000,4.000000,4.000000,4.000000,4.000000,4.000000,4.000000,4.000000,4.000000,4.000000,4.000000,4.000000,4.000000,4.000000,4.000000,100.000000,,,,,,,,,,,,,,,,,,,,,,,,,,,,,,,,,,,,,,,,,,,,,,,,,,,,,,,,,,,,,,,,,,,,,,,,,,,,,,,,,,,,,,,,,,,,,,,,,,,,,,,,,,,,,,,,,,,,,
1768292348.126040,1768292348.126636,105.000000,0.000000,4313.974121,4323.461426,4321.538574,4341.410156,4308.077148,4314.615234,4312.307617,4324.871582,4314.743652,4295.641113,4528.333496,4531.410156,4415.769043,4460.256348,5574.000000,2.000000,47.000000,,,,0.000000,4.000000,4.000000,4.000000,4.000000,4.000000,4.000000,4.000000,4.000000,4.000000,4.000000,4.000000,4.000000,4.000000,4.000000,100.000000,,,,,,,,,,,,,,,,,,,,,,,,,,,,,,,,,,,,,,,,,,,,,,,,,,,,,,,,,,,,,,,,,,,,,,,,,,,,,,,,,,,,,,,,,,,,,,,,,,,,,,,,,,,,,,,,,,,,,
1768292348.133849,1768292348.134544,106.000000,0.000000,4318.974121,4322.948730,4322.179688,4344.871582,4307.563965,4319.615234,4320.256348,4328.717773,4320.256348,4301.922852,4528.974121,4538.205078,4416.153809,4460.000000,4323.000000,2.000000,47.000000,,,,0.000000,4.000000,4.000000,4.000000,4.000000,4.000000,4.000000,4.000000,4.000000,4.000000,4.000000,4.000000,4.000000,4.000000,4.000000,100.000000,,,,,,,,,,,,,,,,,,,,,,,,,,,,,,,,,,,,,,,,,,,,,,,,,,,,,,,,,,,,,,,,,,,,,,,,,,,,,,,,,,,,,,,,,,,,,,,,,,,,,,,,,,,,,,,,,,,,,
1768292348.141657,1768292348.142352,107.000000,0.000000,4319.743652,4326.794922,4320.641113,4347.692383,4308.205078,4321.538574,4330.384766,4332.563965,4322.563965,4299.102539,4531.410156,4539.102539,4412.051270,4459.358887,4726.000000,2.000000,47.000000,,,,0.000000,4.000000,4.000000,4.000000,4.000000,4.000000,4.000000,4.000000,4.000000,4.000000,4.000000,4.000000,4.000000,4.000000,4.000000,100.000000,,,,,,,,,,,,,,,,,,,,,,,,,,,,,,,,,,,,,,,,,,,,,,,,,,,,,,,,,,,,,,,,,,,,,,,,,,,,,,,,,,,,,,,,,,,,,,,,,,,,,,,,,,,,,,,,,,,,,
1768292348.149465,1768292348.150361,108.000000,0.000000,4320.512695,4327.820313,4320.000000,4346.538574,4303.846191,4318.205078,4323.589844,4339.230957,4324.230957,4291.794922,4537.051270,4537.179688,4418.077148,4459.615234,4741.000000,2.000000,47.000000,,,,0.000000,4.000000,4.000000,4.000000,4.000000,4.000000,4.000000,4.000000,4.000000,4.000000,4.000000,4.000000,4.000000,4.000000,4.000000,100.000000,,,,,,,,,,,,,,,,,,,,,,,,,,,,,,,,,,,,,,,,,,,,,,,,,,,,,,,,,,,,,,,,,,,,,,,,,,,,,,,,,,,,,,,,,,,,,,,,,,,,,,,,,,,,,,,,,,,,,
1768292348.157274,1768292348.158169,109.000000,0.000000,4325.512695,4326.153809,4319.743652,4348.205078,4301.025879,4319.615234,4319.230957,4345.641113,4329.230957,4301.794922,4541.282227,4540.769043,4430.897461,4461.666504,5574.000000,2.000000,47.000000,,,,0.000000,4.000000,4.000000,4.000000,4.000000,4.000000,4.000000,4.000000,4.000000,4.000000,4.000000,4.000000,4.000000,4.000000,4.000000,100.000000,,,,,,,,,,,,,,,,,,,,,,,,,,,,,,,,,,,,,,,,,,,,,,,,,,,,,,,,,,,,,,,,,,,,,,,,,,,,,,,,,,,,,,,,,,,,,,,,,,,,,,,,,,,,,,,,,,,,,
1768292348.165082,1768292348.165878,110.000000,0.000000,4326.794922,4327.948730,4321.666504,4353.077148,4301.922852,4324.487305,4326.666504,4336.922852,4327.948730,4311.410156,4540.128418,4542.563965,4425.128418,4462.692383,4323.000000,2.000000,47.000000,,,,0.000000,4.000000,4.000000,4.000000,4.000000,4.000000,4.000000,4.000000,4.000000,4.000000,4.000000,4.000000,4.000000,4.000000,4.000000,100.000000,,,,,,,,,,,,,,,,,,,,,,,,,,,,,,,,,,,,,,,,,,,,,,,,,,,,,,,,,,,,,,,,,,,,,,,,,,,,,,,,,,,,,,,,,,,,,,,,,,,,,,,,,,,,,,,,,,,,,
1768292348.172891,1768292348.173686,111.000000,0.000000,4324.358887,4328.974121,4323.974121,4352.307617,4303.974121,4323.589844,4321.153809,4321.153809,4314.871582,4303.333496,4536.794922,4538.333496,4414.487305,4462.820313,4726.000000,2.000000,47.000000,,,,0.000000,4.000000,4.000000,4.000000,4.000000,4.000000,4.000000,4.000000,4.000000,4.000000,4.000000,4.000000,4.000000,4.000000,4.000000,100.000000,,,,,,,,,,,,,,,,,,,,,,,,,,,,,,,,,,,,,,,,,,,,,,,,,,,,,,,,,,,,,,,,,,,,,,,,,,,,,,,,,,,,,,,,,,,,,,,,,,,,,,,,,,,,,,,,,,,,,
1768292348.180699,1768292348.181295,112.000000,0.000000,4326.153809,4327.692383,4322.820313,4348.205078,4303.461426,4317.307617,4308.205078,4319.102539,4308.846191,4296.922852,4534.871582,4536.153809,4422.051270,4460.641113,4741.000000,2.000000,47.000000,,,,0.000000,4.000000,4.000000,4.000000,4.000000,4.000000,4.000000,4.000000,4.000000,4.000000,4.000000,4.000000,4.000000,4.000000,4.000000,100.000000,,,,,,,,,,,,,,,,,,,,,,,,,,,,,,,,,,,,,,,,,,,,,,,,2.052404,0.622913,0.357399,0.284599,0.138823,2.143323,0.318290,0.425248,0.155520,0.124967,0.357582,0.267370,0.225477,0.188292,0.062517,1.424250,0.561981,0.358297,0.193325,0.110400,2.449363,0.304628,0.205821,0.128703,0.069016,0.038071,0.081658,0.242519,0.157608,0.124735,0.099554,0.144798,0.297815,0.207360,0.125670,0.640880,0.349752,0.345100,0.348304,0.355510,0.558449,0.306247,0.442692,0.219525,0.201370,1.228011,0.653692,0.273492,0.288595,0.305607,2.839867,0.309103,0.368059,0.170453,0.252287,1.808113,0.570907,0.435403,0.333687,0.280229,3.293218,0.334125,0.330773,0.177206,0.187521,2.467400,0.405916,0.412003,0.387832,0.216299
1768292348.188507,1768292348.189103,113.000000,0.000000,4328.717773,4330.641113,4321.153809,4349.487305,4299.358887,4318.333496,4315.384766,4328.077148,4316.025879,4300.769043,4537.307617,4539.230957,4428.846191,4459.358887,5574.000000,2.000000,47.000000,,,,0.000000,4.000000,4.000000,4.000000,4.000000,4.000000,4.000000,4.000000,4.000000,4.000000,4.000000,4.000000,4.000000,4.000000,4.000000,100.000000,,,,,,,,,,,,,,,,,,,,,,,,,,,,,,,,,,,,,,,,,,,,,,,,,,,,,,,,,,,,,,,,,,,,,,,,,,,,,,,,,,,,,,,,,,,,,,,,,,,,,,,,,,,,,,,,,,,,,
1768292348.196316,1768292348.196812,114.000000,0.000000,4327.692383,4338.333496,4323.974121,4354.102539,4300.000000,4328.205078,4327.307617,4330.000000,4322.179688,4304.743652,4541.538574,4542.436035,4425.769043,4466.282227,4323.000000,2.000000,47.000000,,,,0.000000,4.000000,4.000000,4.000000,4.000000,4.000000,4.000000,4.000000,4.000000,4.000000,4.000000,4.000000,4.000000,4.000000,4.000000,100.000000,,,,,,,,,,,,,,,,,,,,,,,,,,,,,,,,,,,,,,,,,,,,,,,,,,,,,,,,,,,,,,,,,,,,,,,,,,,,,,,,,,,,,,,,,,,,,,,,,,,,,,,,,,,,,,,,,,,,,
1768292348.204124,1768292348.204620,115.000000,0.000000,4329.358887,4341.153809,4325.256348,4357.436035,4306.025879,4328.205078,4319.358887,4325.512695,4321.025879,4307.307617,4541.410156,4541.153809,4426.922852,4476.538574,4726.000000,2.000000,47.000000,,,,0.000000,4.000000,4.000000,4.000000,4.000000,4.000000,4.000000,4.000000,4.000000,4.000000,4.000000,4.000000,4.000000,4.000000,4.000000,100.000000,,,,,,,,,,,,,,,,,,,,,,,,,,,,,,,,,,,,,,,,,,,,,,,,,,,,,,,,,,,,,,,,,,,,,,,,,,,,,,,,,,,,,,,,,,,,,,,,,,,,,,,,,,,,,,,,,,,,,
1768292348.211933,1768292348.212229,116.000000,0.000000,4335.769043,4340.384766,4323.717773,4358.077148,4309.102539,4318.974121,4312.436035,4324.615234,4316.538574,4308.077148,4537.051270,4538.717773,4425.128418,4476.025879,4741.000000,2.000000,47.000000,,,,0.000000,4.000000,4.000000,4.000000,4.000000,4.000000,4.000000,4.000000,4.000000,4.000000,4.000000,4.000000,4.000000,4.000000,4.000000,100.000000,,,,,,,,,,,,,,,,,,,,,,,,,,,,,,,,,,,,,,,,,,,,,,,,,,,,,,,,,,,,,,,,,,,,,,,,,,,,,,,,,,,,,,,,,,,,,,,,,,,,,,,,,,,,,,,,,,,,,
1768292348.219741,1768292348.220037,117.000000,0.000000,4337.051270,4339.871582,4322.051270,4356.282227,4309.102539,4317.820313,4315.256348,4325.384766,4313.589844,4307.307617,4532.051270,4537.692383,4415.000000,4468.077148,5574.000000,2.000000,47.000000,,,,0.000000,4.000000,4.000000,4.000000,4.000000,4.000000,4.000000,4.000000,4.000000,4.000000,4.000000,4.000000,4.000000,4.000000,4.000000,100.000000,,,,,,,,,,,,,,,,,,,,,,,,,,,,,,,,,,,,,,,,,,,,,,,,,,,,,,,,,,,,,,,,,,,,,,,,,,,,,,,,,,,,,,,,,,,,,,,,,,,,,,,,,,,,,,,,,,,,,
1768292348.227550,1768292348.227946,118.000000,0.000000,4331.666504,4339.487305,4320.897461,4354.871582,4312.307617,4323.589844,4317.307617,4327.820313,4317.307617,4308.846191,4531.922852,4540.128418,4411.410156,4465.256348,4323.000000,2.000000,47.000000,,,,0.000000,4.000000,4.000000,4.000000,4.000000,4.000000,4.000000,4.000000,4.000000,4.000000,4.000000,4.000000,4.000000,4.000000,4.000000,100.000000,,,,,,,,,,,,,,,,,,,,,,,,,,,,,,,,,,,,,,,,,,,,,,,,,,,,,,,,,,,,,,,,,,,,,,,,,,,,,,,,,,,,,,,,,,,,,,,,,,,,,,,,,,,,,,,,,,,,,
1768292348.235358,1768292348.235754,119.000000,0.000000,4327.563965,4336.025879,4319.102539,4352.307617,4311.794922,4323.717773,4316.666504,4329.358887,4325.128418,4307.948730,4530.128418,4542.948730,4413.077148,4462.051270,4726.000000,2.000000,47.000000,,,,0.000000,4.000000,4.000000,4.000000,4.000000,4.000000,4.000000,4.000000,4.000000,4.000000,4.000000,4.000000,4.000000,4.000000,4.000000,100.000000,,,,,,,,,,,,,,,,,,,,,,,,,,,,,,,,,,,,,,,,,,,,,,,,,,,,,,,,,,,,,,,,,,,,,,,,,,,,,,,,,,,,,,,,,,,,,,,,,,,,,,,,,,,,,,,,,,,,,
1768292348.243166,1768292348.243762,120.000000,0.000000,4327.051270,4332.051270,4317.948730,4349.743652,4310.897461,4320.641113,4320.000000,4326.922852,4324.871582,4308.717773,4528.589844,4541.153809,4412.563965,4462.436035,4741.000000,2.000000,47.000000,,,,0.000000,4.000000,4.000000,4.000000,4.000000,4.000000,4.000000,4.000000,4.000000,4.000000,4.000000,4.000000,4.000000,4.000000,4.000000,100.000000,,,,,,,,,,,,,,,,,,,,,,,,,,,,,,,,,,,,,,,,,,,,,,,,,,,,,,,,,,,,,,,,,,,,,,,,,,,,,,,,,,,,,,,,,,,,,,,,,,,,,,,,,,,,,,,,,,,,,
1768292348.250975,1768292348.251571,121.000000,0.000000,4327.563965,4337.179688,4322.179688,4350.769043,4316.666504,4322.820313,4328.974121,4333.461426,4322.563965,4307.051270,4535.128418,4541.282227,4413.974121,4474.743652,5574.000000,2.000000,47.000000,,,,0.000000,4.000000,4.000000,4.000000,4.000000,4.000000,4.000000,4.000000,4.000000,4.000000,4.000000,4.000000,4.000000,4.000000,4.000000,100.000000,,,,,,,,,,,,,,,,,,,,,,,,,,,,,,,,,,,,,,,,,,,,,,,,,,,,,,,,,,,,,,,,,,,,,,,,,,,,,,,,,,,,,,,,,,,,,,,,,,,,,,,,,,,,,,,,,,,,,
1768292348.258783,1768292348.259279,122.000000,0.000000,4325.128418,4339.230957,4321.666504,4349.358887,4315.384766,4323.846191,4323.846191,4341.410156,4324.358887,4300.000000,4535.000000,4540.000000,4413.589844,4475.897461,4323.000000,2.000000,47.000000,,,,0.000000,4.000000,4.000000,4.000000,4.000000,4.000000,4.000000,4.000000,4.000000,4.000000,4.000000,4.000000,4.000000,4.000000,4.000000,100.000000,,,,,,,,,,,,,,,,,,,,,,,,,,,,,,,,,,,,,,,,,,,,,,,,,,,,,,,,,,,,,,,,,,,,,,,,,,,,,,,,,,,,,,,,,,,,,,,,,,,,,,,,,,,,,,,,,,,,,
1768292348.266592,1768292348.267088,123.000000,0.000000,4324.615234,4332.179688,4314.487305,4345.000000,4310.512695,4320.256348,4311.153809,4330.641113,4321.922852,4304.615234,4524.487305,4531.538574,4412.820313,4462.179688,4726.000000,2.000000,47.000000,,,,0.000000,4.000000,4.000000,4.000000,4.000000,4.000000,4.000000,4.000000,4.000000,4.000000,4.000000,4.000000,4.000000,4.000000,4.000000,100.000000,,,,,,,,,,,,,,,,,,,,,,,,,,,,,,,,,,,,,,,,,,,,,,,,,,,,,,,,,,,,,,,,,,,,,,,,,,,,,,,,,,,,,,,,,,,,,,,,,,,,,,,,,,,,,,,,,,,,,
1768292348.274400,1768292348.274696,124.000000,0.000000,4323.974121,4327.563965,4313.461426,4341.922852,4312.692383,4318.077148,4311.794922,4315.897461,4314.358887,4316.025879,4520.000000,4522.820313,4412.563965,4457.820313,4741.000000,2.000000,47.000000,,,,0.000000,4.000000,4.000000,4.000000,4.000000,4.000000,4.000000,4.000000,4.000000,4.000000,4.000000,4.000000,4.000000,4.000000,4.000000,100.000000,,,,,,,,,,,,,,,,,,,,,,,,,,,,,,,,,,,,,,,,,,,,,,,,,,,,,,,,,,,,,,,,,,,,,,,,,,,,,,,,,,,,,,,,,,,,,,,,,,,,,,,,,,,,,,,,,,,,,
1768292348.282209,1768292348.282505,125.000000,0.000000,4318.846191,4327.563965,4316.538574,4340.897461,4314.487305,4316.282227,4314.487305,4315.769043,4308.717773,4316.025879,4522.948730,4522.820313,4402.563965,4459.743652,5574.000000,2.000000,47.000000,,,,0.000000,4.000000,4.000000,4.000000,4.000000,4.000000,4.000000,4.000000,4.000000,4.000000,4.000000,4.000000,4.000000,4.000000,4.000000,100.000000,,,,,,,,,,,,,,,,,,,,,,,,,,,,,,,,,,,,,,,,,,,,,,,,,,,,,,,,,,,,,,,,,,,,,,,,,,,,,,,,,,,,,,,,,,,,,,,,,,,,,,,,,,,,,,,,,,,,,
1768292348.290017,1768292348.290213,126.000000,0.000000,4318.717773,4326.025879,4315.769043,4341.025879,4313.717773,4313.461426,4308.974121,4320.641113,4313.333496,4309.102539,4520.256348,4530.641113,4398.846191,4456.538574,4323.000000,2.000000,47.000000,,,,0.000000,4.000000,4.000000,4.000000,4.000000,4.000000,4.000000,4.000000,4.000000,4.000000,4.000000,4.000000,4.000000,4.000000,4.000000,100.000000,,,,,,,,,,,,,,,,,,,,,,,,,,,,,,,,,,,,,,,,,,,,,,,,,,,,,,,,,,,,,,,,,,,,,,,,,,,,,,,,,,,,,,,,,,,,,,,,,,,,,,,,,,,,,,,,,,,,,
1768292348.297825,1768292348.298022,127.000000,0.000000,4323.974121,4324.102539,4315.641113,4342.179688,4314.358887,4318.205078,4316.666504,4327.820313,4323.589844,4309.743652,4521.666504,4537.692383,4411.025879,4459.358887,47.000000,2.000000,47.000000,,,,0.000000,4.000000,4.000000,4.000000,4.000000,4.000000,4.000000,4.000000,4.000000,4.000000,4.000000,4.000000,4.000000,4.000000,4.000000,100.000000,,,,,,,,,,,,,,,,,,,,,,,,,,,,,,,,,,,,,,,,,,,,,,,,,,,,,,,,,,,,,,,,,,,,,,,,,,,,,,,,,,,,,,,,,,,,,,,,,,,,,,,,,,,,,,,,,,,,,
1768292348.305634,1768292348.306030,0.000000,0.000000,4323.974121,4324.743652,4317.948730,4342.563965,4316.922852,4327.436035,4329.487305,4336.666504,4328.333496,4312.948730,4530.897461,4540.512695,4415.128418,4465.897461,2650.000000,2.000000,47.000000,,,,0.000000,4.000000,4.000000,4.000000,4.000000,4.000000,4.000000,4.000000,4.000000,4.000000,4.000000,4.000000,4.000000,4.000000,4.000000,100.000000,,,,,,,,,,,,,,,,,,,,,,,,,,,,,,,,,,,,,,,,,,,,,,,,1.809343,0.461155,0.351314,0.289261,0.144394,2.126685,0.255385,0.406756,0.150453,0.135111,0.305517,0.184181,0.227129,0.165969,0.069932,1.457277,0.441119,0.261987,0.187719,0.110539,2.277282,0.311510,0.163156,0.114803,0.066298,0.033537,0.075601,0.203668,0.141924,0.119608,0.132974,0.131122,0.270350,0.217576,0.119077,0.684642,0.333786,0.399501,0.322094,0.348989,0.519149,0.317524,0.473625,0.219485,0.199442,1.245934,0.671189,0.324255,0.300684,0.290325,2.708023,0.305608,0.351160,0.184562,0.225815,1.813988,0.500855,0.491274,0.366794,0.266293,3.024222,0.316641,0.344837,0.168460,0.169067,2.368091,0.387684,0.408084,0.428259,0.219593
1768292348.313442,1768292348.313839,1.000000,0.000000,4320.256348,4323.077148,4318.589844,4340.897461,4318.974121,4323.974121,4324.487305,4333.846191,4325.897461,4311.666504,4531.794922,4540.128418,4404.743652,4462.179688,3991.000000,2.000000,47.000000,,,,0.000000,4.000000,4.000000,4.000000,4.000000,4.000000,4.000000,4.000000,4.000000,4.000000,4.000000,4.000000,4.000000,4.000000,4.000000,100.000000,,,,,,,,,,,,,,,,,,,,,,,,,,,,,,,,,,,,,,,,,,,,,,,,,,,,,,,,,,,,,,,,,,,,,,,,,,,,,,,,,,,,,,,,,,,,,,,,,,,,,,,,,,,,,,,,,,,,,
1768292348.321251,1768292348.321747,2.000000,0.000000,4321.153809,4319.487305,4318.974121,4341.410156,4318.846191,4315.641113,4319.230957,4326.410156,4323.846191,4308.333496,4523.974121,4538.974121,4403.205078,4457.692383,3931.000000,2.000000,47.000000,,,,0.000000,4.000000,4.000000,4.000000,4.000000,4.000000,4.000000,4.000000,4.000000,4.000000,4.000000,4.000000,4.000000,4.000000,4.000000,100.000000,,,,,,,,,,,,,,,,,,,,,,,,,,,,,,,,,,,,,,,,,,,,,,,,,,,,,,,,,,,,,,,,,,,,,,,,,,,,,,,,,,,,,,,,,,,,,,,,,,,,,,,,,,,,,,,,,,,,,
1768292348.329059,1768292348.329555,3.000000,0.000000,4319.871582,4314.487305,4318.846191,4344.358887,4314.358887,4319.743652,4324.487305,4331.538574,4325.256348,4306.410156,4521.282227,4536.794922,4407.563965,4458.205078,3872.000000,2.000000,47.000000,,,,0.000000,4.000000,4.000000,4.000000,4.000000,4.000000,4.000000,4.000000,4.000000,4.000000,4.000000,4.000000,4.000000,4.000000,4.000000,100.000000,,,,,,,,,,,,,,,,,,,,,,,,,,,,,,,,,,,,,,,,,,,,,,,,,,,,,,,,,,,,,,,,,,,,,,,,,,,,,,,,,,,,,,,,,,,,,,,,,,,,,,,,,,,,,,,,,,,,,
1768292348.336867,1768292348.337564,4.000000,0.000000,4310.384766,4309.230957,4315.769043,4339.230957,4309.102539,4326.410156,4329.615234,4341.025879,4325.128418,4303.589844,4524.358887,4537.051270,4399.615234,4455.512695,3715.000000,2.000000,47.000000,,,,0.000000,4.000000,4.000000,4.000000,4.000000,4.000000,4.000000,4.000000,4.000000,4.000000,4.000000,4.000000,4.000000,4.000000,4.000000,100.000000,,,,,,,,,,,,,,,,,,,,,,,,,,,,,,,,,,,,,,,,,,,,,,,,,,,,,,,,,,,,,,,,,,,,,,,,,,,,,,,,,,,,,,,,,,,,,,,,,,,,,,,,,,,,,,,,,,,,,
1768292348.344676,1768292348.345372,5.000000,0.000000,4305.256348,4307.820313,4311.410156,4330.256348,4309.871582,4322.820313,4329.102539,4341.025879,4323.974121,4301.282227,4523.333496,4537.051270,4395.512695,4449.230957,2952.000000,2.000000,47.000000,,,,0.000000,4.000000,4.000000,4.000000,4.000000,4.000000,4.000000,4.000000,4.000000,4.000000,4.000000,4.000000,4.000000,4.000000,4.000000,100.000000,,,,,,,,,,,,,,,,,,,,,,,,,,,,,,,,,,,,,,,,,,,,,,,,,,,,,,,,,,,,,,,,,,,,,,,,,,,,,,,,,,,,,,,,,,,,,,,,,,,,,,,,,,,,,,,,,,,,,
1768292348.352484,1768292348.353081,6.000000,0.000000,4307.820313,4307.692383,4306.922852,4331.794922,4314.871582,4317.820313,4322.692383,4328.205078,4320.128418,4302.051270,4518.717773,4527.692383,4402.820313,4442.563965,2663.000000,2.000000,47.000000,,,,0.000000,4.000000,4.000000,4.000000,4.000000,4.000000,4.000000,4.000000,4.000000,4.000000,4.000000,4.000000,4.000000,4.000000,4.000000,100.000000,,,,,,,,,,,,,,,,,,,,,,,,,,,,,,,,,,,,,,,,,,,,,,,,,,,,,,,,,,,,,,,,,,,,,,,,,,,,,,,,,,,,,,,,,,,,,,,,,,,,,,,,,,,,,,,,,,,,,
1768292348.360293,1768292348.360889,7.000000,0.000000,4313.461426,4310.256348,4310.769043,4340.897461,4319.230957,4322.563965,4321.025879,4320.512695,4317.820313,4307.307617,4520.384766,4528.589844,4412.307617,4451.282227,4024.000000,2.000000,47.000000,,,,0.000000,4.000000,4.000000,4.000000,4.000000,4.000000,4.000000,4.000000,4.000000,4.000000,4.000000,4.000000,4.000000,4.000000,4.000000,100.000000,,,,,,,,,,,,,,,,,,,,,,,,,,,,,,,,,,,,,,,,,,,,,,,,,,,,,,,,,,,,,,,,,,,,,,,,,,,,,,,,,,,,,,,,,,,,,,,,,,,,,,,,,,,,,,,,,,,,,
1768292348.368101,1768292348.368797,8.000000,0.000000,4318.846191,4317.051270,4321.282227,4344.102539,4318.846191,4324.743652,4323.461426,4331.025879,4322.563965,4308.461426,4525.256348,4541.282227,4412.563965,4463.205078,3507.000000,2.000000,47.000000,,,,0.000000,4.000000,4.000000,4.000000,4.000000,4.000000,4.000000,4.000000,4.000000,4.000000,4.000000,4.000000,4.000000,4.000000,4.000000,100.000000,,,,,,,,,,,,,,,,,,,,,,,,,,,,,,,,,,,,,,,,,,,,,,,,,,,,,,,,,,,,,,,,,,,,,,,,,,,,,,,,,,,,,,,,,,,,,,,,,,,,,,,,,,,,,,,,,,,,,
1768292348.375910,1768292348.376606,9.000000,0.000000,4318.589844,4321.922852,4321.922852,4342.436035,4317.820313,4317.692383,4319.487305,4337.436035,4325.512695,4298.589844,4520.512695,4535.641113,4398.589844,4451.410156,3824.000000,2.000000,47.000000,,,,0.000000,4.000000,4.000000,4.000000,4.000000,4.000000,4.000000,4.000000,4.000000,4.000000,4.000000,4.000000,4.000000,4.000000,4.000000,100.000000,,,,,,,,,,,,,,,,,,,,,,,,,,,,,,,,,,,,,,,,,,,,,,,,,,,,,,,,,,,,,,,,,,,,,,,,,,,,,,,,,,,,,,,,,,,,,,,,,,,,,,,,,,,,,,,,,,,,,
1768292348.383718,1768292348.384314,10.000000,0.000000,4315.897461,4320.128418,4317.179688,4342.948730,4321.410156,4318.077148,4316.922852,4332.051270,4324.102539,4299.230957,4517.307617,4529.487305,4396.282227,4442.307617,4323.000000,2.000000,47.000000,,,,0.000000,4.000000,4.000000,4.000000,4.000000,4.000000,4.000000,4.000000,4.000000,4.000000,4.000000,4.000000,4.000000,4.000000,4.000000,100.000000,,,,,,,,,,,,,,,,,,,,,,,,,,,,,,,,,,,,,,,,,,,,,,,,,,,,,,,,,,,,,,,,,,,,,,,,,,,,,,,,,,,,,,,,,,,,,,,,,,,,,,,,,,,,,,,,,,,,,
1768292348.391527,1768292348.392123,11.000000,0.000000,4318.974121,4319.358887,4320.128418,4343.333496,4320.769043,4323.846191,4323.461426,4336.153809,4325.000000,4316.538574,4533.205078,4547.820313,4413.461426,4461.410156,4726.000000,2.000000,47.000000,,,,0.000000,4.000000,4.000000,4.000000,4.000000,4.000000,4.000000,4.000000,4.000000,4.000000,4.000000,4.000000,4.000000,4.000000,4.000000,100.000000,,,,,,,,,,,,,,,,,,,,,,,,,,,,,,,,,,,,,,,,,,,,,,,,,,,,,,,,,,,,,,,,,,,,,,,,,,,,,,,,,,,,,,,,,,,,,,,,,,,,,,,,,,,,,,,,,,,,,
1768292348.399335,1768292348.399731,12.000000,0.000000,4320.128418,4320.000000,4320.769043,4342.563965,4314.358887,4323.846191,4326.538574,4337.948730,4325.769043,4320.897461,4539.743652,4554.743652,4420.384766,4473.077148,4741.000000,2.000000,47.000000,,,,0.000000,4.000000,4.000000,4.000000,4.000000,4.000000,4.000000,4.000000,4.000000,4.000000,4.000000,4.000000,4.000000,4.000000,4.000000,100.000000,,,,,,,,,,,,,,,,,,,,,,,,,,,,,,,,,,,,,,,,,,,,,,,,,,,,,,,,,,,,,,,,,,,,,,,,,,,,,,,,,,,,,,,,,,,,,,,,,,,,,,,,,,,,,,,,,,,,,
1768292348.407143,1768292348.407540,13.000000,0.000000,4313.461426,4315.769043,4315.256348,4342.820313,4311.025879,4323.589844,4323.717773,4329.358887,4323.717773,4309.615234,4525.256348,4536.666504,4411.153809,4458.077148,5576.000000,2.000000,47.000000,,,,0.000000,4.000000,4.000000,4.000000,4.000000,4.000000,4.000000,4.000000,4.000000,4.000000,4.000000,4.000000,4.000000,4.000000,4.000000,100.000000,,,,,,,,,,,,,,,,,,,,,,,,,,,,,,,,,,,,,,,,,,,,,,,,,,,,,,,,,,,,,,,,,,,,,,,,,,,,,,,,,,,,,,,,,,,,,,,,,,,,,,,,,,,,,,,,,,,,,
1768292348.414952,1768292348.415248,14.000000,0.000000,4309.871582,4312.820313,4315.256348,4342.948730,4311.538574,4326.538574,4323.717773,4328.333496,4323.461426,4307.436035,4519.487305,4532.051270,4408.846191,4452.436035,4323.000000,2.000000,47.000000,,,,0.000000,4.000000,4.000000,4.000000,4.000000,4.000000,4.000000,4.000000,4.000000,4.000000,4.000000,4.000000,4.000000,4.000000,4.000000,100.000000,,,,,,,,,,,,,,,,,,,,,,,,,,,,,,,,,,,,,,,,,,,,,,,,,,,,,,,,,,,,,,,,,,,,,,,,,,,,,,,,,,,,,,,,,,,,,,,,,,,,,,,,,,,,,,,,,,,,,
1768292348.422760,1768292348.423057,15.000000,0.000000,4311.410156,4312.307617,4319.230957,4339.743652,4310.897461,4321.282227,4323.077148,4336.794922,4322.692383,4312.820313,4526.410156,4541.922852,4408.461426,4460.897461,4726.000000,2.000000,47.000000,,,,0.000000,4.000000,4.000000,4.000000,4.000000,4.000000,4.000000,4.000000,4.000000,4.000000,4.000000,4.000000,4.000000,4.000000,4.000000,100.000000,,,,,,,,,,,,,,,,,,,,,,,,,,,,,,,,,,,,,,,,,,,,,,,,,,,,,,,,,,,,,,,,,,,,,,,,,,,,,,,,,,,,,,,,,,,,,,,,,,,,,,,,,,,,,,,,,,,,,
1768292348.430569,1768292348.431065,16.000000,0.000000,4309.743652,4307.948730,4317.436035,4335.769043,4309.487305,4313.846191,4319.487305,4338.205078,4317.820313,4310.128418,4522.051270,4537.307617,4399.615234,4456.025879,0.000000,2.000000,47.000000,,,,0.000000,4.000000,4.000000,4.000000,4.000000,4.000000,4.000000,4.000000,4.000000,4.000000,4.000000,4.000000,4.000000,4.000000,4.000000,100.000000,1.000000,66.666664,4.000000,4.000000,3.000000,4.000000,4.000000,1.000000,4.000000,4.000000,4.000000,4.000000,4.000000,4.000000,4.000000,4.000000,,,,,,,,,,,,,,,,,,,,,,,,,,,,,,,,1.562974,0.338569,0.339490,0.309975,0.150354,2.021560,0.203627,0.384692,0.154229,0.146715,0.283212,0.136953,0.229866,0.145185,0.082703,1.438694,0.370144,0.194046,0.191910,0.108450,2.116285,0.305067,0.126830,0.103443,0.062714,0.038021,0.074028,0.167343,0.129899,0.114239,0.176273,0.123013,0.240839,0.229832,0.117450,0.729612,0.339714,0.437673,0.290789,0.318126,0.484001,0.316797,0.485224,0.225761,0.187492,1.236190,0.707318,0.368181,0.338089,0.275696,2.589261,0.320450,0.333465,0.212314,0.192735,1.864478,0.465098,0.561282,0.407282,0.238450,2.801729,0.318831,0.367337,0.184570,0.151431,2.328601,0.396107,0.397521,0.463943,0.211656
1768292348.438377,1768292348.438874,17.000000,0.000000,4306.153809,4304.871582,4315.128418,4337.179688,4312.179688,4318.077148,4323.077148,4330.769043,4312.692383,4301.538574,4508.077148,4524.487305,4395.641113,4443.846191,0.000000,2.000000,47.000000,,,,0.000000,4.000000,4.000000,4.000000,4.000000,4.000000,4.000000,4.000000,4.000000,4.000000,4.000000,4.000000,4.000000,4.000000,4.000000,100.000000,,,,,,,,,,,,,,,,,,,,,,,,,,,,,,,,,,,,,,,,,,,,,,,,,,,,,,,,,,,,,,,,,,,,,,,,,,,,,,,,,,,,,,,,,,,,,,,,,,,,,,,,,,,,,,,,,,,,,
1768292348.446185,1768292348.446782,18.000000,0.000000,4305.769043,4306.282227,4317.436035,4339.487305,4313.717773,4321.282227,4327.563965,4324.615234,4310.384766,4298.077148,4505.641113,4522.179688,4395.512695,4441.153809,0.000000,2.000000,47.000000,,,,0.000000,4.000000,4.000000,4.000000,4.000000,4.000000,4.000000,4.000000,4.000000,4.000000,4.000000,4.000000,4.000000,4.000000,4.000000,100.000000,,,,,,,,,,,,,,,,,,,,,,,,,,,,,,,,,,,,,,,,,,,,,,,,,,,,,,,,,,,,,,,,,,,,,,,,,,,,,,,,,,,,,,,,,,,,,,,,,,,,,,,,,,,,,,,,,,,,,
1768292348.453994,1768292348.454590,19.000000,0.000000,4307.051270,4303.333496,4315.384766,4333.589844,4311.153809,4316.666504,4319.615234,4324.615234,4312.436035,4302.436035,4512.563965,4522.563965,4392.820313,4443.333496,0.000000,2.000000,47.000000,,,,0.000000,4.000000,4.000000,4.000000,4.000000,4.000000,4.000000,4.000000,4.000000,4.000000,4.000000,4.000000,4.000000,4.000000,4.000000,100.000000,,,,,,,,,,,,,,,,,,,,,,,,,,,,,,,,,,,,,,,,,,,,,,,,,,,,,,,,,,,,,,,,,,,,,,,,,,,,,,,,,,,,,,,,,,,,,,,,,,,,,,,,,,,,,,,,,,,,,
1768292348.461802,1768292348.462199,20.000000,0.000000,4305.769043,4300.897461,4310.769043,4328.717773,4310.512695,4314.743652,4313.077148,4337.436035,4321.666504,4309.230957,4520.512695,4526.538574,4396.025879,4447.563965,0.000000,2.000000,47.000000,,,,0.000000,4.000000,4.000000,4.000000,4.000000,4.000000,4.000000,4.000000,4.000000,4.000000,4.000000,4.000000,4.000000,4.000000,4.000000,100.000000,,,,,,,,,,,,,,,,,,,,,,,,,,,,,,,,,,,,,,,,,,,,,,,,,,,,,,,,,,,,,,,,,,,,,,,,,,,,,,,,,,,,,,,,,,,,,,,,,,,,,,,,,,,,,,,,,,,,,
1768292348.469611,1768292348.470007,21.000000,0.000000,4310.897461,4312.436035,4316.025879,4337.179688,4316.153809,4321.410156,4325.256348,4348.717773,4330.641113,4320.641113,4531.025879,4539.230957,4409.358887,4457.948730,0.000000,2.000000,47.000000,,,,0.000000,4.000000,4.000000,4.000000,4.000000,4.000000,4.000000,4.000000,4.000000,4.000000,4.000000,4.000000,4.000000,4.000000,4.000000,100.000000,,,,,,,,,,,,,,,,,,,,,,,,,,,,,,,,,,,,,,,,,,,,,,,,,,,,,,,,,,,,,,,,,,,,,,,,,,,,,,,,,,,,,,,,,,,,,,,,,,,,,,,,,,,,,,,,,,,,,
1768292348.477419,1768292348.477716,22.000000,0.000000,4324.615234,4323.846191,4323.846191,4347.051270,4323.589844,4325.897461,4334.615234,4347.179688,4331.153809,4328.846191,4539.487305,4548.846191,4418.461426,4465.128418,0.000000,2.000000,47.000000,,,,0.000000,4.000000,4.000000,4.000000,4.000000,4.000000,4.000000,4.000000,4.000000,4.000000,4.000000,4.000000,4.000000,4.000000,4.000000,100.000000,,,,,,,,,,,,,,,,,,,,,,,,,,,,,,,,,,,,,,,,,,,,,,,,,,,,,,,,,,,,,,,,,,,,,,,,,,,,,,,,,,,,,,,,,,,,,,,,,,,,,,,,,,,,,,,,,,,,,
1768292348.485227,1768292348.485524,23.000000,0.000000,4329.230957,4318.205078,4322.051270,4345.128418,4324.358887,4322.820313,4325.000000,4341.153809,4325.384766,4322.820313,4539.358887,4546.410156,4415.641113,4463.717773,0.000000,2.000000,47.000000,,,,0.000000,4.000000,4.000000,4.000000,4.000000,4.000000,4.000000,4.000000,4.000000,4.000000,4.000000,4.000000,4.000000,4.000000,4.000000,100.000000,,,,,,,,,,,,,,,,,,,,,,,,,,,,,,,,,,,,,,,,,,,,,,,,,,,,,,,,,,,,,,,,,,,,,,,,,,,,,,,,,,,,,,,,,,,,,,,,,,,,,,,,,,,,,,,,,,,,,
1768292348.493036,1768292348.493533,24.000000,0.000000,4324.487305,4309.487305,4317.948730,4340.512695,4318.205078,4322.179688,4318.717773,4335.000000,4320.128418,4314.615234,4534.487305,4541.410156,4412.436035,4462.820313,0.000000,2.000000,47.000000,,,,0.000000,4.000000,4.000000,4.000000,4.000000,4.000000,4.000000,4.000000,4.000000,4.000000,4.000000,4.000000,4.000000,4.000000,4.000000,100.000000,,,,,,,,,,,,,,,,,,,,,,,,,,,,,,,,,,,,,,,,,,,,,,,,,,,,,,,,,,,,,,,,,,,,,,,,,,,,,,,,,,,,,,,,,,,,,,,,,,,,,,,,,,,,,,,,,,,,,
1768292348.500844,1768292348.501341,25.000000,0.000000,4321.666504,4312.692383,4314.871582,4339.871582,4312.692383,4323.205078,4322.948730,4336.410156,4322.948730,4314.871582,4529.230957,4537.563965,4414.487305,4461.282227,0.000000,2.000000,47.000000,,,,0.000000,4.000000,4.000000,4.000000,4.000000,4.000000,4.000000,4.000000,4.000000,4.000000,4.000000,4.000000,4.000000,4.000000,4.000000,100.000000,,,,,,,,,,,,,,,,,,,,,,,,,,,,,,,,,,,,,,,,,,,,,,,,,,,,,,,,,,,,,,,,,,,,,,,,,,,,,,,,,,,,,,,,,,,,,,,,,,,,,,,,,,,,,,,,,,,,,
1768292348.508653,1768292348.509249,26.000000,0.000000,4317.179688,4313.717773,4311.922852,4336.538574,4315.128418,4319.743652,4324.615234,4340.384766,4327.307617,4310.512695,4523.846191,4533.974121,4412.307617,4457.051270,0.000000,2.000000,47.000000,,,,0.000000,4.000000,4.000000,4.000000,4.000000,4.000000,4.000000,4.000000,4.000000,4.000000,4.000000,4.000000,4.000000,4.000000,4.000000,100.000000,,,,,,,,,,,,,,,,,,,,,,,,,,,,,,,,,,,,,,,,,,,,,,,,,,,,,,,,,,,,,,,,,,,,,,,,,,,,,,,,,,,,,,,,,,,,,,,,,,,,,,,,,,,,,,,,,,,,,
1768292348.516461,1768292348.517058,27.000000,0.000000,4317.179688,4310.000000,4314.102539,4336.282227,4319.230957,4317.692383,4318.846191,4334.871582,4323.461426,4306.666504,4523.717773,4537.948730,4411.025879,4458.974121,0.000000,2.000000,47.000000,,,,0.000000,4.000000,4.000000,4.000000,4.000000,4.000000,4.000000,4.000000,4.000000,4.000000,4.000000,4.000000,4.000000,4.000000,4.000000,100.000000,,,,,,,,,,,,,,,,,,,,,,,,,,,,,,,,,,,,,,,,,,,,,,,,,,,,,,,,,,,,,,,,,,,,,,,,,,,,,,,,,,,,,,,,,,,,,,,,,,,,,,,,,,,,,,,,,,,,,
1768292348.524270,1768292348.525066,28.000000,0.000000,4323.717773,4312.307617,4315.641113,4340.512695,4318.589844,4322.948730,4318.077148,4330.384766,4320.769043,4312.436035,4526.794922,4536.666504,4415.512695,4459.230957,0.000000,2.000000,47.000000,,,,0.000000,4.000000,4.000000,4.000000,4.000000,4.000000,4.000000,4.000000,4.000000,4.000000,4.000000,4.000000,4.000000,4.000000,4.000000,100.000000,,,,,,,,,,,,,,,,,,,,,,,,,,,,,,,,,,,,,,,,,,,,,,,,,,,,,,,,,,,,,,,,,,,,,,,,,,,,,,,,,,,,,,,,,,,,,,,,,,,,,,,,,,,,,,,,,,,,,
1768292348.532078,1768292348.532875,29.000000,0.000000,4319.102539,4313.974121,4312.692383,4339.487305,4320.000000,4325.769043,4327.051270,4333.461426,4319.230957,4313.974121,4520.897461,4524.487305,4410.897461,4448.077148,0.000000,2.000000,47.000000,,,,0.000000,4.000000,4.000000,4.000000,4.000000,4.000000,4.000000,4.000000,4.000000,4.000000,4.000000,4.000000,4.000000,4.000000,4.000000,100.000000,,,,,,,,,,,,,,,,,,,,,,,,,,,,,,,,,,,,,,,,,,,,,,,,,,,,,,,,,,,,,,,,,,,,,,,,,,,,,,,,,,,,,,,,,,,,,,,,,,,,,,,,,,,,,,,,,,,,,
1768292348.539887,1768292348.540583,30.000000,0.000000,4313.717773,4315.769043,4311.282227,4340.512695,4325.256348,4321.794922,4326.922852,4330.769043,4314.743652,4310.769043,4515.769043,4517.948730,4403.333496,4440.641113,0.000000,2.000000,47.000000,,,,0.000000,4.000000,4.000000,4.000000,4.000000,4.000000,4.000000,4.000000,4.000000,4.000000,4.000000,4.000000,4.000000,4.000000,4.000000,100.000000,,,,,,,,,,,,,,,,,,,,,,,,,,,,,,,,,,,,,,,,,,,,,,,,,,,,,,,,,,,,,,,,,,,,,,,,,,,,,,,,,,,,,,,,,,,,,,,,,,,,,,,,,,,,,,,,,,,,,
1768292348.547695,1768292348.548392,31.000000,0.000000,4322.179688,4320.128418,4312.179688,4343.205078,4325.641113,4318.205078,4314.871582,4319.871582,4310.641113,4307.948730,4518.589844,4521.538574,4408.333496,4448.461426,0.000000,2.000000,47.000000,,,,0.000000,4.000000,4.000000,4.000000,4.000000,4.000000,4.000000,4.000000,4.000000,4.000000,4.000000,4.000000,4.000000,4.000000,4.000000,100.000000,,,,,,,,,,,,,,,,,,,,,,,,,,,,,,,,,,,,,,,,,,,,,,,,,,,,,,,,,,,,,,,,,,,,,,,,,,,,,,,,,,,,,,,,,,,,,,,,,,,,,,,,,,,,,,,,,,,,,
1768292348.555503,1768292348.556400,32.000000,0.000000,4329.615234,4323.077148,4315.769043,4342.307617,4325.128418,4322.179688,4318.077148,4323.333496,4314.615234,4308.461426,4522.820313,4532.436035,4414.230957,4458.717773,0.000000,2.000000,47.000000,,,,0.000000,4.000000,4.000000,4.000000,4.000000,4.000000,4.000000,4.000000,4.000000,4.000000,4.000000,4.000000,4.000000,4.000000,4.000000,100.000000,,,,,,,,,,,,,,,,,,,,,,,,,,,,,,,,,,,,,,,,,,,,,,,,1.381123,0.278749,0.320070,0.349580,0.155787,1.848136,0.172155,0.362170,0.168079,0.158028,0.286354,0.127744,0.231988,0.132465,0.099823,1.357237,0.341410,0.158146,0.210323,0.105527,1.980389,0.281328,0.104939,0.096884,0.058967,0.052470,0.074344,0.133678,0.120904,0.111436,0.220716,0.130762,0.207691,0.238514,0.123492,0.755515,0.375359,0.446287,0.263181,0.276479,0.466863,0.312749,0.472910,0.239702,0.171012,1.204655,0.718544,0.387429,0.386746,0.271763,2.491655,0.340115,0.307401,0.247370,0.164193,1.910082,0.468177,0.615476,0.447258,0.206568,2.633830,0.326329,0.373551,0.226480,0.141913,2.365277,0.410841,0.372787,0.490884,0.195915
1768292348.563312,1768292348.564208,33.000000,0.000000,4329.358887,4321.025879,4319.743652,4342.436035,4327.948730,4327.179688,4328.589844,4337.179688,4321.282227,4311.666504,4523.461426,4541.538574,4411.282227,4462.051270,0.000000,2.000000,47.000000,,,,0.000000,4.000000,4.000000,4.000000,4.000000,4.000000,4.000000,4.000000,4.000000,4.000000,4.000000,4.000000,4.000000,4.000000,4.000000,100.000000,,,,,,,,,,,,,,,,,,,,,,,,,,,,,,,,,,,,,,,,,,,,,,,,,,,,,,,,,,,,,,,,,,,,,,,,,,,,,,,,,,,,,,,,,,,,,,,,,,,,,,,,,,,,,,,,,,,,,
1768292348.571120,1768292348.571917,34.000000,0.000000,4326.666504,4313.589844,4317.563965,4342.307617,4325.128418,4321.538574,4317.051270,4331.922852,4318.589844,4312.307617,4520.897461,4534.230957,4410.384766,4456.666504,0.000000,2.000000,47.000000,,,,0.000000,4.000000,4.000000,4.000000,4.000000,4.000000,4.000000,4.000000,4.000000,4.000000,4.000000,4.000000,4.000000,4.000000,4.000000,100.000000,,,,,,,,,,,,,,,,,,,,,,,,,,,,,,,,,,,,,,,,,,,,,,,,,,,,,,,,,,,,,,,,,,,,,,,,,,,,,,,,,,,,,,,,,,,,,,,,,,,,,,,,,,,,,,,,,,,,,
1768292348.578929,1768292348.579725,35.000000,0.000000,4322.179688,4307.820313,4312.307617,4338.205078,4320.641113,4316.282227,4308.333496,4318.205078,4309.743652,4309.871582,4521.282227,4523.717773,4412.692383,4451.538574,0.000000,2.000000,47.000000,,,,0.000000,4.000000,4.000000,4.000000,4.000000,4.000000,4.000000,4.000000,4.000000,4.000000,4.000000,4.000000,4.000000,4.000000,4.000000,100.000000,,,,,,,,,,,,,,,,,,,,,,,,,,,,,,,,,,,,,,,,,,,,,,,,,,,,,,,,,,,,,,,,,,,,,,,,,,,,,,,,,,,,,,,,,,,,,,,,,,,,,,,,,,,,,,,,,,,,,
1768292348.586737,1768292348.587334,36.000000,0.000000,4323.589844,4310.000000,4313.205078,4339.743652,4321.794922,4319.230957,4317.692383,4322.948730,4310.128418,4310.641113,4524.230957,4529.487305,4413.717773,4455.384766,0.000000,2.000000,47.000000,,,,0.000000,4.000000,4.000000,4.000000,4.000000,4.000000,4.000000,4.000000,4.000000,4.000000,4.000000,4.000000,4.000000,4.000000,4.000000,100.000000,,,,,,,,,,,,,,,,,,,,,,,,,,,,,,,,,,,,,,,,,,,,,,,,,,,,,,,,,,,,,,,,,,,,,,,,,,,,,,,,,,,,,,,,,,,,,,,,,,,,,,,,,,,,,,,,,,,,,
1768292348.594545,1768292348.595142,37.000000,0.000000,4325.769043,4313.077148,4317.820313,4341.538574,4322.179688,4318.589844,4321.153809,4330.641113,4315.641113,4307.563965,4522.307617,4530.384766,4413.589844,4453.846191,0.000000,2.000000,47.000000,,,,0.000000,4.000000,4.000000,4.000000,4.000000,4.000000,4.000000,4.000000,4.000000,4.000000,4.000000,4.000000,4.000000,4.000000,4.000000,100.000000,,,,,,,,,,,,,,,,,,,,,,,,,,,,,,,,,,,,,,,,,,,,,,,,,,,,,,,,,,,,,,,,,,,,,,,,,,,,,,,,,,,,,,,,,,,,,,,,,,,,,,,,,,,,,,,,,,,,,
1768292348.602354,1768292348.602851,38.000000,0.000000,4317.307617,4310.128418,4317.179688,4336.538574,4314.743652,4314.743652,4322.436035,4327.051270,4312.436035,4299.871582,4520.512695,4519.358887,4409.615234,4442.820313,0.000000,2.000000,47.000000,,,,0.000000,4.000000,4.000000,4.000000,4.000000,4.000000,4.000000,4.000000,4.000000,4.000000,4.000000,4.000000,4.000000,4.000000,4.000000,100.000000,,,,,,,,,,,,,,,,,,,,,,,,,,,,,,,,,,,,,,,,,,,,,,,,,,,,,,,,,,,,,,,,,,,,,,,,,,,,,,,,,,,,,,,,,,,,,,,,,,,,,,,,,,,,,,,,,,,,,
1768292348.610162,1768292348.610659,39.000000,0.000000,4309.743652,4309.102539,4310.000000,4334.743652,4301.922852,4316.922852,4322.820313,4323.717773,4310.769043,4296.794922,4520.384766,4518.333496,4409.358887,4440.256348,0.000000,2.000000,47.000000,,,,0.000000,4.000000,4.000000,4.000000,4.000000,4.000000,4.000000,4.000000,4.000000,4.000000,4.000000,4.000000,4.000000,4.000000,4.000000,100.000000,,,,,,,,,,,,,,,,,,,,,,,,,,,,,,,,,,,,,,,,,,,,,,,,,,,,,,,,,,,,,,,,,,,,,,,,,,,,,,,,,,,,,,,,,,,,,,,,,,,,,,,,,,,,,,,,,,,,,
1768292348.617971,1768292348.618268,40.000000,0.000000,4311.538574,4311.025879,4307.179688,4334.615234,4292.307617,4317.051270,4312.820313,4318.333496,4312.820313,4286.153809,4518.205078,4521.025879,4413.974121,4445.384766,0.000000,2.000000,47.000000,,,,0.000000,4.000000,4.000000,4.000000,4.000000,4.000000,4.000000,4.000000,4.000000,4.000000,4.000000,4.000000,4.000000,4.000000,4.000000,100.000000,,,,,,,,,,,,,,,,,,,,,,,,,,,,,,,,,,,,,,,,,,,,,,,,,,,,,,,,,,,,,,,,,,,,,,,,,,,,,,,,,,,,,,,,,,,,,,,,,,,,,,,,,,,,,,,,,,,,,
1768292348.625779,1768292348.626077,41.000000,0.000000,4311.153809,4310.769043,4310.128418,4334.487305,4290.384766,4313.846191,4311.025879,4309.615234,4310.769043,4276.410156,4514.230957,4515.769043,4410.641113,4442.179688,0.000000,2.000000,47.000000,,,,0.000000,4.000000,4.000000,4.000000,4.000000,4.000000,4.000000,4.000000,4.000000,4.000000,4.000000,4.000000,4.000000,4.000000,4.000000,100.000000,,,,,,,,,,,,,,,,,,,,,,,,,,,,,,,,,,,,,,,,,,,,,,,,,,,,,,,,,,,,,,,,,,,,,,,,,,,,,,,,,,,,,,,,,,,,,,,,,,,,,,,,,,,,,,,,,,,,,
1768292348.633587,1768292348.633985,42.000000,0.000000,4307.692383,4310.384766,4309.487305,4335.128418,4290.769043,4315.256348,4318.717773,4311.410156,4311.025879,4287.051270,4510.384766,4508.717773,4407.307617,4436.666504,0.000000,2.000000,47.000000,,,,0.000000,4.000000,4.000000,4.000000,4.000000,4.000000,4.000000,4.000000,4.000000,4.000000,4.000000,4.000000,4.000000,4.000000,4.000000,100.000000,,,,,,,,,,,,,,,,,,,,,,,,,,,,,,,,,,,,,,,,,,,,,,,,,,,,,,,,,,,,,,,,,,,,,,,,,,,,,,,,,,,,,,,,,,,,,,,,,,,,,,,,,,,,,,,,,,,,,
1768292348.641396,1768292348.641793,43.000000,0.000000,4308.461426,4310.256348,4306.282227,4331.410156,4283.974121,4315.384766,4311.666504,4314.358887,4312.307617,4296.410156,4512.436035,4507.436035,4411.153809,4438.846191,0.000000,2.000000,47.000000,,,,0.000000,4.000000,4.000000,4.000000,4.000000,4.000000,4.000000,4.000000,4.000000,4.000000,4.000000,4.000000,4.000000,4.000000,4.000000,100.000000,,,,,,,,,,,,,,,,,,,,,,,,,,,,,,,,,,,,,,,,,,,,,,,,,,,,,,,,,,,,,,,,,,,,,,,,,,,,,,,,,,,,,,,,,,,,,,,,,,,,,,,,,,,,,,,,,,,,,
1768292348.649204,1768292348.649802,44.000000,0.000000,4312.179688,4309.487305,4308.333496,4328.846191,4279.230957,4315.128418,4305.384766,4312.436035,4309.615234,4289.871582,4518.461426,4511.282227,4411.922852,4440.128418,0.000000,2.000000,47.000000,,,,0.000000,4.000000,4.000000,4.000000,4.000000,4.000000,4.000000,4.000000,4.000000,4.000000,4.000000,4.000000,4.000000,4.000000,4.000000,100.000000,,,,,,,,,,,,,,,,,,,,,,,,,,,,,,,,,,,,,,,,,,,,,,,,,,,,,,,,,,,,,,,,,,,,,,,,,,,,,,,,,,,,,,,,,,,,,,,,,,,,,,,,,,,,,,,,,,,,,
1768292348.657013,1768292348.657610,45.000000,0.000000,4318.974121,4313.589844,4313.205078,4336.794922,4286.666504,4316.153809,4315.256348,4316.922852,4307.948730,4288.717773,4522.948730,4521.666504,4409.871582,4444.358887,0.000000,2.000000,47.000000,,,,0.000000,4.000000,4.000000,4.000000,4.000000,4.000000,4.000000,4.000000,4.000000,4.000000,4.000000,4.000000,4.000000,4.000000,4.000000,100.000000,,,,,,,,,,,,,,,,,,,,,,,,,,,,,,,,,,,,,,,,,,,,,,,,,,,,,,,,,,,,,,,,,,,,,,,,,,,,,,,,,,,,,,,,,,,,,,,,,,,,,,,,,,,,,,,,,,,,,
1768292348.664821,1768292348.665518,46.000000,0.000000,4327.820313,4322.563965,4317.820313,4345.384766,4294.230957,4315.512695,4317.436035,4324.230957,4310.769043,4296.410156,4530.641113,4534.871582,4412.820313,4456.794922,0.000000,2.000000,47.000000,,,,0.000000,4.000000,4.000000,4.000000,4.000000,4.000000,4.000000,4.000000,4.000000,4.000000,4.000000,4.000000,4.000000,4.000000,4.000000,100.000000,,,,,,,,,,,,,,,,,,,,,,,,,,,,,,,,,,,,,,,,,,,,,,,,,,,,,,,,,,,,,,,,,,,,,,,,,,,,,,,,,,,,,,,,,,,,,,,,,,,,,,,,,,,,,,,,,,,,,
1768292348.672630,1768292348.673327,47.000000,0.000000,4327.307617,4322.948730,4318.205078,4344.615234,4289.102539,4315.512695,4309.615234,4325.641113,4311.922852,4297.179688,4536.282227,4539.871582,4416.282227,4464.615234,0.000000,2.000000,47.000000,,,,0.000000,4.000000,4.000000,4.000000,4.000000,4.000000,4.000000,4.000000,4.000000,4.000000,4.000000,4.000000,4.000000,4.000000,4.000000,100.000000,,,,,,,,,,,,,,,,,,,,,,,,,,,,,,,,,,,,,,,,,,,,,,,,,,,,,,,,,,,,,,,,,,,,,,,,,,,,,,,,,,,,,,,,,,,,,,,,,,,,,,,,,,,,,,,,,,,,,
1768292348.680438,1768292348.680935,48.000000,0.000000,4319.871582,4317.436035,4312.820313,4337.820313,4283.589844,4317.820313,4311.922852,4324.230957,4312.307617,4294.487305,4530.000000,4534.487305,4414.102539,4456.794922,0.000000,2.000000,47.000000,,,,0.000000,4.000000,4.000000,4.000000,4.000000,4.000000,4.000000,4.000000,4.000000,4.000000,4.000000,4.000000,4.000000,4.000000,4.000000,100.000000,,,,,,,,,,,,,,,,,,,,,,,,,,,,,,,,,,,,,,,,,,,,,,,,1.248634,0.285498,0.296761,0.396958,0.158605,1.627395,0.167179,0.342744,0.188057,0.165124,0.296973,0.145790,0.232460,0.129096,0.117497,1.211240,0.332238,0.149166,0.237386,0.102375,1.887241,0.247729,0.100496,0.095049,0.055491,0.073206,0.074831,0.104421,0.113747,0.112968,0.254364,0.164432,0.173889,0.240811,0.137379,0.747900,0.455852,0.429457,0.250180,0.239267,0.461463,0.327021,0.441745,0.259221,0.155478,1.154651,0.687819,0.380190,0.428598,0.282490,2.367578,0.364696,0.279883,0.280350,0.147214,1.887643,0.529204,0.641979,0.476286,0.180102,2.467249,0.335061,0.351798,0.285752,0.144230,2.310641,0.427077,0.332324,0.504598,0.180005
1768292348.688247,1768292348.688744,49.000000,0.000000,4320.897461,4321.922852,4312.051270,4337.436035,4290.897461,4320.128418,4321.025879,4325.256348,4312.563965,4295.769043,4522.179688,4531.922852,4412.307617,4450.641113,0.000000,2.000000,47.000000,,,,0.000000,4.000000,4.000000,4.000000,4.000000,4.000000,4.000000,4.000000,4.000000,4.000000,4.000000,4.000000,4.000000,4.000000,4.000000,100.000000,,,,,,,,,,,,,,,,,,,,,,,,,,,,,,,,,,,,,,,,,,,,,,,,,,,,,,,,,,,,,,,,,,,,,,,,,,,,,,,,,,,,,,,,,,,,,,,,,,,,,,,,,,,,,,,,,,,,,
1768292348.696055,1768292348.696652,50.000000,0.000000,4329.487305,4329.358887,4319.743652,4347.179688,4298.846191,4320.897461,4323.333496,4328.461426,4311.794922,4302.820313,4528.974121,4541.282227,4414.871582,4458.974121,0.000000,2.000000,47.000000,,,,0.000000,4.000000,4.000000,4.000000,4.000000,4.000000,4.000000,4.000000,4.000000,4.000000,4.000000,4.000000,4.000000,4.000000,4.000000,100.000000,,,,,,,,,,,,,,,,,,,,,,,,,,,,,,,,,,,,,,,,,,,,,,,,,,,,,,,,,,,,,,,,,,,,,,,,,,,,,,,,,,,,,,,,,,,,,,,,,,,,,,,,,,,,,,,,,,,,,
1768292348.703864,1768292348.704461,51.000000,0.000000,4330.769043,4327.436035,4324.487305,4349.871582,4296.922852,4318.717773,4318.846191,4328.717773,4311.025879,4308.077148,4532.692383,4541.153809,4417.179688,4462.692383,0.000000,2.000000,47.000000,,,,0.000000,4.000000,4.000000,4.000000,4.000000,4.000000,4.000000,4.000000,4.000000,4.000000,4.000000,4.000000,4.000000,4.000000,4.000000,100.000000,,,,,,,,,,,,,,,,,,,,,,,,,,,,,,,,,,,,,,,,,,,,,,,,,,,,,,,,,,,,,,,,,,,,,,,,,,,,,,,,,,,,,,,,,,,,,,,,,,,,,,,,,,,,,,,,,,,,,
1768292348.711672,1768292348.712469,52.000000,0.000000,4325.256348,4323.846191,4319.102539,4341.538574,4294.358887,4317.692383,4316.922852,4327.948730,4311.794922,4299.487305,4526.025879,4525.641113,4414.743652,4452.820313,0.000000,2.000000,47.000000,,,,0.000000,4.000000,4.000000,4.000000,4.000000,4.000000,4.000000,4.000000,4.000000,4.000000,4.000000,4.000000,4.000000,4.000000,4.000000,100.000000,,,,,,,,,,,,,,,,,,,,,,,,,,,,,,,,,,,,,,,,,,,,,,,,,,,,,,,,,,,,,,,,,,,,,,,,,,,,,,,,,,,,,,,,,,,,,,,,,,,,,,,,,,,,,,,,,,,,,
1768292348.719480,1768292348.720277,53.000000,0.000000,4321.666504,4324.358887,4311.153809,4340.256348,4295.897461,4321.282227,4318.717773,4327.692383,4311.922852,4290.256348,4522.436035,4522.436035,4412.436035,4446.666504,0.000000,2.000000,47.000000,,,,0.000000,4.000000,4.000000,4.000000,4.000000,4.000000,4.000000,4.000000,4.000000,4.000000,4.000000,4.000000,4.000000,4.000000,4.000000,100.000000,,,,,,,,,,,,,,,,,,,,,,,,,,,,,,,,,,,,,,,,,,,,,,,,,,,,,,,,,,,,,,,,,,,,,,,,,,,,,,,,,,,,,,,,,,,,,,,,,,,,,,,,,,,,,,,,,,,,,
1768292348.727289,1768292348.728186,54.000000,0.000000,4321.282227,4326.410156,4310.000000,4343.589844,4296.025879,4320.769043,4318.846191,4322.179688,4309.487305,4298.846191,4524.615234,4529.230957,4413.333496,4453.333496,0.000000,2.000000,47.000000,,,,0.000000,4.000000,4.000000,4.000000,4.000000,4.000000,4.000000,4.000000,4.000000,4.000000,4.000000,4.000000,4.000000,4.000000,4.000000,100.000000,,,,,,,,,,,,,,,,,,,,,,,,,,,,,,,,,,,,,,,,,,,,,,,,,,,,,,,,,,,,,,,,,,,,,,,,,,,,,,,,,,,,,,,,,,,,,,,,,,,,,,,,,,,,,,,,,,,,,
1768292348.735097,1768292348.735994,55.000000,0.000000,4324.615234,4327.692383,4312.179688,4342.436035,4295.384766,4315.769043,4315.512695,4319.230957,4307.948730,4312.820313,4527.436035,4527.948730,4412.307617,4459.230957,0.000000,2.000000,47.000000,,,,0.000000,4.000000,4.000000,4.000000,4.000000,4.000000,4.000000,4.000000,4.000000,4.000000,4.000000,4.000000,4.000000,4.000000,4.000000,100.000000,,,,,,,,,,,,,,,,,,,,,,,,,,,,,,,,,,,,,,,,,,,,,,,,,,,,,,,,,,,,,,,,,,,,,,,,,,,,,,,,,,,,,,,,,,,,,,,,,,,,,,,,,,,,,,,,,,,,,
1768292348.742906,1768292348.743603,56.000000,0.000000,4327.307617,4325.256348,4313.974121,4343.077148,4295.769043,4315.512695,4311.922852,4323.846191,4310.000000,4313.333496,4524.230957,4526.922852,4409.743652,4457.820313,0.000000,2.000000,47.000000,,,,0.000000,4.000000,4.000000,4.000000,4.000000,4.000000,4.000000,4.000000,4.000000,4.000000,4.000000,4.000000,4.000000,4.000000,4.000000,100.000000,,,,,,,,,,,,,,,,,,,,,,,,,,,,,,,,,,,,,,,,,,,,,,,,,,,,,,,,,,,,,,,,,,,,,,,,,,,,,,,,,,,,,,,,,,,,,,,,,,,,,,,,,,,,,,,,,,,,,
1768292348.750714,1768292348.751411,57.000000,0.000000,4326.922852,4326.153809,4318.846191,4348.205078,4299.230957,4318.974121,4314.487305,4326.666504,4313.846191,4307.948730,4522.307617,4534.358887,4410.897461,4457.307617,0.000000,2.000000,47.000000,,,,0.000000,4.000000,4.000000,4.000000,4.000000,4.000000,4.000000,4.000000,4.000000,4.000000,4.000000,4.000000,4.000000,4.000000,4.000000,100.000000,,,,,,,,,,,,,,,,,,,,,,,,,,,,,,,,,,,,,,,,,,,,,,,,,,,,,,,,,,,,,,,,,,,,,,,,,,,,,,,,,,,,,,,,,,,,,,,,,,,,,,,,,,,,,,,,,,,,,
1768292348.758522,1768292348.759320,58.000000,0.000000,4328.461426,4329.743652,4322.948730,4349.743652,4302.563965,4323.974121,4323.846191,4327.948730,4314.743652,4310.384766,4525.897461,4538.461426,4412.692383,4461.538574,0.000000,2.000000,47.000000,,,,0.000000,4.000000,4.000000,4.000000,4.000000,4.000000,4.000000,4.000000,4.000000,4.000000,4.000000,4.000000,4.000000,4.000000,4.000000,100.000000,,,,,,,,,,,,,,,,,,,,,,,,,,,,,,,,,,,,,,,,,,,,,,,,,,,,,,,,,,,,,,,,,,,,,,,,,,,,,,,,,,,,,,,,,,,,,,,,,,,,,,,,,,,,,,,,,,,,,
1768292348.766331,1768292348.767129,59.000000,0.000000,4328.846191,4320.128418,4318.077148,4343.589844,4300.384766,4322.820313,4323.333496,4333.461426,4311.025879,4313.717773,4526.538574,4538.333496,4407.307617,4462.692383,0.000000,2.000000,47.000000,,,,0.000000,4.000000,4.000000,4.000000,4.000000,4.000000,4.000000,4.000000,4.000000,4.000000,4.000000,4.000000,4.000000,4.000000,4.000000,100.000000,,,,,,,,,,,,,,,,,,,,,,,,,,,,,,,,,,,,,,,,,,,,,,,,,,,,,,,,,,,,,,,,,,,,,,,,,,,,,,,,,,,,,,,,,,,,,,,,,,,,,,,,,,,,,,,,,,,,,
1768292348.774139,1768292348.775137,60.000000,0.000000,4326.794922,4312.307617,4313.077148,4337.692383,4298.333496,4315.128418,4312.179688,4336.922852,4312.948730,4311.538574,4524.230957,4539.615234,4401.794922,4457.563965,0.000000,2.000000,47.000000,,,,0.000000,4.000000,4.000000,4.000000,4.000000,4.000000,4.000000,4.000000,4.000000,4.000000,4.000000,4.000000,4.000000,4.000000,4.000000,100.000000,,,,,,,,,,,,,,,,,,,,,,,,,,,,,,,,,,,,,,,,,,,,,,,,,,,,,,,,,,,,,,,,,,,,,,,,,,,,,,,,,,,,,,,,,,,,,,,,,,,,,,,,,,,,,,,,,,,,,
1768292348.781948,1768292348.782945,61.000000,0.000000,4326.025879,4318.461426,4316.153809,4340.897461,4303.333496,4317.948730,4314.743652,4336.922852,4322.179688,4309.871582,4523.974121,4538.589844,4405.384766,4455.000000,0.000000,2.000000,47.000000,,,,0.000000,4.000000,4.000000,4.000000,4.000000,4.000000,4.000000,4.000000,4.000000,4.000000,4.000000,4.000000,4.000000,4.000000,4.000000,100.000000,,,,,,,,,,,,,,,,,,,,,,,,,,,,,,,,,,,,,,,,,,,,,,,,,,,,,,,,,,,,,,,,,,,,,,,,,,,,,,,,,,,,,,,,,,,,,,,,,,,,,,,,,,,,,,,,,,,,,
1768292348.789756,1768292348.790654,62.000000,0.000000,4327.051270,4317.948730,4319.230957,4345.000000,4308.717773,4327.307617,4327.436035,4339.871582,4323.717773,4311.410156,4526.282227,4536.794922,4408.461426,4457.307617,0.000000,2.000000,47.000000,,,,0.000000,4.000000,4.000000,4.000000,4.000000,4.000000,4.000000,4.000000,4.000000,4.000000,4.000000,4.000000,4.000000,4.000000,4.000000,100.000000,,,,,,,,,,,,,,,,,,,,,,,,,,,,,,,,,,,,,,,,,,,,,,,,,,,,,,,,,,,,,,,,,,,,,,,,,,,,,,,,,,,,,,,,,,,,,,,,,,,,,,,,,,,,,,,,,,,,,
1768292348.797564,1768292348.798462,63.000000,0.000000,4323.974121,4309.487305,4318.333496,4341.153809,4309.230957,4321.666504,4324.743652,4337.307617,4314.102539,4308.974121,4525.641113,4538.333496,4403.589844,4454.230957,0.000000,2.000000,47.000000,,,,0.000000,4.000000,4.000000,4.000000,4.000000,4.000000,4.000000,4.000000,4.000000,4.000000,4.000000,4.000000,4.000000,4.000000,4.000000,100.000000,,,,,,,,,,,,,,,,,,,,,,,,,,,,,,,,,,,,,,,,,,,,,,,,,,,,,,,,,,,,,,,,,,,,,,,,,,,,,,,,,,,,,,,,,,,,,,,,,,,,,,,,,,,,,,,,,,,,,
1768292348.805373,1768292348.806071,64.000000,0.000000,4317.307617,4309.230957,4317.820313,4335.128418,4307.948730,4314.615234,4318.205078,4327.179688,4308.974121,4299.871582,4522.307617,4534.871582,4398.205078,4445.641113,2656.000000,2.000000,47.000000,,,,0.000000,4.000000,4.000000,4.000000,4.000000,4.000000,4.000000,4.000000,4.000000,4.000000,4.000000,4.000000,4.000000,4.000000,4.000000,100.000000,,,,,,,,,,,,,,,,,,,,,,,,,,,,,,,,,,,,,,,,,,,,,,,,1.161986,0.349385,0.273161,0.433064,0.157162,1.442246,0.189464,0.329919,0.206755,0.164283,0.301705,0.173805,0.229066,0.131498,0.130927,1.044097,0.320577,0.154940,0.261101,0.099179,1.841393,0.222402,0.109159,0.096503,0.052666,0.095875,0.075074,0.081433,0.106901,0.118559,0.270611,0.223326,0.144960,0.237844,0.157259,0.696957,0.580812,0.399850,0.261027,0.216490,0.465701,0.376158,0.405159,0.280291,0.143665,1.093489,0.632642,0.357247,0.449608,0.302704,2.208875,0.408924,0.267708,0.303125,0.142680,1.795092,0.663233,0.642595,0.488430,0.165486,2.279154,0.349079,0.308335,0.346731,0.157042,2.194183,0.455978,0.284473,0.502567,0.172918
1768292348.813181,1768292348.813879,65.000000,0.000000,4319.743652,4312.820313,4319.230957,4333.974121,4308.461426,4321.922852,4322.692383,4323.461426,4312.051270,4299.358887,4520.512695,4526.025879,4396.922852,4443.846191,3991.000000,2.000000,47.000000,,,,0.000000,4.000000,4.000000,4.000000,4.000000,4.000000,4.000000,4.000000,4.000000,4.000000,4.000000,4.000000,4.000000,4.000000,4.000000,100.000000,,,,,,,,,,,,,,,,,,,,,,,,,,,,,,,,,,,,,,,,,,,,,,,,,,,,,,,,,,,,,,,,,,,,,,,,,,,,,,,,,,,,,,,,,,,,,,,,,,,,,,,,,,,,,,,,,,,,,
1768292348.820990,1768292348.821588,66.000000,0.000000,4326.410156,4312.179688,4318.589844,4335.256348,4309.102539,4324.358887,4318.589844,4327.179688,4313.589844,4307.692383,4521.794922,4525.128418,4399.743652,4446.153809,3932.000000,2.000000,47.000000,,,,0.000000,4.000000,4.000000,4.000000,4.000000,4.000000,4.000000,4.000000,4.000000,4.000000,4.000000,4.000000,4.000000,4.000000,4.000000,100.000000,,,,,,,,,,,,,,,,,,,,,,,,,,,,,,,,,,,,,,,,,,,,,,,,,,,,,,,,,,,,,,,,,,,,,,,,,,,,,,,,,,,,,,,,,,,,,,,,,,,,,,,,,,,,,,,,,,,,,
1768292348.828798,1768292348.829396,67.000000,0.000000,4324.743652,4311.410156,4315.128418,4335.256348,4307.051270,4319.230957,4309.487305,4327.563965,4312.692383,4308.974121,4522.820313,4533.589844,4404.615234,4446.538574,3872.000000,2.000000,47.000000,,,,0.000000,4.000000,4.000000,4.000000,4.000000,4.000000,4.000000,4.000000,4.000000,4.000000,4.000000,4.000000,4.000000,4.000000,4.000000,100.000000,,,,,,,,,,,,,,,,,,,,,,,,,,,,,,,,,,,,,,,,,,,,,,,,,,,,,,,,,,,,,,,,,,,,,,,,,,,,,,,,,,,,,,,,,,,,,,,,,,,,,,,,,,,,,,,,,,,,,
1768292348.836607,1768292348.837405,68.000000,0.000000,4317.948730,4310.384766,4314.871582,4334.487305,4306.794922,4320.256348,4315.769043,4325.000000,4313.461426,4302.051270,4521.538574,4536.922852,4402.820313,4445.641113,3717.000000,2.000000,47.000000,,,,0.000000,4.000000,4.000000,4.000000,4.000000,4.000000,4.000000,4.000000,4.000000,4.000000,4.000000,4.000000,4.000000,4.000000,4.000000,100.000000,,,,,,,,,,,,,,,,,,,,,,,,,,,,,,,,,,,,,,,,,,,,,,,,,,,,,,,,,,,,,,,,,,,,,,,,,,,,,,,,,,,,,,,,,,,,,,,,,,,,,,,,,,,,,,,,,,,,,
1768292348.844415,1768292348.845213,69.000000,0.000000,4316.025879,4310.256348,4316.794922,4336.282227,4310.897461,4323.461426,4322.820313,4331.153809,4312.692383,4300.512695,4519.743652,4532.307617,4397.820313,4444.487305,2952.000000,2.000000,47.000000,,,,0.000000,4.000000,4.000000,4.000000,4.000000,4.000000,4.000000,4.000000,4.000000,4.000000,4.000000,4.000000,4.000000,4.000000,4.000000,100.000000,,,,,,,,,,,,,,,,,,,,,,,,,,,,,,,,,,,,,,,,,,,,,,,,,,,,,,,,,,,,,,,,,,,,,,,,,,,,,,,,,,,,,,,,,,,,,,,,,,,,,,,,,,,,,,,,,,,,,
1768292348.852224,1768292348.853121,70.000000,0.000000,4320.384766,4313.205078,4319.230957,4340.384766,4311.666504,4322.820313,4324.102539,4340.769043,4312.948730,4299.358887,4519.743652,4532.820313,4396.666504,4443.461426,2665.000000,2.000000,47.000000,,,,0.000000,4.000000,4.000000,4.000000,4.000000,4.000000,4.000000,4.000000,4.000000,4.000000,4.000000,4.000000,4.000000,4.000000,4.000000,100.000000,,,,,,,,,,,,,,,,,,,,,,,,,,,,,,,,,,,,,,,,,,,,,,,,,,,,,,,,,,,,,,,,,,,,,,,,,,,,,,,,,,,,,,,,,,,,,,,,,,,,,,,,,,,,,,,,,,,,,
1768292348.860032,1768292348.860930,71.000000,0.000000,4327.307617,4315.641113,4323.589844,4344.871582,4310.256348,4324.358887,4329.487305,4338.333496,4314.871582,4295.128418,4522.307617,4537.563965,4393.846191,4442.820313,4026.000000,2.000000,47.000000,,,,0.000000,4.000000,4.000000,4.000000,4.000000,4.000000,4.000000,4.000000,4.000000,4.000000,4.000000,4.000000,4.000000,4.000000,4.000000,100.000000,,,,,,,,,,,,,,,,,,,,,,,,,,,,,,,,,,,,,,,,,,,,,,,,,,,,,,,,,,,,,,,,,,,,,,,,,,,,,,,,,,,,,,,,,,,,,,,,,,,,,,,,,,,,,,,,,,,,,
1768292348.867840,1768292348.868938,72.000000,0.000000,4328.333496,4313.461426,4324.487305,4344.615234,4309.487305,4326.282227,4329.487305,4333.333496,4316.153809,4301.025879,4522.179688,4537.436035,4396.666504,4449.358887,3510.000000,2.000000,47.000000,,,,0.000000,4.000000,4.000000,4.000000,4.000000,4.000000,4.000000,4.000000,4.000000,4.000000,4.000000,4.000000,4.000000,4.000000,4.000000,100.000000,,,,,,,,,,,,,,,,,,,,,,,,,,,,,,,,,,,,,,,,,,,,,,,,,,,,,,,,,,,,,,,,,,,,,,,,,,,,,,,,,,,,,,,,,,,,,,,,,,,,,,,,,,,,,,,,,,,,,
1768292348.875649,1768292348.876746,73.000000,0.000000,4321.794922,4308.589844,4318.589844,4338.461426,4308.205078,4321.922852,4321.666504,4338.974121,4319.230957,4311.922852,4524.358887,4538.589844,4408.077148,4457.948730,3827.000000,2.000000,47.000000,,,,0.000000,4.000000,4.000000,4.000000,4.000000,4.000000,4.000000,4.000000,4.000000,4.000000,4.000000,4.000000,4.000000,4.000000,4.000000,100.000000,,,,,,,,,,,,,,,,,,,,,,,,,,,,,,,,,,,,,,,,,,,,,,,,,,,,,,,,,,,,,,,,,,,,,,,,,,,,,,,,,,,,,,,,,,,,,,,,,,,,,,,,,,,,,,,,,,,,,
1768292348.883457,1768292348.884455,74.000000,0.000000,4327.692383,4314.230957,4320.384766,4340.641113,4310.641113,4318.333496,4323.846191,4345.512695,4326.666504,4314.487305,4532.436035,4545.512695,4416.025879,4461.153809,4325.000000,2.000000,47.000000,,,,0.000000,4.000000,4.000000,4.000000,4.000000,4.000000,4.000000,4.000000,4.000000,4.000000,4.000000,4.000000,4.000000,4.000000,4.000000,100.000000,,,,,,,,,,,,,,,,,,,,,,,,,,,,,,,,,,,,,,,,,,,,,,,,,,,,,,,,,,,,,,,,,,,,,,,,,,,,,,,,,,,,,,,,,,,,,,,,,,,,,,,,,,,,,,,,,,,,,
1768292348.891266,1768292348.892263,75.000000,0.000000,4339.871582,4328.205078,4330.641113,4348.717773,4314.230957,4318.333496,4325.384766,4342.051270,4327.051270,4309.230957,4532.692383,4546.922852,4413.717773,4461.922852,4732.000000,2.000000,47.000000,,,,0.000000,4.000000,4.000000,4.000000,4.000000,4.000000,4.000000,4.000000,4.000000,4.000000,4.000000,4.000000,4.000000,4.000000,4.000000,100.000000,,,,,,,,,,,,,,,,,,,,,,,,,,,,,,,,,,,,,,,,,,,,,,,,,,,,,,,,,,,,,,,,,,,,,,,,,,,,,,,,,,,,,,,,,,,,,,,,,,,,,,,,,,,,,,,,,,,,,
1768292348.899074,1768292348.900272,76.000000,0.000000,4333.974121,4325.128418,4326.922852,4344.358887,4306.794922,4315.897461,4313.077148,4332.948730,4318.974121,4308.333496,4522.692383,4537.436035,4403.333496,4455.512695,4744.000000,2.000000,47.000000,,,,0.000000,4.000000,4.000000,4.000000,4.000000,4.000000,4.000000,4.000000,4.000000,4.000000,4.000000,4.000000,4.000000,4.000000,4.000000,100.000000,,,,,,,,,,,,,,,,,,,,,,,,,,,,,,,,,,,,,,,,,,,,,,,,,,,,,,,,,,,,,,,,,,,,,,,,,,,,,,,,,,,,,,,,,,,,,,,,,,,,,,,,,,,,,,,,,,,,,
1768292348.906882,1768292348.908080,77.000000,0.000000,4321.153809,4314.487305,4316.410156,4337.563965,4299.358887,4316.153809,4311.666504,4330.384766,4318.205078,4308.974121,4520.128418,4533.205078,4399.871582,4445.128418,5584.000000,2.000000,47.000000,,,,0.000000,4.000000,4.000000,4.000000,4.000000,4.000000,4.000000,4.000000,4.000000,4.000000,4.000000,4.000000,4.000000,4.000000,4.000000,100.000000,,,,,,,,,,,,,,,,,,,,,,,,,,,,,,,,,,,,,,,,,,,,,,,,,,,,,,,,,,,,,,,,,,,,,,,,,,,,,,,,,,,,,,,,,,,,,,,,,,,,,,,,,,,,,,,,,,,,,
1768292348.914691,1768292348.915789,78.000000,0.000000,4321.666504,4319.102539,4319.102539,4341.153809,4304.743652,4318.461426,4319.487305,4334.487305,4319.615234,4305.000000,4525.512695,4537.948730,4409.230957,4450.384766,4325.000000,2.000000,47.000000,,,,0.000000,4.000000,4.000000,4.000000,4.000000,4.000000,4.000000,4.000000,4.000000,4.000000,4.000000,4.000000,4.000000,4.000000,4.000000,100.000000,,,,,,,,,,,,,,,,,,,,,,,,,,,,,,,,,,,,,,,,,,,,,,,,,,,,,,,,,,,,,,,,,,,,,,,,,,,,,,,,,,,,,,,,,,,,,,,,,,,,,,,,,,,,,,,,,,,,,
1768292348.922499,1768292348.923597,79.000000,0.000000,4327.436035,4326.153809,4322.563965,4342.436035,4310.897461,4316.666504,4314.487305,4333.077148,4314.230957,4306.666504,4526.025879,4540.384766,4412.051270,4461.538574,4732.000000,2.000000,47.000000,,,,0.000000,4.000000,4.000000,4.000000,4.000000,4.000000,4.000000,4.000000,4.000000,4.000000,4.000000,4.000000,4.000000,4.000000,4.000000,100.000000,,,,,,,,,,,,,,,,,,,,,,,,,,,,,,,,,,,,,,,,,,,,,,,,,,,,,,,,,,,,,,,,,,,,,,,,,,,,,,,,,,,,,,,,,,,,,,,,,,,,,,,,,,,,,,,,,,,,,
1768292348.930308,1768292348.931306,80.000000,0.000000,4326.794922,4323.205078,4316.282227,4340.128418,4310.128418,4316.153809,4311.282227,4324.487305,4310.512695,4313.333496,4522.051270,4534.102539,4401.538574,4451.794922,4744.000000,2.000000,47.000000,,,,0.000000,4.000000,4.000000,4.000000,4.000000,4.000000,4.000000,4.000000,4.000000,4.000000,4.000000,4.000000,4.000000,4.000000,4.000000,100.000000,1.000000,75.000000,4.000000,4.000000,4.000000,4.000000,4.000000,1.000000,4.000000,4.000000,4.000000,4.000000,4.000000,4.000000,4.000000,4.000000,,,,,,,,,,,,,,,,,,,,,,,,,,,,,,,,1.082556,0.456618,0.251409,0.440421,0.151275,1.318926,0.236858,0.324932,0.216391,0.154323,0.282228,0.199329,0.218744,0.134251,0.136512,0.878832,0.295990,0.162032,0.269140,0.096204,1.860250,0.226826,0.123036,0.099394,0.051477,0.114991,0.074171,0.067204,0.099547,0.125957,0.266208,0.291842,0.126782,0.232759,0.180946,0.608930,0.726093,0.369788,0.297604,0.209865,0.462980,0.453799,0.376761,0.299086,0.134926,1.042945,0.590075,0.335095,0.444865,0.320774,1.962463,0.499652,0.284351,0.311216,0.146144,1.604010,0.880792,0.623542,0.483244,0.164720,2.008911,0.382727,0.259938,0.392184,0.174840,1.915635,0.528278,0.243580,0.484036,0.180452
1768292348.938116,1768292348.939114,81.000000,0.000000,4327.051270,4319.230957,4314.230957,4341.153809,4308.333496,4317.179688,4319.615234,4327.051270,4310.384766,4308.461426,4521.794922,4526.282227,4393.589844,4440.641113,5584.000000,2.000000,47.000000,,,,0.000000,4.000000,4.000000,4.000000,4.000000,4.000000,4.000000,4.000000,4.000000,4.000000,4.000000,4.000000,4.000000,4.000000,4.000000,100.000000,,,,,,,,,,,,,,,,,,,,,,,,,,,,,,,,,,,,,,,,,,,,,,,,,,,,,,,,,,,,,,,,,,,,,,,,,,,,,,,,,,,,,,,,,,,,,,,,,,,,,,,,,,,,,,,,,,,,,
1768292348.945924,1768292348.946823,82.000000,0.000000,4328.717773,4317.563965,4316.794922,4337.179688,4308.589844,4315.384766,4324.102539,4334.743652,4309.230957,4298.589844,4520.384766,4526.538574,4393.205078,4445.256348,4325.000000,2.000000,47.000000,,,,0.000000,4.000000,4.000000,4.000000,4.000000,4.000000,4.000000,4.000000,4.000000,4.000000,4.000000,4.000000,4.000000,4.000000,4.000000,100.000000,,,,,,,,,,,,,,,,,,,,,,,,,,,,,,,,,,,,,,,,,,,,,,,,,,,,,,,,,,,,,,,,,,,,,,,,,,,,,,,,,,,,,,,,,,,,,,,,,,,,,,,,,,,,,,,,,,,,,
1768292348.953733,1768292348.954631,83.000000,0.000000,4318.205078,4307.820313,4311.153809,4328.333496,4307.436035,4316.282227,4319.358887,4329.358887,4307.563965,4300.000000,4510.128418,4524.871582,4386.282227,4438.974121,4732.000000,2.000000,47.000000,,,,0.000000,4.000000,4.000000,4.000000,4.000000,4.000000,4.000000,4.000000,4.000000,4.000000,4.000000,4.000000,4.000000,4.000000,4.000000,100.000000,,,,,,,,,,,,,,,,,,,,,,,,,,,,,,,,,,,,,,,,,,,,,,,,,,,,,,,,,,,,,,,,,,,,,,,,,,,,,,,,,,,,,,,,,,,,,,,,,,,,,,,,,,,,,,,,,,,,,
1768292348.961541,1768292348.962639,84.000000,0.000000,4308.717773,4303.846191,4311.922852,4327.948730,4305.897461,4319.230957,4315.256348,4326.794922,4311.794922,4306.153809,4508.077148,4519.358887,4382.436035,4429.871582,4744.000000,2.000000,47.000000,,,,0.000000,4.000000,4.000000,4.000000,4.000000,4.000000,4.000000,4.000000,4.000000,4.000000,4.000000,4.000000,4.000000,4.000000,4.000000,100.000000,,,,,,,,,,,,,,,,,,,,,,,,,,,,,,,,,,,,,,,,,,,,,,,,,,,,,,,,,,,,,,,,,,,,,,,,,,,,,,,,,,,,,,,,,,,,,,,,,,,,,,,,,,,,,,,,,,,,,
1768292348.969350,1768292348.970448,85.000000,0.000000,4325.384766,4318.846191,4327.436035,4340.769043,4313.205078,4320.512695,4318.205078,4341.153809,4321.922852,4315.641113,4527.948730,4529.743652,4398.974121,4447.051270,5584.000000,2.000000,47.000000,,,,0.000000,4.000000,4.000000,4.000000,4.000000,4.000000,4.000000,4.000000,4.000000,4.000000,4.000000,4.000000,4.000000,4.000000,4.000000,100.000000,,,,,,,,,,,,,,,,,,,,,,,,,,,,,,,,,,,,,,,,,,,,,,,,,,,,,,,,,,,,,,,,,,,,,,,,,,,,,,,,,,,,,,,,,,,,,,,,,,,,,,,,,,,,,,,,,,,,,
1768292348.977158,1768292348.978156,86.000000,0.000000,4346.282227,4333.589844,4335.384766,4351.282227,4320.384766,4323.205078,4322.948730,4351.794922,4330.128418,4324.230957,4543.717773,4547.436035,4414.743652,4466.153809,4325.000000,2.000000,47.000000,,,,0.000000,4.000000,4.000000,4.000000,4.000000,4.000000,4.000000,4.000000,4.000000,4.000000,4.000000,4.000000,4.000000,4.000000,4.000000,100.000000,,,,,,,,,,,,,,,,,,,,,,,,,,,,,,,,,,,,,,,,,,,,,,,,,,,,,,,,,,,,,,,,,,,,,,,,,,,,,,,,,,,,,,,,,,,,,,,,,,,,,,,,,,,,,,,,,,,,,
1768292348.984967,1768292348.985965,87.000000,0.000000,4338.846191,4329.358887,4326.025879,4348.333496,4317.179688,4322.948730,4324.615234,4347.179688,4323.846191,4317.436035,4536.666504,4545.512695,4406.153809,4458.205078,4732.000000,2.000000,47.000000,,,,0.000000,4.000000,4.000000,4.000000,4.000000,4.000000,4.000000,4.000000,4.000000,4.000000,4.000000,4.000000,4.000000,4.000000,4.000000,100.000000,,,,,,,,,,,,,,,,,,,,,,,,,,,,,,,,,,,,,,,,,,,,,,,,,,,,,,,,,,,,,,,,,,,,,,,,,,,,,,,,,,,,,,,,,,,,,,,,,,,,,,,,,,,,,,,,,,,,,
1768292348.992775,1768292348.993573,88.000000,0.000000,4322.948730,4315.128418,4316.922852,4338.846191,4311.538574,4316.282227,4321.282227,4338.205078,4311.538574,4306.282227,4524.871582,4528.974121,4394.230957,4445.128418,4744.000000,2.000000,47.000000,,,,0.000000,4.000000,4.000000,4.000000,4.000000,4.000000,4.000000,4.000000,4.000000,4.000000,4.000000,4.000000,4.000000,4.000000,4.000000,100.000000,,,,,,,,,,,,,,,,,,,,,,,,,,,,,,,,,,,,,,,,,,,,,,,,,,,,,,,,,,,,,,,,,,,,,,,,,,,,,,,,,,,,,,,,,,,,,,,,,,,,,,,,,,,,,,,,,,,,,
1768292349.000584,1768292349.001382,89.000000,0.000000,4323.077148,4309.615234,4315.641113,4334.743652,4309.871582,4310.384766,4315.641113,4331.410156,4308.077148,4305.256348,4521.410156,4520.769043,4397.563965,4443.461426,5584.000000,2.000000,47.000000,,,,0.000000,4.000000,4.000000,4.000000,4.000000,4.000000,4.000000,4.000000,4.000000,4.000000,4.000000,4.000000,4.000000,4.000000,4.000000,100.000000,,,,,,,,,,,,,,,,,,,,,,,,,,,,,,,,,,,,,,,,,,,,,,,,,,,,,,,,,,,,,,,,,,,,,,,,,,,,,,,,,,,,,,,,,,,,,,,,,,,,,,,,,,,,,,,,,,,,,
1768292349.008392,1768292349.009090,90.000000,0.000000,4326.666504,4313.205078,4316.282227,4337.051270,4310.128418,4312.051270,4315.000000,4331.410156,4310.512695,4309.102539,4521.794922,4524.615234,4398.205078,4443.333496,4325.000000,2.000000,47.000000,,,,0.000000,4.000000,4.000000,4.000000,4.000000,4.000000,4.000000,4.000000,4.000000,4.000000,4.000000,4.000000,4.000000,4.000000,4.000000,100.000000,,,,,,,,,,,,,,,,,,,,,,,,,,,,,,,,,,,,,,,,,,,,,,,,,,,,,,,,,,,,,,,,,,,,,,,,,,,,,,,,,,,,,,,,,,,,,,,,,,,,,,,,,,,,,,,,,,,,,
1768292349.016200,1768292349.016899,91.000000,0.000000,4326.666504,4318.846191,4318.974121,4339.358887,4315.384766,4319.102539,4325.000000,4338.846191,4315.512695,4305.256348,4523.461426,4531.666504,4395.641113,4443.846191,4732.000000,2.000000,47.000000,,,,0.000000,4.000000,4.000000,4.000000,4.000000,4.000000,4.000000,4.000000,4.000000,4.000000,4.000000,4.000000,4.000000,4.000000,4.000000,100.000000,,,,,,,,,,,,,,,,,,,,,,,,,,,,,,,,,,,,,,,,,,,,,,,,,,,,,,,,,,,,,,,,,,,,,,,,,,,,,,,,,,,,,,,,,,,,,,,,,,,,,,,,,,,,,,,,,,,,,
1768292349.024009,1768292349.024907,92.000000,0.000000,4328.589844,4317.948730,4320.897461,4338.461426,4321.794922,4321.410156,4332.179688,4345.256348,4318.333496,4298.333496,4524.102539,4537.051270,4399.230957,4446.282227,4744.000000,2.000000,47.000000,,,,0.000000,4.000000,4.000000,4.000000,4.000000,4.000000,4.000000,4.000000,4.000000,4.000000,4.000000,4.000000,4.000000,4.000000,4.000000,100.000000,,,,,,,,,,,,,,,,,,,,,,,,,,,,,,,,,,,,,,,,,,,,,,,,,,,,,,,,,,,,,,,,,,,,,,,,,,,,,,,,,,,,,,,,,,,,,,,,,,,,,,,,,,,,,,,,,,,,,
1768292349.031817,1768292349.032716,93.000000,0.000000,4324.358887,4311.666504,4317.436035,4335.384766,4320.256348,4318.589844,4323.589844,4342.051270,4314.615234,4300.641113,4522.179688,4532.948730,4398.333496,4444.615234,5584.000000,2.000000,47.000000,,,,0.000000,4.000000,4.000000,4.000000,4.000000,4.000000,4.000000,4.000000,4.000000,4.000000,4.000000,4.000000,4.000000,4.000000,4.000000,100.000000,,,,,,,,,,,,,,,,,,,,,,,,,,,,,,,,,,,,,,,,,,,,,,,,,,,,,,,,,,,,,,,,,,,,,,,,,,,,,,,,,,,,,,,,,,,,,,,,,,,,,,,,,,,,,,,,,,,,,
1768292349.039626,1768292349.040624,94.000000,0.000000,4317.692383,4310.897461,4313.846191,4337.179688,4317.820313,4319.487305,4315.384766,4329.102539,4310.897461,4311.025879,4520.256348,4524.487305,4394.743652,4443.077148,4325.000000,2.000000,47.000000,,,,0.000000,4.000000,4.000000,4.000000,4.000000,4.000000,4.000000,4.000000,4.000000,4.000000,4.000000,4.000000,4.000000,4.000000,4.000000,100.000000,,,,,,,,,,,,,,,,,,,,,,,,,,,,,,,,,,,,,,,,,,,,,,,,,,,,,,,,,,,,,,,,,,,,,,,,,,,,,,,,,,,,,,,,,,,,,,,,,,,,,,,,,,,,,,,,,,,,,
1768292349.047434,1768292349.048432,95.000000,0.000000,4321.538574,4312.948730,4313.846191,4343.077148,4321.282227,4320.256348,4319.487305,4327.179688,4315.384766,4313.974121,4522.436035,4529.358887,4396.410156,4445.512695,4732.000000,2.000000,47.000000,,,,0.000000,4.000000,4.000000,4.000000,4.000000,4.000000,4.000000,4.000000,4.000000,4.000000,4.000000,4.000000,4.000000,4.000000,4.000000,100.000000,,,,,,,,,,,,,,,,,,,,,,,,,,,,,,,,,,,,,,,,,,,,,,,,,,,,,,,,,,,,,,,,,,,,,,,,,,,,,,,,,,,,,,,,,,,,,,,,,,,,,,,,,,,,,,,,,,,,,
1768292349.055242,1768292349.056441,96.000000,0.000000,4327.179688,4312.436035,4313.589844,4338.717773,4321.538574,4317.051270,4320.000000,4336.666504,4317.051270,4310.256348,4525.128418,4540.384766,4398.589844,4446.794922,4744.000000,2.000000,47.000000,,,,0.000000,4.000000,4.000000,4.000000,4.000000,4.000000,4.000000,4.000000,4.000000,4.000000,4.000000,4.000000,4.000000,4.000000,4.000000,100.000000,,,,,,,,,,,,,,,,,,,,,,,,,,,,,,,,,,,,,,,,,,,,,,,,1.022199,0.593509,0.235638,0.412089,0.142900,1.306751,0.301556,0.325878,0.213381,0.138196,0.244575,0.219761,0.200861,0.135321,0.133550,0.755481,0.263933,0.163247,0.257163,0.094551,1.961955,0.273474,0.134903,0.102596,0.053233,0.130378,0.071085,0.063442,0.091122,0.132190,0.245147,0.345673,0.122389,0.227092,0.206306,0.503585,0.859349,0.343481,0.349848,0.213542,0.449199,0.535464,0.362166,0.310032,0.126646,1.035630,0.595143,0.325074,0.420258,0.326468,1.657481,0.648731,0.332615,0.304514,0.151045,1.367944,1.174982,0.593233,0.464956,0.175878,1.682431,0.442508,0.223823,0.409947,0.190662,1.605985,0.668425,0.224516,0.450073,0.201997
1768292349.063051,1768292349.064249,97.000000,0.000000,4325.128418,4308.077148,4311.153809,4328.077148,4317.692383,4314.230957,4313.333496,4330.641113,4308.974121,4310.000000,4523.205078,4536.153809,4395.000000,4443.205078,5584.000000,2.000000,47.000000,,,,0.000000,4.000000,4.000000,4.000000,4.000000,4.000000,4.000000,4.000000,4.000000,4.000000,4.000000,4.000000,4.000000,4.000000,4.000000,100.000000,,,,,,,,,,,,,,,,,,,,,,,,,,,,,,,,,,,,,,,,,,,,,,,,,,,,,,,,,,,,,,,,,,,,,,,,,,,,,,,,,,,,,,,,,,,,,,,,,,,,,,,,,,,,,,,,,,,,,
1768292349.070859,1768292349.072157,98.000000,0.000000,4323.589844,4306.666504,4312.692383,4329.102539,4320.769043,4317.820313,4316.282227,4321.794922,4306.153809,4312.051270,4521.922852,4532.436035,4399.102539,4442.948730,4325.000000,2.000000,47.000000,,,,0.000000,4.000000,4.000000,4.000000,4.000000,4.000000,4.000000,4.000000,4.000000,4.000000,4.000000,4.000000,4.000000,4.000000,4.000000,100.000000,,,,,,,,,,,,,,,,,,,,,,,,,,,,,,,,,,,,,,,,,,,,,,,,,,,,,,,,,,,,,,,,,,,,,,,,,,,,,,,,,,,,,,,,,,,,,,,,,,,,,,,,,,,,,,,,,,,,,
1768292349.078668,1768292349.079966,99.000000,0.000000,4326.538574,4308.589844,4315.897461,4334.358887,4326.025879,4323.077148,4325.000000,4332.692383,4311.922852,4316.153809,4525.128418,4542.307617,4408.846191,4447.820313,4732.000000,2.000000,47.000000,,,,0.000000,4.000000,4.000000,4.000000,4.000000,4.000000,4.000000,4.000000,4.000000,4.000000,4.000000,4.000000,4.000000,4.000000,4.000000,100.000000,,,,,,,,,,,,,,,,,,,,,,,,,,,,,,,,,,,,,,,,,,,,,,,,,,,,,,,,,,,,,,,,,,,,,,,,,,,,,,,,,,,,,,,,,,,,,,,,,,,,,,,,,,,,,,,,,,,,,
1768292349.086476,1768292349.087575,100.000000,0.000000,4327.051270,4306.153809,4313.974121,4329.230957,4317.948730,4318.589844,4316.410156,4332.820313,4312.179688,4312.948730,4525.256348,4536.794922,4403.589844,4446.794922,4744.000000,2.000000,47.000000,,,,0.000000,4.000000,4.000000,4.000000,4.000000,4.000000,4.000000,4.000000,4.000000,4.000000,4.000000,4.000000,4.000000,4.000000,4.000000,100.000000,,,,,,,,,,,,,,,,,,,,,,,,,,,,,,,,,,,,,,,,,,,,,,,,,,,,,,,,,,,,,,,,,,,,,,,,,,,,,,,,,,,,,,,,,,,,,,,,,,,,,,,,,,,,,,,,,,,,,
1768292349.094284,1768292349.095383,101.000000,0.000000,4324.871582,4303.077148,4310.512695,4324.871582,4308.589844,4310.641113,4304.358887,4321.666504,4307.307617,4305.128418,4519.743652,4525.000000,4397.820313,4441.922852,5584.000000,2.000000,47.000000,,,,0.000000,4.000000,4.000000,4.000000,4.000000,4.000000,4.000000,4.000000,4.000000,4.000000,4.000000,4.000000,4.000000,4.000000,4.000000,100.000000,,,,,,,,,,,,,,,,,,,,,,,,,,,,,,,,,,,,,,,,,,,,,,,,,,,,,,,,,,,,,,,,,,,,,,,,,,,,,,,,,,,,,,,,,,,,,,,,,,,,,,,,,,,,,,,,,,,,,
1768292349.102093,1768292349.103092,102.000000,0.000000,4322.692383,4306.922852,4311.538574,4329.487305,4312.820313,4315.128418,4316.153809,4335.769043,4315.000000,4308.077148,4522.436035,4537.307617,4409.230957,4446.410156,4325.000000,2.000000,47.000000,,,,0.000000,4.000000,4.000000,4.000000,4.000000,4.000000,4.000000,4.000000,4.000000,4.000000,4.000000,4.000000,4.000000,4.000000,4.000000,100.000000,,,,,,,,,,,,,,,,,,,,,,,,,,,,,,,,,,,,,,,,,,,,,,,,,,,,,,,,,,,,,,,,,,,,,,,,,,,,,,,,,,,,,,,,,,,,,,,,,,,,,,,,,,,,,,,,,,,,,
1768292349.109901,1768292349.110900,103.000000,0.000000,4321.153809,4311.282227,4314.871582,4336.153809,4315.384766,4326.025879,4330.512695,4347.179688,4323.077148,4308.589844,4529.487305,4545.256348,4415.641113,4451.538574,4732.000000,2.000000,47.000000,,,,0.000000,4.000000,4.000000,4.000000,4.000000,4.000000,4.000000,4.000000,4.000000,4.000000,4.000000,4.000000,4.000000,4.000000,4.000000,100.000000,,,,,,,,,,,,,,,,,,,,,,,,,,,,,,,,,,,,,,,,,,,,,,,,,,,,,,,,,,,,,,,,,,,,,,,,,,,,,,,,,,,,,,,,,,,,,,,,,,,,,,,,,,,,,,,,,,,,,
1768292349.117710,1768292349.118509,104.000000,0.000000,4323.077148,4309.871582,4315.000000,4335.897461,4306.794922,4326.666504,4324.743652,4332.051270,4314.743652,4300.769043,4527.307617,4530.000000,4408.974121,4445.769043,4744.000000,2.000000,47.000000,,,,0.000000,4.000000,4.000000,4.000000,4.000000,4.000000,4.000000,4.000000,4.000000,4.000000,4.000000,4.000000,4.000000,4.000000,4.000000,100.000000,,,,,,,,,,,,,,,,,,,,,,,,,,,,,,,,,,,,,,,,,,,,,,,,,,,,,,,,,,,,,,,,,,,,,,,,,,,,,,,,,,,,,,,,,,,,,,,,,,,,,,,,,,,,,,,,,,,,,
1768292349.125518,1768292349.126317,105.000000,0.000000,4325.512695,4308.205078,4314.358887,4331.410156,4303.333496,4322.820313,4321.282227,4329.358887,4309.230957,4295.641113,4521.666504,4520.256348,4409.487305,4439.743652,5584.000000,2.000000,47.000000,,,,0.000000,4.000000,4.000000,4.000000,4.000000,4.000000,4.000000,4.000000,4.000000,4.000000,4.000000,4.000000,4.000000,4.000000,4.000000,100.000000,,,,,,,,,,,,,,,,,,,,,,,,,,,,,,,,,,,,,,,,,,,,,,,,,,,,,,,,,,,,,,,,,,,,,,,,,,,,,,,,,,,,,,,,,,,,,,,,,,,,,,,,,,,,,,,,,,,,,
1768292349.133327,1768292349.134026,106.000000,0.000000,4320.256348,4310.128418,4313.717773,4332.563965,4303.333496,4323.717773,4326.794922,4343.077148,4317.563965,4293.717773,4524.230957,4526.794922,4413.717773,4439.871582,4325.000000,2.000000,47.000000,,,,0.000000,4.000000,4.000000,4.000000,4.000000,4.000000,4.000000,4.000000,4.000000,4.000000,4.000000,4.000000,4.000000,4.000000,4.000000,100.000000,,,,,,,,,,,,,,,,,,,,,,,,,,,,,,,,,,,,,,,,,,,,,,,,,,,,,,,,,,,,,,,,,,,,,,,,,,,,,,,,,,,,,,,,,,,,,,,,,,,,,,,,,,,,,,,,,,,,,
1768292349.141135,1768292349.141834,107.000000,0.000000,4314.487305,4311.410156,4311.025879,4332.948730,4298.461426,4320.897461,4318.717773,4334.358887,4317.179688,4293.205078,4525.897461,4526.282227,4406.025879,4438.077148,4732.000000,2.000000,47.000000,,,,0.000000,4.000000,4.000000,4.000000,4.000000,4.000000,4.000000,4.000000,4.000000,4.000000,4.000000,4.000000,4.000000,4.000000,4.000000,100.000000,,,,,,,,,,,,,,,,,,,,,,,,,,,,,,,,,,,,,,,,,,,,,,,,,,,,,,,,,,,,,,,,,,,,,,,,,,,,,,,,,,,,,,,,,,,,,,,,,,,,,,,,,,,,,,,,,,,,,
1768292349.148944,1768292349.149443,108.000000,0.000000,4321.025879,4310.384766,4310.256348,4328.077148,4295.512695,4315.641113,4305.641113,4315.384766,4304.102539,4296.153809,4520.384766,4516.538574,4395.641113,4432.051270,4744.000000,2.000000,47.000000,,,,0.000000,4.000000,4.000000,4.000000,4.000000,4.000000,4.000000,4.000000,4.000000,4.000000,4.000000,4.000000,4.000000,4.000000,4.000000,100.000000,,,,,,,,,,,,,,,,,,,,,,,,,,,,,,,,,,,,,,,,,,,,,,,,,,,,,,,,,,,,,,,,,,,,,,,,,,,,,,,,,,,,,,,,,,,,,,,,,,,,,,,,,,,,,,,,,,,,,
1768292349.156752,1768292349.157251,109.000000,0.000000,4326.922852,4310.256348,4312.563965,4327.820313,4295.897461,4316.922852,4309.871582,4319.230957,4302.820313,4297.820313,4518.333496,4515.000000,4398.205078,4427.820313,5584.000000,2.000000,47.000000,,,,0.000000,4.000000,4.000000,4.000000,4.000000,4.000000,4.000000,4.000000,4.000000,4.000000,4.000000,4.000000,4.000000,4.000000,4.000000,100.000000,,,,,,,,,,,,,,,,,,,,,,,,,,,,,,,,,,,,,,,,,,,,,,,,,,,,,,,,,,,,,,,,,,,,,,,,,,,,,,,,,,,,,,,,,,,,,,,,,,,,,,,,,,,,,,,,,,,,,
1768292349.164560,1768292349.165160,110.000000,0.000000,4323.333496,4312.179688,4311.922852,4330.512695,4293.717773,4319.358887,4319.358887,4329.487305,4311.282227,4294.487305,4520.641113,4521.666504,4405.128418,4433.589844,4325.000000,2.000000,47.000000,,,,0.000000,4.000000,4.000000,4.000000,4.000000,4.000000,4.000000,4.000000,4.000000,4.000000,4.000000,4.000000,4.000000,4.000000,4.000000,100.000000,,,,,,,,,,,,,,,,,,,,,,,,,,,,,,,,,,,,,,,,,,,,,,,,,,,,,,,,,,,,,,,,,,,,,,,,,,,,,,,,,,,,,,,,,,,,,,,,,,,,,,,,,,,,,,,,,,,,,
1768292349.172369,1768292349.172968,111.000000,0.000000,4323.589844,4311.794922,4305.512695,4329.487305,4291.282227,4316.538574,4318.077148,4329.102539,4313.077148,4292.692383,4523.717773,4523.461426,4404.102539,4443.974121,4732.000000,2.000000,47.000000,,,,0.000000,4.000000,4.000000,4.000000,4.000000,4.000000,4.000000,4.000000,4.000000,4.000000,4.000000,4.000000,4.000000,4.000000,4.000000,100.000000,,,,,,,,,,,,,,,,,,,,,,,,,,,,,,,,,,,,,,,,,,,,,,,,,,,,,,,,,,,,,,,,,,,,,,,,,,,,,,,,,,,,,,,,,,,,,,,,,,,,,,,,,,,,,,,,,,,,,
1768292349.180177,1768292349.180577,112.000000,0.000000,4328.974121,4311.410156,4303.333496,4332.307617,4293.461426,4316.153809,4313.589844,4325.897461,4309.743652,4295.000000,4527.563965,4524.615234,4405.641113,4445.384766,4744.000000,2.000000,47.000000,,,,0.000000,4.000000,4.000000,4.000000,4.000000,4.000000,4.000000,4.000000,4.000000,4.000000,4.000000,4.000000,4.000000,4.000000,4.000000,100.000000,,,,,,,,,,,,,,,,,,,,,,,,,,,,,,,,,,,,,,,,,,,,,,,,0.980416,0.740131,0.228195,0.356556,0.136702,1.374349,0.367615,0.329289,0.200526,0.122545,0.196315,0.238799,0.177112,0.136388,0.124758,0.673751,0.238605,0.157782,0.230408,0.095673,2.169859,0.358352,0.139843,0.105903,0.058802,0.139361,0.065588,0.068129,0.081734,0.134826,0.216296,0.368807,0.132316,0.219898,0.230612,0.416575,0.962042,0.319804,0.399187,0.219076,0.421711,0.596399,0.357340,0.307836,0.116881,1.089479,0.661574,0.332823,0.388598,0.315427,1.320758,0.840346,0.403690,0.288934,0.153381,1.116778,1.512846,0.558945,0.440356,0.194360,1.329270,0.524402,0.212356,0.401013,0.199518,1.293063,0.873756,0.235735,0.407919,0.231016
1768292349.187986,1768292349.188385,113.000000,0.000000,4332.179688,4316.282227,4309.230957,4339.230957,4295.897461,4318.846191,4316.025879,4324.743652,4311.025879,4296.794922,4525.000000,4528.846191,4412.820313,4440.384766,5584.000000,2.000000,47.000000,,,,0.000000,4.000000,4.000000,4.000000,4.000000,4.000000,4.000000,4.000000,4.000000,4.000000,4.000000,4.000000,4.000000,4.000000,4.000000,100.000000,,,,,,,,,,,,,,,,,,,,,,,,,,,,,,,,,,,,,,,,,,,,,,,,,,,,,,,,,,,,,,,,,,,,,,,,,,,,,,,,,,,,,,,,,,,,,,,,,,,,,,,,,,,,,,,,,,,,,
1768292349.195794,1768292349.196094,114.000000,0.000000,4338.205078,4322.820313,4313.205078,4342.179688,4295.512695,4318.077148,4318.333496,4331.666504,4314.358887,4294.102539,4522.307617,4528.205078,4410.128418,4440.512695,4325.000000,2.000000,47.000000,,,,0.000000,4.000000,4.000000,4.000000,4.000000,4.000000,4.000000,4.000000,4.000000,4.000000,4.000000,4.000000,4.000000,4.000000,4.000000,100.000000,,,,,,,,,,,,,,,,,,,,,,,,,,,,,,,,,,,,,,,,,,,,,,,,,,,,,,,,,,,,,,,,,,,,,,,,,,,,,,,,,,,,,,,,,,,,,,,,,,,,,,,,,,,,,,,,,,,,,
1768292349.203602,1768292349.203902,115.000000,0.000000,4342.307617,4325.128418,4312.820313,4342.307617,4294.102539,4316.794922,4313.461426,4336.922852,4312.307617,4292.692383,4528.846191,4533.205078,4405.512695,4446.538574,4732.000000,2.000000,47.000000,,,,0.000000,4.000000,4.000000,4.000000,4.000000,4.000000,4.000000,4.000000,4.000000,4.000000,4.000000,4.000000,4.000000,4.000000,4.000000,100.000000,,,,,,,,,,,,,,,,,,,,,,,,,,,,,,,,,,,,,,,,,,,,,,,,,,,,,,,,,,,,,,,,,,,,,,,,,,,,,,,,,,,,,,,,,,,,,,,,,,,,,,,,,,,,,,,,,,,,,
1768292349.211411,1768292349.211511,116.000000,0.000000,4340.256348,4322.948730,4314.615234,4340.256348,4297.436035,4318.461426,4312.563965,4328.461426,4311.025879,4300.384766,4532.051270,4538.461426,4411.922852,4450.384766,4744.000000,2.000000,47.000000,,,,0.000000,4.000000,4.000000,4.000000,4.000000,4.000000,4.000000,4.000000,4.000000,4.000000,4.000000,4.000000,4.000000,4.000000,4.000000,100.000000,,,,,,,,,,,,,,,,,,,,,,,,,,,,,,,,,,,,,,,,,,,,,,,,,,,,,,,,,,,,,,,,,,,,,,,,,,,,,,,,,,,,,,,,,,,,,,,,,,,,,,,,,,,,,,,,,,,,,
1768292349.219219,1768292349.219319,117.000000,0.000000,4341.025879,4323.077148,4316.282227,4340.769043,4305.000000,4318.717773,4313.717773,4321.282227,4312.307617,4303.461426,4524.358887,4528.974121,4412.179688,4447.051270,5584.000000,2.000000,47.000000,,,,0.000000,4.000000,4.000000,4.000000,4.000000,4.000000,4.000000,4.000000,4.000000,4.000000,4.000000,4.000000,4.000000,4.000000,4.000000,100.000000,,,,,,,,,,,,,,,,,,,,,,,,,,,,,,,,,,,,,,,,,,,,,,,,,,,,,,,,,,,,,,,,,,,,,,,,,,,,,,,,,,,,,,,,,,,,,,,,,,,,,,,,,,,,,,,,,,,,,
