Timestamp,OriginalTimestamp,EEG.Counter,EEG.Interpolated,EEG.AF3,EEG.F7,EEG.F3,EEG.FC5,EEG.T7,EEG.P7,EEG.O1,EEG.O2,EEG.P8,EEG.T8,EEG.FC6,EEG.F4,EEG.F8,EEG.AF4,POW.AF3.Theta,POW.AF3.Alpha,POW.AF3.BetaL,POW.AF3.BetaH,POW.AF3.Gamma,POW.F7.Theta,POW.F7.Alpha,POW.F7.BetaL,POW.F7.BetaH,POW.F7.Gamma,POW.F3.Theta,POW.F3.Alpha,POW.F3.BetaL,POW.F3.BetaH,POW.F3.Gamma,POW.FC5.Theta,POW.FC5.Alpha,POW.FC5.BetaL,POW.FC5.BetaH,POW.FC5.Gamma,POW.T7.Theta,POW.T7.Alpha,POW.T7.BetaL,POW.T7.BetaH,POW.T7.Gamma,POW.P7.Theta,POW.P7.Alpha,POW.P7.BetaL,POW.P7.BetaH,POW.P7.Gamma,POW.O1.Theta,POW.O1.Alpha,POW.O1.BetaL,POW.O1.BetaH,POW.O1.Gamma,POW.O2.Theta,POW.O2.Alpha,POW.O2.BetaL,POW.O2.BetaH,POW.O2.Gamma,POW.P8.Theta,POW.P8.Alpha,POW.P8.BetaL,POW.P8.BetaH,POW.P8.Gamma,POW.T8.Theta,POW.T8.Alpha,POW.T8.BetaL,POW.T8.BetaH,POW.T8.Gamma,POW.FC6.Theta,POW.FC6.Alpha,POW.FC6.BetaL,POW.FC6.BetaH,POW.FC6.Gamma,POW.F4.Theta,POW.F4.Alpha,POW.F4.BetaL,POW.F4.BetaH,POW.F4.Gamma,POW.F8.Theta,POW.F8.Alpha,POW.F8.BetaL,POW.F8.BetaH,POW.F8.Gamma,POW.AF4.Theta,POW.AF4.Alpha,POW.AF4.BetaL,POW.AF4.BetaH,POW.AF4.Gamma
1769163806.877268,1769163806.878382,17.0,0.0,4309.615234,4305.641113,4337.94873,4317.05127,4270.0,4284.358887,4295.897461,4292.692383,4275.641113,4277.563965,4574.615234,4547.307617,4411.794922,4482.05127,,,,,,,,,,,,,,,,,,,,,,,,,,,,,,,,,,,,,,,,,,,,,,,,,,,,,,,,,,,,,,,,,,,,,,
1769163806.885076,1769163806.88629,18.0,0.0,4312.05127,4307.179688,4339.615234,4317.05127,4268.205078,4290.0,4297.05127,4292.307617,4274.102539,4274.487305,4571.282227,4547.94873,4411.538574,4478.333496,,,,,,,,,,,,,,,,,,,,,,,,,,,,,,,,,,,,,,,,,,,,,,,,,,,,,,,,,,,,,,,,,,,,,,
1769163806.892885,1769163806.894099,19.0,0.0,4311.025879,4307.307617,4341.794922,4315.769043,4264.743652,4286.666504,4297.563965,4290.769043,4276.282227,4276.666504,4571.794922,4548.077148,4412.307617,4473.974121,,,,,,,,,,,,,,,,,,,,,,,,,,,,,,,,,,,,,,,,,,,,,,,,,,,,,,,,,,,,,,,,,,,,,,
1769163806.900693,1769163806.902107,20.0,0.0,4302.820313,4305.256348,4343.333496,4316.922852,4264.487305,4283.717773,4299.743652,4292.94873,4276.025879,4277.307617,4576.282227,4548.461426,4412.94873,4478.461426,,,,,,,,,,,,,,,,,,,,,,,,,,,,,,,,,,,,,,,,,,,,,,,,,,,,,,,,,,,,,,,,,,,,,,
1769163806.908502,1769163806.909915,21.0,0.0,4291.538574,4294.615234,4340.512695,4310.897461,4263.974121,4291.153809,4303.717773,4296.410156,4276.794922,4280.897461,4587.436035,4556.410156,4416.153809,4491.025879,,,,,,,,,,,,,,,,,,,,,,,,,,,,,,,,,,,,,,,,,,,,,,,,,,,,,,,,,,,,,,,,,,,,,,
1769163806.91631,1769163806.917824,22.0,0.0,4290.384766,4292.436035,4335.769043,4309.487305,4264.358887,4293.846191,4305.512695,4294.615234,4276.538574,4283.205078,4584.743652,4553.846191,4415.256348,4484.871582,,,,,,,,,,,,,,,,,,,,,,,,,,,,,,,,,,,,,,,,,,,,,,,,,,,,,,,,,,,,,,,,,,,,,,
1769163806.924118,1769163806.925632,23.0,0.0,4294.743652,4298.205078,4333.461426,4318.846191,4266.794922,4291.025879,4302.05127,4292.94873,4277.307617,4278.205078,4571.922852,4539.487305,4410.128418,4472.94873,,,,,,,,,,,,,,,,,,,,,,,,,,,,,,,,,,,,,,,,,,,,,,,,,,,,,,,,,,,,,,,,,,,,,,
1769163806.931927,1769163806.933641,24.0,0.0,4295.128418,4298.077148,4335.384766,4319.871582,4264.615234,4290.256348,4296.025879,4295.769043,4279.487305,4279.230957,4575.641113,4542.179688,4409.871582,4480.512695,,,,,,,,,,,,,,,,,,,,,,,,,,,,,,,,,,,,,,,,,,,,,,,,,,,,,,,,,,,,,,,,,,,,,,
1769163806.939735,1769163806.941449,25.0,0.0,4294.102539,4300.128418,4339.102539,4315.256348,4265.769043,4286.410156,4298.333496,4296.282227,4281.922852,4286.666504,4589.102539,4556.794922,4418.461426,4493.461426,,,,,,,,,,,,,,,,,,,,,,,,,,,,,,,,,,,,,,,,,,,,,,,,,,,,,,,,,,,,,,,,,,,,,,
1769163806.947544,1769163806.949158,26.0,0.0,4294.743652,4308.717773,4341.410156,4320.641113,4270.384766,4283.077148,4302.307617,4297.692383,4290.384766,4288.974121,4590.384766,4556.794922,4426.538574,4492.692383,,,,,,,,,,,,,,,,,,,,,,,,,,,,,,,,,,,,,,,,,,,,,,,,,,,,,,,,,,,,,,,,,,,,,,
1769163806.955352,1769163806.956966,27.0,0.0,4294.358887,4309.487305,4342.692383,4327.179688,4269.487305,4290.256348,4301.666504,4300.512695,4294.743652,4287.436035,4585.128418,4552.307617,4422.692383,4484.358887,,,,,,,,,,,,,,,,,,,,,,,,,,,,,,,,,,,,,,,,,,,,,,,,,,,,,,,,,,,,,,,,,,,,,,
1769163806.963161,1769163806.964575,28.0,0.0,4287.307617,4301.153809,4342.820313,4321.282227,4264.615234,4292.94873,4300.256348,4298.461426,4286.410156,4287.179688,4583.461426,4555.0,4420.0,4484.487305,,,,,,,,,,,,,,,,,,,,,,,,,,,,,,,,,,,,,,,,,,,,,,,,,,,,,,,,,,,,,,,,,,,,,,
1769163806.970969,1769163806.972383,29.0,0.0,4280.0,4294.743652,4340.512695,4310.512695,4263.846191,4282.05127,4298.461426,4294.871582,4280.128418,4288.589844,4585.897461,4555.641113,4427.820313,4495.128418,,,,,,,,,,,,,,,,,,,,,,,,,,,,,,,,,,,,,,,,,,,,,,,,,,,,,,,,,,,,,,,,,,,,,,
1769163806.978778,1769163806.980291,30.0,0.0,4282.179688,4294.102539,4338.589844,4309.743652,4265.512695,4281.410156,4298.205078,4294.487305,4283.333496,4286.153809,4585.897461,4553.589844,4426.153809,4492.563965,2.069861,0.373268,0.610982,0.207171,0.260201,0.518522,0.287838,0.134421,0.188219,0.200658,0.276544,0.261815,0.246645,0.116792,0.117205,0.515193,0.33207,0.172852,0.148835,0.167029,0.182308,0.247859,0.084996,0.077808,0.072175,0.414561,0.346793,0.171371,0.244479,0.100017,0.439915,0.279479,0.082215,0.174173,0.131478,0.904775,0.187212,0.108743,0.143141,0.102883,0.83558,0.152094,0.281008,0.190248,0.118641,0.355323,0.213479,0.22555,0.121638,0.083847,0.309671,0.371814,0.347163,0.128277,0.081454,0.535447,0.244675,0.486861,0.271121,0.135112,0.377138,0.519532,0.346282,0.231703,0.185109,1.009095,0.483411,0.406872,0.268764,0.231913
1769163806.986586,1769163806.9881,31.0,0.0,4283.333496,4295.769043,4336.794922,4312.563965,4263.077148,4293.077148,4301.666504,4294.871582,4282.307617,4280.512695,4577.94873,4547.05127,4413.717773,4477.05127,,,,,,,,,,,,,,,,,,,,,,,,,,,,,,,,,,,,,,,,,,,,,,,,,,,,,,,,,,,,,,,,,,,,,,
1769163806.994394,1769163806.996108,32.0,0.0,4279.230957,4294.102539,4335.512695,4310.384766,4260.769043,4293.333496,4301.410156,4295.0,4279.230957,4278.461426,4571.922852,4538.974121,4409.102539,4473.333496,,,,,,,,,,,,,,,,,,,,,,,,,,,,,,,,,,,,,,,,,,,,,,,,,,,,,,,,,,,,,,,,,,,,,,
1769163807.002203,1769163807.003917,33.0,0.0,4277.179688,4293.846191,4337.692383,4308.077148,4262.307617,4281.410156,4295.512695,4294.358887,4281.666504,4280.256348,4577.820313,4541.410156,4413.077148,4479.358887,,,,,,,,,,,,,,,,,,,,,,,,,,,,,,,,,,,,,,,,,,,,,,,,,,,,,,,,,,,,,,,,,,,,,,
1769163807.010011,1769163807.011625,34.0,0.0,4275.256348,4295.897461,4336.282227,4309.615234,4263.205078,4277.179688,4295.256348,4290.0,4281.922852,4279.487305,4583.333496,4543.205078,4421.025879,4478.461426,,,,,,,,,,,,,,,,,,,,,,,,,,,,,,,,,,,,,,,,,,,,,,,,,,,,,,,,,,,,,,,,,,,,,,
1769163807.01782,1769163807.019434,35.0,0.0,4274.102539,4296.666504,4330.641113,4310.512695,4262.563965,4287.436035,4298.717773,4289.358887,4279.358887,4277.94873,4582.179688,4538.205078,4423.205078,4473.333496,,,,,,,,,,,,,,,,,,,,,,,,,,,,,,,,,,,,,,,,,,,,,,,,,,,,,,,,,,,,,,,,,,,,,,
1769163807.025628,1769163807.027042,36.0,0.0,4279.358887,4296.538574,4333.205078,4309.358887,4262.436035,4290.384766,4297.563965,4292.05127,4280.256348,4281.282227,4583.461426,4543.589844,4421.025879,4476.794922,,,,,,,,,,,,,,,,,,,,,,,,,,,,,,,,,,,,,,,,,,,,,,,,,,,,,,,,,,,,,,,,,,,,,,
1769163807.033437,1769163807.034851,37.0,0.0,4278.717773,4296.282227,4339.615234,4309.615234,4263.846191,4278.077148,4294.102539,4291.025879,4284.743652,4281.794922,4585.384766,4553.461426,4420.256348,4484.743652,,,,,,,,,,,,,,,,,,,,,,,,,,,,,,,,,,,,,,,,,,,,,,,,,,,,,,,,,,,,,,,,,,,,,,
1769163807.041245,1769163807.042559,38.0,0.0,4268.974121,4297.307617,4341.538574,4311.666504,4263.846191,4274.487305,4292.307617,4292.05127,4287.307617,4278.974121,4583.974121,4555.128418,4421.922852,4485.256348,,,,,,,,,,,,,,,,,,,,,,,,,,,,,,,,,,,,,,,,,,,,,,,,,,,,,,,,,,,,,,,,,,,,,,
1769163807.049054,1769163807.050368,39.0,0.0,4262.820313,4297.563965,4338.333496,4305.769043,4262.179688,4282.692383,4295.256348,4294.615234,4284.230957,4279.102539,4586.538574,4550.256348,4424.871582,4478.846191,,,,,,,,,,,,,,,,,,,,,,,,,,,,,,,,,,,,,,,,,,,,,,,,,,,,,,,,,,,,,,,,,,,,,,
1769163807.056862,1769163807.058376,40.0,0.0,4261.410156,4295.897461,4332.05127,4295.512695,4261.538574,4284.358887,4297.179688,4293.717773,4281.410156,4278.589844,4583.717773,4541.922852,4423.205078,4475.256348,,,,,,,,,,,,,,,,,,,,,,,,,,,,,,,,,,,,,,,,,,,,,,,,,,,,,,,,,,,,,,,,,,,,,,
1769163807.06467,1769163807.066184,41.0,0.0,4262.05127,4294.358887,4330.641113,4298.589844,4262.94873,4282.563965,4297.05127,4292.05127,4281.410156,4277.692383,4574.487305,4537.179688,4415.128418,4475.512695,,,,,,,,,,,,,,,,,,,,,,,,,,,,,,,,,,,,,,,,,,,,,,,,,,,,,,,,,,,,,,,,,,,,,,
1769163807.072479,1769163807.074093,42.0,0.0,4262.05127,4297.179688,4336.025879,4304.230957,4263.717773,4288.974121,4298.077148,4293.974121,4280.769043,4278.589844,4570.512695,4538.974121,4410.128418,4470.0,,,,,,,,,,,,,,,,,,,,,,,,,,,,,,,,,,,,,,,,,,,,,,,,,,,,,,,,,,,,,,,,,,,,,,
1769163807.080287,1769163807.081901,43.0,0.0,4257.94873,4300.256348,4336.153809,4297.05127,4263.205078,4291.666504,4297.820313,4292.179688,4279.871582,4278.461426,4572.05127,4537.820313,4413.205078,4463.846191,,,,,,,,,,,,,,,,,,,,,,,,,,,,,,,,,,,,,,,,,,,,,,,,,,,,,,,,,,,,,,,,,,,,,,
1769163807.088096,1769163807.089809,44.0,0.0,4256.538574,4301.794922,4334.230957,4295.512695,4263.846191,4284.615234,4294.487305,4285.641113,4280.897461,4278.717773,4572.692383,4533.717773,4414.230957,4462.05127,,,,,,,,,,,,,,,,,,,,,,,,,,,,,,,,,,,,,,,,,,,,,,,,,,,,,,,,,,,,,,,,,,,,,,
1769163807.095904,1769163807.097618,45.0,0.0,4258.461426,4304.230957,4339.102539,4305.256348,4264.230957,4280.512695,4295.0,4285.384766,4280.384766,4279.487305,4571.153809,4536.282227,4412.307617,4459.871582,,,,,,,,,,,,,,,,,,,,,,,,,,,,,,,,,,,,,,,,,,,,,,,,,,,,,,,,,,,,,,,,,,,,,,
1769163807.103713,1769163807.105326,46.0,0.0,4260.769043,4307.563965,4342.563965,4305.512695,4263.461426,4281.282227,4296.922852,4291.794922,4280.641113,4276.666504,4571.025879,4540.256348,4411.922852,4460.512695,1.864824,0.397017,0.600068,0.195955,0.283454,0.470686,0.274963,0.148278,0.191281,0.211223,0.285706,0.313337,0.232637,0.125541,0.126586,0.412881,0.332616,0.163001,0.154672,0.188211,0.162674,0.281441,0.118758,0.083705,0.084123,0.34755,0.409026,0.18907,0.2447,0.107584,0.343199,0.325771,0.088981,0.180343,0.138,0.763787,0.218355,0.172406,0.124383,0.104697,0.71065,0.165354,0.261206,0.183171,0.115832,0.267676,0.235288,0.177702,0.125337,0.092532,0.275052,0.437022,0.395616,0.129058,0.090059,0.512818,0.264837,0.426256,0.248503,0.139285,0.356747,0.612457,0.400353,0.246127,0.210797,1.008274,0.495237,0.419983,0.283762,0.239542
1769163807.111521,1769163807.113135,47.0,0.0,4265.769043,4311.794922,4342.94873,4303.974121,4264.871582,4279.230957,4293.077148,4292.436035,4282.179688,4277.307617,4577.05127,4542.307617,4412.94873,4472.307617,,,,,,,,,,,,,,,,,,,,,,,,,,,,,,,,,,,,,,,,,,,,,,,,,,,,,,,,,,,,,,,,,,,,,,
1769163807.11933,1769163807.121143,48.0,0.0,4263.717773,4310.256348,4344.230957,4309.871582,4266.666504,4278.717773,4290.256348,4286.153809,4281.410156,4280.769043,4585.384766,4544.487305,4415.512695,4478.205078,,,,,,,,,,,,,,,,,,,,,,,,,,,,,,,,,,,,,,,,,,,,,,,,,,,,,,,,,,,,,,,,,,,,,,
1769163807.127138,1769163807.128952,49.0,0.0,4249.102539,4301.025879,4340.0,4305.769043,4266.025879,4284.102539,4292.94873,4285.769043,4278.974121,4275.512695,4581.794922,4542.179688,4412.179688,4463.205078,,,,,,,,,,,,,,,,,,,,,,,,,,,,,,,,,,,,,,,,,,,,,,,,,,,,,,,,,,,,,,,,,,,,,,
1769163807.134947,1769163807.13666,50.0,0.0,4239.358887,4291.410156,4335.897461,4294.871582,4264.871582,4292.692383,4297.820313,4293.205078,4280.128418,4272.436035,4573.461426,4539.615234,4410.384766,4456.153809,,,,,,,,,,,,,,,,,,,,,,,,,,,,,,,,,,,,,,,,,,,,,,,,,,,,,,,,,,,,,,,,,,,,,,
1769163807.142755,1769163807.144469,51.0,0.0,4245.0,4291.282227,4339.358887,4293.974121,4264.230957,4295.897461,4300.512695,4296.282227,4281.922852,4277.820313,4573.077148,4540.769043,4412.820313,4463.333496,,,,,,,,,,,,,,,,,,,,,,,,,,,,,,,,,,,,,,,,,,,,,,,,,,,,,,,,,,,,,,,,,,,,,,
1769163807.150564,1769163807.152077,52.0,0.0,4247.820313,4296.282227,4345.256348,4297.179688,4262.94873,4286.922852,4297.436035,4292.179688,4278.974121,4275.0,4573.461426,4539.743652,4408.205078,4460.641113,,,,,,,,,,,,,,,,,,,,,,,,,,,,,,,,,,,,,,,,,,,,,,,,,,,,,,,,,,,,,,,,,,,,,,
1769163807.158372,1769163807.159886,53.0,0.0,4240.256348,4291.922852,4342.05127,4294.871582,4261.410156,4280.128418,4292.179688,4288.717773,4277.94873,4269.743652,4571.410156,4539.358887,4404.230957,4455.641113,,,,,,,,,,,,,,,,,,,,,,,,,,,,,,,,,,,,,,,,,,,,,,,,,,,,,,,,,,,,,,,,,,,,,,
1769163807.16618,1769163807.167594,54.0,0.0,4230.0,4285.256348,4333.077148,4292.05127,4262.692383,4287.05127,4293.974121,4287.692383,4281.538574,4275.769043,4571.538574,4539.743652,4411.282227,4459.230957,,,,,,,,,,,,,,,,,,,,,,,,,,,,,,,,,,,,,,,,,,,,,,,,,,,,,,,,,,,,,,,,,,,,,,
1769163807.173989,1769163807.175403,55.0,0.0,4229.871582,4291.282227,4335.384766,4297.436035,4265.128418,4288.589844,4296.794922,4287.179688,4278.974121,4279.615234,4575.769043,4537.436035,4418.589844,4462.307617,,,,,,,,,,,,,,,,,,,,,,,,,,,,,,,,,,,,,,,,,,,,,,,,,,,,,,,,,,,,,,,,,,,,,,
1769163807.181797,1769163807.183411,56.0,0.0,4243.717773,4299.358887,4348.974121,4307.179688,4264.102539,4280.641113,4293.333496,4290.256348,4276.282227,4277.94873,4583.846191,4545.641113,4422.05127,4468.333496,,,,,,,,,,,,,,,,,,,,,,,,,,,,,,,,,,,,,,,,,,,,,,,,,,,,,,,,,,,,,,,,,,,,,,
1769163807.189606,1769163807.191219,57.0,0.0,4247.94873,4295.256348,4352.692383,4309.615234,4261.666504,4280.641113,4293.846191,4295.128418,4287.692383,4280.256348,4587.179688,4554.871582,4426.922852,4476.025879,,,,,,,,,,,,,,,,,,,,,,,,,,,,,,,,,,,,,,,,,,,,,,,,,,,,,,,,,,,,,,,,,,,,,,
1769163807.197414,1769163807.199128,58.0,0.0,4238.205078,4293.205078,4342.820313,4309.230957,4262.692383,4282.820313,4295.769043,4295.128418,4293.077148,4280.897461,4585.256348,4546.410156,4427.94873,4474.615234,,,,,,,,,,,,,,,,,,,,,,,,,,,,,,,,,,,,,,,,,,,,,,,,,,,,,,,,,,,,,,,,,,,,,,
1769163807.205223,1769163807.206936,59.0,0.0,4231.282227,4298.077148,4339.102539,4307.94873,4263.333496,4279.230957,4293.333496,4292.436035,4283.461426,4278.717773,4584.871582,4541.025879,4426.282227,4472.94873,,,,,,,,,,,,,,,,,,,,,,,,,,,,,,,,,,,,,,,,,,,,,,,,,,,,,,,,,,,,,,,,,,,,,,
1769163807.213031,1769163807.214545,60.0,0.0,4227.563965,4292.05127,4340.897461,4300.384766,4258.589844,4278.333496,4292.179688,4292.436035,4281.410156,4278.589844,4586.666504,4552.820313,4430.641113,4476.922852,,,,,,,,,,,,,,,,,,,,,,,,,,,,,,,,,,,,,,,,,,,,,,,,,,,,,,,,,,,,,,,,,,,,,,
1769163807.22084,1769163807.222353,61.0,0.0,4224.230957,4287.563965,4339.871582,4300.384766,4258.205078,4280.384766,4295.256348,4290.128418,4286.153809,4274.743652,4583.974121,4554.102539,4425.641113,4473.589844,,,,,,,,,,,,,,,,,,,,,,,,,,,,,,,,,,,,,,,,,,,,,,,,,,,,,,,,,,,,,,,,,,,,,,
1769163807.228648,1769163807.230062,62.0,0.0,4230.641113,4300.0,4345.897461,4311.282227,4263.205078,4281.794922,4295.897461,4284.358887,4282.179688,4270.897461,4578.333496,4541.538574,4412.179688,4468.846191,1.474155,0.446477,0.560615,0.215424,0.288599,0.43805,0.290033,0.192244,0.203957,0.209202,0.327726,0.353265,0.220668,0.157701,0.132245,0.357735,0.350156,0.163371,0.164024,0.204873,0.157522,0.300205,0.16075,0.087084,0.092123,0.284763,0.451286,0.233399,0.223603,0.120524,0.239967,0.340556,0.09904,0.171005,0.134742,0.637955,0.239089,0.285241,0.118066,0.10744,0.584482,0.1854,0.250424,0.186113,0.109859,0.230648,0.281399,0.16651,0.1391,0.108198,0.253353,0.496417,0.430879,0.143106,0.107543,0.520251,0.289059,0.359116,0.23818,0.155813,0.346591,0.670744,0.485817,0.270572,0.237842,0.936668,0.520871,0.443621,0.323292,0.25021
1769163807.236457,1769163807.23787,63.0,0.0,4239.230957,4308.077148,4352.05127,4314.102539,4263.846191,4280.897461,4293.461426,4283.974121,4278.717773,4277.307617,4580.512695,4539.358887,4415.256348,4475.512695,,,,,,,,,,,,,,,,,,,,,,,,,,,,,,,,,,,,,,,,,,,,,,,,,,,,,,,,,,,,,,,,,,,,,,
1769163807.244265,1769163807.245879,64.0,0.0,4231.153809,4298.205078,4344.615234,4309.743652,4261.538574,4280.641113,4294.615234,4290.256348,4282.820313,4279.487305,4585.384766,4545.128418,4421.794922,4476.922852,,,,,,,,,,,,,,,,,,,,,,,,,,,,,,,,,,,,,,,,,,,,,,,,,,,,,,,,,,,,,,,,,,,,,,
1769163807.252073,1769163807.253687,65.0,0.0,4223.717773,4291.922852,4337.436035,4308.589844,4263.846191,4283.589844,4296.282227,4292.563965,4282.179688,4273.333496,4583.717773,4550.384766,4416.025879,4470.769043,,,,,,,,,,,,,,,,,,,,,,,,,,,,,,,,,,,,,,,,,,,,,,,,,,,,,,,,,,,,,,,,,,,,,,
1769163807.259882,1769163807.261595,66.0,0.0,4228.589844,4296.153809,4347.307617,4310.128418,4267.692383,4281.922852,4295.512695,4290.641113,4278.717773,4276.538574,4585.641113,4557.05127,4420.384766,4479.871582,,,,,,,,,,,,,,,,,,,,,,,,,,,,,,,,,,,,,,,,,,,,,,,,,,,,,,,,,,,,,,,,,,,,,,
1769163807.26769,1769163807.269404,67.0,0.0,4233.974121,4295.897461,4359.102539,4316.282227,4268.461426,4279.743652,4296.794922,4292.307617,4278.717773,4282.05127,4592.563965,4558.589844,4431.794922,4491.794922,,,,,,,,,,,,,,,,,,,,,,,,,,,,,,,,,,,,,,,,,,,,,,,,,,,,,,,,,,,,,,,,,,,,,,
1769163807.275499,1769163807.277312,68.0,0.0,4231.922852,4296.025879,4357.307617,4319.487305,4269.487305,4282.307617,4300.128418,4294.615234,4278.205078,4275.256348,4583.461426,4545.769043,4420.0,4475.769043,,,,,,,,,,,,,,,,,,,,,,,,,,,,,,,,,,,,,,,,,,,,,,,,,,,,,,,,,,,,,,,,,,,,,,
1769163807.283307,1769163807.285121,69.0,0.0,4221.666504,4293.974121,4348.589844,4311.922852,4271.922852,4282.563965,4298.589844,4294.615234,4281.025879,4271.153809,4569.871582,4537.436035,4405.256348,4456.922852,,,,,,,,,,,,,,,,,,,,,,,,,,,,,,,,,,,,,,,,,,,,,,,,,,,,,,,,,,,,,,,,,,,,,,
1769163807.291116,1769163807.292829,70.0,0.0,4210.384766,4284.871582,4344.487305,4307.436035,4274.230957,4283.205078,4296.922852,4295.641113,4292.307617,4278.077148,4577.820313,4547.94873,4415.641113,4465.256348,,,,,,,,,,,,,,,,,,,,,,,,,,,,,,,,,,,,,,,,,,,,,,,,,,,,,,,,,,,,,,,,,,,,,,
1769163807.298924,1769163807.300638,71.0,0.0,4212.436035,4286.922852,4347.307617,4311.282227,4271.410156,4288.589844,4301.410156,4295.256348,4296.538574,4283.205078,4590.0,4557.179688,4428.461426,4481.410156,,,,,,,,,,,,,,,,,,,,,,,,,,,,,,,,,,,,,,,,,,,,,,,,,,,,,,,,,,,,,,,,,,,,,,
1769163807.306733,1769163807.308246,72.0,0.0,4224.615234,4296.025879,4353.846191,4317.307617,4265.128418,4289.102539,4302.94873,4294.358887,4285.897461,4284.102539,4591.025879,4557.179688,4428.974121,4490.384766,,,,,,,,,,,,,,,,,,,,,,,,,,,,,,,,,,,,,,,,,,,,,,,,,,,,,,,,,,,,,,,,,,,,,,
1769163807.314541,1769163807.316055,73.0,0.0,4224.743652,4295.512695,4356.922852,4323.333496,4264.358887,4281.666504,4297.94873,4293.333496,4279.102539,4282.820313,4586.410156,4552.94873,4422.563965,4490.897461,,,,,,,,,,,,,,,,,,,,,,,,,,,,,,,,,,,,,,,,,,,,,,,,,,,,,,,,,,,,,,,,,,,,,,
1769163807.322349,1769163807.323763,74.0,0.0,4214.743652,4295.384766,4351.922852,4321.922852,4267.563965,4278.846191,4293.846191,4291.666504,4281.282227,4279.358887,4577.692383,4542.563965,4415.256348,4476.025879,,,,,,,,,,,,,,,,,,,,,,,,,,,,,,,,,,,,,,,,,,,,,,,,,,,,,,,,,,,,,,,,,,,,,,
1769163807.330158,1769163807.331572,75.0,0.0,4204.871582,4294.358887,4344.358887,4313.461426,4266.666504,4282.179688,4294.871582,4292.692383,4281.282227,4278.717773,4575.0,4536.282227,4411.794922,4460.641113,,,,,,,,,,,,,,,,,,,,,,,,,,,,,,,,,,,,,,,,,,,,,,,,,,,,,,,,,,,,,,,,,,,,,,
1769163807.337966,1769163807.33918,76.0,0.0,4190.769043,4281.922852,4338.846191,4308.589844,4262.94873,4286.282227,4299.743652,4295.769043,4278.717773,4280.769043,4583.717773,4544.230957,4415.769043,4464.487305,,,,,,,,,,,,,,,,,,,,,,,,,,,,,,,,,,,,,,,,,,,,,,,,,,,,,,,,,,,,,,,,,,,,,,
1769163807.345775,1769163807.346989,77.0,0.0,4185.384766,4277.436035,4337.94873,4307.692383,4262.820313,4290.128418,4300.384766,4297.05127,4284.358887,4281.922852,4589.358887,4554.743652,4424.871582,4481.153809,,,,,,,,,,,,,,,,,,,,,,,,,,,,,,,,,,,,,,,,,,,,,,,,,,,,,,,,,,,,,,,,,,,,,,
1769163807.353583,1769163807.354697,78.0,0.0,4195.641113,4283.589844,4341.410156,4307.307617,4263.846191,4292.179688,4298.846191,4296.922852,4291.025879,4282.436035,4587.820313,4556.666504,4426.922852,4487.94873,1.061115,0.505992,0.512091,0.254675,0.273937,0.424459,0.320973,0.268173,0.218925,0.195668,0.37665,0.37502,0.221725,0.205235,0.132681,0.338802,0.37732,0.182712,0.175736,0.213435,0.1529,0.302727,0.199013,0.086518,0.09378,0.232075,0.467809,0.303356,0.186479,0.139965,0.153426,0.324339,0.111383,0.148489,0.12256,0.556343,0.246163,0.433236,0.124738,0.111924,0.48342,0.223492,0.258285,0.199058,0.101031,0.221323,0.360404,0.192542,0.160904,0.125186,0.23815,0.541841,0.440418,0.168063,0.130972,0.553187,0.319818,0.312897,0.240486,0.181653,0.348504,0.687388,0.579678,0.298524,0.259941,0.833449,0.562696,0.469229,0.375791,0.261417
1769163807.361392,1769163807.362506,79.0,0.0,4199.743652,4283.077148,4344.358887,4312.563965,4263.589844,4287.820313,4299.743652,4296.025879,4285.769043,4281.538574,4586.410156,4553.077148,4418.589844,4480.897461,,,,,,,,,,,,,,,,,,,,,,,,,,,,,,,,,,,,,,,,,,,,,,,,,,,,,,,,,,,,,,,,,,,,,,
1769163807.3692,1769163807.370114,80.0,0.0,4197.563965,4285.512695,4343.589844,4318.717773,4261.025879,4280.641113,4298.846191,4296.410156,4280.769043,4276.282227,4582.94873,4549.358887,4409.230957,4470.256348,,,,,,,,,,,,,,,,,,,,,,,,,,,,,,,,,,,,,,,,,,,,,,,,,,,,,,,,,,,,,,,,,,,,,,
1769163807.377009,1769163807.377923,81.0,0.0,4199.102539,4291.666504,4342.179688,4315.641113,4258.589844,4281.153809,4297.692383,4299.358887,4288.974121,4277.436035,4582.436035,4549.487305,4408.846191,4465.769043,,,,,,,,,,,,,,,,,,,,,,,,,,,,,,,,,,,,,,,,,,,,,,,,,,,,,,,,,,,,,,,,,,,,,,
1769163807.384817,1769163807.385831,82.0,0.0,4192.94873,4287.179688,4340.897461,4309.871582,4260.641113,4283.717773,4297.563965,4298.077148,4296.153809,4287.820313,4591.282227,4551.025879,4416.282227,4469.871582,,,,,,,,,,,,,,,,,,,,,,,,,,,,,,,,,,,,,,,,,,,,,,,,,,,,,,,,,,,,,,,,,,,,,,
1769163807.392625,1769163807.39364,83.0,0.0,4185.512695,4280.641113,4335.128418,4312.436035,4262.820313,4278.974121,4294.102539,4292.179688,4287.307617,4292.179688,4597.179688,4553.205078,4426.666504,4485.0,,,,,,,,,,,,,,,,,,,,,,,,,,,,,,,,,,,,,,,,,,,,,,,,,,,,,,,,,,,,,,,,,,,,,,
1769163807.400434,1769163807.401648,84.0,0.0,4186.410156,4281.410156,4328.461426,4317.436035,4261.410156,4278.461426,4292.94873,4294.358887,4284.358887,4288.846191,4593.846191,4555.769043,4433.205078,4493.077148,,,,,,,,,,,,,,,,,,,,,,,,,,,,,,,,,,,,,,,,,,,,,,,,,,,,,,,,,,,,,,,,,,,,,,
1769163807.408242,1769163807.409456,85.0,0.0,4183.974121,4282.307617,4323.974121,4318.461426,4261.794922,4283.717773,4296.666504,4301.153809,4291.666504,4285.641113,4587.563965,4554.487305,4425.256348,4480.384766,,,,,,,,,,,,,,,,,,,,,,,,,,,,,,,,,,,,,,,,,,,,,,,,,,,,,,,,,,,,,,,,,,,,,,
1769163807.416051,1769163807.417365,86.0,0.0,4179.230957,4281.922852,4325.384766,4320.897461,4263.461426,4288.461426,4298.461426,4299.358887,4286.025879,4279.871582,4584.615234,4551.538574,4416.025879,4471.025879,,,,,,,,,,,,,,,,,,,,,,,,,,,,,,,,,,,,,,,,,,,,,,,,,,,,,,,,,,,,,,,,,,,,,,
1769163807.423859,1769163807.425173,87.0,0.0,4182.94873,4282.05127,4334.102539,4327.436035,4262.307617,4288.589844,4296.794922,4293.974121,4276.410156,4277.563965,4587.05127,4551.922852,4421.153809,4476.153809,,,,,,,,,,,,,,,,,,,,,,,,,,,,,,,,,,,,,,,,,,,,,,,,,,,,,,,,,,,,,,,,,,,,,,
1769163807.431668,1769163807.432782,88.0,0.0,4185.641113,4282.563965,4337.94873,4329.230957,4261.153809,4283.205078,4296.025879,4295.128418,4279.743652,4287.05127,4592.692383,4555.897461,4428.717773,4478.846191,,,,,,,,,,,,,,,,,,,,,,,,,,,,,,,,,,,,,,,,,,,,,,,,,,,,,,,,,,,,,,,,,,,,,,
1769163807.439476,1769163807.44059,89.0,0.0,4180.897461,4279.743652,4330.641113,4322.05127,4261.794922,4282.05127,4298.974121,4297.563965,4283.461426,4291.666504,4596.410156,4558.461426,4428.974121,4476.025879,,,,,,,,,,,,,,,,,,,,,,,,,,,,,,,,,,,,,,,,,,,,,,,,,,,,,,,,,,,,,,,,,,,,,,
1769163807.447285,1769163807.448499,90.0,0.0,4182.436035,4280.384766,4325.512695,4318.333496,4260.769043,4288.077148,4301.794922,4296.282227,4278.077148,4283.461426,4594.743652,4555.641113,4425.384766,4475.897461,,,,,,,,,,,,,,,,,,,,,,,,,,,,,,,,,,,,,,,,,,,,,,,,,,,,,,,,,,,,,,,,,,,,,,
1769163807.455093,1769163807.456307,91.0,0.0,4188.589844,4287.692383,4329.230957,4320.769043,4259.615234,4288.589844,4298.717773,4296.538574,4279.358887,4279.487305,4591.410156,4555.641113,4420.769043,4476.025879,,,,,,,,,,,,,,,,,,,,,,,,,,,,,,,,,,,,,,,,,,,,,,,,,,,,,,,,,,,,,,,,,,,,,,
1769163807.462902,1769163807.464315,92.0,0.0,4181.666504,4287.820313,4329.102539,4317.563965,4262.692383,4282.05127,4294.871582,4296.794922,4279.871582,4280.897461,4588.077148,4554.871582,4416.282227,4477.307617,,,,,,,,,,,,,,,,,,,,,,,,,,,,,,,,,,,,,,,,,,,,,,,,,,,,,,,,,,,,,,,,,,,,,,
1769163807.47071,1769163807.472124,93.0,0.0,4167.563965,4278.717773,4321.153809,4310.769043,4260.641113,4279.102539,4295.0,4295.897461,4274.743652,4280.256348,4585.0,4545.0,4413.717773,4474.871582,,,,,,,,,,,,,,,,,,,,,,,,,,,,,,,,,,,,,,,,,,,,,,,,,,,,,,,,,,,,,,,,,,,,,,
1769163807.478519,1769163807.479832,94.0,0.0,4166.538574,4276.666504,4317.94873,4309.102539,4252.307617,4283.205078,4295.641113,4300.256348,4283.589844,4281.282227,4585.384766,4541.025879,4413.205078,4466.282227,0.723677,0.553349,0.4705,0.299942,0.245783,0.437105,0.353384,0.361389,0.230029,0.175527,0.407509,0.375762,0.237248,0.254017,0.129489,0.339357,0.405081,0.222368,0.18717,0.213701,0.149363,0.290954,0.221823,0.081334,0.088378,0.192442,0.462775,0.3863,0.144818,0.164202,0.09566,0.287258,0.123501,0.119189,0.104676,0.508669,0.243651,0.581699,0.138391,0.117225,0.413891,0.286819,0.280192,0.217253,0.091371,0.220312,0.467409,0.242431,0.185503,0.137731,0.228614,0.573881,0.426367,0.199509,0.15606,0.580755,0.361149,0.308859,0.252131,0.210454,0.367954,0.674771,0.65555,0.323824,0.272305,0.744301,0.620853,0.492867,0.425557,0.27125
1769163807.486327,1769163807.487641,95.0,0.0,4170.256348,4281.025879,4319.615234,4314.487305,4254.487305,4290.641113,4299.358887,4304.871582,4290.512695,4283.333496,4587.05127,4551.025879,4412.563965,4462.307617,,,,,,,,,,,,,,,,,,,,,,,,,,,,,,,,,,,,,,,,,,,,,,,,,,,,,,,,,,,,,,,,,,,,,,
1769163807.494136,1769163807.495249,96.0,0.0,4166.922852,4280.897461,4318.589844,4315.512695,4262.692383,4290.512695,4305.897461,4305.641113,4282.05127,4280.769043,4586.922852,4556.025879,4411.794922,4462.94873,,,,,,,,,,,,,,,,,,,,,,,,,,,,,,,,,,,,,,,,,,,,,,,,,,,,,,,,,,,,,,,,,,,,,,
1769163807.501944,1769163807.503058,97.0,0.0,4160.897461,4277.436035,4309.871582,4311.153809,4262.05127,4283.461426,4303.077148,4306.538574,4283.205078,4283.077148,4586.538574,4551.410156,4411.794922,4462.05127,,,,,,,,,,,,,,,,,,,,,,,,,,,,,,,,,,,,,,,,,,,,,,,,,,,,,,,,,,,,,,,,,,,,,,
1769163807.509752,1769163807.510966,98.0,0.0,4161.153809,4278.077148,4299.230957,4311.922852,4259.743652,4284.743652,4297.436035,4303.846191,4292.692383,4290.641113,4587.563965,4550.897461,4413.717773,4462.05127,,,,,,,,,,,,,,,,,,,,,,,,,,,,,,,,,,,,,,,,,,,,,,,,,,,,,,,,,,,,,,,,,,,,,,
1769163807.517561,1769163807.518775,99.0,0.0,4168.461426,4283.717773,4300.0,4318.717773,4264.871582,4288.846191,4300.897461,4295.256348,4282.94873,4287.05127,4588.846191,4552.179688,4413.974121,4466.922852,,,,,,,,,,,,,,,,,,,,,,,,,,,,,,,,,,,,,,,,,,,,,,,,,,,,,,,,,,,,,,,,,,,,,,
1769163807.525369,1769163807.526383,100.0,0.0,4174.358887,4288.333496,4303.717773,4321.666504,4265.769043,4287.05127,4303.589844,4291.794922,4270.384766,4277.307617,4588.974121,4549.615234,4415.384766,4472.94873,,,,,,,,,,,,,,,,,,,,,,,,,,,,,,,,,,,,,,,,,,,,,,,,,,,,,,,,,,,,,,,,,,,,,,
1769163807.533178,1769163807.534192,101.0,0.0,4172.692383,4290.256348,4299.102539,4320.641113,4261.282227,4286.538574,4299.230957,4296.538574,4278.077148,4280.384766,4587.94873,4550.641113,4418.077148,4474.358887,,,,,,,,,,,,,,,,,,,,,,,,,,,,,,,,,,,,,,,,,,,,,,,,,,,,,,,,,,,,,,,,,,,,,,
1769163807.540986,1769163807.5419,102.0,0.0,4171.538574,4290.512695,4294.102539,4324.230957,4261.538574,4284.487305,4295.128418,4298.589844,4286.025879,4286.538574,4588.846191,4551.282227,4416.282227,4474.230957,,,,,,,,,,,,,,,,,,,,,,,,,,,,,,,,,,,,,,,,,,,,,,,,,,,,,,,,,,,,,,,,,,,,,,
1769163807.548795,1769163807.549709,103.0,0.0,4169.871582,4284.871582,4292.436035,4327.563965,4263.974121,4278.974121,4293.461426,4293.461426,4279.358887,4281.282227,4589.358887,4546.153809,4412.563965,4474.871582,,,,,,,,,,,,,,,,,,,,,,,,,,,,,,,,,,,,,,,,,,,,,,,,,,,,,,,,,,,,,,,,,,,,,,
1769163807.556603,1769163807.557317,104.0,0.0,4163.974121,4279.102539,4288.333496,4323.461426,4262.820313,4280.384766,4296.538574,4293.461426,4277.179688,4275.256348,4585.769043,4544.487305,4410.128418,4472.94873,,,,,,,,,,,,,,,,,,,,,,,,,,,,,,,,,,,,,,,,,,,,,,,,,,,,,,,,,,,,,,,,,,,,,,
1769163807.564412,1769163807.565126,105.0,0.0,4166.153809,4280.641113,4284.487305,4317.563965,4257.563965,4284.743652,4300.384766,4304.102539,4288.461426,4279.358887,4588.717773,4552.820313,4415.256348,4480.256348,,,,,,,,,,,,,,,,,,,,,,,,,,,,,,,,,,,,,,,,,,,,,,,,,,,,,,,,,,,,,,,,,,,,,,
1769163807.57222,1769163807.572834,106.0,0.0,4172.05127,4282.307617,4284.230957,4319.871582,4257.436035,4279.230957,4296.794922,4310.384766,4295.641113,4291.153809,4598.589844,4559.487305,4425.641113,4488.461426,,,,,,,,,,,,,,,,,,,,,,,,,,,,,,,,,,,,,,,,,,,,,,,,,,,,,,,,,,,,,,,,,,,,,,
1769163807.580028,1769163807.580643,107.0,0.0,4170.384766,4278.589844,4279.871582,4325.769043,4262.05127,4279.358887,4298.846191,4308.077148,4291.153809,4290.641113,4598.846191,4556.538574,4422.820313,4480.512695,,,,,,,,,,,,,,,,,,,,,,,,,,,,,,,,,,,,,,,,,,,,,,,,,,,,,,,,,,,,,,,,,,,,,,
1769163807.587837,1769163807.588651,108.0,0.0,4168.333496,4278.333496,4276.025879,4325.384766,4262.563965,4289.102539,4307.563965,4308.974121,4289.358887,4280.128418,4595.256348,4554.102539,4415.128418,4476.153809,,,,,,,,,,,,,,,,,,,,,,,,,,,,,,,,,,,,,,,,,,,,,,,,,,,,,,,,,,,,,,,,,,,,,,
1769163807.595645,1769163807.596459,109.0,0.0,4177.307617,4286.025879,4283.077148,4324.615234,4261.538574,4286.922852,4303.589844,4309.871582,4293.589844,4286.666504,4604.102539,4562.436035,4425.512695,4493.974121,,,,,,,,,,,,,,,,,,,,,,,,,,,,,,,,,,,,,,,,,,,,,,,,,,,,,,,,,,,,,,,,,,,,,,
1769163807.603454,1769163807.604368,110.0,0.0,4194.230957,4293.717773,4292.05127,4326.666504,4260.641113,4275.512695,4298.077148,4306.282227,4295.641113,4300.384766,4613.077148,4574.230957,4435.769043,4505.256348,0.513871,0.578673,0.449396,0.346335,0.214289,0.481325,0.378163,0.452815,0.234905,0.155016,0.402321,0.361962,0.261091,0.292751,0.125995,0.336574,0.429326,0.278794,0.197008,0.207571,0.146561,0.267348,0.222637,0.071919,0.077248,0.169998,0.446147,0.459227,0.110972,0.188335,0.065757,0.242526,0.132467,0.090431,0.085579,0.467884,0.235638,0.685181,0.149661,0.120673,0.36712,0.367675,0.299233,0.233277,0.083877,0.212863,0.577641,0.292588,0.206531,0.141703,0.228036,0.595338,0.405117,0.233463,0.177283,0.571067,0.411631,0.351707,0.271261,0.234006,0.409984,0.654149,0.698661,0.34687,0.271874,0.689906,0.689424,0.520649,0.472648,0.279147
1769163807.611262,1769163807.612176,111.0,0.0,4200.512695,4296.025879,4286.666504,4330.384766,4260.769043,4276.794922,4302.05127,4306.538574,4295.128418,4297.563965,4610.384766,4572.94873,4429.230957,4495.512695,,,,,,,,,,,,,,,,,,,,,,,,,,,,,,,,,,,,,,,,,,,,,,,,,,,,,,,,,,,,,,,,,,,,,,
1769163807.619071,1769163807.620184,112.0,0.0,4193.974121,4296.410156,4277.820313,4337.179688,4264.743652,4286.410156,4302.436035,4310.0,4294.230957,4292.307617,4607.820313,4563.077148,4426.153809,4490.512695,,,,,,,,,,,,,,,,,,,,,,,,,,,,,,,,,,,,,,,,,,,,,,,,,,,,,,,,,,,,,,,,,,,,,,
1769163807.626879,1769163807.627993,113.0,0.0,4187.563965,4290.897461,4277.05127,4336.922852,4267.307617,4294.230957,4305.512695,4310.897461,4293.717773,4296.922852,4610.256348,4560.897461,4431.282227,4492.94873,,,,,,,,,,,,,,,,,,,,,,,,,,,,,,,,,,,,,,,,,,,,,,,,,,,,,,,,,,,,,,,,,,,,,,
1769163807.634688,1769163807.635701,114.0,0.0,4185.897461,4283.461426,4271.794922,4326.666504,4263.846191,4298.077148,4311.666504,4308.589844,4294.230957,4296.794922,4612.179688,4558.717773,4432.563965,4493.333496,,,,,,,,,,,,,,,,,,,,,,,,,,,,,,,,,,,,,,,,,,,,,,,,,,,,,,,,,,,,,,,,,,,,,,
1769163807.642496,1769163807.64351,115.0,0.0,4186.153809,4288.461426,4262.307617,4326.794922,4263.205078,4289.230957,4306.794922,4305.769043,4293.846191,4291.666504,4609.615234,4555.256348,4430.641113,4490.641113,,,,,,,,,,,,,,,,,,,,,,,,,,,,,,,,,,,,,,,,,,,,,,,,,,,,,,,,,,,,,,,,,,,,,,
1769163807.650304,1769163807.651518,116.0,0.0,4188.589844,4297.692383,4262.692383,4335.384766,4265.641113,4278.974121,4300.769043,4307.94873,4294.102539,4293.077148,4608.333496,4558.974121,4431.025879,4488.974121,,,,,,,,,,,,,,,,,,,,,,,,,,,,,,,,,,,,,,,,,,,,,,,,,,,,,,,,,,,,,,,,,,,,,,
1769163807.658113,1769163807.659327,117.0,0.0,4191.410156,4296.794922,4267.179688,4337.307617,4263.589844,4281.666504,4302.94873,4311.666504,4296.794922,4295.384766,4610.128418,4561.410156,4431.282227,4493.846191,,,,,,,,,,,,,,,,,,,,,,,,,,,,,,,,,,,,,,,,,,,,,,,,,,,,,,,,,,,,,,,,,,,,,,
1769163807.665921,1769163807.667035,118.0,0.0,4190.512695,4293.333496,4266.794922,4336.538574,4261.794922,4288.589844,4307.05127,4310.384766,4297.05127,4287.179688,4605.897461,4555.641113,4425.512695,4488.846191,,,,,,,,,,,,,,,,,,,,,,,,,,,,,,,,,,,,,,,,,,,,,,,,,,,,,,,,,,,,,,,,,,,,,,
1769163807.67373,1769163807.674844,119.0,0.0,4186.153809,4293.077148,4264.230957,4337.05127,4263.077148,4287.820313,4305.128418,4307.307617,4293.205078,4277.563965,4598.461426,4551.538574,4421.922852,4477.820313,,,,,,,,,,,,,,,,,,,,,,,,,,,,,,,,,,,,,,,,,,,,,,,,,,,,,,,,,,,,,,,,,,,,,,
1769163807.681538,1769163807.682752,120.0,0.0,4187.692383,4296.410156,4264.487305,4339.743652,4262.820313,4283.589844,4298.717773,4308.717773,4293.717773,4286.410156,4601.922852,4557.179688,4426.025879,4481.538574,,,,,,,,,,,,,,,,,,,,,,,,,,,,,,,,,,,,,,,,,,,,,,,,,,,,,,,,,,,,,,,,,,,,,,
1769163807.689347,1769163807.69056,121.0,0.0,4196.282227,4301.153809,4266.666504,4340.384766,4262.692383,4283.717773,4297.820313,4311.794922,4296.538574,4295.384766,4608.205078,4560.256348,4429.102539,4493.333496,,,,,,,,,,,,,,,,,,,,,,,,,,,,,,,,,,,,,,,,,,,,,,,,,,,,,,,,,,,,,,,,,,,,,,
1769163807.697155,1769163807.698469,122.0,0.0,4197.179688,4298.717773,4264.871582,4337.179688,4263.974121,4287.563965,4304.102539,4308.974121,4292.307617,4284.230957,4602.692383,4555.897461,4428.205078,4491.410156,,,,,,,,,,,,,,,,,,,,,,,,,,,,,,,,,,,,,,,,,,,,,,,,,,,,,,,,,,,,,,,,,,,,,,
1769163807.704964,1769163807.706277,123.0,0.0,4193.717773,4296.153809,4262.94873,4337.563965,4264.230957,4293.205078,4307.307617,4306.282227,4289.487305,4277.820313,4600.512695,4558.461426,4429.230957,4486.922852,,,,,,,,,,,,,,,,,,,,,,,,,,,,,,,,,,,,,,,,,,,,,,,,,,,,,,,,,,,,,,,,,,,,,,
1769163807.712772,1769163807.714285,124.0,0.0,4197.563965,4296.922852,4263.589844,4342.436035,4264.615234,4291.794922,4306.410156,4309.230957,4294.615234,4288.846191,4609.102539,4568.077148,4431.282227,4492.436035,,,,,,,,,,,,,,,,,,,,,,,,,,,,,,,,,,,,,,,,,,,,,,,,,,,,,,,,,,,,,,,,,,,,,,
1769163807.72058,1769163807.722094,125.0,0.0,4201.025879,4296.666504,4261.153809,4343.077148,4265.256348,4282.94873,4306.025879,4310.512695,4297.563965,4297.05127,4608.717773,4565.384766,4430.512695,4494.358887,,,,,,,,,,,,,,,,,,,,,,,,,,,,,,,,,,,,,,,,,,,,,,,,,,,,,,,,,,,,,,,,,,,,,,
1769163807.728389,1769163807.729802,126.0,0.0,4198.974121,4299.102539,4263.077148,4339.871582,4264.230957,4278.589844,4304.615234,4309.230957,4295.384766,4295.641113,4605.769043,4558.077148,4429.230957,4492.05127,0.438285,0.583848,0.461694,0.397236,0.188219,0.539267,0.391462,0.5279,0.235467,0.138961,0.377319,0.344256,0.284799,0.319206,0.125408,0.324914,0.451729,0.34133,0.206792,0.197271,0.155754,0.235853,0.201684,0.060007,0.063455,0.161359,0.423086,0.499321,0.092401,0.205847,0.056112,0.201315,0.137656,0.067525,0.06941,0.415078,0.226892,0.710528,0.151713,0.119496,0.330874,0.454365,0.297491,0.240741,0.081815,0.195266,0.657947,0.320052,0.219913,0.136571,0.244777,0.606572,0.395319,0.268429,0.189861,0.522116,0.461567,0.424987,0.298482,0.24568,0.478618,0.64383,0.704416,0.374984,0.258622,0.680552,0.755353,0.555423,0.532209,0.285481
1769163807.736197,1769163807.737611,127.0,0.0,4196.666504,4298.205078,4262.94873,4338.589844,4262.94873,4283.717773,4304.358887,4310.641113,4295.256348,4290.641113,4607.563965,4564.102539,4428.461426,4491.794922,,,,,,,,,,,,,,,,,,,,,,,,,,,,,,,,,,,,,,,,,,,,,,,,,,,,,,,,,,,,,,,,,,,,,,
1769163807.744006,1769163807.74522,0.0,0.0,4200.384766,4293.846191,4254.358887,4338.717773,4262.436035,4283.974121,4301.922852,4312.05127,4295.384766,4288.461426,4606.410156,4572.05127,4428.974121,4491.794922,,,,,,,,,,,,,,,,,,,,,,,,,,,,,,,,,,,,,,,,,,,,,,,,,,,,,,,,,,,,,,,,,,,,,,
1769163807.751814,1769163807.753028,1.0,0.0,4202.563965,4295.769043,4250.0,4336.282227,4264.102539,4278.077148,4296.538574,4310.384766,4294.743652,4292.94873,4606.666504,4564.230957,4429.615234,4492.563965,,,,,,,,,,,,,,,,,,,,,,,,,,,,,,,,,,,,,,,,,,,,,,,,,,,,,,,,,,,,,,,,,,,,,,
1769163807.759623,1769163807.760737,2.0,0.0,4192.692383,4297.179688,4249.230957,4328.717773,4265.769043,4277.692383,4296.538574,4309.743652,4294.102539,4295.641113,4609.743652,4556.282227,4429.743652,4494.102539,,,,,,,,,,,,,,,,,,,,,,,,,,,,,,,,,,,,,,,,,,,,,,,,,,,,,,,,,,,,,,,,,,,,,,
1769163807.767431,1769163807.768545,3.0,0.0,4187.692383,4292.563965,4249.102539,4328.333496,4264.102539,4280.769043,4296.794922,4308.077148,4293.205078,4291.025879,4606.410156,4560.128418,4429.871582,4494.743652,,,,,,,,,,,,,,,,,,,,,,,,,,,,,,,,,,,,,,,,,,,,,,,,,,,,,,,,,,,,,,,,,,,,,,
1769163807.77524,1769163807.776553,4.0,0.0,4201.666504,4296.025879,4255.384766,4339.102539,4261.153809,4285.0,4298.205078,4308.717773,4290.0,4285.128418,4600.512695,4562.179688,4427.05127,4491.410156,,,,,,,,,,,,,,,,,,,,,,,,,,,,,,,,,,,,,,,,,,,,,,,,,,,,,,,,,,,,,,,,,,,,,,
1769163807.783048,1769163807.784362,5.0,0.0,4207.692383,4299.871582,4255.769043,4337.436035,4260.641113,4286.922852,4302.05127,4310.769043,4285.384766,4280.256348,4602.05127,4557.307617,4425.128418,4488.589844,,,,,,,,,,,,,,,,,,,,,,,,,,,,,,,,,,,,,,,,,,,,,,,,,,,,,,,,,,,,,,,,,,,,,,
1769163807.790857,1769163807.79227,6.0,0.0,4197.307617,4293.589844,4246.794922,4325.769043,4261.794922,4287.05127,4303.846191,4307.436035,4285.769043,4282.179688,4603.974121,4554.358887,4426.922852,4490.641113,,,,,,,,,,,,,,,,,,,,,,,,,,,,,,,,,,,,,,,,,,,,,,,,,,,,,,,,,,,,,,,,,,,,,,
1769163807.798665,1769163807.800078,7.0,0.0,4194.358887,4291.153809,4246.410156,4326.538574,4261.410156,4287.820313,4305.897461,4311.282227,4294.230957,4289.871582,4602.05127,4557.820313,4425.128418,4489.871582,,,,,,,,,,,,,,,,,,,,,,,,,,,,,,,,,,,,,,,,,,,,,,,,,,,,,,,,,,,,,,,,,,,,,,
1769163807.806474,1769163807.808087,8.0,0.0,4200.384766,4294.871582,4251.025879,4331.282227,4260.128418,4285.128418,4305.384766,4318.461426,4302.692383,4293.333496,4604.358887,4564.871582,4426.282227,4490.769043,,,,,,,,,,,,,,,,,,,,,,,,,,,,,,,,,,,,,,,,,,,,,,,,,,,,,,,,,,,,,,,,,,,,,,
1769163807.814282,1769163807.815895,9.0,0.0,4201.410156,4295.641113,4250.512695,4328.077148,4261.538574,4278.974121,4296.410156,4315.256348,4303.077148,4298.589844,4613.974121,4572.05127,4442.05127,4502.94873,,,,,,,,,,,,,,,,,,,,,,,,,,,,,,,,,,,,,,,,,,,,,,,,,,,,,,,,,,,,,,,,,,,,,,
1769163807.822091,1769163807.823803,10.0,0.0,4204.487305,4294.871582,4251.282227,4326.538574,4264.487305,4279.487305,4295.0,4313.461426,4302.179688,4305.256348,4621.282227,4574.358887,4452.179688,4510.384766,,,,,,,,,,,,,,,,,,,,,,,,,,,,,,,,,,,,,,,,,,,,,,,,,,,,,,,,,,,,,,,,,,,,,,
1769163807.829899,1769163807.831612,11.0,0.0,4210.641113,4297.94873,4251.538574,4328.846191,4266.538574,4283.717773,4304.230957,4316.922852,4301.538574,4301.794922,4617.179688,4572.94873,4444.871582,4504.743652,,,,,,,,,,,,,,,,,,,,,,,,,,,,,,,,,,,,,,,,,,,,,,,,,,,,,,,,,,,,,,,,,,,,,,
1769163807.837707,1769163807.839221,12.0,0.0,4208.461426,4296.025879,4249.230957,4327.436035,4265.128418,4281.025879,4304.102539,4313.589844,4296.410156,4294.743652,4613.205078,4572.179688,4444.358887,4505.0,,,,,,,,,,,,,,,,,,,,,,,,,,,,,,,,,,,,,,,,,,,,,,,,,,,,,,,,,,,,,,,,,,,,,,
1769163807.845516,1769163807.847029,13.0,0.0,4206.794922,4292.05127,4249.230957,4325.897461,4262.692383,4277.94873,4302.05127,4307.436035,4290.384766,4293.589844,4612.820313,4569.615234,4445.512695,4503.205078,,,,,,,,,,,,,,,,,,,,,,,,,,,,,,,,,,,,,,,,,,,,,,,,,,,,,,,,,,,,,,,,,,,,,,
1769163807.853324,1769163807.854937,14.0,0.0,4213.589844,4298.077148,4249.102539,4327.436035,4262.179688,4281.410156,4309.871582,4310.641113,4290.0,4292.563965,4610.256348,4568.717773,4436.282227,4492.307617,0.430428,0.573065,0.509786,0.452666,0.171689,0.591102,0.391157,0.578612,0.233762,0.12903,0.3449,0.327345,0.301588,0.335588,0.129153,0.314631,0.473265,0.394348,0.217904,0.184285,0.177815,0.203047,0.16596,0.048085,0.050742,0.165482,0.389122,0.492882,0.09056,0.211947,0.05686,0.16687,0.13925,0.052646,0.059042,0.33891,0.219943,0.653631,0.143112,0.112255,0.29143,0.530102,0.268567,0.236201,0.087811,0.175224,0.681706,0.313988,0.223871,0.126111,0.283431,0.600615,0.403704,0.301184,0.190875,0.450081,0.493584,0.499184,0.332958,0.243473,0.56492,0.645493,0.674236,0.412534,0.23546,0.69898,0.791336,0.589329,0.61567,0.289841
1769163807.861133,1769163807.862746,15.0,0.0,4217.563965,4303.589844,4249.358887,4327.436035,4264.102539,4287.05127,4311.922852,4313.333496,4293.717773,4289.871582,4608.589844,4570.256348,4435.256348,4496.538574,,,,,,,,,,,,,,,,,,,,,,,,,,,,,,,,,,,,,,,,,,,,,,,,,,,,,,,,,,,,,,,,,,,,,,
1769163807.868941,1769163807.870354,16.0,0.0,4215.897461,4299.230957,4248.333496,4326.794922,4265.256348,4288.461426,4309.487305,4310.256348,4293.077148,4290.897461,4611.410156,4570.256348,4443.077148,4506.538574,,,,,,,,,,,,,,,,,,,,,,,,,,,,,,,,,,,,,,,,,,,,,,,,,,,,,,,,,,,,,,,,,,,,,,
1769163807.87675,1769163807.878163,17.0,0.0,4211.538574,4292.692383,4242.94873,4324.358887,4264.743652,4290.128418,4310.384766,4312.436035,4292.94873,4293.333496,4610.512695,4567.94873,4438.205078,4499.358887,,,,,,,,,,,,,,,,,,,,,,,,,,,,,,,,,,,,,,,,,,,,,,,,,,,,,,,,,,,,,,,,,,,,,,
1769163807.884558,1769163807.885871,18.0,0.0,4203.846191,4290.769043,4239.487305,4321.153809,4265.769043,4296.410156,4310.897461,4319.871582,4301.282227,4291.794922,4602.692383,4564.230957,4426.794922,4489.230957,,,,,,,,,,,,,,,,,,,,,,,,,,,,,,,,,,,,,,,,,,,,,,,,,,,,,,,,,,,,,,,,,,,,,,
1769163807.892367,1769163807.89368,19.0,0.0,4199.102539,4287.563965,4242.05127,4319.102539,4265.384766,4297.563965,4310.897461,4323.589844,4312.436035,4295.512695,4602.563965,4564.615234,4431.538574,4492.692383,,,,,,,,,,,,,,,,,,,,,,,,,,,,,,,,,,,,,,,,,,,,,,,,,,,,,,,,,,,,,,,,,,,,,,
1769163807.900175,1769163807.901289,20.0,0.0,4202.692383,4281.025879,4244.615234,4315.0,4261.153809,4292.307617,4310.641113,4319.743652,4312.05127,4307.05127,4612.563965,4568.077148,4443.205078,4498.333496,,,,,,,,,,,,,,,,,,,,,,,,,,,,,,,,,,,,,,,,,,,,,,,,,,,,,,,,,,,,,,,,,,,,,,
1769163807.907983,1769163807.909097,21.0,0.0,4208.717773,4281.282227,4243.205078,4313.333496,4259.487305,4290.897461,4309.871582,4316.922852,4309.102539,4307.94873,4615.512695,4568.461426,4446.410156,4495.256348,,,,,,,,,,,,,,,,,,,,,,,,,,,,,,,,,,,,,,,,,,,,,,,,,,,,,,,,,,,,,,,,,,,,,,
1769163807.915792,1769163807.917005,22.0,0.0,4217.307617,4291.282227,4243.461426,4319.871582,4264.102539,4287.563965,4310.641113,4314.871582,4310.512695,4296.666504,4610.128418,4568.846191,4443.205078,4490.128418,,,,,,,,,,,,,,,,,,,,,,,,,,,,,,,,,,,,,,,,,,,,,,,,,,,,,,,,,,,,,,,,,,,,,,
1769163807.9236,1769163807.924814,23.0,0.0,4220.641113,4297.179688,4246.025879,4324.358887,4266.410156,4282.179688,4309.230957,4307.94873,4303.846191,4293.717773,4606.794922,4571.025879,4436.538574,4491.410156,,,,,,,,,,,,,,,,,,,,,,,,,,,,,,,,,,,,,,,,,,,,,,,,,,,,,,,,,,,,,,,,,,,,,,
1769163807.931409,1769163807.932422,24.0,0.0,4220.128418,4297.05127,4247.692383,4322.436035,4265.0,4286.794922,4305.0,4304.230957,4294.102539,4294.487305,4609.487305,4568.461426,4435.769043,4492.692383,,,,,,,,,,,,,,,,,,,,,,,,,,,,,,,,,,,,,,,,,,,,,,,,,,,,,,,,,,,,,,,,,,,,,,
1769163807.939217,1769163807.940231,25.0,0.0,4221.410156,4295.641113,4246.410156,4322.179688,4266.538574,4293.205078,4305.897461,4307.307617,4290.384766,4286.153809,4609.102539,4561.282227,4437.436035,4490.384766,,,,,,,,,,,,,,,,,,,,,,,,,,,,,,,,,,,,,,,,,,,,,,,,,,,,,,,,,,,,,,,,,,,,,,
1769163807.947026,1769163807.947939,26.0,0.0,4216.282227,4286.410156,4242.307617,4320.384766,4267.436035,4293.589844,4310.256348,4309.743652,4291.282227,4283.846191,4604.871582,4560.641113,4435.769043,4498.333496,,,,,,,,,,,,,,,,,,,,,,,,,,,,,,,,,,,,,,,,,,,,,,,,,,,,,,,,,,,,,,,,,,,,,,
1769163807.954834,1769163807.955748,27.0,0.0,4220.0,4284.487305,4245.128418,4321.794922,4265.769043,4293.589844,4311.153809,4309.743652,4294.743652,4291.666504,4604.487305,4564.358887,4431.153809,4505.128418,,,,,,,,,,,,,,,,,,,,,,,,,,,,,,,,,,,,,,,,,,,,,,,,,,,,,,,,,,,,,,,,,,,,,,
1769163807.962643,1769163807.963357,28.0,0.0,4234.487305,4298.717773,4248.077148,4327.436035,4266.538574,4292.179688,4310.256348,4311.538574,4296.410156,4295.128418,4608.333496,4557.94873,4429.615234,4496.410156,,,,,,,,,,,,,,,,,,,,,,,,,,,,,,,,,,,,,,,,,,,,,,,,,,,,,,,,,,,,,,,,,,,,,,
1769163807.970451,1769163807.971165,29.0,0.0,4229.871582,4295.897461,4239.615234,4320.769043,4265.897461,4291.666504,4310.769043,4313.974121,4298.589844,4293.333496,4608.077148,4554.743652,4431.153809,4491.025879,,,,,,,,,,,,,,,,,,,,,,,,,,,,,,,,,,,,,,,,,,,,,,,,,,,,,,,,,,,,,,,,,,,,,,
1769163807.978259,1769163807.978874,30.0,0.0,4212.563965,4278.205078,4231.666504,4309.358887,4260.256348,4293.974121,4311.794922,4314.615234,4306.025879,4292.692383,4604.102539,4563.205078,4426.282227,4492.94873,0.454728,0.559016,0.588327,0.507169,0.164124,0.606199,0.377362,0.604355,0.231363,0.124167,0.327432,0.313641,0.308961,0.345654,0.136013,0.318225,0.491187,0.422023,0.230429,0.169676,0.207245,0.174688,0.126715,0.038405,0.041958,0.175333,0.340916,0.443091,0.102881,0.206523,0.061914,0.137744,0.13954,0.04515,0.055384,0.255334,0.21888,0.540235,0.126966,0.099986,0.246126,0.580396,0.219937,0.219934,0.102543,0.164905,0.644478,0.278164,0.219413,0.117957,0.35217,0.569322,0.420569,0.326783,0.180619,0.387175,0.496713,0.544037,0.369822,0.230139,0.662024,0.643745,0.613798,0.457229,0.207534,0.738432,0.770605,0.604932,0.718636,0.291135
1769163807.986068,1769163807.986682,31.0,0.0,4215.769043,4276.922852,4232.692383,4309.230957,4257.05127,4289.230957,4308.333496,4313.333496,4306.282227,4290.512695,4600.256348,4561.025879,4418.846191,4486.922852,,,,,,,,,,,,,,,,,,,,,,,,,,,,,,,,,,,,,,,,,,,,,,,,,,,,,,,,,,,,,,,,,,,,,,
1769163807.993876,1769163807.99469,32.0,0.0,4228.974121,4282.05127,4234.743652,4311.410156,4259.871582,4281.153809,4303.846191,4309.871582,4296.794922,4289.102539,4598.846191,4555.897461,4420.128418,4486.794922,,,,,,,,,,,,,,,,,,,,,,,,,,,,,,,,,,,,,,,,,,,,,,,,,,,,,,,,,,,,,,,,,,,,,,
1769163808.001685,1769163808.002499,33.0,0.0,4230.256348,4280.897461,4242.94873,4310.641113,4262.820313,4281.025879,4303.333496,4309.102539,4294.743652,4296.666504,4605.256348,4565.256348,4429.487305,4500.0,,,,,,,,,,,,,,,,,,,,,,,,,,,,,,,,,,,,,,,,,,,,,,,,,,,,,,,,,,,,,,,,,,,,,,
1769163808.009493,1769163808.010407,34.0,0.0,4229.743652,4281.410156,4246.794922,4312.05127,4262.307617,4281.794922,4304.230957,4311.153809,4297.179688,4295.128418,4605.256348,4563.205078,4429.871582,4499.358887,,,,,,,,,,,,,,,,,,,,,,,,,,,,,,,,,,,,,,,,,,,,,,,,,,,,,,,,,,,,,,,,,,,,,,
1769163808.017302,1769163808.018215,35.0,0.0,4230.384766,4279.102539,4236.153809,4310.256348,4260.128418,4280.0,4306.538574,4309.487305,4294.358887,4282.05127,4595.769043,4549.871582,4423.846191,4488.077148,,,,,,,,,,,,,,,,,,,,,,,,,,,,,,,,,,,,,,,,,,,,,,,,,,,,,,,,,,,,,,,,,,,,,,
1769163808.02511,1769163808.026224,36.0,0.0,4235.769043,4276.538574,4237.307617,4312.94873,4261.153809,4281.025879,4307.820313,4308.333496,4291.794922,4283.589844,4597.692383,4559.230957,4426.666504,4495.769043,,,,,,,,,,,,,,,,,,,,,,,,,,,,,,,,,,,,,,,,,,,,,,,,,,,,,,,,,,,,,,,,,,,,,,
1769163808.032919,1769163808.034032,37.0,0.0,4243.205078,4282.179688,4248.717773,4321.153809,4262.692383,4281.922852,4306.666504,4311.666504,4291.666504,4294.230957,4603.974121,4573.974121,4430.128418,4506.025879,,,,,,,,,,,,,,,,,,,,,,,,,,,,,,,,,,,,,,,,,,,,,,,,,,,,,,,,,,,,,,,,,,,,,,
1769163808.040727,1769163808.041741,38.0,0.0,4239.230957,4281.025879,4242.94873,4318.846191,4261.025879,4280.641113,4306.282227,4311.794922,4292.94873,4291.794922,4600.256348,4566.153809,4428.333496,4497.179688,,,,,,,,,,,,,,,,,,,,,,,,,,,,,,,,,,,,,,,,,,,,,,,,,,,,,,,,,,,,,,,,,,,,,,
1769163808.048535,1769163808.049549,39.0,0.0,4234.615234,4276.922852,4237.563965,4316.153809,4260.897461,4279.358887,4302.692383,4307.820313,4294.743652,4289.871582,4598.333496,4555.128418,4428.461426,4490.128418,,,,,,,,,,,,,,,,,,,,,,,,,,,,,,,,,,,,,,,,,,,,,,,,,,,,,,,,,,,,,,,,,,,,,,
1769163808.056344,1769163808.057358,40.0,0.0,4246.794922,4290.128418,4248.205078,4327.94873,4261.794922,4277.94873,4299.102539,4305.0,4292.05127,4295.641113,4600.384766,4556.410156,4430.128418,4494.615234,,,,,,,,,,,,,,,,,,,,,,,,,,,,,,,,,,,,,,,,,,,,,,,,,,,,,,,,,,,,,,,,,,,,,,
1769163808.064153,1769163808.065166,41.0,0.0,4252.820313,4294.615234,4251.410156,4329.230957,4258.205078,4278.846191,4301.410156,4300.0,4289.615234,4287.179688,4593.333496,4557.307617,4422.94873,4494.871582,,,,,,,,,,,,,,,,,,,,,,,,,,,,,,,,,,,,,,,,,,,,,,,,,,,,,,,,,,,,,,,,,,,,,,
1769163808.071961,1769163808.072875,42.0,0.0,4236.922852,4280.897461,4242.563965,4315.384766,4257.692383,4281.282227,4301.282227,4293.974121,4290.128418,4274.615234,4584.487305,4546.410156,4412.179688,4487.820313,,,,,,,,,,,,,,,,,,,,,,,,,,,,,,,,,,,,,,,,,,,,,,,,,,,,,,,,,,,,,,,,,,,,,,
1769163808.079769,1769163808.080683,43.0,0.0,4234.102539,4277.436035,4241.538574,4314.743652,4262.692383,4281.410156,4300.512695,4294.358887,4293.461426,4281.538574,4585.512695,4538.589844,4411.025879,4483.974121,,,,,,,,,,,,,,,,,,,,,,,,,,,,,,,,,,,,,,,,,,,,,,,,,,,,,,,,,,,,,,,,,,,,,,
1769163808.087578,1769163808.088292,44.0,0.0,4244.487305,4282.179688,4244.743652,4320.897461,4262.692383,4279.615234,4301.922852,4297.692383,4293.333496,4289.102539,4588.717773,4539.871582,4413.846191,4485.897461,,,,,,,,,,,,,,,,,,,,,,,,,,,,,,,,,,,,,,,,,,,,,,,,,,,,,,,,,,,,,,,,,,,,,,
1769163808.095386,1769163808.0961,45.0,0.0,4247.436035,4282.179688,4246.025879,4321.025879,4259.230957,4280.128418,4301.666504,4296.282227,4286.794922,4281.794922,4586.410156,4539.358887,4413.077148,4489.743652,,,,,,,,,,,,,,,,,,,,,,,,,,,,,,,,,,,,,,,,,,,,,,,,,,,,,,,,,,,,,,,,,,,,,,
1769163808.103195,1769163808.104008,46.0,0.0,4254.358887,4287.94873,4251.666504,4325.769043,4260.897461,4281.282227,4301.410156,4292.820313,4286.922852,4279.615234,4586.538574,4541.794922,4412.94873,4491.794922,0.502397,0.550162,0.683398,0.550504,0.162147,0.575745,0.352026,0.610802,0.228359,0.122249,0.330658,0.304798,0.309397,0.350466,0.142773,0.338545,0.500312,0.416696,0.241255,0.154705,0.227768,0.15498,0.093142,0.032546,0.038001,0.190539,0.285558,0.36958,0.124417,0.19354,0.071111,0.113024,0.143214,0.043343,0.05741,0.184181,0.222251,0.414239,0.107905,0.086208,0.202034,0.598965,0.171911,0.194812,0.123427,0.180425,0.569119,0.228271,0.209326,0.11949,0.451667,0.514641,0.427203,0.339683,0.162461,0.359484,0.476343,0.544991,0.399174,0.211421,0.752369,0.626123,0.533395,0.499133,0.180725,0.807809,0.691991,0.590563,0.819022,0.288074
1769163808.111003,1769163808.111817,47.0,0.0,4261.153809,4289.102539,4259.358887,4327.94873,4263.205078,4281.410156,4303.846191,4297.05127,4292.94873,4288.846191,4590.769043,4551.282227,4416.410156,4489.487305,,,,,,,,,,,,,,,,,,,,,,,,,,,,,,,,,,,,,,,,,,,,,,,,,,,,,,,,,,,,,,,,,,,,,,
1769163808.118812,1769163808.119825,48.0,0.0,4258.333496,4281.922852,4261.538574,4321.794922,4263.077148,4281.282227,4304.615234,4306.794922,4294.358887,4292.692383,4599.615234,4555.641113,4424.102539,4490.769043,,,,,,,,,,,,,,,,,,,,,,,,,,,,,,,,,,,,,,,,,,,,,,,,,,,,,,,,,,,,,,,,,,,,,,
1769163808.12662,1769163808.127634,49.0,0.0,4258.974121,4287.692383,4262.436035,4322.820313,4263.717773,4279.230957,4303.717773,4307.05127,4294.615234,4289.615234,4605.256348,4554.487305,4433.589844,4497.820313,,,,,,,,,,,,,,,,,,,,,,,,,,,,,,,,,,,,,,,,,,,,,,,,,,,,,,,,,,,,,,,,,,,,,,
1769163808.134429,1769163808.135342,50.0,0.0,4267.563965,4297.692383,4266.410156,4329.102539,4262.692383,4279.871582,4301.282227,4297.94873,4290.384766,4284.358887,4595.384766,4554.743652,4424.743652,4496.538574,,,,,,,,,,,,,,,,,,,,,,,,,,,,,,,,,,,,,,,,,,,,,,,,,,,,,,,,,,,,,,,,,,,,,,
1769163808.142237,1769163808.143151,51.0,0.0,4267.436035,4292.179688,4267.179688,4327.05127,4262.563965,4278.717773,4295.769043,4294.230957,4282.563965,4279.358887,4585.641113,4553.333496,4409.230957,4489.615234,,,,,,,,,,,,,,,,,,,,,,,,,,,,,,,,,,,,,,,,,,,,,,,,,,,,,,,,,,,,,,,,,,,,,,
1769163808.150046,1769163808.150759,52.0,0.0,4263.333496,4280.641113,4266.794922,4324.102539,4258.974121,4271.666504,4295.128418,4294.230957,4284.102539,4279.487305,4588.717773,4549.615234,4419.230957,4493.589844,,,,,,,,,,,,,,,,,,,,,,,,,,,,,,,,,,,,,,,,,,,,,,,,,,,,,,,,,,,,,,,,,,,,,,
1769163808.157854,1769163808.158568,53.0,0.0,4269.743652,4280.256348,4268.589844,4322.820313,4252.820313,4269.743652,4295.897461,4291.538574,4290.897461,4281.410156,4590.512695,4543.717773,4429.230957,4498.333496,,,,,,,,,,,,,,,,,,,,,,,,,,,,,,,,,,,,,,,,,,,,,,,,,,,,,,,,,,,,,,,,,,,,,,
1769163808.165662,1769163808.166276,54.0,0.0,4273.333496,4287.692383,4265.641113,4321.153809,4254.743652,4275.512695,4296.410156,4291.666504,4290.769043,4279.615234,4585.128418,4536.922852,4415.128418,4491.410156,,,,,,,,,,,,,,,,,,,,,,,,,,,,,,,,,,,,,,,,,,,,,,,,,,,,,,,,,,,,,,,,,,,,,,
1769163808.173471,1769163808.174085,55.0,0.0,4266.794922,4286.153809,4265.0,4322.179688,4261.922852,4280.128418,4299.487305,4295.256348,4292.563965,4278.461426,4585.384766,4536.794922,4413.077148,4488.974121,,,,,,,,,,,,,,,,,,,,,,,,,,,,,,,,,,,,,,,,,,,,,,,,,,,,,,,,,,,,,,,,,,,,,,
1769163808.181279,1769163808.182093,56.0,0.0,4268.974121,4279.615234,4272.94873,4325.256348,4262.563965,4280.0,4301.153809,4300.641113,4296.922852,4281.153809,4586.922852,4541.666504,4429.230957,4494.230957,,,,,,,,,,,,,,,,,,,,,,,,,,,,,,,,,,,,,,,,,,,,,,,,,,,,,,,,,,,,,,,,,,,,,,
1769163808.189088,1769163808.189901,57.0,0.0,4280.256348,4281.410156,4277.94873,4325.256348,4258.846191,4278.589844,4301.922852,4304.743652,4296.282227,4282.692383,4584.615234,4541.794922,4424.743652,4491.666504,,,,,,,,,,,,,,,,,,,,,,,,,,,,,,,,,,,,,,,,,,,,,,,,,,,,,,,,,,,,,,,,,,,,,,
1769163808.196896,1769163808.19781,58.0,0.0,4280.512695,4282.436035,4274.102539,4322.94873,4259.102539,4283.077148,4304.615234,4303.461426,4294.230957,4278.333496,4584.230957,4536.538574,4412.692383,4488.333496,,,,,,,,,,,,,,,,,,,,,,,,,,,,,,,,,,,,,,,,,,,,,,,,,,,,,,,,,,,,,,,,,,,,,,
1769163808.204705,1769163808.205618,59.0,0.0,4278.205078,4280.897461,4276.410156,4326.282227,4262.436035,4287.179688,4306.666504,4302.94873,4293.589844,4278.589844,4588.333496,4543.205078,4422.436035,4497.307617,,,,,,,,,,,,,,,,,,,,,,,,,,,,,,,,,,,,,,,,,,,,,,,,,,,,,,,,,,,,,,,,,,,,,,
1769163808.212513,1769163808.213626,60.0,0.0,4285.897461,4291.666504,4286.025879,4333.974121,4265.128418,4283.077148,4301.538574,4305.641113,4295.0,4289.102539,4596.025879,4550.512695,4431.922852,4506.153809,,,,,,,,,,,,,,,,,,,,,,,,,,,,,,,,,,,,,,,,,,,,,,,,,,,,,,,,,,,,,,,,,,,,,,
1769163808.220322,1769163808.221435,61.0,0.0,4286.153809,4297.307617,4284.743652,4333.205078,4262.563965,4279.743652,4297.563965,4301.025879,4296.282227,4291.666504,4598.077148,4542.307617,4428.461426,4502.820313,,,,,,,,,,,,,,,,,,,,,,,,,,,,,,,,,,,,,,,,,,,,,,,,,,,,,,,,,,,,,,,,,,,,,,
1769163808.22813,1769163808.229343,62.0,0.0,4276.025879,4285.512695,4278.077148,4325.769043,4258.333496,4280.641113,4296.410156,4295.0,4294.358887,4283.205078,4596.922852,4541.410156,4428.205078,4502.436035,0.554572,0.562679,0.775431,0.571713,0.162459,0.506206,0.325006,0.602865,0.224582,0.12149,0.351228,0.306847,0.307277,0.347679,0.146013,0.372561,0.498757,0.37938,0.245128,0.140638,0.228496,0.145202,0.069986,0.031165,0.037641,0.207341,0.241199,0.299325,0.148234,0.178404,0.086351,0.095398,0.154552,0.045555,0.062696,0.144617,0.228994,0.32062,0.089704,0.07497,0.176247,0.601478,0.161644,0.16576,0.144787,0.219374,0.495853,0.194232,0.197019,0.133667,0.574975,0.450302,0.406945,0.334983,0.141562,0.381668,0.451516,0.505419,0.410537,0.193065,0.839894,0.598695,0.445057,0.523538,0.159916,0.908394,0.580996,0.543942,0.885421,0.280037
1769163808.235938,1769163808.237152,63.0,0.0,4276.922852,4278.846191,4284.487305,4324.871582,4256.922852,4278.589844,4294.615234,4296.282227,4292.692383,4280.0,4600.128418,4554.871582,4432.05127,4509.871582,,,,,,,,,,,,,,,,,,,,,,,,,,,,,,,,,,,,,,,,,,,,,,,,,,,,,,,,,,,,,,,,,,,,,,
1769163808.243747,1769163808.24516,64.0,0.0,4285.769043,4283.846191,4292.307617,4327.692383,4253.077148,4280.641113,4297.436035,4296.922852,4293.205078,4281.538574,4598.589844,4555.769043,4430.512695,4508.717773,,,,,,,,,,,,,,,,,,,,,,,,,,,,,,,,,,,,,,,,,,,,,,,,,,,,,,,,,,,,,,,,,,,,,,
1769163808.251555,1769163808.252968,65.0,0.0,4285.897461,4284.102539,4287.692383,4326.410156,4251.025879,4292.307617,4301.922852,4297.563965,4294.743652,4281.922852,4593.077148,4547.307617,4427.307617,4504.230957,,,,,,,,,,,,,,,,,,,,,,,,,,,,,,,,,,,,,,,,,,,,,,,,,,,,,,,,,,,,,,,,,,,,,,
1769163808.259364,1769163808.260677,66.0,0.0,4278.717773,4279.487305,4285.769043,4325.0,4251.025879,4305.256348,4302.179688,4301.025879,4294.358887,4283.974121,4593.846191,4549.871582,4427.179688,4509.487305,,,,,,,,,,,,,,,,,,,,,,,,,,,,,,,,,,,,,,,,,,,,,,,,,,,,,,,,,,,,,,,,,,,,,,
1769163808.267172,1769163808.268485,67.0,0.0,4278.717773,4279.871582,4292.94873,4326.410156,4251.282227,4312.436035,4301.153809,4305.128418,4294.871582,4286.794922,4597.307617,4553.717773,4427.692383,4506.410156,,,,,,,,,,,,,,,,,,,,,,,,,,,,,,,,,,,,,,,,,,,,,,,,,,,,,,,,,,,,,,,,,,,,,,
1769163808.274981,1769163808.276094,68.0,0.0,4285.512695,4281.538574,4297.307617,4327.436035,4253.461426,4312.436035,4305.897461,4310.512695,4298.077148,4286.538574,4597.307617,4552.94873,4427.692383,4493.333496,,,,,,,,,,,,,,,,,,,,,,,,,,,,,,,,,,,,,,,,,,,,,,,,,,,,,,,,,,,,,,,,,,,,,,
1769163808.282789,1769163808.283902,69.0,0.0,4291.666504,4279.871582,4296.538574,4324.102539,4257.05127,4310.512695,4309.487305,4310.897461,4298.461426,4282.820313,4595.897461,4552.436035,4428.333496,4494.871582,,,,,,,,,,,,,,,,,,,,,,,,,,,,,,,,,,,,,,,,,,,,,,,,,,,,,,,,,,,,,,,,,,,,,,
1769163808.290598,1769163808.291611,70.0,0.0,4293.589844,4278.333496,4294.487305,4320.0,4255.256348,4312.307617,4303.589844,4306.922852,4292.692383,4279.102539,4596.025879,4551.922852,4432.436035,4507.563965,,,,,,,,,,,,,,,,,,,,,,,,,,,,,,,,,,,,,,,,,,,,,,,,,,,,,,,,,,,,,,,,,,,,,,
1769163808.298406,1769163808.299419,71.0,0.0,4292.94873,4279.743652,4296.025879,4322.820313,4251.666504,4312.179688,4297.563965,4308.205078,4295.0,4283.974121,4601.794922,4555.769043,4435.384766,4511.410156,,,,,,,,,,,,,,,,,,,,,,,,,,,,,,,,,,,,,,,,,,,,,,,,,,,,,,,,,,,,,,,,,,,,,,
1769163808.306214,1769163808.307028,72.0,0.0,4298.974121,4282.307617,4300.641113,4326.794922,4251.922852,4308.717773,4300.512695,4305.641113,4297.820313,4287.563965,4601.410156,4553.461426,4431.794922,4503.589844,,,,,,,,,,,,,,,,,,,,,,,,,,,,,,,,,,,,,,,,,,,,,,,,,,,,,,,,,,,,,,,,,,,,,,
1769163808.314023,1769163808.314837,73.0,0.0,4306.922852,4283.461426,4304.102539,4326.794922,4252.05127,4307.05127,4302.563965,4296.666504,4287.307617,4279.230957,4590.897461,4542.179688,4427.820313,4495.512695,,,,,,,,,,,,,,,,,,,,,,,,,,,,,,,,,,,,,,,,,,,,,,,,,,,,,,,,,,,,,,,,,,,,,,
1769163808.321831,1769163808.322745,74.0,0.0,4302.05127,4281.538574,4305.897461,4325.512695,4250.384766,4310.128418,4296.282227,4300.769043,4284.230957,4274.102539,4586.666504,4537.436035,4427.05127,4491.282227,,,,,,,,,,,,,,,,,,,,,,,,,,,,,,,,,,,,,,,,,,,,,,,,,,,,,,,,,,,,,,,,,,,,,,
1769163808.32964,1769163808.330553,75.0,0.0,4293.846191,4276.794922,4304.358887,4323.461426,4250.128418,4312.563965,4296.282227,4309.358887,4295.128418,4280.512695,4590.512695,4543.205078,4425.384766,4493.205078,,,,,,,,,,,,,,,,,,,,,,,,,,,,,,,,,,,,,,,,,,,,,,,,,,,,,,,,,,,,,,,,,,,,,,
1769163808.337448,1769163808.338562,76.0,0.0,4294.871582,4274.743652,4298.846191,4319.358887,4250.769043,4309.487305,4300.384766,4306.538574,4296.282227,4282.05127,4587.179688,4543.205078,4420.512695,4496.153809,,,,,,,,,,,,,,,,,,,,,,,,,,,,,,,,,,,,,,,,,,,,,,,,,,,,,,,,,,,,,,,,,,,,,,
1769163808.345257,1769163808.34637,77.0,0.0,4297.05127,4273.974121,4297.05127,4320.0,4249.871582,4306.282227,4297.05127,4305.769043,4289.358887,4274.102539,4580.769043,4535.769043,4413.077148,4485.641113,,,,,,,,,,,,,,,,,,,,,,,,,,,,,,,,,,,,,,,,,,,,,,,,,,,,,,,,,,,,,,,,,,,,,,
1769163808.353065,1769163808.354079,78.0,0.0,4295.897461,4271.538574,4297.692383,4320.256348,4248.333496,4304.487305,4296.410156,4310.256348,4292.179688,4273.077148,4581.794922,4535.0,4410.0,4475.769043,0.579567,0.601189,0.830749,0.564456,0.164256,0.412285,0.310899,0.581488,0.221748,0.122069,0.375518,0.324706,0.30061,0.333568,0.144056,0.408421,0.491329,0.320034,0.237948,0.129268,0.204526,0.14329,0.057206,0.033623,0.03857,0.225562,0.226194,0.255241,0.167193,0.164728,0.109604,0.089528,0.175859,0.050062,0.067987,0.138932,0.236915,0.288312,0.075042,0.068344,0.172703,0.613344,0.218515,0.13779,0.159753,0.273437,0.459894,0.206323,0.186389,0.15811,0.690861,0.398498,0.358764,0.311475,0.123497,0.445033,0.450288,0.440585,0.396744,0.179372,0.905209,0.583739,0.361951,0.517877,0.148073,1.043275,0.47637,0.471612,0.888639,0.267491
1769163808.360874,1769163808.361887,79.0,0.0,4291.410156,4269.871582,4293.974121,4312.179688,4247.563965,4306.538574,4302.05127,4311.666504,4296.410156,4277.179688,4586.153809,4538.077148,4413.461426,4484.102539,,,,,,,,,,,,,,,,,,,,,,,,,,,,,,,,,,,,,,,,,,,,,,,,,,,,,,,,,,,,,,,,,,,,,,
1769163808.368682,1769163808.369496,80.0,0.0,4291.666504,4273.974121,4296.922852,4312.05127,4248.846191,4309.487305,4302.05127,4310.384766,4293.077148,4273.717773,4587.563965,4538.461426,4416.153809,4491.410156,,,,,,,,,,,,,,,,,,,,,,,,,,,,,,,,,,,,,,,,,,,,,,,,,,,,,,,,,,,,,,,,,,,,,,
1769163808.376491,1769163808.377304,81.0,0.0,4305.897461,4282.307617,4306.922852,4323.846191,4251.666504,4302.307617,4297.692383,4304.487305,4288.717773,4271.410156,4587.307617,4542.94873,4421.025879,4490.256348,,,,,,,,,,,,,,,,,,,,,,,,,,,,,,,,,,,,,,,,,,,,,,,,,,,,,,,,,,,,,,,,,,,,,,
1769163808.384299,1769163808.385212,82.0,0.0,4312.94873,4281.794922,4307.692383,4325.0,4250.641113,4293.461426,4299.487305,4302.436035,4289.743652,4276.282227,4589.230957,4551.538574,4425.128418,4496.794922,,,,,,,,,,,,,,,,,,,,,,,,,,,,,,,,,,,,,,,,,,,,,,,,,,,,,,,,,,,,,,,,,,,,,,
1769163808.392108,1769163808.393021,83.0,0.0,4305.384766,4273.589844,4304.615234,4317.563965,4247.307617,4298.846191,4302.820313,4305.384766,4290.641113,4278.077148,4587.307617,4555.0,4420.384766,4498.589844,,,,,,,,,,,,,,,,,,,,,,,,,,,,,,,,,,,,,,,,,,,,,,,,,,,,,,,,,,,,,,,,,,,,,,
1769163808.399916,1769163808.401029,84.0,0.0,4310.897461,4278.077148,4310.0,4321.922852,4247.692383,4297.436035,4297.05127,4299.871582,4283.205078,4275.384766,4587.179688,4552.436035,4418.974121,4491.666504,,,,,,,,,,,,,,,,,,,,,,,,,,,,,,,,,,,,,,,,,,,,,,,,,,,,,,,,,,,,,,,,,,,,,,
1769163808.407725,1769163808.408838,85.0,0.0,4323.077148,4288.077148,4314.743652,4330.256348,4250.0,4282.820313,4289.615234,4296.794922,4283.589844,4280.769043,4596.666504,4555.128418,4430.0,4497.94873,,,,,,,,,,,,,,,,,,,,,,,,,,,,,,,,,,,,,,,,,,,,,,,,,,,,,,,,,,,,,,,,,,,,,,
1769163808.415533,1769163808.416746,86.0,0.0,4316.153809,4283.461426,4309.615234,4326.025879,4249.615234,4284.358887,4290.384766,4301.282227,4291.922852,4283.205078,4597.563965,4555.512695,4432.179688,4500.897461,,,,,,,,,,,,,,,,,,,,,,,,,,,,,,,,,,,,,,,,,,,,,,,,,,,,,,,,,,,,,,,,,,,,,,
1769163808.423341,1769163808.424554,87.0,0.0,4306.794922,4277.563965,4305.384766,4318.205078,4247.820313,4296.153809,4294.615234,4298.589844,4285.769043,4270.128418,4583.974121,4543.717773,4420.641113,4485.384766,,,,,,,,,,,,,,,,,,,,,,,,,,,,,,,,,,,,,,,,,,,,,,,,,,,,,,,,,,,,,,,,,,,,,,
1769163808.43115,1769163808.432463,88.0,0.0,4311.922852,4280.769043,4308.205078,4318.333496,4247.692383,4294.487305,4295.641113,4293.717773,4276.922852,4261.153809,4581.282227,4535.897461,4419.487305,4488.077148,,,,,,,,,,,,,,,,,,,,,,,,,,,,,,,,,,,,,,,,,,,,,,,,,,,,,,,,,,,,,,,,,,,,,,
1769163808.438958,1769163808.440271,89.0,0.0,4312.820313,4280.769043,4310.641113,4320.641113,4249.102539,4289.230957,4294.102539,4296.794922,4284.487305,4267.179688,4589.615234,4540.641113,4426.153809,4507.820313,,,,,,,,,,,,,,,,,,,,,,,,,,,,,,,,,,,,,,,,,,,,,,,,,,,,,,,,,,,,,,,,,,,,,,
1769163808.446767,1769163808.44798,90.0,0.0,4309.102539,4276.538574,4308.589844,4318.846191,4249.102539,4293.205078,4293.589844,4295.512695,4286.922852,4268.077148,4587.563965,4542.563965,4426.282227,4502.436035,,,,,,,,,,,,,,,,,,,,,,,,,,,,,,,,,,,,,,,,,,,,,,,,,,,,,,,,,,,,,,,,,,,,,,
1769163808.454575,1769163808.455788,91.0,0.0,4317.179688,4281.153809,4308.717773,4319.871582,4247.307617,4295.128418,4295.897461,4294.487305,4276.922852,4261.666504,4582.436035,4537.563965,4423.461426,4490.0,,,,,,,,,,,,,,,,,,,,,,,,,,,,,,,,,,,,,,,,,,,,,,,,,,,,,,,,,,,,,,,,,,,,,,
1769163808.462384,1769163808.463397,92.0,0.0,4327.05127,4290.256348,4316.025879,4325.0,4248.717773,4292.692383,4298.974121,4303.717773,4282.307617,4270.256348,4587.436035,4540.128418,4428.205078,4501.153809,,,,,,,,,,,,,,,,,,,,,,,,,,,,,,,,,,,,,,,,,,,,,,,,,,,,,,,,,,,,,,,,,,,,,,
1769163808.470192,1769163808.471205,93.0,0.0,4323.846191,4288.589844,4316.538574,4321.153809,4252.563965,4296.282227,4300.512695,4308.333496,4296.025879,4281.538574,4590.769043,4543.077148,4427.94873,4504.743652,,,,,,,,,,,,,,,,,,,,,,,,,,,,,,,,,,,,,,,,,,,,,,,,,,,,,,,,,,,,,,,,,,,,,,
1769163808.478001,1769163808.478914,94.0,0.0,4315.897461,4276.666504,4308.846191,4312.05127,4252.179688,4299.743652,4298.974121,4306.538574,4290.384766,4275.897461,4583.974121,4537.692383,4416.794922,4489.230957,0.58019,0.662939,0.826604,0.529175,0.169161,0.326316,0.319571,0.543388,0.222589,0.126469,0.377097,0.360213,0.285522,0.305202,0.13777,0.428649,0.485114,0.251385,0.219145,0.122422,0.163264,0.146864,0.052009,0.03822,0.038856,0.240254,0.248822,0.253771,0.176021,0.1527,0.132931,0.097008,0.207754,0.055781,0.070629,0.154846,0.24088,0.319694,0.063593,0.065707,0.177336,0.647828,0.339672,0.114617,0.162886,0.314501,0.470613,0.273948,0.179673,0.185599,0.754517,0.381436,0.299547,0.272594,0.112184,0.518936,0.496679,0.374188,0.357285,0.172442,0.916056,0.60434,0.296811,0.477152,0.146737,1.152555,0.410799,0.390323,0.814873,0.252193
1769163808.485809,1769163808.486722,95.0,0.0,4321.794922,4276.153809,4313.974121,4314.743652,4247.94873,4289.871582,4296.794922,4308.461426,4283.077148,4272.820313,4583.077148,4540.897461,4419.102539,4494.743652,,,,,,,,,,,,,,,,,,,,,,,,,,,,,,,,,,,,,,,,,,,,,,,,,,,,,,,,,,,,,,,,,,,,,,
1769163808.493617,1769163808.494331,96.0,0.0,4335.0,4290.0,4327.179688,4323.461426,4245.512695,4281.153809,4296.538574,4311.153809,4292.307617,4281.025879,4596.153809,4553.461426,4432.436035,4514.487305,,,,,,,,,,,,,,,,,,,,,,,,,,,,,,,,,,,,,,,,,,,,,,,,,,,,,,,,,,,,,,,,,,,,,,
1769163808.501426,1769163808.502139,97.0,0.0,4339.230957,4293.461426,4328.846191,4326.410156,4247.05127,4285.384766,4296.153809,4310.256348,4295.128418,4282.692383,4597.563965,4555.384766,4429.871582,4507.820313,,,,,,,,,,,,,,,,,,,,,,,,,,,,,,,,,,,,,,,,,,,,,,,,,,,,,,,,,,,,,,,,,,,,,,
1769163808.509234,1769163808.510048,98.0,0.0,4336.153809,4282.307617,4323.974121,4322.94873,4247.692383,4284.743652,4294.871582,4309.743652,4287.307617,4277.179688,4590.128418,4548.974121,4425.128418,4501.153809,,,,,,,,,,,,,,,,,,,,,,,,,,,,,,,,,,,,,,,,,,,,,,,,,,,,,,,,,,,,,,,,,,,,,,
1769163808.517043,1769163808.517856,99.0,0.0,4336.282227,4279.358887,4324.871582,4320.128418,4246.666504,4277.563965,4295.128418,4310.897461,4287.436035,4278.589844,4596.410156,4554.487305,4442.179688,4520.384766,,,,,,,,,,,,,,,,,,,,,,,,,,,,,,,,,,,,,,,,,,,,,,,,,,,,,,,,,,,,,,,,,,,,,,
1769163808.524851,1769163808.525864,100.0,0.0,4342.05127,4287.179688,4327.692383,4323.077148,4246.666504,4277.94873,4297.05127,4311.153809,4294.102539,4281.538574,4604.743652,4563.589844,4448.846191,4525.641113,,,,,,,,,,,,,,,,,,,,,,,,,,,,,,,,,,,,,,,,,,,,,,,,,,,,,,,,,,,,,,,,,,,,,,
1769163808.53266,1769163808.533673,101.0,0.0,4342.820313,4286.794922,4327.307617,4321.666504,4247.94873,4282.05127,4298.205078,4311.794922,4291.794922,4280.641113,4600.256348,4559.487305,4431.153809,4504.615234,,,,,,,,,,,,,,,,,,,,,,,,,,,,,,,,,,,,,,,,,,,,,,,,,,,,,,,,,,,,,,,,,,,,,,
1769163808.540468,1769163808.541581,102.0,0.0,4335.384766,4278.589844,4323.077148,4311.538574,4248.846191,4282.307617,4297.563965,4311.538574,4285.128418,4278.205078,4591.666504,4550.897461,4424.487305,4497.94873,,,,,,,,,,,,,,,,,,,,,,,,,,,,,,,,,,,,,,,,,,,,,,,,,,,,,,,,,,,,,,,,,,,,,,
1769163808.548277,1769163808.54939,103.0,0.0,4332.179688,4278.077148,4322.692383,4306.922852,4248.077148,4281.922852,4297.563965,4311.666504,4282.179688,4277.307617,4588.333496,4550.769043,4429.615234,4507.692383,,,,,,,,,,,,,,,,,,,,,,,,,,,,,,,,,,,,,,,,,,,,,,,,,,,,,,,,,,,,,,,,,,,,,,
1769163808.556085,1769163808.556998,104.0,0.0,4337.179688,4282.436035,4327.307617,4309.871582,4247.179688,4281.922852,4298.846191,4311.666504,4280.641113,4273.717773,4592.179688,4555.128418,4427.820313,4509.102539,,,,,,,,,,,,,,,,,,,,,,,,,,,,,,,,,,,,,,,,,,,,,,,,,,,,,,,,,,,,,,,,,,,,,,
1769163808.563893,1769163808.564807,105.0,0.0,4335.384766,4279.743652,4325.128418,4308.077148,4246.922852,4283.461426,4303.205078,4310.256348,4280.256348,4267.563965,4595.0,4553.333496,4424.871582,4505.769043,,,,,,,,,,,,,,,,,,,,,,,,,,,,,,,,,,,,,,,,,,,,,,,,,,,,,,,,,,,,,,,,,,,,,,
1769163808.571702,1769163808.572515,106.0,0.0,4333.333496,4278.974121,4326.538574,4305.897461,4248.461426,4283.717773,4303.077148,4308.589844,4280.641113,4270.897461,4591.410156,4552.436035,4426.410156,4505.897461,,,,,,,,,,,,,,,,,,,,,,,,,,,,,,,,,,,,,,,,,,,,,,,,,,,,,,,,,,,,,,,,,,,,,,
1769163808.57951,1769163808.580324,107.0,0.0,4344.871582,4288.077148,4337.692383,4309.358887,4248.589844,4279.102539,4296.410156,4308.589844,4281.922852,4276.794922,4589.615234,4554.487305,4425.128418,4504.743652,,,,,,,,,,,,,,,,,,,,,,,,,,,,,,,,,,,,,,,,,,,,,,,,,,,,,,,,,,,,,,,,,,,,,,
1769163808.587319,1769163808.588332,108.0,0.0,4353.589844,4289.102539,4337.692383,4309.230957,4246.410156,4277.307617,4294.487305,4308.974121,4280.512695,4269.871582,4589.358887,4548.333496,4423.461426,4505.128418,,,,,,,,,,,,,,,,,,,,,,,,,,,,,,,,,,,,,,,,,,,,,,,,,,,,,,,,,,,,,,,,,,,,,,
1769163808.595127,1769163808.59614,109.0,0.0,4348.205078,4280.512695,4330.128418,4306.282227,4246.922852,4279.743652,4297.307617,4308.589844,4280.641113,4264.487305,4588.077148,4543.461426,4426.282227,4508.077148,,,,,,,,,,,,,,,,,,,,,,,,,,,,,,,,,,,,,,,,,,,,,,,,,,,,,,,,,,,,,,,,,,,,,,
1769163808.602936,1769163808.604049,110.0,0.0,4349.102539,4283.461426,4333.461426,4303.717773,4249.358887,4281.410156,4296.153809,4310.256348,4286.410156,4274.230957,4597.179688,4553.077148,4430.897461,4511.410156,0.521623,0.734882,0.747739,0.47221,0.179586,0.259529,0.351117,0.483546,0.228023,0.137231,0.344368,0.403535,0.255681,0.263851,0.130302,0.421001,0.481685,0.184635,0.191556,0.120627,0.116073,0.153553,0.052159,0.043247,0.037717,0.273602,0.302329,0.296717,0.173091,0.140616,0.150025,0.117696,0.245873,0.061641,0.069636,0.177237,0.242337,0.399426,0.05398,0.065128,0.1764,0.694394,0.490257,0.097652,0.15333,0.331468,0.50962,0.37933,0.176364,0.207455,0.746173,0.407754,0.249901,0.226052,0.108525,0.589301,0.596213,0.323521,0.298059,0.171921,0.854212,0.669418,0.257096,0.408095,0.155781,1.185571,0.39672,0.317503,0.676516,0.238409
1769163808.610744,1769163808.611857,111.0,0.0,4358.077148,4289.230957,4338.077148,4298.077148,4247.179688,4281.794922,4293.461426,4311.922852,4288.461426,4280.641113,4603.461426,4561.025879,4430.256348,4512.820313,,,,,,,,,,,,,,,,,,,,,,,,,,,,,,,,,,,,,,,,,,,,,,,,,,,,,,,,,,,,,,,,,,,,,,
1769163808.618553,1769163808.619865,112.0,0.0,4351.538574,4280.512695,4334.230957,4291.794922,4244.102539,4280.384766,4296.282227,4308.974121,4283.077148,4276.153809,4593.205078,4553.461426,4427.94873,4504.871582,,,,,,,,,,,,,,,,,,,,,,,,,,,,,,,,,,,,,,,,,,,,,,,,,,,,,,,,,,,,,,,,,,,,,,
1769163808.626361,1769163808.627674,113.0,0.0,4341.538574,4275.384766,4332.563965,4291.794922,4245.641113,4279.358887,4299.102539,4307.307617,4278.974121,4273.846191,4585.641113,4546.794922,4428.589844,4495.641113,,,,,,,,,,,,,,,,,,,,,,,,,,,,,,,,,,,,,,,,,,,,,,,,,,,,,,,,,,,,,,,,,,,,,,
1769163808.634169,1769163808.635482,114.0,0.0,4344.615234,4281.410156,4334.743652,4294.487305,4247.05127,4287.820313,4301.794922,4311.666504,4282.563965,4272.179688,4585.512695,4547.179688,4425.256348,4490.897461,,,,,,,,,,,,,,,,,,,,,,,,,,,,,,,,,,,,,,,,,,,,,,,,,,,,,,,,,,,,,,,,,,,,,,
1769163808.641978,1769163808.643291,115.0,0.0,4351.282227,4281.794922,4334.615234,4292.94873,4245.897461,4296.153809,4307.179688,4314.743652,4283.461426,4264.358887,4585.384766,4549.102539,4420.384766,4489.743652,,,,,,,,,,,,,,,,,,,,,,,,,,,,,,,,,,,,,,,,,,,,,,,,,,,,,,,,,,,,,,,,,,,,,,
1769163808.649786,1769163808.650899,116.0,0.0,4353.589844,4278.846191,4335.0,4291.410156,4246.666504,4287.692383,4303.589844,4312.05127,4278.589844,4262.307617,4592.820313,4554.102539,4426.794922,4500.128418,,,,,,,,,,,,,,,,,,,,,,,,,,,,,,,,,,,,,,,,,,,,,,,,,,,,,,,,,,,,,,,,,,,,,,
1769163808.657595,1769163808.658708,117.0,0.0,4354.358887,4279.487305,4338.333496,4292.692383,4248.205078,4275.128418,4294.487305,4311.922852,4280.897461,4273.205078,4600.0,4557.436035,4433.077148,4508.077148,,,,,,,,,,,,,,,,,,,,,,,,,,,,,,,,,,,,,,,,,,,,,,,,,,,,,,,,,,,,,,,,,,,,,,
1769163808.665403,1769163808.666416,118.0,0.0,4351.410156,4279.487305,4339.230957,4292.820313,4246.282227,4275.0,4293.461426,4314.358887,4282.820313,4274.487305,4592.436035,4552.692383,4425.256348,4497.820313,,,,,,,,,,,,,,,,,,,,,,,,,,,,,,,,,,,,,,,,,,,,,,,,,,,,,,,,,,,,,,,,,,,,,,
1769163808.673212,1769163808.674225,119.0,0.0,4349.487305,4278.461426,4335.0,4291.410156,4245.769043,4278.717773,4295.769043,4314.230957,4280.0,4266.282227,4585.384766,4548.205078,4421.025879,4486.538574,,,,,,,,,,,,,,,,,,,,,,,,,,,,,,,,,,,,,,,,,,,,,,,,,,,,,,,,,,,,,,,,,,,,,,
1769163808.68102,1769163808.681834,120.0,0.0,4356.153809,4280.512695,4335.897461,4292.436035,4248.589844,4277.692383,4297.436035,4312.94873,4282.436035,4271.794922,4589.102539,4552.05127,4427.563965,4491.025879,,,,,,,,,,,,,,,,,,,,,,,,,,,,,,,,,,,,,,,,,,,,,,,,,,,,,,,,,,,,,,,,,,,,,,
1769163808.688829,1769163808.689642,121.0,0.0,4358.589844,4282.05127,4342.692383,4293.589844,4248.717773,4278.205078,4300.384766,4311.794922,4288.589844,4278.846191,4589.102539,4555.641113,4429.102539,4500.128418,,,,,,,,,,,,,,,,,,,,,,,,,,,,,,,,,,,,,,,,,,,,,,,,,,,,,,,,,,,,,,,,,,,,,,
1769163808.696637,1769163808.697351,122.0,0.0,4358.461426,4281.282227,4343.717773,4293.717773,4248.846191,4278.589844,4300.128418,4311.666504,4291.922852,4275.256348,4589.615234,4555.512695,4427.436035,4505.128418,,,,,,,,,,,,,,,,,,,,,,,,,,,,,,,,,,,,,,,,,,,,,,,,,,,,,,,,,,,,,,,,,,,,,,
1769163808.704446,1769163808.705159,123.0,0.0,4363.461426,4280.897461,4340.897461,4291.282227,4250.641113,4280.641113,4300.0,4313.205078,4293.333496,4276.282227,4596.538574,4556.538574,4430.128418,4509.102539,,,,,,,,,,,,,,,,,,,,,,,,,,,,,,,,,,,,,,,,,,,,,,,,,,,,,,,,,,,,,,,,,,,,,,
1769163808.712254,1769163808.713167,124.0,0.0,4360.641113,4279.615234,4338.974121,4284.102539,4250.0,4285.641113,4303.077148,4312.692383,4294.615234,4281.025879,4596.922852,4556.538574,4430.897461,4503.205078,,,,,,,,,,,,,,,,,,,,,,,,,,,,,,,,,,,,,,,,,,,,,,,,,,,,,,,,,,,,,,,,,,,,,,
1769163808.720063,1769163808.720976,125.0,0.0,4353.974121,4276.410156,4337.820313,4279.230957,4247.307617,4284.230957,4301.666504,4310.641113,4294.230957,4278.077148,4594.358887,4555.128418,4428.846191,4495.128418,,,,,,,,,,,,,,,,,,,,,,,,,,,,,,,,,,,,,,,,,,,,,,,,,,,,,,,,,,,,,,,,,,,,,,
1769163808.727871,1769163808.728884,126.0,0.0,4358.077148,4277.563965,4340.384766,4281.666504,4247.692383,4278.717773,4295.897461,4310.0,4292.94873,4276.282227,4599.102539,4557.820313,4430.384766,4499.230957,0.436773,0.808725,0.612537,0.404507,0.196801,0.226488,0.396056,0.403558,0.236452,0.154755,0.283705,0.442246,0.215084,0.216238,0.125708,0.385439,0.479478,0.131093,0.161325,0.123014,0.078845,0.162574,0.055767,0.047345,0.035522,0.35733,0.371955,0.368132,0.160476,0.127776,0.152858,0.150323,0.280095,0.065805,0.065562,0.202339,0.246678,0.501817,0.045608,0.065301,0.159064,0.723695,0.614079,0.086608,0.136338,0.321804,0.544378,0.485578,0.174305,0.217905,0.678325,0.467597,0.220172,0.181768,0.111436,0.664492,0.741928,0.296141,0.23134,0.176195,0.735224,0.765472,0.241449,0.327192,0.174011,1.132858,0.424237,0.26811,0.510533,0.23307
1769163808.73568,1769163808.736692,127.0,0.0,4362.820313,4281.282227,4344.358887,4283.077148,4248.846191,4276.794922,4295.0,4311.153809,4292.94873,4276.025879,4595.384766,4559.102539,4429.871582,4502.94873,,,,,,,,,,,,,,,,,,,,,,,,,,,,,,,,,,,,,,,,,,,,,,,,,,,,,,,,,,,,,,,,,,,,,,
1769163808.743488,1769163808.744701,0.0,0.0,4358.077148,4276.153809,4341.922852,4279.615234,4248.846191,4281.025879,4300.384766,4312.820313,4292.05127,4272.563965,4586.922852,4552.820313,4427.05127,4495.897461,,,,,,,,,,,,,,,,,,,,,,,,,,,,,,,,,,,,,,,,,,,,,,,,,,,,,,,,,,,,,,,,,,,,,,
1769163808.751296,1769163808.752509,1.0,0.0,4355.256348,4271.666504,4338.461426,4278.077148,4248.974121,4284.230957,4303.077148,4310.128418,4289.230957,4271.025879,4593.077148,4551.153809,4429.615234,4489.487305,,,,,,,,,,,,,,,,,,,,,,,,,,,,,,,,,,,,,,,,,,,,,,,,,,,,,,,,,,,,,,,,,,,,,,
1769163808.759105,1769163808.760218,2.0,0.0,4357.820313,4277.436035,4339.615234,4280.256348,4248.974121,4280.897461,4298.717773,4305.769043,4289.102539,4275.384766,4596.538574,4550.0,4433.077148,4490.512695,,,,,,,,,,,,,,,,,,,,,,,,,,,,,,,,,,,,,,,,,,,,,,,,,,,,,,,,,,,,,,,,,,,,,,
1769163808.766913,1769163808.768026,3.0,0.0,4361.666504,4279.230957,4341.538574,4281.025879,4249.871582,4279.358887,4295.128418,4307.307617,4294.230957,4280.512695,4588.077148,4542.94873,4432.179688,4489.102539,,,,,,,,,,,,,,,,,,,,,,,,,,,,,,,,,,,,,,,,,,,,,,,,,,,,,,,,,,,,,,,,,,,,,,
1769163808.774722,1769163808.776034,4.0,0.0,4365.0,4275.0,4343.333496,4279.487305,4248.846191,4277.307617,4296.282227,4308.461426,4295.769043,4280.384766,4590.0,4545.384766,4434.871582,4490.769043,,,,,,,,,,,,,,,,,,,,,,,,,,,,,,,,,,,,,,,,,,,,,,,,,,,,,,,,,,,,,,,,,,,,,,
1769163808.78253,1769163808.783843,5.0,0.0,4366.922852,4276.153809,4343.461426,4276.666504,4246.025879,4271.025879,4294.743652,4303.205078,4292.563965,4279.230957,4600.0,4555.641113,4442.820313,4497.563965,,,,,,,,,,,,,,,,,,,,,,,,,,,,,,,,,,,,,,,,,,,,,,,,,,,,,,,,,,,,,,,,,,,,,,
1769163808.790339,1769163808.791751,6.0,0.0,4370.256348,4280.769043,4342.94873,4275.512695,4246.410156,4270.897461,4293.205078,4303.589844,4294.230957,4281.025879,4598.333496,4554.743652,4442.179688,4495.128418,,,,,,,,,,,,,,,,,,,,,,,,,,,,,,,,,,,,,,,,,,,,,,,,,,,,,,,,,,,,,,,,,,,,,,
1769163808.798147,1769163808.79956,7.0,0.0,4375.128418,4280.769043,4347.692383,4278.461426,4248.974121,4278.589844,4296.410156,4310.897461,4295.897461,4281.025879,4593.974121,4551.153809,4435.512695,4490.512695,,,,,,,,,,,,,,,,,,,,,,,,,,,,,,,,,,,,,,,,,,,,,,,,,,,,,,,,,,,,,,,,,,,,,,
1769163808.805956,1769163808.807568,8.0,0.0,4375.769043,4281.025879,4354.487305,4280.128418,4249.615234,4280.256348,4297.820313,4313.205078,4295.256348,4279.743652,4596.922852,4555.384766,4437.692383,4494.615234,,,,,,,,,,,,,,,,,,,,,,,,,,,,,,,,,,,,,,,,,,,,,,,,,,,,,,,,,,,,,,,,,,,,,,
1769163808.813764,1769163808.815376,9.0,0.0,4371.666504,4280.897461,4352.692383,4277.307617,4249.102539,4278.077148,4296.666504,4309.487305,4295.897461,4279.615234,4598.846191,4555.897461,4444.358887,4498.077148,,,,,,,,,,,,,,,,,,,,,,,,,,,,,,,,,,,,,,,,,,,,,,,,,,,,,,,,,,,,,,,,,,,,,,
1769163808.821572,1769163808.823085,10.0,0.0,4368.589844,4278.077148,4347.307617,4276.025879,4249.358887,4277.820313,4297.05127,4305.769043,4294.871582,4279.230957,4597.692383,4554.102539,4441.153809,4493.077148,,,,,,,,,,,,,,,,,,,,,,,,,,,,,,,,,,,,,,,,,,,,,,,,,,,,,,,,,,,,,,,,,,,,,,
1769163808.829381,1769163808.830893,11.0,0.0,4370.897461,4280.512695,4352.692383,4279.615234,4249.615234,4275.769043,4297.94873,4306.794922,4293.974121,4278.461426,4596.025879,4554.871582,4434.358887,4488.205078,,,,,,,,,,,,,,,,,,,,,,,,,,,,,,,,,,,,,,,,,,,,,,,,,,,,,,,,,,,,,,,,,,,,,,
1769163808.837189,1769163808.838502,12.0,0.0,4375.769043,4284.358887,4360.641113,4282.05127,4249.230957,4276.922852,4296.538574,4308.717773,4295.384766,4278.205078,4595.384766,4552.436035,4436.666504,4490.128418,,,,,,,,,,,,,,,,,,,,,,,,,,,,,,,,,,,,,,,,,,,,,,,,,,,,,,,,,,,,,,,,,,,,,,
1769163808.844998,1769163808.84631,13.0,0.0,4373.461426,4281.153809,4358.589844,4278.717773,4248.333496,4274.230957,4295.128418,4304.743652,4294.615234,4277.692383,4596.922852,4551.153809,4442.563965,4492.563965,,,,,,,,,,,,,,,,,,,,,,,,,,,,,,,,,,,,,,,,,,,,,,,,,,,,,,,,,,,,,,,,,,,,,,
1769163808.852806,1769163808.854019,14.0,0.0,4368.333496,4277.94873,4355.384766,4275.641113,4246.666504,4264.358887,4297.307617,4306.922852,4295.641113,4279.743652,4600.256348,4554.615234,4443.205078,4492.94873,0.33502,0.878788,0.460713,0.336656,0.21903,0.215841,0.440799,0.316876,0.244256,0.177317,0.214452,0.468876,0.174031,0.170551,0.12618,0.332269,0.479586,0.100848,0.135611,0.127601,0.055774,0.173569,0.062065,0.049835,0.03312,0.505491,0.44534,0.442239,0.143859,0.115504,0.139921,0.19297,0.298469,0.066987,0.0601,0.238973,0.257418,0.598841,0.038633,0.065824,0.13783,0.708179,0.665274,0.080679,0.120703,0.298152,0.548797,0.554687,0.17171,0.216775,0.5876,0.535975,0.209646,0.149886,0.119264,0.759914,0.908872,0.287305,0.172556,0.183457,0.599586,0.862149,0.24498,0.253564,0.199083,1.029266,0.471613,0.252342,0.362374,0.242597
1769163808.860615,1769163808.861827,15.0,0.0,4368.205078,4279.615234,4358.461426,4275.0,4243.717773,4268.077148,4299.102539,4311.025879,4295.128418,4281.410156,4602.820313,4556.410156,4440.897461,4493.461426,,,,,,,,,,,,,,,,,,,,,,,,,,,,,,,,,,,,,,,,,,,,,,,,,,,,,,,,,,,,,,,,,,,,,,
1769163808.868423,1769163808.869436,16.0,0.0,4367.94873,4278.846191,4357.692383,4273.205078,4242.179688,4276.153809,4297.307617,4301.153809,4286.025879,4276.922852,4597.820313,4553.461426,4440.256348,4493.589844,,,,,,,,,,,,,,,,,,,,,,,,,,,,,,,,,,,,,,,,,,,,,,,,,,,,,,,,,,,,,,,,,,,,,,
1769163808.876232,1769163808.877245,17.0,0.0,4366.666504,4278.077148,4356.153809,4273.589844,4244.871582,4269.230957,4295.512695,4292.05127,4282.05127,4272.436035,4589.615234,4551.282227,4440.512695,4492.94873,,,,,,,,,,,,,,,,,,,,,,,,,,,,,,,,,,,,,,,,,,,,,,,,,,,,,,,,,,,,,,,,,,,,,,
1769163808.88404,1769163808.884953,18.0,0.0,4370.769043,4281.794922,4363.077148,4276.922852,4247.307617,4265.641113,4295.512695,4296.794922,4290.897461,4276.025879,4591.153809,4553.461426,4441.282227,4492.179688,,,,,,,,,,,,,,,,,,,,,,,,,,,,,,,,,,,,,,,,,,,,,,,,,,,,,,,,,,,,,,,,,,,,,,
1769163808.891848,1769163808.892762,19.0,0.0,4373.461426,4282.05127,4364.871582,4277.820313,4244.615234,4270.769043,4295.256348,4299.102539,4295.128418,4280.769043,4599.358887,4555.641113,4441.794922,4493.077148,,,,,,,,,,,,,,,,,,,,,,,,,,,,,,,,,,,,,,,,,,,,,,,,,,,,,,,,,,,,,,,,,,,,,,
1769163808.899657,1769163808.90037,20.0,0.0,4369.487305,4278.846191,4357.179688,4275.128418,4243.717773,4267.307617,4293.846191,4294.358887,4292.05127,4279.230957,4600.897461,4553.974121,4442.94873,4493.717773,,,,,,,,,,,,,,,,,,,,,,,,,,,,,,,,,,,,,,,,,,,,,,,,,,,,,,,,,,,,,,,,,,,,,,
1769163808.907465,1769163808.908179,21.0,0.0,4366.282227,4279.230957,4357.179688,4274.102539,4247.692383,4262.94873,4293.077148,4295.0,4293.205078,4278.333496,4598.205078,4552.436035,4444.871582,4490.256348,,,,,,,,,,,,,,,,,,,,,,,,,,,,,,,,,,,,,,,,,,,,,,,,,,,,,,,,,,,,,,,,,,,,,,
1769163808.915274,1769163808.916087,22.0,0.0,4366.282227,4281.025879,4364.871582,4277.179688,4247.94873,4266.410156,4293.205078,4295.769043,4294.743652,4279.871582,4596.025879,4552.05127,4440.769043,4482.436035,,,,,,,,,,,,,,,,,,,,,,,,,,,,,,,,,,,,,,,,,,,,,,,,,,,,,,,,,,,,,,,,,,,,,,
1769163808.923082,1769163808.923895,23.0,0.0,4367.307617,4278.333496,4369.102539,4281.025879,4246.538574,4268.077148,4294.743652,4293.333496,4294.102539,4278.846191,4592.94873,4551.410156,4432.179688,4477.307617,,,,,,,,,,,,,,,,,,,,,,,,,,,,,,,,,,,,,,,,,,,,,,,,,,,,,,,,,,,,,,,,,,,,,,
1769163808.930891,1769163808.931904,24.0,0.0,4368.974121,4276.538574,4370.769043,4281.282227,4248.717773,4266.153809,4295.128418,4293.846191,4295.897461,4277.692383,4594.743652,4552.563965,4431.282227,4478.717773,,,,,,,,,,,,,,,,,,,,,,,,,,,,,,,,,,,,,,,,,,,,,,,,,,,,,,,,,,,,,,,,,,,,,,
1769163808.938699,1769163808.939712,25.0,0.0,4367.307617,4284.230957,4370.256348,4278.589844,4250.641113,4264.871582,4294.230957,4296.282227,4296.922852,4279.487305,4597.94873,4551.025879,4435.769043,4479.230957,,,,,,,,,,,,,,,,,,,,,,,,,,,,,,,,,,,,,,,,,,,,,,,,,,,,,,,,,,,,,,,,,,,,,,
1769163808.946508,1769163808.94762,26.0,0.0,4360.769043,4289.230957,4365.512695,4278.717773,4250.897461,4267.692383,4295.641113,4297.692383,4296.025879,4278.589844,4592.307617,4542.05127,4432.94873,4475.256348,,,,,,,,,,,,,,,,,,,,,,,,,,,,,,,,,,,,,,,,,,,,,,,,,,,,,,,,,,,,,,,,,,,,,,
1769163808.954316,1769163808.955429,27.0,0.0,4355.384766,4282.307617,4364.102539,4278.717773,4252.307617,4272.563965,4297.307617,4295.384766,4295.128418,4270.128418,4584.487305,4535.897461,4425.897461,4472.436035,,,,,,,,,,,,,,,,,,,,,,,,,,,,,,,,,,,,,,,,,,,,,,,,,,,,,,,,,,,,,,,,,,,,,,
1769163808.962124,1769163808.963038,28.0,0.0,4357.436035,4276.666504,4368.077148,4277.307617,4250.128418,4270.0,4297.820313,4295.769043,4296.282227,4265.256348,4589.102539,4543.589844,4427.563965,4475.512695,,,,,,,,,,,,,,,,,,,,,,,,,,,,,,,,,,,,,,,,,,,,,,,,,,,,,,,,,,,,,,,,,,,,,,
1769163808.969933,1769163808.970846,29.0,0.0,4365.128418,4283.077148,4370.897461,4280.256348,4246.410156,4264.615234,4296.282227,4298.205078,4296.666504,4273.077148,4597.692383,4553.205078,4437.94873,4480.769043,,,,,,,,,,,,,,,,,,,,,,,,,,,,,,,,,,,,,,,,,,,,,,,,,,,,,,,,,,,,,,,,,,,,,,
1769163808.977741,1769163808.978754,30.0,0.0,4367.179688,4287.307617,4371.282227,4284.230957,4246.922852,4266.410156,4294.358887,4294.230957,4295.0,4277.05127,4594.871582,4547.94873,4440.769043,4480.897461,0.233223,0.937851,0.330632,0.275935,0.241338,0.21448,0.468438,0.237001,0.245429,0.200266,0.152906,0.47994,0.141801,0.134021,0.130775,0.280353,0.477566,0.092754,0.119295,0.131719,0.04938,0.183561,0.068161,0.050335,0.031168,0.697537,0.514491,0.492445,0.130075,0.106718,0.115407,0.241904,0.295526,0.065675,0.055421,0.294202,0.274882,0.661654,0.033609,0.066369,0.130072,0.644113,0.627524,0.078723,0.113604,0.279982,0.521233,0.56804,0.16851,0.208313,0.510262,0.585796,0.210133,0.13872,0.130253,0.879479,1.058038,0.285099,0.13385,0.190757,0.489099,0.925644,0.259926,0.200526,0.225891,0.928382,0.516766,0.269163,0.267401,0.268788
1769163808.98555,1769163808.986563,31.0,0.0,4359.743652,4281.025879,4371.153809,4282.436035,4248.333496,4267.05127,4294.358887,4288.717773,4293.333496,4269.102539,4585.897461,4537.94873,4432.307617,4477.307617,,,,,,,,,,,,,,,,,,,,,,,,,,,,,,,,,,,,,,,,,,,,,,,,,,,,,,,,,,,,,,,,,,,,,,
1769163808.993358,1769163808.994571,32.0,0.0,4353.461426,4281.538574,4374.102539,4281.025879,4249.871582,4263.461426,4292.436035,4289.102539,4291.025879,4270.769043,4587.179688,4541.794922,4431.538574,4476.410156,,,,,,,,,,,,,,,,,,,,,,,,,,,,,,,,,,,,,,,,,,,,,,,,,,,,,,,,,,,,,,,,,,,,,,
1769163809.001167,1769163809.002379,33.0,0.0,4356.794922,4288.077148,4378.333496,4287.179688,4250.128418,4263.461426,4289.871582,4291.922852,4289.487305,4276.538574,4591.794922,4551.538574,4436.666504,4478.077148,,,,,,,,,,,,,,,,,,,,,,,,,,,,,,,,,,,,,,,,,,,,,,,,,,,,,,,,,,,,,,,,,,,,,,
1769163809.008975,1769163809.010088,34.0,0.0,4359.230957,4286.538574,4382.05127,4291.025879,4247.820313,4264.615234,4292.307617,4293.205078,4292.94873,4270.769043,4591.538574,4555.256348,4433.461426,4476.666504,,,,,,,,,,,,,,,,,,,,,,,,,,,,,,,,,,,,,,,,,,,,,,,,,,,,,,,,,,,,,,,,,,,,,,
1769163809.016784,1769163809.017896,35.0,0.0,4349.871582,4280.0,4380.769043,4285.256348,4247.820313,4263.589844,4296.025879,4295.384766,4296.794922,4268.589844,4591.410156,4551.794922,4427.692383,4475.897461,,,,,,,,,,,,,,,,,,,,,,,,,,,,,,,,,,,,,,,,,,,,,,,,,,,,,,,,,,,,,,,,,,,,,,
1769163809.024592,1769163809.025505,36.0,0.0,4339.487305,4279.102539,4373.461426,4278.589844,4251.410156,4262.94873,4294.102539,4295.512695,4295.128418,4273.846191,4590.384766,4543.461426,4428.205078,4476.922852,,,,,,,,,,,,,,,,,,,,,,,,,,,,,,,,,,,,,,,,,,,,,,,,,,,,,,,,,,,,,,,,,,,,,,
1769163809.032401,1769163809.033314,37.0,0.0,4340.384766,4279.871582,4369.615234,4278.589844,4251.538574,4265.256348,4293.461426,4293.846191,4294.230957,4275.384766,4590.641113,4538.974121,4431.025879,4475.769043,,,,,,,,,,,,,,,,,,,,,,,,,,,,,,,,,,,,,,,,,,,,,,,,,,,,,,,,,,,,,,,,,,,,,,
1769163809.040209,1769163809.041022,38.0,0.0,4343.846191,4277.307617,4372.692383,4279.743652,4248.974121,4268.974121,4298.461426,4295.128418,4296.282227,4270.897461,4592.563965,4542.179688,4429.102539,4475.641113,,,,,,,,,,,,,,,,,,,,,,,,,,,,,,,,,,,,,,,,,,,,,,,,,,,,,,,,,,,,,,,,,,,,,,
1769163809.048018,1769163809.048831,39.0,0.0,4343.846191,4277.94873,4375.0,4280.128418,4248.589844,4266.794922,4297.307617,4295.0,4293.717773,4265.641113,4588.717773,4542.307617,4423.717773,4475.641113,,,,,,,,,,,,,,,,,,,,,,,,,,,,,,,,,,,,,,,,,,,,,,,,,,,,,,,,,,,,,,,,,,,,,,
1769163809.055826,1769163809.056439,40.0,0.0,4337.307617,4273.974121,4371.538574,4276.922852,4248.333496,4262.94873,4294.487305,4292.820313,4288.974121,4261.922852,4582.820313,4536.538574,4420.128418,4472.179688,,,,,,,,,,,,,,,,,,,,,,,,,,,,,,,,,,,,,,,,,,,,,,,,,,,,,,,,,,,,,,,,,,,,,,
1769163809.063635,1769163809.064248,41.0,0.0,4328.333496,4264.487305,4368.333496,4268.589844,4246.410156,4268.589844,4300.641113,4293.717773,4290.641113,4264.615234,4583.717773,4535.256348,4418.205078,4470.256348,,,,,,,,,,,,,,,,,,,,,,,,,,,,,,,,,,,,,,,,,,,,,,,,,,,,,,,,,,,,,,,,,,,,,,
1769163809.071443,1769163809.071956,42.0,0.0,4329.615234,4266.282227,4370.897461,4266.922852,4245.128418,4274.871582,4305.897461,4297.563965,4294.871582,4270.0,4586.666504,4538.589844,4419.358887,4473.205078,,,,,,,,,,,,,,,,,,,,,,,,,,,,,,,,,,,,,,,,,,,,,,,,,,,,,,,,,,,,,,,,,,,,,,
1769163809.079251,1769163809.079765,43.0,0.0,4339.871582,4276.794922,4372.94873,4275.256348,4245.128418,4267.436035,4298.717773,4297.820313,4296.538574,4272.563965,4586.922852,4540.256348,4425.256348,4476.153809,,,,,,,,,,,,,,,,,,,,,,,,,,,,,,,,,,,,,,,,,,,,,,,,,,,,,,,,,,,,,,,,,,,,,,
1769163809.08706,1769163809.087373,44.0,0.0,4345.769043,4281.794922,4374.871582,4280.512695,4245.256348,4260.0,4291.794922,4292.563965,4294.102539,4272.563965,4587.94873,4539.871582,4431.410156,4481.282227,,,,,,,,,,,,,,,,,,,,,,,,,,,,,,,,,,,,,,,,,,,,,,,,,,,,,,,,,,,,,,,,,,,,,,
1769163809.094868,1769163809.095182,45.0,0.0,4342.436035,4276.794922,4377.436035,4277.563965,4245.128418,4263.333496,4294.358887,4289.743652,4289.358887,4267.05127,4585.769043,4538.717773,4430.0,4483.717773,,,,,,,,,,,,,,,,,,,,,,,,,,,,,,,,,,,,,,,,,,,,,,,,,,,,,,,,,,,,,,,,,,,,,,
1769163809.102677,1769163809.10289,46.0,0.0,4331.025879,4268.974121,4374.102539,4274.871582,4245.769043,4263.846191,4295.0,4292.436035,4288.717773,4264.871582,4584.358887,4536.538574,4425.256348,4476.794922,0.163596,0.977643,0.244701,0.224682,0.257069,0.202128,0.466309,0.17221,0.234482,0.217376,0.111251,0.476015,0.12155,0.109373,0.136272,0.245135,0.464477,0.098741,0.111717,0.13294,0.050045,0.187011,0.070187,0.048522,0.02974,0.885013,0.571619,0.499888,0.124185,0.104358,0.086365,0.289603,0.274227,0.063743,0.053026,0.364663,0.293036,0.666336,0.031305,0.066448,0.153259,0.551989,0.516736,0.078846,0.116735,0.283566,0.480831,0.528045,0.164421,0.197436,0.467117,0.603649,0.210332,0.150201,0.142751,1.005415,1.157703,0.275127,0.119069,0.194568,0.429174,0.938021,0.274591,0.169812,0.247372,0.862154,0.551407,0.304536,0.235966,0.305912
1769163809.110485,1769163809.110699,47.0,0.0,4322.436035,4266.922852,4368.589844,4275.256348,4245.0,4259.743652,4292.436035,4296.153809,4292.692383,4266.922852,4584.615234,4534.230957,4425.0,4471.794922,,,,,,,,,,,,,,,,,,,,,,,,,,,,,,,,,,,,,,,,,,,,,,,,,,,,,,,,,,,,,,,,,,,,,,
1769163809.118294,1769163809.118707,48.0,0.0,4327.179688,4275.769043,4373.589844,4278.974121,4245.512695,4262.436035,4293.589844,4295.512695,4291.666504,4265.769043,4584.358887,4535.641113,4426.794922,4475.897461,,,,,,,,,,,,,,,,,,,,,,,,,,,,,,,,,,,,,,,,,,,,,,,,,,,,,,,,,,,,,,,,,,,,,,
1769163809.126102,1769163809.126515,49.0,0.0,4339.102539,4284.358887,4382.692383,4284.487305,4249.230957,4266.282227,4294.615234,4293.717773,4288.974121,4264.743652,4585.641113,4538.846191,4428.333496,4478.077148,,,,,,,,,,,,,,,,,,,,,,,,,,,,,,,,,,,,,,,,,,,,,,,,,,,,,,,,,,,,,,,,,,,,,,
1769163809.133911,1769163809.134424,50.0,0.0,4342.436035,4284.358887,4381.410156,4283.589844,4250.512695,4265.512695,4293.717773,4295.641113,4295.256348,4266.794922,4588.974121,4538.974121,4429.230957,4477.05127,,,,,,,,,,,,,,,,,,,,,,,,,,,,,,,,,,,,,,,,,,,,,,,,,,,,,,,,,,,,,,,,,,,,,,
1769163809.141719,1769163809.142232,51.0,0.0,4332.692383,4280.897461,4373.717773,4279.102539,4247.436035,4264.487305,4294.615234,4296.410156,4294.743652,4266.282227,4588.717773,4537.179688,4430.897461,4478.717773,,,,,,,,,,,,,,,,,,,,,,,,,,,,,,,,,,,,,,,,,,,,,,,,,,,,,,,,,,,,,,,,,,,,,,
1769163809.149527,1769163809.15024,52.0,0.0,4322.179688,4276.538574,4370.0,4278.205078,4245.384766,4264.487305,4296.282227,4294.871582,4283.461426,4262.692383,4585.256348,4536.025879,4429.871582,4477.307617,,,,,,,,,,,,,,,,,,,,,,,,,,,,,,,,,,,,,,,,,,,,,,,,,,,,,,,,,,,,,,,,,,,,,,
1769163809.157336,1769163809.158049,53.0,0.0,4324.358887,4280.256348,4374.102539,4281.410156,4247.820313,4265.512695,4295.641113,4295.384766,4283.205078,4260.256348,4584.743652,4536.153809,4425.512695,4472.563965,,,,,,,,,,,,,,,,,,,,,,,,,,,,,,,,,,,,,,,,,,,,,,,,,,,,,,,,,,,,,,,,,,,,,,
1769163809.165144,1769163809.165757,54.0,0.0,4329.102539,4285.897461,4380.256348,4283.077148,4249.743652,4266.922852,4295.128418,4297.179688,4292.307617,4260.641113,4586.538574,4537.692383,4426.794922,4476.922852,,,,,,,,,,,,,,,,,,,,,,,,,,,,,,,,,,,,,,,,,,,,,,,,,,,,,,,,,,,,,,,,,,,,,,
1769163809.172953,1769163809.173566,55.0,0.0,4327.05127,4282.563965,4380.128418,4281.538574,4248.333496,4263.717773,4293.846191,4296.922852,4294.102539,4264.871582,4588.846191,4540.769043,4435.0,4485.512695,,,,,,,,,,,,,,,,,,,,,,,,,,,,,,,,,,,,,,,,,,,,,,,,,,,,,,,,,,,,,,,,,,,,,,
1769163809.180761,1769163809.181574,56.0,0.0,4325.769043,4279.743652,4375.0,4279.871582,4245.769043,4261.153809,4293.846191,4295.384766,4287.179688,4267.05127,4587.05127,4541.282227,4434.487305,4482.05127,,,,,,,,,,,,,,,,,,,,,,,,,,,,,,,,,,,,,,,,,,,,,,,,,,,,,,,,,,,,,,,,,,,,,,
1769163809.18857,1769163809.189383,57.0,0.0,4320.897461,4279.487305,4369.871582,4279.102539,4241.666504,4264.743652,4297.179688,4295.256348,4281.153809,4260.769043,4578.717773,4536.282227,4422.563965,4472.307617,,,,,,,,,,,,,,,,,,,,,,,,,,,,,,,,,,,,,,,,,,,,,,,,,,,,,,,,,,,,,,,,,,,,,,
1769163809.196378,1769163809.197091,58.0,0.0,4314.230957,4276.025879,4373.077148,4277.692383,4240.128418,4263.717773,4296.922852,4296.282227,4281.922852,4258.717773,4580.256348,4535.128418,4420.512695,4472.05127,,,,,,,,,,,,,,,,,,,,,,,,,,,,,,,,,,,,,,,,,,,,,,,,,,,,,,,,,,,,,,,,,,,,,,
1769163809.204187,1769163809.2049,59.0,0.0,4314.743652,4279.871582,4379.871582,4279.615234,4244.102539,4257.179688,4292.94873,4296.538574,4290.512695,4268.205078,4591.153809,4540.0,4430.641113,4479.230957,,,,,,,,,,,,,,,,,,,,,,,,,,,,,,,,,,,,,,,,,,,,,,,,,,,,,,,,,,,,,,,,,,,,,,
1769163809.211995,1769163809.212508,60.0,0.0,4316.538574,4291.282227,4382.179688,4288.333496,4248.333496,4258.974121,4292.307617,4295.256348,4293.461426,4276.538574,4594.358887,4542.05127,4437.05127,4481.410156,,,,,,,,,,,,,,,,,,,,,,,,,,,,,,,,,,,,,,,,,,,,,,,,,,,,,,,,,,,,,,,,,,,,,,
1769163809.219803,1769163809.220317,61.0,0.0,4323.077148,4296.025879,4384.615234,4296.282227,4248.589844,4259.358887,4292.94873,4295.128418,4285.128418,4276.410156,4592.05127,4540.0,4436.666504,4478.333496,,,,,,,,,,,,,,,,,,,,,,,,,,,,,,,,,,,,,,,,,,,,,,,,,,,,,,,,,,,,,,,,,,,,,,
1769163809.227612,1769163809.228025,62.0,0.0,4327.179688,4295.384766,4390.256348,4296.282227,4248.846191,4251.794922,4292.820313,4296.538574,4280.512695,4271.666504,4591.153809,4538.846191,4432.820313,4477.436035,0.119619,0.98723,0.202912,0.183262,0.261127,0.179002,0.430022,0.125703,0.209827,0.224045,0.091129,0.45732,0.111436,0.094693,0.139379,0.230417,0.435594,0.111139,0.108297,0.129753,0.05198,0.178939,0.06655,0.044435,0.028411,1.003235,0.607485,0.461363,0.126396,0.109273,0.059698,0.323883,0.241855,0.063212,0.053111,0.438479,0.301347,0.604873,0.032126,0.065764,0.207822,0.459824,0.371575,0.078992,0.125571,0.308892,0.44451,0.452296,0.157787,0.186864,0.4515,0.584796,0.203029,0.176969,0.154848,1.098342,1.182696,0.248804,0.123054,0.192924,0.412652,0.896384,0.280091,0.153493,0.25714,0.829597,0.573736,0.339208,0.252748,0.340876
1769163809.23542,1769163809.235834,63.0,0.0,4316.922852,4292.436035,4390.769043,4292.179688,4249.743652,4253.077148,4293.846191,4296.282227,4281.794922,4266.282227,4587.820313,4538.974121,4428.974121,4479.230957,,,,,,,,,,,,,,,,,,,,,,,,,,,,,,,,,,,,,,,,,,,,,,,,,,,,,,,,,,,,,,,,,,,,,,
1769163809.243229,1769163809.243842,64.0,0.0,4307.563965,4286.794922,4387.05127,4291.282227,4247.692383,4261.794922,4293.717773,4295.641113,4281.538574,4263.846191,4584.871582,4536.922852,4429.102539,4476.922852,,,,,,,,,,,,,,,,,,,,,,,,,,,,,,,,,,,,,,,,,,,,,,,,,,,,,,,,,,,,,,,,,,,,,,
1769163809.251037,1769163809.25165,65.0,0.0,4312.563965,4283.717773,4386.922852,4293.717773,4246.282227,4263.461426,4293.846191,4296.538574,4280.128418,4263.974121,4586.794922,4538.077148,4429.358887,4474.102539,,,,,,,,,,,,,,,,,,,,,,,,,,,,,,,,,,,,,,,,,,,,,,,,,,,,,,,,,,,,,,,,,,,,,,
1769163809.258846,1769163809.259359,66.0,0.0,4309.615234,4280.128418,4387.307617,4293.846191,4245.384766,4261.153809,4294.358887,4296.538574,4280.897461,4263.205078,4586.794922,4538.077148,4427.563965,4477.94873,,,,,,,,,,,,,,,,,,,,,,,,,,,,,,,,,,,,,,,,,,,,,,,,,,,,,,,,,,,,,,,,,,,,,,
1769163809.266654,1769163809.267167,67.0,0.0,4297.820313,4279.358887,4385.512695,4292.05127,4245.128418,4261.922852,4292.820313,4296.153809,4280.128418,4261.153809,4580.769043,4529.358887,4419.871582,4471.794922,,,,,,,,,,,,,,,,,,,,,,,,,,,,,,,,,,,,,,,,,,,,,,,,,,,,,,,,,,,,,,,,,,,,,,
1769163809.274463,1769163809.274776,68.0,0.0,4299.615234,4286.666504,4386.666504,4293.717773,4248.589844,4264.487305,4293.846191,4297.307617,4280.256348,4262.179688,4577.307617,4526.153809,4414.102539,4462.307617,,,,,,,,,,,,,,,,,,,,,,,,,,,,,,,,,,,,,,,,,,,,,,,,,,,,,,,,,,,,,,,,,,,,,,
1769163809.282271,1769163809.282584,69.0,0.0,4300.897461,4287.820313,4389.487305,4295.256348,4251.282227,4266.153809,4297.563965,4296.153809,4281.410156,4265.256348,4582.563965,4535.256348,4422.563965,4469.358887,,,,,,,,,,,,,,,,,,,,,,,,,,,,,,,,,,,,,,,,,,,,,,,,,,,,,,,,,,,,,,,,,,,,,,
1769163809.290079,1769163809.290293,70.0,0.0,4293.717773,4283.205078,4389.102539,4291.794922,4249.743652,4263.846191,4295.128418,4295.897461,4280.769043,4267.94873,4588.717773,4539.615234,4431.025879,4476.922852,,,,,,,,,,,,,,,,,,,,,,,,,,,,,,,,,,,,,,,,,,,,,,,,,,,,,,,,,,,,,,,,,,,,,,
1769163809.297888,1769163809.298101,71.0,0.0,4292.179688,4288.205078,4387.307617,4291.153809,4247.94873,4258.846191,4290.512695,4301.666504,4289.358887,4272.94873,4588.205078,4538.846191,4428.717773,4473.589844,,,,,,,,,,,,,,,,,,,,,,,,,,,,,,,,,,,,,,,,,,,,,,,,,,,,,,,,,,,,,,,,,,,,,,
1769163809.305696,1769163809.30611,72.0,0.0,4296.025879,4295.641113,4386.538574,4295.256348,4248.974121,4257.820313,4288.717773,4302.307617,4294.615234,4276.025879,4586.922852,4540.897461,4428.589844,4474.487305,,,,,,,,,,,,,,,,,,,,,,,,,,,,,,,,,,,,,,,,,,,,,,,,,,,,,,,,,,,,,,,,,,,,,,
1769163809.313505,1769163809.313918,73.0,0.0,4300.128418,4294.358887,4386.282227,4298.077148,4248.205078,4254.230957,4288.461426,4294.615234,4285.512695,4271.025879,4585.641113,4536.410156,4429.615234,4477.94873,,,,,,,,,,,,,,,,,,,,,,,,,,,,,,,,,,,,,,,,,,,,,,,,,,,,,,,,,,,,,,,,,,,,,,
1769163809.321313,1769163809.321827,74.0,0.0,4302.307617,4292.820313,4391.538574,4297.563965,4246.410156,4249.743652,4290.769043,4292.692383,4281.025879,4265.0,4583.717773,4531.538574,4427.307617,4472.692383,,,,,,,,,,,,,,,,,,,,,,,,,,,,,,,,,,,,,,,,,,,,,,,,,,,,,,,,,,,,,,,,,,,,,,
1769163809.329122,1769163809.329635,75.0,0.0,4301.153809,4293.589844,4395.512695,4296.153809,4246.794922,4256.410156,4287.94873,4296.538574,4285.512695,4265.0,4584.871582,4536.282227,4430.641113,4475.512695,,,,,,,,,,,,,,,,,,,,,,,,,,,,,,,,,,,,,,,,,,,,,,,,,,,,,,,,,,,,,,,,,,,,,,
1769163809.33693,1769163809.337643,76.0,0.0,4296.410156,4292.563965,4389.358887,4294.871582,4247.436035,4263.717773,4282.820313,4297.05127,4281.153809,4263.717773,4582.436035,4538.333496,4425.641113,4478.333496,,,,,,,,,,,,,,,,,,,,,,,,,,,,,,,,,,,,,,,,,,,,,,,,,,,,,,,,,,,,,,,,,,,,,,
1769163809.344739,1769163809.345452,77.0,0.0,4295.769043,4291.538574,4385.256348,4295.0,4245.512695,4257.307617,4286.794922,4296.794922,4280.384766,4260.641113,4577.05127,4535.769043,4411.922852,4467.563965,,,,,,,,,,,,,,,,,,,,,,,,,,,,,,,,,,,,,,,,,,,,,,,,,,,,,,,,,,,,,,,,,,,,,,
1769163809.352547,1769163809.35336,78.0,0.0,4295.384766,4287.436035,4388.461426,4294.487305,4240.128418,4250.384766,4290.256348,4297.820313,4290.0,4263.589844,4581.282227,4535.897461,4418.589844,4468.333496,0.110372,0.956706,0.192817,0.157237,0.252833,0.158263,0.368088,0.097076,0.176789,0.219516,0.085549,0.423645,0.108291,0.087309,0.138694,0.239371,0.393013,0.126391,0.105314,0.122088,0.051538,0.159225,0.057403,0.038872,0.026731,1.010351,0.612585,0.38785,0.133008,0.118847,0.041631,0.335063,0.205937,0.065087,0.054532,0.491759,0.291003,0.490015,0.036046,0.064364,0.271999,0.389918,0.236206,0.079116,0.132796,0.339181,0.420125,0.366781,0.148599,0.176652,0.432348,0.532585,0.188987,0.208117,0.164508,1.114453,1.119775,0.208891,0.137267,0.186297,0.403691,0.814822,0.272314,0.143189,0.25231,0.793332,0.582497,0.35596,0.290559,0.358853
1769163809.360356,1769163809.361168,79.0,0.0,4290.384766,4282.307617,4387.94873,4292.436035,4234.871582,4251.922852,4284.615234,4297.05127,4287.05127,4266.794922,4583.333496,4535.897461,4427.820313,4475.769043,,,,,,,,,,,,,,,,,,,,,,,,,,,,,,,,,,,,,,,,,,,,,,,,,,,,,,,,,,,,,,,,,,,,,,
1769163809.368164,1769163809.368777,80.0,0.0,4287.05127,4280.128418,4387.563965,4292.436035,4234.615234,4251.794922,4279.102539,4295.769043,4276.538574,4262.692383,4574.487305,4535.0,4414.358887,4465.256348,,,,,,,,,,,,,,,,,,,,,,,,,,,,,,,,,,,,,,,,,,,,,,,,,,,,,,,,,,,,,,,,,,,,,,
1769163809.375973,1769163809.376586,81.0,0.0,4289.230957,4280.512695,4391.666504,4294.871582,4235.0,4249.358887,4282.179688,4293.846191,4280.128418,4261.025879,4572.436035,4535.384766,4409.871582,4461.538574,,,,,,,,,,,,,,,,,,,,,,,,,,,,,,,,,,,,,,,,,,,,,,,,,,,,,,,,,,,,,,,,,,,,,,
1769163809.383781,1769163809.384494,82.0,0.0,4292.307617,4282.563965,4392.179688,4295.641113,4233.717773,4248.461426,4287.05127,4296.025879,4290.256348,4263.589844,4579.615234,4535.128418,4423.461426,4473.077148,,,,,,,,,,,,,,,,,,,,,,,,,,,,,,,,,,,,,,,,,,,,,,,,,,,,,,,,,,,,,,,,,,,,,,
1769163809.39159,1769163809.392302,83.0,0.0,4290.897461,4283.205078,4390.897461,4295.769043,4239.871582,4250.897461,4287.179688,4298.589844,4290.512695,4264.615234,4582.820313,4535.256348,4426.025879,4471.025879,,,,,,,,,,,,,,,,,,,,,,,,,,,,,,,,,,,,,,,,,,,,,,,,,,,,,,,,,,,,,,,,,,,,,,
1769163809.399398,1769163809.399911,84.0,0.0,4288.589844,4282.179688,4392.05127,4296.538574,4247.05127,4253.717773,4285.0,4294.743652,4288.717773,4268.333496,4583.205078,4536.666504,4423.077148,4462.563965,,,,,,,,,,,,,,,,,,,,,,,,,,,,,,,,,,,,,,,,,,,,,,,,,,,,,,,,,,,,,,,,,,,,,,
1769163809.407206,1769163809.407719,85.0,0.0,4286.538574,4280.384766,4392.05127,4297.436035,4242.307617,4253.846191,4285.384766,4292.94873,4292.179688,4272.05127,4583.974121,4538.333496,4428.205078,4466.153809,,,,,,,,,,,,,,,,,,,,,,,,,,,,,,,,,,,,,,,,,,,,,,,,,,,,,,,,,,,,,,,,,,,,,,
1769163809.415015,1769163809.415428,86.0,0.0,4280.256348,4282.563965,4390.641113,4297.05127,4238.974121,4256.538574,4288.461426,4296.922852,4289.102539,4270.128418,4581.922852,4539.615234,4427.563965,4468.461426,,,,,,,,,,,,,,,,,,,,,,,,,,,,,,,,,,,,,,,,,,,,,,,,,,,,,,,,,,,,,,,,,,,,,,
1769163809.422823,1769163809.423236,87.0,0.0,4276.025879,4288.077148,4392.692383,4297.692383,4247.05127,4262.820313,4288.717773,4296.922852,4279.487305,4265.0,4581.922852,4539.615234,4424.487305,4469.743652,,,,,,,,,,,,,,,,,,,,,,,,,,,,,,,,,,,,,,,,,,,,,,,,,,,,,,,,,,,,,,,,,,,,,,
1769163809.430632,1769163809.430845,88.0,0.0,4280.128418,4288.461426,4394.487305,4300.384766,4248.974121,4263.461426,4286.410156,4293.461426,4280.641113,4266.282227,4583.974121,4539.615234,4426.410156,4474.743652,,,,,,,,,,,,,,,,,,,,,,,,,,,,,,,,,,,,,,,,,,,,,,,,,,,,,,,,,,,,,,,,,,,,,,
1769163809.43844,1769163809.438654,89.0,0.0,4282.179688,4281.922852,4391.025879,4299.230957,4237.692383,4258.461426,4288.205078,4296.153809,4291.922852,4273.589844,4584.358887,4540.256348,4426.794922,4474.743652,,,,,,,,,,,,,,,,,,,,,,,,,,,,,,,,,,,,,,,,,,,,,,,,,,,,,,,,,,,,,,,,,,,,,,
1769163809.446249,1769163809.446562,90.0,0.0,4274.487305,4279.487305,4387.563965,4293.717773,4231.025879,4257.563965,4290.641113,4296.538574,4294.487305,4276.025879,4586.282227,4538.846191,4426.666504,4472.820313,,,,,,,,,,,,,,,,,,,,,,,,,,,,,,,,,,,,,,,,,,,,,,,,,,,,,,,,,,,,,,,,,,,,,,
1769163809.454057,1769163809.45437,91.0,0.0,4267.436035,4282.05127,4388.974121,4292.563965,4234.487305,4259.358887,4286.794922,4294.230957,4290.897461,4273.461426,4586.410156,4538.077148,4427.436035,4473.205078,,,,,,,,,,,,,,,,,,,,,,,,,,,,,,,,,,,,,,,,,,,,,,,,,,,,,,,,,,,,,,,,,,,,,,
1769163809.461866,1769163809.462379,92.0,0.0,4265.512695,4279.871582,4391.538574,4297.436035,4235.384766,4260.384766,4284.615234,4297.692383,4293.717773,4273.846191,4585.897461,4539.615234,4426.794922,4475.512695,,,,,,,,,,,,,,,,,,,,,,,,,,,,,,,,,,,,,,,,,,,,,,,,,,,,,,,,,,,,,,,,,,,,,,
1769163809.469674,1769163809.470187,93.0,0.0,4268.974121,4280.897461,4392.820313,4302.179688,4236.794922,4263.205078,4291.025879,4300.512695,4296.153809,4278.077148,4588.077148,4540.641113,4426.538574,4477.179688,,,,,,,,,,,,,,,,,,,,,,,,,,,,,,,,,,,,,,,,,,,,,,,,,,,,,,,,,,,,,,,,,,,,,,
1769163809.477482,1769163809.477896,94.0,0.0,4273.077148,4287.563965,4396.153809,4307.563965,4243.974121,4264.871582,4293.333496,4298.974121,4294.358887,4279.615234,4588.717773,4541.025879,4430.0,4477.05127,0.118799,0.881897,0.193966,0.158447,0.235408,0.153123,0.300388,0.084197,0.147125,0.205677,0.091011,0.377512,0.107316,0.087588,0.13473,0.264157,0.347492,0.139729,0.103311,0.110937,0.052434,0.133966,0.045518,0.033365,0.024611,0.891739,0.581891,0.302307,0.138675,0.127936,0.034425,0.320398,0.172345,0.068681,0.055504,0.504453,0.259906,0.350004,0.042356,0.062353,0.318274,0.348397,0.139994,0.081237,0.132836,0.348055,0.403144,0.294316,0.139656,0.164876,0.383157,0.454435,0.173349,0.233947,0.170085,1.026306,0.975372,0.165175,0.155271,0.176802,0.370939,0.714015,0.253232,0.136927,0.235219,0.715945,0.574648,0.344789,0.327044,0.350402
1769163809.485291,1769163809.485704,95.0,0.0,4270.0,4286.153809,4397.436035,4310.641113,4247.692383,4263.589844,4288.205078,4296.794922,4293.205078,4280.512695,4585.897461,4542.436035,4431.025879,4476.153809,,,,,,,,,,,,,,,,,,,,,,,,,,,,,,,,,,,,,,,,,,,,,,,,,,,,,,,,,,,,,,,,,,,,,,
1769163809.493099,1769163809.493313,96.0,0.0,4262.692383,4279.358887,4391.922852,4308.846191,4242.563965,4262.563965,4288.333496,4295.384766,4288.333496,4277.179688,4579.743652,4539.743652,4419.743652,4465.512695,,,,,,,,,,,,,,,,,,,,,,,,,,,,,,,,,,,,,,,,,,,,,,,,,,,,,,,,,,,,,,,,,,,,,,
1769163809.500908,1769163809.501121,97.0,0.0,4262.563965,4280.128418,4389.230957,4309.487305,4236.025879,4263.461426,4293.205078,4294.615234,4284.743652,4271.666504,4578.333496,4535.512695,4413.846191,4458.589844,,,,,,,,,,,,,,,,,,,,,,,,,,,,,,,,,,,,,,,,,,,,,,,,,,,,,,,,,,,,,,,,,,,,,,
1769163809.508716,1769163809.50883,98.0,0.0,4267.05127,4282.692383,4391.538574,4312.05127,4233.589844,4259.615234,4289.102539,4295.897461,4292.179688,4276.538574,4586.410156,4537.563965,4427.94873,4473.461426,,,,,,,,,,,,,,,,,,,,,,,,,,,,,,,,,,,,,,,,,,,,,,,,,,,,,,,,,,,,,,,,,,,,,,
1769163809.516525,1769163809.516638,99.0,0.0,4263.077148,4278.717773,4391.025879,4309.871582,4234.743652,4255.256348,4280.512695,4295.897461,4295.256348,4280.512695,4591.666504,4539.615234,4433.717773,4481.153809,,,,,,,,,,,,,,,,,,,,,,,,,,,,,,,,,,,,,,,,,,,,,,,,,,,,,,,,,,,,,,,,,,,,,,
1769163809.524333,1769163809.524646,100.0,0.0,4255.128418,4275.384766,4392.05127,4308.974121,4236.538574,4258.461426,4285.0,4295.128418,4289.615234,4275.897461,4586.282227,4538.205078,4421.153809,4464.871582,,,,,,,,,,,,,,,,,,,,,,,,,,,,,,,,,,,,,,,,,,,,,,,,,,,,,,,,,,,,,,,,,,,,,,
1769163809.532142,1769163809.532455,101.0,0.0,4256.538574,4278.717773,4396.025879,4314.743652,4235.384766,4262.820313,4296.666504,4295.512695,4290.384766,4272.692383,4584.230957,4538.589844,4419.487305,4460.897461,,,,,,,,,,,,,,,,,,,,,,,,,,,,,,,,,,,,,,,,,,,,,,,,,,,,,,,,,,,,,,,,,,,,,,
1769163809.53995,1769163809.540363,102.0,0.0,4261.538574,4280.641113,4393.461426,4319.743652,4233.717773,4263.717773,4294.615234,4295.769043,4294.230957,4270.256348,4591.153809,4542.05127,4428.589844,4475.769043,,,,,,,,,,,,,,,,,,,,,,,,,,,,,,,,,,,,,,,,,,,,,,,,,,,,,,,,,,,,,,,,,,,,,,
1769163809.547758,1769163809.548172,103.0,0.0,4253.846191,4275.897461,4387.436035,4318.077148,4233.589844,4263.974121,4290.0,4302.436035,4293.077148,4266.922852,4593.077148,4542.307617,4428.589844,4476.538574,,,,,,,,,,,,,,,,,,,,,,,,,,,,,,,,,,,,,,,,,,,,,,,,,,,,,,,,,,,,,,,,,,,,,,
1769163809.555567,1769163809.55618,104.0,0.0,4246.538574,4275.384766,4390.0,4318.846191,4233.589844,4265.128418,4294.871582,4309.487305,4293.461426,4273.333496,4588.205078,4540.769043,4427.563965,4470.128418,,,,,,,,,,,,,,,,,,,,,,,,,,,,,,,,,,,,,,,,,,,,,,,,,,,,,,,,,,,,,,,,,,,,,,
1769163809.563375,1769163809.563988,105.0,0.0,4256.282227,4280.769043,4397.05127,4324.487305,4234.615234,4266.794922,4296.410156,4307.436035,4294.743652,4280.128418,4587.307617,4545.897461,4431.410156,4473.974121,,,,,,,,,,,,,,,,,,,,,,,,,,,,,,,,,,,,,,,,,,,,,,,,,,,,,,,,,,,,,,,,,,,,,,
1769163809.571184,1769163809.571697,106.0,0.0,4264.743652,4282.05127,4401.282227,4328.974121,4236.153809,4264.102539,4292.436035,4303.333496,4294.102539,4273.077148,4595.384766,4554.871582,4432.179688,4479.871582,,,,,,,,,,,,,,,,,,,,,,,,,,,,,,,,,,,,,,,,,,,,,,,,,,,,,,,,,,,,,,,,,,,,,,
1769163809.578992,1769163809.579505,107.0,0.0,4265.512695,4286.922852,4404.102539,4332.820313,4236.282227,4259.871582,4292.307617,4301.153809,4294.230957,4273.077148,4599.230957,4554.871582,4431.538574,4480.128418,,,,,,,,,,,,,,,,,,,,,,,,,,,,,,,,,,,,,,,,,,,,,,,,,,,,,,,,,,,,,,,,,,,,,,
1769163809.586801,1769163809.587114,108.0,0.0,4262.05127,4292.436035,4402.563965,4337.94873,4235.897461,4260.641113,4291.666504,4297.179688,4294.487305,4279.102539,4590.769043,4544.871582,4431.666504,4478.205078,,,,,,,,,,,,,,,,,,,,,,,,,,,,,,,,,,,,,,,,,,,,,,,,,,,,,,,,,,,,,,,,,,,,,,
1769163809.594609,1769163809.594922,109.0,0.0,4251.666504,4285.128418,4398.846191,4339.487305,4236.666504,4264.230957,4287.436035,4295.0,4293.717773,4272.436035,4584.743652,4538.974121,4430.769043,4477.179688,,,,,,,,,,,,,,,,,,,,,,,,,,,,,,,,,,,,,,,,,,,,,,,,,,,,,,,,,,,,,,,,,,,,,,
1769163809.602418,1769163809.602631,110.0,0.0,4246.282227,4278.717773,4398.461426,4339.743652,4235.769043,4263.974121,4286.153809,4296.538574,4293.846191,4268.333496,4588.077148,4540.897461,4430.384766,4477.436035,0.149345,0.770555,0.192997,0.192789,0.213894,0.170494,0.250515,0.085987,0.132233,0.185569,0.103804,0.324916,0.106706,0.096413,0.128824,0.302731,0.310402,0.146452,0.104224,0.097743,0.060749,0.113368,0.035125,0.029887,0.022587,0.687417,0.520346,0.227874,0.138051,0.132071,0.036341,0.28585,0.143517,0.071746,0.054901,0.468139,0.215631,0.217773,0.049847,0.059851,0.326876,0.327382,0.088384,0.088525,0.125477,0.327487,0.384914,0.246681,0.134772,0.149874,0.301051,0.363932,0.161155,0.247102,0.169975,0.849861,0.779331,0.129105,0.172055,0.166275,0.302995,0.615207,0.229394,0.135779,0.212416,0.596388,0.547584,0.307038,0.345679,0.315371
1769163809.610226,1769163809.610439,111.0,0.0,4250.512695,4281.922852,4397.563965,4341.538574,4231.794922,4261.922852,4289.358887,4297.820313,4293.333496,4273.589844,4590.384766,4541.794922,4429.615234,4477.94873,,,,,,,,,,,,,,,,,,,,,,,,,,,,,,,,,,,,,,,,,,,,,,,,,,,,,,,,,,,,,,,,,,,,,,
1769163809.618034,1769163809.618048,112.0,0.0,4249.487305,4279.230957,4394.743652,4338.717773,4229.615234,4261.282227,4290.512695,4296.410156,4291.538574,4272.820313,4586.922852,4539.230957,4428.461426,4475.0,,,,,,,,,,,,,,,,,,,,,,,,,,,,,,,,,,,,,,,,,,,,,,,,,,,,,,,,,,,,,,,,,,,,,,
1769163809.625843,1769163809.625856,113.0,0.0,4247.94873,4277.307617,4396.153809,4337.307617,4229.358887,4260.384766,4290.128418,4293.974121,4292.94873,4269.743652,4585.897461,4539.487305,4428.461426,4469.487305,,,,,,,,,,,,,,,,,,,,,,,,,,,,,,,,,,,,,,,,,,,,,,,,,,,,,,,,,,,,,,,,,,,,,,
1769163809.633651,1769163809.633565,114.0,0.0,4248.461426,4280.384766,4396.794922,4342.692383,4230.0,4263.461426,4293.974121,4297.563965,4295.641113,4268.717773,4589.487305,4541.153809,4428.461426,4464.358887,,,,,,,,,,,,,,,,,,,,,,,,,,,,,,,,,,,,,,,,,,,,,,,,,,,,,,,,,,,,,,,,,,,,,,
1769163809.64146,1769163809.641373,115.0,0.0,4236.794922,4269.871582,4389.102539,4337.179688,4230.384766,4268.461426,4296.794922,4302.692383,4295.641113,4264.615234,4589.230957,4537.179688,4428.077148,4461.538574,,,,,,,,,,,,,,,,,,,,,,,,,,,,,,,,,,,,,,,,,,,,,,,,,,,,,,,,,,,,,,,,,,,,,,
1769163809.649269,1769163809.649382,116.0,0.0,4224.743652,4258.717773,4385.0,4327.307617,4226.922852,4267.820313,4295.897461,4304.615234,4294.615234,4267.692383,4584.230957,4534.615234,4425.897461,4465.384766,,,,,,,,,,,,,,,,,,,,,,,,,,,,,,,,,,,,,,,,,,,,,,,,,,,,,,,,,,,,,,,,,,,,,,
1769163809.657077,1769163809.65719,117.0,0.0,4231.153809,4269.487305,4392.179688,4333.717773,4223.589844,4261.922852,4294.102539,4308.461426,4296.282227,4280.0,4589.743652,4539.230957,4427.94873,4474.102539,,,,,,,,,,,,,,,,,,,,,,,,,,,,,,,,,,,,,,,,,,,,,,,,,,,,,,,,,,,,,,,,,,,,,,
1769163809.664885,1769163809.665098,118.0,0.0,4239.871582,4281.666504,4398.333496,4345.256348,4225.897461,4260.384766,4293.205078,4306.025879,4298.974121,4283.717773,4600.769043,4543.077148,4438.333496,4479.743652,,,,,,,,,,,,,,,,,,,,,,,,,,,,,,,,,,,,,,,,,,,,,,,,,,,,,,,,,,,,,,,,,,,,,,
1769163809.672694,1769163809.672907,119.0,0.0,4237.307617,4278.974121,4396.666504,4343.846191,4228.205078,4266.282227,4295.512695,4295.512695,4295.897461,4280.0,4596.282227,4541.153809,4441.538574,4478.589844,,,,,,,,,,,,,,,,,,,,,,,,,,,,,,,,,,,,,,,,,,,,,,,,,,,,,,,,,,,,,,,,,,,,,,
1769163809.680502,1769163809.680516,120.0,0.0,4233.974121,4276.666504,4391.153809,4341.282227,4225.512695,4266.025879,4295.256348,4292.563965,4285.769043,4274.871582,4587.179688,4538.589844,4432.436035,4476.025879,,,,,,,,,,,,,,,,,,,,,,,,,,,,,,,,,,,,,,,,,,,,,,,,,,,,,,,,,,,,,,,,,,,,,,
1769163809.688311,1769163809.688324,121.0,0.0,4233.205078,4278.077148,4388.589844,4343.461426,4225.512695,4257.436035,4289.230957,4294.871582,4280.641113,4269.743652,4587.436035,4539.615234,4428.589844,4475.512695,,,,,,,,,,,,,,,,,,,,,,,,,,,,,,,,,,,,,,,,,,,,,,,,,,,,,,,,,,,,,,,,,,,,,,
1769163809.696119,1769163809.696033,122.0,0.0,4233.589844,4277.05127,4390.128418,4341.794922,4224.102539,4256.538574,4286.538574,4294.102539,4284.487305,4268.974121,4589.102539,4538.077148,4431.153809,4475.897461,,,,,,,,,,,,,,,,,,,,,,,,,,,,,,,,,,,,,,,,,,,,,,,,,,,,,,,,,,,,,,,,,,,,,,
1769163809.703928,1769163809.703841,123.0,0.0,4231.922852,4273.205078,4389.358887,4339.487305,4221.153809,4265.512695,4292.94873,4295.128418,4285.512695,4267.820313,4582.820313,4530.641113,4426.410156,4470.256348,,,,,,,,,,,,,,,,,,,,,,,,,,,,,,,,,,,,,,,,,,,,,,,,,,,,,,,,,,,,,,,,,,,,,,
1769163809.711736,1769163809.711849,124.0,0.0,4224.230957,4267.692383,4387.563965,4343.077148,4225.512695,4267.692383,4295.512695,4294.358887,4278.333496,4262.179688,4573.461426,4521.922852,4422.307617,4458.461426,,,,,,,,,,,,,,,,,,,,,,,,,,,,,,,,,,,,,,,,,,,,,,,,,,,,,,,,,,,,,,,,,,,,,,
1769163809.719545,1769163809.719658,125.0,0.0,4222.94873,4266.025879,4388.974121,4343.974121,4226.922852,4262.179688,4288.974121,4291.410156,4278.461426,4266.153809,4573.846191,4522.307617,4427.179688,4456.153809,,,,,,,,,,,,,,,,,,,,,,,,,,,,,,,,,,,,,,,,,,,,,,,,,,,,,,,,,,,,,,,,,,,,,,
1769163809.727353,1769163809.727566,126.0,0.0,4227.179688,4273.461426,4390.0,4342.436035,4219.615234,4261.666504,4287.94873,4295.256348,4289.615234,4275.384766,4584.743652,4533.077148,4430.897461,4463.333496,0.195758,0.646268,0.185799,0.253559,0.192783,0.207086,0.240393,0.102669,0.137208,0.162787,0.126832,0.275861,0.108749,0.113397,0.12191,0.330041,0.290598,0.145133,0.109089,0.084242,0.077874,0.109625,0.03387,0.030764,0.021866,0.467466,0.44283,0.179802,0.129194,0.129306,0.044187,0.244591,0.119895,0.071406,0.053283,0.388726,0.171898,0.118584,0.057113,0.056959,0.297096,0.311486,0.071171,0.103275,0.11525,0.282278,0.363382,0.221314,0.135082,0.131965,0.20651,0.280826,0.154358,0.243192,0.163432,0.630815,0.577243,0.109025,0.183303,0.155047,0.222535,0.535243,0.208961,0.137751,0.192074,0.464605,0.503168,0.253355,0.335885,0.263764
1769163809.735161,1769163809.735374,127.0,0.0,4224.230957,4278.846191,4388.846191,4346.794922,4216.410156,4261.666504,4293.333496,4298.717773,4290.256348,4271.538574,4588.589844,4535.769043,4429.487305,4462.692383,,,,,,,,,,,,,,,,,,,,,,,,,,,,,,,,,,,,,,,,,,,,,,,,,,,,,,,,,,,,,,,,,,,,,,
1769163809.74297,1769163809.743383,0.0,0.0,4218.205078,4277.179688,4391.666504,4350.384766,4220.384766,4257.820313,4294.615234,4296.282227,4279.230957,4265.769043,4583.461426,4529.230957,4427.179688,4459.871582,,,,,,,,,,,,,,,,,,,,,,,,,,,,,,,,,,,,,,,,,,,,,,,,,,,,,,,,,,,,,,,,,,,,,,
1769163809.750778,1769163809.751191,1.0,0.0,4217.94873,4276.153809,4394.615234,4345.769043,4220.897461,4257.05127,4292.307617,4295.769043,4282.94873,4272.94873,4584.615234,4531.410156,4427.307617,4467.692383,,,,,,,,,,,,,,,,,,,,,,,,,,,,,,,,,,,,,,,,,,,,,,,,,,,,,,,,,,,,,,,,,,,,,,
1769163809.758587,1769163809.7591,2.0,0.0,4216.922852,4273.589844,4391.153809,4340.512695,4217.820313,4258.589844,4290.641113,4297.563965,4295.128418,4277.692383,4586.794922,4538.717773,4428.717773,4472.436035,,,,,,,,,,,,,,,,,,,,,,,,,,,,,,,,,,,,,,,,,,,,,,,,,,,,,,,,,,,,,,,,,,,,,,
1769163809.766395,1769163809.766908,3.0,0.0,4218.077148,4268.974121,4387.436035,4344.871582,4215.769043,4258.077148,4288.589844,4296.153809,4287.436035,4273.974121,4583.717773,4536.794922,4430.0,4463.974121,,,,,,,,,,,,,,,,,,,,,,,,,,,,,,,,,,,,,,,,,,,,,,,,,,,,,,,,,,,,,,,,,,,,,,
1769163809.774204,1769163809.774916,4.0,0.0,4220.512695,4266.282227,4388.461426,4350.256348,4215.128418,4258.333496,4289.358887,4293.077148,4276.538574,4272.436035,4582.692383,4533.077148,4428.077148,4458.077148,,,,,,,,,,,,,,,,,,,,,,,,,,,,,,,,,,,,,,,,,,,,,,,,,,,,,,,,,,,,,,,,,,,,,,
1769163809.782012,1769163809.782725,5.0,0.0,4216.794922,4266.538574,4390.769043,4346.922852,4217.820313,4261.538574,4293.846191,4295.0,4282.820313,4276.282227,4584.615234,4537.436035,4426.282227,4468.077148,,,,,,,,,,,,,,,,,,,,,,,,,,,,,,,,,,,,,,,,,,,,,,,,,,,,,,,,,,,,,,,,,,,,,,
1769163809.789821,1769163809.790433,6.0,0.0,4215.641113,4267.179688,4388.333496,4342.05127,4218.589844,4262.436035,4294.230957,4297.436035,4285.641113,4278.717773,4584.358887,4536.538574,4425.897461,4474.743652,,,,,,,,,,,,,,,,,,,,,,,,,,,,,,,,,,,,,,,,,,,,,,,,,,,,,,,,,,,,,,,,,,,,,,
1769163809.797629,1769163809.798242,7.0,0.0,4213.461426,4265.512695,4384.615234,4342.436035,4219.230957,4261.153809,4292.94873,4294.230957,4278.717773,4276.282227,4578.974121,4530.256348,4422.563965,4465.897461,,,,,,,,,,,,,,,,,,,,,,,,,,,,,,,,,,,,,,,,,,,,,,,,,,,,,,,,,,,,,,,,,,,,,,
1769163809.805437,1769163809.80585,8.0,0.0,4208.589844,4261.922852,4387.563965,4343.589844,4219.358887,4262.307617,4295.0,4292.692383,4277.179688,4266.410156,4570.384766,4523.974121,4414.743652,4457.820313,,,,,,,,,,,,,,,,,,,,,,,,,,,,,,,,,,,,,,,,,,,,,,,,,,,,,,,,,,,,,,,,,,,,,,
