Timestamp,OriginalTimestamp,EEG.Counter,EEG.Interpolated,EEG.AF3,EEG.F7,EEG.F3,EEG.FC5,EEG.T7,EEG.P7,EEG.O1,EEG.O2,EEG.P8,EEG.T8,EEG.FC6,EEG.F4,EEG.F8,EEG.AF4,POW.AF3.Theta,POW.AF3.Alpha,POW.AF3.BetaL,POW.AF3.BetaH,POW.AF3.Gamma,POW.F7.Theta,POW.F7.Alpha,POW.F7.BetaL,POW.F7.BetaH,POW.F7.Gamma,POW.F3.Theta,POW.F3.Alpha,POW.F3.BetaL,POW.F3.BetaH,POW.F3.Gamma,POW.FC5.Theta,POW.FC5.Alpha,POW.FC5.BetaL,POW.FC5.BetaH,POW.FC5.Gamma,POW.T7.Theta,POW.T7.Alpha,POW.T7.BetaL,POW.T7.BetaH,POW.T7.Gamma,POW.P7.Theta,POW.P7.Alpha,POW.P7.BetaL,POW.P7.BetaH,POW.P7.Gamma,POW.O1.Theta,POW.O1.Alpha,POW.O1.BetaL,POW.O1.BetaH,POW.O1.Gamma,POW.O2.Theta,POW.O2.Alpha,POW.O2.BetaL,POW.O2.BetaH,POW.O2.Gamma,POW.P8.Theta,POW.P8.Alpha,POW.P8.BetaL,POW.P8.BetaH,POW.P8.Gamma,POW.T8.Theta,POW.T8.Alpha,POW.T8.BetaL,POW.T8.BetaH,POW.T8.Gamma,POW.FC6.Theta,POW.FC6.Alpha,POW.FC6.BetaL,POW.FC6.BetaH,POW.FC6.Gamma,POW.F4.Theta,POW.F4.Alpha,POW.F4.BetaL,POW.F4.BetaH,POW.F4.Gamma,POW.F8.Theta,POW.F8.Alpha,POW.F8.BetaL,POW.F8.BetaH,POW.F8.Gamma,POW.AF4.Theta,POW.AF4.Alpha,POW.AF4.BetaL,POW.AF4.BetaH,POW.AF4.Gamma
1768972437.48013,1768972437.481726,53.0,0.0,4326.538574,4410.641113,4328.846191,4366.666504,4359.487305,4349.358887,4341.025879,4333.333496,4303.717773,4391.153809,4421.538574,4459.743652,4327.94873,4383.333496,,,,,,,,,,,,,,,,,,,,,,,,,,,,,,,,,,,,,,,,,,,,,,,,,,,,,,,,,,,,,,,,,,,,,,
1768972437.487939,1768972437.489435,54.0,0.0,4326.538574,4407.307617,4329.358887,4368.461426,4360.256348,4354.102539,4347.05127,4337.436035,4303.589844,4387.307617,4414.743652,4460.256348,4311.538574,4383.974121,,,,,,,,,,,,,,,,,,,,,,,,,,,,,,,,,,,,,,,,,,,,,,,,,,,,,,,,,,,,,,,,,,,,,,
1768972437.495747,1768972437.497243,55.0,0.0,4335.769043,4411.410156,4333.717773,4375.384766,4364.230957,4352.436035,4350.769043,4336.794922,4303.974121,4382.692383,4415.128418,4456.282227,4309.102539,4379.871582,,,,,,,,,,,,,,,,,,,,,,,,,,,,,,,,,,,,,,,,,,,,,,,,,,,,,,,,,,,,,,,,,,,,,,
1768972437.503555,1768972437.504852,56.0,0.0,4340.512695,4413.333496,4338.974121,4374.487305,4366.410156,4350.897461,4346.410156,4334.487305,4306.794922,4378.717773,4416.794922,4455.384766,4312.179688,4380.0,,,,,,,,,,,,,,,,,,,,,,,,,,,,,,,,,,,,,,,,,,,,,,,,,,,,,,,,,,,,,,,,,,,,,,
1768972437.511364,1768972437.51266,57.0,0.0,4339.487305,4409.743652,4340.384766,4369.871582,4365.0,4347.94873,4342.05127,4331.666504,4307.307617,4377.94873,4416.538574,4460.0,4310.512695,4386.538574,,,,,,,,,,,,,,,,,,,,,,,,,,,,,,,,,,,,,,,,,,,,,,,,,,,,,,,,,,,,,,,,,,,,,,
1768972437.519172,1768972437.520369,58.0,0.0,4339.358887,4410.0,4339.743652,4370.0,4365.897461,4349.487305,4348.333496,4331.410156,4308.974121,4377.692383,4417.94873,4463.717773,4311.538574,4387.563965,,,,,,,,,,,,,,,,,,,,,,,,,,,,,,,,,,,,,,,,,,,,,,,,,,,,,,,,,,,,,,,,,,,,,,
1768972437.526981,1768972437.528177,59.0,0.0,4340.641113,4413.333496,4341.282227,4372.692383,4370.769043,4357.179688,4355.769043,4334.230957,4315.897461,4376.538574,4417.94873,4467.179688,4317.820313,4384.871582,,,,,,,,,,,,,,,,,,,,,,,,,,,,,,,,,,,,,,,,,,,,,,,,,,,,,,,,,,,,,,,,,,,,,,
1768972437.534789,1768972437.536186,60.0,0.0,4342.436035,4410.256348,4343.717773,4372.692383,4373.846191,4360.0,4353.974121,4331.282227,4316.538574,4373.846191,4418.077148,4470.769043,4322.436035,4386.538574,,,,,,,,,,,,,,,,,,,,,,,,,,,,,,,,,,,,,,,,,,,,,,,,,,,,,,,,,,,,,,,,,,,,,,
1768972437.542598,1768972437.543994,61.0,0.0,4343.461426,4400.256348,4346.666504,4367.94873,4370.512695,4356.410156,4352.179688,4322.820313,4308.461426,4368.077148,4418.205078,4469.615234,4319.743652,4387.563965,,,,,,,,,,,,,,,,,,,,,,,,,,,,,,,,,,,,,,,,,,,,,,,,,,,,,,,,,,,,,,,,,,,,,,
1768972437.550406,1768972437.551902,62.0,0.0,4342.563965,4392.94873,4347.563965,4363.461426,4363.974121,4354.871582,4355.512695,4318.846191,4305.0,4363.717773,4415.384766,4468.717773,4313.333496,4382.179688,2.495751,0.755245,0.461022,0.37913,0.135988,0.758349,0.201888,0.323993,0.252467,0.134698,0.637127,0.486796,0.235473,0.164645,0.067443,0.380755,0.286636,0.152341,0.111838,0.063749,0.354187,0.165239,0.165555,0.10792,0.038687,0.2069,0.289168,0.225034,0.217091,0.162025,0.229289,0.518958,0.291321,0.152456,0.248254,0.429256,0.617707,0.086294,0.159082,0.191122,0.558037,0.466898,0.236081,0.226572,0.112583,0.583969,0.471781,0.161657,0.291157,0.117782,1.01823,0.560087,0.176836,0.330354,0.130225,1.213386,0.458735,0.419754,0.417056,0.177905,1.095968,0.687612,0.21165,0.32612,0.229535,7.652114,1.388501,0.953885,0.317835,0.242651
1768972437.558215,1768972437.559711,63.0,0.0,4340.897461,4394.743652,4345.384766,4365.384766,4364.230957,4360.0,4357.436035,4320.256348,4308.205078,4362.820313,4413.333496,4468.333496,4310.641113,4379.230957,,,,,,,,,,,,,,,,,,,,,,,,,,,,,,,,,,,,,,,,,,,,,,,,,,,,,,,,,,,,,,,,,,,,,,
1768972437.566023,1768972437.567719,64.0,0.0,4341.410156,4401.282227,4345.256348,4368.974121,4371.538574,4366.153809,4358.077148,4316.538574,4306.794922,4359.743652,4411.025879,4465.897461,4313.846191,4383.589844,,,,,,,,,,,,,,,,,,,,,,,,,,,,,,,,,,,,,,,,,,,,,,,,,,,,,,,,,,,,,,,,,,,,,,
1768972437.573831,1768972437.575527,65.0,0.0,4345.641113,4402.436035,4347.563965,4369.487305,4372.563965,4364.102539,4359.487305,4314.615234,4307.563965,4357.94873,4414.743652,4468.205078,4320.384766,4388.717773,,,,,,,,,,,,,,,,,,,,,,,,,,,,,,,,,,,,,,,,,,,,,,,,,,,,,,,,,,,,,,,,,,,,,,
1768972437.58164,1768972437.583436,66.0,0.0,4348.333496,4397.692383,4347.563965,4370.897461,4367.820313,4358.589844,4355.256348,4317.307617,4312.94873,4363.461426,4424.487305,4472.179688,4326.410156,4392.05127,,,,,,,,,,,,,,,,,,,,,,,,,,,,,,,,,,,,,,,,,,,,,,,,,,,,,,,,,,,,,,,,,,,,,,
1768972437.589448,1768972437.591244,67.0,0.0,4351.538574,4400.0,4345.512695,4373.461426,4369.871582,4356.025879,4349.102539,4312.05127,4312.179688,4366.025879,4425.512695,4469.743652,4328.717773,4395.128418,,,,,,,,,,,,,,,,,,,,,,,,,,,,,,,,,,,,,,,,,,,,,,,,,,,,,,,,,,,,,,,,,,,,,,
1768972437.597257,1768972437.598853,68.0,0.0,4354.615234,4404.102539,4347.05127,4372.05127,4376.410156,4357.563965,4352.436035,4306.153809,4309.487305,4362.307617,4421.025879,4468.077148,4328.717773,4397.179688,,,,,,,,,,,,,,,,,,,,,,,,,,,,,,,,,,,,,,,,,,,,,,,,,,,,,,,,,,,,,,,,,,,,,,
1768972437.605065,1768972437.606661,69.0,0.0,4349.871582,4397.05127,4347.563965,4366.538574,4375.769043,4360.0,4355.256348,4307.436035,4310.897461,4359.102539,4421.153809,4469.487305,4328.717773,4394.871582,,,,,,,,,,,,,,,,,,,,,,,,,,,,,,,,,,,,,,,,,,,,,,,,,,,,,,,,,,,,,,,,,,,,,,
1768972437.612874,1768972437.61437,70.0,0.0,4341.794922,4388.333496,4344.743652,4362.94873,4371.794922,4360.769043,4356.153809,4310.897461,4311.282227,4355.897461,4418.974121,4468.589844,4326.410156,4390.512695,,,,,,,,,,,,,,,,,,,,,,,,,,,,,,,,,,,,,,,,,,,,,,,,,,,,,,,,,,,,,,,,,,,,,,
1768972437.620682,1768972437.622178,71.0,0.0,4340.641113,4384.871582,4344.358887,4365.0,4374.102539,4370.128418,4369.871582,4313.205078,4308.589844,4352.05127,4411.922852,4465.897461,4323.333496,4387.436035,,,,,,,,,,,,,,,,,,,,,,,,,,,,,,,,,,,,,,,,,,,,,,,,,,,,,,,,,,,,,,,,,,,,,,
1768972437.628491,1768972437.629787,72.0,0.0,4340.769043,4383.589844,4346.538574,4365.384766,4375.769043,4375.512695,4375.0,4311.922852,4307.563965,4353.974121,4412.94873,4466.922852,4327.820313,4389.102539,,,,,,,,,,,,,,,,,,,,,,,,,,,,,,,,,,,,,,,,,,,,,,,,,,,,,,,,,,,,,,,,,,,,,,
1768972437.636299,1768972437.637595,73.0,0.0,4339.230957,4380.769043,4345.256348,4362.05127,4370.641113,4361.666504,4352.179688,4307.307617,4309.615234,4357.563965,4420.512695,4469.358887,4335.897461,4391.410156,,,,,,,,,,,,,,,,,,,,,,,,,,,,,,,,,,,,,,,,,,,,,,,,,,,,,,,,,,,,,,,,,,,,,,
1768972437.644107,1768972437.645304,74.0,0.0,4340.256348,4377.563965,4341.666504,4358.077148,4369.230957,4352.820313,4339.102539,4305.897461,4310.512695,4353.846191,4419.230957,4466.025879,4332.94873,4383.974121,,,,,,,,,,,,,,,,,,,,,,,,,,,,,,,,,,,,,,,,,,,,,,,,,,,,,,,,,,,,,,,,,,,,,,
1768972437.651916,1768972437.653112,75.0,0.0,4338.589844,4374.102539,4340.0,4356.794922,4375.769043,4363.846191,4352.436035,4308.589844,4309.615234,4347.436035,4411.666504,4461.538574,4326.922852,4377.436035,,,,,,,,,,,,,,,,,,,,,,,,,,,,,,,,,,,,,,,,,,,,,,,,,,,,,,,,,,,,,,,,,,,,,,
1768972437.659724,1768972437.660721,76.0,0.0,4336.153809,4375.256348,4343.589844,4359.487305,4379.102539,4369.615234,4358.461426,4309.743652,4310.256348,4347.436035,4415.256348,4466.025879,4334.615234,4383.589844,,,,,,,,,,,,,,,,,,,,,,,,,,,,,,,,,,,,,,,,,,,,,,,,,,,,,,,,,,,,,,,,,,,,,,
1768972437.667533,1768972437.66853,77.0,0.0,4339.743652,4379.487305,4346.153809,4361.666504,4377.436035,4367.563965,4356.153809,4313.974121,4313.333496,4348.846191,4426.282227,4473.205078,4343.333496,4387.692383,,,,,,,,,,,,,,,,,,,,,,,,,,,,,,,,,,,,,,,,,,,,,,,,,,,,,,,,,,,,,,,,,,,,,,
1768972437.675341,1768972437.676438,78.0,0.0,4343.461426,4379.102539,4344.358887,4360.512695,4376.666504,4376.666504,4364.743652,4315.897461,4313.846191,4345.769043,4424.230957,4472.05127,4341.922852,4383.974121,2.995092,0.704366,0.589667,0.389357,0.142457,0.920399,0.200331,0.359416,0.266172,0.13682,0.662225,0.412247,0.279442,0.171275,0.070261,0.50611,0.271567,0.167446,0.128431,0.070141,0.37939,0.192603,0.157109,0.119581,0.037637,0.216523,0.343779,0.235421,0.20012,0.19589,0.284136,0.481487,0.348488,0.129262,0.2995,0.548949,0.494097,0.100016,0.159449,0.194439,0.673222,0.524065,0.248249,0.208331,0.112476,0.579173,0.493082,0.206163,0.272426,0.106709,1.191122,0.442002,0.199462,0.306457,0.123767,1.413131,0.367461,0.505564,0.373264,0.177337,1.354756,0.582689,0.24894,0.304821,0.200595,10.606009,1.219134,1.250607,0.30802,0.228684
1768972437.68315,1768972437.684246,79.0,0.0,4343.461426,4375.641113,4346.153809,4359.102539,4377.436035,4381.153809,4369.358887,4310.128418,4310.0,4344.487305,4415.769043,4466.538574,4342.692383,4385.384766,,,,,,,,,,,,,,,,,,,,,,,,,,,,,,,,,,,,,,,,,,,,,,,,,,,,,,,,,,,,,,,,,,,,,,
1768972437.690958,1768972437.692255,80.0,0.0,4343.077148,4373.333496,4349.230957,4358.333496,4379.358887,4367.179688,4358.333496,4304.743652,4310.128418,4344.743652,4418.205078,4466.666504,4343.205078,4385.897461,,,,,,,,,,,,,,,,,,,,,,,,,,,,,,,,,,,,,,,,,,,,,,,,,,,,,,,,,,,,,,,,,,,,,,
1768972437.698767,1768972437.700063,81.0,0.0,4342.307617,4373.717773,4345.897461,4358.333496,4382.05127,4361.666504,4354.871582,4306.282227,4319.230957,4344.871582,4424.487305,4473.333496,4342.563965,4383.589844,,,,,,,,,,,,,,,,,,,,,,,,,,,,,,,,,,,,,,,,,,,,,,,,,,,,,,,,,,,,,,,,,,,,,,
1768972437.706575,1768972437.707971,82.0,0.0,4342.179688,4371.282227,4343.461426,4358.205078,4382.820313,4369.230957,4361.025879,4317.820313,4328.333496,4348.974121,4428.589844,4484.230957,4351.410156,4390.641113,,,,,,,,,,,,,,,,,,,,,,,,,,,,,,,,,,,,,,,,,,,,,,,,,,,,,,,,,,,,,,,,,,,,,,
1768972437.714383,1768972437.71578,83.0,0.0,4345.769043,4365.512695,4352.436035,4358.461426,4380.384766,4367.179688,4360.512695,4319.871582,4327.820313,4351.538574,4430.256348,4489.102539,4355.897461,4396.282227,,,,,,,,,,,,,,,,,,,,,,,,,,,,,,,,,,,,,,,,,,,,,,,,,,,,,,,,,,,,,,,,,,,,,,
1768972437.722192,1768972437.723388,84.0,0.0,4349.743652,4364.358887,4358.717773,4357.692383,4380.128418,4365.0,4361.025879,4308.974121,4324.358887,4345.512695,4428.077148,4483.846191,4349.871582,4388.717773,,,,,,,,,,,,,,,,,,,,,,,,,,,,,,,,,,,,,,,,,,,,,,,,,,,,,,,,,,,,,,,,,,,,,,
1768972437.73,1768972437.731197,85.0,0.0,4351.025879,4364.102539,4354.487305,4358.333496,4382.94873,4375.128418,4368.205078,4310.128418,4322.05127,4340.897461,4426.282227,4483.717773,4346.282227,4383.846191,,,,,,,,,,,,,,,,,,,,,,,,,,,,,,,,,,,,,,,,,,,,,,,,,,,,,,,,,,,,,,,,,,,,,,
1768972437.737809,1768972437.739105,86.0,0.0,4349.102539,4360.897461,4351.282227,4357.563965,4383.205078,4378.077148,4372.307617,4319.102539,4315.641113,4340.512695,4427.692383,4494.230957,4346.282227,4386.538574,,,,,,,,,,,,,,,,,,,,,,,,,,,,,,,,,,,,,,,,,,,,,,,,,,,,,,,,,,,,,,,,,,,,,,
1768972437.745617,1768972437.746914,87.0,0.0,4348.589844,4356.922852,4353.974121,4356.794922,4381.538574,4375.769043,4374.230957,4315.897461,4306.538574,4333.974121,4428.974121,4498.589844,4345.384766,4385.0,,,,,,,,,,,,,,,,,,,,,,,,,,,,,,,,,,,,,,,,,,,,,,,,,,,,,,,,,,,,,,,,,,,,,,
1768972437.753425,1768972437.754922,88.0,0.0,4353.077148,4359.102539,4357.179688,4361.025879,4383.333496,4379.358887,4373.717773,4312.179688,4308.205078,4329.487305,4427.307617,4495.256348,4347.179688,4385.0,,,,,,,,,,,,,,,,,,,,,,,,,,,,,,,,,,,,,,,,,,,,,,,,,,,,,,,,,,,,,,,,,,,,,,
1768972437.761234,1768972437.76273,89.0,0.0,4352.563965,4364.102539,4358.974121,4362.05127,4385.0,4374.743652,4369.358887,4320.897461,4321.922852,4338.589844,4430.769043,4496.410156,4352.94873,4391.410156,,,,,,,,,,,,,,,,,,,,,,,,,,,,,,,,,,,,,,,,,,,,,,,,,,,,,,,,,,,,,,,,,,,,,,
1768972437.769042,1768972437.770639,90.0,0.0,4348.846191,4363.846191,4360.512695,4358.589844,4385.512695,4368.205078,4369.102539,4323.974121,4329.102539,4347.692383,4442.692383,4500.256348,4360.897461,4395.641113,,,,,,,,,,,,,,,,,,,,,,,,,,,,,,,,,,,,,,,,,,,,,,,,,,,,,,,,,,,,,,,,,,,,,,
1768972437.776851,1768972437.778447,91.0,0.0,4351.410156,4357.563965,4357.436035,4358.077148,4386.922852,4373.461426,4371.153809,4319.871582,4324.743652,4345.641113,4449.615234,4502.179688,4366.153809,4396.922852,,,,,,,,,,,,,,,,,,,,,,,,,,,,,,,,,,,,,,,,,,,,,,,,,,,,,,,,,,,,,,,,,,,,,,
1768972437.784659,1768972437.786455,92.0,0.0,4349.871582,4346.410156,4349.230957,4354.358887,4383.205078,4375.256348,4367.436035,4318.461426,4322.94873,4337.05127,4439.743652,4499.871582,4359.615234,4393.846191,,,,,,,,,,,,,,,,,,,,,,,,,,,,,,,,,,,,,,,,,,,,,,,,,,,,,,,,,,,,,,,,,,,,,,
1768972437.792468,1768972437.794264,93.0,0.0,4342.820313,4340.384766,4348.205078,4346.538574,4376.794922,4380.897461,4375.384766,4322.307617,4326.410156,4331.153809,4430.0,4495.384766,4351.666504,4388.333496,,,,,,,,,,,,,,,,,,,,,,,,,,,,,,,,,,,,,,,,,,,,,,,,,,,,,,,,,,,,,,,,,,,,,,
1768972437.800276,1768972437.801972,94.0,0.0,4351.666504,4349.230957,4357.820313,4351.538574,4380.897461,4390.897461,4388.846191,4330.897461,4331.282227,4336.922852,4440.128418,4502.179688,4359.615234,4391.025879,3.444148,0.593158,0.705039,0.381796,0.146115,1.02938,0.179708,0.40194,0.280414,0.132871,0.694746,0.307965,0.304883,0.173239,0.075175,0.605021,0.246063,0.187622,0.142731,0.080404,0.371875,0.231631,0.138858,0.123258,0.036264,0.223889,0.404744,0.230341,0.178989,0.238615,0.352856,0.446974,0.389827,0.111152,0.354654,0.662399,0.368738,0.113172,0.159365,0.195748,0.753139,0.562494,0.252245,0.183434,0.110219,0.530564,0.475049,0.265999,0.252659,0.093728,1.28918,0.33756,0.219016,0.275619,0.121186,1.588068,0.278605,0.553558,0.323473,0.170836,1.607796,0.473324,0.29166,0.285676,0.177888,13.203026,1.02042,1.484372,0.300439,0.21106
1768972437.808085,1768972437.809781,95.0,0.0,4367.563965,4361.153809,4365.0,4365.256348,4389.615234,4386.666504,4382.179688,4332.94873,4340.512695,4348.077148,4454.615234,4517.436035,4370.512695,4398.974121,,,,,,,,,,,,,,,,,,,,,,,,,,,,,,,,,,,,,,,,,,,,,,,,,,,,,,,,,,,,,,,,,,,,,,
1768972437.815893,1768972437.81739,96.0,0.0,4369.230957,4360.641113,4365.0,4365.256348,4391.025879,4376.666504,4370.0,4326.282227,4343.333496,4346.794922,4452.436035,4517.563965,4369.871582,4403.461426,,,,,,,,,,,,,,,,,,,,,,,,,,,,,,,,,,,,,,,,,,,,,,,,,,,,,,,,,,,,,,,,,,,,,,
1768972437.823702,1768972437.825198,97.0,0.0,4363.461426,4355.512695,4365.128418,4355.897461,4388.333496,4374.230957,4370.641113,4319.743652,4331.153809,4331.410156,4442.820313,4507.563965,4365.256348,4403.974121,,,,,,,,,,,,,,,,,,,,,,,,,,,,,,,,,,,,,,,,,,,,,,,,,,,,,,,,,,,,,,,,,,,,,,
1768972437.83151,1768972437.832907,98.0,0.0,4361.153809,4354.358887,4362.179688,4351.666504,4385.769043,4374.743652,4373.205078,4318.333496,4322.307617,4324.615234,4443.333496,4506.794922,4365.512695,4400.641113,,,,,,,,,,,,,,,,,,,,,,,,,,,,,,,,,,,,,,,,,,,,,,,,,,,,,,,,,,,,,,,,,,,,,,
1768972437.839318,1768972437.840715,99.0,0.0,4364.230957,4353.717773,4359.230957,4353.717773,4387.179688,4377.05127,4375.0,4323.717773,4329.743652,4332.692383,4449.615234,4513.461426,4367.94873,4398.589844,,,,,,,,,,,,,,,,,,,,,,,,,,,,,,,,,,,,,,,,,,,,,,,,,,,,,,,,,,,,,,,,,,,,,,
1768972437.847127,1768972437.848324,100.0,0.0,4364.871582,4350.384766,4361.794922,4354.871582,4388.846191,4384.743652,4381.922852,4332.179688,4337.179688,4334.615234,4450.256348,4517.563965,4367.05127,4400.897461,,,,,,,,,,,,,,,,,,,,,,,,,,,,,,,,,,,,,,,,,,,,,,,,,,,,,,,,,,,,,,,,,,,,,,
1768972437.854935,1768972437.856132,101.0,0.0,4358.846191,4343.077148,4358.974121,4350.0,4385.128418,4385.384766,4382.820313,4329.102539,4331.153809,4325.256348,4444.102539,4513.846191,4363.846191,4395.641113,,,,,,,,,,,,,,,,,,,,,,,,,,,,,,,,,,,,,,,,,,,,,,,,,,,,,,,,,,,,,,,,,,,,,,
1768972437.862744,1768972437.863841,102.0,0.0,4355.256348,4339.487305,4347.820313,4344.743652,4378.846191,4375.512695,4372.179688,4323.205078,4329.615234,4321.794922,4441.922852,4510.0,4366.410156,4390.641113,,,,,,,,,,,,,,,,,,,,,,,,,,,,,,,,,,,,,,,,,,,,,,,,,,,,,,,,,,,,,,,,,,,,,,
1768972437.870552,1768972437.871649,103.0,0.0,4356.410156,4339.871582,4343.589844,4342.692383,4378.461426,4373.077148,4368.846191,4329.487305,4340.641113,4326.538574,4446.794922,4512.563965,4371.025879,4396.538574,,,,,,,,,,,,,,,,,,,,,,,,,,,,,,,,,,,,,,,,,,,,,,,,,,,,,,,,,,,,,,,,,,,,,,
1768972437.878361,1768972437.879657,104.0,0.0,4354.871582,4336.282227,4350.384766,4342.05127,4382.563965,4377.307617,4373.846191,4332.179688,4343.077148,4325.641113,4448.461426,4511.922852,4368.077148,4397.94873,,,,,,,,,,,,,,,,,,,,,,,,,,,,,,,,,,,,,,,,,,,,,,,,,,,,,,,,,,,,,,,,,,,,,,
1768972437.886169,1768972437.887466,105.0,0.0,4355.0,4333.461426,4359.102539,4346.025879,4382.436035,4378.974121,4374.871582,4325.897461,4335.512695,4320.0,4444.743652,4506.666504,4366.153809,4393.846191,,,,,,,,,,,,,,,,,,,,,,,,,,,,,,,,,,,,,,,,,,,,,,,,,,,,,,,,,,,,,,,,,,,,,,
1768972437.893978,1768972437.895174,106.0,0.0,4359.487305,4334.230957,4360.897461,4349.615234,4377.820313,4377.179688,4371.538574,4325.897461,4333.461426,4315.641113,4443.846191,4505.512695,4368.589844,4394.615234,,,,,,,,,,,,,,,,,,,,,,,,,,,,,,,,,,,,,,,,,,,,,,,,,,,,,,,,,,,,,,,,,,,,,,
1768972437.901786,1768972437.902983,107.0,0.0,4358.974121,4330.256348,4353.717773,4343.589844,4377.307617,4379.102539,4371.538574,4331.794922,4336.538574,4312.692383,4446.282227,4510.0,4366.153809,4396.153809,,,,,,,,,,,,,,,,,,,,,,,,,,,,,,,,,,,,,,,,,,,,,,,,,,,,,,,,,,,,,,,,,,,,,,
1768972437.909594,1768972437.910591,108.0,0.0,4354.102539,4323.077148,4352.94873,4337.820313,4378.461426,4382.820313,4376.025879,4333.461426,4339.615234,4310.769043,4444.743652,4511.025879,4363.974121,4395.384766,,,,,,,,,,,,,,,,,,,,,,,,,,,,,,,,,,,,,,,,,,,,,,,,,,,,,,,,,,,,,,,,,,,,,,
1768972437.917403,1768972437.9184,109.0,0.0,4356.282227,4322.307617,4361.922852,4342.05127,4376.538574,4384.230957,4379.487305,4331.922852,4341.153809,4310.256348,4446.153809,4513.333496,4370.0,4397.05127,,,,,,,,,,,,,,,,,,,,,,,,,,,,,,,,,,,,,,,,,,,,,,,,,,,,,,,,,,,,,,,,,,,,,,
1768972437.925211,1768972437.926308,110.0,0.0,4365.769043,4326.666504,4364.358887,4344.871582,4377.05127,4382.307617,4376.538574,4330.256348,4340.897461,4310.769043,4455.769043,4520.384766,4375.256348,4399.487305,3.744411,0.461358,0.774187,0.351453,0.145426,1.078462,0.151231,0.442835,0.281678,0.124686,0.719923,0.207416,0.30396,0.168261,0.079933,0.648411,0.219901,0.207146,0.147267,0.091345,0.334456,0.274145,0.113284,0.117684,0.035813,0.225406,0.451663,0.21273,0.161349,0.278326,0.410085,0.409578,0.40956,0.109082,0.399235,0.734446,0.259816,0.124565,0.161721,0.193702,0.797523,0.568265,0.254531,0.158352,0.107856,0.459808,0.422223,0.327358,0.237203,0.081309,1.295039,0.271273,0.235235,0.247368,0.123395,1.697889,0.215349,0.550853,0.280655,0.160495,1.829719,0.408297,0.334462,0.276795,0.164215,14.880126,0.850219,1.591189,0.292915,0.191183
1768972437.93302,1768972437.934117,111.0,0.0,4368.333496,4323.974121,4359.615234,4342.563965,4377.94873,4377.94873,4371.666504,4330.897461,4339.102539,4312.692383,4458.589844,4523.717773,4372.436035,4398.717773,,,,,,,,,,,,,,,,,,,,,,,,,,,,,,,,,,,,,,,,,,,,,,,,,,,,,,,,,,,,,,,,,,,,,,
1768972437.940828,1768972437.942125,112.0,0.0,4360.641113,4313.589844,4359.487305,4341.282227,4375.897461,4380.512695,4375.128418,4332.563965,4336.922852,4308.717773,4449.615234,4522.179688,4367.94873,4396.410156,,,,,,,,,,,,,,,,,,,,,,,,,,,,,,,,,,,,,,,,,,,,,,,,,,,,,,,,,,,,,,,,,,,,,,
1768972437.948637,1768972437.949933,113.0,0.0,4356.153809,4309.871582,4360.128418,4341.025879,4374.358887,4383.589844,4380.641113,4329.358887,4335.769043,4297.94873,4443.461426,4518.717773,4365.641113,4391.153809,,,,,,,,,,,,,,,,,,,,,,,,,,,,,,,,,,,,,,,,,,,,,,,,,,,,,,,,,,,,,,,,,,,,,,
1768972437.956445,1768972437.957842,114.0,0.0,4356.025879,4311.794922,4358.205078,4342.179688,4374.358887,4380.641113,4375.512695,4324.871582,4331.794922,4291.538574,4443.077148,4512.692383,4363.974121,4382.563965,,,,,,,,,,,,,,,,,,,,,,,,,,,,,,,,,,,,,,,,,,,,,,,,,,,,,,,,,,,,,,,,,,,,,,
1768972437.964254,1768972437.96565,115.0,0.0,4355.128418,4311.410156,4358.974121,4342.05127,4375.512695,4375.897461,4368.846191,4325.0,4329.615234,4295.897461,4440.897461,4508.205078,4364.230957,4377.179688,,,,,,,,,,,,,,,,,,,,,,,,,,,,,,,,,,,,,,,,,,,,,,,,,,,,,,,,,,,,,,,,,,,,,,
1768972437.972062,1768972437.973658,116.0,0.0,4359.358887,4314.358887,4361.922852,4341.025879,4376.025879,4376.666504,4374.615234,4329.615234,4335.769043,4293.077148,4443.974121,4514.871582,4366.922852,4380.641113,,,,,,,,,,,,,,,,,,,,,,,,,,,,,,,,,,,,,,,,,,,,,,,,,,,,,,,,,,,,,,,,,,,,,,
1768972437.97987,1768972437.981467,117.0,0.0,4363.077148,4317.179688,4365.641113,4341.922852,4375.384766,4389.230957,4383.717773,4336.794922,4342.563965,4280.128418,4453.974121,4525.641113,4370.384766,4386.153809,,,,,,,,,,,,,,,,,,,,,,,,,,,,,,,,,,,,,,,,,,,,,,,,,,,,,,,,,,,,,,,,,,,,,,
1768972437.987679,1768972437.989175,118.0,0.0,4358.974121,4313.333496,4364.743652,4341.794922,4376.153809,4394.615234,4377.05127,4339.615234,4344.102539,4285.384766,4458.717773,4523.205078,4372.436035,4383.717773,,,,,,,,,,,,,,,,,,,,,,,,,,,,,,,,,,,,,,,,,,,,,,,,,,,,,,,,,,,,,,,,,,,,,,
1768972437.995487,1768972437.996984,119.0,0.0,4356.025879,4312.307617,4360.256348,4340.512695,4379.743652,4388.589844,4372.692383,4337.692383,4350.641113,4300.641113,4457.692383,4515.641113,4373.077148,4378.589844,,,,,,,,,,,,,,,,,,,,,,,,,,,,,,,,,,,,,,,,,,,,,,,,,,,,,,,,,,,,,,,,,,,,,,
1768972438.003296,1768972438.004792,120.0,0.0,4357.692383,4313.717773,4362.563965,4341.282227,4379.871582,4392.307617,4387.820313,4343.717773,4364.230957,4298.974121,4458.205078,4520.897461,4375.384766,4378.333496,,,,,,,,,,,,,,,,,,,,,,,,,,,,,,,,,,,,,,,,,,,,,,,,,,,,,,,,,,,,,,,,,,,,,,
1768972438.011104,1768972438.012601,121.0,0.0,4359.615234,4311.794922,4363.974121,4341.282227,4379.102539,4399.615234,4392.820313,4351.538574,4366.794922,4292.436035,4460.512695,4529.230957,4380.512695,4383.974121,,,,,,,,,,,,,,,,,,,,,,,,,,,,,,,,,,,,,,,,,,,,,,,,,,,,,,,,,,,,,,,,,,,,,,
1768972438.018913,1768972438.020309,122.0,0.0,4364.102539,4311.794922,4359.358887,4338.717773,4382.94873,4392.179688,4379.743652,4346.794922,4361.538574,4296.666504,4460.512695,4527.563965,4383.333496,4386.410156,,,,,,,,,,,,,,,,,,,,,,,,,,,,,,,,,,,,,,,,,,,,,,,,,,,,,,,,,,,,,,,,,,,,,,
1768972438.026721,1768972438.028118,123.0,0.0,4368.589844,4310.0,4359.358887,4337.563965,4381.538574,4383.461426,4378.717773,4338.717773,4361.538574,4296.410156,4458.077148,4525.384766,4379.230957,4381.922852,,,,,,,,,,,,,,,,,,,,,,,,,,,,,,,,,,,,,,,,,,,,,,,,,,,,,,,,,,,,,,,,,,,,,,
1768972438.03453,1768972438.035726,124.0,0.0,4368.461426,4305.641113,4363.846191,4337.563965,4375.256348,4391.025879,4387.436035,4340.897461,4362.563965,4291.666504,4457.436035,4529.615234,4381.282227,4384.615234,,,,,,,,,,,,,,,,,,,,,,,,,,,,,,,,,,,,,,,,,,,,,,,,,,,,,,,,,,,,,,,,,,,,,,
1768972438.042338,1768972438.043535,125.0,0.0,4367.820313,4307.05127,4363.333496,4337.94873,4375.769043,4399.871582,4387.563965,4347.179688,4363.077148,4295.769043,4465.256348,4531.922852,4391.794922,4392.563965,,,,,,,,,,,,,,,,,,,,,,,,,,,,,,,,,,,,,,,,,,,,,,,,,,,,,,,,,,,,,,,,,,,,,,
1768972438.050146,1768972438.051243,126.0,0.0,4367.94873,4307.05127,4360.641113,4337.692383,4380.0,4395.897461,4385.384766,4348.717773,4368.589844,4297.436035,4472.563965,4533.333496,4395.256348,4390.0,3.801047,0.348924,0.778655,0.302221,0.139798,1.060573,0.132585,0.473472,0.265579,0.115841,0.73181,0.137743,0.279406,0.156961,0.082419,0.629968,0.199231,0.221516,0.139981,0.099512,0.278635,0.306586,0.08654,0.105294,0.037654,0.21716,0.464013,0.19308,0.159291,0.30337,0.437566,0.359365,0.408934,0.134459,0.419579,0.733842,0.173424,0.132508,0.168253,0.187408,0.774171,0.54249,0.266607,0.140601,0.10709,0.376458,0.350792,0.374033,0.227804,0.071859,1.223758,0.246434,0.250213,0.227968,0.13046,1.741225,0.182878,0.499103,0.250993,0.150124,2.00674,0.410983,0.370671,0.279496,0.157012,15.189588,0.735142,1.539481,0.280729,0.170045
1768972438.057955,1768972438.059052,127.0,0.0,4368.974121,4302.179688,4363.333496,4336.025879,4381.410156,4388.717773,4387.563965,4347.179688,4373.205078,4296.666504,4471.922852,4541.282227,4393.717773,4388.205078,,,,,,,,,,,,,,,,,,,,,,,,,,,,,,,,,,,,,,,,,,,,,,,,,,,,,,,,,,,,,,,,,,,,,,
1768972438.065763,1768972438.06706,0.0,0.0,4375.256348,4300.769043,4367.307617,4339.487305,4381.153809,4395.512695,4390.128418,4347.820313,4370.256348,4296.666504,4473.589844,4550.769043,4397.94873,4396.794922,,,,,,,,,,,,,,,,,,,,,,,,,,,,,,,,,,,,,,,,,,,,,,,,,,,,,,,,,,,,,,,,,,,,,,
1768972438.073572,1768972438.074868,1.0,0.0,4377.94873,4299.230957,4365.0,4342.307617,4381.666504,4404.871582,4391.025879,4350.128418,4370.897461,4293.077148,4476.922852,4550.641113,4400.641113,4395.897461,,,,,,,,,,,,,,,,,,,,,,,,,,,,,,,,,,,,,,,,,,,,,,,,,,,,,,,,,,,,,,,,,,,,,,
1768972438.08138,1768972438.082777,2.0,0.0,4373.333496,4294.615234,4363.461426,4340.512695,4379.230957,4397.692383,4389.615234,4350.256348,4373.333496,4291.025879,4475.384766,4547.307617,4397.436035,4384.102539,,,,,,,,,,,,,,,,,,,,,,,,,,,,,,,,,,,,,,,,,,,,,,,,,,,,,,,,,,,,,,,,,,,,,,
1768972438.089188,1768972438.090585,3.0,0.0,4374.743652,4300.0,4372.05127,4342.563965,4379.615234,4392.820313,4389.615234,4348.589844,4367.307617,4292.05127,4475.384766,4550.897461,4399.615234,4387.94873,,,,,,,,,,,,,,,,,,,,,,,,,,,,,,,,,,,,,,,,,,,,,,,,,,,,,,,,,,,,,,,,,,,,,,
1768972438.096997,1768972438.098194,4.0,0.0,4380.641113,4305.384766,4378.717773,4345.641113,4383.333496,4395.256348,4389.230957,4343.974121,4361.282227,4285.384766,4475.769043,4551.666504,4401.538574,4397.05127,,,,,,,,,,,,,,,,,,,,,,,,,,,,,,,,,,,,,,,,,,,,,,,,,,,,,,,,,,,,,,,,,,,,,,
1768972438.104805,1768972438.106002,5.0,0.0,4381.794922,4299.487305,4375.256348,4342.692383,4380.256348,4389.102539,4381.666504,4340.769043,4361.025879,4279.230957,4472.436035,4547.692383,4396.282227,4389.615234,,,,,,,,,,,,,,,,,,,,,,,,,,,,,,,,,,,,,,,,,,,,,,,,,,,,,,,,,,,,,,,,,,,,,,
1768972438.112614,1768972438.113711,6.0,0.0,4385.641113,4299.743652,4375.256348,4341.153809,4377.692383,4385.512695,4377.563965,4347.563965,4369.487305,4282.05127,4473.589844,4549.743652,4396.282227,4384.487305,,,,,,,,,,,,,,,,,,,,,,,,,,,,,,,,,,,,,,,,,,,,,,,,,,,,,,,,,,,,,,,,,,,,,,
1768972438.120422,1768972438.121519,7.0,0.0,4389.743652,4307.179688,4380.128418,4343.589844,4381.794922,4395.128418,4386.922852,4351.410156,4375.897461,4279.743652,4476.153809,4550.897461,4399.743652,4393.333496,,,,,,,,,,,,,,,,,,,,,,,,,,,,,,,,,,,,,,,,,,,,,,,,,,,,,,,,,,,,,,,,,,,,,,
1768972438.128231,1768972438.129128,8.0,0.0,4388.717773,4306.025879,4380.256348,4345.0,4386.794922,4403.589844,4395.512695,4347.563965,4372.179688,4279.871582,4475.384766,4547.05127,4402.179688,4398.717773,,,,,,,,,,,,,,,,,,,,,,,,,,,,,,,,,,,,,,,,,,,,,,,,,,,,,,,,,,,,,,,,,,,,,,
1768972438.136039,1768972438.136936,9.0,0.0,4386.282227,4300.128418,4378.717773,4347.307617,4389.487305,4404.102539,4396.153809,4350.769043,4372.94873,4288.846191,4476.794922,4549.230957,4408.974121,4396.153809,,,,,,,,,,,,,,,,,,,,,,,,,,,,,,,,,,,,,,,,,,,,,,,,,,,,,,,,,,,,,,,,,,,,,,
1768972438.143848,1768972438.144845,10.0,0.0,4386.025879,4298.974121,4380.384766,4351.282227,4390.0,4403.461426,4395.384766,4353.974121,4380.897461,4287.307617,4478.461426,4551.922852,4413.077148,4397.436035,,,,,,,,,,,,,,,,,,,,,,,,,,,,,,,,,,,,,,,,,,,,,,,,,,,,,,,,,,,,,,,,,,,,,,
1768972438.151656,1768972438.152653,11.0,0.0,4386.410156,4295.256348,4380.384766,4348.461426,4388.333496,4402.563965,4394.743652,4351.538574,4381.153809,4278.589844,4477.692383,4551.538574,4406.025879,4399.230957,,,,,,,,,,,,,,,,,,,,,,,,,,,,,,,,,,,,,,,,,,,,,,,,,,,,,,,,,,,,,,,,,,,,,,
1768972438.159464,1768972438.160662,12.0,0.0,4384.487305,4288.974121,4375.256348,4343.333496,4387.94873,4404.102539,4394.615234,4354.615234,4378.333496,4279.358887,4476.410156,4553.589844,4398.589844,4390.512695,,,,,,,,,,,,,,,,,,,,,,,,,,,,,,,,,,,,,,,,,,,,,,,,,,,,,,,,,,,,,,,,,,,,,,
1768972438.167273,1768972438.16847,13.0,0.0,4380.641113,4290.641113,4370.897461,4346.025879,4389.871582,4405.769043,4396.538574,4358.205078,4380.512695,4275.256348,4475.769043,4553.333496,4396.025879,4379.871582,,,,,,,,,,,,,,,,,,,,,,,,,,,,,,,,,,,,,,,,,,,,,,,,,,,,,,,,,,,,,,,,,,,,,,
1768972438.175081,1768972438.176379,14.0,0.0,4382.820313,4296.282227,4373.333496,4348.974121,4387.692383,4401.538574,4396.794922,4357.179688,4379.230957,4266.025879,4475.256348,4551.282227,4394.871582,4382.563965,3.558979,0.284998,0.719575,0.246515,0.129531,0.967157,0.136606,0.491954,0.23974,0.108866,0.736917,0.109767,0.24367,0.14402,0.081876,0.554916,0.183556,0.228763,0.125114,0.102647,0.22319,0.316396,0.065928,0.091066,0.042266,0.201117,0.435933,0.183022,0.183226,0.307066,0.427938,0.292475,0.394755,0.193748,0.409548,0.651349,0.110038,0.136774,0.179058,0.177389,0.686938,0.502044,0.294821,0.13649,0.108954,0.317396,0.280396,0.392787,0.223692,0.068113,1.080239,0.248138,0.263111,0.218579,0.142332,1.712442,0.173595,0.412875,0.2329,0.143743,2.072759,0.470381,0.391843,0.289304,0.151645,14.05612,0.674028,1.342757,0.261573,0.148852
1768972438.18289,1768972438.184187,15.0,0.0,4389.871582,4291.794922,4374.743652,4344.487305,4385.641113,4401.410156,4397.179688,4357.820313,4375.641113,4264.487305,4475.769043,4551.025879,4396.410156,4388.974121,,,,,,,,,,,,,,,,,,,,,,,,,,,,,,,,,,,,,,,,,,,,,,,,,,,,,,,,,,,,,,,,,,,,,,
1768972438.190698,1768972438.192195,16.0,0.0,4387.692383,4279.743652,4370.0,4341.025879,4388.461426,4404.358887,4399.615234,4355.641113,4372.820313,4263.974121,4476.282227,4548.333496,4395.641113,4384.358887,,,,,,,,,,,,,,,,,,,,,,,,,,,,,,,,,,,,,,,,,,,,,,,,,,,,,,,,,,,,,,,,,,,,,,
1768972438.198507,1768972438.200004,17.0,0.0,4380.897461,4278.461426,4369.358887,4340.512695,4386.153809,4397.94873,4393.717773,4351.794922,4373.589844,4263.077148,4474.358887,4546.025879,4393.717773,4378.846191,,,,,,,,,,,,,,,,,,,,,,,,,,,,,,,,,,,,,,,,,,,,,,,,,,,,,,,,,,,,,,,,,,,,,,
1768972438.206315,1768972438.207712,18.0,0.0,4382.563965,4283.846191,4371.538574,4338.846191,4380.384766,4387.820313,4385.256348,4355.0,4375.384766,4263.846191,4474.102539,4548.846191,4400.641113,4380.897461,,,,,,,,,,,,,,,,,,,,,,,,,,,,,,,,,,,,,,,,,,,,,,,,,,,,,,,,,,,,,,,,,,,,,,
1768972438.214124,1768972438.215521,19.0,0.0,4386.282227,4281.794922,4372.436035,4338.717773,4379.871582,4392.05127,4388.846191,4359.487305,4375.512695,4264.871582,4481.666504,4555.384766,4409.743652,4387.05127,,,,,,,,,,,,,,,,,,,,,,,,,,,,,,,,,,,,,,,,,,,,,,,,,,,,,,,,,,,,,,,,,,,,,,
1768972438.221932,1768972438.22313,20.0,0.0,4386.025879,4277.05127,4375.641113,4340.384766,4383.205078,4407.692383,4396.666504,4361.025879,4377.436035,4264.743652,4489.615234,4557.94873,4409.615234,4392.692383,,,,,,,,,,,,,,,,,,,,,,,,,,,,,,,,,,,,,,,,,,,,,,,,,,,,,,,,,,,,,,,,,,,,,,
1768972438.229741,1768972438.230938,21.0,0.0,4384.615234,4277.94873,4379.358887,4339.358887,4385.256348,4413.846191,4397.94873,4361.922852,4379.743652,4263.974121,4489.487305,4553.461426,4408.205078,4393.717773,,,,,,,,,,,,,,,,,,,,,,,,,,,,,,,,,,,,,,,,,,,,,,,,,,,,,,,,,,,,,,,,,,,,,,
1768972438.237549,1768972438.238647,22.0,0.0,4387.05127,4279.487305,4378.717773,4340.641113,4384.871582,4405.769043,4395.256348,4365.512695,4383.846191,4263.717773,4488.333496,4552.94873,4410.641113,4391.922852,,,,,,,,,,,,,,,,,,,,,,,,,,,,,,,,,,,,,,,,,,,,,,,,,,,,,,,,,,,,,,,,,,,,,,
1768972438.245357,1768972438.246455,23.0,0.0,4389.743652,4276.538574,4377.563965,4341.666504,4385.256348,4402.307617,4395.512695,4369.358887,4388.205078,4264.743652,4492.692383,4561.922852,4412.692383,4390.769043,,,,,,,,,,,,,,,,,,,,,,,,,,,,,,,,,,,,,,,,,,,,,,,,,,,,,,,,,,,,,,,,,,,,,,
1768972438.253166,1768972438.254064,24.0,0.0,4388.461426,4275.769043,4377.179688,4341.025879,4387.94873,4409.102539,4399.102539,4366.410156,4385.641113,4265.128418,4494.102539,4565.128418,4414.230957,4389.743652,,,,,,,,,,,,,,,,,,,,,,,,,,,,,,,,,,,,,,,,,,,,,,,,,,,,,,,,,,,,,,,,,,,,,,
1768972438.260974,1768972438.261872,25.0,0.0,4388.717773,4279.487305,4376.282227,4342.179688,4391.025879,4407.692383,4397.820313,4360.769043,4379.487305,4262.436035,4491.025879,4560.256348,4414.743652,4390.897461,,,,,,,,,,,,,,,,,,,,,,,,,,,,,,,,,,,,,,,,,,,,,,,,,,,,,,,,,,,,,,,,,,,,,,
1768972438.268783,1768972438.269581,26.0,0.0,4393.846191,4280.256348,4377.820313,4341.922852,4388.974121,4398.589844,4391.666504,4361.538574,4384.487305,4260.769043,4491.410156,4562.307617,4413.461426,4393.589844,,,,,,,,,,,,,,,,,,,,,,,,,,,,,,,,,,,,,,,,,,,,,,,,,,,,,,,,,,,,,,,,,,,,,,
1768972438.276591,1768972438.277389,27.0,0.0,4396.282227,4276.282227,4377.820313,4338.974121,4381.794922,4396.538574,4392.05127,4367.436035,4391.794922,4259.743652,4492.563965,4566.538574,4413.589844,4390.384766,,,,,,,,,,,,,,,,,,,,,,,,,,,,,,,,,,,,,,,,,,,,,,,,,,,,,,,,,,,,,,,,,,,,,,
1768972438.2844,1768972438.285397,28.0,0.0,4390.769043,4274.230957,4377.820313,4339.230957,4378.333496,4398.974121,4398.717773,4368.461426,4389.871582,4259.871582,4491.538574,4563.333496,4414.358887,4388.205078,,,,,,,,,,,,,,,,,,,,,,,,,,,,,,,,,,,,,,,,,,,,,,,,,,,,,,,,,,,,,,,,,,,,,,
1768972438.292208,1768972438.293206,29.0,0.0,4386.922852,4274.871582,4380.512695,4342.436035,4380.384766,4401.282227,4398.205078,4365.769043,4391.538574,4262.307617,4491.538574,4565.256348,4415.384766,4391.282227,,,,,,,,,,,,,,,,,,,,,,,,,,,,,,,,,,,,,,,,,,,,,,,,,,,,,,,,,,,,,,,,,,,,,,
1768972438.300017,1768972438.301114,30.0,0.0,4386.922852,4272.820313,4379.358887,4341.794922,4381.410156,4404.743652,4394.358887,4371.922852,4397.436035,4265.0,4493.077148,4571.538574,4414.487305,4389.358887,3.047649,0.274533,0.614847,0.199258,0.115725,0.853615,0.16438,0.499144,0.215925,0.104226,0.740964,0.11633,0.210934,0.134951,0.079321,0.460226,0.169221,0.229225,0.109909,0.100418,0.179715,0.297132,0.057656,0.07987,0.0489,0.18888,0.376969,0.194442,0.233729,0.290321,0.391153,0.217779,0.3792,0.280477,0.373845,0.523093,0.071999,0.139631,0.191093,0.16544,0.580277,0.476315,0.335755,0.148282,0.113456,0.279246,0.228382,0.381298,0.223412,0.072725,0.89941,0.254538,0.272705,0.216584,0.157048,1.613485,0.177607,0.317222,0.221286,0.142733,2.018455,0.544141,0.390774,0.299434,0.14467,11.734694,0.641036,1.05149,0.23818,0.129605
1768972438.307825,1768972438.308923,31.0,0.0,4383.846191,4267.436035,4374.102539,4340.769043,4381.666504,4408.205078,4401.410156,4379.358887,4398.333496,4263.589844,4492.307617,4567.436035,4414.230957,4382.94873,,,,,,,,,,,,,,,,,,,,,,,,,,,,,,,,,,,,,,,,,,,,,,,,,,,,,,,,,,,,,,,,,,,,,,
1768972438.315633,1768972438.316531,32.0,0.0,4380.128418,4265.256348,4372.94873,4339.230957,4384.487305,4411.666504,4409.487305,4375.512695,4394.743652,4255.128418,4487.563965,4557.820313,4413.077148,4374.487305,,,,,,,,,,,,,,,,,,,,,,,,,,,,,,,,,,,,,,,,,,,,,,,,,,,,,,,,,,,,,,,,,,,,,,
1768972438.323442,1768972438.32434,33.0,0.0,4380.769043,4265.769043,4372.436035,4334.230957,4384.102539,4414.358887,4404.487305,4371.410156,4394.230957,4247.563965,4481.922852,4555.641113,4407.563965,4367.436035,,,,,,,,,,,,,,,,,,,,,,,,,,,,,,,,,,,,,,,,,,,,,,,,,,,,,,,,,,,,,,,,,,,,,,
1768972438.33125,1768972438.332248,34.0,0.0,4382.563965,4265.769043,4368.717773,4332.436035,4380.128418,4406.153809,4394.102539,4370.512695,4394.102539,4247.563965,4476.410156,4553.974121,4403.205078,4370.128418,,,,,,,,,,,,,,,,,,,,,,,,,,,,,,,,,,,,,,,,,,,,,,,,,,,,,,,,,,,,,,,,,,,,,,
1768972438.339059,1768972438.340056,35.0,0.0,4381.794922,4266.666504,4368.846191,4330.897461,4380.0,4395.128418,4392.692383,4365.641113,4387.307617,4249.230957,4476.922852,4549.102539,4405.512695,4378.077148,,,,,,,,,,,,,,,,,,,,,,,,,,,,,,,,,,,,,,,,,,,,,,,,,,,,,,,,,,,,,,,,,,,,,,
1768972438.346867,1768972438.348065,36.0,0.0,4380.769043,4265.897461,4371.282227,4327.307617,4382.563965,4398.846191,4397.94873,4361.794922,4383.333496,4247.307617,4483.974121,4553.077148,4409.487305,4380.641113,,,,,,,,,,,,,,,,,,,,,,,,,,,,,,,,,,,,,,,,,,,,,,,,,,,,,,,,,,,,,,,,,,,,,,
1768972438.354676,1768972438.355873,37.0,0.0,4380.769043,4263.974121,4371.538574,4326.410156,4382.436035,4403.974121,4398.333496,4367.94873,4389.615234,4245.128418,4489.615234,4563.846191,4411.282227,4381.666504,,,,,,,,,,,,,,,,,,,,,,,,,,,,,,,,,,,,,,,,,,,,,,,,,,,,,,,,,,,,,,,,,,,,,,
1768972438.362484,1768972438.363782,38.0,0.0,4382.179688,4264.102539,4371.410156,4328.333496,4380.128418,4400.0,4397.05127,4376.666504,4398.589844,4249.358887,4491.538574,4568.205078,4416.538574,4382.436035,,,,,,,,,,,,,,,,,,,,,,,,,,,,,,,,,,,,,,,,,,,,,,,,,,,,,,,,,,,,,,,,,,,,,,
1768972438.370293,1768972438.37159,39.0,0.0,4387.307617,4265.0,4374.230957,4332.563965,4379.871582,4400.128418,4401.538574,4373.974121,4396.666504,4256.282227,4493.846191,4567.05127,4427.179688,4383.589844,,,,,,,,,,,,,,,,,,,,,,,,,,,,,,,,,,,,,,,,,,,,,,,,,,,,,,,,,,,,,,,,,,,,,,
1768972438.378101,1768972438.379598,40.0,0.0,4389.743652,4264.230957,4375.769043,4335.769043,4382.307617,4402.692383,4404.358887,4368.205078,4390.0,4255.897461,4496.538574,4568.846191,4432.05127,4392.307617,,,,,,,,,,,,,,,,,,,,,,,,,,,,,,,,,,,,,,,,,,,,,,,,,,,,,,,,,,,,,,,,,,,,,,
1768972438.385909,1768972438.387407,41.0,0.0,4385.769043,4261.794922,4373.589844,4331.153809,4382.05127,4397.307617,4398.589844,4372.94873,4390.897461,4249.358887,4492.307617,4573.205078,4419.743652,4392.563965,,,,,,,,,,,,,,,,,,,,,,,,,,,,,,,,,,,,,,,,,,,,,,,,,,,,,,,,,,,,,,,,,,,,,,
1768972438.393718,1768972438.395115,42.0,0.0,4383.974121,4261.666504,4373.077148,4324.487305,4378.077148,4399.230957,4395.256348,4380.384766,4397.563965,4248.077148,4489.487305,4576.282227,4411.025879,4381.922852,,,,,,,,,,,,,,,,,,,,,,,,,,,,,,,,,,,,,,,,,,,,,,,,,,,,,,,,,,,,,,,,,,,,,,
1768972438.401526,1768972438.402924,43.0,0.0,4386.153809,4264.230957,4376.794922,4330.0,4377.563965,4408.589844,4403.846191,4381.153809,4401.538574,4251.922852,4500.0,4579.871582,4425.0,4387.692383,,,,,,,,,,,,,,,,,,,,,,,,,,,,,,,,,,,,,,,,,,,,,,,,,,,,,,,,,,,,,,,,,,,,,,
1768972438.409335,1768972438.410532,44.0,0.0,4383.717773,4258.333496,4379.102539,4333.333496,4379.615234,4405.256348,4410.512695,4381.025879,4398.974121,4251.025879,4504.358887,4576.666504,4429.871582,4395.384766,,,,,,,,,,,,,,,,,,,,,,,,,,,,,,,,,,,,,,,,,,,,,,,,,,,,,,,,,,,,,,,,,,,,,,
1768972438.417143,1768972438.418341,45.0,0.0,4380.769043,4248.461426,4374.358887,4329.743652,4380.384766,4400.512695,4406.153809,4378.974121,4396.025879,4246.794922,4493.717773,4566.794922,4416.922852,4384.871582,,,,,,,,,,,,,,,,,,,,,,,,,,,,,,,,,,,,,,,,,,,,,,,,,,,,,,,,,,,,,,,,,,,,,,
1768972438.424951,1768972438.426049,46.0,0.0,4382.94873,4256.025879,4370.384766,4332.563965,4380.897461,4409.230957,4403.333496,4376.538574,4398.205078,4247.307617,4490.897461,4566.282227,4417.94873,4383.205078,2.362509,0.301358,0.493259,0.170977,0.100277,0.730412,0.203405,0.496532,0.20262,0.100833,0.735868,0.141495,0.191662,0.13393,0.076604,0.360476,0.151333,0.223926,0.100493,0.094175,0.154297,0.25386,0.063124,0.074034,0.055707,0.179061,0.308659,0.233931,0.299597,0.260977,0.345717,0.150311,0.370055,0.374594,0.325158,0.38818,0.06063,0.144999,0.19918,0.153989,0.501537,0.488959,0.378542,0.172199,0.119795,0.2904,0.20662,0.349055,0.225834,0.08642,0.714911,0.248626,0.280763,0.218281,0.170686,1.457463,0.189762,0.239482,0.211778,0.145683,1.822886,0.582761,0.369044,0.3043,0.134947,8.740483,0.603999,0.738285,0.216846,0.114944
1768972438.43276,1768972438.433858,47.0,0.0,4381.538574,4262.179688,4370.641113,4336.794922,4380.897461,4411.025879,4406.666504,4380.769043,4401.025879,4249.615234,4496.922852,4568.974121,4430.128418,4389.487305,,,,,,,,,,,,,,,,,,,,,,,,,,,,,,,,,,,,,,,,,,,,,,,,,,,,,,,,,,,,,,,,,,,,,,
1768972438.440568,1768972438.441466,48.0,0.0,4377.692383,4252.820313,4370.256348,4334.487305,4381.282227,4403.333496,4406.538574,4381.410156,4399.102539,4247.05127,4494.487305,4561.538574,4428.333496,4382.563965,,,,,,,,,,,,,,,,,,,,,,,,,,,,,,,,,,,,,,,,,,,,,,,,,,,,,,,,,,,,,,,,,,,,,,
1768972438.448377,1768972438.449275,49.0,0.0,4380.641113,4252.692383,4366.666504,4332.436035,4378.077148,4398.974121,4398.589844,4376.025879,4393.461426,4244.230957,4491.666504,4558.717773,4420.384766,4379.615234,,,,,,,,,,,,,,,,,,,,,,,,,,,,,,,,,,,,,,,,,,,,,,,,,,,,,,,,,,,,,,,,,,,,,,
1768972438.456185,1768972438.457183,50.0,0.0,4382.179688,4259.230957,4361.794922,4334.102539,4374.743652,4398.974121,4395.256348,4378.333496,4395.641113,4247.820313,4492.179688,4565.641113,4419.358887,4383.589844,,,,,,,,,,,,,,,,,,,,,,,,,,,,,,,,,,,,,,,,,,,,,,,,,,,,,,,,,,,,,,,,,,,,,,
1768972438.463994,1768972438.464992,51.0,0.0,4374.102539,4255.897461,4361.794922,4334.102539,4376.794922,4403.461426,4403.205078,4389.615234,4407.307617,4248.589844,4491.794922,4569.358887,4419.230957,4382.307617,,,,,,,,,,,,,,,,,,,,,,,,,,,,,,,,,,,,,,,,,,,,,,,,,,,,,,,,,,,,,,,,,,,,,,
1768972438.471802,1768972438.473,52.0,0.0,4373.461426,4257.307617,4368.717773,4335.897461,4378.846191,4409.871582,4412.563965,4394.487305,4412.692383,4247.820313,4500.384766,4573.589844,4422.94873,4387.94873,,,,,,,,,,,,,,,,,,,,,,,,,,,,,,,,,,,,,,,,,,,,,,,,,,,,,,,,,,,,,,,,,,,,,,
1768972438.479611,1768972438.480808,53.0,0.0,4390.256348,4270.897461,4377.820313,4342.436035,4379.102539,4409.230957,4414.615234,4387.179688,4407.563965,4255.769043,4511.538574,4584.743652,4436.410156,4403.333496,,,,,,,,,,,,,,,,,,,,,,,,,,,,,,,,,,,,,,,,,,,,,,,,,,,,,,,,,,,,,,,,,,,,,,
1768972438.487419,1768972438.488717,54.0,0.0,4401.410156,4276.153809,4381.153809,4343.846191,4380.641113,4403.205078,4404.102539,4381.282227,4407.94873,4258.205078,4510.256348,4586.666504,4442.179688,4405.897461,,,,,,,,,,,,,,,,,,,,,,,,,,,,,,,,,,,,,,,,,,,,,,,,,,,,,,,,,,,,,,,,,,,,,,
1768972438.495227,1768972438.496525,55.0,0.0,4396.410156,4272.692383,4378.974121,4340.128418,4381.922852,4404.102539,4399.487305,4385.769043,4409.615234,4248.846191,4504.743652,4579.102539,4431.282227,4397.563965,,,,,,,,,,,,,,,,,,,,,,,,,,,,,,,,,,,,,,,,,,,,,,,,,,,,,,,,,,,,,,,,,,,,,,
1768972438.503036,1768972438.504533,56.0,0.0,4393.846191,4274.230957,4377.820313,4340.256348,4381.922852,4407.307617,4405.769043,4389.615234,4406.666504,4245.641113,4504.743652,4577.820313,4423.974121,4397.307617,,,,,,,,,,,,,,,,,,,,,,,,,,,,,,,,,,,,,,,,,,,,,,,,,,,,,,,,,,,,,,,,,,,,,,
1768972438.510844,1768972438.512342,57.0,0.0,4398.461426,4279.358887,4381.922852,4347.436035,4383.589844,4408.461426,4407.94873,4388.717773,4408.974121,4250.512695,4507.563965,4584.102539,4432.563965,4403.205078,,,,,,,,,,,,,,,,,,,,,,,,,,,,,,,,,,,,,,,,,,,,,,,,,,,,,,,,,,,,,,,,,,,,,,
1768972438.518653,1768972438.52005,58.0,0.0,4398.205078,4282.563965,4386.153809,4352.179688,4384.102539,4407.94873,4406.666504,4386.282227,4410.256348,4250.0,4506.922852,4586.410156,4435.0,4401.410156,,,,,,,,,,,,,,,,,,,,,,,,,,,,,,,,,,,,,,,,,,,,,,,,,,,,,,,,,,,,,,,,,,,,,,
1768972438.526461,1768972438.527859,59.0,0.0,4399.358887,4281.666504,4386.025879,4351.153809,4381.538574,4402.307617,4406.025879,4384.358887,4404.743652,4245.897461,4505.256348,4583.846191,4427.179688,4394.358887,,,,,,,,,,,,,,,,,,,,,,,,,,,,,,,,,,,,,,,,,,,,,,,,,,,,,,,,,,,,,,,,,,,,,,
1768972438.53427,1768972438.535867,60.0,0.0,4408.461426,4282.179688,4388.461426,4352.307617,4382.179688,4406.410156,4403.077148,4385.897461,4402.820313,4246.153809,4507.05127,4587.05127,4431.410156,4402.820313,,,,,,,,,,,,,,,,,,,,,,,,,,,,,,,,,,,,,,,,,,,,,,,,,,,,,,,,,,,,,,,,,,,,,,
1768972438.542078,1768972438.543675,61.0,0.0,4410.769043,4283.333496,4389.358887,4356.153809,4382.563965,4411.025879,4397.563965,4383.974121,4401.794922,4245.512695,4507.692383,4589.615234,4438.717773,4412.179688,,,,,,,,,,,,,,,,,,,,,,,,,,,,,,,,,,,,,,,,,,,,,,,,,,,,,,,,,,,,,,,,,,,,,,
1768972438.549887,1768972438.551384,62.0,0.0,4397.05127,4280.384766,4382.307617,4352.179688,4378.333496,4401.153809,4393.461426,4380.641113,4397.307617,4244.230957,4504.487305,4581.538574,4432.94873,4400.897461,1.6455,0.34035,0.379567,0.162945,0.085695,0.641601,0.238106,0.479546,0.200856,0.097464,0.730154,0.169711,0.186986,0.140349,0.075017,0.289187,0.129102,0.213937,0.098822,0.08609,0.144194,0.201775,0.077892,0.073016,0.060635,0.181989,0.25651,0.302691,0.361696,0.230381,0.305632,0.103268,0.367972,0.449947,0.277861,0.296987,0.070709,0.158902,0.199153,0.14458,0.502015,0.540942,0.412481,0.200921,0.12665,0.336233,0.21795,0.317798,0.22957,0.106642,0.568807,0.228855,0.292173,0.220806,0.17848,1.263864,0.208342,0.197658,0.202969,0.149359,1.545698,0.565076,0.340381,0.299741,0.123186,5.791349,0.560366,0.477784,0.202714,0.10706
1768972438.557695,1768972438.559192,63.0,0.0,4390.384766,4278.589844,4376.538574,4347.179688,4375.641113,4393.077148,4387.94873,4380.769043,4397.179688,4245.897461,4504.743652,4576.922852,4431.282227,4393.974121,,,,,,,,,,,,,,,,,,,,,,,,,,,,,,,,,,,,,,,,,,,,,,,,,,,,,,,,,,,,,,,,,,,,,,
1768972438.565503,1768972438.567201,64.0,0.0,4405.384766,4286.025879,4381.025879,4353.333496,4378.461426,4395.769043,4385.769043,4381.538574,4398.077148,4246.410156,4508.589844,4586.282227,4442.692383,4407.307617,,,,,,,,,,,,,,,,,,,,,,,,,,,,,,,,,,,,,,,,,,,,,,,,,,,,,,,,,,,,,,,,,,,,,,
1768972438.573312,1768972438.575009,65.0,0.0,4417.179688,4291.153809,4388.205078,4360.769043,4378.589844,4396.794922,4392.436035,4380.897461,4397.179688,4242.94873,4510.512695,4595.128418,4447.820313,4416.282227,,,,,,,,,,,,,,,,,,,,,,,,,,,,,,,,,,,,,,,,,,,,,,,,,,,,,,,,,,,,,,,,,,,,,,
1768972438.58112,1768972438.582718,66.0,0.0,4406.666504,4283.846191,4387.563965,4357.307617,4373.205078,4398.077148,4396.794922,4382.820313,4397.307617,4243.589844,4508.717773,4589.358887,4441.666504,4409.615234,,,,,,,,,,,,,,,,,,,,,,,,,,,,,,,,,,,,,,,,,,,,,,,,,,,,,,,,,,,,,,,,,,,,,,
1768972438.588929,1768972438.590526,67.0,0.0,4395.769043,4278.846191,4383.589844,4351.538574,4373.205078,4404.615234,4395.128418,4387.179688,4398.333496,4249.871582,4507.307617,4582.563965,4440.769043,4408.077148,,,,,,,,,,,,,,,,,,,,,,,,,,,,,,,,,,,,,,,,,,,,,,,,,,,,,,,,,,,,,,,,,,,,,,
1768972438.596737,1768972438.598135,68.0,0.0,4404.743652,4282.94873,4386.153809,4354.102539,4379.615234,4401.282227,4393.077148,4388.461426,4398.077148,4252.307617,4508.589844,4587.692383,4443.461426,4411.153809,,,,,,,,,,,,,,,,,,,,,,,,,,,,,,,,,,,,,,,,,,,,,,,,,,,,,,,,,,,,,,,,,,,,,,
1768972438.604546,1768972438.605943,69.0,0.0,4411.922852,4284.230957,4391.025879,4358.077148,4383.077148,4396.282227,4395.128418,4388.205078,4398.333496,4250.897461,4510.769043,4595.512695,4444.487305,4411.282227,,,,,,,,,,,,,,,,,,,,,,,,,,,,,,,,,,,,,,,,,,,,,,,,,,,,,,,,,,,,,,,,,,,,,,
1768972438.612354,1768972438.613652,70.0,0.0,4406.025879,4279.871582,4386.794922,4353.589844,4380.256348,4399.871582,4397.563965,4387.563965,4398.589844,4248.333496,4509.358887,4592.05127,4444.358887,4410.384766,,,,,,,,,,,,,,,,,,,,,,,,,,,,,,,,,,,,,,,,,,,,,,,,,,,,,,,,,,,,,,,,,,,,,,
1768972438.620163,1768972438.62146,71.0,0.0,4402.563965,4277.307617,4381.922852,4349.358887,4378.717773,4404.102539,4398.717773,4390.769043,4399.487305,4246.153809,4507.820313,4588.589844,4442.563965,4410.512695,,,,,,,,,,,,,,,,,,,,,,,,,,,,,,,,,,,,,,,,,,,,,,,,,,,,,,,,,,,,,,,,,,,,,,
1768972438.627971,1768972438.629069,72.0,0.0,4405.384766,4278.974121,4385.769043,4354.871582,4381.153809,4406.538574,4399.230957,4394.230957,4401.794922,4248.205078,4509.487305,4593.461426,4442.436035,4412.820313,,,,,,,,,,,,,,,,,,,,,,,,,,,,,,,,,,,,,,,,,,,,,,,,,,,,,,,,,,,,,,,,,,,,,,
1768972438.63578,1768972438.636877,73.0,0.0,4407.179688,4281.153809,4388.461426,4357.94873,4382.692383,4405.769043,4399.102539,4392.05127,4404.743652,4249.487305,4511.025879,4594.102539,4444.102539,4411.666504,,,,,,,,,,,,,,,,,,,,,,,,,,,,,,,,,,,,,,,,,,,,,,,,,,,,,,,,,,,,,,,,,,,,,,
1768972438.643588,1768972438.644586,74.0,0.0,4408.589844,4279.743652,4388.589844,4355.128418,4381.666504,4406.410156,4400.384766,4395.384766,4409.487305,4250.256348,4512.692383,4593.461426,4444.743652,4409.743652,,,,,,,,,,,,,,,,,,,,,,,,,,,,,,,,,,,,,,,,,,,,,,,,,,,,,,,,,,,,,,,,,,,,,,
1768972438.651396,1768972438.652394,75.0,0.0,4415.641113,4279.230957,4391.538574,4356.538574,4383.205078,4407.563965,4401.410156,4401.282227,4412.179688,4254.615234,4513.333496,4596.410156,4444.487305,4412.436035,,,,,,,,,,,,,,,,,,,,,,,,,,,,,,,,,,,,,,,,,,,,,,,,,,,,,,,,,,,,,,,,,,,,,,
1768972438.659205,1768972438.660003,76.0,0.0,4414.230957,4280.769043,4389.487305,4355.641113,4383.333496,4404.743652,4398.846191,4396.538574,4407.179688,4253.333496,4510.0,4592.307617,4443.589844,4412.307617,,,,,,,,,,,,,,,,,,,,,,,,,,,,,,,,,,,,,,,,,,,,,,,,,,,,,,,,,,,,,,,,,,,,,,
1768972438.667013,1768972438.667811,77.0,0.0,4405.384766,4279.487305,4382.436035,4349.615234,4381.153809,4406.922852,4397.94873,4388.589844,4401.282227,4247.692383,4506.922852,4585.384766,4442.563965,4410.256348,,,,,,,,,,,,,,,,,,,,,,,,,,,,,,,,,,,,,,,,,,,,,,,,,,,,,,,,,,,,,,,,,,,,,,
1768972438.674822,1768972438.67572,78.0,0.0,4405.384766,4278.589844,4383.846191,4350.384766,4379.358887,4410.128418,4396.794922,4388.077148,4401.922852,4248.846191,4508.205078,4588.589844,4442.692383,4412.307617,1.039307,0.372009,0.28682,0.168171,0.074881,0.641462,0.256924,0.441831,0.20448,0.094366,0.71647,0.194734,0.189383,0.148291,0.074841,0.260459,0.106989,0.199683,0.102266,0.078118,0.141643,0.158841,0.093952,0.074636,0.062175,0.186789,0.24265,0.388568,0.400687,0.207957,0.27781,0.085559,0.363355,0.485225,0.241964,0.270834,0.095834,0.185279,0.189382,0.137908,0.583115,0.614517,0.43219,0.224231,0.132831,0.442258,0.258831,0.304256,0.230393,0.128231,0.50937,0.205838,0.310007,0.222073,0.177043,1.080109,0.2436,0.193912,0.194625,0.15052,1.265117,0.504381,0.318971,0.283762,0.112752,3.332464,0.527611,0.306714,0.196412,0.107314
1768972438.68263,1768972438.683528,79.0,0.0,4414.230957,4279.230957,4387.692383,4355.0,4376.538574,4400.641113,4390.769043,4388.717773,4401.410156,4250.512695,4507.563965,4595.897461,4443.461426,4412.563965,,,,,,,,,,,,,,,,,,,,,,,,,,,,,,,,,,,,,,,,,,,,,,,,,,,,,,,,,,,,,,,,,,,,,,
1768972438.690439,1768972438.691536,80.0,0.0,4416.538574,4279.230957,4385.897461,4353.205078,4374.487305,4396.922852,4391.025879,4389.102539,4401.153809,4250.769043,4508.461426,4597.179688,4443.717773,4411.666504,,,,,,,,,,,,,,,,,,,,,,,,,,,,,,,,,,,,,,,,,,,,,,,,,,,,,,,,,,,,,,,,,,,,,,
1768972438.698247,1768972438.699345,81.0,0.0,4411.025879,4276.282227,4384.871582,4350.897461,4374.230957,4406.666504,4397.05127,4392.820313,4408.333496,4256.794922,4513.461426,4596.538574,4444.102539,4414.871582,,,,,,,,,,,,,,,,,,,,,,,,,,,,,,,,,,,,,,,,,,,,,,,,,,,,,,,,,,,,,,,,,,,,,,
1768972438.706056,1768972438.707253,82.0,0.0,4411.282227,4276.666504,4388.333496,4353.077148,4376.666504,4407.179688,4398.333496,4394.871582,4412.179688,4261.410156,4513.846191,4597.820313,4443.974121,4414.230957,,,,,,,,,,,,,,,,,,,,,,,,,,,,,,,,,,,,,,,,,,,,,,,,,,,,,,,,,,,,,,,,,,,,,,
1768972438.713864,1768972438.715062,83.0,0.0,4414.615234,4283.461426,4392.563965,4357.436035,4380.384766,4405.128418,4401.153809,4393.461426,4410.641113,4261.538574,4514.230957,4600.256348,4443.589844,4415.128418,,,,,,,,,,,,,,,,,,,,,,,,,,,,,,,,,,,,,,,,,,,,,,,,,,,,,,,,,,,,,,,,,,,,,,
1768972438.721672,1768972438.72267,84.0,0.0,4413.846191,4288.333496,4393.846191,4360.0,4380.897461,4410.512695,4403.205078,4392.436035,4411.025879,4262.820313,4517.307617,4598.589844,4443.974121,4423.589844,,,,,,,,,,,,,,,,,,,,,,,,,,,,,,,,,,,,,,,,,,,,,,,,,,,,,,,,,,,,,,,,,,,,,,
1768972438.729481,1768972438.730479,85.0,0.0,4414.615234,4292.179688,4392.436035,4359.230957,4380.641113,4409.230957,4399.743652,4393.846191,4413.077148,4264.871582,4518.717773,4595.897461,4445.0,4427.307617,,,,,,,,,,,,,,,,,,,,,,,,,,,,,,,,,,,,,,,,,,,,,,,,,,,,,,,,,,,,,,,,,,,,,,
1768972438.737289,1768972438.738387,86.0,0.0,4419.358887,4296.410156,4393.846191,4358.077148,4382.692383,4401.794922,4397.94873,4400.256348,4416.282227,4268.333496,4521.666504,4603.077148,4446.025879,4428.205078,,,,,,,,,,,,,,,,,,,,,,,,,,,,,,,,,,,,,,,,,,,,,,,,,,,,,,,,,,,,,,,,,,,,,,
1768972438.745098,1768972438.746196,87.0,0.0,4418.333496,4295.897461,4396.153809,4358.461426,4381.666504,4403.974121,4402.307617,4403.974121,4421.410156,4271.922852,4525.769043,4611.922852,4448.974121,4432.820313,,,,,,,,,,,,,,,,,,,,,,,,,,,,,,,,,,,,,,,,,,,,,,,,,,,,,,,,,,,,,,,,,,,,,,
1768972438.752906,1768972438.754204,88.0,0.0,4412.820313,4293.333496,4393.974121,4358.205078,4379.871582,4408.205078,4403.461426,4398.846191,4420.0,4275.128418,4523.461426,4608.974121,4456.794922,4432.179688,,,,,,,,,,,,,,,,,,,,,,,,,,,,,,,,,,,,,,,,,,,,,,,,,,,,,,,,,,,,,,,,,,,,,,
1768972438.760714,1768972438.762012,89.0,0.0,4412.94873,4295.0,4396.025879,4358.974121,4385.128418,4405.897461,4403.589844,4400.384766,4418.974121,4274.230957,4522.436035,4606.538574,4460.128418,4427.820313,,,,,,,,,,,,,,,,,,,,,,,,,,,,,,,,,,,,,,,,,,,,,,,,,,,,,,,,,,,,,,,,,,,,,,
1768972438.768523,1768972438.769721,90.0,0.0,4414.487305,4295.256348,4400.897461,4358.077148,4381.410156,4405.897461,4405.128418,4409.487305,4422.692383,4268.846191,4526.025879,4611.410156,4449.615234,4428.461426,,,,,,,,,,,,,,,,,,,,,,,,,,,,,,,,,,,,,,,,,,,,,,,,,,,,,,,,,,,,,,,,,,,,,,
1768972438.776331,1768972438.777529,91.0,0.0,4413.717773,4291.538574,4396.538574,4353.846191,4372.179688,4406.153809,4400.512695,4404.102539,4418.333496,4265.512695,4521.666504,4605.0,4442.307617,4428.077148,,,,,,,,,,,,,,,,,,,,,,,,,,,,,,,,,,,,,,,,,,,,,,,,,,,,,,,,,,,,,,,,,,,,,,
1768972438.78414,1768972438.785138,92.0,0.0,4413.974121,4292.820313,4395.512695,4354.102539,4376.666504,4400.0,4393.589844,4394.871582,4410.769043,4267.05127,4518.717773,4596.538574,4448.333496,4427.307617,,,,,,,,,,,,,,,,,,,,,,,,,,,,,,,,,,,,,,,,,,,,,,,,,,,,,,,,,,,,,,,,,,,,,,
1768972438.791948,1768972438.792946,93.0,0.0,4415.256348,4295.128418,4401.153809,4358.846191,4381.538574,4397.05127,4398.717773,4400.641113,4410.897461,4268.589844,4522.05127,4601.922852,4449.230957,4429.615234,,,,,,,,,,,,,,,,,,,,,,,,,,,,,,,,,,,,,,,,,,,,,,,,,,,,,,,,,,,,,,,,,,,,,,
1768972438.799757,1768972438.800655,94.0,0.0,4415.641113,4291.282227,4401.410156,4358.717773,4375.384766,4402.94873,4410.512695,4407.820313,4413.589844,4268.974121,4523.846191,4607.820313,4445.641113,4430.0,0.657163,0.390103,0.218014,0.177888,0.071174,0.67098,0.262971,0.381988,0.204798,0.093056,0.713812,0.218076,0.189062,0.151526,0.075398,0.260879,0.089445,0.181212,0.105905,0.071524,0.142234,0.137204,0.10361,0.076812,0.059887,0.200048,0.274303,0.471903,0.40558,0.197743,0.258942,0.100893,0.346959,0.474142,0.219942,0.29269,0.13079,0.223359,0.171864,0.13378,0.727804,0.682409,0.438,0.233383,0.137203,0.522215,0.31796,0.31368,0.223005,0.144583,0.544746,0.197753,0.333285,0.220202,0.165705,0.95486,0.314692,0.217686,0.18693,0.14759,1.046881,0.436819,0.314229,0.259366,0.108851,1.73457,0.536909,0.227686,0.193949,0.1163
1768972438.807565,1768972438.808463,95.0,0.0,4419.102539,4288.589844,4397.436035,4358.205078,4377.05127,4405.641113,4412.692383,4408.077148,4414.487305,4275.641113,4524.743652,4608.461426,4453.717773,4431.794922,,,,,,,,,,,,,,,,,,,,,,,,,,,,,,,,,,,,,,,,,,,,,,,,,,,,,,,,,,,,,,,,,,,,,,
1768972438.815374,1768972438.816072,96.0,0.0,4420.512695,4292.563965,4396.025879,4360.769043,4380.897461,4402.563965,4404.487305,4409.230957,4415.256348,4281.410156,4526.794922,4607.692383,4463.461426,4435.0,,,,,,,,,,,,,,,,,,,,,,,,,,,,,,,,,,,,,,,,,,,,,,,,,,,,,,,,,,,,,,,,,,,,,,
1768972438.823182,1768972438.82388,97.0,0.0,4416.794922,4297.820313,4395.512695,4360.256348,4374.358887,4396.282227,4393.589844,4408.205078,4412.820313,4280.256348,4526.153809,4603.461426,4457.307617,4434.102539,,,,,,,,,,,,,,,,,,,,,,,,,,,,,,,,,,,,,,,,,,,,,,,,,,,,,,,,,,,,,,,,,,,,,,
1768972438.83099,1768972438.831589,98.0,0.0,4411.025879,4292.94873,4392.05127,4355.641113,4374.871582,4392.820313,4391.153809,4407.692383,4411.666504,4278.205078,4522.563965,4598.077148,4445.897461,4426.153809,,,,,,,,,,,,,,,,,,,,,,,,,,,,,,,,,,,,,,,,,,,,,,,,,,,,,,,,,,,,,,,,,,,,,,
1768972438.838799,1768972438.839397,99.0,0.0,4409.102539,4283.717773,4388.974121,4353.974121,4379.871582,4402.436035,4404.871582,4412.307617,4414.487305,4279.358887,4521.282227,4597.692383,4443.974121,4419.358887,,,,,,,,,,,,,,,,,,,,,,,,,,,,,,,,,,,,,,,,,,,,,,,,,,,,,,,,,,,,,,,,,,,,,,
1768972438.846607,1768972438.847006,100.0,0.0,4411.922852,4281.666504,4392.179688,4358.589844,4375.128418,4407.307617,4411.153809,4411.153809,4412.820313,4283.333496,4522.179688,4598.846191,4446.794922,4422.179688,,,,,,,,,,,,,,,,,,,,,,,,,,,,,,,,,,,,,,,,,,,,,,,,,,,,,,,,,,,,,,,,,,,,,,
1768972438.854416,1768972438.854815,101.0,0.0,4412.692383,4282.94873,4397.05127,4362.179688,4374.871582,4397.436035,4398.717773,4406.282227,4411.410156,4283.717773,4523.077148,4601.282227,4445.897461,4428.717773,,,,,,,,,,,,,,,,,,,,,,,,,,,,,,,,,,,,,,,,,,,,,,,,,,,,,,,,,,,,,,,,,,,,,,
1768972438.862224,1768972438.862523,102.0,0.0,4410.256348,4285.384766,4396.025879,4358.846191,4381.794922,4393.846191,4392.563965,4406.410156,4413.846191,4282.307617,4523.333496,4601.025879,4443.333496,4428.717773,,,,,,,,,,,,,,,,,,,,,,,,,,,,,,,,,,,,,,,,,,,,,,,,,,,,,,,,,,,,,,,,,,,,,,
1768972438.870033,1768972438.870332,103.0,0.0,4409.487305,4288.205078,4393.077148,4355.769043,4383.333496,4402.05127,4400.641113,4405.897461,4413.461426,4285.128418,4522.563965,4596.794922,4444.358887,4428.717773,,,,,,,,,,,,,,,,,,,,,,,,,,,,,,,,,,,,,,,,,,,,,,,,,,,,,,,,,,,,,,,,,,,,,,
1768972438.877841,1768972438.87834,104.0,0.0,4411.538574,4288.717773,4395.641113,4358.333496,4382.692383,4406.282227,4401.922852,4404.615234,4412.436035,4290.769043,4522.692383,4600.384766,4445.897461,4431.153809,,,,,,,,,,,,,,,,,,,,,,,,,,,,,,,,,,,,,,,,,,,,,,,,,,,,,,,,,,,,,,,,,,,,,,
1768972438.88565,1768972438.886148,105.0,0.0,4412.563965,4289.615234,4398.461426,4359.358887,4382.05127,4405.256348,4399.743652,4405.384766,4412.692383,4291.282227,4522.179688,4607.563965,4445.256348,4429.230957,,,,,,,,,,,,,,,,,,,,,,,,,,,,,,,,,,,,,,,,,,,,,,,,,,,,,,,,,,,,,,,,,,,,,,
1768972438.893458,1768972438.894057,106.0,0.0,4412.563965,4294.230957,4397.05127,4358.461426,4381.282227,4405.641113,4402.692383,4407.179688,4412.692383,4290.128418,4523.077148,4606.922852,4447.179688,4434.358887,,,,,,,,,,,,,,,,,,,,,,,,,,,,,,,,,,,,,,,,,,,,,,,,,,,,,,,,,,,,,,,,,,,,,,
1768972438.901266,1768972438.901865,107.0,0.0,4413.461426,4297.563965,4395.512695,4361.666504,4382.820313,4402.692383,4400.128418,4408.205078,4412.820313,4293.717773,4524.102539,4598.333496,4449.487305,4439.102539,,,,,,,,,,,,,,,,,,,,,,,,,,,,,,,,,,,,,,,,,,,,,,,,,,,,,,,,,,,,,,,,,,,,,,
1768972438.909075,1768972438.909873,108.0,0.0,4411.666504,4293.846191,4396.410156,4366.153809,4383.205078,4400.769043,4401.410156,4408.589844,4412.307617,4292.179688,4521.153809,4592.05127,4448.717773,4430.512695,,,,,,,,,,,,,,,,,,,,,,,,,,,,,,,,,,,,,,,,,,,,,,,,,,,,,,,,,,,,,,,,,,,,,,
1768972438.916883,1768972438.917682,109.0,0.0,4411.282227,4293.333496,4397.563965,4365.256348,4378.974121,4403.205078,4408.461426,4408.974121,4411.538574,4288.333496,4516.922852,4593.205078,4445.256348,4426.666504,,,,,,,,,,,,,,,,,,,,,,,,,,,,,,,,,,,,,,,,,,,,,,,,,,,,,,,,,,,,,,,,,,,,,,
1768972438.924692,1768972438.92539,110.0,0.0,4412.820313,4293.077148,4394.358887,4357.05127,4376.410156,4401.922852,4403.589844,4406.666504,4410.897461,4290.256348,4510.769043,4591.666504,4441.794922,4427.307617,0.514647,0.392633,0.167822,0.186712,0.077562,0.820929,0.265317,0.304947,0.195357,0.094302,0.72021,0.244247,0.178748,0.147907,0.075622,0.292252,0.078583,0.158461,0.105231,0.066967,0.138301,0.141836,0.103891,0.07835,0.054539,0.211642,0.336609,0.529643,0.379149,0.197172,0.243306,0.142538,0.316405,0.42778,0.20697,0.34039,0.168222,0.264834,0.150881,0.131167,0.864894,0.716592,0.429882,0.225034,0.138236,0.62633,0.380651,0.333381,0.204571,0.150117,0.665206,0.221285,0.354495,0.214033,0.146723,0.887819,0.434759,0.2481,0.181946,0.141478,0.933531,0.394067,0.327958,0.233055,0.114991,0.957525,0.600063,0.216932,0.190903,0.132954
1768972438.9325,1768972438.933199,111.0,0.0,4409.743652,4285.512695,4388.717773,4353.077148,4375.769043,4395.897461,4393.974121,4404.358887,4410.897461,4293.846191,4507.05127,4585.128418,4442.307617,4422.179688,,,,,,,,,,,,,,,,,,,,,,,,,,,,,,,,,,,,,,,,,,,,,,,,,,,,,,,,,,,,,,,,,,,,,,
1768972438.940309,1768972438.941207,112.0,0.0,4405.0,4279.615234,4389.102539,4358.205078,4376.282227,4394.487305,4396.538574,4405.897461,4412.05127,4295.256348,4512.436035,4586.153809,4445.641113,4422.563965,,,,,,,,,,,,,,,,,,,,,,,,,,,,,,,,,,,,,,,,,,,,,,,,,,,,,,,,,,,,,,,,,,,,,,
1768972438.948117,1768972438.949015,113.0,0.0,4404.615234,4275.769043,4393.846191,4361.025879,4378.589844,4398.846191,4401.410156,4412.05127,4412.692383,4294.743652,4520.0,4594.358887,4444.230957,4428.461426,,,,,,,,,,,,,,,,,,,,,,,,,,,,,,,,,,,,,,,,,,,,,,,,,,,,,,,,,,,,,,,,,,,,,,
1768972438.955926,1768972438.956724,114.0,0.0,4405.384766,4267.563965,4394.487305,4356.922852,4376.025879,4400.256348,4399.358887,4418.717773,4413.205078,4295.256348,4521.538574,4595.897461,4441.922852,4426.538574,,,,,,,,,,,,,,,,,,,,,,,,,,,,,,,,,,,,,,,,,,,,,,,,,,,,,,,,,,,,,,,,,,,,,,
1768972438.963734,1768972438.964532,115.0,0.0,4402.820313,4262.05127,4389.743652,4356.410156,4374.743652,4398.846191,4397.05127,4414.102539,4413.974121,4296.538574,4518.205078,4595.384766,4444.358887,4427.436035,,,,,,,,,,,,,,,,,,,,,,,,,,,,,,,,,,,,,,,,,,,,,,,,,,,,,,,,,,,,,,,,,,,,,,
1768972438.971542,1768972438.972141,116.0,0.0,4398.333496,4265.384766,4388.717773,4356.410156,4378.077148,4393.077148,4392.692383,4399.871582,4407.307617,4295.641113,4510.897461,4591.025879,4439.615234,4426.025879,,,,,,,,,,,,,,,,,,,,,,,,,,,,,,,,,,,,,,,,,,,,,,,,,,,,,,,,,,,,,,,,,,,,,,
1768972438.979351,1768972438.97995,117.0,0.0,4395.128418,4273.846191,4389.615234,4351.794922,4375.256348,4385.641113,4389.358887,4397.05127,4397.692383,4292.94873,4505.0,4582.436035,4428.846191,4412.94873,,,,,,,,,,,,,,,,,,,,,,,,,,,,,,,,,,,,,,,,,,,,,,,,,,,,,,,,,,,,,,,,,,,,,,
1768972438.987159,1768972438.987658,118.0,0.0,4396.025879,4285.128418,4384.871582,4351.410156,4369.230957,4387.05127,4390.0,4405.256348,4398.846191,4294.102539,4506.282227,4583.589844,4428.205078,4412.05127,,,,,,,,,,,,,,,,,,,,,,,,,,,,,,,,,,,,,,,,,,,,,,,,,,,,,,,,,,,,,,,,,,,,,,
1768972438.994968,1768972438.995467,119.0,0.0,4396.922852,4287.94873,4377.436035,4354.230957,4371.922852,4395.897461,4393.589844,4406.538574,4403.974121,4295.769043,4507.05127,4586.794922,4431.538574,4420.0,,,,,,,,,,,,,,,,,,,,,,,,,,,,,,,,,,,,,,,,,,,,,,,,,,,,,,,,,,,,,,,,,,,,,,
1768972439.002776,1768972439.003475,120.0,0.0,4395.0,4278.974121,4377.179688,4355.128418,4376.538574,4399.102539,4398.974121,4409.102539,4404.615234,4293.974121,4503.077148,4581.666504,4428.333496,4415.897461,,,,,,,,,,,,,,,,,,,,,,,,,,,,,,,,,,,,,,,,,,,,,,,,,,,,,,,,,,,,,,,,,,,,,,
1768972439.010585,1768972439.011283,121.0,0.0,4396.666504,4280.641113,4384.102539,4356.922852,4373.461426,4388.589844,4395.384766,4412.692383,4402.820313,4294.230957,4506.410156,4578.077148,4427.563965,4410.897461,,,,,,,,,,,,,,,,,,,,,,,,,,,,,,,,,,,,,,,,,,,,,,,,,,,,,,,,,,,,,,,,,,,,,,
1768972439.018393,1768972439.018992,122.0,0.0,4398.589844,4290.384766,4385.256348,4357.820313,4372.436035,4378.974121,4385.897461,4405.384766,4398.077148,4295.0,4507.179688,4579.230957,4430.128418,4413.333496,,,,,,,,,,,,,,,,,,,,,,,,,,,,,,,,,,,,,,,,,,,,,,,,,,,,,,,,,,,,,,,,,,,,,,
1768972439.026202,1768972439.0268,123.0,0.0,4396.025879,4288.974121,4380.256348,4356.153809,4372.94873,4382.820313,4386.538574,4401.922852,4395.641113,4295.256348,4497.436035,4578.846191,4427.94873,4412.436035,,,,,,,,,,,,,,,,,,,,,,,,,,,,,,,,,,,,,,,,,,,,,,,,,,,,,,,,,,,,,,,,,,,,,,
1768972439.03401,1768972439.034409,124.0,0.0,4394.743652,4287.05127,4377.563965,4356.410156,4372.692383,4388.077148,4392.563965,4405.128418,4396.025879,4295.256348,4497.563965,4579.615234,4426.922852,4410.384766,,,,,,,,,,,,,,,,,,,,,,,,,,,,,,,,,,,,,,,,,,,,,,,,,,,,,,,,,,,,,,,,,,,,,,
1768972439.041819,1768972439.042217,125.0,0.0,4397.179688,4292.692383,4379.230957,4359.615234,4372.179688,4383.333496,4388.333496,4406.153809,4397.563965,4295.897461,4506.922852,4582.692383,4431.410156,4412.563965,,,,,,,,,,,,,,,,,,,,,,,,,,,,,,,,,,,,,,,,,,,,,,,,,,,,,,,,,,,,,,,,,,,,,,
1768972439.049627,1768972439.049926,126.0,0.0,4400.512695,4295.384766,4381.410156,4361.282227,4369.615234,4383.717773,4386.794922,4412.179688,4403.974121,4299.358887,4507.94873,4582.563965,4433.333496,4414.102539,0.551087,0.378165,0.130061,0.193656,0.094723,0.952807,0.271311,0.22689,0.174924,0.09733,0.753565,0.276555,0.15786,0.139579,0.074566,0.313961,0.07437,0.133669,0.099217,0.064704,0.13828,0.167574,0.096532,0.07825,0.048098,0.229863,0.405476,0.544913,0.334473,0.199181,0.241038,0.199253,0.275535,0.369449,0.195541,0.383521,0.201824,0.294457,0.131387,0.12878,0.972096,0.70524,0.404747,0.203242,0.13453,0.6375,0.431194,0.342526,0.177726,0.142911,0.809184,0.27804,0.361931,0.20313,0.123958,0.905936,0.593633,0.267983,0.181883,0.134634,0.895555,0.386642,0.353066,0.212,0.130566,0.774858,0.696547,0.239514,0.18486,0.153421
1768972439.057435,1768972439.057734,127.0,0.0,4394.615234,4292.563965,4380.384766,4361.282227,4369.743652,4390.512695,4394.871582,4414.487305,4403.974121,4297.820313,4504.871582,4583.461426,4430.128418,4412.436035,,,,,,,,,,,,,,,,,,,,,,,,,,,,,,,,,,,,,,,,,,,,,,,,,,,,,,,,,,,,,,,,,,,,,,
1768972439.065244,1768972439.065743,0.0,0.0,4383.589844,4291.538574,4378.077148,4363.077148,4372.94873,4387.692383,4393.333496,4404.487305,4393.589844,4295.0,4501.025879,4582.436035,4427.563965,4406.666504,,,,,,,,,,,,,,,,,,,,,,,,,,,,,,,,,,,,,,,,,,,,,,,,,,,,,,,,,,,,,,,,,,,,,,
1768972439.073052,1768972439.073551,1.0,0.0,4382.436035,4293.077148,4376.922852,4364.358887,4373.077148,4382.179688,4383.974121,4401.794922,4392.563965,4298.333496,4494.102539,4577.05127,4427.820313,4405.256348,,,,,,,,,,,,,,,,,,,,,,,,,,,,,,,,,,,,,,,,,,,,,,,,,,,,,,,,,,,,,,,,,,,,,,
1768972439.080861,1768972439.081459,2.0,0.0,4385.897461,4296.666504,4378.461426,4361.153809,4372.820313,4380.897461,4382.05127,4408.205078,4397.563965,4300.512695,4491.922852,4570.897461,4428.461426,4410.128418,,,,,,,,,,,,,,,,,,,,,,,,,,,,,,,,,,,,,,,,,,,,,,,,,,,,,,,,,,,,,,,,,,,,,,
1768972439.088669,1768972439.089268,3.0,0.0,4383.205078,4301.153809,4378.589844,4358.077148,4373.205078,4381.025879,4383.589844,4408.205078,4395.769043,4297.692383,4494.358887,4566.025879,4427.307617,4407.436035,,,,,,,,,,,,,,,,,,,,,,,,,,,,,,,,,,,,,,,,,,,,,,,,,,,,,,,,,,,,,,,,,,,,,,
1768972439.096477,1768972439.097276,4.0,0.0,4379.743652,4299.230957,4376.025879,4359.871582,4369.871582,4380.512695,4383.333496,4406.025879,4393.589844,4297.05127,4491.538574,4565.769043,4425.769043,4402.820313,,,,,,,,,,,,,,,,,,,,,,,,,,,,,,,,,,,,,,,,,,,,,,,,,,,,,,,,,,,,,,,,,,,,,,
1768972439.104286,1768972439.105084,5.0,0.0,4382.307617,4298.461426,4375.512695,4363.333496,4369.102539,4381.282227,4386.410156,4407.05127,4392.179688,4298.461426,4491.025879,4570.0,4426.153809,4408.589844,,,,,,,,,,,,,,,,,,,,,,,,,,,,,,,,,,,,,,,,,,,,,,,,,,,,,,,,,,,,,,,,,,,,,,
1768972439.112094,1768972439.112993,6.0,0.0,4384.743652,4302.692383,4375.512695,4363.974121,4369.487305,4382.436035,4389.615234,4407.820313,4387.94873,4297.307617,4494.615234,4573.077148,4425.384766,4412.692383,,,,,,,,,,,,,,,,,,,,,,,,,,,,,,,,,,,,,,,,,,,,,,,,,,,,,,,,,,,,,,,,,,,,,,
1768972439.119903,1768972439.120801,7.0,0.0,4379.102539,4300.769043,4368.333496,4361.025879,4366.794922,4383.461426,4388.974121,4407.179688,4387.179688,4293.974121,4489.102539,4565.384766,4415.384766,4399.871582,,,,,,,,,,,,,,,,,,,,,,,,,,,,,,,,,,,,,,,,,,,,,,,,,,,,,,,,,,,,,,,,,,,,,,
1768972439.127711,1768972439.12841,8.0,0.0,4370.0,4293.461426,4359.358887,4357.563965,4368.846191,4385.769043,4387.307617,4406.025879,4390.0,4292.692383,4481.794922,4557.563965,4404.102539,4387.436035,,,,,,,,,,,,,,,,,,,,,,,,,,,,,,,,,,,,,,,,,,,,,,,,,,,,,,,,,,,,,,,,,,,,,,
1768972439.13552,1768972439.136218,9.0,0.0,4373.461426,4297.179688,4365.641113,4360.641113,4368.589844,4382.307617,4382.436035,4412.307617,4395.256348,4302.820313,4493.205078,4570.0,4417.820313,4398.461426,,,,,,,,,,,,,,,,,,,,,,,,,,,,,,,,,,,,,,,,,,,,,,,,,,,,,,,,,,,,,,,,,,,,,,
1768972439.143328,1768972439.144127,10.0,0.0,4384.487305,4308.077148,4378.205078,4366.153809,4360.769043,4376.153809,4379.487305,4421.666504,4401.666504,4313.589844,4512.05127,4584.487305,4440.769043,4418.846191,,,,,,,,,,,,,,,,,,,,,,,,,,,,,,,,,,,,,,,,,,,,,,,,,,,,,,,,,,,,,,,,,,,,,,
1768972439.151137,1768972439.151935,11.0,0.0,4383.333496,4311.922852,4378.205078,4369.743652,4362.307617,4376.794922,4380.769043,4415.512695,4398.461426,4312.563965,4509.743652,4579.358887,4439.358887,4423.461426,,,,,,,,,,,,,,,,,,,,,,,,,,,,,,,,,,,,,,,,,,,,,,,,,,,,,,,,,,,,,,,,,,,,,,
1768972439.158945,1768972439.159544,12.0,0.0,4380.256348,4313.846191,4370.512695,4372.94873,4372.179688,4382.820313,4378.717773,4404.230957,4390.512695,4308.717773,4495.256348,4570.128418,4428.846191,4416.282227,,,,,,,,,,,,,,,,,,,,,,,,,,,,,,,,,,,,,,,,,,,,,,,,,,,,,,,,,,,,,,,,,,,,,,
1768972439.166753,1768972439.167352,13.0,0.0,4383.461426,4314.871582,4369.358887,4373.077148,4373.589844,4384.743652,4381.922852,4409.487305,4389.102539,4302.05127,4492.436035,4570.128418,4424.358887,4411.666504,,,,,,,,,,,,,,,,,,,,,,,,,,,,,,,,,,,,,,,,,,,,,,,,,,,,,,,,,,,,,,,,,,,,,,
1768972439.174562,1768972439.175061,14.0,0.0,4382.692383,4313.077148,4376.025879,4368.846191,4369.102539,4381.666504,4391.666504,4414.487305,4389.871582,4294.615234,4494.230957,4569.615234,4418.589844,4409.871582,0.61655,0.349382,0.105574,0.200314,0.120059,1.161218,0.290425,0.168208,0.148353,0.100221,0.775413,0.309651,0.13139,0.130693,0.07218,0.334323,0.076125,0.111345,0.090855,0.064706,0.139752,0.20267,0.086505,0.075582,0.043027,0.251617,0.453537,0.509426,0.28871,0.197619,0.251338,0.258951,0.228937,0.32344,0.182318,0.407521,0.229852,0.298853,0.118315,0.125868,0.995586,0.657463,0.360626,0.177224,0.125693,0.620746,0.459658,0.328966,0.149352,0.12549,0.885003,0.34899,0.348483,0.188101,0.101582,0.891509,0.754486,0.272004,0.186497,0.129803,0.865903,0.399691,0.379621,0.200206,0.151301,0.825565,0.778385,0.270128,0.175338,0.171862
1768972439.18237,1768972439.182869,15.0,0.0,4380.256348,4314.743652,4375.128418,4369.487305,4368.589844,4380.0,4391.410156,4408.589844,4388.589844,4301.410156,4492.692383,4568.333496,4421.025879,4412.05127,,,,,,,,,,,,,,,,,,,,,,,,,,,,,,,,,,,,,,,,,,,,,,,,,,,,,,,,,,,,,,,,,,,,,,
1768972439.190179,1768972439.190478,16.0,0.0,4382.820313,4317.436035,4366.282227,4371.922852,4368.846191,4382.436035,4388.205078,4410.0,4388.461426,4310.641113,4492.436035,4568.589844,4426.922852,4415.384766,,,,,,,,,,,,,,,,,,,,,,,,,,,,,,,,,,,,,,,,,,,,,,,,,,,,,,,,,,,,,,,,,,,,,,
1768972439.197987,1768972439.198286,17.0,0.0,4380.769043,4314.871582,4362.436035,4364.615234,4367.436035,4383.717773,4388.717773,4415.384766,4388.461426,4303.077148,4493.461426,4563.974121,4419.871582,4413.077148,,,,,,,,,,,,,,,,,,,,,,,,,,,,,,,,,,,,,,,,,,,,,,,,,,,,,,,,,,,,,,,,,,,,,,
1768972439.205796,1768972439.206195,18.0,0.0,4373.846191,4312.05127,4363.077148,4359.487305,4367.94873,4375.641113,4378.461426,4408.461426,4382.94873,4295.897461,4490.769043,4555.256348,4413.461426,4412.179688,,,,,,,,,,,,,,,,,,,,,,,,,,,,,,,,,,,,,,,,,,,,,,,,,,,,,,,,,,,,,,,,,,,,,,
1768972439.213604,1768972439.214003,19.0,0.0,4373.589844,4312.436035,4360.897461,4362.05127,4367.179688,4367.692383,4368.974121,4402.179688,4378.461426,4297.692383,4482.692383,4549.615234,4414.615234,4412.307617,,,,,,,,,,,,,,,,,,,,,,,,,,,,,,,,,,,,,,,,,,,,,,,,,,,,,,,,,,,,,,,,,,,,,,
1768972439.221413,1768972439.222011,20.0,0.0,4373.846191,4311.153809,4359.487305,4364.102539,4363.205078,4374.102539,4380.256348,4410.256348,4381.153809,4295.897461,4476.025879,4551.153809,4412.436035,4410.256348,,,,,,,,,,,,,,,,,,,,,,,,,,,,,,,,,,,,,,,,,,,,,,,,,,,,,,,,,,,,,,,,,,,,,,
1768972439.229221,1768972439.22982,21.0,0.0,4370.128418,4312.692383,4361.282227,4363.461426,4362.692383,4380.512695,4390.128418,4414.230957,4384.230957,4293.974121,4476.025879,4556.538574,4411.410156,4409.743652,,,,,,,,,,,,,,,,,,,,,,,,,,,,,,,,,,,,,,,,,,,,,,,,,,,,,,,,,,,,,,,,,,,,,,
1768972439.237029,1768972439.237528,22.0,0.0,4375.384766,4319.871582,4365.897461,4364.871582,4366.922852,4376.538574,4382.307617,4408.205078,4382.692383,4297.179688,4480.0,4561.025879,4413.461426,4413.077148,,,,,,,,,,,,,,,,,,,,,,,,,,,,,,,,,,,,,,,,,,,,,,,,,,,,,,,,,,,,,,,,,,,,,,
1768972439.244838,1768972439.245337,23.0,0.0,4383.077148,4323.589844,4368.589844,4363.846191,4369.102539,4374.615234,4378.589844,4408.589844,4381.025879,4296.538574,4480.256348,4561.153809,4412.692383,4414.102539,,,,,,,,,,,,,,,,,,,,,,,,,,,,,,,,,,,,,,,,,,,,,,,,,,,,,,,,,,,,,,,,,,,,,,
1768972439.252646,1768972439.252945,24.0,0.0,4376.794922,4319.102539,4363.461426,4357.820313,4363.589844,4372.563965,4379.615234,4414.230957,4380.769043,4293.974121,4477.820313,4557.307617,4412.05127,4413.974121,,,,,,,,,,,,,,,,,,,,,,,,,,,,,,,,,,,,,,,,,,,,,,,,,,,,,,,,,,,,,,,,,,,,,,
1768972439.260455,1768972439.260754,25.0,0.0,4368.333496,4317.179688,4360.128418,4358.846191,4360.128418,4370.641113,4380.384766,4416.410156,4381.153809,4297.820313,4478.461426,4553.461426,4412.563965,4415.256348,,,,,,,,,,,,,,,,,,,,,,,,,,,,,,,,,,,,,,,,,,,,,,,,,,,,,,,,,,,,,,,,,,,,,,
1768972439.268263,1768972439.268662,26.0,0.0,4369.871582,4322.05127,4362.179688,4363.077148,4364.230957,4377.692383,4383.846191,4413.589844,4380.897461,4298.717773,4478.333496,4550.769043,4412.05127,4413.333496,,,,,,,,,,,,,,,,,,,,,,,,,,,,,,,,,,,,,,,,,,,,,,,,,,,,,,,,,,,,,,,,,,,,,,
1768972439.276072,1768972439.276471,27.0,0.0,4372.05127,4322.820313,4357.94873,4360.769043,4365.897461,4376.025879,4380.384766,4409.487305,4377.179688,4296.410156,4477.692383,4550.384766,4411.025879,4417.820313,,,,,,,,,,,,,,,,,,,,,,,,,,,,,,,,,,,,,,,,,,,,,,,,,,,,,,,,,,,,,,,,,,,,,,
1768972439.28388,1768972439.284479,28.0,0.0,4367.436035,4318.077148,4349.102539,4355.512695,4360.0,4363.205078,4375.641113,4408.205078,4375.128418,4296.538574,4477.563965,4551.153809,4413.333496,4422.05127,,,,,,,,,,,,,,,,,,,,,,,,,,,,,,,,,,,,,,,,,,,,,,,,,,,,,,,,,,,,,,,,,,,,,,
1768972439.291689,1768972439.292287,29.0,0.0,4363.846191,4317.563965,4347.563965,4356.025879,4357.307617,4366.666504,4381.666504,4411.922852,4378.205078,4295.256348,4476.922852,4548.589844,4412.820313,4418.077148,,,,,,,,,,,,,,,,,,,,,,,,,,,,,,,,,,,,,,,,,,,,,,,,,,,,,,,,,,,,,,,,,,,,,,
1768972439.299497,1768972439.300196,30.0,0.0,4367.307617,4321.025879,4353.974121,4358.333496,4358.717773,4376.153809,4383.205078,4417.436035,4383.205078,4297.820313,4481.153809,4548.846191,4406.410156,4420.384766,0.668035,0.3136,0.093124,0.206396,0.147553,1.323232,0.335535,0.142179,0.124535,0.101137,0.782766,0.333756,0.108574,0.124032,0.069472,0.326344,0.082373,0.093958,0.083789,0.066513,0.149498,0.233596,0.07808,0.069918,0.041252,0.279478,0.461562,0.431203,0.254664,0.19092,0.278141,0.305532,0.183942,0.302448,0.170138,0.410583,0.251739,0.274139,0.116642,0.122552,0.963923,0.593156,0.302307,0.156281,0.112307,0.524552,0.462772,0.294691,0.1263,0.103024,0.869404,0.409985,0.31865,0.172346,0.082886,0.876819,0.873403,0.268715,0.193297,0.128508,0.810344,0.40808,0.400624,0.196603,0.170301,0.860792,0.802052,0.299752,0.164959,0.183043
1768972439.307305,1768972439.308004,31.0,0.0,4374.487305,4324.358887,4360.769043,4360.384766,4357.820313,4371.538574,4382.436035,4416.794922,4385.128418,4305.512695,4490.512695,4556.922852,4407.692383,4430.641113,,,,,,,,,,,,,,,,,,,,,,,,,,,,,,,,,,,,,,,,,,,,,,,,,,,,,,,,,,,,,,,,,,,,,,
1768972439.315114,1768972439.316012,32.0,0.0,4376.666504,4326.025879,4363.717773,4367.179688,4356.666504,4372.05127,4390.769043,4416.922852,4383.974121,4306.410156,4492.94873,4564.615234,4413.205078,4434.358887,,,,,,,,,,,,,,,,,,,,,,,,,,,,,,,,,,,,,,,,,,,,,,,,,,,,,,,,,,,,,,,,,,,,,,
1768972439.322922,1768972439.323821,33.0,0.0,4375.256348,4324.743652,4363.717773,4367.436035,4353.717773,4375.256348,4386.282227,4416.538574,4383.333496,4304.487305,4489.487305,4563.717773,4413.589844,4433.589844,,,,,,,,,,,,,,,,,,,,,,,,,,,,,,,,,,,,,,,,,,,,,,,,,,,,,,,,,,,,,,,,,,,,,,
1768972439.330731,1768972439.331629,34.0,0.0,4373.846191,4323.333496,4357.94873,4358.974121,4352.179688,4366.410156,4367.563965,4406.282227,4380.0,4305.512695,4487.05127,4554.230957,4410.897461,4432.692383,,,,,,,,,,,,,,,,,,,,,,,,,,,,,,,,,,,,,,,,,,,,,,,,,,,,,,,,,,,,,,,,,,,,,,
1768972439.338539,1768972439.339438,35.0,0.0,4368.333496,4322.307617,4350.769043,4356.410156,4356.282227,4366.282227,4369.230957,4404.230957,4377.436035,4304.102539,4485.256348,4548.205078,4408.717773,4427.94873,,,,,,,,,,,,,,,,,,,,,,,,,,,,,,,,,,,,,,,,,,,,,,,,,,,,,,,,,,,,,,,,,,,,,,
1768972439.346348,1768972439.347046,36.0,0.0,4363.205078,4320.256348,4354.102539,4360.769043,4358.205078,4375.641113,4384.615234,4419.102539,4386.538574,4304.358887,4488.589844,4555.256348,4409.102539,4432.05127,,,,,,,,,,,,,,,,,,,,,,,,,,,,,,,,,,,,,,,,,,,,,,,,,,,,,,,,,,,,,,,,,,,,,,
1768972439.354156,1768972439.354855,37.0,0.0,4370.128418,4321.538574,4361.922852,4364.102539,4354.615234,4373.717773,4382.436035,4423.717773,4396.922852,4309.871582,4495.256348,4566.794922,4412.563965,4442.563965,,,,,,,,,,,,,,,,,,,,,,,,,,,,,,,,,,,,,,,,,,,,,,,,,,,,,,,,,,,,,,,,,,,,,,
1768972439.361965,1768972439.362563,38.0,0.0,4377.820313,4325.256348,4362.820313,4364.871582,4351.794922,4369.230957,4373.333496,4413.205078,4390.897461,4311.410156,4494.871582,4571.410156,4414.743652,4445.897461,,,,,,,,,,,,,,,,,,,,,,,,,,,,,,,,,,,,,,,,,,,,,,,,,,,,,,,,,,,,,,,,,,,,,,
1768972439.369773,1768972439.370372,39.0,0.0,4374.487305,4324.102539,4362.94873,4365.384766,4352.307617,4371.538574,4377.05127,4411.282227,4382.692383,4309.743652,4491.794922,4570.512695,4413.974121,4442.563965,,,,,,,,,,,,,,,,,,,,,,,,,,,,,,,,,,,,,,,,,,,,,,,,,,,,,,,,,,,,,,,,,,,,,,
1768972439.377581,1768972439.377981,40.0,0.0,4371.025879,4322.05127,4363.717773,4363.461426,4353.205078,4370.641113,4383.077148,4418.333496,4386.666504,4311.153809,4492.436035,4567.179688,4413.461426,4435.769043,,,,,,,,,,,,,,,,,,,,,,,,,,,,,,,,,,,,,,,,,,,,,,,,,,,,,,,,,,,,,,,,,,,,,,
1768972439.38539,1768972439.385789,41.0,0.0,4373.846191,4327.05127,4362.179688,4364.487305,4355.256348,4368.974121,4378.974121,4418.077148,4387.94873,4309.358887,4492.307617,4562.820313,4410.256348,4432.94873,,,,,,,,,,,,,,,,,,,,,,,,,,,,,,,,,,,,,,,,,,,,,,,,,,,,,,,,,,,,,,,,,,,,,,
1768972439.393198,1768972439.393498,42.0,0.0,4374.102539,4335.128418,4365.256348,4369.615234,4353.717773,4370.897461,4375.256348,4414.102539,4382.05127,4305.641113,4490.769043,4560.128418,4408.717773,4438.461426,,,,,,,,,,,,,,,,,,,,,,,,,,,,,,,,,,,,,,,,,,,,,,,,,,,,,,,,,,,,,,,,,,,,,,
1768972439.401007,1768972439.401306,43.0,0.0,4373.717773,4338.589844,4368.077148,4368.589844,4348.589844,4368.589844,4379.743652,4413.846191,4380.128418,4306.282227,4490.769043,4561.410156,4410.0,4443.589844,,,,,,,,,,,,,,,,,,,,,,,,,,,,,,,,,,,,,,,,,,,,,,,,,,,,,,,,,,,,,,,,,,,,,,
1768972439.408815,1768972439.409314,44.0,0.0,4374.743652,4339.615234,4362.94873,4364.615234,4350.512695,4370.0,4383.461426,4414.102539,4383.077148,4307.820313,4492.436035,4562.94873,4409.102539,4442.05127,,,,,,,,,,,,,,,,,,,,,,,,,,,,,,,,,,,,,,,,,,,,,,,,,,,,,,,,,,,,,,,,,,,,,,
1768972439.416623,1768972439.417123,45.0,0.0,4374.871582,4342.563965,4360.641113,4368.077148,4359.230957,4378.974121,4383.077148,4416.153809,4389.102539,4309.871582,4492.563965,4557.94873,4409.615234,4441.282227,,,,,,,,,,,,,,,,,,,,,,,,,,,,,,,,,,,,,,,,,,,,,,,,,,,,,,,,,,,,,,,,,,,,,,
1768972439.424432,1768972439.425031,46.0,0.0,4374.358887,4343.333496,4363.846191,4370.128418,4360.256348,4374.615234,4378.717773,4420.128418,4391.153809,4311.410156,4491.538574,4552.692383,4409.615234,4442.436035,0.655925,0.281462,0.090759,0.208707,0.169379,1.52493,0.416287,0.148442,0.112205,0.099468,0.743152,0.341021,0.09699,0.120417,0.068308,0.307903,0.092323,0.081464,0.080721,0.068886,0.163468,0.248819,0.072573,0.06207,0.043369,0.312448,0.423159,0.327611,0.23581,0.181092,0.310243,0.323529,0.146873,0.30355,0.16289,0.392844,0.263833,0.226051,0.130193,0.119531,0.875484,0.526129,0.23548,0.147733,0.096129,0.432305,0.441453,0.25006,0.11357,0.081582,0.743315,0.441968,0.282055,0.164355,0.070209,0.775067,0.923958,0.266984,0.200823,0.1305,0.684922,0.39757,0.409229,0.200022,0.181204,0.832857,0.757912,0.325109,0.158535,0.184557
1768972439.43224,1768972439.432839,47.0,0.0,4372.05127,4341.538574,4364.615234,4365.641113,4353.333496,4363.461426,4374.871582,4416.666504,4383.205078,4309.358887,4490.384766,4555.897461,4408.974121,4442.563965,,,,,,,,,,,,,,,,,,,,,,,,,,,,,,,,,,,,,,,,,,,,,,,,,,,,,,,,,,,,,,,,,,,,,,
1768972439.440049,1768972439.440448,48.0,0.0,4375.256348,4342.179688,4364.743652,4363.461426,4354.358887,4363.077148,4372.94873,4406.794922,4375.897461,4306.794922,4490.769043,4558.205078,4411.153809,4446.666504,,,,,,,,,,,,,,,,,,,,,,,,,,,,,,,,,,,,,,,,,,,,,,,,,,,,,,,,,,,,,,,,,,,,,,
1768972439.447857,1768972439.448257,49.0,0.0,4381.410156,4343.333496,4367.563965,4367.179688,4358.461426,4364.615234,4373.974121,4409.487305,4382.179688,4310.897461,4493.333496,4557.94873,4413.846191,4449.743652,,,,,,,,,,,,,,,,,,,,,,,,,,,,,,,,,,,,,,,,,,,,,,,,,,,,,,,,,,,,,,,,,,,,,,
1768972439.455666,1768972439.455965,50.0,0.0,4378.846191,4342.94873,4368.461426,4371.666504,4358.205078,4369.358887,4382.179688,4420.897461,4389.358887,4314.102539,4492.563965,4560.512695,4412.820313,4445.769043,,,,,,,,,,,,,,,,,,,,,,,,,,,,,,,,,,,,,,,,,,,,,,,,,,,,,,,,,,,,,,,,,,,,,,
1768972439.463474,1768972439.463774,51.0,0.0,4376.410156,4344.487305,4365.897461,4373.589844,4362.563965,4378.589844,4387.307617,4419.743652,4385.128418,4310.641113,4490.769043,4561.410156,4411.410156,4446.666504,,,,,,,,,,,,,,,,,,,,,,,,,,,,,,,,,,,,,,,,,,,,,,,,,,,,,,,,,,,,,,,,,,,,,,
1768972439.471283,1768972439.471782,52.0,0.0,4380.769043,4343.846191,4365.897461,4372.307617,4366.410156,4376.538574,4380.0,4413.974121,4380.384766,4310.0,4493.589844,4561.538574,4413.205078,4457.307617,,,,,,,,,,,,,,,,,,,,,,,,,,,,,,,,,,,,,,,,,,,,,,,,,,,,,,,,,,,,,,,,,,,,,,
1768972439.479091,1768972439.47959,53.0,0.0,4384.487305,4346.153809,4367.563965,4374.102539,4361.410156,4367.820313,4371.282227,4411.282227,4382.307617,4311.538574,4495.0,4561.410156,4413.846191,4462.307617,,,,,,,,,,,,,,,,,,,,,,,,,,,,,,,,,,,,,,,,,,,,,,,,,,,,,,,,,,,,,,,,,,,,,,
1768972439.4869,1768972439.487499,54.0,0.0,4380.0,4349.102539,4364.230957,4373.461426,4359.358887,4367.692383,4370.897461,4410.128418,4383.077148,4309.615234,4490.512695,4556.410156,4408.974121,4452.05127,,,,,,,,,,,,,,,,,,,,,,,,,,,,,,,,,,,,,,,,,,,,,,,,,,,,,,,,,,,,,,,,,,,,,,
1768972439.494708,1768972439.495307,55.0,0.0,4372.563965,4341.922852,4358.461426,4366.538574,4362.179688,4373.974121,4381.025879,4414.615234,4380.897461,4306.153809,4487.820313,4552.436035,4401.410156,4444.102539,,,,,,,,,,,,,,,,,,,,,,,,,,,,,,,,,,,,,,,,,,,,,,,,,,,,,,,,,,,,,,,,,,,,,,
1768972439.502516,1768972439.503315,56.0,0.0,4374.487305,4341.794922,4361.153809,4368.846191,4361.410156,4377.820313,4387.692383,4418.846191,4380.384766,4306.666504,4490.897461,4552.692383,4400.641113,4446.538574,,,,,,,,,,,,,,,,,,,,,,,,,,,,,,,,,,,,,,,,,,,,,,,,,,,,,,,,,,,,,,,,,,,,,,
1768972439.510325,1768972439.511124,57.0,0.0,4386.025879,4358.461426,4367.179688,4375.256348,4359.358887,4368.974121,4372.307617,4411.025879,4379.102539,4307.820313,4486.794922,4549.743652,4404.358887,4448.461426,,,,,,,,,,,,,,,,,,,,,,,,,,,,,,,,,,,,,,,,,,,,,,,,,,,,,,,,,,,,,,,,,,,,,,
1768972439.518133,1768972439.519032,58.0,0.0,4387.05127,4363.589844,4364.102539,4370.512695,4360.897461,4356.538574,4356.153809,4400.641113,4374.102539,4305.769043,4478.333496,4542.436035,4402.436035,4449.615234,,,,,,,,,,,,,,,,,,,,,,,,,,,,,,,,,,,,,,,,,,,,,,,,,,,,,,,,,,,,,,,,,,,,,,
1768972439.525942,1768972439.52684,59.0,0.0,4375.641113,4352.563965,4355.384766,4364.487305,4362.94873,4363.205078,4365.256348,4407.436035,4376.538574,4305.512695,4480.897461,4539.615234,4400.384766,4450.769043,,,,,,,,,,,,,,,,,,,,,,,,,,,,,,,,,,,,,,,,,,,,,,,,,,,,,,,,,,,,,,,,,,,,,,
1768972439.53375,1768972439.534449,60.0,0.0,4377.436035,4352.563965,4356.410156,4365.256348,4362.94873,4379.358887,4382.94873,4419.230957,4383.717773,4309.615234,4491.538574,4546.794922,4406.025879,4454.102539,,,,,,,,,,,,,,,,,,,,,,,,,,,,,,,,,,,,,,,,,,,,,,,,,,,,,,,,,,,,,,,,,,,,,,
1768972439.541559,1768972439.542258,61.0,0.0,4382.307617,4356.410156,4359.743652,4364.102539,4360.384766,4377.179688,4382.05127,4410.897461,4377.94873,4312.05127,4489.102539,4547.692383,4407.179688,4453.077148,,,,,,,,,,,,,,,,,,,,,,,,,,,,,,,,,,,,,,,,,,,,,,,,,,,,,,,,,,,,,,,,,,,,,,
1768972439.549367,1768972439.549966,62.0,0.0,4373.461426,4350.256348,4351.794922,4360.512695,4357.307617,4362.820313,4365.897461,4395.769043,4368.077148,4307.563965,4476.922852,4535.128418,4399.487305,4445.769043,0.613636,0.254896,0.097218,0.203487,0.179156,1.618478,0.527259,0.177131,0.114954,0.095718,0.666027,0.329105,0.101343,0.119601,0.070045,0.274483,0.105421,0.074134,0.08292,0.070195,0.177693,0.243906,0.069418,0.053569,0.048605,0.343173,0.350121,0.225168,0.227156,0.171754,0.329721,0.307364,0.126391,0.314504,0.162341,0.362432,0.263222,0.168856,0.158712,0.117817,0.769915,0.461023,0.171448,0.152819,0.07964,0.343746,0.398332,0.206469,0.113447,0.065735,0.599848,0.438671,0.250186,0.173814,0.06438,0.676213,0.90387,0.27426,0.211691,0.134005,0.55682,0.371911,0.405991,0.21192,0.181093,0.769935,0.648261,0.343491,0.163164,0.177421
1768972439.557176,1768972439.557775,63.0,0.0,4371.282227,4349.358887,4348.974121,4360.128418,4356.538574,4359.871582,4356.666504,4397.692383,4370.641113,4304.743652,4476.666504,4533.589844,4399.230957,4440.641113,,,,,,,,,,,,,,,,,,,,,,,,,,,,,,,,,,,,,,,,,,,,,,,,,,,,,,,,,,,,,,,,,,,,,,
1768972439.564984,1768972439.565383,64.0,0.0,4382.307617,4354.102539,4358.333496,4359.230957,4355.256348,4367.179688,4366.794922,4408.333496,4375.384766,4308.333496,4483.974121,4545.769043,4406.410156,4444.871582,,,,,,,,,,,,,,,,,,,,,,,,,,,,,,,,,,,,,,,,,,,,,,,,,,,,,,,,,,,,,,,,,,,,,,
1768972439.572792,1768972439.573192,65.0,0.0,4383.077148,4353.717773,4362.179688,4357.563965,4354.871582,4369.743652,4375.0,4408.589844,4373.077148,4309.615234,4483.205078,4544.102539,4405.128418,4448.974121,,,,,,,,,,,,,,,,,,,,,,,,,,,,,,,,,,,,,,,,,,,,,,,,,,,,,,,,,,,,,,,,,,,,,,
1768972439.580601,1768972439.5809,66.0,0.0,4372.692383,4346.282227,4353.717773,4357.563965,4355.256348,4367.692383,4366.153809,4406.794922,4371.538574,4304.871582,4474.871582,4531.794922,4396.153809,4442.94873,,,,,,,,,,,,,,,,,,,,,,,,,,,,,,,,,,,,,,,,,,,,,,,,,,,,,,,,,,,,,,,,,,,,,,
1768972439.588409,1768972439.588709,67.0,0.0,4372.307617,4341.794922,4347.563965,4357.05127,4354.102539,4367.563965,4362.820313,4408.077148,4371.794922,4304.743652,4474.615234,4530.128418,4394.487305,4440.897461,,,,,,,,,,,,,,,,,,,,,,,,,,,,,,,,,,,,,,,,,,,,,,,,,,,,,,,,,,,,,,,,,,,,,,
1768972439.596218,1768972439.596317,68.0,0.0,4375.641113,4344.102539,4351.153809,4354.743652,4353.461426,4361.410156,4367.307617,4408.205078,4372.94873,4309.743652,4481.794922,4535.384766,4401.922852,4444.743652,,,,,,,,,,,,,,,,,,,,,,,,,,,,,,,,,,,,,,,,,,,,,,,,,,,,,,,,,,,,,,,,,,,,,,
1768972439.604026,1768972439.604126,69.0,0.0,4373.974121,4348.846191,4355.769043,4355.897461,4351.538574,4364.871582,4372.05127,4412.692383,4374.102539,4308.077148,4480.897461,4537.94873,4402.05127,4445.384766,,,,,,,,,,,,,,,,,,,,,,,,,,,,,,,,,,,,,,,,,,,,,,,,,,,,,,,,,,,,,,,,,,,,,,
1768972439.611835,1768972439.612034,70.0,0.0,4375.256348,4351.666504,4356.410156,4358.846191,4353.205078,4377.307617,4378.205078,4416.153809,4372.563965,4303.717773,4476.282227,4538.589844,4396.922852,4444.743652,,,,,,,,,,,,,,,,,,,,,,,,,,,,,,,,,,,,,,,,,,,,,,,,,,,,,,,,,,,,,,,,,,,,,,
1768972439.619643,1768972439.619843,71.0,0.0,4380.384766,4354.358887,4358.461426,4359.102539,4356.025879,4368.461426,4372.563965,4411.538574,4370.641113,4305.128418,4478.077148,4538.333496,4402.436035,4444.743652,,,,,,,,,,,,,,,,,,,,,,,,,,,,,,,,,,,,,,,,,,,,,,,,,,,,,,,,,,,,,,,,,,,,,,
1768972439.627452,1768972439.627851,72.0,0.0,4383.333496,4358.205078,4364.358887,4358.333496,4356.666504,4360.384766,4363.077148,4408.461426,4375.128418,4309.615234,4481.794922,4540.769043,4409.615234,4445.512695,,,,,,,,,,,,,,,,,,,,,,,,,,,,,,,,,,,,,,,,,,,,,,,,,,,,,,,,,,,,,,,,,,,,,,
1768972439.63526,1768972439.635659,73.0,0.0,4379.871582,4352.563965,4364.358887,4356.794922,4354.358887,4369.358887,4371.282227,4414.230957,4380.384766,4304.871582,4481.282227,4545.0,4403.077148,4444.871582,,,,,,,,,,,,,,,,,,,,,,,,,,,,,,,,,,,,,,,,,,,,,,,,,,,,,,,,,,,,,,,,,,,,,,
1768972439.643068,1768972439.643368,74.0,0.0,4374.487305,4342.436035,4360.512695,4354.615234,4351.025879,4369.230957,4380.512695,4417.307617,4376.282227,4296.025879,4476.538574,4543.461426,4395.0,4443.717773,,,,,,,,,,,,,,,,,,,,,,,,,,,,,,,,,,,,,,,,,,,,,,,,,,,,,,,,,,,,,,,,,,,,,,
1768972439.650877,1768972439.651176,75.0,0.0,4375.256348,4344.230957,4361.538574,4356.794922,4354.102539,4364.487305,4374.230957,4411.794922,4371.282227,4298.846191,4474.487305,4541.153809,4395.769043,4444.102539,,,,,,,,,,,,,,,,,,,,,,,,,,,,,,,,,,,,,,,,,,,,,,,,,,,,,,,,,,,,,,,,,,,,,,
1768972439.658685,1768972439.659185,76.0,0.0,4374.102539,4350.384766,4360.384766,4358.077148,4358.589844,4370.897461,4370.897461,4408.077148,4373.846191,4306.922852,4479.102539,4542.436035,4398.717773,4445.0,,,,,,,,,,,,,,,,,,,,,,,,,,,,,,,,,,,,,,,,,,,,,,,,,,,,,,,,,,,,,,,,,,,,,,
1768972439.666494,1768972439.666993,77.0,0.0,4366.153809,4350.256348,4355.512695,4352.436035,4353.589844,4370.384766,4374.102539,4410.512695,4377.436035,4305.0,4481.538574,4540.512695,4399.358887,4445.641113,,,,,,,,,,,,,,,,,,,,,,,,,,,,,,,,,,,,,,,,,,,,,,,,,,,,,,,,,,,,,,,,,,,,,,
1768972439.674302,1768972439.674901,78.0,0.0,4365.641113,4346.794922,4357.179688,4350.0,4348.333496,4366.282227,4372.94873,4410.897461,4373.717773,4297.94873,4477.05127,4538.974121,4397.179688,4445.128418,0.538497,0.230859,0.112983,0.189545,0.17485,1.649748,0.647816,0.214431,0.129213,0.090756,0.55303,0.299327,0.125658,0.121571,0.074554,0.24124,0.119101,0.072874,0.089673,0.069372,0.186791,0.221032,0.067121,0.046223,0.055439,0.36303,0.26192,0.143788,0.22089,0.166555,0.3249,0.263427,0.126871,0.323806,0.168912,0.310898,0.248458,0.116206,0.196838,0.119134,0.656475,0.396594,0.12058,0.167833,0.065923,0.309758,0.340642,0.174732,0.124674,0.056777,0.481694,0.407779,0.22815,0.204468,0.064638,0.552525,0.835567,0.292751,0.230654,0.136222,0.427471,0.348742,0.395307,0.233745,0.170994,0.690062,0.500003,0.352244,0.185479,0.165534
1768972439.682111,1768972439.68271,79.0,0.0,4372.436035,4345.256348,4360.512695,4352.307617,4353.974121,4368.077148,4370.769043,4404.102539,4368.589844,4296.794922,4475.641113,4539.615234,4395.384766,4444.743652,,,,,,,,,,,,,,,,,,,,,,,,,,,,,,,,,,,,,,,,,,,,,,,,,,,,,,,,,,,,,,,,,,,,,,
1768972439.689919,1768972439.690718,80.0,0.0,4369.358887,4344.743652,4354.871582,4350.512695,4356.538574,4364.102539,4366.282227,4400.512695,4368.333496,4295.512695,4476.922852,4536.538574,4397.179688,4445.897461,,,,,,,,,,,,,,,,,,,,,,,,,,,,,,,,,,,,,,,,,,,,,,,,,,,,,,,,,,,,,,,,,,,,,,
1768972439.697728,1768972439.698526,81.0,0.0,4361.922852,4342.436035,4349.487305,4347.436035,4350.897461,4363.205078,4363.589844,4406.282227,4368.846191,4293.461426,4475.0,4534.615234,4396.282227,4445.641113,,,,,,,,,,,,,,,,,,,,,,,,,,,,,,,,,,,,,,,,,,,,,,,,,,,,,,,,,,,,,,,,,,,,,,
1768972439.705536,1768972439.706435,82.0,0.0,4367.94873,4344.230957,4354.743652,4351.025879,4350.256348,4368.461426,4370.256348,4410.641113,4372.563965,4299.871582,4476.666504,4540.769043,4397.05127,4446.410156,,,,,,,,,,,,,,,,,,,,,,,,,,,,,,,,,,,,,,,,,,,,,,,,,,,,,,,,,,,,,,,,,,,,,,
1768972439.713344,1768972439.714243,83.0,0.0,4377.179688,4351.666504,4360.769043,4354.743652,4354.615234,4364.743652,4374.230957,4408.461426,4374.743652,4303.589844,4481.538574,4543.589844,4402.05127,4452.820313,,,,,,,,,,,,,,,,,,,,,,,,,,,,,,,,,,,,,,,,,,,,,,,,,,,,,,,,,,,,,,,,,,,,,,
1768972439.721153,1768972439.722251,84.0,0.0,4376.025879,4354.230957,4360.256348,4352.820313,4356.410156,4357.94873,4365.512695,4404.102539,4368.333496,4297.307617,4478.461426,4539.230957,4401.025879,4458.333496,,,,,,,,,,,,,,,,,,,,,,,,,,,,,,,,,,,,,,,,,,,,,,,,,,,,,,,,,,,,,,,,,,,,,,
1768972439.728961,1768972439.73006,85.0,0.0,4376.538574,4355.256348,4360.256348,4354.743652,4355.769043,4357.179688,4357.563965,4402.563965,4366.794922,4298.205078,4474.871582,4538.846191,4398.974121,4458.333496,,,,,,,,,,,,,,,,,,,,,,,,,,,,,,,,,,,,,,,,,,,,,,,,,,,,,,,,,,,,,,,,,,,,,,
1768972439.73677,1768972439.737768,86.0,0.0,4376.666504,4361.153809,4362.820313,4359.358887,4355.256348,4356.410156,4360.512695,4406.153809,4374.102539,4304.230957,4478.077148,4543.077148,4403.461426,4457.692383,,,,,,,,,,,,,,,,,,,,,,,,,,,,,,,,,,,,,,,,,,,,,,,,,,,,,,,,,,,,,,,,,,,,,,
1768972439.744578,1768972439.745577,87.0,0.0,4364.871582,4360.256348,4363.974121,4358.077148,4353.846191,4356.922852,4366.153809,4406.538574,4372.307617,4301.410156,4480.769043,4547.692383,4405.384766,4458.846191,,,,,,,,,,,,,,,,,,,,,,,,,,,,,,,,,,,,,,,,,,,,,,,,,,,,,,,,,,,,,,,,,,,,,,
1768972439.752386,1768972439.753186,88.0,0.0,4356.153809,4354.743652,4364.102539,4356.025879,4354.230957,4361.922852,4368.205078,4401.025879,4362.05127,4297.692383,4477.436035,4545.384766,4401.666504,4459.871582,,,,,,,,,,,,,,,,,,,,,,,,,,,,,,,,,,,,,,,,,,,,,,,,,,,,,,,,,,,,,,,,,,,,,,
1768972439.760195,1768972439.760994,89.0,0.0,4358.205078,4359.230957,4365.384766,4358.589844,4356.538574,4363.846191,4368.333496,4402.820313,4365.128418,4299.743652,4475.641113,4537.692383,4400.512695,4455.769043,,,,,,,,,,,,,,,,,,,,,,,,,,,,,,,,,,,,,,,,,,,,,,,,,,,,,,,,,,,,,,,,,,,,,,
1768972439.768003,1768972439.768703,90.0,0.0,4355.384766,4362.05127,4363.846191,4359.358887,4356.025879,4359.358887,4369.615234,4406.922852,4370.256348,4300.0,4476.538574,4532.179688,4398.589844,4448.077148,,,,,,,,,,,,,,,,,,,,,,,,,,,,,,,,,,,,,,,,,,,,,,,,,,,,,,,,,,,,,,,,,,,,,,
1768972439.775812,1768972439.776511,91.0,0.0,4346.922852,4356.922852,4358.333496,4357.436035,4356.153809,4356.922852,4372.563965,4406.282227,4367.563965,4297.94873,4476.153809,4530.256348,4394.871582,4447.820313,,,,,,,,,,,,,,,,,,,,,,,,,,,,,,,,,,,,,,,,,,,,,,,,,,,,,,,,,,,,,,,,,,,,,,
1768972439.78362,1768972439.78412,92.0,0.0,4343.205078,4356.666504,4357.94873,4357.692383,4359.102539,4360.128418,4374.102539,4406.794922,4368.589844,4295.641113,4474.615234,4530.128418,4396.025879,4449.743652,,,,,,,,,,,,,,,,,,,,,,,,,,,,,,,,,,,,,,,,,,,,,,,,,,,,,,,,,,,,,,,,,,,,,,
1768972439.791429,1768972439.791928,93.0,0.0,4344.230957,4356.922852,4361.153809,4354.230957,4357.436035,4361.410156,4373.333496,4407.05127,4369.230957,4293.846191,4476.922852,4528.717773,4397.179688,4447.05127,,,,,,,,,,,,,,,,,,,,,,,,,,,,,,,,,,,,,,,,,,,,,,,,,,,,,,,,,,,,,,,,,,,,,,
1768972439.799237,1768972439.799637,94.0,0.0,4340.128418,4350.256348,4356.153809,4346.538574,4353.333496,4359.230957,4372.692383,4403.589844,4367.05127,4294.102539,4474.230957,4522.94873,4390.641113,4440.512695,0.45914,0.208164,0.139681,0.170575,0.160304,1.563619,0.752665,0.246686,0.147794,0.086173,0.436265,0.26283,0.170281,0.126846,0.080666,0.216933,0.131832,0.078822,0.098991,0.066525,0.190408,0.187367,0.064046,0.041557,0.062322,0.358924,0.178979,0.09262,0.213252,0.168964,0.291665,0.208468,0.145567,0.329377,0.184918,0.25655,0.222926,0.076638,0.235983,0.126733,0.556005,0.333837,0.087192,0.187564,0.058434,0.320199,0.276913,0.155677,0.142984,0.053414,0.468934,0.365997,0.212765,0.250558,0.069679,0.477185,0.759691,0.319446,0.260274,0.135089,0.357456,0.342277,0.379427,0.263244,0.15506,0.622714,0.354478,0.349833,0.226971,0.153466
1768972439.807046,1768972439.807445,95.0,0.0,4327.436035,4339.615234,4345.384766,4339.615234,4351.666504,4360.897461,4368.974121,4398.333496,4362.692383,4289.743652,4460.256348,4511.410156,4379.230957,4430.0,,,,,,,,,,,,,,,,,,,,,,,,,,,,,,,,,,,,,,,,,,,,,,,,,,,,,,,,,,,,,,,,,,,,,,
1768972439.814854,1768972439.815453,96.0,0.0,4327.179688,4340.384766,4345.769043,4340.512695,4351.794922,4361.538574,4366.538574,4395.897461,4359.230957,4287.563965,4458.077148,4509.102539,4380.769043,4429.615234,,,,,,,,,,,,,,,,,,,,,,,,,,,,,,,,,,,,,,,,,,,,,,,,,,,,,,,,,,,,,,,,,,,,,,
1768972439.822662,1768972439.823262,97.0,0.0,4346.666504,4355.769043,4357.563965,4350.128418,4355.256348,4361.282227,4373.974121,4399.743652,4365.128418,4300.256348,4476.282227,4523.846191,4400.897461,4444.615234,,,,,,,,,,,,,,,,,,,,,,,,,,,,,,,,,,,,,,,,,,,,,,,,,,,,,,,,,,,,,,,,,,,,,,
1768972439.830471,1768972439.83117,98.0,0.0,4352.692383,4360.897461,4363.333496,4352.94873,4356.410156,4360.0,4373.461426,4403.589844,4373.077148,4307.94873,4483.461426,4534.102539,4410.769043,4451.025879,,,,,,,,,,,,,,,,,,,,,,,,,,,,,,,,,,,,,,,,,,,,,,,,,,,,,,,,,,,,,,,,,,,,,,
1768972439.838279,1768972439.838979,99.0,0.0,4340.384766,4348.846191,4355.769043,4343.846191,4351.922852,4348.461426,4358.077148,4399.743652,4370.256348,4299.230957,4473.846191,4530.0,4399.871582,4444.102539,,,,,,,,,,,,,,,,,,,,,,,,,,,,,,,,,,,,,,,,,,,,,,,,,,,,,,,,,,,,,,,,,,,,,,
1768972439.846088,1768972439.846587,100.0,0.0,4341.153809,4347.05127,4349.615234,4343.974121,4352.563965,4345.769043,4355.897461,4395.384766,4364.102539,4291.794922,4470.897461,4524.487305,4393.333496,4443.461426,,,,,,,,,,,,,,,,,,,,,,,,,,,,,,,,,,,,,,,,,,,,,,,,,,,,,,,,,,,,,,,,,,,,,,
1768972439.853896,1768972439.854396,101.0,0.0,4350.256348,4357.05127,4355.769043,4354.615234,4355.512695,4359.615234,4366.538574,4392.692383,4363.205078,4290.897461,4471.666504,4519.615234,4397.820313,4443.974121,,,,,,,,,,,,,,,,,,,,,,,,,,,,,,,,,,,,,,,,,,,,,,,,,,,,,,,,,,,,,,,,,,,,,,
1768972439.861705,1768972439.862104,102.0,0.0,4350.769043,4355.769043,4360.0,4354.615234,4351.794922,4362.179688,4364.358887,4389.230957,4362.820313,4291.538574,4467.563965,4517.179688,4396.410156,4441.538574,,,,,,,,,,,,,,,,,,,,,,,,,,,,,,,,,,,,,,,,,,,,,,,,,,,,,,,,,,,,,,,,,,,,,,
1768972439.869513,1768972439.869913,103.0,0.0,4349.615234,4348.077148,4354.102539,4346.025879,4349.102539,4354.230957,4359.615234,4393.846191,4362.307617,4290.897461,4466.282227,4520.0,4390.641113,4442.179688,,,,,,,,,,,,,,,,,,,,,,,,,,,,,,,,,,,,,,,,,,,,,,,,,,,,,,,,,,,,,,,,,,,,,,
1768972439.877322,1768972439.877921,104.0,0.0,4349.358887,4349.871582,4350.128418,4342.692383,4351.282227,4356.025879,4364.743652,4396.794922,4360.128418,4286.282227,4462.05127,4516.410156,4387.05127,4441.153809,,,,,,,,,,,,,,,,,,,,,,,,,,,,,,,,,,,,,,,,,,,,,,,,,,,,,,,,,,,,,,,,,,,,,,
1768972439.88513,1768972439.885729,105.0,0.0,4350.641113,4354.487305,4353.333496,4345.641113,4351.794922,4358.333496,4365.128418,4390.128418,4357.563965,4286.025879,4456.794922,4511.666504,4386.922852,4440.0,,,,,,,,,,,,,,,,,,,,,,,,,,,,,,,,,,,,,,,,,,,,,,,,,,,,,,,,,,,,,,,,,,,,,,
1768972439.892939,1768972439.893638,106.0,0.0,4356.025879,4353.461426,4355.512695,4350.384766,4352.436035,4361.666504,4368.589844,4394.871582,4364.743652,4293.077148,4465.641113,4523.461426,4393.717773,4442.05127,,,,,,,,,,,,,,,,,,,,,,,,,,,,,,,,,,,,,,,,,,,,,,,,,,,,,,,,,,,,,,,,,,,,,,
1768972439.900747,1768972439.901446,107.0,0.0,4358.333496,4349.230957,4354.487305,4351.666504,4355.128418,4369.743652,4378.974121,4406.410156,4368.205078,4295.0,4475.641113,4533.717773,4398.333496,4445.512695,,,,,,,,,,,,,,,,,,,,,,,,,,,,,,,,,,,,,,,,,,,,,,,,,,,,,,,,,,,,,,,,,,,,,,
1768972439.908555,1768972439.909155,108.0,0.0,4354.230957,4349.358887,4354.487305,4350.769043,4356.666504,4363.974121,4372.436035,4401.025879,4359.615234,4289.615234,4467.94873,4526.153809,4393.461426,4445.128418,,,,,,,,,,,,,,,,,,,,,,,,,,,,,,,,,,,,,,,,,,,,,,,,,,,,,,,,,,,,,,,,,,,,,,
1768972439.916364,1768972439.916963,109.0,0.0,4357.563965,4354.487305,4358.205078,4351.538574,4355.512695,4350.128418,4359.358887,4392.307617,4359.102539,4286.282227,4457.179688,4523.846191,4386.538574,4443.846191,,,,,,,,,,,,,,,,,,,,,,,,,,,,,,,,,,,,,,,,,,,,,,,,,,,,,,,,,,,,,,,,,,,,,,
1768972439.924172,1768972439.924672,110.0,0.0,4359.615234,4353.333496,4356.153809,4351.794922,4354.230957,4351.794922,4363.333496,4397.179688,4365.769043,4281.153809,4458.846191,4525.512695,4383.205078,4442.692383,0.387596,0.185757,0.174653,0.152647,0.143323,1.390534,0.820066,0.265213,0.165234,0.083663,0.341929,0.23111,0.229335,0.136358,0.087137,0.204225,0.141318,0.09061,0.107962,0.062932,0.185536,0.151101,0.059046,0.039983,0.068118,0.327135,0.114332,0.070622,0.205085,0.180928,0.243925,0.158709,0.171765,0.333043,0.213458,0.199937,0.191936,0.051597,0.265884,0.143747,0.467307,0.274384,0.068048,0.206042,0.059857,0.362253,0.216852,0.142983,0.162903,0.054074,0.535583,0.323061,0.194104,0.297452,0.07875,0.444051,0.703198,0.341524,0.29649,0.130992,0.325713,0.351095,0.354194,0.291925,0.138731,0.575364,0.242555,0.333248,0.280228,0.144183
1768972439.931981,1768972439.93248,111.0,0.0,4351.153809,4347.436035,4349.358887,4348.846191,4352.05127,4362.307617,4372.692383,4399.487305,4365.256348,4278.077148,4461.794922,4517.436035,4381.666504,4437.94873,,,,,,,,,,,,,,,,,,,,,,,,,,,,,,,,,,,,,,,,,,,,,,,,,,,,,,,,,,,,,,,,,,,,,,
1768972439.939789,1768972439.940089,112.0,0.0,4350.384766,4348.205078,4352.436035,4346.282227,4350.384766,4366.666504,4374.487305,4395.384766,4361.666504,4280.256348,4458.589844,4516.025879,4381.153809,4438.077148,,,,,,,,,,,,,,,,,,,,,,,,,,,,,,,,,,,,,,,,,,,,,,,,,,,,,,,,,,,,,,,,,,,,,,
1768972439.947598,1768972439.947897,113.0,0.0,4359.743652,4352.05127,4356.153809,4345.769043,4353.846191,4360.769043,4369.358887,4393.974121,4360.256348,4279.871582,4458.077148,4523.205078,4384.102539,4443.333496,,,,,,,,,,,,,,,,,,,,,,,,,,,,,,,,,,,,,,,,,,,,,,,,,,,,,,,,,,,,,,,,,,,,,,
1768972439.955406,1768972439.955606,114.0,0.0,4363.205078,4351.538574,4351.410156,4346.410156,4355.769043,4349.102539,4358.077148,4389.230957,4355.128418,4280.384766,4459.615234,4522.05127,4387.563965,4443.461426,,,,,,,,,,,,,,,,,,,,,,,,,,,,,,,,,,,,,,,,,,,,,,,,,,,,,,,,,,,,,,,,,,,,,,
1768972439.963215,1768972439.963414,115.0,0.0,4362.692383,4354.487305,4354.871582,4350.256348,4351.666504,4345.897461,4354.487305,4387.820313,4352.820313,4280.384766,4460.512695,4522.307617,4390.641113,4440.641113,,,,,,,,,,,,,,,,,,,,,,,,,,,,,,,,,,,,,,,,,,,,,,,,,,,,,,,,,,,,,,,,,,,,,,
1768972439.971023,1768972439.971422,116.0,0.0,4370.384766,4358.333496,4363.846191,4350.641113,4351.153809,4354.230957,4362.820313,4395.128418,4357.436035,4278.333496,4461.922852,4532.179688,4392.179688,4443.205078,,,,,,,,,,,,,,,,,,,,,,,,,,,,,,,,,,,,,,,,,,,,,,,,,,,,,,,,,,,,,,,,,,,,,,
1768972439.978831,1768972439.979231,117.0,0.0,4372.820313,4351.282227,4359.358887,4345.128418,4356.922852,4358.077148,4364.230957,4393.589844,4358.717773,4280.0,4462.05127,4533.333496,4391.025879,4444.102539,,,,,,,,,,,,,,,,,,,,,,,,,,,,,,,,,,,,,,,,,,,,,,,,,,,,,,,,,,,,,,,,,,,,,,
1768972439.98664,1768972439.986939,118.0,0.0,4364.871582,4346.410156,4352.820313,4341.794922,4354.743652,4357.563965,4366.410156,4389.743652,4359.230957,4281.666504,4461.538574,4521.922852,4390.0,4436.794922,,,,,,,,,,,,,,,,,,,,,,,,,,,,,,,,,,,,,,,,,,,,,,,,,,,,,,,,,,,,,,,,,,,,,,
1768972439.994448,1768972439.994748,119.0,0.0,4360.641113,4347.307617,4357.05127,4342.94873,4350.256348,4369.871582,4380.897461,4398.974121,4361.794922,4276.922852,4460.384766,4518.333496,4386.153809,4431.025879,,,,,,,,,,,,,,,,,,,,,,,,,,,,,,,,,,,,,,,,,,,,,,,,,,,,,,,,,,,,,,,,,,,,,,
1768972440.002257,1768972440.002756,120.0,0.0,4364.102539,4345.384766,4363.077148,4343.077148,4350.897461,4373.974121,4378.461426,4401.538574,4364.102539,4274.743652,4458.974121,4525.512695,4382.05127,4430.769043,,,,,,,,,,,,,,,,,,,,,,,,,,,,,,,,,,,,,,,,,,,,,,,,,,,,,,,,,,,,,,,,,,,,,,
1768972440.010065,1768972440.010565,121.0,0.0,4370.641113,4345.256348,4364.487305,4340.769043,4346.794922,4348.846191,4353.205078,4387.94873,4362.05127,4278.077148,4457.436035,4524.230957,4383.333496,4432.307617,,,,,,,,,,,,,,,,,,,,,,,,,,,,,,,,,,,,,,,,,,,,,,,,,,,,,,,,,,,,,,,,,,,,,,
1768972440.017874,1768972440.018473,122.0,0.0,4367.563965,4346.922852,4359.615234,4338.974121,4343.077148,4341.666504,4349.743652,4382.94873,4359.615234,4277.436035,4458.461426,4513.974121,4385.641113,4431.282227,,,,,,,,,,,,,,,,,,,,,,,,,,,,,,,,,,,,,,,,,,,,,,,,,,,,,,,,,,,,,,,,,,,,,,
1768972440.025682,1768972440.026281,123.0,0.0,4357.820313,4343.205078,4353.205078,4337.05127,4348.717773,4362.179688,4365.384766,4388.974121,4360.897461,4275.769043,4457.563965,4514.102539,4383.589844,4428.846191,,,,,,,,,,,,,,,,,,,,,,,,,,,,,,,,,,,,,,,,,,,,,,,,,,,,,,,,,,,,,,,,,,,,,,
1768972440.033491,1768972440.03429,124.0,0.0,4357.05127,4339.615234,4355.512695,4340.0,4352.692383,4366.794922,4362.692383,4390.256348,4365.641113,4278.974121,4456.922852,4523.461426,4386.025879,4432.563965,,,,,,,,,,,,,,,,,,,,,,,,,,,,,,,,,,,,,,,,,,,,,,,,,,,,,,,,,,,,,,,,,,,,,,
1768972440.041299,1768972440.042098,125.0,0.0,4366.922852,4342.94873,4362.94873,4345.0,4351.922852,4359.230957,4353.974121,4391.410156,4370.641113,4281.410156,4465.897461,4529.358887,4393.589844,4441.025879,,,,,,,,,,,,,,,,,,,,,,,,,,,,,,,,,,,,,,,,,,,,,,,,,,,,,,,,,,,,,,,,,,,,,,
1768972440.049107,1768972440.049807,126.0,0.0,4369.871582,4346.666504,4362.307617,4343.077148,4353.846191,4363.077148,4359.230957,4393.589844,4369.871582,4279.358887,4474.743652,4533.717773,4397.563965,4446.794922,0.353559,0.177126,0.20954,0.141522,0.132537,1.154708,0.840276,0.262043,0.179818,0.084813,0.288454,0.21437,0.288086,0.14901,0.093849,0.207187,0.148828,0.103927,0.113913,0.060668,0.18587,0.118492,0.052103,0.040972,0.072121,0.280483,0.073893,0.070401,0.198386,0.200873,0.208583,0.126779,0.192588,0.335754,0.254793,0.166898,0.161795,0.039485,0.278386,0.169871,0.391404,0.220859,0.056616,0.217484,0.070902,0.404871,0.168661,0.12938,0.17927,0.058188,0.640375,0.282832,0.166683,0.328514,0.091414,0.458004,0.681132,0.347259,0.329251,0.126425,0.312753,0.364298,0.316629,0.309424,0.126866,0.555102,0.179121,0.301142,0.330938,0.138056
1768972440.056916,1768972440.057615,127.0,0.0,4364.358887,4347.436035,4357.05127,4341.282227,4352.05127,4368.974121,4367.563965,4397.436035,4371.794922,4281.922852,4475.512695,4537.563965,4401.410156,4444.743652,,,,,,,,,,,,,,,,,,,,,,,,,,,,,,,,,,,,,,,,,,,,,,,,,,,,,,,,,,,,,,,,,,,,,,
1768972440.064724,1768972440.065623,0.0,0.0,4366.410156,4347.692383,4355.641113,4342.563965,4347.94873,4368.205078,4372.692383,4402.94873,4376.538574,4288.077148,4475.256348,4535.769043,4402.820313,4440.769043,,,,,,,,,,,,,,,,,,,,,,,,,,,,,,,,,,,,,,,,,,,,,,,,,,,,,,,,,,,,,,,,,,,,,,
1768972440.072533,1768972440.073432,1.0,0.0,4371.666504,4348.589844,4355.641113,4342.563965,4351.025879,4366.794922,4372.94873,4398.974121,4371.794922,4284.358887,4475.0,4533.974121,4398.974121,4443.333496,,,,,,,,,,,,,,,,,,,,,,,,,,,,,,,,,,,,,,,,,,,,,,,,,,,,,,,,,,,,,,,,,,,,,,
1768972440.080341,1768972440.08134,2.0,0.0,4372.94873,4349.871582,4356.282227,4341.410156,4352.05127,4365.256348,4366.025879,4393.077148,4364.615234,4279.487305,4474.871582,4538.205078,4404.615234,4448.461426,,,,,,,,,,,,,,,,,,,,,,,,,,,,,,,,,,,,,,,,,,,,,,,,,,,,,,,,,,,,,,,,,,,,,,
1768972440.08815,1768972440.089149,3.0,0.0,4372.307617,4349.871582,4358.589844,4342.563965,4349.743652,4364.743652,4363.077148,4396.153809,4369.102539,4286.282227,4476.282227,4539.871582,4412.692383,4448.077148,,,,,,,,,,,,,,,,,,,,,,,,,,,,,,,,,,,,,,,,,,,,,,,,,,,,,,,,,,,,,,,,,,,,,,
1768972440.095958,1768972440.096757,4.0,0.0,4372.307617,4349.743652,4357.307617,4343.205078,4347.563965,4366.025879,4368.333496,4396.922852,4376.282227,4289.358887,4476.153809,4533.589844,4409.615234,4444.615234,,,,,,,,,,,,,,,,,,,,,,,,,,,,,,,,,,,,,,,,,,,,,,,,,,,,,,,,,,,,,,,,,,,,,,
1768972440.103766,1768972440.104566,5.0,0.0,4370.256348,4346.922852,4353.077148,4339.102539,4344.358887,4366.666504,4372.436035,4394.358887,4373.333496,4281.153809,4472.436035,4529.615234,4402.820313,4443.461426,,,,,,,,,,,,,,,,,,,,,,,,,,,,,,,,,,,,,,,,,,,,,,,,,,,,,,,,,,,,,,,,,,,,,,
1768972440.111575,1768972440.112274,6.0,0.0,4368.333496,4340.128418,4353.461426,4337.05127,4343.974121,4366.153809,4367.692383,4395.128418,4371.025879,4278.589844,4471.153809,4529.615234,4400.128418,4443.077148,,,,,,,,,,,,,,,,,,,,,,,,,,,,,,,,,,,,,,,,,,,,,,,,,,,,,,,,,,,,,,,,,,,,,,
1768972440.119383,1768972440.120083,7.0,0.0,4368.974121,4341.666504,4359.743652,4341.666504,4350.256348,4362.307617,4362.94873,4393.205078,4374.358887,4282.05127,4474.230957,4528.974121,4400.897461,4444.487305,,,,,,,,,,,,,,,,,,,,,,,,,,,,,,,,,,,,,,,,,,,,,,,,,,,,,,,,,,,,,,,,,,,,,,
1768972440.127192,1768972440.127691,8.0,0.0,4369.358887,4350.769043,4363.333496,4344.487305,4357.94873,4363.461426,4365.641113,4388.333496,4373.205078,4279.743652,4473.974121,4529.487305,4401.794922,4443.077148,,,,,,,,,,,,,,,,,,,,,,,,,,,,,,,,,,,,,,,,,,,,,,,,,,,,,,,,,,,,,,,,,,,,,,
1768972440.135,1768972440.1355,9.0,0.0,4368.461426,4350.897461,4360.897461,4343.205078,4358.077148,4365.897461,4364.358887,4388.077148,4365.641113,4278.205078,4467.692383,4527.820313,4398.589844,4433.589844,,,,,,,,,,,,,,,,,,,,,,,,,,,,,,,,,,,,,,,,,,,,,,,,,,,,,,,,,,,,,,,,,,,,,,
1768972440.142809,1768972440.143408,10.0,0.0,4368.589844,4343.333496,4360.512695,4342.94873,4353.461426,4360.512695,4360.256348,4386.794922,4363.205078,4278.846191,4461.282227,4524.615234,4394.871582,4425.128418,,,,,,,,,,,,,,,,,,,,,,,,,,,,,,,,,,,,,,,,,,,,,,,,,,,,,,,,,,,,,,,,,,,,,,
1768972440.150617,1768972440.151217,11.0,0.0,4371.153809,4345.769043,4364.358887,4343.461426,4353.846191,4359.615234,4364.230957,4386.282227,4368.717773,4275.769043,4460.897461,4527.05127,4395.897461,4426.538574,,,,,,,,,,,,,,,,,,,,,,,,,,,,,,,,,,,,,,,,,,,,,,,,,,,,,,,,,,,,,,,,,,,,,,
1768972440.158425,1768972440.158825,12.0,0.0,4374.743652,4353.589844,4368.974121,4343.589844,4358.846191,4366.794922,4370.0,4389.743652,4368.846191,4273.461426,4461.922852,4529.871582,4396.282227,4430.897461,,,,,,,,,,,,,,,,,,,,,,,,,,,,,,,,,,,,,,,,,,,,,,,,,,,,,,,,,,,,,,,,,,,,,,
1768972440.166234,1768972440.166634,13.0,0.0,4373.846191,4348.077148,4368.077148,4345.384766,4357.179688,4368.077148,4371.666504,4392.436035,4366.282227,4276.025879,4459.871582,4525.384766,4395.384766,4430.641113,,,,,,,,,,,,,,,,,,,,,,,,,,,,,,,,,,,,,,,,,,,,,,,,,,,,,,,,,,,,,,,,,,,,,,
1768972440.174042,1768972440.174342,14.0,0.0,4367.179688,4339.743652,4359.871582,4340.512695,4352.94873,4362.94873,4371.410156,4393.846191,4369.487305,4275.769043,4457.692383,4521.922852,4393.974121,4427.94873,0.397706,0.197854,0.235674,0.141723,0.133973,0.888188,0.813289,0.236379,0.1919,0.090669,0.277843,0.217699,0.329056,0.16049,0.101634,0.231469,0.15777,0.11528,0.115006,0.061343,0.187653,0.091057,0.044855,0.043446,0.073919,0.226941,0.056546,0.082473,0.198104,0.225167,0.20713,0.117231,0.198672,0.340106,0.304675,0.164937,0.13573,0.035757,0.26974,0.199996,0.330134,0.174485,0.048944,0.217437,0.089018,0.42558,0.136532,0.114612,0.188093,0.065494,0.708963,0.243564,0.137654,0.332936,0.107201,0.504715,0.685955,0.341102,0.348633,0.124811,0.298077,0.371595,0.276168,0.30891,0.122338,0.569344,0.162298,0.259402,0.364323,0.133426
1768972440.181851,1768972440.182151,15.0,0.0,4363.589844,4341.153809,4357.563965,4334.102539,4355.128418,4364.871582,4371.025879,4392.820313,4368.461426,4268.333496,4458.974121,4526.922852,4391.922852,4428.717773,,,,,,,,,,,,,,,,,,,,,,,,,,,,,,,,,,,,,,,,,,,,,,,,,,,,,,,,,,,,,,,,,,,,,,
1768972440.189659,1768972440.189759,16.0,0.0,4365.769043,4340.256348,4362.94873,4335.897461,4356.410156,4368.205078,4370.128418,4393.205078,4365.897461,4264.615234,4460.641113,4530.897461,4391.153809,4430.128418,,,,,,,,,,,,,,,,,,,,,,,,,,,,,,,,,,,,,,,,,,,,,,,,,,,,,,,,,,,,,,,,,,,,,,
1768972440.197468,1768972440.197568,17.0,0.0,4370.0,4336.282227,4362.94873,4339.102539,4356.025879,4368.333496,4373.974121,4396.410156,4371.410156,4270.512695,4460.384766,4529.102539,4391.794922,4427.307617,,,,,,,,,,,,,,,,,,,,,,,,,,,,,,,,,,,,,,,,,,,,,,,,,,,,,,,,,,,,,,,,,,,,,,
1768972440.205276,1768972440.205476,18.0,0.0,4374.358887,4339.230957,4361.282227,4339.615234,4358.205078,4372.820313,4378.205078,4396.410156,4376.666504,4276.922852,4462.692383,4530.769043,4394.615234,4428.974121,,,,,,,,,,,,,,,,,,,,,,,,,,,,,,,,,,,,,,,,,,,,,,,,,,,,,,,,,,,,,,,,,,,,,,
1768972440.213085,1768972440.213285,19.0,0.0,4373.461426,4343.717773,4364.102539,4342.05127,4360.512695,4373.333496,4375.256348,4392.307617,4373.205078,4276.538574,4468.589844,4533.974121,4399.871582,4437.436035,,,,,,,,,,,,,,,,,,,,,,,,,,,,,,,,,,,,,,,,,,,,,,,,,,,,,,,,,,,,,,,,,,,,,,
1768972440.220893,1768972440.221293,20.0,0.0,4371.153809,4338.974121,4362.692383,4342.436035,4359.743652,4364.615234,4367.179688,4389.230957,4368.974121,4275.897461,4467.94873,4529.743652,4400.0,4435.641113,,,,,,,,,,,,,,,,,,,,,,,,,,,,,,,,,,,,,,,,,,,,,,,,,,,,,,,,,,,,,,,,,,,,,,
1768972440.228701,1768972440.229101,21.0,0.0,4371.922852,4334.487305,4359.102539,4340.0,4356.153809,4361.282227,4367.05127,4389.487305,4371.282227,4277.179688,4462.179688,4528.077148,4394.102539,4427.820313,,,,,,,,,,,,,,,,,,,,,,,,,,,,,,,,,,,,,,,,,,,,,,,,,,,,,,,,,,,,,,,,,,,,,,
1768972440.23651,1768972440.23701,22.0,0.0,4371.794922,4338.461426,4360.256348,4339.102539,4357.436035,4367.307617,4372.05127,4390.384766,4371.794922,4275.384766,4466.410156,4532.692383,4398.333496,4433.333496,,,,,,,,,,,,,,,,,,,,,,,,,,,,,,,,,,,,,,,,,,,,,,,,,,,,,,,,,,,,,,,,,,,,,,
1768972440.244318,1768972440.244818,23.0,0.0,4370.641113,4340.769043,4363.333496,4339.230957,4359.487305,4367.436035,4368.589844,4388.461426,4370.0,4274.871582,4477.05127,4538.205078,4410.769043,4445.256348,,,,,,,,,,,,,,,,,,,,,,,,,,,,,,,,,,,,,,,,,,,,,,,,,,,,,,,,,,,,,,,,,,,,,,
1768972440.252127,1768972440.252427,24.0,0.0,4377.05127,4337.820313,4366.025879,4337.820313,4357.307617,4362.307617,4364.615234,4385.384766,4369.487305,4274.871582,4478.974121,4543.717773,4411.410156,4447.05127,,,,,,,,,,,,,,,,,,,,,,,,,,,,,,,,,,,,,,,,,,,,,,,,,,,,,,,,,,,,,,,,,,,,,,
1768972440.259935,1768972440.260235,25.0,0.0,4381.153809,4338.077148,4364.102539,4336.922852,4355.0,4358.589844,4366.282227,4385.256348,4367.307617,4268.589844,4470.641113,4545.384766,4398.461426,4442.179688,,,,,,,,,,,,,,,,,,,,,,,,,,,,,,,,,,,,,,,,,,,,,,,,,,,,,,,,,,,,,,,,,,,,,,
1768972440.267744,1768972440.268143,26.0,0.0,4377.179688,4338.589844,4356.538574,4335.897461,4355.384766,4358.077148,4367.692383,4389.871582,4370.256348,4262.307617,4464.871582,4544.871582,4394.358887,4441.666504,,,,,,,,,,,,,,,,,,,,,,,,,,,,,,,,,,,,,,,,,,,,,,,,,,,,,,,,,,,,,,,,,,,,,,
1768972440.275552,1768972440.275952,27.0,0.0,4378.205078,4338.589844,4357.307617,4336.153809,4356.282227,4364.487305,4372.692383,4393.589844,4374.358887,4265.512695,4466.410156,4544.743652,4405.256348,4447.179688,,,,,,,,,,,,,,,,,,,,,,,,,,,,,,,,,,,,,,,,,,,,,,,,,,,,,,,,,,,,,,,,,,,,,,
1768972440.283361,1768972440.28396,28.0,0.0,4380.769043,4340.641113,4360.384766,4337.94873,4357.179688,4367.820313,4371.666504,4387.307617,4365.0,4266.666504,4464.615234,4537.820313,4407.05127,4443.333496,,,,,,,,,,,,,,,,,,,,,,,,,,,,,,,,,,,,,,,,,,,,,,,,,,,,,,,,,,,,,,,,,,,,,,
1768972440.291169,1768972440.291769,29.0,0.0,4374.102539,4340.384766,4353.205078,4337.307617,4357.436035,4365.512695,4366.538574,4383.846191,4356.794922,4261.025879,4460.0,4530.769043,4397.820313,4431.410156,,,,,,,,,,,,,,,,,,,,,,,,,,,,,,,,,,,,,,,,,,,,,,,,,,,,,,,,,,,,,,,,,,,,,,
1768972440.298978,1768972440.299477,30.0,0.0,4368.974121,4338.589844,4350.512695,4334.230957,4355.512695,4364.615234,4369.102539,4391.282227,4365.256348,4260.769043,4458.717773,4533.205078,4394.230957,4427.563965,0.542538,0.261956,0.246904,0.151847,0.147984,0.65752,0.760302,0.198021,0.202257,0.101101,0.299554,0.236627,0.339458,0.165448,0.111185,0.278443,0.169315,0.123237,0.110516,0.065293,0.20408,0.069662,0.040597,0.04634,0.073364,0.190413,0.058334,0.098424,0.213278,0.249639,0.25125,0.130305,0.188848,0.350009,0.354357,0.195458,0.115438,0.039223,0.242993,0.225965,0.285985,0.135157,0.045883,0.204935,0.108982,0.418095,0.118766,0.104891,0.187113,0.075089,0.693497,0.202125,0.12049,0.30898,0.124926,0.556839,0.695889,0.340219,0.347858,0.128571,0.276925,0.373054,0.251933,0.289042,0.124947,0.611667,0.183624,0.220213,0.370151,0.128229
1768972440.306786,1768972440.307286,31.0,0.0,4375.897461,4341.282227,4358.461426,4335.512695,4357.179688,4360.512695,4368.717773,4388.333496,4367.94873,4262.94873,4461.025879,4533.589844,4399.102539,4430.641113,,,,,,,,,,,,,,,,,,,,,,,,,,,,,,,,,,,,,,,,,,,,,,,,,,,,,,,,,,,,,,,,,,,,,,
1768972440.314594,1768972440.314894,32.0,0.0,4384.615234,4344.358887,4362.820313,4341.410156,4358.589844,4355.641113,4361.922852,4380.384766,4361.922852,4262.563965,4462.94873,4529.358887,4402.307617,4434.487305,,,,,,,,,,,,,,,,,,,,,,,,,,,,,,,,,,,,,,,,,,,,,,,,,,,,,,,,,,,,,,,,,,,,,,
1768972440.322403,1768972440.322703,33.0,0.0,4384.743652,4344.230957,4359.230957,4343.461426,4357.94873,4356.922852,4362.307617,4384.871582,4365.769043,4263.589844,4464.230957,4530.641113,4401.410156,4436.538574,,,,,,,,,,,,,,,,,,,,,,,,,,,,,,,,,,,,,,,,,,,,,,,,,,,,,,,,,,,,,,,,,,,,,,
1768972440.330211,1768972440.330411,34.0,0.0,4380.256348,4346.153809,4358.333496,4340.641113,4362.563965,4359.743652,4367.436035,4388.589844,4367.436035,4264.230957,4463.589844,4532.436035,4401.153809,4434.358887,,,,,,,,,,,,,,,,,,,,,,,,,,,,,,,,,,,,,,,,,,,,,,,,,,,,,,,,,,,,,,,,,,,,,,
1768972440.33802,1768972440.33822,35.0,0.0,4379.743652,4350.128418,4361.282227,4341.410156,4366.153809,4361.282227,4369.358887,4385.641113,4362.692383,4261.410156,4460.512695,4532.179688,4399.871582,4431.410156,,,,,,,,,,,,,,,,,,,,,,,,,,,,,,,,,,,,,,,,,,,,,,,,,,,,,,,,,,,,,,,,,,,,,,
1768972440.345828,1768972440.346228,36.0,0.0,4385.256348,4352.436035,4362.179688,4345.256348,4363.974121,4368.077148,4373.974121,4389.743652,4367.692383,4263.205078,4461.538574,4536.410156,4397.436035,4432.307617,,,,,,,,,,,,,,,,,,,,,,,,,,,,,,,,,,,,,,,,,,,,,,,,,,,,,,,,,,,,,,,,,,,,,,
1768972440.353637,1768972440.354036,37.0,0.0,4382.563965,4344.743652,4361.153809,4340.128418,4361.153809,4371.666504,4377.179688,4393.974121,4372.179688,4263.077148,4462.179688,4537.563965,4396.794922,4430.0,,,,,,,,,,,,,,,,,,,,,,,,,,,,,,,,,,,,,,,,,,,,,,,,,,,,,,,,,,,,,,,,,,,,,,
1768972440.361445,1768972440.361745,38.0,0.0,4370.0,4331.538574,4354.487305,4329.871582,4358.846191,4367.563965,4375.256348,4389.230957,4366.282227,4254.358887,4458.333496,4529.358887,4396.025879,4424.230957,,,,,,,,,,,,,,,,,,,,,,,,,,,,,,,,,,,,,,,,,,,,,,,,,,,,,,,,,,,,,,,,,,,,,,
1768972440.369254,1768972440.369553,39.0,0.0,4368.589844,4332.692383,4349.358887,4331.153809,4355.641113,4365.0,4373.333496,4386.282227,4362.563965,4252.05127,4457.436035,4524.358887,4394.871582,4424.743652,,,,,,,,,,,,,,,,,,,,,,,,,,,,,,,,,,,,,,,,,,,,,,,,,,,,,,,,,,,,,,,,,,,,,,
1768972440.377062,1768972440.377162,40.0,0.0,4379.871582,4340.897461,4353.077148,4336.282227,4355.256348,4363.077148,4368.717773,4387.563965,4366.922852,4256.794922,4460.897461,4527.563965,4394.615234,4427.179688,,,,,,,,,,,,,,,,,,,,,,,,,,,,,,,,,,,,,,,,,,,,,,,,,,,,,,,,,,,,,,,,,,,,,,
1768972440.38487,1768972440.38497,41.0,0.0,4383.974121,4340.641113,4357.436035,4335.0,4360.769043,4365.128418,4371.410156,4385.769043,4365.256348,4256.025879,4460.256348,4529.358887,4396.153809,4428.589844,,,,,,,,,,,,,,,,,,,,,,,,,,,,,,,,,,,,,,,,,,,,,,,,,,,,,,,,,,,,,,,,,,,,,,
1768972440.392679,1768972440.392679,42.0,0.0,4380.769043,4338.205078,4357.436035,4337.307617,4363.205078,4365.512695,4378.333496,4384.743652,4363.333496,4256.282227,4459.743652,4529.358887,4397.307617,4427.307617,,,,,,,,,,,,,,,,,,,,,,,,,,,,,,,,,,,,,,,,,,,,,,,,,,,,,,,,,,,,,,,,,,,,,,
1768972440.400487,1768972440.400487,43.0,0.0,4383.333496,4342.94873,4357.563965,4341.666504,4363.077148,4361.794922,4372.563965,4385.769043,4369.358887,4262.179688,4466.153809,4533.846191,4399.230957,4428.333496,,,,,,,,,,,,,,,,,,,,,,,,,,,,,,,,,,,,,,,,,,,,,,,,,,,,,,,,,,,,,,,,,,,,,,
1768972440.408296,1768972440.408496,44.0,0.0,4386.153809,4348.205078,4357.436035,4340.256348,4363.717773,4362.307617,4363.205078,4382.179688,4368.974121,4261.153809,4467.563965,4534.102539,4399.871582,4431.922852,,,,,,,,,,,,,,,,,,,,,,,,,,,,,,,,,,,,,,,,,,,,,,,,,,,,,,,,,,,,,,,,,,,,,,
1768972440.416104,1768972440.416304,45.0,0.0,4385.641113,4349.487305,4358.205078,4339.230957,4362.820313,4361.666504,4366.410156,4379.230957,4363.205078,4255.897461,4464.871582,4528.461426,4397.692383,4429.230957,,,,,,,,,,,,,,,,,,,,,,,,,,,,,,,,,,,,,,,,,,,,,,,,,,,,,,,,,,,,,,,,,,,,,,
