Timestamp,OriginalTimestamp,EEG.Counter,EEG.Interpolated,EEG.AF3,EEG.F7,EEG.F3,EEG.FC5,EEG.T7,EEG.P7,EEG.O1,EEG.O2,EEG.P8,EEG.T8,EEG.FC6,EEG.F4,EEG.F8,EEG.AF4,POW.AF3.Theta,POW.AF3.Alpha,POW.AF3.BetaL,POW.AF3.BetaH,POW.AF3.Gamma,POW.F7.Theta,POW.F7.Alpha,POW.F7.BetaL,POW.F7.BetaH,POW.F7.Gamma,POW.F3.Theta,POW.F3.Alpha,POW.F3.BetaL,POW.F3.BetaH,POW.F3.Gamma,POW.FC5.Theta,POW.FC5.Alpha,POW.FC5.BetaL,POW.FC5.BetaH,POW.FC5.Gamma,POW.T7.Theta,POW.T7.Alpha,POW.T7.BetaL,POW.T7.BetaH,POW.T7.Gamma,POW.P7.Theta,POW.P7.Alpha,POW.P7.BetaL,POW.P7.BetaH,POW.P7.Gamma,POW.O1.Theta,POW.O1.Alpha,POW.O1.BetaL,POW.O1.BetaH,POW.O1.Gamma,POW.O2.Theta,POW.O2.Alpha,POW.O2.BetaL,POW.O2.BetaH,POW.O2.Gamma,POW.P8.Theta,POW.P8.Alpha,POW.P8.BetaL,POW.P8.BetaH,POW.P8.Gamma,POW.T8.Theta,POW.T8.Alpha,POW.T8.BetaL,POW.T8.BetaH,POW.T8.Gamma,POW.FC6.Theta,POW.FC6.Alpha,POW.FC6.BetaL,POW.FC6.BetaH,POW.FC6.Gamma,POW.F4.Theta,POW.F4.Alpha,POW.F4.BetaL,POW.F4.BetaH,POW.F4.Gamma,POW.F8.Theta,POW.F8.Alpha,POW.F8.BetaL,POW.F8.BetaH,POW.F8.Gamma,POW.AF4.Theta,POW.AF4.Alpha,POW.AF4.BetaL,POW.AF4.BetaH,POW.AF4.Gamma
1768973301.625336,1768973301.625356,1.0,0.0,4356.153809,4371.410156,4344.871582,4364.615234,4364.743652,4370.769043,4377.820313,4385.256348,4383.333496,4367.307617,4458.717773,4505.0,4396.666504,4410.897461,,,,,,,,,,,,,,,,,,,,,,,,,,,,,,,,,,,,,,,,,,,,,,,,,,,,,,,,,,,,,,,,,,,,,,
1768973301.633144,1768973301.633065,2.0,0.0,4364.615234,4377.179688,4349.487305,4371.153809,4365.256348,4375.897461,4383.589844,4392.179688,4394.230957,4374.743652,4463.846191,4515.641113,4402.563965,4419.743652,,,,,,,,,,,,,,,,,,,,,,,,,,,,,,,,,,,,,,,,,,,,,,,,,,,,,,,,,,,,,,,,,,,,,,
1768973301.640952,1768973301.640873,3.0,0.0,4368.717773,4382.94873,4354.487305,4373.846191,4371.025879,4379.487305,4385.0,4397.692383,4396.282227,4376.025879,4464.358887,4515.128418,4402.307617,4421.538574,,,,,,,,,,,,,,,,,,,,,,,,,,,,,,,,,,,,,,,,,,,,,,,,,,,,,,,,,,,,,,,,,,,,,,
1768973301.648761,1768973301.648881,4.0,0.0,4364.615234,4381.666504,4353.461426,4372.94873,4372.05127,4380.128418,4384.358887,4393.461426,4387.179688,4364.487305,4458.717773,4507.563965,4392.563965,4411.410156,,,,,,,,,,,,,,,,,,,,,,,,,,,,,,,,,,,,,,,,,,,,,,,,,,,,,,,,,,,,,,,,,,,,,,
1768973301.656569,1768973301.65669,5.0,0.0,4363.974121,4380.0,4349.487305,4373.717773,4371.282227,4378.205078,4382.05127,4385.256348,4379.102539,4357.820313,4457.563965,4502.820313,4387.05127,4408.717773,,,,,,,,,,,,,,,,,,,,,,,,,,,,,,,,,,,,,,,,,,,,,,,,,,,,,,,,,,,,,,,,,,,,,,
1768973301.664378,1768973301.664598,6.0,0.0,4364.230957,4379.871582,4348.589844,4374.487305,4372.179688,4376.666504,4380.256348,4385.512695,4381.666504,4363.077148,4459.871582,4503.974121,4392.94873,4413.461426,,,,,,,,,,,,,,,,,,,,,,,,,,,,,,,,,,,,,,,,,,,,,,,,,,,,,,,,,,,,,,,,,,,,,,
1768973301.672186,1768973301.672407,7.0,0.0,4357.94873,4375.897461,4346.153809,4372.563965,4370.641113,4378.205078,4379.230957,4392.436035,4386.794922,4363.205078,4458.589844,4505.512695,4397.563965,4411.666504,,,,,,,,,,,,,,,,,,,,,,,,,,,,,,,,,,,,,,,,,,,,,,,,,,,,,,,,,,,,,,,,,,,,,,
1768973301.679995,1768973301.680415,8.0,0.0,4357.820313,4374.615234,4345.512695,4371.538574,4368.333496,4380.384766,4380.256348,4391.538574,4382.820313,4356.794922,4456.922852,4505.0,4394.871582,4409.871582,,,,,,,,,,,,,,,,,,,,,,,,,,,,,,,,,,,,,,,,,,,,,,,,,,,,,,,,,,,,,,,,,,,,,,
1768973301.687803,1768973301.688223,9.0,0.0,4363.589844,4379.743652,4352.563965,4373.333496,4369.358887,4381.922852,4382.94873,4388.461426,4381.025879,4357.307617,4459.358887,4504.871582,4391.794922,4415.641113,,,,,,,,,,,,,,,,,,,,,,,,,,,,,,,,,,,,,,,,,,,,,,,,,,,,,,,,,,,,,,,,,,,,,,
1768973301.695612,1768973301.695932,10.0,0.0,4360.769043,4381.922852,4354.102539,4375.0,4370.897461,4386.282227,4383.717773,4386.410156,4379.487305,4358.846191,4455.384766,4502.692383,4387.563965,4410.769043,,,,,,,,,,,,,,,,,,,,,,,,,,,,,,,,,,,,,,,,,,,,,,,,,,,,,,,,,,,,,,,,,,,,,,
1768973301.70342,1768973301.70374,11.0,0.0,4355.384766,4380.769043,4346.794922,4373.461426,4371.025879,4389.230957,4383.846191,4383.717773,4373.974121,4357.436035,4445.0,4496.538574,4381.153809,4400.384766,,,,,,,,,,,,,,,,,,,,,,,,,,,,,,,,,,,,,,,,,,,,,,,,,,,,,,,,,,,,,,,,,,,,,,
1768973301.711228,1768973301.711749,12.0,0.0,4357.94873,4380.641113,4346.025879,4373.333496,4373.205078,4385.641113,4387.820313,4386.666504,4377.563965,4358.333496,4442.692383,4497.436035,4383.846191,4404.871582,,,,,,,,,,,,,,,,,,,,,,,,,,,,,,,,,,,,,,,,,,,,,,,,,,,,,,,,,,,,,,,,,,,,,,
1768973301.719037,1768973301.719557,13.0,0.0,4363.589844,4381.025879,4347.692383,4376.025879,4373.461426,4377.563965,4381.410156,4385.128418,4381.153809,4358.205078,4445.128418,4501.410156,4387.436035,4411.922852,,,,,,,,,,,,,,,,,,,,,,,,,,,,,,,,,,,,,,,,,,,,,,,,,,,,,,,,,,,,,,,,,,,,,,
1768973301.726845,1768973301.727266,14.0,0.0,4363.589844,4379.358887,4345.641113,4376.153809,4369.487305,4374.743652,4371.666504,4376.666504,4374.358887,4357.563965,4442.179688,4496.410156,4382.307617,4404.358887,0.740252,0.345498,0.19968,0.220338,0.094436,1.258862,0.73451,0.349498,0.154152,0.099239,0.367435,0.33503,0.154518,0.114368,0.070979,0.68116,0.65216,0.276218,0.119008,0.048485,0.105333,0.352014,0.155491,0.070567,0.055552,0.655994,0.185989,0.191142,0.150523,0.247634,0.353474,0.238343,0.21182,0.181773,0.235899,0.628985,0.249028,0.217738,0.091742,0.117435,0.513566,0.232539,0.226575,0.112504,0.136817,0.477951,0.11672,0.11426,0.091125,0.077048,0.268031,0.250029,0.283483,0.227527,0.121798,0.963326,0.519188,0.236514,0.225251,0.084576,0.228467,0.214861,0.221016,0.13609,0.101213,0.72316,0.50349,0.238875,0.161935,0.107014
1768973301.734654,1768973301.735074,15.0,0.0,4358.077148,4374.102539,4344.871582,4373.974121,4366.025879,4375.0,4376.025879,4378.205078,4373.589844,4357.436035,4440.641113,4496.025879,4382.436035,4400.769043,,,,,,,,,,,,,,,,,,,,,,,,,,,,,,,,,,,,,,,,,,,,,,,,,,,,,,,,,,,,,,,,,,,,,,
1768973301.742462,1768973301.742683,16.0,0.0,4354.102539,4365.384766,4342.820313,4370.897461,4362.05127,4372.179688,4382.436035,4388.333496,4382.820313,4357.563965,4445.512695,4501.794922,4387.436035,4409.487305,,,,,,,,,,,,,,,,,,,,,,,,,,,,,,,,,,,,,,,,,,,,,,,,,,,,,,,,,,,,,,,,,,,,,,
1768973301.750271,1768973301.750491,17.0,0.0,4357.179688,4367.179688,4344.871582,4370.128418,4360.256348,4373.205078,4380.641113,4388.077148,4382.820313,4357.820313,4447.94873,4502.436035,4387.692383,4412.179688,,,,,,,,,,,,,,,,,,,,,,,,,,,,,,,,,,,,,,,,,,,,,,,,,,,,,,,,,,,,,,,,,,,,,,
1768973301.758079,1768973301.7582,18.0,0.0,4363.974121,4376.794922,4353.846191,4373.461426,4361.922852,4375.641113,4377.436035,4384.487305,4377.692383,4357.436035,4446.282227,4500.897461,4387.179688,4411.410156,,,,,,,,,,,,,,,,,,,,,,,,,,,,,,,,,,,,,,,,,,,,,,,,,,,,,,,,,,,,,,,,,,,,,,
1768973301.765888,1768973301.766008,19.0,0.0,4365.897461,4375.128418,4353.974121,4373.205078,4362.94873,4373.077148,4377.179688,4388.077148,4381.538574,4357.563965,4444.615234,4499.871582,4385.897461,4410.897461,,,,,,,,,,,,,,,,,,,,,,,,,,,,,,,,,,,,,,,,,,,,,,,,,,,,,,,,,,,,,,,,,,,,,,
1768973301.773696,1768973301.774016,20.0,0.0,4366.025879,4371.794922,4346.282227,4371.922852,4367.179688,4376.538574,4381.025879,4386.025879,4380.128418,4357.179688,4442.94873,4496.153809,4382.563965,4407.94873,,,,,,,,,,,,,,,,,,,,,,,,,,,,,,,,,,,,,,,,,,,,,,,,,,,,,,,,,,,,,,,,,,,,,,
1768973301.781505,1768973301.781825,21.0,0.0,4374.487305,4378.846191,4350.0,4374.743652,4371.410156,4382.692383,4383.461426,4385.512695,4375.256348,4357.307617,4445.512695,4496.025879,4386.025879,4416.410156,,,,,,,,,,,,,,,,,,,,,,,,,,,,,,,,,,,,,,,,,,,,,,,,,,,,,,,,,,,,,,,,,,,,,,
1768973301.789313,1768973301.789533,22.0,0.0,4374.615234,4384.743652,4356.538574,4376.282227,4368.846191,4378.461426,4379.102539,4389.487305,4379.102539,4359.230957,4448.974121,4500.256348,4388.461426,4423.974121,,,,,,,,,,,,,,,,,,,,,,,,,,,,,,,,,,,,,,,,,,,,,,,,,,,,,,,,,,,,,,,,,,,,,,
1768973301.797121,1768973301.797342,23.0,0.0,4359.102539,4380.256348,4349.743652,4377.563965,4367.436035,4379.102539,4380.256348,4387.307617,4381.282227,4357.05127,4445.641113,4498.461426,4381.153809,4412.94873,,,,,,,,,,,,,,,,,,,,,,,,,,,,,,,,,,,,,,,,,,,,,,,,,,,,,,,,,,,,,,,,,,,,,,
1768973301.80493,1768973301.804951,24.0,0.0,4357.94873,4377.436035,4344.615234,4383.461426,4373.205078,4385.769043,4386.410156,4384.102539,4378.589844,4354.487305,4443.205078,4497.94873,4378.717773,4405.384766,,,,,,,,,,,,,,,,,,,,,,,,,,,,,,,,,,,,,,,,,,,,,,,,,,,,,,,,,,,,,,,,,,,,,,
1768973301.812738,1768973301.812759,25.0,0.0,4368.589844,4376.410156,4346.538574,4381.282227,4375.384766,4377.820313,4379.358887,4388.461426,4380.256348,4361.666504,4446.538574,4502.436035,4383.461426,4414.230957,,,,,,,,,,,,,,,,,,,,,,,,,,,,,,,,,,,,,,,,,,,,,,,,,,,,,,,,,,,,,,,,,,,,,,
1768973301.820547,1768973301.820468,26.0,0.0,4361.538574,4365.384766,4345.512695,4372.94873,4371.922852,4372.05127,4373.846191,4390.0,4379.743652,4366.025879,4445.256348,4503.589844,4383.717773,4416.025879,,,,,,,,,,,,,,,,,,,,,,,,,,,,,,,,,,,,,,,,,,,,,,,,,,,,,,,,,,,,,,,,,,,,,,
1768973301.828355,1768973301.828276,27.0,0.0,4353.846191,4357.436035,4344.358887,4372.563965,4370.256348,4380.256348,4380.128418,4388.974121,4375.128418,4358.333496,4445.0,4505.897461,4380.512695,4409.230957,,,,,,,,,,,,,,,,,,,,,,,,,,,,,,,,,,,,,,,,,,,,,,,,,,,,,,,,,,,,,,,,,,,,,,
1768973301.836164,1768973301.836284,28.0,0.0,4360.897461,4360.256348,4348.461426,4374.743652,4373.461426,4382.307617,4383.333496,4394.102539,4378.717773,4358.717773,4454.871582,4512.692383,4381.794922,4414.615234,,,,,,,,,,,,,,,,,,,,,,,,,,,,,,,,,,,,,,,,,,,,,,,,,,,,,,,,,,,,,,,,,,,,,,
1768973301.843972,1768973301.844093,29.0,0.0,4361.794922,4360.769043,4350.256348,4373.333496,4377.307617,4380.256348,4385.256348,4393.461426,4384.230957,4369.230957,4463.717773,4517.692383,4389.102539,4426.666504,,,,,,,,,,,,,,,,,,,,,,,,,,,,,,,,,,,,,,,,,,,,,,,,,,,,,,,,,,,,,,,,,,,,,,
1768973301.851781,1768973301.852001,30.0,0.0,4356.025879,4357.05127,4346.025879,4372.820313,4376.666504,4383.846191,4388.589844,4391.025879,4382.307617,4372.436035,4461.025879,4516.025879,4394.871582,4423.077148,0.883803,0.295255,0.234165,0.209349,0.106059,1.45077,0.771873,0.362599,0.151701,0.105157,0.380404,0.261521,0.140551,0.114516,0.069548,0.715037,0.568476,0.301508,0.119354,0.052415,0.106876,0.319474,0.128866,0.075958,0.05546,0.5526,0.17795,0.164477,0.161873,0.25234,0.302839,0.23492,0.191215,0.181615,0.243538,0.480604,0.221823,0.21093,0.100903,0.132172,0.471664,0.172605,0.218471,0.129633,0.157832,0.418806,0.116271,0.1126,0.088974,0.082744,0.180514,0.198916,0.290185,0.208412,0.134807,1.034084,0.390534,0.203202,0.223345,0.090744,0.192926,0.203269,0.232068,0.150422,0.121165,0.897646,0.480262,0.256246,0.167964,0.116691
1768973301.859589,1768973301.859809,31.0,0.0,4355.641113,4356.922852,4344.230957,4372.94873,4374.230957,4383.205078,4385.897461,4395.897461,4381.666504,4366.153809,4450.512695,4508.846191,4389.487305,4408.974121,,,,,,,,,,,,,,,,,,,,,,,,,,,,,,,,,,,,,,,,,,,,,,,,,,,,,,,,,,,,,,,,,,,,,,
1768973301.867397,1768973301.867818,32.0,0.0,4357.820313,4358.333496,4349.102539,4374.487305,4374.871582,4379.743652,4382.563965,4396.153809,4381.794922,4360.769043,4445.512695,4507.179688,4382.179688,4405.512695,,,,,,,,,,,,,,,,,,,,,,,,,,,,,,,,,,,,,,,,,,,,,,,,,,,,,,,,,,,,,,,,,,,,,,
1768973301.875206,1768973301.875626,33.0,0.0,4357.179688,4355.897461,4352.307617,4375.512695,4374.871582,4377.307617,4380.897461,4387.563965,4380.641113,4363.717773,4448.461426,4511.025879,4384.743652,4410.384766,,,,,,,,,,,,,,,,,,,,,,,,,,,,,,,,,,,,,,,,,,,,,,,,,,,,,,,,,,,,,,,,,,,,,,
1768973301.883014,1768973301.883534,34.0,0.0,4355.512695,4355.256348,4348.077148,4371.538574,4370.641113,4374.487305,4376.794922,4386.538574,4380.384766,4366.410156,4448.846191,4506.922852,4387.05127,4412.179688,,,,,,,,,,,,,,,,,,,,,,,,,,,,,,,,,,,,,,,,,,,,,,,,,,,,,,,,,,,,,,,,,,,,,,
1768973301.890823,1768973301.891343,35.0,0.0,4358.205078,4360.0,4343.589844,4371.538574,4370.641113,4374.230957,4376.538574,4389.102539,4376.794922,4360.769043,4443.717773,4497.179688,4380.512695,4408.846191,,,,,,,,,,,,,,,,,,,,,,,,,,,,,,,,,,,,,,,,,,,,,,,,,,,,,,,,,,,,,,,,,,,,,,
1768973301.898631,1768973301.899351,36.0,0.0,4364.487305,4368.589844,4350.512695,4378.846191,4375.512695,4375.128418,4379.871582,4380.897461,4372.820313,4356.666504,4440.769043,4499.102539,4377.307617,4403.846191,,,,,,,,,,,,,,,,,,,,,,,,,,,,,,,,,,,,,,,,,,,,,,,,,,,,,,,,,,,,,,,,,,,,,,
1768973301.906439,1768973301.90716,37.0,0.0,4372.307617,4375.769043,4361.282227,4382.94873,4377.436035,4374.487305,4382.307617,4379.871582,4374.487305,4359.487305,4448.333496,4509.358887,4384.102539,4411.538574,,,,,,,,,,,,,,,,,,,,,,,,,,,,,,,,,,,,,,,,,,,,,,,,,,,,,,,,,,,,,,,,,,,,,,
1768973301.914248,1768973301.914868,38.0,0.0,4373.717773,4372.94873,4358.333496,4381.794922,4372.436035,4373.589844,4381.282227,4387.692383,4379.358887,4360.897461,4459.743652,4510.0,4389.871582,4424.487305,,,,,,,,,,,,,,,,,,,,,,,,,,,,,,,,,,,,,,,,,,,,,,,,,,,,,,,,,,,,,,,,,,,,,,
1768973301.922056,1768973301.922677,39.0,0.0,4367.94873,4363.461426,4346.666504,4377.05127,4369.102539,4372.563965,4375.512695,4386.794922,4379.615234,4359.230957,4457.563965,4503.205078,4389.102539,4420.769043,,,,,,,,,,,,,,,,,,,,,,,,,,,,,,,,,,,,,,,,,,,,,,,,,,,,,,,,,,,,,,,,,,,,,,
1768973301.929865,1768973301.930285,40.0,0.0,4365.256348,4356.538574,4344.102539,4373.205078,4372.692383,4367.05127,4370.256348,4382.05127,4375.256348,4358.077148,4444.230957,4498.077148,4381.025879,4410.128418,,,,,,,,,,,,,,,,,,,,,,,,,,,,,,,,,,,,,,,,,,,,,,,,,,,,,,,,,,,,,,,,,,,,,,
1768973301.937673,1768973301.938094,41.0,0.0,4366.153809,4356.666504,4347.692383,4371.153809,4372.94873,4364.487305,4369.230957,4381.410156,4371.922852,4355.128418,4441.410156,4494.358887,4375.384766,4408.974121,,,,,,,,,,,,,,,,,,,,,,,,,,,,,,,,,,,,,,,,,,,,,,,,,,,,,,,,,,,,,,,,,,,,,,
1768973301.945482,1768973301.945802,42.0,0.0,4360.128418,4357.436035,4346.282227,4363.205078,4367.307617,4371.410156,4369.230957,4382.307617,4372.05127,4350.769043,4442.179688,4492.05127,4376.410156,4407.179688,,,,,,,,,,,,,,,,,,,,,,,,,,,,,,,,,,,,,,,,,,,,,,,,,,,,,,,,,,,,,,,,,,,,,,
1768973301.95329,1768973301.953611,43.0,0.0,4355.256348,4357.563965,4342.692383,4360.128418,4368.974121,4375.256348,4373.846191,4384.487305,4375.512695,4353.846191,4437.94873,4492.692383,4378.461426,4406.025879,,,,,,,,,,,,,,,,,,,,,,,,,,,,,,,,,,,,,,,,,,,,,,,,,,,,,,,,,,,,,,,,,,,,,,
1768973301.961099,1768973301.961219,44.0,0.0,4366.922852,4366.025879,4345.384766,4374.743652,4375.897461,4372.436035,4378.974121,4387.692383,4381.922852,4365.512695,4448.974121,4497.692383,4389.102539,4416.538574,,,,,,,,,,,,,,,,,,,,,,,,,,,,,,,,,,,,,,,,,,,,,,,,,,,,,,,,,,,,,,,,,,,,,,
1768973301.968907,1768973301.969028,45.0,0.0,4378.333496,4374.743652,4351.410156,4384.871582,4376.794922,4372.436035,4380.384766,4386.153809,4383.333496,4368.333496,4460.256348,4501.153809,4398.717773,4426.538574,,,,,,,,,,,,,,,,,,,,,,,,,,,,,,,,,,,,,,,,,,,,,,,,,,,,,,,,,,,,,,,,,,,,,,
1768973301.976715,1768973301.976936,46.0,0.0,4375.256348,4375.128418,4351.282227,4380.0,4375.769043,4375.384766,4381.794922,4380.641113,4373.846191,4358.717773,4450.769043,4496.794922,4392.307617,4424.230957,1.040467,0.257776,0.289656,0.196738,0.115035,1.573951,0.74577,0.411915,0.149622,0.111361,0.399445,0.173989,0.132848,0.128478,0.064383,0.715347,0.458549,0.328313,0.119262,0.055812,0.10923,0.266625,0.104308,0.076596,0.054983,0.441381,0.178822,0.133524,0.172918,0.249319,0.267977,0.242397,0.169292,0.187166,0.243627,0.346284,0.191949,0.19304,0.109474,0.144106,0.422211,0.130663,0.207359,0.15071,0.175434,0.368319,0.119763,0.111476,0.084461,0.089264,0.147555,0.168955,0.312277,0.182118,0.158224,1.164337,0.308118,0.195689,0.225816,0.098944,0.242346,0.223957,0.263091,0.159917,0.147528,1.140444,0.484981,0.292823,0.165144,0.135744
1768973301.984524,1768973301.984745,47.0,0.0,4370.769043,4372.94873,4346.666504,4378.589844,4375.512695,4371.666504,4378.589844,4382.05127,4371.025879,4355.512695,4443.974121,4492.94873,4387.692383,4415.384766,,,,,,,,,,,,,,,,,,,,,,,,,,,,,,,,,,,,,,,,,,,,,,,,,,,,,,,,,,,,,,,,,,,,,,
1768973301.992332,1768973301.992753,48.0,0.0,4373.205078,4376.410156,4345.769043,4384.102539,4371.666504,4367.436035,4375.0,4385.641113,4376.794922,4357.94873,4449.615234,4494.871582,4395.128418,4412.179688,,,,,,,,,,,,,,,,,,,,,,,,,,,,,,,,,,,,,,,,,,,,,,,,,,,,,,,,,,,,,,,,,,,,,,
1768973302.000141,1768973302.000561,49.0,0.0,4375.512695,4383.333496,4348.077148,4385.769043,4370.0,4368.846191,4377.307617,4381.410156,4372.05127,4357.179688,4451.282227,4496.410156,4397.563965,4419.230957,,,,,,,,,,,,,,,,,,,,,,,,,,,,,,,,,,,,,,,,,,,,,,,,,,,,,,,,,,,,,,,,,,,,,,
1768973302.007949,1768973302.00827,50.0,0.0,4372.820313,4380.897461,4349.230957,4380.384766,4371.922852,4368.077148,4375.256348,4382.820313,4369.871582,4358.205078,4448.589844,4497.307617,4395.641113,4425.128418,,,,,,,,,,,,,,,,,,,,,,,,,,,,,,,,,,,,,,,,,,,,,,,,,,,,,,,,,,,,,,,,,,,,,,
1768973302.015758,1768973302.016078,51.0,0.0,4373.589844,4372.563965,4348.974121,4376.025879,4375.128418,4370.128418,4370.256348,4387.05127,4377.307617,4360.256348,4447.307617,4493.846191,4397.94873,4421.922852,,,,,,,,,,,,,,,,,,,,,,,,,,,,,,,,,,,,,,,,,,,,,,,,,,,,,,,,,,,,,,,,,,,,,,
1768973302.023566,1768973302.023687,52.0,0.0,4380.641113,4372.692383,4350.769043,4381.538574,4379.615234,4373.717773,4372.179688,4377.05127,4375.0,4356.410156,4444.743652,4491.025879,4397.820313,4416.666504,,,,,,,,,,,,,,,,,,,,,,,,,,,,,,,,,,,,,,,,,,,,,,,,,,,,,,,,,,,,,,,,,,,,,,
1768973302.031375,1768973302.031495,53.0,0.0,4382.05127,4374.615234,4352.692383,4385.641113,4377.179688,4367.563965,4372.94873,4372.692383,4369.102539,4356.025879,4444.358887,4493.717773,4396.794922,4416.410156,,,,,,,,,,,,,,,,,,,,,,,,,,,,,,,,,,,,,,,,,,,,,,,,,,,,,,,,,,,,,,,,,,,,,,
1768973302.039183,1768973302.039404,54.0,0.0,4372.94873,4365.897461,4350.128418,4378.333496,4370.256348,4359.615234,4366.282227,4381.794922,4372.307617,4359.743652,4444.487305,4490.128418,4394.615234,4413.974121,,,,,,,,,,,,,,,,,,,,,,,,,,,,,,,,,,,,,,,,,,,,,,,,,,,,,,,,,,,,,,,,,,,,,,
1768973302.046991,1768973302.047212,55.0,0.0,4366.922852,4361.025879,4344.487305,4374.358887,4372.820313,4362.563965,4366.153809,4379.615234,4372.05127,4350.256348,4440.769043,4486.666504,4391.666504,4413.846191,,,,,,,,,,,,,,,,,,,,,,,,,,,,,,,,,,,,,,,,,,,,,,,,,,,,,,,,,,,,,,,,,,,,,,
1768973302.0548,1768973302.05522,56.0,0.0,4375.641113,4370.512695,4345.128418,4382.307617,4377.436035,4371.282227,4376.666504,4376.666504,4373.333496,4347.307617,4444.487305,4499.871582,4396.410156,4425.128418,,,,,,,,,,,,,,,,,,,,,,,,,,,,,,,,,,,,,,,,,,,,,,,,,,,,,,,,,,,,,,,,,,,,,,
1768973302.062608,1768973302.063029,57.0,0.0,4381.153809,4377.307617,4352.563965,4382.820313,4374.871582,4373.077148,4383.461426,4388.205078,4381.153809,4361.666504,4448.974121,4507.820313,4400.384766,4430.256348,,,,,,,,,,,,,,,,,,,,,,,,,,,,,,,,,,,,,,,,,,,,,,,,,,,,,,,,,,,,,,,,,,,,,,
1768973302.070417,1768973302.070937,58.0,0.0,4374.358887,4375.897461,4352.179688,4375.769043,4372.05127,4368.717773,4376.153809,4390.769043,4377.563965,4365.641113,4443.974121,4497.563965,4395.128418,4421.794922,,,,,,,,,,,,,,,,,,,,,,,,,,,,,,,,,,,,,,,,,,,,,,,,,,,,,,,,,,,,,,,,,,,,,,
1768973302.078225,1768973302.078746,59.0,0.0,4372.563965,4372.692383,4345.897461,4375.384766,4371.538574,4366.282227,4367.692383,4385.384766,4373.974121,4357.820313,4444.358887,4497.563965,4394.871582,4421.410156,,,,,,,,,,,,,,,,,,,,,,,,,,,,,,,,,,,,,,,,,,,,,,,,,,,,,,,,,,,,,,,,,,,,,,
1768973302.086034,1768973302.086754,60.0,0.0,4381.025879,4372.179688,4351.922852,4381.410156,4372.692383,4371.025879,4374.743652,4388.077148,4383.846191,4364.615234,4457.820313,4511.794922,4401.794922,4430.384766,,,,,,,,,,,,,,,,,,,,,,,,,,,,,,,,,,,,,,,,,,,,,,,,,,,,,,,,,,,,,,,,,,,,,,
1768973302.093842,1768973302.094562,61.0,0.0,4385.512695,4378.846191,4362.820313,4385.769043,4378.205078,4375.384766,4380.641113,4387.94873,4383.333496,4368.205078,4464.358887,4514.743652,4403.333496,4432.179688,,,,,,,,,,,,,,,,,,,,,,,,,,,,,,,,,,,,,,,,,,,,,,,,,,,,,,,,,,,,,,,,,,,,,,
1768973302.101651,1768973302.102271,62.0,0.0,4382.436035,4381.025879,4359.615234,4383.717773,4380.0,4371.922852,4373.461426,4378.461426,4369.230957,4347.307617,4453.333496,4504.230957,4397.307617,4426.025879,1.171202,0.247315,0.356411,0.183455,0.119622,1.64371,0.671477,0.490677,0.146043,0.114329,0.416674,0.09765,0.136335,0.156134,0.057983,0.675143,0.351183,0.351985,0.118804,0.058372,0.116001,0.209762,0.088569,0.072975,0.053195,0.343383,0.194027,0.106025,0.184555,0.238795,0.247816,0.257228,0.151726,0.203525,0.236795,0.260905,0.160145,0.169156,0.115532,0.152124,0.37814,0.113739,0.193996,0.167399,0.185683,0.33943,0.124048,0.110045,0.077575,0.095282,0.14517,0.162161,0.350203,0.153283,0.185317,1.273721,0.26527,0.212528,0.235478,0.108635,0.327531,0.265462,0.299212,0.16297,0.175995,1.381447,0.516934,0.336026,0.154717,0.163146
1768973302.109459,1768973302.110079,63.0,0.0,4380.0,4375.0,4354.358887,4381.025879,4375.384766,4373.077148,4374.743652,4380.128418,4371.538574,4341.666504,4443.974121,4502.820313,4394.743652,4424.102539,,,,,,,,,,,,,,,,,,,,,,,,,,,,,,,,,,,,,,,,,,,,,,,,,,,,,,,,,,,,,,,,,,,,,,
1768973302.117267,1768973302.117788,64.0,0.0,4380.384766,4375.128418,4361.153809,4381.922852,4374.871582,4381.153809,4384.230957,4392.692383,4382.94873,4360.384766,4447.179688,4513.974121,4397.307617,4426.538574,,,,,,,,,,,,,,,,,,,,,,,,,,,,,,,,,,,,,,,,,,,,,,,,,,,,,,,,,,,,,,,,,,,,,,
1768973302.125076,1768973302.125596,65.0,0.0,4384.358887,4379.871582,4363.333496,4380.769043,4377.179688,4380.256348,4377.820313,4388.461426,4376.666504,4365.128418,4449.487305,4516.666504,4394.871582,4426.282227,,,,,,,,,,,,,,,,,,,,,,,,,,,,,,,,,,,,,,,,,,,,,,,,,,,,,,,,,,,,,,,,,,,,,,
1768973302.132884,1768973302.133305,66.0,0.0,4382.692383,4378.333496,4358.205078,4378.077148,4376.282227,4373.205078,4365.512695,4371.922852,4365.256348,4353.461426,4441.922852,4504.871582,4389.871582,4423.846191,,,,,,,,,,,,,,,,,,,,,,,,,,,,,,,,,,,,,,,,,,,,,,,,,,,,,,,,,,,,,,,,,,,,,,
1768973302.140693,1768973302.141113,67.0,0.0,4375.384766,4377.307617,4358.205078,4378.077148,4375.512695,4375.0,4371.282227,4367.307617,4364.358887,4346.666504,4435.897461,4500.128418,4387.05127,4421.922852,,,,,,,,,,,,,,,,,,,,,,,,,,,,,,,,,,,,,,,,,,,,,,,,,,,,,,,,,,,,,,,,,,,,,,
1768973302.148501,1768973302.148722,68.0,0.0,4376.922852,4381.410156,4362.563965,4381.025879,4375.897461,4382.05127,4381.538574,4377.05127,4371.410156,4350.384766,4440.384766,4509.871582,4389.230957,4423.205078,,,,,,,,,,,,,,,,,,,,,,,,,,,,,,,,,,,,,,,,,,,,,,,,,,,,,,,,,,,,,,,,,,,,,,
1768973302.15631,1768973302.15653,69.0,0.0,4383.717773,4379.230957,4363.974121,4382.307617,4374.487305,4380.897461,4377.179688,4383.846191,4377.692383,4355.384766,4445.256348,4514.102539,4395.769043,4426.410156,,,,,,,,,,,,,,,,,,,,,,,,,,,,,,,,,,,,,,,,,,,,,,,,,,,,,,,,,,,,,,,,,,,,,,
1768973302.164118,1768973302.164239,70.0,0.0,4380.256348,4373.589844,4361.538574,4383.077148,4373.333496,4377.436035,4371.410156,4380.256348,4375.384766,4353.077148,4443.205078,4509.487305,4395.384766,4428.461426,,,,,,,,,,,,,,,,,,,,,,,,,,,,,,,,,,,,,,,,,,,,,,,,,,,,,,,,,,,,,,,,,,,,,,
1768973302.171927,1768973302.172047,71.0,0.0,4371.922852,4372.692383,4358.589844,4381.538574,4373.205078,4380.641113,4376.282227,4378.205078,4368.974121,4346.794922,4440.0,4508.974121,4387.436035,4423.589844,,,,,,,,,,,,,,,,,,,,,,,,,,,,,,,,,,,,,,,,,,,,,,,,,,,,,,,,,,,,,,,,,,,,,,
1768973302.179735,1768973302.180056,72.0,0.0,4374.743652,4375.384766,4361.153809,4381.282227,4371.666504,4379.487305,4379.487305,4381.666504,4372.05127,4348.333496,4439.871582,4512.05127,4386.153809,4418.589844,,,,,,,,,,,,,,,,,,,,,,,,,,,,,,,,,,,,,,,,,,,,,,,,,,,,,,,,,,,,,,,,,,,,,,
1768973302.187544,1768973302.187864,73.0,0.0,4383.077148,4380.512695,4368.974121,4386.153809,4370.128418,4375.384766,4378.205078,4384.358887,4378.974121,4353.205078,4443.461426,4515.0,4390.0,4424.102539,,,,,,,,,,,,,,,,,,,,,,,,,,,,,,,,,,,,,,,,,,,,,,,,,,,,,,,,,,,,,,,,,,,,,,
1768973302.195352,1768973302.195772,74.0,0.0,4382.692383,4380.512695,4367.820313,4388.589844,4368.846191,4378.717773,4376.538574,4383.717773,4374.102539,4348.333496,4445.256348,4519.102539,4387.692383,4427.307617,,,,,,,,,,,,,,,,,,,,,,,,,,,,,,,,,,,,,,,,,,,,,,,,,,,,,,,,,,,,,,,,,,,,,,
1768973302.20316,1768973302.203581,75.0,0.0,4378.589844,4379.230957,4361.153809,4390.384766,4370.0,4380.897461,4373.717773,4378.205078,4368.205078,4345.384766,4442.94873,4519.871582,4388.333496,4422.692383,,,,,,,,,,,,,,,,,,,,,,,,,,,,,,,,,,,,,,,,,,,,,,,,,,,,,,,,,,,,,,,,,,,,,,
1768973302.210969,1768973302.21119,76.0,0.0,4384.102539,4384.743652,4364.358887,4394.230957,4371.538574,4374.743652,4370.384766,4372.179688,4373.846191,4356.282227,4447.692383,4520.384766,4395.512695,4424.615234,,,,,,,,,,,,,,,,,,,,,,,,,,,,,,,,,,,,,,,,,,,,,,,,,,,,,,,,,,,,,,,,,,,,,,
1768973302.218777,1768973302.218998,77.0,0.0,4392.94873,4395.512695,4375.256348,4397.307617,4370.897461,4375.0,4373.205078,4380.512695,4384.102539,4365.512695,4461.666504,4530.256348,4399.743652,4433.974121,,,,,,,,,,,,,,,,,,,,,,,,,,,,,,,,,,,,,,,,,,,,,,,,,,,,,,,,,,,,,,,,,,,,,,
1768973302.226586,1768973302.226707,78.0,0.0,4388.589844,4397.820313,4377.179688,4395.769043,4370.512695,4384.358887,4380.384766,4390.641113,4382.05127,4359.871582,4461.153809,4534.102539,4398.589844,4433.846191,1.239939,0.268041,0.418205,0.171248,0.120958,1.67273,0.60868,0.571371,0.140836,0.112607,0.430317,0.051037,0.150317,0.189793,0.054308,0.603561,0.273195,0.364534,0.118566,0.060625,0.134497,0.161304,0.0845,0.06758,0.049957,0.278365,0.222887,0.088669,0.19642,0.220896,0.238055,0.272678,0.144845,0.23035,0.22372,0.228213,0.130497,0.147966,0.118498,0.156507,0.347134,0.116878,0.179796,0.175089,0.187041,0.337073,0.128667,0.110616,0.07091,0.100553,0.169531,0.16972,0.398968,0.130634,0.207969,1.334474,0.246996,0.245154,0.251878,0.118671,0.410758,0.30735,0.323697,0.162472,0.199795,1.570224,0.553343,0.374567,0.145742,0.195406
1768973302.234394,1768973302.234515,79.0,0.0,4380.0,4392.307617,4367.436035,4389.102539,4371.410156,4382.563965,4378.333496,4381.922852,4372.179688,4351.794922,4444.871582,4521.282227,4396.410156,4427.563965,,,,,,,,,,,,,,,,,,,,,,,,,,,,,,,,,,,,,,,,,,,,,,,,,,,,,,,,,,,,,,,,,,,,,,
1768973302.242203,1768973302.242523,80.0,0.0,4385.641113,4390.256348,4366.538574,4386.794922,4372.563965,4379.743652,4376.666504,4376.922852,4374.487305,4356.538574,4446.282227,4518.717773,4398.077148,4429.358887,,,,,,,,,,,,,,,,,,,,,,,,,,,,,,,,,,,,,,,,,,,,,,,,,,,,,,,,,,,,,,,,,,,,,,
1768973302.250011,1768973302.250332,81.0,0.0,4394.102539,4390.897461,4371.025879,4390.769043,4372.94873,4387.563965,4381.794922,4386.794922,4383.077148,4359.358887,4457.307617,4529.743652,4400.256348,4433.461426,,,,,,,,,,,,,,,,,,,,,,,,,,,,,,,,,,,,,,,,,,,,,,,,,,,,,,,,,,,,,,,,,,,,,,
1768973302.25782,1768973302.25824,82.0,0.0,4387.563965,4389.487305,4366.794922,4392.692383,4375.256348,4384.487305,4379.230957,4383.846191,4380.0,4355.256348,4450.769043,4528.461426,4398.205078,4430.512695,,,,,,,,,,,,,,,,,,,,,,,,,,,,,,,,,,,,,,,,,,,,,,,,,,,,,,,,,,,,,,,,,,,,,,
1768973302.265628,1768973302.266048,83.0,0.0,4379.102539,4385.128418,4361.410156,4390.641113,4377.05127,4374.102539,4369.871582,4372.820313,4373.717773,4354.358887,4442.05127,4521.282227,4397.692383,4424.743652,,,,,,,,,,,,,,,,,,,,,,,,,,,,,,,,,,,,,,,,,,,,,,,,,,,,,,,,,,,,,,,,,,,,,,
1768973302.273436,1768973302.274057,84.0,0.0,4381.922852,4385.641113,4362.436035,4389.871582,4375.769043,4377.179688,4371.794922,4374.871582,4374.358887,4357.05127,4447.05127,4522.05127,4401.153809,4425.0,,,,,,,,,,,,,,,,,,,,,,,,,,,,,,,,,,,,,,,,,,,,,,,,,,,,,,,,,,,,,,,,,,,,,,
1768973302.281245,1768973302.281865,85.0,0.0,4385.256348,4387.179688,4361.410156,4388.333496,4371.666504,4380.512695,4376.153809,4378.717773,4373.077148,4356.410156,4449.743652,4523.205078,4401.922852,4428.846191,,,,,,,,,,,,,,,,,,,,,,,,,,,,,,,,,,,,,,,,,,,,,,,,,,,,,,,,,,,,,,,,,,,,,,
1768973302.289053,1768973302.289774,86.0,0.0,4382.563965,4382.820313,4359.871582,4385.769043,4367.94873,4372.820313,4371.794922,4374.230957,4369.743652,4349.358887,4445.0,4521.025879,4401.025879,4429.102539,,,,,,,,,,,,,,,,,,,,,,,,,,,,,,,,,,,,,,,,,,,,,,,,,,,,,,,,,,,,,,,,,,,,,,
1768973302.296862,1768973302.297582,87.0,0.0,4379.487305,4383.333496,4360.769043,4386.922852,4369.743652,4373.717773,4372.05127,4374.743652,4372.563965,4348.846191,4443.717773,4519.487305,4401.153809,4424.615234,,,,,,,,,,,,,,,,,,,,,,,,,,,,,,,,,,,,,,,,,,,,,,,,,,,,,,,,,,,,,,,,,,,,,,
1768973302.30467,1768973302.305191,88.0,0.0,4379.358887,4389.871582,4359.358887,4386.410156,4372.05127,4379.487305,4375.512695,4379.615234,4374.743652,4351.794922,4442.692383,4516.025879,4398.717773,4421.153809,,,,,,,,,,,,,,,,,,,,,,,,,,,,,,,,,,,,,,,,,,,,,,,,,,,,,,,,,,,,,,,,,,,,,,
1768973302.312479,1768973302.312999,89.0,0.0,4381.282227,4389.487305,4361.282227,4385.512695,4370.641113,4374.358887,4372.436035,4379.230957,4371.922852,4344.102539,4443.717773,4515.641113,4397.820313,4426.282227,,,,,,,,,,,,,,,,,,,,,,,,,,,,,,,,,,,,,,,,,,,,,,,,,,,,,,,,,,,,,,,,,,,,,,
1768973302.320287,1768973302.320708,90.0,0.0,4382.820313,4385.897461,4366.538574,4386.538574,4370.641113,4369.871582,4367.307617,4375.0,4370.769043,4341.025879,4447.820313,4518.461426,4402.307617,4431.538574,,,,,,,,,,,,,,,,,,,,,,,,,,,,,,,,,,,,,,,,,,,,,,,,,,,,,,,,,,,,,,,,,,,,,,
1768973302.328096,1768973302.328516,91.0,0.0,4380.641113,4389.615234,4367.436035,4386.410156,4374.358887,4373.846191,4368.974121,4373.846191,4370.641113,4351.153809,4447.436035,4514.615234,4403.589844,4427.436035,,,,,,,,,,,,,,,,,,,,,,,,,,,,,,,,,,,,,,,,,,,,,,,,,,,,,,,,,,,,,,,,,,,,,,
1768973302.335904,1768973302.336125,92.0,0.0,4373.333496,4388.461426,4361.025879,4382.179688,4372.563965,4377.820313,4374.871582,4378.205078,4371.794922,4353.974121,4445.256348,4510.641113,4398.333496,4424.102539,,,,,,,,,,,,,,,,,,,,,,,,,,,,,,,,,,,,,,,,,,,,,,,,,,,,,,,,,,,,,,,,,,,,,,
1768973302.343712,1768973302.343933,93.0,0.0,4373.077148,4383.717773,4356.025879,4383.461426,4368.205078,4377.307617,4375.128418,4381.282227,4371.666504,4348.589844,4445.512695,4514.743652,4397.05127,4427.436035,,,,,,,,,,,,,,,,,,,,,,,,,,,,,,,,,,,,,,,,,,,,,,,,,,,,,,,,,,,,,,,,,,,,,,
1768973302.351521,1768973302.351642,94.0,0.0,4379.743652,4390.512695,4360.384766,4391.282227,4369.615234,4374.358887,4370.0,4373.846191,4366.666504,4351.153809,4445.512695,4516.922852,4402.820313,4430.0,1.22125,0.315035,0.460316,0.161735,0.121971,1.661616,0.618474,0.62078,0.135478,0.107528,0.430728,0.041643,0.170079,0.217228,0.057227,0.51887,0.239991,0.359554,0.119767,0.063964,0.16673,0.126379,0.090744,0.063888,0.046206,0.25061,0.255558,0.083735,0.206167,0.196778,0.232692,0.280952,0.151256,0.261206,0.205957,0.232643,0.109873,0.13261,0.118941,0.158925,0.331418,0.129959,0.161376,0.173585,0.181456,0.352597,0.136334,0.113008,0.069374,0.107308,0.223442,0.185055,0.448275,0.123851,0.219788,1.325968,0.248859,0.279021,0.269847,0.12848,0.469723,0.331956,0.324653,0.163471,0.212255,1.656426,0.565903,0.400545,0.149673,0.226166
1768973302.359329,1768973302.35945,95.0,0.0,4382.307617,4397.94873,4365.769043,4391.922852,4370.769043,4371.538574,4369.615234,4367.563965,4363.589844,4350.512695,4443.974121,4511.538574,4403.461426,4428.461426,,,,,,,,,,,,,,,,,,,,,,,,,,,,,,,,,,,,,,,,,,,,,,,,,,,,,,,,,,,,,,,,,,,,,,
1768973302.367138,1768973302.367458,96.0,0.0,4381.153809,4394.487305,4362.563965,4383.974121,4365.897461,4369.615234,4371.538574,4372.179688,4365.128418,4343.974121,4444.102539,4508.717773,4398.589844,4427.05127,,,,,,,,,,,,,,,,,,,,,,,,,,,,,,,,,,,,,,,,,,,,,,,,,,,,,,,,,,,,,,,,,,,,,,
1768973302.374946,1768973302.375267,97.0,0.0,4381.666504,4390.0,4355.641113,4379.358887,4364.358887,4366.410156,4364.230957,4372.563965,4364.871582,4344.487305,4444.230957,4507.94873,4395.641113,4426.025879,,,,,,,,,,,,,,,,,,,,,,,,,,,,,,,,,,,,,,,,,,,,,,,,,,,,,,,,,,,,,,,,,,,,,,
1768973302.382755,1768973302.383175,98.0,0.0,4381.538574,4388.205078,4356.410156,4381.922852,4368.077148,4365.128418,4361.794922,4367.563965,4363.717773,4347.179688,4443.205078,4506.666504,4396.153809,4424.871582,,,,,,,,,,,,,,,,,,,,,,,,,,,,,,,,,,,,,,,,,,,,,,,,,,,,,,,,,,,,,,,,,,,,,,
1768973302.390563,1768973302.390984,99.0,0.0,4380.0,4384.487305,4359.487305,4384.615234,4369.358887,4374.102539,4372.307617,4376.153809,4371.794922,4351.794922,4444.102539,4513.846191,4400.0,4423.461426,,,,,,,,,,,,,,,,,,,,,,,,,,,,,,,,,,,,,,,,,,,,,,,,,,,,,,,,,,,,,,,,,,,,,,
1768973302.398372,1768973302.398992,100.0,0.0,4379.487305,4381.153809,4358.974121,4381.794922,4370.384766,4380.256348,4377.179688,4383.077148,4375.256348,4353.461426,4445.128418,4519.871582,4402.692383,4420.641113,,,,,,,,,,,,,,,,,,,,,,,,,,,,,,,,,,,,,,,,,,,,,,,,,,,,,,,,,,,,,,,,,,,,,,
1768973302.40618,1768973302.4068,101.0,0.0,4375.256348,4378.077148,4357.692383,4375.0,4371.666504,4376.153809,4372.05127,4377.692383,4366.025879,4345.128418,4443.589844,4514.487305,4397.820313,4420.384766,,,,,,,,,,,,,,,,,,,,,,,,,,,,,,,,,,,,,,,,,,,,,,,,,,,,,,,,,,,,,,,,,,,,,,
1768973302.413988,1768973302.414709,102.0,0.0,4370.897461,4377.05127,4356.410156,4375.128418,4371.922852,4376.410156,4373.846191,4376.153809,4364.743652,4344.615234,4441.794922,4513.461426,4393.461426,4419.615234,,,,,,,,,,,,,,,,,,,,,,,,,,,,,,,,,,,,,,,,,,,,,,,,,,,,,,,,,,,,,,,,,,,,,,
1768973302.421797,1768973302.422517,103.0,0.0,4373.717773,4380.512695,4356.025879,4381.410156,4374.230957,4378.205078,4373.461426,4376.538574,4370.512695,4357.05127,4444.487305,4517.692383,4397.94873,4419.615234,,,,,,,,,,,,,,,,,,,,,,,,,,,,,,,,,,,,,,,,,,,,,,,,,,,,,,,,,,,,,,,,,,,,,,
1768973302.429605,1768973302.430525,104.0,0.0,4379.871582,4382.05127,4360.128418,4379.615234,4375.256348,4375.256348,4368.974121,4376.282227,4371.282227,4360.384766,4448.974121,4516.794922,4399.871582,4423.717773,,,,,,,,,,,,,,,,,,,,,,,,,,,,,,,,,,,,,,,,,,,,,,,,,,,,,,,,,,,,,,,,,,,,,,
1768973302.437414,1768973302.438334,105.0,0.0,4382.179688,4378.717773,4362.436035,4377.563965,4376.025879,4377.179688,4376.410156,4382.179688,4372.94873,4355.128418,4448.589844,4517.436035,4396.538574,4427.307617,,,,,,,,,,,,,,,,,,,,,,,,,,,,,,,,,,,,,,,,,,,,,,,,,,,,,,,,,,,,,,,,,,,,,,
1768973302.445222,1768973302.446242,106.0,0.0,4380.128418,4380.384766,4360.256348,4382.94873,4377.436035,4376.922852,4379.102539,4380.384766,4376.025879,4354.871582,4444.230957,4517.307617,4396.410156,4427.179688,,,,,,,,,,,,,,,,,,,,,,,,,,,,,,,,,,,,,,,,,,,,,,,,,,,,,,,,,,,,,,,,,,,,,,
1768973302.453031,1768973302.454051,107.0,0.0,4376.794922,4386.282227,4359.230957,4382.563965,4377.563965,4375.641113,4375.897461,4371.153809,4371.282227,4353.077148,4442.179688,4514.743652,4397.05127,4420.512695,,,,,,,,,,,,,,,,,,,,,,,,,,,,,,,,,,,,,,,,,,,,,,,,,,,,,,,,,,,,,,,,,,,,,,
1768973302.460839,1768973302.462059,108.0,0.0,4372.307617,4384.871582,4359.615234,4374.102539,4373.974121,4382.820313,4380.897461,4377.05127,4370.0,4351.282227,4444.230957,4514.102539,4397.179688,4417.563965,,,,,,,,,,,,,,,,,,,,,,,,,,,,,,,,,,,,,,,,,,,,,,,,,,,,,,,,,,,,,,,,,,,,,,
1768973302.468648,1768973302.469867,109.0,0.0,4370.641113,4375.0,4356.538574,4371.538574,4373.589844,4380.897461,4379.358887,4386.922852,4376.153809,4355.0,4445.384766,4514.358887,4395.512695,4423.974121,,,,,,,,,,,,,,,,,,,,,,,,,,,,,,,,,,,,,,,,,,,,,,,,,,,,,,,,,,,,,,,,,,,,,,
1768973302.476456,1768973302.477576,110.0,0.0,4373.077148,4367.692383,4352.94873,4375.897461,4375.769043,4370.769043,4368.589844,4379.487305,4375.256348,4358.461426,4443.461426,4512.436035,4391.153809,4424.743652,1.112132,0.375433,0.474313,0.155884,0.126554,1.589844,0.727509,0.619671,0.132201,0.10217,0.404055,0.064063,0.188092,0.227488,0.068771,0.435933,0.252181,0.336977,0.123417,0.069626,0.209778,0.102969,0.102766,0.064792,0.043241,0.252297,0.276757,0.08767,0.2104,0.169886,0.225959,0.27696,0.167225,0.286028,0.186925,0.257122,0.105593,0.123063,0.119536,0.162475,0.324409,0.14392,0.136472,0.166672,0.173957,0.378629,0.149353,0.116141,0.078481,0.119738,0.310883,0.207246,0.486705,0.139176,0.219446,1.262919,0.27128,0.299525,0.280929,0.139013,0.499858,0.332837,0.300107,0.169788,0.20992,1.616045,0.53438,0.411091,0.172796,0.248347
1768973302.484264,1768973302.485384,111.0,0.0,4372.436035,4368.333496,4355.641113,4376.922852,4376.153809,4374.743652,4371.666504,4374.743652,4370.0,4353.974121,4440.897461,4512.563965,4386.282227,4417.692383,,,,,,,,,,,,,,,,,,,,,,,,,,,,,,,,,,,,,,,,,,,,,,,,,,,,,,,,,,,,,,,,,,,,,,
1768973302.492073,1768973302.492993,112.0,0.0,4371.794922,4372.307617,4359.871582,4376.410156,4376.666504,4383.205078,4379.871582,4380.769043,4371.410156,4343.974121,4441.410156,4511.153809,4386.282227,4418.846191,,,,,,,,,,,,,,,,,,,,,,,,,,,,,,,,,,,,,,,,,,,,,,,,,,,,,,,,,,,,,,,,,,,,,,
1768973302.499881,1768973302.500801,113.0,0.0,4380.256348,4377.94873,4361.282227,4380.512695,4377.692383,4382.179688,4378.717773,4384.871582,4379.615234,4346.666504,4446.410156,4508.717773,4391.794922,4427.692383,,,,,,,,,,,,,,,,,,,,,,,,,,,,,,,,,,,,,,,,,,,,,,,,,,,,,,,,,,,,,,,,,,,,,,
1768973302.50769,1768973302.50851,114.0,0.0,4387.436035,4381.794922,4360.641113,4384.358887,4380.641113,4381.666504,4377.94873,4386.922852,4384.102539,4360.512695,4450.256348,4516.025879,4398.589844,4433.461426,,,,,,,,,,,,,,,,,,,,,,,,,,,,,,,,,,,,,,,,,,,,,,,,,,,,,,,,,,,,,,,,,,,,,,
1768973302.515498,1768973302.516318,115.0,0.0,4386.025879,4381.794922,4361.794922,4383.717773,4381.922852,4383.717773,4380.0,4388.461426,4382.05127,4362.307617,4450.384766,4522.179688,4398.589844,4437.05127,,,,,,,,,,,,,,,,,,,,,,,,,,,,,,,,,,,,,,,,,,,,,,,,,,,,,,,,,,,,,,,,,,,,,,
1768973302.523307,1768973302.523927,116.0,0.0,4384.743652,4380.256348,4364.358887,4382.820313,4381.153809,4381.025879,4380.512695,4383.205078,4377.820313,4353.077148,4447.05127,4515.641113,4393.846191,4434.871582,,,,,,,,,,,,,,,,,,,,,,,,,,,,,,,,,,,,,,,,,,,,,,,,,,,,,,,,,,,,,,,,,,,,,,
1768973302.531115,1768973302.531735,117.0,0.0,4382.820313,4376.538574,4363.717773,4383.077148,4380.769043,4374.871582,4373.589844,4378.461426,4374.358887,4353.077148,4446.153809,4511.025879,4394.743652,4430.641113,,,,,,,,,,,,,,,,,,,,,,,,,,,,,,,,,,,,,,,,,,,,,,,,,,,,,,,,,,,,,,,,,,,,,,
1768973302.538924,1768973302.539444,118.0,0.0,4378.077148,4374.230957,4363.205078,4382.692383,4380.384766,4373.589844,4370.256348,4384.358887,4378.846191,4360.0,4450.256348,4518.077148,4397.05127,4430.512695,,,,,,,,,,,,,,,,,,,,,,,,,,,,,,,,,,,,,,,,,,,,,,,,,,,,,,,,,,,,,,,,,,,,,,
1768973302.546732,1768973302.547252,119.0,0.0,4375.128418,4371.282227,4361.025879,4381.410156,4379.615234,4377.179688,4376.666504,4386.025879,4381.666504,4360.641113,4450.128418,4518.333496,4396.410156,4427.94873,,,,,,,,,,,,,,,,,,,,,,,,,,,,,,,,,,,,,,,,,,,,,,,,,,,,,,,,,,,,,,,,,,,,,,
1768973302.554541,1768973302.554861,120.0,0.0,4374.102539,4366.666504,4356.025879,4381.153809,4379.358887,4375.512695,4376.410156,4377.179688,4372.692383,4356.410156,4443.589844,4503.589844,4395.0,4426.666504,,,,,,,,,,,,,,,,,,,,,,,,,,,,,,,,,,,,,,,,,,,,,,,,,,,,,,,,,,,,,,,,,,,,,,
1768973302.562349,1768973302.56267,121.0,0.0,4372.94873,4366.538574,4355.384766,4382.692383,4378.846191,4373.077148,4371.410156,4373.974121,4366.025879,4353.974121,4443.717773,4500.0,4395.0,4428.846191,,,,,,,,,,,,,,,,,,,,,,,,,,,,,,,,,,,,,,,,,,,,,,,,,,,,,,,,,,,,,,,,,,,,,,
1768973302.570157,1768973302.570578,122.0,0.0,4371.282227,4367.05127,4354.615234,4379.358887,4375.769043,4373.205078,4371.282227,4377.179688,4371.153809,4356.794922,4449.871582,4511.922852,4396.153809,4427.436035,,,,,,,,,,,,,,,,,,,,,,,,,,,,,,,,,,,,,,,,,,,,,,,,,,,,,,,,,,,,,,,,,,,,,,
1768973302.577966,1768973302.578386,123.0,0.0,4370.0,4365.769043,4351.410156,4375.641113,4376.538574,4373.333496,4370.384766,4376.282227,4373.333496,4356.794922,4446.666504,4511.025879,4394.230957,4426.794922,,,,,,,,,,,,,,,,,,,,,,,,,,,,,,,,,,,,,,,,,,,,,,,,,,,,,,,,,,,,,,,,,,,,,,
1768973302.585774,1768973302.586395,124.0,0.0,4373.974121,4371.153809,4354.487305,4381.025879,4379.102539,4377.05127,4372.563965,4376.794922,4371.922852,4353.205078,4442.05127,4499.743652,4390.512695,4428.077148,,,,,,,,,,,,,,,,,,,,,,,,,,,,,,,,,,,,,,,,,,,,,,,,,,,,,,,,,,,,,,,,,,,,,,
1768973302.593583,1768973302.594203,125.0,0.0,4373.846191,4370.0,4354.358887,4380.641113,4374.487305,4383.077148,4380.897461,4380.512695,4373.333496,4348.974121,4442.563965,4496.666504,4383.461426,4420.512695,,,,,,,,,,,,,,,,,,,,,,,,,,,,,,,,,,,,,,,,,,,,,,,,,,,,,,,,,,,,,,,,,,,,,,
1768973302.601391,1768973302.602111,126.0,0.0,4363.974121,4356.025879,4346.025879,4368.717773,4370.384766,4380.0,4377.820313,4377.692383,4370.128418,4347.563965,4438.974121,4498.589844,4379.615234,4414.743652,0.935454,0.429581,0.457883,0.153263,0.137231,1.454531,0.910806,0.570887,0.13373,0.099493,0.34419,0.104966,0.196646,0.216102,0.087959,0.363396,0.296502,0.3018,0.129444,0.077614,0.252203,0.086665,0.113643,0.070881,0.041873,0.268237,0.276295,0.094278,0.206714,0.145305,0.214126,0.263377,0.185231,0.295715,0.170691,0.288458,0.123356,0.11888,0.122782,0.170458,0.323342,0.155872,0.106836,0.158632,0.170139,0.409255,0.168039,0.118824,0.100875,0.140956,0.421933,0.239243,0.50359,0.174404,0.211369,1.165034,0.303609,0.299217,0.27834,0.151794,0.508742,0.313654,0.257943,0.181452,0.194343,1.453023,0.460056,0.406667,0.211156,0.257247
1768973302.6092,1768973302.60992,127.0,0.0,4367.563965,4358.077148,4350.897461,4372.563965,4373.461426,4373.333496,4369.358887,4380.512695,4373.077148,4353.205078,4444.102539,4505.256348,4387.94873,4430.384766,,,,,,,,,,,,,,,,,,,,,,,,,,,,,,,,,,,,,,,,,,,,,,,,,,,,,,,,,,,,,,,,,,,,,,
1768973302.617008,1768973302.617528,0.0,0.0,4382.436035,4373.205078,4365.256348,4387.692383,4374.615234,4374.230957,4375.897461,4390.641113,4382.436035,4358.846191,4459.230957,4515.0,4400.384766,4447.05127,,,,,,,,,,,,,,,,,,,,,,,,,,,,,,,,,,,,,,,,,,,,,,,,,,,,,,,,,,,,,,,,,,,,,,
1768973302.624817,1768973302.625337,1.0,0.0,4385.128418,4374.230957,4365.897461,4386.538574,4372.307617,4377.05127,4381.666504,4389.871582,4381.410156,4362.436035,4462.820313,4519.487305,4404.743652,4444.871582,,,,,,,,,,,,,,,,,,,,,,,,,,,,,,,,,,,,,,,,,,,,,,,,,,,,,,,,,,,,,,,,,,,,,,
1768973302.632625,1768973302.633045,2.0,0.0,4381.794922,4370.769043,4358.846191,4380.512695,4372.05127,4374.102539,4372.563965,4380.512695,4372.436035,4366.410156,4458.974121,4521.282227,4403.461426,4442.94873,,,,,,,,,,,,,,,,,,,,,,,,,,,,,,,,,,,,,,,,,,,,,,,,,,,,,,,,,,,,,,,,,,,,,,
1768973302.640433,1768973302.640854,3.0,0.0,4382.05127,4371.410156,4358.461426,4379.615234,4371.538574,4370.384766,4367.05127,4381.025879,4372.307617,4363.461426,4459.743652,4520.0,4401.282227,4445.128418,,,,,,,,,,,,,,,,,,,,,,,,,,,,,,,,,,,,,,,,,,,,,,,,,,,,,,,,,,,,,,,,,,,,,,
1768973302.648242,1768973302.648862,4.0,0.0,4376.794922,4369.743652,4355.897461,4375.897461,4371.538574,4369.358887,4372.307617,4387.05127,4377.692383,4354.743652,4453.205078,4512.94873,4396.794922,4435.641113,,,,,,,,,,,,,,,,,,,,,,,,,,,,,,,,,,,,,,,,,,,,,,,,,,,,,,,,,,,,,,,,,,,,,,
1768973302.65605,1768973302.656671,5.0,0.0,4371.794922,4370.0,4351.666504,4375.641113,4372.436035,4371.794922,4374.487305,4381.538574,4373.717773,4353.717773,4446.153809,4512.692383,4395.256348,4425.897461,,,,,,,,,,,,,,,,,,,,,,,,,,,,,,,,,,,,,,,,,,,,,,,,,,,,,,,,,,,,,,,,,,,,,,
1768973302.663859,1768973302.664379,6.0,0.0,4377.436035,4373.974121,4356.410156,4380.256348,4370.641113,4373.589844,4371.410156,4373.333496,4367.563965,4358.461426,4454.615234,4517.692383,4396.282227,4428.461426,,,,,,,,,,,,,,,,,,,,,,,,,,,,,,,,,,,,,,,,,,,,,,,,,,,,,,,,,,,,,,,,,,,,,,
1768973302.671667,1768973302.672188,7.0,0.0,4379.102539,4374.743652,4358.717773,4376.794922,4369.230957,4368.205078,4367.563965,4377.563965,4371.025879,4356.794922,4459.102539,4515.897461,4394.487305,4431.538574,,,,,,,,,,,,,,,,,,,,,,,,,,,,,,,,,,,,,,,,,,,,,,,,,,,,,,,,,,,,,,,,,,,,,,
1768973302.679476,1768973302.680196,8.0,0.0,4374.871582,4372.307617,4352.436035,4370.256348,4371.410156,4362.692383,4365.128418,4382.94873,4374.102539,4351.794922,4450.384766,4514.871582,4394.615234,4431.410156,,,,,,,,,,,,,,,,,,,,,,,,,,,,,,,,,,,,,,,,,,,,,,,,,,,,,,,,,,,,,,,,,,,,,,
1768973302.687284,1768973302.688004,9.0,0.0,4372.563965,4369.487305,4352.692383,4373.205078,4373.589844,4368.461426,4370.256348,4378.717773,4367.436035,4351.666504,4447.05127,4516.282227,4397.179688,4432.05127,,,,,,,,,,,,,,,,,,,,,,,,,,,,,,,,,,,,,,,,,,,,,,,,,,,,,,,,,,,,,,,,,,,,,,
1768973302.695093,1768973302.695913,10.0,0.0,4371.410156,4366.025879,4356.794922,4375.512695,4374.230957,4375.256348,4375.512695,4376.666504,4364.358887,4351.666504,4448.974121,4514.871582,4394.230957,4429.230957,,,,,,,,,,,,,,,,,,,,,,,,,,,,,,,,,,,,,,,,,,,,,,,,,,,,,,,,,,,,,,,,,,,,,,
1768973302.702901,1768973302.703721,11.0,0.0,4372.05127,4365.256348,4355.0,4371.410156,4371.538574,4370.512695,4368.589844,4378.077148,4366.153809,4343.461426,4445.0,4514.358887,4389.230957,4428.717773,,,,,,,,,,,,,,,,,,,,,,,,,,,,,,,,,,,,,,,,,,,,,,,,,,,,,,,,,,,,,,,,,,,,,,
1768973302.710709,1768973302.71133,12.0,0.0,4379.871582,4368.717773,4358.717773,4373.333496,4369.102539,4367.563965,4364.230957,4375.641113,4364.230957,4341.025879,4445.512695,4513.461426,4392.692383,4434.487305,,,,,,,,,,,,,,,,,,,,,,,,,,,,,,,,,,,,,,,,,,,,,,,,,,,,,,,,,,,,,,,,,,,,,,
1768973302.718518,1768973302.719138,13.0,0.0,4389.358887,4373.717773,4366.538574,4381.794922,4369.487305,4375.256348,4372.436035,4377.94873,4368.205078,4352.94873,4452.692383,4513.077148,4398.333496,4435.128418,,,,,,,,,,,,,,,,,,,,,,,,,,,,,,,,,,,,,,,,,,,,,,,,,,,,,,,,,,,,,,,,,,,,,,
1768973302.726326,1768973302.726847,14.0,0.0,4384.358887,4375.256348,4360.384766,4380.897461,4367.563965,4375.256348,4373.461426,4380.256348,4370.512695,4356.153809,4450.897461,4511.794922,4390.897461,4427.820313,0.734014,0.46014,0.417164,0.151725,0.153104,1.250999,1.103544,0.498161,0.141093,0.100667,0.260845,0.154991,0.191765,0.186831,0.110777,0.307954,0.351076,0.260748,0.136717,0.086587,0.281831,0.075593,0.117883,0.079678,0.041957,0.281917,0.254132,0.098954,0.195174,0.127563,0.198474,0.246217,0.197421,0.286939,0.159951,0.313568,0.1598,0.1195,0.128635,0.184243,0.322934,0.165693,0.078149,0.151188,0.172629,0.439976,0.188551,0.12174,0.135266,0.170264,0.532837,0.280066,0.493854,0.218687,0.202128,1.043849,0.326519,0.2777,0.26081,0.167052,0.508624,0.284052,0.212408,0.194412,0.171268,1.202016,0.36194,0.388041,0.251431,0.252008
1768973302.734135,1768973302.734655,15.0,0.0,4373.077148,4373.077148,4349.487305,4373.077148,4365.0,4366.410156,4366.282227,4373.333496,4361.410156,4342.05127,4442.94873,4504.871582,4380.641113,4424.487305,,,,,,,,,,,,,,,,,,,,,,,,,,,,,,,,,,,,,,,,,,,,,,,,,,,,,,,,,,,,,,,,,,,,,,
1768973302.741943,1768973302.742264,16.0,0.0,4373.589844,4372.179688,4351.025879,4373.333496,4365.384766,4363.846191,4365.0,4371.666504,4360.0,4338.333496,4443.974121,4503.333496,4381.538574,4427.94873,,,,,,,,,,,,,,,,,,,,,,,,,,,,,,,,,,,,,,,,,,,,,,,,,,,,,,,,,,,,,,,,,,,,,,
1768973302.749752,1768973302.750072,17.0,0.0,4381.922852,4371.922852,4354.487305,4378.461426,4368.846191,4366.025879,4363.846191,4377.179688,4368.846191,4345.769043,4444.487305,4507.179688,4383.205078,4428.333496,,,,,,,,,,,,,,,,,,,,,,,,,,,,,,,,,,,,,,,,,,,,,,,,,,,,,,,,,,,,,,,,,,,,,,
1768973302.75756,1768973302.757781,18.0,0.0,4382.563965,4368.974121,4349.743652,4376.153809,4369.615234,4364.358887,4358.077148,4372.179688,4364.871582,4337.436035,4437.563965,4501.153809,4378.974121,4424.358887,,,,,,,,,,,,,,,,,,,,,,,,,,,,,,,,,,,,,,,,,,,,,,,,,,,,,,,,,,,,,,,,,,,,,,
1768973302.765369,1768973302.765589,19.0,0.0,4378.077148,4366.794922,4350.384766,4373.077148,4366.666504,4366.538574,4358.205078,4364.743652,4355.256348,4332.05127,4437.179688,4496.666504,4379.230957,4424.358887,,,,,,,,,,,,,,,,,,,,,,,,,,,,,,,,,,,,,,,,,,,,,,,,,,,,,,,,,,,,,,,,,,,,,,
1768973302.773177,1768973302.773598,20.0,0.0,4379.743652,4368.974121,4356.282227,4377.692383,4369.871582,4374.487305,4366.666504,4369.487305,4359.487305,4347.179688,4444.230957,4503.333496,4385.769043,4428.717773,,,,,,,,,,,,,,,,,,,,,,,,,,,,,,,,,,,,,,,,,,,,,,,,,,,,,,,,,,,,,,,,,,,,,,
1768973302.780985,1768973302.781406,21.0,0.0,4383.461426,4372.179688,4358.205078,4381.794922,4371.794922,4376.282227,4372.05127,4375.897461,4367.563965,4358.205078,4447.05127,4513.077148,4390.384766,4433.717773,,,,,,,,,,,,,,,,,,,,,,,,,,,,,,,,,,,,,,,,,,,,,,,,,,,,,,,,,,,,,,,,,,,,,,
1768973302.788794,1768973302.789314,22.0,0.0,4383.846191,4366.794922,4360.256348,4378.717773,4365.0,4374.871582,4370.769043,4372.179688,4367.436035,4351.666504,4444.615234,4519.615234,4389.743652,4435.256348,,,,,,,,,,,,,,,,,,,,,,,,,,,,,,,,,,,,,,,,,,,,,,,,,,,,,,,,,,,,,,,,,,,,,,
1768973302.796602,1768973302.797123,23.0,0.0,4381.538574,4354.743652,4358.077148,4376.666504,4361.410156,4378.077148,4368.077148,4366.922852,4363.461426,4347.179688,4444.615234,4519.102539,4385.769043,4431.666504,,,,,,,,,,,,,,,,,,,,,,,,,,,,,,,,,,,,,,,,,,,,,,,,,,,,,,,,,,,,,,,,,,,,,,
1768973302.804411,1768973302.805131,24.0,0.0,4381.666504,4350.384766,4356.153809,4383.333496,4364.230957,4379.871582,4371.410156,4372.94873,4363.717773,4350.641113,4445.897461,4516.666504,4383.974121,4429.230957,,,,,,,,,,,,,,,,,,,,,,,,,,,,,,,,,,,,,,,,,,,,,,,,,,,,,,,,,,,,,,,,,,,,,,
1768973302.812219,1768973302.812939,25.0,0.0,4381.282227,4355.128418,4359.871582,4387.307617,4364.871582,4377.820313,4373.974121,4380.769043,4370.641113,4351.794922,4444.871582,4519.487305,4389.102539,4429.871582,,,,,,,,,,,,,,,,,,,,,,,,,,,,,,,,,,,,,,,,,,,,,,,,,,,,,,,,,,,,,,,,,,,,,,
1768973302.820028,1768973302.820648,26.0,0.0,4374.487305,4355.128418,4355.641113,4380.641113,4364.102539,4377.436035,4369.743652,4378.077148,4374.230957,4352.307617,4444.871582,4520.384766,4391.282227,4425.0,,,,,,,,,,,,,,,,,,,,,,,,,,,,,,,,,,,,,,,,,,,,,,,,,,,,,,,,,,,,,,,,,,,,,,
1768973302.827836,1768973302.828456,27.0,0.0,4367.05127,4350.256348,4346.025879,4372.05127,4365.0,4377.307617,4368.589844,4375.256348,4367.436035,4350.512695,4444.487305,4517.179688,4385.256348,4419.358887,,,,,,,,,,,,,,,,,,,,,,,,,,,,,,,,,,,,,,,,,,,,,,,,,,,,,,,,,,,,,,,,,,,,,,
1768973302.835645,1768973302.836465,28.0,0.0,4367.563965,4351.153809,4346.153809,4370.769043,4363.077148,4377.05127,4373.077148,4376.282227,4364.102539,4350.769043,4443.846191,4516.538574,4384.743652,4423.846191,,,,,,,,,,,,,,,,,,,,,,,,,,,,,,,,,,,,,,,,,,,,,,,,,,,,,,,,,,,,,,,,,,,,,,
1768973302.843453,1768973302.844273,29.0,0.0,4371.794922,4356.025879,4352.692383,4375.128418,4360.384766,4379.358887,4375.641113,4379.230957,4372.692383,4354.487305,4450.897461,4518.461426,4390.769043,4428.205078,,,,,,,,,,,,,,,,,,,,,,,,,,,,,,,,,,,,,,,,,,,,,,,,,,,,,,,,,,,,,,,,,,,,,,
1768973302.851262,1768973302.852181,30.0,0.0,4374.615234,4358.333496,4354.871582,4376.922852,4360.769043,4377.94873,4369.615234,4381.153809,4376.922852,4352.692383,4456.153809,4520.256348,4389.615234,4426.282227,0.560941,0.464186,0.367391,0.147864,0.16988,1.01995,1.227919,0.43528,0.151228,0.104402,0.179491,0.208197,0.173736,0.149831,0.131384,0.276182,0.392924,0.221957,0.142577,0.094786,0.291795,0.069882,0.112811,0.08607,0.042416,0.282847,0.222216,0.099633,0.178344,0.118406,0.182281,0.231092,0.197542,0.263449,0.15512,0.323759,0.203414,0.122957,0.134492,0.202286,0.321617,0.172624,0.056599,0.143481,0.180262,0.463683,0.206758,0.124256,0.175457,0.20264,0.615356,0.322338,0.456544,0.254919,0.195823,0.926937,0.331824,0.239341,0.231675,0.183339,0.503072,0.254328,0.173905,0.202553,0.147607,0.919295,0.271754,0.355711,0.277438,0.235174
1768973302.85907,1768973302.85999,31.0,0.0,4374.102539,4356.153809,4351.538574,4373.205078,4363.589844,4371.666504,4361.794922,4375.128418,4370.897461,4350.256348,4449.358887,4519.102539,4385.384766,4426.153809,,,,,,,,,,,,,,,,,,,,,,,,,,,,,,,,,,,,,,,,,,,,,,,,,,,,,,,,,,,,,,,,,,,,,,
1768973302.866878,1768973302.867599,32.0,0.0,4371.410156,4356.666504,4345.897461,4370.641113,4367.307617,4370.0,4366.025879,4371.666504,4369.615234,4353.461426,4448.205078,4517.05127,4387.563965,4426.666504,,,,,,,,,,,,,,,,,,,,,,,,,,,,,,,,,,,,,,,,,,,,,,,,,,,,,,,,,,,,,,,,,,,,,,
1768973302.874687,1768973302.875407,33.0,0.0,4372.563965,4365.0,4346.153809,4376.153809,4370.769043,4378.461426,4376.153809,4377.179688,4372.692383,4360.512695,4459.102539,4519.615234,4394.358887,4427.179688,,,,,,,,,,,,,,,,,,,,,,,,,,,,,,,,,,,,,,,,,,,,,,,,,,,,,,,,,,,,,,,,,,,,,,
1768973302.882495,1768973302.883116,34.0,0.0,4378.205078,4366.538574,4354.102539,4381.282227,4372.820313,4382.820313,4376.538574,4378.717773,4373.461426,4354.230957,4462.179688,4525.641113,4398.461426,4433.461426,,,,,,,,,,,,,,,,,,,,,,,,,,,,,,,,,,,,,,,,,,,,,,,,,,,,,,,,,,,,,,,,,,,,,,
1768973302.890304,1768973302.890924,35.0,0.0,4381.794922,4358.589844,4355.769043,4375.897461,4368.205078,4375.512695,4370.0,4372.692383,4372.436035,4342.692383,4457.563965,4526.922852,4398.205078,4440.256348,,,,,,,,,,,,,,,,,,,,,,,,,,,,,,,,,,,,,,,,,,,,,,,,,,,,,,,,,,,,,,,,,,,,,,
1768973302.898112,1768973302.898932,36.0,0.0,4380.0,4359.615234,4350.512695,4370.769043,4365.256348,4372.820313,4367.820313,4370.0,4370.128418,4349.102539,4456.922852,4523.461426,4397.94873,4442.05127,,,,,,,,,,,,,,,,,,,,,,,,,,,,,,,,,,,,,,,,,,,,,,,,,,,,,,,,,,,,,,,,,,,,,,
1768973302.905921,1768973302.906741,37.0,0.0,4380.897461,4370.0,4351.410156,4376.410156,4373.333496,4378.077148,4373.333496,4371.025879,4369.743652,4360.512695,4458.333496,4522.307617,4398.333496,4443.974121,,,,,,,,,,,,,,,,,,,,,,,,,,,,,,,,,,,,,,,,,,,,,,,,,,,,,,,,,,,,,,,,,,,,,,
1768973302.913729,1768973302.914449,38.0,0.0,4381.666504,4373.461426,4356.794922,4381.794922,4377.307617,4379.743652,4379.230957,4369.871582,4372.05127,4356.538574,4454.358887,4522.820313,4397.179688,4439.871582,,,,,,,,,,,,,,,,,,,,,,,,,,,,,,,,,,,,,,,,,,,,,,,,,,,,,,,,,,,,,,,,,,,,,,
1768973302.921538,1768973302.922258,39.0,0.0,4376.666504,4369.102539,4357.820313,4379.743652,4371.538574,4377.436035,4374.743652,4369.487305,4371.922852,4350.256348,4449.615234,4521.025879,4395.769043,4428.846191,,,,,,,,,,,,,,,,,,,,,,,,,,,,,,,,,,,,,,,,,,,,,,,,,,,,,,,,,,,,,,,,,,,,,,
1768973302.929346,1768973302.929866,40.0,0.0,4375.641113,4366.666504,4354.615234,4379.230957,4368.717773,4374.615234,4369.743652,4375.256348,4371.794922,4354.230957,4453.077148,4521.410156,4397.820313,4431.538574,,,,,,,,,,,,,,,,,,,,,,,,,,,,,,,,,,,,,,,,,,,,,,,,,,,,,,,,,,,,,,,,,,,,,,
1768973302.937154,1768973302.937675,41.0,0.0,4380.128418,4367.436035,4355.0,4380.512695,4371.666504,4371.410156,4373.205078,4380.769043,4374.358887,4356.666504,4461.025879,4528.974121,4400.128418,4441.794922,,,,,,,,,,,,,,,,,,,,,,,,,,,,,,,,,,,,,,,,,,,,,,,,,,,,,,,,,,,,,,,,,,,,,,
1768973302.944963,1768973302.945383,42.0,0.0,4383.333496,4368.589844,4358.205078,4382.179688,4373.333496,4372.05127,4373.717773,4375.769043,4372.307617,4355.897461,4459.615234,4531.153809,4399.230957,4437.94873,,,,,,,,,,,,,,,,,,,,,,,,,,,,,,,,,,,,,,,,,,,,,,,,,,,,,,,,,,,,,,,,,,,,,,
1768973302.952771,1768973302.953192,43.0,0.0,4375.897461,4368.205078,4356.666504,4383.205078,4372.94873,4376.025879,4371.538574,4372.94873,4371.025879,4357.05127,4452.179688,4522.563965,4397.179688,4427.179688,,,,,,,,,,,,,,,,,,,,,,,,,,,,,,,,,,,,,,,,,,,,,,,,,,,,,,,,,,,,,,,,,,,,,,
1768973302.96058,1768973302.9608,44.0,0.0,4361.922852,4362.179688,4348.077148,4377.179688,4371.922852,4376.922852,4372.820313,4373.461426,4372.563965,4353.077148,4446.666504,4513.333496,4395.256348,4420.897461,,,,,,,,,,,,,,,,,,,,,,,,,,,,,,,,,,,,,,,,,,,,,,,,,,,,,,,,,,,,,,,,,,,,,,
1768973302.968388,1768973302.968609,45.0,0.0,4362.307617,4358.461426,4343.589844,4370.897461,4371.666504,4376.025879,4372.563965,4365.897461,4366.025879,4347.436035,4443.461426,4506.794922,4390.0,4414.102539,,,,,,,,,,,,,,,,,,,,,,,,,,,,,,,,,,,,,,,,,,,,,,,,,,,,,,,,,,,,,,,,,,,,,,
1768973302.976197,1768973302.976517,46.0,0.0,4376.025879,4365.769043,4351.538574,4377.563965,4373.974121,4375.897461,4371.153809,4364.615234,4364.230957,4347.307617,4443.974121,4505.769043,4384.871582,4412.179688,0.458348,0.451208,0.323971,0.142176,0.181624,0.811839,1.227813,0.404078,0.160987,0.10798,0.126965,0.258733,0.147702,0.117131,0.144268,0.268009,0.404261,0.189577,0.144581,0.101184,0.282908,0.069913,0.099132,0.085815,0.041959,0.264951,0.19625,0.096811,0.160413,0.116391,0.167587,0.219493,0.183307,0.233617,0.155241,0.318897,0.243725,0.126769,0.13641,0.220644,0.319494,0.176943,0.046126,0.13391,0.189397,0.476985,0.220828,0.125776,0.213037,0.230881,0.656818,0.357132,0.394221,0.27104,0.192279,0.848172,0.326751,0.192151,0.198879,0.197443,0.487448,0.232977,0.148291,0.202676,0.128112,0.671704,0.226536,0.315061,0.281094,0.21166
1768973302.984005,1768973302.984326,47.0,0.0,4380.0,4374.230957,4357.563965,4384.102539,4376.538574,4379.102539,4374.230957,4372.563965,4371.538574,4348.846191,4445.769043,4509.743652,4389.615234,4420.641113,,,,,,,,,,,,,,,,,,,,,,,,,,,,,,,,,,,,,,,,,,,,,,,,,,,,,,,,,,,,,,,,,,,,,,
1768973302.991813,1768973302.992334,48.0,0.0,4377.05127,4373.974121,4358.333496,4380.384766,4377.05127,4380.128418,4374.743652,4376.666504,4369.230957,4347.179688,4444.487305,4513.589844,4395.897461,4427.05127,,,,,,,,,,,,,,,,,,,,,,,,,,,,,,,,,,,,,,,,,,,,,,,,,,,,,,,,,,,,,,,,,,,,,,
1768973302.999622,1768973303.000142,49.0,0.0,4382.436035,4372.436035,4360.0,4382.820313,4379.358887,4377.307617,4373.333496,4375.769043,4366.282227,4347.692383,4443.974121,4515.641113,4391.666504,4427.692383,,,,,,,,,,,,,,,,,,,,,,,,,,,,,,,,,,,,,,,,,,,,,,,,,,,,,,,,,,,,,,,,,,,,,,
1768973303.00743,1768973303.008051,50.0,0.0,4383.717773,4374.871582,4360.0,4390.769043,4384.102539,4384.743652,4380.769043,4376.410156,4373.333496,4352.307617,4444.102539,4519.871582,4385.128418,4426.282227,,,,,,,,,,,,,,,,,,,,,,,,,,,,,,,,,,,,,,,,,,,,,,,,,,,,,,,,,,,,,,,,,,,,,,
1768973303.015239,1768973303.015859,51.0,0.0,4380.897461,4375.897461,4358.589844,4389.871582,4383.846191,4390.769043,4385.128418,4377.436035,4375.128418,4350.0,4444.358887,4526.410156,4386.410156,4426.282227,,,,,,,,,,,,,,,,,,,,,,,,,,,,,,,,,,,,,,,,,,,,,,,,,,,,,,,,,,,,,,,,,,,,,,
1768973303.023047,1768973303.023468,52.0,0.0,4385.897461,4378.589844,4359.487305,4385.641113,4381.025879,4380.256348,4373.589844,4376.153809,4371.794922,4346.666504,4449.358887,4530.641113,4392.692383,4428.333496,,,,,,,,,,,,,,,,,,,,,,,,,,,,,,,,,,,,,,,,,,,,,,,,,,,,,,,,,,,,,,,,,,,,,,
1768973303.030856,1768973303.031276,53.0,0.0,4390.769043,4382.820313,4362.307617,4390.256348,4383.205078,4376.025879,4369.102539,4375.512695,4375.641113,4355.0,4453.846191,4533.589844,4397.563965,4429.487305,,,,,,,,,,,,,,,,,,,,,,,,,,,,,,,,,,,,,,,,,,,,,,,,,,,,,,,,,,,,,,,,,,,,,,
1768973303.038664,1768973303.039185,54.0,0.0,4389.871582,4382.307617,4363.717773,4394.102539,4383.205078,4381.922852,4379.743652,4376.794922,4376.666504,4360.0,4451.922852,4536.025879,4398.077148,4429.743652,,,,,,,,,,,,,,,,,,,,,,,,,,,,,,,,,,,,,,,,,,,,,,,,,,,,,,,,,,,,,,,,,,,,,,
1768973303.046472,1768973303.046993,55.0,0.0,4384.487305,4379.615234,4364.230957,4388.461426,4375.384766,4378.461426,4379.615234,4375.897461,4369.102539,4351.666504,4448.717773,4537.05127,4392.94873,4428.846191,,,,,,,,,,,,,,,,,,,,,,,,,,,,,,,,,,,,,,,,,,,,,,,,,,,,,,,,,,,,,,,,,,,,,,
1768973303.054281,1768973303.055001,56.0,0.0,4382.05127,4381.282227,4363.589844,4385.384766,4375.128418,4374.487305,4373.846191,4372.94873,4365.384766,4346.538574,4448.077148,4535.512695,4387.307617,4428.461426,,,,,,,,,,,,,,,,,,,,,,,,,,,,,,,,,,,,,,,,,,,,,,,,,,,,,,,,,,,,,,,,,,,,,,
1768973303.062089,1768973303.06281,57.0,0.0,4386.153809,4384.230957,4362.307617,4387.563965,4381.282227,4379.230957,4380.0,4375.769043,4369.358887,4351.282227,4452.820313,4532.563965,4390.0,4428.974121,,,,,,,,,,,,,,,,,,,,,,,,,,,,,,,,,,,,,,,,,,,,,,,,,,,,,,,,,,,,,,,,,,,,,,
1768973303.069898,1768973303.070518,58.0,0.0,4388.205078,4381.794922,4359.487305,4386.282227,4376.794922,4379.615234,4383.077148,4379.615234,4371.282227,4350.769043,4457.563965,4529.615234,4396.410156,4429.102539,,,,,,,,,,,,,,,,,,,,,,,,,,,,,,,,,,,,,,,,,,,,,,,,,,,,,,,,,,,,,,,,,,,,,,
1768973303.077706,1768973303.078327,59.0,0.0,4386.025879,4381.282227,4358.589844,4383.589844,4372.563965,4379.358887,4380.769043,4377.94873,4369.230957,4349.102539,4457.307617,4527.179688,4398.846191,4430.769043,,,,,,,,,,,,,,,,,,,,,,,,,,,,,,,,,,,,,,,,,,,,,,,,,,,,,,,,,,,,,,,,,,,,,,
1768973303.085515,1768973303.085935,60.0,0.0,4385.769043,4381.410156,4360.128418,4384.743652,4377.94873,4386.922852,4386.410156,4382.179688,4373.589844,4355.769043,4459.230957,4527.563965,4395.641113,4433.461426,,,,,,,,,,,,,,,,,,,,,,,,,,,,,,,,,,,,,,,,,,,,,,,,,,,,,,,,,,,,,,,,,,,,,,
1768973303.093323,1768973303.093744,61.0,0.0,4382.94873,4378.717773,4355.641113,4385.0,4377.436035,4385.128418,4384.230957,4381.922852,4377.563965,4354.615234,4457.179688,4526.025879,4391.538574,4431.538574,,,,,,,,,,,,,,,,,,,,,,,,,,,,,,,,,,,,,,,,,,,,,,,,,,,,,,,,,,,,,,,,,,,,,,
1768973303.101132,1768973303.101652,62.0,0.0,4374.358887,4377.692383,4350.641113,4382.820313,4370.128418,4372.563965,4370.641113,4371.922852,4372.692383,4341.666504,4446.538574,4519.102539,4386.794922,4425.897461,0.43822,0.436714,0.295494,0.13867,0.183942,0.692708,1.100836,0.403348,0.168962,0.109353,0.109991,0.303685,0.12246,0.097225,0.147284,0.277493,0.380423,0.162197,0.141192,0.106305,0.261146,0.075856,0.080619,0.078324,0.039928,0.229838,0.189001,0.092418,0.144874,0.118347,0.15287,0.212136,0.156312,0.20565,0.159007,0.304336,0.276365,0.127532,0.131173,0.234786,0.31859,0.180311,0.04452,0.121588,0.196596,0.481111,0.230937,0.127234,0.241408,0.24922,0.65628,0.375858,0.314921,0.264067,0.187925,0.840118,0.326586,0.148012,0.171654,0.205317,0.460813,0.226692,0.138522,0.195808,0.114208,0.507507,0.246685,0.277325,0.265393,0.186635
1768973303.10894,1768973303.109461,63.0,0.0,4370.769043,4376.025879,4350.897461,4380.897461,4370.897461,4370.897461,4372.179688,4374.743652,4372.563965,4342.692383,4448.717773,4515.641113,4383.717773,4422.692383,,,,,,,,,,,,,,,,,,,,,,,,,,,,,,,,,,,,,,,,,,,,,,,,,,,,,,,,,,,,,,,,,,,,,,
1768973303.116748,1768973303.117469,64.0,0.0,4375.897461,4375.769043,4352.436035,4380.256348,4377.563965,4379.871582,4384.615234,4384.230957,4377.179688,4356.666504,4458.717773,4516.794922,4383.333496,4422.820313,,,,,,,,,,,,,,,,,,,,,,,,,,,,,,,,,,,,,,,,,,,,,,,,,,,,,,,,,,,,,,,,,,,,,,
1768973303.124557,1768973303.125277,65.0,0.0,4381.794922,4379.102539,4354.358887,4384.230957,4378.077148,4379.487305,4380.641113,4376.666504,4371.282227,4353.974121,4451.538574,4514.487305,4383.205078,4423.205078,,,,,,,,,,,,,,,,,,,,,,,,,,,,,,,,,,,,,,,,,,,,,,,,,,,,,,,,,,,,,,,,,,,,,,
1768973303.132365,1768973303.132986,66.0,0.0,4381.410156,4376.025879,4356.282227,4388.717773,4375.769043,4374.102539,4371.282227,4372.820313,4369.743652,4344.743652,4439.871582,4509.230957,4382.436035,4420.897461,,,,,,,,,,,,,,,,,,,,,,,,,,,,,,,,,,,,,,,,,,,,,,,,,,,,,,,,,,,,,,,,,,,,,,
1768973303.140174,1768973303.140794,67.0,0.0,4379.358887,4369.230957,4357.563965,4388.205078,4375.0,4378.717773,4377.05127,4381.666504,4376.282227,4349.871582,4443.461426,4502.307617,4380.128418,4418.974121,,,,,,,,,,,,,,,,,,,,,,,,,,,,,,,,,,,,,,,,,,,,,,,,,,,,,,,,,,,,,,,,,,,,,,
1768973303.147982,1768973303.148403,68.0,0.0,4385.384766,4374.358887,4361.666504,4389.102539,4376.025879,4381.153809,4381.282227,4375.256348,4370.256348,4354.358887,4453.846191,4502.05127,4384.358887,4423.717773,,,,,,,,,,,,,,,,,,,,,,,,,,,,,,,,,,,,,,,,,,,,,,,,,,,,,,,,,,,,,,,,,,,,,,
1768973303.155791,1768973303.156211,69.0,0.0,4390.384766,4383.461426,4366.153809,4392.179688,4379.487305,4373.846191,4374.615234,4366.922852,4364.615234,4355.0,4459.487305,4511.922852,4395.0,4430.256348,,,,,,,,,,,,,,,,,,,,,,,,,,,,,,,,,,,,,,,,,,,,,,,,,,,,,,,,,,,,,,,,,,,,,,
1768973303.163599,1768973303.16392,70.0,0.0,4388.205078,4386.025879,4363.974121,4391.666504,4381.282227,4371.410156,4371.410156,4375.256348,4371.153809,4361.153809,4460.641113,4515.384766,4399.358887,4430.897461,,,,,,,,,,,,,,,,,,,,,,,,,,,,,,,,,,,,,,,,,,,,,,,,,,,,,,,,,,,,,,,,,,,,,,
1768973303.171408,1768973303.171728,71.0,0.0,4385.128418,4387.05127,4358.333496,4390.0,4378.205078,4376.153809,4372.94873,4381.538574,4374.743652,4362.692383,4460.256348,4511.025879,4397.820313,4430.512695,,,,,,,,,,,,,,,,,,,,,,,,,,,,,,,,,,,,,,,,,,,,,,,,,,,,,,,,,,,,,,,,,,,,,,
1768973303.179216,1768973303.179737,72.0,0.0,4382.05127,4383.077148,4352.692383,4387.436035,4377.307617,4380.897461,4377.436035,4378.846191,4370.256348,4356.153809,4456.282227,4510.897461,4392.563965,4426.538574,,,,,,,,,,,,,,,,,,,,,,,,,,,,,,,,,,,,,,,,,,,,,,,,,,,,,,,,,,,,,,,,,,,,,,
1768973303.187024,1768973303.187545,73.0,0.0,4379.230957,4378.205078,4353.333496,4382.05127,4380.897461,4381.666504,4385.256348,4378.461426,4368.717773,4353.589844,4452.563965,4513.846191,4388.717773,4420.128418,,,,,,,,,,,,,,,,,,,,,,,,,,,,,,,,,,,,,,,,,,,,,,,,,,,,,,,,,,,,,,,,,,,,,,
1768973303.194833,1768973303.195453,74.0,0.0,4378.589844,4380.384766,4358.974121,4382.05127,4382.179688,4380.897461,4383.846191,4378.205078,4370.641113,4356.922852,4455.897461,4516.153809,4392.05127,4422.436035,,,,,,,,,,,,,,,,,,,,,,,,,,,,,,,,,,,,,,,,,,,,,,,,,,,,,,,,,,,,,,,,,,,,,,
1768973303.202641,1768973303.203262,75.0,0.0,4380.256348,4381.153809,4359.230957,4386.410156,4379.743652,4380.512695,4377.436035,4375.256348,4371.282227,4356.666504,4458.717773,4517.05127,4396.538574,4428.717773,,,,,,,,,,,,,,,,,,,,,,,,,,,,,,,,,,,,,,,,,,,,,,,,,,,,,,,,,,,,,,,,,,,,,,
1768973303.21045,1768973303.21127,76.0,0.0,4383.717773,4378.589844,4360.0,4387.179688,4379.230957,4378.461426,4378.461426,4378.077148,4372.436035,4353.205078,4460.0,4517.05127,4397.692383,4429.871582,,,,,,,,,,,,,,,,,,,,,,,,,,,,,,,,,,,,,,,,,,,,,,,,,,,,,,,,,,,,,,,,,,,,,,
1768973303.218258,1768973303.219079,77.0,0.0,4388.717773,4381.922852,4362.563965,4385.384766,4379.487305,4375.256348,4378.589844,4380.769043,4372.05127,4352.563965,4458.846191,4513.461426,4395.512695,4424.358887,,,,,,,,,,,,,,,,,,,,,,,,,,,,,,,,,,,,,,,,,,,,,,,,,,,,,,,,,,,,,,,,,,,,,,
1768973303.226067,1768973303.226787,78.0,0.0,4388.846191,4388.461426,4362.436035,4385.384766,4379.230957,4376.282227,4373.717773,4379.615234,4369.487305,4353.717773,4449.615234,4510.256348,4390.512695,4419.487305,0.482784,0.434133,0.282002,0.143021,0.176209,0.6676,0.892918,0.414634,0.176262,0.108676,0.123467,0.343011,0.107874,0.092596,0.14219,0.293878,0.333155,0.139053,0.13313,0.111753,0.238617,0.089014,0.06334,0.067267,0.036927,0.187837,0.204504,0.089432,0.133131,0.121022,0.139748,0.208879,0.122051,0.18296,0.164675,0.289482,0.299928,0.12331,0.118485,0.240766,0.318103,0.183197,0.046754,0.106807,0.199876,0.482146,0.238801,0.131663,0.258596,0.255605,0.640584,0.372496,0.235276,0.242749,0.17882,0.905048,0.345707,0.12171,0.156918,0.203495,0.431821,0.237248,0.145595,0.187434,0.104785,0.450605,0.325792,0.254826,0.244725,0.164051
1768973303.233875,1768973303.234596,79.0,0.0,4388.077148,4391.282227,4363.205078,4382.692383,4378.077148,4380.256348,4374.487305,4377.563965,4368.333496,4353.205078,4447.692383,4512.05127,4391.410156,4419.615234,,,,,,,,,,,,,,,,,,,,,,,,,,,,,,,,,,,,,,,,,,,,,,,,,,,,,,,,,,,,,,,,,,,,,,
1768973303.241684,1768973303.242604,80.0,0.0,4386.922852,4386.153809,4363.461426,4378.717773,4377.307617,4378.974121,4379.358887,4380.512695,4373.333496,4355.256348,4460.0,4517.05127,4396.922852,4420.512695,,,,,,,,,,,,,,,,,,,,,,,,,,,,,,,,,,,,,,,,,,,,,,,,,,,,,,,,,,,,,,,,,,,,,,
1768973303.249492,1768973303.250412,81.0,0.0,4377.692383,4377.179688,4356.153809,4373.333496,4376.666504,4376.922852,4384.102539,4383.589844,4373.205078,4356.538574,4458.461426,4517.820313,4393.974121,4415.256348,,,,,,,,,,,,,,,,,,,,,,,,,,,,,,,,,,,,,,,,,,,,,,,,,,,,,,,,,,,,,,,,,,,,,,
1768973303.257301,1768973303.258121,82.0,0.0,4372.307617,4373.974121,4348.333496,4369.358887,4372.563965,4378.589844,4385.256348,4382.05127,4368.846191,4352.563965,4447.94873,4515.512695,4387.820313,4411.025879,,,,,,,,,,,,,,,,,,,,,,,,,,,,,,,,,,,,,,,,,,,,,,,,,,,,,,,,,,,,,,,,,,,,,,
1768973303.265109,1768973303.265929,83.0,0.0,4381.282227,4383.846191,4353.333496,4373.846191,4372.436035,4378.333496,4380.512695,4391.153809,4380.512695,4358.205078,4458.589844,4524.615234,4394.871582,4421.025879,,,,,,,,,,,,,,,,,,,,,,,,,,,,,,,,,,,,,,,,,,,,,,,,,,,,,,,,,,,,,,,,,,,,,,
1768973303.272917,1768973303.273538,84.0,0.0,4390.897461,4396.666504,4365.0,4383.077148,4377.436035,4378.589844,4382.05127,4400.256348,4391.666504,4370.512695,4478.077148,4537.307617,4411.666504,4433.333496,,,,,,,,,,,,,,,,,,,,,,,,,,,,,,,,,,,,,,,,,,,,,,,,,,,,,,,,,,,,,,,,,,,,,,
1768973303.280726,1768973303.281346,85.0,0.0,4391.025879,4393.333496,4366.538574,4384.743652,4377.94873,4383.205078,4390.128418,4394.102539,4384.743652,4368.717773,4476.666504,4537.179688,4414.871582,4436.153809,,,,,,,,,,,,,,,,,,,,,,,,,,,,,,,,,,,,,,,,,,,,,,,,,,,,,,,,,,,,,,,,,,,,,,
1768973303.288534,1768973303.289055,86.0,0.0,4387.05127,4376.922852,4359.487305,4373.974121,4373.333496,4381.922852,4384.230957,4384.743652,4375.128418,4360.512695,4461.538574,4528.077148,4398.589844,4430.512695,,,,,,,,,,,,,,,,,,,,,,,,,,,,,,,,,,,,,,,,,,,,,,,,,,,,,,,,,,,,,,,,,,,,,,
1768973303.296343,1768973303.296863,87.0,0.0,4383.846191,4372.05127,4356.538574,4368.974121,4370.384766,4371.410156,4370.512695,4380.769043,4371.922852,4358.333496,4456.666504,4520.897461,4388.205078,4421.538574,,,,,,,,,,,,,,,,,,,,,,,,,,,,,,,,,,,,,,,,,,,,,,,,,,,,,,,,,,,,,,,,,,,,,,
1768973303.304151,1768973303.304872,88.0,0.0,4382.820313,4380.256348,4359.871582,4376.282227,4373.846191,4370.769043,4373.077148,4379.615234,4371.538574,4358.205078,4460.641113,4520.384766,4396.666504,4419.871582,,,,,,,,,,,,,,,,,,,,,,,,,,,,,,,,,,,,,,,,,,,,,,,,,,,,,,,,,,,,,,,,,,,,,,
1768973303.31196,1768973303.31268,89.0,0.0,4382.820313,4381.153809,4359.230957,4375.769043,4375.641113,4375.256348,4380.0,4379.871582,4372.179688,4356.666504,4456.666504,4518.461426,4398.846191,4420.641113,,,,,,,,,,,,,,,,,,,,,,,,,,,,,,,,,,,,,,,,,,,,,,,,,,,,,,,,,,,,,,,,,,,,,,
1768973303.319768,1768973303.320588,90.0,0.0,4381.410156,4378.589844,4357.05127,4370.384766,4373.077148,4370.256348,4372.436035,4379.230957,4370.897461,4356.922852,4450.641113,4516.794922,4389.615234,4419.743652,,,,,,,,,,,,,,,,,,,,,,,,,,,,,,,,,,,,,,,,,,,,,,,,,,,,,,,,,,,,,,,,,,,,,,
1768973303.327577,1768973303.328397,91.0,0.0,4380.769043,4381.666504,4357.692383,4373.461426,4371.025879,4368.717773,4369.615234,4377.563965,4369.358887,4348.589844,4449.358887,4517.563965,4387.307617,4421.794922,,,,,,,,,,,,,,,,,,,,,,,,,,,,,,,,,,,,,,,,,,,,,,,,,,,,,,,,,,,,,,,,,,,,,,
1768973303.335385,1768973303.336005,92.0,0.0,4381.922852,4382.436035,4354.743652,4376.153809,4371.922852,4373.589844,4376.410156,4378.333496,4370.0,4338.717773,4448.077148,4517.307617,4387.692383,4422.94873,,,,,,,,,,,,,,,,,,,,,,,,,,,,,,,,,,,,,,,,,,,,,,,,,,,,,,,,,,,,,,,,,,,,,,
1768973303.343193,1768973303.343814,93.0,0.0,4381.538574,4381.922852,4352.563965,4374.615234,4372.563965,4373.077148,4374.615234,4377.820313,4367.436035,4344.487305,4450.897461,4514.358887,4387.692383,4419.230957,,,,,,,,,,,,,,,,,,,,,,,,,,,,,,,,,,,,,,,,,,,,,,,,,,,,,,,,,,,,,,,,,,,,,,
1768973303.351002,1768973303.351522,94.0,0.0,4379.743652,4381.538574,4356.666504,4378.461426,4372.692383,4373.461426,4371.153809,4375.384766,4364.102539,4353.461426,4454.102539,4513.077148,4391.794922,4416.794922,0.564268,0.448806,0.278626,0.160109,0.161334,0.723606,0.667951,0.416856,0.184235,0.107192,0.154611,0.377605,0.10932,0.099843,0.132817,0.308298,0.28385,0.122504,0.122428,0.11871,0.227732,0.108483,0.052063,0.057309,0.034631,0.155171,0.236726,0.088545,0.124764,0.122679,0.129192,0.209433,0.088316,0.165009,0.170713,0.278898,0.313782,0.116981,0.101797,0.236236,0.314362,0.185402,0.050606,0.091181,0.198322,0.480749,0.246272,0.141087,0.266073,0.251704,0.64419,0.346216,0.17576,0.222241,0.163821,1.068745,0.395819,0.12751,0.156959,0.190458,0.416987,0.262959,0.167992,0.183943,0.098147,0.501774,0.433401,0.255417,0.235295,0.14545
1768973303.35881,1768973303.359331,95.0,0.0,4379.230957,4380.256348,4360.769043,4382.05127,4374.871582,4377.307617,4375.384766,4374.102539,4365.0,4353.589844,4452.307617,4515.0,4396.282227,4416.538574,,,,,,,,,,,,,,,,,,,,,,,,,,,,,,,,,,,,,,,,,,,,,,,,,,,,,,,,,,,,,,,,,,,,,,
1768973303.366619,1768973303.367339,96.0,0.0,4380.0,4381.922852,4357.436035,4381.153809,4375.641113,4375.769043,4374.743652,4375.512695,4367.05127,4354.615234,4455.641113,4517.820313,4395.769043,4417.563965,,,,,,,,,,,,,,,,,,,,,,,,,,,,,,,,,,,,,,,,,,,,,,,,,,,,,,,,,,,,,,,,,,,,,,
1768973303.374427,1768973303.375148,97.0,0.0,4381.410156,4381.666504,4353.205078,4380.384766,4374.615234,4376.282227,4371.282227,4379.743652,4369.358887,4357.179688,4459.487305,4518.717773,4394.487305,4425.256348,,,,,,,,,,,,,,,,,,,,,,,,,,,,,,,,,,,,,,,,,,,,,,,,,,,,,,,,,,,,,,,,,,,,,,
1768973303.382236,1768973303.383056,98.0,0.0,4383.974121,4378.846191,4355.384766,4381.153809,4373.974121,4380.256348,4372.563965,4379.743652,4368.846191,4356.666504,4454.871582,4516.282227,4396.538574,4429.358887,,,,,,,,,,,,,,,,,,,,,,,,,,,,,,,,,,,,,,,,,,,,,,,,,,,,,,,,,,,,,,,,,,,,,,
1768973303.390044,1768973303.390864,99.0,0.0,4385.256348,4381.666504,4358.205078,4385.512695,4372.05127,4375.0,4371.922852,4376.153809,4366.025879,4356.794922,4452.820313,4517.05127,4393.846191,4425.641113,,,,,,,,,,,,,,,,,,,,,,,,,,,,,,,,,,,,,,,,,,,,,,,,,,,,,,,,,,,,,,,,,,,,,,
1768973303.397853,1768973303.398873,100.0,0.0,4386.922852,4384.102539,4359.615234,4389.102539,4370.256348,4371.410156,4371.025879,4376.794922,4368.205078,4356.538574,4458.461426,4520.384766,4388.589844,4425.641113,,,,,,,,,,,,,,,,,,,,,,,,,,,,,,,,,,,,,,,,,,,,,,,,,,,,,,,,,,,,,,,,,,,,,,
1768973303.405661,1768973303.406681,101.0,0.0,4388.077148,4377.94873,4358.205078,4385.512695,4371.794922,4375.384766,4373.077148,4380.384766,4370.897461,4354.615234,4460.0,4522.820313,4389.230957,4427.563965,,,,,,,,,,,,,,,,,,,,,,,,,,,,,,,,,,,,,,,,,,,,,,,,,,,,,,,,,,,,,,,,,,,,,,
1768973303.413469,1768973303.414589,102.0,0.0,4383.974121,4376.025879,4355.512695,4381.025879,4374.102539,4372.820313,4368.974121,4378.846191,4366.025879,4355.0,4454.102539,4521.794922,4389.358887,4426.025879,,,,,,,,,,,,,,,,,,,,,,,,,,,,,,,,,,,,,,,,,,,,,,,,,,,,,,,,,,,,,,,,,,,,,,
1768973303.421278,1768973303.422398,103.0,0.0,4378.974121,4379.358887,4355.897461,4380.641113,4371.153809,4367.436035,4363.974121,4378.077148,4362.563965,4355.128418,4451.666504,4517.692383,4385.256348,4421.666504,,,,,,,,,,,,,,,,,,,,,,,,,,,,,,,,,,,,,,,,,,,,,,,,,,,,,,,,,,,,,,,,,,,,,,
1768973303.429086,1768973303.430007,104.0,0.0,4378.974121,4376.922852,4355.256348,4380.512695,4368.077148,4369.743652,4367.820313,4380.769043,4363.974121,4354.743652,4456.282227,4516.794922,4388.333496,4419.871582,,,,,,,,,,,,,,,,,,,,,,,,,,,,,,,,,,,,,,,,,,,,,,,,,,,,,,,,,,,,,,,,,,,,,,
1768973303.436895,1768973303.437815,105.0,0.0,4380.641113,4373.717773,4351.153809,4379.230957,4371.282227,4377.563965,4372.692383,4381.410156,4365.128418,4358.974121,4460.641113,4518.589844,4398.205078,4426.153809,,,,,,,,,,,,,,,,,,,,,,,,,,,,,,,,,,,,,,,,,,,,,,,,,,,,,,,,,,,,,,,,,,,,,,
1768973303.444703,1768973303.445524,106.0,0.0,4379.615234,4375.256348,4353.077148,4378.974121,4375.769043,4384.871582,4376.922852,4383.717773,4370.384766,4361.922852,4460.128418,4521.666504,4397.436035,4430.128418,,,,,,,,,,,,,,,,,,,,,,,,,,,,,,,,,,,,,,,,,,,,,,,,,,,,,,,,,,,,,,,,,,,,,,
1768973303.452512,1768973303.453332,107.0,0.0,4379.230957,4375.384766,4358.846191,4380.769043,4376.153809,4386.538574,4382.692383,4388.717773,4376.025879,4359.358887,4458.974121,4523.461426,4392.179688,4426.153809,,,,,,,,,,,,,,,,,,,,,,,,,,,,,,,,,,,,,,,,,,,,,,,,,,,,,,,,,,,,,,,,,,,,,,
1768973303.46032,1768973303.460941,108.0,0.0,4380.384766,4371.666504,4356.922852,4381.025879,4372.05127,4382.820313,4379.102539,4386.153809,4373.846191,4358.589844,4458.077148,4523.589844,4395.256348,4426.153809,,,,,,,,,,,,,,,,,,,,,,,,,,,,,,,,,,,,,,,,,,,,,,,,,,,,,,,,,,,,,,,,,,,,,,
1768973303.468129,1768973303.468749,109.0,0.0,4381.153809,4372.563965,4357.179688,4380.256348,4368.077148,4380.769043,4370.512695,4378.205078,4367.436035,4361.153809,4457.307617,4522.820313,4398.205078,4431.153809,,,,,,,,,,,,,,,,,,,,,,,,,,,,,,,,,,,,,,,,,,,,,,,,,,,,,,,,,,,,,,,,,,,,,,
1768973303.475937,1768973303.476458,110.0,0.0,4382.563965,4378.974121,4365.641113,4383.974121,4369.358887,4381.538574,4373.589844,4373.846191,4364.230957,4359.358887,4458.717773,4523.974121,4394.358887,4430.256348,0.657381,0.478675,0.283321,0.18964,0.144139,0.814548,0.479086,0.396869,0.19422,0.106311,0.192624,0.408185,0.128866,0.112323,0.12296,0.31712,0.251632,0.116715,0.111133,0.126677,0.235061,0.129794,0.047351,0.051757,0.034915,0.144962,0.272434,0.088245,0.119104,0.123194,0.124279,0.214036,0.063845,0.150016,0.176781,0.277067,0.316288,0.114578,0.086155,0.221628,0.306951,0.187318,0.057383,0.07625,0.191824,0.477068,0.259716,0.155433,0.267273,0.241895,0.683147,0.309737,0.15079,0.215036,0.14636,1.340864,0.48516,0.172805,0.167476,0.167915,0.433569,0.304413,0.203246,0.19025,0.093768,0.640926,0.537614,0.280104,0.245144,0.13048
1768973303.483745,1768973303.484266,111.0,0.0,4385.897461,4380.897461,4372.563965,4389.871582,4373.205078,4382.94873,4383.077148,4372.563965,4367.563965,4357.179688,4457.05127,4527.692383,4393.205078,4426.922852,,,,,,,,,,,,,,,,,,,,,,,,,,,,,,,,,,,,,,,,,,,,,,,,,,,,,,,,,,,,,,,,,,,,,,
1768973303.491554,1768973303.491875,112.0,0.0,4389.743652,4377.436035,4373.077148,4389.743652,4373.974121,4381.666504,4380.897461,4376.282227,4374.230957,4358.589844,4457.179688,4526.922852,4397.307617,4428.846191,,,,,,,,,,,,,,,,,,,,,,,,,,,,,,,,,,,,,,,,,,,,,,,,,,,,,,,,,,,,,,,,,,,,,,
1768973303.499362,1768973303.499683,113.0,0.0,4387.94873,4375.0,4369.487305,4388.589844,4369.230957,4379.358887,4375.384766,4381.666504,4376.025879,4358.333496,4458.205078,4522.94873,4397.820313,4430.0,,,,,,,,,,,,,,,,,,,,,,,,,,,,,,,,,,,,,,,,,,,,,,,,,,,,,,,,,,,,,,,,,,,,,,
1768973303.507171,1768973303.507592,114.0,0.0,4385.256348,4375.0,4365.897461,4389.358887,4366.666504,4379.102539,4376.794922,4379.358887,4371.282227,4356.410156,4451.025879,4518.589844,4394.230957,4426.922852,,,,,,,,,,,,,,,,,,,,,,,,,,,,,,,,,,,,,,,,,,,,,,,,,,,,,,,,,,,,,,,,,,,,,,
1768973303.514979,1768973303.5154,115.0,0.0,4386.282227,4377.307617,4366.538574,4391.282227,4372.692383,4382.179688,4377.563965,4375.512695,4370.0,4356.025879,4449.102539,4517.179688,4393.589844,4427.05127,,,,,,,,,,,,,,,,,,,,,,,,,,,,,,,,,,,,,,,,,,,,,,,,,,,,,,,,,,,,,,,,,,,,,,
1768973303.522788,1768973303.523408,116.0,0.0,4385.256348,4382.563965,4370.0,4391.922852,4377.179688,4385.128418,4379.102539,4378.461426,4373.717773,4357.436035,4458.717773,4520.0,4397.05127,4429.615234,,,,,,,,,,,,,,,,,,,,,,,,,,,,,,,,,,,,,,,,,,,,,,,,,,,,,,,,,,,,,,,,,,,,,,
1768973303.530596,1768973303.531217,117.0,0.0,4380.0,4381.666504,4370.128418,4389.230957,4375.512695,4384.615234,4378.974121,4379.871582,4373.717773,4358.589844,4458.461426,4516.153809,4398.077148,4428.077148,,,,,,,,,,,,,,,,,,,,,,,,,,,,,,,,,,,,,,,,,,,,,,,,,,,,,,,,,,,,,,,,,,,,,,
1768973303.538405,1768973303.538925,118.0,0.0,4380.897461,4378.589844,4367.05127,4389.743652,4378.077148,4385.128418,4379.487305,4375.641113,4367.436035,4357.05127,4446.025879,4505.128418,4395.256348,4425.897461,,,,,,,,,,,,,,,,,,,,,,,,,,,,,,,,,,,,,,,,,,,,,,,,,,,,,,,,,,,,,,,,,,,,,,
1768973303.546213,1768973303.546734,119.0,0.0,4385.128418,4381.410156,4364.615234,4393.333496,4381.153809,4388.077148,4386.153809,4378.846191,4364.230957,4355.641113,4447.563965,4507.05127,4394.743652,4427.436035,,,,,,,,,,,,,,,,,,,,,,,,,,,,,,,,,,,,,,,,,,,,,,,,,,,,,,,,,,,,,,,,,,,,,,
1768973303.554021,1768973303.554342,120.0,0.0,4382.179688,4380.897461,4364.615234,4391.538574,4376.538574,4389.102539,4384.358887,4387.436035,4367.94873,4356.538574,4458.461426,4521.410156,4396.538574,4428.333496,,,,,,,,,,,,,,,,,,,,,,,,,,,,,,,,,,,,,,,,,,,,,,,,,,,,,,,,,,,,,,,,,,,,,,
1768973303.56183,1768973303.562151,121.0,0.0,4377.179688,4377.563965,4364.615234,4385.769043,4373.333496,4386.794922,4375.0,4383.717773,4367.05127,4356.666504,4455.256348,4522.307617,4397.05127,4427.307617,,,,,,,,,,,,,,,,,,,,,,,,,,,,,,,,,,,,,,,,,,,,,,,,,,,,,,,,,,,,,,,,,,,,,,
1768973303.569638,1768973303.570059,122.0,0.0,4379.743652,4380.0,4364.230957,4386.922852,4374.871582,4382.307617,4373.717773,4375.512695,4364.871582,4357.179688,4447.692383,4513.846191,4396.025879,4426.410156,,,,,,,,,,,,,,,,,,,,,,,,,,,,,,,,,,,,,,,,,,,,,,,,,,,,,,,,,,,,,,,,,,,,,,
1768973303.577447,1768973303.577868,123.0,0.0,4386.282227,4382.05127,4367.692383,4393.333496,4375.128418,4381.794922,4378.589844,4379.487305,4368.461426,4360.128418,4450.512695,4516.922852,4397.179688,4426.794922,,,,,,,,,,,,,,,,,,,,,,,,,,,,,,,,,,,,,,,,,,,,,,,,,,,,,,,,,,,,,,,,,,,,,,
1768973303.585255,1768973303.585876,124.0,0.0,4390.256348,4382.179688,4371.025879,4394.358887,4375.897461,4384.102539,4379.487305,4384.743652,4367.563965,4360.0,4452.94873,4521.794922,4397.820313,4427.436035,,,,,,,,,,,,,,,,,,,,,,,,,,,,,,,,,,,,,,,,,,,,,,,,,,,,,,,,,,,,,,,,,,,,,,
1768973303.593064,1768973303.593684,125.0,0.0,4390.128418,4389.230957,4370.512695,4391.922852,4375.897461,4382.692383,4379.871582,4383.589844,4365.769043,4356.538574,4446.153809,4519.102539,4395.128418,4425.641113,,,,,,,,,,,,,,,,,,,,,,,,,,,,,,,,,,,,,,,,,,,,,,,,,,,,,,,,,,,,,,,,,,,,,,
1768973303.600872,1768973303.601593,126.0,0.0,4382.692383,4388.333496,4368.205078,4386.538574,4374.102539,4378.461426,4379.615234,4383.717773,4370.128418,4355.512695,4447.05127,4518.846191,4393.974121,4423.461426,0.74207,0.510069,0.2948,0.225237,0.128609,0.889975,0.350896,0.35326,0.207933,0.107334,0.235579,0.431097,0.163864,0.124682,0.114949,0.325887,0.244335,0.123292,0.100899,0.133574,0.258406,0.14619,0.046776,0.051225,0.038506,0.158706,0.297712,0.087141,0.116412,0.123287,0.129615,0.222861,0.055949,0.137374,0.183785,0.292285,0.308779,0.122658,0.07697,0.200081,0.301198,0.190984,0.06956,0.064233,0.18132,0.46939,0.288593,0.171735,0.264124,0.230872,0.755016,0.292894,0.15937,0.224429,0.133267,1.711842,0.612309,0.246883,0.180412,0.140691,0.483532,0.360018,0.242716,0.206384,0.093016,0.825836,0.620684,0.316847,0.271843,0.117855
1768973303.608681,1768973303.609401,127.0,0.0,4378.077148,4380.0,4367.94873,4385.641113,4375.769043,4382.692383,4380.769043,4381.282227,4366.538574,4358.333496,4458.974121,4522.436035,4397.05127,4424.102539,,,,,,,,,,,,,,,,,,,,,,,,,,,,,,,,,,,,,,,,,,,,,,,,,,,,,,,,,,,,,,,,,,,,,,
1768973303.616489,1768973303.617309,0.0,0.0,4386.538574,4388.461426,4370.0,4393.717773,4379.358887,4384.102539,4382.94873,4375.256348,4358.974121,4360.128418,4457.820313,4521.153809,4401.153809,4427.692383,,,,,,,,,,,,,,,,,,,,,,,,,,,,,,,,,,,,,,,,,,,,,,,,,,,,,,,,,,,,,,,,,,,,,,
1768973303.624298,1768973303.625118,1.0,0.0,4391.922852,4394.615234,4368.589844,4394.358887,4379.615234,4376.922852,4378.077148,4373.589844,4362.820313,4356.410156,4444.230957,4516.025879,4398.333496,4430.769043,,,,,,,,,,,,,,,,,,,,,,,,,,,,,,,,,,,,,,,,,,,,,,,,,,,,,,,,,,,,,,,,,,,,,,
1768973303.632106,1768973303.632826,2.0,0.0,4386.538574,4382.820313,4362.307617,4384.615234,4375.641113,4376.282227,4373.077148,4375.128418,4367.436035,4354.871582,4445.769043,4515.897461,4394.871582,4427.436035,,,,,,,,,,,,,,,,,,,,,,,,,,,,,,,,,,,,,,,,,,,,,,,,,,,,,,,,,,,,,,,,,,,,,,
1768973303.639914,1768973303.640635,3.0,0.0,4383.461426,4377.436035,4358.717773,4383.333496,4371.025879,4380.512695,4373.461426,4376.153809,4365.897461,4359.487305,4458.589844,4521.410156,4403.717773,4427.179688,,,,,,,,,,,,,,,,,,,,,,,,,,,,,,,,,,,,,,,,,,,,,,,,,,,,,,,,,,,,,,,,,,,,,,
1768973303.647723,1768973303.648243,4.0,0.0,4386.538574,4384.358887,4363.846191,4390.769043,4372.94873,4382.692383,4377.563965,4383.077148,4371.153809,4362.307617,4461.282227,4528.717773,4412.179688,4435.0,,,,,,,,,,,,,,,,,,,,,,,,,,,,,,,,,,,,,,,,,,,,,,,,,,,,,,,,,,,,,,,,,,,,,,
1768973303.655531,1768973303.656052,5.0,0.0,4386.025879,4385.897461,4368.077148,4388.974121,4377.563965,4381.794922,4382.307617,4390.384766,4380.256348,4363.077148,4460.128418,4529.871582,4407.179688,4435.641113,,,,,,,,,,,,,,,,,,,,,,,,,,,,,,,,,,,,,,,,,,,,,,,,,,,,,,,,,,,,,,,,,,,,,,
1768973303.66334,1768973303.66376,6.0,0.0,4383.461426,4386.922852,4363.205078,4386.922852,4378.717773,4381.282227,4382.307617,4385.256348,4379.102539,4365.128418,4462.05127,4521.282227,4402.820313,4427.563965,,,,,,,,,,,,,,,,,,,,,,,,,,,,,,,,,,,,,,,,,,,,,,,,,,,,,,,,,,,,,,,,,,,,,,
1768973303.671148,1768973303.671569,7.0,0.0,4383.333496,4389.871582,4359.743652,4394.615234,4376.153809,4382.692383,4379.487305,4377.820313,4372.563965,4361.666504,4460.897461,4516.794922,4405.769043,4426.153809,,,,,,,,,,,,,,,,,,,,,,,,,,,,,,,,,,,,,,,,,,,,,,,,,,,,,,,,,,,,,,,,,,,,,,
1768973303.678957,1768973303.679178,8.0,0.0,4386.282227,4388.589844,4362.563965,4394.615234,4372.563965,4379.615234,4375.256348,4376.538574,4370.128418,4355.769043,4458.077148,4515.769043,4405.256348,4428.846191,,,,,,,,,,,,,,,,,,,,,,,,,,,,,,,,,,,,,,,,,,,,,,,,,,,,,,,,,,,,,,,,,,,,,,
1768973303.686765,1768973303.686986,9.0,0.0,4388.589844,4389.487305,4365.128418,4390.897461,4373.077148,4373.717773,4369.743652,4378.077148,4370.641113,4357.563965,4456.153809,4511.410156,4405.128418,4426.922852,,,,,,,,,,,,,,,,,,,,,,,,,,,,,,,,,,,,,,,,,,,,,,,,,,,,,,,,,,,,,,,,,,,,,,
1768973303.694574,1768973303.694695,10.0,0.0,4386.666504,4390.128418,4365.512695,4394.743652,4378.846191,4375.769043,4372.307617,4383.077148,4374.743652,4361.153809,4457.179688,4513.589844,4404.230957,4425.641113,,,,,,,,,,,,,,,,,,,,,,,,,,,,,,,,,,,,,,,,,,,,,,,,,,,,,,,,,,,,,,,,,,,,,,
1768973303.702382,1768973303.702503,11.0,0.0,4385.769043,4387.436035,4363.461426,4395.384766,4379.102539,4382.436035,4381.282227,4384.871582,4377.179688,4358.974121,4459.102539,4517.820313,4398.846191,4426.282227,,,,,,,,,,,,,,,,,,,,,,,,,,,,,,,,,,,,,,,,,,,,,,,,,,,,,,,,,,,,,,,,,,,,,,
1768973303.71019,1768973303.710511,12.0,0.0,4388.589844,4386.025879,4363.333496,4389.871582,4374.102539,4381.410156,4381.666504,4377.436035,4371.666504,4356.794922,4457.692383,4514.615234,4403.846191,4428.589844,,,,,,,,,,,,,,,,,,,,,,,,,,,,,,,,,,,,,,,,,,,,,,,,,,,,,,,,,,,,,,,,,,,,,,
1768973303.717999,1768973303.71832,13.0,0.0,4391.153809,4386.282227,4365.384766,4389.743652,4376.153809,4380.512695,4375.512695,4376.666504,4369.615234,4357.94873,4457.05127,4510.384766,4410.0,4430.0,,,,,,,,,,,,,,,,,,,,,,,,,,,,,,,,,,,,,,,,,,,,,,,,,,,,,,,,,,,,,,,,,,,,,,
1768973303.725807,1768973303.726228,14.0,0.0,4389.487305,4384.102539,4363.974121,4390.256348,4378.717773,4380.256348,4373.205078,4380.769043,4372.307617,4358.974121,4457.436035,4511.666504,4401.153809,4419.615234,0.806416,0.533736,0.310263,0.257289,0.116007,0.923902,0.277494,0.293659,0.226619,0.110719,0.283299,0.442222,0.207181,0.134804,0.108788,0.348474,0.257239,0.1389,0.093089,0.136606,0.288556,0.15174,0.046594,0.053792,0.044526,0.186688,0.308208,0.084546,0.117213,0.12348,0.146553,0.234383,0.064952,0.128598,0.191994,0.32994,0.295284,0.143513,0.078718,0.176232,0.304197,0.198413,0.088413,0.059326,0.168451,0.454559,0.339206,0.185061,0.256316,0.220591,0.831981,0.321065,0.187786,0.244119,0.130336,2.114034,0.750691,0.324216,0.189393,0.114989,0.540818,0.427253,0.274274,0.227799,0.097512,0.994278,0.674975,0.345904,0.305143,0.106295
1768973303.733616,1768973303.734036,15.0,0.0,4384.487305,4382.692383,4358.589844,4385.256348,4375.256348,4376.025879,4373.077148,4378.205078,4373.077148,4357.179688,4455.769043,4515.641113,4395.897461,4411.410156,,,,,,,,,,,,,,,,,,,,,,,,,,,,,,,,,,,,,,,,,,,,,,,,,,,,,,,,,,,,,,,,,,,,,,
1768973303.741424,1768973303.741645,16.0,0.0,4385.512695,4388.589844,4357.05127,4386.922852,4376.538574,4377.307617,4375.128418,4378.974121,4376.666504,4356.922852,4458.077148,4521.538574,4403.974121,4423.461426,,,,,,,,,,,,,,,,,,,,,,,,,,,,,,,,,,,,,,,,,,,,,,,,,,,,,,,,,,,,,,,,,,,,,,
1768973303.749233,1768973303.749454,17.0,0.0,4389.487305,4389.487305,4361.282227,4391.794922,4382.563965,4382.307617,4379.615234,4385.128418,4377.820313,4357.436035,4460.128418,4522.94873,4402.436035,4429.871582,,,,,,,,,,,,,,,,,,,,,,,,,,,,,,,,,,,,,,,,,,,,,,,,,,,,,,,,,,,,,,,,,,,,,,
1768973303.757041,1768973303.757162,18.0,0.0,4386.410156,4378.846191,4359.743652,4389.743652,4380.769043,4380.641113,4378.846191,4385.0,4374.102539,4355.384766,4451.666504,4514.358887,4392.563965,4413.846191,,,,,,,,,,,,,,,,,,,,,,,,,,,,,,,,,,,,,,,,,,,,,,,,,,,,,,,,,,,,,,,,,,,,,,
1768973303.76485,1768973303.764971,19.0,0.0,4382.692383,4375.128418,4356.666504,4387.563965,4376.153809,4375.769043,4372.307617,4378.846191,4372.179688,4353.333496,4442.05127,4507.94873,4392.05127,4409.230957,,,,,,,,,,,,,,,,,,,,,,,,,,,,,,,,,,,,,,,,,,,,,,,,,,,,,,,,,,,,,,,,,,,,,,
1768973303.772658,1768973303.772979,20.0,0.0,4384.615234,4382.307617,4361.922852,4390.512695,4378.974121,4373.333496,4370.897461,4374.743652,4369.230957,4354.487305,4447.820313,4511.922852,4396.666504,4425.0,,,,,,,,,,,,,,,,,,,,,,,,,,,,,,,,,,,,,,,,,,,,,,,,,,,,,,,,,,,,,,,,,,,,,,
1768973303.780466,1768973303.780787,21.0,0.0,4384.743652,4382.94873,4366.538574,4388.205078,4379.615234,4372.692383,4374.230957,4375.897461,4366.153809,4356.794922,4458.974121,4519.615234,4398.333496,4430.512695,,,,,,,,,,,,,,,,,,,,,,,,,,,,,,,,,,,,,,,,,,,,,,,,,,,,,,,,,,,,,,,,,,,,,,
1768973303.788275,1768973303.788696,22.0,0.0,4385.128418,4381.282227,4365.256348,4382.05127,4376.025879,4373.589844,4373.461426,4382.179688,4370.512695,4358.077148,4458.589844,4522.692383,4396.153809,4425.256348,,,,,,,,,,,,,,,,,,,,,,,,,,,,,,,,,,,,,,,,,,,,,,,,,,,,,,,,,,,,,,,,,,,,,,
1768973303.796083,1768973303.796504,23.0,0.0,4389.358887,4386.282227,4365.128418,4385.384766,4377.307617,4374.871582,4371.666504,4383.717773,4375.128418,4357.692383,4455.0,4518.205078,4394.230957,4426.794922,,,,,,,,,,,,,,,,,,,,,,,,,,,,,,,,,,,,,,,,,,,,,,,,,,,,,,,,,,,,,,,,,,,,,,
1768973303.803892,1768973303.804512,24.0,0.0,4388.974121,4386.282227,4368.205078,4389.230957,4378.846191,4374.871582,4375.641113,4377.307617,4374.230957,4353.461426,4458.974121,4517.436035,4395.641113,4430.256348,,,,,,,,,,,,,,,,,,,,,,,,,,,,,,,,,,,,,,,,,,,,,,,,,,,,,,,,,,,,,,,,,,,,,,
1768973303.8117,1768973303.812321,25.0,0.0,4384.102539,4382.05127,4365.897461,4386.282227,4378.205078,4374.230957,4376.794922,4374.230957,4370.0,4350.0,4456.794922,4523.846191,4397.05127,4428.846191,,,,,,,,,,,,,,,,,,,,,,,,,,,,,,,,,,,,,,,,,,,,,,,,,,,,,,,,,,,,,,,,,,,,,,
1768973303.819509,1768973303.820029,26.0,0.0,4384.615234,4384.358887,4362.436035,4389.487305,4379.230957,4374.743652,4375.641113,4380.769043,4369.487305,4352.307617,4450.0,4530.769043,4395.641113,4428.461426,,,,,,,,,,,,,,,,,,,,,,,,,,,,,,,,,,,,,,,,,,,,,,,,,,,,,,,,,,,,,,,,,,,,,,
1768973303.827317,1768973303.827838,27.0,0.0,4391.153809,4389.102539,4367.307617,4397.563965,4378.589844,4375.512695,4377.692383,4386.538574,4374.230957,4353.717773,4454.230957,4538.589844,4395.897461,4430.769043,,,,,,,,,,,,,,,,,,,,,,,,,,,,,,,,,,,,,,,,,,,,,,,,,,,,,,,,,,,,,,,,,,,,,,
1768973303.835126,1768973303.835446,28.0,0.0,4397.94873,4395.0,4372.436035,4399.230957,4377.05127,4375.512695,4377.692383,4380.897461,4370.769043,4352.436035,4460.128418,4542.436035,4398.333496,4432.436035,,,,,,,,,,,,,,,,,,,,,,,,,,,,,,,,,,,,,,,,,,,,,,,,,,,,,,,,,,,,,,,,,,,,,,
1768973303.842934,1768973303.843255,29.0,0.0,4395.128418,4394.743652,4371.794922,4396.153809,4376.666504,4373.461426,4375.641113,4377.820313,4362.94873,4354.230957,4457.307617,4539.230957,4397.692383,4433.589844,,,,,,,,,,,,,,,,,,,,,,,,,,,,,,,,,,,,,,,,,,,,,,,,,,,,,,,,,,,,,,,,,,,,,,
1768973303.850742,1768973303.850963,30.0,0.0,4389.102539,4385.897461,4367.820313,4392.94873,4375.512695,4371.922852,4376.410156,4382.179688,4364.615234,4357.94873,4457.692383,4538.077148,4401.282227,4434.487305,0.81435,0.540075,0.327029,0.276904,0.105653,0.894021,0.237339,0.231722,0.248734,0.116249,0.32008,0.439443,0.249351,0.142327,0.103146,0.381048,0.276393,0.156968,0.088381,0.133856,0.310777,0.145091,0.045465,0.05694,0.050965,0.213595,0.311315,0.082304,0.120358,0.122956,0.172778,0.244874,0.085288,0.125034,0.199247,0.388135,0.279405,0.173861,0.092246,0.153944,0.324948,0.206948,0.113799,0.065379,0.154469,0.432376,0.407399,0.190111,0.241607,0.209163,0.881052,0.394273,0.217503,0.2636,0.139242,2.43785,0.861983,0.377465,0.191667,0.095703,0.575428,0.497768,0.288985,0.247196,0.10736,1.091388,0.694443,0.352208,0.331041,0.095453
1768973303.858551,1768973303.858772,31.0,0.0,4390.128418,4385.897461,4368.589844,4392.563965,4377.563965,4376.153809,4379.358887,4384.358887,4370.0,4357.05127,4459.487305,4542.05127,4401.025879,4429.487305,,,,,,,,,,,,,,,,,,,,,,,,,,,,,,,,,,,,,,,,,,,,,,,,,,,,,,,,,,,,,,,,,,,,,,
1768973303.866359,1768973303.866381,32.0,0.0,4395.512695,4394.230957,4373.333496,4398.589844,4380.384766,4378.974121,4377.563965,4386.538574,4372.307617,4356.666504,4457.820313,4546.538574,4396.025879,4428.333496,,,,,,,,,,,,,,,,,,,,,,,,,,,,,,,,,,,,,,,,,,,,,,,,,,,,,,,,,,,,,,,,,,,,,,
1768973303.874168,1768973303.874189,33.0,0.0,4397.820313,4391.410156,4374.871582,4402.179688,4378.205078,4374.102539,4374.102539,4387.05127,4372.563965,4360.128418,4462.563965,4549.102539,4405.0,4440.769043,,,,,,,,,,,,,,,,,,,,,,,,,,,,,,,,,,,,,,,,,,,,,,,,,,,,,,,,,,,,,,,,,,,,,,
1768973303.881976,1768973303.881897,34.0,0.0,4396.153809,4383.717773,4374.871582,4396.538574,4379.615234,4371.153809,4376.410156,4383.333496,4369.487305,4359.615234,4466.282227,4550.384766,4417.820313,4449.358887,,,,,,,,,,,,,,,,,,,,,,,,,,,,,,,,,,,,,,,,,,,,,,,,,,,,,,,,,,,,,,,,,,,,,,
1768973303.889785,1768973303.889706,35.0,0.0,4396.153809,4383.333496,4375.256348,4390.897461,4381.025879,4375.512695,4378.846191,4382.94873,4365.897461,4356.922852,4462.436035,4551.666504,4416.282227,4444.743652,,,,,,,,,,,,,,,,,,,,,,,,,,,,,,,,,,,,,,,,,,,,,,,,,,,,,,,,,,,,,,,,,,,,,,
1768973303.897593,1768973303.897714,36.0,0.0,4395.769043,4382.436035,4373.717773,4393.333496,4372.94873,4374.743652,4375.769043,4385.0,4365.641113,4353.077148,4459.230957,4550.128418,4408.077148,4438.077148,,,,,,,,,,,,,,,,,,,,,,,,,,,,,,,,,,,,,,,,,,,,,,,,,,,,,,,,,,,,,,,,,,,,,,
1768973303.905402,1768973303.905523,37.0,0.0,4391.538574,4382.05127,4373.077148,4396.538574,4371.282227,4370.897461,4372.692383,4382.692383,4365.897461,4348.846191,4460.897461,4541.794922,4403.077148,4433.205078,,,,,,,,,,,,,,,,,,,,,,,,,,,,,,,,,,,,,,,,,,,,,,,,,,,,,,,,,,,,,,,,,,,,,,
1768973303.91321,1768973303.913431,38.0,0.0,4381.025879,4380.0,4371.410156,4388.846191,4375.384766,4373.846191,4376.538574,4382.563965,4369.102539,4348.846191,4458.974121,4534.743652,4399.102539,4430.0,,,,,,,,,,,,,,,,,,,,,,,,,,,,,,,,,,,,,,,,,,,,,,,,,,,,,,,,,,,,,,,,,,,,,,
1768973303.921018,1768973303.921239,39.0,0.0,4371.025879,4372.94873,4364.743652,4378.717773,4370.128418,4375.256348,4374.358887,4384.615234,4370.256348,4345.769043,4449.615234,4533.461426,4394.358887,4428.077148,,,,,,,,,,,,,,,,,,,,,,,,,,,,,,,,,,,,,,,,,,,,,,,,,,,,,,,,,,,,,,,,,,,,,,
1768973303.928827,1768973303.929248,40.0,0.0,4371.410156,4372.94873,4363.846191,4377.563965,4365.256348,4371.025879,4369.871582,4379.102539,4364.743652,4340.897461,4447.05127,4531.794922,4393.717773,4423.717773,,,,,,,,,,,,,,,,,,,,,,,,,,,,,,,,,,,,,,,,,,,,,,,,,,,,,,,,,,,,,,,,,,,,,,
1768973303.936635,1768973303.937056,41.0,0.0,4382.307617,4382.436035,4372.436035,4383.717773,4369.487305,4371.025879,4373.461426,4375.769043,4363.846191,4349.358887,4456.922852,4534.487305,4403.589844,4427.563965,,,,,,,,,,,,,,,,,,,,,,,,,,,,,,,,,,,,,,,,,,,,,,,,,,,,,,,,,,,,,,,,,,,,,,
1768973303.944444,1768973303.944765,42.0,0.0,4396.538574,4392.05127,4376.922852,4392.820313,4373.717773,4373.077148,4375.641113,4380.897461,4369.615234,4361.410156,4465.384766,4540.384766,4417.436035,4441.666504,,,,,,,,,,,,,,,,,,,,,,,,,,,,,,,,,,,,,,,,,,,,,,,,,,,,,,,,,,,,,,,,,,,,,,
1768973303.952252,1768973303.952573,43.0,0.0,4397.94873,4398.461426,4374.743652,4397.563965,4376.025879,4372.94873,4372.307617,4379.615234,4368.461426,4357.307617,4462.436035,4541.794922,4413.589844,4443.846191,,,,,,,,,,,,,,,,,,,,,,,,,,,,,,,,,,,,,,,,,,,,,,,,,,,,,,,,,,,,,,,,,,,,,,
1768973303.960061,1768973303.960581,44.0,0.0,4394.358887,4398.974121,4376.025879,4397.307617,4382.307617,4376.410156,4374.358887,4379.487305,4368.589844,4350.641113,4460.0,4545.512695,4405.0,4440.512695,,,,,,,,,,,,,,,,,,,,,,,,,,,,,,,,,,,,,,,,,,,,,,,,,,,,,,,,,,,,,,,,,,,,,,
1768973303.967869,1768973303.96839,45.0,0.0,4396.922852,4393.205078,4377.563965,4397.94873,4385.0,4379.102539,4381.666504,4387.179688,4372.94873,4353.077148,4461.922852,4548.974121,4409.102539,4445.512695,,,,,,,,,,,,,,,,,,,,,,,,,,,,,,,,,,,,,,,,,,,,,,,,,,,,,,,,,,,,,,,,,,,,,,
1768973303.975678,1768973303.976298,46.0,0.0,4397.05127,4392.436035,4372.436035,4397.692383,4383.077148,4378.333496,4380.128418,4384.487305,4365.641113,4353.717773,4460.0,4540.256348,4414.102539,4442.179688,0.757176,0.522631,0.340218,0.279648,0.096582,0.795937,0.207848,0.181435,0.269263,0.123044,0.339451,0.425218,0.280402,0.147197,0.09677,0.413232,0.287024,0.169189,0.086751,0.125766,0.317252,0.129691,0.044663,0.059318,0.055779,0.226554,0.315247,0.082597,0.122977,0.120121,0.199727,0.249013,0.10843,0.127736,0.201567,0.454371,0.262856,0.205024,0.115816,0.135007,0.363726,0.212643,0.142736,0.08335,0.139808,0.405931,0.478822,0.184697,0.218484,0.193231,0.877501,0.48941,0.23473,0.274582,0.157291,2.586628,0.912487,0.390801,0.189222,0.084925,0.567244,0.557341,0.284215,0.257215,0.121004,1.076704,0.676779,0.33319,0.339343,0.087042
1768973303.983486,1768973303.984107,47.0,0.0,4392.94873,4399.102539,4369.102539,4396.282227,4381.025879,4376.538574,4371.666504,4376.025879,4357.307617,4350.641113,4457.692383,4532.436035,4412.307617,4433.717773,,,,,,,,,,,,,,,,,,,,,,,,,,,,,,,,,,,,,,,,,,,,,,,,,,,,,,,,,,,,,,,,,,,,,,
1768973303.991295,1768973303.992115,48.0,0.0,4393.461426,4398.077148,4370.769043,4398.077148,4379.871582,4373.589844,4371.282227,4381.922852,4366.282227,4350.897461,4461.153809,4541.538574,4411.922852,4439.102539,,,,,,,,,,,,,,,,,,,,,,,,,,,,,,,,,,,,,,,,,,,,,,,,,,,,,,,,,,,,,,,,,,,,,,
1768973303.999103,1768973303.999923,49.0,0.0,4398.205078,4389.743652,4371.794922,4396.025879,4379.358887,4372.05127,4374.743652,4388.717773,4371.794922,4353.461426,4463.974121,4551.410156,4413.461426,4445.769043,,,,,,,,,,,,,,,,,,,,,,,,,,,,,,,,,,,,,,,,,,,,,,,,,,,,,,,,,,,,,,,,,,,,,,
1768973304.006911,1768973304.007632,50.0,0.0,4394.871582,4387.179688,4367.307617,4387.436035,4377.820313,4372.563965,4376.538574,4385.512695,4366.025879,4351.282227,4461.410156,4544.871582,4412.820313,4443.333496,,,,,,,,,,,,,,,,,,,,,,,,,,,,,,,,,,,,,,,,,,,,,,,,,,,,,,,,,,,,,,,,,,,,,,
1768973304.01472,1768973304.01544,51.0,0.0,4387.692383,4388.205078,4358.589844,4380.897461,4376.794922,4371.922852,4378.974121,4385.0,4369.487305,4347.820313,4459.743652,4534.871582,4412.179688,4440.256348,,,,,,,,,,,,,,,,,,,,,,,,,,,,,,,,,,,,,,,,,,,,,,,,,,,,,,,,,,,,,,,,,,,,,,
1768973304.022528,1768973304.023049,52.0,0.0,4385.0,4386.282227,4355.256348,4379.358887,4375.384766,4371.410156,4382.307617,4386.922852,4373.717773,4349.487305,4460.0,4535.897461,4410.384766,4436.794922,,,,,,,,,,,,,,,,,,,,,,,,,,,,,,,,,,,,,,,,,,,,,,,,,,,,,,,,,,,,,,,,,,,,,,
1768973304.030337,1768973304.030857,53.0,0.0,4384.358887,4389.615234,4358.077148,4381.282227,4374.871582,4375.0,4381.282227,4385.641113,4366.410156,4350.641113,4459.743652,4537.692383,4405.769043,4430.897461,,,,,,,,,,,,,,,,,,,,,,,,,,,,,,,,,,,,,,,,,,,,,,,,,,,,,,,,,,,,,,,,,,,,,,
1768973304.038145,1768973304.038766,54.0,0.0,4380.384766,4397.436035,4357.05127,4382.692383,4376.025879,4373.205078,4374.615234,4383.461426,4366.282227,4350.641113,4461.025879,4535.256348,4406.025879,4432.563965,,,,,,,,,,,,,,,,,,,,,,,,,,,,,,,,,,,,,,,,,,,,,,,,,,,,,,,,,,,,,,,,,,,,,,
1768973304.045954,1768973304.046574,55.0,0.0,4379.615234,4398.077148,4355.384766,4380.641113,4376.282227,4370.128418,4371.794922,4383.077148,4373.205078,4353.974121,4460.897461,4537.94873,4408.974121,4440.897461,,,,,,,,,,,,,,,,,,,,,,,,,,,,,,,,,,,,,,,,,,,,,,,,,,,,,,,,,,,,,,,,,,,,,,
1768973304.053762,1768973304.054183,56.0,0.0,4386.025879,4398.974121,4361.922852,4380.384766,4377.179688,4376.153809,4375.897461,4383.717773,4368.461426,4355.384766,4458.333496,4540.641113,4406.025879,4440.512695,,,,,,,,,,,,,,,,,,,,,,,,,,,,,,,,,,,,,,,,,,,,,,,,,,,,,,,,,,,,,,,,,,,,,,
1768973304.061571,1768973304.061991,57.0,0.0,4389.743652,4407.820313,4365.128418,4386.153809,4378.077148,4379.230957,4377.820313,4382.179688,4362.820313,4351.666504,4457.563965,4538.333496,4403.077148,4435.384766,,,,,,,,,,,,,,,,,,,,,,,,,,,,,,,,,,,,,,,,,,,,,,,,,,,,,,,,,,,,,,,,,,,,,,
1768973304.069379,1768973304.0697,58.0,0.0,4387.94873,4409.487305,4365.641113,4391.153809,4378.461426,4378.205078,4378.974121,4382.94873,4370.512695,4349.743652,4460.641113,4540.256348,4405.769043,4440.128418,,,,,,,,,,,,,,,,,,,,,,,,,,,,,,,,,,,,,,,,,,,,,,,,,,,,,,,,,,,,,,,,,,,,,,
1768973304.077187,1768973304.077508,59.0,0.0,4382.436035,4398.333496,4367.307617,4388.717773,4375.128418,4380.769043,4381.922852,4384.230957,4372.307617,4350.769043,4461.410156,4540.384766,4404.102539,4443.589844,,,,,,,,,,,,,,,,,,,,,,,,,,,,,,,,,,,,,,,,,,,,,,,,,,,,,,,,,,,,,,,,,,,,,,
1768973304.084996,1768973304.085117,60.0,0.0,4380.769043,4391.025879,4363.333496,4382.563965,4373.846191,4377.307617,4376.410156,4381.538574,4366.410156,4354.487305,4459.871582,4531.538574,4404.102539,4435.256348,,,,,,,,,,,,,,,,,,,,,,,,,,,,,,,,,,,,,,,,,,,,,,,,,,,,,,,,,,,,,,,,,,,,,,
1768973304.092804,1768973304.092925,61.0,0.0,4385.256348,4391.410156,4361.282227,4383.717773,4378.461426,4371.794922,4368.846191,4381.282227,4369.230957,4357.307617,4460.256348,4526.538574,4410.897461,4430.256348,,,,,,,,,,,,,,,,,,,,,,,,,,,,,,,,,,,,,,,,,,,,,,,,,,,,,,,,,,,,,,,,,,,,,,
1768973304.100613,1768973304.100834,62.0,0.0,4388.333496,4386.922852,4363.077148,4387.179688,4379.743652,4375.128418,4373.077148,4382.563965,4372.05127,4354.871582,4460.128418,4524.230957,4410.256348,4432.436035,0.629661,0.484587,0.343822,0.267733,0.088472,0.640738,0.177834,0.14803,0.281691,0.129934,0.322527,0.404775,0.291256,0.149276,0.089387,0.430852,0.28163,0.172736,0.088017,0.115375,0.300288,0.11056,0.045521,0.060938,0.057949,0.218742,0.322095,0.08485,0.122375,0.113554,0.218462,0.243461,0.126986,0.137232,0.195098,0.508991,0.245309,0.226907,0.145438,0.119551,0.412331,0.210792,0.1719,0.110641,0.124643,0.376345,0.531588,0.170384,0.188151,0.170632,0.823839,0.569282,0.235855,0.275217,0.178364,2.508723,0.889182,0.368139,0.189101,0.081781,0.526705,0.591824,0.265046,0.25411,0.13543,0.960866,0.627132,0.299167,0.329819,0.084445
1768973304.108421,1768973304.108642,63.0,0.0,4387.05127,4384.487305,4359.615234,4386.538574,4375.256348,4378.077148,4376.538574,4379.487305,4369.102539,4355.641113,4459.102539,4522.94873,4407.563965,4432.94873,,,,,,,,,,,,,,,,,,,,,,,,,,,,,,,,,,,,,,,,,,,,,,,,,,,,,,,,,,,,,,,,,,,,,,
1768973304.116229,1768973304.11665,64.0,0.0,4383.589844,4392.05127,4356.666504,4386.410156,4375.512695,4378.077148,4374.358887,4378.461426,4372.307617,4360.256348,4460.128418,4525.256348,4413.333496,4433.589844,,,,,,,,,,,,,,,,,,,,,,,,,,,,,,,,,,,,,,,,,,,,,,,,,,,,,,,,,,,,,,,,,,,,,,
1768973304.124038,1768973304.124459,65.0,0.0,4380.769043,4393.589844,4362.05127,4384.743652,4380.256348,4381.666504,4373.333496,4378.205078,4374.230957,4357.179688,4455.512695,4520.641113,4409.871582,4429.487305,,,,,,,,,,,,,,,,,,,,,,,,,,,,,,,,,,,,,,,,,,,,,,,,,,,,,,,,,,,,,,,,,,,,,,
1768973304.131846,1768973304.132367,66.0,0.0,4380.384766,4386.153809,4361.666504,4379.871582,4375.641113,4382.436035,4371.922852,4377.436035,4366.922852,4349.358887,4442.179688,4515.256348,4395.641113,4421.538574,,,,,,,,,,,,,,,,,,,,,,,,,,,,,,,,,,,,,,,,,,,,,,,,,,,,,,,,,,,,,,,,,,,,,,
1768973304.139655,1768973304.140176,67.0,0.0,4382.179688,4385.897461,4355.128418,4379.487305,4371.794922,4380.512695,4374.743652,4380.512695,4365.384766,4348.205078,4443.205078,4521.410156,4394.871582,4426.922852,,,,,,,,,,,,,,,,,,,,,,,,,,,,,,,,,,,,,,,,,,,,,,,,,,,,,,,,,,,,,,,,,,,,,,
1768973304.147463,1768973304.148184,68.0,0.0,4381.666504,4384.358887,4354.102539,4382.692383,4376.282227,4383.077148,4379.743652,4378.974121,4366.666504,4349.230957,4454.358887,4527.307617,4403.205078,4436.538574,,,,,,,,,,,,,,,,,,,,,,,,,,,,,,,,,,,,,,,,,,,,,,,,,,,,,,,,,,,,,,,,,,,,,,
1768973304.155272,1768973304.155992,69.0,0.0,4381.282227,4372.820313,4353.205078,4380.128418,4375.256348,4384.487305,4376.282227,4373.205078,4363.461426,4349.358887,4449.871582,4523.461426,4400.769043,4431.666504,,,,,,,,,,,,,,,,,,,,,,,,,,,,,,,,,,,,,,,,,,,,,,,,,,,,,,,,,,,,,,,,,,,,,,
1768973304.16308,1768973304.163901,70.0,0.0,4380.128418,4372.94873,4354.487305,4378.461426,4371.153809,4380.128418,4367.692383,4373.077148,4365.384766,4352.692383,4447.05127,4524.743652,4399.487305,4429.358887,,,,,,,,,,,,,,,,,,,,,,,,,,,,,,,,,,,,,,,,,,,,,,,,,,,,,,,,,,,,,,,,,,,,,,
1768973304.170889,1768973304.171709,71.0,0.0,4381.794922,4385.384766,4358.717773,4383.974121,4374.230957,4380.0,4371.538574,4377.307617,4368.974121,4353.846191,4458.333496,4530.897461,4409.102539,4440.384766,,,,,,,,,,,,,,,,,,,,,,,,,,,,,,,,,,,,,,,,,,,,,,,,,,,,,,,,,,,,,,,,,,,,,,
1768973304.178697,1768973304.179617,72.0,0.0,4388.589844,4387.05127,4357.563965,4385.641113,4378.846191,4385.128418,4381.538574,4377.94873,4369.230957,4353.461426,4461.282227,4529.487305,4410.641113,4446.025879,,,,,,,,,,,,,,,,,,,,,,,,,,,,,,,,,,,,,,,,,,,,,,,,,,,,,,,,,,,,,,,,,,,,,,
1768973304.186505,1768973304.187426,73.0,0.0,4388.589844,4380.128418,4353.974121,4381.153809,4375.256348,4381.922852,4377.692383,4375.641113,4371.666504,4354.487305,4455.0,4525.641113,4404.102539,4442.436035,,,,,,,,,,,,,,,,,,,,,,,,,,,,,,,,,,,,,,,,,,,,,,,,,,,,,,,,,,,,,,,,,,,,,,
1768973304.194314,1768973304.195134,74.0,0.0,4385.256348,4382.94873,4357.307617,4382.692383,4373.461426,4372.307617,4369.358887,4377.563965,4375.641113,4356.153809,4457.94873,4524.743652,4406.282227,4441.025879,,,,,,,,,,,,,,,,,,,,,,,,,,,,,,,,,,,,,,,,,,,,,,,,,,,,,,,,,,,,,,,,,,,,,,
1768973304.202122,1768973304.202943,75.0,0.0,4386.410156,4389.487305,4361.025879,4387.307617,4378.333496,4376.153809,4375.0,4385.641113,4376.794922,4358.589844,4462.563965,4525.769043,4413.461426,4442.307617,,,,,,,,,,,,,,,,,,,,,,,,,,,,,,,,,,,,,,,,,,,,,,,,,,,,,,,,,,,,,,,,,,,,,,
1768973304.209931,1768973304.210552,76.0,0.0,4384.230957,4382.94873,4360.128418,4386.794922,4377.692383,4385.128418,4381.410156,4388.461426,4376.025879,4358.846191,4459.487305,4525.384766,4414.871582,4445.0,,,,,,,,,,,,,,,,,,,,,,,,,,,,,,,,,,,,,,,,,,,,,,,,,,,,,,,,,,,,,,,,,,,,,,
1768973304.217739,1768973304.21836,77.0,0.0,4379.358887,4372.436035,4360.512695,4385.256348,4374.871582,4382.307617,4377.692383,4380.897461,4372.94873,4356.282227,4457.692383,4520.897461,4408.205078,4440.897461,,,,,,,,,,,,,,,,,,,,,,,,,,,,,,,,,,,,,,,,,,,,,,,,,,,,,,,,,,,,,,,,,,,,,,
1768973304.225548,1768973304.226069,78.0,0.0,4381.410156,4371.153809,4360.256348,4383.717773,4376.025879,4379.871582,4379.102539,4377.692383,4368.589844,4351.538574,4457.820313,4517.692383,4399.487305,4430.512695,0.472586,0.447145,0.331685,0.248212,0.082381,0.484219,0.159507,0.128263,0.280679,0.135909,0.279575,0.38715,0.276362,0.14788,0.081922,0.431984,0.269427,0.168559,0.091719,0.106622,0.263837,0.097153,0.049463,0.062176,0.057653,0.194965,0.32727,0.086271,0.117154,0.103211,0.222218,0.227221,0.136216,0.152355,0.178863,0.531772,0.226892,0.232752,0.175713,0.107541,0.454192,0.199382,0.198456,0.141085,0.110137,0.345103,0.547813,0.154109,0.155464,0.142585,0.733278,0.600569,0.225397,0.267562,0.195594,2.25165,0.808725,0.32589,0.198402,0.08424,0.475064,0.590787,0.241284,0.238784,0.147429,0.782212,0.559898,0.263192,0.307932,0.090633
1768973304.233356,1768973304.233877,79.0,0.0,4387.179688,4376.153809,4360.641113,4381.794922,4375.897461,4382.179688,4381.153809,4382.692383,4367.05127,4348.205078,4458.717773,4523.333496,4402.179688,4435.0,,,,,,,,,,,,,,,,,,,,,,,,,,,,,,,,,,,,,,,,,,,,,,,,,,,,,,,,,,,,,,,,,,,,,,
1768973304.241165,1768973304.241885,80.0,0.0,4393.717773,4378.974121,4362.94873,4386.410156,4376.282227,4380.769043,4372.179688,4383.717773,4368.589844,4351.538574,4460.512695,4529.743652,4412.820313,4447.692383,,,,,,,,,,,,,,,,,,,,,,,,,,,,,,,,,,,,,,,,,,,,,,,,,,,,,,,,,,,,,,,,,,,,,,
1768973304.248973,1768973304.249694,81.0,0.0,4396.922852,4381.538574,4365.897461,4390.897461,4380.512695,4380.384766,4369.743652,4381.282227,4375.0,4358.589844,4462.563965,4531.282227,4414.487305,4447.05127,,,,,,,,,,,,,,,,,,,,,,,,,,,,,,,,,,,,,,,,,,,,,,,,,,,,,,,,,,,,,,,,,,,,,,
1768973304.256781,1768973304.257402,82.0,0.0,4391.410156,4380.256348,4365.897461,4388.589844,4381.282227,4384.358887,4380.0,4381.153809,4375.384766,4358.717773,4462.05127,4531.666504,4409.358887,4442.820313,,,,,,,,,,,,,,,,,,,,,,,,,,,,,,,,,,,,,,,,,,,,,,,,,,,,,,,,,,,,,,,,,,,,,,
1768973304.26459,1768973304.265211,83.0,0.0,4390.256348,4373.461426,4363.589844,4386.794922,4379.358887,4381.538574,4383.717773,4384.102539,4371.282227,4355.897461,4459.743652,4531.153809,4407.563965,4444.615234,,,,,,,,,,,,,,,,,,,,,,,,,,,,,,,,,,,,,,,,,,,,,,,,,,,,,,,,,,,,,,,,,,,,,,
1768973304.272398,1768973304.272819,84.0,0.0,4395.512695,4375.0,4365.641113,4389.615234,4380.769043,4375.256348,4375.0,4388.077148,4376.794922,4358.333496,4460.769043,4532.05127,4408.589844,4445.0,,,,,,,,,,,,,,,,,,,,,,,,,,,,,,,,,,,,,,,,,,,,,,,,,,,,,,,,,,,,,,,,,,,,,,
1768973304.280207,1768973304.280628,85.0,0.0,4391.794922,4379.743652,4367.820313,4390.384766,4381.410156,4376.410156,4370.256348,4382.307617,4376.794922,4359.615234,4462.307617,4533.717773,4412.563965,4446.025879,,,,,,,,,,,,,,,,,,,,,,,,,,,,,,,,,,,,,,,,,,,,,,,,,,,,,,,,,,,,,,,,,,,,,,
1768973304.288015,1768973304.288336,86.0,0.0,4386.410156,4375.512695,4365.512695,4389.871582,4381.666504,4380.641113,4377.94873,4373.974121,4365.512695,4359.615234,4462.692383,4533.589844,4414.871582,4448.589844,,,,,,,,,,,,,,,,,,,,,,,,,,,,,,,,,,,,,,,,,,,,,,,,,,,,,,,,,,,,,,,,,,,,,,
1768973304.295824,1768973304.296145,87.0,0.0,4388.589844,4373.974121,4365.897461,4393.333496,4382.436035,4380.128418,4379.487305,4376.025879,4364.871582,4360.384766,4462.94873,4533.974121,4412.94873,4447.94873,,,,,,,,,,,,,,,,,,,,,,,,,,,,,,,,,,,,,,,,,,,,,,,,,,,,,,,,,,,,,,,,,,,,,,
1768973304.303632,1768973304.304153,88.0,0.0,4390.128418,4382.820313,4367.05127,4396.025879,4380.0,4376.538574,4373.974121,4376.282227,4370.384766,4359.358887,4461.538574,4533.974121,4412.563965,4445.641113,,,,,,,,,,,,,,,,,,,,,,,,,,,,,,,,,,,,,,,,,,,,,,,,,,,,,,,,,,,,,,,,,,,,,,
1768973304.311441,1768973304.311961,89.0,0.0,4387.436035,4382.307617,4362.05127,4391.025879,4378.461426,4377.05127,4375.384766,4376.025879,4371.282227,4356.282227,4460.128418,4534.871582,4411.794922,4443.717773,,,,,,,,,,,,,,,,,,,,,,,,,,,,,,,,,,,,,,,,,,,,,,,,,,,,,,,,,,,,,,,,,,,,,,
1768973304.319249,1768973304.31987,90.0,0.0,4387.05127,4374.487305,4359.487305,4386.282227,4378.589844,4380.256348,4378.205078,4382.692383,4372.94873,4356.153809,4462.563965,4535.384766,4410.512695,4443.974121,,,,,,,,,,,,,,,,,,,,,,,,,,,,,,,,,,,,,,,,,,,,,,,,,,,,,,,,,,,,,,,,,,,,,,
1768973304.327057,1768973304.327678,91.0,0.0,4388.333496,4379.358887,4361.794922,4387.179688,4379.615234,4382.307617,4376.153809,4382.436035,4370.512695,4359.102539,4463.589844,4532.436035,4413.205078,4445.641113,,,,,,,,,,,,,,,,,,,,,,,,,,,,,,,,,,,,,,,,,,,,,,,,,,,,,,,,,,,,,,,,,,,,,,
1768973304.334866,1768973304.335686,92.0,0.0,4389.102539,4385.769043,4360.0,4388.205078,4380.0,4381.666504,4375.0,4374.358887,4364.487305,4358.077148,4461.025879,4526.922852,4414.230957,4445.128418,,,,,,,,,,,,,,,,,,,,,,,,,,,,,,,,,,,,,,,,,,,,,,,,,,,,,,,,,,,,,,,,,,,,,,
1768973304.342674,1768973304.343495,93.0,0.0,4387.94873,4379.487305,4358.717773,4387.307617,4377.94873,4379.358887,4377.307617,4375.384766,4367.692383,4355.256348,4459.871582,4525.384766,4412.563965,4442.179688,,,,,,,,,,,,,,,,,,,,,,,,,,,,,,,,,,,,,,,,,,,,,,,,,,,,,,,,,,,,,,,,,,,,,,
1768973304.350483,1768973304.351403,94.0,0.0,4385.641113,4373.589844,4362.436035,4388.589844,4378.077148,4378.717773,4375.384766,4376.025879,4369.358887,4355.256348,4460.256348,4527.307617,4411.538574,4442.179688,0.342844,0.438149,0.301526,0.231124,0.079933,0.379597,0.186113,0.119751,0.264762,0.139989,0.229104,0.383718,0.235945,0.142696,0.075751,0.431606,0.27644,0.160462,0.097539,0.101806,0.220584,0.099843,0.058029,0.063033,0.055778,0.163703,0.323183,0.084332,0.107675,0.090383,0.209076,0.200298,0.133851,0.170365,0.155391,0.512105,0.204691,0.221214,0.201097,0.099213,0.472519,0.177788,0.219874,0.167445,0.098342,0.313867,0.522603,0.145165,0.126052,0.113413,0.637991,0.569172,0.212689,0.254396,0.203689,1.917383,0.707171,0.283874,0.21989,0.089778,0.434979,0.556942,0.226542,0.217092,0.154679,0.606228,0.495816,0.236056,0.282099,0.106059
1768973304.358291,1768973304.359212,95.0,0.0,4387.05127,4378.589844,4366.025879,4388.333496,4381.922852,4379.487305,4376.025879,4372.05127,4364.487305,4356.538574,4459.743652,4528.461426,4409.743652,4444.230957,,,,,,,,,,,,,,,,,,,,,,,,,,,,,,,,,,,,,,,,,,,,,,,,,,,,,,,,,,,,,,,,,,,,,,
1768973304.3661,1768973304.36722,96.0,0.0,4390.769043,4381.410156,4365.897461,4385.769043,4383.461426,4379.102539,4379.871582,4379.743652,4368.589844,4356.153809,4458.461426,4528.974121,4406.666504,4444.743652,,,,,,,,,,,,,,,,,,,,,,,,,,,,,,,,,,,,,,,,,,,,,,,,,,,,,,,,,,,,,,,,,,,,,,
1768973304.373908,1768973304.375028,97.0,0.0,4390.769043,4374.615234,4364.487305,4387.05127,4380.128418,4377.692383,4380.512695,4387.307617,4375.512695,4355.128418,4459.487305,4528.974121,4408.974121,4445.512695,,,,,,,,,,,,,,,,,,,,,,,,,,,,,,,,,,,,,,,,,,,,,,,,,,,,,,,,,,,,,,,,,,,,,,
1768973304.381717,1768973304.382737,98.0,0.0,4388.589844,4371.922852,4362.820313,4389.102539,4377.307617,4376.025879,4381.922852,4382.307617,4374.358887,4355.897461,4461.410156,4528.974121,4411.410156,4443.717773,,,,,,,,,,,,,,,,,,,,,,,,,,,,,,,,,,,,,,,,,,,,,,,,,,,,,,,,,,,,,,,,,,,,,,
1768973304.389525,1768973304.390545,99.0,0.0,4388.589844,4375.512695,4359.615234,4384.743652,4377.436035,4373.461426,4380.769043,4376.666504,4371.538574,4358.461426,4459.230957,4526.538574,4408.974121,4439.615234,,,,,,,,,,,,,,,,,,,,,,,,,,,,,,,,,,,,,,,,,,,,,,,,,,,,,,,,,,,,,,,,,,,,,,
1768973304.397334,1768973304.398154,100.0,0.0,4389.358887,4374.743652,4355.128418,4383.461426,4379.230957,4377.05127,4380.128418,4381.025879,4372.05127,4357.307617,4457.94873,4523.974121,4411.025879,4441.410156,,,,,,,,,,,,,,,,,,,,,,,,,,,,,,,,,,,,,,,,,,,,,,,,,,,,,,,,,,,,,,,,,,,,,,
1768973304.405142,1768973304.405963,101.0,0.0,4386.410156,4371.538574,4355.128418,4387.179688,4380.128418,4382.179688,4387.179688,4386.794922,4374.871582,4348.589844,4460.128418,4524.102539,4411.153809,4443.846191,,,,,,,,,,,,,,,,,,,,,,,,,,,,,,,,,,,,,,,,,,,,,,,,,,,,,,,,,,,,,,,,,,,,,,
1768973304.41295,1768973304.413671,102.0,0.0,4382.563965,4371.410156,4358.589844,4387.307617,4381.794922,4380.897461,4392.307617,4382.05127,4373.846191,4347.563965,4459.358887,4522.307617,4406.153809,4441.410156,,,,,,,,,,,,,,,,,,,,,,,,,,,,,,,,,,,,,,,,,,,,,,,,,,,,,,,,,,,,,,,,,,,,,,
1768973304.420759,1768973304.42148,103.0,0.0,4381.538574,4372.94873,4359.487305,4385.897461,4386.153809,4378.846191,4385.512695,4376.153809,4370.384766,4357.94873,4457.563965,4520.769043,4406.410156,4440.897461,,,,,,,,,,,,,,,,,,,,,,,,,,,,,,,,,,,,,,,,,,,,,,,,,,,,,,,,,,,,,,,,,,,,,,
1768973304.428567,1768973304.429488,104.0,0.0,4379.743652,4375.384766,4361.282227,4387.436035,4385.256348,4379.102539,4377.820313,4378.589844,4370.769043,4361.666504,4459.102539,4520.897461,4406.794922,4437.05127,,,,,,,,,,,,,,,,,,,,,,,,,,,,,,,,,,,,,,,,,,,,,,,,,,,,,,,,,,,,,,,,,,,,,,
1768973304.436376,1768973304.437296,105.0,0.0,4382.179688,4374.358887,4362.692383,4388.589844,4379.102539,4373.717773,4376.538574,4379.102539,4368.589844,4354.487305,4458.077148,4520.512695,4402.563965,4430.897461,,,,,,,,,,,,,,,,,,,,,,,,,,,,,,,,,,,,,,,,,,,,,,,,,,,,,,,,,,,,,,,,,,,,,,
1768973304.444184,1768973304.445205,106.0,0.0,4387.307617,4365.769043,4360.512695,4387.436035,4378.846191,4370.0,4376.922852,4375.128418,4364.102539,4350.769043,4457.307617,4524.871582,4403.077148,4437.307617,,,,,,,,,,,,,,,,,,,,,,,,,,,,,,,,,,,,,,,,,,,,,,,,,,,,,,,,,,,,,,,,,,,,,,
1768973304.451993,1768973304.453013,107.0,0.0,4385.128418,4364.743652,4361.410156,4389.358887,4383.205078,4377.94873,4381.025879,4377.179688,4366.538574,4353.461426,4459.871582,4531.153809,4406.666504,4442.563965,,,,,,,,,,,,,,,,,,,,,,,,,,,,,,,,,,,,,,,,,,,,,,,,,,,,,,,,,,,,,,,,,,,,,,
1768973304.459801,1768973304.460622,108.0,0.0,4382.307617,4370.0,4362.820313,4391.794922,4382.179688,4381.538574,4382.179688,4379.358887,4367.692383,4350.384766,4458.461426,4527.436035,4404.487305,4434.358887,,,,,,,,,,,,,,,,,,,,,,,,,,,,,,,,,,,,,,,,,,,,,,,,,,,,,,,,,,,,,,,,,,,,,,
1768973304.46761,1768973304.46843,109.0,0.0,4383.974121,4365.897461,4360.897461,4392.436035,4378.589844,4372.692383,4374.102539,4378.846191,4363.717773,4346.282227,4456.666504,4522.307617,4403.974121,4433.589844,,,,,,,,,,,,,,,,,,,,,,,,,,,,,,,,,,,,,,,,,,,,,,,,,,,,,,,,,,,,,,,,,,,,,,
1768973304.475418,1768973304.476139,110.0,0.0,4385.0,4361.025879,4361.922852,4395.0,4379.871582,4370.897461,4370.897461,4383.461426,4370.128418,4352.820313,4459.871582,4525.897461,4406.025879,4441.922852,0.288548,0.467898,0.26179,0.225398,0.081484,0.360806,0.279962,0.128213,0.239391,0.142191,0.195734,0.397228,0.179112,0.134258,0.071519,0.441662,0.323772,0.153352,0.104984,0.100679,0.188222,0.122876,0.071341,0.06265,0.053518,0.134063,0.305089,0.077994,0.096045,0.077594,0.184001,0.164428,0.1217,0.18739,0.130367,0.456338,0.177375,0.196948,0.216022,0.094198,0.45565,0.149335,0.234999,0.183752,0.090535,0.27886,0.466021,0.150078,0.104326,0.087749,0.555633,0.485498,0.206469,0.237741,0.200394,1.614133,0.619731,0.256229,0.249777,0.095747,0.411162,0.502268,0.230888,0.197847,0.15679,0.481313,0.451684,0.223911,0.260616,0.12822
1768973304.483226,1768973304.483947,111.0,0.0,4384.615234,4362.05127,4362.563965,4393.717773,4379.230957,4379.102539,4377.563965,4383.589844,4374.871582,4357.179688,4460.0,4522.179688,4403.205078,4437.692383,,,,,,,,,,,,,,,,,,,,,,,,,,,,,,,,,,,,,,,,,,,,,,,,,,,,,,,,,,,,,,,,,,,,,,
1768973304.491035,1768973304.491556,112.0,0.0,4381.666504,4359.615234,4359.102539,4386.922852,4375.128418,4375.641113,4376.666504,4376.538574,4367.94873,4350.512695,4457.94873,4512.307617,4400.641113,4428.717773,,,,,,,,,,,,,,,,,,,,,,,,,,,,,,,,,,,,,,,,,,,,,,,,,,,,,,,,,,,,,,,,,,,,,,
1768973304.498843,1768973304.499364,113.0,0.0,4376.922852,4356.025879,4357.307617,4383.205078,4375.512695,4371.538574,4372.692383,4376.794922,4366.410156,4351.025879,4459.487305,4514.487305,4402.05127,4435.128418,,,,,,,,,,,,,,,,,,,,,,,,,,,,,,,,,,,,,,,,,,,,,,,,,,,,,,,,,,,,,,,,,,,,,,
1768973304.506652,1768973304.507273,114.0,0.0,4376.410156,4356.410156,4359.743652,4384.487305,4378.077148,4382.94873,4382.179688,4386.922852,4371.025879,4356.922852,4461.666504,4524.871582,4406.025879,4445.128418,,,,,,,,,,,,,,,,,,,,,,,,,,,,,,,,,,,,,,,,,,,,,,,,,,,,,,,,,,,,,,,,,,,,,,
1768973304.51446,1768973304.515081,115.0,0.0,4376.538574,4355.384766,4357.05127,4381.922852,4375.512695,4382.05127,4383.461426,4385.256348,4367.820313,4353.077148,4461.538574,4521.025879,4404.743652,4440.0,,,,,,,,,,,,,,,,,,,,,,,,,,,,,,,,,,,,,,,,,,,,,,,,,,,,,,,,,,,,,,,,,,,,,,
1768973304.522269,1768973304.523089,116.0,0.0,4372.05127,4351.794922,4350.384766,4376.794922,4370.384766,4365.512695,4366.922852,4372.820313,4360.641113,4346.922852,4456.538574,4507.94873,4397.05127,4426.666504,,,,,,,,,,,,,,,,,,,,,,,,,,,,,,,,,,,,,,,,,,,,,,,,,,,,,,,,,,,,,,,,,,,,,,
1768973304.530077,1768973304.530898,117.0,0.0,4372.307617,4352.563965,4348.717773,4376.922852,4368.205078,4365.512695,4362.94873,4368.589844,4356.282227,4344.487305,4447.05127,4507.436035,4393.717773,4424.487305,,,,,,,,,,,,,,,,,,,,,,,,,,,,,,,,,,,,,,,,,,,,,,,,,,,,,,,,,,,,,,,,,,,,,,
1768973304.537886,1768973304.538806,118.0,0.0,4375.0,4350.0,4348.461426,4376.922852,4368.077148,4374.871582,4371.153809,4370.128418,4352.820313,4341.025879,4442.05127,4509.743652,4395.256348,4429.102539,,,,,,,,,,,,,,,,,,,,,,,,,,,,,,,,,,,,,,,,,,,,,,,,,,,,,,,,,,,,,,,,,,,,,,
1768973304.545694,1768973304.546614,119.0,0.0,4376.794922,4344.871582,4347.563965,4375.641113,4365.512695,4366.025879,4366.538574,4370.128418,4354.230957,4341.025879,4443.974121,4506.794922,4394.743652,4427.307617,,,,,,,,,,,,,,,,,,,,,,,,,,,,,,,,,,,,,,,,,,,,,,,,,,,,,,,,,,,,,,,,,,,,,,
1768973304.553502,1768973304.554623,120.0,0.0,4382.692383,4346.922852,4349.487305,4373.974121,4363.846191,4356.025879,4358.205078,4367.307617,4356.410156,4343.846191,4446.282227,4508.974121,4396.794922,4427.436035,,,,,,,,,,,,,,,,,,,,,,,,,,,,,,,,,,,,,,,,,,,,,,,,,,,,,,,,,,,,,,,,,,,,,,
1768973304.561311,1768973304.562431,121.0,0.0,4381.410156,4350.0,4353.717773,4372.692383,4367.179688,4363.717773,4363.974121,4368.974121,4352.94873,4341.666504,4444.871582,4512.179688,4396.025879,4430.384766,,,,,,,,,,,,,,,,,,,,,,,,,,,,,,,,,,,,,,,,,,,,,,,,,,,,,,,,,,,,,,,,,,,,,,
