title:apple_4, start timestamp:1768292616.407819, stop timestamp:1768292646.923135, headset type:EPOCX, headset serial:E5020E3B, headset firmware:730, channels:156, sampling rate:eeg_128;pm_0.1;pow_8, samples:3909      , version:2.2, 
Timestamp,OriginalTimestamp,EEG.Counter,EEG.Interpolated,EEG.AF3,EEG.F7,EEG.F3,EEG.FC5,EEG.T7,EEG.P7,EEG.O1,EEG.O2,EEG.P8,EEG.T8,EEG.FC6,EEG.F4,EEG.F8,EEG.AF4,EEG.RawCq,EEG.Battery,EEG.BatteryPercent,MarkerIndex,MarkerType,MarkerValueInt,EEG.MarkerHardware,CQ.AF3,CQ.F7,CQ.F3,CQ.FC5,CQ.T7,CQ.P7,CQ.O1,CQ.O2,CQ.P8,CQ.T8,CQ.FC6,CQ.F4,CQ.F8,CQ.AF4,CQ.Overall,EQ.SampleRateQuality,EQ.OVERALL,EQ.AF3,EQ.F7,EQ.F3,EQ.FC5,EQ.T7,EQ.P7,EQ.O1,EQ.O2,EQ.P8,EQ.T8,EQ.FC6,EQ.F4,EQ.F8,EQ.AF4,PM.Attention.IsActive,PM.Attention.Scaled,PM.Attention.Raw,PM.Attention.Min,PM.Attention.Max,PM.Engagement.IsActive,PM.Engagement.Scaled,PM.Engagement.Raw,PM.Engagement.Min,PM.Engagement.Max,PM.Excitement.IsActive,PM.Excitement.Scaled,PM.Excitement.Raw,PM.Excitement.Min,PM.Excitement.Max,PM.LongTermExcitement,PM.Stress.IsActive,PM.Stress.Scaled,PM.Stress.Raw,PM.Stress.Min,PM.Stress.Max,PM.Relaxation.IsActive,PM.Relaxation.Scaled,PM.Relaxation.Raw,PM.Relaxation.Min,PM.Relaxation.Max,PM.Interest.IsActive,PM.Interest.Scaled,PM.Interest.Raw,PM.Interest.Min,PM.Interest.Max,POW.AF3.Theta,POW.AF3.Alpha,POW.AF3.BetaL,POW.AF3.BetaH,POW.AF3.Gamma,POW.F7.Theta,POW.F7.Alpha,POW.F7.BetaL,POW.F7.BetaH,POW.F7.Gamma,POW.F3.Theta,POW.F3.Alpha,POW.F3.BetaL,POW.F3.BetaH,POW.F3.Gamma,POW.FC5.Theta,POW.FC5.Alpha,POW.FC5.BetaL,POW.FC5.BetaH,POW.FC5.Gamma,POW.T7.Theta,POW.T7.Alpha,POW.T7.BetaL,POW.T7.BetaH,POW.T7.Gamma,POW.P7.Theta,POW.P7.Alpha,POW.P7.BetaL,POW.P7.BetaH,POW.P7.Gamma,POW.O1.Theta,POW.O1.Alpha,POW.O1.BetaL,POW.O1.BetaH,POW.O1.Gamma,POW.O2.Theta,POW.O2.Alpha,POW.O2.BetaL,POW.O2.BetaH,POW.O2.Gamma,POW.P8.Theta,POW.P8.Alpha,POW.P8.BetaL,POW.P8.BetaH,POW.P8.Gamma,POW.T8.Theta,POW.T8.Alpha,POW.T8.BetaL,POW.T8.BetaH,POW.T8.Gamma,POW.FC6.Theta,POW.FC6.Alpha,POW.FC6.BetaL,POW.FC6.BetaH,POW.FC6.Gamma,POW.F4.Theta,POW.F4.Alpha,POW.F4.BetaL,POW.F4.BetaH,POW.F4.Gamma,POW.F8.Theta,POW.F8.Alpha,POW.F8.BetaL,POW.F8.BetaH,POW.F8.Gamma,POW.AF4.Theta,POW.AF4.Alpha,POW.AF4.BetaL,POW.AF4.BetaH,POW.AF4.Gamma
1768292616.407819,1768292616.408586,31.000000,0.000000,4325.897461,4318.077148,4320.641113,4340.769043,4308.589844,4316.922852,4311.794922,4312.948730,4311.153809,4294.871582,4515.641113,4538.461426,4411.025879,4485.769043,0.000000,2.000000,46.000000,,,,0.000000,4.000000,4.000000,4.000000,4.000000,4.000000,4.000000,4.000000,4.000000,4.000000,4.000000,4.000000,4.000000,4.000000,4.000000,100.000000,,,,,,,,,,,,,,,,,,,,,,,,,,,,,,,,,,,,,,,,,,,,,,,,,,,,,,,,,,,,,,,,,,,,,,,,,,,,,,,,,,,,,,,,,,,,,,,,,,,,,,,,,,,,,,,,,,,,,
1768292616.415628,1768292616.416594,32.000000,0.000000,4320.512695,4316.410156,4320.384766,4337.307617,4307.051270,4311.538574,4311.410156,4311.794922,4312.692383,4298.077148,4521.153809,4536.025879,4413.333496,4492.051270,0.000000,2.000000,46.000000,,,,0.000000,4.000000,4.000000,4.000000,4.000000,4.000000,4.000000,4.000000,4.000000,4.000000,4.000000,4.000000,4.000000,4.000000,4.000000,100.000000,,,,,,,,,,,,,,,,,,,,,,,,,,,,,,,,,,,,,,,,,,,,,,,,1.050472,0.973121,0.252626,0.242268,0.167454,0.836769,0.318274,0.261242,0.152322,0.085208,0.327411,0.282580,0.035296,0.112561,0.057554,0.361948,0.381815,0.099034,0.107912,0.071693,1.554352,0.215291,0.086724,0.105640,0.050773,0.096598,0.056007,0.077358,0.089564,0.072818,0.076321,0.084870,0.130718,0.086791,0.105853,0.316850,0.220879,0.262201,0.229982,0.107468,0.092070,0.214842,0.233652,0.178618,0.066766,0.790621,1.009392,0.444843,0.187712,0.110327,0.392292,0.481320,0.449236,0.303443,0.115932,0.640096,1.111578,0.408455,0.350274,0.153448,0.965735,0.718588,0.526767,0.372371,0.181350,0.925685,0.767259,0.529183,0.289704,0.190494
1768292616.423436,1768292616.424403,33.000000,0.000000,4316.025879,4309.871582,4315.384766,4333.077148,4305.384766,4309.743652,4309.615234,4312.436035,4312.692383,4300.641113,4514.615234,4533.077148,4411.922852,4486.538574,0.000000,2.000000,46.000000,,,,0.000000,4.000000,4.000000,4.000000,4.000000,4.000000,4.000000,4.000000,4.000000,4.000000,4.000000,4.000000,4.000000,4.000000,4.000000,100.000000,,,,,,,,,,,,,,,,,,,,,,,,,,,,,,,,,,,,,,,,,,,,,,,,,,,,,,,,,,,,,,,,,,,,,,,,,,,,,,,,,,,,,,,,,,,,,,,,,,,,,,,,,,,,,,,,,,,,,
1768292616.431245,1768292616.432311,34.000000,0.000000,4322.563965,4310.384766,4314.230957,4339.358887,4310.000000,4317.563965,4312.692383,4314.102539,4311.538574,4299.230957,4511.025879,4531.153809,4411.410156,4483.974121,0.000000,2.000000,46.000000,,,,0.000000,4.000000,4.000000,4.000000,4.000000,4.000000,4.000000,4.000000,4.000000,4.000000,4.000000,4.000000,4.000000,4.000000,4.000000,100.000000,,,,,,,,,,,,,,,,,,,,,,,,,,,,,,,,,,,,,,,,,,,,,,,,,,,,,,,,,,,,,,,,,,,,,,,,,,,,,,,,,,,,,,,,,,,,,,,,,,,,,,,,,,,,,,,,,,,,,
1768292616.439053,1768292616.440119,35.000000,0.000000,4327.179688,4317.563965,4319.487305,4343.974121,4311.666504,4318.461426,4313.077148,4310.128418,4309.230957,4302.948730,4516.282227,4524.743652,4412.051270,4487.307617,0.000000,2.000000,46.000000,,,,0.000000,4.000000,4.000000,4.000000,4.000000,4.000000,4.000000,4.000000,4.000000,4.000000,4.000000,4.000000,4.000000,4.000000,4.000000,100.000000,,,,,,,,,,,,,,,,,,,,,,,,,,,,,,,,,,,,,,,,,,,,,,,,,,,,,,,,,,,,,,,,,,,,,,,,,,,,,,,,,,,,,,,,,,,,,,,,,,,,,,,,,,,,,,,,,,,,,
1768292616.446862,1768292616.448128,36.000000,0.000000,4324.358887,4318.717773,4320.128418,4340.384766,4310.641113,4312.820313,4310.897461,4308.846191,4308.717773,4307.820313,4520.769043,4529.358887,4413.077148,4490.897461,0.000000,2.000000,46.000000,,,,0.000000,4.000000,4.000000,4.000000,4.000000,4.000000,4.000000,4.000000,4.000000,4.000000,4.000000,4.000000,4.000000,4.000000,4.000000,100.000000,,,,,,,,,,,,,,,,,,,,,,,,,,,,,,,,,,,,,,,,,,,,,,,,,,,,,,,,,,,,,,,,,,,,,,,,,,,,,,,,,,,,,,,,,,,,,,,,,,,,,,,,,,,,,,,,,,,,,
1768292616.454670,1768292616.455936,37.000000,0.000000,4323.974121,4313.846191,4314.487305,4340.897461,4309.487305,4312.307617,4312.307617,4311.282227,4310.641113,4305.384766,4518.461426,4535.769043,4412.820313,4490.384766,0.000000,2.000000,46.000000,,,,0.000000,4.000000,4.000000,4.000000,4.000000,4.000000,4.000000,4.000000,4.000000,4.000000,4.000000,4.000000,4.000000,4.000000,4.000000,100.000000,,,,,,,,,,,,,,,,,,,,,,,,,,,,,,,,,,,,,,,,,,,,,,,,,,,,,,,,,,,,,,,,,,,,,,,,,,,,,,,,,,,,,,,,,,,,,,,,,,,,,,,,,,,,,,,,,,,,,
1768292616.462479,1768292616.463645,38.000000,0.000000,4320.512695,4309.871582,4310.641113,4340.000000,4306.153809,4316.025879,4314.230957,4310.384766,4310.897461,4298.717773,4511.794922,4527.179688,4411.025879,4483.846191,0.000000,2.000000,46.000000,,,,0.000000,4.000000,4.000000,4.000000,4.000000,4.000000,4.000000,4.000000,4.000000,4.000000,4.000000,4.000000,4.000000,4.000000,4.000000,100.000000,,,,,,,,,,,,,,,,,,,,,,,,,,,,,,,,,,,,,,,,,,,,,,,,,,,,,,,,,,,,,,,,,,,,,,,,,,,,,,,,,,,,,,,,,,,,,,,,,,,,,,,,,,,,,,,,,,,,,
1768292616.470287,1768292616.471453,39.000000,0.000000,4312.179688,4310.256348,4310.384766,4332.563965,4306.282227,4317.948730,4311.794922,4309.358887,4311.410156,4298.461426,4508.717773,4518.717773,4411.794922,4474.871582,0.000000,2.000000,46.000000,,,,0.000000,4.000000,4.000000,4.000000,4.000000,4.000000,4.000000,4.000000,4.000000,4.000000,4.000000,4.000000,4.000000,4.000000,4.000000,100.000000,,,,,,,,,,,,,,,,,,,,,,,,,,,,,,,,,,,,,,,,,,,,,,,,,,,,,,,,,,,,,,,,,,,,,,,,,,,,,,,,,,,,,,,,,,,,,,,,,,,,,,,,,,,,,,,,,,,,,
1768292616.478095,1768292616.479461,40.000000,0.000000,4310.256348,4311.153809,4312.307617,4330.128418,4310.000000,4317.051270,4309.230957,4311.410156,4312.948730,4301.922852,4509.871582,4522.692383,4412.051270,4474.230957,0.000000,2.000000,46.000000,,,,0.000000,4.000000,4.000000,4.000000,4.000000,4.000000,4.000000,4.000000,4.000000,4.000000,4.000000,4.000000,4.000000,4.000000,4.000000,100.000000,,,,,,,,,,,,,,,,,,,,,,,,,,,,,,,,,,,,,,,,,,,,,,,,,,,,,,,,,,,,,,,,,,,,,,,,,,,,,,,,,,,,,,,,,,,,,,,,,,,,,,,,,,,,,,,,,,,,,
1768292616.485904,1768292616.487270,41.000000,0.000000,4312.436035,4310.128418,4311.410156,4331.410156,4309.102539,4315.000000,4309.871582,4311.410156,4312.436035,4298.077148,4509.102539,4524.358887,4411.025879,4476.410156,0.000000,2.000000,46.000000,,,,0.000000,4.000000,4.000000,4.000000,4.000000,4.000000,4.000000,4.000000,4.000000,4.000000,4.000000,4.000000,4.000000,4.000000,4.000000,100.000000,,,,,,,,,,,,,,,,,,,,,,,,,,,,,,,,,,,,,,,,,,,,,,,,,,,,,,,,,,,,,,,,,,,,,,,,,,,,,,,,,,,,,,,,,,,,,,,,,,,,,,,,,,,,,,,,,,,,,
1768292616.493712,1768292616.495178,42.000000,0.000000,4308.717773,4309.615234,4310.897461,4331.794922,4306.794922,4314.230957,4311.538574,4310.128418,4312.436035,4297.820313,4512.436035,4523.077148,4412.692383,4474.487305,0.000000,2.000000,46.000000,,,,0.000000,4.000000,4.000000,4.000000,4.000000,4.000000,4.000000,4.000000,4.000000,4.000000,4.000000,4.000000,4.000000,4.000000,4.000000,100.000000,,,,,,,,,,,,,,,,,,,,,,,,,,,,,,,,,,,,,,,,,,,,,,,,,,,,,,,,,,,,,,,,,,,,,,,,,,,,,,,,,,,,,,,,,,,,,,,,,,,,,,,,,,,,,,,,,,,,,
1768292616.501521,1768292616.502986,43.000000,0.000000,4306.282227,4309.358887,4315.256348,4333.461426,4308.589844,4315.256348,4309.743652,4311.282227,4313.205078,4306.410156,4522.563965,4525.769043,4413.461426,4476.025879,0.000000,2.000000,46.000000,,,,0.000000,4.000000,4.000000,4.000000,4.000000,4.000000,4.000000,4.000000,4.000000,4.000000,4.000000,4.000000,4.000000,4.000000,4.000000,100.000000,,,,,,,,,,,,,,,,,,,,,,,,,,,,,,,,,,,,,,,,,,,,,,,,,,,,,,,,,,,,,,,,,,,,,,,,,,,,,,,,,,,,,,,,,,,,,,,,,,,,,,,,,,,,,,,,,,,,,
1768292616.509329,1768292616.510995,44.000000,0.000000,4310.384766,4309.871582,4315.256348,4336.538574,4309.358887,4317.563965,4307.820313,4312.563965,4312.563965,4309.487305,4523.589844,4525.897461,4412.179688,4475.897461,0.000000,2.000000,46.000000,,,,0.000000,4.000000,4.000000,4.000000,4.000000,4.000000,4.000000,4.000000,4.000000,4.000000,4.000000,4.000000,4.000000,4.000000,4.000000,100.000000,,,,,,,,,,,,,,,,,,,,,,,,,,,,,,,,,,,,,,,,,,,,,,,,,,,,,,,,,,,,,,,,,,,,,,,,,,,,,,,,,,,,,,,,,,,,,,,,,,,,,,,,,,,,,,,,,,,,,
1768292616.517137,1768292616.518803,45.000000,0.000000,4311.794922,4310.512695,4310.384766,4341.025879,4309.358887,4319.230957,4312.179688,4311.282227,4310.641113,4301.666504,4517.948730,4523.589844,4412.179688,4471.794922,0.000000,2.000000,46.000000,,,,0.000000,4.000000,4.000000,4.000000,4.000000,4.000000,4.000000,4.000000,4.000000,4.000000,4.000000,4.000000,4.000000,4.000000,4.000000,100.000000,,,,,,,,,,,,,,,,,,,,,,,,,,,,,,,,,,,,,,,,,,,,,,,,,,,,,,,,,,,,,,,,,,,,,,,,,,,,,,,,,,,,,,,,,,,,,,,,,,,,,,,,,,,,,,,,,,,,,
1768292616.524946,1768292616.526512,46.000000,0.000000,4309.871582,4310.769043,4311.153809,4339.871582,4310.769043,4317.179688,4313.717773,4308.846191,4310.641113,4297.051270,4511.025879,4521.282227,4410.512695,4474.102539,0.000000,2.000000,46.000000,,,,0.000000,4.000000,4.000000,4.000000,4.000000,4.000000,4.000000,4.000000,4.000000,4.000000,4.000000,4.000000,4.000000,4.000000,4.000000,100.000000,,,,,,,,,,,,,,,,,,,,,,,,,,,,,,,,,,,,,,,,,,,,,,,,,,,,,,,,,,,,,,,,,,,,,,,,,,,,,,,,,,,,,,,,,,,,,,,,,,,,,,,,,,,,,,,,,,,,,
1768292616.532754,1768292616.534320,47.000000,0.000000,4309.615234,4310.256348,4311.153809,4333.333496,4310.512695,4314.102539,4309.230957,4308.846191,4311.153809,4298.333496,4506.410156,4521.410156,4405.512695,4473.333496,0.000000,2.000000,46.000000,,,,0.000000,4.000000,4.000000,4.000000,4.000000,4.000000,4.000000,4.000000,4.000000,4.000000,4.000000,4.000000,4.000000,4.000000,4.000000,100.000000,,,,,,,,,,,,,,,,,,,,,,,,,,,,,,,,,,,,,,,,,,,,,,,,,,,,,,,,,,,,,,,,,,,,,,,,,,,,,,,,,,,,,,,,,,,,,,,,,,,,,,,,,,,,,,,,,,,,,
1768292616.540563,1768292616.541929,48.000000,0.000000,4305.769043,4307.179688,4305.641113,4329.871582,4308.717773,4314.487305,4305.897461,4310.000000,4309.358887,4298.846191,4511.410156,4521.025879,4403.846191,4464.743652,0.000000,2.000000,46.000000,,,,0.000000,4.000000,4.000000,4.000000,4.000000,4.000000,4.000000,4.000000,4.000000,4.000000,4.000000,4.000000,4.000000,4.000000,4.000000,100.000000,,,,,,,,,,,,,,,,,,,,,,,,,,,,,,,,,,,,,,,,,,,,,,,,0.889695,0.922186,0.266757,0.256221,0.151958,0.814725,0.272215,0.251031,0.157017,0.082250,0.263985,0.249173,0.041202,0.114801,0.050041,0.316745,0.339368,0.079035,0.108670,0.075998,1.618458,0.218622,0.093887,0.116208,0.052834,0.114494,0.048880,0.085376,0.094711,0.063223,0.093956,0.080093,0.131570,0.089357,0.100024,0.358345,0.211537,0.291685,0.223840,0.098129,0.122630,0.227921,0.246589,0.169957,0.063825,0.923722,1.075754,0.502907,0.193693,0.112871,0.430758,0.518668,0.460534,0.291066,0.099527,0.554789,1.089694,0.451174,0.340221,0.128024,0.998695,0.758893,0.505016,0.334371,0.167613,0.767675,0.708582,0.580159,0.286206,0.161958
1768292616.548371,1768292616.549737,49.000000,0.000000,4304.871582,4307.820313,4306.153809,4333.333496,4309.615234,4317.436035,4308.717773,4311.153809,4312.820313,4305.897461,4519.743652,4518.077148,4408.077148,4465.256348,0.000000,2.000000,46.000000,,,,0.000000,4.000000,4.000000,4.000000,4.000000,4.000000,4.000000,4.000000,4.000000,4.000000,4.000000,4.000000,4.000000,4.000000,4.000000,100.000000,,,,,,,,,,,,,,,,,,,,,,,,,,,,,,,,,,,,,,,,,,,,,,,,,,,,,,,,,,,,,,,,,,,,,,,,,,,,,,,,,,,,,,,,,,,,,,,,,,,,,,,,,,,,,,,,,,,,,
1768292616.556179,1768292616.557446,50.000000,0.000000,4317.051270,4318.974121,4312.436035,4341.282227,4314.743652,4317.692383,4314.358887,4317.563965,4322.307617,4312.820313,4524.102539,4526.666504,4413.846191,4475.641113,0.000000,2.000000,46.000000,,,,0.000000,4.000000,4.000000,4.000000,4.000000,4.000000,4.000000,4.000000,4.000000,4.000000,4.000000,4.000000,4.000000,4.000000,4.000000,100.000000,,,,,,,,,,,,,,,,,,,,,,,,,,,,,,,,,,,,,,,,,,,,,,,,,,,,,,,,,,,,,,,,,,,,,,,,,,,,,,,,,,,,,,,,,,,,,,,,,,,,,,,,,,,,,,,,,,,,,
1768292616.563988,1768292616.565254,51.000000,0.000000,4327.051270,4328.205078,4316.153809,4347.820313,4316.410156,4318.717773,4317.948730,4323.589844,4323.205078,4312.179688,4526.282227,4539.358887,4416.666504,4482.179688,0.000000,2.000000,46.000000,,,,0.000000,4.000000,4.000000,4.000000,4.000000,4.000000,4.000000,4.000000,4.000000,4.000000,4.000000,4.000000,4.000000,4.000000,4.000000,100.000000,,,,,,,,,,,,,,,,,,,,,,,,,,,,,,,,,,,,,,,,,,,,,,,,,,,,,,,,,,,,,,,,,,,,,,,,,,,,,,,,,,,,,,,,,,,,,,,,,,,,,,,,,,,,,,,,,,,,,
1768292616.571796,1768292616.573263,52.000000,0.000000,4323.846191,4323.846191,4314.615234,4345.897461,4311.922852,4320.000000,4313.461426,4315.512695,4312.820313,4310.000000,4525.128418,4534.487305,4416.538574,4483.077148,0.000000,2.000000,46.000000,,,,0.000000,4.000000,4.000000,4.000000,4.000000,4.000000,4.000000,4.000000,4.000000,4.000000,4.000000,4.000000,4.000000,4.000000,4.000000,100.000000,,,,,,,,,,,,,,,,,,,,,,,,,,,,,,,,,,,,,,,,,,,,,,,,,,,,,,,,,,,,,,,,,,,,,,,,,,,,,,,,,,,,,,,,,,,,,,,,,,,,,,,,,,,,,,,,,,,,,
1768292616.579605,1768292616.581071,53.000000,0.000000,4323.205078,4319.743652,4311.025879,4340.769043,4310.641113,4317.563965,4306.922852,4303.717773,4309.230957,4308.717773,4524.358887,4522.948730,4416.282227,4481.282227,0.000000,2.000000,46.000000,,,,0.000000,4.000000,4.000000,4.000000,4.000000,4.000000,4.000000,4.000000,4.000000,4.000000,4.000000,4.000000,4.000000,4.000000,4.000000,100.000000,,,,,,,,,,,,,,,,,,,,,,,,,,,,,,,,,,,,,,,,,,,,,,,,,,,,,,,,,,,,,,,,,,,,,,,,,,,,,,,,,,,,,,,,,,,,,,,,,,,,,,,,,,,,,,,,,,,,,
1768292616.587413,1768292616.588979,54.000000,0.000000,4325.384766,4323.461426,4309.487305,4341.794922,4313.846191,4317.820313,4310.769043,4304.615234,4311.922852,4306.666504,4525.256348,4523.589844,4413.846191,4476.922852,0.000000,2.000000,46.000000,,,,0.000000,4.000000,4.000000,4.000000,4.000000,4.000000,4.000000,4.000000,4.000000,4.000000,4.000000,4.000000,4.000000,4.000000,4.000000,100.000000,,,,,,,,,,,,,,,,,,,,,,,,,,,,,,,,,,,,,,,,,,,,,,,,,,,,,,,,,,,,,,,,,,,,,,,,,,,,,,,,,,,,,,,,,,,,,,,,,,,,,,,,,,,,,,,,,,,,,
1768292616.595222,1768292616.596788,55.000000,0.000000,4319.615234,4321.538574,4311.410156,4340.128418,4310.897461,4320.384766,4313.974121,4311.153809,4310.769043,4306.282227,4523.974121,4527.307617,4410.000000,4475.000000,0.000000,2.000000,46.000000,,,,0.000000,4.000000,4.000000,4.000000,4.000000,4.000000,4.000000,4.000000,4.000000,4.000000,4.000000,4.000000,4.000000,4.000000,4.000000,100.000000,,,,,,,,,,,,,,,,,,,,,,,,,,,,,,,,,,,,,,,,,,,,,,,,,,,,,,,,,,,,,,,,,,,,,,,,,,,,,,,,,,,,,,,,,,,,,,,,,,,,,,,,,,,,,,,,,,,,,
1768292616.603030,1768292616.604496,56.000000,0.000000,4316.794922,4316.153809,4314.102539,4332.948730,4307.436035,4316.666504,4310.000000,4309.230957,4309.487305,4306.153809,4519.871582,4524.615234,4410.897461,4477.436035,0.000000,2.000000,46.000000,,,,0.000000,4.000000,4.000000,4.000000,4.000000,4.000000,4.000000,4.000000,4.000000,4.000000,4.000000,4.000000,4.000000,4.000000,4.000000,100.000000,,,,,,,,,,,,,,,,,,,,,,,,,,,,,,,,,,,,,,,,,,,,,,,,,,,,,,,,,,,,,,,,,,,,,,,,,,,,,,,,,,,,,,,,,,,,,,,,,,,,,,,,,,,,,,,,,,,,,
1768292616.610839,1768292616.612305,57.000000,0.000000,4324.230957,4319.615234,4313.333496,4333.333496,4311.538574,4313.461426,4309.615234,4304.615234,4309.871582,4305.256348,4520.384766,4522.820313,4413.717773,4477.307617,0.000000,2.000000,46.000000,,,,0.000000,4.000000,4.000000,4.000000,4.000000,4.000000,4.000000,4.000000,4.000000,4.000000,4.000000,4.000000,4.000000,4.000000,4.000000,100.000000,,,,,,,,,,,,,,,,,,,,,,,,,,,,,,,,,,,,,,,,,,,,,,,,,,,,,,,,,,,,,,,,,,,,,,,,,,,,,,,,,,,,,,,,,,,,,,,,,,,,,,,,,,,,,,,,,,,,,
1768292616.618647,1768292616.620013,58.000000,0.000000,4327.307617,4321.410156,4312.307617,4338.974121,4315.000000,4317.179688,4311.794922,4304.358887,4311.025879,4304.871582,4518.974121,4523.974121,4411.153809,4474.487305,0.000000,2.000000,46.000000,,,,0.000000,4.000000,4.000000,4.000000,4.000000,4.000000,4.000000,4.000000,4.000000,4.000000,4.000000,4.000000,4.000000,4.000000,4.000000,100.000000,,,,,,,,,,,,,,,,,,,,,,,,,,,,,,,,,,,,,,,,,,,,,,,,,,,,,,,,,,,,,,,,,,,,,,,,,,,,,,,,,,,,,,,,,,,,,,,,,,,,,,,,,,,,,,,,,,,,,
1768292616.626455,1768292616.627822,59.000000,0.000000,4319.230957,4312.948730,4309.743652,4337.179688,4313.205078,4318.077148,4310.384766,4305.000000,4309.871582,4301.922852,4511.025879,4522.179688,4402.436035,4472.692383,0.000000,2.000000,46.000000,,,,0.000000,4.000000,4.000000,4.000000,4.000000,4.000000,4.000000,4.000000,4.000000,4.000000,4.000000,4.000000,4.000000,4.000000,4.000000,100.000000,,,,,,,,,,,,,,,,,,,,,,,,,,,,,,,,,,,,,,,,,,,,,,,,,,,,,,,,,,,,,,,,,,,,,,,,,,,,,,,,,,,,,,,,,,,,,,,,,,,,,,,,,,,,,,,,,,,,,
1768292616.634264,1768292616.635430,60.000000,0.000000,4310.256348,4303.717773,4301.666504,4327.948730,4309.358887,4316.666504,4311.538574,4304.487305,4310.256348,4299.615234,4504.358887,4521.025879,4394.358887,4472.307617,0.000000,2.000000,46.000000,,,,0.000000,4.000000,4.000000,4.000000,4.000000,4.000000,4.000000,4.000000,4.000000,4.000000,4.000000,4.000000,4.000000,4.000000,4.000000,100.000000,,,,,,,,,,,,,,,,,,,,,,,,,,,,,,,,,,,,,,,,,,,,,,,,,,,,,,,,,,,,,,,,,,,,,,,,,,,,,,,,,,,,,,,,,,,,,,,,,,,,,,,,,,,,,,,,,,,,,
1768292616.642072,1768292616.643239,61.000000,0.000000,4310.128418,4303.589844,4300.256348,4326.538574,4310.641113,4318.205078,4315.769043,4308.461426,4319.358887,4303.589844,4505.897461,4526.538574,4395.384766,4471.794922,0.000000,2.000000,46.000000,,,,0.000000,4.000000,4.000000,4.000000,4.000000,4.000000,4.000000,4.000000,4.000000,4.000000,4.000000,4.000000,4.000000,4.000000,4.000000,100.000000,,,,,,,,,,,,,,,,,,,,,,,,,,,,,,,,,,,,,,,,,,,,,,,,,,,,,,,,,,,,,,,,,,,,,,,,,,,,,,,,,,,,,,,,,,,,,,,,,,,,,,,,,,,,,,,,,,,,,
1768292616.649881,1768292616.650947,62.000000,0.000000,4322.436035,4312.692383,4309.487305,4338.333496,4317.563965,4320.769043,4316.025879,4319.615234,4330.384766,4313.461426,4517.051270,4541.025879,4407.692383,4479.615234,0.000000,2.000000,46.000000,,,,0.000000,4.000000,4.000000,4.000000,4.000000,4.000000,4.000000,4.000000,4.000000,4.000000,4.000000,4.000000,4.000000,4.000000,4.000000,100.000000,,,,,,,,,,,,,,,,,,,,,,,,,,,,,,,,,,,,,,,,,,,,,,,,,,,,,,,,,,,,,,,,,,,,,,,,,,,,,,,,,,,,,,,,,,,,,,,,,,,,,,,,,,,,,,,,,,,,,
1768292616.657689,1768292616.658756,63.000000,0.000000,4338.846191,4325.641113,4313.589844,4350.128418,4325.128418,4322.307617,4316.922852,4324.487305,4332.436035,4324.102539,4528.077148,4552.820313,4419.102539,4494.487305,0.000000,2.000000,46.000000,,,,0.000000,4.000000,4.000000,4.000000,4.000000,4.000000,4.000000,4.000000,4.000000,4.000000,4.000000,4.000000,4.000000,4.000000,4.000000,100.000000,,,,,,,,,,,,,,,,,,,,,,,,,,,,,,,,,,,,,,,,,,,,,,,,,,,,,,,,,,,,,,,,,,,,,,,,,,,,,,,,,,,,,,,,,,,,,,,,,,,,,,,,,,,,,,,,,,,,,
1768292616.665497,1768292616.666364,64.000000,0.000000,4339.743652,4327.307617,4310.641113,4348.589844,4323.077148,4318.205078,4316.922852,4316.922852,4330.512695,4323.205078,4527.563965,4548.717773,4417.948730,4496.794922,2282.000000,2.000000,46.000000,,,,0.000000,4.000000,4.000000,4.000000,4.000000,4.000000,4.000000,4.000000,4.000000,4.000000,4.000000,4.000000,4.000000,4.000000,4.000000,100.000000,,,,,,,,,,,,,,,,,,,,,,,,,,,,,,,,,,,,,,,,,,,,,,,,0.793047,0.833043,0.267231,0.264914,0.139651,0.743672,0.227252,0.226263,0.158610,0.086454,0.210714,0.214548,0.049545,0.115918,0.044316,0.301031,0.294153,0.072285,0.113938,0.086186,1.639538,0.218423,0.102791,0.121495,0.054985,0.125010,0.042349,0.100780,0.097565,0.055715,0.117986,0.075725,0.143147,0.095776,0.090452,0.398923,0.199920,0.319247,0.221667,0.093017,0.160013,0.230809,0.256269,0.167477,0.065397,1.043918,1.076777,0.534487,0.202210,0.118513,0.488611,0.511862,0.468410,0.296399,0.093423,0.502339,0.982144,0.483997,0.347406,0.117307,1.049007,0.736202,0.470772,0.300273,0.164943,0.642886,0.639098,0.595168,0.288663,0.145190
1768292616.673306,1768292616.674173,65.000000,0.000000,4328.333496,4319.615234,4309.487305,4340.641113,4316.922852,4312.948730,4313.077148,4309.230957,4326.282227,4311.282227,4521.666504,4537.692383,4411.666504,4489.743652,4011.000000,2.000000,46.000000,,,,0.000000,4.000000,4.000000,4.000000,4.000000,4.000000,4.000000,4.000000,4.000000,4.000000,4.000000,4.000000,4.000000,4.000000,4.000000,100.000000,,,,,,,,,,,,,,,,,,,,,,,,,,,,,,,,,,,,,,,,,,,,,,,,,,,,,,,,,,,,,,,,,,,,,,,,,,,,,,,,,,,,,,,,,,,,,,,,,,,,,,,,,,,,,,,,,,,,,
1768292616.681114,1768292616.681881,66.000000,0.000000,4325.256348,4319.358887,4309.743652,4337.051270,4317.051270,4315.897461,4312.820313,4306.794922,4320.641113,4308.461426,4522.307617,4532.692383,4411.538574,4485.897461,3957.000000,2.000000,46.000000,,,,0.000000,4.000000,4.000000,4.000000,4.000000,4.000000,4.000000,4.000000,4.000000,4.000000,4.000000,4.000000,4.000000,4.000000,4.000000,100.000000,,,,,,,,,,,,,,,,,,,,,,,,,,,,,,,,,,,,,,,,,,,,,,,,,,,,,,,,,,,,,,,,,,,,,,,,,,,,,,,,,,,,,,,,,,,,,,,,,,,,,,,,,,,,,,,,,,,,,
1768292616.688923,1768292616.689690,67.000000,0.000000,4328.205078,4317.692383,4308.333496,4331.922852,4314.358887,4318.589844,4312.307617,4309.230957,4322.051270,4314.487305,4523.717773,4528.717773,4409.487305,4482.307617,3882.000000,2.000000,46.000000,,,,0.000000,4.000000,4.000000,4.000000,4.000000,4.000000,4.000000,4.000000,4.000000,4.000000,4.000000,4.000000,4.000000,4.000000,4.000000,100.000000,,,,,,,,,,,,,,,,,,,,,,,,,,,,,,,,,,,,,,,,,,,,,,,,,,,,,,,,,,,,,,,,,,,,,,,,,,,,,,,,,,,,,,,,,,,,,,,,,,,,,,,,,,,,,,,,,,,,,
1768292616.696731,1768292616.697698,68.000000,0.000000,4326.538574,4311.410156,4306.538574,4327.948730,4311.410156,4313.717773,4309.743652,4308.205078,4319.743652,4312.948730,4516.153809,4525.641113,4402.948730,4475.641113,3727.000000,2.000000,46.000000,,,,0.000000,4.000000,4.000000,4.000000,4.000000,4.000000,4.000000,4.000000,4.000000,4.000000,4.000000,4.000000,4.000000,4.000000,4.000000,100.000000,,,,,,,,,,,,,,,,,,,,,,,,,,,,,,,,,,,,,,,,,,,,,,,,,,,,,,,,,,,,,,,,,,,,,,,,,,,,,,,,,,,,,,,,,,,,,,,,,,,,,,,,,,,,,,,,,,,,,
1768292616.704540,1768292616.705507,69.000000,0.000000,4326.282227,4313.846191,4308.717773,4333.205078,4313.846191,4312.948730,4313.205078,4298.717773,4311.794922,4309.871582,4510.512695,4527.563965,4405.384766,4477.563965,2823.000000,2.000000,46.000000,,,,0.000000,4.000000,4.000000,4.000000,4.000000,4.000000,4.000000,4.000000,4.000000,4.000000,4.000000,4.000000,4.000000,4.000000,4.000000,100.000000,,,,,,,,,,,,,,,,,,,,,,,,,,,,,,,,,,,,,,,,,,,,,,,,,,,,,,,,,,,,,,,,,,,,,,,,,,,,,,,,,,,,,,,,,,,,,,,,,,,,,,,,,,,,,,,,,,,,,
1768292616.712348,1768292616.713415,70.000000,0.000000,4330.256348,4316.538574,4312.948730,4336.538574,4316.025879,4315.384766,4313.717773,4293.333496,4310.256348,4310.384766,4509.230957,4526.282227,4411.922852,4482.051270,2585.000000,2.000000,46.000000,,,,0.000000,4.000000,4.000000,4.000000,4.000000,4.000000,4.000000,4.000000,4.000000,4.000000,4.000000,4.000000,4.000000,4.000000,4.000000,100.000000,,,,,,,,,,,,,,,,,,,,,,,,,,,,,,,,,,,,,,,,,,,,,,,,,,,,,,,,,,,,,,,,,,,,,,,,,,,,,,,,,,,,,,,,,,,,,,,,,,,,,,,,,,,,,,,,,,,,,
1768292616.720156,1768292616.721223,71.000000,0.000000,4332.692383,4314.358887,4312.436035,4331.538574,4310.641113,4313.974121,4310.384766,4305.000000,4315.512695,4313.589844,4510.897461,4526.025879,4412.179688,4477.307617,4044.000000,2.000000,46.000000,,,,0.000000,4.000000,4.000000,4.000000,4.000000,4.000000,4.000000,4.000000,4.000000,4.000000,4.000000,4.000000,4.000000,4.000000,4.000000,100.000000,,,,,,,,,,,,,,,,,,,,,,,,,,,,,,,,,,,,,,,,,,,,,,,,,,,,,,,,,,,,,,,,,,,,,,,,,,,,,,,,,,,,,,,,,,,,,,,,,,,,,,,,,,,,,,,,,,,,,
1768292616.727965,1768292616.728832,72.000000,0.000000,4336.538574,4317.563965,4311.025879,4331.794922,4310.128418,4315.769043,4315.256348,4314.615234,4322.179688,4319.871582,4517.307617,4537.179688,4411.666504,4479.743652,3418.000000,2.000000,46.000000,,,,0.000000,4.000000,4.000000,4.000000,4.000000,4.000000,4.000000,4.000000,4.000000,4.000000,4.000000,4.000000,4.000000,4.000000,4.000000,100.000000,,,,,,,,,,,,,,,,,,,,,,,,,,,,,,,,,,,,,,,,,,,,,,,,,,,,,,,,,,,,,,,,,,,,,,,,,,,,,,,,,,,,,,,,,,,,,,,,,,,,,,,,,,,,,,,,,,,,,
1768292616.735773,1768292616.736641,73.000000,0.000000,4341.794922,4323.077148,4315.769043,4336.282227,4318.717773,4319.615234,4320.256348,4310.769043,4326.666504,4324.102539,4524.743652,4542.948730,4412.820313,4492.692383,3837.000000,2.000000,46.000000,,,,0.000000,4.000000,4.000000,4.000000,4.000000,4.000000,4.000000,4.000000,4.000000,4.000000,4.000000,4.000000,4.000000,4.000000,4.000000,100.000000,,,,,,,,,,,,,,,,,,,,,,,,,,,,,,,,,,,,,,,,,,,,,,,,,,,,,,,,,,,,,,,,,,,,,,,,,,,,,,,,,,,,,,,,,,,,,,,,,,,,,,,,,,,,,,,,,,,,,
1768292616.743582,1768292616.744349,74.000000,0.000000,4337.692383,4319.102539,4317.948730,4332.436035,4318.589844,4317.436035,4319.487305,4309.358887,4329.358887,4319.871582,4520.000000,4537.820313,4410.384766,4490.641113,4335.000000,2.000000,46.000000,,,,0.000000,4.000000,4.000000,4.000000,4.000000,4.000000,4.000000,4.000000,4.000000,4.000000,4.000000,4.000000,4.000000,4.000000,4.000000,100.000000,,,,,,,,,,,,,,,,,,,,,,,,,,,,,,,,,,,,,,,,,,,,,,,,,,,,,,,,,,,,,,,,,,,,,,,,,,,,,,,,,,,,,,,,,,,,,,,,,,,,,,,,,,,,,,,,,,,,,
1768292616.751390,1768292616.752157,75.000000,0.000000,4327.692383,4311.666504,4310.641113,4327.051270,4310.769043,4315.000000,4319.102539,4312.307617,4325.256348,4313.974121,4509.230957,4538.205078,4405.897461,4476.410156,4742.000000,2.000000,46.000000,,,,0.000000,4.000000,4.000000,4.000000,4.000000,4.000000,4.000000,4.000000,4.000000,4.000000,4.000000,4.000000,4.000000,4.000000,4.000000,100.000000,,,,,,,,,,,,,,,,,,,,,,,,,,,,,,,,,,,,,,,,,,,,,,,,,,,,,,,,,,,,,,,,,,,,,,,,,,,,,,,,,,,,,,,,,,,,,,,,,,,,,,,,,,,,,,,,,,,,,
1768292616.759199,1768292616.760166,76.000000,0.000000,4324.615234,4308.846191,4305.512695,4326.153809,4309.358887,4317.692383,4318.589844,4309.487305,4316.794922,4312.051270,4507.820313,4538.077148,4400.384766,4475.000000,4741.000000,2.000000,46.000000,,,,0.000000,4.000000,4.000000,4.000000,4.000000,4.000000,4.000000,4.000000,4.000000,4.000000,4.000000,4.000000,4.000000,4.000000,4.000000,100.000000,,,,,,,,,,,,,,,,,,,,,,,,,,,,,,,,,,,,,,,,,,,,,,,,,,,,,,,,,,,,,,,,,,,,,,,,,,,,,,,,,,,,,,,,,,,,,,,,,,,,,,,,,,,,,,,,,,,,,
1768292616.767007,1768292616.767974,77.000000,0.000000,4325.256348,4308.205078,4307.692383,4326.282227,4312.436035,4314.743652,4315.769043,4302.179688,4309.358887,4306.153809,4508.077148,4528.077148,4396.410156,4477.436035,5639.000000,2.000000,46.000000,,,,0.000000,4.000000,4.000000,4.000000,4.000000,4.000000,4.000000,4.000000,4.000000,4.000000,4.000000,4.000000,4.000000,4.000000,4.000000,100.000000,,,,,,,,,,,,,,,,,,,,,,,,,,,,,,,,,,,,,,,,,,,,,,,,,,,,,,,,,,,,,,,,,,,,,,,,,,,,,,,,,,,,,,,,,,,,,,,,,,,,,,,,,,,,,,,,,,,,,
1768292616.774815,1768292616.775883,78.000000,0.000000,4321.410156,4307.179688,4309.487305,4327.307617,4309.230957,4308.333496,4311.153809,4295.256348,4307.948730,4297.051270,4503.974121,4519.230957,4395.641113,4472.179688,4335.000000,2.000000,46.000000,,,,0.000000,4.000000,4.000000,4.000000,4.000000,4.000000,4.000000,4.000000,4.000000,4.000000,4.000000,4.000000,4.000000,4.000000,4.000000,100.000000,,,,,,,,,,,,,,,,,,,,,,,,,,,,,,,,,,,,,,,,,,,,,,,,,,,,,,,,,,,,,,,,,,,,,,,,,,,,,,,,,,,,,,,,,,,,,,,,,,,,,,,,,,,,,,,,,,,,,
1768292616.782624,1768292616.783691,79.000000,0.000000,4319.743652,4307.436035,4309.230957,4328.589844,4306.666504,4308.205078,4307.307617,4292.051270,4309.487305,4292.820313,4504.487305,4519.615234,4395.384766,4472.307617,4742.000000,2.000000,46.000000,,,,0.000000,4.000000,4.000000,4.000000,4.000000,4.000000,4.000000,4.000000,4.000000,4.000000,4.000000,4.000000,4.000000,4.000000,4.000000,100.000000,,,,,,,,,,,,,,,,,,,,,,,,,,,,,,,,,,,,,,,,,,,,,,,,,,,,,,,,,,,,,,,,,,,,,,,,,,,,,,,,,,,,,,,,,,,,,,,,,,,,,,,,,,,,,,,,,,,,,
1768292616.790432,1768292616.791699,80.000000,0.000000,4324.102539,4310.641113,4309.487305,4329.358887,4307.948730,4311.025879,4311.538574,4297.051270,4310.128418,4294.743652,4508.077148,4524.487305,4401.538574,4478.589844,4741.000000,2.000000,46.000000,,,,0.000000,4.000000,4.000000,4.000000,4.000000,4.000000,4.000000,4.000000,4.000000,4.000000,4.000000,4.000000,4.000000,4.000000,4.000000,100.000000,1.000000,8.333333,4.000000,4.000000,1.000000,4.000000,4.000000,0.000000,0.000000,4.000000,4.000000,4.000000,4.000000,4.000000,4.000000,4.000000,,,,,,,,,,,,,,,,,,,,,,,,,,,,,,,,0.767384,0.728545,0.255483,0.272413,0.136873,0.636890,0.187126,0.188623,0.157061,0.097420,0.178278,0.177798,0.060588,0.115757,0.040589,0.314034,0.251067,0.084310,0.121285,0.101398,1.621732,0.210647,0.113215,0.120484,0.056660,0.123369,0.038554,0.119721,0.098047,0.051174,0.140633,0.070522,0.164394,0.103520,0.079090,0.424205,0.180113,0.339232,0.225804,0.091223,0.196325,0.223462,0.258355,0.171012,0.069928,1.106717,1.017413,0.530818,0.213098,0.125079,0.538528,0.454286,0.472765,0.324232,0.095823,0.470473,0.801710,0.502679,0.378510,0.117014,1.057600,0.651996,0.435026,0.279161,0.172130,0.564835,0.567429,0.572673,0.303680,0.140637
1768292616.798241,1768292616.799508,81.000000,0.000000,4325.128418,4310.128418,4310.512695,4331.282227,4304.615234,4313.333496,4318.589844,4306.794922,4311.794922,4297.948730,4508.846191,4524.487305,4407.563965,4473.589844,5639.000000,2.000000,46.000000,,,,0.000000,4.000000,4.000000,4.000000,4.000000,4.000000,4.000000,4.000000,4.000000,4.000000,4.000000,4.000000,4.000000,4.000000,4.000000,100.000000,,,,,,,,,,,,,,,,,,,,,,,,,,,,,,,,,,,,,,,,,,,,,,,,,,,,,,,,,,,,,,,,,,,,,,,,,,,,,,,,,,,,,,,,,,,,,,,,,,,,,,,,,,,,,,,,,,,,,
1768292616.806049,1768292616.807216,82.000000,0.000000,4323.333496,4306.922852,4311.794922,4333.974121,4300.512695,4314.743652,4315.512695,4309.102539,4315.000000,4292.179688,4507.563965,4520.641113,4401.410156,4461.153809,4335.000000,2.000000,46.000000,,,,0.000000,4.000000,4.000000,4.000000,4.000000,4.000000,4.000000,4.000000,4.000000,4.000000,4.000000,4.000000,4.000000,4.000000,4.000000,100.000000,,,,,,,,,,,,,,,,,,,,,,,,,,,,,,,,,,,,,,,,,,,,,,,,,,,,,,,,,,,,,,,,,,,,,,,,,,,,,,,,,,,,,,,,,,,,,,,,,,,,,,,,,,,,,,,,,,,,,
1768292616.813857,1768292616.815025,83.000000,0.000000,4325.000000,4309.358887,4312.563965,4331.410156,4299.358887,4315.128418,4310.128418,4302.820313,4315.769043,4282.179688,4507.563965,4521.282227,4397.692383,4464.615234,4742.000000,2.000000,46.000000,,,,0.000000,4.000000,4.000000,4.000000,4.000000,4.000000,4.000000,4.000000,4.000000,4.000000,4.000000,4.000000,4.000000,4.000000,4.000000,100.000000,,,,,,,,,,,,,,,,,,,,,,,,,,,,,,,,,,,,,,,,,,,,,,,,,,,,,,,,,,,,,,,,,,,,,,,,,,,,,,,,,,,,,,,,,,,,,,,,,,,,,,,,,,,,,,,,,,,,,
1768292616.821666,1768292616.822633,84.000000,0.000000,4325.897461,4309.230957,4312.436035,4327.436035,4298.077148,4311.025879,4313.589844,4303.461426,4313.077148,4282.692383,4509.102539,4525.128418,4403.717773,4474.230957,4741.000000,2.000000,46.000000,,,,0.000000,4.000000,4.000000,4.000000,4.000000,4.000000,4.000000,4.000000,4.000000,4.000000,4.000000,4.000000,4.000000,4.000000,4.000000,100.000000,,,,,,,,,,,,,,,,,,,,,,,,,,,,,,,,,,,,,,,,,,,,,,,,,,,,,,,,,,,,,,,,,,,,,,,,,,,,,,,,,,,,,,,,,,,,,,,,,,,,,,,,,,,,,,,,,,,,,
1768292616.829474,1768292616.830442,85.000000,0.000000,4322.820313,4303.461426,4309.743652,4325.641113,4294.230957,4310.512695,4316.538574,4309.487305,4312.692383,4286.025879,4509.615234,4523.846191,4402.307617,4468.974121,5639.000000,2.000000,46.000000,,,,0.000000,4.000000,4.000000,4.000000,4.000000,4.000000,4.000000,4.000000,4.000000,4.000000,4.000000,4.000000,4.000000,4.000000,4.000000,100.000000,,,,,,,,,,,,,,,,,,,,,,,,,,,,,,,,,,,,,,,,,,,,,,,,,,,,,,,,,,,,,,,,,,,,,,,,,,,,,,,,,,,,,,,,,,,,,,,,,,,,,,,,,,,,,,,,,,,,,
1768292616.837283,1768292616.838150,86.000000,0.000000,4321.153809,4303.205078,4309.871582,4327.563965,4295.512695,4315.512695,4315.641113,4303.077148,4313.974121,4282.820313,4506.666504,4517.179688,4393.974121,4462.820313,4335.000000,2.000000,46.000000,,,,0.000000,4.000000,4.000000,4.000000,4.000000,4.000000,4.000000,4.000000,4.000000,4.000000,4.000000,4.000000,4.000000,4.000000,4.000000,100.000000,,,,,,,,,,,,,,,,,,,,,,,,,,,,,,,,,,,,,,,,,,,,,,,,,,,,,,,,,,,,,,,,,,,,,,,,,,,,,,,,,,,,,,,,,,,,,,,,,,,,,,,,,,,,,,,,,,,,,
1768292616.845091,1768292616.845959,87.000000,0.000000,4326.410156,4309.871582,4313.461426,4334.230957,4299.102539,4318.846191,4315.897461,4295.641113,4312.179688,4282.179688,4507.051270,4520.256348,4397.692383,4471.282227,4742.000000,2.000000,46.000000,,,,0.000000,4.000000,4.000000,4.000000,4.000000,4.000000,4.000000,4.000000,4.000000,4.000000,4.000000,4.000000,4.000000,4.000000,4.000000,100.000000,,,,,,,,,,,,,,,,,,,,,,,,,,,,,,,,,,,,,,,,,,,,,,,,,,,,,,,,,,,,,,,,,,,,,,,,,,,,,,,,,,,,,,,,,,,,,,,,,,,,,,,,,,,,,,,,,,,,,
1768292616.852900,1768292616.853567,88.000000,0.000000,4331.282227,4312.563965,4313.205078,4336.410156,4299.102539,4316.282227,4313.846191,4300.000000,4310.641113,4284.230957,4509.230957,4529.871582,4406.922852,4477.820313,4741.000000,2.000000,46.000000,,,,0.000000,4.000000,4.000000,4.000000,4.000000,4.000000,4.000000,4.000000,4.000000,4.000000,4.000000,4.000000,4.000000,4.000000,4.000000,100.000000,,,,,,,,,,,,,,,,,,,,,,,,,,,,,,,,,,,,,,,,,,,,,,,,,,,,,,,,,,,,,,,,,,,,,,,,,,,,,,,,,,,,,,,,,,,,,,,,,,,,,,,,,,,,,,,,,,,,,
1768292616.860708,1768292616.861376,89.000000,0.000000,4332.563965,4310.769043,4312.948730,4336.153809,4300.384766,4316.538574,4313.461426,4304.871582,4309.743652,4285.384766,4509.230957,4530.128418,4410.897461,4476.153809,5639.000000,2.000000,46.000000,,,,0.000000,4.000000,4.000000,4.000000,4.000000,4.000000,4.000000,4.000000,4.000000,4.000000,4.000000,4.000000,4.000000,4.000000,4.000000,100.000000,,,,,,,,,,,,,,,,,,,,,,,,,,,,,,,,,,,,,,,,,,,,,,,,,,,,,,,,,,,,,,,,,,,,,,,,,,,,,,,,,,,,,,,,,,,,,,,,,,,,,,,,,,,,,,,,,,,,,
1768292616.868516,1768292616.869084,90.000000,0.000000,4333.589844,4312.051270,4315.897461,4340.000000,4304.102539,4320.769043,4314.743652,4305.128418,4313.333496,4291.282227,4512.692383,4526.153809,4411.282227,4475.641113,4335.000000,2.000000,46.000000,,,,0.000000,4.000000,4.000000,4.000000,4.000000,4.000000,4.000000,4.000000,4.000000,4.000000,4.000000,4.000000,4.000000,4.000000,4.000000,100.000000,,,,,,,,,,,,,,,,,,,,,,,,,,,,,,,,,,,,,,,,,,,,,,,,,,,,,,,,,,,,,,,,,,,,,,,,,,,,,,,,,,,,,,,,,,,,,,,,,,,,,,,,,,,,,,,,,,,,,
1768292616.876325,1768292616.876893,91.000000,0.000000,4330.512695,4312.820313,4313.589844,4339.102539,4303.333496,4317.179688,4310.000000,4306.794922,4318.717773,4295.769043,4512.692383,4526.410156,4407.563965,4474.871582,4742.000000,2.000000,46.000000,,,,0.000000,4.000000,4.000000,4.000000,4.000000,4.000000,4.000000,4.000000,4.000000,4.000000,4.000000,4.000000,4.000000,4.000000,4.000000,100.000000,,,,,,,,,,,,,,,,,,,,,,,,,,,,,,,,,,,,,,,,,,,,,,,,,,,,,,,,,,,,,,,,,,,,,,,,,,,,,,,,,,,,,,,,,,,,,,,,,,,,,,,,,,,,,,,,,,,,,
1768292616.884133,1768292616.884502,92.000000,0.000000,4328.077148,4311.410156,4305.897461,4333.717773,4297.051270,4311.410156,4307.179688,4307.948730,4316.025879,4292.692383,4508.205078,4525.897461,4403.461426,4474.358887,4741.000000,2.000000,46.000000,,,,0.000000,4.000000,4.000000,4.000000,4.000000,4.000000,4.000000,4.000000,4.000000,4.000000,4.000000,4.000000,4.000000,4.000000,4.000000,100.000000,,,,,,,,,,,,,,,,,,,,,,,,,,,,,,,,,,,,,,,,,,,,,,,,,,,,,,,,,,,,,,,,,,,,,,,,,,,,,,,,,,,,,,,,,,,,,,,,,,,,,,,,,,,,,,,,,,,,,
1768292616.891942,1768292616.892310,93.000000,0.000000,4332.820313,4311.410156,4305.000000,4334.102539,4295.897461,4312.307617,4311.025879,4307.563965,4311.282227,4293.974121,4514.358887,4523.717773,4406.025879,4473.205078,5639.000000,2.000000,46.000000,,,,0.000000,4.000000,4.000000,4.000000,4.000000,4.000000,4.000000,4.000000,4.000000,4.000000,4.000000,4.000000,4.000000,4.000000,4.000000,100.000000,,,,,,,,,,,,,,,,,,,,,,,,,,,,,,,,,,,,,,,,,,,,,,,,,,,,,,,,,,,,,,,,,,,,,,,,,,,,,,,,,,,,,,,,,,,,,,,,,,,,,,,,,,,,,,,,,,,,,
1768292616.899750,1768292616.900218,94.000000,0.000000,4337.179688,4312.179688,4308.589844,4338.461426,4301.666504,4314.358887,4313.333496,4307.436035,4311.666504,4296.153809,4519.487305,4525.384766,4411.794922,4472.692383,4335.000000,2.000000,46.000000,,,,0.000000,4.000000,4.000000,4.000000,4.000000,4.000000,4.000000,4.000000,4.000000,4.000000,4.000000,4.000000,4.000000,4.000000,4.000000,100.000000,,,,,,,,,,,,,,,,,,,,,,,,,,,,,,,,,,,,,,,,,,,,,,,,,,,,,,,,,,,,,,,,,,,,,,,,,,,,,,,,,,,,,,,,,,,,,,,,,,,,,,,,,,,,,,,,,,,,,
1768292616.907559,1768292616.908027,95.000000,0.000000,4336.153809,4312.563965,4310.769043,4340.384766,4306.794922,4317.307617,4318.205078,4308.205078,4315.256348,4293.846191,4513.461426,4526.025879,4408.846191,4476.922852,4742.000000,2.000000,46.000000,,,,0.000000,4.000000,4.000000,4.000000,4.000000,4.000000,4.000000,4.000000,4.000000,4.000000,4.000000,4.000000,4.000000,4.000000,4.000000,100.000000,,,,,,,,,,,,,,,,,,,,,,,,,,,,,,,,,,,,,,,,,,,,,,,,,,,,,,,,,,,,,,,,,,,,,,,,,,,,,,,,,,,,,,,,,,,,,,,,,,,,,,,,,,,,,,,,,,,,,
1768292616.915367,1768292616.916035,96.000000,0.000000,4334.743652,4311.410156,4309.871582,4340.512695,4306.922852,4318.077148,4323.846191,4311.025879,4317.051270,4295.256348,4511.025879,4523.717773,4403.205078,4475.384766,4741.000000,2.000000,46.000000,,,,0.000000,4.000000,4.000000,4.000000,4.000000,4.000000,4.000000,4.000000,4.000000,4.000000,4.000000,4.000000,4.000000,4.000000,4.000000,100.000000,,,,,,,,,,,,,,,,,,,,,,,,,,,,,,,,,,,,,,,,,,,,,,,,0.819038,0.631318,0.240370,0.285544,0.144654,0.524345,0.157579,0.147835,0.156641,0.111543,0.175632,0.140397,0.073444,0.115598,0.038655,0.348414,0.213260,0.115977,0.131302,0.117925,1.562979,0.192808,0.123789,0.114191,0.057400,0.108916,0.038891,0.135324,0.096238,0.049102,0.154031,0.065504,0.187572,0.108720,0.068503,0.428548,0.162965,0.345171,0.235557,0.091172,0.222029,0.216852,0.249057,0.177044,0.074380,1.082111,0.927528,0.493907,0.224754,0.129195,0.565584,0.364166,0.477734,0.369144,0.102049,0.456832,0.594259,0.509924,0.428243,0.122253,1.022229,0.527392,0.402091,0.272236,0.181720,0.534995,0.498216,0.526357,0.330344,0.143899
1768292616.923175,1768292616.923843,97.000000,0.000000,4331.666504,4310.256348,4308.077148,4336.410156,4303.589844,4314.615234,4317.436035,4308.846191,4316.410156,4300.256348,4512.179688,4523.461426,4402.563965,4462.436035,5639.000000,2.000000,46.000000,,,,0.000000,4.000000,4.000000,4.000000,4.000000,4.000000,4.000000,4.000000,4.000000,4.000000,4.000000,4.000000,4.000000,4.000000,4.000000,100.000000,,,,,,,,,,,,,,,,,,,,,,,,,,,,,,,,,,,,,,,,,,,,,,,,,,,,,,,,,,,,,,,,,,,,,,,,,,,,,,,,,,,,,,,,,,,,,,,,,,,,,,,,,,,,,,,,,,,,,
1768292616.930984,1768292616.931552,98.000000,0.000000,4328.589844,4310.256348,4308.846191,4332.179688,4305.512695,4315.000000,4314.743652,4305.384766,4317.436035,4304.102539,4508.333496,4522.563965,4401.025879,4458.846191,4335.000000,2.000000,46.000000,,,,0.000000,4.000000,4.000000,4.000000,4.000000,4.000000,4.000000,4.000000,4.000000,4.000000,4.000000,4.000000,4.000000,4.000000,4.000000,100.000000,,,,,,,,,,,,,,,,,,,,,,,,,,,,,,,,,,,,,,,,,,,,,,,,,,,,,,,,,,,,,,,,,,,,,,,,,,,,,,,,,,,,,,,,,,,,,,,,,,,,,,,,,,,,,,,,,,,,,
1768292616.938792,1768292616.939360,99.000000,0.000000,4329.487305,4310.641113,4309.102539,4334.871582,4309.615234,4315.384766,4316.410156,4308.717773,4317.692383,4304.358887,4508.333496,4523.846191,4397.948730,4467.948730,4742.000000,2.000000,46.000000,,,,0.000000,4.000000,4.000000,4.000000,4.000000,4.000000,4.000000,4.000000,4.000000,4.000000,4.000000,4.000000,4.000000,4.000000,4.000000,100.000000,,,,,,,,,,,,,,,,,,,,,,,,,,,,,,,,,,,,,,,,,,,,,,,,,,,,,,,,,,,,,,,,,,,,,,,,,,,,,,,,,,,,,,,,,,,,,,,,,,,,,,,,,,,,,,,,,,,,,
1768292616.946601,1768292616.946969,100.000000,0.000000,4329.358887,4308.974121,4309.230957,4336.282227,4309.102539,4308.205078,4308.846191,4310.641113,4313.589844,4305.256348,4511.025879,4525.641113,4396.666504,4466.922852,4741.000000,2.000000,46.000000,,,,0.000000,4.000000,4.000000,4.000000,4.000000,4.000000,4.000000,4.000000,4.000000,4.000000,4.000000,4.000000,4.000000,4.000000,4.000000,100.000000,,,,,,,,,,,,,,,,,,,,,,,,,,,,,,,,,,,,,,,,,,,,,,,,,,,,,,,,,,,,,,,,,,,,,,,,,,,,,,,,,,,,,,,,,,,,,,,,,,,,,,,,,,,,,,,,,,,,,
1768292616.954409,1768292616.954778,101.000000,0.000000,4325.256348,4306.282227,4309.102539,4331.153809,4306.025879,4308.077148,4307.307617,4311.025879,4310.641113,4308.589844,4507.563965,4523.077148,4395.897461,4459.615234,5639.000000,2.000000,46.000000,,,,0.000000,4.000000,4.000000,4.000000,4.000000,4.000000,4.000000,4.000000,4.000000,4.000000,4.000000,4.000000,4.000000,4.000000,4.000000,100.000000,,,,,,,,,,,,,,,,,,,,,,,,,,,,,,,,,,,,,,,,,,,,,,,,,,,,,,,,,,,,,,,,,,,,,,,,,,,,,,,,,,,,,,,,,,,,,,,,,,,,,,,,,,,,,,,,,,,,,
1768292616.962217,1768292616.962686,102.000000,0.000000,4326.153809,4306.922852,4311.025879,4326.410156,4306.153809,4315.256348,4315.512695,4312.692383,4313.461426,4310.128418,4506.666504,4522.692383,4395.128418,4465.256348,4335.000000,2.000000,46.000000,,,,0.000000,4.000000,4.000000,4.000000,4.000000,4.000000,4.000000,4.000000,4.000000,4.000000,4.000000,4.000000,4.000000,4.000000,4.000000,100.000000,,,,,,,,,,,,,,,,,,,,,,,,,,,,,,,,,,,,,,,,,,,,,,,,,,,,,,,,,,,,,,,,,,,,,,,,,,,,,,,,,,,,,,,,,,,,,,,,,,,,,,,,,,,,,,,,,,,,,
1768292616.970026,1768292616.970494,103.000000,0.000000,4335.000000,4310.641113,4312.692383,4328.333496,4307.563965,4315.769043,4316.666504,4311.922852,4317.563965,4308.461426,4515.769043,4532.563965,4398.461426,4475.128418,4742.000000,2.000000,46.000000,,,,0.000000,4.000000,4.000000,4.000000,4.000000,4.000000,4.000000,4.000000,4.000000,4.000000,4.000000,4.000000,4.000000,4.000000,4.000000,100.000000,,,,,,,,,,,,,,,,,,,,,,,,,,,,,,,,,,,,,,,,,,,,,,,,,,,,,,,,,,,,,,,,,,,,,,,,,,,,,,,,,,,,,,,,,,,,,,,,,,,,,,,,,,,,,,,,,,,,,
1768292616.977834,1768292616.978503,104.000000,0.000000,4336.153809,4310.769043,4313.077148,4331.025879,4306.794922,4313.461426,4312.692383,4316.153809,4323.333496,4307.179688,4518.205078,4540.512695,4399.230957,4475.256348,4741.000000,2.000000,46.000000,,,,0.000000,4.000000,4.000000,4.000000,4.000000,4.000000,4.000000,4.000000,4.000000,4.000000,4.000000,4.000000,4.000000,4.000000,4.000000,100.000000,,,,,,,,,,,,,,,,,,,,,,,,,,,,,,,,,,,,,,,,,,,,,,,,,,,,,,,,,,,,,,,,,,,,,,,,,,,,,,,,,,,,,,,,,,,,,,,,,,,,,,,,,,,,,,,,,,,,,
1768292616.985643,1768292616.986311,105.000000,0.000000,4331.025879,4308.205078,4313.846191,4332.179688,4306.410156,4314.871582,4313.461426,4321.282227,4327.436035,4308.846191,4511.410156,4537.820313,4396.666504,4473.846191,5639.000000,2.000000,46.000000,,,,0.000000,4.000000,4.000000,4.000000,4.000000,4.000000,4.000000,4.000000,4.000000,4.000000,4.000000,4.000000,4.000000,4.000000,4.000000,100.000000,,,,,,,,,,,,,,,,,,,,,,,,,,,,,,,,,,,,,,,,,,,,,,,,,,,,,,,,,,,,,,,,,,,,,,,,,,,,,,,,,,,,,,,,,,,,,,,,,,,,,,,,,,,,,,,,,,,,,
1768292616.993451,1768292616.994219,106.000000,0.000000,4332.820313,4310.641113,4313.461426,4335.384766,4307.948730,4314.743652,4315.256348,4314.487305,4319.358887,4312.307617,4510.641113,4535.769043,4399.102539,4477.307617,4335.000000,2.000000,46.000000,,,,0.000000,4.000000,4.000000,4.000000,4.000000,4.000000,4.000000,4.000000,4.000000,4.000000,4.000000,4.000000,4.000000,4.000000,4.000000,100.000000,,,,,,,,,,,,,,,,,,,,,,,,,,,,,,,,,,,,,,,,,,,,,,,,,,,,,,,,,,,,,,,,,,,,,,,,,,,,,,,,,,,,,,,,,,,,,,,,,,,,,,,,,,,,,,,,,,,,,
1768292617.001260,1768292617.002028,107.000000,0.000000,4333.333496,4310.128418,4313.205078,4333.461426,4306.538574,4315.256348,4316.282227,4310.512695,4315.000000,4310.256348,4512.692383,4536.666504,4398.333496,4473.974121,4742.000000,2.000000,46.000000,,,,0.000000,4.000000,4.000000,4.000000,4.000000,4.000000,4.000000,4.000000,4.000000,4.000000,4.000000,4.000000,4.000000,4.000000,4.000000,100.000000,,,,,,,,,,,,,,,,,,,,,,,,,,,,,,,,,,,,,,,,,,,,,,,,,,,,,,,,,,,,,,,,,,,,,,,,,,,,,,,,,,,,,,,,,,,,,,,,,,,,,,,,,,,,,,,,,,,,,
1768292617.009068,1768292617.009636,108.000000,0.000000,4327.307617,4303.461426,4310.000000,4327.436035,4304.871582,4316.922852,4316.794922,4314.615234,4317.692383,4299.358887,4507.307617,4533.589844,4390.512695,4464.871582,4741.000000,2.000000,46.000000,,,,0.000000,4.000000,4.000000,4.000000,4.000000,4.000000,4.000000,4.000000,4.000000,4.000000,4.000000,4.000000,4.000000,4.000000,4.000000,100.000000,,,,,,,,,,,,,,,,,,,,,,,,,,,,,,,,,,,,,,,,,,,,,,,,,,,,,,,,,,,,,,,,,,,,,,,,,,,,,,,,,,,,,,,,,,,,,,,,,,,,,,,,,,,,,,,,,,,,,
1768292617.016876,1768292617.017445,109.000000,0.000000,4327.051270,4304.358887,4307.692383,4328.461426,4306.922852,4314.487305,4317.563965,4312.692383,4313.589844,4295.384766,4503.846191,4532.051270,4386.666504,4462.948730,5639.000000,2.000000,46.000000,,,,0.000000,4.000000,4.000000,4.000000,4.000000,4.000000,4.000000,4.000000,4.000000,4.000000,4.000000,4.000000,4.000000,4.000000,4.000000,100.000000,,,,,,,,,,,,,,,,,,,,,,,,,,,,,,,,,,,,,,,,,,,,,,,,,,,,,,,,,,,,,,,,,,,,,,,,,,,,,,,,,,,,,,,,,,,,,,,,,,,,,,,,,,,,,,,,,,,,,
1768292617.024685,1768292617.025153,110.000000,0.000000,4334.743652,4311.666504,4310.384766,4337.692383,4310.384766,4314.615234,4318.717773,4308.846191,4311.666504,4302.563965,4506.794922,4534.487305,4389.358887,4468.461426,4335.000000,2.000000,46.000000,,,,0.000000,4.000000,4.000000,4.000000,4.000000,4.000000,4.000000,4.000000,4.000000,4.000000,4.000000,4.000000,4.000000,4.000000,4.000000,100.000000,,,,,,,,,,,,,,,,,,,,,,,,,,,,,,,,,,,,,,,,,,,,,,,,,,,,,,,,,,,,,,,,,,,,,,,,,,,,,,,,,,,,,,,,,,,,,,,,,,,,,,,,,,,,,,,,,,,,,
1768292617.032493,1768292617.032962,111.000000,0.000000,4340.641113,4313.461426,4316.666504,4343.846191,4312.179688,4318.717773,4317.179688,4311.410156,4316.666504,4302.692383,4508.589844,4538.077148,4389.871582,4474.871582,4742.000000,2.000000,46.000000,,,,0.000000,4.000000,4.000000,4.000000,4.000000,4.000000,4.000000,4.000000,4.000000,4.000000,4.000000,4.000000,4.000000,4.000000,4.000000,100.000000,,,,,,,,,,,,,,,,,,,,,,,,,,,,,,,,,,,,,,,,,,,,,,,,,,,,,,,,,,,,,,,,,,,,,,,,,,,,,,,,,,,,,,,,,,,,,,,,,,,,,,,,,,,,,,,,,,,,,
1768292617.040302,1768292617.040571,112.000000,0.000000,4341.410156,4310.384766,4317.948730,4342.051270,4312.051270,4318.077148,4315.000000,4313.333496,4315.769043,4293.461426,4502.692383,4534.743652,4384.871582,4472.692383,4741.000000,2.000000,46.000000,,,,0.000000,4.000000,4.000000,4.000000,4.000000,4.000000,4.000000,4.000000,4.000000,4.000000,4.000000,4.000000,4.000000,4.000000,4.000000,100.000000,,,,,,,,,,,,,,,,,,,,,,,,,,,,,,,,,,,,,,,,,,,,,,,,0.932651,0.560901,0.239411,0.308619,0.157825,0.436263,0.147861,0.121307,0.162878,0.123755,0.200208,0.107607,0.087597,0.117534,0.037975,0.384727,0.187803,0.166368,0.146794,0.130777,1.467933,0.170691,0.133771,0.105261,0.057316,0.085630,0.044105,0.141252,0.092816,0.048389,0.152246,0.064661,0.202538,0.108770,0.060934,0.408462,0.171128,0.342485,0.247227,0.092005,0.237556,0.232653,0.237674,0.181764,0.076010,0.983008,0.840004,0.444583,0.235743,0.128459,0.556180,0.279395,0.494318,0.417847,0.107306,0.452123,0.437520,0.526082,0.481821,0.128540,0.917098,0.400231,0.382062,0.276697,0.184773,0.532908,0.441006,0.483048,0.360289,0.148831
1768292617.048110,1768292617.048379,113.000000,0.000000,4334.102539,4305.641113,4311.153809,4339.358887,4311.025879,4316.538574,4315.641113,4311.153809,4308.846191,4289.615234,4494.102539,4525.256348,4378.461426,4463.333496,5639.000000,2.000000,46.000000,,,,0.000000,4.000000,4.000000,4.000000,4.000000,4.000000,4.000000,4.000000,4.000000,4.000000,4.000000,4.000000,4.000000,4.000000,4.000000,100.000000,,,,,,,,,,,,,,,,,,,,,,,,,,,,,,,,,,,,,,,,,,,,,,,,,,,,,,,,,,,,,,,,,,,,,,,,,,,,,,,,,,,,,,,,,,,,,,,,,,,,,,,,,,,,,,,,,,,,,
1768292617.055919,1768292617.056088,114.000000,0.000000,4325.641113,4305.512695,4309.871582,4339.487305,4311.666504,4317.948730,4319.102539,4310.384766,4311.025879,4297.051270,4498.846191,4525.641113,4381.538574,4461.025879,4335.000000,2.000000,46.000000,,,,0.000000,4.000000,4.000000,4.000000,4.000000,4.000000,4.000000,4.000000,4.000000,4.000000,4.000000,4.000000,4.000000,4.000000,4.000000,100.000000,,,,,,,,,,,,,,,,,,,,,,,,,,,,,,,,,,,,,,,,,,,,,,,,,,,,,,,,,,,,,,,,,,,,,,,,,,,,,,,,,,,,,,,,,,,,,,,,,,,,,,,,,,,,,,,,,,,,,
1768292617.063727,1768292617.063896,115.000000,0.000000,4325.897461,4308.333496,4315.641113,4341.922852,4314.615234,4317.563965,4320.769043,4313.589844,4316.410156,4302.820313,4511.025879,4534.871582,4387.436035,4466.538574,4742.000000,2.000000,46.000000,,,,0.000000,4.000000,4.000000,4.000000,4.000000,4.000000,4.000000,4.000000,4.000000,4.000000,4.000000,4.000000,4.000000,4.000000,4.000000,100.000000,,,,,,,,,,,,,,,,,,,,,,,,,,,,,,,,,,,,,,,,,,,,,,,,,,,,,,,,,,,,,,,,,,,,,,,,,,,,,,,,,,,,,,,,,,,,,,,,,,,,,,,,,,,,,,,,,,,,,
1768292617.071535,1768292617.071505,116.000000,0.000000,4327.692383,4306.025879,4317.563965,4342.179688,4314.102539,4316.410156,4317.051270,4321.922852,4317.436035,4301.025879,4509.358887,4537.436035,4384.102539,4469.871582,4741.000000,2.000000,46.000000,,,,0.000000,4.000000,4.000000,4.000000,4.000000,4.000000,4.000000,4.000000,4.000000,4.000000,4.000000,4.000000,4.000000,4.000000,4.000000,100.000000,,,,,,,,,,,,,,,,,,,,,,,,,,,,,,,,,,,,,,,,,,,,,,,,,,,,,,,,,,,,,,,,,,,,,,,,,,,,,,,,,,,,,,,,,,,,,,,,,,,,,,,,,,,,,,,,,,,,,
1768292617.079344,1768292617.079313,117.000000,0.000000,4327.692383,4304.487305,4313.846191,4335.512695,4309.743652,4319.230957,4314.615234,4323.717773,4320.256348,4303.461426,4506.410156,4536.282227,4386.666504,4472.307617,5639.000000,2.000000,46.000000,,,,0.000000,4.000000,4.000000,4.000000,4.000000,4.000000,4.000000,4.000000,4.000000,4.000000,4.000000,4.000000,4.000000,4.000000,4.000000,100.000000,,,,,,,,,,,,,,,,,,,,,,,,,,,,,,,,,,,,,,,,,,,,,,,,,,,,,,,,,,,,,,,,,,,,,,,,,,,,,,,,,,,,,,,,,,,,,,,,,,,,,,,,,,,,,,,,,,,,,
1768292617.087152,1768292617.087022,118.000000,0.000000,4328.077148,4309.743652,4309.615234,4332.179688,4310.512695,4321.153809,4316.282227,4313.333496,4320.128418,4309.230957,4509.871582,4538.461426,4394.615234,4476.538574,4335.000000,2.000000,46.000000,,,,0.000000,4.000000,4.000000,4.000000,4.000000,4.000000,4.000000,4.000000,4.000000,4.000000,4.000000,4.000000,4.000000,4.000000,4.000000,100.000000,,,,,,,,,,,,,,,,,,,,,,,,,,,,,,,,,,,,,,,,,,,,,,,,,,,,,,,,,,,,,,,,,,,,,,,,,,,,,,,,,,,,,,,,,,,,,,,,,,,,,,,,,,,,,,,,,,,,,
1768292617.094961,1768292617.094830,119.000000,0.000000,4326.153809,4311.410156,4311.410156,4337.948730,4316.282227,4316.794922,4317.692383,4311.922852,4317.436035,4307.948730,4508.846191,4535.512695,4392.820313,4475.000000,4742.000000,2.000000,46.000000,,,,0.000000,4.000000,4.000000,4.000000,4.000000,4.000000,4.000000,4.000000,4.000000,4.000000,4.000000,4.000000,4.000000,4.000000,4.000000,100.000000,,,,,,,,,,,,,,,,,,,,,,,,,,,,,,,,,,,,,,,,,,,,,,,,,,,,,,,,,,,,,,,,,,,,,,,,,,,,,,,,,,,,,,,,,,,,,,,,,,,,,,,,,,,,,,,,,,,,,
1768292617.102769,1768292617.102838,120.000000,0.000000,4323.846191,4308.077148,4315.769043,4341.666504,4319.358887,4315.897461,4321.025879,4325.256348,4319.487305,4307.179688,4507.692383,4534.487305,4389.230957,4470.384766,4741.000000,2.000000,46.000000,,,,0.000000,4.000000,4.000000,4.000000,4.000000,4.000000,4.000000,4.000000,4.000000,4.000000,4.000000,4.000000,4.000000,4.000000,4.000000,100.000000,,,,,,,,,,,,,,,,,,,,,,,,,,,,,,,,,,,,,,,,,,,,,,,,,,,,,,,,,,,,,,,,,,,,,,,,,,,,,,,,,,,,,,,,,,,,,,,,,,,,,,,,,,,,,,,,,,,,,
1768292617.110577,1768292617.110647,121.000000,0.000000,4329.230957,4309.358887,4313.461426,4341.025879,4320.384766,4320.384766,4321.794922,4326.025879,4322.051270,4312.436035,4508.589844,4538.461426,4393.077148,4471.666504,5639.000000,2.000000,46.000000,,,,0.000000,4.000000,4.000000,4.000000,4.000000,4.000000,4.000000,4.000000,4.000000,4.000000,4.000000,4.000000,4.000000,4.000000,4.000000,100.000000,,,,,,,,,,,,,,,,,,,,,,,,,,,,,,,,,,,,,,,,,,,,,,,,,,,,,,,,,,,,,,,,,,,,,,,,,,,,,,,,,,,,,,,,,,,,,,,,,,,,,,,,,,,,,,,,,,,,,
1768292617.118386,1768292617.118555,122.000000,0.000000,4332.436035,4311.666504,4307.948730,4341.666504,4320.384766,4320.769043,4315.641113,4312.307617,4316.282227,4311.794922,4506.922852,4530.384766,4390.641113,4471.666504,4335.000000,2.000000,46.000000,,,,0.000000,4.000000,4.000000,4.000000,4.000000,4.000000,4.000000,4.000000,4.000000,4.000000,4.000000,4.000000,4.000000,4.000000,4.000000,100.000000,,,,,,,,,,,,,,,,,,,,,,,,,,,,,,,,,,,,,,,,,,,,,,,,,,,,,,,,,,,,,,,,,,,,,,,,,,,,,,,,,,,,,,,,,,,,,,,,,,,,,,,,,,,,,,,,,,,,,
1768292617.126194,1768292617.126364,123.000000,0.000000,4330.512695,4312.307617,4309.615234,4343.974121,4320.384766,4318.717773,4314.358887,4311.153809,4314.358887,4307.820313,4506.666504,4524.102539,4387.051270,4469.230957,4742.000000,2.000000,46.000000,,,,0.000000,4.000000,4.000000,4.000000,4.000000,4.000000,4.000000,4.000000,4.000000,4.000000,4.000000,4.000000,4.000000,4.000000,4.000000,100.000000,,,,,,,,,,,,,,,,,,,,,,,,,,,,,,,,,,,,,,,,,,,,,,,,,,,,,,,,,,,,,,,,,,,,,,,,,,,,,,,,,,,,,,,,,,,,,,,,,,,,,,,,,,,,,,,,,,,,,
1768292617.134003,1768292617.133972,124.000000,0.000000,4335.897461,4312.948730,4313.333496,4344.615234,4322.692383,4319.615234,4319.230957,4323.461426,4323.846191,4309.871582,4508.846191,4535.000000,4393.333496,4473.077148,4741.000000,2.000000,46.000000,,,,0.000000,4.000000,4.000000,4.000000,4.000000,4.000000,4.000000,4.000000,4.000000,4.000000,4.000000,4.000000,4.000000,4.000000,4.000000,100.000000,,,,,,,,,,,,,,,,,,,,,,,,,,,,,,,,,,,,,,,,,,,,,,,,,,,,,,,,,,,,,,,,,,,,,,,,,,,,,,,,,,,,,,,,,,,,,,,,,,,,,,,,,,,,,,,,,,,,,
1768292617.141811,1768292617.141781,125.000000,0.000000,4339.487305,4310.256348,4311.153809,4341.922852,4321.025879,4320.256348,4321.794922,4326.153809,4322.948730,4312.051270,4508.717773,4537.307617,4395.512695,4473.974121,5639.000000,2.000000,46.000000,,,,0.000000,4.000000,4.000000,4.000000,4.000000,4.000000,4.000000,4.000000,4.000000,4.000000,4.000000,4.000000,4.000000,4.000000,4.000000,100.000000,,,,,,,,,,,,,,,,,,,,,,,,,,,,,,,,,,,,,,,,,,,,,,,,,,,,,,,,,,,,,,,,,,,,,,,,,,,,,,,,,,,,,,,,,,,,,,,,,,,,,,,,,,,,,,,,,,,,,
1768292617.149620,1768292617.149489,126.000000,0.000000,4329.871582,4310.641113,4308.077148,4338.333496,4313.589844,4317.051270,4318.974121,4317.820313,4312.051270,4306.538574,4508.205078,4523.717773,4390.000000,4462.948730,4335.000000,2.000000,46.000000,,,,0.000000,4.000000,4.000000,4.000000,4.000000,4.000000,4.000000,4.000000,4.000000,4.000000,4.000000,4.000000,4.000000,4.000000,4.000000,100.000000,,,,,,,,,,,,,,,,,,,,,,,,,,,,,,,,,,,,,,,,,,,,,,,,,,,,,,,,,,,,,,,,,,,,,,,,,,,,,,,,,,,,,,,,,,,,,,,,,,,,,,,,,,,,,,,,,,,,,
1768292617.157428,1768292617.157298,127.000000,0.000000,4323.461426,4311.153809,4307.948730,4337.563965,4310.000000,4316.025879,4314.358887,4308.205078,4308.333496,4295.128418,4506.153809,4517.692383,4380.641113,4453.846191,46.000000,2.000000,46.000000,,,,0.000000,4.000000,4.000000,4.000000,4.000000,4.000000,4.000000,4.000000,4.000000,4.000000,4.000000,4.000000,4.000000,4.000000,4.000000,100.000000,,,,,,,,,,,,,,,,,,,,,,,,,,,,,,,,,,,,,,,,,,,,,,,,,,,,,,,,,,,,,,,,,,,,,,,,,,,,,,,,,,,,,,,,,,,,,,,,,,,,,,,,,,,,,,,,,,,,,
1768292617.165237,1768292617.165306,0.000000,0.000000,4328.205078,4300.128418,4307.436035,4336.025879,4310.897461,4315.769043,4315.128418,4307.436035,4311.666504,4290.897461,4503.589844,4520.128418,4373.974121,4456.922852,2291.000000,2.000000,46.000000,,,,0.000000,4.000000,4.000000,4.000000,4.000000,4.000000,4.000000,4.000000,4.000000,4.000000,4.000000,4.000000,4.000000,4.000000,4.000000,100.000000,,,,,,,,,,,,,,,,,,,,,,,,,,,,,,,,,,,,,,,,,,,,,,,,1.071861,0.519649,0.267738,0.340579,0.167948,0.392209,0.162188,0.125772,0.178405,0.129770,0.239104,0.085474,0.101861,0.122944,0.037964,0.412223,0.179274,0.232185,0.169389,0.135710,1.335733,0.154660,0.141191,0.096610,0.056943,0.062516,0.054453,0.135318,0.089248,0.048088,0.135299,0.074432,0.202813,0.104506,0.057240,0.366398,0.220802,0.347245,0.256085,0.094480,0.243440,0.290019,0.244192,0.184201,0.073806,0.872939,0.774624,0.408789,0.244333,0.122942,0.520520,0.228516,0.530950,0.455462,0.109035,0.444904,0.392657,0.568649,0.520853,0.132988,0.792516,0.299523,0.384449,0.287722,0.176321,0.548225,0.410022,0.465866,0.383087,0.151725
1768292617.173045,1768292617.173114,1.000000,0.000000,4330.897461,4295.897461,4308.077148,4333.846191,4308.717773,4315.512695,4320.512695,4318.846191,4318.077148,4300.256348,4511.153809,4525.384766,4377.563965,4464.358887,4011.000000,2.000000,46.000000,,,,0.000000,4.000000,4.000000,4.000000,4.000000,4.000000,4.000000,4.000000,4.000000,4.000000,4.000000,4.000000,4.000000,4.000000,4.000000,100.000000,,,,,,,,,,,,,,,,,,,,,,,,,,,,,,,,,,,,,,,,,,,,,,,,,,,,,,,,,,,,,,,,,,,,,,,,,,,,,,,,,,,,,,,,,,,,,,,,,,,,,,,,,,,,,,,,,,,,,
1768292617.180853,1768292617.181023,2.000000,0.000000,4336.922852,4315.256348,4313.205078,4341.794922,4313.333496,4319.102539,4324.230957,4329.487305,4328.077148,4318.846191,4524.358887,4537.563965,4392.307617,4474.358887,3957.000000,2.000000,46.000000,,,,0.000000,4.000000,4.000000,4.000000,4.000000,4.000000,4.000000,4.000000,4.000000,4.000000,4.000000,4.000000,4.000000,4.000000,4.000000,100.000000,,,,,,,,,,,,,,,,,,,,,,,,,,,,,,,,,,,,,,,,,,,,,,,,,,,,,,,,,,,,,,,,,,,,,,,,,,,,,,,,,,,,,,,,,,,,,,,,,,,,,,,,,,,,,,,,,,,,,
1768292617.188662,1768292617.188831,3.000000,0.000000,4349.230957,4330.256348,4316.153809,4353.974121,4323.461426,4319.487305,4321.153809,4329.102539,4332.179688,4331.025879,4531.282227,4544.871582,4408.205078,4484.487305,3882.000000,2.000000,46.000000,,,,0.000000,4.000000,4.000000,4.000000,4.000000,4.000000,4.000000,4.000000,4.000000,4.000000,4.000000,4.000000,4.000000,4.000000,4.000000,100.000000,,,,,,,,,,,,,,,,,,,,,,,,,,,,,,,,,,,,,,,,,,,,,,,,,,,,,,,,,,,,,,,,,,,,,,,,,,,,,,,,,,,,,,,,,,,,,,,,,,,,,,,,,,,,,,,,,,,,,
1768292617.196470,1768292617.196839,4.000000,0.000000,4350.641113,4327.563965,4310.384766,4355.641113,4325.256348,4316.666504,4317.820313,4320.512695,4325.000000,4323.461426,4525.512695,4540.897461,4408.589844,4485.384766,3727.000000,2.000000,46.000000,,,,0.000000,4.000000,4.000000,4.000000,4.000000,4.000000,4.000000,4.000000,4.000000,4.000000,4.000000,4.000000,4.000000,4.000000,4.000000,100.000000,,,,,,,,,,,,,,,,,,,,,,,,,,,,,,,,,,,,,,,,,,,,,,,,,,,,,,,,,,,,,,,,,,,,,,,,,,,,,,,,,,,,,,,,,,,,,,,,,,,,,,,,,,,,,,,,,,,,,
1768292617.204279,1768292617.204648,5.000000,0.000000,4345.000000,4322.436035,4306.153809,4348.205078,4321.282227,4315.897461,4315.769043,4314.743652,4319.871582,4308.974121,4515.384766,4536.153809,4398.717773,4477.948730,2823.000000,2.000000,46.000000,,,,0.000000,4.000000,4.000000,4.000000,4.000000,4.000000,4.000000,4.000000,4.000000,4.000000,4.000000,4.000000,4.000000,4.000000,4.000000,100.000000,,,,,,,,,,,,,,,,,,,,,,,,,,,,,,,,,,,,,,,,,,,,,,,,,,,,,,,,,,,,,,,,,,,,,,,,,,,,,,,,,,,,,,,,,,,,,,,,,,,,,,,,,,,,,,,,,,,,,
1768292617.212087,1768292617.212456,6.000000,0.000000,4341.538574,4317.179688,4305.897461,4342.179688,4319.871582,4313.461426,4312.563965,4314.102539,4317.948730,4304.743652,4508.974121,4528.461426,4393.589844,4469.358887,2580.000000,2.000000,46.000000,,,,0.000000,4.000000,4.000000,4.000000,4.000000,4.000000,4.000000,4.000000,4.000000,4.000000,4.000000,4.000000,4.000000,4.000000,4.000000,100.000000,,,,,,,,,,,,,,,,,,,,,,,,,,,,,,,,,,,,,,,,,,,,,,,,,,,,,,,,,,,,,,,,,,,,,,,,,,,,,,,,,,,,,,,,,,,,,,,,,,,,,,,,,,,,,,,,,,,,,
1768292617.219895,1768292617.220265,7.000000,0.000000,4342.307617,4316.025879,4306.153809,4342.051270,4320.256348,4313.205078,4312.563965,4310.897461,4312.692383,4307.563965,4505.641113,4520.641113,4396.282227,4468.974121,4044.000000,2.000000,46.000000,,,,0.000000,4.000000,4.000000,4.000000,4.000000,4.000000,4.000000,4.000000,4.000000,4.000000,4.000000,4.000000,4.000000,4.000000,4.000000,100.000000,,,,,,,,,,,,,,,,,,,,,,,,,,,,,,,,,,,,,,,,,,,,,,,,,,,,,,,,,,,,,,,,,,,,,,,,,,,,,,,,,,,,,,,,,,,,,,,,,,,,,,,,,,,,,,,,,,,,,
1768292617.227704,1768292617.228273,8.000000,0.000000,4347.436035,4320.384766,4310.000000,4344.102539,4320.512695,4317.051270,4313.846191,4312.692383,4313.589844,4310.641113,4513.205078,4529.230957,4398.461426,4474.358887,3418.000000,2.000000,46.000000,,,,0.000000,4.000000,4.000000,4.000000,4.000000,4.000000,4.000000,4.000000,4.000000,4.000000,4.000000,4.000000,4.000000,4.000000,4.000000,100.000000,,,,,,,,,,,,,,,,,,,,,,,,,,,,,,,,,,,,,,,,,,,,,,,,,,,,,,,,,,,,,,,,,,,,,,,,,,,,,,,,,,,,,,,,,,,,,,,,,,,,,,,,,,,,,,,,,,,,,
1768292617.235512,1768292617.236081,9.000000,0.000000,4349.871582,4320.256348,4313.333496,4343.205078,4321.538574,4315.897461,4314.102539,4319.487305,4318.974121,4310.897461,4520.512695,4537.820313,4397.820313,4476.538574,3837.000000,2.000000,46.000000,,,,0.000000,4.000000,4.000000,4.000000,4.000000,4.000000,4.000000,4.000000,4.000000,4.000000,4.000000,4.000000,4.000000,4.000000,4.000000,100.000000,,,,,,,,,,,,,,,,,,,,,,,,,,,,,,,,,,,,,,,,,,,,,,,,,,,,,,,,,,,,,,,,,,,,,,,,,,,,,,,,,,,,,,,,,,,,,,,,,,,,,,,,,,,,,,,,,,,,,
1768292617.243321,1768292617.243790,10.000000,0.000000,4345.384766,4317.563965,4312.820313,4341.538574,4319.230957,4311.794922,4315.000000,4317.820313,4316.794922,4309.230957,4513.589844,4531.410156,4397.436035,4476.922852,4335.000000,2.000000,46.000000,,,,0.000000,4.000000,4.000000,4.000000,4.000000,4.000000,4.000000,4.000000,4.000000,4.000000,4.000000,4.000000,4.000000,4.000000,4.000000,100.000000,,,,,,,,,,,,,,,,,,,,,,,,,,,,,,,,,,,,,,,,,,,,,,,,,,,,,,,,,,,,,,,,,,,,,,,,,,,,,,,,,,,,,,,,,,,,,,,,,,,,,,,,,,,,,,,,,,,,,
1768292617.251129,1768292617.251598,11.000000,0.000000,4341.282227,4316.922852,4308.974121,4342.436035,4313.589844,4312.307617,4317.179688,4307.563965,4309.358887,4305.769043,4504.615234,4521.025879,4393.205078,4472.948730,4742.000000,2.000000,46.000000,,,,0.000000,4.000000,4.000000,4.000000,4.000000,4.000000,4.000000,4.000000,4.000000,4.000000,4.000000,4.000000,4.000000,4.000000,4.000000,100.000000,,,,,,,,,,,,,,,,,,,,,,,,,,,,,,,,,,,,,,,,,,,,,,,,,,,,,,,,,,,,,,,,,,,,,,,,,,,,,,,,,,,,,,,,,,,,,,,,,,,,,,,,,,,,,,,,,,,,,
1768292617.258937,1768292617.259207,12.000000,0.000000,4342.307617,4313.077148,4305.512695,4343.974121,4312.307617,4316.153809,4320.000000,4309.487305,4309.743652,4303.333496,4507.179688,4523.589844,4390.128418,4471.538574,4741.000000,2.000000,46.000000,,,,0.000000,4.000000,4.000000,4.000000,4.000000,4.000000,4.000000,4.000000,4.000000,4.000000,4.000000,4.000000,4.000000,4.000000,4.000000,100.000000,,,,,,,,,,,,,,,,,,,,,,,,,,,,,,,,,,,,,,,,,,,,,,,,,,,,,,,,,,,,,,,,,,,,,,,,,,,,,,,,,,,,,,,,,,,,,,,,,,,,,,,,,,,,,,,,,,,,,
1768292617.266746,1768292617.267016,13.000000,0.000000,4341.153809,4310.000000,4307.307617,4340.512695,4313.846191,4315.769043,4318.205078,4318.077148,4315.384766,4304.358887,4510.384766,4534.871582,4389.871582,4475.641113,5639.000000,2.000000,46.000000,,,,0.000000,4.000000,4.000000,4.000000,4.000000,4.000000,4.000000,4.000000,4.000000,4.000000,4.000000,4.000000,4.000000,4.000000,4.000000,100.000000,,,,,,,,,,,,,,,,,,,,,,,,,,,,,,,,,,,,,,,,,,,,,,,,,,,,,,,,,,,,,,,,,,,,,,,,,,,,,,,,,,,,,,,,,,,,,,,,,,,,,,,,,,,,,,,,,,,,,
1768292617.274554,1768292617.274724,14.000000,0.000000,4337.692383,4311.025879,4310.384766,4333.846191,4315.384766,4313.205078,4314.487305,4316.666504,4317.820313,4308.589844,4507.692383,4532.051270,4387.948730,4475.512695,4335.000000,2.000000,46.000000,,,,0.000000,4.000000,4.000000,4.000000,4.000000,4.000000,4.000000,4.000000,4.000000,4.000000,4.000000,4.000000,4.000000,4.000000,4.000000,100.000000,,,,,,,,,,,,,,,,,,,,,,,,,,,,,,,,,,,,,,,,,,,,,,,,,,,,,,,,,,,,,,,,,,,,,,,,,,,,,,,,,,,,,,,,,,,,,,,,,,,,,,,,,,,,,,,,,,,,,
1768292617.282363,1768292617.282533,15.000000,0.000000,4336.538574,4310.000000,4310.256348,4332.692383,4315.000000,4313.589844,4317.179688,4314.871582,4315.512695,4309.230957,4507.179688,4523.333496,4383.077148,4468.589844,4742.000000,2.000000,46.000000,,,,0.000000,4.000000,4.000000,4.000000,4.000000,4.000000,4.000000,4.000000,4.000000,4.000000,4.000000,4.000000,4.000000,4.000000,4.000000,100.000000,,,,,,,,,,,,,,,,,,,,,,,,,,,,,,,,,,,,,,,,,,,,,,,,,,,,,,,,,,,,,,,,,,,,,,,,,,,,,,,,,,,,,,,,,,,,,,,,,,,,,,,,,,,,,,,,,,,,,
1768292617.290171,1768292617.290541,16.000000,0.000000,4342.307617,4311.282227,4309.615234,4341.153809,4315.897461,4315.641113,4320.512695,4317.948730,4312.563965,4308.846191,4507.563965,4529.358887,4381.153809,4468.589844,0.000000,2.000000,46.000000,,,,0.000000,4.000000,4.000000,4.000000,4.000000,4.000000,4.000000,4.000000,4.000000,4.000000,4.000000,4.000000,4.000000,4.000000,4.000000,100.000000,1.000000,8.333333,4.000000,4.000000,1.000000,4.000000,4.000000,0.000000,0.000000,4.000000,4.000000,4.000000,4.000000,4.000000,4.000000,4.000000,,,,,,,,,,,,,,,,,,,,,,,,,,,,,,,,1.187147,0.490327,0.327190,0.374774,0.168048,0.392182,0.192728,0.164334,0.200872,0.127583,0.272149,0.076722,0.114928,0.131315,0.038384,0.431791,0.186444,0.307086,0.196862,0.131440,1.181498,0.151184,0.143809,0.090323,0.056960,0.048732,0.068363,0.119926,0.086515,0.047991,0.109851,0.098859,0.189576,0.098536,0.056741,0.311205,0.309077,0.374566,0.257089,0.100125,0.249601,0.389999,0.285873,0.186542,0.068541,0.860524,0.731683,0.402800,0.248424,0.115185,0.470970,0.224742,0.587201,0.471140,0.107085,0.429281,0.474203,0.640136,0.530287,0.134206,0.670175,0.240643,0.415385,0.299476,0.156912,0.576929,0.418913,0.482669,0.393243,0.152514
1768292617.297980,1768292617.298349,17.000000,0.000000,4346.025879,4314.743652,4313.461426,4344.102539,4315.897461,4315.512695,4315.897461,4318.589844,4312.179688,4310.512695,4508.589844,4534.871582,4386.153809,4475.128418,0.000000,2.000000,46.000000,,,,0.000000,4.000000,4.000000,4.000000,4.000000,4.000000,4.000000,4.000000,4.000000,4.000000,4.000000,4.000000,4.000000,4.000000,4.000000,100.000000,,,,,,,,,,,,,,,,,,,,,,,,,,,,,,,,,,,,,,,,,,,,,,,,,,,,,,,,,,,,,,,,,,,,,,,,,,,,,,,,,,,,,,,,,,,,,,,,,,,,,,,,,,,,,,,,,,,,,
1768292617.305788,1768292617.306258,18.000000,0.000000,4334.871582,4306.922852,4312.692383,4330.897461,4311.666504,4314.487305,4312.051270,4319.102539,4313.333496,4305.897461,4508.077148,4525.897461,4386.922852,4476.153809,0.000000,2.000000,46.000000,,,,0.000000,4.000000,4.000000,4.000000,4.000000,4.000000,4.000000,4.000000,4.000000,4.000000,4.000000,4.000000,4.000000,4.000000,4.000000,100.000000,,,,,,,,,,,,,,,,,,,,,,,,,,,,,,,,,,,,,,,,,,,,,,,,,,,,,,,,,,,,,,,,,,,,,,,,,,,,,,,,,,,,,,,,,,,,,,,,,,,,,,,,,,,,,,,,,,,,,
1768292617.313597,1768292617.314066,19.000000,0.000000,4327.307617,4299.615234,4311.025879,4326.666504,4308.846191,4316.666504,4313.717773,4321.025879,4313.717773,4297.948730,4506.410156,4524.102539,4382.820313,4473.333496,0.000000,2.000000,46.000000,,,,0.000000,4.000000,4.000000,4.000000,4.000000,4.000000,4.000000,4.000000,4.000000,4.000000,4.000000,4.000000,4.000000,4.000000,4.000000,100.000000,,,,,,,,,,,,,,,,,,,,,,,,,,,,,,,,,,,,,,,,,,,,,,,,,,,,,,,,,,,,,,,,,,,,,,,,,,,,,,,,,,,,,,,,,,,,,,,,,,,,,,,,,,,,,,,,,,,,,
1768292617.321405,1768292617.322074,20.000000,0.000000,4331.666504,4304.358887,4315.256348,4336.922852,4307.820313,4316.410156,4315.256348,4319.615234,4312.820313,4294.871582,4508.205078,4529.487305,4384.871582,4468.589844,0.000000,2.000000,46.000000,,,,0.000000,4.000000,4.000000,4.000000,4.000000,4.000000,4.000000,4.000000,4.000000,4.000000,4.000000,4.000000,4.000000,4.000000,4.000000,100.000000,,,,,,,,,,,,,,,,,,,,,,,,,,,,,,,,,,,,,,,,,,,,,,,,,,,,,,,,,,,,,,,,,,,,,,,,,,,,,,,,,,,,,,,,,,,,,,,,,,,,,,,,,,,,,,,,,,,,,
1768292617.329213,1768292617.329883,21.000000,0.000000,4330.897461,4304.230957,4314.487305,4335.384766,4301.666504,4315.897461,4316.282227,4320.000000,4315.769043,4291.922852,4511.025879,4525.000000,4389.743652,4468.205078,0.000000,2.000000,46.000000,,,,0.000000,4.000000,4.000000,4.000000,4.000000,4.000000,4.000000,4.000000,4.000000,4.000000,4.000000,4.000000,4.000000,4.000000,4.000000,100.000000,,,,,,,,,,,,,,,,,,,,,,,,,,,,,,,,,,,,,,,,,,,,,,,,,,,,,,,,,,,,,,,,,,,,,,,,,,,,,,,,,,,,,,,,,,,,,,,,,,,,,,,,,,,,,,,,,,,,,
1768292617.337022,1768292617.337791,22.000000,0.000000,4322.820313,4297.436035,4305.512695,4324.615234,4294.743652,4318.974121,4317.307617,4321.025879,4320.000000,4291.153809,4509.871582,4522.563965,4390.000000,4468.589844,0.000000,2.000000,46.000000,,,,0.000000,4.000000,4.000000,4.000000,4.000000,4.000000,4.000000,4.000000,4.000000,4.000000,4.000000,4.000000,4.000000,4.000000,4.000000,100.000000,,,,,,,,,,,,,,,,,,,,,,,,,,,,,,,,,,,,,,,,,,,,,,,,,,,,,,,,,,,,,,,,,,,,,,,,,,,,,,,,,,,,,,,,,,,,,,,,,,,,,,,,,,,,,,,,,,,,,
1768292617.344830,1768292617.345599,23.000000,0.000000,4321.538574,4299.358887,4299.743652,4323.461426,4294.871582,4316.922852,4313.077148,4313.205078,4315.384766,4292.948730,4507.820313,4522.436035,4389.487305,4463.461426,0.000000,2.000000,46.000000,,,,0.000000,4.000000,4.000000,4.000000,4.000000,4.000000,4.000000,4.000000,4.000000,4.000000,4.000000,4.000000,4.000000,4.000000,4.000000,100.000000,,,,,,,,,,,,,,,,,,,,,,,,,,,,,,,,,,,,,,,,,,,,,,,,,,,,,,,,,,,,,,,,,,,,,,,,,,,,,,,,,,,,,,,,,,,,,,,,,,,,,,,,,,,,,,,,,,,,,
1768292617.352639,1768292617.353608,24.000000,0.000000,4325.256348,4305.384766,4304.615234,4330.641113,4295.897461,4313.205078,4310.512695,4313.333496,4310.512695,4291.666504,4512.179688,4521.794922,4390.384766,4465.000000,0.000000,2.000000,46.000000,,,,0.000000,4.000000,4.000000,4.000000,4.000000,4.000000,4.000000,4.000000,4.000000,4.000000,4.000000,4.000000,4.000000,4.000000,4.000000,100.000000,,,,,,,,,,,,,,,,,,,,,,,,,,,,,,,,,,,,,,,,,,,,,,,,,,,,,,,,,,,,,,,,,,,,,,,,,,,,,,,,,,,,,,,,,,,,,,,,,,,,,,,,,,,,,,,,,,,,,
1768292617.360447,1768292617.361416,25.000000,0.000000,4326.538574,4304.615234,4309.615234,4336.282227,4294.358887,4314.615234,4314.487305,4318.589844,4314.102539,4290.769043,4515.641113,4526.025879,4388.077148,4475.512695,0.000000,2.000000,46.000000,,,,0.000000,4.000000,4.000000,4.000000,4.000000,4.000000,4.000000,4.000000,4.000000,4.000000,4.000000,4.000000,4.000000,4.000000,4.000000,100.000000,,,,,,,,,,,,,,,,,,,,,,,,,,,,,,,,,,,,,,,,,,,,,,,,,,,,,,,,,,,,,,,,,,,,,,,,,,,,,,,,,,,,,,,,,,,,,,,,,,,,,,,,,,,,,,,,,,,,,
1768292617.368256,1768292617.369324,26.000000,0.000000,4326.794922,4301.153809,4305.769043,4334.102539,4294.871582,4314.743652,4313.333496,4311.153809,4313.717773,4291.025879,4511.282227,4526.794922,4388.589844,4475.769043,0.000000,2.000000,46.000000,,,,0.000000,4.000000,4.000000,4.000000,4.000000,4.000000,4.000000,4.000000,4.000000,4.000000,4.000000,4.000000,4.000000,4.000000,4.000000,100.000000,,,,,,,,,,,,,,,,,,,,,,,,,,,,,,,,,,,,,,,,,,,,,,,,,,,,,,,,,,,,,,,,,,,,,,,,,,,,,,,,,,,,,,,,,,,,,,,,,,,,,,,,,,,,,,,,,,,,,
1768292617.376064,1768292617.377133,27.000000,0.000000,4325.256348,4301.538574,4301.025879,4328.205078,4295.384766,4312.436035,4311.153809,4310.000000,4310.000000,4289.487305,4506.410156,4522.179688,4391.282227,4470.000000,0.000000,2.000000,46.000000,,,,0.000000,4.000000,4.000000,4.000000,4.000000,4.000000,4.000000,4.000000,4.000000,4.000000,4.000000,4.000000,4.000000,4.000000,4.000000,100.000000,,,,,,,,,,,,,,,,,,,,,,,,,,,,,,,,,,,,,,,,,,,,,,,,,,,,,,,,,,,,,,,,,,,,,,,,,,,,,,,,,,,,,,,,,,,,,,,,,,,,,,,,,,,,,,,,,,,,,
1768292617.383872,1768292617.384841,28.000000,0.000000,4324.487305,4304.871582,4303.205078,4328.205078,4295.897461,4315.769043,4317.563965,4324.358887,4315.897461,4292.051270,4509.102539,4519.743652,4386.538574,4473.846191,0.000000,2.000000,46.000000,,,,0.000000,4.000000,4.000000,4.000000,4.000000,4.000000,4.000000,4.000000,4.000000,4.000000,4.000000,4.000000,4.000000,4.000000,4.000000,100.000000,,,,,,,,,,,,,,,,,,,,,,,,,,,,,,,,,,,,,,,,,,,,,,,,,,,,,,,,,,,,,,,,,,,,,,,,,,,,,,,,,,,,,,,,,,,,,,,,,,,,,,,,,,,,,,,,,,,,,
1768292617.391681,1768292617.392650,29.000000,0.000000,4328.717773,4306.794922,4309.230957,4332.692383,4296.410156,4321.282227,4320.128418,4328.077148,4320.256348,4295.897461,4516.922852,4526.666504,4385.769043,4475.128418,0.000000,2.000000,46.000000,,,,0.000000,4.000000,4.000000,4.000000,4.000000,4.000000,4.000000,4.000000,4.000000,4.000000,4.000000,4.000000,4.000000,4.000000,4.000000,100.000000,,,,,,,,,,,,,,,,,,,,,,,,,,,,,,,,,,,,,,,,,,,,,,,,,,,,,,,,,,,,,,,,,,,,,,,,,,,,,,,,,,,,,,,,,,,,,,,,,,,,,,,,,,,,,,,,,,,,,
1768292617.399489,1768292617.400358,30.000000,0.000000,4334.487305,4306.538574,4310.256348,4333.846191,4295.897461,4319.871582,4318.077148,4324.743652,4319.615234,4293.461426,4518.846191,4536.282227,4394.358887,4474.615234,0.000000,2.000000,46.000000,,,,0.000000,4.000000,4.000000,4.000000,4.000000,4.000000,4.000000,4.000000,4.000000,4.000000,4.000000,4.000000,4.000000,4.000000,4.000000,100.000000,,,,,,,,,,,,,,,,,,,,,,,,,,,,,,,,,,,,,,,,,,,,,,,,,,,,,,,,,,,,,,,,,,,,,,,,,,,,,,,,,,,,,,,,,,,,,,,,,,,,,,,,,,,,,,,,,,,,,
1768292617.407297,1768292617.408167,31.000000,0.000000,4331.922852,4308.974121,4307.307617,4334.358887,4295.641113,4313.717773,4318.205078,4326.410156,4320.128418,4294.871582,4513.461426,4533.717773,4396.794922,4476.922852,0.000000,2.000000,46.000000,,,,0.000000,4.000000,4.000000,4.000000,4.000000,4.000000,4.000000,4.000000,4.000000,4.000000,4.000000,4.000000,4.000000,4.000000,4.000000,100.000000,,,,,,,,,,,,,,,,,,,,,,,,,,,,,,,,,,,,,,,,,,,,,,,,,,,,,,,,,,,,,,,,,,,,,,,,,,,,,,,,,,,,,,,,,,,,,,,,,,,,,,,,,,,,,,,,,,,,,
1768292617.415106,1768292617.416175,32.000000,0.000000,4325.769043,4311.794922,4303.205078,4336.025879,4297.948730,4309.358887,4312.051270,4318.461426,4315.769043,4299.102539,4511.922852,4521.410156,4392.051270,4474.615234,0.000000,2.000000,46.000000,,,,0.000000,4.000000,4.000000,4.000000,4.000000,4.000000,4.000000,4.000000,4.000000,4.000000,4.000000,4.000000,4.000000,4.000000,4.000000,100.000000,,,,,,,,,,,,,,,,,,,,,,,,,,,,,,,,,,,,,,,,,,,,,,,,1.236585,0.449282,0.403764,0.401680,0.156315,0.416007,0.223219,0.223057,0.223414,0.118222,0.281242,0.077769,0.125743,0.139970,0.039532,0.448819,0.200683,0.380045,0.222437,0.120190,1.018625,0.162613,0.142512,0.087234,0.057517,0.048519,0.082206,0.100416,0.084268,0.048359,0.082657,0.136005,0.167853,0.093177,0.058112,0.253762,0.412284,0.424100,0.247283,0.110521,0.261004,0.510545,0.357382,0.190630,0.062226,1.025225,0.700289,0.422239,0.247600,0.108923,0.423844,0.264389,0.644344,0.460092,0.102715,0.398235,0.644923,0.714927,0.504985,0.132183,0.589498,0.230304,0.463932,0.307095,0.131755,0.608120,0.469173,0.518265,0.391609,0.152243
1768292617.422914,1768292617.423984,33.000000,0.000000,4328.589844,4311.666504,4304.743652,4340.000000,4302.563965,4313.077148,4311.282227,4310.897461,4310.769043,4293.974121,4518.205078,4518.974121,4394.230957,4472.820313,0.000000,2.000000,46.000000,,,,0.000000,4.000000,4.000000,4.000000,4.000000,4.000000,4.000000,4.000000,4.000000,4.000000,4.000000,4.000000,4.000000,4.000000,4.000000,100.000000,,,,,,,,,,,,,,,,,,,,,,,,,,,,,,,,,,,,,,,,,,,,,,,,,,,,,,,,,,,,,,,,,,,,,,,,,,,,,,,,,,,,,,,,,,,,,,,,,,,,,,,,,,,,,,,,,,,,,
1768292617.430723,1768292617.431892,34.000000,0.000000,4337.563965,4313.974121,4310.000000,4346.153809,4307.692383,4319.743652,4323.974121,4322.436035,4317.820313,4295.769043,4525.000000,4533.461426,4400.897461,4478.205078,0.000000,2.000000,46.000000,,,,0.000000,4.000000,4.000000,4.000000,4.000000,4.000000,4.000000,4.000000,4.000000,4.000000,4.000000,4.000000,4.000000,4.000000,4.000000,100.000000,,,,,,,,,,,,,,,,,,,,,,,,,,,,,,,,,,,,,,,,,,,,,,,,,,,,,,,,,,,,,,,,,,,,,,,,,,,,,,,,,,,,,,,,,,,,,,,,,,,,,,,,,,,,,,,,,,,,,
1768292617.438531,1768292617.439700,35.000000,0.000000,4335.641113,4320.000000,4310.384766,4345.384766,4309.358887,4318.461426,4323.974121,4333.589844,4324.102539,4303.077148,4526.794922,4540.256348,4399.487305,4477.692383,0.000000,2.000000,46.000000,,,,0.000000,4.000000,4.000000,4.000000,4.000000,4.000000,4.000000,4.000000,4.000000,4.000000,4.000000,4.000000,4.000000,4.000000,4.000000,100.000000,,,,,,,,,,,,,,,,,,,,,,,,,,,,,,,,,,,,,,,,,,,,,,,,,,,,,,,,,,,,,,,,,,,,,,,,,,,,,,,,,,,,,,,,,,,,,,,,,,,,,,,,,,,,,,,,,,,,,
1768292617.446340,1768292617.447309,36.000000,0.000000,4325.769043,4319.358887,4306.666504,4340.256348,4307.948730,4311.666504,4309.615234,4320.641113,4314.102539,4299.358887,4517.436035,4527.563965,4394.358887,4467.692383,0.000000,2.000000,46.000000,,,,0.000000,4.000000,4.000000,4.000000,4.000000,4.000000,4.000000,4.000000,4.000000,4.000000,4.000000,4.000000,4.000000,4.000000,4.000000,100.000000,,,,,,,,,,,,,,,,,,,,,,,,,,,,,,,,,,,,,,,,,,,,,,,,,,,,,,,,,,,,,,,,,,,,,,,,,,,,,,,,,,,,,,,,,,,,,,,,,,,,,,,,,,,,,,,,,,,,,
1768292617.454148,1768292617.455118,37.000000,0.000000,4327.948730,4311.666504,4304.102539,4340.000000,4308.077148,4310.128418,4306.153809,4304.102539,4305.769043,4298.846191,4510.897461,4514.615234,4392.307617,4467.948730,0.000000,2.000000,46.000000,,,,0.000000,4.000000,4.000000,4.000000,4.000000,4.000000,4.000000,4.000000,4.000000,4.000000,4.000000,4.000000,4.000000,4.000000,4.000000,100.000000,,,,,,,,,,,,,,,,,,,,,,,,,,,,,,,,,,,,,,,,,,,,,,,,,,,,,,,,,,,,,,,,,,,,,,,,,,,,,,,,,,,,,,,,,,,,,,,,,,,,,,,,,,,,,,,,,,,,,
1768292617.461957,1768292617.462826,38.000000,0.000000,4334.358887,4314.230957,4305.512695,4341.794922,4309.743652,4315.128418,4312.692383,4310.384766,4315.897461,4309.743652,4520.641113,4522.820313,4395.641113,4478.077148,0.000000,2.000000,46.000000,,,,0.000000,4.000000,4.000000,4.000000,4.000000,4.000000,4.000000,4.000000,4.000000,4.000000,4.000000,4.000000,4.000000,4.000000,4.000000,100.000000,,,,,,,,,,,,,,,,,,,,,,,,,,,,,,,,,,,,,,,,,,,,,,,,,,,,,,,,,,,,,,,,,,,,,,,,,,,,,,,,,,,,,,,,,,,,,,,,,,,,,,,,,,,,,,,,,,,,,
1768292617.469765,1768292617.470635,39.000000,0.000000,4330.256348,4323.205078,4305.641113,4341.666504,4309.615234,4316.794922,4315.384766,4325.512695,4324.487305,4314.487305,4527.179688,4535.000000,4398.974121,4479.487305,0.000000,2.000000,46.000000,,,,0.000000,4.000000,4.000000,4.000000,4.000000,4.000000,4.000000,4.000000,4.000000,4.000000,4.000000,4.000000,4.000000,4.000000,4.000000,100.000000,,,,,,,,,,,,,,,,,,,,,,,,,,,,,,,,,,,,,,,,,,,,,,,,,,,,,,,,,,,,,,,,,,,,,,,,,,,,,,,,,,,,,,,,,,,,,,,,,,,,,,,,,,,,,,,,,,,,,
1768292617.477573,1768292617.478243,40.000000,0.000000,4325.897461,4318.205078,4303.461426,4341.153809,4307.307617,4312.948730,4314.743652,4327.820313,4318.846191,4308.846191,4522.179688,4529.743652,4396.666504,4474.102539,0.000000,2.000000,46.000000,,,,0.000000,4.000000,4.000000,4.000000,4.000000,4.000000,4.000000,4.000000,4.000000,4.000000,4.000000,4.000000,4.000000,4.000000,4.000000,100.000000,,,,,,,,,,,,,,,,,,,,,,,,,,,,,,,,,,,,,,,,,,,,,,,,,,,,,,,,,,,,,,,,,,,,,,,,,,,,,,,,,,,,,,,,,,,,,,,,,,,,,,,,,,,,,,,,,,,,,
1768292617.485382,1768292617.486052,41.000000,0.000000,4328.333496,4310.256348,4299.102539,4340.128418,4306.410156,4311.410156,4313.974121,4324.358887,4315.641113,4307.820313,4520.897461,4521.794922,4395.128418,4473.589844,0.000000,2.000000,46.000000,,,,0.000000,4.000000,4.000000,4.000000,4.000000,4.000000,4.000000,4.000000,4.000000,4.000000,4.000000,4.000000,4.000000,4.000000,4.000000,100.000000,,,,,,,,,,,,,,,,,,,,,,,,,,,,,,,,,,,,,,,,,,,,,,,,,,,,,,,,,,,,,,,,,,,,,,,,,,,,,,,,,,,,,,,,,,,,,,,,,,,,,,,,,,,,,,,,,,,,,
1768292617.493190,1768292617.493960,42.000000,0.000000,4326.794922,4312.436035,4297.307617,4335.512695,4305.897461,4312.692383,4316.666504,4326.153809,4319.743652,4310.512695,4523.077148,4522.820313,4395.512695,4475.641113,0.000000,2.000000,46.000000,,,,0.000000,4.000000,4.000000,4.000000,4.000000,4.000000,4.000000,4.000000,4.000000,4.000000,4.000000,4.000000,4.000000,4.000000,4.000000,100.000000,,,,,,,,,,,,,,,,,,,,,,,,,,,,,,,,,,,,,,,,,,,,,,,,,,,,,,,,,,,,,,,,,,,,,,,,,,,,,,,,,,,,,,,,,,,,,,,,,,,,,,,,,,,,,,,,,,,,,
1768292617.500999,1768292617.501768,43.000000,0.000000,4324.358887,4312.179688,4298.846191,4333.974121,4306.794922,4313.333496,4319.358887,4328.717773,4320.769043,4309.102539,4522.307617,4526.922852,4395.384766,4475.897461,0.000000,2.000000,46.000000,,,,0.000000,4.000000,4.000000,4.000000,4.000000,4.000000,4.000000,4.000000,4.000000,4.000000,4.000000,4.000000,4.000000,4.000000,4.000000,100.000000,,,,,,,,,,,,,,,,,,,,,,,,,,,,,,,,,,,,,,,,,,,,,,,,,,,,,,,,,,,,,,,,,,,,,,,,,,,,,,,,,,,,,,,,,,,,,,,,,,,,,,,,,,,,,,,,,,,,,
1768292617.508807,1768292617.509777,44.000000,0.000000,4328.205078,4310.000000,4296.666504,4334.871582,4308.205078,4312.948730,4317.179688,4328.974121,4317.820313,4306.794922,4522.820313,4527.436035,4395.256348,4475.384766,0.000000,2.000000,46.000000,,,,0.000000,4.000000,4.000000,4.000000,4.000000,4.000000,4.000000,4.000000,4.000000,4.000000,4.000000,4.000000,4.000000,4.000000,4.000000,100.000000,,,,,,,,,,,,,,,,,,,,,,,,,,,,,,,,,,,,,,,,,,,,,,,,,,,,,,,,,,,,,,,,,,,,,,,,,,,,,,,,,,,,,,,,,,,,,,,,,,,,,,,,,,,,,,,,,,,,,
1768292617.516616,1768292617.517585,45.000000,0.000000,4329.487305,4311.410156,4296.666504,4330.641113,4304.871582,4312.692383,4316.538574,4327.051270,4317.820313,4305.384766,4518.461426,4524.102539,4394.871582,4472.307617,0.000000,2.000000,46.000000,,,,0.000000,4.000000,4.000000,4.000000,4.000000,4.000000,4.000000,4.000000,4.000000,4.000000,4.000000,4.000000,4.000000,4.000000,4.000000,100.000000,,,,,,,,,,,,,,,,,,,,,,,,,,,,,,,,,,,,,,,,,,,,,,,,,,,,,,,,,,,,,,,,,,,,,,,,,,,,,,,,,,,,,,,,,,,,,,,,,,,,,,,,,,,,,,,,,,,,,
1768292617.524424,1768292617.525493,46.000000,0.000000,4327.563965,4312.051270,4298.205078,4325.256348,4304.615234,4311.153809,4320.512695,4327.179688,4322.692383,4305.641113,4515.512695,4521.538574,4396.025879,4472.563965,0.000000,2.000000,46.000000,,,,0.000000,4.000000,4.000000,4.000000,4.000000,4.000000,4.000000,4.000000,4.000000,4.000000,4.000000,4.000000,4.000000,4.000000,4.000000,100.000000,,,,,,,,,,,,,,,,,,,,,,,,,,,,,,,,,,,,,,,,,,,,,,,,,,,,,,,,,,,,,,,,,,,,,,,,,,,,,,,,,,,,,,,,,,,,,,,,,,,,,,,,,,,,,,,,,,,,,
1768292617.532232,1768292617.533302,47.000000,0.000000,4328.077148,4311.025879,4297.307617,4328.205078,4309.871582,4311.153809,4322.563965,4328.589844,4322.563965,4309.230957,4521.666504,4526.538574,4399.230957,4476.538574,0.000000,2.000000,46.000000,,,,0.000000,4.000000,4.000000,4.000000,4.000000,4.000000,4.000000,4.000000,4.000000,4.000000,4.000000,4.000000,4.000000,4.000000,4.000000,100.000000,,,,,,,,,,,,,,,,,,,,,,,,,,,,,,,,,,,,,,,,,,,,,,,,,,,,,,,,,,,,,,,,,,,,,,,,,,,,,,,,,,,,,,,,,,,,,,,,,,,,,,,,,,,,,,,,,,,,,
1768292617.540041,1768292617.541310,48.000000,0.000000,4334.230957,4312.436035,4300.897461,4337.820313,4310.641113,4315.128418,4322.051270,4328.205078,4313.846191,4311.282227,4525.256348,4535.384766,4400.384766,4477.692383,0.000000,2.000000,46.000000,,,,0.000000,4.000000,4.000000,4.000000,4.000000,4.000000,4.000000,4.000000,4.000000,4.000000,4.000000,4.000000,4.000000,4.000000,4.000000,100.000000,,,,,,,,,,,,,,,,,,,,,,,,,,,,,,,,,,,,,,,,,,,,,,,,1.206341,0.384379,0.474447,0.414118,0.137231,0.438080,0.241846,0.280702,0.241436,0.105694,0.260372,0.081886,0.133507,0.145729,0.041657,0.460728,0.211178,0.439702,0.239311,0.106890,0.857342,0.186190,0.140604,0.087338,0.058004,0.059955,0.091172,0.082182,0.081227,0.049172,0.059863,0.178019,0.145376,0.090343,0.060202,0.203221,0.499940,0.481896,0.230954,0.126188,0.276935,0.619376,0.434846,0.198014,0.057237,1.337674,0.672543,0.448059,0.248719,0.107003,0.390841,0.329807,0.672247,0.428175,0.097544,0.352104,0.834255,0.754936,0.456900,0.128768,0.556914,0.268292,0.506787,0.312071,0.108495,0.622170,0.546237,0.545802,0.386507,0.151628
1768292617.547849,1768292617.549119,49.000000,0.000000,4338.974121,4314.487305,4305.769043,4342.563965,4306.282227,4315.641113,4321.666504,4327.051270,4312.436035,4300.512695,4521.794922,4535.128418,4396.794922,4475.897461,0.000000,2.000000,46.000000,,,,0.000000,4.000000,4.000000,4.000000,4.000000,4.000000,4.000000,4.000000,4.000000,4.000000,4.000000,4.000000,4.000000,4.000000,4.000000,100.000000,,,,,,,,,,,,,,,,,,,,,,,,,,,,,,,,,,,,,,,,,,,,,,,,,,,,,,,,,,,,,,,,,,,,,,,,,,,,,,,,,,,,,,,,,,,,,,,,,,,,,,,,,,,,,,,,,,,,,
1768292617.555658,1768292617.556827,50.000000,0.000000,4334.102539,4313.717773,4302.436035,4340.769043,4307.051270,4310.897461,4319.102539,4327.692383,4318.974121,4295.000000,4522.436035,4529.871582,4396.922852,4477.051270,0.000000,2.000000,46.000000,,,,0.000000,4.000000,4.000000,4.000000,4.000000,4.000000,4.000000,4.000000,4.000000,4.000000,4.000000,4.000000,4.000000,4.000000,4.000000,100.000000,,,,,,,,,,,,,,,,,,,,,,,,,,,,,,,,,,,,,,,,,,,,,,,,,,,,,,,,,,,,,,,,,,,,,,,,,,,,,,,,,,,,,,,,,,,,,,,,,,,,,,,,,,,,,,,,,,,,,
1768292617.563466,1768292617.564636,51.000000,0.000000,4326.922852,4312.436035,4299.487305,4337.563965,4308.461426,4309.743652,4315.641113,4327.051270,4316.153809,4305.769043,4526.025879,4525.128418,4398.717773,4478.717773,0.000000,2.000000,46.000000,,,,0.000000,4.000000,4.000000,4.000000,4.000000,4.000000,4.000000,4.000000,4.000000,4.000000,4.000000,4.000000,4.000000,4.000000,4.000000,100.000000,,,,,,,,,,,,,,,,,,,,,,,,,,,,,,,,,,,,,,,,,,,,,,,,,,,,,,,,,,,,,,,,,,,,,,,,,,,,,,,,,,,,,,,,,,,,,,,,,,,,,,,,,,,,,,,,,,,,,
1768292617.571274,1768292617.572244,52.000000,0.000000,4326.282227,4311.538574,4302.692383,4336.538574,4305.512695,4313.077148,4316.282227,4322.692383,4309.487305,4307.179688,4522.436035,4523.461426,4396.282227,4475.641113,0.000000,2.000000,46.000000,,,,0.000000,4.000000,4.000000,4.000000,4.000000,4.000000,4.000000,4.000000,4.000000,4.000000,4.000000,4.000000,4.000000,4.000000,4.000000,100.000000,,,,,,,,,,,,,,,,,,,,,,,,,,,,,,,,,,,,,,,,,,,,,,,,,,,,,,,,,,,,,,,,,,,,,,,,,,,,,,,,,,,,,,,,,,,,,,,,,,,,,,,,,,,,,,,,,,,,,
1768292617.579083,1768292617.580053,53.000000,0.000000,4328.461426,4309.615234,4302.563965,4336.538574,4306.025879,4313.846191,4317.948730,4321.153809,4310.641113,4295.641113,4520.128418,4530.384766,4396.025879,4473.461426,0.000000,2.000000,46.000000,,,,0.000000,4.000000,4.000000,4.000000,4.000000,4.000000,4.000000,4.000000,4.000000,4.000000,4.000000,4.000000,4.000000,4.000000,4.000000,100.000000,,,,,,,,,,,,,,,,,,,,,,,,,,,,,,,,,,,,,,,,,,,,,,,,,,,,,,,,,,,,,,,,,,,,,,,,,,,,,,,,,,,,,,,,,,,,,,,,,,,,,,,,,,,,,,,,,,,,,
1768292617.586891,1768292617.587761,54.000000,0.000000,4326.153809,4307.563965,4296.666504,4332.051270,4307.051270,4312.820313,4317.948730,4328.589844,4316.153809,4293.077148,4525.769043,4537.051270,4394.743652,4473.077148,0.000000,2.000000,46.000000,,,,0.000000,4.000000,4.000000,4.000000,4.000000,4.000000,4.000000,4.000000,4.000000,4.000000,4.000000,4.000000,4.000000,4.000000,4.000000,100.000000,,,,,,,,,,,,,,,,,,,,,,,,,,,,,,,,,,,,,,,,,,,,,,,,,,,,,,,,,,,,,,,,,,,,,,,,,,,,,,,,,,,,,,,,,,,,,,,,,,,,,,,,,,,,,,,,,,,,,
1768292617.594700,1768292617.595570,55.000000,0.000000,4322.948730,4308.846191,4292.692383,4326.282227,4304.230957,4314.487305,4317.307617,4331.794922,4316.794922,4295.384766,4520.128418,4528.333496,4390.128418,4473.205078,0.000000,2.000000,46.000000,,,,0.000000,4.000000,4.000000,4.000000,4.000000,4.000000,4.000000,4.000000,4.000000,4.000000,4.000000,4.000000,4.000000,4.000000,4.000000,100.000000,,,,,,,,,,,,,,,,,,,,,,,,,,,,,,,,,,,,,,,,,,,,,,,,,,,,,,,,,,,,,,,,,,,,,,,,,,,,,,,,,,,,,,,,,,,,,,,,,,,,,,,,,,,,,,,,,,,,,
1768292617.602508,1768292617.603178,56.000000,0.000000,4327.563965,4309.487305,4297.692383,4328.333496,4305.000000,4316.282227,4317.307617,4323.461426,4311.282227,4292.563965,4508.717773,4520.256348,4392.436035,4474.487305,0.000000,2.000000,46.000000,,,,0.000000,4.000000,4.000000,4.000000,4.000000,4.000000,4.000000,4.000000,4.000000,4.000000,4.000000,4.000000,4.000000,4.000000,4.000000,100.000000,,,,,,,,,,,,,,,,,,,,,,,,,,,,,,,,,,,,,,,,,,,,,,,,,,,,,,,,,,,,,,,,,,,,,,,,,,,,,,,,,,,,,,,,,,,,,,,,,,,,,,,,,,,,,,,,,,,,,
1768292617.610317,1768292617.610987,57.000000,0.000000,4337.820313,4310.128418,4303.846191,4334.615234,4306.794922,4314.743652,4315.384766,4318.846191,4307.692383,4292.436035,4512.948730,4527.436035,4398.717773,4476.410156,0.000000,2.000000,46.000000,,,,0.000000,4.000000,4.000000,4.000000,4.000000,4.000000,4.000000,4.000000,4.000000,4.000000,4.000000,4.000000,4.000000,4.000000,4.000000,100.000000,,,,,,,,,,,,,,,,,,,,,,,,,,,,,,,,,,,,,,,,,,,,,,,,,,,,,,,,,,,,,,,,,,,,,,,,,,,,,,,,,,,,,,,,,,,,,,,,,,,,,,,,,,,,,,,,,,,,,
1768292617.618125,1768292617.618695,58.000000,0.000000,4342.179688,4314.615234,4301.922852,4334.615234,4305.769043,4311.153809,4312.692383,4322.179688,4311.153809,4298.205078,4518.461426,4533.717773,4396.666504,4477.692383,0.000000,2.000000,46.000000,,,,0.000000,4.000000,4.000000,4.000000,4.000000,4.000000,4.000000,4.000000,4.000000,4.000000,4.000000,4.000000,4.000000,4.000000,4.000000,100.000000,,,,,,,,,,,,,,,,,,,,,,,,,,,,,,,,,,,,,,,,,,,,,,,,,,,,,,,,,,,,,,,,,,,,,,,,,,,,,,,,,,,,,,,,,,,,,,,,,,,,,,,,,,,,,,,,,,,,,
1768292617.625934,1768292617.626504,59.000000,0.000000,4338.717773,4316.025879,4304.102539,4335.512695,4307.563965,4313.589844,4315.128418,4325.000000,4312.820313,4302.436035,4518.461426,4536.025879,4395.000000,4479.487305,0.000000,2.000000,46.000000,,,,0.000000,4.000000,4.000000,4.000000,4.000000,4.000000,4.000000,4.000000,4.000000,4.000000,4.000000,4.000000,4.000000,4.000000,4.000000,100.000000,,,,,,,,,,,,,,,,,,,,,,,,,,,,,,,,,,,,,,,,,,,,,,,,,,,,,,,,,,,,,,,,,,,,,,,,,,,,,,,,,,,,,,,,,,,,,,,,,,,,,,,,,,,,,,,,,,,,,
1768292617.633742,1768292617.634512,60.000000,0.000000,4337.948730,4312.307617,4309.102539,4341.025879,4310.897461,4314.871582,4318.333496,4325.512695,4312.051270,4302.820313,4518.974121,4534.743652,4397.820313,4479.230957,0.000000,2.000000,46.000000,,,,0.000000,4.000000,4.000000,4.000000,4.000000,4.000000,4.000000,4.000000,4.000000,4.000000,4.000000,4.000000,4.000000,4.000000,4.000000,100.000000,,,,,,,,,,,,,,,,,,,,,,,,,,,,,,,,,,,,,,,,,,,,,,,,,,,,,,,,,,,,,,,,,,,,,,,,,,,,,,,,,,,,,,,,,,,,,,,,,,,,,,,,,,,,,,,,,,,,,
1768292617.641550,1768292617.642320,61.000000,0.000000,4339.102539,4312.436035,4306.282227,4336.794922,4307.692383,4308.333496,4315.512695,4324.743652,4312.307617,4298.589844,4514.102539,4526.282227,4395.000000,4472.820313,0.000000,2.000000,46.000000,,,,0.000000,4.000000,4.000000,4.000000,4.000000,4.000000,4.000000,4.000000,4.000000,4.000000,4.000000,4.000000,4.000000,4.000000,4.000000,100.000000,,,,,,,,,,,,,,,,,,,,,,,,,,,,,,,,,,,,,,,,,,,,,,,,,,,,,,,,,,,,,,,,,,,,,,,,,,,,,,,,,,,,,,,,,,,,,,,,,,,,,,,,,,,,,,,,,,,,,
1768292617.649359,1768292617.650029,62.000000,0.000000,4340.769043,4318.974121,4303.589844,4332.051270,4304.230957,4309.743652,4314.230957,4325.128418,4311.282227,4298.077148,4511.794922,4526.666504,4394.230957,4475.512695,0.000000,2.000000,46.000000,,,,0.000000,4.000000,4.000000,4.000000,4.000000,4.000000,4.000000,4.000000,4.000000,4.000000,4.000000,4.000000,4.000000,4.000000,4.000000,100.000000,,,,,,,,,,,,,,,,,,,,,,,,,,,,,,,,,,,,,,,,,,,,,,,,,,,,,,,,,,,,,,,,,,,,,,,,,,,,,,,,,,,,,,,,,,,,,,,,,,,,,,,,,,,,,,,,,,,,,
1768292617.657167,1768292617.657837,63.000000,0.000000,4342.051270,4323.205078,4305.256348,4337.436035,4309.743652,4316.922852,4317.948730,4325.769043,4312.820313,4305.128418,4520.641113,4537.051270,4400.769043,4489.871582,0.000000,2.000000,46.000000,,,,0.000000,4.000000,4.000000,4.000000,4.000000,4.000000,4.000000,4.000000,4.000000,4.000000,4.000000,4.000000,4.000000,4.000000,4.000000,100.000000,,,,,,,,,,,,,,,,,,,,,,,,,,,,,,,,,,,,,,,,,,,,,,,,,,,,,,,,,,,,,,,,,,,,,,,,,,,,,,,,,,,,,,,,,,,,,,,,,,,,,,,,,,,,,,,,,,,,,
1768292617.664976,1768292617.665446,64.000000,0.000000,4341.153809,4323.589844,4305.897461,4341.153809,4315.897461,4316.538574,4318.333496,4324.615234,4318.205078,4309.358887,4526.025879,4542.051270,4403.846191,4492.179688,2287.000000,2.000000,46.000000,,,,0.000000,4.000000,4.000000,4.000000,4.000000,4.000000,4.000000,4.000000,4.000000,4.000000,4.000000,4.000000,4.000000,4.000000,4.000000,100.000000,,,,,,,,,,,,,,,,,,,,,,,,,,,,,,,,,,,,,,,,,,,,,,,,1.129077,0.306681,0.518291,0.409690,0.117995,0.452958,0.247525,0.317976,0.254419,0.094976,0.219536,0.084858,0.137943,0.146812,0.044923,0.474467,0.210193,0.477831,0.244385,0.097424,0.708415,0.220788,0.143332,0.089426,0.057517,0.077230,0.091352,0.068473,0.076440,0.050041,0.044903,0.214536,0.128431,0.090972,0.062422,0.164071,0.550452,0.525452,0.220601,0.146226,0.291125,0.685314,0.490033,0.209670,0.055744,1.698625,0.658751,0.459438,0.262580,0.109799,0.384758,0.398566,0.650121,0.391739,0.093400,0.299718,0.974028,0.733699,0.409551,0.127977,0.584683,0.346106,0.523445,0.320100,0.093035,0.610717,0.629185,0.543908,0.388726,0.150504
1768292617.672784,1768292617.673255,65.000000,0.000000,4342.948730,4325.000000,4305.128418,4341.282227,4317.307617,4314.743652,4317.563965,4323.974121,4320.641113,4308.846191,4521.410156,4535.897461,4402.563965,4479.615234,4011.000000,2.000000,46.000000,,,,0.000000,4.000000,4.000000,4.000000,4.000000,4.000000,4.000000,4.000000,4.000000,4.000000,4.000000,4.000000,4.000000,4.000000,4.000000,100.000000,,,,,,,,,,,,,,,,,,,,,,,,,,,,,,,,,,,,,,,,,,,,,,,,,,,,,,,,,,,,,,,,,,,,,,,,,,,,,,,,,,,,,,,,,,,,,,,,,,,,,,,,,,,,,,,,,,,,,
1768292617.680592,1768292617.680963,66.000000,0.000000,4341.538574,4320.512695,4303.846191,4339.487305,4314.615234,4315.897461,4318.205078,4324.358887,4316.794922,4308.077148,4515.128418,4523.846191,4399.358887,4467.948730,3954.000000,2.000000,46.000000,,,,0.000000,4.000000,4.000000,4.000000,4.000000,4.000000,4.000000,4.000000,4.000000,4.000000,4.000000,4.000000,4.000000,4.000000,4.000000,100.000000,,,,,,,,,,,,,,,,,,,,,,,,,,,,,,,,,,,,,,,,,,,,,,,,,,,,,,,,,,,,,,,,,,,,,,,,,,,,,,,,,,,,,,,,,,,,,,,,,,,,,,,,,,,,,,,,,,,,,
1768292617.688401,1768292617.688772,67.000000,0.000000,4336.794922,4311.538574,4300.769043,4331.794922,4310.897461,4314.102539,4314.871582,4326.153809,4311.922852,4304.230957,4515.384766,4523.974121,4398.589844,4475.128418,3882.000000,2.000000,46.000000,,,,0.000000,4.000000,4.000000,4.000000,4.000000,4.000000,4.000000,4.000000,4.000000,4.000000,4.000000,4.000000,4.000000,4.000000,4.000000,100.000000,,,,,,,,,,,,,,,,,,,,,,,,,,,,,,,,,,,,,,,,,,,,,,,,,,,,,,,,,,,,,,,,,,,,,,,,,,,,,,,,,,,,,,,,,,,,,,,,,,,,,,,,,,,,,,,,,,,,,
1768292617.696209,1768292617.696780,68.000000,0.000000,4336.410156,4308.461426,4300.384766,4325.384766,4310.256348,4315.512695,4314.487305,4328.333496,4309.743652,4300.897461,4520.128418,4536.153809,4398.333496,4487.692383,3727.000000,2.000000,46.000000,,,,0.000000,4.000000,4.000000,4.000000,4.000000,4.000000,4.000000,4.000000,4.000000,4.000000,4.000000,4.000000,4.000000,4.000000,4.000000,100.000000,,,,,,,,,,,,,,,,,,,,,,,,,,,,,,,,,,,,,,,,,,,,,,,,,,,,,,,,,,,,,,,,,,,,,,,,,,,,,,,,,,,,,,,,,,,,,,,,,,,,,,,,,,,,,,,,,,,,,
1768292617.704018,1768292617.704588,69.000000,0.000000,4333.717773,4306.922852,4302.436035,4325.000000,4308.846191,4321.153809,4320.128418,4326.282227,4311.153809,4301.410156,4513.846191,4531.666504,4391.282227,4482.051270,2822.000000,2.000000,46.000000,,,,0.000000,4.000000,4.000000,4.000000,4.000000,4.000000,4.000000,4.000000,4.000000,4.000000,4.000000,4.000000,4.000000,4.000000,4.000000,100.000000,,,,,,,,,,,,,,,,,,,,,,,,,,,,,,,,,,,,,,,,,,,,,,,,,,,,,,,,,,,,,,,,,,,,,,,,,,,,,,,,,,,,,,,,,,,,,,,,,,,,,,,,,,,,,,,,,,,,,
1768292617.711826,1768292617.712497,70.000000,0.000000,4328.974121,4307.179688,4302.307617,4328.205078,4308.205078,4318.589844,4321.410156,4326.538574,4318.974121,4306.410156,4510.641113,4523.589844,4390.512695,4471.666504,2583.000000,2.000000,46.000000,,,,0.000000,4.000000,4.000000,4.000000,4.000000,4.000000,4.000000,4.000000,4.000000,4.000000,4.000000,4.000000,4.000000,4.000000,4.000000,100.000000,,,,,,,,,,,,,,,,,,,,,,,,,,,,,,,,,,,,,,,,,,,,,,,,,,,,,,,,,,,,,,,,,,,,,,,,,,,,,,,,,,,,,,,,,,,,,,,,,,,,,,,,,,,,,,,,,,,,,
1768292617.719634,1768292617.720305,71.000000,0.000000,4341.025879,4319.358887,4307.563965,4338.461426,4314.743652,4318.077148,4323.589844,4337.307617,4328.461426,4320.256348,4531.922852,4545.512695,4408.589844,4485.384766,4044.000000,2.000000,46.000000,,,,0.000000,4.000000,4.000000,4.000000,4.000000,4.000000,4.000000,4.000000,4.000000,4.000000,4.000000,4.000000,4.000000,4.000000,4.000000,100.000000,,,,,,,,,,,,,,,,,,,,,,,,,,,,,,,,,,,,,,,,,,,,,,,,,,,,,,,,,,,,,,,,,,,,,,,,,,,,,,,,,,,,,,,,,,,,,,,,,,,,,,,,,,,,,,,,,,,,,
1768292617.727443,1768292617.728313,72.000000,0.000000,4359.743652,4330.000000,4315.128418,4347.179688,4318.077148,4321.666504,4328.589844,4343.974121,4330.641113,4329.230957,4547.307617,4566.794922,4422.051270,4508.717773,3418.000000,2.000000,46.000000,,,,0.000000,4.000000,4.000000,4.000000,4.000000,4.000000,4.000000,4.000000,4.000000,4.000000,4.000000,4.000000,4.000000,4.000000,4.000000,100.000000,,,,,,,,,,,,,,,,,,,,,,,,,,,,,,,,,,,,,,,,,,,,,,,,,,,,,,,,,,,,,,,,,,,,,,,,,,,,,,,,,,,,,,,,,,,,,,,,,,,,,,,,,,,,,,,,,,,,,
1768292617.735251,1768292617.736122,73.000000,0.000000,4356.922852,4325.769043,4312.563965,4343.717773,4315.384766,4318.461426,4324.102539,4333.205078,4323.589844,4318.846191,4536.410156,4557.436035,4411.025879,4504.102539,3837.000000,2.000000,46.000000,,,,0.000000,4.000000,4.000000,4.000000,4.000000,4.000000,4.000000,4.000000,4.000000,4.000000,4.000000,4.000000,4.000000,4.000000,4.000000,100.000000,,,,,,,,,,,,,,,,,,,,,,,,,,,,,,,,,,,,,,,,,,,,,,,,,,,,,,,,,,,,,,,,,,,,,,,,,,,,,,,,,,,,,,,,,,,,,,,,,,,,,,,,,,,,,,,,,,,,,
1768292617.743060,1768292617.744030,74.000000,0.000000,4343.461426,4320.000000,4302.948730,4339.102539,4315.512695,4313.974121,4315.769043,4321.794922,4313.846191,4306.666504,4517.563965,4535.128418,4395.512695,4482.820313,4335.000000,2.000000,46.000000,,,,0.000000,4.000000,4.000000,4.000000,4.000000,4.000000,4.000000,4.000000,4.000000,4.000000,4.000000,4.000000,4.000000,4.000000,4.000000,100.000000,,,,,,,,,,,,,,,,,,,,,,,,,,,,,,,,,,,,,,,,,,,,,,,,,,,,,,,,,,,,,,,,,,,,,,,,,,,,,,,,,,,,,,,,,,,,,,,,,,,,,,,,,,,,,,,,,,,,,
1768292617.750868,1768292617.751838,75.000000,0.000000,4339.487305,4319.487305,4298.974121,4337.051270,4317.563965,4312.948730,4316.410156,4320.512695,4309.871582,4304.230957,4506.666504,4521.153809,4391.025879,4470.128418,4742.000000,2.000000,46.000000,,,,0.000000,4.000000,4.000000,4.000000,4.000000,4.000000,4.000000,4.000000,4.000000,4.000000,4.000000,4.000000,4.000000,4.000000,4.000000,100.000000,,,,,,,,,,,,,,,,,,,,,,,,,,,,,,,,,,,,,,,,,,,,,,,,,,,,,,,,,,,,,,,,,,,,,,,,,,,,,,,,,,,,,,,,,,,,,,,,,,,,,,,,,,,,,,,,,,,,,
1768292617.758677,1768292617.759447,76.000000,0.000000,4342.307617,4321.025879,4302.820313,4336.538574,4316.794922,4312.692383,4320.000000,4323.205078,4313.846191,4305.000000,4512.948730,4526.282227,4392.307617,4469.871582,4741.000000,2.000000,46.000000,,,,0.000000,4.000000,4.000000,4.000000,4.000000,4.000000,4.000000,4.000000,4.000000,4.000000,4.000000,4.000000,4.000000,4.000000,4.000000,100.000000,,,,,,,,,,,,,,,,,,,,,,,,,,,,,,,,,,,,,,,,,,,,,,,,,,,,,,,,,,,,,,,,,,,,,,,,,,,,,,,,,,,,,,,,,,,,,,,,,,,,,,,,,,,,,,,,,,,,,
1768292617.766485,1768292617.767256,77.000000,0.000000,4345.384766,4323.205078,4305.256348,4338.589844,4318.077148,4315.384766,4320.256348,4324.743652,4313.974121,4308.589844,4524.615234,4539.615234,4396.922852,4484.487305,5639.000000,2.000000,46.000000,,,,0.000000,4.000000,4.000000,4.000000,4.000000,4.000000,4.000000,4.000000,4.000000,4.000000,4.000000,4.000000,4.000000,4.000000,4.000000,100.000000,,,,,,,,,,,,,,,,,,,,,,,,,,,,,,,,,,,,,,,,,,,,,,,,,,,,,,,,,,,,,,,,,,,,,,,,,,,,,,,,,,,,,,,,,,,,,,,,,,,,,,,,,,,,,,,,,,,,,
1768292617.774294,1768292617.775164,78.000000,0.000000,4348.589844,4323.717773,4303.333496,4337.307617,4321.538574,4319.230957,4320.256348,4326.153809,4310.897461,4311.410156,4524.230957,4540.384766,4402.051270,4491.282227,4335.000000,2.000000,46.000000,,,,0.000000,4.000000,4.000000,4.000000,4.000000,4.000000,4.000000,4.000000,4.000000,4.000000,4.000000,4.000000,4.000000,4.000000,4.000000,100.000000,,,,,,,,,,,,,,,,,,,,,,,,,,,,,,,,,,,,,,,,,,,,,,,,,,,,,,,,,,,,,,,,,,,,,,,,,,,,,,,,,,,,,,,,,,,,,,,,,,,,,,,,,,,,,,,,,,,,,
1768292617.782102,1768292617.782972,79.000000,0.000000,4349.230957,4322.948730,4300.128418,4335.769043,4318.846191,4316.153809,4320.256348,4327.948730,4316.794922,4310.000000,4520.897461,4535.769043,4401.922852,4480.384766,4742.000000,2.000000,46.000000,,,,0.000000,4.000000,4.000000,4.000000,4.000000,4.000000,4.000000,4.000000,4.000000,4.000000,4.000000,4.000000,4.000000,4.000000,4.000000,100.000000,,,,,,,,,,,,,,,,,,,,,,,,,,,,,,,,,,,,,,,,,,,,,,,,,,,,,,,,,,,,,,,,,,,,,,,,,,,,,,,,,,,,,,,,,,,,,,,,,,,,,,,,,,,,,,,,,,,,,
1768292617.789910,1768292617.790581,80.000000,0.000000,4346.922852,4322.436035,4297.563965,4338.333496,4315.128418,4313.717773,4316.794922,4325.000000,4320.512695,4310.256348,4521.282227,4535.897461,4396.538574,4476.282227,4741.000000,2.000000,46.000000,,,,0.000000,4.000000,4.000000,4.000000,4.000000,4.000000,4.000000,4.000000,4.000000,4.000000,4.000000,4.000000,4.000000,4.000000,4.000000,100.000000,1.000000,8.333333,4.000000,4.000000,1.000000,4.000000,4.000000,0.000000,0.000000,4.000000,4.000000,4.000000,4.000000,4.000000,4.000000,4.000000,,,,,,,,,,,,,,,,,,,,,,,,,,,,,,,,1.037209,0.241291,0.522946,0.390446,0.105269,0.482092,0.247755,0.325693,0.263421,0.089677,0.174573,0.088175,0.140212,0.143149,0.049413,0.497615,0.203346,0.489375,0.239009,0.095906,0.614346,0.263305,0.154658,0.091810,0.055347,0.092232,0.081925,0.059873,0.070311,0.050796,0.040972,0.236646,0.119789,0.094825,0.065053,0.138664,0.560689,0.534552,0.228553,0.169136,0.292869,0.692115,0.505295,0.224291,0.059765,1.989435,0.671120,0.446333,0.295745,0.115797,0.397221,0.455241,0.579430,0.366353,0.093206,0.249343,1.026389,0.648946,0.382721,0.136896,0.641987,0.446127,0.504455,0.333877,0.087364,0.570978,0.694126,0.506264,0.402253,0.148737
1768292617.797719,1768292617.798389,81.000000,0.000000,4352.563965,4323.974121,4299.743652,4339.615234,4316.410156,4319.102539,4317.820313,4323.717773,4316.410156,4309.615234,4521.922852,4538.974121,4398.589844,4490.512695,5639.000000,2.000000,46.000000,,,,0.000000,4.000000,4.000000,4.000000,4.000000,4.000000,4.000000,4.000000,4.000000,4.000000,4.000000,4.000000,4.000000,4.000000,4.000000,100.000000,,,,,,,,,,,,,,,,,,,,,,,,,,,,,,,,,,,,,,,,,,,,,,,,,,,,,,,,,,,,,,,,,,,,,,,,,,,,,,,,,,,,,,,,,,,,,,,,,,,,,,,,,,,,,,,,,,,,,
1768292617.805527,1768292617.806098,82.000000,0.000000,4358.974121,4326.410156,4307.692383,4339.743652,4317.948730,4319.487305,4322.051270,4327.436035,4319.102539,4306.666504,4524.743652,4542.692383,4400.641113,4497.692383,4335.000000,2.000000,46.000000,,,,0.000000,4.000000,4.000000,4.000000,4.000000,4.000000,4.000000,4.000000,4.000000,4.000000,4.000000,4.000000,4.000000,4.000000,4.000000,100.000000,,,,,,,,,,,,,,,,,,,,,,,,,,,,,,,,,,,,,,,,,,,,,,,,,,,,,,,,,,,,,,,,,,,,,,,,,,,,,,,,,,,,,,,,,,,,,,,,,,,,,,,,,,,,,,,,,,,,,
1768292617.813336,1768292617.813906,83.000000,0.000000,4354.615234,4324.230957,4309.871582,4342.563965,4315.000000,4312.820313,4318.333496,4326.538574,4319.871582,4307.563965,4522.436035,4538.589844,4391.922852,4483.333496,4742.000000,2.000000,46.000000,,,,0.000000,4.000000,4.000000,4.000000,4.000000,4.000000,4.000000,4.000000,4.000000,4.000000,4.000000,4.000000,4.000000,4.000000,4.000000,100.000000,,,,,,,,,,,,,,,,,,,,,,,,,,,,,,,,,,,,,,,,,,,,,,,,,,,,,,,,,,,,,,,,,,,,,,,,,,,,,,,,,,,,,,,,,,,,,,,,,,,,,,,,,,,,,,,,,,,,,
1768292617.821144,1768292617.821915,84.000000,0.000000,4346.794922,4316.794922,4305.384766,4341.025879,4310.256348,4312.563965,4317.692383,4324.102539,4313.589844,4309.358887,4517.563965,4531.666504,4389.615234,4475.256348,4741.000000,2.000000,46.000000,,,,0.000000,4.000000,4.000000,4.000000,4.000000,4.000000,4.000000,4.000000,4.000000,4.000000,4.000000,4.000000,4.000000,4.000000,4.000000,100.000000,,,,,,,,,,,,,,,,,,,,,,,,,,,,,,,,,,,,,,,,,,,,,,,,,,,,,,,,,,,,,,,,,,,,,,,,,,,,,,,,,,,,,,,,,,,,,,,,,,,,,,,,,,,,,,,,,,,,,
1768292617.828952,1768292617.829723,85.000000,0.000000,4343.974121,4312.179688,4306.153809,4336.922852,4311.666504,4319.358887,4326.538574,4327.307617,4317.051270,4312.436035,4522.179688,4537.051270,4398.589844,4485.256348,5639.000000,2.000000,46.000000,,,,0.000000,4.000000,4.000000,4.000000,4.000000,4.000000,4.000000,4.000000,4.000000,4.000000,4.000000,4.000000,4.000000,4.000000,4.000000,100.000000,,,,,,,,,,,,,,,,,,,,,,,,,,,,,,,,,,,,,,,,,,,,,,,,,,,,,,,,,,,,,,,,,,,,,,,,,,,,,,,,,,,,,,,,,,,,,,,,,,,,,,,,,,,,,,,,,,,,,
1768292617.836761,1768292617.837632,86.000000,0.000000,4342.820313,4310.769043,4306.538574,4336.794922,4312.563965,4320.256348,4324.487305,4326.538574,4320.256348,4311.666504,4521.410156,4537.051270,4394.743652,4486.410156,4335.000000,2.000000,46.000000,,,,0.000000,4.000000,4.000000,4.000000,4.000000,4.000000,4.000000,4.000000,4.000000,4.000000,4.000000,4.000000,4.000000,4.000000,4.000000,100.000000,,,,,,,,,,,,,,,,,,,,,,,,,,,,,,,,,,,,,,,,,,,,,,,,,,,,,,,,,,,,,,,,,,,,,,,,,,,,,,,,,,,,,,,,,,,,,,,,,,,,,,,,,,,,,,,,,,,,,
1768292617.844569,1768292617.845440,87.000000,0.000000,4341.538574,4310.512695,4303.717773,4336.282227,4307.051270,4317.051270,4314.102539,4321.922852,4315.897461,4301.410156,4513.589844,4524.871582,4383.205078,4472.179688,4742.000000,2.000000,46.000000,,,,0.000000,4.000000,4.000000,4.000000,4.000000,4.000000,4.000000,4.000000,4.000000,4.000000,4.000000,4.000000,4.000000,4.000000,4.000000,100.000000,,,,,,,,,,,,,,,,,,,,,,,,,,,,,,,,,,,,,,,,,,,,,,,,,,,,,,,,,,,,,,,,,,,,,,,,,,,,,,,,,,,,,,,,,,,,,,,,,,,,,,,,,,,,,,,,,,,,,
1768292617.852378,1768292617.853049,88.000000,0.000000,4341.538574,4311.922852,4306.025879,4335.384766,4305.256348,4316.282227,4316.538574,4326.153809,4320.512695,4294.487305,4517.820313,4526.282227,4387.563965,4476.538574,4741.000000,2.000000,46.000000,,,,0.000000,4.000000,4.000000,4.000000,4.000000,4.000000,4.000000,4.000000,4.000000,4.000000,4.000000,4.000000,4.000000,4.000000,4.000000,100.000000,,,,,,,,,,,,,,,,,,,,,,,,,,,,,,,,,,,,,,,,,,,,,,,,,,,,,,,,,,,,,,,,,,,,,,,,,,,,,,,,,,,,,,,,,,,,,,,,,,,,,,,,,,,,,,,,,,,,,
1768292617.860186,1768292617.860857,89.000000,0.000000,4340.256348,4310.897461,4307.948730,4338.205078,4307.179688,4317.179688,4328.589844,4330.384766,4324.230957,4297.307617,4526.410156,4542.563965,4398.077148,4493.717773,5639.000000,2.000000,46.000000,,,,0.000000,4.000000,4.000000,4.000000,4.000000,4.000000,4.000000,4.000000,4.000000,4.000000,4.000000,4.000000,4.000000,4.000000,4.000000,100.000000,,,,,,,,,,,,,,,,,,,,,,,,,,,,,,,,,,,,,,,,,,,,,,,,,,,,,,,,,,,,,,,,,,,,,,,,,,,,,,,,,,,,,,,,,,,,,,,,,,,,,,,,,,,,,,,,,,,,,
1768292617.867994,1768292617.868566,90.000000,0.000000,4342.051270,4311.922852,4304.615234,4342.563965,4302.820313,4319.230957,4328.461426,4321.922852,4312.051270,4292.692383,4523.846191,4540.000000,4398.717773,4488.974121,4335.000000,2.000000,46.000000,,,,0.000000,4.000000,4.000000,4.000000,4.000000,4.000000,4.000000,4.000000,4.000000,4.000000,4.000000,4.000000,4.000000,4.000000,4.000000,100.000000,,,,,,,,,,,,,,,,,,,,,,,,,,,,,,,,,,,,,,,,,,,,,,,,,,,,,,,,,,,,,,,,,,,,,,,,,,,,,,,,,,,,,,,,,,,,,,,,,,,,,,,,,,,,,,,,,,,,,
1768292617.875803,1768292617.876374,91.000000,0.000000,4340.769043,4311.666504,4302.820313,4342.051270,4297.820313,4319.358887,4318.589844,4317.948730,4306.666504,4283.974121,4519.743652,4524.871582,4396.025879,4473.589844,4742.000000,2.000000,46.000000,,,,0.000000,4.000000,4.000000,4.000000,4.000000,4.000000,4.000000,4.000000,4.000000,4.000000,4.000000,4.000000,4.000000,4.000000,4.000000,100.000000,,,,,,,,,,,,,,,,,,,,,,,,,,,,,,,,,,,,,,,,,,,,,,,,,,,,,,,,,,,,,,,,,,,,,,,,,,,,,,,,,,,,,,,,,,,,,,,,,,,,,,,,,,,,,,,,,,,,,
1768292617.883611,1768292617.883983,92.000000,0.000000,4328.461426,4302.179688,4306.153809,4338.461426,4299.358887,4318.717773,4320.897461,4331.153809,4317.948730,4287.948730,4521.922852,4527.692383,4396.538574,4468.461426,4741.000000,2.000000,46.000000,,,,0.000000,4.000000,4.000000,4.000000,4.000000,4.000000,4.000000,4.000000,4.000000,4.000000,4.000000,4.000000,4.000000,4.000000,4.000000,100.000000,,,,,,,,,,,,,,,,,,,,,,,,,,,,,,,,,,,,,,,,,,,,,,,,,,,,,,,,,,,,,,,,,,,,,,,,,,,,,,,,,,,,,,,,,,,,,,,,,,,,,,,,,,,,,,,,,,,,,
1768292617.891420,1768292617.891791,93.000000,0.000000,4322.563965,4299.743652,4308.333496,4338.461426,4297.563965,4318.846191,4328.333496,4333.205078,4320.384766,4290.256348,4522.563965,4535.769043,4396.538574,4470.128418,5639.000000,2.000000,46.000000,,,,0.000000,4.000000,4.000000,4.000000,4.000000,4.000000,4.000000,4.000000,4.000000,4.000000,4.000000,4.000000,4.000000,4.000000,4.000000,100.000000,,,,,,,,,,,,,,,,,,,,,,,,,,,,,,,,,,,,,,,,,,,,,,,,,,,,,,,,,,,,,,,,,,,,,,,,,,,,,,,,,,,,,,,,,,,,,,,,,,,,,,,,,,,,,,,,,,,,,
1768292617.899228,1768292617.899699,94.000000,0.000000,4334.743652,4313.333496,4308.333496,4341.153809,4292.436035,4317.563965,4322.692383,4313.974121,4309.358887,4278.333496,4517.179688,4528.589844,4392.307617,4475.128418,4335.000000,2.000000,46.000000,,,,0.000000,4.000000,4.000000,4.000000,4.000000,4.000000,4.000000,4.000000,4.000000,4.000000,4.000000,4.000000,4.000000,4.000000,4.000000,100.000000,,,,,,,,,,,,,,,,,,,,,,,,,,,,,,,,,,,,,,,,,,,,,,,,,,,,,,,,,,,,,,,,,,,,,,,,,,,,,,,,,,,,,,,,,,,,,,,,,,,,,,,,,,,,,,,,,,,,,
1768292617.907037,1768292617.907508,95.000000,0.000000,4345.256348,4317.820313,4309.743652,4342.692383,4294.615234,4315.128418,4316.538574,4309.487305,4307.563965,4275.769043,4512.820313,4522.563965,4391.410156,4477.179688,4742.000000,2.000000,46.000000,,,,0.000000,4.000000,4.000000,4.000000,4.000000,4.000000,4.000000,4.000000,4.000000,4.000000,4.000000,4.000000,4.000000,4.000000,4.000000,100.000000,,,,,,,,,,,,,,,,,,,,,,,,,,,,,,,,,,,,,,,,,,,,,,,,,,,,,,,,,,,,,,,,,,,,,,,,,,,,,,,,,,,,,,,,,,,,,,,,,,,,,,,,,,,,,,,,,,,,,
1768292617.914845,1768292617.915516,96.000000,0.000000,4342.436035,4311.922852,4313.974121,4342.436035,4300.000000,4316.153809,4322.563965,4326.794922,4318.589844,4289.743652,4518.717773,4531.666504,4395.769043,4475.897461,4741.000000,2.000000,46.000000,,,,0.000000,4.000000,4.000000,4.000000,4.000000,4.000000,4.000000,4.000000,4.000000,4.000000,4.000000,4.000000,4.000000,4.000000,4.000000,100.000000,,,,,,,,,,,,,,,,,,,,,,,,,,,,,,,,,,,,,,,,,,,,,,,,0.980012,0.213885,0.488562,0.361008,0.102048,0.538750,0.252206,0.305719,0.269893,0.090127,0.140907,0.097974,0.141220,0.136112,0.054792,0.527803,0.204289,0.474251,0.229525,0.102144,0.598205,0.308813,0.171862,0.093124,0.051376,0.098347,0.065757,0.054516,0.064464,0.051678,0.049020,0.239274,0.116636,0.100683,0.068511,0.128247,0.539930,0.498563,0.258657,0.191848,0.279958,0.639325,0.477328,0.238207,0.069787,2.125420,0.706433,0.403434,0.343440,0.122400,0.412469,0.483440,0.476151,0.357336,0.099007,0.208352,0.985034,0.519666,0.381321,0.162142,0.691526,0.540669,0.452108,0.349475,0.088574,0.505401,0.720630,0.439417,0.419757,0.147370
1768292617.922654,1768292617.923325,97.000000,0.000000,4339.230957,4315.128418,4314.743652,4341.666504,4302.563965,4321.282227,4325.256348,4332.051270,4324.230957,4297.563965,4524.358887,4536.025879,4397.563965,4475.384766,5639.000000,2.000000,46.000000,,,,0.000000,4.000000,4.000000,4.000000,4.000000,4.000000,4.000000,4.000000,4.000000,4.000000,4.000000,4.000000,4.000000,4.000000,4.000000,100.000000,,,,,,,,,,,,,,,,,,,,,,,,,,,,,,,,,,,,,,,,,,,,,,,,,,,,,,,,,,,,,,,,,,,,,,,,,,,,,,,,,,,,,,,,,,,,,,,,,,,,,,,,,,,,,,,,,,,,,
1768292617.930462,1768292617.931233,98.000000,0.000000,4339.871582,4319.230957,4311.153809,4342.692383,4304.358887,4322.820313,4320.512695,4325.641113,4318.717773,4292.436035,4521.153809,4529.358887,4395.384766,4474.743652,4335.000000,2.000000,46.000000,,,,0.000000,4.000000,4.000000,4.000000,4.000000,4.000000,4.000000,4.000000,4.000000,4.000000,4.000000,4.000000,4.000000,4.000000,4.000000,100.000000,,,,,,,,,,,,,,,,,,,,,,,,,,,,,,,,,,,,,,,,,,,,,,,,,,,,,,,,,,,,,,,,,,,,,,,,,,,,,,,,,,,,,,,,,,,,,,,,,,,,,,,,,,,,,,,,,,,,,
1768292617.938270,1768292617.939041,99.000000,0.000000,4341.410156,4317.436035,4313.717773,4345.897461,4306.666504,4320.256348,4322.692383,4329.487305,4317.948730,4291.282227,4521.282227,4532.563965,4397.563965,4476.282227,4742.000000,2.000000,46.000000,,,,0.000000,4.000000,4.000000,4.000000,4.000000,4.000000,4.000000,4.000000,4.000000,4.000000,4.000000,4.000000,4.000000,4.000000,4.000000,100.000000,,,,,,,,,,,,,,,,,,,,,,,,,,,,,,,,,,,,,,,,,,,,,,,,,,,,,,,,,,,,,,,,,,,,,,,,,,,,,,,,,,,,,,,,,,,,,,,,,,,,,,,,,,,,,,,,,,,,,
1768292617.946079,1768292617.947050,100.000000,0.000000,4342.436035,4315.128418,4316.794922,4345.897461,4310.512695,4319.102539,4326.538574,4331.538574,4323.077148,4296.025879,4524.358887,4536.794922,4399.871582,4477.820313,4741.000000,2.000000,46.000000,,,,0.000000,4.000000,4.000000,4.000000,4.000000,4.000000,4.000000,4.000000,4.000000,4.000000,4.000000,4.000000,4.000000,4.000000,4.000000,100.000000,,,,,,,,,,,,,,,,,,,,,,,,,,,,,,,,,,,,,,,,,,,,,,,,,,,,,,,,,,,,,,,,,,,,,,,,,,,,,,,,,,,,,,,,,,,,,,,,,,,,,,,,,,,,,,,,,,,,,
1768292617.953887,1768292617.954858,101.000000,0.000000,4337.051270,4312.563965,4310.512695,4341.538574,4310.512695,4319.743652,4324.230957,4326.282227,4320.384766,4295.256348,4522.820313,4528.333496,4396.153809,4474.102539,5639.000000,2.000000,46.000000,,,,0.000000,4.000000,4.000000,4.000000,4.000000,4.000000,4.000000,4.000000,4.000000,4.000000,4.000000,4.000000,4.000000,4.000000,4.000000,100.000000,,,,,,,,,,,,,,,,,,,,,,,,,,,,,,,,,,,,,,,,,,,,,,,,,,,,,,,,,,,,,,,,,,,,,,,,,,,,,,,,,,,,,,,,,,,,,,,,,,,,,,,,,,,,,,,,,,,,,
1768292617.961696,1768292617.962567,102.000000,0.000000,4335.128418,4315.641113,4306.282227,4341.538574,4307.948730,4317.948730,4322.948730,4327.436035,4313.589844,4292.436035,4522.692383,4522.692383,4396.410156,4473.846191,4335.000000,2.000000,46.000000,,,,0.000000,4.000000,4.000000,4.000000,4.000000,4.000000,4.000000,4.000000,4.000000,4.000000,4.000000,4.000000,4.000000,4.000000,4.000000,100.000000,,,,,,,,,,,,,,,,,,,,,,,,,,,,,,,,,,,,,,,,,,,,,,,,,,,,,,,,,,,,,,,,,,,,,,,,,,,,,,,,,,,,,,,,,,,,,,,,,,,,,,,,,,,,,,,,,,,,,
1768292617.969504,1768292617.970375,103.000000,0.000000,4340.641113,4322.692383,4307.948730,4343.333496,4307.820313,4313.077148,4321.153809,4326.282227,4312.179688,4294.743652,4524.743652,4527.179688,4400.641113,4478.077148,4742.000000,2.000000,46.000000,,,,0.000000,4.000000,4.000000,4.000000,4.000000,4.000000,4.000000,4.000000,4.000000,4.000000,4.000000,4.000000,4.000000,4.000000,4.000000,100.000000,,,,,,,,,,,,,,,,,,,,,,,,,,,,,,,,,,,,,,,,,,,,,,,,,,,,,,,,,,,,,,,,,,,,,,,,,,,,,,,,,,,,,,,,,,,,,,,,,,,,,,,,,,,,,,,,,,,,,
1768292617.977312,1768292617.977984,104.000000,0.000000,4341.922852,4323.077148,4306.922852,4340.897461,4306.538574,4311.153809,4314.487305,4318.589844,4310.000000,4295.000000,4522.179688,4525.256348,4397.692383,4476.410156,4741.000000,2.000000,46.000000,,,,0.000000,4.000000,4.000000,4.000000,4.000000,4.000000,4.000000,4.000000,4.000000,4.000000,4.000000,4.000000,4.000000,4.000000,4.000000,100.000000,,,,,,,,,,,,,,,,,,,,,,,,,,,,,,,,,,,,,,,,,,,,,,,,,,,,,,,,,,,,,,,,,,,,,,,,,,,,,,,,,,,,,,,,,,,,,,,,,,,,,,,,,,,,,,,,,,,,,
1768292617.985121,1768292617.985792,105.000000,0.000000,4340.000000,4321.282227,4306.282227,4340.769043,4305.384766,4313.077148,4313.205078,4319.358887,4313.205078,4291.922852,4520.384766,4521.153809,4394.487305,4473.461426,5639.000000,2.000000,46.000000,,,,0.000000,4.000000,4.000000,4.000000,4.000000,4.000000,4.000000,4.000000,4.000000,4.000000,4.000000,4.000000,4.000000,4.000000,4.000000,100.000000,,,,,,,,,,,,,,,,,,,,,,,,,,,,,,,,,,,,,,,,,,,,,,,,,,,,,,,,,,,,,,,,,,,,,,,,,,,,,,,,,,,,,,,,,,,,,,,,,,,,,,,,,,,,,,,,,,,,,
1768292617.992929,1768292617.993701,106.000000,0.000000,4341.922852,4322.307617,4307.307617,4342.051270,4306.794922,4315.128418,4319.230957,4326.410156,4321.538574,4297.051270,4523.205078,4525.000000,4399.871582,4477.307617,4335.000000,2.000000,46.000000,,,,0.000000,4.000000,4.000000,4.000000,4.000000,4.000000,4.000000,4.000000,4.000000,4.000000,4.000000,4.000000,4.000000,4.000000,4.000000,100.000000,,,,,,,,,,,,,,,,,,,,,,,,,,,,,,,,,,,,,,,,,,,,,,,,,,,,,,,,,,,,,,,,,,,,,,,,,,,,,,,,,,,,,,,,,,,,,,,,,,,,,,,,,,,,,,,,,,,,,
1768292618.000738,1768292618.001509,107.000000,0.000000,4342.051270,4319.871582,4305.256348,4341.153809,4308.077148,4316.282227,4321.153809,4326.282227,4319.743652,4304.487305,4524.743652,4525.641113,4400.641113,4477.436035,4742.000000,2.000000,46.000000,,,,0.000000,4.000000,4.000000,4.000000,4.000000,4.000000,4.000000,4.000000,4.000000,4.000000,4.000000,4.000000,4.000000,4.000000,4.000000,100.000000,,,,,,,,,,,,,,,,,,,,,,,,,,,,,,,,,,,,,,,,,,,,,,,,,,,,,,,,,,,,,,,,,,,,,,,,,,,,,,,,,,,,,,,,,,,,,,,,,,,,,,,,,,,,,,,,,,,,,
1768292618.008546,1768292618.009118,108.000000,0.000000,4341.025879,4320.000000,4303.333496,4342.051270,4308.717773,4318.461426,4319.871582,4326.282227,4316.666504,4305.897461,4524.230957,4524.615234,4399.358887,4476.666504,4741.000000,2.000000,46.000000,,,,0.000000,4.000000,4.000000,4.000000,4.000000,4.000000,4.000000,4.000000,4.000000,4.000000,4.000000,4.000000,4.000000,4.000000,4.000000,100.000000,,,,,,,,,,,,,,,,,,,,,,,,,,,,,,,,,,,,,,,,,,,,,,,,,,,,,,,,,,,,,,,,,,,,,,,,,,,,,,,,,,,,,,,,,,,,,,,,,,,,,,,,,,,,,,,,,,,,,
1768292618.016354,1768292618.016926,109.000000,0.000000,4346.922852,4324.871582,4305.128418,4342.436035,4308.974121,4319.230957,4322.563965,4329.871582,4320.000000,4306.025879,4524.743652,4526.153809,4407.307617,4483.333496,5639.000000,2.000000,46.000000,,,,0.000000,4.000000,4.000000,4.000000,4.000000,4.000000,4.000000,4.000000,4.000000,4.000000,4.000000,4.000000,4.000000,4.000000,4.000000,100.000000,,,,,,,,,,,,,,,,,,,,,,,,,,,,,,,,,,,,,,,,,,,,,,,,,,,,,,,,,,,,,,,,,,,,,,,,,,,,,,,,,,,,,,,,,,,,,,,,,,,,,,,,,,,,,,,,,,,,,
1768292618.024163,1768292618.024635,110.000000,0.000000,4351.282227,4325.769043,4306.538574,4341.025879,4311.666504,4316.153809,4321.410156,4327.948730,4315.384766,4301.666504,4524.102539,4525.000000,4408.205078,4491.025879,4335.000000,2.000000,46.000000,,,,0.000000,4.000000,4.000000,4.000000,4.000000,4.000000,4.000000,4.000000,4.000000,4.000000,4.000000,4.000000,4.000000,4.000000,4.000000,100.000000,,,,,,,,,,,,,,,,,,,,,,,,,,,,,,,,,,,,,,,,,,,,,,,,,,,,,,,,,,,,,,,,,,,,,,,,,,,,,,,,,,,,,,,,,,,,,,,,,,,,,,,,,,,,,,,,,,,,,
1768292618.031971,1768292618.032443,111.000000,0.000000,4345.897461,4321.794922,4306.666504,4340.000000,4313.846191,4314.871582,4319.871582,4324.358887,4307.948730,4297.692383,4522.307617,4528.717773,4400.641113,4491.282227,4742.000000,2.000000,46.000000,,,,0.000000,4.000000,4.000000,4.000000,4.000000,4.000000,4.000000,4.000000,4.000000,4.000000,4.000000,4.000000,4.000000,4.000000,4.000000,100.000000,,,,,,,,,,,,,,,,,,,,,,,,,,,,,,,,,,,,,,,,,,,,,,,,,,,,,,,,,,,,,,,,,,,,,,,,,,,,,,,,,,,,,,,,,,,,,,,,,,,,,,,,,,,,,,,,,,,,,
1768292618.039780,1768292618.040451,112.000000,0.000000,4340.769043,4318.461426,4308.205078,4341.282227,4312.051270,4315.769043,4322.820313,4326.153809,4311.666504,4305.769043,4522.051270,4534.487305,4403.717773,4484.102539,4741.000000,2.000000,46.000000,,,,0.000000,4.000000,4.000000,4.000000,4.000000,4.000000,4.000000,4.000000,4.000000,4.000000,4.000000,4.000000,4.000000,4.000000,4.000000,100.000000,,,,,,,,,,,,,,,,,,,,,,,,,,,,,,,,,,,,,,,,,,,,,,,,0.936765,0.234201,0.430601,0.328228,0.107667,0.620741,0.268069,0.271373,0.273998,0.093946,0.125210,0.121510,0.140935,0.128132,0.060506,0.559771,0.227873,0.439819,0.223872,0.112300,0.650336,0.345872,0.187488,0.092725,0.046284,0.094155,0.048009,0.050035,0.060374,0.053175,0.068666,0.223142,0.112299,0.107052,0.073079,0.130025,0.501413,0.423327,0.304253,0.210260,0.251382,0.542438,0.418417,0.248425,0.083974,2.075699,0.739602,0.337623,0.394185,0.127317,0.418337,0.472350,0.371035,0.364077,0.112212,0.185525,0.872314,0.386519,0.398647,0.207611,0.713829,0.596410,0.380181,0.361977,0.092617,0.428736,0.699078,0.367090,0.430980,0.152852
