Timestamp,OriginalTimestamp,EEG.Counter,EEG.Interpolated,EEG.AF3,EEG.F7,EEG.F3,EEG.FC5,EEG.T7,EEG.P7,EEG.O1,EEG.O2,EEG.P8,EEG.T8,EEG.FC6,EEG.F4,EEG.F8,EEG.AF4,POW.AF3.Theta,POW.AF3.Alpha,POW.AF3.BetaL,POW.AF3.BetaH,POW.AF3.Gamma,POW.F7.Theta,POW.F7.Alpha,POW.F7.BetaL,POW.F7.BetaH,POW.F7.Gamma,POW.F3.Theta,POW.F3.Alpha,POW.F3.BetaL,POW.F3.BetaH,POW.F3.Gamma,POW.FC5.Theta,POW.FC5.Alpha,POW.FC5.BetaL,POW.FC5.BetaH,POW.FC5.Gamma,POW.T7.Theta,POW.T7.Alpha,POW.T7.BetaL,POW.T7.BetaH,POW.T7.Gamma,POW.P7.Theta,POW.P7.Alpha,POW.P7.BetaL,POW.P7.BetaH,POW.P7.Gamma,POW.O1.Theta,POW.O1.Alpha,POW.O1.BetaL,POW.O1.BetaH,POW.O1.Gamma,POW.O2.Theta,POW.O2.Alpha,POW.O2.BetaL,POW.O2.BetaH,POW.O2.Gamma,POW.P8.Theta,POW.P8.Alpha,POW.P8.BetaL,POW.P8.BetaH,POW.P8.Gamma,POW.T8.Theta,POW.T8.Alpha,POW.T8.BetaL,POW.T8.BetaH,POW.T8.Gamma,POW.FC6.Theta,POW.FC6.Alpha,POW.FC6.BetaL,POW.FC6.BetaH,POW.FC6.Gamma,POW.F4.Theta,POW.F4.Alpha,POW.F4.BetaL,POW.F4.BetaH,POW.F4.Gamma,POW.F8.Theta,POW.F8.Alpha,POW.F8.BetaL,POW.F8.BetaH,POW.F8.Gamma,POW.AF4.Theta,POW.AF4.Alpha,POW.AF4.BetaL,POW.AF4.BetaH,POW.AF4.Gamma
1768918288.708839,1768918288.709285,39.0,0.0,4325.384766,4316.538574,4339.487305,4342.05127,4307.692383,4325.128418,4314.102539,4332.436035,4336.025879,4319.358887,4524.358887,4533.205078,4419.743652,4469.230957,,,,,,,,,,,,,,,,,,,,,,,,,,,,,,,,,,,,,,,,,,,,,,,,,,,,,,,,,,,,,,,,,,,,,,
1768918288.716648,1768918288.717293,40.0,0.0,4334.743652,4328.077148,4353.974121,4355.128418,4314.487305,4324.358887,4312.94873,4335.256348,4338.077148,4325.641113,4530.512695,4543.205078,4430.897461,4477.94873,,,,,,,,,,,,,,,,,,,,,,,,,,,,,,,,,,,,,,,,,,,,,,,,,,,,,,,,,,,,,,,,,,,,,,
1768918288.724456,1768918288.725101,41.0,0.0,4339.358887,4328.589844,4347.179688,4355.512695,4318.846191,4321.666504,4312.05127,4330.512695,4325.128418,4313.974121,4522.436035,4533.589844,4420.512695,4470.897461,,,,,,,,,,,,,,,,,,,,,,,,,,,,,,,,,,,,,,,,,,,,,,,,,,,,,,,,,,,,,,,,,,,,,,
1768918288.732264,1768918288.733009,42.0,0.0,4337.820313,4324.102539,4339.102539,4348.461426,4319.615234,4319.230957,4313.846191,4326.666504,4318.717773,4308.205078,4520.897461,4527.692383,4414.230957,4467.563965,,,,,,,,,,,,,,,,,,,,,,,,,,,,,,,,,,,,,,,,,,,,,,,,,,,,,,,,,,,,,,,,,,,,,,
1768918288.740073,1768918288.740817,43.0,0.0,4336.666504,4324.102539,4341.922852,4345.0,4319.230957,4324.615234,4322.563965,4329.230957,4323.974121,4312.94873,4525.512695,4533.717773,4418.077148,4472.692383,,,,,,,,,,,,,,,,,,,,,,,,,,,,,,,,,,,,,,,,,,,,,,,,,,,,,,,,,,,,,,,,,,,,,,
1768918288.747882,1768918288.748824,44.0,0.0,4337.436035,4325.256348,4343.589844,4347.692383,4314.871582,4325.256348,4322.436035,4331.153809,4323.077148,4312.05127,4523.461426,4531.410156,4413.974121,4468.333496,,,,,,,,,,,,,,,,,,,,,,,,,,,,,,,,,,,,,,,,,,,,,,,,,,,,,,,,,,,,,,,,,,,,,,
1768918288.75569,1768918288.756632,45.0,0.0,4336.153809,4324.743652,4342.05127,4351.410156,4310.769043,4313.717773,4309.615234,4325.384766,4312.436035,4308.077148,4518.333496,4521.538574,4411.538574,4465.0,,,,,,,,,,,,,,,,,,,,,,,,,,,,,,,,,,,,,,,,,,,,,,,,,,,,,,,,,,,,,,,,,,,,,,
1768918288.763498,1768918288.76434,46.0,0.0,4331.922852,4324.743652,4341.922852,4350.256348,4310.256348,4312.692383,4306.666504,4323.461426,4309.743652,4309.743652,4519.487305,4522.94873,4417.820313,4468.974121,,,,,,,,,,,,,,,,,,,,,,,,,,,,,,,,,,,,,,,,,,,,,,,,,,,,,,,,,,,,,,,,,,,,,,
1768918288.771307,1768918288.772148,47.0,0.0,4328.589844,4323.717773,4339.358887,4345.641113,4310.897461,4319.102539,4309.871582,4326.025879,4313.846191,4312.179688,4523.333496,4525.769043,4417.94873,4467.94873,,,,,,,,,,,,,,,,,,,,,,,,,,,,,,,,,,,,,,,,,,,,,,,,,,,,,,,,,,,,,,,,,,,,,,
1768918288.779116,1768918288.780156,48.0,0.0,4326.410156,4322.820313,4336.538574,4343.717773,4311.666504,4311.025879,4305.0,4324.230957,4312.820313,4309.358887,4520.0,4520.384766,4412.179688,4464.615234,0.65877,0.489332,0.142965,0.423965,0.229883,1.085177,0.400208,0.128161,0.34218,0.194855,0.639376,0.511826,0.270656,0.338597,0.172873,1.174094,0.270959,0.086238,0.188117,0.143954,0.382833,0.103282,0.304592,0.237058,0.138634,0.112963,0.125382,0.146794,0.20201,0.22127,0.189817,0.356519,0.118365,0.417706,0.484253,0.902161,0.481253,0.162304,0.252723,0.169396,1.034125,0.705462,0.175922,0.133841,0.070752,0.59023,0.523472,0.296042,0.153151,0.150347,0.360599,0.699934,0.252217,0.278034,0.169203,1.417937,1.018496,0.384867,0.519679,0.276837,0.728549,0.943073,0.397635,0.357175,0.21573,0.696189,0.63084,0.25774,0.397713,0.328031
1768918288.786924,1768918288.787964,49.0,0.0,4325.897461,4320.0,4340.0,4342.94873,4312.179688,4306.666504,4308.589844,4325.769043,4310.512695,4307.179688,4517.692383,4523.333496,4412.820313,4464.743652,,,,,,,,,,,,,,,,,,,,,,,,,,,,,,,,,,,,,,,,,,,,,,,,,,,,,,,,,,,,,,,,,,,,,,
1768918288.794732,1768918288.795672,50.0,0.0,4328.461426,4318.974121,4342.820313,4343.846191,4312.436035,4319.358887,4319.102539,4330.128418,4310.641113,4309.358887,4521.922852,4532.436035,4412.820313,4465.512695,,,,,,,,,,,,,,,,,,,,,,,,,,,,,,,,,,,,,,,,,,,,,,,,,,,,,,,,,,,,,,,,,,,,,,
1768918288.802541,1768918288.803479,51.0,0.0,4336.153809,4321.666504,4340.897461,4347.05127,4312.820313,4324.358887,4318.333496,4328.205078,4313.974121,4310.0,4523.333496,4532.820313,4410.897461,4469.871582,,,,,,,,,,,,,,,,,,,,,,,,,,,,,,,,,,,,,,,,,,,,,,,,,,,,,,,,,,,,,,,,,,,,,,
1768918288.81035,1768918288.811087,52.0,0.0,4337.820313,4318.205078,4342.692383,4346.282227,4312.820313,4322.307617,4321.794922,4326.666504,4321.794922,4311.282227,4525.512695,4534.871582,4415.128418,4473.205078,,,,,,,,,,,,,,,,,,,,,,,,,,,,,,,,,,,,,,,,,,,,,,,,,,,,,,,,,,,,,,,,,,,,,,
1768918288.818158,1768918288.818895,53.0,0.0,4324.871582,4309.743652,4344.358887,4342.436035,4314.871582,4322.692383,4324.871582,4331.282227,4322.05127,4311.410156,4525.256348,4536.410156,4412.563965,4464.487305,,,,,,,,,,,,,,,,,,,,,,,,,,,,,,,,,,,,,,,,,,,,,,,,,,,,,,,,,,,,,,,,,,,,,,
1768918288.825966,1768918288.826603,54.0,0.0,4321.922852,4311.025879,4335.384766,4342.307617,4320.0,4320.128418,4314.358887,4326.025879,4312.820313,4302.307617,4514.102539,4527.436035,4399.615234,4458.974121,,,,,,,,,,,,,,,,,,,,,,,,,,,,,,,,,,,,,,,,,,,,,,,,,,,,,,,,,,,,,,,,,,,,,,
1768918288.833775,1768918288.83441,55.0,0.0,4337.179688,4322.820313,4332.307617,4346.153809,4320.0,4321.666504,4310.512695,4315.128418,4308.461426,4293.717773,4504.487305,4519.743652,4395.384766,4462.94873,,,,,,,,,,,,,,,,,,,,,,,,,,,,,,,,,,,,,,,,,,,,,,,,,,,,,,,,,,,,,,,,,,,,,,
1768918288.841584,1768918288.842418,56.0,0.0,4339.358887,4326.666504,4335.641113,4342.692383,4313.077148,4318.205078,4311.922852,4313.846191,4310.0,4294.487305,4506.538574,4521.153809,4397.692383,4461.794922,,,,,,,,,,,,,,,,,,,,,,,,,,,,,,,,,,,,,,,,,,,,,,,,,,,,,,,,,,,,,,,,,,,,,,
1768918288.849392,1768918288.850226,57.0,0.0,4325.384766,4317.563965,4331.794922,4338.333496,4310.769043,4310.384766,4307.307617,4315.512695,4308.461426,4294.615234,4508.333496,4520.128418,4397.05127,4459.743652,,,,,,,,,,,,,,,,,,,,,,,,,,,,,,,,,,,,,,,,,,,,,,,,,,,,,,,,,,,,,,,,,,,,,,
1768918288.857201,1768918288.857934,58.0,0.0,4324.358887,4310.769043,4329.871582,4339.358887,4311.922852,4314.102539,4307.820313,4315.128418,4306.410156,4291.282227,4505.769043,4516.666504,4396.153809,4461.153809,,,,,,,,,,,,,,,,,,,,,,,,,,,,,,,,,,,,,,,,,,,,,,,,,,,,,,,,,,,,,,,,,,,,,,
1768918288.865009,1768918288.865742,59.0,0.0,4331.410156,4310.897461,4333.077148,4335.256348,4308.461426,4318.589844,4308.846191,4313.205078,4306.538574,4291.410156,4505.384766,4520.256348,4393.205078,4456.282227,,,,,,,,,,,,,,,,,,,,,,,,,,,,,,,,,,,,,,,,,,,,,,,,,,,,,,,,,,,,,,,,,,,,,,
1768918288.872818,1768918288.87335,60.0,0.0,4326.666504,4309.743652,4330.384766,4327.179688,4308.077148,4311.794922,4301.282227,4312.563965,4305.769043,4292.179688,4504.102539,4523.077148,4388.461426,4449.230957,,,,,,,,,,,,,,,,,,,,,,,,,,,,,,,,,,,,,,,,,,,,,,,,,,,,,,,,,,,,,,,,,,,,,,
1768918288.880626,1768918288.881157,61.0,0.0,4322.307617,4306.410156,4326.666504,4326.410156,4317.563965,4308.333496,4300.641113,4314.487305,4307.94873,4293.077148,4503.077148,4523.077148,4389.871582,4453.717773,,,,,,,,,,,,,,,,,,,,,,,,,,,,,,,,,,,,,,,,,,,,,,,,,,,,,,,,,,,,,,,,,,,,,,
1768918288.888435,1768918288.888865,62.0,0.0,4326.922852,4304.743652,4328.717773,4328.846191,4321.666504,4311.794922,4305.384766,4315.512695,4311.153809,4294.871582,4503.461426,4520.128418,4390.897461,4457.563965,,,,,,,,,,,,,,,,,,,,,,,,,,,,,,,,,,,,,,,,,,,,,,,,,,,,,,,,,,,,,,,,,,,,,,
1768918288.896243,1768918288.896673,63.0,0.0,4329.615234,4303.589844,4330.384766,4327.436035,4313.077148,4315.0,4307.563965,4315.256348,4310.641113,4297.179688,4505.128418,4520.128418,4388.461426,4455.256348,,,,,,,,,,,,,,,,,,,,,,,,,,,,,,,,,,,,,,,,,,,,,,,,,,,,,,,,,,,,,,,,,,,,,,
1768918288.904052,1768918288.904681,64.0,0.0,4326.666504,4303.077148,4330.641113,4326.666504,4313.717773,4323.974121,4316.153809,4315.512695,4310.0,4298.077148,4508.077148,4523.461426,4389.871582,4453.205078,0.687965,0.512193,0.138742,0.42682,0.247541,1.008239,0.408915,0.14854,0.34485,0.188356,0.645468,0.465206,0.228838,0.406892,0.192402,1.259221,0.266139,0.083878,0.194583,0.154992,0.385841,0.127118,0.290553,0.220037,0.135791,0.126441,0.158466,0.167157,0.243748,0.230375,0.233101,0.355795,0.137195,0.429565,0.52638,0.99607,0.523739,0.137004,0.250275,0.156898,1.098618,0.805584,0.189903,0.148216,0.074518,0.69508,0.50847,0.275338,0.145995,0.148381,0.413655,0.730943,0.195824,0.255916,0.164331,1.660697,0.995733,0.271563,0.540606,0.254898,0.783745,0.933715,0.355717,0.343015,0.196872,0.841704,0.654854,0.238897,0.396874,0.318803
1768918288.91186,1768918288.912489,65.0,0.0,4323.846191,4303.717773,4328.205078,4328.589844,4320.0,4327.692383,4320.897461,4318.333496,4311.025879,4286.025879,4502.94873,4518.333496,4385.897461,4447.436035,,,,,,,,,,,,,,,,,,,,,,,,,,,,,,,,,,,,,,,,,,,,,,,,,,,,,,,,,,,,,,,,,,,,,,
1768918288.919669,1768918288.920397,66.0,0.0,4325.256348,4303.846191,4328.077148,4333.846191,4315.128418,4322.436035,4314.358887,4317.563965,4310.0,4278.333496,4491.282227,4511.666504,4375.384766,4441.025879,,,,,,,,,,,,,,,,,,,,,,,,,,,,,,,,,,,,,,,,,,,,,,,,,,,,,,,,,,,,,,,,,,,,,,
1768918288.927477,1768918288.928205,67.0,0.0,4326.410156,4304.743652,4338.846191,4340.641113,4311.666504,4317.820313,4308.205078,4317.820313,4308.717773,4287.179688,4489.615234,4516.153809,4374.102539,4442.94873,,,,,,,,,,,,,,,,,,,,,,,,,,,,,,,,,,,,,,,,,,,,,,,,,,,,,,,,,,,,,,,,,,,,,,
1768918288.935286,1768918288.936212,68.0,0.0,4326.794922,4306.538574,4345.128418,4342.05127,4318.589844,4317.563965,4311.666504,4323.589844,4309.487305,4289.871582,4499.743652,4523.205078,4382.05127,4450.512695,,,,,,,,,,,,,,,,,,,,,,,,,,,,,,,,,,,,,,,,,,,,,,,,,,,,,,,,,,,,,,,,,,,,,,
1768918288.943094,1768918288.94402,69.0,0.0,4326.282227,4310.641113,4341.666504,4340.384766,4323.974121,4322.692383,4320.256348,4323.589844,4309.615234,4286.922852,4507.563965,4522.692383,4388.589844,4458.077148,,,,,,,,,,,,,,,,,,,,,,,,,,,,,,,,,,,,,,,,,,,,,,,,,,,,,,,,,,,,,,,,,,,,,,
1768918288.950903,1768918288.951928,70.0,0.0,4327.692383,4313.461426,4341.282227,4341.538574,4320.0,4322.05127,4315.256348,4318.589844,4310.256348,4293.589844,4511.538574,4526.282227,4390.0,4461.282227,,,,,,,,,,,,,,,,,,,,,,,,,,,,,,,,,,,,,,,,,,,,,,,,,,,,,,,,,,,,,,,,,,,,,,
1768918288.958711,1768918288.959736,71.0,0.0,4330.897461,4312.94873,4344.102539,4345.0,4316.538574,4316.025879,4302.307617,4317.94873,4310.128418,4298.333496,4509.358887,4529.230957,4386.410156,4457.179688,,,,,,,,,,,,,,,,,,,,,,,,,,,,,,,,,,,,,,,,,,,,,,,,,,,,,,,,,,,,,,,,,,,,,,
1768918288.96652,1768918288.967744,72.0,0.0,4334.230957,4316.410156,4347.179688,4349.871582,4322.179688,4320.128418,4309.743652,4321.794922,4310.897461,4293.974121,4503.077148,4525.769043,4385.769043,4457.692383,,,,,,,,,,,,,,,,,,,,,,,,,,,,,,,,,,,,,,,,,,,,,,,,,,,,,,,,,,,,,,,,,,,,,,
1768918288.974328,1768918288.975551,73.0,0.0,4336.922852,4322.94873,4350.128418,4353.717773,4329.487305,4327.179688,4327.563965,4323.589844,4314.487305,4294.358887,4510.256348,4529.871582,4391.153809,4461.666504,,,,,,,,,,,,,,,,,,,,,,,,,,,,,,,,,,,,,,,,,,,,,,,,,,,,,,,,,,,,,,,,,,,,,,
1768918288.982137,1768918288.983259,74.0,0.0,4333.205078,4324.743652,4351.153809,4354.615234,4328.461426,4322.820313,4320.512695,4323.461426,4320.512695,4301.410156,4523.717773,4540.512695,4398.461426,4461.410156,,,,,,,,,,,,,,,,,,,,,,,,,,,,,,,,,,,,,,,,,,,,,,,,,,,,,,,,,,,,,,,,,,,,,,
1768918288.989945,1768918288.991067,75.0,0.0,4330.769043,4322.94873,4350.0,4353.974121,4326.794922,4317.563965,4310.641113,4326.282227,4323.589844,4307.05127,4526.282227,4546.025879,4406.538574,4463.461426,,,,,,,,,,,,,,,,,,,,,,,,,,,,,,,,,,,,,,,,,,,,,,,,,,,,,,,,,,,,,,,,,,,,,,
1768918288.997754,1768918288.998675,76.0,0.0,4331.025879,4319.871582,4345.256348,4351.025879,4325.512695,4319.487305,4316.025879,4325.512695,4316.922852,4303.589844,4521.410156,4535.897461,4405.641113,4462.692383,,,,,,,,,,,,,,,,,,,,,,,,,,,,,,,,,,,,,,,,,,,,,,,,,,,,,,,,,,,,,,,,,,,,,,
1768918289.005562,1768918289.006483,77.0,0.0,4331.410156,4317.94873,4341.922852,4348.974121,4319.487305,4319.102539,4315.128418,4320.512695,4314.871582,4298.461426,4519.871582,4525.256348,4398.974121,4457.436035,,,,,,,,,,,,,,,,,,,,,,,,,,,,,,,,,,,,,,,,,,,,,,,,,,,,,,,,,,,,,,,,,,,,,,
1768918289.013371,1768918289.01419,78.0,0.0,4335.641113,4321.794922,4346.282227,4352.436035,4321.025879,4319.102539,4312.179688,4318.333496,4317.94873,4303.333496,4521.666504,4531.538574,4405.128418,4463.717773,,,,,,,,,,,,,,,,,,,,,,,,,,,,,,,,,,,,,,,,,,,,,,,,,,,,,,,,,,,,,,,,,,,,,,
1768918289.021179,1768918289.021998,79.0,0.0,4341.922852,4326.922852,4350.769043,4356.794922,4328.077148,4318.333496,4316.025879,4318.589844,4314.487305,4305.641113,4524.743652,4538.589844,4413.846191,4472.563965,,,,,,,,,,,,,,,,,,,,,,,,,,,,,,,,,,,,,,,,,,,,,,,,,,,,,,,,,,,,,,,,,,,,,,
1768918289.028988,1768918289.030006,80.0,0.0,4343.333496,4326.538574,4350.128418,4356.538574,4326.794922,4313.205078,4312.05127,4314.871582,4313.333496,4303.717773,4526.538574,4532.94873,4412.692383,4467.436035,0.699369,0.515862,0.133202,0.409797,0.251495,0.905069,0.400271,0.171969,0.326207,0.169366,0.639135,0.407832,0.195734,0.459047,0.211648,1.270772,0.257808,0.092644,0.193923,0.155803,0.361949,0.159271,0.271473,0.213142,0.127133,0.146109,0.213192,0.193924,0.280895,0.227896,0.266201,0.372086,0.179423,0.42639,0.547201,1.032857,0.53737,0.126117,0.241593,0.14218,1.139892,0.848707,0.219665,0.16472,0.081324,0.812871,0.477333,0.261372,0.149084,0.143285,0.481279,0.730416,0.165528,0.239215,0.163582,1.811749,0.924133,0.199886,0.548907,0.237305,0.835354,0.875735,0.310649,0.337289,0.176052,0.940363,0.652358,0.212415,0.403954,0.312206
1768918289.036796,1768918289.037814,81.0,0.0,4340.256348,4325.512695,4351.410156,4358.589844,4323.974121,4315.128418,4307.820313,4317.436035,4320.641113,4308.205078,4525.128418,4532.179688,4411.922852,4462.179688,,,,,,,,,,,,,,,,,,,,,,,,,,,,,,,,,,,,,,,,,,,,,,,,,,,,,,,,,,,,,,,,,,,,,,
1768918289.044605,1768918289.045722,82.0,0.0,4340.769043,4325.128418,4348.974121,4359.358887,4326.282227,4317.179688,4312.436035,4326.025879,4322.94873,4308.589844,4524.487305,4536.025879,4407.307617,4461.794922,,,,,,,,,,,,,,,,,,,,,,,,,,,,,,,,,,,,,,,,,,,,,,,,,,,,,,,,,,,,,,,,,,,,,,
1768918289.052413,1768918289.05353,83.0,0.0,4339.230957,4323.589844,4343.846191,4352.820313,4327.563965,4311.666504,4312.179688,4321.025879,4315.897461,4303.589844,4522.563965,4532.05127,4400.641113,4458.974121,,,,,,,,,,,,,,,,,,,,,,,,,,,,,,,,,,,,,,,,,,,,,,,,,,,,,,,,,,,,,,,,,,,,,,
1768918289.060222,1768918289.061138,84.0,0.0,4338.974121,4324.871582,4347.820313,4350.897461,4326.666504,4315.384766,4314.871582,4312.307617,4312.307617,4304.230957,4521.666504,4536.410156,4407.179688,4461.153809,,,,,,,,,,,,,,,,,,,,,,,,,,,,,,,,,,,,,,,,,,,,,,,,,,,,,,,,,,,,,,,,,,,,,,
1768918289.06803,1768918289.068945,85.0,0.0,4342.179688,4328.846191,4352.179688,4354.358887,4325.384766,4321.410156,4316.538574,4315.512695,4312.563965,4305.128418,4524.615234,4540.0,4410.897461,4465.641113,,,,,,,,,,,,,,,,,,,,,,,,,,,,,,,,,,,,,,,,,,,,,,,,,,,,,,,,,,,,,,,,,,,,,,
1768918289.075839,1768918289.076653,86.0,0.0,4336.153809,4327.05127,4342.94873,4349.230957,4324.743652,4313.717773,4311.282227,4318.205078,4313.589844,4303.589844,4520.256348,4523.077148,4402.94873,4460.512695,,,,,,,,,,,,,,,,,,,,,,,,,,,,,,,,,,,,,,,,,,,,,,,,,,,,,,,,,,,,,,,,,,,,,,
1768918289.083647,1768918289.084461,87.0,0.0,4323.974121,4319.358887,4330.897461,4340.128418,4323.333496,4308.333496,4318.589844,4315.769043,4312.436035,4304.358887,4511.025879,4514.230957,4397.692383,4450.641113,,,,,,,,,,,,,,,,,,,,,,,,,,,,,,,,,,,,,,,,,,,,,,,,,,,,,,,,,,,,,,,,,,,,,,
1768918289.091456,1768918289.092069,88.0,0.0,4320.641113,4313.333496,4331.538574,4338.974121,4321.282227,4313.333496,4325.641113,4315.0,4313.717773,4305.641113,4512.94873,4524.230957,4395.897461,4447.436035,,,,,,,,,,,,,,,,,,,,,,,,,,,,,,,,,,,,,,,,,,,,,,,,,,,,,,,,,,,,,,,,,,,,,,
1768918289.099264,1768918289.099877,89.0,0.0,4326.025879,4314.487305,4337.94873,4341.282227,4323.077148,4311.794922,4313.974121,4311.282227,4318.846191,4307.179688,4521.282227,4525.641113,4400.512695,4452.436035,,,,,,,,,,,,,,,,,,,,,,,,,,,,,,,,,,,,,,,,,,,,,,,,,,,,,,,,,,,,,,,,,,,,,,
1768918289.107073,1768918289.107785,90.0,0.0,4331.666504,4321.153809,4340.384766,4342.563965,4325.512695,4309.743652,4309.102539,4310.384766,4319.358887,4309.743652,4522.692383,4523.205078,4410.128418,4459.871582,,,,,,,,,,,,,,,,,,,,,,,,,,,,,,,,,,,,,,,,,,,,,,,,,,,,,,,,,,,,,,,,,,,,,,
1768918289.114881,1768918289.115593,91.0,0.0,4336.666504,4324.230957,4341.025879,4343.846191,4324.743652,4314.230957,4318.205078,4318.205078,4318.717773,4310.897461,4521.538574,4531.794922,4407.436035,4460.0,,,,,,,,,,,,,,,,,,,,,,,,,,,,,,,,,,,,,,,,,,,,,,,,,,,,,,,,,,,,,,,,,,,,,,
1768918289.12269,1768918289.1236,92.0,0.0,4338.333496,4321.410156,4342.94873,4343.077148,4324.102539,4312.436035,4313.974121,4318.974121,4319.615234,4309.358887,4523.205078,4534.358887,4400.256348,4456.794922,,,,,,,,,,,,,,,,,,,,,,,,,,,,,,,,,,,,,,,,,,,,,,,,,,,,,,,,,,,,,,,,,,,,,,
1768918289.130498,1768918289.131408,93.0,0.0,4338.846191,4321.282227,4345.384766,4341.410156,4317.179688,4308.461426,4308.461426,4315.384766,4320.769043,4308.205078,4523.205078,4532.307617,4407.179688,4459.358887,,,,,,,,,,,,,,,,,,,,,,,,,,,,,,,,,,,,,,,,,,,,,,,,,,,,,,,,,,,,,,,,,,,,,,
1768918289.138307,1768918289.139316,94.0,0.0,4340.384766,4321.538574,4345.0,4341.538574,4311.282227,4311.666504,4319.230957,4321.538574,4323.589844,4308.205078,4523.846191,4535.256348,4415.641113,4463.461426,,,,,,,,,,,,,,,,,,,,,,,,,,,,,,,,,,,,,,,,,,,,,,,,,,,,,,,,,,,,,,,,,,,,,,
1768918289.146115,1768918289.147124,95.0,0.0,4337.692383,4314.358887,4342.179688,4342.94873,4317.820313,4312.436035,4321.794922,4323.846191,4326.282227,4310.512695,4523.589844,4532.692383,4413.589844,4462.436035,,,,,,,,,,,,,,,,,,,,,,,,,,,,,,,,,,,,,,,,,,,,,,,,,,,,,,,,,,,,,,,,,,,,,,
1768918289.153924,1768918289.155132,96.0,0.0,4333.589844,4308.974121,4341.025879,4342.05127,4318.077148,4309.615234,4312.05127,4318.461426,4324.358887,4310.0,4522.563965,4528.974121,4410.256348,4458.077148,0.684882,0.518358,0.13063,0.370713,0.241009,0.791167,0.389745,0.186358,0.291242,0.142667,0.630075,0.361108,0.181657,0.476337,0.226814,1.235855,0.259718,0.110535,0.185065,0.148274,0.319462,0.200185,0.254198,0.217842,0.112726,0.171354,0.288582,0.220919,0.30176,0.215365,0.281419,0.420512,0.241202,0.40135,0.538034,1.019286,0.534514,0.132343,0.229934,0.127644,1.150422,0.842819,0.254587,0.177374,0.091508,0.926537,0.447944,0.261569,0.158212,0.137625,0.582833,0.707007,0.165219,0.223381,0.166322,1.832563,0.831697,0.190798,0.524384,0.228443,0.895764,0.782077,0.268009,0.338202,0.15695,0.971906,0.616328,0.186832,0.408269,0.307701
1768918289.161732,1768918289.162939,97.0,0.0,4340.0,4316.410156,4349.487305,4344.230957,4312.820313,4315.256348,4313.461426,4328.077148,4326.025879,4309.743652,4530.256348,4535.128418,4413.589844,4464.487305,,,,,,,,,,,,,,,,,,,,,,,,,,,,,,,,,,,,,,,,,,,,,,,,,,,,,,,,,,,,,,,,,,,,,,
1768918289.169541,1768918289.170647,98.0,0.0,4349.743652,4323.205078,4360.897461,4354.358887,4320.0,4320.641113,4323.077148,4334.358887,4328.846191,4315.256348,4540.0,4543.461426,4418.333496,4476.282227,,,,,,,,,,,,,,,,,,,,,,,,,,,,,,,,,,,,,,,,,,,,,,,,,,,,,,,,,,,,,,,,,,,,,,
1768918289.177349,1768918289.178455,99.0,0.0,4346.666504,4321.922852,4360.512695,4360.256348,4320.384766,4313.461426,4321.153809,4320.769043,4323.333496,4317.179688,4541.282227,4545.256348,4419.358887,4477.05127,,,,,,,,,,,,,,,,,,,,,,,,,,,,,,,,,,,,,,,,,,,,,,,,,,,,,,,,,,,,,,,,,,,,,,
1768918289.185158,1768918289.186063,100.0,0.0,4340.512695,4321.794922,4354.230957,4357.94873,4308.717773,4306.666504,4311.538574,4318.461426,4318.333496,4311.922852,4537.307617,4542.692383,4418.974121,4471.410156,,,,,,,,,,,,,,,,,,,,,,,,,,,,,,,,,,,,,,,,,,,,,,,,,,,,,,,,,,,,,,,,,,,,,,
1768918289.192966,1768918289.193871,101.0,0.0,4338.717773,4318.846191,4354.615234,4357.179688,4313.205078,4309.230957,4310.128418,4328.333496,4321.410156,4309.743652,4535.769043,4543.333496,4416.282227,4471.794922,,,,,,,,,,,,,,,,,,,,,,,,,,,,,,,,,,,,,,,,,,,,,,,,,,,,,,,,,,,,,,,,,,,,,,
1768918289.200775,1768918289.201578,102.0,0.0,4340.0,4313.077148,4357.820313,4358.974121,4325.384766,4313.589844,4320.256348,4327.05127,4322.307617,4311.282227,4537.05127,4548.589844,4413.077148,4474.487305,,,,,,,,,,,,,,,,,,,,,,,,,,,,,,,,,,,,,,,,,,,,,,,,,,,,,,,,,,,,,,,,,,,,,,
1768918289.208583,1768918289.209386,103.0,0.0,4338.077148,4310.897461,4355.897461,4357.820313,4321.282227,4312.563965,4322.05127,4323.333496,4320.128418,4311.025879,4534.743652,4546.025879,4412.692383,4469.230957,,,,,,,,,,,,,,,,,,,,,,,,,,,,,,,,,,,,,,,,,,,,,,,,,,,,,,,,,,,,,,,,,,,,,,
1768918289.216392,1768918289.216994,104.0,0.0,4326.410156,4307.692383,4352.820313,4354.871582,4316.538574,4309.615234,4313.461426,4328.846191,4325.0,4312.820313,4531.025879,4537.179688,4412.563965,4460.128418,,,,,,,,,,,,,,,,,,,,,,,,,,,,,,,,,,,,,,,,,,,,,,,,,,,,,,,,,,,,,,,,,,,,,,
1768918289.2242,1768918289.224802,105.0,0.0,4325.256348,4310.769043,4353.974121,4356.794922,4322.94873,4317.436035,4319.487305,4333.846191,4330.0,4315.769043,4532.307617,4540.384766,4411.922852,4464.102539,,,,,,,,,,,,,,,,,,,,,,,,,,,,,,,,,,,,,,,,,,,,,,,,,,,,,,,,,,,,,,,,,,,,,,
1768918289.232009,1768918289.23251,106.0,0.0,4341.794922,4324.358887,4357.436035,4361.282227,4325.641113,4321.922852,4322.436035,4328.717773,4326.666504,4312.436035,4531.538574,4545.0,4412.820313,4476.282227,,,,,,,,,,,,,,,,,,,,,,,,,,,,,,,,,,,,,,,,,,,,,,,,,,,,,,,,,,,,,,,,,,,,,,
1768918289.239818,1768918289.240317,107.0,0.0,4348.846191,4329.487305,4359.102539,4364.743652,4322.563965,4311.666504,4310.0,4322.94873,4322.436035,4310.256348,4525.128418,4540.897461,4414.871582,4478.333496,,,,,,,,,,,,,,,,,,,,,,,,,,,,,,,,,,,,,,,,,,,,,,,,,,,,,,,,,,,,,,,,,,,,,,
1768918289.247626,1768918289.248325,108.0,0.0,4339.615234,4324.743652,4358.461426,4367.307617,4325.384766,4314.230957,4317.94873,4326.538574,4322.307617,4313.077148,4523.846191,4540.641113,4416.025879,4476.153809,,,,,,,,,,,,,,,,,,,,,,,,,,,,,,,,,,,,,,,,,,,,,,,,,,,,,,,,,,,,,,,,,,,,,,
1768918289.255434,1768918289.256133,109.0,0.0,4339.230957,4326.025879,4357.563965,4368.077148,4329.615234,4324.102539,4328.717773,4326.922852,4322.692383,4313.205078,4527.05127,4540.897461,4416.025879,4477.307617,,,,,,,,,,,,,,,,,,,,,,,,,,,,,,,,,,,,,,,,,,,,,,,,,,,,,,,,,,,,,,,,,,,,,,
1768918289.263243,1768918289.263841,110.0,0.0,4346.666504,4328.717773,4358.974121,4367.692383,4327.179688,4317.179688,4318.205078,4323.461426,4321.666504,4309.230957,4527.307617,4539.615234,4414.230957,4472.179688,,,,,,,,,,,,,,,,,,,,,,,,,,,,,,,,,,,,,,,,,,,,,,,,,,,,,,,,,,,,,,,,,,,,,,
1768918289.271052,1768918289.271649,111.0,0.0,4344.871582,4327.179688,4358.589844,4367.820313,4324.743652,4311.794922,4315.128418,4325.769043,4316.922852,4306.794922,4525.0,4541.025879,4411.410156,4465.512695,,,,,,,,,,,,,,,,,,,,,,,,,,,,,,,,,,,,,,,,,,,,,,,,,,,,,,,,,,,,,,,,,,,,,,
1768918289.27886,1768918289.279257,112.0,0.0,4339.230957,4328.333496,4356.538574,4365.897461,4326.666504,4321.538574,4322.820313,4323.333496,4311.922852,4306.282227,4523.589844,4537.179688,4410.0,4463.717773,0.651083,0.531152,0.137568,0.316435,0.222045,0.70041,0.393406,0.186533,0.252464,0.115481,0.641052,0.336074,0.190372,0.452727,0.235179,1.201526,0.278782,0.132406,0.170211,0.136854,0.270482,0.244185,0.242442,0.227788,0.095393,0.201558,0.378205,0.239434,0.299577,0.197216,0.282132,0.503388,0.309426,0.356766,0.49854,0.979375,0.529673,0.149932,0.217869,0.11433,1.119363,0.813989,0.28028,0.183267,0.103349,1.015236,0.433626,0.279708,0.170416,0.13407,0.743453,0.674789,0.19257,0.212195,0.171187,1.727721,0.748859,0.24814,0.46214,0.228831,0.992091,0.678158,0.23653,0.347111,0.143058,0.961689,0.556897,0.174215,0.405148,0.302326
1768918289.286668,1768918289.287064,113.0,0.0,4337.820313,4330.512695,4353.846191,4359.871582,4326.410156,4325.128418,4323.333496,4318.974121,4313.461426,4304.102539,4521.282227,4528.205078,4410.256348,4461.794922,,,,,,,,,,,,,,,,,,,,,,,,,,,,,,,,,,,,,,,,,,,,,,,,,,,,,,,,,,,,,,,,,,,,,,
1768918289.294477,1768918289.294772,114.0,0.0,4336.538574,4329.615234,4351.282227,4357.563965,4323.205078,4319.615234,4319.358887,4320.0,4313.717773,4299.871582,4515.256348,4522.820313,4407.692383,4460.897461,,,,,,,,,,,,,,,,,,,,,,,,,,,,,,,,,,,,,,,,,,,,,,,,,,,,,,,,,,,,,,,,,,,,,,
1768918289.302286,1768918289.30258,115.0,0.0,4328.333496,4326.410156,4346.922852,4356.282227,4322.94873,4317.820313,4311.410156,4314.871582,4309.102539,4294.487305,4505.769043,4520.384766,4398.205078,4457.692383,,,,,,,,,,,,,,,,,,,,,,,,,,,,,,,,,,,,,,,,,,,,,,,,,,,,,,,,,,,,,,,,,,,,,,
1768918289.310094,1768918289.310588,116.0,0.0,4324.871582,4324.487305,4344.743652,4353.461426,4326.410156,4321.538574,4310.769043,4308.846191,4308.717773,4293.461426,4505.897461,4519.871582,4393.461426,4452.179688,,,,,,,,,,,,,,,,,,,,,,,,,,,,,,,,,,,,,,,,,,,,,,,,,,,,,,,,,,,,,,,,,,,,,,
1768918289.317902,1768918289.318396,117.0,0.0,4332.563965,4326.282227,4346.282227,4353.846191,4328.205078,4326.282227,4324.102539,4317.563965,4311.025879,4296.794922,4510.128418,4523.461426,4396.922852,4453.461426,,,,,,,,,,,,,,,,,,,,,,,,,,,,,,,,,,,,,,,,,,,,,,,,,,,,,,,,,,,,,,,,,,,,,,
1768918289.325711,1768918289.326304,118.0,0.0,4336.538574,4327.307617,4346.666504,4353.461426,4326.282227,4326.025879,4327.307617,4325.897461,4310.512695,4296.282227,4508.333496,4523.205078,4396.922852,4457.307617,,,,,,,,,,,,,,,,,,,,,,,,,,,,,,,,,,,,,,,,,,,,,,,,,,,,,,,,,,,,,,,,,,,,,,
1768918289.33352,1768918289.334112,119.0,0.0,4336.538574,4328.205078,4347.179688,4349.871582,4325.769043,4325.256348,4325.128418,4323.589844,4312.436035,4296.794922,4513.717773,4525.769043,4398.077148,4458.846191,,,,,,,,,,,,,,,,,,,,,,,,,,,,,,,,,,,,,,,,,,,,,,,,,,,,,,,,,,,,,,,,,,,,,,
1768918289.341328,1768918289.342119,120.0,0.0,4333.974121,4328.846191,4347.307617,4349.102539,4325.512695,4326.410156,4327.94873,4323.846191,4312.820313,4302.820313,4521.282227,4530.769043,4404.871582,4457.820313,,,,,,,,,,,,,,,,,,,,,,,,,,,,,,,,,,,,,,,,,,,,,,,,,,,,,,,,,,,,,,,,,,,,,,
1768918289.349136,1768918289.349927,121.0,0.0,4330.384766,4325.897461,4347.307617,4349.871582,4323.846191,4322.692383,4321.410156,4327.307617,4310.897461,4307.179688,4518.589844,4529.615234,4405.641113,4456.282227,,,,,,,,,,,,,,,,,,,,,,,,,,,,,,,,,,,,,,,,,,,,,,,,,,,,,,,,,,,,,,,,,,,,,,
1768918289.356945,1768918289.357735,122.0,0.0,4333.717773,4328.974121,4348.717773,4349.487305,4325.512695,4320.0,4319.615234,4329.102539,4316.153809,4307.436035,4516.922852,4526.922852,4403.461426,4456.410156,,,,,,,,,,,,,,,,,,,,,,,,,,,,,,,,,,,,,,,,,,,,,,,,,,,,,,,,,,,,,,,,,,,,,,
1768918289.364754,1768918289.365543,123.0,0.0,4338.205078,4335.769043,4351.025879,4349.743652,4326.282227,4323.461426,4326.666504,4328.205078,4320.769043,4307.307617,4521.153809,4525.512695,4408.717773,4455.256348,,,,,,,,,,,,,,,,,,,,,,,,,,,,,,,,,,,,,,,,,,,,,,,,,,,,,,,,,,,,,,,,,,,,,,
1768918289.372562,1768918289.37345,124.0,0.0,4336.794922,4335.0,4354.487305,4349.230957,4324.487305,4323.846191,4327.692383,4329.487305,4319.871582,4308.333496,4522.436035,4527.307617,4414.358887,4453.333496,,,,,,,,,,,,,,,,,,,,,,,,,,,,,,,,,,,,,,,,,,,,,,,,,,,,,,,,,,,,,,,,,,,,,,
1768918289.380371,1768918289.381258,125.0,0.0,4337.820313,4332.179688,4358.077148,4348.589844,4324.230957,4323.974121,4327.94873,4334.871582,4325.0,4315.0,4524.102539,4537.820313,4414.102539,4457.563965,,,,,,,,,,,,,,,,,,,,,,,,,,,,,,,,,,,,,,,,,,,,,,,,,,,,,,,,,,,,,,,,,,,,,,
1768918289.388179,1768918289.388966,126.0,0.0,4341.794922,4333.205078,4359.871582,4348.077148,4324.358887,4323.974121,4324.743652,4333.205078,4327.179688,4320.256348,4527.05127,4543.589844,4413.333496,4462.692383,,,,,,,,,,,,,,,,,,,,,,,,,,,,,,,,,,,,,,,,,,,,,,,,,,,,,,,,,,,,,,,,,,,,,,
1768918289.395988,1768918289.396774,127.0,0.0,4343.077148,4330.897461,4357.179688,4346.538574,4324.358887,4317.436035,4314.743652,4329.358887,4319.487305,4313.974121,4525.128418,4535.897461,4412.563965,4459.102539,,,,,,,,,,,,,,,,,,,,,,,,,,,,,,,,,,,,,,,,,,,,,,,,,,,,,,,,,,,,,,,,,,,,,,
1768918289.403796,1768918289.404382,0.0,0.0,4343.846191,4325.128418,4356.282227,4348.205078,4323.077148,4317.05127,4319.743652,4333.333496,4319.871582,4309.358887,4523.205078,4534.743652,4411.794922,4458.205078,0.614678,0.555874,0.156167,0.26094,0.202822,0.66647,0.418251,0.174436,0.223096,0.094152,0.699328,0.331858,0.215991,0.396837,0.235242,1.231624,0.314537,0.152448,0.153624,0.125456,0.225608,0.280809,0.236444,0.233519,0.079856,0.232479,0.469202,0.243174,0.27584,0.178992,0.276167,0.602828,0.366711,0.3026,0.438856,0.926944,0.530649,0.167628,0.2064,0.103012,1.039796,0.785257,0.285759,0.182948,0.113647,1.062447,0.439118,0.313247,0.184512,0.133541,0.97955,0.643341,0.238902,0.213763,0.175858,1.550307,0.695802,0.35872,0.376396,0.234957,1.153383,0.586978,0.221062,0.366153,0.137003,0.955392,0.491372,0.180058,0.398195,0.291495
1768918289.411605,1768918289.412189,1.0,0.0,4340.897461,4323.974121,4354.615234,4349.102539,4318.333496,4319.230957,4327.94873,4333.589844,4320.641113,4311.282227,4524.358887,4542.179688,4413.205078,4462.563965,,,,,,,,,,,,,,,,,,,,,,,,,,,,,,,,,,,,,,,,,,,,,,,,,,,,,,,,,,,,,,,,,,,,,,
1768918289.419413,1768918289.420097,2.0,0.0,4341.538574,4327.05127,4352.94873,4346.153809,4320.769043,4313.077148,4315.512695,4324.102539,4310.641113,4311.538574,4526.666504,4542.820313,4415.769043,4462.820313,,,,,,,,,,,,,,,,,,,,,,,,,,,,,,,,,,,,,,,,,,,,,,,,,,,,,,,,,,,,,,,,,,,,,,
1768918289.427222,1768918289.427905,3.0,0.0,4344.871582,4323.077148,4352.05127,4343.589844,4327.05127,4311.922852,4306.410156,4320.769043,4307.820313,4307.692383,4519.230957,4534.615234,4410.512695,4456.153809,,,,,,,,,,,,,,,,,,,,,,,,,,,,,,,,,,,,,,,,,,,,,,,,,,,,,,,,,,,,,,,,,,,,,,
1768918289.43503,1768918289.435913,4.0,0.0,4332.307617,4311.025879,4342.563965,4339.615234,4317.307617,4313.974121,4308.205078,4323.461426,4309.871582,4298.461426,4503.205078,4520.769043,4396.153809,4446.666504,,,,,,,,,,,,,,,,,,,,,,,,,,,,,,,,,,,,,,,,,,,,,,,,,,,,,,,,,,,,,,,,,,,,,,
1768918289.442839,1768918289.443721,5.0,0.0,4324.743652,4309.871582,4339.102539,4338.333496,4306.666504,4309.102539,4308.717773,4323.589844,4311.538574,4297.179688,4507.563965,4525.384766,4397.94873,4449.871582,,,,,,,,,,,,,,,,,,,,,,,,,,,,,,,,,,,,,,,,,,,,,,,,,,,,,,,,,,,,,,,,,,,,,,
1768918289.450647,1768918289.451629,6.0,0.0,4343.077148,4324.358887,4357.05127,4347.820313,4317.307617,4312.436035,4318.077148,4331.410156,4320.897461,4313.846191,4533.333496,4551.153809,4422.307617,4468.333496,,,,,,,,,,,,,,,,,,,,,,,,,,,,,,,,,,,,,,,,,,,,,,,,,,,,,,,,,,,,,,,,,,,,,,
1768918289.458456,1768918289.459437,7.0,0.0,4355.512695,4332.436035,4370.769043,4358.077148,4327.307617,4322.94873,4328.846191,4341.153809,4331.410156,4323.461426,4542.179688,4559.615234,4430.769043,4479.871582,,,,,,,,,,,,,,,,,,,,,,,,,,,,,,,,,,,,,,,,,,,,,,,,,,,,,,,,,,,,,,,,,,,,,,
1768918289.466264,1768918289.467045,8.0,0.0,4342.820313,4328.205078,4363.205078,4351.666504,4319.487305,4322.307617,4326.282227,4337.05127,4326.153809,4313.205078,4530.384766,4542.820313,4415.384766,4469.487305,,,,,,,,,,,,,,,,,,,,,,,,,,,,,,,,,,,,,,,,,,,,,,,,,,,,,,,,,,,,,,,,,,,,,,
1768918289.474073,1768918289.474852,9.0,0.0,4334.102539,4322.820313,4352.179688,4341.025879,4316.153809,4321.922852,4325.512695,4331.666504,4315.256348,4307.436035,4524.743652,4536.410156,4409.102539,4456.922852,,,,,,,,,,,,,,,,,,,,,,,,,,,,,,,,,,,,,,,,,,,,,,,,,,,,,,,,,,,,,,,,,,,,,,
1768918289.481881,1768918289.48256,10.0,0.0,4339.871582,4325.128418,4353.846191,4345.641113,4323.461426,4325.256348,4328.333496,4331.794922,4314.615234,4309.743652,4526.025879,4542.179688,4413.974121,4461.794922,,,,,,,,,,,,,,,,,,,,,,,,,,,,,,,,,,,,,,,,,,,,,,,,,,,,,,,,,,,,,,,,,,,,,,
1768918289.48969,1768918289.490368,11.0,0.0,4345.769043,4332.05127,4361.794922,4356.922852,4326.025879,4323.205078,4325.384766,4329.615234,4317.307617,4309.487305,4527.179688,4542.820313,4414.230957,4474.230957,,,,,,,,,,,,,,,,,,,,,,,,,,,,,,,,,,,,,,,,,,,,,,,,,,,,,,,,,,,,,,,,,,,,,,
1768918289.497498,1768918289.498376,12.0,0.0,4345.256348,4331.153809,4364.871582,4354.102539,4324.102539,4323.333496,4326.922852,4332.563965,4320.128418,4309.487305,4528.077148,4543.205078,4414.102539,4476.666504,,,,,,,,,,,,,,,,,,,,,,,,,,,,,,,,,,,,,,,,,,,,,,,,,,,,,,,,,,,,,,,,,,,,,,
1768918289.505307,1768918289.506184,13.0,0.0,4339.230957,4324.358887,4356.153809,4342.94873,4322.436035,4317.820313,4325.512695,4337.820313,4318.846191,4308.846191,4525.897461,4542.05127,4414.102539,4464.615234,,,,,,,,,,,,,,,,,,,,,,,,,,,,,,,,,,,,,,,,,,,,,,,,,,,,,,,,,,,,,,,,,,,,,,
1768918289.513115,1768918289.514092,14.0,0.0,4337.820313,4325.128418,4352.05127,4346.153809,4319.487305,4310.641113,4321.794922,4331.538574,4314.102539,4308.205078,4523.205078,4537.436035,4412.436035,4459.230957,,,,,,,,,,,,,,,,,,,,,,,,,,,,,,,,,,,,,,,,,,,,,,,,,,,,,,,,,,,,,,,,,,,,,,
1768918289.520924,1768918289.5219,15.0,0.0,4343.333496,4327.94873,4359.871582,4355.0,4317.563965,4318.589844,4326.794922,4322.307617,4311.282227,4308.974121,4524.487305,4538.077148,4413.461426,4466.282227,,,,,,,,,,,,,,,,,,,,,,,,,,,,,,,,,,,,,,,,,,,,,,,,,,,,,,,,,,,,,,,,,,,,,,
1768918289.528732,1768918289.529907,16.0,0.0,4342.692383,4326.922852,4362.179688,4350.0,4321.410156,4323.205078,4324.358887,4322.820313,4311.282227,4308.077148,4524.358887,4540.128418,4413.717773,4467.307617,0.595314,0.593359,0.18883,0.217132,0.189203,0.697173,0.457732,0.161892,0.210864,0.081685,0.825836,0.342947,0.249567,0.326339,0.226658,1.38308,0.357883,0.170549,0.138902,0.115565,0.192734,0.298797,0.232664,0.227828,0.070497,0.254738,0.542799,0.231356,0.238264,0.165091,0.26992,0.688305,0.398967,0.25095,0.376249,0.890515,0.536035,0.176329,0.194373,0.095064,0.927283,0.7698,0.271557,0.177701,0.119186,1.065645,0.462311,0.351932,0.197509,0.134144,1.287756,0.621459,0.29223,0.231635,0.177201,1.389283,0.674048,0.495693,0.289534,0.240971,1.384076,0.531283,0.220147,0.389156,0.138282,1.015953,0.437355,0.2031,0.390861,0.271401
1768918289.536541,1768918289.537715,17.0,0.0,4335.512695,4323.846191,4355.641113,4339.487305,4322.436035,4312.820313,4313.974121,4328.461426,4314.102539,4307.05127,4522.563965,4538.974121,4411.666504,4461.538574,,,,,,,,,,,,,,,,,,,,,,,,,,,,,,,,,,,,,,,,,,,,,,,,,,,,,,,,,,,,,,,,,,,,,,
1768918289.544349,1768918289.545423,18.0,0.0,4333.077148,4318.717773,4352.563965,4339.871582,4317.436035,4312.307617,4318.717773,4331.025879,4318.333496,4309.871582,4524.743652,4538.589844,4411.282227,4458.333496,,,,,,,,,,,,,,,,,,,,,,,,,,,,,,,,,,,,,,,,,,,,,,,,,,,,,,,,,,,,,,,,,,,,,,
1768918289.552158,1768918289.553231,19.0,0.0,4338.589844,4318.589844,4358.717773,4348.846191,4318.846191,4323.974121,4332.307617,4331.153809,4320.769043,4311.538574,4527.94873,4543.589844,4411.410156,4464.871582,,,,,,,,,,,,,,,,,,,,,,,,,,,,,,,,,,,,,,,,,,,,,,,,,,,,,,,,,,,,,,,,,,,,,,
1768918289.559966,1768918289.560839,20.0,0.0,4343.205078,4325.641113,4365.769043,4350.256348,4325.897461,4322.820313,4327.692383,4334.102539,4315.897461,4308.461426,4527.94873,4545.641113,4411.538574,4470.256348,,,,,,,,,,,,,,,,,,,,,,,,,,,,,,,,,,,,,,,,,,,,,,,,,,,,,,,,,,,,,,,,,,,,,,
1768918289.567775,1768918289.568646,21.0,0.0,4343.589844,4328.846191,4365.256348,4345.512695,4326.282227,4317.563965,4314.102539,4333.846191,4310.897461,4306.538574,4523.846191,4543.717773,4411.666504,4467.05127,,,,,,,,,,,,,,,,,,,,,,,,,,,,,,,,,,,,,,,,,,,,,,,,,,,,,,,,,,,,,,,,,,,,,,
1768918289.575583,1768918289.576354,22.0,0.0,4340.897461,4325.256348,4364.743652,4344.102539,4321.538574,4322.692383,4316.538574,4326.153809,4310.897461,4303.589844,4523.077148,4544.487305,4408.846191,4466.538574,,,,,,,,,,,,,,,,,,,,,,,,,,,,,,,,,,,,,,,,,,,,,,,,,,,,,,,,,,,,,,,,,,,,,,
1768918289.583392,1768918289.584162,23.0,0.0,4340.384766,4320.256348,4366.794922,4346.025879,4322.820313,4326.282227,4324.871582,4324.487305,4311.153809,4298.333496,4525.384766,4546.666504,4403.846191,4471.025879,,,,,,,,,,,,,,,,,,,,,,,,,,,,,,,,,,,,,,,,,,,,,,,,,,,,,,,,,,,,,,,,,,,,,,
1768918289.5912,1768918289.59177,24.0,0.0,4341.794922,4317.436035,4365.897461,4348.077148,4327.307617,4323.461426,4321.153809,4325.128418,4309.871582,4295.641113,4518.077148,4541.666504,4399.743652,4466.025879,,,,,,,,,,,,,,,,,,,,,,,,,,,,,,,,,,,,,,,,,,,,,,,,,,,,,,,,,,,,,,,,,,,,,,
1768918289.599009,1768918289.599578,25.0,0.0,4341.922852,4320.256348,4362.436035,4351.538574,4328.205078,4321.538574,4318.205078,4321.794922,4308.846191,4295.769043,4512.436035,4534.615234,4396.794922,4456.922852,,,,,,,,,,,,,,,,,,,,,,,,,,,,,,,,,,,,,,,,,,,,,,,,,,,,,,,,,,,,,,,,,,,,,,
1768918289.606817,1768918289.607286,26.0,0.0,4344.230957,4322.94873,4361.922852,4352.05127,4327.436035,4325.384766,4328.846191,4326.794922,4311.153809,4299.230957,4521.153809,4538.589844,4396.922852,4461.922852,,,,,,,,,,,,,,,,,,,,,,,,,,,,,,,,,,,,,,,,,,,,,,,,,,,,,,,,,,,,,,,,,,,,,,
1768918289.614626,1768918289.615093,27.0,0.0,4340.769043,4320.769043,4358.717773,4344.871582,4328.589844,4327.820313,4328.974121,4327.820313,4309.487305,4300.384766,4522.05127,4539.358887,4398.974121,4465.0,,,,,,,,,,,,,,,,,,,,,,,,,,,,,,,,,,,,,,,,,,,,,,,,,,,,,,,,,,,,,,,,,,,,,,
1768918289.622434,1768918289.623101,28.0,0.0,4330.512695,4320.0,4352.820313,4340.384766,4329.102539,4322.94873,4315.769043,4318.461426,4305.512695,4295.512695,4508.974121,4528.589844,4397.94873,4458.205078,,,,,,,,,,,,,,,,,,,,,,,,,,,,,,,,,,,,,,,,,,,,,,,,,,,,,,,,,,,,,,,,,,,,,,
1768918289.630243,1768918289.630909,29.0,0.0,4327.563965,4319.615234,4350.512695,4346.282227,4324.743652,4319.615234,4318.589844,4322.436035,4306.922852,4292.307617,4505.641113,4522.05127,4395.128418,4456.666504,,,,,,,,,,,,,,,,,,,,,,,,,,,,,,,,,,,,,,,,,,,,,,,,,,,,,,,,,,,,,,,,,,,,,,
1768918289.638051,1768918289.638817,30.0,0.0,4336.538574,4319.487305,4351.410156,4351.153809,4320.769043,4321.025879,4326.922852,4328.205078,4307.05127,4295.0,4510.0,4523.589844,4396.153809,4456.153809,,,,,,,,,,,,,,,,,,,,,,,,,,,,,,,,,,,,,,,,,,,,,,,,,,,,,,,,,,,,,,,,,,,,,,
1768918289.64586,1768918289.646625,31.0,0.0,4337.563965,4318.205078,4351.153809,4346.922852,4322.307617,4320.512695,4322.436035,4319.871582,4305.384766,4294.487305,4506.538574,4522.563965,4397.436035,4451.538574,,,,,,,,,,,,,,,,,,,,,,,,,,,,,,,,,,,,,,,,,,,,,,,,,,,,,,,,,,,,,,,,,,,,,,
1768918289.653668,1768918289.654633,32.0,0.0,4327.307617,4312.692383,4347.563965,4340.256348,4324.230957,4318.846191,4319.230957,4321.922852,4310.384766,4292.692383,4505.128418,4521.794922,4397.94873,4452.307617,0.602558,0.641779,0.235722,0.19255,0.182983,0.760582,0.500077,0.16226,0.215775,0.077357,1.020387,0.363341,0.281492,0.260746,0.210513,1.647051,0.395463,0.189818,0.12758,0.106335,0.178834,0.292621,0.227849,0.209648,0.069703,0.261651,0.578876,0.21015,0.196508,0.157058,0.2734,0.72875,0.402357,0.211973,0.327019,0.888666,0.534395,0.173909,0.181208,0.092211,0.809287,0.75904,0.248893,0.168688,0.118265,1.041243,0.487947,0.380711,0.204787,0.132742,1.638271,0.605595,0.340231,0.261069,0.174078,1.336674,0.662798,0.628037,0.220134,0.244041,1.650729,0.516692,0.224754,0.403692,0.144346,1.157363,0.403879,0.238718,0.383726,0.242745
1768918289.661477,1768918289.662442,33.0,0.0,4326.410156,4310.512695,4345.384766,4339.743652,4322.692383,4322.179688,4324.743652,4333.974121,4313.333496,4298.461426,4512.563965,4529.871582,4398.205078,4458.461426,,,,,,,,,,,,,,,,,,,,,,,,,,,,,,,,,,,,,,,,,,,,,,,,,,,,,,,,,,,,,,,,,,,,,,
1768918289.669285,1768918289.670349,34.0,0.0,4334.871582,4313.077148,4348.589844,4341.025879,4321.538574,4327.05127,4329.230957,4331.153809,4310.256348,4304.615234,4521.153809,4537.179688,4401.538574,4462.820313,,,,,,,,,,,,,,,,,,,,,,,,,,,,,,,,,,,,,,,,,,,,,,,,,,,,,,,,,,,,,,,,,,,,,,
1768918289.677094,1768918289.678157,35.0,0.0,4336.410156,4311.922852,4352.820313,4341.282227,4321.794922,4324.871582,4324.743652,4323.974121,4314.230957,4308.717773,4524.743652,4538.333496,4408.974121,4467.820313,,,,,,,,,,,,,,,,,,,,,,,,,,,,,,,,,,,,,,,,,,,,,,,,,,,,,,,,,,,,,,,,,,,,,,
1768918289.684902,1768918289.685765,36.0,0.0,4333.205078,4312.179688,4353.717773,4341.282227,4321.666504,4319.487305,4318.461426,4325.384766,4319.615234,4307.692383,4518.717773,4536.282227,4408.077148,4467.563965,,,,,,,,,,,,,,,,,,,,,,,,,,,,,,,,,,,,,,,,,,,,,,,,,,,,,,,,,,,,,,,,,,,,,,
1768918289.692711,1768918289.693573,37.0,0.0,4336.282227,4317.820313,4353.717773,4342.820313,4321.794922,4320.641113,4321.922852,4325.897461,4317.05127,4301.538574,4514.615234,4534.358887,4399.615234,4461.282227,,,,,,,,,,,,,,,,,,,,,,,,,,,,,,,,,,,,,,,,,,,,,,,,,,,,,,,,,,,,,,,,,,,,,,
1768918289.700519,1768918289.701481,38.0,0.0,4338.589844,4320.641113,4354.615234,4343.846191,4321.538574,4324.230957,4326.538574,4323.077148,4318.846191,4306.282227,4521.282227,4537.563965,4404.487305,4459.230957,,,,,,,,,,,,,,,,,,,,,,,,,,,,,,,,,,,,,,,,,,,,,,,,,,,,,,,,,,,,,,,,,,,,,,
1768918289.708328,1768918289.709289,39.0,0.0,4334.358887,4320.641113,4353.077148,4342.94873,4322.563965,4323.333496,4320.512695,4323.846191,4321.282227,4311.794922,4525.512695,4543.589844,4414.230957,4463.974121,,,,,,,,,,,,,,,,,,,,,,,,,,,,,,,,,,,,,,,,,,,,,,,,,,,,,,,,,,,,,,,,,,,,,,
1768918289.716136,1768918289.717297,40.0,0.0,4332.820313,4321.153809,4348.589844,4341.922852,4325.769043,4323.205078,4319.487305,4324.871582,4313.077148,4301.025879,4521.666504,4542.692383,4406.538574,4468.589844,,,,,,,,,,,,,,,,,,,,,,,,,,,,,,,,,,,,,,,,,,,,,,,,,,,,,,,,,,,,,,,,,,,,,,
1768918289.723945,1768918289.725105,41.0,0.0,4334.487305,4323.333496,4347.436035,4343.077148,4327.436035,4324.743652,4331.666504,4326.410156,4311.025879,4295.641113,4519.102539,4535.512695,4398.974121,4467.820313,,,,,,,,,,,,,,,,,,,,,,,,,,,,,,,,,,,,,,,,,,,,,,,,,,,,,,,,,,,,,,,,,,,,,,
1768918289.731753,1768918289.733012,42.0,0.0,4333.589844,4325.256348,4352.179688,4346.410156,4325.128418,4318.974121,4327.307617,4330.384766,4322.94873,4307.179688,4522.05127,4539.102539,4405.384766,4466.794922,,,,,,,,,,,,,,,,,,,,,,,,,,,,,,,,,,,,,,,,,,,,,,,,,,,,,,,,,,,,,,,,,,,,,,
1768918289.739562,1768918289.74082,43.0,0.0,4333.717773,4327.179688,4357.563965,4349.358887,4323.333496,4314.358887,4309.102539,4326.922852,4327.563965,4312.436035,4525.384766,4548.846191,4412.179688,4471.922852,,,,,,,,,,,,,,,,,,,,,,,,,,,,,,,,,,,,,,,,,,,,,,,,,,,,,,,,,,,,,,,,,,,,,,
1768918289.74737,1768918289.748428,44.0,0.0,4339.871582,4330.128418,4360.256348,4351.538574,4326.282227,4320.384766,4311.794922,4319.743652,4321.410156,4310.256348,4527.436035,4548.461426,4414.615234,4481.538574,,,,,,,,,,,,,,,,,,,,,,,,,,,,,,,,,,,,,,,,,,,,,,,,,,,,,,,,,,,,,,,,,,,,,,
1768918289.755179,1768918289.756236,45.0,0.0,4342.436035,4330.0,4357.820313,4350.769043,4329.358887,4326.410156,4322.563965,4320.512695,4319.871582,4309.871582,4524.615234,4539.102539,4408.974121,4475.641113,,,,,,,,,,,,,,,,,,,,,,,,,,,,,,,,,,,,,,,,,,,,,,,,,,,,,,,,,,,,,,,,,,,,,,
1768918289.762988,1768918289.763943,46.0,0.0,4338.205078,4326.410156,4353.077148,4345.0,4327.94873,4321.410156,4317.179688,4317.307617,4319.615234,4307.692383,4520.0,4535.128418,4401.666504,4461.025879,,,,,,,,,,,,,,,,,,,,,,,,,,,,,,,,,,,,,,,,,,,,,,,,,,,,,,,,,,,,,,,,,,,,,,
1768918289.770796,1768918289.771751,47.0,0.0,4337.563965,4326.153809,4353.974121,4340.897461,4323.974121,4311.922852,4306.794922,4310.897461,4318.974121,4308.717773,4522.05127,4538.846191,4407.820313,4464.358887,,,,,,,,,,,,,,,,,,,,,,,,,,,,,,,,,,,,,,,,,,,,,,,,,,,,,,,,,,,,,,,,,,,,,,
1768918289.778604,1768918289.779359,48.0,0.0,4342.307617,4327.563965,4358.205078,4344.615234,4324.487305,4313.077148,4308.589844,4316.282227,4323.077148,4312.307617,4527.307617,4541.153809,4416.538574,4474.871582,0.62892,0.686566,0.288078,0.187555,0.183443,0.819356,0.531835,0.178607,0.231142,0.078776,1.237616,0.388592,0.300413,0.213944,0.190092,1.941206,0.414567,0.210743,0.119517,0.097678,0.182809,0.26449,0.216631,0.182816,0.07733,0.254852,0.566816,0.18632,0.159196,0.153831,0.293164,0.709906,0.381839,0.190761,0.300267,0.91931,0.517199,0.164198,0.169775,0.095253,0.721254,0.738405,0.233174,0.158855,0.111209,1.019651,0.500347,0.385719,0.202654,0.127608,1.971479,0.585324,0.372117,0.29301,0.167656,1.4229,0.635759,0.724666,0.178894,0.244787,1.895302,0.531152,0.222042,0.400306,0.152368,1.350744,0.384707,0.278,0.376382,0.211674
1768918289.786413,1768918289.787167,49.0,0.0,4342.94873,4327.692383,4358.461426,4353.333496,4333.205078,4323.205078,4319.230957,4324.102539,4326.410156,4312.05127,4527.436035,4540.128418,4413.205078,4473.974121,,,,,,,,,,,,,,,,,,,,,,,,,,,,,,,,,,,,,,,,,,,,,,,,,,,,,,,,,,,,,,,,,,,,,,
1768918289.794222,1768918289.794875,50.0,0.0,4340.512695,4328.717773,4353.974121,4353.974121,4334.102539,4323.717773,4321.538574,4320.384766,4323.461426,4311.666504,4524.615234,4539.102539,4409.230957,4469.615234,,,,,,,,,,,,,,,,,,,,,,,,,,,,,,,,,,,,,,,,,,,,,,,,,,,,,,,,,,,,,,,,,,,,,,
1768918289.80203,1768918289.802682,51.0,0.0,4341.282227,4329.358887,4351.153809,4348.461426,4321.025879,4312.820313,4311.153809,4312.692383,4320.897461,4312.436035,4524.102539,4538.974121,4411.666504,4473.589844,,,,,,,,,,,,,,,,,,,,,,,,,,,,,,,,,,,,,,,,,,,,,,,,,,,,,,,,,,,,,,,,,,,,,,
1768918289.809838,1768918289.81029,52.0,0.0,4342.563965,4328.717773,4352.436035,4346.025879,4317.692383,4312.692383,4310.0,4316.025879,4324.871582,4311.410156,4524.871582,4539.615234,4413.077148,4476.538574,,,,,,,,,,,,,,,,,,,,,,,,,,,,,,,,,,,,,,,,,,,,,,,,,,,,,,,,,,,,,,,,,,,,,,
1768918289.817647,1768918289.818098,53.0,0.0,4343.077148,4331.794922,4357.179688,4350.256348,4332.307617,4323.461426,4324.871582,4322.436035,4328.333496,4311.025879,4524.743652,4541.282227,4413.333496,4474.102539,,,,,,,,,,,,,,,,,,,,,,,,,,,,,,,,,,,,,,,,,,,,,,,,,,,,,,,,,,,,,,,,,,,,,,
1768918289.825456,1768918289.826006,54.0,0.0,4343.974121,4337.820313,4361.153809,4356.666504,4337.05127,4330.897461,4327.820313,4320.769043,4327.179688,4310.897461,4524.871582,4544.615234,4414.743652,4475.128418,,,,,,,,,,,,,,,,,,,,,,,,,,,,,,,,,,,,,,,,,,,,,,,,,,,,,,,,,,,,,,,,,,,,,,
1768918289.833264,1768918289.833814,55.0,0.0,4341.410156,4338.333496,4356.025879,4353.333496,4326.666504,4323.846191,4312.692383,4318.717773,4325.641113,4310.641113,4524.230957,4542.94873,4413.589844,4475.0,,,,,,,,,,,,,,,,,,,,,,,,,,,,,,,,,,,,,,,,,,,,,,,,,,,,,,,,,,,,,,,,,,,,,,
1768918289.841072,1768918289.841822,56.0,0.0,4336.794922,4332.94873,4349.102539,4343.974121,4323.461426,4314.102539,4306.282227,4318.717773,4324.487305,4309.743652,4521.410156,4535.384766,4409.230957,4470.769043,,,,,,,,,,,,,,,,,,,,,,,,,,,,,,,,,,,,,,,,,,,,,,,,,,,,,,,,,,,,,,,,,,,,,,
1768918289.848881,1768918289.84963,57.0,0.0,4342.05127,4334.743652,4353.077148,4345.897461,4327.307617,4317.692383,4311.025879,4315.769043,4322.436035,4309.102539,4524.102539,4538.461426,4415.641113,4475.0,,,,,,,,,,,,,,,,,,,,,,,,,,,,,,,,,,,,,,,,,,,,,,,,,,,,,,,,,,,,,,,,,,,,,,
1768918289.85669,1768918289.857538,58.0,0.0,4352.692383,4343.333496,4358.461426,4356.538574,4326.410156,4322.692383,4315.641113,4318.717773,4322.563965,4311.666504,4531.410156,4551.666504,4427.436035,4486.922852,,,,,,,,,,,,,,,,,,,,,,,,,,,,,,,,,,,,,,,,,,,,,,,,,,,,,,,,,,,,,,,,,,,,,,
1768918289.864498,1768918289.865346,59.0,0.0,4349.615234,4341.922852,4354.230957,4356.410156,4323.205078,4321.922852,4322.436035,4323.205078,4324.871582,4312.820313,4529.615234,4549.743652,4425.128418,4485.0,,,,,,,,,,,,,,,,,,,,,,,,,,,,,,,,,,,,,,,,,,,,,,,,,,,,,,,,,,,,,,,,,,,,,,
1768918289.872306,1768918289.873353,60.0,0.0,4340.128418,4335.769043,4354.102539,4351.025879,4325.256348,4324.487305,4325.128418,4317.179688,4325.512695,4312.179688,4523.205078,4534.615234,4416.794922,4472.563965,,,,,,,,,,,,,,,,,,,,,,,,,,,,,,,,,,,,,,,,,,,,,,,,,,,,,,,,,,,,,,,,,,,,,,
1768918289.880115,1768918289.881161,61.0,0.0,4341.025879,4339.871582,4358.461426,4354.743652,4329.487305,4327.05127,4316.538574,4312.307617,4325.897461,4312.563965,4524.102539,4532.563965,4414.871582,4471.282227,,,,,,,,,,,,,,,,,,,,,,,,,,,,,,,,,,,,,,,,,,,,,,,,,,,,,,,,,,,,,,,,,,,,,,
1768918289.887924,1768918289.888869,62.0,0.0,4343.589844,4341.666504,4349.615234,4353.205078,4327.563965,4324.615234,4309.615234,4316.538574,4326.153809,4312.179688,4525.641113,4539.358887,4412.94873,4476.153809,,,,,,,,,,,,,,,,,,,,,,,,,,,,,,,,,,,,,,,,,,,,,,,,,,,,,,,,,,,,,,,,,,,,,,
1768918289.895732,1768918289.896677,63.0,0.0,4341.153809,4337.05127,4343.974121,4347.563965,4324.230957,4324.871582,4317.307617,4320.512695,4325.769043,4310.641113,4524.230957,4538.974121,4411.538574,4476.410156,,,,,,,,,,,,,,,,,,,,,,,,,,,,,,,,,,,,,,,,,,,,,,,,,,,,,,,,,,,,,,,,,,,,,,
1768918289.90354,1768918289.904685,64.0,0.0,4339.615234,4337.179688,4353.461426,4352.05127,4325.769043,4323.461426,4323.461426,4322.820313,4325.256348,4310.769043,4525.384766,4534.487305,4415.0,4473.974121,0.654203,0.71164,0.332818,0.195391,0.188779,0.85951,0.552852,0.20351,0.245764,0.08315,1.409802,0.42183,0.299758,0.190276,0.170243,2.162267,0.410776,0.228932,0.112843,0.091771,0.203349,0.222999,0.195479,0.152782,0.091094,0.240472,0.513069,0.165638,0.130402,0.153019,0.326426,0.641988,0.348443,0.185033,0.294683,0.956787,0.485963,0.152167,0.164154,0.102807,0.667302,0.697108,0.231925,0.152476,0.100139,1.014734,0.490262,0.360855,0.190984,0.119829,2.211469,0.55957,0.382668,0.319283,0.161225,1.612776,0.584936,0.763768,0.167782,0.245104,2.05462,0.555383,0.203485,0.377831,0.160793,1.528459,0.373416,0.312258,0.368525,0.187209
1768918289.911349,1768918289.912493,65.0,0.0,4339.102539,4341.282227,4361.025879,4359.102539,4326.922852,4321.922852,4324.230957,4325.0,4325.0,4311.025879,4526.794922,4533.974121,4414.743652,4471.538574,,,,,,,,,,,,,,,,,,,,,,,,,,,,,,,,,,,,,,,,,,,,,,,,,,,,,,,,,,,,,,,,,,,,,,
1768918289.919158,1768918289.9204,66.0,0.0,4340.128418,4341.922852,4358.333496,4359.230957,4325.128418,4332.436035,4331.922852,4324.871582,4326.153809,4310.897461,4526.282227,4539.358887,4411.410156,4471.410156,,,,,,,,,,,,,,,,,,,,,,,,,,,,,,,,,,,,,,,,,,,,,,,,,,,,,,,,,,,,,,,,,,,,,,
1768918289.926966,1768918289.928208,67.0,0.0,4342.94873,4341.922852,4351.922852,4357.820313,4327.05127,4333.077148,4329.358887,4321.410156,4326.410156,4310.384766,4526.538574,4542.563965,4411.538574,4475.0,,,,,,,,,,,,,,,,,,,,,,,,,,,,,,,,,,,,,,,,,,,,,,,,,,,,,,,,,,,,,,,,,,,,,,
1768918289.934775,1768918289.935816,68.0,0.0,4341.025879,4340.897461,4349.358887,4357.820313,4328.589844,4319.871582,4312.05127,4315.512695,4325.512695,4309.871582,4524.230957,4536.025879,4413.717773,4476.025879,,,,,,,,,,,,,,,,,,,,,,,,,,,,,,,,,,,,,,,,,,,,,,,,,,,,,,,,,,,,,,,,,,,,,,
1768918289.942583,1768918289.943624,69.0,0.0,4337.563965,4336.410156,4352.692383,4355.384766,4326.794922,4319.102539,4308.333496,4316.025879,4325.641113,4310.769043,4523.461426,4534.358887,4415.0,4476.282227,,,,,,,,,,,,,,,,,,,,,,,,,,,,,,,,,,,,,,,,,,,,,,,,,,,,,,,,,,,,,,,,,,,,,,
1768918289.950392,1768918289.951331,70.0,0.0,4341.025879,4336.410156,4360.384766,4356.025879,4327.692383,4329.102539,4326.025879,4322.94873,4327.05127,4312.436035,4526.410156,4542.05127,4413.846191,4478.717773,,,,,,,,,,,,,,,,,,,,,,,,,,,,,,,,,,,,,,,,,,,,,,,,,,,,,,,,,,,,,,,,,,,,,,
1768918289.9582,1768918289.959139,71.0,0.0,4343.846191,4339.230957,4360.512695,4358.717773,4327.94873,4327.94873,4329.743652,4318.589844,4324.487305,4312.05127,4525.897461,4537.692383,4411.410156,4471.666504,,,,,,,,,,,,,,,,,,,,,,,,,,,,,,,,,,,,,,,,,,,,,,,,,,,,,,,,,,,,,,,,,,,,,,
1768918289.966009,1768918289.967147,72.0,0.0,4338.974121,4335.0,4349.487305,4352.563965,4324.487305,4320.641113,4313.461426,4312.692383,4322.563965,4311.538574,4523.333496,4523.333496,4409.871582,4459.615234,,,,,,,,,,,,,,,,,,,,,,,,,,,,,,,,,,,,,,,,,,,,,,,,,,,,,,,,,,,,,,,,,,,,,,
1768918289.973817,1768918289.974955,73.0,0.0,4337.692383,4329.230957,4341.025879,4343.333496,4324.871582,4322.179688,4313.846191,4319.102539,4325.512695,4311.794922,4523.589844,4520.769043,4411.538574,4464.102539,,,,,,,,,,,,,,,,,,,,,,,,,,,,,,,,,,,,,,,,,,,,,,,,,,,,,,,,,,,,,,,,,,,,,,
1768918289.981626,1768918289.982663,74.0,0.0,4339.358887,4326.922852,4341.666504,4340.512695,4324.230957,4325.0,4323.205078,4319.615234,4325.897461,4310.769043,4521.666504,4523.974121,4414.102539,4475.128418,,,,,,,,,,,,,,,,,,,,,,,,,,,,,,,,,,,,,,,,,,,,,,,,,,,,,,,,,,,,,,,,,,,,,,
1768918289.989434,1768918289.99047,75.0,0.0,4333.461426,4325.256348,4342.436035,4341.153809,4321.153809,4321.538574,4319.487305,4313.717773,4325.256348,4309.102539,4520.0,4523.974121,4411.153809,4470.128418,,,,,,,,,,,,,,,,,,,,,,,,,,,,,,,,,,,,,,,,,,,,,,,,,,,,,,,,,,,,,,,,,,,,,,
1768918289.997243,1768918289.998078,76.0,0.0,4326.153809,4323.077148,4340.897461,4340.256348,4322.05127,4319.230957,4313.589844,4315.256348,4323.589844,4305.641113,4517.307617,4518.846191,4405.769043,4458.077148,,,,,,,,,,,,,,,,,,,,,,,,,,,,,,,,,,,,,,,,,,,,,,,,,,,,,,,,,,,,,,,,,,,,,,
1768918290.005051,1768918290.005886,77.0,0.0,4326.666504,4321.666504,4338.717773,4339.358887,4319.230957,4320.384766,4314.487305,4317.563965,4321.922852,4302.436035,4511.282227,4511.282227,4402.563965,4457.563965,,,,,,,,,,,,,,,,,,,,,,,,,,,,,,,,,,,,,,,,,,,,,,,,,,,,,,,,,,,,,,,,,,,,,,
1768918290.01286,1768918290.013594,78.0,0.0,4329.487305,4321.538574,4333.717773,4339.743652,4315.0,4321.153809,4309.487305,4315.512695,4323.589844,4304.743652,4512.179688,4512.05127,4401.153809,4459.871582,,,,,,,,,,,,,,,,,,,,,,,,,,,,,,,,,,,,,,,,,,,,,,,,,,,,,,,,,,,,,,,,,,,,,,
1768918290.020668,1768918290.021402,79.0,0.0,4332.436035,4324.487305,4335.128418,4340.128418,4318.846191,4320.512695,4305.512695,4314.615234,4320.769043,4306.922852,4519.487305,4518.974121,4402.179688,4459.615234,,,,,,,,,,,,,,,,,,,,,,,,,,,,,,,,,,,,,,,,,,,,,,,,,,,,,,,,,,,,,,,,,,,,,,
1768918290.028477,1768918290.029409,80.0,0.0,4340.0,4327.307617,4348.205078,4341.794922,4325.256348,4321.282227,4316.025879,4317.05127,4315.897461,4305.897461,4521.153809,4524.487305,4405.641113,4467.179688,0.649783,0.704623,0.357806,0.206175,0.197579,0.862804,0.563827,0.22373,0.250354,0.08851,1.467962,0.464089,0.280484,0.184564,0.155511,2.207923,0.384718,0.237104,0.106939,0.092438,0.236155,0.180552,0.165733,0.124312,0.107592,0.223713,0.439247,0.152117,0.109768,0.153321,0.364776,0.55183,0.314702,0.188894,0.3027,0.972088,0.451386,0.143007,0.167754,0.111945,0.638083,0.636432,0.244329,0.153471,0.088188,1.015387,0.460188,0.315872,0.173667,0.112692,2.283427,0.535298,0.374799,0.335775,0.159105,1.798643,0.52151,0.741031,0.180736,0.247194,2.067903,0.570097,0.171228,0.34481,0.16995,1.608047,0.366605,0.334521,0.360894,0.177333
1768918290.036285,1768918290.037217,81.0,0.0,4343.717773,4328.077148,4355.0,4344.230957,4326.153809,4322.307617,4322.692383,4321.153809,4319.102539,4304.230957,4517.563965,4526.410156,4404.358887,4475.128418,,,,,,,,,,,,,,,,,,,,,,,,,,,,,,,,,,,,,,,,,,,,,,,,,,,,,,,,,,,,,,,,,,,,,,
1768918290.044094,1768918290.045125,82.0,0.0,4340.384766,4331.282227,4352.05127,4344.871582,4319.615234,4321.025879,4312.820313,4321.153809,4324.487305,4302.436035,4519.615234,4526.922852,4401.794922,4475.384766,,,,,,,,,,,,,,,,,,,,,,,,,,,,,,,,,,,,,,,,,,,,,,,,,,,,,,,,,,,,,,,,,,,,,,
1768918290.051902,1768918290.052933,83.0,0.0,4339.743652,4334.871582,4354.102539,4341.922852,4312.179688,4320.641113,4306.025879,4316.410156,4324.230957,4303.461426,4524.615234,4531.794922,4407.307617,4473.717773,,,,,,,,,,,,,,,,,,,,,,,,,,,,,,,,,,,,,,,,,,,,,,,,,,,,,,,,,,,,,,,,,,,,,,
1768918290.059711,1768918290.060941,84.0,0.0,4341.922852,4337.307617,4359.871582,4341.922852,4314.615234,4323.333496,4318.589844,4321.153809,4326.025879,4310.0,4526.538574,4540.384766,4414.615234,4475.769043,,,,,,,,,,,,,,,,,,,,,,,,,,,,,,,,,,,,,,,,,,,,,,,,,,,,,,,,,,,,,,,,,,,,,,
1768918290.067519,1768918290.068749,85.0,0.0,4345.384766,4343.077148,4362.94873,4349.615234,4324.743652,4326.666504,4328.974121,4329.487305,4326.025879,4312.307617,4525.384766,4541.153809,4411.666504,4475.256348,,,,,,,,,,,,,,,,,,,,,,,,,,,,,,,,,,,,,,,,,,,,,,,,,,,,,,,,,,,,,,,,,,,,,,
1768918290.075328,1768918290.076657,86.0,0.0,4350.769043,4351.666504,4372.307617,4357.94873,4325.512695,4328.333496,4326.410156,4328.333496,4325.256348,4307.94873,4525.897461,4537.94873,4408.205078,4476.794922,,,,,,,,,,,,,,,,,,,,,,,,,,,,,,,,,,,,,,,,,,,,,,,,,,,,,,,,,,,,,,,,,,,,,,
1768918290.083136,1768918290.084465,87.0,0.0,4352.179688,4355.384766,4376.538574,4359.615234,4320.256348,4328.333496,4326.666504,4325.384766,4325.897461,4309.743652,4528.077148,4540.512695,4412.94873,4480.897461,,,,,,,,,,,,,,,,,,,,,,,,,,,,,,,,,,,,,,,,,,,,,,,,,,,,,,,,,,,,,,,,,,,,,,
1768918290.090945,1768918290.092473,88.0,0.0,4344.230957,4350.256348,4363.974121,4355.128418,4319.743652,4325.0,4321.538574,4317.94873,4317.94873,4311.666504,4524.230957,4540.641113,4416.153809,4479.871582,,,,,,,,,,,,,,,,,,,,,,,,,,,,,,,,,,,,,,,,,,,,,,,,,,,,,,,,,,,,,,,,,,,,,,
1768918290.098753,1768918290.100281,89.0,0.0,4340.897461,4344.230957,4355.512695,4355.384766,4317.94873,4322.179688,4312.692383,4308.589844,4314.743652,4311.025879,4527.820313,4545.256348,4417.692383,4480.897461,,,,,,,,,,,,,,,,,,,,,,,,,,,,,,,,,,,,,,,,,,,,,,,,,,,,,,,,,,,,,,,,,,,,,,
1768918290.106562,1768918290.107988,90.0,0.0,4348.589844,4344.487305,4366.538574,4361.666504,4316.410156,4325.512695,4317.307617,4313.717773,4324.871582,4316.666504,4540.512695,4556.025879,4418.846191,4482.179688,,,,,,,,,,,,,,,,,,,,,,,,,,,,,,,,,,,,,,,,,,,,,,,,,,,,,,,,,,,,,,,,,,,,,,
1768918290.11437,1768918290.115796,91.0,0.0,4353.205078,4348.717773,4375.512695,4363.846191,4322.307617,4329.102539,4328.205078,4325.769043,4330.256348,4318.589844,4539.230957,4554.743652,4413.974121,4477.820313,,,,,,,,,,,,,,,,,,,,,,,,,,,,,,,,,,,,,,,,,,,,,,,,,,,,,,,,,,,,,,,,,,,,,,
1768918290.122179,1768918290.123404,92.0,0.0,4349.230957,4352.05127,4369.487305,4362.179688,4329.615234,4329.743652,4328.461426,4324.743652,4326.282227,4313.077148,4525.641113,4538.333496,4412.307617,4473.077148,,,,,,,,,,,,,,,,,,,,,,,,,,,,,,,,,,,,,,,,,,,,,,,,,,,,,,,,,,,,,,,,,,,,,,
1768918290.129987,1768918290.131212,93.0,0.0,4342.307617,4347.94873,4357.436035,4359.487305,4325.769043,4324.743652,4319.358887,4314.102539,4320.256348,4306.538574,4512.94873,4521.922852,4410.128418,4468.974121,,,,,,,,,,,,,,,,,,,,,,,,,,,,,,,,,,,,,,,,,,,,,,,,,,,,,,,,,,,,,,,,,,,,,,
1768918290.137796,1768918290.13892,94.0,0.0,4335.897461,4340.512695,4348.717773,4352.820313,4315.897461,4317.692383,4310.0,4312.436035,4315.256348,4302.692383,4508.846191,4523.717773,4401.538574,4463.205078,,,,,,,,,,,,,,,,,,,,,,,,,,,,,,,,,,,,,,,,,,,,,,,,,,,,,,,,,,,,,,,,,,,,,,
1768918290.145604,1768918290.146727,95.0,0.0,4335.512695,4339.871582,4349.487305,4349.615234,4311.794922,4318.846191,4307.692383,4315.128418,4312.563965,4303.717773,4512.94873,4532.307617,4399.743652,4461.282227,,,,,,,,,,,,,,,,,,,,,,,,,,,,,,,,,,,,,,,,,,,,,,,,,,,,,,,,,,,,,,,,,,,,,,
1768918290.153413,1768918290.154335,96.0,0.0,4333.333496,4336.153809,4351.410156,4346.025879,4309.358887,4323.333496,4313.333496,4311.538574,4310.769043,4301.153809,4514.871582,4527.436035,4400.0,4463.846191,0.590383,0.664896,0.353334,0.211184,0.208249,0.813569,0.566096,0.227039,0.24176,0.093998,1.376354,0.512196,0.248282,0.188445,0.148064,2.024576,0.343266,0.22876,0.103528,0.102315,0.264337,0.148571,0.130682,0.100671,0.123604,0.209071,0.369637,0.144668,0.096257,0.155181,0.399599,0.468167,0.288294,0.198515,0.316033,0.933577,0.424562,0.13785,0.180987,0.119529,0.609196,0.5664,0.259285,0.163121,0.078182,0.99609,0.41813,0.266074,0.156876,0.109273,2.149408,0.5222,0.354485,0.342218,0.163335,1.861853,0.473483,0.666822,0.207994,0.252071,1.904645,0.56303,0.134489,0.314327,0.180132,1.524274,0.367309,0.339824,0.355606,0.184581
1768918290.161221,1768918290.162143,97.0,0.0,4326.153809,4327.692383,4349.487305,4340.256348,4308.974121,4325.512695,4323.077148,4313.589844,4312.692383,4295.384766,4510.512695,4523.717773,4396.153809,4466.025879,,,,,,,,,,,,,,,,,,,,,,,,,,,,,,,,,,,,,,,,,,,,,,,,,,,,,,,,,,,,,,,,,,,,,,
1768918290.16903,1768918290.170051,98.0,0.0,4334.358887,4338.077148,4357.563965,4351.794922,4316.153809,4324.743652,4327.692383,4323.846191,4323.589844,4304.871582,4518.461426,4540.0,4408.461426,4472.94873,,,,,,,,,,,,,,,,,,,,,,,,,,,,,,,,,,,,,,,,,,,,,,,,,,,,,,,,,,,,,,,,,,,,,,
1768918290.176838,1768918290.177859,99.0,0.0,4353.717773,4359.871582,4365.769043,4370.512695,4321.794922,4318.205078,4318.461426,4325.897461,4330.641113,4323.205078,4535.384766,4550.769043,4424.615234,4481.922852,,,,,,,,,,,,,,,,,,,,,,,,,,,,,,,,,,,,,,,,,,,,,,,,,,,,,,,,,,,,,,,,,,,,,,
1768918290.184647,1768918290.185467,100.0,0.0,4352.436035,4359.871582,4361.282227,4369.743652,4318.589844,4319.487305,4318.205078,4323.589844,4328.717773,4322.179688,4535.641113,4542.436035,4417.307617,4477.05127,,,,,,,,,,,,,,,,,,,,,,,,,,,,,,,,,,,,,,,,,,,,,,,,,,,,,,,,,,,,,,,,,,,,,,
1768918290.192455,1768918290.193275,101.0,0.0,4336.794922,4350.512695,4358.589844,4362.179688,4320.256348,4328.333496,4330.512695,4328.461426,4327.692383,4312.307617,4525.769043,4536.025879,4407.179688,4465.512695,,,,,,,,,,,,,,,,,,,,,,,,,,,,,,,,,,,,,,,,,,,,,,,,,,,,,,,,,,,,,,,,,,,,,,
1768918290.200264,1768918290.200982,102.0,0.0,4339.358887,4355.641113,4364.743652,4362.05127,4324.102539,4321.666504,4321.153809,4325.897461,4325.0,4310.512695,4520.512695,4536.666504,4411.922852,4467.307617,,,,,,,,,,,,,,,,,,,,,,,,,,,,,,,,,,,,,,,,,,,,,,,,,,,,,,,,,,,,,,,,,,,,,,
1768918290.208072,1768918290.20879,103.0,0.0,4351.794922,4359.615234,4367.436035,4358.333496,4316.538574,4311.922852,4306.410156,4317.436035,4318.974121,4310.384766,4525.769043,4540.512695,4416.153809,4479.358887,,,,,,,,,,,,,,,,,,,,,,,,,,,,,,,,,,,,,,,,,,,,,,,,,,,,,,,,,,,,,,,,,,,,,,
1768918290.215881,1768918290.216398,104.0,0.0,4350.256348,4351.282227,4363.461426,4353.077148,4313.717773,4318.974121,4318.846191,4320.384766,4320.256348,4311.153809,4535.0,4543.974121,4414.487305,4482.179688,,,,,,,,,,,,,,,,,,,,,,,,,,,,,,,,,,,,,,,,,,,,,,,,,,,,,,,,,,,,,,,,,,,,,,
1768918290.223689,1768918290.224206,105.0,0.0,4342.94873,4348.846191,4358.461426,4356.025879,4323.077148,4323.717773,4328.846191,4322.307617,4320.384766,4310.769043,4532.179688,4542.05127,4412.563965,4473.717773,,,,,,,,,,,,,,,,,,,,,,,,,,,,,,,,,,,,,,,,,,,,,,,,,,,,,,,,,,,,,,,,,,,,,,
1768918290.231498,1768918290.232114,106.0,0.0,4341.794922,4353.717773,4352.94873,4356.922852,4325.256348,4320.128418,4317.307617,4317.179688,4312.94873,4310.0,4523.333496,4535.256348,4411.794922,4470.256348,,,,,,,,,,,,,,,,,,,,,,,,,,,,,,,,,,,,,,,,,,,,,,,,,,,,,,,,,,,,,,,,,,,,,,
1768918290.239306,1768918290.239922,107.0,0.0,4341.410156,4350.128418,4350.128418,4352.436035,4319.871582,4315.384766,4309.230957,4315.256348,4311.025879,4310.384766,4522.307617,4531.410156,4411.025879,4473.461426,,,,,,,,,,,,,,,,,,,,,,,,,,,,,,,,,,,,,,,,,,,,,,,,,,,,,,,,,,,,,,,,,,,,,,
1768918290.247115,1768918290.247929,108.0,0.0,4339.230957,4346.153809,4353.333496,4350.512695,4320.0,4312.436035,4311.282227,4318.333496,4318.717773,4309.358887,4526.922852,4534.615234,4410.897461,4476.666504,,,,,,,,,,,,,,,,,,,,,,,,,,,,,,,,,,,,,,,,,,,,,,,,,,,,,,,,,,,,,,,,,,,,,,
1768918290.254923,1768918290.255737,109.0,0.0,4341.666504,4347.307617,4356.282227,4348.333496,4317.820313,4313.717773,4312.307617,4319.743652,4322.05127,4309.615234,4526.538574,4537.692383,4411.538574,4476.538574,,,,,,,,,,,,,,,,,,,,,,,,,,,,,,,,,,,,,,,,,,,,,,,,,,,,,,,,,,,,,,,,,,,,,,
1768918290.262732,1768918290.263645,110.0,0.0,4342.563965,4344.230957,4357.436035,4345.256348,4311.025879,4314.487305,4310.384766,4316.538574,4316.922852,4310.769043,4525.769043,4536.410156,4411.410156,4473.974121,,,,,,,,,,,,,,,,,,,,,,,,,,,,,,,,,,,,,,,,,,,,,,,,,,,,,,,,,,,,,,,,,,,,,,
1768918290.27054,1768918290.271453,111.0,0.0,4341.025879,4341.025879,4357.05127,4345.769043,4308.846191,4311.666504,4310.512695,4315.769043,4315.897461,4309.102539,4526.922852,4537.179688,4412.436035,4475.128418,,,,,,,,,,,,,,,,,,,,,,,,,,,,,,,,,,,,,,,,,,,,,,,,,,,,,,,,,,,,,,,,,,,,,,
1768918290.278349,1768918290.279461,112.0,0.0,4340.897461,4341.538574,4351.922852,4346.282227,4310.128418,4312.692383,4312.692383,4319.487305,4321.282227,4308.717773,4527.05127,4539.871582,4413.077148,4475.128418,0.483824,0.603632,0.317556,0.205977,0.217506,0.735002,0.564968,0.209702,0.221753,0.09869,1.165125,0.561357,0.209792,0.197582,0.146518,1.646461,0.298766,0.204468,0.1063,0.119589,0.279406,0.131451,0.09429,0.084385,0.136395,0.200752,0.320223,0.13681,0.09005,0.159536,0.428039,0.41007,0.268495,0.216495,0.329992,0.834305,0.411043,0.136413,0.199825,0.123604,0.556051,0.498593,0.264936,0.177869,0.071384,0.934866,0.373043,0.22458,0.144777,0.109675,1.840116,0.523162,0.329256,0.338256,0.171002,1.758456,0.472963,0.562923,0.238665,0.25797,1.592833,0.533129,0.103834,0.293922,0.189668,1.283009,0.380473,0.326019,0.353504,0.203415
1768918290.286157,1768918290.287269,113.0,0.0,4337.692383,4338.077148,4343.846191,4343.461426,4310.128418,4313.077148,4309.615234,4320.128418,4321.922852,4311.025879,4524.358887,4531.410156,4410.769043,4469.743652,,,,,,,,,,,,,,,,,,,,,,,,,,,,,,,,,,,,,,,,,,,,,,,,,,,,,,,,,,,,,,,,,,,,,,
1768918290.293966,1768918290.294977,114.0,0.0,4334.487305,4335.897461,4341.282227,4342.820313,4310.641113,4312.179688,4307.179688,4313.333496,4316.666504,4308.589844,4520.128418,4518.974121,4409.358887,4468.333496,,,,,,,,,,,,,,,,,,,,,,,,,,,,,,,,,,,,,,,,,,,,,,,,,,,,,,,,,,,,,,,,,,,,,,
1768918290.301774,1768918290.302784,115.0,0.0,4331.666504,4339.102539,4343.974121,4342.692383,4311.282227,4315.0,4311.538574,4320.128418,4319.230957,4307.820313,4521.410156,4526.538574,4412.436035,4471.410156,,,,,,,,,,,,,,,,,,,,,,,,,,,,,,,,,,,,,,,,,,,,,,,,,,,,,,,,,,,,,,,,,,,,,,
1768918290.309583,1768918290.310692,116.0,0.0,4327.563965,4333.461426,4341.410156,4340.0,4306.025879,4310.769043,4311.282227,4330.384766,4323.461426,4308.205078,4525.128418,4536.922852,4412.563965,4466.282227,,,,,,,,,,,,,,,,,,,,,,,,,,,,,,,,,,,,,,,,,,,,,,,,,,,,,,,,,,,,,,,,,,,,,,
1768918290.317392,1768918290.3185,117.0,0.0,4328.333496,4326.666504,4341.410156,4341.025879,4304.871582,4305.512695,4304.871582,4316.794922,4316.282227,4301.282227,4523.205078,4529.230957,4405.0,4456.922852,,,,,,,,,,,,,,,,,,,,,,,,,,,,,,,,,,,,,,,,,,,,,,,,,,,,,,,,,,,,,,,,,,,,,,
1768918290.3252,1768918290.326208,118.0,0.0,4335.0,4328.717773,4348.717773,4343.589844,4307.436035,4310.256348,4306.922852,4307.179688,4308.333496,4294.743652,4516.794922,4521.538574,4399.871582,4457.436035,,,,,,,,,,,,,,,,,,,,,,,,,,,,,,,,,,,,,,,,,,,,,,,,,,,,,,,,,,,,,,,,,,,,,,
1768918290.333008,1768918290.334015,119.0,0.0,4336.922852,4327.820313,4351.025879,4338.205078,4303.846191,4313.589844,4316.794922,4319.871582,4311.410156,4295.769043,4514.615234,4523.589844,4402.05127,4463.846191,,,,,,,,,,,,,,,,,,,,,,,,,,,,,,,,,,,,,,,,,,,,,,,,,,,,,,,,,,,,,,,,,,,,,,
1768918290.340817,1768918290.341623,120.0,0.0,4331.538574,4320.641113,4343.974121,4329.230957,4302.94873,4312.179688,4320.897461,4325.256348,4318.333496,4295.384766,4516.025879,4524.871582,4401.153809,4465.384766,,,,,,,,,,,,,,,,,,,,,,,,,,,,,,,,,,,,,,,,,,,,,,,,,,,,,,,,,,,,,,,,,,,,,,
1768918290.348626,1768918290.349431,121.0,0.0,4327.436035,4320.897461,4339.615234,4329.871582,4309.230957,4310.128418,4313.974121,4315.897461,4319.230957,4296.538574,4518.205078,4524.487305,4396.025879,4461.282227,,,,,,,,,,,,,,,,,,,,,,,,,,,,,,,,,,,,,,,,,,,,,,,,,,,,,,,,,,,,,,,,,,,,,,
1768918290.356434,1768918290.357139,122.0,0.0,4325.641113,4327.05127,4345.256348,4338.077148,4310.0,4306.922852,4306.025879,4315.512695,4319.358887,4303.077148,4516.410156,4524.230957,4396.666504,4456.410156,,,,,,,,,,,,,,,,,,,,,,,,,,,,,,,,,,,,,,,,,,,,,,,,,,,,,,,,,,,,,,,,,,,,,,
1768918290.364242,1768918290.364947,123.0,0.0,4328.589844,4326.666504,4350.512695,4338.461426,4306.922852,4306.153809,4315.769043,4319.615234,4320.512695,4305.512695,4513.333496,4521.153809,4398.589844,4455.256348,,,,,,,,,,,,,,,,,,,,,,,,,,,,,,,,,,,,,,,,,,,,,,,,,,,,,,,,,,,,,,,,,,,,,,
1768918290.372051,1768918290.372954,124.0,0.0,4334.102539,4327.179688,4350.384766,4336.025879,4310.769043,4311.666504,4333.589844,4317.179688,4319.230957,4303.846191,4517.179688,4522.307617,4396.538574,4460.256348,,,,,,,,,,,,,,,,,,,,,,,,,,,,,,,,,,,,,,,,,,,,,,,,,,,,,,,,,,,,,,,,,,,,,,
1768918290.37986,1768918290.380762,125.0,0.0,4332.94873,4325.0,4348.205078,4335.512695,4312.820313,4313.589844,4331.538574,4319.743652,4321.025879,4305.512695,4523.077148,4527.436035,4400.641113,4467.692383,,,,,,,,,,,,,,,,,,,,,,,,,,,,,,,,,,,,,,,,,,,,,,,,,,,,,,,,,,,,,,,,,,,,,,
1768918290.387668,1768918290.38847,126.0,0.0,4326.153809,4313.974121,4345.128418,4330.0,4307.436035,4310.384766,4324.102539,4324.871582,4326.282227,4306.282227,4523.461426,4531.282227,4405.256348,4468.077148,,,,,,,,,,,,,,,,,,,,,,,,,,,,,,,,,,,,,,,,,,,,,,,,,,,,,,,,,,,,,,,,,,,,,,
1768918290.395476,1768918290.396278,127.0,0.0,4322.94873,4310.384766,4346.922852,4328.333496,4308.589844,4313.333496,4331.922852,4325.0,4326.153809,4303.461426,4520.128418,4533.974121,4401.282227,4463.846191,,,,,,,,,,,,,,,,,,,,,,,,,,,,,,,,,,,,,,,,,,,,,,,,,,,,,,,,,,,,,,,,,,,,,,
1768918290.403285,1768918290.403886,0.0,0.0,4327.436035,4321.666504,4354.615234,4338.589844,4318.461426,4320.384766,4338.846191,4325.0,4322.436035,4304.358887,4520.512695,4531.666504,4396.025879,4461.282227,0.372634,0.533015,0.262101,0.192378,0.221092,0.658966,0.563211,0.177754,0.196715,0.101345,0.94408,0.604077,0.171873,0.215977,0.147713,1.188042,0.264534,0.174401,0.118593,0.138368,0.270761,0.126119,0.063941,0.079703,0.144251,0.197132,0.290152,0.123191,0.092067,0.166397,0.451344,0.377798,0.250866,0.251052,0.344685,0.696217,0.403186,0.136351,0.218528,0.124243,0.472441,0.433788,0.256393,0.192129,0.067756,0.831346,0.331418,0.200989,0.138749,0.111428,1.453829,0.529941,0.310215,0.324644,0.177009,1.575127,0.528505,0.458555,0.266756,0.26258,1.218458,0.486831,0.088954,0.283529,0.196146,0.976787,0.402056,0.297812,0.355854,0.223983
1768918290.411094,1768918290.411694,1.0,0.0,4331.922852,4327.563965,4355.384766,4345.512695,4322.05127,4322.94873,4338.333496,4325.0,4324.358887,4309.615234,4523.717773,4529.102539,4398.589844,4461.666504,,,,,,,,,,,,,,,,,,,,,,,,,,,,,,,,,,,,,,,,,,,,,,,,,,,,,,,,,,,,,,,,,,,,,,
1768918290.418902,1768918290.419401,2.0,0.0,4328.846191,4323.589844,4345.769043,4336.538574,4313.461426,4319.230957,4336.922852,4325.0,4327.820313,4311.794922,4526.666504,4533.846191,4406.922852,4468.205078,,,,,,,,,,,,,,,,,,,,,,,,,,,,,,,,,,,,,,,,,,,,,,,,,,,,,,,,,,,,,,,,,,,,,,
1768918290.42671,1768918290.427209,3.0,0.0,4324.102539,4321.794922,4341.794922,4327.563965,4308.077148,4311.153809,4328.974121,4325.769043,4326.153809,4310.384766,4526.538574,4538.974121,4412.05127,4476.538574,,,,,,,,,,,,,,,,,,,,,,,,,,,,,,,,,,,,,,,,,,,,,,,,,,,,,,,,,,,,,,,,,,,,,,
1768918290.434519,1768918290.435217,4.0,0.0,4328.974121,4324.102539,4348.205078,4333.461426,4311.922852,4310.256348,4322.307617,4320.769043,4321.410156,4310.0,4523.077148,4537.692383,4410.769043,4475.897461,,,,,,,,,,,,,,,,,,,,,,,,,,,,,,,,,,,,,,,,,,,,,,,,,,,,,,,,,,,,,,,,,,,,,,
1768918290.442328,1768918290.443025,5.0,0.0,4335.512695,4331.410156,4353.846191,4341.538574,4312.436035,4315.512695,4327.179688,4316.410156,4320.769043,4310.0,4521.666504,4534.615234,4410.0,4471.794922,,,,,,,,,,,,,,,,,,,,,,,,,,,,,,,,,,,,,,,,,,,,,,,,,,,,,,,,,,,,,,,,,,,,,,
1768918290.450136,1768918290.450933,6.0,0.0,4335.897461,4335.256348,4355.256348,4341.794922,4309.743652,4315.128418,4328.589844,4324.615234,4326.538574,4312.436035,4525.769043,4539.102539,4413.846191,4474.871582,,,,,,,,,,,,,,,,,,,,,,,,,,,,,,,,,,,,,,,,,,,,,,,,,,,,,,,,,,,,,,,,,,,,,,
1768918290.457945,1768918290.458741,7.0,0.0,4337.820313,4330.384766,4353.205078,4341.794922,4313.846191,4312.563965,4323.333496,4333.461426,4329.743652,4319.358887,4530.128418,4544.487305,4414.871582,4475.769043,,,,,,,,,,,,,,,,,,,,,,,,,,,,,,,,,,,,,,,,,,,,,,,,,,,,,,,,,,,,,,,,,,,,,,
1768918290.465753,1768918290.466749,8.0,0.0,4338.461426,4326.153809,4351.282227,4343.077148,4320.0,4316.922852,4323.846191,4332.563965,4327.692383,4320.512695,4527.563965,4542.820313,4411.538574,4470.897461,,,,,,,,,,,,,,,,,,,,,,,,,,,,,,,,,,,,,,,,,,,,,,,,,,,,,,,,,,,,,,,,,,,,,,
1768918290.473562,1768918290.474556,9.0,0.0,4336.282227,4326.666504,4352.820313,4340.641113,4317.94873,4322.94873,4328.974121,4335.128418,4327.307617,4315.0,4525.769043,4538.589844,4411.666504,4470.128418,,,,,,,,,,,,,,,,,,,,,,,,,,,,,,,,,,,,,,,,,,,,,,,,,,,,,,,,,,,,,,,,,,,,,,
1768918290.48137,1768918290.482464,10.0,0.0,4332.692383,4325.769043,4351.922852,4339.871582,4313.077148,4321.538574,4329.615234,4336.153809,4327.820313,4311.538574,4527.94873,4538.717773,4413.846191,4469.871582,,,,,,,,,,,,,,,,,,,,,,,,,,,,,,,,,,,,,,,,,,,,,,,,,,,,,,,,,,,,,,,,,,,,,,
1768918290.489179,1768918290.490272,11.0,0.0,4329.102539,4323.846191,4347.436035,4341.538574,4312.692383,4312.563965,4321.922852,4330.641113,4327.05127,4311.282227,4525.512695,4538.589844,4411.410156,4463.717773,,,,,,,,,,,,,,,,,,,,,,,,,,,,,,,,,,,,,,,,,,,,,,,,,,,,,,,,,,,,,,,,,,,,,,
1768918290.496987,1768918290.49788,12.0,0.0,4330.128418,4325.0,4350.897461,4341.410156,4308.846191,4310.641113,4319.615234,4333.717773,4327.05127,4310.256348,4522.436035,4538.077148,4406.025879,4458.974121,,,,,,,,,,,,,,,,,,,,,,,,,,,,,,,,,,,,,,,,,,,,,,,,,,,,,,,,,,,,,,,,,,,,,,
1768918290.504796,1768918290.505688,13.0,0.0,4332.436035,4322.820313,4357.179688,4341.922852,4307.820313,4320.384766,4326.153809,4334.743652,4326.794922,4310.384766,4523.846191,4539.871582,4401.153809,4460.384766,,,,,,,,,,,,,,,,,,,,,,,,,,,,,,,,,,,,,,,,,,,,,,,,,,,,,,,,,,,,,,,,,,,,,,
1768918290.512604,1768918290.513395,14.0,0.0,4327.436035,4317.820313,4353.077148,4343.589844,4316.025879,4325.641113,4327.692383,4330.769043,4327.05127,4311.538574,4523.974121,4539.743652,4400.641113,4460.256348,,,,,,,,,,,,,,,,,,,,,,,,,,,,,,,,,,,,,,,,,,,,,,,,,,,,,,,,,,,,,,,,,,,,,,
1768918290.520413,1768918290.521203,15.0,0.0,4324.871582,4319.615234,4348.974121,4344.102539,4318.846191,4324.358887,4327.563965,4335.384766,4327.692383,4312.563965,4524.487305,4538.974121,4408.461426,4459.871582,,,,,,,,,,,,,,,,,,,,,,,,,,,,,,,,,,,,,,,,,,,,,,,,,,,,,,,,,,,,,,,,,,,,,,
1768918290.528221,1768918290.528811,16.0,0.0,4330.769043,4323.461426,4354.743652,4343.205078,4312.179688,4319.871582,4321.794922,4336.153809,4327.05127,4313.333496,4526.538574,4538.589844,4411.538574,4460.769043,0.317777,0.465261,0.208669,0.177794,0.216966,0.661633,0.562975,0.142939,0.175611,0.101941,0.851918,0.632212,0.145841,0.248912,0.147958,0.819096,0.254579,0.153651,0.141773,0.15175,0.245239,0.126437,0.045962,0.091622,0.146365,0.197479,0.267187,0.103657,0.102005,0.174182,0.47893,0.362133,0.230571,0.308341,0.362099,0.55628,0.389277,0.138012,0.233052,0.123579,0.371473,0.373933,0.24395,0.201849,0.066389,0.706297,0.302274,0.199448,0.137917,0.111442,1.107358,0.533241,0.307575,0.303154,0.177626,1.439648,0.624681,0.379932,0.289963,0.264287,0.886665,0.442341,0.095194,0.275941,0.197051,0.735845,0.421733,0.265058,0.361091,0.236876
1768918290.53603,1768918290.536619,17.0,0.0,4328.717773,4320.897461,4357.05127,4341.282227,4310.128418,4314.871582,4313.717773,4329.487305,4326.282227,4313.077148,4524.615234,4538.077148,4404.615234,4457.820313,,,,,,,,,,,,,,,,,,,,,,,,,,,,,,,,,,,,,,,,,,,,,,,,,,,,,,,,,,,,,,,,,,,,,,
1768918290.543838,1768918290.544327,18.0,0.0,4324.743652,4319.358887,4354.487305,4339.871582,4311.666504,4317.820313,4318.974121,4330.769043,4327.307617,4311.922852,4523.205078,4539.358887,4404.871582,4457.94873,,,,,,,,,,,,,,,,,,,,,,,,,,,,,,,,,,,,,,,,,,,,,,,,,,,,,,,,,,,,,,,,,,,,,,
1768918290.551647,1768918290.552134,19.0,0.0,4330.128418,4322.179688,4354.487305,4342.05127,4311.410156,4322.563965,4322.94873,4333.077148,4327.179688,4311.794922,4524.230957,4540.512695,4409.615234,4461.282227,,,,,,,,,,,,,,,,,,,,,,,,,,,,,,,,,,,,,,,,,,,,,,,,,,,,,,,,,,,,,,,,,,,,,,
1768918290.559455,1768918290.559742,20.0,0.0,4331.410156,4323.846191,4353.205078,4347.179688,4312.179688,4321.282227,4312.820313,4330.128418,4326.922852,4314.102539,4523.974121,4539.871582,4406.794922,4462.307617,,,,,,,,,,,,,,,,,,,,,,,,,,,,,,,,,,,,,,,,,,,,,,,,,,,,,,,,,,,,,,,,,,,,,,
1768918290.567264,1768918290.56755,21.0,0.0,4329.102539,4325.384766,4349.358887,4349.487305,4310.384766,4314.871582,4307.05127,4328.846191,4322.05127,4314.358887,4522.692383,4538.077148,4403.077148,4462.563965,,,,,,,,,,,,,,,,,,,,,,,,,,,,,,,,,,,,,,,,,,,,,,,,,,,,,,,,,,,,,,,,,,,,,,
1768918290.575072,1768918290.575458,22.0,0.0,4334.743652,4326.666504,4348.974121,4350.512695,4311.282227,4314.487305,4315.897461,4325.128418,4316.538574,4311.666504,4523.077148,4537.692383,4403.077148,4462.05127,,,,,,,,,,,,,,,,,,,,,,,,,,,,,,,,,,,,,,,,,,,,,,,,,,,,,,,,,,,,,,,,,,,,,,
1768918290.582881,1768918290.583266,23.0,0.0,4336.153809,4324.871582,4346.410156,4350.256348,4319.487305,4319.230957,4316.153809,4325.256348,4320.256348,4311.410156,4523.205078,4534.102539,4404.743652,4461.025879,,,,,,,,,,,,,,,,,,,,,,,,,,,,,,,,,,,,,,,,,,,,,,,,,,,,,,,,,,,,,,,,,,,,,,
1768918290.590689,1768918290.590874,24.0,0.0,4326.410156,4323.333496,4341.153809,4343.846191,4321.282227,4314.230957,4300.897461,4328.333496,4320.0,4312.179688,4521.410156,4525.897461,4403.205078,4459.358887,,,,,,,,,,,,,,,,,,,,,,,,,,,,,,,,,,,,,,,,,,,,,,,,,,,,,,,,,,,,,,,,,,,,,,
1768918290.598498,1768918290.598681,25.0,0.0,4324.615234,4324.358887,4344.871582,4340.897461,4318.717773,4307.692383,4298.205078,4325.641113,4313.717773,4310.384766,4520.641113,4525.769043,4397.563965,4458.589844,,,,,,,,,,,,,,,,,,,,,,,,,,,,,,,,,,,,,,,,,,,,,,,,,,,,,,,,,,,,,,,,,,,,,,
1768918290.606306,1768918290.606389,26.0,0.0,4329.743652,4325.512695,4352.436035,4349.102539,4323.333496,4318.717773,4319.487305,4327.05127,4318.205078,4310.769043,4523.974121,4537.94873,4401.538574,4461.153809,,,,,,,,,,,,,,,,,,,,,,,,,,,,,,,,,,,,,,,,,,,,,,,,,,,,,,,,,,,,,,,,,,,,,,
1768918290.614115,1768918290.614197,27.0,0.0,4328.333496,4323.077148,4349.487305,4351.410156,4322.94873,4324.743652,4328.077148,4330.512695,4326.794922,4313.974121,4527.563965,4542.94873,4413.205078,4464.102539,,,,,,,,,,,,,,,,,,,,,,,,,,,,,,,,,,,,,,,,,,,,,,,,,,,,,,,,,,,,,,,,,,,,,,
1768918290.621923,1768918290.621805,28.0,0.0,4322.94873,4316.794922,4337.179688,4341.666504,4309.487305,4307.436035,4301.794922,4328.846191,4324.102539,4312.05127,4524.102539,4527.820313,4407.307617,4458.589844,,,,,,,,,,,,,,,,,,,,,,,,,,,,,,,,,,,,,,,,,,,,,,,,,,,,,,,,,,,,,,,,,,,,,,
1768918290.629732,1768918290.629613,29.0,0.0,4325.897461,4319.230957,4337.307617,4343.077148,4305.769043,4301.282227,4287.179688,4324.743652,4318.461426,4309.743652,4519.358887,4523.974121,4398.205078,4458.077148,,,,,,,,,,,,,,,,,,,,,,,,,,,,,,,,,,,,,,,,,,,,,,,,,,,,,,,,,,,,,,,,,,,,,,
1768918290.63754,1768918290.637521,30.0,0.0,4337.94873,4329.230957,4354.487305,4357.94873,4319.230957,4313.461426,4304.102539,4325.0,4320.897461,4313.974121,4522.820313,4539.487305,4409.743652,4469.102539,,,,,,,,,,,,,,,,,,,,,,,,,,,,,,,,,,,,,,,,,,,,,,,,,,,,,,,,,,,,,,,,,,,,,,
1768918290.645349,1768918290.645329,31.0,0.0,4335.128418,4329.102539,4356.282227,4358.717773,4325.256348,4315.0,4312.436035,4327.820313,4323.846191,4314.487305,4525.897461,4539.230957,4414.230957,4467.436035,,,,,,,,,,,,,,,,,,,,,,,,,,,,,,,,,,,,,,,,,,,,,,,,,,,,,,,,,,,,,,,,,,,,,,
1768918290.653157,1768918290.653336,32.0,0.0,4322.179688,4324.615234,4342.436035,4349.102539,4320.0,4308.974121,4304.743652,4326.538574,4322.563965,4310.384766,4522.820313,4527.436035,4404.102539,4456.794922,0.352608,0.411951,0.175745,0.170041,0.206272,0.767111,0.567826,0.117189,0.167116,0.10197,0.945174,0.641195,0.141343,0.295535,0.145081,0.643905,0.276822,0.153885,0.175023,0.154917,0.227329,0.126752,0.040453,0.121968,0.142843,0.199297,0.236964,0.081277,0.116755,0.180218,0.526506,0.350684,0.202705,0.382466,0.381616,0.445331,0.363793,0.140535,0.241777,0.124999,0.274916,0.325587,0.237571,0.20569,0.066413,0.589218,0.293457,0.213708,0.140363,0.108103,0.8821,0.530337,0.323109,0.277506,0.173028,1.430045,0.730848,0.337064,0.308044,0.263359,0.670792,0.421383,0.11979,0.263022,0.191123,0.64707,0.433461,0.236752,0.36577,0.236778
1768918290.660966,1768918290.661144,33.0,0.0,4331.922852,4328.205078,4346.025879,4352.692383,4323.333496,4314.743652,4304.615234,4324.487305,4322.05127,4315.641113,4523.846191,4534.102539,4406.538574,4459.230957,,,,,,,,,,,,,,,,,,,,,,,,,,,,,,,,,,,,,,,,,,,,,,,,,,,,,,,,,,,,,,,,,,,,,,
1768918290.668774,1768918290.669052,34.0,0.0,4347.179688,4328.974121,4354.743652,4358.205078,4328.589844,4320.897461,4313.717773,4325.384766,4324.871582,4320.384766,4528.717773,4545.769043,4415.256348,4466.282227,,,,,,,,,,,,,,,,,,,,,,,,,,,,,,,,,,,,,,,,,,,,,,,,,,,,,,,,,,,,,,,,,,,,,,
1768918290.676583,1768918290.67686,35.0,0.0,4332.94873,4321.666504,4344.102539,4352.05127,4316.153809,4314.358887,4314.487305,4326.410156,4325.769043,4313.205078,4526.794922,4538.589844,4413.589844,4463.077148,,,,,,,,,,,,,,,,,,,,,,,,,,,,,,,,,,,,,,,,,,,,,,,,,,,,,,,,,,,,,,,,,,,,,,
1768918290.684391,1768918290.684867,36.0,0.0,4321.922852,4322.436035,4340.512695,4352.179688,4306.922852,4312.179688,4311.410156,4326.538574,4323.077148,4312.307617,4523.077148,4531.794922,4412.563965,4460.769043,,,,,,,,,,,,,,,,,,,,,,,,,,,,,,,,,,,,,,,,,,,,,,,,,,,,,,,,,,,,,,,,,,,,,,
1768918290.6922,1768918290.692675,37.0,0.0,4333.974121,4329.358887,4351.410156,4358.589844,4318.205078,4320.897461,4315.0,4326.922852,4321.538574,4318.846191,4524.871582,4536.794922,4416.410156,4462.94873,,,,,,,,,,,,,,,,,,,,,,,,,,,,,,,,,,,,,,,,,,,,,,,,,,,,,,,,,,,,,,,,,,,,,,
1768918290.700008,1768918290.700583,38.0,0.0,4335.0,4326.538574,4348.846191,4353.589844,4323.333496,4313.077148,4306.922852,4324.743652,4322.307617,4314.871582,4525.128418,4538.205078,4413.205078,4460.512695,,,,,,,,,,,,,,,,,,,,,,,,,,,,,,,,,,,,,,,,,,,,,,,,,,,,,,,,,,,,,,,,,,,,,,
1768918290.707817,1768918290.70839,39.0,0.0,4324.487305,4320.641113,4340.512695,4346.922852,4312.94873,4296.410156,4287.820313,4326.794922,4325.641113,4308.461426,4522.307617,4534.230957,4409.358887,4458.846191,,,,,,,,,,,,,,,,,,,,,,,,,,,,,,,,,,,,,,,,,,,,,,,,,,,,,,,,,,,,,,,,,,,,,,
1768918290.715625,1768918290.715998,40.0,0.0,4324.230957,4320.512695,4340.769043,4347.692383,4308.589844,4297.692383,4283.205078,4325.0,4319.615234,4311.025879,4520.512695,4530.641113,4409.743652,4457.692383,,,,,,,,,,,,,,,,,,,,,,,,,,,,,,,,,,,,,,,,,,,,,,,,,,,,,,,,,,,,,,,,,,,,,,
1768918290.723434,1768918290.723806,41.0,0.0,4328.077148,4322.307617,4342.307617,4348.461426,4315.0,4307.820313,4296.922852,4312.436035,4308.461426,4312.692383,4519.615234,4532.563965,4408.974121,4458.205078,,,,,,,,,,,,,,,,,,,,,,,,,,,,,,,,,,,,,,,,,,,,,,,,,,,,,,,,,,,,,,,,,,,,,,
1768918290.731242,1768918290.731514,42.0,0.0,4326.666504,4324.230957,4343.077148,4350.0,4316.794922,4317.307617,4315.512695,4319.487305,4315.0,4311.538574,4521.153809,4540.897461,4411.153809,4461.282227,,,,,,,,,,,,,,,,,,,,,,,,,,,,,,,,,,,,,,,,,,,,,,,,,,,,,,,,,,,,,,,,,,,,,,
1768918290.739051,1768918290.739322,43.0,0.0,4326.153809,4323.717773,4343.717773,4350.641113,4311.794922,4317.436035,4316.025879,4333.333496,4321.922852,4311.410156,4523.205078,4541.025879,4411.538574,4460.384766,,,,,,,,,,,,,,,,,,,,,,,,,,,,,,,,,,,,,,,,,,,,,,,,,,,,,,,,,,,,,,,,,,,,,,
1768918290.746859,1768918290.746929,44.0,0.0,4326.410156,4319.487305,4341.666504,4346.153809,4310.256348,4311.282227,4298.846191,4321.282227,4311.794922,4309.615234,4521.025879,4528.205078,4405.641113,4455.256348,,,,,,,,,,,,,,,,,,,,,,,,,,,,,,,,,,,,,,,,,,,,,,,,,,,,,,,,,,,,,,,,,,,,,,
1768918290.754668,1768918290.754737,45.0,0.0,4326.794922,4321.538574,4340.769043,4341.538574,4312.563965,4312.307617,4292.436035,4312.05127,4306.025879,4308.974121,4518.461426,4526.794922,4404.487305,4455.897461,,,,,,,,,,,,,,,,,,,,,,,,,,,,,,,,,,,,,,,,,,,,,,,,,,,,,,,,,,,,,,,,,,,,,,
1768918290.762476,1768918290.762445,46.0,0.0,4327.436035,4328.461426,4341.025879,4342.563965,4311.922852,4314.487305,4302.94873,4322.436035,4311.666504,4310.512695,4520.769043,4536.410156,4410.512695,4460.384766,,,,,,,,,,,,,,,,,,,,,,,,,,,,,,,,,,,,,,,,,,,,,,,,,,,,,,,,,,,,,,,,,,,,,,
1768918290.770285,1768918290.770253,47.0,0.0,4326.538574,4326.666504,4340.384766,4346.282227,4308.205078,4314.743652,4309.487305,4328.974121,4316.794922,4311.282227,4523.974121,4537.94873,4412.436035,4460.0,,,,,,,,,,,,,,,,,,,,,,,,,,,,,,,,,,,,,,,,,,,,,,,,,,,,,,,,,,,,,,,,,,,,,,
1768918290.778093,1768918290.778261,48.0,0.0,4331.025879,4326.922852,4344.743652,4351.666504,4309.487305,4318.717773,4309.871582,4326.794922,4320.641113,4313.717773,4523.589844,4535.384766,4411.666504,4460.128418,0.467692,0.383434,0.170708,0.172688,0.192928,0.965574,0.583724,0.107007,0.174884,0.103706,1.178931,0.63073,0.161041,0.346439,0.14017,0.644785,0.327359,0.176799,0.214628,0.147924,0.238556,0.123998,0.043398,0.166685,0.135013,0.196309,0.194183,0.061363,0.13169,0.182217,0.599995,0.336704,0.168897,0.455241,0.399528,0.375904,0.330321,0.143628,0.244667,0.130847,0.202839,0.299557,0.240818,0.204825,0.067581,0.505759,0.310811,0.23141,0.145021,0.101704,0.800379,0.526247,0.348926,0.252107,0.166189,1.537238,0.813861,0.326782,0.321458,0.26095,0.594326,0.440268,0.152957,0.24206,0.179354,0.729591,0.436767,0.216729,0.367042,0.223419
1768918290.785902,1768918290.786068,49.0,0.0,4338.974121,4333.461426,4356.922852,4357.692383,4311.922852,4318.205078,4313.205078,4329.102539,4322.05127,4318.461426,4524.743652,4540.0,4414.230957,4464.230957,,,,,,,,,,,,,,,,,,,,,,,,,,,,,,,,,,,,,,,,,,,,,,,,,,,,,,,,,,,,,,,,,,,,,,
1768918290.79371,1768918290.793976,50.0,0.0,4339.743652,4331.794922,4359.230957,4358.974121,4310.0,4308.205078,4307.05127,4330.897461,4321.153809,4321.153809,4531.666504,4545.0,4415.0,4465.0,,,,,,,,,,,,,,,,,,,,,,,,,,,,,,,,,,,,,,,,,,,,,,,,,,,,,,,,,,,,,,,,,,,,,,
1768918290.801519,1768918290.801784,51.0,0.0,4335.128418,4326.282227,4347.692383,4356.153809,4309.871582,4307.05127,4296.922852,4328.846191,4324.871582,4323.077148,4538.589844,4545.128418,4415.897461,4460.769043,,,,,,,,,,,,,,,,,,,,,,,,,,,,,,,,,,,,,,,,,,,,,,,,,,,,,,,,,,,,,,,,,,,,,,
1768918290.809327,1768918290.809392,52.0,0.0,4335.128418,4324.615234,4343.333496,4355.384766,4312.179688,4311.410156,4294.615234,4326.666504,4323.846191,4328.333496,4538.846191,4542.05127,4418.205078,4459.102539,,,,,,,,,,,,,,,,,,,,,,,,,,,,,,,,,,,,,,,,,,,,,,,,,,,,,,,,,,,,,,,,,,,,,,
1768918290.817136,1768918290.8172,53.0,0.0,4340.256348,4328.461426,4351.025879,4357.179688,4311.410156,4308.974121,4294.743652,4325.769043,4318.846191,4327.563965,4532.692383,4537.692383,4416.410156,4463.461426,,,,,,,,,,,,,,,,,,,,,,,,,,,,,,,,,,,,,,,,,,,,,,,,,,,,,,,,,,,,,,,,,,,,,,
1768918290.824944,1768918290.824908,54.0,0.0,4345.128418,4335.384766,4357.94873,4362.94873,4309.871582,4308.589844,4299.871582,4329.358887,4321.666504,4319.358887,4527.179688,4539.743652,4413.717773,4467.179688,,,,,,,,,,,,,,,,,,,,,,,,,,,,,,,,,,,,,,,,,,,,,,,,,,,,,,,,,,,,,,,,,,,,,,
1768918290.832753,1768918290.832716,55.0,0.0,4343.589844,4335.0,4357.436035,4366.153809,4313.589844,4311.282227,4305.384766,4329.487305,4320.641113,4318.333496,4526.794922,4541.153809,4413.846191,4463.717773,,,,,,,,,,,,,,,,,,,,,,,,,,,,,,,,,,,,,,,,,,,,,,,,,,,,,,,,,,,,,,,,,,,,,,
1768918290.840562,1768918290.840723,56.0,0.0,4336.538574,4325.384766,4350.512695,4360.641113,4314.358887,4313.974121,4305.512695,4320.512695,4311.666504,4322.05127,4525.641113,4530.641113,4412.94873,4457.179688,,,,,,,,,,,,,,,,,,,,,,,,,,,,,,,,,,,,,,,,,,,,,,,,,,,,,,,,,,,,,,,,,,,,,,
1768918290.84837,1768918290.848531,57.0,0.0,4334.358887,4322.307617,4343.974121,4355.256348,4308.589844,4310.897461,4301.922852,4316.794922,4308.205078,4317.307617,4524.358887,4526.282227,4412.436035,4459.230957,,,,,,,,,,,,,,,,,,,,,,,,,,,,,,,,,,,,,,,,,,,,,,,,,,,,,,,,,,,,,,,,,,,,,,
1768918290.856178,1768918290.856439,58.0,0.0,4336.538574,4327.307617,4343.205078,4357.94873,4311.538574,4311.153809,4303.974121,4324.230957,4313.205078,4308.974121,4525.128418,4532.563965,4412.94873,4459.743652,,,,,,,,,,,,,,,,,,,,,,,,,,,,,,,,,,,,,,,,,,,,,,,,,,,,,,,,,,,,,,,,,,,,,,
1768918290.863987,1768918290.864247,59.0,0.0,4334.615234,4322.820313,4343.461426,4357.179688,4317.563965,4324.743652,4312.436035,4329.743652,4316.794922,4306.922852,4520.641113,4530.384766,4407.820313,4447.05127,,,,,,,,,,,,,,,,,,,,,,,,,,,,,,,,,,,,,,,,,,,,,,,,,,,,,,,,,,,,,,,,,,,,,,
1768918290.871796,1768918290.872255,60.0,0.0,4330.256348,4315.512695,4343.333496,4352.820313,4310.512695,4326.922852,4314.615234,4329.487305,4320.897461,4310.128418,4517.692383,4526.538574,4402.563965,4446.410156,,,,,,,,,,,,,,,,,,,,,,,,,,,,,,,,,,,,,,,,,,,,,,,,,,,,,,,,,,,,,,,,,,,,,,
1768918290.879604,1768918290.880062,61.0,0.0,4335.256348,4324.871582,4350.897461,4358.461426,4306.538574,4314.871582,4309.230957,4331.922852,4327.563965,4322.05127,4532.436035,4547.05127,4417.05127,4467.692383,,,,,,,,,,,,,,,,,,,,,,,,,,,,,,,,,,,,,,,,,,,,,,,,,,,,,,,,,,,,,,,,,,,,,,
1768918290.887412,1768918290.88797,62.0,0.0,4345.769043,4336.410156,4358.461426,4366.538574,4315.641113,4314.871582,4306.538574,4333.205078,4328.333496,4329.743652,4545.769043,4561.922852,4431.282227,4481.538574,,,,,,,,,,,,,,,,,,,,,,,,,,,,,,,,,,,,,,,,,,,,,,,,,,,,,,,,,,,,,,,,,,,,,,
1768918290.895221,1768918290.895778,63.0,0.0,4351.538574,4333.333496,4357.94873,4366.538574,4317.179688,4322.563965,4308.333496,4327.307617,4322.179688,4320.384766,4535.0,4544.615234,4420.128418,4474.743652,,,,,,,,,,,,,,,,,,,,,,,,,,,,,,,,,,,,,,,,,,,,,,,,,,,,,,,,,,,,,,,,,,,,,,
1768918290.90303,1768918290.903386,64.0,0.0,4350.897461,4330.128418,4356.666504,4365.256348,4309.743652,4318.333496,4304.230957,4326.282227,4320.512695,4318.205078,4528.333496,4534.102539,4411.922852,4465.384766,0.613655,0.385225,0.188991,0.182953,0.182568,1.186925,0.61306,0.113408,0.195638,0.108874,1.41995,0.604818,0.199055,0.386683,0.136965,0.726874,0.393394,0.213323,0.2541,0.135536,0.284718,0.118297,0.052343,0.21645,0.125751,0.185218,0.148374,0.050034,0.143027,0.180214,0.69313,0.323086,0.140783,0.50596,0.412968,0.339237,0.298186,0.147314,0.241267,0.140811,0.161939,0.303644,0.250581,0.200955,0.070461,0.464997,0.352972,0.24389,0.151297,0.093912,0.810088,0.526971,0.373811,0.228988,0.159687,1.663036,0.851353,0.337118,0.329072,0.258647,0.629981,0.49738,0.185782,0.216344,0.16558,0.926937,0.434436,0.20415,0.362081,0.200654
1768918290.910838,1768918290.911193,65.0,0.0,4344.487305,4334.871582,4357.820313,4363.717773,4310.384766,4317.563965,4308.333496,4332.94873,4326.153809,4326.794922,4538.717773,4543.846191,4419.487305,4465.769043,,,,,,,,,,,,,,,,,,,,,,,,,,,,,,,,,,,,,,,,,,,,,,,,,,,,,,,,,,,,,,,,,,,,,,
1768918290.918646,1768918290.918901,66.0,0.0,4339.615234,4336.025879,4356.666504,4360.384766,4315.641113,4325.384766,4324.487305,4333.461426,4327.94873,4322.820313,4539.487305,4543.077148,4419.871582,4472.179688,,,,,,,,,,,,,,,,,,,,,,,,,,,,,,,,,,,,,,,,,,,,,,,,,,,,,,,,,,,,,,,,,,,,,,
1768918290.926455,1768918290.926709,67.0,0.0,4341.538574,4333.333496,4351.794922,4358.205078,4313.333496,4319.487305,4320.128418,4327.307617,4322.820313,4315.256348,4528.205078,4536.922852,4417.179688,4477.05127,,,,,,,,,,,,,,,,,,,,,,,,,,,,,,,,,,,,,,,,,,,,,,,,,,,,,,,,,,,,,,,,,,,,,,
1768918290.934264,1768918290.934317,68.0,0.0,4342.307617,4330.0,4352.692383,4358.717773,4309.743652,4312.179688,4307.820313,4326.666504,4321.410156,4319.230957,4522.436035,4543.333496,4408.717773,4466.794922,,,,,,,,,,,,,,,,,,,,,,,,,,,,,,,,,,,,,,,,,,,,,,,,,,,,,,,,,,,,,,,,,,,,,,
1768918290.942072,1768918290.942125,69.0,0.0,4339.358887,4325.769043,4359.871582,4361.538574,4314.871582,4320.897461,4323.333496,4336.153809,4324.743652,4320.641113,4526.153809,4549.230957,4396.410156,4455.256348,,,,,,,,,,,,,,,,,,,,,,,,,,,,,,,,,,,,,,,,,,,,,,,,,,,,,,,,,,,,,,,,,,,,,,
1768918290.94988,1768918290.949832,70.0,0.0,4341.794922,4326.666504,4356.538574,4361.666504,4318.333496,4326.153809,4335.256348,4338.205078,4324.871582,4317.94873,4535.769043,4544.102539,4410.256348,4471.025879,,,,,,,,,,,,,,,,,,,,,,,,,,,,,,,,,,,,,,,,,,,,,,,,,,,,,,,,,,,,,,,,,,,,,,
1768918290.957689,1768918290.95764,71.0,0.0,4344.871582,4328.205078,4346.794922,4357.436035,4311.410156,4315.384766,4314.871582,4326.025879,4318.974121,4323.205078,4540.384766,4537.563965,4436.153809,4491.538574,,,,,,,,,,,,,,,,,,,,,,,,,,,,,,,,,,,,,,,,,,,,,,,,,,,,,,,,,,,,,,,,,,,,,,
1768918290.965498,1768918290.965648,72.0,0.0,4341.282227,4325.256348,4348.077148,4356.666504,4307.820313,4310.256348,4307.563965,4319.615234,4318.717773,4327.563965,4536.025879,4540.256348,4434.487305,4485.256348,,,,,,,,,,,,,,,,,,,,,,,,,,,,,,,,,,,,,,,,,,,,,,,,,,,,,,,,,,,,,,,,,,,,,,
1768918290.973306,1768918290.973456,73.0,0.0,4341.153809,4324.743652,4352.692383,4357.179688,4311.794922,4313.461426,4319.615234,4324.871582,4322.179688,4320.769043,4536.922852,4548.461426,4423.717773,4472.563965,,,,,,,,,,,,,,,,,,,,,,,,,,,,,,,,,,,,,,,,,,,,,,,,,,,,,,,,,,,,,,,,,,,,,,
1768918290.981115,1768918290.981364,74.0,0.0,4344.487305,4324.487305,4349.743652,4351.153809,4314.487305,4310.256348,4314.615234,4324.358887,4316.410156,4311.153809,4537.94873,4546.794922,4421.794922,4476.666504,,,,,,,,,,,,,,,,,,,,,,,,,,,,,,,,,,,,,,,,,,,,,,,,,,,,,,,,,,,,,,,,,,,,,,
1768918290.988923,1768918290.989172,75.0,0.0,4344.102539,4323.846191,4350.897461,4347.179688,4316.410156,4312.692383,4307.563965,4316.666504,4310.384766,4313.846191,4529.230957,4537.307617,4417.436035,4480.128418,,,,,,,,,,,,,,,,,,,,,,,,,,,,,,,,,,,,,,,,,,,,,,,,,,,,,,,,,,,,,,,,,,,,,,
1768918290.996732,1768918290.99718,76.0,0.0,4341.410156,4324.871582,4351.153809,4351.153809,4315.0,4318.974121,4312.692383,4320.384766,4317.692383,4319.230957,4523.333496,4535.256348,4414.358887,4475.512695,,,,,,,,,,,,,,,,,,,,,,,,,,,,,,,,,,,,,,,,,,,,,,,,,,,,,,,,,,,,,,,,,,,,,,
1768918291.00454,1768918291.004988,77.0,0.0,4340.641113,4323.333496,4342.820313,4350.0,4308.333496,4315.128418,4314.487305,4329.487305,4324.102539,4313.974121,4527.563965,4540.128418,4414.358887,4474.358887,,,,,,,,,,,,,,,,,,,,,,,,,,,,,,,,,,,,,,,,,,,,,,,,,,,,,,,,,,,,,,,,,,,,,,
1768918291.012349,1768918291.012695,78.0,0.0,4341.410156,4321.153809,4342.820313,4348.333496,4308.461426,4308.333496,4306.794922,4326.538574,4315.512695,4309.615234,4530.769043,4541.922852,4413.205078,4473.846191,,,,,,,,,,,,,,,,,,,,,,,,,,,,,,,,,,,,,,,,,,,,,,,,,,,,,,,,,,,,,,,,,,,,,,
1768918291.020157,1768918291.020503,79.0,0.0,4341.666504,4323.589844,4351.666504,4354.358887,4315.384766,4315.128418,4311.153809,4323.846191,4310.384766,4312.307617,4528.205078,4541.922852,4414.743652,4475.769043,,,,,,,,,,,,,,,,,,,,,,,,,,,,,,,,,,,,,,,,,,,,,,,,,,,,,,,,,,,,,,,,,,,,,,
1768918291.027966,1768918291.028511,80.0,0.0,4342.307617,4322.820313,4352.692383,4357.436035,4314.487305,4324.487305,4323.333496,4327.05127,4315.0,4312.179688,4524.871582,4539.871582,4414.102539,4476.282227,0.729487,0.40481,0.211869,0.193769,0.18018,1.343546,0.643324,0.129469,0.218701,0.117039,1.542852,0.561222,0.239173,0.403109,0.139129,0.790558,0.451749,0.243784,0.285945,0.124001,0.356085,0.112272,0.068589,0.259823,0.119193,0.168443,0.120525,0.052083,0.151736,0.17723,0.793748,0.323071,0.131402,0.530442,0.42325,0.318119,0.27338,0.151359,0.230545,0.152363,0.151176,0.334645,0.25894,0.193733,0.07545,0.455145,0.406496,0.243241,0.155835,0.086348,0.829698,0.526153,0.382556,0.207212,0.153267,1.690803,0.828734,0.345883,0.326713,0.256998,0.713684,0.563491,0.206379,0.189348,0.153337,1.141839,0.424429,0.189604,0.346959,0.173711
1768918291.035774,1768918291.036319,81.0,0.0,4340.512695,4318.846191,4348.461426,4355.384766,4308.846191,4321.282227,4319.230957,4326.922852,4315.384766,4308.205078,4523.461426,4534.743652,4410.0,4472.692383,,,,,,,,,,,,,,,,,,,,,,,,,,,,,,,,,,,,,,,,,,,,,,,,,,,,,,,,,,,,,,,,,,,,,,
1768918291.043583,1768918291.044227,82.0,0.0,4338.974121,4321.282227,4348.717773,4357.820313,4315.897461,4318.717773,4311.922852,4322.563965,4314.102539,4309.743652,4524.615234,4535.897461,4411.025879,4475.512695,,,,,,,,,,,,,,,,,,,,,,,,,,,,,,,,,,,,,,,,,,,,,,,,,,,,,,,,,,,,,,,,,,,,,,
1768918291.051391,1768918291.052035,83.0,0.0,4338.333496,4320.641113,4351.153809,4359.102539,4322.307617,4323.205078,4318.717773,4325.897461,4319.102539,4310.384766,4526.538574,4540.384766,4415.512695,4477.563965,,,,,,,,,,,,,,,,,,,,,,,,,,,,,,,,,,,,,,,,,,,,,,,,,,,,,,,,,,,,,,,,,,,,,,
1768918291.0592,1768918291.060042,84.0,0.0,4333.461426,4312.05127,4349.871582,4351.282227,4315.0,4322.436035,4320.897461,4331.282227,4321.666504,4303.717773,4522.05127,4534.487305,4408.077148,4462.692383,,,,,,,,,,,,,,,,,,,,,,,,,,,,,,,,,,,,,,,,,,,,,,,,,,,,,,,,,,,,,,,,,,,,,,
1768918291.067008,1768918291.06785,85.0,0.0,4328.205078,4310.769043,4344.743652,4344.871582,4311.922852,4316.025879,4308.205078,4321.794922,4313.589844,4298.974121,4510.256348,4521.794922,4394.230957,4448.333496,,,,,,,,,,,,,,,,,,,,,,,,,,,,,,,,,,,,,,,,,,,,,,,,,,,,,,,,,,,,,,,,,,,,,,
1768918291.074817,1768918291.075658,86.0,0.0,4325.641113,4312.94873,4340.512695,4345.128418,4316.410156,4320.384766,4310.641113,4315.897461,4308.846191,4301.153809,4506.538574,4519.230957,4396.794922,4456.794922,,,,,,,,,,,,,,,,,,,,,,,,,,,,,,,,,,,,,,,,,,,,,,,,,,,,,,,,,,,,,,,,,,,,,,
1768918291.082625,1768918291.083465,87.0,0.0,4321.794922,4312.05127,4340.384766,4343.846191,4318.717773,4328.461426,4326.153809,4326.153809,4311.666504,4300.384766,4512.179688,4523.974121,4405.641113,4460.512695,,,,,,,,,,,,,,,,,,,,,,,,,,,,,,,,,,,,,,,,,,,,,,,,,,,,,,,,,,,,,,,,,,,,,,
1768918291.090434,1768918291.091073,88.0,0.0,4322.179688,4317.820313,4342.05127,4345.384766,4315.512695,4326.922852,4322.563965,4326.922852,4312.692383,4294.358887,4509.230957,4522.820313,4399.487305,4448.077148,,,,,,,,,,,,,,,,,,,,,,,,,,,,,,,,,,,,,,,,,,,,,,,,,,,,,,,,,,,,,,,,,,,,,,
1768918291.098242,1768918291.098881,89.0,0.0,4329.743652,4324.102539,4342.563965,4350.512695,4312.563965,4322.692383,4309.615234,4316.282227,4310.0,4296.794922,4505.128418,4517.179688,4395.256348,4450.384766,,,,,,,,,,,,,,,,,,,,,,,,,,,,,,,,,,,,,,,,,,,,,,,,,,,,,,,,,,,,,,,,,,,,,,
1768918291.106051,1768918291.106589,90.0,0.0,4330.641113,4321.153809,4342.05127,4349.871582,4317.436035,4323.077148,4313.974121,4319.230957,4310.769043,4303.333496,4513.589844,4518.077148,4405.384766,4463.077148,,,,,,,,,,,,,,,,,,,,,,,,,,,,,,,,,,,,,,,,,,,,,,,,,,,,,,,,,,,,,,,,,,,,,,
1768918291.113859,1768918291.114397,91.0,0.0,4325.384766,4320.769043,4342.94873,4344.871582,4324.615234,4326.153809,4323.717773,4328.205078,4317.05127,4304.487305,4522.436035,4528.077148,4410.897461,4461.794922,,,,,,,,,,,,,,,,,,,,,,,,,,,,,,,,,,,,,,,,,,,,,,,,,,,,,,,,,,,,,,,,,,,,,,
1768918291.121668,1768918291.122005,92.0,0.0,4330.384766,4324.358887,4346.282227,4347.692383,4322.820313,4326.666504,4319.230957,4324.743652,4320.769043,4306.794922,4523.717773,4536.794922,4409.615234,4461.794922,,,,,,,,,,,,,,,,,,,,,,,,,,,,,,,,,,,,,,,,,,,,,,,,,,,,,,,,,,,,,,,,,,,,,,
1768918291.129476,1768918291.129812,93.0,0.0,4338.461426,4323.589844,4351.410156,4353.589844,4316.794922,4325.512695,4321.282227,4325.641113,4320.0,4311.410156,4525.256348,4538.846191,4413.205078,4474.487305,,,,,,,,,,,,,,,,,,,,,,,,,,,,,,,,,,,,,,,,,,,,,,,,,,,,,,,,,,,,,,,,,,,,,,
1768918291.137285,1768918291.13752,94.0,0.0,4340.384766,4324.230957,4355.384766,4353.077148,4319.358887,4325.128418,4327.94873,4332.563965,4315.641113,4311.538574,4525.512695,4537.692383,4415.384766,4477.820313,,,,,,,,,,,,,,,,,,,,,,,,,,,,,,,,,,,,,,,,,,,,,,,,,,,,,,,,,,,,,,,,,,,,,,
1768918291.145093,1768918291.145328,95.0,0.0,4339.487305,4326.410156,4356.666504,4351.025879,4321.794922,4322.05127,4317.179688,4328.589844,4309.615234,4308.077148,4522.94873,4533.846191,4410.641113,4469.743652,,,,,,,,,,,,,,,,,,,,,,,,,,,,,,,,,,,,,,,,,,,,,,,,,,,,,,,,,,,,,,,,,,,,,,
1768918291.152902,1768918291.152936,96.0,0.0,4336.282227,4325.641113,4357.94873,4352.436035,4321.538574,4318.589844,4311.922852,4325.256348,4314.230957,4308.974121,4522.307617,4533.717773,4409.230957,4470.897461,0.769414,0.42548,0.22216,0.197659,0.186559,1.373677,0.652966,0.145768,0.231659,0.125961,1.484211,0.501224,0.263095,0.392071,0.147989,0.78925,0.482291,0.253524,0.304091,0.117502,0.428019,0.10613,0.093311,0.286453,0.118924,0.151293,0.126771,0.069841,0.162502,0.177464,0.876556,0.348895,0.148489,0.540846,0.43443,0.30317,0.255432,0.15457,0.212453,0.162484,0.174907,0.379827,0.257441,0.182249,0.082328,0.470271,0.455029,0.228477,0.154363,0.080607,0.806649,0.517936,0.366986,0.184254,0.145858,1.566434,0.755544,0.337914,0.311561,0.256941,0.802057,0.606863,0.208799,0.164186,0.146222,1.289421,0.405222,0.170916,0.320419,0.149439
1768918291.16071,1768918291.160744,97.0,0.0,4337.179688,4326.025879,4359.358887,4355.641113,4324.615234,4324.230957,4326.025879,4332.563965,4325.128418,4312.563965,4525.384766,4540.256348,4413.846191,4474.743652,,,,,,,,,,,,,,,,,,,,,,,,,,,,,,,,,,,,,,,,,,,,,,,,,,,,,,,,,,,,,,,,,,,,,,
1768918291.168519,1768918291.168651,98.0,0.0,4342.94873,4327.563965,4357.179688,4356.666504,4326.410156,4327.820313,4325.641113,4332.436035,4320.512695,4311.538574,4526.410156,4540.512695,4415.128418,4470.256348,,,,,,,,,,,,,,,,,,,,,,,,,,,,,,,,,,,,,,,,,,,,,,,,,,,,,,,,,,,,,,,,,,,,,,
1768918291.176327,1768918291.176459,99.0,0.0,4342.692383,4327.563965,4354.871582,4356.794922,4327.436035,4324.230957,4316.794922,4323.333496,4313.333496,4312.94873,4525.0,4534.743652,4413.461426,4469.743652,,,,,,,,,,,,,,,,,,,,,,,,,,,,,,,,,,,,,,,,,,,,,,,,,,,,,,,,,,,,,,,,,,,,,,
1768918291.184136,1768918291.184467,100.0,0.0,4336.922852,4326.410156,4357.820313,4358.077148,4326.282227,4328.974121,4330.897461,4325.769043,4319.871582,4318.333496,4523.589844,4537.179688,4413.974121,4473.333496,,,,,,,,,,,,,,,,,,,,,,,,,,,,,,,,,,,,,,,,,,,,,,,,,,,,,,,,,,,,,,,,,,,,,,
1768918291.191944,1768918291.192275,101.0,0.0,4336.025879,4325.0,4358.717773,4359.487305,4327.05127,4331.282227,4337.179688,4334.871582,4323.974121,4319.487305,4524.230957,4541.025879,4414.230957,4470.897461,,,,,,,,,,,,,,,,,,,,,,,,,,,,,,,,,,,,,,,,,,,,,,,,,,,,,,,,,,,,,,,,,,,,,,
1768918291.199753,1768918291.200183,102.0,0.0,4339.230957,4324.743652,4355.0,4363.077148,4326.282227,4317.563965,4316.666504,4333.717773,4320.897461,4318.846191,4526.025879,4538.461426,4411.666504,4469.871582,,,,,,,,,,,,,,,,,,,,,,,,,,,,,,,,,,,,,,,,,,,,,,,,,,,,,,,,,,,,,,,,,,,,,,
1768918291.207561,1768918291.207991,103.0,0.0,4338.974121,4323.333496,4350.256348,4364.230957,4317.820313,4308.205078,4303.333496,4329.358887,4322.179688,4318.461426,4525.0,4537.820313,4411.025879,4474.871582,,,,,,,,,,,,,,,,,,,,,,,,,,,,,,,,,,,,,,,,,,,,,,,,,,,,,,,,,,,,,,,,,,,,,,
1768918291.21537,1768918291.215599,104.0,0.0,4336.410156,4320.512695,4346.282227,4361.794922,4315.0,4315.256348,4313.846191,4327.692383,4321.794922,4313.974121,4523.205078,4537.179688,4412.05127,4474.358887,,,,,,,,,,,,,,,,,,,,,,,,,,,,,,,,,,,,,,,,,,,,,,,,,,,,,,,,,,,,,,,,,,,,,,
1768918291.223178,1768918291.223407,105.0,0.0,4337.563965,4322.307617,4345.512695,4362.436035,4320.769043,4323.717773,4327.307617,4327.692383,4317.179688,4310.128418,4522.179688,4530.0,4411.922852,4469.743652,,,,,,,,,,,,,,,,,,,,,,,,,,,,,,,,,,,,,,,,,,,,,,,,,,,,,,,,,,,,,,,,,,,,,,
1768918291.230987,1768918291.231314,106.0,0.0,4342.820313,4325.897461,4349.743652,4367.563965,4322.563965,4323.205078,4327.94873,4331.025879,4319.743652,4312.436035,4522.94873,4530.384766,4412.179688,4473.077148,,,,,,,,,,,,,,,,,,,,,,,,,,,,,,,,,,,,,,,,,,,,,,,,,,,,,,,,,,,,,,,,,,,,,,
1768918291.238795,1768918291.239122,107.0,0.0,4345.769043,4326.153809,4354.358887,4368.589844,4319.615234,4315.384766,4318.846191,4332.179688,4322.563965,4313.717773,4525.256348,4534.743652,4412.05127,4473.589844,,,,,,,,,,,,,,,,,,,,,,,,,,,,,,,,,,,,,,,,,,,,,,,,,,,,,,,,,,,,,,,,,,,,,,
1768918291.246604,1768918291.24713,108.0,0.0,4342.307617,4324.743652,4351.153809,4363.717773,4321.025879,4311.922852,4315.0,4329.230957,4320.769043,4312.94873,4523.717773,4528.205078,4411.153809,4465.0,,,,,,,,,,,,,,,,,,,,,,,,,,,,,,,,,,,,,,,,,,,,,,,,,,,,,,,,,,,,,,,,,,,,,,
1768918291.254412,1768918291.254938,109.0,0.0,4337.436035,4322.436035,4343.846191,4359.358887,4320.384766,4321.282227,4325.256348,4329.487305,4322.05127,4315.897461,4521.025879,4522.94873,4411.794922,4467.05127,,,,,,,,,,,,,,,,,,,,,,,,,,,,,,,,,,,,,,,,,,,,,,,,,,,,,,,,,,,,,,,,,,,,,,
1768918291.262221,1768918291.262845,110.0,0.0,4336.025879,4321.922852,4342.307617,4358.077148,4316.538574,4327.692383,4329.102539,4334.871582,4326.282227,4321.666504,4525.0,4525.384766,4414.358887,4473.974121,,,,,,,,,,,,,,,,,,,,,,,,,,,,,,,,,,,,,,,,,,,,,,,,,,,,,,,,,,,,,,,,,,,,,,
1768918291.270029,1768918291.270653,111.0,0.0,4336.025879,4323.846191,4343.589844,4357.05127,4319.230957,4322.563965,4318.846191,4338.974121,4328.333496,4324.102539,4528.461426,4526.025879,4414.743652,4469.358887,,,,,,,,,,,,,,,,,,,,,,,,,,,,,,,,,,,,,,,,,,,,,,,,,,,,,,,,,,,,,,,,,,,,,,
1768918291.277838,1768918291.278261,112.0,0.0,4336.153809,4321.538574,4342.820313,4353.461426,4322.307617,4320.769043,4316.025879,4336.794922,4326.538574,4320.512695,4525.384766,4527.94873,4413.846191,4467.820313,0.722917,0.440476,0.215863,0.190842,0.19804,1.260468,0.627932,0.155446,0.226707,0.132799,1.266266,0.435956,0.26041,0.360446,0.161655,0.725206,0.477169,0.241354,0.305391,0.116231,0.476171,0.098437,0.123893,0.290488,0.126128,0.14246,0.169144,0.099734,0.179608,0.183632,0.917235,0.404313,0.190244,0.554659,0.450048,0.286085,0.241295,0.157344,0.188861,0.169748,0.232806,0.424313,0.242827,0.166642,0.090553,0.496843,0.485039,0.207697,0.144471,0.078396,0.733802,0.499014,0.336275,0.157699,0.138081,1.319314,0.658414,0.313824,0.284674,0.260192,0.866031,0.607642,0.207987,0.146149,0.149119,1.329833,0.378817,0.160254,0.286536,0.137772
1768918291.285646,1768918291.286069,113.0,0.0,4336.794922,4319.358887,4344.615234,4351.153809,4322.05127,4325.641113,4317.820313,4331.538574,4325.512695,4321.282227,4529.358887,4534.487305,4418.077148,4475.512695,,,,,,,,,,,,,,,,,,,,,,,,,,,,,,,,,,,,,,,,,,,,,,,,,,,,,,,,,,,,,,,,,,,,,,
1768918291.293455,1768918291.293777,114.0,0.0,4336.410156,4323.461426,4349.871582,4355.128418,4322.179688,4323.333496,4313.077148,4331.666504,4326.410156,4327.436035,4537.307617,4536.666504,4421.025879,4477.692383,,,,,,,,,,,,,,,,,,,,,,,,,,,,,,,,,,,,,,,,,,,,,,,,,,,,,,,,,,,,,,,,,,,,,,
1768918291.301263,1768918291.301584,115.0,0.0,4335.897461,4322.692383,4350.128418,4357.692383,4323.333496,4322.563965,4316.282227,4337.94873,4326.922852,4325.769043,4532.05127,4532.94873,4417.436035,4470.641113,,,,,,,,,,,,,,,,,,,,,,,,,,,,,,,,,,,,,,,,,,,,,,,,,,,,,,,,,,,,,,,,,,,,,,
1768918291.309072,1768918291.309192,116.0,0.0,4338.205078,4319.102539,4351.025879,4356.538574,4322.692383,4329.358887,4324.871582,4337.94873,4327.307617,4318.717773,4523.077148,4532.820313,4413.077148,4466.538574,,,,,,,,,,,,,,,,,,,,,,,,,,,,,,,,,,,,,,,,,,,,,,,,,,,,,,,,,,,,,,,,,,,,,,
1768918291.31688,1768918291.317,117.0,0.0,4341.922852,4322.94873,4356.410156,4360.0,4322.179688,4331.153809,4324.871582,4336.025879,4326.410156,4318.717773,4526.666504,4536.282227,4413.461426,4468.717773,,,,,,,,,,,,,,,,,,,,,,,,,,,,,,,,,,,,,,,,,,,,,,,,,,,,,,,,,,,,,,,,,,,,,,
1768918291.324689,1768918291.324708,118.0,0.0,4341.922852,4326.538574,4357.692383,4366.538574,4325.641113,4324.487305,4319.615234,4342.307617,4328.205078,4322.436035,4537.692383,4539.743652,4416.025879,4470.897461,,,,,,,,,,,,,,,,,,,,,,,,,,,,,,,,,,,,,,,,,,,,,,,,,,,,,,,,,,,,,,,,,,,,,,
1768918291.332497,1768918291.332516,119.0,0.0,4341.025879,4325.641113,4357.307617,4365.641113,4327.820313,4322.179688,4316.153809,4345.769043,4332.94873,4323.717773,4536.538574,4541.025879,4416.025879,4470.641113,,,,,,,,,,,,,,,,,,,,,,,,,,,,,,,,,,,,,,,,,,,,,,,,,,,,,,,,,,,,,,,,,,,,,,
1768918291.340306,1768918291.340123,120.0,0.0,4342.563965,4324.358887,4360.641113,4366.153809,4325.384766,4326.794922,4317.94873,4339.230957,4330.256348,4320.641113,4524.615234,4538.205078,4411.282227,4470.641113,,,,,,,,,,,,,,,,,,,,,,,,,,,,,,,,,,,,,,,,,,,,,,,,,,,,,,,,,,,,,,,,,,,,,,
1768918291.348114,1768918291.347931,121.0,0.0,4344.743652,4325.897461,4366.666504,4377.436035,4325.128418,4326.666504,4324.102539,4337.692383,4326.025879,4318.205078,4528.333496,4539.743652,4412.436035,4476.282227,,,,,,,,,,,,,,,,,,,,,,,,,,,,,,,,,,,,,,,,,,,,,,,,,,,,,,,,,,,,,,,,,,,,,,
1768918291.355923,1768918291.355639,122.0,0.0,4344.487305,4329.743652,4371.538574,4383.205078,4328.589844,4326.794922,4328.461426,4347.563965,4333.205078,4323.205078,4542.436035,4547.563965,4419.615234,4478.333496,,,,,,,,,,,,,,,,,,,,,,,,,,,,,,,,,,,,,,,,,,,,,,,,,,,,,,,,,,,,,,,,,,,,,,
1768918291.363732,1768918291.363447,123.0,0.0,4341.025879,4328.589844,4367.820313,4375.769043,4326.282227,4331.282227,4328.205078,4352.94873,4336.538574,4324.358887,4533.974121,4548.077148,4406.410156,4467.179688,,,,,,,,,,,,,,,,,,,,,,,,,,,,,,,,,,,,,,,,,,,,,,,,,,,,,,,,,,,,,,,,,,,,,,
1768918291.37154,1768918291.371455,124.0,0.0,4340.641113,4325.512695,4359.358887,4372.05127,4321.666504,4330.641113,4326.794922,4345.897461,4327.692383,4317.94873,4523.589844,4541.410156,4395.0,4461.794922,,,,,,,,,,,,,,,,,,,,,,,,,,,,,,,,,,,,,,,,,,,,,,,,,,,,,,,,,,,,,,,,,,,,,,
1768918291.379348,1768918291.379262,125.0,0.0,4343.846191,4327.563965,4358.077148,4374.358887,4322.820313,4324.871582,4320.897461,4333.974121,4323.717773,4318.589844,4533.717773,4538.333496,4414.230957,4474.358887,,,,,,,,,,,,,,,,,,,,,,,,,,,,,,,,,,,,,,,,,,,,,,,,,,,,,,,,,,,,,,,,,,,,,,
1768918291.387157,1768918291.38717,126.0,0.0,4341.538574,4326.794922,4363.461426,4371.794922,4326.153809,4327.820313,4320.769043,4330.769043,4327.179688,4323.333496,4540.128418,4540.897461,4430.512695,4482.563965,,,,,,,,,,,,,,,,,,,,,,,,,,,,,,,,,,,,,,,,,,,,,,,,,,,,,,,,,,,,,,,,,,,,,,
1768918291.394966,1768918291.394978,127.0,0.0,4336.794922,4322.94873,4364.743652,4369.230957,4326.538574,4335.641113,4330.384766,4338.717773,4327.94873,4321.025879,4537.436035,4546.794922,4426.282227,4475.384766,,,,,,,,,,,,,,,,,,,,,,,,,,,,,,,,,,,,,,,,,,,,,,,,,,,,,,,,,,,,,,,,,,,,,,
1768918291.402774,1768918291.402986,0.0,0.0,4337.563965,4326.282227,4361.538574,4369.871582,4326.025879,4332.436035,4329.487305,4341.153809,4326.794922,4320.0,4535.512695,4546.922852,4423.077148,4475.128418,0.624862,0.455441,0.203075,0.173897,0.208363,1.04708,0.573958,0.157936,0.20391,0.135124,0.981923,0.386084,0.232752,0.320638,0.17542,0.63358,0.444994,0.218705,0.290115,0.116964,0.483404,0.087307,0.154196,0.272153,0.138881,0.155213,0.232919,0.133751,0.203872,0.195177,0.902223,0.478725,0.247888,0.582992,0.470352,0.267986,0.22975,0.161153,0.163358,0.174989,0.311367,0.456894,0.220266,0.14853,0.09957,0.528212,0.49412,0.195555,0.126962,0.080741,0.644935,0.477301,0.314849,0.129361,0.132047,1.05526,0.575702,0.290309,0.252603,0.26806,0.896848,0.569317,0.2316,0.140814,0.164601,1.29329,0.359154,0.18191,0.252717,0.147054
1768918291.410582,1768918291.410794,1.0,0.0,4340.769043,4328.846191,4357.05127,4365.384766,4325.897461,4323.974121,4318.077148,4336.666504,4326.666504,4322.563965,4531.153809,4538.974121,4422.179688,4478.077148,,,,,,,,,,,,,,,,,,,,,,,,,,,,,,,,,,,,,,,,,,,,,,,,,,,,,,,,,,,,,,,,,,,,,,
1768918291.418391,1768918291.418502,2.0,0.0,4342.307617,4329.230957,4356.282227,4364.743652,4326.794922,4328.846191,4324.230957,4340.256348,4332.436035,4321.410156,4533.846191,4538.333496,4418.333496,4473.846191,,,,,,,,,,,,,,,,,,,,,,,,,,,,,,,,,,,,,,,,,,,,,,,,,,,,,,,,,,,,,,,,,,,,,,
1768918291.4262,1768918291.42631,3.0,0.0,4339.358887,4328.077148,4362.94873,4368.205078,4327.307617,4341.666504,4339.743652,4349.615234,4337.563965,4321.153809,4541.153809,4547.05127,4420.256348,4471.666504,,,,,,,,,,,,,,,,,,,,,,,,,,,,,,,,,,,,,,,,,,,,,,,,,,,,,,,,,,,,,,,,,,,,,,
1768918291.434008,1768918291.434317,4.0,0.0,4330.897461,4318.461426,4360.512695,4362.692383,4323.205078,4336.666504,4329.743652,4345.897461,4330.512695,4318.461426,4531.410156,4542.179688,4416.922852,4466.666504,,,,,,,,,,,,,,,,,,,,,,,,,,,,,,,,,,,,,,,,,,,,,,,,,,,,,,,,,,,,,,,,,,,,,,
1768918291.441816,1768918291.442125,5.0,0.0,4324.102539,4315.256348,4347.563965,4357.563965,4322.563965,4325.384766,4313.717773,4335.641113,4323.717773,4309.487305,4518.974121,4526.153809,4407.820313,4460.0,,,,,,,,,,,,,,,,,,,,,,,,,,,,,,,,,,,,,,,,,,,,,,,,,,,,,,,,,,,,,,,,,,,,,,
1768918291.449625,1768918291.450033,6.0,0.0,4321.922852,4317.563965,4342.179688,4360.0,4324.871582,4328.717773,4319.358887,4339.230957,4324.358887,4305.384766,4520.641113,4520.897461,4407.179688,4457.436035,,,,,,,,,,,,,,,,,,,,,,,,,,,,,,,,,,,,,,,,,,,,,,,,,,,,,,,,,,,,,,,,,,,,,,
1768918291.457434,1768918291.45784,7.0,0.0,4321.538574,4314.230957,4348.077148,4361.410156,4322.307617,4338.461426,4333.333496,4341.666504,4324.487305,4308.846191,4525.512695,4528.461426,4409.743652,4457.179688,,,,,,,,,,,,,,,,,,,,,,,,,,,,,,,,,,,,,,,,,,,,,,,,,,,,,,,,,,,,,,,,,,,,,,
1768918291.465242,1768918291.465648,8.0,0.0,4323.589844,4317.820313,4355.256348,4364.871582,4320.512695,4334.743652,4332.820313,4331.025879,4324.487305,4311.538574,4525.897461,4537.563965,4411.794922,4459.615234,,,,,,,,,,,,,,,,,,,,,,,,,,,,,,,,,,,,,,,,,,,,,,,,,,,,,,,,,,,,,,,,,,,,,,
1768918291.47305,1768918291.473456,9.0,0.0,4325.384766,4325.512695,4358.077148,4374.615234,4324.358887,4327.05127,4323.077148,4332.05127,4324.743652,4311.153809,4524.487305,4538.077148,4409.615234,4461.922852,,,,,,,,,,,,,,,,,,,,,,,,,,,,,,,,,,,,,,,,,,,,,,,,,,,,,,,,,,,,,,,,,,,,,,
1768918291.480859,1768918291.481164,10.0,0.0,4323.974121,4322.692383,4356.410156,4376.922852,4324.615234,4331.153809,4325.256348,4348.077148,4328.974121,4313.974121,4531.410156,4536.922852,4412.179688,4465.641113,,,,,,,,,,,,,,,,,,,,,,,,,,,,,,,,,,,,,,,,,,,,,,,,,,,,,,,,,,,,,,,,,,,,,,
1768918291.488668,1768918291.488971,11.0,0.0,4323.205078,4319.615234,4356.282227,4372.179688,4319.102539,4334.615234,4334.615234,4351.153809,4337.563965,4322.05127,4542.94873,4543.589844,4423.846191,4473.077148,,,,,,,,,,,,,,,,,,,,,,,,,,,,,,,,,,,,,,,,,,,,,,,,,,,,,,,,,,,,,,,,,,,,,,
1768918291.496476,1768918291.496979,12.0,0.0,4329.230957,4322.820313,4363.717773,4371.538574,4319.358887,4332.94873,4337.94873,4341.794922,4336.538574,4324.615234,4543.846191,4549.487305,4427.94873,4478.589844,,,,,,,,,,,,,,,,,,,,,,,,,,,,,,,,,,,,,,,,,,,,,,,,,,,,,,,,,,,,,,,,,,,,,,
1768918291.504285,1768918291.504787,13.0,0.0,4334.871582,4323.077148,4365.512695,4372.436035,4322.820313,4328.333496,4328.846191,4338.461426,4327.307617,4315.0,4538.461426,4544.102539,4419.230957,4476.410156,,,,,,,,,,,,,,,,,,,,,,,,,,,,,,,,,,,,,,,,,,,,,,,,,,,,,,,,,,,,,,,,,,,,,,
1768918291.512093,1768918291.512495,14.0,0.0,4334.871582,4326.153809,4358.333496,4374.487305,4320.512695,4325.256348,4318.846191,4338.077148,4326.282227,4307.563965,4539.487305,4535.256348,4414.487305,4476.666504,,,,,,,,,,,,,,,,,,,,,,,,,,,,,,,,,,,,,,,,,,,,,,,,,,,,,,,,,,,,,,,,,,,,,,
1768918291.519902,1768918291.520303,15.0,0.0,4337.179688,4327.820313,4360.384766,4375.897461,4317.436035,4323.846191,4317.94873,4337.179688,4330.256348,4314.230957,4539.615234,4539.358887,4420.769043,4482.179688,,,,,,,,,,,,,,,,,,,,,,,,,,,,,,,,,,,,,,,,,,,,,,,,,,,,,,,,,,,,,,,,,,,,,,
1768918291.52771,1768918291.527911,16.0,0.0,4343.589844,4323.717773,4365.256348,4373.846191,4317.436035,4323.461426,4324.230957,4340.384766,4330.128418,4321.282227,4537.307617,4545.897461,4425.897461,4483.077148,0.530255,0.477025,0.196268,0.150804,0.211377,0.806452,0.508964,0.156575,0.169728,0.131889,0.746655,0.368603,0.191228,0.284455,0.18354,0.558603,0.402464,0.201213,0.261438,0.115516,0.450739,0.07424,0.176744,0.237541,0.152468,0.199222,0.2949,0.163288,0.231408,0.208368,0.840776,0.550816,0.308383,0.621894,0.491791,0.253281,0.221764,0.167052,0.140318,0.179874,0.386651,0.470383,0.199291,0.131728,0.108868,0.559642,0.489601,0.204268,0.106127,0.087422,0.584902,0.470139,0.326019,0.105269,0.130848,0.88522,0.536039,0.286931,0.224335,0.279744,0.902478,0.515157,0.296096,0.150767,0.190269,1.236637,0.362869,0.251973,0.226198,0.17867
1768918291.535519,1768918291.535718,17.0,0.0,4342.05127,4324.230957,4360.384766,4373.077148,4314.230957,4326.282227,4328.974121,4343.333496,4329.487305,4317.692383,4543.846191,4544.358887,4430.512695,4481.282227,,,,,,,,,,,,,,,,,,,,,,,,,,,,,,,,,,,,,,,,,,,,,,,,,,,,,,,,,,,,,,,,,,,,,,
1768918291.543327,1768918291.543426,18.0,0.0,4334.487305,4328.717773,4355.641113,4374.871582,4312.820313,4328.589844,4325.769043,4337.307617,4327.179688,4310.897461,4540.512695,4534.487305,4427.179688,4480.384766,,,,,,,,,,,,,,,,,,,,,,,,,,,,,,,,,,,,,,,,,,,,,,,,,,,,,,,,,,,,,,,,,,,,,,
1768918291.551136,1768918291.551234,19.0,0.0,4330.256348,4330.384766,4354.487305,4375.0,4319.743652,4328.846191,4325.0,4332.563965,4325.384766,4310.128418,4524.230957,4523.589844,4412.820313,4473.974121,,,,,,,,,,,,,,,,,,,,,,,,,,,,,,,,,,,,,,,,,,,,,,,,,,,,,,,,,,,,,,,,,,,,,,
1768918291.558944,1768918291.559242,20.0,0.0,4327.05127,4325.384766,4350.384766,4371.282227,4320.769043,4326.666504,4325.897461,4338.077148,4327.179688,4312.692383,4527.692383,4528.846191,4414.358887,4468.974121,,,,,,,,,,,,,,,,,,,,,,,,,,,,,,,,,,,,,,,,,,,,,,,,,,,,,,,,,,,,,,,,,,,,,,
1768918291.566753,1768918291.56705,21.0,0.0,4326.794922,4320.128418,4350.128418,4370.256348,4313.461426,4326.410156,4326.538574,4337.563965,4326.666504,4312.179688,4541.666504,4539.743652,4431.410156,4478.717773,,,,,,,,,,,,,,,,,,,,,,,,,,,,,,,,,,,,,,,,,,,,,,,,,,,,,,,,,,,,,,,,,,,,,,
1768918291.574561,1768918291.574957,22.0,0.0,4328.846191,4318.974121,4353.205078,4370.641113,4312.05127,4326.794922,4324.358887,4333.589844,4325.256348,4310.384766,4531.666504,4533.205078,4421.410156,4476.666504,,,,,,,,,,,,,,,,,,,,,,,,,,,,,,,,,,,,,,,,,,,,,,,,,,,,,,,,,,,,,,,,,,,,,,
1768918291.58237,1768918291.582765,23.0,0.0,4324.102539,4319.102539,4345.897461,4364.358887,4315.769043,4331.153809,4324.871582,4339.743652,4326.153809,4306.538574,4512.436035,4516.922852,4392.94873,4454.871582,,,,,,,,,,,,,,,,,,,,,,,,,,,,,,,,,,,,,,,,,,,,,,,,,,,,,,,,,,,,,,,,,,,,,,
1768918291.590178,1768918291.590773,24.0,0.0,4320.128418,4318.589844,4337.692383,4356.282227,4312.436035,4334.871582,4331.410156,4340.512695,4326.538574,4306.538574,4519.743652,4517.692383,4404.743652,4459.871582,,,,,,,,,,,,,,,,,,,,,,,,,,,,,,,,,,,,,,,,,,,,,,,,,,,,,,,,,,,,,,,,,,,,,,
1768918291.597987,1768918291.598581,25.0,0.0,4330.128418,4324.230957,4349.615234,4363.717773,4308.205078,4328.205078,4330.641113,4335.384766,4331.794922,4323.205078,4547.94873,4539.358887,4444.743652,4489.743652,,,,,,,,,,,,,,,,,,,,,,,,,,,,,,,,,,,,,,,,,,,,,,,,,,,,,,,,,,,,,,,,,,,,,,
1768918291.605795,1768918291.606489,26.0,0.0,4344.871582,4334.743652,4367.307617,4381.153809,4316.538574,4325.128418,4327.563965,4342.94873,4341.538574,4338.846191,4560.256348,4556.794922,4452.820313,4501.666504,,,,,,,,,,,,,,,,,,,,,,,,,,,,,,,,,,,,,,,,,,,,,,,,,,,,,,,,,,,,,,,,,,,,,,
1768918291.613604,1768918291.614297,27.0,0.0,4341.794922,4335.512695,4363.846191,4380.384766,4322.94873,4330.384766,4330.0,4347.563965,4338.846191,4328.717773,4546.153809,4545.897461,4430.769043,4490.769043,,,,,,,,,,,,,,,,,,,,,,,,,,,,,,,,,,,,,,,,,,,,,,,,,,,,,,,,,,,,,,,,,,,,,,
1768918291.621412,1768918291.621905,28.0,0.0,4329.358887,4327.820313,4348.846191,4365.256348,4314.102539,4328.077148,4325.256348,4335.128418,4325.512695,4309.743652,4530.641113,4522.179688,4419.615234,4477.94873,,,,,,,,,,,,,,,,,,,,,,,,,,,,,,,,,,,,,,,,,,,,,,,,,,,,,,,,,,,,,,,,,,,,,,
1768918291.629221,1768918291.629713,29.0,0.0,4326.282227,4325.641113,4346.794922,4363.205078,4307.307617,4321.410156,4318.717773,4326.282227,4320.384766,4309.615234,4534.358887,4525.897461,4426.794922,4474.230957,,,,,,,,,,,,,,,,,,,,,,,,,,,,,,,,,,,,,,,,,,,,,,,,,,,,,,,,,,,,,,,,,,,,,,
1768918291.637029,1768918291.63762,30.0,0.0,4327.436035,4326.794922,4354.487305,4367.94873,4311.794922,4322.436035,4320.512695,4327.179688,4323.205078,4315.384766,4540.512695,4541.922852,4432.05127,4479.230957,,,,,,,,,,,,,,,,,,,,,,,,,,,,,,,,,,,,,,,,,,,,,,,,,,,,,,,,,,,,,,,,,,,,,,
1768918291.644838,1768918291.645428,31.0,0.0,4329.743652,4325.0,4358.333496,4365.641113,4312.436035,4325.641113,4325.769043,4332.820313,4325.384766,4312.820313,4538.974121,4538.333496,4428.846191,4481.922852,,,,,,,,,,,,,,,,,,,,,,,,,,,,,,,,,,,,,,,,,,,,,,,,,,,,,,,,,,,,,,,,,,,,,,
