Timestamp,OriginalTimestamp,EEG.Counter,EEG.Interpolated,EEG.AF3,EEG.F7,EEG.F3,EEG.FC5,EEG.T7,EEG.P7,EEG.O1,EEG.O2,EEG.P8,EEG.T8,EEG.FC6,EEG.F4,EEG.F8,EEG.AF4,POW.AF3.Theta,POW.AF3.Alpha,POW.AF3.BetaL,POW.AF3.BetaH,POW.AF3.Gamma,POW.F7.Theta,POW.F7.Alpha,POW.F7.BetaL,POW.F7.BetaH,POW.F7.Gamma,POW.F3.Theta,POW.F3.Alpha,POW.F3.BetaL,POW.F3.BetaH,POW.F3.Gamma,POW.FC5.Theta,POW.FC5.Alpha,POW.FC5.BetaL,POW.FC5.BetaH,POW.FC5.Gamma,POW.T7.Theta,POW.T7.Alpha,POW.T7.BetaL,POW.T7.BetaH,POW.T7.Gamma,POW.P7.Theta,POW.P7.Alpha,POW.P7.BetaL,POW.P7.BetaH,POW.P7.Gamma,POW.O1.Theta,POW.O1.Alpha,POW.O1.BetaL,POW.O1.BetaH,POW.O1.Gamma,POW.O2.Theta,POW.O2.Alpha,POW.O2.BetaL,POW.O2.BetaH,POW.O2.Gamma,POW.P8.Theta,POW.P8.Alpha,POW.P8.BetaL,POW.P8.BetaH,POW.P8.Gamma,POW.T8.Theta,POW.T8.Alpha,POW.T8.BetaL,POW.T8.BetaH,POW.T8.Gamma,POW.FC6.Theta,POW.FC6.Alpha,POW.FC6.BetaL,POW.FC6.BetaH,POW.FC6.Gamma,POW.F4.Theta,POW.F4.Alpha,POW.F4.BetaL,POW.F4.BetaH,POW.F4.Gamma,POW.F8.Theta,POW.F8.Alpha,POW.F8.BetaL,POW.F8.BetaH,POW.F8.Gamma,POW.AF4.Theta,POW.AF4.Alpha,POW.AF4.BetaL,POW.AF4.BetaH,POW.AF4.Gamma
1768972400.124577,1768972400.124812,5.0,0.0,4427.820313,4388.717773,4405.769043,4373.717773,4394.871582,4398.205078,4397.436035,4479.615234,4416.922852,4304.743652,4552.94873,4629.358887,4488.461426,4474.487305,,,,,,,,,,,,,,,,,,,,,,,,,,,,,,,,,,,,,,,,,,,,,,,,,,,,,,,,,,,,,,,,,,,,,,
1768972400.132385,1768972400.132521,6.0,0.0,4429.230957,4390.256348,4400.512695,4376.153809,4396.922852,4404.871582,4408.846191,4479.743652,4412.692383,4302.436035,4551.922852,4626.666504,4480.769043,4472.563965,,,,,,,,,,,,,,,,,,,,,,,,,,,,,,,,,,,,,,,,,,,,,,,,,,,,,,,,,,,,,,,,,,,,,,
1768972400.140194,1768972400.140329,7.0,0.0,4422.820313,4389.358887,4400.128418,4371.794922,4393.461426,4402.05127,4409.743652,4481.922852,4419.615234,4302.307617,4550.0,4622.820313,4478.077148,4469.102539,,,,,,,,,,,,,,,,,,,,,,,,,,,,,,,,,,,,,,,,,,,,,,,,,,,,,,,,,,,,,,,,,,,,,,
1768972400.148002,1768972400.148338,8.0,0.0,4411.794922,4382.563965,4406.666504,4371.794922,4393.974121,4400.769043,4406.666504,4480.641113,4418.077148,4303.717773,4541.666504,4616.538574,4470.256348,4459.871582,,,,,,,,,,,,,,,,,,,,,,,,,,,,,,,,,,,,,,,,,,,,,,,,,,,,,,,,,,,,,,,,,,,,,,
1768972400.15581,1768972400.156146,9.0,0.0,4416.666504,4380.897461,4408.846191,4376.794922,4397.820313,4404.230957,4414.358887,4480.128418,4410.641113,4300.384766,4537.05127,4612.05127,4462.692383,4453.846191,,,,,,,,,,,,,,,,,,,,,,,,,,,,,,,,,,,,,,,,,,,,,,,,,,,,,,,,,,,,,,,,,,,,,,
1768972400.163619,1768972400.164054,10.0,0.0,4430.641113,4385.256348,4409.358887,4378.077148,4396.025879,4399.871582,4410.897461,4478.077148,4411.282227,4296.794922,4540.641113,4612.820313,4469.743652,4464.102539,,,,,,,,,,,,,,,,,,,,,,,,,,,,,,,,,,,,,,,,,,,,,,,,,,,,,,,,,,,,,,,,,,,,,,
1768972400.171427,1768972400.171863,11.0,0.0,4431.410156,4384.230957,4410.256348,4377.179688,4390.641113,4394.615234,4405.641113,4472.436035,4412.307617,4295.769043,4541.922852,4617.94873,4479.487305,4477.436035,,,,,,,,,,,,,,,,,,,,,,,,,,,,,,,,,,,,,,,,,,,,,,,,,,,,,,,,,,,,,,,,,,,,,,
1768972400.179236,1768972400.179871,12.0,0.0,4422.94873,4379.487305,4408.589844,4375.128418,4386.538574,4399.487305,4413.333496,4472.05127,4408.077148,4293.205078,4537.692383,4617.820313,4472.94873,4475.0,,,,,,,,,,,,,,,,,,,,,,,,,,,,,,,,,,,,,,,,,,,,,,,,,,,,,,,,,,,,,,,,,,,,,,
1768972400.187044,1768972400.18768,13.0,0.0,4422.436035,4375.769043,4406.538574,4374.487305,4390.512695,4402.179688,4409.358887,4477.94873,4407.820313,4294.358887,4537.05127,4615.384766,4466.282227,4470.512695,,,,,,,,,,,,,,,,,,,,,,,,,,,,,,,,,,,,,,,,,,,,,,,,,,,,,,,,,,,,,,,,,,,,,,
1768972400.194853,1768972400.195588,14.0,0.0,4423.077148,4374.102539,4402.179688,4377.05127,4394.615234,4396.025879,4392.820313,4479.230957,4411.282227,4300.769043,4540.128418,4619.743652,4472.94873,4473.589844,0.354511,0.292114,0.171294,0.147003,0.172372,0.703606,0.475344,0.357274,0.162697,0.128078,0.257623,0.280193,0.262492,0.143542,0.122309,0.491868,0.174487,0.115747,0.096531,0.092721,0.341382,0.122672,0.111887,0.067322,0.073517,0.190941,0.277317,0.213413,0.173135,0.273892,0.436535,0.12012,0.199328,0.156673,0.178636,0.394201,0.261877,0.063213,0.080984,0.11813,0.362936,0.377079,0.104258,0.15492,0.112698,0.339619,0.187912,0.256341,0.176442,0.069127,0.435423,0.174013,0.235122,0.264067,0.141104,0.507078,0.436058,0.264205,0.298785,0.215039,0.516926,0.24024,0.237665,0.193837,0.141866,1.230596,0.363554,0.373409,0.295557,0.192796
1768972400.202661,1768972400.203396,15.0,0.0,4417.94873,4378.461426,4400.769043,4378.589844,4392.179688,4399.615234,4397.692383,4478.846191,4412.94873,4300.769043,4540.0,4624.358887,4476.666504,4473.077148,,,,,,,,,,,,,,,,,,,,,,,,,,,,,,,,,,,,,,,,,,,,,,,,,,,,,,,,,,,,,,,,,,,,,,
1768972400.21047,1768972400.211005,16.0,0.0,4416.410156,4386.153809,4408.846191,4378.717773,4392.94873,4412.94873,4415.512695,4483.974121,4413.717773,4295.384766,4539.230957,4624.743652,4474.487305,4470.384766,,,,,,,,,,,,,,,,,,,,,,,,,,,,,,,,,,,,,,,,,,,,,,,,,,,,,,,,,,,,,,,,,,,,,,
1768972400.218278,1768972400.218813,17.0,0.0,4425.897461,4389.871582,4413.461426,4380.641113,4398.077148,4411.410156,4411.025879,4479.102539,4409.743652,4300.0,4541.538574,4623.077148,4476.153809,4473.974121,,,,,,,,,,,,,,,,,,,,,,,,,,,,,,,,,,,,,,,,,,,,,,,,,,,,,,,,,,,,,,,,,,,,,,
1768972400.226087,1768972400.226522,18.0,0.0,4431.666504,4388.077148,4410.384766,4379.102539,4394.871582,4401.922852,4400.0,4467.820313,4406.794922,4306.538574,4541.538574,4621.410156,4479.743652,4476.282227,,,,,,,,,,,,,,,,,,,,,,,,,,,,,,,,,,,,,,,,,,,,,,,,,,,,,,,,,,,,,,,,,,,,,,
1768972400.233895,1768972400.23433,19.0,0.0,4420.256348,4383.846191,4408.205078,4370.512695,4387.05127,4405.384766,4404.615234,4472.94873,4410.0,4303.974121,4539.358887,4621.153809,4476.922852,4474.358887,,,,,,,,,,,,,,,,,,,,,,,,,,,,,,,,,,,,,,,,,,,,,,,,,,,,,,,,,,,,,,,,,,,,,,
1768972400.241703,1768972400.241939,20.0,0.0,4414.615234,4385.641113,4408.333496,4371.153809,4387.820313,4414.230957,4413.205078,4485.0,4412.05127,4301.666504,4540.897461,4621.922852,4475.256348,4474.743652,,,,,,,,,,,,,,,,,,,,,,,,,,,,,,,,,,,,,,,,,,,,,,,,,,,,,,,,,,,,,,,,,,,,,,
1768972400.249512,1768972400.249748,21.0,0.0,4421.538574,4387.179688,4411.922852,4378.589844,4389.487305,4413.846191,4414.358887,4485.512695,4412.692383,4305.641113,4542.179688,4620.128418,4476.410156,4474.358887,,,,,,,,,,,,,,,,,,,,,,,,,,,,,,,,,,,,,,,,,,,,,,,,,,,,,,,,,,,,,,,,,,,,,,
1768972400.25732,1768972400.257456,22.0,0.0,4425.641113,4384.102539,4416.410156,4379.487305,4387.05127,4406.794922,4411.153809,4483.589844,4417.179688,4308.974121,4541.794922,4620.0,4475.641113,4476.025879,,,,,,,,,,,,,,,,,,,,,,,,,,,,,,,,,,,,,,,,,,,,,,,,,,,,,,,,,,,,,,,,,,,,,,
1768972400.265129,1768972400.265265,23.0,0.0,4419.743652,4384.230957,4410.256348,4374.487305,4386.410156,4405.0,4411.153809,4483.589844,4415.128418,4304.487305,4540.897461,4620.384766,4476.666504,4476.666504,,,,,,,,,,,,,,,,,,,,,,,,,,,,,,,,,,,,,,,,,,,,,,,,,,,,,,,,,,,,,,,,,,,,,,
1768972400.272937,1768972400.273273,24.0,0.0,4409.358887,4382.563965,4400.769043,4371.666504,4382.94873,4407.692383,4412.05127,4483.333496,4411.025879,4298.333496,4537.94873,4612.692383,4475.0,4466.666504,,,,,,,,,,,,,,,,,,,,,,,,,,,,,,,,,,,,,,,,,,,,,,,,,,,,,,,,,,,,,,,,,,,,,,
1768972400.280746,1768972400.281081,25.0,0.0,4413.717773,4381.538574,4405.0,4378.077148,4383.846191,4401.538574,4404.871582,4483.717773,4415.384766,4304.871582,4540.897461,4610.128418,4474.615234,4462.820313,,,,,,,,,,,,,,,,,,,,,,,,,,,,,,,,,,,,,,,,,,,,,,,,,,,,,,,,,,,,,,,,,,,,,,
1768972400.288554,1768972400.28899,26.0,0.0,4425.0,4387.05127,4411.538574,4383.717773,4392.307617,4394.487305,4400.128418,4480.384766,4418.205078,4313.589844,4549.743652,4615.384766,4482.692383,4474.230957,,,,,,,,,,,,,,,,,,,,,,,,,,,,,,,,,,,,,,,,,,,,,,,,,,,,,,,,,,,,,,,,,,,,,,
1768972400.296363,1768972400.296798,27.0,0.0,4423.589844,4390.0,4410.641113,4381.282227,4397.307617,4402.05127,4407.307617,4479.102539,4418.205078,4311.794922,4551.538574,4615.0,4489.615234,4480.384766,,,,,,,,,,,,,,,,,,,,,,,,,,,,,,,,,,,,,,,,,,,,,,,,,,,,,,,,,,,,,,,,,,,,,,
1768972400.304171,1768972400.304407,28.0,0.0,4417.692383,4388.333496,4407.05127,4380.384766,4396.410156,4409.871582,4411.025879,4480.641113,4420.128418,4308.974121,4547.563965,4611.794922,4488.077148,4476.538574,,,,,,,,,,,,,,,,,,,,,,,,,,,,,,,,,,,,,,,,,,,,,,,,,,,,,,,,,,,,,,,,,,,,,,
1768972400.311979,1768972400.312215,29.0,0.0,4418.589844,4387.436035,4403.589844,4383.974121,4396.666504,4409.615234,4411.153809,4482.563965,4424.102539,4312.307617,4548.205078,4613.077148,4486.538574,4475.128418,,,,,,,,,,,,,,,,,,,,,,,,,,,,,,,,,,,,,,,,,,,,,,,,,,,,,,,,,,,,,,,,,,,,,,
1768972400.319788,1768972400.319924,30.0,0.0,4418.589844,4383.077148,4402.94873,4383.846191,4395.128418,4412.94873,4416.666504,4485.641113,4425.384766,4315.384766,4551.282227,4614.487305,4488.077148,4478.333496,0.372469,0.293179,0.250188,0.146972,0.175876,0.706782,0.511589,0.398976,0.148288,0.133068,0.324012,0.285814,0.330866,0.169663,0.137162,0.553278,0.184479,0.148067,0.100429,0.093853,0.359239,0.11736,0.131145,0.06883,0.07656,0.282833,0.253244,0.243801,0.173691,0.278133,0.440363,0.095086,0.199428,0.156389,0.180126,0.471924,0.278872,0.089512,0.077519,0.120186,0.445615,0.434186,0.122597,0.170681,0.109326,0.383409,0.218882,0.25606,0.160602,0.076789,0.422533,0.161354,0.228609,0.245686,0.149452,0.547439,0.482654,0.300828,0.299543,0.228378,0.502786,0.228011,0.242305,0.191285,0.151521,0.996267,0.402999,0.470008,0.298508,0.2066
1768972400.327596,1768972400.327732,31.0,0.0,4419.615234,4379.487305,4404.743652,4382.307617,4392.820313,4409.487305,4411.666504,4482.94873,4418.846191,4315.641113,4553.589844,4613.077148,4489.871582,4485.641113,,,,,,,,,,,,,,,,,,,,,,,,,,,,,,,,,,,,,,,,,,,,,,,,,,,,,,,,,,,,,,,,,,,,,,
1768972400.335405,1768972400.33574,32.0,0.0,4425.897461,4385.512695,4407.563965,4385.512695,4393.974121,4402.692383,4402.563965,4476.025879,4412.179688,4313.846191,4554.743652,4615.641113,4491.794922,4493.461426,,,,,,,,,,,,,,,,,,,,,,,,,,,,,,,,,,,,,,,,,,,,,,,,,,,,,,,,,,,,,,,,,,,,,,
1768972400.343213,1768972400.343549,33.0,0.0,4426.538574,4389.487305,4408.077148,4386.538574,4393.205078,4405.0,4407.179688,4475.128418,4412.179688,4312.563965,4552.307617,4618.461426,4491.410156,4491.922852,,,,,,,,,,,,,,,,,,,,,,,,,,,,,,,,,,,,,,,,,,,,,,,,,,,,,,,,,,,,,,,,,,,,,,
1768972400.351022,1768972400.351457,34.0,0.0,4423.974121,4387.179688,4407.307617,4384.487305,4391.922852,4405.384766,4410.897461,4477.179688,4414.615234,4310.769043,4548.717773,4616.922852,4488.717773,4489.487305,,,,,,,,,,,,,,,,,,,,,,,,,,,,,,,,,,,,,,,,,,,,,,,,,,,,,,,,,,,,,,,,,,,,,,
1768972400.35883,1768972400.359266,35.0,0.0,4426.538574,4386.794922,4408.333496,4386.666504,4393.974121,4406.282227,4410.256348,4478.333496,4414.487305,4307.05127,4550.0,4615.512695,4488.974121,4491.410156,,,,,,,,,,,,,,,,,,,,,,,,,,,,,,,,,,,,,,,,,,,,,,,,,,,,,,,,,,,,,,,,,,,,,,
1768972400.366639,1768972400.367274,36.0,0.0,4428.846191,4388.333496,4411.282227,4390.256348,4397.692383,4407.820313,4409.871582,4479.615234,4416.666504,4309.102539,4552.563965,4618.205078,4489.743652,4491.666504,,,,,,,,,,,,,,,,,,,,,,,,,,,,,,,,,,,,,,,,,,,,,,,,,,,,,,,,,,,,,,,,,,,,,,
1768972400.374447,1768972400.375082,37.0,0.0,4427.94873,4387.179688,4410.769043,4388.589844,4397.436035,4402.692383,4405.0,4477.05127,4422.307617,4313.846191,4552.179688,4621.538574,4490.256348,4490.0,,,,,,,,,,,,,,,,,,,,,,,,,,,,,,,,,,,,,,,,,,,,,,,,,,,,,,,,,,,,,,,,,,,,,,
1768972400.382255,1768972400.382991,38.0,0.0,4424.487305,4382.307617,4406.153809,4384.615234,4390.769043,4396.153809,4398.589844,4476.538574,4424.743652,4313.589844,4548.461426,4621.025879,4491.666504,4491.922852,,,,,,,,,,,,,,,,,,,,,,,,,,,,,,,,,,,,,,,,,,,,,,,,,,,,,,,,,,,,,,,,,,,,,,
1768972400.390064,1768972400.390799,39.0,0.0,4424.743652,4381.666504,4405.641113,4385.897461,4385.897461,4392.179688,4396.410156,4475.256348,4416.282227,4311.153809,4543.077148,4618.333496,4485.769043,4489.743652,,,,,,,,,,,,,,,,,,,,,,,,,,,,,,,,,,,,,,,,,,,,,,,,,,,,,,,,,,,,,,,,,,,,,,
1768972400.397872,1768972400.398807,40.0,0.0,4427.436035,4386.794922,4406.538574,4388.846191,4386.922852,4392.307617,4399.615234,4469.487305,4408.589844,4310.384766,4540.384766,4615.512695,4478.717773,4480.512695,,,,,,,,,,,,,,,,,,,,,,,,,,,,,,,,,,,,,,,,,,,,,,,,,,,,,,,,,,,,,,,,,,,,,,
1768972400.405681,1768972400.406616,41.0,0.0,4421.538574,4387.94873,4406.282227,4387.692383,4389.358887,4396.794922,4403.077148,4473.077148,4413.717773,4314.743652,4540.769043,4615.897461,4483.974121,4481.410156,,,,,,,,,,,,,,,,,,,,,,,,,,,,,,,,,,,,,,,,,,,,,,,,,,,,,,,,,,,,,,,,,,,,,,
1768972400.413489,1768972400.414324,42.0,0.0,4416.666504,4385.897461,4407.436035,4386.153809,4389.102539,4397.563965,4401.025879,4475.769043,4415.641113,4321.666504,4543.333496,4618.077148,4491.794922,4491.794922,,,,,,,,,,,,,,,,,,,,,,,,,,,,,,,,,,,,,,,,,,,,,,,,,,,,,,,,,,,,,,,,,,,,,,
1768972400.421298,1768972400.422133,43.0,0.0,4424.358887,4387.820313,4411.025879,4388.205078,4389.487305,4393.077148,4396.153809,4468.461426,4410.256348,4320.641113,4545.256348,4618.333496,4490.384766,4491.538574,,,,,,,,,,,,,,,,,,,,,,,,,,,,,,,,,,,,,,,,,,,,,,,,,,,,,,,,,,,,,,,,,,,,,,
1768972400.429106,1768972400.429741,44.0,0.0,4429.230957,4390.256348,4413.717773,4391.538574,4390.128418,4396.666504,4400.641113,4466.153809,4410.0,4315.0,4543.717773,4615.641113,4488.461426,4486.282227,,,,,,,,,,,,,,,,,,,,,,,,,,,,,,,,,,,,,,,,,,,,,,,,,,,,,,,,,,,,,,,,,,,,,,
1768972400.436915,1768972400.43755,45.0,0.0,4420.897461,4384.487305,4410.897461,4388.974121,4388.717773,4399.102539,4405.769043,4469.615234,4412.05127,4312.820313,4540.256348,4611.794922,4488.974121,4487.94873,,,,,,,,,,,,,,,,,,,,,,,,,,,,,,,,,,,,,,,,,,,,,,,,,,,,,,,,,,,,,,,,,,,,,,
1768972400.444723,1768972400.445258,46.0,0.0,4417.563965,4379.487305,4409.358887,4387.179688,4387.692383,4393.589844,4401.666504,4468.589844,4412.820313,4313.333496,4539.230957,4611.922852,4487.820313,4488.974121,0.406516,0.289597,0.344319,0.140341,0.171578,0.723449,0.522737,0.427403,0.140041,0.131381,0.401103,0.283579,0.378455,0.182263,0.146814,0.546663,0.192737,0.1789,0.10284,0.094301,0.328475,0.106773,0.14633,0.070025,0.075964,0.363621,0.226379,0.257275,0.170066,0.280458,0.424176,0.089238,0.191454,0.160674,0.194943,0.509853,0.301552,0.111872,0.087005,0.125168,0.523068,0.478809,0.139179,0.18329,0.1035,0.454429,0.24702,0.244449,0.156965,0.082523,0.384275,0.157902,0.222007,0.227161,0.146783,0.56406,0.504299,0.325678,0.287548,0.22232,0.460796,0.220912,0.253714,0.1856,0.156397,0.832119,0.435823,0.559028,0.287109,0.206939
1768972400.452531,1768972400.453067,47.0,0.0,4428.077148,4387.94873,4412.820313,4394.615234,4391.153809,4399.102539,4403.333496,4470.384766,4414.102539,4317.563965,4541.410156,4615.641113,4490.641113,4489.615234,,,,,,,,,,,,,,,,,,,,,,,,,,,,,,,,,,,,,,,,,,,,,,,,,,,,,,,,,,,,,,,,,,,,,,
1768972400.46034,1768972400.460676,48.0,0.0,4431.538574,4393.461426,4412.179688,4396.922852,4393.974121,4411.153809,4413.974121,4472.436035,4412.94873,4316.666504,4540.128418,4612.820313,4489.487305,4488.333496,,,,,,,,,,,,,,,,,,,,,,,,,,,,,,,,,,,,,,,,,,,,,,,,,,,,,,,,,,,,,,,,,,,,,,
1768972400.468148,1768972400.468484,49.0,0.0,4416.538574,4379.871582,4405.512695,4389.358887,4390.128418,4406.922852,4411.538574,4469.102539,4411.666504,4313.333496,4536.410156,4601.922852,4476.794922,4476.922852,,,,,,,,,,,,,,,,,,,,,,,,,,,,,,,,,,,,,,,,,,,,,,,,,,,,,,,,,,,,,,,,,,,,,,
1768972400.475957,1768972400.476392,50.0,0.0,4406.153809,4370.0,4402.179688,4385.128418,4384.358887,4386.922852,4390.128418,4467.820313,4413.589844,4318.846191,4535.897461,4596.410156,4469.871582,4470.641113,,,,,,,,,,,,,,,,,,,,,,,,,,,,,,,,,,,,,,,,,,,,,,,,,,,,,,,,,,,,,,,,,,,,,,
1768972400.483765,1768972400.484201,51.0,0.0,4418.589844,4378.461426,4403.974121,4388.333496,4382.307617,4384.230957,4383.974121,4466.666504,4412.820313,4321.025879,4538.077148,4599.487305,4480.769043,4475.512695,,,,,,,,,,,,,,,,,,,,,,,,,,,,,,,,,,,,,,,,,,,,,,,,,,,,,,,,,,,,,,,,,,,,,,
1768972400.491573,1768972400.492209,52.0,0.0,4430.769043,4385.384766,4408.333496,4392.692383,4385.0,4397.179688,4398.461426,4465.897461,4410.897461,4318.461426,4539.487305,4602.436035,4491.922852,4479.743652,,,,,,,,,,,,,,,,,,,,,,,,,,,,,,,,,,,,,,,,,,,,,,,,,,,,,,,,,,,,,,,,,,,,,,
1768972400.499382,1768972400.500017,53.0,0.0,4426.922852,4385.384766,4412.307617,4393.461426,4388.717773,4391.153809,4398.333496,4465.512695,4410.897461,4323.461426,4540.0,4603.974121,4491.282227,4484.871582,,,,,,,,,,,,,,,,,,,,,,,,,,,,,,,,,,,,,,,,,,,,,,,,,,,,,,,,,,,,,,,,,,,,,,
1768972400.50719,1768972400.507726,54.0,0.0,4422.692383,4389.615234,4407.820313,4390.256348,4389.230957,4380.897461,4385.769043,4463.333496,4406.538574,4326.282227,4541.666504,4604.871582,4491.538574,4487.307617,,,,,,,,,,,,,,,,,,,,,,,,,,,,,,,,,,,,,,,,,,,,,,,,,,,,,,,,,,,,,,,,,,,,,,
1768972400.514999,1768972400.515534,55.0,0.0,4425.512695,4394.102539,4403.589844,4390.641113,4389.743652,4387.179688,4386.666504,4461.794922,4399.230957,4319.871582,4540.512695,4600.0,4491.410156,4485.256348,,,,,,,,,,,,,,,,,,,,,,,,,,,,,,,,,,,,,,,,,,,,,,,,,,,,,,,,,,,,,,,,,,,,,,
1768972400.522807,1768972400.523143,56.0,0.0,4426.025879,4396.922852,4408.077148,4395.641113,4391.153809,4392.820313,4395.256348,4460.897461,4398.846191,4317.563965,4536.282227,4592.820313,4483.205078,4485.128418,,,,,,,,,,,,,,,,,,,,,,,,,,,,,,,,,,,,,,,,,,,,,,,,,,,,,,,,,,,,,,,,,,,,,,
1768972400.530616,1768972400.530952,57.0,0.0,4421.666504,4397.94873,4409.102539,4395.0,4390.384766,4390.897461,4396.922852,4462.820313,4404.102539,4319.487305,4534.230957,4594.102539,4476.025879,4483.333496,,,,,,,,,,,,,,,,,,,,,,,,,,,,,,,,,,,,,,,,,,,,,,,,,,,,,,,,,,,,,,,,,,,,,,
1768972400.538424,1768972400.53886,58.0,0.0,4416.794922,4394.615234,4402.820313,4393.717773,4390.769043,4394.358887,4395.512695,4465.128418,4406.153809,4321.153809,4538.205078,4600.128418,4477.692383,4476.282227,,,,,,,,,,,,,,,,,,,,,,,,,,,,,,,,,,,,,,,,,,,,,,,,,,,,,,,,,,,,,,,,,,,,,,
1768972400.546233,1768972400.546668,59.0,0.0,4413.974121,4395.641113,4398.717773,4396.410156,4395.641113,4398.333496,4396.153809,4461.794922,4401.410156,4320.384766,4535.769043,4597.94873,4478.077148,4474.230957,,,,,,,,,,,,,,,,,,,,,,,,,,,,,,,,,,,,,,,,,,,,,,,,,,,,,,,,,,,,,,,,,,,,,,
1768972400.554041,1768972400.554677,60.0,0.0,4414.871582,4401.794922,4399.230957,4396.153809,4396.794922,4398.846191,4398.205078,4459.358887,4399.743652,4318.205078,4527.179688,4589.743652,4475.897461,4477.563965,,,,,,,,,,,,,,,,,,,,,,,,,,,,,,,,,,,,,,,,,,,,,,,,,,,,,,,,,,,,,,,,,,,,,,
1768972400.561849,1768972400.562485,61.0,0.0,4416.666504,4403.205078,4402.692383,4396.410156,4391.794922,4398.717773,4399.871582,4466.025879,4407.179688,4321.922852,4528.333496,4593.717773,4477.307617,4476.410156,,,,,,,,,,,,,,,,,,,,,,,,,,,,,,,,,,,,,,,,,,,,,,,,,,,,,,,,,,,,,,,,,,,,,,
1768972400.569658,1768972400.570393,62.0,0.0,4415.769043,4402.563965,4402.307617,4398.077148,4388.846191,4391.666504,4396.153809,4463.974121,4405.641113,4323.077148,4531.025879,4601.666504,4479.102539,4476.410156,0.441789,0.276549,0.431983,0.133766,0.162937,0.755386,0.511648,0.438095,0.141565,0.122583,0.478733,0.268725,0.389208,0.178312,0.149347,0.486724,0.195412,0.20162,0.105257,0.094391,0.283289,0.095787,0.157424,0.071809,0.072102,0.449668,0.207742,0.247655,0.166002,0.280811,0.440082,0.099562,0.17813,0.170684,0.222186,0.620725,0.314839,0.124465,0.106605,0.131971,0.641601,0.487616,0.150862,0.187425,0.097675,0.520903,0.263844,0.223814,0.165193,0.084702,0.370513,0.155708,0.212485,0.207368,0.133491,0.55886,0.487192,0.333988,0.265283,0.198815,0.411816,0.230227,0.279853,0.176675,0.156847,0.68252,0.449967,0.612722,0.264984,0.196285
1768972400.577466,1768972400.578202,63.0,0.0,4412.820313,4402.94873,4396.025879,4396.794922,4389.230957,4385.128418,4389.487305,4453.205078,4395.769043,4319.743652,4524.102539,4597.307617,4477.563965,4477.307617,,,,,,,,,,,,,,,,,,,,,,,,,,,,,,,,,,,,,,,,,,,,,,,,,,,,,,,,,,,,,,,,,,,,,,
1768972400.585275,1768972400.58591,64.0,0.0,4412.179688,4405.641113,4396.025879,4396.025879,4389.358887,4389.358887,4391.153809,4455.0,4398.461426,4322.307617,4523.717773,4590.641113,4476.538574,4477.436035,,,,,,,,,,,,,,,,,,,,,,,,,,,,,,,,,,,,,,,,,,,,,,,,,,,,,,,,,,,,,,,,,,,,,,
1768972400.593083,1768972400.593719,65.0,0.0,4414.487305,4409.871582,4400.897461,4396.153809,4391.794922,4393.846191,4397.563965,4459.358887,4402.436035,4325.512695,4533.846191,4592.05127,4481.282227,4483.077148,,,,,,,,,,,,,,,,,,,,,,,,,,,,,,,,,,,,,,,,,,,,,,,,,,,,,,,,,,,,,,,,,,,,,,
1768972400.600892,1768972400.601427,66.0,0.0,4415.769043,4410.641113,4400.769043,4396.282227,4394.743652,4391.410156,4394.871582,4460.256348,4399.615234,4325.897461,4538.717773,4598.205078,4488.461426,4490.641113,,,,,,,,,,,,,,,,,,,,,,,,,,,,,,,,,,,,,,,,,,,,,,,,,,,,,,,,,,,,,,,,,,,,,,
1768972400.6087,1768972400.609236,67.0,0.0,4414.871582,4409.102539,4400.897461,4397.94873,4392.05127,4388.846191,4389.230957,4465.769043,4405.256348,4327.692383,4538.846191,4600.0,4491.666504,4496.153809,,,,,,,,,,,,,,,,,,,,,,,,,,,,,,,,,,,,,,,,,,,,,,,,,,,,,,,,,,,,,,,,,,,,,,
1768972400.616509,1768972400.616844,68.0,0.0,4413.461426,4403.589844,4400.128418,4394.230957,4384.871582,4387.94873,4387.820313,4467.563965,4407.94873,4328.333496,4538.974121,4597.436035,4485.897461,4493.333496,,,,,,,,,,,,,,,,,,,,,,,,,,,,,,,,,,,,,,,,,,,,,,,,,,,,,,,,,,,,,,,,,,,,,,
1768972400.624317,1768972400.624653,69.0,0.0,4411.794922,4389.102539,4394.871582,4387.436035,4381.922852,4388.205078,4390.641113,4462.563965,4398.717773,4327.692383,4537.820313,4599.487305,4480.512695,4491.025879,,,,,,,,,,,,,,,,,,,,,,,,,,,,,,,,,,,,,,,,,,,,,,,,,,,,,,,,,,,,,,,,,,,,,,
1768972400.632126,1768972400.632361,70.0,0.0,4413.205078,4377.563965,4396.538574,4391.666504,4386.794922,4392.563965,4396.794922,4461.794922,4400.256348,4332.307617,4538.589844,4606.666504,4483.717773,4500.0,,,,,,,,,,,,,,,,,,,,,,,,,,,,,,,,,,,,,,,,,,,,,,,,,,,,,,,,,,,,,,,,,,,,,,
1768972400.639934,1768972400.64017,71.0,0.0,4414.358887,4376.794922,4401.282227,4395.128418,4388.205078,4392.563965,4396.538574,4462.436035,4404.871582,4332.94873,4536.282227,4602.820313,4483.846191,4504.743652,,,,,,,,,,,,,,,,,,,,,,,,,,,,,,,,,,,,,,,,,,,,,,,,,,,,,,,,,,,,,,,,,,,,,,
1768972400.647742,1768972400.647779,72.0,0.0,4413.205078,4374.487305,4398.846191,4389.615234,4382.179688,4392.307617,4393.461426,4461.666504,4403.333496,4326.922852,4534.487305,4592.563965,4476.282227,4495.769043,,,,,,,,,,,,,,,,,,,,,,,,,,,,,,,,,,,,,,,,,,,,,,,,,,,,,,,,,,,,,,,,,,,,,,
1768972400.655551,1768972400.655587,73.0,0.0,4411.410156,4370.897461,4394.487305,4389.487305,4380.897461,4398.589844,4402.94873,4468.717773,4408.205078,4327.692383,4535.769043,4593.077148,4475.769043,4490.769043,,,,,,,,,,,,,,,,,,,,,,,,,,,,,,,,,,,,,,,,,,,,,,,,,,,,,,,,,,,,,,,,,,,,,,
1768972400.663359,1768972400.663296,74.0,0.0,4406.922852,4372.307617,4392.94873,4390.512695,4385.0,4396.282227,4402.436035,4468.717773,4408.589844,4328.461426,4529.358887,4592.692383,4478.846191,4493.589844,,,,,,,,,,,,,,,,,,,,,,,,,,,,,,,,,,,,,,,,,,,,,,,,,,,,,,,,,,,,,,,,,,,,,,
1768972400.671168,1768972400.671104,75.0,0.0,4401.282227,4368.846191,4391.153809,4385.897461,4382.563965,4384.871582,4388.077148,4458.974121,4400.128418,4326.410156,4524.358887,4587.692383,4473.717773,4492.94873,,,,,,,,,,,,,,,,,,,,,,,,,,,,,,,,,,,,,,,,,,,,,,,,,,,,,,,,,,,,,,,,,,,,,,
1768972400.678976,1768972400.679112,76.0,0.0,4405.384766,4369.615234,4390.897461,4387.436035,4378.077148,4391.153809,4397.307617,4460.641113,4403.717773,4335.256348,4533.846191,4588.974121,4479.358887,4498.333496,,,,,,,,,,,,,,,,,,,,,,,,,,,,,,,,,,,,,,,,,,,,,,,,,,,,,,,,,,,,,,,,,,,,,,
1768972400.686785,1768972400.686921,77.0,0.0,4416.410156,4382.820313,4396.282227,4391.538574,4381.922852,4403.461426,4413.205078,4468.846191,4415.256348,4346.282227,4544.743652,4591.922852,4490.641113,4508.461426,,,,,,,,,,,,,,,,,,,,,,,,,,,,,,,,,,,,,,,,,,,,,,,,,,,,,,,,,,,,,,,,,,,,,,
1768972400.694593,1768972400.694829,78.0,0.0,4417.436035,4390.512695,4398.461426,4390.0,4388.077148,4396.410156,4401.922852,4463.333496,4410.384766,4342.94873,4539.230957,4589.871582,4483.589844,4507.179688,0.48009,0.254276,0.492404,0.134121,0.155363,0.795772,0.487136,0.432244,0.154197,0.108665,0.545204,0.245117,0.361565,0.160856,0.144532,0.400132,0.192094,0.212091,0.109389,0.094064,0.228954,0.089645,0.167733,0.075464,0.066242,0.484505,0.208186,0.218824,0.165966,0.277978,0.425216,0.125349,0.163471,0.186448,0.256914,0.659272,0.307045,0.123169,0.132664,0.137454,0.694585,0.456442,0.15527,0.182713,0.093674,0.584252,0.269226,0.199904,0.180445,0.083507,0.375595,0.151952,0.201706,0.18817,0.113495,0.522257,0.432562,0.325755,0.239449,0.164742,0.382355,0.263217,0.325588,0.168097,0.154129,0.583639,0.44399,0.619891,0.243131,0.181119
1768972400.702402,1768972400.702637,79.0,0.0,4411.282227,4388.333496,4393.974121,4390.0,4388.846191,4385.128418,4383.717773,4451.025879,4397.179688,4335.897461,4527.307617,4589.230957,4473.333496,4501.922852,,,,,,,,,,,,,,,,,,,,,,,,,,,,,,,,,,,,,,,,,,,,,,,,,,,,,,,,,,,,,,,,,,,,,,
1768972400.71021,1768972400.710646,80.0,0.0,4411.282227,4387.307617,4392.436035,4390.512695,4386.538574,4388.205078,4385.0,4454.102539,4400.256348,4340.256348,4524.615234,4593.205078,4476.794922,4504.102539,,,,,,,,,,,,,,,,,,,,,,,,,,,,,,,,,,,,,,,,,,,,,,,,,,,,,,,,,,,,,,,,,,,,,,
1768972400.718018,1768972400.718454,81.0,0.0,4414.871582,4388.846191,4397.05127,4392.436035,4388.077148,4396.410156,4394.743652,4460.256348,4407.94873,4343.974121,4528.846191,4593.461426,4479.102539,4506.025879,,,,,,,,,,,,,,,,,,,,,,,,,,,,,,,,,,,,,,,,,,,,,,,,,,,,,,,,,,,,,,,,,,,,,,
1768972400.725827,1768972400.726163,82.0,0.0,4415.897461,4391.410156,4400.384766,4395.769043,4389.102539,4394.102539,4396.025879,4455.128418,4401.282227,4334.358887,4526.410156,4589.358887,4476.025879,4502.307617,,,,,,,,,,,,,,,,,,,,,,,,,,,,,,,,,,,,,,,,,,,,,,,,,,,,,,,,,,,,,,,,,,,,,,
1768972400.733635,1768972400.733971,83.0,0.0,4414.871582,4393.333496,4399.487305,4392.307617,4383.846191,4386.666504,4389.871582,4451.025879,4394.102539,4328.846191,4522.05127,4588.589844,4478.333496,4501.282227,,,,,,,,,,,,,,,,,,,,,,,,,,,,,,,,,,,,,,,,,,,,,,,,,,,,,,,,,,,,,,,,,,,,,,
1768972400.741444,1768972400.741979,84.0,0.0,4411.794922,4391.410156,4397.179688,4386.282227,4380.512695,4387.436035,4386.282227,4453.846191,4398.717773,4340.128418,4530.512695,4595.128418,4480.256348,4507.179688,,,,,,,,,,,,,,,,,,,,,,,,,,,,,,,,,,,,,,,,,,,,,,,,,,,,,,,,,,,,,,,,,,,,,,
1768972400.749252,1768972400.749788,85.0,0.0,4410.512695,4388.589844,4394.871582,4385.769043,4381.410156,4389.358887,4388.461426,4455.769043,4399.871582,4347.692383,4535.897461,4598.846191,4480.128418,4511.666504,,,,,,,,,,,,,,,,,,,,,,,,,,,,,,,,,,,,,,,,,,,,,,,,,,,,,,,,,,,,,,,,,,,,,,
1768972400.757061,1768972400.757696,86.0,0.0,4412.563965,4388.717773,4395.128418,4388.205078,4381.410156,4386.666504,4387.307617,4452.692383,4396.538574,4341.794922,4526.153809,4590.128418,4477.94873,4502.563965,,,,,,,,,,,,,,,,,,,,,,,,,,,,,,,,,,,,,,,,,,,,,,,,,,,,,,,,,,,,,,,,,,,,,,
1768972400.764869,1768972400.765505,87.0,0.0,4408.461426,4388.461426,4395.384766,4390.384766,4380.384766,4387.820313,4387.692383,4453.461426,4400.128418,4338.333496,4520.256348,4579.487305,4474.230957,4490.641113,,,,,,,,,,,,,,,,,,,,,,,,,,,,,,,,,,,,,,,,,,,,,,,,,,,,,,,,,,,,,,,,,,,,,,
1768972400.772678,1768972400.773513,88.0,0.0,4399.487305,4387.436035,4391.666504,4389.358887,4381.666504,4391.666504,4390.641113,4456.025879,4400.256348,4341.922852,4523.717773,4582.820313,4473.846191,4491.538574,,,,,,,,,,,,,,,,,,,,,,,,,,,,,,,,,,,,,,,,,,,,,,,,,,,,,,,,,,,,,,,,,,,,,,
1768972400.780486,1768972400.781321,89.0,0.0,4396.794922,4388.205078,4390.641113,4383.974121,4382.436035,4388.333496,4390.256348,4455.256348,4395.769043,4336.794922,4525.384766,4592.436035,4472.179688,4495.0,,,,,,,,,,,,,,,,,,,,,,,,,,,,,,,,,,,,,,,,,,,,,,,,,,,,,,,,,,,,,,,,,,,,,,
1768972400.788294,1768972400.78923,90.0,0.0,4399.871582,4389.102539,4393.333496,4385.512695,4381.666504,4385.0,4390.641113,4453.717773,4396.410156,4330.769043,4522.692383,4591.410156,4470.256348,4492.179688,,,,,,,,,,,,,,,,,,,,,,,,,,,,,,,,,,,,,,,,,,,,,,,,,,,,,,,,,,,,,,,,,,,,,,
1768972400.796103,1768972400.797038,91.0,0.0,4404.102539,4389.102539,4392.436035,4391.153809,4383.589844,4390.128418,4388.717773,4450.384766,4399.487305,4334.487305,4520.128418,4583.589844,4469.743652,4490.512695,,,,,,,,,,,,,,,,,,,,,,,,,,,,,,,,,,,,,,,,,,,,,,,,,,,,,,,,,,,,,,,,,,,,,,
1768972400.803911,1768972400.805046,92.0,0.0,4404.871582,4388.589844,4386.538574,4391.538574,4385.128418,4397.692383,4390.128418,4451.153809,4399.358887,4334.615234,4521.153809,4581.538574,4467.563965,4491.538574,,,,,,,,,,,,,,,,,,,,,,,,,,,,,,,,,,,,,,,,,,,,,,,,,,,,,,,,,,,,,,,,,,,,,,
1768972400.81172,1768972400.812855,93.0,0.0,4398.846191,4387.692383,4384.102539,4388.333496,4383.846191,4393.717773,4392.820313,4451.794922,4397.05127,4329.871582,4520.384766,4585.256348,4462.05127,4492.179688,,,,,,,,,,,,,,,,,,,,,,,,,,,,,,,,,,,,,,,,,,,,,,,,,,,,,,,,,,,,,,,,,,,,,,
1768972400.819528,1768972400.820563,94.0,0.0,4395.256348,4388.589844,4387.307617,4385.512695,4381.794922,4376.922852,4381.410156,4445.769043,4394.230957,4331.153809,4512.820313,4584.487305,4461.538574,4492.94873,0.515626,0.227703,0.512865,0.143761,0.15441,0.830483,0.460947,0.414655,0.175304,0.094044,0.576922,0.220912,0.307445,0.136318,0.134048,0.330956,0.183613,0.20848,0.114574,0.093054,0.208968,0.09255,0.180729,0.081858,0.060045,0.480283,0.240533,0.183799,0.172908,0.271301,0.398472,0.169805,0.152236,0.205445,0.291222,0.713245,0.277205,0.111788,0.160874,0.138129,0.712369,0.401387,0.155402,0.173099,0.092312,0.615603,0.268321,0.177603,0.194099,0.080287,0.437391,0.15046,0.192506,0.171345,0.092739,0.500824,0.361006,0.304064,0.217968,0.129589,0.371554,0.317104,0.390694,0.16342,0.150167,0.525712,0.429432,0.58792,0.229104,0.168024
1768972400.827337,1768972400.828372,95.0,0.0,4402.05127,4388.974121,4389.743652,4384.487305,4382.692383,4373.846191,4376.410156,4443.717773,4395.128418,4335.769043,4512.563965,4581.794922,4467.692383,4490.897461,,,,,,,,,,,,,,,,,,,,,,,,,,,,,,,,,,,,,,,,,,,,,,,,,,,,,,,,,,,,,,,,,,,,,,
1768972400.835145,1768972400.83598,96.0,0.0,4406.538574,4388.205078,4393.461426,4387.05127,4385.641113,4393.077148,4395.769043,4453.461426,4401.410156,4338.205078,4522.436035,4586.922852,4472.94873,4493.974121,,,,,,,,,,,,,,,,,,,,,,,,,,,,,,,,,,,,,,,,,,,,,,,,,,,,,,,,,,,,,,,,,,,,,,
1768972400.842953,1768972400.843789,97.0,0.0,4405.384766,4388.974121,4398.717773,4390.641113,4385.384766,4401.153809,4403.846191,4458.461426,4402.692383,4342.05127,4526.410156,4592.94873,4476.153809,4505.512695,,,,,,,,,,,,,,,,,,,,,,,,,,,,,,,,,,,,,,,,,,,,,,,,,,,,,,,,,,,,,,,,,,,,,,
1768972400.850762,1768972400.851497,98.0,0.0,4403.717773,4389.871582,4398.205078,4389.871582,4384.230957,4388.717773,4387.692383,4450.256348,4397.436035,4342.820313,4525.512695,4588.333496,4476.153809,4504.743652,,,,,,,,,,,,,,,,,,,,,,,,,,,,,,,,,,,,,,,,,,,,,,,,,,,,,,,,,,,,,,,,,,,,,,
1768972400.85857,1768972400.859306,99.0,0.0,4400.0,4387.94873,4394.102539,4385.769043,4385.512695,4383.846191,4381.282227,4442.692383,4392.820313,4335.128418,4522.820313,4580.128418,4472.05127,4492.307617,,,,,,,,,,,,,,,,,,,,,,,,,,,,,,,,,,,,,,,,,,,,,,,,,,,,,,,,,,,,,,,,,,,,,,
1768972400.866379,1768972400.867314,100.0,0.0,4400.256348,4386.538574,4395.256348,4386.538574,4385.0,4395.512695,4389.615234,4441.410156,4391.666504,4334.615234,4513.205078,4581.025879,4466.153809,4489.358887,,,,,,,,,,,,,,,,,,,,,,,,,,,,,,,,,,,,,,,,,,,,,,,,,,,,,,,,,,,,,,,,,,,,,,
1768972400.874187,1768972400.875123,101.0,0.0,4404.615234,4390.256348,4396.922852,4392.05127,4380.769043,4398.974121,4395.128418,4448.333496,4401.538574,4338.205078,4511.794922,4585.769043,4464.102539,4493.974121,,,,,,,,,,,,,,,,,,,,,,,,,,,,,,,,,,,,,,,,,,,,,,,,,,,,,,,,,,,,,,,,,,,,,,
1768972400.881996,1768972400.883031,102.0,0.0,4402.692383,4393.846191,4393.589844,4391.153809,4381.153809,4390.769043,4392.692383,4454.102539,4408.717773,4334.358887,4521.538574,4583.333496,4467.436035,4494.358887,,,,,,,,,,,,,,,,,,,,,,,,,,,,,,,,,,,,,,,,,,,,,,,,,,,,,,,,,,,,,,,,,,,,,,
1768972400.889804,1768972400.890839,103.0,0.0,4396.794922,4396.410156,4392.820313,4385.0,4383.974121,4388.461426,4384.102539,4444.230957,4398.461426,4330.256348,4518.717773,4575.641113,4466.025879,4491.922852,,,,,,,,,,,,,,,,,,,,,,,,,,,,,,,,,,,,,,,,,,,,,,,,,,,,,,,,,,,,,,,,,,,,,,
1768972400.897612,1768972400.898848,104.0,0.0,4397.692383,4396.666504,4397.05127,4388.974121,4382.05127,4395.512695,4389.230957,4445.128418,4398.589844,4338.589844,4513.846191,4579.615234,4466.025879,4493.974121,,,,,,,,,,,,,,,,,,,,,,,,,,,,,,,,,,,,,,,,,,,,,,,,,,,,,,,,,,,,,,,,,,,,,,
1768972400.905421,1768972400.906656,105.0,0.0,4398.589844,4393.589844,4398.205078,4395.384766,4380.769043,4401.538574,4403.589844,4464.358887,4415.897461,4351.153809,4522.436035,4592.179688,4473.717773,4497.436035,,,,,,,,,,,,,,,,,,,,,,,,,,,,,,,,,,,,,,,,,,,,,,,,,,,,,,,,,,,,,,,,,,,,,,
1768972400.913229,1768972400.914564,106.0,0.0,4396.025879,4392.436035,4392.307617,4390.769043,4380.769043,4396.538574,4394.871582,4460.128418,4411.153809,4348.333496,4523.077148,4586.538574,4474.871582,4495.512695,,,,,,,,,,,,,,,,,,,,,,,,,,,,,,,,,,,,,,,,,,,,,,,,,,,,,,,,,,,,,,,,,,,,,,
1768972400.921038,1768972400.922373,107.0,0.0,4400.256348,4396.538574,4388.846191,4385.256348,4380.641113,4385.641113,4377.436035,4436.794922,4392.307617,4341.410156,4513.461426,4572.563965,4466.282227,4491.153809,,,,,,,,,,,,,,,,,,,,,,,,,,,,,,,,,,,,,,,,,,,,,,,,,,,,,,,,,,,,,,,,,,,,,,
1768972400.928846,1768972400.929982,108.0,0.0,4403.974121,4398.333496,4394.487305,4389.102539,4382.179688,4383.333496,4380.256348,4436.410156,4393.205078,4345.512695,4515.384766,4578.205078,4461.794922,4492.436035,,,,,,,,,,,,,,,,,,,,,,,,,,,,,,,,,,,,,,,,,,,,,,,,,,,,,,,,,,,,,,,,,,,,,,
1768972400.936655,1768972400.93779,109.0,0.0,4398.461426,4396.153809,4398.077148,4388.589844,4379.358887,4390.641113,4388.717773,4449.358887,4403.717773,4352.179688,4525.384766,4590.128418,4467.436035,4496.666504,,,,,,,,,,,,,,,,,,,,,,,,,,,,,,,,,,,,,,,,,,,,,,,,,,,,,,,,,,,,,,,,,,,,,,
1768972400.944463,1768972400.945698,110.0,0.0,4395.384766,4396.794922,4391.666504,4381.282227,4371.794922,4391.282227,4387.94873,4450.0,4403.205078,4349.871582,4522.436035,4587.307617,4470.256348,4495.641113,0.54001,0.204408,0.493642,0.159186,0.162997,0.942382,0.445973,0.392918,0.199026,0.083656,0.572117,0.20176,0.245492,0.112398,0.121182,0.279713,0.170188,0.191541,0.117658,0.091303,0.218593,0.105516,0.197507,0.090689,0.054836,0.417921,0.310301,0.155486,0.185558,0.262128,0.341155,0.236467,0.143591,0.223066,0.318497,0.668501,0.232861,0.096607,0.185178,0.132509,0.64644,0.345039,0.155163,0.163226,0.094166,0.601351,0.26887,0.16041,0.198142,0.077297,0.495142,0.1573,0.188103,0.15989,0.077023,0.487686,0.296406,0.273521,0.206028,0.101932,0.367214,0.38354,0.465497,0.165816,0.146368,0.505696,0.430547,0.534651,0.22605,0.160669
1768972400.952272,1768972400.953507,111.0,0.0,4400.128418,4398.205078,4388.205078,4384.743652,4374.487305,4383.974121,4384.230957,4442.563965,4397.307617,4342.563965,4511.922852,4581.025879,4465.384766,4491.153809,,,,,,,,,,,,,,,,,,,,,,,,,,,,,,,,,,,,,,,,,,,,,,,,,,,,,,,,,,,,,,,,,,,,,,
1768972400.96008,1768972400.961415,112.0,0.0,4402.692383,4397.05127,4396.153809,4393.461426,4381.794922,4385.769043,4385.641113,4439.871582,4395.897461,4341.666504,4508.974121,4587.179688,4460.384766,4490.256348,,,,,,,,,,,,,,,,,,,,,,,,,,,,,,,,,,,,,,,,,,,,,,,,,,,,,,,,,,,,,,,,,,,,,,
1768972400.967888,1768972400.969224,113.0,0.0,4401.153809,4398.333496,4402.563965,4393.077148,4375.641113,4392.05127,4389.615234,4439.615234,4397.563965,4343.205078,4511.025879,4592.179688,4460.256348,4492.820313,,,,,,,,,,,,,,,,,,,,,,,,,,,,,,,,,,,,,,,,,,,,,,,,,,,,,,,,,,,,,,,,,,,,,,
1768972400.975697,1768972400.976932,114.0,0.0,4398.846191,4397.179688,4397.05127,4386.282227,4366.922852,4383.077148,4384.102539,4438.717773,4396.410156,4341.538574,4509.358887,4583.077148,4460.769043,4487.692383,,,,,,,,,,,,,,,,,,,,,,,,,,,,,,,,,,,,,,,,,,,,,,,,,,,,,,,,,,,,,,,,,,,,,,
1768972400.983505,1768972400.984741,115.0,0.0,4393.205078,4392.05127,4384.102539,4383.589844,4371.538574,4374.358887,4376.794922,4441.922852,4399.102539,4341.922852,4505.897461,4573.717773,4458.974121,4481.666504,,,,,,,,,,,,,,,,,,,,,,,,,,,,,,,,,,,,,,,,,,,,,,,,,,,,,,,,,,,,,,,,,,,,,,
1768972400.991314,1768972400.992349,116.0,0.0,4391.538574,4392.563965,4379.743652,4390.769043,4380.384766,4391.025879,4388.846191,4450.128418,4405.256348,4346.538574,4508.333496,4576.153809,4458.974121,4486.922852,,,,,,,,,,,,,,,,,,,,,,,,,,,,,,,,,,,,,,,,,,,,,,,,,,,,,,,,,,,,,,,,,,,,,,
1768972400.999122,1768972401.000158,117.0,0.0,4395.641113,4398.717773,4389.615234,4395.641113,4378.974121,4400.384766,4394.487305,4446.794922,4401.410156,4341.538574,4511.538574,4582.307617,4457.307617,4492.05127,,,,,,,,,,,,,,,,,,,,,,,,,,,,,,,,,,,,,,,,,,,,,,,,,,,,,,,,,,,,,,,,,,,,,,
1768972401.006931,1768972401.008066,118.0,0.0,4398.077148,4400.0,4397.05127,4393.461426,4375.384766,4387.05127,4380.641113,4439.102539,4396.410156,4334.102539,4510.384766,4583.717773,4458.717773,4491.666504,,,,,,,,,,,,,,,,,,,,,,,,,,,,,,,,,,,,,,,,,,,,,,,,,,,,,,,,,,,,,,,,,,,,,,
1768972401.014739,1768972401.015874,119.0,0.0,4398.077148,4398.077148,4394.102539,4391.410156,4377.692383,4386.538574,4381.410156,4444.230957,4401.410156,4343.077148,4509.358887,4581.025879,4462.692383,4493.846191,,,,,,,,,,,,,,,,,,,,,,,,,,,,,,,,,,,,,,,,,,,,,,,,,,,,,,,,,,,,,,,,,,,,,,
1768972401.022548,1768972401.023483,120.0,0.0,4397.436035,4397.179688,4387.307617,4391.922852,4378.974121,4389.871582,4389.102539,4444.358887,4402.563965,4351.922852,4508.333496,4573.333496,4455.0,4492.820313,,,,,,,,,,,,,,,,,,,,,,,,,,,,,,,,,,,,,,,,,,,,,,,,,,,,,,,,,,,,,,,,,,,,,,
1768972401.030356,1768972401.031292,121.0,0.0,4396.666504,4396.282227,4384.871582,4392.307617,4372.563965,4378.974121,4381.282227,4435.384766,4395.384766,4344.487305,4507.692383,4570.128418,4447.436035,4484.871582,,,,,,,,,,,,,,,,,,,,,,,,,,,,,,,,,,,,,,,,,,,,,,,,,,,,,,,,,,,,,,,,,,,,,,
1768972401.038165,1768972401.039,122.0,0.0,4395.384766,4396.922852,4390.256348,4391.922852,4369.102539,4379.230957,4378.846191,4437.05127,4393.846191,4339.230957,4508.333496,4575.897461,4454.358887,4485.384766,,,,,,,,,,,,,,,,,,,,,,,,,,,,,,,,,,,,,,,,,,,,,,,,,,,,,,,,,,,,,,,,,,,,,,
1768972401.045973,1768972401.046809,123.0,0.0,4394.230957,4398.846191,4393.589844,4391.282227,4376.922852,4388.461426,4385.897461,4441.410156,4398.333496,4346.666504,4507.563965,4576.538574,4461.538574,4487.05127,,,,,,,,,,,,,,,,,,,,,,,,,,,,,,,,,,,,,,,,,,,,,,,,,,,,,,,,,,,,,,,,,,,,,,
1768972401.053781,1768972401.054417,124.0,0.0,4395.128418,4398.717773,4388.333496,4393.461426,4381.794922,4383.333496,4381.025879,4435.769043,4394.743652,4341.153809,4504.743652,4570.128418,4453.846191,4480.128418,,,,,,,,,,,,,,,,,,,,,,,,,,,,,,,,,,,,,,,,,,,,,,,,,,,,,,,,,,,,,,,,,,,,,,
1768972401.06159,1768972401.062226,125.0,0.0,4395.769043,4397.436035,4385.128418,4395.256348,4378.333496,4381.282227,4378.461426,4431.922852,4387.692383,4328.461426,4505.897461,4569.871582,4444.871582,4476.410156,,,,,,,,,,,,,,,,,,,,,,,,,,,,,,,,,,,,,,,,,,,,,,,,,,,,,,,,,,,,,,,,,,,,,,
1768972401.069398,1768972401.070134,126.0,0.0,4391.282227,4397.820313,4384.615234,4391.538574,4378.717773,4391.025879,4387.05127,4436.666504,4391.282227,4335.512695,4505.769043,4571.922852,4445.384766,4479.102539,0.535703,0.191737,0.444842,0.173159,0.179471,1.180761,0.459468,0.371484,0.217858,0.08047,0.514622,0.189984,0.192843,0.094826,0.10926,0.262459,0.151027,0.165006,0.114854,0.089158,0.262011,0.124652,0.213874,0.100228,0.051126,0.330507,0.407834,0.14136,0.199881,0.254433,0.280814,0.322008,0.135458,0.236047,0.337061,0.609042,0.18498,0.084329,0.199191,0.123163,0.549434,0.302083,0.154322,0.1548,0.100325,0.548661,0.272877,0.152655,0.188363,0.077136,0.558859,0.173059,0.192874,0.155394,0.069981,0.507867,0.254511,0.239981,0.201435,0.087059,0.371185,0.447703,0.533478,0.175405,0.142857,0.520975,0.465491,0.483769,0.230469,0.158587
1768972401.077207,1768972401.077942,127.0,0.0,4384.358887,4399.102539,4381.922852,4391.666504,4380.384766,4389.871582,4387.563965,4438.333496,4394.487305,4345.897461,4498.461426,4567.307617,4445.512695,4476.666504,,,,,,,,,,,,,,,,,,,,,,,,,,,,,,,,,,,,,,,,,,,,,,,,,,,,,,,,,,,,,,,,,,,,,,
1768972401.085015,1768972401.085951,0.0,0.0,4386.153809,4402.179688,4383.077148,4396.794922,4378.333496,4381.282227,4380.0,4435.0,4390.769043,4340.897461,4498.333496,4568.333496,4445.256348,4473.461426,,,,,,,,,,,,,,,,,,,,,,,,,,,,,,,,,,,,,,,,,,,,,,,,,,,,,,,,,,,,,,,,,,,,,,
1768972401.092824,1768972401.093759,1.0,0.0,4395.641113,4409.615234,4388.974121,4396.282227,4378.333496,4383.846191,4377.436035,4432.436035,4391.538574,4341.153809,4507.820313,4577.563965,4452.563965,4483.461426,,,,,,,,,,,,,,,,,,,,,,,,,,,,,,,,,,,,,,,,,,,,,,,,,,,,,,,,,,,,,,,,,,,,,,
1768972401.100632,1768972401.101667,2.0,0.0,4399.487305,4412.692383,4390.897461,4396.410156,4379.743652,4389.743652,4378.974121,4432.692383,4393.717773,4348.205078,4510.384766,4578.333496,4461.153809,4494.230957,,,,,,,,,,,,,,,,,,,,,,,,,,,,,,,,,,,,,,,,,,,,,,,,,,,,,,,,,,,,,,,,,,,,,,
1768972401.108441,1768972401.109476,3.0,0.0,4392.05127,4406.538574,4386.922852,4397.436035,4379.102539,4386.410156,4381.538574,4435.128418,4389.615234,4344.871582,4505.897461,4569.230957,4457.436035,4489.358887,,,,,,,,,,,,,,,,,,,,,,,,,,,,,,,,,,,,,,,,,,,,,,,,,,,,,,,,,,,,,,,,,,,,,,
1768972401.116249,1768972401.117484,4.0,0.0,4386.153809,4401.922852,4381.794922,4396.282227,4380.128418,4382.05127,4382.179688,4434.487305,4387.94873,4341.922852,4504.102539,4565.128418,4445.769043,4474.871582,,,,,,,,,,,,,,,,,,,,,,,,,,,,,,,,,,,,,,,,,,,,,,,,,,,,,,,,,,,,,,,,,,,,,,
1768972401.124057,1768972401.125293,5.0,0.0,4390.769043,4403.974121,4380.897461,4397.179688,4381.282227,4382.563965,4377.05127,4428.333496,4388.205078,4344.487305,4504.102539,4568.974121,4442.307617,4471.538574,,,,,,,,,,,,,,,,,,,,,,,,,,,,,,,,,,,,,,,,,,,,,,,,,,,,,,,,,,,,,,,,,,,,,,
1768972401.131866,1768972401.133001,6.0,0.0,4398.205078,4404.743652,4384.615234,4398.077148,4379.487305,4382.05127,4375.0,4424.487305,4387.820313,4347.179688,4506.153809,4572.563965,4451.794922,4482.436035,,,,,,,,,,,,,,,,,,,,,,,,,,,,,,,,,,,,,,,,,,,,,,,,,,,,,,,,,,,,,,,,,,,,,,
1768972401.139674,1768972401.14081,7.0,0.0,4397.94873,4404.487305,4387.436035,4397.692383,4380.0,4382.05127,4381.025879,4427.436035,4387.179688,4350.256348,4508.974121,4572.05127,4458.846191,4485.897461,,,,,,,,,,,,,,,,,,,,,,,,,,,,,,,,,,,,,,,,,,,,,,,,,,,,,,,,,,,,,,,,,,,,,,
1768972401.147483,1768972401.148418,8.0,0.0,4390.0,4406.282227,4384.487305,4397.179688,4382.563965,4381.410156,4383.846191,4429.615234,4388.205078,4350.128418,4507.563965,4568.333496,4450.897461,4475.769043,,,,,,,,,,,,,,,,,,,,,,,,,,,,,,,,,,,,,,,,,,,,,,,,,,,,,,,,,,,,,,,,,,,,,,
1768972401.155291,1768972401.156227,9.0,0.0,4385.769043,4404.871582,4378.846191,4395.897461,4379.230957,4380.256348,4382.179688,4429.102539,4391.410156,4345.641113,4505.384766,4563.717773,4443.974121,4471.282227,,,,,,,,,,,,,,,,,,,,,,,,,,,,,,,,,,,,,,,,,,,,,,,,,,,,,,,,,,,,,,,,,,,,,,
1768972401.1631,1768972401.163935,10.0,0.0,4388.589844,4403.333496,4377.179688,4395.769043,4374.230957,4382.94873,4384.230957,4432.436035,4393.461426,4345.769043,4506.794922,4564.871582,4447.94873,4478.461426,,,,,,,,,,,,,,,,,,,,,,,,,,,,,,,,,,,,,,,,,,,,,,,,,,,,,,,,,,,,,,,,,,,,,,
1768972401.170908,1768972401.171744,11.0,0.0,4390.641113,4402.94873,4380.128418,4396.153809,4376.025879,4381.794922,4381.153809,4432.563965,4388.461426,4350.0,4508.077148,4567.692383,4450.256348,4479.615234,,,,,,,,,,,,,,,,,,,,,,,,,,,,,,,,,,,,,,,,,,,,,,,,,,,,,,,,,,,,,,,,,,,,,,
1768972401.178717,1768972401.179352,12.0,0.0,4390.0,4403.717773,4379.487305,4395.769043,4379.487305,4374.743652,4372.563965,4424.871582,4382.05127,4348.461426,4504.871582,4565.512695,4446.153809,4475.897461,,,,,,,,,,,,,,,,,,,,,,,,,,,,,,,,,,,,,,,,,,,,,,,,,,,,,,,,,,,,,,,,,,,,,,
1768972401.186525,1768972401.187161,13.0,0.0,4388.077148,4404.487305,4378.717773,4396.153809,4378.077148,4379.871582,4376.666504,4421.666504,4382.307617,4343.846191,4502.820313,4566.922852,4442.179688,4473.974121,,,,,,,,,,,,,,,,,,,,,,,,,,,,,,,,,,,,,,,,,,,,,,,,,,,,,,,,,,,,,,,,,,,,,,
1768972401.194333,1768972401.195069,14.0,0.0,4387.307617,4401.153809,4378.974121,4393.333496,4377.692383,4391.538574,4384.871582,4427.436035,4387.307617,4343.333496,4505.384766,4571.666504,4441.922852,4475.128418,0.505478,0.194052,0.379826,0.179614,0.197726,1.581627,0.510915,0.34876,0.225618,0.083447,0.433275,0.185358,0.15683,0.08617,0.100842,0.252637,0.127103,0.133344,0.104431,0.08762,0.313846,0.142954,0.22179,0.107702,0.049068,0.243181,0.506732,0.139451,0.211829,0.254357,0.237643,0.411304,0.12652,0.243123,0.351174,0.500244,0.143329,0.079536,0.200062,0.117299,0.437752,0.27354,0.150491,0.146204,0.113002,0.460903,0.278505,0.159013,0.166313,0.082109,0.576356,0.193983,0.207799,0.157586,0.072605,0.53779,0.240605,0.206865,0.197851,0.08715,0.347924,0.49774,0.57565,0.188856,0.139187,0.54509,0.531825,0.445659,0.235489,0.158461
1768972401.202142,1768972401.202878,15.0,0.0,4386.922852,4400.512695,4376.922852,4389.743652,4381.538574,4389.102539,4382.692383,4433.846191,4388.205078,4346.025879,4509.102539,4567.05127,4444.871582,4485.384766,,,,,,,,,,,,,,,,,,,,,,,,,,,,,,,,,,,,,,,,,,,,,,,,,,,,,,,,,,,,,,,,,,,,,,
1768972401.20995,1768972401.210886,16.0,0.0,4385.641113,4406.410156,4375.641113,4392.563965,4382.307617,4382.307617,4377.179688,4429.743652,4384.230957,4343.974121,4505.769043,4560.512695,4445.0,4491.666504,,,,,,,,,,,,,,,,,,,,,,,,,,,,,,,,,,,,,,,,,,,,,,,,,,,,,,,,,,,,,,,,,,,,,,
1768972401.217759,1768972401.218694,17.0,0.0,4390.512695,4411.794922,4378.717773,4396.794922,4380.769043,4384.615234,4381.282227,4425.0,4385.256348,4344.871582,4505.384766,4567.436035,4448.589844,4491.538574,,,,,,,,,,,,,,,,,,,,,,,,,,,,,,,,,,,,,,,,,,,,,,,,,,,,,,,,,,,,,,,,,,,,,,
1768972401.225567,1768972401.226403,18.0,0.0,4399.871582,4413.205078,4383.846191,4398.974121,4382.05127,4387.563965,4388.461426,4428.846191,4391.410156,4351.538574,4514.615234,4578.077148,4459.358887,4499.871582,,,,,,,,,,,,,,,,,,,,,,,,,,,,,,,,,,,,,,,,,,,,,,,,,,,,,,,,,,,,,,,,,,,,,,
1768972401.233375,1768972401.234211,19.0,0.0,4396.153809,4409.487305,4383.846191,4400.128418,4381.666504,4383.333496,4385.256348,4430.641113,4389.102539,4353.205078,4515.512695,4574.615234,4460.128418,4503.717773,,,,,,,,,,,,,,,,,,,,,,,,,,,,,,,,,,,,,,,,,,,,,,,,,,,,,,,,,,,,,,,,,,,,,,
1768972401.241184,1768972401.24182,20.0,0.0,4386.666504,4404.230957,4379.615234,4398.717773,4378.461426,4377.436035,4380.256348,4424.743652,4380.512695,4349.102539,4507.05127,4566.153809,4445.769043,4492.436035,,,,,,,,,,,,,,,,,,,,,,,,,,,,,,,,,,,,,,,,,,,,,,,,,,,,,,,,,,,,,,,,,,,,,,
1768972401.248992,1768972401.249628,21.0,0.0,4391.410156,4406.922852,4380.512695,4397.05127,4377.820313,4379.102539,4385.897461,4423.846191,4378.461426,4342.179688,4506.666504,4568.333496,4441.666504,4488.077148,,,,,,,,,,,,,,,,,,,,,,,,,,,,,,,,,,,,,,,,,,,,,,,,,,,,,,,,,,,,,,,,,,,,,,
1768972401.256801,1768972401.257337,22.0,0.0,4400.0,4412.820313,4386.922852,4397.820313,4377.94873,4379.358887,4385.512695,4423.717773,4382.307617,4343.717773,4512.179688,4575.0,4454.230957,4496.282227,,,,,,,,,,,,,,,,,,,,,,,,,,,,,,,,,,,,,,,,,,,,,,,,,,,,,,,,,,,,,,,,,,,,,,
1768972401.264609,1768972401.265145,23.0,0.0,4399.487305,4411.153809,4389.358887,4399.615234,4374.487305,4373.846191,4371.922852,4416.025879,4379.487305,4354.615234,4510.384766,4575.256348,4459.230957,4498.077148,,,,,,,,,,,,,,,,,,,,,,,,,,,,,,,,,,,,,,,,,,,,,,,,,,,,,,,,,,,,,,,,,,,,,,
1768972401.272418,1768972401.273154,24.0,0.0,4397.179688,4409.871582,4386.666504,4400.512695,4375.512695,4375.384766,4379.358887,4422.563965,4378.077148,4356.666504,4508.846191,4576.282227,4451.153809,4494.358887,,,,,,,,,,,,,,,,,,,,,,,,,,,,,,,,,,,,,,,,,,,,,,,,,,,,,,,,,,,,,,,,,,,,,,
1768972401.280226,1768972401.280962,25.0,0.0,4397.179688,4412.436035,4384.743652,4398.461426,4381.025879,4385.769043,4398.077148,4432.94873,4384.743652,4351.153809,4510.512695,4580.256348,4446.922852,4492.820313,,,,,,,,,,,,,,,,,,,,,,,,,,,,,,,,,,,,,,,,,,,,,,,,,,,,,,,,,,,,,,,,,,,,,,
1768972401.288035,1768972401.28887,26.0,0.0,4398.205078,4413.717773,4384.615234,4398.717773,4378.846191,4380.897461,4382.179688,4419.743652,4382.179688,4355.0,4508.461426,4576.922852,4452.94873,4493.589844,,,,,,,,,,,,,,,,,,,,,,,,,,,,,,,,,,,,,,,,,,,,,,,,,,,,,,,,,,,,,,,,,,,,,,
1768972401.295843,1768972401.296679,27.0,0.0,4398.974121,4415.128418,4384.102539,4401.666504,4373.077148,4363.461426,4355.384766,4403.461426,4371.025879,4358.077148,4506.410156,4567.05127,4455.256348,4497.179688,,,,,,,,,,,,,,,,,,,,,,,,,,,,,,,,,,,,,,,,,,,,,,,,,,,,,,,,,,,,,,,,,,,,,,
1768972401.303651,1768972401.304687,28.0,0.0,4398.974121,4416.410156,4383.461426,4399.743652,4373.717773,4363.717773,4358.589844,4406.410156,4370.384766,4352.436035,4506.538574,4561.410156,4451.282227,4498.077148,,,,,,,,,,,,,,,,,,,,,,,,,,,,,,,,,,,,,,,,,,,,,,,,,,,,,,,,,,,,,,,,,,,,,,
1768972401.31146,1768972401.312496,29.0,0.0,4398.717773,4414.743652,4383.333496,4396.538574,4376.794922,4376.025879,4372.692383,4415.512695,4378.974121,4352.94873,4507.692383,4563.846191,4448.333496,4496.410156,,,,,,,,,,,,,,,,,,,,,,,,,,,,,,,,,,,,,,,,,,,,,,,,,,,,,,,,,,,,,,,,,,,,,,
1768972401.319268,1768972401.320404,30.0,0.0,4395.128418,4409.230957,4379.871582,4396.922852,4379.358887,4378.333496,4372.94873,4419.871582,4384.487305,4356.666504,4506.922852,4565.512695,4442.94873,4492.692383,0.453235,0.210686,0.309833,0.177356,0.209587,2.068501,0.590687,0.321418,0.219782,0.088357,0.342147,0.186038,0.135186,0.087596,0.097331,0.242495,0.101182,0.100866,0.088811,0.08766,0.353169,0.154409,0.215164,0.110812,0.049087,0.175506,0.575347,0.141275,0.218821,0.266836,0.213519,0.48222,0.115826,0.244258,0.367303,0.392637,0.114708,0.081744,0.190273,0.123188,0.337529,0.252791,0.141254,0.134674,0.134048,0.378551,0.28307,0.18303,0.138646,0.09371,0.548585,0.214485,0.228207,0.165175,0.083462,0.549087,0.245857,0.175494,0.191634,0.101981,0.323908,0.525298,0.579826,0.20278,0.135423,0.578081,0.614965,0.417302,0.235688,0.15723
1768972401.327077,1768972401.328212,31.0,0.0,4394.615234,4408.077148,4378.461426,4396.410156,4380.128418,4373.333496,4369.743652,4422.436035,4386.410156,4359.102539,4506.025879,4562.94873,4444.358887,4491.922852,,,,,,,,,,,,,,,,,,,,,,,,,,,,,,,,,,,,,,,,,,,,,,,,,,,,,,,,,,,,,,,,,,,,,,
1768972401.334885,1768972401.335821,32.0,0.0,4400.128418,4414.743652,4384.871582,4400.897461,4379.871582,4377.94873,4375.769043,4422.563965,4390.0,4365.512695,4507.436035,4563.717773,4458.461426,4501.153809,,,,,,,,,,,,,,,,,,,,,,,,,,,,,,,,,,,,,,,,,,,,,,,,,,,,,,,,,,,,,,,,,,,,,,
1768972401.342694,1768972401.343629,33.0,0.0,4400.384766,4417.563965,4387.179688,4407.05127,4382.692383,4385.769043,4387.05127,4423.333496,4390.256348,4364.871582,4510.769043,4567.692383,4462.307617,4509.358887,,,,,,,,,,,,,,,,,,,,,,,,,,,,,,,,,,,,,,,,,,,,,,,,,,,,,,,,,,,,,,,,,,,,,,
1768972401.350502,1768972401.351338,34.0,0.0,4397.820313,4414.743652,4381.153809,4401.922852,4380.128418,4378.717773,4384.743652,4422.179688,4382.692383,4358.461426,4508.333496,4564.358887,4448.589844,4503.461426,,,,,,,,,,,,,,,,,,,,,,,,,,,,,,,,,,,,,,,,,,,,,,,,,,,,,,,,,,,,,,,,,,,,,,
1768972401.358311,1768972401.359146,35.0,0.0,4395.769043,4412.436035,4376.282227,4395.512695,4372.692383,4368.846191,4371.153809,4412.692383,4372.05127,4354.358887,4498.205078,4551.282227,4444.102539,4493.077148,,,,,,,,,,,,,,,,,,,,,,,,,,,,,,,,,,,,,,,,,,,,,,,,,,,,,,,,,,,,,,,,,,,,,,
1768972401.366119,1768972401.366755,36.0,0.0,4389.487305,4411.410156,4375.256348,4396.538574,4373.205078,4374.871582,4371.922852,4410.769043,4369.743652,4348.974121,4490.256348,4545.256348,4449.743652,4491.153809,,,,,,,,,,,,,,,,,,,,,,,,,,,,,,,,,,,,,,,,,,,,,,,,,,,,,,,,,,,,,,,,,,,,,,
1768972401.373927,1768972401.374564,37.0,0.0,4389.743652,4417.436035,4375.641113,4399.487305,4376.282227,4382.05127,4382.692383,4418.461426,4372.307617,4347.05127,4493.205078,4551.538574,4447.820313,4493.461426,,,,,,,,,,,,,,,,,,,,,,,,,,,,,,,,,,,,,,,,,,,,,,,,,,,,,,,,,,,,,,,,,,,,,,
1768972401.381736,1768972401.382272,38.0,0.0,4399.871582,4425.897461,4378.846191,4400.769043,4373.461426,4375.897461,4379.871582,4419.871582,4372.563965,4355.256348,4498.846191,4555.128418,4445.641113,4497.179688,,,,,,,,,,,,,,,,,,,,,,,,,,,,,,,,,,,,,,,,,,,,,,,,,,,,,,,,,,,,,,,,,,,,,,
1768972401.389544,1768972401.390081,39.0,0.0,4401.794922,4421.922852,4379.615234,4400.769043,4374.871582,4369.743652,4369.102539,4412.820313,4370.769043,4357.820313,4495.512695,4548.846191,4448.205078,4498.846191,,,,,,,,,,,,,,,,,,,,,,,,,,,,,,,,,,,,,,,,,,,,,,,,,,,,,,,,,,,,,,,,,,,,,,
1768972401.397353,1768972401.398089,40.0,0.0,4394.871582,4412.692383,4378.589844,4399.358887,4380.0,4373.461426,4369.615234,4406.410156,4367.436035,4348.333496,4490.641113,4543.974121,4444.743652,4494.102539,,,,,,,,,,,,,,,,,,,,,,,,,,,,,,,,,,,,,,,,,,,,,,,,,,,,,,,,,,,,,,,,,,,,,,
1768972401.405161,1768972401.405897,41.0,0.0,4394.743652,4411.410156,4376.282227,4395.0,4378.333496,4371.153809,4371.794922,4406.282227,4365.641113,4341.794922,4488.846191,4543.846191,4433.077148,4488.589844,,,,,,,,,,,,,,,,,,,,,,,,,,,,,,,,,,,,,,,,,,,,,,,,,,,,,,,,,,,,,,,,,,,,,,
1768972401.41297,1768972401.413806,42.0,0.0,4398.077148,4411.666504,4370.769043,4392.94873,4376.538574,4363.974121,4369.102539,4410.256348,4369.487305,4344.102539,4487.820313,4542.820313,4429.743652,4487.436035,,,,,,,,,,,,,,,,,,,,,,,,,,,,,,,,,,,,,,,,,,,,,,,,,,,,,,,,,,,,,,,,,,,,,,
1768972401.420778,1768972401.421614,43.0,0.0,4394.871582,4408.717773,4370.769043,4393.077148,4375.384766,4366.538574,4371.153809,4413.333496,4375.769043,4349.487305,4489.871582,4541.666504,4439.487305,4490.384766,,,,,,,,,,,,,,,,,,,,,,,,,,,,,,,,,,,,,,,,,,,,,,,,,,,,,,,,,,,,,,,,,,,,,,
1768972401.428587,1768972401.429223,44.0,0.0,4388.589844,4407.94873,4373.461426,4393.461426,4373.846191,4372.692383,4374.102539,4411.153809,4375.128418,4351.922852,4492.692383,4542.436035,4445.769043,4493.205078,,,,,,,,,,,,,,,,,,,,,,,,,,,,,,,,,,,,,,,,,,,,,,,,,,,,,,,,,,,,,,,,,,,,,,
1768972401.436395,1768972401.437031,45.0,0.0,4387.94873,4407.179688,4373.461426,4396.794922,4377.692383,4373.077148,4374.230957,4408.077148,4370.256348,4350.897461,4490.512695,4546.410156,4438.461426,4489.102539,,,,,,,,,,,,,,,,,,,,,,,,,,,,,,,,,,,,,,,,,,,,,,,,,,,,,,,,,,,,,,,,,,,,,,
1768972401.444204,1768972401.44474,46.0,0.0,4392.436035,4400.897461,4375.641113,4397.692383,4378.846191,4372.307617,4374.871582,4410.512695,4372.05127,4349.487305,4488.077148,4547.692383,4429.871582,4479.487305,0.389326,0.235937,0.241797,0.171196,0.208531,2.507622,0.668854,0.286797,0.203338,0.090432,0.269521,0.188695,0.120781,0.099826,0.098134,0.221436,0.078179,0.07206,0.073662,0.089185,0.367595,0.156052,0.193657,0.108507,0.051711,0.142435,0.591416,0.139448,0.220688,0.292118,0.210092,0.51102,0.103485,0.241337,0.388488,0.300905,0.102102,0.087989,0.177779,0.144562,0.273437,0.232233,0.126831,0.119349,0.162264,0.316393,0.283829,0.221924,0.114085,0.111776,0.485976,0.229892,0.245285,0.176908,0.09952,0.524597,0.254277,0.146375,0.185068,0.128144,0.295447,0.527346,0.545151,0.218196,0.133134,0.586044,0.693583,0.386079,0.231321,0.155035
1768972401.452012,1768972401.452548,47.0,0.0,4394.230957,4394.230957,4376.794922,4393.205078,4373.589844,4374.230957,4376.282227,4414.615234,4376.922852,4349.102539,4490.0,4545.641113,4432.436035,4478.205078,,,,,,,,,,,,,,,,,,,,,,,,,,,,,,,,,,,,,,,,,,,,,,,,,,,,,,,,,,,,,,,,,,,,,,
1768972401.45982,1768972401.460556,48.0,0.0,4394.871582,4398.333496,4373.717773,4392.94873,4371.794922,4372.692383,4370.641113,4411.282227,4371.666504,4350.897461,4490.128418,4545.897461,4441.153809,4485.769043,,,,,,,,,,,,,,,,,,,,,,,,,,,,,,,,,,,,,,,,,,,,,,,,,,,,,,,,,,,,,,,,,,,,,,
1768972401.467629,1768972401.468365,49.0,0.0,4396.794922,4406.666504,4372.692383,4398.205078,4376.410156,4370.256348,4367.05127,4408.077148,4367.563965,4353.974121,4491.153809,4547.94873,4445.641113,4491.922852,,,,,,,,,,,,,,,,,,,,,,,,,,,,,,,,,,,,,,,,,,,,,,,,,,,,,,,,,,,,,,,,,,,,,,
1768972401.475437,1768972401.476273,50.0,0.0,4397.179688,4404.102539,4374.358887,4398.205078,4375.641113,4370.384766,4370.256348,4412.307617,4375.128418,4352.692383,4492.94873,4546.538574,4443.077148,4491.153809,,,,,,,,,,,,,,,,,,,,,,,,,,,,,,,,,,,,,,,,,,,,,,,,,,,,,,,,,,,,,,,,,,,,,,
1768972401.483246,1768972401.484082,51.0,0.0,4396.922852,4401.538574,4372.563965,4396.282227,4372.307617,4373.589844,4374.102539,4409.743652,4375.384766,4348.974121,4490.128418,4544.871582,4440.641113,4488.077148,,,,,,,,,,,,,,,,,,,,,,,,,,,,,,,,,,,,,,,,,,,,,,,,,,,,,,,,,,,,,,,,,,,,,,
1768972401.491054,1768972401.49209,52.0,0.0,4398.846191,4407.94873,4371.922852,4399.358887,4377.179688,4377.05127,4375.256348,4402.307617,4368.461426,4352.05127,4490.512695,4548.846191,4443.717773,4489.487305,,,,,,,,,,,,,,,,,,,,,,,,,,,,,,,,,,,,,,,,,,,,,,,,,,,,,,,,,,,,,,,,,,,,,,
1768972401.498863,1768972401.499898,53.0,0.0,4399.102539,4408.974121,4371.922852,4398.333496,4380.769043,4373.846191,4369.102539,4404.743652,4372.05127,4356.025879,4491.410156,4549.487305,4443.846191,4488.717773,,,,,,,,,,,,,,,,,,,,,,,,,,,,,,,,,,,,,,,,,,,,,,,,,,,,,,,,,,,,,,,,,,,,,,
1768972401.506671,1768972401.507807,54.0,0.0,4390.769043,4399.743652,4368.205078,4391.922852,4375.897461,4369.871582,4364.358887,4406.025879,4375.897461,4351.794922,4481.410156,4542.05127,4433.717773,4478.461426,,,,,,,,,,,,,,,,,,,,,,,,,,,,,,,,,,,,,,,,,,,,,,,,,,,,,,,,,,,,,,,,,,,,,,
1768972401.51448,1768972401.515615,55.0,0.0,4383.589844,4396.922852,4365.384766,4389.487305,4373.846191,4372.692383,4366.025879,4401.153809,4372.307617,4349.358887,4476.922852,4539.230957,4429.615234,4473.974121,,,,,,,,,,,,,,,,,,,,,,,,,,,,,,,,,,,,,,,,,,,,,,,,,,,,,,,,,,,,,,,,,,,,,,
1768972401.522288,1768972401.523623,56.0,0.0,4385.641113,4400.512695,4367.05127,4390.641113,4377.436035,4374.102539,4366.153809,4403.974121,4372.94873,4354.102539,4488.589844,4545.128418,4440.256348,4482.692383,,,,,,,,,,,,,,,,,,,,,,,,,,,,,,,,,,,,,,,,,,,,,,,,,,,,,,,,,,,,,,,,,,,,,,
1768972401.530096,1768972401.531432,57.0,0.0,4387.05127,4398.846191,4369.487305,4389.230957,4375.0,4370.0,4365.384766,4405.384766,4375.128418,4356.538574,4495.512695,4545.384766,4445.512695,4486.794922,,,,,,,,,,,,,,,,,,,,,,,,,,,,,,,,,,,,,,,,,,,,,,,,,,,,,,,,,,,,,,,,,,,,,,
1768972401.537905,1768972401.53914,58.0,0.0,4387.692383,4395.769043,4371.410156,4386.922852,4370.512695,4371.538574,4364.358887,4399.230957,4372.05127,4353.974121,4490.384766,4538.846191,4441.410156,4482.820313,,,,,,,,,,,,,,,,,,,,,,,,,,,,,,,,,,,,,,,,,,,,,,,,,,,,,,,,,,,,,,,,,,,,,,
1768972401.545713,1768972401.546949,59.0,0.0,4387.179688,4397.692383,4374.230957,4390.641113,4372.436035,4375.641113,4360.897461,4398.717773,4371.282227,4352.563965,4488.461426,4538.717773,4440.512695,4477.820313,,,,,,,,,,,,,,,,,,,,,,,,,,,,,,,,,,,,,,,,,,,,,,,,,,,,,,,,,,,,,,,,,,,,,,
1768972401.553522,1768972401.554557,60.0,0.0,4383.589844,4403.333496,4377.820313,4394.743652,4372.563965,4372.820313,4360.256348,4401.538574,4374.102539,4355.128418,4489.743652,4542.307617,4442.179688,4476.410156,,,,,,,,,,,,,,,,,,,,,,,,,,,,,,,,,,,,,,,,,,,,,,,,,,,,,,,,,,,,,,,,,,,,,,
1768972401.56133,1768972401.562366,61.0,0.0,4383.846191,4407.307617,4380.384766,4391.666504,4371.282227,4371.410156,4368.717773,4403.717773,4378.333496,4357.563965,4491.025879,4545.0,4443.205078,4485.0,,,,,,,,,,,,,,,,,,,,,,,,,,,,,,,,,,,,,,,,,,,,,,,,,,,,,,,,,,,,,,,,,,,,,,
1768972401.569139,1768972401.570074,62.0,0.0,4385.897461,4405.0,4377.436035,4388.205078,4372.05127,4375.641113,4374.615234,4408.717773,4386.025879,4360.512695,4494.230957,4545.128418,4445.897461,4489.358887,0.335244,0.262284,0.179649,0.16875,0.193085,2.751672,0.705992,0.246182,0.183523,0.086635,0.229682,0.1914,0.108955,0.123249,0.101017,0.197882,0.062243,0.050169,0.064136,0.09065,0.350717,0.147566,0.162634,0.101027,0.056785,0.137063,0.552308,0.131901,0.2186,0.324723,0.210327,0.491006,0.091683,0.238271,0.413533,0.22622,0.105277,0.095152,0.172598,0.178021,0.230146,0.213128,0.110851,0.104414,0.192187,0.305033,0.281878,0.266999,0.100237,0.133942,0.39154,0.238549,0.251807,0.190969,0.116603,0.457235,0.253632,0.122071,0.185115,0.159363,0.277422,0.509502,0.482804,0.239075,0.134629,0.572196,0.749991,0.347095,0.228477,0.154272
1768972401.576947,1768972401.577883,63.0,0.0,4381.282227,4401.410156,4372.307617,4390.256348,4372.179688,4378.205078,4372.94873,4409.615234,4386.025879,4364.102539,4494.358887,4539.743652,4446.666504,4483.589844,,,,,,,,,,,,,,,,,,,,,,,,,,,,,,,,,,,,,,,,,,,,,,,,,,,,,,,,,,,,,,,,,,,,,,
1768972401.584756,1768972401.585491,64.0,0.0,4378.846191,4405.769043,4374.358887,4397.563965,4372.820313,4375.897461,4373.333496,4402.436035,4377.692383,4361.794922,4490.897461,4537.563965,4444.102539,4481.153809,,,,,,,,,,,,,,,,,,,,,,,,,,,,,,,,,,,,,,,,,,,,,,,,,,,,,,,,,,,,,,,,,,,,,,
1768972401.592564,1768972401.5933,65.0,0.0,4385.641113,4411.153809,4378.461426,4397.179688,4373.077148,4373.333496,4375.897461,4399.615234,4376.153809,4358.846191,4490.384766,4541.666504,4443.333496,4481.153809,,,,,,,,,,,,,,,,,,,,,,,,,,,,,,,,,,,,,,,,,,,,,,,,,,,,,,,,,,,,,,,,,,,,,,
1768972401.600372,1768972401.601208,66.0,0.0,4387.692383,4408.461426,4372.692383,4389.102539,4371.538574,4370.641113,4372.563965,4402.820313,4381.794922,4362.94873,4491.410156,4543.846191,4443.717773,4479.102539,,,,,,,,,,,,,,,,,,,,,,,,,,,,,,,,,,,,,,,,,,,,,,,,,,,,,,,,,,,,,,,,,,,,,,
1768972401.608181,1768972401.609017,67.0,0.0,4386.410156,4406.794922,4367.05127,4387.692383,4371.666504,4371.410156,4366.282227,4402.179688,4384.871582,4364.358887,4490.769043,4545.384766,4445.0,4485.769043,,,,,,,,,,,,,,,,,,,,,,,,,,,,,,,,,,,,,,,,,,,,,,,,,,,,,,,,,,,,,,,,,,,,,,
1768972401.615989,1768972401.617025,68.0,0.0,4390.512695,4410.0,4371.666504,4394.615234,4373.589844,4368.589844,4364.230957,4396.538574,4380.512695,4358.205078,4491.025879,4546.410156,4446.282227,4495.641113,,,,,,,,,,,,,,,,,,,,,,,,,,,,,,,,,,,,,,,,,,,,,,,,,,,,,,,,,,,,,,,,,,,,,,
1768972401.623798,1768972401.624833,69.0,0.0,4397.94873,4413.589844,4378.333496,4398.846191,4371.794922,4363.461426,4365.641113,4393.077148,4375.0,4356.410156,4492.05127,4543.589844,4446.410156,4493.974121,,,,,,,,,,,,,,,,,,,,,,,,,,,,,,,,,,,,,,,,,,,,,,,,,,,,,,,,,,,,,,,,,,,,,,
1768972401.631606,1768972401.632742,70.0,0.0,4398.333496,4414.487305,4377.436035,4397.307617,4371.025879,4371.153809,4368.717773,4396.538574,4376.153809,4357.436035,4489.358887,4542.820313,4444.871582,4487.179688,,,,,,,,,,,,,,,,,,,,,,,,,,,,,,,,,,,,,,,,,,,,,,,,,,,,,,,,,,,,,,,,,,,,,,
1768972401.639414,1768972401.64055,71.0,0.0,4390.512695,4412.94873,4372.179688,4396.025879,4374.615234,4376.666504,4367.563965,4398.589844,4378.717773,4355.512695,4487.436035,4545.641113,4441.410156,4485.641113,,,,,,,,,,,,,,,,,,,,,,,,,,,,,,,,,,,,,,,,,,,,,,,,,,,,,,,,,,,,,,,,,,,,,,
1768972401.647223,1768972401.648159,72.0,0.0,4387.94873,4414.230957,4371.153809,4395.769043,4373.974121,4367.563965,4359.358887,4392.94873,4376.538574,4356.282227,4489.871582,4545.128418,4441.666504,4489.230957,,,,,,,,,,,,,,,,,,,,,,,,,,,,,,,,,,,,,,,,,,,,,,,,,,,,,,,,,,,,,,,,,,,,,,
1768972401.655031,1768972401.655967,73.0,0.0,4390.641113,4418.333496,4374.230957,4397.563965,4372.563965,4361.282227,4357.820313,4387.692383,4374.615234,4357.05127,4486.794922,4543.589844,4444.102539,4492.05127,,,,,,,,,,,,,,,,,,,,,,,,,,,,,,,,,,,,,,,,,,,,,,,,,,,,,,,,,,,,,,,,,,,,,,
1768972401.66284,1768972401.663676,74.0,0.0,4390.128418,4415.384766,4374.871582,4399.615234,4374.102539,4367.436035,4366.666504,4387.94873,4375.128418,4355.256348,4476.922852,4541.666504,4442.179688,4489.358887,,,,,,,,,,,,,,,,,,,,,,,,,,,,,,,,,,,,,,,,,,,,,,,,,,,,,,,,,,,,,,,,,,,,,,
1768972401.670648,1768972401.671484,75.0,0.0,4387.94873,4413.717773,4372.436035,4397.692383,4374.615234,4370.512695,4366.922852,4390.384766,4375.769043,4355.384766,4475.0,4537.94873,4440.0,4484.487305,,,,,,,,,,,,,,,,,,,,,,,,,,,,,,,,,,,,,,,,,,,,,,,,,,,,,,,,,,,,,,,,,,,,,,
1768972401.678457,1768972401.679493,76.0,0.0,4392.563965,4422.179688,4374.743652,4398.077148,4372.563965,4362.692383,4357.307617,4393.205078,4378.333496,4355.384766,4485.128418,4540.0,4440.641113,4484.487305,,,,,,,,,,,,,,,,,,,,,,,,,,,,,,,,,,,,,,,,,,,,,,,,,,,,,,,,,,,,,,,,,,,,,,
1768972401.686265,1768972401.687301,77.0,0.0,4397.563965,4425.897461,4378.717773,4402.94873,4373.589844,4361.153809,4357.436035,4390.384766,4376.922852,4354.230957,4489.871582,4544.871582,4442.436035,4489.102539,,,,,,,,,,,,,,,,,,,,,,,,,,,,,,,,,,,,,,,,,,,,,,,,,,,,,,,,,,,,,,,,,,,,,,
1768972401.694074,1768972401.695209,78.0,0.0,4393.717773,4420.769043,4378.205078,4404.743652,4377.820313,4371.153809,4367.563965,4386.025879,4371.282227,4354.102539,4480.769043,4544.871582,4443.333496,4491.410156,0.296203,0.278555,0.126676,0.174415,0.167517,2.668907,0.677901,0.204288,0.167215,0.076849,0.21606,0.188714,0.097461,0.154519,0.102758,0.171419,0.056869,0.03594,0.062436,0.08975,0.308433,0.132982,0.130947,0.090006,0.06314,0.155534,0.475728,0.122019,0.215019,0.354499,0.214078,0.441526,0.086216,0.240298,0.437479,0.186885,0.124296,0.101954,0.182218,0.214196,0.211083,0.208326,0.101422,0.097123,0.215719,0.326635,0.278157,0.302533,0.101558,0.155659,0.304453,0.237889,0.242028,0.202388,0.129981,0.380054,0.239814,0.106429,0.195417,0.187701,0.270853,0.47494,0.406851,0.268444,0.142089,0.542873,0.768614,0.302737,0.233071,0.156624
1768972401.701882,1768972401.703018,79.0,0.0,4389.102539,4420.128418,4377.692383,4400.0,4378.333496,4372.307617,4370.128418,4387.692383,4371.153809,4353.974121,4474.102539,4542.692383,4438.461426,4487.820313,,,,,,,,,,,,,,,,,,,,,,,,,,,,,,,,,,,,,,,,,,,,,,,,,,,,,,,,,,,,,,,,,,,,,,
1768972401.70969,1768972401.711026,80.0,0.0,4388.333496,4420.641113,4378.846191,4396.794922,4377.692383,4361.794922,4362.94873,4387.05127,4372.05127,4353.461426,4478.589844,4540.769043,4433.077148,4483.846191,,,,,,,,,,,,,,,,,,,,,,,,,,,,,,,,,,,,,,,,,,,,,,,,,,,,,,,,,,,,,,,,,,,,,,
1768972401.717499,1768972401.718834,81.0,0.0,4390.641113,4416.282227,4377.05127,4396.794922,4377.820313,4361.794922,4357.563965,4382.179688,4370.641113,4355.641113,4482.05127,4538.717773,4438.846191,4485.897461,,,,,,,,,,,,,,,,,,,,,,,,,,,,,,,,,,,,,,,,,,,,,,,,,,,,,,,,,,,,,,,,,,,,,,
1768972401.725307,1768972401.726543,82.0,0.0,4391.794922,4413.461426,4371.666504,4395.641113,4375.256348,4368.589844,4357.563965,4383.974121,4372.692383,4357.563965,4479.615234,4537.436035,4444.230957,4485.897461,,,,,,,,,,,,,,,,,,,,,,,,,,,,,,,,,,,,,,,,,,,,,,,,,,,,,,,,,,,,,,,,,,,,,,
1768972401.733116,1768972401.734351,83.0,0.0,4383.461426,4410.384766,4370.769043,4391.410156,4371.794922,4369.743652,4362.94873,4387.05127,4373.461426,4357.05127,4480.0,4537.692383,4437.692383,4479.743652,,,,,,,,,,,,,,,,,,,,,,,,,,,,,,,,,,,,,,,,,,,,,,,,,,,,,,,,,,,,,,,,,,,,,,
1768972401.740924,1768972401.74196,84.0,0.0,4376.538574,4408.974121,4374.743652,4388.974121,4372.94873,4368.717773,4371.666504,4388.461426,4372.820313,4357.94873,4480.512695,4537.692383,4429.615234,4476.538574,,,,,,,,,,,,,,,,,,,,,,,,,,,,,,,,,,,,,,,,,,,,,,,,,,,,,,,,,,,,,,,,,,,,,,
1768972401.748733,1768972401.749769,85.0,0.0,4386.153809,4412.436035,4374.743652,4392.94873,4373.846191,4368.077148,4369.230957,4390.897461,4373.974121,4358.205078,4476.666504,4534.487305,4426.666504,4481.922852,,,,,,,,,,,,,,,,,,,,,,,,,,,,,,,,,,,,,,,,,,,,,,,,,,,,,,,,,,,,,,,,,,,,,,
1768972401.756541,1768972401.757677,86.0,0.0,4395.128418,4414.102539,4368.461426,4394.615234,4372.563965,4368.333496,4361.282227,4387.436035,4372.307617,4356.922852,4481.794922,4533.974121,4434.615234,4490.512695,,,,,,,,,,,,,,,,,,,,,,,,,,,,,,,,,,,,,,,,,,,,,,,,,,,,,,,,,,,,,,,,,,,,,,
1768972401.76435,1768972401.765485,87.0,0.0,4389.230957,4413.974121,4365.128418,4390.0,4374.615234,4365.384766,4363.333496,4381.922852,4367.436035,4358.846191,4492.820313,4540.897461,4448.461426,4495.384766,,,,,,,,,,,,,,,,,,,,,,,,,,,,,,,,,,,,,,,,,,,,,,,,,,,,,,,,,,,,,,,,,,,,,,
1768972401.772158,1768972401.773094,88.0,0.0,4382.563965,4415.256348,4368.589844,4386.794922,4375.0,4358.333496,4367.94873,4385.256348,4370.256348,4362.436035,4488.333496,4541.025879,4442.820313,4489.230957,,,,,,,,,,,,,,,,,,,,,,,,,,,,,,,,,,,,,,,,,,,,,,,,,,,,,,,,,,,,,,,,,,,,,,
1768972401.779966,1768972401.780902,89.0,0.0,4382.05127,4416.922852,4372.820313,4389.743652,4371.922852,4361.922852,4365.256348,4392.307617,4381.282227,4365.897461,4482.05127,4533.589844,4431.666504,4482.05127,,,,,,,,,,,,,,,,,,,,,,,,,,,,,,,,,,,,,,,,,,,,,,,,,,,,,,,,,,,,,,,,,,,,,,
1768972401.787775,1768972401.788611,90.0,0.0,4384.615234,4414.615234,4376.153809,4390.897461,4371.794922,4371.666504,4365.769043,4389.871582,4381.538574,4367.820313,4487.692383,4534.871582,4438.589844,4485.384766,,,,,,,,,,,,,,,,,,,,,,,,,,,,,,,,,,,,,,,,,,,,,,,,,,,,,,,,,,,,,,,,,,,,,,
1768972401.795583,1768972401.796419,91.0,0.0,4387.820313,4411.794922,4375.128418,4389.230957,4375.897461,4368.974121,4367.563965,4382.94873,4372.563965,4366.922852,4487.179688,4540.0,4443.589844,4486.153809,,,,,,,,,,,,,,,,,,,,,,,,,,,,,,,,,,,,,,,,,,,,,,,,,,,,,,,,,,,,,,,,,,,,,,
1768972401.803392,1768972401.804428,92.0,0.0,4384.487305,4412.820313,4370.256348,4388.589844,4376.666504,4360.384766,4360.384766,4383.205078,4370.897461,4366.410156,4479.487305,4538.461426,4439.487305,4481.153809,,,,,,,,,,,,,,,,,,,,,,,,,,,,,,,,,,,,,,,,,,,,,,,,,,,,,,,,,,,,,,,,,,,,,,
1768972401.8112,1768972401.812236,93.0,0.0,4380.384766,4414.230957,4370.256348,4388.717773,4372.436035,4359.102539,4356.153809,4384.230957,4373.846191,4364.230957,4478.589844,4535.769043,4439.487305,4481.282227,,,,,,,,,,,,,,,,,,,,,,,,,,,,,,,,,,,,,,,,,,,,,,,,,,,,,,,,,,,,,,,,,,,,,,
1768972401.819009,1768972401.820144,94.0,0.0,4383.717773,4411.153809,4370.641113,4391.410156,4372.94873,4366.025879,4362.436035,4382.820313,4373.333496,4359.871582,4479.615234,4534.615234,4436.922852,4479.230957,0.281814,0.276933,0.090563,0.186774,0.139604,2.292437,0.590344,0.167146,0.158178,0.064528,0.221407,0.177478,0.086661,0.186435,0.100759,0.151445,0.062602,0.027792,0.067905,0.085119,0.2477,0.118572,0.107038,0.077769,0.068994,0.181567,0.387909,0.114219,0.2112,0.370164,0.216896,0.396172,0.092893,0.249117,0.452925,0.16084,0.157846,0.107061,0.207107,0.241688,0.199805,0.228286,0.103657,0.102849,0.225708,0.367659,0.271134,0.314056,0.117514,0.171601,0.222873,0.228323,0.21507,0.205284,0.136267,0.334862,0.21509,0.09986,0.213395,0.205671,0.264648,0.431048,0.331527,0.304969,0.156584,0.491865,0.74898,0.266278,0.247331,0.162299
1768972401.826817,1768972401.827953,95.0,0.0,4381.538574,4406.922852,4365.512695,4389.230957,4375.512695,4370.256348,4364.230957,4382.692383,4370.0,4358.077148,4476.922852,4531.922852,4428.333496,4473.717773,,,,,,,,,,,,,,,,,,,,,,,,,,,,,,,,,,,,,,,,,,,,,,,,,,,,,,,,,,,,,,,,,,,,,,
1768972401.834626,1768972401.835961,96.0,0.0,4372.692383,4402.563965,4359.487305,4380.256348,4371.922852,4365.384766,4360.641113,4380.256348,4365.0,4356.922852,4473.077148,4525.0,4425.256348,4473.846191,,,,,,,,,,,,,,,,,,,,,,,,,,,,,,,,,,,,,,,,,,,,,,,,,,,,,,,,,,,,,,,,,,,,,,
1768972401.842434,1768972401.84377,97.0,0.0,4370.641113,4398.846191,4357.820313,4377.307617,4367.820313,4363.461426,4363.974121,4378.974121,4363.077148,4354.358887,4470.256348,4516.282227,4426.282227,4473.974121,,,,,,,,,,,,,,,,,,,,,,,,,,,,,,,,,,,,,,,,,,,,,,,,,,,,,,,,,,,,,,,,,,,,,,
1768972401.850243,1768972401.851478,98.0,0.0,4373.589844,4398.974121,4360.641113,4382.94873,4369.358887,4366.538574,4368.974121,4385.897461,4366.153809,4355.384766,4472.692383,4515.0,4426.794922,4472.692383,,,,,,,,,,,,,,,,,,,,,,,,,,,,,,,,,,,,,,,,,,,,,,,,,,,,,,,,,,,,,,,,,,,,,,
1768972401.858051,1768972401.859287,99.0,0.0,4374.615234,4399.102539,4360.256348,4382.05127,4367.179688,4365.641113,4365.897461,4385.641113,4366.153809,4356.922852,4474.743652,4521.282227,4427.307617,4473.589844,,,,,,,,,,,,,,,,,,,,,,,,,,,,,,,,,,,,,,,,,,,,,,,,,,,,,,,,,,,,,,,,,,,,,,
1768972401.865859,1768972401.867295,100.0,0.0,4373.589844,4396.922852,4355.384766,4374.102539,4364.487305,4363.717773,4362.563965,4378.333496,4365.0,4356.282227,4472.563965,4525.897461,4427.692383,4473.589844,,,,,,,,,,,,,,,,,,,,,,,,,,,,,,,,,,,,,,,,,,,,,,,,,,,,,,,,,,,,,,,,,,,,,,
1768972401.873668,1768972401.875103,101.0,0.0,4368.846191,4396.153809,4352.05127,4374.102539,4368.205078,4365.769043,4365.256348,4380.256348,4368.717773,4360.256348,4473.589844,4526.794922,4428.974121,4472.692383,,,,,,,,,,,,,,,,,,,,,,,,,,,,,,,,,,,,,,,,,,,,,,,,,,,,,,,,,,,,,,,,,,,,,,
1768972401.881476,1768972401.883012,102.0,0.0,4366.666504,4395.128418,4354.871582,4377.436035,4371.025879,4367.563965,4368.974121,4383.974121,4372.692383,4365.0,4476.410156,4528.461426,4430.256348,4472.307617,,,,,,,,,,,,,,,,,,,,,,,,,,,,,,,,,,,,,,,,,,,,,,,,,,,,,,,,,,,,,,,,,,,,,,
1768972401.889285,1768972401.89082,103.0,0.0,4375.769043,4397.179688,4363.846191,4381.153809,4369.615234,4365.384766,4366.794922,4381.794922,4373.333496,4366.153809,4477.436035,4532.436035,4434.487305,4474.615234,,,,,,,,,,,,,,,,,,,,,,,,,,,,,,,,,,,,,,,,,,,,,,,,,,,,,,,,,,,,,,,,,,,,,,
1768972401.897093,1768972401.898429,104.0,0.0,4385.512695,4407.692383,4372.307617,4386.410156,4371.538574,4367.436035,4366.282227,4380.897461,4373.717773,4368.461426,4479.230957,4534.871582,4443.077148,4478.077148,,,,,,,,,,,,,,,,,,,,,,,,,,,,,,,,,,,,,,,,,,,,,,,,,,,,,,,,,,,,,,,,,,,,,,
1768972401.904902,1768972401.906237,105.0,0.0,4381.410156,4408.974121,4366.153809,4386.025879,4375.384766,4367.820313,4367.05127,4381.282227,4373.077148,4369.743652,4479.230957,4532.179688,4445.897461,4478.333496,,,,,,,,,,,,,,,,,,,,,,,,,,,,,,,,,,,,,,,,,,,,,,,,,,,,,,,,,,,,,,,,,,,,,,
1768972401.91271,1768972401.913946,106.0,0.0,4373.333496,4396.282227,4352.436035,4378.974121,4373.077148,4359.871582,4361.025879,4379.871582,4370.512695,4367.94873,4476.538574,4528.589844,4437.05127,4472.563965,,,,,,,,,,,,,,,,,,,,,,,,,,,,,,,,,,,,,,,,,,,,,,,,,,,,,,,,,,,,,,,,,,,,,,
1768972401.920519,1768972401.921754,107.0,0.0,4371.922852,4392.94873,4354.743652,4376.794922,4368.974121,4358.717773,4359.743652,4382.05127,4369.615234,4365.769043,4474.871582,4530.128418,4428.974121,4469.743652,,,,,,,,,,,,,,,,,,,,,,,,,,,,,,,,,,,,,,,,,,,,,,,,,,,,,,,,,,,,,,,,,,,,,,
1768972401.928327,1768972401.929763,108.0,0.0,4374.871582,4398.974121,4364.487305,4384.358887,4370.384766,4369.102539,4368.846191,4383.205078,4370.897461,4365.256348,4476.922852,4533.846191,4431.794922,4473.717773,,,,,,,,,,,,,,,,,,,,,,,,,,,,,,,,,,,,,,,,,,,,,,,,,,,,,,,,,,,,,,,,,,,,,,
1768972401.936135,1768972401.937571,109.0,0.0,4377.820313,4397.692383,4364.743652,4386.410156,4373.333496,4368.589844,4372.692383,4381.666504,4371.666504,4365.0,4478.077148,4530.641113,4434.615234,4476.153809,,,,,,,,,,,,,,,,,,,,,,,,,,,,,,,,,,,,,,,,,,,,,,,,,,,,,,,,,,,,,,,,,,,,,,
1768972401.943944,1768972401.94528,110.0,0.0,4379.743652,4394.102539,4365.769043,4382.436035,4374.102539,4359.615234,4368.974121,4385.0,4373.077148,4366.922852,4476.666504,4526.410156,4432.563965,4474.743652,0.27966,0.255052,0.079687,0.198853,0.117091,1.695532,0.469531,0.140489,0.155837,0.055025,0.2213,0.159856,0.079053,0.210327,0.094517,0.129384,0.07618,0.024338,0.077718,0.077647,0.185475,0.108427,0.093901,0.066787,0.072421,0.207496,0.311138,0.110217,0.206929,0.364774,0.226877,0.382949,0.113951,0.262139,0.453259,0.151483,0.199391,0.108681,0.239281,0.251958,0.194904,0.270743,0.115664,0.120798,0.219066,0.410978,0.256311,0.29292,0.14236,0.177261,0.169411,0.212762,0.177369,0.196998,0.135368,0.328927,0.183683,0.098117,0.231762,0.2086,0.255628,0.383388,0.267409,0.341793,0.176952,0.449682,0.695555,0.248713,0.268914,0.169703
1768972401.951752,1768972401.953088,111.0,0.0,4379.230957,4397.05127,4368.461426,4384.743652,4373.077148,4363.846191,4366.282227,4385.384766,4368.846191,4365.384766,4477.692383,4527.179688,4431.410156,4470.384766,,,,,,,,,,,,,,,,,,,,,,,,,,,,,,,,,,,,,,,,,,,,,,,,,,,,,,,,,,,,,,,,,,,,,,
1768972401.959561,1768972401.960697,112.0,0.0,4373.717773,4398.333496,4363.846191,4385.512695,4371.538574,4367.692383,4364.230957,4375.0,4359.871582,4358.846191,4472.692383,4523.205078,4431.153809,4461.794922,,,,,,,,,,,,,,,,,,,,,,,,,,,,,,,,,,,,,,,,,,,,,,,,,,,,,,,,,,,,,,,,,,,,,,
1768972401.967369,1768972401.968505,113.0,0.0,4370.769043,4395.384766,4355.641113,4380.512695,4374.230957,4364.102539,4366.922852,4370.769043,4360.0,4355.897461,4461.794922,4515.897461,4425.641113,4455.897461,,,,,,,,,,,,,,,,,,,,,,,,,,,,,,,,,,,,,,,,,,,,,,,,,,,,,,,,,,,,,,,,,,,,,,
1768972401.975178,1768972401.976214,114.0,0.0,4374.102539,4393.205078,4355.256348,4380.512695,4379.358887,4366.922852,4372.05127,4379.871582,4367.692383,4358.846191,4460.512695,4517.05127,4422.179688,4460.512695,,,,,,,,,,,,,,,,,,,,,,,,,,,,,,,,,,,,,,,,,,,,,,,,,,,,,,,,,,,,,,,,,,,,,,
1768972401.982986,1768972401.984022,115.0,0.0,4368.461426,4383.077148,4355.128418,4379.230957,4373.717773,4369.358887,4369.615234,4381.410156,4368.974121,4359.230957,4460.128418,4517.820313,4420.0,4460.384766,,,,,,,,,,,,,,,,,,,,,,,,,,,,,,,,,,,,,,,,,,,,,,,,,,,,,,,,,,,,,,,,,,,,,,
1768972401.990795,1768972401.991631,116.0,0.0,4358.077148,4375.641113,4347.307617,4371.794922,4364.743652,4365.384766,4365.641113,4377.692383,4372.563965,4357.94873,4458.077148,4511.153809,4418.333496,4452.179688,,,,,,,,,,,,,,,,,,,,,,,,,,,,,,,,,,,,,,,,,,,,,,,,,,,,,,,,,,,,,,,,,,,,,,
1768972401.998603,1768972401.99944,117.0,0.0,4368.589844,4384.871582,4348.846191,4376.025879,4369.358887,4365.641113,4370.0,4383.717773,4381.666504,4366.794922,4469.615234,4517.563965,4430.256348,4459.871582,,,,,,,,,,,,,,,,,,,,,,,,,,,,,,,,,,,,,,,,,,,,,,,,,,,,,,,,,,,,,,,,,,,,,,
1768972402.006411,1768972402.007348,118.0,0.0,4383.461426,4393.974121,4358.461426,4385.256348,4375.384766,4368.974121,4375.897461,4386.410156,4380.0,4375.128418,4481.153809,4529.743652,4444.487305,4476.666504,,,,,,,,,,,,,,,,,,,,,,,,,,,,,,,,,,,,,,,,,,,,,,,,,,,,,,,,,,,,,,,,,,,,,,
1768972402.01422,1768972402.015156,119.0,0.0,4376.794922,4392.436035,4355.641113,4381.794922,4372.692383,4365.256348,4367.692383,4379.102539,4370.897461,4370.128418,4476.538574,4523.717773,4438.461426,4475.256348,,,,,,,,,,,,,,,,,,,,,,,,,,,,,,,,,,,,,,,,,,,,,,,,,,,,,,,,,,,,,,,,,,,,,,
1768972402.022028,1768972402.023165,120.0,0.0,4369.102539,4393.974121,4351.410156,4380.897461,4372.820313,4364.487305,4358.717773,4375.897461,4370.128418,4364.487305,4471.666504,4511.410156,4426.666504,4462.05127,,,,,,,,,,,,,,,,,,,,,,,,,,,,,,,,,,,,,,,,,,,,,,,,,,,,,,,,,,,,,,,,,,,,,,
1768972402.029837,1768972402.030973,121.0,0.0,4373.589844,4399.871582,4358.974121,4386.153809,4375.769043,4369.102539,4367.179688,4380.384766,4375.384766,4367.820313,4474.230957,4513.589844,4434.743652,4461.282227,,,,,,,,,,,,,,,,,,,,,,,,,,,,,,,,,,,,,,,,,,,,,,,,,,,,,,,,,,,,,,,,,,,,,,
1768972402.037645,1768972402.038881,122.0,0.0,4375.512695,4398.333496,4361.282227,4384.871582,4373.846191,4368.077148,4371.922852,4379.487305,4374.871582,4367.179688,4476.666504,4522.179688,4442.05127,4472.692383,,,,,,,,,,,,,,,,,,,,,,,,,,,,,,,,,,,,,,,,,,,,,,,,,,,,,,,,,,,,,,,,,,,,,,
1768972402.045453,1768972402.04669,123.0,0.0,4373.333496,4394.871582,4352.820313,4379.743652,4372.563965,4361.666504,4361.794922,4371.538574,4367.179688,4361.666504,4472.820313,4520.897461,4429.871582,4471.538574,,,,,,,,,,,,,,,,,,,,,,,,,,,,,,,,,,,,,,,,,,,,,,,,,,,,,,,,,,,,,,,,,,,,,,
1768972402.053262,1768972402.054298,124.0,0.0,4377.05127,4394.615234,4351.410156,4378.589844,4373.205078,4357.563965,4357.307617,4371.282227,4365.769043,4361.025879,4463.461426,4516.794922,4423.461426,4460.128418,,,,,,,,,,,,,,,,,,,,,,,,,,,,,,,,,,,,,,,,,,,,,,,,,,,,,,,,,,,,,,,,,,,,,,
1768972402.06107,1768972402.062107,125.0,0.0,4379.743652,4392.307617,4354.615234,4379.871582,4371.922852,4358.205078,4358.333496,4377.692383,4368.205078,4358.974121,4461.282227,4517.94873,4431.282227,4460.512695,,,,,,,,,,,,,,,,,,,,,,,,,,,,,,,,,,,,,,,,,,,,,,,,,,,,,,,,,,,,,,,,,,,,,,
1768972402.068879,1768972402.070015,126.0,0.0,4372.820313,4389.102539,4353.077148,4378.461426,4371.794922,4358.205078,4356.538574,4373.717773,4363.333496,4357.179688,4461.922852,4518.077148,4427.820313,4463.461426,0.29699,0.219759,0.09675,0.202704,0.10489,1.103362,0.355581,0.126883,0.156507,0.05233,0.215771,0.146334,0.077061,0.219221,0.085916,0.11453,0.093316,0.025056,0.087766,0.069868,0.128246,0.103365,0.089095,0.058507,0.072054,0.224803,0.256788,0.108879,0.201103,0.339066,0.251109,0.409966,0.144364,0.273955,0.435507,0.153096,0.238791,0.10543,0.266279,0.242782,0.199705,0.321565,0.131109,0.144744,0.198197,0.445248,0.232537,0.244626,0.166798,0.170405,0.151312,0.193585,0.139085,0.180045,0.130355,0.386012,0.152985,0.096536,0.24222,0.196166,0.242017,0.339201,0.217221,0.369243,0.199438,0.403675,0.612386,0.249927,0.291126,0.176202
1768972402.076687,1768972402.077824,127.0,0.0,4369.230957,4387.563965,4353.077148,4378.077148,4372.692383,4357.94873,4363.461426,4364.743652,4359.358887,4362.820313,4458.717773,4515.128418,4419.358887,4460.0,,,,,,,,,,,,,,,,,,,,,,,,,,,,,,,,,,,,,,,,,,,,,,,,,,,,,,,,,,,,,,,,,,,,,,
1768972402.084496,1768972402.085832,0.0,0.0,4376.666504,4389.358887,4355.384766,4381.666504,4373.333496,4359.615234,4367.307617,4367.692383,4364.230957,4365.384766,4466.794922,4513.077148,4432.820313,4465.897461,,,,,,,,,,,,,,,,,,,,,,,,,,,,,,,,,,,,,,,,,,,,,,,,,,,,,,,,,,,,,,,,,,,,,,
1768972402.092304,1768972402.09364,1.0,0.0,4382.820313,4392.05127,4355.897461,4383.333496,4373.205078,4359.102539,4363.461426,4374.358887,4367.179688,4363.589844,4475.897461,4516.922852,4445.641113,4477.179688,,,,,,,,,,,,,,,,,,,,,,,,,,,,,,,,,,,,,,,,,,,,,,,,,,,,,,,,,,,,,,,,,,,,,,
1768972402.100113,1768972402.101349,2.0,0.0,4382.179688,4392.307617,4356.666504,4380.128418,4371.922852,4355.512695,4363.333496,4372.94873,4364.358887,4364.358887,4466.922852,4518.974121,4435.769043,4477.820313,,,,,,,,,,,,,,,,,,,,,,,,,,,,,,,,,,,,,,,,,,,,,,,,,,,,,,,,,,,,,,,,,,,,,,
1768972402.107921,1768972402.109157,3.0,0.0,4378.974121,4391.538574,4357.692383,4379.358887,4371.538574,4358.077148,4362.94873,4371.794922,4366.025879,4362.307617,4457.436035,4515.897461,4426.794922,4473.461426,,,,,,,,,,,,,,,,,,,,,,,,,,,,,,,,,,,,,,,,,,,,,,,,,,,,,,,,,,,,,,,,,,,,,,
1768972402.115729,1768972402.116766,4.0,0.0,4374.230957,4388.717773,4354.743652,4380.256348,4372.179688,4363.589844,4360.256348,4372.94873,4366.025879,4357.563965,4459.743652,4511.282227,4430.0,4466.153809,,,,,,,,,,,,,,,,,,,,,,,,,,,,,,,,,,,,,,,,,,,,,,,,,,,,,,,,,,,,,,,,,,,,,,
1768972402.123538,1768972402.124574,5.0,0.0,4370.256348,4383.846191,4350.897461,4377.179688,4372.179688,4363.461426,4361.153809,4370.769043,4358.461426,4355.769043,4459.871582,4506.410156,4423.717773,4456.794922,,,,,,,,,,,,,,,,,,,,,,,,,,,,,,,,,,,,,,,,,,,,,,,,,,,,,,,,,,,,,,,,,,,,,,
1768972402.131346,1768972402.132283,6.0,0.0,4371.410156,4383.461426,4352.436035,4377.307617,4372.94873,4359.615234,4360.128418,4368.205078,4354.102539,4354.487305,4456.153809,4504.487305,4416.153809,4456.538574,,,,,,,,,,,,,,,,,,,,,,,,,,,,,,,,,,,,,,,,,,,,,,,,,,,,,,,,,,,,,,,,,,,,,,
1768972402.139155,1768972402.140091,7.0,0.0,4374.358887,4391.410156,4356.922852,4379.487305,4371.922852,4357.820313,4355.384766,4365.897461,4354.102539,4355.384766,4457.820313,4510.512695,4423.974121,4460.897461,,,,,,,,,,,,,,,,,,,,,,,,,,,,,,,,,,,,,,,,,,,,,,,,,,,,,,,,,,,,,,,,,,,,,,
1768972402.146963,1768972402.1477,8.0,0.0,4374.743652,4395.128418,4356.153809,4380.641113,4368.205078,4361.538574,4358.846191,4366.538574,4354.102539,4358.717773,4461.538574,4518.974121,4431.025879,4461.922852,,,,,,,,,,,,,,,,,,,,,,,,,,,,,,,,,,,,,,,,,,,,,,,,,,,,,,,,,,,,,,,,,,,,,,
1768972402.154772,1768972402.155509,9.0,0.0,4372.820313,4387.05127,4351.282227,4379.871582,4368.589844,4366.666504,4367.692383,4375.641113,4361.025879,4358.846191,4462.05127,4518.205078,4427.179688,4461.538574,,,,,,,,,,,,,,,,,,,,,,,,,,,,,,,,,,,,,,,,,,,,,,,,,,,,,,,,,,,,,,,,,,,,,,
1768972402.16258,1768972402.163217,10.0,0.0,4371.538574,4380.512695,4348.461426,4375.769043,4371.794922,4365.641113,4367.563965,4377.05127,4366.794922,4357.179688,4458.589844,4513.974121,4420.256348,4459.743652,,,,,,,,,,,,,,,,,,,,,,,,,,,,,,,,,,,,,,,,,,,,,,,,,,,,,,,,,,,,,,,,,,,,,,
1768972402.170389,1768972402.171026,11.0,0.0,4372.94873,4383.205078,4348.461426,4376.538574,4372.94873,4362.820313,4360.641113,4363.205078,4360.128418,4356.794922,4456.666504,4517.94873,4418.333496,4458.205078,,,,,,,,,,,,,,,,,,,,,,,,,,,,,,,,,,,,,,,,,,,,,,,,,,,,,,,,,,,,,,,,,,,,,,
1768972402.178197,1768972402.178634,12.0,0.0,4368.717773,4385.897461,4347.307617,4379.102539,4370.256348,4361.025879,4358.589844,4359.358887,4357.563965,4355.256348,4459.615234,4521.282227,4417.820313,4458.205078,,,,,,,,,,,,,,,,,,,,,,,,,,,,,,,,,,,,,,,,,,,,,,,,,,,,,,,,,,,,,,,,,,,,,,
1768972402.186005,1768972402.186443,13.0,0.0,4363.333496,4382.692383,4349.102539,4375.897461,4367.307617,4363.717773,4365.384766,4370.897461,4367.563965,4354.743652,4460.256348,4515.897461,4414.487305,4458.333496,,,,,,,,,,,,,,,,,,,,,,,,,,,,,,,,,,,,,,,,,,,,,,,,,,,,,,,,,,,,,,,,,,,,,,
1768972402.193814,1768972402.194151,14.0,0.0,4367.436035,4382.307617,4352.563965,4374.487305,4367.563965,4368.846191,4366.922852,4372.179688,4371.794922,4358.717773,4457.179688,4513.461426,4413.333496,4456.922852,0.326245,0.183907,0.136828,0.195259,0.103968,0.646645,0.286466,0.127807,0.155773,0.057145,0.204424,0.151014,0.084138,0.211785,0.07834,0.106678,0.112528,0.030377,0.094809,0.064828,0.089284,0.102571,0.087238,0.052935,0.06786,0.2324,0.221637,0.106676,0.192472,0.300251,0.286637,0.460043,0.173638,0.278173,0.401233,0.161683,0.265958,0.097033,0.276498,0.218504,0.211913,0.366392,0.142496,0.165805,0.1699,0.486118,0.210135,0.185548,0.181005,0.151886,0.177363,0.17821,0.11299,0.160626,0.125315,0.44772,0.136963,0.094125,0.239899,0.172652,0.233606,0.313811,0.182039,0.378899,0.218336,0.372577,0.509152,0.262901,0.305588,0.179354
1768972402.201622,1768972402.20196,15.0,0.0,4376.538574,4391.410156,4355.256348,4380.384766,4366.538574,4368.077148,4363.461426,4370.641113,4371.666504,4364.615234,4465.128418,4524.358887,4421.922852,4462.94873,,,,,,,,,,,,,,,,,,,,,,,,,,,,,,,,,,,,,,,,,,,,,,,,,,,,,,,,,,,,,,,,,,,,,,
1768972402.209431,1768972402.209968,16.0,0.0,4381.538574,4400.512695,4362.307617,4385.384766,4363.846191,4367.94873,4365.0,4374.743652,4376.153809,4362.179688,4479.871582,4536.794922,4433.589844,4478.717773,,,,,,,,,,,,,,,,,,,,,,,,,,,,,,,,,,,,,,,,,,,,,,,,,,,,,,,,,,,,,,,,,,,,,,
1768972402.217239,1768972402.217776,17.0,0.0,4380.512695,4398.589844,4365.384766,4385.769043,4363.846191,4370.897461,4367.05127,4371.410156,4373.077148,4353.461426,4475.128418,4530.512695,4429.102539,4475.384766,,,,,,,,,,,,,,,,,,,,,,,,,,,,,,,,,,,,,,,,,,,,,,,,,,,,,,,,,,,,,,,,,,,,,,
1768972402.225048,1768972402.225685,18.0,0.0,4381.922852,4396.794922,4361.153809,4387.692383,4367.307617,4363.461426,4362.05127,4365.897461,4366.666504,4356.410156,4460.641113,4518.077148,4420.641113,4457.307617,,,,,,,,,,,,,,,,,,,,,,,,,,,,,,,,,,,,,,,,,,,,,,,,,,,,,,,,,,,,,,,,,,,,,,
1768972402.232856,1768972402.233493,19.0,0.0,4390.0,4406.025879,4362.563965,4392.94873,4368.589844,4360.128418,4363.333496,4367.05127,4368.205078,4365.384766,4459.230957,4519.615234,4423.846191,4462.692383,,,,,,,,,,,,,,,,,,,,,,,,,,,,,,,,,,,,,,,,,,,,,,,,,,,,,,,,,,,,,,,,,,,,,,
1768972402.240665,1768972402.241501,20.0,0.0,4390.0,4410.256348,4365.769043,4397.05127,4365.769043,4368.589844,4371.410156,4370.128418,4370.769043,4365.769043,4464.487305,4524.102539,4427.307617,4476.025879,,,,,,,,,,,,,,,,,,,,,,,,,,,,,,,,,,,,,,,,,,,,,,,,,,,,,,,,,,,,,,,,,,,,,,
1768972402.248473,1768972402.24931,21.0,0.0,4381.410156,4404.358887,4363.846191,4395.769043,4365.256348,4364.487305,4367.307617,4369.743652,4371.666504,4368.333496,4466.410156,4522.820313,4426.025879,4465.897461,,,,,,,,,,,,,,,,,,,,,,,,,,,,,,,,,,,,,,,,,,,,,,,,,,,,,,,,,,,,,,,,,,,,,,
1768972402.256282,1768972402.257018,22.0,0.0,4385.0,4402.179688,4366.666504,4392.692383,4369.487305,4357.820313,4360.256348,4366.025879,4370.512695,4373.205078,4464.358887,4525.384766,4426.538574,4456.666504,,,,,,,,,,,,,,,,,,,,,,,,,,,,,,,,,,,,,,,,,,,,,,,,,,,,,,,,,,,,,,,,,,,,,,
1768972402.26409,1768972402.264827,23.0,0.0,4393.205078,4405.0,4372.436035,4393.461426,4370.897461,4366.410156,4365.641113,4367.436035,4369.743652,4367.692383,4461.794922,4530.641113,4426.410156,4466.666504,,,,,,,,,,,,,,,,,,,,,,,,,,,,,,,,,,,,,,,,,,,,,,,,,,,,,,,,,,,,,,,,,,,,,,
1768972402.271898,1768972402.272835,24.0,0.0,4391.153809,4403.461426,4369.743652,4395.384766,4366.538574,4366.922852,4367.820313,4371.538574,4373.077148,4364.487305,4467.820313,4529.871582,4425.0,4475.384766,,,,,,,,,,,,,,,,,,,,,,,,,,,,,,,,,,,,,,,,,,,,,,,,,,,,,,,,,,,,,,,,,,,,,,
1768972402.279707,1768972402.280644,25.0,0.0,4385.0,4398.974121,4364.615234,4393.077148,4364.743652,4362.94873,4364.615234,4368.589844,4372.692383,4369.743652,4474.102539,4526.025879,4426.922852,4473.205078,,,,,,,,,,,,,,,,,,,,,,,,,,,,,,,,,,,,,,,,,,,,,,,,,,,,,,,,,,,,,,,,,,,,,,
1768972402.287515,1768972402.288552,26.0,0.0,4381.794922,4397.563965,4364.230957,4387.94873,4369.871582,4371.282227,4369.615234,4367.307617,4366.538574,4371.794922,4472.94873,4526.410156,4429.743652,4473.205078,,,,,,,,,,,,,,,,,,,,,,,,,,,,,,,,,,,,,,,,,,,,,,,,,,,,,,,,,,,,,,,,,,,,,,
1768972402.295324,1768972402.29636,27.0,0.0,4383.461426,4397.692383,4364.230957,4387.436035,4374.230957,4373.077148,4370.512695,4373.846191,4368.205078,4372.692383,4475.384766,4530.128418,4435.256348,4477.436035,,,,,,,,,,,,,,,,,,,,,,,,,,,,,,,,,,,,,,,,,,,,,,,,,,,,,,,,,,,,,,,,,,,,,,
1768972402.303132,1768972402.304069,28.0,0.0,4386.025879,4398.205078,4363.461426,4389.230957,4374.743652,4365.641113,4362.436035,4372.179688,4372.307617,4375.512695,4478.974121,4532.692383,4438.974121,4478.461426,,,,,,,,,,,,,,,,,,,,,,,,,,,,,,,,,,,,,,,,,,,,,,,,,,,,,,,,,,,,,,,,,,,,,,
1768972402.310941,1768972402.311877,29.0,0.0,4382.563965,4396.794922,4363.846191,4386.153809,4372.692383,4366.666504,4364.615234,4368.717773,4369.230957,4373.846191,4473.974121,4531.153809,4431.282227,4476.794922,,,,,,,,,,,,,,,,,,,,,,,,,,,,,,,,,,,,,,,,,,,,,,,,,,,,,,,,,,,,,,,,,,,,,,
1768972402.318749,1768972402.319586,30.0,0.0,4382.820313,4394.615234,4365.897461,4387.179688,4372.436035,4366.410156,4368.461426,4373.077148,4371.025879,4371.922852,4472.436035,4534.743652,4428.846191,4477.179688,0.374966,0.157219,0.188783,0.180705,0.112299,0.395463,0.279515,0.14351,0.150589,0.067217,0.205145,0.179468,0.10475,0.193499,0.075637,0.111052,0.1337,0.04248,0.096729,0.064773,0.066853,0.103895,0.08411,0.048492,0.061468,0.233808,0.193583,0.099996,0.180067,0.258262,0.328572,0.501259,0.191687,0.27024,0.356284,0.184178,0.272609,0.084997,0.264865,0.187724,0.240556,0.399227,0.143367,0.177811,0.142159,0.528712,0.206991,0.135258,0.178587,0.125963,0.262755,0.175065,0.112554,0.145471,0.123326,0.529746,0.147298,0.093712,0.225309,0.145676,0.244675,0.319916,0.163756,0.369714,0.22973,0.360804,0.403494,0.281719,0.308312,0.178824
1768972402.326558,1768972402.327394,31.0,0.0,4392.307617,4398.077148,4369.743652,4395.897461,4374.487305,4362.307617,4359.230957,4373.205078,4374.743652,4373.589844,4476.538574,4541.410156,4439.230957,4477.820313,,,,,,,,,,,,,,,,,,,,,,,,,,,,,,,,,,,,,,,,,,,,,,,,,,,,,,,,,,,,,,,,,,,,,,
1768972402.334366,1768972402.335403,32.0,0.0,4393.974121,4403.717773,4370.0,4397.692383,4376.025879,4369.743652,4358.846191,4372.05127,4373.589844,4375.256348,4477.05127,4537.94873,4441.538574,4477.692383,,,,,,,,,,,,,,,,,,,,,,,,,,,,,,,,,,,,,,,,,,,,,,,,,,,,,,,,,,,,,,,,,,,,,,
1768972402.342174,1768972402.343211,33.0,0.0,4385.641113,4399.358887,4363.589844,4390.897461,4376.538574,4378.333496,4371.794922,4376.025879,4374.615234,4374.615234,4474.871582,4528.717773,4431.410156,4475.128418,,,,,,,,,,,,,,,,,,,,,,,,,,,,,,,,,,,,,,,,,,,,,,,,,,,,,,,,,,,,,,,,,,,,,,
1768972402.349983,1768972402.35092,34.0,0.0,4380.256348,4392.436035,4358.461426,4385.641113,4373.846191,4372.692383,4367.563965,4372.307617,4373.974121,4374.102539,4469.487305,4525.128418,4426.025879,4469.743652,,,,,,,,,,,,,,,,,,,,,,,,,,,,,,,,,,,,,,,,,,,,,,,,,,,,,,,,,,,,,,,,,,,,,,
1768972402.357791,1768972402.358728,35.0,0.0,4379.871582,4392.179688,4360.512695,4387.179688,4372.307617,4365.641113,4356.922852,4363.846191,4370.384766,4371.538574,4464.615234,4527.94873,4427.05127,4471.410156,,,,,,,,,,,,,,,,,,,,,,,,,,,,,,,,,,,,,,,,,,,,,,,,,,,,,,,,,,,,,,,,,,,,,,
1768972402.3656,1768972402.366337,36.0,0.0,4381.025879,4391.410156,4364.102539,4391.410156,4375.0,4368.846191,4362.94873,4362.692383,4369.230957,4367.307617,4462.563965,4529.102539,4427.692383,4472.436035,,,,,,,,,,,,,,,,,,,,,,,,,,,,,,,,,,,,,,,,,,,,,,,,,,,,,,,,,,,,,,,,,,,,,,
1768972402.373408,1768972402.374145,37.0,0.0,4382.436035,4389.871582,4362.436035,4390.384766,4374.358887,4370.256348,4364.615234,4361.794922,4366.666504,4367.563965,4461.794922,4522.692383,4426.538574,4463.461426,,,,,,,,,,,,,,,,,,,,,,,,,,,,,,,,,,,,,,,,,,,,,,,,,,,,,,,,,,,,,,,,,,,,,,
1768972402.381217,1768972402.381854,38.0,0.0,4382.307617,4391.794922,4360.256348,4387.05127,4370.512695,4363.717773,4355.512695,4361.410156,4367.436035,4373.333496,4467.692383,4521.538574,4427.307617,4465.641113,,,,,,,,,,,,,,,,,,,,,,,,,,,,,,,,,,,,,,,,,,,,,,,,,,,,,,,,,,,,,,,,,,,,,,
1768972402.389025,1768972402.389662,39.0,0.0,4380.897461,4393.846191,4363.333496,4391.538574,4375.641113,4366.025879,4359.487305,4367.563965,4374.102539,4375.897461,4476.025879,4529.615234,4431.666504,4474.230957,,,,,,,,,,,,,,,,,,,,,,,,,,,,,,,,,,,,,,,,,,,,,,,,,,,,,,,,,,,,,,,,,,,,,,
1768972402.396833,1768972402.39767,40.0,0.0,4382.179688,4396.025879,4366.794922,4397.820313,4384.615234,4377.563965,4368.333496,4370.512695,4372.179688,4368.461426,4473.205078,4531.282227,4432.05127,4469.358887,,,,,,,,,,,,,,,,,,,,,,,,,,,,,,,,,,,,,,,,,,,,,,,,,,,,,,,,,,,,,,,,,,,,,,
1768972402.404642,1768972402.405479,41.0,0.0,4388.846191,4397.692383,4366.538574,4393.846191,4380.512695,4378.974121,4367.692383,4366.666504,4365.897461,4368.846191,4470.641113,4526.666504,4429.102539,4467.94873,,,,,,,,,,,,,,,,,,,,,,,,,,,,,,,,,,,,,,,,,,,,,,,,,,,,,,,,,,,,,,,,,,,,,,
1768972402.41245,1768972402.413387,42.0,0.0,4390.769043,4395.641113,4367.436035,4387.05127,4376.025879,4370.641113,4367.692383,4365.384766,4367.94873,4375.128418,4476.025879,4525.256348,4430.256348,4473.333496,,,,,,,,,,,,,,,,,,,,,,,,,,,,,,,,,,,,,,,,,,,,,,,,,,,,,,,,,,,,,,,,,,,,,,
1768972402.420259,1768972402.421196,43.0,0.0,4384.358887,4396.538574,4367.563965,4389.871582,4381.153809,4371.410156,4368.846191,4365.512695,4367.820313,4365.128418,4470.128418,4520.512695,4430.641113,4468.333496,,,,,,,,,,,,,,,,,,,,,,,,,,,,,,,,,,,,,,,,,,,,,,,,,,,,,,,,,,,,,,,,,,,,,,
1768972402.428067,1768972402.429204,44.0,0.0,4380.641113,4396.538574,4363.717773,4393.205078,4381.025879,4376.025879,4367.179688,4363.589844,4364.230957,4358.717773,4458.077148,4514.871582,4426.666504,4461.410156,,,,,,,,,,,,,,,,,,,,,,,,,,,,,,,,,,,,,,,,,,,,,,,,,,,,,,,,,,,,,,,,,,,,,,
1768972402.435876,1768972402.437012,45.0,0.0,4381.025879,4393.589844,4362.05127,4388.717773,4374.230957,4370.641113,4366.153809,4365.0,4366.410156,4372.563965,4460.769043,4516.538574,4427.05127,4461.538574,,,,,,,,,,,,,,,,,,,,,,,,,,,,,,,,,,,,,,,,,,,,,,,,,,,,,,,,,,,,,,,,,,,,,,
1768972402.443684,1768972402.444921,46.0,0.0,4382.179688,4396.025879,4363.333496,4386.794922,4373.717773,4364.487305,4364.743652,4366.282227,4368.461426,4380.128418,4469.230957,4518.461426,4430.897461,4460.641113,0.425307,0.143308,0.238098,0.167412,0.126275,0.309517,0.324483,0.172995,0.14124,0.07894,0.224232,0.225017,0.139504,0.173735,0.079775,0.126231,0.156388,0.062715,0.093092,0.069855,0.058852,0.104294,0.079634,0.043874,0.055228,0.227958,0.161875,0.087848,0.163779,0.22082,0.3542,0.503277,0.192878,0.24929,0.30771,0.197899,0.257824,0.072912,0.235498,0.159487,0.278024,0.4216,0.133849,0.180529,0.120538,0.573787,0.234551,0.107637,0.159937,0.09875,0.386828,0.193871,0.146215,0.140245,0.125149,0.583853,0.185743,0.099979,0.204393,0.123186,0.285399,0.361206,0.16678,0.348904,0.233485,0.373567,0.317924,0.305198,0.299354,0.176782
1768972402.451492,1768972402.452729,47.0,0.0,4384.743652,4399.230957,4363.717773,4391.538574,4377.94873,4369.358887,4364.871582,4368.717773,4372.563965,4372.692383,4468.461426,4517.94873,4429.102539,4461.025879,,,,,,,,,,,,,,,,,,,,,,,,,,,,,,,,,,,,,,,,,,,,,,,,,,,,,,,,,,,,,,,,,,,,,,
1768972402.459301,1768972402.460338,48.0,0.0,4385.128418,4397.436035,4361.794922,4391.922852,4376.666504,4372.179688,4368.205078,4369.230957,4373.717773,4369.358887,4461.538574,4517.179688,4427.05127,4461.410156,,,,,,,,,,,,,,,,,,,,,,,,,,,,,,,,,,,,,,,,,,,,,,,,,,,,,,,,,,,,,,,,,,,,,,
1768972402.467109,1768972402.468146,49.0,0.0,4380.897461,4392.179688,4361.025879,4387.307617,4374.358887,4367.307617,4369.102539,4363.974121,4365.512695,4367.692383,4459.743652,4516.666504,4427.820313,4457.820313,,,,,,,,,,,,,,,,,,,,,,,,,,,,,,,,,,,,,,,,,,,,,,,,,,,,,,,,,,,,,,,,,,,,,,
1768972402.474918,1768972402.476054,50.0,0.0,4377.820313,4387.179688,4360.512695,4385.384766,4375.128418,4366.794922,4365.256348,4360.512695,4362.05127,4366.922852,4461.922852,4519.615234,4428.333496,4458.589844,,,,,,,,,,,,,,,,,,,,,,,,,,,,,,,,,,,,,,,,,,,,,,,,,,,,,,,,,,,,,,,,,,,,,,
1768972402.482726,1768972402.483863,51.0,0.0,4382.820313,4388.333496,4359.615234,4387.05127,4376.153809,4369.615234,4363.205078,4360.512695,4364.487305,4370.128418,4461.922852,4520.256348,4429.358887,4460.384766,,,,,,,,,,,,,,,,,,,,,,,,,,,,,,,,,,,,,,,,,,,,,,,,,,,,,,,,,,,,,,,,,,,,,,
1768972402.490535,1768972402.491472,52.0,0.0,4388.974121,4390.384766,4359.743652,4389.102539,4375.128418,4369.615234,4366.282227,4361.794922,4363.461426,4367.436035,4460.384766,4514.871582,4429.487305,4459.230957,,,,,,,,,,,,,,,,,,,,,,,,,,,,,,,,,,,,,,,,,,,,,,,,,,,,,,,,,,,,,,,,,,,,,,
1768972402.498343,1768972402.49928,53.0,0.0,4386.410156,4387.563965,4360.641113,4390.256348,4372.94873,4369.487305,4367.436035,4361.025879,4361.922852,4364.358887,4459.871582,4515.641113,4427.820313,4463.846191,,,,,,,,,,,,,,,,,,,,,,,,,,,,,,,,,,,,,,,,,,,,,,,,,,,,,,,,,,,,,,,,,,,,,,
1768972402.506152,1768972402.506989,54.0,0.0,4386.922852,4389.871582,4361.282227,4388.205078,4373.077148,4368.589844,4361.282227,4358.589844,4361.410156,4367.563965,4461.410156,4526.025879,4427.820313,4472.563965,,,,,,,,,,,,,,,,,,,,,,,,,,,,,,,,,,,,,,,,,,,,,,,,,,,,,,,,,,,,,,,,,,,,,,
1768972402.51396,1768972402.514797,55.0,0.0,4394.871582,4397.179688,4363.205078,4390.384766,4376.538574,4366.666504,4357.436035,4360.641113,4361.153809,4369.358887,4467.820313,4533.205078,4431.153809,4476.922852,,,,,,,,,,,,,,,,,,,,,,,,,,,,,,,,,,,,,,,,,,,,,,,,,,,,,,,,,,,,,,,,,,,,,,
1768972402.521768,1768972402.522406,56.0,0.0,4393.205078,4394.743652,4365.769043,4394.871582,4379.230957,4364.487305,4361.025879,4363.077148,4365.128418,4366.410156,4467.05127,4531.282227,4431.538574,4474.102539,,,,,,,,,,,,,,,,,,,,,,,,,,,,,,,,,,,,,,,,,,,,,,,,,,,,,,,,,,,,,,,,,,,,,,
1768972402.529577,1768972402.530214,57.0,0.0,4384.487305,4390.512695,4364.230957,4391.794922,4374.615234,4363.205078,4361.538574,4363.205078,4368.077148,4367.05127,4461.666504,4525.512695,4427.820313,4468.205078,,,,,,,,,,,,,,,,,,,,,,,,,,,,,,,,,,,,,,,,,,,,,,,,,,,,,,,,,,,,,,,,,,,,,,
1768972402.537385,1768972402.538122,58.0,0.0,4386.538574,4392.179688,4361.410156,4385.641113,4372.563965,4362.436035,4356.282227,4359.615234,4364.487305,4371.410156,4466.025879,4524.743652,4427.179688,4466.025879,,,,,,,,,,,,,,,,,,,,,,,,,,,,,,,,,,,,,,,,,,,,,,,,,,,,,,,,,,,,,,,,,,,,,,
1768972402.545194,1768972402.545931,59.0,0.0,4391.025879,4391.025879,4361.922852,4387.179688,4379.358887,4365.769043,4357.692383,4359.358887,4364.487305,4370.512695,4468.717773,4526.282227,4430.256348,4466.153809,,,,,,,,,,,,,,,,,,,,,,,,,,,,,,,,,,,,,,,,,,,,,,,,,,,,,,,,,,,,,,,,,,,,,,
1768972402.553002,1768972402.55354,60.0,0.0,4384.743652,4387.563965,4363.205078,4388.461426,4379.615234,4372.307617,4366.794922,4364.102539,4368.974121,4365.769043,4461.410156,4522.05127,4427.94873,4463.077148,,,,,,,,,,,,,,,,,,,,,,,,,,,,,,,,,,,,,,,,,,,,,,,,,,,,,,,,,,,,,,,,,,,,,,
1768972402.560811,1768972402.561348,61.0,0.0,4381.922852,4388.589844,4362.820313,4382.820313,4373.974121,4375.641113,4370.384766,4363.974121,4367.179688,4362.05127,4458.333496,4515.0,4420.128418,4457.692383,,,,,,,,,,,,,,,,,,,,,,,,,,,,,,,,,,,,,,,,,,,,,,,,,,,,,,,,,,,,,,,,,,,,,,
1768972402.568619,1768972402.569057,62.0,0.0,4388.717773,4391.025879,4361.153809,4383.846191,4373.974121,4374.230957,4363.846191,4355.384766,4357.307617,4360.641113,4461.666504,4511.922852,4418.974121,4457.692383,0.478774,0.139552,0.272843,0.163118,0.142453,0.321985,0.3914,0.212335,0.131165,0.089713,0.268353,0.272818,0.183086,0.160269,0.08954,0.151975,0.179368,0.090153,0.085116,0.077935,0.060176,0.101929,0.076461,0.03919,0.051003,0.222228,0.123531,0.073279,0.145796,0.191437,0.357495,0.453582,0.178594,0.218587,0.261956,0.206282,0.226926,0.063936,0.199143,0.139587,0.32688,0.438632,0.118844,0.178233,0.106557,0.607733,0.289114,0.106047,0.132885,0.075803,0.526662,0.24238,0.211985,0.147926,0.129559,0.631906,0.240918,0.115472,0.186529,0.110966,0.349378,0.4283,0.194622,0.328476,0.232607,0.415966,0.276798,0.332167,0.282786,0.177735
1768972402.576428,1768972402.576865,63.0,0.0,4388.717773,4389.230957,4360.384766,4388.205078,4374.487305,4368.717773,4357.563965,4350.384766,4355.512695,4363.333496,4461.794922,4513.333496,4425.897461,4459.871582,,,,,,,,,,,,,,,,,,,,,,,,,,,,,,,,,,,,,,,,,,,,,,,,,,,,,,,,,,,,,,,,,,,,,,
1768972402.584236,1768972402.584474,64.0,0.0,4384.615234,4387.820313,4358.461426,4385.0,4371.538574,4363.333496,4356.922852,4354.871582,4366.153809,4366.666504,4461.025879,4514.487305,4429.102539,4458.333496,,,,,,,,,,,,,,,,,,,,,,,,,,,,,,,,,,,,,,,,,,,,,,,,,,,,,,,,,,,,,,,,,,,,,,
1768972402.592044,1768972402.592282,65.0,0.0,4389.871582,4391.922852,4358.589844,4384.102539,4374.615234,4364.230957,4357.563965,4356.282227,4366.410156,4364.615234,4461.282227,4515.128418,4425.384766,4455.769043,,,,,,,,,,,,,,,,,,,,,,,,,,,,,,,,,,,,,,,,,,,,,,,,,,,,,,,,,,,,,,,,,,,,,,
1768972402.599853,1768972402.60019,66.0,0.0,4394.743652,4394.487305,4361.025879,4388.589844,4378.974121,4365.384766,4357.820313,4354.102539,4356.025879,4364.230957,4461.282227,4517.179688,4424.743652,4459.358887,,,,,,,,,,,,,,,,,,,,,,,,,,,,,,,,,,,,,,,,,,,,,,,,,,,,,,,,,,,,,,,,,,,,,,
1768972402.607661,1768972402.607999,67.0,0.0,4390.512695,4391.666504,4361.922852,4387.05127,4374.871582,4358.717773,4356.153809,4354.871582,4356.025879,4367.179688,4462.563965,4514.358887,4430.0,4461.666504,,,,,,,,,,,,,,,,,,,,,,,,,,,,,,,,,,,,,,,,,,,,,,,,,,,,,,,,,,,,,,,,,,,,,,
1768972402.61547,1768972402.616007,68.0,0.0,4382.436035,4386.538574,4359.487305,4380.641113,4371.538574,4357.94873,4358.717773,4357.436035,4361.153809,4366.410156,4462.05127,4507.436035,4428.717773,4450.641113,,,,,,,,,,,,,,,,,,,,,,,,,,,,,,,,,,,,,,,,,,,,,,,,,,,,,,,,,,,,,,,,,,,,,,
1768972402.623278,1768972402.623816,69.0,0.0,4377.307617,4386.282227,4359.230957,4381.666504,4373.974121,4367.820313,4368.461426,4360.512695,4361.025879,4364.615234,4460.769043,4509.615234,4421.282227,4445.128418,,,,,,,,,,,,,,,,,,,,,,,,,,,,,,,,,,,,,,,,,,,,,,,,,,,,,,,,,,,,,,,,,,,,,,
1768972402.631087,1768972402.631724,70.0,0.0,4385.769043,4393.461426,4358.974121,4383.974121,4375.128418,4368.589844,4367.94873,4354.743652,4357.692383,4363.589844,4457.94873,4516.410156,4418.333496,4455.128418,,,,,,,,,,,,,,,,,,,,,,,,,,,,,,,,,,,,,,,,,,,,,,,,,,,,,,,,,,,,,,,,,,,,,,
1768972402.638895,1768972402.639532,71.0,0.0,4395.384766,4396.538574,4355.641113,4382.692383,4371.282227,4359.871582,4356.025879,4351.410156,4356.794922,4359.358887,4459.743652,4513.077148,4421.666504,4462.436035,,,,,,,,,,,,,,,,,,,,,,,,,,,,,,,,,,,,,,,,,,,,,,,,,,,,,,,,,,,,,,,,,,,,,,
1768972402.646704,1768972402.647541,72.0,0.0,4389.487305,4389.358887,4353.077148,4380.897461,4370.256348,4357.820313,4357.436035,4356.282227,4358.589844,4360.512695,4459.358887,4504.230957,4420.512695,4458.461426,,,,,,,,,,,,,,,,,,,,,,,,,,,,,,,,,,,,,,,,,,,,,,,,,,,,,,,,,,,,,,,,,,,,,,
1768972402.654512,1768972402.655349,73.0,0.0,4381.538574,4384.358887,4350.256348,4380.0,4375.128418,4363.077148,4368.333496,4352.436035,4355.769043,4357.563965,4448.333496,4498.077148,4413.589844,4450.769043,,,,,,,,,,,,,,,,,,,,,,,,,,,,,,,,,,,,,,,,,,,,,,,,,,,,,,,,,,,,,,,,,,,,,,
1768972402.662321,1768972402.663058,74.0,0.0,4381.922852,4388.717773,4352.563965,4379.615234,4377.94873,4363.461426,4363.333496,4345.256348,4349.615234,4345.256348,4448.717773,4501.153809,4411.282227,4452.05127,,,,,,,,,,,,,,,,,,,,,,,,,,,,,,,,,,,,,,,,,,,,,,,,,,,,,,,,,,,,,,,,,,,,,,
1768972402.670129,1768972402.670866,75.0,0.0,4382.563965,4390.0,4360.384766,4380.769043,4374.743652,4358.846191,4355.769043,4349.487305,4351.025879,4350.128418,4457.436035,4508.461426,4414.487305,4456.922852,,,,,,,,,,,,,,,,,,,,,,,,,,,,,,,,,,,,,,,,,,,,,,,,,,,,,,,,,,,,,,,,,,,,,,
1768972402.677937,1768972402.678475,76.0,0.0,4383.077148,4383.205078,4360.384766,4378.846191,4373.077148,4367.307617,4371.282227,4360.0,4360.256348,4364.230957,4453.077148,4504.102539,4414.102539,4454.743652,,,,,,,,,,,,,,,,,,,,,,,,,,,,,,,,,,,,,,,,,,,,,,,,,,,,,,,,,,,,,,,,,,,,,,
1768972402.685746,1768972402.686283,77.0,0.0,4383.974121,4377.94873,4353.205078,4372.820313,4373.974121,4378.846191,4381.922852,4366.666504,4365.897461,4363.333496,4449.102539,4498.974121,4409.615234,4449.358887,,,,,,,,,,,,,,,,,,,,,,,,,,,,,,,,,,,,,,,,,,,,,,,,,,,,,,,,,,,,,,,,,,,,,,
1768972402.693554,1768972402.693992,78.0,0.0,4386.922852,4382.94873,4353.589844,4373.077148,4373.205078,4366.410156,4368.846191,4365.0,4366.282227,4364.358887,4458.077148,4509.102539,4415.384766,4456.538574,0.522482,0.144867,0.28723,0.170357,0.157502,0.383619,0.453764,0.253505,0.124483,0.098232,0.330443,0.30674,0.225032,0.155045,0.100676,0.189743,0.20047,0.120577,0.075428,0.085833,0.065664,0.096971,0.075724,0.035199,0.049672,0.218011,0.086547,0.063267,0.129308,0.17009,0.330037,0.36544,0.157039,0.183811,0.224364,0.194903,0.190303,0.060397,0.167619,0.12881,0.377047,0.452205,0.103768,0.175363,0.098383,0.60944,0.351266,0.122684,0.109209,0.060903,0.64288,0.322739,0.297347,0.167832,0.134803,0.654189,0.297194,0.139777,0.178948,0.110637,0.429547,0.502551,0.245591,0.318042,0.230817,0.479126,0.29584,0.359815,0.264662,0.185346
1768972402.701363,1768972402.7018,79.0,0.0,4393.974121,4389.102539,4360.128418,4381.282227,4373.717773,4354.102539,4364.615234,4359.615234,4365.128418,4372.820313,4463.461426,4519.743652,4428.974121,4470.128418,,,,,,,,,,,,,,,,,,,,,,,,,,,,,,,,,,,,,,,,,,,,,,,,,,,,,,,,,,,,,,,,,,,,,,
1768972402.709171,1768972402.709808,80.0,0.0,4392.05127,4384.487305,4359.487305,4381.794922,4375.641113,4363.077148,4371.282227,4356.922852,4359.358887,4365.384766,4459.871582,4517.307617,4428.461426,4468.974121,,,,,,,,,,,,,,,,,,,,,,,,,,,,,,,,,,,,,,,,,,,,,,,,,,,,,,,,,,,,,,,,,,,,,,
1768972402.71698,1768972402.717617,81.0,0.0,4384.871582,4380.0,4355.769043,4376.666504,4373.333496,4365.0,4361.794922,4353.589844,4355.256348,4354.230957,4457.563965,4509.487305,4416.922852,4459.487305,,,,,,,,,,,,,,,,,,,,,,,,,,,,,,,,,,,,,,,,,,,,,,,,,,,,,,,,,,,,,,,,,,,,,,
1768972402.724788,1768972402.725525,82.0,0.0,4385.897461,4384.102539,4355.128418,4378.205078,4372.820313,4355.769043,4352.307617,4348.333496,4358.589844,4358.589844,4458.333496,4504.487305,4414.230957,4457.179688,,,,,,,,,,,,,,,,,,,,,,,,,,,,,,,,,,,,,,,,,,,,,,,,,,,,,,,,,,,,,,,,,,,,,,
1768972402.732597,1768972402.733334,83.0,0.0,4388.846191,4391.410156,4360.512695,4381.666504,4378.333496,4361.282227,4363.846191,4350.256348,4359.871582,4363.589844,4461.922852,4508.717773,4419.102539,4463.077148,,,,,,,,,,,,,,,,,,,,,,,,,,,,,,,,,,,,,,,,,,,,,,,,,,,,,,,,,,,,,,,,,,,,,,
1768972402.740405,1768972402.741342,84.0,0.0,4387.94873,4395.128418,4363.333496,4382.05127,4379.358887,4372.05127,4374.230957,4356.025879,4357.05127,4365.384766,4461.922852,4514.615234,4418.846191,4464.358887,,,,,,,,,,,,,,,,,,,,,,,,,,,,,,,,,,,,,,,,,,,,,,,,,,,,,,,,,,,,,,,,,,,,,,
1768972402.748213,1768972402.74915,85.0,0.0,4386.410156,4392.05127,4354.615234,4381.282227,4377.436035,4371.153809,4372.563965,4356.922852,4362.179688,4366.282227,4457.94873,4509.615234,4416.025879,4458.461426,,,,,,,,,,,,,,,,,,,,,,,,,,,,,,,,,,,,,,,,,,,,,,,,,,,,,,,,,,,,,,,,,,,,,,
1768972402.756022,1768972402.757059,86.0,0.0,4386.538574,4388.717773,4348.077148,4381.922852,4378.077148,4366.922852,4370.897461,4355.512695,4366.666504,4364.871582,4458.333496,4505.0,4414.230957,4456.153809,,,,,,,,,,,,,,,,,,,,,,,,,,,,,,,,,,,,,,,,,,,,,,,,,,,,,,,,,,,,,,,,,,,,,,
1768972402.76383,1768972402.764867,87.0,0.0,4388.461426,4389.615234,4350.769043,4382.692383,4375.769043,4365.897461,4370.384766,4353.717773,4360.897461,4360.769043,4457.563965,4507.179688,4412.820313,4458.333496,,,,,,,,,,,,,,,,,,,,,,,,,,,,,,,,,,,,,,,,,,,,,,,,,,,,,,,,,,,,,,,,,,,,,,
1768972402.771639,1768972402.772476,88.0,0.0,4388.333496,4386.666504,4351.794922,4381.025879,4374.487305,4372.436035,4372.307617,4353.974121,4361.025879,4356.538574,4451.153809,4504.615234,4412.436035,4458.333496,,,,,,,,,,,,,,,,,,,,,,,,,,,,,,,,,,,,,,,,,,,,,,,,,,,,,,,,,,,,,,,,,,,,,,
1768972402.779447,1768972402.780284,89.0,0.0,4387.436035,4379.743652,4350.0,4378.589844,4376.666504,4374.358887,4369.871582,4353.589844,4365.769043,4355.897461,4443.717773,4498.717773,4412.05127,4450.897461,,,,,,,,,,,,,,,,,,,,,,,,,,,,,,,,,,,,,,,,,,,,,,,,,,,,,,,,,,,,,,,,,,,,,,
1768972402.787255,1768972402.787993,90.0,0.0,4389.358887,4380.128418,4350.512695,4378.333496,4376.153809,4366.025879,4363.589844,4349.487305,4358.589844,4357.436035,4442.820313,4496.922852,4410.384766,4450.769043,,,,,,,,,,,,,,,,,,,,,,,,,,,,,,,,,,,,,,,,,,,,,,,,,,,,,,,,,,,,,,,,,,,,,,
1768972402.795064,1768972402.795801,91.0,0.0,4390.128418,4386.410156,4350.0,4381.282227,4376.410156,4367.436035,4367.820313,4349.230957,4355.512695,4360.384766,4451.025879,4499.615234,4412.436035,4459.743652,,,,,,,,,,,,,,,,,,,,,,,,,,,,,,,,,,,,,,,,,,,,,,,,,,,,,,,,,,,,,,,,,,,,,,
1768972402.802872,1768972402.803809,92.0,0.0,4388.974121,4388.461426,4350.897461,4380.897461,4379.358887,4372.692383,4370.256348,4352.05127,4364.743652,4363.974121,4461.666504,4503.461426,4419.102539,4462.563965,,,,,,,,,,,,,,,,,,,,,,,,,,,,,,,,,,,,,,,,,,,,,,,,,,,,,,,,,,,,,,,,,,,,,,
1768972402.810681,1768972402.811618,93.0,0.0,4391.025879,4383.846191,4354.743652,4379.230957,4375.641113,4365.512695,4361.282227,4349.487305,4364.743652,4369.615234,4460.384766,4503.333496,4420.512695,4461.153809,,,,,,,,,,,,,,,,,,,,,,,,,,,,,,,,,,,,,,,,,,,,,,,,,,,,,,,,,,,,,,,,,,,,,,
1768972402.818489,1768972402.819526,94.0,0.0,4389.743652,4380.128418,4356.025879,4379.743652,4371.922852,4358.846191,4357.692383,4342.692383,4355.0,4365.512695,4448.205078,4499.487305,4413.717773,4458.846191,0.562991,0.159776,0.282105,0.185555,0.168511,0.48437,0.502643,0.285284,0.12383,0.103934,0.39954,0.316144,0.252748,0.154365,0.107792,0.238634,0.216717,0.148117,0.06684,0.091051,0.072992,0.090643,0.076832,0.032652,0.051104,0.219523,0.059795,0.065739,0.116924,0.154682,0.291191,0.265235,0.139674,0.151217,0.197849,0.175921,0.159924,0.062768,0.148772,0.124003,0.423101,0.459561,0.093041,0.17386,0.093419,0.580112,0.395,0.146011,0.098759,0.0557,0.699103,0.422741,0.381435,0.195516,0.139456,0.669636,0.339098,0.170285,0.182872,0.119558,0.493548,0.559397,0.306616,0.318184,0.229335,0.55641,0.368054,0.381216,0.250566,0.199505
1768972402.826298,1768972402.827335,95.0,0.0,4380.0,4379.743652,4353.461426,4378.974121,4373.461426,4365.0,4365.0,4342.94873,4352.179688,4347.436035,4442.179688,4497.94873,4410.384766,4450.641113,,,,,,,,,,,,,,,,,,,,,,,,,,,,,,,,,,,,,,,,,,,,,,,,,,,,,,,,,,,,,,,,,,,,,,
1768972402.834106,1768972402.835343,96.0,0.0,4376.410156,4379.102539,4350.128418,4377.05127,4373.589844,4369.230957,4369.487305,4346.666504,4356.153809,4347.05127,4445.384766,4496.410156,4412.820313,4444.487305,,,,,,,,,,,,,,,,,,,,,,,,,,,,,,,,,,,,,,,,,,,,,,,,,,,,,,,,,,,,,,,,,,,,,,
1768972402.841915,1768972402.843151,97.0,0.0,4381.538574,4378.846191,4349.358887,4377.692383,4374.358887,4365.897461,4368.717773,4348.589844,4361.666504,4366.794922,4447.436035,4495.897461,4413.333496,4448.077148,,,,,,,,,,,,,,,,,,,,,,,,,,,,,,,,,,,,,,,,,,,,,,,,,,,,,,,,,,,,,,,,,,,,,,
1768972402.849723,1768972402.85086,98.0,0.0,4382.820313,4376.538574,4350.256348,4380.769043,4373.461426,4364.102539,4368.077148,4353.077148,4365.384766,4368.717773,4447.94873,4501.538574,4413.846191,4448.974121,,,,,,,,,,,,,,,,,,,,,,,,,,,,,,,,,,,,,,,,,,,,,,,,,,,,,,,,,,,,,,,,,,,,,,
1768972402.857531,1768972402.858668,99.0,0.0,4380.512695,4372.820313,4349.102539,4378.717773,4370.128418,4363.461426,4368.077148,4350.641113,4361.410156,4356.282227,4445.897461,4499.487305,4414.102539,4443.846191,,,,,,,,,,,,,,,,,,,,,,,,,,,,,,,,,,,,,,,,,,,,,,,,,,,,,,,,,,,,,,,,,,,,,,
1768972402.86534,1768972402.866277,100.0,0.0,4380.128418,4373.333496,4346.410156,4376.410156,4370.512695,4368.077148,4371.922852,4341.922852,4357.05127,4354.743652,4440.897461,4487.307617,4408.333496,4442.820313,,,,,,,,,,,,,,,,,,,,,,,,,,,,,,,,,,,,,,,,,,,,,,,,,,,,,,,,,,,,,,,,,,,,,,
1768972402.873148,1768972402.874085,101.0,0.0,4378.461426,4373.974121,4344.871582,4376.282227,4371.666504,4378.333496,4373.974121,4338.974121,4358.205078,4355.769043,4440.256348,4485.128418,4403.077148,4444.358887,,,,,,,,,,,,,,,,,,,,,,,,,,,,,,,,,,,,,,,,,,,,,,,,,,,,,,,,,,,,,,,,,,,,,,
1768972402.880957,1768972402.881794,102.0,0.0,4379.615234,4371.922852,4347.436035,4374.615234,4371.025879,4380.641113,4367.179688,4338.461426,4358.205078,4354.102539,4443.205078,4493.077148,4405.128418,4441.922852,,,,,,,,,,,,,,,,,,,,,,,,,,,,,,,,,,,,,,,,,,,,,,,,,,,,,,,,,,,,,,,,,,,,,,
1768972402.888765,1768972402.889602,103.0,0.0,4383.846191,4371.922852,4349.615234,4374.487305,4372.179688,4371.282227,4359.230957,4336.794922,4360.128418,4356.794922,4443.077148,4493.077148,4407.692383,4439.871582,,,,,,,,,,,,,,,,,,,,,,,,,,,,,,,,,,,,,,,,,,,,,,,,,,,,,,,,,,,,,,,,,,,,,,
1768972402.896574,1768972402.897211,104.0,0.0,4379.230957,4372.179688,4347.563965,4373.846191,4371.410156,4365.256348,4358.846191,4342.307617,4365.384766,4355.512695,4442.179688,4488.077148,4406.282227,4442.563965,,,,,,,,,,,,,,,,,,,,,,,,,,,,,,,,,,,,,,,,,,,,,,,,,,,,,,,,,,,,,,,,,,,,,,
1768972402.904382,1768972402.90502,105.0,0.0,4375.256348,4370.512695,4348.461426,4371.666504,4367.94873,4367.820313,4367.563965,4349.230957,4366.153809,4355.256348,4443.077148,4493.717773,4407.692383,4444.743652,,,,,,,,,,,,,,,,,,,,,,,,,,,,,,,,,,,,,,,,,,,,,,,,,,,,,,,,,,,,,,,,,,,,,,
1768972402.912191,1768972402.912728,106.0,0.0,4383.205078,4372.563965,4353.589844,4374.487305,4372.307617,4374.871582,4377.05127,4349.102539,4366.794922,4360.0,4445.384766,4503.077148,4412.307617,4444.487305,,,,,,,,,,,,,,,,,,,,,,,,,,,,,,,,,,,,,,,,,,,,,,,,,,,,,,,,,,,,,,,,,,,,,,
1768972402.919999,1768972402.920537,107.0,0.0,4390.512695,4373.974121,4358.077148,4381.153809,4374.358887,4380.384766,4373.974121,4350.0,4371.410156,4360.641113,4447.179688,4501.282227,4412.563965,4445.641113,,,,,,,,,,,,,,,,,,,,,,,,,,,,,,,,,,,,,,,,,,,,,,,,,,,,,,,,,,,,,,,,,,,,,,
1768972402.927807,1768972402.928545,108.0,0.0,4388.974121,4373.846191,4360.256348,4381.538574,4367.436035,4374.358887,4362.05127,4346.410156,4368.333496,4357.05127,4444.871582,4497.307617,4410.128418,4445.128418,,,,,,,,,,,,,,,,,,,,,,,,,,,,,,,,,,,,,,,,,,,,,,,,,,,,,,,,,,,,,,,,,,,,,,
1768972402.935616,1768972402.936353,109.0,0.0,4387.820313,4377.692383,4357.563965,4378.461426,4367.436035,4366.410156,4359.615234,4338.974121,4362.307617,4357.692383,4443.974121,4498.846191,4411.282227,4442.692383,,,,,,,,,,,,,,,,,,,,,,,,,,,,,,,,,,,,,,,,,,,,,,,,,,,,,,,,,,,,,,,,,,,,,,
1768972402.943424,1768972402.944262,110.0,0.0,4389.102539,4382.179688,4353.077148,4381.282227,4373.461426,4368.077148,4363.974121,4341.538574,4365.512695,4364.487305,4451.153809,4499.743652,4414.487305,4448.077148,0.592219,0.184331,0.262673,0.202683,0.17396,0.603334,0.529257,0.295446,0.127628,0.106918,0.453726,0.300473,0.257482,0.152073,0.107102,0.288538,0.225089,0.166969,0.061196,0.09281,0.078925,0.084802,0.078192,0.031592,0.054416,0.222227,0.050028,0.084804,0.110678,0.144596,0.251591,0.181328,0.139139,0.125575,0.184011,0.15199,0.144812,0.073878,0.144049,0.121019,0.450269,0.453994,0.091061,0.173352,0.090386,0.51821,0.401296,0.167209,0.10554,0.059777,0.691129,0.517619,0.438713,0.22363,0.143104,0.671059,0.361467,0.20125,0.194726,0.133373,0.535513,0.579323,0.356581,0.320498,0.225942,0.64765,0.468611,0.385986,0.242792,0.216154
1768972402.951233,1768972402.95207,111.0,0.0,4390.0,4383.589844,4353.077148,4383.717773,4372.307617,4368.589844,4360.897461,4346.025879,4367.563965,4365.897461,4454.871582,4500.641113,4415.256348,4456.922852,,,,,,,,,,,,,,,,,,,,,,,,,,,,,,,,,,,,,,,,,,,,,,,,,,,,,,,,,,,,,,,,,,,,,,
1768972402.959041,1768972402.960078,112.0,0.0,4393.461426,4385.897461,4356.794922,4382.05127,4370.769043,4365.897461,4359.743652,4343.461426,4364.615234,4361.282227,4454.871582,4503.717773,4413.717773,4459.487305,,,,,,,,,,,,,,,,,,,,,,,,,,,,,,,,,,,,,,,,,,,,,,,,,,,,,,,,,,,,,,,,,,,,,,
1768972402.96685,1768972402.967887,113.0,0.0,4397.94873,4390.256348,4358.205078,4383.846191,4373.846191,4366.025879,4364.358887,4339.230957,4364.487305,4362.94873,4454.871582,4501.794922,4415.512695,4457.563965,,,,,,,,,,,,,,,,,,,,,,,,,,,,,,,,,,,,,,,,,,,,,,,,,,,,,,,,,,,,,,,,,,,,,,
1768972402.974658,1768972402.975595,114.0,0.0,4399.358887,4391.794922,4355.384766,4387.05127,4373.974121,4368.205078,4366.153809,4338.205078,4365.641113,4365.128418,4452.179688,4497.436035,4422.692383,4457.692383,,,,,,,,,,,,,,,,,,,,,,,,,,,,,,,,,,,,,,,,,,,,,,,,,,,,,,,,,,,,,,,,,,,,,,
1768972402.982467,1768972402.983404,115.0,0.0,4394.230957,4387.179688,4351.538574,4385.384766,4372.307617,4369.230957,4366.153809,4335.384766,4364.743652,4360.128418,4448.974121,4497.692383,4422.563965,4460.256348,,,,,,,,,,,,,,,,,,,,,,,,,,,,,,,,,,,,,,,,,,,,,,,,,,,,,,,,,,,,,,,,,,,,,,
1768972402.990275,1768972402.991412,116.0,0.0,4388.077148,4381.153809,4350.256348,4381.666504,4370.128418,4360.384766,4361.922852,4332.563965,4365.128418,4358.461426,4447.179688,4499.615234,4414.358887,4456.410156,,,,,,,,,,,,,,,,,,,,,,,,,,,,,,,,,,,,,,,,,,,,,,,,,,,,,,,,,,,,,,,,,,,,,,
1768972402.998083,1768972402.99922,117.0,0.0,4390.384766,4379.871582,4353.589844,4380.512695,4364.358887,4352.563965,4354.871582,4335.641113,4366.282227,4359.743652,4446.538574,4498.974121,4412.179688,4448.077148,,,,,,,,,,,,,,,,,,,,,,,,,,,,,,,,,,,,,,,,,,,,,,,,,,,,,,,,,,,,,,,,,,,,,,
1768972403.005892,1768972403.007129,118.0,0.0,4394.358887,4381.794922,4355.641113,4383.205078,4362.94873,4361.282227,4359.230957,4340.641113,4366.153809,4358.077148,4446.666504,4496.153809,4415.384766,4448.077148,,,,,,,,,,,,,,,,,,,,,,,,,,,,,,,,,,,,,,,,,,,,,,,,,,,,,,,,,,,,,,,,,,,,,,
1768972403.0137,1768972403.014937,119.0,0.0,4394.487305,4385.128418,4355.0,4387.307617,4368.846191,4372.692383,4369.743652,4342.05127,4369.358887,4359.871582,4450.0,4494.743652,4416.666504,4456.538574,,,,,,,,,,,,,,,,,,,,,,,,,,,,,,,,,,,,,,,,,,,,,,,,,,,,,,,,,,,,,,,,,,,,,,
1768972403.021509,1768972403.022945,120.0,0.0,4395.384766,4388.077148,4357.179688,4387.820313,4372.179688,4371.666504,4370.769043,4342.179688,4372.179688,4361.794922,4455.512695,4498.077148,4415.384766,4459.487305,,,,,,,,,,,,,,,,,,,,,,,,,,,,,,,,,,,,,,,,,,,,,,,,,,,,,,,,,,,,,,,,,,,,,,
1768972403.029317,1768972403.030754,121.0,0.0,4396.538574,4391.794922,4360.769043,4386.410156,4370.769043,4366.153809,4364.743652,4341.025879,4369.871582,4356.666504,4456.282227,4502.05127,4414.102539,4458.205078,,,,,,,,,,,,,,,,,,,,,,,,,,,,,,,,,,,,,,,,,,,,,,,,,,,,,,,,,,,,,,,,,,,,,,
1768972403.037126,1768972403.038662,122.0,0.0,4396.153809,4395.0,4359.743652,4387.436035,4371.410156,4365.128418,4359.871582,4336.025879,4367.94873,4356.153809,4452.94873,4507.05127,4415.769043,4460.128418,,,,,,,,,,,,,,,,,,,,,,,,,,,,,,,,,,,,,,,,,,,,,,,,,,,,,,,,,,,,,,,,,,,,,,
1768972403.044934,1768972403.046471,123.0,0.0,4398.589844,4395.384766,4356.538574,4384.871582,4371.666504,4364.102539,4356.922852,4332.05127,4368.589844,4361.794922,4453.717773,4510.128418,4418.589844,4461.410156,,,,,,,,,,,,,,,,,,,,,,,,,,,,,,,,,,,,,,,,,,,,,,,,,,,,,,,,,,,,,,,,,,,,,,
1768972403.052743,1768972403.054079,124.0,0.0,4399.743652,4391.410156,4358.846191,4380.0,4368.846191,4358.461426,4354.615234,4332.307617,4365.256348,4359.358887,4459.102539,4506.025879,4418.333496,4461.153809,,,,,,,,,,,,,,,,,,,,,,,,,,,,,,,,,,,,,,,,,,,,,,,,,,,,,,,,,,,,,,,,,,,,,,
1768972403.060551,1768972403.061888,125.0,0.0,4399.615234,4389.230957,4361.794922,4382.820313,4367.94873,4356.922852,4355.0,4335.641113,4365.512695,4356.538574,4458.717773,4504.487305,4421.794922,4463.077148,,,,,,,,,,,,,,,,,,,,,,,,,,,,,,,,,,,,,,,,,,,,,,,,,,,,,,,,,,,,,,,,,,,,,,
