Timestamp,OriginalTimestamp,EEG.Counter,EEG.Interpolated,EEG.AF3,EEG.F7,EEG.F3,EEG.FC5,EEG.T7,EEG.P7,EEG.O1,EEG.O2,EEG.P8,EEG.T8,EEG.FC6,EEG.F4,EEG.F8,EEG.AF4,POW.AF3.Theta,POW.AF3.Alpha,POW.AF3.BetaL,POW.AF3.BetaH,POW.AF3.Gamma,POW.F7.Theta,POW.F7.Alpha,POW.F7.BetaL,POW.F7.BetaH,POW.F7.Gamma,POW.F3.Theta,POW.F3.Alpha,POW.F3.BetaL,POW.F3.BetaH,POW.F3.Gamma,POW.FC5.Theta,POW.FC5.Alpha,POW.FC5.BetaL,POW.FC5.BetaH,POW.FC5.Gamma,POW.T7.Theta,POW.T7.Alpha,POW.T7.BetaL,POW.T7.BetaH,POW.T7.Gamma,POW.P7.Theta,POW.P7.Alpha,POW.P7.BetaL,POW.P7.BetaH,POW.P7.Gamma,POW.O1.Theta,POW.O1.Alpha,POW.O1.BetaL,POW.O1.BetaH,POW.O1.Gamma,POW.O2.Theta,POW.O2.Alpha,POW.O2.BetaL,POW.O2.BetaH,POW.O2.Gamma,POW.P8.Theta,POW.P8.Alpha,POW.P8.BetaL,POW.P8.BetaH,POW.P8.Gamma,POW.T8.Theta,POW.T8.Alpha,POW.T8.BetaL,POW.T8.BetaH,POW.T8.Gamma,POW.FC6.Theta,POW.FC6.Alpha,POW.FC6.BetaL,POW.FC6.BetaH,POW.FC6.Gamma,POW.F4.Theta,POW.F4.Alpha,POW.F4.BetaL,POW.F4.BetaH,POW.F4.Gamma,POW.F8.Theta,POW.F8.Alpha,POW.F8.BetaL,POW.F8.BetaH,POW.F8.Gamma,POW.AF4.Theta,POW.AF4.Alpha,POW.AF4.BetaL,POW.AF4.BetaH,POW.AF4.Gamma
1769161188.390808,1769161188.391784,37.0,0.0,4296.538574,4273.077148,4323.974121,4320.128418,4267.05127,4281.153809,4279.743652,4281.410156,4276.794922,4261.922852,4553.461426,4519.615234,4408.717773,4482.563965,,,,,,,,,,,,,,,,,,,,,,,,,,,,,,,,,,,,,,,,,,,,,,,,,,,,,,,,,,,,,,,,,,,,,,
1769161188.398616,1769161188.399692,38.0,0.0,4303.846191,4277.94873,4326.794922,4326.794922,4265.641113,4276.922852,4274.871582,4272.563965,4267.179688,4258.589844,4555.256348,4526.922852,4413.077148,4494.230957,,,,,,,,,,,,,,,,,,,,,,,,,,,,,,,,,,,,,,,,,,,,,,,,,,,,,,,,,,,,,,,,,,,,,,
1769161188.406425,1769161188.4075,39.0,0.0,4307.436035,4280.512695,4330.897461,4329.615234,4266.794922,4279.102539,4273.333496,4262.436035,4268.717773,4267.307617,4559.358887,4524.871582,4413.461426,4495.384766,,,,,,,,,,,,,,,,,,,,,,,,,,,,,,,,,,,,,,,,,,,,,,,,,,,,,,,,,,,,,,,,,,,,,,
1769161188.414233,1769161188.415509,40.0,0.0,4304.615234,4279.615234,4326.282227,4328.205078,4273.077148,4284.358887,4278.461426,4269.487305,4280.512695,4282.563965,4562.94873,4525.897461,4419.487305,4493.333496,,,,,,,,,,,,,,,,,,,,,,,,,,,,,,,,,,,,,,,,,,,,,,,,,,,,,,,,,,,,,,,,,,,,,,
1769161188.422042,1769161188.423317,41.0,0.0,4292.436035,4275.384766,4315.128418,4320.512695,4274.487305,4285.256348,4280.256348,4280.256348,4282.563965,4281.410156,4563.717773,4526.794922,4421.794922,4494.871582,,,,,,,,,,,,,,,,,,,,,,,,,,,,,,,,,,,,,,,,,,,,,,,,,,,,,,,,,,,,,,,,,,,,,,
1769161188.42985,1769161188.431125,42.0,0.0,4288.974121,4271.025879,4312.692383,4311.282227,4266.666504,4277.820313,4277.307617,4277.692383,4276.666504,4266.410156,4561.794922,4521.410156,4414.871582,4493.205078,,,,,,,,,,,,,,,,,,,,,,,,,,,,,,,,,,,,,,,,,,,,,,,,,,,,,,,,,,,,,,,,,,,,,,
1769161188.437659,1769161188.438934,43.0,0.0,4305.512695,4272.94873,4322.692383,4316.666504,4264.615234,4273.333496,4277.692383,4271.025879,4274.102539,4261.282227,4559.358887,4519.871582,4410.769043,4490.769043,,,,,,,,,,,,,,,,,,,,,,,,,,,,,,,,,,,,,,,,,,,,,,,,,,,,,,,,,,,,,,,,,,,,,,
1769161188.445467,1769161188.446543,44.0,0.0,4314.743652,4281.153809,4330.128418,4327.307617,4269.871582,4280.256348,4278.461426,4273.846191,4270.512695,4266.282227,4555.0,4523.974121,4412.94873,4492.179688,,,,,,,,,,,,,,,,,,,,,,,,,,,,,,,,,,,,,,,,,,,,,,,,,,,,,,,,,,,,,,,,,,,,,,
1769161188.453276,1769161188.454351,45.0,0.0,4301.794922,4279.102539,4323.205078,4321.410156,4269.230957,4289.615234,4278.461426,4280.128418,4265.769043,4266.025879,4555.897461,4525.256348,4415.384766,4494.743652,,,,,,,,,,,,,,,,,,,,,,,,,,,,,,,,,,,,,,,,,,,,,,,,,,,,,,,,,,,,,,,,,,,,,,
1769161188.461084,1769161188.46206,46.0,0.0,4290.512695,4268.974121,4312.94873,4312.563965,4264.358887,4287.307617,4279.230957,4279.487305,4265.897461,4263.461426,4563.205078,4524.230957,4413.461426,4496.025879,0.470504,0.221563,0.311746,0.212911,0.225397,0.430212,0.451561,0.142215,0.170737,0.147266,0.219401,0.389321,0.148347,0.108533,0.140671,0.361363,0.354897,0.179706,0.119377,0.105239,0.439851,0.289874,0.269637,0.097677,0.072934,0.646371,0.237719,0.146612,0.339669,0.11737,0.176308,0.333245,0.129154,0.154826,0.116743,0.178508,0.707561,0.203515,0.118613,0.214773,0.149764,0.497522,0.191615,0.161169,0.224278,0.435223,0.53213,0.784928,0.274617,0.347364,0.347984,0.361185,0.299944,0.203391,0.217137,0.286249,0.489642,0.339693,0.112859,0.165983,0.471141,0.24473,0.224618,0.259554,0.271967,0.54971,0.366877,0.398817,0.152421,0.149572
1769161188.468892,1769161188.469868,47.0,0.0,4295.256348,4271.666504,4309.871582,4315.897461,4263.589844,4275.256348,4277.436035,4276.666504,4271.922852,4263.846191,4562.05127,4521.410156,4409.230957,4492.692383,,,,,,,,,,,,,,,,,,,,,,,,,,,,,,,,,,,,,,,,,,,,,,,,,,,,,,,,,,,,,,,,,,,,,,
1769161188.476701,1769161188.477477,48.0,0.0,4305.384766,4280.897461,4313.589844,4322.94873,4265.384766,4276.282227,4277.179688,4279.358887,4275.0,4266.153809,4553.077148,4519.487305,4407.692383,4489.615234,,,,,,,,,,,,,,,,,,,,,,,,,,,,,,,,,,,,,,,,,,,,,,,,,,,,,,,,,,,,,,,,,,,,,,
1769161188.484509,1769161188.485285,49.0,0.0,4306.282227,4283.077148,4316.666504,4328.589844,4268.077148,4291.282227,4280.128418,4279.743652,4270.384766,4265.0,4553.077148,4519.743652,4411.153809,4490.128418,,,,,,,,,,,,,,,,,,,,,,,,,,,,,,,,,,,,,,,,,,,,,,,,,,,,,,,,,,,,,,,,,,,,,,
1769161188.492318,1769161188.492994,50.0,0.0,4295.769043,4275.769043,4312.05127,4323.974121,4268.461426,4295.384766,4281.153809,4279.487305,4271.410156,4258.077148,4559.487305,4521.538574,4411.538574,4490.769043,,,,,,,,,,,,,,,,,,,,,,,,,,,,,,,,,,,,,,,,,,,,,,,,,,,,,,,,,,,,,,,,,,,,,,
1769161188.500126,1769161188.500802,51.0,0.0,4291.025879,4267.94873,4309.871582,4312.436035,4265.256348,4287.94873,4281.153809,4281.025879,4278.461426,4257.692383,4554.871582,4522.94873,4404.358887,4489.487305,,,,,,,,,,,,,,,,,,,,,,,,,,,,,,,,,,,,,,,,,,,,,,,,,,,,,,,,,,,,,,,,,,,,,,
1769161188.507935,1769161188.50881,52.0,0.0,4303.333496,4271.922852,4317.179688,4317.820313,4265.897461,4285.769043,4286.410156,4281.025879,4280.512695,4273.333496,4552.820313,4522.692383,4405.384766,4491.153809,,,,,,,,,,,,,,,,,,,,,,,,,,,,,,,,,,,,,,,,,,,,,,,,,,,,,,,,,,,,,,,,,,,,,,
1769161188.515743,1769161188.516619,53.0,0.0,4307.05127,4280.0,4317.436035,4328.717773,4267.820313,4281.666504,4288.717773,4285.384766,4278.205078,4276.410156,4563.717773,4524.871582,4418.974121,4499.871582,,,,,,,,,,,,,,,,,,,,,,,,,,,,,,,,,,,,,,,,,,,,,,,,,,,,,,,,,,,,,,,,,,,,,,
1769161188.523552,1769161188.524527,54.0,0.0,4298.846191,4281.922852,4310.897461,4325.512695,4265.769043,4276.922852,4283.589844,4288.589844,4278.077148,4266.282227,4572.820313,4534.487305,4430.897461,4508.717773,,,,,,,,,,,,,,,,,,,,,,,,,,,,,,,,,,,,,,,,,,,,,,,,,,,,,,,,,,,,,,,,,,,,,,
1769161188.53136,1769161188.532336,55.0,0.0,4304.743652,4284.102539,4317.179688,4323.589844,4266.410156,4286.538574,4280.256348,4283.333496,4279.358887,4271.025879,4570.0,4538.205078,4428.974121,4504.743652,,,,,,,,,,,,,,,,,,,,,,,,,,,,,,,,,,,,,,,,,,,,,,,,,,,,,,,,,,,,,,,,,,,,,,
1769161188.539169,1769161188.539944,56.0,0.0,4311.153809,4288.461426,4321.282227,4327.692383,4267.692383,4295.641113,4280.384766,4278.333496,4274.230957,4276.922852,4557.820313,4527.692383,4417.179688,4490.897461,,,,,,,,,,,,,,,,,,,,,,,,,,,,,,,,,,,,,,,,,,,,,,,,,,,,,,,,,,,,,,,,,,,,,,
1769161188.546977,1769161188.547753,57.0,0.0,4304.871582,4289.102539,4313.333496,4326.025879,4268.205078,4293.589844,4280.384766,4277.692383,4265.641113,4263.077148,4552.692383,4521.153809,4408.717773,4485.256348,,,,,,,,,,,,,,,,,,,,,,,,,,,,,,,,,,,,,,,,,,,,,,,,,,,,,,,,,,,,,,,,,,,,,,
1769161188.554786,1769161188.555461,58.0,0.0,4304.615234,4287.179688,4313.846191,4327.436035,4269.358887,4289.487305,4280.512695,4276.538574,4261.666504,4248.974121,4553.974121,4523.077148,4410.512695,4490.512695,,,,,,,,,,,,,,,,,,,,,,,,,,,,,,,,,,,,,,,,,,,,,,,,,,,,,,,,,,,,,,,,,,,,,,
1769161188.562594,1769161188.56327,59.0,0.0,4307.94873,4280.897461,4316.282227,4326.922852,4267.563965,4287.820313,4280.897461,4277.179688,4263.077148,4251.282227,4553.333496,4522.94873,4411.410156,4492.820313,,,,,,,,,,,,,,,,,,,,,,,,,,,,,,,,,,,,,,,,,,,,,,,,,,,,,,,,,,,,,,,,,,,,,,
1769161188.570403,1769161188.571278,60.0,0.0,4307.436035,4279.871582,4310.769043,4317.820313,4267.692383,4290.256348,4277.94873,4279.102539,4265.128418,4264.743652,4560.256348,4525.641113,4412.563965,4492.692383,,,,,,,,,,,,,,,,,,,,,,,,,,,,,,,,,,,,,,,,,,,,,,,,,,,,,,,,,,,,,,,,,,,,,,
1769161188.578211,1769161188.579086,61.0,0.0,4309.487305,4285.897461,4309.743652,4319.358887,4273.846191,4294.102539,4279.230957,4279.102539,4268.205078,4270.128418,4564.871582,4526.794922,4421.794922,4493.589844,,,,,,,,,,,,,,,,,,,,,,,,,,,,,,,,,,,,,,,,,,,,,,,,,,,,,,,,,,,,,,,,,,,,,,
1769161188.586019,1769161188.586995,62.0,0.0,4303.461426,4282.05127,4310.384766,4325.0,4276.282227,4293.846191,4287.94873,4280.512695,4273.717773,4259.102539,4555.0,4523.461426,4422.94873,4490.0,0.386648,0.18337,0.296987,0.191751,0.210729,0.4304,0.476056,0.132673,0.152513,0.131212,0.208273,0.414905,0.126414,0.101113,0.142304,0.356803,0.385281,0.191312,0.134951,0.106499,0.426645,0.286322,0.245142,0.097899,0.072031,0.594806,0.218353,0.120809,0.36159,0.127398,0.163165,0.382487,0.155717,0.173763,0.134915,0.165207,0.633787,0.197983,0.144139,0.194772,0.153307,0.458561,0.162858,0.201971,0.187308,0.414199,0.54993,0.907304,0.253826,0.385416,0.345685,0.362321,0.262938,0.244528,0.223905,0.315669,0.504803,0.266796,0.112301,0.139973,0.419471,0.300369,0.215272,0.300596,0.234068,0.530547,0.379795,0.419865,0.173652,0.141771
1769161188.593828,1769161188.594803,63.0,0.0,4296.025879,4280.384766,4309.615234,4322.820313,4274.487305,4291.282227,4287.436035,4280.256348,4278.077148,4263.461426,4559.743652,4532.05127,4419.230957,4492.563965,,,,,,,,,,,,,,,,,,,,,,,,,,,,,,,,,,,,,,,,,,,,,,,,,,,,,,,,,,,,,,,,,,,,,,
1769161188.601636,1769161188.602811,64.0,0.0,4305.256348,4288.205078,4312.820313,4323.205078,4275.769043,4285.897461,4280.384766,4283.333496,4279.743652,4282.307617,4579.743652,4543.461426,4426.153809,4505.769043,,,,,,,,,,,,,,,,,,,,,,,,,,,,,,,,,,,,,,,,,,,,,,,,,,,,,,,,,,,,,,,,,,,,,,
1769161188.609445,1769161188.61062,65.0,0.0,4315.128418,4290.769043,4314.230957,4327.05127,4277.563965,4280.256348,4284.230957,4288.333496,4277.820313,4275.641113,4577.436035,4540.128418,4431.794922,4512.563965,,,,,,,,,,,,,,,,,,,,,,,,,,,,,,,,,,,,,,,,,,,,,,,,,,,,,,,,,,,,,,,,,,,,,,
1769161188.617253,1769161188.618328,66.0,0.0,4312.563965,4291.153809,4312.307617,4325.897461,4277.563965,4286.410156,4288.077148,4285.256348,4276.153809,4260.128418,4565.769043,4536.025879,4425.512695,4506.666504,,,,,,,,,,,,,,,,,,,,,,,,,,,,,,,,,,,,,,,,,,,,,,,,,,,,,,,,,,,,,,,,,,,,,,
1769161188.625062,1769161188.626137,67.0,0.0,4310.769043,4291.025879,4312.05127,4325.384766,4278.589844,4292.563965,4281.410156,4279.871582,4276.794922,4263.589844,4567.179688,4537.94873,4421.922852,4499.358887,,,,,,,,,,,,,,,,,,,,,,,,,,,,,,,,,,,,,,,,,,,,,,,,,,,,,,,,,,,,,,,,,,,,,,
1769161188.63287,1769161188.634145,68.0,0.0,4313.333496,4289.102539,4311.794922,4328.589844,4280.0,4293.717773,4278.974121,4279.487305,4273.717773,4270.128418,4571.410156,4539.358887,4426.922852,4497.563965,,,,,,,,,,,,,,,,,,,,,,,,,,,,,,,,,,,,,,,,,,,,,,,,,,,,,,,,,,,,,,,,,,,,,,
1769161188.640679,1769161188.641954,69.0,0.0,4312.94873,4290.641113,4311.025879,4327.436035,4281.025879,4294.230957,4281.282227,4277.179688,4265.0,4264.487305,4571.025879,4538.974121,4425.384766,4497.307617,,,,,,,,,,,,,,,,,,,,,,,,,,,,,,,,,,,,,,,,,,,,,,,,,,,,,,,,,,,,,,,,,,,,,,
1769161188.648487,1769161188.649662,70.0,0.0,4309.871582,4287.563965,4310.897461,4323.717773,4278.589844,4288.333496,4282.563965,4275.256348,4261.794922,4257.436035,4561.666504,4532.692383,4416.794922,4493.461426,,,,,,,,,,,,,,,,,,,,,,,,,,,,,,,,,,,,,,,,,,,,,,,,,,,,,,,,,,,,,,,,,,,,,,
1769161188.656295,1769161188.657471,71.0,0.0,4306.794922,4281.794922,4311.410156,4323.461426,4275.256348,4285.769043,4289.871582,4282.05127,4269.743652,4259.615234,4553.461426,4529.615234,4412.179688,4489.358887,,,,,,,,,,,,,,,,,,,,,,,,,,,,,,,,,,,,,,,,,,,,,,,,,,,,,,,,,,,,,,,,,,,,,,
1769161188.664104,1769161188.665079,72.0,0.0,4306.794922,4285.769043,4311.410156,4326.153809,4274.871582,4293.846191,4297.820313,4285.512695,4273.589844,4265.0,4562.179688,4533.333496,4414.230957,4491.025879,,,,,,,,,,,,,,,,,,,,,,,,,,,,,,,,,,,,,,,,,,,,,,,,,,,,,,,,,,,,,,,,,,,,,,
1769161188.671912,1769161188.672888,73.0,0.0,4307.307617,4286.410156,4307.05127,4326.538574,4273.589844,4297.692383,4296.794922,4280.0,4265.769043,4259.871582,4567.05127,4529.102539,4412.820313,4491.282227,,,,,,,,,,,,,,,,,,,,,,,,,,,,,,,,,,,,,,,,,,,,,,,,,,,,,,,,,,,,,,,,,,,,,,
1769161188.679721,1769161188.680596,74.0,0.0,4306.538574,4278.461426,4304.358887,4322.692383,4272.563965,4292.436035,4286.538574,4276.538574,4260.897461,4255.384766,4556.410156,4522.05127,4410.769043,4489.102539,,,,,,,,,,,,,,,,,,,,,,,,,,,,,,,,,,,,,,,,,,,,,,,,,,,,,,,,,,,,,,,,,,,,,,
1769161188.687529,1769161188.688405,75.0,0.0,4307.820313,4280.0,4303.333496,4320.0,4273.846191,4289.487305,4279.358887,4280.128418,4265.769043,4265.512695,4554.871582,4524.102539,4412.179688,4491.538574,,,,,,,,,,,,,,,,,,,,,,,,,,,,,,,,,,,,,,,,,,,,,,,,,,,,,,,,,,,,,,,,,,,,,,
1769161188.695338,1769161188.696013,76.0,0.0,4308.205078,4284.102539,4299.615234,4321.538574,4274.743652,4291.153809,4284.358887,4280.0,4265.256348,4267.307617,4556.025879,4521.282227,4409.743652,4487.307617,,,,,,,,,,,,,,,,,,,,,,,,,,,,,,,,,,,,,,,,,,,,,,,,,,,,,,,,,,,,,,,,,,,,,,
1769161188.703146,1769161188.703822,77.0,0.0,4311.025879,4279.615234,4299.615234,4323.077148,4273.974121,4290.641113,4288.333496,4273.846191,4259.358887,4257.436035,4551.922852,4513.077148,4406.282227,4478.974121,,,,,,,,,,,,,,,,,,,,,,,,,,,,,,,,,,,,,,,,,,,,,,,,,,,,,,,,,,,,,,,,,,,,,,
1769161188.710955,1769161188.71173,78.0,0.0,4321.922852,4280.256348,4304.615234,4323.333496,4274.615234,4289.358887,4285.641113,4281.025879,4269.102539,4266.538574,4560.897461,4520.128418,4410.641113,4488.589844,0.34187,0.157833,0.28976,0.177586,0.196247,0.419516,0.476015,0.133808,0.136935,0.12313,0.224363,0.425108,0.105897,0.102743,0.141122,0.334497,0.386884,0.202744,0.146078,0.105463,0.399246,0.270965,0.2075,0.100433,0.073561,0.497412,0.18917,0.095448,0.371393,0.139079,0.140056,0.433221,0.178762,0.186265,0.158298,0.152279,0.582958,0.202434,0.176272,0.180725,0.17104,0.447956,0.136529,0.266783,0.155102,0.361646,0.556459,1.008364,0.261688,0.41623,0.324568,0.348203,0.234767,0.28295,0.219016,0.332759,0.499171,0.216824,0.116857,0.124171,0.343297,0.33728,0.199325,0.34903,0.190983,0.519917,0.385185,0.460534,0.200694,0.146474
1769161188.718763,1769161188.719538,79.0,0.0,4324.230957,4288.589844,4306.282227,4324.743652,4277.692383,4294.743652,4286.666504,4294.871582,4281.025879,4275.897461,4574.358887,4537.307617,4422.436035,4505.769043,,,,,,,,,,,,,,,,,,,,,,,,,,,,,,,,,,,,,,,,,,,,,,,,,,,,,,,,,,,,,,,,,,,,,,
1769161188.726571,1769161188.727547,80.0,0.0,4314.615234,4289.230957,4305.897461,4326.410156,4278.846191,4295.641113,4288.205078,4290.384766,4272.307617,4262.307617,4568.974121,4536.282227,4423.205078,4501.025879,,,,,,,,,,,,,,,,,,,,,,,,,,,,,,,,,,,,,,,,,,,,,,,,,,,,,,,,,,,,,,,,,,,,,,
1769161188.73438,1769161188.735355,81.0,0.0,4315.769043,4280.769043,4307.820313,4325.256348,4276.666504,4285.897461,4285.384766,4278.589844,4259.102539,4257.692383,4556.538574,4522.05127,4412.692383,4489.102539,,,,,,,,,,,,,,,,,,,,,,,,,,,,,,,,,,,,,,,,,,,,,,,,,,,,,,,,,,,,,,,,,,,,,,
1769161188.742188,1769161188.743064,82.0,0.0,4329.871582,4281.794922,4308.333496,4325.0,4275.641113,4286.025879,4288.717773,4283.717773,4262.94873,4268.589844,4561.410156,4526.538574,4416.153809,4498.589844,,,,,,,,,,,,,,,,,,,,,,,,,,,,,,,,,,,,,,,,,,,,,,,,,,,,,,,,,,,,,,,,,,,,,,
1769161188.749997,1769161188.750872,83.0,0.0,4329.102539,4285.897461,4305.897461,4328.205078,4277.05127,4296.153809,4295.512695,4293.461426,4270.897461,4266.153809,4571.666504,4542.436035,4429.743652,4511.025879,,,,,,,,,,,,,,,,,,,,,,,,,,,,,,,,,,,,,,,,,,,,,,,,,,,,,,,,,,,,,,,,,,,,,,
1769161188.757805,1769161188.758481,84.0,0.0,4314.871582,4282.692383,4303.717773,4328.205078,4277.179688,4297.179688,4295.641113,4296.282227,4277.307617,4265.641113,4570.897461,4541.794922,4428.205078,4504.871582,,,,,,,,,,,,,,,,,,,,,,,,,,,,,,,,,,,,,,,,,,,,,,,,,,,,,,,,,,,,,,,,,,,,,,
1769161188.765614,1769161188.766289,85.0,0.0,4315.0,4285.384766,4303.846191,4324.230957,4277.563965,4290.256348,4292.436035,4293.333496,4280.128418,4278.717773,4569.615234,4532.05127,4419.102539,4496.538574,,,,,,,,,,,,,,,,,,,,,,,,,,,,,,,,,,,,,,,,,,,,,,,,,,,,,,,,,,,,,,,,,,,,,,
1769161188.773422,1769161188.773998,86.0,0.0,4320.256348,4290.256348,4303.589844,4322.820313,4278.077148,4287.94873,4291.538574,4285.512695,4269.487305,4272.94873,4567.179688,4532.436035,4420.128418,4497.307617,,,,,,,,,,,,,,,,,,,,,,,,,,,,,,,,,,,,,,,,,,,,,,,,,,,,,,,,,,,,,,,,,,,,,,
1769161188.781231,1769161188.781806,87.0,0.0,4313.589844,4283.717773,4300.769043,4325.384766,4276.538574,4289.358887,4293.846191,4280.256348,4263.974121,4258.846191,4558.461426,4538.461426,4420.384766,4495.897461,,,,,,,,,,,,,,,,,,,,,,,,,,,,,,,,,,,,,,,,,,,,,,,,,,,,,,,,,,,,,,,,,,,,,,
1769161188.789039,1769161188.789815,88.0,0.0,4311.922852,4279.230957,4302.563965,4328.333496,4273.333496,4293.077148,4295.0,4281.410156,4275.769043,4272.05127,4558.205078,4540.897461,4418.461426,4496.666504,,,,,,,,,,,,,,,,,,,,,,,,,,,,,,,,,,,,,,,,,,,,,,,,,,,,,,,,,,,,,,,,,,,,,,
1769161188.796848,1769161188.797623,89.0,0.0,4323.077148,4285.0,4309.358887,4327.820313,4270.512695,4295.512695,4293.974121,4281.282227,4279.358887,4281.538574,4572.307617,4538.846191,4421.538574,4505.384766,,,,,,,,,,,,,,,,,,,,,,,,,,,,,,,,,,,,,,,,,,,,,,,,,,,,,,,,,,,,,,,,,,,,,,
1769161188.804656,1769161188.805531,90.0,0.0,4327.05127,4288.461426,4311.538574,4326.794922,4272.436035,4290.641113,4292.436035,4279.615234,4272.820313,4265.897461,4574.230957,4537.436035,4420.256348,4509.487305,,,,,,,,,,,,,,,,,,,,,,,,,,,,,,,,,,,,,,,,,,,,,,,,,,,,,,,,,,,,,,,,,,,,,,
1769161188.812465,1769161188.81334,91.0,0.0,4322.563965,4290.897461,4310.641113,4330.641113,4278.589844,4288.974121,4292.94873,4281.922852,4277.179688,4267.307617,4566.922852,4540.769043,4416.410156,4502.692383,,,,,,,,,,,,,,,,,,,,,,,,,,,,,,,,,,,,,,,,,,,,,,,,,,,,,,,,,,,,,,,,,,,,,,
1769161188.820273,1769161188.821348,92.0,0.0,4324.487305,4293.846191,4311.282227,4335.384766,4281.794922,4294.358887,4295.0,4285.512695,4282.94873,4285.0,4569.358887,4541.025879,4420.512695,4496.922852,,,,,,,,,,,,,,,,,,,,,,,,,,,,,,,,,,,,,,,,,,,,,,,,,,,,,,,,,,,,,,,,,,,,,,
1769161188.828081,1769161188.829156,93.0,0.0,4323.974121,4295.0,4310.769043,4336.666504,4280.769043,4299.102539,4295.512695,4289.871582,4281.794922,4279.743652,4572.820313,4540.0,4428.974121,4503.846191,,,,,,,,,,,,,,,,,,,,,,,,,,,,,,,,,,,,,,,,,,,,,,,,,,,,,,,,,,,,,,,,,,,,,,
1769161188.83589,1769161188.836865,94.0,0.0,4319.743652,4295.512695,4310.641113,4335.641113,4280.512695,4298.461426,4295.512695,4289.230957,4281.794922,4271.922852,4572.94873,4540.512695,4427.563965,4508.077148,0.323765,0.15192,0.294369,0.172677,0.190127,0.395116,0.460863,0.155412,0.128688,0.123069,0.257153,0.416941,0.090601,0.110897,0.137528,0.299702,0.361114,0.213597,0.151348,0.104366,0.370087,0.248559,0.166639,0.104828,0.076695,0.396446,0.160892,0.07479,0.368705,0.149799,0.117998,0.473744,0.198473,0.186196,0.176681,0.144426,0.553831,0.210128,0.206446,0.175165,0.212746,0.469355,0.119325,0.342073,0.135468,0.293629,0.554978,1.045944,0.30729,0.437246,0.293944,0.325079,0.218259,0.308846,0.205254,0.336201,0.472806,0.197675,0.125521,0.121628,0.265303,0.351766,0.182353,0.398523,0.151331,0.521102,0.386364,0.504881,0.230225,0.16142
1769161188.843698,1769161188.844673,95.0,0.0,4318.846191,4292.563965,4310.128418,4333.717773,4280.512695,4295.128418,4295.769043,4282.05127,4280.0,4280.0,4570.641113,4539.358887,4415.384766,4497.05127,,,,,,,,,,,,,,,,,,,,,,,,,,,,,,,,,,,,,,,,,,,,,,,,,,,,,,,,,,,,,,,,,,,,,,
1769161188.851507,1769161188.852282,96.0,0.0,4325.384766,4290.769043,4309.230957,4333.461426,4280.128418,4295.128418,4295.512695,4279.487305,4277.179688,4277.179688,4568.589844,4538.846191,4411.794922,4492.820313,,,,,,,,,,,,,,,,,,,,,,,,,,,,,,,,,,,,,,,,,,,,,,,,,,,,,,,,,,,,,,,,,,,,,,
1769161188.859315,1769161188.860091,97.0,0.0,4327.05127,4292.563965,4310.0,4336.666504,4279.102539,4295.897461,4294.871582,4283.205078,4278.974121,4264.615234,4570.384766,4539.615234,4423.846191,4503.846191,,,,,,,,,,,,,,,,,,,,,,,,,,,,,,,,,,,,,,,,,,,,,,,,,,,,,,,,,,,,,,,,,,,,,,
1769161188.867124,1769161188.867799,98.0,0.0,4317.307617,4293.333496,4310.384766,4336.538574,4277.179688,4297.436035,4294.487305,4288.589844,4281.153809,4272.563965,4570.0,4541.153809,4427.94873,4509.358887,,,,,,,,,,,,,,,,,,,,,,,,,,,,,,,,,,,,,,,,,,,,,,,,,,,,,,,,,,,,,,,,,,,,,,
1769161188.874932,1769161188.875608,99.0,0.0,4314.358887,4291.666504,4309.743652,4335.0,4278.333496,4298.333496,4294.487305,4284.358887,4277.820313,4285.128418,4567.692383,4541.025879,4417.94873,4505.512695,,,,,,,,,,,,,,,,,,,,,,,,,,,,,,,,,,,,,,,,,,,,,,,,,,,,,,,,,,,,,,,,,,,,,,
1769161188.882741,1769161188.883216,100.0,0.0,4321.666504,4291.538574,4310.769043,4336.794922,4280.128418,4295.256348,4294.743652,4278.205078,4274.358887,4271.794922,4566.922852,4537.563965,4417.05127,4499.871582,,,,,,,,,,,,,,,,,,,,,,,,,,,,,,,,,,,,,,,,,,,,,,,,,,,,,,,,,,,,,,,,,,,,,,
1769161188.890549,1769161188.891025,101.0,0.0,4324.230957,4293.205078,4312.563965,4337.05127,4278.717773,4295.512695,4292.820313,4284.230957,4277.179688,4265.384766,4570.0,4537.05127,4426.922852,4498.077148,,,,,,,,,,,,,,,,,,,,,,,,,,,,,,,,,,,,,,,,,,,,,,,,,,,,,,,,,,,,,,,,,,,,,,
1769161188.898358,1769161188.898733,102.0,0.0,4323.974121,4296.282227,4312.307617,4336.410156,4277.179688,4303.077148,4290.0,4289.230957,4280.384766,4285.256348,4578.333496,4541.666504,4430.641113,4504.358887,,,,,,,,,,,,,,,,,,,,,,,,,,,,,,,,,,,,,,,,,,,,,,,,,,,,,,,,,,,,,,,,,,,,,,
1769161188.906166,1769161188.906542,103.0,0.0,4327.179688,4297.692383,4313.589844,4339.358887,4279.230957,4304.615234,4292.692383,4281.538574,4278.333496,4289.230957,4582.563965,4542.692383,4425.0,4509.487305,,,,,,,,,,,,,,,,,,,,,,,,,,,,,,,,,,,,,,,,,,,,,,,,,,,,,,,,,,,,,,,,,,,,,,
1769161188.913974,1769161188.91455,104.0,0.0,4326.922852,4295.641113,4316.666504,4338.846191,4279.871582,4296.922852,4294.230957,4278.333496,4277.179688,4274.615234,4574.102539,4538.974121,4418.717773,4502.179688,,,,,,,,,,,,,,,,,,,,,,,,,,,,,,,,,,,,,,,,,,,,,,,,,,,,,,,,,,,,,,,,,,,,,,
1769161188.921783,1769161188.922358,105.0,0.0,4322.820313,4295.128418,4313.589844,4331.794922,4275.641113,4293.461426,4289.743652,4284.615234,4278.974121,4277.692383,4565.0,4537.563965,4418.974121,4493.717773,,,,,,,,,,,,,,,,,,,,,,,,,,,,,,,,,,,,,,,,,,,,,,,,,,,,,,,,,,,,,,,,,,,,,,
1769161188.929591,1769161188.930267,106.0,0.0,4320.769043,4294.230957,4305.256348,4326.410156,4272.94873,4292.307617,4290.128418,4282.94873,4278.717773,4279.615234,4566.794922,4535.384766,4417.692383,4491.410156,,,,,,,,,,,,,,,,,,,,,,,,,,,,,,,,,,,,,,,,,,,,,,,,,,,,,,,,,,,,,,,,,,,,,,
1769161188.9374,1769161188.938075,107.0,0.0,4315.897461,4291.282227,4304.871582,4326.922852,4273.461426,4290.0,4295.0,4281.282227,4278.589844,4265.769043,4569.743652,4533.461426,4409.230957,4491.153809,,,,,,,,,,,,,,,,,,,,,,,,,,,,,,,,,,,,,,,,,,,,,,,,,,,,,,,,,,,,,,,,,,,,,,
1769161188.945208,1769161188.945684,108.0,0.0,4315.128418,4290.0,4311.025879,4327.436035,4275.512695,4293.333496,4295.641113,4288.974121,4279.487305,4270.641113,4570.897461,4537.563965,4413.589844,4493.077148,,,,,,,,,,,,,,,,,,,,,,,,,,,,,,,,,,,,,,,,,,,,,,,,,,,,,,,,,,,,,,,,,,,,,,
1769161188.953017,1769161188.953492,109.0,0.0,4322.563965,4293.205078,4311.410156,4326.922852,4276.410156,4298.589844,4294.230957,4297.307617,4285.769043,4285.0,4573.205078,4544.615234,4425.897461,4497.05127,,,,,,,,,,,,,,,,,,,,,,,,,,,,,,,,,,,,,,,,,,,,,,,,,,,,,,,,,,,,,,,,,,,,,,
1769161188.960825,1769161188.961201,110.0,0.0,4322.05127,4293.461426,4309.743652,4327.307617,4271.794922,4298.205078,4294.102539,4293.974121,4291.153809,4279.102539,4572.820313,4544.871582,4421.410156,4501.410156,0.309907,0.17007,0.303883,0.176448,0.198136,0.358636,0.44325,0.195326,0.128935,0.127903,0.295276,0.391644,0.081103,0.122502,0.132138,0.261,0.319342,0.218459,0.149974,0.106281,0.344292,0.223461,0.128052,0.109102,0.079254,0.315132,0.143423,0.061559,0.35893,0.158134,0.101437,0.488671,0.218387,0.173072,0.1827,0.148078,0.52995,0.216718,0.227899,0.176281,0.281629,0.516249,0.116761,0.408592,0.130538,0.230816,0.552199,0.990781,0.383536,0.449455,0.270178,0.308746,0.210139,0.316102,0.189741,0.343029,0.437757,0.199947,0.137249,0.131114,0.21538,0.359083,0.169434,0.440531,0.12257,0.530034,0.395698,0.529107,0.256797,0.181321
1769161188.968634,1769161188.969009,111.0,0.0,4309.743652,4283.077148,4310.256348,4324.871582,4265.256348,4293.333496,4293.333496,4280.128418,4281.538574,4269.743652,4566.025879,4532.94873,4410.384766,4495.128418,,,,,,,,,,,,,,,,,,,,,,,,,,,,,,,,,,,,,,,,,,,,,,,,,,,,,,,,,,,,,,,,,,,,,,
1769161188.976442,1769161188.977017,112.0,0.0,4306.282227,4276.922852,4309.871582,4321.410156,4266.794922,4291.794922,4294.230957,4274.871582,4271.794922,4271.538574,4561.666504,4525.0,4411.666504,4487.692383,,,,,,,,,,,,,,,,,,,,,,,,,,,,,,,,,,,,,,,,,,,,,,,,,,,,,,,,,,,,,,,,,,,,,,
1769161188.98425,1769161188.984826,113.0,0.0,4315.128418,4288.846191,4309.871582,4324.487305,4273.589844,4295.256348,4293.717773,4278.974121,4277.436035,4280.128418,4568.589844,4531.153809,4418.333496,4498.974121,,,,,,,,,,,,,,,,,,,,,,,,,,,,,,,,,,,,,,,,,,,,,,,,,,,,,,,,,,,,,,,,,,,,,,
1769161188.992059,1769161188.992734,114.0,0.0,4313.589844,4295.512695,4310.641113,4327.436035,4274.102539,4297.05127,4293.717773,4285.512695,4286.794922,4278.205078,4572.692383,4536.538574,4417.563965,4506.794922,,,,,,,,,,,,,,,,,,,,,,,,,,,,,,,,,,,,,,,,,,,,,,,,,,,,,,,,,,,,,,,,,,,,,,
1769161188.999868,1769161189.000543,115.0,0.0,4303.717773,4285.0,4309.230957,4322.307617,4269.358887,4295.512695,4297.307617,4289.871582,4287.179688,4266.794922,4564.487305,4535.897461,4412.563965,4496.153809,,,,,,,,,,,,,,,,,,,,,,,,,,,,,,,,,,,,,,,,,,,,,,,,,,,,,,,,,,,,,,,,,,,,,,
1769161189.007676,1769161189.008451,116.0,0.0,4306.538574,4283.846191,4309.487305,4319.230957,4266.282227,4292.05127,4288.974121,4285.641113,4283.333496,4263.461426,4558.974121,4534.358887,4412.179688,4490.384766,,,,,,,,,,,,,,,,,,,,,,,,,,,,,,,,,,,,,,,,,,,,,,,,,,,,,,,,,,,,,,,,,,,,,,
1769161189.015484,1769161189.016259,117.0,0.0,4313.846191,4293.077148,4310.384766,4321.666504,4266.922852,4288.333496,4277.820313,4276.282227,4279.358887,4268.589844,4559.230957,4527.563965,4414.871582,4489.487305,,,,,,,,,,,,,,,,,,,,,,,,,,,,,,,,,,,,,,,,,,,,,,,,,,,,,,,,,,,,,,,,,,,,,,
1769161189.023293,1769161189.023968,118.0,0.0,4309.615234,4290.641113,4306.282227,4321.282227,4269.358887,4295.256348,4285.641113,4276.538574,4278.333496,4271.282227,4558.205078,4519.743652,4412.692383,4484.230957,,,,,,,,,,,,,,,,,,,,,,,,,,,,,,,,,,,,,,,,,,,,,,,,,,,,,,,,,,,,,,,,,,,,,,
1769161189.031101,1769161189.031776,119.0,0.0,4305.384766,4285.641113,4305.0,4321.410156,4274.487305,4305.256348,4296.666504,4281.153809,4278.974121,4274.102539,4562.436035,4523.846191,4409.487305,4486.410156,,,,,,,,,,,,,,,,,,,,,,,,,,,,,,,,,,,,,,,,,,,,,,,,,,,,,,,,,,,,,,,,,,,,,,
1769161189.03891,1769161189.039785,120.0,0.0,4312.179688,4292.563965,4311.410156,4326.410156,4277.05127,4301.794922,4293.717773,4284.487305,4279.230957,4275.384766,4571.666504,4537.179688,4415.769043,4496.282227,,,,,,,,,,,,,,,,,,,,,,,,,,,,,,,,,,,,,,,,,,,,,,,,,,,,,,,,,,,,,,,,,,,,,,
1769161189.046718,1769161189.047593,121.0,0.0,4316.153809,4293.077148,4314.743652,4328.461426,4270.256348,4294.615234,4291.794922,4289.871582,4282.692383,4271.410156,4568.974121,4538.589844,4416.153809,4495.512695,,,,,,,,,,,,,,,,,,,,,,,,,,,,,,,,,,,,,,,,,,,,,,,,,,,,,,,,,,,,,,,,,,,,,,
1769161189.054527,1769161189.055302,122.0,0.0,4311.025879,4283.461426,4310.897461,4322.05127,4263.589844,4294.102539,4296.025879,4287.820313,4280.128418,4269.615234,4557.179688,4523.333496,4405.384766,4485.897461,,,,,,,,,,,,,,,,,,,,,,,,,,,,,,,,,,,,,,,,,,,,,,,,,,,,,,,,,,,,,,,,,,,,,,
1769161189.062335,1769161189.06311,123.0,0.0,4311.794922,4287.820313,4310.512695,4318.846191,4266.153809,4296.538574,4294.230957,4285.897461,4276.794922,4264.230957,4558.974121,4520.384766,4404.102539,4481.794922,,,,,,,,,,,,,,,,,,,,,,,,,,,,,,,,,,,,,,,,,,,,,,,,,,,,,,,,,,,,,,,,,,,,,,
1769161189.070144,1769161189.070719,124.0,0.0,4316.666504,4301.410156,4313.717773,4327.05127,4268.077148,4298.461426,4293.461426,4293.717773,4283.333496,4262.436035,4572.307617,4537.436035,4415.641113,4491.538574,,,,,,,,,,,,,,,,,,,,,,,,,,,,,,,,,,,,,,,,,,,,,,,,,,,,,,,,,,,,,,,,,,,,,,
1769161189.077952,1769161189.078527,125.0,0.0,4313.717773,4300.641113,4313.077148,4329.487305,4266.794922,4295.641113,4293.333496,4292.05127,4285.641113,4272.436035,4571.794922,4540.128418,4417.692383,4497.436035,,,,,,,,,,,,,,,,,,,,,,,,,,,,,,,,,,,,,,,,,,,,,,,,,,,,,,,,,,,,,,,,,,,,,,
1769161189.08576,1769161189.086236,126.0,0.0,4304.871582,4286.666504,4310.256348,4314.615234,4265.512695,4295.256348,4294.358887,4282.179688,4277.05127,4272.820313,4557.94873,4526.153809,4410.0,4482.05127,0.284767,0.213726,0.305707,0.185,0.219665,0.317818,0.430257,0.241569,0.134716,0.133427,0.325311,0.357656,0.076123,0.133449,0.125313,0.23131,0.275727,0.214018,0.141902,0.112784,0.322592,0.200768,0.094888,0.11132,0.078904,0.274197,0.140036,0.056254,0.348696,0.163209,0.099387,0.468043,0.239715,0.152313,0.173973,0.170015,0.497321,0.221094,0.237304,0.179719,0.367922,0.577103,0.129289,0.449413,0.137006,0.184433,0.555395,0.85083,0.468188,0.457733,0.267786,0.31611,0.205015,0.306003,0.181072,0.381258,0.412086,0.206913,0.148669,0.149021,0.222025,0.380842,0.164686,0.465475,0.109912,0.541688,0.425161,0.517542,0.273841,0.201785
1769161189.093569,1769161189.094044,127.0,0.0,4301.538574,4281.282227,4309.743652,4305.256348,4267.563965,4298.717773,4295.128418,4285.0,4276.153809,4265.384766,4555.256348,4521.666504,4410.0,4473.589844,,,,,,,,,,,,,,,,,,,,,,,,,,,,,,,,,,,,,,,,,,,,,,,,,,,,,,,,,,,,,,,,,,,,,,
1769161189.101377,1769161189.101653,0.0,0.0,4305.897461,4287.307617,4308.974121,4314.743652,4269.615234,4293.333496,4288.333496,4286.922852,4281.794922,4266.410156,4556.666504,4523.974121,4413.461426,4482.692383,,,,,,,,,,,,,,,,,,,,,,,,,,,,,,,,,,,,,,,,,,,,,,,,,,,,,,,,,,,,,,,,,,,,,,
1769161189.109186,1769161189.109461,1.0,0.0,4310.641113,4294.358887,4310.0,4324.102539,4269.358887,4287.307617,4285.512695,4278.077148,4280.769043,4268.589844,4557.05127,4531.794922,4414.487305,4487.820313,,,,,,,,,,,,,,,,,,,,,,,,,,,,,,,,,,,,,,,,,,,,,,,,,,,,,,,,,,,,,,,,,,,,,,
1769161189.116994,1769161189.11737,2.0,0.0,4312.820313,4296.410156,4312.94873,4324.230957,4270.897461,4292.820313,4292.307617,4279.871582,4278.333496,4266.794922,4562.179688,4537.820313,4414.615234,4491.153809,,,,,,,,,,,,,,,,,,,,,,,,,,,,,,,,,,,,,,,,,,,,,,,,,,,,,,,,,,,,,,,,,,,,,,
1769161189.124803,1769161189.125178,3.0,0.0,4312.820313,4293.077148,4311.666504,4322.436035,4273.589844,4298.589844,4298.205078,4287.436035,4276.794922,4265.512695,4560.641113,4526.922852,4412.05127,4488.974121,,,,,,,,,,,,,,,,,,,,,,,,,,,,,,,,,,,,,,,,,,,,,,,,,,,,,,,,,,,,,,,,,,,,,,
1769161189.132611,1769161189.133186,4.0,0.0,4312.436035,4293.974121,4308.846191,4321.666504,4270.0,4294.230957,4293.077148,4282.94873,4274.743652,4262.820313,4554.358887,4519.487305,4412.692383,4478.205078,,,,,,,,,,,,,,,,,,,,,,,,,,,,,,,,,,,,,,,,,,,,,,,,,,,,,,,,,,,,,,,,,,,,,,
1769161189.14042,1769161189.140995,5.0,0.0,4310.256348,4294.358887,4310.0,4319.230957,4263.974121,4286.922852,4287.05127,4280.256348,4277.179688,4262.307617,4555.897461,4526.410156,4410.0,4476.410156,,,,,,,,,,,,,,,,,,,,,,,,,,,,,,,,,,,,,,,,,,,,,,,,,,,,,,,,,,,,,,,,,,,,,,
1769161189.148228,1769161189.148903,6.0,0.0,4302.563965,4286.153809,4310.384766,4313.846191,4264.743652,4289.871582,4291.153809,4288.717773,4278.717773,4266.282227,4555.384766,4524.358887,4406.282227,4480.128418,,,,,,,,,,,,,,,,,,,,,,,,,,,,,,,,,,,,,,,,,,,,,,,,,,,,,,,,,,,,,,,,,,,,,,
1769161189.156037,1769161189.156712,7.0,0.0,4297.692383,4280.897461,4304.871582,4308.077148,4267.05127,4296.794922,4296.410156,4292.94873,4279.358887,4265.641113,4548.589844,4517.05127,4406.666504,4472.94873,,,,,,,,,,,,,,,,,,,,,,,,,,,,,,,,,,,,,,,,,,,,,,,,,,,,,,,,,,,,,,,,,,,,,,
1769161189.163845,1769161189.16432,8.0,0.0,4304.358887,4288.461426,4306.538574,4311.922852,4264.743652,4298.461426,4296.410156,4296.794922,4292.692383,4269.230957,4558.589844,4530.0,4411.538574,4475.897461,,,,,,,,,,,,,,,,,,,,,,,,,,,,,,,,,,,,,,,,,,,,,,,,,,,,,,,,,,,,,,,,,,,,,,
1769161189.171653,1769161189.172129,9.0,0.0,4311.794922,4297.05127,4317.436035,4321.538574,4261.025879,4293.589844,4293.077148,4299.615234,4299.743652,4279.615234,4578.974121,4546.410156,4422.179688,4493.333496,,,,,,,,,,,,,,,,,,,,,,,,,,,,,,,,,,,,,,,,,,,,,,,,,,,,,,,,,,,,,,,,,,,,,,
1769161189.179462,1769161189.180037,10.0,0.0,4310.641113,4295.384766,4317.307617,4323.974121,4260.256348,4285.897461,4292.436035,4286.538574,4281.153809,4280.512695,4574.743652,4536.666504,4427.05127,4496.282227,,,,,,,,,,,,,,,,,,,,,,,,,,,,,,,,,,,,,,,,,,,,,,,,,,,,,,,,,,,,,,,,,,,,,,
1769161189.18727,1769161189.187846,11.0,0.0,4312.436035,4293.717773,4311.794922,4322.94873,4269.102539,4286.666504,4291.922852,4273.974121,4268.589844,4268.846191,4555.384766,4519.743652,4420.897461,4488.461426,,,,,,,,,,,,,,,,,,,,,,,,,,,,,,,,,,,,,,,,,,,,,,,,,,,,,,,,,,,,,,,,,,,,,,
1769161189.195079,1769161189.195854,12.0,0.0,4314.615234,4300.256348,4318.974121,4325.897461,4274.871582,4295.0,4288.974121,4277.179688,4277.307617,4259.487305,4556.538574,4524.615234,4418.333496,4488.077148,,,,,,,,,,,,,,,,,,,,,,,,,,,,,,,,,,,,,,,,,,,,,,,,,,,,,,,,,,,,,,,,,,,,,,
1769161189.202887,1769161189.203662,13.0,0.0,4315.897461,4307.05127,4328.205078,4329.871582,4270.128418,4299.871582,4291.025879,4281.922852,4281.282227,4269.102539,4573.333496,4539.487305,4427.436035,4496.922852,,,,,,,,,,,,,,,,,,,,,,,,,,,,,,,,,,,,,,,,,,,,,,,,,,,,,,,,,,,,,,,,,,,,,,
1769161189.210696,1769161189.211371,14.0,0.0,4322.820313,4308.077148,4327.179688,4329.487305,4269.230957,4293.077148,4296.153809,4280.897461,4279.230957,4285.256348,4576.153809,4543.333496,4433.846191,4506.666504,0.248809,0.27786,0.291124,0.193964,0.247874,0.274772,0.41986,0.277447,0.140804,0.137151,0.332341,0.323686,0.074731,0.139764,0.117154,0.214238,0.241589,0.200675,0.12816,0.122228,0.303106,0.182219,0.069699,0.110425,0.074562,0.258011,0.145126,0.057755,0.342106,0.164127,0.104483,0.410554,0.258278,0.132677,0.153024,0.205448,0.454115,0.225288,0.237574,0.181922,0.451272,0.637004,0.151794,0.457232,0.149003,0.153678,0.564597,0.666185,0.532168,0.468642,0.286768,0.350933,0.19931,0.286953,0.185499,0.461197,0.405317,0.205471,0.157289,0.171224,0.288325,0.42571,0.170167,0.466937,0.115573,0.548104,0.475557,0.471569,0.278641,0.221877
1769161189.218504,1769161189.219179,15.0,0.0,4322.307617,4306.282227,4325.897461,4327.820313,4273.461426,4283.846191,4294.871582,4279.230957,4281.025879,4281.410156,4569.487305,4539.615234,4431.794922,4505.512695,,,,,,,,,,,,,,,,,,,,,,,,,,,,,,,,,,,,,,,,,,,,,,,,,,,,,,,,,,,,,,,,,,,,,,
1769161189.226313,1769161189.227187,16.0,0.0,4313.846191,4307.436035,4327.563965,4328.333496,4271.410156,4286.282227,4290.0,4280.641113,4278.846191,4272.307617,4570.384766,4536.410156,4428.589844,4500.512695,,,,,,,,,,,,,,,,,,,,,,,,,,,,,,,,,,,,,,,,,,,,,,,,,,,,,,,,,,,,,,,,,,,,,,
1769161189.234121,1769161189.234996,17.0,0.0,4317.436035,4307.179688,4327.179688,4326.666504,4270.128418,4294.871582,4291.794922,4286.282227,4280.641113,4277.307617,4574.487305,4538.589844,4426.410156,4504.358887,,,,,,,,,,,,,,,,,,,,,,,,,,,,,,,,,,,,,,,,,,,,,,,,,,,,,,,,,,,,,,,,,,,,,,
1769161189.24193,1769161189.242904,18.0,0.0,4324.358887,4305.128418,4325.769043,4326.153809,4275.641113,4296.410156,4296.410156,4288.846191,4286.410156,4279.102539,4573.846191,4543.717773,4428.205078,4508.205078,,,,,,,,,,,,,,,,,,,,,,,,,,,,,,,,,,,,,,,,,,,,,,,,,,,,,,,,,,,,,,,,,,,,,,
1769161189.249738,1769161189.250713,19.0,0.0,4315.128418,4306.410156,4323.461426,4331.666504,4273.974121,4292.436035,4293.974121,4278.717773,4281.025879,4277.820313,4570.512695,4539.358887,4430.512695,4506.410156,,,,,,,,,,,,,,,,,,,,,,,,,,,,,,,,,,,,,,,,,,,,,,,,,,,,,,,,,,,,,,,,,,,,,,
1769161189.257547,1769161189.258321,20.0,0.0,4312.436035,4308.846191,4322.563965,4335.897461,4266.666504,4292.307617,4289.102539,4277.820313,4278.974121,4279.615234,4569.871582,4532.692383,4426.282227,4505.641113,,,,,,,,,,,,,,,,,,,,,,,,,,,,,,,,,,,,,,,,,,,,,,,,,,,,,,,,,,,,,,,,,,,,,,
1769161189.265355,1769161189.26613,21.0,0.0,4322.94873,4307.820313,4322.05127,4331.153809,4268.205078,4296.538574,4293.205078,4289.615234,4289.487305,4268.333496,4572.94873,4537.179688,4419.358887,4502.179688,,,,,,,,,,,,,,,,,,,,,,,,,,,,,,,,,,,,,,,,,,,,,,,,,,,,,,,,,,,,,,,,,,,,,,
1769161189.273163,1769161189.273838,22.0,0.0,4317.307617,4303.205078,4318.717773,4326.153809,4275.256348,4300.512695,4302.436035,4286.410156,4290.512695,4263.846191,4568.846191,4536.410156,4420.384766,4492.692383,,,,,,,,,,,,,,,,,,,,,,,,,,,,,,,,,,,,,,,,,,,,,,,,,,,,,,,,,,,,,,,,,,,,,,
1769161189.280972,1769161189.281647,23.0,0.0,4306.538574,4303.205078,4318.333496,4330.641113,4280.0,4299.615234,4295.256348,4278.589844,4283.589844,4280.0,4562.820313,4529.615234,4425.384766,4496.153809,,,,,,,,,,,,,,,,,,,,,,,,,,,,,,,,,,,,,,,,,,,,,,,,,,,,,,,,,,,,,,,,,,,,,,
1769161189.28878,1769161189.289255,24.0,0.0,4316.538574,4310.384766,4320.512695,4338.717773,4282.05127,4293.205078,4281.153809,4278.077148,4282.563965,4284.487305,4565.641113,4527.307617,4424.743652,4507.692383,,,,,,,,,,,,,,,,,,,,,,,,,,,,,,,,,,,,,,,,,,,,,,,,,,,,,,,,,,,,,,,,,,,,,,
1769161189.296589,1769161189.297064,25.0,0.0,4323.846191,4312.820313,4315.256348,4337.307617,4281.410156,4292.94873,4284.102539,4272.436035,4279.743652,4279.615234,4567.05127,4526.153809,4425.128418,4500.897461,,,,,,,,,,,,,,,,,,,,,,,,,,,,,,,,,,,,,,,,,,,,,,,,,,,,,,,,,,,,,,,,,,,,,,
1769161189.304397,1769161189.304972,26.0,0.0,4312.820313,4304.358887,4308.717773,4328.846191,4279.358887,4298.077148,4291.153809,4269.743652,4276.666504,4276.025879,4564.358887,4528.333496,4428.717773,4492.436035,,,,,,,,,,,,,,,,,,,,,,,,,,,,,,,,,,,,,,,,,,,,,,,,,,,,,,,,,,,,,,,,,,,,,,
1769161189.312206,1769161189.312781,27.0,0.0,4307.436035,4295.641113,4310.128418,4324.743652,4278.205078,4303.333496,4289.743652,4278.974121,4280.384766,4267.179688,4562.179688,4533.846191,4423.974121,4497.692383,,,,,,,,,,,,,,,,,,,,,,,,,,,,,,,,,,,,,,,,,,,,,,,,,,,,,,,,,,,,,,,,,,,,,,
1769161189.320014,1769161189.320789,28.0,0.0,4313.077148,4295.128418,4311.410156,4325.384766,4279.102539,4308.205078,4292.307617,4283.974121,4282.307617,4267.307617,4559.102539,4535.641113,4416.025879,4498.717773,,,,,,,,,,,,,,,,,,,,,,,,,,,,,,,,,,,,,,,,,,,,,,,,,,,,,,,,,,,,,,,,,,,,,,
1769161189.327823,1769161189.328597,29.0,0.0,4316.025879,4297.436035,4310.897461,4326.922852,4281.922852,4306.025879,4295.384766,4279.487305,4279.102539,4273.589844,4557.05127,4533.589844,4414.743652,4491.282227,,,,,,,,,,,,,,,,,,,,,,,,,,,,,,,,,,,,,,,,,,,,,,,,,,,,,,,,,,,,,,,,,,,,,,
1769161189.335631,1769161189.336506,30.0,0.0,4312.820313,4296.025879,4311.025879,4326.153809,4278.077148,4298.333496,4288.333496,4279.615234,4278.205078,4265.512695,4556.282227,4534.487305,4413.461426,4489.358887,0.212318,0.34913,0.262528,0.200799,0.272918,0.239887,0.405687,0.289916,0.144887,0.139291,0.309302,0.292286,0.078742,0.138766,0.107484,0.209197,0.218341,0.184724,0.111922,0.130714,0.282892,0.166989,0.052401,0.107191,0.066855,0.252262,0.149226,0.06566,0.340036,0.159989,0.111476,0.330199,0.269311,0.122043,0.126158,0.239689,0.407114,0.230002,0.237137,0.181395,0.501328,0.675803,0.177554,0.436749,0.161128,0.129866,0.569262,0.495282,0.55242,0.485025,0.316007,0.400257,0.195685,0.27306,0.202929,0.565574,0.413307,0.194752,0.16761,0.19477,0.389334,0.483923,0.184528,0.443504,0.137376,0.546033,0.535169,0.41107,0.276621,0.242794
1769161189.343439,1769161189.344314,31.0,0.0,4307.179688,4291.025879,4303.846191,4320.512695,4266.153809,4293.846191,4283.717773,4281.538574,4280.384766,4262.692383,4556.282227,4537.94873,4410.128418,4490.897461,,,,,,,,,,,,,,,,,,,,,,,,,,,,,,,,,,,,,,,,,,,,,,,,,,,,,,,,,,,,,,,,,,,,,,
1769161189.351248,1769161189.352322,32.0,0.0,4306.666504,4288.589844,4296.410156,4319.358887,4265.256348,4299.487305,4288.717773,4282.179688,4282.05127,4270.384766,4561.153809,4535.897461,4410.256348,4490.769043,,,,,,,,,,,,,,,,,,,,,,,,,,,,,,,,,,,,,,,,,,,,,,,,,,,,,,,,,,,,,,,,,,,,,,
1769161189.359056,1769161189.360131,33.0,0.0,4312.692383,4291.410156,4299.487305,4324.743652,4275.256348,4309.358887,4292.820313,4282.179688,4282.05127,4264.743652,4562.307617,4526.538574,4412.436035,4492.307617,,,,,,,,,,,,,,,,,,,,,,,,,,,,,,,,,,,,,,,,,,,,,,,,,,,,,,,,,,,,,,,,,,,,,,
1769161189.366865,1769161189.367839,34.0,0.0,4316.025879,4297.05127,4305.769043,4329.358887,4272.94873,4310.256348,4288.461426,4278.589844,4278.974121,4260.769043,4554.358887,4524.743652,4411.153809,4490.641113,,,,,,,,,,,,,,,,,,,,,,,,,,,,,,,,,,,,,,,,,,,,,,,,,,,,,,,,,,,,,,,,,,,,,,
1769161189.374673,1769161189.375648,35.0,0.0,4311.538574,4297.436035,4304.743652,4328.333496,4265.641113,4304.871582,4286.410156,4281.794922,4278.846191,4265.256348,4556.025879,4536.922852,4411.282227,4491.282227,,,,,,,,,,,,,,,,,,,,,,,,,,,,,,,,,,,,,,,,,,,,,,,,,,,,,,,,,,,,,,,,,,,,,,
1769161189.382482,1769161189.383656,36.0,0.0,4305.0,4293.333496,4298.717773,4324.615234,4271.282227,4299.358887,4291.025879,4282.820313,4280.897461,4264.487305,4565.897461,4539.487305,4414.358887,4498.205078,,,,,,,,,,,,,,,,,,,,,,,,,,,,,,,,,,,,,,,,,,,,,,,,,,,,,,,,,,,,,,,,,,,,,,
1769161189.39029,1769161189.391465,37.0,0.0,4313.461426,4298.333496,4299.102539,4327.179688,4277.820313,4299.102539,4289.358887,4275.897461,4279.615234,4269.743652,4568.846191,4533.589844,4416.282227,4505.641113,,,,,,,,,,,,,,,,,,,,,,,,,,,,,,,,,,,,,,,,,,,,,,,,,,,,,,,,,,,,,,,,,,,,,,
1769161189.398099,1769161189.399173,38.0,0.0,4325.0,4305.128418,4307.692383,4332.436035,4276.666504,4304.615234,4284.358887,4281.410156,4280.641113,4278.205078,4569.615234,4537.820313,4416.666504,4507.179688,,,,,,,,,,,,,,,,,,,,,,,,,,,,,,,,,,,,,,,,,,,,,,,,,,,,,,,,,,,,,,,,,,,,,,
1769161189.405907,1769161189.406982,39.0,0.0,4316.025879,4297.94873,4309.871582,4330.769043,4273.589844,4307.563965,4291.410156,4296.410156,4283.717773,4280.641113,4571.410156,4545.128418,4416.410156,4503.974121,,,,,,,,,,,,,,,,,,,,,,,,,,,,,,,,,,,,,,,,,,,,,,,,,,,,,,,,,,,,,,,,,,,,,,
1769161189.413715,1769161189.41459,40.0,0.0,4306.794922,4291.025879,4301.282227,4324.230957,4268.333496,4303.589844,4298.589844,4296.282227,4280.0,4276.538574,4569.615234,4543.077148,4419.230957,4504.230957,,,,,,,,,,,,,,,,,,,,,,,,,,,,,,,,,,,,,,,,,,,,,,,,,,,,,,,,,,,,,,,,,,,,,,
1769161189.421524,1769161189.422399,41.0,0.0,4311.538574,4294.102539,4294.871582,4320.128418,4266.410156,4296.410156,4287.94873,4291.025879,4282.307617,4270.384766,4567.94873,4540.0,4419.358887,4500.897461,,,,,,,,,,,,,,,,,,,,,,,,,,,,,,,,,,,,,,,,,,,,,,,,,,,,,,,,,,,,,,,,,,,,,,
1769161189.429332,1769161189.430107,42.0,0.0,4310.641113,4295.641113,4294.358887,4322.563965,4272.179688,4295.256348,4280.384766,4294.615234,4291.794922,4269.230957,4570.128418,4546.538574,4417.05127,4497.820313,,,,,,,,,,,,,,,,,,,,,,,,,,,,,,,,,,,,,,,,,,,,,,,,,,,,,,,,,,,,,,,,,,,,,,
1769161189.437141,1769161189.437916,43.0,0.0,4312.94873,4298.717773,4302.179688,4330.897461,4277.692383,4303.333496,4290.128418,4289.230957,4287.05127,4277.94873,4573.205078,4552.307617,4424.743652,4504.743652,,,,,,,,,,,,,,,,,,,,,,,,,,,,,,,,,,,,,,,,,,,,,,,,,,,,,,,,,,,,,,,,,,,,,,
1769161189.444949,1769161189.445924,44.0,0.0,4325.897461,4305.0,4310.512695,4332.563965,4276.666504,4306.666504,4297.307617,4279.230957,4276.025879,4281.538574,4572.820313,4546.153809,4433.077148,4510.0,,,,,,,,,,,,,,,,,,,,,,,,,,,,,,,,,,,,,,,,,,,,,,,,,,,,,,,,,,,,,,,,,,,,,,
1769161189.452758,1769161189.453732,45.0,0.0,4323.589844,4300.897461,4302.436035,4325.384766,4275.256348,4304.102539,4288.333496,4280.0,4277.307617,4270.384766,4569.358887,4540.128418,4425.0,4506.410156,,,,,,,,,,,,,,,,,,,,,,,,,,,,,,,,,,,,,,,,,,,,,,,,,,,,,,,,,,,,,,,,,,,,,,
1769161189.460566,1769161189.461441,46.0,0.0,4312.94873,4295.512695,4290.512695,4325.0,4273.974121,4302.05127,4280.128418,4282.05127,4281.282227,4264.102539,4563.589844,4539.487305,4413.846191,4504.358887,0.191145,0.409662,0.231953,0.204003,0.286337,0.220663,0.382839,0.275992,0.148571,0.141507,0.266022,0.263082,0.090183,0.129505,0.096646,0.215313,0.200651,0.177954,0.09806,0.134589,0.262891,0.156176,0.043111,0.103744,0.057729,0.240506,0.144043,0.078811,0.340628,0.151199,0.112916,0.250264,0.267727,0.124111,0.101422,0.26042,0.375537,0.235315,0.246154,0.179111,0.501514,0.679398,0.198899,0.403226,0.170781,0.110075,0.553036,0.381694,0.523035,0.503731,0.344423,0.442961,0.195995,0.277915,0.228054,0.661139,0.421751,0.178056,0.189339,0.219408,0.480423,0.532357,0.201232,0.398525,0.168997,0.550167,0.583903,0.36073,0.277353,0.265286
1769161189.468375,1769161189.469249,47.0,0.0,4311.794922,4299.358887,4295.769043,4326.538574,4269.487305,4300.512695,4287.820313,4283.333496,4279.871582,4262.307617,4561.922852,4540.0,4411.025879,4506.153809,,,,,,,,,,,,,,,,,,,,,,,,,,,,,,,,,,,,,,,,,,,,,,,,,,,,,,,,,,,,,,,,,,,,,,
1769161189.476183,1769161189.476858,48.0,0.0,4312.692383,4305.256348,4303.717773,4325.512695,4270.384766,4304.615234,4295.256348,4285.384766,4279.487305,4262.692383,4568.333496,4544.743652,4416.025879,4508.461426,,,,,,,,,,,,,,,,,,,,,,,,,,,,,,,,,,,,,,,,,,,,,,,,,,,,,,,,,,,,,,,,,,,,,,
1769161189.483992,1769161189.484666,49.0,0.0,4315.512695,4305.897461,4298.846191,4327.820313,4277.820313,4312.563965,4292.307617,4286.666504,4281.025879,4272.820313,4572.692383,4546.794922,4427.307617,4509.743652,,,,,,,,,,,,,,,,,,,,,,,,,,,,,,,,,,,,,,,,,,,,,,,,,,,,,,,,,,,,,,,,,,,,,,
1769161189.4918,1769161189.492375,50.0,0.0,4320.0,4301.282227,4293.717773,4325.256348,4280.897461,4313.077148,4292.563965,4289.230957,4287.94873,4276.666504,4575.384766,4545.384766,4431.794922,4509.615234,,,,,,,,,,,,,,,,,,,,,,,,,,,,,,,,,,,,,,,,,,,,,,,,,,,,,,,,,,,,,,,,,,,,,,
1769161189.499609,1769161189.500183,51.0,0.0,4320.128418,4296.282227,4295.641113,4321.538574,4278.077148,4310.128418,4298.461426,4295.384766,4294.102539,4266.666504,4582.307617,4553.717773,4428.333496,4517.179688,,,,,,,,,,,,,,,,,,,,,,,,,,,,,,,,,,,,,,,,,,,,,,,,,,,,,,,,,,,,,,,,,,,,,,
1769161189.507417,1769161189.508192,52.0,0.0,4317.692383,4296.025879,4296.922852,4324.615234,4278.974121,4310.384766,4296.794922,4295.512695,4288.974121,4264.487305,4580.256348,4559.102539,4426.538574,4521.282227,,,,,,,,,,,,,,,,,,,,,,,,,,,,,,,,,,,,,,,,,,,,,,,,,,,,,,,,,,,,,,,,,,,,,,
1769161189.515226,1769161189.516,53.0,0.0,4315.897461,4302.94873,4295.384766,4327.307617,4282.307617,4312.563965,4292.05127,4289.487305,4286.153809,4276.666504,4570.128418,4551.666504,4425.128418,4511.794922,,,,,,,,,,,,,,,,,,,,,,,,,,,,,,,,,,,,,,,,,,,,,,,,,,,,,,,,,,,,,,,,,,,,,,
1769161189.523034,1769161189.523908,54.0,0.0,4311.282227,4302.820313,4294.615234,4325.641113,4281.666504,4317.436035,4293.333496,4288.589844,4290.641113,4283.717773,4572.436035,4548.846191,4426.282227,4509.102539,,,,,,,,,,,,,,,,,,,,,,,,,,,,,,,,,,,,,,,,,,,,,,,,,,,,,,,,,,,,,,,,,,,,,,
1769161189.530842,1769161189.531717,55.0,0.0,4310.512695,4296.153809,4293.717773,4325.512695,4279.358887,4317.436035,4295.512695,4295.0,4291.794922,4278.333496,4577.563965,4552.436035,4427.820313,4514.871582,,,,,,,,,,,,,,,,,,,,,,,,,,,,,,,,,,,,,,,,,,,,,,,,,,,,,,,,,,,,,,,,,,,,,,
1769161189.538651,1769161189.539725,56.0,0.0,4317.436035,4299.743652,4293.461426,4326.922852,4277.94873,4311.794922,4292.692383,4296.666504,4290.256348,4270.128418,4572.05127,4553.077148,4420.512695,4512.307617,,,,,,,,,,,,,,,,,,,,,,,,,,,,,,,,,,,,,,,,,,,,,,,,,,,,,,,,,,,,,,,,,,,,,,
1769161189.546459,1769161189.547534,57.0,0.0,4321.538574,4305.512695,4295.641113,4326.922852,4280.0,4311.282227,4286.153809,4283.846191,4285.897461,4265.897461,4570.0,4552.307617,4413.717773,4507.307617,,,,,,,,,,,,,,,,,,,,,,,,,,,,,,,,,,,,,,,,,,,,,,,,,,,,,,,,,,,,,,,,,,,,,,
1769161189.554268,1769161189.555442,58.0,0.0,4319.871582,4298.974121,4295.256348,4327.05127,4281.538574,4310.384766,4283.461426,4276.410156,4278.974121,4264.871582,4571.538574,4548.589844,4415.512695,4509.487305,,,,,,,,,,,,,,,,,,,,,,,,,,,,,,,,,,,,,,,,,,,,,,,,,,,,,,,,,,,,,,,,,,,,,,
1769161189.562076,1769161189.56325,59.0,0.0,4318.461426,4292.05127,4293.077148,4324.871582,4279.615234,4310.897461,4288.205078,4286.282227,4279.230957,4268.205078,4568.974121,4547.692383,4416.922852,4510.0,,,,,,,,,,,,,,,,,,,,,,,,,,,,,,,,,,,,,,,,,,,,,,,,,,,,,,,,,,,,,,,,,,,,,,
1769161189.569885,1769161189.570859,60.0,0.0,4318.205078,4296.538574,4293.461426,4323.333496,4276.666504,4319.358887,4293.717773,4291.282227,4282.436035,4273.846191,4569.743652,4549.871582,4414.615234,4507.307617,,,,,,,,,,,,,,,,,,,,,,,,,,,,,,,,,,,,,,,,,,,,,,,,,,,,,,,,,,,,,,,,,,,,,,
1769161189.577693,1769161189.578667,61.0,0.0,4315.256348,4295.769043,4295.512695,4324.358887,4277.179688,4321.794922,4295.256348,4285.769043,4279.487305,4273.205078,4568.717773,4543.589844,4411.282227,4508.333496,,,,,,,,,,,,,,,,,,,,,,,,,,,,,,,,,,,,,,,,,,,,,,,,,,,,,,,,,,,,,,,,,,,,,,
1769161189.585502,1769161189.586376,62.0,0.0,4307.692383,4288.461426,4290.512695,4322.179688,4280.128418,4313.846191,4294.358887,4289.871582,4280.384766,4270.128418,4563.333496,4536.922852,4409.230957,4503.974121,0.196147,0.442717,0.212748,0.20261,0.285542,0.231474,0.351627,0.242456,0.154549,0.145718,0.233947,0.237559,0.106772,0.114572,0.086172,0.238037,0.183048,0.190402,0.091627,0.132959,0.248456,0.156304,0.041251,0.103598,0.049971,0.2239,0.127465,0.092849,0.341589,0.139901,0.10714,0.191796,0.249977,0.136689,0.085768,0.257905,0.378796,0.240845,0.269209,0.177075,0.453637,0.642605,0.210795,0.372654,0.178036,0.099071,0.503028,0.340351,0.458352,0.517814,0.377467,0.456869,0.197719,0.30584,0.253162,0.719111,0.413883,0.157419,0.229818,0.245772,0.541641,0.548052,0.211152,0.340255,0.201482,0.592283,0.601461,0.334956,0.288055,0.287766
1769161189.59331,1769161189.594184,63.0,0.0,4303.205078,4289.743652,4281.922852,4319.230957,4280.0,4313.077148,4294.743652,4294.743652,4283.077148,4266.282227,4563.333496,4538.205078,4410.641113,4493.846191,,,,,,,,,,,,,,,,,,,,,,,,,,,,,,,,,,,,,,,,,,,,,,,,,,,,,,,,,,,,,,,,,,,,,,
1769161189.601118,1769161189.601793,64.0,0.0,4307.692383,4295.128418,4283.077148,4321.025879,4278.333496,4314.615234,4295.384766,4286.282227,4277.563965,4261.282227,4567.179688,4539.230957,4411.410156,4495.128418,,,,,,,,,,,,,,,,,,,,,,,,,,,,,,,,,,,,,,,,,,,,,,,,,,,,,,,,,,,,,,,,,,,,,,
1769161189.608927,1769161189.609602,65.0,0.0,4314.487305,4295.0,4289.358887,4322.563965,4278.589844,4310.128418,4292.94873,4283.077148,4275.128418,4267.94873,4569.487305,4544.102539,4410.384766,4507.05127,,,,,,,,,,,,,,,,,,,,,,,,,,,,,,,,,,,,,,,,,,,,,,,,,,,,,,,,,,,,,,,,,,,,,,
1769161189.616735,1769161189.61731,66.0,0.0,4312.820313,4290.384766,4288.717773,4318.589844,4278.717773,4312.436035,4293.077148,4291.794922,4280.897461,4284.230957,4572.179688,4555.0,4412.563965,4512.05127,,,,,,,,,,,,,,,,,,,,,,,,,,,,,,,,,,,,,,,,,,,,,,,,,,,,,,,,,,,,,,,,,,,,,,
1769161189.624544,1769161189.625119,67.0,0.0,4309.358887,4289.743652,4289.230957,4317.94873,4279.230957,4321.666504,4295.512695,4294.230957,4282.563965,4280.641113,4573.589844,4558.077148,4414.743652,4510.0,,,,,,,,,,,,,,,,,,,,,,,,,,,,,,,,,,,,,,,,,,,,,,,,,,,,,,,,,,,,,,,,,,,,,,
1769161189.632352,1769161189.633127,68.0,0.0,4311.538574,4290.384766,4294.871582,4322.05127,4278.974121,4322.307617,4294.743652,4289.743652,4279.615234,4264.615234,4572.692383,4554.102539,4414.230957,4507.94873,,,,,,,,,,,,,,,,,,,,,,,,,,,,,,,,,,,,,,,,,,,,,,,,,,,,,,,,,,,,,,,,,,,,,,
1769161189.640161,1769161189.640935,69.0,0.0,4312.692383,4287.436035,4292.563965,4322.94873,4274.871582,4312.692383,4293.461426,4291.410156,4281.410156,4270.769043,4571.794922,4555.0,4413.589844,4508.077148,,,,,,,,,,,,,,,,,,,,,,,,,,,,,,,,,,,,,,,,,,,,,,,,,,,,,,,,,,,,,,,,,,,,,,
1769161189.647969,1769161189.648844,70.0,0.0,4310.897461,4287.436035,4287.94873,4323.077148,4271.410156,4308.846191,4293.589844,4293.846191,4285.897461,4283.974121,4571.794922,4556.794922,4413.589844,4513.717773,,,,,,,,,,,,,,,,,,,,,,,,,,,,,,,,,,,,,,,,,,,,,,,,,,,,,,,,,,,,,,,,,,,,,,
1769161189.655778,1769161189.656652,71.0,0.0,4307.820313,4289.871582,4289.487305,4322.436035,4274.230957,4315.769043,4294.487305,4296.153809,4291.025879,4271.282227,4572.692383,4555.897461,4413.717773,4515.512695,,,,,,,,,,,,,,,,,,,,,,,,,,,,,,,,,,,,,,,,,,,,,,,,,,,,,,,,,,,,,,,,,,,,,,
1769161189.663586,1769161189.664261,72.0,0.0,4306.025879,4287.05127,4286.025879,4320.512695,4277.436035,4322.563965,4296.282227,4297.94873,4291.410156,4261.153809,4573.205078,4556.153809,4413.974121,4508.333496,,,,,,,,,,,,,,,,,,,,,,,,,,,,,,,,,,,,,,,,,,,,,,,,,,,,,,,,,,,,,,,,,,,,,,
1769161189.671394,1769161189.672069,73.0,0.0,4307.563965,4281.282227,4278.846191,4321.794922,4277.94873,4321.666504,4297.692383,4288.589844,4283.205078,4273.205078,4569.230957,4550.769043,4413.333496,4506.025879,,,,,,,,,,,,,,,,,,,,,,,,,,,,,,,,,,,,,,,,,,,,,,,,,,,,,,,,,,,,,,,,,,,,,,
1769161189.679203,1769161189.679778,74.0,0.0,4307.563965,4279.871582,4278.077148,4320.384766,4277.436035,4315.512695,4296.025879,4280.256348,4277.820313,4274.230957,4566.282227,4543.461426,4410.256348,4506.153809,,,,,,,,,,,,,,,,,,,,,,,,,,,,,,,,,,,,,,,,,,,,,,,,,,,,,,,,,,,,,,,,,,,,,,
1769161189.687011,1769161189.687586,75.0,0.0,4303.333496,4283.846191,4278.205078,4311.666504,4275.128418,4308.589844,4293.077148,4280.769043,4276.666504,4262.94873,4564.230957,4539.487305,4409.230957,4502.179688,,,,,,,,,,,,,,,,,,,,,,,,,,,,,,,,,,,,,,,,,,,,,,,,,,,,,,,,,,,,,,,,,,,,,,
1769161189.69482,1769161189.695195,76.0,0.0,4301.410156,4290.641113,4276.538574,4311.538574,4275.128418,4310.256348,4293.846191,4284.102539,4275.0,4265.384766,4563.461426,4539.230957,4412.692383,4502.692383,,,,,,,,,,,,,,,,,,,,,,,,,,,,,,,,,,,,,,,,,,,,,,,,,,,,,,,,,,,,,,,,,,,,,,
1769161189.702628,1769161189.703003,77.0,0.0,4306.282227,4295.897461,4282.179688,4322.05127,4278.461426,4319.102539,4296.153809,4288.717773,4276.410156,4263.846191,4567.05127,4543.205078,4416.538574,4507.05127,,,,,,,,,,,,,,,,,,,,,,,,,,,,,,,,,,,,,,,,,,,,,,,,,,,,,,,,,,,,,,,,,,,,,,
1769161189.710437,1769161189.710912,78.0,0.0,4311.922852,4295.897461,4289.230957,4325.128418,4280.384766,4322.94873,4295.512695,4293.205078,4280.256348,4262.05127,4570.769043,4550.384766,4421.922852,4509.230957,0.230022,0.440223,0.212304,0.198403,0.273902,0.283186,0.318921,0.202836,0.16464,0.15288,0.246809,0.214643,0.123034,0.098952,0.078999,0.277086,0.164327,0.223202,0.095495,0.128044,0.242669,0.172039,0.045909,0.110638,0.04649,0.207108,0.103626,0.102213,0.344135,0.128941,0.094346,0.16468,0.215776,0.154274,0.082952,0.23411,0.430415,0.248086,0.302193,0.176428,0.373988,0.576117,0.211049,0.352203,0.183352,0.108998,0.42726,0.350773,0.385422,0.518335,0.427773,0.432696,0.195657,0.348614,0.270411,0.721381,0.385317,0.134519,0.287202,0.272609,0.57169,0.526081,0.211287,0.280751,0.225068,0.699166,0.579337,0.330282,0.307719,0.305199
1769161189.718245,1769161189.71872,79.0,0.0,4313.589844,4295.897461,4290.897461,4324.358887,4279.487305,4322.05127,4295.641113,4293.461426,4281.410156,4280.384766,4575.512695,4555.384766,4428.461426,4510.256348,,,,,,,,,,,,,,,,,,,,,,,,,,,,,,,,,,,,,,,,,,,,,,,,,,,,,,,,,,,,,,,,,,,,,,
1769161189.726054,1769161189.726728,80.0,0.0,4308.846191,4295.384766,4289.871582,4325.256348,4276.538574,4316.153809,4296.794922,4292.05127,4280.128418,4283.589844,4570.769043,4552.436035,4422.563965,4505.769043,,,,,,,,,,,,,,,,,,,,,,,,,,,,,,,,,,,,,,,,,,,,,,,,,,,,,,,,,,,,,,,,,,,,,,
1769161189.733862,1769161189.734537,81.0,0.0,4307.563965,4293.333496,4289.102539,4322.820313,4276.282227,4311.538574,4292.692383,4292.94873,4279.102539,4266.666504,4558.333496,4549.743652,4412.05127,4503.589844,,,,,,,,,,,,,,,,,,,,,,,,,,,,,,,,,,,,,,,,,,,,,,,,,,,,,,,,,,,,,,,,,,,,,,
1769161189.741671,1769161189.742445,82.0,0.0,4316.282227,4294.743652,4289.743652,4321.794922,4277.307617,4317.94873,4291.794922,4290.897461,4279.358887,4266.922852,4560.128418,4550.897461,4413.846191,4506.922852,,,,,,,,,,,,,,,,,,,,,,,,,,,,,,,,,,,,,,,,,,,,,,,,,,,,,,,,,,,,,,,,,,,,,,
1769161189.749479,1769161189.750253,83.0,0.0,4319.358887,4295.897461,4292.179688,4324.615234,4275.0,4320.128418,4294.615234,4295.0,4280.512695,4270.897461,4571.794922,4553.461426,4417.820313,4509.615234,,,,,,,,,,,,,,,,,,,,,,,,,,,,,,,,,,,,,,,,,,,,,,,,,,,,,,,,,,,,,,,,,,,,,,
1769161189.757288,1769161189.758262,84.0,0.0,4313.077148,4296.025879,4293.974121,4324.487305,4275.384766,4312.307617,4286.794922,4296.666504,4279.230957,4265.512695,4574.358887,4555.384766,4417.692383,4514.743652,,,,,,,,,,,,,,,,,,,,,,,,,,,,,,,,,,,,,,,,,,,,,,,,,,,,,,,,,,,,,,,,,,,,,,
1769161189.765096,1769161189.76607,85.0,0.0,4309.487305,4295.897461,4292.563965,4323.461426,4278.846191,4308.717773,4279.871582,4285.512695,4277.05127,4271.410156,4570.384766,4555.128418,4419.102539,4516.922852,,,,,,,,,,,,,,,,,,,,,,,,,,,,,,,,,,,,,,,,,,,,,,,,,,,,,,,,,,,,,,,,,,,,,,
1769161189.772905,1769161189.773779,86.0,0.0,4313.974121,4294.102539,4293.333496,4323.461426,4275.897461,4307.94873,4286.666504,4285.512695,4276.922852,4281.153809,4570.256348,4552.820313,4421.025879,4508.974121,,,,,,,,,,,,,,,,,,,,,,,,,,,,,,,,,,,,,,,,,,,,,,,,,,,,,,,,,,,,,,,,,,,,,,
1769161189.780713,1769161189.781587,87.0,0.0,4322.94873,4294.358887,4297.05127,4322.179688,4274.871582,4311.538574,4293.461426,4293.077148,4276.666504,4277.820313,4576.153809,4556.025879,4423.205078,4511.410156,,,,,,,,,,,,,,,,,,,,,,,,,,,,,,,,,,,,,,,,,,,,,,,,,,,,,,,,,,,,,,,,,,,,,,
1769161189.788521,1769161189.789196,88.0,0.0,4328.333496,4297.820313,4298.589844,4326.666504,4284.487305,4325.256348,4293.461426,4295.128418,4282.307617,4276.025879,4586.538574,4566.153809,4428.974121,4521.794922,,,,,,,,,,,,,,,,,,,,,,,,,,,,,,,,,,,,,,,,,,,,,,,,,,,,,,,,,,,,,,,,,,,,,,
1769161189.79633,1769161189.797004,89.0,0.0,4321.410156,4296.666504,4297.179688,4327.692383,4289.615234,4330.897461,4294.743652,4299.487305,4291.922852,4283.333496,4586.538574,4564.230957,4430.897461,4515.769043,,,,,,,,,,,,,,,,,,,,,,,,,,,,,,,,,,,,,,,,,,,,,,,,,,,,,,,,,,,,,,,,,,,,,,
1769161189.804138,1769161189.804713,90.0,0.0,4309.743652,4287.436035,4293.717773,4315.128418,4285.769043,4325.512695,4296.153809,4301.282227,4295.512695,4284.102539,4572.692383,4552.436035,4421.538574,4503.717773,,,,,,,,,,,,,,,,,,,,,,,,,,,,,,,,,,,,,,,,,,,,,,,,,,,,,,,,,,,,,,,,,,,,,,
1769161189.811947,1769161189.812521,91.0,0.0,4303.461426,4281.282227,4291.025879,4309.487305,4280.128418,4322.563965,4295.384766,4297.05127,4292.436035,4277.820313,4566.410156,4548.205078,4413.846191,4504.230957,,,,,,,,,,,,,,,,,,,,,,,,,,,,,,,,,,,,,,,,,,,,,,,,,,,,,,,,,,,,,,,,,,,,,,
1769161189.819755,1769161189.82013,92.0,0.0,4307.436035,4287.307617,4292.94873,4319.871582,4277.94873,4320.897461,4296.410156,4301.153809,4293.717773,4276.794922,4576.538574,4556.153809,4422.05127,4514.743652,,,,,,,,,,,,,,,,,,,,,,,,,,,,,,,,,,,,,,,,,,,,,,,,,,,,,,,,,,,,,,,,,,,,,,
1769161189.827564,1769161189.827938,93.0,0.0,4320.384766,4296.922852,4297.692383,4328.205078,4283.846191,4320.897461,4296.666504,4306.282227,4298.974121,4285.384766,4589.615234,4563.077148,4433.461426,4523.846191,,,,,,,,,,,,,,,,,,,,,,,,,,,,,,,,,,,,,,,,,,,,,,,,,,,,,,,,,,,,,,,,,,,,,,
1769161189.835372,1769161189.835847,94.0,0.0,4328.461426,4298.589844,4297.94873,4327.307617,4291.922852,4320.0,4294.615234,4295.897461,4290.128418,4288.205078,4585.0,4557.820313,4429.615234,4519.487305,0.28052,0.404396,0.227187,0.195127,0.257582,0.371016,0.292428,0.172103,0.17681,0.16197,0.316328,0.193339,0.13598,0.087695,0.078493,0.323875,0.15145,0.267569,0.107269,0.123298,0.245616,0.201989,0.055306,0.125783,0.049062,0.204733,0.079215,0.104061,0.351529,0.121245,0.080223,0.164198,0.171986,0.170717,0.092565,0.197906,0.526385,0.261539,0.333762,0.177279,0.290545,0.497608,0.202653,0.337871,0.186398,0.14534,0.352528,0.374576,0.335336,0.499009,0.504584,0.379353,0.186534,0.390518,0.274493,0.680477,0.347685,0.11514,0.349218,0.295396,0.590686,0.479533,0.206206,0.232871,0.232085,0.877768,0.524552,0.331824,0.328509,0.310926
1769161189.843181,1769161189.843655,95.0,0.0,4326.153809,4297.179688,4297.563965,4327.563965,4290.769043,4315.128418,4293.461426,4291.153809,4275.897461,4279.230957,4571.538574,4550.641113,4425.641113,4509.230957,,,,,,,,,,,,,,,,,,,,,,,,,,,,,,,,,,,,,,,,,,,,,,,,,,,,,,,,,,,,,,,,,,,,,,
1769161189.850989,1769161189.851663,96.0,0.0,4318.717773,4295.641113,4298.333496,4327.05127,4284.871582,4314.487305,4294.102539,4296.794922,4276.922852,4274.358887,4568.846191,4552.05127,4425.384766,4509.487305,,,,,,,,,,,,,,,,,,,,,,,,,,,,,,,,,,,,,,,,,,,,,,,,,,,,,,,,,,,,,,,,,,,,,,
1769161189.858797,1769161189.859472,97.0,0.0,4311.666504,4290.384766,4296.282227,4322.94873,4282.05127,4312.692383,4293.205078,4295.769043,4282.820313,4277.820313,4571.025879,4553.974121,4420.0,4511.410156,,,,,,,,,,,,,,,,,,,,,,,,,,,,,,,,,,,,,,,,,,,,,,,,,,,,,,,,,,,,,,,,,,,,,,
1769161189.866606,1769161189.86718,98.0,0.0,4309.743652,4290.512695,4294.871582,4322.179688,4281.410156,4307.820313,4291.410156,4293.333496,4278.077148,4270.769043,4570.769043,4550.128418,4421.922852,4507.179688,,,,,,,,,,,,,,,,,,,,,,,,,,,,,,,,,,,,,,,,,,,,,,,,,,,,,,,,,,,,,,,,,,,,,,
1769161189.874414,1769161189.874989,99.0,0.0,4313.077148,4293.205078,4295.641113,4324.743652,4283.205078,4315.769043,4294.358887,4296.410156,4277.563965,4260.0,4571.410156,4550.384766,4428.974121,4505.512695,,,,,,,,,,,,,,,,,,,,,,,,,,,,,,,,,,,,,,,,,,,,,,,,,,,,,,,,,,,,,,,,,,,,,,
1769161189.882223,1769161189.882597,100.0,0.0,4312.820313,4288.974121,4295.641113,4323.589844,4288.077148,4322.692383,4295.0,4295.384766,4284.743652,4270.256348,4571.666504,4553.461426,4428.717773,4510.128418,,,,,,,,,,,,,,,,,,,,,,,,,,,,,,,,,,,,,,,,,,,,,,,,,,,,,,,,,,,,,,,,,,,,,,
1769161189.890031,1769161189.890406,101.0,0.0,4311.666504,4288.333496,4294.358887,4322.307617,4290.512695,4314.487305,4291.410156,4288.974121,4285.769043,4285.897461,4571.538574,4553.205078,4429.487305,4518.846191,,,,,,,,,,,,,,,,,,,,,,,,,,,,,,,,,,,,,,,,,,,,,,,,,,,,,,,,,,,,,,,,,,,,,,
1769161189.89784,1769161189.898114,102.0,0.0,4312.179688,4294.102539,4296.666504,4326.666504,4289.230957,4311.153809,4292.05127,4289.615234,4284.102539,4282.94873,4573.974121,4551.153809,4431.922852,4517.436035,,,,,,,,,,,,,,,,,,,,,,,,,,,,,,,,,,,,,,,,,,,,,,,,,,,,,,,,,,,,,,,,,,,,,,
1769161189.905648,1769161189.905923,103.0,0.0,4310.256348,4292.94873,4302.436035,4328.333496,4287.692383,4312.94873,4294.871582,4295.384766,4282.692383,4275.384766,4572.179688,4549.615234,4426.666504,4504.615234,,,,,,,,,,,,,,,,,,,,,,,,,,,,,,,,,,,,,,,,,,,,,,,,,,,,,,,,,,,,,,,,,,,,,,
1769161189.913457,1769161189.913931,104.0,0.0,4313.589844,4288.974121,4304.615234,4325.0,4288.205078,4308.589844,4293.333496,4292.94873,4279.487305,4277.94873,4571.282227,4552.307617,4426.922852,4507.692383,,,,,,,,,,,,,,,,,,,,,,,,,,,,,,,,,,,,,,,,,,,,,,,,,,,,,,,,,,,,,,,,,,,,,,
1769161189.921265,1769161189.92174,105.0,0.0,4318.461426,4294.230957,4303.974121,4326.922852,4292.563965,4313.974121,4292.05127,4289.102539,4278.589844,4281.410156,4577.436035,4555.512695,4432.94873,4521.410156,,,,,,,,,,,,,,,,,,,,,,,,,,,,,,,,,,,,,,,,,,,,,,,,,,,,,,,,,,,,,,,,,,,,,,
1769161189.929073,1769161189.929648,106.0,0.0,4314.743652,4297.820313,4304.487305,4327.94873,4297.179688,4321.922852,4293.717773,4294.102539,4282.179688,4279.230957,4575.256348,4553.333496,4423.333496,4516.410156,,,,,,,,,,,,,,,,,,,,,,,,,,,,,,,,,,,,,,,,,,,,,,,,,,,,,,,,,,,,,,,,,,,,,,
1769161189.936882,1769161189.937456,107.0,0.0,4310.0,4292.179688,4303.717773,4323.589844,4294.358887,4313.717773,4293.589844,4296.794922,4283.461426,4271.538574,4564.358887,4550.641113,4413.974121,4501.025879,,,,,,,,,,,,,,,,,,,,,,,,,,,,,,,,,,,,,,,,,,,,,,,,,,,,,,,,,,,,,,,,,,,,,,
1769161189.94469,1769161189.945465,108.0,0.0,4315.512695,4293.077148,4305.641113,4328.333496,4292.179688,4308.846191,4294.615234,4292.563965,4282.94873,4273.461426,4571.538574,4553.846191,4423.974121,4505.769043,,,,,,,,,,,,,,,,,,,,,,,,,,,,,,,,,,,,,,,,,,,,,,,,,,,,,,,,,,,,,,,,,,,,,,
1769161189.952499,1769161189.953273,109.0,0.0,4322.307617,4295.128418,4308.974121,4333.974121,4291.794922,4312.436035,4294.358887,4292.563965,4282.436035,4280.641113,4589.871582,4557.692383,4434.102539,4523.717773,,,,,,,,,,,,,,,,,,,,,,,,,,,,,,,,,,,,,,,,,,,,,,,,,,,,,,,,,,,,,,,,,,,,,,
1769161189.960307,1769161189.961082,110.0,0.0,4322.307617,4288.974121,4304.358887,4326.922852,4291.025879,4308.077148,4288.589844,4294.487305,4277.692383,4272.179688,4586.282227,4555.641113,4429.358887,4524.743652,0.32712,0.345351,0.243038,0.196941,0.242014,0.480593,0.273159,0.157741,0.186928,0.170064,0.42162,0.17683,0.145156,0.083612,0.086643,0.362999,0.150603,0.305089,0.1203,0.121416,0.254302,0.237632,0.066061,0.145654,0.057457,0.215944,0.060567,0.100187,0.367227,0.118602,0.067544,0.17565,0.130813,0.181724,0.110268,0.163235,0.642646,0.290056,0.351737,0.179037,0.232549,0.423019,0.195108,0.31964,0.186077,0.202877,0.307832,0.379643,0.327512,0.461785,0.601958,0.319032,0.171054,0.416079,0.264088,0.618234,0.328205,0.10768,0.397448,0.307662,0.622738,0.431904,0.20305,0.205145,0.220581,1.086123,0.457195,0.32398,0.340462,0.300847
1769161189.968116,1769161189.96889,111.0,0.0,4318.461426,4286.282227,4303.205078,4323.333496,4289.358887,4306.282227,4288.974121,4289.487305,4277.179688,4267.820313,4571.153809,4551.922852,4425.0,4509.230957,,,,,,,,,,,,,,,,,,,,,,,,,,,,,,,,,,,,,,,,,,,,,,,,,,,,,,,,,,,,,,,,,,,,,,
1769161189.975924,1769161189.976499,112.0,0.0,4312.436035,4290.897461,4310.128418,4328.717773,4286.282227,4313.205078,4290.897461,4279.871582,4273.077148,4277.94873,4569.871582,4551.282227,4426.282227,4503.974121,,,,,,,,,,,,,,,,,,,,,,,,,,,,,,,,,,,,,,,,,,,,,,,,,,,,,,,,,,,,,,,,,,,,,,
1769161189.983733,1769161189.984307,113.0,0.0,4311.666504,4291.025879,4306.153809,4327.307617,4285.897461,4311.282227,4284.743652,4277.692383,4265.128418,4278.333496,4573.846191,4552.436035,4428.333496,4515.384766,,,,,,,,,,,,,,,,,,,,,,,,,,,,,,,,,,,,,,,,,,,,,,,,,,,,,,,,,,,,,,,,,,,,,,
1769161189.991541,1769161189.992016,114.0,0.0,4319.871582,4287.436035,4300.256348,4322.692383,4290.256348,4302.94873,4278.846191,4283.077148,4269.230957,4275.384766,4572.563965,4555.0,4435.384766,4525.641113,,,,,,,,,,,,,,,,,,,,,,,,,,,,,,,,,,,,,,,,,,,,,,,,,,,,,,,,,,,,,,,,,,,,,,
1769161189.99935,1769161189.999824,115.0,0.0,4321.538574,4287.94873,4306.153809,4325.897461,4293.846191,4302.692383,4278.589844,4281.666504,4276.282227,4275.128418,4571.025879,4555.641113,4432.563965,4521.410156,,,,,,,,,,,,,,,,,,,,,,,,,,,,,,,,,,,,,,,,,,,,,,,,,,,,,,,,,,,,,,,,,,,,,,
1769161190.007158,1769161190.007433,116.0,0.0,4313.717773,4287.820313,4305.769043,4327.820313,4294.487305,4308.077148,4282.94873,4280.128418,4274.871582,4267.05127,4570.769043,4554.102539,4421.282227,4512.563965,,,,,,,,,,,,,,,,,,,,,,,,,,,,,,,,,,,,,,,,,,,,,,,,,,,,,,,,,,,,,,,,,,,,,,
1769161190.014967,1769161190.015241,117.0,0.0,4311.666504,4286.666504,4295.769043,4322.436035,4295.512695,4311.922852,4291.282227,4288.461426,4275.769043,4267.563965,4570.384766,4551.153809,4422.179688,4509.871582,,,,,,,,,,,,,,,,,,,,,,,,,,,,,,,,,,,,,,,,,,,,,,,,,,,,,,,,,,,,,,,,,,,,,,
1769161190.022775,1769161190.02295,118.0,0.0,4310.641113,4287.692383,4292.179688,4317.820313,4295.0,4313.461426,4296.666504,4292.563965,4279.743652,4276.666504,4567.692383,4544.358887,4424.615234,4508.846191,,,,,,,,,,,,,,,,,,,,,,,,,,,,,,,,,,,,,,,,,,,,,,,,,,,,,,,,,,,,,,,,,,,,,,
1769161190.030584,1769161190.030758,119.0,0.0,4307.307617,4286.922852,4295.641113,4321.538574,4294.487305,4311.410156,4293.846191,4292.436035,4279.743652,4275.769043,4566.410156,4539.743652,4422.692383,4507.563965,,,,,,,,,,,,,,,,,,,,,,,,,,,,,,,,,,,,,,,,,,,,,,,,,,,,,,,,,,,,,,,,,,,,,,
1769161190.038392,1769161190.038766,120.0,0.0,4306.922852,4284.615234,4297.307617,4322.179688,4294.487305,4308.846191,4292.820313,4293.589844,4278.974121,4277.436035,4569.358887,4540.897461,4424.871582,4508.077148,,,,,,,,,,,,,,,,,,,,,,,,,,,,,,,,,,,,,,,,,,,,,,,,,,,,,,,,,,,,,,,,,,,,,,
1769161190.0462,1769161190.046575,121.0,0.0,4304.102539,4279.230957,4292.179688,4313.589844,4288.974121,4305.128418,4293.333496,4290.128418,4277.436035,4281.410156,4567.692383,4540.384766,4422.563965,4502.563965,,,,,,,,,,,,,,,,,,,,,,,,,,,,,,,,,,,,,,,,,,,,,,,,,,,,,,,,,,,,,,,,,,,,,,
1769161190.054009,1769161190.054483,122.0,0.0,4302.692383,4277.692383,4288.205078,4313.974121,4287.307617,4304.615234,4288.717773,4290.897461,4276.794922,4277.436035,4565.256348,4538.077148,4417.436035,4497.692383,,,,,,,,,,,,,,,,,,,,,,,,,,,,,,,,,,,,,,,,,,,,,,,,,,,,,,,,,,,,,,,,,,,,,,
1769161190.061817,1769161190.062292,123.0,0.0,4309.358887,4287.179688,4292.436035,4324.871582,4293.205078,4309.487305,4288.717773,4292.436035,4278.717773,4272.563965,4570.384766,4541.153809,4427.436035,4505.641113,,,,,,,,,,,,,,,,,,,,,,,,,,,,,,,,,,,,,,,,,,,,,,,,,,,,,,,,,,,,,,,,,,,,,,
1769161190.069626,1769161190.0703,124.0,0.0,4313.846191,4297.436035,4295.512695,4327.692383,4296.794922,4312.820313,4293.589844,4284.102539,4276.282227,4274.102539,4573.205078,4543.589844,4432.563965,4511.538574,,,,,,,,,,,,,,,,,,,,,,,,,,,,,,,,,,,,,,,,,,,,,,,,,,,,,,,,,,,,,,,,,,,,,,
1769161190.077434,1769161190.078108,125.0,0.0,4311.538574,4294.743652,4293.846191,4324.487305,4294.743652,4310.897461,4293.333496,4281.282227,4275.512695,4280.128418,4568.205078,4541.153809,4419.230957,4506.282227,,,,,,,,,,,,,,,,,,,,,,,,,,,,,,,,,,,,,,,,,,,,,,,,,,,,,,,,,,,,,,,,,,,,,,
1769161190.085243,1769161190.085817,126.0,0.0,4312.436035,4289.871582,4294.230957,4326.666504,4294.487305,4308.205078,4290.769043,4291.794922,4279.615234,4279.743652,4567.05127,4540.0,4418.077148,4503.717773,0.35077,0.280612,0.249987,0.21083,0.229622,0.591378,0.259837,0.160183,0.191363,0.173634,0.528416,0.170818,0.154266,0.085982,0.101599,0.380699,0.16318,0.320048,0.128067,0.122898,0.261893,0.26671,0.074721,0.165095,0.068801,0.242102,0.053922,0.09616,0.392743,0.120008,0.062207,0.187994,0.102414,0.185248,0.129654,0.141824,0.74517,0.33557,0.349068,0.180086,0.223029,0.369288,0.203467,0.288971,0.180908,0.272733,0.312349,0.356845,0.360751,0.41754,0.70519,0.273215,0.154793,0.419078,0.243171,0.57002,0.353007,0.117722,0.416902,0.303893,0.674824,0.402682,0.207343,0.198255,0.195682,1.26939,0.397987,0.305586,0.337977,0.277055
1769161190.093051,1769161190.093625,127.0,0.0,4312.692383,4291.025879,4292.94873,4327.820313,4297.436035,4310.897461,4293.205078,4295.384766,4280.512695,4270.128418,4569.871582,4540.641113,4427.692383,4504.230957,,,,,,,,,,,,,,,,,,,,,,,,,,,,,,,,,,,,,,,,,,,,,,,,,,,,,,,,,,,,,,,,,,,,,,
1769161190.10086,1769161190.101634,0.0,0.0,4308.461426,4285.512695,4289.743652,4323.333496,4295.897461,4310.256348,4294.743652,4292.05127,4278.589844,4270.641113,4570.384766,4544.487305,4427.692383,4503.461426,,,,,,,,,,,,,,,,,,,,,,,,,,,,,,,,,,,,,,,,,,,,,,,,,,,,,,,,,,,,,,,,,,,,,,
1769161190.108668,1769161190.109442,1.0,0.0,4306.794922,4278.717773,4293.333496,4321.922852,4293.077148,4300.897461,4291.922852,4292.436035,4278.333496,4281.666504,4570.769043,4549.871582,4426.282227,4505.641113,,,,,,,,,,,,,,,,,,,,,,,,,,,,,,,,,,,,,,,,,,,,,,,,,,,,,,,,,,,,,,,,,,,,,,
1769161190.116476,1769161190.11735,2.0,0.0,4308.333496,4281.282227,4292.94873,4321.282227,4292.307617,4293.077148,4290.512695,4292.436035,4278.717773,4280.512695,4571.153809,4548.077148,4427.820313,4507.05127,,,,,,,,,,,,,,,,,,,,,,,,,,,,,,,,,,,,,,,,,,,,,,,,,,,,,,,,,,,,,,,,,,,,,,
1769161190.124285,1769161190.125159,3.0,0.0,4303.205078,4281.538574,4282.179688,4314.743652,4289.358887,4293.205078,4290.769043,4292.692383,4277.307617,4266.153809,4566.538574,4536.922852,4421.025879,4504.615234,,,,,,,,,,,,,,,,,,,,,,,,,,,,,,,,,,,,,,,,,,,,,,,,,,,,,,,,,,,,,,,,,,,,,,
1769161190.132093,1769161190.133167,4.0,0.0,4298.461426,4281.025879,4279.102539,4313.589844,4289.487305,4294.487305,4294.615234,4292.307617,4275.0,4261.538574,4562.692383,4535.0,4415.769043,4503.974121,,,,,,,,,,,,,,,,,,,,,,,,,,,,,,,,,,,,,,,,,,,,,,,,,,,,,,,,,,,,,,,,,,,,,,
1769161190.139902,1769161190.140976,5.0,0.0,4306.282227,4288.717773,4288.846191,4325.128418,4294.102539,4287.307617,4297.05127,4292.307617,4277.820313,4273.205078,4567.05127,4548.461426,4425.512695,4508.846191,,,,,,,,,,,,,,,,,,,,,,,,,,,,,,,,,,,,,,,,,,,,,,,,,,,,,,,,,,,,,,,,,,,,,,
1769161190.14771,1769161190.148784,6.0,0.0,4313.974121,4293.333496,4293.461426,4330.0,4295.128418,4277.436035,4291.410156,4294.102539,4278.846191,4279.102539,4572.179688,4554.743652,4432.05127,4511.922852,,,,,,,,,,,,,,,,,,,,,,,,,,,,,,,,,,,,,,,,,,,,,,,,,,,,,,,,,,,,,,,,,,,,,,
1769161190.155519,1769161190.156592,7.0,0.0,4311.282227,4291.410156,4290.0,4324.102539,4294.102539,4279.743652,4289.871582,4294.871582,4276.922852,4272.820313,4570.512695,4551.410156,4426.666504,4509.358887,,,,,,,,,,,,,,,,,,,,,,,,,,,,,,,,,,,,,,,,,,,,,,,,,,,,,,,,,,,,,,,,,,,,,,
1769161190.163327,1769161190.164201,8.0,0.0,4307.692383,4293.717773,4291.153809,4323.461426,4296.153809,4292.563965,4295.512695,4297.179688,4281.538574,4273.974121,4568.717773,4551.282227,4422.94873,4507.563965,,,,,,,,,,,,,,,,,,,,,,,,,,,,,,,,,,,,,,,,,,,,,,,,,,,,,,,,,,,,,,,,,,,,,,
1769161190.171136,1769161190.17201,9.0,0.0,4312.692383,4297.179688,4294.358887,4327.436035,4296.666504,4297.307617,4296.025879,4295.769043,4283.461426,4279.102539,4570.897461,4552.563965,4424.743652,4508.205078,,,,,,,,,,,,,,,,,,,,,,,,,,,,,,,,,,,,,,,,,,,,,,,,,,,,,,,,,,,,,,,,,,,,,,
1769161190.178944,1769161190.179718,10.0,0.0,4320.128418,4295.256348,4293.717773,4325.641113,4296.538574,4292.563965,4293.974121,4292.563965,4278.589844,4277.94873,4571.282227,4551.666504,4426.538574,4508.461426,,,,,,,,,,,,,,,,,,,,,,,,,,,,,,,,,,,,,,,,,,,,,,,,,,,,,,,,,,,,,,,,,,,,,,
1769161190.186752,1769161190.187527,11.0,0.0,4319.615234,4293.205078,4293.461426,4323.974121,4298.461426,4293.205078,4294.743652,4293.077148,4277.820313,4277.692383,4571.025879,4552.692383,4429.615234,4508.846191,,,,,,,,,,,,,,,,,,,,,,,,,,,,,,,,,,,,,,,,,,,,,,,,,,,,,,,,,,,,,,,,,,,,,,
1769161190.194561,1769161190.195135,12.0,0.0,4313.589844,4294.230957,4293.333496,4325.769043,4298.205078,4297.05127,4293.205078,4293.846191,4277.692383,4273.846191,4572.692383,4554.230957,4430.769043,4507.436035,,,,,,,,,,,,,,,,,,,,,,,,,,,,,,,,,,,,,,,,,,,,,,,,,,,,,,,,,,,,,,,,,,,,,,
1769161190.202369,1769161190.202944,13.0,0.0,4309.358887,4293.846191,4291.153809,4325.128418,4296.025879,4294.743652,4294.358887,4300.897461,4281.410156,4271.538574,4573.717773,4553.974121,4428.205078,4507.820313,,,,,,,,,,,,,,,,,,,,,,,,,,,,,,,,,,,,,,,,,,,,,,,,,,,,,,,,,,,,,,,,,,,,,,
1769161190.210178,1769161190.210652,14.0,0.0,4308.846191,4293.077148,4293.461426,4324.230957,4295.256348,4294.871582,4298.205078,4313.717773,4290.641113,4279.487305,4571.410156,4554.743652,4426.282227,4509.358887,0.355214,0.226315,0.246911,0.24255,0.218427,0.682308,0.248639,0.174279,0.188858,0.169933,0.607224,0.179389,0.167546,0.09088,0.117703,0.369555,0.182405,0.305281,0.128194,0.125688,0.262739,0.279695,0.079309,0.179922,0.078855,0.269686,0.063898,0.10074,0.422546,0.122027,0.066425,0.198044,0.090519,0.179889,0.14385,0.139733,0.799087,0.388345,0.326078,0.178462,0.269533,0.345556,0.237609,0.246035,0.1701,0.34418,0.363275,0.316353,0.415109,0.380039,0.797181,0.249849,0.144182,0.403785,0.219326,0.557411,0.427586,0.143856,0.402685,0.28228,0.733926,0.395926,0.221108,0.204679,0.166975,1.379528,0.359228,0.282866,0.322295,0.248421
1769161190.217986,1769161190.218461,15.0,0.0,4314.102539,4295.769043,4301.666504,4329.230957,4296.282227,4302.692383,4296.538574,4309.871582,4287.179688,4282.820313,4571.025879,4555.0,4428.205078,4507.820313,,,,,,,,,,,,,,,,,,,,,,,,,,,,,,,,,,,,,,,,,,,,,,,,,,,,,,,,,,,,,,,,,,,,,,
1769161190.225795,1769161190.226069,16.0,0.0,4317.94873,4297.692383,4303.461426,4333.589844,4297.436035,4305.128418,4296.025879,4292.820313,4280.0,4276.922852,4577.05127,4554.743652,4430.256348,4512.436035,,,,,,,,,,,,,,,,,,,,,,,,,,,,,,,,,,,,,,,,,,,,,,,,,,,,,,,,,,,,,,,,,,,,,,
1769161190.233603,1769161190.233878,17.0,0.0,4311.538574,4295.512695,4296.666504,4329.615234,4297.179688,4299.102539,4298.717773,4292.820313,4289.358887,4277.179688,4581.794922,4555.512695,4431.410156,4520.256348,,,,,,,,,,,,,,,,,,,,,,,,,,,,,,,,,,,,,,,,,,,,,,,,,,,,,,,,,,,,,,,,,,,,,,
1769161190.241412,1769161190.241786,18.0,0.0,4307.307617,4294.487305,4292.94873,4325.512695,4296.282227,4296.538574,4297.307617,4304.743652,4298.333496,4282.179688,4579.487305,4556.922852,4433.333496,4515.512695,,,,,,,,,,,,,,,,,,,,,,,,,,,,,,,,,,,,,,,,,,,,,,,,,,,,,,,,,,,,,,,,,,,,,,
1769161190.24922,1769161190.249594,19.0,0.0,4310.256348,4295.256348,4294.743652,4325.897461,4295.641113,4295.512695,4294.230957,4300.384766,4292.436035,4281.922852,4572.307617,4551.538574,4428.205078,4503.717773,,,,,,,,,,,,,,,,,,,,,,,,,,,,,,,,,,,,,,,,,,,,,,,,,,,,,,,,,,,,,,,,,,,,,,
1769161190.257029,1769161190.257603,20.0,0.0,4307.307617,4292.05127,4295.769043,4324.487305,4294.358887,4291.922852,4294.487305,4292.179688,4287.94873,4277.05127,4568.846191,4545.897461,4422.307617,4502.94873,,,,,,,,,,,,,,,,,,,,,,,,,,,,,,,,,,,,,,,,,,,,,,,,,,,,,,,,,,,,,,,,,,,,,,
1769161190.264837,1769161190.265411,21.0,0.0,4305.256348,4288.846191,4295.256348,4322.94873,4294.487305,4294.615234,4295.512695,4299.102539,4291.153809,4273.333496,4571.666504,4551.025879,4428.205078,4508.205078,,,,,,,,,,,,,,,,,,,,,,,,,,,,,,,,,,,,,,,,,,,,,,,,,,,,,,,,,,,,,,,,,,,,,,
1769161190.272646,1769161190.27332,22.0,0.0,4307.94873,4288.333496,4293.461426,4322.05127,4296.410156,4298.717773,4294.615234,4303.333496,4291.153809,4275.512695,4571.025879,4555.512695,4430.0,4505.512695,,,,,,,,,,,,,,,,,,,,,,,,,,,,,,,,,,,,,,,,,,,,,,,,,,,,,,,,,,,,,,,,,,,,,,
1769161190.280454,1769161190.281128,23.0,0.0,4308.717773,4288.974121,4293.846191,4321.922852,4297.820313,4298.717773,4293.589844,4297.436035,4290.897461,4282.436035,4568.974121,4555.512695,4422.179688,4503.333496,,,,,,,,,,,,,,,,,,,,,,,,,,,,,,,,,,,,,,,,,,,,,,,,,,,,,,,,,,,,,,,,,,,,,,
1769161190.288262,1769161190.288737,24.0,0.0,4306.922852,4287.820313,4296.153809,4323.846191,4299.230957,4299.358887,4292.820313,4293.846191,4288.333496,4279.871582,4571.025879,4550.641113,4417.94873,4506.410156,,,,,,,,,,,,,,,,,,,,,,,,,,,,,,,,,,,,,,,,,,,,,,,,,,,,,,,,,,,,,,,,,,,,,,
1769161190.296071,1769161190.296545,25.0,0.0,4302.307617,4282.563965,4288.077148,4320.384766,4298.589844,4295.641113,4293.333496,4293.846191,4283.461426,4263.589844,4567.436035,4542.820313,4415.128418,4505.641113,,,,,,,,,,,,,,,,,,,,,,,,,,,,,,,,,,,,,,,,,,,,,,,,,,,,,,,,,,,,,,,,,,,,,,
1769161190.303879,1769161190.304254,26.0,0.0,4300.897461,4278.846191,4279.487305,4312.05127,4296.025879,4291.410156,4294.358887,4295.512695,4282.179688,4261.666504,4561.153809,4543.461426,4413.974121,4502.436035,,,,,,,,,,,,,,,,,,,,,,,,,,,,,,,,,,,,,,,,,,,,,,,,,,,,,,,,,,,,,,,,,,,,,,
1769161190.311688,1769161190.312062,27.0,0.0,4303.717773,4281.025879,4282.563965,4310.641113,4294.743652,4295.256348,4294.230957,4297.563965,4282.692383,4277.436035,4565.0,4548.333496,4419.871582,4503.077148,,,,,,,,,,,,,,,,,,,,,,,,,,,,,,,,,,,,,,,,,,,,,,,,,,,,,,,,,,,,,,,,,,,,,,
1769161190.319496,1769161190.32007,28.0,0.0,4303.717773,4283.077148,4284.230957,4313.461426,4294.743652,4298.589844,4293.974121,4291.282227,4278.589844,4274.743652,4568.589844,4542.94873,4418.717773,4500.641113,,,,,,,,,,,,,,,,,,,,,,,,,,,,,,,,,,,,,,,,,,,,,,,,,,,,,,,,,,,,,,,,,,,,,,
1769161190.327305,1769161190.327879,29.0,0.0,4304.358887,4285.0,4281.538574,4313.461426,4294.358887,4295.769043,4292.436035,4282.820313,4275.512695,4264.743652,4562.692383,4537.436035,4415.512695,4494.358887,,,,,,,,,,,,,,,,,,,,,,,,,,,,,,,,,,,,,,,,,,,,,,,,,,,,,,,,,,,,,,,,,,,,,,
1769161190.335113,1769161190.335787,30.0,0.0,4311.153809,4292.179688,4287.307617,4316.410156,4295.256348,4294.615234,4292.820313,4284.871582,4278.717773,4264.358887,4562.05127,4541.153809,4420.128418,4492.563965,0.347873,0.193743,0.237501,0.291212,0.204585,0.724881,0.23638,0.194576,0.181496,0.158397,0.650153,0.200732,0.18544,0.092763,0.128585,0.332315,0.199584,0.266516,0.122694,0.127114,0.251899,0.273374,0.080277,0.188252,0.083997,0.304697,0.090472,0.118512,0.445787,0.121565,0.083879,0.210296,0.096043,0.166164,0.147632,0.154719,0.788052,0.434725,0.28958,0.173045,0.358752,0.350262,0.297555,0.198702,0.154495,0.403468,0.433404,0.275727,0.462302,0.358671,0.851014,0.240262,0.141789,0.38059,0.200534,0.585817,0.527556,0.175826,0.362466,0.246662,0.759644,0.399302,0.240183,0.214615,0.14528,1.37537,0.339691,0.262195,0.300029,0.227688
1769161190.342922,1769161190.343596,31.0,0.0,4313.717773,4295.512695,4295.0,4321.666504,4296.025879,4292.820313,4292.436035,4293.846191,4279.487305,4254.615234,4565.128418,4541.538574,4417.820313,4493.974121,,,,,,,,,,,,,,,,,,,,,,,,,,,,,,,,,,,,,,,,,,,,,,,,,,,,,,,,,,,,,,,,,,,,,,
1769161190.35073,1769161190.351304,32.0,0.0,4308.461426,4290.769043,4293.333496,4323.589844,4293.333496,4288.846191,4287.563965,4293.717773,4277.563965,4251.922852,4558.846191,4539.871582,4409.487305,4497.820313,,,,,,,,,,,,,,,,,,,,,,,,,,,,,,,,,,,,,,,,,,,,,,,,,,,,,,,,,,,,,,,,,,,,,,
1769161190.358539,1769161190.359113,33.0,0.0,4307.307617,4291.025879,4291.410156,4325.0,4293.461426,4292.692383,4286.794922,4284.230957,4278.717773,4270.0,4553.461426,4541.922852,4412.307617,4498.974121,,,,,,,,,,,,,,,,,,,,,,,,,,,,,,,,,,,,,,,,,,,,,,,,,,,,,,,,,,,,,,,,,,,,,,
1769161190.366347,1769161190.366821,34.0,0.0,4310.512695,4294.871582,4295.641113,4328.589844,4295.897461,4298.205078,4291.922852,4282.179688,4279.487305,4274.871582,4560.769043,4540.512695,4422.94873,4493.205078,,,,,,,,,,,,,,,,,,,,,,,,,,,,,,,,,,,,,,,,,,,,,,,,,,,,,,,,,,,,,,,,,,,,,,
1769161190.374155,1769161190.37463,35.0,0.0,4309.102539,4295.256348,4297.563965,4325.897461,4296.025879,4295.769043,4291.794922,4290.641113,4278.589844,4264.743652,4569.615234,4538.846191,4428.846191,4491.538574,,,,,,,,,,,,,,,,,,,,,,,,,,,,,,,,,,,,,,,,,,,,,,,,,,,,,,,,,,,,,,,,,,,,,,
1769161190.381964,1769161190.382238,36.0,0.0,4302.692383,4292.94873,4293.461426,4318.717773,4295.256348,4292.179688,4290.0,4297.563965,4284.102539,4266.538574,4570.897461,4544.871582,4427.436035,4496.025879,,,,,,,,,,,,,,,,,,,,,,,,,,,,,,,,,,,,,,,,,,,,,,,,,,,,,,,,,,,,,,,,,,,,,,
1769161190.389772,1769161190.390047,37.0,0.0,4302.820313,4285.769043,4292.563965,4320.512695,4295.128418,4288.974121,4291.538574,4293.846191,4290.128418,4270.512695,4568.846191,4552.179688,4425.512695,4494.230957,,,,,,,,,,,,,,,,,,,,,,,,,,,,,,,,,,,,,,,,,,,,,,,,,,,,,,,,,,,,,,,,,,,,,,
1769161190.397581,1769161190.397755,38.0,0.0,4306.538574,4281.666504,4297.307617,4328.205078,4293.717773,4289.743652,4290.0,4286.153809,4283.461426,4265.256348,4567.820313,4550.512695,4427.94873,4491.922852,,,,,,,,,,,,,,,,,,,,,,,,,,,,,,,,,,,,,,,,,,,,,,,,,,,,,,,,,,,,,,,,,,,,,,
1769161190.405389,1769161190.405564,39.0,0.0,4301.794922,4287.692383,4297.436035,4327.563965,4292.820313,4296.282227,4291.794922,4285.512695,4276.282227,4261.410156,4569.102539,4548.333496,4429.743652,4495.512695,,,,,,,,,,,,,,,,,,,,,,,,,,,,,,,,,,,,,,,,,,,,,,,,,,,,,,,,,,,,,,,,,,,,,,
1769161190.413198,1769161190.413172,40.0,0.0,4295.0,4288.846191,4293.333496,4318.461426,4293.846191,4297.05127,4293.717773,4286.153809,4278.333496,4262.692383,4566.666504,4547.563965,4425.256348,4493.974121,,,,,,,,,,,,,,,,,,,,,,,,,,,,,,,,,,,,,,,,,,,,,,,,,,,,,,,,,,,,,,,,,,,,,,
1769161190.421006,1769161190.420981,41.0,0.0,4293.589844,4280.512695,4291.922852,4313.077148,4295.128418,4294.230957,4288.333496,4283.461426,4279.871582,4267.307617,4558.461426,4541.666504,4420.512695,4491.025879,,,,,,,,,,,,,,,,,,,,,,,,,,,,,,,,,,,,,,,,,,,,,,,,,,,,,,,,,,,,,,,,,,,,,,
1769161190.428815,1769161190.428889,42.0,0.0,4295.128418,4278.077148,4292.179688,4312.436035,4293.205078,4292.563965,4288.717773,4286.410156,4278.974121,4266.794922,4553.461426,4537.820313,4417.179688,4492.05127,,,,,,,,,,,,,,,,,,,,,,,,,,,,,,,,,,,,,,,,,,,,,,,,,,,,,,,,,,,,,,,,,,,,,,
1769161190.436623,1769161190.436698,43.0,0.0,4293.589844,4279.358887,4289.743652,4310.769043,4289.358887,4291.666504,4295.641113,4296.666504,4281.538574,4266.538574,4555.641113,4542.307617,4412.307617,4489.615234,,,,,,,,,,,,,,,,,,,,,,,,,,,,,,,,,,,,,,,,,,,,,,,,,,,,,,,,,,,,,,,,,,,,,,
1769161190.444431,1769161190.444706,44.0,0.0,4294.230957,4276.794922,4289.102539,4310.897461,4292.436035,4298.077148,4296.538574,4298.077148,4286.538574,4272.692383,4564.358887,4549.102539,4415.256348,4493.077148,,,,,,,,,,,,,,,,,,,,,,,,,,,,,,,,,,,,,,,,,,,,,,,,,,,,,,,,,,,,,,,,,,,,,,
1769161190.45224,1769161190.452514,45.0,0.0,4303.077148,4280.0,4293.846191,4317.563965,4292.820313,4304.871582,4295.128418,4294.230957,4292.05127,4276.666504,4573.974121,4555.641113,4429.230957,4506.666504,,,,,,,,,,,,,,,,,,,,,,,,,,,,,,,,,,,,,,,,,,,,,,,,,,,,,,,,,,,,,,,,,,,,,,
1769161190.460049,1769161190.460423,46.0,0.0,4308.205078,4285.384766,4297.692383,4322.436035,4284.230957,4297.05127,4295.512695,4293.461426,4290.769043,4277.692383,4576.922852,4557.820313,4434.615234,4513.974121,0.344766,0.187707,0.229717,0.347825,0.186141,0.716281,0.224366,0.221392,0.173363,0.140871,0.651747,0.226184,0.204027,0.088885,0.130644,0.283161,0.210739,0.222959,0.116112,0.125865,0.225759,0.252873,0.081236,0.189904,0.08236,0.363002,0.13308,0.148777,0.451972,0.118136,0.11154,0.226413,0.115137,0.146569,0.13922,0.177051,0.719861,0.461846,0.250085,0.164763,0.466782,0.371085,0.370354,0.15463,0.136709,0.444743,0.486642,0.249493,0.480395,0.35354,0.861608,0.228367,0.145724,0.359389,0.190867,0.648706,0.611521,0.199856,0.312493,0.204684,0.734116,0.395407,0.254684,0.222612,0.137682,1.268175,0.329583,0.247023,0.278787,0.223902
1769161190.467857,1769161190.468231,47.0,0.0,4305.384766,4285.256348,4295.128418,4318.974121,4286.922852,4291.794922,4294.358887,4293.717773,4283.717773,4282.05127,4573.589844,4554.871582,4427.179688,4507.307617,,,,,,,,,,,,,,,,,,,,,,,,,,,,,,,,,,,,,,,,,,,,,,,,,,,,,,,,,,,,,,,,,,,,,,
1769161190.475665,1769161190.476239,48.0,0.0,4303.717773,4284.871582,4294.743652,4317.692383,4295.0,4295.0,4295.256348,4294.487305,4281.025879,4279.487305,4571.794922,4553.974121,4425.384766,4498.717773,,,,,,,,,,,,,,,,,,,,,,,,,,,,,,,,,,,,,,,,,,,,,,,,,,,,,,,,,,,,,,,,,,,,,,
1769161190.483474,1769161190.484048,49.0,0.0,4305.384766,4287.692383,4297.563965,4320.641113,4291.794922,4289.487305,4296.025879,4291.538574,4279.743652,4268.846191,4571.410156,4554.230957,4427.94873,4500.128418,,,,,,,,,,,,,,,,,,,,,,,,,,,,,,,,,,,,,,,,,,,,,,,,,,,,,,,,,,,,,,,,,,,,,,
1769161190.491282,1769161190.491756,50.0,0.0,4303.205078,4290.384766,4296.025879,4322.179688,4289.871582,4288.205078,4293.717773,4288.077148,4277.307617,4266.794922,4569.871582,4552.94873,4426.282227,4504.743652,,,,,,,,,,,,,,,,,,,,,,,,,,,,,,,,,,,,,,,,,,,,,,,,,,,,,,,,,,,,,,,,,,,,,,
1769161190.499091,1769161190.499565,51.0,0.0,4302.692383,4291.282227,4294.615234,4321.153809,4290.0,4296.153809,4292.179688,4294.230957,4280.512695,4272.05127,4572.05127,4552.05127,4425.384766,4499.230957,,,,,,,,,,,,,,,,,,,,,,,,,,,,,,,,,,,,,,,,,,,,,,,,,,,,,,,,,,,,,,,,,,,,,,
1769161190.506899,1769161190.507573,52.0,0.0,4305.384766,4293.589844,4296.922852,4321.666504,4284.358887,4295.769043,4293.846191,4297.820313,4283.717773,4269.871582,4567.563965,4553.974121,4423.461426,4491.410156,,,,,,,,,,,,,,,,,,,,,,,,,,,,,,,,,,,,,,,,,,,,,,,,,,,,,,,,,,,,,,,,,,,,,,
1769161190.514708,1769161190.515381,53.0,0.0,4302.436035,4295.128418,4298.205078,4325.0,4287.307617,4292.820313,4291.666504,4288.205078,4280.512695,4260.769043,4560.0,4552.820313,4419.743652,4496.025879,,,,,,,,,,,,,,,,,,,,,,,,,,,,,,,,,,,,,,,,,,,,,,,,,,,,,,,,,,,,,,,,,,,,,,
1769161190.522516,1769161190.52329,54.0,0.0,4302.820313,4295.641113,4295.641113,4327.820313,4296.282227,4295.384766,4284.358887,4281.282227,4276.025879,4261.410156,4558.589844,4541.794922,4416.153809,4497.307617,,,,,,,,,,,,,,,,,,,,,,,,,,,,,,,,,,,,,,,,,,,,,,,,,,,,,,,,,,,,,,,,,,,,,,
1769161190.530325,1769161190.531098,55.0,0.0,4311.410156,4296.282227,4293.333496,4326.794922,4293.461426,4294.358887,4282.563965,4288.717773,4279.358887,4269.871582,4560.256348,4536.410156,4415.512695,4492.307617,,,,,,,,,,,,,,,,,,,,,,,,,,,,,,,,,,,,,,,,,,,,,,,,,,,,,,,,,,,,,,,,,,,,,,
1769161190.538133,1769161190.538707,56.0,0.0,4309.358887,4290.897461,4294.230957,4322.563965,4287.307617,4291.538574,4290.384766,4295.769043,4285.384766,4268.846191,4560.897461,4546.538574,4414.615234,4491.153809,,,,,,,,,,,,,,,,,,,,,,,,,,,,,,,,,,,,,,,,,,,,,,,,,,,,,,,,,,,,,,,,,,,,,,
1769161190.545941,1769161190.546515,57.0,0.0,4298.461426,4286.794922,4295.256348,4319.871582,4288.589844,4296.153809,4293.974121,4293.717773,4282.820313,4262.692383,4565.256348,4553.589844,4415.128418,4492.94873,,,,,,,,,,,,,,,,,,,,,,,,,,,,,,,,,,,,,,,,,,,,,,,,,,,,,,,,,,,,,,,,,,,,,,
1769161190.55375,1769161190.554224,58.0,0.0,4300.0,4289.487305,4294.230957,4320.384766,4290.641113,4299.102539,4284.487305,4289.743652,4278.205078,4265.256348,4572.436035,4552.692383,4419.743652,4501.153809,,,,,,,,,,,,,,,,,,,,,,,,,,,,,,,,,,,,,,,,,,,,,,,,,,,,,,,,,,,,,,,,,,,,,,
1769161190.561558,1769161190.562032,59.0,0.0,4310.0,4288.077148,4294.487305,4322.307617,4290.769043,4294.871582,4276.794922,4287.563965,4279.102539,4269.358887,4567.692383,4552.820313,4419.487305,4503.461426,,,,,,,,,,,,,,,,,,,,,,,,,,,,,,,,,,,,,,,,,,,,,,,,,,,,,,,,,,,,,,,,,,,,,,
1769161190.569367,1769161190.570041,60.0,0.0,4310.128418,4284.102539,4296.922852,4324.487305,4289.487305,4288.333496,4279.102539,4288.974121,4279.230957,4263.717773,4558.461426,4549.358887,4411.794922,4493.717773,,,,,,,,,,,,,,,,,,,,,,,,,,,,,,,,,,,,,,,,,,,,,,,,,,,,,,,,,,,,,,,,,,,,,,
1769161190.577175,1769161190.577849,61.0,0.0,4302.563965,4286.025879,4294.743652,4322.94873,4287.820313,4282.94873,4283.205078,4294.871582,4276.794922,4260.256348,4555.641113,4545.512695,4404.615234,4487.692383,,,,,,,,,,,,,,,,,,,,,,,,,,,,,,,,,,,,,,,,,,,,,,,,,,,,,,,,,,,,,,,,,,,,,,
1769161190.584984,1769161190.585558,62.0,0.0,4297.436035,4284.871582,4290.384766,4319.102539,4287.05127,4283.333496,4287.05127,4296.794922,4279.615234,4262.436035,4558.205078,4548.846191,4403.461426,4488.333496,0.356268,0.205233,0.229957,0.396478,0.165079,0.662284,0.218443,0.257146,0.167141,0.121061,0.650656,0.245698,0.218227,0.080516,0.124777,0.245429,0.215685,0.197656,0.113288,0.12282,0.186325,0.226706,0.086094,0.184943,0.074597,0.469951,0.189509,0.183927,0.437796,0.113759,0.144106,0.242624,0.13905,0.124762,0.12107,0.196978,0.620973,0.463149,0.216265,0.156697,0.566821,0.388628,0.434378,0.118529,0.119997,0.466683,0.495161,0.241804,0.462857,0.356535,0.824895,0.201608,0.152338,0.345307,0.188956,0.71799,0.641538,0.206304,0.269974,0.164677,0.64692,0.373312,0.256734,0.22742,0.144556,1.085558,0.31423,0.238657,0.263794,0.236813
1769161190.592792,1769161190.593366,63.0,0.0,4302.05127,4281.410156,4292.436035,4321.666504,4287.436035,4291.666504,4291.025879,4294.487305,4283.205078,4267.563965,4562.94873,4551.025879,4407.820313,4489.871582,,,,,,,,,,,,,,,,,,,,,,,,,,,,,,,,,,,,,,,,,,,,,,,,,,,,,,,,,,,,,,,,,,,,,,
1769161190.600601,1769161190.600975,64.0,0.0,4305.769043,4282.436035,4295.897461,4322.820313,4289.615234,4298.589844,4293.589844,4294.871582,4280.512695,4266.794922,4561.282227,4550.256348,4411.666504,4490.641113,,,,,,,,,,,,,,,,,,,,,,,,,,,,,,,,,,,,,,,,,,,,,,,,,,,,,,,,,,,,,,,,,,,,,,
1769161190.608409,1769161190.608783,65.0,0.0,4297.692383,4279.358887,4289.871582,4312.692383,4291.025879,4297.307617,4295.897461,4299.102539,4279.743652,4251.922852,4555.384766,4547.436035,4405.641113,4482.820313,,,,,,,,,,,,,,,,,,,,,,,,,,,,,,,,,,,,,,,,,,,,,,,,,,,,,,,,,,,,,,,,,,,,,,
1769161190.616217,1769161190.616492,66.0,0.0,4293.717773,4278.589844,4282.05127,4308.077148,4292.179688,4295.256348,4292.05127,4299.358887,4280.897461,4250.0,4552.820313,4541.282227,4398.205078,4474.871582,,,,,,,,,,,,,,,,,,,,,,,,,,,,,,,,,,,,,,,,,,,,,,,,,,,,,,,,,,,,,,,,,,,,,,
1769161190.624026,1769161190.6243,67.0,0.0,4298.589844,4285.769043,4282.179688,4314.230957,4293.461426,4293.846191,4283.846191,4293.846191,4280.0,4273.461426,4556.153809,4541.025879,4402.820313,4479.230957,,,,,,,,,,,,,,,,,,,,,,,,,,,,,,,,,,,,,,,,,,,,,,,,,,,,,,,,,,,,,,,,,,,,,,
1769161190.631834,1769161190.632308,68.0,0.0,4295.0,4286.794922,4280.128418,4312.307617,4293.333496,4287.179688,4286.282227,4289.102539,4276.282227,4280.769043,4553.205078,4542.563965,4405.256348,4479.615234,,,,,,,,,,,,,,,,,,,,,,,,,,,,,,,,,,,,,,,,,,,,,,,,,,,,,,,,,,,,,,,,,,,,,,
1769161190.639643,1769161190.640117,69.0,0.0,4294.102539,4288.717773,4279.230957,4310.512695,4295.769043,4284.743652,4288.717773,4288.333496,4275.512695,4265.256348,4552.820313,4540.384766,4404.358887,4479.743652,,,,,,,,,,,,,,,,,,,,,,,,,,,,,,,,,,,,,,,,,,,,,,,,,,,,,,,,,,,,,,,,,,,,,,
1769161190.647451,1769161190.648025,70.0,0.0,4303.846191,4296.922852,4288.461426,4320.897461,4300.128418,4290.512695,4279.743652,4289.743652,4279.487305,4267.307617,4562.436035,4544.102539,4410.769043,4491.025879,,,,,,,,,,,,,,,,,,,,,,,,,,,,,,,,,,,,,,,,,,,,,,,,,,,,,,,,,,,,,,,,,,,,,,
1769161190.65526,1769161190.655834,71.0,0.0,4308.846191,4298.717773,4295.0,4323.461426,4300.769043,4292.94873,4282.563965,4289.487305,4280.897461,4279.871582,4563.589844,4546.282227,4415.641113,4494.358887,,,,,,,,,,,,,,,,,,,,,,,,,,,,,,,,,,,,,,,,,,,,,,,,,,,,,,,,,,,,,,,,,,,,,,
1769161190.663068,1769161190.663842,72.0,0.0,4307.563965,4294.615234,4291.794922,4313.974121,4295.897461,4290.769043,4293.077148,4288.333496,4278.974121,4277.94873,4554.487305,4540.128418,4411.794922,4482.820313,,,,,,,,,,,,,,,,,,,,,,,,,,,,,,,,,,,,,,,,,,,,,,,,,,,,,,,,,,,,,,,,,,,,,,
1769161190.670877,1769161190.67165,73.0,0.0,4310.641113,4294.615234,4284.871582,4310.384766,4291.666504,4284.102539,4285.512695,4291.410156,4281.410156,4275.0,4554.230957,4541.410156,4410.384766,4481.666504,,,,,,,,,,,,,,,,,,,,,,,,,,,,,,,,,,,,,,,,,,,,,,,,,,,,,,,,,,,,,,,,,,,,,,
1769161190.678685,1769161190.679559,74.0,0.0,4311.666504,4295.128418,4279.615234,4313.717773,4291.025879,4279.102539,4279.743652,4294.358887,4283.205078,4273.589844,4562.94873,4551.282227,4413.333496,4490.384766,,,,,,,,,,,,,,,,,,,,,,,,,,,,,,,,,,,,,,,,,,,,,,,,,,,,,,,,,,,,,,,,,,,,,,
1769161190.686494,1769161190.687367,75.0,0.0,4306.410156,4294.230957,4282.94873,4313.717773,4293.589844,4287.05127,4291.410156,4294.615234,4279.358887,4273.077148,4565.897461,4550.0,4414.102539,4492.179688,,,,,,,,,,,,,,,,,,,,,,,,,,,,,,,,,,,,,,,,,,,,,,,,,,,,,,,,,,,,,,,,,,,,,,
1769161190.694302,1769161190.694976,76.0,0.0,4306.410156,4295.897461,4289.487305,4310.769043,4295.256348,4300.384766,4295.256348,4293.461426,4278.846191,4278.333496,4565.0,4542.436035,4413.717773,4490.897461,,,,,,,,,,,,,,,,,,,,,,,,,,,,,,,,,,,,,,,,,,,,,,,,,,,,,,,,,,,,,,,,,,,,,,
1769161190.702111,1769161190.702784,77.0,0.0,4309.487305,4295.512695,4287.307617,4311.794922,4292.692383,4293.974121,4284.871582,4287.692383,4280.0,4272.436035,4564.230957,4543.461426,4411.922852,4488.974121,,,,,,,,,,,,,,,,,,,,,,,,,,,,,,,,,,,,,,,,,,,,,,,,,,,,,,,,,,,,,,,,,,,,,,
1769161190.709919,1769161190.710692,78.0,0.0,4307.94873,4292.436035,4287.692383,4312.05127,4290.128418,4280.0,4280.128418,4284.743652,4276.410156,4264.871582,4565.256348,4550.512695,4412.307617,4486.538574,0.394108,0.236082,0.237216,0.420479,0.145446,0.607772,0.22276,0.298906,0.163149,0.102845,0.660955,0.252926,0.224171,0.072239,0.115359,0.243967,0.217539,0.202136,0.116857,0.119728,0.139272,0.202082,0.095768,0.173232,0.063435,0.622944,0.25249,0.211579,0.408073,0.1104,0.173281,0.250954,0.15844,0.104459,0.098677,0.20757,0.520799,0.439515,0.193301,0.152519,0.638718,0.39312,0.470132,0.09241,0.106916,0.479733,0.456154,0.251702,0.41705,0.357838,0.76297,0.164972,0.164518,0.337646,0.190472,0.778957,0.605835,0.197514,0.245882,0.133447,0.541608,0.338829,0.249073,0.230306,0.160458,0.887025,0.287001,0.23999,0.255589,0.257654
1769161190.717728,1769161190.718501,79.0,0.0,4308.077148,4293.717773,4297.94873,4311.794922,4291.410156,4283.205078,4283.077148,4290.256348,4276.794922,4277.179688,4570.641113,4556.153809,4419.358887,4491.153809,,,,,,,,,,,,,,,,,,,,,,,,,,,,,,,,,,,,,,,,,,,,,,,,,,,,,,,,,,,,,,,,,,,,,,
1769161190.725536,1769161190.72611,80.0,0.0,4311.794922,4295.512695,4297.692383,4314.871582,4292.179688,4286.538574,4282.05127,4292.563965,4280.769043,4285.512695,4573.846191,4551.922852,4421.153809,4499.230957,,,,,,,,,,,,,,,,,,,,,,,,,,,,,,,,,,,,,,,,,,,,,,,,,,,,,,,,,,,,,,,,,,,,,,
1769161190.733344,1769161190.733918,81.0,0.0,4308.589844,4294.743652,4288.077148,4319.102539,4291.794922,4281.153809,4281.153809,4289.358887,4279.358887,4273.717773,4570.512695,4543.589844,4418.205078,4493.846191,,,,,,,,,,,,,,,,,,,,,,,,,,,,,,,,,,,,,,,,,,,,,,,,,,,,,,,,,,,,,,,,,,,,,,
1769161190.741153,1769161190.741627,82.0,0.0,4305.641113,4298.589844,4289.358887,4322.692383,4292.179688,4283.205078,4283.333496,4293.333496,4280.512695,4274.487305,4566.922852,4548.077148,4421.282227,4487.307617,,,,,,,,,,,,,,,,,,,,,,,,,,,,,,,,,,,,,,,,,,,,,,,,,,,,,,,,,,,,,,,,,,,,,,
1769161190.748961,1769161190.749435,83.0,0.0,4312.05127,4303.717773,4296.538574,4324.487305,4291.538574,4290.897461,4284.102539,4296.922852,4283.717773,4284.102539,4568.717773,4559.487305,4422.692383,4492.307617,,,,,,,,,,,,,,,,,,,,,,,,,,,,,,,,,,,,,,,,,,,,,,,,,,,,,,,,,,,,,,,,,,,,,,
1769161190.75677,1769161190.757044,84.0,0.0,4313.846191,4304.615234,4296.282227,4321.794922,4291.538574,4286.153809,4280.384766,4285.641113,4274.871582,4270.897461,4569.358887,4552.05127,4415.256348,4494.743652,,,,,,,,,,,,,,,,,,,,,,,,,,,,,,,,,,,,,,,,,,,,,,,,,,,,,,,,,,,,,,,,,,,,,,
1769161190.764578,1769161190.764852,85.0,0.0,4309.358887,4305.641113,4293.461426,4318.333496,4293.205078,4281.794922,4280.512695,4276.153809,4268.333496,4264.487305,4569.615234,4537.436035,4410.769043,4492.179688,,,,,,,,,,,,,,,,,,,,,,,,,,,,,,,,,,,,,,,,,,,,,,,,,,,,,,,,,,,,,,,,,,,,,,
1769161190.772387,1769161190.77276,86.0,0.0,4307.94873,4301.922852,4295.641113,4318.461426,4294.102539,4291.410156,4284.871582,4282.692383,4277.436035,4278.974121,4570.769043,4544.487305,4417.05127,4490.641113,,,,,,,,,,,,,,,,,,,,,,,,,,,,,,,,,,,,,,,,,,,,,,,,,,,,,,,,,,,,,,,,,,,,,,
1769161190.780195,1769161190.780569,87.0,0.0,4309.358887,4296.410156,4300.512695,4319.615234,4294.487305,4293.717773,4284.230957,4293.077148,4283.589844,4283.205078,4570.0,4556.282227,4423.589844,4488.974121,,,,,,,,,,,,,,,,,,,,,,,,,,,,,,,,,,,,,,,,,,,,,,,,,,,,,,,,,,,,,,,,,,,,,,
1769161190.788004,1769161190.788178,88.0,0.0,4313.589844,4302.179688,4305.256348,4321.794922,4293.461426,4289.871582,4283.846191,4293.974121,4279.743652,4276.025879,4571.538574,4555.384766,4424.871582,4490.0,,,,,,,,,,,,,,,,,,,,,,,,,,,,,,,,,,,,,,,,,,,,,,,,,,,,,,,,,,,,,,,,,,,,,,
1769161190.795812,1769161190.795986,89.0,0.0,4317.692383,4307.94873,4308.717773,4326.922852,4291.025879,4291.794922,4289.230957,4289.230957,4280.128418,4278.846191,4575.769043,4554.615234,4421.922852,4494.487305,,,,,,,,,,,,,,,,,,,,,,,,,,,,,,,,,,,,,,,,,,,,,,,,,,,,,,,,,,,,,,,,,,,,,,
1769161190.80362,1769161190.803695,90.0,0.0,4312.563965,4300.256348,4309.230957,4327.692383,4292.05127,4290.128418,4290.128418,4283.077148,4281.153809,4280.897461,4573.589844,4553.717773,4416.282227,4493.717773,,,,,,,,,,,,,,,,,,,,,,,,,,,,,,,,,,,,,,,,,,,,,,,,,,,,,,,,,,,,,,,,,,,,,,
1769161190.811429,1769161190.811503,91.0,0.0,4304.871582,4293.077148,4302.179688,4318.846191,4293.974121,4281.666504,4285.384766,4277.05127,4276.282227,4269.615234,4566.410156,4541.282227,4412.307617,4489.358887,,,,,,,,,,,,,,,,,,,,,,,,,,,,,,,,,,,,,,,,,,,,,,,,,,,,,,,,,,,,,,,,,,,,,,
1769161190.819237,1769161190.819112,92.0,0.0,4306.922852,4294.230957,4296.282227,4313.974121,4293.077148,4283.974121,4286.794922,4283.461426,4275.512695,4269.615234,4566.282227,4536.666504,4413.461426,4489.743652,,,,,,,,,,,,,,,,,,,,,,,,,,,,,,,,,,,,,,,,,,,,,,,,,,,,,,,,,,,,,,,,,,,,,,
1769161190.827046,1769161190.82692,93.0,0.0,4311.538574,4296.538574,4302.94873,4318.461426,4292.563965,4286.794922,4289.743652,4291.282227,4278.461426,4278.589844,4569.487305,4548.846191,4419.615234,4491.922852,,,,,,,,,,,,,,,,,,,,,,,,,,,,,,,,,,,,,,,,,,,,,,,,,,,,,,,,,,,,,,,,,,,,,,
1769161190.834854,1769161190.834828,94.0,0.0,4308.589844,4297.179688,4306.282227,4318.077148,4291.922852,4278.846191,4286.666504,4287.563965,4277.179688,4271.922852,4570.0,4548.333496,4418.846191,4491.282227,0.458125,0.27296,0.244895,0.409253,0.130925,0.598512,0.237251,0.33789,0.158755,0.088387,0.69858,0.248405,0.220813,0.069184,0.106855,0.292387,0.222066,0.232029,0.126178,0.117037,0.097097,0.182924,0.107002,0.15494,0.052154,0.794638,0.310111,0.222547,0.370291,0.108368,0.197035,0.244164,0.168081,0.089083,0.078687,0.211493,0.438768,0.398134,0.182326,0.155005,0.672845,0.384708,0.469084,0.076411,0.098797,0.502386,0.395992,0.271922,0.357639,0.352202,0.698046,0.14223,0.188085,0.330493,0.189436,0.806528,0.520578,0.180482,0.240946,0.114103,0.469115,0.308277,0.240509,0.232656,0.176587,0.725791,0.257216,0.247718,0.250492,0.27416
1769161190.842663,1769161190.842637,95.0,0.0,4304.615234,4294.743652,4296.794922,4313.461426,4289.871582,4280.512695,4287.436035,4288.333496,4275.256348,4262.94873,4570.769043,4539.230957,4417.436035,4490.384766,,,,,,,,,,,,,,,,,,,,,,,,,,,,,,,,,,,,,,,,,,,,,,,,,,,,,,,,,,,,,,,,,,,,,,
1769161190.850471,1769161190.850645,96.0,0.0,4307.820313,4292.692383,4297.94873,4316.410156,4290.512695,4285.512695,4287.94873,4293.589844,4277.94873,4267.692383,4570.769043,4545.897461,4424.230957,4490.897461,,,,,,,,,,,,,,,,,,,,,,,,,,,,,,,,,,,,,,,,,,,,,,,,,,,,,,,,,,,,,,,,,,,,,,
1769161190.85828,1769161190.858454,97.0,0.0,4312.820313,4299.230957,4309.615234,4324.102539,4294.743652,4281.025879,4282.05127,4286.922852,4278.461426,4280.128418,4574.358887,4556.282227,4429.871582,4494.487305,,,,,,,,,,,,,,,,,,,,,,,,,,,,,,,,,,,,,,,,,,,,,,,,,,,,,,,,,,,,,,,,,,,,,,
1769161190.866088,1769161190.866362,98.0,0.0,4313.077148,4303.589844,4312.179688,4327.563965,4297.692383,4283.461426,4277.692383,4283.846191,4278.846191,4287.820313,4578.205078,4554.358887,4427.820313,4495.897461,,,,,,,,,,,,,,,,,,,,,,,,,,,,,,,,,,,,,,,,,,,,,,,,,,,,,,,,,,,,,,,,,,,,,,
1769161190.873896,1769161190.87417,99.0,0.0,4310.897461,4297.692383,4310.256348,4325.256348,4294.487305,4289.102539,4281.025879,4295.897461,4283.589844,4288.205078,4575.512695,4553.333496,4428.205078,4494.487305,,,,,,,,,,,,,,,,,,,,,,,,,,,,,,,,,,,,,,,,,,,,,,,,,,,,,,,,,,,,,,,,,,,,,,
1769161190.881705,1769161190.882179,100.0,0.0,4308.846191,4295.0,4312.436035,4318.589844,4291.410156,4280.256348,4283.717773,4296.666504,4283.846191,4282.563965,4572.179688,4556.410156,4433.846191,4497.307617,,,,,,,,,,,,,,,,,,,,,,,,,,,,,,,,,,,,,,,,,,,,,,,,,,,,,,,,,,,,,,,,,,,,,,
1769161190.889513,1769161190.889987,101.0,0.0,4308.077148,4298.974121,4316.025879,4315.769043,4293.205078,4278.077148,4281.025879,4284.102539,4278.077148,4277.692383,4572.820313,4555.256348,4429.871582,4497.692383,,,,,,,,,,,,,,,,,,,,,,,,,,,,,,,,,,,,,,,,,,,,,,,,,,,,,,,,,,,,,,,,,,,,,,
1769161190.897322,1769161190.897696,102.0,0.0,4309.102539,4297.820313,4319.358887,4320.641113,4290.641113,4288.846191,4279.743652,4284.230957,4278.333496,4278.205078,4574.102539,4554.615234,4419.487305,4490.769043,,,,,,,,,,,,,,,,,,,,,,,,,,,,,,,,,,,,,,,,,,,,,,,,,,,,,,,,,,,,,,,,,,,,,,
1769161190.90513,1769161190.905504,103.0,0.0,4311.794922,4293.717773,4323.077148,4319.615234,4284.743652,4287.820313,4280.256348,4292.179688,4279.615234,4277.820313,4571.410156,4554.615234,4413.333496,4487.179688,,,,,,,,,,,,,,,,,,,,,,,,,,,,,,,,,,,,,,,,,,,,,,,,,,,,,,,,,,,,,,,,,,,,,,
1769161190.912939,1769161190.913512,104.0,0.0,4306.794922,4294.230957,4324.743652,4313.461426,4284.615234,4279.358887,4280.641113,4295.128418,4277.05127,4281.410156,4570.384766,4552.94873,4413.589844,4490.641113,,,,,,,,,,,,,,,,,,,,,,,,,,,,,,,,,,,,,,,,,,,,,,,,,,,,,,,,,,,,,,,,,,,,,,
1769161190.920747,1769161190.921321,105.0,0.0,4296.153809,4293.974121,4323.205078,4309.487305,4284.615234,4280.641113,4281.666504,4299.102539,4279.743652,4276.794922,4571.410156,4552.436035,4414.487305,4490.769043,,,,,,,,,,,,,,,,,,,,,,,,,,,,,,,,,,,,,,,,,,,,,,,,,,,,,,,,,,,,,,,,,,,,,,
1769161190.928556,1769161190.929029,106.0,0.0,4296.922852,4293.077148,4320.897461,4309.102539,4282.94873,4282.820313,4282.436035,4299.487305,4280.641113,4263.846191,4569.230957,4551.922852,4413.846191,4487.307617,,,,,,,,,,,,,,,,,,,,,,,,,,,,,,,,,,,,,,,,,,,,,,,,,,,,,,,,,,,,,,,,,,,,,,
1769161190.936364,1769161190.936838,107.0,0.0,4306.666504,4294.230957,4324.871582,4310.512695,4282.820313,4280.0,4281.666504,4296.538574,4275.897461,4268.205078,4567.179688,4553.589844,4411.538574,4487.692383,,,,,,,,,,,,,,,,,,,,,,,,,,,,,,,,,,,,,,,,,,,,,,,,,,,,,,,,,,,,,,,,,,,,,,
1769161190.944173,1769161190.944446,108.0,0.0,4310.0,4295.128418,4332.94873,4313.589844,4283.461426,4278.205078,4278.717773,4293.077148,4274.871582,4280.897461,4568.205078,4554.871582,4410.384766,4489.871582,,,,,,,,,,,,,,,,,,,,,,,,,,,,,,,,,,,,,,,,,,,,,,,,,,,,,,,,,,,,,,,,,,,,,,
1769161190.951981,1769161190.952255,109.0,0.0,4306.282227,4296.282227,4332.436035,4315.256348,4287.05127,4281.538574,4276.922852,4286.922852,4276.025879,4281.538574,4568.846191,4553.077148,4419.487305,4492.692383,,,,,,,,,,,,,,,,,,,,,,,,,,,,,,,,,,,,,,,,,,,,,,,,,,,,,,,,,,,,,,,,,,,,,,
1769161190.95979,1769161190.959963,110.0,0.0,4303.333496,4298.077148,4326.922852,4312.94873,4292.307617,4286.666504,4278.205078,4287.563965,4277.179688,4276.922852,4570.384766,4552.94873,4429.102539,4494.358887,0.528213,0.310878,0.245483,0.363732,0.123513,0.669484,0.258037,0.359467,0.150257,0.077814,0.734054,0.236835,0.212597,0.074958,0.101745,0.383325,0.231728,0.26975,0.137267,0.113902,0.067781,0.168761,0.114061,0.1322,0.043495,0.92965,0.352093,0.216388,0.33489,0.107314,0.21894,0.223852,0.168686,0.080431,0.06639,0.216064,0.38003,0.349551,0.182284,0.164117,0.671781,0.360245,0.433132,0.069113,0.09518,0.552723,0.344413,0.291083,0.300834,0.342483,0.64047,0.154557,0.227625,0.318118,0.180682,0.801814,0.423174,0.16376,0.248862,0.106115,0.454165,0.295974,0.241867,0.234152,0.184953,0.624665,0.243711,0.253907,0.243916,0.276425
1769161190.967598,1769161190.967772,111.0,0.0,4298.974121,4298.077148,4325.384766,4310.384766,4291.153809,4284.871582,4279.871582,4294.230957,4279.487305,4278.333496,4571.922852,4553.077148,4427.179688,4492.179688,,,,,,,,,,,,,,,,,,,,,,,,,,,,,,,,,,,,,,,,,,,,,,,,,,,,,,,,,,,,,,,,,,,,,,
1769161190.975407,1769161190.97578,112.0,0.0,4300.641113,4296.153809,4328.461426,4310.384766,4287.05127,4277.05127,4277.692383,4295.769043,4280.0,4279.102539,4572.692383,4552.436035,4424.615234,4490.897461,,,,,,,,,,,,,,,,,,,,,,,,,,,,,,,,,,,,,,,,,,,,,,,,,,,,,,,,,,,,,,,,,,,,,,
1769161190.983215,1769161190.983589,113.0,0.0,4302.563965,4294.230957,4330.641113,4311.666504,4287.307617,4278.846191,4278.461426,4295.641113,4278.717773,4279.230957,4577.179688,4553.846191,4429.230957,4496.666504,,,,,,,,,,,,,,,,,,,,,,,,,,,,,,,,,,,,,,,,,,,,,,,,,,,,,,,,,,,,,,,,,,,,,,
1769161190.991023,1769161190.991297,114.0,0.0,4295.769043,4290.897461,4331.794922,4311.282227,4288.974121,4288.205078,4285.897461,4303.974121,4282.94873,4280.128418,4578.846191,4556.025879,4429.358887,4504.358887,,,,,,,,,,,,,,,,,,,,,,,,,,,,,,,,,,,,,,,,,,,,,,,,,,,,,,,,,,,,,,,,,,,,,,
1769161190.998832,1769161190.999106,115.0,0.0,4297.179688,4293.974121,4337.820313,4309.358887,4291.922852,4292.307617,4287.820313,4308.846191,4287.436035,4279.743652,4571.922852,4556.666504,4424.743652,4505.769043,,,,,,,,,,,,,,,,,,,,,,,,,,,,,,,,,,,,,,,,,,,,,,,,,,,,,,,,,,,,,,,,,,,,,,
1769161191.00664,1769161191.006714,116.0,0.0,4311.666504,4305.384766,4341.666504,4315.769043,4295.128418,4285.897461,4280.769043,4302.563965,4283.589844,4279.871582,4570.512695,4558.077148,4426.794922,4505.897461,,,,,,,,,,,,,,,,,,,,,,,,,,,,,,,,,,,,,,,,,,,,,,,,,,,,,,,,,,,,,,,,,,,,,,
1769161191.014449,1769161191.014523,117.0,0.0,4313.974121,4306.794922,4337.05127,4325.128418,4296.025879,4279.615234,4277.307617,4298.461426,4282.307617,4276.922852,4574.102539,4558.846191,4430.256348,4507.94873,,,,,,,,,,,,,,,,,,,,,,,,,,,,,,,,,,,,,,,,,,,,,,,,,,,,,,,,,,,,,,,,,,,,,,
1769161191.022257,1769161191.022231,118.0,0.0,4299.615234,4298.846191,4333.077148,4318.461426,4295.512695,4285.769043,4280.769043,4297.179688,4287.94873,4278.205078,4572.94873,4556.410156,4427.179688,4507.94873,,,,,,,,,,,,,,,,,,,,,,,,,,,,,,,,,,,,,,,,,,,,,,,,,,,,,,,,,,,,,,,,,,,,,,
1769161191.030066,1769161191.03004,119.0,0.0,4298.589844,4300.128418,4337.307617,4309.230957,4293.333496,4295.256348,4281.794922,4296.410156,4287.94873,4276.153809,4570.384766,4554.615234,4420.256348,4506.153809,,,,,,,,,,,,,,,,,,,,,,,,,,,,,,,,,,,,,,,,,,,,,,,,,,,,,,,,,,,,,,,,,,,,,,
1769161191.037874,1769161191.038048,120.0,0.0,4312.94873,4309.487305,4343.846191,4320.256348,4292.820313,4294.871582,4282.563965,4294.743652,4280.641113,4269.871582,4571.794922,4558.717773,4417.179688,4503.461426,,,,,,,,,,,,,,,,,,,,,,,,,,,,,,,,,,,,,,,,,,,,,,,,,,,,,,,,,,,,,,,,,,,,,,
1769161191.045683,1769161191.045856,121.0,0.0,4310.128418,4308.077148,4343.717773,4329.615234,4294.743652,4289.615234,4282.94873,4291.922852,4277.436035,4273.589844,4573.205078,4556.538574,4417.94873,4496.666504,,,,,,,,,,,,,,,,,,,,,,,,,,,,,,,,,,,,,,,,,,,,,,,,,,,,,,,,,,,,,,,,,,,,,,
1769161191.053491,1769161191.053765,122.0,0.0,4296.538574,4299.230957,4334.743652,4318.589844,4298.333496,4288.589844,4280.384766,4290.0,4280.128418,4281.922852,4567.820313,4542.179688,4413.205078,4491.666504,,,,,,,,,,,,,,,,,,,,,,,,,,,,,,,,,,,,,,,,,,,,,,,,,,,,,,,,,,,,,,,,,,,,,,
1769161191.061299,1769161191.061573,123.0,0.0,4291.666504,4294.358887,4328.974121,4306.922852,4295.0,4294.487305,4287.563965,4293.333496,4284.615234,4277.179688,4563.077148,4539.615234,4406.538574,4486.794922,,,,,,,,,,,,,,,,,,,,,,,,,,,,,,,,,,,,,,,,,,,,,,,,,,,,,,,,,,,,,,,,,,,,,,
1769161191.069108,1769161191.069581,124.0,0.0,4293.717773,4293.077148,4335.0,4307.820313,4284.615234,4297.692383,4297.179688,4299.358887,4291.666504,4273.717773,4573.717773,4554.615234,4414.871582,4487.563965,,,,,,,,,,,,,,,,,,,,,,,,,,,,,,,,,,,,,,,,,,,,,,,,,,,,,,,,,,,,,,,,,,,,,,
1769161191.076916,1769161191.07739,125.0,0.0,4302.307617,4294.871582,4340.512695,4316.282227,4283.333496,4288.974121,4288.846191,4297.307617,4295.384766,4290.641113,4586.025879,4560.897461,4432.563965,4504.358887,,,,,,,,,,,,,,,,,,,,,,,,,,,,,,,,,,,,,,,,,,,,,,,,,,,,,,,,,,,,,,,,,,,,,,
1769161191.084725,1769161191.085298,126.0,0.0,4311.922852,4296.410156,4339.743652,4321.794922,4291.666504,4275.0,4275.128418,4291.922852,4290.512695,4296.410156,4578.717773,4554.230957,4433.333496,4511.153809,0.592004,0.342256,0.233838,0.295102,0.122613,0.81245,0.278085,0.350171,0.136175,0.070488,0.747853,0.222697,0.208265,0.088852,0.100447,0.496289,0.243427,0.295716,0.145951,0.109293,0.057307,0.15543,0.111752,0.108945,0.038687,0.97955,0.372902,0.200636,0.310734,0.107251,0.240857,0.198022,0.164585,0.077898,0.064034,0.225939,0.33398,0.302672,0.191944,0.176074,0.643175,0.319319,0.375013,0.067907,0.093745,0.6335,0.322732,0.303858,0.257996,0.336331,0.593036,0.205647,0.28102,0.298073,0.162668,0.76413,0.350123,0.155264,0.261487,0.107268,0.498365,0.307857,0.259549,0.234551,0.181302,0.593564,0.25908,0.252187,0.234178,0.260989
1769161191.092533,1769161191.093107,127.0,0.0,4306.922852,4295.384766,4341.282227,4319.743652,4292.692383,4275.256348,4276.538574,4292.307617,4283.205078,4281.666504,4567.307617,4552.307617,4420.384766,4496.282227,,,,,,,,,,,,,,,,,,,,,,,,,,,,,,,,,,,,,,,,,,,,,,,,,,,,,,,,,,,,,,,,,,,,,,
1769161191.100342,1769161191.101115,0.0,0.0,4304.871582,4293.717773,4343.333496,4319.230957,4287.563965,4286.153809,4281.922852,4292.563965,4279.102539,4276.538574,4568.589844,4553.717773,4419.743652,4494.743652,,,,,,,,,,,,,,,,,,,,,,,,,,,,,,,,,,,,,,,,,,,,,,,,,,,,,,,,,,,,,,,,,,,,,,
1769161191.10815,1769161191.108923,1.0,0.0,4312.307617,4295.512695,4342.179688,4322.307617,4287.563965,4291.025879,4281.025879,4290.641113,4280.769043,4273.717773,4573.333496,4553.846191,4430.0,4510.128418,,,,,,,,,,,,,,,,,,,,,,,,,,,,,,,,,,,,,,,,,,,,,,,,,,,,,,,,,,,,,,,,,,,,,,
1769161191.115959,1769161191.116632,2.0,0.0,4305.769043,4296.794922,4340.897461,4322.436035,4290.0,4288.846191,4280.384766,4291.922852,4282.179688,4262.94873,4572.692383,4555.769043,4430.769043,4508.205078,,,,,,,,,,,,,,,,,,,,,,,,,,,,,,,,,,,,,,,,,,,,,,,,,,,,,,,,,,,,,,,,,,,,,,
1769161191.123767,1769161191.12444,3.0,0.0,4294.102539,4294.743652,4337.179688,4320.897461,4291.025879,4285.641113,4281.153809,4295.641113,4280.128418,4266.666504,4566.153809,4548.974121,4421.153809,4493.589844,,,,,,,,,,,,,,,,,,,,,,,,,,,,,,,,,,,,,,,,,,,,,,,,,,,,,,,,,,,,,,,,,,,,,,
1769161191.131575,1769161191.132049,4.0,0.0,4294.615234,4294.487305,4336.153809,4321.153809,4290.769043,4282.179688,4280.897461,4288.461426,4278.333496,4281.153809,4560.769043,4538.589844,4413.717773,4490.0,,,,,,,,,,,,,,,,,,,,,,,,,,,,,,,,,,,,,,,,,,,,,,,,,,,,,,,,,,,,,,,,,,,,,,
1769161191.139384,1769161191.139857,5.0,0.0,4298.846191,4297.563965,4340.256348,4320.256348,4290.0,4276.922852,4279.102539,4277.436035,4279.487305,4280.0,4563.205078,4541.794922,4417.692383,4491.410156,,,,,,,,,,,,,,,,,,,,,,,,,,,,,,,,,,,,,,,,,,,,,,,,,,,,,,,,,,,,,,,,,,,,,,
1769161191.147192,1769161191.147566,6.0,0.0,4302.692383,4300.512695,4340.641113,4323.589844,4293.589844,4276.410156,4277.05127,4281.282227,4279.230957,4276.410156,4569.615234,4552.563965,4425.512695,4492.563965,,,,,,,,,,,,,,,,,,,,,,,,,,,,,,,,,,,,,,,,,,,,,,,,,,,,,,,,,,,,,,,,,,,,,,
1769161191.155001,1769161191.155374,7.0,0.0,4303.077148,4299.358887,4339.615234,4328.333496,4296.282227,4281.666504,4278.846191,4292.692383,4281.410156,4278.846191,4572.820313,4553.333496,4426.922852,4494.358887,,,,,,,,,,,,,,,,,,,,,,,,,,,,,,,,,,,,,,,,,,,,,,,,,,,,,,,,,,,,,,,,,,,,,,
1769161191.162809,1769161191.162983,8.0,0.0,4297.563965,4295.384766,4340.897461,4326.794922,4296.282227,4281.282227,4281.153809,4294.743652,4287.563965,4277.179688,4573.589844,4551.025879,4425.256348,4495.512695,,,,,,,,,,,,,,,,,,,,,,,,,,,,,,,,,,,,,,,,,,,,,,,,,,,,,,,,,,,,,,,,,,,,,,
1769161191.170618,1769161191.170791,9.0,0.0,4295.256348,4295.128418,4339.358887,4323.461426,4291.922852,4277.307617,4279.743652,4290.641113,4289.743652,4280.128418,4572.307617,4556.282227,4427.05127,4495.897461,,,,,,,,,,,,,,,,,,,,,,,,,,,,,,,,,,,,,,,,,,,,,,,,,,,,,,,,,,,,,,,,,,,,,,
1769161191.178426,1769161191.1787,10.0,0.0,4295.384766,4296.410156,4335.897461,4320.897461,4284.871582,4276.025879,4278.589844,4294.871582,4293.205078,4281.410156,4568.717773,4556.794922,4422.05127,4492.436035,,,,,,,,,,,,,,,,,,,,,,,,,,,,,,,,,,,,,,,,,,,,,,,,,,,,,,,,,,,,,,,,,,,,,,
1769161191.186235,1769161191.186508,11.0,0.0,4290.641113,4292.820313,4338.461426,4322.563965,4284.102539,4278.717773,4280.512695,4297.692383,4293.974121,4266.538574,4567.94873,4552.563965,4413.077148,4493.846191,,,,,,,,,,,,,,,,,,,,,,,,,,,,,,,,,,,,,,,,,,,,,,,,,,,,,,,,,,,,,,,,,,,,,,
1769161191.194043,1769161191.194516,12.0,0.0,4296.025879,4293.589844,4347.692383,4326.538574,4291.922852,4281.794922,4281.922852,4285.128418,4282.179688,4256.794922,4568.846191,4554.230957,4419.615234,4503.846191,,,,,,,,,,,,,,,,,,,,,,,,,,,,,,,,,,,,,,,,,,,,,,,,,,,,,,,,,,,,,,,,,,,,,,
1769161191.201852,1769161191.202325,13.0,0.0,4308.717773,4300.512695,4351.025879,4326.794922,4295.512695,4280.512695,4279.230957,4277.820313,4275.512695,4268.717773,4568.333496,4557.692383,4427.563965,4509.743652,,,,,,,,,,,,,,,,,,,,,,,,,,,,,,,,,,,,,,,,,,,,,,,,,,,,,,,,,,,,,,,,,,,,,,
1769161191.20966,1769161191.210033,14.0,0.0,4307.05127,4300.897461,4344.743652,4325.384766,4293.077148,4274.102539,4275.256348,4287.307617,4281.922852,4281.025879,4567.179688,4553.974121,4421.025879,4501.922852,0.628339,0.360006,0.214588,0.221121,0.126174,0.982881,0.291203,0.306806,0.119041,0.066255,0.729136,0.210642,0.215507,0.107711,0.101852,0.59552,0.252606,0.303438,0.151148,0.10348,0.063393,0.142167,0.099531,0.089863,0.037142,0.921522,0.372983,0.184406,0.300391,0.108998,0.264128,0.175765,0.161022,0.079242,0.070548,0.238829,0.283005,0.265197,0.211005,0.185589,0.590772,0.265975,0.312421,0.071164,0.091847,0.723853,0.342752,0.311965,0.233542,0.339007,0.553294,0.280594,0.335188,0.27248,0.138665,0.71377,0.317653,0.158492,0.272994,0.116252,0.580436,0.349415,0.290514,0.233487,0.166571,0.611386,0.299653,0.238686,0.222761,0.232163
1769161191.217469,1769161191.217842,15.0,0.0,4296.153809,4295.128418,4339.358887,4325.256348,4293.333496,4272.820313,4274.871582,4292.563965,4283.333496,4279.358887,4568.974121,4548.717773,4420.897461,4493.589844,,,,,,,,,,,,,,,,,,,,,,,,,,,,,,,,,,,,,,,,,,,,,,,,,,,,,,,,,,,,,,,,,,,,,,
1769161191.225277,1769161191.225451,16.0,0.0,4292.94873,4293.846191,4341.025879,4323.077148,4295.128418,4279.743652,4278.461426,4289.871582,4283.974121,4276.153809,4571.282227,4551.666504,4426.282227,4496.666504,,,,,,,,,,,,,,,,,,,,,,,,,,,,,,,,,,,,,,,,,,,,,,,,,,,,,,,,,,,,,,,,,,,,,,
1769161191.233086,1769161191.233259,17.0,0.0,4295.769043,4294.615234,4341.922852,4319.487305,4296.410156,4283.205078,4281.794922,4295.128418,4289.102539,4280.384766,4571.794922,4556.922852,4419.743652,4500.512695,,,,,,,,,,,,,,,,,,,,,,,,,,,,,,,,,,,,,,,,,,,,,,,,,,,,,,,,,,,,,,,,,,,,,,
1769161191.240894,1769161191.241167,18.0,0.0,4294.871582,4293.461426,4339.871582,4321.282227,4297.179688,4281.282227,4281.794922,4295.512695,4282.307617,4279.871582,4570.128418,4552.05127,4416.025879,4496.410156,,,,,,,,,,,,,,,,,,,,,,,,,,,,,,,,,,,,,,,,,,,,,,,,,,,,,,,,,,,,,,,,,,,,,,
1769161191.248702,1769161191.248976,19.0,0.0,4295.256348,4296.153809,4341.794922,4322.692383,4295.641113,4278.461426,4279.615234,4281.282227,4275.256348,4271.538574,4568.846191,4541.282227,4420.384766,4493.205078,,,,,,,,,,,,,,,,,,,,,,,,,,,,,,,,,,,,,,,,,,,,,,,,,,,,,,,,,,,,,,,,,,,,,,
1769161191.256511,1769161191.256984,20.0,0.0,4296.538574,4297.563965,4344.230957,4320.128418,4293.974121,4275.897461,4278.333496,4276.282227,4278.205078,4269.871582,4569.615234,4535.769043,4417.94873,4493.077148,,,,,,,,,,,,,,,,,,,,,,,,,,,,,,,,,,,,,,,,,,,,,,,,,,,,,,,,,,,,,,,,,,,,,,
1769161191.264319,1769161191.264792,21.0,0.0,4296.410156,4294.871582,4345.256348,4320.0,4293.589844,4276.538574,4278.974121,4288.589844,4280.0,4276.922852,4569.743652,4542.307617,4419.743652,4492.563965,,,,,,,,,,,,,,,,,,,,,,,,,,,,,,,,,,,,,,,,,,,,,,,,,,,,,,,,,,,,,,,,,,,,,,
1769161191.272128,1769161191.272701,22.0,0.0,4294.230957,4295.256348,4342.307617,4321.025879,4293.461426,4281.153809,4280.128418,4296.025879,4280.512695,4282.307617,4569.615234,4547.436035,4428.974121,4497.05127,,,,,,,,,,,,,,,,,,,,,,,,,,,,,,,,,,,,,,,,,,,,,,,,,,,,,,,,,,,,,,,,,,,,,,
1769161191.279936,1769161191.280509,23.0,0.0,4294.102539,4297.179688,4342.179688,4320.897461,4294.743652,4284.358887,4279.615234,4293.333496,4288.205078,4279.102539,4571.153809,4543.974121,4428.717773,4507.692383,,,,,,,,,,,,,,,,,,,,,,,,,,,,,,,,,,,,,,,,,,,,,,,,,,,,,,,,,,,,,,,,,,,,,,
1769161191.287745,1769161191.288518,24.0,0.0,4300.256348,4296.025879,4350.0,4323.846191,4296.282227,4282.692383,4278.846191,4295.256348,4296.410156,4276.282227,4572.820313,4547.94873,4427.563965,4511.282227,,,,,,,,,,,,,,,,,,,,,,,,,,,,,,,,,,,,,,,,,,,,,,,,,,,,,,,,,,,,,,,,,,,,,,
1769161191.295553,1769161191.296326,25.0,0.0,4300.384766,4294.230957,4353.974121,4321.025879,4294.871582,4278.589844,4280.256348,4298.333496,4288.461426,4273.974121,4570.128418,4552.307617,4431.153809,4499.743652,,,,,,,,,,,,,,,,,,,,,,,,,,,,,,,,,,,,,,,,,,,,,,,,,,,,,,,,,,,,,,,,,,,,,,
1769161191.303362,1769161191.304035,26.0,0.0,4293.461426,4295.512695,4352.563965,4312.94873,4294.615234,4277.820313,4280.769043,4294.743652,4277.94873,4273.077148,4569.358887,4547.692383,4428.717773,4493.077148,,,,,,,,,,,,,,,,,,,,,,,,,,,,,,,,,,,,,,,,,,,,,,,,,,,,,,,,,,,,,,,,,,,,,,
1769161191.31117,1769161191.311843,27.0,0.0,4293.717773,4296.538574,4353.974121,4316.794922,4296.794922,4281.922852,4278.846191,4293.717773,4283.717773,4281.410156,4572.179688,4547.94873,4427.307617,4497.563965,,,,,,,,,,,,,,,,,,,,,,,,,,,,,,,,,,,,,,,,,,,,,,,,,,,,,,,,,,,,,,,,,,,,,,
1769161191.318978,1769161191.319452,28.0,0.0,4297.94873,4296.538574,4360.769043,4324.615234,4296.666504,4282.436035,4277.94873,4294.358887,4287.436035,4277.563965,4567.692383,4554.871582,4430.512695,4498.077148,,,,,,,,,,,,,,,,,,,,,,,,,,,,,,,,,,,,,,,,,,,,,,,,,,,,,,,,,,,,,,,,,,,,,,
1769161191.326787,1769161191.32726,29.0,0.0,4294.358887,4298.077148,4365.641113,4323.717773,4295.512695,4276.538574,4278.717773,4291.282227,4278.333496,4263.589844,4561.538574,4553.461426,4423.846191,4499.615234,,,,,,,,,,,,,,,,,,,,,,,,,,,,,,,,,,,,,,,,,,,,,,,,,,,,,,,,,,,,,,,,,,,,,,
