Timestamp,OriginalTimestamp,EEG.Counter,EEG.Interpolated,EEG.AF3,EEG.F7,EEG.F3,EEG.FC5,EEG.T7,EEG.P7,EEG.O1,EEG.O2,EEG.P8,EEG.T8,EEG.FC6,EEG.F4,EEG.F8,EEG.AF4,POW.AF3.Theta,POW.AF3.Alpha,POW.AF3.BetaL,POW.AF3.BetaH,POW.AF3.Gamma,POW.F7.Theta,POW.F7.Alpha,POW.F7.BetaL,POW.F7.BetaH,POW.F7.Gamma,POW.F3.Theta,POW.F3.Alpha,POW.F3.BetaL,POW.F3.BetaH,POW.F3.Gamma,POW.FC5.Theta,POW.FC5.Alpha,POW.FC5.BetaL,POW.FC5.BetaH,POW.FC5.Gamma,POW.T7.Theta,POW.T7.Alpha,POW.T7.BetaL,POW.T7.BetaH,POW.T7.Gamma,POW.P7.Theta,POW.P7.Alpha,POW.P7.BetaL,POW.P7.BetaH,POW.P7.Gamma,POW.O1.Theta,POW.O1.Alpha,POW.O1.BetaL,POW.O1.BetaH,POW.O1.Gamma,POW.O2.Theta,POW.O2.Alpha,POW.O2.BetaL,POW.O2.BetaH,POW.O2.Gamma,POW.P8.Theta,POW.P8.Alpha,POW.P8.BetaL,POW.P8.BetaH,POW.P8.Gamma,POW.T8.Theta,POW.T8.Alpha,POW.T8.BetaL,POW.T8.BetaH,POW.T8.Gamma,POW.FC6.Theta,POW.FC6.Alpha,POW.FC6.BetaL,POW.FC6.BetaH,POW.FC6.Gamma,POW.F4.Theta,POW.F4.Alpha,POW.F4.BetaL,POW.F4.BetaH,POW.F4.Gamma,POW.F8.Theta,POW.F8.Alpha,POW.F8.BetaL,POW.F8.BetaH,POW.F8.Gamma,POW.AF4.Theta,POW.AF4.Alpha,POW.AF4.BetaL,POW.AF4.BetaH,POW.AF4.Gamma
1768918674.73074,1768918674.731469,67.0,0.0,4323.077148,4244.358887,4340.384766,4341.794922,4305.0,4314.230957,4292.820313,4321.922852,4309.102539,4243.077148,4504.230957,4501.410156,4408.846191,4424.358887,,,,,,,,,,,,,,,,,,,,,,,,,,,,,,,,,,,,,,,,,,,,,,,,,,,,,,,,,,,,,,,,,,,,,,
1768918674.738549,1768918674.739078,68.0,0.0,4323.846191,4246.282227,4335.769043,4341.153809,4305.769043,4312.692383,4283.205078,4317.692383,4308.205078,4241.666504,4507.820313,4506.282227,4403.077148,4421.538574,,,,,,,,,,,,,,,,,,,,,,,,,,,,,,,,,,,,,,,,,,,,,,,,,,,,,,,,,,,,,,,,,,,,,,
1768918674.746357,1768918674.746886,69.0,0.0,4327.563965,4246.282227,4339.102539,4341.153809,4304.358887,4310.512695,4283.717773,4322.307617,4309.871582,4246.922852,4510.384766,4510.897461,4402.94873,4425.897461,,,,,,,,,,,,,,,,,,,,,,,,,,,,,,,,,,,,,,,,,,,,,,,,,,,,,,,,,,,,,,,,,,,,,,
1768918674.754166,1768918674.754594,70.0,0.0,4331.666504,4245.256348,4343.846191,4340.512695,4305.0,4313.205078,4296.153809,4328.589844,4313.589844,4248.717773,4509.102539,4512.307617,4411.538574,4430.641113,,,,,,,,,,,,,,,,,,,,,,,,,,,,,,,,,,,,,,,,,,,,,,,,,,,,,,,,,,,,,,,,,,,,,,
1768918674.761974,1768918674.762403,71.0,0.0,4335.256348,4246.153809,4343.846191,4341.538574,4306.666504,4314.487305,4297.05127,4328.205078,4311.794922,4245.0,4508.589844,4514.743652,4415.128418,4429.871582,,,,,,,,,,,,,,,,,,,,,,,,,,,,,,,,,,,,,,,,,,,,,,,,,,,,,,,,,,,,,,,,,,,,,,
1768918674.769783,1768918674.770411,72.0,0.0,4337.563965,4248.205078,4342.179688,4343.205078,4306.410156,4310.384766,4291.538574,4326.153809,4309.743652,4245.0,4507.436035,4515.512695,4410.128418,4427.563965,,,,,,,,,,,,,,,,,,,,,,,,,,,,,,,,,,,,,,,,,,,,,,,,,,,,,,,,,,,,,,,,,,,,,,
1768918674.777591,1768918674.778219,73.0,0.0,4338.333496,4248.205078,4344.487305,4344.358887,4303.974121,4308.974121,4293.077148,4331.282227,4316.282227,4246.153809,4509.102539,4511.922852,4410.128418,4427.307617,,,,,,,,,,,,,,,,,,,,,,,,,,,,,,,,,,,,,,,,,,,,,,,,,,,,,,,,,,,,,,,,,,,,,,
1768918674.7854,1768918674.786127,74.0,0.0,4334.615234,4248.461426,4349.230957,4343.717773,4305.512695,4312.94873,4297.692383,4334.871582,4318.846191,4246.153809,4511.153809,4508.077148,4414.487305,4426.282227,,,,,,,,,,,,,,,,,,,,,,,,,,,,,,,,,,,,,,,,,,,,,,,,,,,,,,,,,,,,,,,,,,,,,,
1768918674.793208,1768918674.793935,75.0,0.0,4328.974121,4249.230957,4349.102539,4343.077148,4307.563965,4313.717773,4297.05127,4329.230957,4312.436035,4245.512695,4508.974121,4509.358887,4409.230957,4424.615234,,,,,,,,,,,,,,,,,,,,,,,,,,,,,,,,,,,,,,,,,,,,,,,,,,,,,,,,,,,,,,,,,,,,,,
1768918674.801017,1768918674.801943,76.0,0.0,4325.384766,4247.05127,4343.589844,4342.436035,4301.922852,4309.871582,4293.205078,4325.641113,4308.333496,4239.358887,4506.922852,4508.461426,4398.461426,4419.871582,,,,,,,,,,,,,,,,,,,,,,,,,,,,,,,,,,,,,,,,,,,,,,,,,,,,,,,,,,,,,,,,,,,,,,
1768918674.808825,1768918674.809751,77.0,0.0,4321.794922,4244.358887,4340.256348,4339.615234,4295.128418,4310.0,4295.384766,4329.230957,4310.256348,4232.05127,4505.769043,4504.743652,4395.128418,4409.871582,,,,,,,,,,,,,,,,,,,,,,,,,,,,,,,,,,,,,,,,,,,,,,,,,,,,,,,,,,,,,,,,,,,,,,
1768918674.816634,1768918674.81746,78.0,0.0,4322.307617,4243.589844,4342.436035,4337.94873,4295.512695,4311.666504,4294.230957,4329.871582,4310.128418,4231.794922,4503.461426,4506.410156,4398.974121,4406.153809,,,,,,,,,,,,,,,,,,,,,,,,,,,,,,,,,,,,,,,,,,,,,,,,,,,,,,,,,,,,,,,,,,,,,,
1768918674.824442,1768918674.825268,79.0,0.0,4324.871582,4241.922852,4342.820313,4337.307617,4297.563965,4307.563965,4284.230957,4321.666504,4304.615234,4232.307617,4500.897461,4505.512695,4398.077148,4409.615234,,,,,,,,,,,,,,,,,,,,,,,,,,,,,,,,,,,,,,,,,,,,,,,,,,,,,,,,,,,,,,,,,,,,,,
1768918674.832251,1768918674.833276,80.0,0.0,4326.025879,4243.077148,4342.563965,4335.641113,4296.922852,4305.769043,4289.230957,4319.487305,4302.05127,4231.025879,4503.205078,4505.0,4394.487305,4415.512695,1.617487,0.453597,0.418424,0.206314,0.144359,0.549723,0.246343,0.334668,0.20539,0.111429,1.285433,0.619879,0.567397,0.263705,0.11763,0.890961,0.302075,0.38969,0.166892,0.145178,0.946253,0.339273,0.076165,0.062875,0.053846,0.110418,0.296309,0.225312,0.252317,0.181503,0.202477,0.466435,0.276972,0.403528,0.426187,0.587799,1.002956,0.173646,0.155007,0.097782,0.516702,0.647845,0.162529,0.168331,0.09316,0.374189,0.934765,0.053982,0.234211,0.090037,1.23859,0.999609,0.246229,0.453352,0.273803,2.016024,1.227502,0.405832,0.472184,0.16439,0.699611,0.625825,0.268113,0.58424,0.322988,1.374296,0.72453,0.369109,0.370027,0.132104
1768918674.840059,1768918674.841084,81.0,0.0,4330.769043,4247.436035,4344.743652,4335.769043,4296.153809,4310.256348,4297.692383,4324.615234,4305.897461,4233.077148,4509.487305,4508.589844,4399.871582,4423.461426,,,,,,,,,,,,,,,,,,,,,,,,,,,,,,,,,,,,,,,,,,,,,,,,,,,,,,,,,,,,,,,,,,,,,,
1768918674.847868,1768918674.848992,82.0,0.0,4333.589844,4247.179688,4345.512695,4339.358887,4296.153809,4310.769043,4287.179688,4325.641113,4306.153809,4234.743652,4509.102539,4510.0,4404.871582,4422.179688,,,,,,,,,,,,,,,,,,,,,,,,,,,,,,,,,,,,,,,,,,,,,,,,,,,,,,,,,,,,,,,,,,,,,,
1768918674.855676,1768918674.8568,83.0,0.0,4327.692383,4244.615234,4347.820313,4342.563965,4298.974121,4310.128418,4286.794922,4326.153809,4302.692383,4233.974121,4505.512695,4506.922852,4400.0,4414.487305,,,,,,,,,,,,,,,,,,,,,,,,,,,,,,,,,,,,,,,,,,,,,,,,,,,,,,,,,,,,,,,,,,,,,,
1768918674.863485,1768918674.864808,84.0,0.0,4324.358887,4246.666504,4353.333496,4342.820313,4300.512695,4310.897461,4298.205078,4328.333496,4304.871582,4231.025879,4505.897461,4505.128418,4394.230957,4413.333496,,,,,,,,,,,,,,,,,,,,,,,,,,,,,,,,,,,,,,,,,,,,,,,,,,,,,,,,,,,,,,,,,,,,,,
1768918674.871293,1768918674.872617,85.0,0.0,4327.692383,4248.461426,4357.307617,4342.94873,4295.897461,4311.410156,4297.692383,4325.0,4305.897461,4232.05127,4505.769043,4507.820313,4397.179688,4415.897461,,,,,,,,,,,,,,,,,,,,,,,,,,,,,,,,,,,,,,,,,,,,,,,,,,,,,,,,,,,,,,,,,,,,,,
1768918674.879102,1768918674.880325,86.0,0.0,4327.05127,4247.179688,4356.794922,4342.820313,4294.615234,4314.743652,4301.666504,4323.974121,4304.358887,4239.487305,4508.717773,4510.641113,4400.384766,4417.05127,,,,,,,,,,,,,,,,,,,,,,,,,,,,,,,,,,,,,,,,,,,,,,,,,,,,,,,,,,,,,,,,,,,,,,
1768918674.88691,1768918674.888133,87.0,0.0,4324.102539,4246.025879,4347.692383,4342.05127,4298.205078,4313.077148,4307.820313,4326.410156,4307.820313,4240.128418,4510.512695,4507.563965,4396.794922,4416.538574,,,,,,,,,,,,,,,,,,,,,,,,,,,,,,,,,,,,,,,,,,,,,,,,,,,,,,,,,,,,,,,,,,,,,,
1768918674.894719,1768918674.896141,88.0,0.0,4322.179688,4244.615234,4339.871582,4341.282227,4298.077148,4311.666504,4305.128418,4326.794922,4311.282227,4236.282227,4506.666504,4504.102539,4396.794922,4413.461426,,,,,,,,,,,,,,,,,,,,,,,,,,,,,,,,,,,,,,,,,,,,,,,,,,,,,,,,,,,,,,,,,,,,,,
1768918674.902527,1768918674.903949,89.0,0.0,4320.897461,4243.974121,4345.512695,4340.512695,4295.128418,4318.589844,4308.461426,4331.282227,4309.871582,4243.077148,4511.025879,4513.077148,4406.025879,4417.820313,,,,,,,,,,,,,,,,,,,,,,,,,,,,,,,,,,,,,,,,,,,,,,,,,,,,,,,,,,,,,,,,,,,,,,
1768918674.910336,1768918674.911658,90.0,0.0,4326.666504,4246.538574,4357.436035,4341.282227,4294.871582,4319.615234,4310.641113,4334.358887,4309.743652,4250.512695,4523.333496,4526.410156,4415.384766,4429.358887,,,,,,,,,,,,,,,,,,,,,,,,,,,,,,,,,,,,,,,,,,,,,,,,,,,,,,,,,,,,,,,,,,,,,,
1768918674.918144,1768918674.919466,91.0,0.0,4337.94873,4249.743652,4361.538574,4344.230957,4295.0,4308.461426,4296.666504,4333.589844,4313.205078,4248.717773,4526.282227,4534.358887,4418.974121,4433.333496,,,,,,,,,,,,,,,,,,,,,,,,,,,,,,,,,,,,,,,,,,,,,,,,,,,,,,,,,,,,,,,,,,,,,,
1768918674.925953,1768918674.927074,92.0,0.0,4342.05127,4251.025879,4359.102539,4343.717773,4294.358887,4308.461426,4296.410156,4334.743652,4313.974121,4250.256348,4523.974121,4535.128418,4417.05127,4434.230957,,,,,,,,,,,,,,,,,,,,,,,,,,,,,,,,,,,,,,,,,,,,,,,,,,,,,,,,,,,,,,,,,,,,,,
1768918674.933761,1768918674.934882,93.0,0.0,4336.922852,4249.487305,4357.692383,4342.436035,4295.897461,4321.666504,4314.230957,4333.333496,4312.179688,4254.230957,4525.769043,4529.358887,4413.974121,4436.922852,,,,,,,,,,,,,,,,,,,,,,,,,,,,,,,,,,,,,,,,,,,,,,,,,,,,,,,,,,,,,,,,,,,,,,
1768918674.94157,1768918674.942591,94.0,0.0,4332.563965,4247.436035,4357.820313,4345.512695,4297.820313,4318.589844,4309.358887,4326.922852,4311.794922,4248.717773,4520.128418,4521.922852,4414.743652,4432.820313,,,,,,,,,,,,,,,,,,,,,,,,,,,,,,,,,,,,,,,,,,,,,,,,,,,,,,,,,,,,,,,,,,,,,,
1768918674.949378,1768918674.950399,95.0,0.0,4331.410156,4246.538574,4355.897461,4345.641113,4296.153809,4310.256348,4296.282227,4322.307617,4309.230957,4241.410156,4508.333496,4514.230957,4410.897461,4421.538574,,,,,,,,,,,,,,,,,,,,,,,,,,,,,,,,,,,,,,,,,,,,,,,,,,,,,,,,,,,,,,,,,,,,,,
1768918674.957187,1768918674.958007,96.0,0.0,4334.743652,4248.589844,4354.871582,4341.794922,4293.974121,4313.846191,4303.205078,4320.897461,4303.846191,4237.563965,4506.025879,4515.384766,4403.589844,4420.256348,1.019564,0.386432,0.468277,0.18924,0.157445,0.474687,0.204997,0.322051,0.198583,0.127425,0.903343,0.597964,0.505066,0.259175,0.120938,0.710067,0.229803,0.352981,0.174853,0.141853,0.923667,0.29404,0.086246,0.061451,0.048657,0.10839,0.273198,0.195238,0.255882,0.155918,0.211289,0.516017,0.21951,0.450388,0.413878,0.508865,0.979723,0.159959,0.144776,0.096602,0.534076,0.662984,0.133464,0.135291,0.079694,0.357508,0.943169,0.043311,0.197981,0.088944,1.093513,1.047519,0.269537,0.387557,0.2274,1.497848,1.279461,0.403537,0.42308,0.144323,0.651391,0.582127,0.274597,0.471858,0.27779,1.132922,0.783506,0.365497,0.31677,0.141988
1768918674.964996,1768918674.965816,97.0,0.0,4336.025879,4249.487305,4357.563965,4342.179688,4293.974121,4318.717773,4312.820313,4323.205078,4305.0,4237.05127,4510.641113,4523.333496,4406.410156,4428.461426,,,,,,,,,,,,,,,,,,,,,,,,,,,,,,,,,,,,,,,,,,,,,,,,,,,,,,,,,,,,,,,,,,,,,,
1768918674.972804,1768918674.973724,98.0,0.0,4329.743652,4242.563965,4356.025879,4342.05127,4292.05127,4317.563965,4310.897461,4328.333496,4307.563965,4235.897461,4509.102539,4518.974121,4401.922852,4423.589844,,,,,,,,,,,,,,,,,,,,,,,,,,,,,,,,,,,,,,,,,,,,,,,,,,,,,,,,,,,,,,,,,,,,,,
1768918674.980613,1768918674.981532,99.0,0.0,4326.282227,4236.666504,4352.820313,4337.436035,4287.94873,4312.307617,4307.94873,4326.282227,4302.436035,4230.512695,4502.05127,4502.820313,4385.769043,4412.820313,,,,,,,,,,,,,,,,,,,,,,,,,,,,,,,,,,,,,,,,,,,,,,,,,,,,,,,,,,,,,,,,,,,,,,
1768918674.988421,1768918674.98954,100.0,0.0,4333.205078,4246.410156,4357.179688,4341.666504,4290.0,4311.410156,4309.615234,4324.102539,4305.641113,4236.282227,4504.230957,4505.512695,4395.384766,4421.410156,,,,,,,,,,,,,,,,,,,,,,,,,,,,,,,,,,,,,,,,,,,,,,,,,,,,,,,,,,,,,,,,,,,,,,
1768918674.99623,1768918674.997348,101.0,0.0,4342.179688,4262.307617,4359.743652,4353.461426,4296.666504,4315.641113,4309.871582,4330.641113,4316.538574,4250.256348,4511.153809,4522.692383,4416.922852,4435.897461,,,,,,,,,,,,,,,,,,,,,,,,,,,,,,,,,,,,,,,,,,,,,,,,,,,,,,,,,,,,,,,,,,,,,,
1768918675.004038,1768918675.005256,102.0,0.0,4343.077148,4266.794922,4357.692383,4360.256348,4299.487305,4318.461426,4311.538574,4334.871582,4313.717773,4247.179688,4510.769043,4523.461426,4408.717773,4430.0,,,,,,,,,,,,,,,,,,,,,,,,,,,,,,,,,,,,,,,,,,,,,,,,,,,,,,,,,,,,,,,,,,,,,,
1768918675.011847,1768918675.013064,103.0,0.0,4341.666504,4263.717773,4357.94873,4358.333496,4297.692383,4311.922852,4310.0,4331.282227,4306.153809,4237.820313,4507.563965,4513.589844,4393.717773,4417.820313,,,,,,,,,,,,,,,,,,,,,,,,,,,,,,,,,,,,,,,,,,,,,,,,,,,,,,,,,,,,,,,,,,,,,,
1768918675.019655,1768918675.020673,104.0,0.0,4339.230957,4259.102539,4356.538574,4350.128418,4294.871582,4308.077148,4308.205078,4325.384766,4304.487305,4239.487305,4507.94873,4508.846191,4397.05127,4419.487305,,,,,,,,,,,,,,,,,,,,,,,,,,,,,,,,,,,,,,,,,,,,,,,,,,,,,,,,,,,,,,,,,,,,,,
1768918675.027464,1768918675.028481,105.0,0.0,4330.384766,4253.589844,4347.94873,4343.077148,4292.563965,4310.512695,4306.794922,4323.205078,4300.641113,4239.487305,4508.974121,4508.461426,4399.743652,4420.256348,,,,,,,,,,,,,,,,,,,,,,,,,,,,,,,,,,,,,,,,,,,,,,,,,,,,,,,,,,,,,,,,,,,,,,
1768918675.035272,1768918675.036389,106.0,0.0,4326.538574,4250.256348,4346.025879,4340.0,4291.282227,4311.025879,4310.384766,4324.358887,4298.717773,4233.589844,4507.436035,4509.230957,4397.94873,4415.384766,,,,,,,,,,,,,,,,,,,,,,,,,,,,,,,,,,,,,,,,,,,,,,,,,,,,,,,,,,,,,,,,,,,,,,
1768918675.043081,1768918675.044197,107.0,0.0,4330.897461,4250.256348,4352.820313,4341.666504,4289.871582,4311.153809,4317.05127,4324.743652,4303.717773,4234.358887,4506.410156,4508.205078,4397.820313,4414.358887,,,,,,,,,,,,,,,,,,,,,,,,,,,,,,,,,,,,,,,,,,,,,,,,,,,,,,,,,,,,,,,,,,,,,,
1768918675.050889,1768918675.052205,108.0,0.0,4332.05127,4254.102539,4353.077148,4346.153809,4290.0,4311.538574,4316.025879,4325.0,4304.487305,4234.102539,4505.256348,4505.256348,4395.641113,4415.512695,,,,,,,,,,,,,,,,,,,,,,,,,,,,,,,,,,,,,,,,,,,,,,,,,,,,,,,,,,,,,,,,,,,,,,
1768918675.058698,1768918675.060014,109.0,0.0,4333.205078,4261.794922,4354.743652,4353.077148,4294.358887,4314.615234,4316.794922,4328.333496,4302.692383,4234.230957,4506.153809,4513.461426,4402.563965,4417.94873,,,,,,,,,,,,,,,,,,,,,,,,,,,,,,,,,,,,,,,,,,,,,,,,,,,,,,,,,,,,,,,,,,,,,,
1768918675.066506,1768918675.067722,110.0,0.0,4338.846191,4264.358887,4358.589844,4358.333496,4298.077148,4316.025879,4322.94873,4330.512695,4306.794922,4244.358887,4509.871582,4523.205078,4413.589844,4426.282227,,,,,,,,,,,,,,,,,,,,,,,,,,,,,,,,,,,,,,,,,,,,,,,,,,,,,,,,,,,,,,,,,,,,,,
1768918675.074315,1768918675.07553,111.0,0.0,4335.512695,4255.0,4349.743652,4353.461426,4296.025879,4311.922852,4322.692383,4328.461426,4309.358887,4248.974121,4510.128418,4513.717773,4407.179688,4430.897461,,,,,,,,,,,,,,,,,,,,,,,,,,,,,,,,,,,,,,,,,,,,,,,,,,,,,,,,,,,,,,,,,,,,,,
1768918675.082123,1768918675.083139,112.0,0.0,4332.436035,4246.794922,4344.615234,4345.0,4292.307617,4310.256348,4319.230957,4328.589844,4308.461426,4243.717773,4512.307617,4508.974121,4402.692383,4426.794922,0.618328,0.319609,0.523796,0.194098,0.171163,0.419938,0.198066,0.306644,0.207616,0.145818,0.649694,0.558857,0.427212,0.283101,0.127198,0.538119,0.174706,0.30825,0.195413,0.136037,0.852067,0.245557,0.098333,0.06377,0.043805,0.112715,0.263245,0.165542,0.277391,0.132592,0.227843,0.60047,0.184107,0.515627,0.399138,0.457085,0.908465,0.159033,0.138161,0.096696,0.537939,0.661132,0.10766,0.114233,0.066124,0.303272,0.921833,0.044749,0.177314,0.091762,0.939189,1.058719,0.311636,0.350196,0.183639,1.145519,1.283787,0.417993,0.416503,0.132558,0.57089,0.530571,0.293564,0.38724,0.224495,0.900929,0.811867,0.377244,0.2931,0.156271
1768918675.089932,1768918675.090947,113.0,0.0,4337.563965,4248.461426,4355.897461,4342.820313,4290.256348,4310.384766,4320.897461,4331.153809,4309.871582,4245.384766,4520.769043,4525.769043,4411.282227,4427.692383,,,,,,,,,,,,,,,,,,,,,,,,,,,,,,,,,,,,,,,,,,,,,,,,,,,,,,,,,,,,,,,,,,,,,,
1768918675.09774,1768918675.098655,114.0,0.0,4329.743652,4248.333496,4354.871582,4343.077148,4288.974121,4309.487305,4323.461426,4331.922852,4311.666504,4247.692383,4520.641113,4527.05127,4405.641113,4426.922852,,,,,,,,,,,,,,,,,,,,,,,,,,,,,,,,,,,,,,,,,,,,,,,,,,,,,,,,,,,,,,,,,,,,,,
1768918675.105549,1768918675.106463,115.0,0.0,4317.307617,4245.256348,4341.922852,4338.077148,4288.333496,4311.666504,4325.641113,4331.666504,4311.794922,4240.256348,4509.487305,4508.077148,4397.692383,4417.94873,,,,,,,,,,,,,,,,,,,,,,,,,,,,,,,,,,,,,,,,,,,,,,,,,,,,,,,,,,,,,,,,,,,,,,
1768918675.113357,1768918675.114072,116.0,0.0,4322.05127,4247.563965,4340.769043,4337.05127,4286.922852,4313.077148,4326.025879,4327.436035,4308.717773,4236.025879,4506.025879,4503.589844,4405.256348,4416.538574,,,,,,,,,,,,,,,,,,,,,,,,,,,,,,,,,,,,,,,,,,,,,,,,,,,,,,,,,,,,,,,,,,,,,,
1768918675.121166,1768918675.12188,117.0,0.0,4329.102539,4250.641113,4342.94873,4342.94873,4286.025879,4310.512695,4323.461426,4323.077148,4306.538574,4237.563965,4511.282227,4511.666504,4404.230957,4418.974121,,,,,,,,,,,,,,,,,,,,,,,,,,,,,,,,,,,,,,,,,,,,,,,,,,,,,,,,,,,,,,,,,,,,,,
1768918675.128974,1768918675.129588,118.0,0.0,4325.128418,4248.205078,4341.282227,4342.179688,4287.820313,4311.282227,4326.410156,4325.641113,4308.333496,4233.974121,4509.487305,4507.436035,4394.102539,4413.077148,,,,,,,,,,,,,,,,,,,,,,,,,,,,,,,,,,,,,,,,,,,,,,,,,,,,,,,,,,,,,,,,,,,,,,
1768918675.136783,1768918675.137396,119.0,0.0,4321.922852,4246.282227,4342.307617,4335.0,4287.179688,4312.436035,4328.461426,4326.025879,4303.974121,4231.794922,4501.282227,4494.871582,4391.025879,4406.794922,,,,,,,,,,,,,,,,,,,,,,,,,,,,,,,,,,,,,,,,,,,,,,,,,,,,,,,,,,,,,,,,,,,,,,
1768918675.144591,1768918675.145005,120.0,0.0,4322.820313,4246.153809,4341.538574,4332.692383,4283.461426,4308.461426,4326.153809,4318.461426,4295.641113,4233.077148,4499.102539,4495.384766,4388.461426,4406.282227,,,,,,,,,,,,,,,,,,,,,,,,,,,,,,,,,,,,,,,,,,,,,,,,,,,,,,,,,,,,,,,,,,,,,,
1768918675.1524,1768918675.152813,121.0,0.0,4321.025879,4246.153809,4338.205078,4335.512695,4282.820313,4304.871582,4324.102539,4317.563965,4299.743652,4233.846191,4503.846191,4504.871582,4387.94873,4406.666504,,,,,,,,,,,,,,,,,,,,,,,,,,,,,,,,,,,,,,,,,,,,,,,,,,,,,,,,,,,,,,,,,,,,,,
1768918675.160208,1768918675.160521,122.0,0.0,4320.384766,4245.897461,4340.897461,4337.563965,4287.563965,4307.307617,4327.05127,4327.05127,4309.102539,4239.871582,4508.205078,4510.0,4395.128418,4408.461426,,,,,,,,,,,,,,,,,,,,,,,,,,,,,,,,,,,,,,,,,,,,,,,,,,,,,,,,,,,,,,,,,,,,,,
1768918675.168017,1768918675.16833,123.0,0.0,4322.94873,4246.025879,4343.974121,4335.384766,4288.589844,4311.538574,4330.256348,4332.820313,4308.717773,4244.487305,4510.897461,4513.333496,4399.487305,4413.461426,,,,,,,,,,,,,,,,,,,,,,,,,,,,,,,,,,,,,,,,,,,,,,,,,,,,,,,,,,,,,,,,,,,,,,
1768918675.175825,1768918675.176338,124.0,0.0,4321.922852,4246.794922,4340.384766,4328.589844,4280.512695,4309.102539,4325.512695,4330.384766,4305.512695,4237.436035,4509.871582,4511.794922,4397.179688,4415.256348,,,,,,,,,,,,,,,,,,,,,,,,,,,,,,,,,,,,,,,,,,,,,,,,,,,,,,,,,,,,,,,,,,,,,,
1768918675.183634,1768918675.184146,125.0,0.0,4318.333496,4248.205078,4337.94873,4325.769043,4277.05127,4304.102539,4321.410156,4328.461426,4306.025879,4231.410156,4498.717773,4503.077148,4392.179688,4412.179688,,,,,,,,,,,,,,,,,,,,,,,,,,,,,,,,,,,,,,,,,,,,,,,,,,,,,,,,,,,,,,,,,,,,,,
1768918675.191442,1768918675.192054,126.0,0.0,4320.769043,4249.487305,4340.897461,4332.179688,4285.512695,4310.384766,4330.0,4328.974121,4304.230957,4231.794922,4490.256348,4501.922852,4387.563965,4407.692383,,,,,,,,,,,,,,,,,,,,,,,,,,,,,,,,,,,,,,,,,,,,,,,,,,,,,,,,,,,,,,,,,,,,,,
1768918675.199251,1768918675.199862,127.0,0.0,4323.717773,4249.102539,4342.05127,4336.666504,4291.410156,4317.563965,4335.512695,4327.692383,4302.436035,4233.077148,4496.025879,4507.436035,4388.974121,4403.461426,,,,,,,,,,,,,,,,,,,,,,,,,,,,,,,,,,,,,,,,,,,,,,,,,,,,,,,,,,,,,,,,,,,,,,
1768918675.20706,1768918675.20787,0.0,0.0,4319.615234,4247.179688,4340.769043,4332.94873,4290.256348,4312.307617,4327.436035,4326.410156,4304.487305,4236.025879,4499.358887,4504.230957,4391.025879,4402.05127,0.400744,0.260337,0.573313,0.217137,0.17944,0.43562,0.217586,0.289733,0.222536,0.159768,0.527099,0.501766,0.366246,0.318602,0.133988,0.429188,0.144033,0.270561,0.217614,0.127878,0.770019,0.205996,0.107354,0.067744,0.039853,0.118126,0.267175,0.141136,0.315272,0.115861,0.250924,0.711081,0.177049,0.601758,0.385553,0.441289,0.810804,0.171063,0.133722,0.098968,0.522752,0.631768,0.091898,0.103268,0.056206,0.314157,0.86462,0.058431,0.168152,0.09712,0.83841,1.019429,0.353125,0.332057,0.153518,1.025875,1.236577,0.450145,0.430338,0.130964,0.502175,0.473694,0.329417,0.334951,0.176274,0.746078,0.804499,0.416216,0.292787,0.170029
1768918675.214868,1768918675.215678,1.0,0.0,4315.512695,4245.897461,4341.922852,4329.358887,4287.307617,4306.538574,4321.666504,4328.333496,4304.871582,4237.05127,4493.846191,4503.461426,4387.05127,4400.641113,,,,,,,,,,,,,,,,,,,,,,,,,,,,,,,,,,,,,,,,,,,,,,,,,,,,,,,,,,,,,,,,,,,,,,
1768918675.222677,1768918675.223387,2.0,0.0,4316.922852,4245.769043,4343.461426,4331.282227,4285.384766,4308.846191,4330.128418,4330.512695,4299.358887,4231.794922,4491.666504,4504.871582,4381.153809,4398.589844,,,,,,,,,,,,,,,,,,,,,,,,,,,,,,,,,,,,,,,,,,,,,,,,,,,,,,,,,,,,,,,,,,,,,,
1768918675.230485,1768918675.231195,3.0,0.0,4323.333496,4246.282227,4342.436035,4334.615234,4286.153809,4310.897461,4337.436035,4327.05127,4292.563965,4229.743652,4492.05127,4496.538574,4381.282227,4399.102539,,,,,,,,,,,,,,,,,,,,,,,,,,,,,,,,,,,,,,,,,,,,,,,,,,,,,,,,,,,,,,,,,,,,,,
1768918675.238294,1768918675.239203,4.0,0.0,4327.179688,4247.94873,4337.436035,4337.820313,4289.102539,4308.974121,4335.641113,4325.256348,4296.410156,4230.769043,4490.769043,4491.153809,4386.153809,4403.461426,,,,,,,,,,,,,,,,,,,,,,,,,,,,,,,,,,,,,,,,,,,,,,,,,,,,,,,,,,,,,,,,,,,,,,
1768918675.246102,1768918675.247011,5.0,0.0,4325.256348,4249.230957,4336.410156,4339.871582,4291.666504,4310.128418,4333.974121,4331.153809,4307.307617,4232.692383,4496.410156,4499.871582,4389.871582,4409.230957,,,,,,,,,,,,,,,,,,,,,,,,,,,,,,,,,,,,,,,,,,,,,,,,,,,,,,,,,,,,,,,,,,,,,,
1768918675.253911,1768918675.254719,6.0,0.0,4324.230957,4250.256348,4345.384766,4341.410156,4295.384766,4311.153809,4334.871582,4333.461426,4310.897461,4241.410156,4505.128418,4508.333496,4389.102539,4410.641113,,,,,,,,,,,,,,,,,,,,,,,,,,,,,,,,,,,,,,,,,,,,,,,,,,,,,,,,,,,,,,,,,,,,,,
1768918675.261719,1768918675.262528,7.0,0.0,4328.205078,4255.769043,4351.410156,4343.846191,4297.820313,4308.333496,4335.897461,4330.769043,4310.512695,4249.615234,4506.025879,4508.077148,4388.717773,4409.230957,,,,,,,,,,,,,,,,,,,,,,,,,,,,,,,,,,,,,,,,,,,,,,,,,,,,,,,,,,,,,,,,,,,,,,
1768918675.269528,1768918675.270136,8.0,0.0,4330.0,4260.256348,4348.333496,4346.538574,4294.358887,4308.205078,4336.794922,4331.025879,4311.025879,4247.179688,4505.128418,4506.794922,4392.307617,4410.512695,,,,,,,,,,,,,,,,,,,,,,,,,,,,,,,,,,,,,,,,,,,,,,,,,,,,,,,,,,,,,,,,,,,,,,
1768918675.277336,1768918675.277944,9.0,0.0,4326.922852,4256.153809,4349.102539,4348.717773,4294.358887,4313.461426,4343.461426,4331.153809,4310.256348,4244.102539,4508.205078,4509.743652,4398.077148,4414.743652,,,,,,,,,,,,,,,,,,,,,,,,,,,,,,,,,,,,,,,,,,,,,,,,,,,,,,,,,,,,,,,,,,,,,,
1768918675.285145,1768918675.285652,10.0,0.0,4325.128418,4249.487305,4352.05127,4347.692383,4296.282227,4313.461426,4342.563965,4327.436035,4309.230957,4247.05127,4510.0,4516.410156,4399.358887,4415.128418,,,,,,,,,,,,,,,,,,,,,,,,,,,,,,,,,,,,,,,,,,,,,,,,,,,,,,,,,,,,,,,,,,,,,,
1768918675.292953,1768918675.293461,11.0,0.0,4325.128418,4246.794922,4345.641113,4344.487305,4292.563965,4305.128418,4330.384766,4325.897461,4308.461426,4248.077148,4509.358887,4521.666504,4398.077148,4412.436035,,,,,,,,,,,,,,,,,,,,,,,,,,,,,,,,,,,,,,,,,,,,,,,,,,,,,,,,,,,,,,,,,,,,,,
1768918675.300762,1768918675.301469,12.0,0.0,4325.769043,4247.179688,4340.0,4340.256348,4289.487305,4305.384766,4327.563965,4328.461426,4306.666504,4245.641113,4510.512695,4521.666504,4399.487305,4416.538574,,,,,,,,,,,,,,,,,,,,,,,,,,,,,,,,,,,,,,,,,,,,,,,,,,,,,,,,,,,,,,,,,,,,,,
1768918675.30857,1768918675.309277,13.0,0.0,4327.179688,4247.820313,4345.0,4338.974121,4291.410156,4311.794922,4331.538574,4332.179688,4306.282227,4244.743652,4510.897461,4522.563965,4400.384766,4422.820313,,,,,,,,,,,,,,,,,,,,,,,,,,,,,,,,,,,,,,,,,,,,,,,,,,,,,,,,,,,,,,,,,,,,,,
1768918675.316379,1768918675.317186,14.0,0.0,4328.333496,4247.820313,4348.205078,4340.0,4291.794922,4310.512695,4327.820313,4329.871582,4306.538574,4244.358887,4508.717773,4524.871582,4398.205078,4419.358887,,,,,,,,,,,,,,,,,,,,,,,,,,,,,,,,,,,,,,,,,,,,,,,,,,,,,,,,,,,,,,,,,,,,,,
1768918675.324187,1768918675.324994,15.0,0.0,4335.128418,4251.153809,4347.692383,4339.871582,4288.333496,4304.358887,4320.512695,4323.205078,4305.641113,4244.487305,4506.666504,4519.230957,4396.666504,4413.205078,,,,,,,,,,,,,,,,,,,,,,,,,,,,,,,,,,,,,,,,,,,,,,,,,,,,,,,,,,,,,,,,,,,,,,
1768918675.331996,1768918675.333002,16.0,0.0,4343.205078,4261.922852,4355.128418,4344.102539,4291.538574,4306.153809,4327.94873,4327.05127,4308.077148,4246.794922,4506.538574,4512.179688,4396.922852,4416.153809,0.302978,0.213456,0.61893,0.251041,0.17745,0.448746,0.243349,0.282623,0.237653,0.163342,0.498162,0.427706,0.343898,0.347254,0.137626,0.367807,0.133638,0.258067,0.234338,0.116768,0.690857,0.181471,0.111475,0.071574,0.037033,0.128006,0.275014,0.124195,0.355342,0.106485,0.272045,0.820815,0.194268,0.690902,0.372669,0.445961,0.705519,0.191931,0.128671,0.103282,0.499421,0.573541,0.088377,0.096439,0.052159,0.330338,0.773616,0.089332,0.161699,0.10278,0.829904,0.92544,0.383896,0.317002,0.139781,1.094704,1.13887,0.496124,0.444206,0.138086,0.501835,0.411733,0.387755,0.305089,0.144025,0.668809,0.760416,0.491418,0.303059,0.17806
1768918675.339804,1768918675.34081,17.0,0.0,4336.794922,4264.358887,4356.922852,4345.512695,4295.128418,4311.538574,4335.512695,4330.384766,4310.769043,4248.333496,4505.0,4517.94873,4396.666504,4418.333496,,,,,,,,,,,,,,,,,,,,,,,,,,,,,,,,,,,,,,,,,,,,,,,,,,,,,,,,,,,,,,,,,,,,,,
1768918675.347613,1768918675.348718,18.0,0.0,4324.487305,4252.05127,4345.128418,4337.563965,4289.743652,4309.230957,4326.794922,4326.538574,4309.102539,4247.05127,4503.717773,4520.384766,4395.256348,4415.897461,,,,,,,,,,,,,,,,,,,,,,,,,,,,,,,,,,,,,,,,,,,,,,,,,,,,,,,,,,,,,,,,,,,,,,
1768918675.355421,1768918675.356527,19.0,0.0,4326.410156,4248.589844,4342.563965,4334.743652,4289.102539,4305.512695,4321.538574,4326.282227,4307.563965,4247.179688,4505.769043,4513.333496,4395.769043,4416.410156,,,,,,,,,,,,,,,,,,,,,,,,,,,,,,,,,,,,,,,,,,,,,,,,,,,,,,,,,,,,,,,,,,,,,,
1768918675.36323,1768918675.364535,20.0,0.0,4330.256348,4259.871582,4351.153809,4341.794922,4294.743652,4307.563965,4325.769043,4327.179688,4306.410156,4248.717773,4505.512695,4510.897461,4397.179688,4415.769043,,,,,,,,,,,,,,,,,,,,,,,,,,,,,,,,,,,,,,,,,,,,,,,,,,,,,,,,,,,,,,,,,,,,,,
1768918675.371038,1768918675.372343,21.0,0.0,4326.666504,4264.871582,4350.384766,4343.333496,4293.077148,4308.717773,4325.641113,4324.615234,4304.743652,4247.436035,4502.94873,4508.974121,4395.897461,4410.641113,,,,,,,,,,,,,,,,,,,,,,,,,,,,,,,,,,,,,,,,,,,,,,,,,,,,,,,,,,,,,,,,,,,,,,
1768918675.378847,1768918675.380251,22.0,0.0,4330.0,4262.179688,4347.307617,4340.128418,4289.358887,4308.974121,4325.897461,4325.0,4304.871582,4247.179688,4504.871582,4509.743652,4394.615234,4408.846191,,,,,,,,,,,,,,,,,,,,,,,,,,,,,,,,,,,,,,,,,,,,,,,,,,,,,,,,,,,,,,,,,,,,,,
1768918675.386655,1768918675.388059,23.0,0.0,4334.615234,4261.282227,4351.282227,4341.153809,4291.666504,4310.256348,4328.717773,4325.512695,4304.102539,4248.846191,4507.563965,4514.358887,4395.897461,4413.077148,,,,,,,,,,,,,,,,,,,,,,,,,,,,,,,,,,,,,,,,,,,,,,,,,,,,,,,,,,,,,,,,,,,,,,
1768918675.394464,1768918675.396067,24.0,0.0,4329.615234,4263.333496,4352.94873,4343.846191,4292.94873,4307.05127,4320.512695,4323.717773,4303.461426,4247.307617,4507.692383,4513.333496,4398.717773,4416.025879,,,,,,,,,,,,,,,,,,,,,,,,,,,,,,,,,,,,,,,,,,,,,,,,,,,,,,,,,,,,,,,,,,,,,,
1768918675.402272,1768918675.403875,25.0,0.0,4326.410156,4266.538574,4350.256348,4345.0,4293.077148,4307.179688,4319.358887,4326.410156,4307.05127,4246.153809,4509.102539,4510.256348,4396.153809,4413.461426,,,,,,,,,,,,,,,,,,,,,,,,,,,,,,,,,,,,,,,,,,,,,,,,,,,,,,,,,,,,,,,,,,,,,,
1768918675.410081,1768918675.411784,26.0,0.0,4325.256348,4263.077148,4344.871582,4341.410156,4294.230957,4312.05127,4329.358887,4326.538574,4310.384766,4248.974121,4508.077148,4510.256348,4390.0,4410.512695,,,,,,,,,,,,,,,,,,,,,,,,,,,,,,,,,,,,,,,,,,,,,,,,,,,,,,,,,,,,,,,,,,,,,,
1768918675.417889,1768918675.419592,27.0,0.0,4322.307617,4257.05127,4339.102539,4337.692383,4294.615234,4310.0,4326.410156,4327.820313,4310.897461,4249.230957,4508.589844,4512.307617,4390.769043,4411.538574,,,,,,,,,,,,,,,,,,,,,,,,,,,,,,,,,,,,,,,,,,,,,,,,,,,,,,,,,,,,,,,,,,,,,,
1768918675.425698,1768918675.4272,28.0,0.0,4322.692383,4260.512695,4339.487305,4340.641113,4295.384766,4307.307617,4319.871582,4332.307617,4311.794922,4250.384766,4515.641113,4517.05127,4397.05127,4413.077148,,,,,,,,,,,,,,,,,,,,,,,,,,,,,,,,,,,,,,,,,,,,,,,,,,,,,,,,,,,,,,,,,,,,,,
1768918675.433506,1768918675.435008,29.0,0.0,4331.538574,4265.641113,4347.307617,4343.589844,4295.769043,4311.282227,4325.256348,4332.05127,4313.333496,4258.077148,4522.05127,4525.128418,4400.512695,4417.563965,,,,,,,,,,,,,,,,,,,,,,,,,,,,,,,,,,,,,,,,,,,,,,,,,,,,,,,,,,,,,,,,,,,,,,
1768918675.441315,1768918675.442717,30.0,0.0,4340.384766,4262.05127,4356.153809,4342.307617,4295.128418,4312.820313,4331.538574,4332.94873,4311.794922,4256.666504,4521.666504,4529.487305,4399.743652,4425.384766,,,,,,,,,,,,,,,,,,,,,,,,,,,,,,,,,,,,,,,,,,,,,,,,,,,,,,,,,,,,,,,,,,,,,,
1768918675.449124,1768918675.450525,31.0,0.0,4337.05127,4259.102539,4359.871582,4343.333496,4294.615234,4310.897461,4332.692383,4332.307617,4308.974121,4247.820313,4518.205078,4528.589844,4398.077148,4426.025879,,,,,,,,,,,,,,,,,,,,,,,,,,,,,,,,,,,,,,,,,,,,,,,,,,,,,,,,,,,,,,,,,,,,,,
1768918675.456932,1768918675.458133,32.0,0.0,4326.794922,4261.922852,4358.077148,4343.717773,4291.666504,4309.358887,4325.256348,4327.05127,4308.205078,4251.922852,4518.589844,4527.179688,4398.589844,4424.102539,0.271839,0.178018,0.666266,0.285639,0.164391,0.481538,0.254094,0.292773,0.251012,0.154277,0.503638,0.341454,0.361103,0.356949,0.135525,0.36027,0.131267,0.279708,0.243607,0.102732,0.632702,0.168554,0.112204,0.074508,0.035626,0.132043,0.270479,0.113496,0.378074,0.102652,0.28751,0.893435,0.223432,0.750303,0.35645,0.441608,0.609236,0.216242,0.121251,0.108066,0.469724,0.501618,0.096948,0.089513,0.053941,0.458385,0.66783,0.144799,0.150915,0.10642,0.933625,0.795025,0.403715,0.292182,0.137801,1.286359,1.0134,0.546675,0.447519,0.151417,0.621931,0.354656,0.466934,0.285317,0.132942,0.696351,0.692677,0.598901,0.309296,0.177538
1768918675.46474,1768918675.465941,33.0,0.0,4324.102539,4263.589844,4352.692383,4342.692383,4290.897461,4308.589844,4318.589844,4334.871582,4313.846191,4262.179688,4523.077148,4528.717773,4399.358887,4427.692383,,,,,,,,,,,,,,,,,,,,,,,,,,,,,,,,,,,,,,,,,,,,,,,,,,,,,,,,,,,,,,,,,,,,,,
1768918675.472549,1768918675.47365,34.0,0.0,4328.589844,4263.717773,4347.05127,4346.538574,4294.358887,4314.743652,4329.871582,4345.0,4318.077148,4259.102539,4520.769043,4529.615234,4398.589844,4426.922852,,,,,,,,,,,,,,,,,,,,,,,,,,,,,,,,,,,,,,,,,,,,,,,,,,,,,,,,,,,,,,,,,,,,,,
1768918675.480358,1768918675.481458,35.0,0.0,4332.179688,4266.025879,4343.077148,4351.025879,4295.384766,4317.436035,4337.307617,4334.358887,4312.307617,4251.410156,4510.0,4520.512695,4396.666504,4421.666504,,,,,,,,,,,,,,,,,,,,,,,,,,,,,,,,,,,,,,,,,,,,,,,,,,,,,,,,,,,,,,,,,,,,,,
1768918675.488166,1768918675.489066,36.0,0.0,4332.436035,4268.333496,4342.436035,4350.384766,4293.205078,4313.589844,4328.205078,4324.358887,4307.179688,4250.512695,4505.384766,4512.436035,4395.641113,4419.102539,,,,,,,,,,,,,,,,,,,,,,,,,,,,,,,,,,,,,,,,,,,,,,,,,,,,,,,,,,,,,,,,,,,,,,
1768918675.495975,1768918675.496875,37.0,0.0,4327.94873,4266.410156,4346.922852,4349.230957,4290.897461,4313.846191,4324.871582,4330.641113,4308.205078,4250.0,4508.846191,4514.743652,4392.692383,4417.05127,,,,,,,,,,,,,,,,,,,,,,,,,,,,,,,,,,,,,,,,,,,,,,,,,,,,,,,,,,,,,,,,,,,,,,
1768918675.503783,1768918675.504783,38.0,0.0,4325.128418,4264.230957,4349.615234,4351.666504,4291.025879,4315.128418,4329.615234,4332.05127,4310.256348,4248.974121,4509.358887,4516.410156,4388.974121,4415.128418,,,,,,,,,,,,,,,,,,,,,,,,,,,,,,,,,,,,,,,,,,,,,,,,,,,,,,,,,,,,,,,,,,,,,,
1768918675.511592,1768918675.512591,39.0,0.0,4326.666504,4264.230957,4345.128418,4352.179688,4293.717773,4311.794922,4325.0,4326.666504,4305.769043,4248.077148,4507.692383,4512.307617,4383.717773,4415.769043,,,,,,,,,,,,,,,,,,,,,,,,,,,,,,,,,,,,,,,,,,,,,,,,,,,,,,,,,,,,,,,,,,,,,,
1768918675.5194,1768918675.520599,40.0,0.0,4322.563965,4264.102539,4340.128418,4349.743652,4294.358887,4308.974121,4317.05127,4327.820313,4298.205078,4245.641113,4505.0,4504.230957,4378.974121,4412.05127,,,,,,,,,,,,,,,,,,,,,,,,,,,,,,,,,,,,,,,,,,,,,,,,,,,,,,,,,,,,,,,,,,,,,,
1768918675.527209,1768918675.528407,41.0,0.0,4318.974121,4264.102539,4339.102539,4350.128418,4294.102539,4310.256348,4322.05127,4329.615234,4297.307617,4243.717773,4501.794922,4498.205078,4380.769043,4408.205078,,,,,,,,,,,,,,,,,,,,,,,,,,,,,,,,,,,,,,,,,,,,,,,,,,,,,,,,,,,,,,,,,,,,,,
1768918675.535017,1768918675.536115,42.0,0.0,4323.717773,4265.128418,4338.717773,4347.94873,4294.615234,4310.769043,4326.666504,4327.179688,4301.922852,4246.410156,4504.871582,4497.563965,4383.077148,4411.410156,,,,,,,,,,,,,,,,,,,,,,,,,,,,,,,,,,,,,,,,,,,,,,,,,,,,,,,,,,,,,,,,,,,,,,
1768918675.542826,1768918675.543924,43.0,0.0,4327.436035,4263.589844,4340.897461,4345.384766,4293.717773,4310.384766,4321.538574,4328.461426,4306.153809,4248.846191,4508.589844,4503.589844,4379.358887,4417.692383,,,,,,,,,,,,,,,,,,,,,,,,,,,,,,,,,,,,,,,,,,,,,,,,,,,,,,,,,,,,,,,,,,,,,,
1768918675.550634,1768918675.551532,44.0,0.0,4324.102539,4261.025879,4343.205078,4346.794922,4292.307617,4310.641113,4320.256348,4330.769043,4307.94873,4248.589844,4508.974121,4513.974121,4381.666504,4421.666504,,,,,,,,,,,,,,,,,,,,,,,,,,,,,,,,,,,,,,,,,,,,,,,,,,,,,,,,,,,,,,,,,,,,,,
1768918675.558443,1768918675.55934,45.0,0.0,4323.846191,4260.769043,4342.563965,4348.205078,4292.436035,4309.615234,4324.358887,4332.05127,4309.487305,4251.538574,4513.717773,4523.461426,4393.589844,4423.974121,,,,,,,,,,,,,,,,,,,,,,,,,,,,,,,,,,,,,,,,,,,,,,,,,,,,,,,,,,,,,,,,,,,,,,
1768918675.566251,1768918675.567049,46.0,0.0,4335.384766,4265.128418,4348.846191,4354.358887,4295.512695,4312.820313,4328.717773,4334.102539,4310.512695,4255.0,4523.333496,4532.692383,4400.897461,4428.974121,,,,,,,,,,,,,,,,,,,,,,,,,,,,,,,,,,,,,,,,,,,,,,,,,,,,,,,,,,,,,,,,,,,,,,
1768918675.57406,1768918675.574857,47.0,0.0,4341.922852,4270.384766,4353.205078,4357.692383,4295.897461,4312.692383,4327.94873,4332.563965,4312.05127,4250.897461,4526.666504,4532.05127,4398.974121,4432.436035,,,,,,,,,,,,,,,,,,,,,,,,,,,,,,,,,,,,,,,,,,,,,,,,,,,,,,,,,,,,,,,,,,,,,,
1768918675.581868,1768918675.582865,48.0,0.0,4332.05127,4269.358887,4345.897461,4347.820313,4289.358887,4304.615234,4317.692383,4326.666504,4311.410156,4248.589844,4518.461426,4524.102539,4394.230957,4429.230957,0.265011,0.152147,0.715199,0.312416,0.144491,0.506036,0.242457,0.32439,0.263173,0.135518,0.486582,0.253255,0.40132,0.345822,0.128178,0.375455,0.129355,0.331937,0.247381,0.087493,0.579298,0.158253,0.113463,0.076635,0.035724,0.131021,0.24271,0.10665,0.367581,0.10201,0.30139,0.897221,0.246433,0.747657,0.333632,0.409584,0.529747,0.237146,0.11203,0.110639,0.4359,0.436525,0.113228,0.083309,0.05941,0.585931,0.574118,0.221667,0.135829,0.106443,1.085069,0.6667,0.414154,0.257793,0.139858,1.448487,0.898453,0.585598,0.438876,0.169133,0.819007,0.319352,0.547586,0.269243,0.141217,0.757668,0.625687,0.714047,0.301448,0.169536
1768918675.589677,1768918675.590673,49.0,0.0,4323.333496,4264.743652,4341.666504,4340.0,4284.743652,4301.538574,4309.230957,4329.102539,4310.0,4257.179688,4509.615234,4522.692383,4391.153809,4425.0,,,,,,,,,,,,,,,,,,,,,,,,,,,,,,,,,,,,,,,,,,,,,,,,,,,,,,,,,,,,,,,,,,,,,,
1768918675.597485,1768918675.598581,50.0,0.0,4323.333496,4263.717773,4343.461426,4343.333496,4286.410156,4306.922852,4314.358887,4332.563965,4311.794922,4258.717773,4508.205078,4515.512695,4388.333496,4418.717773,,,,,,,,,,,,,,,,,,,,,,,,,,,,,,,,,,,,,,,,,,,,,,,,,,,,,,,,,,,,,,,,,,,,,,
1768918675.605294,1768918675.606389,51.0,0.0,4321.666504,4265.769043,4340.384766,4344.102539,4287.179688,4307.94873,4322.563965,4326.794922,4310.384766,4252.820313,4508.333496,4503.974121,4384.743652,4410.128418,,,,,,,,,,,,,,,,,,,,,,,,,,,,,,,,,,,,,,,,,,,,,,,,,,,,,,,,,,,,,,,,,,,,,,
1768918675.613102,1768918675.614397,52.0,0.0,4319.871582,4265.641113,4337.179688,4344.358887,4287.820313,4306.153809,4325.128418,4323.846191,4308.461426,4257.179688,4509.743652,4508.717773,4385.641113,4409.358887,,,,,,,,,,,,,,,,,,,,,,,,,,,,,,,,,,,,,,,,,,,,,,,,,,,,,,,,,,,,,,,,,,,,,,
1768918675.620911,1768918675.622206,53.0,0.0,4323.846191,4267.436035,4340.512695,4349.871582,4290.0,4309.230957,4323.461426,4328.333496,4310.512695,4265.384766,4516.153809,4521.282227,4394.487305,4417.692383,,,,,,,,,,,,,,,,,,,,,,,,,,,,,,,,,,,,,,,,,,,,,,,,,,,,,,,,,,,,,,,,,,,,,,
1768918675.628719,1768918675.629914,54.0,0.0,4327.179688,4269.743652,4344.102539,4352.692383,4290.0,4309.871582,4322.05127,4332.94873,4312.307617,4264.102539,4522.820313,4516.666504,4401.153809,4420.641113,,,,,,,,,,,,,,,,,,,,,,,,,,,,,,,,,,,,,,,,,,,,,,,,,,,,,,,,,,,,,,,,,,,,,,
1768918675.636528,1768918675.637722,55.0,0.0,4326.794922,4268.846191,4341.025879,4349.487305,4290.897461,4308.077148,4324.487305,4332.692383,4311.666504,4262.05127,4521.282227,4508.974121,4394.487305,4418.333496,,,,,,,,,,,,,,,,,,,,,,,,,,,,,,,,,,,,,,,,,,,,,,,,,,,,,,,,,,,,,,,,,,,,,,
1768918675.644336,1768918675.64533,56.0,0.0,4325.512695,4271.282227,4333.846191,4344.615234,4291.153809,4306.153809,4315.641113,4325.0,4310.128418,4263.846191,4517.692383,4511.538574,4390.641113,4419.487305,,,,,,,,,,,,,,,,,,,,,,,,,,,,,,,,,,,,,,,,,,,,,,,,,,,,,,,,,,,,,,,,,,,,,,
1768918675.652145,1768918675.653139,57.0,0.0,4328.846191,4278.461426,4334.358887,4345.512695,4288.717773,4304.615234,4307.179688,4323.205078,4308.974121,4261.538574,4521.410156,4519.102539,4395.128418,4425.512695,,,,,,,,,,,,,,,,,,,,,,,,,,,,,,,,,,,,,,,,,,,,,,,,,,,,,,,,,,,,,,,,,,,,,,
1768918675.659953,1768918675.660847,58.0,0.0,4334.871582,4279.358887,4345.256348,4349.487305,4291.538574,4310.897461,4322.05127,4333.717773,4308.974121,4262.820313,4524.358887,4528.846191,4396.922852,4431.410156,,,,,,,,,,,,,,,,,,,,,,,,,,,,,,,,,,,,,,,,,,,,,,,,,,,,,,,,,,,,,,,,,,,,,,
1768918675.667762,1768918675.668655,59.0,0.0,4332.436035,4271.410156,4349.102539,4345.256348,4290.641113,4312.05127,4326.153809,4334.487305,4309.102539,4262.563965,4515.256348,4529.102539,4389.230957,4426.538574,,,,,,,,,,,,,,,,,,,,,,,,,,,,,,,,,,,,,,,,,,,,,,,,,,,,,,,,,,,,,,,,,,,,,,
1768918675.67557,1768918675.676264,60.0,0.0,4317.692383,4258.589844,4336.922852,4335.0,4279.871582,4304.102539,4307.179688,4325.512695,4308.846191,4251.538574,4502.307617,4515.897461,4375.641113,4409.615234,,,,,,,,,,,,,,,,,,,,,,,,,,,,,,,,,,,,,,,,,,,,,,,,,,,,,,,,,,,,,,,,,,,,,,
1768918675.683379,1768918675.684072,61.0,0.0,4307.05127,4251.666504,4322.563965,4329.615234,4275.512695,4304.230957,4303.717773,4325.769043,4310.0,4248.589844,4501.282227,4501.025879,4371.025879,4401.025879,,,,,,,,,,,,,,,,,,,,,,,,,,,,,,,,,,,,,,,,,,,,,,,,,,,,,,,,,,,,,,,,,,,,,,
1768918675.691188,1768918675.69198,62.0,0.0,4316.922852,4267.692383,4326.922852,4338.461426,4284.615234,4312.179688,4317.563965,4331.025879,4314.743652,4265.897461,4515.128418,4503.846191,4387.307617,4415.641113,,,,,,,,,,,,,,,,,,,,,,,,,,,,,,,,,,,,,,,,,,,,,,,,,,,,,,,,,,,,,,,,,,,,,,
1768918675.698996,1768918675.699788,63.0,0.0,4336.282227,4289.615234,4343.205078,4355.384766,4291.922852,4314.358887,4322.820313,4335.512695,4323.717773,4283.589844,4530.897461,4520.897461,4410.641113,4431.538574,,,,,,,,,,,,,,,,,,,,,,,,,,,,,,,,,,,,,,,,,,,,,,,,,,,,,,,,,,,,,,,,,,,,,,
1768918675.706804,1768918675.707796,64.0,0.0,4338.589844,4288.205078,4349.358887,4355.641113,4288.974121,4309.487305,4316.794922,4339.102539,4326.410156,4281.153809,4532.820313,4527.820313,4410.897461,4431.538574,0.259877,0.137484,0.759248,0.327086,0.124793,0.511747,0.217514,0.374836,0.273366,0.11373,0.431436,0.183903,0.43896,0.321668,0.118716,0.41537,0.128686,0.397793,0.247892,0.074021,0.525077,0.143275,0.118442,0.078482,0.03716,0.122248,0.194403,0.100427,0.319668,0.103024,0.314441,0.824174,0.249337,0.670084,0.305386,0.356173,0.465049,0.248003,0.102274,0.108894,0.400668,0.392387,0.134344,0.080688,0.065375,0.728292,0.512678,0.30367,0.121861,0.10298,1.259197,0.573286,0.41379,0.223657,0.139283,1.587616,0.826909,0.603272,0.42395,0.189402,1.051337,0.313133,0.602129,0.255601,0.160637,0.853681,0.581199,0.804725,0.278587,0.15771
1768918675.714613,1768918675.715604,65.0,0.0,4326.025879,4275.897461,4340.384766,4341.282227,4281.922852,4305.128418,4309.358887,4333.589844,4314.743652,4269.871582,4522.820313,4522.05127,4397.820313,4427.563965,,,,,,,,,,,,,,,,,,,,,,,,,,,,,,,,,,,,,,,,,,,,,,,,,,,,,,,,,,,,,,,,,,,,,,
1768918675.722422,1768918675.723512,66.0,0.0,4322.436035,4274.871582,4332.820313,4341.666504,4279.230957,4306.282227,4309.230957,4323.461426,4304.615234,4264.230957,4517.94873,4516.794922,4396.025879,4426.794922,,,,,,,,,,,,,,,,,,,,,,,,,,,,,,,,,,,,,,,,,,,,,,,,,,,,,,,,,,,,,,,,,,,,,,
1768918675.73023,1768918675.731321,67.0,0.0,4327.436035,4280.256348,4331.794922,4351.410156,4284.358887,4308.717773,4310.256348,4326.538574,4307.307617,4263.589844,4519.743652,4515.769043,4398.333496,4428.461426,,,,,,,,,,,,,,,,,,,,,,,,,,,,,,,,,,,,,,,,,,,,,,,,,,,,,,,,,,,,,,,,,,,,,,
1768918675.738039,1768918675.738929,68.0,0.0,4333.846191,4282.179688,4333.333496,4352.692383,4286.153809,4307.179688,4309.615234,4329.743652,4310.256348,4265.128418,4521.410156,4515.256348,4401.153809,4429.102539,,,,,,,,,,,,,,,,,,,,,,,,,,,,,,,,,,,,,,,,,,,,,,,,,,,,,,,,,,,,,,,,,,,,,,
1768918675.745847,1768918675.746737,69.0,0.0,4334.743652,4281.282227,4338.589844,4350.512695,4282.436035,4309.230957,4318.333496,4323.077148,4309.743652,4266.025879,4522.692383,4518.717773,4404.743652,4427.307617,,,,,,,,,,,,,,,,,,,,,,,,,,,,,,,,,,,,,,,,,,,,,,,,,,,,,,,,,,,,,,,,,,,,,,
1768918675.753656,1768918675.754446,70.0,0.0,4331.282227,4277.05127,4341.666504,4349.871582,4283.077148,4312.820313,4321.025879,4324.358887,4310.641113,4267.179688,4523.589844,4524.230957,4401.025879,4429.615234,,,,,,,,,,,,,,,,,,,,,,,,,,,,,,,,,,,,,,,,,,,,,,,,,,,,,,,,,,,,,,,,,,,,,,
1768918675.761464,1768918675.762254,71.0,0.0,4332.307617,4275.128418,4338.205078,4348.205078,4286.538574,4309.615234,4310.512695,4328.846191,4310.128418,4266.282227,4522.179688,4520.769043,4395.641113,4431.922852,,,,,,,,,,,,,,,,,,,,,,,,,,,,,,,,,,,,,,,,,,,,,,,,,,,,,,,,,,,,,,,,,,,,,,
1768918675.769273,1768918675.770262,72.0,0.0,4333.717773,4277.563965,4338.589844,4350.256348,4291.025879,4309.358887,4309.358887,4321.794922,4307.436035,4261.538574,4513.974121,4509.615234,4399.871582,4422.436035,,,,,,,,,,,,,,,,,,,,,,,,,,,,,,,,,,,,,,,,,,,,,,,,,,,,,,,,,,,,,,,,,,,,,,
1768918675.777081,1768918675.77807,73.0,0.0,4330.256348,4282.307617,4344.871582,4353.589844,4294.358887,4312.05127,4311.794922,4313.717773,4304.871582,4257.94873,4505.128418,4503.461426,4397.563965,4415.512695,,,,,,,,,,,,,,,,,,,,,,,,,,,,,,,,,,,,,,,,,,,,,,,,,,,,,,,,,,,,,,,,,,,,,,
1768918675.78489,1768918675.785978,74.0,0.0,4327.05127,4281.025879,4339.487305,4348.205078,4290.897461,4308.077148,4307.820313,4319.102539,4305.384766,4260.384766,4510.0,4512.179688,4391.666504,4422.563965,,,,,,,,,,,,,,,,,,,,,,,,,,,,,,,,,,,,,,,,,,,,,,,,,,,,,,,,,,,,,,,,,,,,,,
1768918675.792698,1768918675.793786,75.0,0.0,4327.563965,4275.0,4327.436035,4339.487305,4281.282227,4306.538574,4312.94873,4326.410156,4309.487305,4265.897461,4521.922852,4525.0,4404.487305,4432.307617,,,,,,,,,,,,,,,,,,,,,,,,,,,,,,,,,,,,,,,,,,,,,,,,,,,,,,,,,,,,,,,,,,,,,,
1768918675.800507,1768918675.801794,76.0,0.0,4328.846191,4273.333496,4333.717773,4338.333496,4279.230957,4311.410156,4321.282227,4326.282227,4312.05127,4266.410156,4527.307617,4525.384766,4408.205078,4435.769043,,,,,,,,,,,,,,,,,,,,,,,,,,,,,,,,,,,,,,,,,,,,,,,,,,,,,,,,,,,,,,,,,,,,,,
1768918675.808315,1768918675.809603,77.0,0.0,4332.94873,4278.974121,4346.153809,4347.05127,4283.205078,4311.153809,4313.589844,4326.025879,4312.05127,4264.358887,4522.436035,4524.743652,4390.641113,4429.615234,,,,,,,,,,,,,,,,,,,,,,,,,,,,,,,,,,,,,,,,,,,,,,,,,,,,,,,,,,,,,,,,,,,,,,
1768918675.816124,1768918675.817311,78.0,0.0,4337.179688,4284.230957,4347.05127,4352.692383,4280.897461,4302.05127,4297.692383,4326.538574,4309.871582,4264.487305,4511.922852,4523.717773,4387.436035,4421.153809,,,,,,,,,,,,,,,,,,,,,,,,,,,,,,,,,,,,,,,,,,,,,,,,,,,,,,,,,,,,,,,,,,,,,,
1768918675.823932,1768918675.825119,79.0,0.0,4333.205078,4281.794922,4339.871582,4346.794922,4281.538574,4299.358887,4296.922852,4323.974121,4303.461426,4262.820313,4505.641113,4512.563965,4391.538574,4420.256348,,,,,,,,,,,,,,,,,,,,,,,,,,,,,,,,,,,,,,,,,,,,,,,,,,,,,,,,,,,,,,,,,,,,,,
1768918675.831741,1768918675.832727,80.0,0.0,4327.820313,4279.487305,4332.563965,4341.922852,4289.487305,4310.256348,4315.128418,4318.077148,4299.487305,4258.333496,4507.820313,4504.102539,4385.769043,4425.769043,0.247692,0.130959,0.786936,0.328898,0.110923,0.492513,0.191114,0.433816,0.27812,0.095832,0.345789,0.144748,0.454397,0.298211,0.110569,0.477489,0.130675,0.455976,0.245787,0.064583,0.467835,0.121444,0.127633,0.080848,0.039483,0.109874,0.137482,0.09301,0.245474,0.104811,0.333419,0.691547,0.228691,0.535935,0.276827,0.298682,0.412765,0.247418,0.093584,0.10297,0.37411,0.373122,0.163005,0.082874,0.069032,0.818258,0.486693,0.367982,0.114206,0.097869,1.413861,0.522508,0.403328,0.198168,0.132526,1.705194,0.817591,0.598259,0.40703,0.207718,1.242382,0.329762,0.612887,0.241485,0.179185,0.945383,0.566396,0.845105,0.242907,0.145278
1768918675.839549,1768918675.840536,81.0,0.0,4325.512695,4279.487305,4325.128418,4343.205078,4289.871582,4308.333496,4317.563965,4316.922852,4303.846191,4257.94873,4509.743652,4508.205078,4388.974121,4429.230957,,,,,,,,,,,,,,,,,,,,,,,,,,,,,,,,,,,,,,,,,,,,,,,,,,,,,,,,,,,,,,,,,,,,,,
1768918675.847358,1768918675.848244,82.0,0.0,4325.0,4278.846191,4319.615234,4341.666504,4286.794922,4295.128418,4301.410156,4318.461426,4307.820313,4262.307617,4508.589844,4509.615234,4399.230957,4431.153809,,,,,,,,,,,,,,,,,,,,,,,,,,,,,,,,,,,,,,,,,,,,,,,,,,,,,,,,,,,,,,,,,,,,,,
1768918675.855166,1768918675.856052,83.0,0.0,4328.077148,4281.153809,4321.282227,4341.666504,4289.871582,4297.692383,4300.769043,4319.743652,4306.410156,4261.666504,4508.589844,4508.205078,4388.589844,4431.282227,,,,,,,,,,,,,,,,,,,,,,,,,,,,,,,,,,,,,,,,,,,,,,,,,,,,,,,,,,,,,,,,,,,,,,
1768918675.862975,1768918675.863661,84.0,0.0,4335.641113,4286.794922,4332.436035,4348.974121,4289.358887,4308.333496,4313.205078,4322.692383,4306.410156,4257.692383,4508.974121,4512.05127,4377.94873,4428.717773,,,,,,,,,,,,,,,,,,,,,,,,,,,,,,,,,,,,,,,,,,,,,,,,,,,,,,,,,,,,,,,,,,,,,,
1768918675.870783,1768918675.871469,85.0,0.0,4342.692383,4292.179688,4345.512695,4353.077148,4285.512695,4304.615234,4309.358887,4319.615234,4306.282227,4260.0,4506.794922,4511.794922,4389.487305,4428.717773,,,,,,,,,,,,,,,,,,,,,,,,,,,,,,,,,,,,,,,,,,,,,,,,,,,,,,,,,,,,,,,,,,,,,,
1768918675.878592,1768918675.879177,86.0,0.0,4340.512695,4289.102539,4343.974121,4350.128418,4289.487305,4294.487305,4300.641113,4314.358887,4301.666504,4262.307617,4505.0,4507.692383,4396.410156,4432.05127,,,,,,,,,,,,,,,,,,,,,,,,,,,,,,,,,,,,,,,,,,,,,,,,,,,,,,,,,,,,,,,,,,,,,,
1768918675.8864,1768918675.886985,87.0,0.0,4331.794922,4281.282227,4333.461426,4347.179688,4293.461426,4295.897461,4305.769043,4314.743652,4298.846191,4261.153809,4508.589844,4507.94873,4391.025879,4432.563965,,,,,,,,,,,,,,,,,,,,,,,,,,,,,,,,,,,,,,,,,,,,,,,,,,,,,,,,,,,,,,,,,,,,,,
1768918675.894209,1768918675.894993,88.0,0.0,4326.794922,4280.384766,4325.128418,4344.743652,4291.153809,4305.384766,4312.563965,4315.897461,4296.282227,4258.974121,4507.05127,4507.436035,4386.666504,4423.717773,,,,,,,,,,,,,,,,,,,,,,,,,,,,,,,,,,,,,,,,,,,,,,,,,,,,,,,,,,,,,,,,,,,,,,
1768918675.902017,1768918675.902802,89.0,0.0,4321.025879,4277.820313,4319.358887,4338.333496,4290.512695,4310.769043,4313.205078,4313.461426,4295.641113,4258.077148,4496.794922,4504.615234,4382.692383,4416.282227,,,,,,,,,,,,,,,,,,,,,,,,,,,,,,,,,,,,,,,,,,,,,,,,,,,,,,,,,,,,,,,,,,,,,,
1768918675.909826,1768918675.91071,90.0,0.0,4313.974121,4267.05127,4317.05127,4336.410156,4290.769043,4309.487305,4311.922852,4316.410156,4301.922852,4259.615234,4495.384766,4504.487305,4379.358887,4417.820313,,,,,,,,,,,,,,,,,,,,,,,,,,,,,,,,,,,,,,,,,,,,,,,,,,,,,,,,,,,,,,,,,,,,,,
1768918675.917634,1768918675.918518,91.0,0.0,4316.666504,4268.461426,4326.025879,4343.205078,4288.717773,4309.487305,4315.897461,4327.820313,4311.538574,4263.077148,4506.922852,4512.563965,4383.974121,4422.563965,,,,,,,,,,,,,,,,,,,,,,,,,,,,,,,,,,,,,,,,,,,,,,,,,,,,,,,,,,,,,,,,,,,,,,
1768918675.925443,1768918675.926526,92.0,0.0,4325.769043,4281.410156,4339.871582,4346.410156,4283.846191,4302.820313,4309.487305,4331.025879,4312.692383,4264.102539,4508.717773,4519.230957,4390.384766,4424.743652,,,,,,,,,,,,,,,,,,,,,,,,,,,,,,,,,,,,,,,,,,,,,,,,,,,,,,,,,,,,,,,,,,,,,,
1768918675.933252,1768918675.934334,93.0,0.0,4331.153809,4280.897461,4342.436035,4343.717773,4278.974121,4290.384766,4295.641113,4327.436035,4309.230957,4264.487305,4504.487305,4522.307617,4391.666504,4427.820313,,,,,,,,,,,,,,,,,,,,,,,,,,,,,,,,,,,,,,,,,,,,,,,,,,,,,,,,,,,,,,,,,,,,,,
1768918675.94106,1768918675.942042,94.0,0.0,4338.846191,4277.179688,4347.05127,4351.282227,4285.0,4294.871582,4302.436035,4326.538574,4310.897461,4269.230957,4516.282227,4533.974121,4396.666504,4440.128418,,,,,,,,,,,,,,,,,,,,,,,,,,,,,,,,,,,,,,,,,,,,,,,,,,,,,,,,,,,,,,,,,,,,,,
1768918675.948868,1768918675.949851,95.0,0.0,4345.512695,4281.922852,4361.025879,4361.410156,4295.128418,4306.794922,4315.897461,4328.717773,4312.563965,4270.256348,4525.512695,4540.641113,4400.256348,4446.538574,,,,,,,,,,,,,,,,,,,,,,,,,,,,,,,,,,,,,,,,,,,,,,,,,,,,,,,,,,,,,,,,,,,,,,
1768918675.956677,1768918675.957459,96.0,0.0,4340.512695,4280.0,4358.589844,4359.102539,4297.692383,4307.179688,4311.410156,4327.05127,4308.461426,4265.897461,4516.153809,4527.820313,4396.922852,4437.307617,0.230395,0.134142,0.790596,0.325997,0.105629,0.446168,0.175003,0.489188,0.278855,0.086584,0.258304,0.139255,0.440298,0.291166,0.106756,0.55379,0.138264,0.490978,0.242693,0.060752,0.402868,0.098705,0.140263,0.084445,0.042243,0.097124,0.086033,0.085571,0.165515,0.106433,0.35455,0.533177,0.194051,0.387453,0.254851,0.257003,0.36892,0.232994,0.087996,0.096232,0.364885,0.373021,0.198882,0.089666,0.069165,0.849772,0.482775,0.396406,0.117399,0.094095,1.521348,0.502499,0.390029,0.188063,0.121394,1.832284,0.883802,0.581605,0.395081,0.219358,1.351044,0.358829,0.587083,0.227229,0.188112,1.020725,0.586221,0.829435,0.203414,0.13464
1768918675.964486,1768918675.965267,97.0,0.0,4334.743652,4273.333496,4341.025879,4353.077148,4295.769043,4303.333496,4306.153809,4321.538574,4301.922852,4262.692383,4505.897461,4515.897461,4393.717773,4427.692383,,,,,,,,,,,,,,,,,,,,,,,,,,,,,,,,,,,,,,,,,,,,,,,,,,,,,,,,,,,,,,,,,,,,,,
1768918675.972294,1768918675.973175,98.0,0.0,4337.692383,4274.743652,4341.922852,4350.897461,4297.436035,4310.0,4321.153809,4324.230957,4304.615234,4261.922852,4509.358887,4522.307617,4395.0,4432.307617,,,,,,,,,,,,,,,,,,,,,,,,,,,,,,,,,,,,,,,,,,,,,,,,,,,,,,,,,,,,,,,,,,,,,,
1768918675.980102,1768918675.980984,99.0,0.0,4340.769043,4277.94873,4354.230957,4352.820313,4299.358887,4319.230957,4331.410156,4335.0,4313.589844,4267.307617,4518.333496,4534.743652,4397.692383,4441.025879,,,,,,,,,,,,,,,,,,,,,,,,,,,,,,,,,,,,,,,,,,,,,,,,,,,,,,,,,,,,,,,,,,,,,,
1768918675.987911,1768918675.988992,100.0,0.0,4340.384766,4280.641113,4355.256348,4358.846191,4297.307617,4313.589844,4318.974121,4334.871582,4312.820313,4274.871582,4521.922852,4538.974121,4397.820313,4444.230957,,,,,,,,,,,,,,,,,,,,,,,,,,,,,,,,,,,,,,,,,,,,,,,,,,,,,,,,,,,,,,,,,,,,,,
1768918675.99572,1768918675.9968,101.0,0.0,4344.487305,4286.794922,4359.230957,4364.102539,4298.461426,4303.846191,4304.871582,4324.743652,4305.512695,4275.0,4520.512695,4535.769043,4397.436035,4443.717773,,,,,,,,,,,,,,,,,,,,,,,,,,,,,,,,,,,,,,,,,,,,,,,,,,,,,,,,,,,,,,,,,,,,,,
1768918676.003528,1768918676.004708,102.0,0.0,4353.461426,4292.05127,4365.0,4366.282227,4303.461426,4308.333496,4309.871582,4326.282227,4306.410156,4272.307617,4519.230957,4536.153809,4398.077148,4443.461426,,,,,,,,,,,,,,,,,,,,,,,,,,,,,,,,,,,,,,,,,,,,,,,,,,,,,,,,,,,,,,,,,,,,,,
1768918676.011337,1768918676.012516,103.0,0.0,4351.794922,4292.05127,4362.05127,4367.563965,4306.410156,4315.0,4320.384766,4333.461426,4311.282227,4275.0,4523.077148,4537.179688,4398.077148,4442.692383,,,,,,,,,,,,,,,,,,,,,,,,,,,,,,,,,,,,,,,,,,,,,,,,,,,,,,,,,,,,,,,,,,,,,,
1768918676.019145,1768918676.020124,104.0,0.0,4342.436035,4288.974121,4352.436035,4365.897461,4301.410156,4310.641113,4315.384766,4330.769043,4309.743652,4274.615234,4522.692383,4526.666504,4396.153809,4438.974121,,,,,,,,,,,,,,,,,,,,,,,,,,,,,,,,,,,,,,,,,,,,,,,,,,,,,,,,,,,,,,,,,,,,,,
1768918676.026954,1768918676.027933,105.0,0.0,4340.384766,4284.743652,4345.641113,4359.871582,4294.615234,4307.436035,4308.077148,4326.794922,4308.205078,4272.820313,4518.974121,4521.410156,4398.589844,4437.436035,,,,,,,,,,,,,,,,,,,,,,,,,,,,,,,,,,,,,,,,,,,,,,,,,,,,,,,,,,,,,,,,,,,,,,
1768918676.034762,1768918676.035641,106.0,0.0,4341.410156,4280.512695,4345.897461,4357.05127,4292.94873,4310.384766,4314.230957,4330.384766,4310.769043,4277.692383,4522.436035,4531.282227,4407.563965,4440.512695,,,,,,,,,,,,,,,,,,,,,,,,,,,,,,,,,,,,,,,,,,,,,,,,,,,,,,,,,,,,,,,,,,,,,,
1768918676.042571,1768918676.043449,107.0,0.0,4338.205078,4282.179688,4351.025879,4359.230957,4294.102539,4312.94873,4320.769043,4335.897461,4311.922852,4283.461426,4526.666504,4539.358887,4414.102539,4442.05127,,,,,,,,,,,,,,,,,,,,,,,,,,,,,,,,,,,,,,,,,,,,,,,,,,,,,,,,,,,,,,,,,,,,,,
1768918676.050379,1768918676.051058,108.0,0.0,4337.820313,4288.333496,4352.563965,4360.256348,4295.128418,4311.794922,4312.820313,4335.897461,4311.025879,4283.846191,4525.897461,4539.358887,4408.461426,4440.897461,,,,,,,,,,,,,,,,,,,,,,,,,,,,,,,,,,,,,,,,,,,,,,,,,,,,,,,,,,,,,,,,,,,,,,
1768918676.058188,1768918676.058866,109.0,0.0,4339.487305,4291.538574,4346.666504,4358.461426,4296.538574,4308.974121,4305.641113,4329.230957,4311.153809,4281.153809,4524.743652,4532.563965,4398.846191,4439.743652,,,,,,,,,,,,,,,,,,,,,,,,,,,,,,,,,,,,,,,,,,,,,,,,,,,,,,,,,,,,,,,,,,,,,,
1768918676.065996,1768918676.066574,110.0,0.0,4335.384766,4289.102539,4341.922852,4357.563965,4297.179688,4306.410156,4308.846191,4325.897461,4310.641113,4277.692383,4520.384766,4521.410156,4399.743652,4437.179688,,,,,,,,,,,,,,,,,,,,,,,,,,,,,,,,,,,,,,,,,,,,,,,,,,,,,,,,,,,,,,,,,,,,,,
1768918676.073805,1768918676.074382,111.0,0.0,4327.307617,4282.94873,4338.461426,4351.153809,4294.358887,4303.974121,4307.563965,4328.333496,4309.230957,4275.384766,4510.769043,4518.717773,4402.820313,4433.205078,,,,,,,,,,,,,,,,,,,,,,,,,,,,,,,,,,,,,,,,,,,,,,,,,,,,,,,,,,,,,,,,,,,,,,
1768918676.081613,1768918676.081991,112.0,0.0,4321.666504,4278.589844,4338.077148,4342.436035,4293.974121,4306.922852,4306.153809,4326.410156,4309.358887,4275.512695,4506.666504,4521.538574,4396.922852,4427.94873,0.218481,0.14751,0.769917,0.334076,0.108798,0.377643,0.174833,0.529288,0.285266,0.087539,0.193348,0.162317,0.404989,0.317564,0.10952,0.623695,0.154413,0.497337,0.243435,0.063699,0.338766,0.084727,0.154975,0.090027,0.04543,0.092668,0.050532,0.08099,0.100073,0.107289,0.371684,0.384521,0.162135,0.271257,0.244706,0.243256,0.329012,0.205515,0.088262,0.093375,0.374417,0.379175,0.237419,0.101431,0.066368,0.815516,0.480396,0.384323,0.135071,0.094126,1.556138,0.494878,0.385972,0.201067,0.11052,1.952859,1.01724,0.571413,0.400035,0.220912,1.355001,0.388603,0.555685,0.221408,0.186152,1.068934,0.632287,0.774733,0.175768,0.126744
1768918676.089422,1768918676.089799,113.0,0.0,4320.256348,4276.410156,4340.641113,4344.487305,4294.743652,4311.025879,4311.794922,4324.358887,4308.846191,4275.769043,4508.461426,4515.256348,4392.563965,4421.410156,,,,,,,,,,,,,,,,,,,,,,,,,,,,,,,,,,,,,,,,,,,,,,,,,,,,,,,,,,,,,,,,,,,,,,
1768918676.09723,1768918676.097707,114.0,0.0,4325.384766,4280.256348,4343.461426,4353.205078,4294.102539,4308.461426,4311.922852,4321.794922,4306.410156,4276.922852,4507.179688,4510.641113,4395.512695,4421.025879,,,,,,,,,,,,,,,,,,,,,,,,,,,,,,,,,,,,,,,,,,,,,,,,,,,,,,,,,,,,,,,,,,,,,,
1768918676.105039,1768918676.105515,115.0,0.0,4333.333496,4288.333496,4345.897461,4355.512695,4296.282227,4307.05127,4306.794922,4322.820313,4307.05127,4280.0,4506.922852,4518.205078,4398.077148,4426.282227,,,,,,,,,,,,,,,,,,,,,,,,,,,,,,,,,,,,,,,,,,,,,,,,,,,,,,,,,,,,,,,,,,,,,,
1768918676.112847,1768918676.113523,116.0,0.0,4333.333496,4286.666504,4345.0,4350.897461,4297.820313,4313.205078,4312.692383,4330.641113,4311.153809,4281.025879,4509.615234,4523.205078,4397.820313,4429.743652,,,,,,,,,,,,,,,,,,,,,,,,,,,,,,,,,,,,,,,,,,,,,,,,,,,,,,,,,,,,,,,,,,,,,,
1768918676.120656,1768918676.121332,117.0,0.0,4328.333496,4280.512695,4343.717773,4349.102539,4295.641113,4312.436035,4313.077148,4330.384766,4311.410156,4278.333496,4510.769043,4521.153809,4399.230957,4432.94873,,,,,,,,,,,,,,,,,,,,,,,,,,,,,,,,,,,,,,,,,,,,,,,,,,,,,,,,,,,,,,,,,,,,,,
1768918676.128464,1768918676.12924,118.0,0.0,4331.666504,4285.128418,4346.922852,4354.102539,4299.615234,4310.897461,4310.641113,4326.282227,4308.974121,4277.179688,4509.102539,4522.05127,4399.230957,4437.692383,,,,,,,,,,,,,,,,,,,,,,,,,,,,,,,,,,,,,,,,,,,,,,,,,,,,,,,,,,,,,,,,,,,,,,
1768918676.136273,1768918676.137048,119.0,0.0,4341.153809,4293.846191,4354.230957,4359.358887,4306.538574,4319.871582,4321.538574,4328.461426,4309.487305,4278.333496,4507.563965,4527.307617,4398.846191,4439.102539,,,,,,,,,,,,,,,,,,,,,,,,,,,,,,,,,,,,,,,,,,,,,,,,,,,,,,,,,,,,,,,,,,,,,,
1768918676.144081,1768918676.144656,120.0,0.0,4343.333496,4293.846191,4357.692383,4356.794922,4303.974121,4317.692383,4315.641113,4327.94873,4310.512695,4278.589844,4512.692383,4531.025879,4403.333496,4439.102539,,,,,,,,,,,,,,,,,,,,,,,,,,,,,,,,,,,,,,,,,,,,,,,,,,,,,,,,,,,,,,,,,,,,,,
1768918676.15189,1768918676.152464,121.0,0.0,4341.410156,4292.436035,4357.563965,4352.692383,4298.333496,4301.538574,4290.641113,4320.384766,4310.128418,4278.461426,4519.871582,4532.820313,4404.615234,4442.436035,,,,,,,,,,,,,,,,,,,,,,,,,,,,,,,,,,,,,,,,,,,,,,,,,,,,,,,,,,,,,,,,,,,,,,
1768918676.159698,1768918676.160173,122.0,0.0,4342.307617,4294.230957,4355.769043,4352.94873,4298.461426,4302.307617,4292.94873,4322.05127,4309.615234,4278.077148,4521.538574,4535.128418,4398.205078,4445.897461,,,,,,,,,,,,,,,,,,,,,,,,,,,,,,,,,,,,,,,,,,,,,,,,,,,,,,,,,,,,,,,,,,,,,,
1768918676.167507,1768918676.167981,123.0,0.0,4337.94873,4293.589844,4349.615234,4353.589844,4301.153809,4319.230957,4316.922852,4332.307617,4312.05127,4278.077148,4518.589844,4534.871582,4395.384766,4442.436035,,,,,,,,,,,,,,,,,,,,,,,,,,,,,,,,,,,,,,,,,,,,,,,,,,,,,,,,,,,,,,,,,,,,,,
1768918676.175316,1768918676.175989,124.0,0.0,4333.461426,4291.025879,4345.512695,4353.589844,4301.025879,4318.846191,4316.025879,4335.0,4314.102539,4277.563965,4512.94873,4527.179688,4396.794922,4433.846191,,,,,,,,,,,,,,,,,,,,,,,,,,,,,,,,,,,,,,,,,,,,,,,,,,,,,,,,,,,,,,,,,,,,,,
1768918676.183124,1768918676.183797,125.0,0.0,4335.897461,4292.307617,4348.589844,4355.384766,4301.666504,4307.05127,4301.153809,4325.0,4307.692383,4275.128418,4508.205078,4519.102539,4395.512695,4431.025879,,,,,,,,,,,,,,,,,,,,,,,,,,,,,,,,,,,,,,,,,,,,,,,,,,,,,,,,,,,,,,,,,,,,,,
1768918676.190932,1768918676.191705,126.0,0.0,4338.717773,4295.897461,4352.94873,4355.256348,4302.307617,4308.461426,4305.897461,4313.974121,4300.384766,4273.333496,4508.717773,4520.897461,4394.743652,4434.230957,,,,,,,,,,,,,,,,,,,,,,,,,,,,,,,,,,,,,,,,,,,,,,,,,,,,,,,,,,,,,,,,,,,,,,
1768918676.198741,1768918676.199513,127.0,0.0,4336.025879,4296.282227,4350.128418,4354.358887,4297.94873,4312.179688,4312.179688,4316.538574,4301.153809,4276.153809,4510.512695,4523.846191,4396.794922,4433.974121,,,,,,,,,,,,,,,,,,,,,,,,,,,,,,,,,,,,,,,,,,,,,,,,,,,,,,,,,,,,,,,,,,,,,,
1768918676.20655,1768918676.207521,0.0,0.0,4335.769043,4298.846191,4347.436035,4358.846191,4295.897461,4308.589844,4307.436035,4325.128418,4306.025879,4279.102539,4512.179688,4521.794922,4397.179688,4436.282227,0.231945,0.170087,0.742246,0.366319,0.117821,0.30963,0.186503,0.549271,0.308086,0.097187,0.19185,0.196817,0.379079,0.390304,0.119187,0.682026,0.178569,0.480714,0.253159,0.073476,0.284002,0.089514,0.170964,0.098813,0.049524,0.096597,0.034348,0.08172,0.06178,0.10849,0.381056,0.269666,0.147366,0.216993,0.249656,0.256415,0.29228,0.17008,0.096885,0.097604,0.390525,0.379467,0.272564,0.118436,0.062398,0.724137,0.464456,0.342822,0.167431,0.098155,1.509284,0.486052,0.406517,0.243787,0.104269,2.05002,1.175905,0.590254,0.435936,0.212287,1.275772,0.409104,0.555859,0.235237,0.178571,1.088898,0.684214,0.716435,0.175816,0.121924
1768918676.214358,1768918676.21533,1.0,0.0,4341.410156,4305.769043,4354.487305,4366.794922,4303.846191,4313.205078,4313.461426,4329.487305,4309.871582,4279.102539,4520.256348,4529.871582,4399.743652,4445.128418,,,,,,,,,,,,,,,,,,,,,,,,,,,,,,,,,,,,,,,,,,,,,,,,,,,,,,,,,,,,,,,,,,,,,,
1768918676.222166,1768918676.223038,2.0,0.0,4343.205078,4304.102539,4359.743652,4367.05127,4307.692383,4322.436035,4328.846191,4328.205078,4311.025879,4278.974121,4526.025879,4538.077148,4402.692383,4443.974121,,,,,,,,,,,,,,,,,,,,,,,,,,,,,,,,,,,,,,,,,,,,,,,,,,,,,,,,,,,,,,,,,,,,,,
1768918676.229975,1768918676.230846,3.0,0.0,4336.538574,4295.897461,4353.461426,4360.0,4297.436035,4317.307617,4323.333496,4321.538574,4307.179688,4277.820313,4519.102539,4530.0,4399.358887,4433.589844,,,,,,,,,,,,,,,,,,,,,,,,,,,,,,,,,,,,,,,,,,,,,,,,,,,,,,,,,,,,,,,,,,,,,,
1768918676.237784,1768918676.238455,4.0,0.0,4330.128418,4294.230957,4347.94873,4357.179688,4292.436035,4307.563965,4306.025879,4318.974121,4301.794922,4276.153809,4508.077148,4517.563965,4395.128418,4426.282227,,,,,,,,,,,,,,,,,,,,,,,,,,,,,,,,,,,,,,,,,,,,,,,,,,,,,,,,,,,,,,,,,,,,,,
1768918676.245592,1768918676.246263,5.0,0.0,4332.05127,4295.769043,4348.461426,4358.974121,4295.897461,4310.0,4310.256348,4322.05127,4302.692383,4277.563965,4506.025879,4516.153809,4396.538574,4427.05127,,,,,,,,,,,,,,,,,,,,,,,,,,,,,,,,,,,,,,,,,,,,,,,,,,,,,,,,,,,,,,,,,,,,,,
1768918676.253401,1768918676.253971,6.0,0.0,4337.436035,4294.102539,4348.077148,4357.820313,4296.282227,4314.615234,4319.743652,4324.743652,4306.666504,4279.615234,4515.256348,4520.128418,4398.846191,4436.922852,,,,,,,,,,,,,,,,,,,,,,,,,,,,,,,,,,,,,,,,,,,,,,,,,,,,,,,,,,,,,,,,,,,,,,
1768918676.261209,1768918676.261779,7.0,0.0,4337.692383,4292.436035,4346.794922,4354.230957,4292.179688,4308.589844,4312.05127,4328.333496,4309.230957,4278.717773,4522.563965,4527.692383,4398.589844,4443.846191,,,,,,,,,,,,,,,,,,,,,,,,,,,,,,,,,,,,,,,,,,,,,,,,,,,,,,,,,,,,,,,,,,,,,,
1768918676.269018,1768918676.269388,8.0,0.0,4332.820313,4292.820313,4345.0,4352.436035,4291.922852,4303.461426,4304.743652,4328.205078,4308.846191,4280.897461,4522.563965,4532.692383,4399.871582,4443.846191,,,,,,,,,,,,,,,,,,,,,,,,,,,,,,,,,,,,,,,,,,,,,,,,,,,,,,,,,,,,,,,,,,,,,,
1768918676.276826,1768918676.277196,9.0,0.0,4330.641113,4294.230957,4344.743652,4356.025879,4300.128418,4310.512695,4313.205078,4323.461426,4308.717773,4285.256348,4522.94873,4527.563965,4401.538574,4442.692383,,,,,,,,,,,,,,,,,,,,,,,,,,,,,,,,,,,,,,,,,,,,,,,,,,,,,,,,,,,,,,,,,,,,,,
1768918676.284635,1768918676.284904,10.0,0.0,4335.256348,4297.05127,4351.153809,4360.384766,4307.820313,4318.077148,4322.563965,4322.307617,4312.05127,4283.589844,4517.436035,4521.794922,4398.589844,4442.436035,,,,,,,,,,,,,,,,,,,,,,,,,,,,,,,,,,,,,,,,,,,,,,,,,,,,,,,,,,,,,,,,,,,,,,
1768918676.292443,1768918676.292712,11.0,0.0,4341.153809,4302.179688,4358.717773,4364.358887,4306.282227,4313.205078,4316.410156,4321.410156,4310.641113,4278.333496,4507.436035,4519.743652,4394.230957,4442.563965,,,,,,,,,,,,,,,,,,,,,,,,,,,,,,,,,,,,,,,,,,,,,,,,,,,,,,,,,,,,,,,,,,,,,,
1768918676.300252,1768918676.300721,12.0,0.0,4346.282227,4306.410156,4358.461426,4364.102539,4300.769043,4307.820313,4309.230957,4318.589844,4306.025879,4278.333496,4511.025879,4525.897461,4397.692383,4449.102539,,,,,,,,,,,,,,,,,,,,,,,,,,,,,,,,,,,,,,,,,,,,,,,,,,,,,,,,,,,,,,,,,,,,,,
1768918676.30806,1768918676.308529,13.0,0.0,4351.153809,4304.615234,4354.871582,4360.641113,4298.846191,4314.358887,4312.307617,4320.769043,4307.05127,4285.256348,4521.922852,4533.205078,4405.256348,4454.615234,,,,,,,,,,,,,,,,,,,,,,,,,,,,,,,,,,,,,,,,,,,,,,,,,,,,,,,,,,,,,,,,,,,,,,
1768918676.315869,1768918676.316437,14.0,0.0,4352.820313,4302.563965,4357.307617,4360.384766,4298.077148,4319.487305,4314.230957,4328.077148,4312.436035,4289.871582,4523.077148,4530.769043,4406.410156,4455.128418,,,,,,,,,,,,,,,,,,,,,,,,,,,,,,,,,,,,,,,,,,,,,,,,,,,,,,,,,,,,,,,,,,,,,,
1768918676.323677,1768918676.324245,15.0,0.0,4347.820313,4306.922852,4362.563965,4366.282227,4296.922852,4313.589844,4309.487305,4327.94873,4311.410156,4286.410156,4519.487305,4525.641113,4403.974121,4456.794922,,,,,,,,,,,,,,,,,,,,,,,,,,,,,,,,,,,,,,,,,,,,,,,,,,,,,,,,,,,,,,,,,,,,,,
1768918676.331486,1768918676.332253,16.0,0.0,4342.179688,4310.769043,4360.256348,4367.94873,4298.077148,4310.128418,4305.128418,4318.333496,4304.743652,4281.538574,4519.487305,4524.743652,4402.307617,4452.94873,0.300603,0.198471,0.730935,0.425086,0.12881,0.263348,0.19881,0.551227,0.351844,0.111796,0.296435,0.226562,0.399772,0.510662,0.134202,0.73537,0.204938,0.45289,0.274158,0.088582,0.244347,0.117178,0.187141,0.11195,0.054859,0.114314,0.035322,0.093155,0.052102,0.113116,0.373995,0.196517,0.158932,0.225405,0.271094,0.281399,0.262918,0.136115,0.113893,0.108831,0.395451,0.369075,0.297291,0.139968,0.059525,0.601539,0.430178,0.29124,0.210309,0.104011,1.396936,0.475353,0.458231,0.316176,0.104961,2.097133,1.307872,0.650872,0.510811,0.197026,1.153515,0.415116,0.605521,0.274244,0.172985,1.0906,0.719023,0.686248,0.211418,0.120347
1768918676.339294,1768918676.340061,17.0,0.0,4342.179688,4306.794922,4350.897461,4363.205078,4303.461426,4316.794922,4312.05127,4317.436035,4304.230957,4281.538574,4518.205078,4526.025879,4404.102539,4447.820313,,,,,,,,,,,,,,,,,,,,,,,,,,,,,,,,,,,,,,,,,,,,,,,,,,,,,,,,,,,,,,,,,,,,,,
1768918676.347103,1768918676.34777,18.0,0.0,4342.820313,4299.743652,4345.128418,4358.333496,4305.128418,4317.563965,4314.358887,4324.230957,4307.05127,4281.410156,4514.487305,4524.230957,4406.538574,4448.717773,,,,,,,,,,,,,,,,,,,,,,,,,,,,,,,,,,,,,,,,,,,,,,,,,,,,,,,,,,,,,,,,,,,,,,
1768918676.354911,1768918676.355578,19.0,0.0,4331.666504,4294.743652,4340.0,4347.563965,4296.410156,4307.820313,4301.025879,4320.769043,4303.974121,4275.641113,4505.769043,4512.563965,4399.615234,4441.153809,,,,,,,,,,,,,,,,,,,,,,,,,,,,,,,,,,,,,,,,,,,,,,,,,,,,,,,,,,,,,,,,,,,,,,
1768918676.36272,1768918676.363586,20.0,0.0,4320.256348,4289.871582,4334.743652,4338.717773,4290.769043,4308.846191,4303.974121,4314.487305,4300.897461,4272.307617,4496.282227,4503.846191,4386.410156,4428.846191,,,,,,,,,,,,,,,,,,,,,,,,,,,,,,,,,,,,,,,,,,,,,,,,,,,,,,,,,,,,,,,,,,,,,,
1768918676.370528,1768918676.371394,21.0,0.0,4332.820313,4292.820313,4338.846191,4346.153809,4295.0,4317.436035,4323.205078,4326.153809,4312.05127,4282.692383,4506.282227,4518.974121,4391.153809,4440.897461,,,,,,,,,,,,,,,,,,,,,,,,,,,,,,,,,,,,,,,,,,,,,,,,,,,,,,,,,,,,,,,,,,,,,,
1768918676.378337,1768918676.379302,22.0,0.0,4350.256348,4303.333496,4348.333496,4355.128418,4295.0,4311.410156,4320.128418,4336.025879,4323.846191,4299.102539,4531.282227,4540.897461,4414.615234,4466.922852,,,,,,,,,,,,,,,,,,,,,,,,,,,,,,,,,,,,,,,,,,,,,,,,,,,,,,,,,,,,,,,,,,,,,,
1768918676.386145,1768918676.38711,23.0,0.0,4344.743652,4303.974121,4352.307617,4353.974121,4293.846191,4307.307617,4311.153809,4328.461426,4318.077148,4301.922852,4537.692383,4541.153809,4423.333496,4465.128418,,,,,,,,,,,,,,,,,,,,,,,,,,,,,,,,,,,,,,,,,,,,,,,,,,,,,,,,,,,,,,,,,,,,,,
1768918676.393954,1768918676.394719,24.0,0.0,4335.512695,4299.871582,4356.025879,4356.666504,4301.153809,4317.94873,4321.794922,4323.589844,4308.461426,4289.743652,4517.94873,4530.0,4407.307617,4444.230957,,,,,,,,,,,,,,,,,,,,,,,,,,,,,,,,,,,,,,,,,,,,,,,,,,,,,,,,,,,,,,,,,,,,,,
1768918676.401762,1768918676.402527,25.0,0.0,4347.563965,4314.102539,4360.512695,4367.05127,4302.820313,4318.461426,4321.282227,4321.922852,4308.717773,4279.615234,4508.077148,4526.153809,4399.230957,4446.282227,,,,,,,,,,,,,,,,,,,,,,,,,,,,,,,,,,,,,,,,,,,,,,,,,,,,,,,,,,,,,,,,,,,,,,
1768918676.409571,1768918676.410235,26.0,0.0,4359.743652,4328.717773,4353.589844,4367.179688,4295.0,4307.820313,4308.461426,4316.282227,4308.846191,4282.692383,4520.128418,4532.820313,4411.538574,4466.025879,,,,,,,,,,,,,,,,,,,,,,,,,,,,,,,,,,,,,,,,,,,,,,,,,,,,,,,,,,,,,,,,,,,,,,
1768918676.41738,1768918676.418043,27.0,0.0,4353.974121,4318.205078,4344.615234,4360.128418,4293.846191,4307.05127,4309.230957,4317.820313,4309.743652,4291.153809,4527.94873,4539.743652,4417.820313,4469.487305,,,,,,,,,,,,,,,,,,,,,,,,,,,,,,,,,,,,,,,,,,,,,,,,,,,,,,,,,,,,,,,,,,,,,,
1768918676.425188,1768918676.425652,28.0,0.0,4348.077148,4309.358887,4347.820313,4356.282227,4297.05127,4311.410156,4315.897461,4327.179688,4318.974121,4296.794922,4526.282227,4540.256348,4414.230957,4460.769043,,,,,,,,,,,,,,,,,,,,,,,,,,,,,,,,,,,,,,,,,,,,,,,,,,,,,,,,,,,,,,,,,,,,,,
1768918676.432996,1768918676.43346,29.0,0.0,4349.615234,4317.307617,4353.205078,4357.05127,4293.589844,4309.358887,4317.179688,4330.384766,4320.512695,4296.410156,4523.846191,4538.205078,4413.461426,4456.025879,,,,,,,,,,,,,,,,,,,,,,,,,,,,,,,,,,,,,,,,,,,,,,,,,,,,,,,,,,,,,,,,,,,,,,
1768918676.440805,1768918676.441168,30.0,0.0,4351.794922,4320.769043,4353.077148,4361.025879,4293.205078,4307.692383,4318.589844,4323.717773,4311.922852,4288.205078,4521.282227,4534.358887,4408.205078,4453.974121,,,,,,,,,,,,,,,,,,,,,,,,,,,,,,,,,,,,,,,,,,,,,,,,,,,,,,,,,,,,,,,,,,,,,,
1768918676.448614,1768918676.448977,31.0,0.0,4354.615234,4320.512695,4359.358887,4365.897461,4301.538574,4312.692383,4323.717773,4322.94873,4310.128418,4282.692383,4522.179688,4533.589844,4404.230957,4456.666504,,,,,,,,,,,,,,,,,,,,,,,,,,,,,,,,,,,,,,,,,,,,,,,,,,,,,,,,,,,,,,,,,,,,,,
1768918676.456422,1768918676.456585,32.0,0.0,4352.94873,4323.589844,4360.384766,4367.307617,4301.922852,4315.769043,4326.025879,4328.974121,4311.922852,4284.358887,4523.974121,4538.717773,4410.384766,4463.461426,0.454508,0.234906,0.750043,0.497791,0.138277,0.26113,0.202867,0.542343,0.410409,0.127124,0.522731,0.245588,0.484074,0.660209,0.151779,0.789221,0.23052,0.425688,0.303712,0.106369,0.224096,0.161558,0.203381,0.129075,0.06137,0.136846,0.049784,0.119525,0.063457,0.125404,0.358566,0.164823,0.196342,0.272882,0.309339,0.298731,0.246468,0.112581,0.138066,0.123707,0.374739,0.352408,0.307255,0.164059,0.059195,0.469201,0.38626,0.248269,0.256032,0.108442,1.250275,0.469042,0.532908,0.407486,0.111903,2.075646,1.371153,0.746106,0.615938,0.181498,1.01926,0.414213,0.68921,0.330941,0.173949,1.079624,0.728244,0.700152,0.27619,0.121847
1768918676.46423,1768918676.464393,33.0,0.0,4343.461426,4322.307617,4347.820313,4362.692383,4296.794922,4311.410156,4323.333496,4324.871582,4310.897461,4286.922852,4516.282227,4533.461426,4408.974121,4460.512695,,,,,,,,,,,,,,,,,,,,,,,,,,,,,,,,,,,,,,,,,,,,,,,,,,,,,,,,,,,,,,,,,,,,,,
1768918676.472039,1768918676.472101,34.0,0.0,4337.94873,4317.563965,4343.077148,4358.077148,4296.794922,4307.692383,4316.666504,4313.461426,4308.974121,4286.410156,4508.846191,4523.589844,4396.025879,4450.384766,,,,,,,,,,,,,,,,,,,,,,,,,,,,,,,,,,,,,,,,,,,,,,,,,,,,,,,,,,,,,,,,,,,,,,
1768918676.479848,1768918676.47991,35.0,0.0,4342.94873,4318.846191,4349.743652,4360.641113,4298.461426,4310.0,4314.615234,4316.538574,4309.487305,4286.794922,4514.871582,4528.077148,4393.717773,4451.410156,,,,,,,,,,,,,,,,,,,,,,,,,,,,,,,,,,,,,,,,,,,,,,,,,,,,,,,,,,,,,,,,,,,,,,
1768918676.487656,1768918676.487518,36.0,0.0,4347.436035,4321.025879,4353.205078,4364.487305,4300.897461,4313.333496,4322.307617,4329.487305,4315.512695,4291.666504,4522.563965,4539.615234,4404.230957,4460.897461,,,,,,,,,,,,,,,,,,,,,,,,,,,,,,,,,,,,,,,,,,,,,,,,,,,,,,,,,,,,,,,,,,,,,,
1768918676.495464,1768918676.495326,37.0,0.0,4348.461426,4321.025879,4353.077148,4363.974121,4300.641113,4314.230957,4326.922852,4327.307617,4319.871582,4293.717773,4521.666504,4539.358887,4407.563965,4464.102539,,,,,,,,,,,,,,,,,,,,,,,,,,,,,,,,,,,,,,,,,,,,,,,,,,,,,,,,,,,,,,,,,,,,,,
1768918676.503273,1768918676.503234,38.0,0.0,4348.846191,4321.922852,4360.512695,4363.974121,4298.333496,4312.692383,4323.974121,4321.153809,4314.871582,4289.871582,4519.871582,4536.922852,4403.589844,4460.512695,,,,,,,,,,,,,,,,,,,,,,,,,,,,,,,,,,,,,,,,,,,,,,,,,,,,,,,,,,,,,,,,,,,,,,
1768918676.511082,1768918676.511043,39.0,0.0,4348.077148,4319.743652,4362.307617,4364.743652,4301.282227,4311.282227,4319.743652,4326.153809,4311.410156,4285.0,4519.743652,4539.871582,4400.769043,4456.153809,,,,,,,,,,,,,,,,,,,,,,,,,,,,,,,,,,,,,,,,,,,,,,,,,,,,,,,,,,,,,,,,,,,,,,
1768918676.51889,1768918676.519051,40.0,0.0,4340.897461,4310.641113,4350.256348,4358.589844,4306.410156,4311.410156,4317.94873,4330.128418,4312.307617,4283.205078,4515.641113,4533.589844,4397.820313,4453.461426,,,,,,,,,,,,,,,,,,,,,,,,,,,,,,,,,,,,,,,,,,,,,,,,,,,,,,,,,,,,,,,,,,,,,,
1768918676.526699,1768918676.526859,41.0,0.0,4329.487305,4304.487305,4338.077148,4350.128418,4305.641113,4310.0,4315.128418,4325.128418,4311.025879,4280.769043,4506.538574,4518.461426,4394.615234,4448.717773,,,,,,,,,,,,,,,,,,,,,,,,,,,,,,,,,,,,,,,,,,,,,,,,,,,,,,,,,,,,,,,,,,,,,,
1768918676.534507,1768918676.534767,42.0,0.0,4328.205078,4308.077148,4334.743652,4348.333496,4305.0,4313.077148,4323.333496,4323.333496,4310.128418,4281.666504,4508.461426,4520.512695,4395.0,4450.0,,,,,,,,,,,,,,,,,,,,,,,,,,,,,,,,,,,,,,,,,,,,,,,,,,,,,,,,,,,,,,,,,,,,,,
1768918676.542316,1768918676.542575,43.0,0.0,4335.641113,4311.282227,4343.589844,4352.820313,4307.307617,4317.820313,4329.615234,4333.333496,4312.436035,4286.922852,4518.461426,4536.794922,4398.205078,4457.94873,,,,,,,,,,,,,,,,,,,,,,,,,,,,,,,,,,,,,,,,,,,,,,,,,,,,,,,,,,,,,,,,,,,,,,
1768918676.550124,1768918676.550184,44.0,0.0,4337.05127,4309.358887,4352.820313,4356.410156,4302.179688,4312.05127,4317.692383,4338.077148,4313.589844,4285.0,4513.077148,4536.922852,4395.897461,4456.922852,,,,,,,,,,,,,,,,,,,,,,,,,,,,,,,,,,,,,,,,,,,,,,,,,,,,,,,,,,,,,,,,,,,,,,
1768918676.557933,1768918676.557992,45.0,0.0,4334.102539,4309.615234,4351.922852,4355.897461,4297.05127,4307.820313,4313.333496,4327.820313,4312.179688,4285.0,4506.922852,4527.436035,4394.871582,4451.538574,,,,,,,,,,,,,,,,,,,,,,,,,,,,,,,,,,,,,,,,,,,,,,,,,,,,,,,,,,,,,,,,,,,,,,
1768918676.565741,1768918676.5659,46.0,0.0,4332.05127,4311.666504,4341.153809,4357.820313,4300.384766,4311.025879,4316.282227,4322.05127,4312.94873,4295.0,4520.512695,4533.333496,4401.153809,4458.333496,,,,,,,,,,,,,,,,,,,,,,,,,,,,,,,,,,,,,,,,,,,,,,,,,,,,,,,,,,,,,,,,,,,,,,
1768918676.57355,1768918676.573708,47.0,0.0,4327.820313,4309.102539,4333.717773,4356.922852,4303.461426,4309.487305,4310.897461,4328.461426,4316.410156,4294.871582,4527.307617,4536.538574,4405.256348,4461.794922,,,,,,,,,,,,,,,,,,,,,,,,,,,,,,,,,,,,,,,,,,,,,,,,,,,,,,,,,,,,,,,,,,,,,,
1768918676.581358,1768918676.581716,48.0,0.0,4329.230957,4308.717773,4337.307617,4350.128418,4303.077148,4310.0,4314.102539,4329.230957,4313.589844,4283.974121,4514.871582,4526.282227,4399.230957,4450.384766,0.691711,0.286095,0.789825,0.561446,0.14498,0.299477,0.204102,0.529409,0.466271,0.139543,0.845681,0.262755,0.621343,0.801614,0.167681,0.83956,0.260254,0.405753,0.33409,0.123333,0.226061,0.208963,0.220726,0.149764,0.068676,0.161125,0.075263,0.157906,0.086429,0.148097,0.332618,0.168644,0.248587,0.328588,0.361959,0.298225,0.242094,0.104126,0.168771,0.137709,0.33045,0.333118,0.302552,0.188462,0.061562,0.345969,0.343666,0.222764,0.295706,0.109025,1.109051,0.474428,0.603746,0.502999,0.123606,1.994645,1.350712,0.848043,0.727827,0.172723,0.888021,0.418422,0.761991,0.386999,0.181337,1.071063,0.716624,0.745234,0.353187,0.126556
1768918676.589167,1768918676.589524,49.0,0.0,4334.871582,4311.153809,4344.102539,4349.487305,4304.230957,4314.487305,4324.871582,4319.743652,4306.922852,4279.743652,4506.282227,4520.0,4393.717773,4443.461426,,,,,,,,,,,,,,,,,,,,,,,,,,,,,,,,,,,,,,,,,,,,,,,,,,,,,,,,,,,,,,,,,,,,,,
1768918676.596975,1768918676.597432,50.0,0.0,4330.0,4305.384766,4342.94873,4349.487305,4303.333496,4313.077148,4321.153809,4318.077148,4308.333496,4280.769043,4505.0,4520.256348,4393.846191,4444.743652,,,,,,,,,,,,,,,,,,,,,,,,,,,,,,,,,,,,,,,,,,,,,,,,,,,,,,,,,,,,,,,,,,,,,,
1768918676.604784,1768918676.605241,51.0,0.0,4322.563965,4297.563965,4333.974121,4343.077148,4298.461426,4315.512695,4317.94873,4325.769043,4312.436035,4282.692383,4509.743652,4526.025879,4394.102539,4448.717773,,,,,,,,,,,,,,,,,,,,,,,,,,,,,,,,,,,,,,,,,,,,,,,,,,,,,,,,,,,,,,,,,,,,,,
1768918676.612592,1768918676.612849,52.0,0.0,4327.94873,4302.05127,4333.461426,4342.94873,4299.615234,4319.871582,4329.743652,4330.769043,4313.077148,4291.794922,4523.846191,4539.102539,4401.282227,4458.461426,,,,,,,,,,,,,,,,,,,,,,,,,,,,,,,,,,,,,,,,,,,,,,,,,,,,,,,,,,,,,,,,,,,,,,
1768918676.620401,1768918676.620657,53.0,0.0,4333.974121,4313.589844,4338.974121,4351.282227,4305.384766,4313.461426,4323.717773,4327.692383,4312.179688,4297.179688,4524.102539,4540.512695,4403.717773,4457.05127,,,,,,,,,,,,,,,,,,,,,,,,,,,,,,,,,,,,,,,,,,,,,,,,,,,,,,,,,,,,,,,,,,,,,,
1768918676.628209,1768918676.628366,54.0,0.0,4327.692383,4312.563965,4338.205078,4354.743652,4308.077148,4308.205078,4314.102539,4321.666504,4309.615234,4289.615234,4507.692383,4525.384766,4389.102539,4440.641113,,,,,,,,,,,,,,,,,,,,,,,,,,,,,,,,,,,,,,,,,,,,,,,,,,,,,,,,,,,,,,,,,,,,,,
1768918676.636018,1768918676.636174,55.0,0.0,4323.846191,4307.307617,4336.666504,4354.102539,4312.05127,4312.820313,4321.153809,4320.384766,4308.205078,4285.256348,4503.846191,4517.563965,4383.846191,4436.538574,,,,,,,,,,,,,,,,,,,,,,,,,,,,,,,,,,,,,,,,,,,,,,,,,,,,,,,,,,,,,,,,,,,,,,
1768918676.643826,1768918676.644182,56.0,0.0,4332.436035,4317.179688,4341.282227,4358.717773,4315.641113,4316.025879,4320.897461,4323.205078,4310.0,4291.153809,4519.230957,4525.897461,4401.922852,4452.307617,,,,,,,,,,,,,,,,,,,,,,,,,,,,,,,,,,,,,,,,,,,,,,,,,,,,,,,,,,,,,,,,,,,,,,
1768918676.651635,1768918676.65199,57.0,0.0,4341.025879,4325.0,4344.615234,4359.230957,4313.589844,4312.563965,4312.563965,4327.307617,4312.820313,4298.205078,4530.641113,4537.563965,4417.179688,4464.102539,,,,,,,,,,,,,,,,,,,,,,,,,,,,,,,,,,,,,,,,,,,,,,,,,,,,,,,,,,,,,,,,,,,,,,
1768918676.659443,1768918676.659698,58.0,0.0,4337.179688,4315.897461,4339.743652,4350.641113,4310.256348,4309.871582,4316.794922,4330.0,4317.820313,4301.794922,4529.615234,4538.974121,4415.769043,4463.077148,,,,,,,,,,,,,,,,,,,,,,,,,,,,,,,,,,,,,,,,,,,,,,,,,,,,,,,,,,,,,,,,,,,,,,
1768918676.667252,1768918676.667507,59.0,0.0,4333.846191,4310.256348,4341.153809,4348.333496,4309.102539,4312.05127,4327.692383,4330.897461,4323.205078,4302.179688,4525.512695,4533.333496,4409.871582,4459.743652,,,,,,,,,,,,,,,,,,,,,,,,,,,,,,,,,,,,,,,,,,,,,,,,,,,,,,,,,,,,,,,,,,,,,,
1768918676.67506,1768918676.675115,60.0,0.0,4345.128418,4322.05127,4354.102539,4358.205078,4310.128418,4315.128418,4325.641113,4331.794922,4323.077148,4302.307617,4527.307617,4538.589844,4408.461426,4469.358887,,,,,,,,,,,,,,,,,,,,,,,,,,,,,,,,,,,,,,,,,,,,,,,,,,,,,,,,,,,,,,,,,,,,,,
1768918676.682869,1768918676.682923,61.0,0.0,4354.230957,4329.487305,4357.307617,4362.307617,4311.794922,4313.974121,4316.794922,4328.077148,4317.307617,4300.256348,4528.461426,4542.692383,4413.461426,4476.794922,,,,,,,,,,,,,,,,,,,,,,,,,,,,,,,,,,,,,,,,,,,,,,,,,,,,,,,,,,,,,,,,,,,,,,
1768918676.690678,1768918676.690631,62.0,0.0,4344.487305,4324.743652,4341.153809,4353.974121,4310.641113,4312.563965,4312.05127,4318.333496,4309.615234,4294.102539,4519.871582,4527.820313,4410.641113,4460.128418,,,,,,,,,,,,,,,,,,,,,,,,,,,,,,,,,,,,,,,,,,,,,,,,,,,,,,,,,,,,,,,,,,,,,,
1768918676.698486,1768918676.69844,63.0,0.0,4332.563965,4322.05127,4329.615234,4349.743652,4309.358887,4312.692383,4309.615234,4318.333496,4311.666504,4291.538574,4515.128418,4519.871582,4404.102539,4447.05127,,,,,,,,,,,,,,,,,,,,,,,,,,,,,,,,,,,,,,,,,,,,,,,,,,,,,,,,,,,,,,,,,,,,,,
1768918676.706294,1768918676.706448,64.0,0.0,4334.487305,4323.717773,4336.794922,4351.538574,4310.641113,4312.179688,4314.358887,4329.743652,4322.307617,4297.94873,4522.94873,4527.820313,4409.230957,4458.333496,0.991659,0.361454,0.820615,0.59439,0.15053,0.39245,0.222876,0.515837,0.498836,0.147259,1.205953,0.297474,0.772861,0.89589,0.177146,0.899882,0.308884,0.39325,0.357131,0.135864,0.250492,0.244397,0.238154,0.172646,0.076224,0.177689,0.107146,0.198884,0.113475,0.179544,0.322582,0.197779,0.30374,0.371702,0.421425,0.276666,0.242203,0.111201,0.206058,0.148016,0.269851,0.310876,0.285861,0.21142,0.065991,0.247064,0.307192,0.210794,0.324637,0.105365,1.010725,0.488296,0.636337,0.591064,0.140573,1.887689,1.25488,0.915769,0.82081,0.175449,0.759439,0.432208,0.773625,0.422717,0.193415,1.080808,0.699369,0.785206,0.42484,0.136843
1768918676.714103,1768918676.714256,65.0,0.0,4340.256348,4327.179688,4344.230957,4353.717773,4311.794922,4315.128418,4322.94873,4331.410156,4320.256348,4301.794922,4527.820313,4528.333496,4417.05127,4467.563965,,,,,,,,,,,,,,,,,,,,,,,,,,,,,,,,,,,,,,,,,,,,,,,,,,,,,,,,,,,,,,,,,,,,,,
1768918676.721912,1768918676.722164,66.0,0.0,4341.538574,4330.0,4342.307617,4356.538574,4312.05127,4317.563965,4319.743652,4322.563965,4311.538574,4297.94873,4521.025879,4524.615234,4414.358887,4465.0,,,,,,,,,,,,,,,,,,,,,,,,,,,,,,,,,,,,,,,,,,,,,,,,,,,,,,,,,,,,,,,,,,,,,,
1768918676.72972,1768918676.729972,67.0,0.0,4342.05127,4328.846191,4339.102539,4356.025879,4315.897461,4318.717773,4311.410156,4321.922852,4310.897461,4294.230957,4515.769043,4529.102539,4408.205078,4466.153809,,,,,,,,,,,,,,,,,,,,,,,,,,,,,,,,,,,,,,,,,,,,,,,,,,,,,,,,,,,,,,,,,,,,,,
1768918676.737528,1768918676.73798,68.0,0.0,4343.461426,4324.358887,4338.589844,4353.974121,4320.0,4319.615234,4317.94873,4325.512695,4311.538574,4293.333496,4520.256348,4534.487305,4410.769043,4465.769043,,,,,,,,,,,,,,,,,,,,,,,,,,,,,,,,,,,,,,,,,,,,,,,,,,,,,,,,,,,,,,,,,,,,,,
1768918676.745337,1768918676.745788,69.0,0.0,4339.230957,4322.307617,4338.717773,4352.307617,4318.589844,4314.102539,4317.94873,4323.974121,4312.05127,4297.820313,4526.666504,4537.94873,4416.282227,4460.512695,,,,,,,,,,,,,,,,,,,,,,,,,,,,,,,,,,,,,,,,,,,,,,,,,,,,,,,,,,,,,,,,,,,,,,
1768918676.753146,1768918676.753497,70.0,0.0,4332.692383,4322.692383,4340.769043,4352.307617,4319.871582,4313.589844,4311.666504,4326.666504,4320.256348,4307.563965,4527.05127,4539.230957,4415.897461,4460.897461,,,,,,,,,,,,,,,,,,,,,,,,,,,,,,,,,,,,,,,,,,,,,,,,,,,,,,,,,,,,,,,,,,,,,,
1768918676.760954,1768918676.761305,71.0,0.0,4335.384766,4322.94873,4345.769043,4356.666504,4324.358887,4322.94873,4324.615234,4330.769043,4325.641113,4307.436035,4523.333496,4536.282227,4411.410156,4461.794922,,,,,,,,,,,,,,,,,,,,,,,,,,,,,,,,,,,,,,,,,,,,,,,,,,,,,,,,,,,,,,,,,,,,,,
1768918676.768763,1768918676.769313,72.0,0.0,4342.307617,4324.230957,4346.153809,4357.307617,4319.487305,4321.666504,4326.153809,4330.128418,4323.333496,4299.102539,4523.461426,4538.846191,4411.153809,4461.025879,,,,,,,,,,,,,,,,,,,,,,,,,,,,,,,,,,,,,,,,,,,,,,,,,,,,,,,,,,,,,,,,,,,,,,
1768918676.776571,1768918676.777121,73.0,0.0,4341.282227,4322.820313,4341.410156,4348.077148,4308.846191,4309.615234,4311.666504,4331.666504,4325.256348,4301.666504,4526.794922,4544.358887,4414.358887,4466.410156,,,,,,,,,,,,,,,,,,,,,,,,,,,,,,,,,,,,,,,,,,,,,,,,,,,,,,,,,,,,,,,,,,,,,,
1768918676.78438,1768918676.785029,74.0,0.0,4337.179688,4319.743652,4338.205078,4342.820313,4305.0,4309.615234,4312.05127,4335.0,4327.179688,4305.641113,4526.410156,4540.128418,4414.230957,4470.128418,,,,,,,,,,,,,,,,,,,,,,,,,,,,,,,,,,,,,,,,,,,,,,,,,,,,,,,,,,,,,,,,,,,,,,
1768918676.792188,1768918676.792837,75.0,0.0,4340.128418,4323.205078,4340.384766,4349.230957,4308.461426,4318.077148,4320.641113,4331.410156,4324.615234,4302.307617,4525.0,4534.871582,4413.205078,4466.538574,,,,,,,,,,,,,,,,,,,,,,,,,,,,,,,,,,,,,,,,,,,,,,,,,,,,,,,,,,,,,,,,,,,,,,
1768918676.799997,1768918676.800446,76.0,0.0,4341.538574,4325.897461,4342.692383,4351.282227,4312.436035,4320.897461,4324.615234,4327.94873,4323.589844,4302.692383,4525.128418,4538.461426,4412.563965,4459.743652,,,,,,,,,,,,,,,,,,,,,,,,,,,,,,,,,,,,,,,,,,,,,,,,,,,,,,,,,,,,,,,,,,,,,,
1768918676.807805,1768918676.808254,77.0,0.0,4334.230957,4324.230957,4338.077148,4344.102539,4313.077148,4320.0,4324.615234,4331.538574,4327.436035,4306.153809,4524.615234,4536.794922,4413.205078,4458.717773,,,,,,,,,,,,,,,,,,,,,,,,,,,,,,,,,,,,,,,,,,,,,,,,,,,,,,,,,,,,,,,,,,,,,,
1768918676.815614,1768918676.816162,78.0,0.0,4331.025879,4324.358887,4331.922852,4341.025879,4311.666504,4318.974121,4320.384766,4331.666504,4325.256348,4302.05127,4523.333496,4527.307617,4413.846191,4460.641113,,,,,,,,,,,,,,,,,,,,,,,,,,,,,,,,,,,,,,,,,,,,,,,,,,,,,,,,,,,,,,,,,,,,,,
1768918676.823422,1768918676.82397,79.0,0.0,4338.077148,4327.179688,4336.025879,4344.615234,4311.153809,4318.589844,4320.769043,4325.897461,4316.794922,4296.410156,4522.436035,4526.794922,4412.179688,4459.615234,,,,,,,,,,,,,,,,,,,,,,,,,,,,,,,,,,,,,,,,,,,,,,,,,,,,,,,,,,,,,,,,,,,,,,
1768918676.831231,1768918676.831978,80.0,0.0,4344.358887,4330.384766,4345.128418,4350.256348,4311.922852,4319.743652,4323.333496,4328.077148,4319.871582,4300.384766,4524.102539,4533.333496,4412.563965,4461.538574,1.308528,0.463378,0.804815,0.584672,0.157976,0.532575,0.27489,0.498791,0.493168,0.150285,1.525448,0.366022,0.883824,0.921864,0.177268,0.967209,0.384892,0.383823,0.367313,0.141149,0.291298,0.259311,0.250627,0.194667,0.083025,0.181701,0.13751,0.231313,0.138215,0.212997,0.323558,0.237711,0.356205,0.396011,0.474945,0.24052,0.237831,0.128686,0.248911,0.155117,0.206714,0.28424,0.260719,0.231812,0.071514,0.169826,0.277699,0.201821,0.345365,0.099529,0.968814,0.503278,0.605314,0.663936,0.165494,1.786009,1.120834,0.909113,0.877215,0.190928,0.636391,0.450359,0.695315,0.426005,0.208796,1.111121,0.69117,0.77488,0.478239,0.156881
1768918676.839039,1768918676.839787,81.0,0.0,4342.05127,4330.0,4344.487305,4351.666504,4311.282227,4317.563965,4316.025879,4334.102539,4327.436035,4307.05127,4524.615234,4530.384766,4413.717773,4461.153809,,,,,,,,,,,,,,,,,,,,,,,,,,,,,,,,,,,,,,,,,,,,,,,,,,,,,,,,,,,,,,,,,,,,,,
1768918676.846848,1768918676.847695,82.0,0.0,4339.487305,4326.538574,4339.615234,4350.384766,4312.692383,4313.205078,4308.077148,4331.025879,4324.615234,4308.205078,4521.666504,4522.820313,4411.666504,4457.179688,,,,,,,,,,,,,,,,,,,,,,,,,,,,,,,,,,,,,,,,,,,,,,,,,,,,,,,,,,,,,,,,,,,,,,
1768918676.854656,1768918676.855503,83.0,0.0,4340.128418,4325.641113,4340.128418,4352.820313,4314.615234,4315.512695,4309.743652,4323.846191,4319.102539,4301.666504,4520.641113,4526.410156,4410.641113,4457.436035,,,,,,,,,,,,,,,,,,,,,,,,,,,,,,,,,,,,,,,,,,,,,,,,,,,,,,,,,,,,,,,,,,,,,,
1768918676.862465,1768918676.863111,84.0,0.0,4337.94873,4326.538574,4340.897461,4351.282227,4313.077148,4322.179688,4317.820313,4329.871582,4321.922852,4297.436035,4523.461426,4536.666504,4412.436035,4460.384766,,,,,,,,,,,,,,,,,,,,,,,,,,,,,,,,,,,,,,,,,,,,,,,,,,,,,,,,,,,,,,,,,,,,,,
1768918676.870273,1768918676.87092,85.0,0.0,4337.179688,4325.641113,4339.743652,4347.05127,4312.563965,4322.563965,4322.692383,4337.820313,4327.05127,4303.846191,4524.615234,4540.641113,4413.333496,4462.563965,,,,,,,,,,,,,,,,,,,,,,,,,,,,,,,,,,,,,,,,,,,,,,,,,,,,,,,,,,,,,,,,,,,,,,
1768918676.878082,1768918676.878628,86.0,0.0,4339.743652,4326.282227,4341.282227,4347.94873,4311.410156,4319.358887,4313.974121,4331.538574,4324.487305,4310.512695,4522.307617,4531.025879,4412.820313,4459.871582,,,,,,,,,,,,,,,,,,,,,,,,,,,,,,,,,,,,,,,,,,,,,,,,,,,,,,,,,,,,,,,,,,,,,,
1768918676.88589,1768918676.886436,87.0,0.0,4341.153809,4328.717773,4339.358887,4351.410156,4311.538574,4321.025879,4310.384766,4325.512695,4320.641113,4307.307617,4521.025879,4521.666504,4412.94873,4456.025879,,,,,,,,,,,,,,,,,,,,,,,,,,,,,,,,,,,,,,,,,,,,,,,,,,,,,,,,,,,,,,,,,,,,,,
1768918676.893699,1768918676.894444,88.0,0.0,4341.282227,4330.128418,4339.487305,4355.0,4316.153809,4326.410156,4323.333496,4331.025879,4323.077148,4300.512695,4524.230957,4532.05127,4414.102539,4461.794922,,,,,,,,,,,,,,,,,,,,,,,,,,,,,,,,,,,,,,,,,,,,,,,,,,,,,,,,,,,,,,,,,,,,,,
1768918676.901507,1768918676.902252,89.0,0.0,4345.128418,4330.384766,4347.436035,4357.94873,4316.538574,4326.666504,4322.692383,4332.692383,4322.179688,4297.820313,4527.692383,4543.077148,4415.641113,4472.179688,,,,,,,,,,,,,,,,,,,,,,,,,,,,,,,,,,,,,,,,,,,,,,,,,,,,,,,,,,,,,,,,,,,,,,
1768918676.909316,1768918676.91016,90.0,0.0,4344.871582,4326.282227,4348.461426,4355.641113,4310.384766,4320.897461,4312.820313,4325.641113,4315.512695,4293.333496,4518.846191,4531.922852,4408.461426,4465.0,,,,,,,,,,,,,,,,,,,,,,,,,,,,,,,,,,,,,,,,,,,,,,,,,,,,,,,,,,,,,,,,,,,,,,
1768918676.917124,1768918676.917969,91.0,0.0,4335.641113,4320.384766,4341.794922,4349.743652,4309.615234,4323.717773,4322.94873,4331.153809,4316.282227,4291.538574,4506.410156,4518.205078,4395.512695,4453.077148,,,,,,,,,,,,,,,,,,,,,,,,,,,,,,,,,,,,,,,,,,,,,,,,,,,,,,,,,,,,,,,,,,,,,,
1768918676.924933,1768918676.925977,92.0,0.0,4334.230957,4319.487305,4340.769043,4348.717773,4313.461426,4329.615234,4331.922852,4341.410156,4323.077148,4296.794922,4511.282227,4525.641113,4399.358887,4460.384766,,,,,,,,,,,,,,,,,,,,,,,,,,,,,,,,,,,,,,,,,,,,,,,,,,,,,,,,,,,,,,,,,,,,,,
1768918676.932742,1768918676.933785,93.0,0.0,4341.282227,4320.769043,4342.820313,4349.615234,4312.692383,4319.743652,4317.05127,4335.128418,4323.974121,4297.563965,4522.307617,4536.410156,4411.666504,4469.230957,,,,,,,,,,,,,,,,,,,,,,,,,,,,,,,,,,,,,,,,,,,,,,,,,,,,,,,,,,,,,,,,,,,,,,
1768918676.94055,1768918676.941693,94.0,0.0,4343.077148,4321.794922,4340.897461,4350.256348,4310.128418,4311.025879,4302.692383,4327.692383,4321.538574,4295.897461,4521.153809,4533.333496,4408.717773,4466.794922,,,,,,,,,,,,,,,,,,,,,,,,,,,,,,,,,,,,,,,,,,,,,,,,,,,,,,,,,,,,,,,,,,,,,,
1768918676.948358,1768918676.949501,95.0,0.0,4342.692383,4324.102539,4340.769043,4351.794922,4309.615234,4320.512695,4309.871582,4328.974121,4319.487305,4294.743652,4517.436035,4525.769043,4401.538574,4462.307617,,,,,,,,,,,,,,,,,,,,,,,,,,,,,,,,,,,,,,,,,,,,,,,,,,,,,,,,,,,,,,,,,,,,,,
1768918676.956167,1768918676.957409,96.0,0.0,4343.974121,4325.641113,4343.717773,4351.025879,4311.410156,4328.717773,4321.153809,4333.461426,4321.922852,4296.153809,4520.512695,4526.538574,4406.922852,4463.846191,1.583349,0.586819,0.721181,0.536584,0.170358,0.721358,0.36028,0.472955,0.447687,0.151059,1.722652,0.469961,0.908203,0.887003,0.169257,1.036817,0.482478,0.369437,0.363094,0.138642,0.334271,0.254672,0.249726,0.211985,0.087865,0.172075,0.158333,0.244515,0.154294,0.239104,0.344006,0.272699,0.397546,0.403136,0.50849,0.201247,0.22421,0.146429,0.293198,0.161564,0.155252,0.254523,0.229907,0.249408,0.076965,0.123651,0.256676,0.188208,0.365677,0.094792,0.969264,0.511166,0.512731,0.71993,0.200943,1.700172,0.989337,0.814291,0.894813,0.217497,0.528227,0.466277,0.544278,0.399931,0.227389,1.157584,0.700301,0.693288,0.511596,0.191148
1768918676.963976,1768918676.965217,97.0,0.0,4343.461426,4326.282227,4342.436035,4350.769043,4312.563965,4324.358887,4318.205078,4336.282227,4327.94873,4303.077148,4522.692383,4532.692383,4411.794922,4469.871582,,,,,,,,,,,,,,,,,,,,,,,,,,,,,,,,,,,,,,,,,,,,,,,,,,,,,,,,,,,,,,,,,,,,,,
1768918676.971784,1768918676.972926,98.0,0.0,4344.102539,4328.077148,4340.769043,4353.205078,4308.461426,4320.512695,4311.153809,4336.538574,4327.563965,4311.538574,4527.563965,4537.94873,4413.333496,4476.666504,,,,,,,,,,,,,,,,,,,,,,,,,,,,,,,,,,,,,,,,,,,,,,,,,,,,,,,,,,,,,,,,,,,,,,
1768918676.979592,1768918676.980734,99.0,0.0,4349.230957,4328.333496,4345.897461,4355.0,4306.153809,4319.358887,4310.769043,4337.05127,4327.307617,4313.846191,4535.897461,4545.0,4416.282227,4478.205078,,,,,,,,,,,,,,,,,,,,,,,,,,,,,,,,,,,,,,,,,,,,,,,,,,,,,,,,,,,,,,,,,,,,,,
1768918676.987401,1768918676.988342,100.0,0.0,4354.230957,4325.769043,4354.615234,4355.0,4306.922852,4317.05127,4310.256348,4336.922852,4329.487305,4311.410156,4536.538574,4548.717773,4411.794922,4476.794922,,,,,,,,,,,,,,,,,,,,,,,,,,,,,,,,,,,,,,,,,,,,,,,,,,,,,,,,,,,,,,,,,,,,,,
1768918676.99521,1768918676.996151,101.0,0.0,4357.563965,4326.922852,4359.871582,4357.307617,4309.230957,4321.025879,4313.333496,4336.794922,4326.922852,4311.153809,4531.410156,4545.0,4409.743652,4478.077148,,,,,,,,,,,,,,,,,,,,,,,,,,,,,,,,,,,,,,,,,,,,,,,,,,,,,,,,,,,,,,,,,,,,,,
1768918677.003018,1768918677.003859,102.0,0.0,4355.0,4328.974121,4356.282227,4359.487305,4312.179688,4327.436035,4319.743652,4337.307617,4326.666504,4312.692383,4528.461426,4538.589844,4417.05127,4478.333496,,,,,,,,,,,,,,,,,,,,,,,,,,,,,,,,,,,,,,,,,,,,,,,,,,,,,,,,,,,,,,,,,,,,,,
1768918677.010826,1768918677.011667,103.0,0.0,4345.641113,4324.487305,4346.666504,4356.922852,4311.666504,4326.922852,4312.692383,4334.743652,4326.025879,4310.769043,4525.769043,4535.769043,4411.666504,4475.897461,,,,,,,,,,,,,,,,,,,,,,,,,,,,,,,,,,,,,,,,,,,,,,,,,,,,,,,,,,,,,,,,,,,,,,
1768918677.018635,1768918677.019275,104.0,0.0,4342.05127,4322.179688,4341.922852,4353.077148,4310.512695,4325.256348,4309.358887,4330.641113,4320.897461,4301.794922,4523.077148,4537.05127,4397.94873,4474.871582,,,,,,,,,,,,,,,,,,,,,,,,,,,,,,,,,,,,,,,,,,,,,,,,,,,,,,,,,,,,,,,,,,,,,,
1768918677.026444,1768918677.027084,105.0,0.0,4343.461426,4325.769043,4343.846191,4352.563965,4312.94873,4328.333496,4320.0,4329.743652,4317.94873,4297.436035,4522.05127,4536.025879,4400.769043,4473.077148,,,,,,,,,,,,,,,,,,,,,,,,,,,,,,,,,,,,,,,,,,,,,,,,,,,,,,,,,,,,,,,,,,,,,,
1768918677.034252,1768918677.034992,106.0,0.0,4342.179688,4325.769043,4342.692383,4352.692383,4312.563965,4326.538574,4313.717773,4330.897461,4320.0,4304.487305,4517.563965,4526.666504,4406.538574,4464.358887,,,,,,,,,,,,,,,,,,,,,,,,,,,,,,,,,,,,,,,,,,,,,,,,,,,,,,,,,,,,,,,,,,,,,,
1768918677.042061,1768918677.0428,107.0,0.0,4338.461426,4326.282227,4338.717773,4353.589844,4309.358887,4323.205078,4307.179688,4335.0,4324.102539,4307.179688,4513.974121,4520.769043,4402.179688,4457.436035,,,,,,,,,,,,,,,,,,,,,,,,,,,,,,,,,,,,,,,,,,,,,,,,,,,,,,,,,,,,,,,,,,,,,,
1768918677.049869,1768918677.050808,108.0,0.0,4332.820313,4327.05127,4338.717773,4352.307617,4310.128418,4327.307617,4321.666504,4339.102539,4325.384766,4299.871582,4511.538574,4522.820313,4396.538574,4459.615234,,,,,,,,,,,,,,,,,,,,,,,,,,,,,,,,,,,,,,,,,,,,,,,,,,,,,,,,,,,,,,,,,,,,,,
1768918677.057678,1768918677.058616,109.0,0.0,4327.94873,4318.461426,4336.538574,4345.769043,4310.641113,4328.333496,4320.769043,4328.846191,4318.846191,4291.410156,4504.102539,4521.410156,4389.358887,4457.436035,,,,,,,,,,,,,,,,,,,,,,,,,,,,,,,,,,,,,,,,,,,,,,,,,,,,,,,,,,,,,,,,,,,,,,
1768918677.065486,1768918677.066325,110.0,0.0,4330.512695,4313.717773,4335.897461,4345.0,4308.461426,4322.436035,4304.230957,4322.692383,4318.077148,4292.94873,4507.436035,4526.410156,4389.615234,4456.538574,,,,,,,,,,,,,,,,,,,,,,,,,,,,,,,,,,,,,,,,,,,,,,,,,,,,,,,,,,,,,,,,,,,,,,
1768918677.073295,1768918677.074133,111.0,0.0,4338.589844,4322.692383,4342.05127,4352.820313,4309.230957,4321.922852,4307.307617,4336.153809,4332.307617,4309.615234,4523.846191,4541.025879,4405.641113,4468.974121,,,,,,,,,,,,,,,,,,,,,,,,,,,,,,,,,,,,,,,,,,,,,,,,,,,,,,,,,,,,,,,,,,,,,,
1768918677.081103,1768918677.081741,112.0,0.0,4340.256348,4328.333496,4343.846191,4355.384766,4311.153809,4326.282227,4316.025879,4344.230957,4339.230957,4321.538574,4528.974121,4543.846191,4418.333496,4479.743652,1.748439,0.711948,0.583882,0.469056,0.188638,0.918329,0.460226,0.438178,0.376769,0.152871,1.748977,0.592033,0.832946,0.818346,0.158293,1.07752,0.58274,0.348281,0.348288,0.130664,0.358222,0.242133,0.231588,0.222559,0.089576,0.149873,0.164757,0.234167,0.157443,0.250401,0.362363,0.287425,0.419193,0.398642,0.512722,0.170798,0.202725,0.156779,0.331754,0.169508,0.1234,0.227997,0.196695,0.264674,0.081492,0.103562,0.249112,0.173399,0.391924,0.094208,0.962932,0.510976,0.391819,0.758919,0.245861,1.58495,0.896814,0.657352,0.884078,0.252104,0.44714,0.476866,0.377047,0.359197,0.249717,1.179142,0.723336,0.559947,0.532211,0.240655
1768918677.088912,1768918677.089549,113.0,0.0,4337.94873,4324.487305,4340.897461,4350.641113,4308.461426,4326.922852,4311.794922,4337.179688,4329.871582,4313.589844,4523.461426,4538.205078,4415.256348,4474.102539,,,,,,,,,,,,,,,,,,,,,,,,,,,,,,,,,,,,,,,,,,,,,,,,,,,,,,,,,,,,,,,,,,,,,,
1768918677.09672,1768918677.097258,114.0,0.0,4338.077148,4322.05127,4341.282227,4349.358887,4305.256348,4323.461426,4307.563965,4330.0,4321.025879,4303.717773,4521.666504,4537.94873,4402.94873,4466.666504,,,,,,,,,,,,,,,,,,,,,,,,,,,,,,,,,,,,,,,,,,,,,,,,,,,,,,,,,,,,,,,,,,,,,,
1768918677.104529,1768918677.105066,115.0,0.0,4340.128418,4326.282227,4342.820313,4355.128418,4307.179688,4321.922852,4311.666504,4328.717773,4321.538574,4307.563965,4518.846191,4536.025879,4398.461426,4468.077148,,,,,,,,,,,,,,,,,,,,,,,,,,,,,,,,,,,,,,,,,,,,,,,,,,,,,,,,,,,,,,,,,,,,,,
1768918677.112337,1768918677.113074,116.0,0.0,4345.256348,4336.666504,4344.743652,4359.102539,4311.666504,4323.589844,4312.820313,4332.179688,4327.05127,4315.769043,4520.384766,4535.256348,4409.743652,4472.436035,,,,,,,,,,,,,,,,,,,,,,,,,,,,,,,,,,,,,,,,,,,,,,,,,,,,,,,,,,,,,,,,,,,,,,
1768918677.120146,1768918677.120882,117.0,0.0,4349.230957,4344.487305,4350.769043,4357.94873,4313.461426,4323.974121,4306.794922,4337.179688,4329.743652,4318.205078,4525.641113,4545.897461,4416.922852,4476.794922,,,,,,,,,,,,,,,,,,,,,,,,,,,,,,,,,,,,,,,,,,,,,,,,,,,,,,,,,,,,,,,,,,,,,,
1768918677.127954,1768918677.12879,118.0,0.0,4351.666504,4341.666504,4356.666504,4359.743652,4312.820313,4326.538574,4314.615234,4341.410156,4327.692383,4316.794922,4525.897461,4554.743652,4411.153809,4478.846191,,,,,,,,,,,,,,,,,,,,,,,,,,,,,,,,,,,,,,,,,,,,,,,,,,,,,,,,,,,,,,,,,,,,,,
1768918677.135763,1768918677.136598,119.0,0.0,4356.538574,4338.461426,4359.230957,4366.025879,4312.179688,4331.025879,4328.205078,4339.871582,4326.410156,4318.461426,4530.128418,4554.743652,4413.333496,4481.794922,,,,,,,,,,,,,,,,,,,,,,,,,,,,,,,,,,,,,,,,,,,,,,,,,,,,,,,,,,,,,,,,,,,,,,
1768918677.143571,1768918677.144606,120.0,0.0,4359.615234,4340.897461,4360.384766,4365.641113,4312.307617,4329.102539,4318.974121,4334.743652,4327.820313,4322.94873,4535.512695,4555.641113,4417.94873,4485.897461,,,,,,,,,,,,,,,,,,,,,,,,,,,,,,,,,,,,,,,,,,,,,,,,,,,,,,,,,,,,,,,,,,,,,,
1768918677.15138,1768918677.152415,121.0,0.0,4354.358887,4338.974121,4358.974121,4357.94873,4312.05127,4324.230957,4306.282227,4331.410156,4326.666504,4318.717773,4528.974121,4555.0,4412.307617,4482.436035,,,,,,,,,,,,,,,,,,,,,,,,,,,,,,,,,,,,,,,,,,,,,,,,,,,,,,,,,,,,,,,,,,,,,,
1768918677.159188,1768918677.160123,122.0,0.0,4351.922852,4334.871582,4357.94873,4354.230957,4310.384766,4322.307617,4309.871582,4328.077148,4321.666504,4310.512695,4521.794922,4549.871582,4410.128418,4474.743652,,,,,,,,,,,,,,,,,,,,,,,,,,,,,,,,,,,,,,,,,,,,,,,,,,,,,,,,,,,,,,,,,,,,,,
1768918677.166997,1768918677.167931,123.0,0.0,4356.922852,4337.436035,4358.333496,4357.307617,4309.230957,4322.692383,4312.436035,4322.94873,4318.205078,4310.384766,4522.179688,4546.538574,4411.025879,4473.205078,,,,,,,,,,,,,,,,,,,,,,,,,,,,,,,,,,,,,,,,,,,,,,,,,,,,,,,,,,,,,,,,,,,,,,
1768918677.174805,1768918677.17554,124.0,0.0,4354.871582,4335.512695,4355.512695,4356.794922,4310.641113,4325.0,4316.153809,4326.025879,4321.922852,4311.410156,4520.384766,4543.717773,4410.256348,4473.717773,,,,,,,,,,,,,,,,,,,,,,,,,,,,,,,,,,,,,,,,,,,,,,,,,,,,,,,,,,,,,,,,,,,,,,
1768918677.182614,1768918677.183348,125.0,0.0,4347.05127,4328.205078,4349.230957,4352.179688,4312.05127,4328.717773,4324.487305,4334.743652,4325.897461,4310.384766,4521.025879,4539.358887,4409.615234,4475.0,,,,,,,,,,,,,,,,,,,,,,,,,,,,,,,,,,,,,,,,,,,,,,,,,,,,,,,,,,,,,,,,,,,,,,
1768918677.190422,1768918677.191056,126.0,0.0,4342.820313,4327.05127,4344.230957,4351.282227,4310.897461,4325.897461,4318.846191,4331.538574,4321.922852,4309.487305,4524.102539,4538.717773,4407.05127,4472.820313,,,,,,,,,,,,,,,,,,,,,,,,,,,,,,,,,,,,,,,,,,,,,,,,,,,,,,,,,,,,,,,,,,,,,,
1768918677.198231,1768918677.198864,127.0,0.0,4338.717773,4330.769043,4346.922852,4354.230957,4310.641113,4321.922852,4311.153809,4328.589844,4319.615234,4308.461426,4522.436035,4538.461426,4404.102539,4465.128418,,,,,,,,,,,,,,,,,,,,,,,,,,,,,,,,,,,,,,,,,,,,,,,,,,,,,,,,,,,,,,,,,,,,,,
1768918677.20604,1768918677.206473,0.0,0.0,4334.615234,4332.94873,4349.102539,4354.487305,4311.666504,4321.922852,4311.025879,4335.128418,4324.743652,4308.589844,4519.230957,4534.615234,4403.589844,4459.871582,1.767241,0.804303,0.425896,0.402093,0.209302,1.107246,0.538934,0.399802,0.299927,0.156504,1.593351,0.700884,0.682212,0.744874,0.150535,1.066587,0.657521,0.325581,0.328234,0.120829,0.354468,0.236651,0.200178,0.225554,0.087526,0.124605,0.155824,0.204664,0.148355,0.244655,0.368846,0.276521,0.417003,0.389388,0.4876,0.156869,0.178436,0.155427,0.356133,0.179123,0.116778,0.212676,0.162907,0.276896,0.084825,0.114292,0.262978,0.162461,0.423342,0.09882,0.918182,0.505776,0.280907,0.776359,0.292973,1.416593,0.858229,0.483861,0.855598,0.291154,0.397477,0.475802,0.246396,0.319498,0.274461,1.154354,0.744451,0.411438,0.545649,0.299223
1768918677.213848,1768918677.214281,1.0,0.0,4337.563965,4334.487305,4345.384766,4353.333496,4310.897461,4323.589844,4312.692383,4334.615234,4327.692383,4311.025879,4519.358887,4535.256348,4405.897461,4462.692383,,,,,,,,,,,,,,,,,,,,,,,,,,,,,,,,,,,,,,,,,,,,,,,,,,,,,,,,,,,,,,,,,,,,,,
1768918677.221656,1768918677.222189,2.0,0.0,4342.436035,4335.512695,4343.846191,4356.410156,4311.538574,4327.820313,4318.589844,4329.871582,4325.0,4310.897461,4522.94873,4538.846191,4411.794922,4470.256348,,,,,,,,,,,,,,,,,,,,,,,,,,,,,,,,,,,,,,,,,,,,,,,,,,,,,,,,,,,,,,,,,,,,,,
1768918677.229465,1768918677.229997,3.0,0.0,4340.0,4335.769043,4344.102539,4356.410156,4315.897461,4326.666504,4319.102539,4331.153809,4322.05127,4306.922852,4518.846191,4532.820313,4412.692383,4468.205078,,,,,,,,,,,,,,,,,,,,,,,,,,,,,,,,,,,,,,,,,,,,,,,,,,,,,,,,,,,,,,,,,,,,,,
1768918677.237274,1768918677.238005,4.0,0.0,4335.512695,4335.897461,4342.05127,4350.897461,4319.102539,4320.897461,4310.641113,4329.102539,4319.230957,4303.974121,4510.769043,4526.025879,4405.897461,4461.922852,,,,,,,,,,,,,,,,,,,,,,,,,,,,,,,,,,,,,,,,,,,,,,,,,,,,,,,,,,,,,,,,,,,,,,
1768918677.245082,1768918677.245813,5.0,0.0,4338.333496,4335.769043,4339.743652,4348.974121,4319.615234,4320.769043,4303.205078,4323.589844,4319.358887,4304.230957,4514.487305,4531.538574,4406.410156,4466.538574,,,,,,,,,,,,,,,,,,,,,,,,,,,,,,,,,,,,,,,,,,,,,,,,,,,,,,,,,,,,,,,,,,,,,,
1768918677.25289,1768918677.253722,6.0,0.0,4341.666504,4336.153809,4342.179688,4353.974121,4322.436035,4325.769043,4310.641113,4330.256348,4322.436035,4306.922852,4522.94873,4541.666504,4407.692383,4472.563965,,,,,,,,,,,,,,,,,,,,,,,,,,,,,,,,,,,,,,,,,,,,,,,,,,,,,,,,,,,,,,,,,,,,,,
1768918677.260699,1768918677.26153,7.0,0.0,4338.077148,4336.025879,4347.307617,4356.666504,4326.794922,4327.94873,4322.692383,4336.666504,4321.538574,4309.358887,4522.563965,4543.974121,4403.205078,4469.615234,,,,,,,,,,,,,,,,,,,,,,,,,,,,,,,,,,,,,,,,,,,,,,,,,,,,,,,,,,,,,,,,,,,,,,
1768918677.268508,1768918677.269138,8.0,0.0,4337.05127,4335.897461,4349.871582,4352.179688,4327.436035,4325.897461,4317.436035,4331.410156,4320.256348,4310.384766,4521.282227,4540.641113,4407.307617,4469.743652,,,,,,,,,,,,,,,,,,,,,,,,,,,,,,,,,,,,,,,,,,,,,,,,,,,,,,,,,,,,,,,,,,,,,,
1768918677.276316,1768918677.276946,9.0,0.0,4342.436035,4338.205078,4349.743652,4354.743652,4325.641113,4321.025879,4308.205078,4331.153809,4322.94873,4310.769043,4523.589844,4540.0,4412.94873,4476.025879,,,,,,,,,,,,,,,,,,,,,,,,,,,,,,,,,,,,,,,,,,,,,,,,,,,,,,,,,,,,,,,,,,,,,,
1768918677.284125,1768918677.284655,10.0,0.0,4344.230957,4333.205078,4347.820313,4357.94873,4323.333496,4317.820313,4319.230957,4333.333496,4322.307617,4309.743652,4522.05127,4542.436035,4405.641113,4474.743652,,,,,,,,,,,,,,,,,,,,,,,,,,,,,,,,,,,,,,,,,,,,,,,,,,,,,,,,,,,,,,,,,,,,,,
1768918677.291933,1768918677.292463,11.0,0.0,4340.128418,4326.922852,4344.615234,4352.820313,4320.769043,4319.230957,4323.974121,4333.589844,4319.102539,4308.205078,4521.794922,4543.589844,4397.436035,4473.974121,,,,,,,,,,,,,,,,,,,,,,,,,,,,,,,,,,,,,,,,,,,,,,,,,,,,,,,,,,,,,,,,,,,,,,
1768918677.299742,1768918677.300471,12.0,0.0,4337.436035,4331.410156,4343.846191,4349.358887,4320.0,4322.05127,4309.487305,4336.410156,4321.538574,4308.846191,4523.974121,4540.256348,4403.461426,4474.871582,,,,,,,,,,,,,,,,,,,,,,,,,,,,,,,,,,,,,,,,,,,,,,,,,,,,,,,,,,,,,,,,,,,,,,
1768918677.30755,1768918677.308279,13.0,0.0,4340.384766,4337.94873,4347.179688,4350.512695,4320.769043,4327.307617,4318.846191,4335.769043,4326.282227,4310.512695,4524.230957,4539.871582,4411.025879,4475.512695,,,,,,,,,,,,,,,,,,,,,,,,,,,,,,,,,,,,,,,,,,,,,,,,,,,,,,,,,,,,,,,,,,,,,,
1768918677.315359,1768918677.316187,14.0,0.0,4343.077148,4333.717773,4345.641113,4346.025879,4320.769043,4326.922852,4330.512695,4332.94873,4325.641113,4310.641113,4523.717773,4541.410156,4406.922852,4476.538574,,,,,,,,,,,,,,,,,,,,,,,,,,,,,,,,,,,,,,,,,,,,,,,,,,,,,,,,,,,,,,,,,,,,,,
1768918677.323167,1768918677.323995,15.0,0.0,4334.871582,4327.179688,4338.974121,4338.974121,4320.128418,4319.743652,4313.974121,4333.589844,4322.94873,4310.512695,4521.538574,4537.94873,4401.410156,4472.692383,,,,,,,,,,,,,,,,,,,,,,,,,,,,,,,,,,,,,,,,,,,,,,,,,,,,,,,,,,,,,,,,,,,,,,
1768918677.330976,1768918677.332003,16.0,0.0,4327.179688,4329.102539,4338.846191,4344.358887,4321.282227,4320.128418,4308.589844,4333.974121,4321.794922,4310.641113,4521.025879,4536.282227,4406.922852,4470.897461,1.65877,0.835962,0.285407,0.3509,0.225405,1.226952,0.560643,0.36525,0.233477,0.160067,1.31902,0.767347,0.508637,0.683294,0.149087,0.99061,0.681585,0.307224,0.307537,0.112439,0.323592,0.247125,0.162199,0.220381,0.082035,0.100903,0.136022,0.167369,0.132898,0.22522,0.35977,0.245951,0.391994,0.381345,0.443342,0.154025,0.157818,0.143206,0.36132,0.188443,0.126461,0.214959,0.131079,0.284083,0.087633,0.146053,0.306507,0.15779,0.453842,0.107802,0.825034,0.507433,0.208146,0.766982,0.330317,1.18325,0.874674,0.342308,0.813532,0.328611,0.378365,0.464278,0.181745,0.292559,0.297292,1.063707,0.75265,0.286198,0.55219,0.353082
1768918677.338784,1768918677.339812,17.0,0.0,4334.743652,4335.897461,4342.563965,4353.333496,4322.05127,4328.333496,4326.666504,4331.794922,4319.743652,4310.384766,4523.333496,4540.0,4413.461426,4473.717773,,,,,,,,,,,,,,,,,,,,,,,,,,,,,,,,,,,,,,,,,,,,,,,,,,,,,,,,,,,,,,,,,,,,,,
1768918677.346593,1768918677.34752,18.0,0.0,4344.102539,4337.563965,4343.846191,4354.102539,4322.179688,4328.717773,4329.487305,4331.922852,4318.077148,4310.641113,4525.512695,4541.282227,4412.307617,4476.410156,,,,,,,,,,,,,,,,,,,,,,,,,,,,,,,,,,,,,,,,,,,,,,,,,,,,,,,,,,,,,,,,,,,,,,
1768918677.354401,1768918677.355328,19.0,0.0,4340.641113,4331.282227,4343.589844,4349.615234,4319.871582,4319.871582,4315.128418,4330.384766,4317.692383,4309.102539,4523.589844,4533.589844,4406.794922,4475.897461,,,,,,,,,,,,,,,,,,,,,,,,,,,,,,,,,,,,,,,,,,,,,,,,,,,,,,,,,,,,,,,,,,,,,,
1768918677.36221,1768918677.362937,20.0,0.0,4331.922852,4322.820313,4338.846191,4344.487305,4314.102539,4318.846191,4315.512695,4327.436035,4315.897461,4304.743652,4513.846191,4524.487305,4399.871582,4468.717773,,,,,,,,,,,,,,,,,,,,,,,,,,,,,,,,,,,,,,,,,,,,,,,,,,,,,,,,,,,,,,,,,,,,,,
1768918677.370018,1768918677.370745,21.0,0.0,4330.641113,4320.769043,4335.256348,4342.436035,4310.641113,4319.230957,4319.230957,4328.077148,4312.563965,4301.666504,4506.666504,4520.897461,4395.128418,4458.205078,,,,,,,,,,,,,,,,,,,,,,,,,,,,,,,,,,,,,,,,,,,,,,,,,,,,,,,,,,,,,,,,,,,,,,
1768918677.377827,1768918677.378453,22.0,0.0,4333.717773,4321.666504,4337.179688,4340.897461,4309.743652,4312.436035,4312.179688,4326.025879,4310.256348,4301.538574,4512.436035,4525.769043,4397.179688,4461.666504,,,,,,,,,,,,,,,,,,,,,,,,,,,,,,,,,,,,,,,,,,,,,,,,,,,,,,,,,,,,,,,,,,,,,,
1768918677.385635,1768918677.386261,23.0,0.0,4336.410156,4321.025879,4342.436035,4341.025879,4309.615234,4314.487305,4313.846191,4328.974121,4315.512695,4305.512695,4523.589844,4537.179688,4402.563965,4472.307617,,,,,,,,,,,,,,,,,,,,,,,,,,,,,,,,,,,,,,,,,,,,,,,,,,,,,,,,,,,,,,,,,,,,,,
1768918677.393444,1768918677.39387,24.0,0.0,4337.820313,4322.820313,4345.512695,4342.05127,4311.538574,4323.717773,4325.128418,4333.205078,4322.05127,4310.769043,4525.897461,4542.563965,4403.717773,4471.922852,,,,,,,,,,,,,,,,,,,,,,,,,,,,,,,,,,,,,,,,,,,,,,,,,,,,,,,,,,,,,,,,,,,,,,
1768918677.401252,1768918677.401678,25.0,0.0,4337.05127,4326.282227,4342.436035,4341.922852,4312.820313,4319.615234,4318.333496,4327.563965,4317.692383,4308.846191,4522.563965,4538.205078,4398.205078,4468.974121,,,,,,,,,,,,,,,,,,,,,,,,,,,,,,,,,,,,,,,,,,,,,,,,,,,,,,,,,,,,,,,,,,,,,,
1768918677.409061,1768918677.409386,26.0,0.0,4336.282227,4327.179688,4343.205078,4341.666504,4312.05127,4315.512695,4310.641113,4325.769043,4310.256348,4303.333496,4521.666504,4536.025879,4393.333496,4468.205078,,,,,,,,,,,,,,,,,,,,,,,,,,,,,,,,,,,,,,,,,,,,,,,,,,,,,,,,,,,,,,,,,,,,,,
1768918677.416869,1768918677.417194,27.0,0.0,4338.846191,4328.717773,4350.0,4341.794922,4311.410156,4319.871582,4322.179688,4328.461426,4312.307617,4303.333496,4523.077148,4541.794922,4397.179688,4470.0,,,,,,,,,,,,,,,,,,,,,,,,,,,,,,,,,,,,,,,,,,,,,,,,,,,,,,,,,,,,,,,,,,,,,,
1768918677.424678,1768918677.424803,28.0,0.0,4340.512695,4330.769043,4348.974121,4340.641113,4311.922852,4317.436035,4320.897461,4324.871582,4314.743652,4306.282227,4524.487305,4543.974121,4401.153809,4472.05127,,,,,,,,,,,,,,,,,,,,,,,,,,,,,,,,,,,,,,,,,,,,,,,,,,,,,,,,,,,,,,,,,,,,,,
1768918677.432486,1768918677.432611,29.0,0.0,4334.615234,4327.179688,4340.641113,4339.871582,4313.205078,4312.692383,4307.820313,4321.922852,4314.102539,4305.384766,4518.717773,4533.846191,4397.94873,4467.436035,,,,,,,,,,,,,,,,,,,,,,,,,,,,,,,,,,,,,,,,,,,,,,,,,,,,,,,,,,,,,,,,,,,,,,
1768918677.440295,1768918677.440519,30.0,0.0,4333.205078,4326.282227,4341.153809,4342.692383,4316.922852,4312.307617,4307.563965,4327.307617,4320.641113,4303.077148,4509.102539,4525.769043,4395.512695,4459.358887,,,,,,,,,,,,,,,,,,,,,,,,,,,,,,,,,,,,,,,,,,,,,,,,,,,,,,,,,,,,,,,,,,,,,,
1768918677.448104,1768918677.448327,31.0,0.0,4338.846191,4334.615234,4345.512695,4344.615234,4322.05127,4313.717773,4314.358887,4330.0,4322.179688,4303.333496,4509.871582,4532.436035,4397.436035,4457.563965,,,,,,,,,,,,,,,,,,,,,,,,,,,,,,,,,,,,,,,,,,,,,,,,,,,,,,,,,,,,,,,,,,,,,,
1768918677.455912,1768918677.456335,32.0,0.0,4339.487305,4336.794922,4343.717773,4343.077148,4319.871582,4318.333496,4317.563965,4328.333496,4312.436035,4305.641113,4519.615234,4540.0,4398.717773,4465.384766,1.529038,0.796303,0.187374,0.319174,0.229392,1.292117,0.516603,0.339649,0.184329,0.1605,1.048131,0.774064,0.365248,0.631258,0.152169,0.884032,0.644732,0.292114,0.285016,0.106556,0.284457,0.269913,0.125577,0.206831,0.07394,0.086063,0.112755,0.133647,0.118951,0.198523,0.32773,0.207181,0.350478,0.377683,0.395531,0.157687,0.143822,0.126664,0.348096,0.194385,0.147016,0.232984,0.105357,0.283055,0.091085,0.214689,0.37677,0.156188,0.472648,0.11917,0.735025,0.520668,0.17855,0.725982,0.345656,0.986514,0.921407,0.262352,0.755311,0.35573,0.396387,0.446824,0.176401,0.281621,0.312008,0.984942,0.736163,0.205804,0.546095,0.385914
1768918677.46372,1768918677.464144,33.0,0.0,4336.538574,4328.717773,4340.384766,4341.794922,4312.307617,4322.436035,4324.615234,4332.94873,4314.230957,4309.102539,4524.615234,4538.461426,4399.871582,4474.102539,,,,,,,,,,,,,,,,,,,,,,,,,,,,,,,,,,,,,,,,,,,,,,,,,,,,,,,,,,,,,,,,,,,,,,
1768918677.471529,1768918677.471852,34.0,0.0,4335.384766,4323.205078,4340.0,4343.974121,4314.358887,4324.230957,4331.282227,4333.717773,4321.282227,4308.717773,4521.794922,4537.05127,4402.307617,4473.077148,,,,,,,,,,,,,,,,,,,,,,,,,,,,,,,,,,,,,,,,,,,,,,,,,,,,,,,,,,,,,,,,,,,,,,
1768918677.479338,1768918677.47966,35.0,0.0,4337.05127,4325.769043,4346.025879,4350.0,4319.487305,4322.94873,4321.282227,4328.077148,4313.589844,4305.128418,4520.384766,4537.179688,4399.871582,4467.820313,,,,,,,,,,,,,,,,,,,,,,,,,,,,,,,,,,,,,,,,,,,,,,,,,,,,,,,,,,,,,,,,,,,,,,
1768918677.487146,1768918677.487268,36.0,0.0,4337.05127,4326.538574,4350.897461,4350.384766,4314.615234,4313.974121,4307.563965,4327.307617,4311.153809,4305.512695,4523.077148,4536.538574,4395.384766,4468.205078,,,,,,,,,,,,,,,,,,,,,,,,,,,,,,,,,,,,,,,,,,,,,,,,,,,,,,,,,,,,,,,,,,,,,,
1768918677.494954,1768918677.495077,37.0,0.0,4334.743652,4322.05127,4345.128418,4343.333496,4309.487305,4307.563965,4310.384766,4331.025879,4319.871582,4309.615234,4524.358887,4539.487305,4399.230957,4471.282227,,,,,,,,,,,,,,,,,,,,,,,,,,,,,,,,,,,,,,,,,,,,,,,,,,,,,,,,,,,,,,,,,,,,,,
1768918677.502763,1768918677.502985,38.0,0.0,4334.102539,4320.0,4340.0,4341.153809,4311.794922,4316.025879,4321.282227,4330.0,4317.563965,4310.641113,4522.307617,4542.05127,4405.256348,4470.897461,,,,,,,,,,,,,,,,,,,,,,,,,,,,,,,,,,,,,,,,,,,,,,,,,,,,,,,,,,,,,,,,,,,,,,
1768918677.510572,1768918677.510793,39.0,0.0,4338.974121,4326.538574,4345.769043,4347.179688,4312.179688,4322.563965,4325.641113,4328.589844,4315.256348,4309.230957,4523.717773,4541.282227,4406.794922,4475.512695,,,,,,,,,,,,,,,,,,,,,,,,,,,,,,,,,,,,,,,,,,,,,,,,,,,,,,,,,,,,,,,,,,,,,,
1768918677.51838,1768918677.518801,40.0,0.0,4343.589844,4332.820313,4353.205078,4354.102539,4311.153809,4317.307617,4324.102539,4333.333496,4321.410156,4311.025879,4527.692383,4544.358887,4405.769043,4480.256348,,,,,,,,,,,,,,,,,,,,,,,,,,,,,,,,,,,,,,,,,,,,,,,,,,,,,,,,,,,,,,,,,,,,,,
1768918677.526188,1768918677.526609,41.0,0.0,4337.692383,4329.615234,4351.282227,4356.922852,4313.461426,4310.384766,4316.538574,4330.128418,4315.641113,4310.0,4523.461426,4539.871582,4400.0,4471.538574,,,,,,,,,,,,,,,,,,,,,,,,,,,,,,,,,,,,,,,,,,,,,,,,,,,,,,,,,,,,,,,,,,,,,,
1768918677.533997,1768918677.534517,42.0,0.0,4328.589844,4328.974121,4343.461426,4355.256348,4317.179688,4310.641113,4308.333496,4324.487305,4307.05127,4306.410156,4518.333496,4527.179688,4393.846191,4460.641113,,,,,,,,,,,,,,,,,,,,,,,,,,,,,,,,,,,,,,,,,,,,,,,,,,,,,,,,,,,,,,,,,,,,,,
1768918677.541806,1768918677.542326,43.0,0.0,4328.717773,4334.615234,4336.410156,4353.589844,4322.436035,4315.128418,4312.563965,4327.436035,4309.230957,4308.461426,4520.384766,4525.512695,4398.974121,4463.205078,,,,,,,,,,,,,,,,,,,,,,,,,,,,,,,,,,,,,,,,,,,,,,,,,,,,,,,,,,,,,,,,,,,,,,
1768918677.549614,1768918677.550334,44.0,0.0,4334.487305,4337.307617,4334.615234,4354.615234,4323.461426,4317.563965,4321.025879,4328.974121,4314.871582,4313.589844,4521.282227,4534.102539,4408.077148,4470.897461,,,,,,,,,,,,,,,,,,,,,,,,,,,,,,,,,,,,,,,,,,,,,,,,,,,,,,,,,,,,,,,,,,,,,,
1768918677.557423,1768918677.558142,45.0,0.0,4337.563965,4336.282227,4338.589844,4354.871582,4320.128418,4321.153809,4324.230957,4329.358887,4319.102539,4313.589844,4522.436035,4539.487305,4409.358887,4472.307617,,,,,,,,,,,,,,,,,,,,,,,,,,,,,,,,,,,,,,,,,,,,,,,,,,,,,,,,,,,,,,,,,,,,,,
1768918677.565231,1768918677.56605,46.0,0.0,4338.333496,4336.282227,4342.563965,4352.94873,4320.256348,4324.230957,4326.410156,4329.743652,4316.410156,4311.025879,4523.846191,4533.077148,4405.512695,4469.358887,,,,,,,,,,,,,,,,,,,,,,,,,,,,,,,,,,,,,,,,,,,,,,,,,,,,,,,,,,,,,,,,,,,,,,
1768918677.57304,1768918677.573858,47.0,0.0,4338.846191,4338.589844,4342.820313,4354.743652,4322.179688,4320.256348,4323.333496,4327.05127,4311.666504,4315.897461,4523.333496,4525.128418,4406.153809,4468.974121,,,,,,,,,,,,,,,,,,,,,,,,,,,,,,,,,,,,,,,,,,,,,,,,,,,,,,,,,,,,,,,,,,,,,,
1768918677.580848,1768918677.581466,48.0,0.0,4337.05127,4342.05127,4345.384766,4358.205078,4321.282227,4316.794922,4319.358887,4331.282227,4321.410156,4321.282227,4530.384766,4533.205078,4413.077148,4472.563965,1.476294,0.697301,0.136421,0.301358,0.217529,1.262895,0.430599,0.316291,0.151445,0.155109,0.895895,0.723372,0.283813,0.573268,0.154081,0.770727,0.55928,0.274543,0.256824,0.10203,0.251044,0.291579,0.097721,0.18516,0.064256,0.080446,0.093615,0.11084,0.113025,0.17081,0.287006,0.174119,0.301086,0.378485,0.359133,0.161433,0.135704,0.114517,0.321996,0.19423,0.167421,0.258394,0.088667,0.270669,0.095903,0.322961,0.458897,0.151921,0.468746,0.130462,0.697122,0.54435,0.183198,0.654044,0.332562,0.916378,0.965912,0.25295,0.677907,0.364327,0.446096,0.434536,0.200385,0.281591,0.313596,0.957025,0.692641,0.17341,0.520434,0.386515
1768918677.588657,1768918677.589275,49.0,0.0,4331.794922,4342.436035,4340.128418,4354.871582,4324.102539,4322.692383,4321.410156,4338.077148,4326.410156,4316.282227,4534.230957,4542.820313,4412.179688,4473.333496,,,,,,,,,,,,,,,,,,,,,,,,,,,,,,,,,,,,,,,,,,,,,,,,,,,,,,,,,,,,,,,,,,,,,,
1768918677.596465,1768918677.596983,50.0,0.0,4326.282227,4337.436035,4326.410156,4347.179688,4324.487305,4325.128418,4320.897461,4331.025879,4313.333496,4310.0,4524.743652,4532.05127,4400.128418,4467.05127,,,,,,,,,,,,,,,,,,,,,,,,,,,,,,,,,,,,,,,,,,,,,,,,,,,,,,,,,,,,,,,,,,,,,,
1768918677.604274,1768918677.604791,51.0,0.0,4325.384766,4333.333496,4329.871582,4343.333496,4316.410156,4320.256348,4321.794922,4325.256348,4311.282227,4311.666504,4519.487305,4524.102539,4394.487305,4462.563965,,,,,,,,,,,,,,,,,,,,,,,,,,,,,,,,,,,,,,,,,,,,,,,,,,,,,,,,,,,,,,,,,,,,,,
1768918677.612082,1768918677.6124,52.0,0.0,4329.230957,4330.384766,4344.102539,4343.589844,4313.461426,4320.256348,4325.897461,4332.436035,4321.282227,4312.563965,4523.333496,4536.282227,4396.410156,4462.692383,,,,,,,,,,,,,,,,,,,,,,,,,,,,,,,,,,,,,,,,,,,,,,,,,,,,,,,,,,,,,,,,,,,,,,
1768918677.619891,1768918677.620208,53.0,0.0,4331.025879,4330.256348,4345.897461,4342.820313,4319.230957,4321.794922,4322.94873,4334.102539,4319.871582,4309.615234,4521.794922,4541.282227,4399.358887,4465.641113,,,,,,,,,,,,,,,,,,,,,,,,,,,,,,,,,,,,,,,,,,,,,,,,,,,,,,,,,,,,,,,,,,,,,,
1768918677.627699,1768918677.628116,54.0,0.0,4328.846191,4332.179688,4339.743652,4340.641113,4322.94873,4318.205078,4316.410156,4330.256348,4317.179688,4312.179688,4521.794922,4533.589844,4403.077148,4470.384766,,,,,,,,,,,,,,,,,,,,,,,,,,,,,,,,,,,,,,,,,,,,,,,,,,,,,,,,,,,,,,,,,,,,,,
1768918677.635508,1768918677.635924,55.0,0.0,4322.307617,4326.794922,4332.820313,4337.820313,4321.666504,4318.717773,4323.333496,4336.153809,4322.692383,4313.589844,4523.846191,4529.487305,4400.769043,4466.282227,,,,,,,,,,,,,,,,,,,,,,,,,,,,,,,,,,,,,,,,,,,,,,,,,,,,,,,,,,,,,,,,,,,,,,
1768918677.643316,1768918677.643932,56.0,0.0,4317.820313,4321.538574,4325.641113,4337.307617,4321.282227,4324.743652,4330.384766,4340.128418,4322.307617,4307.05127,4515.641113,4521.025879,4392.820313,4455.384766,,,,,,,,,,,,,,,,,,,,,,,,,,,,,,,,,,,,,,,,,,,,,,,,,,,,,,,,,,,,,,,,,,,,,,
1768918677.651125,1768918677.65174,57.0,0.0,4321.410156,4325.256348,4325.384766,4336.282227,4318.717773,4321.922852,4320.128418,4331.794922,4317.436035,4305.256348,4507.307617,4509.615234,4392.307617,4453.461426,,,,,,,,,,,,,,,,,,,,,,,,,,,,,,,,,,,,,,,,,,,,,,,,,,,,,,,,,,,,,,,,,,,,,,
1768918677.658933,1768918677.659648,58.0,0.0,4327.307617,4328.077148,4327.436035,4331.794922,4312.820313,4310.641113,4313.717773,4325.0,4318.205078,4311.410156,4509.358887,4512.05127,4399.615234,4462.563965,,,,,,,,,,,,,,,,,,,,,,,,,,,,,,,,,,,,,,,,,,,,,,,,,,,,,,,,,,,,,,,,,,,,,,
1768918677.666742,1768918677.667457,59.0,0.0,4328.974121,4325.256348,4326.922852,4333.205078,4309.871582,4313.205078,4323.846191,4327.94873,4320.897461,4313.205078,4518.846191,4522.94873,4402.307617,4471.153809,,,,,,,,,,,,,,,,,,,,,,,,,,,,,,,,,,,,,,,,,,,,,,,,,,,,,,,,,,,,,,,,,,,,,,
