title:remote_29, start timestamp:1768375476.569884, stop timestamp:1768375507.460096, headset type:EPOCX, headset serial:E5020E3B, headset firmware:730, channels:156, sampling rate:eeg_128;pm_0.1;pow_8, samples:3957      , version:2.2, 
Timestamp,OriginalTimestamp,EEG.Counter,EEG.Interpolated,EEG.AF3,EEG.F7,EEG.F3,EEG.FC5,EEG.T7,EEG.P7,EEG.O1,EEG.O2,EEG.P8,EEG.T8,EEG.FC6,EEG.F4,EEG.F8,EEG.AF4,EEG.RawCq,EEG.Battery,EEG.BatteryPercent,MarkerIndex,MarkerType,MarkerValueInt,EEG.MarkerHardware,CQ.AF3,CQ.F7,CQ.F3,CQ.FC5,CQ.T7,CQ.P7,CQ.O1,CQ.O2,CQ.P8,CQ.T8,CQ.FC6,CQ.F4,CQ.F8,CQ.AF4,CQ.Overall,EQ.SampleRateQuality,EQ.OVERALL,EQ.AF3,EQ.F7,EQ.F3,EQ.FC5,EQ.T7,EQ.P7,EQ.O1,EQ.O2,EQ.P8,EQ.T8,EQ.FC6,EQ.F4,EQ.F8,EQ.AF4,PM.Attention.IsActive,PM.Attention.Scaled,PM.Attention.Raw,PM.Attention.Min,PM.Attention.Max,PM.Engagement.IsActive,PM.Engagement.Scaled,PM.Engagement.Raw,PM.Engagement.Min,PM.Engagement.Max,PM.Excitement.IsActive,PM.Excitement.Scaled,PM.Excitement.Raw,PM.Excitement.Min,PM.Excitement.Max,PM.LongTermExcitement,PM.Stress.IsActive,PM.Stress.Scaled,PM.Stress.Raw,PM.Stress.Min,PM.Stress.Max,PM.Relaxation.IsActive,PM.Relaxation.Scaled,PM.Relaxation.Raw,PM.Relaxation.Min,PM.Relaxation.Max,PM.Interest.IsActive,PM.Interest.Scaled,PM.Interest.Raw,PM.Interest.Min,PM.Interest.Max,POW.AF3.Theta,POW.AF3.Alpha,POW.AF3.BetaL,POW.AF3.BetaH,POW.AF3.Gamma,POW.F7.Theta,POW.F7.Alpha,POW.F7.BetaL,POW.F7.BetaH,POW.F7.Gamma,POW.F3.Theta,POW.F3.Alpha,POW.F3.BetaL,POW.F3.BetaH,POW.F3.Gamma,POW.FC5.Theta,POW.FC5.Alpha,POW.FC5.BetaL,POW.FC5.BetaH,POW.FC5.Gamma,POW.T7.Theta,POW.T7.Alpha,POW.T7.BetaL,POW.T7.BetaH,POW.T7.Gamma,POW.P7.Theta,POW.P7.Alpha,POW.P7.BetaL,POW.P7.BetaH,POW.P7.Gamma,POW.O1.Theta,POW.O1.Alpha,POW.O1.BetaL,POW.O1.BetaH,POW.O1.Gamma,POW.O2.Theta,POW.O2.Alpha,POW.O2.BetaL,POW.O2.BetaH,POW.O2.Gamma,POW.P8.Theta,POW.P8.Alpha,POW.P8.BetaL,POW.P8.BetaH,POW.P8.Gamma,POW.T8.Theta,POW.T8.Alpha,POW.T8.BetaL,POW.T8.BetaH,POW.T8.Gamma,POW.FC6.Theta,POW.FC6.Alpha,POW.FC6.BetaL,POW.FC6.BetaH,POW.FC6.Gamma,POW.F4.Theta,POW.F4.Alpha,POW.F4.BetaL,POW.F4.BetaH,POW.F4.Gamma,POW.F8.Theta,POW.F8.Alpha,POW.F8.BetaL,POW.F8.BetaH,POW.F8.Gamma,POW.AF4.Theta,POW.AF4.Alpha,POW.AF4.BetaL,POW.AF4.BetaH,POW.AF4.Gamma
1768375476.569884,1768375476.571184,49.000000,0.000000,4322.692383,4320.512695,4341.025879,4335.769043,4303.846191,4308.589844,4309.102539,4329.102539,4307.436035,4289.102539,4522.179688,4525.641113,4392.948730,4463.589844,0.000000,1.000000,23.000000,,,,0.000000,4.000000,4.000000,4.000000,4.000000,4.000000,4.000000,4.000000,4.000000,4.000000,4.000000,4.000000,4.000000,4.000000,4.000000,100.000000,,,,,,,,,,,,,,,,,,,,,,,,,,,,,,,,,,,,,,,,,,,,,,,,,,,,,,,,,,,,,,,,,,,,,,,,,,,,,,,,,,,,,,,,,,,,,,,,,,,,,,,,,,,,,,,,,,,,,
1768375476.577692,1768375476.579092,50.000000,0.000000,4327.436035,4327.820313,4342.820313,4340.769043,4309.871582,4306.794922,4306.410156,4329.615234,4311.794922,4295.256348,4521.666504,4534.487305,4398.846191,4463.077148,0.000000,1.000000,23.000000,,,,0.000000,4.000000,4.000000,4.000000,4.000000,4.000000,4.000000,4.000000,4.000000,4.000000,4.000000,4.000000,4.000000,4.000000,4.000000,100.000000,,,,,,,,,,,,,,,,,,,,,,,,,,,,,,,,,,,,,,,,,,,,,,,,,,,,,,,,,,,,,,,,,,,,,,,,,,,,,,,,,,,,,,,,,,,,,,,,,,,,,,,,,,,,,,,,,,,,,
1768375476.585501,1768375476.586901,51.000000,0.000000,4336.282227,4337.820313,4346.922852,4347.948730,4312.563965,4308.461426,4306.410156,4331.282227,4311.666504,4296.410156,4525.256348,4538.717773,4402.692383,4467.436035,0.000000,1.000000,23.000000,,,,0.000000,4.000000,4.000000,4.000000,4.000000,4.000000,4.000000,4.000000,4.000000,4.000000,4.000000,4.000000,4.000000,4.000000,4.000000,100.000000,,,,,,,,,,,,,,,,,,,,,,,,,,,,,,,,,,,,,,,,,,,,,,,,,,,,,,,,,,,,,,,,,,,,,,,,,,,,,,,,,,,,,,,,,,,,,,,,,,,,,,,,,,,,,,,,,,,,,
1768375476.593309,1768375476.594509,52.000000,0.000000,4332.948730,4335.000000,4343.461426,4343.461426,4307.948730,4306.794922,4307.051270,4331.025879,4308.846191,4290.128418,4523.333496,4531.282227,4398.333496,4463.461426,0.000000,1.000000,23.000000,,,,0.000000,4.000000,4.000000,4.000000,4.000000,4.000000,4.000000,4.000000,4.000000,4.000000,4.000000,4.000000,4.000000,4.000000,4.000000,100.000000,,,,,,,,,,,,,,,,,,,,,,,,,,,,,,,,,,,,,,,,,,,,,,,,,,,,,,,,,,,,,,,,,,,,,,,,,,,,,,,,,,,,,,,,,,,,,,,,,,,,,,,,,,,,,,,,,,,,,
1768375476.601118,1768375476.602318,53.000000,0.000000,4326.282227,4326.153809,4331.153809,4337.307617,4307.179688,4309.358887,4308.333496,4326.282227,4309.871582,4292.692383,4511.922852,4520.128418,4396.153809,4459.102539,0.000000,1.000000,23.000000,,,,0.000000,4.000000,4.000000,4.000000,4.000000,4.000000,4.000000,4.000000,4.000000,4.000000,4.000000,4.000000,4.000000,4.000000,4.000000,100.000000,,,,,,,,,,,,,,,,,,,,,,,,,,,,,,,,,,,,,,,,,,,,,,,,,,,,,,,,,,,,,,,,,,,,,,,,,,,,,,,,,,,,,,,,,,,,,,,,,,,,,,,,,,,,,,,,,,,,,
1768375476.608926,1768375476.610026,54.000000,0.000000,4324.743652,4322.820313,4328.077148,4337.179688,4306.794922,4308.205078,4307.179688,4321.282227,4309.743652,4292.307617,4506.025879,4516.794922,4392.948730,4459.230957,0.000000,1.000000,23.000000,,,,0.000000,4.000000,4.000000,4.000000,4.000000,4.000000,4.000000,4.000000,4.000000,4.000000,4.000000,4.000000,4.000000,4.000000,4.000000,100.000000,,,,,,,,,,,,,,,,,,,,,,,,,,,,,,,,,,,,,,,,,,,,,,,,,,,,,,,,,,,,,,,,,,,,,,,,,,,,,,,,,,,,,,,,,,,,,,,,,,,,,,,,,,,,,,,,,,,,,
1768375476.616735,1768375476.617835,55.000000,0.000000,4329.358887,4327.820313,4338.974121,4339.487305,4302.948730,4301.410156,4304.358887,4319.102539,4306.025879,4284.358887,4508.717773,4521.282227,4392.307617,4460.384766,0.000000,1.000000,23.000000,,,,0.000000,4.000000,4.000000,4.000000,4.000000,4.000000,4.000000,4.000000,4.000000,4.000000,4.000000,4.000000,4.000000,4.000000,4.000000,100.000000,,,,,,,,,,,,,,,,,,,,,,,,,,,,,,,,,,,,,,,,,,,,,,,,,,,,,,,,,,,,,,,,,,,,,,,,,,,,,,,,,,,,,,,,,,,,,,,,,,,,,,,,,,,,,,,,,,,,,
1768375476.624543,1768375476.625443,56.000000,0.000000,4332.820313,4328.589844,4342.436035,4340.256348,4301.538574,4302.948730,4305.641113,4319.358887,4307.948730,4284.487305,4510.128418,4523.589844,4395.256348,4460.641113,0.000000,1.000000,23.000000,,,,0.000000,4.000000,4.000000,4.000000,4.000000,4.000000,4.000000,4.000000,4.000000,4.000000,4.000000,4.000000,4.000000,4.000000,4.000000,100.000000,,,,,,,,,,,,,,,,,,,,,,,,,,,,,,,,,,,,,,,,,,,,,,,,,,,,,,,,,,,,,,,,,,,,,,,,,,,,,,,,,,,,,,,,,,,,,,,,,,,,,,,,,,,,,,,,,,,,,
1768375476.632352,1768375476.633252,57.000000,0.000000,4330.641113,4322.563965,4334.743652,4338.077148,4302.307617,4303.717773,4307.436035,4323.461426,4316.025879,4292.820313,4514.615234,4525.769043,4395.641113,4461.025879,0.000000,1.000000,23.000000,,,,0.000000,4.000000,4.000000,4.000000,4.000000,4.000000,4.000000,4.000000,4.000000,4.000000,4.000000,4.000000,4.000000,4.000000,4.000000,100.000000,,,,,,,,,,,,,,,,,,,,,,,,,,,,,,,,,,,,,,,,,,,,,,,,,,,,,,,,,,,,,,,,,,,,,,,,,,,,,,,,,,,,,,,,,,,,,,,,,,,,,,,,,,,,,,,,,,,,,
1768375476.640160,1768375476.641160,58.000000,0.000000,4332.692383,4321.666504,4337.179688,4339.230957,4302.692383,4298.205078,4306.666504,4325.641113,4318.461426,4303.077148,4523.205078,4531.666504,4399.358887,4464.230957,0.000000,1.000000,23.000000,,,,0.000000,4.000000,4.000000,4.000000,4.000000,4.000000,4.000000,4.000000,4.000000,4.000000,4.000000,4.000000,4.000000,4.000000,4.000000,100.000000,,,,,,,,,,,,,,,,,,,,,,,,,,,,,,,,,,,,,,,,,,,,,,,,,,,,,,,,,,,,,,,,,,,,,,,,,,,,,,,,,,,,,,,,,,,,,,,,,,,,,,,,,,,,,,,,,,,,,
1768375476.647968,1768375476.648969,59.000000,0.000000,4341.153809,4327.563965,4346.410156,4345.256348,4308.461426,4302.436035,4308.717773,4325.256348,4314.102539,4305.641113,4524.615234,4533.846191,4404.743652,4470.897461,0.000000,1.000000,23.000000,,,,0.000000,4.000000,4.000000,4.000000,4.000000,4.000000,4.000000,4.000000,4.000000,4.000000,4.000000,4.000000,4.000000,4.000000,4.000000,100.000000,,,,,,,,,,,,,,,,,,,,,,,,,,,,,,,,,,,,,,,,,,,,,,,,,,,,,,,,,,,,,,,,,,,,,,,,,,,,,,,,,,,,,,,,,,,,,,,,,,,,,,,,,,,,,,,,,,,,,
1768375476.655777,1768375476.656977,60.000000,0.000000,4344.743652,4330.128418,4347.692383,4349.230957,4313.589844,4311.538574,4312.820313,4327.692383,4313.717773,4301.410156,4524.615234,4533.589844,4407.307617,4475.897461,0.000000,1.000000,23.000000,,,,0.000000,4.000000,4.000000,4.000000,4.000000,4.000000,4.000000,4.000000,4.000000,4.000000,4.000000,4.000000,4.000000,4.000000,4.000000,100.000000,,,,,,,,,,,,,,,,,,,,,,,,,,,,,,,,,,,,,,,,,,,,,,,,,,,,,,,,,,,,,,,,,,,,,,,,,,,,,,,,,,,,,,,,,,,,,,,,,,,,,,,,,,,,,,,,,,,,,
1768375476.663585,1768375476.664785,61.000000,0.000000,4341.538574,4327.307617,4343.077148,4348.717773,4309.871582,4310.128418,4312.051270,4329.358887,4318.589844,4302.820313,4527.307617,4535.641113,4409.743652,4473.974121,0.000000,1.000000,23.000000,,,,0.000000,4.000000,4.000000,4.000000,4.000000,4.000000,4.000000,4.000000,4.000000,4.000000,4.000000,4.000000,4.000000,4.000000,4.000000,100.000000,,,,,,,,,,,,,,,,,,,,,,,,,,,,,,,,,,,,,,,,,,,,,,,,,,,,,,,,,,,,,,,,,,,,,,,,,,,,,,,,,,,,,,,,,,,,,,,,,,,,,,,,,,,,,,,,,,,,,
1768375476.671394,1768375476.672694,62.000000,0.000000,4341.025879,4326.025879,4342.051270,4346.922852,4306.153809,4308.717773,4310.384766,4327.820313,4317.563965,4303.205078,4526.153809,4533.974121,4408.717773,4471.666504,0.000000,1.000000,23.000000,,,,0.000000,4.000000,4.000000,4.000000,4.000000,4.000000,4.000000,4.000000,4.000000,4.000000,4.000000,4.000000,4.000000,4.000000,4.000000,100.000000,,,,,,,,,,,,,,,,,,,,,,,,,,,,,,,,,,,,,,,,,,,,,,,,0.882577,0.475915,0.255769,0.194565,0.128296,1.259003,0.720047,0.141121,0.145908,0.078385,0.472080,0.271037,0.219022,0.201760,0.104101,0.244951,0.251481,0.096170,0.160310,0.074379,0.110804,0.093920,0.132400,0.070338,0.068705,0.159165,0.060492,0.043488,0.075071,0.095441,0.192023,0.120556,0.112459,0.085922,0.087677,0.151090,0.203231,0.097920,0.161830,0.100638,0.212906,0.208477,0.179758,0.206018,0.119438,0.366612,0.266342,0.269842,0.266454,0.065765,0.587056,0.235432,0.292072,0.315450,0.164455,0.525461,0.372834,0.288980,0.338386,0.196903,1.613504,0.287767,0.239024,0.297662,0.147421,1.228441,0.371708,0.379961,0.379552,0.155715
1768375476.679202,1768375476.680502,63.000000,0.000000,4342.820313,4329.743652,4345.512695,4347.179688,4310.128418,4314.230957,4315.384766,4328.461426,4319.102539,4302.307617,4527.436035,4533.717773,4406.153809,4473.974121,0.000000,1.000000,23.000000,,,,0.000000,4.000000,4.000000,4.000000,4.000000,4.000000,4.000000,4.000000,4.000000,4.000000,4.000000,4.000000,4.000000,4.000000,4.000000,100.000000,,,,,,,,,,,,,,,,,,,,,,,,,,,,,,,,,,,,,,,,,,,,,,,,,,,,,,,,,,,,,,,,,,,,,,,,,,,,,,,,,,,,,,,,,,,,,,,,,,,,,,,,,,,,,,,,,,,,,
1768375476.687011,1768375476.688111,64.000000,0.000000,4341.410156,4332.051270,4344.487305,4347.692383,4310.384766,4310.769043,4312.051270,4330.000000,4322.051270,4305.897461,4529.743652,4537.692383,4407.820313,4474.487305,4038.000000,1.000000,23.000000,,,,0.000000,4.000000,4.000000,4.000000,4.000000,4.000000,4.000000,4.000000,4.000000,4.000000,4.000000,4.000000,4.000000,4.000000,4.000000,100.000000,,,,,,,,,,,,,,,,,,,,,,,,,,,,,,,,,,,,,,,,,,,,,,,,,,,,,,,,,,,,,,,,,,,,,,,,,,,,,,,,,,,,,,,,,,,,,,,,,,,,,,,,,,,,,,,,,,,,,
1768375476.694819,1768375476.695919,65.000000,0.000000,4338.077148,4327.307617,4340.769043,4343.461426,4305.512695,4300.641113,4301.538574,4327.692383,4317.436035,4307.436035,4524.487305,4537.051270,4409.743652,4472.563965,4008.000000,1.000000,23.000000,,,,0.000000,4.000000,4.000000,4.000000,4.000000,4.000000,4.000000,4.000000,4.000000,4.000000,4.000000,4.000000,4.000000,4.000000,4.000000,100.000000,,,,,,,,,,,,,,,,,,,,,,,,,,,,,,,,,,,,,,,,,,,,,,,,,,,,,,,,,,,,,,,,,,,,,,,,,,,,,,,,,,,,,,,,,,,,,,,,,,,,,,,,,,,,,,,,,,,,,
1768375476.702628,1768375476.703827,66.000000,0.000000,4338.717773,4324.230957,4340.000000,4338.974121,4304.230957,4299.358887,4301.538574,4329.358887,4319.230957,4305.128418,4523.077148,4534.102539,4410.512695,4473.333496,3902.000000,1.000000,23.000000,,,,0.000000,4.000000,4.000000,4.000000,4.000000,4.000000,4.000000,4.000000,4.000000,4.000000,4.000000,4.000000,4.000000,4.000000,4.000000,100.000000,,,,,,,,,,,,,,,,,,,,,,,,,,,,,,,,,,,,,,,,,,,,,,,,,,,,,,,,,,,,,,,,,,,,,,,,,,,,,,,,,,,,,,,,,,,,,,,,,,,,,,,,,,,,,,,,,,,,,
1768375476.710436,1768375476.711636,67.000000,0.000000,4344.743652,4327.179688,4344.871582,4341.794922,4310.769043,4309.230957,4309.871582,4333.205078,4324.102539,4308.205078,4531.666504,4537.563965,4412.436035,4476.410156,3911.000000,1.000000,23.000000,,,,0.000000,4.000000,4.000000,4.000000,4.000000,4.000000,4.000000,4.000000,4.000000,4.000000,4.000000,4.000000,4.000000,4.000000,4.000000,100.000000,,,,,,,,,,,,,,,,,,,,,,,,,,,,,,,,,,,,,,,,,,,,,,,,,,,,,,,,,,,,,,,,,,,,,,,,,,,,,,,,,,,,,,,,,,,,,,,,,,,,,,,,,,,,,,,,,,,,,
1768375476.718244,1768375476.719344,68.000000,0.000000,4347.436035,4333.205078,4352.436035,4347.692383,4316.666504,4315.641113,4318.717773,4335.128418,4324.871582,4312.179688,4533.589844,4543.717773,4412.307617,4478.589844,3857.000000,1.000000,23.000000,,,,0.000000,4.000000,4.000000,4.000000,4.000000,4.000000,4.000000,4.000000,4.000000,4.000000,4.000000,4.000000,4.000000,4.000000,4.000000,100.000000,,,,,,,,,,,,,,,,,,,,,,,,,,,,,,,,,,,,,,,,,,,,,,,,,,,,,,,,,,,,,,,,,,,,,,,,,,,,,,,,,,,,,,,,,,,,,,,,,,,,,,,,,,,,,,,,,,,,,
1768375476.726053,1768375476.727153,69.000000,0.000000,4344.358887,4330.512695,4350.769043,4345.000000,4314.743652,4312.563965,4318.461426,4332.179688,4323.333496,4307.948730,4525.384766,4540.256348,4408.589844,4476.410156,3745.000000,1.000000,23.000000,,,,0.000000,4.000000,4.000000,4.000000,4.000000,4.000000,4.000000,4.000000,4.000000,4.000000,4.000000,4.000000,4.000000,4.000000,4.000000,100.000000,,,,,,,,,,,,,,,,,,,,,,,,,,,,,,,,,,,,,,,,,,,,,,,,,,,,,,,,,,,,,,,,,,,,,,,,,,,,,,,,,,,,,,,,,,,,,,,,,,,,,,,,,,,,,,,,,,,,,
1768375476.733861,1768375476.734861,70.000000,0.000000,4342.436035,4319.102539,4341.922852,4340.000000,4308.974121,4306.794922,4309.615234,4326.922852,4317.051270,4300.512695,4521.025879,4531.922852,4406.410156,4470.897461,3772.000000,1.000000,23.000000,,,,0.000000,4.000000,4.000000,4.000000,4.000000,4.000000,4.000000,4.000000,4.000000,4.000000,4.000000,4.000000,4.000000,4.000000,4.000000,100.000000,,,,,,,,,,,,,,,,,,,,,,,,,,,,,,,,,,,,,,,,,,,,,,,,,,,,,,,,,,,,,,,,,,,,,,,,,,,,,,,,,,,,,,,,,,,,,,,,,,,,,,,,,,,,,,,,,,,,,
1768375476.741670,1768375476.742670,71.000000,0.000000,4343.205078,4317.563965,4340.000000,4341.794922,4307.307617,4309.871582,4311.666504,4328.205078,4313.333496,4299.615234,4524.230957,4531.922852,4405.384766,4469.871582,3104.000000,1.000000,23.000000,,,,0.000000,4.000000,4.000000,4.000000,4.000000,4.000000,4.000000,4.000000,4.000000,4.000000,4.000000,4.000000,4.000000,4.000000,4.000000,100.000000,,,,,,,,,,,,,,,,,,,,,,,,,,,,,,,,,,,,,,,,,,,,,,,,,,,,,,,,,,,,,,,,,,,,,,,,,,,,,,,,,,,,,,,,,,,,,,,,,,,,,,,,,,,,,,,,,,,,,
1768375476.749478,1768375476.750279,72.000000,0.000000,4342.051270,4320.128418,4342.948730,4343.077148,4309.871582,4318.077148,4322.179688,4331.282227,4316.922852,4302.820313,4524.230957,4533.077148,4408.846191,4472.948730,3974.000000,1.000000,23.000000,,,,0.000000,4.000000,4.000000,4.000000,4.000000,4.000000,4.000000,4.000000,4.000000,4.000000,4.000000,4.000000,4.000000,4.000000,4.000000,100.000000,,,,,,,,,,,,,,,,,,,,,,,,,,,,,,,,,,,,,,,,,,,,,,,,,,,,,,,,,,,,,,,,,,,,,,,,,,,,,,,,,,,,,,,,,,,,,,,,,,,,,,,,,,,,,,,,,,,,,
1768375476.757287,1768375476.758087,73.000000,0.000000,4341.666504,4316.282227,4342.436035,4343.846191,4310.641113,4312.692383,4316.025879,4329.487305,4318.846191,4301.538574,4521.666504,4529.743652,4413.461426,4473.077148,3987.000000,1.000000,23.000000,,,,0.000000,4.000000,4.000000,4.000000,4.000000,4.000000,4.000000,4.000000,4.000000,4.000000,4.000000,4.000000,4.000000,4.000000,4.000000,100.000000,,,,,,,,,,,,,,,,,,,,,,,,,,,,,,,,,,,,,,,,,,,,,,,,,,,,,,,,,,,,,,,,,,,,,,,,,,,,,,,,,,,,,,,,,,,,,,,,,,,,,,,,,,,,,,,,,,,,,
1768375476.765095,1768375476.765796,74.000000,0.000000,4347.307617,4319.487305,4347.820313,4348.333496,4310.256348,4300.641113,4303.205078,4325.128418,4315.384766,4301.153809,4529.358887,4535.641113,4413.717773,4474.615234,4370.000000,1.000000,23.000000,,,,0.000000,4.000000,4.000000,4.000000,4.000000,4.000000,4.000000,4.000000,4.000000,4.000000,4.000000,4.000000,4.000000,4.000000,4.000000,100.000000,,,,,,,,,,,,,,,,,,,,,,,,,,,,,,,,,,,,,,,,,,,,,,,,,,,,,,,,,,,,,,,,,,,,,,,,,,,,,,,,,,,,,,,,,,,,,,,,,,,,,,,,,,,,,,,,,,,,,
1768375476.772904,1768375476.773604,75.000000,0.000000,4351.282227,4328.077148,4355.128418,4349.615234,4311.666504,4303.846191,4307.563965,4324.487305,4314.358887,4303.974121,4539.102539,4546.282227,4414.102539,4477.563965,4624.000000,1.000000,23.000000,,,,0.000000,4.000000,4.000000,4.000000,4.000000,4.000000,4.000000,4.000000,4.000000,4.000000,4.000000,4.000000,4.000000,4.000000,4.000000,100.000000,,,,,,,,,,,,,,,,,,,,,,,,,,,,,,,,,,,,,,,,,,,,,,,,,,,,,,,,,,,,,,,,,,,,,,,,,,,,,,,,,,,,,,,,,,,,,,,,,,,,,,,,,,,,,,,,,,,,,
1768375476.780712,1768375476.781612,76.000000,0.000000,4345.512695,4326.410156,4349.743652,4346.153809,4310.384766,4310.384766,4313.077148,4325.641113,4312.307617,4304.487305,4535.512695,4545.128418,4413.846191,4475.256348,4909.000000,1.000000,23.000000,,,,0.000000,4.000000,4.000000,4.000000,4.000000,4.000000,4.000000,4.000000,4.000000,4.000000,4.000000,4.000000,4.000000,4.000000,4.000000,100.000000,,,,,,,,,,,,,,,,,,,,,,,,,,,,,,,,,,,,,,,,,,,,,,,,,,,,,,,,,,,,,,,,,,,,,,,,,,,,,,,,,,,,,,,,,,,,,,,,,,,,,,,,,,,,,,,,,,,,,
1768375476.788520,1768375476.789421,77.000000,0.000000,4340.897461,4320.000000,4342.436035,4347.820313,4311.666504,4309.487305,4311.538574,4326.538574,4310.512695,4303.205078,4526.282227,4541.282227,4411.794922,4475.000000,5086.000000,1.000000,23.000000,,,,0.000000,4.000000,4.000000,4.000000,4.000000,4.000000,4.000000,4.000000,4.000000,4.000000,4.000000,4.000000,4.000000,4.000000,4.000000,100.000000,,,,,,,,,,,,,,,,,,,,,,,,,,,,,,,,,,,,,,,,,,,,,,,,,,,,,,,,,,,,,,,,,,,,,,,,,,,,,,,,,,,,,,,,,,,,,,,,,,,,,,,,,,,,,,,,,,,,,
1768375476.796329,1768375476.797329,78.000000,0.000000,4342.563965,4317.692383,4343.589844,4349.230957,4313.974121,4308.717773,4310.897461,4327.692383,4313.589844,4301.922852,4524.102539,4539.615234,4411.922852,4474.871582,4370.000000,1.000000,23.000000,,,,0.000000,4.000000,4.000000,4.000000,4.000000,4.000000,4.000000,4.000000,4.000000,4.000000,4.000000,4.000000,4.000000,4.000000,4.000000,100.000000,1.000000,25.000000,4.000000,4.000000,4.000000,4.000000,1.000000,1.000000,4.000000,1.000000,4.000000,4.000000,4.000000,4.000000,4.000000,4.000000,,,,,,,,,,,,,,,,,,,,,,,,,,,,,,,,0.834089,0.474916,0.206634,0.172301,0.138332,1.157494,0.751830,0.134415,0.136143,0.081016,0.586119,0.342989,0.307014,0.198787,0.114278,0.215416,0.297352,0.098131,0.155859,0.080859,0.094162,0.106386,0.130864,0.060957,0.071469,0.142992,0.091287,0.057565,0.072665,0.098144,0.153762,0.153070,0.116433,0.077357,0.088294,0.141663,0.172822,0.085684,0.170407,0.095915,0.202126,0.204640,0.163923,0.190602,0.116101,0.411881,0.263548,0.280300,0.267070,0.076335,0.662935,0.242008,0.283390,0.303352,0.184690,0.506854,0.432721,0.289242,0.351587,0.214086,1.471527,0.251493,0.213536,0.282870,0.152556,1.160343,0.415205,0.395332,0.374587,0.166553
1768375476.804137,1768375476.805137,79.000000,0.000000,4337.820313,4313.205078,4341.153809,4342.692383,4309.487305,4308.205078,4309.358887,4327.051270,4315.769043,4300.128418,4523.846191,4530.641113,4411.282227,4466.025879,4624.000000,1.000000,23.000000,,,,0.000000,4.000000,4.000000,4.000000,4.000000,4.000000,4.000000,4.000000,4.000000,4.000000,4.000000,4.000000,4.000000,4.000000,4.000000,100.000000,,,,,,,,,,,,,,,,,,,,,,,,,,,,,,,,,,,,,,,,,,,,,,,,,,,,,,,,,,,,,,,,,,,,,,,,,,,,,,,,,,,,,,,,,,,,,,,,,,,,,,,,,,,,,,,,,,,,,
1768375476.811946,1768375476.812746,80.000000,0.000000,4334.102539,4312.563965,4339.871582,4341.153809,4308.974121,4307.820313,4309.871582,4326.538574,4313.846191,4299.487305,4522.948730,4529.358887,4409.615234,4464.358887,4909.000000,1.000000,23.000000,,,,0.000000,4.000000,4.000000,4.000000,4.000000,4.000000,4.000000,4.000000,4.000000,4.000000,4.000000,4.000000,4.000000,4.000000,4.000000,100.000000,,,,,,,,,,,,,,,,,,,,,,,,,,,,,,,,,,,,,,,,,,,,,,,,,,,,,,,,,,,,,,,,,,,,,,,,,,,,,,,,,,,,,,,,,,,,,,,,,,,,,,,,,,,,,,,,,,,,,
1768375476.819754,1768375476.820555,81.000000,0.000000,4340.256348,4318.717773,4345.641113,4346.282227,4312.692383,4310.512695,4312.051270,4324.487305,4312.563965,4301.025879,4522.563965,4538.077148,4410.769043,4474.487305,5086.000000,1.000000,23.000000,,,,0.000000,4.000000,4.000000,4.000000,4.000000,4.000000,4.000000,4.000000,4.000000,4.000000,4.000000,4.000000,4.000000,4.000000,4.000000,100.000000,,,,,,,,,,,,,,,,,,,,,,,,,,,,,,,,,,,,,,,,,,,,,,,,,,,,,,,,,,,,,,,,,,,,,,,,,,,,,,,,,,,,,,,,,,,,,,,,,,,,,,,,,,,,,,,,,,,,,
1768375476.827563,1768375476.828263,82.000000,0.000000,4342.563965,4321.794922,4346.666504,4347.692383,4311.153809,4309.358887,4310.769043,4325.000000,4314.615234,4299.102539,4524.358887,4538.461426,4412.179688,4476.922852,4370.000000,1.000000,23.000000,,,,0.000000,4.000000,4.000000,4.000000,4.000000,4.000000,4.000000,4.000000,4.000000,4.000000,4.000000,4.000000,4.000000,4.000000,4.000000,100.000000,,,,,,,,,,,,,,,,,,,,,,,,,,,,,,,,,,,,,,,,,,,,,,,,,,,,,,,,,,,,,,,,,,,,,,,,,,,,,,,,,,,,,,,,,,,,,,,,,,,,,,,,,,,,,,,,,,,,,
1768375476.835371,1768375476.836072,83.000000,0.000000,4338.717773,4321.538574,4342.436035,4347.307617,4307.563965,4305.128418,4309.743652,4326.922852,4315.641113,4299.615234,4531.153809,4537.692383,4411.025879,4474.487305,4624.000000,1.000000,23.000000,,,,0.000000,4.000000,4.000000,4.000000,4.000000,4.000000,4.000000,4.000000,4.000000,4.000000,4.000000,4.000000,4.000000,4.000000,4.000000,100.000000,,,,,,,,,,,,,,,,,,,,,,,,,,,,,,,,,,,,,,,,,,,,,,,,,,,,,,,,,,,,,,,,,,,,,,,,,,,,,,,,,,,,,,,,,,,,,,,,,,,,,,,,,,,,,,,,,,,,,
1768375476.843180,1768375476.844080,84.000000,0.000000,4339.487305,4321.282227,4341.666504,4348.205078,4308.589844,4305.512695,4309.743652,4326.922852,4314.743652,4306.153809,4534.615234,4542.051270,4411.538574,4475.641113,4909.000000,1.000000,23.000000,,,,0.000000,4.000000,4.000000,4.000000,4.000000,4.000000,4.000000,4.000000,4.000000,4.000000,4.000000,4.000000,4.000000,4.000000,4.000000,100.000000,,,,,,,,,,,,,,,,,,,,,,,,,,,,,,,,,,,,,,,,,,,,,,,,,,,,,,,,,,,,,,,,,,,,,,,,,,,,,,,,,,,,,,,,,,,,,,,,,,,,,,,,,,,,,,,,,,,,,
1768375476.850988,1768375476.851888,85.000000,0.000000,4339.615234,4318.717773,4340.641113,4348.589844,4308.077148,4308.846191,4309.358887,4328.077148,4317.179688,4307.820313,4530.897461,4537.820313,4412.051270,4473.717773,5086.000000,1.000000,23.000000,,,,0.000000,4.000000,4.000000,4.000000,4.000000,4.000000,4.000000,4.000000,4.000000,4.000000,4.000000,4.000000,4.000000,4.000000,4.000000,100.000000,,,,,,,,,,,,,,,,,,,,,,,,,,,,,,,,,,,,,,,,,,,,,,,,,,,,,,,,,,,,,,,,,,,,,,,,,,,,,,,,,,,,,,,,,,,,,,,,,,,,,,,,,,,,,,,,,,,,,
1768375476.858796,1768375476.859797,86.000000,0.000000,4336.025879,4316.666504,4337.948730,4345.897461,4307.820313,4310.000000,4310.000000,4329.358887,4315.256348,4302.563965,4526.666504,4531.410156,4408.333496,4474.102539,4370.000000,1.000000,23.000000,,,,0.000000,4.000000,4.000000,4.000000,4.000000,4.000000,4.000000,4.000000,4.000000,4.000000,4.000000,4.000000,4.000000,4.000000,4.000000,100.000000,,,,,,,,,,,,,,,,,,,,,,,,,,,,,,,,,,,,,,,,,,,,,,,,,,,,,,,,,,,,,,,,,,,,,,,,,,,,,,,,,,,,,,,,,,,,,,,,,,,,,,,,,,,,,,,,,,,,,
1768375476.866605,1768375476.867605,87.000000,0.000000,4334.358887,4315.769043,4336.538574,4342.307617,4308.077148,4307.692383,4309.615234,4326.025879,4308.589844,4300.256348,4524.358887,4531.410156,4403.846191,4473.205078,4624.000000,1.000000,23.000000,,,,0.000000,4.000000,4.000000,4.000000,4.000000,4.000000,4.000000,4.000000,4.000000,4.000000,4.000000,4.000000,4.000000,4.000000,4.000000,100.000000,,,,,,,,,,,,,,,,,,,,,,,,,,,,,,,,,,,,,,,,,,,,,,,,,,,,,,,,,,,,,,,,,,,,,,,,,,,,,,,,,,,,,,,,,,,,,,,,,,,,,,,,,,,,,,,,,,,,,
1768375476.874413,1768375476.875613,88.000000,0.000000,4334.230957,4314.871582,4336.922852,4342.051270,4303.461426,4306.538574,4307.051270,4320.769043,4308.974121,4299.743652,4521.666504,4527.948730,4402.307617,4462.820313,4909.000000,1.000000,23.000000,,,,0.000000,4.000000,4.000000,4.000000,4.000000,4.000000,4.000000,4.000000,4.000000,4.000000,4.000000,4.000000,4.000000,4.000000,4.000000,100.000000,,,,,,,,,,,,,,,,,,,,,,,,,,,,,,,,,,,,,,,,,,,,,,,,,,,,,,,,,,,,,,,,,,,,,,,,,,,,,,,,,,,,,,,,,,,,,,,,,,,,,,,,,,,,,,,,,,,,,
1768375476.882222,1768375476.883422,89.000000,0.000000,4339.743652,4318.077148,4341.410156,4346.666504,4305.897461,4311.153809,4310.000000,4324.615234,4313.205078,4294.871582,4522.948730,4528.589844,4403.589844,4464.871582,5086.000000,1.000000,23.000000,,,,0.000000,4.000000,4.000000,4.000000,4.000000,4.000000,4.000000,4.000000,4.000000,4.000000,4.000000,4.000000,4.000000,4.000000,4.000000,100.000000,,,,,,,,,,,,,,,,,,,,,,,,,,,,,,,,,,,,,,,,,,,,,,,,,,,,,,,,,,,,,,,,,,,,,,,,,,,,,,,,,,,,,,,,,,,,,,,,,,,,,,,,,,,,,,,,,,,,,
1768375476.890030,1768375476.891330,90.000000,0.000000,4340.769043,4320.512695,4342.948730,4347.948730,4308.205078,4312.820313,4312.436035,4328.846191,4310.769043,4297.051270,4525.000000,4535.769043,4404.358887,4472.307617,4370.000000,1.000000,23.000000,,,,0.000000,4.000000,4.000000,4.000000,4.000000,4.000000,4.000000,4.000000,4.000000,4.000000,4.000000,4.000000,4.000000,4.000000,4.000000,100.000000,,,,,,,,,,,,,,,,,,,,,,,,,,,,,,,,,,,,,,,,,,,,,,,,,,,,,,,,,,,,,,,,,,,,,,,,,,,,,,,,,,,,,,,,,,,,,,,,,,,,,,,,,,,,,,,,,,,,,
1768375476.897839,1768375476.899138,91.000000,0.000000,4333.333496,4314.102539,4335.769043,4343.461426,4303.333496,4307.692383,4307.692383,4324.615234,4309.871582,4299.871582,4522.436035,4530.512695,4402.307617,4464.615234,4624.000000,1.000000,23.000000,,,,0.000000,4.000000,4.000000,4.000000,4.000000,4.000000,4.000000,4.000000,4.000000,4.000000,4.000000,4.000000,4.000000,4.000000,4.000000,100.000000,,,,,,,,,,,,,,,,,,,,,,,,,,,,,,,,,,,,,,,,,,,,,,,,,,,,,,,,,,,,,,,,,,,,,,,,,,,,,,,,,,,,,,,,,,,,,,,,,,,,,,,,,,,,,,,,,,,,,
1768375476.905647,1768375476.907147,92.000000,0.000000,4328.333496,4305.512695,4332.051270,4340.000000,4301.025879,4306.666504,4307.692383,4324.615234,4316.282227,4293.205078,4519.743652,4518.974121,4398.333496,4456.794922,4909.000000,1.000000,23.000000,,,,0.000000,4.000000,4.000000,4.000000,4.000000,4.000000,4.000000,4.000000,4.000000,4.000000,4.000000,4.000000,4.000000,4.000000,4.000000,100.000000,,,,,,,,,,,,,,,,,,,,,,,,,,,,,,,,,,,,,,,,,,,,,,,,,,,,,,,,,,,,,,,,,,,,,,,,,,,,,,,,,,,,,,,,,,,,,,,,,,,,,,,,,,,,,,,,,,,,,
1768375476.913456,1768375476.914955,93.000000,0.000000,4328.974121,4304.102539,4335.384766,4340.641113,4302.563965,4308.717773,4310.641113,4331.025879,4318.974121,4292.692383,4518.974121,4521.794922,4394.871582,4458.589844,5086.000000,1.000000,23.000000,,,,0.000000,4.000000,4.000000,4.000000,4.000000,4.000000,4.000000,4.000000,4.000000,4.000000,4.000000,4.000000,4.000000,4.000000,4.000000,100.000000,,,,,,,,,,,,,,,,,,,,,,,,,,,,,,,,,,,,,,,,,,,,,,,,,,,,,,,,,,,,,,,,,,,,,,,,,,,,,,,,,,,,,,,,,,,,,,,,,,,,,,,,,,,,,,,,,,,,,
1768375476.921264,1768375476.922664,94.000000,0.000000,4329.871582,4307.563965,4338.205078,4340.769043,4305.897461,4307.179688,4309.358887,4328.077148,4313.333496,4298.589844,4522.436035,4532.307617,4401.666504,4460.128418,4370.000000,1.000000,23.000000,,,,0.000000,4.000000,4.000000,4.000000,4.000000,4.000000,4.000000,4.000000,4.000000,4.000000,4.000000,4.000000,4.000000,4.000000,4.000000,100.000000,,,,,,,,,,,,,,,,,,,,,,,,,,,,,,,,,,,,,,,,,,,,,,,,0.815555,0.450390,0.171664,0.154739,0.147836,1.053700,0.770255,0.141200,0.133424,0.093204,0.754135,0.423418,0.379898,0.190890,0.124771,0.214007,0.347425,0.100596,0.145228,0.088620,0.099739,0.129828,0.128160,0.056487,0.077223,0.147912,0.125874,0.076732,0.068788,0.100250,0.132278,0.191248,0.132307,0.070583,0.094804,0.153156,0.147492,0.074043,0.172670,0.092786,0.232250,0.204180,0.142000,0.175779,0.120176,0.474457,0.242799,0.271497,0.261039,0.092774,0.729334,0.269694,0.265090,0.299807,0.213222,0.527149,0.486187,0.271659,0.370535,0.235069,1.280715,0.255413,0.191082,0.274142,0.167162,1.073096,0.435396,0.394872,0.382736,0.185527
1768375476.929073,1768375476.930472,95.000000,0.000000,4328.974121,4308.205078,4336.153809,4340.641113,4304.871582,4307.307617,4307.307617,4319.102539,4307.051270,4298.205078,4524.230957,4530.769043,4406.153809,4459.743652,4624.000000,1.000000,23.000000,,,,0.000000,4.000000,4.000000,4.000000,4.000000,4.000000,4.000000,4.000000,4.000000,4.000000,4.000000,4.000000,4.000000,4.000000,4.000000,100.000000,,,,,,,,,,,,,,,,,,,,,,,,,,,,,,,,,,,,,,,,,,,,,,,,,,,,,,,,,,,,,,,,,,,,,,,,,,,,,,,,,,,,,,,,,,,,,,,,,,,,,,,,,,,,,,,,,,,,,
1768375476.936881,1768375476.938081,96.000000,0.000000,4326.794922,4304.230957,4334.743652,4341.666504,4301.153809,4307.563965,4305.000000,4319.487305,4307.692383,4295.384766,4520.641113,4523.461426,4397.692383,4460.769043,4909.000000,1.000000,23.000000,,,,0.000000,4.000000,4.000000,4.000000,4.000000,4.000000,4.000000,4.000000,4.000000,4.000000,4.000000,4.000000,4.000000,4.000000,4.000000,100.000000,,,,,,,,,,,,,,,,,,,,,,,,,,,,,,,,,,,,,,,,,,,,,,,,,,,,,,,,,,,,,,,,,,,,,,,,,,,,,,,,,,,,,,,,,,,,,,,,,,,,,,,,,,,,,,,,,,,,,
1768375476.944689,1768375476.945889,97.000000,0.000000,4323.974121,4304.615234,4333.974121,4341.410156,4303.589844,4307.692383,4304.743652,4324.615234,4313.846191,4296.538574,4520.384766,4521.794922,4399.230957,4460.128418,5086.000000,1.000000,23.000000,,,,0.000000,4.000000,4.000000,4.000000,4.000000,4.000000,4.000000,4.000000,4.000000,4.000000,4.000000,4.000000,4.000000,4.000000,4.000000,100.000000,,,,,,,,,,,,,,,,,,,,,,,,,,,,,,,,,,,,,,,,,,,,,,,,,,,,,,,,,,,,,,,,,,,,,,,,,,,,,,,,,,,,,,,,,,,,,,,,,,,,,,,,,,,,,,,,,,,,,
1768375476.952498,1768375476.953598,98.000000,0.000000,4323.846191,4310.000000,4327.692383,4340.641113,4307.692383,4307.948730,4307.307617,4326.666504,4315.384766,4296.666504,4522.692383,4522.179688,4411.666504,4461.025879,4370.000000,1.000000,23.000000,,,,0.000000,4.000000,4.000000,4.000000,4.000000,4.000000,4.000000,4.000000,4.000000,4.000000,4.000000,4.000000,4.000000,4.000000,4.000000,100.000000,,,,,,,,,,,,,,,,,,,,,,,,,,,,,,,,,,,,,,,,,,,,,,,,,,,,,,,,,,,,,,,,,,,,,,,,,,,,,,,,,,,,,,,,,,,,,,,,,,,,,,,,,,,,,,,,,,,,,
1768375476.960306,1768375476.961406,99.000000,0.000000,4328.461426,4309.487305,4325.256348,4343.974121,4306.666504,4310.128418,4309.102539,4328.846191,4315.256348,4298.974121,4523.333496,4526.282227,4414.102539,4467.307617,4624.000000,1.000000,23.000000,,,,0.000000,4.000000,4.000000,4.000000,4.000000,4.000000,4.000000,4.000000,4.000000,4.000000,4.000000,4.000000,4.000000,4.000000,4.000000,100.000000,,,,,,,,,,,,,,,,,,,,,,,,,,,,,,,,,,,,,,,,,,,,,,,,,,,,,,,,,,,,,,,,,,,,,,,,,,,,,,,,,,,,,,,,,,,,,,,,,,,,,,,,,,,,,,,,,,,,,
1768375476.968115,1768375476.969415,100.000000,0.000000,4334.358887,4309.615234,4333.974121,4349.487305,4304.358887,4310.769043,4308.717773,4332.051270,4320.256348,4306.153809,4530.512695,4535.384766,4414.743652,4475.897461,4909.000000,1.000000,23.000000,,,,0.000000,4.000000,4.000000,4.000000,4.000000,4.000000,4.000000,4.000000,4.000000,4.000000,4.000000,4.000000,4.000000,4.000000,4.000000,100.000000,,,,,,,,,,,,,,,,,,,,,,,,,,,,,,,,,,,,,,,,,,,,,,,,,,,,,,,,,,,,,,,,,,,,,,,,,,,,,,,,,,,,,,,,,,,,,,,,,,,,,,,,,,,,,,,,,,,,,
1768375476.975923,1768375476.977223,101.000000,0.000000,4333.589844,4313.461426,4335.769043,4348.205078,4306.282227,4305.256348,4307.692383,4332.307617,4321.794922,4306.410156,4537.051270,4535.256348,4420.769043,4476.666504,5086.000000,1.000000,23.000000,,,,0.000000,4.000000,4.000000,4.000000,4.000000,4.000000,4.000000,4.000000,4.000000,4.000000,4.000000,4.000000,4.000000,4.000000,4.000000,100.000000,,,,,,,,,,,,,,,,,,,,,,,,,,,,,,,,,,,,,,,,,,,,,,,,,,,,,,,,,,,,,,,,,,,,,,,,,,,,,,,,,,,,,,,,,,,,,,,,,,,,,,,,,,,,,,,,,,,,,
1768375476.983732,1768375476.985131,102.000000,0.000000,4324.487305,4307.051270,4326.025879,4341.666504,4305.769043,4303.205078,4307.307617,4329.230957,4314.743652,4301.153809,4527.179688,4528.333496,4415.769043,4463.717773,4370.000000,1.000000,23.000000,,,,0.000000,4.000000,4.000000,4.000000,4.000000,4.000000,4.000000,4.000000,4.000000,4.000000,4.000000,4.000000,4.000000,4.000000,4.000000,100.000000,,,,,,,,,,,,,,,,,,,,,,,,,,,,,,,,,,,,,,,,,,,,,,,,,,,,,,,,,,,,,,,,,,,,,,,,,,,,,,,,,,,,,,,,,,,,,,,,,,,,,,,,,,,,,,,,,,,,,
1768375476.991540,1768375476.992940,103.000000,0.000000,4322.948730,4298.333496,4328.333496,4339.871582,4304.230957,4309.487305,4309.615234,4330.897461,4314.615234,4304.230957,4523.717773,4532.436035,4409.358887,4458.846191,4624.000000,1.000000,23.000000,,,,0.000000,4.000000,4.000000,4.000000,4.000000,4.000000,4.000000,4.000000,4.000000,4.000000,4.000000,4.000000,4.000000,4.000000,4.000000,100.000000,,,,,,,,,,,,,,,,,,,,,,,,,,,,,,,,,,,,,,,,,,,,,,,,,,,,,,,,,,,,,,,,,,,,,,,,,,,,,,,,,,,,,,,,,,,,,,,,,,,,,,,,,,,,,,,,,,,,,
1768375476.999349,1768375477.000548,104.000000,0.000000,4332.692383,4305.000000,4341.666504,4346.153809,4305.641113,4312.051270,4312.692383,4335.641113,4322.051270,4311.025879,4531.538574,4539.743652,4413.333496,4469.230957,4909.000000,1.000000,23.000000,,,,0.000000,4.000000,4.000000,4.000000,4.000000,4.000000,4.000000,4.000000,4.000000,4.000000,4.000000,4.000000,4.000000,4.000000,4.000000,100.000000,,,,,,,,,,,,,,,,,,,,,,,,,,,,,,,,,,,,,,,,,,,,,,,,,,,,,,,,,,,,,,,,,,,,,,,,,,,,,,,,,,,,,,,,,,,,,,,,,,,,,,,,,,,,,,,,,,,,,
1768375477.007157,1768375477.008357,105.000000,0.000000,4337.948730,4313.974121,4345.512695,4351.794922,4307.948730,4308.717773,4312.179688,4335.256348,4322.179688,4308.077148,4530.128418,4536.666504,4415.897461,4475.384766,5086.000000,1.000000,23.000000,,,,0.000000,4.000000,4.000000,4.000000,4.000000,4.000000,4.000000,4.000000,4.000000,4.000000,4.000000,4.000000,4.000000,4.000000,4.000000,100.000000,,,,,,,,,,,,,,,,,,,,,,,,,,,,,,,,,,,,,,,,,,,,,,,,,,,,,,,,,,,,,,,,,,,,,,,,,,,,,,,,,,,,,,,,,,,,,,,,,,,,,,,,,,,,,,,,,,,,,
1768375477.014965,1768375477.016265,106.000000,0.000000,4336.538574,4313.589844,4340.769043,4350.128418,4308.461426,4308.717773,4307.948730,4331.794922,4318.077148,4305.000000,4528.333496,4533.846191,4415.769043,4473.846191,4370.000000,1.000000,23.000000,,,,0.000000,4.000000,4.000000,4.000000,4.000000,4.000000,4.000000,4.000000,4.000000,4.000000,4.000000,4.000000,4.000000,4.000000,4.000000,100.000000,,,,,,,,,,,,,,,,,,,,,,,,,,,,,,,,,,,,,,,,,,,,,,,,,,,,,,,,,,,,,,,,,,,,,,,,,,,,,,,,,,,,,,,,,,,,,,,,,,,,,,,,,,,,,,,,,,,,,
1768375477.022774,1768375477.024074,107.000000,0.000000,4338.077148,4313.589844,4337.436035,4349.487305,4308.974121,4310.769043,4308.205078,4328.205078,4313.589844,4310.128418,4530.897461,4536.666504,4416.282227,4471.666504,4624.000000,1.000000,23.000000,,,,0.000000,4.000000,4.000000,4.000000,4.000000,4.000000,4.000000,4.000000,4.000000,4.000000,4.000000,4.000000,4.000000,4.000000,4.000000,100.000000,,,,,,,,,,,,,,,,,,,,,,,,,,,,,,,,,,,,,,,,,,,,,,,,,,,,,,,,,,,,,,,,,,,,,,,,,,,,,,,,,,,,,,,,,,,,,,,,,,,,,,,,,,,,,,,,,,,,,
1768375477.030582,1768375477.032082,108.000000,0.000000,4336.282227,4314.102539,4336.538574,4349.615234,4306.922852,4309.743652,4308.974121,4324.615234,4308.717773,4306.282227,4526.153809,4534.487305,4414.230957,4467.436035,4909.000000,1.000000,23.000000,,,,0.000000,4.000000,4.000000,4.000000,4.000000,4.000000,4.000000,4.000000,4.000000,4.000000,4.000000,4.000000,4.000000,4.000000,4.000000,100.000000,,,,,,,,,,,,,,,,,,,,,,,,,,,,,,,,,,,,,,,,,,,,,,,,,,,,,,,,,,,,,,,,,,,,,,,,,,,,,,,,,,,,,,,,,,,,,,,,,,,,,,,,,,,,,,,,,,,,,
1768375477.038391,1768375477.039890,109.000000,0.000000,4330.000000,4309.230957,4333.205078,4346.153809,4300.641113,4307.948730,4303.461426,4324.230957,4309.358887,4295.512695,4520.769043,4525.512695,4411.153809,4460.256348,5086.000000,1.000000,23.000000,,,,0.000000,4.000000,4.000000,4.000000,4.000000,4.000000,4.000000,4.000000,4.000000,4.000000,4.000000,4.000000,4.000000,4.000000,4.000000,100.000000,,,,,,,,,,,,,,,,,,,,,,,,,,,,,,,,,,,,,,,,,,,,,,,,,,,,,,,,,,,,,,,,,,,,,,,,,,,,,,,,,,,,,,,,,,,,,,,,,,,,,,,,,,,,,,,,,,,,,
1768375477.046199,1768375477.047799,110.000000,0.000000,4332.563965,4310.384766,4328.589844,4346.153809,4300.128418,4307.179688,4297.692383,4325.256348,4310.384766,4296.153809,4522.692383,4519.102539,4412.051270,4461.025879,4370.000000,1.000000,23.000000,,,,0.000000,4.000000,4.000000,4.000000,4.000000,4.000000,4.000000,4.000000,4.000000,4.000000,4.000000,4.000000,4.000000,4.000000,4.000000,100.000000,,,,,,,,,,,,,,,,,,,,,,,,,,,,,,,,,,,,,,,,,,,,,,,,0.841397,0.397656,0.155286,0.143967,0.155101,0.950159,0.770426,0.158709,0.140370,0.116210,0.928545,0.479221,0.417825,0.178930,0.135126,0.233429,0.395552,0.103203,0.131100,0.097570,0.119234,0.163631,0.129038,0.058845,0.086364,0.162120,0.157134,0.101808,0.066302,0.101377,0.123896,0.224948,0.157501,0.067527,0.102445,0.183802,0.131629,0.067637,0.171099,0.090142,0.281314,0.206151,0.117298,0.163531,0.127340,0.545692,0.212202,0.251558,0.251083,0.110577,0.766295,0.316423,0.253259,0.300753,0.241242,0.571648,0.511455,0.250811,0.392743,0.249904,1.086550,0.283624,0.178058,0.268934,0.187524,0.997408,0.427485,0.387344,0.395695,0.206920
1768375477.054008,1768375477.055607,111.000000,0.000000,4335.128418,4314.871582,4325.512695,4346.410156,4302.563965,4309.102539,4297.820313,4319.871582,4302.307617,4299.487305,4521.922852,4515.000000,4413.846191,4462.179688,4624.000000,1.000000,23.000000,,,,0.000000,4.000000,4.000000,4.000000,4.000000,4.000000,4.000000,4.000000,4.000000,4.000000,4.000000,4.000000,4.000000,4.000000,4.000000,100.000000,,,,,,,,,,,,,,,,,,,,,,,,,,,,,,,,,,,,,,,,,,,,,,,,,,,,,,,,,,,,,,,,,,,,,,,,,,,,,,,,,,,,,,,,,,,,,,,,,,,,,,,,,,,,,,,,,,,,,
1768375477.061816,1768375477.063615,112.000000,0.000000,4327.179688,4306.153809,4324.871582,4340.000000,4299.743652,4309.487305,4300.512695,4316.282227,4302.179688,4291.794922,4516.794922,4511.666504,4408.077148,4455.769043,4909.000000,1.000000,23.000000,,,,0.000000,4.000000,4.000000,4.000000,4.000000,4.000000,4.000000,4.000000,4.000000,4.000000,4.000000,4.000000,4.000000,4.000000,4.000000,100.000000,,,,,,,,,,,,,,,,,,,,,,,,,,,,,,,,,,,,,,,,,,,,,,,,,,,,,,,,,,,,,,,,,,,,,,,,,,,,,,,,,,,,,,,,,,,,,,,,,,,,,,,,,,,,,,,,,,,,,
1768375477.069625,1768375477.071424,113.000000,0.000000,4329.871582,4301.153809,4330.384766,4339.358887,4300.256348,4307.948730,4301.666504,4320.641113,4312.948730,4294.230957,4523.717773,4521.282227,4407.051270,4463.717773,5086.000000,1.000000,23.000000,,,,0.000000,4.000000,4.000000,4.000000,4.000000,4.000000,4.000000,4.000000,4.000000,4.000000,4.000000,4.000000,4.000000,4.000000,4.000000,100.000000,,,,,,,,,,,,,,,,,,,,,,,,,,,,,,,,,,,,,,,,,,,,,,,,,,,,,,,,,,,,,,,,,,,,,,,,,,,,,,,,,,,,,,,,,,,,,,,,,,,,,,,,,,,,,,,,,,,,,
1768375477.077433,1768375477.079332,114.000000,0.000000,4340.512695,4308.846191,4340.384766,4347.436035,4305.384766,4308.077148,4302.820313,4327.051270,4318.077148,4309.871582,4537.307617,4535.641113,4421.410156,4478.077148,4370.000000,1.000000,23.000000,,,,0.000000,4.000000,4.000000,4.000000,4.000000,4.000000,4.000000,4.000000,4.000000,4.000000,4.000000,4.000000,4.000000,4.000000,4.000000,100.000000,,,,,,,,,,,,,,,,,,,,,,,,,,,,,,,,,,,,,,,,,,,,,,,,,,,,,,,,,,,,,,,,,,,,,,,,,,,,,,,,,,,,,,,,,,,,,,,,,,,,,,,,,,,,,,,,,,,,,
1768375477.085241,1768375477.087141,115.000000,0.000000,4341.153809,4311.538574,4344.358887,4350.256348,4307.436035,4309.871582,4308.974121,4331.282227,4320.512695,4314.743652,4536.666504,4536.282227,4430.769043,4476.922852,4624.000000,1.000000,23.000000,,,,0.000000,4.000000,4.000000,4.000000,4.000000,4.000000,4.000000,4.000000,4.000000,4.000000,4.000000,4.000000,4.000000,4.000000,4.000000,100.000000,,,,,,,,,,,,,,,,,,,,,,,,,,,,,,,,,,,,,,,,,,,,,,,,,,,,,,,,,,,,,,,,,,,,,,,,,,,,,,,,,,,,,,,,,,,,,,,,,,,,,,,,,,,,,,,,,,,,,
1768375477.093050,1768375477.094749,116.000000,0.000000,4341.922852,4307.692383,4340.641113,4350.897461,4307.563965,4311.153809,4311.666504,4329.871582,4321.282227,4306.282227,4525.000000,4528.589844,4423.974121,4470.256348,4909.000000,1.000000,23.000000,,,,0.000000,4.000000,4.000000,4.000000,4.000000,4.000000,4.000000,4.000000,4.000000,4.000000,4.000000,4.000000,4.000000,4.000000,4.000000,100.000000,,,,,,,,,,,,,,,,,,,,,,,,,,,,,,,,,,,,,,,,,,,,,,,,,,,,,,,,,,,,,,,,,,,,,,,,,,,,,,,,,,,,,,,,,,,,,,,,,,,,,,,,,,,,,,,,,,,,,
1768375477.100858,1768375477.102558,117.000000,0.000000,4344.871582,4308.717773,4339.871582,4352.436035,4308.461426,4307.436035,4302.051270,4325.000000,4312.307617,4302.179688,4522.948730,4526.666504,4417.948730,4470.897461,5086.000000,1.000000,23.000000,,,,0.000000,4.000000,4.000000,4.000000,4.000000,4.000000,4.000000,4.000000,4.000000,4.000000,4.000000,4.000000,4.000000,4.000000,4.000000,100.000000,,,,,,,,,,,,,,,,,,,,,,,,,,,,,,,,,,,,,,,,,,,,,,,,,,,,,,,,,,,,,,,,,,,,,,,,,,,,,,,,,,,,,,,,,,,,,,,,,,,,,,,,,,,,,,,,,,,,,
1768375477.108667,1768375477.110266,118.000000,0.000000,4343.077148,4314.487305,4343.717773,4348.846191,4305.897461,4304.743652,4298.589844,4324.871582,4307.436035,4303.205078,4525.512695,4528.205078,4416.153809,4467.692383,4370.000000,1.000000,23.000000,,,,0.000000,4.000000,4.000000,4.000000,4.000000,4.000000,4.000000,4.000000,4.000000,4.000000,4.000000,4.000000,4.000000,4.000000,4.000000,100.000000,,,,,,,,,,,,,,,,,,,,,,,,,,,,,,,,,,,,,,,,,,,,,,,,,,,,,,,,,,,,,,,,,,,,,,,,,,,,,,,,,,,,,,,,,,,,,,,,,,,,,,,,,,,,,,,,,,,,,
1768375477.116475,1768375477.118075,119.000000,0.000000,4340.641113,4313.846191,4342.051270,4345.769043,4304.358887,4308.461426,4304.358887,4326.282227,4311.922852,4299.487305,4521.538574,4527.820313,4411.922852,4461.025879,4624.000000,1.000000,23.000000,,,,0.000000,4.000000,4.000000,4.000000,4.000000,4.000000,4.000000,4.000000,4.000000,4.000000,4.000000,4.000000,4.000000,4.000000,4.000000,100.000000,,,,,,,,,,,,,,,,,,,,,,,,,,,,,,,,,,,,,,,,,,,,,,,,,,,,,,,,,,,,,,,,,,,,,,,,,,,,,,,,,,,,,,,,,,,,,,,,,,,,,,,,,,,,,,,,,,,,,
1768375477.124284,1768375477.125683,120.000000,0.000000,4341.410156,4308.846191,4339.102539,4348.846191,4305.897461,4307.307617,4299.487305,4323.589844,4309.102539,4298.333496,4523.205078,4531.025879,4417.436035,4466.025879,4909.000000,1.000000,23.000000,,,,0.000000,4.000000,4.000000,4.000000,4.000000,4.000000,4.000000,4.000000,4.000000,4.000000,4.000000,4.000000,4.000000,4.000000,4.000000,100.000000,,,,,,,,,,,,,,,,,,,,,,,,,,,,,,,,,,,,,,,,,,,,,,,,,,,,,,,,,,,,,,,,,,,,,,,,,,,,,,,,,,,,,,,,,,,,,,,,,,,,,,,,,,,,,,,,,,,,,
1768375477.132092,1768375477.133492,121.000000,0.000000,4341.666504,4307.692383,4338.461426,4348.974121,4306.025879,4300.769043,4294.230957,4322.563965,4305.512695,4300.256348,4529.230957,4533.205078,4424.615234,4473.461426,5086.000000,1.000000,23.000000,,,,0.000000,4.000000,4.000000,4.000000,4.000000,4.000000,4.000000,4.000000,4.000000,4.000000,4.000000,4.000000,4.000000,4.000000,4.000000,100.000000,,,,,,,,,,,,,,,,,,,,,,,,,,,,,,,,,,,,,,,,,,,,,,,,,,,,,,,,,,,,,,,,,,,,,,,,,,,,,,,,,,,,,,,,,,,,,,,,,,,,,,,,,,,,,,,,,,,,,
1768375477.139901,1768375477.141200,122.000000,0.000000,4341.922852,4311.025879,4336.922852,4345.641113,4307.051270,4304.230957,4305.256348,4322.948730,4308.077148,4298.717773,4526.025879,4528.333496,4416.153809,4474.487305,4370.000000,1.000000,23.000000,,,,0.000000,4.000000,4.000000,4.000000,4.000000,4.000000,4.000000,4.000000,4.000000,4.000000,4.000000,4.000000,4.000000,4.000000,4.000000,100.000000,,,,,,,,,,,,,,,,,,,,,,,,,,,,,,,,,,,,,,,,,,,,,,,,,,,,,,,,,,,,,,,,,,,,,,,,,,,,,,,,,,,,,,,,,,,,,,,,,,,,,,,,,,,,,,,,,,,,,
1768375477.147709,1768375477.149009,123.000000,0.000000,4342.436035,4308.333496,4336.410156,4346.153809,4307.051270,4309.743652,4308.589844,4324.102539,4309.743652,4299.102539,4524.615234,4524.487305,4411.794922,4473.205078,4624.000000,1.000000,23.000000,,,,0.000000,4.000000,4.000000,4.000000,4.000000,4.000000,4.000000,4.000000,4.000000,4.000000,4.000000,4.000000,4.000000,4.000000,4.000000,100.000000,,,,,,,,,,,,,,,,,,,,,,,,,,,,,,,,,,,,,,,,,,,,,,,,,,,,,,,,,,,,,,,,,,,,,,,,,,,,,,,,,,,,,,,,,,,,,,,,,,,,,,,,,,,,,,,,,,,,,
1768375477.155517,1768375477.156617,124.000000,0.000000,4341.025879,4303.461426,4338.461426,4346.153809,4304.615234,4305.769043,4297.179688,4330.512695,4312.820313,4303.589844,4531.538574,4528.461426,4418.333496,4475.256348,4909.000000,1.000000,23.000000,,,,0.000000,4.000000,4.000000,4.000000,4.000000,4.000000,4.000000,4.000000,4.000000,4.000000,4.000000,4.000000,4.000000,4.000000,4.000000,100.000000,,,,,,,,,,,,,,,,,,,,,,,,,,,,,,,,,,,,,,,,,,,,,,,,,,,,,,,,,,,,,,,,,,,,,,,,,,,,,,,,,,,,,,,,,,,,,,,,,,,,,,,,,,,,,,,,,,,,,
1768375477.163326,1768375477.164426,125.000000,0.000000,4339.487305,4304.358887,4338.333496,4341.282227,4302.179688,4305.256348,4300.897461,4331.922852,4311.794922,4301.666504,4531.922852,4528.717773,4416.153809,4476.025879,5086.000000,1.000000,23.000000,,,,0.000000,4.000000,4.000000,4.000000,4.000000,4.000000,4.000000,4.000000,4.000000,4.000000,4.000000,4.000000,4.000000,4.000000,4.000000,100.000000,,,,,,,,,,,,,,,,,,,,,,,,,,,,,,,,,,,,,,,,,,,,,,,,,,,,,,,,,,,,,,,,,,,,,,,,,,,,,,,,,,,,,,,,,,,,,,,,,,,,,,,,,,,,,,,,,,,,,
1768375477.171134,1768375477.172334,126.000000,0.000000,4335.512695,4300.000000,4333.717773,4338.717773,4301.025879,4309.102539,4312.051270,4325.897461,4305.000000,4297.051270,4522.948730,4525.128418,4408.974121,4470.128418,4370.000000,1.000000,23.000000,,,,0.000000,4.000000,4.000000,4.000000,4.000000,4.000000,4.000000,4.000000,4.000000,4.000000,4.000000,4.000000,4.000000,4.000000,4.000000,100.000000,,,,,,,,,,,,,,,,,,,,,,,,,,,,,,,,,,,,,,,,,,,,,,,,0.889747,0.324897,0.154911,0.139967,0.158606,0.853603,0.744598,0.179992,0.157115,0.146404,1.043826,0.486377,0.412042,0.167023,0.144105,0.258805,0.430352,0.104863,0.117509,0.106450,0.145663,0.199064,0.133510,0.066885,0.097489,0.175621,0.177321,0.131977,0.067211,0.102371,0.119956,0.245815,0.185027,0.068879,0.108059,0.230842,0.123340,0.070227,0.168215,0.086123,0.336548,0.207040,0.094255,0.154842,0.131907,0.616727,0.181810,0.231627,0.239812,0.124570,0.762926,0.372996,0.262675,0.300593,0.258425,0.610660,0.496988,0.246784,0.413557,0.250882,0.921430,0.312742,0.174841,0.263071,0.205725,0.942225,0.395205,0.381138,0.401281,0.223948
1768375477.178943,1768375477.180143,127.000000,0.000000,4336.922852,4298.846191,4333.589844,4344.230957,4303.333496,4311.153809,4312.436035,4324.358887,4303.589844,4296.666504,4520.897461,4526.025879,4411.025879,4466.538574,23.000000,1.000000,23.000000,,,,0.000000,4.000000,4.000000,4.000000,4.000000,4.000000,4.000000,4.000000,4.000000,4.000000,4.000000,4.000000,4.000000,4.000000,4.000000,100.000000,,,,,,,,,,,,,,,,,,,,,,,,,,,,,,,,,,,,,,,,,,,,,,,,,,,,,,,,,,,,,,,,,,,,,,,,,,,,,,,,,,,,,,,,,,,,,,,,,,,,,,,,,,,,,,,,,,,,,
1768375477.186751,1768375477.188151,0.000000,0.000000,4340.512695,4306.794922,4337.563965,4349.102539,4306.025879,4310.000000,4308.846191,4327.436035,4308.333496,4293.077148,4523.589844,4523.333496,4410.256348,4462.820313,4038.000000,1.000000,23.000000,,,,0.000000,4.000000,4.000000,4.000000,4.000000,4.000000,4.000000,4.000000,4.000000,4.000000,4.000000,4.000000,4.000000,4.000000,4.000000,100.000000,,,,,,,,,,,,,,,,,,,,,,,,,,,,,,,,,,,,,,,,,,,,,,,,,,,,,,,,,,,,,,,,,,,,,,,,,,,,,,,,,,,,,,,,,,,,,,,,,,,,,,,,,,,,,,,,,,,,,
1768375477.194560,1768375477.195959,1.000000,0.000000,4337.307617,4312.307617,4339.487305,4346.282227,4303.974121,4304.230957,4309.102539,4328.846191,4310.641113,4293.589844,4522.179688,4521.410156,4406.666504,4459.743652,4008.000000,1.000000,23.000000,,,,0.000000,4.000000,4.000000,4.000000,4.000000,4.000000,4.000000,4.000000,4.000000,4.000000,4.000000,4.000000,4.000000,4.000000,4.000000,100.000000,,,,,,,,,,,,,,,,,,,,,,,,,,,,,,,,,,,,,,,,,,,,,,,,,,,,,,,,,,,,,,,,,,,,,,,,,,,,,,,,,,,,,,,,,,,,,,,,,,,,,,,,,,,,,,,,,,,,,
1768375477.202368,1768375477.203668,2.000000,0.000000,4337.692383,4314.743652,4341.666504,4345.769043,4301.794922,4302.692383,4307.307617,4330.769043,4309.615234,4301.153809,4524.615234,4534.102539,4410.384766,4466.410156,3902.000000,1.000000,23.000000,,,,0.000000,4.000000,4.000000,4.000000,4.000000,4.000000,4.000000,4.000000,4.000000,4.000000,4.000000,4.000000,4.000000,4.000000,4.000000,100.000000,,,,,,,,,,,,,,,,,,,,,,,,,,,,,,,,,,,,,,,,,,,,,,,,,,,,,,,,,,,,,,,,,,,,,,,,,,,,,,,,,,,,,,,,,,,,,,,,,,,,,,,,,,,,,,,,,,,,,
1768375477.210177,1768375477.211476,3.000000,0.000000,4342.692383,4320.897461,4343.846191,4349.743652,4304.871582,4308.974121,4305.897461,4328.974121,4306.282227,4300.641113,4526.794922,4541.410156,4412.692383,4474.358887,3911.000000,1.000000,23.000000,,,,0.000000,4.000000,4.000000,4.000000,4.000000,4.000000,4.000000,4.000000,4.000000,4.000000,4.000000,4.000000,4.000000,4.000000,4.000000,100.000000,,,,,,,,,,,,,,,,,,,,,,,,,,,,,,,,,,,,,,,,,,,,,,,,,,,,,,,,,,,,,,,,,,,,,,,,,,,,,,,,,,,,,,,,,,,,,,,,,,,,,,,,,,,,,,,,,,,,,
1768375477.217985,1768375477.219085,4.000000,0.000000,4342.307617,4327.051270,4342.948730,4347.051270,4306.153809,4309.102539,4308.333496,4325.641113,4305.897461,4297.179688,4524.487305,4533.717773,4411.538574,4473.461426,3861.000000,1.000000,23.000000,,,,0.000000,4.000000,4.000000,4.000000,4.000000,4.000000,4.000000,4.000000,4.000000,4.000000,4.000000,4.000000,4.000000,4.000000,4.000000,100.000000,,,,,,,,,,,,,,,,,,,,,,,,,,,,,,,,,,,,,,,,,,,,,,,,,,,,,,,,,,,,,,,,,,,,,,,,,,,,,,,,,,,,,,,,,,,,,,,,,,,,,,,,,,,,,,,,,,,,,
1768375477.225793,1768375477.226893,5.000000,0.000000,4338.333496,4328.077148,4340.000000,4343.077148,4302.307617,4305.512695,4308.205078,4331.153809,4311.666504,4300.256348,4524.871582,4533.205078,4414.102539,4473.333496,3747.000000,1.000000,23.000000,,,,0.000000,4.000000,4.000000,4.000000,4.000000,4.000000,4.000000,4.000000,4.000000,4.000000,4.000000,4.000000,4.000000,4.000000,4.000000,100.000000,,,,,,,,,,,,,,,,,,,,,,,,,,,,,,,,,,,,,,,,,,,,,,,,,,,,,,,,,,,,,,,,,,,,,,,,,,,,,,,,,,,,,,,,,,,,,,,,,,,,,,,,,,,,,,,,,,,,,
1768375477.233602,1768375477.234602,6.000000,0.000000,4335.641113,4328.846191,4340.256348,4345.384766,4301.025879,4310.897461,4310.641113,4335.000000,4313.589844,4299.871582,4522.948730,4532.307617,4409.230957,4472.051270,3772.000000,1.000000,23.000000,,,,0.000000,4.000000,4.000000,4.000000,4.000000,4.000000,4.000000,4.000000,4.000000,4.000000,4.000000,4.000000,4.000000,4.000000,4.000000,100.000000,,,,,,,,,,,,,,,,,,,,,,,,,,,,,,,,,,,,,,,,,,,,,,,,,,,,,,,,,,,,,,,,,,,,,,,,,,,,,,,,,,,,,,,,,,,,,,,,,,,,,,,,,,,,,,,,,,,,,
1768375477.241410,1768375477.242410,7.000000,0.000000,4335.000000,4328.205078,4342.179688,4344.487305,4302.820313,4311.922852,4310.641113,4330.000000,4309.358887,4293.717773,4519.871582,4519.615234,4400.256348,4461.922852,3104.000000,1.000000,23.000000,,,,0.000000,4.000000,4.000000,4.000000,4.000000,4.000000,4.000000,4.000000,4.000000,4.000000,4.000000,4.000000,4.000000,4.000000,4.000000,100.000000,,,,,,,,,,,,,,,,,,,,,,,,,,,,,,,,,,,,,,,,,,,,,,,,,,,,,,,,,,,,,,,,,,,,,,,,,,,,,,,,,,,,,,,,,,,,,,,,,,,,,,,,,,,,,,,,,,,,,
1768375477.249219,1768375477.250419,8.000000,0.000000,4333.589844,4329.743652,4341.794922,4341.282227,4303.717773,4306.410156,4307.948730,4327.307617,4309.743652,4294.487305,4521.922852,4520.512695,4401.922852,4462.051270,3974.000000,1.000000,23.000000,,,,0.000000,4.000000,4.000000,4.000000,4.000000,4.000000,4.000000,4.000000,4.000000,4.000000,4.000000,4.000000,4.000000,4.000000,4.000000,100.000000,,,,,,,,,,,,,,,,,,,,,,,,,,,,,,,,,,,,,,,,,,,,,,,,,,,,,,,,,,,,,,,,,,,,,,,,,,,,,,,,,,,,,,,,,,,,,,,,,,,,,,,,,,,,,,,,,,,,,
1768375477.257027,1768375477.258227,9.000000,0.000000,4330.000000,4330.641113,4340.256348,4343.461426,4306.025879,4312.563965,4309.487305,4329.743652,4313.205078,4300.512695,4525.128418,4535.000000,4408.077148,4473.205078,3987.000000,1.000000,23.000000,,,,0.000000,4.000000,4.000000,4.000000,4.000000,4.000000,4.000000,4.000000,4.000000,4.000000,4.000000,4.000000,4.000000,4.000000,4.000000,100.000000,,,,,,,,,,,,,,,,,,,,,,,,,,,,,,,,,,,,,,,,,,,,,,,,,,,,,,,,,,,,,,,,,,,,,,,,,,,,,,,,,,,,,,,,,,,,,,,,,,,,,,,,,,,,,,,,,,,,,
1768375477.264836,1768375477.266136,10.000000,0.000000,4327.563965,4326.410156,4337.436035,4343.333496,4305.769043,4318.461426,4310.897461,4332.820313,4314.358887,4302.563965,4525.384766,4537.820313,4409.358887,4475.128418,4370.000000,1.000000,23.000000,,,,0.000000,4.000000,4.000000,4.000000,4.000000,4.000000,4.000000,4.000000,4.000000,4.000000,4.000000,4.000000,4.000000,4.000000,4.000000,100.000000,,,,,,,,,,,,,,,,,,,,,,,,,,,,,,,,,,,,,,,,,,,,,,,,,,,,,,,,,,,,,,,,,,,,,,,,,,,,,,,,,,,,,,,,,,,,,,,,,,,,,,,,,,,,,,,,,,,,,
1768375477.272644,1768375477.273944,11.000000,0.000000,4329.487305,4323.333496,4336.025879,4338.205078,4302.563965,4311.025879,4308.974121,4333.205078,4314.358887,4300.769043,4524.615234,4531.153809,4404.358887,4472.051270,4624.000000,1.000000,23.000000,,,,0.000000,4.000000,4.000000,4.000000,4.000000,4.000000,4.000000,4.000000,4.000000,4.000000,4.000000,4.000000,4.000000,4.000000,4.000000,100.000000,,,,,,,,,,,,,,,,,,,,,,,,,,,,,,,,,,,,,,,,,,,,,,,,,,,,,,,,,,,,,,,,,,,,,,,,,,,,,,,,,,,,,,,,,,,,,,,,,,,,,,,,,,,,,,,,,,,,,
1768375477.280453,1768375477.281952,12.000000,0.000000,4331.153809,4324.487305,4337.051270,4339.230957,4303.974121,4306.922852,4307.948730,4333.717773,4313.717773,4296.538574,4523.717773,4529.230957,4401.666504,4472.307617,4909.000000,1.000000,23.000000,,,,0.000000,4.000000,4.000000,4.000000,4.000000,4.000000,4.000000,4.000000,4.000000,4.000000,4.000000,4.000000,4.000000,4.000000,4.000000,100.000000,,,,,,,,,,,,,,,,,,,,,,,,,,,,,,,,,,,,,,,,,,,,,,,,,,,,,,,,,,,,,,,,,,,,,,,,,,,,,,,,,,,,,,,,,,,,,,,,,,,,,,,,,,,,,,,,,,,,,
1768375477.288261,1768375477.289761,13.000000,0.000000,4330.000000,4325.769043,4336.794922,4344.358887,4307.692383,4313.205078,4309.615234,4335.000000,4313.717773,4295.256348,4524.615234,4529.102539,4405.897461,4473.589844,5086.000000,1.000000,23.000000,,,,0.000000,4.000000,4.000000,4.000000,4.000000,4.000000,4.000000,4.000000,4.000000,4.000000,4.000000,4.000000,4.000000,4.000000,4.000000,100.000000,,,,,,,,,,,,,,,,,,,,,,,,,,,,,,,,,,,,,,,,,,,,,,,,,,,,,,,,,,,,,,,,,,,,,,,,,,,,,,,,,,,,,,,,,,,,,,,,,,,,,,,,,,,,,,,,,,,,,
1768375477.296070,1768375477.297469,14.000000,0.000000,4330.000000,4322.179688,4335.000000,4342.692383,4305.769043,4314.871582,4310.897461,4331.794922,4311.666504,4296.025879,4523.205078,4531.282227,4409.615234,4473.589844,4370.000000,1.000000,23.000000,,,,0.000000,4.000000,4.000000,4.000000,4.000000,4.000000,4.000000,4.000000,4.000000,4.000000,4.000000,4.000000,4.000000,4.000000,4.000000,100.000000,1.000000,16.666666,4.000000,4.000000,4.000000,4.000000,1.000000,0.000000,1.000000,1.000000,4.000000,4.000000,4.000000,4.000000,4.000000,4.000000,,,,,,,,,,,,,,,,,,,,,,,,,,,,,,,,0.916131,0.252958,0.166387,0.142914,0.157729,0.775379,0.695416,0.199928,0.181302,0.176380,1.048797,0.448741,0.371932,0.159524,0.150408,0.272206,0.442392,0.105353,0.108447,0.113280,0.171070,0.223423,0.137320,0.077118,0.107566,0.182383,0.180981,0.163335,0.070960,0.104220,0.112084,0.252495,0.205395,0.073617,0.110668,0.287118,0.119877,0.081391,0.165681,0.079793,0.382597,0.205563,0.078641,0.151340,0.130230,0.673788,0.159891,0.222730,0.229425,0.131564,0.721375,0.424656,0.299093,0.296676,0.258187,0.625493,0.451318,0.273948,0.427901,0.236913,0.793326,0.326898,0.177906,0.254066,0.213979,0.904547,0.349233,0.382156,0.392370,0.232012
1768375477.303878,1768375477.305278,15.000000,0.000000,4332.307617,4320.128418,4338.461426,4340.897461,4303.974121,4309.743652,4311.666504,4328.077148,4308.717773,4296.538574,4521.153809,4537.563965,4407.179688,4472.948730,4624.000000,1.000000,23.000000,,,,0.000000,4.000000,4.000000,4.000000,4.000000,4.000000,4.000000,4.000000,4.000000,4.000000,4.000000,4.000000,4.000000,4.000000,4.000000,100.000000,,,,,,,,,,,,,,,,,,,,,,,,,,,,,,,,,,,,,,,,,,,,,,,,,,,,,,,,,,,,,,,,,,,,,,,,,,,,,,,,,,,,,,,,,,,,,,,,,,,,,,,,,,,,,,,,,,,,,
1768375477.311686,1768375477.312886,16.000000,0.000000,4333.205078,4324.102539,4345.512695,4345.000000,4311.025879,4309.871582,4312.307617,4333.077148,4312.948730,4300.641113,4528.846191,4545.897461,4409.487305,4474.230957,0.000000,1.000000,23.000000,,,,0.000000,4.000000,4.000000,4.000000,4.000000,4.000000,4.000000,4.000000,4.000000,4.000000,4.000000,4.000000,4.000000,4.000000,4.000000,100.000000,,,,,,,,,,,,,,,,,,,,,,,,,,,,,,,,,,,,,,,,,,,,,,,,,,,,,,,,,,,,,,,,,,,,,,,,,,,,,,,,,,,,,,,,,,,,,,,,,,,,,,,,,,,,,,,,,,,,,
1768375477.319495,1768375477.320695,17.000000,0.000000,4330.512695,4325.256348,4345.128418,4347.436035,4312.179688,4312.436035,4312.051270,4336.153809,4315.512695,4299.743652,4532.563965,4545.384766,4415.000000,4476.025879,0.000000,1.000000,23.000000,,,,0.000000,4.000000,4.000000,4.000000,4.000000,4.000000,4.000000,4.000000,4.000000,4.000000,4.000000,4.000000,4.000000,4.000000,4.000000,100.000000,,,,,,,,,,,,,,,,,,,,,,,,,,,,,,,,,,,,,,,,,,,,,,,,,,,,,,,,,,,,,,,,,,,,,,,,,,,,,,,,,,,,,,,,,,,,,,,,,,,,,,,,,,,,,,,,,,,,,
1768375477.327303,1768375477.328403,18.000000,0.000000,4332.692383,4325.000000,4340.512695,4347.051270,4307.692383,4308.205078,4308.077148,4327.563965,4309.230957,4292.948730,4522.563965,4535.641113,4412.436035,4474.615234,0.000000,1.000000,23.000000,,,,0.000000,4.000000,4.000000,4.000000,4.000000,4.000000,4.000000,4.000000,4.000000,4.000000,4.000000,4.000000,4.000000,4.000000,4.000000,100.000000,,,,,,,,,,,,,,,,,,,,,,,,,,,,,,,,,,,,,,,,,,,,,,,,,,,,,,,,,,,,,,,,,,,,,,,,,,,,,,,,,,,,,,,,,,,,,,,,,,,,,,,,,,,,,,,,,,,,,
1768375477.335112,1768375477.336212,19.000000,0.000000,4338.974121,4326.282227,4341.794922,4350.256348,4311.666504,4308.589844,4306.794922,4325.128418,4308.333496,4292.307617,4518.589844,4532.692383,4411.410156,4472.179688,0.000000,1.000000,23.000000,,,,0.000000,4.000000,4.000000,4.000000,4.000000,4.000000,4.000000,4.000000,4.000000,4.000000,4.000000,4.000000,4.000000,4.000000,4.000000,100.000000,,,,,,,,,,,,,,,,,,,,,,,,,,,,,,,,,,,,,,,,,,,,,,,,,,,,,,,,,,,,,,,,,,,,,,,,,,,,,,,,,,,,,,,,,,,,,,,,,,,,,,,,,,,,,,,,,,,,,
1768375477.342920,1768375477.344220,20.000000,0.000000,4340.512695,4327.179688,4348.333496,4355.769043,4314.487305,4317.820313,4314.743652,4334.487305,4317.692383,4299.230957,4523.461426,4538.205078,4413.333496,4474.358887,0.000000,1.000000,23.000000,,,,0.000000,4.000000,4.000000,4.000000,4.000000,4.000000,4.000000,4.000000,4.000000,4.000000,4.000000,4.000000,4.000000,4.000000,4.000000,100.000000,,,,,,,,,,,,,,,,,,,,,,,,,,,,,,,,,,,,,,,,,,,,,,,,,,,,,,,,,,,,,,,,,,,,,,,,,,,,,,,,,,,,,,,,,,,,,,,,,,,,,,,,,,,,,,,,,,,,,
1768375477.350729,1768375477.352028,21.000000,0.000000,4341.538574,4328.846191,4353.974121,4358.461426,4313.589844,4320.256348,4316.666504,4336.922852,4318.589844,4300.000000,4523.461426,4541.538574,4410.000000,4476.282227,0.000000,1.000000,23.000000,,,,0.000000,4.000000,4.000000,4.000000,4.000000,4.000000,4.000000,4.000000,4.000000,4.000000,4.000000,4.000000,4.000000,4.000000,4.000000,100.000000,,,,,,,,,,,,,,,,,,,,,,,,,,,,,,,,,,,,,,,,,,,,,,,,,,,,,,,,,,,,,,,,,,,,,,,,,,,,,,,,,,,,,,,,,,,,,,,,,,,,,,,,,,,,,,,,,,,,,
1768375477.358537,1768375477.359937,22.000000,0.000000,4341.025879,4330.128418,4353.589844,4357.563965,4312.692383,4312.692383,4312.692383,4332.179688,4312.948730,4297.179688,4521.410156,4539.230957,4406.538574,4470.000000,0.000000,1.000000,23.000000,,,,0.000000,4.000000,4.000000,4.000000,4.000000,4.000000,4.000000,4.000000,4.000000,4.000000,4.000000,4.000000,4.000000,4.000000,4.000000,100.000000,,,,,,,,,,,,,,,,,,,,,,,,,,,,,,,,,,,,,,,,,,,,,,,,,,,,,,,,,,,,,,,,,,,,,,,,,,,,,,,,,,,,,,,,,,,,,,,,,,,,,,,,,,,,,,,,,,,,,
1768375477.366345,1768375477.367745,23.000000,0.000000,4339.230957,4326.666504,4349.487305,4352.307617,4310.897461,4306.794922,4314.102539,4332.436035,4317.692383,4299.615234,4521.153809,4535.256348,4406.666504,4468.461426,0.000000,1.000000,23.000000,,,,0.000000,4.000000,4.000000,4.000000,4.000000,4.000000,4.000000,4.000000,4.000000,4.000000,4.000000,4.000000,4.000000,4.000000,4.000000,100.000000,,,,,,,,,,,,,,,,,,,,,,,,,,,,,,,,,,,,,,,,,,,,,,,,,,,,,,,,,,,,,,,,,,,,,,,,,,,,,,,,,,,,,,,,,,,,,,,,,,,,,,,,,,,,,,,,,,,,,
1768375477.374154,1768375477.375753,24.000000,0.000000,4339.871582,4323.717773,4348.205078,4348.205078,4309.615234,4312.179688,4318.205078,4338.461426,4326.922852,4301.025879,4522.692383,4530.384766,4406.794922,4471.282227,0.000000,1.000000,23.000000,,,,0.000000,4.000000,4.000000,4.000000,4.000000,4.000000,4.000000,4.000000,4.000000,4.000000,4.000000,4.000000,4.000000,4.000000,4.000000,100.000000,,,,,,,,,,,,,,,,,,,,,,,,,,,,,,,,,,,,,,,,,,,,,,,,,,,,,,,,,,,,,,,,,,,,,,,,,,,,,,,,,,,,,,,,,,,,,,,,,,,,,,,,,,,,,,,,,,,,,
1768375477.381962,1768375477.383562,25.000000,0.000000,4339.487305,4325.256348,4350.641113,4348.461426,4308.589844,4318.205078,4319.487305,4338.717773,4325.256348,4299.743652,4524.871582,4528.077148,4405.256348,4464.230957,0.000000,1.000000,23.000000,,,,0.000000,4.000000,4.000000,4.000000,4.000000,4.000000,4.000000,4.000000,4.000000,4.000000,4.000000,4.000000,4.000000,4.000000,4.000000,100.000000,,,,,,,,,,,,,,,,,,,,,,,,,,,,,,,,,,,,,,,,,,,,,,,,,,,,,,,,,,,,,,,,,,,,,,,,,,,,,,,,,,,,,,,,,,,,,,,,,,,,,,,,,,,,,,,,,,,,,
1768375477.389771,1768375477.391470,26.000000,0.000000,4334.871582,4320.512695,4349.358887,4346.282227,4307.436035,4312.307617,4315.256348,4332.820313,4316.794922,4297.820313,4523.077148,4531.282227,4409.358887,4463.077148,0.000000,1.000000,23.000000,,,,0.000000,4.000000,4.000000,4.000000,4.000000,4.000000,4.000000,4.000000,4.000000,4.000000,4.000000,4.000000,4.000000,4.000000,4.000000,100.000000,,,,,,,,,,,,,,,,,,,,,,,,,,,,,,,,,,,,,,,,,,,,,,,,,,,,,,,,,,,,,,,,,,,,,,,,,,,,,,,,,,,,,,,,,,,,,,,,,,,,,,,,,,,,,,,,,,,,,
1768375477.397579,1768375477.399279,27.000000,0.000000,4331.153809,4313.205078,4347.563965,4345.000000,4306.538574,4305.256348,4309.487305,4331.666504,4318.333496,4301.666504,4522.179688,4535.256348,4413.333496,4471.794922,0.000000,1.000000,23.000000,,,,0.000000,4.000000,4.000000,4.000000,4.000000,4.000000,4.000000,4.000000,4.000000,4.000000,4.000000,4.000000,4.000000,4.000000,4.000000,100.000000,,,,,,,,,,,,,,,,,,,,,,,,,,,,,,,,,,,,,,,,,,,,,,,,,,,,,,,,,,,,,,,,,,,,,,,,,,,,,,,,,,,,,,,,,,,,,,,,,,,,,,,,,,,,,,,,,,,,,
1768375477.405388,1768375477.407287,28.000000,0.000000,4331.538574,4313.205078,4347.307617,4347.307617,4308.589844,4309.102539,4312.179688,4337.692383,4323.717773,4307.307617,4524.615234,4537.948730,4411.282227,4467.436035,0.000000,1.000000,23.000000,,,,0.000000,4.000000,4.000000,4.000000,4.000000,4.000000,4.000000,4.000000,4.000000,4.000000,4.000000,4.000000,4.000000,4.000000,4.000000,100.000000,,,,,,,,,,,,,,,,,,,,,,,,,,,,,,,,,,,,,,,,,,,,,,,,,,,,,,,,,,,,,,,,,,,,,,,,,,,,,,,,,,,,,,,,,,,,,,,,,,,,,,,,,,,,,,,,,,,,,
1768375477.413196,1768375477.415095,29.000000,0.000000,4334.358887,4312.948730,4348.461426,4346.282227,4309.871582,4314.102539,4321.666504,4339.102539,4318.461426,4305.384766,4525.512695,4539.487305,4411.410156,4462.179688,0.000000,1.000000,23.000000,,,,0.000000,4.000000,4.000000,4.000000,4.000000,4.000000,4.000000,4.000000,4.000000,4.000000,4.000000,4.000000,4.000000,4.000000,4.000000,100.000000,,,,,,,,,,,,,,,,,,,,,,,,,,,,,,,,,,,,,,,,,,,,,,,,,,,,,,,,,,,,,,,,,,,,,,,,,,,,,,,,,,,,,,,,,,,,,,,,,,,,,,,,,,,,,,,,,,,,,
1768375477.421004,1768375477.422804,30.000000,0.000000,4338.717773,4312.563965,4357.179688,4345.641113,4309.615234,4310.256348,4321.922852,4331.922852,4311.666504,4299.743652,4525.512695,4539.358887,4414.871582,4474.743652,0.000000,1.000000,23.000000,,,,0.000000,4.000000,4.000000,4.000000,4.000000,4.000000,4.000000,4.000000,4.000000,4.000000,4.000000,4.000000,4.000000,4.000000,4.000000,100.000000,,,,,,,,,,,,,,,,,,,,,,,,,,,,,,,,,,,,,,,,,,,,,,,,0.885634,0.203872,0.185471,0.150820,0.152509,0.726751,0.632042,0.216212,0.206882,0.197497,0.934961,0.397146,0.320560,0.158295,0.153098,0.265939,0.429450,0.106092,0.105780,0.115927,0.190421,0.227175,0.135926,0.085533,0.112893,0.181005,0.168369,0.189482,0.074565,0.107139,0.100733,0.250827,0.212859,0.079292,0.111281,0.348238,0.120869,0.097981,0.163370,0.072140,0.414457,0.204055,0.076418,0.154018,0.122598,0.710534,0.150026,0.230735,0.220013,0.131446,0.657921,0.455163,0.354928,0.289444,0.240660,0.620567,0.399261,0.330736,0.433950,0.213390,0.708368,0.320914,0.183701,0.242450,0.208472,0.879330,0.302690,0.397231,0.369398,0.229617
1768375477.428813,1768375477.430612,31.000000,0.000000,4340.897461,4314.871582,4358.974121,4348.974121,4308.974121,4308.333496,4314.487305,4331.538574,4314.743652,4298.077148,4526.025879,4539.487305,4414.615234,4480.384766,0.000000,1.000000,23.000000,,,,0.000000,4.000000,4.000000,4.000000,4.000000,4.000000,4.000000,4.000000,4.000000,4.000000,4.000000,4.000000,4.000000,4.000000,4.000000,100.000000,,,,,,,,,,,,,,,,,,,,,,,,,,,,,,,,,,,,,,,,,,,,,,,,,,,,,,,,,,,,,,,,,,,,,,,,,,,,,,,,,,,,,,,,,,,,,,,,,,,,,,,,,,,,,,,,,,,,,
1768375477.436621,1768375477.438621,32.000000,0.000000,4340.128418,4316.538574,4347.692383,4348.974121,4305.769043,4309.615234,4312.820313,4338.333496,4320.000000,4301.666504,4524.871582,4538.205078,4412.692383,4475.128418,0.000000,1.000000,23.000000,,,,0.000000,4.000000,4.000000,4.000000,4.000000,4.000000,4.000000,4.000000,4.000000,4.000000,4.000000,4.000000,4.000000,4.000000,4.000000,100.000000,,,,,,,,,,,,,,,,,,,,,,,,,,,,,,,,,,,,,,,,,,,,,,,,,,,,,,,,,,,,,,,,,,,,,,,,,,,,,,,,,,,,,,,,,,,,,,,,,,,,,,,,,,,,,,,,,,,,,
1768375477.444430,1768375477.446429,33.000000,0.000000,4339.487305,4313.461426,4343.717773,4345.641113,4305.512695,4308.717773,4312.051270,4334.871582,4317.179688,4301.410156,4523.461426,4531.922852,4410.897461,4475.128418,0.000000,1.000000,23.000000,,,,0.000000,4.000000,4.000000,4.000000,4.000000,4.000000,4.000000,4.000000,4.000000,4.000000,4.000000,4.000000,4.000000,4.000000,4.000000,100.000000,,,,,,,,,,,,,,,,,,,,,,,,,,,,,,,,,,,,,,,,,,,,,,,,,,,,,,,,,,,,,,,,,,,,,,,,,,,,,,,,,,,,,,,,,,,,,,,,,,,,,,,,,,,,,,,,,,,,,
1768375477.452238,1768375477.454138,34.000000,0.000000,4340.256348,4311.025879,4351.922852,4345.769043,4309.743652,4306.794922,4311.153809,4326.794922,4312.051270,4298.205078,4523.717773,4532.051270,4410.512695,4474.615234,0.000000,1.000000,23.000000,,,,0.000000,4.000000,4.000000,4.000000,4.000000,4.000000,4.000000,4.000000,4.000000,4.000000,4.000000,4.000000,4.000000,4.000000,4.000000,100.000000,,,,,,,,,,,,,,,,,,,,,,,,,,,,,,,,,,,,,,,,,,,,,,,,,,,,,,,,,,,,,,,,,,,,,,,,,,,,,,,,,,,,,,,,,,,,,,,,,,,,,,,,,,,,,,,,,,,,,
1768375477.460047,1768375477.461946,35.000000,0.000000,4342.051270,4312.948730,4353.589844,4347.436035,4310.641113,4307.307617,4311.153809,4328.333496,4312.692383,4297.948730,4521.410156,4538.205078,4411.282227,4474.230957,0.000000,1.000000,23.000000,,,,0.000000,4.000000,4.000000,4.000000,4.000000,4.000000,4.000000,4.000000,4.000000,4.000000,4.000000,4.000000,4.000000,4.000000,4.000000,100.000000,,,,,,,,,,,,,,,,,,,,,,,,,,,,,,,,,,,,,,,,,,,,,,,,,,,,,,,,,,,,,,,,,,,,,,,,,,,,,,,,,,,,,,,,,,,,,,,,,,,,,,,,,,,,,,,,,,,,,
1768375477.467855,1768375477.469755,36.000000,0.000000,4342.051270,4315.512695,4347.692383,4349.230957,4310.769043,4310.897461,4312.051270,4331.410156,4317.563965,4300.512695,4526.153809,4541.666504,4412.820313,4476.538574,0.000000,1.000000,23.000000,,,,0.000000,4.000000,4.000000,4.000000,4.000000,4.000000,4.000000,4.000000,4.000000,4.000000,4.000000,4.000000,4.000000,4.000000,4.000000,100.000000,,,,,,,,,,,,,,,,,,,,,,,,,,,,,,,,,,,,,,,,,,,,,,,,,,,,,,,,,,,,,,,,,,,,,,,,,,,,,,,,,,,,,,,,,,,,,,,,,,,,,,,,,,,,,,,,,,,,,
1768375477.475664,1768375477.477563,37.000000,0.000000,4340.128418,4315.128418,4346.922852,4348.717773,4311.538574,4309.871582,4312.436035,4329.230957,4318.077148,4303.589844,4532.820313,4539.871582,4413.333496,4476.153809,0.000000,1.000000,23.000000,,,,0.000000,4.000000,4.000000,4.000000,4.000000,4.000000,4.000000,4.000000,4.000000,4.000000,4.000000,4.000000,4.000000,4.000000,4.000000,100.000000,,,,,,,,,,,,,,,,,,,,,,,,,,,,,,,,,,,,,,,,,,,,,,,,,,,,,,,,,,,,,,,,,,,,,,,,,,,,,,,,,,,,,,,,,,,,,,,,,,,,,,,,,,,,,,,,,,,,,
1768375477.483472,1768375477.485272,38.000000,0.000000,4338.589844,4311.922852,4348.717773,4343.846191,4309.230957,4307.307617,4313.333496,4330.897461,4316.153809,4305.512695,4528.461426,4535.128418,4415.128418,4474.102539,0.000000,1.000000,23.000000,,,,0.000000,4.000000,4.000000,4.000000,4.000000,4.000000,4.000000,4.000000,4.000000,4.000000,4.000000,4.000000,4.000000,4.000000,4.000000,100.000000,,,,,,,,,,,,,,,,,,,,,,,,,,,,,,,,,,,,,,,,,,,,,,,,,,,,,,,,,,,,,,,,,,,,,,,,,,,,,,,,,,,,,,,,,,,,,,,,,,,,,,,,,,,,,,,,,,,,,
1768375477.491280,1768375477.493080,39.000000,0.000000,4340.512695,4313.077148,4352.563965,4344.743652,4309.102539,4309.230957,4314.871582,4336.794922,4318.205078,4305.512695,4529.358887,4538.846191,4416.410156,4475.897461,0.000000,1.000000,23.000000,,,,0.000000,4.000000,4.000000,4.000000,4.000000,4.000000,4.000000,4.000000,4.000000,4.000000,4.000000,4.000000,4.000000,4.000000,4.000000,100.000000,,,,,,,,,,,,,,,,,,,,,,,,,,,,,,,,,,,,,,,,,,,,,,,,,,,,,,,,,,,,,,,,,,,,,,,,,,,,,,,,,,,,,,,,,,,,,,,,,,,,,,,,,,,,,,,,,,,,,
1768375477.499089,1768375477.501088,40.000000,0.000000,4343.589844,4312.692383,4351.153809,4346.153809,4310.256348,4308.974121,4310.128418,4336.922852,4320.512695,4303.846191,4535.384766,4547.179688,4417.436035,4478.846191,0.000000,1.000000,23.000000,,,,0.000000,4.000000,4.000000,4.000000,4.000000,4.000000,4.000000,4.000000,4.000000,4.000000,4.000000,4.000000,4.000000,4.000000,4.000000,100.000000,,,,,,,,,,,,,,,,,,,,,,,,,,,,,,,,,,,,,,,,,,,,,,,,,,,,,,,,,,,,,,,,,,,,,,,,,,,,,,,,,,,,,,,,,,,,,,,,,,,,,,,,,,,,,,,,,,,,,
1768375477.506897,1768375477.508897,41.000000,0.000000,4340.769043,4308.589844,4344.743652,4340.897461,4306.410156,4308.717773,4310.128418,4332.948730,4315.897461,4302.563965,4530.384766,4541.025879,4416.025879,4475.512695,0.000000,1.000000,23.000000,,,,0.000000,4.000000,4.000000,4.000000,4.000000,4.000000,4.000000,4.000000,4.000000,4.000000,4.000000,4.000000,4.000000,4.000000,4.000000,100.000000,,,,,,,,,,,,,,,,,,,,,,,,,,,,,,,,,,,,,,,,,,,,,,,,,,,,,,,,,,,,,,,,,,,,,,,,,,,,,,,,,,,,,,,,,,,,,,,,,,,,,,,,,,,,,,,,,,,,,
1768375477.514706,1768375477.516605,42.000000,0.000000,4334.487305,4309.102539,4345.000000,4341.153809,4306.282227,4314.615234,4321.538574,4334.871582,4313.461426,4301.153809,4523.589844,4531.282227,4413.205078,4471.538574,0.000000,1.000000,23.000000,,,,0.000000,4.000000,4.000000,4.000000,4.000000,4.000000,4.000000,4.000000,4.000000,4.000000,4.000000,4.000000,4.000000,4.000000,4.000000,100.000000,,,,,,,,,,,,,,,,,,,,,,,,,,,,,,,,,,,,,,,,,,,,,,,,,,,,,,,,,,,,,,,,,,,,,,,,,,,,,,,,,,,,,,,,,,,,,,,,,,,,,,,,,,,,,,,,,,,,,
1768375477.522514,1768375477.524414,43.000000,0.000000,4328.589844,4309.230957,4343.974121,4345.000000,4309.615234,4315.128418,4320.641113,4339.230957,4321.153809,4305.256348,4526.282227,4535.000000,4418.589844,4474.743652,0.000000,1.000000,23.000000,,,,0.000000,4.000000,4.000000,4.000000,4.000000,4.000000,4.000000,4.000000,4.000000,4.000000,4.000000,4.000000,4.000000,4.000000,4.000000,100.000000,,,,,,,,,,,,,,,,,,,,,,,,,,,,,,,,,,,,,,,,,,,,,,,,,,,,,,,,,,,,,,,,,,,,,,,,,,,,,,,,,,,,,,,,,,,,,,,,,,,,,,,,,,,,,,,,,,,,,
1768375477.530323,1768375477.532022,44.000000,0.000000,4325.769043,4307.307617,4339.743652,4343.077148,4308.077148,4309.102539,4308.461426,4337.307617,4321.410156,4309.615234,4530.769043,4537.436035,4423.589844,4473.205078,0.000000,1.000000,23.000000,,,,0.000000,4.000000,4.000000,4.000000,4.000000,4.000000,4.000000,4.000000,4.000000,4.000000,4.000000,4.000000,4.000000,4.000000,4.000000,100.000000,,,,,,,,,,,,,,,,,,,,,,,,,,,,,,,,,,,,,,,,,,,,,,,,,,,,,,,,,,,,,,,,,,,,,,,,,,,,,,,,,,,,,,,,,,,,,,,,,,,,,,,,,,,,,,,,,,,,,
1768375477.538131,1768375477.539831,45.000000,0.000000,4329.743652,4310.769043,4342.436035,4343.846191,4309.230957,4309.487305,4312.692383,4334.358887,4314.358887,4303.461426,4530.256348,4535.641113,4416.794922,4464.358887,0.000000,1.000000,23.000000,,,,0.000000,4.000000,4.000000,4.000000,4.000000,4.000000,4.000000,4.000000,4.000000,4.000000,4.000000,4.000000,4.000000,4.000000,4.000000,100.000000,,,,,,,,,,,,,,,,,,,,,,,,,,,,,,,,,,,,,,,,,,,,,,,,,,,,,,,,,,,,,,,,,,,,,,,,,,,,,,,,,,,,,,,,,,,,,,,,,,,,,,,,,,,,,,,,,,,,,
1768375477.545940,1768375477.547539,46.000000,0.000000,4336.282227,4312.820313,4348.461426,4347.436035,4309.487305,4312.051270,4321.282227,4335.256348,4316.410156,4296.153809,4527.051270,4536.153809,4409.743652,4467.307617,0.000000,1.000000,23.000000,,,,0.000000,4.000000,4.000000,4.000000,4.000000,4.000000,4.000000,4.000000,4.000000,4.000000,4.000000,4.000000,4.000000,4.000000,4.000000,100.000000,,,,,,,,,,,,,,,,,,,,,,,,,,,,,,,,,,,,,,,,,,,,,,,,0.783619,0.189386,0.204044,0.159225,0.142954,0.716148,0.569961,0.225905,0.225704,0.203333,0.736942,0.369571,0.279505,0.161419,0.151600,0.243547,0.397386,0.108754,0.108099,0.113002,0.199578,0.209763,0.127491,0.089117,0.110681,0.170648,0.144112,0.203237,0.074950,0.110469,0.092702,0.249316,0.207490,0.083100,0.111639,0.398500,0.128614,0.115119,0.159112,0.065610,0.425707,0.206708,0.089828,0.160102,0.112285,0.714653,0.150662,0.254388,0.209088,0.126306,0.586345,0.453123,0.412872,0.278287,0.211713,0.600575,0.369602,0.400001,0.433081,0.188268,0.660837,0.299855,0.191321,0.229662,0.190457,0.850353,0.264780,0.430421,0.337764,0.217671
1768375477.553748,1768375477.555348,47.000000,0.000000,4338.974121,4309.102539,4345.641113,4345.769043,4302.307617,4308.461426,4312.051270,4332.692383,4317.820313,4297.820313,4523.974121,4532.692383,4413.461426,4477.436035,0.000000,1.000000,23.000000,,,,0.000000,4.000000,4.000000,4.000000,4.000000,4.000000,4.000000,4.000000,4.000000,4.000000,4.000000,4.000000,4.000000,4.000000,4.000000,100.000000,,,,,,,,,,,,,,,,,,,,,,,,,,,,,,,,,,,,,,,,,,,,,,,,,,,,,,,,,,,,,,,,,,,,,,,,,,,,,,,,,,,,,,,,,,,,,,,,,,,,,,,,,,,,,,,,,,,,,
1768375477.561556,1768375477.562956,48.000000,0.000000,4335.641113,4310.128418,4339.615234,4340.000000,4304.487305,4305.769043,4305.769043,4329.358887,4311.282227,4301.282227,4525.897461,4531.282227,4416.666504,4472.820313,0.000000,1.000000,23.000000,,,,0.000000,4.000000,4.000000,4.000000,4.000000,4.000000,4.000000,4.000000,4.000000,4.000000,4.000000,4.000000,4.000000,4.000000,4.000000,100.000000,,,,,,,,,,,,,,,,,,,,,,,,,,,,,,,,,,,,,,,,,,,,,,,,,,,,,,,,,,,,,,,,,,,,,,,,,,,,,,,,,,,,,,,,,,,,,,,,,,,,,,,,,,,,,,,,,,,,,
1768375477.569365,1768375477.570765,49.000000,0.000000,4331.666504,4307.563965,4338.846191,4336.538574,4307.179688,4306.922852,4311.282227,4328.333496,4311.666504,4299.230957,4524.358887,4534.230957,4412.307617,4464.358887,0.000000,1.000000,23.000000,,,,0.000000,4.000000,4.000000,4.000000,4.000000,4.000000,4.000000,4.000000,4.000000,4.000000,4.000000,4.000000,4.000000,4.000000,4.000000,100.000000,,,,,,,,,,,,,,,,,,,,,,,,,,,,,,,,,,,,,,,,,,,,,,,,,,,,,,,,,,,,,,,,,,,,,,,,,,,,,,,,,,,,,,,,,,,,,,,,,,,,,,,,,,,,,,,,,,,,,
1768375477.577173,1768375477.578673,50.000000,0.000000,4334.102539,4301.025879,4342.563965,4339.230957,4300.000000,4310.000000,4311.666504,4329.615234,4316.410156,4298.589844,4521.794922,4538.077148,4412.051270,4471.282227,0.000000,1.000000,23.000000,,,,0.000000,4.000000,4.000000,4.000000,4.000000,4.000000,4.000000,4.000000,4.000000,4.000000,4.000000,4.000000,4.000000,4.000000,4.000000,100.000000,,,,,,,,,,,,,,,,,,,,,,,,,,,,,,,,,,,,,,,,,,,,,,,,,,,,,,,,,,,,,,,,,,,,,,,,,,,,,,,,,,,,,,,,,,,,,,,,,,,,,,,,,,,,,,,,,,,,,
1768375477.584982,1768375477.586482,51.000000,0.000000,4337.307617,4306.153809,4346.153809,4344.871582,4300.769043,4309.743652,4306.410156,4330.256348,4312.563965,4299.871582,4525.769043,4538.846191,4416.538574,4476.153809,0.000000,1.000000,23.000000,,,,0.000000,4.000000,4.000000,4.000000,4.000000,4.000000,4.000000,4.000000,4.000000,4.000000,4.000000,4.000000,4.000000,4.000000,4.000000,100.000000,,,,,,,,,,,,,,,,,,,,,,,,,,,,,,,,,,,,,,,,,,,,,,,,,,,,,,,,,,,,,,,,,,,,,,,,,,,,,,,,,,,,,,,,,,,,,,,,,,,,,,,,,,,,,,,,,,,,,
1768375477.592790,1768375477.594490,52.000000,0.000000,4332.563965,4306.282227,4340.384766,4338.461426,4303.333496,4303.333496,4302.051270,4325.512695,4308.333496,4296.794922,4522.436035,4527.436035,4412.820313,4463.589844,0.000000,1.000000,23.000000,,,,0.000000,4.000000,4.000000,4.000000,4.000000,4.000000,4.000000,4.000000,4.000000,4.000000,4.000000,4.000000,4.000000,4.000000,4.000000,100.000000,,,,,,,,,,,,,,,,,,,,,,,,,,,,,,,,,,,,,,,,,,,,,,,,,,,,,,,,,,,,,,,,,,,,,,,,,,,,,,,,,,,,,,,,,,,,,,,,,,,,,,,,,,,,,,,,,,,,,
1768375477.600599,1768375477.602298,53.000000,0.000000,4323.846191,4294.358887,4336.025879,4327.051270,4296.922852,4303.461426,4303.333496,4324.487305,4311.794922,4297.692383,4519.102539,4521.153809,4406.538574,4455.256348,0.000000,1.000000,23.000000,,,,0.000000,4.000000,4.000000,4.000000,4.000000,4.000000,4.000000,4.000000,4.000000,4.000000,4.000000,4.000000,4.000000,4.000000,4.000000,100.000000,,,,,,,,,,,,,,,,,,,,,,,,,,,,,,,,,,,,,,,,,,,,,,,,,,,,,,,,,,,,,,,,,,,,,,,,,,,,,,,,,,,,,,,,,,,,,,,,,,,,,,,,,,,,,,,,,,,,,
1768375477.608407,1768375477.610007,54.000000,0.000000,4324.358887,4295.897461,4342.692383,4332.436035,4294.871582,4312.307617,4310.000000,4329.230957,4317.307617,4303.846191,4528.461426,4535.769043,4409.871582,4467.307617,0.000000,1.000000,23.000000,,,,0.000000,4.000000,4.000000,4.000000,4.000000,4.000000,4.000000,4.000000,4.000000,4.000000,4.000000,4.000000,4.000000,4.000000,4.000000,100.000000,,,,,,,,,,,,,,,,,,,,,,,,,,,,,,,,,,,,,,,,,,,,,,,,,,,,,,,,,,,,,,,,,,,,,,,,,,,,,,,,,,,,,,,,,,,,,,,,,,,,,,,,,,,,,,,,,,,,,
1768375477.616216,1768375477.617815,55.000000,0.000000,4331.666504,4309.487305,4346.538574,4345.512695,4302.563965,4310.897461,4306.538574,4326.922852,4316.025879,4304.615234,4534.102539,4545.897461,4414.615234,4481.025879,0.000000,1.000000,23.000000,,,,0.000000,4.000000,4.000000,4.000000,4.000000,4.000000,4.000000,4.000000,4.000000,4.000000,4.000000,4.000000,4.000000,4.000000,4.000000,100.000000,,,,,,,,,,,,,,,,,,,,,,,,,,,,,,,,,,,,,,,,,,,,,,,,,,,,,,,,,,,,,,,,,,,,,,,,,,,,,,,,,,,,,,,,,,,,,,,,,,,,,,,,,,,,,,,,,,,,,
1768375477.624024,1768375477.625424,56.000000,0.000000,4334.743652,4311.282227,4342.820313,4346.153809,4303.461426,4306.153809,4301.410156,4323.333496,4313.333496,4301.025879,4527.692383,4532.820313,4412.692383,4475.769043,0.000000,1.000000,23.000000,,,,0.000000,4.000000,4.000000,4.000000,4.000000,4.000000,4.000000,4.000000,4.000000,4.000000,4.000000,4.000000,4.000000,4.000000,4.000000,100.000000,,,,,,,,,,,,,,,,,,,,,,,,,,,,,,,,,,,,,,,,,,,,,,,,,,,,,,,,,,,,,,,,,,,,,,,,,,,,,,,,,,,,,,,,,,,,,,,,,,,,,,,,,,,,,,,,,,,,,
1768375477.631832,1768375477.633232,57.000000,0.000000,4329.743652,4304.743652,4339.358887,4340.256348,4298.589844,4308.333496,4306.794922,4327.692383,4315.512695,4299.615234,4520.384766,4516.282227,4406.794922,4460.897461,0.000000,1.000000,23.000000,,,,0.000000,4.000000,4.000000,4.000000,4.000000,4.000000,4.000000,4.000000,4.000000,4.000000,4.000000,4.000000,4.000000,4.000000,4.000000,100.000000,,,,,,,,,,,,,,,,,,,,,,,,,,,,,,,,,,,,,,,,,,,,,,,,,,,,,,,,,,,,,,,,,,,,,,,,,,,,,,,,,,,,,,,,,,,,,,,,,,,,,,,,,,,,,,,,,,,,,
1768375477.639641,1768375477.641141,58.000000,0.000000,4324.615234,4306.922852,4342.820313,4342.563965,4303.205078,4306.410156,4308.077148,4326.666504,4314.358887,4297.563965,4520.641113,4516.153809,4404.487305,4458.846191,0.000000,1.000000,23.000000,,,,0.000000,4.000000,4.000000,4.000000,4.000000,4.000000,4.000000,4.000000,4.000000,4.000000,4.000000,4.000000,4.000000,4.000000,4.000000,100.000000,,,,,,,,,,,,,,,,,,,,,,,,,,,,,,,,,,,,,,,,,,,,,,,,,,,,,,,,,,,,,,,,,,,,,,,,,,,,,,,,,,,,,,,,,,,,,,,,,,,,,,,,,,,,,,,,,,,,,
1768375477.647449,1768375477.648949,59.000000,0.000000,4333.077148,4313.589844,4350.769043,4348.461426,4308.974121,4302.563965,4303.333496,4320.897461,4310.256348,4301.922852,4530.384766,4530.512695,4415.256348,4475.000000,0.000000,1.000000,23.000000,,,,0.000000,4.000000,4.000000,4.000000,4.000000,4.000000,4.000000,4.000000,4.000000,4.000000,4.000000,4.000000,4.000000,4.000000,4.000000,100.000000,,,,,,,,,,,,,,,,,,,,,,,,,,,,,,,,,,,,,,,,,,,,,,,,,,,,,,,,,,,,,,,,,,,,,,,,,,,,,,,,,,,,,,,,,,,,,,,,,,,,,,,,,,,,,,,,,,,,,
1768375477.655258,1768375477.656858,60.000000,0.000000,4345.512695,4316.538574,4351.025879,4348.461426,4304.743652,4306.666504,4304.743652,4323.333496,4311.794922,4310.384766,4542.307617,4538.589844,4430.000000,4488.205078,0.000000,1.000000,23.000000,,,,0.000000,4.000000,4.000000,4.000000,4.000000,4.000000,4.000000,4.000000,4.000000,4.000000,4.000000,4.000000,4.000000,4.000000,4.000000,100.000000,,,,,,,,,,,,,,,,,,,,,,,,,,,,,,,,,,,,,,,,,,,,,,,,,,,,,,,,,,,,,,,,,,,,,,,,,,,,,,,,,,,,,,,,,,,,,,,,,,,,,,,,,,,,,,,,,,,,,
1768375477.663066,1768375477.664666,61.000000,0.000000,4341.922852,4313.846191,4341.410156,4343.846191,4304.102539,4310.897461,4309.358887,4327.307617,4316.153809,4309.743652,4538.717773,4529.358887,4429.871582,4482.820313,0.000000,1.000000,23.000000,,,,0.000000,4.000000,4.000000,4.000000,4.000000,4.000000,4.000000,4.000000,4.000000,4.000000,4.000000,4.000000,4.000000,4.000000,4.000000,100.000000,,,,,,,,,,,,,,,,,,,,,,,,,,,,,,,,,,,,,,,,,,,,,,,,,,,,,,,,,,,,,,,,,,,,,,,,,,,,,,,,,,,,,,,,,,,,,,,,,,,,,,,,,,,,,,,,,,,,,
1768375477.670875,1768375477.672375,62.000000,0.000000,4327.948730,4311.410156,4338.974121,4341.153809,4309.358887,4310.641113,4311.794922,4328.333496,4316.410156,4303.717773,4524.871582,4519.615234,4420.512695,4472.436035,0.000000,1.000000,23.000000,,,,0.000000,4.000000,4.000000,4.000000,4.000000,4.000000,4.000000,4.000000,4.000000,4.000000,4.000000,4.000000,4.000000,4.000000,4.000000,100.000000,,,,,,,,,,,,,,,,,,,,,,,,,,,,,,,,,,,,,,,,,,,,,,,,0.626590,0.208044,0.215580,0.163177,0.129136,0.746362,0.531859,0.226615,0.229917,0.192219,0.513525,0.388443,0.259624,0.163964,0.145937,0.216169,0.358356,0.113740,0.111646,0.104440,0.198408,0.178642,0.114006,0.086559,0.100589,0.151534,0.115817,0.199509,0.070967,0.113395,0.094347,0.251370,0.192209,0.083780,0.113021,0.428201,0.143198,0.127679,0.150147,0.062771,0.420108,0.216156,0.114429,0.164255,0.103564,0.683383,0.156782,0.285205,0.194888,0.119202,0.515088,0.415687,0.452068,0.262098,0.179984,0.578008,0.378986,0.458678,0.430769,0.168065,0.631640,0.274740,0.199630,0.218215,0.165656,0.806747,0.237737,0.479143,0.306836,0.199224
1768375477.678683,1768375477.680183,63.000000,0.000000,4327.436035,4311.410156,4344.743652,4344.743652,4306.410156,4308.974121,4311.666504,4325.256348,4312.692383,4302.051270,4522.692383,4519.743652,4414.615234,4472.692383,0.000000,1.000000,23.000000,,,,0.000000,4.000000,4.000000,4.000000,4.000000,4.000000,4.000000,4.000000,4.000000,4.000000,4.000000,4.000000,4.000000,4.000000,4.000000,100.000000,,,,,,,,,,,,,,,,,,,,,,,,,,,,,,,,,,,,,,,,,,,,,,,,,,,,,,,,,,,,,,,,,,,,,,,,,,,,,,,,,,,,,,,,,,,,,,,,,,,,,,,,,,,,,,,,,,,,,
1768375477.686492,1768375477.687792,64.000000,0.000000,4339.871582,4311.410156,4344.487305,4348.461426,4301.538574,4307.307617,4309.743652,4320.384766,4306.794922,4299.743652,4527.307617,4522.948730,4411.666504,4475.897461,4039.000000,1.000000,23.000000,,,,0.000000,4.000000,4.000000,4.000000,4.000000,4.000000,4.000000,4.000000,4.000000,4.000000,4.000000,4.000000,4.000000,4.000000,4.000000,100.000000,,,,,,,,,,,,,,,,,,,,,,,,,,,,,,,,,,,,,,,,,,,,,,,,,,,,,,,,,,,,,,,,,,,,,,,,,,,,,,,,,,,,,,,,,,,,,,,,,,,,,,,,,,,,,,,,,,,,,
1768375477.694300,1768375477.695600,65.000000,0.000000,4338.077148,4309.743652,4341.153809,4345.769043,4305.256348,4306.282227,4308.077148,4320.897461,4305.897461,4298.717773,4526.025879,4525.128418,4412.051270,4474.743652,4009.000000,1.000000,23.000000,,,,0.000000,4.000000,4.000000,4.000000,4.000000,4.000000,4.000000,4.000000,4.000000,4.000000,4.000000,4.000000,4.000000,4.000000,4.000000,100.000000,,,,,,,,,,,,,,,,,,,,,,,,,,,,,,,,,,,,,,,,,,,,,,,,,,,,,,,,,,,,,,,,,,,,,,,,,,,,,,,,,,,,,,,,,,,,,,,,,,,,,,,,,,,,,,,,,,,,,
1768375477.702109,1768375477.703508,66.000000,0.000000,4325.512695,4308.589844,4341.025879,4344.358887,4308.077148,4305.256348,4307.051270,4324.615234,4308.717773,4300.769043,4524.230957,4524.743652,4414.230957,4468.846191,3902.000000,1.000000,23.000000,,,,0.000000,4.000000,4.000000,4.000000,4.000000,4.000000,4.000000,4.000000,4.000000,4.000000,4.000000,4.000000,4.000000,4.000000,4.000000,100.000000,,,,,,,,,,,,,,,,,,,,,,,,,,,,,,,,,,,,,,,,,,,,,,,,,,,,,,,,,,,,,,,,,,,,,,,,,,,,,,,,,,,,,,,,,,,,,,,,,,,,,,,,,,,,,,,,,,,,,
1768375477.709917,1768375477.711317,67.000000,0.000000,4324.358887,4307.436035,4341.538574,4344.615234,4304.102539,4305.897461,4306.153809,4324.615234,4310.769043,4299.743652,4525.128418,4522.692383,4412.692383,4461.794922,3911.000000,1.000000,23.000000,,,,0.000000,4.000000,4.000000,4.000000,4.000000,4.000000,4.000000,4.000000,4.000000,4.000000,4.000000,4.000000,4.000000,4.000000,4.000000,100.000000,,,,,,,,,,,,,,,,,,,,,,,,,,,,,,,,,,,,,,,,,,,,,,,,,,,,,,,,,,,,,,,,,,,,,,,,,,,,,,,,,,,,,,,,,,,,,,,,,,,,,,,,,,,,,,,,,,,,,
1768375477.717725,1768375477.718926,68.000000,0.000000,4326.538574,4300.000000,4340.512695,4338.333496,4299.743652,4310.769043,4306.538574,4321.153809,4310.512695,4294.358887,4520.769043,4518.461426,4406.025879,4455.384766,3862.000000,1.000000,23.000000,,,,0.000000,4.000000,4.000000,4.000000,4.000000,4.000000,4.000000,4.000000,4.000000,4.000000,4.000000,4.000000,4.000000,4.000000,4.000000,100.000000,,,,,,,,,,,,,,,,,,,,,,,,,,,,,,,,,,,,,,,,,,,,,,,,,,,,,,,,,,,,,,,,,,,,,,,,,,,,,,,,,,,,,,,,,,,,,,,,,,,,,,,,,,,,,,,,,,,,,
1768375477.725534,1768375477.726734,69.000000,0.000000,4321.922852,4292.563965,4337.948730,4334.230957,4298.333496,4308.974121,4306.282227,4321.538574,4309.743652,4294.871582,4519.230957,4519.615234,4402.692383,4459.230957,3754.000000,1.000000,23.000000,,,,0.000000,4.000000,4.000000,4.000000,4.000000,4.000000,4.000000,4.000000,4.000000,4.000000,4.000000,4.000000,4.000000,4.000000,4.000000,100.000000,,,,,,,,,,,,,,,,,,,,,,,,,,,,,,,,,,,,,,,,,,,,,,,,,,,,,,,,,,,,,,,,,,,,,,,,,,,,,,,,,,,,,,,,,,,,,,,,,,,,,,,,,,,,,,,,,,,,,
1768375477.733342,1768375477.734443,70.000000,0.000000,4322.563965,4296.410156,4337.948730,4339.230957,4298.461426,4302.436035,4306.922852,4326.922852,4314.230957,4304.487305,4531.282227,4530.897461,4415.128418,4471.794922,3780.000000,1.000000,23.000000,,,,0.000000,4.000000,4.000000,4.000000,4.000000,4.000000,4.000000,4.000000,4.000000,4.000000,4.000000,4.000000,4.000000,4.000000,4.000000,100.000000,,,,,,,,,,,,,,,,,,,,,,,,,,,,,,,,,,,,,,,,,,,,,,,,,,,,,,,,,,,,,,,,,,,,,,,,,,,,,,,,,,,,,,,,,,,,,,,,,,,,,,,,,,,,,,,,,,,,,
1768375477.741151,1768375477.742251,71.000000,0.000000,4333.205078,4306.666504,4345.128418,4343.461426,4301.666504,4305.000000,4309.358887,4331.794922,4320.256348,4312.436035,4540.512695,4542.051270,4431.153809,4478.846191,3106.000000,1.000000,23.000000,,,,0.000000,4.000000,4.000000,4.000000,4.000000,4.000000,4.000000,4.000000,4.000000,4.000000,4.000000,4.000000,4.000000,4.000000,4.000000,100.000000,,,,,,,,,,,,,,,,,,,,,,,,,,,,,,,,,,,,,,,,,,,,,,,,,,,,,,,,,,,,,,,,,,,,,,,,,,,,,,,,,,,,,,,,,,,,,,,,,,,,,,,,,,,,,,,,,,,,,
1768375477.748959,1768375477.749860,72.000000,0.000000,4338.205078,4309.230957,4352.179688,4345.769043,4303.974121,4310.256348,4309.871582,4330.256348,4317.307617,4307.179688,4537.436035,4541.666504,4427.307617,4476.666504,3976.000000,1.000000,23.000000,,,,0.000000,4.000000,4.000000,4.000000,4.000000,4.000000,4.000000,4.000000,4.000000,4.000000,4.000000,4.000000,4.000000,4.000000,4.000000,100.000000,,,,,,,,,,,,,,,,,,,,,,,,,,,,,,,,,,,,,,,,,,,,,,,,,,,,,,,,,,,,,,,,,,,,,,,,,,,,,,,,,,,,,,,,,,,,,,,,,,,,,,,,,,,,,,,,,,,,,
1768375477.756768,1768375477.757668,73.000000,0.000000,4335.641113,4303.974121,4348.333496,4346.666504,4303.717773,4306.410156,4308.717773,4326.794922,4309.487305,4298.974121,4533.589844,4532.820313,4416.666504,4473.461426,3987.000000,1.000000,23.000000,,,,0.000000,4.000000,4.000000,4.000000,4.000000,4.000000,4.000000,4.000000,4.000000,4.000000,4.000000,4.000000,4.000000,4.000000,4.000000,100.000000,,,,,,,,,,,,,,,,,,,,,,,,,,,,,,,,,,,,,,,,,,,,,,,,,,,,,,,,,,,,,,,,,,,,,,,,,,,,,,,,,,,,,,,,,,,,,,,,,,,,,,,,,,,,,,,,,,,,,
1768375477.764576,1768375477.765576,74.000000,0.000000,4338.205078,4301.282227,4341.666504,4341.666504,4305.000000,4306.666504,4310.000000,4331.410156,4314.102539,4305.512695,4538.333496,4532.436035,4424.102539,4476.794922,4370.000000,1.000000,23.000000,,,,0.000000,4.000000,4.000000,4.000000,4.000000,4.000000,4.000000,4.000000,4.000000,4.000000,4.000000,4.000000,4.000000,4.000000,4.000000,100.000000,,,,,,,,,,,,,,,,,,,,,,,,,,,,,,,,,,,,,,,,,,,,,,,,,,,,,,,,,,,,,,,,,,,,,,,,,,,,,,,,,,,,,,,,,,,,,,,,,,,,,,,,,,,,,,,,,,,,,
1768375477.772385,1768375477.773385,75.000000,0.000000,4340.769043,4303.717773,4344.871582,4339.871582,4305.769043,4310.256348,4309.487305,4336.538574,4320.641113,4313.077148,4540.512695,4541.666504,4428.077148,4480.897461,4629.000000,1.000000,23.000000,,,,0.000000,4.000000,4.000000,4.000000,4.000000,4.000000,4.000000,4.000000,4.000000,4.000000,4.000000,4.000000,4.000000,4.000000,4.000000,100.000000,,,,,,,,,,,,,,,,,,,,,,,,,,,,,,,,,,,,,,,,,,,,,,,,,,,,,,,,,,,,,,,,,,,,,,,,,,,,,,,,,,,,,,,,,,,,,,,,,,,,,,,,,,,,,,,,,,,,,
1768375477.780193,1768375477.781393,76.000000,0.000000,4339.871582,4308.333496,4351.922852,4346.410156,4303.205078,4303.205078,4305.256348,4334.358887,4314.230957,4303.461426,4532.692383,4544.358887,4416.025879,4478.974121,4909.000000,1.000000,23.000000,,,,0.000000,4.000000,4.000000,4.000000,4.000000,4.000000,4.000000,4.000000,4.000000,4.000000,4.000000,4.000000,4.000000,4.000000,4.000000,100.000000,,,,,,,,,,,,,,,,,,,,,,,,,,,,,,,,,,,,,,,,,,,,,,,,,,,,,,,,,,,,,,,,,,,,,,,,,,,,,,,,,,,,,,,,,,,,,,,,,,,,,,,,,,,,,,,,,,,,,
1768375477.788001,1768375477.789202,77.000000,0.000000,4342.051270,4311.794922,4351.025879,4349.102539,4302.051270,4298.717773,4304.743652,4334.743652,4309.358887,4299.615234,4529.871582,4537.563965,4415.512695,4474.487305,5086.000000,1.000000,23.000000,,,,0.000000,4.000000,4.000000,4.000000,4.000000,4.000000,4.000000,4.000000,4.000000,4.000000,4.000000,4.000000,4.000000,4.000000,4.000000,100.000000,,,,,,,,,,,,,,,,,,,,,,,,,,,,,,,,,,,,,,,,,,,,,,,,,,,,,,,,,,,,,,,,,,,,,,,,,,,,,,,,,,,,,,,,,,,,,,,,,,,,,,,,,,,,,,,,,,,,,
1768375477.795810,1768375477.797110,78.000000,0.000000,4346.282227,4313.333496,4349.615234,4347.563965,4303.461426,4306.794922,4310.128418,4338.077148,4314.358887,4309.487305,4536.410156,4534.871582,4428.333496,4478.333496,4370.000000,1.000000,23.000000,,,,0.000000,4.000000,4.000000,4.000000,4.000000,4.000000,4.000000,4.000000,4.000000,4.000000,4.000000,4.000000,4.000000,4.000000,4.000000,100.000000,1.000000,25.000000,4.000000,4.000000,4.000000,4.000000,1.000000,1.000000,1.000000,1.000000,4.000000,4.000000,4.000000,4.000000,4.000000,4.000000,,,,,,,,,,,,,,,,,,,,,,,,,,,,,,,,0.454999,0.249274,0.218046,0.159788,0.111937,0.804993,0.527321,0.216095,0.215804,0.167817,0.323098,0.444906,0.255936,0.159963,0.137510,0.196382,0.325800,0.118777,0.112326,0.092079,0.188829,0.143573,0.099472,0.078510,0.085032,0.126783,0.091052,0.178349,0.064210,0.115276,0.107917,0.254258,0.171893,0.082462,0.115816,0.431397,0.161016,0.133205,0.135277,0.065362,0.401911,0.230386,0.140657,0.161679,0.099965,0.619578,0.162799,0.311005,0.178942,0.112424,0.445850,0.350434,0.457312,0.241521,0.152561,0.555848,0.423140,0.486781,0.432579,0.155621,0.598091,0.255890,0.207274,0.210471,0.141023,0.751097,0.216809,0.531501,0.284692,0.179195
1768375477.803618,1768375477.804918,79.000000,0.000000,4347.179688,4313.461426,4350.128418,4350.897461,4305.256348,4313.205078,4313.589844,4335.384766,4315.256348,4311.922852,4542.051270,4539.102539,4431.282227,4486.922852,4629.000000,1.000000,23.000000,,,,0.000000,4.000000,4.000000,4.000000,4.000000,4.000000,4.000000,4.000000,4.000000,4.000000,4.000000,4.000000,4.000000,4.000000,4.000000,100.000000,,,,,,,,,,,,,,,,,,,,,,,,,,,,,,,,,,,,,,,,,,,,,,,,,,,,,,,,,,,,,,,,,,,,,,,,,,,,,,,,,,,,,,,,,,,,,,,,,,,,,,,,,,,,,,,,,,,,,
1768375477.811427,1768375477.812927,80.000000,0.000000,4344.487305,4312.820313,4345.384766,4353.461426,4308.846191,4310.769043,4309.743652,4331.922852,4312.436035,4309.102539,4539.871582,4537.563965,4423.077148,4484.358887,4909.000000,1.000000,23.000000,,,,0.000000,4.000000,4.000000,4.000000,4.000000,4.000000,4.000000,4.000000,4.000000,4.000000,4.000000,4.000000,4.000000,4.000000,4.000000,100.000000,,,,,,,,,,,,,,,,,,,,,,,,,,,,,,,,,,,,,,,,,,,,,,,,,,,,,,,,,,,,,,,,,,,,,,,,,,,,,,,,,,,,,,,,,,,,,,,,,,,,,,,,,,,,,,,,,,,,,
1768375477.819235,1768375477.820735,81.000000,0.000000,4340.512695,4309.230957,4339.615234,4347.436035,4307.948730,4307.051270,4302.051270,4330.769043,4313.205078,4305.897461,4531.538574,4532.051270,4416.025879,4476.282227,5086.000000,1.000000,23.000000,,,,0.000000,4.000000,4.000000,4.000000,4.000000,4.000000,4.000000,4.000000,4.000000,4.000000,4.000000,4.000000,4.000000,4.000000,4.000000,100.000000,,,,,,,,,,,,,,,,,,,,,,,,,,,,,,,,,,,,,,,,,,,,,,,,,,,,,,,,,,,,,,,,,,,,,,,,,,,,,,,,,,,,,,,,,,,,,,,,,,,,,,,,,,,,,,,,,,,,,
1768375477.827044,1768375477.828444,82.000000,0.000000,4339.358887,4306.538574,4340.384766,4343.077148,4303.717773,4306.794922,4298.589844,4325.641113,4308.974121,4297.307617,4523.717773,4528.846191,4413.205078,4474.743652,4370.000000,1.000000,23.000000,,,,0.000000,4.000000,4.000000,4.000000,4.000000,4.000000,4.000000,4.000000,4.000000,4.000000,4.000000,4.000000,4.000000,4.000000,4.000000,100.000000,,,,,,,,,,,,,,,,,,,,,,,,,,,,,,,,,,,,,,,,,,,,,,,,,,,,,,,,,,,,,,,,,,,,,,,,,,,,,,,,,,,,,,,,,,,,,,,,,,,,,,,,,,,,,,,,,,,,,
1768375477.834852,1768375477.836252,83.000000,0.000000,4341.153809,4309.871582,4342.820313,4346.282227,4306.922852,4307.948730,4301.922852,4323.589844,4303.205078,4292.692383,4521.666504,4527.051270,4410.897461,4474.871582,4629.000000,1.000000,23.000000,,,,0.000000,4.000000,4.000000,4.000000,4.000000,4.000000,4.000000,4.000000,4.000000,4.000000,4.000000,4.000000,4.000000,4.000000,4.000000,100.000000,,,,,,,,,,,,,,,,,,,,,,,,,,,,,,,,,,,,,,,,,,,,,,,,,,,,,,,,,,,,,,,,,,,,,,,,,,,,,,,,,,,,,,,,,,,,,,,,,,,,,,,,,,,,,,,,,,,,,
1768375477.842661,1768375477.844260,84.000000,0.000000,4339.358887,4311.282227,4342.948730,4348.717773,4308.589844,4308.717773,4305.384766,4327.436035,4307.820313,4295.256348,4523.717773,4527.948730,4409.871582,4471.153809,4909.000000,1.000000,23.000000,,,,0.000000,4.000000,4.000000,4.000000,4.000000,4.000000,4.000000,4.000000,4.000000,4.000000,4.000000,4.000000,4.000000,4.000000,4.000000,100.000000,,,,,,,,,,,,,,,,,,,,,,,,,,,,,,,,,,,,,,,,,,,,,,,,,,,,,,,,,,,,,,,,,,,,,,,,,,,,,,,,,,,,,,,,,,,,,,,,,,,,,,,,,,,,,,,,,,,,,
1768375477.850469,1768375477.852069,85.000000,0.000000,4335.769043,4308.717773,4343.846191,4347.563965,4305.897461,4307.563965,4306.282227,4330.128418,4307.563965,4296.794922,4522.051270,4529.358887,4408.461426,4470.512695,5086.000000,1.000000,23.000000,,,,0.000000,4.000000,4.000000,4.000000,4.000000,4.000000,4.000000,4.000000,4.000000,4.000000,4.000000,4.000000,4.000000,4.000000,4.000000,100.000000,,,,,,,,,,,,,,,,,,,,,,,,,,,,,,,,,,,,,,,,,,,,,,,,,,,,,,,,,,,,,,,,,,,,,,,,,,,,,,,,,,,,,,,,,,,,,,,,,,,,,,,,,,,,,,,,,,,,,
1768375477.858277,1768375477.859777,86.000000,0.000000,4336.538574,4312.436035,4343.333496,4347.179688,4307.051270,4306.922852,4307.820313,4329.487305,4300.897461,4295.256348,4523.461426,4530.769043,4407.820313,4473.589844,4370.000000,1.000000,23.000000,,,,0.000000,4.000000,4.000000,4.000000,4.000000,4.000000,4.000000,4.000000,4.000000,4.000000,4.000000,4.000000,4.000000,4.000000,4.000000,100.000000,,,,,,,,,,,,,,,,,,,,,,,,,,,,,,,,,,,,,,,,,,,,,,,,,,,,,,,,,,,,,,,,,,,,,,,,,,,,,,,,,,,,,,,,,,,,,,,,,,,,,,,,,,,,,,,,,,,,,
1768375477.866086,1768375477.867586,87.000000,0.000000,4337.436035,4320.512695,4340.128418,4346.538574,4308.589844,4304.743652,4304.615234,4326.153809,4302.436035,4293.846191,4525.897461,4531.282227,4410.000000,4474.871582,4629.000000,1.000000,23.000000,,,,0.000000,4.000000,4.000000,4.000000,4.000000,4.000000,4.000000,4.000000,4.000000,4.000000,4.000000,4.000000,4.000000,4.000000,4.000000,100.000000,,,,,,,,,,,,,,,,,,,,,,,,,,,,,,,,,,,,,,,,,,,,,,,,,,,,,,,,,,,,,,,,,,,,,,,,,,,,,,,,,,,,,,,,,,,,,,,,,,,,,,,,,,,,,,,,,,,,,
1768375477.873894,1768375477.875594,88.000000,0.000000,4336.025879,4323.205078,4340.000000,4345.641113,4305.897461,4303.333496,4301.153809,4322.820313,4302.436035,4293.589844,4522.307617,4526.922852,4409.871582,4474.743652,4909.000000,1.000000,23.000000,,,,0.000000,4.000000,4.000000,4.000000,4.000000,4.000000,4.000000,4.000000,4.000000,4.000000,4.000000,4.000000,4.000000,4.000000,4.000000,100.000000,,,,,,,,,,,,,,,,,,,,,,,,,,,,,,,,,,,,,,,,,,,,,,,,,,,,,,,,,,,,,,,,,,,,,,,,,,,,,,,,,,,,,,,,,,,,,,,,,,,,,,,,,,,,,,,,,,,,,
1768375477.881703,1768375477.883402,89.000000,0.000000,4338.077148,4325.384766,4343.461426,4347.563965,4304.487305,4308.077148,4306.025879,4325.128418,4301.282227,4292.820313,4520.384766,4522.948730,4405.256348,4474.230957,5086.000000,1.000000,23.000000,,,,0.000000,4.000000,4.000000,4.000000,4.000000,4.000000,4.000000,4.000000,4.000000,4.000000,4.000000,4.000000,4.000000,4.000000,4.000000,100.000000,,,,,,,,,,,,,,,,,,,,,,,,,,,,,,,,,,,,,,,,,,,,,,,,,,,,,,,,,,,,,,,,,,,,,,,,,,,,,,,,,,,,,,,,,,,,,,,,,,,,,,,,,,,,,,,,,,,,,
1768375477.889511,1768375477.891111,90.000000,0.000000,4340.897461,4329.871582,4345.256348,4351.153809,4306.922852,4307.692383,4305.384766,4327.563965,4305.897461,4292.051270,4522.820313,4524.487305,4407.563965,4472.948730,4370.000000,1.000000,23.000000,,,,0.000000,4.000000,4.000000,4.000000,4.000000,4.000000,4.000000,4.000000,4.000000,4.000000,4.000000,4.000000,4.000000,4.000000,4.000000,100.000000,,,,,,,,,,,,,,,,,,,,,,,,,,,,,,,,,,,,,,,,,,,,,,,,,,,,,,,,,,,,,,,,,,,,,,,,,,,,,,,,,,,,,,,,,,,,,,,,,,,,,,,,,,,,,,,,,,,,,
1768375477.897320,1768375477.898919,91.000000,0.000000,4336.922852,4332.820313,4341.794922,4349.487305,4307.051270,4301.153809,4296.538574,4324.102539,4304.743652,4295.000000,4525.000000,4527.820313,4414.743652,4474.102539,4629.000000,1.000000,23.000000,,,,0.000000,4.000000,4.000000,4.000000,4.000000,4.000000,4.000000,4.000000,4.000000,4.000000,4.000000,4.000000,4.000000,4.000000,4.000000,100.000000,,,,,,,,,,,,,,,,,,,,,,,,,,,,,,,,,,,,,,,,,,,,,,,,,,,,,,,,,,,,,,,,,,,,,,,,,,,,,,,,,,,,,,,,,,,,,,,,,,,,,,,,,,,,,,,,,,,,,
1768375477.905128,1768375477.906928,92.000000,0.000000,4334.102539,4333.717773,4338.461426,4342.820313,4303.846191,4301.410156,4295.128418,4319.743652,4298.077148,4300.384766,4524.230957,4529.358887,4414.743652,4476.025879,4909.000000,1.000000,23.000000,,,,0.000000,4.000000,4.000000,4.000000,4.000000,4.000000,4.000000,4.000000,4.000000,4.000000,4.000000,4.000000,4.000000,4.000000,4.000000,100.000000,,,,,,,,,,,,,,,,,,,,,,,,,,,,,,,,,,,,,,,,,,,,,,,,,,,,,,,,,,,,,,,,,,,,,,,,,,,,,,,,,,,,,,,,,,,,,,,,,,,,,,,,,,,,,,,,,,,,,
1768375477.912937,1768375477.914736,93.000000,0.000000,4340.128418,4333.077148,4341.922852,4341.794922,4302.051270,4304.487305,4297.436035,4322.051270,4298.717773,4301.794922,4525.384766,4530.769043,4413.333496,4478.077148,5086.000000,1.000000,23.000000,,,,0.000000,4.000000,4.000000,4.000000,4.000000,4.000000,4.000000,4.000000,4.000000,4.000000,4.000000,4.000000,4.000000,4.000000,4.000000,100.000000,,,,,,,,,,,,,,,,,,,,,,,,,,,,,,,,,,,,,,,,,,,,,,,,,,,,,,,,,,,,,,,,,,,,,,,,,,,,,,,,,,,,,,,,,,,,,,,,,,,,,,,,,,,,,,,,,,,,,
1768375477.920745,1768375477.922445,94.000000,0.000000,4341.025879,4333.333496,4345.512695,4346.153809,4303.461426,4304.743652,4297.692383,4328.461426,4305.897461,4297.820313,4525.897461,4527.436035,4408.846191,4478.077148,4370.000000,1.000000,23.000000,,,,0.000000,4.000000,4.000000,4.000000,4.000000,4.000000,4.000000,4.000000,4.000000,4.000000,4.000000,4.000000,4.000000,4.000000,4.000000,100.000000,,,,,,,,,,,,,,,,,,,,,,,,,,,,,,,,,,,,,,,,,,,,,,,,0.313093,0.300237,0.214625,0.149832,0.095203,0.867515,0.547355,0.195416,0.186007,0.138108,0.202125,0.503798,0.253440,0.147061,0.129336,0.192977,0.309200,0.121989,0.108417,0.080007,0.179665,0.112886,0.086653,0.067477,0.068440,0.102095,0.074762,0.145585,0.057846,0.115862,0.131643,0.251527,0.151112,0.080768,0.119731,0.411248,0.176141,0.131513,0.115547,0.073272,0.377884,0.244807,0.159011,0.150675,0.102642,0.535960,0.165925,0.321791,0.165331,0.106656,0.381131,0.275812,0.425262,0.220474,0.133245,0.534648,0.477586,0.475770,0.440470,0.151907,0.546853,0.252093,0.214344,0.208265,0.122035,0.688473,0.201598,0.569607,0.275212,0.164924
1768375477.928553,1768375477.930253,95.000000,0.000000,4329.230957,4332.436035,4341.922852,4346.282227,4306.025879,4307.692383,4302.051270,4329.230957,4306.538574,4291.025879,4521.538574,4516.410156,4399.743652,4469.871582,4629.000000,1.000000,23.000000,,,,0.000000,4.000000,4.000000,4.000000,4.000000,4.000000,4.000000,4.000000,4.000000,4.000000,4.000000,4.000000,4.000000,4.000000,4.000000,100.000000,,,,,,,,,,,,,,,,,,,,,,,,,,,,,,,,,,,,,,,,,,,,,,,,,,,,,,,,,,,,,,,,,,,,,,,,,,,,,,,,,,,,,,,,,,,,,,,,,,,,,,,,,,,,,,,,,,,,,
1768375477.936362,1768375477.937862,96.000000,0.000000,4327.948730,4330.384766,4339.230957,4343.205078,4307.179688,4310.512695,4306.922852,4325.641113,4305.641113,4294.743652,4520.641113,4516.410156,4405.512695,4467.307617,4909.000000,1.000000,23.000000,,,,0.000000,4.000000,4.000000,4.000000,4.000000,4.000000,4.000000,4.000000,4.000000,4.000000,4.000000,4.000000,4.000000,4.000000,4.000000,100.000000,,,,,,,,,,,,,,,,,,,,,,,,,,,,,,,,,,,,,,,,,,,,,,,,,,,,,,,,,,,,,,,,,,,,,,,,,,,,,,,,,,,,,,,,,,,,,,,,,,,,,,,,,,,,,,,,,,,,,
1768375477.944170,1768375477.945670,97.000000,0.000000,4336.666504,4327.948730,4340.769043,4341.282227,4307.820313,4307.563965,4306.666504,4325.384766,4306.538574,4305.641113,4526.410156,4530.641113,4416.794922,4476.025879,5086.000000,1.000000,23.000000,,,,0.000000,4.000000,4.000000,4.000000,4.000000,4.000000,4.000000,4.000000,4.000000,4.000000,4.000000,4.000000,4.000000,4.000000,4.000000,100.000000,,,,,,,,,,,,,,,,,,,,,,,,,,,,,,,,,,,,,,,,,,,,,,,,,,,,,,,,,,,,,,,,,,,,,,,,,,,,,,,,,,,,,,,,,,,,,,,,,,,,,,,,,,,,,,,,,,,,,
1768375477.951979,1768375477.953379,98.000000,0.000000,4335.384766,4328.589844,4341.922852,4341.666504,4307.820313,4307.563965,4307.179688,4325.897461,4309.102539,4304.102539,4530.641113,4536.410156,4412.948730,4478.717773,4370.000000,1.000000,23.000000,,,,0.000000,4.000000,4.000000,4.000000,4.000000,4.000000,4.000000,4.000000,4.000000,4.000000,4.000000,4.000000,4.000000,4.000000,4.000000,100.000000,,,,,,,,,,,,,,,,,,,,,,,,,,,,,,,,,,,,,,,,,,,,,,,,,,,,,,,,,,,,,,,,,,,,,,,,,,,,,,,,,,,,,,,,,,,,,,,,,,,,,,,,,,,,,,,,,,,,,
1768375477.959787,1768375477.961187,99.000000,0.000000,4329.743652,4327.051270,4343.205078,4342.436035,4305.128418,4310.512695,4308.589844,4325.128418,4313.205078,4299.871582,4525.769043,4526.922852,4406.922852,4472.563965,4629.000000,1.000000,23.000000,,,,0.000000,4.000000,4.000000,4.000000,4.000000,4.000000,4.000000,4.000000,4.000000,4.000000,4.000000,4.000000,4.000000,4.000000,4.000000,100.000000,,,,,,,,,,,,,,,,,,,,,,,,,,,,,,,,,,,,,,,,,,,,,,,,,,,,,,,,,,,,,,,,,,,,,,,,,,,,,,,,,,,,,,,,,,,,,,,,,,,,,,,,,,,,,,,,,,,,,
1768375477.967596,1768375477.969195,100.000000,0.000000,4332.179688,4323.974121,4343.974121,4343.077148,4305.769043,4310.384766,4308.077148,4328.846191,4314.487305,4302.563965,4521.922852,4521.153809,4409.871582,4471.153809,4909.000000,1.000000,23.000000,,,,0.000000,4.000000,4.000000,4.000000,4.000000,4.000000,4.000000,4.000000,4.000000,4.000000,4.000000,4.000000,4.000000,4.000000,4.000000,100.000000,,,,,,,,,,,,,,,,,,,,,,,,,,,,,,,,,,,,,,,,,,,,,,,,,,,,,,,,,,,,,,,,,,,,,,,,,,,,,,,,,,,,,,,,,,,,,,,,,,,,,,,,,,,,,,,,,,,,,
1768375477.975404,1768375477.977004,101.000000,0.000000,4337.436035,4327.948730,4343.205078,4346.922852,4312.179688,4313.461426,4311.666504,4334.487305,4314.871582,4302.563965,4526.410156,4530.769043,4412.948730,4475.256348,5086.000000,1.000000,23.000000,,,,0.000000,4.000000,4.000000,4.000000,4.000000,4.000000,4.000000,4.000000,4.000000,4.000000,4.000000,4.000000,4.000000,4.000000,4.000000,100.000000,,,,,,,,,,,,,,,,,,,,,,,,,,,,,,,,,,,,,,,,,,,,,,,,,,,,,,,,,,,,,,,,,,,,,,,,,,,,,,,,,,,,,,,,,,,,,,,,,,,,,,,,,,,,,,,,,,,,,
1768375477.983213,1768375477.984912,102.000000,0.000000,4332.179688,4329.743652,4342.307617,4347.820313,4311.922852,4311.153809,4311.794922,4327.820313,4312.948730,4298.461426,4528.205078,4536.153809,4412.436035,4475.897461,4370.000000,1.000000,23.000000,,,,0.000000,4.000000,4.000000,4.000000,4.000000,4.000000,4.000000,4.000000,4.000000,4.000000,4.000000,4.000000,4.000000,4.000000,4.000000,100.000000,,,,,,,,,,,,,,,,,,,,,,,,,,,,,,,,,,,,,,,,,,,,,,,,,,,,,,,,,,,,,,,,,,,,,,,,,,,,,,,,,,,,,,,,,,,,,,,,,,,,,,,,,,,,,,,,,,,,,
1768375477.991021,1768375477.992721,103.000000,0.000000,4324.615234,4323.846191,4341.410156,4343.974121,4308.333496,4303.333496,4305.256348,4318.461426,4310.897461,4297.179688,4526.025879,4529.743652,4411.666504,4474.871582,4629.000000,1.000000,23.000000,,,,0.000000,4.000000,4.000000,4.000000,4.000000,4.000000,4.000000,4.000000,4.000000,4.000000,4.000000,4.000000,4.000000,4.000000,4.000000,100.000000,,,,,,,,,,,,,,,,,,,,,,,,,,,,,,,,,,,,,,,,,,,,,,,,,,,,,,,,,,,,,,,,,,,,,,,,,,,,,,,,,,,,,,,,,,,,,,,,,,,,,,,,,,,,,,,,,,,,,
1768375477.998829,1768375478.000729,104.000000,0.000000,4328.205078,4320.897461,4340.897461,4342.179688,4308.589844,4304.102539,4305.512695,4321.794922,4313.333496,4299.102539,4526.538574,4526.922852,4414.230957,4473.717773,4909.000000,1.000000,23.000000,,,,0.000000,4.000000,4.000000,4.000000,4.000000,4.000000,4.000000,4.000000,4.000000,4.000000,4.000000,4.000000,4.000000,4.000000,4.000000,100.000000,,,,,,,,,,,,,,,,,,,,,,,,,,,,,,,,,,,,,,,,,,,,,,,,,,,,,,,,,,,,,,,,,,,,,,,,,,,,,,,,,,,,,,,,,,,,,,,,,,,,,,,,,,,,,,,,,,,,,
1768375478.006638,1768375478.008537,105.000000,0.000000,4335.384766,4325.897461,4343.333496,4342.563965,4308.717773,4309.615234,4310.769043,4327.436035,4316.282227,4299.615234,4529.615234,4528.077148,4417.820313,4476.410156,5086.000000,1.000000,23.000000,,,,0.000000,4.000000,4.000000,4.000000,4.000000,4.000000,4.000000,4.000000,4.000000,4.000000,4.000000,4.000000,4.000000,4.000000,4.000000,100.000000,,,,,,,,,,,,,,,,,,,,,,,,,,,,,,,,,,,,,,,,,,,,,,,,,,,,,,,,,,,,,,,,,,,,,,,,,,,,,,,,,,,,,,,,,,,,,,,,,,,,,,,,,,,,,,,,,,,,,
1768375478.014446,1768375478.016446,106.000000,0.000000,4332.436035,4326.538574,4343.461426,4342.820313,4307.692383,4307.948730,4310.641113,4326.282227,4315.256348,4299.487305,4533.461426,4525.384766,4417.436035,4477.563965,4370.000000,1.000000,23.000000,,,,0.000000,4.000000,4.000000,4.000000,4.000000,4.000000,4.000000,4.000000,4.000000,4.000000,4.000000,4.000000,4.000000,4.000000,4.000000,100.000000,,,,,,,,,,,,,,,,,,,,,,,,,,,,,,,,,,,,,,,,,,,,,,,,,,,,,,,,,,,,,,,,,,,,,,,,,,,,,,,,,,,,,,,,,,,,,,,,,,,,,,,,,,,,,,,,,,,,,
1768375478.022255,1768375478.024254,107.000000,0.000000,4329.871582,4326.538574,4341.666504,4345.512695,4308.205078,4306.153809,4306.025879,4325.769043,4317.051270,4305.128418,4537.948730,4527.436035,4418.846191,4477.563965,4629.000000,1.000000,23.000000,,,,0.000000,4.000000,4.000000,4.000000,4.000000,4.000000,4.000000,4.000000,4.000000,4.000000,4.000000,4.000000,4.000000,4.000000,4.000000,100.000000,,,,,,,,,,,,,,,,,,,,,,,,,,,,,,,,,,,,,,,,,,,,,,,,,,,,,,,,,,,,,,,,,,,,,,,,,,,,,,,,,,,,,,,,,,,,,,,,,,,,,,,,,,,,,,,,,,,,,
1768375478.030063,1768375478.032262,108.000000,0.000000,4332.820313,4332.563965,4342.563965,4345.641113,4305.000000,4307.820313,4304.615234,4327.563965,4323.461426,4310.128418,4540.384766,4534.615234,4427.307617,4485.128418,4909.000000,1.000000,23.000000,,,,0.000000,4.000000,4.000000,4.000000,4.000000,4.000000,4.000000,4.000000,4.000000,4.000000,4.000000,4.000000,4.000000,4.000000,4.000000,100.000000,,,,,,,,,,,,,,,,,,,,,,,,,,,,,,,,,,,,,,,,,,,,,,,,,,,,,,,,,,,,,,,,,,,,,,,,,,,,,,,,,,,,,,,,,,,,,,,,,,,,,,,,,,,,,,,,,,,,,
1768375478.037872,1768375478.040071,109.000000,0.000000,4330.256348,4332.563965,4341.666504,4343.974121,4302.692383,4308.333496,4306.666504,4326.922852,4319.615234,4306.794922,4539.615234,4533.717773,4431.794922,4492.948730,5086.000000,1.000000,23.000000,,,,0.000000,4.000000,4.000000,4.000000,4.000000,4.000000,4.000000,4.000000,4.000000,4.000000,4.000000,4.000000,4.000000,4.000000,4.000000,100.000000,,,,,,,,,,,,,,,,,,,,,,,,,,,,,,,,,,,,,,,,,,,,,,,,,,,,,,,,,,,,,,,,,,,,,,,,,,,,,,,,,,,,,,,,,,,,,,,,,,,,,,,,,,,,,,,,,,,,,
1768375478.045680,1768375478.047779,110.000000,0.000000,4331.282227,4328.333496,4342.820313,4347.948730,4309.743652,4309.487305,4310.000000,4323.461426,4308.205078,4302.307617,4537.820313,4532.179688,4426.922852,4493.717773,4370.000000,1.000000,23.000000,,,,0.000000,4.000000,4.000000,4.000000,4.000000,4.000000,4.000000,4.000000,4.000000,4.000000,4.000000,4.000000,4.000000,4.000000,4.000000,100.000000,,,,,,,,,,,,,,,,,,,,,,,,,,,,,,,,,,,,,,,,,,,,,,,,0.231503,0.352744,0.208932,0.136338,0.084849,0.906744,0.577343,0.167890,0.149440,0.111738,0.156235,0.525482,0.237859,0.128338,0.124178,0.210001,0.308497,0.121214,0.101299,0.072664,0.178082,0.092774,0.075981,0.056594,0.055342,0.083403,0.066613,0.109893,0.055142,0.115209,0.161270,0.236712,0.131847,0.080084,0.123792,0.379736,0.182716,0.123623,0.094145,0.084163,0.355332,0.252186,0.162462,0.132506,0.109839,0.450151,0.163246,0.313625,0.158201,0.101851,0.333461,0.213331,0.365357,0.203712,0.123227,0.520200,0.513553,0.431131,0.453231,0.157646,0.483035,0.271884,0.224616,0.212216,0.112205,0.631963,0.200828,0.578365,0.275024,0.163807
1768375478.053489,1768375478.055588,111.000000,0.000000,4342.307617,4328.846191,4350.000000,4352.307617,4314.615234,4311.282227,4312.307617,4324.358887,4309.871582,4302.820313,4536.666504,4537.307617,4425.769043,4492.692383,4629.000000,1.000000,23.000000,,,,0.000000,4.000000,4.000000,4.000000,4.000000,4.000000,4.000000,4.000000,4.000000,4.000000,4.000000,4.000000,4.000000,4.000000,4.000000,100.000000,,,,,,,,,,,,,,,,,,,,,,,,,,,,,,,,,,,,,,,,,,,,,,,,,,,,,,,,,,,,,,,,,,,,,,,,,,,,,,,,,,,,,,,,,,,,,,,,,,,,,,,,,,,,,,,,,,,,,
1768375478.061297,1768375478.063196,112.000000,0.000000,4343.205078,4328.717773,4350.384766,4351.282227,4308.974121,4309.230957,4310.512695,4326.794922,4318.077148,4302.948730,4539.230957,4539.102539,4429.487305,4493.333496,4909.000000,1.000000,23.000000,,,,0.000000,4.000000,4.000000,4.000000,4.000000,4.000000,4.000000,4.000000,4.000000,4.000000,4.000000,4.000000,4.000000,4.000000,4.000000,100.000000,,,,,,,,,,,,,,,,,,,,,,,,,,,,,,,,,,,,,,,,,,,,,,,,,,,,,,,,,,,,,,,,,,,,,,,,,,,,,,,,,,,,,,,,,,,,,,,,,,,,,,,,,,,,,,,,,,,,,
1768375478.069106,1768375478.071005,113.000000,0.000000,4330.512695,4325.384766,4341.153809,4350.512695,4305.769043,4306.025879,4305.769043,4321.025879,4314.871582,4300.384766,4541.153809,4532.820313,4426.922852,4488.077148,5086.000000,1.000000,23.000000,,,,0.000000,4.000000,4.000000,4.000000,4.000000,4.000000,4.000000,4.000000,4.000000,4.000000,4.000000,4.000000,4.000000,4.000000,4.000000,100.000000,,,,,,,,,,,,,,,,,,,,,,,,,,,,,,,,,,,,,,,,,,,,,,,,,,,,,,,,,,,,,,,,,,,,,,,,,,,,,,,,,,,,,,,,,,,,,,,,,,,,,,,,,,,,,,,,,,,,,
1768375478.076914,1768375478.078713,114.000000,0.000000,4328.974121,4326.666504,4338.717773,4352.563965,4309.102539,4307.179688,4303.717773,4316.538574,4310.897461,4298.717773,4536.666504,4529.102539,4422.563965,4481.794922,4370.000000,1.000000,23.000000,,,,0.000000,4.000000,4.000000,4.000000,4.000000,4.000000,4.000000,4.000000,4.000000,4.000000,4.000000,4.000000,4.000000,4.000000,4.000000,100.000000,,,,,,,,,,,,,,,,,,,,,,,,,,,,,,,,,,,,,,,,,,,,,,,,,,,,,,,,,,,,,,,,,,,,,,,,,,,,,,,,,,,,,,,,,,,,,,,,,,,,,,,,,,,,,,,,,,,,,
1768375478.084722,1768375478.086522,115.000000,0.000000,4335.897461,4326.025879,4344.358887,4352.820313,4310.897461,4309.358887,4308.846191,4321.153809,4314.615234,4296.410156,4532.820313,4533.205078,4417.820313,4480.384766,4629.000000,1.000000,23.000000,,,,0.000000,4.000000,4.000000,4.000000,4.000000,4.000000,4.000000,4.000000,4.000000,4.000000,4.000000,4.000000,4.000000,4.000000,4.000000,100.000000,,,,,,,,,,,,,,,,,,,,,,,,,,,,,,,,,,,,,,,,,,,,,,,,,,,,,,,,,,,,,,,,,,,,,,,,,,,,,,,,,,,,,,,,,,,,,,,,,,,,,,,,,,,,,,,,,,,,,
1768375478.092531,1768375478.094131,116.000000,0.000000,4330.897461,4318.461426,4345.128418,4347.436035,4308.461426,4306.153809,4309.871582,4323.461426,4316.410156,4295.769043,4532.307617,4536.666504,4408.717773,4477.051270,4909.000000,1.000000,23.000000,,,,0.000000,4.000000,4.000000,4.000000,4.000000,4.000000,4.000000,4.000000,4.000000,4.000000,4.000000,4.000000,4.000000,4.000000,4.000000,100.000000,,,,,,,,,,,,,,,,,,,,,,,,,,,,,,,,,,,,,,,,,,,,,,,,,,,,,,,,,,,,,,,,,,,,,,,,,,,,,,,,,,,,,,,,,,,,,,,,,,,,,,,,,,,,,,,,,,,,,
1768375478.100339,1768375478.101939,117.000000,0.000000,4326.666504,4319.615234,4342.307617,4345.000000,4308.333496,4303.717773,4305.000000,4321.922852,4313.717773,4296.922852,4532.948730,4534.743652,4412.179688,4478.461426,5086.000000,1.000000,23.000000,,,,0.000000,4.000000,4.000000,4.000000,4.000000,4.000000,4.000000,4.000000,4.000000,4.000000,4.000000,4.000000,4.000000,4.000000,4.000000,100.000000,,,,,,,,,,,,,,,,,,,,,,,,,,,,,,,,,,,,,,,,,,,,,,,,,,,,,,,,,,,,,,,,,,,,,,,,,,,,,,,,,,,,,,,,,,,,,,,,,,,,,,,,,,,,,,,,,,,,,
1768375478.108148,1768375478.109847,118.000000,0.000000,4334.102539,4324.871582,4340.128418,4348.589844,4306.666504,4309.102539,4310.128418,4323.717773,4315.000000,4297.820313,4531.666504,4532.307617,4424.230957,4483.077148,4370.000000,1.000000,23.000000,,,,0.000000,4.000000,4.000000,4.000000,4.000000,4.000000,4.000000,4.000000,4.000000,4.000000,4.000000,4.000000,4.000000,4.000000,4.000000,100.000000,,,,,,,,,,,,,,,,,,,,,,,,,,,,,,,,,,,,,,,,,,,,,,,,,,,,,,,,,,,,,,,,,,,,,,,,,,,,,,,,,,,,,,,,,,,,,,,,,,,,,,,,,,,,,,,,,,,,,
1768375478.115956,1768375478.117656,119.000000,0.000000,4333.333496,4320.128418,4338.589844,4347.563965,4301.282227,4309.615234,4312.307617,4324.358887,4313.846191,4295.000000,4525.641113,4526.282227,4415.641113,4479.358887,4629.000000,1.000000,23.000000,,,,0.000000,4.000000,4.000000,4.000000,4.000000,4.000000,4.000000,4.000000,4.000000,4.000000,4.000000,4.000000,4.000000,4.000000,4.000000,100.000000,,,,,,,,,,,,,,,,,,,,,,,,,,,,,,,,,,,,,,,,,,,,,,,,,,,,,,,,,,,,,,,,,,,,,,,,,,,,,,,,,,,,,,,,,,,,,,,,,,,,,,,,,,,,,,,,,,,,,
1768375478.123765,1768375478.125264,120.000000,0.000000,4323.717773,4317.179688,4340.128418,4344.743652,4303.077148,4302.307617,4302.307617,4323.205078,4307.692383,4290.256348,4521.410156,4521.025879,4403.461426,4473.333496,4909.000000,1.000000,23.000000,,,,0.000000,4.000000,4.000000,4.000000,4.000000,4.000000,4.000000,4.000000,4.000000,4.000000,4.000000,4.000000,4.000000,4.000000,4.000000,100.000000,,,,,,,,,,,,,,,,,,,,,,,,,,,,,,,,,,,,,,,,,,,,,,,,,,,,,,,,,,,,,,,,,,,,,,,,,,,,,,,,,,,,,,,,,,,,,,,,,,,,,,,,,,,,,,,,,,,,,
1768375478.131573,1768375478.133073,121.000000,0.000000,4327.436035,4319.615234,4342.948730,4347.948730,4310.641113,4304.871582,4301.153809,4326.153809,4310.000000,4294.487305,4524.487305,4526.025879,4412.948730,4476.282227,5086.000000,1.000000,23.000000,,,,0.000000,4.000000,4.000000,4.000000,4.000000,4.000000,4.000000,4.000000,4.000000,4.000000,4.000000,4.000000,4.000000,4.000000,4.000000,100.000000,,,,,,,,,,,,,,,,,,,,,,,,,,,,,,,,,,,,,,,,,,,,,,,,,,,,,,,,,,,,,,,,,,,,,,,,,,,,,,,,,,,,,,,,,,,,,,,,,,,,,,,,,,,,,,,,,,,,,
1768375478.139382,1768375478.140781,122.000000,0.000000,4331.922852,4317.179688,4338.717773,4345.000000,4311.282227,4308.717773,4309.615234,4324.487305,4312.179688,4296.282227,4526.153809,4527.051270,4417.948730,4477.948730,4370.000000,1.000000,23.000000,,,,0.000000,4.000000,4.000000,4.000000,4.000000,4.000000,4.000000,4.000000,4.000000,4.000000,4.000000,4.000000,4.000000,4.000000,4.000000,100.000000,,,,,,,,,,,,,,,,,,,,,,,,,,,,,,,,,,,,,,,,,,,,,,,,,,,,,,,,,,,,,,,,,,,,,,,,,,,,,,,,,,,,,,,,,,,,,,,,,,,,,,,,,,,,,,,,,,,,,
1768375478.147190,1768375478.148590,123.000000,0.000000,4324.743652,4312.820313,4332.820313,4337.820313,4304.743652,4303.846191,4306.538574,4320.641113,4307.436035,4292.179688,4523.205078,4518.333496,4410.000000,4473.077148,4629.000000,1.000000,23.000000,,,,0.000000,4.000000,4.000000,4.000000,4.000000,4.000000,4.000000,4.000000,4.000000,4.000000,4.000000,4.000000,4.000000,4.000000,4.000000,100.000000,,,,,,,,,,,,,,,,,,,,,,,,,,,,,,,,,,,,,,,,,,,,,,,,,,,,,,,,,,,,,,,,,,,,,,,,,,,,,,,,,,,,,,,,,,,,,,,,,,,,,,,,,,,,,,,,,,,,,
1768375478.154998,1768375478.156199,124.000000,0.000000,4327.692383,4315.512695,4338.205078,4342.179688,4301.922852,4306.794922,4303.846191,4323.846191,4307.563965,4294.230957,4523.974121,4521.410156,4409.487305,4474.102539,4909.000000,1.000000,23.000000,,,,0.000000,4.000000,4.000000,4.000000,4.000000,4.000000,4.000000,4.000000,4.000000,4.000000,4.000000,4.000000,4.000000,4.000000,4.000000,100.000000,,,,,,,,,,,,,,,,,,,,,,,,,,,,,,,,,,,,,,,,,,,,,,,,,,,,,,,,,,,,,,,,,,,,,,,,,,,,,,,,,,,,,,,,,,,,,,,,,,,,,,,,,,,,,,,,,,,,,
1768375478.162807,1768375478.164007,125.000000,0.000000,4337.820313,4318.205078,4346.153809,4348.205078,4306.153809,4313.461426,4309.358887,4327.692383,4314.487305,4298.717773,4527.307617,4530.769043,4414.487305,4478.205078,5086.000000,1.000000,23.000000,,,,0.000000,4.000000,4.000000,4.000000,4.000000,4.000000,4.000000,4.000000,4.000000,4.000000,4.000000,4.000000,4.000000,4.000000,4.000000,100.000000,,,,,,,,,,,,,,,,,,,,,,,,,,,,,,,,,,,,,,,,,,,,,,,,,,,,,,,,,,,,,,,,,,,,,,,,,,,,,,,,,,,,,,,,,,,,,,,,,,,,,,,,,,,,,,,,,,,,,
1768375478.170615,1768375478.171915,126.000000,0.000000,4332.948730,4316.666504,4341.922852,4345.128418,4305.769043,4308.333496,4304.615234,4324.487305,4317.692383,4296.794922,4525.384766,4523.717773,4412.436035,4477.436035,4370.000000,1.000000,23.000000,,,,0.000000,4.000000,4.000000,4.000000,4.000000,4.000000,4.000000,4.000000,4.000000,4.000000,4.000000,4.000000,4.000000,4.000000,4.000000,100.000000,,,,,,,,,,,,,,,,,,,,,,,,,,,,,,,,,,,,,,,,,,,,,,,,0.218673,0.402314,0.203367,0.123064,0.085955,0.911321,0.602163,0.137819,0.117388,0.094304,0.164211,0.490520,0.207109,0.109954,0.122912,0.241200,0.313895,0.114935,0.094173,0.072603,0.188365,0.084069,0.066077,0.048596,0.048425,0.074556,0.063249,0.078880,0.057929,0.113356,0.191262,0.210520,0.116499,0.081319,0.126671,0.356920,0.178125,0.111784,0.074974,0.094412,0.344401,0.245607,0.150664,0.110499,0.118248,0.388132,0.151369,0.289339,0.158886,0.097953,0.324862,0.175582,0.297304,0.195145,0.121328,0.525727,0.509404,0.366532,0.467403,0.172438,0.427786,0.313344,0.243998,0.221116,0.112453,0.597421,0.220005,0.550843,0.276926,0.178566
1768375478.178424,1768375478.179724,127.000000,0.000000,4323.461426,4314.358887,4333.717773,4343.333496,4303.205078,4304.743652,4298.846191,4319.102539,4312.436035,4291.153809,4521.794922,4511.794922,4407.948730,4472.179688,23.000000,1.000000,23.000000,,,,0.000000,4.000000,4.000000,4.000000,4.000000,4.000000,4.000000,4.000000,4.000000,4.000000,4.000000,4.000000,4.000000,4.000000,4.000000,100.000000,,,,,,,,,,,,,,,,,,,,,,,,,,,,,,,,,,,,,,,,,,,,,,,,,,,,,,,,,,,,,,,,,,,,,,,,,,,,,,,,,,,,,,,,,,,,,,,,,,,,,,,,,,,,,,,,,,,,,
1768375478.186232,1768375478.187732,0.000000,0.000000,4324.743652,4310.641113,4333.846191,4338.205078,4303.589844,4310.256348,4305.384766,4318.846191,4307.436035,4289.358887,4520.256348,4516.282227,4404.358887,4469.743652,4039.000000,1.000000,23.000000,,,,0.000000,4.000000,4.000000,4.000000,4.000000,4.000000,4.000000,4.000000,4.000000,4.000000,4.000000,4.000000,4.000000,4.000000,4.000000,100.000000,,,,,,,,,,,,,,,,,,,,,,,,,,,,,,,,,,,,,,,,,,,,,,,,,,,,,,,,,,,,,,,,,,,,,,,,,,,,,,,,,,,,,,,,,,,,,,,,,,,,,,,,,,,,,,,,,,,,,
1768375478.194041,1768375478.195540,1.000000,0.000000,4325.769043,4308.077148,4337.948730,4333.205078,4303.589844,4309.358887,4310.641113,4322.948730,4310.128418,4294.743652,4522.051270,4527.563965,4404.743652,4473.461426,4016.000000,1.000000,23.000000,,,,0.000000,4.000000,4.000000,4.000000,4.000000,4.000000,4.000000,4.000000,4.000000,4.000000,4.000000,4.000000,4.000000,4.000000,4.000000,100.000000,,,,,,,,,,,,,,,,,,,,,,,,,,,,,,,,,,,,,,,,,,,,,,,,,,,,,,,,,,,,,,,,,,,,,,,,,,,,,,,,,,,,,,,,,,,,,,,,,,,,,,,,,,,,,,,,,,,,,
1768375478.201849,1768375478.203449,2.000000,0.000000,4321.153809,4309.358887,4336.922852,4336.794922,4301.282227,4306.666504,4309.615234,4326.922852,4315.897461,4299.487305,4525.641113,4529.871582,4408.846191,4476.282227,3902.000000,1.000000,23.000000,,,,0.000000,4.000000,4.000000,4.000000,4.000000,4.000000,4.000000,4.000000,4.000000,4.000000,4.000000,4.000000,4.000000,4.000000,4.000000,100.000000,,,,,,,,,,,,,,,,,,,,,,,,,,,,,,,,,,,,,,,,,,,,,,,,,,,,,,,,,,,,,,,,,,,,,,,,,,,,,,,,,,,,,,,,,,,,,,,,,,,,,,,,,,,,,,,,,,,,,
1768375478.209658,1768375478.211257,3.000000,0.000000,4318.717773,4305.256348,4330.769043,4335.128418,4299.102539,4306.922852,4309.230957,4328.077148,4316.282227,4296.922852,4523.717773,4525.256348,4407.436035,4475.000000,3914.000000,1.000000,23.000000,,,,0.000000,4.000000,4.000000,4.000000,4.000000,4.000000,4.000000,4.000000,4.000000,4.000000,4.000000,4.000000,4.000000,4.000000,4.000000,100.000000,,,,,,,,,,,,,,,,,,,,,,,,,,,,,,,,,,,,,,,,,,,,,,,,,,,,,,,,,,,,,,,,,,,,,,,,,,,,,,,,,,,,,,,,,,,,,,,,,,,,,,,,,,,,,,,,,,,,,
