title:remote_21, start timestamp:1768374776.089512, stop timestamp:1768374806.854783, headset type:EPOCX, headset serial:E5020E3B, headset firmware:730, channels:156, sampling rate:eeg_128;pm_0.1;pow_8, samples:3941      , version:2.2, 
Timestamp,OriginalTimestamp,EEG.Counter,EEG.Interpolated,EEG.AF3,EEG.F7,EEG.F3,EEG.FC5,EEG.T7,EEG.P7,EEG.O1,EEG.O2,EEG.P8,EEG.T8,EEG.FC6,EEG.F4,EEG.F8,EEG.AF4,EEG.RawCq,EEG.Battery,EEG.BatteryPercent,MarkerIndex,MarkerType,MarkerValueInt,EEG.MarkerHardware,CQ.AF3,CQ.F7,CQ.F3,CQ.FC5,CQ.T7,CQ.P7,CQ.O1,CQ.O2,CQ.P8,CQ.T8,CQ.FC6,CQ.F4,CQ.F8,CQ.AF4,CQ.Overall,EQ.SampleRateQuality,EQ.OVERALL,EQ.AF3,EQ.F7,EQ.F3,EQ.FC5,EQ.T7,EQ.P7,EQ.O1,EQ.O2,EQ.P8,EQ.T8,EQ.FC6,EQ.F4,EQ.F8,EQ.AF4,PM.Attention.IsActive,PM.Attention.Scaled,PM.Attention.Raw,PM.Attention.Min,PM.Attention.Max,PM.Engagement.IsActive,PM.Engagement.Scaled,PM.Engagement.Raw,PM.Engagement.Min,PM.Engagement.Max,PM.Excitement.IsActive,PM.Excitement.Scaled,PM.Excitement.Raw,PM.Excitement.Min,PM.Excitement.Max,PM.LongTermExcitement,PM.Stress.IsActive,PM.Stress.Scaled,PM.Stress.Raw,PM.Stress.Min,PM.Stress.Max,PM.Relaxation.IsActive,PM.Relaxation.Scaled,PM.Relaxation.Raw,PM.Relaxation.Min,PM.Relaxation.Max,PM.Interest.IsActive,PM.Interest.Scaled,PM.Interest.Raw,PM.Interest.Min,PM.Interest.Max,POW.AF3.Theta,POW.AF3.Alpha,POW.AF3.BetaL,POW.AF3.BetaH,POW.AF3.Gamma,POW.F7.Theta,POW.F7.Alpha,POW.F7.BetaL,POW.F7.BetaH,POW.F7.Gamma,POW.F3.Theta,POW.F3.Alpha,POW.F3.BetaL,POW.F3.BetaH,POW.F3.Gamma,POW.FC5.Theta,POW.FC5.Alpha,POW.FC5.BetaL,POW.FC5.BetaH,POW.FC5.Gamma,POW.T7.Theta,POW.T7.Alpha,POW.T7.BetaL,POW.T7.BetaH,POW.T7.Gamma,POW.P7.Theta,POW.P7.Alpha,POW.P7.BetaL,POW.P7.BetaH,POW.P7.Gamma,POW.O1.Theta,POW.O1.Alpha,POW.O1.BetaL,POW.O1.BetaH,POW.O1.Gamma,POW.O2.Theta,POW.O2.Alpha,POW.O2.BetaL,POW.O2.BetaH,POW.O2.Gamma,POW.P8.Theta,POW.P8.Alpha,POW.P8.BetaL,POW.P8.BetaH,POW.P8.Gamma,POW.T8.Theta,POW.T8.Alpha,POW.T8.BetaL,POW.T8.BetaH,POW.T8.Gamma,POW.FC6.Theta,POW.FC6.Alpha,POW.FC6.BetaL,POW.FC6.BetaH,POW.FC6.Gamma,POW.F4.Theta,POW.F4.Alpha,POW.F4.BetaL,POW.F4.BetaH,POW.F4.Gamma,POW.F8.Theta,POW.F8.Alpha,POW.F8.BetaL,POW.F8.BetaH,POW.F8.Gamma,POW.AF4.Theta,POW.AF4.Alpha,POW.AF4.BetaL,POW.AF4.BetaH,POW.AF4.Gamma
1768374776.089512,1768374776.090631,69.000000,0.000000,4328.333496,4314.358887,4345.256348,4350.256348,4319.230957,4314.358887,4310.384766,4331.025879,4330.128418,4291.538574,4523.333496,4530.128418,4399.358887,4460.769043,3749.000000,1.000000,26.000000,,,,0.000000,4.000000,4.000000,4.000000,4.000000,4.000000,4.000000,4.000000,4.000000,4.000000,4.000000,4.000000,4.000000,4.000000,4.000000,100.000000,,,,,,,,,,,,,,,,,,,,,,,,,,,,,,,,,,,,,,,,,,,,,,,,,,,,,,,,,,,,,,,,,,,,,,,,,,,,,,,,,,,,,,,,,,,,,,,,,,,,,,,,,,,,,,,,,,,,,
1768374776.097321,1768374776.098340,70.000000,0.000000,4324.102539,4314.230957,4343.461426,4344.230957,4313.205078,4311.666504,4310.128418,4328.717773,4325.256348,4292.692383,4524.358887,4528.333496,4399.358887,4461.410156,3774.000000,1.000000,26.000000,,,,0.000000,4.000000,4.000000,4.000000,4.000000,4.000000,4.000000,4.000000,4.000000,4.000000,4.000000,4.000000,4.000000,4.000000,4.000000,100.000000,,,,,,,,,,,,,,,,,,,,,,,,,,,,,,,,,,,,,,,,,,,,,,,,,,,,,,,,,,,,,,,,,,,,,,,,,,,,,,,,,,,,,,,,,,,,,,,,,,,,,,,,,,,,,,,,,,,,,
1768374776.105129,1768374776.106148,71.000000,0.000000,4321.538574,4315.000000,4340.384766,4347.563965,4311.794922,4310.128418,4307.820313,4328.205078,4324.230957,4289.615234,4520.384766,4519.230957,4393.461426,4460.128418,3371.000000,1.000000,26.000000,,,,0.000000,4.000000,4.000000,4.000000,4.000000,4.000000,4.000000,4.000000,4.000000,4.000000,4.000000,4.000000,4.000000,4.000000,4.000000,100.000000,,,,,,,,,,,,,,,,,,,,,,,,,,,,,,,,,,,,,,,,,,,,,,,,,,,,,,,,,,,,,,,,,,,,,,,,,,,,,,,,,,,,,,,,,,,,,,,,,,,,,,,,,,,,,,,,,,,,,
1768374776.112938,1768374776.114156,72.000000,0.000000,4322.948730,4315.128418,4341.025879,4348.717773,4313.717773,4310.897461,4303.205078,4328.589844,4324.871582,4282.820313,4517.563965,4516.794922,4393.974121,4459.871582,3969.000000,1.000000,26.000000,,,,0.000000,4.000000,4.000000,4.000000,4.000000,4.000000,4.000000,4.000000,4.000000,4.000000,4.000000,4.000000,4.000000,4.000000,4.000000,100.000000,,,,,,,,,,,,,,,,,,,,,,,,,,,,,,,,,,,,,,,,,,,,,,,,,,,,,,,,,,,,,,,,,,,,,,,,,,,,,,,,,,,,,,,,,,,,,,,,,,,,,,,,,,,,,,,,,,,,,
1768374776.120746,1768374776.121965,73.000000,0.000000,4322.563965,4314.102539,4340.641113,4342.179688,4311.282227,4308.333496,4300.641113,4327.563965,4322.692383,4283.205078,4515.641113,4518.205078,4394.743652,4458.846191,3972.000000,1.000000,26.000000,,,,0.000000,4.000000,4.000000,4.000000,4.000000,4.000000,4.000000,4.000000,4.000000,4.000000,4.000000,4.000000,4.000000,4.000000,4.000000,100.000000,,,,,,,,,,,,,,,,,,,,,,,,,,,,,,,,,,,,,,,,,,,,,,,,,,,,,,,,,,,,,,,,,,,,,,,,,,,,,,,,,,,,,,,,,,,,,,,,,,,,,,,,,,,,,,,,,,,,,
1768374776.128555,1768374776.129873,74.000000,0.000000,4316.666504,4313.461426,4339.871582,4342.307617,4308.461426,4306.794922,4302.820313,4330.769043,4324.358887,4290.769043,4518.333496,4523.077148,4395.384766,4456.794922,4388.000000,1.000000,26.000000,,,,0.000000,4.000000,4.000000,4.000000,4.000000,4.000000,4.000000,4.000000,4.000000,4.000000,4.000000,4.000000,4.000000,4.000000,4.000000,100.000000,,,,,,,,,,,,,,,,,,,,,,,,,,,,,,,,,,,,,,,,,,,,,,,,,,,,,,,,,,,,,,,,,,,,,,,,,,,,,,,,,,,,,,,,,,,,,,,,,,,,,,,,,,,,,,,,,,,,,
1768374776.136363,1768374776.137682,75.000000,0.000000,4311.538574,4311.282227,4340.512695,4343.461426,4304.871582,4308.974121,4307.307617,4333.589844,4331.410156,4294.743652,4523.846191,4529.487305,4396.282227,4456.538574,4650.000000,1.000000,26.000000,,,,0.000000,4.000000,4.000000,4.000000,4.000000,4.000000,4.000000,4.000000,4.000000,4.000000,4.000000,4.000000,4.000000,4.000000,4.000000,100.000000,,,,,,,,,,,,,,,,,,,,,,,,,,,,,,,,,,,,,,,,,,,,,,,,,,,,,,,,,,,,,,,,,,,,,,,,,,,,,,,,,,,,,,,,,,,,,,,,,,,,,,,,,,,,,,,,,,,,,
1768374776.144172,1768374776.145690,76.000000,0.000000,4311.282227,4308.205078,4339.230957,4341.410156,4307.179688,4313.077148,4312.051270,4330.641113,4333.333496,4290.897461,4522.563965,4528.589844,4393.846191,4458.846191,4959.000000,1.000000,26.000000,,,,0.000000,4.000000,4.000000,4.000000,4.000000,4.000000,4.000000,4.000000,4.000000,4.000000,4.000000,4.000000,4.000000,4.000000,4.000000,100.000000,,,,,,,,,,,,,,,,,,,,,,,,,,,,,,,,,,,,,,,,,,,,,,,,,,,,,,,,,,,,,,,,,,,,,,,,,,,,,,,,,,,,,,,,,,,,,,,,,,,,,,,,,,,,,,,,,,,,,
1768374776.151980,1768374776.153498,77.000000,0.000000,4309.743652,4309.102539,4336.025879,4338.974121,4312.436035,4313.974121,4312.820313,4331.025879,4329.102539,4289.102539,4519.102539,4521.025879,4389.358887,4458.717773,5223.000000,1.000000,26.000000,,,,0.000000,4.000000,4.000000,4.000000,4.000000,4.000000,4.000000,4.000000,4.000000,4.000000,4.000000,4.000000,4.000000,4.000000,4.000000,100.000000,,,,,,,,,,,,,,,,,,,,,,,,,,,,,,,,,,,,,,,,,,,,,,,,,,,,,,,,,,,,,,,,,,,,,,,,,,,,,,,,,,,,,,,,,,,,,,,,,,,,,,,,,,,,,,,,,,,,,
1768374776.159788,1768374776.161207,78.000000,0.000000,4307.948730,4312.051270,4335.897461,4338.077148,4310.512695,4310.897461,4308.846191,4335.256348,4327.692383,4290.769043,4520.128418,4519.102539,4388.333496,4455.897461,4388.000000,1.000000,26.000000,,,,0.000000,4.000000,4.000000,4.000000,4.000000,4.000000,4.000000,4.000000,4.000000,4.000000,4.000000,4.000000,4.000000,4.000000,4.000000,100.000000,1.000000,75.000000,4.000000,4.000000,4.000000,4.000000,1.000000,4.000000,4.000000,4.000000,4.000000,4.000000,4.000000,4.000000,4.000000,4.000000,,,,,,,,,,,,,,,,,,,,,,,,,,,,,,,,1.184676,0.620399,0.122075,0.153509,0.099642,0.936810,0.507370,0.123117,0.059351,0.109815,0.719439,0.447764,0.433960,0.197519,0.078141,0.634644,0.404147,0.121346,0.062916,0.066017,0.121432,0.112483,0.069869,0.044580,0.065932,0.127462,0.124451,0.222504,0.106179,0.144949,0.348293,0.085711,0.265731,0.109464,0.127821,0.286497,0.140084,0.298498,0.088407,0.099367,0.593752,0.087412,0.267290,0.142752,0.130043,0.431922,0.239830,0.154511,0.140121,0.084014,0.907318,0.449335,0.481136,0.266891,0.160562,1.044995,0.559351,1.036314,0.367704,0.137981,1.163409,0.544918,0.214185,0.274361,0.205029,1.181338,0.687906,0.265029,0.164673,0.141483
1768374776.167597,1768374776.169015,79.000000,0.000000,4314.230957,4314.102539,4338.717773,4341.666504,4309.743652,4310.769043,4308.205078,4335.384766,4329.487305,4288.846191,4521.153809,4525.769043,4387.563965,4456.410156,4650.000000,1.000000,26.000000,,,,0.000000,4.000000,4.000000,4.000000,4.000000,4.000000,4.000000,4.000000,4.000000,4.000000,4.000000,4.000000,4.000000,4.000000,4.000000,100.000000,,,,,,,,,,,,,,,,,,,,,,,,,,,,,,,,,,,,,,,,,,,,,,,,,,,,,,,,,,,,,,,,,,,,,,,,,,,,,,,,,,,,,,,,,,,,,,,,,,,,,,,,,,,,,,,,,,,,,
1768374776.175405,1768374776.176624,80.000000,0.000000,4321.282227,4314.358887,4338.461426,4342.692383,4311.282227,4312.179688,4311.153809,4330.641113,4327.051270,4287.307617,4519.230957,4525.769043,4387.436035,4458.589844,4959.000000,1.000000,26.000000,,,,0.000000,4.000000,4.000000,4.000000,4.000000,4.000000,4.000000,4.000000,4.000000,4.000000,4.000000,4.000000,4.000000,4.000000,4.000000,100.000000,,,,,,,,,,,,,,,,,,,,,,,,,,,,,,,,,,,,,,,,,,,,,,,,,,,,,,,,,,,,,,,,,,,,,,,,,,,,,,,,,,,,,,,,,,,,,,,,,,,,,,,,,,,,,,,,,,,,,
1768374776.183214,1768374776.184432,81.000000,0.000000,4322.051270,4313.974121,4337.051270,4341.666504,4309.230957,4311.282227,4308.846191,4327.948730,4324.871582,4287.692383,4519.230957,4519.230957,4392.307617,4457.948730,5223.000000,1.000000,26.000000,,,,0.000000,4.000000,4.000000,4.000000,4.000000,4.000000,4.000000,4.000000,4.000000,4.000000,4.000000,4.000000,4.000000,4.000000,4.000000,100.000000,,,,,,,,,,,,,,,,,,,,,,,,,,,,,,,,,,,,,,,,,,,,,,,,,,,,,,,,,,,,,,,,,,,,,,,,,,,,,,,,,,,,,,,,,,,,,,,,,,,,,,,,,,,,,,,,,,,,,
1768374776.191022,1768374776.192341,82.000000,0.000000,4321.666504,4315.000000,4335.897461,4343.846191,4308.846191,4311.153809,4307.307617,4330.128418,4324.871582,4284.230957,4520.897461,4521.538574,4393.846191,4457.179688,4388.000000,1.000000,26.000000,,,,0.000000,4.000000,4.000000,4.000000,4.000000,4.000000,4.000000,4.000000,4.000000,4.000000,4.000000,4.000000,4.000000,4.000000,4.000000,100.000000,,,,,,,,,,,,,,,,,,,,,,,,,,,,,,,,,,,,,,,,,,,,,,,,,,,,,,,,,,,,,,,,,,,,,,,,,,,,,,,,,,,,,,,,,,,,,,,,,,,,,,,,,,,,,,,,,,,,,
1768374776.198831,1768374776.200149,83.000000,0.000000,4323.589844,4313.589844,4336.025879,4345.128418,4309.871582,4309.487305,4309.102539,4328.461426,4323.205078,4284.615234,4522.692383,4527.436035,4393.974121,4463.846191,4650.000000,1.000000,26.000000,,,,0.000000,4.000000,4.000000,4.000000,4.000000,4.000000,4.000000,4.000000,4.000000,4.000000,4.000000,4.000000,4.000000,4.000000,4.000000,100.000000,,,,,,,,,,,,,,,,,,,,,,,,,,,,,,,,,,,,,,,,,,,,,,,,,,,,,,,,,,,,,,,,,,,,,,,,,,,,,,,,,,,,,,,,,,,,,,,,,,,,,,,,,,,,,,,,,,,,,
1768374776.206639,1768374776.208157,84.000000,0.000000,4331.922852,4314.871582,4343.974121,4347.179688,4306.666504,4304.871582,4304.871582,4325.256348,4324.487305,4293.333496,4525.641113,4529.743652,4401.153809,4475.769043,4959.000000,1.000000,26.000000,,,,0.000000,4.000000,4.000000,4.000000,4.000000,4.000000,4.000000,4.000000,4.000000,4.000000,4.000000,4.000000,4.000000,4.000000,4.000000,100.000000,,,,,,,,,,,,,,,,,,,,,,,,,,,,,,,,,,,,,,,,,,,,,,,,,,,,,,,,,,,,,,,,,,,,,,,,,,,,,,,,,,,,,,,,,,,,,,,,,,,,,,,,,,,,,,,,,,,,,
1768374776.214448,1768374776.215966,85.000000,0.000000,4337.563965,4319.615234,4354.358887,4354.871582,4310.256348,4310.256348,4305.512695,4330.128418,4328.205078,4293.461426,4524.871582,4532.436035,4401.666504,4476.410156,5223.000000,1.000000,26.000000,,,,0.000000,4.000000,4.000000,4.000000,4.000000,4.000000,4.000000,4.000000,4.000000,4.000000,4.000000,4.000000,4.000000,4.000000,4.000000,100.000000,,,,,,,,,,,,,,,,,,,,,,,,,,,,,,,,,,,,,,,,,,,,,,,,,,,,,,,,,,,,,,,,,,,,,,,,,,,,,,,,,,,,,,,,,,,,,,,,,,,,,,,,,,,,,,,,,,,,,
1768374776.222256,1768374776.223674,86.000000,0.000000,4332.948730,4320.769043,4350.897461,4355.897461,4318.974121,4320.000000,4316.282227,4335.512695,4329.102539,4291.282227,4527.051270,4535.000000,4398.333496,4472.307617,4388.000000,1.000000,26.000000,,,,0.000000,4.000000,4.000000,4.000000,4.000000,4.000000,4.000000,4.000000,4.000000,4.000000,4.000000,4.000000,4.000000,4.000000,4.000000,100.000000,,,,,,,,,,,,,,,,,,,,,,,,,,,,,,,,,,,,,,,,,,,,,,,,,,,,,,,,,,,,,,,,,,,,,,,,,,,,,,,,,,,,,,,,,,,,,,,,,,,,,,,,,,,,,,,,,,,,,
1768374776.230065,1768374776.231483,87.000000,0.000000,4334.102539,4325.128418,4341.153809,4350.512695,4316.153809,4316.666504,4318.461426,4333.333496,4328.717773,4295.897461,4536.153809,4535.897461,4406.025879,4481.922852,4650.000000,1.000000,26.000000,,,,0.000000,4.000000,4.000000,4.000000,4.000000,4.000000,4.000000,4.000000,4.000000,4.000000,4.000000,4.000000,4.000000,4.000000,4.000000,100.000000,,,,,,,,,,,,,,,,,,,,,,,,,,,,,,,,,,,,,,,,,,,,,,,,,,,,,,,,,,,,,,,,,,,,,,,,,,,,,,,,,,,,,,,,,,,,,,,,,,,,,,,,,,,,,,,,,,,,,
1768374776.237873,1768374776.239091,88.000000,0.000000,4351.153809,4333.205078,4344.358887,4353.461426,4308.589844,4312.179688,4312.563965,4330.512695,4329.615234,4294.358887,4539.102539,4535.897461,4414.102539,4493.077148,4959.000000,1.000000,26.000000,,,,0.000000,4.000000,4.000000,4.000000,4.000000,4.000000,4.000000,4.000000,4.000000,4.000000,4.000000,4.000000,4.000000,4.000000,4.000000,100.000000,,,,,,,,,,,,,,,,,,,,,,,,,,,,,,,,,,,,,,,,,,,,,,,,,,,,,,,,,,,,,,,,,,,,,,,,,,,,,,,,,,,,,,,,,,,,,,,,,,,,,,,,,,,,,,,,,,,,,
1768374776.245681,1768374776.246900,89.000000,0.000000,4360.512695,4331.794922,4352.179688,4355.641113,4308.077148,4308.589844,4306.282227,4327.179688,4322.820313,4290.512695,4536.282227,4532.692383,4411.282227,4496.410156,5223.000000,1.000000,26.000000,,,,0.000000,4.000000,4.000000,4.000000,4.000000,4.000000,4.000000,4.000000,4.000000,4.000000,4.000000,4.000000,4.000000,4.000000,4.000000,100.000000,,,,,,,,,,,,,,,,,,,,,,,,,,,,,,,,,,,,,,,,,,,,,,,,,,,,,,,,,,,,,,,,,,,,,,,,,,,,,,,,,,,,,,,,,,,,,,,,,,,,,,,,,,,,,,,,,,,,,
1768374776.253490,1768374776.254608,90.000000,0.000000,4365.000000,4332.307617,4349.487305,4354.230957,4310.512695,4300.769043,4300.384766,4321.922852,4312.948730,4290.256348,4535.641113,4528.974121,4411.025879,4508.846191,4388.000000,1.000000,26.000000,,,,0.000000,4.000000,4.000000,4.000000,4.000000,4.000000,4.000000,4.000000,4.000000,4.000000,4.000000,4.000000,4.000000,4.000000,4.000000,100.000000,,,,,,,,,,,,,,,,,,,,,,,,,,,,,,,,,,,,,,,,,,,,,,,,,,,,,,,,,,,,,,,,,,,,,,,,,,,,,,,,,,,,,,,,,,,,,,,,,,,,,,,,,,,,,,,,,,,,,
1768374776.261298,1768374776.262417,91.000000,0.000000,4384.102539,4346.794922,4350.769043,4359.871582,4312.820313,4299.102539,4301.410156,4321.666504,4315.641113,4292.051270,4538.717773,4534.743652,4421.410156,4531.410156,4650.000000,1.000000,26.000000,,,,0.000000,4.000000,4.000000,4.000000,4.000000,4.000000,4.000000,4.000000,4.000000,4.000000,4.000000,4.000000,4.000000,4.000000,4.000000,100.000000,,,,,,,,,,,,,,,,,,,,,,,,,,,,,,,,,,,,,,,,,,,,,,,,,,,,,,,,,,,,,,,,,,,,,,,,,,,,,,,,,,,,,,,,,,,,,,,,,,,,,,,,,,,,,,,,,,,,,
1768374776.269107,1768374776.270125,92.000000,0.000000,4400.256348,4353.461426,4364.102539,4368.717773,4312.563965,4309.487305,4312.307617,4330.897461,4327.563965,4296.410156,4544.743652,4550.512695,4429.102539,4548.461426,4959.000000,1.000000,26.000000,,,,0.000000,4.000000,4.000000,4.000000,4.000000,4.000000,4.000000,4.000000,4.000000,4.000000,4.000000,4.000000,4.000000,4.000000,4.000000,100.000000,,,,,,,,,,,,,,,,,,,,,,,,,,,,,,,,,,,,,,,,,,,,,,,,,,,,,,,,,,,,,,,,,,,,,,,,,,,,,,,,,,,,,,,,,,,,,,,,,,,,,,,,,,,,,,,,,,,,,
1768374776.276915,1768374776.277934,93.000000,0.000000,4405.128418,4349.487305,4369.230957,4371.282227,4309.358887,4312.307617,4314.871582,4333.333496,4329.358887,4296.410156,4546.666504,4553.205078,4429.487305,4555.256348,5223.000000,1.000000,26.000000,,,,0.000000,4.000000,4.000000,4.000000,4.000000,4.000000,4.000000,4.000000,4.000000,4.000000,4.000000,4.000000,4.000000,4.000000,4.000000,100.000000,,,,,,,,,,,,,,,,,,,,,,,,,,,,,,,,,,,,,,,,,,,,,,,,,,,,,,,,,,,,,,,,,,,,,,,,,,,,,,,,,,,,,,,,,,,,,,,,,,,,,,,,,,,,,,,,,,,,,
1768374776.284724,1768374776.285842,94.000000,0.000000,4411.153809,4355.128418,4363.461426,4370.384766,4310.000000,4301.282227,4303.077148,4322.948730,4315.512695,4290.897461,4539.487305,4541.794922,4428.846191,4556.153809,4388.000000,1.000000,26.000000,,,,0.000000,4.000000,4.000000,4.000000,4.000000,4.000000,4.000000,4.000000,4.000000,4.000000,4.000000,4.000000,4.000000,4.000000,4.000000,100.000000,,,,,,,,,,,,,,,,,,,,,,,,,,,,,,,,,,,,,,,,,,,,,,,,1.086428,0.457165,0.096686,0.155179,0.098884,0.771911,0.492040,0.116629,0.079823,0.117001,0.619286,0.380980,0.358622,0.216053,0.080130,0.614417,0.355095,0.133298,0.073614,0.059682,0.138366,0.118858,0.074223,0.043005,0.058914,0.099315,0.164399,0.272954,0.102219,0.149229,0.185235,0.115610,0.277379,0.089372,0.116382,0.253879,0.156099,0.296074,0.077891,0.092345,0.538653,0.090472,0.237542,0.133290,0.125455,0.469621,0.225521,0.144764,0.128335,0.085815,0.903505,0.364328,0.388015,0.234030,0.169566,0.893957,0.404632,0.813356,0.346090,0.140064,1.113048,0.427530,0.213792,0.261494,0.225521,0.953091,0.521317,0.208876,0.122730,0.137247
1768374776.292532,1768374776.293651,95.000000,0.000000,4415.128418,4361.410156,4364.230957,4371.794922,4311.282227,4297.051270,4296.410156,4320.897461,4309.743652,4292.563965,4537.563965,4542.436035,4430.128418,4558.717773,4650.000000,1.000000,26.000000,,,,0.000000,4.000000,4.000000,4.000000,4.000000,4.000000,4.000000,4.000000,4.000000,4.000000,4.000000,4.000000,4.000000,4.000000,4.000000,100.000000,,,,,,,,,,,,,,,,,,,,,,,,,,,,,,,,,,,,,,,,,,,,,,,,,,,,,,,,,,,,,,,,,,,,,,,,,,,,,,,,,,,,,,,,,,,,,,,,,,,,,,,,,,,,,,,,,,,,,
1768374776.300341,1768374776.301259,96.000000,0.000000,4410.897461,4357.563965,4368.077148,4371.538574,4310.000000,4300.641113,4300.128418,4326.794922,4317.051270,4299.487305,4543.589844,4550.256348,4430.384766,4559.743652,4959.000000,1.000000,26.000000,,,,0.000000,4.000000,4.000000,4.000000,4.000000,4.000000,4.000000,4.000000,4.000000,4.000000,4.000000,4.000000,4.000000,4.000000,4.000000,100.000000,,,,,,,,,,,,,,,,,,,,,,,,,,,,,,,,,,,,,,,,,,,,,,,,,,,,,,,,,,,,,,,,,,,,,,,,,,,,,,,,,,,,,,,,,,,,,,,,,,,,,,,,,,,,,,,,,,,,,
1768374776.308149,1768374776.309068,97.000000,0.000000,4415.384766,4356.282227,4365.769043,4370.897461,4310.384766,4303.974121,4306.794922,4326.922852,4318.461426,4297.563965,4541.282227,4546.410156,4427.436035,4556.538574,5223.000000,1.000000,26.000000,,,,0.000000,4.000000,4.000000,4.000000,4.000000,4.000000,4.000000,4.000000,4.000000,4.000000,4.000000,4.000000,4.000000,4.000000,4.000000,100.000000,,,,,,,,,,,,,,,,,,,,,,,,,,,,,,,,,,,,,,,,,,,,,,,,,,,,,,,,,,,,,,,,,,,,,,,,,,,,,,,,,,,,,,,,,,,,,,,,,,,,,,,,,,,,,,,,,,,,,
1768374776.315957,1768374776.316776,98.000000,0.000000,4425.512695,4362.179688,4362.692383,4373.333496,4311.922852,4307.179688,4308.717773,4325.641113,4315.384766,4292.820313,4537.307617,4541.666504,4426.922852,4560.769043,4388.000000,1.000000,26.000000,,,,0.000000,4.000000,4.000000,4.000000,4.000000,4.000000,4.000000,4.000000,4.000000,4.000000,4.000000,4.000000,4.000000,4.000000,4.000000,100.000000,,,,,,,,,,,,,,,,,,,,,,,,,,,,,,,,,,,,,,,,,,,,,,,,,,,,,,,,,,,,,,,,,,,,,,,,,,,,,,,,,,,,,,,,,,,,,,,,,,,,,,,,,,,,,,,,,,,,,
1768374776.323766,1768374776.324585,99.000000,0.000000,4423.077148,4363.461426,4364.615234,4375.128418,4309.487305,4301.025879,4301.922852,4330.512695,4319.230957,4293.205078,4544.102539,4548.974121,4428.077148,4565.256348,4650.000000,1.000000,26.000000,,,,0.000000,4.000000,4.000000,4.000000,4.000000,4.000000,4.000000,4.000000,4.000000,4.000000,4.000000,4.000000,4.000000,4.000000,4.000000,100.000000,,,,,,,,,,,,,,,,,,,,,,,,,,,,,,,,,,,,,,,,,,,,,,,,,,,,,,,,,,,,,,,,,,,,,,,,,,,,,,,,,,,,,,,,,,,,,,,,,,,,,,,,,,,,,,,,,,,,,
1768374776.331574,1768374776.332593,100.000000,0.000000,4422.051270,4362.820313,4370.128418,4374.102539,4311.025879,4295.384766,4297.948730,4333.461426,4323.589844,4298.461426,4552.563965,4557.563965,4428.333496,4564.102539,4959.000000,1.000000,26.000000,,,,0.000000,4.000000,4.000000,4.000000,4.000000,4.000000,4.000000,4.000000,4.000000,4.000000,4.000000,4.000000,4.000000,4.000000,4.000000,100.000000,,,,,,,,,,,,,,,,,,,,,,,,,,,,,,,,,,,,,,,,,,,,,,,,,,,,,,,,,,,,,,,,,,,,,,,,,,,,,,,,,,,,,,,,,,,,,,,,,,,,,,,,,,,,,,,,,,,,,
1768374776.339383,1768374776.340401,101.000000,0.000000,4428.077148,4368.205078,4371.410156,4375.256348,4317.179688,4306.153809,4307.948730,4328.205078,4322.436035,4301.153809,4550.256348,4553.333496,4428.974121,4566.153809,5223.000000,1.000000,26.000000,,,,0.000000,4.000000,4.000000,4.000000,4.000000,4.000000,4.000000,4.000000,4.000000,4.000000,4.000000,4.000000,4.000000,4.000000,4.000000,100.000000,,,,,,,,,,,,,,,,,,,,,,,,,,,,,,,,,,,,,,,,,,,,,,,,,,,,,,,,,,,,,,,,,,,,,,,,,,,,,,,,,,,,,,,,,,,,,,,,,,,,,,,,,,,,,,,,,,,,,
1768374776.347191,1768374776.348310,102.000000,0.000000,4430.000000,4371.794922,4366.025879,4378.205078,4317.692383,4309.358887,4310.512695,4324.102539,4318.205078,4297.051270,4542.307617,4544.615234,4429.743652,4567.820313,4388.000000,1.000000,26.000000,,,,0.000000,4.000000,4.000000,4.000000,4.000000,4.000000,4.000000,4.000000,4.000000,4.000000,4.000000,4.000000,4.000000,4.000000,4.000000,100.000000,,,,,,,,,,,,,,,,,,,,,,,,,,,,,,,,,,,,,,,,,,,,,,,,,,,,,,,,,,,,,,,,,,,,,,,,,,,,,,,,,,,,,,,,,,,,,,,,,,,,,,,,,,,,,,,,,,,,,
1768374776.355000,1768374776.356118,103.000000,0.000000,4426.282227,4368.589844,4365.256348,4377.436035,4316.794922,4295.769043,4297.307617,4325.512695,4315.384766,4297.051270,4544.871582,4547.307617,4428.461426,4565.512695,4650.000000,1.000000,26.000000,,,,0.000000,4.000000,4.000000,4.000000,4.000000,4.000000,4.000000,4.000000,4.000000,4.000000,4.000000,4.000000,4.000000,4.000000,4.000000,100.000000,,,,,,,,,,,,,,,,,,,,,,,,,,,,,,,,,,,,,,,,,,,,,,,,,,,,,,,,,,,,,,,,,,,,,,,,,,,,,,,,,,,,,,,,,,,,,,,,,,,,,,,,,,,,,,,,,,,,,
1768374776.362808,1768374776.363727,104.000000,0.000000,4426.410156,4366.153809,4371.153809,4374.358887,4314.230957,4293.077148,4296.153809,4324.615234,4315.897461,4300.256348,4552.307617,4555.641113,4427.948730,4567.820313,4959.000000,1.000000,26.000000,,,,0.000000,4.000000,4.000000,4.000000,4.000000,4.000000,4.000000,4.000000,4.000000,4.000000,4.000000,4.000000,4.000000,4.000000,4.000000,100.000000,,,,,,,,,,,,,,,,,,,,,,,,,,,,,,,,,,,,,,,,,,,,,,,,,,,,,,,,,,,,,,,,,,,,,,,,,,,,,,,,,,,,,,,,,,,,,,,,,,,,,,,,,,,,,,,,,,,,,
1768374776.370616,1768374776.371535,105.000000,0.000000,4427.820313,4368.589844,4373.846191,4375.769043,4313.589844,4301.282227,4305.769043,4321.153809,4316.025879,4298.846191,4553.974121,4553.717773,4430.641113,4572.692383,5223.000000,1.000000,26.000000,,,,0.000000,4.000000,4.000000,4.000000,4.000000,4.000000,4.000000,4.000000,4.000000,4.000000,4.000000,4.000000,4.000000,4.000000,4.000000,100.000000,,,,,,,,,,,,,,,,,,,,,,,,,,,,,,,,,,,,,,,,,,,,,,,,,,,,,,,,,,,,,,,,,,,,,,,,,,,,,,,,,,,,,,,,,,,,,,,,,,,,,,,,,,,,,,,,,,,,,
1768374776.378425,1768374776.379244,106.000000,0.000000,4428.077148,4370.512695,4374.102539,4379.230957,4318.846191,4303.717773,4308.589844,4324.871582,4315.641113,4297.563965,4553.461426,4548.461426,4427.820313,4570.769043,4388.000000,1.000000,26.000000,,,,0.000000,4.000000,4.000000,4.000000,4.000000,4.000000,4.000000,4.000000,4.000000,4.000000,4.000000,4.000000,4.000000,4.000000,4.000000,100.000000,,,,,,,,,,,,,,,,,,,,,,,,,,,,,,,,,,,,,,,,,,,,,,,,,,,,,,,,,,,,,,,,,,,,,,,,,,,,,,,,,,,,,,,,,,,,,,,,,,,,,,,,,,,,,,,,,,,,,
1768374776.386233,1768374776.387052,107.000000,0.000000,4428.461426,4366.282227,4374.743652,4378.205078,4317.948730,4304.102539,4307.307617,4333.333496,4320.512695,4299.102539,4549.743652,4552.563965,4417.563965,4562.692383,4650.000000,1.000000,26.000000,,,,0.000000,4.000000,4.000000,4.000000,4.000000,4.000000,4.000000,4.000000,4.000000,4.000000,4.000000,4.000000,4.000000,4.000000,4.000000,100.000000,,,,,,,,,,,,,,,,,,,,,,,,,,,,,,,,,,,,,,,,,,,,,,,,,,,,,,,,,,,,,,,,,,,,,,,,,,,,,,,,,,,,,,,,,,,,,,,,,,,,,,,,,,,,,,,,,,,,,
1768374776.394042,1768374776.395061,108.000000,0.000000,4421.025879,4360.128418,4371.922852,4372.948730,4315.384766,4306.153809,4308.589844,4335.512695,4327.820313,4304.358887,4548.461426,4564.615234,4418.974121,4554.743652,4959.000000,1.000000,26.000000,,,,0.000000,4.000000,4.000000,4.000000,4.000000,4.000000,4.000000,4.000000,4.000000,4.000000,4.000000,4.000000,4.000000,4.000000,4.000000,100.000000,,,,,,,,,,,,,,,,,,,,,,,,,,,,,,,,,,,,,,,,,,,,,,,,,,,,,,,,,,,,,,,,,,,,,,,,,,,,,,,,,,,,,,,,,,,,,,,,,,,,,,,,,,,,,,,,,,,,,
1768374776.401850,1768374776.402869,109.000000,0.000000,4413.333496,4359.871582,4367.436035,4370.641113,4318.461426,4307.179688,4307.692383,4330.512695,4327.051270,4307.948730,4553.077148,4566.282227,4428.333496,4557.820313,5223.000000,1.000000,26.000000,,,,0.000000,4.000000,4.000000,4.000000,4.000000,4.000000,4.000000,4.000000,4.000000,4.000000,4.000000,4.000000,4.000000,4.000000,4.000000,100.000000,,,,,,,,,,,,,,,,,,,,,,,,,,,,,,,,,,,,,,,,,,,,,,,,,,,,,,,,,,,,,,,,,,,,,,,,,,,,,,,,,,,,,,,,,,,,,,,,,,,,,,,,,,,,,,,,,,,,,
1768374776.409659,1768374776.410777,110.000000,0.000000,4411.538574,4362.692383,4366.025879,4372.436035,4319.871582,4306.410156,4301.025879,4323.077148,4316.025879,4300.641113,4545.641113,4549.102539,4420.000000,4552.307617,4388.000000,1.000000,26.000000,,,,0.000000,4.000000,4.000000,4.000000,4.000000,4.000000,4.000000,4.000000,4.000000,4.000000,4.000000,4.000000,4.000000,4.000000,4.000000,100.000000,,,,,,,,,,,,,,,,,,,,,,,,,,,,,,,,,,,,,,,,,,,,,,,,0.941679,0.336702,0.096825,0.160714,0.100553,0.561477,0.468682,0.109419,0.108420,0.120461,0.515390,0.338188,0.292187,0.222861,0.086439,0.559129,0.312076,0.150681,0.092149,0.054980,0.167091,0.126985,0.075313,0.043884,0.052240,0.086943,0.197736,0.319341,0.102312,0.145461,0.089744,0.162205,0.288098,0.075545,0.105774,0.249026,0.186383,0.290053,0.070738,0.080814,0.466391,0.093939,0.198343,0.125294,0.116786,0.495056,0.209856,0.132852,0.119640,0.084101,0.882799,0.315098,0.307040,0.199996,0.168840,0.787744,0.312345,0.585333,0.322782,0.141580,1.006403,0.355047,0.219531,0.251270,0.234791,0.720008,0.408593,0.177556,0.094839,0.129663
1768374776.417467,1768374776.418586,111.000000,0.000000,4410.769043,4361.666504,4365.128418,4373.589844,4321.794922,4304.102539,4298.333496,4318.333496,4312.563965,4297.051270,4535.769043,4539.743652,4410.641113,4536.538574,4650.000000,1.000000,26.000000,,,,0.000000,4.000000,4.000000,4.000000,4.000000,4.000000,4.000000,4.000000,4.000000,4.000000,4.000000,4.000000,4.000000,4.000000,4.000000,100.000000,,,,,,,,,,,,,,,,,,,,,,,,,,,,,,,,,,,,,,,,,,,,,,,,,,,,,,,,,,,,,,,,,,,,,,,,,,,,,,,,,,,,,,,,,,,,,,,,,,,,,,,,,,,,,,,,,,,,,
1768374776.425275,1768374776.426294,112.000000,0.000000,4410.641113,4361.410156,4365.897461,4374.743652,4325.384766,4305.897461,4302.051270,4324.102539,4322.820313,4304.743652,4547.563965,4550.641113,4424.102539,4544.358887,4959.000000,1.000000,26.000000,,,,0.000000,4.000000,4.000000,4.000000,4.000000,4.000000,4.000000,4.000000,4.000000,4.000000,4.000000,4.000000,4.000000,4.000000,4.000000,100.000000,,,,,,,,,,,,,,,,,,,,,,,,,,,,,,,,,,,,,,,,,,,,,,,,,,,,,,,,,,,,,,,,,,,,,,,,,,,,,,,,,,,,,,,,,,,,,,,,,,,,,,,,,,,,,,,,,,,,,
1768374776.433084,1768374776.434103,113.000000,0.000000,4411.025879,4364.487305,4366.794922,4372.563965,4320.256348,4305.512695,4301.538574,4330.256348,4324.871582,4306.922852,4561.025879,4558.589844,4438.974121,4557.820313,5223.000000,1.000000,26.000000,,,,0.000000,4.000000,4.000000,4.000000,4.000000,4.000000,4.000000,4.000000,4.000000,4.000000,4.000000,4.000000,4.000000,4.000000,4.000000,100.000000,,,,,,,,,,,,,,,,,,,,,,,,,,,,,,,,,,,,,,,,,,,,,,,,,,,,,,,,,,,,,,,,,,,,,,,,,,,,,,,,,,,,,,,,,,,,,,,,,,,,,,,,,,,,,,,,,,,,,
1768374776.440892,1768374776.441811,114.000000,0.000000,4408.974121,4365.384766,4360.897461,4370.000000,4314.487305,4302.179688,4297.692383,4322.307617,4317.179688,4301.153809,4552.820313,4548.205078,4429.358887,4545.641113,4388.000000,1.000000,26.000000,,,,0.000000,4.000000,4.000000,4.000000,4.000000,4.000000,4.000000,4.000000,4.000000,4.000000,4.000000,4.000000,4.000000,4.000000,4.000000,100.000000,,,,,,,,,,,,,,,,,,,,,,,,,,,,,,,,,,,,,,,,,,,,,,,,,,,,,,,,,,,,,,,,,,,,,,,,,,,,,,,,,,,,,,,,,,,,,,,,,,,,,,,,,,,,,,,,,,,,,
1768374776.448701,1768374776.449620,115.000000,0.000000,4401.282227,4362.948730,4357.820313,4371.153809,4321.410156,4306.282227,4302.692383,4322.436035,4318.974121,4300.512695,4541.153809,4540.384766,4413.461426,4532.436035,4650.000000,1.000000,26.000000,,,,0.000000,4.000000,4.000000,4.000000,4.000000,4.000000,4.000000,4.000000,4.000000,4.000000,4.000000,4.000000,4.000000,4.000000,4.000000,100.000000,,,,,,,,,,,,,,,,,,,,,,,,,,,,,,,,,,,,,,,,,,,,,,,,,,,,,,,,,,,,,,,,,,,,,,,,,,,,,,,,,,,,,,,,,,,,,,,,,,,,,,,,,,,,,,,,,,,,,
1768374776.456509,1768374776.457628,116.000000,0.000000,4398.333496,4359.102539,4365.512695,4373.205078,4326.922852,4309.230957,4306.025879,4333.205078,4325.897461,4307.692383,4548.974121,4549.102539,4419.615234,4538.717773,4959.000000,1.000000,26.000000,,,,0.000000,4.000000,4.000000,4.000000,4.000000,4.000000,4.000000,4.000000,4.000000,4.000000,4.000000,4.000000,4.000000,4.000000,4.000000,100.000000,,,,,,,,,,,,,,,,,,,,,,,,,,,,,,,,,,,,,,,,,,,,,,,,,,,,,,,,,,,,,,,,,,,,,,,,,,,,,,,,,,,,,,,,,,,,,,,,,,,,,,,,,,,,,,,,,,,,,
1768374776.464318,1768374776.465437,117.000000,0.000000,4403.589844,4358.077148,4368.077148,4373.333496,4320.256348,4305.512695,4298.717773,4327.307617,4322.436035,4310.769043,4555.641113,4554.487305,4431.922852,4543.846191,5223.000000,1.000000,26.000000,,,,0.000000,4.000000,4.000000,4.000000,4.000000,4.000000,4.000000,4.000000,4.000000,4.000000,4.000000,4.000000,4.000000,4.000000,4.000000,100.000000,,,,,,,,,,,,,,,,,,,,,,,,,,,,,,,,,,,,,,,,,,,,,,,,,,,,,,,,,,,,,,,,,,,,,,,,,,,,,,,,,,,,,,,,,,,,,,,,,,,,,,,,,,,,,,,,,,,,,
1768374776.472126,1768374776.473145,118.000000,0.000000,4400.000000,4358.205078,4360.641113,4369.102539,4315.384766,4306.410156,4298.846191,4316.282227,4314.871582,4303.717773,4543.974121,4545.384766,4426.282227,4538.846191,4388.000000,1.000000,26.000000,,,,0.000000,4.000000,4.000000,4.000000,4.000000,4.000000,4.000000,4.000000,4.000000,4.000000,4.000000,4.000000,4.000000,4.000000,4.000000,100.000000,,,,,,,,,,,,,,,,,,,,,,,,,,,,,,,,,,,,,,,,,,,,,,,,,,,,,,,,,,,,,,,,,,,,,,,,,,,,,,,,,,,,,,,,,,,,,,,,,,,,,,,,,,,,,,,,,,,,,
1768374776.479935,1768374776.480954,119.000000,0.000000,4389.358887,4355.256348,4361.922852,4367.051270,4320.769043,4312.307617,4309.358887,4321.025879,4316.282227,4299.102539,4541.025879,4542.436035,4419.230957,4536.922852,4650.000000,1.000000,26.000000,,,,0.000000,4.000000,4.000000,4.000000,4.000000,4.000000,4.000000,4.000000,4.000000,4.000000,4.000000,4.000000,4.000000,4.000000,4.000000,100.000000,,,,,,,,,,,,,,,,,,,,,,,,,,,,,,,,,,,,,,,,,,,,,,,,,,,,,,,,,,,,,,,,,,,,,,,,,,,,,,,,,,,,,,,,,,,,,,,,,,,,,,,,,,,,,,,,,,,,,
1768374776.487743,1768374776.488562,120.000000,0.000000,4389.358887,4350.641113,4370.256348,4371.025879,4325.256348,4311.666504,4311.922852,4330.384766,4327.307617,4306.794922,4556.794922,4556.538574,4428.333496,4539.743652,4959.000000,1.000000,26.000000,,,,0.000000,4.000000,4.000000,4.000000,4.000000,4.000000,4.000000,4.000000,4.000000,4.000000,4.000000,4.000000,4.000000,4.000000,4.000000,100.000000,,,,,,,,,,,,,,,,,,,,,,,,,,,,,,,,,,,,,,,,,,,,,,,,,,,,,,,,,,,,,,,,,,,,,,,,,,,,,,,,,,,,,,,,,,,,,,,,,,,,,,,,,,,,,,,,,,,,,
1768374776.495551,1768374776.496371,121.000000,0.000000,4390.256348,4344.230957,4367.051270,4374.102539,4321.666504,4308.974121,4307.179688,4329.615234,4331.666504,4312.307617,4557.179688,4556.922852,4431.794922,4539.358887,5223.000000,1.000000,26.000000,,,,0.000000,4.000000,4.000000,4.000000,4.000000,4.000000,4.000000,4.000000,4.000000,4.000000,4.000000,4.000000,4.000000,4.000000,4.000000,100.000000,,,,,,,,,,,,,,,,,,,,,,,,,,,,,,,,,,,,,,,,,,,,,,,,,,,,,,,,,,,,,,,,,,,,,,,,,,,,,,,,,,,,,,,,,,,,,,,,,,,,,,,,,,,,,,,,,,,,,
1768374776.503360,1768374776.504079,122.000000,0.000000,4381.794922,4341.794922,4361.538574,4371.666504,4322.051270,4309.871582,4306.922852,4322.179688,4319.743652,4305.641113,4543.461426,4544.230957,4426.538574,4535.128418,4388.000000,1.000000,26.000000,,,,0.000000,4.000000,4.000000,4.000000,4.000000,4.000000,4.000000,4.000000,4.000000,4.000000,4.000000,4.000000,4.000000,4.000000,4.000000,100.000000,,,,,,,,,,,,,,,,,,,,,,,,,,,,,,,,,,,,,,,,,,,,,,,,,,,,,,,,,,,,,,,,,,,,,,,,,,,,,,,,,,,,,,,,,,,,,,,,,,,,,,,,,,,,,,,,,,,,,
1768374776.511168,1768374776.511888,123.000000,0.000000,4380.128418,4342.820313,4365.000000,4369.102539,4329.102539,4310.769043,4310.897461,4321.922852,4314.743652,4302.307617,4548.974121,4549.487305,4428.717773,4536.282227,4650.000000,1.000000,26.000000,,,,0.000000,4.000000,4.000000,4.000000,4.000000,4.000000,4.000000,4.000000,4.000000,4.000000,4.000000,4.000000,4.000000,4.000000,4.000000,100.000000,,,,,,,,,,,,,,,,,,,,,,,,,,,,,,,,,,,,,,,,,,,,,,,,,,,,,,,,,,,,,,,,,,,,,,,,,,,,,,,,,,,,,,,,,,,,,,,,,,,,,,,,,,,,,,,,,,,,,
1768374776.518977,1768374776.519896,124.000000,0.000000,4381.538574,4340.769043,4366.025879,4369.615234,4323.974121,4309.743652,4311.794922,4328.333496,4325.000000,4305.256348,4559.358887,4557.692383,4428.717773,4540.512695,4959.000000,1.000000,26.000000,,,,0.000000,4.000000,4.000000,4.000000,4.000000,4.000000,4.000000,4.000000,4.000000,4.000000,4.000000,4.000000,4.000000,4.000000,4.000000,100.000000,,,,,,,,,,,,,,,,,,,,,,,,,,,,,,,,,,,,,,,,,,,,,,,,,,,,,,,,,,,,,,,,,,,,,,,,,,,,,,,,,,,,,,,,,,,,,,,,,,,,,,,,,,,,,,,,,,,,,
1768374776.526785,1768374776.527704,125.000000,0.000000,4375.512695,4340.384766,4359.743652,4365.641113,4313.333496,4306.153809,4306.025879,4330.128418,4324.230957,4306.153809,4551.153809,4548.333496,4426.666504,4534.230957,5223.000000,1.000000,26.000000,,,,0.000000,4.000000,4.000000,4.000000,4.000000,4.000000,4.000000,4.000000,4.000000,4.000000,4.000000,4.000000,4.000000,4.000000,4.000000,100.000000,,,,,,,,,,,,,,,,,,,,,,,,,,,,,,,,,,,,,,,,,,,,,,,,,,,,,,,,,,,,,,,,,,,,,,,,,,,,,,,,,,,,,,,,,,,,,,,,,,,,,,,,,,,,,,,,,,,,,
1768374776.534594,1768374776.535613,126.000000,0.000000,4371.538574,4341.666504,4355.384766,4360.256348,4317.948730,4305.769043,4297.948730,4324.230957,4312.436035,4302.563965,4541.410156,4540.512695,4427.948730,4523.461426,4388.000000,1.000000,26.000000,,,,0.000000,4.000000,4.000000,4.000000,4.000000,4.000000,4.000000,4.000000,4.000000,4.000000,4.000000,4.000000,4.000000,4.000000,4.000000,100.000000,,,,,,,,,,,,,,,,,,,,,,,,,,,,,,,,,,,,,,,,,,,,,,,,0.818571,0.284219,0.123247,0.168301,0.102878,0.372626,0.436003,0.105553,0.140868,0.118620,0.418357,0.321266,0.248629,0.216626,0.094659,0.474811,0.270765,0.173269,0.118139,0.052086,0.194857,0.128646,0.074104,0.049569,0.048849,0.080710,0.215377,0.352268,0.106636,0.135300,0.057697,0.216820,0.300106,0.075329,0.098488,0.255861,0.217226,0.280265,0.067082,0.067130,0.381947,0.098287,0.159105,0.123396,0.105344,0.487591,0.190104,0.124396,0.112354,0.079928,0.819534,0.298316,0.249305,0.168033,0.159132,0.697354,0.271740,0.395744,0.295556,0.142526,0.855524,0.320093,0.228294,0.242656,0.228884,0.573554,0.358568,0.172618,0.080180,0.117925
1768374776.542402,1768374776.543421,127.000000,0.000000,4370.512695,4339.102539,4358.461426,4359.487305,4325.384766,4311.025879,4301.538574,4322.692383,4316.922852,4303.846191,4546.794922,4549.102539,4428.461426,4526.666504,26.000000,1.000000,26.000000,,,,0.000000,4.000000,4.000000,4.000000,4.000000,4.000000,4.000000,4.000000,4.000000,4.000000,4.000000,4.000000,4.000000,4.000000,4.000000,100.000000,,,,,,,,,,,,,,,,,,,,,,,,,,,,,,,,,,,,,,,,,,,,,,,,,,,,,,,,,,,,,,,,,,,,,,,,,,,,,,,,,,,,,,,,,,,,,,,,,,,,,,,,,,,,,,,,,,,,,
1768374776.550211,1768374776.551429,0.000000,0.000000,4376.794922,4339.487305,4364.871582,4364.230957,4319.487305,4309.615234,4311.666504,4328.974121,4329.743652,4309.871582,4558.077148,4560.384766,4431.794922,4539.871582,4058.000000,1.000000,26.000000,,,,0.000000,4.000000,4.000000,4.000000,4.000000,4.000000,4.000000,4.000000,4.000000,4.000000,4.000000,4.000000,4.000000,4.000000,4.000000,100.000000,,,,,,,,,,,,,,,,,,,,,,,,,,,,,,,,,,,,,,,,,,,,,,,,,,,,,,,,,,,,,,,,,,,,,,,,,,,,,,,,,,,,,,,,,,,,,,,,,,,,,,,,,,,,,,,,,,,,,
1768374776.558019,1768374776.559238,1.000000,0.000000,4384.102539,4343.205078,4365.512695,4367.948730,4316.410156,4303.589844,4310.641113,4333.589844,4327.563965,4307.692383,4555.384766,4560.897461,4431.538574,4536.666504,4001.000000,1.000000,26.000000,,,,0.000000,4.000000,4.000000,4.000000,4.000000,4.000000,4.000000,4.000000,4.000000,4.000000,4.000000,4.000000,4.000000,4.000000,4.000000,100.000000,,,,,,,,,,,,,,,,,,,,,,,,,,,,,,,,,,,,,,,,,,,,,,,,,,,,,,,,,,,,,,,,,,,,,,,,,,,,,,,,,,,,,,,,,,,,,,,,,,,,,,,,,,,,,,,,,,,,,
1768374776.565827,1768374776.566946,2.000000,0.000000,4373.589844,4336.666504,4358.717773,4364.743652,4325.384766,4310.128418,4309.230957,4338.333496,4323.589844,4306.282227,4548.205078,4556.025879,4424.230957,4523.205078,3892.000000,1.000000,26.000000,,,,0.000000,4.000000,4.000000,4.000000,4.000000,4.000000,4.000000,4.000000,4.000000,4.000000,4.000000,4.000000,4.000000,4.000000,4.000000,100.000000,,,,,,,,,,,,,,,,,,,,,,,,,,,,,,,,,,,,,,,,,,,,,,,,,,,,,,,,,,,,,,,,,,,,,,,,,,,,,,,,,,,,,,,,,,,,,,,,,,,,,,,,,,,,,,,,,,,,,
1768374776.573636,1768374776.574755,3.000000,0.000000,4360.000000,4327.948730,4355.897461,4358.974121,4328.717773,4316.794922,4313.589844,4338.461426,4329.615234,4312.179688,4553.333496,4554.102539,4430.512695,4523.589844,3899.000000,1.000000,26.000000,,,,0.000000,4.000000,4.000000,4.000000,4.000000,4.000000,4.000000,4.000000,4.000000,4.000000,4.000000,4.000000,4.000000,4.000000,4.000000,100.000000,,,,,,,,,,,,,,,,,,,,,,,,,,,,,,,,,,,,,,,,,,,,,,,,,,,,,,,,,,,,,,,,,,,,,,,,,,,,,,,,,,,,,,,,,,,,,,,,,,,,,,,,,,,,,,,,,,,,,
1768374776.581444,1768374776.582763,4.000000,0.000000,4367.051270,4328.589844,4358.333496,4357.436035,4323.205078,4309.871582,4311.282227,4331.922852,4328.717773,4309.615234,4556.153809,4551.025879,4438.589844,4527.051270,3837.000000,1.000000,26.000000,,,,0.000000,4.000000,4.000000,4.000000,4.000000,4.000000,4.000000,4.000000,4.000000,4.000000,4.000000,4.000000,4.000000,4.000000,4.000000,100.000000,,,,,,,,,,,,,,,,,,,,,,,,,,,,,,,,,,,,,,,,,,,,,,,,,,,,,,,,,,,,,,,,,,,,,,,,,,,,,,,,,,,,,,,,,,,,,,,,,,,,,,,,,,,,,,,,,,,,,
1768374776.589253,1768374776.590571,5.000000,0.000000,4376.538574,4330.769043,4360.641113,4360.897461,4320.897461,4305.256348,4306.794922,4329.358887,4319.615234,4298.333496,4547.051270,4547.820313,4428.846191,4526.025879,3749.000000,1.000000,26.000000,,,,0.000000,4.000000,4.000000,4.000000,4.000000,4.000000,4.000000,4.000000,4.000000,4.000000,4.000000,4.000000,4.000000,4.000000,4.000000,100.000000,,,,,,,,,,,,,,,,,,,,,,,,,,,,,,,,,,,,,,,,,,,,,,,,,,,,,,,,,,,,,,,,,,,,,,,,,,,,,,,,,,,,,,,,,,,,,,,,,,,,,,,,,,,,,,,,,,,,,
1768374776.597061,1768374776.598480,6.000000,0.000000,4368.461426,4331.538574,4359.358887,4360.769043,4324.615234,4308.974121,4304.615234,4328.974121,4314.871582,4296.538574,4540.641113,4546.538574,4420.000000,4525.769043,3774.000000,1.000000,26.000000,,,,0.000000,4.000000,4.000000,4.000000,4.000000,4.000000,4.000000,4.000000,4.000000,4.000000,4.000000,4.000000,4.000000,4.000000,4.000000,100.000000,,,,,,,,,,,,,,,,,,,,,,,,,,,,,,,,,,,,,,,,,,,,,,,,,,,,,,,,,,,,,,,,,,,,,,,,,,,,,,,,,,,,,,,,,,,,,,,,,,,,,,,,,,,,,,,,,,,,,
1768374776.604870,1768374776.606288,7.000000,0.000000,4350.512695,4323.589844,4350.128418,4349.615234,4324.743652,4311.794922,4305.256348,4326.410156,4315.769043,4300.769043,4537.179688,4537.307617,4415.000000,4513.333496,3381.000000,1.000000,26.000000,,,,0.000000,4.000000,4.000000,4.000000,4.000000,4.000000,4.000000,4.000000,4.000000,4.000000,4.000000,4.000000,4.000000,4.000000,4.000000,100.000000,,,,,,,,,,,,,,,,,,,,,,,,,,,,,,,,,,,,,,,,,,,,,,,,,,,,,,,,,,,,,,,,,,,,,,,,,,,,,,,,,,,,,,,,,,,,,,,,,,,,,,,,,,,,,,,,,,,,,
1768374776.612678,1768374776.613997,8.000000,0.000000,4343.461426,4316.153809,4345.769043,4343.846191,4319.871582,4312.051270,4309.871582,4330.000000,4322.948730,4301.025879,4534.358887,4535.897461,4407.051270,4500.256348,3969.000000,1.000000,26.000000,,,,0.000000,4.000000,4.000000,4.000000,4.000000,4.000000,4.000000,4.000000,4.000000,4.000000,4.000000,4.000000,4.000000,4.000000,4.000000,100.000000,,,,,,,,,,,,,,,,,,,,,,,,,,,,,,,,,,,,,,,,,,,,,,,,,,,,,,,,,,,,,,,,,,,,,,,,,,,,,,,,,,,,,,,,,,,,,,,,,,,,,,,,,,,,,,,,,,,,,
1768374776.620487,1768374776.621805,9.000000,0.000000,4361.666504,4327.563965,4363.461426,4357.948730,4318.974121,4312.051270,4313.717773,4339.615234,4334.358887,4309.743652,4548.589844,4559.358887,4415.512695,4519.615234,3972.000000,1.000000,26.000000,,,,0.000000,4.000000,4.000000,4.000000,4.000000,4.000000,4.000000,4.000000,4.000000,4.000000,4.000000,4.000000,4.000000,4.000000,4.000000,100.000000,,,,,,,,,,,,,,,,,,,,,,,,,,,,,,,,,,,,,,,,,,,,,,,,,,,,,,,,,,,,,,,,,,,,,,,,,,,,,,,,,,,,,,,,,,,,,,,,,,,,,,,,,,,,,,,,,,,,,
1768374776.628295,1768374776.629514,10.000000,0.000000,4378.205078,4336.025879,4378.333496,4367.051270,4320.897461,4311.666504,4313.461426,4340.512695,4338.077148,4319.230957,4567.563965,4573.205078,4433.589844,4540.897461,4388.000000,1.000000,26.000000,,,,0.000000,4.000000,4.000000,4.000000,4.000000,4.000000,4.000000,4.000000,4.000000,4.000000,4.000000,4.000000,4.000000,4.000000,4.000000,100.000000,,,,,,,,,,,,,,,,,,,,,,,,,,,,,,,,,,,,,,,,,,,,,,,,,,,,,,,,,,,,,,,,,,,,,,,,,,,,,,,,,,,,,,,,,,,,,,,,,,,,,,,,,,,,,,,,,,,,,
1768374776.636104,1768374776.637322,11.000000,0.000000,4367.948730,4326.666504,4364.871582,4358.333496,4322.179688,4310.769043,4311.025879,4332.307617,4334.358887,4314.615234,4562.051270,4557.948730,4434.871582,4530.384766,4650.000000,1.000000,26.000000,,,,0.000000,4.000000,4.000000,4.000000,4.000000,4.000000,4.000000,4.000000,4.000000,4.000000,4.000000,4.000000,4.000000,4.000000,4.000000,100.000000,,,,,,,,,,,,,,,,,,,,,,,,,,,,,,,,,,,,,,,,,,,,,,,,,,,,,,,,,,,,,,,,,,,,,,,,,,,,,,,,,,,,,,,,,,,,,,,,,,,,,,,,,,,,,,,,,,,,,
1768374776.643912,1768374776.645330,12.000000,0.000000,4356.538574,4322.307617,4356.538574,4354.743652,4321.666504,4311.666504,4310.897461,4326.025879,4330.641113,4310.128418,4548.717773,4552.436035,4425.512695,4520.769043,4961.000000,1.000000,26.000000,,,,0.000000,4.000000,4.000000,4.000000,4.000000,4.000000,4.000000,4.000000,4.000000,4.000000,4.000000,4.000000,4.000000,4.000000,4.000000,100.000000,,,,,,,,,,,,,,,,,,,,,,,,,,,,,,,,,,,,,,,,,,,,,,,,,,,,,,,,,,,,,,,,,,,,,,,,,,,,,,,,,,,,,,,,,,,,,,,,,,,,,,,,,,,,,,,,,,,,,
1768374776.651720,1768374776.653139,13.000000,0.000000,4358.461426,4323.077148,4363.205078,4356.153809,4317.820313,4312.820313,4312.563965,4330.256348,4330.256348,4309.871582,4551.922852,4565.769043,4421.282227,4526.153809,5227.000000,1.000000,26.000000,,,,0.000000,4.000000,4.000000,4.000000,4.000000,4.000000,4.000000,4.000000,4.000000,4.000000,4.000000,4.000000,4.000000,4.000000,4.000000,100.000000,,,,,,,,,,,,,,,,,,,,,,,,,,,,,,,,,,,,,,,,,,,,,,,,,,,,,,,,,,,,,,,,,,,,,,,,,,,,,,,,,,,,,,,,,,,,,,,,,,,,,,,,,,,,,,,,,,,,,
1768374776.659529,1768374776.660847,14.000000,0.000000,4358.974121,4321.538574,4360.512695,4352.307617,4314.230957,4310.512695,4312.820313,4339.230957,4334.102539,4306.282227,4557.948730,4570.256348,4425.384766,4527.307617,4388.000000,1.000000,26.000000,,,,0.000000,4.000000,4.000000,4.000000,4.000000,4.000000,4.000000,4.000000,4.000000,4.000000,4.000000,4.000000,4.000000,4.000000,4.000000,100.000000,1.000000,75.000000,4.000000,4.000000,4.000000,4.000000,1.000000,4.000000,4.000000,4.000000,4.000000,4.000000,4.000000,4.000000,4.000000,4.000000,,,,,,,,,,,,,,,,,,,,,,,,,,,,,,,,0.830440,0.304962,0.167217,0.175807,0.104923,0.256904,0.394421,0.107340,0.170709,0.111968,0.342790,0.319704,0.225531,0.201303,0.103015,0.387255,0.228773,0.196913,0.147222,0.050784,0.212887,0.119411,0.072276,0.060610,0.050382,0.075814,0.214856,0.364321,0.115691,0.123252,0.061870,0.265877,0.311350,0.092747,0.096641,0.251586,0.233851,0.266634,0.070144,0.055385,0.293604,0.103035,0.128241,0.132543,0.094668,0.439191,0.166335,0.123306,0.106771,0.076044,0.701573,0.300605,0.212206,0.143558,0.145766,0.596011,0.253737,0.264064,0.267648,0.145812,0.696416,0.306305,0.236132,0.234862,0.210828,0.637261,0.376042,0.186444,0.077385,0.104894
1768374776.667337,1768374776.668656,15.000000,0.000000,4358.717773,4325.512695,4356.538574,4352.563965,4316.025879,4308.846191,4311.025879,4341.282227,4338.461426,4309.615234,4555.897461,4563.333496,4428.461426,4522.948730,4650.000000,1.000000,26.000000,,,,0.000000,4.000000,4.000000,4.000000,4.000000,4.000000,4.000000,4.000000,4.000000,4.000000,4.000000,4.000000,4.000000,4.000000,4.000000,100.000000,,,,,,,,,,,,,,,,,,,,,,,,,,,,,,,,,,,,,,,,,,,,,,,,,,,,,,,,,,,,,,,,,,,,,,,,,,,,,,,,,,,,,,,,,,,,,,,,,,,,,,,,,,,,,,,,,,,,,
1768374776.675146,1768374776.676265,16.000000,0.000000,4363.205078,4328.205078,4362.051270,4357.307617,4320.384766,4309.615234,4309.102539,4337.179688,4334.743652,4316.410156,4554.230957,4559.102539,4423.589844,4521.282227,0.000000,1.000000,26.000000,,,,0.000000,4.000000,4.000000,4.000000,4.000000,4.000000,4.000000,4.000000,4.000000,4.000000,4.000000,4.000000,4.000000,4.000000,4.000000,100.000000,,,,,,,,,,,,,,,,,,,,,,,,,,,,,,,,,,,,,,,,,,,,,,,,,,,,,,,,,,,,,,,,,,,,,,,,,,,,,,,,,,,,,,,,,,,,,,,,,,,,,,,,,,,,,,,,,,,,,
1768374776.682954,1768374776.684073,17.000000,0.000000,4365.256348,4327.563965,4364.871582,4356.794922,4320.512695,4310.128418,4307.948730,4333.589844,4328.077148,4311.025879,4553.974121,4559.615234,4424.358887,4521.025879,0.000000,1.000000,26.000000,,,,0.000000,4.000000,4.000000,4.000000,4.000000,4.000000,4.000000,4.000000,4.000000,4.000000,4.000000,4.000000,4.000000,4.000000,4.000000,100.000000,,,,,,,,,,,,,,,,,,,,,,,,,,,,,,,,,,,,,,,,,,,,,,,,,,,,,,,,,,,,,,,,,,,,,,,,,,,,,,,,,,,,,,,,,,,,,,,,,,,,,,,,,,,,,,,,,,,,,
1768374776.690763,1768374776.691782,18.000000,0.000000,4363.205078,4328.974121,4361.538574,4355.128418,4317.563965,4309.487305,4308.846191,4329.230957,4324.230957,4304.487305,4553.974121,4560.897461,4432.307617,4526.282227,0.000000,1.000000,26.000000,,,,0.000000,4.000000,4.000000,4.000000,4.000000,4.000000,4.000000,4.000000,4.000000,4.000000,4.000000,4.000000,4.000000,4.000000,4.000000,100.000000,,,,,,,,,,,,,,,,,,,,,,,,,,,,,,,,,,,,,,,,,,,,,,,,,,,,,,,,,,,,,,,,,,,,,,,,,,,,,,,,,,,,,,,,,,,,,,,,,,,,,,,,,,,,,,,,,,,,,
1768374776.698571,1768374776.699590,19.000000,0.000000,4358.846191,4327.051270,4360.256348,4352.179688,4314.358887,4308.846191,4311.282227,4325.897461,4323.589844,4308.333496,4553.077148,4554.743652,4431.794922,4527.692383,0.000000,1.000000,26.000000,,,,0.000000,4.000000,4.000000,4.000000,4.000000,4.000000,4.000000,4.000000,4.000000,4.000000,4.000000,4.000000,4.000000,4.000000,4.000000,100.000000,,,,,,,,,,,,,,,,,,,,,,,,,,,,,,,,,,,,,,,,,,,,,,,,,,,,,,,,,,,,,,,,,,,,,,,,,,,,,,,,,,,,,,,,,,,,,,,,,,,,,,,,,,,,,,,,,,,,,
1768374776.706380,1768374776.707199,20.000000,0.000000,4351.794922,4321.666504,4356.794922,4348.589844,4312.692383,4308.974121,4310.000000,4329.102539,4326.666504,4308.846191,4549.358887,4546.666504,4425.641113,4516.794922,0.000000,1.000000,26.000000,,,,0.000000,4.000000,4.000000,4.000000,4.000000,4.000000,4.000000,4.000000,4.000000,4.000000,4.000000,4.000000,4.000000,4.000000,4.000000,100.000000,,,,,,,,,,,,,,,,,,,,,,,,,,,,,,,,,,,,,,,,,,,,,,,,,,,,,,,,,,,,,,,,,,,,,,,,,,,,,,,,,,,,,,,,,,,,,,,,,,,,,,,,,,,,,,,,,,,,,
1768374776.714188,1768374776.715007,21.000000,0.000000,4352.179688,4323.974121,4357.051270,4352.563965,4311.025879,4309.230957,4311.410156,4332.820313,4329.102539,4304.743652,4548.333496,4552.692383,4427.692383,4515.641113,0.000000,1.000000,26.000000,,,,0.000000,4.000000,4.000000,4.000000,4.000000,4.000000,4.000000,4.000000,4.000000,4.000000,4.000000,4.000000,4.000000,4.000000,4.000000,100.000000,,,,,,,,,,,,,,,,,,,,,,,,,,,,,,,,,,,,,,,,,,,,,,,,,,,,,,,,,,,,,,,,,,,,,,,,,,,,,,,,,,,,,,,,,,,,,,,,,,,,,,,,,,,,,,,,,,,,,
1768374776.721996,1768374776.722915,22.000000,0.000000,4358.461426,4327.948730,4363.077148,4357.051270,4312.436035,4310.897461,4318.589844,4336.282227,4330.128418,4306.153809,4550.256348,4561.794922,4426.025879,4522.307617,0.000000,1.000000,26.000000,,,,0.000000,4.000000,4.000000,4.000000,4.000000,4.000000,4.000000,4.000000,4.000000,4.000000,4.000000,4.000000,4.000000,4.000000,4.000000,100.000000,,,,,,,,,,,,,,,,,,,,,,,,,,,,,,,,,,,,,,,,,,,,,,,,,,,,,,,,,,,,,,,,,,,,,,,,,,,,,,,,,,,,,,,,,,,,,,,,,,,,,,,,,,,,,,,,,,,,,
1768374776.729805,1768374776.730724,23.000000,0.000000,4358.717773,4325.512695,4366.025879,4355.512695,4318.333496,4312.436035,4319.615234,4341.282227,4330.000000,4308.846191,4551.153809,4561.282227,4420.256348,4520.384766,0.000000,1.000000,26.000000,,,,0.000000,4.000000,4.000000,4.000000,4.000000,4.000000,4.000000,4.000000,4.000000,4.000000,4.000000,4.000000,4.000000,4.000000,4.000000,100.000000,,,,,,,,,,,,,,,,,,,,,,,,,,,,,,,,,,,,,,,,,,,,,,,,,,,,,,,,,,,,,,,,,,,,,,,,,,,,,,,,,,,,,,,,,,,,,,,,,,,,,,,,,,,,,,,,,,,,,
1768374776.737613,1768374776.738732,24.000000,0.000000,4361.538574,4328.846191,4366.025879,4357.820313,4322.948730,4311.538574,4312.692383,4340.128418,4331.410156,4308.846191,4552.948730,4557.692383,4426.025879,4522.051270,0.000000,1.000000,26.000000,,,,0.000000,4.000000,4.000000,4.000000,4.000000,4.000000,4.000000,4.000000,4.000000,4.000000,4.000000,4.000000,4.000000,4.000000,4.000000,100.000000,,,,,,,,,,,,,,,,,,,,,,,,,,,,,,,,,,,,,,,,,,,,,,,,,,,,,,,,,,,,,,,,,,,,,,,,,,,,,,,,,,,,,,,,,,,,,,,,,,,,,,,,,,,,,,,,,,,,,
1768374776.745422,1768374776.746541,25.000000,0.000000,4365.641113,4333.974121,4366.025879,4360.384766,4322.051270,4308.717773,4307.563965,4335.000000,4334.230957,4307.436035,4555.769043,4555.512695,4433.974121,4525.897461,0.000000,1.000000,26.000000,,,,0.000000,4.000000,4.000000,4.000000,4.000000,4.000000,4.000000,4.000000,4.000000,4.000000,4.000000,4.000000,4.000000,4.000000,4.000000,100.000000,,,,,,,,,,,,,,,,,,,,,,,,,,,,,,,,,,,,,,,,,,,,,,,,,,,,,,,,,,,,,,,,,,,,,,,,,,,,,,,,,,,,,,,,,,,,,,,,,,,,,,,,,,,,,,,,,,,,,
1768374776.753230,1768374776.754449,26.000000,0.000000,4358.589844,4331.025879,4365.641113,4354.230957,4315.384766,4310.641113,4309.743652,4334.230957,4332.051270,4308.589844,4551.410156,4552.179688,4428.974121,4517.179688,0.000000,1.000000,26.000000,,,,0.000000,4.000000,4.000000,4.000000,4.000000,4.000000,4.000000,4.000000,4.000000,4.000000,4.000000,4.000000,4.000000,4.000000,4.000000,100.000000,,,,,,,,,,,,,,,,,,,,,,,,,,,,,,,,,,,,,,,,,,,,,,,,,,,,,,,,,,,,,,,,,,,,,,,,,,,,,,,,,,,,,,,,,,,,,,,,,,,,,,,,,,,,,,,,,,,,,
1768374776.761039,1768374776.762257,27.000000,0.000000,4350.512695,4328.333496,4360.769043,4348.717773,4314.102539,4316.666504,4318.333496,4335.384766,4330.769043,4310.512695,4543.333496,4548.333496,4424.102539,4509.358887,0.000000,1.000000,26.000000,,,,0.000000,4.000000,4.000000,4.000000,4.000000,4.000000,4.000000,4.000000,4.000000,4.000000,4.000000,4.000000,4.000000,4.000000,4.000000,100.000000,,,,,,,,,,,,,,,,,,,,,,,,,,,,,,,,,,,,,,,,,,,,,,,,,,,,,,,,,,,,,,,,,,,,,,,,,,,,,,,,,,,,,,,,,,,,,,,,,,,,,,,,,,,,,,,,,,,,,
1768374776.768847,1768374776.769866,28.000000,0.000000,4349.871582,4331.538574,4355.641113,4347.948730,4322.692383,4315.512695,4320.256348,4333.461426,4331.538574,4304.487305,4539.871582,4546.922852,4426.794922,4511.025879,0.000000,1.000000,26.000000,,,,0.000000,4.000000,4.000000,4.000000,4.000000,4.000000,4.000000,4.000000,4.000000,4.000000,4.000000,4.000000,4.000000,4.000000,4.000000,100.000000,,,,,,,,,,,,,,,,,,,,,,,,,,,,,,,,,,,,,,,,,,,,,,,,,,,,,,,,,,,,,,,,,,,,,,,,,,,,,,,,,,,,,,,,,,,,,,,,,,,,,,,,,,,,,,,,,,,,,
1768374776.776656,1768374776.777674,29.000000,0.000000,4350.128418,4334.615234,4358.717773,4347.948730,4329.358887,4311.153809,4311.153809,4328.461426,4327.563965,4302.051270,4542.948730,4547.436035,4428.333496,4507.692383,0.000000,1.000000,26.000000,,,,0.000000,4.000000,4.000000,4.000000,4.000000,4.000000,4.000000,4.000000,4.000000,4.000000,4.000000,4.000000,4.000000,4.000000,4.000000,100.000000,,,,,,,,,,,,,,,,,,,,,,,,,,,,,,,,,,,,,,,,,,,,,,,,,,,,,,,,,,,,,,,,,,,,,,,,,,,,,,,,,,,,,,,,,,,,,,,,,,,,,,,,,,,,,,,,,,,,,
1768374776.784464,1768374776.785583,30.000000,0.000000,4347.307617,4333.333496,4362.179688,4350.641113,4323.717773,4309.358887,4305.256348,4324.743652,4323.205078,4306.922852,4542.948730,4550.897461,4426.538574,4506.922852,0.000000,1.000000,26.000000,,,,0.000000,4.000000,4.000000,4.000000,4.000000,4.000000,4.000000,4.000000,4.000000,4.000000,4.000000,4.000000,4.000000,4.000000,4.000000,100.000000,,,,,,,,,,,,,,,,,,,,,,,,,,,,,,,,,,,,,,,,,,,,,,,,1.060373,0.384355,0.214952,0.183022,0.107944,0.230782,0.353392,0.112513,0.191091,0.102700,0.303562,0.321127,0.210653,0.183953,0.110938,0.326734,0.189267,0.213088,0.172784,0.050791,0.211442,0.102416,0.071778,0.074730,0.057093,0.075098,0.200572,0.351874,0.128676,0.114413,0.078205,0.297309,0.315856,0.126183,0.101539,0.227504,0.230736,0.249724,0.084137,0.050415,0.222442,0.109292,0.110033,0.155017,0.090303,0.362746,0.143262,0.130256,0.104268,0.075836,0.549135,0.311266,0.187550,0.132012,0.138665,0.475617,0.244655,0.185730,0.246019,0.157976,0.591641,0.298923,0.242781,0.227795,0.190833,1.014023,0.453958,0.209008,0.086539,0.097554
1768374776.792272,1768374776.793391,31.000000,0.000000,4347.179688,4333.205078,4359.871582,4354.230957,4317.948730,4313.717773,4311.410156,4329.615234,4330.256348,4303.717773,4540.512695,4556.666504,4425.256348,4511.282227,0.000000,1.000000,26.000000,,,,0.000000,4.000000,4.000000,4.000000,4.000000,4.000000,4.000000,4.000000,4.000000,4.000000,4.000000,4.000000,4.000000,4.000000,4.000000,100.000000,,,,,,,,,,,,,,,,,,,,,,,,,,,,,,,,,,,,,,,,,,,,,,,,,,,,,,,,,,,,,,,,,,,,,,,,,,,,,,,,,,,,,,,,,,,,,,,,,,,,,,,,,,,,,,,,,,,,,
1768374776.800081,1768374776.801400,32.000000,0.000000,4345.641113,4334.358887,4359.743652,4353.077148,4320.128418,4318.333496,4316.153809,4336.410156,4338.846191,4304.615234,4548.717773,4556.922852,4432.436035,4504.871582,0.000000,1.000000,26.000000,,,,0.000000,4.000000,4.000000,4.000000,4.000000,4.000000,4.000000,4.000000,4.000000,4.000000,4.000000,4.000000,4.000000,4.000000,4.000000,100.000000,,,,,,,,,,,,,,,,,,,,,,,,,,,,,,,,,,,,,,,,,,,,,,,,,,,,,,,,,,,,,,,,,,,,,,,,,,,,,,,,,,,,,,,,,,,,,,,,,,,,,,,,,,,,,,,,,,,,,
1768374776.807889,1768374776.809208,33.000000,0.000000,4333.077148,4332.820313,4358.205078,4347.820313,4320.512695,4317.307617,4314.615234,4334.871582,4336.410156,4317.051270,4555.641113,4551.153809,4437.820313,4490.128418,0.000000,1.000000,26.000000,,,,0.000000,4.000000,4.000000,4.000000,4.000000,4.000000,4.000000,4.000000,4.000000,4.000000,4.000000,4.000000,4.000000,4.000000,4.000000,100.000000,,,,,,,,,,,,,,,,,,,,,,,,,,,,,,,,,,,,,,,,,,,,,,,,,,,,,,,,,,,,,,,,,,,,,,,,,,,,,,,,,,,,,,,,,,,,,,,,,,,,,,,,,,,,,,,,,,,,,
1768374776.815698,1768374776.816917,34.000000,0.000000,4317.692383,4326.794922,4352.179688,4344.743652,4321.666504,4317.820313,4317.820313,4331.538574,4336.153809,4316.153809,4551.666504,4549.871582,4428.589844,4482.436035,0.000000,1.000000,26.000000,,,,0.000000,4.000000,4.000000,4.000000,4.000000,4.000000,4.000000,4.000000,4.000000,4.000000,4.000000,4.000000,4.000000,4.000000,4.000000,100.000000,,,,,,,,,,,,,,,,,,,,,,,,,,,,,,,,,,,,,,,,,,,,,,,,,,,,,,,,,,,,,,,,,,,,,,,,,,,,,,,,,,,,,,,,,,,,,,,,,,,,,,,,,,,,,,,,,,,,,
1768374776.823506,1768374776.824725,35.000000,0.000000,4309.358887,4321.282227,4349.487305,4342.820313,4322.563965,4317.948730,4319.615234,4332.820313,4338.461426,4306.538574,4549.487305,4547.948730,4424.487305,4476.025879,0.000000,1.000000,26.000000,,,,0.000000,4.000000,4.000000,4.000000,4.000000,4.000000,4.000000,4.000000,4.000000,4.000000,4.000000,4.000000,4.000000,4.000000,4.000000,100.000000,,,,,,,,,,,,,,,,,,,,,,,,,,,,,,,,,,,,,,,,,,,,,,,,,,,,,,,,,,,,,,,,,,,,,,,,,,,,,,,,,,,,,,,,,,,,,,,,,,,,,,,,,,,,,,,,,,,,,
1768374776.831315,1768374776.832334,36.000000,0.000000,4297.820313,4316.282227,4344.358887,4337.051270,4316.666504,4315.641113,4312.436035,4335.769043,4334.358887,4311.282227,4546.410156,4536.025879,4429.871582,4460.128418,0.000000,1.000000,26.000000,,,,0.000000,4.000000,4.000000,4.000000,4.000000,4.000000,4.000000,4.000000,4.000000,4.000000,4.000000,4.000000,4.000000,4.000000,4.000000,100.000000,,,,,,,,,,,,,,,,,,,,,,,,,,,,,,,,,,,,,,,,,,,,,,,,,,,,,,,,,,,,,,,,,,,,,,,,,,,,,,,,,,,,,,,,,,,,,,,,,,,,,,,,,,,,,,,,,,,,,
1768374776.839123,1768374776.840142,37.000000,0.000000,4282.436035,4308.846191,4334.871582,4329.871582,4315.897461,4317.436035,4309.102539,4333.461426,4330.641113,4312.692383,4541.410156,4527.436035,4428.589844,4447.820313,0.000000,1.000000,26.000000,,,,0.000000,4.000000,4.000000,4.000000,4.000000,4.000000,4.000000,4.000000,4.000000,4.000000,4.000000,4.000000,4.000000,4.000000,4.000000,100.000000,,,,,,,,,,,,,,,,,,,,,,,,,,,,,,,,,,,,,,,,,,,,,,,,,,,,,,,,,,,,,,,,,,,,,,,,,,,,,,,,,,,,,,,,,,,,,,,,,,,,,,,,,,,,,,,,,,,,,
1768374776.846932,1768374776.847851,38.000000,0.000000,4275.256348,4307.563965,4332.307617,4328.333496,4325.128418,4318.205078,4311.410156,4330.128418,4329.358887,4303.589844,4543.461426,4531.153809,4426.538574,4448.717773,0.000000,1.000000,26.000000,,,,0.000000,4.000000,4.000000,4.000000,4.000000,4.000000,4.000000,4.000000,4.000000,4.000000,4.000000,4.000000,4.000000,4.000000,4.000000,100.000000,,,,,,,,,,,,,,,,,,,,,,,,,,,,,,,,,,,,,,,,,,,,,,,,,,,,,,,,,,,,,,,,,,,,,,,,,,,,,,,,,,,,,,,,,,,,,,,,,,,,,,,,,,,,,,,,,,,,,
1768374776.854740,1768374776.855659,39.000000,0.000000,4270.128418,4310.769043,4336.922852,4332.051270,4328.974121,4316.922852,4312.948730,4330.769043,4328.846191,4307.563965,4544.743652,4528.589844,4431.410156,4442.563965,0.000000,1.000000,26.000000,,,,0.000000,4.000000,4.000000,4.000000,4.000000,4.000000,4.000000,4.000000,4.000000,4.000000,4.000000,4.000000,4.000000,4.000000,4.000000,100.000000,,,,,,,,,,,,,,,,,,,,,,,,,,,,,,,,,,,,,,,,,,,,,,,,,,,,,,,,,,,,,,,,,,,,,,,,,,,,,,,,,,,,,,,,,,,,,,,,,,,,,,,,,,,,,,,,,,,,,
1768374776.862548,1768374776.863667,40.000000,0.000000,4261.025879,4305.256348,4336.794922,4331.794922,4321.538574,4316.025879,4316.282227,4327.692383,4330.769043,4315.128418,4537.948730,4519.487305,4426.410156,4423.717773,0.000000,1.000000,26.000000,,,,0.000000,4.000000,4.000000,4.000000,4.000000,4.000000,4.000000,4.000000,4.000000,4.000000,4.000000,4.000000,4.000000,4.000000,4.000000,100.000000,,,,,,,,,,,,,,,,,,,,,,,,,,,,,,,,,,,,,,,,,,,,,,,,,,,,,,,,,,,,,,,,,,,,,,,,,,,,,,,,,,,,,,,,,,,,,,,,,,,,,,,,,,,,,,,,,,,,,
1768374776.870357,1768374776.871476,41.000000,0.000000,4254.358887,4299.487305,4333.589844,4329.743652,4318.205078,4316.794922,4321.666504,4325.897461,4334.102539,4313.717773,4536.153809,4520.512695,4413.333496,4414.358887,0.000000,1.000000,26.000000,,,,0.000000,4.000000,4.000000,4.000000,4.000000,4.000000,4.000000,4.000000,4.000000,4.000000,4.000000,4.000000,4.000000,4.000000,4.000000,100.000000,,,,,,,,,,,,,,,,,,,,,,,,,,,,,,,,,,,,,,,,,,,,,,,,,,,,,,,,,,,,,,,,,,,,,,,,,,,,,,,,,,,,,,,,,,,,,,,,,,,,,,,,,,,,,,,,,,,,,
1768374776.878165,1768374776.879184,42.000000,0.000000,4250.769043,4302.563965,4329.615234,4331.025879,4323.589844,4318.077148,4318.846191,4333.461426,4335.384766,4315.000000,4539.358887,4524.743652,4412.179688,4415.128418,0.000000,1.000000,26.000000,,,,0.000000,4.000000,4.000000,4.000000,4.000000,4.000000,4.000000,4.000000,4.000000,4.000000,4.000000,4.000000,4.000000,4.000000,4.000000,100.000000,,,,,,,,,,,,,,,,,,,,,,,,,,,,,,,,,,,,,,,,,,,,,,,,,,,,,,,,,,,,,,,,,,,,,,,,,,,,,,,,,,,,,,,,,,,,,,,,,,,,,,,,,,,,,,,,,,,,,
1768374776.885974,1768374776.886993,43.000000,0.000000,4247.692383,4301.922852,4324.487305,4329.102539,4323.461426,4316.153809,4312.436035,4343.205078,4341.538574,4322.563965,4540.641113,4523.205078,4417.179688,4410.769043,0.000000,1.000000,26.000000,,,,0.000000,4.000000,4.000000,4.000000,4.000000,4.000000,4.000000,4.000000,4.000000,4.000000,4.000000,4.000000,4.000000,4.000000,4.000000,100.000000,,,,,,,,,,,,,,,,,,,,,,,,,,,,,,,,,,,,,,,,,,,,,,,,,,,,,,,,,,,,,,,,,,,,,,,,,,,,,,,,,,,,,,,,,,,,,,,,,,,,,,,,,,,,,,,,,,,,,
1768374776.893782,1768374776.894601,44.000000,0.000000,4248.717773,4295.000000,4327.948730,4327.948730,4317.563965,4312.051270,4313.333496,4347.563965,4350.384766,4327.307617,4541.794922,4523.461426,4417.179688,4408.717773,0.000000,1.000000,26.000000,,,,0.000000,4.000000,4.000000,4.000000,4.000000,4.000000,4.000000,4.000000,4.000000,4.000000,4.000000,4.000000,4.000000,4.000000,4.000000,100.000000,,,,,,,,,,,,,,,,,,,,,,,,,,,,,,,,,,,,,,,,,,,,,,,,,,,,,,,,,,,,,,,,,,,,,,,,,,,,,,,,,,,,,,,,,,,,,,,,,,,,,,,,,,,,,,,,,,,,,
1768374776.901591,1768374776.902410,45.000000,0.000000,4256.666504,4295.897461,4336.666504,4332.948730,4318.717773,4316.922852,4318.333496,4349.102539,4350.384766,4325.512695,4541.025879,4529.487305,4420.384766,4414.230957,0.000000,1.000000,26.000000,,,,0.000000,4.000000,4.000000,4.000000,4.000000,4.000000,4.000000,4.000000,4.000000,4.000000,4.000000,4.000000,4.000000,4.000000,4.000000,100.000000,,,,,,,,,,,,,,,,,,,,,,,,,,,,,,,,,,,,,,,,,,,,,,,,,,,,,,,,,,,,,,,,,,,,,,,,,,,,,,,,,,,,,,,,,,,,,,,,,,,,,,,,,,,,,,,,,,,,,
1768374776.909399,1768374776.910318,46.000000,0.000000,4262.051270,4299.743652,4340.641113,4334.102539,4322.436035,4325.512695,4322.436035,4347.563965,4344.358887,4320.000000,4540.512695,4533.974121,4425.769043,4416.538574,0.000000,1.000000,26.000000,,,,0.000000,4.000000,4.000000,4.000000,4.000000,4.000000,4.000000,4.000000,4.000000,4.000000,4.000000,4.000000,4.000000,4.000000,4.000000,100.000000,,,,,,,,,,,,,,,,,,,,,,,,,,,,,,,,,,,,,,,,,,,,,,,,1.490023,0.493386,0.253497,0.193591,0.116004,0.282294,0.324198,0.117024,0.197103,0.093960,0.305484,0.315116,0.194411,0.171986,0.119392,0.311343,0.154376,0.215695,0.189620,0.052640,0.192831,0.083811,0.073288,0.087976,0.068216,0.078696,0.178833,0.315377,0.141897,0.111688,0.094559,0.304451,0.308049,0.167869,0.112656,0.188860,0.213211,0.230091,0.111909,0.055360,0.178346,0.120219,0.106954,0.188941,0.096823,0.274838,0.127161,0.143104,0.106233,0.081132,0.402700,0.322024,0.173968,0.136332,0.147521,0.362885,0.245641,0.152274,0.235733,0.186198,0.589715,0.289066,0.253282,0.223006,0.180715,1.688713,0.571028,0.234504,0.108616,0.105676
1768374776.917208,1768374776.918127,47.000000,0.000000,4254.487305,4299.743652,4341.282227,4332.436035,4321.410156,4328.333496,4330.000000,4344.743652,4341.410156,4315.769043,4540.641113,4535.128418,4423.077148,4411.922852,0.000000,1.000000,26.000000,,,,0.000000,4.000000,4.000000,4.000000,4.000000,4.000000,4.000000,4.000000,4.000000,4.000000,4.000000,4.000000,4.000000,4.000000,4.000000,100.000000,,,,,,,,,,,,,,,,,,,,,,,,,,,,,,,,,,,,,,,,,,,,,,,,,,,,,,,,,,,,,,,,,,,,,,,,,,,,,,,,,,,,,,,,,,,,,,,,,,,,,,,,,,,,,,,,,,,,,
1768374776.925016,1768374776.926135,48.000000,0.000000,4246.410156,4298.846191,4342.948730,4336.794922,4323.717773,4326.794922,4333.974121,4344.230957,4337.948730,4315.384766,4539.615234,4536.025879,4417.563965,4410.000000,0.000000,1.000000,26.000000,,,,0.000000,4.000000,4.000000,4.000000,4.000000,4.000000,4.000000,4.000000,4.000000,4.000000,4.000000,4.000000,4.000000,4.000000,4.000000,100.000000,,,,,,,,,,,,,,,,,,,,,,,,,,,,,,,,,,,,,,,,,,,,,,,,,,,,,,,,,,,,,,,,,,,,,,,,,,,,,,,,,,,,,,,,,,,,,,,,,,,,,,,,,,,,,,,,,,,,,
1768374776.932824,1768374776.933943,49.000000,0.000000,4253.461426,4299.102539,4342.948730,4337.948730,4325.897461,4320.769043,4327.436035,4342.179688,4333.205078,4313.461426,4537.820313,4533.974121,4417.179688,4411.922852,0.000000,1.000000,26.000000,,,,0.000000,4.000000,4.000000,4.000000,4.000000,4.000000,4.000000,4.000000,4.000000,4.000000,4.000000,4.000000,4.000000,4.000000,4.000000,100.000000,,,,,,,,,,,,,,,,,,,,,,,,,,,,,,,,,,,,,,,,,,,,,,,,,,,,,,,,,,,,,,,,,,,,,,,,,,,,,,,,,,,,,,,,,,,,,,,,,,,,,,,,,,,,,,,,,,,,,
1768374776.940633,1768374776.941852,50.000000,0.000000,4261.922852,4297.179688,4340.769043,4333.461426,4319.487305,4311.666504,4317.563965,4339.743652,4333.717773,4310.128418,4536.153809,4532.051270,4415.897461,4411.666504,0.000000,1.000000,26.000000,,,,0.000000,4.000000,4.000000,4.000000,4.000000,4.000000,4.000000,4.000000,4.000000,4.000000,4.000000,4.000000,4.000000,4.000000,4.000000,100.000000,,,,,,,,,,,,,,,,,,,,,,,,,,,,,,,,,,,,,,,,,,,,,,,,,,,,,,,,,,,,,,,,,,,,,,,,,,,,,,,,,,,,,,,,,,,,,,,,,,,,,,,,,,,,,,,,,,,,,
1768374776.948441,1768374776.949660,51.000000,0.000000,4264.487305,4297.563965,4342.051270,4336.025879,4316.282227,4311.538574,4313.974121,4340.897461,4336.153809,4312.820313,4538.974121,4536.153809,4415.000000,4413.461426,0.000000,1.000000,26.000000,,,,0.000000,4.000000,4.000000,4.000000,4.000000,4.000000,4.000000,4.000000,4.000000,4.000000,4.000000,4.000000,4.000000,4.000000,4.000000,100.000000,,,,,,,,,,,,,,,,,,,,,,,,,,,,,,,,,,,,,,,,,,,,,,,,,,,,,,,,,,,,,,,,,,,,,,,,,,,,,,,,,,,,,,,,,,,,,,,,,,,,,,,,,,,,,,,,,,,,,
1768374776.956250,1768374776.957668,52.000000,0.000000,4265.769043,4300.128418,4344.743652,4342.563965,4321.153809,4315.512695,4314.230957,4335.897461,4327.563965,4313.205078,4540.000000,4538.461426,4416.794922,4417.307617,0.000000,1.000000,26.000000,,,,0.000000,4.000000,4.000000,4.000000,4.000000,4.000000,4.000000,4.000000,4.000000,4.000000,4.000000,4.000000,4.000000,4.000000,4.000000,100.000000,,,,,,,,,,,,,,,,,,,,,,,,,,,,,,,,,,,,,,,,,,,,,,,,,,,,,,,,,,,,,,,,,,,,,,,,,,,,,,,,,,,,,,,,,,,,,,,,,,,,,,,,,,,,,,,,,,,,,
1768374776.964058,1768374776.965477,53.000000,0.000000,4265.128418,4300.384766,4343.589844,4340.769043,4322.051270,4319.871582,4318.205078,4326.410156,4320.769043,4305.512695,4535.641113,4531.922852,4414.615234,4414.871582,0.000000,1.000000,26.000000,,,,0.000000,4.000000,4.000000,4.000000,4.000000,4.000000,4.000000,4.000000,4.000000,4.000000,4.000000,4.000000,4.000000,4.000000,4.000000,100.000000,,,,,,,,,,,,,,,,,,,,,,,,,,,,,,,,,,,,,,,,,,,,,,,,,,,,,,,,,,,,,,,,,,,,,,,,,,,,,,,,,,,,,,,,,,,,,,,,,,,,,,,,,,,,,,,,,,,,,
1768374776.971867,1768374776.973185,54.000000,0.000000,4262.563965,4297.179688,4340.897461,4335.512695,4317.692383,4324.615234,4323.717773,4330.897461,4326.794922,4301.794922,4536.153809,4529.102539,4412.563965,4410.256348,0.000000,1.000000,26.000000,,,,0.000000,4.000000,4.000000,4.000000,4.000000,4.000000,4.000000,4.000000,4.000000,4.000000,4.000000,4.000000,4.000000,4.000000,4.000000,100.000000,,,,,,,,,,,,,,,,,,,,,,,,,,,,,,,,,,,,,,,,,,,,,,,,,,,,,,,,,,,,,,,,,,,,,,,,,,,,,,,,,,,,,,,,,,,,,,,,,,,,,,,,,,,,,,,,,,,,,
1768374776.979675,1768374776.980994,55.000000,0.000000,4263.205078,4293.589844,4341.153809,4334.871582,4319.487305,4323.974121,4323.077148,4343.846191,4335.769043,4307.179688,4540.512695,4536.922852,4414.743652,4417.563965,0.000000,1.000000,26.000000,,,,0.000000,4.000000,4.000000,4.000000,4.000000,4.000000,4.000000,4.000000,4.000000,4.000000,4.000000,4.000000,4.000000,4.000000,4.000000,100.000000,,,,,,,,,,,,,,,,,,,,,,,,,,,,,,,,,,,,,,,,,,,,,,,,,,,,,,,,,,,,,,,,,,,,,,,,,,,,,,,,,,,,,,,,,,,,,,,,,,,,,,,,,,,,,,,,,,,,,
1768374776.987484,1768374776.988702,56.000000,0.000000,4266.282227,4293.333496,4343.717773,4335.641113,4322.563965,4321.922852,4324.358887,4348.333496,4343.205078,4313.974121,4540.769043,4544.230957,4416.666504,4425.384766,0.000000,1.000000,26.000000,,,,0.000000,4.000000,4.000000,4.000000,4.000000,4.000000,4.000000,4.000000,4.000000,4.000000,4.000000,4.000000,4.000000,4.000000,4.000000,100.000000,,,,,,,,,,,,,,,,,,,,,,,,,,,,,,,,,,,,,,,,,,,,,,,,,,,,,,,,,,,,,,,,,,,,,,,,,,,,,,,,,,,,,,,,,,,,,,,,,,,,,,,,,,,,,,,,,,,,,
1768374776.995292,1768374776.996511,57.000000,0.000000,4265.000000,4292.051270,4341.025879,4331.794922,4317.563965,4327.436035,4332.051270,4349.743652,4344.615234,4312.948730,4538.205078,4543.205078,4412.948730,4418.461426,0.000000,1.000000,26.000000,,,,0.000000,4.000000,4.000000,4.000000,4.000000,4.000000,4.000000,4.000000,4.000000,4.000000,4.000000,4.000000,4.000000,4.000000,4.000000,100.000000,,,,,,,,,,,,,,,,,,,,,,,,,,,,,,,,,,,,,,,,,,,,,,,,,,,,,,,,,,,,,,,,,,,,,,,,,,,,,,,,,,,,,,,,,,,,,,,,,,,,,,,,,,,,,,,,,,,,,
1768374777.003101,1768374777.004419,58.000000,0.000000,4260.769043,4289.358887,4333.974121,4328.077148,4316.410156,4330.256348,4331.282227,4350.512695,4341.922852,4309.102539,4536.410156,4535.256348,4409.743652,4411.410156,0.000000,1.000000,26.000000,,,,0.000000,4.000000,4.000000,4.000000,4.000000,4.000000,4.000000,4.000000,4.000000,4.000000,4.000000,4.000000,4.000000,4.000000,4.000000,100.000000,,,,,,,,,,,,,,,,,,,,,,,,,,,,,,,,,,,,,,,,,,,,,,,,,,,,,,,,,,,,,,,,,,,,,,,,,,,,,,,,,,,,,,,,,,,,,,,,,,,,,,,,,,,,,,,,,,,,,
1768374777.010909,1768374777.012228,59.000000,0.000000,4259.743652,4291.153809,4332.563965,4328.974121,4319.871582,4321.794922,4319.871582,4347.051270,4342.563965,4311.666504,4534.487305,4530.256348,4410.897461,4413.717773,0.000000,1.000000,26.000000,,,,0.000000,4.000000,4.000000,4.000000,4.000000,4.000000,4.000000,4.000000,4.000000,4.000000,4.000000,4.000000,4.000000,4.000000,4.000000,100.000000,,,,,,,,,,,,,,,,,,,,,,,,,,,,,,,,,,,,,,,,,,,,,,,,,,,,,,,,,,,,,,,,,,,,,,,,,,,,,,,,,,,,,,,,,,,,,,,,,,,,,,,,,,,,,,,,,,,,,
1768374777.018717,1768374777.019836,60.000000,0.000000,4263.333496,4292.948730,4335.512695,4330.897461,4315.769043,4317.563965,4316.922852,4343.846191,4343.589844,4313.846191,4535.769043,4531.922852,4412.179688,4413.717773,0.000000,1.000000,26.000000,,,,0.000000,4.000000,4.000000,4.000000,4.000000,4.000000,4.000000,4.000000,4.000000,4.000000,4.000000,4.000000,4.000000,4.000000,4.000000,100.000000,,,,,,,,,,,,,,,,,,,,,,,,,,,,,,,,,,,,,,,,,,,,,,,,,,,,,,,,,,,,,,,,,,,,,,,,,,,,,,,,,,,,,,,,,,,,,,,,,,,,,,,,,,,,,,,,,,,,,
1768374777.026526,1768374777.027645,61.000000,0.000000,4262.436035,4293.205078,4334.230957,4332.307617,4316.025879,4326.410156,4327.692383,4346.794922,4343.333496,4311.025879,4538.846191,4531.538574,4414.871582,4410.256348,0.000000,1.000000,26.000000,,,,0.000000,4.000000,4.000000,4.000000,4.000000,4.000000,4.000000,4.000000,4.000000,4.000000,4.000000,4.000000,4.000000,4.000000,4.000000,100.000000,,,,,,,,,,,,,,,,,,,,,,,,,,,,,,,,,,,,,,,,,,,,,,,,,,,,,,,,,,,,,,,,,,,,,,,,,,,,,,,,,,,,,,,,,,,,,,,,,,,,,,,,,,,,,,,,,,,,,
1768374777.034334,1768374777.035353,62.000000,0.000000,4261.025879,4296.538574,4332.051270,4334.871582,4326.153809,4330.512695,4331.538574,4348.461426,4342.820313,4313.205078,4537.820313,4528.717773,4415.128418,4410.641113,0.000000,1.000000,26.000000,,,,0.000000,4.000000,4.000000,4.000000,4.000000,4.000000,4.000000,4.000000,4.000000,4.000000,4.000000,4.000000,4.000000,4.000000,4.000000,100.000000,,,,,,,,,,,,,,,,,,,,,,,,,,,,,,,,,,,,,,,,,,,,,,,,2.071196,0.597849,0.269986,0.213882,0.133034,0.383889,0.312078,0.116724,0.188212,0.088570,0.343802,0.298782,0.173159,0.170762,0.129578,0.339064,0.124575,0.205173,0.196419,0.057047,0.163279,0.069576,0.076027,0.097490,0.082172,0.084593,0.155681,0.261277,0.149756,0.114277,0.109532,0.290292,0.286398,0.207102,0.127197,0.151365,0.196066,0.211433,0.153274,0.069600,0.169333,0.143173,0.122094,0.229086,0.114321,0.201049,0.123664,0.160239,0.113019,0.091282,0.297884,0.328201,0.176653,0.155362,0.175548,0.292501,0.269568,0.158092,0.236778,0.232428,0.690731,0.272083,0.271387,0.221793,0.186875,2.592041,0.690216,0.257861,0.142492,0.135762
1768374777.042143,1768374777.043162,63.000000,0.000000,4270.897461,4301.794922,4337.436035,4335.512695,4325.641113,4324.487305,4324.102539,4343.717773,4340.641113,4319.743652,4536.282227,4527.307617,4412.051270,4413.333496,0.000000,1.000000,26.000000,,,,0.000000,4.000000,4.000000,4.000000,4.000000,4.000000,4.000000,4.000000,4.000000,4.000000,4.000000,4.000000,4.000000,4.000000,4.000000,100.000000,,,,,,,,,,,,,,,,,,,,,,,,,,,,,,,,,,,,,,,,,,,,,,,,,,,,,,,,,,,,,,,,,,,,,,,,,,,,,,,,,,,,,,,,,,,,,,,,,,,,,,,,,,,,,,,,,,,,,
1768374777.049951,1768374777.051170,64.000000,0.000000,4277.948730,4301.153809,4343.333496,4336.410156,4318.205078,4322.820313,4321.153809,4340.641113,4336.153809,4316.025879,4536.410156,4528.846191,4412.820313,4416.025879,4058.000000,1.000000,26.000000,,,,0.000000,4.000000,4.000000,4.000000,4.000000,4.000000,4.000000,4.000000,4.000000,4.000000,4.000000,4.000000,4.000000,4.000000,4.000000,100.000000,,,,,,,,,,,,,,,,,,,,,,,,,,,,,,,,,,,,,,,,,,,,,,,,,,,,,,,,,,,,,,,,,,,,,,,,,,,,,,,,,,,,,,,,,,,,,,,,,,,,,,,,,,,,,,,,,,,,,
1768374777.057760,1768374777.058978,65.000000,0.000000,4270.128418,4296.282227,4339.487305,4336.794922,4318.589844,4326.153809,4325.512695,4343.974121,4336.025879,4310.769043,4536.410156,4530.897461,4415.256348,4418.205078,4004.000000,1.000000,26.000000,,,,0.000000,4.000000,4.000000,4.000000,4.000000,4.000000,4.000000,4.000000,4.000000,4.000000,4.000000,4.000000,4.000000,4.000000,4.000000,100.000000,,,,,,,,,,,,,,,,,,,,,,,,,,,,,,,,,,,,,,,,,,,,,,,,,,,,,,,,,,,,,,,,,,,,,,,,,,,,,,,,,,,,,,,,,,,,,,,,,,,,,,,,,,,,,,,,,,,,,
1768374777.065568,1768374777.066887,66.000000,0.000000,4263.846191,4293.205078,4332.692383,4332.436035,4317.948730,4327.051270,4328.974121,4349.871582,4341.410156,4316.282227,4537.307617,4530.769043,4413.461426,4418.461426,3896.000000,1.000000,26.000000,,,,0.000000,4.000000,4.000000,4.000000,4.000000,4.000000,4.000000,4.000000,4.000000,4.000000,4.000000,4.000000,4.000000,4.000000,4.000000,100.000000,,,,,,,,,,,,,,,,,,,,,,,,,,,,,,,,,,,,,,,,,,,,,,,,,,,,,,,,,,,,,,,,,,,,,,,,,,,,,,,,,,,,,,,,,,,,,,,,,,,,,,,,,,,,,,,,,,,,,
1768374777.073376,1768374777.074695,67.000000,0.000000,4268.846191,4292.692383,4334.230957,4328.717773,4315.641113,4325.897461,4328.333496,4353.077148,4344.487305,4317.948730,4537.692383,4532.820313,4412.563965,4416.922852,3902.000000,1.000000,26.000000,,,,0.000000,4.000000,4.000000,4.000000,4.000000,4.000000,4.000000,4.000000,4.000000,4.000000,4.000000,4.000000,4.000000,4.000000,4.000000,100.000000,,,,,,,,,,,,,,,,,,,,,,,,,,,,,,,,,,,,,,,,,,,,,,,,,,,,,,,,,,,,,,,,,,,,,,,,,,,,,,,,,,,,,,,,,,,,,,,,,,,,,,,,,,,,,,,,,,,,,
1768374777.081185,1768374777.082703,68.000000,0.000000,4268.846191,4288.974121,4339.615234,4332.307617,4316.153809,4326.153809,4327.692383,4350.512695,4341.794922,4312.179688,4537.179688,4534.102539,4412.179688,4414.230957,3839.000000,1.000000,26.000000,,,,0.000000,4.000000,4.000000,4.000000,4.000000,4.000000,4.000000,4.000000,4.000000,4.000000,4.000000,4.000000,4.000000,4.000000,4.000000,100.000000,,,,,,,,,,,,,,,,,,,,,,,,,,,,,,,,,,,,,,,,,,,,,,,,,,,,,,,,,,,,,,,,,,,,,,,,,,,,,,,,,,,,,,,,,,,,,,,,,,,,,,,,,,,,,,,,,,,,,
1768374777.088993,1768374777.090512,69.000000,0.000000,4262.051270,4283.205078,4336.666504,4333.333496,4316.666504,4326.153809,4325.769043,4347.436035,4338.077148,4310.897461,4532.307617,4529.487305,4405.000000,4411.025879,3749.000000,1.000000,26.000000,,,,0.000000,4.000000,4.000000,4.000000,4.000000,4.000000,4.000000,4.000000,4.000000,4.000000,4.000000,4.000000,4.000000,4.000000,4.000000,100.000000,,,,,,,,,,,,,,,,,,,,,,,,,,,,,,,,,,,,,,,,,,,,,,,,,,,,,,,,,,,,,,,,,,,,,,,,,,,,,,,,,,,,,,,,,,,,,,,,,,,,,,,,,,,,,,,,,,,,,
1768374777.096802,1768374777.098220,70.000000,0.000000,4264.743652,4285.769043,4333.077148,4330.897461,4319.871582,4326.025879,4323.589844,4346.025879,4339.743652,4310.897461,4527.692383,4528.333496,4403.205078,4412.436035,3774.000000,1.000000,26.000000,,,,0.000000,4.000000,4.000000,4.000000,4.000000,4.000000,4.000000,4.000000,4.000000,4.000000,4.000000,4.000000,4.000000,4.000000,4.000000,100.000000,,,,,,,,,,,,,,,,,,,,,,,,,,,,,,,,,,,,,,,,,,,,,,,,,,,,,,,,,,,,,,,,,,,,,,,,,,,,,,,,,,,,,,,,,,,,,,,,,,,,,,,,,,,,,,,,,,,,,
1768374777.104610,1768374777.106029,71.000000,0.000000,4274.230957,4293.461426,4338.205078,4334.230957,4321.666504,4324.102539,4326.410156,4342.563965,4340.128418,4311.794922,4531.025879,4534.358887,4408.846191,4421.282227,3368.000000,1.000000,26.000000,,,,0.000000,4.000000,4.000000,4.000000,4.000000,4.000000,4.000000,4.000000,4.000000,4.000000,4.000000,4.000000,4.000000,4.000000,4.000000,100.000000,,,,,,,,,,,,,,,,,,,,,,,,,,,,,,,,,,,,,,,,,,,,,,,,,,,,,,,,,,,,,,,,,,,,,,,,,,,,,,,,,,,,,,,,,,,,,,,,,,,,,,,,,,,,,,,,,,,,,
1768374777.112419,1768374777.114037,72.000000,0.000000,4278.974121,4294.358887,4343.205078,4335.641113,4316.666504,4319.102539,4327.051270,4340.384766,4336.410156,4312.307617,4532.051270,4533.717773,4410.256348,4422.948730,3969.000000,1.000000,26.000000,,,,0.000000,4.000000,4.000000,4.000000,4.000000,4.000000,4.000000,4.000000,4.000000,4.000000,4.000000,4.000000,4.000000,4.000000,4.000000,100.000000,,,,,,,,,,,,,,,,,,,,,,,,,,,,,,,,,,,,,,,,,,,,,,,,,,,,,,,,,,,,,,,,,,,,,,,,,,,,,,,,,,,,,,,,,,,,,,,,,,,,,,,,,,,,,,,,,,,,,
1768374777.120227,1768374777.121846,73.000000,0.000000,4277.436035,4291.410156,4341.666504,4331.025879,4312.692383,4318.205078,4322.820313,4342.179688,4337.948730,4309.615234,4524.615234,4527.051270,4406.282227,4417.820313,3972.000000,1.000000,26.000000,,,,0.000000,4.000000,4.000000,4.000000,4.000000,4.000000,4.000000,4.000000,4.000000,4.000000,4.000000,4.000000,4.000000,4.000000,4.000000,100.000000,,,,,,,,,,,,,,,,,,,,,,,,,,,,,,,,,,,,,,,,,,,,,,,,,,,,,,,,,,,,,,,,,,,,,,,,,,,,,,,,,,,,,,,,,,,,,,,,,,,,,,,,,,,,,,,,,,,,,
1768374777.128035,1768374777.129754,74.000000,0.000000,4277.692383,4292.051270,4340.128418,4329.102539,4313.077148,4318.077148,4319.230957,4343.333496,4338.974121,4308.205078,4521.410156,4527.948730,4404.487305,4421.666504,4388.000000,1.000000,26.000000,,,,0.000000,4.000000,4.000000,4.000000,4.000000,4.000000,4.000000,4.000000,4.000000,4.000000,4.000000,4.000000,4.000000,4.000000,4.000000,100.000000,,,,,,,,,,,,,,,,,,,,,,,,,,,,,,,,,,,,,,,,,,,,,,,,,,,,,,,,,,,,,,,,,,,,,,,,,,,,,,,,,,,,,,,,,,,,,,,,,,,,,,,,,,,,,,,,,,,,,
1768374777.135844,1768374777.137562,75.000000,0.000000,4280.512695,4293.589844,4342.051270,4330.641113,4314.102539,4315.384766,4319.102539,4341.410156,4333.974121,4311.153809,4525.897461,4529.487305,4408.717773,4429.871582,4657.000000,1.000000,26.000000,,,,0.000000,4.000000,4.000000,4.000000,4.000000,4.000000,4.000000,4.000000,4.000000,4.000000,4.000000,4.000000,4.000000,4.000000,4.000000,100.000000,,,,,,,,,,,,,,,,,,,,,,,,,,,,,,,,,,,,,,,,,,,,,,,,,,,,,,,,,,,,,,,,,,,,,,,,,,,,,,,,,,,,,,,,,,,,,,,,,,,,,,,,,,,,,,,,,,,,,
1768374777.143652,1768374777.145571,76.000000,0.000000,4280.256348,4290.641113,4342.948730,4331.666504,4317.051270,4317.692383,4320.897461,4337.307617,4328.333496,4306.922852,4525.641113,4521.922852,4410.512695,4427.820313,4961.000000,1.000000,26.000000,,,,0.000000,4.000000,4.000000,4.000000,4.000000,4.000000,4.000000,4.000000,4.000000,4.000000,4.000000,4.000000,4.000000,4.000000,4.000000,100.000000,,,,,,,,,,,,,,,,,,,,,,,,,,,,,,,,,,,,,,,,,,,,,,,,,,,,,,,,,,,,,,,,,,,,,,,,,,,,,,,,,,,,,,,,,,,,,,,,,,,,,,,,,,,,,,,,,,,,,
1768374777.151461,1768374777.153379,77.000000,0.000000,4277.051270,4287.051270,4341.794922,4331.666504,4318.974121,4321.666504,4322.179688,4337.179688,4325.769043,4298.974121,4521.794922,4517.820313,4404.743652,4423.846191,5228.000000,1.000000,26.000000,,,,0.000000,4.000000,4.000000,4.000000,4.000000,4.000000,4.000000,4.000000,4.000000,4.000000,4.000000,4.000000,4.000000,4.000000,4.000000,100.000000,,,,,,,,,,,,,,,,,,,,,,,,,,,,,,,,,,,,,,,,,,,,,,,,,,,,,,,,,,,,,,,,,,,,,,,,,,,,,,,,,,,,,,,,,,,,,,,,,,,,,,,,,,,,,,,,,,,,,
1768374777.159269,1768374777.161088,78.000000,0.000000,4281.153809,4290.641113,4340.384766,4335.256348,4321.282227,4321.666504,4321.794922,4339.615234,4328.461426,4302.563965,4523.461426,4525.641113,4401.922852,4427.563965,4388.000000,1.000000,26.000000,,,,0.000000,4.000000,4.000000,4.000000,4.000000,4.000000,4.000000,4.000000,4.000000,4.000000,4.000000,4.000000,4.000000,4.000000,4.000000,100.000000,1.000000,58.333332,4.000000,3.000000,4.000000,4.000000,1.000000,4.000000,4.000000,4.000000,4.000000,3.000000,4.000000,4.000000,4.000000,4.000000,,,,,,,,,,,,,,,,,,,,,,,,,,,,,,,,2.778888,0.667602,0.260665,0.248406,0.159502,0.516910,0.315635,0.110937,0.168421,0.087597,0.412878,0.275356,0.151402,0.182125,0.141440,0.393888,0.100970,0.189191,0.195395,0.063968,0.136156,0.062430,0.078128,0.102812,0.097087,0.091900,0.136858,0.203005,0.149065,0.118636,0.120790,0.264484,0.255473,0.237501,0.140919,0.123038,0.198455,0.198157,0.203813,0.088874,0.186991,0.193283,0.156733,0.268068,0.137716,0.162894,0.135601,0.181956,0.123908,0.103733,0.250820,0.329624,0.198756,0.184836,0.216522,0.301514,0.328012,0.197198,0.245823,0.289809,0.837035,0.248141,0.293991,0.226237,0.206845,3.596785,0.773430,0.272468,0.184736,0.185566
1768374777.167078,1768374777.168896,79.000000,0.000000,4288.717773,4296.666504,4341.922852,4339.102539,4325.641113,4322.563965,4320.641113,4342.692383,4331.922852,4310.128418,4528.717773,4532.307617,4409.230957,4430.769043,4657.000000,1.000000,26.000000,,,,0.000000,4.000000,4.000000,4.000000,4.000000,4.000000,4.000000,4.000000,4.000000,4.000000,4.000000,4.000000,4.000000,4.000000,4.000000,100.000000,,,,,,,,,,,,,,,,,,,,,,,,,,,,,,,,,,,,,,,,,,,,,,,,,,,,,,,,,,,,,,,,,,,,,,,,,,,,,,,,,,,,,,,,,,,,,,,,,,,,,,,,,,,,,,,,,,,,,
1768374777.174886,1768374777.176505,80.000000,0.000000,4281.922852,4293.205078,4345.512695,4337.051270,4323.461426,4325.384766,4323.205078,4346.282227,4332.179688,4311.282227,4530.641113,4530.769043,4413.461426,4429.358887,4961.000000,1.000000,26.000000,,,,0.000000,4.000000,4.000000,4.000000,4.000000,4.000000,4.000000,4.000000,4.000000,4.000000,4.000000,4.000000,4.000000,4.000000,4.000000,100.000000,,,,,,,,,,,,,,,,,,,,,,,,,,,,,,,,,,,,,,,,,,,,,,,,,,,,,,,,,,,,,,,,,,,,,,,,,,,,,,,,,,,,,,,,,,,,,,,,,,,,,,,,,,,,,,,,,,,,,
1768374777.182695,1768374777.184313,81.000000,0.000000,4276.410156,4289.871582,4344.615234,4337.436035,4319.102539,4323.589844,4325.256348,4346.282227,4329.871582,4307.051270,4526.666504,4526.538574,4405.256348,4426.666504,5228.000000,1.000000,26.000000,,,,0.000000,4.000000,4.000000,4.000000,4.000000,4.000000,4.000000,4.000000,4.000000,4.000000,4.000000,4.000000,4.000000,4.000000,4.000000,100.000000,,,,,,,,,,,,,,,,,,,,,,,,,,,,,,,,,,,,,,,,,,,,,,,,,,,,,,,,,,,,,,,,,,,,,,,,,,,,,,,,,,,,,,,,,,,,,,,,,,,,,,,,,,,,,,,,,,,,,
1768374777.190503,1768374777.192022,82.000000,0.000000,4290.769043,4298.461426,4342.436035,4344.102539,4321.282227,4322.179688,4323.333496,4342.563965,4329.487305,4301.794922,4522.563965,4525.000000,4397.692383,4426.153809,4388.000000,1.000000,26.000000,,,,0.000000,4.000000,4.000000,4.000000,4.000000,4.000000,4.000000,4.000000,4.000000,4.000000,4.000000,4.000000,4.000000,4.000000,4.000000,100.000000,,,,,,,,,,,,,,,,,,,,,,,,,,,,,,,,,,,,,,,,,,,,,,,,,,,,,,,,,,,,,,,,,,,,,,,,,,,,,,,,,,,,,,,,,,,,,,,,,,,,,,,,,,,,,,,,,,,,,
1768374777.198311,1768374777.199830,83.000000,0.000000,4299.871582,4304.871582,4342.948730,4346.153809,4323.461426,4320.384766,4318.846191,4337.948730,4327.307617,4303.974121,4526.025879,4526.410156,4402.563965,4431.538574,4657.000000,1.000000,26.000000,,,,0.000000,4.000000,4.000000,4.000000,4.000000,4.000000,4.000000,4.000000,4.000000,4.000000,4.000000,4.000000,4.000000,4.000000,4.000000,100.000000,,,,,,,,,,,,,,,,,,,,,,,,,,,,,,,,,,,,,,,,,,,,,,,,,,,,,,,,,,,,,,,,,,,,,,,,,,,,,,,,,,,,,,,,,,,,,,,,,,,,,,,,,,,,,,,,,,,,,
1768374777.206120,1768374777.207439,84.000000,0.000000,4292.179688,4300.256348,4343.717773,4344.871582,4325.256348,4318.717773,4314.102539,4337.179688,4327.307617,4312.820313,4532.436035,4526.922852,4413.333496,4437.179688,4961.000000,1.000000,26.000000,,,,0.000000,4.000000,4.000000,4.000000,4.000000,4.000000,4.000000,4.000000,4.000000,4.000000,4.000000,4.000000,4.000000,4.000000,4.000000,100.000000,,,,,,,,,,,,,,,,,,,,,,,,,,,,,,,,,,,,,,,,,,,,,,,,,,,,,,,,,,,,,,,,,,,,,,,,,,,,,,,,,,,,,,,,,,,,,,,,,,,,,,,,,,,,,,,,,,,,,
1768374777.213928,1768374777.215247,85.000000,0.000000,4288.589844,4300.641113,4342.692383,4344.871582,4326.282227,4323.205078,4312.179688,4337.436035,4329.358887,4313.974121,4529.487305,4519.743652,4415.384766,4433.589844,5228.000000,1.000000,26.000000,,,,0.000000,4.000000,4.000000,4.000000,4.000000,4.000000,4.000000,4.000000,4.000000,4.000000,4.000000,4.000000,4.000000,4.000000,4.000000,100.000000,,,,,,,,,,,,,,,,,,,,,,,,,,,,,,,,,,,,,,,,,,,,,,,,,,,,,,,,,,,,,,,,,,,,,,,,,,,,,,,,,,,,,,,,,,,,,,,,,,,,,,,,,,,,,,,,,,,,,
1768374777.221737,1768374777.222956,86.000000,0.000000,4291.666504,4305.000000,4341.666504,4342.307617,4322.820313,4323.846191,4310.128418,4333.974121,4325.512695,4305.512695,4522.307617,4514.871582,4408.717773,4425.512695,4388.000000,1.000000,26.000000,,,,0.000000,4.000000,4.000000,4.000000,4.000000,4.000000,4.000000,4.000000,4.000000,4.000000,4.000000,4.000000,4.000000,4.000000,4.000000,100.000000,,,,,,,,,,,,,,,,,,,,,,,,,,,,,,,,,,,,,,,,,,,,,,,,,,,,,,,,,,,,,,,,,,,,,,,,,,,,,,,,,,,,,,,,,,,,,,,,,,,,,,,,,,,,,,,,,,,,,
1768374777.229545,1768374777.230764,87.000000,0.000000,4294.230957,4302.948730,4342.948730,4342.051270,4322.563965,4317.307617,4311.794922,4333.205078,4323.589844,4304.615234,4522.820313,4524.487305,4405.897461,4427.820313,4657.000000,1.000000,26.000000,,,,0.000000,4.000000,4.000000,4.000000,4.000000,4.000000,4.000000,4.000000,4.000000,4.000000,4.000000,4.000000,4.000000,4.000000,4.000000,100.000000,,,,,,,,,,,,,,,,,,,,,,,,,,,,,,,,,,,,,,,,,,,,,,,,,,,,,,,,,,,,,,,,,,,,,,,,,,,,,,,,,,,,,,,,,,,,,,,,,,,,,,,,,,,,,,,,,,,,,
1768374777.237354,1768374777.238373,88.000000,0.000000,4295.384766,4304.487305,4343.589844,4343.461426,4325.256348,4317.563965,4316.922852,4333.077148,4326.410156,4310.641113,4525.897461,4527.948730,4409.871582,4434.615234,4961.000000,1.000000,26.000000,,,,0.000000,4.000000,4.000000,4.000000,4.000000,4.000000,4.000000,4.000000,4.000000,4.000000,4.000000,4.000000,4.000000,4.000000,4.000000,100.000000,,,,,,,,,,,,,,,,,,,,,,,,,,,,,,,,,,,,,,,,,,,,,,,,,,,,,,,,,,,,,,,,,,,,,,,,,,,,,,,,,,,,,,,,,,,,,,,,,,,,,,,,,,,,,,,,,,,,,
1768374777.245162,1768374777.246181,89.000000,0.000000,4293.974121,4308.333496,4342.563965,4343.461426,4324.615234,4319.871582,4313.717773,4330.512695,4325.769043,4306.410156,4521.794922,4515.641113,4407.051270,4430.384766,5228.000000,1.000000,26.000000,,,,0.000000,4.000000,4.000000,4.000000,4.000000,4.000000,4.000000,4.000000,4.000000,4.000000,4.000000,4.000000,4.000000,4.000000,4.000000,100.000000,,,,,,,,,,,,,,,,,,,,,,,,,,,,,,,,,,,,,,,,,,,,,,,,,,,,,,,,,,,,,,,,,,,,,,,,,,,,,,,,,,,,,,,,,,,,,,,,,,,,,,,,,,,,,,,,,,,,,
1768374777.252971,1768374777.254090,90.000000,0.000000,4295.769043,4302.051270,4339.487305,4343.461426,4324.358887,4317.307617,4308.205078,4331.025879,4323.077148,4300.000000,4516.666504,4509.743652,4397.948730,4425.512695,4388.000000,1.000000,26.000000,,,,0.000000,4.000000,4.000000,4.000000,4.000000,4.000000,4.000000,4.000000,4.000000,4.000000,4.000000,4.000000,4.000000,4.000000,4.000000,100.000000,,,,,,,,,,,,,,,,,,,,,,,,,,,,,,,,,,,,,,,,,,,,,,,,,,,,,,,,,,,,,,,,,,,,,,,,,,,,,,,,,,,,,,,,,,,,,,,,,,,,,,,,,,,,,,,,,,,,,
1768374777.260779,1768374777.261898,91.000000,0.000000,4294.743652,4293.461426,4330.897461,4336.794922,4322.563965,4319.743652,4316.153809,4336.666504,4323.974121,4301.538574,4516.282227,4513.846191,4395.769043,4426.794922,4657.000000,1.000000,26.000000,,,,0.000000,4.000000,4.000000,4.000000,4.000000,4.000000,4.000000,4.000000,4.000000,4.000000,4.000000,4.000000,4.000000,4.000000,4.000000,100.000000,,,,,,,,,,,,,,,,,,,,,,,,,,,,,,,,,,,,,,,,,,,,,,,,,,,,,,,,,,,,,,,,,,,,,,,,,,,,,,,,,,,,,,,,,,,,,,,,,,,,,,,,,,,,,,,,,,,,,
1768374777.268587,1768374777.269906,92.000000,0.000000,4284.871582,4291.025879,4325.641113,4326.025879,4316.410156,4325.256348,4321.666504,4341.282227,4326.025879,4301.538574,4517.948730,4514.743652,4397.179688,4425.769043,4961.000000,1.000000,26.000000,,,,0.000000,4.000000,4.000000,4.000000,4.000000,4.000000,4.000000,4.000000,4.000000,4.000000,4.000000,4.000000,4.000000,4.000000,4.000000,100.000000,,,,,,,,,,,,,,,,,,,,,,,,,,,,,,,,,,,,,,,,,,,,,,,,,,,,,,,,,,,,,,,,,,,,,,,,,,,,,,,,,,,,,,,,,,,,,,,,,,,,,,,,,,,,,,,,,,,,,
1768374777.276396,1768374777.277715,93.000000,0.000000,4286.538574,4296.153809,4335.897461,4331.025879,4317.179688,4322.563965,4313.846191,4343.333496,4328.846191,4303.333496,4520.128418,4514.102539,4400.512695,4431.666504,5228.000000,1.000000,26.000000,,,,0.000000,4.000000,4.000000,4.000000,4.000000,4.000000,4.000000,4.000000,4.000000,4.000000,4.000000,4.000000,4.000000,4.000000,4.000000,100.000000,,,,,,,,,,,,,,,,,,,,,,,,,,,,,,,,,,,,,,,,,,,,,,,,,,,,,,,,,,,,,,,,,,,,,,,,,,,,,,,,,,,,,,,,,,,,,,,,,,,,,,,,,,,,,,,,,,,,,
1768374777.284204,1768374777.285423,94.000000,0.000000,4299.871582,4303.077148,4348.205078,4342.692383,4322.563965,4319.743652,4313.589844,4346.922852,4334.102539,4311.538574,4522.820313,4520.512695,4409.487305,4444.358887,4388.000000,1.000000,26.000000,,,,0.000000,4.000000,4.000000,4.000000,4.000000,4.000000,4.000000,4.000000,4.000000,4.000000,4.000000,4.000000,4.000000,4.000000,4.000000,100.000000,,,,,,,,,,,,,,,,,,,,,,,,,,,,,,,,,,,,,,,,,,,,,,,,3.528636,0.689144,0.233649,0.296905,0.190809,0.649777,0.330458,0.104200,0.144703,0.089838,0.519712,0.250832,0.135688,0.203500,0.152879,0.460886,0.084908,0.176440,0.190611,0.072262,0.119786,0.061715,0.077949,0.106029,0.111091,0.094134,0.124974,0.155133,0.141180,0.120990,0.124798,0.239471,0.225140,0.258985,0.150339,0.116737,0.242696,0.196302,0.255653,0.106950,0.225672,0.288965,0.206343,0.299005,0.158519,0.170851,0.161994,0.207851,0.137483,0.115367,0.249681,0.329899,0.236146,0.217501,0.256694,0.405064,0.421174,0.255522,0.256637,0.343459,0.952787,0.221207,0.314195,0.237517,0.230664,4.479798,0.792197,0.273801,0.228883,0.243485
1768374777.292013,1768374777.293232,95.000000,0.000000,4305.256348,4302.948730,4343.589844,4339.615234,4319.358887,4321.922852,4319.358887,4347.692383,4333.461426,4314.615234,4527.820313,4527.307617,4413.846191,4445.897461,4657.000000,1.000000,26.000000,,,,0.000000,4.000000,4.000000,4.000000,4.000000,4.000000,4.000000,4.000000,4.000000,4.000000,4.000000,4.000000,4.000000,4.000000,4.000000,100.000000,,,,,,,,,,,,,,,,,,,,,,,,,,,,,,,,,,,,,,,,,,,,,,,,,,,,,,,,,,,,,,,,,,,,,,,,,,,,,,,,,,,,,,,,,,,,,,,,,,,,,,,,,,,,,,,,,,,,,
1768374777.299821,1768374777.300840,96.000000,0.000000,4305.769043,4301.410156,4340.769043,4336.922852,4319.487305,4321.025879,4318.077148,4343.461426,4326.922852,4313.205078,4535.641113,4527.948730,4411.666504,4440.769043,4961.000000,1.000000,26.000000,,,,0.000000,4.000000,4.000000,4.000000,4.000000,4.000000,4.000000,4.000000,4.000000,4.000000,4.000000,4.000000,4.000000,4.000000,4.000000,100.000000,,,,,,,,,,,,,,,,,,,,,,,,,,,,,,,,,,,,,,,,,,,,,,,,,,,,,,,,,,,,,,,,,,,,,,,,,,,,,,,,,,,,,,,,,,,,,,,,,,,,,,,,,,,,,,,,,,,,,
1768374777.307630,1768374777.308649,97.000000,0.000000,4304.871582,4304.743652,4347.948730,4343.974121,4325.512695,4318.461426,4313.846191,4340.641113,4323.205078,4312.820313,4537.948730,4527.563965,4414.871582,4447.692383,5228.000000,1.000000,26.000000,,,,0.000000,4.000000,4.000000,4.000000,4.000000,4.000000,4.000000,4.000000,4.000000,4.000000,4.000000,4.000000,4.000000,4.000000,4.000000,100.000000,,,,,,,,,,,,,,,,,,,,,,,,,,,,,,,,,,,,,,,,,,,,,,,,,,,,,,,,,,,,,,,,,,,,,,,,,,,,,,,,,,,,,,,,,,,,,,,,,,,,,,,,,,,,,,,,,,,,,
1768374777.315438,1768374777.316357,98.000000,0.000000,4302.307617,4307.307617,4347.051270,4343.333496,4325.384766,4322.820313,4316.410156,4340.000000,4327.051270,4308.077148,4530.641113,4527.307617,4416.666504,4453.205078,4388.000000,1.000000,26.000000,,,,0.000000,4.000000,4.000000,4.000000,4.000000,4.000000,4.000000,4.000000,4.000000,4.000000,4.000000,4.000000,4.000000,4.000000,4.000000,100.000000,,,,,,,,,,,,,,,,,,,,,,,,,,,,,,,,,,,,,,,,,,,,,,,,,,,,,,,,,,,,,,,,,,,,,,,,,,,,,,,,,,,,,,,,,,,,,,,,,,,,,,,,,,,,,,,,,,,,,
1768374777.323247,1768374777.324166,99.000000,0.000000,4300.384766,4305.000000,4340.769043,4338.077148,4320.641113,4325.641113,4322.436035,4341.538574,4331.025879,4308.077148,4529.743652,4526.666504,4411.922852,4448.589844,4657.000000,1.000000,26.000000,,,,0.000000,4.000000,4.000000,4.000000,4.000000,4.000000,4.000000,4.000000,4.000000,4.000000,4.000000,4.000000,4.000000,4.000000,4.000000,100.000000,,,,,,,,,,,,,,,,,,,,,,,,,,,,,,,,,,,,,,,,,,,,,,,,,,,,,,,,,,,,,,,,,,,,,,,,,,,,,,,,,,,,,,,,,,,,,,,,,,,,,,,,,,,,,,,,,,,,,
1768374777.331055,1768374777.332174,100.000000,0.000000,4299.102539,4300.384766,4339.871582,4339.358887,4318.077148,4318.974121,4320.256348,4343.461426,4330.769043,4320.769043,4540.000000,4529.358887,4414.871582,4447.051270,4961.000000,1.000000,26.000000,,,,0.000000,4.000000,4.000000,4.000000,4.000000,4.000000,4.000000,4.000000,4.000000,4.000000,4.000000,4.000000,4.000000,4.000000,4.000000,100.000000,,,,,,,,,,,,,,,,,,,,,,,,,,,,,,,,,,,,,,,,,,,,,,,,,,,,,,,,,,,,,,,,,,,,,,,,,,,,,,,,,,,,,,,,,,,,,,,,,,,,,,,,,,,,,,,,,,,,,
1768374777.338863,1768374777.339983,101.000000,0.000000,4298.589844,4299.743652,4340.641113,4338.333496,4315.897461,4314.487305,4310.897461,4337.307617,4333.205078,4326.153809,4541.538574,4531.538574,4423.461426,4448.846191,5228.000000,1.000000,26.000000,,,,0.000000,4.000000,4.000000,4.000000,4.000000,4.000000,4.000000,4.000000,4.000000,4.000000,4.000000,4.000000,4.000000,4.000000,4.000000,100.000000,,,,,,,,,,,,,,,,,,,,,,,,,,,,,,,,,,,,,,,,,,,,,,,,,,,,,,,,,,,,,,,,,,,,,,,,,,,,,,,,,,,,,,,,,,,,,,,,,,,,,,,,,,,,,,,,,,,,,
1768374777.346672,1768374777.347891,102.000000,0.000000,4304.743652,4306.410156,4343.589844,4340.512695,4319.230957,4318.589844,4308.846191,4331.153809,4332.051270,4315.641113,4535.128418,4528.589844,4421.282227,4451.538574,4388.000000,1.000000,26.000000,,,,0.000000,4.000000,4.000000,4.000000,4.000000,4.000000,4.000000,4.000000,4.000000,4.000000,4.000000,4.000000,4.000000,4.000000,4.000000,100.000000,,,,,,,,,,,,,,,,,,,,,,,,,,,,,,,,,,,,,,,,,,,,,,,,,,,,,,,,,,,,,,,,,,,,,,,,,,,,,,,,,,,,,,,,,,,,,,,,,,,,,,,,,,,,,,,,,,,,,
1768374777.354480,1768374777.355699,103.000000,0.000000,4313.717773,4312.820313,4351.794922,4348.974121,4326.666504,4325.897461,4314.871582,4338.205078,4327.820313,4310.128418,4536.922852,4528.717773,4418.974121,4459.102539,4657.000000,1.000000,26.000000,,,,0.000000,4.000000,4.000000,4.000000,4.000000,4.000000,4.000000,4.000000,4.000000,4.000000,4.000000,4.000000,4.000000,4.000000,4.000000,100.000000,,,,,,,,,,,,,,,,,,,,,,,,,,,,,,,,,,,,,,,,,,,,,,,,,,,,,,,,,,,,,,,,,,,,,,,,,,,,,,,,,,,,,,,,,,,,,,,,,,,,,,,,,,,,,,,,,,,,,
1768374777.362289,1768374777.363708,104.000000,0.000000,4308.461426,4305.384766,4351.025879,4347.436035,4322.051270,4324.615234,4313.589844,4343.974121,4330.641113,4316.922852,4540.384766,4532.820313,4423.846191,4461.282227,4961.000000,1.000000,26.000000,,,,0.000000,4.000000,4.000000,4.000000,4.000000,4.000000,4.000000,4.000000,4.000000,4.000000,4.000000,4.000000,4.000000,4.000000,4.000000,100.000000,,,,,,,,,,,,,,,,,,,,,,,,,,,,,,,,,,,,,,,,,,,,,,,,,,,,,,,,,,,,,,,,,,,,,,,,,,,,,,,,,,,,,,,,,,,,,,,,,,,,,,,,,,,,,,,,,,,,,
1768374777.370097,1768374777.371516,105.000000,0.000000,4297.692383,4298.717773,4342.179688,4339.871582,4312.051270,4316.153809,4310.256348,4343.846191,4335.128418,4318.205078,4538.461426,4532.563965,4425.128418,4453.589844,5228.000000,1.000000,26.000000,,,,0.000000,4.000000,4.000000,4.000000,4.000000,4.000000,4.000000,4.000000,4.000000,4.000000,4.000000,4.000000,4.000000,4.000000,4.000000,100.000000,,,,,,,,,,,,,,,,,,,,,,,,,,,,,,,,,,,,,,,,,,,,,,,,,,,,,,,,,,,,,,,,,,,,,,,,,,,,,,,,,,,,,,,,,,,,,,,,,,,,,,,,,,,,,,,,,,,,,
1768374777.377906,1768374777.379225,106.000000,0.000000,4298.717773,4302.051270,4344.615234,4340.000000,4313.461426,4316.025879,4310.897461,4344.615234,4332.948730,4314.230957,4538.461426,4530.512695,4423.846191,4451.666504,4388.000000,1.000000,26.000000,,,,0.000000,4.000000,4.000000,4.000000,4.000000,4.000000,4.000000,4.000000,4.000000,4.000000,4.000000,4.000000,4.000000,4.000000,4.000000,100.000000,,,,,,,,,,,,,,,,,,,,,,,,,,,,,,,,,,,,,,,,,,,,,,,,,,,,,,,,,,,,,,,,,,,,,,,,,,,,,,,,,,,,,,,,,,,,,,,,,,,,,,,,,,,,,,,,,,,,,
1768374777.385714,1768374777.387033,107.000000,0.000000,4306.666504,4302.563965,4350.256348,4341.794922,4318.077148,4319.743652,4311.922852,4344.102539,4331.282227,4315.256348,4538.205078,4532.307617,4422.436035,4458.846191,4657.000000,1.000000,26.000000,,,,0.000000,4.000000,4.000000,4.000000,4.000000,4.000000,4.000000,4.000000,4.000000,4.000000,4.000000,4.000000,4.000000,4.000000,4.000000,100.000000,,,,,,,,,,,,,,,,,,,,,,,,,,,,,,,,,,,,,,,,,,,,,,,,,,,,,,,,,,,,,,,,,,,,,,,,,,,,,,,,,,,,,,,,,,,,,,,,,,,,,,,,,,,,,,,,,,,,,
1768374777.393523,1768374777.394642,108.000000,0.000000,4311.153809,4301.538574,4345.512695,4341.025879,4315.128418,4314.871582,4310.384766,4343.589844,4332.051270,4314.743652,4538.717773,4531.666504,4420.512695,4462.307617,4961.000000,1.000000,26.000000,,,,0.000000,4.000000,4.000000,4.000000,4.000000,4.000000,4.000000,4.000000,4.000000,4.000000,4.000000,4.000000,4.000000,4.000000,4.000000,100.000000,,,,,,,,,,,,,,,,,,,,,,,,,,,,,,,,,,,,,,,,,,,,,,,,,,,,,,,,,,,,,,,,,,,,,,,,,,,,,,,,,,,,,,,,,,,,,,,,,,,,,,,,,,,,,,,,,,,,,
1768374777.401331,1768374777.402450,109.000000,0.000000,4307.692383,4304.102539,4339.743652,4337.820313,4312.563965,4310.384766,4308.333496,4342.948730,4328.461426,4310.000000,4535.512695,4525.641113,4417.307617,4455.769043,5228.000000,1.000000,26.000000,,,,0.000000,4.000000,4.000000,4.000000,4.000000,4.000000,4.000000,4.000000,4.000000,4.000000,4.000000,4.000000,4.000000,4.000000,4.000000,100.000000,,,,,,,,,,,,,,,,,,,,,,,,,,,,,,,,,,,,,,,,,,,,,,,,,,,,,,,,,,,,,,,,,,,,,,,,,,,,,,,,,,,,,,,,,,,,,,,,,,,,,,,,,,,,,,,,,,,,,
1768374777.409140,1768374777.410159,110.000000,0.000000,4299.102539,4302.436035,4341.410156,4333.974121,4314.615234,4315.128418,4310.000000,4338.846191,4325.897461,4309.230957,4527.051270,4521.153809,4411.922852,4445.256348,4388.000000,1.000000,26.000000,,,,0.000000,4.000000,4.000000,4.000000,4.000000,4.000000,4.000000,4.000000,4.000000,4.000000,4.000000,4.000000,4.000000,4.000000,4.000000,100.000000,,,,,,,,,,,,,,,,,,,,,,,,,,,,,,,,,,,,,,,,,,,,,,,,4.322349,0.663893,0.207924,0.351852,0.218875,0.784646,0.346633,0.104418,0.124140,0.092731,0.676861,0.227899,0.130215,0.228343,0.160567,0.541342,0.075923,0.174367,0.185418,0.079735,0.116338,0.064886,0.076020,0.110013,0.122175,0.094959,0.122218,0.126697,0.130088,0.118732,0.122332,0.226161,0.203216,0.273422,0.153535,0.137469,0.337641,0.206430,0.298849,0.117963,0.282719,0.436176,0.260129,0.316070,0.168477,0.229897,0.196945,0.235174,0.150882,0.123884,0.266872,0.330731,0.275837,0.243045,0.280908,0.588208,0.532107,0.316295,0.261843,0.376814,0.979219,0.197258,0.324595,0.252581,0.246206,5.133086,0.737593,0.265478,0.265346,0.292698
1768374777.416948,1768374777.417967,111.000000,0.000000,4298.717773,4303.846191,4344.358887,4336.922852,4317.563965,4319.358887,4312.563965,4333.717773,4324.615234,4309.615234,4523.333496,4521.153809,4406.538574,4442.307617,4657.000000,1.000000,26.000000,,,,0.000000,4.000000,4.000000,4.000000,4.000000,4.000000,4.000000,4.000000,4.000000,4.000000,4.000000,4.000000,4.000000,4.000000,4.000000,100.000000,,,,,,,,,,,,,,,,,,,,,,,,,,,,,,,,,,,,,,,,,,,,,,,,,,,,,,,,,,,,,,,,,,,,,,,,,,,,,,,,,,,,,,,,,,,,,,,,,,,,,,,,,,,,,,,,,,,,,
1768374777.424756,1768374777.425576,112.000000,0.000000,4309.358887,4313.974121,4343.974121,4340.256348,4318.461426,4318.589844,4312.436035,4331.153809,4322.436035,4303.717773,4524.358887,4519.871582,4406.153809,4446.153809,4961.000000,1.000000,26.000000,,,,0.000000,4.000000,4.000000,4.000000,4.000000,4.000000,4.000000,4.000000,4.000000,4.000000,4.000000,4.000000,4.000000,4.000000,4.000000,100.000000,,,,,,,,,,,,,,,,,,,,,,,,,,,,,,,,,,,,,,,,,,,,,,,,,,,,,,,,,,,,,,,,,,,,,,,,,,,,,,,,,,,,,,,,,,,,,,,,,,,,,,,,,,,,,,,,,,,,,
1768374777.432565,1768374777.433384,113.000000,0.000000,4310.897461,4317.563965,4341.666504,4335.128418,4316.666504,4315.128418,4309.487305,4329.743652,4320.897461,4300.000000,4522.692383,4514.615234,4409.487305,4448.461426,5228.000000,1.000000,26.000000,,,,0.000000,4.000000,4.000000,4.000000,4.000000,4.000000,4.000000,4.000000,4.000000,4.000000,4.000000,4.000000,4.000000,4.000000,4.000000,100.000000,,,,,,,,,,,,,,,,,,,,,,,,,,,,,,,,,,,,,,,,,,,,,,,,,,,,,,,,,,,,,,,,,,,,,,,,,,,,,,,,,,,,,,,,,,,,,,,,,,,,,,,,,,,,,,,,,,,,,
1768374777.440373,1768374777.441093,114.000000,0.000000,4308.333496,4314.871582,4344.743652,4336.153809,4317.179688,4317.051270,4312.179688,4331.794922,4322.436035,4303.205078,4522.051270,4516.025879,4411.666504,4446.794922,4388.000000,1.000000,26.000000,,,,0.000000,4.000000,4.000000,4.000000,4.000000,4.000000,4.000000,4.000000,4.000000,4.000000,4.000000,4.000000,4.000000,4.000000,4.000000,100.000000,,,,,,,,,,,,,,,,,,,,,,,,,,,,,,,,,,,,,,,,,,,,,,,,,,,,,,,,,,,,,,,,,,,,,,,,,,,,,,,,,,,,,,,,,,,,,,,,,,,,,,,,,,,,,,,,,,,,,
1768374777.448182,1768374777.448901,115.000000,0.000000,4311.025879,4315.000000,4350.000000,4339.743652,4318.205078,4322.179688,4317.820313,4334.871582,4326.410156,4305.897461,4524.230957,4527.307617,4410.128418,4446.666504,4657.000000,1.000000,26.000000,,,,0.000000,4.000000,4.000000,4.000000,4.000000,4.000000,4.000000,4.000000,4.000000,4.000000,4.000000,4.000000,4.000000,4.000000,4.000000,100.000000,,,,,,,,,,,,,,,,,,,,,,,,,,,,,,,,,,,,,,,,,,,,,,,,,,,,,,,,,,,,,,,,,,,,,,,,,,,,,,,,,,,,,,,,,,,,,,,,,,,,,,,,,,,,,,,,,,,,,
1768374777.455990,1768374777.456909,116.000000,0.000000,4305.897461,4311.666504,4345.641113,4333.205078,4314.102539,4315.512695,4315.128418,4329.230957,4324.743652,4299.102539,4522.179688,4529.102539,4402.563965,4447.563965,4961.000000,1.000000,26.000000,,,,0.000000,4.000000,4.000000,4.000000,4.000000,4.000000,4.000000,4.000000,4.000000,4.000000,4.000000,4.000000,4.000000,4.000000,4.000000,100.000000,,,,,,,,,,,,,,,,,,,,,,,,,,,,,,,,,,,,,,,,,,,,,,,,,,,,,,,,,,,,,,,,,,,,,,,,,,,,,,,,,,,,,,,,,,,,,,,,,,,,,,,,,,,,,,,,,,,,,
1768374777.463799,1768374777.464718,117.000000,0.000000,4301.153809,4309.487305,4342.692383,4331.410156,4310.256348,4310.384766,4307.051270,4326.025879,4321.410156,4292.179688,4518.974121,4519.102539,4398.205078,4447.820313,5228.000000,1.000000,26.000000,,,,0.000000,4.000000,4.000000,4.000000,4.000000,4.000000,4.000000,4.000000,4.000000,4.000000,4.000000,4.000000,4.000000,4.000000,4.000000,100.000000,,,,,,,,,,,,,,,,,,,,,,,,,,,,,,,,,,,,,,,,,,,,,,,,,,,,,,,,,,,,,,,,,,,,,,,,,,,,,,,,,,,,,,,,,,,,,,,,,,,,,,,,,,,,,,,,,,,,,
1768374777.471607,1768374777.472626,118.000000,0.000000,4309.743652,4315.512695,4351.282227,4342.563965,4314.102539,4320.641113,4308.717773,4330.897461,4324.102539,4294.871582,4521.538574,4520.000000,4400.000000,4446.025879,4388.000000,1.000000,26.000000,,,,0.000000,4.000000,4.000000,4.000000,4.000000,4.000000,4.000000,4.000000,4.000000,4.000000,4.000000,4.000000,4.000000,4.000000,4.000000,100.000000,,,,,,,,,,,,,,,,,,,,,,,,,,,,,,,,,,,,,,,,,,,,,,,,,,,,,,,,,,,,,,,,,,,,,,,,,,,,,,,,,,,,,,,,,,,,,,,,,,,,,,,,,,,,,,,,,,,,,
1768374777.479416,1768374777.480435,119.000000,0.000000,4312.307617,4317.179688,4350.769043,4343.589844,4318.205078,4323.589844,4317.051270,4333.333496,4325.641113,4297.948730,4523.077148,4526.538574,4399.615234,4448.333496,4657.000000,1.000000,26.000000,,,,0.000000,4.000000,4.000000,4.000000,4.000000,4.000000,4.000000,4.000000,4.000000,4.000000,4.000000,4.000000,4.000000,4.000000,4.000000,100.000000,,,,,,,,,,,,,,,,,,,,,,,,,,,,,,,,,,,,,,,,,,,,,,,,,,,,,,,,,,,,,,,,,,,,,,,,,,,,,,,,,,,,,,,,,,,,,,,,,,,,,,,,,,,,,,,,,,,,,
1768374777.487224,1768374777.488043,120.000000,0.000000,4303.205078,4312.051270,4341.538574,4331.538574,4315.384766,4315.641113,4318.077148,4336.922852,4326.666504,4300.128418,4524.487305,4525.897461,4402.051270,4455.384766,4961.000000,1.000000,26.000000,,,,0.000000,4.000000,4.000000,4.000000,4.000000,4.000000,4.000000,4.000000,4.000000,4.000000,4.000000,4.000000,4.000000,4.000000,4.000000,100.000000,,,,,,,,,,,,,,,,,,,,,,,,,,,,,,,,,,,,,,,,,,,,,,,,,,,,,,,,,,,,,,,,,,,,,,,,,,,,,,,,,,,,,,,,,,,,,,,,,,,,,,,,,,,,,,,,,,,,,
1768374777.495032,1768374777.495852,121.000000,0.000000,4303.846191,4312.051270,4344.615234,4329.487305,4313.333496,4316.410156,4313.461426,4340.000000,4334.615234,4307.692383,4531.410156,4530.256348,4408.333496,4460.384766,5228.000000,1.000000,26.000000,,,,0.000000,4.000000,4.000000,4.000000,4.000000,4.000000,4.000000,4.000000,4.000000,4.000000,4.000000,4.000000,4.000000,4.000000,4.000000,100.000000,,,,,,,,,,,,,,,,,,,,,,,,,,,,,,,,,,,,,,,,,,,,,,,,,,,,,,,,,,,,,,,,,,,,,,,,,,,,,,,,,,,,,,,,,,,,,,,,,,,,,,,,,,,,,,,,,,,,,
1768374777.502841,1768374777.503560,122.000000,0.000000,4316.666504,4316.794922,4354.871582,4340.256348,4317.051270,4317.436035,4309.487305,4335.000000,4338.077148,4313.333496,4540.384766,4537.692383,4411.922852,4464.487305,4388.000000,1.000000,26.000000,,,,0.000000,4.000000,4.000000,4.000000,4.000000,4.000000,4.000000,4.000000,4.000000,4.000000,4.000000,4.000000,4.000000,4.000000,4.000000,100.000000,,,,,,,,,,,,,,,,,,,,,,,,,,,,,,,,,,,,,,,,,,,,,,,,,,,,,,,,,,,,,,,,,,,,,,,,,,,,,,,,,,,,,,,,,,,,,,,,,,,,,,,,,,,,,,,,,,,,,
1768374777.510649,1768374777.511369,123.000000,0.000000,4323.205078,4320.128418,4356.666504,4345.512695,4319.615234,4312.948730,4314.487305,4332.948730,4330.384766,4311.794922,4538.846191,4536.153809,4411.666504,4466.666504,4657.000000,1.000000,26.000000,,,,0.000000,4.000000,4.000000,4.000000,4.000000,4.000000,4.000000,4.000000,4.000000,4.000000,4.000000,4.000000,4.000000,4.000000,4.000000,100.000000,,,,,,,,,,,,,,,,,,,,,,,,,,,,,,,,,,,,,,,,,,,,,,,,,,,,,,,,,,,,,,,,,,,,,,,,,,,,,,,,,,,,,,,,,,,,,,,,,,,,,,,,,,,,,,,,,,,,,
1768374777.518458,1768374777.519377,124.000000,0.000000,4319.871582,4322.051270,4353.205078,4344.358887,4319.230957,4317.051270,4320.128418,4334.743652,4324.871582,4307.820313,4528.846191,4530.512695,4411.282227,4462.692383,4961.000000,1.000000,26.000000,,,,0.000000,4.000000,4.000000,4.000000,4.000000,4.000000,4.000000,4.000000,4.000000,4.000000,4.000000,4.000000,4.000000,4.000000,4.000000,100.000000,,,,,,,,,,,,,,,,,,,,,,,,,,,,,,,,,,,,,,,,,,,,,,,,,,,,,,,,,,,,,,,,,,,,,,,,,,,,,,,,,,,,,,,,,,,,,,,,,,,,,,,,,,,,,,,,,,,,,
1768374777.526266,1768374777.527185,125.000000,0.000000,4318.589844,4319.358887,4352.436035,4345.897461,4317.436035,4321.922852,4314.102539,4329.743652,4324.871582,4304.487305,4528.461426,4527.820313,4413.205078,4459.743652,5228.000000,1.000000,26.000000,,,,0.000000,4.000000,4.000000,4.000000,4.000000,4.000000,4.000000,4.000000,4.000000,4.000000,4.000000,4.000000,4.000000,4.000000,4.000000,100.000000,,,,,,,,,,,,,,,,,,,,,,,,,,,,,,,,,,,,,,,,,,,,,,,,,,,,,,,,,,,,,,,,,,,,,,,,,,,,,,,,,,,,,,,,,,,,,,,,,,,,,,,,,,,,,,,,,,,,,
1768374777.534075,1768374777.535094,126.000000,0.000000,4323.717773,4315.000000,4357.051270,4346.410156,4312.948730,4317.179688,4311.282227,4328.589844,4326.025879,4302.948730,4536.538574,4529.358887,4416.153809,4465.256348,4388.000000,1.000000,26.000000,,,,0.000000,4.000000,4.000000,4.000000,4.000000,4.000000,4.000000,4.000000,4.000000,4.000000,4.000000,4.000000,4.000000,4.000000,4.000000,100.000000,,,,,,,,,,,,,,,,,,,,,,,,,,,,,,,,,,,,,,,,,,,,,,,,5.027058,0.606750,0.201401,0.401879,0.236181,0.904843,0.358872,0.116433,0.111813,0.094329,0.877409,0.205068,0.136192,0.249288,0.161461,0.638637,0.073525,0.184194,0.181304,0.084416,0.122679,0.068427,0.074975,0.115760,0.128454,0.096317,0.130193,0.118474,0.121031,0.111672,0.116951,0.230143,0.195598,0.282237,0.150758,0.185101,0.476179,0.224891,0.324344,0.118349,0.355042,0.617477,0.300957,0.316494,0.163117,0.333217,0.232191,0.257810,0.161782,0.128680,0.284785,0.332957,0.304660,0.253140,0.279686,0.809404,0.631083,0.362590,0.256796,0.378841,0.896281,0.181848,0.323236,0.265765,0.246006,5.406345,0.625214,0.255424,0.286000,0.319087
1768374777.541883,1768374777.542902,127.000000,0.000000,4325.256348,4315.641113,4359.102539,4344.615234,4312.436035,4315.256348,4317.051270,4334.615234,4329.743652,4307.307617,4539.487305,4535.641113,4414.871582,4471.538574,26.000000,1.000000,26.000000,,,,0.000000,4.000000,4.000000,4.000000,4.000000,4.000000,4.000000,4.000000,4.000000,4.000000,4.000000,4.000000,4.000000,4.000000,4.000000,100.000000,,,,,,,,,,,,,,,,,,,,,,,,,,,,,,,,,,,,,,,,,,,,,,,,,,,,,,,,,,,,,,,,,,,,,,,,,,,,,,,,,,,,,,,,,,,,,,,,,,,,,,,,,,,,,,,,,,,,,
1768374777.549692,1768374777.550911,0.000000,0.000000,4323.717773,4314.230957,4352.948730,4343.717773,4315.000000,4321.282227,4316.282227,4337.051270,4331.410156,4311.666504,4538.077148,4542.948730,4413.717773,4473.589844,4058.000000,1.000000,26.000000,,,,0.000000,4.000000,4.000000,4.000000,4.000000,4.000000,4.000000,4.000000,4.000000,4.000000,4.000000,4.000000,4.000000,4.000000,4.000000,100.000000,,,,,,,,,,,,,,,,,,,,,,,,,,,,,,,,,,,,,,,,,,,,,,,,,,,,,,,,,,,,,,,,,,,,,,,,,,,,,,,,,,,,,,,,,,,,,,,,,,,,,,,,,,,,,,,,,,,,,
1768374777.557500,1768374777.558719,1.000000,0.000000,4322.948730,4312.307617,4346.410156,4341.282227,4311.410156,4322.307617,4309.102539,4335.512695,4327.307617,4309.743652,4539.358887,4541.794922,4419.487305,4473.717773,4004.000000,1.000000,26.000000,,,,0.000000,4.000000,4.000000,4.000000,4.000000,4.000000,4.000000,4.000000,4.000000,4.000000,4.000000,4.000000,4.000000,4.000000,4.000000,100.000000,,,,,,,,,,,,,,,,,,,,,,,,,,,,,,,,,,,,,,,,,,,,,,,,,,,,,,,,,,,,,,,,,,,,,,,,,,,,,,,,,,,,,,,,,,,,,,,,,,,,,,,,,,,,,,,,,,,,,
1768374777.565308,1768374777.566627,2.000000,0.000000,4322.692383,4314.102539,4346.794922,4339.871582,4309.358887,4315.769043,4309.743652,4330.641113,4325.641113,4307.436035,4539.615234,4533.333496,4420.641113,4473.205078,3891.000000,1.000000,26.000000,,,,0.000000,4.000000,4.000000,4.000000,4.000000,4.000000,4.000000,4.000000,4.000000,4.000000,4.000000,4.000000,4.000000,4.000000,4.000000,100.000000,,,,,,,,,,,,,,,,,,,,,,,,,,,,,,,,,,,,,,,,,,,,,,,,,,,,,,,,,,,,,,,,,,,,,,,,,,,,,,,,,,,,,,,,,,,,,,,,,,,,,,,,,,,,,,,,,,,,,
1768374777.573117,1768374777.574436,3.000000,0.000000,4324.487305,4314.871582,4352.692383,4341.538574,4311.666504,4310.000000,4313.333496,4331.922852,4327.948730,4308.461426,4538.846191,4531.282227,4419.102539,4473.205078,3902.000000,1.000000,26.000000,,,,0.000000,4.000000,4.000000,4.000000,4.000000,4.000000,4.000000,4.000000,4.000000,4.000000,4.000000,4.000000,4.000000,4.000000,4.000000,100.000000,,,,,,,,,,,,,,,,,,,,,,,,,,,,,,,,,,,,,,,,,,,,,,,,,,,,,,,,,,,,,,,,,,,,,,,,,,,,,,,,,,,,,,,,,,,,,,,,,,,,,,,,,,,,,,,,,,,,,
1768374777.580925,1768374777.582044,4.000000,0.000000,4326.153809,4315.769043,4354.230957,4343.205078,4310.128418,4310.897461,4311.410156,4340.128418,4330.512695,4311.153809,4541.538574,4538.589844,4423.589844,4472.948730,3839.000000,1.000000,26.000000,,,,0.000000,4.000000,4.000000,4.000000,4.000000,4.000000,4.000000,4.000000,4.000000,4.000000,4.000000,4.000000,4.000000,4.000000,4.000000,100.000000,,,,,,,,,,,,,,,,,,,,,,,,,,,,,,,,,,,,,,,,,,,,,,,,,,,,,,,,,,,,,,,,,,,,,,,,,,,,,,,,,,,,,,,,,,,,,,,,,,,,,,,,,,,,,,,,,,,,,
1768374777.588734,1768374777.589853,5.000000,0.000000,4322.820313,4317.563965,4349.358887,4342.692383,4309.358887,4311.282227,4309.102539,4339.358887,4330.000000,4310.897461,4540.000000,4541.282227,4424.230957,4472.948730,3749.000000,1.000000,26.000000,,,,0.000000,4.000000,4.000000,4.000000,4.000000,4.000000,4.000000,4.000000,4.000000,4.000000,4.000000,4.000000,4.000000,4.000000,4.000000,100.000000,,,,,,,,,,,,,,,,,,,,,,,,,,,,,,,,,,,,,,,,,,,,,,,,,,,,,,,,,,,,,,,,,,,,,,,,,,,,,,,,,,,,,,,,,,,,,,,,,,,,,,,,,,,,,,,,,,,,,
1768374777.596542,1768374777.597561,6.000000,0.000000,4322.179688,4314.102539,4349.743652,4340.897461,4310.897461,4310.897461,4310.641113,4335.384766,4326.410156,4307.563965,4536.666504,4538.589844,4422.179688,4473.717773,3777.000000,1.000000,26.000000,,,,0.000000,4.000000,4.000000,4.000000,4.000000,4.000000,4.000000,4.000000,4.000000,4.000000,4.000000,4.000000,4.000000,4.000000,4.000000,100.000000,,,,,,,,,,,,,,,,,,,,,,,,,,,,,,,,,,,,,,,,,,,,,,,,,,,,,,,,,,,,,,,,,,,,,,,,,,,,,,,,,,,,,,,,,,,,,,,,,,,,,,,,,,,,,,,,,,,,,
1768374777.604351,1768374777.605370,7.000000,0.000000,4327.436035,4313.077148,4350.000000,4339.102539,4310.641113,4314.230957,4312.179688,4340.769043,4325.769043,4310.384766,4541.025879,4541.538574,4428.846191,4477.307617,3376.000000,1.000000,26.000000,,,,0.000000,4.000000,4.000000,4.000000,4.000000,4.000000,4.000000,4.000000,4.000000,4.000000,4.000000,4.000000,4.000000,4.000000,4.000000,100.000000,,,,,,,,,,,,,,,,,,,,,,,,,,,,,,,,,,,,,,,,,,,,,,,,,,,,,,,,,,,,,,,,,,,,,,,,,,,,,,,,,,,,,,,,,,,,,,,,,,,,,,,,,,,,,,,,,,,,,
1768374777.612159,1768374777.612979,8.000000,0.000000,4326.794922,4315.769043,4343.205078,4338.974121,4311.538574,4315.897461,4310.256348,4345.384766,4328.846191,4314.615234,4543.717773,4540.897461,4429.615234,4476.410156,3967.000000,1.000000,26.000000,,,,0.000000,4.000000,4.000000,4.000000,4.000000,4.000000,4.000000,4.000000,4.000000,4.000000,4.000000,4.000000,4.000000,4.000000,4.000000,100.000000,,,,,,,,,,,,,,,,,,,,,,,,,,,,,,,,,,,,,,,,,,,,,,,,,,,,,,,,,,,,,,,,,,,,,,,,,,,,,,,,,,,,,,,,,,,,,,,,,,,,,,,,,,,,,,,,,,,,,
1768374777.619968,1768374777.620787,9.000000,0.000000,4323.974121,4313.846191,4346.666504,4343.205078,4316.538574,4317.051270,4314.615234,4341.153809,4327.948730,4307.820313,4534.871582,4529.358887,4417.051270,4465.512695,3972.000000,1.000000,26.000000,,,,0.000000,4.000000,4.000000,4.000000,4.000000,4.000000,4.000000,4.000000,4.000000,4.000000,4.000000,4.000000,4.000000,4.000000,4.000000,100.000000,,,,,,,,,,,,,,,,,,,,,,,,,,,,,,,,,,,,,,,,,,,,,,,,,,,,,,,,,,,,,,,,,,,,,,,,,,,,,,,,,,,,,,,,,,,,,,,,,,,,,,,,,,,,,,,,,,,,,
1768374777.627776,1768374777.628496,10.000000,0.000000,4326.922852,4312.820313,4358.846191,4348.974121,4316.538574,4321.282227,4320.512695,4336.282227,4321.538574,4295.897461,4528.974121,4523.974121,4411.922852,4459.230957,4388.000000,1.000000,26.000000,,,,0.000000,4.000000,4.000000,4.000000,4.000000,4.000000,4.000000,4.000000,4.000000,4.000000,4.000000,4.000000,4.000000,4.000000,4.000000,100.000000,,,,,,,,,,,,,,,,,,,,,,,,,,,,,,,,,,,,,,,,,,,,,,,,,,,,,,,,,,,,,,,,,,,,,,,,,,,,,,,,,,,,,,,,,,,,,,,,,,,,,,,,,,,,,,,,,,,,,
1768374777.635584,1768374777.636304,11.000000,0.000000,4327.820313,4314.102539,4357.051270,4346.794922,4312.307617,4316.538574,4315.128418,4332.692383,4320.512695,4298.077148,4535.384766,4530.641113,4415.256348,4467.820313,4657.000000,1.000000,26.000000,,,,0.000000,4.000000,4.000000,4.000000,4.000000,4.000000,4.000000,4.000000,4.000000,4.000000,4.000000,4.000000,4.000000,4.000000,4.000000,100.000000,,,,,,,,,,,,,,,,,,,,,,,,,,,,,,,,,,,,,,,,,,,,,,,,,,,,,,,,,,,,,,,,,,,,,,,,,,,,,,,,,,,,,,,,,,,,,,,,,,,,,,,,,,,,,,,,,,,,,
1768374777.643393,1768374777.643913,12.000000,0.000000,4326.410156,4312.692383,4350.641113,4341.794922,4310.897461,4308.205078,4308.205078,4330.897461,4325.641113,4305.128418,4539.743652,4532.563965,4417.179688,4476.025879,4964.000000,1.000000,26.000000,,,,0.000000,4.000000,4.000000,4.000000,4.000000,4.000000,4.000000,4.000000,4.000000,4.000000,4.000000,4.000000,4.000000,4.000000,4.000000,100.000000,,,,,,,,,,,,,,,,,,,,,,,,,,,,,,,,,,,,,,,,,,,,,,,,,,,,,,,,,,,,,,,,,,,,,,,,,,,,,,,,,,,,,,,,,,,,,,,,,,,,,,,,,,,,,,,,,,,,,
1768374777.651201,1768374777.651721,13.000000,0.000000,4325.769043,4313.077148,4350.512695,4342.179688,4314.358887,4315.000000,4311.410156,4336.666504,4327.563965,4302.948730,4535.000000,4527.179688,4415.641113,4469.358887,5240.000000,1.000000,26.000000,,,,0.000000,4.000000,4.000000,4.000000,4.000000,4.000000,4.000000,4.000000,4.000000,4.000000,4.000000,4.000000,4.000000,4.000000,4.000000,100.000000,,,,,,,,,,,,,,,,,,,,,,,,,,,,,,,,,,,,,,,,,,,,,,,,,,,,,,,,,,,,,,,,,,,,,,,,,,,,,,,,,,,,,,,,,,,,,,,,,,,,,,,,,,,,,,,,,,,,,
1768374777.659010,1768374777.659629,14.000000,0.000000,4326.666504,4317.436035,4350.512695,4346.666504,4321.922852,4325.128418,4318.846191,4341.538574,4326.666504,4305.384766,4534.615234,4527.948730,4412.692383,4463.333496,4388.000000,1.000000,26.000000,,,,0.000000,4.000000,4.000000,4.000000,4.000000,4.000000,4.000000,4.000000,4.000000,4.000000,4.000000,4.000000,4.000000,4.000000,4.000000,100.000000,1.000000,75.000000,4.000000,4.000000,4.000000,4.000000,1.000000,4.000000,4.000000,4.000000,4.000000,4.000000,4.000000,4.000000,4.000000,4.000000,,,,,,,,,,,,,,,,,,,,,,,,,,,,,,,,5.525327,0.536943,0.222872,0.434817,0.239231,1.011318,0.366068,0.142304,0.108032,0.094407,1.085338,0.180395,0.153459,0.259238,0.155078,0.748638,0.076711,0.200094,0.177043,0.085948,0.133203,0.069962,0.078050,0.121768,0.128878,0.104321,0.148172,0.123448,0.117413,0.102259,0.116381,0.246993,0.199148,0.284519,0.144288,0.249194,0.638760,0.243938,0.327171,0.108311,0.432980,0.794387,0.314211,0.301442,0.143394,0.470859,0.258899,0.266754,0.169980,0.130684,0.319307,0.335024,0.313196,0.243380,0.252988,1.018566,0.686723,0.383726,0.240873,0.348747,0.764435,0.177335,0.314499,0.269189,0.229499,5.329684,0.492887,0.252503,0.285886,0.316819
1768374777.666818,1768374777.667438,15.000000,0.000000,4327.948730,4321.538574,4350.384766,4349.487305,4321.025879,4317.692383,4315.256348,4336.153809,4325.256348,4307.563965,4537.307617,4531.922852,4413.205078,4465.000000,4657.000000,1.000000,26.000000,,,,0.000000,4.000000,4.000000,4.000000,4.000000,4.000000,4.000000,4.000000,4.000000,4.000000,4.000000,4.000000,4.000000,4.000000,4.000000,100.000000,,,,,,,,,,,,,,,,,,,,,,,,,,,,,,,,,,,,,,,,,,,,,,,,,,,,,,,,,,,,,,,,,,,,,,,,,,,,,,,,,,,,,,,,,,,,,,,,,,,,,,,,,,,,,,,,,,,,,
1768374777.674627,1768374777.675446,16.000000,0.000000,4324.743652,4314.358887,4346.410156,4346.538574,4312.948730,4309.615234,4310.384766,4330.128418,4321.922852,4301.922852,4531.922852,4527.051270,4414.230957,4463.077148,0.000000,1.000000,26.000000,,,,0.000000,4.000000,4.000000,4.000000,4.000000,4.000000,4.000000,4.000000,4.000000,4.000000,4.000000,4.000000,4.000000,4.000000,4.000000,100.000000,,,,,,,,,,,,,,,,,,,,,,,,,,,,,,,,,,,,,,,,,,,,,,,,,,,,,,,,,,,,,,,,,,,,,,,,,,,,,,,,,,,,,,,,,,,,,,,,,,,,,,,,,,,,,,,,,,,,,
1768374777.682435,1768374777.683255,17.000000,0.000000,4321.666504,4306.153809,4341.538574,4340.000000,4312.563965,4318.717773,4317.436035,4334.743652,4321.410156,4300.384766,4521.922852,4520.384766,4410.897461,4458.461426,0.000000,1.000000,26.000000,,,,0.000000,4.000000,4.000000,4.000000,4.000000,4.000000,4.000000,4.000000,4.000000,4.000000,4.000000,4.000000,4.000000,4.000000,4.000000,100.000000,,,,,,,,,,,,,,,,,,,,,,,,,,,,,,,,,,,,,,,,,,,,,,,,,,,,,,,,,,,,,,,,,,,,,,,,,,,,,,,,,,,,,,,,,,,,,,,,,,,,,,,,,,,,,,,,,,,,,
1768374777.690244,1768374777.690963,18.000000,0.000000,4322.179688,4310.128418,4344.743652,4336.538574,4316.025879,4323.077148,4319.358887,4338.589844,4322.692383,4302.563965,4519.358887,4522.179688,4405.641113,4457.563965,0.000000,1.000000,26.000000,,,,0.000000,4.000000,4.000000,4.000000,4.000000,4.000000,4.000000,4.000000,4.000000,4.000000,4.000000,4.000000,4.000000,4.000000,4.000000,100.000000,,,,,,,,,,,,,,,,,,,,,,,,,,,,,,,,,,,,,,,,,,,,,,,,,,,,,,,,,,,,,,,,,,,,,,,,,,,,,,,,,,,,,,,,,,,,,,,,,,,,,,,,,,,,,,,,,,,,,
1768374777.698052,1768374777.698772,19.000000,0.000000,4323.846191,4313.205078,4351.025879,4338.846191,4313.974121,4311.410156,4310.769043,4334.743652,4325.897461,4305.641113,4530.512695,4528.846191,4409.102539,4460.000000,0.000000,1.000000,26.000000,,,,0.000000,4.000000,4.000000,4.000000,4.000000,4.000000,4.000000,4.000000,4.000000,4.000000,4.000000,4.000000,4.000000,4.000000,4.000000,100.000000,,,,,,,,,,,,,,,,,,,,,,,,,,,,,,,,,,,,,,,,,,,,,,,,,,,,,,,,,,,,,,,,,,,,,,,,,,,,,,,,,,,,,,,,,,,,,,,,,,,,,,,,,,,,,,,,,,,,,
1768374777.705861,1768374777.706380,20.000000,0.000000,4323.717773,4308.077148,4350.384766,4340.384766,4312.051270,4306.794922,4307.436035,4334.358887,4325.000000,4307.051270,4537.692383,4533.974121,4415.128418,4462.563965,0.000000,1.000000,26.000000,,,,0.000000,4.000000,4.000000,4.000000,4.000000,4.000000,4.000000,4.000000,4.000000,4.000000,4.000000,4.000000,4.000000,4.000000,4.000000,100.000000,,,,,,,,,,,,,,,,,,,,,,,,,,,,,,,,,,,,,,,,,,,,,,,,,,,,,,,,,,,,,,,,,,,,,,,,,,,,,,,,,,,,,,,,,,,,,,,,,,,,,,,,,,,,,,,,,,,,,
1768374777.713669,1768374777.714189,21.000000,0.000000,4322.948730,4311.153809,4350.256348,4345.000000,4320.000000,4315.000000,4312.436035,4335.128418,4316.410156,4301.794922,4527.179688,4526.922852,4407.820313,4461.538574,0.000000,1.000000,26.000000,,,,0.000000,4.000000,4.000000,4.000000,4.000000,4.000000,4.000000,4.000000,4.000000,4.000000,4.000000,4.000000,4.000000,4.000000,4.000000,100.000000,,,,,,,,,,,,,,,,,,,,,,,,,,,,,,,,,,,,,,,,,,,,,,,,,,,,,,,,,,,,,,,,,,,,,,,,,,,,,,,,,,,,,,,,,,,,,,,,,,,,,,,,,,,,,,,,,,,,,
1768374777.721477,1768374777.722097,22.000000,0.000000,4323.333496,4320.000000,4355.512695,4352.051270,4326.794922,4321.538574,4316.538574,4332.692383,4313.333496,4297.820313,4518.846191,4519.871582,4400.000000,4454.615234,0.000000,1.000000,26.000000,,,,0.000000,4.000000,4.000000,4.000000,4.000000,4.000000,4.000000,4.000000,4.000000,4.000000,4.000000,4.000000,4.000000,4.000000,4.000000,100.000000,,,,,,,,,,,,,,,,,,,,,,,,,,,,,,,,,,,,,,,,,,,,,,,,,,,,,,,,,,,,,,,,,,,,,,,,,,,,,,,,,,,,,,,,,,,,,,,,,,,,,,,,,,,,,,,,,,,,,
1768374777.729286,1768374777.729905,23.000000,0.000000,4325.512695,4318.333496,4358.333496,4350.384766,4321.153809,4323.974121,4317.436035,4338.205078,4320.769043,4304.871582,4530.000000,4534.230957,4409.230957,4458.589844,0.000000,1.000000,26.000000,,,,0.000000,4.000000,4.000000,4.000000,4.000000,4.000000,4.000000,4.000000,4.000000,4.000000,4.000000,4.000000,4.000000,4.000000,4.000000,100.000000,,,,,,,,,,,,,,,,,,,,,,,,,,,,,,,,,,,,,,,,,,,,,,,,,,,,,,,,,,,,,,,,,,,,,,,,,,,,,,,,,,,,,,,,,,,,,,,,,,,,,,,,,,,,,,,,,,,,,
