title:remote_28, start timestamp:1768375348.417317, stop timestamp:1768375379.588627, headset type:EPOCX, headset serial:E5020E3B, headset firmware:730, channels:156, sampling rate:eeg_128;pm_0.1;pow_8, samples:3993      , version:2.2, 
Timestamp,OriginalTimestamp,EEG.Counter,EEG.Interpolated,EEG.AF3,EEG.F7,EEG.F3,EEG.FC5,EEG.T7,EEG.P7,EEG.O1,EEG.O2,EEG.P8,EEG.T8,EEG.FC6,EEG.F4,EEG.F8,EEG.AF4,EEG.RawCq,EEG.Battery,EEG.BatteryPercent,MarkerIndex,MarkerType,MarkerValueInt,EEG.MarkerHardware,CQ.AF3,CQ.F7,CQ.F3,CQ.FC5,CQ.T7,CQ.P7,CQ.O1,CQ.O2,CQ.P8,CQ.T8,CQ.FC6,CQ.F4,CQ.F8,CQ.AF4,CQ.Overall,EQ.SampleRateQuality,EQ.OVERALL,EQ.AF3,EQ.F7,EQ.F3,EQ.FC5,EQ.T7,EQ.P7,EQ.O1,EQ.O2,EQ.P8,EQ.T8,EQ.FC6,EQ.F4,EQ.F8,EQ.AF4,PM.Attention.IsActive,PM.Attention.Scaled,PM.Attention.Raw,PM.Attention.Min,PM.Attention.Max,PM.Engagement.IsActive,PM.Engagement.Scaled,PM.Engagement.Raw,PM.Engagement.Min,PM.Engagement.Max,PM.Excitement.IsActive,PM.Excitement.Scaled,PM.Excitement.Raw,PM.Excitement.Min,PM.Excitement.Max,PM.LongTermExcitement,PM.Stress.IsActive,PM.Stress.Scaled,PM.Stress.Raw,PM.Stress.Min,PM.Stress.Max,PM.Relaxation.IsActive,PM.Relaxation.Scaled,PM.Relaxation.Raw,PM.Relaxation.Min,PM.Relaxation.Max,PM.Interest.IsActive,PM.Interest.Scaled,PM.Interest.Raw,PM.Interest.Min,PM.Interest.Max,POW.AF3.Theta,POW.AF3.Alpha,POW.AF3.BetaL,POW.AF3.BetaH,POW.AF3.Gamma,POW.F7.Theta,POW.F7.Alpha,POW.F7.BetaL,POW.F7.BetaH,POW.F7.Gamma,POW.F3.Theta,POW.F3.Alpha,POW.F3.BetaL,POW.F3.BetaH,POW.F3.Gamma,POW.FC5.Theta,POW.FC5.Alpha,POW.FC5.BetaL,POW.FC5.BetaH,POW.FC5.Gamma,POW.T7.Theta,POW.T7.Alpha,POW.T7.BetaL,POW.T7.BetaH,POW.T7.Gamma,POW.P7.Theta,POW.P7.Alpha,POW.P7.BetaL,POW.P7.BetaH,POW.P7.Gamma,POW.O1.Theta,POW.O1.Alpha,POW.O1.BetaL,POW.O1.BetaH,POW.O1.Gamma,POW.O2.Theta,POW.O2.Alpha,POW.O2.BetaL,POW.O2.BetaH,POW.O2.Gamma,POW.P8.Theta,POW.P8.Alpha,POW.P8.BetaL,POW.P8.BetaH,POW.P8.Gamma,POW.T8.Theta,POW.T8.Alpha,POW.T8.BetaL,POW.T8.BetaH,POW.T8.Gamma,POW.FC6.Theta,POW.FC6.Alpha,POW.FC6.BetaL,POW.FC6.BetaH,POW.FC6.Gamma,POW.F4.Theta,POW.F4.Alpha,POW.F4.BetaL,POW.F4.BetaH,POW.F4.Gamma,POW.F8.Theta,POW.F8.Alpha,POW.F8.BetaL,POW.F8.BetaH,POW.F8.Gamma,POW.AF4.Theta,POW.AF4.Alpha,POW.AF4.BetaL,POW.AF4.BetaH,POW.AF4.Gamma
1768375348.417317,1768375348.418254,21.000000,0.000000,4321.666504,4313.077148,4338.846191,4330.000000,4307.307617,4300.769043,4309.487305,4321.794922,4312.820313,4298.461426,4520.384766,4528.077148,4410.897461,4464.102539,0.000000,1.000000,24.000000,,,,0.000000,4.000000,4.000000,4.000000,4.000000,4.000000,4.000000,4.000000,4.000000,4.000000,4.000000,4.000000,4.000000,4.000000,4.000000,100.000000,,,,,,,,,,,,,,,,,,,,,,,,,,,,,,,,,,,,,,,,,,,,,,,,,,,,,,,,,,,,,,,,,,,,,,,,,,,,,,,,,,,,,,,,,,,,,,,,,,,,,,,,,,,,,,,,,,,,,
1768375348.425125,1768375348.426163,22.000000,0.000000,4326.794922,4314.871582,4343.333496,4331.538574,4302.179688,4296.282227,4306.282227,4326.538574,4317.948730,4307.307617,4532.563965,4539.743652,4411.025879,4473.461426,0.000000,1.000000,24.000000,,,,0.000000,4.000000,4.000000,4.000000,4.000000,4.000000,4.000000,4.000000,4.000000,4.000000,4.000000,4.000000,4.000000,4.000000,4.000000,100.000000,,,,,,,,,,,,,,,,,,,,,,,,,,,,,,,,,,,,,,,,,,,,,,,,,,,,,,,,,,,,,,,,,,,,,,,,,,,,,,,,,,,,,,,,,,,,,,,,,,,,,,,,,,,,,,,,,,,,,
1768375348.432934,1768375348.433971,23.000000,0.000000,4330.641113,4319.615234,4349.487305,4336.794922,4301.666504,4301.025879,4309.743652,4327.563965,4317.820313,4310.000000,4542.179688,4546.282227,4418.333496,4478.846191,0.000000,1.000000,24.000000,,,,0.000000,4.000000,4.000000,4.000000,4.000000,4.000000,4.000000,4.000000,4.000000,4.000000,4.000000,4.000000,4.000000,4.000000,4.000000,100.000000,,,,,,,,,,,,,,,,,,,,,,,,,,,,,,,,,,,,,,,,,,,,,,,,,,,,,,,,,,,,,,,,,,,,,,,,,,,,,,,,,,,,,,,,,,,,,,,,,,,,,,,,,,,,,,,,,,,,,
1768375348.440742,1768375348.441580,24.000000,0.000000,4328.717773,4319.615234,4346.153809,4341.025879,4306.666504,4309.743652,4313.461426,4322.820313,4313.974121,4303.461426,4536.794922,4534.743652,4423.717773,4473.974121,0.000000,1.000000,24.000000,,,,0.000000,4.000000,4.000000,4.000000,4.000000,4.000000,4.000000,4.000000,4.000000,4.000000,4.000000,4.000000,4.000000,4.000000,4.000000,100.000000,,,,,,,,,,,,,,,,,,,,,,,,,,,,,,,,,,,,,,,,,,,,,,,,,,,,,,,,,,,,,,,,,,,,,,,,,,,,,,,,,,,,,,,,,,,,,,,,,,,,,,,,,,,,,,,,,,,,,
1768375348.448551,1768375348.449388,25.000000,0.000000,4324.230957,4312.692383,4340.512695,4337.051270,4304.102539,4308.974121,4311.922852,4321.410156,4313.077148,4296.282227,4528.974121,4525.641113,4416.922852,4464.871582,0.000000,1.000000,24.000000,,,,0.000000,4.000000,4.000000,4.000000,4.000000,4.000000,4.000000,4.000000,4.000000,4.000000,4.000000,4.000000,4.000000,4.000000,4.000000,100.000000,,,,,,,,,,,,,,,,,,,,,,,,,,,,,,,,,,,,,,,,,,,,,,,,,,,,,,,,,,,,,,,,,,,,,,,,,,,,,,,,,,,,,,,,,,,,,,,,,,,,,,,,,,,,,,,,,,,,,
1768375348.456359,1768375348.457097,26.000000,0.000000,4325.512695,4309.615234,4342.436035,4329.871582,4299.102539,4302.563965,4310.000000,4320.897461,4312.179688,4296.153809,4526.538574,4531.794922,4409.615234,4460.897461,0.000000,1.000000,24.000000,,,,0.000000,4.000000,4.000000,4.000000,4.000000,4.000000,4.000000,4.000000,4.000000,4.000000,4.000000,4.000000,4.000000,4.000000,4.000000,100.000000,,,,,,,,,,,,,,,,,,,,,,,,,,,,,,,,,,,,,,,,,,,,,,,,,,,,,,,,,,,,,,,,,,,,,,,,,,,,,,,,,,,,,,,,,,,,,,,,,,,,,,,,,,,,,,,,,,,,,
1768375348.464167,1768375348.464905,27.000000,0.000000,4327.051270,4311.538574,4341.153809,4330.000000,4302.307617,4299.743652,4307.051270,4313.077148,4306.282227,4298.589844,4524.487305,4532.436035,4409.230957,4462.179688,0.000000,1.000000,24.000000,,,,0.000000,4.000000,4.000000,4.000000,4.000000,4.000000,4.000000,4.000000,4.000000,4.000000,4.000000,4.000000,4.000000,4.000000,4.000000,100.000000,,,,,,,,,,,,,,,,,,,,,,,,,,,,,,,,,,,,,,,,,,,,,,,,,,,,,,,,,,,,,,,,,,,,,,,,,,,,,,,,,,,,,,,,,,,,,,,,,,,,,,,,,,,,,,,,,,,,,
1768375348.471976,1768375348.472913,28.000000,0.000000,4323.846191,4313.974121,4336.794922,4334.871582,4308.333496,4302.436035,4303.461426,4307.051270,4300.512695,4292.179688,4519.615234,4520.128418,4410.256348,4461.538574,0.000000,1.000000,24.000000,,,,0.000000,4.000000,4.000000,4.000000,4.000000,4.000000,4.000000,4.000000,4.000000,4.000000,4.000000,4.000000,4.000000,4.000000,4.000000,100.000000,,,,,,,,,,,,,,,,,,,,,,,,,,,,,,,,,,,,,,,,,,,,,,,,,,,,,,,,,,,,,,,,,,,,,,,,,,,,,,,,,,,,,,,,,,,,,,,,,,,,,,,,,,,,,,,,,,,,,
1768375348.479784,1768375348.480722,29.000000,0.000000,4323.974121,4315.256348,4337.948730,4335.256348,4308.461426,4302.948730,4299.871582,4308.846191,4303.461426,4288.717773,4515.897461,4515.128418,4406.025879,4457.820313,0.000000,1.000000,24.000000,,,,0.000000,4.000000,4.000000,4.000000,4.000000,4.000000,4.000000,4.000000,4.000000,4.000000,4.000000,4.000000,4.000000,4.000000,4.000000,100.000000,,,,,,,,,,,,,,,,,,,,,,,,,,,,,,,,,,,,,,,,,,,,,,,,,,,,,,,,,,,,,,,,,,,,,,,,,,,,,,,,,,,,,,,,,,,,,,,,,,,,,,,,,,,,,,,,,,,,,
1768375348.487593,1768375348.488430,30.000000,0.000000,4327.563965,4313.589844,4340.256348,4332.051270,4303.846191,4298.717773,4298.461426,4312.948730,4309.230957,4294.358887,4520.897461,4525.000000,4402.692383,4459.102539,0.000000,1.000000,24.000000,,,,0.000000,4.000000,4.000000,4.000000,4.000000,4.000000,4.000000,4.000000,4.000000,4.000000,4.000000,4.000000,4.000000,4.000000,4.000000,100.000000,,,,,,,,,,,,,,,,,,,,,,,,,,,,,,,,,,,,,,,,,,,,,,,,1.027500,0.346552,0.223726,0.221455,0.127936,1.706248,0.686859,0.259462,0.110622,0.091175,0.382840,0.124644,0.222986,0.167703,0.157668,0.441964,0.241363,0.205441,0.104887,0.088478,0.268835,0.130957,0.299393,0.111121,0.162023,0.165981,0.233586,0.128556,0.084567,0.121094,0.342538,0.351885,0.278698,0.139997,0.144158,0.452731,0.190939,0.198791,0.089615,0.058247,0.616062,0.455924,0.316357,0.103730,0.060420,0.690468,0.504652,0.317380,0.187000,0.104342,0.933379,0.413351,0.390285,0.308031,0.110861,0.634983,0.223996,0.124542,0.232510,0.154198,1.145362,0.462784,0.209992,0.290197,0.157643,0.436567,0.272048,0.303575,0.268505,0.124078
1768375348.495401,1768375348.496239,31.000000,0.000000,4323.974121,4312.179688,4339.230957,4333.717773,4301.794922,4297.948730,4299.743652,4315.128418,4307.563965,4295.897461,4527.179688,4531.025879,4405.512695,4466.410156,0.000000,1.000000,24.000000,,,,0.000000,4.000000,4.000000,4.000000,4.000000,4.000000,4.000000,4.000000,4.000000,4.000000,4.000000,4.000000,4.000000,4.000000,4.000000,100.000000,,,,,,,,,,,,,,,,,,,,,,,,,,,,,,,,,,,,,,,,,,,,,,,,,,,,,,,,,,,,,,,,,,,,,,,,,,,,,,,,,,,,,,,,,,,,,,,,,,,,,,,,,,,,,,,,,,,,,
1768375348.503210,1768375348.503847,32.000000,0.000000,4327.563965,4316.794922,4342.179688,4341.410156,4304.230957,4300.641113,4300.128418,4313.717773,4307.179688,4295.000000,4524.871582,4527.820313,4413.333496,4473.589844,0.000000,1.000000,24.000000,,,,0.000000,4.000000,4.000000,4.000000,4.000000,4.000000,4.000000,4.000000,4.000000,4.000000,4.000000,4.000000,4.000000,4.000000,4.000000,100.000000,,,,,,,,,,,,,,,,,,,,,,,,,,,,,,,,,,,,,,,,,,,,,,,,,,,,,,,,,,,,,,,,,,,,,,,,,,,,,,,,,,,,,,,,,,,,,,,,,,,,,,,,,,,,,,,,,,,,,
1768375348.511018,1768375348.511656,33.000000,0.000000,4339.230957,4321.922852,4349.230957,4344.230957,4306.153809,4302.051270,4300.897461,4314.230957,4308.333496,4292.948730,4523.846191,4528.846191,4415.769043,4477.179688,0.000000,1.000000,24.000000,,,,0.000000,4.000000,4.000000,4.000000,4.000000,4.000000,4.000000,4.000000,4.000000,4.000000,4.000000,4.000000,4.000000,4.000000,4.000000,100.000000,,,,,,,,,,,,,,,,,,,,,,,,,,,,,,,,,,,,,,,,,,,,,,,,,,,,,,,,,,,,,,,,,,,,,,,,,,,,,,,,,,,,,,,,,,,,,,,,,,,,,,,,,,,,,,,,,,,,,
1768375348.518827,1768375348.519364,34.000000,0.000000,4333.461426,4317.436035,4350.000000,4338.974121,4304.743652,4299.743652,4300.128418,4318.717773,4310.897461,4291.922852,4526.410156,4535.128418,4410.128418,4473.205078,0.000000,1.000000,24.000000,,,,0.000000,4.000000,4.000000,4.000000,4.000000,4.000000,4.000000,4.000000,4.000000,4.000000,4.000000,4.000000,4.000000,4.000000,4.000000,100.000000,,,,,,,,,,,,,,,,,,,,,,,,,,,,,,,,,,,,,,,,,,,,,,,,,,,,,,,,,,,,,,,,,,,,,,,,,,,,,,,,,,,,,,,,,,,,,,,,,,,,,,,,,,,,,,,,,,,,,
1768375348.526635,1768375348.527173,35.000000,0.000000,4323.461426,4310.769043,4342.948730,4334.358887,4301.538574,4296.153809,4294.743652,4315.769043,4311.922852,4296.282227,4525.769043,4533.717773,4408.589844,4464.743652,0.000000,1.000000,24.000000,,,,0.000000,4.000000,4.000000,4.000000,4.000000,4.000000,4.000000,4.000000,4.000000,4.000000,4.000000,4.000000,4.000000,4.000000,4.000000,100.000000,,,,,,,,,,,,,,,,,,,,,,,,,,,,,,,,,,,,,,,,,,,,,,,,,,,,,,,,,,,,,,,,,,,,,,,,,,,,,,,,,,,,,,,,,,,,,,,,,,,,,,,,,,,,,,,,,,,,,
1768375348.534444,1768375348.535181,36.000000,0.000000,4329.615234,4313.333496,4340.897461,4337.692383,4301.794922,4298.846191,4295.897461,4306.666504,4306.794922,4299.743652,4525.128418,4526.410156,4410.897461,4462.051270,0.000000,1.000000,24.000000,,,,0.000000,4.000000,4.000000,4.000000,4.000000,4.000000,4.000000,4.000000,4.000000,4.000000,4.000000,4.000000,4.000000,4.000000,4.000000,100.000000,,,,,,,,,,,,,,,,,,,,,,,,,,,,,,,,,,,,,,,,,,,,,,,,,,,,,,,,,,,,,,,,,,,,,,,,,,,,,,,,,,,,,,,,,,,,,,,,,,,,,,,,,,,,,,,,,,,,,
1768375348.542252,1768375348.542990,37.000000,0.000000,4333.717773,4319.743652,4345.897461,4346.922852,4310.000000,4306.025879,4305.384766,4311.153809,4307.820313,4299.871582,4526.025879,4525.512695,4413.846191,4466.153809,0.000000,1.000000,24.000000,,,,0.000000,4.000000,4.000000,4.000000,4.000000,4.000000,4.000000,4.000000,4.000000,4.000000,4.000000,4.000000,4.000000,4.000000,4.000000,100.000000,,,,,,,,,,,,,,,,,,,,,,,,,,,,,,,,,,,,,,,,,,,,,,,,,,,,,,,,,,,,,,,,,,,,,,,,,,,,,,,,,,,,,,,,,,,,,,,,,,,,,,,,,,,,,,,,,,,,,
1768375348.550060,1768375348.550698,38.000000,0.000000,4325.256348,4314.871582,4344.102539,4346.025879,4314.230957,4306.538574,4305.384766,4319.487305,4313.717773,4297.051270,4526.025879,4526.410156,4413.077148,4464.230957,0.000000,1.000000,24.000000,,,,0.000000,4.000000,4.000000,4.000000,4.000000,4.000000,4.000000,4.000000,4.000000,4.000000,4.000000,4.000000,4.000000,4.000000,4.000000,100.000000,,,,,,,,,,,,,,,,,,,,,,,,,,,,,,,,,,,,,,,,,,,,,,,,,,,,,,,,,,,,,,,,,,,,,,,,,,,,,,,,,,,,,,,,,,,,,,,,,,,,,,,,,,,,,,,,,,,,,
1768375348.557869,1768375348.558507,39.000000,0.000000,4321.666504,4306.666504,4338.077148,4334.871582,4306.153809,4303.846191,4300.769043,4313.974121,4310.512695,4293.333496,4524.230957,4524.230957,4410.897461,4457.563965,0.000000,1.000000,24.000000,,,,0.000000,4.000000,4.000000,4.000000,4.000000,4.000000,4.000000,4.000000,4.000000,4.000000,4.000000,4.000000,4.000000,4.000000,4.000000,100.000000,,,,,,,,,,,,,,,,,,,,,,,,,,,,,,,,,,,,,,,,,,,,,,,,,,,,,,,,,,,,,,,,,,,,,,,,,,,,,,,,,,,,,,,,,,,,,,,,,,,,,,,,,,,,,,,,,,,,,
1768375348.565677,1768375348.566115,40.000000,0.000000,4324.743652,4309.358887,4340.256348,4332.692383,4300.256348,4302.179688,4304.871582,4310.000000,4304.871582,4293.077148,4523.717773,4522.179688,4411.922852,4460.000000,0.000000,1.000000,24.000000,,,,0.000000,4.000000,4.000000,4.000000,4.000000,4.000000,4.000000,4.000000,4.000000,4.000000,4.000000,4.000000,4.000000,4.000000,4.000000,100.000000,,,,,,,,,,,,,,,,,,,,,,,,,,,,,,,,,,,,,,,,,,,,,,,,,,,,,,,,,,,,,,,,,,,,,,,,,,,,,,,,,,,,,,,,,,,,,,,,,,,,,,,,,,,,,,,,,,,,,
1768375348.573485,1768375348.573924,41.000000,0.000000,4325.128418,4311.025879,4342.051270,4337.436035,4302.051270,4298.974121,4302.820313,4310.769043,4306.666504,4293.846191,4523.589844,4520.897461,4411.410156,4463.846191,0.000000,1.000000,24.000000,,,,0.000000,4.000000,4.000000,4.000000,4.000000,4.000000,4.000000,4.000000,4.000000,4.000000,4.000000,4.000000,4.000000,4.000000,4.000000,100.000000,,,,,,,,,,,,,,,,,,,,,,,,,,,,,,,,,,,,,,,,,,,,,,,,,,,,,,,,,,,,,,,,,,,,,,,,,,,,,,,,,,,,,,,,,,,,,,,,,,,,,,,,,,,,,,,,,,,,,
1768375348.581294,1768375348.581632,42.000000,0.000000,4325.897461,4305.384766,4337.436035,4334.487305,4302.692383,4302.179688,4301.410156,4310.256348,4309.871582,4294.230957,4524.487305,4523.846191,4411.025879,4462.692383,0.000000,1.000000,24.000000,,,,0.000000,4.000000,4.000000,4.000000,4.000000,4.000000,4.000000,4.000000,4.000000,4.000000,4.000000,4.000000,4.000000,4.000000,4.000000,100.000000,,,,,,,,,,,,,,,,,,,,,,,,,,,,,,,,,,,,,,,,,,,,,,,,,,,,,,,,,,,,,,,,,,,,,,,,,,,,,,,,,,,,,,,,,,,,,,,,,,,,,,,,,,,,,,,,,,,,,
1768375348.589102,1768375348.589441,43.000000,0.000000,4327.051270,4303.333496,4337.563965,4331.410156,4302.051270,4307.307617,4306.282227,4312.820313,4311.410156,4296.025879,4526.282227,4531.153809,4412.563965,4462.820313,0.000000,1.000000,24.000000,,,,0.000000,4.000000,4.000000,4.000000,4.000000,4.000000,4.000000,4.000000,4.000000,4.000000,4.000000,4.000000,4.000000,4.000000,4.000000,100.000000,,,,,,,,,,,,,,,,,,,,,,,,,,,,,,,,,,,,,,,,,,,,,,,,,,,,,,,,,,,,,,,,,,,,,,,,,,,,,,,,,,,,,,,,,,,,,,,,,,,,,,,,,,,,,,,,,,,,,
1768375348.596911,1768375348.597449,44.000000,0.000000,4325.128418,4305.897461,4341.153809,4334.487305,4302.051270,4306.538574,4303.589844,4313.461426,4310.641113,4292.179688,4524.743652,4529.230957,4413.333496,4461.922852,0.000000,1.000000,24.000000,,,,0.000000,4.000000,4.000000,4.000000,4.000000,4.000000,4.000000,4.000000,4.000000,4.000000,4.000000,4.000000,4.000000,4.000000,4.000000,100.000000,,,,,,,,,,,,,,,,,,,,,,,,,,,,,,,,,,,,,,,,,,,,,,,,,,,,,,,,,,,,,,,,,,,,,,,,,,,,,,,,,,,,,,,,,,,,,,,,,,,,,,,,,,,,,,,,,,,,,
1768375348.604719,1768375348.605257,45.000000,0.000000,4325.256348,4305.769043,4341.153809,4336.666504,4300.512695,4306.538574,4300.128418,4310.256348,4309.743652,4290.000000,4522.307617,4523.461426,4412.179688,4463.461426,0.000000,1.000000,24.000000,,,,0.000000,4.000000,4.000000,4.000000,4.000000,4.000000,4.000000,4.000000,4.000000,4.000000,4.000000,4.000000,4.000000,4.000000,4.000000,100.000000,,,,,,,,,,,,,,,,,,,,,,,,,,,,,,,,,,,,,,,,,,,,,,,,,,,,,,,,,,,,,,,,,,,,,,,,,,,,,,,,,,,,,,,,,,,,,,,,,,,,,,,,,,,,,,,,,,,,,
1768375348.612528,1768375348.613166,46.000000,0.000000,4331.025879,4307.307617,4345.128418,4339.615234,4303.717773,4310.897461,4307.692383,4311.025879,4313.205078,4298.717773,4525.000000,4532.051270,4414.871582,4468.333496,0.000000,1.000000,24.000000,,,,0.000000,4.000000,4.000000,4.000000,4.000000,4.000000,4.000000,4.000000,4.000000,4.000000,4.000000,4.000000,4.000000,4.000000,4.000000,100.000000,,,,,,,,,,,,,,,,,,,,,,,,,,,,,,,,,,,,,,,,,,,,,,,,0.863329,0.330380,0.266480,0.258004,0.122386,1.453131,0.485780,0.251978,0.128143,0.085188,0.371943,0.142897,0.231870,0.181876,0.172758,0.353167,0.195863,0.196199,0.120141,0.085704,0.246065,0.097670,0.281410,0.106026,0.156861,0.184895,0.252872,0.126874,0.092002,0.119106,0.343571,0.356577,0.226068,0.141943,0.131589,0.414529,0.168922,0.165151,0.080927,0.062453,0.640882,0.379825,0.287141,0.090956,0.066004,0.828887,0.429798,0.269807,0.180562,0.108866,1.063367,0.405993,0.397288,0.322483,0.118226,0.653533,0.223216,0.142899,0.236199,0.176426,1.286673,0.436124,0.272499,0.331732,0.160489,0.422643,0.288364,0.336926,0.299773,0.130042
1768375348.620336,1768375348.620974,47.000000,0.000000,4331.410156,4308.077148,4350.384766,4344.102539,4307.692383,4311.794922,4312.179688,4313.717773,4313.589844,4302.051270,4527.307617,4537.820313,4414.230957,4466.153809,0.000000,1.000000,24.000000,,,,0.000000,4.000000,4.000000,4.000000,4.000000,4.000000,4.000000,4.000000,4.000000,4.000000,4.000000,4.000000,4.000000,4.000000,4.000000,100.000000,,,,,,,,,,,,,,,,,,,,,,,,,,,,,,,,,,,,,,,,,,,,,,,,,,,,,,,,,,,,,,,,,,,,,,,,,,,,,,,,,,,,,,,,,,,,,,,,,,,,,,,,,,,,,,,,,,,,,
1768375348.628145,1768375348.628982,48.000000,0.000000,4324.743652,4302.179688,4345.769043,4340.256348,4306.794922,4308.846191,4309.230957,4313.461426,4309.358887,4292.820313,4523.589844,4527.563965,4403.717773,4458.333496,0.000000,1.000000,24.000000,,,,0.000000,4.000000,4.000000,4.000000,4.000000,4.000000,4.000000,4.000000,4.000000,4.000000,4.000000,4.000000,4.000000,4.000000,4.000000,100.000000,,,,,,,,,,,,,,,,,,,,,,,,,,,,,,,,,,,,,,,,,,,,,,,,,,,,,,,,,,,,,,,,,,,,,,,,,,,,,,,,,,,,,,,,,,,,,,,,,,,,,,,,,,,,,,,,,,,,,
1768375348.635953,1768375348.636791,49.000000,0.000000,4324.102539,4300.128418,4340.512695,4335.769043,4306.794922,4308.589844,4309.615234,4314.102539,4308.205078,4289.615234,4520.384766,4523.077148,4396.153809,4456.922852,0.000000,1.000000,24.000000,,,,0.000000,4.000000,4.000000,4.000000,4.000000,4.000000,4.000000,4.000000,4.000000,4.000000,4.000000,4.000000,4.000000,4.000000,4.000000,100.000000,,,,,,,,,,,,,,,,,,,,,,,,,,,,,,,,,,,,,,,,,,,,,,,,,,,,,,,,,,,,,,,,,,,,,,,,,,,,,,,,,,,,,,,,,,,,,,,,,,,,,,,,,,,,,,,,,,,,,
1768375348.643762,1768375348.644699,50.000000,0.000000,4327.179688,4303.077148,4348.077148,4340.897461,4306.922852,4309.487305,4311.025879,4316.666504,4311.794922,4294.230957,4520.384766,4529.358887,4393.974121,4458.589844,0.000000,1.000000,24.000000,,,,0.000000,4.000000,4.000000,4.000000,4.000000,4.000000,4.000000,4.000000,4.000000,4.000000,4.000000,4.000000,4.000000,4.000000,4.000000,100.000000,,,,,,,,,,,,,,,,,,,,,,,,,,,,,,,,,,,,,,,,,,,,,,,,,,,,,,,,,,,,,,,,,,,,,,,,,,,,,,,,,,,,,,,,,,,,,,,,,,,,,,,,,,,,,,,,,,,,,
1768375348.651570,1768375348.652508,51.000000,0.000000,4322.307617,4296.666504,4350.512695,4340.769043,4300.512695,4308.205078,4310.128418,4319.358887,4311.410156,4296.666504,4521.666504,4533.974121,4397.692383,4457.179688,0.000000,1.000000,24.000000,,,,0.000000,4.000000,4.000000,4.000000,4.000000,4.000000,4.000000,4.000000,4.000000,4.000000,4.000000,4.000000,4.000000,4.000000,4.000000,100.000000,,,,,,,,,,,,,,,,,,,,,,,,,,,,,,,,,,,,,,,,,,,,,,,,,,,,,,,,,,,,,,,,,,,,,,,,,,,,,,,,,,,,,,,,,,,,,,,,,,,,,,,,,,,,,,,,,,,,,
1768375348.659378,1768375348.660516,52.000000,0.000000,4317.179688,4290.000000,4342.307617,4334.615234,4297.307617,4308.974121,4310.641113,4318.717773,4308.461426,4295.897461,4528.461426,4534.230957,4408.589844,4460.641113,0.000000,1.000000,24.000000,,,,0.000000,4.000000,4.000000,4.000000,4.000000,4.000000,4.000000,4.000000,4.000000,4.000000,4.000000,4.000000,4.000000,4.000000,4.000000,100.000000,,,,,,,,,,,,,,,,,,,,,,,,,,,,,,,,,,,,,,,,,,,,,,,,,,,,,,,,,,,,,,,,,,,,,,,,,,,,,,,,,,,,,,,,,,,,,,,,,,,,,,,,,,,,,,,,,,,,,
1768375348.667187,1768375348.668324,53.000000,0.000000,4326.025879,4297.820313,4343.333496,4337.820313,4303.333496,4311.153809,4308.333496,4312.948730,4308.974121,4295.897461,4532.948730,4532.436035,4415.128418,4466.794922,0.000000,1.000000,24.000000,,,,0.000000,4.000000,4.000000,4.000000,4.000000,4.000000,4.000000,4.000000,4.000000,4.000000,4.000000,4.000000,4.000000,4.000000,4.000000,100.000000,,,,,,,,,,,,,,,,,,,,,,,,,,,,,,,,,,,,,,,,,,,,,,,,,,,,,,,,,,,,,,,,,,,,,,,,,,,,,,,,,,,,,,,,,,,,,,,,,,,,,,,,,,,,,,,,,,,,,
1768375348.674995,1768375348.676033,54.000000,0.000000,4335.256348,4302.307617,4351.025879,4343.717773,4308.333496,4307.692383,4302.820313,4308.974121,4309.615234,4297.820313,4530.897461,4531.025879,4411.153809,4465.384766,0.000000,1.000000,24.000000,,,,0.000000,4.000000,4.000000,4.000000,4.000000,4.000000,4.000000,4.000000,4.000000,4.000000,4.000000,4.000000,4.000000,4.000000,4.000000,100.000000,,,,,,,,,,,,,,,,,,,,,,,,,,,,,,,,,,,,,,,,,,,,,,,,,,,,,,,,,,,,,,,,,,,,,,,,,,,,,,,,,,,,,,,,,,,,,,,,,,,,,,,,,,,,,,,,,,,,,
1768375348.682804,1768375348.683841,55.000000,0.000000,4331.538574,4298.846191,4351.922852,4343.589844,4310.512695,4307.563965,4304.230957,4313.077148,4311.282227,4300.128418,4535.128418,4537.307617,4410.128418,4463.589844,0.000000,1.000000,24.000000,,,,0.000000,4.000000,4.000000,4.000000,4.000000,4.000000,4.000000,4.000000,4.000000,4.000000,4.000000,4.000000,4.000000,4.000000,4.000000,100.000000,,,,,,,,,,,,,,,,,,,,,,,,,,,,,,,,,,,,,,,,,,,,,,,,,,,,,,,,,,,,,,,,,,,,,,,,,,,,,,,,,,,,,,,,,,,,,,,,,,,,,,,,,,,,,,,,,,,,,
1768375348.690612,1768375348.691450,56.000000,0.000000,4326.153809,4303.974121,4351.025879,4343.205078,4311.922852,4315.512695,4312.179688,4318.974121,4316.794922,4305.128418,4543.717773,4543.333496,4415.128418,4467.563965,0.000000,1.000000,24.000000,,,,0.000000,4.000000,4.000000,4.000000,4.000000,4.000000,4.000000,4.000000,4.000000,4.000000,4.000000,4.000000,4.000000,4.000000,4.000000,100.000000,,,,,,,,,,,,,,,,,,,,,,,,,,,,,,,,,,,,,,,,,,,,,,,,,,,,,,,,,,,,,,,,,,,,,,,,,,,,,,,,,,,,,,,,,,,,,,,,,,,,,,,,,,,,,,,,,,,,,
1768375348.698421,1768375348.699258,57.000000,0.000000,4325.769043,4307.948730,4352.692383,4344.871582,4313.717773,4313.846191,4311.153809,4317.436035,4317.051270,4304.615234,4540.641113,4537.692383,4412.948730,4465.128418,0.000000,1.000000,24.000000,,,,0.000000,4.000000,4.000000,4.000000,4.000000,4.000000,4.000000,4.000000,4.000000,4.000000,4.000000,4.000000,4.000000,4.000000,4.000000,100.000000,,,,,,,,,,,,,,,,,,,,,,,,,,,,,,,,,,,,,,,,,,,,,,,,,,,,,,,,,,,,,,,,,,,,,,,,,,,,,,,,,,,,,,,,,,,,,,,,,,,,,,,,,,,,,,,,,,,,,
1768375348.706229,1768375348.706967,58.000000,0.000000,4328.974121,4303.589844,4353.077148,4344.871582,4315.384766,4308.461426,4307.563965,4316.538574,4314.871582,4297.692383,4533.974121,4533.077148,4410.641113,4457.307617,0.000000,1.000000,24.000000,,,,0.000000,4.000000,4.000000,4.000000,4.000000,4.000000,4.000000,4.000000,4.000000,4.000000,4.000000,4.000000,4.000000,4.000000,4.000000,100.000000,,,,,,,,,,,,,,,,,,,,,,,,,,,,,,,,,,,,,,,,,,,,,,,,,,,,,,,,,,,,,,,,,,,,,,,,,,,,,,,,,,,,,,,,,,,,,,,,,,,,,,,,,,,,,,,,,,,,,
1768375348.714038,1768375348.714775,59.000000,0.000000,4336.282227,4305.128418,4355.000000,4345.641113,4313.974121,4313.717773,4314.487305,4321.410156,4316.538574,4299.102539,4538.333496,4537.051270,4412.563965,4464.487305,0.000000,1.000000,24.000000,,,,0.000000,4.000000,4.000000,4.000000,4.000000,4.000000,4.000000,4.000000,4.000000,4.000000,4.000000,4.000000,4.000000,4.000000,4.000000,100.000000,,,,,,,,,,,,,,,,,,,,,,,,,,,,,,,,,,,,,,,,,,,,,,,,,,,,,,,,,,,,,,,,,,,,,,,,,,,,,,,,,,,,,,,,,,,,,,,,,,,,,,,,,,,,,,,,,,,,,
1768375348.721846,1768375348.722784,60.000000,0.000000,4335.256348,4307.692383,4354.615234,4345.512695,4310.641113,4316.666504,4316.282227,4320.641113,4314.871582,4302.307617,4538.077148,4538.077148,4408.717773,4474.230957,0.000000,1.000000,24.000000,,,,0.000000,4.000000,4.000000,4.000000,4.000000,4.000000,4.000000,4.000000,4.000000,4.000000,4.000000,4.000000,4.000000,4.000000,4.000000,100.000000,,,,,,,,,,,,,,,,,,,,,,,,,,,,,,,,,,,,,,,,,,,,,,,,,,,,,,,,,,,,,,,,,,,,,,,,,,,,,,,,,,,,,,,,,,,,,,,,,,,,,,,,,,,,,,,,,,,,,
1768375348.729654,1768375348.730592,61.000000,0.000000,4327.563965,4305.512695,4348.333496,4344.487305,4310.897461,4309.230957,4308.974121,4313.717773,4311.153809,4302.051270,4529.230957,4531.153809,4403.589844,4467.051270,0.000000,1.000000,24.000000,,,,0.000000,4.000000,4.000000,4.000000,4.000000,4.000000,4.000000,4.000000,4.000000,4.000000,4.000000,4.000000,4.000000,4.000000,4.000000,100.000000,,,,,,,,,,,,,,,,,,,,,,,,,,,,,,,,,,,,,,,,,,,,,,,,,,,,,,,,,,,,,,,,,,,,,,,,,,,,,,,,,,,,,,,,,,,,,,,,,,,,,,,,,,,,,,,,,,,,,
1768375348.737463,1768375348.738500,62.000000,0.000000,4330.128418,4302.948730,4348.205078,4344.743652,4314.358887,4308.846191,4308.205078,4314.230957,4312.179688,4301.410156,4523.333496,4529.358887,4401.538574,4457.563965,0.000000,1.000000,24.000000,,,,0.000000,4.000000,4.000000,4.000000,4.000000,4.000000,4.000000,4.000000,4.000000,4.000000,4.000000,4.000000,4.000000,4.000000,4.000000,100.000000,,,,,,,,,,,,,,,,,,,,,,,,,,,,,,,,,,,,,,,,,,,,,,,,0.716808,0.300913,0.315995,0.297871,0.116282,1.220378,0.315861,0.250206,0.150521,0.082142,0.439297,0.167836,0.237311,0.195185,0.179535,0.314819,0.172125,0.184592,0.140672,0.084903,0.245185,0.082199,0.250963,0.107288,0.150018,0.205159,0.246645,0.124954,0.098281,0.118410,0.331800,0.329870,0.175360,0.136975,0.121075,0.387143,0.139394,0.131940,0.071414,0.065504,0.635361,0.295408,0.254243,0.080128,0.073666,0.940181,0.353872,0.213092,0.172052,0.113337,1.173755,0.391294,0.378514,0.325851,0.131963,0.741578,0.255073,0.170193,0.239045,0.206402,1.467308,0.411337,0.331661,0.370223,0.166243,0.530395,0.319777,0.379574,0.343973,0.144148
1768375348.745271,1768375348.746309,63.000000,0.000000,4336.922852,4299.615234,4354.102539,4343.077148,4313.717773,4314.102539,4311.794922,4318.846191,4313.589844,4301.153809,4523.205078,4538.333496,4401.025879,4462.051270,0.000000,1.000000,24.000000,,,,0.000000,4.000000,4.000000,4.000000,4.000000,4.000000,4.000000,4.000000,4.000000,4.000000,4.000000,4.000000,4.000000,4.000000,4.000000,100.000000,,,,,,,,,,,,,,,,,,,,,,,,,,,,,,,,,,,,,,,,,,,,,,,,,,,,,,,,,,,,,,,,,,,,,,,,,,,,,,,,,,,,,,,,,,,,,,,,,,,,,,,,,,,,,,,,,,,,,
1768375348.753080,1768375348.753918,64.000000,0.000000,4336.410156,4303.077148,4353.077148,4343.205078,4312.307617,4312.307617,4314.615234,4319.871582,4317.179688,4302.820313,4530.384766,4545.256348,4407.948730,4470.256348,4054.000000,1.000000,24.000000,,,,0.000000,4.000000,4.000000,4.000000,4.000000,4.000000,4.000000,4.000000,4.000000,4.000000,4.000000,4.000000,4.000000,4.000000,4.000000,100.000000,,,,,,,,,,,,,,,,,,,,,,,,,,,,,,,,,,,,,,,,,,,,,,,,,,,,,,,,,,,,,,,,,,,,,,,,,,,,,,,,,,,,,,,,,,,,,,,,,,,,,,,,,,,,,,,,,,,,,
1768375348.760888,1768375348.761726,65.000000,0.000000,4333.717773,4309.230957,4345.000000,4345.897461,4314.487305,4310.128418,4316.025879,4321.538574,4320.897461,4303.333496,4535.384766,4538.205078,4412.948730,4469.102539,4016.000000,1.000000,24.000000,,,,0.000000,4.000000,4.000000,4.000000,4.000000,4.000000,4.000000,4.000000,4.000000,4.000000,4.000000,4.000000,4.000000,4.000000,4.000000,100.000000,,,,,,,,,,,,,,,,,,,,,,,,,,,,,,,,,,,,,,,,,,,,,,,,,,,,,,,,,,,,,,,,,,,,,,,,,,,,,,,,,,,,,,,,,,,,,,,,,,,,,,,,,,,,,,,,,,,,,
1768375348.768697,1768375348.769634,66.000000,0.000000,4329.871582,4304.230957,4341.538574,4344.743652,4315.512695,4312.563965,4315.000000,4321.666504,4318.846191,4298.333496,4527.563965,4524.102539,4402.051270,4457.436035,3909.000000,1.000000,24.000000,,,,0.000000,4.000000,4.000000,4.000000,4.000000,4.000000,4.000000,4.000000,4.000000,4.000000,4.000000,4.000000,4.000000,4.000000,4.000000,100.000000,,,,,,,,,,,,,,,,,,,,,,,,,,,,,,,,,,,,,,,,,,,,,,,,,,,,,,,,,,,,,,,,,,,,,,,,,,,,,,,,,,,,,,,,,,,,,,,,,,,,,,,,,,,,,,,,,,,,,
1768375348.776505,1768375348.777443,67.000000,0.000000,4323.205078,4295.256348,4344.102539,4338.589844,4310.384766,4312.307617,4312.692383,4321.153809,4316.794922,4296.666504,4521.794922,4524.358887,4393.846191,4450.769043,3922.000000,1.000000,24.000000,,,,0.000000,4.000000,4.000000,4.000000,4.000000,4.000000,4.000000,4.000000,4.000000,4.000000,4.000000,4.000000,4.000000,4.000000,4.000000,100.000000,,,,,,,,,,,,,,,,,,,,,,,,,,,,,,,,,,,,,,,,,,,,,,,,,,,,,,,,,,,,,,,,,,,,,,,,,,,,,,,,,,,,,,,,,,,,,,,,,,,,,,,,,,,,,,,,,,,,,
1768375348.784314,1768375348.785051,68.000000,0.000000,4315.384766,4288.205078,4337.436035,4329.230957,4305.000000,4306.922852,4308.846191,4320.769043,4314.743652,4301.538574,4523.205078,4528.205078,4396.538574,4448.461426,3861.000000,1.000000,24.000000,,,,0.000000,4.000000,4.000000,4.000000,4.000000,4.000000,4.000000,4.000000,4.000000,4.000000,4.000000,4.000000,4.000000,4.000000,4.000000,100.000000,,,,,,,,,,,,,,,,,,,,,,,,,,,,,,,,,,,,,,,,,,,,,,,,,,,,,,,,,,,,,,,,,,,,,,,,,,,,,,,,,,,,,,,,,,,,,,,,,,,,,,,,,,,,,,,,,,,,,
1768375348.792122,1768375348.792860,69.000000,0.000000,4304.743652,4281.410156,4324.615234,4322.307617,4306.794922,4308.205078,4309.743652,4321.666504,4316.410156,4300.384766,4521.794922,4518.846191,4397.436035,4442.436035,3750.000000,1.000000,24.000000,,,,0.000000,4.000000,4.000000,4.000000,4.000000,4.000000,4.000000,4.000000,4.000000,4.000000,4.000000,4.000000,4.000000,4.000000,4.000000,100.000000,,,,,,,,,,,,,,,,,,,,,,,,,,,,,,,,,,,,,,,,,,,,,,,,,,,,,,,,,,,,,,,,,,,,,,,,,,,,,,,,,,,,,,,,,,,,,,,,,,,,,,,,,,,,,,,,,,,,,
1768375348.799930,1768375348.800768,70.000000,0.000000,4304.102539,4287.179688,4327.692383,4328.717773,4311.025879,4313.461426,4316.282227,4325.641113,4325.641113,4301.538574,4527.820313,4518.589844,4405.384766,4448.717773,3789.000000,1.000000,24.000000,,,,0.000000,4.000000,4.000000,4.000000,4.000000,4.000000,4.000000,4.000000,4.000000,4.000000,4.000000,4.000000,4.000000,4.000000,4.000000,100.000000,,,,,,,,,,,,,,,,,,,,,,,,,,,,,,,,,,,,,,,,,,,,,,,,,,,,,,,,,,,,,,,,,,,,,,,,,,,,,,,,,,,,,,,,,,,,,,,,,,,,,,,,,,,,,,,,,,,,,
1768375348.807739,1768375348.808577,71.000000,0.000000,4318.974121,4299.487305,4340.128418,4340.897461,4310.641113,4311.282227,4314.743652,4323.205078,4322.436035,4310.769043,4537.820313,4531.410156,4416.794922,4463.333496,3174.000000,1.000000,24.000000,,,,0.000000,4.000000,4.000000,4.000000,4.000000,4.000000,4.000000,4.000000,4.000000,4.000000,4.000000,4.000000,4.000000,4.000000,4.000000,100.000000,,,,,,,,,,,,,,,,,,,,,,,,,,,,,,,,,,,,,,,,,,,,,,,,,,,,,,,,,,,,,,,,,,,,,,,,,,,,,,,,,,,,,,,,,,,,,,,,,,,,,,,,,,,,,,,,,,,,,
1768375348.815547,1768375348.816585,72.000000,0.000000,4326.794922,4300.769043,4342.179688,4341.025879,4306.538574,4306.153809,4306.410156,4313.589844,4306.922852,4309.102539,4537.436035,4532.692383,4413.846191,4465.384766,3987.000000,1.000000,24.000000,,,,0.000000,4.000000,4.000000,4.000000,4.000000,4.000000,4.000000,4.000000,4.000000,4.000000,4.000000,4.000000,4.000000,4.000000,4.000000,100.000000,,,,,,,,,,,,,,,,,,,,,,,,,,,,,,,,,,,,,,,,,,,,,,,,,,,,,,,,,,,,,,,,,,,,,,,,,,,,,,,,,,,,,,,,,,,,,,,,,,,,,,,,,,,,,,,,,,,,,
1768375348.823356,1768375348.824393,73.000000,0.000000,4321.025879,4298.717773,4336.410156,4335.384766,4303.974121,4306.666504,4308.461426,4311.922852,4306.282227,4299.743652,4534.102539,4523.974121,4410.897461,4462.563965,3997.000000,1.000000,24.000000,,,,0.000000,4.000000,4.000000,4.000000,4.000000,4.000000,4.000000,4.000000,4.000000,4.000000,4.000000,4.000000,4.000000,4.000000,4.000000,100.000000,,,,,,,,,,,,,,,,,,,,,,,,,,,,,,,,,,,,,,,,,,,,,,,,,,,,,,,,,,,,,,,,,,,,,,,,,,,,,,,,,,,,,,,,,,,,,,,,,,,,,,,,,,,,,,,,,,,,,
1768375348.831164,1768375348.832302,74.000000,0.000000,4322.820313,4302.179688,4338.205078,4337.436035,4304.615234,4309.615234,4314.615234,4320.256348,4313.846191,4298.846191,4532.179688,4522.692383,4416.410156,4464.743652,4382.000000,1.000000,24.000000,,,,0.000000,4.000000,4.000000,4.000000,4.000000,4.000000,4.000000,4.000000,4.000000,4.000000,4.000000,4.000000,4.000000,4.000000,4.000000,100.000000,,,,,,,,,,,,,,,,,,,,,,,,,,,,,,,,,,,,,,,,,,,,,,,,,,,,,,,,,,,,,,,,,,,,,,,,,,,,,,,,,,,,,,,,,,,,,,,,,,,,,,,,,,,,,,,,,,,,,
1768375348.838973,1768375348.840110,75.000000,0.000000,4333.077148,4307.307617,4345.512695,4343.846191,4308.461426,4309.230957,4306.922852,4316.410156,4308.077148,4298.205078,4524.487305,4524.102539,4415.897461,4466.922852,4652.000000,1.000000,24.000000,,,,0.000000,4.000000,4.000000,4.000000,4.000000,4.000000,4.000000,4.000000,4.000000,4.000000,4.000000,4.000000,4.000000,4.000000,4.000000,100.000000,,,,,,,,,,,,,,,,,,,,,,,,,,,,,,,,,,,,,,,,,,,,,,,,,,,,,,,,,,,,,,,,,,,,,,,,,,,,,,,,,,,,,,,,,,,,,,,,,,,,,,,,,,,,,,,,,,,,,
1768375348.846781,1768375348.848118,76.000000,0.000000,4337.948730,4312.051270,4347.179688,4345.128418,4312.051270,4308.461426,4298.846191,4308.717773,4303.077148,4293.333496,4519.871582,4525.769043,4410.769043,4469.615234,4933.000000,1.000000,24.000000,,,,0.000000,4.000000,4.000000,4.000000,4.000000,4.000000,4.000000,4.000000,4.000000,4.000000,4.000000,4.000000,4.000000,4.000000,4.000000,100.000000,,,,,,,,,,,,,,,,,,,,,,,,,,,,,,,,,,,,,,,,,,,,,,,,,,,,,,,,,,,,,,,,,,,,,,,,,,,,,,,,,,,,,,,,,,,,,,,,,,,,,,,,,,,,,,,,,,,,,
1768375348.854590,1768375348.855927,77.000000,0.000000,4337.051270,4309.743652,4342.436035,4342.051270,4309.743652,4309.743652,4304.230957,4315.128418,4310.641113,4297.820313,4529.358887,4532.948730,4410.641113,4476.794922,5126.000000,1.000000,24.000000,,,,0.000000,4.000000,4.000000,4.000000,4.000000,4.000000,4.000000,4.000000,4.000000,4.000000,4.000000,4.000000,4.000000,4.000000,4.000000,100.000000,,,,,,,,,,,,,,,,,,,,,,,,,,,,,,,,,,,,,,,,,,,,,,,,,,,,,,,,,,,,,,,,,,,,,,,,,,,,,,,,,,,,,,,,,,,,,,,,,,,,,,,,,,,,,,,,,,,,,
1768375348.862398,1768375348.863635,78.000000,0.000000,4332.692383,4303.205078,4339.230957,4341.794922,4308.717773,4311.794922,4312.179688,4321.025879,4316.666504,4305.641113,4536.794922,4533.461426,4414.230957,4476.538574,4382.000000,1.000000,24.000000,,,,0.000000,4.000000,4.000000,4.000000,4.000000,4.000000,4.000000,4.000000,4.000000,4.000000,4.000000,4.000000,4.000000,4.000000,4.000000,100.000000,1.000000,50.000000,4.000000,4.000000,4.000000,4.000000,1.000000,1.000000,4.000000,4.000000,4.000000,4.000000,4.000000,4.000000,4.000000,4.000000,,,,,,,,,,,,,,,,,,,,,,,,,,,,,,,,0.624481,0.265871,0.358555,0.329017,0.112359,1.037486,0.194007,0.254148,0.168648,0.083195,0.584372,0.196458,0.240543,0.203255,0.176574,0.327653,0.169561,0.175959,0.161052,0.089063,0.255585,0.084178,0.220641,0.112452,0.143612,0.226370,0.216079,0.121213,0.103989,0.118407,0.330895,0.280258,0.135344,0.128021,0.114384,0.390364,0.115938,0.105586,0.064329,0.067903,0.615555,0.227624,0.223678,0.076015,0.082183,1.001658,0.304881,0.168104,0.162884,0.119978,1.268073,0.374405,0.348821,0.318507,0.152049,0.912251,0.310811,0.209219,0.239634,0.237471,1.674878,0.411687,0.374090,0.397504,0.174226,0.753464,0.364464,0.429378,0.384536,0.160704
1768375348.870206,1768375348.871444,79.000000,0.000000,4329.871582,4303.717773,4341.538574,4341.666504,4315.897461,4312.563965,4312.948730,4316.538574,4312.563965,4299.230957,4529.871582,4524.615234,4413.974121,4465.641113,4652.000000,1.000000,24.000000,,,,0.000000,4.000000,4.000000,4.000000,4.000000,4.000000,4.000000,4.000000,4.000000,4.000000,4.000000,4.000000,4.000000,4.000000,4.000000,100.000000,,,,,,,,,,,,,,,,,,,,,,,,,,,,,,,,,,,,,,,,,,,,,,,,,,,,,,,,,,,,,,,,,,,,,,,,,,,,,,,,,,,,,,,,,,,,,,,,,,,,,,,,,,,,,,,,,,,,,
1768375348.878015,1768375348.879052,80.000000,0.000000,4331.282227,4305.128418,4343.846191,4340.128418,4317.179688,4313.077148,4311.153809,4314.743652,4308.717773,4289.743652,4521.922852,4523.077148,4406.794922,4456.666504,4933.000000,1.000000,24.000000,,,,0.000000,4.000000,4.000000,4.000000,4.000000,4.000000,4.000000,4.000000,4.000000,4.000000,4.000000,4.000000,4.000000,4.000000,4.000000,100.000000,,,,,,,,,,,,,,,,,,,,,,,,,,,,,,,,,,,,,,,,,,,,,,,,,,,,,,,,,,,,,,,,,,,,,,,,,,,,,,,,,,,,,,,,,,,,,,,,,,,,,,,,,,,,,,,,,,,,,
1768375348.885823,1768375348.886861,81.000000,0.000000,4332.820313,4298.589844,4342.820313,4340.769043,4305.384766,4313.717773,4310.256348,4317.436035,4311.282227,4292.692383,4525.256348,4529.743652,4405.256348,4463.717773,5126.000000,1.000000,24.000000,,,,0.000000,4.000000,4.000000,4.000000,4.000000,4.000000,4.000000,4.000000,4.000000,4.000000,4.000000,4.000000,4.000000,4.000000,4.000000,100.000000,,,,,,,,,,,,,,,,,,,,,,,,,,,,,,,,,,,,,,,,,,,,,,,,,,,,,,,,,,,,,,,,,,,,,,,,,,,,,,,,,,,,,,,,,,,,,,,,,,,,,,,,,,,,,,,,,,,,,
1768375348.893632,1768375348.894569,82.000000,0.000000,4332.307617,4297.563965,4341.282227,4342.179688,4301.538574,4312.307617,4308.589844,4315.512695,4312.820313,4299.230957,4527.820313,4527.179688,4413.717773,4473.589844,4382.000000,1.000000,24.000000,,,,0.000000,4.000000,4.000000,4.000000,4.000000,4.000000,4.000000,4.000000,4.000000,4.000000,4.000000,4.000000,4.000000,4.000000,4.000000,100.000000,,,,,,,,,,,,,,,,,,,,,,,,,,,,,,,,,,,,,,,,,,,,,,,,,,,,,,,,,,,,,,,,,,,,,,,,,,,,,,,,,,,,,,,,,,,,,,,,,,,,,,,,,,,,,,,,,,,,,
1768375348.901440,1768375348.902378,83.000000,0.000000,4333.846191,4309.230957,4340.897461,4343.717773,4313.077148,4309.743652,4306.153809,4311.025879,4305.384766,4295.641113,4523.333496,4517.179688,4411.153809,4466.025879,4652.000000,1.000000,24.000000,,,,0.000000,4.000000,4.000000,4.000000,4.000000,4.000000,4.000000,4.000000,4.000000,4.000000,4.000000,4.000000,4.000000,4.000000,4.000000,100.000000,,,,,,,,,,,,,,,,,,,,,,,,,,,,,,,,,,,,,,,,,,,,,,,,,,,,,,,,,,,,,,,,,,,,,,,,,,,,,,,,,,,,,,,,,,,,,,,,,,,,,,,,,,,,,,,,,,,,,
1768375348.909249,1768375348.909987,84.000000,0.000000,4337.948730,4312.307617,4343.461426,4345.256348,4319.102539,4306.538574,4303.846191,4307.692383,4298.333496,4289.615234,4520.256348,4516.666504,4401.153809,4458.077148,4933.000000,1.000000,24.000000,,,,0.000000,4.000000,4.000000,4.000000,4.000000,4.000000,4.000000,4.000000,4.000000,4.000000,4.000000,4.000000,4.000000,4.000000,4.000000,100.000000,,,,,,,,,,,,,,,,,,,,,,,,,,,,,,,,,,,,,,,,,,,,,,,,,,,,,,,,,,,,,,,,,,,,,,,,,,,,,,,,,,,,,,,,,,,,,,,,,,,,,,,,,,,,,,,,,,,,,
1768375348.917057,1768375348.917795,85.000000,0.000000,4342.563965,4307.948730,4347.948730,4345.769043,4314.871582,4307.820313,4305.384766,4309.871582,4304.487305,4295.256348,4525.256348,4525.512695,4404.358887,4465.897461,5126.000000,1.000000,24.000000,,,,0.000000,4.000000,4.000000,4.000000,4.000000,4.000000,4.000000,4.000000,4.000000,4.000000,4.000000,4.000000,4.000000,4.000000,4.000000,100.000000,,,,,,,,,,,,,,,,,,,,,,,,,,,,,,,,,,,,,,,,,,,,,,,,,,,,,,,,,,,,,,,,,,,,,,,,,,,,,,,,,,,,,,,,,,,,,,,,,,,,,,,,,,,,,,,,,,,,,
1768375348.924866,1768375348.925703,86.000000,0.000000,4342.436035,4311.410156,4348.077148,4345.384766,4313.461426,4311.153809,4307.051270,4316.794922,4312.948730,4301.794922,4533.974121,4529.615234,4414.102539,4476.282227,4382.000000,1.000000,24.000000,,,,0.000000,4.000000,4.000000,4.000000,4.000000,4.000000,4.000000,4.000000,4.000000,4.000000,4.000000,4.000000,4.000000,4.000000,4.000000,100.000000,,,,,,,,,,,,,,,,,,,,,,,,,,,,,,,,,,,,,,,,,,,,,,,,,,,,,,,,,,,,,,,,,,,,,,,,,,,,,,,,,,,,,,,,,,,,,,,,,,,,,,,,,,,,,,,,,,,,,
1768375348.932674,1768375348.933512,87.000000,0.000000,4338.205078,4317.563965,4343.717773,4346.666504,4314.102539,4310.128418,4308.589844,4316.410156,4311.538574,4295.897461,4531.410156,4525.256348,4414.487305,4476.922852,4652.000000,1.000000,24.000000,,,,0.000000,4.000000,4.000000,4.000000,4.000000,4.000000,4.000000,4.000000,4.000000,4.000000,4.000000,4.000000,4.000000,4.000000,4.000000,100.000000,,,,,,,,,,,,,,,,,,,,,,,,,,,,,,,,,,,,,,,,,,,,,,,,,,,,,,,,,,,,,,,,,,,,,,,,,,,,,,,,,,,,,,,,,,,,,,,,,,,,,,,,,,,,,,,,,,,,,
1768375348.940483,1768375348.941520,88.000000,0.000000,4341.794922,4319.871582,4342.563965,4346.410156,4313.846191,4308.205078,4310.000000,4310.641113,4303.589844,4290.128418,4523.717773,4521.538574,4405.897461,4473.077148,4933.000000,1.000000,24.000000,,,,0.000000,4.000000,4.000000,4.000000,4.000000,4.000000,4.000000,4.000000,4.000000,4.000000,4.000000,4.000000,4.000000,4.000000,4.000000,100.000000,,,,,,,,,,,,,,,,,,,,,,,,,,,,,,,,,,,,,,,,,,,,,,,,,,,,,,,,,,,,,,,,,,,,,,,,,,,,,,,,,,,,,,,,,,,,,,,,,,,,,,,,,,,,,,,,,,,,,
1768375348.948291,1768375348.949328,89.000000,0.000000,4345.641113,4322.820313,4344.230957,4344.487305,4314.102539,4310.384766,4302.051270,4311.025879,4303.717773,4294.358887,4526.666504,4528.974121,4403.333496,4474.487305,5126.000000,1.000000,24.000000,,,,0.000000,4.000000,4.000000,4.000000,4.000000,4.000000,4.000000,4.000000,4.000000,4.000000,4.000000,4.000000,4.000000,4.000000,4.000000,100.000000,,,,,,,,,,,,,,,,,,,,,,,,,,,,,,,,,,,,,,,,,,,,,,,,,,,,,,,,,,,,,,,,,,,,,,,,,,,,,,,,,,,,,,,,,,,,,,,,,,,,,,,,,,,,,,,,,,,,,
1768375348.956099,1768375348.957037,90.000000,0.000000,4340.384766,4325.769043,4342.948730,4340.384766,4308.846191,4309.615234,4294.615234,4311.922852,4307.820313,4295.128418,4529.743652,4534.871582,4410.512695,4478.333496,4382.000000,1.000000,24.000000,,,,0.000000,4.000000,4.000000,4.000000,4.000000,4.000000,4.000000,4.000000,4.000000,4.000000,4.000000,4.000000,4.000000,4.000000,4.000000,100.000000,,,,,,,,,,,,,,,,,,,,,,,,,,,,,,,,,,,,,,,,,,,,,,,,,,,,,,,,,,,,,,,,,,,,,,,,,,,,,,,,,,,,,,,,,,,,,,,,,,,,,,,,,,,,,,,,,,,,,
1768375348.963908,1768375348.964845,91.000000,0.000000,4333.846191,4327.563965,4338.205078,4335.641113,4303.589844,4302.436035,4296.153809,4305.256348,4302.179688,4289.102539,4522.948730,4525.256348,4412.820313,4477.179688,4652.000000,1.000000,24.000000,,,,0.000000,4.000000,4.000000,4.000000,4.000000,4.000000,4.000000,4.000000,4.000000,4.000000,4.000000,4.000000,4.000000,4.000000,4.000000,100.000000,,,,,,,,,,,,,,,,,,,,,,,,,,,,,,,,,,,,,,,,,,,,,,,,,,,,,,,,,,,,,,,,,,,,,,,,,,,,,,,,,,,,,,,,,,,,,,,,,,,,,,,,,,,,,,,,,,,,,
1768375348.971716,1768375348.972454,92.000000,0.000000,4333.333496,4332.948730,4337.051270,4337.948730,4308.205078,4301.153809,4295.897461,4303.205078,4293.333496,4284.743652,4518.974121,4517.051270,4403.205078,4473.461426,4933.000000,1.000000,24.000000,,,,0.000000,4.000000,4.000000,4.000000,4.000000,4.000000,4.000000,4.000000,4.000000,4.000000,4.000000,4.000000,4.000000,4.000000,4.000000,100.000000,,,,,,,,,,,,,,,,,,,,,,,,,,,,,,,,,,,,,,,,,,,,,,,,,,,,,,,,,,,,,,,,,,,,,,,,,,,,,,,,,,,,,,,,,,,,,,,,,,,,,,,,,,,,,,,,,,,,,
1768375348.979525,1768375348.980263,93.000000,0.000000,4336.666504,4337.948730,4340.256348,4343.717773,4315.384766,4309.743652,4298.077148,4308.974121,4293.333496,4283.077148,4520.897461,4521.922852,4396.025879,4473.077148,5126.000000,1.000000,24.000000,,,,0.000000,4.000000,4.000000,4.000000,4.000000,4.000000,4.000000,4.000000,4.000000,4.000000,4.000000,4.000000,4.000000,4.000000,4.000000,100.000000,,,,,,,,,,,,,,,,,,,,,,,,,,,,,,,,,,,,,,,,,,,,,,,,,,,,,,,,,,,,,,,,,,,,,,,,,,,,,,,,,,,,,,,,,,,,,,,,,,,,,,,,,,,,,,,,,,,,,
1768375348.987333,1768375348.987971,94.000000,0.000000,4339.358887,4341.922852,4343.205078,4345.256348,4314.102539,4313.461426,4305.128418,4308.974121,4297.820313,4286.538574,4522.692383,4525.256348,4401.666504,4476.153809,4382.000000,1.000000,24.000000,,,,0.000000,4.000000,4.000000,4.000000,4.000000,4.000000,4.000000,4.000000,4.000000,4.000000,4.000000,4.000000,4.000000,4.000000,4.000000,100.000000,,,,,,,,,,,,,,,,,,,,,,,,,,,,,,,,,,,,,,,,,,,,,,,,0.619900,0.234129,0.381264,0.340043,0.112788,0.919613,0.122155,0.258251,0.175220,0.088490,0.777629,0.222928,0.240102,0.200708,0.165070,0.390902,0.178965,0.172933,0.174137,0.099043,0.268394,0.094683,0.201942,0.116379,0.138334,0.247049,0.169529,0.115044,0.109624,0.117643,0.355639,0.223627,0.110311,0.119418,0.111923,0.428935,0.110105,0.090072,0.061739,0.070440,0.586626,0.190445,0.195020,0.079869,0.090402,0.997881,0.291279,0.144124,0.152374,0.129789,1.337612,0.359316,0.319660,0.301657,0.175535,1.126259,0.369593,0.256049,0.233946,0.262861,1.882698,0.452054,0.393824,0.405484,0.180956,1.054234,0.416184,0.480023,0.403195,0.174382
1768375348.995142,1768375348.995780,95.000000,0.000000,4341.922852,4347.051270,4341.410156,4344.358887,4312.436035,4307.820313,4299.487305,4304.743652,4296.666504,4293.974121,4526.025879,4518.589844,4404.743652,4476.922852,4652.000000,1.000000,24.000000,,,,0.000000,4.000000,4.000000,4.000000,4.000000,4.000000,4.000000,4.000000,4.000000,4.000000,4.000000,4.000000,4.000000,4.000000,4.000000,100.000000,,,,,,,,,,,,,,,,,,,,,,,,,,,,,,,,,,,,,,,,,,,,,,,,,,,,,,,,,,,,,,,,,,,,,,,,,,,,,,,,,,,,,,,,,,,,,,,,,,,,,,,,,,,,,,,,,,,,,
1768375349.002950,1768375349.003788,96.000000,0.000000,4341.282227,4345.897461,4338.077148,4343.205078,4313.333496,4303.846191,4292.051270,4305.256348,4294.230957,4294.615234,4524.871582,4514.358887,4398.461426,4474.871582,4933.000000,1.000000,24.000000,,,,0.000000,4.000000,4.000000,4.000000,4.000000,4.000000,4.000000,4.000000,4.000000,4.000000,4.000000,4.000000,4.000000,4.000000,4.000000,100.000000,,,,,,,,,,,,,,,,,,,,,,,,,,,,,,,,,,,,,,,,,,,,,,,,,,,,,,,,,,,,,,,,,,,,,,,,,,,,,,,,,,,,,,,,,,,,,,,,,,,,,,,,,,,,,,,,,,,,,
1768375349.010759,1768375349.011596,97.000000,0.000000,4341.153809,4341.666504,4343.077148,4343.846191,4311.153809,4308.846191,4301.922852,4310.128418,4298.205078,4292.692383,4522.051270,4522.820313,4399.743652,4474.102539,5126.000000,1.000000,24.000000,,,,0.000000,4.000000,4.000000,4.000000,4.000000,4.000000,4.000000,4.000000,4.000000,4.000000,4.000000,4.000000,4.000000,4.000000,4.000000,100.000000,,,,,,,,,,,,,,,,,,,,,,,,,,,,,,,,,,,,,,,,,,,,,,,,,,,,,,,,,,,,,,,,,,,,,,,,,,,,,,,,,,,,,,,,,,,,,,,,,,,,,,,,,,,,,,,,,,,,,
1768375349.018567,1768375349.019505,98.000000,0.000000,4341.666504,4344.615234,4351.666504,4346.153809,4308.846191,4307.051270,4308.974121,4311.282227,4302.948730,4298.717773,4531.025879,4533.077148,4409.743652,4476.282227,4382.000000,1.000000,24.000000,,,,0.000000,4.000000,4.000000,4.000000,4.000000,4.000000,4.000000,4.000000,4.000000,4.000000,4.000000,4.000000,4.000000,4.000000,4.000000,100.000000,,,,,,,,,,,,,,,,,,,,,,,,,,,,,,,,,,,,,,,,,,,,,,,,,,,,,,,,,,,,,,,,,,,,,,,,,,,,,,,,,,,,,,,,,,,,,,,,,,,,,,,,,,,,,,,,,,,,,
1768375349.026375,1768375349.027313,99.000000,0.000000,4336.410156,4346.153809,4350.256348,4346.282227,4307.692383,4298.205078,4305.512695,4309.487305,4303.846191,4301.282227,4536.922852,4531.282227,4409.487305,4477.563965,4652.000000,1.000000,24.000000,,,,0.000000,4.000000,4.000000,4.000000,4.000000,4.000000,4.000000,4.000000,4.000000,4.000000,4.000000,4.000000,4.000000,4.000000,4.000000,100.000000,,,,,,,,,,,,,,,,,,,,,,,,,,,,,,,,,,,,,,,,,,,,,,,,,,,,,,,,,,,,,,,,,,,,,,,,,,,,,,,,,,,,,,,,,,,,,,,,,,,,,,,,,,,,,,,,,,,,,
1768375349.034184,1768375349.035321,100.000000,0.000000,4333.717773,4340.897461,4344.743652,4347.051270,4312.307617,4302.179688,4307.692383,4308.846191,4303.589844,4294.102539,4528.077148,4523.077148,4403.205078,4474.358887,4933.000000,1.000000,24.000000,,,,0.000000,4.000000,4.000000,4.000000,4.000000,4.000000,4.000000,4.000000,4.000000,4.000000,4.000000,4.000000,4.000000,4.000000,4.000000,100.000000,,,,,,,,,,,,,,,,,,,,,,,,,,,,,,,,,,,,,,,,,,,,,,,,,,,,,,,,,,,,,,,,,,,,,,,,,,,,,,,,,,,,,,,,,,,,,,,,,,,,,,,,,,,,,,,,,,,,,
1768375349.041992,1768375349.043130,101.000000,0.000000,4341.025879,4341.282227,4349.615234,4349.358887,4319.615234,4314.230957,4313.205078,4309.743652,4301.666504,4293.717773,4526.666504,4526.666504,4402.436035,4471.410156,5126.000000,1.000000,24.000000,,,,0.000000,4.000000,4.000000,4.000000,4.000000,4.000000,4.000000,4.000000,4.000000,4.000000,4.000000,4.000000,4.000000,4.000000,4.000000,100.000000,,,,,,,,,,,,,,,,,,,,,,,,,,,,,,,,,,,,,,,,,,,,,,,,,,,,,,,,,,,,,,,,,,,,,,,,,,,,,,,,,,,,,,,,,,,,,,,,,,,,,,,,,,,,,,,,,,,,,
1768375349.049801,1768375349.050838,102.000000,0.000000,4343.589844,4342.179688,4356.153809,4349.102539,4316.410156,4312.948730,4311.410156,4308.717773,4302.948730,4298.846191,4536.538574,4534.615234,4403.205078,4473.077148,4382.000000,1.000000,24.000000,,,,0.000000,4.000000,4.000000,4.000000,4.000000,4.000000,4.000000,4.000000,4.000000,4.000000,4.000000,4.000000,4.000000,4.000000,4.000000,100.000000,,,,,,,,,,,,,,,,,,,,,,,,,,,,,,,,,,,,,,,,,,,,,,,,,,,,,,,,,,,,,,,,,,,,,,,,,,,,,,,,,,,,,,,,,,,,,,,,,,,,,,,,,,,,,,,,,,,,,
1768375349.057609,1768375349.058647,103.000000,0.000000,4341.538574,4341.153809,4355.641113,4349.743652,4309.358887,4306.410156,4308.205078,4307.436035,4306.282227,4297.307617,4538.717773,4537.436035,4406.025879,4478.333496,4652.000000,1.000000,24.000000,,,,0.000000,4.000000,4.000000,4.000000,4.000000,4.000000,4.000000,4.000000,4.000000,4.000000,4.000000,4.000000,4.000000,4.000000,4.000000,100.000000,,,,,,,,,,,,,,,,,,,,,,,,,,,,,,,,,,,,,,,,,,,,,,,,,,,,,,,,,,,,,,,,,,,,,,,,,,,,,,,,,,,,,,,,,,,,,,,,,,,,,,,,,,,,,,,,,,,,,
1768375349.065418,1768375349.066555,104.000000,0.000000,4344.230957,4343.589844,4354.615234,4352.563965,4313.589844,4311.410156,4311.794922,4312.948730,4305.128418,4297.563965,4537.307617,4538.205078,4409.743652,4478.205078,4933.000000,1.000000,24.000000,,,,0.000000,4.000000,4.000000,4.000000,4.000000,4.000000,4.000000,4.000000,4.000000,4.000000,4.000000,4.000000,4.000000,4.000000,4.000000,100.000000,,,,,,,,,,,,,,,,,,,,,,,,,,,,,,,,,,,,,,,,,,,,,,,,,,,,,,,,,,,,,,,,,,,,,,,,,,,,,,,,,,,,,,,,,,,,,,,,,,,,,,,,,,,,,,,,,,,,,
1768375349.073226,1768375349.074364,105.000000,0.000000,4341.153809,4343.589844,4356.282227,4351.282227,4318.205078,4314.358887,4313.077148,4316.025879,4303.333496,4304.358887,4539.871582,4536.410156,4408.205078,4475.384766,5126.000000,1.000000,24.000000,,,,0.000000,4.000000,4.000000,4.000000,4.000000,4.000000,4.000000,4.000000,4.000000,4.000000,4.000000,4.000000,4.000000,4.000000,4.000000,100.000000,,,,,,,,,,,,,,,,,,,,,,,,,,,,,,,,,,,,,,,,,,,,,,,,,,,,,,,,,,,,,,,,,,,,,,,,,,,,,,,,,,,,,,,,,,,,,,,,,,,,,,,,,,,,,,,,,,,,,
1768375349.081035,1768375349.082072,106.000000,0.000000,4340.641113,4344.358887,4362.179688,4351.282227,4314.615234,4307.179688,4307.563965,4310.641113,4305.128418,4303.205078,4540.128418,4537.179688,4408.846191,4482.051270,4382.000000,1.000000,24.000000,,,,0.000000,4.000000,4.000000,4.000000,4.000000,4.000000,4.000000,4.000000,4.000000,4.000000,4.000000,4.000000,4.000000,4.000000,4.000000,100.000000,,,,,,,,,,,,,,,,,,,,,,,,,,,,,,,,,,,,,,,,,,,,,,,,,,,,,,,,,,,,,,,,,,,,,,,,,,,,,,,,,,,,,,,,,,,,,,,,,,,,,,,,,,,,,,,,,,,,,
1768375349.088843,1768375349.089881,107.000000,0.000000,4347.436035,4343.717773,4363.461426,4352.307617,4313.205078,4304.615234,4306.025879,4308.589844,4305.256348,4298.333496,4538.077148,4545.769043,4412.948730,4487.051270,4652.000000,1.000000,24.000000,,,,0.000000,4.000000,4.000000,4.000000,4.000000,4.000000,4.000000,4.000000,4.000000,4.000000,4.000000,4.000000,4.000000,4.000000,4.000000,100.000000,,,,,,,,,,,,,,,,,,,,,,,,,,,,,,,,,,,,,,,,,,,,,,,,,,,,,,,,,,,,,,,,,,,,,,,,,,,,,,,,,,,,,,,,,,,,,,,,,,,,,,,,,,,,,,,,,,,,,
1768375349.096651,1768375349.097489,108.000000,0.000000,4349.102539,4336.282227,4360.128418,4350.128418,4315.000000,4310.384766,4310.512695,4315.000000,4306.025879,4301.538574,4541.666504,4551.025879,4413.717773,4487.820313,4933.000000,1.000000,24.000000,,,,0.000000,4.000000,4.000000,4.000000,4.000000,4.000000,4.000000,4.000000,4.000000,4.000000,4.000000,4.000000,4.000000,4.000000,4.000000,100.000000,,,,,,,,,,,,,,,,,,,,,,,,,,,,,,,,,,,,,,,,,,,,,,,,,,,,,,,,,,,,,,,,,,,,,,,,,,,,,,,,,,,,,,,,,,,,,,,,,,,,,,,,,,,,,,,,,,,,,
1768375349.104460,1768375349.105298,109.000000,0.000000,4348.077148,4336.025879,4364.230957,4351.794922,4315.000000,4312.307617,4311.922852,4319.487305,4311.410156,4303.461426,4546.538574,4548.333496,4412.563965,4487.051270,5126.000000,1.000000,24.000000,,,,0.000000,4.000000,4.000000,4.000000,4.000000,4.000000,4.000000,4.000000,4.000000,4.000000,4.000000,4.000000,4.000000,4.000000,4.000000,100.000000,,,,,,,,,,,,,,,,,,,,,,,,,,,,,,,,,,,,,,,,,,,,,,,,,,,,,,,,,,,,,,,,,,,,,,,,,,,,,,,,,,,,,,,,,,,,,,,,,,,,,,,,,,,,,,,,,,,,,
1768375349.112268,1768375349.113006,110.000000,0.000000,4346.025879,4338.717773,4366.282227,4352.307617,4312.179688,4306.666504,4309.358887,4316.025879,4308.974121,4298.974121,4542.948730,4548.333496,4408.846191,4480.000000,4382.000000,1.000000,24.000000,,,,0.000000,4.000000,4.000000,4.000000,4.000000,4.000000,4.000000,4.000000,4.000000,4.000000,4.000000,4.000000,4.000000,4.000000,4.000000,100.000000,,,,,,,,,,,,,,,,,,,,,,,,,,,,,,,,,,,,,,,,,,,,,,,,0.692740,0.227802,0.385562,0.325949,0.118141,0.870901,0.104008,0.260945,0.168986,0.096892,0.967607,0.246180,0.236874,0.185045,0.149330,0.480125,0.193189,0.177634,0.176075,0.112503,0.278213,0.102973,0.201387,0.114969,0.133628,0.263195,0.119238,0.106483,0.114582,0.114736,0.403302,0.174540,0.098385,0.114471,0.112528,0.486161,0.124622,0.085239,0.064415,0.073859,0.558992,0.183408,0.166313,0.089457,0.097530,0.936306,0.304267,0.141615,0.139674,0.141524,1.387948,0.350030,0.299860,0.279918,0.196570,1.310453,0.412479,0.305334,0.219947,0.278480,2.041520,0.529297,0.397830,0.391292,0.181911,1.344892,0.477823,0.525434,0.393045,0.181866
1768375349.120077,1768375349.120815,111.000000,0.000000,4339.615234,4329.743652,4359.102539,4345.384766,4311.538574,4305.641113,4309.487305,4314.487305,4306.153809,4297.948730,4539.102539,4550.641113,4403.077148,4474.102539,4652.000000,1.000000,24.000000,,,,0.000000,4.000000,4.000000,4.000000,4.000000,4.000000,4.000000,4.000000,4.000000,4.000000,4.000000,4.000000,4.000000,4.000000,4.000000,100.000000,,,,,,,,,,,,,,,,,,,,,,,,,,,,,,,,,,,,,,,,,,,,,,,,,,,,,,,,,,,,,,,,,,,,,,,,,,,,,,,,,,,,,,,,,,,,,,,,,,,,,,,,,,,,,,,,,,,,,
1768375349.127885,1768375349.128823,112.000000,0.000000,4335.897461,4325.000000,4356.794922,4340.512695,4311.410156,4310.000000,4311.153809,4317.436035,4310.000000,4300.128418,4537.692383,4542.436035,4400.128418,4474.743652,4933.000000,1.000000,24.000000,,,,0.000000,4.000000,4.000000,4.000000,4.000000,4.000000,4.000000,4.000000,4.000000,4.000000,4.000000,4.000000,4.000000,4.000000,4.000000,100.000000,,,,,,,,,,,,,,,,,,,,,,,,,,,,,,,,,,,,,,,,,,,,,,,,,,,,,,,,,,,,,,,,,,,,,,,,,,,,,,,,,,,,,,,,,,,,,,,,,,,,,,,,,,,,,,,,,,,,,
1768375349.135694,1768375349.136631,113.000000,0.000000,4336.153809,4331.410156,4359.358887,4342.436035,4309.230957,4310.384766,4311.282227,4316.666504,4308.461426,4296.410156,4528.717773,4528.589844,4397.179688,4473.333496,5126.000000,1.000000,24.000000,,,,0.000000,4.000000,4.000000,4.000000,4.000000,4.000000,4.000000,4.000000,4.000000,4.000000,4.000000,4.000000,4.000000,4.000000,4.000000,100.000000,,,,,,,,,,,,,,,,,,,,,,,,,,,,,,,,,,,,,,,,,,,,,,,,,,,,,,,,,,,,,,,,,,,,,,,,,,,,,,,,,,,,,,,,,,,,,,,,,,,,,,,,,,,,,,,,,,,,,
1768375349.143502,1768375349.144540,114.000000,0.000000,4335.256348,4330.000000,4356.153809,4343.589844,4310.128418,4308.333496,4309.871582,4312.307617,4306.025879,4294.230957,4525.769043,4530.000000,4393.717773,4470.128418,4382.000000,1.000000,24.000000,,,,0.000000,4.000000,4.000000,4.000000,4.000000,4.000000,4.000000,4.000000,4.000000,4.000000,4.000000,4.000000,4.000000,4.000000,4.000000,100.000000,,,,,,,,,,,,,,,,,,,,,,,,,,,,,,,,,,,,,,,,,,,,,,,,,,,,,,,,,,,,,,,,,,,,,,,,,,,,,,,,,,,,,,,,,,,,,,,,,,,,,,,,,,,,,,,,,,,,,
1768375349.151311,1768375349.152348,115.000000,0.000000,4339.487305,4323.589844,4359.102539,4343.846191,4312.563965,4312.948730,4314.871582,4315.512695,4309.871582,4302.051270,4538.461426,4544.487305,4399.615234,4475.512695,4652.000000,1.000000,24.000000,,,,0.000000,4.000000,4.000000,4.000000,4.000000,4.000000,4.000000,4.000000,4.000000,4.000000,4.000000,4.000000,4.000000,4.000000,4.000000,100.000000,,,,,,,,,,,,,,,,,,,,,,,,,,,,,,,,,,,,,,,,,,,,,,,,,,,,,,,,,,,,,,,,,,,,,,,,,,,,,,,,,,,,,,,,,,,,,,,,,,,,,,,,,,,,,,,,,,,,,
1768375349.159119,1768375349.159957,116.000000,0.000000,4341.538574,4322.436035,4363.717773,4344.487305,4314.102539,4318.461426,4322.563965,4318.589844,4310.769043,4305.512695,4541.922852,4542.563965,4404.358887,4478.717773,4933.000000,1.000000,24.000000,,,,0.000000,4.000000,4.000000,4.000000,4.000000,4.000000,4.000000,4.000000,4.000000,4.000000,4.000000,4.000000,4.000000,4.000000,4.000000,100.000000,,,,,,,,,,,,,,,,,,,,,,,,,,,,,,,,,,,,,,,,,,,,,,,,,,,,,,,,,,,,,,,,,,,,,,,,,,,,,,,,,,,,,,,,,,,,,,,,,,,,,,,,,,,,,,,,,,,,,
1768375349.166927,1768375349.167765,117.000000,0.000000,4336.538574,4324.743652,4361.025879,4346.922852,4313.974121,4313.589844,4317.307617,4313.717773,4307.179688,4299.487305,4533.077148,4528.333496,4400.512695,4475.769043,5126.000000,1.000000,24.000000,,,,0.000000,4.000000,4.000000,4.000000,4.000000,4.000000,4.000000,4.000000,4.000000,4.000000,4.000000,4.000000,4.000000,4.000000,4.000000,100.000000,,,,,,,,,,,,,,,,,,,,,,,,,,,,,,,,,,,,,,,,,,,,,,,,,,,,,,,,,,,,,,,,,,,,,,,,,,,,,,,,,,,,,,,,,,,,,,,,,,,,,,,,,,,,,,,,,,,,,
1768375349.174736,1768375349.175474,118.000000,0.000000,4335.256348,4325.769043,4359.487305,4351.025879,4311.922852,4308.589844,4309.230957,4315.512695,4310.256348,4297.307617,4534.743652,4531.666504,4399.358887,4474.487305,4382.000000,1.000000,24.000000,,,,0.000000,4.000000,4.000000,4.000000,4.000000,4.000000,4.000000,4.000000,4.000000,4.000000,4.000000,4.000000,4.000000,4.000000,4.000000,100.000000,,,,,,,,,,,,,,,,,,,,,,,,,,,,,,,,,,,,,,,,,,,,,,,,,,,,,,,,,,,,,,,,,,,,,,,,,,,,,,,,,,,,,,,,,,,,,,,,,,,,,,,,,,,,,,,,,,,,,
1768375349.182544,1768375349.183282,119.000000,0.000000,4338.077148,4323.461426,4361.025879,4349.615234,4309.743652,4310.769043,4313.077148,4321.282227,4315.384766,4299.871582,4539.615234,4544.102539,4401.794922,4474.358887,4652.000000,1.000000,24.000000,,,,0.000000,4.000000,4.000000,4.000000,4.000000,4.000000,4.000000,4.000000,4.000000,4.000000,4.000000,4.000000,4.000000,4.000000,4.000000,100.000000,,,,,,,,,,,,,,,,,,,,,,,,,,,,,,,,,,,,,,,,,,,,,,,,,,,,,,,,,,,,,,,,,,,,,,,,,,,,,,,,,,,,,,,,,,,,,,,,,,,,,,,,,,,,,,,,,,,,,
1768375349.190353,1768375349.191290,120.000000,0.000000,4334.487305,4324.358887,4358.077148,4342.820313,4310.769043,4309.358887,4312.051270,4316.794922,4311.282227,4299.871582,4538.846191,4540.128418,4401.922852,4475.897461,4933.000000,1.000000,24.000000,,,,0.000000,4.000000,4.000000,4.000000,4.000000,4.000000,4.000000,4.000000,4.000000,4.000000,4.000000,4.000000,4.000000,4.000000,4.000000,100.000000,,,,,,,,,,,,,,,,,,,,,,,,,,,,,,,,,,,,,,,,,,,,,,,,,,,,,,,,,,,,,,,,,,,,,,,,,,,,,,,,,,,,,,,,,,,,,,,,,,,,,,,,,,,,,,,,,,,,,
1768375349.198161,1768375349.199099,121.000000,0.000000,4324.871582,4322.051270,4351.666504,4338.333496,4307.179688,4305.256348,4302.820313,4313.077148,4306.666504,4300.000000,4537.307617,4532.948730,4401.153809,4474.615234,5126.000000,1.000000,24.000000,,,,0.000000,4.000000,4.000000,4.000000,4.000000,4.000000,4.000000,4.000000,4.000000,4.000000,4.000000,4.000000,4.000000,4.000000,4.000000,100.000000,,,,,,,,,,,,,,,,,,,,,,,,,,,,,,,,,,,,,,,,,,,,,,,,,,,,,,,,,,,,,,,,,,,,,,,,,,,,,,,,,,,,,,,,,,,,,,,,,,,,,,,,,,,,,,,,,,,,,
1768375349.205970,1768375349.207007,122.000000,0.000000,4324.743652,4315.641113,4351.922852,4341.538574,4302.436035,4312.820313,4307.948730,4319.615234,4311.666504,4302.307617,4535.641113,4537.436035,4400.769043,4470.000000,4382.000000,1.000000,24.000000,,,,0.000000,4.000000,4.000000,4.000000,4.000000,4.000000,4.000000,4.000000,4.000000,4.000000,4.000000,4.000000,4.000000,4.000000,4.000000,100.000000,,,,,,,,,,,,,,,,,,,,,,,,,,,,,,,,,,,,,,,,,,,,,,,,,,,,,,,,,,,,,,,,,,,,,,,,,,,,,,,,,,,,,,,,,,,,,,,,,,,,,,,,,,,,,,,,,,,,,
1768375349.213778,1768375349.214816,123.000000,0.000000,4331.666504,4317.948730,4356.538574,4346.410156,4309.615234,4321.922852,4318.589844,4323.205078,4317.436035,4303.974121,4540.000000,4540.641113,4401.410156,4470.128418,4652.000000,1.000000,24.000000,,,,0.000000,4.000000,4.000000,4.000000,4.000000,4.000000,4.000000,4.000000,4.000000,4.000000,4.000000,4.000000,4.000000,4.000000,4.000000,100.000000,,,,,,,,,,,,,,,,,,,,,,,,,,,,,,,,,,,,,,,,,,,,,,,,,,,,,,,,,,,,,,,,,,,,,,,,,,,,,,,,,,,,,,,,,,,,,,,,,,,,,,,,,,,,,,,,,,,,,
1768375349.221587,1768375349.222824,124.000000,0.000000,4329.102539,4319.743652,4353.589844,4344.230957,4315.256348,4316.153809,4313.717773,4320.000000,4313.589844,4300.897461,4538.461426,4533.461426,4403.077148,4472.051270,4933.000000,1.000000,24.000000,,,,0.000000,4.000000,4.000000,4.000000,4.000000,4.000000,4.000000,4.000000,4.000000,4.000000,4.000000,4.000000,4.000000,4.000000,4.000000,100.000000,,,,,,,,,,,,,,,,,,,,,,,,,,,,,,,,,,,,,,,,,,,,,,,,,,,,,,,,,,,,,,,,,,,,,,,,,,,,,,,,,,,,,,,,,,,,,,,,,,,,,,,,,,,,,,,,,,,,,
1768375349.229395,1768375349.230632,125.000000,0.000000,4324.871582,4317.692383,4349.615234,4345.128418,4311.922852,4311.538574,4309.487305,4317.948730,4306.922852,4295.128418,4527.820313,4528.205078,4400.000000,4470.897461,5126.000000,1.000000,24.000000,,,,0.000000,4.000000,4.000000,4.000000,4.000000,4.000000,4.000000,4.000000,4.000000,4.000000,4.000000,4.000000,4.000000,4.000000,4.000000,100.000000,,,,,,,,,,,,,,,,,,,,,,,,,,,,,,,,,,,,,,,,,,,,,,,,,,,,,,,,,,,,,,,,,,,,,,,,,,,,,,,,,,,,,,,,,,,,,,,,,,,,,,,,,,,,,,,,,,,,,
1768375349.237203,1768375349.238341,126.000000,0.000000,4326.282227,4316.666504,4354.230957,4350.512695,4311.025879,4314.871582,4313.974121,4317.436035,4308.077148,4294.102539,4526.282227,4530.000000,4395.128418,4471.025879,4382.000000,1.000000,24.000000,,,,0.000000,4.000000,4.000000,4.000000,4.000000,4.000000,4.000000,4.000000,4.000000,4.000000,4.000000,4.000000,4.000000,4.000000,4.000000,100.000000,,,,,,,,,,,,,,,,,,,,,,,,,,,,,,,,,,,,,,,,,,,,,,,,0.809992,0.266930,0.385046,0.290750,0.126989,0.904899,0.138604,0.264717,0.153880,0.106301,1.105203,0.268529,0.232662,0.158083,0.134942,0.567220,0.209248,0.189772,0.167862,0.124754,0.284724,0.102245,0.216482,0.108403,0.128657,0.271284,0.076931,0.096390,0.117487,0.109487,0.459681,0.141762,0.094949,0.114990,0.114433,0.546509,0.151966,0.089009,0.071156,0.078551,0.536306,0.195707,0.139283,0.100024,0.103733,0.833510,0.324743,0.153454,0.124754,0.152291,1.402944,0.348705,0.290937,0.259299,0.208955,1.403297,0.430462,0.348075,0.198834,0.284342,2.102196,0.622685,0.398623,0.358528,0.175136,1.542785,0.555522,0.557747,0.359877,0.182987
1768375349.245012,1768375349.246149,127.000000,0.000000,4326.538574,4317.563965,4358.205078,4350.384766,4310.897461,4313.461426,4313.333496,4318.589844,4312.692383,4300.000000,4535.769043,4535.897461,4401.153809,4474.743652,24.000000,1.000000,24.000000,,,,0.000000,4.000000,4.000000,4.000000,4.000000,4.000000,4.000000,4.000000,4.000000,4.000000,4.000000,4.000000,4.000000,4.000000,4.000000,100.000000,,,,,,,,,,,,,,,,,,,,,,,,,,,,,,,,,,,,,,,,,,,,,,,,,,,,,,,,,,,,,,,,,,,,,,,,,,,,,,,,,,,,,,,,,,,,,,,,,,,,,,,,,,,,,,,,,,,,,
1768375349.252820,1768375349.254158,0.000000,0.000000,4335.000000,4320.000000,4356.666504,4348.846191,4311.282227,4312.051270,4312.307617,4320.384766,4313.461426,4305.384766,4539.615234,4542.307617,4412.051270,4477.820313,4054.000000,1.000000,24.000000,,,,0.000000,4.000000,4.000000,4.000000,4.000000,4.000000,4.000000,4.000000,4.000000,4.000000,4.000000,4.000000,4.000000,4.000000,4.000000,100.000000,,,,,,,,,,,,,,,,,,,,,,,,,,,,,,,,,,,,,,,,,,,,,,,,,,,,,,,,,,,,,,,,,,,,,,,,,,,,,,,,,,,,,,,,,,,,,,,,,,,,,,,,,,,,,,,,,,,,,
1768375349.260629,1768375349.261966,1.000000,0.000000,4341.922852,4320.256348,4351.666504,4347.692383,4313.077148,4315.384766,4311.282227,4317.948730,4307.692383,4302.307617,4536.922852,4536.538574,4413.333496,4476.666504,4016.000000,1.000000,24.000000,,,,0.000000,4.000000,4.000000,4.000000,4.000000,4.000000,4.000000,4.000000,4.000000,4.000000,4.000000,4.000000,4.000000,4.000000,4.000000,100.000000,,,,,,,,,,,,,,,,,,,,,,,,,,,,,,,,,,,,,,,,,,,,,,,,,,,,,,,,,,,,,,,,,,,,,,,,,,,,,,,,,,,,,,,,,,,,,,,,,,,,,,,,,,,,,,,,,,,,,
1768375349.268437,1768375349.269874,2.000000,0.000000,4331.153809,4316.666504,4346.153809,4344.615234,4310.641113,4310.000000,4303.846191,4312.692383,4305.000000,4296.538574,4535.897461,4526.666504,4406.666504,4471.794922,3909.000000,1.000000,24.000000,,,,0.000000,4.000000,4.000000,4.000000,4.000000,4.000000,4.000000,4.000000,4.000000,4.000000,4.000000,4.000000,4.000000,4.000000,4.000000,100.000000,,,,,,,,,,,,,,,,,,,,,,,,,,,,,,,,,,,,,,,,,,,,,,,,,,,,,,,,,,,,,,,,,,,,,,,,,,,,,,,,,,,,,,,,,,,,,,,,,,,,,,,,,,,,,,,,,,,,,
1768375349.276246,1768375349.277683,3.000000,0.000000,4328.846191,4320.256348,4350.384766,4347.692383,4308.077148,4305.256348,4303.461426,4312.820313,4311.025879,4297.820313,4538.077148,4533.717773,4406.153809,4478.205078,3922.000000,1.000000,24.000000,,,,0.000000,4.000000,4.000000,4.000000,4.000000,4.000000,4.000000,4.000000,4.000000,4.000000,4.000000,4.000000,4.000000,4.000000,4.000000,100.000000,,,,,,,,,,,,,,,,,,,,,,,,,,,,,,,,,,,,,,,,,,,,,,,,,,,,,,,,,,,,,,,,,,,,,,,,,,,,,,,,,,,,,,,,,,,,,,,,,,,,,,,,,,,,,,,,,,,,,
1768375349.284054,1768375349.285291,4.000000,0.000000,4344.487305,4326.794922,4360.769043,4352.436035,4311.025879,4313.333496,4311.538574,4315.000000,4313.589844,4302.820313,4542.307617,4545.897461,4410.897461,4489.487305,3861.000000,1.000000,24.000000,,,,0.000000,4.000000,4.000000,4.000000,4.000000,4.000000,4.000000,4.000000,4.000000,4.000000,4.000000,4.000000,4.000000,4.000000,4.000000,100.000000,,,,,,,,,,,,,,,,,,,,,,,,,,,,,,,,,,,,,,,,,,,,,,,,,,,,,,,,,,,,,,,,,,,,,,,,,,,,,,,,,,,,,,,,,,,,,,,,,,,,,,,,,,,,,,,,,,,,,
1768375349.291862,1768375349.293100,5.000000,0.000000,4349.743652,4323.205078,4359.358887,4346.666504,4311.666504,4313.461426,4310.384766,4311.025879,4306.794922,4301.922852,4540.897461,4540.769043,4410.769043,4483.077148,3752.000000,1.000000,24.000000,,,,0.000000,4.000000,4.000000,4.000000,4.000000,4.000000,4.000000,4.000000,4.000000,4.000000,4.000000,4.000000,4.000000,4.000000,4.000000,100.000000,,,,,,,,,,,,,,,,,,,,,,,,,,,,,,,,,,,,,,,,,,,,,,,,,,,,,,,,,,,,,,,,,,,,,,,,,,,,,,,,,,,,,,,,,,,,,,,,,,,,,,,,,,,,,,,,,,,,,
1768375349.299671,1768375349.300808,6.000000,0.000000,4340.769043,4317.563965,4349.743652,4340.256348,4305.769043,4304.102539,4304.358887,4308.974121,4300.256348,4298.077148,4534.102539,4530.256348,4406.025879,4475.641113,3789.000000,1.000000,24.000000,,,,0.000000,4.000000,4.000000,4.000000,4.000000,4.000000,4.000000,4.000000,4.000000,4.000000,4.000000,4.000000,4.000000,4.000000,4.000000,100.000000,,,,,,,,,,,,,,,,,,,,,,,,,,,,,,,,,,,,,,,,,,,,,,,,,,,,,,,,,,,,,,,,,,,,,,,,,,,,,,,,,,,,,,,,,,,,,,,,,,,,,,,,,,,,,,,,,,,,,
1768375349.307479,1768375349.308617,7.000000,0.000000,4340.897461,4319.743652,4351.794922,4347.436035,4304.487305,4306.282227,4307.820313,4317.051270,4304.102539,4301.538574,4535.897461,4534.871582,4407.051270,4486.922852,3179.000000,1.000000,24.000000,,,,0.000000,4.000000,4.000000,4.000000,4.000000,4.000000,4.000000,4.000000,4.000000,4.000000,4.000000,4.000000,4.000000,4.000000,4.000000,100.000000,,,,,,,,,,,,,,,,,,,,,,,,,,,,,,,,,,,,,,,,,,,,,,,,,,,,,,,,,,,,,,,,,,,,,,,,,,,,,,,,,,,,,,,,,,,,,,,,,,,,,,,,,,,,,,,,,,,,,
1768375349.315288,1768375349.316226,8.000000,0.000000,4346.025879,4320.512695,4357.692383,4352.051270,4311.410156,4313.589844,4312.307617,4322.948730,4310.897461,4306.410156,4542.179688,4544.615234,4414.358887,4496.538574,3994.000000,1.000000,24.000000,,,,0.000000,4.000000,4.000000,4.000000,4.000000,4.000000,4.000000,4.000000,4.000000,4.000000,4.000000,4.000000,4.000000,4.000000,4.000000,100.000000,,,,,,,,,,,,,,,,,,,,,,,,,,,,,,,,,,,,,,,,,,,,,,,,,,,,,,,,,,,,,,,,,,,,,,,,,,,,,,,,,,,,,,,,,,,,,,,,,,,,,,,,,,,,,,,,,,,,,
1768375349.323096,1768375349.324034,9.000000,0.000000,4347.307617,4318.846191,4355.384766,4346.538574,4315.256348,4309.102539,4307.563965,4319.102539,4309.743652,4303.077148,4540.000000,4543.461426,4413.974121,4491.922852,4001.000000,1.000000,24.000000,,,,0.000000,4.000000,4.000000,4.000000,4.000000,4.000000,4.000000,4.000000,4.000000,4.000000,4.000000,4.000000,4.000000,4.000000,4.000000,100.000000,,,,,,,,,,,,,,,,,,,,,,,,,,,,,,,,,,,,,,,,,,,,,,,,,,,,,,,,,,,,,,,,,,,,,,,,,,,,,,,,,,,,,,,,,,,,,,,,,,,,,,,,,,,,,,,,,,,,,
1768375349.330905,1768375349.331942,10.000000,0.000000,4354.743652,4319.743652,4354.615234,4350.128418,4309.487305,4303.205078,4306.922852,4313.974121,4303.589844,4294.743652,4531.922852,4534.487305,4404.743652,4488.974121,4383.000000,1.000000,24.000000,,,,0.000000,4.000000,4.000000,4.000000,4.000000,4.000000,4.000000,4.000000,4.000000,4.000000,4.000000,4.000000,4.000000,4.000000,4.000000,100.000000,,,,,,,,,,,,,,,,,,,,,,,,,,,,,,,,,,,,,,,,,,,,,,,,,,,,,,,,,,,,,,,,,,,,,,,,,,,,,,,,,,,,,,,,,,,,,,,,,,,,,,,,,,,,,,,,,,,,,
1768375349.338713,1768375349.339751,11.000000,0.000000,4364.230957,4325.512695,4358.846191,4361.794922,4307.051270,4308.333496,4310.384766,4315.512695,4299.487305,4292.563965,4531.025879,4530.641113,4404.743652,4496.410156,4652.000000,1.000000,24.000000,,,,0.000000,4.000000,4.000000,4.000000,4.000000,4.000000,4.000000,4.000000,4.000000,4.000000,4.000000,4.000000,4.000000,4.000000,4.000000,100.000000,,,,,,,,,,,,,,,,,,,,,,,,,,,,,,,,,,,,,,,,,,,,,,,,,,,,,,,,,,,,,,,,,,,,,,,,,,,,,,,,,,,,,,,,,,,,,,,,,,,,,,,,,,,,,,,,,,,,,
1768375349.346522,1768375349.347759,12.000000,0.000000,4366.794922,4329.871582,4358.461426,4362.820313,4311.282227,4310.384766,4303.974121,4320.512695,4303.846191,4299.102539,4539.487305,4539.230957,4414.487305,4507.563965,4934.000000,1.000000,24.000000,,,,0.000000,4.000000,4.000000,4.000000,4.000000,4.000000,4.000000,4.000000,4.000000,4.000000,4.000000,4.000000,4.000000,4.000000,4.000000,100.000000,,,,,,,,,,,,,,,,,,,,,,,,,,,,,,,,,,,,,,,,,,,,,,,,,,,,,,,,,,,,,,,,,,,,,,,,,,,,,,,,,,,,,,,,,,,,,,,,,,,,,,,,,,,,,,,,,,,,,
1768375349.354330,1768375349.355568,13.000000,0.000000,4366.410156,4328.717773,4355.897461,4357.948730,4310.897461,4305.769043,4298.333496,4320.128418,4306.794922,4303.717773,4543.077148,4550.384766,4414.743652,4510.384766,5131.000000,1.000000,24.000000,,,,0.000000,4.000000,4.000000,4.000000,4.000000,4.000000,4.000000,4.000000,4.000000,4.000000,4.000000,4.000000,4.000000,4.000000,4.000000,100.000000,,,,,,,,,,,,,,,,,,,,,,,,,,,,,,,,,,,,,,,,,,,,,,,,,,,,,,,,,,,,,,,,,,,,,,,,,,,,,,,,,,,,,,,,,,,,,,,,,,,,,,,,,,,,,,,,,,,,,
1768375349.362138,1768375349.363276,14.000000,0.000000,4365.256348,4326.922852,4360.384766,4360.769043,4309.743652,4307.563965,4303.717773,4315.000000,4303.461426,4303.717773,4539.615234,4550.641113,4411.794922,4507.436035,4383.000000,1.000000,24.000000,,,,0.000000,4.000000,4.000000,4.000000,4.000000,4.000000,4.000000,4.000000,4.000000,4.000000,4.000000,4.000000,4.000000,4.000000,4.000000,100.000000,1.000000,50.000000,4.000000,4.000000,4.000000,4.000000,1.000000,1.000000,4.000000,4.000000,4.000000,4.000000,4.000000,4.000000,4.000000,4.000000,,,,,,,,,,,,,,,,,,,,,,,,,,,,,,,,0.937092,0.357402,0.394386,0.246002,0.136157,0.991472,0.218357,0.275044,0.136585,0.114034,1.174488,0.290511,0.228387,0.125366,0.126153,0.628825,0.227631,0.206715,0.154581,0.130848,0.289798,0.091294,0.238142,0.101753,0.123266,0.267193,0.050584,0.086318,0.117206,0.103625,0.507218,0.128206,0.093513,0.120830,0.116378,0.560186,0.177715,0.098344,0.078830,0.084363,0.514793,0.214178,0.121091,0.106692,0.109755,0.708602,0.335486,0.170622,0.109352,0.158981,1.378044,0.358937,0.288318,0.245483,0.209623,1.381039,0.429711,0.376707,0.175965,0.284058,2.034472,0.705773,0.406558,0.315790,0.162979,1.594515,0.652345,0.571147,0.318016,0.179688
1768375349.369947,1768375349.371085,15.000000,0.000000,4360.128418,4326.410156,4358.589844,4361.282227,4309.615234,4311.794922,4306.282227,4312.307617,4303.461426,4303.846191,4539.102539,4541.153809,4413.717773,4508.205078,4652.000000,1.000000,24.000000,,,,0.000000,4.000000,4.000000,4.000000,4.000000,4.000000,4.000000,4.000000,4.000000,4.000000,4.000000,4.000000,4.000000,4.000000,4.000000,100.000000,,,,,,,,,,,,,,,,,,,,,,,,,,,,,,,,,,,,,,,,,,,,,,,,,,,,,,,,,,,,,,,,,,,,,,,,,,,,,,,,,,,,,,,,,,,,,,,,,,,,,,,,,,,,,,,,,,,,,
1768375349.377755,1768375349.378693,16.000000,0.000000,4356.153809,4321.410156,4350.512695,4353.205078,4309.102539,4308.717773,4303.333496,4312.948730,4304.743652,4300.256348,4539.102539,4537.051270,4411.538574,4502.692383,0.000000,1.000000,24.000000,,,,0.000000,4.000000,4.000000,4.000000,4.000000,4.000000,4.000000,4.000000,4.000000,4.000000,4.000000,4.000000,4.000000,4.000000,4.000000,100.000000,,,,,,,,,,,,,,,,,,,,,,,,,,,,,,,,,,,,,,,,,,,,,,,,,,,,,,,,,,,,,,,,,,,,,,,,,,,,,,,,,,,,,,,,,,,,,,,,,,,,,,,,,,,,,,,,,,,,,
1768375349.385564,1768375349.386502,17.000000,0.000000,4357.436035,4315.384766,4351.025879,4348.846191,4310.769043,4306.282227,4303.333496,4314.615234,4300.384766,4295.256348,4534.615234,4540.897461,4409.743652,4497.563965,0.000000,1.000000,24.000000,,,,0.000000,4.000000,4.000000,4.000000,4.000000,4.000000,4.000000,4.000000,4.000000,4.000000,4.000000,4.000000,4.000000,4.000000,4.000000,100.000000,,,,,,,,,,,,,,,,,,,,,,,,,,,,,,,,,,,,,,,,,,,,,,,,,,,,,,,,,,,,,,,,,,,,,,,,,,,,,,,,,,,,,,,,,,,,,,,,,,,,,,,,,,,,,,,,,,,,,
1768375349.393372,1768375349.394410,18.000000,0.000000,4359.615234,4320.128418,4357.436035,4353.461426,4309.487305,4308.333496,4302.179688,4316.025879,4300.128418,4296.794922,4534.871582,4541.153809,4412.563965,4506.410156,0.000000,1.000000,24.000000,,,,0.000000,4.000000,4.000000,4.000000,4.000000,4.000000,4.000000,4.000000,4.000000,4.000000,4.000000,4.000000,4.000000,4.000000,4.000000,100.000000,,,,,,,,,,,,,,,,,,,,,,,,,,,,,,,,,,,,,,,,,,,,,,,,,,,,,,,,,,,,,,,,,,,,,,,,,,,,,,,,,,,,,,,,,,,,,,,,,,,,,,,,,,,,,,,,,,,,,
1768375349.401181,1768375349.402218,19.000000,0.000000,4360.512695,4326.794922,4360.641113,4359.487305,4307.436035,4308.205078,4298.846191,4318.589844,4306.153809,4300.512695,4538.589844,4539.358887,4409.743652,4509.358887,0.000000,1.000000,24.000000,,,,0.000000,4.000000,4.000000,4.000000,4.000000,4.000000,4.000000,4.000000,4.000000,4.000000,4.000000,4.000000,4.000000,4.000000,4.000000,100.000000,,,,,,,,,,,,,,,,,,,,,,,,,,,,,,,,,,,,,,,,,,,,,,,,,,,,,,,,,,,,,,,,,,,,,,,,,,,,,,,,,,,,,,,,,,,,,,,,,,,,,,,,,,,,,,,,,,,,,
1768375349.408989,1768375349.410227,20.000000,0.000000,4351.282227,4316.282227,4353.205078,4354.743652,4310.256348,4309.358887,4300.000000,4318.333496,4304.871582,4298.974121,4536.025879,4538.077148,4405.769043,4496.538574,0.000000,1.000000,24.000000,,,,0.000000,4.000000,4.000000,4.000000,4.000000,4.000000,4.000000,4.000000,4.000000,4.000000,4.000000,4.000000,4.000000,4.000000,4.000000,100.000000,,,,,,,,,,,,,,,,,,,,,,,,,,,,,,,,,,,,,,,,,,,,,,,,,,,,,,,,,,,,,,,,,,,,,,,,,,,,,,,,,,,,,,,,,,,,,,,,,,,,,,,,,,,,,,,,,,,,,
1768375349.416798,1768375349.418035,21.000000,0.000000,4338.333496,4306.282227,4341.025879,4345.641113,4306.025879,4307.436035,4303.077148,4315.384766,4300.897461,4298.717773,4533.333496,4533.589844,4407.179688,4488.333496,0.000000,1.000000,24.000000,,,,0.000000,4.000000,4.000000,4.000000,4.000000,4.000000,4.000000,4.000000,4.000000,4.000000,4.000000,4.000000,4.000000,4.000000,4.000000,100.000000,,,,,,,,,,,,,,,,,,,,,,,,,,,,,,,,,,,,,,,,,,,,,,,,,,,,,,,,,,,,,,,,,,,,,,,,,,,,,,,,,,,,,,,,,,,,,,,,,,,,,,,,,,,,,,,,,,,,,
1768375349.424606,1768375349.425844,22.000000,0.000000,4340.384766,4310.897461,4343.461426,4346.794922,4298.333496,4304.487305,4304.487305,4314.487305,4299.615234,4298.846191,4531.794922,4528.974121,4402.948730,4488.846191,0.000000,1.000000,24.000000,,,,0.000000,4.000000,4.000000,4.000000,4.000000,4.000000,4.000000,4.000000,4.000000,4.000000,4.000000,4.000000,4.000000,4.000000,4.000000,100.000000,,,,,,,,,,,,,,,,,,,,,,,,,,,,,,,,,,,,,,,,,,,,,,,,,,,,,,,,,,,,,,,,,,,,,,,,,,,,,,,,,,,,,,,,,,,,,,,,,,,,,,,,,,,,,,,,,,,,,
1768375349.432414,1768375349.433652,23.000000,0.000000,4347.307617,4316.282227,4350.897461,4352.436035,4305.512695,4306.922852,4300.384766,4316.025879,4298.846191,4295.384766,4530.000000,4530.000000,4399.102539,4487.051270,0.000000,1.000000,24.000000,,,,0.000000,4.000000,4.000000,4.000000,4.000000,4.000000,4.000000,4.000000,4.000000,4.000000,4.000000,4.000000,4.000000,4.000000,4.000000,100.000000,,,,,,,,,,,,,,,,,,,,,,,,,,,,,,,,,,,,,,,,,,,,,,,,,,,,,,,,,,,,,,,,,,,,,,,,,,,,,,,,,,,,,,,,,,,,,,,,,,,,,,,,,,,,,,,,,,,,,
1768375349.440223,1768375349.441261,24.000000,0.000000,4344.230957,4314.743652,4345.000000,4350.769043,4309.615234,4303.333496,4293.333496,4318.333496,4300.256348,4296.922852,4536.538574,4536.538574,4408.974121,4487.948730,0.000000,1.000000,24.000000,,,,0.000000,4.000000,4.000000,4.000000,4.000000,4.000000,4.000000,4.000000,4.000000,4.000000,4.000000,4.000000,4.000000,4.000000,4.000000,100.000000,,,,,,,,,,,,,,,,,,,,,,,,,,,,,,,,,,,,,,,,,,,,,,,,,,,,,,,,,,,,,,,,,,,,,,,,,,,,,,,,,,,,,,,,,,,,,,,,,,,,,,,,,,,,,,,,,,,,,
1768375349.448031,1768375349.449069,25.000000,0.000000,4339.487305,4313.461426,4340.641113,4347.307617,4302.820313,4298.589844,4295.000000,4318.205078,4300.769043,4302.051270,4541.666504,4540.769043,4418.333496,4493.333496,0.000000,1.000000,24.000000,,,,0.000000,4.000000,4.000000,4.000000,4.000000,4.000000,4.000000,4.000000,4.000000,4.000000,4.000000,4.000000,4.000000,4.000000,4.000000,100.000000,,,,,,,,,,,,,,,,,,,,,,,,,,,,,,,,,,,,,,,,,,,,,,,,,,,,,,,,,,,,,,,,,,,,,,,,,,,,,,,,,,,,,,,,,,,,,,,,,,,,,,,,,,,,,,,,,,,,,
1768375349.455840,1768375349.456977,26.000000,0.000000,4340.256348,4316.410156,4348.846191,4347.436035,4305.512695,4302.692383,4300.897461,4317.436035,4302.563965,4303.333496,4539.487305,4537.179688,4415.256348,4490.128418,0.000000,1.000000,24.000000,,,,0.000000,4.000000,4.000000,4.000000,4.000000,4.000000,4.000000,4.000000,4.000000,4.000000,4.000000,4.000000,4.000000,4.000000,4.000000,100.000000,,,,,,,,,,,,,,,,,,,,,,,,,,,,,,,,,,,,,,,,,,,,,,,,,,,,,,,,,,,,,,,,,,,,,,,,,,,,,,,,,,,,,,,,,,,,,,,,,,,,,,,,,,,,,,,,,,,,,
1768375349.463648,1768375349.464786,27.000000,0.000000,4342.436035,4319.871582,4353.333496,4350.512695,4313.589844,4305.128418,4299.615234,4316.025879,4308.205078,4299.487305,4535.256348,4529.358887,4406.410156,4478.846191,0.000000,1.000000,24.000000,,,,0.000000,4.000000,4.000000,4.000000,4.000000,4.000000,4.000000,4.000000,4.000000,4.000000,4.000000,4.000000,4.000000,4.000000,4.000000,100.000000,,,,,,,,,,,,,,,,,,,,,,,,,,,,,,,,,,,,,,,,,,,,,,,,,,,,,,,,,,,,,,,,,,,,,,,,,,,,,,,,,,,,,,,,,,,,,,,,,,,,,,,,,,,,,,,,,,,,,
1768375349.471457,1768375349.472395,28.000000,0.000000,4339.358887,4316.282227,4348.846191,4352.307617,4311.282227,4305.641113,4296.666504,4312.563965,4308.974121,4300.000000,4531.025879,4527.948730,4403.461426,4475.000000,0.000000,1.000000,24.000000,,,,0.000000,4.000000,4.000000,4.000000,4.000000,4.000000,4.000000,4.000000,4.000000,4.000000,4.000000,4.000000,4.000000,4.000000,4.000000,100.000000,,,,,,,,,,,,,,,,,,,,,,,,,,,,,,,,,,,,,,,,,,,,,,,,,,,,,,,,,,,,,,,,,,,,,,,,,,,,,,,,,,,,,,,,,,,,,,,,,,,,,,,,,,,,,,,,,,,,,
1768375349.479265,1768375349.480203,29.000000,0.000000,4331.282227,4307.692383,4343.846191,4349.230957,4302.692383,4305.641113,4300.384766,4315.641113,4308.589844,4306.153809,4532.820313,4535.384766,4407.820313,4478.589844,0.000000,1.000000,24.000000,,,,0.000000,4.000000,4.000000,4.000000,4.000000,4.000000,4.000000,4.000000,4.000000,4.000000,4.000000,4.000000,4.000000,4.000000,4.000000,100.000000,,,,,,,,,,,,,,,,,,,,,,,,,,,,,,,,,,,,,,,,,,,,,,,,,,,,,,,,,,,,,,,,,,,,,,,,,,,,,,,,,,,,,,,,,,,,,,,,,,,,,,,,,,,,,,,,,,,,,
1768375349.487074,1768375349.487912,30.000000,0.000000,4330.512695,4306.794922,4340.897461,4345.641113,4302.948730,4300.512695,4303.717773,4320.641113,4314.487305,4302.948730,4538.461426,4538.077148,4410.641113,4479.358887,0.000000,1.000000,24.000000,,,,0.000000,4.000000,4.000000,4.000000,4.000000,4.000000,4.000000,4.000000,4.000000,4.000000,4.000000,4.000000,4.000000,4.000000,4.000000,100.000000,,,,,,,,,,,,,,,,,,,,,,,,,,,,,,,,,,,,,,,,,,,,,,,,1.038279,0.486456,0.418230,0.205634,0.142647,1.094400,0.324296,0.292739,0.122891,0.117866,1.177305,0.310091,0.223265,0.094372,0.124422,0.653751,0.248556,0.224208,0.142021,0.128136,0.293847,0.074208,0.254583,0.099849,0.118147,0.249428,0.041927,0.078091,0.113557,0.100014,0.529278,0.129631,0.091262,0.129973,0.118390,0.523998,0.187506,0.110399,0.084294,0.090713,0.481057,0.228094,0.118711,0.107315,0.116446,0.576354,0.327952,0.186269,0.097065,0.159753,1.300438,0.380259,0.284497,0.242028,0.200243,1.277177,0.422767,0.385942,0.158991,0.283539,1.858118,0.752647,0.421880,0.273769,0.150649,1.509274,0.759925,0.562401,0.281284,0.174696
1768375349.494882,1768375349.495720,31.000000,0.000000,4337.307617,4311.282227,4343.974121,4346.666504,4311.922852,4302.179688,4301.282227,4318.333496,4311.922852,4294.230957,4532.179688,4528.589844,4405.256348,4475.641113,0.000000,1.000000,24.000000,,,,0.000000,4.000000,4.000000,4.000000,4.000000,4.000000,4.000000,4.000000,4.000000,4.000000,4.000000,4.000000,4.000000,4.000000,4.000000,100.000000,,,,,,,,,,,,,,,,,,,,,,,,,,,,,,,,,,,,,,,,,,,,,,,,,,,,,,,,,,,,,,,,,,,,,,,,,,,,,,,,,,,,,,,,,,,,,,,,,,,,,,,,,,,,,,,,,,,,,
1768375349.502690,1768375349.503329,32.000000,0.000000,4333.717773,4306.282227,4340.512695,4345.384766,4315.641113,4311.282227,4302.692383,4315.641113,4299.358887,4293.077148,4520.769043,4519.615234,4391.666504,4468.077148,0.000000,1.000000,24.000000,,,,0.000000,4.000000,4.000000,4.000000,4.000000,4.000000,4.000000,4.000000,4.000000,4.000000,4.000000,4.000000,4.000000,4.000000,4.000000,100.000000,,,,,,,,,,,,,,,,,,,,,,,,,,,,,,,,,,,,,,,,,,,,,,,,,,,,,,,,,,,,,,,,,,,,,,,,,,,,,,,,,,,,,,,,,,,,,,,,,,,,,,,,,,,,,,,,,,,,,
1768375349.510499,1768375349.511137,33.000000,0.000000,4322.307617,4297.179688,4328.333496,4337.179688,4309.358887,4311.538574,4307.692383,4317.307617,4297.051270,4294.102539,4519.230957,4518.461426,4383.846191,4459.358887,0.000000,1.000000,24.000000,,,,0.000000,4.000000,4.000000,4.000000,4.000000,4.000000,4.000000,4.000000,4.000000,4.000000,4.000000,4.000000,4.000000,4.000000,4.000000,100.000000,,,,,,,,,,,,,,,,,,,,,,,,,,,,,,,,,,,,,,,,,,,,,,,,,,,,,,,,,,,,,,,,,,,,,,,,,,,,,,,,,,,,,,,,,,,,,,,,,,,,,,,,,,,,,,,,,,,,,
1768375349.518307,1768375349.519045,34.000000,0.000000,4321.282227,4295.512695,4331.922852,4336.538574,4306.025879,4308.461426,4309.487305,4319.487305,4306.794922,4293.333496,4521.922852,4521.410156,4389.102539,4457.436035,0.000000,1.000000,24.000000,,,,0.000000,4.000000,4.000000,4.000000,4.000000,4.000000,4.000000,4.000000,4.000000,4.000000,4.000000,4.000000,4.000000,4.000000,4.000000,100.000000,,,,,,,,,,,,,,,,,,,,,,,,,,,,,,,,,,,,,,,,,,,,,,,,,,,,,,,,,,,,,,,,,,,,,,,,,,,,,,,,,,,,,,,,,,,,,,,,,,,,,,,,,,,,,,,,,,,,,
1768375349.526116,1768375349.526854,35.000000,0.000000,4325.897461,4300.256348,4345.641113,4343.077148,4306.538574,4304.358887,4310.000000,4320.897461,4311.282227,4297.051270,4525.897461,4527.179688,4398.846191,4461.922852,0.000000,1.000000,24.000000,,,,0.000000,4.000000,4.000000,4.000000,4.000000,4.000000,4.000000,4.000000,4.000000,4.000000,4.000000,4.000000,4.000000,4.000000,4.000000,100.000000,,,,,,,,,,,,,,,,,,,,,,,,,,,,,,,,,,,,,,,,,,,,,,,,,,,,,,,,,,,,,,,,,,,,,,,,,,,,,,,,,,,,,,,,,,,,,,,,,,,,,,,,,,,,,,,,,,,,,
1768375349.533924,1768375349.534862,36.000000,0.000000,4325.128418,4300.897461,4345.512695,4342.563965,4307.051270,4297.692383,4308.077148,4320.512695,4307.948730,4304.871582,4533.333496,4532.563965,4405.384766,4466.153809,0.000000,1.000000,24.000000,,,,0.000000,4.000000,4.000000,4.000000,4.000000,4.000000,4.000000,4.000000,4.000000,4.000000,4.000000,4.000000,4.000000,4.000000,4.000000,100.000000,,,,,,,,,,,,,,,,,,,,,,,,,,,,,,,,,,,,,,,,,,,,,,,,,,,,,,,,,,,,,,,,,,,,,,,,,,,,,,,,,,,,,,,,,,,,,,,,,,,,,,,,,,,,,,,,,,,,,
1768375349.541733,1768375349.542671,37.000000,0.000000,4323.846191,4298.461426,4338.846191,4340.000000,4307.436035,4302.563965,4305.256348,4319.871582,4309.102539,4307.436035,4537.179688,4535.384766,4406.538574,4472.307617,0.000000,1.000000,24.000000,,,,0.000000,4.000000,4.000000,4.000000,4.000000,4.000000,4.000000,4.000000,4.000000,4.000000,4.000000,4.000000,4.000000,4.000000,4.000000,100.000000,,,,,,,,,,,,,,,,,,,,,,,,,,,,,,,,,,,,,,,,,,,,,,,,,,,,,,,,,,,,,,,,,,,,,,,,,,,,,,,,,,,,,,,,,,,,,,,,,,,,,,,,,,,,,,,,,,,,,
1768375349.549541,1768375349.550579,38.000000,0.000000,4324.615234,4296.794922,4341.025879,4338.205078,4302.436035,4305.000000,4305.512695,4323.846191,4311.025879,4303.974121,4533.077148,4535.384766,4401.282227,4474.487305,0.000000,1.000000,24.000000,,,,0.000000,4.000000,4.000000,4.000000,4.000000,4.000000,4.000000,4.000000,4.000000,4.000000,4.000000,4.000000,4.000000,4.000000,4.000000,100.000000,,,,,,,,,,,,,,,,,,,,,,,,,,,,,,,,,,,,,,,,,,,,,,,,,,,,,,,,,,,,,,,,,,,,,,,,,,,,,,,,,,,,,,,,,,,,,,,,,,,,,,,,,,,,,,,,,,,,,
1768375349.557350,1768375349.558387,39.000000,0.000000,4324.615234,4294.487305,4344.358887,4337.179688,4297.436035,4299.102539,4309.487305,4324.102539,4307.436035,4299.615234,4524.871582,4529.230957,4395.641113,4466.794922,0.000000,1.000000,24.000000,,,,0.000000,4.000000,4.000000,4.000000,4.000000,4.000000,4.000000,4.000000,4.000000,4.000000,4.000000,4.000000,4.000000,4.000000,4.000000,100.000000,,,,,,,,,,,,,,,,,,,,,,,,,,,,,,,,,,,,,,,,,,,,,,,,,,,,,,,,,,,,,,,,,,,,,,,,,,,,,,,,,,,,,,,,,,,,,,,,,,,,,,,,,,,,,,,,,,,,,
1768375349.565158,1768375349.566396,40.000000,0.000000,4325.128418,4295.384766,4342.051270,4336.922852,4303.846191,4306.153809,4312.563965,4321.025879,4307.436035,4299.358887,4520.897461,4524.615234,4395.897461,4457.307617,0.000000,1.000000,24.000000,,,,0.000000,4.000000,4.000000,4.000000,4.000000,4.000000,4.000000,4.000000,4.000000,4.000000,4.000000,4.000000,4.000000,4.000000,4.000000,100.000000,,,,,,,,,,,,,,,,,,,,,,,,,,,,,,,,,,,,,,,,,,,,,,,,,,,,,,,,,,,,,,,,,,,,,,,,,,,,,,,,,,,,,,,,,,,,,,,,,,,,,,,,,,,,,,,,,,,,,
1768375349.572966,1768375349.574204,41.000000,0.000000,4326.282227,4300.641113,4340.897461,4338.974121,4309.743652,4314.871582,4310.256348,4325.897461,4312.948730,4305.128418,4529.358887,4531.410156,4401.153809,4463.717773,0.000000,1.000000,24.000000,,,,0.000000,4.000000,4.000000,4.000000,4.000000,4.000000,4.000000,4.000000,4.000000,4.000000,4.000000,4.000000,4.000000,4.000000,4.000000,100.000000,,,,,,,,,,,,,,,,,,,,,,,,,,,,,,,,,,,,,,,,,,,,,,,,,,,,,,,,,,,,,,,,,,,,,,,,,,,,,,,,,,,,,,,,,,,,,,,,,,,,,,,,,,,,,,,,,,,,,
1768375349.580775,1768375349.581913,42.000000,0.000000,4326.922852,4303.077148,4343.333496,4341.666504,4305.384766,4311.410156,4311.410156,4325.384766,4312.051270,4305.512695,4536.153809,4535.641113,4403.846191,4473.846191,0.000000,1.000000,24.000000,,,,0.000000,4.000000,4.000000,4.000000,4.000000,4.000000,4.000000,4.000000,4.000000,4.000000,4.000000,4.000000,4.000000,4.000000,4.000000,100.000000,,,,,,,,,,,,,,,,,,,,,,,,,,,,,,,,,,,,,,,,,,,,,,,,,,,,,,,,,,,,,,,,,,,,,,,,,,,,,,,,,,,,,,,,,,,,,,,,,,,,,,,,,,,,,,,,,,,,,
1768375349.588583,1768375349.589721,43.000000,0.000000,4328.205078,4297.307617,4344.487305,4339.743652,4303.461426,4311.666504,4315.256348,4316.025879,4305.512695,4296.794922,4527.307617,4527.820313,4396.666504,4465.897461,0.000000,1.000000,24.000000,,,,0.000000,4.000000,4.000000,4.000000,4.000000,4.000000,4.000000,4.000000,4.000000,4.000000,4.000000,4.000000,4.000000,4.000000,4.000000,100.000000,,,,,,,,,,,,,,,,,,,,,,,,,,,,,,,,,,,,,,,,,,,,,,,,,,,,,,,,,,,,,,,,,,,,,,,,,,,,,,,,,,,,,,,,,,,,,,,,,,,,,,,,,,,,,,,,,,,,,
1768375349.596392,1768375349.597729,44.000000,0.000000,4332.436035,4295.384766,4343.461426,4340.769043,4308.589844,4316.153809,4315.384766,4318.077148,4306.794922,4295.769043,4519.358887,4525.897461,4391.282227,4462.179688,0.000000,1.000000,24.000000,,,,0.000000,4.000000,4.000000,4.000000,4.000000,4.000000,4.000000,4.000000,4.000000,4.000000,4.000000,4.000000,4.000000,4.000000,4.000000,100.000000,,,,,,,,,,,,,,,,,,,,,,,,,,,,,,,,,,,,,,,,,,,,,,,,,,,,,,,,,,,,,,,,,,,,,,,,,,,,,,,,,,,,,,,,,,,,,,,,,,,,,,,,,,,,,,,,,,,,,
1768375349.604200,1768375349.605538,45.000000,0.000000,4336.282227,4300.384766,4346.153809,4345.512695,4310.384766,4310.769043,4312.563965,4322.692383,4311.666504,4306.538574,4525.000000,4535.641113,4398.461426,4472.820313,0.000000,1.000000,24.000000,,,,0.000000,4.000000,4.000000,4.000000,4.000000,4.000000,4.000000,4.000000,4.000000,4.000000,4.000000,4.000000,4.000000,4.000000,4.000000,100.000000,,,,,,,,,,,,,,,,,,,,,,,,,,,,,,,,,,,,,,,,,,,,,,,,,,,,,,,,,,,,,,,,,,,,,,,,,,,,,,,,,,,,,,,,,,,,,,,,,,,,,,,,,,,,,,,,,,,,,
1768375349.612009,1768375349.613346,46.000000,0.000000,4333.846191,4299.102539,4350.897461,4343.461426,4307.051270,4304.358887,4309.615234,4315.769043,4310.512695,4309.102539,4528.846191,4540.256348,4400.128418,4470.897461,0.000000,1.000000,24.000000,,,,0.000000,4.000000,4.000000,4.000000,4.000000,4.000000,4.000000,4.000000,4.000000,4.000000,4.000000,4.000000,4.000000,4.000000,4.000000,100.000000,,,,,,,,,,,,,,,,,,,,,,,,,,,,,,,,,,,,,,,,,,,,,,,,1.130872,0.620607,0.444869,0.180357,0.145174,1.144432,0.430253,0.309405,0.115220,0.116872,1.140658,0.320144,0.215899,0.070858,0.128445,0.645332,0.270611,0.237254,0.134017,0.117745,0.291944,0.056911,0.257041,0.103886,0.114067,0.218884,0.046739,0.072431,0.107477,0.100897,0.517303,0.140301,0.088615,0.139287,0.121188,0.433292,0.177839,0.122125,0.085779,0.096605,0.423967,0.230930,0.131557,0.102054,0.124016,0.446576,0.301014,0.196706,0.091493,0.155188,1.172838,0.406693,0.273240,0.246672,0.186060,1.143793,0.420725,0.375214,0.152970,0.288234,1.609940,0.748016,0.432738,0.239829,0.143044,1.358595,0.851377,0.528128,0.256361,0.170659
1768375349.619817,1768375349.621155,47.000000,0.000000,4329.871582,4295.384766,4351.282227,4339.871582,4307.820313,4306.666504,4307.948730,4312.307617,4308.589844,4301.025879,4523.461426,4532.948730,4393.846191,4459.230957,0.000000,1.000000,24.000000,,,,0.000000,4.000000,4.000000,4.000000,4.000000,4.000000,4.000000,4.000000,4.000000,4.000000,4.000000,4.000000,4.000000,4.000000,4.000000,100.000000,,,,,,,,,,,,,,,,,,,,,,,,,,,,,,,,,,,,,,,,,,,,,,,,,,,,,,,,,,,,,,,,,,,,,,,,,,,,,,,,,,,,,,,,,,,,,,,,,,,,,,,,,,,,,,,,,,,,,
1768375349.627626,1768375349.629063,48.000000,0.000000,4327.948730,4297.563965,4345.512695,4342.563965,4311.538574,4313.333496,4315.000000,4319.230957,4308.077148,4300.256348,4520.641113,4527.436035,4394.871582,4459.871582,0.000000,1.000000,24.000000,,,,0.000000,4.000000,4.000000,4.000000,4.000000,4.000000,4.000000,4.000000,4.000000,4.000000,4.000000,4.000000,4.000000,4.000000,4.000000,100.000000,,,,,,,,,,,,,,,,,,,,,,,,,,,,,,,,,,,,,,,,,,,,,,,,,,,,,,,,,,,,,,,,,,,,,,,,,,,,,,,,,,,,,,,,,,,,,,,,,,,,,,,,,,,,,,,,,,,,,
1768375349.635434,1768375349.636871,49.000000,0.000000,4326.410156,4299.487305,4342.820313,4343.077148,4309.743652,4316.025879,4321.025879,4322.307617,4309.487305,4304.871582,4525.256348,4531.025879,4400.641113,4462.948730,0.000000,1.000000,24.000000,,,,0.000000,4.000000,4.000000,4.000000,4.000000,4.000000,4.000000,4.000000,4.000000,4.000000,4.000000,4.000000,4.000000,4.000000,4.000000,100.000000,,,,,,,,,,,,,,,,,,,,,,,,,,,,,,,,,,,,,,,,,,,,,,,,,,,,,,,,,,,,,,,,,,,,,,,,,,,,,,,,,,,,,,,,,,,,,,,,,,,,,,,,,,,,,,,,,,,,,
1768375349.643242,1768375349.644580,50.000000,0.000000,4325.897461,4295.641113,4345.128418,4338.589844,4305.512695,4311.153809,4314.102539,4316.794922,4310.897461,4306.153809,4525.897461,4531.666504,4397.820313,4459.871582,0.000000,1.000000,24.000000,,,,0.000000,4.000000,4.000000,4.000000,4.000000,4.000000,4.000000,4.000000,4.000000,4.000000,4.000000,4.000000,4.000000,4.000000,4.000000,100.000000,,,,,,,,,,,,,,,,,,,,,,,,,,,,,,,,,,,,,,,,,,,,,,,,,,,,,,,,,,,,,,,,,,,,,,,,,,,,,,,,,,,,,,,,,,,,,,,,,,,,,,,,,,,,,,,,,,,,,
1768375349.651051,1768375349.652388,51.000000,0.000000,4325.641113,4295.641113,4344.487305,4339.615234,4305.769043,4311.410156,4308.974121,4313.589844,4306.794922,4297.948730,4513.589844,4520.897461,4390.000000,4457.436035,0.000000,1.000000,24.000000,,,,0.000000,4.000000,4.000000,4.000000,4.000000,4.000000,4.000000,4.000000,4.000000,4.000000,4.000000,4.000000,4.000000,4.000000,4.000000,100.000000,,,,,,,,,,,,,,,,,,,,,,,,,,,,,,,,,,,,,,,,,,,,,,,,,,,,,,,,,,,,,,,,,,,,,,,,,,,,,,,,,,,,,,,,,,,,,,,,,,,,,,,,,,,,,,,,,,,,,
1768375349.658859,1768375349.660397,52.000000,0.000000,4322.948730,4305.128418,4342.051270,4339.230957,4310.512695,4315.000000,4313.846191,4317.820313,4303.717773,4289.487305,4508.589844,4515.512695,4390.384766,4454.871582,0.000000,1.000000,24.000000,,,,0.000000,4.000000,4.000000,4.000000,4.000000,4.000000,4.000000,4.000000,4.000000,4.000000,4.000000,4.000000,4.000000,4.000000,4.000000,100.000000,,,,,,,,,,,,,,,,,,,,,,,,,,,,,,,,,,,,,,,,,,,,,,,,,,,,,,,,,,,,,,,,,,,,,,,,,,,,,,,,,,,,,,,,,,,,,,,,,,,,,,,,,,,,,,,,,,,,,
1768375349.666668,1768375349.668205,53.000000,0.000000,4321.153809,4311.922852,4342.307617,4332.563965,4312.307617,4315.769043,4313.717773,4322.307617,4307.820313,4298.205078,4521.666504,4527.820313,4396.922852,4459.487305,0.000000,1.000000,24.000000,,,,0.000000,4.000000,4.000000,4.000000,4.000000,4.000000,4.000000,4.000000,4.000000,4.000000,4.000000,4.000000,4.000000,4.000000,4.000000,100.000000,,,,,,,,,,,,,,,,,,,,,,,,,,,,,,,,,,,,,,,,,,,,,,,,,,,,,,,,,,,,,,,,,,,,,,,,,,,,,,,,,,,,,,,,,,,,,,,,,,,,,,,,,,,,,,,,,,,,,
1768375349.674476,1768375349.675914,54.000000,0.000000,4325.897461,4312.051270,4345.128418,4333.461426,4311.153809,4315.512695,4310.256348,4321.794922,4313.461426,4311.538574,4531.282227,4539.102539,4398.846191,4466.538574,0.000000,1.000000,24.000000,,,,0.000000,4.000000,4.000000,4.000000,4.000000,4.000000,4.000000,4.000000,4.000000,4.000000,4.000000,4.000000,4.000000,4.000000,4.000000,100.000000,,,,,,,,,,,,,,,,,,,,,,,,,,,,,,,,,,,,,,,,,,,,,,,,,,,,,,,,,,,,,,,,,,,,,,,,,,,,,,,,,,,,,,,,,,,,,,,,,,,,,,,,,,,,,,,,,,,,,
1768375349.682285,1768375349.683722,55.000000,0.000000,4327.820313,4319.615234,4347.307617,4341.794922,4312.948730,4317.563965,4315.256348,4317.820313,4308.846191,4307.307617,4527.307617,4532.692383,4398.333496,4465.384766,0.000000,1.000000,24.000000,,,,0.000000,4.000000,4.000000,4.000000,4.000000,4.000000,4.000000,4.000000,4.000000,4.000000,4.000000,4.000000,4.000000,4.000000,4.000000,100.000000,,,,,,,,,,,,,,,,,,,,,,,,,,,,,,,,,,,,,,,,,,,,,,,,,,,,,,,,,,,,,,,,,,,,,,,,,,,,,,,,,,,,,,,,,,,,,,,,,,,,,,,,,,,,,,,,,,,,,
1768375349.690093,1768375349.691331,56.000000,0.000000,4317.692383,4328.846191,4346.282227,4343.974121,4313.461426,4312.051270,4311.410156,4312.436035,4301.794922,4294.230957,4517.179688,4519.358887,4397.051270,4460.512695,0.000000,1.000000,24.000000,,,,0.000000,4.000000,4.000000,4.000000,4.000000,4.000000,4.000000,4.000000,4.000000,4.000000,4.000000,4.000000,4.000000,4.000000,4.000000,100.000000,,,,,,,,,,,,,,,,,,,,,,,,,,,,,,,,,,,,,,,,,,,,,,,,,,,,,,,,,,,,,,,,,,,,,,,,,,,,,,,,,,,,,,,,,,,,,,,,,,,,,,,,,,,,,,,,,,,,,
1768375349.697902,1768375349.699139,57.000000,0.000000,4309.358887,4323.846191,4341.538574,4338.717773,4306.410156,4298.974121,4295.897461,4307.563965,4303.077148,4292.692383,4514.487305,4517.179688,4390.512695,4457.820313,0.000000,1.000000,24.000000,,,,0.000000,4.000000,4.000000,4.000000,4.000000,4.000000,4.000000,4.000000,4.000000,4.000000,4.000000,4.000000,4.000000,4.000000,4.000000,100.000000,,,,,,,,,,,,,,,,,,,,,,,,,,,,,,,,,,,,,,,,,,,,,,,,,,,,,,,,,,,,,,,,,,,,,,,,,,,,,,,,,,,,,,,,,,,,,,,,,,,,,,,,,,,,,,,,,,,,,
1768375349.705710,1768375349.706848,58.000000,0.000000,4315.897461,4322.307617,4340.512695,4336.153809,4300.128418,4299.871582,4295.897461,4309.487305,4306.282227,4299.358887,4518.333496,4525.256348,4389.487305,4457.436035,0.000000,1.000000,24.000000,,,,0.000000,4.000000,4.000000,4.000000,4.000000,4.000000,4.000000,4.000000,4.000000,4.000000,4.000000,4.000000,4.000000,4.000000,4.000000,100.000000,,,,,,,,,,,,,,,,,,,,,,,,,,,,,,,,,,,,,,,,,,,,,,,,,,,,,,,,,,,,,,,,,,,,,,,,,,,,,,,,,,,,,,,,,,,,,,,,,,,,,,,,,,,,,,,,,,,,,
1768375349.713519,1768375349.714656,59.000000,0.000000,4323.974121,4335.000000,4344.230957,4341.025879,4304.743652,4311.025879,4309.102539,4310.897461,4306.282227,4299.230957,4518.333496,4524.358887,4394.358887,4455.384766,0.000000,1.000000,24.000000,,,,0.000000,4.000000,4.000000,4.000000,4.000000,4.000000,4.000000,4.000000,4.000000,4.000000,4.000000,4.000000,4.000000,4.000000,4.000000,100.000000,,,,,,,,,,,,,,,,,,,,,,,,,,,,,,,,,,,,,,,,,,,,,,,,,,,,,,,,,,,,,,,,,,,,,,,,,,,,,,,,,,,,,,,,,,,,,,,,,,,,,,,,,,,,,,,,,,,,,
1768375349.721327,1768375349.722664,60.000000,0.000000,4318.846191,4338.846191,4342.692383,4339.487305,4311.410156,4315.000000,4311.282227,4308.974121,4305.897461,4295.256348,4512.692383,4512.820313,4391.153809,4448.974121,0.000000,1.000000,24.000000,,,,0.000000,4.000000,4.000000,4.000000,4.000000,4.000000,4.000000,4.000000,4.000000,4.000000,4.000000,4.000000,4.000000,4.000000,4.000000,100.000000,,,,,,,,,,,,,,,,,,,,,,,,,,,,,,,,,,,,,,,,,,,,,,,,,,,,,,,,,,,,,,,,,,,,,,,,,,,,,,,,,,,,,,,,,,,,,,,,,,,,,,,,,,,,,,,,,,,,,
1768375349.729135,1768375349.730473,61.000000,0.000000,4303.717773,4326.666504,4334.487305,4328.717773,4312.051270,4309.102539,4306.025879,4312.692383,4307.563965,4300.897461,4511.666504,4509.615234,4386.922852,4441.922852,0.000000,1.000000,24.000000,,,,0.000000,4.000000,4.000000,4.000000,4.000000,4.000000,4.000000,4.000000,4.000000,4.000000,4.000000,4.000000,4.000000,4.000000,4.000000,100.000000,,,,,,,,,,,,,,,,,,,,,,,,,,,,,,,,,,,,,,,,,,,,,,,,,,,,,,,,,,,,,,,,,,,,,,,,,,,,,,,,,,,,,,,,,,,,,,,,,,,,,,,,,,,,,,,,,,,,,
1768375349.736944,1768375349.738381,62.000000,0.000000,4301.538574,4324.743652,4333.077148,4327.820313,4311.153809,4310.128418,4309.487305,4318.717773,4309.358887,4307.179688,4517.179688,4519.615234,4391.410156,4445.512695,0.000000,1.000000,24.000000,,,,0.000000,4.000000,4.000000,4.000000,4.000000,4.000000,4.000000,4.000000,4.000000,4.000000,4.000000,4.000000,4.000000,4.000000,4.000000,100.000000,,,,,,,,,,,,,,,,,,,,,,,,,,,,,,,,,,,,,,,,,,,,,,,,1.237274,0.726839,0.455677,0.173811,0.144908,1.099578,0.512823,0.311657,0.112225,0.112341,1.085292,0.313861,0.204849,0.057427,0.136033,0.614551,0.292108,0.240630,0.130831,0.104374,0.278883,0.044841,0.241898,0.110641,0.111568,0.181625,0.058697,0.068669,0.100949,0.106504,0.477212,0.154683,0.085907,0.146157,0.124912,0.313621,0.155415,0.128751,0.083576,0.100697,0.348376,0.221635,0.150697,0.093141,0.131668,0.329792,0.261875,0.198722,0.094719,0.147124,1.003390,0.430568,0.249142,0.253318,0.172723,1.019630,0.428888,0.346158,0.160108,0.299215,1.337891,0.697983,0.422422,0.216368,0.141865,1.204604,0.901227,0.469812,0.243333,0.168563
1768375349.744752,1768375349.746190,63.000000,0.000000,4319.743652,4340.769043,4346.282227,4341.922852,4313.589844,4315.641113,4313.717773,4319.358887,4312.692383,4304.230957,4522.179688,4526.794922,4396.794922,4457.436035,0.000000,1.000000,24.000000,,,,0.000000,4.000000,4.000000,4.000000,4.000000,4.000000,4.000000,4.000000,4.000000,4.000000,4.000000,4.000000,4.000000,4.000000,4.000000,100.000000,,,,,,,,,,,,,,,,,,,,,,,,,,,,,,,,,,,,,,,,,,,,,,,,,,,,,,,,,,,,,,,,,,,,,,,,,,,,,,,,,,,,,,,,,,,,,,,,,,,,,,,,,,,,,,,,,,,,,
1768375349.752561,1768375349.754198,64.000000,0.000000,4323.974121,4347.307617,4349.615234,4347.692383,4315.000000,4311.282227,4308.461426,4314.487305,4311.153809,4301.153809,4523.717773,4522.692383,4396.922852,4461.410156,4049.000000,1.000000,24.000000,,,,0.000000,4.000000,4.000000,4.000000,4.000000,4.000000,4.000000,4.000000,4.000000,4.000000,4.000000,4.000000,4.000000,4.000000,4.000000,100.000000,,,,,,,,,,,,,,,,,,,,,,,,,,,,,,,,,,,,,,,,,,,,,,,,,,,,,,,,,,,,,,,,,,,,,,,,,,,,,,,,,,,,,,,,,,,,,,,,,,,,,,,,,,,,,,,,,,,,,
1768375349.760369,1768375349.762006,65.000000,0.000000,4309.487305,4333.077148,4330.641113,4338.846191,4311.666504,4308.974121,4299.487305,4311.410156,4306.410156,4303.846191,4521.282227,4518.333496,4395.384766,4458.846191,4013.000000,1.000000,24.000000,,,,0.000000,4.000000,4.000000,4.000000,4.000000,4.000000,4.000000,4.000000,4.000000,4.000000,4.000000,4.000000,4.000000,4.000000,4.000000,100.000000,,,,,,,,,,,,,,,,,,,,,,,,,,,,,,,,,,,,,,,,,,,,,,,,,,,,,,,,,,,,,,,,,,,,,,,,,,,,,,,,,,,,,,,,,,,,,,,,,,,,,,,,,,,,,,,,,,,,,
1768375349.768178,1768375349.769915,66.000000,0.000000,4314.487305,4325.128418,4328.205078,4337.051270,4309.230957,4312.436035,4304.487305,4312.436035,4308.974121,4305.641113,4521.282227,4522.179688,4400.897461,4466.282227,3906.000000,1.000000,24.000000,,,,0.000000,4.000000,4.000000,4.000000,4.000000,4.000000,4.000000,4.000000,4.000000,4.000000,4.000000,4.000000,4.000000,4.000000,4.000000,100.000000,,,,,,,,,,,,,,,,,,,,,,,,,,,,,,,,,,,,,,,,,,,,,,,,,,,,,,,,,,,,,,,,,,,,,,,,,,,,,,,,,,,,,,,,,,,,,,,,,,,,,,,,,,,,,,,,,,,,,
1768375349.775986,1768375349.777723,67.000000,0.000000,4331.794922,4332.563965,4346.153809,4343.333496,4310.000000,4313.461426,4312.307617,4313.333496,4309.743652,4307.436035,4526.153809,4528.589844,4407.179688,4477.307617,3912.000000,1.000000,24.000000,,,,0.000000,4.000000,4.000000,4.000000,4.000000,4.000000,4.000000,4.000000,4.000000,4.000000,4.000000,4.000000,4.000000,4.000000,4.000000,100.000000,,,,,,,,,,,,,,,,,,,,,,,,,,,,,,,,,,,,,,,,,,,,,,,,,,,,,,,,,,,,,,,,,,,,,,,,,,,,,,,,,,,,,,,,,,,,,,,,,,,,,,,,,,,,,,,,,,,,,
1768375349.783795,1768375349.785731,68.000000,0.000000,4332.051270,4334.102539,4348.974121,4346.666504,4311.794922,4308.205078,4303.974121,4313.461426,4307.051270,4310.769043,4530.128418,4528.589844,4408.077148,4476.153809,3854.000000,1.000000,24.000000,,,,0.000000,4.000000,4.000000,4.000000,4.000000,4.000000,4.000000,4.000000,4.000000,4.000000,4.000000,4.000000,4.000000,4.000000,4.000000,100.000000,,,,,,,,,,,,,,,,,,,,,,,,,,,,,,,,,,,,,,,,,,,,,,,,,,,,,,,,,,,,,,,,,,,,,,,,,,,,,,,,,,,,,,,,,,,,,,,,,,,,,,,,,,,,,,,,,,,,,
1768375349.791603,1768375349.793540,69.000000,0.000000,4325.256348,4329.743652,4341.410156,4348.333496,4312.563965,4306.794922,4300.512695,4317.436035,4311.922852,4312.820313,4532.436035,4526.794922,4408.589844,4472.179688,3747.000000,1.000000,24.000000,,,,0.000000,4.000000,4.000000,4.000000,4.000000,4.000000,4.000000,4.000000,4.000000,4.000000,4.000000,4.000000,4.000000,4.000000,4.000000,100.000000,,,,,,,,,,,,,,,,,,,,,,,,,,,,,,,,,,,,,,,,,,,,,,,,,,,,,,,,,,,,,,,,,,,,,,,,,,,,,,,,,,,,,,,,,,,,,,,,,,,,,,,,,,,,,,,,,,,,,
1768375349.799411,1768375349.801348,70.000000,0.000000,4326.025879,4330.641113,4342.307617,4348.846191,4310.641113,4308.974121,4309.487305,4322.179688,4318.333496,4314.358887,4533.077148,4529.743652,4408.974121,4473.333496,3777.000000,1.000000,24.000000,,,,0.000000,4.000000,4.000000,4.000000,4.000000,4.000000,4.000000,4.000000,4.000000,4.000000,4.000000,4.000000,4.000000,4.000000,4.000000,100.000000,,,,,,,,,,,,,,,,,,,,,,,,,,,,,,,,,,,,,,,,,,,,,,,,,,,,,,,,,,,,,,,,,,,,,,,,,,,,,,,,,,,,,,,,,,,,,,,,,,,,,,,,,,,,,,,,,,,,,
1768375349.807220,1768375349.809157,71.000000,0.000000,4331.153809,4330.641113,4344.615234,4348.461426,4311.025879,4309.615234,4311.410156,4317.948730,4317.179688,4316.794922,4536.794922,4535.000000,4408.589844,4476.666504,3162.000000,1.000000,24.000000,,,,0.000000,4.000000,4.000000,4.000000,4.000000,4.000000,4.000000,4.000000,4.000000,4.000000,4.000000,4.000000,4.000000,4.000000,4.000000,100.000000,,,,,,,,,,,,,,,,,,,,,,,,,,,,,,,,,,,,,,,,,,,,,,,,,,,,,,,,,,,,,,,,,,,,,,,,,,,,,,,,,,,,,,,,,,,,,,,,,,,,,,,,,,,,,,,,,,,,,
1768375349.815028,1768375349.816765,72.000000,0.000000,4335.769043,4328.974121,4342.563965,4348.077148,4314.102539,4314.102539,4309.102539,4314.358887,4314.102539,4314.615234,4541.666504,4535.256348,4412.436035,4479.487305,3977.000000,1.000000,24.000000,,,,0.000000,4.000000,4.000000,4.000000,4.000000,4.000000,4.000000,4.000000,4.000000,4.000000,4.000000,4.000000,4.000000,4.000000,4.000000,100.000000,,,,,,,,,,,,,,,,,,,,,,,,,,,,,,,,,,,,,,,,,,,,,,,,,,,,,,,,,,,,,,,,,,,,,,,,,,,,,,,,,,,,,,,,,,,,,,,,,,,,,,,,,,,,,,,,,,,,,
1768375349.822837,1768375349.824574,73.000000,0.000000,4332.307617,4329.871582,4343.461426,4345.897461,4314.615234,4317.051270,4312.179688,4317.948730,4314.487305,4306.922852,4534.358887,4528.205078,4410.256348,4473.077148,3986.000000,1.000000,24.000000,,,,0.000000,4.000000,4.000000,4.000000,4.000000,4.000000,4.000000,4.000000,4.000000,4.000000,4.000000,4.000000,4.000000,4.000000,4.000000,100.000000,,,,,,,,,,,,,,,,,,,,,,,,,,,,,,,,,,,,,,,,,,,,,,,,,,,,,,,,,,,,,,,,,,,,,,,,,,,,,,,,,,,,,,,,,,,,,,,,,,,,,,,,,,,,,,,,,,,,,
1768375349.830645,1768375349.832282,74.000000,0.000000,4327.179688,4326.922852,4342.051270,4342.307617,4312.051270,4316.410156,4313.717773,4321.282227,4317.436035,4305.769043,4521.666504,4525.384766,4399.871582,4463.717773,4377.000000,1.000000,24.000000,,,,0.000000,4.000000,4.000000,4.000000,4.000000,4.000000,4.000000,4.000000,4.000000,4.000000,4.000000,4.000000,4.000000,4.000000,4.000000,100.000000,,,,,,,,,,,,,,,,,,,,,,,,,,,,,,,,,,,,,,,,,,,,,,,,,,,,,,,,,,,,,,,,,,,,,,,,,,,,,,,,,,,,,,,,,,,,,,,,,,,,,,,,,,,,,,,,,,,,,
1768375349.838454,1768375349.840091,75.000000,0.000000,4331.282227,4324.615234,4342.179688,4344.615234,4311.666504,4312.179688,4311.922852,4322.563965,4319.102539,4315.897461,4528.333496,4533.846191,4401.153809,4468.205078,4642.000000,1.000000,24.000000,,,,0.000000,4.000000,4.000000,4.000000,4.000000,4.000000,4.000000,4.000000,4.000000,4.000000,4.000000,4.000000,4.000000,4.000000,4.000000,100.000000,,,,,,,,,,,,,,,,,,,,,,,,,,,,,,,,,,,,,,,,,,,,,,,,,,,,,,,,,,,,,,,,,,,,,,,,,,,,,,,,,,,,,,,,,,,,,,,,,,,,,,,,,,,,,,,,,,,,,
1768375349.846262,1768375349.847699,76.000000,0.000000,4333.846191,4329.230957,4348.589844,4348.846191,4312.051270,4312.820313,4316.025879,4324.102539,4316.410156,4318.205078,4541.922852,4538.974121,4410.512695,4478.974121,4928.000000,1.000000,24.000000,,,,0.000000,4.000000,4.000000,4.000000,4.000000,4.000000,4.000000,4.000000,4.000000,4.000000,4.000000,4.000000,4.000000,4.000000,4.000000,100.000000,,,,,,,,,,,,,,,,,,,,,,,,,,,,,,,,,,,,,,,,,,,,,,,,,,,,,,,,,,,,,,,,,,,,,,,,,,,,,,,,,,,,,,,,,,,,,,,,,,,,,,,,,,,,,,,,,,,,,
1768375349.854071,1768375349.855508,77.000000,0.000000,4328.846191,4327.563965,4348.333496,4344.615234,4311.538574,4318.333496,4318.333496,4323.461426,4312.307617,4309.743652,4535.256348,4531.025879,4405.384766,4473.974121,5110.000000,1.000000,24.000000,,,,0.000000,4.000000,4.000000,4.000000,4.000000,4.000000,4.000000,4.000000,4.000000,4.000000,4.000000,4.000000,4.000000,4.000000,4.000000,100.000000,,,,,,,,,,,,,,,,,,,,,,,,,,,,,,,,,,,,,,,,,,,,,,,,,,,,,,,,,,,,,,,,,,,,,,,,,,,,,,,,,,,,,,,,,,,,,,,,,,,,,,,,,,,,,,,,,,,,,
1768375349.861879,1768375349.863416,78.000000,0.000000,4323.717773,4318.717773,4341.794922,4339.871582,4312.307617,4314.615234,4313.461426,4321.794922,4313.205078,4307.948730,4521.538574,4523.717773,4396.282227,4461.666504,4377.000000,1.000000,24.000000,,,,0.000000,4.000000,4.000000,4.000000,4.000000,4.000000,4.000000,4.000000,4.000000,4.000000,4.000000,4.000000,4.000000,4.000000,4.000000,100.000000,1.000000,75.000000,4.000000,4.000000,4.000000,4.000000,1.000000,4.000000,4.000000,4.000000,4.000000,4.000000,4.000000,4.000000,4.000000,4.000000,,,,,,,,,,,,,,,,,,,,,,,,,,,,,,,,1.376355,0.773880,0.434305,0.180738,0.144261,0.981324,0.561739,0.289962,0.110493,0.107282,1.020639,0.287212,0.192731,0.053657,0.145147,0.572872,0.308743,0.230558,0.129421,0.093547,0.253054,0.041170,0.212155,0.115688,0.110991,0.147704,0.075252,0.067479,0.096794,0.115214,0.425111,0.169289,0.083651,0.148644,0.128582,0.200458,0.130408,0.125796,0.079543,0.102100,0.270177,0.200914,0.165144,0.084235,0.138055,0.241844,0.221370,0.193406,0.106296,0.138321,0.824567,0.447717,0.216964,0.257835,0.164146,0.936596,0.443366,0.310810,0.180108,0.312878,1.087519,0.630504,0.387268,0.204219,0.145199,1.111909,0.893863,0.399167,0.239197,0.167979
1768375349.869687,1768375349.871225,79.000000,0.000000,4323.717773,4317.820313,4339.358887,4341.922852,4309.743652,4308.333496,4307.820313,4322.051270,4313.974121,4309.230957,4522.179688,4526.410156,4395.769043,4463.974121,4642.000000,1.000000,24.000000,,,,0.000000,4.000000,4.000000,4.000000,4.000000,4.000000,4.000000,4.000000,4.000000,4.000000,4.000000,4.000000,4.000000,4.000000,4.000000,100.000000,,,,,,,,,,,,,,,,,,,,,,,,,,,,,,,,,,,,,,,,,,,,,,,,,,,,,,,,,,,,,,,,,,,,,,,,,,,,,,,,,,,,,,,,,,,,,,,,,,,,,,,,,,,,,,,,,,,,,
1768375349.877496,1768375349.878833,80.000000,0.000000,4329.871582,4321.410156,4345.128418,4343.846191,4307.179688,4313.717773,4309.743652,4319.871582,4310.384766,4308.333496,4529.102539,4533.461426,4399.102539,4474.615234,4928.000000,1.000000,24.000000,,,,0.000000,4.000000,4.000000,4.000000,4.000000,4.000000,4.000000,4.000000,4.000000,4.000000,4.000000,4.000000,4.000000,4.000000,4.000000,100.000000,,,,,,,,,,,,,,,,,,,,,,,,,,,,,,,,,,,,,,,,,,,,,,,,,,,,,,,,,,,,,,,,,,,,,,,,,,,,,,,,,,,,,,,,,,,,,,,,,,,,,,,,,,,,,,,,,,,,,
1768375349.885304,1768375349.886642,81.000000,0.000000,4335.641113,4320.897461,4351.282227,4347.051270,4312.179688,4323.461426,4313.846191,4320.384766,4310.769043,4312.051270,4534.871582,4538.974121,4404.358887,4478.333496,5110.000000,1.000000,24.000000,,,,0.000000,4.000000,4.000000,4.000000,4.000000,4.000000,4.000000,4.000000,4.000000,4.000000,4.000000,4.000000,4.000000,4.000000,4.000000,100.000000,,,,,,,,,,,,,,,,,,,,,,,,,,,,,,,,,,,,,,,,,,,,,,,,,,,,,,,,,,,,,,,,,,,,,,,,,,,,,,,,,,,,,,,,,,,,,,,,,,,,,,,,,,,,,,,,,,,,,
1768375349.893113,1768375349.894350,82.000000,0.000000,4338.717773,4321.282227,4350.128418,4350.000000,4315.000000,4319.487305,4309.615234,4322.307617,4315.256348,4312.307617,4537.563965,4533.974121,4406.410156,4473.589844,4377.000000,1.000000,24.000000,,,,0.000000,4.000000,4.000000,4.000000,4.000000,4.000000,4.000000,4.000000,4.000000,4.000000,4.000000,4.000000,4.000000,4.000000,4.000000,100.000000,,,,,,,,,,,,,,,,,,,,,,,,,,,,,,,,,,,,,,,,,,,,,,,,,,,,,,,,,,,,,,,,,,,,,,,,,,,,,,,,,,,,,,,,,,,,,,,,,,,,,,,,,,,,,,,,,,,,,
1768375349.900921,1768375349.902159,83.000000,0.000000,4341.538574,4325.384766,4349.487305,4347.820313,4309.358887,4310.512695,4307.179688,4318.974121,4317.307617,4308.333496,4536.410156,4533.461426,4409.102539,4475.256348,4642.000000,1.000000,24.000000,,,,0.000000,4.000000,4.000000,4.000000,4.000000,4.000000,4.000000,4.000000,4.000000,4.000000,4.000000,4.000000,4.000000,4.000000,4.000000,100.000000,,,,,,,,,,,,,,,,,,,,,,,,,,,,,,,,,,,,,,,,,,,,,,,,,,,,,,,,,,,,,,,,,,,,,,,,,,,,,,,,,,,,,,,,,,,,,,,,,,,,,,,,,,,,,,,,,,,,,
1768375349.908730,1768375349.909767,84.000000,0.000000,4340.512695,4327.948730,4354.102539,4348.974121,4309.102539,4313.333496,4311.410156,4317.563965,4313.717773,4310.000000,4540.897461,4545.384766,4413.333496,4481.922852,4928.000000,1.000000,24.000000,,,,0.000000,4.000000,4.000000,4.000000,4.000000,4.000000,4.000000,4.000000,4.000000,4.000000,4.000000,4.000000,4.000000,4.000000,4.000000,100.000000,,,,,,,,,,,,,,,,,,,,,,,,,,,,,,,,,,,,,,,,,,,,,,,,,,,,,,,,,,,,,,,,,,,,,,,,,,,,,,,,,,,,,,,,,,,,,,,,,,,,,,,,,,,,,,,,,,,,,
1768375349.916538,1768375349.917576,85.000000,0.000000,4331.538574,4323.333496,4353.974121,4349.615234,4314.102539,4317.692383,4312.820313,4320.384766,4310.000000,4309.743652,4540.897461,4543.717773,4410.384766,4479.102539,5110.000000,1.000000,24.000000,,,,0.000000,4.000000,4.000000,4.000000,4.000000,4.000000,4.000000,4.000000,4.000000,4.000000,4.000000,4.000000,4.000000,4.000000,4.000000,100.000000,,,,,,,,,,,,,,,,,,,,,,,,,,,,,,,,,,,,,,,,,,,,,,,,,,,,,,,,,,,,,,,,,,,,,,,,,,,,,,,,,,,,,,,,,,,,,,,,,,,,,,,,,,,,,,,,,,,,,
1768375349.924347,1768375349.925484,86.000000,0.000000,4324.871582,4316.666504,4347.179688,4343.717773,4314.102539,4315.897461,4310.512695,4320.641113,4311.282227,4305.128418,4532.563965,4530.641113,4406.538574,4471.922852,4377.000000,1.000000,24.000000,,,,0.000000,4.000000,4.000000,4.000000,4.000000,4.000000,4.000000,4.000000,4.000000,4.000000,4.000000,4.000000,4.000000,4.000000,4.000000,100.000000,,,,,,,,,,,,,,,,,,,,,,,,,,,,,,,,,,,,,,,,,,,,,,,,,,,,,,,,,,,,,,,,,,,,,,,,,,,,,,,,,,,,,,,,,,,,,,,,,,,,,,,,,,,,,,,,,,,,,
1768375349.932155,1768375349.933293,87.000000,0.000000,4336.282227,4320.256348,4351.538574,4347.563965,4317.051270,4314.487305,4310.512695,4321.282227,4315.641113,4309.102539,4534.615234,4538.461426,4412.436035,4477.179688,4642.000000,1.000000,24.000000,,,,0.000000,4.000000,4.000000,4.000000,4.000000,4.000000,4.000000,4.000000,4.000000,4.000000,4.000000,4.000000,4.000000,4.000000,4.000000,100.000000,,,,,,,,,,,,,,,,,,,,,,,,,,,,,,,,,,,,,,,,,,,,,,,,,,,,,,,,,,,,,,,,,,,,,,,,,,,,,,,,,,,,,,,,,,,,,,,,,,,,,,,,,,,,,,,,,,,,,
1768375349.939963,1768375349.941301,88.000000,0.000000,4345.384766,4328.717773,4361.410156,4355.256348,4319.871582,4315.128418,4314.102539,4324.615234,4315.000000,4309.230957,4542.436035,4555.256348,4414.743652,4485.512695,4928.000000,1.000000,24.000000,,,,0.000000,4.000000,4.000000,4.000000,4.000000,4.000000,4.000000,4.000000,4.000000,4.000000,4.000000,4.000000,4.000000,4.000000,4.000000,100.000000,,,,,,,,,,,,,,,,,,,,,,,,,,,,,,,,,,,,,,,,,,,,,,,,,,,,,,,,,,,,,,,,,,,,,,,,,,,,,,,,,,,,,,,,,,,,,,,,,,,,,,,,,,,,,,,,,,,,,
1768375349.947772,1768375349.949109,89.000000,0.000000,4334.743652,4326.282227,4358.589844,4349.615234,4311.666504,4315.000000,4314.230957,4324.487305,4313.333496,4302.307617,4538.846191,4548.333496,4406.794922,4478.589844,5110.000000,1.000000,24.000000,,,,0.000000,4.000000,4.000000,4.000000,4.000000,4.000000,4.000000,4.000000,4.000000,4.000000,4.000000,4.000000,4.000000,4.000000,4.000000,100.000000,,,,,,,,,,,,,,,,,,,,,,,,,,,,,,,,,,,,,,,,,,,,,,,,,,,,,,,,,,,,,,,,,,,,,,,,,,,,,,,,,,,,,,,,,,,,,,,,,,,,,,,,,,,,,,,,,,,,,
1768375349.955580,1768375349.957018,90.000000,0.000000,4325.641113,4321.282227,4349.871582,4343.717773,4306.538574,4315.384766,4311.794922,4323.205078,4319.230957,4306.666504,4532.436035,4534.743652,4405.128418,4471.282227,4377.000000,1.000000,24.000000,,,,0.000000,4.000000,4.000000,4.000000,4.000000,4.000000,4.000000,4.000000,4.000000,4.000000,4.000000,4.000000,4.000000,4.000000,4.000000,100.000000,,,,,,,,,,,,,,,,,,,,,,,,,,,,,,,,,,,,,,,,,,,,,,,,,,,,,,,,,,,,,,,,,,,,,,,,,,,,,,,,,,,,,,,,,,,,,,,,,,,,,,,,,,,,,,,,,,,,,
1768375349.963389,1768375349.964826,91.000000,0.000000,4336.282227,4327.436035,4348.974121,4350.000000,4314.358887,4317.563965,4311.153809,4322.563965,4320.000000,4313.846191,4533.717773,4537.179688,4406.666504,4475.000000,4642.000000,1.000000,24.000000,,,,0.000000,4.000000,4.000000,4.000000,4.000000,4.000000,4.000000,4.000000,4.000000,4.000000,4.000000,4.000000,4.000000,4.000000,4.000000,100.000000,,,,,,,,,,,,,,,,,,,,,,,,,,,,,,,,,,,,,,,,,,,,,,,,,,,,,,,,,,,,,,,,,,,,,,,,,,,,,,,,,,,,,,,,,,,,,,,,,,,,,,,,,,,,,,,,,,,,,
1768375349.971197,1768375349.972834,92.000000,0.000000,4342.563965,4333.974121,4355.769043,4358.077148,4321.025879,4316.410156,4311.282227,4321.666504,4311.410156,4311.282227,4536.538574,4541.282227,4403.461426,4476.282227,4928.000000,1.000000,24.000000,,,,0.000000,4.000000,4.000000,4.000000,4.000000,4.000000,4.000000,4.000000,4.000000,4.000000,4.000000,4.000000,4.000000,4.000000,4.000000,100.000000,,,,,,,,,,,,,,,,,,,,,,,,,,,,,,,,,,,,,,,,,,,,,,,,,,,,,,,,,,,,,,,,,,,,,,,,,,,,,,,,,,,,,,,,,,,,,,,,,,,,,,,,,,,,,,,,,,,,,
1768375349.979006,1768375349.980643,93.000000,0.000000,4330.384766,4331.922852,4360.000000,4356.666504,4318.974121,4312.436035,4309.615234,4321.410156,4308.205078,4305.256348,4537.820313,4537.692383,4402.051270,4473.461426,5110.000000,1.000000,24.000000,,,,0.000000,4.000000,4.000000,4.000000,4.000000,4.000000,4.000000,4.000000,4.000000,4.000000,4.000000,4.000000,4.000000,4.000000,4.000000,100.000000,,,,,,,,,,,,,,,,,,,,,,,,,,,,,,,,,,,,,,,,,,,,,,,,,,,,,,,,,,,,,,,,,,,,,,,,,,,,,,,,,,,,,,,,,,,,,,,,,,,,,,,,,,,,,,,,,,,,,
1768375349.986814,1768375349.988351,94.000000,0.000000,4330.384766,4327.820313,4352.820313,4349.487305,4315.384766,4312.563965,4309.487305,4320.384766,4311.282227,4303.461426,4532.563965,4537.692383,4400.512695,4473.846191,4377.000000,1.000000,24.000000,,,,0.000000,4.000000,4.000000,4.000000,4.000000,4.000000,4.000000,4.000000,4.000000,4.000000,4.000000,4.000000,4.000000,4.000000,4.000000,100.000000,,,,,,,,,,,,,,,,,,,,,,,,,,,,,,,,,,,,,,,,,,,,,,,,1.556383,0.747756,0.375365,0.191176,0.146940,0.839041,0.576593,0.244712,0.106993,0.105836,0.943800,0.245044,0.185290,0.057320,0.155249,0.528428,0.316185,0.207141,0.125855,0.089448,0.218146,0.046440,0.176657,0.114673,0.112006,0.124510,0.097594,0.073575,0.097480,0.124307,0.372041,0.181169,0.084628,0.146701,0.131101,0.122373,0.113926,0.114001,0.076088,0.100752,0.204525,0.172882,0.168015,0.078407,0.141673,0.195173,0.187650,0.184239,0.123667,0.132382,0.671170,0.455395,0.185619,0.259716,0.161517,0.904222,0.451120,0.284738,0.209178,0.324506,0.887386,0.571836,0.334220,0.203850,0.149078,1.124993,0.830254,0.330214,0.240813,0.168164
1768375349.994623,1768375349.996160,95.000000,0.000000,4342.948730,4325.384766,4343.077148,4347.436035,4313.077148,4317.179688,4311.922852,4316.410156,4310.000000,4300.897461,4524.358887,4538.717773,4395.769043,4474.871582,4642.000000,1.000000,24.000000,,,,0.000000,4.000000,4.000000,4.000000,4.000000,4.000000,4.000000,4.000000,4.000000,4.000000,4.000000,4.000000,4.000000,4.000000,4.000000,100.000000,,,,,,,,,,,,,,,,,,,,,,,,,,,,,,,,,,,,,,,,,,,,,,,,,,,,,,,,,,,,,,,,,,,,,,,,,,,,,,,,,,,,,,,,,,,,,,,,,,,,,,,,,,,,,,,,,,,,,
1768375350.002431,1768375350.003768,96.000000,0.000000,4338.589844,4323.205078,4338.974121,4349.358887,4312.563965,4315.512695,4307.692383,4313.589844,4305.000000,4298.461426,4525.897461,4531.282227,4393.333496,4473.846191,4928.000000,1.000000,24.000000,,,,0.000000,4.000000,4.000000,4.000000,4.000000,4.000000,4.000000,4.000000,4.000000,4.000000,4.000000,4.000000,4.000000,4.000000,4.000000,100.000000,,,,,,,,,,,,,,,,,,,,,,,,,,,,,,,,,,,,,,,,,,,,,,,,,,,,,,,,,,,,,,,,,,,,,,,,,,,,,,,,,,,,,,,,,,,,,,,,,,,,,,,,,,,,,,,,,,,,,
1768375350.010239,1768375350.011577,97.000000,0.000000,4330.000000,4326.410156,4344.358887,4352.051270,4315.384766,4312.051270,4308.974121,4318.846191,4307.692383,4301.025879,4536.282227,4530.897461,4398.974121,4477.051270,5110.000000,1.000000,24.000000,,,,0.000000,4.000000,4.000000,4.000000,4.000000,4.000000,4.000000,4.000000,4.000000,4.000000,4.000000,4.000000,4.000000,4.000000,4.000000,100.000000,,,,,,,,,,,,,,,,,,,,,,,,,,,,,,,,,,,,,,,,,,,,,,,,,,,,,,,,,,,,,,,,,,,,,,,,,,,,,,,,,,,,,,,,,,,,,,,,,,,,,,,,,,,,,,,,,,,,,
1768375350.018048,1768375350.019285,98.000000,0.000000,4336.666504,4327.948730,4352.820313,4354.487305,4316.025879,4316.153809,4316.666504,4325.769043,4314.102539,4306.794922,4541.282227,4541.153809,4402.948730,4479.230957,4377.000000,1.000000,24.000000,,,,0.000000,4.000000,4.000000,4.000000,4.000000,4.000000,4.000000,4.000000,4.000000,4.000000,4.000000,4.000000,4.000000,4.000000,4.000000,100.000000,,,,,,,,,,,,,,,,,,,,,,,,,,,,,,,,,,,,,,,,,,,,,,,,,,,,,,,,,,,,,,,,,,,,,,,,,,,,,,,,,,,,,,,,,,,,,,,,,,,,,,,,,,,,,,,,,,,,,
1768375350.025856,1768375350.027094,99.000000,0.000000,4340.769043,4321.538574,4350.384766,4351.666504,4312.563965,4316.282227,4313.846191,4322.820313,4314.871582,4309.487305,4534.743652,4539.230957,4397.436035,4476.922852,4642.000000,1.000000,24.000000,,,,0.000000,4.000000,4.000000,4.000000,4.000000,4.000000,4.000000,4.000000,4.000000,4.000000,4.000000,4.000000,4.000000,4.000000,4.000000,100.000000,,,,,,,,,,,,,,,,,,,,,,,,,,,,,,,,,,,,,,,,,,,,,,,,,,,,,,,,,,,,,,,,,,,,,,,,,,,,,,,,,,,,,,,,,,,,,,,,,,,,,,,,,,,,,,,,,,,,,
1768375350.033665,1768375350.034703,100.000000,0.000000,4333.589844,4317.820313,4345.128418,4345.384766,4308.846191,4312.563965,4307.820313,4316.794922,4313.205078,4308.205078,4531.538574,4530.641113,4396.794922,4475.641113,4928.000000,1.000000,24.000000,,,,0.000000,4.000000,4.000000,4.000000,4.000000,4.000000,4.000000,4.000000,4.000000,4.000000,4.000000,4.000000,4.000000,4.000000,4.000000,100.000000,,,,,,,,,,,,,,,,,,,,,,,,,,,,,,,,,,,,,,,,,,,,,,,,,,,,,,,,,,,,,,,,,,,,,,,,,,,,,,,,,,,,,,,,,,,,,,,,,,,,,,,,,,,,,,,,,,,,,
1768375350.041473,1768375350.042511,101.000000,0.000000,4334.230957,4320.000000,4347.563965,4347.179688,4311.794922,4315.384766,4310.256348,4318.974121,4313.717773,4307.436035,4537.692383,4533.205078,4407.563965,4478.461426,5110.000000,1.000000,24.000000,,,,0.000000,4.000000,4.000000,4.000000,4.000000,4.000000,4.000000,4.000000,4.000000,4.000000,4.000000,4.000000,4.000000,4.000000,4.000000,100.000000,,,,,,,,,,,,,,,,,,,,,,,,,,,,,,,,,,,,,,,,,,,,,,,,,,,,,,,,,,,,,,,,,,,,,,,,,,,,,,,,,,,,,,,,,,,,,,,,,,,,,,,,,,,,,,,,,,,,,
1768375350.049281,1768375350.050220,102.000000,0.000000,4339.230957,4322.820313,4351.410156,4350.512695,4317.692383,4318.461426,4312.948730,4323.333496,4317.307617,4311.410156,4543.205078,4541.666504,4412.692383,4479.487305,4377.000000,1.000000,24.000000,,,,0.000000,4.000000,4.000000,4.000000,4.000000,4.000000,4.000000,4.000000,4.000000,4.000000,4.000000,4.000000,4.000000,4.000000,4.000000,100.000000,,,,,,,,,,,,,,,,,,,,,,,,,,,,,,,,,,,,,,,,,,,,,,,,,,,,,,,,,,,,,,,,,,,,,,,,,,,,,,,,,,,,,,,,,,,,,,,,,,,,,,,,,,,,,,,,,,,,,
1768375350.057090,1768375350.058028,103.000000,0.000000,4338.461426,4321.410156,4352.820313,4347.436035,4317.436035,4315.256348,4310.512695,4323.717773,4320.769043,4319.615234,4539.487305,4545.512695,4407.436035,4477.436035,4642.000000,1.000000,24.000000,,,,0.000000,4.000000,4.000000,4.000000,4.000000,4.000000,4.000000,4.000000,4.000000,4.000000,4.000000,4.000000,4.000000,4.000000,4.000000,100.000000,,,,,,,,,,,,,,,,,,,,,,,,,,,,,,,,,,,,,,,,,,,,,,,,,,,,,,,,,,,,,,,,,,,,,,,,,,,,,,,,,,,,,,,,,,,,,,,,,,,,,,,,,,,,,,,,,,,,,
