title:remote_24, start timestamp:1768374991.071545, stop timestamp:1768375021.805581, headset type:EPOCX, headset serial:E5020E3B, headset firmware:730, channels:156, sampling rate:eeg_128;pm_0.1;pow_8, samples:3937      , version:2.2, 
Timestamp,OriginalTimestamp,EEG.Counter,EEG.Interpolated,EEG.AF3,EEG.F7,EEG.F3,EEG.FC5,EEG.T7,EEG.P7,EEG.O1,EEG.O2,EEG.P8,EEG.T8,EEG.FC6,EEG.F4,EEG.F8,EEG.AF4,EEG.RawCq,EEG.Battery,EEG.BatteryPercent,MarkerIndex,MarkerType,MarkerValueInt,EEG.MarkerHardware,CQ.AF3,CQ.F7,CQ.F3,CQ.FC5,CQ.T7,CQ.P7,CQ.O1,CQ.O2,CQ.P8,CQ.T8,CQ.FC6,CQ.F4,CQ.F8,CQ.AF4,CQ.Overall,EQ.SampleRateQuality,EQ.OVERALL,EQ.AF3,EQ.F7,EQ.F3,EQ.FC5,EQ.T7,EQ.P7,EQ.O1,EQ.O2,EQ.P8,EQ.T8,EQ.FC6,EQ.F4,EQ.F8,EQ.AF4,PM.Attention.IsActive,PM.Attention.Scaled,PM.Attention.Raw,PM.Attention.Min,PM.Attention.Max,PM.Engagement.IsActive,PM.Engagement.Scaled,PM.Engagement.Raw,PM.Engagement.Min,PM.Engagement.Max,PM.Excitement.IsActive,PM.Excitement.Scaled,PM.Excitement.Raw,PM.Excitement.Min,PM.Excitement.Max,PM.LongTermExcitement,PM.Stress.IsActive,PM.Stress.Scaled,PM.Stress.Raw,PM.Stress.Min,PM.Stress.Max,PM.Relaxation.IsActive,PM.Relaxation.Scaled,PM.Relaxation.Raw,PM.Relaxation.Min,PM.Relaxation.Max,PM.Interest.IsActive,PM.Interest.Scaled,PM.Interest.Raw,PM.Interest.Min,PM.Interest.Max,POW.AF3.Theta,POW.AF3.Alpha,POW.AF3.BetaL,POW.AF3.BetaH,POW.AF3.Gamma,POW.F7.Theta,POW.F7.Alpha,POW.F7.BetaL,POW.F7.BetaH,POW.F7.Gamma,POW.F3.Theta,POW.F3.Alpha,POW.F3.BetaL,POW.F3.BetaH,POW.F3.Gamma,POW.FC5.Theta,POW.FC5.Alpha,POW.FC5.BetaL,POW.FC5.BetaH,POW.FC5.Gamma,POW.T7.Theta,POW.T7.Alpha,POW.T7.BetaL,POW.T7.BetaH,POW.T7.Gamma,POW.P7.Theta,POW.P7.Alpha,POW.P7.BetaL,POW.P7.BetaH,POW.P7.Gamma,POW.O1.Theta,POW.O1.Alpha,POW.O1.BetaL,POW.O1.BetaH,POW.O1.Gamma,POW.O2.Theta,POW.O2.Alpha,POW.O2.BetaL,POW.O2.BetaH,POW.O2.Gamma,POW.P8.Theta,POW.P8.Alpha,POW.P8.BetaL,POW.P8.BetaH,POW.P8.Gamma,POW.T8.Theta,POW.T8.Alpha,POW.T8.BetaL,POW.T8.BetaH,POW.T8.Gamma,POW.FC6.Theta,POW.FC6.Alpha,POW.FC6.BetaL,POW.FC6.BetaH,POW.FC6.Gamma,POW.F4.Theta,POW.F4.Alpha,POW.F4.BetaL,POW.F4.BetaH,POW.F4.Gamma,POW.F8.Theta,POW.F8.Alpha,POW.F8.BetaL,POW.F8.BetaH,POW.F8.Gamma,POW.AF4.Theta,POW.AF4.Alpha,POW.AF4.BetaL,POW.AF4.BetaH,POW.AF4.Gamma
1768374991.071545,1768374991.072191,81.000000,0.000000,4331.794922,4299.358887,4355.256348,4337.051270,4269.871582,4326.153809,4318.589844,4325.897461,4306.025879,4261.025879,4508.077148,4549.487305,4348.077148,4401.922852,5182.000000,1.000000,25.000000,,,,0.000000,4.000000,4.000000,4.000000,4.000000,4.000000,4.000000,4.000000,4.000000,4.000000,4.000000,4.000000,4.000000,4.000000,4.000000,100.000000,,,,,,,,,,,,,,,,,,,,,,,,,,,,,,,,,,,,,,,,,,,,,,,,,,,,,,,,,,,,,,,,,,,,,,,,,,,,,,,,,,,,,,,,,,,,,,,,,,,,,,,,,,,,,,,,,,,,,
1768374991.079354,1768374991.080100,82.000000,0.000000,4341.794922,4297.051270,4357.563965,4331.538574,4263.333496,4321.538574,4312.820313,4316.666504,4303.974121,4262.436035,4508.461426,4551.282227,4348.205078,4406.153809,4383.000000,1.000000,25.000000,,,,0.000000,4.000000,4.000000,4.000000,4.000000,4.000000,4.000000,4.000000,4.000000,4.000000,4.000000,4.000000,4.000000,4.000000,4.000000,100.000000,,,,,,,,,,,,,,,,,,,,,,,,,,,,,,,,,,,,,,,,,,,,,,,,,,,,,,,,,,,,,,,,,,,,,,,,,,,,,,,,,,,,,,,,,,,,,,,,,,,,,,,,,,,,,,,,,,,,,
1768374991.087162,1768374991.087908,83.000000,0.000000,4344.102539,4294.871582,4360.000000,4335.769043,4260.256348,4318.846191,4312.563965,4313.461426,4306.025879,4264.102539,4510.384766,4550.769043,4347.051270,4407.692383,4652.000000,1.000000,25.000000,,,,0.000000,4.000000,4.000000,4.000000,4.000000,4.000000,4.000000,4.000000,4.000000,4.000000,4.000000,4.000000,4.000000,4.000000,4.000000,100.000000,,,,,,,,,,,,,,,,,,,,,,,,,,,,,,,,,,,,,,,,,,,,,,,,,,,,,,,,,,,,,,,,,,,,,,,,,,,,,,,,,,,,,,,,,,,,,,,,,,,,,,,,,,,,,,,,,,,,,
1768374991.094971,1768374991.095916,84.000000,0.000000,4335.641113,4293.077148,4358.974121,4340.384766,4266.282227,4324.230957,4318.589844,4321.794922,4301.538574,4262.179688,4507.820313,4546.794922,4342.307617,4408.077148,4946.000000,1.000000,25.000000,,,,0.000000,4.000000,4.000000,4.000000,4.000000,4.000000,4.000000,4.000000,4.000000,4.000000,4.000000,4.000000,4.000000,4.000000,4.000000,100.000000,,,,,,,,,,,,,,,,,,,,,,,,,,,,,,,,,,,,,,,,,,,,,,,,,,,,,,,,,,,,,,,,,,,,,,,,,,,,,,,,,,,,,,,,,,,,,,,,,,,,,,,,,,,,,,,,,,,,,
1768374991.102779,1768374991.103725,85.000000,0.000000,4338.461426,4295.000000,4357.179688,4337.820313,4266.153809,4325.256348,4316.410156,4323.461426,4301.282227,4262.948730,4512.820313,4549.615234,4346.025879,4414.743652,5182.000000,1.000000,25.000000,,,,0.000000,4.000000,4.000000,4.000000,4.000000,4.000000,4.000000,4.000000,4.000000,4.000000,4.000000,4.000000,4.000000,4.000000,4.000000,100.000000,,,,,,,,,,,,,,,,,,,,,,,,,,,,,,,,,,,,,,,,,,,,,,,,,,,,,,,,,,,,,,,,,,,,,,,,,,,,,,,,,,,,,,,,,,,,,,,,,,,,,,,,,,,,,,,,,,,,,
1768374991.110588,1768374991.111533,86.000000,0.000000,4348.717773,4297.307617,4360.769043,4340.256348,4261.922852,4320.769043,4318.205078,4324.230957,4310.897461,4266.153809,4524.615234,4562.307617,4351.282227,4425.000000,4383.000000,1.000000,25.000000,,,,0.000000,4.000000,4.000000,4.000000,4.000000,4.000000,4.000000,4.000000,4.000000,4.000000,4.000000,4.000000,4.000000,4.000000,4.000000,100.000000,,,,,,,,,,,,,,,,,,,,,,,,,,,,,,,,,,,,,,,,,,,,,,,,,,,,,,,,,,,,,,,,,,,,,,,,,,,,,,,,,,,,,,,,,,,,,,,,,,,,,,,,,,,,,,,,,,,,,
1768374991.118396,1768374991.119342,87.000000,0.000000,4346.538574,4296.666504,4366.538574,4345.000000,4264.743652,4322.307617,4326.025879,4327.307617,4309.230957,4266.025879,4526.025879,4569.871582,4347.820313,4430.384766,4652.000000,1.000000,25.000000,,,,0.000000,4.000000,4.000000,4.000000,4.000000,4.000000,4.000000,4.000000,4.000000,4.000000,4.000000,4.000000,4.000000,4.000000,4.000000,100.000000,,,,,,,,,,,,,,,,,,,,,,,,,,,,,,,,,,,,,,,,,,,,,,,,,,,,,,,,,,,,,,,,,,,,,,,,,,,,,,,,,,,,,,,,,,,,,,,,,,,,,,,,,,,,,,,,,,,,,
1768374991.126205,1768374991.126950,88.000000,0.000000,4342.051270,4298.077148,4368.589844,4346.538574,4269.871582,4326.666504,4326.025879,4324.358887,4302.948730,4264.615234,4522.051270,4566.025879,4347.179688,4427.307617,4946.000000,1.000000,25.000000,,,,0.000000,4.000000,4.000000,4.000000,4.000000,4.000000,4.000000,4.000000,4.000000,4.000000,4.000000,4.000000,4.000000,4.000000,4.000000,100.000000,,,,,,,,,,,,,,,,,,,,,,,,,,,,,,,,,,,,,,,,,,,,,,,,,,,,,,,,,,,,,,,,,,,,,,,,,,,,,,,,,,,,,,,,,,,,,,,,,,,,,,,,,,,,,,,,,,,,,
1768374991.134013,1768374991.134759,89.000000,0.000000,4346.153809,4298.974121,4369.743652,4348.974121,4270.641113,4325.000000,4325.000000,4324.871582,4308.205078,4264.487305,4523.461426,4562.307617,4349.358887,4420.128418,5182.000000,1.000000,25.000000,,,,0.000000,4.000000,4.000000,4.000000,4.000000,4.000000,4.000000,4.000000,4.000000,4.000000,4.000000,4.000000,4.000000,4.000000,4.000000,100.000000,,,,,,,,,,,,,,,,,,,,,,,,,,,,,,,,,,,,,,,,,,,,,,,,,,,,,,,,,,,,,,,,,,,,,,,,,,,,,,,,,,,,,,,,,,,,,,,,,,,,,,,,,,,,,,,,,,,,,
1768374991.141822,1768374991.142467,90.000000,0.000000,4343.846191,4296.538574,4369.487305,4345.512695,4269.487305,4322.692383,4327.436035,4332.307617,4311.025879,4270.769043,4523.589844,4560.769043,4345.641113,4411.153809,4383.000000,1.000000,25.000000,,,,0.000000,4.000000,4.000000,4.000000,4.000000,4.000000,4.000000,4.000000,4.000000,4.000000,4.000000,4.000000,4.000000,4.000000,4.000000,100.000000,,,,,,,,,,,,,,,,,,,,,,,,,,,,,,,,,,,,,,,,,,,,,,,,,,,,,,,,,,,,,,,,,,,,,,,,,,,,,,,,,,,,,,,,,,,,,,,,,,,,,,,,,,,,,,,,,,,,,
1768374991.149630,1768374991.150276,91.000000,0.000000,4335.769043,4292.692383,4364.358887,4340.897461,4269.358887,4324.102539,4327.179688,4334.102539,4307.820313,4275.128418,4523.077148,4562.179688,4345.769043,4410.128418,4652.000000,1.000000,25.000000,,,,0.000000,4.000000,4.000000,4.000000,4.000000,4.000000,4.000000,4.000000,4.000000,4.000000,4.000000,4.000000,4.000000,4.000000,4.000000,100.000000,,,,,,,,,,,,,,,,,,,,,,,,,,,,,,,,,,,,,,,,,,,,,,,,,,,,,,,,,,,,,,,,,,,,,,,,,,,,,,,,,,,,,,,,,,,,,,,,,,,,,,,,,,,,,,,,,,,,,
1768374991.157438,1768374991.157884,92.000000,0.000000,4335.641113,4290.000000,4363.974121,4341.410156,4265.897461,4328.205078,4327.820313,4329.615234,4306.922852,4272.820313,4525.384766,4563.846191,4350.000000,4415.384766,4946.000000,1.000000,25.000000,,,,0.000000,4.000000,4.000000,4.000000,4.000000,4.000000,4.000000,4.000000,4.000000,4.000000,4.000000,4.000000,4.000000,4.000000,4.000000,100.000000,,,,,,,,,,,,,,,,,,,,,,,,,,,,,,,,,,,,,,,,,,,,,,,,,,,,,,,,,,,,,,,,,,,,,,,,,,,,,,,,,,,,,,,,,,,,,,,,,,,,,,,,,,,,,,,,,,,,,
1768374991.165247,1768374991.165693,93.000000,0.000000,4338.077148,4291.282227,4368.077148,4343.205078,4261.410156,4325.897461,4325.512695,4326.922852,4305.000000,4271.410156,4523.077148,4556.794922,4342.948730,4408.717773,5182.000000,1.000000,25.000000,,,,0.000000,4.000000,4.000000,4.000000,4.000000,4.000000,4.000000,4.000000,4.000000,4.000000,4.000000,4.000000,4.000000,4.000000,4.000000,100.000000,,,,,,,,,,,,,,,,,,,,,,,,,,,,,,,,,,,,,,,,,,,,,,,,,,,,,,,,,,,,,,,,,,,,,,,,,,,,,,,,,,,,,,,,,,,,,,,,,,,,,,,,,,,,,,,,,,,,,
1768374991.173055,1768374991.173401,94.000000,0.000000,4333.974121,4291.153809,4363.461426,4340.000000,4261.282227,4318.717773,4319.230957,4327.179688,4305.641113,4272.948730,4520.128418,4552.820313,4332.307617,4396.153809,4383.000000,1.000000,25.000000,,,,0.000000,4.000000,4.000000,4.000000,4.000000,4.000000,4.000000,4.000000,4.000000,4.000000,4.000000,4.000000,4.000000,4.000000,4.000000,100.000000,,,,,,,,,,,,,,,,,,,,,,,,,,,,,,,,,,,,,,,,,,,,,,,,0.401479,0.337415,0.165244,0.186362,0.178489,0.533226,0.172275,0.136407,0.151796,0.110974,0.606575,0.254669,0.192193,0.269795,0.086553,0.506264,0.139615,0.091936,0.116200,0.118673,0.299017,0.130478,0.061628,0.077913,0.080814,0.208609,0.098116,0.117785,0.064426,0.078607,0.348359,0.080982,0.146055,0.108755,0.079090,0.454020,0.190281,0.085115,0.115169,0.078169,0.497664,0.217395,0.121895,0.138055,0.119869,0.603508,0.257981,0.128773,0.164743,0.099776,1.474578,0.561171,0.627418,0.473534,0.181153,1.298396,0.319561,0.179158,0.321128,0.163711,0.592648,0.807865,0.172828,0.290610,0.265247,0.926790,0.291090,0.321874,0.348691,0.258561
1768374991.180864,1768374991.181210,95.000000,0.000000,4329.358887,4283.846191,4356.282227,4333.846191,4265.384766,4321.794922,4321.025879,4329.743652,4308.205078,4274.230957,4525.000000,4562.179688,4339.102539,4401.282227,4652.000000,1.000000,25.000000,,,,0.000000,4.000000,4.000000,4.000000,4.000000,4.000000,4.000000,4.000000,4.000000,4.000000,4.000000,4.000000,4.000000,4.000000,4.000000,100.000000,,,,,,,,,,,,,,,,,,,,,,,,,,,,,,,,,,,,,,,,,,,,,,,,,,,,,,,,,,,,,,,,,,,,,,,,,,,,,,,,,,,,,,,,,,,,,,,,,,,,,,,,,,,,,,,,,,,,,
1768374991.188672,1768374991.188819,96.000000,0.000000,4330.897461,4280.000000,4357.820313,4333.333496,4267.051270,4327.179688,4326.410156,4330.000000,4309.743652,4276.922852,4536.666504,4571.410156,4355.000000,4413.846191,4946.000000,1.000000,25.000000,,,,0.000000,4.000000,4.000000,4.000000,4.000000,4.000000,4.000000,4.000000,4.000000,4.000000,4.000000,4.000000,4.000000,4.000000,4.000000,100.000000,,,,,,,,,,,,,,,,,,,,,,,,,,,,,,,,,,,,,,,,,,,,,,,,,,,,,,,,,,,,,,,,,,,,,,,,,,,,,,,,,,,,,,,,,,,,,,,,,,,,,,,,,,,,,,,,,,,,,
1768374991.196480,1768374991.196627,97.000000,0.000000,4332.307617,4282.692383,4359.487305,4333.846191,4267.051270,4320.256348,4319.358887,4329.615234,4312.307617,4282.179688,4542.563965,4570.384766,4357.820313,4408.461426,5182.000000,1.000000,25.000000,,,,0.000000,4.000000,4.000000,4.000000,4.000000,4.000000,4.000000,4.000000,4.000000,4.000000,4.000000,4.000000,4.000000,4.000000,4.000000,100.000000,,,,,,,,,,,,,,,,,,,,,,,,,,,,,,,,,,,,,,,,,,,,,,,,,,,,,,,,,,,,,,,,,,,,,,,,,,,,,,,,,,,,,,,,,,,,,,,,,,,,,,,,,,,,,,,,,,,,,
1768374991.204289,1768374991.204335,98.000000,0.000000,4323.717773,4279.615234,4355.000000,4328.589844,4268.205078,4312.820313,4310.256348,4330.769043,4312.436035,4280.256348,4534.358887,4565.512695,4352.051270,4395.897461,4383.000000,1.000000,25.000000,,,,0.000000,4.000000,4.000000,4.000000,4.000000,4.000000,4.000000,4.000000,4.000000,4.000000,4.000000,4.000000,4.000000,4.000000,4.000000,100.000000,,,,,,,,,,,,,,,,,,,,,,,,,,,,,,,,,,,,,,,,,,,,,,,,,,,,,,,,,,,,,,,,,,,,,,,,,,,,,,,,,,,,,,,,,,,,,,,,,,,,,,,,,,,,,,,,,,,,,
1768374991.212097,1768374991.212144,99.000000,0.000000,4317.820313,4278.717773,4351.794922,4326.922852,4271.282227,4315.256348,4312.436035,4327.307617,4305.512695,4271.025879,4525.384766,4561.538574,4348.589844,4396.538574,4652.000000,1.000000,25.000000,,,,0.000000,4.000000,4.000000,4.000000,4.000000,4.000000,4.000000,4.000000,4.000000,4.000000,4.000000,4.000000,4.000000,4.000000,4.000000,100.000000,,,,,,,,,,,,,,,,,,,,,,,,,,,,,,,,,,,,,,,,,,,,,,,,,,,,,,,,,,,,,,,,,,,,,,,,,,,,,,,,,,,,,,,,,,,,,,,,,,,,,,,,,,,,,,,,,,,,,
1768374991.219906,1768374991.220152,100.000000,0.000000,4321.538574,4281.025879,4347.563965,4328.846191,4267.692383,4319.871582,4312.692383,4326.794922,4308.461426,4269.743652,4525.384766,4561.282227,4346.025879,4397.692383,4946.000000,1.000000,25.000000,,,,0.000000,4.000000,4.000000,4.000000,4.000000,4.000000,4.000000,4.000000,4.000000,4.000000,4.000000,4.000000,4.000000,4.000000,4.000000,100.000000,,,,,,,,,,,,,,,,,,,,,,,,,,,,,,,,,,,,,,,,,,,,,,,,,,,,,,,,,,,,,,,,,,,,,,,,,,,,,,,,,,,,,,,,,,,,,,,,,,,,,,,,,,,,,,,,,,,,,
1768374991.227714,1768374991.227961,101.000000,0.000000,4319.358887,4276.666504,4342.436035,4326.538574,4260.897461,4316.666504,4308.846191,4332.563965,4316.025879,4275.641113,4526.922852,4562.692383,4339.871582,4389.743652,5182.000000,1.000000,25.000000,,,,0.000000,4.000000,4.000000,4.000000,4.000000,4.000000,4.000000,4.000000,4.000000,4.000000,4.000000,4.000000,4.000000,4.000000,4.000000,100.000000,,,,,,,,,,,,,,,,,,,,,,,,,,,,,,,,,,,,,,,,,,,,,,,,,,,,,,,,,,,,,,,,,,,,,,,,,,,,,,,,,,,,,,,,,,,,,,,,,,,,,,,,,,,,,,,,,,,,,
1768374991.235523,1768374991.235869,102.000000,0.000000,4312.436035,4274.358887,4345.384766,4325.897461,4262.563965,4314.102539,4310.512695,4328.974121,4306.538574,4271.025879,4524.358887,4558.461426,4331.282227,4378.461426,4383.000000,1.000000,25.000000,,,,0.000000,4.000000,4.000000,4.000000,4.000000,4.000000,4.000000,4.000000,4.000000,4.000000,4.000000,4.000000,4.000000,4.000000,4.000000,100.000000,,,,,,,,,,,,,,,,,,,,,,,,,,,,,,,,,,,,,,,,,,,,,,,,,,,,,,,,,,,,,,,,,,,,,,,,,,,,,,,,,,,,,,,,,,,,,,,,,,,,,,,,,,,,,,,,,,,,,
1768374991.243331,1768374991.243677,103.000000,0.000000,4309.743652,4276.794922,4348.077148,4329.871582,4265.897461,4320.000000,4312.948730,4320.128418,4297.820313,4262.692383,4521.922852,4554.230957,4327.051270,4376.025879,4652.000000,1.000000,25.000000,,,,0.000000,4.000000,4.000000,4.000000,4.000000,4.000000,4.000000,4.000000,4.000000,4.000000,4.000000,4.000000,4.000000,4.000000,4.000000,100.000000,,,,,,,,,,,,,,,,,,,,,,,,,,,,,,,,,,,,,,,,,,,,,,,,,,,,,,,,,,,,,,,,,,,,,,,,,,,,,,,,,,,,,,,,,,,,,,,,,,,,,,,,,,,,,,,,,,,,,
1768374991.251140,1768374991.251686,104.000000,0.000000,4307.563965,4271.025879,4342.692383,4330.128418,4261.666504,4321.410156,4311.922852,4322.692383,4304.871582,4265.641113,4521.025879,4554.615234,4328.589844,4378.717773,4946.000000,1.000000,25.000000,,,,0.000000,4.000000,4.000000,4.000000,4.000000,4.000000,4.000000,4.000000,4.000000,4.000000,4.000000,4.000000,4.000000,4.000000,4.000000,100.000000,,,,,,,,,,,,,,,,,,,,,,,,,,,,,,,,,,,,,,,,,,,,,,,,,,,,,,,,,,,,,,,,,,,,,,,,,,,,,,,,,,,,,,,,,,,,,,,,,,,,,,,,,,,,,,,,,,,,,
1768374991.258948,1768374991.259494,105.000000,0.000000,4308.846191,4266.410156,4342.563965,4327.179688,4261.025879,4313.205078,4311.025879,4328.461426,4308.333496,4269.102539,4520.512695,4551.538574,4328.589844,4374.871582,5182.000000,1.000000,25.000000,,,,0.000000,4.000000,4.000000,4.000000,4.000000,4.000000,4.000000,4.000000,4.000000,4.000000,4.000000,4.000000,4.000000,4.000000,4.000000,100.000000,,,,,,,,,,,,,,,,,,,,,,,,,,,,,,,,,,,,,,,,,,,,,,,,,,,,,,,,,,,,,,,,,,,,,,,,,,,,,,,,,,,,,,,,,,,,,,,,,,,,,,,,,,,,,,,,,,,,,
1768374991.266756,1768374991.267203,106.000000,0.000000,4309.230957,4272.051270,4347.179688,4326.538574,4266.666504,4314.230957,4313.846191,4327.179688,4305.512695,4269.487305,4523.974121,4549.743652,4330.256348,4374.102539,4383.000000,1.000000,25.000000,,,,0.000000,4.000000,4.000000,4.000000,4.000000,4.000000,4.000000,4.000000,4.000000,4.000000,4.000000,4.000000,4.000000,4.000000,4.000000,100.000000,,,,,,,,,,,,,,,,,,,,,,,,,,,,,,,,,,,,,,,,,,,,,,,,,,,,,,,,,,,,,,,,,,,,,,,,,,,,,,,,,,,,,,,,,,,,,,,,,,,,,,,,,,,,,,,,,,,,,
1768374991.274565,1768374991.275011,107.000000,0.000000,4300.256348,4270.512695,4346.025879,4326.538574,4267.436035,4325.256348,4320.512695,4327.948730,4309.615234,4270.128418,4526.282227,4554.871582,4334.358887,4378.846191,4652.000000,1.000000,25.000000,,,,0.000000,4.000000,4.000000,4.000000,4.000000,4.000000,4.000000,4.000000,4.000000,4.000000,4.000000,4.000000,4.000000,4.000000,4.000000,100.000000,,,,,,,,,,,,,,,,,,,,,,,,,,,,,,,,,,,,,,,,,,,,,,,,,,,,,,,,,,,,,,,,,,,,,,,,,,,,,,,,,,,,,,,,,,,,,,,,,,,,,,,,,,,,,,,,,,,,,
1768374991.282373,1768374991.283019,108.000000,0.000000,4298.205078,4270.128418,4344.102539,4326.922852,4262.436035,4322.307617,4322.436035,4330.512695,4312.563965,4271.922852,4525.256348,4555.897461,4331.153809,4378.077148,4946.000000,1.000000,25.000000,,,,0.000000,4.000000,4.000000,4.000000,4.000000,4.000000,4.000000,4.000000,4.000000,4.000000,4.000000,4.000000,4.000000,4.000000,4.000000,100.000000,,,,,,,,,,,,,,,,,,,,,,,,,,,,,,,,,,,,,,,,,,,,,,,,,,,,,,,,,,,,,,,,,,,,,,,,,,,,,,,,,,,,,,,,,,,,,,,,,,,,,,,,,,,,,,,,,,,,,
1768374991.290182,1768374991.290828,109.000000,0.000000,4305.384766,4273.846191,4345.000000,4328.974121,4261.538574,4316.153809,4319.102539,4329.615234,4310.897461,4274.102539,4525.128418,4551.025879,4325.256348,4374.102539,5182.000000,1.000000,25.000000,,,,0.000000,4.000000,4.000000,4.000000,4.000000,4.000000,4.000000,4.000000,4.000000,4.000000,4.000000,4.000000,4.000000,4.000000,4.000000,100.000000,,,,,,,,,,,,,,,,,,,,,,,,,,,,,,,,,,,,,,,,,,,,,,,,,,,,,,,,,,,,,,,,,,,,,,,,,,,,,,,,,,,,,,,,,,,,,,,,,,,,,,,,,,,,,,,,,,,,,
1768374991.297990,1768374991.298736,110.000000,0.000000,4300.256348,4271.666504,4343.589844,4329.615234,4266.538574,4324.871582,4319.358887,4329.615234,4311.153809,4269.358887,4524.871582,4547.692383,4322.436035,4371.538574,4383.000000,1.000000,25.000000,,,,0.000000,4.000000,4.000000,4.000000,4.000000,4.000000,4.000000,4.000000,4.000000,4.000000,4.000000,4.000000,4.000000,4.000000,4.000000,100.000000,,,,,,,,,,,,,,,,,,,,,,,,,,,,,,,,,,,,,,,,,,,,,,,,0.478103,0.353883,0.153206,0.158849,0.171063,0.509161,0.154928,0.101041,0.133645,0.113047,0.774287,0.289431,0.134890,0.243188,0.082548,0.519643,0.153314,0.082714,0.102235,0.116327,0.243293,0.113766,0.055134,0.086442,0.082205,0.240536,0.090974,0.106353,0.068837,0.077285,0.380414,0.066408,0.152969,0.119257,0.072877,0.422396,0.195463,0.095847,0.110587,0.077067,0.423676,0.219727,0.092548,0.149634,0.118750,0.514472,0.300421,0.113093,0.167908,0.094406,1.692254,0.637684,0.597775,0.429844,0.197419,1.365291,0.332762,0.198993,0.329265,0.160578,0.490080,0.879631,0.169833,0.283053,0.254234,1.079203,0.359211,0.378754,0.355319,0.265979
1768374991.305799,1768374991.306545,111.000000,0.000000,4295.384766,4268.205078,4342.436035,4327.820313,4265.897461,4324.743652,4319.615234,4330.256348,4311.153809,4262.563965,4521.666504,4549.102539,4319.743652,4369.743652,4652.000000,1.000000,25.000000,,,,0.000000,4.000000,4.000000,4.000000,4.000000,4.000000,4.000000,4.000000,4.000000,4.000000,4.000000,4.000000,4.000000,4.000000,4.000000,100.000000,,,,,,,,,,,,,,,,,,,,,,,,,,,,,,,,,,,,,,,,,,,,,,,,,,,,,,,,,,,,,,,,,,,,,,,,,,,,,,,,,,,,,,,,,,,,,,,,,,,,,,,,,,,,,,,,,,,,,
1768374991.313607,1768374991.314153,112.000000,0.000000,4300.256348,4267.692383,4343.333496,4325.000000,4255.897461,4313.077148,4316.153809,4329.230957,4307.051270,4262.948730,4519.871582,4554.230957,4317.563965,4373.333496,4946.000000,1.000000,25.000000,,,,0.000000,4.000000,4.000000,4.000000,4.000000,4.000000,4.000000,4.000000,4.000000,4.000000,4.000000,4.000000,4.000000,4.000000,4.000000,100.000000,,,,,,,,,,,,,,,,,,,,,,,,,,,,,,,,,,,,,,,,,,,,,,,,,,,,,,,,,,,,,,,,,,,,,,,,,,,,,,,,,,,,,,,,,,,,,,,,,,,,,,,,,,,,,,,,,,,,,
1768374991.321416,1768374991.321962,113.000000,0.000000,4298.205078,4272.692383,4342.948730,4328.077148,4257.692383,4318.205078,4320.256348,4331.282227,4306.538574,4267.948730,4523.205078,4555.384766,4318.589844,4377.051270,5182.000000,1.000000,25.000000,,,,0.000000,4.000000,4.000000,4.000000,4.000000,4.000000,4.000000,4.000000,4.000000,4.000000,4.000000,4.000000,4.000000,4.000000,4.000000,100.000000,,,,,,,,,,,,,,,,,,,,,,,,,,,,,,,,,,,,,,,,,,,,,,,,,,,,,,,,,,,,,,,,,,,,,,,,,,,,,,,,,,,,,,,,,,,,,,,,,,,,,,,,,,,,,,,,,,,,,
1768374991.329224,1768374991.329670,114.000000,0.000000,4293.461426,4275.128418,4342.051270,4332.307617,4270.128418,4334.615234,4328.717773,4337.307617,4313.974121,4271.538574,4526.025879,4555.641113,4321.922852,4373.077148,4383.000000,1.000000,25.000000,,,,0.000000,4.000000,4.000000,4.000000,4.000000,4.000000,4.000000,4.000000,4.000000,4.000000,4.000000,4.000000,4.000000,4.000000,4.000000,100.000000,,,,,,,,,,,,,,,,,,,,,,,,,,,,,,,,,,,,,,,,,,,,,,,,,,,,,,,,,,,,,,,,,,,,,,,,,,,,,,,,,,,,,,,,,,,,,,,,,,,,,,,,,,,,,,,,,,,,,
1768374991.337032,1768374991.337479,115.000000,0.000000,4299.358887,4271.282227,4341.410156,4330.000000,4268.461426,4331.666504,4328.205078,4341.538574,4316.794922,4269.615234,4524.743652,4556.153809,4320.512695,4372.051270,4652.000000,1.000000,25.000000,,,,0.000000,4.000000,4.000000,4.000000,4.000000,4.000000,4.000000,4.000000,4.000000,4.000000,4.000000,4.000000,4.000000,4.000000,4.000000,100.000000,,,,,,,,,,,,,,,,,,,,,,,,,,,,,,,,,,,,,,,,,,,,,,,,,,,,,,,,,,,,,,,,,,,,,,,,,,,,,,,,,,,,,,,,,,,,,,,,,,,,,,,,,,,,,,,,,,,,,
1768374991.344841,1768374991.345487,116.000000,0.000000,4305.641113,4266.153809,4342.179688,4328.589844,4258.846191,4319.743652,4322.436035,4338.589844,4314.230957,4262.307617,4523.205078,4552.820313,4312.692383,4373.333496,4946.000000,1.000000,25.000000,,,,0.000000,4.000000,4.000000,4.000000,4.000000,4.000000,4.000000,4.000000,4.000000,4.000000,4.000000,4.000000,4.000000,4.000000,4.000000,100.000000,,,,,,,,,,,,,,,,,,,,,,,,,,,,,,,,,,,,,,,,,,,,,,,,,,,,,,,,,,,,,,,,,,,,,,,,,,,,,,,,,,,,,,,,,,,,,,,,,,,,,,,,,,,,,,,,,,,,,
1768374991.352649,1768374991.353295,117.000000,0.000000,4305.897461,4268.846191,4343.717773,4330.897461,4259.615234,4323.717773,4321.666504,4333.589844,4314.102539,4263.717773,4523.205078,4552.563965,4310.641113,4374.358887,5182.000000,1.000000,25.000000,,,,0.000000,4.000000,4.000000,4.000000,4.000000,4.000000,4.000000,4.000000,4.000000,4.000000,4.000000,4.000000,4.000000,4.000000,4.000000,100.000000,,,,,,,,,,,,,,,,,,,,,,,,,,,,,,,,,,,,,,,,,,,,,,,,,,,,,,,,,,,,,,,,,,,,,,,,,,,,,,,,,,,,,,,,,,,,,,,,,,,,,,,,,,,,,,,,,,,,,
1768374991.360458,1768374991.361004,118.000000,0.000000,4307.563965,4270.897461,4342.179688,4330.384766,4265.256348,4330.512695,4323.974121,4332.563965,4312.948730,4268.333496,4524.102539,4557.563965,4314.358887,4376.153809,4383.000000,1.000000,25.000000,,,,0.000000,4.000000,4.000000,4.000000,4.000000,4.000000,4.000000,4.000000,4.000000,4.000000,4.000000,4.000000,4.000000,4.000000,4.000000,100.000000,,,,,,,,,,,,,,,,,,,,,,,,,,,,,,,,,,,,,,,,,,,,,,,,,,,,,,,,,,,,,,,,,,,,,,,,,,,,,,,,,,,,,,,,,,,,,,,,,,,,,,,,,,,,,,,,,,,,,
1768374991.368266,1768374991.368812,119.000000,0.000000,4310.769043,4267.307617,4342.820313,4329.102539,4262.692383,4327.307617,4324.102539,4335.769043,4308.717773,4262.820313,4523.846191,4557.051270,4314.102539,4376.538574,4652.000000,1.000000,25.000000,,,,0.000000,4.000000,4.000000,4.000000,4.000000,4.000000,4.000000,4.000000,4.000000,4.000000,4.000000,4.000000,4.000000,4.000000,4.000000,100.000000,,,,,,,,,,,,,,,,,,,,,,,,,,,,,,,,,,,,,,,,,,,,,,,,,,,,,,,,,,,,,,,,,,,,,,,,,,,,,,,,,,,,,,,,,,,,,,,,,,,,,,,,,,,,,,,,,,,,,
1768374991.376075,1768374991.376421,120.000000,0.000000,4305.128418,4265.641113,4345.384766,4329.358887,4255.384766,4326.282227,4323.077148,4337.051270,4310.641113,4263.974121,4523.589844,4555.769043,4312.948730,4377.436035,4946.000000,1.000000,25.000000,,,,0.000000,4.000000,4.000000,4.000000,4.000000,4.000000,4.000000,4.000000,4.000000,4.000000,4.000000,4.000000,4.000000,4.000000,4.000000,100.000000,,,,,,,,,,,,,,,,,,,,,,,,,,,,,,,,,,,,,,,,,,,,,,,,,,,,,,,,,,,,,,,,,,,,,,,,,,,,,,,,,,,,,,,,,,,,,,,,,,,,,,,,,,,,,,,,,,,,,
1768374991.383883,1768374991.384229,121.000000,0.000000,4299.102539,4263.333496,4342.692383,4326.922852,4254.487305,4326.666504,4323.974121,4337.051270,4317.307617,4273.974121,4525.512695,4558.717773,4312.179688,4379.487305,5182.000000,1.000000,25.000000,,,,0.000000,4.000000,4.000000,4.000000,4.000000,4.000000,4.000000,4.000000,4.000000,4.000000,4.000000,4.000000,4.000000,4.000000,4.000000,100.000000,,,,,,,,,,,,,,,,,,,,,,,,,,,,,,,,,,,,,,,,,,,,,,,,,,,,,,,,,,,,,,,,,,,,,,,,,,,,,,,,,,,,,,,,,,,,,,,,,,,,,,,,,,,,,,,,,,,,,
1768374991.391692,1768374991.391938,122.000000,0.000000,4301.153809,4259.230957,4341.153809,4325.641113,4254.487305,4318.333496,4321.410156,4338.717773,4315.769043,4272.820313,4526.025879,4557.051270,4310.000000,4377.051270,4383.000000,1.000000,25.000000,,,,0.000000,4.000000,4.000000,4.000000,4.000000,4.000000,4.000000,4.000000,4.000000,4.000000,4.000000,4.000000,4.000000,4.000000,4.000000,100.000000,,,,,,,,,,,,,,,,,,,,,,,,,,,,,,,,,,,,,,,,,,,,,,,,,,,,,,,,,,,,,,,,,,,,,,,,,,,,,,,,,,,,,,,,,,,,,,,,,,,,,,,,,,,,,,,,,,,,,
1768374991.399500,1768374991.399746,123.000000,0.000000,4300.769043,4256.025879,4348.461426,4326.538574,4252.051270,4314.230957,4319.102539,4339.615234,4315.897461,4264.615234,4524.358887,4557.179688,4308.461426,4371.922852,4652.000000,1.000000,25.000000,,,,0.000000,4.000000,4.000000,4.000000,4.000000,4.000000,4.000000,4.000000,4.000000,4.000000,4.000000,4.000000,4.000000,4.000000,4.000000,100.000000,,,,,,,,,,,,,,,,,,,,,,,,,,,,,,,,,,,,,,,,,,,,,,,,,,,,,,,,,,,,,,,,,,,,,,,,,,,,,,,,,,,,,,,,,,,,,,,,,,,,,,,,,,,,,,,,,,,,,
1768374991.407308,1768374991.407755,124.000000,0.000000,4296.922852,4258.333496,4351.410156,4325.384766,4250.641113,4319.102539,4320.256348,4339.487305,4319.358887,4262.436035,4524.102539,4561.153809,4305.000000,4369.743652,4946.000000,1.000000,25.000000,,,,0.000000,4.000000,4.000000,4.000000,4.000000,4.000000,4.000000,4.000000,4.000000,4.000000,4.000000,4.000000,4.000000,4.000000,4.000000,100.000000,,,,,,,,,,,,,,,,,,,,,,,,,,,,,,,,,,,,,,,,,,,,,,,,,,,,,,,,,,,,,,,,,,,,,,,,,,,,,,,,,,,,,,,,,,,,,,,,,,,,,,,,,,,,,,,,,,,,,
1768374991.415117,1768374991.415563,125.000000,0.000000,4298.077148,4261.922852,4344.871582,4324.743652,4252.307617,4317.436035,4316.794922,4339.487305,4316.922852,4265.769043,4522.948730,4559.615234,4300.000000,4371.538574,5182.000000,1.000000,25.000000,,,,0.000000,4.000000,4.000000,4.000000,4.000000,4.000000,4.000000,4.000000,4.000000,4.000000,4.000000,4.000000,4.000000,4.000000,4.000000,100.000000,,,,,,,,,,,,,,,,,,,,,,,,,,,,,,,,,,,,,,,,,,,,,,,,,,,,,,,,,,,,,,,,,,,,,,,,,,,,,,,,,,,,,,,,,,,,,,,,,,,,,,,,,,,,,,,,,,,,,
1768374991.422925,1768374991.423471,126.000000,0.000000,4301.922852,4259.230957,4342.179688,4323.974121,4255.256348,4314.615234,4315.512695,4341.025879,4318.333496,4272.436035,4525.128418,4560.512695,4301.282227,4376.538574,4383.000000,1.000000,25.000000,,,,0.000000,4.000000,4.000000,4.000000,4.000000,4.000000,4.000000,4.000000,4.000000,4.000000,4.000000,4.000000,4.000000,4.000000,4.000000,100.000000,,,,,,,,,,,,,,,,,,,,,,,,,,,,,,,,,,,,,,,,,,,,,,,,0.586107,0.354252,0.151031,0.142558,0.161253,0.523181,0.147875,0.088364,0.118449,0.110403,0.888372,0.299794,0.101633,0.207371,0.078147,0.519941,0.161712,0.082381,0.090290,0.110145,0.192239,0.094701,0.053022,0.091569,0.081584,0.272950,0.080088,0.091502,0.071692,0.077726,0.411896,0.062944,0.150135,0.123868,0.074297,0.371088,0.185766,0.100722,0.106482,0.073288,0.365651,0.205518,0.084648,0.160647,0.112661,0.457499,0.331063,0.114581,0.167654,0.086569,1.897464,0.703520,0.585057,0.365962,0.206166,1.359497,0.335226,0.272765,0.344788,0.157161,0.470518,0.882615,0.207831,0.266354,0.224708,1.242543,0.420154,0.451788,0.352264,0.263573
1768374991.430734,1768374991.431280,127.000000,0.000000,4301.922852,4255.256348,4343.846191,4325.128418,4254.871582,4316.794922,4320.897461,4338.974121,4321.538574,4277.436035,4530.128418,4564.102539,4307.307617,4380.256348,25.000000,1.000000,25.000000,,,,0.000000,4.000000,4.000000,4.000000,4.000000,4.000000,4.000000,4.000000,4.000000,4.000000,4.000000,4.000000,4.000000,4.000000,4.000000,100.000000,,,,,,,,,,,,,,,,,,,,,,,,,,,,,,,,,,,,,,,,,,,,,,,,,,,,,,,,,,,,,,,,,,,,,,,,,,,,,,,,,,,,,,,,,,,,,,,,,,,,,,,,,,,,,,,,,,,,,
1768374991.438542,1768374991.439288,0.000000,0.000000,4298.205078,4258.589844,4342.179688,4326.794922,4257.820313,4318.846191,4320.897461,4337.179688,4316.666504,4276.153809,4528.846191,4561.538574,4310.384766,4381.410156,4056.000000,1.000000,25.000000,,,,0.000000,4.000000,4.000000,4.000000,4.000000,4.000000,4.000000,4.000000,4.000000,4.000000,4.000000,4.000000,4.000000,4.000000,4.000000,100.000000,,,,,,,,,,,,,,,,,,,,,,,,,,,,,,,,,,,,,,,,,,,,,,,,,,,,,,,,,,,,,,,,,,,,,,,,,,,,,,,,,,,,,,,,,,,,,,,,,,,,,,,,,,,,,,,,,,,,,
1768374991.446351,1768374991.447097,1.000000,0.000000,4293.333496,4260.128418,4341.410156,4325.256348,4258.717773,4321.025879,4320.128418,4341.153809,4317.692383,4275.384766,4528.974121,4562.692383,4309.358887,4381.666504,4004.000000,1.000000,25.000000,,,,0.000000,4.000000,4.000000,4.000000,4.000000,4.000000,4.000000,4.000000,4.000000,4.000000,4.000000,4.000000,4.000000,4.000000,4.000000,100.000000,,,,,,,,,,,,,,,,,,,,,,,,,,,,,,,,,,,,,,,,,,,,,,,,,,,,,,,,,,,,,,,,,,,,,,,,,,,,,,,,,,,,,,,,,,,,,,,,,,,,,,,,,,,,,,,,,,,,,
1768374991.454159,1768374991.455005,2.000000,0.000000,4294.615234,4254.615234,4343.333496,4325.769043,4254.615234,4319.102539,4324.743652,4341.666504,4326.410156,4278.205078,4538.461426,4572.307617,4309.871582,4380.769043,3896.000000,1.000000,25.000000,,,,0.000000,4.000000,4.000000,4.000000,4.000000,4.000000,4.000000,4.000000,4.000000,4.000000,4.000000,4.000000,4.000000,4.000000,4.000000,100.000000,,,,,,,,,,,,,,,,,,,,,,,,,,,,,,,,,,,,,,,,,,,,,,,,,,,,,,,,,,,,,,,,,,,,,,,,,,,,,,,,,,,,,,,,,,,,,,,,,,,,,,,,,,,,,,,,,,,,,
1768374991.461968,1768374991.462813,3.000000,0.000000,4298.205078,4255.769043,4343.333496,4328.589844,4254.230957,4317.948730,4327.563965,4338.974121,4326.922852,4279.743652,4537.948730,4572.179688,4312.692383,4381.666504,3906.000000,1.000000,25.000000,,,,0.000000,4.000000,4.000000,4.000000,4.000000,4.000000,4.000000,4.000000,4.000000,4.000000,4.000000,4.000000,4.000000,4.000000,4.000000,100.000000,,,,,,,,,,,,,,,,,,,,,,,,,,,,,,,,,,,,,,,,,,,,,,,,,,,,,,,,,,,,,,,,,,,,,,,,,,,,,,,,,,,,,,,,,,,,,,,,,,,,,,,,,,,,,,,,,,,,,
1768374991.469776,1768374991.470422,4.000000,0.000000,4296.410156,4258.974121,4341.410156,4326.282227,4255.769043,4322.820313,4323.077148,4338.205078,4320.897461,4276.153809,4525.641113,4559.871582,4307.820313,4379.743652,3839.000000,1.000000,25.000000,,,,0.000000,4.000000,4.000000,4.000000,4.000000,4.000000,4.000000,4.000000,4.000000,4.000000,4.000000,4.000000,4.000000,4.000000,4.000000,100.000000,,,,,,,,,,,,,,,,,,,,,,,,,,,,,,,,,,,,,,,,,,,,,,,,,,,,,,,,,,,,,,,,,,,,,,,,,,,,,,,,,,,,,,,,,,,,,,,,,,,,,,,,,,,,,,,,,,,,,
1768374991.477584,1768374991.478231,5.000000,0.000000,4295.769043,4252.820313,4341.282227,4323.461426,4252.307617,4319.358887,4316.666504,4336.666504,4319.102539,4269.487305,4521.794922,4557.948730,4299.615234,4374.743652,3749.000000,1.000000,25.000000,,,,0.000000,4.000000,4.000000,4.000000,4.000000,4.000000,4.000000,4.000000,4.000000,4.000000,4.000000,4.000000,4.000000,4.000000,4.000000,100.000000,,,,,,,,,,,,,,,,,,,,,,,,,,,,,,,,,,,,,,,,,,,,,,,,,,,,,,,,,,,,,,,,,,,,,,,,,,,,,,,,,,,,,,,,,,,,,,,,,,,,,,,,,,,,,,,,,,,,,
1768374991.485393,1768374991.486139,6.000000,0.000000,4296.153809,4249.487305,4340.769043,4324.871582,4248.846191,4309.743652,4312.563965,4333.077148,4318.333496,4265.512695,4527.051270,4564.230957,4299.358887,4373.461426,3780.000000,1.000000,25.000000,,,,0.000000,4.000000,4.000000,4.000000,4.000000,4.000000,4.000000,4.000000,4.000000,4.000000,4.000000,4.000000,4.000000,4.000000,4.000000,100.000000,,,,,,,,,,,,,,,,,,,,,,,,,,,,,,,,,,,,,,,,,,,,,,,,,,,,,,,,,,,,,,,,,,,,,,,,,,,,,,,,,,,,,,,,,,,,,,,,,,,,,,,,,,,,,,,,,,,,,
1768374991.493201,1768374991.493947,7.000000,0.000000,4294.102539,4252.692383,4337.563965,4323.333496,4252.436035,4314.102539,4315.384766,4335.384766,4315.769043,4267.179688,4529.102539,4565.256348,4302.436035,4373.974121,3306.000000,1.000000,25.000000,,,,0.000000,4.000000,4.000000,4.000000,4.000000,4.000000,4.000000,4.000000,4.000000,4.000000,4.000000,4.000000,4.000000,4.000000,4.000000,100.000000,,,,,,,,,,,,,,,,,,,,,,,,,,,,,,,,,,,,,,,,,,,,,,,,,,,,,,,,,,,,,,,,,,,,,,,,,,,,,,,,,,,,,,,,,,,,,,,,,,,,,,,,,,,,,,,,,,,,,
1768374991.501010,1768374991.501956,8.000000,0.000000,4293.717773,4251.025879,4338.461426,4323.333496,4253.077148,4325.128418,4322.948730,4340.256348,4313.846191,4266.410156,4527.692383,4565.000000,4298.846191,4373.717773,3977.000000,1.000000,25.000000,,,,0.000000,4.000000,4.000000,4.000000,4.000000,4.000000,4.000000,4.000000,4.000000,4.000000,4.000000,4.000000,4.000000,4.000000,4.000000,100.000000,,,,,,,,,,,,,,,,,,,,,,,,,,,,,,,,,,,,,,,,,,,,,,,,,,,,,,,,,,,,,,,,,,,,,,,,,,,,,,,,,,,,,,,,,,,,,,,,,,,,,,,,,,,,,,,,,,,,,
1768374991.508818,1768374991.509764,9.000000,0.000000,4298.077148,4247.820313,4342.051270,4325.641113,4250.769043,4323.974121,4322.563965,4339.743652,4314.358887,4261.410156,4523.974121,4566.538574,4293.846191,4373.589844,3981.000000,1.000000,25.000000,,,,0.000000,4.000000,4.000000,4.000000,4.000000,4.000000,4.000000,4.000000,4.000000,4.000000,4.000000,4.000000,4.000000,4.000000,4.000000,100.000000,,,,,,,,,,,,,,,,,,,,,,,,,,,,,,,,,,,,,,,,,,,,,,,,,,,,,,,,,,,,,,,,,,,,,,,,,,,,,,,,,,,,,,,,,,,,,,,,,,,,,,,,,,,,,,,,,,,,,
1768374991.516627,1768374991.517473,10.000000,0.000000,4294.102539,4244.743652,4339.102539,4318.589844,4250.000000,4318.205078,4317.948730,4340.384766,4316.025879,4261.666504,4519.230957,4561.538574,4290.128418,4368.846191,4395.000000,1.000000,25.000000,,,,0.000000,4.000000,4.000000,4.000000,4.000000,4.000000,4.000000,4.000000,4.000000,4.000000,4.000000,4.000000,4.000000,4.000000,4.000000,100.000000,,,,,,,,,,,,,,,,,,,,,,,,,,,,,,,,,,,,,,,,,,,,,,,,,,,,,,,,,,,,,,,,,,,,,,,,,,,,,,,,,,,,,,,,,,,,,,,,,,,,,,,,,,,,,,,,,,,,,
1768374991.524435,1768374991.525281,11.000000,0.000000,4288.717773,4242.051270,4340.000000,4316.410156,4250.384766,4320.384766,4322.692383,4345.897461,4319.102539,4271.922852,4525.512695,4562.179688,4294.102539,4368.846191,4657.000000,1.000000,25.000000,,,,0.000000,4.000000,4.000000,4.000000,4.000000,4.000000,4.000000,4.000000,4.000000,4.000000,4.000000,4.000000,4.000000,4.000000,4.000000,100.000000,,,,,,,,,,,,,,,,,,,,,,,,,,,,,,,,,,,,,,,,,,,,,,,,,,,,,,,,,,,,,,,,,,,,,,,,,,,,,,,,,,,,,,,,,,,,,,,,,,,,,,,,,,,,,,,,,,,,,
1768374991.532244,1768374991.532890,12.000000,0.000000,4299.487305,4249.230957,4352.692383,4330.256348,4253.589844,4325.897461,4331.025879,4351.410156,4327.948730,4278.077148,4539.871582,4576.922852,4308.846191,4381.538574,4948.000000,1.000000,25.000000,,,,0.000000,4.000000,4.000000,4.000000,4.000000,4.000000,4.000000,4.000000,4.000000,4.000000,4.000000,4.000000,4.000000,4.000000,4.000000,100.000000,,,,,,,,,,,,,,,,,,,,,,,,,,,,,,,,,,,,,,,,,,,,,,,,,,,,,,,,,,,,,,,,,,,,,,,,,,,,,,,,,,,,,,,,,,,,,,,,,,,,,,,,,,,,,,,,,,,,,
1768374991.540052,1768374991.540698,13.000000,0.000000,4310.897461,4258.461426,4360.000000,4341.282227,4257.179688,4327.179688,4331.666504,4351.153809,4332.692383,4276.922852,4542.051270,4584.743652,4315.256348,4387.563965,5180.000000,1.000000,25.000000,,,,0.000000,4.000000,4.000000,4.000000,4.000000,4.000000,4.000000,4.000000,4.000000,4.000000,4.000000,4.000000,4.000000,4.000000,4.000000,100.000000,,,,,,,,,,,,,,,,,,,,,,,,,,,,,,,,,,,,,,,,,,,,,,,,,,,,,,,,,,,,,,,,,,,,,,,,,,,,,,,,,,,,,,,,,,,,,,,,,,,,,,,,,,,,,,,,,,,,,
1768374991.547861,1768374991.548606,14.000000,0.000000,4305.897461,4259.487305,4355.128418,4338.974121,4258.589844,4323.717773,4328.205078,4346.922852,4322.563965,4273.974121,4536.153809,4579.230957,4308.589844,4382.563965,4395.000000,1.000000,25.000000,,,,0.000000,4.000000,4.000000,4.000000,4.000000,4.000000,4.000000,4.000000,4.000000,4.000000,4.000000,4.000000,4.000000,4.000000,4.000000,100.000000,1.000000,91.666664,4.000000,4.000000,4.000000,4.000000,3.000000,4.000000,4.000000,4.000000,4.000000,4.000000,4.000000,4.000000,4.000000,4.000000,,,,,,,,,,,,,,,,,,,,,,,,,,,,,,,,0.719162,0.328846,0.152511,0.137006,0.150276,0.577287,0.144166,0.091027,0.108276,0.102507,0.924196,0.274535,0.088664,0.170309,0.073213,0.518987,0.159667,0.083804,0.081063,0.100625,0.142241,0.075053,0.059434,0.091097,0.080141,0.300863,0.071042,0.075976,0.072759,0.081855,0.445373,0.071974,0.137670,0.119795,0.084097,0.317175,0.164406,0.096332,0.103496,0.068986,0.342854,0.176708,0.089688,0.168056,0.106103,0.447014,0.346980,0.122182,0.166218,0.078408,1.982668,0.736217,0.586043,0.306526,0.205720,1.279357,0.326917,0.387754,0.366025,0.155694,0.451338,0.817459,0.271332,0.246526,0.186452,1.354572,0.462421,0.521749,0.339479,0.254855
1768374991.555669,1768374991.556415,15.000000,0.000000,4295.512695,4254.358887,4350.000000,4335.897461,4258.205078,4320.512695,4328.717773,4341.282227,4313.717773,4269.230957,4534.871582,4571.282227,4304.743652,4381.153809,4657.000000,1.000000,25.000000,,,,0.000000,4.000000,4.000000,4.000000,4.000000,4.000000,4.000000,4.000000,4.000000,4.000000,4.000000,4.000000,4.000000,4.000000,4.000000,100.000000,,,,,,,,,,,,,,,,,,,,,,,,,,,,,,,,,,,,,,,,,,,,,,,,,,,,,,,,,,,,,,,,,,,,,,,,,,,,,,,,,,,,,,,,,,,,,,,,,,,,,,,,,,,,,,,,,,,,,
1768374991.563477,1768374991.564024,16.000000,0.000000,4295.769043,4248.077148,4345.769043,4334.743652,4257.179688,4317.563965,4326.025879,4336.282227,4318.846191,4269.358887,4535.384766,4568.846191,4307.179688,4383.205078,0.000000,1.000000,25.000000,,,,0.000000,4.000000,4.000000,4.000000,4.000000,4.000000,4.000000,4.000000,4.000000,4.000000,4.000000,4.000000,4.000000,4.000000,4.000000,100.000000,,,,,,,,,,,,,,,,,,,,,,,,,,,,,,,,,,,,,,,,,,,,,,,,,,,,,,,,,,,,,,,,,,,,,,,,,,,,,,,,,,,,,,,,,,,,,,,,,,,,,,,,,,,,,,,,,,,,,
1768374991.571286,1768374991.571832,17.000000,0.000000,4305.000000,4248.974121,4341.922852,4330.256348,4253.333496,4314.358887,4319.871582,4338.974121,4323.974121,4274.871582,4534.102539,4572.692383,4308.077148,4383.846191,0.000000,1.000000,25.000000,,,,0.000000,4.000000,4.000000,4.000000,4.000000,4.000000,4.000000,4.000000,4.000000,4.000000,4.000000,4.000000,4.000000,4.000000,4.000000,100.000000,,,,,,,,,,,,,,,,,,,,,,,,,,,,,,,,,,,,,,,,,,,,,,,,,,,,,,,,,,,,,,,,,,,,,,,,,,,,,,,,,,,,,,,,,,,,,,,,,,,,,,,,,,,,,,,,,,,,,
1768374991.579094,1768374991.579541,18.000000,0.000000,4311.794922,4253.846191,4346.538574,4332.948730,4250.512695,4313.333496,4318.974121,4341.410156,4317.436035,4273.846191,4536.410156,4575.384766,4306.153809,4386.922852,0.000000,1.000000,25.000000,,,,0.000000,4.000000,4.000000,4.000000,4.000000,4.000000,4.000000,4.000000,4.000000,4.000000,4.000000,4.000000,4.000000,4.000000,4.000000,100.000000,,,,,,,,,,,,,,,,,,,,,,,,,,,,,,,,,,,,,,,,,,,,,,,,,,,,,,,,,,,,,,,,,,,,,,,,,,,,,,,,,,,,,,,,,,,,,,,,,,,,,,,,,,,,,,,,,,,,,
1768374991.586903,1768374991.587349,19.000000,0.000000,4309.615234,4250.128418,4351.666504,4336.153809,4252.948730,4313.205078,4321.025879,4336.153809,4314.102539,4272.948730,4538.846191,4578.333496,4306.410156,4391.922852,0.000000,1.000000,25.000000,,,,0.000000,4.000000,4.000000,4.000000,4.000000,4.000000,4.000000,4.000000,4.000000,4.000000,4.000000,4.000000,4.000000,4.000000,4.000000,100.000000,,,,,,,,,,,,,,,,,,,,,,,,,,,,,,,,,,,,,,,,,,,,,,,,,,,,,,,,,,,,,,,,,,,,,,,,,,,,,,,,,,,,,,,,,,,,,,,,,,,,,,,,,,,,,,,,,,,,,
1768374991.594711,1768374991.594958,20.000000,0.000000,4307.179688,4245.256348,4353.077148,4332.307617,4252.563965,4313.974121,4321.282227,4335.000000,4320.897461,4277.948730,4540.256348,4585.256348,4310.000000,4396.666504,0.000000,1.000000,25.000000,,,,0.000000,4.000000,4.000000,4.000000,4.000000,4.000000,4.000000,4.000000,4.000000,4.000000,4.000000,4.000000,4.000000,4.000000,4.000000,100.000000,,,,,,,,,,,,,,,,,,,,,,,,,,,,,,,,,,,,,,,,,,,,,,,,,,,,,,,,,,,,,,,,,,,,,,,,,,,,,,,,,,,,,,,,,,,,,,,,,,,,,,,,,,,,,,,,,,,,,
1768374991.602520,1768374991.602766,21.000000,0.000000,4308.461426,4251.794922,4355.641113,4335.384766,4248.077148,4316.282227,4322.051270,4341.794922,4325.769043,4280.000000,4542.307617,4588.589844,4313.717773,4397.820313,0.000000,1.000000,25.000000,,,,0.000000,4.000000,4.000000,4.000000,4.000000,4.000000,4.000000,4.000000,4.000000,4.000000,4.000000,4.000000,4.000000,4.000000,4.000000,100.000000,,,,,,,,,,,,,,,,,,,,,,,,,,,,,,,,,,,,,,,,,,,,,,,,,,,,,,,,,,,,,,,,,,,,,,,,,,,,,,,,,,,,,,,,,,,,,,,,,,,,,,,,,,,,,,,,,,,,,
1768374991.610328,1768374991.610475,22.000000,0.000000,4308.077148,4259.358887,4351.282227,4340.897461,4252.692383,4317.179688,4323.846191,4343.461426,4324.615234,4277.307617,4542.820313,4580.128418,4310.897461,4394.102539,0.000000,1.000000,25.000000,,,,0.000000,4.000000,4.000000,4.000000,4.000000,4.000000,4.000000,4.000000,4.000000,4.000000,4.000000,4.000000,4.000000,4.000000,4.000000,100.000000,,,,,,,,,,,,,,,,,,,,,,,,,,,,,,,,,,,,,,,,,,,,,,,,,,,,,,,,,,,,,,,,,,,,,,,,,,,,,,,,,,,,,,,,,,,,,,,,,,,,,,,,,,,,,,,,,,,,,
1768374991.618137,1768374991.618283,23.000000,0.000000,4309.871582,4254.871582,4344.743652,4337.948730,4254.615234,4315.000000,4321.282227,4337.436035,4318.077148,4275.000000,4535.384766,4572.948730,4303.461426,4391.410156,0.000000,1.000000,25.000000,,,,0.000000,4.000000,4.000000,4.000000,4.000000,4.000000,4.000000,4.000000,4.000000,4.000000,4.000000,4.000000,4.000000,4.000000,4.000000,100.000000,,,,,,,,,,,,,,,,,,,,,,,,,,,,,,,,,,,,,,,,,,,,,,,,,,,,,,,,,,,,,,,,,,,,,,,,,,,,,,,,,,,,,,,,,,,,,,,,,,,,,,,,,,,,,,,,,,,,,
1768374991.625945,1768374991.626291,24.000000,0.000000,4307.948730,4247.051270,4345.512695,4331.794922,4246.410156,4313.589844,4319.615234,4332.692383,4310.641113,4271.666504,4527.563965,4574.871582,4298.717773,4391.153809,0.000000,1.000000,25.000000,,,,0.000000,4.000000,4.000000,4.000000,4.000000,4.000000,4.000000,4.000000,4.000000,4.000000,4.000000,4.000000,4.000000,4.000000,4.000000,100.000000,,,,,,,,,,,,,,,,,,,,,,,,,,,,,,,,,,,,,,,,,,,,,,,,,,,,,,,,,,,,,,,,,,,,,,,,,,,,,,,,,,,,,,,,,,,,,,,,,,,,,,,,,,,,,,,,,,,,,
1768374991.633753,1768374991.634100,25.000000,0.000000,4298.461426,4246.153809,4345.769043,4329.487305,4246.538574,4315.256348,4321.282227,4334.102539,4309.743652,4268.589844,4529.871582,4576.410156,4297.179688,4387.820313,0.000000,1.000000,25.000000,,,,0.000000,4.000000,4.000000,4.000000,4.000000,4.000000,4.000000,4.000000,4.000000,4.000000,4.000000,4.000000,4.000000,4.000000,4.000000,100.000000,,,,,,,,,,,,,,,,,,,,,,,,,,,,,,,,,,,,,,,,,,,,,,,,,,,,,,,,,,,,,,,,,,,,,,,,,,,,,,,,,,,,,,,,,,,,,,,,,,,,,,,,,,,,,,,,,,,,,
1768374991.641562,1768374991.642008,26.000000,0.000000,4293.333496,4246.282227,4341.282227,4325.897461,4251.025879,4312.692383,4321.025879,4338.205078,4313.461426,4268.077148,4531.153809,4571.538574,4294.743652,4381.922852,0.000000,1.000000,25.000000,,,,0.000000,4.000000,4.000000,4.000000,4.000000,4.000000,4.000000,4.000000,4.000000,4.000000,4.000000,4.000000,4.000000,4.000000,4.000000,100.000000,,,,,,,,,,,,,,,,,,,,,,,,,,,,,,,,,,,,,,,,,,,,,,,,,,,,,,,,,,,,,,,,,,,,,,,,,,,,,,,,,,,,,,,,,,,,,,,,,,,,,,,,,,,,,,,,,,,,,
1768374991.649370,1768374991.649817,27.000000,0.000000,4295.769043,4247.179688,4340.000000,4326.025879,4247.051270,4309.358887,4319.871582,4339.102539,4315.512695,4270.384766,4522.692383,4562.436035,4290.384766,4378.846191,0.000000,1.000000,25.000000,,,,0.000000,4.000000,4.000000,4.000000,4.000000,4.000000,4.000000,4.000000,4.000000,4.000000,4.000000,4.000000,4.000000,4.000000,4.000000,100.000000,,,,,,,,,,,,,,,,,,,,,,,,,,,,,,,,,,,,,,,,,,,,,,,,,,,,,,,,,,,,,,,,,,,,,,,,,,,,,,,,,,,,,,,,,,,,,,,,,,,,,,,,,,,,,,,,,,,,,
1768374991.657179,1768374991.657825,28.000000,0.000000,4297.692383,4249.871582,4339.358887,4326.666504,4246.922852,4310.641113,4315.641113,4334.487305,4314.230957,4271.922852,4519.871582,4558.717773,4289.102539,4378.717773,0.000000,1.000000,25.000000,,,,0.000000,4.000000,4.000000,4.000000,4.000000,4.000000,4.000000,4.000000,4.000000,4.000000,4.000000,4.000000,4.000000,4.000000,4.000000,100.000000,,,,,,,,,,,,,,,,,,,,,,,,,,,,,,,,,,,,,,,,,,,,,,,,,,,,,,,,,,,,,,,,,,,,,,,,,,,,,,,,,,,,,,,,,,,,,,,,,,,,,,,,,,,,,,,,,,,,,
1768374991.664987,1768374991.665633,29.000000,0.000000,4294.871582,4248.077148,4337.692383,4322.563965,4254.102539,4314.743652,4313.461426,4330.641113,4312.820313,4270.128418,4524.487305,4564.487305,4293.077148,4381.025879,0.000000,1.000000,25.000000,,,,0.000000,4.000000,4.000000,4.000000,4.000000,4.000000,4.000000,4.000000,4.000000,4.000000,4.000000,4.000000,4.000000,4.000000,4.000000,100.000000,,,,,,,,,,,,,,,,,,,,,,,,,,,,,,,,,,,,,,,,,,,,,,,,,,,,,,,,,,,,,,,,,,,,,,,,,,,,,,,,,,,,,,,,,,,,,,,,,,,,,,,,,,,,,,,,,,,,,
1768374991.672796,1768374991.673342,30.000000,0.000000,4294.102539,4246.410156,4340.128418,4323.717773,4254.487305,4316.410156,4316.153809,4334.487305,4313.974121,4266.794922,4524.102539,4569.358887,4292.563965,4384.487305,0.000000,1.000000,25.000000,,,,0.000000,4.000000,4.000000,4.000000,4.000000,4.000000,4.000000,4.000000,4.000000,4.000000,4.000000,4.000000,4.000000,4.000000,4.000000,100.000000,,,,,,,,,,,,,,,,,,,,,,,,,,,,,,,,,,,,,,,,,,,,,,,,0.895499,0.281004,0.153404,0.138547,0.141193,0.704167,0.139524,0.102104,0.102030,0.091089,0.896300,0.219960,0.088693,0.137916,0.068495,0.551793,0.145811,0.082821,0.074407,0.089388,0.126228,0.058344,0.079141,0.084548,0.079426,0.318892,0.066758,0.062990,0.073059,0.091335,0.496055,0.088762,0.121025,0.108523,0.099372,0.289489,0.139196,0.084399,0.101435,0.066447,0.352969,0.140954,0.103414,0.168959,0.103667,0.460543,0.348126,0.131696,0.165878,0.072935,1.892964,0.720358,0.592085,0.265921,0.195698,1.136167,0.312667,0.514661,0.384831,0.156190,0.455399,0.710940,0.350795,0.230568,0.150794,1.487373,0.492633,0.571915,0.318133,0.243668
1768374991.680604,1768374991.681150,31.000000,0.000000,4300.641113,4253.461426,4339.358887,4329.102539,4256.025879,4314.230957,4314.230957,4338.077148,4313.717773,4268.461426,4523.461426,4565.897461,4285.641113,4382.948730,0.000000,1.000000,25.000000,,,,0.000000,4.000000,4.000000,4.000000,4.000000,4.000000,4.000000,4.000000,4.000000,4.000000,4.000000,4.000000,4.000000,4.000000,4.000000,100.000000,,,,,,,,,,,,,,,,,,,,,,,,,,,,,,,,,,,,,,,,,,,,,,,,,,,,,,,,,,,,,,,,,,,,,,,,,,,,,,,,,,,,,,,,,,,,,,,,,,,,,,,,,,,,,,,,,,,,,
1768374991.688413,1768374991.689059,32.000000,0.000000,4300.641113,4260.769043,4334.615234,4331.538574,4259.743652,4313.974121,4312.948730,4333.589844,4312.436035,4269.871582,4524.230957,4559.743652,4280.897461,4380.256348,0.000000,1.000000,25.000000,,,,0.000000,4.000000,4.000000,4.000000,4.000000,4.000000,4.000000,4.000000,4.000000,4.000000,4.000000,4.000000,4.000000,4.000000,4.000000,100.000000,,,,,,,,,,,,,,,,,,,,,,,,,,,,,,,,,,,,,,,,,,,,,,,,,,,,,,,,,,,,,,,,,,,,,,,,,,,,,,,,,,,,,,,,,,,,,,,,,,,,,,,,,,,,,,,,,,,,,
1768374991.696221,1768374991.696867,33.000000,0.000000,4293.974121,4261.410156,4333.461426,4328.461426,4254.743652,4315.384766,4316.538574,4331.410156,4313.589844,4268.589844,4521.794922,4561.282227,4282.692383,4383.717773,0.000000,1.000000,25.000000,,,,0.000000,4.000000,4.000000,4.000000,4.000000,4.000000,4.000000,4.000000,4.000000,4.000000,4.000000,4.000000,4.000000,4.000000,4.000000,100.000000,,,,,,,,,,,,,,,,,,,,,,,,,,,,,,,,,,,,,,,,,,,,,,,,,,,,,,,,,,,,,,,,,,,,,,,,,,,,,,,,,,,,,,,,,,,,,,,,,,,,,,,,,,,,,,,,,,,,,
1768374991.704029,1768374991.704576,34.000000,0.000000,4301.922852,4260.384766,4336.922852,4326.153809,4253.974121,4314.358887,4318.077148,4335.384766,4310.897461,4268.205078,4521.666504,4564.615234,4282.692383,4386.666504,0.000000,1.000000,25.000000,,,,0.000000,4.000000,4.000000,4.000000,4.000000,4.000000,4.000000,4.000000,4.000000,4.000000,4.000000,4.000000,4.000000,4.000000,4.000000,100.000000,,,,,,,,,,,,,,,,,,,,,,,,,,,,,,,,,,,,,,,,,,,,,,,,,,,,,,,,,,,,,,,,,,,,,,,,,,,,,,,,,,,,,,,,,,,,,,,,,,,,,,,,,,,,,,,,,,,,,
1768374991.711838,1768374991.712384,35.000000,0.000000,4312.692383,4261.794922,4342.948730,4330.512695,4258.717773,4312.820313,4314.615234,4334.743652,4308.461426,4268.974121,4525.000000,4565.256348,4284.358887,4387.051270,0.000000,1.000000,25.000000,,,,0.000000,4.000000,4.000000,4.000000,4.000000,4.000000,4.000000,4.000000,4.000000,4.000000,4.000000,4.000000,4.000000,4.000000,4.000000,100.000000,,,,,,,,,,,,,,,,,,,,,,,,,,,,,,,,,,,,,,,,,,,,,,,,,,,,,,,,,,,,,,,,,,,,,,,,,,,,,,,,,,,,,,,,,,,,,,,,,,,,,,,,,,,,,,,,,,,,,
1768374991.719646,1768374991.719993,36.000000,0.000000,4304.102539,4263.717773,4342.051270,4330.641113,4258.077148,4309.743652,4310.384766,4329.871582,4312.436035,4268.717773,4523.846191,4566.025879,4291.153809,4389.487305,0.000000,1.000000,25.000000,,,,0.000000,4.000000,4.000000,4.000000,4.000000,4.000000,4.000000,4.000000,4.000000,4.000000,4.000000,4.000000,4.000000,4.000000,4.000000,100.000000,,,,,,,,,,,,,,,,,,,,,,,,,,,,,,,,,,,,,,,,,,,,,,,,,,,,,,,,,,,,,,,,,,,,,,,,,,,,,,,,,,,,,,,,,,,,,,,,,,,,,,,,,,,,,,,,,,,,,
1768374991.727455,1768374991.727801,37.000000,0.000000,4293.333496,4262.051270,4330.256348,4324.230957,4253.205078,4308.205078,4308.589844,4331.153809,4311.666504,4270.641113,4522.948730,4566.282227,4293.717773,4389.230957,0.000000,1.000000,25.000000,,,,0.000000,4.000000,4.000000,4.000000,4.000000,4.000000,4.000000,4.000000,4.000000,4.000000,4.000000,4.000000,4.000000,4.000000,4.000000,100.000000,,,,,,,,,,,,,,,,,,,,,,,,,,,,,,,,,,,,,,,,,,,,,,,,,,,,,,,,,,,,,,,,,,,,,,,,,,,,,,,,,,,,,,,,,,,,,,,,,,,,,,,,,,,,,,,,,,,,,
1768374991.735263,1768374991.735510,38.000000,0.000000,4296.666504,4262.436035,4322.820313,4323.461426,4254.487305,4310.897461,4310.000000,4334.615234,4310.512695,4277.179688,4532.179688,4567.563965,4293.205078,4388.717773,0.000000,1.000000,25.000000,,,,0.000000,4.000000,4.000000,4.000000,4.000000,4.000000,4.000000,4.000000,4.000000,4.000000,4.000000,4.000000,4.000000,4.000000,4.000000,100.000000,,,,,,,,,,,,,,,,,,,,,,,,,,,,,,,,,,,,,,,,,,,,,,,,,,,,,,,,,,,,,,,,,,,,,,,,,,,,,,,,,,,,,,,,,,,,,,,,,,,,,,,,,,,,,,,,,,,,,
1768374991.743072,1768374991.743318,39.000000,0.000000,4303.974121,4268.077148,4333.974121,4329.102539,4257.692383,4311.153809,4313.461426,4335.897461,4318.846191,4279.230957,4541.538574,4573.717773,4295.384766,4394.615234,0.000000,1.000000,25.000000,,,,0.000000,4.000000,4.000000,4.000000,4.000000,4.000000,4.000000,4.000000,4.000000,4.000000,4.000000,4.000000,4.000000,4.000000,4.000000,100.000000,,,,,,,,,,,,,,,,,,,,,,,,,,,,,,,,,,,,,,,,,,,,,,,,,,,,,,,,,,,,,,,,,,,,,,,,,,,,,,,,,,,,,,,,,,,,,,,,,,,,,,,,,,,,,,,,,,,,,
1768374991.750880,1768374991.751326,40.000000,0.000000,4306.153809,4267.051270,4344.871582,4328.461426,4257.563965,4310.256348,4316.666504,4338.717773,4322.051270,4280.000000,4540.641113,4579.487305,4297.179688,4398.461426,0.000000,1.000000,25.000000,,,,0.000000,4.000000,4.000000,4.000000,4.000000,4.000000,4.000000,4.000000,4.000000,4.000000,4.000000,4.000000,4.000000,4.000000,4.000000,100.000000,,,,,,,,,,,,,,,,,,,,,,,,,,,,,,,,,,,,,,,,,,,,,,,,,,,,,,,,,,,,,,,,,,,,,,,,,,,,,,,,,,,,,,,,,,,,,,,,,,,,,,,,,,,,,,,,,,,,,
1768374991.758689,1768374991.759135,41.000000,0.000000,4307.436035,4264.102539,4340.641113,4328.589844,4259.487305,4311.538574,4317.563965,4338.077148,4316.282227,4281.025879,4537.692383,4576.922852,4295.897461,4396.282227,0.000000,1.000000,25.000000,,,,0.000000,4.000000,4.000000,4.000000,4.000000,4.000000,4.000000,4.000000,4.000000,4.000000,4.000000,4.000000,4.000000,4.000000,4.000000,100.000000,,,,,,,,,,,,,,,,,,,,,,,,,,,,,,,,,,,,,,,,,,,,,,,,,,,,,,,,,,,,,,,,,,,,,,,,,,,,,,,,,,,,,,,,,,,,,,,,,,,,,,,,,,,,,,,,,,,,,
1768374991.766497,1768374991.767043,42.000000,0.000000,4311.794922,4270.641113,4336.282227,4334.358887,4260.897461,4309.871582,4312.307617,4330.769043,4312.051270,4279.102539,4538.461426,4568.461426,4293.205078,4395.000000,0.000000,1.000000,25.000000,,,,0.000000,4.000000,4.000000,4.000000,4.000000,4.000000,4.000000,4.000000,4.000000,4.000000,4.000000,4.000000,4.000000,4.000000,4.000000,100.000000,,,,,,,,,,,,,,,,,,,,,,,,,,,,,,,,,,,,,,,,,,,,,,,,,,,,,,,,,,,,,,,,,,,,,,,,,,,,,,,,,,,,,,,,,,,,,,,,,,,,,,,,,,,,,,,,,,,,,
1768374991.774305,1768374991.774852,43.000000,0.000000,4312.179688,4271.666504,4335.769043,4332.051270,4255.769043,4306.410156,4309.871582,4328.205078,4312.051270,4279.487305,4538.461426,4563.461426,4294.358887,4398.333496,0.000000,1.000000,25.000000,,,,0.000000,4.000000,4.000000,4.000000,4.000000,4.000000,4.000000,4.000000,4.000000,4.000000,4.000000,4.000000,4.000000,4.000000,4.000000,100.000000,,,,,,,,,,,,,,,,,,,,,,,,,,,,,,,,,,,,,,,,,,,,,,,,,,,,,,,,,,,,,,,,,,,,,,,,,,,,,,,,,,,,,,,,,,,,,,,,,,,,,,,,,,,,,,,,,,,,,
1768374991.782114,1768374991.782460,44.000000,0.000000,4311.025879,4265.000000,4333.461426,4327.436035,4253.846191,4306.538574,4313.205078,4333.077148,4315.256348,4283.077148,4538.205078,4567.563965,4300.897461,4405.897461,0.000000,1.000000,25.000000,,,,0.000000,4.000000,4.000000,4.000000,4.000000,4.000000,4.000000,4.000000,4.000000,4.000000,4.000000,4.000000,4.000000,4.000000,4.000000,100.000000,,,,,,,,,,,,,,,,,,,,,,,,,,,,,,,,,,,,,,,,,,,,,,,,,,,,,,,,,,,,,,,,,,,,,,,,,,,,,,,,,,,,,,,,,,,,,,,,,,,,,,,,,,,,,,,,,,,,,
1768374991.789922,1768374991.790269,45.000000,0.000000,4317.179688,4266.282227,4336.538574,4328.974121,4259.230957,4308.461426,4311.922852,4332.820313,4316.282227,4284.871582,4540.256348,4577.948730,4309.487305,4412.948730,0.000000,1.000000,25.000000,,,,0.000000,4.000000,4.000000,4.000000,4.000000,4.000000,4.000000,4.000000,4.000000,4.000000,4.000000,4.000000,4.000000,4.000000,4.000000,100.000000,,,,,,,,,,,,,,,,,,,,,,,,,,,,,,,,,,,,,,,,,,,,,,,,,,,,,,,,,,,,,,,,,,,,,,,,,,,,,,,,,,,,,,,,,,,,,,,,,,,,,,,,,,,,,,,,,,,,,
1768374991.797731,1768374991.797977,46.000000,0.000000,4320.512695,4269.743652,4342.179688,4331.282227,4258.589844,4309.871582,4311.025879,4329.230957,4314.743652,4282.820313,4541.153809,4581.794922,4311.538574,4413.077148,0.000000,1.000000,25.000000,,,,0.000000,4.000000,4.000000,4.000000,4.000000,4.000000,4.000000,4.000000,4.000000,4.000000,4.000000,4.000000,4.000000,4.000000,4.000000,100.000000,,,,,,,,,,,,,,,,,,,,,,,,,,,,,,,,,,,,,,,,,,,,,,,,1.085340,0.228581,0.149775,0.142258,0.136822,0.784849,0.132217,0.115019,0.098325,0.079389,0.850001,0.155354,0.095605,0.113155,0.064983,0.607481,0.126413,0.078484,0.070448,0.078671,0.107859,0.049987,0.110716,0.073441,0.080556,0.333840,0.069177,0.055182,0.074610,0.106250,0.580339,0.110001,0.108584,0.095189,0.114611,0.287884,0.122042,0.073108,0.099470,0.066884,0.376733,0.108408,0.124951,0.161693,0.107619,0.506525,0.338238,0.142033,0.166472,0.072477,1.652029,0.658002,0.590721,0.245882,0.177666,0.996563,0.301964,0.614941,0.391630,0.156445,0.432774,0.603407,0.436980,0.221682,0.125412,1.575515,0.523199,0.591570,0.290739,0.231657
1768374991.805539,1768374991.805786,47.000000,0.000000,4317.051270,4267.051270,4341.153809,4331.666504,4256.410156,4310.512695,4314.487305,4331.025879,4315.512695,4280.769043,4541.666504,4578.461426,4308.846191,4411.538574,0.000000,1.000000,25.000000,,,,0.000000,4.000000,4.000000,4.000000,4.000000,4.000000,4.000000,4.000000,4.000000,4.000000,4.000000,4.000000,4.000000,4.000000,4.000000,100.000000,,,,,,,,,,,,,,,,,,,,,,,,,,,,,,,,,,,,,,,,,,,,,,,,,,,,,,,,,,,,,,,,,,,,,,,,,,,,,,,,,,,,,,,,,,,,,,,,,,,,,,,,,,,,,,,,,,,,,
1768374991.813348,1768374991.813794,48.000000,0.000000,4316.666504,4266.922852,4341.025879,4332.051270,4261.794922,4311.282227,4316.282227,4333.846191,4316.538574,4281.025879,4541.153809,4576.794922,4309.102539,4411.538574,0.000000,1.000000,25.000000,,,,0.000000,4.000000,4.000000,4.000000,4.000000,4.000000,4.000000,4.000000,4.000000,4.000000,4.000000,4.000000,4.000000,4.000000,4.000000,100.000000,,,,,,,,,,,,,,,,,,,,,,,,,,,,,,,,,,,,,,,,,,,,,,,,,,,,,,,,,,,,,,,,,,,,,,,,,,,,,,,,,,,,,,,,,,,,,,,,,,,,,,,,,,,,,,,,,,,,,
1768374991.821156,1768374991.821602,49.000000,0.000000,4318.846191,4273.846191,4344.230957,4334.102539,4262.179688,4311.922852,4316.410156,4335.512695,4315.000000,4280.897461,4538.461426,4578.589844,4310.000000,4410.769043,0.000000,1.000000,25.000000,,,,0.000000,4.000000,4.000000,4.000000,4.000000,4.000000,4.000000,4.000000,4.000000,4.000000,4.000000,4.000000,4.000000,4.000000,4.000000,100.000000,,,,,,,,,,,,,,,,,,,,,,,,,,,,,,,,,,,,,,,,,,,,,,,,,,,,,,,,,,,,,,,,,,,,,,,,,,,,,,,,,,,,,,,,,,,,,,,,,,,,,,,,,,,,,,,,,,,,,
1768374991.828964,1768374991.829511,50.000000,0.000000,4320.384766,4276.666504,4341.025879,4335.256348,4261.282227,4310.897461,4314.871582,4336.666504,4316.538574,4280.769043,4543.717773,4580.641113,4309.487305,4412.948730,0.000000,1.000000,25.000000,,,,0.000000,4.000000,4.000000,4.000000,4.000000,4.000000,4.000000,4.000000,4.000000,4.000000,4.000000,4.000000,4.000000,4.000000,4.000000,100.000000,,,,,,,,,,,,,,,,,,,,,,,,,,,,,,,,,,,,,,,,,,,,,,,,,,,,,,,,,,,,,,,,,,,,,,,,,,,,,,,,,,,,,,,,,,,,,,,,,,,,,,,,,,,,,,,,,,,,,
1768374991.836773,1768374991.837319,51.000000,0.000000,4323.077148,4273.846191,4338.846191,4334.487305,4265.384766,4309.102539,4312.563965,4335.000000,4317.307617,4281.922852,4552.563965,4582.436035,4312.307617,4418.205078,0.000000,1.000000,25.000000,,,,0.000000,4.000000,4.000000,4.000000,4.000000,4.000000,4.000000,4.000000,4.000000,4.000000,4.000000,4.000000,4.000000,4.000000,4.000000,100.000000,,,,,,,,,,,,,,,,,,,,,,,,,,,,,,,,,,,,,,,,,,,,,,,,,,,,,,,,,,,,,,,,,,,,,,,,,,,,,,,,,,,,,,,,,,,,,,,,,,,,,,,,,,,,,,,,,,,,,
1768374991.844581,1768374991.845327,52.000000,0.000000,4321.282227,4270.000000,4341.794922,4330.512695,4264.102539,4308.077148,4310.769043,4331.025879,4310.512695,4279.487305,4547.436035,4580.769043,4314.230957,4417.051270,0.000000,1.000000,25.000000,,,,0.000000,4.000000,4.000000,4.000000,4.000000,4.000000,4.000000,4.000000,4.000000,4.000000,4.000000,4.000000,4.000000,4.000000,4.000000,100.000000,,,,,,,,,,,,,,,,,,,,,,,,,,,,,,,,,,,,,,,,,,,,,,,,,,,,,,,,,,,,,,,,,,,,,,,,,,,,,,,,,,,,,,,,,,,,,,,,,,,,,,,,,,,,,,,,,,,,,
1768374991.852390,1768374991.853136,53.000000,0.000000,4313.077148,4265.384766,4337.692383,4326.922852,4258.589844,4307.820313,4311.153809,4334.487305,4308.717773,4276.794922,4536.410156,4574.871582,4308.846191,4410.384766,0.000000,1.000000,25.000000,,,,0.000000,4.000000,4.000000,4.000000,4.000000,4.000000,4.000000,4.000000,4.000000,4.000000,4.000000,4.000000,4.000000,4.000000,4.000000,100.000000,,,,,,,,,,,,,,,,,,,,,,,,,,,,,,,,,,,,,,,,,,,,,,,,,,,,,,,,,,,,,,,,,,,,,,,,,,,,,,,,,,,,,,,,,,,,,,,,,,,,,,,,,,,,,,,,,,,,,
1768374991.860198,1768374991.861044,54.000000,0.000000,4309.871582,4262.436035,4327.563965,4327.307617,4259.102539,4309.743652,4313.717773,4340.641113,4311.538574,4278.333496,4535.769043,4572.692383,4304.487305,4407.436035,0.000000,1.000000,25.000000,,,,0.000000,4.000000,4.000000,4.000000,4.000000,4.000000,4.000000,4.000000,4.000000,4.000000,4.000000,4.000000,4.000000,4.000000,4.000000,100.000000,,,,,,,,,,,,,,,,,,,,,,,,,,,,,,,,,,,,,,,,,,,,,,,,,,,,,,,,,,,,,,,,,,,,,,,,,,,,,,,,,,,,,,,,,,,,,,,,,,,,,,,,,,,,,,,,,,,,,
1768374991.868007,1768374991.868853,55.000000,0.000000,4316.282227,4263.077148,4323.974121,4329.487305,4261.025879,4310.897461,4312.820313,4333.205078,4310.256348,4279.615234,4538.589844,4575.256348,4306.794922,4410.769043,0.000000,1.000000,25.000000,,,,0.000000,4.000000,4.000000,4.000000,4.000000,4.000000,4.000000,4.000000,4.000000,4.000000,4.000000,4.000000,4.000000,4.000000,4.000000,100.000000,,,,,,,,,,,,,,,,,,,,,,,,,,,,,,,,,,,,,,,,,,,,,,,,,,,,,,,,,,,,,,,,,,,,,,,,,,,,,,,,,,,,,,,,,,,,,,,,,,,,,,,,,,,,,,,,,,,,,
1768374991.875815,1768374991.876461,56.000000,0.000000,4321.282227,4260.128418,4327.820313,4327.307617,4256.794922,4307.051270,4309.102539,4324.230957,4306.153809,4276.922852,4536.666504,4575.256348,4306.922852,4413.717773,0.000000,1.000000,25.000000,,,,0.000000,4.000000,4.000000,4.000000,4.000000,4.000000,4.000000,4.000000,4.000000,4.000000,4.000000,4.000000,4.000000,4.000000,4.000000,100.000000,,,,,,,,,,,,,,,,,,,,,,,,,,,,,,,,,,,,,,,,,,,,,,,,,,,,,,,,,,,,,,,,,,,,,,,,,,,,,,,,,,,,,,,,,,,,,,,,,,,,,,,,,,,,,,,,,,,,,
1768374991.883623,1768374991.884270,57.000000,0.000000,4318.846191,4254.358887,4333.333496,4323.717773,4255.000000,4305.897461,4311.922852,4330.256348,4307.563965,4276.666504,4534.487305,4574.487305,4305.641113,4412.307617,0.000000,1.000000,25.000000,,,,0.000000,4.000000,4.000000,4.000000,4.000000,4.000000,4.000000,4.000000,4.000000,4.000000,4.000000,4.000000,4.000000,4.000000,4.000000,100.000000,,,,,,,,,,,,,,,,,,,,,,,,,,,,,,,,,,,,,,,,,,,,,,,,,,,,,,,,,,,,,,,,,,,,,,,,,,,,,,,,,,,,,,,,,,,,,,,,,,,,,,,,,,,,,,,,,,,,,
1768374991.891432,1768374991.891978,58.000000,0.000000,4319.743652,4259.871582,4339.615234,4326.282227,4262.179688,4310.897461,4319.615234,4337.692383,4315.384766,4284.615234,4539.230957,4578.846191,4308.717773,4413.589844,0.000000,1.000000,25.000000,,,,0.000000,4.000000,4.000000,4.000000,4.000000,4.000000,4.000000,4.000000,4.000000,4.000000,4.000000,4.000000,4.000000,4.000000,4.000000,100.000000,,,,,,,,,,,,,,,,,,,,,,,,,,,,,,,,,,,,,,,,,,,,,,,,,,,,,,,,,,,,,,,,,,,,,,,,,,,,,,,,,,,,,,,,,,,,,,,,,,,,,,,,,,,,,,,,,,,,,
1768374991.899240,1768374991.899787,59.000000,0.000000,4322.820313,4266.922852,4342.051270,4329.871582,4264.230957,4311.538574,4315.897461,4333.717773,4321.794922,4293.589844,4549.358887,4583.589844,4315.897461,4421.794922,0.000000,1.000000,25.000000,,,,0.000000,4.000000,4.000000,4.000000,4.000000,4.000000,4.000000,4.000000,4.000000,4.000000,4.000000,4.000000,4.000000,4.000000,4.000000,100.000000,,,,,,,,,,,,,,,,,,,,,,,,,,,,,,,,,,,,,,,,,,,,,,,,,,,,,,,,,,,,,,,,,,,,,,,,,,,,,,,,,,,,,,,,,,,,,,,,,,,,,,,,,,,,,,,,,,,,,
1768374991.907049,1768374991.907395,60.000000,0.000000,4322.948730,4262.307617,4340.641113,4330.641113,4261.410156,4308.077148,4308.461426,4330.384766,4324.102539,4296.410156,4555.897461,4584.743652,4322.692383,4428.589844,0.000000,1.000000,25.000000,,,,0.000000,4.000000,4.000000,4.000000,4.000000,4.000000,4.000000,4.000000,4.000000,4.000000,4.000000,4.000000,4.000000,4.000000,4.000000,100.000000,,,,,,,,,,,,,,,,,,,,,,,,,,,,,,,,,,,,,,,,,,,,,,,,,,,,,,,,,,,,,,,,,,,,,,,,,,,,,,,,,,,,,,,,,,,,,,,,,,,,,,,,,,,,,,,,,,,,,
1768374991.914857,1768374991.915204,61.000000,0.000000,4325.641113,4263.589844,4343.333496,4331.282227,4265.256348,4307.692383,4311.410156,4333.846191,4321.666504,4292.948730,4553.461426,4586.666504,4322.179688,4428.589844,0.000000,1.000000,25.000000,,,,0.000000,4.000000,4.000000,4.000000,4.000000,4.000000,4.000000,4.000000,4.000000,4.000000,4.000000,4.000000,4.000000,4.000000,4.000000,100.000000,,,,,,,,,,,,,,,,,,,,,,,,,,,,,,,,,,,,,,,,,,,,,,,,,,,,,,,,,,,,,,,,,,,,,,,,,,,,,,,,,,,,,,,,,,,,,,,,,,,,,,,,,,,,,,,,,,,,,
1768374991.922666,1768374991.922912,62.000000,0.000000,4328.461426,4270.000000,4344.102539,4328.717773,4265.256348,4306.538574,4311.282227,4334.358887,4320.256348,4291.794922,4546.153809,4584.487305,4316.794922,4427.436035,0.000000,1.000000,25.000000,,,,0.000000,4.000000,4.000000,4.000000,4.000000,4.000000,4.000000,4.000000,4.000000,4.000000,4.000000,4.000000,4.000000,4.000000,4.000000,100.000000,,,,,,,,,,,,,,,,,,,,,,,,,,,,,,,,,,,,,,,,,,,,,,,,1.322674,0.188609,0.139911,0.145618,0.137751,0.892607,0.124733,0.126282,0.095933,0.070696,0.829680,0.100274,0.108831,0.098104,0.063098,0.714182,0.110819,0.076550,0.069342,0.070351,0.111387,0.056034,0.146652,0.060483,0.083538,0.356643,0.079718,0.055067,0.078445,0.124335,0.697284,0.136167,0.106962,0.085505,0.124038,0.312813,0.121689,0.071355,0.096579,0.070055,0.391467,0.087078,0.158342,0.146816,0.116762,0.552004,0.322165,0.157011,0.165503,0.077147,1.331084,0.560319,0.571709,0.237206,0.155413,0.876895,0.297282,0.662332,0.383120,0.153905,0.440750,0.527806,0.515100,0.218129,0.112012,1.722456,0.554928,0.578707,0.260162,0.217703
1768374991.930474,1768374991.930721,63.000000,0.000000,4323.205078,4268.846191,4334.487305,4325.256348,4259.487305,4298.974121,4304.743652,4330.512695,4319.871582,4289.743652,4539.871582,4575.897461,4313.461426,4425.128418,0.000000,1.000000,25.000000,,,,0.000000,4.000000,4.000000,4.000000,4.000000,4.000000,4.000000,4.000000,4.000000,4.000000,4.000000,4.000000,4.000000,4.000000,4.000000,100.000000,,,,,,,,,,,,,,,,,,,,,,,,,,,,,,,,,,,,,,,,,,,,,,,,,,,,,,,,,,,,,,,,,,,,,,,,,,,,,,,,,,,,,,,,,,,,,,,,,,,,,,,,,,,,,,,,,,,,,
1768374991.938283,1768374991.938729,64.000000,0.000000,4316.666504,4263.717773,4327.820313,4325.256348,4260.897461,4296.410156,4306.410156,4330.256348,4316.153809,4284.102539,4539.230957,4573.461426,4312.051270,4422.692383,4056.000000,1.000000,25.000000,,,,0.000000,4.000000,4.000000,4.000000,4.000000,4.000000,4.000000,4.000000,4.000000,4.000000,4.000000,4.000000,4.000000,4.000000,4.000000,100.000000,,,,,,,,,,,,,,,,,,,,,,,,,,,,,,,,,,,,,,,,,,,,,,,,,,,,,,,,,,,,,,,,,,,,,,,,,,,,,,,,,,,,,,,,,,,,,,,,,,,,,,,,,,,,,,,,,,,,,
1768374991.946091,1768374991.946538,65.000000,0.000000,4316.794922,4263.846191,4335.512695,4327.563965,4264.615234,4305.512695,4312.820313,4334.230957,4315.384766,4283.717773,4539.615234,4577.563965,4308.974121,4425.000000,4004.000000,1.000000,25.000000,,,,0.000000,4.000000,4.000000,4.000000,4.000000,4.000000,4.000000,4.000000,4.000000,4.000000,4.000000,4.000000,4.000000,4.000000,4.000000,100.000000,,,,,,,,,,,,,,,,,,,,,,,,,,,,,,,,,,,,,,,,,,,,,,,,,,,,,,,,,,,,,,,,,,,,,,,,,,,,,,,,,,,,,,,,,,,,,,,,,,,,,,,,,,,,,,,,,,,,,
1768374991.953900,1768374991.954446,66.000000,0.000000,4319.615234,4267.692383,4343.974121,4330.641113,4263.461426,4311.282227,4314.871582,4336.282227,4316.410156,4283.717773,4537.307617,4577.820313,4310.256348,4428.974121,3896.000000,1.000000,25.000000,,,,0.000000,4.000000,4.000000,4.000000,4.000000,4.000000,4.000000,4.000000,4.000000,4.000000,4.000000,4.000000,4.000000,4.000000,4.000000,100.000000,,,,,,,,,,,,,,,,,,,,,,,,,,,,,,,,,,,,,,,,,,,,,,,,,,,,,,,,,,,,,,,,,,,,,,,,,,,,,,,,,,,,,,,,,,,,,,,,,,,,,,,,,,,,,,,,,,,,,
1768374991.961708,1768374991.962254,67.000000,0.000000,4321.410156,4266.153809,4336.922852,4328.461426,4260.512695,4306.794922,4312.948730,4331.538574,4313.205078,4280.128418,4537.948730,4573.974121,4315.769043,4429.487305,3911.000000,1.000000,25.000000,,,,0.000000,4.000000,4.000000,4.000000,4.000000,4.000000,4.000000,4.000000,4.000000,4.000000,4.000000,4.000000,4.000000,4.000000,4.000000,100.000000,,,,,,,,,,,,,,,,,,,,,,,,,,,,,,,,,,,,,,,,,,,,,,,,,,,,,,,,,,,,,,,,,,,,,,,,,,,,,,,,,,,,,,,,,,,,,,,,,,,,,,,,,,,,,,,,,,,,,
1768374991.969516,1768374991.970263,68.000000,0.000000,4320.128418,4262.179688,4327.307617,4323.846191,4262.820313,4305.641113,4311.666504,4331.025879,4312.692383,4283.846191,4541.666504,4575.128418,4317.820313,4429.615234,3844.000000,1.000000,25.000000,,,,0.000000,4.000000,4.000000,4.000000,4.000000,4.000000,4.000000,4.000000,4.000000,4.000000,4.000000,4.000000,4.000000,4.000000,4.000000,100.000000,,,,,,,,,,,,,,,,,,,,,,,,,,,,,,,,,,,,,,,,,,,,,,,,,,,,,,,,,,,,,,,,,,,,,,,,,,,,,,,,,,,,,,,,,,,,,,,,,,,,,,,,,,,,,,,,,,,,,
1768374991.977325,1768374991.978071,69.000000,0.000000,4319.743652,4263.717773,4331.153809,4325.897461,4265.128418,4312.179688,4312.820313,4338.717773,4321.666504,4295.000000,4542.051270,4577.051270,4318.974121,4431.794922,3749.000000,1.000000,25.000000,,,,0.000000,4.000000,4.000000,4.000000,4.000000,4.000000,4.000000,4.000000,4.000000,4.000000,4.000000,4.000000,4.000000,4.000000,4.000000,100.000000,,,,,,,,,,,,,,,,,,,,,,,,,,,,,,,,,,,,,,,,,,,,,,,,,,,,,,,,,,,,,,,,,,,,,,,,,,,,,,,,,,,,,,,,,,,,,,,,,,,,,,,,,,,,,,,,,,,,,
1768374991.985133,1768374991.985780,70.000000,0.000000,4321.153809,4265.384766,4334.743652,4328.077148,4263.205078,4310.641113,4312.563965,4337.179688,4324.743652,4297.436035,4540.641113,4573.333496,4321.538574,4430.512695,3780.000000,1.000000,25.000000,,,,0.000000,4.000000,4.000000,4.000000,4.000000,4.000000,4.000000,4.000000,4.000000,4.000000,4.000000,4.000000,4.000000,4.000000,4.000000,100.000000,,,,,,,,,,,,,,,,,,,,,,,,,,,,,,,,,,,,,,,,,,,,,,,,,,,,,,,,,,,,,,,,,,,,,,,,,,,,,,,,,,,,,,,,,,,,,,,,,,,,,,,,,,,,,,,,,,,,,
1768374991.992942,1768374991.993588,71.000000,0.000000,4320.897461,4261.922852,4328.077148,4324.358887,4263.333496,4302.820313,4309.743652,4331.025879,4315.384766,4289.487305,4540.897461,4570.512695,4318.846191,4426.538574,3314.000000,1.000000,25.000000,,,,0.000000,4.000000,4.000000,4.000000,4.000000,4.000000,4.000000,4.000000,4.000000,4.000000,4.000000,4.000000,4.000000,4.000000,4.000000,100.000000,,,,,,,,,,,,,,,,,,,,,,,,,,,,,,,,,,,,,,,,,,,,,,,,,,,,,,,,,,,,,,,,,,,,,,,,,,,,,,,,,,,,,,,,,,,,,,,,,,,,,,,,,,,,,,,,,,,,,
1768374992.000750,1768374992.001197,72.000000,0.000000,4319.615234,4261.666504,4323.589844,4324.230957,4263.974121,4302.692383,4310.128418,4333.205078,4311.282227,4288.974121,4542.563965,4570.384766,4315.641113,4427.179688,3982.000000,1.000000,25.000000,,,,0.000000,4.000000,4.000000,4.000000,4.000000,4.000000,4.000000,4.000000,4.000000,4.000000,4.000000,4.000000,4.000000,4.000000,4.000000,100.000000,,,,,,,,,,,,,,,,,,,,,,,,,,,,,,,,,,,,,,,,,,,,,,,,,,,,,,,,,,,,,,,,,,,,,,,,,,,,,,,,,,,,,,,,,,,,,,,,,,,,,,,,,,,,,,,,,,,,,
1768374992.008559,1768374992.009005,73.000000,0.000000,4318.205078,4263.333496,4327.948730,4325.128418,4260.512695,4302.948730,4313.205078,4336.922852,4315.128418,4291.282227,4541.666504,4568.717773,4320.000000,4430.512695,3981.000000,1.000000,25.000000,,,,0.000000,4.000000,4.000000,4.000000,4.000000,4.000000,4.000000,4.000000,4.000000,4.000000,4.000000,4.000000,4.000000,4.000000,4.000000,100.000000,,,,,,,,,,,,,,,,,,,,,,,,,,,,,,,,,,,,,,,,,,,,,,,,,,,,,,,,,,,,,,,,,,,,,,,,,,,,,,,,,,,,,,,,,,,,,,,,,,,,,,,,,,,,,,,,,,,,,
1768374992.016367,1768374992.016913,74.000000,0.000000,4315.641113,4258.077148,4329.358887,4321.410156,4258.333496,4299.615234,4311.410156,4336.794922,4315.000000,4287.179688,4536.922852,4567.051270,4321.666504,4427.563965,4402.000000,1.000000,25.000000,,,,0.000000,4.000000,4.000000,4.000000,4.000000,4.000000,4.000000,4.000000,4.000000,4.000000,4.000000,4.000000,4.000000,4.000000,4.000000,100.000000,,,,,,,,,,,,,,,,,,,,,,,,,,,,,,,,,,,,,,,,,,,,,,,,,,,,,,,,,,,,,,,,,,,,,,,,,,,,,,,,,,,,,,,,,,,,,,,,,,,,,,,,,,,,,,,,,,,,,
1768374992.024176,1768374992.024722,75.000000,0.000000,4310.256348,4256.025879,4325.897461,4319.487305,4262.179688,4301.282227,4308.077148,4338.205078,4314.102539,4286.794922,4538.077148,4566.794922,4316.538574,4426.794922,4665.000000,1.000000,25.000000,,,,0.000000,4.000000,4.000000,4.000000,4.000000,4.000000,4.000000,4.000000,4.000000,4.000000,4.000000,4.000000,4.000000,4.000000,4.000000,100.000000,,,,,,,,,,,,,,,,,,,,,,,,,,,,,,,,,,,,,,,,,,,,,,,,,,,,,,,,,,,,,,,,,,,,,,,,,,,,,,,,,,,,,,,,,,,,,,,,,,,,,,,,,,,,,,,,,,,,,
1768374992.031984,1768374992.032730,76.000000,0.000000,4308.461426,4254.102539,4325.769043,4318.974121,4262.436035,4302.436035,4308.974121,4336.153809,4317.948730,4288.589844,4539.102539,4563.333496,4313.205078,4428.333496,4948.000000,1.000000,25.000000,,,,0.000000,4.000000,4.000000,4.000000,4.000000,4.000000,4.000000,4.000000,4.000000,4.000000,4.000000,4.000000,4.000000,4.000000,4.000000,100.000000,,,,,,,,,,,,,,,,,,,,,,,,,,,,,,,,,,,,,,,,,,,,,,,,,,,,,,,,,,,,,,,,,,,,,,,,,,,,,,,,,,,,,,,,,,,,,,,,,,,,,,,,,,,,,,,,,,,,,
1768374992.039792,1768374992.040539,77.000000,0.000000,4309.615234,4251.922852,4326.282227,4317.307617,4261.025879,4300.384766,4309.743652,4328.589844,4314.615234,4282.307617,4527.436035,4556.025879,4311.025879,4420.128418,5188.000000,1.000000,25.000000,,,,0.000000,4.000000,4.000000,4.000000,4.000000,4.000000,4.000000,4.000000,4.000000,4.000000,4.000000,4.000000,4.000000,4.000000,4.000000,100.000000,,,,,,,,,,,,,,,,,,,,,,,,,,,,,,,,,,,,,,,,,,,,,,,,,,,,,,,,,,,,,,,,,,,,,,,,,,,,,,,,,,,,,,,,,,,,,,,,,,,,,,,,,,,,,,,,,,,,,
1768374992.047601,1768374992.048447,78.000000,0.000000,4309.743652,4257.948730,4329.615234,4320.641113,4265.128418,4302.563965,4310.769043,4329.615234,4309.743652,4280.384766,4523.461426,4557.563965,4312.051270,4418.077148,4402.000000,1.000000,25.000000,,,,0.000000,4.000000,4.000000,4.000000,4.000000,4.000000,4.000000,4.000000,4.000000,4.000000,4.000000,4.000000,4.000000,4.000000,4.000000,100.000000,1.000000,91.666664,4.000000,4.000000,4.000000,4.000000,4.000000,4.000000,4.000000,4.000000,4.000000,4.000000,4.000000,4.000000,3.000000,4.000000,,,,,,,,,,,,,,,,,,,,,,,,,,,,,,,,1.511524,0.174492,0.126313,0.149339,0.142116,0.878582,0.121279,0.135923,0.094517,0.067051,0.849775,0.067071,0.129219,0.095934,0.063050,0.812041,0.104870,0.085690,0.070638,0.065190,0.114200,0.077309,0.176763,0.048520,0.087355,0.390805,0.097145,0.063836,0.083818,0.141167,0.819622,0.168239,0.117755,0.082944,0.124196,0.339493,0.137207,0.083846,0.091763,0.074865,0.377179,0.077844,0.205599,0.127335,0.127277,0.595360,0.303102,0.179422,0.160375,0.084521,1.028261,0.446080,0.531848,0.226496,0.133729,0.817190,0.294914,0.648559,0.361519,0.147186,0.480613,0.494630,0.568638,0.215760,0.107020,1.819381,0.580236,0.536348,0.229614,0.199287
1768374992.055409,1768374992.056255,79.000000,0.000000,4310.384766,4261.794922,4334.615234,4327.436035,4265.769043,4303.717773,4312.692383,4337.307617,4320.512695,4291.282227,4536.794922,4569.102539,4319.102539,4429.871582,4665.000000,1.000000,25.000000,,,,0.000000,4.000000,4.000000,4.000000,4.000000,4.000000,4.000000,4.000000,4.000000,4.000000,4.000000,4.000000,4.000000,4.000000,4.000000,100.000000,,,,,,,,,,,,,,,,,,,,,,,,,,,,,,,,,,,,,,,,,,,,,,,,,,,,,,,,,,,,,,,,,,,,,,,,,,,,,,,,,,,,,,,,,,,,,,,,,,,,,,,,,,,,,,,,,,,,,
1768374992.063218,1768374992.064264,80.000000,0.000000,4312.051270,4258.205078,4332.563965,4326.538574,4261.153809,4300.000000,4311.538574,4335.512695,4325.641113,4294.743652,4541.538574,4572.307617,4322.307617,4432.307617,4948.000000,1.000000,25.000000,,,,0.000000,4.000000,4.000000,4.000000,4.000000,4.000000,4.000000,4.000000,4.000000,4.000000,4.000000,4.000000,4.000000,4.000000,4.000000,100.000000,,,,,,,,,,,,,,,,,,,,,,,,,,,,,,,,,,,,,,,,,,,,,,,,,,,,,,,,,,,,,,,,,,,,,,,,,,,,,,,,,,,,,,,,,,,,,,,,,,,,,,,,,,,,,,,,,,,,,
1768374992.071026,1768374992.072072,81.000000,0.000000,4309.358887,4252.307617,4325.641113,4315.769043,4258.846191,4297.436035,4308.974121,4327.692383,4315.256348,4286.153809,4532.948730,4562.820313,4317.179688,4424.230957,5188.000000,1.000000,25.000000,,,,0.000000,4.000000,4.000000,4.000000,4.000000,4.000000,4.000000,4.000000,4.000000,4.000000,4.000000,4.000000,4.000000,4.000000,4.000000,100.000000,,,,,,,,,,,,,,,,,,,,,,,,,,,,,,,,,,,,,,,,,,,,,,,,,,,,,,,,,,,,,,,,,,,,,,,,,,,,,,,,,,,,,,,,,,,,,,,,,,,,,,,,,,,,,,,,,,,,,
1768374992.078835,1768374992.079980,82.000000,0.000000,4310.384766,4249.615234,4327.692383,4311.410156,4261.025879,4297.179688,4310.128418,4328.077148,4310.641113,4282.563965,4531.410156,4561.794922,4311.666504,4425.641113,4402.000000,1.000000,25.000000,,,,0.000000,4.000000,4.000000,4.000000,4.000000,4.000000,4.000000,4.000000,4.000000,4.000000,4.000000,4.000000,4.000000,4.000000,4.000000,100.000000,,,,,,,,,,,,,,,,,,,,,,,,,,,,,,,,,,,,,,,,,,,,,,,,,,,,,,,,,,,,,,,,,,,,,,,,,,,,,,,,,,,,,,,,,,,,,,,,,,,,,,,,,,,,,,,,,,,,,
1768374992.086643,1768374992.087789,83.000000,0.000000,4320.128418,4253.461426,4336.282227,4317.179688,4258.974121,4298.205078,4311.153809,4329.743652,4311.410156,4280.769043,4535.384766,4565.897461,4312.179688,4430.769043,4665.000000,1.000000,25.000000,,,,0.000000,4.000000,4.000000,4.000000,4.000000,4.000000,4.000000,4.000000,4.000000,4.000000,4.000000,4.000000,4.000000,4.000000,4.000000,100.000000,,,,,,,,,,,,,,,,,,,,,,,,,,,,,,,,,,,,,,,,,,,,,,,,,,,,,,,,,,,,,,,,,,,,,,,,,,,,,,,,,,,,,,,,,,,,,,,,,,,,,,,,,,,,,,,,,,,,,
1768374992.094452,1768374992.095398,84.000000,0.000000,4321.153809,4260.000000,4335.641113,4318.205078,4254.102539,4298.717773,4307.179688,4325.512695,4310.769043,4280.384766,4537.051270,4562.820313,4319.615234,4430.128418,4948.000000,1.000000,25.000000,,,,0.000000,4.000000,4.000000,4.000000,4.000000,4.000000,4.000000,4.000000,4.000000,4.000000,4.000000,4.000000,4.000000,4.000000,4.000000,100.000000,,,,,,,,,,,,,,,,,,,,,,,,,,,,,,,,,,,,,,,,,,,,,,,,,,,,,,,,,,,,,,,,,,,,,,,,,,,,,,,,,,,,,,,,,,,,,,,,,,,,,,,,,,,,,,,,,,,,,
1768374992.102260,1768374992.103206,85.000000,0.000000,4312.692383,4259.487305,4327.692383,4313.846191,4255.384766,4294.230957,4304.230957,4327.179688,4311.666504,4283.974121,4533.846191,4561.153809,4321.794922,4430.897461,5188.000000,1.000000,25.000000,,,,0.000000,4.000000,4.000000,4.000000,4.000000,4.000000,4.000000,4.000000,4.000000,4.000000,4.000000,4.000000,4.000000,4.000000,4.000000,100.000000,,,,,,,,,,,,,,,,,,,,,,,,,,,,,,,,,,,,,,,,,,,,,,,,,,,,,,,,,,,,,,,,,,,,,,,,,,,,,,,,,,,,,,,,,,,,,,,,,,,,,,,,,,,,,,,,,,,,,
1768374992.110068,1768374992.111114,86.000000,0.000000,4310.512695,4257.820313,4324.743652,4318.589844,4261.538574,4292.948730,4306.538574,4330.769043,4309.615234,4283.589844,4523.589844,4560.641113,4311.025879,4428.077148,4402.000000,1.000000,25.000000,,,,0.000000,4.000000,4.000000,4.000000,4.000000,4.000000,4.000000,4.000000,4.000000,4.000000,4.000000,4.000000,4.000000,4.000000,4.000000,100.000000,,,,,,,,,,,,,,,,,,,,,,,,,,,,,,,,,,,,,,,,,,,,,,,,,,,,,,,,,,,,,,,,,,,,,,,,,,,,,,,,,,,,,,,,,,,,,,,,,,,,,,,,,,,,,,,,,,,,,
1768374992.117877,1768374992.118923,87.000000,0.000000,4313.333496,4263.205078,4332.563965,4323.974121,4264.615234,4296.025879,4309.743652,4329.871582,4308.974121,4281.153809,4524.615234,4560.128418,4308.461426,4426.410156,4665.000000,1.000000,25.000000,,,,0.000000,4.000000,4.000000,4.000000,4.000000,4.000000,4.000000,4.000000,4.000000,4.000000,4.000000,4.000000,4.000000,4.000000,4.000000,100.000000,,,,,,,,,,,,,,,,,,,,,,,,,,,,,,,,,,,,,,,,,,,,,,,,,,,,,,,,,,,,,,,,,,,,,,,,,,,,,,,,,,,,,,,,,,,,,,,,,,,,,,,,,,,,,,,,,,,,,
1768374992.125685,1768374992.126931,88.000000,0.000000,4319.743652,4266.282227,4339.487305,4322.179688,4262.692383,4295.000000,4310.384766,4328.717773,4314.615234,4286.538574,4537.820313,4564.230957,4328.717773,4438.461426,4948.000000,1.000000,25.000000,,,,0.000000,4.000000,4.000000,4.000000,4.000000,4.000000,4.000000,4.000000,4.000000,4.000000,4.000000,4.000000,4.000000,4.000000,4.000000,100.000000,,,,,,,,,,,,,,,,,,,,,,,,,,,,,,,,,,,,,,,,,,,,,,,,,,,,,,,,,,,,,,,,,,,,,,,,,,,,,,,,,,,,,,,,,,,,,,,,,,,,,,,,,,,,,,,,,,,,,
1768374992.133494,1768374992.134739,89.000000,0.000000,4326.538574,4268.589844,4335.512695,4325.000000,4262.948730,4293.333496,4308.205078,4329.102539,4315.641113,4295.512695,4543.205078,4569.487305,4345.769043,4450.384766,5188.000000,1.000000,25.000000,,,,0.000000,4.000000,4.000000,4.000000,4.000000,4.000000,4.000000,4.000000,4.000000,4.000000,4.000000,4.000000,4.000000,4.000000,4.000000,100.000000,,,,,,,,,,,,,,,,,,,,,,,,,,,,,,,,,,,,,,,,,,,,,,,,,,,,,,,,,,,,,,,,,,,,,,,,,,,,,,,,,,,,,,,,,,,,,,,,,,,,,,,,,,,,,,,,,,,,,
1768374992.141302,1768374992.142448,90.000000,0.000000,4324.358887,4269.230957,4330.897461,4326.666504,4264.102539,4295.000000,4308.461426,4329.358887,4314.358887,4295.000000,4538.974121,4566.410156,4341.410156,4447.436035,4402.000000,1.000000,25.000000,,,,0.000000,4.000000,4.000000,4.000000,4.000000,4.000000,4.000000,4.000000,4.000000,4.000000,4.000000,4.000000,4.000000,4.000000,4.000000,100.000000,,,,,,,,,,,,,,,,,,,,,,,,,,,,,,,,,,,,,,,,,,,,,,,,,,,,,,,,,,,,,,,,,,,,,,,,,,,,,,,,,,,,,,,,,,,,,,,,,,,,,,,,,,,,,,,,,,,,,
1768374992.149111,1768374992.150256,91.000000,0.000000,4318.333496,4265.000000,4333.974121,4323.846191,4264.358887,4298.461426,4311.794922,4329.102539,4315.000000,4292.307617,4538.077148,4560.641113,4334.358887,4442.563965,4665.000000,1.000000,25.000000,,,,0.000000,4.000000,4.000000,4.000000,4.000000,4.000000,4.000000,4.000000,4.000000,4.000000,4.000000,4.000000,4.000000,4.000000,4.000000,100.000000,,,,,,,,,,,,,,,,,,,,,,,,,,,,,,,,,,,,,,,,,,,,,,,,,,,,,,,,,,,,,,,,,,,,,,,,,,,,,,,,,,,,,,,,,,,,,,,,,,,,,,,,,,,,,,,,,,,,,
1768374992.156919,1768374992.158265,92.000000,0.000000,4321.153809,4264.615234,4336.025879,4325.512695,4265.256348,4298.077148,4311.025879,4327.179688,4315.256348,4295.512695,4540.769043,4562.692383,4337.179688,4445.641113,4948.000000,1.000000,25.000000,,,,0.000000,4.000000,4.000000,4.000000,4.000000,4.000000,4.000000,4.000000,4.000000,4.000000,4.000000,4.000000,4.000000,4.000000,4.000000,100.000000,,,,,,,,,,,,,,,,,,,,,,,,,,,,,,,,,,,,,,,,,,,,,,,,,,,,,,,,,,,,,,,,,,,,,,,,,,,,,,,,,,,,,,,,,,,,,,,,,,,,,,,,,,,,,,,,,,,,,
1768374992.164728,1768374992.166073,93.000000,0.000000,4324.358887,4271.025879,4333.205078,4327.948730,4264.487305,4296.025879,4308.333496,4329.871582,4321.666504,4299.102539,4541.794922,4567.436035,4341.153809,4448.205078,5188.000000,1.000000,25.000000,,,,0.000000,4.000000,4.000000,4.000000,4.000000,4.000000,4.000000,4.000000,4.000000,4.000000,4.000000,4.000000,4.000000,4.000000,4.000000,100.000000,,,,,,,,,,,,,,,,,,,,,,,,,,,,,,,,,,,,,,,,,,,,,,,,,,,,,,,,,,,,,,,,,,,,,,,,,,,,,,,,,,,,,,,,,,,,,,,,,,,,,,,,,,,,,,,,,,,,,
1768374992.172536,1768374992.173981,94.000000,0.000000,4320.256348,4270.384766,4331.025879,4326.666504,4263.333496,4297.692383,4310.384766,4333.589844,4324.871582,4298.974121,4541.538574,4567.051270,4342.179688,4446.410156,4402.000000,1.000000,25.000000,,,,0.000000,4.000000,4.000000,4.000000,4.000000,4.000000,4.000000,4.000000,4.000000,4.000000,4.000000,4.000000,4.000000,4.000000,4.000000,100.000000,,,,,,,,,,,,,,,,,,,,,,,,,,,,,,,,,,,,,,,,,,,,,,,,1.639543,0.190368,0.115373,0.155454,0.146652,0.839625,0.126732,0.149783,0.094477,0.069135,0.896062,0.061594,0.159977,0.110879,0.065511,0.893437,0.109632,0.111908,0.073765,0.062921,0.126589,0.110172,0.194011,0.039721,0.090565,0.427579,0.117176,0.080001,0.088428,0.151597,0.895559,0.202931,0.137747,0.086953,0.115148,0.353895,0.160102,0.108443,0.085587,0.080286,0.335353,0.079224,0.265220,0.109035,0.134688,0.625059,0.282664,0.211141,0.150582,0.090634,0.837327,0.339785,0.483614,0.209828,0.116893,0.793607,0.289592,0.587759,0.335920,0.136947,0.597692,0.491995,0.585073,0.211854,0.104734,1.921289,0.590205,0.472932,0.203593,0.174957
1768374992.180344,1768374992.181790,95.000000,0.000000,4320.512695,4264.871582,4333.846191,4324.871582,4267.820313,4300.256348,4312.948730,4331.410156,4319.358887,4297.179688,4540.000000,4562.948730,4341.153809,4447.051270,4665.000000,1.000000,25.000000,,,,0.000000,4.000000,4.000000,4.000000,4.000000,4.000000,4.000000,4.000000,4.000000,4.000000,4.000000,4.000000,4.000000,4.000000,4.000000,100.000000,,,,,,,,,,,,,,,,,,,,,,,,,,,,,,,,,,,,,,,,,,,,,,,,,,,,,,,,,,,,,,,,,,,,,,,,,,,,,,,,,,,,,,,,,,,,,,,,,,,,,,,,,,,,,,,,,,,,,
1768374992.188153,1768374992.189399,96.000000,0.000000,4333.333496,4268.974121,4341.794922,4325.769043,4271.666504,4297.948730,4311.153809,4327.820313,4316.025879,4296.282227,4542.436035,4565.512695,4336.410156,4452.051270,4948.000000,1.000000,25.000000,,,,0.000000,4.000000,4.000000,4.000000,4.000000,4.000000,4.000000,4.000000,4.000000,4.000000,4.000000,4.000000,4.000000,4.000000,4.000000,100.000000,,,,,,,,,,,,,,,,,,,,,,,,,,,,,,,,,,,,,,,,,,,,,,,,,,,,,,,,,,,,,,,,,,,,,,,,,,,,,,,,,,,,,,,,,,,,,,,,,,,,,,,,,,,,,,,,,,,,,
1768374992.195961,1768374992.197207,97.000000,0.000000,4333.077148,4272.179688,4339.487305,4324.487305,4267.820313,4298.205078,4309.615234,4328.077148,4316.025879,4292.436035,4537.692383,4561.153809,4327.820313,4448.333496,5188.000000,1.000000,25.000000,,,,0.000000,4.000000,4.000000,4.000000,4.000000,4.000000,4.000000,4.000000,4.000000,4.000000,4.000000,4.000000,4.000000,4.000000,4.000000,100.000000,,,,,,,,,,,,,,,,,,,,,,,,,,,,,,,,,,,,,,,,,,,,,,,,,,,,,,,,,,,,,,,,,,,,,,,,,,,,,,,,,,,,,,,,,,,,,,,,,,,,,,,,,,,,,,,,,,,,,
1768374992.203770,1768374992.204916,98.000000,0.000000,4311.538574,4263.205078,4324.487305,4321.538574,4269.487305,4302.948730,4310.128418,4328.461426,4316.794922,4287.179688,4522.948730,4546.410156,4319.358887,4434.871582,4402.000000,1.000000,25.000000,,,,0.000000,4.000000,4.000000,4.000000,4.000000,4.000000,4.000000,4.000000,4.000000,4.000000,4.000000,4.000000,4.000000,4.000000,4.000000,100.000000,,,,,,,,,,,,,,,,,,,,,,,,,,,,,,,,,,,,,,,,,,,,,,,,,,,,,,,,,,,,,,,,,,,,,,,,,,,,,,,,,,,,,,,,,,,,,,,,,,,,,,,,,,,,,,,,,,,,,
1768374992.211578,1768374992.212724,99.000000,0.000000,4309.487305,4259.230957,4323.333496,4321.153809,4276.410156,4304.743652,4312.563965,4329.102539,4323.205078,4288.846191,4522.948730,4548.974121,4321.025879,4438.846191,4665.000000,1.000000,25.000000,,,,0.000000,4.000000,4.000000,4.000000,4.000000,4.000000,4.000000,4.000000,4.000000,4.000000,4.000000,4.000000,4.000000,4.000000,4.000000,100.000000,,,,,,,,,,,,,,,,,,,,,,,,,,,,,,,,,,,,,,,,,,,,,,,,,,,,,,,,,,,,,,,,,,,,,,,,,,,,,,,,,,,,,,,,,,,,,,,,,,,,,,,,,,,,,,,,,,,,,
1768374992.219387,1768374992.220732,100.000000,0.000000,4334.871582,4271.410156,4338.205078,4327.051270,4277.051270,4306.922852,4315.128418,4332.436035,4327.820313,4301.538574,4539.230957,4565.897461,4337.307617,4458.974121,4948.000000,1.000000,25.000000,,,,0.000000,4.000000,4.000000,4.000000,4.000000,4.000000,4.000000,4.000000,4.000000,4.000000,4.000000,4.000000,4.000000,4.000000,4.000000,100.000000,,,,,,,,,,,,,,,,,,,,,,,,,,,,,,,,,,,,,,,,,,,,,,,,,,,,,,,,,,,,,,,,,,,,,,,,,,,,,,,,,,,,,,,,,,,,,,,,,,,,,,,,,,,,,,,,,,,,,
1768374992.227195,1768374992.228541,101.000000,0.000000,4344.871582,4282.948730,4345.897461,4335.000000,4276.922852,4308.461426,4313.077148,4334.102539,4326.025879,4309.358887,4545.512695,4571.410156,4348.717773,4464.743652,5188.000000,1.000000,25.000000,,,,0.000000,4.000000,4.000000,4.000000,4.000000,4.000000,4.000000,4.000000,4.000000,4.000000,4.000000,4.000000,4.000000,4.000000,4.000000,100.000000,,,,,,,,,,,,,,,,,,,,,,,,,,,,,,,,,,,,,,,,,,,,,,,,,,,,,,,,,,,,,,,,,,,,,,,,,,,,,,,,,,,,,,,,,,,,,,,,,,,,,,,,,,,,,,,,,,,,,
1768374992.235004,1768374992.236449,102.000000,0.000000,4335.256348,4280.256348,4340.641113,4333.333496,4278.333496,4306.666504,4312.051270,4334.102539,4325.128418,4303.717773,4538.974121,4564.615234,4342.820313,4458.333496,4402.000000,1.000000,25.000000,,,,0.000000,4.000000,4.000000,4.000000,4.000000,4.000000,4.000000,4.000000,4.000000,4.000000,4.000000,4.000000,4.000000,4.000000,4.000000,100.000000,,,,,,,,,,,,,,,,,,,,,,,,,,,,,,,,,,,,,,,,,,,,,,,,,,,,,,,,,,,,,,,,,,,,,,,,,,,,,,,,,,,,,,,,,,,,,,,,,,,,,,,,,,,,,,,,,,,,,
1768374992.242812,1768374992.244257,103.000000,0.000000,4330.000000,4276.282227,4335.897461,4326.282227,4276.282227,4307.820313,4313.717773,4333.846191,4326.794922,4300.128418,4539.743652,4563.846191,4337.948730,4458.205078,4665.000000,1.000000,25.000000,,,,0.000000,4.000000,4.000000,4.000000,4.000000,4.000000,4.000000,4.000000,4.000000,4.000000,4.000000,4.000000,4.000000,4.000000,4.000000,100.000000,,,,,,,,,,,,,,,,,,,,,,,,,,,,,,,,,,,,,,,,,,,,,,,,,,,,,,,,,,,,,,,,,,,,,,,,,,,,,,,,,,,,,,,,,,,,,,,,,,,,,,,,,,,,,,,,,,,,,
1768374992.250620,1768374992.252066,104.000000,0.000000,4330.897461,4277.820313,4335.641113,4326.025879,4274.871582,4307.436035,4312.820313,4333.974121,4323.717773,4300.512695,4544.102539,4567.436035,4340.000000,4459.743652,4948.000000,1.000000,25.000000,,,,0.000000,4.000000,4.000000,4.000000,4.000000,4.000000,4.000000,4.000000,4.000000,4.000000,4.000000,4.000000,4.000000,4.000000,4.000000,100.000000,,,,,,,,,,,,,,,,,,,,,,,,,,,,,,,,,,,,,,,,,,,,,,,,,,,,,,,,,,,,,,,,,,,,,,,,,,,,,,,,,,,,,,,,,,,,,,,,,,,,,,,,,,,,,,,,,,,,,
1768374992.258429,1768374992.259874,105.000000,0.000000,4329.615234,4275.769043,4337.051270,4327.820313,4278.077148,4302.051270,4309.230957,4329.230957,4317.307617,4297.307617,4536.794922,4559.230957,4335.384766,4457.179688,5188.000000,1.000000,25.000000,,,,0.000000,4.000000,4.000000,4.000000,4.000000,4.000000,4.000000,4.000000,4.000000,4.000000,4.000000,4.000000,4.000000,4.000000,4.000000,100.000000,,,,,,,,,,,,,,,,,,,,,,,,,,,,,,,,,,,,,,,,,,,,,,,,,,,,,,,,,,,,,,,,,,,,,,,,,,,,,,,,,,,,,,,,,,,,,,,,,,,,,,,,,,,,,,,,,,,,,
1768374992.266237,1768374992.267583,106.000000,0.000000,4327.307617,4272.179688,4333.461426,4326.153809,4278.974121,4300.512695,4308.205078,4320.512695,4316.282227,4297.179688,4532.436035,4549.743652,4333.846191,4456.538574,4402.000000,1.000000,25.000000,,,,0.000000,4.000000,4.000000,4.000000,4.000000,4.000000,4.000000,4.000000,4.000000,4.000000,4.000000,4.000000,4.000000,4.000000,4.000000,100.000000,,,,,,,,,,,,,,,,,,,,,,,,,,,,,,,,,,,,,,,,,,,,,,,,,,,,,,,,,,,,,,,,,,,,,,,,,,,,,,,,,,,,,,,,,,,,,,,,,,,,,,,,,,,,,,,,,,,,,
1768374992.274046,1768374992.275391,107.000000,0.000000,4326.282227,4276.538574,4326.538574,4327.563965,4279.230957,4308.461426,4313.205078,4322.307617,4318.717773,4300.128418,4536.794922,4553.846191,4340.512695,4459.487305,4665.000000,1.000000,25.000000,,,,0.000000,4.000000,4.000000,4.000000,4.000000,4.000000,4.000000,4.000000,4.000000,4.000000,4.000000,4.000000,4.000000,4.000000,4.000000,100.000000,,,,,,,,,,,,,,,,,,,,,,,,,,,,,,,,,,,,,,,,,,,,,,,,,,,,,,,,,,,,,,,,,,,,,,,,,,,,,,,,,,,,,,,,,,,,,,,,,,,,,,,,,,,,,,,,,,,,,
1768374992.281854,1768374992.283000,108.000000,0.000000,4324.102539,4277.179688,4325.000000,4327.436035,4282.563965,4308.846191,4315.128418,4324.102539,4312.179688,4294.871582,4532.436035,4556.153809,4335.384766,4457.179688,4948.000000,1.000000,25.000000,,,,0.000000,4.000000,4.000000,4.000000,4.000000,4.000000,4.000000,4.000000,4.000000,4.000000,4.000000,4.000000,4.000000,4.000000,4.000000,100.000000,,,,,,,,,,,,,,,,,,,,,,,,,,,,,,,,,,,,,,,,,,,,,,,,,,,,,,,,,,,,,,,,,,,,,,,,,,,,,,,,,,,,,,,,,,,,,,,,,,,,,,,,,,,,,,,,,,,,,
1768374992.289663,1768374992.290808,109.000000,0.000000,4321.922852,4266.922852,4327.436035,4321.025879,4278.717773,4299.743652,4309.102539,4317.051270,4306.538574,4285.641113,4522.436035,4546.025879,4327.051270,4449.230957,5188.000000,1.000000,25.000000,,,,0.000000,4.000000,4.000000,4.000000,4.000000,4.000000,4.000000,4.000000,4.000000,4.000000,4.000000,4.000000,4.000000,4.000000,4.000000,100.000000,,,,,,,,,,,,,,,,,,,,,,,,,,,,,,,,,,,,,,,,,,,,,,,,,,,,,,,,,,,,,,,,,,,,,,,,,,,,,,,,,,,,,,,,,,,,,,,,,,,,,,,,,,,,,,,,,,,,,
1768374992.297471,1768374992.298517,110.000000,0.000000,4324.487305,4265.000000,4326.025879,4321.666504,4271.538574,4300.128418,4307.051270,4315.384766,4309.230957,4283.589844,4521.922852,4543.461426,4331.666504,4445.000000,4402.000000,1.000000,25.000000,,,,0.000000,4.000000,4.000000,4.000000,4.000000,4.000000,4.000000,4.000000,4.000000,4.000000,4.000000,4.000000,4.000000,4.000000,4.000000,100.000000,,,,,,,,,,,,,,,,,,,,,,,,,,,,,,,,,,,,,,,,,,,,,,,,1.650224,0.226468,0.111787,0.165162,0.148301,0.737483,0.142227,0.172051,0.095428,0.075676,0.921848,0.081481,0.201909,0.143620,0.071458,0.902876,0.121589,0.153191,0.077952,0.062924,0.148264,0.145017,0.196748,0.034616,0.091567,0.443341,0.134877,0.100868,0.089577,0.151869,0.881853,0.232533,0.159537,0.093405,0.100135,0.342621,0.180161,0.136197,0.079323,0.085972,0.286746,0.089810,0.331039,0.097078,0.136350,0.651014,0.267560,0.253850,0.138368,0.092719,0.800776,0.259593,0.447961,0.191997,0.107980,0.813350,0.276595,0.509425,0.315302,0.125784,0.762866,0.496311,0.564526,0.207287,0.101247,1.941117,0.573269,0.399014,0.184053,0.146266
1768374992.305280,1768374992.306325,111.000000,0.000000,4325.897461,4269.871582,4321.666504,4325.000000,4271.025879,4308.205078,4313.077148,4322.307617,4310.641113,4285.384766,4525.641113,4547.563965,4333.333496,4449.615234,4665.000000,1.000000,25.000000,,,,0.000000,4.000000,4.000000,4.000000,4.000000,4.000000,4.000000,4.000000,4.000000,4.000000,4.000000,4.000000,4.000000,4.000000,4.000000,100.000000,,,,,,,,,,,,,,,,,,,,,,,,,,,,,,,,,,,,,,,,,,,,,,,,,,,,,,,,,,,,,,,,,,,,,,,,,,,,,,,,,,,,,,,,,,,,,,,,,,,,,,,,,,,,,,,,,,,,,
1768374992.313088,1768374992.313934,112.000000,0.000000,4322.051270,4268.077148,4320.384766,4319.358887,4271.794922,4303.077148,4311.794922,4322.436035,4308.974121,4288.077148,4529.230957,4546.282227,4331.410156,4456.666504,4948.000000,1.000000,25.000000,,,,0.000000,4.000000,4.000000,4.000000,4.000000,4.000000,4.000000,4.000000,4.000000,4.000000,4.000000,4.000000,4.000000,4.000000,4.000000,100.000000,,,,,,,,,,,,,,,,,,,,,,,,,,,,,,,,,,,,,,,,,,,,,,,,,,,,,,,,,,,,,,,,,,,,,,,,,,,,,,,,,,,,,,,,,,,,,,,,,,,,,,,,,,,,,,,,,,,,,
1768374992.320897,1768374992.321743,113.000000,0.000000,4321.410156,4270.384766,4324.358887,4320.384766,4270.641113,4293.333496,4304.358887,4319.358887,4311.666504,4290.641113,4534.230957,4549.230957,4337.563965,4459.358887,5188.000000,1.000000,25.000000,,,,0.000000,4.000000,4.000000,4.000000,4.000000,4.000000,4.000000,4.000000,4.000000,4.000000,4.000000,4.000000,4.000000,4.000000,4.000000,100.000000,,,,,,,,,,,,,,,,,,,,,,,,,,,,,,,,,,,,,,,,,,,,,,,,,,,,,,,,,,,,,,,,,,,,,,,,,,,,,,,,,,,,,,,,,,,,,,,,,,,,,,,,,,,,,,,,,,,,,
1768374992.328705,1768374992.329451,114.000000,0.000000,4326.538574,4277.692383,4332.051270,4329.615234,4275.769043,4299.230957,4305.384766,4323.846191,4315.384766,4292.820313,4535.769043,4554.230957,4341.922852,4459.615234,4402.000000,1.000000,25.000000,,,,0.000000,4.000000,4.000000,4.000000,4.000000,4.000000,4.000000,4.000000,4.000000,4.000000,4.000000,4.000000,4.000000,4.000000,4.000000,100.000000,,,,,,,,,,,,,,,,,,,,,,,,,,,,,,,,,,,,,,,,,,,,,,,,,,,,,,,,,,,,,,,,,,,,,,,,,,,,,,,,,,,,,,,,,,,,,,,,,,,,,,,,,,,,,,,,,,,,,
1768374992.336513,1768374992.337260,115.000000,0.000000,4327.436035,4282.436035,4333.717773,4332.820313,4282.692383,4308.461426,4312.692383,4329.358887,4319.102539,4294.871582,4536.410156,4554.102539,4339.871582,4458.333496,4665.000000,1.000000,25.000000,,,,0.000000,4.000000,4.000000,4.000000,4.000000,4.000000,4.000000,4.000000,4.000000,4.000000,4.000000,4.000000,4.000000,4.000000,4.000000,100.000000,,,,,,,,,,,,,,,,,,,,,,,,,,,,,,,,,,,,,,,,,,,,,,,,,,,,,,,,,,,,,,,,,,,,,,,,,,,,,,,,,,,,,,,,,,,,,,,,,,,,,,,,,,,,,,,,,,,,,
1768374992.344322,1768374992.345268,116.000000,0.000000,4328.717773,4285.897461,4330.641113,4332.051270,4282.307617,4309.230957,4318.589844,4334.487305,4327.179688,4299.358887,4541.794922,4556.410156,4343.461426,4461.538574,4948.000000,1.000000,25.000000,,,,0.000000,4.000000,4.000000,4.000000,4.000000,4.000000,4.000000,4.000000,4.000000,4.000000,4.000000,4.000000,4.000000,4.000000,4.000000,100.000000,,,,,,,,,,,,,,,,,,,,,,,,,,,,,,,,,,,,,,,,,,,,,,,,,,,,,,,,,,,,,,,,,,,,,,,,,,,,,,,,,,,,,,,,,,,,,,,,,,,,,,,,,,,,,,,,,,,,,
1768374992.352130,1768374992.353076,117.000000,0.000000,4335.384766,4287.563965,4330.384766,4331.538574,4280.897461,4307.307617,4318.333496,4332.692383,4330.641113,4303.077148,4543.077148,4560.641113,4344.615234,4467.820313,5188.000000,1.000000,25.000000,,,,0.000000,4.000000,4.000000,4.000000,4.000000,4.000000,4.000000,4.000000,4.000000,4.000000,4.000000,4.000000,4.000000,4.000000,4.000000,100.000000,,,,,,,,,,,,,,,,,,,,,,,,,,,,,,,,,,,,,,,,,,,,,,,,,,,,,,,,,,,,,,,,,,,,,,,,,,,,,,,,,,,,,,,,,,,,,,,,,,,,,,,,,,,,,,,,,,,,,
1768374992.359939,1768374992.360985,118.000000,0.000000,4336.025879,4283.461426,4329.743652,4330.641113,4283.589844,4304.871582,4311.410156,4320.256348,4317.820313,4296.282227,4534.743652,4558.846191,4334.615234,4465.512695,4402.000000,1.000000,25.000000,,,,0.000000,4.000000,4.000000,4.000000,4.000000,4.000000,4.000000,4.000000,4.000000,4.000000,4.000000,4.000000,4.000000,4.000000,4.000000,100.000000,,,,,,,,,,,,,,,,,,,,,,,,,,,,,,,,,,,,,,,,,,,,,,,,,,,,,,,,,,,,,,,,,,,,,,,,,,,,,,,,,,,,,,,,,,,,,,,,,,,,,,,,,,,,,,,,,,,,,
1768374992.367747,1768374992.368793,119.000000,0.000000,4330.512695,4281.282227,4328.589844,4327.692383,4279.871582,4300.897461,4307.692383,4316.922852,4307.051270,4283.461426,4523.846191,4550.641113,4324.487305,4457.307617,4665.000000,1.000000,25.000000,,,,0.000000,4.000000,4.000000,4.000000,4.000000,4.000000,4.000000,4.000000,4.000000,4.000000,4.000000,4.000000,4.000000,4.000000,4.000000,100.000000,,,,,,,,,,,,,,,,,,,,,,,,,,,,,,,,,,,,,,,,,,,,,,,,,,,,,,,,,,,,,,,,,,,,,,,,,,,,,,,,,,,,,,,,,,,,,,,,,,,,,,,,,,,,,,,,,,,,,
1768374992.375556,1768374992.376801,120.000000,0.000000,4325.769043,4282.436035,4327.948730,4320.000000,4273.205078,4299.615234,4310.256348,4328.205078,4311.666504,4279.871582,4520.769043,4546.282227,4325.000000,4457.307617,4948.000000,1.000000,25.000000,,,,0.000000,4.000000,4.000000,4.000000,4.000000,4.000000,4.000000,4.000000,4.000000,4.000000,4.000000,4.000000,4.000000,4.000000,4.000000,100.000000,,,,,,,,,,,,,,,,,,,,,,,,,,,,,,,,,,,,,,,,,,,,,,,,,,,,,,,,,,,,,,,,,,,,,,,,,,,,,,,,,,,,,,,,,,,,,,,,,,,,,,,,,,,,,,,,,,,,,
1768374992.383364,1768374992.384610,121.000000,0.000000,4319.230957,4277.948730,4319.230957,4313.333496,4272.563965,4301.794922,4312.948730,4329.102539,4313.077148,4281.922852,4522.948730,4546.922852,4327.692383,4455.897461,5188.000000,1.000000,25.000000,,,,0.000000,4.000000,4.000000,4.000000,4.000000,4.000000,4.000000,4.000000,4.000000,4.000000,4.000000,4.000000,4.000000,4.000000,4.000000,100.000000,,,,,,,,,,,,,,,,,,,,,,,,,,,,,,,,,,,,,,,,,,,,,,,,,,,,,,,,,,,,,,,,,,,,,,,,,,,,,,,,,,,,,,,,,,,,,,,,,,,,,,,,,,,,,,,,,,,,,
1768374992.391173,1768374992.392318,122.000000,0.000000,4314.487305,4275.384766,4311.410156,4317.563965,4275.512695,4300.000000,4309.102539,4318.717773,4304.615234,4279.358887,4521.153809,4546.153809,4323.589844,4443.846191,4402.000000,1.000000,25.000000,,,,0.000000,4.000000,4.000000,4.000000,4.000000,4.000000,4.000000,4.000000,4.000000,4.000000,4.000000,4.000000,4.000000,4.000000,4.000000,100.000000,,,,,,,,,,,,,,,,,,,,,,,,,,,,,,,,,,,,,,,,,,,,,,,,,,,,,,,,,,,,,,,,,,,,,,,,,,,,,,,,,,,,,,,,,,,,,,,,,,,,,,,,,,,,,,,,,,,,,
1768374992.398981,1768374992.400127,123.000000,0.000000,4322.820313,4279.871582,4322.436035,4325.384766,4275.897461,4298.333496,4305.384766,4322.948730,4304.615234,4281.282227,4519.487305,4545.000000,4322.179688,4445.256348,4665.000000,1.000000,25.000000,,,,0.000000,4.000000,4.000000,4.000000,4.000000,4.000000,4.000000,4.000000,4.000000,4.000000,4.000000,4.000000,4.000000,4.000000,4.000000,100.000000,,,,,,,,,,,,,,,,,,,,,,,,,,,,,,,,,,,,,,,,,,,,,,,,,,,,,,,,,,,,,,,,,,,,,,,,,,,,,,,,,,,,,,,,,,,,,,,,,,,,,,,,,,,,,,,,,,,,,
1768374992.406789,1768374992.408135,124.000000,0.000000,4327.692383,4282.820313,4331.025879,4324.230957,4275.000000,4298.717773,4306.538574,4332.692383,4311.794922,4289.487305,4524.358887,4548.077148,4330.128418,4458.717773,4948.000000,1.000000,25.000000,,,,0.000000,4.000000,4.000000,4.000000,4.000000,4.000000,4.000000,4.000000,4.000000,4.000000,4.000000,4.000000,4.000000,4.000000,4.000000,100.000000,,,,,,,,,,,,,,,,,,,,,,,,,,,,,,,,,,,,,,,,,,,,,,,,,,,,,,,,,,,,,,,,,,,,,,,,,,,,,,,,,,,,,,,,,,,,,,,,,,,,,,,,,,,,,,,,,,,,,
1768374992.414598,1768374992.415943,125.000000,0.000000,4319.615234,4281.794922,4324.871582,4321.282227,4276.282227,4298.077148,4309.743652,4332.307617,4313.077148,4290.769043,4528.205078,4552.820313,4336.153809,4460.897461,5188.000000,1.000000,25.000000,,,,0.000000,4.000000,4.000000,4.000000,4.000000,4.000000,4.000000,4.000000,4.000000,4.000000,4.000000,4.000000,4.000000,4.000000,4.000000,100.000000,,,,,,,,,,,,,,,,,,,,,,,,,,,,,,,,,,,,,,,,,,,,,,,,,,,,,,,,,,,,,,,,,,,,,,,,,,,,,,,,,,,,,,,,,,,,,,,,,,,,,,,,,,,,,,,,,,,,,
1768374992.422406,1768374992.423852,126.000000,0.000000,4320.000000,4287.436035,4324.743652,4325.512695,4279.230957,4301.153809,4311.794922,4331.282227,4312.563965,4288.205078,4529.102539,4557.692383,4337.563965,4458.205078,4402.000000,1.000000,25.000000,,,,0.000000,4.000000,4.000000,4.000000,4.000000,4.000000,4.000000,4.000000,4.000000,4.000000,4.000000,4.000000,4.000000,4.000000,4.000000,100.000000,,,,,,,,,,,,,,,,,,,,,,,,,,,,,,,,,,,,,,,,,,,,,,,,1.530487,0.267967,0.117085,0.180629,0.146840,0.650659,0.165140,0.200909,0.096973,0.084081,0.903838,0.116900,0.249876,0.187370,0.082568,0.842809,0.134352,0.198700,0.082631,0.064468,0.167492,0.168949,0.189027,0.032043,0.089304,0.428199,0.146409,0.123086,0.085900,0.141073,0.767353,0.246919,0.174960,0.097031,0.083850,0.305918,0.187238,0.155750,0.074232,0.092193,0.256601,0.107970,0.391691,0.093063,0.132914,0.671790,0.265191,0.306367,0.127829,0.090858,0.855907,0.216857,0.442961,0.179280,0.108523,0.822358,0.260878,0.440814,0.303267,0.117273,0.949092,0.500199,0.518783,0.207018,0.097480,1.865191,0.529206,0.323778,0.173514,0.118874
1768374992.430215,1768374992.431660,127.000000,0.000000,4327.051270,4291.153809,4327.692383,4325.641113,4276.666504,4302.563965,4309.743652,4331.282227,4314.743652,4291.538574,4527.820313,4558.333496,4337.307617,4460.512695,25.000000,1.000000,25.000000,,,,0.000000,4.000000,4.000000,4.000000,4.000000,4.000000,4.000000,4.000000,4.000000,4.000000,4.000000,4.000000,4.000000,4.000000,4.000000,100.000000,,,,,,,,,,,,,,,,,,,,,,,,,,,,,,,,,,,,,,,,,,,,,,,,,,,,,,,,,,,,,,,,,,,,,,,,,,,,,,,,,,,,,,,,,,,,,,,,,,,,,,,,,,,,,,,,,,,,,
1768374992.438023,1768374992.439269,0.000000,0.000000,4326.794922,4285.128418,4321.666504,4317.179688,4272.307617,4296.410156,4304.358887,4328.461426,4314.102539,4294.358887,4526.025879,4556.282227,4336.922852,4462.563965,4056.000000,1.000000,25.000000,,,,0.000000,4.000000,4.000000,4.000000,4.000000,4.000000,4.000000,4.000000,4.000000,4.000000,4.000000,4.000000,4.000000,4.000000,4.000000,100.000000,,,,,,,,,,,,,,,,,,,,,,,,,,,,,,,,,,,,,,,,,,,,,,,,,,,,,,,,,,,,,,,,,,,,,,,,,,,,,,,,,,,,,,,,,,,,,,,,,,,,,,,,,,,,,,,,,,,,,
1768374992.445832,1768374992.447077,1.000000,0.000000,4320.512695,4283.205078,4319.102539,4317.051270,4275.641113,4293.205078,4304.230957,4327.948730,4312.436035,4292.436035,4528.717773,4556.025879,4337.436035,4459.615234,4006.000000,1.000000,25.000000,,,,0.000000,4.000000,4.000000,4.000000,4.000000,4.000000,4.000000,4.000000,4.000000,4.000000,4.000000,4.000000,4.000000,4.000000,4.000000,100.000000,,,,,,,,,,,,,,,,,,,,,,,,,,,,,,,,,,,,,,,,,,,,,,,,,,,,,,,,,,,,,,,,,,,,,,,,,,,,,,,,,,,,,,,,,,,,,,,,,,,,,,,,,,,,,,,,,,,,,
1768374992.453640,1768374992.454986,2.000000,0.000000,4317.436035,4287.179688,4325.256348,4326.153809,4282.436035,4300.512695,4310.000000,4332.692383,4315.641113,4292.563965,4535.128418,4558.846191,4341.538574,4459.615234,3896.000000,1.000000,25.000000,,,,0.000000,4.000000,4.000000,4.000000,4.000000,4.000000,4.000000,4.000000,4.000000,4.000000,4.000000,4.000000,4.000000,4.000000,4.000000,100.000000,,,,,,,,,,,,,,,,,,,,,,,,,,,,,,,,,,,,,,,,,,,,,,,,,,,,,,,,,,,,,,,,,,,,,,,,,,,,,,,,,,,,,,,,,,,,,,,,,,,,,,,,,,,,,,,,,,,,,
1768374992.461448,1768374992.462794,3.000000,0.000000,4323.974121,4291.410156,4329.358887,4328.589844,4284.358887,4306.153809,4313.077148,4335.256348,4316.153809,4297.948730,4539.743652,4564.871582,4348.589844,4467.820313,3912.000000,1.000000,25.000000,,,,0.000000,4.000000,4.000000,4.000000,4.000000,4.000000,4.000000,4.000000,4.000000,4.000000,4.000000,4.000000,4.000000,4.000000,4.000000,100.000000,,,,,,,,,,,,,,,,,,,,,,,,,,,,,,,,,,,,,,,,,,,,,,,,,,,,,,,,,,,,,,,,,,,,,,,,,,,,,,,,,,,,,,,,,,,,,,,,,,,,,,,,,,,,,,,,,,,,,
1768374992.469257,1768374992.470802,4.000000,0.000000,4332.820313,4293.077148,4328.333496,4324.487305,4282.692383,4303.333496,4311.153809,4330.128418,4310.384766,4299.743652,4539.358887,4563.461426,4352.307617,4475.641113,3844.000000,1.000000,25.000000,,,,0.000000,4.000000,4.000000,4.000000,4.000000,4.000000,4.000000,4.000000,4.000000,4.000000,4.000000,4.000000,4.000000,4.000000,4.000000,100.000000,,,,,,,,,,,,,,,,,,,,,,,,,,,,,,,,,,,,,,,,,,,,,,,,,,,,,,,,,,,,,,,,,,,,,,,,,,,,,,,,,,,,,,,,,,,,,,,,,,,,,,,,,,,,,,,,,,,,,
1768374992.477065,1768374992.478611,5.000000,0.000000,4329.487305,4291.153809,4324.102539,4323.974121,4282.692383,4298.846191,4308.846191,4327.307617,4308.846191,4297.820313,4537.692383,4552.307617,4353.205078,4474.743652,3749.000000,1.000000,25.000000,,,,0.000000,4.000000,4.000000,4.000000,4.000000,4.000000,4.000000,4.000000,4.000000,4.000000,4.000000,4.000000,4.000000,4.000000,4.000000,100.000000,,,,,,,,,,,,,,,,,,,,,,,,,,,,,,,,,,,,,,,,,,,,,,,,,,,,,,,,,,,,,,,,,,,,,,,,,,,,,,,,,,,,,,,,,,,,,,,,,,,,,,,,,,,,,,,,,,,,,
1768374992.484874,1768374992.486319,6.000000,0.000000,4318.589844,4288.461426,4319.615234,4324.743652,4284.743652,4298.589844,4307.307617,4330.897461,4315.512695,4298.717773,4538.717773,4547.051270,4354.487305,4470.384766,3780.000000,1.000000,25.000000,,,,0.000000,4.000000,4.000000,4.000000,4.000000,4.000000,4.000000,4.000000,4.000000,4.000000,4.000000,4.000000,4.000000,4.000000,4.000000,100.000000,,,,,,,,,,,,,,,,,,,,,,,,,,,,,,,,,,,,,,,,,,,,,,,,,,,,,,,,,,,,,,,,,,,,,,,,,,,,,,,,,,,,,,,,,,,,,,,,,,,,,,,,,,,,,,,,,,,,,
1768374992.492682,1768374992.494128,7.000000,0.000000,4320.512695,4291.410156,4322.820313,4325.000000,4284.487305,4301.282227,4308.333496,4331.794922,4319.615234,4300.256348,4539.487305,4556.025879,4357.051270,4471.794922,3306.000000,1.000000,25.000000,,,,0.000000,4.000000,4.000000,4.000000,4.000000,4.000000,4.000000,4.000000,4.000000,4.000000,4.000000,4.000000,4.000000,4.000000,4.000000,100.000000,,,,,,,,,,,,,,,,,,,,,,,,,,,,,,,,,,,,,,,,,,,,,,,,,,,,,,,,,,,,,,,,,,,,,,,,,,,,,,,,,,,,,,,,,,,,,,,,,,,,,,,,,,,,,,,,,,,,,
1768374992.500491,1768374992.501736,8.000000,0.000000,4328.846191,4297.051270,4328.333496,4329.743652,4283.589844,4299.871582,4310.384766,4331.410156,4315.897461,4300.512695,4541.922852,4566.794922,4362.563965,4477.563965,3984.000000,1.000000,25.000000,,,,0.000000,4.000000,4.000000,4.000000,4.000000,4.000000,4.000000,4.000000,4.000000,4.000000,4.000000,4.000000,4.000000,4.000000,4.000000,100.000000,,,,,,,,,,,,,,,,,,,,,,,,,,,,,,,,,,,,,,,,,,,,,,,,,,,,,,,,,,,,,,,,,,,,,,,,,,,,,,,,,,,,,,,,,,,,,,,,,,,,,,,,,,,,,,,,,,,,,
1768374992.508299,1768374992.509545,9.000000,0.000000,4329.358887,4297.820313,4325.897461,4331.666504,4284.230957,4294.743652,4308.077148,4332.436035,4312.436035,4301.922852,4540.512695,4564.743652,4363.077148,4478.589844,3981.000000,1.000000,25.000000,,,,0.000000,4.000000,4.000000,4.000000,4.000000,4.000000,4.000000,4.000000,4.000000,4.000000,4.000000,4.000000,4.000000,4.000000,4.000000,100.000000,,,,,,,,,,,,,,,,,,,,,,,,,,,,,,,,,,,,,,,,,,,,,,,,,,,,,,,,,,,,,,,,,,,,,,,,,,,,,,,,,,,,,,,,,,,,,,,,,,,,,,,,,,,,,,,,,,,,,
1768374992.516107,1768374992.517253,10.000000,0.000000,4326.794922,4296.794922,4320.897461,4329.743652,4282.436035,4294.487305,4305.000000,4330.641113,4312.051270,4300.128418,4538.717773,4558.846191,4358.974121,4473.589844,4402.000000,1.000000,25.000000,,,,0.000000,4.000000,4.000000,4.000000,4.000000,4.000000,4.000000,4.000000,4.000000,4.000000,4.000000,4.000000,4.000000,4.000000,4.000000,100.000000,,,,,,,,,,,,,,,,,,,,,,,,,,,,,,,,,,,,,,,,,,,,,,,,,,,,,,,,,,,,,,,,,,,,,,,,,,,,,,,,,,,,,,,,,,,,,,,,,,,,,,,,,,,,,,,,,,,,,
1768374992.523916,1768374992.525062,11.000000,0.000000,4330.128418,4299.358887,4325.256348,4333.205078,4282.948730,4298.974121,4307.307617,4326.538574,4309.615234,4296.410156,4540.128418,4561.666504,4360.384766,4478.077148,4665.000000,1.000000,25.000000,,,,0.000000,4.000000,4.000000,4.000000,4.000000,4.000000,4.000000,4.000000,4.000000,4.000000,4.000000,4.000000,4.000000,4.000000,4.000000,100.000000,,,,,,,,,,,,,,,,,,,,,,,,,,,,,,,,,,,,,,,,,,,,,,,,,,,,,,,,,,,,,,,,,,,,,,,,,,,,,,,,,,,,,,,,,,,,,,,,,,,,,,,,,,,,,,,,,,,,,
1768374992.531724,1768374992.532671,12.000000,0.000000,4334.871582,4303.589844,4335.641113,4338.589844,4291.794922,4302.563965,4311.282227,4329.102539,4309.615234,4297.948730,4541.666504,4566.794922,4367.563965,4488.461426,4948.000000,1.000000,25.000000,,,,0.000000,4.000000,4.000000,4.000000,4.000000,4.000000,4.000000,4.000000,4.000000,4.000000,4.000000,4.000000,4.000000,4.000000,4.000000,100.000000,,,,,,,,,,,,,,,,,,,,,,,,,,,,,,,,,,,,,,,,,,,,,,,,,,,,,,,,,,,,,,,,,,,,,,,,,,,,,,,,,,,,,,,,,,,,,,,,,,,,,,,,,,,,,,,,,,,,,
1768374992.539533,1768374992.540479,13.000000,0.000000,4331.538574,4302.436035,4337.051270,4336.794922,4293.589844,4303.974121,4310.384766,4333.205078,4312.179688,4299.743652,4539.615234,4565.256348,4367.307617,4481.538574,5187.000000,1.000000,25.000000,,,,0.000000,4.000000,4.000000,4.000000,4.000000,4.000000,4.000000,4.000000,4.000000,4.000000,4.000000,4.000000,4.000000,4.000000,4.000000,100.000000,,,,,,,,,,,,,,,,,,,,,,,,,,,,,,,,,,,,,,,,,,,,,,,,,,,,,,,,,,,,,,,,,,,,,,,,,,,,,,,,,,,,,,,,,,,,,,,,,,,,,,,,,,,,,,,,,,,,,
1768374992.547341,1768374992.548387,14.000000,0.000000,4326.794922,4297.563965,4328.717773,4329.871582,4289.743652,4302.307617,4308.974121,4329.102539,4311.410156,4297.820313,4536.538574,4560.128418,4362.948730,4472.692383,4402.000000,1.000000,25.000000,,,,0.000000,4.000000,4.000000,4.000000,4.000000,4.000000,4.000000,4.000000,4.000000,4.000000,4.000000,4.000000,4.000000,4.000000,4.000000,100.000000,1.000000,100.000000,4.000000,4.000000,4.000000,4.000000,4.000000,4.000000,4.000000,4.000000,4.000000,4.000000,4.000000,4.000000,4.000000,4.000000,,,,,,,,,,,,,,,,,,,,,,,,,,,,,,,,1.314026,0.305712,0.128656,0.203373,0.145006,0.594730,0.195833,0.227289,0.099413,0.092105,0.824579,0.159747,0.291929,0.229915,0.100219,0.718980,0.144907,0.232106,0.087666,0.066866,0.189482,0.174200,0.178385,0.030712,0.083854,0.381907,0.149729,0.143220,0.078234,0.122313,0.583135,0.238902,0.179469,0.095083,0.070555,0.256685,0.181495,0.160013,0.071920,0.099187,0.260166,0.136663,0.433106,0.096581,0.126951,0.683794,0.290907,0.360645,0.124487,0.086813,0.920870,0.226780,0.469018,0.175472,0.117314,0.802570,0.260258,0.393405,0.297502,0.113869,1.082485,0.522966,0.465640,0.220107,0.096633,1.707559,0.479651,0.255256,0.174965,0.099273
1768374992.555150,1768374992.556196,15.000000,0.000000,4327.051270,4299.615234,4325.897461,4329.102539,4292.820313,4302.179688,4312.307617,4325.512695,4309.358887,4298.846191,4537.563965,4559.615234,4364.871582,4476.410156,4665.000000,1.000000,25.000000,,,,0.000000,4.000000,4.000000,4.000000,4.000000,4.000000,4.000000,4.000000,4.000000,4.000000,4.000000,4.000000,4.000000,4.000000,4.000000,100.000000,,,,,,,,,,,,,,,,,,,,,,,,,,,,,,,,,,,,,,,,,,,,,,,,,,,,,,,,,,,,,,,,,,,,,,,,,,,,,,,,,,,,,,,,,,,,,,,,,,,,,,,,,,,,,,,,,,,,,
1768374992.562958,1768374992.564204,16.000000,0.000000,4327.820313,4302.820313,4332.436035,4335.384766,4292.307617,4303.205078,4311.410156,4328.205078,4310.256348,4302.179688,4541.025879,4564.871582,4368.589844,4477.692383,0.000000,1.000000,25.000000,,,,0.000000,4.000000,4.000000,4.000000,4.000000,4.000000,4.000000,4.000000,4.000000,4.000000,4.000000,4.000000,4.000000,4.000000,4.000000,100.000000,,,,,,,,,,,,,,,,,,,,,,,,,,,,,,,,,,,,,,,,,,,,,,,,,,,,,,,,,,,,,,,,,,,,,,,,,,,,,,,,,,,,,,,,,,,,,,,,,,,,,,,,,,,,,,,,,,,,,
1768374992.570767,1768374992.572012,17.000000,0.000000,4327.051270,4301.153809,4338.717773,4337.820313,4291.282227,4301.282227,4306.922852,4328.589844,4309.871582,4302.051270,4542.051270,4569.102539,4372.948730,4480.641113,0.000000,1.000000,25.000000,,,,0.000000,4.000000,4.000000,4.000000,4.000000,4.000000,4.000000,4.000000,4.000000,4.000000,4.000000,4.000000,4.000000,4.000000,4.000000,100.000000,,,,,,,,,,,,,,,,,,,,,,,,,,,,,,,,,,,,,,,,,,,,,,,,,,,,,,,,,,,,,,,,,,,,,,,,,,,,,,,,,,,,,,,,,,,,,,,,,,,,,,,,,,,,,,,,,,,,,
1768374992.578575,1768374992.579921,18.000000,0.000000,4329.487305,4304.487305,4336.794922,4335.512695,4294.871582,4302.179688,4308.333496,4328.333496,4309.615234,4300.384766,4541.410156,4562.563965,4374.230957,4487.563965,0.000000,1.000000,25.000000,,,,0.000000,4.000000,4.000000,4.000000,4.000000,4.000000,4.000000,4.000000,4.000000,4.000000,4.000000,4.000000,4.000000,4.000000,4.000000,100.000000,,,,,,,,,,,,,,,,,,,,,,,,,,,,,,,,,,,,,,,,,,,,,,,,,,,,,,,,,,,,,,,,,,,,,,,,,,,,,,,,,,,,,,,,,,,,,,,,,,,,,,,,,,,,,,,,,,,,,
1768374992.586383,1768374992.587729,19.000000,0.000000,4329.230957,4308.461426,4328.077148,4332.692383,4294.871582,4306.025879,4311.282227,4333.077148,4310.769043,4299.743652,4538.461426,4553.461426,4366.153809,4481.666504,0.000000,1.000000,25.000000,,,,0.000000,4.000000,4.000000,4.000000,4.000000,4.000000,4.000000,4.000000,4.000000,4.000000,4.000000,4.000000,4.000000,4.000000,4.000000,100.000000,,,,,,,,,,,,,,,,,,,,,,,,,,,,,,,,,,,,,,,,,,,,,,,,,,,,,,,,,,,,,,,,,,,,,,,,,,,,,,,,,,,,,,,,,,,,,,,,,,,,,,,,,,,,,,,,,,,,,
1768374992.594192,1768374992.595338,20.000000,0.000000,4324.358887,4303.974121,4324.230957,4332.179688,4294.230957,4303.077148,4308.461426,4331.282227,4309.487305,4297.948730,4533.205078,4552.820313,4359.358887,4472.436035,0.000000,1.000000,25.000000,,,,0.000000,4.000000,4.000000,4.000000,4.000000,4.000000,4.000000,4.000000,4.000000,4.000000,4.000000,4.000000,4.000000,4.000000,4.000000,100.000000,,,,,,,,,,,,,,,,,,,,,,,,,,,,,,,,,,,,,,,,,,,,,,,,,,,,,,,,,,,,,,,,,,,,,,,,,,,,,,,,,,,,,,,,,,,,,,,,,,,,,,,,,,,,,,,,,,,,,
1768374992.602000,1768374992.603146,21.000000,0.000000,4325.769043,4301.153809,4329.102539,4336.282227,4296.410156,4299.358887,4307.179688,4325.000000,4307.307617,4293.077148,4531.794922,4554.615234,4361.666504,4476.666504,0.000000,1.000000,25.000000,,,,0.000000,4.000000,4.000000,4.000000,4.000000,4.000000,4.000000,4.000000,4.000000,4.000000,4.000000,4.000000,4.000000,4.000000,4.000000,100.000000,,,,,,,,,,,,,,,,,,,,,,,,,,,,,,,,,,,,,,,,,,,,,,,,,,,,,,,,,,,,,,,,,,,,,,,,,,,,,,,,,,,,,,,,,,,,,,,,,,,,,,,,,,,,,,,,,,,,,
1768374992.609809,1768374992.611055,22.000000,0.000000,4331.025879,4306.538574,4330.512695,4340.256348,4295.384766,4305.769043,4310.897461,4328.846191,4307.692383,4291.282227,4536.153809,4554.871582,4365.897461,4480.897461,0.000000,1.000000,25.000000,,,,0.000000,4.000000,4.000000,4.000000,4.000000,4.000000,4.000000,4.000000,4.000000,4.000000,4.000000,4.000000,4.000000,4.000000,4.000000,100.000000,,,,,,,,,,,,,,,,,,,,,,,,,,,,,,,,,,,,,,,,,,,,,,,,,,,,,,,,,,,,,,,,,,,,,,,,,,,,,,,,,,,,,,,,,,,,,,,,,,,,,,,,,,,,,,,,,,,,,
1768374992.617617,1768374992.618863,23.000000,0.000000,4331.282227,4309.358887,4329.615234,4338.333496,4292.692383,4310.769043,4312.051270,4333.717773,4310.641113,4296.153809,4537.563965,4558.077148,4365.641113,4481.025879,0.000000,1.000000,25.000000,,,,0.000000,4.000000,4.000000,4.000000,4.000000,4.000000,4.000000,4.000000,4.000000,4.000000,4.000000,4.000000,4.000000,4.000000,4.000000,100.000000,,,,,,,,,,,,,,,,,,,,,,,,,,,,,,,,,,,,,,,,,,,,,,,,,,,,,,,,,,,,,,,,,,,,,,,,,,,,,,,,,,,,,,,,,,,,,,,,,,,,,,,,,,,,,,,,,,,,,
1768374992.625426,1768374992.626871,24.000000,0.000000,4328.461426,4308.205078,4331.025879,4336.922852,4293.205078,4306.538574,4310.897461,4331.538574,4313.077148,4297.820313,4536.538574,4562.307617,4365.256348,4487.563965,0.000000,1.000000,25.000000,,,,0.000000,4.000000,4.000000,4.000000,4.000000,4.000000,4.000000,4.000000,4.000000,4.000000,4.000000,4.000000,4.000000,4.000000,4.000000,100.000000,,,,,,,,,,,,,,,,,,,,,,,,,,,,,,,,,,,,,,,,,,,,,,,,,,,,,,,,,,,,,,,,,,,,,,,,,,,,,,,,,,,,,,,,,,,,,,,,,,,,,,,,,,,,,,,,,,,,,
1768374992.633234,1768374992.634680,25.000000,0.000000,4328.205078,4306.794922,4330.256348,4335.384766,4292.692383,4305.000000,4308.717773,4332.051270,4314.102539,4294.487305,4538.077148,4560.128418,4364.487305,4488.846191,0.000000,1.000000,25.000000,,,,0.000000,4.000000,4.000000,4.000000,4.000000,4.000000,4.000000,4.000000,4.000000,4.000000,4.000000,4.000000,4.000000,4.000000,4.000000,100.000000,,,,,,,,,,,,,,,,,,,,,,,,,,,,,,,,,,,,,,,,,,,,,,,,,,,,,,,,,,,,,,,,,,,,,,,,,,,,,,,,,,,,,,,,,,,,,,,,,,,,,,,,,,,,,,,,,,,,,
1768374992.641043,1768374992.642388,26.000000,0.000000,4327.563965,4301.794922,4327.307617,4333.461426,4292.307617,4306.025879,4304.743652,4333.461426,4315.384766,4295.256348,4535.512695,4553.974121,4363.077148,4480.769043,0.000000,1.000000,25.000000,,,,0.000000,4.000000,4.000000,4.000000,4.000000,4.000000,4.000000,4.000000,4.000000,4.000000,4.000000,4.000000,4.000000,4.000000,4.000000,100.000000,,,,,,,,,,,,,,,,,,,,,,,,,,,,,,,,,,,,,,,,,,,,,,,,,,,,,,,,,,,,,,,,,,,,,,,,,,,,,,,,,,,,,,,,,,,,,,,,,,,,,,,,,,,,,,,,,,,,,
1768374992.648851,1768374992.650197,27.000000,0.000000,4325.256348,4298.974121,4326.538574,4332.563965,4291.922852,4306.794922,4305.000000,4331.538574,4315.384766,4299.743652,4531.922852,4551.538574,4364.615234,4477.051270,0.000000,1.000000,25.000000,,,,0.000000,4.000000,4.000000,4.000000,4.000000,4.000000,4.000000,4.000000,4.000000,4.000000,4.000000,4.000000,4.000000,4.000000,4.000000,100.000000,,,,,,,,,,,,,,,,,,,,,,,,,,,,,,,,,,,,,,,,,,,,,,,,,,,,,,,,,,,,,,,,,,,,,,,,,,,,,,,,,,,,,,,,,,,,,,,,,,,,,,,,,,,,,,,,,,,,,
1768374992.656659,1768374992.657805,28.000000,0.000000,4327.436035,4300.384766,4328.461426,4332.179688,4291.410156,4307.051270,4307.948730,4330.000000,4316.025879,4301.153809,4535.000000,4553.717773,4366.025879,4482.436035,0.000000,1.000000,25.000000,,,,0.000000,4.000000,4.000000,4.000000,4.000000,4.000000,4.000000,4.000000,4.000000,4.000000,4.000000,4.000000,4.000000,4.000000,4.000000,100.000000,,,,,,,,,,,,,,,,,,,,,,,,,,,,,,,,,,,,,,,,,,,,,,,,,,,,,,,,,,,,,,,,,,,,,,,,,,,,,,,,,,,,,,,,,,,,,,,,,,,,,,,,,,,,,,,,,,,,,
1768374992.664468,1768374992.665614,29.000000,0.000000,4330.384766,4301.282227,4331.025879,4334.615234,4296.410156,4307.692383,4310.128418,4332.948730,4321.922852,4301.922852,4538.717773,4561.025879,4365.512695,4488.333496,0.000000,1.000000,25.000000,,,,0.000000,4.000000,4.000000,4.000000,4.000000,4.000000,4.000000,4.000000,4.000000,4.000000,4.000000,4.000000,4.000000,4.000000,4.000000,100.000000,,,,,,,,,,,,,,,,,,,,,,,,,,,,,,,,,,,,,,,,,,,,,,,,,,,,,,,,,,,,,,,,,,,,,,,,,,,,,,,,,,,,,,,,,,,,,,,,,,,,,,,,,,,,,,,,,,,,,
1768374992.672276,1768374992.673322,30.000000,0.000000,4328.846191,4300.384766,4330.384766,4336.282227,4300.256348,4311.025879,4314.102539,4338.205078,4326.538574,4306.025879,4539.358887,4564.102539,4366.282227,4489.487305,0.000000,1.000000,25.000000,,,,0.000000,4.000000,4.000000,4.000000,4.000000,4.000000,4.000000,4.000000,4.000000,4.000000,4.000000,4.000000,4.000000,4.000000,4.000000,100.000000,,,,,,,,,,,,,,,,,,,,,,,,,,,,,,,,,,,,,,,,,,,,,,,,1.047288,0.337603,0.140912,0.233881,0.146904,0.583233,0.240530,0.241722,0.104331,0.098282,0.710174,0.210220,0.315765,0.258938,0.123861,0.571506,0.158092,0.241724,0.093902,0.069652,0.201110,0.163566,0.173737,0.030439,0.076387,0.322716,0.146360,0.158642,0.069158,0.101999,0.386488,0.210310,0.172971,0.087666,0.062795,0.220403,0.174548,0.149800,0.072965,0.106916,0.300006,0.187314,0.445267,0.104638,0.121397,0.678741,0.363468,0.406099,0.132455,0.082877,0.920352,0.308674,0.511756,0.181806,0.131406,0.729382,0.298393,0.360383,0.292790,0.116198,1.145361,0.592919,0.426037,0.253028,0.101473,1.463075,0.456432,0.199041,0.191153,0.091992
1768374992.680085,1768374992.681131,31.000000,0.000000,4326.410156,4297.436035,4327.179688,4331.666504,4296.666504,4312.436035,4315.256348,4335.897461,4323.717773,4307.820313,4538.333496,4559.230957,4367.692383,4489.358887,0.000000,1.000000,25.000000,,,,0.000000,4.000000,4.000000,4.000000,4.000000,4.000000,4.000000,4.000000,4.000000,4.000000,4.000000,4.000000,4.000000,4.000000,4.000000,100.000000,,,,,,,,,,,,,,,,,,,,,,,,,,,,,,,,,,,,,,,,,,,,,,,,,,,,,,,,,,,,,,,,,,,,,,,,,,,,,,,,,,,,,,,,,,,,,,,,,,,,,,,,,,,,,,,,,,,,,
1768374992.687893,1768374992.689139,32.000000,0.000000,4325.000000,4295.512695,4328.974121,4326.922852,4294.871582,4305.512695,4308.717773,4330.128418,4320.384766,4304.871582,4536.282227,4557.179688,4367.948730,4488.846191,0.000000,1.000000,25.000000,,,,0.000000,4.000000,4.000000,4.000000,4.000000,4.000000,4.000000,4.000000,4.000000,4.000000,4.000000,4.000000,4.000000,4.000000,4.000000,100.000000,,,,,,,,,,,,,,,,,,,,,,,,,,,,,,,,,,,,,,,,,,,,,,,,,,,,,,,,,,,,,,,,,,,,,,,,,,,,,,,,,,,,,,,,,,,,,,,,,,,,,,,,,,,,,,,,,,,,,
1768374992.695702,1768374992.696948,33.000000,0.000000,4329.358887,4298.461426,4337.948730,4330.128418,4297.563965,4300.897461,4308.717773,4334.615234,4324.230957,4301.153809,4536.282227,4566.538574,4366.666504,4490.769043,0.000000,1.000000,25.000000,,,,0.000000,4.000000,4.000000,4.000000,4.000000,4.000000,4.000000,4.000000,4.000000,4.000000,4.000000,4.000000,4.000000,4.000000,4.000000,100.000000,,,,,,,,,,,,,,,,,,,,,,,,,,,,,,,,,,,,,,,,,,,,,,,,,,,,,,,,,,,,,,,,,,,,,,,,,,,,,,,,,,,,,,,,,,,,,,,,,,,,,,,,,,,,,,,,,,,,,
1768374992.703510,1768374992.704656,34.000000,0.000000,4336.922852,4301.538574,4344.487305,4334.615234,4296.025879,4305.641113,4315.769043,4342.179688,4330.000000,4303.461426,4539.102539,4573.077148,4366.282227,4492.948730,0.000000,1.000000,25.000000,,,,0.000000,4.000000,4.000000,4.000000,4.000000,4.000000,4.000000,4.000000,4.000000,4.000000,4.000000,4.000000,4.000000,4.000000,4.000000,100.000000,,,,,,,,,,,,,,,,,,,,,,,,,,,,,,,,,,,,,,,,,,,,,,,,,,,,,,,,,,,,,,,,,,,,,,,,,,,,,,,,,,,,,,,,,,,,,,,,,,,,,,,,,,,,,,,,,,,,,
1768374992.711319,1768374992.712465,35.000000,0.000000,4332.820313,4298.461426,4342.948730,4334.230957,4291.153809,4304.358887,4312.692383,4340.256348,4329.615234,4310.000000,4540.000000,4566.282227,4364.487305,4492.179688,0.000000,1.000000,25.000000,,,,0.000000,4.000000,4.000000,4.000000,4.000000,4.000000,4.000000,4.000000,4.000000,4.000000,4.000000,4.000000,4.000000,4.000000,4.000000,100.000000,,,,,,,,,,,,,,,,,,,,,,,,,,,,,,,,,,,,,,,,,,,,,,,,,,,,,,,,,,,,,,,,,,,,,,,,,,,,,,,,,,,,,,,,,,,,,,,,,,,,,,,,,,,,,,,,,,,,,
