Timestamp,OriginalTimestamp,EEG.Counter,EEG.Interpolated,EEG.AF3,EEG.F7,EEG.F3,EEG.FC5,EEG.T7,EEG.P7,EEG.O1,EEG.O2,EEG.P8,EEG.T8,EEG.FC6,EEG.F4,EEG.F8,EEG.AF4,POW.AF3.Theta,POW.AF3.Alpha,POW.AF3.BetaL,POW.AF3.BetaH,POW.AF3.Gamma,POW.F7.Theta,POW.F7.Alpha,POW.F7.BetaL,POW.F7.BetaH,POW.F7.Gamma,POW.F3.Theta,POW.F3.Alpha,POW.F3.BetaL,POW.F3.BetaH,POW.F3.Gamma,POW.FC5.Theta,POW.FC5.Alpha,POW.FC5.BetaL,POW.FC5.BetaH,POW.FC5.Gamma,POW.T7.Theta,POW.T7.Alpha,POW.T7.BetaL,POW.T7.BetaH,POW.T7.Gamma,POW.P7.Theta,POW.P7.Alpha,POW.P7.BetaL,POW.P7.BetaH,POW.P7.Gamma,POW.O1.Theta,POW.O1.Alpha,POW.O1.BetaL,POW.O1.BetaH,POW.O1.Gamma,POW.O2.Theta,POW.O2.Alpha,POW.O2.BetaL,POW.O2.BetaH,POW.O2.Gamma,POW.P8.Theta,POW.P8.Alpha,POW.P8.BetaL,POW.P8.BetaH,POW.P8.Gamma,POW.T8.Theta,POW.T8.Alpha,POW.T8.BetaL,POW.T8.BetaH,POW.T8.Gamma,POW.FC6.Theta,POW.FC6.Alpha,POW.FC6.BetaL,POW.FC6.BetaH,POW.FC6.Gamma,POW.F4.Theta,POW.F4.Alpha,POW.F4.BetaL,POW.F4.BetaH,POW.F4.Gamma,POW.F8.Theta,POW.F8.Alpha,POW.F8.BetaL,POW.F8.BetaH,POW.F8.Gamma,POW.AF4.Theta,POW.AF4.Alpha,POW.AF4.BetaL,POW.AF4.BetaH,POW.AF4.Gamma
1769162052.349049,1769162052.350201,89.0,0.0,4289.230957,4280.641113,4286.794922,4304.615234,4278.974121,4264.615234,4274.871582,4277.307617,4271.922852,4264.615234,4564.743652,4523.461426,4413.333496,4490.897461,,,,,,,,,,,,,,,,,,,,,,,,,,,,,,,,,,,,,,,,,,,,,,,,,,,,,,,,,,,,,,,,,,,,,,
1769162052.356857,1769162052.357909,90.0,0.0,4292.563965,4281.025879,4291.153809,4307.563965,4278.077148,4264.358887,4276.282227,4286.666504,4275.128418,4265.0,4569.358887,4530.0,4417.563965,4498.589844,,,,,,,,,,,,,,,,,,,,,,,,,,,,,,,,,,,,,,,,,,,,,,,,,,,,,,,,,,,,,,,,,,,,,,
1769162052.364666,1769162052.365718,91.0,0.0,4297.436035,4284.487305,4292.436035,4311.153809,4280.128418,4262.05127,4279.230957,4291.410156,4266.410156,4264.615234,4571.282227,4533.077148,4418.846191,4504.871582,,,,,,,,,,,,,,,,,,,,,,,,,,,,,,,,,,,,,,,,,,,,,,,,,,,,,,,,,,,,,,,,,,,,,,
1769162052.372474,1769162052.373327,92.0,0.0,4287.692383,4279.358887,4284.871582,4306.922852,4281.538574,4262.05127,4278.717773,4285.256348,4264.487305,4263.974121,4560.384766,4524.615234,4413.461426,4495.0,,,,,,,,,,,,,,,,,,,,,,,,,,,,,,,,,,,,,,,,,,,,,,,,,,,,,,,,,,,,,,,,,,,,,,
1769162052.380283,1769162052.381135,93.0,0.0,4280.256348,4275.256348,4284.102539,4302.307617,4279.102539,4263.461426,4276.410156,4284.871582,4268.205078,4266.025879,4554.871582,4522.563965,4411.282227,4490.128418,,,,,,,,,,,,,,,,,,,,,,,,,,,,,,,,,,,,,,,,,,,,,,,,,,,,,,,,,,,,,,,,,,,,,,
1769162052.388091,1769162052.388844,94.0,0.0,4284.358887,4277.05127,4291.153809,4304.615234,4279.743652,4264.230957,4277.94873,4284.743652,4268.333496,4266.538574,4560.512695,4527.436035,4414.102539,4498.589844,1.545142,0.582659,0.298739,0.111972,0.164475,1.444636,0.472599,0.332439,0.062342,0.077386,1.181548,0.320078,0.158747,0.108997,0.073408,0.690025,0.336547,0.25964,0.045307,0.05623,0.310839,0.076996,0.117261,0.02961,0.036374,0.338894,0.226831,0.134365,0.157191,0.08932,0.199938,0.12279,0.048763,0.120877,0.070388,0.243719,0.236128,0.101391,0.119783,0.132293,0.157639,0.272166,0.040439,0.045447,0.096756,0.121643,0.413556,0.191851,0.14198,0.08047,0.34843,0.602202,0.222996,0.103054,0.139038,0.725265,0.735038,0.371683,0.118156,0.210731,0.817057,1.201268,0.392351,0.186048,0.241885,0.844941,0.685912,0.234022,0.137331,0.219565
1769162052.395899,1769162052.396652,95.0,0.0,4283.461426,4276.410156,4291.666504,4306.794922,4282.179688,4265.897461,4283.461426,4284.487305,4272.179688,4265.641113,4564.615234,4525.769043,4414.743652,4498.974121,,,,,,,,,,,,,,,,,,,,,,,,,,,,,,,,,,,,,,,,,,,,,,,,,,,,,,,,,,,,,,,,,,,,,,
1769162052.403708,1769162052.404261,96.0,0.0,4278.589844,4278.717773,4286.922852,4305.256348,4281.794922,4264.743652,4280.769043,4290.128418,4277.436035,4273.974121,4565.128418,4524.358887,4414.871582,4495.0,,,,,,,,,,,,,,,,,,,,,,,,,,,,,,,,,,,,,,,,,,,,,,,,,,,,,,,,,,,,,,,,,,,,,,
1769162052.411516,1769162052.412069,97.0,0.0,4278.974121,4278.589844,4283.461426,4300.0,4280.256348,4262.179688,4276.153809,4293.333496,4279.102539,4277.820313,4569.487305,4526.153809,4415.256348,4496.794922,,,,,,,,,,,,,,,,,,,,,,,,,,,,,,,,,,,,,,,,,,,,,,,,,,,,,,,,,,,,,,,,,,,,,,
1769162052.419325,1769162052.419977,98.0,0.0,4277.05127,4269.743652,4278.974121,4292.05127,4277.94873,4268.205078,4283.846191,4291.025879,4276.282227,4267.563965,4569.743652,4524.871582,4412.436035,4494.487305,,,,,,,,,,,,,,,,,,,,,,,,,,,,,,,,,,,,,,,,,,,,,,,,,,,,,,,,,,,,,,,,,,,,,,
1769162052.427133,1769162052.427786,99.0,0.0,4274.358887,4271.025879,4278.205078,4293.717773,4278.589844,4271.282227,4288.077148,4285.769043,4275.128418,4265.897461,4567.179688,4525.512695,4411.538574,4491.538574,,,,,,,,,,,,,,,,,,,,,,,,,,,,,,,,,,,,,,,,,,,,,,,,,,,,,,,,,,,,,,,,,,,,,,
1769162052.434942,1769162052.435794,100.0,0.0,4279.615234,4281.538574,4282.436035,4303.333496,4282.94873,4263.717773,4278.461426,4281.025879,4276.025879,4272.307617,4570.0,4526.794922,4413.589844,4493.333496,,,,,,,,,,,,,,,,,,,,,,,,,,,,,,,,,,,,,,,,,,,,,,,,,,,,,,,,,,,,,,,,,,,,,,
1769162052.44275,1769162052.443603,101.0,0.0,4279.487305,4280.512695,4283.077148,4302.179688,4283.205078,4260.128418,4275.641113,4284.230957,4278.461426,4267.05127,4566.410156,4524.230957,4413.589844,4494.487305,,,,,,,,,,,,,,,,,,,,,,,,,,,,,,,,,,,,,,,,,,,,,,,,,,,,,,,,,,,,,,,,,,,,,,
1769162052.450559,1769162052.451311,102.0,0.0,4275.512695,4276.282227,4281.282227,4295.128418,4279.230957,4262.179688,4280.897461,4290.512695,4277.94873,4261.922852,4557.94873,4524.871582,4411.538574,4495.256348,,,,,,,,,,,,,,,,,,,,,,,,,,,,,,,,,,,,,,,,,,,,,,,,,,,,,,,,,,,,,,,,,,,,,,
1769162052.458367,1769162052.45912,103.0,0.0,4276.282227,4281.410156,4280.897461,4295.641113,4280.128418,4262.692383,4277.820313,4283.205078,4270.0,4265.769043,4555.128418,4522.820313,4409.871582,4495.897461,,,,,,,,,,,,,,,,,,,,,,,,,,,,,,,,,,,,,,,,,,,,,,,,,,,,,,,,,,,,,,,,,,,,,,
1769162052.466175,1769162052.466728,104.0,0.0,4274.102539,4281.666504,4280.256348,4297.563965,4283.077148,4265.641113,4275.641113,4276.538574,4267.179688,4263.974121,4554.487305,4510.512695,4408.589844,4490.641113,,,,,,,,,,,,,,,,,,,,,,,,,,,,,,,,,,,,,,,,,,,,,,,,,,,,,,,,,,,,,,,,,,,,,,
1769162052.473984,1769162052.474537,105.0,0.0,4273.717773,4277.05127,4278.333496,4296.282227,4280.641113,4266.794922,4280.256348,4282.820313,4274.615234,4261.153809,4555.0,4505.384766,4410.769043,4487.692383,,,,,,,,,,,,,,,,,,,,,,,,,,,,,,,,,,,,,,,,,,,,,,,,,,,,,,,,,,,,,,,,,,,,,,
1769162052.481792,1769162052.482445,106.0,0.0,4278.333496,4278.077148,4278.717773,4296.025879,4277.05127,4260.512695,4276.922852,4283.974121,4272.307617,4262.307617,4554.358887,4508.333496,4412.179688,4489.102539,,,,,,,,,,,,,,,,,,,,,,,,,,,,,,,,,,,,,,,,,,,,,,,,,,,,,,,,,,,,,,,,,,,,,,
1769162052.489601,1769162052.490253,107.0,0.0,4278.717773,4279.743652,4280.512695,4296.666504,4279.102539,4258.205078,4271.025879,4277.05127,4262.179688,4260.512695,4552.563965,4506.538574,4409.102539,4488.461426,,,,,,,,,,,,,,,,,,,,,,,,,,,,,,,,,,,,,,,,,,,,,,,,,,,,,,,,,,,,,,,,,,,,,,
1769162052.497409,1769162052.498262,108.0,0.0,4276.025879,4279.487305,4280.641113,4296.282227,4280.897461,4262.307617,4275.384766,4275.897461,4266.410156,4261.410156,4554.102539,4506.025879,4409.743652,4488.333496,,,,,,,,,,,,,,,,,,,,,,,,,,,,,,,,,,,,,,,,,,,,,,,,,,,,,,,,,,,,,,,,,,,,,,
1769162052.505218,1769162052.50607,109.0,0.0,4276.922852,4277.563965,4280.512695,4295.0,4278.077148,4263.077148,4281.666504,4279.871582,4274.358887,4263.974121,4556.666504,4509.230957,4413.205078,4489.615234,,,,,,,,,,,,,,,,,,,,,,,,,,,,,,,,,,,,,,,,,,,,,,,,,,,,,,,,,,,,,,,,,,,,,,
1769162052.513026,1769162052.513979,110.0,0.0,4278.461426,4278.717773,4285.128418,4294.743652,4276.538574,4260.0,4277.820313,4278.461426,4270.0,4262.692383,4556.025879,4509.102539,4411.922852,4490.769043,1.578387,0.653352,0.324388,0.122706,0.170939,1.322521,0.558188,0.375962,0.069321,0.080557,1.330709,0.297605,0.16001,0.129632,0.072377,0.674339,0.338369,0.254471,0.051654,0.055862,0.423041,0.094587,0.149057,0.033095,0.041252,0.35801,0.266355,0.140972,0.200661,0.098222,0.256833,0.140797,0.044943,0.159639,0.074786,0.30734,0.289483,0.093261,0.134749,0.141608,0.206716,0.235766,0.039682,0.064667,0.123215,0.101219,0.306442,0.193434,0.120636,0.078758,0.33538,0.575893,0.234584,0.114919,0.148628,0.71998,0.699441,0.363884,0.129794,0.22602,0.845934,1.200754,0.466718,0.162401,0.239855,0.84572,0.737657,0.242888,0.119297,0.232411
1769162052.520835,1769162052.521787,111.0,0.0,4281.025879,4285.256348,4291.153809,4301.538574,4277.436035,4259.358887,4272.179688,4273.333496,4265.769043,4261.794922,4556.153809,4509.615234,4411.666504,4492.05127,,,,,,,,,,,,,,,,,,,,,,,,,,,,,,,,,,,,,,,,,,,,,,,,,,,,,,,,,,,,,,,,,,,,,,
1769162052.528643,1769162052.529795,112.0,0.0,4284.487305,4287.563965,4289.102539,4306.282227,4277.94873,4261.794922,4274.230957,4273.717773,4268.589844,4264.615234,4557.563965,4512.179688,4414.358887,4493.205078,,,,,,,,,,,,,,,,,,,,,,,,,,,,,,,,,,,,,,,,,,,,,,,,,,,,,,,,,,,,,,,,,,,,,,
1769162052.536451,1769162052.537604,113.0,0.0,4280.0,4282.05127,4279.487305,4299.615234,4278.974121,4263.846191,4280.512695,4277.692383,4272.692383,4266.410156,4556.410156,4511.025879,4412.820313,4492.05127,,,,,,,,,,,,,,,,,,,,,,,,,,,,,,,,,,,,,,,,,,,,,,,,,,,,,,,,,,,,,,,,,,,,,,
1769162052.54426,1769162052.545312,114.0,0.0,4270.128418,4277.05127,4278.461426,4293.461426,4280.0,4264.743652,4279.358887,4279.358887,4271.410156,4264.871582,4555.384766,4511.922852,4410.256348,4490.0,,,,,,,,,,,,,,,,,,,,,,,,,,,,,,,,,,,,,,,,,,,,,,,,,,,,,,,,,,,,,,,,,,,,,,
1769162052.552068,1769162052.553121,115.0,0.0,4273.461426,4277.94873,4287.820313,4296.666504,4278.077148,4265.256348,4270.641113,4278.333496,4267.563965,4263.589844,4556.666504,4518.974121,4413.589844,4491.794922,,,,,,,,,,,,,,,,,,,,,,,,,,,,,,,,,,,,,,,,,,,,,,,,,,,,,,,,,,,,,,,,,,,,,,
1769162052.559877,1769162052.560729,116.0,0.0,4288.077148,4280.128418,4294.230957,4301.282227,4274.230957,4262.563965,4265.128418,4278.333496,4267.05127,4263.077148,4557.436035,4522.307617,4416.282227,4495.0,,,,,,,,,,,,,,,,,,,,,,,,,,,,,,,,,,,,,,,,,,,,,,,,,,,,,,,,,,,,,,,,,,,,,,
1769162052.567685,1769162052.568538,117.0,0.0,4288.717773,4281.922852,4292.436035,4304.871582,4275.512695,4260.128418,4265.769043,4280.512695,4266.025879,4264.487305,4557.307617,4514.615234,4412.94873,4492.05127,,,,,,,,,,,,,,,,,,,,,,,,,,,,,,,,,,,,,,,,,,,,,,,,,,,,,,,,,,,,,,,,,,,,,,
1769162052.575494,1769162052.576246,118.0,0.0,4278.846191,4286.794922,4285.384766,4307.307617,4281.538574,4267.436035,4271.025879,4279.743652,4266.666504,4264.230957,4553.461426,4506.025879,4408.846191,4486.025879,,,,,,,,,,,,,,,,,,,,,,,,,,,,,,,,,,,,,,,,,,,,,,,,,,,,,,,,,,,,,,,,,,,,,,
1769162052.583302,1769162052.584055,119.0,0.0,4277.94873,4289.871582,4281.025879,4305.512695,4283.333496,4273.461426,4275.384766,4277.563965,4273.717773,4262.563965,4553.974121,4511.538574,4412.94873,4492.179688,,,,,,,,,,,,,,,,,,,,,,,,,,,,,,,,,,,,,,,,,,,,,,,,,,,,,,,,,,,,,,,,,,,,,,
1769162052.591111,1769162052.591663,120.0,0.0,4281.025879,4286.025879,4284.487305,4304.230957,4279.358887,4268.717773,4275.256348,4280.769043,4279.743652,4270.128418,4566.410156,4523.333496,4423.333496,4506.666504,,,,,,,,,,,,,,,,,,,,,,,,,,,,,,,,,,,,,,,,,,,,,,,,,,,,,,,,,,,,,,,,,,,,,,
1769162052.598919,1769162052.599472,121.0,0.0,4282.563965,4278.589844,4291.922852,4305.641113,4275.897461,4264.871582,4273.717773,4284.487305,4281.282227,4277.692383,4571.538574,4524.871582,4423.589844,4505.384766,,,,,,,,,,,,,,,,,,,,,,,,,,,,,,,,,,,,,,,,,,,,,,,,,,,,,,,,,,,,,,,,,,,,,,
1769162052.606728,1769162052.60738,122.0,0.0,4291.666504,4282.05127,4295.256348,4307.94873,4276.025879,4267.179688,4270.384766,4281.666504,4277.820313,4269.871582,4561.794922,4517.94873,4412.436035,4492.179688,,,,,,,,,,,,,,,,,,,,,,,,,,,,,,,,,,,,,,,,,,,,,,,,,,,,,,,,,,,,,,,,,,,,,,
1769162052.614536,1769162052.615189,123.0,0.0,4294.743652,4292.94873,4292.05127,4310.384766,4276.666504,4267.05127,4267.692383,4278.077148,4273.077148,4260.512695,4553.333496,4512.179688,4407.179688,4489.102539,,,,,,,,,,,,,,,,,,,,,,,,,,,,,,,,,,,,,,,,,,,,,,,,,,,,,,,,,,,,,,,,,,,,,,
1769162052.622345,1769162052.623197,124.0,0.0,4283.974121,4289.871582,4288.205078,4308.205078,4275.512695,4265.0,4270.897461,4278.846191,4273.974121,4266.153809,4555.0,4510.384766,4410.641113,4492.563965,,,,,,,,,,,,,,,,,,,,,,,,,,,,,,,,,,,,,,,,,,,,,,,,,,,,,,,,,,,,,,,,,,,,,,
1769162052.630153,1769162052.631005,125.0,0.0,4278.077148,4279.743652,4287.820313,4306.282227,4275.384766,4267.563965,4279.487305,4280.128418,4273.974121,4267.94873,4562.307617,4515.641113,4414.102539,4493.461426,,,,,,,,,,,,,,,,,,,,,,,,,,,,,,,,,,,,,,,,,,,,,,,,,,,,,,,,,,,,,,,,,,,,,,
1769162052.637962,1769162052.638914,126.0,0.0,4279.743652,4279.102539,4287.436035,4307.05127,4275.384766,4267.436035,4277.692383,4280.512695,4267.94873,4261.153809,4565.256348,4522.692383,4414.487305,4494.102539,1.398297,0.676813,0.345858,0.150218,0.184903,1.077085,0.586716,0.391814,0.083025,0.092461,1.325178,0.253371,0.157148,0.155352,0.071789,0.606312,0.31229,0.231245,0.061747,0.057261,0.53052,0.113042,0.167056,0.039855,0.049428,0.360846,0.30338,0.141147,0.233086,0.112044,0.302152,0.170203,0.050958,0.202115,0.086594,0.402033,0.381479,0.087364,0.146721,0.155307,0.262508,0.206671,0.045921,0.089994,0.152938,0.088707,0.201261,0.180667,0.097445,0.079935,0.340341,0.516649,0.253563,0.141389,0.161272,0.731535,0.644902,0.351717,0.146579,0.243253,0.841074,1.101281,0.52892,0.151641,0.242878,0.844815,0.733997,0.267642,0.12063,0.250554
1769162052.64577,1769162052.646722,127.0,0.0,4278.077148,4281.538574,4284.871582,4303.333496,4271.538574,4265.0,4269.358887,4281.153809,4266.025879,4264.358887,4559.230957,4517.307617,4407.692383,4491.666504,,,,,,,,,,,,,,,,,,,,,,,,,,,,,,,,,,,,,,,,,,,,,,,,,,,,,,,,,,,,,,,,,,,,,,
1769162052.653578,1769162052.65473,0.0,0.0,4275.384766,4279.230957,4286.666504,4299.871582,4266.153809,4268.717773,4274.102539,4279.743652,4267.563965,4267.820313,4552.94873,4507.307617,4401.410156,4487.436035,,,,,,,,,,,,,,,,,,,,,,,,,,,,,,,,,,,,,,,,,,,,,,,,,,,,,,,,,,,,,,,,,,,,,,
1769162052.661387,1769162052.662539,1.0,0.0,4275.769043,4280.0,4287.692383,4300.512695,4263.589844,4271.282227,4278.846191,4278.205078,4264.871582,4263.846191,4555.512695,4507.692383,4402.820313,4488.589844,,,,,,,,,,,,,,,,,,,,,,,,,,,,,,,,,,,,,,,,,,,,,,,,,,,,,,,,,,,,,,,,,,,,,,
1769162052.669195,1769162052.670247,2.0,0.0,4278.205078,4282.563965,4283.205078,4298.846191,4262.563965,4265.384766,4268.717773,4279.615234,4268.846191,4262.307617,4557.05127,4511.410156,4404.230957,4493.205078,,,,,,,,,,,,,,,,,,,,,,,,,,,,,,,,,,,,,,,,,,,,,,,,,,,,,,,,,,,,,,,,,,,,,,
1769162052.677004,1769162052.678056,3.0,0.0,4278.333496,4280.128418,4279.230957,4295.769043,4259.102539,4262.436035,4265.641113,4280.512695,4276.666504,4263.205078,4553.846191,4507.94873,4403.333496,4489.871582,,,,,,,,,,,,,,,,,,,,,,,,,,,,,,,,,,,,,,,,,,,,,,,,,,,,,,,,,,,,,,,,,,,,,,
1769162052.684812,1769162052.686064,4.0,0.0,4269.358887,4276.794922,4276.666504,4294.871582,4253.974121,4266.922852,4271.922852,4277.692383,4272.05127,4262.307617,4552.94873,4505.897461,4402.692383,4478.846191,,,,,,,,,,,,,,,,,,,,,,,,,,,,,,,,,,,,,,,,,,,,,,,,,,,,,,,,,,,,,,,,,,,,,,
1769162052.692621,1769162052.693873,5.0,0.0,4262.820313,4278.846191,4274.487305,4293.974121,4251.282227,4265.769043,4271.922852,4279.102539,4269.487305,4262.179688,4555.641113,4507.563965,4403.333496,4477.307617,,,,,,,,,,,,,,,,,,,,,,,,,,,,,,,,,,,,,,,,,,,,,,,,,,,,,,,,,,,,,,,,,,,,,,
1769162052.700429,1769162052.701681,6.0,0.0,4269.102539,4276.666504,4274.615234,4293.717773,4250.384766,4261.282227,4269.743652,4291.025879,4277.94873,4263.333496,4558.461426,4507.179688,4402.563965,4489.743652,,,,,,,,,,,,,,,,,,,,,,,,,,,,,,,,,,,,,,,,,,,,,,,,,,,,,,,,,,,,,,,,,,,,,,
1769162052.708238,1769162052.709489,7.0,0.0,4269.871582,4266.153809,4273.589844,4291.282227,4245.384766,4262.307617,4270.897461,4295.0,4274.871582,4260.769043,4554.487305,4510.512695,4403.205078,4493.589844,,,,,,,,,,,,,,,,,,,,,,,,,,,,,,,,,,,,,,,,,,,,,,,,,,,,,,,,,,,,,,,,,,,,,,
1769162052.716046,1769162052.717098,8.0,0.0,4265.512695,4265.897461,4275.256348,4288.077148,4242.179688,4263.717773,4269.487305,4284.743652,4261.666504,4260.769043,4554.230957,4518.974121,4406.410156,4489.358887,,,,,,,,,,,,,,,,,,,,,,,,,,,,,,,,,,,,,,,,,,,,,,,,,,,,,,,,,,,,,,,,,,,,,,
1769162052.723854,1769162052.724906,9.0,0.0,4274.487305,4278.077148,4283.589844,4295.512695,4246.922852,4262.563965,4269.358887,4283.846191,4265.256348,4271.410156,4566.025879,4525.769043,4413.717773,4498.974121,,,,,,,,,,,,,,,,,,,,,,,,,,,,,,,,,,,,,,,,,,,,,,,,,,,,,,,,,,,,,,,,,,,,,,
1769162052.731663,1769162052.732615,10.0,0.0,4280.384766,4281.538574,4283.589844,4307.436035,4250.128418,4262.820313,4270.769043,4294.230957,4278.205078,4278.846191,4572.436035,4525.769043,4419.102539,4508.717773,,,,,,,,,,,,,,,,,,,,,,,,,,,,,,,,,,,,,,,,,,,,,,,,,,,,,,,,,,,,,,,,,,,,,,
1769162052.739471,1769162052.740423,11.0,0.0,4269.487305,4277.820313,4277.820313,4307.820313,4248.333496,4267.692383,4272.94873,4296.410156,4278.846191,4271.153809,4568.205078,4523.461426,4415.769043,4500.897461,,,,,,,,,,,,,,,,,,,,,,,,,,,,,,,,,,,,,,,,,,,,,,,,,,,,,,,,,,,,,,,,,,,,,,
1769162052.74728,1769162052.748432,12.0,0.0,4261.410156,4278.205078,4279.487305,4299.743652,4247.563965,4273.333496,4278.589844,4293.589844,4277.179688,4263.974121,4567.436035,4525.128418,4413.461426,4492.692383,,,,,,,,,,,,,,,,,,,,,,,,,,,,,,,,,,,,,,,,,,,,,,,,,,,,,,,,,,,,,,,,,,,,,,
1769162052.755088,1769162052.75624,13.0,0.0,4262.820313,4275.897461,4282.692383,4294.358887,4247.179688,4274.230957,4279.102539,4293.717773,4278.974121,4264.871582,4568.717773,4525.384766,4414.102539,4494.487305,,,,,,,,,,,,,,,,,,,,,,,,,,,,,,,,,,,,,,,,,,,,,,,,,,,,,,,,,,,,,,,,,,,,,,
1769162052.762897,1769162052.763949,14.0,0.0,4268.846191,4275.384766,4283.205078,4298.333496,4246.025879,4273.333496,4278.077148,4293.077148,4278.077148,4267.05127,4565.384766,4521.922852,4412.179688,4494.615234,1.121467,0.647267,0.357954,0.191399,0.207006,0.777941,0.551517,0.374427,0.103649,0.113563,1.213472,0.20416,0.148106,0.184147,0.072143,0.520109,0.264811,0.193857,0.07353,0.060947,0.615052,0.125299,0.165681,0.050365,0.058558,0.339252,0.323983,0.132852,0.247795,0.128023,0.322149,0.197816,0.064469,0.234689,0.102386,0.505899,0.483571,0.08104,0.14856,0.168698,0.309594,0.193559,0.057214,0.115821,0.179765,0.096661,0.120783,0.157788,0.078016,0.085455,0.363159,0.446059,0.282428,0.176913,0.172349,0.780646,0.579605,0.33509,0.168248,0.258167,0.783589,0.943248,0.567048,0.154607,0.244952,0.814547,0.689892,0.306694,0.140292,0.266792
1769162052.770705,1769162052.771757,15.0,0.0,4280.512695,4283.461426,4288.589844,4307.94873,4246.666504,4275.128418,4281.794922,4294.487305,4278.333496,4271.025879,4565.256348,4521.666504,4411.794922,4491.922852,,,,,,,,,,,,,,,,,,,,,,,,,,,,,,,,,,,,,,,,,,,,,,,,,,,,,,,,,,,,,,,,,,,,,,
1769162052.778514,1769162052.779366,16.0,0.0,4283.589844,4290.897461,4291.538574,4309.871582,4249.102539,4279.615234,4281.410156,4292.179688,4280.256348,4276.410156,4568.333496,4523.717773,4414.358887,4497.179688,,,,,,,,,,,,,,,,,,,,,,,,,,,,,,,,,,,,,,,,,,,,,,,,,,,,,,,,,,,,,,,,,,,,,,
1769162052.786322,1769162052.787174,17.0,0.0,4270.769043,4289.871582,4286.153809,4303.461426,4248.974121,4277.179688,4278.846191,4280.641113,4279.230957,4275.897461,4567.05127,4520.641113,4414.487305,4504.615234,,,,,,,,,,,,,,,,,,,,,,,,,,,,,,,,,,,,,,,,,,,,,,,,,,,,,,,,,,,,,,,,,,,,,,
1769162052.79413,1769162052.794883,18.0,0.0,4263.461426,4283.846191,4281.666504,4300.512695,4247.436035,4268.333496,4277.436035,4279.102539,4278.333496,4268.589844,4566.794922,4519.230957,4412.563965,4501.666504,,,,,,,,,,,,,,,,,,,,,,,,,,,,,,,,,,,,,,,,,,,,,,,,,,,,,,,,,,,,,,,,,,,,,,
1769162052.801939,1769162052.802691,19.0,0.0,4264.743652,4281.666504,4282.563965,4303.717773,4247.05127,4267.307617,4278.589844,4291.153809,4281.025879,4264.102539,4568.333496,4521.922852,4412.820313,4494.871582,,,,,,,,,,,,,,,,,,,,,,,,,,,,,,,,,,,,,,,,,,,,,,,,,,,,,,,,,,,,,,,,,,,,,,
1769162052.809747,1769162052.8107,20.0,0.0,4261.922852,4282.692383,4284.615234,4303.974121,4243.846191,4271.922852,4280.384766,4292.820313,4281.282227,4267.94873,4564.871582,4518.333496,4410.0,4491.153809,,,,,,,,,,,,,,,,,,,,,,,,,,,,,,,,,,,,,,,,,,,,,,,,,,,,,,,,,,,,,,,,,,,,,,
1769162052.817556,1769162052.818508,21.0,0.0,4264.487305,4280.384766,4282.820313,4297.94873,4242.05127,4271.538574,4280.128418,4285.641113,4277.179688,4273.846191,4560.384766,4515.641113,4405.897461,4489.102539,,,,,,,,,,,,,,,,,,,,,,,,,,,,,,,,,,,,,,,,,,,,,,,,,,,,,,,,,,,,,,,,,,,,,,
1769162052.825364,1769162052.826416,22.0,0.0,4272.436035,4275.512695,4281.410156,4296.025879,4242.563965,4273.461426,4279.743652,4289.102539,4280.897461,4275.128418,4564.102539,4521.666504,4408.205078,4495.512695,,,,,,,,,,,,,,,,,,,,,,,,,,,,,,,,,,,,,,,,,,,,,,,,,,,,,,,,,,,,,,,,,,,,,,
1769162052.833173,1769162052.834225,23.0,0.0,4273.077148,4279.487305,4286.922852,4301.666504,4238.205078,4276.922852,4281.025879,4296.025879,4290.0,4276.666504,4572.179688,4527.179688,4418.974121,4506.666504,,,,,,,,,,,,,,,,,,,,,,,,,,,,,,,,,,,,,,,,,,,,,,,,,,,,,,,,,,,,,,,,,,,,,,
1769162052.840981,1769162052.842233,24.0,0.0,4272.94873,4290.769043,4292.436035,4307.307617,4233.461426,4271.538574,4281.282227,4294.487305,4287.05127,4281.025879,4572.820313,4523.333496,4426.666504,4506.922852,,,,,,,,,,,,,,,,,,,,,,,,,,,,,,,,,,,,,,,,,,,,,,,,,,,,,,,,,,,,,,,,,,,,,,
1769162052.84879,1769162052.850041,25.0,0.0,4280.897461,4298.205078,4293.846191,4311.153809,4235.384766,4264.487305,4278.461426,4293.333496,4277.563965,4279.102539,4569.487305,4522.563965,4426.153809,4503.974121,,,,,,,,,,,,,,,,,,,,,,,,,,,,,,,,,,,,,,,,,,,,,,,,,,,,,,,,,,,,,,,,,,,,,,
1769162052.856598,1769162052.85795,26.0,0.0,4283.461426,4294.487305,4295.512695,4310.512695,4237.179688,4265.384766,4278.077148,4296.410156,4277.94873,4270.128418,4572.05127,4532.436035,4428.461426,4510.0,,,,,,,,,,,,,,,,,,,,,,,,,,,,,,,,,,,,,,,,,,,,,,,,,,,,,,,,,,,,,,,,,,,,,,
1769162052.864406,1769162052.865758,27.0,0.0,4277.05127,4280.384766,4296.282227,4300.256348,4232.05127,4270.512695,4283.717773,4294.358887,4280.897461,4262.94873,4573.589844,4536.538574,4430.769043,4513.461426,,,,,,,,,,,,,,,,,,,,,,,,,,,,,,,,,,,,,,,,,,,,,,,,,,,,,,,,,,,,,,,,,,,,,,
1769162052.872215,1769162052.873367,28.0,0.0,4276.025879,4274.102539,4293.461426,4292.179688,4231.025879,4271.410156,4285.0,4293.974121,4280.384766,4271.153809,4571.025879,4533.589844,4428.461426,4511.666504,,,,,,,,,,,,,,,,,,,,,,,,,,,,,,,,,,,,,,,,,,,,,,,,,,,,,,,,,,,,,,,,,,,,,,
1769162052.880023,1769162052.881175,29.0,0.0,4278.461426,4280.897461,4291.922852,4295.641113,4233.974121,4267.436035,4280.769043,4295.641113,4281.153809,4280.769043,4572.179688,4531.666504,4429.871582,4512.179688,,,,,,,,,,,,,,,,,,,,,,,,,,,,,,,,,,,,,,,,,,,,,,,,,,,,,,,,,,,,,,,,,,,,,,
1769162052.887832,1769162052.888884,30.0,0.0,4271.922852,4282.179688,4290.128418,4297.05127,4233.333496,4264.358887,4279.230957,4286.153809,4276.025879,4270.897461,4570.897461,4527.05127,4425.769043,4509.102539,0.796685,0.571558,0.357706,0.238693,0.232722,0.499868,0.465227,0.33245,0.13031,0.140265,0.992234,0.165475,0.133929,0.213734,0.073238,0.436742,0.207495,0.151101,0.086478,0.06669,0.673006,0.126963,0.146848,0.063927,0.065607,0.298996,0.31873,0.117674,0.24305,0.141372,0.314618,0.213887,0.080834,0.247416,0.118208,0.578538,0.554865,0.072514,0.138136,0.177418,0.338915,0.197002,0.070916,0.135174,0.1975,0.129363,0.072194,0.133729,0.065277,0.094407,0.39677,0.384055,0.323409,0.211831,0.177019,0.860164,0.50846,0.312244,0.191987,0.264363,0.682504,0.776073,0.577207,0.166738,0.238142,0.740738,0.62152,0.353342,0.170818,0.273792
1769162052.89564,1769162052.896692,31.0,0.0,4261.666504,4277.05127,4290.0,4296.282227,4230.897461,4262.692383,4276.153809,4277.436035,4269.743652,4260.128418,4563.077148,4521.922852,4414.358887,4503.846191,,,,,,,,,,,,,,,,,,,,,,,,,,,,,,,,,,,,,,,,,,,,,,,,,,,,,,,,,,,,,,,,,,,,,,
1769162052.903449,1769162052.904301,32.0,0.0,4265.256348,4285.256348,4300.128418,4304.743652,4232.563965,4260.897461,4271.794922,4282.94873,4270.897461,4265.769043,4563.461426,4522.94873,4417.436035,4503.205078,,,,,,,,,,,,,,,,,,,,,,,,,,,,,,,,,,,,,,,,,,,,,,,,,,,,,,,,,,,,,,,,,,,,,,
1769162052.911257,1769162052.912109,33.0,0.0,4275.0,4294.487305,4311.153809,4312.179688,4235.512695,4262.05127,4273.717773,4289.743652,4270.769043,4269.871582,4569.615234,4524.487305,4424.615234,4504.743652,,,,,,,,,,,,,,,,,,,,,,,,,,,,,,,,,,,,,,,,,,,,,,,,,,,,,,,,,,,,,,,,,,,,,,
1769162052.919066,1769162052.919818,34.0,0.0,4275.384766,4288.461426,4311.282227,4310.512695,4232.307617,4269.743652,4281.025879,4286.794922,4264.487305,4263.205078,4567.692383,4522.436035,4413.589844,4506.025879,,,,,,,,,,,,,,,,,,,,,,,,,,,,,,,,,,,,,,,,,,,,,,,,,,,,,,,,,,,,,,,,,,,,,,
1769162052.926874,1769162052.927626,35.0,0.0,4271.794922,4285.641113,4309.487305,4310.128418,4233.717773,4273.461426,4282.307617,4284.487305,4264.871582,4268.077148,4565.384766,4523.717773,4407.05127,4507.436035,,,,,,,,,,,,,,,,,,,,,,,,,,,,,,,,,,,,,,,,,,,,,,,,,,,,,,,,,,,,,,,,,,,,,,
1769162052.934682,1769162052.935635,36.0,0.0,4269.358887,4292.05127,4311.025879,4312.820313,4242.05127,4266.794922,4275.769043,4287.820313,4271.922852,4278.846191,4569.743652,4523.846191,4421.538574,4507.436035,,,,,,,,,,,,,,,,,,,,,,,,,,,,,,,,,,,,,,,,,,,,,,,,,,,,,,,,,,,,,,,,,,,,,,
1769162052.942491,1769162052.943443,37.0,0.0,4265.641113,4292.436035,4308.846191,4313.077148,4249.615234,4263.077148,4273.589844,4290.128418,4275.641113,4274.871582,4571.153809,4523.333496,4429.743652,4507.179688,,,,,,,,,,,,,,,,,,,,,,,,,,,,,,,,,,,,,,,,,,,,,,,,,,,,,,,,,,,,,,,,,,,,,,
1769162052.9503,1769162052.951351,38.0,0.0,4262.820313,4285.128418,4303.846191,4312.563965,4248.333496,4269.358887,4279.358887,4288.717773,4273.846191,4264.871582,4567.05127,4524.743652,4420.256348,4505.0,,,,,,,,,,,,,,,,,,,,,,,,,,,,,,,,,,,,,,,,,,,,,,,,,,,,,,,,,,,,,,,,,,,,,,
1769162052.958108,1769162052.95916,39.0,0.0,4265.641113,4281.282227,4304.871582,4311.410156,4238.846191,4269.358887,4281.538574,4283.974121,4269.871582,4261.025879,4566.025879,4525.256348,4411.538574,4497.94873,,,,,,,,,,,,,,,,,,,,,,,,,,,,,,,,,,,,,,,,,,,,,,,,,,,,,,,,,,,,,,,,,,,,,,
1769162052.965917,1769162052.966769,40.0,0.0,4270.128418,4281.666504,4310.512695,4310.384766,4234.102539,4260.769043,4276.794922,4280.256348,4270.769043,4264.358887,4563.974121,4524.358887,4413.333496,4492.307617,,,,,,,,,,,,,,,,,,,,,,,,,,,,,,,,,,,,,,,,,,,,,,,,,,,,,,,,,,,,,,,,,,,,,,
1769162052.973725,1769162052.974577,41.0,0.0,4270.512695,4280.769043,4309.487305,4308.077148,4235.128418,4260.256348,4277.563965,4282.94873,4275.769043,4271.025879,4559.743652,4521.538574,4413.461426,4493.717773,,,,,,,,,,,,,,,,,,,,,,,,,,,,,,,,,,,,,,,,,,,,,,,,,,,,,,,,,,,,,,,,,,,,,,
1769162052.981533,1769162052.982286,42.0,0.0,4260.897461,4272.05127,4298.589844,4299.230957,4233.846191,4264.615234,4281.666504,4286.666504,4278.077148,4273.846191,4559.871582,4519.358887,4406.538574,4494.743652,,,,,,,,,,,,,,,,,,,,,,,,,,,,,,,,,,,,,,,,,,,,,,,,,,,,,,,,,,,,,,,,,,,,,,
1769162052.989342,1769162052.990094,43.0,0.0,4249.743652,4263.077148,4290.128418,4292.692383,4232.820313,4264.615234,4280.128418,4283.205078,4276.922852,4271.282227,4561.153809,4520.769043,4404.615234,4492.692383,,,,,,,,,,,,,,,,,,,,,,,,,,,,,,,,,,,,,,,,,,,,,,,,,,,,,,,,,,,,,,,,,,,,,,
1769162052.99715,1769162052.997703,44.0,0.0,4254.358887,4268.974121,4296.025879,4301.666504,4236.282227,4261.794922,4276.282227,4276.666504,4273.589844,4270.897461,4562.05127,4524.230957,4409.102539,4493.205078,,,,,,,,,,,,,,,,,,,,,,,,,,,,,,,,,,,,,,,,,,,,,,,,,,,,,,,,,,,,,,,,,,,,,,
1769162053.004959,1769162053.005511,45.0,0.0,4264.615234,4279.615234,4305.0,4313.846191,4236.538574,4260.897461,4276.794922,4275.641113,4268.974121,4270.128418,4563.205078,4525.0,4412.692383,4494.871582,,,,,,,,,,,,,,,,,,,,,,,,,,,,,,,,,,,,,,,,,,,,,,,,,,,,,,,,,,,,,,,,,,,,,,
1769162053.012767,1769162053.013419,46.0,0.0,4266.794922,4277.94873,4306.794922,4310.897461,4234.871582,4263.974121,4280.384766,4273.333496,4263.333496,4265.769043,4560.769043,4523.589844,4411.153809,4493.589844,0.554485,0.469939,0.345435,0.285295,0.254196,0.306946,0.357418,0.285562,0.160659,0.166631,0.765538,0.144698,0.118289,0.241601,0.074084,0.39604,0.153754,0.112921,0.101942,0.073629,0.71394,0.118378,0.118398,0.078037,0.068153,0.257898,0.286913,0.098787,0.222057,0.147266,0.287969,0.215261,0.094293,0.238234,0.131174,0.599876,0.563953,0.06245,0.119346,0.179746,0.349759,0.211538,0.087914,0.14298,0.202704,0.182154,0.050236,0.119104,0.062097,0.104179,0.432871,0.344277,0.372043,0.236508,0.172892,0.951436,0.438662,0.284403,0.214739,0.257061,0.560102,0.639282,0.562131,0.180061,0.21775,0.635869,0.542565,0.401105,0.201546,0.268523
1769162053.020576,1769162053.021228,47.0,0.0,4266.153809,4274.487305,4307.307617,4307.05127,4235.641113,4265.256348,4279.230957,4268.717773,4259.743652,4264.871582,4555.641113,4521.922852,4407.179688,4491.922852,,,,,,,,,,,,,,,,,,,,,,,,,,,,,,,,,,,,,,,,,,,,,,,,,,,,,,,,,,,,,,,,,,,,,,
1769162053.028384,1769162053.029236,48.0,0.0,4266.794922,4273.846191,4307.820313,4307.692383,4234.487305,4261.410156,4275.769043,4272.692383,4262.436035,4265.897461,4555.384766,4521.666504,4404.230957,4491.410156,,,,,,,,,,,,,,,,,,,,,,,,,,,,,,,,,,,,,,,,,,,,,,,,,,,,,,,,,,,,,,,,,,,,,,
1769162053.036193,1769162053.037045,49.0,0.0,4264.230957,4270.256348,4303.846191,4302.436035,4238.846191,4267.05127,4278.717773,4280.384766,4274.487305,4266.666504,4560.384766,4523.205078,4406.025879,4493.077148,,,,,,,,,,,,,,,,,,,,,,,,,,,,,,,,,,,,,,,,,,,,,,,,,,,,,,,,,,,,,,,,,,,,,,
1769162053.044001,1769162053.044953,50.0,0.0,4261.922852,4270.897461,4302.05127,4300.0,4245.384766,4276.282227,4282.94873,4281.538574,4278.589844,4268.333496,4559.230957,4522.94873,4406.794922,4495.256348,,,,,,,,,,,,,,,,,,,,,,,,,,,,,,,,,,,,,,,,,,,,,,,,,,,,,,,,,,,,,,,,,,,,,,
1769162053.051809,1769162053.052761,51.0,0.0,4261.666504,4271.666504,4304.358887,4303.077148,4240.641113,4270.0,4276.282227,4275.641113,4267.563965,4264.102539,4554.230957,4521.282227,4400.512695,4493.974121,,,,,,,,,,,,,,,,,,,,,,,,,,,,,,,,,,,,,,,,,,,,,,,,,,,,,,,,,,,,,,,,,,,,,,
1769162053.059618,1769162053.06077,52.0,0.0,4259.615234,4267.94873,4302.692383,4303.205078,4233.205078,4259.487305,4267.05127,4268.205078,4261.794922,4253.205078,4550.769043,4518.974121,4394.358887,4491.153809,,,,,,,,,,,,,,,,,,,,,,,,,,,,,,,,,,,,,,,,,,,,,,,,,,,,,,,,,,,,,,,,,,,,,,
1769162053.067426,1769162053.068578,53.0,0.0,4260.512695,4272.05127,4299.871582,4305.128418,4234.871582,4260.256348,4264.358887,4262.820313,4262.692383,4249.358887,4548.589844,4512.820313,4396.794922,4492.692383,,,,,,,,,,,,,,,,,,,,,,,,,,,,,,,,,,,,,,,,,,,,,,,,,,,,,,,,,,,,,,,,,,,,,,
1769162053.075235,1769162053.076287,54.0,0.0,4265.128418,4284.230957,4304.743652,4311.410156,4236.538574,4263.974121,4265.769043,4259.615234,4253.077148,4251.153809,4543.077148,4506.666504,4397.307617,4492.179688,,,,,,,,,,,,,,,,,,,,,,,,,,,,,,,,,,,,,,,,,,,,,,,,,,,,,,,,,,,,,,,,,,,,,,
1769162053.083043,1769162053.084095,55.0,0.0,4260.384766,4279.487305,4308.333496,4309.230957,4234.230957,4263.461426,4271.153809,4259.743652,4245.769043,4248.205078,4536.153809,4506.538574,4391.025879,4480.769043,,,,,,,,,,,,,,,,,,,,,,,,,,,,,,,,,,,,,,,,,,,,,,,,,,,,,,,,,,,,,,,,,,,,,,
1769162053.090852,1769162053.091804,56.0,0.0,4250.256348,4266.025879,4305.897461,4303.717773,4235.0,4264.102539,4278.077148,4263.461426,4254.102539,4249.743652,4535.512695,4507.94873,4392.436035,4472.692383,,,,,,,,,,,,,,,,,,,,,,,,,,,,,,,,,,,,,,,,,,,,,,,,,,,,,,,,,,,,,,,,,,,,,,
1769162053.09866,1769162053.099612,57.0,0.0,4254.871582,4267.179688,4307.307617,4304.487305,4237.05127,4265.897461,4279.615234,4266.282227,4262.05127,4260.0,4542.563965,4510.384766,4396.538574,4481.410156,,,,,,,,,,,,,,,,,,,,,,,,,,,,,,,,,,,,,,,,,,,,,,,,,,,,,,,,,,,,,,,,,,,,,,
1769162053.106469,1769162053.107321,58.0,0.0,4260.897461,4269.358887,4308.717773,4303.846191,4235.769043,4265.0,4275.897461,4263.974121,4261.794922,4264.102539,4550.641113,4515.256348,4393.717773,4484.358887,,,,,,,,,,,,,,,,,,,,,,,,,,,,,,,,,,,,,,,,,,,,,,,,,,,,,,,,,,,,,,,,,,,,,,
1769162053.114277,1769162053.115129,59.0,0.0,4253.974121,4264.102539,4304.358887,4302.179688,4232.94873,4262.94873,4273.846191,4263.974121,4262.563965,4260.641113,4554.230957,4518.205078,4401.282227,4475.897461,,,,,,,,,,,,,,,,,,,,,,,,,,,,,,,,,,,,,,,,,,,,,,,,,,,,,,,,,,,,,,,,,,,,,,
1769162053.122085,1769162053.122738,60.0,0.0,4252.820313,4267.307617,4304.487305,4305.0,4234.743652,4263.846191,4275.512695,4267.436035,4268.589844,4263.461426,4554.615234,4519.230957,4413.846191,4482.94873,,,,,,,,,,,,,,,,,,,,,,,,,,,,,,,,,,,,,,,,,,,,,,,,,,,,,,,,,,,,,,,,,,,,,,
1769162053.129894,1769162053.130546,61.0,0.0,4260.769043,4276.666504,4307.94873,4306.538574,4236.410156,4266.410156,4277.563965,4265.897461,4271.025879,4268.077148,4554.615234,4521.922852,4408.461426,4491.538574,,,,,,,,,,,,,,,,,,,,,,,,,,,,,,,,,,,,,,,,,,,,,,,,,,,,,,,,,,,,,,,,,,,,,,
1769162053.137702,1769162053.138255,62.0,0.0,4259.230957,4270.256348,4306.538574,4304.230957,4235.128418,4264.487305,4278.717773,4262.179688,4266.153809,4263.205078,4552.820313,4521.153809,4395.512695,4481.922852,0.421771,0.371275,0.327957,0.329666,0.264404,0.217675,0.262359,0.255092,0.194135,0.187195,0.57711,0.141348,0.108466,0.26582,0.073736,0.411522,0.116025,0.088605,0.12329,0.080917,0.764352,0.102979,0.09051,0.089295,0.065466,0.233286,0.23802,0.079771,0.192671,0.143253,0.252719,0.204869,0.099625,0.213405,0.139265,0.565445,0.509656,0.053286,0.099004,0.177144,0.356086,0.230247,0.109781,0.1386,0.196255,0.242131,0.047057,0.119457,0.07198,0.112537,0.461239,0.330263,0.41438,0.245077,0.161021,1.031439,0.382994,0.254438,0.231873,0.235943,0.44281,0.549156,0.529026,0.189754,0.186184,0.545267,0.462365,0.445439,0.223758,0.252731
1769162053.145511,1769162053.146063,63.0,0.0,4255.641113,4262.820313,4306.666504,4306.410156,4239.102539,4265.512695,4278.717773,4261.410156,4260.769043,4258.461426,4550.769043,4516.410156,4399.487305,4480.769043,,,,,,,,,,,,,,,,,,,,,,,,,,,,,,,,,,,,,,,,,,,,,,,,,,,,,,,,,,,,,,,,,,,,,,
1769162053.153319,1769162053.154071,64.0,0.0,4260.769043,4272.94873,4311.153809,4310.897461,4245.769043,4269.230957,4278.974121,4262.94873,4264.487305,4263.205078,4553.461426,4519.102539,4409.743652,4493.846191,,,,,,,,,,,,,,,,,,,,,,,,,,,,,,,,,,,,,,,,,,,,,,,,,,,,,,,,,,,,,,,,,,,,,,
1769162053.161128,1769162053.16188,65.0,0.0,4262.179688,4280.384766,4312.307617,4312.692383,4248.461426,4268.589844,4278.333496,4264.615234,4270.256348,4261.153809,4555.0,4523.205078,4410.897461,4493.205078,,,,,,,,,,,,,,,,,,,,,,,,,,,,,,,,,,,,,,,,,,,,,,,,,,,,,,,,,,,,,,,,,,,,,,
1769162053.168936,1769162053.169588,66.0,0.0,4262.692383,4278.205078,4312.563965,4315.641113,4249.358887,4267.05127,4278.717773,4264.871582,4266.153809,4256.922852,4554.230957,4522.05127,4409.358887,4490.0,,,,,,,,,,,,,,,,,,,,,,,,,,,,,,,,,,,,,,,,,,,,,,,,,,,,,,,,,,,,,,,,,,,,,,
1769162053.176745,1769162053.177397,67.0,0.0,4271.794922,4280.641113,4316.922852,4320.256348,4251.538574,4264.487305,4278.589844,4263.589844,4264.615234,4266.282227,4560.512695,4529.487305,4414.358887,4501.538574,,,,,,,,,,,,,,,,,,,,,,,,,,,,,,,,,,,,,,,,,,,,,,,,,,,,,,,,,,,,,,,,,,,,,,
1769162053.184553,1769162053.185005,68.0,0.0,4276.922852,4283.589844,4321.153809,4322.436035,4251.282227,4265.128418,4278.205078,4265.384766,4271.794922,4272.436035,4568.974121,4536.794922,4422.179688,4510.128418,,,,,,,,,,,,,,,,,,,,,,,,,,,,,,,,,,,,,,,,,,,,,,,,,,,,,,,,,,,,,,,,,,,,,,
1769162053.192361,1769162053.192814,69.0,0.0,4273.717773,4280.897461,4321.153809,4321.922852,4250.897461,4270.128418,4282.05127,4268.205078,4272.820313,4268.077148,4569.487305,4529.871582,4425.128418,4510.256348,,,,,,,,,,,,,,,,,,,,,,,,,,,,,,,,,,,,,,,,,,,,,,,,,,,,,,,,,,,,,,,,,,,,,,
1769162053.20017,1769162053.200522,70.0,0.0,4274.487305,4283.589844,4317.94873,4321.410156,4252.307617,4268.846191,4281.666504,4266.025879,4268.461426,4270.256348,4567.436035,4523.846191,4425.256348,4509.102539,,,,,,,,,,,,,,,,,,,,,,,,,,,,,,,,,,,,,,,,,,,,,,,,,,,,,,,,,,,,,,,,,,,,,,
1769162053.207978,1769162053.208331,71.0,0.0,4274.615234,4289.615234,4311.794922,4323.589844,4250.641113,4268.333496,4279.230957,4265.256348,4274.230957,4277.307617,4569.102539,4525.256348,4424.487305,4507.692383,,,,,,,,,,,,,,,,,,,,,,,,,,,,,,,,,,,,,,,,,,,,,,,,,,,,,,,,,,,,,,,,,,,,,,
1769162053.215787,1769162053.216339,72.0,0.0,4266.025879,4289.487305,4309.102539,4326.153809,4251.922852,4277.563965,4284.871582,4275.384766,4282.05127,4277.820313,4569.743652,4525.0,4424.743652,4507.563965,,,,,,,,,,,,,,,,,,,,,,,,,,,,,,,,,,,,,,,,,,,,,,,,,,,,,,,,,,,,,,,,,,,,,,
1769162053.223595,1769162053.224148,73.0,0.0,4265.512695,4288.461426,4316.282227,4325.384766,4255.0,4274.230957,4284.358887,4280.512695,4280.769043,4277.05127,4570.0,4530.384766,4428.717773,4509.358887,,,,,,,,,,,,,,,,,,,,,,,,,,,,,,,,,,,,,,,,,,,,,,,,,,,,,,,,,,,,,,,,,,,,,,
1769162053.231404,1769162053.232056,74.0,0.0,4275.384766,4289.102539,4319.615234,4324.487305,4252.307617,4262.307617,4277.179688,4270.769043,4278.846191,4277.05127,4570.0,4534.102539,4426.410156,4508.846191,,,,,,,,,,,,,,,,,,,,,,,,,,,,,,,,,,,,,,,,,,,,,,,,,,,,,,,,,,,,,,,,,,,,,,
1769162053.239212,1769162053.239864,75.0,0.0,4279.230957,4290.769043,4311.282227,4325.897461,4249.615234,4267.563965,4280.769043,4269.230957,4279.230957,4278.077148,4569.230957,4524.871582,4416.794922,4507.05127,,,,,,,,,,,,,,,,,,,,,,,,,,,,,,,,,,,,,,,,,,,,,,,,,,,,,,,,,,,,,,,,,,,,,,
1769162053.247021,1769162053.247873,76.0,0.0,4273.333496,4291.282227,4307.179688,4326.794922,4254.743652,4275.384766,4286.538574,4281.794922,4281.153809,4278.077148,4567.692383,4520.897461,4412.820313,4507.563965,,,,,,,,,,,,,,,,,,,,,,,,,,,,,,,,,,,,,,,,,,,,,,,,,,,,,,,,,,,,,,,,,,,,,,
1769162053.254829,1769162053.255681,77.0,0.0,4265.769043,4287.05127,4310.0,4326.922852,4260.0,4272.563965,4282.179688,4280.256348,4282.307617,4273.333496,4562.692383,4524.743652,4413.974121,4504.358887,,,,,,,,,,,,,,,,,,,,,,,,,,,,,,,,,,,,,,,,,,,,,,,,,,,,,,,,,,,,,,,,,,,,,,
1769162053.262638,1769162053.263589,78.0,0.0,4267.436035,4283.205078,4309.358887,4324.743652,4260.0,4274.230957,4278.717773,4268.846191,4278.846191,4265.128418,4561.025879,4524.358887,4412.563965,4497.563965,0.392775,0.303549,0.312307,0.373135,0.259607,0.212732,0.206403,0.25488,0.230504,0.199234,0.46434,0.15378,0.10978,0.285963,0.072126,0.476599,0.105082,0.084839,0.15392,0.088089,0.823922,0.087671,0.071035,0.095805,0.059038,0.23776,0.189744,0.063021,0.164271,0.130657,0.223773,0.191795,0.094887,0.183677,0.141083,0.494737,0.422401,0.047206,0.085026,0.172271,0.374897,0.250921,0.135516,0.127469,0.182532,0.296784,0.058394,0.130725,0.097932,0.119044,0.474411,0.334773,0.432448,0.236409,0.145257,1.086746,0.355193,0.227458,0.239434,0.20557,0.370817,0.504021,0.486599,0.193316,0.152954,0.49244,0.388702,0.484373,0.232148,0.230854
1769162053.270446,1769162053.271398,79.0,0.0,4272.820313,4283.461426,4310.128418,4322.94873,4261.666504,4275.128418,4280.769043,4270.128418,4276.410156,4260.0,4563.077148,4522.436035,4410.0,4493.077148,,,,,,,,,,,,,,,,,,,,,,,,,,,,,,,,,,,,,,,,,,,,,,,,,,,,,,,,,,,,,,,,,,,,,,
1769162053.278254,1769162053.279106,80.0,0.0,4267.94873,4282.179688,4313.077148,4324.743652,4263.461426,4266.922852,4278.333496,4270.384766,4278.205078,4268.717773,4559.230957,4522.05127,4411.282227,4491.410156,,,,,,,,,,,,,,,,,,,,,,,,,,,,,,,,,,,,,,,,,,,,,,,,,,,,,,,,,,,,,,,,,,,,,,
1769162053.286063,1769162053.286915,81.0,0.0,4260.384766,4279.487305,4306.282227,4320.641113,4260.128418,4266.538574,4276.666504,4264.615234,4277.94873,4277.179688,4554.230957,4521.153809,4410.0,4491.025879,,,,,,,,,,,,,,,,,,,,,,,,,,,,,,,,,,,,,,,,,,,,,,,,,,,,,,,,,,,,,,,,,,,,,,
1769162053.293872,1769162053.294623,82.0,0.0,4261.025879,4278.205078,4300.384766,4312.94873,4257.94873,4276.282227,4278.333496,4269.487305,4273.589844,4267.179688,4555.0,4523.205078,4405.769043,4490.0,,,,,,,,,,,,,,,,,,,,,,,,,,,,,,,,,,,,,,,,,,,,,,,,,,,,,,,,,,,,,,,,,,,,,,
1769162053.30168,1769162053.302432,83.0,0.0,4262.563965,4279.102539,4304.358887,4317.05127,4262.05127,4277.94873,4280.128418,4274.102539,4271.922852,4260.256348,4555.384766,4524.358887,4405.897461,4489.102539,,,,,,,,,,,,,,,,,,,,,,,,,,,,,,,,,,,,,,,,,,,,,,,,,,,,,,,,,,,,,,,,,,,,,,
1769162053.309488,1769162053.310041,84.0,0.0,4262.820313,4284.102539,4308.589844,4324.743652,4267.179688,4273.461426,4280.641113,4270.256348,4276.794922,4272.94873,4558.077148,4523.205078,4416.025879,4497.05127,,,,,,,,,,,,,,,,,,,,,,,,,,,,,,,,,,,,,,,,,,,,,,,,,,,,,,,,,,,,,,,,,,,,,,
1769162053.317297,1769162053.317849,85.0,0.0,4269.358887,4289.615234,4310.256348,4325.128418,4268.205078,4273.077148,4278.846191,4272.436035,4280.256348,4279.358887,4565.897461,4530.256348,4425.384766,4508.974121,,,,,,,,,,,,,,,,,,,,,,,,,,,,,,,,,,,,,,,,,,,,,,,,,,,,,,,,,,,,,,,,,,,,,,
1769162053.325105,1769162053.325558,86.0,0.0,4276.153809,4289.230957,4312.307617,4325.256348,4267.05127,4276.410156,4281.025879,4280.128418,4279.230957,4274.871582,4570.0,4539.102539,4426.153809,4510.384766,,,,,,,,,,,,,,,,,,,,,,,,,,,,,,,,,,,,,,,,,,,,,,,,,,,,,,,,,,,,,,,,,,,,,,
1769162053.332914,1769162053.333366,87.0,0.0,4275.128418,4289.230957,4311.538574,4326.922852,4265.128418,4274.615234,4284.615234,4278.333496,4278.717773,4276.410156,4569.743652,4538.461426,4426.153809,4505.384766,,,,,,,,,,,,,,,,,,,,,,,,,,,,,,,,,,,,,,,,,,,,,,,,,,,,,,,,,,,,,,,,,,,,,,
1769162053.340722,1769162053.341374,88.0,0.0,4272.05127,4290.256348,4313.846191,4325.641113,4263.589844,4269.358887,4281.282227,4274.615234,4278.717773,4273.205078,4568.974121,4534.615234,4425.897461,4505.256348,,,,,,,,,,,,,,,,,,,,,,,,,,,,,,,,,,,,,,,,,,,,,,,,,,,,,,,,,,,,,,,,,,,,,,
1769162053.348531,1769162053.349183,89.0,0.0,4275.512695,4288.461426,4319.487305,4325.897461,4264.871582,4272.820313,4279.871582,4276.538574,4278.077148,4268.333496,4568.717773,4536.922852,4423.717773,4508.077148,,,,,,,,,,,,,,,,,,,,,,,,,,,,,,,,,,,,,,,,,,,,,,,,,,,,,,,,,,,,,,,,,,,,,,
1769162053.356339,1769162053.357091,90.0,0.0,4279.615234,4287.436035,4316.025879,4325.512695,4266.025879,4276.282227,4286.538574,4278.205078,4278.717773,4273.846191,4569.743652,4539.102539,4426.410156,4510.256348,,,,,,,,,,,,,,,,,,,,,,,,,,,,,,,,,,,,,,,,,,,,,,,,,,,,,,,,,,,,,,,,,,,,,,
1769162053.364148,1769162053.364899,91.0,0.0,4276.410156,4288.846191,4309.102539,4320.897461,4265.256348,4269.743652,4286.538574,4276.025879,4278.589844,4277.179688,4570.128418,4535.384766,4428.461426,4508.846191,,,,,,,,,,,,,,,,,,,,,,,,,,,,,,,,,,,,,,,,,,,,,,,,,,,,,,,,,,,,,,,,,,,,,,
1769162053.371956,1769162053.372508,92.0,0.0,4274.102539,4287.179688,4310.256348,4319.102539,4264.358887,4266.538574,4278.717773,4274.487305,4277.179688,4272.692383,4567.692383,4531.922852,4423.077148,4507.563965,,,,,,,,,,,,,,,,,,,,,,,,,,,,,,,,,,,,,,,,,,,,,,,,,,,,,,,,,,,,,,,,,,,,,,
1769162053.379764,1769162053.380317,93.0,0.0,4278.589844,4287.94873,4312.563965,4322.820313,4264.230957,4268.589844,4277.307617,4275.256348,4278.589844,4275.512695,4570.897461,4532.05127,4425.384766,4512.94873,,,,,,,,,,,,,,,,,,,,,,,,,,,,,,,,,,,,,,,,,,,,,,,,,,,,,,,,,,,,,,,,,,,,,,
1769162053.387573,1769162053.388025,94.0,0.0,4279.102539,4289.487305,4311.922852,4324.615234,4264.230957,4266.538574,4278.077148,4274.615234,4278.974121,4269.230957,4570.641113,4529.358887,4428.461426,4515.128418,0.42512,0.281606,0.303702,0.4164,0.241219,0.256652,0.196967,0.285078,0.267973,0.203899,0.420431,0.178468,0.126993,0.301169,0.069898,0.564598,0.126861,0.105415,0.193775,0.094759,0.89529,0.081781,0.064044,0.098255,0.051765,0.268728,0.157999,0.049185,0.144684,0.114105,0.205606,0.18326,0.082909,0.160179,0.136249,0.416259,0.344109,0.044513,0.083071,0.166992,0.418117,0.272705,0.167271,0.119818,0.167125,0.34354,0.085488,0.143837,0.139794,0.12449,0.473915,0.348789,0.416293,0.215192,0.129831,1.106161,0.358463,0.206458,0.235606,0.172516,0.359251,0.497141,0.438383,0.190041,0.129486,0.49377,0.332242,0.514537,0.225955,0.20802
1769162053.395381,1769162053.395834,95.0,0.0,4268.589844,4280.897461,4311.666504,4320.128418,4262.820313,4268.846191,4278.717773,4275.128418,4274.743652,4251.794922,4558.974121,4524.615234,4411.410156,4506.410156,,,,,,,,,,,,,,,,,,,,,,,,,,,,,,,,,,,,,,,,,,,,,,,,,,,,,,,,,,,,,,,,,,,,,,
1769162053.40319,1769162053.403442,96.0,0.0,4262.820313,4276.538574,4308.333496,4318.846191,4264.487305,4276.794922,4281.922852,4280.384766,4278.205078,4260.897461,4558.461426,4523.717773,4403.717773,4502.94873,,,,,,,,,,,,,,,,,,,,,,,,,,,,,,,,,,,,,,,,,,,,,,,,,,,,,,,,,,,,,,,,,,,,,,
1769162053.410998,1769162053.411251,97.0,0.0,4271.282227,4288.461426,4307.563965,4325.256348,4272.563965,4275.641113,4280.384766,4281.794922,4286.922852,4284.358887,4571.410156,4525.128418,4421.666504,4511.666504,,,,,,,,,,,,,,,,,,,,,,,,,,,,,,,,,,,,,,,,,,,,,,,,,,,,,,,,,,,,,,,,,,,,,,
1769162053.418807,1769162053.419159,98.0,0.0,4277.820313,4294.615234,4314.487305,4328.205078,4274.871582,4272.179688,4279.487305,4277.820313,4284.743652,4283.461426,4573.205078,4528.461426,4428.974121,4509.102539,,,,,,,,,,,,,,,,,,,,,,,,,,,,,,,,,,,,,,,,,,,,,,,,,,,,,,,,,,,,,,,,,,,,,,
1769162053.426615,1769162053.426967,99.0,0.0,4276.922852,4288.333496,4320.512695,4325.256348,4268.461426,4274.102539,4281.666504,4277.692383,4277.05127,4274.102539,4568.717773,4536.794922,4421.410156,4503.461426,,,,,,,,,,,,,,,,,,,,,,,,,,,,,,,,,,,,,,,,,,,,,,,,,,,,,,,,,,,,,,,,,,,,,,
1769162053.434424,1769162053.434976,100.0,0.0,4277.563965,4288.589844,4320.641113,4324.743652,4268.461426,4274.615234,4280.0,4279.615234,4278.205078,4280.128418,4573.717773,4537.94873,4428.077148,4518.974121,,,,,,,,,,,,,,,,,,,,,,,,,,,,,,,,,,,,,,,,,,,,,,,,,,,,,,,,,,,,,,,,,,,,,,
1769162053.442232,1769162053.442784,101.0,0.0,4276.666504,4287.820313,4319.102539,4325.641113,4276.025879,4278.974121,4282.94873,4277.436035,4280.256348,4277.563965,4573.461426,4524.871582,4431.794922,4524.102539,,,,,,,,,,,,,,,,,,,,,,,,,,,,,,,,,,,,,,,,,,,,,,,,,,,,,,,,,,,,,,,,,,,,,,
1769162053.45004,1769162053.450692,102.0,0.0,4275.256348,4281.666504,4320.256348,4324.871582,4276.922852,4283.461426,4288.974121,4276.922852,4275.897461,4266.410156,4566.794922,4522.05127,4420.0,4508.974121,,,,,,,,,,,,,,,,,,,,,,,,,,,,,,,,,,,,,,,,,,,,,,,,,,,,,,,,,,,,,,,,,,,,,,
1769162053.457849,1769162053.458501,103.0,0.0,4278.077148,4285.256348,4321.153809,4325.0,4273.846191,4277.05127,4284.743652,4280.769043,4276.922852,4271.282227,4568.461426,4532.05127,4421.538574,4513.589844,,,,,,,,,,,,,,,,,,,,,,,,,,,,,,,,,,,,,,,,,,,,,,,,,,,,,,,,,,,,,,,,,,,,,,
1769162053.465657,1769162053.466509,104.0,0.0,4278.846191,4291.794922,4321.538574,4324.358887,4275.769043,4268.589844,4277.05127,4281.666504,4280.897461,4278.333496,4571.538574,4530.384766,4427.436035,4527.05127,,,,,,,,,,,,,,,,,,,,,,,,,,,,,,,,,,,,,,,,,,,,,,,,,,,,,,,,,,,,,,,,,,,,,,
1769162053.473466,1769162053.474318,105.0,0.0,4276.922852,4290.641113,4322.307617,4325.897461,4272.94873,4269.230957,4282.436035,4278.717773,4277.05127,4271.922852,4569.102539,4522.94873,4416.794922,4515.0,,,,,,,,,,,,,,,,,,,,,,,,,,,,,,,,,,,,,,,,,,,,,,,,,,,,,,,,,,,,,,,,,,,,,,
1769162053.481274,1769162053.482026,106.0,0.0,4278.461426,4290.384766,4323.846191,4327.307617,4266.153809,4273.589844,4291.922852,4277.05127,4272.692383,4263.077148,4563.717773,4524.230957,4411.410156,4502.05127,,,,,,,,,,,,,,,,,,,,,,,,,,,,,,,,,,,,,,,,,,,,,,,,,,,,,,,,,,,,,,,,,,,,,,
1769162053.489083,1769162053.489835,107.0,0.0,4279.871582,4293.974121,4325.897461,4327.94873,4270.897461,4277.436035,4289.102539,4278.077148,4274.743652,4265.641113,4564.743652,4529.487305,4413.205078,4510.897461,,,,,,,,,,,,,,,,,,,,,,,,,,,,,,,,,,,,,,,,,,,,,,,,,,,,,,,,,,,,,,,,,,,,,,
1769162053.496891,1769162053.497443,108.0,0.0,4279.230957,4294.487305,4326.410156,4330.897461,4280.0,4277.820313,4279.615234,4277.179688,4274.230957,4270.641113,4570.128418,4531.025879,4402.179688,4517.179688,,,,,,,,,,,,,,,,,,,,,,,,,,,,,,,,,,,,,,,,,,,,,,,,,,,,,,,,,,,,,,,,,,,,,,
1769162053.5047,1769162053.505252,109.0,0.0,4281.922852,4290.641113,4324.871582,4330.512695,4280.256348,4271.666504,4277.307617,4275.897461,4268.461426,4268.077148,4565.769043,4527.820313,4386.410156,4513.205078,,,,,,,,,,,,,,,,,,,,,,,,,,,,,,,,,,,,,,,,,,,,,,,,,,,,,,,,,,,,,,,,,,,,,,
1769162053.512508,1769162053.51296,110.0,0.0,4277.94873,4283.333496,4323.589844,4326.538574,4278.077148,4271.538574,4281.922852,4276.282227,4266.410156,4263.717773,4556.153809,4523.077148,4382.94873,4504.487305,0.454006,0.294831,0.303153,0.455024,0.215315,0.31562,0.216796,0.330675,0.30183,0.204229,0.421136,0.209746,0.159959,0.309447,0.06809,0.647112,0.175682,0.147072,0.236345,0.100151,0.955086,0.092188,0.069216,0.098943,0.046271,0.309714,0.149528,0.038645,0.13761,0.099331,0.202362,0.182541,0.070566,0.149109,0.125588,0.357543,0.309107,0.047481,0.093565,0.161972,0.486791,0.297085,0.208311,0.123901,0.154234,0.390508,0.137159,0.15344,0.191635,0.130435,0.483371,0.369334,0.374806,0.189484,0.117014,1.096585,0.384143,0.195292,0.22205,0.141799,0.424027,0.525369,0.386571,0.181451,0.122616,0.559966,0.295678,0.53015,0.208967,0.188142
1769162053.520316,1769162053.520769,111.0,0.0,4266.410156,4279.230957,4324.102539,4325.0,4277.692383,4273.846191,4280.0,4269.358887,4265.384766,4262.563965,4554.358887,4520.897461,4382.692383,4493.717773,,,,,,,,,,,,,,,,,,,,,,,,,,,,,,,,,,,,,,,,,,,,,,,,,,,,,,,,,,,,,,,,,,,,,,
1769162053.528125,1769162053.528377,112.0,0.0,4263.333496,4281.794922,4322.820313,4324.871582,4274.871582,4269.230957,4277.179688,4261.794922,4262.05127,4262.307617,4557.94873,4521.410156,4382.179688,4494.102539,,,,,,,,,,,,,,,,,,,,,,,,,,,,,,,,,,,,,,,,,,,,,,,,,,,,,,,,,,,,,,,,,,,,,,
1769162053.535933,1769162053.536186,113.0,0.0,4267.563965,4282.820313,4321.282227,4324.487305,4274.358887,4271.666504,4284.102539,4269.871582,4260.512695,4261.794922,4555.128418,4520.897461,4385.384766,4503.333496,,,,,,,,,,,,,,,,,,,,,,,,,,,,,,,,,,,,,,,,,,,,,,,,,,,,,,,,,,,,,,,,,,,,,,
1769162053.543742,1769162053.544094,114.0,0.0,4266.282227,4280.641113,4323.077148,4325.512695,4277.436035,4278.589844,4287.563965,4282.05127,4264.358887,4263.589844,4554.487305,4523.846191,4391.410156,4506.922852,,,,,,,,,,,,,,,,,,,,,,,,,,,,,,,,,,,,,,,,,,,,,,,,,,,,,,,,,,,,,,,,,,,,,,
1769162053.55155,1769162053.551903,115.0,0.0,4262.436035,4280.384766,4325.256348,4324.743652,4279.358887,4277.820313,4285.897461,4280.512695,4269.487305,4264.615234,4560.897461,4523.846191,4395.512695,4507.307617,,,,,,,,,,,,,,,,,,,,,,,,,,,,,,,,,,,,,,,,,,,,,,,,,,,,,,,,,,,,,,,,,,,,,,
1769162053.559359,1769162053.559911,116.0,0.0,4265.512695,4283.589844,4326.410156,4324.615234,4280.769043,4275.641113,4283.333496,4276.794922,4269.615234,4266.538574,4562.05127,4523.461426,4392.436035,4508.461426,,,,,,,,,,,,,,,,,,,,,,,,,,,,,,,,,,,,,,,,,,,,,,,,,,,,,,,,,,,,,,,,,,,,,,
1769162053.567167,1769162053.567719,117.0,0.0,4261.025879,4281.282227,4321.666504,4323.333496,4281.282227,4277.563965,4283.717773,4281.794922,4267.05127,4265.897461,4555.897461,4524.230957,4383.333496,4499.230957,,,,,,,,,,,,,,,,,,,,,,,,,,,,,,,,,,,,,,,,,,,,,,,,,,,,,,,,,,,,,,,,,,,,,,
1769162053.574976,1769162053.575628,118.0,0.0,4248.589844,4270.897461,4311.538574,4313.846191,4278.717773,4279.230957,4289.743652,4280.769043,4263.333496,4256.025879,4549.487305,4512.820313,4375.256348,4487.179688,,,,,,,,,,,,,,,,,,,,,,,,,,,,,,,,,,,,,,,,,,,,,,,,,,,,,,,,,,,,,,,,,,,,,,
1769162053.582784,1769162053.583436,119.0,0.0,4252.94873,4273.077148,4311.153809,4313.589844,4279.743652,4272.692383,4285.769043,4274.230957,4262.179688,4255.0,4551.666504,4509.358887,4383.205078,4498.077148,,,,,,,,,,,,,,,,,,,,,,,,,,,,,,,,,,,,,,,,,,,,,,,,,,,,,,,,,,,,,,,,,,,,,,
1769162053.590593,1769162053.591045,120.0,0.0,4267.05127,4286.410156,4323.333496,4326.025879,4285.512695,4260.512695,4276.410156,4274.230957,4265.641113,4265.0,4557.179688,4521.922852,4394.230957,4509.743652,,,,,,,,,,,,,,,,,,,,,,,,,,,,,,,,,,,,,,,,,,,,,,,,,,,,,,,,,,,,,,,,,,,,,,
1769162053.598401,1769162053.598853,121.0,0.0,4266.025879,4285.897461,4328.461426,4328.589844,4285.384766,4265.641113,4285.384766,4278.077148,4265.256348,4265.897461,4554.743652,4524.358887,4390.641113,4504.487305,,,,,,,,,,,,,,,,,,,,,,,,,,,,,,,,,,,,,,,,,,,,,,,,,,,,,,,,,,,,,,,,,,,,,,
1769162053.606209,1769162053.606562,122.0,0.0,4260.256348,4277.692383,4325.897461,4323.589844,4281.410156,4278.846191,4293.205078,4278.205078,4263.717773,4262.307617,4555.897461,4520.384766,4389.230957,4511.538574,,,,,,,,,,,,,,,,,,,,,,,,,,,,,,,,,,,,,,,,,,,,,,,,,,,,,,,,,,,,,,,,,,,,,,
1769162053.614018,1769162053.61437,123.0,0.0,4264.487305,4279.358887,4326.410156,4324.358887,4281.282227,4271.282227,4280.256348,4276.282227,4266.282227,4266.282227,4561.410156,4525.897461,4396.922852,4523.461426,,,,,,,,,,,,,,,,,,,,,,,,,,,,,,,,,,,,,,,,,,,,,,,,,,,,,,,,,,,,,,,,,,,,,,
1769162053.621826,1769162053.622378,124.0,0.0,4265.641113,4280.769043,4326.794922,4325.512695,4282.307617,4265.256348,4274.102539,4276.794922,4269.615234,4268.846191,4560.769043,4527.179688,4397.179688,4513.717773,,,,,,,,,,,,,,,,,,,,,,,,,,,,,,,,,,,,,,,,,,,,,,,,,,,,,,,,,,,,,,,,,,,,,,
1769162053.629635,1769162053.630187,125.0,0.0,4263.333496,4277.179688,4325.128418,4325.769043,4283.974121,4277.307617,4280.897461,4276.666504,4273.205078,4268.717773,4557.179688,4522.563965,4393.589844,4503.846191,,,,,,,,,,,,,,,,,,,,,,,,,,,,,,,,,,,,,,,,,,,,,,,,,,,,,,,,,,,,,,,,,,,,,,
1769162053.637443,1769162053.638095,126.0,0.0,4264.615234,4279.230957,4325.128418,4327.307617,4288.717773,4282.436035,4283.589844,4278.717773,4275.769043,4269.871582,4559.871582,4524.615234,4396.410156,4509.487305,0.485434,0.323499,0.308455,0.479883,0.189917,0.384492,0.242503,0.37084,0.326123,0.202709,0.442756,0.242712,0.20276,0.3086,0.067727,0.706238,0.236677,0.20034,0.27078,0.103289,0.975436,0.119712,0.082579,0.100618,0.043851,0.338319,0.159142,0.031265,0.142448,0.090721,0.206746,0.186936,0.06326,0.149291,0.111295,0.329654,0.326479,0.058634,0.112275,0.157107,0.569584,0.324354,0.255479,0.141189,0.145269,0.444757,0.222581,0.161282,0.246038,0.139054,0.538759,0.398908,0.329206,0.166089,0.106946,1.077824,0.414141,0.199715,0.20318,0.116496,0.576495,0.591567,0.336777,0.171577,0.132435,0.729248,0.280037,0.52982,0.186926,0.174185
1769162053.645252,1769162053.645904,127.0,0.0,4262.563965,4280.128418,4324.743652,4323.974121,4286.410156,4278.333496,4285.641113,4280.0,4270.384766,4264.743652,4558.717773,4524.743652,4395.512695,4508.333496,,,,,,,,,,,,,,,,,,,,,,,,,,,,,,,,,,,,,,,,,,,,,,,,,,,,,,,,,,,,,,,,,,,,,,
1769162053.65306,1769162053.653912,0.0,0.0,4262.179688,4278.461426,4325.641113,4323.205078,4282.94873,4278.846191,4282.94873,4272.692383,4264.743652,4261.538574,4555.256348,4523.461426,4393.974121,4503.717773,,,,,,,,,,,,,,,,,,,,,,,,,,,,,,,,,,,,,,,,,,,,,,,,,,,,,,,,,,,,,,,,,,,,,,
1769162053.660869,1769162053.66172,1.0,0.0,4265.769043,4279.358887,4326.538574,4325.256348,4286.922852,4277.820313,4277.436035,4266.282227,4266.410156,4266.025879,4559.871582,4525.256348,4399.102539,4507.436035,,,,,,,,,,,,,,,,,,,,,,,,,,,,,,,,,,,,,,,,,,,,,,,,,,,,,,,,,,,,,,,,,,,,,,
1769162053.668677,1769162053.669429,2.0,0.0,4265.769043,4276.025879,4319.743652,4320.128418,4283.589844,4276.282227,4281.025879,4264.871582,4266.666504,4266.922852,4558.717773,4522.05127,4397.307617,4506.922852,,,,,,,,,,,,,,,,,,,,,,,,,,,,,,,,,,,,,,,,,,,,,,,,,,,,,,,,,,,,,,,,,,,,,,
1769162053.676486,1769162053.677237,3.0,0.0,4263.077148,4272.307617,4313.974121,4317.179688,4279.230957,4277.563965,4281.794922,4266.410156,4268.461426,4266.282227,4553.974121,4520.256348,4393.205078,4505.256348,,,,,,,,,,,,,,,,,,,,,,,,,,,,,,,,,,,,,,,,,,,,,,,,,,,,,,,,,,,,,,,,,,,,,,
1769162053.684294,1769162053.684846,4.0,0.0,4263.333496,4276.153809,4318.461426,4324.102539,4287.692383,4276.666504,4275.512695,4272.436035,4275.384766,4273.717773,4562.179688,4530.769043,4402.436035,4509.615234,,,,,,,,,,,,,,,,,,,,,,,,,,,,,,,,,,,,,,,,,,,,,,,,,,,,,,,,,,,,,,,,,,,,,,
1769162053.692103,1769162053.692654,5.0,0.0,4264.358887,4280.0,4322.820313,4327.94873,4290.384766,4276.922852,4282.05127,4279.743652,4279.743652,4278.461426,4572.05127,4536.025879,4411.153809,4512.179688,,,,,,,,,,,,,,,,,,,,,,,,,,,,,,,,,,,,,,,,,,,,,,,,,,,,,,,,,,,,,,,,,,,,,,
1769162053.699911,1769162053.700363,6.0,0.0,4265.128418,4277.179688,4319.102539,4324.871582,4282.05127,4280.384766,4291.410156,4279.102539,4275.128418,4274.358887,4569.230957,4529.230957,4403.717773,4509.743652,,,,,,,,,,,,,,,,,,,,,,,,,,,,,,,,,,,,,,,,,,,,,,,,,,,,,,,,,,,,,,,,,,,,,,
1769162053.707719,1769162053.708171,7.0,0.0,4266.794922,4276.794922,4313.077148,4325.128418,4285.128418,4278.205078,4284.871582,4273.974121,4266.922852,4272.94873,4562.94873,4525.128418,4397.820313,4507.563965,,,,,,,,,,,,,,,,,,,,,,,,,,,,,,,,,,,,,,,,,,,,,,,,,,,,,,,,,,,,,,,,,,,,,,
1769162053.715528,1769162053.71578,8.0,0.0,4264.230957,4276.666504,4308.846191,4325.897461,4289.615234,4271.666504,4275.128418,4272.692383,4269.358887,4271.922852,4564.871582,4524.487305,4402.820313,4506.153809,,,,,,,,,,,,,,,,,,,,,,,,,,,,,,,,,,,,,,,,,,,,,,,,,,,,,,,,,,,,,,,,,,,,,,
1769162053.723336,1769162053.723589,9.0,0.0,4259.743652,4270.384766,4308.717773,4322.94873,4281.538574,4271.538574,4278.333496,4268.846191,4274.615234,4263.205078,4563.717773,4522.692383,4404.871582,4503.333496,,,,,,,,,,,,,,,,,,,,,,,,,,,,,,,,,,,,,,,,,,,,,,,,,,,,,,,,,,,,,,,,,,,,,,
1769162053.731145,1769162053.731497,10.0,0.0,4260.897461,4270.384766,4310.897461,4322.692383,4282.692383,4274.743652,4282.179688,4263.974121,4271.025879,4257.563965,4555.512695,4522.05127,4398.846191,4502.94873,,,,,,,,,,,,,,,,,,,,,,,,,,,,,,,,,,,,,,,,,,,,,,,,,,,,,,,,,,,,,,,,,,,,,,
1769162053.738953,1769162053.739305,11.0,0.0,4264.102539,4275.897461,4310.128418,4325.512695,4287.820313,4278.205078,4279.102539,4268.333496,4271.025879,4263.717773,4552.94873,4521.410156,4394.743652,4504.487305,,,,,,,,,,,,,,,,,,,,,,,,,,,,,,,,,,,,,,,,,,,,,,,,,,,,,,,,,,,,,,,,,,,,,,
1769162053.746762,1769162053.747314,12.0,0.0,4262.436035,4278.205078,4310.769043,4326.153809,4282.692383,4280.512695,4280.769043,4277.94873,4278.333496,4273.589844,4561.666504,4521.282227,4401.410156,4506.282227,,,,,,,,,,,,,,,,,,,,,,,,,,,,,,,,,,,,,,,,,,,,,,,,,,,,,,,,,,,,,,,,,,,,,,
1769162053.75457,1769162053.755122,13.0,0.0,4263.717773,4280.641113,4315.897461,4325.256348,4284.102539,4278.205078,4282.692383,4280.128418,4279.615234,4279.102539,4570.384766,4526.794922,4413.205078,4508.717773,,,,,,,,,,,,,,,,,,,,,,,,,,,,,,,,,,,,,,,,,,,,,,,,,,,,,,,,,,,,,,,,,,,,,,
1769162053.762379,1769162053.76303,14.0,0.0,4267.94873,4282.692383,4317.05127,4327.05127,4289.230957,4276.025879,4280.769043,4275.384766,4276.282227,4278.589844,4571.410156,4528.846191,4414.743652,4508.974121,0.537112,0.347621,0.313284,0.481856,0.170705,0.468918,0.258859,0.391622,0.335599,0.199682,0.483856,0.273084,0.243959,0.297951,0.068976,0.7318,0.290697,0.251861,0.286238,0.103119,0.940215,0.156419,0.099082,0.105196,0.044106,0.340828,0.175842,0.026691,0.155997,0.089756,0.211913,0.191645,0.062977,0.154725,0.097106,0.325099,0.377921,0.079886,0.13155,0.151554,0.647532,0.351346,0.301013,0.164852,0.13885,0.509522,0.341544,0.172518,0.295943,0.152051,0.662502,0.436073,0.299151,0.149069,0.098381,1.066278,0.430873,0.219961,0.185173,0.098191,0.846876,0.697853,0.296929,0.16818,0.153661,1.017713,0.282642,0.514801,0.168289,0.168544
1769162053.770187,1769162053.770839,15.0,0.0,4262.820313,4278.974121,4311.410156,4324.871582,4283.333496,4278.333496,4280.384766,4275.0,4275.128418,4273.974121,4566.922852,4524.871582,4408.589844,4506.025879,,,,,,,,,,,,,,,,,,,,,,,,,,,,,,,,,,,,,,,,,,,,,,,,,,,,,,,,,,,,,,,,,,,,,,
1769162053.777995,1769162053.778847,16.0,0.0,4257.563965,4276.922852,4309.358887,4320.641113,4281.794922,4279.871582,4279.615234,4275.641113,4274.358887,4272.436035,4564.102539,4522.436035,4409.487305,4503.461426,,,,,,,,,,,,,,,,,,,,,,,,,,,,,,,,,,,,,,,,,,,,,,,,,,,,,,,,,,,,,,,,,,,,,,
1769162053.785804,1769162053.786655,17.0,0.0,4261.025879,4281.538574,4312.820313,4323.589844,4288.589844,4277.820313,4277.820313,4272.563965,4275.128418,4272.05127,4566.025879,4522.94873,4411.410156,4505.512695,,,,,,,,,,,,,,,,,,,,,,,,,,,,,,,,,,,,,,,,,,,,,,,,,,,,,,,,,,,,,,,,,,,,,,
1769162053.793612,1769162053.794364,18.0,0.0,4265.897461,4282.94873,4313.333496,4327.436035,4289.358887,4276.794922,4277.436035,4271.666504,4275.769043,4272.179688,4568.589844,4526.794922,4412.307617,4509.102539,,,,,,,,,,,,,,,,,,,,,,,,,,,,,,,,,,,,,,,,,,,,,,,,,,,,,,,,,,,,,,,,,,,,,,
1769162053.801421,1769162053.802172,19.0,0.0,4266.538574,4280.769043,4311.282227,4325.769043,4290.0,4277.563965,4278.205078,4274.487305,4275.641113,4273.333496,4569.102539,4533.589844,4420.0,4508.846191,,,,,,,,,,,,,,,,,,,,,,,,,,,,,,,,,,,,,,,,,,,,,,,,,,,,,,,,,,,,,,,,,,,,,,
1769162053.809229,1769162053.810181,20.0,0.0,4265.384766,4278.974121,4310.641113,4325.641113,4291.666504,4278.461426,4278.077148,4277.563965,4277.94873,4271.794922,4570.0,4540.0,4423.717773,4507.692383,,,,,,,,,,,,,,,,,,,,,,,,,,,,,,,,,,,,,,,,,,,,,,,,,,,,,,,,,,,,,,,,,,,,,,
1769162053.817038,1769162053.817989,21.0,0.0,4263.205078,4277.94873,4309.358887,4326.794922,4290.641113,4277.179688,4279.102539,4278.717773,4276.538574,4266.794922,4570.512695,4536.153809,4418.333496,4508.333496,,,,,,,,,,,,,,,,,,,,,,,,,,,,,,,,,,,,,,,,,,,,,,,,,,,,,,,,,,,,,,,,,,,,,,
1769162053.824846,1769162053.825898,22.0,0.0,4265.384766,4277.94873,4308.205078,4325.256348,4291.153809,4274.358887,4278.077148,4274.871582,4269.230957,4263.333496,4568.461426,4524.871582,4414.743652,4509.102539,,,,,,,,,,,,,,,,,,,,,,,,,,,,,,,,,,,,,,,,,,,,,,,,,,,,,,,,,,,,,,,,,,,,,,
1769162053.832655,1769162053.833706,23.0,0.0,4271.153809,4279.102539,4310.384766,4326.153809,4287.307617,4275.512695,4276.025879,4272.179688,4264.615234,4262.563965,4568.461426,4521.666504,4415.256348,4509.743652,,,,,,,,,,,,,,,,,,,,,,,,,,,,,,,,,,,,,,,,,,,,,,,,,,,,,,,,,,,,,,,,,,,,,,
1769162053.840463,1769162053.841614,24.0,0.0,4268.846191,4278.846191,4310.769043,4324.487305,4281.666504,4281.666504,4281.666504,4276.410156,4266.794922,4263.717773,4568.717773,4525.512695,4411.794922,4507.820313,,,,,,,,,,,,,,,,,,,,,,,,,,,,,,,,,,,,,,,,,,,,,,,,,,,,,,,,,,,,,,,,,,,,,,
1769162053.848271,1769162053.849423,25.0,0.0,4263.077148,4278.077148,4306.153809,4319.358887,4280.256348,4277.692383,4278.846191,4279.871582,4267.94873,4266.153809,4566.410156,4526.794922,4409.487305,4503.974121,,,,,,,,,,,,,,,,,,,,,,,,,,,,,,,,,,,,,,,,,,,,,,,,,,,,,,,,,,,,,,,,,,,,,,
1769162053.85608,1769162053.857131,26.0,0.0,4263.974121,4279.230957,4304.102539,4321.282227,4279.871582,4266.410156,4268.205078,4278.333496,4268.077148,4263.205078,4566.666504,4524.871582,4413.205078,4505.641113,,,,,,,,,,,,,,,,,,,,,,,,,,,,,,,,,,,,,,,,,,,,,,,,,,,,,,,,,,,,,,,,,,,,,,
1769162053.863888,1769162053.86494,27.0,0.0,4266.025879,4280.128418,4308.077148,4325.641113,4284.615234,4273.333496,4271.538574,4278.589844,4274.358887,4266.153809,4568.974121,4524.230957,4414.871582,4511.282227,,,,,,,,,,,,,,,,,,,,,,,,,,,,,,,,,,,,,,,,,,,,,,,,,,,,,,,,,,,,,,,,,,,,,,
1769162053.871697,1769162053.872948,28.0,0.0,4265.256348,4279.102539,4311.410156,4325.512695,4288.717773,4282.05127,4274.487305,4280.384766,4279.615234,4276.794922,4570.256348,4528.077148,4417.307617,4509.615234,,,,,,,,,,,,,,,,,,,,,,,,,,,,,,,,,,,,,,,,,,,,,,,,,,,,,,,,,,,,,,,,,,,,,,
1769162053.879505,1769162053.880756,29.0,0.0,4265.0,4279.871582,4311.666504,4325.512695,4283.974121,4270.641113,4263.333496,4280.512695,4278.589844,4270.256348,4572.820313,4537.436035,4421.922852,4506.025879,,,,,,,,,,,,,,,,,,,,,,,,,,,,,,,,,,,,,,,,,,,,,,,,,,,,,,,,,,,,,,,,,,,,,,
1769162053.887314,1769162053.888465,30.0,0.0,4265.769043,4280.769043,4309.743652,4325.897461,4281.794922,4264.102539,4260.512695,4280.512695,4276.922852,4261.922852,4573.717773,4542.307617,4425.384766,4513.461426,0.62553,0.354371,0.309279,0.456901,0.158963,0.564272,0.260831,0.387739,0.327821,0.193902,0.538169,0.293389,0.271373,0.278844,0.071036,0.725001,0.319965,0.28719,0.277174,0.09923,0.850085,0.191926,0.114017,0.112926,0.045831,0.31603,0.192024,0.025895,0.172716,0.095349,0.210727,0.194033,0.067619,0.158612,0.08769,0.327554,0.429606,0.112137,0.144334,0.144686,0.701864,0.370772,0.337183,0.183545,0.132087,0.578783,0.478125,0.193518,0.334385,0.168877,0.842763,0.474621,0.294475,0.138438,0.090719,1.054399,0.426423,0.249171,0.172556,0.087401,1.242579,0.835688,0.275659,0.177612,0.178543,1.4157,0.297261,0.488257,0.162695,0.172663
1769162053.895122,1769162053.896273,31.0,0.0,4266.025879,4278.717773,4308.846191,4325.128418,4290.0,4268.333496,4269.102539,4277.820313,4276.794922,4275.769043,4573.205078,4534.230957,4427.692383,4520.769043,,,,,,,,,,,,,,,,,,,,,,,,,,,,,,,,,,,,,,,,,,,,,,,,,,,,,,,,,,,,,,,,,,,,,,
1769162053.902931,1769162053.903882,32.0,0.0,4266.666504,4278.077148,4308.589844,4325.641113,4289.615234,4267.179688,4270.769043,4274.102539,4273.333496,4284.358887,4576.025879,4526.538574,4429.230957,4514.615234,,,,,,,,,,,,,,,,,,,,,,,,,,,,,,,,,,,,,,,,,,,,,,,,,,,,,,,,,,,,,,,,,,,,,,
1769162053.910739,1769162053.911691,33.0,0.0,4265.641113,4280.0,4308.077148,4324.102539,4281.153809,4268.589844,4273.974121,4276.025879,4272.436035,4273.717773,4576.666504,4528.077148,4427.94873,4506.922852,,,,,,,,,,,,,,,,,,,,,,,,,,,,,,,,,,,,,,,,,,,,,,,,,,,,,,,,,,,,,,,,,,,,,,
1769162053.918548,1769162053.919399,34.0,0.0,4263.205078,4279.487305,4305.512695,4320.256348,4283.974121,4272.05127,4275.512695,4278.846191,4279.358887,4271.922852,4572.692383,4529.358887,4427.94873,4508.333496,,,,,,,,,,,,,,,,,,,,,,,,,,,,,,,,,,,,,,,,,,,,,,,,,,,,,,,,,,,,,,,,,,,,,,
1769162053.926356,1769162053.927208,35.0,0.0,4264.102539,4278.717773,4303.846191,4319.487305,4290.512695,4274.230957,4269.102539,4277.179688,4275.897461,4273.846191,4570.512695,4525.0,4428.077148,4510.0,,,,,,,,,,,,,,,,,,,,,,,,,,,,,,,,,,,,,,,,,,,,,,,,,,,,,,,,,,,,,,,,,,,,,,
1769162053.934164,1769162053.934816,36.0,0.0,4265.0,4279.871582,4303.717773,4319.615234,4285.769043,4278.589844,4272.05127,4276.282227,4267.436035,4265.641113,4570.128418,4522.563965,4423.333496,4506.794922,,,,,,,,,,,,,,,,,,,,,,,,,,,,,,,,,,,,,,,,,,,,,,,,,,,,,,,,,,,,,,,,,,,,,,
1769162053.941973,1769162053.942625,37.0,0.0,4263.077148,4280.0,4303.461426,4320.128418,4280.384766,4272.692383,4275.897461,4277.692383,4269.102539,4262.436035,4568.846191,4524.230957,4421.410156,4503.589844,,,,,,,,,,,,,,,,,,,,,,,,,,,,,,,,,,,,,,,,,,,,,,,,,,,,,,,,,,,,,,,,,,,,,,
1769162053.949781,1769162053.950533,38.0,0.0,4265.384766,4282.563965,4302.94873,4322.94873,4286.282227,4264.615234,4267.94873,4276.025879,4272.436035,4266.794922,4567.05127,4523.589844,4426.282227,4503.333496,,,,,,,,,,,,,,,,,,,,,,,,,,,,,,,,,,,,,,,,,,,,,,,,,,,,,,,,,,,,,,,,,,,,,,
1769162053.95759,1769162053.958341,39.0,0.0,4269.871582,4284.358887,4302.05127,4323.846191,4292.94873,4274.615234,4262.179688,4273.077148,4270.128418,4268.461426,4567.05127,4523.974121,4427.05127,4507.94873,,,,,,,,,,,,,,,,,,,,,,,,,,,,,,,,,,,,,,,,,,,,,,,,,,,,,,,,,,,,,,,,,,,,,,
1769162053.965398,1769162053.96635,40.0,0.0,4266.794922,4283.846191,4301.538574,4322.179688,4291.025879,4281.153809,4265.256348,4274.615234,4272.179688,4267.436035,4568.461426,4525.128418,4422.307617,4508.461426,,,,,,,,,,,,,,,,,,,,,,,,,,,,,,,,,,,,,,,,,,,,,,,,,,,,,,,,,,,,,,,,,,,,,,
1769162053.973207,1769162053.974158,41.0,0.0,4258.461426,4278.333496,4302.563965,4319.743652,4287.179688,4273.846191,4267.563965,4278.589844,4278.846191,4270.0,4567.94873,4525.128418,4415.256348,4496.538574,,,,,,,,,,,,,,,,,,,,,,,,,,,,,,,,,,,,,,,,,,,,,,,,,,,,,,,,,,,,,,,,,,,,,,
1769162053.981015,1769162053.982066,42.0,0.0,4256.922852,4269.871582,4302.94873,4318.077148,4287.94873,4274.871582,4268.333496,4280.897461,4280.128418,4274.102539,4566.410156,4523.077148,4408.974121,4488.461426,,,,,,,,,,,,,,,,,,,,,,,,,,,,,,,,,,,,,,,,,,,,,,,,,,,,,,,,,,,,,,,,,,,,,,
1769162053.988824,1769162053.989875,43.0,0.0,4261.794922,4270.384766,4302.05127,4321.282227,4289.230957,4279.358887,4268.333496,4280.256348,4278.589844,4275.769043,4570.384766,4524.487305,4416.794922,4499.358887,,,,,,,,,,,,,,,,,,,,,,,,,,,,,,,,,,,,,,,,,,,,,,,,,,,,,,,,,,,,,,,,,,,,,,
1769162053.996632,1769162053.997484,44.0,0.0,4264.615234,4278.589844,4306.153809,4326.282227,4284.743652,4273.974121,4267.563965,4277.436035,4278.077148,4281.025879,4573.846191,4532.692383,4431.025879,4510.641113,,,,,,,,,,,,,,,,,,,,,,,,,,,,,,,,,,,,,,,,,,,,,,,,,,,,,,,,,,,,,,,,,,,,,,
1769162054.004441,1769162054.005292,45.0,0.0,4265.0,4280.512695,4310.384766,4324.871582,4283.077148,4269.615234,4265.769043,4276.410156,4280.384766,4279.871582,4572.436035,4534.230957,4427.179688,4504.487305,,,,,,,,,,,,,,,,,,,,,,,,,,,,,,,,,,,,,,,,,,,,,,,,,,,,,,,,,,,,,,,,,,,,,,
1769162054.012249,1769162054.0132,46.0,0.0,4264.230957,4276.922852,4303.205078,4321.153809,4288.333496,4275.128418,4266.025879,4278.974121,4280.897461,4265.512695,4571.025879,4525.256348,4414.102539,4495.128418,0.762933,0.338314,0.289944,0.409151,0.152128,0.650695,0.247168,0.358417,0.304282,0.183443,0.582428,0.296546,0.275409,0.254678,0.072857,0.686351,0.316133,0.294714,0.245516,0.091967,0.715815,0.216282,0.122453,0.122082,0.04831,0.275279,0.204616,0.031483,0.18631,0.105021,0.197026,0.193066,0.073323,0.157559,0.086907,0.322018,0.449688,0.15761,0.148965,0.136333,0.718067,0.372469,0.360236,0.189157,0.122835,0.633547,0.603064,0.229254,0.357722,0.186115,1.024643,0.503922,0.311359,0.133244,0.085544,1.02362,0.403721,0.278949,0.167201,0.08427,1.728423,0.983241,0.274323,0.200959,0.2005,1.838356,0.314664,0.45719,0.176158,0.185833
1769162054.020058,1769162054.021009,47.0,0.0,4260.256348,4277.179688,4292.94873,4319.102539,4288.589844,4279.487305,4271.794922,4278.077148,4273.333496,4264.743652,4569.743652,4521.153809,4416.153809,4492.05127,,,,,,,,,,,,,,,,,,,,,,,,,,,,,,,,,,,,,,,,,,,,,,,,,,,,,,,,,,,,,,,,,,,,,,
1769162054.027866,1769162054.028817,48.0,0.0,4258.205078,4278.717773,4296.666504,4318.205078,4285.641113,4276.538574,4277.307617,4275.256348,4271.282227,4280.128418,4569.615234,4523.205078,4426.794922,4495.256348,,,,,,,,,,,,,,,,,,,,,,,,,,,,,,,,,,,,,,,,,,,,,,,,,,,,,,,,,,,,,,,,,,,,,,
1769162054.035674,1769162054.036626,49.0,0.0,4261.794922,4280.0,4308.077148,4321.025879,4289.358887,4277.05127,4277.307617,4277.436035,4277.692383,4281.794922,4570.128418,4523.846191,4428.205078,4502.307617,,,,,,,,,,,,,,,,,,,,,,,,,,,,,,,,,,,,,,,,,,,,,,,,,,,,,,,,,,,,,,,,,,,,,,
1769162054.043483,1769162054.044334,50.0,0.0,4263.205078,4281.538574,4308.205078,4323.205078,4290.128418,4281.538574,4276.922852,4279.487305,4280.384766,4276.282227,4571.538574,4529.358887,4426.153809,4506.410156,,,,,,,,,,,,,,,,,,,,,,,,,,,,,,,,,,,,,,,,,,,,,,,,,,,,,,,,,,,,,,,,,,,,,,
1769162054.051291,1769162054.052143,51.0,0.0,4262.820313,4281.025879,4305.384766,4322.05127,4287.05127,4281.922852,4279.487305,4279.615234,4278.846191,4280.512695,4576.922852,4536.538574,4429.487305,4506.922852,,,,,,,,,,,,,,,,,,,,,,,,,,,,,,,,,,,,,,,,,,,,,,,,,,,,,,,,,,,,,,,,,,,,,,
1769162054.0591,1769162054.059751,52.0,0.0,4265.641113,4282.692383,4314.230957,4324.743652,4291.922852,4281.153809,4276.282227,4281.538574,4280.0,4281.538574,4582.179688,4538.205078,4429.487305,4507.05127,,,,,,,,,,,,,,,,,,,,,,,,,,,,,,,,,,,,,,,,,,,,,,,,,,,,,,,,,,,,,,,,,,,,,,
1769162054.066908,1769162054.06756,53.0,0.0,4268.333496,4282.692383,4319.871582,4329.358887,4295.0,4281.666504,4269.358887,4281.794922,4283.717773,4279.615234,4580.512695,4542.179688,4427.820313,4508.846191,,,,,,,,,,,,,,,,,,,,,,,,,,,,,,,,,,,,,,,,,,,,,,,,,,,,,,,,,,,,,,,,,,,,,,
1769162054.074717,1769162054.075268,54.0,0.0,4261.922852,4277.179688,4313.077148,4324.615234,4289.102539,4281.153809,4266.538574,4280.0,4280.641113,4277.436035,4574.230957,4540.0,4429.102539,4510.0,,,,,,,,,,,,,,,,,,,,,,,,,,,,,,,,,,,,,,,,,,,,,,,,,,,,,,,,,,,,,,,,,,,,,,
1769162054.082525,1769162054.083077,55.0,0.0,4252.307617,4271.922852,4306.153809,4318.205078,4287.307617,4279.358887,4266.282227,4277.820313,4268.846191,4268.333496,4568.846191,4523.589844,4422.05127,4506.666504,,,,,,,,,,,,,,,,,,,,,,,,,,,,,,,,,,,,,,,,,,,,,,,,,,,,,,,,,,,,,,,,,,,,,,
1769162054.090334,1769162054.090685,56.0,0.0,4254.615234,4274.102539,4309.102539,4321.538574,4288.077148,4273.717773,4263.974121,4275.384766,4264.102539,4266.282227,4568.077148,4518.205078,4416.025879,4502.692383,,,,,,,,,,,,,,,,,,,,,,,,,,,,,,,,,,,,,,,,,,,,,,,,,,,,,,,,,,,,,,,,,,,,,,
1769162054.098142,1769162054.098494,57.0,0.0,4263.589844,4278.205078,4316.538574,4326.794922,4283.846191,4270.256348,4261.922852,4277.179688,4274.230957,4278.589844,4571.282227,4534.615234,4425.0,4507.05127,,,,,,,,,,,,,,,,,,,,,,,,,,,,,,,,,,,,,,,,,,,,,,,,,,,,,,,,,,,,,,,,,,,,,,
1769162054.10595,1769162054.106202,58.0,0.0,4261.282227,4278.205078,4318.717773,4327.179688,4283.461426,4271.794922,4266.410156,4279.615234,4277.820313,4278.974121,4571.666504,4540.897461,4429.487305,4511.922852,,,,,,,,,,,,,,,,,,,,,,,,,,,,,,,,,,,,,,,,,,,,,,,,,,,,,,,,,,,,,,,,,,,,,,
1769162054.113759,1769162054.114011,59.0,0.0,4255.641113,4277.692383,4312.820313,4325.897461,4287.94873,4269.871582,4268.461426,4275.897461,4265.769043,4267.179688,4567.692383,4528.846191,4418.974121,4503.589844,,,,,,,,,,,,,,,,,,,,,,,,,,,,,,,,,,,,,,,,,,,,,,,,,,,,,,,,,,,,,,,,,,,,,,
1769162054.121567,1769162054.12162,60.0,0.0,4263.333496,4279.230957,4309.615234,4325.0,4289.743652,4267.307617,4263.974121,4274.358887,4265.897461,4271.410156,4564.871582,4523.205078,4414.743652,4494.230957,,,,,,,,,,,,,,,,,,,,,,,,,,,,,,,,,,,,,,,,,,,,,,,,,,,,,,,,,,,,,,,,,,,,,,
1769162054.129376,1769162054.129428,61.0,0.0,4262.563965,4278.974121,4312.307617,4322.563965,4286.025879,4275.897461,4268.846191,4273.077148,4272.563965,4274.615234,4558.333496,4525.769043,4415.641113,4490.384766,,,,,,,,,,,,,,,,,,,,,,,,,,,,,,,,,,,,,,,,,,,,,,,,,,,,,,,,,,,,,,,,,,,,,,
1769162054.137184,1769162054.137336,62.0,0.0,4250.128418,4274.743652,4311.922852,4322.05127,4282.820313,4282.307617,4276.666504,4265.0,4265.769043,4264.102539,4552.692383,4523.717773,4411.794922,4491.025879,0.899267,0.303203,0.256044,0.350105,0.146468,0.698907,0.221225,0.308372,0.270792,0.167127,0.612475,0.27785,0.253993,0.229981,0.073674,0.623893,0.282711,0.271748,0.200714,0.082715,0.564259,0.221613,0.122019,0.129616,0.051921,0.232558,0.21464,0.044542,0.193121,0.116748,0.16995,0.191036,0.077228,0.15263,0.09589,0.309058,0.426832,0.215407,0.149078,0.126501,0.693662,0.354009,0.369422,0.181895,0.110839,0.653792,0.68712,0.278553,0.366533,0.199203,1.149638,0.511334,0.335949,0.133173,0.084513,0.959937,0.374911,0.302447,0.16917,0.088187,2.213004,1.106527,0.288114,0.233036,0.215662,2.183669,0.324417,0.428736,0.206821,0.204646
1769162054.144993,1769162054.145145,63.0,0.0,4255.128418,4274.871582,4310.897461,4324.230957,4285.512695,4270.897461,4268.846191,4263.589844,4264.487305,4270.512695,4561.794922,4522.563965,4413.846191,4502.820313,,,,,,,,,,,,,,,,,,,,,,,,,,,,,,,,,,,,,,,,,,,,,,,,,,,,,,,,,,,,,,,,,,,,,,
1769162054.152801,1769162054.153153,64.0,0.0,4260.769043,4279.743652,4311.538574,4324.358887,4289.102539,4260.897461,4260.0,4272.692383,4272.179688,4282.05127,4566.282227,4525.384766,4416.410156,4505.0,,,,,,,,,,,,,,,,,,,,,,,,,,,,,,,,,,,,,,,,,,,,,,,,,,,,,,,,,,,,,,,,,,,,,,
1769162054.16061,1769162054.160961,65.0,0.0,4252.563965,4279.487305,4312.692383,4323.461426,4287.05127,4268.589844,4268.974121,4279.102539,4274.358887,4270.897461,4556.410156,4525.897461,4413.333496,4492.692383,,,,,,,,,,,,,,,,,,,,,,,,,,,,,,,,,,,,,,,,,,,,,,,,,,,,,,,,,,,,,,,,,,,,,,
1769162054.168418,1769162054.16887,66.0,0.0,4251.410156,4275.384766,4315.897461,4324.230957,4286.538574,4277.563965,4275.897461,4279.615234,4271.282227,4262.820313,4558.589844,4524.230957,4411.410156,4494.871582,,,,,,,,,,,,,,,,,,,,,,,,,,,,,,,,,,,,,,,,,,,,,,,,,,,,,,,,,,,,,,,,,,,,,,
1769162054.176227,1769162054.176678,67.0,0.0,4256.666504,4277.563965,4314.230957,4323.461426,4289.358887,4270.384766,4268.461426,4277.94873,4270.769043,4274.615234,4570.384766,4526.153809,4414.743652,4508.077148,,,,,,,,,,,,,,,,,,,,,,,,,,,,,,,,,,,,,,,,,,,,,,,,,,,,,,,,,,,,,,,,,,,,,,
1769162054.184035,1769162054.184686,68.0,0.0,4251.282227,4279.615234,4311.666504,4320.512695,4285.641113,4262.05127,4262.436035,4276.794922,4271.922852,4278.846191,4570.128418,4533.461426,4417.05127,4509.230957,,,,,,,,,,,,,,,,,,,,,,,,,,,,,,,,,,,,,,,,,,,,,,,,,,,,,,,,,,,,,,,,,,,,,,
1769162054.191843,1769162054.192495,69.0,0.0,4248.846191,4274.230957,4315.641113,4319.743652,4280.384766,4269.743652,4267.05127,4279.487305,4275.769043,4272.820313,4565.897461,4536.025879,4415.641113,4504.615234,,,,,,,,,,,,,,,,,,,,,,,,,,,,,,,,,,,,,,,,,,,,,,,,,,,,,,,,,,,,,,,,,,,,,,
1769162054.199652,1769162054.200203,70.0,0.0,4253.974121,4274.615234,4321.538574,4319.743652,4280.641113,4278.333496,4273.717773,4281.538574,4276.538574,4268.333496,4566.282227,4528.205078,4413.589844,4502.436035,,,,,,,,,,,,,,,,,,,,,,,,,,,,,,,,,,,,,,,,,,,,,,,,,,,,,,,,,,,,,,,,,,,,,,
1769162054.20746,1769162054.208012,71.0,0.0,4251.410156,4274.871582,4322.179688,4318.077148,4280.897461,4275.897461,4271.025879,4279.871582,4273.974121,4266.153809,4564.487305,4525.256348,4411.282227,4500.256348,,,,,,,,,,,,,,,,,,,,,,,,,,,,,,,,,,,,,,,,,,,,,,,,,,,,,,,,,,,,,,,,,,,,,,
1769162054.215269,1769162054.21602,72.0,0.0,4247.820313,4267.94873,4320.0,4318.461426,4279.487305,4272.436035,4264.871582,4280.128418,4276.410156,4269.230957,4566.922852,4532.94873,4414.230957,4505.0,,,,,,,,,,,,,,,,,,,,,,,,,,,,,,,,,,,,,,,,,,,,,,,,,,,,,,,,,,,,,,,,,,,,,,
1769162054.223077,1769162054.223829,73.0,0.0,4249.102539,4268.974121,4318.846191,4319.871582,4285.128418,4274.615234,4265.0,4280.641113,4277.692383,4275.0,4570.897461,4533.461426,4416.794922,4504.871582,,,,,,,,,,,,,,,,,,,,,,,,,,,,,,,,,,,,,,,,,,,,,,,,,,,,,,,,,,,,,,,,,,,,,,
1769162054.230886,1769162054.231537,74.0,0.0,4250.256348,4276.538574,4319.358887,4318.461426,4288.333496,4275.0,4267.05127,4278.717773,4274.358887,4274.871582,4567.436035,4525.128418,4413.461426,4493.205078,,,,,,,,,,,,,,,,,,,,,,,,,,,,,,,,,,,,,,,,,,,,,,,,,,,,,,,,,,,,,,,,,,,,,,
1769162054.238694,1769162054.239346,75.0,0.0,4251.153809,4278.333496,4323.333496,4320.512695,4284.230957,4271.922852,4264.871582,4276.666504,4272.94873,4273.846191,4564.871582,4521.282227,4417.436035,4487.820313,,,,,,,,,,,,,,,,,,,,,,,,,,,,,,,,,,,,,,,,,,,,,,,,,,,,,,,,,,,,,,,,,,,,,,
1769162054.246503,1769162054.247354,76.0,0.0,4251.410156,4277.692383,4326.410156,4322.436035,4284.487305,4272.820313,4263.974121,4276.153809,4274.743652,4277.94873,4567.94873,4523.205078,4424.487305,4492.563965,,,,,,,,,,,,,,,,,,,,,,,,,,,,,,,,,,,,,,,,,,,,,,,,,,,,,,,,,,,,,,,,,,,,,,
1769162054.254311,1769162054.255162,77.0,0.0,4251.025879,4277.692383,4322.179688,4315.128418,4286.025879,4278.589844,4269.871582,4277.692383,4278.077148,4280.384766,4570.384766,4529.102539,4420.897461,4496.025879,,,,,,,,,,,,,,,,,,,,,,,,,,,,,,,,,,,,,,,,,,,,,,,,,,,,,,,,,,,,,,,,,,,,,,
1769162054.262119,1769162054.262871,78.0,0.0,4251.538574,4275.512695,4320.769043,4313.589844,4281.025879,4278.205078,4270.512695,4279.102539,4278.589844,4279.358887,4571.153809,4536.922852,4421.153809,4495.641113,1.001636,0.257255,0.213306,0.293873,0.139408,0.691131,0.18831,0.246271,0.235564,0.145922,0.612018,0.241338,0.215172,0.208434,0.073505,0.5379,0.233308,0.226287,0.155718,0.073404,0.419653,0.208274,0.114668,0.132673,0.057678,0.202787,0.225427,0.063244,0.192738,0.129355,0.135623,0.193842,0.079331,0.145607,0.112274,0.294613,0.368094,0.276512,0.150146,0.115353,0.632773,0.320624,0.366466,0.169206,0.097903,0.62297,0.714757,0.335219,0.36414,0.205754,1.151908,0.489841,0.354881,0.137308,0.087347,0.862588,0.356295,0.320762,0.179184,0.097654,2.539982,1.176438,0.311767,0.264269,0.222697,2.323748,0.322277,0.40763,0.246577,0.224048
1769162054.269928,1769162054.270679,79.0,0.0,4251.410156,4274.871582,4325.769043,4320.769043,4277.563965,4273.589844,4267.307617,4278.846191,4276.025879,4280.256348,4571.282227,4534.743652,4427.692383,4492.94873,,,,,,,,,,,,,,,,,,,,,,,,,,,,,,,,,,,,,,,,,,,,,,,,,,,,,,,,,,,,,,,,,,,,,,
1769162054.277736,1769162054.278688,80.0,0.0,4247.179688,4275.384766,4324.230957,4321.025879,4280.897461,4274.358887,4267.94873,4278.846191,4273.717773,4280.641113,4568.974121,4524.487305,4422.820313,4495.256348,,,,,,,,,,,,,,,,,,,,,,,,,,,,,,,,,,,,,,,,,,,,,,,,,,,,,,,,,,,,,,,,,,,,,,
1769162054.285545,1769162054.286496,81.0,0.0,4244.102539,4272.94873,4320.256348,4318.846191,4282.307617,4272.05127,4267.820313,4278.846191,4275.897461,4279.102539,4568.333496,4524.230957,4420.897461,4500.256348,,,,,,,,,,,,,,,,,,,,,,,,,,,,,,,,,,,,,,,,,,,,,,,,,,,,,,,,,,,,,,,,,,,,,,
1769162054.293353,1769162054.294205,82.0,0.0,4246.794922,4270.128418,4322.436035,4318.717773,4279.871582,4265.0,4264.230957,4278.717773,4278.461426,4280.256348,4570.769043,4530.0,4429.615234,4498.589844,,,,,,,,,,,,,,,,,,,,,,,,,,,,,,,,,,,,,,,,,,,,,,,,,,,,,,,,,,,,,,,,,,,,,,
1769162054.301162,1769162054.302013,83.0,0.0,4246.538574,4269.871582,4323.717773,4314.871582,4278.077148,4268.717773,4264.358887,4282.436035,4274.743652,4278.333496,4567.820313,4527.179688,4423.717773,4491.025879,,,,,,,,,,,,,,,,,,,,,,,,,,,,,,,,,,,,,,,,,,,,,,,,,,,,,,,,,,,,,,,,,,,,,,
1769162054.30897,1769162054.309622,84.0,0.0,4245.384766,4274.102539,4323.205078,4316.794922,4283.205078,4270.769043,4264.487305,4277.307617,4266.410156,4271.922852,4561.025879,4521.153809,4414.743652,4488.846191,,,,,,,,,,,,,,,,,,,,,,,,,,,,,,,,,,,,,,,,,,,,,,,,,,,,,,,,,,,,,,,,,,,,,,
1769162054.316779,1769162054.31743,85.0,0.0,4257.05127,4279.487305,4326.025879,4327.179688,4287.563965,4265.897461,4261.025879,4264.871582,4261.410156,4272.05127,4563.205078,4521.666504,4422.307617,4497.94873,,,,,,,,,,,,,,,,,,,,,,,,,,,,,,,,,,,,,,,,,,,,,,,,,,,,,,,,,,,,,,,,,,,,,,
1769162054.324587,1769162054.325139,86.0,0.0,4265.641113,4280.384766,4327.179688,4328.717773,4283.461426,4271.153809,4262.563965,4267.179688,4263.846191,4276.666504,4569.615234,4525.897461,4430.256348,4507.307617,,,,,,,,,,,,,,,,,,,,,,,,,,,,,,,,,,,,,,,,,,,,,,,,,,,,,,,,,,,,,,,,,,,,,,
1769162054.332395,1769162054.332947,87.0,0.0,4255.769043,4279.102539,4326.410156,4321.666504,4283.717773,4274.871582,4268.461426,4278.461426,4267.179688,4274.487305,4569.358887,4529.871582,4429.230957,4508.333496,,,,,,,,,,,,,,,,,,,,,,,,,,,,,,,,,,,,,,,,,,,,,,,,,,,,,,,,,,,,,,,,,,,,,,
1769162054.340204,1769162054.340955,88.0,0.0,4247.436035,4278.333496,4328.974121,4320.512695,4289.358887,4268.589844,4271.410156,4279.743652,4268.974121,4272.307617,4567.692383,4534.743652,4427.05127,4504.743652,,,,,,,,,,,,,,,,,,,,,,,,,,,,,,,,,,,,,,,,,,,,,,,,,,,,,,,,,,,,,,,,,,,,,,
1769162054.348012,1769162054.348764,89.0,0.0,4250.897461,4278.333496,4330.384766,4323.589844,4290.769043,4271.410156,4272.563965,4276.794922,4267.563965,4276.025879,4568.974121,4534.358887,4426.794922,4501.538574,,,,,,,,,,,,,,,,,,,,,,,,,,,,,,,,,,,,,,,,,,,,,,,,,,,,,,,,,,,,,,,,,,,,,,
1769162054.355821,1769162054.356672,90.0,0.0,4250.769043,4279.358887,4327.05127,4323.205078,4288.974121,4280.641113,4276.410156,4279.358887,4267.563965,4270.128418,4571.025879,4527.820313,4428.461426,4503.461426,,,,,,,,,,,,,,,,,,,,,,,,,,,,,,,,,,,,,,,,,,,,,,,,,,,,,,,,,,,,,,,,,,,,,,
1769162054.363629,1769162054.364481,91.0,0.0,4247.307617,4278.974121,4323.461426,4320.384766,4288.205078,4277.820313,4277.436035,4280.641113,4272.436035,4262.563965,4569.230957,4523.974121,4429.358887,4504.230957,,,,,,,,,,,,,,,,,,,,,,,,,,,,,,,,,,,,,,,,,,,,,,,,,,,,,,,,,,,,,,,,,,,,,,
1769162054.371438,1769162054.372489,92.0,0.0,4248.461426,4277.05127,4323.461426,4320.128418,4287.307617,4268.205078,4269.743652,4277.692383,4273.077148,4270.641113,4562.563965,4524.102539,4423.589844,4498.974121,,,,,,,,,,,,,,,,,,,,,,,,,,,,,,,,,,,,,,,,,,,,,,,,,,,,,,,,,,,,,,,,,,,,,,
1769162054.379246,1769162054.380297,93.0,0.0,4245.256348,4275.769043,4322.436035,4320.256348,4287.307617,4268.077148,4269.102539,4278.974121,4267.307617,4274.487305,4555.256348,4521.922852,4414.487305,4491.666504,,,,,,,,,,,,,,,,,,,,,,,,,,,,,,,,,,,,,,,,,,,,,,,,,,,,,,,,,,,,,,,,,,,,,,
1769162054.387055,1769162054.388206,94.0,0.0,4243.974121,4279.743652,4320.256348,4321.922852,4287.307617,4273.077148,4276.666504,4277.436035,4263.461426,4265.769043,4553.205078,4517.820313,4412.692383,4489.615234,1.003204,0.210104,0.170073,0.251217,0.130525,0.620028,0.157823,0.185162,0.20596,0.122928,0.591017,0.198896,0.172738,0.192401,0.073507,0.431923,0.184187,0.17234,0.121786,0.065633,0.298293,0.183932,0.104696,0.129659,0.066027,0.192963,0.235291,0.084402,0.186242,0.14203,0.106311,0.210292,0.083515,0.137157,0.131375,0.279922,0.290774,0.325425,0.156002,0.10307,0.551044,0.283377,0.351565,0.159319,0.087139,0.551157,0.689412,0.388365,0.353512,0.207085,1.034802,0.441864,0.357318,0.143284,0.09193,0.743603,0.356762,0.33675,0.197078,0.110586,2.610983,1.172228,0.335437,0.285802,0.222876,2.230923,0.311438,0.391286,0.283215,0.238733
1769162054.394863,1769162054.396014,95.0,0.0,4250.128418,4281.410156,4320.641113,4323.205078,4289.615234,4276.153809,4275.384766,4270.128418,4262.692383,4263.461426,4555.384766,4519.487305,4416.282227,4491.922852,,,,,,,,,,,,,,,,,,,,,,,,,,,,,,,,,,,,,,,,,,,,,,,,,,,,,,,,,,,,,,,,,,,,,,
1769162054.402672,1769162054.403623,96.0,0.0,4246.025879,4271.922852,4319.871582,4319.358887,4288.717773,4276.794922,4271.538574,4272.307617,4264.358887,4266.666504,4557.179688,4523.589844,4415.641113,4490.384766,,,,,,,,,,,,,,,,,,,,,,,,,,,,,,,,,,,,,,,,,,,,,,,,,,,,,,,,,,,,,,,,,,,,,,
1769162054.41048,1769162054.411431,97.0,0.0,4240.512695,4270.256348,4322.307617,4319.743652,4282.563965,4274.487305,4274.871582,4279.358887,4266.025879,4264.102539,4555.128418,4522.307617,4409.615234,4485.384766,,,,,,,,,,,,,,,,,,,,,,,,,,,,,,,,,,,,,,,,,,,,,,,,,,,,,,,,,,,,,,,,,,,,,,
1769162054.418289,1769162054.41924,98.0,0.0,4254.743652,4286.282227,4327.94873,4326.794922,4284.487305,4267.563965,4275.128418,4276.025879,4264.230957,4263.974121,4555.256348,4521.922852,4412.692383,4492.563965,,,,,,,,,,,,,,,,,,,,,,,,,,,,,,,,,,,,,,,,,,,,,,,,,,,,,,,,,,,,,,,,,,,,,,
1769162054.426097,1769162054.427048,99.0,0.0,4266.153809,4294.871582,4327.692383,4327.820313,4288.205078,4265.512695,4273.333496,4274.871582,4264.102539,4267.692383,4562.307617,4527.563965,4424.871582,4508.589844,,,,,,,,,,,,,,,,,,,,,,,,,,,,,,,,,,,,,,,,,,,,,,,,,,,,,,,,,,,,,,,,,,,,,,
1769162054.433905,1769162054.434657,100.0,0.0,4255.0,4285.256348,4325.0,4322.692383,4281.666504,4268.333496,4277.05127,4280.641113,4267.179688,4265.641113,4564.358887,4530.512695,4423.717773,4505.512695,,,,,,,,,,,,,,,,,,,,,,,,,,,,,,,,,,,,,,,,,,,,,,,,,,,,,,,,,,,,,,,,,,,,,,
1769162054.441714,1769162054.442465,101.0,0.0,4248.077148,4278.333496,4325.641113,4321.153809,4276.025879,4265.128418,4276.794922,4276.538574,4264.743652,4261.794922,4556.794922,4524.743652,4411.025879,4489.871582,,,,,,,,,,,,,,,,,,,,,,,,,,,,,,,,,,,,,,,,,,,,,,,,,,,,,,,,,,,,,,,,,,,,,,
1769162054.449522,1769162054.450174,102.0,0.0,4251.153809,4278.846191,4324.487305,4317.94873,4279.230957,4264.102539,4273.461426,4272.692383,4261.922852,4261.153809,4551.025879,4521.794922,4408.461426,4487.94873,,,,,,,,,,,,,,,,,,,,,,,,,,,,,,,,,,,,,,,,,,,,,,,,,,,,,,,,,,,,,,,,,,,,,,
1769162054.457331,1769162054.457982,103.0,0.0,4249.743652,4275.256348,4322.436035,4313.846191,4282.05127,4266.410156,4275.897461,4278.846191,4263.589844,4265.641113,4554.743652,4530.256348,4413.077148,4495.512695,,,,,,,,,,,,,,,,,,,,,,,,,,,,,,,,,,,,,,,,,,,,,,,,,,,,,,,,,,,,,,,,,,,,,,
1769162054.465139,1769162054.465591,104.0,0.0,4251.922852,4277.692383,4324.358887,4319.487305,4281.025879,4265.384766,4278.846191,4282.05127,4266.794922,4271.025879,4562.94873,4538.974121,4418.333496,4503.846191,,,,,,,,,,,,,,,,,,,,,,,,,,,,,,,,,,,,,,,,,,,,,,,,,,,,,,,,,,,,,,,,,,,,,,
1769162054.472948,1769162054.473399,105.0,0.0,4260.512695,4287.563965,4326.410156,4327.179688,4281.410156,4268.589844,4278.205078,4279.487305,4268.077148,4267.436035,4566.666504,4537.94873,4424.871582,4508.589844,,,,,,,,,,,,,,,,,,,,,,,,,,,,,,,,,,,,,,,,,,,,,,,,,,,,,,,,,,,,,,,,,,,,,,
1769162054.480756,1769162054.481308,106.0,0.0,4260.769043,4291.282227,4328.333496,4327.820313,4286.282227,4279.871582,4279.615234,4276.282227,4263.077148,4263.077148,4566.538574,4533.974121,4427.179688,4506.922852,,,,,,,,,,,,,,,,,,,,,,,,,,,,,,,,,,,,,,,,,,,,,,,,,,,,,,,,,,,,,,,,,,,,,,
1769162054.488565,1769162054.489116,107.0,0.0,4252.179688,4291.025879,4330.128418,4325.641113,4290.897461,4282.436035,4281.666504,4281.794922,4263.974121,4271.794922,4569.743652,4537.563965,4425.769043,4506.025879,,,,,,,,,,,,,,,,,,,,,,,,,,,,,,,,,,,,,,,,,,,,,,,,,,,,,,,,,,,,,,,,,,,,,,
1769162054.496373,1769162054.497124,108.0,0.0,4249.358887,4292.94873,4327.436035,4326.025879,4288.205078,4271.410156,4280.256348,4288.461426,4276.153809,4280.512695,4574.358887,4541.922852,4428.974121,4509.230957,,,,,,,,,,,,,,,,,,,,,,,,,,,,,,,,,,,,,,,,,,,,,,,,,,,,,,,,,,,,,,,,,,,,,,
1769162054.504182,1769162054.504933,109.0,0.0,4254.871582,4293.461426,4327.820313,4326.666504,4286.922852,4269.358887,4278.589844,4283.205078,4276.410156,4277.563965,4571.794922,4539.743652,4430.0,4509.358887,,,,,,,,,,,,,,,,,,,,,,,,,,,,,,,,,,,,,,,,,,,,,,,,,,,,,,,,,,,,,,,,,,,,,,
1769162054.51199,1769162054.512641,110.0,0.0,4261.153809,4294.102539,4334.358887,4326.538574,4291.282227,4279.230957,4281.666504,4277.692383,4265.0,4275.0,4568.077148,4537.307617,4427.179688,4507.94873,0.904504,0.169056,0.135314,0.223174,0.121088,0.501882,0.137551,0.13824,0.18443,0.101739,0.543841,0.164199,0.139508,0.181017,0.075082,0.314304,0.147647,0.123957,0.10359,0.060146,0.209816,0.160066,0.096655,0.120925,0.076136,0.204774,0.238935,0.10403,0.175149,0.154367,0.092769,0.246255,0.093871,0.126679,0.14794,0.267055,0.217798,0.346363,0.167195,0.090107,0.471466,0.255286,0.325525,0.15736,0.081255,0.46231,0.63033,0.424868,0.335268,0.207203,0.845392,0.379874,0.340591,0.148675,0.09545,0.61979,0.373951,0.351657,0.220797,0.124972,2.400206,1.089941,0.347934,0.29173,0.21842,1.945632,0.301987,0.370101,0.304666,0.245431
1769162054.519798,1769162054.52045,111.0,0.0,4265.0,4294.358887,4334.102539,4327.179688,4292.307617,4280.128418,4284.743652,4282.692383,4265.512695,4275.256348,4569.487305,4539.743652,4428.461426,4509.871582,,,,,,,,,,,,,,,,,,,,,,,,,,,,,,,,,,,,,,,,,,,,,,,,,,,,,,,,,,,,,,,,,,,,,,
1769162054.527607,1769162054.528058,112.0,0.0,4260.0,4285.256348,4325.769043,4324.615234,4292.307617,4276.922852,4289.743652,4287.563965,4267.94873,4268.205078,4567.307617,4538.333496,4424.358887,4503.846191,,,,,,,,,,,,,,,,,,,,,,,,,,,,,,,,,,,,,,,,,,,,,,,,,,,,,,,,,,,,,,,,,,,,,,
1769162054.535415,1769162054.535867,113.0,0.0,4249.871582,4277.820313,4324.230957,4321.025879,4295.256348,4280.512695,4291.153809,4287.307617,4265.128418,4261.153809,4559.230957,4530.384766,4416.922852,4491.410156,,,,,,,,,,,,,,,,,,,,,,,,,,,,,,,,,,,,,,,,,,,,,,,,,,,,,,,,,,,,,,,,,,,,,,
1769162054.543224,1769162054.543775,114.0,0.0,4247.820313,4280.641113,4328.333496,4320.897461,4290.384766,4280.384766,4283.077148,4291.153809,4271.025879,4264.615234,4555.0,4529.615234,4417.179688,4491.794922,,,,,,,,,,,,,,,,,,,,,,,,,,,,,,,,,,,,,,,,,,,,,,,,,,,,,,,,,,,,,,,,,,,,,,
1769162054.551032,1769162054.551584,115.0,0.0,4245.0,4276.922852,4325.384766,4318.205078,4283.205078,4277.94873,4281.922852,4294.615234,4272.179688,4267.179688,4555.256348,4528.205078,4412.179688,4491.282227,,,,,,,,,,,,,,,,,,,,,,,,,,,,,,,,,,,,,,,,,,,,,,,,,,,,,,,,,,,,,,,,,,,,,,
1769162054.558841,1769162054.559592,116.0,0.0,4237.94873,4270.384766,4320.512695,4310.512695,4286.410156,4279.102539,4286.922852,4293.205078,4264.871582,4257.307617,4551.025879,4521.666504,4401.410156,4477.307617,,,,,,,,,,,,,,,,,,,,,,,,,,,,,,,,,,,,,,,,,,,,,,,,,,,,,,,,,,,,,,,,,,,,,,
1769162054.566649,1769162054.5674,117.0,0.0,4241.410156,4268.717773,4321.025879,4307.692383,4289.230957,4277.436035,4282.563965,4291.666504,4272.436035,4257.179688,4552.179688,4527.436035,4405.0,4477.820313,,,,,,,,,,,,,,,,,,,,,,,,,,,,,,,,,,,,,,,,,,,,,,,,,,,,,,,,,,,,,,,,,,,,,,
1769162054.574458,1769162054.575309,118.0,0.0,4247.692383,4267.436035,4323.846191,4311.538574,4281.025879,4277.94873,4276.282227,4296.153809,4281.666504,4274.102539,4563.077148,4539.871582,4418.589844,4493.717773,,,,,,,,,,,,,,,,,,,,,,,,,,,,,,,,,,,,,,,,,,,,,,,,,,,,,,,,,,,,,,,,,,,,,,
1769162054.582266,1769162054.583117,119.0,0.0,4248.589844,4271.794922,4326.666504,4313.205078,4275.512695,4277.820313,4278.717773,4292.820313,4271.282227,4275.769043,4569.871582,4541.410156,4419.743652,4495.641113,,,,,,,,,,,,,,,,,,,,,,,,,,,,,,,,,,,,,,,,,,,,,,,,,,,,,,,,,,,,,,,,,,,,,,
1769162054.590074,1769162054.591125,120.0,0.0,4253.077148,4279.743652,4330.0,4312.307617,4282.94873,4273.846191,4278.333496,4281.666504,4263.846191,4263.461426,4565.0,4538.461426,4413.846191,4490.897461,,,,,,,,,,,,,,,,,,,,,,,,,,,,,,,,,,,,,,,,,,,,,,,,,,,,,,,,,,,,,,,,,,,,,,
1769162054.597883,1769162054.598934,121.0,0.0,4253.333496,4279.358887,4328.717773,4311.538574,4288.974121,4275.384766,4278.205078,4284.615234,4270.769043,4262.179688,4558.717773,4539.102539,4413.589844,4492.94873,,,,,,,,,,,,,,,,,,,,,,,,,,,,,,,,,,,,,,,,,,,,,,,,,,,,,,,,,,,,,,,,,,,,,,
1769162054.605691,1769162054.606642,122.0,0.0,4246.538574,4275.256348,4325.641113,4309.487305,4287.05127,4281.922852,4285.384766,4295.897461,4275.769043,4266.538574,4561.794922,4538.717773,4412.436035,4491.153809,,,,,,,,,,,,,,,,,,,,,,,,,,,,,,,,,,,,,,,,,,,,,,,,,,,,,,,,,,,,,,,,,,,,,,
1769162054.6135,1769162054.614451,123.0,0.0,4247.563965,4277.692383,4330.641113,4310.512695,4285.256348,4278.205078,4284.230957,4295.128418,4276.153809,4269.743652,4569.102539,4539.743652,4410.256348,4489.358887,,,,,,,,,,,,,,,,,,,,,,,,,,,,,,,,,,,,,,,,,,,,,,,,,,,,,,,,,,,,,,,,,,,,,,
1769162054.621308,1769162054.622059,124.0,0.0,4250.769043,4279.743652,4335.769043,4313.846191,4287.05127,4268.333496,4277.692383,4284.743652,4273.077148,4274.871582,4568.974121,4540.384766,4414.615234,4493.974121,,,,,,,,,,,,,,,,,,,,,,,,,,,,,,,,,,,,,,,,,,,,,,,,,,,,,,,,,,,,,,,,,,,,,,
1769162054.629117,1769162054.629868,125.0,0.0,4252.05127,4279.487305,4333.589844,4311.153809,4288.974121,4266.153809,4277.307617,4279.871582,4264.102539,4269.743652,4564.102539,4538.077148,4418.333496,4496.153809,,,,,,,,,,,,,,,,,,,,,,,,,,,,,,,,,,,,,,,,,,,,,,,,,,,,,,,,,,,,,,,,,,,,,,
1769162054.636925,1769162054.637576,126.0,0.0,4261.410156,4281.538574,4335.641113,4310.384766,4290.128418,4270.897461,4279.487305,4283.461426,4262.05127,4262.692383,4563.717773,4538.205078,4413.974121,4494.871582,0.722084,0.140296,0.114408,0.205296,0.113731,0.366602,0.131151,0.114171,0.16973,0.084902,0.492231,0.14433,0.119712,0.171537,0.078832,0.205212,0.126572,0.088207,0.099276,0.056791,0.152582,0.146765,0.091753,0.10779,0.085919,0.231887,0.230855,0.119787,0.161447,0.166247,0.100692,0.298625,0.112038,0.113973,0.158189,0.260614,0.167014,0.332235,0.180514,0.077632,0.413078,0.244006,0.291698,0.162445,0.081543,0.38877,0.56226,0.433164,0.308292,0.210134,0.66751,0.319027,0.308597,0.151491,0.096265,0.518212,0.396019,0.363577,0.246454,0.13944,1.996514,0.939368,0.33865,0.280519,0.212072,1.585706,0.299267,0.337379,0.305867,0.245254
1769162054.644734,1769162054.645385,127.0,0.0,4265.512695,4282.307617,4340.256348,4316.922852,4291.922852,4275.897461,4279.102539,4288.974121,4271.666504,4276.410156,4568.205078,4539.743652,4415.128418,4493.717773,,,,,,,,,,,,,,,,,,,,,,,,,,,,,,,,,,,,,,,,,,,,,,,,,,,,,,,,,,,,,,,,,,,,,,
1769162054.652542,1769162054.652993,0.0,0.0,4252.436035,4281.666504,4337.05127,4317.94873,4291.025879,4277.436035,4278.717773,4290.256348,4274.871582,4282.94873,4568.077148,4538.205078,4420.384766,4491.538574,,,,,,,,,,,,,,,,,,,,,,,,,,,,,,,,,,,,,,,,,,,,,,,,,,,,,,,,,,,,,,,,,,,,,,
1769162054.66035,1769162054.660802,1.0,0.0,4247.94873,4281.666504,4334.358887,4311.153809,4289.487305,4278.589844,4280.256348,4290.769043,4270.384766,4270.256348,4563.846191,4536.025879,4418.461426,4491.538574,,,,,,,,,,,,,,,,,,,,,,,,,,,,,,,,,,,,,,,,,,,,,,,,,,,,,,,,,,,,,,,,,,,,,,
1769162054.668159,1769162054.66851,2.0,0.0,4259.743652,4281.794922,4337.05127,4309.743652,4291.794922,4278.205078,4280.897461,4294.743652,4271.666504,4262.436035,4565.512695,4538.333496,4417.05127,4497.307617,,,,,,,,,,,,,,,,,,,,,,,,,,,,,,,,,,,,,,,,,,,,,,,,,,,,,,,,,,,,,,,,,,,,,,
1769162054.675967,1769162054.676319,3.0,0.0,4259.615234,4277.94873,4337.692383,4310.641113,4291.282227,4275.384766,4278.974121,4294.743652,4276.153809,4258.205078,4566.666504,4541.922852,4417.436035,4499.615234,,,,,,,,,,,,,,,,,,,,,,,,,,,,,,,,,,,,,,,,,,,,,,,,,,,,,,,,,,,,,,,,,,,,,,
1769162054.683776,1769162054.684327,4.0,0.0,4249.230957,4275.384766,4334.615234,4308.589844,4288.846191,4274.102539,4278.717773,4295.384766,4273.461426,4258.974121,4558.205078,4540.769043,4413.077148,4494.743652,,,,,,,,,,,,,,,,,,,,,,,,,,,,,,,,,,,,,,,,,,,,,,,,,,,,,,,,,,,,,,,,,,,,,,
1769162054.691584,1769162054.692136,5.0,0.0,4248.077148,4278.333496,4330.0,4306.538574,4290.769043,4271.153809,4280.641113,4293.974121,4266.410156,4268.205078,4553.589844,4532.563965,4411.025879,4491.410156,,,,,,,,,,,,,,,,,,,,,,,,,,,,,,,,,,,,,,,,,,,,,,,,,,,,,,,,,,,,,,,,,,,,,,
1769162054.699393,1769162054.700044,6.0,0.0,4248.974121,4276.282227,4325.769043,4300.769043,4290.256348,4268.974121,4279.871582,4286.922852,4261.794922,4270.128418,4556.153809,4524.743652,4411.666504,4487.563965,,,,,,,,,,,,,,,,,,,,,,,,,,,,,,,,,,,,,,,,,,,,,,,,,,,,,,,,,,,,,,,,,,,,,,
1769162054.707201,1769162054.707852,7.0,0.0,4243.974121,4265.512695,4323.589844,4294.358887,4283.846191,4269.230957,4277.94873,4283.205078,4259.487305,4261.153809,4554.230957,4521.922852,4403.205078,4477.05127,,,,,,,,,,,,,,,,,,,,,,,,,,,,,,,,,,,,,,,,,,,,,,,,,,,,,,,,,,,,,,,,,,,,,,
1769162054.71501,1769162054.715461,8.0,0.0,4245.256348,4263.974121,4325.769043,4295.769043,4279.487305,4266.282227,4278.717773,4287.436035,4260.512695,4261.410156,4552.692383,4522.563965,4396.666504,4473.846191,,,,,,,,,,,,,,,,,,,,,,,,,,,,,,,,,,,,,,,,,,,,,,,,,,,,,,,,,,,,,,,,,,,,,,
1769162054.722818,1769162054.72327,9.0,0.0,4249.871582,4271.410156,4328.461426,4296.410156,4279.871582,4267.692383,4280.641113,4289.615234,4261.025879,4266.282227,4555.512695,4522.05127,4404.102539,4478.205078,,,,,,,,,,,,,,,,,,,,,,,,,,,,,,,,,,,,,,,,,,,,,,,,,,,,,,,,,,,,,,,,,,,,,,
1769162054.730627,1769162054.730978,10.0,0.0,4243.974121,4271.666504,4325.897461,4293.461426,4282.820313,4274.102539,4279.487305,4282.179688,4259.358887,4261.794922,4555.384766,4518.333496,4410.384766,4475.897461,,,,,,,,,,,,,,,,,,,,,,,,,,,,,,,,,,,,,,,,,,,,,,,,,,,,,,,,,,,,,,,,,,,,,,
1769162054.738435,1769162054.738787,11.0,0.0,4239.358887,4268.717773,4323.589844,4292.94873,4286.410156,4271.922852,4279.358887,4278.974121,4260.256348,4263.077148,4554.743652,4520.384766,4405.641113,4477.563965,,,,,,,,,,,,,,,,,,,,,,,,,,,,,,,,,,,,,,,,,,,,,,,,,,,,,,,,,,,,,,,,,,,,,,
1769162054.746244,1769162054.746795,12.0,0.0,4246.794922,4272.820313,4330.256348,4293.589844,4287.94873,4265.769043,4280.512695,4285.897461,4266.153809,4269.487305,4555.128418,4529.230957,4403.846191,4488.333496,,,,,,,,,,,,,,,,,,,,,,,,,,,,,,,,,,,,,,,,,,,,,,,,,,,,,,,,,,,,,,,,,,,,,,
1769162054.754052,1769162054.754603,13.0,0.0,4255.641113,4276.538574,4340.897461,4294.102539,4288.717773,4265.384766,4278.205078,4286.794922,4269.615234,4271.922852,4556.025879,4529.871582,4412.563965,4495.897461,,,,,,,,,,,,,,,,,,,,,,,,,,,,,,,,,,,,,,,,,,,,,,,,,,,,,,,,,,,,,,,,,,,,,,
1769162054.76186,1769162054.762512,14.0,0.0,4251.794922,4272.307617,4339.615234,4295.384766,4286.794922,4265.128418,4275.897461,4279.102539,4263.589844,4267.307617,4556.794922,4521.282227,4413.846191,4487.692383,0.519716,0.128373,0.105481,0.194597,0.111802,0.251262,0.141903,0.113014,0.160504,0.074124,0.442934,0.137726,0.11002,0.160218,0.083964,0.132122,0.115927,0.065147,0.103238,0.054979,0.130315,0.148235,0.088602,0.09255,0.092957,0.276526,0.211749,0.132195,0.147575,0.177039,0.12715,0.355346,0.135956,0.099959,0.160644,0.260005,0.144446,0.289242,0.190054,0.067979,0.382221,0.246398,0.258274,0.168564,0.087624,0.357119,0.503261,0.409577,0.271752,0.21773,0.576941,0.26891,0.273255,0.150908,0.094993,0.46371,0.405609,0.370931,0.268947,0.15316,1.554331,0.744648,0.307427,0.255422,0.205888,1.284385,0.298669,0.297969,0.290899,0.242677
1769162054.769669,1769162054.77032,15.0,0.0,4242.94873,4266.410156,4330.641113,4295.0,4282.05127,4268.974121,4279.615234,4284.230957,4265.0,4261.153809,4556.282227,4525.0,4405.512695,4475.641113,,,,,,,,,,,,,,,,,,,,,,,,,,,,,,,,,,,,,,,,,,,,,,,,,,,,,,,,,,,,,,,,,,,,,,
1769162054.777477,1769162054.778328,16.0,0.0,4243.589844,4262.820313,4330.384766,4292.05127,4281.025879,4273.589844,4282.05127,4297.436035,4275.384766,4262.179688,4557.307617,4540.0,4404.102539,4478.717773,,,,,,,,,,,,,,,,,,,,,,,,,,,,,,,,,,,,,,,,,,,,,,,,,,,,,,,,,,,,,,,,,,,,,,
1769162054.785286,1769162054.786137,17.0,0.0,4249.871582,4267.307617,4337.179688,4294.102539,4282.307617,4268.974121,4277.307617,4288.846191,4271.666504,4265.128418,4557.307617,4538.205078,4406.025879,4486.410156,,,,,,,,,,,,,,,,,,,,,,,,,,,,,,,,,,,,,,,,,,,,,,,,,,,,,,,,,,,,,,,,,,,,,,
1769162054.793094,1769162054.794045,18.0,0.0,4253.717773,4275.769043,4340.512695,4302.436035,4282.436035,4270.384766,4275.256348,4277.179688,4260.769043,4265.128418,4552.820313,4526.538574,4401.794922,4485.0,,,,,,,,,,,,,,,,,,,,,,,,,,,,,,,,,,,,,,,,,,,,,,,,,,,,,,,,,,,,,,,,,,,,,,
1769162054.800903,1769162054.801853,19.0,0.0,4249.487305,4271.666504,4340.769043,4301.538574,4281.538574,4275.384766,4278.077148,4286.153809,4261.666504,4262.436035,4548.717773,4525.641113,4394.615234,4476.538574,,,,,,,,,,,,,,,,,,,,,,,,,,,,,,,,,,,,,,,,,,,,,,,,,,,,,,,,,,,,,,,,,,,,,,
1769162054.808711,1769162054.809462,20.0,0.0,4244.487305,4265.897461,4342.563965,4295.897461,4281.410156,4269.102539,4278.461426,4294.871582,4266.538574,4260.128418,4551.282227,4533.974121,4396.794922,4474.230957,,,,,,,,,,,,,,,,,,,,,,,,,,,,,,,,,,,,,,,,,,,,,,,,,,,,,,,,,,,,,,,,,,,,,,
1769162054.81652,1769162054.817271,21.0,0.0,4246.410156,4273.589844,4341.282227,4301.538574,4282.307617,4263.717773,4276.922852,4290.128418,4264.615234,4262.692383,4557.820313,4540.769043,4408.846191,4484.102539,,,,,,,,,,,,,,,,,,,,,,,,,,,,,,,,,,,,,,,,,,,,,,,,,,,,,,,,,,,,,,,,,,,,,,
1769162054.824328,1769162054.824979,22.0,0.0,4251.153809,4281.922852,4339.358887,4307.563965,4281.282227,4266.282227,4277.820313,4285.641113,4262.179688,4268.205078,4559.230957,4538.846191,4416.153809,4495.641113,,,,,,,,,,,,,,,,,,,,,,,,,,,,,,,,,,,,,,,,,,,,,,,,,,,,,,,,,,,,,,,,,,,,,,
1769162054.832137,1769162054.832788,23.0,0.0,4252.307617,4277.692383,4345.769043,4302.307617,4275.769043,4267.820313,4280.384766,4292.05127,4261.410156,4262.94873,4553.205078,4534.358887,4407.563965,4490.512695,,,,,,,,,,,,,,,,,,,,,,,,,,,,,,,,,,,,,,,,,,,,,,,,,,,,,,,,,,,,,,,,,,,,,,
1769162054.839945,1769162054.840396,24.0,0.0,4251.282227,4276.666504,4352.05127,4304.102539,4276.794922,4266.025879,4279.102539,4296.153809,4262.436035,4252.820313,4550.384766,4535.641113,4403.461426,4482.307617,,,,,,,,,,,,,,,,,,,,,,,,,,,,,,,,,,,,,,,,,,,,,,,,,,,,,,,,,,,,,,,,,,,,,,
1769162054.847753,1769162054.848205,25.0,0.0,4252.05127,4282.307617,4349.743652,4311.538574,4282.307617,4262.436035,4274.615234,4287.436035,4263.717773,4262.179688,4555.641113,4540.897461,4412.436035,4491.025879,,,,,,,,,,,,,,,,,,,,,,,,,,,,,,,,,,,,,,,,,,,,,,,,,,,,,,,,,,,,,,,,,,,,,,
1769162054.855562,1769162054.855913,26.0,0.0,4249.358887,4279.487305,4340.769043,4307.563965,4282.307617,4260.641113,4274.615234,4277.692383,4261.538574,4274.358887,4558.077148,4541.410156,4413.077148,4492.820313,,,,,,,,,,,,,,,,,,,,,,,,,,,,,,,,,,,,,,,,,,,,,,,,,,,,,,,,,,,,,,,,,,,,,,
1769162054.86337,1769162054.863722,27.0,0.0,4253.717773,4274.230957,4339.358887,4305.256348,4285.0,4264.871582,4278.846191,4284.358887,4263.205078,4267.436035,4554.230957,4534.615234,4408.717773,4479.743652,,,,,,,,,,,,,,,,,,,,,,,,,,,,,,,,,,,,,,,,,,,,,,,,,,,,,,,,,,,,,,,,,,,,,,
1769162054.871179,1769162054.87173,28.0,0.0,4264.358887,4278.333496,4348.077148,4309.871582,4291.025879,4266.666504,4278.589844,4290.641113,4265.128418,4261.153809,4551.153809,4528.589844,4409.487305,4473.974121,,,,,,,,,,,,,,,,,,,,,,,,,,,,,,,,,,,,,,,,,,,,,,,,,,,,,,,,,,,,,,,,,,,,,,
1769162054.878987,1769162054.879538,29.0,0.0,4260.512695,4281.538574,4351.538574,4311.282227,4290.897461,4263.717773,4276.025879,4280.769043,4262.563965,4263.717773,4551.538574,4530.0,4409.102539,4482.179688,,,,,,,,,,,,,,,,,,,,,,,,,,,,,,,,,,,,,,,,,,,,,,,,,,,,,,,,,,,,,,,,,,,,,,
1769162054.886796,1769162054.887447,30.0,0.0,4246.410156,4271.282227,4344.487305,4307.436035,4289.102539,4262.436035,4277.563965,4277.820313,4262.307617,4262.307617,4555.0,4537.563965,4409.230957,4491.538574,0.356948,0.138207,0.108213,0.194625,0.117659,0.19522,0.176529,0.129233,0.156857,0.070295,0.407379,0.139687,0.104603,0.144953,0.088664,0.10387,0.111815,0.050765,0.109924,0.054576,0.143168,0.162069,0.084729,0.07789,0.095846,0.333612,0.187303,0.144075,0.136349,0.184973,0.162539,0.39896,0.160963,0.085691,0.155599,0.262836,0.147827,0.234683,0.190497,0.0646,0.368808,0.252848,0.230751,0.168586,0.098426,0.375842,0.460618,0.363249,0.229581,0.229641,0.605443,0.236638,0.249966,0.147383,0.093982,0.474193,0.393371,0.375906,0.283002,0.165026,1.233019,0.549011,0.268522,0.22474,0.200776,1.14122,0.300962,0.270193,0.272616,0.242418
1769162054.894604,1769162054.895255,31.0,0.0,4241.794922,4262.563965,4338.333496,4302.692383,4288.974121,4267.436035,4280.0,4283.974121,4264.487305,4263.717773,4557.820313,4541.153809,4413.717773,4488.846191,,,,,,,,,,,,,,,,,,,,,,,,,,,,,,,,,,,,,,,,,,,,,,,,,,,,,,,,,,,,,,,,,,,,,,
1769162054.902413,1769162054.903263,32.0,0.0,4250.769043,4269.102539,4342.820313,4306.153809,4288.077148,4275.256348,4280.128418,4282.179688,4260.641113,4265.384766,4554.487305,4539.230957,4412.563965,4477.307617,,,,,,,,,,,,,,,,,,,,,,,,,,,,,,,,,,,,,,,,,,,,,,,,,,,,,,,,,,,,,,,,,,,,,,
1769162054.910221,1769162054.911072,33.0,0.0,4262.436035,4280.769043,4354.487305,4317.692383,4290.641113,4272.94873,4278.974121,4280.769043,4260.769043,4264.743652,4551.666504,4538.077148,4410.512695,4471.922852,,,,,,,,,,,,,,,,,,,,,,,,,,,,,,,,,,,,,,,,,,,,,,,,,,,,,,,,,,,,,,,,,,,,,,
1769162054.918029,1769162054.91878,34.0,0.0,4259.871582,4282.05127,4359.230957,4320.128418,4294.871582,4265.256348,4278.333496,4292.563965,4275.128418,4271.410156,4560.256348,4539.615234,4414.743652,4480.128418,,,,,,,,,,,,,,,,,,,,,,,,,,,,,,,,,,,,,,,,,,,,,,,,,,,,,,,,,,,,,,,,,,,,,,
1769162054.925838,1769162054.926589,35.0,0.0,4247.692383,4271.922852,4350.0,4310.384766,4292.820313,4266.153809,4279.230957,4298.717773,4282.692383,4274.230957,4568.589844,4543.974121,4416.410156,4489.743652,,,,,,,,,,,,,,,,,,,,,,,,,,,,,,,,,,,,,,,,,,,,,,,,,,,,,,,,,,,,,,,,,,,,,,
1769162054.933646,1769162054.934197,36.0,0.0,4243.333496,4261.922852,4338.333496,4305.0,4290.769043,4268.461426,4280.897461,4286.922852,4271.153809,4264.358887,4561.410156,4544.230957,4411.538574,4486.282227,,,,,,,,,,,,,,,,,,,,,,,,,,,,,,,,,,,,,,,,,,,,,,,,,,,,,,,,,,,,,,,,,,,,,,
1769162054.941455,1769162054.942006,37.0,0.0,4249.230957,4262.563965,4342.179688,4310.897461,4292.563965,4266.794922,4281.282227,4278.205078,4260.384766,4262.692383,4552.436035,4538.589844,4406.538574,4474.358887,,,,,,,,,,,,,,,,,,,,,,,,,,,,,,,,,,,,,,,,,,,,,,,,,,,,,,,,,,,,,,,,,,,,,,
1769162054.949263,1769162054.949914,38.0,0.0,4256.153809,4269.743652,4352.179688,4318.205078,4295.384766,4266.922852,4280.897461,4279.743652,4262.820313,4266.153809,4553.589844,4537.820313,4406.153809,4471.153809,,,,,,,,,,,,,,,,,,,,,,,,,,,,,,,,,,,,,,,,,,,,,,,,,,,,,,,,,,,,,,,,,,,,,,
1769162054.957072,1769162054.957723,39.0,0.0,4256.410156,4268.205078,4350.256348,4315.769043,4291.794922,4264.615234,4279.871582,4280.641113,4265.256348,4256.410156,4555.0,4540.769043,4405.0,4475.256348,,,,,,,,,,,,,,,,,,,,,,,,,,,,,,,,,,,,,,,,,,,,,,,,,,,,,,,,,,,,,,,,,,,,,,
1769162054.96488,1769162054.965731,40.0,0.0,4245.769043,4258.333496,4341.538574,4307.05127,4282.820313,4260.512695,4278.717773,4279.871582,4263.589844,4251.794922,4552.94873,4539.487305,4403.205078,4474.871582,,,,,,,,,,,,,,,,,,,,,,,,,,,,,,,,,,,,,,,,,,,,,,,,,,,,,,,,,,,,,,,,,,,,,,
1769162054.972689,1769162054.973539,41.0,0.0,4239.487305,4255.0,4338.461426,4306.794922,4283.333496,4262.563965,4277.692383,4280.769043,4262.94873,4262.307617,4553.077148,4537.05127,4403.461426,4469.743652,,,,,,,,,,,,,,,,,,,,,,,,,,,,,,,,,,,,,,,,,,,,,,,,,,,,,,,,,,,,,,,,,,,,,,
1769162054.980497,1769162054.981448,42.0,0.0,4243.846191,4259.358887,4341.922852,4312.436035,4288.461426,4264.358887,4277.436035,4279.871582,4263.589844,4263.846191,4553.717773,4539.615234,4402.05127,4468.846191,,,,,,,,,,,,,,,,,,,,,,,,,,,,,,,,,,,,,,,,,,,,,,,,,,,,,,,,,,,,,,,,,,,,,,
1769162054.988305,1769162054.989256,43.0,0.0,4248.589844,4262.436035,4347.692383,4312.436035,4283.974121,4263.077148,4278.077148,4278.205078,4263.205078,4251.282227,4550.641113,4540.384766,4395.0,4471.922852,,,,,,,,,,,,,,,,,,,,,,,,,,,,,,,,,,,,,,,,,,,,,,,,,,,,,,,,,,,,,,,,,,,,,,
1769162054.996114,1769162054.996965,44.0,0.0,4256.666504,4262.563965,4354.358887,4315.769043,4278.205078,4261.410156,4278.333496,4278.974121,4260.641113,4246.794922,4548.077148,4538.846191,4393.333496,4479.102539,,,,,,,,,,,,,,,,,,,,,,,,,,,,,,,,,,,,,,,,,,,,,,,,,,,,,,,,,,,,,,,,,,,,,,
1769162055.003922,1769162055.004773,45.0,0.0,4260.641113,4262.820313,4357.94873,4321.025879,4280.512695,4259.487305,4276.538574,4278.717773,4259.743652,4256.538574,4552.563965,4542.563965,4402.94873,4490.256348,,,,,,,,,,,,,,,,,,,,,,,,,,,,,,,,,,,,,,,,,,,,,,,,,,,,,,,,,,,,,,,,,,,,,,
1769162055.011731,1769162055.012482,46.0,0.0,4250.897461,4262.179688,4356.666504,4317.307617,4286.794922,4262.179688,4276.153809,4279.871582,4262.436035,4263.461426,4556.794922,4546.153809,4407.692383,4490.641113,0.2827,0.172062,0.121916,0.210622,0.131848,0.229051,0.237501,0.158736,0.160137,0.073687,0.397022,0.145619,0.100865,0.127067,0.091246,0.13457,0.114656,0.04201,0.115874,0.056129,0.20074,0.178502,0.079788,0.066067,0.094649,0.396517,0.163346,0.159587,0.130611,0.18758,0.195137,0.413155,0.180525,0.072785,0.144513,0.26802,0.171993,0.187939,0.180996,0.070944,0.36442,0.25577,0.212717,0.159995,0.112506,0.437795,0.4321,0.311869,0.191364,0.243863,0.736225,0.225097,0.249285,0.141461,0.095306,0.549697,0.364256,0.379095,0.282284,0.173878,1.109142,0.399328,0.245407,0.195982,0.196838,1.187485,0.313657,0.274975,0.262069,0.245883
1769162055.019539,1769162055.02029,47.0,0.0,4243.974121,4262.307617,4354.230957,4311.025879,4291.794922,4265.384766,4277.820313,4278.077148,4262.94873,4261.282227,4552.436035,4540.769043,4401.282227,4480.128418,,,,,,,,,,,,,,,,,,,,,,,,,,,,,,,,,,,,,,,,,,,,,,,,,,,,,,,,,,,,,,,,,,,,,,
1769162055.027348,1769162055.027899,48.0,0.0,4246.538574,4262.563965,4351.410156,4311.025879,4289.743652,4265.512695,4279.487305,4279.487305,4261.922852,4255.512695,4547.307617,4537.05127,4393.974121,4473.461426,,,,,,,,,,,,,,,,,,,,,,,,,,,,,,,,,,,,,,,,,,,,,,,,,,,,,,,,,,,,,,,,,,,,,,
1769162055.035156,1769162055.035707,49.0,0.0,4254.615234,4263.077148,4353.717773,4315.641113,4285.769043,4270.897461,4281.794922,4287.692383,4263.077148,4257.563965,4554.230957,4546.025879,4399.615234,4478.333496,,,,,,,,,,,,,,,,,,,,,,,,,,,,,,,,,,,,,,,,,,,,,,,,,,,,,,,,,,,,,,,,,,,,,,
1769162055.042965,1769162055.043416,50.0,0.0,4263.077148,4265.0,4358.589844,4321.410156,4291.410156,4275.897461,4280.897461,4285.256348,4263.461426,4264.230957,4563.205078,4556.282227,4410.384766,4488.846191,,,,,,,,,,,,,,,,,,,,,,,,,,,,,,,,,,,,,,,,,,,,,,,,,,,,,,,,,,,,,,,,,,,,,,
1769162055.050773,1769162055.051224,51.0,0.0,4263.846191,4265.897461,4357.692383,4323.974121,4295.128418,4269.871582,4277.692383,4277.820313,4262.94873,4266.410156,4560.384766,4554.230957,4412.05127,4488.333496,,,,,,,,,,,,,,,,,,,,,,,,,,,,,,,,,,,,,,,,,,,,,,,,,,,,,,,,,,,,,,,,,,,,,,
1769162055.058581,1769162055.058833,52.0,0.0,4259.487305,4267.692383,4355.769043,4322.179688,4290.512695,4261.282227,4277.179688,4282.820313,4265.128418,4265.384766,4555.384766,4550.897461,4409.615234,4482.436035,,,,,,,,,,,,,,,,,,,,,,,,,,,,,,,,,,,,,,,,,,,,,,,,,,,,,,,,,,,,,,,,,,,,,,
1769162055.06639,1769162055.066641,53.0,0.0,4262.05127,4268.461426,4358.717773,4324.230957,4288.589844,4266.666504,4281.794922,4285.128418,4265.769043,4264.487305,4557.692383,4552.692383,4411.025879,4483.333496,,,,,,,,,,,,,,,,,,,,,,,,,,,,,,,,,,,,,,,,,,,,,,,,,,,,,,,,,,,,,,,,,,,,,,
1769162055.074199,1769162055.07455,54.0,0.0,4264.358887,4266.282227,4360.769043,4328.333496,4291.410156,4277.307617,4287.307617,4278.589844,4262.436035,4261.922852,4557.94873,4551.025879,4411.153809,4483.333496,,,,,,,,,,,,,,,,,,,,,,,,,,,,,,,,,,,,,,,,,,,,,,,,,,,,,,,,,,,,,,,,,,,,,,
1769162055.082007,1769162055.082358,55.0,0.0,4261.922852,4269.487305,4359.743652,4327.563965,4295.384766,4272.94873,4285.769043,4285.769043,4265.512695,4265.0,4557.692383,4551.410156,4409.487305,4478.846191,,,,,,,,,,,,,,,,,,,,,,,,,,,,,,,,,,,,,,,,,,,,,,,,,,,,,,,,,,,,,,,,,,,,,,
1769162055.089816,1769162055.090366,56.0,0.0,4262.436035,4273.589844,4359.487305,4326.282227,4296.794922,4264.487305,4279.743652,4294.615234,4272.563965,4273.077148,4560.769043,4551.666504,4413.461426,4478.205078,,,,,,,,,,,,,,,,,,,,,,,,,,,,,,,,,,,,,,,,,,,,,,,,,,,,,,,,,,,,,,,,,,,,,,
1769162055.097624,1769162055.098175,57.0,0.0,4261.538574,4269.487305,4358.461426,4325.0,4293.589844,4264.871582,4277.307617,4285.256348,4269.743652,4270.128418,4559.487305,4540.256348,4415.128418,4477.436035,,,,,,,,,,,,,,,,,,,,,,,,,,,,,,,,,,,,,,,,,,,,,,,,,,,,,,,,,,,,,,,,,,,,,,
1769162055.105432,1769162055.106083,58.0,0.0,4257.820313,4263.974121,4356.922852,4321.410156,4289.487305,4265.384766,4279.102539,4279.358887,4261.282227,4260.512695,4553.333496,4537.692383,4411.410156,4477.692383,,,,,,,,,,,,,,,,,,,,,,,,,,,,,,,,,,,,,,,,,,,,,,,,,,,,,,,,,,,,,,,,,,,,,,
1769162055.113241,1769162055.113892,59.0,0.0,4259.871582,4264.615234,4356.922852,4321.282227,4287.692383,4267.307617,4280.769043,4280.512695,4259.871582,4259.358887,4556.282227,4550.641113,4412.05127,4488.717773,,,,,,,,,,,,,,,,,,,,,,,,,,,,,,,,,,,,,,,,,,,,,,,,,,,,,,,,,,,,,,,,,,,,,,
1769162055.121049,1769162055.1215,60.0,0.0,4264.230957,4269.487305,4358.333496,4323.717773,4286.794922,4271.410156,4280.512695,4281.282227,4264.230957,4260.512695,4564.102539,4552.563965,4413.205078,4493.974121,,,,,,,,,,,,,,,,,,,,,,,,,,,,,,,,,,,,,,,,,,,,,,,,,,,,,,,,,,,,,,,,,,,,,,
1769162055.128858,1769162055.129309,61.0,0.0,4264.871582,4275.641113,4359.487305,4325.641113,4287.94873,4269.743652,4278.461426,4286.410156,4267.307617,4261.410156,4563.846191,4549.358887,4413.205078,4489.743652,,,,,,,,,,,,,,,,,,,,,,,,,,,,,,,,,,,,,,,,,,,,,,,,,,,,,,,,,,,,,,,,,,,,,,
1769162055.136666,1769162055.137017,62.0,0.0,4264.230957,4273.717773,4361.410156,4324.615234,4291.282227,4273.077148,4285.0,4286.922852,4265.384766,4265.512695,4557.94873,4552.436035,4412.307617,4493.205078,0.309424,0.223974,0.142784,0.245266,0.153044,0.360132,0.318489,0.196835,0.170857,0.084111,0.424806,0.154463,0.100506,0.112602,0.092031,0.229949,0.125666,0.039165,0.119484,0.06042,0.292599,0.191479,0.076339,0.058784,0.090578,0.451401,0.144641,0.179885,0.13167,0.182767,0.216215,0.389829,0.188742,0.063349,0.129293,0.273994,0.208711,0.162955,0.166062,0.089217,0.358323,0.253605,0.205255,0.14628,0.128572,0.516808,0.40837,0.267666,0.165511,0.25739,0.905143,0.231004,0.271097,0.133208,0.09962,0.66971,0.330754,0.382761,0.264417,0.179322,1.143513,0.322485,0.25681,0.173251,0.194025,1.355788,0.341664,0.326813,0.263163,0.251866
1769162055.144475,1769162055.144826,63.0,0.0,4257.05127,4265.256348,4357.820313,4316.666504,4290.384766,4281.538574,4293.717773,4278.846191,4260.897461,4255.897461,4552.94873,4546.410156,4402.307617,4488.846191,,,,,,,,,,,,,,,,,,,,,,,,,,,,,,,,,,,,,,,,,,,,,,,,,,,,,,,,,,,,,,,,,,,,,,
1769162055.152283,1769162055.152834,64.0,0.0,4246.538574,4258.461426,4347.692383,4310.0,4283.974121,4277.820313,4287.307617,4280.0,4263.717773,4242.94873,4551.025879,4541.794922,4390.128418,4475.256348,,,,,,,,,,,,,,,,,,,,,,,,,,,,,,,,,,,,,,,,,,,,,,,,,,,,,,,,,,,,,,,,,,,,,,
1769162055.160092,1769162055.160642,65.0,0.0,4243.077148,4251.922852,4344.230957,4309.871582,4279.743652,4272.436035,4282.692383,4292.307617,4272.179688,4256.794922,4553.589844,4552.820313,4398.846191,4480.384766,,,,,,,,,,,,,,,,,,,,,,,,,,,,,,,,,,,,,,,,,,,,,,,,,,,,,,,,,,,,,,,,,,,,,,
1769162055.1679,1769162055.168551,66.0,0.0,4248.461426,4252.436035,4352.820313,4312.179688,4278.846191,4272.179688,4287.436035,4295.897461,4276.025879,4274.230957,4558.333496,4559.743652,4413.589844,4492.179688,,,,,,,,,,,,,,,,,,,,,,,,,,,,,,,,,,,,,,,,,,,,,,,,,,,,,,,,,,,,,,,,,,,,,,
1769162055.175708,1769162055.176359,67.0,0.0,4258.589844,4264.358887,4358.077148,4318.717773,4277.563965,4266.794922,4285.641113,4287.820313,4271.794922,4268.589844,4558.846191,4555.384766,4407.820313,4483.333496,,,,,,,,,,,,,,,,,,,,,,,,,,,,,,,,,,,,,,,,,,,,,,,,,,,,,,,,,,,,,,,,,,,,,,
1769162055.183517,1769162055.183968,68.0,0.0,4264.871582,4269.230957,4348.461426,4320.769043,4275.512695,4263.461426,4279.358887,4279.871582,4265.128418,4259.615234,4554.871582,4553.077148,4400.256348,4472.05127,,,,,,,,,,,,,,,,,,,,,,,,,,,,,,,,,,,,,,,,,,,,,,,,,,,,,,,,,,,,,,,,,,,,,,
1769162055.191325,1769162055.191776,69.0,0.0,4262.692383,4263.461426,4342.94873,4312.692383,4274.743652,4267.05127,4281.410156,4278.205078,4262.563965,4261.282227,4555.384766,4552.05127,4403.974121,4477.179688,,,,,,,,,,,,,,,,,,,,,,,,,,,,,,,,,,,,,,,,,,,,,,,,,,,,,,,,,,,,,,,,,,,,,,
1769162055.199134,1769162055.199485,70.0,0.0,4261.282227,4263.205078,4351.666504,4312.94873,4273.205078,4265.512695,4280.384766,4279.487305,4263.589844,4261.410156,4557.307617,4549.743652,4402.820313,4479.358887,,,,,,,,,,,,,,,,,,,,,,,,,,,,,,,,,,,,,,,,,,,,,,,,,,,,,,,,,,,,,,,,,,,,,,
1769162055.206942,1769162055.207293,71.0,0.0,4264.871582,4266.666504,4357.307617,4320.384766,4273.205078,4262.05127,4277.563965,4280.0,4268.461426,4262.05127,4558.205078,4551.794922,4399.615234,4475.512695,,,,,,,,,,,,,,,,,,,,,,,,,,,,,,,,,,,,,,,,,,,,,,,,,,,,,,,,,,,,,,,,,,,,,,
1769162055.214751,1769162055.214902,72.0,0.0,4262.692383,4265.512695,4351.410156,4316.282227,4275.897461,4268.461426,4289.487305,4281.794922,4272.05127,4265.897461,4558.589844,4553.974121,4405.128418,4477.94873,,,,,,,,,,,,,,,,,,,,,,,,,,,,,,,,,,,,,,,,,,,,,,,,,,,,,,,,,,,,,,,,,,,,,,
1769162055.222559,1769162055.22271,73.0,0.0,4258.461426,4262.692383,4345.897461,4310.512695,4275.641113,4271.922852,4293.846191,4281.282227,4269.615234,4265.769043,4557.436035,4552.563965,4405.0,4479.615234,,,,,,,,,,,,,,,,,,,,,,,,,,,,,,,,,,,,,,,,,,,,,,,,,,,,,,,,,,,,,,,,,,,,,,
1769162055.230368,1769162055.230419,74.0,0.0,4260.897461,4262.563965,4348.077148,4311.538574,4274.102539,4267.179688,4287.820313,4279.871582,4265.384766,4264.615234,4556.538574,4551.282227,4396.538574,4477.179688,,,,,,,,,,,,,,,,,,,,,,,,,,,,,,,,,,,,,,,,,,,,,,,,,,,,,,,,,,,,,,,,,,,,,,
1769162055.238176,1769162055.238227,75.0,0.0,4262.179688,4264.230957,4350.0,4310.897461,4276.153809,4269.487305,4288.717773,4282.436035,4266.282227,4263.717773,4555.641113,4549.487305,4395.512695,4475.256348,,,,,,,,,,,,,,,,,,,,,,,,,,,,,,,,,,,,,,,,,,,,,,,,,,,,,,,,,,,,,,,,,,,,,,
1769162055.245984,1769162055.245836,76.0,0.0,4259.871582,4266.282227,4349.487305,4311.922852,4277.563965,4277.94873,4287.94873,4281.025879,4265.641113,4263.589844,4553.461426,4546.666504,4397.820313,4475.897461,,,,,,,,,,,,,,,,,,,,,,,,,,,,,,,,,,,,,,,,,,,,,,,,,,,,,,,,,,,,,,,,,,,,,,
1769162055.253793,1769162055.253645,77.0,0.0,4260.769043,4271.153809,4349.358887,4314.230957,4277.436035,4276.410156,4283.333496,4276.666504,4263.461426,4264.615234,4552.692383,4550.256348,4400.128418,4476.538574,,,,,,,,,,,,,,,,,,,,,,,,,,,,,,,,,,,,,,,,,,,,,,,,,,,,,,,,,,,,,,,,,,,,,,
1769162055.261601,1769162055.261553,78.0,0.0,4263.333496,4273.077148,4351.282227,4312.820313,4278.205078,4272.820313,4288.333496,4284.743652,4265.641113,4264.615234,4555.641113,4557.05127,4403.974121,4477.436035,0.41452,0.276524,0.164523,0.298558,0.177357,0.565417,0.401758,0.236546,0.187151,0.100012,0.49731,0.165452,0.106819,0.108948,0.09371,0.37865,0.138933,0.044033,0.120837,0.067683,0.412454,0.197022,0.077682,0.055849,0.085411,0.485689,0.134136,0.201167,0.138608,0.170245,0.221853,0.331853,0.181243,0.058222,0.111611,0.283938,0.249298,0.161455,0.152919,0.118656,0.338409,0.250184,0.207315,0.134022,0.145298,0.578329,0.379175,0.237158,0.155455,0.268159,1.035615,0.248444,0.304752,0.123019,0.106234,0.808966,0.305217,0.388177,0.232425,0.181759,1.235837,0.314063,0.301514,0.1568,0.191785,1.552292,0.383589,0.420127,0.274429,0.258826
1769162055.26941,1769162055.269361,79.0,0.0,4262.692383,4267.820313,4353.846191,4312.05127,4274.743652,4274.102539,4295.512695,4294.487305,4267.820313,4265.512695,4559.871582,4558.717773,4403.974121,4480.641113,,,,,,,,,,,,,,,,,,,,,,,,,,,,,,,,,,,,,,,,,,,,,,,,,,,,,,,,,,,,,,,,,,,,,,
