Timestamp,OriginalTimestamp,EEG.Counter,EEG.Interpolated,EEG.AF3,EEG.F7,EEG.F3,EEG.FC5,EEG.T7,EEG.P7,EEG.O1,EEG.O2,EEG.P8,EEG.T8,EEG.FC6,EEG.F4,EEG.F8,EEG.AF4,POW.AF3.Theta,POW.AF3.Alpha,POW.AF3.BetaL,POW.AF3.BetaH,POW.AF3.Gamma,POW.F7.Theta,POW.F7.Alpha,POW.F7.BetaL,POW.F7.BetaH,POW.F7.Gamma,POW.F3.Theta,POW.F3.Alpha,POW.F3.BetaL,POW.F3.BetaH,POW.F3.Gamma,POW.FC5.Theta,POW.FC5.Alpha,POW.FC5.BetaL,POW.FC5.BetaH,POW.FC5.Gamma,POW.T7.Theta,POW.T7.Alpha,POW.T7.BetaL,POW.T7.BetaH,POW.T7.Gamma,POW.P7.Theta,POW.P7.Alpha,POW.P7.BetaL,POW.P7.BetaH,POW.P7.Gamma,POW.O1.Theta,POW.O1.Alpha,POW.O1.BetaL,POW.O1.BetaH,POW.O1.Gamma,POW.O2.Theta,POW.O2.Alpha,POW.O2.BetaL,POW.O2.BetaH,POW.O2.Gamma,POW.P8.Theta,POW.P8.Alpha,POW.P8.BetaL,POW.P8.BetaH,POW.P8.Gamma,POW.T8.Theta,POW.T8.Alpha,POW.T8.BetaL,POW.T8.BetaH,POW.T8.Gamma,POW.FC6.Theta,POW.FC6.Alpha,POW.FC6.BetaL,POW.FC6.BetaH,POW.FC6.Gamma,POW.F4.Theta,POW.F4.Alpha,POW.F4.BetaL,POW.F4.BetaH,POW.F4.Gamma,POW.F8.Theta,POW.F8.Alpha,POW.F8.BetaL,POW.F8.BetaH,POW.F8.Gamma,POW.AF4.Theta,POW.AF4.Alpha,POW.AF4.BetaL,POW.AF4.BetaH,POW.AF4.Gamma
1768920183.023918,1768920183.02442,75.0,0.0,4340.384766,4325.256348,4344.615234,4357.307617,4326.794922,4326.025879,4324.871582,4339.358887,4323.717773,4301.922852,4492.05127,4525.512695,4385.384766,4450.769043,,,,,,,,,,,,,,,,,,,,,,,,,,,,,,,,,,,,,,,,,,,,,,,,,,,,,,,,,,,,,,,,,,,,,,
1768920183.031727,1768920183.032428,76.0,0.0,4337.692383,4322.94873,4346.282227,4354.487305,4330.128418,4334.358887,4326.538574,4336.538574,4324.871582,4291.794922,4490.769043,4523.974121,4379.487305,4446.410156,,,,,,,,,,,,,,,,,,,,,,,,,,,,,,,,,,,,,,,,,,,,,,,,,,,,,,,,,,,,,,,,,,,,,,
1768920183.039535,1768920183.040237,77.0,0.0,4343.205078,4323.846191,4352.563965,4354.102539,4329.487305,4332.563965,4323.974121,4339.230957,4327.307617,4295.641113,4489.487305,4528.589844,4379.358887,4448.205078,,,,,,,,,,,,,,,,,,,,,,,,,,,,,,,,,,,,,,,,,,,,,,,,,,,,,,,,,,,,,,,,,,,,,,
1768920183.047344,1768920183.048145,78.0,0.0,4347.692383,4323.717773,4354.230957,4356.025879,4325.769043,4325.641113,4323.974121,4348.077148,4329.615234,4305.897461,4494.230957,4531.025879,4385.384766,4453.717773,,,,,,,,,,,,,,,,,,,,,,,,,,,,,,,,,,,,,,,,,,,,,,,,,,,,,,,,,,,,,,,,,,,,,,
1768920183.055153,1768920183.055953,79.0,0.0,4345.128418,4324.487305,4355.641113,4356.794922,4329.102539,4325.128418,4326.666504,4345.769043,4325.769043,4305.641113,4498.461426,4529.102539,4392.307617,4456.153809,,,,,,,,,,,,,,,,,,,,,,,,,,,,,,,,,,,,,,,,,,,,,,,,,,,,,,,,,,,,,,,,,,,,,,
1768920183.062961,1768920183.063962,80.0,0.0,4345.256348,4331.666504,4358.461426,4360.384766,4334.102539,4327.05127,4322.05127,4338.333496,4323.205078,4302.05127,4495.897461,4531.410156,4395.769043,4454.871582,0.522036,0.181897,0.207858,0.304804,0.112834,0.420834,0.173338,0.394974,0.195013,0.110323,0.362108,0.191739,0.223201,0.279028,0.167126,0.193152,0.092095,0.170201,0.102045,0.061488,0.318672,0.21089,0.19817,0.106995,0.082125,0.258265,0.218516,0.15143,0.125099,0.191522,0.378383,0.140168,0.288538,0.205322,0.140766,0.197411,0.23474,0.415681,0.177094,0.112229,0.200548,0.497567,0.579137,0.196124,0.094754,0.474164,0.392261,0.702518,0.261191,0.095387,0.761655,0.482159,0.566212,0.362615,0.200413,0.827472,0.573358,0.724225,0.541064,0.187732,0.521229,0.281804,0.540246,0.34517,0.130317,0.95991,0.337005,0.599231,0.486633,0.182891
1768920183.070769,1768920183.07177,81.0,0.0,4354.871582,4338.077148,4358.846191,4366.153809,4330.256348,4329.743652,4318.589844,4344.871582,4332.05127,4306.794922,4499.487305,4540.641113,4398.589844,4461.666504,,,,,,,,,,,,,,,,,,,,,,,,,,,,,,,,,,,,,,,,,,,,,,,,,,,,,,,,,,,,,,,,,,,,,,
1768920183.078578,1768920183.079479,82.0,0.0,4357.563965,4337.94873,4358.717773,4367.307617,4327.179688,4329.871582,4323.974121,4348.461426,4335.256348,4311.410156,4509.102539,4542.820313,4401.666504,4468.077148,,,,,,,,,,,,,,,,,,,,,,,,,,,,,,,,,,,,,,,,,,,,,,,,,,,,,,,,,,,,,,,,,,,,,,
1768920183.086387,1768920183.087287,83.0,0.0,4347.436035,4338.717773,4358.717773,4365.641113,4333.846191,4325.512695,4324.102539,4338.717773,4325.128418,4308.077148,4511.282227,4540.128418,4402.436035,4464.358887,,,,,,,,,,,,,,,,,,,,,,,,,,,,,,,,,,,,,,,,,,,,,,,,,,,,,,,,,,,,,,,,,,,,,,
1768920183.094195,1768920183.094896,84.0,0.0,4343.077148,4334.743652,4358.461426,4365.0,4337.436035,4328.077148,4321.153809,4333.974121,4321.922852,4307.820313,4507.94873,4539.358887,4402.563965,4461.153809,,,,,,,,,,,,,,,,,,,,,,,,,,,,,,,,,,,,,,,,,,,,,,,,,,,,,,,,,,,,,,,,,,,,,,
1768920183.102003,1768920183.102704,85.0,0.0,4348.974121,4330.897461,4358.717773,4365.897461,4335.384766,4337.436035,4326.153809,4340.512695,4329.743652,4312.179688,4509.743652,4542.692383,4404.743652,4465.384766,,,,,,,,,,,,,,,,,,,,,,,,,,,,,,,,,,,,,,,,,,,,,,,,,,,,,,,,,,,,,,,,,,,,,,
1768920183.109812,1768920183.110413,86.0,0.0,4350.769043,4336.794922,4358.077148,4367.307617,4336.282227,4333.974121,4328.205078,4343.077148,4331.922852,4311.666504,4511.282227,4543.717773,4404.487305,4466.794922,,,,,,,,,,,,,,,,,,,,,,,,,,,,,,,,,,,,,,,,,,,,,,,,,,,,,,,,,,,,,,,,,,,,,,
1768920183.117621,1768920183.118221,87.0,0.0,4347.563965,4336.922852,4357.692383,4366.025879,4338.846191,4324.487305,4322.820313,4337.563965,4326.794922,4308.461426,4508.717773,4537.307617,4401.025879,4459.743652,,,,,,,,,,,,,,,,,,,,,,,,,,,,,,,,,,,,,,,,,,,,,,,,,,,,,,,,,,,,,,,,,,,,,,
1768920183.125429,1768920183.12583,88.0,0.0,4347.94873,4332.307617,4357.94873,4365.256348,4339.487305,4328.205078,4320.0,4335.384766,4326.922852,4310.0,4508.461426,4536.282227,4404.358887,4458.333496,,,,,,,,,,,,,,,,,,,,,,,,,,,,,,,,,,,,,,,,,,,,,,,,,,,,,,,,,,,,,,,,,,,,,,
1768920183.133237,1768920183.133638,89.0,0.0,4352.436035,4335.256348,4358.333496,4367.820313,4337.692383,4334.358887,4320.769043,4340.769043,4333.846191,4316.153809,4510.0,4540.128418,4409.102539,4464.102539,,,,,,,,,,,,,,,,,,,,,,,,,,,,,,,,,,,,,,,,,,,,,,,,,,,,,,,,,,,,,,,,,,,,,,
1768920183.141046,1768920183.141347,90.0,0.0,4354.102539,4337.307617,4356.794922,4368.974121,4339.615234,4330.769043,4322.05127,4346.282227,4339.230957,4322.179688,4511.153809,4540.641113,4408.333496,4464.487305,,,,,,,,,,,,,,,,,,,,,,,,,,,,,,,,,,,,,,,,,,,,,,,,,,,,,,,,,,,,,,,,,,,,,,
1768920183.148855,1768920183.149155,91.0,0.0,4348.333496,4330.641113,4353.461426,4365.769043,4339.615234,4326.153809,4324.102539,4343.077148,4336.794922,4321.794922,4508.589844,4537.820313,4404.358887,4461.538574,,,,,,,,,,,,,,,,,,,,,,,,,,,,,,,,,,,,,,,,,,,,,,,,,,,,,,,,,,,,,,,,,,,,,,
1768920183.156663,1768920183.157163,92.0,0.0,4341.282227,4332.307617,4351.410156,4361.153809,4331.538574,4326.666504,4325.769043,4341.794922,4335.512695,4319.615234,4508.205078,4538.461426,4403.077148,4466.153809,,,,,,,,,,,,,,,,,,,,,,,,,,,,,,,,,,,,,,,,,,,,,,,,,,,,,,,,,,,,,,,,,,,,,,
1768920183.164472,1768920183.164972,93.0,0.0,4336.794922,4338.077148,4352.436035,4358.333496,4327.563965,4330.769043,4325.512695,4349.743652,4342.307617,4323.461426,4511.538574,4543.077148,4405.897461,4470.769043,,,,,,,,,,,,,,,,,,,,,,,,,,,,,,,,,,,,,,,,,,,,,,,,,,,,,,,,,,,,,,,,,,,,,,
1768920183.17228,1768920183.17288,94.0,0.0,4333.333496,4331.666504,4352.179688,4355.256348,4331.666504,4336.538574,4327.820313,4352.179688,4341.794922,4321.025879,4509.871582,4540.769043,4403.717773,4463.205078,,,,,,,,,,,,,,,,,,,,,,,,,,,,,,,,,,,,,,,,,,,,,,,,,,,,,,,,,,,,,,,,,,,,,,
1768920183.180089,1768920183.180689,95.0,0.0,4330.641113,4325.641113,4349.871582,4353.717773,4335.0,4332.692383,4329.102539,4342.307617,4331.025879,4310.256348,4503.974121,4533.717773,4396.282227,4453.974121,,,,,,,,,,,,,,,,,,,,,,,,,,,,,,,,,,,,,,,,,,,,,,,,,,,,,,,,,,,,,,,,,,,,,,
1768920183.187897,1768920183.188297,96.0,0.0,4333.077148,4331.794922,4353.333496,4356.666504,4336.794922,4326.794922,4325.384766,4336.282227,4330.256348,4311.282227,4503.974121,4535.0,4393.077148,4457.692383,0.459504,0.167962,0.195523,0.319373,0.123111,0.478183,0.179937,0.354127,0.17443,0.098816,0.400677,0.231425,0.201799,0.265247,0.167766,0.157375,0.090088,0.161233,0.099905,0.062851,0.229295,0.183158,0.189304,0.115483,0.077627,0.203982,0.216348,0.13064,0.133794,0.195633,0.277219,0.111712,0.323806,0.206249,0.14181,0.195456,0.23021,0.429619,0.200259,0.100946,0.251649,0.537673,0.555785,0.221886,0.091583,0.549138,0.401894,0.726089,0.282674,0.087258,0.851484,0.466734,0.555081,0.378934,0.195202,0.921871,0.636137,0.655982,0.562437,0.188485,0.602267,0.305473,0.55663,0.357741,0.133592,1.158063,0.356165,0.591584,0.516018,0.198615
1768920183.195706,1768920183.196105,97.0,0.0,4336.794922,4336.666504,4355.769043,4358.589844,4341.282227,4330.384766,4325.256348,4345.641113,4341.025879,4321.282227,4508.461426,4537.307617,4396.794922,4464.871582,,,,,,,,,,,,,,,,,,,,,,,,,,,,,,,,,,,,,,,,,,,,,,,,,,,,,,,,,,,,,,,,,,,,,,
1768920183.203514,1768920183.203814,98.0,0.0,4338.589844,4335.0,4350.256348,4357.563965,4343.974121,4333.974121,4328.717773,4348.974121,4343.205078,4323.333496,4507.820313,4527.436035,4398.461426,4458.589844,,,,,,,,,,,,,,,,,,,,,,,,,,,,,,,,,,,,,,,,,,,,,,,,,,,,,,,,,,,,,,,,,,,,,,
1768920183.211323,1768920183.211622,99.0,0.0,4339.358887,4335.512695,4350.256348,4360.384766,4340.128418,4332.436035,4327.307617,4338.846191,4335.256348,4321.025879,4505.128418,4522.820313,4398.205078,4451.666504,,,,,,,,,,,,,,,,,,,,,,,,,,,,,,,,,,,,,,,,,,,,,,,,,,,,,,,,,,,,,,,,,,,,,,
1768920183.219131,1768920183.21963,100.0,0.0,4342.563965,4336.666504,4359.230957,4366.282227,4334.487305,4331.410156,4326.666504,4340.769043,4336.794922,4324.487305,4506.410156,4534.102539,4401.282227,4460.512695,,,,,,,,,,,,,,,,,,,,,,,,,,,,,,,,,,,,,,,,,,,,,,,,,,,,,,,,,,,,,,,,,,,,,,
1768920183.22694,1768920183.227438,101.0,0.0,4347.307617,4334.487305,4361.282227,4366.153809,4333.974121,4328.333496,4327.05127,4351.538574,4342.692383,4326.538574,4509.230957,4543.333496,4406.025879,4469.230957,,,,,,,,,,,,,,,,,,,,,,,,,,,,,,,,,,,,,,,,,,,,,,,,,,,,,,,,,,,,,,,,,,,,,,
1768920183.234748,1768920183.235347,102.0,0.0,4346.666504,4334.230957,4350.256348,4362.179688,4336.282227,4324.102539,4322.563965,4346.025879,4336.153809,4321.794922,4510.512695,4539.871582,4411.922852,4464.871582,,,,,,,,,,,,,,,,,,,,,,,,,,,,,,,,,,,,,,,,,,,,,,,,,,,,,,,,,,,,,,,,,,,,,,
1768920183.242557,1768920183.243155,103.0,0.0,4342.436035,4332.94873,4340.256348,4357.94873,4331.922852,4324.358887,4320.0,4336.410156,4326.410156,4319.358887,4505.384766,4527.307617,4409.358887,4456.153809,,,,,,,,,,,,,,,,,,,,,,,,,,,,,,,,,,,,,,,,,,,,,,,,,,,,,,,,,,,,,,,,,,,,,,
1768920183.250365,1768920183.251164,104.0,0.0,4343.846191,4329.487305,4342.307617,4355.769043,4328.461426,4324.102539,4323.717773,4345.384766,4328.461426,4320.128418,4499.358887,4519.358887,4396.666504,4450.512695,,,,,,,,,,,,,,,,,,,,,,,,,,,,,,,,,,,,,,,,,,,,,,,,,,,,,,,,,,,,,,,,,,,,,,
1768920183.258174,1768920183.258972,105.0,0.0,4347.820313,4328.974121,4350.128418,4356.666504,4332.94873,4325.256348,4328.974121,4355.384766,4337.820313,4315.384766,4503.077148,4526.794922,4392.436035,4448.461426,,,,,,,,,,,,,,,,,,,,,,,,,,,,,,,,,,,,,,,,,,,,,,,,,,,,,,,,,,,,,,,,,,,,,,
1768920183.265983,1768920183.266681,106.0,0.0,4348.846191,4333.205078,4353.589844,4357.05127,4334.871582,4327.563965,4329.615234,4349.615234,4340.641113,4314.230957,4508.717773,4539.102539,4403.974121,4456.538574,,,,,,,,,,,,,,,,,,,,,,,,,,,,,,,,,,,,,,,,,,,,,,,,,,,,,,,,,,,,,,,,,,,,,,
1768920183.273791,1768920183.274489,107.0,0.0,4349.230957,4337.436035,4350.256348,4356.538574,4332.563965,4327.307617,4327.563965,4342.179688,4334.230957,4319.871582,4510.641113,4540.128418,4412.307617,4471.025879,,,,,,,,,,,,,,,,,,,,,,,,,,,,,,,,,,,,,,,,,,,,,,,,,,,,,,,,,,,,,,,,,,,,,,
1768920183.281599,1768920183.282397,108.0,0.0,4346.538574,4337.179688,4343.974121,4355.769043,4334.487305,4327.307617,4327.307617,4341.666504,4328.077148,4318.333496,4508.077148,4530.897461,4406.153809,4470.641113,,,,,,,,,,,,,,,,,,,,,,,,,,,,,,,,,,,,,,,,,,,,,,,,,,,,,,,,,,,,,,,,,,,,,,
1768920183.289408,1768920183.290206,109.0,0.0,4346.922852,4334.743652,4342.820313,4356.025879,4337.179688,4325.769043,4326.538574,4343.589844,4330.256348,4313.205078,4499.230957,4523.077148,4394.358887,4454.358887,,,,,,,,,,,,,,,,,,,,,,,,,,,,,,,,,,,,,,,,,,,,,,,,,,,,,,,,,,,,,,,,,,,,,,
1768920183.297217,1768920183.297914,110.0,0.0,4355.384766,4337.692383,4349.102539,4359.102539,4336.282227,4326.794922,4326.282227,4344.615234,4334.358887,4314.230957,4491.282227,4521.666504,4389.358887,4441.025879,,,,,,,,,,,,,,,,,,,,,,,,,,,,,,,,,,,,,,,,,,,,,,,,,,,,,,,,,,,,,,,,,,,,,,
1768920183.305025,1768920183.305723,111.0,0.0,4357.05127,4342.179688,4355.256348,4361.794922,4333.589844,4328.205078,4327.94873,4343.205078,4329.358887,4312.307617,4491.025879,4521.410156,4393.205078,4443.461426,,,,,,,,,,,,,,,,,,,,,,,,,,,,,,,,,,,,,,,,,,,,,,,,,,,,,,,,,,,,,,,,,,,,,,
1768920183.312833,1768920183.313331,112.0,0.0,4351.666504,4339.871582,4353.974121,4358.717773,4329.743652,4322.820313,4326.025879,4339.743652,4322.563965,4307.820313,4499.358887,4526.794922,4397.563965,4455.384766,0.394238,0.159703,0.173133,0.317255,0.135469,0.517022,0.197303,0.292124,0.152462,0.089083,0.427781,0.293386,0.19363,0.253799,0.164333,0.147883,0.093056,0.142043,0.099164,0.066409,0.174137,0.150835,0.167568,0.129289,0.070404,0.171604,0.206353,0.114799,0.159039,0.212524,0.229251,0.098446,0.367272,0.220837,0.150958,0.214036,0.207436,0.44116,0.220101,0.095255,0.312222,0.519098,0.526813,0.239544,0.088119,0.640729,0.365366,0.698747,0.298144,0.08122,0.968422,0.431978,0.502698,0.392474,0.184995,1.045299,0.651847,0.536178,0.568838,0.187616,0.71068,0.311257,0.527272,0.3831,0.1316,1.408547,0.386445,0.536553,0.538849,0.208453
1768920183.320642,1768920183.32114,113.0,0.0,4350.897461,4337.05127,4346.282227,4355.641113,4330.256348,4320.769043,4323.974121,4340.641113,4326.922852,4312.94873,4504.358887,4535.512695,4400.256348,4461.025879,,,,,,,,,,,,,,,,,,,,,,,,,,,,,,,,,,,,,,,,,,,,,,,,,,,,,,,,,,,,,,,,,,,,,,
1768920183.328451,1768920183.328848,114.0,0.0,4347.820313,4336.410156,4340.128418,4354.487305,4335.641113,4326.922852,4326.538574,4349.487305,4336.025879,4318.333496,4498.205078,4530.769043,4398.589844,4455.897461,,,,,,,,,,,,,,,,,,,,,,,,,,,,,,,,,,,,,,,,,,,,,,,,,,,,,,,,,,,,,,,,,,,,,,
1768920183.336259,1768920183.336657,115.0,0.0,4342.94873,4336.410156,4339.487305,4352.436035,4342.05127,4329.102539,4328.205078,4354.358887,4337.05127,4317.05127,4491.410156,4520.512695,4392.94873,4447.179688,,,,,,,,,,,,,,,,,,,,,,,,,,,,,,,,,,,,,,,,,,,,,,,,,,,,,,,,,,,,,,,,,,,,,,
1768920183.344068,1768920183.344266,116.0,0.0,4345.512695,4336.410156,4342.307617,4355.384766,4343.589844,4324.615234,4326.794922,4346.410156,4328.461426,4312.05127,4491.538574,4518.589844,4387.179688,4445.769043,,,,,,,,,,,,,,,,,,,,,,,,,,,,,,,,,,,,,,,,,,,,,,,,,,,,,,,,,,,,,,,,,,,,,,
1768920183.351876,1768920183.352074,117.0,0.0,4348.333496,4333.717773,4346.153809,4357.179688,4335.256348,4324.615234,4327.307617,4339.615234,4322.820313,4305.128418,4490.769043,4521.282227,4386.025879,4450.0,,,,,,,,,,,,,,,,,,,,,,,,,,,,,,,,,,,,,,,,,,,,,,,,,,,,,,,,,,,,,,,,,,,,,,
1768920183.359685,1768920183.359982,118.0,0.0,4348.846191,4329.102539,4347.692383,4353.846191,4327.94873,4326.153809,4326.922852,4344.230957,4327.692383,4307.563965,4493.717773,4525.512695,4390.256348,4456.538574,,,,,,,,,,,,,,,,,,,,,,,,,,,,,,,,,,,,,,,,,,,,,,,,,,,,,,,,,,,,,,,,,,,,,,
1768920183.367493,1768920183.367791,119.0,0.0,4350.384766,4326.282227,4344.358887,4353.589844,4331.538574,4325.512695,4326.922852,4348.077148,4331.922852,4315.641113,4506.922852,4528.974121,4396.666504,4460.512695,,,,,,,,,,,,,,,,,,,,,,,,,,,,,,,,,,,,,,,,,,,,,,,,,,,,,,,,,,,,,,,,,,,,,,
1768920183.375302,1768920183.375799,120.0,0.0,4348.205078,4326.538574,4341.922852,4353.974121,4334.615234,4329.358887,4330.512695,4343.333496,4330.384766,4315.769043,4505.641113,4528.461426,4399.615234,4460.897461,,,,,,,,,,,,,,,,,,,,,,,,,,,,,,,,,,,,,,,,,,,,,,,,,,,,,,,,,,,,,,,,,,,,,,
1768920183.38311,1768920183.383607,121.0,0.0,4344.230957,4327.94873,4342.05127,4351.025879,4331.538574,4330.897461,4331.922852,4338.077148,4326.282227,4309.102539,4492.563965,4521.666504,4395.769043,4458.717773,,,,,,,,,,,,,,,,,,,,,,,,,,,,,,,,,,,,,,,,,,,,,,,,,,,,,,,,,,,,,,,,,,,,,,
1768920183.390919,1768920183.391316,122.0,0.0,4343.461426,4323.589844,4336.794922,4346.794922,4330.641113,4324.487305,4325.897461,4340.641113,4324.743652,4308.461426,4489.615234,4510.769043,4388.974121,4449.871582,,,,,,,,,,,,,,,,,,,,,,,,,,,,,,,,,,,,,,,,,,,,,,,,,,,,,,,,,,,,,,,,,,,,,,
1768920183.398727,1768920183.399124,123.0,0.0,4344.487305,4315.512695,4332.563965,4342.179688,4327.307617,4321.025879,4322.307617,4346.410156,4328.077148,4310.641113,4488.974121,4509.102539,4385.641113,4446.025879,,,,,,,,,,,,,,,,,,,,,,,,,,,,,,,,,,,,,,,,,,,,,,,,,,,,,,,,,,,,,,,,,,,,,,
1768920183.406536,1768920183.406732,124.0,0.0,4344.743652,4317.179688,4337.820313,4342.94873,4322.307617,4326.410156,4327.563965,4347.820313,4333.717773,4311.794922,4493.461426,4521.410156,4392.05127,4456.666504,,,,,,,,,,,,,,,,,,,,,,,,,,,,,,,,,,,,,,,,,,,,,,,,,,,,,,,,,,,,,,,,,,,,,,
1768920183.414344,1768920183.414541,125.0,0.0,4345.641113,4326.666504,4339.615234,4347.820313,4324.230957,4326.794922,4328.077148,4344.102539,4336.025879,4318.077148,4506.025879,4526.666504,4400.641113,4462.94873,,,,,,,,,,,,,,,,,,,,,,,,,,,,,,,,,,,,,,,,,,,,,,,,,,,,,,,,,,,,,,,,,,,,,,
1768920183.422153,1768920183.422449,126.0,0.0,4346.666504,4330.128418,4333.717773,4348.333496,4329.102539,4320.384766,4321.025879,4342.436035,4335.512695,4323.333496,4507.563965,4519.358887,4400.0,4457.179688,,,,,,,,,,,,,,,,,,,,,,,,,,,,,,,,,,,,,,,,,,,,,,,,,,,,,,,,,,,,,,,,,,,,,,
1768920183.429961,1768920183.430257,127.0,0.0,4346.538574,4329.102539,4336.922852,4349.102539,4331.282227,4322.436035,4322.563965,4348.333496,4336.922852,4322.307617,4503.717773,4520.256348,4398.333496,4459.358887,,,,,,,,,,,,,,,,,,,,,,,,,,,,,,,,,,,,,,,,,,,,,,,,,,,,,,,,,,,,,,,,,,,,,,
1768920183.43777,1768920183.438266,0.0,0.0,4344.358887,4328.974121,4342.307617,4350.384766,4330.384766,4329.487305,4329.358887,4349.871582,4335.128418,4318.717773,4504.487305,4521.153809,4399.487305,4461.153809,0.341905,0.156371,0.152804,0.29918,0.144766,0.530842,0.232697,0.227357,0.131038,0.081242,0.433192,0.365947,0.196747,0.243113,0.1544,0.156976,0.10178,0.121353,0.099794,0.069566,0.149665,0.124138,0.140106,0.146594,0.062545,0.154351,0.189929,0.107814,0.192099,0.238588,0.219583,0.094174,0.40501,0.238205,0.16715,0.241197,0.176428,0.447701,0.230217,0.096738,0.364093,0.451088,0.502564,0.245386,0.085626,0.714867,0.292175,0.630552,0.304797,0.078024,1.075711,0.38691,0.429655,0.396496,0.169176,1.130798,0.622246,0.403329,0.547788,0.180925,0.823067,0.294586,0.467099,0.408835,0.123623,1.614415,0.419143,0.449103,0.537552,0.206754
1768920183.445578,1768920183.446074,1.0,0.0,4337.692383,4325.897461,4332.05127,4344.358887,4325.769043,4327.820313,4327.436035,4342.05127,4328.077148,4312.820313,4497.05127,4513.333496,4396.282227,4448.333496,,,,,,,,,,,,,,,,,,,,,,,,,,,,,,,,,,,,,,,,,,,,,,,,,,,,,,,,,,,,,,,,,,,,,,
1768920183.453387,1768920183.453983,2.0,0.0,4332.563965,4321.538574,4324.230957,4339.743652,4323.205078,4318.717773,4323.589844,4336.922852,4324.102539,4309.102539,4493.461426,4511.794922,4393.974121,4447.307617,,,,,,,,,,,,,,,,,,,,,,,,,,,,,,,,,,,,,,,,,,,,,,,,,,,,,,,,,,,,,,,,,,,,,,
1768920183.461195,1768920183.461791,3.0,0.0,4332.94873,4320.641113,4332.692383,4343.205078,4327.05127,4319.358887,4326.538574,4343.077148,4330.256348,4315.384766,4507.179688,4522.820313,4402.05127,4461.025879,,,,,,,,,,,,,,,,,,,,,,,,,,,,,,,,,,,,,,,,,,,,,,,,,,,,,,,,,,,,,,,,,,,,,,
1768920183.469004,1768920183.4698,4.0,0.0,4333.589844,4322.692383,4337.05127,4347.563965,4328.974121,4329.871582,4328.717773,4349.230957,4336.153809,4325.128418,4511.922852,4528.333496,4407.05127,4459.487305,,,,,,,,,,,,,,,,,,,,,,,,,,,,,,,,,,,,,,,,,,,,,,,,,,,,,,,,,,,,,,,,,,,,,,
1768920183.476812,1768920183.477608,5.0,0.0,4334.230957,4327.179688,4336.666504,4354.743652,4329.230957,4330.897461,4326.282227,4344.230957,4332.179688,4322.94873,4504.871582,4521.666504,4399.487305,4449.615234,,,,,,,,,,,,,,,,,,,,,,,,,,,,,,,,,,,,,,,,,,,,,,,,,,,,,,,,,,,,,,,,,,,,,,
1768920183.484621,1768920183.485517,6.0,0.0,4334.871582,4329.358887,4342.94873,4360.0,4332.05127,4325.256348,4326.922852,4341.410156,4326.666504,4313.461426,4501.410156,4522.436035,4393.077148,4451.025879,,,,,,,,,,,,,,,,,,,,,,,,,,,,,,,,,,,,,,,,,,,,,,,,,,,,,,,,,,,,,,,,,,,,,,
1768920183.492429,1768920183.493326,7.0,0.0,4330.384766,4326.025879,4341.666504,4352.307617,4332.05127,4325.384766,4329.230957,4346.025879,4327.179688,4309.871582,4498.077148,4525.384766,4396.282227,4452.692383,,,,,,,,,,,,,,,,,,,,,,,,,,,,,,,,,,,,,,,,,,,,,,,,,,,,,,,,,,,,,,,,,,,,,,
1768920183.500238,1768920183.500934,8.0,0.0,4320.897461,4318.205078,4331.153809,4343.205078,4328.077148,4326.025879,4330.256348,4348.846191,4328.077148,4309.743652,4490.256348,4513.846191,4392.307617,4442.692383,,,,,,,,,,,,,,,,,,,,,,,,,,,,,,,,,,,,,,,,,,,,,,,,,,,,,,,,,,,,,,,,,,,,,,
1768920183.508047,1768920183.508743,9.0,0.0,4312.692383,4308.205078,4323.461426,4338.717773,4324.487305,4327.05127,4338.077148,4347.820313,4324.871582,4304.615234,4481.025879,4500.641113,4376.666504,4428.717773,,,,,,,,,,,,,,,,,,,,,,,,,,,,,,,,,,,,,,,,,,,,,,,,,,,,,,,,,,,,,,,,,,,,,,
1768920183.515855,1768920183.516451,10.0,0.0,4316.922852,4309.230957,4324.871582,4336.922852,4324.615234,4331.282227,4342.94873,4350.0,4328.205078,4306.025879,4483.077148,4507.563965,4378.205078,4430.769043,,,,,,,,,,,,,,,,,,,,,,,,,,,,,,,,,,,,,,,,,,,,,,,,,,,,,,,,,,,,,,,,,,,,,,
1768920183.523663,1768920183.52426,11.0,0.0,4334.230957,4322.692383,4335.512695,4343.846191,4324.230957,4330.897461,4332.692383,4354.487305,4341.410156,4322.179688,4503.846191,4524.615234,4397.179688,4450.0,,,,,,,,,,,,,,,,,,,,,,,,,,,,,,,,,,,,,,,,,,,,,,,,,,,,,,,,,,,,,,,,,,,,,,
1768920183.531472,1768920183.531869,12.0,0.0,4342.94873,4328.589844,4341.666504,4351.153809,4325.0,4324.743652,4324.743652,4352.05127,4342.563965,4329.871582,4510.897461,4526.153809,4403.205078,4458.974121,,,,,,,,,,,,,,,,,,,,,,,,,,,,,,,,,,,,,,,,,,,,,,,,,,,,,,,,,,,,,,,,,,,,,,
1768920183.539281,1768920183.539677,13.0,0.0,4336.794922,4323.205078,4337.436035,4346.922852,4329.487305,4320.897461,4326.794922,4349.487305,4332.307617,4319.358887,4495.897461,4520.897461,4395.897461,4454.487305,,,,,,,,,,,,,,,,,,,,,,,,,,,,,,,,,,,,,,,,,,,,,,,,,,,,,,,,,,,,,,,,,,,,,,
1768920183.547089,1768920183.547585,14.0,0.0,4332.05127,4321.794922,4337.436035,4342.820313,4330.512695,4322.179688,4328.461426,4349.871582,4330.512695,4312.692383,4491.282227,4522.94873,4396.410156,4456.025879,,,,,,,,,,,,,,,,,,,,,,,,,,,,,,,,,,,,,,,,,,,,,,,,,,,,,,,,,,,,,,,,,,,,,,
1768920183.554898,1768920183.555394,15.0,0.0,4329.230957,4325.128418,4341.153809,4345.0,4329.487305,4325.128418,4332.563965,4346.666504,4332.05127,4313.717773,4496.410156,4529.230957,4398.974121,4459.615234,,,,,,,,,,,,,,,,,,,,,,,,,,,,,,,,,,,,,,,,,,,,,,,,,,,,,,,,,,,,,,,,,,,,,,
1768920183.562706,1768920183.563402,16.0,0.0,4327.307617,4324.487305,4336.282227,4341.538574,4327.563965,4327.94873,4336.025879,4342.436035,4327.820313,4312.563965,4494.487305,4528.461426,4395.384766,4455.512695,0.320421,0.157383,0.147853,0.270425,0.1469,0.521034,0.284889,0.176601,0.114044,0.07491,0.415339,0.430578,0.205789,0.233648,0.137226,0.181593,0.117831,0.11,0.101746,0.069519,0.145115,0.110409,0.11894,0.163849,0.056159,0.141452,0.169699,0.108366,0.221006,0.264791,0.221093,0.094612,0.418274,0.247605,0.184519,0.262273,0.152305,0.441329,0.226539,0.106917,0.391627,0.359297,0.484705,0.238467,0.087094,0.738416,0.207866,0.544638,0.300561,0.079493,1.132489,0.34291,0.358906,0.388001,0.150376,1.132249,0.561542,0.293761,0.503203,0.168395,0.91135,0.263616,0.401593,0.426366,0.112179,1.697306,0.441851,0.357741,0.512855,0.194063
1768920183.570515,1768920183.57121,17.0,0.0,4330.256348,4323.461426,4334.615234,4339.358887,4325.897461,4323.717773,4329.358887,4344.743652,4327.436035,4313.717773,4496.538574,4526.025879,4396.666504,4456.025879,,,,,,,,,,,,,,,,,,,,,,,,,,,,,,,,,,,,,,,,,,,,,,,,,,,,,,,,,,,,,,,,,,,,,,
1768920183.578323,1768920183.579119,18.0,0.0,4329.487305,4326.538574,4338.717773,4342.307617,4327.05127,4313.717773,4323.846191,4346.025879,4328.974121,4316.666504,4500.128418,4529.358887,4396.153809,4458.846191,,,,,,,,,,,,,,,,,,,,,,,,,,,,,,,,,,,,,,,,,,,,,,,,,,,,,,,,,,,,,,,,,,,,,,
1768920183.586132,1768920183.586927,19.0,0.0,4324.487305,4326.794922,4336.922852,4341.922852,4328.589844,4315.0,4326.025879,4343.589844,4325.128418,4311.282227,4493.717773,4529.102539,4388.974121,4452.307617,,,,,,,,,,,,,,,,,,,,,,,,,,,,,,,,,,,,,,,,,,,,,,,,,,,,,,,,,,,,,,,,,,,,,,
1768920183.59394,1768920183.594536,20.0,0.0,4325.769043,4325.641113,4334.871582,4340.512695,4326.025879,4324.615234,4327.563965,4345.641113,4325.512695,4308.461426,4491.153809,4523.205078,4389.487305,4448.846191,,,,,,,,,,,,,,,,,,,,,,,,,,,,,,,,,,,,,,,,,,,,,,,,,,,,,,,,,,,,,,,,,,,,,,
1768920183.601749,1768920183.602344,21.0,0.0,4324.615234,4327.307617,4334.743652,4343.846191,4325.769043,4323.205078,4327.436035,4348.974121,4328.974121,4317.307617,4498.333496,4520.769043,4397.05127,4451.794922,,,,,,,,,,,,,,,,,,,,,,,,,,,,,,,,,,,,,,,,,,,,,,,,,,,,,,,,,,,,,,,,,,,,,,
1768920183.609557,1768920183.610052,22.0,0.0,4322.179688,4330.0,4334.230957,4346.794922,4331.282227,4317.94873,4327.307617,4349.743652,4327.179688,4320.0,4504.358887,4524.230957,4400.384766,4452.307617,,,,,,,,,,,,,,,,,,,,,,,,,,,,,,,,,,,,,,,,,,,,,,,,,,,,,,,,,,,,,,,,,,,,,,
1768920183.617366,1768920183.61786,23.0,0.0,4325.897461,4327.05127,4338.077148,4348.717773,4332.94873,4323.717773,4327.820313,4347.436035,4326.794922,4311.922852,4505.512695,4522.820313,4399.358887,4451.538574,,,,,,,,,,,,,,,,,,,,,,,,,,,,,,,,,,,,,,,,,,,,,,,,,,,,,,,,,,,,,,,,,,,,,,
1768920183.625174,1768920183.625869,24.0,0.0,4323.974121,4326.922852,4342.692383,4354.102539,4332.05127,4324.871582,4327.307617,4341.153809,4326.153809,4310.641113,4504.230957,4520.256348,4398.717773,4456.410156,,,,,,,,,,,,,,,,,,,,,,,,,,,,,,,,,,,,,,,,,,,,,,,,,,,,,,,,,,,,,,,,,,,,,,
1768920183.632983,1768920183.633677,25.0,0.0,4320.384766,4332.94873,4342.94873,4357.307617,4336.025879,4316.410156,4323.846191,4344.102539,4324.743652,4318.589844,4506.794922,4530.384766,4399.487305,4464.102539,,,,,,,,,,,,,,,,,,,,,,,,,,,,,,,,,,,,,,,,,,,,,,,,,,,,,,,,,,,,,,,,,,,,,,
1768920183.640791,1768920183.641386,26.0,0.0,4320.641113,4332.692383,4342.05127,4354.358887,4337.05127,4317.692383,4321.410156,4352.307617,4328.205078,4317.94873,4509.487305,4535.256348,4403.333496,4464.230957,,,,,,,,,,,,,,,,,,,,,,,,,,,,,,,,,,,,,,,,,,,,,,,,,,,,,,,,,,,,,,,,,,,,,,
1768920183.6486,1768920183.649194,27.0,0.0,4318.333496,4326.794922,4340.641113,4351.922852,4335.769043,4321.282227,4320.512695,4346.922852,4325.512695,4309.230957,4504.102539,4523.461426,4402.179688,4458.846191,,,,,,,,,,,,,,,,,,,,,,,,,,,,,,,,,,,,,,,,,,,,,,,,,,,,,,,,,,,,,,,,,,,,,,
1768920183.656408,1768920183.656803,28.0,0.0,4318.846191,4326.666504,4340.512695,4353.205078,4338.205078,4318.717773,4323.205078,4339.358887,4313.717773,4307.179688,4498.077148,4516.794922,4398.717773,4461.153809,,,,,,,,,,,,,,,,,,,,,,,,,,,,,,,,,,,,,,,,,,,,,,,,,,,,,,,,,,,,,,,,,,,,,,
1768920183.664217,1768920183.664611,29.0,0.0,4325.256348,4331.538574,4342.436035,4353.589844,4338.333496,4318.974121,4327.179688,4340.769043,4311.153809,4309.358887,4503.205078,4521.410156,4405.512695,4471.282227,,,,,,,,,,,,,,,,,,,,,,,,,,,,,,,,,,,,,,,,,,,,,,,,,,,,,,,,,,,,,,,,,,,,,,
1768920183.672025,1768920183.67232,30.0,0.0,4323.846191,4331.282227,4336.153809,4353.846191,4338.717773,4321.410156,4322.436035,4338.846191,4317.692383,4311.282227,4510.897461,4523.077148,4415.128418,4468.205078,,,,,,,,,,,,,,,,,,,,,,,,,,,,,,,,,,,,,,,,,,,,,,,,,,,,,,,,,,,,,,,,,,,,,,
1768920183.679834,1768920183.680128,31.0,0.0,4318.589844,4331.410156,4326.922852,4356.153809,4343.461426,4323.717773,4319.743652,4334.102539,4319.487305,4311.666504,4505.256348,4517.307617,4414.487305,4456.153809,,,,,,,,,,,,,,,,,,,,,,,,,,,,,,,,,,,,,,,,,,,,,,,,,,,,,,,,,,,,,,,,,,,,,,
1768920183.687642,1768920183.688137,32.0,0.0,4322.307617,4335.512695,4330.0,4354.487305,4343.077148,4326.410156,4325.897461,4339.102539,4318.846191,4311.025879,4493.333496,4511.282227,4404.743652,4458.205078,0.344495,0.159866,0.165547,0.238525,0.140708,0.502792,0.340864,0.147933,0.104801,0.069848,0.383292,0.466179,0.213185,0.229662,0.115327,0.221459,0.139672,0.115429,0.104511,0.06471,0.151873,0.111326,0.114024,0.177925,0.052613,0.125517,0.148813,0.11156,0.235618,0.280633,0.213466,0.097435,0.395671,0.24314,0.195233,0.266457,0.14818,0.414061,0.208158,0.126221,0.387974,0.274655,0.467247,0.220552,0.095591,0.697642,0.13889,0.464477,0.285359,0.086118,1.115545,0.302079,0.301076,0.373278,0.13241,1.039472,0.482853,0.225078,0.455704,0.15324,0.957105,0.227437,0.351614,0.432585,0.101243,1.62407,0.439491,0.288825,0.485707,0.176471
1768920183.695451,1768920183.695945,33.0,0.0,4328.974121,4336.538574,4338.717773,4352.05127,4340.897461,4325.0,4326.922852,4341.025879,4316.538574,4307.179688,4490.0,4514.102539,4397.436035,4462.436035,,,,,,,,,,,,,,,,,,,,,,,,,,,,,,,,,,,,,,,,,,,,,,,,,,,,,,,,,,,,,,,,,,,,,,
1768920183.703259,1768920183.703654,34.0,0.0,4337.692383,4337.05127,4340.384766,4355.641113,4342.436035,4322.307617,4323.333496,4334.743652,4309.743652,4306.153809,4492.436035,4516.538574,4397.94873,4459.102539,,,,,,,,,,,,,,,,,,,,,,,,,,,,,,,,,,,,,,,,,,,,,,,,,,,,,,,,,,,,,,,,,,,,,,
1768920183.711068,1768920183.711462,35.0,0.0,4344.615234,4337.563965,4339.743652,4356.922852,4341.538574,4325.384766,4325.512695,4338.077148,4310.897461,4308.205078,4492.820313,4515.128418,4400.128418,4460.128418,,,,,,,,,,,,,,,,,,,,,,,,,,,,,,,,,,,,,,,,,,,,,,,,,,,,,,,,,,,,,,,,,,,,,,
1768920183.718876,1768920183.719071,36.0,0.0,4337.820313,4337.179688,4337.94873,4352.692383,4339.230957,4326.025879,4325.0,4341.153809,4316.538574,4304.487305,4491.282227,4512.820313,4396.153809,4460.0,,,,,,,,,,,,,,,,,,,,,,,,,,,,,,,,,,,,,,,,,,,,,,,,,,,,,,,,,,,,,,,,,,,,,,
1768920183.726685,1768920183.726879,37.0,0.0,4330.384766,4336.538574,4331.922852,4352.307617,4341.666504,4323.717773,4321.410156,4336.538574,4313.205078,4300.512695,4491.025879,4510.128418,4393.846191,4453.333496,,,,,,,,,,,,,,,,,,,,,,,,,,,,,,,,,,,,,,,,,,,,,,,,,,,,,,,,,,,,,,,,,,,,,,
1768920183.734493,1768920183.734588,38.0,0.0,4330.897461,4333.717773,4330.0,4356.410156,4345.384766,4328.461426,4326.025879,4335.769043,4308.974121,4302.94873,4491.410156,4511.794922,4397.94873,4452.820313,,,,,,,,,,,,,,,,,,,,,,,,,,,,,,,,,,,,,,,,,,,,,,,,,,,,,,,,,,,,,,,,,,,,,,
1768920183.742302,1768920183.742396,39.0,0.0,4332.563965,4331.025879,4337.179688,4358.077148,4349.743652,4332.179688,4328.717773,4339.487305,4313.717773,4302.436035,4489.615234,4514.871582,4388.846191,4449.358887,,,,,,,,,,,,,,,,,,,,,,,,,,,,,,,,,,,,,,,,,,,,,,,,,,,,,,,,,,,,,,,,,,,,,,
1768920183.750111,1768920183.750405,40.0,0.0,4336.538574,4335.512695,4345.384766,4357.820313,4350.0,4327.692383,4322.820313,4340.384766,4318.717773,4298.717773,4487.436035,4514.102539,4381.282227,4445.128418,,,,,,,,,,,,,,,,,,,,,,,,,,,,,,,,,,,,,,,,,,,,,,,,,,,,,,,,,,,,,,,,,,,,,,
1768920183.757919,1768920183.758213,41.0,0.0,4343.077148,4344.102539,4352.05127,4361.666504,4345.256348,4323.717773,4318.974121,4337.436035,4314.358887,4302.05127,4493.846191,4516.794922,4398.205078,4460.769043,,,,,,,,,,,,,,,,,,,,,,,,,,,,,,,,,,,,,,,,,,,,,,,,,,,,,,,,,,,,,,,,,,,,,,
1768920183.765728,1768920183.766121,42.0,0.0,4342.179688,4349.358887,4355.512695,4365.256348,4348.077148,4325.641113,4322.94873,4336.666504,4315.256348,4309.102539,4504.871582,4528.333496,4416.282227,4478.077148,,,,,,,,,,,,,,,,,,,,,,,,,,,,,,,,,,,,,,,,,,,,,,,,,,,,,,,,,,,,,,,,,,,,,,
1768920183.773536,1768920183.77393,43.0,0.0,4337.820313,4346.410156,4349.487305,4362.820313,4350.897461,4328.205078,4328.077148,4338.717773,4324.358887,4311.538574,4507.179688,4530.0,4414.871582,4474.230957,,,,,,,,,,,,,,,,,,,,,,,,,,,,,,,,,,,,,,,,,,,,,,,,,,,,,,,,,,,,,,,,,,,,,,
1768920183.781345,1768920183.781938,44.0,0.0,4336.025879,4336.538574,4340.769043,4355.897461,4344.871582,4327.563965,4329.230957,4341.153809,4325.0,4311.666504,4502.05127,4523.333496,4410.256348,4470.384766,,,,,,,,,,,,,,,,,,,,,,,,,,,,,,,,,,,,,,,,,,,,,,,,,,,,,,,,,,,,,,,,,,,,,,
1768920183.789153,1768920183.789747,45.0,0.0,4336.282227,4333.589844,4340.256348,4353.974121,4340.897461,4323.333496,4328.589844,4341.410156,4321.025879,4309.615234,4504.615234,4525.512695,4412.563965,4473.846191,,,,,,,,,,,,,,,,,,,,,,,,,,,,,,,,,,,,,,,,,,,,,,,,,,,,,,,,,,,,,,,,,,,,,,
1768920183.796962,1768920183.797655,46.0,0.0,4337.05127,4340.512695,4342.436035,4357.820313,4346.794922,4327.05127,4328.589844,4342.307617,4324.230957,4311.538574,4507.179688,4524.871582,4412.820313,4466.922852,,,,,,,,,,,,,,,,,,,,,,,,,,,,,,,,,,,,,,,,,,,,,,,,,,,,,,,,,,,,,,,,,,,,,,
1768920183.80477,1768920183.805463,47.0,0.0,4335.384766,4340.384766,4342.820313,4358.717773,4352.05127,4338.205078,4332.820313,4347.05127,4328.589844,4317.692383,4497.436035,4515.512695,4408.205078,4457.820313,,,,,,,,,,,,,,,,,,,,,,,,,,,,,,,,,,,,,,,,,,,,,,,,,,,,,,,,,,,,,,,,,,,,,,
1768920183.812579,1768920183.813472,48.0,0.0,4337.820313,4333.717773,4342.436035,4355.769043,4347.179688,4335.641113,4333.846191,4348.461426,4327.436035,4317.563965,4493.333496,4512.820313,4403.589844,4457.692383,0.423063,0.163083,0.2028,0.215201,0.128695,0.485239,0.383348,0.140671,0.1055,0.066683,0.344761,0.460448,0.212916,0.238132,0.095138,0.270474,0.162671,0.140507,0.110617,0.056113,0.166663,0.123347,0.127546,0.186527,0.051834,0.108744,0.130548,0.112147,0.231028,0.278321,0.194334,0.099143,0.338882,0.225219,0.192768,0.249836,0.166653,0.363239,0.178083,0.152356,0.354073,0.217869,0.439993,0.196847,0.11189,0.604076,0.102467,0.402896,0.266153,0.096519,1.030833,0.267363,0.254496,0.368855,0.118819,0.876627,0.403889,0.193495,0.430521,0.140374,0.956849,0.197989,0.324944,0.430708,0.095041,1.415799,0.414853,0.253099,0.479929,0.162091
1768920183.820387,1768920183.82128,49.0,0.0,4343.205078,4333.461426,4340.641113,4353.974121,4343.589844,4325.384766,4328.205078,4346.538574,4326.794922,4315.641113,4503.333496,4521.538574,4407.436035,4464.743652,,,,,,,,,,,,,,,,,,,,,,,,,,,,,,,,,,,,,,,,,,,,,,,,,,,,,,,,,,,,,,,,,,,,,,
1768920183.828196,1768920183.828989,50.0,0.0,4340.256348,4338.333496,4338.589844,4355.512695,4344.230957,4324.743652,4324.743652,4346.153809,4326.153809,4322.692383,4512.563965,4532.436035,4417.563965,4476.025879,,,,,,,,,,,,,,,,,,,,,,,,,,,,,,,,,,,,,,,,,,,,,,,,,,,,,,,,,,,,,,,,,,,,,,
1768920183.836004,1768920183.836797,51.0,0.0,4335.641113,4340.0,4339.743652,4358.205078,4343.717773,4331.153809,4326.538574,4348.717773,4328.205078,4324.487305,4513.205078,4536.538574,4419.871582,4478.461426,,,,,,,,,,,,,,,,,,,,,,,,,,,,,,,,,,,,,,,,,,,,,,,,,,,,,,,,,,,,,,,,,,,,,,
1768920183.843813,1768920183.844406,52.0,0.0,4334.871582,4337.179688,4337.94873,4358.589844,4345.256348,4332.820313,4328.077148,4347.563965,4328.589844,4314.358887,4509.871582,4528.717773,4415.512695,4467.05127,,,,,,,,,,,,,,,,,,,,,,,,,,,,,,,,,,,,,,,,,,,,,,,,,,,,,,,,,,,,,,,,,,,,,,
1768920183.851621,1768920183.852214,53.0,0.0,4333.461426,4333.461426,4339.102539,4357.94873,4348.461426,4330.256348,4331.410156,4345.128418,4324.358887,4312.563965,4504.871582,4517.436035,4410.769043,4456.282227,,,,,,,,,,,,,,,,,,,,,,,,,,,,,,,,,,,,,,,,,,,,,,,,,,,,,,,,,,,,,,,,,,,,,,
1768920183.85943,1768920183.859923,54.0,0.0,4329.743652,4329.487305,4340.897461,4354.743652,4346.025879,4333.205078,4337.692383,4347.820313,4326.538574,4321.922852,4502.179688,4517.307617,4408.974121,4455.769043,,,,,,,,,,,,,,,,,,,,,,,,,,,,,,,,,,,,,,,,,,,,,,,,,,,,,,,,,,,,,,,,,,,,,,
1768920183.867238,1768920183.867731,55.0,0.0,4327.563965,4325.384766,4333.333496,4350.0,4341.282227,4333.205078,4335.128418,4348.333496,4332.179688,4324.615234,4504.358887,4523.974121,4412.563965,4457.436035,,,,,,,,,,,,,,,,,,,,,,,,,,,,,,,,,,,,,,,,,,,,,,,,,,,,,,,,,,,,,,,,,,,,,,
1768920183.875047,1768920183.87574,56.0,0.0,4328.461426,4324.358887,4329.102539,4348.205078,4340.769043,4327.307617,4328.205078,4344.615234,4327.692383,4318.717773,4506.410156,4523.589844,4412.179688,4458.589844,,,,,,,,,,,,,,,,,,,,,,,,,,,,,,,,,,,,,,,,,,,,,,,,,,,,,,,,,,,,,,,,,,,,,,
1768920183.882855,1768920183.883548,57.0,0.0,4331.666504,4326.538574,4337.179688,4351.153809,4337.820313,4325.0,4326.794922,4341.282227,4323.077148,4313.205078,4503.461426,4522.179688,4406.666504,4456.922852,,,,,,,,,,,,,,,,,,,,,,,,,,,,,,,,,,,,,,,,,,,,,,,,,,,,,,,,,,,,,,,,,,,,,,
1768920183.890664,1768920183.891457,58.0,0.0,4334.615234,4328.333496,4344.358887,4353.205078,4336.538574,4329.615234,4327.563965,4342.05127,4322.692383,4310.0,4496.410156,4524.358887,4403.717773,4453.846191,,,,,,,,,,,,,,,,,,,,,,,,,,,,,,,,,,,,,,,,,,,,,,,,,,,,,,,,,,,,,,,,,,,,,,
1768920183.898472,1768920183.899265,59.0,0.0,4337.563965,4328.205078,4340.769043,4350.769043,4340.256348,4328.205078,4326.922852,4342.94873,4317.94873,4308.461426,4490.641113,4522.179688,4400.256348,4450.641113,,,,,,,,,,,,,,,,,,,,,,,,,,,,,,,,,,,,,,,,,,,,,,,,,,,,,,,,,,,,,,,,,,,,,,
1768920183.906281,1768920183.906874,60.0,0.0,4337.179688,4326.666504,4335.512695,4348.461426,4339.487305,4323.846191,4325.256348,4340.641113,4315.897461,4308.077148,4486.538574,4514.358887,4395.256348,4447.692383,,,,,,,,,,,,,,,,,,,,,,,,,,,,,,,,,,,,,,,,,,,,,,,,,,,,,,,,,,,,,,,,,,,,,,
1768920183.914089,1768920183.914682,61.0,0.0,4330.128418,4325.897461,4334.102539,4350.128418,4337.820313,4330.0,4329.615234,4338.974121,4318.205078,4308.205078,4484.487305,4506.025879,4395.641113,4443.461426,,,,,,,,,,,,,,,,,,,,,,,,,,,,,,,,,,,,,,,,,,,,,,,,,,,,,,,,,,,,,,,,,,,,,,
1768920183.921898,1768920183.922391,62.0,0.0,4326.922852,4327.563965,4333.077148,4351.922852,4341.666504,4333.717773,4335.256348,4338.717773,4318.846191,4308.589844,4488.333496,4504.871582,4398.077148,4442.692383,,,,,,,,,,,,,,,,,,,,,,,,,,,,,,,,,,,,,,,,,,,,,,,,,,,,,,,,,,,,,,,,,,,,,,
1768920183.929706,1768920183.930199,63.0,0.0,4330.769043,4329.102539,4333.077148,4350.128418,4337.436035,4327.692383,4330.897461,4337.820313,4318.717773,4308.461426,4490.897461,4508.205078,4401.282227,4444.743652,,,,,,,,,,,,,,,,,,,,,,,,,,,,,,,,,,,,,,,,,,,,,,,,,,,,,,,,,,,,,,,,,,,,,,
1768920183.937515,1768920183.937808,64.0,0.0,4333.205078,4329.230957,4336.538574,4351.153809,4327.94873,4321.538574,4321.794922,4335.384766,4317.05127,4311.666504,4489.615234,4508.717773,4407.563965,4442.820313,0.557307,0.168239,0.249197,0.211327,0.114113,0.478461,0.398561,0.148549,0.116334,0.066294,0.30835,0.415315,0.207396,0.261721,0.082413,0.323536,0.1812,0.182673,0.122783,0.046144,0.180807,0.138806,0.154322,0.188232,0.052626,0.093593,0.115988,0.107654,0.209588,0.257086,0.169979,0.09726,0.261628,0.19962,0.175891,0.216913,0.201628,0.293815,0.1428,0.1797,0.302884,0.197181,0.397397,0.174729,0.133273,0.488789,0.100466,0.362651,0.253082,0.108357,0.9202,0.241199,0.216413,0.389559,0.112316,0.692926,0.339266,0.186746,0.440741,0.134865,0.921724,0.185248,0.31894,0.426742,0.096939,1.137356,0.390392,0.25018,0.50879,0.157533
1768920183.945323,1768920183.945616,65.0,0.0,4333.589844,4331.666504,4341.153809,4351.410156,4334.615234,4323.846191,4325.0,4338.717773,4316.025879,4312.563965,4490.641113,4508.205078,4408.077148,4442.436035,,,,,,,,,,,,,,,,,,,,,,,,,,,,,,,,,,,,,,,,,,,,,,,,,,,,,,,,,,,,,,,,,,,,,,
1768920183.953132,1768920183.953524,66.0,0.0,4331.794922,4335.512695,4342.820313,4346.282227,4342.436035,4325.256348,4330.256348,4342.436035,4319.743652,4310.512695,4491.922852,4514.487305,4400.897461,4445.384766,,,,,,,,,,,,,,,,,,,,,,,,,,,,,,,,,,,,,,,,,,,,,,,,,,,,,,,,,,,,,,,,,,,,,,
1768920183.96094,1768920183.961333,67.0,0.0,4327.94873,4331.282227,4337.820313,4342.563965,4335.897461,4320.769043,4321.410156,4336.410156,4321.025879,4310.897461,4491.538574,4520.512695,4397.94873,4444.487305,,,,,,,,,,,,,,,,,,,,,,,,,,,,,,,,,,,,,,,,,,,,,,,,,,,,,,,,,,,,,,,,,,,,,,
1768920183.968749,1768920183.969341,68.0,0.0,4327.820313,4324.487305,4329.871582,4341.153809,4334.358887,4323.846191,4323.205078,4334.871582,4320.256348,4311.025879,4492.563965,4520.512695,4402.05127,4443.461426,,,,,,,,,,,,,,,,,,,,,,,,,,,,,,,,,,,,,,,,,,,,,,,,,,,,,,,,,,,,,,,,,,,,,,
1768920183.976558,1768920183.977149,69.0,0.0,4334.358887,4330.384766,4332.05127,4343.461426,4338.077148,4328.205078,4334.487305,4339.743652,4322.94873,4312.94873,4492.94873,4523.205078,4404.743652,4446.538574,,,,,,,,,,,,,,,,,,,,,,,,,,,,,,,,,,,,,,,,,,,,,,,,,,,,,,,,,,,,,,,,,,,,,,
1768920183.984366,1768920183.985058,70.0,0.0,4338.077148,4337.820313,4340.512695,4348.589844,4333.589844,4324.871582,4328.846191,4338.333496,4318.846191,4316.666504,4491.922852,4518.974121,4400.897461,4441.282227,,,,,,,,,,,,,,,,,,,,,,,,,,,,,,,,,,,,,,,,,,,,,,,,,,,,,,,,,,,,,,,,,,,,,,
1768920183.992175,1768920183.992866,71.0,0.0,4332.05127,4334.230957,4341.794922,4350.0,4333.717773,4321.666504,4320.0,4337.05127,4318.461426,4318.205078,4492.436035,4510.769043,4397.563965,4431.025879,,,,,,,,,,,,,,,,,,,,,,,,,,,,,,,,,,,,,,,,,,,,,,,,,,,,,,,,,,,,,,,,,,,,,,
1768920183.999983,1768920184.000874,72.0,0.0,4324.871582,4333.077148,4337.307617,4349.230957,4342.94873,4325.641113,4326.410156,4340.512695,4327.05127,4319.358887,4492.563965,4511.410156,4398.589844,4431.153809,,,,,,,,,,,,,,,,,,,,,,,,,,,,,,,,,,,,,,,,,,,,,,,,,,,,,,,,,,,,,,,,,,,,,,
1768920184.007792,1768920184.008683,73.0,0.0,4326.794922,4338.333496,4334.487305,4349.743652,4343.205078,4331.025879,4331.538574,4340.0,4326.282227,4321.410156,4491.794922,4513.589844,4396.922852,4433.974121,,,,,,,,,,,,,,,,,,,,,,,,,,,,,,,,,,,,,,,,,,,,,,,,,,,,,,,,,,,,,,,,,,,,,,
1768920184.0156,1768920184.016391,74.0,0.0,4334.102539,4334.743652,4339.743652,4346.794922,4333.846191,4333.589844,4329.102539,4341.794922,4322.692383,4320.641113,4497.563965,4520.641113,4399.230957,4441.666504,,,,,,,,,,,,,,,,,,,,,,,,,,,,,,,,,,,,,,,,,,,,,,,,,,,,,,,,,,,,,,,,,,,,,,
1768920184.023409,1768920184.024199,75.0,0.0,4336.794922,4327.436035,4349.615234,4345.128418,4330.128418,4328.205078,4326.666504,4346.153809,4327.179688,4321.538574,4507.05127,4532.692383,4409.615234,4452.94873,,,,,,,,,,,,,,,,,,,,,,,,,,,,,,,,,,,,,,,,,,,,,,,,,,,,,,,,,,,,,,,,,,,,,,
1768920184.031217,1768920184.031808,76.0,0.0,4337.179688,4330.256348,4355.641113,4353.077148,4333.077148,4323.077148,4326.153809,4342.94873,4327.94873,4321.666504,4507.94873,4536.666504,4414.230957,4453.333496,,,,,,,,,,,,,,,,,,,,,,,,,,,,,,,,,,,,,,,,,,,,,,,,,,,,,,,,,,,,,,,,,,,,,,
1768920184.039026,1768920184.039616,77.0,0.0,4340.0,4334.743652,4354.358887,4358.717773,4334.743652,4328.461426,4332.820313,4342.05127,4325.512695,4317.05127,4504.358887,4533.974121,4409.102539,4444.743652,,,,,,,,,,,,,,,,,,,,,,,,,,,,,,,,,,,,,,,,,,,,,,,,,,,,,,,,,,,,,,,,,,,,,,
1768920184.046834,1768920184.047325,78.0,0.0,4342.692383,4335.128418,4348.717773,4356.794922,4335.769043,4330.897461,4335.384766,4344.615234,4326.282227,4316.025879,4505.897461,4531.410156,4404.871582,4443.333496,,,,,,,,,,,,,,,,,,,,,,,,,,,,,,,,,,,,,,,,,,,,,,,,,,,,,,,,,,,,,,,,,,,,,,
1768920184.054643,1768920184.055133,79.0,0.0,4340.512695,4334.102539,4340.512695,4354.358887,4340.769043,4327.05127,4324.102539,4339.487305,4325.0,4317.307617,4507.179688,4528.333496,4407.05127,4452.05127,,,,,,,,,,,,,,,,,,,,,,,,,,,,,,,,,,,,,,,,,,,,,,,,,,,,,,,,,,,,,,,,,,,,,,
1768920184.062451,1768920184.062742,80.0,0.0,4334.743652,4329.615234,4339.487305,4356.153809,4344.487305,4331.538574,4324.871582,4338.589844,4327.307617,4314.230957,4505.384766,4531.794922,4410.256348,4454.102539,0.718149,0.177357,0.291634,0.233139,0.099436,0.480205,0.383921,0.164647,0.136367,0.068997,0.286655,0.348066,0.204582,0.298848,0.078684,0.369689,0.189562,0.23285,0.142034,0.037547,0.194739,0.148907,0.182587,0.182944,0.053469,0.084,0.103807,0.098425,0.179678,0.223488,0.148276,0.093029,0.184078,0.174666,0.149489,0.180067,0.239892,0.216704,0.109458,0.200829,0.25496,0.201956,0.340135,0.15986,0.154352,0.39322,0.119483,0.337026,0.25344,0.119169,0.845792,0.226954,0.188435,0.440635,0.114413,0.550457,0.299573,0.194111,0.482702,0.139738,0.889414,0.199595,0.326942,0.428103,0.108487,0.888906,0.396741,0.274193,0.571198,0.165111
1768920184.07026,1768920184.07055,81.0,0.0,4338.589844,4325.256348,4346.666504,4355.769043,4340.769043,4341.025879,4340.256348,4345.512695,4330.641113,4310.0,4505.384766,4539.615234,4406.666504,4449.743652,,,,,,,,,,,,,,,,,,,,,,,,,,,,,,,,,,,,,,,,,,,,,,,,,,,,,,,,,,,,,,,,,,,,,,
1768920184.078068,1768920184.078259,82.0,0.0,4346.282227,4326.794922,4347.563965,4350.0,4337.94873,4338.333496,4338.461426,4344.871582,4327.05127,4310.641113,4506.153809,4537.179688,4400.512695,4449.615234,,,,,,,,,,,,,,,,,,,,,,,,,,,,,,,,,,,,,,,,,,,,,,,,,,,,,,,,,,,,,,,,,,,,,,
1768920184.085877,1768920184.086067,83.0,0.0,4343.589844,4328.461426,4345.128418,4347.563965,4336.922852,4326.666504,4322.436035,4338.589844,4325.256348,4317.05127,4502.94873,4532.692383,4401.153809,4451.794922,,,,,,,,,,,,,,,,,,,,,,,,,,,,,,,,,,,,,,,,,,,,,,,,,,,,,,,,,,,,,,,,,,,,,,
1768920184.093685,1768920184.094076,84.0,0.0,4338.974121,4324.615234,4340.897461,4347.563965,4331.153809,4321.025879,4320.0,4339.358887,4326.025879,4318.461426,4497.563965,4529.615234,4400.384766,4446.282227,,,,,,,,,,,,,,,,,,,,,,,,,,,,,,,,,,,,,,,,,,,,,,,,,,,,,,,,,,,,,,,,,,,,,,
1768920184.101494,1768920184.101884,85.0,0.0,4340.256348,4325.256348,4330.512695,4346.794922,4329.743652,4327.307617,4326.538574,4342.563965,4324.230957,4312.692383,4494.230957,4522.179688,4399.230957,4439.871582,,,,,,,,,,,,,,,,,,,,,,,,,,,,,,,,,,,,,,,,,,,,,,,,,,,,,,,,,,,,,,,,,,,,,,
1768920184.109302,1768920184.109593,86.0,0.0,4338.333496,4331.153809,4326.153809,4350.769043,4336.410156,4335.641113,4328.589844,4342.692383,4324.615234,4315.641113,4493.717773,4515.641113,4401.794922,4441.922852,,,,,,,,,,,,,,,,,,,,,,,,,,,,,,,,,,,,,,,,,,,,,,,,,,,,,,,,,,,,,,,,,,,,,,
1768920184.117111,1768920184.117401,87.0,0.0,4333.846191,4332.05127,4335.256348,4352.179688,4338.974121,4333.974121,4325.256348,4337.94873,4324.743652,4321.538574,4496.410156,4514.487305,4404.230957,4441.282227,,,,,,,,,,,,,,,,,,,,,,,,,,,,,,,,,,,,,,,,,,,,,,,,,,,,,,,,,,,,,,,,,,,,,,
1768920184.124919,1768920184.12501,88.0,0.0,4336.794922,4329.615234,4344.487305,4349.871582,4337.179688,4331.153809,4326.666504,4334.358887,4321.922852,4316.922852,4502.05127,4519.102539,4408.717773,4440.769043,,,,,,,,,,,,,,,,,,,,,,,,,,,,,,,,,,,,,,,,,,,,,,,,,,,,,,,,,,,,,,,,,,,,,,
1768920184.132728,1768920184.132818,89.0,0.0,4340.641113,4332.563965,4343.205078,4353.205078,4338.461426,4333.846191,4331.666504,4344.615234,4324.743652,4317.307617,4507.307617,4527.436035,4414.487305,4451.153809,,,,,,,,,,,,,,,,,,,,,,,,,,,,,,,,,,,,,,,,,,,,,,,,,,,,,,,,,,,,,,,,,,,,,,
1768920184.140536,1768920184.140527,90.0,0.0,4336.025879,4338.589844,4341.666504,4355.128418,4339.358887,4337.05127,4330.897461,4351.538574,4327.563965,4324.230957,4507.05127,4533.461426,4413.846191,4456.538574,,,,,,,,,,,,,,,,,,,,,,,,,,,,,,,,,,,,,,,,,,,,,,,,,,,,,,,,,,,,,,,,,,,,,,
1768920184.148345,1768920184.148335,91.0,0.0,4331.666504,4340.0,4340.384766,4352.692383,4342.563965,4337.692383,4325.769043,4342.307617,4323.974121,4321.922852,4505.641113,4529.871582,4410.256348,4449.615234,,,,,,,,,,,,,,,,,,,,,,,,,,,,,,,,,,,,,,,,,,,,,,,,,,,,,,,,,,,,,,,,,,,,,,
1768920184.156153,1768920184.156343,92.0,0.0,4332.94873,4342.563965,4338.717773,4356.538574,4351.025879,4338.205078,4325.0,4337.820313,4324.871582,4318.974121,4506.025879,4521.538574,4412.307617,4444.615234,,,,,,,,,,,,,,,,,,,,,,,,,,,,,,,,,,,,,,,,,,,,,,,,,,,,,,,,,,,,,,,,,,,,,,
1768920184.163962,1768920184.164151,93.0,0.0,4335.0,4349.230957,4343.974121,4360.897461,4352.94873,4339.358887,4327.436035,4342.563965,4328.461426,4323.077148,4501.666504,4520.256348,4415.0,4446.794922,,,,,,,,,,,,,,,,,,,,,,,,,,,,,,,,,,,,,,,,,,,,,,,,,,,,,,,,,,,,,,,,,,,,,,
1768920184.17177,1768920184.17206,94.0,0.0,4337.820313,4349.102539,4349.743652,4358.077148,4349.102539,4333.846191,4325.512695,4343.974121,4325.0,4324.871582,4497.563965,4527.05127,4413.589844,4450.641113,,,,,,,,,,,,,,,,,,,,,,,,,,,,,,,,,,,,,,,,,,,,,,,,,,,,,,,,,,,,,,,,,,,,,,
1768920184.179579,1768920184.179868,95.0,0.0,4337.307617,4342.307617,4353.589844,4355.897461,4345.128418,4329.102539,4324.230957,4344.358887,4325.0,4326.025879,4503.205078,4534.743652,4413.461426,4457.820313,,,,,,,,,,,,,,,,,,,,,,,,,,,,,,,,,,,,,,,,,,,,,,,,,,,,,,,,,,,,,,,,,,,,,,
1768920184.187388,1768920184.187877,96.0,0.0,4336.025879,4338.717773,4360.769043,4360.769043,4341.282227,4334.871582,4325.256348,4348.205078,4332.94873,4329.871582,4513.205078,4541.794922,4416.025879,4460.256348,0.866827,0.190336,0.319696,0.278373,0.086121,0.483329,0.345741,0.183533,0.163026,0.073983,0.287827,0.27894,0.211422,0.344278,0.081433,0.399429,0.184079,0.279101,0.16647,0.032323,0.19763,0.148078,0.200256,0.172683,0.053589,0.080993,0.092946,0.086643,0.151738,0.187888,0.135377,0.089231,0.12249,0.15756,0.121982,0.157606,0.267465,0.145337,0.083029,0.209197,0.236257,0.215576,0.276506,0.153677,0.168988,0.353889,0.14066,0.317509,0.267512,0.127245,0.867855,0.228559,0.174243,0.512962,0.124385,0.50482,0.287511,0.21396,0.5392,0.153758,0.889987,0.247713,0.343024,0.439762,0.128328,0.753573,0.446398,0.319523,0.651552,0.181808
1768920184.195196,1768920184.195685,97.0,0.0,4338.589844,4340.384766,4358.717773,4365.128418,4340.897461,4340.384766,4326.666504,4350.128418,4332.307617,4324.615234,4509.487305,4541.153809,4411.282227,4449.487305,,,,,,,,,,,,,,,,,,,,,,,,,,,,,,,,,,,,,,,,,,,,,,,,,,,,,,,,,,,,,,,,,,,,,,
1768920184.203004,1768920184.203593,98.0,0.0,4339.102539,4341.666504,4345.769043,4362.94873,4342.05127,4336.666504,4325.897461,4347.94873,4323.333496,4313.846191,4495.641113,4529.102539,4401.025879,4444.358887,,,,,,,,,,,,,,,,,,,,,,,,,,,,,,,,,,,,,,,,,,,,,,,,,,,,,,,,,,,,,,,,,,,,,,
1768920184.210813,1768920184.211402,99.0,0.0,4334.871582,4337.307617,4343.589844,4356.794922,4341.794922,4332.820313,4321.794922,4343.974121,4322.820313,4311.666504,4490.641113,4526.410156,4397.179688,4447.94873,,,,,,,,,,,,,,,,,,,,,,,,,,,,,,,,,,,,,,,,,,,,,,,,,,,,,,,,,,,,,,,,,,,,,,
1768920184.218622,1768920184.21911,100.0,0.0,4333.077148,4328.205078,4347.563965,4354.358887,4341.666504,4333.205078,4322.307617,4340.769043,4326.666504,4312.179688,4489.358887,4530.384766,4394.358887,4444.358887,,,,,,,,,,,,,,,,,,,,,,,,,,,,,,,,,,,,,,,,,,,,,,,,,,,,,,,,,,,,,,,,,,,,,,
1768920184.22643,1768920184.226919,101.0,0.0,4335.128418,4328.717773,4346.666504,4355.384766,4342.05127,4337.179688,4327.307617,4344.615234,4325.769043,4315.128418,4490.0,4528.589844,4396.282227,4439.743652,,,,,,,,,,,,,,,,,,,,,,,,,,,,,,,,,,,,,,,,,,,,,,,,,,,,,,,,,,,,,,,,,,,,,,
1768920184.234239,1768920184.234827,102.0,0.0,4337.05127,4337.563965,4350.769043,4356.922852,4341.922852,4338.846191,4329.230957,4349.871582,4331.025879,4325.128418,4500.128418,4536.410156,4408.077148,4447.820313,,,,,,,,,,,,,,,,,,,,,,,,,,,,,,,,,,,,,,,,,,,,,,,,,,,,,,,,,,,,,,,,,,,,,,
1768920184.242047,1768920184.242636,103.0,0.0,4340.641113,4335.512695,4354.615234,4355.512695,4340.641113,4335.256348,4328.589844,4351.666504,4338.717773,4329.871582,4510.128418,4550.512695,4415.897461,4455.0,,,,,,,,,,,,,,,,,,,,,,,,,,,,,,,,,,,,,,,,,,,,,,,,,,,,,,,,,,,,,,,,,,,,,,
1768920184.249856,1768920184.250244,104.0,0.0,4343.974121,4332.94873,4350.641113,4353.589844,4339.871582,4329.743652,4327.692383,4349.743652,4332.563965,4325.512695,4509.487305,4547.563965,4414.358887,4452.94873,,,,,,,,,,,,,,,,,,,,,,,,,,,,,,,,,,,,,,,,,,,,,,,,,,,,,,,,,,,,,,,,,,,,,,
1768920184.257664,1768920184.258053,105.0,0.0,4341.538574,4339.871582,4352.563965,4357.94873,4341.666504,4330.769043,4325.512695,4345.512695,4323.974121,4320.384766,4507.94873,4537.307617,4412.307617,4451.538574,,,,,,,,,,,,,,,,,,,,,,,,,,,,,,,,,,,,,,,,,,,,,,,,,,,,,,,,,,,,,,,,,,,,,,
1768920184.265473,1768920184.265761,106.0,0.0,4333.205078,4335.897461,4356.025879,4358.333496,4342.94873,4333.589844,4327.179688,4344.743652,4326.025879,4314.102539,4504.230957,4534.230957,4405.384766,4445.384766,,,,,,,,,,,,,,,,,,,,,,,,,,,,,,,,,,,,,,,,,,,,,,,,,,,,,,,,,,,,,,,,,,,,,,
1768920184.273281,1768920184.27357,107.0,0.0,4331.794922,4327.820313,4351.666504,4355.128418,4341.538574,4329.102539,4324.871582,4341.794922,4325.512695,4307.179688,4493.846191,4530.769043,4396.794922,4441.410156,,,,,,,,,,,,,,,,,,,,,,,,,,,,,,,,,,,,,,,,,,,,,,,,,,,,,,,,,,,,,,,,,,,,,,
1768920184.28109,1768920184.281578,108.0,0.0,4339.102539,4338.974121,4351.922852,4362.05127,4340.769043,4323.461426,4317.692383,4336.538574,4320.0,4311.410156,4491.153809,4531.153809,4397.05127,4447.820313,,,,,,,,,,,,,,,,,,,,,,,,,,,,,,,,,,,,,,,,,,,,,,,,,,,,,,,,,,,,,,,,,,,,,,
1768920184.288898,1768920184.289386,109.0,0.0,4338.333496,4349.743652,4353.333496,4366.922852,4340.769043,4327.436035,4322.05127,4342.179688,4323.974121,4317.820313,4498.589844,4538.077148,4400.0,4449.102539,,,,,,,,,,,,,,,,,,,,,,,,,,,,,,,,,,,,,,,,,,,,,,,,,,,,,,,,,,,,,,,,,,,,,,
1768920184.296707,1768920184.297295,110.0,0.0,4333.974121,4345.897461,4350.0,4361.410156,4341.666504,4334.230957,4330.897461,4349.871582,4328.205078,4315.641113,4505.769043,4539.615234,4403.333496,4449.615234,,,,,,,,,,,,,,,,,,,,,,,,,,,,,,,,,,,,,,,,,,,,,,,,,,,,,,,,,,,,,,,,,,,,,,
1768920184.304515,1768920184.305103,111.0,0.0,4338.461426,4341.153809,4349.358887,4357.94873,4341.922852,4329.615234,4329.102539,4343.589844,4323.461426,4314.358887,4505.897461,4536.794922,4405.512695,4454.487305,,,,,,,,,,,,,,,,,,,,,,,,,,,,,,,,,,,,,,,,,,,,,,,,,,,,,,,,,,,,,,,,,,,,,,
1768920184.312324,1768920184.312712,112.0,0.0,4340.256348,4342.692383,4350.512695,4358.717773,4341.025879,4325.0,4326.153809,4336.025879,4319.615234,4314.743652,4501.794922,4536.025879,4402.820313,4452.692383,0.95626,0.203297,0.327947,0.335262,0.074896,0.480631,0.294321,0.202157,0.191432,0.079726,0.316821,0.225937,0.230229,0.392396,0.085737,0.402986,0.166154,0.310209,0.190328,0.030883,0.190092,0.135428,0.200795,0.160904,0.053714,0.083631,0.081975,0.076116,0.133725,0.159552,0.133593,0.08686,0.08571,0.151146,0.102468,0.162203,0.275018,0.090652,0.065416,0.201627,0.267598,0.22693,0.21748,0.153323,0.172678,0.391253,0.152877,0.298586,0.286625,0.131672,1.007435,0.254,0.17394,0.583731,0.138348,0.577967,0.306786,0.254166,0.587529,0.170724,0.944822,0.337107,0.364104,0.458732,0.151672,0.759773,0.536715,0.37954,0.723912,0.199874
1768920184.320132,1768920184.32052,113.0,0.0,4333.589844,4343.333496,4348.589844,4354.615234,4340.256348,4328.974121,4324.871582,4338.974121,4322.820313,4316.025879,4503.461426,4533.846191,4400.256348,4446.025879,,,,,,,,,,,,,,,,,,,,,,,,,,,,,,,,,,,,,,,,,,,,,,,,,,,,,,,,,,,,,,,,,,,,,,
1768920184.327941,1768920184.328229,114.0,0.0,4333.333496,4341.282227,4349.871582,4352.436035,4336.794922,4326.666504,4318.974121,4341.666504,4326.153809,4316.922852,4507.563965,4531.153809,4402.307617,4449.871582,,,,,,,,,,,,,,,,,,,,,,,,,,,,,,,,,,,,,,,,,,,,,,,,,,,,,,,,,,,,,,,,,,,,,,
1768920184.335749,1768920184.336037,115.0,0.0,4340.128418,4341.666504,4353.077148,4358.205078,4334.358887,4320.897461,4314.871582,4340.128418,4325.128418,4315.128418,4508.846191,4533.077148,4405.897461,4456.794922,,,,,,,,,,,,,,,,,,,,,,,,,,,,,,,,,,,,,,,,,,,,,,,,,,,,,,,,,,,,,,,,,,,,,,
1768920184.343558,1768920184.344045,116.0,0.0,4340.256348,4342.436035,4349.102539,4359.102539,4337.820313,4321.153809,4316.025879,4339.358887,4325.256348,4315.256348,4506.666504,4533.461426,4405.128418,4455.769043,,,,,,,,,,,,,,,,,,,,,,,,,,,,,,,,,,,,,,,,,,,,,,,,,,,,,,,,,,,,,,,,,,,,,,
1768920184.351366,1768920184.351853,117.0,0.0,4331.794922,4334.487305,4341.666504,4349.871582,4340.384766,4327.563965,4321.153809,4339.487305,4326.282227,4317.179688,4499.743652,4524.487305,4398.846191,4448.974121,,,,,,,,,,,,,,,,,,,,,,,,,,,,,,,,,,,,,,,,,,,,,,,,,,,,,,,,,,,,,,,,,,,,,,
1768920184.359175,1768920184.359762,118.0,0.0,4325.512695,4326.282227,4338.717773,4343.077148,4338.589844,4330.128418,4322.820313,4339.743652,4326.410156,4314.358887,4497.436035,4519.102539,4393.461426,4442.820313,,,,,,,,,,,,,,,,,,,,,,,,,,,,,,,,,,,,,,,,,,,,,,,,,,,,,,,,,,,,,,,,,,,,,,
1768920184.366983,1768920184.36757,119.0,0.0,4331.538574,4330.0,4341.153809,4342.307617,4338.077148,4323.589844,4317.563965,4341.410156,4326.794922,4309.487305,4502.05127,4524.743652,4395.256348,4446.282227,,,,,,,,,,,,,,,,,,,,,,,,,,,,,,,,,,,,,,,,,,,,,,,,,,,,,,,,,,,,,,,,,,,,,,
1768920184.374792,1768920184.375578,120.0,0.0,4335.769043,4333.205078,4342.563965,4341.410156,4335.128418,4321.025879,4319.102539,4339.743652,4325.512695,4311.922852,4498.205078,4524.871582,4399.358887,4447.563965,,,,,,,,,,,,,,,,,,,,,,,,,,,,,,,,,,,,,,,,,,,,,,,,,,,,,,,,,,,,,,,,,,,,,,
1768920184.3826,1768920184.383387,121.0,0.0,4331.794922,4326.794922,4341.922852,4341.153809,4331.794922,4326.794922,4326.666504,4337.436035,4323.717773,4311.410156,4490.897461,4519.358887,4396.410156,4444.102539,,,,,,,,,,,,,,,,,,,,,,,,,,,,,,,,,,,,,,,,,,,,,,,,,,,,,,,,,,,,,,,,,,,,,,
1768920184.390409,1768920184.391295,122.0,0.0,4336.666504,4323.077148,4340.0,4341.025879,4334.102539,4327.179688,4326.410156,4339.743652,4324.102539,4302.692383,4491.794922,4518.461426,4389.743652,4445.0,,,,,,,,,,,,,,,,,,,,,,,,,,,,,,,,,,,,,,,,,,,,,,,,,,,,,,,,,,,,,,,,,,,,,,
1768920184.398218,1768920184.399104,123.0,0.0,4348.846191,4328.974121,4341.922852,4343.846191,4338.846191,4323.077148,4324.615234,4338.589844,4323.205078,4301.410156,4492.05127,4519.102539,4390.897461,4444.358887,,,,,,,,,,,,,,,,,,,,,,,,,,,,,,,,,,,,,,,,,,,,,,,,,,,,,,,,,,,,,,,,,,,,,,
1768920184.406026,1768920184.407112,124.0,0.0,4349.487305,4339.871582,4348.589844,4352.563965,4342.563965,4329.743652,4327.563965,4334.102539,4320.769043,4307.307617,4490.769043,4521.666504,4397.692383,4443.461426,,,,,,,,,,,,,,,,,,,,,,,,,,,,,,,,,,,,,,,,,,,,,,,,,,,,,,,,,,,,,,,,,,,,,,
1768920184.413834,1768920184.41492,125.0,0.0,4342.436035,4342.05127,4350.0,4359.871582,4345.512695,4337.05127,4327.820313,4338.589844,4323.333496,4309.230957,4495.641113,4523.461426,4397.94873,4445.256348,,,,,,,,,,,,,,,,,,,,,,,,,,,,,,,,,,,,,,,,,,,,,,,,,,,,,,,,,,,,,,,,,,,,,,
1768920184.421643,1768920184.422629,126.0,0.0,4341.538574,4331.666504,4343.461426,4356.922852,4344.358887,4333.589844,4327.436035,4345.384766,4327.820313,4308.333496,4497.94873,4523.974121,4396.153809,4441.666504,,,,,,,,,,,,,,,,,,,,,,,,,,,,,,,,,,,,,,,,,,,,,,,,,,,,,,,,,,,,,,,,,,,,,,
1768920184.429452,1768920184.430437,127.0,0.0,4341.666504,4323.717773,4335.512695,4351.794922,4340.384766,4330.0,4326.025879,4343.717773,4327.179688,4308.846191,4494.615234,4524.358887,4396.025879,4432.563965,,,,,,,,,,,,,,,,,,,,,,,,,,,,,,,,,,,,,,,,,,,,,,,,,,,,,,,,,,,,,,,,,,,,,,
1768920184.43726,1768920184.438046,0.0,0.0,4340.384766,4328.846191,4335.384766,4354.102539,4341.282227,4334.102539,4323.846191,4341.666504,4324.615234,4307.820313,4491.538574,4520.512695,4394.743652,4433.333496,0.966323,0.210517,0.316878,0.384752,0.066676,0.483081,0.242139,0.21719,0.214924,0.084959,0.38915,0.197757,0.255631,0.43993,0.087521,0.386331,0.142061,0.318963,0.205724,0.032301,0.170056,0.118521,0.187877,0.151005,0.055246,0.087424,0.070366,0.072964,0.12865,0.143044,0.137758,0.084811,0.074912,0.153056,0.097154,0.194877,0.259167,0.056558,0.056236,0.180314,0.348211,0.225364,0.16989,0.152204,0.16436,0.500781,0.149928,0.278021,0.295968,0.131921,1.240166,0.305271,0.18107,0.625855,0.149943,0.761533,0.354058,0.313473,0.613304,0.182172,1.035993,0.462322,0.385061,0.472295,0.171238,0.876245,0.644005,0.43983,0.762012,0.210863
1768920184.445068,1768920184.445854,1.0,0.0,4345.512695,4337.307617,4345.384766,4358.717773,4343.717773,4337.692383,4328.077148,4343.717773,4325.128418,4306.153809,4492.05127,4515.641113,4394.743652,4440.0,,,,,,,,,,,,,,,,,,,,,,,,,,,,,,,,,,,,,,,,,,,,,,,,,,,,,,,,,,,,,,,,,,,,,,
1768920184.452877,1768920184.453563,2.0,0.0,4350.512695,4337.94873,4351.794922,4359.615234,4343.717773,4333.974121,4329.871582,4345.769043,4328.589844,4309.487305,4495.769043,4519.230957,4395.0,4440.128418,,,,,,,,,,,,,,,,,,,,,,,,,,,,,,,,,,,,,,,,,,,,,,,,,,,,,,,,,,,,,,,,,,,,,,
1768920184.460686,1768920184.461371,3.0,0.0,4350.641113,4335.256348,4345.128418,4358.077148,4341.922852,4328.461426,4321.410156,4341.666504,4327.307617,4310.641113,4494.102539,4523.333496,4392.563965,4439.615234,,,,,,,,,,,,,,,,,,,,,,,,,,,,,,,,,,,,,,,,,,,,,,,,,,,,,,,,,,,,,,,,,,,,,,
1768920184.468494,1768920184.46898,4.0,0.0,4348.077148,4335.512695,4338.846191,4357.820313,4340.384766,4326.794922,4318.205078,4337.692383,4322.436035,4307.436035,4490.384766,4521.282227,4395.0,4443.077148,,,,,,,,,,,,,,,,,,,,,,,,,,,,,,,,,,,,,,,,,,,,,,,,,,,,,,,,,,,,,,,,,,,,,,
1768920184.476303,1768920184.476789,5.0,0.0,4343.333496,4335.384766,4341.666504,4356.922852,4340.384766,4327.692383,4327.692383,4343.077148,4326.794922,4309.102539,4498.077148,4523.461426,4401.922852,4445.769043,,,,,,,,,,,,,,,,,,,,,,,,,,,,,,,,,,,,,,,,,,,,,,,,,,,,,,,,,,,,,,,,,,,,,,
1768920184.484111,1768920184.484697,6.0,0.0,4341.922852,4335.128418,4344.743652,4358.974121,4340.256348,4327.436035,4327.692383,4341.410156,4328.846191,4312.563965,4502.307617,4522.05127,4402.05127,4444.615234,,,,,,,,,,,,,,,,,,,,,,,,,,,,,,,,,,,,,,,,,,,,,,,,,,,,,,,,,,,,,,,,,,,,,,
1768920184.49192,1768920184.492505,7.0,0.0,4342.692383,4339.615234,4347.692383,4363.461426,4339.871582,4324.358887,4312.692383,4330.0,4317.94873,4309.743652,4493.077148,4518.589844,4396.410156,4443.461426,,,,,,,,,,,,,,,,,,,,,,,,,,,,,,,,,,,,,,,,,,,,,,,,,,,,,,,,,,,,,,,,,,,,,,
1768920184.499728,1768920184.500514,8.0,0.0,4344.102539,4343.846191,4350.769043,4362.820313,4343.205078,4325.256348,4306.922852,4327.94873,4315.0,4310.769043,4492.820313,4524.487305,4397.05127,4445.641113,,,,,,,,,,,,,,,,,,,,,,,,,,,,,,,,,,,,,,,,,,,,,,,,,,,,,,,,,,,,,,,,,,,,,,
1768920184.507537,1768920184.508322,9.0,0.0,4345.769043,4341.282227,4350.769043,4358.205078,4348.461426,4332.436035,4320.384766,4338.333496,4326.153809,4320.769043,4508.333496,4533.205078,4404.871582,4452.179688,,,,,,,,,,,,,,,,,,,,,,,,,,,,,,,,,,,,,,,,,,,,,,,,,,,,,,,,,,,,,,,,,,,,,,
1768920184.515345,1768920184.51603,10.0,0.0,4344.615234,4339.230957,4348.846191,4355.769043,4350.256348,4337.692383,4328.717773,4343.205078,4328.846191,4320.769043,4507.436035,4530.897461,4406.025879,4451.282227,,,,,,,,,,,,,,,,,,,,,,,,,,,,,,,,,,,,,,,,,,,,,,,,,,,,,,,,,,,,,,,,,,,,,,
1768920184.523154,1768920184.523839,11.0,0.0,4342.307617,4342.307617,4347.692383,4360.384766,4353.333496,4338.846191,4323.846191,4338.846191,4322.94873,4312.692383,4491.794922,4522.436035,4395.384766,4442.05127,,,,,,,,,,,,,,,,,,,,,,,,,,,,,,,,,,,,,,,,,,,,,,,,,,,,,,,,,,,,,,,,,,,,,,
1768920184.530962,1768920184.531447,12.0,0.0,4342.179688,4340.897461,4350.641113,4367.436035,4356.025879,4341.282227,4328.589844,4340.512695,4323.846191,4316.282227,4497.563965,4526.666504,4395.641113,4443.077148,,,,,,,,,,,,,,,,,,,,,,,,,,,,,,,,,,,,,,,,,,,,,,,,,,,,,,,,,,,,,,,,,,,,,,
1768920184.538771,1768920184.539255,13.0,0.0,4346.410156,4340.0,4356.153809,4369.487305,4354.102539,4338.589844,4335.0,4345.384766,4328.461426,4323.205078,4510.641113,4536.666504,4408.846191,4456.025879,,,,,,,,,,,,,,,,,,,,,,,,,,,,,,,,,,,,,,,,,,,,,,,,,,,,,,,,,,,,,,,,,,,,,,
1768920184.546579,1768920184.546964,14.0,0.0,4351.153809,4347.179688,4358.717773,4368.846191,4350.256348,4332.05127,4326.025879,4346.153809,4327.820313,4321.025879,4504.743652,4534.230957,4409.487305,4457.563965,,,,,,,,,,,,,,,,,,,,,,,,,,,,,,,,,,,,,,,,,,,,,,,,,,,,,,,,,,,,,,,,,,,,,,
1768920184.554388,1768920184.554772,15.0,0.0,4353.333496,4349.358887,4360.384766,4369.615234,4347.307617,4337.05127,4321.922852,4344.615234,4326.410156,4317.820313,4500.641113,4529.358887,4398.846191,4450.256348,,,,,,,,,,,,,,,,,,,,,,,,,,,,,,,,,,,,,,,,,,,,,,,,,,,,,,,,,,,,,,,,,,,,,,
1768920184.562196,1768920184.56278,16.0,0.0,4352.820313,4342.05127,4361.410156,4366.666504,4343.846191,4340.0,4327.05127,4342.179688,4325.256348,4315.0,4503.974121,4531.538574,4396.538574,4448.717773,0.89997,0.209592,0.292791,0.409128,0.062676,0.517697,0.201219,0.224391,0.228577,0.089328,0.516663,0.195418,0.278634,0.4839,0.085245,0.366005,0.12058,0.3046,0.206862,0.035189,0.148573,0.109639,0.169334,0.145413,0.058732,0.089293,0.059561,0.080937,0.134138,0.13754,0.141908,0.082363,0.083628,0.157614,0.10663,0.248736,0.222935,0.038526,0.055016,0.151992,0.459181,0.207379,0.134898,0.145921,0.146797,0.653599,0.134764,0.259942,0.287207,0.127596,1.489628,0.374137,0.186086,0.625581,0.153373,1.040125,0.420954,0.377643,0.620761,0.182272,1.121478,0.605486,0.399149,0.468969,0.180177,1.02637,0.73437,0.482651,0.755364,0.210572
1768920184.570005,1768920184.570588,17.0,0.0,4349.871582,4338.333496,4353.846191,4360.0,4341.410156,4327.820313,4321.410156,4337.179688,4321.410156,4310.0,4498.461426,4527.820313,4398.846191,4448.846191,,,,,,,,,,,,,,,,,,,,,,,,,,,,,,,,,,,,,,,,,,,,,,,,,,,,,,,,,,,,,,,,,,,,,,
1768920184.577813,1768920184.578497,18.0,0.0,4344.615234,4337.307617,4343.461426,4356.538574,4342.179688,4323.461426,4316.025879,4337.94873,4323.846191,4310.0,4494.102539,4518.846191,4396.922852,4445.384766,,,,,,,,,,,,,,,,,,,,,,,,,,,,,,,,,,,,,,,,,,,,,,,,,,,,,,,,,,,,,,,,,,,,,,
1768920184.585622,1768920184.586305,19.0,0.0,4343.461426,4333.333496,4343.974121,4356.666504,4342.179688,4333.333496,4324.230957,4344.230957,4326.153809,4310.256348,4497.307617,4521.794922,4394.102539,4442.94873,,,,,,,,,,,,,,,,,,,,,,,,,,,,,,,,,,,,,,,,,,,,,,,,,,,,,,,,,,,,,,,,,,,,,,
1768920184.59343,1768920184.594313,20.0,0.0,4349.743652,4335.897461,4353.974121,4360.769043,4341.794922,4336.538574,4326.666504,4337.820313,4314.743652,4309.358887,4496.153809,4531.794922,4396.282227,4449.102539,,,,,,,,,,,,,,,,,,,,,,,,,,,,,,,,,,,,,,,,,,,,,,,,,,,,,,,,,,,,,,,,,,,,,,
1768920184.601239,1768920184.602122,21.0,0.0,4350.897461,4346.153809,4358.846191,4366.538574,4343.077148,4329.743652,4319.871582,4328.205078,4307.692383,4310.256348,4494.615234,4532.94873,4398.589844,4454.102539,,,,,,,,,,,,,,,,,,,,,,,,,,,,,,,,,,,,,,,,,,,,,,,,,,,,,,,,,,,,,,,,,,,,,,
1768920184.609048,1768920184.60983,22.0,0.0,4349.358887,4349.871582,4356.666504,4368.461426,4343.589844,4325.256348,4317.179688,4333.846191,4318.974121,4308.846191,4493.205078,4525.256348,4394.487305,4448.717773,,,,,,,,,,,,,,,,,,,,,,,,,,,,,,,,,,,,,,,,,,,,,,,,,,,,,,,,,,,,,,,,,,,,,,
1768920184.616856,1768920184.617639,23.0,0.0,4353.846191,4346.538574,4355.512695,4367.05127,4342.94873,4326.153809,4318.205078,4342.436035,4328.333496,4308.717773,4492.820313,4524.487305,4391.794922,4445.769043,,,,,,,,,,,,,,,,,,,,,,,,,,,,,,,,,,,,,,,,,,,,,,,,,,,,,,,,,,,,,,,,,,,,,,
1768920184.624664,1768920184.625248,24.0,0.0,4357.692383,4343.846191,4358.461426,4366.666504,4345.769043,4332.179688,4321.538574,4342.05127,4326.282227,4311.922852,4501.025879,4533.589844,4397.94873,4452.307617,,,,,,,,,,,,,,,,,,,,,,,,,,,,,,,,,,,,,,,,,,,,,,,,,,,,,,,,,,,,,,,,,,,,,,
1768920184.632473,1768920184.633056,25.0,0.0,4354.487305,4342.692383,4356.794922,4363.846191,4346.794922,4333.846191,4324.743652,4339.230957,4323.589844,4313.333496,4506.666504,4535.512695,4402.179688,4456.282227,,,,,,,,,,,,,,,,,,,,,,,,,,,,,,,,,,,,,,,,,,,,,,,,,,,,,,,,,,,,,,,,,,,,,,
1768920184.640282,1768920184.640765,26.0,0.0,4350.0,4341.025879,4346.794922,4357.179688,4343.846191,4331.922852,4326.410156,4340.897461,4321.538574,4311.666504,4500.512695,4529.615234,4398.589844,4451.282227,,,,,,,,,,,,,,,,,,,,,,,,,,,,,,,,,,,,,,,,,,,,,,,,,,,,,,,,,,,,,,,,,,,,,,
1768920184.64809,1768920184.648573,27.0,0.0,4349.487305,4340.641113,4343.461426,4356.153809,4345.512695,4335.0,4327.436035,4343.333496,4322.436035,4311.794922,4494.230957,4524.871582,4395.641113,4445.384766,,,,,,,,,,,,,,,,,,,,,,,,,,,,,,,,,,,,,,,,,,,,,,,,,,,,,,,,,,,,,,,,,,,,,,
1768920184.655898,1768920184.656182,28.0,0.0,4349.102539,4341.666504,4349.102539,4358.846191,4347.94873,4332.94873,4323.333496,4342.307617,4326.153809,4312.436035,4491.538574,4521.025879,4394.230957,4439.615234,,,,,,,,,,,,,,,,,,,,,,,,,,,,,,,,,,,,,,,,,,,,,,,,,,,,,,,,,,,,,,,,,,,,,,
1768920184.663707,1768920184.66399,29.0,0.0,4347.94873,4342.563965,4348.717773,4358.974121,4344.358887,4326.410156,4319.487305,4341.025879,4327.436035,4312.179688,4493.589844,4523.077148,4394.871582,4442.436035,,,,,,,,,,,,,,,,,,,,,,,,,,,,,,,,,,,,,,,,,,,,,,,,,,,,,,,,,,,,,,,,,,,,,,
1768920184.671516,1768920184.671699,30.0,0.0,4345.641113,4338.205078,4341.922852,4357.436035,4339.487305,4326.794922,4321.794922,4340.512695,4324.230957,4312.179688,4494.487305,4525.0,4397.307617,4446.922852,,,,,,,,,,,,,,,,,,,,,,,,,,,,,,,,,,,,,,,,,,,,,,,,,,,,,,,,,,,,,,,,,,,,,,
1768920184.679324,1768920184.679507,31.0,0.0,4345.0,4334.743652,4341.410156,4357.820313,4339.487305,4331.410156,4322.94873,4338.974121,4320.512695,4311.922852,4490.641113,4520.128418,4396.794922,4441.538574,,,,,,,,,,,,,,,,,,,,,,,,,,,,,,,,,,,,,,,,,,,,,,,,,,,,,,,,,,,,,,,,,,,,,,
1768920184.687133,1768920184.687515,32.0,0.0,4347.94873,4338.589844,4346.922852,4361.666504,4340.384766,4328.717773,4319.743652,4340.256348,4321.538574,4312.179688,4491.282227,4521.538574,4396.153809,4441.282227,0.788414,0.200773,0.266188,0.399544,0.063633,0.608718,0.178524,0.220208,0.232146,0.093862,0.683562,0.210315,0.292179,0.520395,0.080209,0.374436,0.115267,0.275612,0.193863,0.038807,0.135798,0.120535,0.151896,0.144846,0.063165,0.090523,0.054281,0.098594,0.144154,0.13887,0.146142,0.08079,0.103707,0.159297,0.126158,0.307305,0.176387,0.028768,0.061295,0.12518,0.568468,0.177613,0.108663,0.133805,0.125422,0.802287,0.11786,0.251964,0.263255,0.11881,1.682072,0.446248,0.185649,0.589012,0.146675,1.356444,0.490091,0.42475,0.625147,0.170352,1.155928,0.737441,0.404087,0.446219,0.175384,1.135784,0.769894,0.494393,0.71163,0.200193
1768920184.694941,1768920184.695324,33.0,0.0,4347.563965,4341.153809,4351.410156,4363.333496,4342.05127,4327.436035,4322.436035,4337.692383,4320.256348,4311.153809,4494.102539,4524.358887,4397.179688,4447.179688,,,,,,,,,,,,,,,,,,,,,,,,,,,,,,,,,,,,,,,,,,,,,,,,,,,,,,,,,,,,,,,,,,,,,,
1768920184.70275,1768920184.703232,34.0,0.0,4343.589844,4339.871582,4352.436035,4362.563965,4346.538574,4336.922852,4329.230957,4333.589844,4320.0,4312.05127,4495.256348,4522.94873,4398.333496,4448.205078,,,,,,,,,,,,,,,,,,,,,,,,,,,,,,,,,,,,,,,,,,,,,,,,,,,,,,,,,,,,,,,,,,,,,,
1768920184.710558,1768920184.711041,35.0,0.0,4344.487305,4337.563965,4347.820313,4360.897461,4348.077148,4337.692383,4327.94873,4337.820313,4321.794922,4318.717773,4499.615234,4525.897461,4398.205078,4446.410156,,,,,,,,,,,,,,,,,,,,,,,,,,,,,,,,,,,,,,,,,,,,,,,,,,,,,,,,,,,,,,,,,,,,,,
1768920184.718367,1768920184.718649,36.0,0.0,4347.307617,4334.871582,4345.512695,4359.871582,4345.384766,4331.025879,4324.102539,4345.0,4326.025879,4325.256348,4506.153809,4534.358887,4402.692383,4451.410156,,,,,,,,,,,,,,,,,,,,,,,,,,,,,,,,,,,,,,,,,,,,,,,,,,,,,,,,,,,,,,,,,,,,,,
1768920184.726175,1768920184.726457,37.0,0.0,4348.974121,4336.282227,4352.179688,4363.974121,4344.615234,4335.384766,4325.256348,4347.692383,4333.717773,4328.333496,4510.641113,4540.0,4412.05127,4461.153809,,,,,,,,,,,,,,,,,,,,,,,,,,,,,,,,,,,,,,,,,,,,,,,,,,,,,,,,,,,,,,,,,,,,,,
1768920184.733984,1768920184.734165,38.0,0.0,4353.589844,4340.769043,4356.922852,4366.153809,4345.384766,4339.358887,4326.794922,4348.974121,4334.871582,4327.563965,4510.769043,4540.641113,4412.436035,4464.358887,,,,,,,,,,,,,,,,,,,,,,,,,,,,,,,,,,,,,,,,,,,,,,,,,,,,,,,,,,,,,,,,,,,,,,
1768920184.741792,1768920184.741974,39.0,0.0,4353.461426,4340.128418,4355.897461,4363.974121,4341.410156,4332.692383,4325.128418,4346.922852,4328.077148,4325.641113,4507.307617,4536.025879,4404.358887,4455.256348,,,,,,,,,,,,,,,,,,,,,,,,,,,,,,,,,,,,,,,,,,,,,,,,,,,,,,,,,,,,,,,,,,,,,,
1768920184.749601,1768920184.749982,40.0,0.0,4351.922852,4339.102539,4356.025879,4365.256348,4339.871582,4329.487305,4321.922852,4341.922852,4323.974121,4323.205078,4507.563965,4532.436035,4402.179688,4446.538574,,,,,,,,,,,,,,,,,,,,,,,,,,,,,,,,,,,,,,,,,,,,,,,,,,,,,,,,,,,,,,,,,,,,,,
1768920184.757409,1768920184.75779,41.0,0.0,4357.05127,4343.974121,4359.230957,4367.179688,4344.743652,4335.128418,4326.025879,4345.512695,4330.0,4322.94873,4513.589844,4538.974121,4406.538574,4451.794922,,,,,,,,,,,,,,,,,,,,,,,,,,,,,,,,,,,,,,,,,,,,,,,,,,,,,,,,,,,,,,,,,,,,,,
1768920184.765218,1768920184.765699,42.0,0.0,4355.512695,4341.282227,4357.820313,4361.410156,4344.615234,4338.717773,4331.922852,4349.102539,4332.05127,4324.102539,4513.589844,4541.282227,4408.846191,4455.512695,,,,,,,,,,,,,,,,,,,,,,,,,,,,,,,,,,,,,,,,,,,,,,,,,,,,,,,,,,,,,,,,,,,,,,
1768920184.773026,1768920184.773507,43.0,0.0,4346.410156,4330.128418,4350.384766,4354.615234,4339.871582,4334.615234,4327.692383,4344.615234,4326.666504,4322.179688,4507.692383,4533.846191,4409.871582,4453.077148,,,,,,,,,,,,,,,,,,,,,,,,,,,,,,,,,,,,,,,,,,,,,,,,,,,,,,,,,,,,,,,,,,,,,,
1768920184.780835,1768920184.781515,44.0,0.0,4345.512695,4325.641113,4346.794922,4353.461426,4341.410156,4329.102539,4321.922852,4343.974121,4328.077148,4323.077148,4507.563965,4534.230957,4410.897461,4449.743652,,,,,,,,,,,,,,,,,,,,,,,,,,,,,,,,,,,,,,,,,,,,,,,,,,,,,,,,,,,,,,,,,,,,,,
1768920184.788643,1768920184.789324,45.0,0.0,4355.512695,4330.641113,4351.666504,4353.205078,4343.461426,4332.563965,4326.538574,4350.128418,4333.717773,4327.179688,4510.769043,4540.769043,4409.871582,4448.461426,,,,,,,,,,,,,,,,,,,,,,,,,,,,,,,,,,,,,,,,,,,,,,,,,,,,,,,,,,,,,,,,,,,,,,
1768920184.796452,1768920184.797032,46.0,0.0,4359.102539,4334.358887,4351.538574,4355.256348,4335.128418,4336.282227,4328.846191,4352.692383,4333.461426,4323.589844,4508.589844,4536.410156,4406.410156,4452.307617,,,,,,,,,,,,,,,,,,,,,,,,,,,,,,,,,,,,,,,,,,,,,,,,,,,,,,,,,,,,,,,,,,,,,,
1768920184.80426,1768920184.804841,47.0,0.0,4353.077148,4333.077148,4344.871582,4355.897461,4330.384766,4331.282227,4324.487305,4345.897461,4327.307617,4316.794922,4503.461426,4526.538574,4400.0,4452.563965,,,,,,,,,,,,,,,,,,,,,,,,,,,,,,,,,,,,,,,,,,,,,,,,,,,,,,,,,,,,,,,,,,,,,,
1768920184.812069,1768920184.812849,48.0,0.0,4352.179688,4333.461426,4350.641113,4354.487305,4340.641113,4333.077148,4326.794922,4342.563965,4324.615234,4321.666504,4503.333496,4528.717773,4400.128418,4450.897461,0.666701,0.184323,0.246254,0.360026,0.068765,0.751613,0.176359,0.204845,0.23056,0.099986,0.845576,0.230076,0.293215,0.544742,0.075339,0.431269,0.135161,0.246346,0.172814,0.043123,0.139053,0.15931,0.138162,0.148169,0.066142,0.095038,0.062549,0.119706,0.151879,0.142757,0.155507,0.084477,0.128391,0.156229,0.148858,0.346263,0.135856,0.023097,0.074202,0.106939,0.633179,0.146298,0.088142,0.119275,0.106443,0.902337,0.110519,0.257173,0.236126,0.106749,1.766003,0.506136,0.18413,0.536716,0.133233,1.632907,0.540641,0.436621,0.638477,0.150315,1.111484,0.827546,0.400904,0.411566,0.159062,1.163171,0.732707,0.469227,0.645879,0.184155
1768920184.819878,1768920184.820658,49.0,0.0,4360.512695,4337.436035,4362.692383,4361.153809,4346.153809,4340.256348,4335.512695,4348.589844,4328.461426,4329.358887,4507.94873,4539.871582,4410.641113,4452.179688,,,,,,,,,,,,,,,,,,,,,,,,,,,,,,,,,,,,,,,,,,,,,,,,,,,,,,,,,,,,,,,,,,,,,,
1768920184.827686,1768920184.828367,50.0,0.0,4366.666504,4342.563965,4361.666504,4370.641113,4340.641113,4342.820313,4341.538574,4354.230957,4333.846191,4326.922852,4510.256348,4542.179688,4412.05127,4450.897461,,,,,,,,,,,,,,,,,,,,,,,,,,,,,,,,,,,,,,,,,,,,,,,,,,,,,,,,,,,,,,,,,,,,,,
1768920184.835494,1768920184.836175,51.0,0.0,4364.487305,4345.384766,4356.410156,4370.0,4340.641113,4342.179688,4336.666504,4351.538574,4333.717773,4325.0,4507.94873,4534.615234,4404.615234,4447.692383,,,,,,,,,,,,,,,,,,,,,,,,,,,,,,,,,,,,,,,,,,,,,,,,,,,,,,,,,,,,,,,,,,,,,,
1768920184.843303,1768920184.843784,52.0,0.0,4366.410156,4342.94873,4357.820313,4364.615234,4344.615234,4337.05127,4324.615234,4345.384766,4327.179688,4326.922852,4508.077148,4534.102539,4407.436035,4455.512695,,,,,,,,,,,,,,,,,,,,,,,,,,,,,,,,,,,,,,,,,,,,,,,,,,,,,,,,,,,,,,,,,,,,,,
1768920184.851112,1768920184.851592,53.0,0.0,4374.358887,4340.256348,4358.077148,4364.487305,4338.974121,4331.025879,4322.563965,4346.025879,4326.922852,4326.153809,4509.487305,4538.974121,4414.871582,4464.230957,,,,,,,,,,,,,,,,,,,,,,,,,,,,,,,,,,,,,,,,,,,,,,,,,,,,,,,,,,,,,,,,,,,,,,
1768920184.85892,1768920184.859301,54.0,0.0,4375.128418,4344.743652,4356.282227,4366.922852,4334.230957,4330.512695,4329.358887,4345.769043,4328.974121,4324.871582,4507.692383,4538.077148,4413.077148,4460.0,,,,,,,,,,,,,,,,,,,,,,,,,,,,,,,,,,,,,,,,,,,,,,,,,,,,,,,,,,,,,,,,,,,,,,
1768920184.866728,1768920184.867109,55.0,0.0,4372.307617,4353.717773,4359.615234,4372.179688,4338.846191,4329.230957,4328.589844,4342.820313,4326.922852,4326.666504,4507.692383,4537.179688,4411.666504,4459.102539,,,,,,,,,,,,,,,,,,,,,,,,,,,,,,,,,,,,,,,,,,,,,,,,,,,,,,,,,,,,,,,,,,,,,,
1768920184.874537,1768920184.874718,56.0,0.0,4375.512695,4356.025879,4361.666504,4377.820313,4340.897461,4326.922852,4323.461426,4343.461426,4327.436035,4326.666504,4509.615234,4538.205078,4414.102539,4466.666504,,,,,,,,,,,,,,,,,,,,,,,,,,,,,,,,,,,,,,,,,,,,,,,,,,,,,,,,,,,,,,,,,,,,,,
1768920184.882346,1768920184.882526,57.0,0.0,4381.282227,4352.307617,4362.94873,4375.384766,4339.230957,4333.333496,4331.153809,4344.230957,4329.743652,4327.692383,4512.436035,4538.974121,4415.128418,4473.077148,,,,,,,,,,,,,,,,,,,,,,,,,,,,,,,,,,,,,,,,,,,,,,,,,,,,,,,,,,,,,,,,,,,,,,
1768920184.890154,1768920184.890435,58.0,0.0,4383.333496,4352.05127,4365.769043,4370.128418,4339.358887,4339.358887,4341.153809,4345.256348,4329.743652,4331.410156,4520.0,4542.692383,4419.615234,4474.871582,,,,,,,,,,,,,,,,,,,,,,,,,,,,,,,,,,,,,,,,,,,,,,,,,,,,,,,,,,,,,,,,,,,,,,
1768920184.897963,1768920184.898243,59.0,0.0,4382.179688,4349.615234,4363.077148,4370.641113,4337.820313,4331.794922,4337.179688,4348.205078,4327.94873,4328.589844,4519.358887,4542.820313,4418.077148,4468.333496,,,,,,,,,,,,,,,,,,,,,,,,,,,,,,,,,,,,,,,,,,,,,,,,,,,,,,,,,,,,,,,,,,,,,,
1768920184.905771,1768920184.906251,60.0,0.0,4376.282227,4342.94873,4356.282227,4369.102539,4335.769043,4321.666504,4323.205078,4345.384766,4324.871582,4322.820313,4506.410156,4534.615234,4405.769043,4460.641113,,,,,,,,,,,,,,,,,,,,,,,,,,,,,,,,,,,,,,,,,,,,,,,,,,,,,,,,,,,,,,,,,,,,,,
1768920184.91358,1768920184.91406,61.0,0.0,4373.205078,4340.769043,4354.743652,4362.94873,4337.436035,4326.282227,4323.077148,4340.256348,4325.769043,4322.179688,4506.410156,4534.358887,4402.692383,4460.641113,,,,,,,,,,,,,,,,,,,,,,,,,,,,,,,,,,,,,,,,,,,,,,,,,,,,,,,,,,,,,,,,,,,,,,
1768920184.921388,1768920184.921968,62.0,0.0,4371.025879,4335.0,4349.871582,4358.846191,4338.974121,4336.666504,4336.282227,4341.666504,4327.179688,4316.922852,4507.94873,4534.743652,4400.769043,4455.769043,,,,,,,,,,,,,,,,,,,,,,,,,,,,,,,,,,,,,,,,,,,,,,,,,,,,,,,,,,,,,,,,,,,,,,
1768920184.929197,1768920184.929776,63.0,0.0,4362.563965,4321.282227,4338.589844,4354.230957,4336.410156,4337.05127,4339.615234,4343.974121,4324.230957,4309.615234,4492.94873,4522.307617,4387.436035,4441.922852,,,,,,,,,,,,,,,,,,,,,,,,,,,,,,,,,,,,,,,,,,,,,,,,,,,,,,,,,,,,,,,,,,,,,,
1768920184.937005,1768920184.937385,64.0,0.0,4365.769043,4322.94873,4344.487305,4356.922852,4337.179688,4336.922852,4337.05127,4344.487305,4329.871582,4319.743652,4493.077148,4521.922852,4390.128418,4445.0,0.555313,0.162842,0.236635,0.305205,0.075786,0.905586,0.19305,0.183823,0.230739,0.108011,0.950734,0.245815,0.288231,0.551632,0.073565,0.529843,0.175005,0.232778,0.151344,0.048062,0.15963,0.225158,0.125423,0.152989,0.065082,0.106782,0.092406,0.136227,0.153471,0.146938,0.178723,0.099184,0.153187,0.150794,0.168679,0.352991,0.119102,0.020681,0.091388,0.100165,0.625804,0.127028,0.072365,0.108506,0.094822,0.928369,0.119922,0.269854,0.217348,0.093351,1.727842,0.544177,0.190261,0.489107,0.12042,1.793857,0.560774,0.408814,0.659043,0.128648,0.98995,0.852922,0.391556,0.374729,0.137626,1.112445,0.635734,0.414416,0.572039,0.167489
1768920184.944814,1768920184.945193,65.0,0.0,4379.487305,4342.179688,4360.512695,4367.307617,4340.769043,4337.820313,4334.615234,4349.230957,4342.05127,4335.512695,4510.897461,4539.743652,4411.410156,4463.461426,,,,,,,,,,,,,,,,,,,,,,,,,,,,,,,,,,,,,,,,,,,,,,,,,,,,,,,,,,,,,,,,,,,,,,
1768920184.952622,1768920184.953101,66.0,0.0,4378.461426,4349.487305,4360.384766,4371.666504,4341.153809,4335.641113,4330.128418,4348.846191,4338.589844,4333.974121,4512.692383,4545.128418,4418.077148,4470.641113,,,,,,,,,,,,,,,,,,,,,,,,,,,,,,,,,,,,,,,,,,,,,,,,,,,,,,,,,,,,,,,,,,,,,,
1768920184.960431,1768920184.96091,67.0,0.0,4371.794922,4342.436035,4355.0,4370.512695,4339.871582,4336.794922,4328.974121,4341.666504,4326.410156,4325.769043,4506.153809,4536.794922,4410.769043,4466.025879,,,,,,,,,,,,,,,,,,,,,,,,,,,,,,,,,,,,,,,,,,,,,,,,,,,,,,,,,,,,,,,,,,,,,,
1768920184.968239,1768920184.968918,68.0,0.0,4375.897461,4339.871582,4360.0,4370.384766,4340.512695,4340.897461,4331.025879,4344.102539,4325.769043,4324.487305,4508.846191,4539.615234,4410.512695,4464.743652,,,,,,,,,,,,,,,,,,,,,,,,,,,,,,,,,,,,,,,,,,,,,,,,,,,,,,,,,,,,,,,,,,,,,,
1768920184.976048,1768920184.976727,69.0,0.0,4376.666504,4340.769043,4359.487305,4368.589844,4341.794922,4337.563965,4325.897461,4347.94873,4328.717773,4324.230957,4509.358887,4540.384766,4413.461426,4463.461426,,,,,,,,,,,,,,,,,,,,,,,,,,,,,,,,,,,,,,,,,,,,,,,,,,,,,,,,,,,,,,,,,,,,,,
1768920184.983856,1768920184.984435,70.0,0.0,4371.538574,4338.974121,4349.102539,4364.743652,4340.512695,4332.05127,4322.307617,4342.563965,4328.333496,4325.128418,4507.179688,4527.05127,4412.05127,4458.974121,,,,,,,,,,,,,,,,,,,,,,,,,,,,,,,,,,,,,,,,,,,,,,,,,,,,,,,,,,,,,,,,,,,,,,
1768920184.991665,1768920184.992244,71.0,0.0,4374.230957,4340.897461,4351.025879,4369.230957,4341.153809,4337.307617,4332.179688,4344.102539,4333.461426,4329.743652,4508.974121,4528.974121,4410.256348,4463.717773,,,,,,,,,,,,,,,,,,,,,,,,,,,,,,,,,,,,,,,,,,,,,,,,,,,,,,,,,,,,,,,,,,,,,,
1768920184.999473,1768920185.000252,72.0,0.0,4376.666504,4349.102539,4358.333496,4374.871582,4343.974121,4342.05127,4333.589844,4349.358887,4335.0,4331.153809,4510.0,4538.974121,4411.922852,4471.538574,,,,,,,,,,,,,,,,,,,,,,,,,,,,,,,,,,,,,,,,,,,,,,,,,,,,,,,,,,,,,,,,,,,,,,
1768920185.007282,1768920185.008061,73.0,0.0,4373.205078,4351.794922,4354.615234,4374.102539,4344.358887,4339.487305,4327.436035,4342.179688,4326.666504,4325.128418,4508.077148,4532.820313,4412.179688,4468.333496,,,,,,,,,,,,,,,,,,,,,,,,,,,,,,,,,,,,,,,,,,,,,,,,,,,,,,,,,,,,,,,,,,,,,,
1768920185.01509,1768920185.015969,74.0,0.0,4372.05127,4346.153809,4352.05127,4372.563965,4343.461426,4339.487305,4330.769043,4335.128418,4321.410156,4319.358887,4504.358887,4525.769043,4405.897461,4459.615234,,,,,,,,,,,,,,,,,,,,,,,,,,,,,,,,,,,,,,,,,,,,,,,,,,,,,,,,,,,,,,,,,,,,,,
1768920185.022899,1768920185.023778,75.0,0.0,4372.436035,4342.563965,4358.589844,4372.307617,4343.205078,4343.333496,4339.487305,4343.205078,4327.692383,4321.025879,4505.256348,4530.641113,4404.487305,4457.179688,,,,,,,,,,,,,,,,,,,,,,,,,,,,,,,,,,,,,,,,,,,,,,,,,,,,,,,,,,,,,,,,,,,,,,
1768920185.030707,1768920185.031387,76.0,0.0,4371.666504,4343.077148,4360.641113,4373.077148,4342.436035,4338.333496,4336.794922,4349.487305,4333.589844,4325.256348,4509.487305,4535.256348,4407.436035,4455.384766,,,,,,,,,,,,,,,,,,,,,,,,,,,,,,,,,,,,,,,,,,,,,,,,,,,,,,,,,,,,,,,,,,,,,,
1768920185.038516,1768920185.039195,77.0,0.0,4369.743652,4346.282227,4355.0,4374.615234,4341.282227,4332.05127,4331.025879,4345.256348,4330.384766,4324.487305,4507.563965,4533.589844,4406.410156,4454.230957,,,,,,,,,,,,,,,,,,,,,,,,,,,,,,,,,,,,,,,,,,,,,,,,,,,,,,,,,,,,,,,,,,,,,,
1768920185.046324,1768920185.046904,78.0,0.0,4369.743652,4350.256348,4353.974121,4374.487305,4341.153809,4337.820313,4334.615234,4346.153809,4329.102539,4324.358887,4505.769043,4534.615234,4408.846191,4461.794922,,,,,,,,,,,,,,,,,,,,,,,,,,,,,,,,,,,,,,,,,,,,,,,,,,,,,,,,,,,,,,,,,,,,,,
1768920185.054133,1768920185.054712,79.0,0.0,4370.769043,4348.077148,4353.974121,4373.846191,4341.538574,4336.410156,4333.974121,4346.410156,4329.743652,4326.666504,4510.256348,4532.307617,4410.128418,4465.128418,,,,,,,,,,,,,,,,,,,,,,,,,,,,,,,,,,,,,,,,,,,,,,,,,,,,,,,,,,,,,,,,,,,,,,
1768920185.061942,1768920185.062321,80.0,0.0,4369.871582,4341.666504,4353.974121,4374.487305,4340.384766,4327.436035,4325.256348,4338.205078,4323.333496,4323.589844,4503.589844,4523.077148,4400.128418,4456.282227,0.465565,0.141829,0.238609,0.252653,0.082346,1.004449,0.219249,0.167537,0.235676,0.116536,0.958359,0.254962,0.290053,0.536281,0.076544,0.635473,0.220739,0.244829,0.134524,0.053058,0.185962,0.306317,0.109571,0.156031,0.059297,0.127575,0.145236,0.142089,0.149314,0.150545,0.211004,0.127423,0.173153,0.148109,0.182234,0.324604,0.137143,0.021669,0.108581,0.103309,0.543394,0.130848,0.061749,0.105838,0.092411,0.881041,0.148551,0.277116,0.210253,0.080914,1.583148,0.55666,0.207883,0.452426,0.114978,1.788802,0.551884,0.349492,0.669297,0.111958,0.812117,0.805589,0.375603,0.340901,0.118672,1.007954,0.510321,0.350168,0.497398,0.15392
1768920185.06975,1768920185.070129,81.0,0.0,4368.717773,4341.922852,4357.179688,4375.0,4341.153809,4329.871582,4321.538574,4333.974121,4318.717773,4317.307617,4492.179688,4522.563965,4392.820313,4451.025879,,,,,,,,,,,,,,,,,,,,,,,,,,,,,,,,,,,,,,,,,,,,,,,,,,,,,,,,,,,,,,,,,,,,,,
1768920185.077559,1768920185.078038,82.0,0.0,4365.769043,4344.871582,4354.358887,4372.05127,4343.717773,4339.230957,4331.282227,4340.0,4323.461426,4315.641113,4495.897461,4530.769043,4396.922852,4457.05127,,,,,,,,,,,,,,,,,,,,,,,,,,,,,,,,,,,,,,,,,,,,,,,,,,,,,,,,,,,,,,,,,,,,,,
1768920185.085367,1768920185.085846,83.0,0.0,4360.512695,4340.512695,4344.487305,4370.641113,4342.692383,4339.102539,4336.794922,4345.128418,4325.769043,4312.820313,4498.589844,4531.282227,4397.179688,4458.717773,,,,,,,,,,,,,,,,,,,,,,,,,,,,,,,,,,,,,,,,,,,,,,,,,,,,,,,,,,,,,,,,,,,,,,
1768920185.093176,1768920185.093854,84.0,0.0,4357.563965,4338.205078,4341.025879,4370.769043,4338.717773,4333.077148,4328.974121,4340.384766,4318.717773,4309.102539,4490.641113,4525.897461,4394.358887,4453.077148,,,,,,,,,,,,,,,,,,,,,,,,,,,,,,,,,,,,,,,,,,,,,,,,,,,,,,,,,,,,,,,,,,,,,,
1768920185.100984,1768920185.101663,85.0,0.0,4358.589844,4341.025879,4346.794922,4371.282227,4340.384766,4328.846191,4323.461426,4336.025879,4312.179688,4311.538574,4489.358887,4528.846191,4398.974121,4452.820313,,,,,,,,,,,,,,,,,,,,,,,,,,,,,,,,,,,,,,,,,,,,,,,,,,,,,,,,,,,,,,,,,,,,,,
1768920185.108793,1768920185.109571,86.0,0.0,4360.769043,4340.641113,4349.102539,4373.589844,4341.153809,4324.230957,4325.256348,4335.128418,4310.0,4309.871582,4492.94873,4530.384766,4398.589844,4455.128418,,,,,,,,,,,,,,,,,,,,,,,,,,,,,,,,,,,,,,,,,,,,,,,,,,,,,,,,,,,,,,,,,,,,,,
1768920185.116601,1768920185.117379,87.0,0.0,4360.512695,4338.846191,4347.307617,4374.487305,4336.025879,4327.436035,4325.0,4335.769043,4310.384766,4301.794922,4488.974121,4521.025879,4389.487305,4452.179688,,,,,,,,,,,,,,,,,,,,,,,,,,,,,,,,,,,,,,,,,,,,,,,,,,,,,,,,,,,,,,,,,,,,,,
1768920185.12441,1768920185.125388,88.0,0.0,4357.05127,4337.179688,4343.333496,4368.589844,4337.94873,4331.794922,4321.666504,4336.666504,4310.256348,4303.205078,4487.563965,4513.333496,4388.589844,4445.512695,,,,,,,,,,,,,,,,,,,,,,,,,,,,,,,,,,,,,,,,,,,,,,,,,,,,,,,,,,,,,,,,,,,,,,
1768920185.132218,1768920185.133196,89.0,0.0,4353.717773,4335.0,4338.333496,4361.282227,4339.615234,4330.512695,4323.205078,4336.794922,4311.025879,4310.384766,4491.794922,4515.0,4396.282227,4445.384766,,,,,,,,,,,,,,,,,,,,,,,,,,,,,,,,,,,,,,,,,,,,,,,,,,,,,,,,,,,,,,,,,,,,,,
1768920185.140027,1768920185.140904,90.0,0.0,4352.179688,4334.102539,4337.692383,4361.666504,4332.563965,4326.282227,4322.179688,4336.922852,4313.205078,4309.871582,4493.589844,4522.820313,4396.410156,4448.974121,,,,,,,,,,,,,,,,,,,,,,,,,,,,,,,,,,,,,,,,,,,,,,,,,,,,,,,,,,,,,,,,,,,,,,
1768920185.147835,1768920185.148713,91.0,0.0,4351.538574,4337.563965,4342.05127,4363.974121,4331.538574,4325.128418,4321.025879,4337.05127,4315.512695,4308.333496,4493.974121,4525.0,4393.589844,4447.307617,,,,,,,,,,,,,,,,,,,,,,,,,,,,,,,,,,,,,,,,,,,,,,,,,,,,,,,,,,,,,,,,,,,,,,
1768920185.155644,1768920185.156621,92.0,0.0,4355.897461,4342.179688,4347.563965,4365.512695,4339.615234,4327.179688,4325.384766,4341.025879,4318.974121,4309.743652,4492.436035,4520.256348,4397.436035,4447.94873,,,,,,,,,,,,,,,,,,,,,,,,,,,,,,,,,,,,,,,,,,,,,,,,,,,,,,,,,,,,,,,,,,,,,,
1768920185.163452,1768920185.164429,93.0,0.0,4356.153809,4344.102539,4347.563965,4368.461426,4342.820313,4330.384766,4329.487305,4343.461426,4321.282227,4308.205078,4490.897461,4520.769043,4400.128418,4453.461426,,,,,,,,,,,,,,,,,,,,,,,,,,,,,,,,,,,,,,,,,,,,,,,,,,,,,,,,,,,,,,,,,,,,,,
1768920185.171261,1768920185.172138,94.0,0.0,4347.179688,4339.615234,4341.666504,4363.717773,4339.487305,4335.641113,4328.717773,4341.025879,4323.717773,4308.333496,4496.410156,4529.487305,4401.153809,4455.512695,,,,,,,,,,,,,,,,,,,,,,,,,,,,,,,,,,,,,,,,,,,,,,,,,,,,,,,,,,,,,,,,,,,,,,
1768920185.179069,1768920185.179946,95.0,0.0,4345.384766,4335.512695,4340.384766,4358.333496,4336.922852,4337.179688,4326.922852,4342.820313,4327.436035,4312.179688,4506.666504,4538.717773,4405.769043,4458.589844,,,,,,,,,,,,,,,,,,,,,,,,,,,,,,,,,,,,,,,,,,,,,,,,,,,,,,,,,,,,,,,,,,,,,,
1768920185.186878,1768920185.187755,96.0,0.0,4353.333496,4338.333496,4343.974121,4362.94873,4338.461426,4337.563965,4330.512695,4351.025879,4328.461426,4313.846191,4506.794922,4539.615234,4407.307617,4463.846191,0.40509,0.13189,0.248237,0.213639,0.087265,1.024785,0.250372,0.169625,0.244022,0.1235,0.87056,0.260395,0.310478,0.49648,0.084179,0.722502,0.260446,0.284744,0.123896,0.0572,0.207782,0.382819,0.089694,0.154554,0.050779,0.156591,0.213492,0.13704,0.143461,0.153045,0.246438,0.166945,0.184663,0.153127,0.189226,0.271987,0.18771,0.024673,0.121215,0.111763,0.412015,0.158681,0.055312,0.112439,0.097925,0.789321,0.192073,0.267294,0.211136,0.071581,1.378689,0.548391,0.233257,0.418905,0.119478,1.613723,0.525871,0.275946,0.647825,0.10509,0.625,0.708158,0.352116,0.311804,0.107936,0.888562,0.406362,0.297041,0.42432,0.145488
1768920185.194686,1768920185.195563,97.0,0.0,4351.922852,4334.743652,4341.922852,4364.358887,4341.410156,4335.384766,4332.436035,4353.333496,4327.563965,4313.589844,4495.512695,4527.820313,4398.333496,4457.307617,,,,,,,,,,,,,,,,,,,,,,,,,,,,,,,,,,,,,,,,,,,,,,,,,,,,,,,,,,,,,,,,,,,,,,
1768920185.202495,1768920185.203272,98.0,0.0,4345.897461,4327.692383,4338.846191,4356.794922,4341.666504,4329.743652,4329.615234,4347.436035,4327.563965,4310.512695,4491.410156,4518.589844,4393.205078,4452.436035,,,,,,,,,,,,,,,,,,,,,,,,,,,,,,,,,,,,,,,,,,,,,,,,,,,,,,,,,,,,,,,,,,,,,,
1768920185.210303,1768920185.21108,99.0,0.0,4351.025879,4331.410156,4341.025879,4356.666504,4338.589844,4328.205078,4326.666504,4346.794922,4328.205078,4309.743652,4503.589844,4529.615234,4406.153809,4462.692383,,,,,,,,,,,,,,,,,,,,,,,,,,,,,,,,,,,,,,,,,,,,,,,,,,,,,,,,,,,,,,,,,,,,,,
1768920185.218112,1768920185.219089,100.0,0.0,4352.820313,4334.358887,4337.563965,4360.641113,4334.743652,4327.692383,4321.922852,4344.743652,4326.666504,4313.974121,4507.820313,4538.077148,4411.794922,4465.256348,,,,,,,,,,,,,,,,,,,,,,,,,,,,,,,,,,,,,,,,,,,,,,,,,,,,,,,,,,,,,,,,,,,,,,
1768920185.22592,1768920185.226897,101.0,0.0,4343.589844,4326.922852,4332.692383,4357.05127,4334.743652,4325.769043,4319.102539,4339.615234,4323.333496,4312.692383,4494.871582,4525.256348,4398.205078,4455.512695,,,,,,,,,,,,,,,,,,,,,,,,,,,,,,,,,,,,,,,,,,,,,,,,,,,,,,,,,,,,,,,,,,,,,,
1768920185.233729,1768920185.234606,102.0,0.0,4338.846191,4323.333496,4338.077148,4354.743652,4339.230957,4331.282227,4328.205078,4345.897461,4324.230957,4308.974121,4492.563965,4522.820313,4396.025879,4455.384766,,,,,,,,,,,,,,,,,,,,,,,,,,,,,,,,,,,,,,,,,,,,,,,,,,,,,,,,,,,,,,,,,,,,,,
1768920185.241537,1768920185.242414,103.0,0.0,4345.512695,4328.205078,4345.512695,4360.256348,4340.641113,4341.153809,4336.410156,4355.128418,4330.897461,4315.641113,4507.05127,4541.025879,4411.794922,4466.025879,,,,,,,,,,,,,,,,,,,,,,,,,,,,,,,,,,,,,,,,,,,,,,,,,,,,,,,,,,,,,,,,,,,,,,
1768920185.249346,1768920185.250023,104.0,0.0,4353.077148,4329.230957,4349.230957,4365.512695,4339.487305,4335.0,4328.461426,4352.436035,4331.666504,4322.94873,4513.589844,4549.487305,4415.769043,4468.333496,,,,,,,,,,,,,,,,,,,,,,,,,,,,,,,,,,,,,,,,,,,,,,,,,,,,,,,,,,,,,,,,,,,,,,
1768920185.257154,1768920185.257831,105.0,0.0,4352.179688,4330.256348,4349.743652,4366.153809,4340.897461,4327.563965,4323.461426,4346.025879,4325.769043,4318.077148,4503.974121,4537.307617,4403.717773,4460.128418,,,,,,,,,,,,,,,,,,,,,,,,,,,,,,,,,,,,,,,,,,,,,,,,,,,,,,,,,,,,,,,,,,,,,,
1768920185.264963,1768920185.265539,106.0,0.0,4348.205078,4336.538574,4343.974121,4363.717773,4340.256348,4333.589844,4328.461426,4344.743652,4325.128418,4311.153809,4494.230957,4525.128418,4397.94873,4458.974121,,,,,,,,,,,,,,,,,,,,,,,,,,,,,,,,,,,,,,,,,,,,,,,,,,,,,,,,,,,,,,,,,,,,,,
1768920185.272771,1768920185.273348,107.0,0.0,4345.769043,4341.153809,4341.025879,4365.641113,4339.358887,4340.641113,4333.461426,4347.692383,4327.179688,4311.282227,4491.922852,4527.94873,4399.102539,4464.871582,,,,,,,,,,,,,,,,,,,,,,,,,,,,,,,,,,,,,,,,,,,,,,,,,,,,,,,,,,,,,,,,,,,,,,
1768920185.28058,1768920185.281356,108.0,0.0,4345.769043,4340.0,4349.743652,4367.05127,4342.692383,4344.358887,4340.897461,4351.922852,4327.436035,4313.589844,4493.077148,4534.358887,4397.563965,4461.666504,,,,,,,,,,,,,,,,,,,,,,,,,,,,,,,,,,,,,,,,,,,,,,,,,,,,,,,,,,,,,,,,,,,,,,
1768920185.288389,1768920185.289164,109.0,0.0,4343.205078,4332.692383,4352.179688,4359.871582,4340.769043,4339.743652,4338.589844,4349.871582,4327.94873,4315.384766,4495.128418,4532.179688,4397.692383,4455.769043,,,,,,,,,,,,,,,,,,,,,,,,,,,,,,,,,,,,,,,,,,,,,,,,,,,,,,,,,,,,,,,,,,,,,,
1768920185.296197,1768920185.297073,110.0,0.0,4339.871582,4329.487305,4343.589844,4355.769043,4336.153809,4330.0,4323.333496,4341.538574,4327.563965,4314.230957,4495.769043,4527.820313,4401.666504,4458.205078,,,,,,,,,,,,,,,,,,,,,,,,,,,,,,,,,,,,,,,,,,,,,,,,,,,,,,,,,,,,,,,,,,,,,,
1768920185.304006,1768920185.304881,111.0,0.0,4342.94873,4335.384766,4343.205078,4361.666504,4337.179688,4329.487305,4318.717773,4339.615234,4323.846191,4311.922852,4495.897461,4529.615234,4402.563965,4460.769043,,,,,,,,,,,,,,,,,,,,,,,,,,,,,,,,,,,,,,,,,,,,,,,,,,,,,,,,,,,,,,,,,,,,,,
1768920185.311814,1768920185.312889,112.0,0.0,4348.333496,4340.897461,4348.717773,4365.128418,4337.820313,4333.717773,4325.769043,4346.153809,4324.230957,4311.153809,4499.230957,4532.94873,4403.589844,4464.743652,0.395442,0.142542,0.258145,0.189554,0.090555,0.992973,0.288298,0.199658,0.252986,0.127296,0.738509,0.267999,0.354366,0.435813,0.095083,0.780868,0.291433,0.34601,0.118668,0.059638,0.216027,0.434222,0.070476,0.147436,0.043049,0.192849,0.282207,0.125892,0.141895,0.154255,0.27461,0.211294,0.187374,0.167851,0.192009,0.2166,0.253494,0.02836,0.126996,0.12055,0.280941,0.200476,0.051864,0.127437,0.10816,0.700106,0.241822,0.239335,0.214649,0.066597,1.182102,0.527988,0.259388,0.376613,0.131568,1.331341,0.496584,0.211566,0.584537,0.110214,0.493453,0.606541,0.324527,0.288391,0.107546,0.791445,0.370398,0.268918,0.357612,0.143051
1768920185.319623,1768920185.320698,113.0,0.0,4351.666504,4342.05127,4349.102539,4365.512695,4335.0,4332.436035,4326.410156,4347.692383,4328.589844,4312.563965,4506.282227,4537.05127,4411.794922,4470.0,,,,,,,,,,,,,,,,,,,,,,,,,,,,,,,,,,,,,,,,,,,,,,,,,,,,,,,,,,,,,,,,,,,,,,
1768920185.327431,1768920185.328606,114.0,0.0,4352.179688,4343.717773,4350.256348,4370.641113,4333.846191,4332.307617,4323.846191,4342.179688,4328.205078,4316.410156,4508.205078,4543.974121,4413.846191,4467.94873,,,,,,,,,,,,,,,,,,,,,,,,,,,,,,,,,,,,,,,,,,,,,,,,,,,,,,,,,,,,,,,,,,,,,,
1768920185.33524,1768920185.336415,115.0,0.0,4348.589844,4343.461426,4356.025879,4372.692383,4335.384766,4337.563965,4327.307617,4343.205078,4324.743652,4317.563965,4504.102539,4543.717773,4404.230957,4462.692383,,,,,,,,,,,,,,,,,,,,,,,,,,,,,,,,,,,,,,,,,,,,,,,,,,,,,,,,,,,,,,,,,,,,,,
1768920185.343048,1768920185.344323,116.0,0.0,4346.922852,4341.922852,4360.128418,4370.897461,4338.717773,4338.717773,4329.487305,4349.615234,4328.461426,4316.538574,4505.769043,4540.897461,4401.666504,4461.922852,,,,,,,,,,,,,,,,,,,,,,,,,,,,,,,,,,,,,,,,,,,,,,,,,,,,,,,,,,,,,,,,,,,,,,
1768920185.350857,1768920185.352131,117.0,0.0,4349.615234,4344.743652,4361.410156,4373.333496,4343.205078,4332.94873,4326.538574,4346.794922,4333.461426,4320.0,4508.846191,4544.871582,4408.333496,4463.589844,,,,,,,,,,,,,,,,,,,,,,,,,,,,,,,,,,,,,,,,,,,,,,,,,,,,,,,,,,,,,,,,,,,,,,
1768920185.358665,1768920185.35984,118.0,0.0,4350.641113,4346.794922,4359.743652,4374.743652,4343.205078,4329.615234,4325.512695,4345.128418,4336.794922,4325.0,4507.820313,4548.974121,4412.436035,4467.05127,,,,,,,,,,,,,,,,,,,,,,,,,,,,,,,,,,,,,,,,,,,,,,,,,,,,,,,,,,,,,,,,,,,,,,
1768920185.366474,1768920185.367648,119.0,0.0,4348.205078,4348.205078,4352.307617,4373.077148,4341.538574,4337.692383,4332.436035,4350.769043,4340.512695,4325.256348,4508.077148,4545.128418,4412.692383,4467.307617,,,,,,,,,,,,,,,,,,,,,,,,,,,,,,,,,,,,,,,,,,,,,,,,,,,,,,,,,,,,,,,,,,,,,,
1768920185.374282,1768920185.375257,120.0,0.0,4345.897461,4348.717773,4347.563965,4372.820313,4343.205078,4343.205078,4337.692383,4350.256348,4336.794922,4324.230957,4506.538574,4537.820313,4413.077148,4461.282227,,,,,,,,,,,,,,,,,,,,,,,,,,,,,,,,,,,,,,,,,,,,,,,,,,,,,,,,,,,,,,,,,,,,,,
1768920185.382091,1768920185.383066,121.0,0.0,4346.282227,4347.179688,4351.666504,4372.692383,4342.307617,4335.384766,4335.0,4344.743652,4332.05127,4325.0,4506.538574,4538.077148,4412.692383,4458.461426,,,,,,,,,,,,,,,,,,,,,,,,,,,,,,,,,,,,,,,,,,,,,,,,,,,,,,,,,,,,,,,,,,,,,,
1768920185.389899,1768920185.390774,122.0,0.0,4348.333496,4348.717773,4356.410156,4372.436035,4341.922852,4333.717773,4334.487305,4345.897461,4335.384766,4324.102539,4508.846191,4542.94873,4413.205078,4463.077148,,,,,,,,,,,,,,,,,,,,,,,,,,,,,,,,,,,,,,,,,,,,,,,,,,,,,,,,,,,,,,,,,,,,,,
1768920185.397708,1768920185.398583,123.0,0.0,4350.0,4349.358887,4350.769043,4370.641113,4342.94873,4339.358887,4334.358887,4348.461426,4337.94873,4325.0,4509.871582,4547.307617,4417.307617,4468.461426,,,,,,,,,,,,,,,,,,,,,,,,,,,,,,,,,,,,,,,,,,,,,,,,,,,,,,,,,,,,,,,,,,,,,,
1768920185.405516,1768920185.406591,124.0,0.0,4348.461426,4341.666504,4344.743652,4365.769043,4339.102539,4334.230957,4327.307617,4347.820313,4333.589844,4325.897461,4510.0,4546.410156,4418.974121,4468.589844,,,,,,,,,,,,,,,,,,,,,,,,,,,,,,,,,,,,,,,,,,,,,,,,,,,,,,,,,,,,,,,,,,,,,,
1768920185.413325,1768920185.414399,125.0,0.0,4343.589844,4336.410156,4344.871582,4362.563965,4336.794922,4327.563965,4322.94873,4345.128418,4328.974121,4318.974121,4507.820313,4539.487305,4412.820313,4461.025879,,,,,,,,,,,,,,,,,,,,,,,,,,,,,,,,,,,,,,,,,,,,,,,,,,,,,,,,,,,,,,,,,,,,,,
1768920185.421133,1768920185.422308,126.0,0.0,4343.205078,4342.05127,4345.256348,4365.384766,4342.307617,4328.205078,4325.256348,4341.922852,4327.179688,4312.563965,4504.358887,4534.358887,4408.589844,4454.102539,,,,,,,,,,,,,,,,,,,,,,,,,,,,,,,,,,,,,,,,,,,,,,,,,,,,,,,,,,,,,,,,,,,,,,
1768920185.428942,1768920185.430116,127.0,0.0,4349.230957,4343.846191,4342.436035,4367.307617,4341.153809,4326.410156,4325.384766,4342.94873,4325.384766,4314.615234,4506.282227,4535.128418,4411.922852,4457.307617,,,,,,,,,,,,,,,,,,,,,,,,,,,,,,,,,,,,,,,,,,,,,,,,,,,,,,,,,,,,,,,,,,,,,,
1768920185.43675,1768920185.437725,0.0,0.0,4343.974121,4333.333496,4339.615234,4363.717773,4332.820313,4325.641113,4326.025879,4346.922852,4328.589844,4315.384766,4503.589844,4534.615234,4400.512695,4452.307617,0.423761,0.172111,0.262412,0.175307,0.092852,0.956392,0.330916,0.254658,0.259834,0.127348,0.623817,0.279028,0.415453,0.366093,0.107127,0.81228,0.31293,0.411139,0.116933,0.060033,0.209442,0.446027,0.056556,0.135626,0.039216,0.235741,0.33492,0.115169,0.149235,0.154301,0.285112,0.253462,0.184542,0.189858,0.194092,0.181976,0.308547,0.03258,0.127525,0.126245,0.211817,0.240603,0.051371,0.148812,0.11863,0.650693,0.287316,0.201217,0.217493,0.065831,1.050977,0.501642,0.279996,0.321239,0.146274,1.036822,0.473406,0.181147,0.489343,0.126748,0.456817,0.537223,0.300568,0.272478,0.116287,0.739624,0.417236,0.268531,0.308264,0.145942
1768920185.444559,1768920185.445533,1.0,0.0,4329.358887,4324.487305,4342.692383,4362.563965,4333.974121,4331.538574,4329.358887,4350.384766,4331.538574,4310.128418,4491.538574,4528.333496,4384.743652,4434.358887,,,,,,,,,,,,,,,,,,,,,,,,,,,,,,,,,,,,,,,,,,,,,,,,,,,,,,,,,,,,,,,,,,,,,,
1768920185.452367,1768920185.453242,2.0,0.0,4332.179688,4328.461426,4341.282227,4362.307617,4334.102539,4331.410156,4325.256348,4345.0,4331.153809,4310.384766,4495.128418,4526.025879,4398.461426,4439.358887,,,,,,,,,,,,,,,,,,,,,,,,,,,,,,,,,,,,,,,,,,,,,,,,,,,,,,,,,,,,,,,,,,,,,,
1768920185.460176,1768920185.46105,3.0,0.0,4342.436035,4331.410156,4331.538574,4358.461426,4328.205078,4323.717773,4318.589844,4334.871582,4327.563965,4313.205078,4508.333496,4528.717773,4417.820313,4465.0,,,,,,,,,,,,,,,,,,,,,,,,,,,,,,,,,,,,,,,,,,,,,,,,,,,,,,,,,,,,,,,,,,,,,,
1768920185.467984,1768920185.468658,4.0,0.0,4340.128418,4325.384766,4330.0,4357.563965,4327.820313,4323.461426,4319.871582,4334.871582,4323.974121,4308.974121,4505.384766,4531.922852,4413.846191,4471.666504,,,,,,,,,,,,,,,,,,,,,,,,,,,,,,,,,,,,,,,,,,,,,,,,,,,,,,,,,,,,,,,,,,,,,,
1768920185.475793,1768920185.476467,5.0,0.0,4335.384766,4325.256348,4338.974121,4360.0,4328.846191,4327.05127,4324.743652,4340.769043,4325.128418,4307.179688,4500.0,4534.102539,4408.974121,4461.025879,,,,,,,,,,,,,,,,,,,,,,,,,,,,,,,,,,,,,,,,,,,,,,,,,,,,,,,,,,,,,,,,,,,,,,
1768920185.483601,1768920185.484375,6.0,0.0,4337.307617,4327.563965,4341.666504,4358.077148,4327.692383,4330.128418,4330.0,4345.256348,4328.461426,4311.025879,4500.384766,4533.205078,4412.307617,4457.307617,,,,,,,,,,,,,,,,,,,,,,,,,,,,,,,,,,,,,,,,,,,,,,,,,,,,,,,,,,,,,,,,,,,,,,
1768920185.49141,1768920185.492183,7.0,0.0,4339.487305,4325.512695,4338.461426,4355.512695,4328.846191,4331.666504,4334.102539,4347.05127,4326.922852,4310.641113,4497.94873,4532.436035,4410.512695,4454.743652,,,,,,,,,,,,,,,,,,,,,,,,,,,,,,,,,,,,,,,,,,,,,,,,,,,,,,,,,,,,,,,,,,,,,,
1768920185.499219,1768920185.500192,8.0,0.0,4342.692383,4330.384766,4342.820313,4360.0,4333.589844,4332.563965,4336.538574,4348.974121,4325.769043,4311.666504,4500.897461,4537.307617,4410.128418,4453.589844,,,,,,,,,,,,,,,,,,,,,,,,,,,,,,,,,,,,,,,,,,,,,,,,,,,,,,,,,,,,,,,,,,,,,,
1768920185.507027,1768920185.508,9.0,0.0,4348.077148,4338.461426,4351.922852,4365.128418,4336.794922,4337.820313,4339.743652,4354.102539,4334.358887,4319.358887,4509.230957,4545.769043,4413.077148,4460.641113,,,,,,,,,,,,,,,,,,,,,,,,,,,,,,,,,,,,,,,,,,,,,,,,,,,,,,,,,,,,,,,,,,,,,,
1768920185.514835,1768920185.515909,10.0,0.0,4347.563965,4337.820313,4355.641113,4366.410156,4335.128418,4338.717773,4336.538574,4355.128418,4338.717773,4323.974121,4509.358887,4549.871582,4414.871582,4461.666504,,,,,,,,,,,,,,,,,,,,,,,,,,,,,,,,,,,,,,,,,,,,,,,,,,,,,,,,,,,,,,,,,,,,,,
1768920185.522644,1768920185.523717,11.0,0.0,4346.025879,4336.025879,4349.743652,4365.384766,4331.538574,4333.077148,4329.230957,4345.897461,4329.743652,4321.666504,4506.794922,4544.615234,4416.794922,4457.563965,,,,,,,,,,,,,,,,,,,,,,,,,,,,,,,,,,,,,,,,,,,,,,,,,,,,,,,,,,,,,,,,,,,,,,
1768920185.530453,1768920185.531725,12.0,0.0,4344.487305,4339.358887,4341.025879,4363.461426,4332.692383,4333.077148,4332.05127,4343.077148,4324.743652,4318.077148,4506.153809,4537.05127,4414.487305,4456.666504,,,,,,,,,,,,,,,,,,,,,,,,,,,,,,,,,,,,,,,,,,,,,,,,,,,,,,,,,,,,,,,,,,,,,,
1768920185.538261,1768920185.539534,13.0,0.0,4345.0,4341.538574,4341.666504,4362.820313,4335.641113,4333.205078,4337.307617,4350.256348,4328.846191,4316.153809,4505.256348,4540.128418,4414.358887,4458.205078,,,,,,,,,,,,,,,,,,,,,,,,,,,,,,,,,,,,,,,,,,,,,,,,,,,,,,,,,,,,,,,,,,,,,,
1768920185.54607,1768920185.547242,14.0,0.0,4347.820313,4339.230957,4348.461426,4359.871582,4334.230957,4324.615234,4329.615234,4351.153809,4331.410156,4319.871582,4507.563965,4548.333496,4418.333496,4462.692383,,,,,,,,,,,,,,,,,,,,,,,,,,,,,,,,,,,,,,,,,,,,,,,,,,,,,,,,,,,,,,,,,,,,,,
1768920185.553878,1768920185.55505,15.0,0.0,4346.538574,4337.436035,4352.563965,4358.974121,4332.692383,4321.666504,4323.589844,4348.846191,4330.256348,4324.358887,4509.487305,4547.820313,4418.974121,4465.769043,,,,,,,,,,,,,,,,,,,,,,,,,,,,,,,,,,,,,,,,,,,,,,,,,,,,,,,,,,,,,,,,,,,,,,
1768920185.561687,1768920185.562659,16.0,0.0,4346.922852,4340.769043,4349.487305,4363.589844,4332.563965,4330.256348,4330.384766,4352.94873,4332.692383,4323.589844,4508.205078,4544.615234,4415.0,4461.282227,0.470536,0.209164,0.257572,0.165228,0.095035,0.961626,0.371623,0.318449,0.264435,0.124205,0.556848,0.291812,0.476916,0.302587,0.117808,0.818339,0.324083,0.458991,0.118226,0.058832,0.190307,0.416504,0.048794,0.121263,0.040381,0.276383,0.36168,0.110336,0.166771,0.15357,0.274751,0.291768,0.180725,0.214259,0.198021,0.180643,0.330851,0.038488,0.127479,0.127755,0.236522,0.267904,0.053022,0.173113,0.124677,0.643839,0.319663,0.162786,0.219631,0.068173,1.001912,0.475015,0.291662,0.260687,0.160367,0.795024,0.459113,0.19993,0.387152,0.153904,0.514217,0.515912,0.289007,0.263999,0.131543,0.732013,0.528211,0.285961,0.283588,0.152558
1768920185.569495,1768920185.570467,17.0,0.0,4347.05127,4338.717773,4342.307617,4362.692383,4332.692383,4337.436035,4338.974121,4356.922852,4334.102539,4318.974121,4505.128418,4540.897461,4410.512695,4455.0,,,,,,,,,,,,,,,,,,,,,,,,,,,,,,,,,,,,,,,,,,,,,,,,,,,,,,,,,,,,,,,,,,,,,,
1768920185.577304,1768920185.578176,18.0,0.0,4344.102539,4331.794922,4340.128418,4359.615234,4335.128418,4339.102539,4343.846191,4353.461426,4330.256348,4314.102539,4504.230957,4536.410156,4410.769043,4456.922852,,,,,,,,,,,,,,,,,,,,,,,,,,,,,,,,,,,,,,,,,,,,,,,,,,,,,,,,,,,,,,,,,,,,,,
1768920185.585112,1768920185.585984,19.0,0.0,4347.436035,4333.461426,4346.794922,4361.922852,4335.897461,4333.205078,4343.461426,4355.512695,4332.307617,4314.487305,4508.717773,4539.615234,4414.230957,4459.358887,,,,,,,,,,,,,,,,,,,,,,,,,,,,,,,,,,,,,,,,,,,,,,,,,,,,,,,,,,,,,,,,,,,,,,
1768920185.592921,1768920185.593593,20.0,0.0,4353.974121,4337.179688,4349.487305,4361.410156,4337.307617,4332.179688,4341.794922,4360.256348,4337.179688,4318.333496,4506.794922,4542.94873,4412.436035,4455.0,,,,,,,,,,,,,,,,,,,,,,,,,,,,,,,,,,,,,,,,,,,,,,,,,,,,,,,,,,,,,,,,,,,,,,
1768920185.600729,1768920185.601401,21.0,0.0,4350.256348,4334.230957,4345.897461,4356.410156,4340.641113,4339.615234,4339.487305,4349.230957,4329.871582,4314.102539,4494.871582,4535.897461,4403.333496,4449.871582,,,,,,,,,,,,,,,,,,,,,,,,,,,,,,,,,,,,,,,,,,,,,,,,,,,,,,,,,,,,,,,,,,,,,,
1768920185.608538,1768920185.60911,22.0,0.0,4346.025879,4333.589844,4348.589844,4356.794922,4341.025879,4341.538574,4335.769043,4338.461426,4320.256348,4306.666504,4490.0,4532.436035,4398.333496,4447.820313,,,,,,,,,,,,,,,,,,,,,,,,,,,,,,,,,,,,,,,,,,,,,,,,,,,,,,,,,,,,,,,,,,,,,,
1768920185.616346,1768920185.616918,23.0,0.0,4347.563965,4332.179688,4348.589844,4354.615234,4337.436035,4335.769043,4334.743652,4346.153809,4324.487305,4307.179688,4489.615234,4534.487305,4394.871582,4443.461426,,,,,,,,,,,,,,,,,,,,,,,,,,,,,,,,,,,,,,,,,,,,,,,,,,,,,,,,,,,,,,,,,,,,,,
1768920185.624155,1768920185.624927,24.0,0.0,4345.256348,4327.692383,4343.461426,4351.410156,4332.692383,4334.358887,4338.974121,4354.743652,4332.05127,4312.563965,4487.94873,4536.282227,4393.974121,4439.487305,,,,,,,,,,,,,,,,,,,,,,,,,,,,,,,,,,,,,,,,,,,,,,,,,,,,,,,,,,,,,,,,,,,,,,
1768920185.631963,1768920185.632735,25.0,0.0,4350.0,4335.0,4353.333496,4361.025879,4332.436035,4340.128418,4341.794922,4352.05127,4336.410156,4321.282227,4503.974121,4546.794922,4412.179688,4450.128418,,,,,,,,,,,,,,,,,,,,,,,,,,,,,,,,,,,,,,,,,,,,,,,,,,,,,,,,,,,,,,,,,,,,,,
1768920185.639772,1768920185.640444,26.0,0.0,4357.179688,4347.94873,4366.410156,4368.846191,4337.05127,4338.974121,4335.512695,4352.436035,4342.692383,4330.641113,4523.333496,4560.769043,4428.461426,4466.922852,,,,,,,,,,,,,,,,,,,,,,,,,,,,,,,,,,,,,,,,,,,,,,,,,,,,,,,,,,,,,,,,,,,,,,
1768920185.64758,1768920185.648252,27.0,0.0,4356.025879,4348.974121,4361.025879,4369.102539,4337.307617,4328.333496,4326.538574,4356.153809,4341.666504,4330.384766,4516.922852,4560.769043,4419.615234,4468.589844,,,,,,,,,,,,,,,,,,,,,,,,,,,,,,,,,,,,,,,,,,,,,,,,,,,,,,,,,,,,,,,,,,,,,,
1768920185.655389,1768920185.65586,28.0,0.0,4353.717773,4344.230957,4355.384766,4372.692383,4331.666504,4323.717773,4323.846191,4351.153809,4331.025879,4321.153809,4505.0,4552.436035,4409.358887,4458.333496,,,,,,,,,,,,,,,,,,,,,,,,,,,,,,,,,,,,,,,,,,,,,,,,,,,,,,,,,,,,,,,,,,,,,,
1768920185.663197,1768920185.663669,29.0,0.0,4354.358887,4342.05127,4360.128418,4373.846191,4330.384766,4329.615234,4330.641113,4344.358887,4325.384766,4313.333496,4507.94873,4546.410156,4412.94873,4455.641113,,,,,,,,,,,,,,,,,,,,,,,,,,,,,,,,,,,,,,,,,,,,,,,,,,,,,,,,,,,,,,,,,,,,,,
1768920185.671006,1768920185.671377,30.0,0.0,4357.05127,4340.897461,4360.256348,4368.077148,4333.333496,4333.589844,4338.717773,4343.333496,4327.563965,4311.794922,4509.358887,4548.717773,4412.563965,4461.153809,,,,,,,,,,,,,,,,,,,,,,,,,,,,,,,,,,,,,,,,,,,,,,,,,,,,,,,,,,,,,,,,,,,,,,
1768920185.678814,1768920185.679185,31.0,0.0,4356.410156,4336.410156,4357.436035,4363.589844,4330.128418,4329.102539,4335.641113,4341.025879,4327.05127,4313.589844,4505.384766,4552.179688,4404.358887,4457.563965,,,,,,,,,,,,,,,,,,,,,,,,,,,,,,,,,,,,,,,,,,,,,,,,,,,,,,,,,,,,,,,,,,,,,,
1768920185.686623,1768920185.687193,32.0,0.0,4353.846191,4335.128418,4357.94873,4364.615234,4324.743652,4325.256348,4326.410156,4339.358887,4323.846191,4311.153809,4503.974121,4547.820313,4399.487305,4446.922852,0.508901,0.238657,0.243708,0.157045,0.09811,1.035567,0.401834,0.368369,0.267859,0.119496,0.549559,0.30345,0.519089,0.257773,0.12529,0.811521,0.325367,0.47465,0.122773,0.057159,0.169691,0.356916,0.046987,0.105877,0.04523,0.307348,0.364192,0.114224,0.192755,0.152245,0.248654,0.329102,0.179214,0.236777,0.203133,0.207817,0.312574,0.046945,0.131818,0.125931,0.344972,0.279318,0.055049,0.195574,0.123532,0.659898,0.33458,0.132213,0.22256,0.07239,1.012297,0.448894,0.296955,0.208727,0.173515,0.638876,0.446899,0.264984,0.300644,0.190151,0.63408,0.534841,0.298262,0.260851,0.151493,0.739411,0.658674,0.309454,0.27953,0.162072
1768920185.694431,1768920185.695002,33.0,0.0,4356.410156,4340.897461,4357.820313,4367.307617,4326.922852,4326.410156,4326.538574,4345.641113,4326.025879,4307.692383,4504.230957,4547.307617,4403.589844,4448.846191,,,,,,,,,,,,,,,,,,,,,,,,,,,,,,,,,,,,,,,,,,,,,,,,,,,,,,,,,,,,,,,,,,,,,,
1768920185.70224,1768920185.70291,34.0,0.0,4358.077148,4343.974121,4358.846191,4368.461426,4329.871582,4326.025879,4331.410156,4346.666504,4326.025879,4313.717773,4506.666504,4552.563965,4412.436035,4459.743652,,,,,,,,,,,,,,,,,,,,,,,,,,,,,,,,,,,,,,,,,,,,,,,,,,,,,,,,,,,,,,,,,,,,,,
1768920185.710049,1768920185.710719,35.0,0.0,4352.563965,4340.897461,4358.717773,4364.743652,4325.512695,4322.94873,4326.282227,4336.025879,4320.641113,4319.230957,4507.820313,4551.282227,4413.205078,4458.717773,,,,,,,,,,,,,,,,,,,,,,,,,,,,,,,,,,,,,,,,,,,,,,,,,,,,,,,,,,,,,,,,,,,,,,
1768920185.717857,1768920185.718727,36.0,0.0,4349.230957,4341.025879,4357.179688,4363.846191,4325.641113,4325.0,4321.666504,4334.102539,4321.666504,4320.256348,4506.666504,4546.410156,4408.461426,4453.333496,,,,,,,,,,,,,,,,,,,,,,,,,,,,,,,,,,,,,,,,,,,,,,,,,,,,,,,,,,,,,,,,,,,,,,
1768920185.725665,1768920185.726535,37.0,0.0,4352.94873,4343.077148,4357.692383,4367.436035,4335.0,4329.230957,4326.153809,4344.102539,4326.410156,4322.179688,4507.94873,4547.05127,4411.410156,4458.846191,,,,,,,,,,,,,,,,,,,,,,,,,,,,,,,,,,,,,,,,,,,,,,,,,,,,,,,,,,,,,,,,,,,,,,
1768920185.733474,1768920185.734444,38.0,0.0,4355.384766,4342.563965,4359.102539,4367.820313,4337.05127,4327.05127,4327.05127,4344.743652,4325.384766,4320.384766,4508.974121,4547.563965,4414.487305,4461.282227,,,,,,,,,,,,,,,,,,,,,,,,,,,,,,,,,,,,,,,,,,,,,,,,,,,,,,,,,,,,,,,,,,,,,,
1768920185.741283,1768920185.742252,39.0,0.0,4355.0,4341.282227,4359.743652,4368.333496,4329.358887,4322.05127,4321.922852,4340.128418,4323.589844,4319.358887,4509.743652,4547.436035,4411.410156,4458.717773,,,,,,,,,,,,,,,,,,,,,,,,,,,,,,,,,,,,,,,,,,,,,,,,,,,,,,,,,,,,,,,,,,,,,,
1768920185.749091,1768920185.749961,40.0,0.0,4349.743652,4339.102539,4357.05127,4367.436035,4326.410156,4322.563965,4321.282227,4340.384766,4325.512695,4322.94873,4510.0,4551.153809,4411.666504,4460.769043,,,,,,,,,,,,,,,,,,,,,,,,,,,,,,,,,,,,,,,,,,,,,,,,,,,,,,,,,,,,,,,,,,,,,,
1768920185.756899,1768920185.757769,41.0,0.0,4346.410156,4341.025879,4352.05127,4363.461426,4329.615234,4327.05127,4327.436035,4338.717773,4325.128418,4320.256348,4508.589844,4551.025879,4416.794922,4461.666504,,,,,,,,,,,,,,,,,,,,,,,,,,,,,,,,,,,,,,,,,,,,,,,,,,,,,,,,,,,,,,,,,,,,,,
1768920185.764708,1768920185.765478,42.0,0.0,4350.897461,4342.563965,4348.846191,4363.589844,4330.897461,4328.717773,4328.974121,4335.0,4321.794922,4310.384766,4506.153809,4543.846191,4414.102539,4457.179688,,,,,,,,,,,,,,,,,,,,,,,,,,,,,,,,,,,,,,,,,,,,,,,,,,,,,,,,,,,,,,,,,,,,,,
1768920185.772517,1768920185.773286,43.0,0.0,4349.743652,4335.384766,4347.05127,4363.077148,4326.666504,4324.487305,4325.512695,4336.410156,4320.128418,4307.820313,4504.615234,4539.358887,4404.743652,4453.717773,,,,,,,,,,,,,,,,,,,,,,,,,,,,,,,,,,,,,,,,,,,,,,,,,,,,,,,,,,,,,,,,,,,,,,
1768920185.780325,1768920185.780895,44.0,0.0,4344.615234,4333.077148,4349.871582,4363.461426,4326.410156,4321.794922,4325.0,4340.641113,4322.436035,4316.794922,4506.666504,4549.358887,4408.205078,4458.589844,,,,,,,,,,,,,,,,,,,,,,,,,,,,,,,,,,,,,,,,,,,,,,,,,,,,,,,,,,,,,,,,,,,,,,
1768920185.788134,1768920185.788703,45.0,0.0,4342.05127,4341.794922,4354.871582,4368.846191,4332.307617,4325.641113,4327.436035,4340.769043,4327.307617,4324.102539,4509.871582,4554.487305,4415.641113,4464.743652,,,,,,,,,,,,,,,,,,,,,,,,,,,,,,,,,,,,,,,,,,,,,,,,,,,,,,,,,,,,,,,,,,,,,,
1768920185.795942,1768920185.796412,46.0,0.0,4340.0,4343.846191,4348.717773,4365.769043,4333.846191,4328.077148,4325.512695,4339.615234,4327.179688,4320.641113,4507.179688,4537.94873,4409.102539,4460.769043,,,,,,,,,,,,,,,,,,,,,,,,,,,,,,,,,,,,,,,,,,,,,,,,,,,,,,,,,,,,,,,,,,,,,,
1768920185.803751,1768920185.80422,47.0,0.0,4343.205078,4338.974121,4342.692383,4359.102539,4331.538574,4328.974121,4328.717773,4342.820313,4323.717773,4310.769043,4502.563965,4532.820313,4405.128418,4454.615234,,,,,,,,,,,,,,,,,,,,,,,,,,,,,,,,,,,,,,,,,,,,,,,,,,,,,,,,,,,,,,,,,,,,,,
1768920185.811559,1768920185.812228,48.0,0.0,4350.641113,4341.410156,4354.615234,4365.256348,4331.025879,4331.538574,4335.256348,4344.871582,4324.615234,4309.358887,4507.05127,4545.512695,4412.692383,4458.333496,0.532069,0.249109,0.223655,0.151178,0.102457,1.173082,0.413981,0.386418,0.270063,0.115204,0.59009,0.310718,0.525432,0.235783,0.129145,0.803574,0.314807,0.456384,0.128651,0.056004,0.158362,0.286277,0.04996,0.090045,0.051068,0.314731,0.354907,0.126348,0.222209,0.150615,0.217028,0.372304,0.183362,0.255429,0.206017,0.246413,0.262154,0.06301,0.142314,0.122974,0.494778,0.277867,0.058682,0.210652,0.115874,0.684272,0.3332,0.115158,0.224145,0.077215,1.045015,0.418437,0.30212,0.175263,0.186115,0.580216,0.425897,0.356785,0.240997,0.230696,0.774679,0.566693,0.332773,0.261973,0.174705,0.736195,0.756009,0.334796,0.288975,0.174373
1768920185.819368,1768920185.820037,49.0,0.0,4351.282227,4342.94873,4360.256348,4369.230957,4332.05127,4327.820313,4329.230957,4341.538574,4326.538574,4313.333496,4508.461426,4546.410156,4415.256348,4459.102539,,,,,,,,,,,,,,,,,,,,,,,,,,,,,,,,,,,,,,,,,,,,,,,,,,,,,,,,,,,,,,,,,,,,,,
1768920185.827176,1768920185.827945,50.0,0.0,4343.974121,4339.615234,4345.256348,4362.436035,4333.333496,4322.307617,4321.282227,4338.205078,4325.128418,4310.769043,4502.307617,4535.0,4412.05127,4453.461426,,,,,,,,,,,,,,,,,,,,,,,,,,,,,,,,,,,,,,,,,,,,,,,,,,,,,,,,,,,,,,,,,,,,,,
1768920185.834985,1768920185.835754,51.0,0.0,4340.641113,4341.025879,4337.05127,4363.461426,4332.94873,4326.922852,4325.384766,4337.307617,4323.333496,4306.666504,4498.846191,4532.307617,4407.94873,4454.615234,,,,,,,,,,,,,,,,,,,,,,,,,,,,,,,,,,,,,,,,,,,,,,,,,,,,,,,,,,,,,,,,,,,,,,
1768920185.842793,1768920185.843762,52.0,0.0,4341.153809,4341.922852,4344.743652,4365.769043,4327.436035,4331.794922,4329.230957,4338.461426,4319.102539,4306.025879,4494.487305,4534.615234,4400.769043,4454.871582,,,,,,,,,,,,,,,,,,,,,,,,,,,,,,,,,,,,,,,,,,,,,,,,,,,,,,,,,,,,,,,,,,,,,,
1768920185.850602,1768920185.85157,53.0,0.0,4343.333496,4338.846191,4349.615234,4358.205078,4323.846191,4325.769043,4325.128418,4341.282227,4318.077148,4307.692383,4495.769043,4534.487305,4402.94873,4451.410156,,,,,,,,,,,,,,,,,,,,,,,,,,,,,,,,,,,,,,,,,,,,,,,,,,,,,,,,,,,,,,,,,,,,,,
1768920185.85841,1768920185.859279,54.0,0.0,4346.538574,4341.025879,4350.256348,4357.563965,4331.025879,4324.615234,4324.615234,4339.102539,4323.205078,4309.487305,4503.974121,4536.794922,4413.461426,4456.538574,,,,,,,,,,,,,,,,,,,,,,,,,,,,,,,,,,,,,,,,,,,,,,,,,,,,,,,,,,,,,,,,,,,,,,
1768920185.866219,1768920185.867087,55.0,0.0,4348.205078,4345.641113,4353.717773,4366.025879,4337.94873,4333.717773,4328.333496,4338.589844,4326.666504,4308.589844,4505.256348,4539.615234,4411.666504,4462.94873,,,,,,,,,,,,,,,,,,,,,,,,,,,,,,,,,,,,,,,,,,,,,,,,,,,,,,,,,,,,,,,,,,,,,,
1768920185.874027,1768920185.874695,56.0,0.0,4351.025879,4344.230957,4356.410156,4366.922852,4335.897461,4333.077148,4327.692383,4342.179688,4325.512695,4308.333496,4502.563965,4542.436035,4403.846191,4459.615234,,,,,,,,,,,,,,,,,,,,,,,,,,,,,,,,,,,,,,,,,,,,,,,,,,,,,,,,,,,,,,,,,,,,,,
1768920185.881836,1768920185.882504,57.0,0.0,4353.846191,4342.05127,4358.589844,4360.769043,4331.922852,4327.307617,4324.102539,4341.282227,4327.307617,4315.128418,4507.179688,4543.974121,4407.179688,4457.692383,,,,,,,,,,,,,,,,,,,,,,,,,,,,,,,,,,,,,,,,,,,,,,,,,,,,,,,,,,,,,,,,,,,,,,
1768920185.889644,1768920185.890412,58.0,0.0,4356.922852,4343.717773,4362.563965,4362.436035,4330.641113,4328.077148,4323.974121,4343.461426,4332.05127,4318.846191,4510.769043,4544.230957,4415.128418,4462.05127,,,,,,,,,,,,,,,,,,,,,,,,,,,,,,,,,,,,,,,,,,,,,,,,,,,,,,,,,,,,,,,,,,,,,,
1768920185.897453,1768920185.89822,59.0,0.0,4358.205078,4344.871582,4364.358887,4368.974121,4331.794922,4328.333496,4328.205078,4347.05127,4332.05127,4315.0,4506.666504,4546.282227,4416.410156,4463.333496,,,,,,,,,,,,,,,,,,,,,,,,,,,,,,,,,,,,,,,,,,,,,,,,,,,,,,,,,,,,,,,,,,,,,,
1768920185.905261,1768920185.906229,60.0,0.0,4357.179688,4342.692383,4357.94873,4365.641113,4330.641113,4329.615234,4329.230957,4343.077148,4328.461426,4316.410156,4505.384766,4545.0,4413.461426,4460.256348,,,,,,,,,,,,,,,,,,,,,,,,,,,,,,,,,,,,,,,,,,,,,,,,,,,,,,,,,,,,,,,,,,,,,,
1768920185.91307,1768920185.914037,61.0,0.0,4355.512695,4339.487305,4349.487305,4356.666504,4328.589844,4334.230957,4326.538574,4340.512695,4325.256348,4317.179688,4505.128418,4536.666504,4411.666504,4456.922852,,,,,,,,,,,,,,,,,,,,,,,,,,,,,,,,,,,,,,,,,,,,,,,,,,,,,,,,,,,,,,,,,,,,,,
1768920185.920879,1768920185.921945,62.0,0.0,4354.871582,4339.487305,4353.461426,4358.589844,4333.205078,4338.461426,4329.615234,4346.666504,4329.871582,4312.692383,4504.230957,4534.615234,4412.94873,4458.333496,,,,,,,,,,,,,,,,,,,,,,,,,,,,,,,,,,,,,,,,,,,,,,,,,,,,,,,,,,,,,,,,,,,,,,
1768920185.928687,1768920185.929754,63.0,0.0,4360.128418,4343.974121,4362.820313,4369.615234,4339.102539,4340.0,4337.820313,4354.230957,4338.461426,4315.769043,4509.487305,4547.179688,4414.487305,4463.974121,,,,,,,,,,,,,,,,,,,,,,,,,,,,,,,,,,,,,,,,,,,,,,,,,,,,,,,,,,,,,,,,,,,,,,
1768920185.936495,1768920185.937362,64.0,0.0,4363.461426,4345.256348,4361.794922,4370.0,4336.538574,4336.153809,4337.05127,4353.333496,4336.666504,4321.410156,4516.153809,4552.05127,4415.0,4466.666504,0.527225,0.236782,0.20235,0.147583,0.107302,1.327278,0.40571,0.367776,0.268697,0.11233,0.64156,0.310388,0.493174,0.232325,0.130693,0.785447,0.291144,0.41645,0.132369,0.055771,0.165932,0.224675,0.055237,0.07429,0.055564,0.298273,0.351292,0.142332,0.247712,0.149339,0.194534,0.428512,0.194713,0.270755,0.202908,0.280959,0.197889,0.09547,0.15657,0.121141,0.640813,0.268415,0.069194,0.215539,0.105144,0.720997,0.32731,0.117872,0.221076,0.081729,1.07089,0.38498,0.318959,0.165134,0.197558,0.603653,0.391377,0.450873,0.208004,0.267615,0.904464,0.589638,0.393595,0.27,0.19957,0.716256,0.789594,0.371315,0.306651,0.189515
1768920185.944304,1768920185.945171,65.0,0.0,4357.05127,4340.128418,4356.025879,4362.179688,4331.922852,4327.563965,4327.307617,4345.384766,4329.102539,4316.282227,4512.692383,4541.153809,4410.128418,4455.641113,,,,,,,,,,,,,,,,,,,,,,,,,,,,,,,,,,,,,,,,,,,,,,,,,,,,,,,,,,,,,,,,,,,,,,
