Timestamp,OriginalTimestamp,EEG.Counter,EEG.Interpolated,EEG.AF3,EEG.F7,EEG.F3,EEG.FC5,EEG.T7,EEG.P7,EEG.O1,EEG.O2,EEG.P8,EEG.T8,EEG.FC6,EEG.F4,EEG.F8,EEG.AF4,POW.AF3.Theta,POW.AF3.Alpha,POW.AF3.BetaL,POW.AF3.BetaH,POW.AF3.Gamma,POW.F7.Theta,POW.F7.Alpha,POW.F7.BetaL,POW.F7.BetaH,POW.F7.Gamma,POW.F3.Theta,POW.F3.Alpha,POW.F3.BetaL,POW.F3.BetaH,POW.F3.Gamma,POW.FC5.Theta,POW.FC5.Alpha,POW.FC5.BetaL,POW.FC5.BetaH,POW.FC5.Gamma,POW.T7.Theta,POW.T7.Alpha,POW.T7.BetaL,POW.T7.BetaH,POW.T7.Gamma,POW.P7.Theta,POW.P7.Alpha,POW.P7.BetaL,POW.P7.BetaH,POW.P7.Gamma,POW.O1.Theta,POW.O1.Alpha,POW.O1.BetaL,POW.O1.BetaH,POW.O1.Gamma,POW.O2.Theta,POW.O2.Alpha,POW.O2.BetaL,POW.O2.BetaH,POW.O2.Gamma,POW.P8.Theta,POW.P8.Alpha,POW.P8.BetaL,POW.P8.BetaH,POW.P8.Gamma,POW.T8.Theta,POW.T8.Alpha,POW.T8.BetaL,POW.T8.BetaH,POW.T8.Gamma,POW.FC6.Theta,POW.FC6.Alpha,POW.FC6.BetaL,POW.FC6.BetaH,POW.FC6.Gamma,POW.F4.Theta,POW.F4.Alpha,POW.F4.BetaL,POW.F4.BetaH,POW.F4.Gamma,POW.F8.Theta,POW.F8.Alpha,POW.F8.BetaL,POW.F8.BetaH,POW.F8.Gamma,POW.AF4.Theta,POW.AF4.Alpha,POW.AF4.BetaL,POW.AF4.BetaH,POW.AF4.Gamma
1769164074.176419,1769164074.177435,73.0,0.0,4310.512695,4303.846191,4393.205078,4337.436035,4279.871582,4290.512695,4315.128418,4323.333496,4309.615234,4294.871582,4625.384766,4571.410156,4444.871582,4520.769043,,,,,,,,,,,,,,,,,,,,,,,,,,,,,,,,,,,,,,,,,,,,,,,,,,,,,,,,,,,,,,,,,,,,,,
1769164074.184227,1769164074.185344,74.0,0.0,4312.05127,4304.743652,4393.077148,4338.974121,4280.384766,4292.05127,4318.077148,4326.794922,4312.94873,4293.589844,4623.846191,4569.615234,4436.410156,4516.794922,,,,,,,,,,,,,,,,,,,,,,,,,,,,,,,,,,,,,,,,,,,,,,,,,,,,,,,,,,,,,,,,,,,,,,
1769164074.192036,1769164074.193152,75.0,0.0,4313.077148,4302.563965,4389.871582,4338.461426,4282.179688,4294.102539,4314.358887,4322.05127,4309.487305,4291.282227,4620.641113,4568.205078,4436.666504,4518.077148,,,,,,,,,,,,,,,,,,,,,,,,,,,,,,,,,,,,,,,,,,,,,,,,,,,,,,,,,,,,,,,,,,,,,,
1769164074.199844,1769164074.20116,76.0,0.0,4310.641113,4302.692383,4393.205078,4339.358887,4282.436035,4293.333496,4315.256348,4317.692383,4300.769043,4290.769043,4619.743652,4568.846191,4443.589844,4523.974121,,,,,,,,,,,,,,,,,,,,,,,,,,,,,,,,,,,,,,,,,,,,,,,,,,,,,,,,,,,,,,,,,,,,,,
1769164074.207653,1769164074.208969,77.0,0.0,4308.461426,4307.05127,4397.05127,4340.256348,4282.692383,4290.641113,4316.025879,4319.230957,4302.94873,4293.077148,4617.436035,4569.102539,4444.230957,4522.179688,,,,,,,,,,,,,,,,,,,,,,,,,,,,,,,,,,,,,,,,,,,,,,,,,,,,,,,,,,,,,,,,,,,,,,
1769164074.215461,1769164074.216677,78.0,0.0,4319.358887,4311.666504,4399.230957,4345.897461,4283.846191,4289.743652,4311.410156,4318.461426,4309.102539,4294.230957,4617.179688,4568.846191,4444.230957,4522.820313,0.758489,0.795252,0.836888,0.6138,0.251981,0.508261,0.701277,0.658729,0.206087,0.14673,0.513875,0.328259,0.335068,0.303512,0.132123,0.262602,0.479637,0.509504,0.117406,0.090697,0.318674,0.664213,0.464102,0.138959,0.075531,0.174944,0.256108,0.281854,0.149834,0.068943,0.105671,0.234499,0.228133,0.080841,0.066204,0.710665,0.336624,0.273561,0.06422,0.065604,0.128101,0.360158,0.33805,0.161785,0.092941,0.706246,0.485302,0.457236,0.21181,0.173398,0.398635,0.497198,0.514934,0.245525,0.088612,0.376119,0.515589,0.454524,0.40454,0.119548,0.529196,0.76588,0.757865,0.218682,0.161733,0.840989,0.870651,0.576196,0.304681,0.16209
1769164074.22327,1769164074.224486,79.0,0.0,4329.487305,4313.333496,4404.615234,4351.538574,4291.410156,4294.871582,4312.563965,4318.589844,4305.769043,4294.230957,4622.179688,4570.384766,4446.666504,4529.487305,,,,,,,,,,,,,,,,,,,,,,,,,,,,,,,,,,,,,,,,,,,,,,,,,,,,,,,,,,,,,,,,,,,,,,
1769164074.231078,1769164074.232095,80.0,0.0,4320.128418,4311.153809,4405.641113,4347.563965,4293.205078,4300.0,4320.512695,4325.256348,4304.102539,4292.94873,4624.743652,4572.05127,4446.922852,4529.102539,,,,,,,,,,,,,,,,,,,,,,,,,,,,,,,,,,,,,,,,,,,,,,,,,,,,,,,,,,,,,,,,,,,,,,
1769164074.238886,1769164074.239903,81.0,0.0,4306.794922,4301.666504,4397.563965,4340.0,4283.077148,4296.410156,4323.461426,4326.666504,4308.077148,4284.230957,4618.205078,4566.922852,4444.102539,4521.666504,,,,,,,,,,,,,,,,,,,,,,,,,,,,,,,,,,,,,,,,,,,,,,,,,,,,,,,,,,,,,,,,,,,,,,
1769164074.246695,1769164074.247612,82.0,0.0,4303.717773,4294.102539,4394.871582,4339.102539,4281.410156,4291.282227,4315.384766,4321.410156,4308.333496,4280.0,4611.922852,4557.179688,4436.794922,4511.666504,,,,,,,,,,,,,,,,,,,,,,,,,,,,,,,,,,,,,,,,,,,,,,,,,,,,,,,,,,,,,,,,,,,,,,
1769164074.254504,1769164074.25542,83.0,0.0,4302.436035,4292.820313,4396.153809,4340.0,4287.179688,4293.589844,4313.333496,4322.05127,4308.333496,4286.025879,4608.846191,4553.333496,4425.384766,4505.0,,,,,,,,,,,,,,,,,,,,,,,,,,,,,,,,,,,,,,,,,,,,,,,,,,,,,,,,,,,,,,,,,,,,,,
1769164074.262312,1769164074.263029,84.0,0.0,4305.384766,4294.743652,4398.717773,4340.0,4285.0,4299.358887,4324.358887,4325.897461,4310.512695,4291.282227,4611.922852,4560.512695,4430.128418,4513.846191,,,,,,,,,,,,,,,,,,,,,,,,,,,,,,,,,,,,,,,,,,,,,,,,,,,,,,,,,,,,,,,,,,,,,,
1769164074.270121,1769164074.270837,85.0,0.0,4312.436035,4296.666504,4403.589844,4342.179688,4277.94873,4293.846191,4323.589844,4326.922852,4311.153809,4297.820313,4623.333496,4569.871582,4450.384766,4527.820313,,,,,,,,,,,,,,,,,,,,,,,,,,,,,,,,,,,,,,,,,,,,,,,,,,,,,,,,,,,,,,,,,,,,,,
1769164074.277929,1769164074.278546,86.0,0.0,4311.025879,4299.230957,4403.846191,4342.692383,4278.333496,4285.0,4313.974121,4325.769043,4311.025879,4301.153809,4625.128418,4569.358887,4452.692383,4526.922852,,,,,,,,,,,,,,,,,,,,,,,,,,,,,,,,,,,,,,,,,,,,,,,,,,,,,,,,,,,,,,,,,,,,,,
1769164074.285737,1769164074.286354,87.0,0.0,4313.589844,4305.897461,4405.512695,4346.922852,4285.512695,4288.461426,4319.102539,4321.153809,4308.717773,4294.487305,4615.769043,4562.692383,4441.282227,4522.05127,,,,,,,,,,,,,,,,,,,,,,,,,,,,,,,,,,,,,,,,,,,,,,,,,,,,,,,,,,,,,,,,,,,,,,
1769164074.293546,1769164074.293963,88.0,0.0,4320.641113,4313.333496,4412.692383,4354.358887,4292.820313,4292.179688,4321.025879,4313.461426,4307.436035,4291.794922,4614.615234,4563.717773,4450.0,4525.256348,,,,,,,,,,,,,,,,,,,,,,,,,,,,,,,,,,,,,,,,,,,,,,,,,,,,,,,,,,,,,,,,,,,,,,
1769164074.301354,1769164074.301771,89.0,0.0,4316.282227,4312.94873,4416.025879,4355.128418,4291.666504,4289.102539,4311.025879,4311.410156,4308.589844,4296.666504,4619.743652,4569.871582,4459.230957,4526.666504,,,,,,,,,,,,,,,,,,,,,,,,,,,,,,,,,,,,,,,,,,,,,,,,,,,,,,,,,,,,,,,,,,,,,,
1769164074.309163,1769164074.30948,90.0,0.0,4313.205078,4308.589844,4414.102539,4351.282227,4285.128418,4290.0,4310.769043,4317.307617,4308.333496,4296.025879,4620.0,4570.769043,4448.205078,4524.615234,,,,,,,,,,,,,,,,,,,,,,,,,,,,,,,,,,,,,,,,,,,,,,,,,,,,,,,,,,,,,,,,,,,,,,
1769164074.316971,1769164074.317288,91.0,0.0,4321.410156,4310.769043,4412.692383,4351.153809,4286.282227,4292.05127,4316.282227,4319.871582,4308.589844,4291.282227,4617.820313,4571.282227,4440.897461,4523.333496,,,,,,,,,,,,,,,,,,,,,,,,,,,,,,,,,,,,,,,,,,,,,,,,,,,,,,,,,,,,,,,,,,,,,,
1769164074.32478,1769164074.325296,92.0,0.0,4324.230957,4310.256348,4410.128418,4351.794922,4289.102539,4291.025879,4318.077148,4318.205078,4310.769043,4290.128418,4618.461426,4572.436035,4445.128418,4522.563965,,,,,,,,,,,,,,,,,,,,,,,,,,,,,,,,,,,,,,,,,,,,,,,,,,,,,,,,,,,,,,,,,,,,,,
1769164074.332588,1769164074.333105,93.0,0.0,4319.615234,4306.153809,4410.769043,4350.897461,4288.974121,4292.307617,4318.717773,4319.487305,4312.05127,4295.128418,4623.333496,4572.436035,4449.230957,4525.769043,,,,,,,,,,,,,,,,,,,,,,,,,,,,,,,,,,,,,,,,,,,,,,,,,,,,,,,,,,,,,,,,,,,,,,
1769164074.340397,1769164074.341013,94.0,0.0,4316.282227,4302.94873,4415.769043,4351.922852,4290.128418,4294.487305,4320.769043,4326.153809,4312.436035,4295.512695,4620.256348,4569.487305,4443.846191,4520.769043,0.753207,0.775261,0.930198,0.571328,0.281946,0.471064,0.682307,0.718778,0.193523,0.16196,0.375555,0.273652,0.391783,0.25856,0.137657,0.223563,0.43835,0.52845,0.114233,0.108785,0.376463,0.668876,0.443072,0.140089,0.079952,0.204427,0.375783,0.327023,0.16619,0.09661,0.102619,0.274835,0.271019,0.100125,0.077926,0.6146,0.281252,0.182067,0.060172,0.069743,0.100091,0.244265,0.187817,0.163379,0.109842,0.612263,0.388156,0.434165,0.239372,0.185331,0.365573,0.416822,0.484417,0.251176,0.091813,0.308618,0.306227,0.378717,0.392975,0.097364,0.525502,0.686636,0.883479,0.218351,0.157894,0.762405,0.789602,0.697899,0.310317,0.147513
1769164074.348205,1769164074.348822,95.0,0.0,4310.384766,4299.230957,4413.077148,4349.102539,4289.487305,4299.487305,4327.179688,4324.487305,4308.077148,4282.179688,4604.102539,4561.666504,4426.922852,4505.769043,,,,,,,,,,,,,,,,,,,,,,,,,,,,,,,,,,,,,,,,,,,,,,,,,,,,,,,,,,,,,,,,,,,,,,
1769164074.356013,1769164074.35683,96.0,0.0,4313.461426,4303.974121,4407.05127,4348.974121,4290.0,4297.307617,4323.717773,4315.897461,4304.871582,4284.358887,4607.179688,4560.641113,4430.256348,4509.102539,,,,,,,,,,,,,,,,,,,,,,,,,,,,,,,,,,,,,,,,,,,,,,,,,,,,,,,,,,,,,,,,,,,,,,
1769164074.363822,1769164074.364638,97.0,0.0,4326.666504,4313.461426,4409.871582,4357.05127,4294.230957,4285.0,4310.641113,4318.846191,4312.436035,4304.487305,4626.025879,4570.256348,4458.205078,4526.922852,,,,,,,,,,,,,,,,,,,,,,,,,,,,,,,,,,,,,,,,,,,,,,,,,,,,,,,,,,,,,,,,,,,,,,
1769164074.37163,1769164074.372347,98.0,0.0,4329.102539,4313.974121,4420.512695,4361.538574,4295.769043,4283.461426,4309.871582,4322.820313,4314.358887,4305.0,4625.641113,4573.205078,4462.05127,4528.077148,,,,,,,,,,,,,,,,,,,,,,,,,,,,,,,,,,,,,,,,,,,,,,,,,,,,,,,,,,,,,,,,,,,,,,
1769164074.379439,1769164074.380155,99.0,0.0,4324.615234,4310.256348,4426.794922,4359.102539,4293.333496,4284.871582,4314.230957,4314.487305,4302.436035,4293.205078,4613.333496,4568.205078,4444.102539,4519.743652,,,,,,,,,,,,,,,,,,,,,,,,,,,,,,,,,,,,,,,,,,,,,,,,,,,,,,,,,,,,,,,,,,,,,,
1769164074.387247,1769164074.388164,100.0,0.0,4326.666504,4312.307617,4423.717773,4357.563965,4292.692383,4277.820313,4308.333496,4307.436035,4296.794922,4294.358887,4611.794922,4568.717773,4442.436035,4521.282227,,,,,,,,,,,,,,,,,,,,,,,,,,,,,,,,,,,,,,,,,,,,,,,,,,,,,,,,,,,,,,,,,,,,,,
1769164074.395056,1769164074.395972,101.0,0.0,4326.666504,4313.205078,4419.871582,4358.717773,4292.179688,4280.384766,4308.205078,4312.692383,4296.025879,4296.666504,4613.846191,4569.871582,4445.641113,4519.102539,,,,,,,,,,,,,,,,,,,,,,,,,,,,,,,,,,,,,,,,,,,,,,,,,,,,,,,,,,,,,,,,,,,,,,
1769164074.402864,1769164074.40388,102.0,0.0,4322.05127,4309.871582,4424.102539,4360.128418,4290.128418,4288.205078,4316.410156,4319.358887,4297.563965,4292.179688,4611.922852,4567.307617,4442.05127,4513.974121,,,,,,,,,,,,,,,,,,,,,,,,,,,,,,,,,,,,,,,,,,,,,,,,,,,,,,,,,,,,,,,,,,,,,,
1769164074.410673,1769164074.411689,103.0,0.0,4323.205078,4308.974121,4428.717773,4360.384766,4290.256348,4282.436035,4315.897461,4319.743652,4306.282227,4292.436035,4611.282227,4568.205078,4441.794922,4518.717773,,,,,,,,,,,,,,,,,,,,,,,,,,,,,,,,,,,,,,,,,,,,,,,,,,,,,,,,,,,,,,,,,,,,,,
1769164074.418481,1769164074.419298,104.0,0.0,4327.436035,4310.256348,4426.538574,4358.589844,4290.128418,4278.205078,4313.333496,4315.897461,4305.512695,4293.461426,4610.769043,4567.820313,4441.666504,4522.692383,,,,,,,,,,,,,,,,,,,,,,,,,,,,,,,,,,,,,,,,,,,,,,,,,,,,,,,,,,,,,,,,,,,,,,
1769164074.426289,1769164074.427106,105.0,0.0,4327.692383,4309.615234,4426.538574,4362.436035,4290.512695,4286.153809,4313.589844,4310.897461,4293.717773,4289.102539,4608.717773,4561.025879,4442.563965,4516.666504,,,,,,,,,,,,,,,,,,,,,,,,,,,,,,,,,,,,,,,,,,,,,,,,,,,,,,,,,,,,,,,,,,,,,,
1769164074.434098,1769164074.434815,106.0,0.0,4321.282227,4306.410156,4425.769043,4365.769043,4294.487305,4292.94873,4313.846191,4313.205078,4293.077148,4284.230957,4604.230957,4555.0,4443.333496,4509.871582,,,,,,,,,,,,,,,,,,,,,,,,,,,,,,,,,,,,,,,,,,,,,,,,,,,,,,,,,,,,,,,,,,,,,,
1769164074.441906,1769164074.442623,107.0,0.0,4312.436035,4301.922852,4415.384766,4356.153809,4295.256348,4295.0,4315.384766,4316.410156,4298.589844,4279.358887,4598.205078,4554.102539,4431.794922,4506.538574,,,,,,,,,,,,,,,,,,,,,,,,,,,,,,,,,,,,,,,,,,,,,,,,,,,,,,,,,,,,,,,,,,,,,,
1769164074.449715,1769164074.450631,108.0,0.0,4312.692383,4299.743652,4409.743652,4349.871582,4291.538574,4293.717773,4319.871582,4312.692383,4294.487305,4278.333496,4597.692383,4555.0,4423.589844,4504.358887,,,,,,,,,,,,,,,,,,,,,,,,,,,,,,,,,,,,,,,,,,,,,,,,,,,,,,,,,,,,,,,,,,,,,,
1769164074.457523,1769164074.45844,109.0,0.0,4322.563965,4304.615234,4418.717773,4358.077148,4292.436035,4294.102539,4320.641113,4313.077148,4293.717773,4285.128418,4602.179688,4554.871582,4436.666504,4511.025879,,,,,,,,,,,,,,,,,,,,,,,,,,,,,,,,,,,,,,,,,,,,,,,,,,,,,,,,,,,,,,,,,,,,,,
1769164074.465332,1769164074.466148,110.0,0.0,4328.333496,4309.230957,4427.307617,4363.333496,4295.769043,4291.922852,4315.0,4317.563965,4297.307617,4291.153809,4603.205078,4557.94873,4448.589844,4521.666504,0.775113,0.764223,0.975178,0.507036,0.307642,0.451199,0.670654,0.748865,0.183463,0.18121,0.27051,0.233511,0.437034,0.208301,0.137118,0.207907,0.397583,0.520866,0.109526,0.128359,0.412707,0.64173,0.401209,0.132443,0.082752,0.234457,0.519948,0.366584,0.182054,0.137407,0.103676,0.320494,0.299862,0.119105,0.097648,0.481264,0.258062,0.131538,0.057359,0.073679,0.104891,0.203593,0.126906,0.152125,0.131567,0.500172,0.37179,0.456948,0.262966,0.194474,0.348251,0.387072,0.492414,0.251313,0.10339,0.27684,0.20067,0.349819,0.371741,0.093027,0.532147,0.62452,1.011876,0.225593,0.162217,0.69891,0.787002,0.799136,0.328386,0.146917
1769164074.47314,1769164074.473957,111.0,0.0,4327.307617,4305.769043,4426.282227,4358.333496,4292.94873,4282.692383,4311.153809,4314.615234,4296.153809,4290.384766,4603.589844,4565.641113,4445.512695,4525.897461,,,,,,,,,,,,,,,,,,,,,,,,,,,,,,,,,,,,,,,,,,,,,,,,,,,,,,,,,,,,,,,,,,,,,,
1769164074.480949,1769164074.481565,112.0,0.0,4326.410156,4305.256348,4427.05127,4357.179688,4292.179688,4278.846191,4308.589844,4312.05127,4300.0,4292.05127,4610.769043,4571.538574,4442.94873,4524.102539,,,,,,,,,,,,,,,,,,,,,,,,,,,,,,,,,,,,,,,,,,,,,,,,,,,,,,,,,,,,,,,,,,,,,,
1769164074.488757,1769164074.489374,113.0,0.0,4328.589844,4312.692383,4430.0,4361.410156,4295.0,4280.769043,4305.128418,4319.230957,4307.820313,4297.179688,4614.487305,4572.307617,4446.025879,4522.307617,,,,,,,,,,,,,,,,,,,,,,,,,,,,,,,,,,,,,,,,,,,,,,,,,,,,,,,,,,,,,,,,,,,,,,
1769164074.496565,1769164074.497082,114.0,0.0,4331.538574,4310.641113,4429.230957,4363.205078,4291.025879,4279.615234,4305.897461,4325.256348,4310.769043,4297.563965,4615.256348,4572.179688,4449.102539,4524.358887,,,,,,,,,,,,,,,,,,,,,,,,,,,,,,,,,,,,,,,,,,,,,,,,,,,,,,,,,,,,,,,,,,,,,,
1769164074.504374,1769164074.504891,115.0,0.0,4327.436035,4298.717773,4430.128418,4362.563965,4287.05127,4285.0,4313.589844,4325.897461,4310.512695,4298.461426,4619.358887,4572.94873,4447.563965,4525.128418,,,,,,,,,,,,,,,,,,,,,,,,,,,,,,,,,,,,,,,,,,,,,,,,,,,,,,,,,,,,,,,,,,,,,,
1769164074.512182,1769164074.512499,116.0,0.0,4321.282227,4293.974121,4431.153809,4359.871582,4289.358887,4292.436035,4317.307617,4324.615234,4310.128418,4296.153809,4613.461426,4570.897461,4442.563965,4524.487305,,,,,,,,,,,,,,,,,,,,,,,,,,,,,,,,,,,,,,,,,,,,,,,,,,,,,,,,,,,,,,,,,,,,,,
1769164074.519991,1769164074.520308,117.0,0.0,4325.256348,4298.077148,4429.487305,4358.077148,4287.94873,4288.589844,4311.410156,4317.05127,4307.179688,4290.897461,4602.307617,4570.512695,4441.410156,4522.94873,,,,,,,,,,,,,,,,,,,,,,,,,,,,,,,,,,,,,,,,,,,,,,,,,,,,,,,,,,,,,,,,,,,,,,
1769164074.527799,1769164074.528216,118.0,0.0,4323.974121,4298.077148,4425.256348,4359.358887,4282.820313,4287.179688,4309.871582,4311.794922,4302.05127,4288.974121,4601.794922,4566.153809,4436.922852,4513.461426,,,,,,,,,,,,,,,,,,,,,,,,,,,,,,,,,,,,,,,,,,,,,,,,,,,,,,,,,,,,,,,,,,,,,,
1769164074.535608,1769164074.536025,119.0,0.0,4311.410156,4292.94873,4421.410156,4357.307617,4281.153809,4295.0,4311.025879,4313.589844,4300.256348,4286.025879,4601.794922,4559.358887,4427.563965,4503.717773,,,,,,,,,,,,,,,,,,,,,,,,,,,,,,,,,,,,,,,,,,,,,,,,,,,,,,,,,,,,,,,,,,,,,,
1769164074.543416,1769164074.544033,120.0,0.0,4310.512695,4290.384766,4422.563965,4352.436035,4279.102539,4292.94873,4310.641113,4312.05127,4298.461426,4282.307617,4600.384766,4563.461426,4431.922852,4512.307617,,,,,,,,,,,,,,,,,,,,,,,,,,,,,,,,,,,,,,,,,,,,,,,,,,,,,,,,,,,,,,,,,,,,,,
1769164074.551225,1769164074.551841,121.0,0.0,4321.794922,4292.307617,4426.282227,4356.282227,4279.743652,4284.487305,4315.0,4310.256348,4295.641113,4284.615234,4608.974121,4572.692383,4445.0,4526.666504,,,,,,,,,,,,,,,,,,,,,,,,,,,,,,,,,,,,,,,,,,,,,,,,,,,,,,,,,,,,,,,,,,,,,,
1769164074.559033,1769164074.55975,122.0,0.0,4327.820313,4298.077148,4428.077148,4367.436035,4285.256348,4280.769043,4312.307617,4313.205078,4298.589844,4291.282227,4617.179688,4573.846191,4447.692383,4526.538574,,,,,,,,,,,,,,,,,,,,,,,,,,,,,,,,,,,,,,,,,,,,,,,,,,,,,,,,,,,,,,,,,,,,,,
1769164074.566842,1769164074.567558,123.0,0.0,4327.436035,4303.077148,4427.820313,4370.641113,4286.922852,4278.974121,4298.974121,4313.333496,4303.846191,4294.102539,4615.641113,4571.282227,4443.589844,4519.871582,,,,,,,,,,,,,,,,,,,,,,,,,,,,,,,,,,,,,,,,,,,,,,,,,,,,,,,,,,,,,,,,,,,,,,
1769164074.57465,1769164074.575167,124.0,0.0,4326.666504,4303.974121,4428.717773,4369.358887,4288.589844,4279.230957,4297.05127,4310.384766,4303.717773,4294.102539,4614.102539,4571.282227,4446.410156,4523.846191,,,,,,,,,,,,,,,,,,,,,,,,,,,,,,,,,,,,,,,,,,,,,,,,,,,,,,,,,,,,,,,,,,,,,,
1769164074.582459,1769164074.582975,125.0,0.0,4330.384766,4302.05127,4430.512695,4371.282227,4288.846191,4279.230957,4307.436035,4313.974121,4305.128418,4294.102539,4617.692383,4572.563965,4453.717773,4533.461426,,,,,,,,,,,,,,,,,,,,,,,,,,,,,,,,,,,,,,,,,,,,,,,,,,,,,,,,,,,,,,,,,,,,,,
1769164074.590267,1769164074.590884,126.0,0.0,4335.512695,4298.333496,4430.128418,4370.384766,4285.384766,4280.128418,4310.256348,4318.589844,4310.769043,4295.512695,4620.256348,4574.743652,4451.794922,4532.05127,0.785525,0.770491,0.943769,0.440417,0.324058,0.456307,0.684103,0.744457,0.180111,0.200778,0.1991,0.215399,0.449347,0.165537,0.130911,0.22409,0.376338,0.488106,0.105291,0.145828,0.421958,0.598588,0.347568,0.118608,0.083486,0.251019,0.660075,0.381373,0.195405,0.185617,0.109411,0.365304,0.306812,0.133701,0.122618,0.350743,0.255522,0.104945,0.057095,0.075804,0.144128,0.204746,0.092744,0.130633,0.15161,0.413585,0.382952,0.446477,0.277497,0.201009,0.357381,0.361232,0.461399,0.246653,0.119879,0.268068,0.169411,0.312165,0.341662,0.100827,0.553847,0.573548,1.056435,0.238317,0.177768,0.65812,0.824518,0.823208,0.345592,0.153589
1769164074.598076,1769164074.598692,127.0,0.0,4328.205078,4295.769043,4425.512695,4363.205078,4286.153809,4285.384766,4308.974121,4318.717773,4311.794922,4296.538574,4617.307617,4572.179688,4444.743652,4522.563965,,,,,,,,,,,,,,,,,,,,,,,,,,,,,,,,,,,,,,,,,,,,,,,,,,,,,,,,,,,,,,,,,,,,,,
1769164074.605884,1769164074.6067,0.0,0.0,4316.153809,4295.897461,4421.538574,4356.538574,4287.05127,4285.512695,4312.179688,4320.512695,4307.94873,4294.743652,4615.384766,4568.589844,4445.897461,4522.05127,,,,,,,,,,,,,,,,,,,,,,,,,,,,,,,,,,,,,,,,,,,,,,,,,,,,,,,,,,,,,,,,,,,,,,
1769164074.613692,1769164074.614509,1.0,0.0,4320.769043,4297.563965,4423.205078,4357.307617,4280.769043,4280.128418,4310.0,4322.563965,4310.897461,4296.282227,4618.077148,4570.512695,4447.563965,4526.922852,,,,,,,,,,,,,,,,,,,,,,,,,,,,,,,,,,,,,,,,,,,,,,,,,,,,,,,,,,,,,,,,,,,,,,
1769164074.621501,1769164074.622217,2.0,0.0,4322.563965,4295.641113,4420.641113,4359.230957,4279.871582,4287.05127,4309.615234,4320.256348,4310.384766,4295.0,4615.0,4564.615234,4440.641113,4519.102539,,,,,,,,,,,,,,,,,,,,,,,,,,,,,,,,,,,,,,,,,,,,,,,,,,,,,,,,,,,,,,,,,,,,,,
1769164074.629309,1769164074.630026,3.0,0.0,4310.641113,4293.205078,4412.692383,4356.922852,4284.102539,4298.077148,4317.692383,4317.436035,4301.794922,4291.282227,4610.897461,4559.615234,4441.153809,4510.0,,,,,,,,,,,,,,,,,,,,,,,,,,,,,,,,,,,,,,,,,,,,,,,,,,,,,,,,,,,,,,,,,,,,,,
1769164074.637118,1769164074.637634,4.0,0.0,4312.563965,4295.641113,4412.563965,4359.487305,4280.769043,4289.871582,4315.0,4314.743652,4300.384766,4292.436035,4615.641113,4564.487305,4445.641113,4511.666504,,,,,,,,,,,,,,,,,,,,,,,,,,,,,,,,,,,,,,,,,,,,,,,,,,,,,,,,,,,,,,,,,,,,,,
1769164074.644926,1769164074.645443,5.0,0.0,4327.436035,4302.563965,4421.794922,4367.820313,4281.666504,4274.487305,4300.256348,4310.641113,4306.794922,4296.922852,4616.794922,4562.179688,4442.563965,4511.025879,,,,,,,,,,,,,,,,,,,,,,,,,,,,,,,,,,,,,,,,,,,,,,,,,,,,,,,,,,,,,,,,,,,,,,
1769164074.652735,1769164074.653151,6.0,0.0,4331.282227,4307.563965,4430.0,4372.436035,4291.922852,4276.410156,4298.205078,4309.871582,4307.05127,4295.128418,4611.922852,4553.589844,4442.820313,4507.692383,,,,,,,,,,,,,,,,,,,,,,,,,,,,,,,,,,,,,,,,,,,,,,,,,,,,,,,,,,,,,,,,,,,,,,
1769164074.660543,1769164074.66096,7.0,0.0,4325.384766,4302.692383,4426.538574,4371.282227,4293.717773,4286.922852,4309.487305,4311.282227,4298.974121,4287.307617,4610.256348,4556.025879,4442.692383,4508.717773,,,,,,,,,,,,,,,,,,,,,,,,,,,,,,,,,,,,,,,,,,,,,,,,,,,,,,,,,,,,,,,,,,,,,,
1769164074.668352,1769164074.668968,8.0,0.0,4318.333496,4295.384766,4414.871582,4367.179688,4284.358887,4287.307617,4311.922852,4309.871582,4295.384766,4280.256348,4604.871582,4558.077148,4430.897461,4507.820313,,,,,,,,,,,,,,,,,,,,,,,,,,,,,,,,,,,,,,,,,,,,,,,,,,,,,,,,,,,,,,,,,,,,,,
1769164074.67616,1769164074.676776,9.0,0.0,4313.974121,4293.974121,4414.102539,4362.94873,4279.743652,4284.358887,4308.846191,4311.666504,4301.153809,4279.487305,4598.461426,4553.974121,4424.487305,4508.205078,,,,,,,,,,,,,,,,,,,,,,,,,,,,,,,,,,,,,,,,,,,,,,,,,,,,,,,,,,,,,,,,,,,,,,
1769164074.683968,1769164074.684485,10.0,0.0,4319.871582,4296.794922,4425.512695,4364.871582,4284.871582,4288.589844,4315.512695,4320.128418,4308.333496,4288.974121,4607.820313,4561.153809,4437.436035,4520.0,,,,,,,,,,,,,,,,,,,,,,,,,,,,,,,,,,,,,,,,,,,,,,,,,,,,,,,,,,,,,,,,,,,,,,
1769164074.691777,1769164074.692293,11.0,0.0,4329.102539,4298.077148,4427.436035,4367.05127,4287.820313,4293.333496,4321.410156,4324.871582,4311.282227,4299.102539,4618.205078,4572.563965,4444.487305,4531.538574,,,,,,,,,,,,,,,,,,,,,,,,,,,,,,,,,,,,,,,,,,,,,,,,,,,,,,,,,,,,,,,,,,,,,,
1769164074.699585,1769164074.699902,12.0,0.0,4324.871582,4294.487305,4415.0,4360.256348,4283.077148,4294.102539,4318.717773,4323.205078,4309.358887,4295.128418,4610.0,4568.333496,4433.846191,4525.641113,,,,,,,,,,,,,,,,,,,,,,,,,,,,,,,,,,,,,,,,,,,,,,,,,,,,,,,,,,,,,,,,,,,,,,
1769164074.707394,1769164074.707711,13.0,0.0,4315.769043,4288.461426,4408.974121,4356.538574,4278.974121,4297.563965,4320.769043,4324.487305,4308.205078,4283.717773,4599.230957,4556.282227,4424.230957,4513.077148,,,,,,,,,,,,,,,,,,,,,,,,,,,,,,,,,,,,,,,,,,,,,,,,,,,,,,,,,,,,,,,,,,,,,,
1769164074.715202,1769164074.715419,14.0,0.0,4320.641113,4291.282227,4417.94873,4366.153809,4284.615234,4299.487305,4323.333496,4322.820313,4306.153809,4282.307617,4600.512695,4550.769043,4428.589844,4509.743652,0.76075,0.791341,0.83075,0.389552,0.326587,0.449805,0.726863,0.70295,0.182782,0.2146,0.16777,0.227868,0.418851,0.13881,0.120758,0.251671,0.378257,0.432763,0.101952,0.156804,0.402659,0.550469,0.291777,0.102399,0.082429,0.244817,0.778421,0.363721,0.204894,0.231106,0.115786,0.403201,0.291928,0.142327,0.147138,0.252759,0.263781,0.101302,0.060803,0.076027,0.209159,0.220533,0.069446,0.105988,0.163861,0.354088,0.397908,0.391,0.281132,0.205125,0.368914,0.32603,0.39017,0.243588,0.137209,0.273226,0.185999,0.263126,0.307119,0.111771,0.578678,0.544688,1.002423,0.257107,0.207143,0.628275,0.862344,0.762777,0.357895,0.161042
1769164074.723011,1769164074.723228,15.0,0.0,4335.512695,4303.974121,4427.563965,4376.025879,4293.846191,4287.820313,4310.384766,4313.589844,4304.230957,4291.538574,4609.487305,4560.641113,4442.692383,4521.025879,,,,,,,,,,,,,,,,,,,,,,,,,,,,,,,,,,,,,,,,,,,,,,,,,,,,,,,,,,,,,,,,,,,,,,
1769164074.730819,1769164074.731236,16.0,0.0,4340.769043,4306.153809,4428.717773,4377.436035,4297.307617,4279.743652,4300.512695,4310.384766,4309.230957,4296.922852,4617.179688,4574.615234,4451.025879,4536.794922,,,,,,,,,,,,,,,,,,,,,,,,,,,,,,,,,,,,,,,,,,,,,,,,,,,,,,,,,,,,,,,,,,,,,,
1769164074.738628,1769164074.739044,17.0,0.0,4335.512695,4297.307617,4427.563965,4375.897461,4294.615234,4287.436035,4309.743652,4313.333496,4313.589844,4297.05127,4620.384766,4576.666504,4448.974121,4537.563965,,,,,,,,,,,,,,,,,,,,,,,,,,,,,,,,,,,,,,,,,,,,,,,,,,,,,,,,,,,,,,,,,,,,,,
1769164074.746436,1769164074.746953,18.0,0.0,4332.179688,4295.256348,4426.794922,4372.436035,4292.436035,4295.897461,4314.615234,4310.769043,4305.512695,4293.846191,4614.358887,4568.205078,4443.974121,4526.922852,,,,,,,,,,,,,,,,,,,,,,,,,,,,,,,,,,,,,,,,,,,,,,,,,,,,,,,,,,,,,,,,,,,,,,
1769164074.754244,1769164074.754761,19.0,0.0,4334.230957,4297.307617,4420.897461,4366.410156,4292.436035,4294.487305,4309.871582,4308.333496,4297.94873,4286.153809,4605.0,4562.436035,4442.307617,4522.179688,,,,,,,,,,,,,,,,,,,,,,,,,,,,,,,,,,,,,,,,,,,,,,,,,,,,,,,,,,,,,,,,,,,,,,
1769164074.762053,1769164074.762769,20.0,0.0,4333.461426,4294.102539,4417.820313,4364.358887,4290.769043,4293.205078,4314.743652,4315.128418,4304.743652,4283.589844,4604.871582,4564.743652,4441.666504,4523.846191,,,,,,,,,,,,,,,,,,,,,,,,,,,,,,,,,,,,,,,,,,,,,,,,,,,,,,,,,,,,,,,,,,,,,,
1769164074.769861,1769164074.770578,21.0,0.0,4328.461426,4293.333496,4422.820313,4364.871582,4287.94873,4292.692383,4321.922852,4324.487305,4312.179688,4290.128418,4611.410156,4570.256348,4443.333496,4523.717773,,,,,,,,,,,,,,,,,,,,,,,,,,,,,,,,,,,,,,,,,,,,,,,,,,,,,,,,,,,,,,,,,,,,,,
1769164074.77767,1769164074.778286,22.0,0.0,4329.102539,4295.256348,4423.461426,4364.743652,4286.282227,4292.436035,4319.743652,4326.794922,4312.436035,4291.538574,4614.102539,4572.94873,4445.769043,4525.769043,,,,,,,,,,,,,,,,,,,,,,,,,,,,,,,,,,,,,,,,,,,,,,,,,,,,,,,,,,,,,,,,,,,,,,
1769164074.785478,1769164074.786095,23.0,0.0,4337.94873,4292.307617,4418.205078,4365.128418,4286.282227,4294.102539,4320.128418,4322.05127,4311.153809,4287.94873,4614.487305,4571.922852,4445.897461,4534.743652,,,,,,,,,,,,,,,,,,,,,,,,,,,,,,,,,,,,,,,,,,,,,,,,,,,,,,,,,,,,,,,,,,,,,,
1769164074.793287,1769164074.794103,24.0,0.0,4341.922852,4295.769043,4419.102539,4366.794922,4285.384766,4286.794922,4320.512695,4318.974121,4309.230957,4286.282227,4617.94873,4571.794922,4446.153809,4539.871582,,,,,,,,,,,,,,,,,,,,,,,,,,,,,,,,,,,,,,,,,,,,,,,,,,,,,,,,,,,,,,,,,,,,,,
1769164074.801095,1769164074.801911,25.0,0.0,4339.102539,4302.179688,4421.282227,4366.282227,4284.102539,4281.410156,4314.615234,4320.641113,4309.102539,4283.589844,4615.256348,4571.922852,4444.615234,4535.0,,,,,,,,,,,,,,,,,,,,,,,,,,,,,,,,,,,,,,,,,,,,,,,,,,,,,,,,,,,,,,,,,,,,,,
1769164074.808904,1769164074.80962,26.0,0.0,4338.461426,4299.358887,4416.794922,4365.769043,4285.512695,4290.256348,4316.794922,4318.974121,4309.230957,4279.743652,4610.256348,4569.102539,4441.794922,4526.025879,,,,,,,,,,,,,,,,,,,,,,,,,,,,,,,,,,,,,,,,,,,,,,,,,,,,,,,,,,,,,,,,,,,,,,
1769164074.816712,1769164074.817428,27.0,0.0,4337.05127,4294.487305,4412.05127,4366.282227,4288.846191,4296.538574,4320.256348,4315.0,4305.128418,4279.230957,4609.230957,4568.589844,4443.205078,4523.974121,,,,,,,,,,,,,,,,,,,,,,,,,,,,,,,,,,,,,,,,,,,,,,,,,,,,,,,,,,,,,,,,,,,,,,
1769164074.824521,1769164074.825037,28.0,0.0,4330.256348,4294.871582,4411.410156,4365.0,4293.077148,4292.94873,4313.205078,4317.436035,4305.384766,4280.897461,4606.922852,4568.974121,4441.922852,4525.0,,,,,,,,,,,,,,,,,,,,,,,,,,,,,,,,,,,,,,,,,,,,,,,,,,,,,,,,,,,,,,,,,,,,,,
1769164074.832329,1769164074.832845,29.0,0.0,4328.589844,4294.743652,4410.0,4363.077148,4296.538574,4294.358887,4311.666504,4322.94873,4313.846191,4287.05127,4609.615234,4566.025879,4442.05127,4524.102539,,,,,,,,,,,,,,,,,,,,,,,,,,,,,,,,,,,,,,,,,,,,,,,,,,,,,,,,,,,,,,,,,,,,,,
1769164074.840138,1769164074.840554,30.0,0.0,4337.307617,4297.563965,4410.897461,4367.179688,4295.256348,4298.974121,4319.102539,4324.487305,4319.102539,4299.487305,4621.153809,4567.692383,4454.743652,4530.512695,0.700789,0.826287,0.662716,0.362834,0.313806,0.435265,0.793519,0.628213,0.186695,0.217331,0.163762,0.276519,0.350555,0.129584,0.10952,0.281128,0.397959,0.363012,0.098264,0.158316,0.361471,0.505681,0.240405,0.086301,0.080104,0.219356,0.868214,0.31887,0.210601,0.262903,0.116602,0.432501,0.261404,0.147034,0.165363,0.198912,0.283342,0.117554,0.068981,0.075159,0.287711,0.2448,0.061487,0.085712,0.164921,0.323122,0.426209,0.312592,0.275435,0.205348,0.386807,0.296726,0.30934,0.248301,0.151638,0.296001,0.233933,0.215819,0.274595,0.119753,0.587714,0.557182,0.880092,0.282369,0.248391,0.5991,0.880637,0.641267,0.368457,0.167175
1769164074.847946,1769164074.848362,31.0,0.0,4344.615234,4304.102539,4418.333496,4371.794922,4290.0,4293.589844,4319.871582,4323.205078,4320.512695,4304.358887,4630.256348,4580.897461,4467.436035,4542.307617,,,,,,,,,,,,,,,,,,,,,,,,,,,,,,,,,,,,,,,,,,,,,,,,,,,,,,,,,,,,,,,,,,,,,,
1769164074.855755,1769164074.856371,32.0,0.0,4345.0,4304.871582,4420.256348,4371.025879,4288.717773,4288.461426,4317.05127,4321.666504,4320.769043,4298.846191,4630.897461,4584.743652,4465.769043,4544.358887,,,,,,,,,,,,,,,,,,,,,,,,,,,,,,,,,,,,,,,,,,,,,,,,,,,,,,,,,,,,,,,,,,,,,,
1769164074.863563,1769164074.864179,33.0,0.0,4344.487305,4303.846191,4413.333496,4368.974121,4292.179688,4291.538574,4316.666504,4320.897461,4316.153809,4293.461426,4628.589844,4574.615234,4460.641113,4540.641113,,,,,,,,,,,,,,,,,,,,,,,,,,,,,,,,,,,,,,,,,,,,,,,,,,,,,,,,,,,,,,,,,,,,,,
1769164074.871371,1769164074.872088,34.0,0.0,4342.307617,4304.487305,4410.256348,4367.05127,4293.461426,4294.230957,4314.358887,4322.436035,4312.563965,4289.615234,4622.179688,4569.487305,4458.717773,4540.512695,,,,,,,,,,,,,,,,,,,,,,,,,,,,,,,,,,,,,,,,,,,,,,,,,,,,,,,,,,,,,,,,,,,,,,
1769164074.87918,1769164074.879896,35.0,0.0,4339.615234,4303.077148,4411.666504,4367.436035,4293.333496,4292.94873,4314.743652,4323.205078,4312.94873,4288.205078,4616.282227,4572.05127,4455.256348,4538.589844,,,,,,,,,,,,,,,,,,,,,,,,,,,,,,,,,,,,,,,,,,,,,,,,,,,,,,,,,,,,,,,,,,,,,,
1769164074.886988,1769164074.887505,36.0,0.0,4341.153809,4304.102539,4411.153809,4370.256348,4295.512695,4294.615234,4319.487305,4324.102539,4313.974121,4291.794922,4621.666504,4576.282227,4454.743652,4535.0,,,,,,,,,,,,,,,,,,,,,,,,,,,,,,,,,,,,,,,,,,,,,,,,,,,,,,,,,,,,,,,,,,,,,,
1769164074.894797,1769164074.895313,37.0,0.0,4342.820313,4308.717773,4410.897461,4370.512695,4296.410156,4296.410156,4319.871582,4324.102539,4313.333496,4292.307617,4628.974121,4581.025879,4460.128418,4538.205078,,,,,,,,,,,,,,,,,,,,,,,,,,,,,,,,,,,,,,,,,,,,,,,,,,,,,,,,,,,,,,,,,,,,,,
1769164074.902605,1769164074.903022,38.0,0.0,4341.410156,4304.230957,4411.666504,4363.846191,4294.230957,4293.205078,4317.820313,4320.897461,4310.641113,4285.641113,4626.666504,4577.563965,4458.717773,4538.205078,,,,,,,,,,,,,,,,,,,,,,,,,,,,,,,,,,,,,,,,,,,,,,,,,,,,,,,,,,,,,,,,,,,,,,
1769164074.910414,1769164074.91083,39.0,0.0,4341.025879,4295.897461,4410.641113,4358.589844,4294.230957,4293.205078,4320.384766,4320.128418,4310.256348,4284.615234,4618.333496,4568.589844,4448.077148,4528.077148,,,,,,,,,,,,,,,,,,,,,,,,,,,,,,,,,,,,,,,,,,,,,,,,,,,,,,,,,,,,,,,,,,,,,,
1769164074.918222,1769164074.918838,40.0,0.0,4345.769043,4301.922852,4410.128418,4361.666504,4296.922852,4295.769043,4318.333496,4322.94873,4312.94873,4288.589844,4617.307617,4572.307617,4447.05127,4524.615234,,,,,,,,,,,,,,,,,,,,,,,,,,,,,,,,,,,,,,,,,,,,,,,,,,,,,,,,,,,,,,,,,,,,,,
1769164074.926031,1769164074.926647,41.0,0.0,4349.358887,4311.538574,4412.820313,4364.743652,4297.05127,4292.563965,4309.615234,4322.307617,4312.94873,4291.153809,4627.05127,4585.512695,4459.487305,4536.410156,,,,,,,,,,,,,,,,,,,,,,,,,,,,,,,,,,,,,,,,,,,,,,,,,,,,,,,,,,,,,,,,,,,,,,
1769164074.933839,1769164074.934555,42.0,0.0,4345.897461,4307.820313,4411.794922,4361.282227,4293.974121,4290.769043,4311.794922,4317.94873,4310.384766,4289.230957,4634.487305,4586.666504,4465.512695,4543.077148,,,,,,,,,,,,,,,,,,,,,,,,,,,,,,,,,,,,,,,,,,,,,,,,,,,,,,,,,,,,,,,,,,,,,,
1769164074.941647,1769164074.942364,43.0,0.0,4342.436035,4303.077148,4404.230957,4356.666504,4293.077148,4293.846191,4320.512695,4318.589844,4312.179688,4282.436035,4627.692383,4575.769043,4456.922852,4533.974121,,,,,,,,,,,,,,,,,,,,,,,,,,,,,,,,,,,,,,,,,,,,,,,,,,,,,,,,,,,,,,,,,,,,,,
1769164074.949456,1769164074.950372,44.0,0.0,4342.94873,4303.205078,4395.384766,4358.846191,4293.589844,4292.563965,4320.384766,4321.410156,4314.358887,4284.871582,4618.205078,4567.820313,4448.974121,4524.358887,,,,,,,,,,,,,,,,,,,,,,,,,,,,,,,,,,,,,,,,,,,,,,,,,,,,,,,,,,,,,,,,,,,,,,
1769164074.957264,1769164074.95818,45.0,0.0,4339.102539,4296.922852,4390.128418,4358.717773,4292.692383,4295.384766,4317.563965,4315.897461,4311.410156,4287.94873,4621.025879,4569.358887,4447.563965,4521.666504,,,,,,,,,,,,,,,,,,,,,,,,,,,,,,,,,,,,,,,,,,,,,,,,,,,,,,,,,,,,,,,,,,,,,,
1769164074.965073,1769164074.966089,46.0,0.0,4335.512695,4294.615234,4387.820313,4355.0,4292.179688,4302.307617,4318.717773,4313.846191,4310.0,4282.563965,4626.153809,4574.102539,4449.487305,4528.077148,0.612541,0.872134,0.491871,0.357274,0.28958,0.401875,0.870702,0.540468,0.187364,0.207772,0.159837,0.359857,0.267056,0.134179,0.101009,0.277802,0.429063,0.302117,0.093333,0.15056,0.307758,0.46848,0.198671,0.071915,0.077539,0.187176,0.932618,0.266217,0.21306,0.274695,0.109912,0.459502,0.228063,0.15171,0.175003,0.182008,0.328606,0.145138,0.080493,0.07418,0.367334,0.287947,0.071328,0.075841,0.155605,0.301058,0.482703,0.23493,0.265534,0.19975,0.415958,0.295871,0.247033,0.261681,0.160531,0.353195,0.307741,0.178605,0.249054,0.122098,0.573586,0.617271,0.731718,0.311476,0.294142,0.57466,0.894832,0.49938,0.38317,0.17366
1769164074.972881,1769164074.973897,47.0,0.0,4341.538574,4304.102539,4388.589844,4359.743652,4292.820313,4298.333496,4319.358887,4318.461426,4312.179688,4283.717773,4622.94873,4576.025879,4450.384766,4534.102539,,,,,,,,,,,,,,,,,,,,,,,,,,,,,,,,,,,,,,,,,,,,,,,,,,,,,,,,,,,,,,,,,,,,,,
1769164074.98069,1769164074.981506,48.0,0.0,4344.871582,4308.846191,4388.974121,4365.897461,4293.461426,4292.179688,4321.666504,4315.641113,4311.153809,4287.692383,4617.563965,4572.820313,4446.538574,4526.666504,,,,,,,,,,,,,,,,,,,,,,,,,,,,,,,,,,,,,,,,,,,,,,,,,,,,,,,,,,,,,,,,,,,,,,
1769164074.988498,1769164074.989314,49.0,0.0,4341.922852,4307.692383,4382.94873,4364.230957,4294.102539,4295.641113,4320.769043,4309.871582,4307.436035,4281.922852,4616.666504,4568.077148,4443.974121,4518.717773,,,,,,,,,,,,,,,,,,,,,,,,,,,,,,,,,,,,,,,,,,,,,,,,,,,,,,,,,,,,,,,,,,,,,,
1769164074.996307,1769164074.997023,50.0,0.0,4346.282227,4309.871582,4379.487305,4362.436035,4294.871582,4297.307617,4315.0,4312.05127,4306.538574,4279.487305,4618.461426,4569.615234,4446.282227,4522.692383,,,,,,,,,,,,,,,,,,,,,,,,,,,,,,,,,,,,,,,,,,,,,,,,,,,,,,,,,,,,,,,,,,,,,,
1769164075.004115,1769164075.004831,51.0,0.0,4350.256348,4311.666504,4382.820313,4365.256348,4295.641113,4295.0,4312.307617,4312.692383,4305.769043,4282.692383,4618.333496,4573.077148,4447.820313,4527.436035,,,,,,,,,,,,,,,,,,,,,,,,,,,,,,,,,,,,,,,,,,,,,,,,,,,,,,,,,,,,,,,,,,,,,,
1769164075.011923,1769164075.01244,52.0,0.0,4344.487305,4310.384766,4379.358887,4362.692383,4295.0,4296.153809,4311.410156,4308.077148,4302.820313,4279.487305,4616.153809,4569.487305,4444.615234,4521.538574,,,,,,,,,,,,,,,,,,,,,,,,,,,,,,,,,,,,,,,,,,,,,,,,,,,,,,,,,,,,,,,,,,,,,,
1769164075.019732,1769164075.020248,53.0,0.0,4341.153809,4312.307617,4372.563965,4357.307617,4293.589844,4295.0,4311.922852,4308.333496,4302.563965,4280.0,4612.179688,4565.384766,4441.922852,4519.102539,,,,,,,,,,,,,,,,,,,,,,,,,,,,,,,,,,,,,,,,,,,,,,,,,,,,,,,,,,,,,,,,,,,,,,
1769164075.02754,1769164075.027957,54.0,0.0,4340.769043,4310.384766,4370.641113,4358.077148,4293.333496,4294.102539,4319.358887,4309.230957,4306.922852,4283.461426,4611.538574,4566.153809,4442.179688,4520.384766,,,,,,,,,,,,,,,,,,,,,,,,,,,,,,,,,,,,,,,,,,,,,,,,,,,,,,,,,,,,,,,,,,,,,,
1769164075.035349,1769164075.035765,55.0,0.0,4334.487305,4303.461426,4368.461426,4356.666504,4290.256348,4296.410156,4323.461426,4309.230957,4310.256348,4282.307617,4614.615234,4568.077148,4441.153809,4514.871582,,,,,,,,,,,,,,,,,,,,,,,,,,,,,,,,,,,,,,,,,,,,,,,,,,,,,,,,,,,,,,,,,,,,,,
1769164075.043157,1769164075.043374,56.0,0.0,4334.358887,4304.102539,4365.512695,4352.692383,4285.256348,4293.333496,4314.615234,4308.846191,4307.436035,4283.205078,4614.743652,4568.333496,4441.410156,4511.922852,,,,,,,,,,,,,,,,,,,,,,,,,,,,,,,,,,,,,,,,,,,,,,,,,,,,,,,,,,,,,,,,,,,,,,
1769164075.050966,1769164075.051182,57.0,0.0,4340.769043,4306.794922,4361.922852,4351.666504,4288.077148,4291.666504,4308.974121,4306.153809,4302.05127,4285.897461,4612.05127,4567.563965,4443.589844,4516.025879,,,,,,,,,,,,,,,,,,,,,,,,,,,,,,,,,,,,,,,,,,,,,,,,,,,,,,,,,,,,,,,,,,,,,,
1769164075.058774,1769164075.059091,58.0,0.0,4339.871582,4303.461426,4358.205078,4353.333496,4292.692383,4295.897461,4316.153809,4306.794922,4303.717773,4285.897461,4613.974121,4568.461426,4444.615234,4520.0,,,,,,,,,,,,,,,,,,,,,,,,,,,,,,,,,,,,,,,,,,,,,,,,,,,,,,,,,,,,,,,,,,,,,,
1769164075.066583,1769164075.066899,59.0,0.0,4339.102539,4304.743652,4361.153809,4355.512695,4291.282227,4296.025879,4318.589844,4310.897461,4310.512695,4287.436035,4618.846191,4572.179688,4445.128418,4521.153809,,,,,,,,,,,,,,,,,,,,,,,,,,,,,,,,,,,,,,,,,,,,,,,,,,,,,,,,,,,,,,,,,,,,,,
1769164075.074391,1769164075.074907,60.0,0.0,4344.358887,4310.512695,4368.205078,4358.589844,4288.333496,4293.846191,4315.0,4311.282227,4311.025879,4290.897461,4617.563965,4573.974121,4444.230957,4523.333496,,,,,,,,,,,,,,,,,,,,,,,,,,,,,,,,,,,,,,,,,,,,,,,,,,,,,,,,,,,,,,,,,,,,,,
1769164075.082199,1769164075.082716,61.0,0.0,4345.0,4309.615234,4369.358887,4361.410156,4288.461426,4294.743652,4317.820313,4309.743652,4304.871582,4287.692383,4613.589844,4569.487305,4443.077148,4523.205078,,,,,,,,,,,,,,,,,,,,,,,,,,,,,,,,,,,,,,,,,,,,,,,,,,,,,,,,,,,,,,,,,,,,,,
1769164075.090008,1769164075.090424,62.0,0.0,4341.538574,4308.717773,4367.94873,4360.384766,4292.820313,4293.717773,4319.230957,4309.230957,4300.128418,4280.897461,4614.871582,4568.974121,4446.538574,4520.769043,0.526725,0.915112,0.366349,0.361721,0.261583,0.369911,0.933845,0.460834,0.183652,0.189043,0.165216,0.460546,0.193408,0.148705,0.098524,0.263631,0.465507,0.276988,0.088011,0.136771,0.255014,0.439987,0.171877,0.060751,0.075915,0.166449,0.972919,0.232683,0.21285,0.267253,0.097581,0.494367,0.208963,0.158818,0.177721,0.182727,0.411743,0.178785,0.092534,0.07382,0.425264,0.360022,0.095877,0.07924,0.140392,0.289185,0.574274,0.175215,0.260208,0.18759,0.452058,0.336289,0.217242,0.28484,0.162997,0.43995,0.40356,0.152515,0.235605,0.119139,0.538243,0.715948,0.592391,0.343341,0.333821,0.558533,0.924621,0.37104,0.410322,0.182429
1769164075.097817,1769164075.098233,63.0,0.0,4341.666504,4311.153809,4365.0,4357.436035,4293.589844,4294.358887,4313.461426,4304.358887,4297.94873,4279.230957,4612.05127,4570.384766,4442.692383,4517.307617,,,,,,,,,,,,,,,,,,,,,,,,,,,,,,,,,,,,,,,,,,,,,,,,,,,,,,,,,,,,,,,,,,,,,,
1769164075.105625,1769164075.105841,64.0,0.0,4343.205078,4308.846191,4359.102539,4357.436035,4289.487305,4293.974121,4310.128418,4296.153809,4294.358887,4278.589844,4605.512695,4564.487305,4433.077148,4510.512695,,,,,,,,,,,,,,,,,,,,,,,,,,,,,,,,,,,,,,,,,,,,,,,,,,,,,,,,,,,,,,,,,,,,,,
1769164075.113433,1769164075.11365,65.0,0.0,4342.307617,4306.153809,4357.563965,4357.307617,4288.333496,4282.05127,4308.717773,4292.94873,4292.563965,4276.666504,4607.307617,4561.538574,4436.538574,4508.717773,,,,,,,,,,,,,,,,,,,,,,,,,,,,,,,,,,,,,,,,,,,,,,,,,,,,,,,,,,,,,,,,,,,,,,
1769164075.121242,1769164075.121558,66.0,0.0,4340.512695,4308.333496,4357.820313,4354.743652,4287.563965,4275.641113,4307.692383,4296.025879,4301.538574,4283.205078,4614.743652,4568.077148,4444.615234,4512.692383,,,,,,,,,,,,,,,,,,,,,,,,,,,,,,,,,,,,,,,,,,,,,,,,,,,,,,,,,,,,,,,,,,,,,,
1769164075.12905,1769164075.129367,67.0,0.0,4342.307617,4311.922852,4356.153809,4355.769043,4284.358887,4283.717773,4308.974121,4297.820313,4310.0,4290.256348,4617.94873,4572.820313,4444.615234,4518.589844,,,,,,,,,,,,,,,,,,,,,,,,,,,,,,,,,,,,,,,,,,,,,,,,,,,,,,,,,,,,,,,,,,,,,,
1769164075.136859,1769164075.137375,68.0,0.0,4343.717773,4308.717773,4357.94873,4357.692383,4287.179688,4288.717773,4309.358887,4295.641113,4303.717773,4284.743652,4615.897461,4570.641113,4444.102539,4521.922852,,,,,,,,,,,,,,,,,,,,,,,,,,,,,,,,,,,,,,,,,,,,,,,,,,,,,,,,,,,,,,,,,,,,,,
1769164075.144667,1769164075.145183,69.0,0.0,4339.230957,4300.128418,4357.94873,4353.333496,4291.410156,4289.743652,4310.128418,4294.358887,4299.358887,4278.333496,4612.307617,4568.333496,4443.974121,4517.820313,,,,,,,,,,,,,,,,,,,,,,,,,,,,,,,,,,,,,,,,,,,,,,,,,,,,,,,,,,,,,,,,,,,,,,
1769164075.152476,1769164075.153092,70.0,0.0,4336.153809,4298.846191,4352.692383,4349.230957,4286.794922,4292.94873,4312.179688,4295.128418,4307.563965,4282.436035,4612.05127,4566.538574,4441.410156,4515.384766,,,,,,,,,,,,,,,,,,,,,,,,,,,,,,,,,,,,,,,,,,,,,,,,,,,,,,,,,,,,,,,,,,,,,,
1769164075.160284,1769164075.1609,71.0,0.0,4341.153809,4306.153809,4352.692383,4350.384766,4285.897461,4294.487305,4312.692383,4296.538574,4312.307617,4289.743652,4616.794922,4567.179688,4444.871582,4520.641113,,,,,,,,,,,,,,,,,,,,,,,,,,,,,,,,,,,,,,,,,,,,,,,,,,,,,,,,,,,,,,,,,,,,,,
1769164075.168093,1769164075.168908,72.0,0.0,4346.538574,4310.769043,4358.846191,4354.743652,4291.922852,4293.333496,4311.666504,4297.05127,4310.769043,4294.487305,4620.512695,4571.794922,4450.384766,4525.769043,,,,,,,,,,,,,,,,,,,,,,,,,,,,,,,,,,,,,,,,,,,,,,,,,,,,,,,,,,,,,,,,,,,,,,
1769164075.175901,1769164075.176717,73.0,0.0,4341.922852,4308.333496,4357.307617,4358.846191,4293.717773,4292.05127,4310.769043,4296.025879,4307.436035,4291.153809,4618.974121,4571.922852,4446.794922,4522.307617,,,,,,,,,,,,,,,,,,,,,,,,,,,,,,,,,,,,,,,,,,,,,,,,,,,,,,,,,,,,,,,,,,,,,,
1769164075.18371,1769164075.184425,74.0,0.0,4336.794922,4307.820313,4353.846191,4358.717773,4293.974121,4292.05127,4311.153809,4294.487305,4299.487305,4280.0,4615.641113,4568.333496,4442.179688,4521.282227,,,,,,,,,,,,,,,,,,,,,,,,,,,,,,,,,,,,,,,,,,,,,,,,,,,,,,,,,,,,,,,,,,,,,,
1769164075.191518,1769164075.192234,75.0,0.0,4341.538574,4311.282227,4356.666504,4357.820313,4295.128418,4287.563965,4308.077148,4293.461426,4294.230957,4281.410156,4615.769043,4569.102539,4443.717773,4528.717773,,,,,,,,,,,,,,,,,,,,,,,,,,,,,,,,,,,,,,,,,,,,,,,,,,,,,,,,,,,,,,,,,,,,,,
1769164075.199326,1769164075.199843,76.0,0.0,4344.743652,4312.179688,4358.205078,4358.717773,4292.94873,4279.102539,4305.128418,4292.563965,4300.0,4292.692383,4618.205078,4571.922852,4446.538574,4530.256348,,,,,,,,,,,,,,,,,,,,,,,,,,,,,,,,,,,,,,,,,,,,,,,,,,,,,,,,,,,,,,,,,,,,,,
1769164075.207135,1769164075.207651,77.0,0.0,4338.077148,4308.589844,4355.769043,4359.487305,4288.205078,4277.820313,4309.615234,4293.333496,4307.563965,4289.871582,4616.282227,4570.256348,4446.282227,4524.358887,,,,,,,,,,,,,,,,,,,,,,,,,,,,,,,,,,,,,,,,,,,,,,,,,,,,,,,,,,,,,,,,,,,,,,
1769164075.214943,1769164075.215559,78.0,0.0,4328.589844,4304.358887,4351.282227,4357.820313,4286.282227,4285.641113,4312.692383,4295.128418,4311.153809,4280.769043,4615.128418,4563.974121,4445.384766,4522.307617,0.443238,0.93813,0.313961,0.361688,0.237258,0.334932,0.957237,0.400407,0.176492,0.166868,0.176888,0.553639,0.15151,0.168164,0.103104,0.227657,0.501806,0.301521,0.083778,0.121538,0.215631,0.419899,0.161872,0.054348,0.075751,0.1638,0.982947,0.238874,0.210266,0.246923,0.085154,0.542666,0.216854,0.168179,0.177038,0.182965,0.526884,0.21666,0.101438,0.074108,0.450287,0.455888,0.12737,0.094028,0.124781,0.287285,0.690996,0.144121,0.266425,0.17089,0.48408,0.4124,0.223353,0.318785,0.160887,0.541385,0.50632,0.138384,0.239887,0.115336,0.504879,0.829936,0.489926,0.377097,0.357744,0.565082,0.973901,0.282365,0.453793,0.193863
1769164075.222752,1769164075.223368,79.0,0.0,4325.512695,4305.384766,4348.077148,4354.871582,4287.563965,4291.538574,4308.846191,4293.974121,4310.256348,4281.282227,4615.384766,4555.641113,4445.128418,4523.333496,,,,,,,,,,,,,,,,,,,,,,,,,,,,,,,,,,,,,,,,,,,,,,,,,,,,,,,,,,,,,,,,,,,,,,
1769164075.23056,1769164075.230976,80.0,0.0,4328.333496,4306.538574,4351.538574,4353.205078,4288.589844,4293.846191,4309.615234,4292.436035,4305.256348,4286.025879,4610.256348,4554.615234,4442.436035,4518.846191,,,,,,,,,,,,,,,,,,,,,,,,,,,,,,,,,,,,,,,,,,,,,,,,,,,,,,,,,,,,,,,,,,,,,,
1769164075.238369,1769164075.238785,81.0,0.0,4335.512695,4308.461426,4358.333496,4356.153809,4287.307617,4294.102539,4312.820313,4293.205078,4307.05127,4290.128418,4608.205078,4565.384766,4443.077148,4519.102539,,,,,,,,,,,,,,,,,,,,,,,,,,,,,,,,,,,,,,,,,,,,,,,,,,,,,,,,,,,,,,,,,,,,,,
1769164075.246177,1769164075.246493,82.0,0.0,4338.974121,4309.871582,4357.94873,4359.487305,4286.025879,4291.282227,4310.128418,4292.05127,4309.871582,4288.077148,4613.589844,4573.589844,4446.153809,4526.153809,,,,,,,,,,,,,,,,,,,,,,,,,,,,,,,,,,,,,,,,,,,,,,,,,,,,,,,,,,,,,,,,,,,,,,
1769164075.253986,1769164075.254302,83.0,0.0,4335.512695,4306.282227,4352.563965,4358.461426,4290.128418,4295.384766,4309.871582,4292.820313,4302.05127,4281.794922,4612.94873,4564.743652,4444.487305,4525.256348,,,,,,,,,,,,,,,,,,,,,,,,,,,,,,,,,,,,,,,,,,,,,,,,,,,,,,,,,,,,,,,,,,,,,,
1769164075.261794,1769164075.26231,84.0,0.0,4336.794922,4304.871582,4352.436035,4356.922852,4294.615234,4298.205078,4312.563965,4294.230957,4295.128418,4284.230957,4608.461426,4554.743652,4442.307617,4523.333496,,,,,,,,,,,,,,,,,,,,,,,,,,,,,,,,,,,,,,,,,,,,,,,,,,,,,,,,,,,,,,,,,,,,,,
1769164075.269602,1769164075.270119,85.0,0.0,4341.282227,4309.615234,4357.307617,4358.461426,4294.102539,4294.615234,4310.641113,4287.179688,4295.512695,4288.461426,4608.205078,4561.666504,4443.974121,4523.846191,,,,,,,,,,,,,,,,,,,,,,,,,,,,,,,,,,,,,,,,,,,,,,,,,,,,,,,,,,,,,,,,,,,,,,
1769164075.277411,1769164075.278027,86.0,0.0,4340.128418,4311.922852,4357.94873,4361.025879,4291.538574,4291.922852,4305.641113,4282.820313,4298.077148,4286.922852,4611.025879,4573.589844,4446.794922,4526.410156,,,,,,,,,,,,,,,,,,,,,,,,,,,,,,,,,,,,,,,,,,,,,,,,,,,,,,,,,,,,,,,,,,,,,,
1769164075.285219,1769164075.285835,87.0,0.0,4336.025879,4306.538574,4352.436035,4360.897461,4287.179688,4287.692383,4303.717773,4287.94873,4302.563965,4285.512695,4613.077148,4567.94873,4447.692383,4530.769043,,,,,,,,,,,,,,,,,,,,,,,,,,,,,,,,,,,,,,,,,,,,,,,,,,,,,,,,,,,,,,,,,,,,,,
1769164075.293028,1769164075.293444,88.0,0.0,4333.077148,4302.436035,4348.974121,4357.563965,4281.282227,4284.871582,4308.461426,4289.102539,4305.128418,4283.589844,4611.794922,4555.897461,4447.563965,4532.692383,,,,,,,,,,,,,,,,,,,,,,,,,,,,,,,,,,,,,,,,,,,,,,,,,,,,,,,,,,,,,,,,,,,,,,
1769164075.300836,1769164075.301252,89.0,0.0,4329.487305,4301.282227,4349.615234,4355.769043,4279.487305,4287.692383,4311.410156,4287.692383,4302.692383,4279.743652,4611.025879,4560.512695,4443.846191,4533.077148,,,,,,,,,,,,,,,,,,,,,,,,,,,,,,,,,,,,,,,,,,,,,,,,,,,,,,,,,,,,,,,,,,,,,,
1769164075.308645,1769164075.308961,90.0,0.0,4332.692383,4303.717773,4352.820313,4359.743652,4284.358887,4286.538574,4307.436035,4290.897461,4304.871582,4283.077148,4614.871582,4571.410156,4446.282227,4537.820313,,,,,,,,,,,,,,,,,,,,,,,,,,,,,,,,,,,,,,,,,,,,,,,,,,,,,,,,,,,,,,,,,,,,,,
1769164075.316453,1769164075.316769,91.0,0.0,4340.384766,4310.384766,4357.820313,4366.666504,4288.461426,4280.641113,4305.769043,4293.589844,4312.692383,4292.692383,4621.794922,4574.615234,4458.205078,4542.179688,,,,,,,,,,,,,,,,,,,,,,,,,,,,,,,,,,,,,,,,,,,,,,,,,,,,,,,,,,,,,,,,,,,,,,
1769164075.324262,1769164075.324778,92.0,0.0,4334.871582,4309.230957,4352.692383,4367.05127,4288.461426,4285.0,4310.384766,4291.922852,4310.641113,4292.436035,4616.410156,4567.307617,4456.922852,4539.230957,,,,,,,,,,,,,,,,,,,,,,,,,,,,,,,,,,,,,,,,,,,,,,,,,,,,,,,,,,,,,,,,,,,,,,
1769164075.33207,1769164075.332586,93.0,0.0,4325.641113,4304.358887,4342.05127,4360.512695,4285.128418,4288.333496,4311.025879,4289.871582,4301.666504,4285.128418,4604.615234,4559.743652,4444.487305,4537.05127,,,,,,,,,,,,,,,,,,,,,,,,,,,,,,,,,,,,,,,,,,,,,,,,,,,,,,,,,,,,,,,,,,,,,,
1769164075.339878,1769164075.340494,94.0,0.0,4325.128418,4300.512695,4343.461426,4357.307617,4281.025879,4282.436035,4308.461426,4289.871582,4297.05127,4282.820313,4606.922852,4563.717773,4442.179688,4537.820313,0.375856,0.924054,0.337205,0.347676,0.220685,0.306991,0.924625,0.365133,0.168542,0.147171,0.208675,0.614648,0.15145,0.186522,0.113192,0.213243,0.532781,0.36723,0.081931,0.108564,0.194224,0.405444,0.165421,0.053162,0.076309,0.174354,0.948877,0.288933,0.204906,0.222272,0.076115,0.595892,0.252802,0.17735,0.17575,0.175432,0.647359,0.256598,0.104354,0.074277,0.433348,0.553242,0.155319,0.115457,0.113016,0.302651,0.802023,0.141435,0.283869,0.153841,0.49529,0.496095,0.255576,0.360255,0.157577,0.625617,0.586343,0.136582,0.263589,0.117021,0.485558,0.923293,0.430532,0.407919,0.360444,0.591284,1.027048,0.244747,0.507099,0.206442
1769164075.347687,1769164075.348303,95.0,0.0,4326.922852,4297.307617,4348.846191,4357.436035,4278.974121,4284.487305,4310.897461,4290.384766,4296.538574,4284.487305,4615.128418,4568.717773,4447.692383,4536.922852,,,,,,,,,,,,,,,,,,,,,,,,,,,,,,,,,,,,,,,,,,,,,,,,,,,,,,,,,,,,,,,,,,,,,,
1769164075.355495,1769164075.356311,96.0,0.0,4327.307617,4300.256348,4344.871582,4356.410156,4280.641113,4288.717773,4309.230957,4286.410156,4296.025879,4281.794922,4613.974121,4565.769043,4449.487305,4538.846191,,,,,,,,,,,,,,,,,,,,,,,,,,,,,,,,,,,,,,,,,,,,,,,,,,,,,,,,,,,,,,,,,,,,,,
1769164075.363304,1769164075.36412,97.0,0.0,4327.179688,4307.692383,4341.922852,4361.282227,4285.0,4288.717773,4304.743652,4284.358887,4295.128418,4279.230957,4609.487305,4563.846191,4447.563965,4540.897461,,,,,,,,,,,,,,,,,,,,,,,,,,,,,,,,,,,,,,,,,,,,,,,,,,,,,,,,,,,,,,,,,,,,,,
1769164075.371112,1769164075.371828,98.0,0.0,4327.307617,4304.358887,4342.692383,4364.871582,4284.871582,4290.128418,4307.692383,4291.538574,4296.153809,4281.282227,4610.384766,4566.538574,4443.205078,4539.230957,,,,,,,,,,,,,,,,,,,,,,,,,,,,,,,,,,,,,,,,,,,,,,,,,,,,,,,,,,,,,,,,,,,,,,
1769164075.378921,1769164075.379637,99.0,0.0,4326.282227,4296.794922,4341.666504,4359.102539,4281.538574,4288.077148,4313.077148,4296.410156,4300.897461,4287.307617,4611.153809,4566.922852,4446.922852,4538.333496,,,,,,,,,,,,,,,,,,,,,,,,,,,,,,,,,,,,,,,,,,,,,,,,,,,,,,,,,,,,,,,,,,,,,,
1769164075.386729,1769164075.387245,100.0,0.0,4326.153809,4300.128418,4343.589844,4357.820313,4281.282227,4284.230957,4310.641113,4295.897461,4307.692383,4291.666504,4614.358887,4567.692383,4455.128418,4541.538574,,,,,,,,,,,,,,,,,,,,,,,,,,,,,,,,,,,,,,,,,,,,,,,,,,,,,,,,,,,,,,,,,,,,,,
1769164075.394538,1769164075.395054,101.0,0.0,4328.846191,4304.743652,4346.922852,4365.128418,4283.589844,4290.384766,4309.743652,4296.794922,4306.025879,4286.025879,4615.0,4565.897461,4449.358887,4538.589844,,,,,,,,,,,,,,,,,,,,,,,,,,,,,,,,,,,,,,,,,,,,,,,,,,,,,,,,,,,,,,,,,,,,,,
1769164075.402346,1769164075.402762,102.0,0.0,4325.128418,4296.153809,4341.025879,4359.871582,4282.307617,4296.538574,4314.615234,4296.410156,4297.179688,4276.153809,4605.256348,4556.282227,4440.641113,4527.05127,,,,,,,,,,,,,,,,,,,,,,,,,,,,,,,,,,,,,,,,,,,,,,,,,,,,,,,,,,,,,,,,,,,,,,
1769164075.410155,1769164075.410571,103.0,0.0,4314.615234,4282.307617,4332.94873,4346.538574,4279.102539,4294.230957,4313.846191,4293.846191,4298.589844,4277.05127,4597.94873,4550.641113,4441.153809,4519.102539,,,,,,,,,,,,,,,,,,,,,,,,,,,,,,,,,,,,,,,,,,,,,,,,,,,,,,,,,,,,,,,,,,,,,,
1769164075.417963,1769164075.418179,104.0,0.0,4315.384766,4283.974121,4335.384766,4348.205078,4278.974121,4292.05127,4310.256348,4297.05127,4307.94873,4288.589844,4602.179688,4559.230957,4443.077148,4524.102539,,,,,,,,,,,,,,,,,,,,,,,,,,,,,,,,,,,,,,,,,,,,,,,,,,,,,,,,,,,,,,,,,,,,,,
1769164075.425772,1769164075.425988,105.0,0.0,4326.282227,4297.307617,4343.717773,4358.589844,4280.128418,4289.615234,4310.384766,4303.333496,4312.563965,4298.461426,4612.820313,4565.897461,4450.256348,4534.743652,,,,,,,,,,,,,,,,,,,,,,,,,,,,,,,,,,,,,,,,,,,,,,,,,,,,,,,,,,,,,,,,,,,,,,
1769164075.43358,1769164075.433696,106.0,0.0,4330.128418,4299.615234,4341.538574,4358.974121,4281.153809,4280.256348,4311.153809,4302.179688,4310.769043,4298.589844,4618.333496,4558.974121,4461.666504,4538.333496,,,,,,,,,,,,,,,,,,,,,,,,,,,,,,,,,,,,,,,,,,,,,,,,,,,,,,,,,,,,,,,,,,,,,,
1769164075.441388,1769164075.441505,107.0,0.0,4322.436035,4294.230957,4330.0,4351.153809,4279.615234,4276.538574,4309.230957,4295.512695,4303.846191,4295.0,4618.333496,4554.615234,4458.333496,4538.077148,,,,,,,,,,,,,,,,,,,,,,,,,,,,,,,,,,,,,,,,,,,,,,,,,,,,,,,,,,,,,,,,,,,,,,
1769164075.449197,1769164075.449513,108.0,0.0,4312.307617,4295.0,4325.256348,4347.563965,4277.820313,4285.897461,4310.769043,4294.358887,4298.077148,4292.436035,4613.461426,4556.922852,4446.666504,4537.179688,,,,,,,,,,,,,,,,,,,,,,,,,,,,,,,,,,,,,,,,,,,,,,,,,,,,,,,,,,,,,,,,,,,,,,
1769164075.457005,1769164075.457321,109.0,0.0,4309.871582,4296.538574,4331.025879,4349.487305,4277.94873,4288.077148,4311.538574,4294.743652,4296.153809,4290.0,4605.641113,4554.102539,4444.230957,4530.384766,,,,,,,,,,,,,,,,,,,,,,,,,,,,,,,,,,,,,,,,,,,,,,,,,,,,,,,,,,,,,,,,,,,,,,
1769164075.464814,1769164075.46523,110.0,0.0,4316.282227,4293.846191,4335.128418,4351.666504,4278.077148,4279.615234,4307.563965,4293.077148,4296.538574,4286.794922,4604.102539,4550.384766,4443.846191,4523.333496,0.323696,0.859648,0.410229,0.316672,0.210673,0.278735,0.833591,0.350321,0.160953,0.133349,0.257906,0.625784,0.188887,0.198191,0.124717,0.201264,0.551331,0.445099,0.082251,0.098935,0.190943,0.393771,0.17527,0.056001,0.075698,0.188275,0.863497,0.367248,0.195992,0.19935,0.071499,0.632567,0.301369,0.182355,0.174042,0.160777,0.734586,0.291432,0.100978,0.073169,0.379771,0.6253,0.174222,0.139039,0.106452,0.324308,0.867821,0.159434,0.30609,0.140767,0.473699,0.55016,0.29563,0.400348,0.155814,0.663742,0.61253,0.144247,0.299492,0.129164,0.48881,0.957932,0.401401,0.427248,0.341885,0.629252,1.048636,0.254196,0.554528,0.21701
1769164075.472622,1769164075.473038,111.0,0.0,4321.794922,4295.512695,4334.102539,4355.128418,4278.333496,4280.512695,4308.974121,4295.512695,4298.461426,4286.666504,4611.410156,4553.974121,4446.282227,4524.102539,,,,,,,,,,,,,,,,,,,,,,,,,,,,,,,,,,,,,,,,,,,,,,,,,,,,,,,,,,,,,,,,,,,,,,
1769164075.480431,1769164075.481046,112.0,0.0,4323.205078,4298.333496,4337.563965,4358.974121,4280.0,4286.410156,4311.282227,4297.692383,4304.871582,4289.358887,4616.538574,4555.256348,4454.487305,4525.769043,,,,,,,,,,,,,,,,,,,,,,,,,,,,,,,,,,,,,,,,,,,,,,,,,,,,,,,,,,,,,,,,,,,,,,
1769164075.488239,1769164075.488855,113.0,0.0,4324.615234,4298.717773,4342.05127,4358.717773,4281.538574,4281.025879,4308.461426,4296.794922,4306.153809,4293.205078,4614.615234,4555.641113,4461.666504,4525.128418,,,,,,,,,,,,,,,,,,,,,,,,,,,,,,,,,,,,,,,,,,,,,,,,,,,,,,,,,,,,,,,,,,,,,,
1769164075.496048,1769164075.496563,114.0,0.0,4322.436035,4298.589844,4338.333496,4352.307617,4280.256348,4276.666504,4309.743652,4298.077148,4298.589844,4288.717773,4612.820313,4556.282227,4461.922852,4526.025879,,,,,,,,,,,,,,,,,,,,,,,,,,,,,,,,,,,,,,,,,,,,,,,,,,,,,,,,,,,,,,,,,,,,,,
1769164075.503856,1769164075.504372,115.0,0.0,4317.820313,4294.743652,4333.461426,4346.538574,4277.563965,4281.153809,4309.743652,4298.205078,4298.333496,4280.641113,4609.230957,4555.128418,4453.974121,4524.358887,,,,,,,,,,,,,,,,,,,,,,,,,,,,,,,,,,,,,,,,,,,,,,,,,,,,,,,,,,,,,,,,,,,,,,
1769164075.511665,1769164075.511981,116.0,0.0,4315.0,4292.94873,4335.384766,4343.205078,4277.692383,4280.769043,4303.974121,4294.871582,4303.589844,4282.436035,4604.487305,4557.436035,4445.897461,4517.820313,,,,,,,,,,,,,,,,,,,,,,,,,,,,,,,,,,,,,,,,,,,,,,,,,,,,,,,,,,,,,,,,,,,,,,
1769164075.519473,1769164075.519789,117.0,0.0,4312.307617,4295.256348,4336.922852,4342.05127,4277.179688,4278.205078,4304.743652,4294.615234,4300.641113,4285.384766,4603.717773,4552.820313,4444.102539,4511.666504,,,,,,,,,,,,,,,,,,,,,,,,,,,,,,,,,,,,,,,,,,,,,,,,,,,,,,,,,,,,,,,,,,,,,,
1769164075.527281,1769164075.527697,118.0,0.0,4310.897461,4289.615234,4331.794922,4341.794922,4274.102539,4277.820313,4303.974121,4294.871582,4294.230957,4281.153809,4599.871582,4540.0,4444.230957,4509.487305,,,,,,,,,,,,,,,,,,,,,,,,,,,,,,,,,,,,,,,,,,,,,,,,,,,,,,,,,,,,,,,,,,,,,,
1769164075.53509,1769164075.535506,119.0,0.0,4310.897461,4279.487305,4327.820313,4339.358887,4272.307617,4277.692383,4297.820313,4290.769043,4291.794922,4278.205078,4590.384766,4535.256348,4436.922852,4507.307617,,,,,,,,,,,,,,,,,,,,,,,,,,,,,,,,,,,,,,,,,,,,,,,,,,,,,,,,,,,,,,,,,,,,,,
1769164075.542898,1769164075.543514,120.0,0.0,4310.512695,4279.358887,4327.563965,4336.538574,4275.128418,4278.461426,4301.666504,4290.0,4290.769043,4278.461426,4587.94873,4538.205078,4429.230957,4500.769043,,,,,,,,,,,,,,,,,,,,,,,,,,,,,,,,,,,,,,,,,,,,,,,,,,,,,,,,,,,,,,,,,,,,,,
1769164075.550707,1769164075.551323,121.0,0.0,4308.974121,4282.179688,4327.179688,4337.692383,4276.666504,4280.512695,4307.692383,4294.230957,4292.94873,4277.94873,4597.436035,4539.358887,4430.769043,4500.128418,,,,,,,,,,,,,,,,,,,,,,,,,,,,,,,,,,,,,,,,,,,,,,,,,,,,,,,,,,,,,,,,,,,,,,
1769164075.558515,1769164075.559231,122.0,0.0,4309.230957,4280.769043,4330.512695,4338.461426,4271.666504,4280.897461,4304.615234,4295.512695,4295.512695,4281.025879,4600.384766,4541.153809,4433.461426,4508.205078,,,,,,,,,,,,,,,,,,,,,,,,,,,,,,,,,,,,,,,,,,,,,,,,,,,,,,,,,,,,,,,,,,,,,,
1769164075.566324,1769164075.567039,123.0,0.0,4308.974121,4280.512695,4336.666504,4337.05127,4266.153809,4276.794922,4300.512695,4292.179688,4286.025879,4279.230957,4590.897461,4542.436035,4431.153809,4505.512695,,,,,,,,,,,,,,,,,,,,,,,,,,,,,,,,,,,,,,,,,,,,,,,,,,,,,,,,,,,,,,,,,,,,,,
1769164075.574132,1769164075.575048,124.0,0.0,4302.179688,4277.692383,4336.538574,4333.333496,4265.641113,4274.358887,4300.256348,4291.025879,4276.922852,4268.077148,4584.743652,4537.05127,4425.512695,4493.333496,,,,,,,,,,,,,,,,,,,,,,,,,,,,,,,,,,,,,,,,,,,,,,,,,,,,,,,,,,,,,,,,,,,,,,
1769164075.581941,1769164075.582856,125.0,0.0,4296.025879,4274.487305,4334.615234,4330.0,4268.846191,4276.282227,4300.769043,4293.461426,4281.538574,4268.717773,4585.641113,4535.128418,4425.512695,4490.128418,,,,,,,,,,,,,,,,,,,,,,,,,,,,,,,,,,,,,,,,,,,,,,,,,,,,,,,,,,,,,,,,,,,,,,
1769164075.589749,1769164075.590565,126.0,0.0,4294.102539,4278.461426,4332.179688,4330.897461,4267.307617,4278.333496,4305.0,4293.974121,4283.205078,4275.897461,4584.743652,4538.077148,4427.820313,4494.358887,0.287147,0.748766,0.494869,0.271766,0.202254,0.2502,0.700547,0.344192,0.154104,0.125833,0.325504,0.58507,0.242799,0.198621,0.132786,0.201328,0.553285,0.497565,0.083263,0.091476,0.194462,0.384135,0.184727,0.06185,0.072131,0.193251,0.739719,0.445532,0.181998,0.17963,0.069323,0.629714,0.338889,0.179837,0.169466,0.144178,0.755234,0.312462,0.093317,0.069816,0.30076,0.657238,0.189923,0.160681,0.103612,0.337663,0.860368,0.184823,0.322467,0.13396,0.432527,0.550333,0.326401,0.425073,0.155844,0.643526,0.570524,0.158631,0.331844,0.152313,0.502828,0.912191,0.381679,0.42524,0.307351,0.656173,1.006147,0.292897,0.576515,0.221571
1769164075.597557,1769164075.598373,127.0,0.0,4295.641113,4277.94873,4327.94873,4333.717773,4263.205078,4276.153809,4304.487305,4293.333496,4277.692383,4272.94873,4587.563965,4538.461426,4429.230957,4499.230957,,,,,,,,,,,,,,,,,,,,,,,,,,,,,,,,,,,,,,,,,,,,,,,,,,,,,,,,,,,,,,,,,,,,,,
1769164075.605366,1769164075.605982,0.0,0.0,4304.358887,4277.820313,4333.461426,4337.179688,4268.205078,4272.820313,4298.589844,4294.487305,4282.94873,4271.794922,4594.615234,4539.487305,4431.922852,4505.384766,,,,,,,,,,,,,,,,,,,,,,,,,,,,,,,,,,,,,,,,,,,,,,,,,,,,,,,,,,,,,,,,,,,,,,
1769164075.613174,1769164075.61379,1.0,0.0,4313.974121,4290.769043,4344.487305,4342.436035,4280.256348,4274.615234,4296.794922,4295.256348,4291.922852,4279.871582,4596.666504,4541.153809,4431.538574,4508.974121,,,,,,,,,,,,,,,,,,,,,,,,,,,,,,,,,,,,,,,,,,,,,,,,,,,,,,,,,,,,,,,,,,,,,,
1769164075.620983,1769164075.621499,2.0,0.0,4312.94873,4297.05127,4343.589844,4343.461426,4280.641113,4278.205078,4301.025879,4294.358887,4286.538574,4282.05127,4599.102539,4541.794922,4433.846191,4510.384766,,,,,,,,,,,,,,,,,,,,,,,,,,,,,,,,,,,,,,,,,,,,,,,,,,,,,,,,,,,,,,,,,,,,,,
1769164075.628791,1769164075.629307,3.0,0.0,4305.384766,4287.179688,4337.563965,4338.077148,4268.205078,4280.0,4305.384766,4295.384766,4277.94873,4274.615234,4602.563965,4538.717773,4435.769043,4510.512695,,,,,,,,,,,,,,,,,,,,,,,,,,,,,,,,,,,,,,,,,,,,,,,,,,,,,,,,,,,,,,,,,,,,,,
1769164075.6366,1769164075.636916,4.0,0.0,4304.743652,4286.666504,4339.871582,4337.436035,4268.333496,4282.94873,4302.436035,4295.128418,4282.563965,4272.563965,4596.025879,4535.128418,4428.205078,4503.717773,,,,,,,,,,,,,,,,,,,,,,,,,,,,,,,,,,,,,,,,,,,,,,,,,,,,,,,,,,,,,,,,,,,,,,
1769164075.644408,1769164075.644724,5.0,0.0,4309.358887,4297.05127,4342.94873,4342.05127,4280.256348,4277.563965,4295.256348,4293.974121,4291.538574,4276.410156,4593.589844,4536.538574,4426.922852,4502.307617,,,,,,,,,,,,,,,,,,,,,,,,,,,,,,,,,,,,,,,,,,,,,,,,,,,,,,,,,,,,,,,,,,,,,,
1769164075.652217,1769164075.652633,6.0,0.0,4312.692383,4296.922852,4343.333496,4343.077148,4281.282227,4265.769043,4295.512695,4298.846191,4296.922852,4281.922852,4603.974121,4542.563965,4437.179688,4510.641113,,,,,,,,,,,,,,,,,,,,,,,,,,,,,,,,,,,,,,,,,,,,,,,,,,,,,,,,,,,,,,,,,,,,,,
1769164075.660025,1769164075.660441,7.0,0.0,4309.230957,4289.358887,4342.563965,4342.436035,4268.717773,4268.077148,4301.153809,4302.692383,4294.487305,4277.05127,4601.922852,4542.436035,4433.846191,4502.820313,,,,,,,,,,,,,,,,,,,,,,,,,,,,,,,,,,,,,,,,,,,,,,,,,,,,,,,,,,,,,,,,,,,,,,
1769164075.667834,1769164075.668449,8.0,0.0,4304.230957,4289.358887,4340.384766,4341.538574,4263.077148,4277.436035,4300.0,4298.589844,4286.025879,4267.05127,4591.794922,4537.436035,4425.256348,4492.94873,,,,,,,,,,,,,,,,,,,,,,,,,,,,,,,,,,,,,,,,,,,,,,,,,,,,,,,,,,,,,,,,,,,,,,
1769164075.675642,1769164075.676258,9.0,0.0,4308.205078,4294.358887,4341.922852,4342.820313,4270.512695,4275.641113,4294.615234,4296.025879,4285.384766,4272.307617,4597.820313,4545.769043,4438.846191,4505.256348,,,,,,,,,,,,,,,,,,,,,,,,,,,,,,,,,,,,,,,,,,,,,,,,,,,,,,,,,,,,,,,,,,,,,,
1769164075.683451,1769164075.684166,10.0,0.0,4311.282227,4296.153809,4342.820313,4345.897461,4276.153809,4274.358887,4296.282227,4296.922852,4290.769043,4281.410156,4605.128418,4553.589844,4445.641113,4515.512695,,,,,,,,,,,,,,,,,,,,,,,,,,,,,,,,,,,,,,,,,,,,,,,,,,,,,,,,,,,,,,,,,,,,,,
1769164075.691259,1769164075.691974,11.0,0.0,4310.897461,4294.743652,4343.333496,4347.94873,4274.871582,4277.05127,4299.615234,4298.461426,4288.333496,4280.384766,4602.307617,4545.384766,4435.641113,4509.358887,,,,,,,,,,,,,,,,,,,,,,,,,,,,,,,,,,,,,,,,,,,,,,,,,,,,,,,,,,,,,,,,,,,,,,
1769164075.699067,1769164075.699583,12.0,0.0,4318.717773,4295.384766,4350.384766,4350.384766,4275.0,4275.128418,4296.794922,4301.153809,4281.410156,4278.846191,4601.025879,4537.307617,4437.05127,4505.384766,,,,,,,,,,,,,,,,,,,,,,,,,,,,,,,,,,,,,,,,,,,,,,,,,,,,,,,,,,,,,,,,,,,,,,
1769164075.706876,1769164075.707392,13.0,0.0,4328.205078,4295.641113,4356.666504,4354.102539,4278.974121,4274.871582,4294.487305,4300.641113,4281.025879,4283.974121,4601.538574,4540.0,4443.077148,4510.384766,,,,,,,,,,,,,,,,,,,,,,,,,,,,,,,,,,,,,,,,,,,,,,,,,,,,,,,,,,,,,,,,,,,,,,
1769164075.714684,1769164075.7151,14.0,0.0,4324.230957,4294.358887,4355.897461,4351.666504,4277.563965,4278.333496,4297.436035,4295.897461,4281.410156,4285.128418,4600.256348,4544.743652,4441.666504,4520.0,0.260122,0.613922,0.554381,0.224313,0.19117,0.225311,0.558299,0.334656,0.148639,0.123515,0.386171,0.507027,0.291181,0.187554,0.134847,0.206182,0.539174,0.498536,0.085093,0.085191,0.194849,0.372997,0.188046,0.07042,0.065146,0.19176,0.606959,0.497853,0.163883,0.161674,0.067431,0.57556,0.345,0.168739,0.159217,0.135325,0.699575,0.313198,0.084824,0.064001,0.214435,0.655439,0.210926,0.178478,0.102308,0.331255,0.779989,0.203646,0.325762,0.133844,0.377952,0.497098,0.337302,0.424551,0.156344,0.56438,0.472114,0.177358,0.343709,0.182669,0.498192,0.793145,0.35833,0.400327,0.265981,0.649423,0.887523,0.340595,0.56169,0.217409
1769164075.722493,1769164075.722909,15.0,0.0,4321.025879,4292.692383,4355.641113,4344.615234,4270.641113,4276.153809,4296.153809,4294.743652,4280.128418,4281.538574,4603.589844,4544.743652,4439.358887,4523.077148,,,,,,,,,,,,,,,,,,,,,,,,,,,,,,,,,,,,,,,,,,,,,,,,,,,,,,,,,,,,,,,,,,,,,,
1769164075.730301,1769164075.730917,16.0,0.0,4319.743652,4286.153809,4352.307617,4340.128418,4265.384766,4273.974121,4294.230957,4294.615234,4280.256348,4280.384766,4600.384766,4542.563965,4434.743652,4512.179688,,,,,,,,,,,,,,,,,,,,,,,,,,,,,,,,,,,,,,,,,,,,,,,,,,,,,,,,,,,,,,,,,,,,,,
1769164075.73811,1769164075.738725,17.0,0.0,4312.179688,4282.307617,4346.282227,4339.230957,4264.487305,4275.897461,4300.256348,4295.897461,4279.230957,4278.333496,4590.256348,4536.666504,4426.922852,4502.563965,,,,,,,,,,,,,,,,,,,,,,,,,,,,,,,,,,,,,,,,,,,,,,,,,,,,,,,,,,,,,,,,,,,,,,
1769164075.745918,1769164075.746634,18.0,0.0,4314.615234,4289.358887,4349.871582,4341.282227,4268.205078,4277.563965,4301.922852,4299.615234,4282.94873,4278.333496,4590.128418,4535.769043,4427.179688,4505.512695,,,,,,,,,,,,,,,,,,,,,,,,,,,,,,,,,,,,,,,,,,,,,,,,,,,,,,,,,,,,,,,,,,,,,,
1769164075.753727,1769164075.754442,19.0,0.0,4321.153809,4293.077148,4355.0,4343.205078,4274.615234,4274.487305,4294.358887,4301.666504,4291.410156,4278.461426,4597.179688,4545.512695,4433.717773,4515.897461,,,,,,,,,,,,,,,,,,,,,,,,,,,,,,,,,,,,,,,,,,,,,,,,,,,,,,,,,,,,,,,,,,,,,,
1769164075.761535,1769164075.76245,20.0,0.0,4314.487305,4290.0,4353.589844,4341.538574,4277.307617,4271.153809,4293.077148,4302.820313,4295.641113,4278.461426,4600.384766,4551.153809,4435.0,4521.410156,,,,,,,,,,,,,,,,,,,,,,,,,,,,,,,,,,,,,,,,,,,,,,,,,,,,,,,,,,,,,,,,,,,,,,
1769164075.769344,1769164075.770259,21.0,0.0,4310.641113,4293.205078,4357.436035,4341.794922,4276.153809,4274.358887,4297.179688,4303.846191,4294.358887,4281.410156,4600.384766,4545.769043,4431.282227,4513.717773,,,,,,,,,,,,,,,,,,,,,,,,,,,,,,,,,,,,,,,,,,,,,,,,,,,,,,,,,,,,,,,,,,,,,,
1769164075.777152,1769164075.777967,22.0,0.0,4313.846191,4298.589844,4361.410156,4344.871582,4277.179688,4279.102539,4296.410156,4306.794922,4293.077148,4282.05127,4600.512695,4541.794922,4429.615234,4508.205078,,,,,,,,,,,,,,,,,,,,,,,,,,,,,,,,,,,,,,,,,,,,,,,,,,,,,,,,,,,,,,,,,,,,,,
1769164075.78496,1769164075.785776,23.0,0.0,4311.538574,4296.025879,4357.692383,4342.820313,4278.077148,4278.717773,4295.256348,4311.666504,4294.487305,4279.487305,4600.769043,4547.436035,4433.205078,4518.717773,,,,,,,,,,,,,,,,,,,,,,,,,,,,,,,,,,,,,,,,,,,,,,,,,,,,,,,,,,,,,,,,,,,,,,
1769164075.792769,1769164075.793784,24.0,0.0,4312.94873,4295.128418,4359.487305,4342.94873,4277.179688,4278.077148,4298.333496,4310.897461,4295.384766,4278.974121,4600.256348,4551.794922,4434.743652,4525.897461,,,,,,,,,,,,,,,,,,,,,,,,,,,,,,,,,,,,,,,,,,,,,,,,,,,,,,,,,,,,,,,,,,,,,,
1769164075.800577,1769164075.801592,25.0,0.0,4326.025879,4299.871582,4367.692383,4349.615234,4278.846191,4279.358887,4298.077148,4303.589844,4289.230957,4281.666504,4599.358887,4552.307617,4432.563965,4519.358887,,,,,,,,,,,,,,,,,,,,,,,,,,,,,,,,,,,,,,,,,,,,,,,,,,,,,,,,,,,,,,,,,,,,,,
1769164075.808386,1769164075.809301,26.0,0.0,4327.436035,4297.179688,4367.692383,4349.743652,4278.974121,4278.077148,4295.128418,4300.897461,4283.333496,4282.436035,4598.717773,4549.487305,4433.205078,4514.615234,,,,,,,,,,,,,,,,,,,,,,,,,,,,,,,,,,,,,,,,,,,,,,,,,,,,,,,,,,,,,,,,,,,,,,
1769164075.816194,1769164075.817109,27.0,0.0,4313.974121,4287.692383,4358.717773,4341.666504,4275.256348,4278.205078,4296.538574,4305.512695,4287.307617,4280.384766,4596.794922,4540.897461,4431.025879,4509.743652,,,,,,,,,,,,,,,,,,,,,,,,,,,,,,,,,,,,,,,,,,,,,,,,,,,,,,,,,,,,,,,,,,,,,,
1769164075.824003,1769164075.824718,28.0,0.0,4308.974121,4287.692383,4353.333496,4338.461426,4275.384766,4278.589844,4297.563965,4308.077148,4292.436035,4281.538574,4594.743652,4536.794922,4429.230957,4504.615234,,,,,,,,,,,,,,,,,,,,,,,,,,,,,,,,,,,,,,,,,,,,,,,,,,,,,,,,,,,,,,,,,,,,,,
1769164075.831811,1769164075.832526,29.0,0.0,4312.436035,4288.717773,4357.436035,4335.641113,4276.794922,4274.102539,4295.256348,4309.743652,4292.94873,4283.846191,4598.333496,4543.846191,4437.179688,4506.666504,,,,,,,,,,,,,,,,,,,,,,,,,,,,,,,,,,,,,,,,,,,,,,,,,,,,,,,,,,,,,,,,,,,,,,
1769164075.83962,1769164075.840235,30.0,0.0,4310.256348,4279.230957,4359.358887,4330.897461,4275.256348,4274.487305,4297.94873,4311.538574,4292.692383,4280.641113,4601.922852,4550.897461,4442.179688,4509.358887,0.243205,0.483725,0.567378,0.189352,0.176192,0.224648,0.437367,0.315315,0.146365,0.124879,0.417565,0.415452,0.316855,0.169679,0.131708,0.209873,0.50823,0.441681,0.090418,0.080334,0.185887,0.352916,0.179705,0.081712,0.05662,0.197167,0.497382,0.512776,0.145274,0.143725,0.066502,0.477154,0.314866,0.150554,0.142617,0.135927,0.584951,0.291485,0.079349,0.056646,0.144649,0.640607,0.240612,0.195145,0.102162,0.311105,0.650418,0.206797,0.316729,0.138991,0.335989,0.406031,0.327264,0.400647,0.155304,0.450451,0.349955,0.197522,0.328559,0.213445,0.469481,0.631637,0.332901,0.362005,0.226597,0.615919,0.715461,0.382971,0.514545,0.203859
1769164075.847428,1769164075.848043,31.0,0.0,4307.179688,4278.077148,4356.410156,4333.717773,4276.922852,4276.282227,4300.384766,4312.05127,4293.205078,4281.282227,4601.410156,4552.179688,4438.461426,4510.0,,,,,,,,,,,,,,,,,,,,,,,,,,,,,,,,,,,,,,,,,,,,,,,,,,,,,,,,,,,,,,,,,,,,,,
1769164075.855236,1769164075.856052,32.0,0.0,4306.153809,4284.615234,4355.384766,4333.846191,4280.256348,4280.256348,4303.333496,4314.358887,4293.974121,4286.538574,4601.410156,4552.05127,4433.846191,4507.94873,,,,,,,,,,,,,,,,,,,,,,,,,,,,,,,,,,,,,,,,,,,,,,,,,,,,,,,,,,,,,,,,,,,,,,
1769164075.863045,1769164075.86386,33.0,0.0,4300.769043,4278.589844,4355.512695,4326.025879,4278.077148,4291.025879,4311.153809,4319.230957,4295.512695,4284.358887,4599.871582,4552.820313,4432.307617,4505.256348,,,,,,,,,,,,,,,,,,,,,,,,,,,,,,,,,,,,,,,,,,,,,,,,,,,,,,,,,,,,,,,,,,,,,,
1769164075.870853,1769164075.871769,34.0,0.0,4303.846191,4278.589844,4359.871582,4331.153809,4276.666504,4289.871582,4307.563965,4321.282227,4298.589844,4285.641113,4601.025879,4555.897461,4437.436035,4511.410156,,,,,,,,,,,,,,,,,,,,,,,,,,,,,,,,,,,,,,,,,,,,,,,,,,,,,,,,,,,,,,,,,,,,,,
1769164075.878662,1769164075.879577,35.0,0.0,4320.384766,4295.128418,4368.461426,4344.487305,4280.128418,4276.153809,4294.230957,4319.743652,4303.846191,4296.025879,4610.256348,4557.436035,4446.922852,4523.461426,,,,,,,,,,,,,,,,,,,,,,,,,,,,,,,,,,,,,,,,,,,,,,,,,,,,,,,,,,,,,,,,,,,,,,
1769164075.88647,1769164075.887585,36.0,0.0,4317.179688,4295.512695,4366.282227,4340.384766,4280.641113,4275.512695,4294.230957,4324.871582,4308.846191,4298.333496,4617.05127,4556.410156,4447.94873,4528.077148,,,,,,,,,,,,,,,,,,,,,,,,,,,,,,,,,,,,,,,,,,,,,,,,,,,,,,,,,,,,,,,,,,,,,,
1769164075.894279,1769164075.895394,37.0,0.0,4296.666504,4280.384766,4355.128418,4326.282227,4278.333496,4281.666504,4299.230957,4327.179688,4307.94873,4294.358887,4611.794922,4554.615234,4441.922852,4522.307617,,,,,,,,,,,,,,,,,,,,,,,,,,,,,,,,,,,,,,,,,,,,,,,,,,,,,,,,,,,,,,,,,,,,,,
1769164075.902087,1769164075.903102,38.0,0.0,4296.922852,4278.333496,4354.615234,4323.589844,4279.230957,4278.717773,4295.0,4317.692383,4300.384766,4294.487305,4602.692383,4549.743652,4442.307617,4511.666504,,,,,,,,,,,,,,,,,,,,,,,,,,,,,,,,,,,,,,,,,,,,,,,,,,,,,,,,,,,,,,,,,,,,,,
1769164075.909896,1769164075.910911,39.0,0.0,4312.436035,4288.077148,4360.769043,4330.0,4280.256348,4278.333496,4293.333496,4313.717773,4295.256348,4292.436035,4600.0,4545.512695,4442.94873,4506.794922,,,,,,,,,,,,,,,,,,,,,,,,,,,,,,,,,,,,,,,,,,,,,,,,,,,,,,,,,,,,,,,,,,,,,,
1769164075.917704,1769164075.918919,40.0,0.0,4313.846191,4291.922852,4361.153809,4336.538574,4277.94873,4281.538574,4296.410156,4319.743652,4296.282227,4286.153809,4602.820313,4547.05127,4442.692383,4514.230957,,,,,,,,,,,,,,,,,,,,,,,,,,,,,,,,,,,,,,,,,,,,,,,,,,,,,,,,,,,,,,,,,,,,,,
1769164075.925512,1769164075.926727,41.0,0.0,4304.487305,4287.05127,4361.666504,4334.102539,4277.05127,4282.05127,4300.256348,4322.94873,4296.666504,4282.94873,4603.077148,4550.769043,4442.692383,4518.461426,,,,,,,,,,,,,,,,,,,,,,,,,,,,,,,,,,,,,,,,,,,,,,,,,,,,,,,,,,,,,,,,,,,,,,
1769164075.933321,1769164075.934436,42.0,0.0,4303.077148,4280.769043,4366.025879,4327.436035,4277.94873,4283.846191,4304.358887,4319.743652,4294.871582,4281.282227,4599.871582,4552.820313,4437.563965,4510.128418,,,,,,,,,,,,,,,,,,,,,,,,,,,,,,,,,,,,,,,,,,,,,,,,,,,,,,,,,,,,,,,,,,,,,,
1769164075.941129,1769164075.942244,43.0,0.0,4305.128418,4280.384766,4369.230957,4328.589844,4277.692383,4283.846191,4304.615234,4320.0,4295.897461,4279.358887,4598.717773,4553.974121,4434.743652,4505.512695,,,,,,,,,,,,,,,,,,,,,,,,,,,,,,,,,,,,,,,,,,,,,,,,,,,,,,,,,,,,,,,,,,,,,,
1769164075.948938,1769164075.949853,44.0,0.0,4311.794922,4288.077148,4373.205078,4338.205078,4277.307617,4281.538574,4300.897461,4324.871582,4296.666504,4279.358887,4601.538574,4555.128418,4440.384766,4512.436035,,,,,,,,,,,,,,,,,,,,,,,,,,,,,,,,,,,,,,,,,,,,,,,,,,,,,,,,,,,,,,,,,,,,,,
1769164075.956746,1769164075.957661,45.0,0.0,4322.563965,4296.666504,4379.743652,4343.205078,4277.820313,4280.512695,4298.205078,4325.769043,4295.897461,4282.179688,4602.563965,4558.846191,4445.512695,4520.769043,,,,,,,,,,,,,,,,,,,,,,,,,,,,,,,,,,,,,,,,,,,,,,,,,,,,,,,,,,,,,,,,,,,,,,
1769164075.964555,1769164075.96537,46.0,0.0,4320.769043,4295.769043,4381.794922,4340.128418,4277.94873,4282.820313,4300.128418,4321.794922,4295.256348,4279.743652,4601.282227,4565.384766,4442.563965,4521.153809,0.242713,0.384434,0.535903,0.179548,0.159582,0.27605,0.35002,0.288596,0.147967,0.128963,0.407375,0.332125,0.315834,0.152289,0.126469,0.215553,0.458975,0.348704,0.10226,0.077798,0.168519,0.319094,0.163652,0.094727,0.050647,0.212983,0.428838,0.49071,0.130553,0.126463,0.065179,0.358185,0.257334,0.128758,0.122566,0.148481,0.448672,0.251627,0.078808,0.049259,0.117886,0.637527,0.273093,0.213214,0.104387,0.29831,0.508158,0.193672,0.301883,0.147328,0.348531,0.302455,0.306389,0.365318,0.152087,0.348224,0.243979,0.213246,0.293802,0.237768,0.450962,0.472865,0.310471,0.324503,0.195833,0.578183,0.538213,0.411464,0.452342,0.184528
1769164075.972363,1769164075.973178,47.0,0.0,4315.128418,4294.615234,4380.512695,4342.05127,4277.05127,4281.922852,4301.025879,4320.384766,4297.563965,4280.384766,4605.256348,4570.897461,4441.410156,4521.025879,,,,,,,,,,,,,,,,,,,,,,,,,,,,,,,,,,,,,,,,,,,,,,,,,,,,,,,,,,,,,,,,,,,,,,
1769164075.980172,1769164075.981187,48.0,0.0,4321.666504,4300.641113,4381.922852,4349.102539,4278.589844,4274.743652,4296.922852,4321.666504,4303.974121,4293.077148,4610.641113,4570.384766,4446.922852,4527.05127,,,,,,,,,,,,,,,,,,,,,,,,,,,,,,,,,,,,,,,,,,,,,,,,,,,,,,,,,,,,,,,,,,,,,,
1769164075.98798,1769164075.988995,49.0,0.0,4324.487305,4300.769043,4377.563965,4347.692383,4280.641113,4274.102539,4293.717773,4315.0,4303.077148,4292.820313,4605.384766,4557.179688,4446.922852,4526.538574,,,,,,,,,,,,,,,,,,,,,,,,,,,,,,,,,,,,,,,,,,,,,,,,,,,,,,,,,,,,,,,,,,,,,,
1769164075.995789,1769164075.996903,50.0,0.0,4312.692383,4292.692383,4372.05127,4341.666504,4279.487305,4280.384766,4296.538574,4310.512695,4297.179688,4279.871582,4596.410156,4547.307617,4439.230957,4516.025879,,,,,,,,,,,,,,,,,,,,,,,,,,,,,,,,,,,,,,,,,,,,,,,,,,,,,,,,,,,,,,,,,,,,,,
1769164076.003597,1769164076.004712,51.0,0.0,4310.128418,4291.153809,4376.538574,4342.179688,4278.077148,4281.410156,4300.512695,4317.436035,4302.820313,4282.94873,4602.820313,4559.871582,4444.358887,4520.641113,,,,,,,,,,,,,,,,,,,,,,,,,,,,,,,,,,,,,,,,,,,,,,,,,,,,,,,,,,,,,,,,,,,,,,
1769164076.011406,1769164076.012321,52.0,0.0,4315.512695,4293.974121,4380.128418,4344.102539,4277.563965,4283.077148,4303.205078,4322.436035,4314.487305,4296.410156,4614.230957,4572.94873,4457.820313,4533.974121,,,,,,,,,,,,,,,,,,,,,,,,,,,,,,,,,,,,,,,,,,,,,,,,,,,,,,,,,,,,,,,,,,,,,,
1769164076.019214,1769164076.020129,53.0,0.0,4315.384766,4293.333496,4377.692383,4342.94873,4277.94873,4291.666504,4304.615234,4320.128418,4310.128418,4293.974121,4611.538574,4566.025879,4454.743652,4533.717773,,,,,,,,,,,,,,,,,,,,,,,,,,,,,,,,,,,,,,,,,,,,,,,,,,,,,,,,,,,,,,,,,,,,,,
1769164076.027022,1769164076.027838,54.0,0.0,4313.205078,4294.230957,4376.410156,4341.794922,4283.717773,4294.358887,4303.974121,4318.589844,4299.487305,4283.461426,4602.94873,4553.846191,4445.0,4519.871582,,,,,,,,,,,,,,,,,,,,,,,,,,,,,,,,,,,,,,,,,,,,,,,,,,,,,,,,,,,,,,,,,,,,,,
1769164076.034831,1769164076.035646,55.0,0.0,4311.922852,4296.153809,4374.102539,4342.692383,4288.333496,4289.871582,4304.230957,4320.512695,4299.487305,4282.820313,4600.256348,4552.307617,4442.692383,4509.487305,,,,,,,,,,,,,,,,,,,,,,,,,,,,,,,,,,,,,,,,,,,,,,,,,,,,,,,,,,,,,,,,,,,,,,
1769164076.042639,1769164076.043255,56.0,0.0,4315.0,4296.025879,4376.025879,4346.153809,4283.846191,4288.077148,4303.974121,4322.94873,4302.820313,4287.820313,4604.615234,4558.077148,4443.205078,4515.384766,,,,,,,,,,,,,,,,,,,,,,,,,,,,,,,,,,,,,,,,,,,,,,,,,,,,,,,,,,,,,,,,,,,,,,
1769164076.050448,1769164076.051063,57.0,0.0,4320.512695,4298.589844,4383.333496,4348.205078,4278.974121,4287.820313,4303.461426,4324.358887,4303.846191,4291.025879,4610.512695,4565.128418,4450.128418,4531.282227,,,,,,,,,,,,,,,,,,,,,,,,,,,,,,,,,,,,,,,,,,,,,,,,,,,,,,,,,,,,,,,,,,,,,,
1769164076.058256,1769164076.058971,58.0,0.0,4324.358887,4304.102539,4383.589844,4347.94873,4283.205078,4288.589844,4305.641113,4325.0,4305.0,4292.436035,4615.256348,4571.922852,4461.025879,4541.410156,,,,,,,,,,,,,,,,,,,,,,,,,,,,,,,,,,,,,,,,,,,,,,,,,,,,,,,,,,,,,,,,,,,,,,
1769164076.066065,1769164076.06678,59.0,0.0,4325.512695,4309.102539,4382.05127,4350.128418,4288.717773,4290.641113,4308.589844,4325.769043,4304.871582,4294.358887,4617.307617,4573.077148,4462.436035,4540.256348,,,,,,,,,,,,,,,,,,,,,,,,,,,,,,,,,,,,,,,,,,,,,,,,,,,,,,,,,,,,,,,,,,,,,,
1769164076.073873,1769164076.074788,60.0,0.0,4328.974121,4310.384766,4391.282227,4355.256348,4291.282227,4290.256348,4310.384766,4326.025879,4304.487305,4295.897461,4616.922852,4571.282227,4459.102539,4536.282227,,,,,,,,,,,,,,,,,,,,,,,,,,,,,,,,,,,,,,,,,,,,,,,,,,,,,,,,,,,,,,,,,,,,,,
1769164076.081682,1769164076.082597,61.0,0.0,4333.461426,4314.358887,4399.230957,4360.641113,4293.077148,4284.358887,4306.282227,4325.128418,4310.256348,4302.436035,4618.333496,4579.358887,4461.025879,4539.615234,,,,,,,,,,,,,,,,,,,,,,,,,,,,,,,,,,,,,,,,,,,,,,,,,,,,,,,,,,,,,,,,,,,,,,
1769164076.08949,1769164076.090505,62.0,0.0,4331.282227,4313.333496,4393.461426,4358.077148,4290.384766,4278.205078,4299.358887,4326.153809,4314.615234,4306.153809,4621.666504,4587.820313,4462.94873,4545.0,0.264244,0.330439,0.477541,0.199174,0.145926,0.396495,0.296379,0.259813,0.152634,0.135759,0.354485,0.268703,0.296303,0.142159,0.122334,0.231405,0.400695,0.255893,0.121358,0.078251,0.157409,0.276147,0.152861,0.1072,0.051141,0.239421,0.396402,0.442918,0.123238,0.11201,0.066586,0.247866,0.191096,0.107155,0.103769,0.168112,0.328713,0.201873,0.082584,0.043208,0.146373,0.663972,0.296283,0.232711,0.109655,0.305692,0.385569,0.169895,0.287043,0.155739,0.435737,0.212919,0.289342,0.334688,0.14756,0.277924,0.185055,0.217427,0.256624,0.250755,0.494598,0.354221,0.291733,0.300393,0.176976,0.5638,0.404075,0.424131,0.397943,0.166979
1769164076.097299,1769164076.098313,63.0,0.0,4316.153809,4299.743652,4379.358887,4346.025879,4284.743652,4283.589844,4302.307617,4327.820313,4312.820313,4295.897461,4617.436035,4576.025879,4456.922852,4538.461426,,,,,,,,,,,,,,,,,,,,,,,,,,,,,,,,,,,,,,,,,,,,,,,,,,,,,,,,,,,,,,,,,,,,,,
1769164076.105107,1769164076.106322,64.0,0.0,4297.94873,4291.153809,4372.820313,4338.717773,4280.512695,4292.179688,4309.230957,4326.666504,4309.358887,4291.666504,4606.410156,4557.436035,4445.512695,4523.333496,,,,,,,,,,,,,,,,,,,,,,,,,,,,,,,,,,,,,,,,,,,,,,,,,,,,,,,,,,,,,,,,,,,,,,
1769164076.112915,1769164076.11413,65.0,0.0,4299.615234,4295.0,4378.077148,4341.922852,4282.179688,4293.333496,4306.410156,4326.282227,4302.307617,4295.256348,4603.717773,4554.743652,4439.358887,4516.538574,,,,,,,,,,,,,,,,,,,,,,,,,,,,,,,,,,,,,,,,,,,,,,,,,,,,,,,,,,,,,,,,,,,,,,
1769164076.120724,1769164076.121839,66.0,0.0,4307.307617,4295.641113,4382.179688,4343.974121,4285.0,4293.589844,4302.307617,4325.384766,4296.025879,4285.769043,4603.717773,4555.897461,4441.025879,4518.974121,,,,,,,,,,,,,,,,,,,,,,,,,,,,,,,,,,,,,,,,,,,,,,,,,,,,,,,,,,,,,,,,,,,,,,
1769164076.128532,1769164076.129647,67.0,0.0,4301.282227,4291.282227,4381.282227,4341.538574,4282.820313,4295.128418,4303.333496,4322.692383,4295.384766,4276.410156,4600.256348,4552.563965,4442.179688,4521.794922,,,,,,,,,,,,,,,,,,,,,,,,,,,,,,,,,,,,,,,,,,,,,,,,,,,,,,,,,,,,,,,,,,,,,,
1769164076.136341,1769164076.137356,68.0,0.0,4296.282227,4291.666504,4380.384766,4341.666504,4279.358887,4291.666504,4304.487305,4324.102539,4297.692383,4287.179688,4604.615234,4559.230957,4443.333496,4523.974121,,,,,,,,,,,,,,,,,,,,,,,,,,,,,,,,,,,,,,,,,,,,,,,,,,,,,,,,,,,,,,,,,,,,,,
1769164076.144149,1769164076.145164,69.0,0.0,4304.871582,4294.230957,4381.153809,4343.717773,4280.128418,4293.974121,4310.641113,4328.846191,4297.179688,4296.666504,4610.769043,4569.487305,4446.410156,4525.0,,,,,,,,,,,,,,,,,,,,,,,,,,,,,,,,,,,,,,,,,,,,,,,,,,,,,,,,,,,,,,,,,,,,,,
1769164076.151958,1769164076.152873,70.0,0.0,4312.563965,4295.769043,4384.358887,4343.717773,4283.205078,4297.307617,4310.897461,4328.461426,4295.128418,4293.205078,4607.692383,4568.333496,4445.641113,4523.846191,,,,,,,,,,,,,,,,,,,,,,,,,,,,,,,,,,,,,,,,,,,,,,,,,,,,,,,,,,,,,,,,,,,,,,
1769164076.159766,1769164076.160681,71.0,0.0,4310.897461,4296.794922,4388.205078,4346.410156,4282.307617,4288.589844,4300.512695,4324.871582,4294.102539,4290.897461,4603.846191,4564.487305,4443.333496,4523.589844,,,,,,,,,,,,,,,,,,,,,,,,,,,,,,,,,,,,,,,,,,,,,,,,,,,,,,,,,,,,,,,,,,,,,,
1769164076.167575,1769164076.16829,72.0,0.0,4308.205078,4296.410156,4389.230957,4347.307617,4281.153809,4280.128418,4298.717773,4324.615234,4294.743652,4290.769043,4603.717773,4563.846191,4443.589844,4524.358887,,,,,,,,,,,,,,,,,,,,,,,,,,,,,,,,,,,,,,,,,,,,,,,,,,,,,,,,,,,,,,,,,,,,,,
1769164076.175383,1769164076.176098,73.0,0.0,4306.282227,4296.666504,4389.358887,4343.846191,4281.922852,4281.410156,4304.871582,4326.666504,4297.179688,4289.743652,4602.436035,4566.153809,4445.128418,4526.153809,,,,,,,,,,,,,,,,,,,,,,,,,,,,,,,,,,,,,,,,,,,,,,,,,,,,,,,,,,,,,,,,,,,,,,
1769164076.183191,1769164076.183807,74.0,0.0,4306.282227,4298.077148,4390.128418,4346.922852,4283.205078,4288.974121,4308.077148,4328.077148,4296.410156,4290.384766,4603.205078,4569.615234,4446.153809,4525.641113,,,,,,,,,,,,,,,,,,,,,,,,,,,,,,,,,,,,,,,,,,,,,,,,,,,,,,,,,,,,,,,,,,,,,,
1769164076.191,1769164076.191615,75.0,0.0,4308.205078,4297.436035,4387.563965,4350.128418,4282.05127,4289.615234,4306.538574,4327.05127,4296.794922,4289.358887,4602.820313,4564.743652,4444.615234,4524.102539,,,,,,,,,,,,,,,,,,,,,,,,,,,,,,,,,,,,,,,,,,,,,,,,,,,,,,,,,,,,,,,,,,,,,,
1769164076.198808,1769164076.199623,76.0,0.0,4307.179688,4295.0,4383.589844,4346.282227,4278.846191,4282.436035,4304.743652,4325.512695,4303.077148,4290.256348,4599.871582,4559.230957,4441.794922,4522.94873,,,,,,,,,,,,,,,,,,,,,,,,,,,,,,,,,,,,,,,,,,,,,,,,,,,,,,,,,,,,,,,,,,,,,,
1769164076.206617,1769164076.207432,77.0,0.0,4307.179688,4293.974121,4385.641113,4344.615234,4279.743652,4285.512695,4305.128418,4327.307617,4304.358887,4292.820313,4600.897461,4567.94873,4442.05127,4522.563965,,,,,,,,,,,,,,,,,,,,,,,,,,,,,,,,,,,,,,,,,,,,,,,,,,,,,,,,,,,,,,,,,,,,,,
1769164076.214425,1769164076.21514,78.0,0.0,4309.487305,4294.230957,4390.0,4346.153809,4282.307617,4292.820313,4305.641113,4327.692383,4296.794922,4287.436035,4603.461426,4571.410156,4443.846191,4525.641113,0.308169,0.326227,0.418502,0.241783,0.14094,0.572815,0.272559,0.231649,0.158911,0.14607,0.285962,0.233508,0.276765,0.142439,0.120618,0.262772,0.353067,0.19476,0.145498,0.082213,0.158955,0.233842,0.156552,0.116388,0.059375,0.261675,0.373312,0.384659,0.123597,0.102407,0.068546,0.166654,0.135781,0.088365,0.090467,0.191648,0.250997,0.151985,0.088066,0.03947,0.224697,0.721203,0.298245,0.250512,0.116668,0.342447,0.30252,0.144483,0.273043,0.160731,0.592813,0.155508,0.28362,0.319012,0.14224,0.251739,0.186811,0.206877,0.234517,0.249571,0.616559,0.288664,0.274522,0.29412,0.168378,0.58177,0.34853,0.420641,0.370472,0.158496
1769164076.222234,1769164076.222949,79.0,0.0,4306.794922,4294.871582,4387.563965,4345.384766,4279.487305,4288.205078,4303.717773,4324.230957,4293.461426,4278.846191,4600.769043,4559.871582,4439.615234,4521.538574,,,,,,,,,,,,,,,,,,,,,,,,,,,,,,,,,,,,,,,,,,,,,,,,,,,,,,,,,,,,,,,,,,,,,,
1769164076.230042,1769164076.230557,80.0,0.0,4302.563965,4293.974121,4380.897461,4346.794922,4277.94873,4287.563965,4304.487305,4324.487305,4295.641113,4278.461426,4597.94873,4551.794922,4431.538574,4510.512695,,,,,,,,,,,,,,,,,,,,,,,,,,,,,,,,,,,,,,,,,,,,,,,,,,,,,,,,,,,,,,,,,,,,,,
1769164076.237851,1769164076.238366,81.0,0.0,4304.358887,4295.769043,4381.410156,4350.128418,4285.512695,4295.769043,4307.820313,4327.436035,4296.794922,4284.358887,4600.0,4553.974121,4432.436035,4509.615234,,,,,,,,,,,,,,,,,,,,,,,,,,,,,,,,,,,,,,,,,,,,,,,,,,,,,,,,,,,,,,,,,,,,,,
1769164076.245659,1769164076.246074,82.0,0.0,4312.179688,4305.256348,4392.563965,4353.333496,4288.974121,4287.436035,4300.897461,4326.153809,4299.615234,4291.282227,4603.717773,4563.205078,4442.563965,4521.538574,,,,,,,,,,,,,,,,,,,,,,,,,,,,,,,,,,,,,,,,,,,,,,,,,,,,,,,,,,,,,,,,,,,,,,
1769164076.253468,1769164076.253883,83.0,0.0,4315.641113,4312.436035,4397.436035,4357.563965,4283.461426,4277.692383,4294.871582,4319.871582,4299.102539,4291.666504,4602.436035,4568.205078,4446.666504,4528.846191,,,,,,,,,,,,,,,,,,,,,,,,,,,,,,,,,,,,,,,,,,,,,,,,,,,,,,,,,,,,,,,,,,,,,,
1769164076.261276,1769164076.261891,84.0,0.0,4309.358887,4305.897461,4390.641113,4357.692383,4281.410156,4285.0,4299.102539,4316.794922,4293.846191,4286.922852,4597.692383,4558.333496,4442.692383,4524.871582,,,,,,,,,,,,,,,,,,,,,,,,,,,,,,,,,,,,,,,,,,,,,,,,,,,,,,,,,,,,,,,,,,,,,,
1769164076.269085,1769164076.2697,85.0,0.0,4306.025879,4296.922852,4387.436035,4354.358887,4282.820313,4290.384766,4304.615234,4321.794922,4297.05127,4288.589844,4597.94873,4552.692383,4440.641113,4520.128418,,,,,,,,,,,,,,,,,,,,,,,,,,,,,,,,,,,,,,,,,,,,,,,,,,,,,,,,,,,,,,,,,,,,,,
1769164076.276893,1769164076.277608,86.0,0.0,4310.128418,4296.410156,4390.256348,4351.666504,4280.384766,4289.871582,4305.769043,4327.179688,4308.461426,4296.025879,4602.692383,4566.025879,4442.820313,4520.384766,,,,,,,,,,,,,,,,,,,,,,,,,,,,,,,,,,,,,,,,,,,,,,,,,,,,,,,,,,,,,,,,,,,,,,
1769164076.284701,1769164076.285416,87.0,0.0,4311.666504,4296.410156,4388.717773,4348.589844,4278.974121,4289.230957,4304.358887,4326.794922,4313.077148,4294.102539,4604.487305,4571.538574,4442.307617,4527.05127,,,,,,,,,,,,,,,,,,,,,,,,,,,,,,,,,,,,,,,,,,,,,,,,,,,,,,,,,,,,,,,,,,,,,,
1769164076.29251,1769164076.293425,88.0,0.0,4312.179688,4295.384766,4388.846191,4351.666504,4281.153809,4288.589844,4303.846191,4323.461426,4305.384766,4283.717773,4598.205078,4559.358887,4435.128418,4525.897461,,,,,,,,,,,,,,,,,,,,,,,,,,,,,,,,,,,,,,,,,,,,,,,,,,,,,,,,,,,,,,,,,,,,,,
1769164076.300318,1769164076.301233,89.0,0.0,4308.461426,4295.769043,4388.974121,4351.025879,4280.128418,4289.871582,4308.846191,4321.153809,4295.512695,4277.436035,4588.974121,4552.179688,4429.615234,4511.666504,,,,,,,,,,,,,,,,,,,,,,,,,,,,,,,,,,,,,,,,,,,,,,,,,,,,,,,,,,,,,,,,,,,,,,
1769164076.308127,1769164076.309141,90.0,0.0,4299.358887,4291.282227,4382.692383,4341.538574,4276.538574,4287.307617,4311.153809,4321.410156,4296.153809,4278.205078,4587.05127,4554.102539,4427.563965,4503.205078,,,,,,,,,,,,,,,,,,,,,,,,,,,,,,,,,,,,,,,,,,,,,,,,,,,,,,,,,,,,,,,,,,,,,,
1769164076.315935,1769164076.31695,91.0,0.0,4302.05127,4291.794922,4383.333496,4342.179688,4276.410156,4278.077148,4301.025879,4323.846191,4304.102539,4283.077148,4593.077148,4555.0,4429.615234,4513.461426,,,,,,,,,,,,,,,,,,,,,,,,,,,,,,,,,,,,,,,,,,,,,,,,,,,,,,,,,,,,,,,,,,,,,,
1769164076.323744,1769164076.324559,92.0,0.0,4316.282227,4301.410156,4390.897461,4348.846191,4278.077148,4273.846191,4296.282227,4321.794922,4303.333496,4289.615234,4600.641113,4555.384766,4439.102539,4532.307617,,,,,,,,,,,,,,,,,,,,,,,,,,,,,,,,,,,,,,,,,,,,,,,,,,,,,,,,,,,,,,,,,,,,,,
1769164076.331552,1769164076.332367,93.0,0.0,4315.512695,4301.922852,4389.102539,4344.743652,4278.333496,4278.205078,4299.743652,4313.589844,4294.743652,4289.615234,4602.692383,4559.487305,4447.307617,4537.05127,,,,,,,,,,,,,,,,,,,,,,,,,,,,,,,,,,,,,,,,,,,,,,,,,,,,,,,,,,,,,,,,,,,,,,
1769164076.339361,1769164076.340076,94.0,0.0,4300.0,4293.589844,4382.179688,4339.487305,4277.692383,4278.846191,4296.922852,4309.487305,4292.692383,4284.615234,4597.94873,4553.077148,4439.487305,4526.025879,0.363875,0.381265,0.375787,0.292967,0.148858,0.760454,0.282455,0.205454,0.165797,0.159535,0.232528,0.236476,0.271606,0.152156,0.120523,0.304583,0.334445,0.173638,0.169946,0.089605,0.173503,0.200321,0.175348,0.120574,0.073144,0.268149,0.339647,0.32885,0.129702,0.098513,0.071646,0.122201,0.104237,0.074602,0.084829,0.217049,0.22085,0.111931,0.092337,0.03852,0.322529,0.791647,0.274399,0.261691,0.122918,0.403151,0.270704,0.125322,0.256431,0.160699,0.76046,0.140306,0.286646,0.317872,0.135986,0.245366,0.255697,0.187386,0.239186,0.235022,0.783245,0.273425,0.260153,0.300226,0.165009,0.607432,0.389177,0.40534,0.378329,0.162609
1769164076.347169,1769164076.347884,95.0,0.0,4292.179688,4292.436035,4377.179688,4343.205078,4278.974121,4278.205078,4296.666504,4313.589844,4297.820313,4285.769043,4593.717773,4539.358887,4433.974121,4516.794922,,,,,,,,,,,,,,,,,,,,,,,,,,,,,,,,,,,,,,,,,,,,,,,,,,,,,,,,,,,,,,,,,,,,,,
1769164076.354977,1769164076.355493,96.0,0.0,4294.230957,4294.487305,4375.256348,4342.692383,4280.641113,4283.461426,4304.102539,4318.717773,4296.282227,4288.717773,4595.769043,4540.0,4441.282227,4518.589844,,,,,,,,,,,,,,,,,,,,,,,,,,,,,,,,,,,,,,,,,,,,,,,,,,,,,,,,,,,,,,,,,,,,,,
1769164076.362786,1769164076.363301,97.0,0.0,4297.179688,4292.436035,4379.743652,4339.743652,4280.384766,4287.820313,4306.410156,4321.410156,4295.256348,4287.692383,4599.743652,4552.05127,4443.205078,4523.205078,,,,,,,,,,,,,,,,,,,,,,,,,,,,,,,,,,,,,,,,,,,,,,,,,,,,,,,,,,,,,,,,,,,,,,
1769164076.370594,1769164076.37101,98.0,0.0,4294.871582,4287.692383,4383.717773,4340.0,4279.615234,4289.743652,4305.128418,4324.358887,4306.153809,4292.563965,4603.589844,4560.0,4443.205078,4527.820313,,,,,,,,,,,,,,,,,,,,,,,,,,,,,,,,,,,,,,,,,,,,,,,,,,,,,,,,,,,,,,,,,,,,,,
1769164076.378403,1769164076.378818,99.0,0.0,4285.769043,4281.922852,4375.897461,4334.102539,4277.820313,4290.128418,4309.358887,4328.846191,4309.871582,4293.846191,4602.436035,4551.794922,4443.205078,4524.871582,,,,,,,,,,,,,,,,,,,,,,,,,,,,,,,,,,,,,,,,,,,,,,,,,,,,,,,,,,,,,,,,,,,,,,
1769164076.386211,1769164076.386826,100.0,0.0,4281.282227,4277.563965,4369.358887,4331.282227,4275.384766,4288.077148,4309.743652,4325.769043,4298.846191,4282.94873,4591.025879,4539.871582,4434.871582,4513.333496,,,,,,,,,,,,,,,,,,,,,,,,,,,,,,,,,,,,,,,,,,,,,,,,,,,,,,,,,,,,,,,,,,,,,,
1769164076.39402,1769164076.394635,101.0,0.0,4283.205078,4274.871582,4374.358887,4334.230957,4272.179688,4284.230957,4304.230957,4316.794922,4292.179688,4275.769043,4586.153809,4544.230957,4430.384766,4512.436035,,,,,,,,,,,,,,,,,,,,,,,,,,,,,,,,,,,,,,,,,,,,,,,,,,,,,,,,,,,,,,,,,,,,,,
1769164076.401828,1769164076.402543,102.0,0.0,4290.128418,4280.128418,4381.025879,4334.743652,4271.282227,4276.666504,4297.692383,4313.974121,4296.282227,4281.153809,4596.153809,4558.077148,4438.974121,4527.05127,,,,,,,,,,,,,,,,,,,,,,,,,,,,,,,,,,,,,,,,,,,,,,,,,,,,,,,,,,,,,,,,,,,,,,
1769164076.409637,1769164076.410352,103.0,0.0,4298.205078,4292.05127,4382.692383,4337.820313,4272.692383,4263.333496,4292.820313,4313.846191,4296.153809,4283.205078,4601.922852,4558.846191,4447.692383,4537.692383,,,,,,,,,,,,,,,,,,,,,,,,,,,,,,,,,,,,,,,,,,,,,,,,,,,,,,,,,,,,,,,,,,,,,,
1769164076.417445,1769164076.41796,104.0,0.0,4295.512695,4290.128418,4378.846191,4339.487305,4274.871582,4258.717773,4294.230957,4311.410156,4292.179688,4279.358887,4595.641113,4550.512695,4442.563965,4531.153809,,,,,,,,,,,,,,,,,,,,,,,,,,,,,,,,,,,,,,,,,,,,,,,,,,,,,,,,,,,,,,,,,,,,,,
1769164076.425254,1769164076.425769,105.0,0.0,4287.563965,4277.692383,4375.0,4333.461426,4276.922852,4269.743652,4297.307617,4311.922852,4293.846191,4280.128418,4592.820313,4550.512695,4431.538574,4520.641113,,,,,,,,,,,,,,,,,,,,,,,,,,,,,,,,,,,,,,,,,,,,,,,,,,,,,,,,,,,,,,,,,,,,,,
1769164076.433062,1769164076.433477,106.0,0.0,4289.871582,4277.179688,4373.461426,4328.717773,4272.436035,4274.358887,4297.05127,4313.205078,4296.282227,4282.94873,4596.153809,4549.871582,4429.743652,4520.512695,,,,,,,,,,,,,,,,,,,,,,,,,,,,,,,,,,,,,,,,,,,,,,,,,,,,,,,,,,,,,,,,,,,,,,
1769164076.44087,1769164076.441286,107.0,0.0,4290.769043,4280.897461,4368.461426,4329.487305,4264.743652,4266.666504,4298.846191,4311.410156,4295.384766,4283.205078,4595.128418,4542.05127,4435.128418,4525.897461,,,,,,,,,,,,,,,,,,,,,,,,,,,,,,,,,,,,,,,,,,,,,,,,,,,,,,,,,,,,,,,,,,,,,,
1769164076.448679,1769164076.449294,108.0,0.0,4282.179688,4276.794922,4363.717773,4327.179688,4263.974121,4263.846191,4303.205078,4314.743652,4294.615234,4283.077148,4592.563965,4537.307617,4434.358887,4523.974121,,,,,,,,,,,,,,,,,,,,,,,,,,,,,,,,,,,,,,,,,,,,,,,,,,,,,,,,,,,,,,,,,,,,,,
1769164076.456487,1769164076.457102,109.0,0.0,4280.512695,4275.512695,4365.384766,4326.410156,4267.563965,4270.512695,4303.974121,4323.461426,4296.282227,4281.794922,4594.358887,4543.717773,4428.717773,4517.820313,,,,,,,,,,,,,,,,,,,,,,,,,,,,,,,,,,,,,,,,,,,,,,,,,,,,,,,,,,,,,,,,,,,,,,
1769164076.464296,1769164076.465011,110.0,0.0,4281.794922,4277.307617,4367.05127,4327.94873,4266.410156,4275.512695,4303.717773,4326.666504,4297.05127,4278.589844,4594.871582,4550.0,4428.846191,4520.256348,0.428156,0.509484,0.352521,0.337039,0.16949,0.909963,0.34188,0.18091,0.172168,0.173215,0.216212,0.285271,0.281927,0.168407,0.120273,0.351577,0.356216,0.177223,0.189196,0.099386,0.197691,0.178136,0.199447,0.12018,0.087437,0.253578,0.299668,0.284515,0.138841,0.099079,0.074559,0.111864,0.098451,0.067527,0.085944,0.241466,0.223549,0.086676,0.093249,0.040278,0.412022,0.853277,0.231468,0.262484,0.126468,0.475628,0.295248,0.115782,0.234799,0.15782,0.885753,0.167366,0.290743,0.323653,0.129351,0.238865,0.394364,0.174538,0.274664,0.213481,0.937559,0.301552,0.254102,0.309879,0.162628,0.60682,0.523588,0.386545,0.418642,0.178002
1769164076.472104,1769164076.472819,111.0,0.0,4280.256348,4276.025879,4364.102539,4328.333496,4263.077148,4268.461426,4303.205078,4321.153809,4295.0,4280.256348,4590.512695,4544.615234,4428.974121,4521.538574,,,,,,,,,,,,,,,,,,,,,,,,,,,,,,,,,,,,,,,,,,,,,,,,,,,,,,,,,,,,,,,,,,,,,,
1769164076.479913,1769164076.480827,112.0,0.0,4286.282227,4280.0,4366.666504,4332.436035,4263.846191,4265.128418,4298.717773,4311.922852,4288.974121,4275.897461,4587.05127,4539.615234,4427.436035,4518.205078,,,,,,,,,,,,,,,,,,,,,,,,,,,,,,,,,,,,,,,,,,,,,,,,,,,,,,,,,,,,,,,,,,,,,,
1769164076.487721,1769164076.488636,113.0,0.0,4299.230957,4291.538574,4375.512695,4340.512695,4270.256348,4266.922852,4295.769043,4312.05127,4291.410156,4269.358887,4594.230957,4548.077148,4435.0,4524.487305,,,,,,,,,,,,,,,,,,,,,,,,,,,,,,,,,,,,,,,,,,,,,,,,,,,,,,,,,,,,,,,,,,,,,,
1769164076.49553,1769164076.496544,114.0,0.0,4305.128418,4297.820313,4381.538574,4345.0,4274.743652,4256.922852,4295.384766,4323.717773,4303.077148,4286.025879,4610.769043,4567.307617,4447.820313,4541.025879,,,,,,,,,,,,,,,,,,,,,,,,,,,,,,,,,,,,,,,,,,,,,,,,,,,,,,,,,,,,,,,,,,,,,,
1769164076.503338,1769164076.504353,115.0,0.0,4302.563965,4295.128418,4381.410156,4342.179688,4271.282227,4250.641113,4293.333496,4329.230957,4303.333496,4299.102539,4621.025879,4574.358887,4452.820313,4544.358887,,,,,,,,,,,,,,,,,,,,,,,,,,,,,,,,,,,,,,,,,,,,,,,,,,,,,,,,,,,,,,,,,,,,,,
1769164076.511147,1769164076.511961,116.0,0.0,4301.922852,4295.256348,4377.307617,4338.077148,4267.820313,4261.410156,4293.589844,4320.128418,4293.846191,4284.102539,4606.025879,4562.179688,4443.205078,4531.410156,,,,,,,,,,,,,,,,,,,,,,,,,,,,,,,,,,,,,,,,,,,,,,,,,,,,,,,,,,,,,,,,,,,,,,
1769164076.518955,1769164076.51977,117.0,0.0,4303.846191,4296.025879,4372.94873,4338.974121,4268.461426,4267.05127,4296.282227,4315.641113,4293.205078,4272.94873,4585.384766,4551.538574,4432.05127,4523.846191,,,,,,,,,,,,,,,,,,,,,,,,,,,,,,,,,,,,,,,,,,,,,,,,,,,,,,,,,,,,,,,,,,,,,,
1769164076.526764,1769164076.527478,118.0,0.0,4301.282227,4287.307617,4372.179688,4338.717773,4267.05127,4262.94873,4296.410156,4321.666504,4295.512695,4281.666504,4591.794922,4554.102539,4428.717773,4526.153809,,,,,,,,,,,,,,,,,,,,,,,,,,,,,,,,,,,,,,,,,,,,,,,,,,,,,,,,,,,,,,,,,,,,,,
1769164076.534572,1769164076.535287,119.0,0.0,4293.205078,4280.256348,4371.666504,4333.205078,4264.743652,4263.717773,4294.487305,4321.153809,4291.410156,4283.717773,4603.205078,4554.102539,4428.846191,4524.230957,,,,,,,,,,,,,,,,,,,,,,,,,,,,,,,,,,,,,,,,,,,,,,,,,,,,,,,,,,,,,,,,,,,,,,
1769164076.54238,1769164076.542895,120.0,0.0,4288.589844,4280.384766,4367.820313,4327.563965,4264.230957,4265.256348,4293.333496,4312.179688,4289.487305,4276.153809,4590.641113,4542.692383,4428.974121,4518.333496,,,,,,,,,,,,,,,,,,,,,,,,,,,,,,,,,,,,,,,,,,,,,,,,,,,,,,,,,,,,,,,,,,,,,,
1769164076.550189,1769164076.550704,121.0,0.0,4289.615234,4281.282227,4364.615234,4326.410156,4263.333496,4265.128418,4295.384766,4309.230957,4290.256348,4275.512695,4581.666504,4539.230957,4427.820313,4517.94873,,,,,,,,,,,,,,,,,,,,,,,,,,,,,,,,,,,,,,,,,,,,,,,,,,,,,,,,,,,,,,,,,,,,,,
1769164076.557997,1769164076.558412,122.0,0.0,4292.307617,4285.128418,4365.769043,4330.897461,4263.717773,4266.282227,4296.666504,4315.641113,4290.256348,4275.512695,4591.153809,4547.436035,4426.153809,4520.897461,,,,,,,,,,,,,,,,,,,,,,,,,,,,,,,,,,,,,,,,,,,,,,,,,,,,,,,,,,,,,,,,,,,,,,
1769164076.565806,1769164076.566221,123.0,0.0,4302.05127,4293.205078,4373.205078,4338.205078,4266.282227,4262.179688,4293.077148,4319.230957,4291.025879,4278.461426,4601.922852,4557.94873,4431.794922,4528.077148,,,,,,,,,,,,,,,,,,,,,,,,,,,,,,,,,,,,,,,,,,,,,,,,,,,,,,,,,,,,,,,,,,,,,,
1769164076.573614,1769164076.573829,124.0,0.0,4312.820313,4300.769043,4381.282227,4343.077148,4267.436035,4258.589844,4291.282227,4320.384766,4295.897461,4288.205078,4608.717773,4567.179688,4444.487305,4540.897461,,,,,,,,,,,,,,,,,,,,,,,,,,,,,,,,,,,,,,,,,,,,,,,,,,,,,,,,,,,,,,,,,,,,,,
1769164076.581423,1769164076.581638,125.0,0.0,4312.436035,4297.179688,4382.05127,4340.256348,4267.179688,4259.487305,4293.846191,4325.641113,4301.666504,4292.563965,4611.410156,4572.179688,4446.922852,4543.205078,,,,,,,,,,,,,,,,,,,,,,,,,,,,,,,,,,,,,,,,,,,,,,,,,,,,,,,,,,,,,,,,,,,,,,
1769164076.589231,1769164076.589546,126.0,0.0,4303.974121,4284.743652,4379.871582,4330.384766,4265.128418,4261.794922,4295.769043,4329.358887,4301.538574,4290.897461,4608.589844,4573.077148,4441.153809,4538.077148,0.513849,0.712401,0.336836,0.363268,0.198213,0.987877,0.456542,0.153746,0.176398,0.182898,0.247516,0.378048,0.295668,0.187433,0.119009,0.401202,0.416565,0.179325,0.198603,0.109673,0.225889,0.163978,0.212523,0.116625,0.096361,0.225328,0.288369,0.261103,0.148698,0.102369,0.076838,0.130208,0.112505,0.06859,0.090662,0.261394,0.240041,0.076538,0.09166,0.044213,0.480481,0.890333,0.183858,0.252832,0.12686,0.541971,0.373631,0.114097,0.20941,0.155691,0.932755,0.228104,0.287888,0.325646,0.12306,0.222784,0.59565,0.183376,0.332326,0.195584,1.01914,0.362949,0.25967,0.314472,0.15917,0.563441,0.725406,0.371802,0.477206,0.200943
1769164076.59704,1769164076.597355,127.0,0.0,4301.794922,4281.410156,4382.692383,4325.512695,4261.666504,4261.794922,4295.128418,4326.922852,4297.94873,4290.384766,4608.333496,4571.666504,4443.077148,4537.307617,,,,,,,,,,,,,,,,,,,,,,,,,,,,,,,,,,,,,,,,,,,,,,,,,,,,,,,,,,,,,,,,,,,,,,
1769164076.604848,1769164076.605363,0.0,0.0,4303.205078,4290.128418,4381.922852,4331.153809,4263.461426,4263.717773,4296.025879,4324.743652,4295.641113,4285.128418,4606.538574,4565.769043,4444.230957,4530.512695,,,,,,,,,,,,,,,,,,,,,,,,,,,,,,,,,,,,,,,,,,,,,,,,,,,,,,,,,,,,,,,,,,,,,,
1769164076.612656,1769164076.613171,1.0,0.0,4299.743652,4295.641113,4374.487305,4332.820313,4269.871582,4268.717773,4296.794922,4323.077148,4295.384766,4276.538574,4599.871582,4556.153809,4442.05127,4523.205078,,,,,,,,,,,,,,,,,,,,,,,,,,,,,,,,,,,,,,,,,,,,,,,,,,,,,,,,,,,,,,,,,,,,,,
1769164076.620465,1769164076.62088,2.0,0.0,4298.205078,4292.94873,4372.307617,4328.461426,4269.871582,4270.641113,4297.436035,4320.769043,4295.512695,4277.563965,4601.410156,4555.512695,4440.641113,4527.692383,,,,,,,,,,,,,,,,,,,,,,,,,,,,,,,,,,,,,,,,,,,,,,,,,,,,,,,,,,,,,,,,,,,,,,
1769164076.628273,1769164076.628688,3.0,0.0,4294.230957,4283.461426,4368.846191,4323.717773,4265.641113,4275.769043,4302.436035,4325.384766,4295.0,4275.897461,4600.128418,4557.436035,4430.641113,4526.666504,,,,,,,,,,,,,,,,,,,,,,,,,,,,,,,,,,,,,,,,,,,,,,,,,,,,,,,,,,,,,,,,,,,,,,
1769164076.636082,1769164076.636297,4.0,0.0,4285.897461,4276.025879,4363.589844,4322.692383,4268.589844,4281.025879,4304.487305,4330.0,4294.615234,4268.461426,4589.487305,4552.307617,4420.0,4517.05127,,,,,,,,,,,,,,,,,,,,,,,,,,,,,,,,,,,,,,,,,,,,,,,,,,,,,,,,,,,,,,,,,,,,,,
1769164076.64389,1769164076.644105,5.0,0.0,4290.256348,4286.282227,4366.025879,4328.974121,4275.0,4273.205078,4297.436035,4326.666504,4295.512695,4274.615234,4592.820313,4551.410156,4422.436035,4518.077148,,,,,,,,,,,,,,,,,,,,,,,,,,,,,,,,,,,,,,,,,,,,,,,,,,,,,,,,,,,,,,,,,,,,,,
1769164076.651699,1769164076.652014,6.0,0.0,4304.358887,4298.846191,4367.692383,4330.897461,4274.358887,4264.230957,4292.563965,4324.487305,4296.538574,4282.179688,4604.358887,4556.153809,4432.179688,4528.205078,,,,,,,,,,,,,,,,,,,,,,,,,,,,,,,,,,,,,,,,,,,,,,,,,,,,,,,,,,,,,,,,,,,,,,
1769164076.659507,1769164076.659822,7.0,0.0,4309.615234,4296.922852,4366.410156,4327.692383,4269.871582,4264.743652,4295.769043,4327.179688,4296.025879,4280.641113,4605.512695,4561.538574,4442.05127,4535.897461,,,,,,,,,,,,,,,,,,,,,,,,,,,,,,,,,,,,,,,,,,,,,,,,,,,,,,,,,,,,,,,,,,,,,,
1769164076.667316,1769164076.667831,8.0,0.0,4309.615234,4295.769043,4369.871582,4333.333496,4267.05127,4262.820313,4293.846191,4327.94873,4297.05127,4280.897461,4602.820313,4563.077148,4443.589844,4541.282227,,,,,,,,,,,,,,,,,,,,,,,,,,,,,,,,,,,,,,,,,,,,,,,,,,,,,,,,,,,,,,,,,,,,,,
1769164076.675124,1769164076.675639,9.0,0.0,4311.538574,4296.410156,4371.153809,4340.641113,4265.897461,4258.205078,4288.717773,4326.794922,4296.153809,4280.641113,4604.102539,4558.589844,4433.974121,4538.205078,,,,,,,,,,,,,,,,,,,,,,,,,,,,,,,,,,,,,,,,,,,,,,,,,,,,,,,,,,,,,,,,,,,,,,
1769164076.682933,1769164076.683547,10.0,0.0,4310.128418,4293.589844,4365.0,4333.589844,4264.487305,4262.436035,4291.282227,4326.282227,4293.589844,4276.282227,4601.410156,4555.512695,4426.922852,4527.692383,,,,,,,,,,,,,,,,,,,,,,,,,,,,,,,,,,,,,,,,,,,,,,,,,,,,,,,,,,,,,,,,,,,,,,
1769164076.690741,1769164076.691356,11.0,0.0,4308.461426,4291.282227,4360.128418,4325.512695,4263.846191,4266.282227,4292.563965,4325.0,4289.743652,4273.077148,4595.769043,4556.538574,4428.461426,4522.94873,,,,,,,,,,,,,,,,,,,,,,,,,,,,,,,,,,,,,,,,,,,,,,,,,,,,,,,,,,,,,,,,,,,,,,
1769164076.698549,1769164076.699364,12.0,0.0,4306.410156,4285.384766,4358.333496,4324.743652,4263.717773,4264.102539,4292.307617,4322.307617,4285.384766,4268.974121,4592.436035,4555.256348,4427.307617,4525.897461,,,,,,,,,,,,,,,,,,,,,,,,,,,,,,,,,,,,,,,,,,,,,,,,,,,,,,,,,,,,,,,,,,,,,,
1769164076.706358,1769164076.707172,13.0,0.0,4301.794922,4277.05127,4357.307617,4321.794922,4262.563965,4265.256348,4293.974121,4321.538574,4283.589844,4264.358887,4587.179688,4548.205078,4421.410156,4521.666504,,,,,,,,,,,,,,,,,,,,,,,,,,,,,,,,,,,,,,,,,,,,,,,,,,,,,,,,,,,,,,,,,,,,,,
1769164076.714166,1769164076.714881,14.0,0.0,4293.461426,4274.358887,4356.410156,4320.512695,4262.692383,4274.358887,4295.897461,4322.94873,4283.717773,4263.077148,4583.205078,4541.282227,4414.230957,4509.615234,0.609655,0.968524,0.31978,0.370298,0.227471,0.982464,0.614396,0.132148,0.180165,0.18527,0.286718,0.499528,0.299132,0.206182,0.117189,0.445416,0.497837,0.168192,0.196867,0.117814,0.249348,0.153011,0.205418,0.112009,0.09606,0.195173,0.343861,0.272228,0.158666,0.107289,0.077873,0.172199,0.143647,0.077221,0.095289,0.270537,0.260389,0.084797,0.090186,0.049559,0.516915,0.896745,0.147948,0.237705,0.125355,0.582599,0.491231,0.117819,0.188035,0.156862,0.891381,0.308403,0.277122,0.32108,0.117944,0.200557,0.840289,0.220349,0.400951,0.191527,0.998279,0.447616,0.281799,0.312282,0.154094,0.484761,0.951164,0.371975,0.540115,0.227307
1769164076.721975,1769164076.722689,15.0,0.0,4285.128418,4275.0,4353.846191,4322.692383,4264.358887,4284.743652,4300.897461,4322.436035,4282.820313,4261.153809,4581.410156,4536.410156,4407.563965,4502.563965,,,,,,,,,,,,,,,,,,,,,,,,,,,,,,,,,,,,,,,,,,,,,,,,,,,,,,,,,,,,,,,,,,,,,,
1769164076.729783,1769164076.730298,16.0,0.0,4287.307617,4277.820313,4353.205078,4326.282227,4262.436035,4276.666504,4299.358887,4322.179688,4285.256348,4266.666504,4584.102539,4538.846191,4411.410156,4504.358887,,,,,,,,,,,,,,,,,,,,,,,,,,,,,,,,,,,,,,,,,,,,,,,,,,,,,,,,,,,,,,,,,,,,,,
1769164076.737592,1769164076.738107,17.0,0.0,4296.025879,4280.641113,4356.666504,4330.641113,4261.282227,4257.563965,4283.717773,4324.743652,4291.538574,4279.102539,4592.563965,4548.333496,4424.871582,4515.897461,,,,,,,,,,,,,,,,,,,,,,,,,,,,,,,,,,,,,,,,,,,,,,,,,,,,,,,,,,,,,,,,,,,,,,
1769164076.7454,1769164076.745815,18.0,0.0,4297.307617,4279.102539,4357.820313,4333.589844,4264.743652,4253.974121,4276.794922,4325.384766,4293.589844,4282.563965,4599.615234,4554.230957,4433.077148,4528.333496,,,,,,,,,,,,,,,,,,,,,,,,,,,,,,,,,,,,,,,,,,,,,,,,,,,,,,,,,,,,,,,,,,,,,,
1769164076.753209,1769164076.753624,19.0,0.0,4295.0,4278.205078,4357.692383,4337.05127,4268.077148,4263.077148,4290.641113,4324.615234,4291.794922,4280.128418,4600.0,4554.487305,4430.512695,4526.282227,,,,,,,,,,,,,,,,,,,,,,,,,,,,,,,,,,,,,,,,,,,,,,,,,,,,,,,,,,,,,,,,,,,,,,
1769164076.761017,1769164076.761232,20.0,0.0,4296.538574,4280.128418,4357.692383,4338.846191,4270.384766,4265.769043,4297.179688,4323.717773,4294.230957,4282.436035,4598.846191,4553.461426,4427.307617,4518.846191,,,,,,,,,,,,,,,,,,,,,,,,,,,,,,,,,,,,,,,,,,,,,,,,,,,,,,,,,,,,,,,,,,,,,,
1769164076.768825,1769164076.769041,21.0,0.0,4294.615234,4278.717773,4357.692383,4337.563965,4275.256348,4266.666504,4292.436035,4321.922852,4294.487305,4283.974121,4596.666504,4555.512695,4429.487305,4522.05127,,,,,,,,,,,,,,,,,,,,,,,,,,,,,,,,,,,,,,,,,,,,,,,,,,,,,,,,,,,,,,,,,,,,,,
1769164076.776634,1769164076.776749,22.0,0.0,4289.743652,4277.179688,4356.025879,4334.230957,4277.436035,4274.615234,4294.230957,4321.410156,4287.563965,4281.282227,4592.94873,4551.922852,4426.666504,4521.410156,,,,,,,,,,,,,,,,,,,,,,,,,,,,,,,,,,,,,,,,,,,,,,,,,,,,,,,,,,,,,,,,,,,,,,
1769164076.784442,1769164076.784558,23.0,0.0,4288.974121,4278.205078,4352.05127,4331.410156,4270.769043,4279.358887,4297.436035,4321.666504,4283.589844,4280.384766,4592.436035,4541.153809,4422.05127,4511.410156,,,,,,,,,,,,,,,,,,,,,,,,,,,,,,,,,,,,,,,,,,,,,,,,,,,,,,,,,,,,,,,,,,,,,,
1769164076.792251,1769164076.792566,24.0,0.0,4290.897461,4279.358887,4350.256348,4328.333496,4264.487305,4277.820313,4297.820313,4321.153809,4289.487305,4280.512695,4595.256348,4540.256348,4421.922852,4506.922852,,,,,,,,,,,,,,,,,,,,,,,,,,,,,,,,,,,,,,,,,,,,,,,,,,,,,,,,,,,,,,,,,,,,,,
1769164076.800059,1769164076.800374,25.0,0.0,4290.769043,4277.563965,4352.307617,4326.922852,4265.0,4276.794922,4301.410156,4324.230957,4295.256348,4279.102539,4593.461426,4550.0,4420.897461,4507.820313,,,,,,,,,,,,,,,,,,,,,,,,,,,,,,,,,,,,,,,,,,,,,,,,,,,,,,,,,,,,,,,,,,,,,,
1769164076.807868,1769164076.808283,26.0,0.0,4284.230957,4272.563965,4354.102539,4326.666504,4266.538574,4280.128418,4303.589844,4327.820313,4292.94873,4276.282227,4588.077148,4551.153809,4416.666504,4506.410156,,,,,,,,,,,,,,,,,,,,,,,,,,,,,,,,,,,,,,,,,,,,,,,,,,,,,,,,,,,,,,,,,,,,,,
1769164076.815676,1769164076.816091,27.0,0.0,4284.487305,4271.410156,4353.717773,4325.769043,4264.871582,4278.717773,4298.205078,4325.256348,4289.358887,4276.153809,4586.922852,4543.205078,4412.563965,4504.743652,,,,,,,,,,,,,,,,,,,,,,,,,,,,,,,,,,,,,,,,,,,,,,,,,,,,,,,,,,,,,,,,,,,,,,
1769164076.823485,1769164076.8237,28.0,0.0,4292.820313,4276.410156,4352.563965,4327.692383,4263.205078,4267.94873,4293.846191,4320.769043,4289.102539,4277.94873,4586.282227,4542.692383,4412.563965,4508.717773,,,,,,,,,,,,,,,,,,,,,,,,,,,,,,,,,,,,,,,,,,,,,,,,,,,,,,,,,,,,,,,,,,,,,,
1769164076.831293,1769164076.831508,29.0,0.0,4297.05127,4279.615234,4353.205078,4332.94873,4267.563965,4263.077148,4295.384766,4321.794922,4292.179688,4280.128418,4589.102539,4550.641113,4420.897461,4517.436035,,,,,,,,,,,,,,,,,,,,,,,,,,,,,,,,,,,,,,,,,,,,,,,,,,,,,,,,,,,,,,,,,,,,,,
1769164076.839102,1769164076.839217,30.0,0.0,4298.461426,4279.230957,4356.794922,4336.794922,4270.769043,4265.384766,4294.743652,4325.769043,4294.487305,4281.666504,4593.974121,4556.794922,4428.846191,4525.897461,0.731158,1.240269,0.308226,0.36603,0.248865,0.921245,0.785668,0.136579,0.18809,0.179527,0.323392,0.631488,0.28783,0.222407,0.116205,0.505922,0.575916,0.153905,0.187339,0.121437,0.266469,0.142528,0.182715,0.107829,0.086956,0.177344,0.484615,0.326264,0.168432,0.113522,0.07723,0.232566,0.191413,0.088867,0.097212,0.268424,0.284026,0.117373,0.091073,0.05608,0.523169,0.873287,0.137218,0.223554,0.123975,0.58867,0.619269,0.135409,0.180889,0.162428,0.785697,0.396301,0.271165,0.318966,0.117086,0.179559,1.106191,0.288822,0.471419,0.206521,0.892301,0.555627,0.327214,0.310759,0.147932,0.390823,1.15607,0.402841,0.598077,0.252204
1769164076.84691,1769164076.847025,31.0,0.0,4300.0,4280.897461,4359.487305,4338.717773,4268.846191,4264.102539,4292.436035,4324.615234,4287.820313,4279.230957,4591.922852,4553.717773,4424.487305,4524.615234,,,,,,,,,,,,,,,,,,,,,,,,,,,,,,,,,,,,,,,,,,,,,,,,,,,,,,,,,,,,,,,,,,,,,,
1769164076.854719,1769164076.855033,32.0,0.0,4297.179688,4281.538574,4357.436035,4341.282227,4266.410156,4263.333496,4293.974121,4320.641113,4281.025879,4276.410156,4587.436035,4549.102539,4418.077148,4517.307617,,,,,,,,,,,,,,,,,,,,,,,,,,,,,,,,,,,,,,,,,,,,,,,,,,,,,,,,,,,,,,,,,,,,,,
1769164076.862527,1769164076.862842,33.0,0.0,4294.615234,4278.461426,4355.256348,4340.384766,4265.641113,4268.077148,4294.358887,4318.333496,4280.0,4277.692383,4587.94873,4551.538574,4419.615234,4515.897461,,,,,,,,,,,,,,,,,,,,,,,,,,,,,,,,,,,,,,,,,,,,,,,,,,,,,,,,,,,,,,,,,,,,,,
1769164076.870335,1769164076.87075,34.0,0.0,4302.436035,4278.461426,4355.897461,4335.384766,4264.871582,4266.153809,4293.717773,4317.05127,4281.538574,4278.589844,4589.615234,4553.205078,4423.205078,4521.666504,,,,,,,,,,,,,,,,,,,,,,,,,,,,,,,,,,,,,,,,,,,,,,,,,,,,,,,,,,,,,,,,,,,,,,
1769164076.878144,1769164076.878559,35.0,0.0,4306.538574,4279.230957,4355.769043,4334.871582,4265.0,4264.358887,4299.615234,4320.256348,4286.153809,4277.179688,4586.025879,4550.641113,4417.563965,4518.461426,,,,,,,,,,,,,,,,,,,,,,,,,,,,,,,,,,,,,,,,,,,,,,,,,,,,,,,,,,,,,,,,,,,,,,
1769164076.885952,1769164076.886467,36.0,0.0,4303.717773,4277.692383,4356.282227,4337.436035,4266.666504,4270.128418,4302.307617,4327.179688,4294.230957,4279.487305,4586.794922,4552.563965,4413.333496,4510.0,,,,,,,,,,,,,,,,,,,,,,,,,,,,,,,,,,,,,,,,,,,,,,,,,,,,,,,,,,,,,,,,,,,,,,
1769164076.893761,1769164076.894275,37.0,0.0,4307.307617,4283.205078,4358.974121,4337.179688,4265.512695,4269.871582,4294.871582,4327.820313,4297.436035,4281.410156,4593.461426,4557.94873,4423.717773,4514.871582,,,,,,,,,,,,,,,,,,,,,,,,,,,,,,,,,,,,,,,,,,,,,,,,,,,,,,,,,,,,,,,,,,,,,,
1769164076.901569,1769164076.901984,38.0,0.0,4309.615234,4288.077148,4357.820313,4333.974121,4266.666504,4265.897461,4293.589844,4324.615234,4293.589844,4278.589844,4591.282227,4554.230957,4425.256348,4516.794922,,,,,,,,,,,,,,,,,,,,,,,,,,,,,,,,,,,,,,,,,,,,,,,,,,,,,,,,,,,,,,,,,,,,,,
1769164076.909378,1769164076.909792,39.0,0.0,4303.974121,4281.282227,4355.256348,4334.358887,4270.0,4265.384766,4298.333496,4326.025879,4292.820313,4276.538574,4583.205078,4547.179688,4415.641113,4506.538574,,,,,,,,,,,,,,,,,,,,,,,,,,,,,,,,,,,,,,,,,,,,,,,,,,,,,,,,,,,,,,,,,,,,,,
1769164076.917186,1769164076.917801,40.0,0.0,4304.487305,4280.769043,4356.153809,4337.563965,4268.846191,4267.307617,4295.512695,4327.563965,4294.487305,4277.692383,4587.94873,4551.153809,4418.589844,4505.512695,,,,,,,,,,,,,,,,,,,,,,,,,,,,,,,,,,,,,,,,,,,,,,,,,,,,,,,,,,,,,,,,,,,,,,
1769164076.924995,1769164076.925609,41.0,0.0,4311.794922,4290.641113,4353.077148,4337.05127,4266.025879,4271.153809,4293.846191,4326.025879,4296.922852,4279.615234,4596.282227,4554.487305,4425.128418,4513.717773,,,,,,,,,,,,,,,,,,,,,,,,,,,,,,,,,,,,,,,,,,,,,,,,,,,,,,,,,,,,,,,,,,,,,,
1769164076.932803,1769164076.933318,42.0,0.0,4308.461426,4291.282227,4345.897461,4333.333496,4265.641113,4277.307617,4299.358887,4325.641113,4293.205078,4278.077148,4589.230957,4545.512695,4416.666504,4507.436035,,,,,,,,,,,,,,,,,,,,,,,,,,,,,,,,,,,,,,,,,,,,,,,,,,,,,,,,,,,,,,,,,,,,,,
1769164076.940611,1769164076.941126,43.0,0.0,4307.436035,4290.769043,4349.358887,4335.256348,4268.333496,4277.179688,4299.615234,4324.230957,4286.666504,4276.410156,4586.666504,4543.846191,4415.641113,4504.230957,,,,,,,,,,,,,,,,,,,,,,,,,,,,,,,,,,,,,,,,,,,,,,,,,,,,,,,,,,,,,,,,,,,,,,
1769164076.94842,1769164076.948735,44.0,0.0,4319.487305,4295.128418,4358.589844,4341.025879,4266.666504,4271.794922,4295.0,4320.128418,4290.641113,4279.102539,4596.282227,4555.897461,4426.538574,4519.358887,,,,,,,,,,,,,,,,,,,,,,,,,,,,,,,,,,,,,,,,,,,,,,,,,,,,,,,,,,,,,,,,,,,,,,
1769164076.956228,1769164076.956543,45.0,0.0,4320.769043,4287.820313,4355.897461,4337.563965,4265.256348,4275.512695,4297.820313,4317.179688,4292.563965,4277.307617,4596.410156,4551.794922,4422.563965,4519.102539,,,,,,,,,,,,,,,,,,,,,,,,,,,,,,,,,,,,,,,,,,,,,,,,,,,,,,,,,,,,,,,,,,,,,,
1769164076.964037,1769164076.964252,46.0,0.0,4311.282227,4280.128418,4348.077148,4332.307617,4270.641113,4276.410156,4300.128418,4320.128418,4288.333496,4276.538574,4594.615234,4540.769043,4421.794922,4512.307617,0.816974,1.494768,0.319941,0.362021,0.255554,0.832197,0.940208,0.186416,0.207809,0.16792,0.307987,0.76077,0.271393,0.233706,0.11626,0.554507,0.638331,0.15351,0.175676,0.119567,0.276972,0.135249,0.15698,0.103589,0.073076,0.18265,0.698527,0.425593,0.178443,0.120669,0.079671,0.304828,0.253145,0.098327,0.095411,0.255231,0.309648,0.173451,0.095578,0.063811,0.501412,0.819691,0.153548,0.214395,0.123862,0.567596,0.730627,0.186706,0.193628,0.171258,0.653463,0.496026,0.295138,0.332384,0.124387,0.1609,1.37816,0.391278,0.535029,0.237712,0.747867,0.702013,0.404598,0.325051,0.142228,0.302247,1.330867,0.487481,0.65071,0.271329
1769164076.971845,1769164076.97206,47.0,0.0,4312.05127,4282.307617,4347.820313,4334.102539,4271.922852,4268.205078,4296.794922,4323.077148,4291.538574,4279.102539,4595.384766,4542.94873,4426.922852,4515.0,,,,,,,,,,,,,,,,,,,,,,,,,,,,,,,,,,,,,,,,,,,,,,,,,,,,,,,,,,,,,,,,,,,,,,
1769164076.979654,1769164076.980068,48.0,0.0,4319.230957,4281.922852,4351.153809,4335.128418,4265.641113,4263.846191,4294.871582,4317.820313,4292.05127,4271.794922,4591.025879,4546.922852,4421.153809,4517.307617,,,,,,,,,,,,,,,,,,,,,,,,,,,,,,,,,,,,,,,,,,,,,,,,,,,,,,,,,,,,,,,,,,,,,,
1769164076.987462,1769164076.987877,49.0,0.0,4319.230957,4281.282227,4349.871582,4333.846191,4261.794922,4264.230957,4293.077148,4311.025879,4284.230957,4266.282227,4589.102539,4544.743652,4417.05127,4517.307617,,,,,,,,,,,,,,,,,,,,,,,,,,,,,,,,,,,,,,,,,,,,,,,,,,,,,,,,,,,,,,,,,,,,,,
1769164076.995271,1769164076.995785,50.0,0.0,4318.333496,4289.102539,4345.384766,4336.410156,4264.743652,4261.666504,4290.256348,4311.410156,4287.307617,4276.153809,4592.692383,4544.743652,4422.692383,4518.717773,,,,,,,,,,,,,,,,,,,,,,,,,,,,,,,,,,,,,,,,,,,,,,,,,,,,,,,,,,,,,,,,,,,,,,
1769164077.003079,1769164077.003594,51.0,0.0,4324.743652,4293.205078,4341.666504,4338.846191,4266.538574,4259.102539,4291.410156,4315.897461,4296.538574,4282.179688,4596.153809,4543.461426,4428.846191,4520.128418,,,,,,,,,,,,,,,,,,,,,,,,,,,,,,,,,,,,,,,,,,,,,,,,,,,,,,,,,,,,,,,,,,,,,,
1769164077.010888,1769164077.011602,52.0,0.0,4327.05127,4286.410156,4340.0,4337.94873,4265.641113,4265.384766,4292.94873,4318.974121,4292.820313,4274.743652,4594.615234,4540.384766,4428.846191,4521.666504,,,,,,,,,,,,,,,,,,,,,,,,,,,,,,,,,,,,,,,,,,,,,,,,,,,,,,,,,,,,,,,,,,,,,,
1769164077.018696,1769164077.01941,53.0,0.0,4319.230957,4279.358887,4340.384766,4335.641113,4263.974121,4273.846191,4294.487305,4320.256348,4290.897461,4272.820313,4588.974121,4546.794922,4424.358887,4521.538574,,,,,,,,,,,,,,,,,,,,,,,,,,,,,,,,,,,,,,,,,,,,,,,,,,,,,,,,,,,,,,,,,,,,,,
1769164077.026504,1769164077.027319,54.0,0.0,4314.487305,4278.205078,4340.769043,4331.025879,4264.615234,4279.743652,4299.615234,4320.769043,4294.743652,4274.230957,4586.153809,4549.743652,4417.436035,4509.487305,,,,,,,,,,,,,,,,,,,,,,,,,,,,,,,,,,,,,,,,,,,,,,,,,,,,,,,,,,,,,,,,,,,,,,
1769164077.034313,1769164077.035127,55.0,0.0,4320.256348,4278.589844,4337.692383,4330.384766,4271.153809,4281.794922,4301.794922,4320.512695,4293.461426,4269.102539,4586.410156,4539.871582,4417.563965,4502.692383,,,,,,,,,,,,,,,,,,,,,,,,,,,,,,,,,,,,,,,,,,,,,,,,,,,,,,,,,,,,,,,,,,,,,,
1769164077.042121,1769164077.042736,56.0,0.0,4327.820313,4279.487305,4333.717773,4338.333496,4277.692383,4281.410156,4299.230957,4319.230957,4291.025879,4269.358887,4585.897461,4535.769043,4425.897461,4514.230957,,,,,,,,,,,,,,,,,,,,,,,,,,,,,,,,,,,,,,,,,,,,,,,,,,,,,,,,,,,,,,,,,,,,,,
1769164077.04993,1769164077.050544,57.0,0.0,4327.307617,4281.922852,4332.179688,4341.282227,4279.743652,4282.94873,4299.102539,4315.641113,4294.358887,4274.230957,4586.282227,4539.743652,4430.0,4525.897461,,,,,,,,,,,,,,,,,,,,,,,,,,,,,,,,,,,,,,,,,,,,,,,,,,,,,,,,,,,,,,,,,,,,,,
1769164077.057738,1769164077.058453,58.0,0.0,4323.461426,4283.461426,4333.717773,4335.897461,4278.589844,4283.717773,4299.230957,4310.641113,4294.743652,4274.230957,4584.358887,4540.128418,4424.743652,4521.794922,,,,,,,,,,,,,,,,,,,,,,,,,,,,,,,,,,,,,,,,,,,,,,,,,,,,,,,,,,,,,,,,,,,,,,
1769164077.065547,1769164077.066261,59.0,0.0,4328.333496,4286.922852,4338.974121,4337.692383,4278.077148,4282.179688,4297.436035,4312.179688,4292.820313,4274.358887,4585.0,4542.820313,4427.94873,4519.487305,,,,,,,,,,,,,,,,,,,,,,,,,,,,,,,,,,,,,,,,,,,,,,,,,,,,,,,,,,,,,,,,,,,,,,
1769164077.073355,1769164077.074269,60.0,0.0,4336.410156,4293.461426,4343.974121,4344.487305,4279.615234,4276.666504,4295.769043,4322.820313,4299.743652,4281.922852,4597.820313,4554.743652,4444.230957,4535.128418,,,,,,,,,,,,,,,,,,,,,,,,,,,,,,,,,,,,,,,,,,,,,,,,,,,,,,,,,,,,,,,,,,,,,,
1769164077.081164,1769164077.082078,61.0,0.0,4335.641113,4294.230957,4342.179688,4343.846191,4276.922852,4275.0,4295.384766,4328.077148,4303.974121,4283.589844,4598.974121,4558.333496,4442.436035,4538.589844,,,,,,,,,,,,,,,,,,,,,,,,,,,,,,,,,,,,,,,,,,,,,,,,,,,,,,,,,,,,,,,,,,,,,,
1769164077.088972,1769164077.089786,62.0,0.0,4335.0,4291.282227,4337.307617,4339.871582,4271.666504,4279.358887,4297.179688,4319.615234,4295.897461,4273.333496,4583.846191,4551.794922,4425.128418,4523.461426,0.884196,1.707514,0.382588,0.364074,0.244531,0.760204,1.057363,0.288241,0.242468,0.154149,0.262694,0.875658,0.269524,0.235677,0.11534,0.606993,0.69471,0.182815,0.165795,0.112746,0.286111,0.134043,0.141087,0.097357,0.059768,0.207778,0.941393,0.564518,0.189216,0.128077,0.086727,0.379425,0.322855,0.103739,0.090963,0.235231,0.330605,0.242683,0.103226,0.072212,0.464469,0.73423,0.190879,0.209307,0.124171,0.538328,0.808424,0.28738,0.220179,0.179605,0.535895,0.618144,0.371439,0.362469,0.140804,0.149026,1.637469,0.527484,0.577995,0.273054,0.624928,0.896361,0.520674,0.36154,0.138213,0.237777,1.499048,0.645011,0.691918,0.281286
1769164077.096781,1769164077.097595,63.0,0.0,4342.307617,4290.641113,4338.589844,4340.769043,4270.256348,4275.512695,4296.538574,4313.846191,4292.436035,4273.589844,4586.153809,4551.666504,4426.794922,4521.922852,,,,,,,,,,,,,,,,,,,,,,,,,,,,,,,,,,,,,,,,,,,,,,,,,,,,,,,,,,,,,,,,,,,,,,
