Timestamp,OriginalTimestamp,EEG.Counter,EEG.Interpolated,EEG.AF3,EEG.F7,EEG.F3,EEG.FC5,EEG.T7,EEG.P7,EEG.O1,EEG.O2,EEG.P8,EEG.T8,EEG.FC6,EEG.F4,EEG.F8,EEG.AF4,POW.AF3.Theta,POW.AF3.Alpha,POW.AF3.BetaL,POW.AF3.BetaH,POW.AF3.Gamma,POW.F7.Theta,POW.F7.Alpha,POW.F7.BetaL,POW.F7.BetaH,POW.F7.Gamma,POW.F3.Theta,POW.F3.Alpha,POW.F3.BetaL,POW.F3.BetaH,POW.F3.Gamma,POW.FC5.Theta,POW.FC5.Alpha,POW.FC5.BetaL,POW.FC5.BetaH,POW.FC5.Gamma,POW.T7.Theta,POW.T7.Alpha,POW.T7.BetaL,POW.T7.BetaH,POW.T7.Gamma,POW.P7.Theta,POW.P7.Alpha,POW.P7.BetaL,POW.P7.BetaH,POW.P7.Gamma,POW.O1.Theta,POW.O1.Alpha,POW.O1.BetaL,POW.O1.BetaH,POW.O1.Gamma,POW.O2.Theta,POW.O2.Alpha,POW.O2.BetaL,POW.O2.BetaH,POW.O2.Gamma,POW.P8.Theta,POW.P8.Alpha,POW.P8.BetaL,POW.P8.BetaH,POW.P8.Gamma,POW.T8.Theta,POW.T8.Alpha,POW.T8.BetaL,POW.T8.BetaH,POW.T8.Gamma,POW.FC6.Theta,POW.FC6.Alpha,POW.FC6.BetaL,POW.FC6.BetaH,POW.FC6.Gamma,POW.F4.Theta,POW.F4.Alpha,POW.F4.BetaL,POW.F4.BetaH,POW.F4.Gamma,POW.F8.Theta,POW.F8.Alpha,POW.F8.BetaL,POW.F8.BetaH,POW.F8.Gamma,POW.AF4.Theta,POW.AF4.Alpha,POW.AF4.BetaL,POW.AF4.BetaH,POW.AF4.Gamma
1768920117.08875,1768920117.089522,79.0,0.0,4358.974121,4337.436035,4349.358887,4357.563965,4333.846191,4333.846191,4336.025879,4355.128418,4343.205078,4326.025879,4509.743652,4526.666504,4412.179688,4461.922852,,,,,,,,,,,,,,,,,,,,,,,,,,,,,,,,,,,,,,,,,,,,,,,,,,,,,,,,,,,,,,,,,,,,,,
1768920117.096559,1768920117.097531,80.0,0.0,4357.307617,4340.256348,4342.179688,4357.94873,4342.307617,4340.897461,4338.461426,4353.333496,4344.487305,4329.615234,4509.743652,4523.077148,4417.692383,4458.974121,1.037267,0.83375,0.479156,0.132276,0.110904,0.487832,0.25181,0.360693,0.197764,0.099825,0.980564,0.475911,0.420573,0.209886,0.072811,0.503532,0.24283,0.372228,0.254988,0.085614,0.121019,0.119594,0.090693,0.102241,0.071651,0.165876,0.221751,0.08944,0.148995,0.193779,0.292098,0.374499,0.217048,0.278903,0.207144,0.192377,0.1512,0.181455,0.168268,0.142303,0.436525,0.275966,0.202937,0.174896,0.093027,0.254449,0.393959,0.193325,0.141591,0.091247,0.512332,0.330706,0.220259,0.334303,0.110793,1.102226,0.466132,0.356813,0.477837,0.119038,0.898033,0.500941,0.512616,0.27078,0.144862,0.482492,0.51909,0.466719,0.279015,0.192032
1768920117.104367,1768920117.105339,81.0,0.0,4354.102539,4339.871582,4343.333496,4355.256348,4340.384766,4342.179688,4345.0,4344.358887,4337.307617,4325.0,4509.230957,4523.974121,4419.487305,4459.615234,,,,,,,,,,,,,,,,,,,,,,,,,,,,,,,,,,,,,,,,,,,,,,,,,,,,,,,,,,,,,,,,,,,,,,
1768920117.112176,1768920117.113247,82.0,0.0,4352.563965,4340.0,4350.0,4355.0,4337.94873,4341.025879,4348.717773,4342.179688,4331.538574,4319.102539,4508.461426,4529.102539,4419.615234,4462.563965,,,,,,,,,,,,,,,,,,,,,,,,,,,,,,,,,,,,,,,,,,,,,,,,,,,,,,,,,,,,,,,,,,,,,,
1768920117.119984,1768920117.121056,83.0,0.0,4351.025879,4338.589844,4352.692383,4356.282227,4339.743652,4332.563965,4341.922852,4347.94873,4330.256348,4315.512695,4506.666504,4526.666504,4415.897461,4461.538574,,,,,,,,,,,,,,,,,,,,,,,,,,,,,,,,,,,,,,,,,,,,,,,,,,,,,,,,,,,,,,,,,,,,,,
1768920117.127793,1768920117.129064,84.0,0.0,4348.333496,4334.743652,4346.794922,4355.769043,4336.538574,4330.384766,4339.230957,4355.897461,4337.94873,4315.769043,4507.179688,4523.205078,4413.589844,4460.128418,,,,,,,,,,,,,,,,,,,,,,,,,,,,,,,,,,,,,,,,,,,,,,,,,,,,,,,,,,,,,,,,,,,,,,
1768920117.135601,1768920117.136873,85.0,0.0,4345.897461,4334.743652,4341.538574,4356.153809,4334.871582,4339.230957,4344.871582,4352.563965,4336.922852,4314.230957,4504.615234,4519.743652,4413.205078,4459.743652,,,,,,,,,,,,,,,,,,,,,,,,,,,,,,,,,,,,,,,,,,,,,,,,,,,,,,,,,,,,,,,,,,,,,,
1768920117.14341,1768920117.144581,86.0,0.0,4341.538574,4338.461426,4340.512695,4356.153809,4337.692383,4337.307617,4342.94873,4344.358887,4325.256348,4313.589844,4501.025879,4512.692383,4411.794922,4454.487305,,,,,,,,,,,,,,,,,,,,,,,,,,,,,,,,,,,,,,,,,,,,,,,,,,,,,,,,,,,,,,,,,,,,,,
1768920117.151218,1768920117.15239,87.0,0.0,4338.205078,4336.538574,4340.512695,4352.179688,4333.717773,4328.461426,4337.94873,4346.153809,4326.153809,4320.128418,4505.769043,4516.153809,4412.820313,4455.384766,,,,,,,,,,,,,,,,,,,,,,,,,,,,,,,,,,,,,,,,,,,,,,,,,,,,,,,,,,,,,,,,,,,,,,
1768920117.159027,1768920117.159998,88.0,0.0,4335.128418,4329.615234,4340.384766,4350.384766,4328.717773,4331.922852,4340.128418,4351.922852,4331.666504,4318.846191,4506.410156,4522.05127,4410.0,4458.077148,,,,,,,,,,,,,,,,,,,,,,,,,,,,,,,,,,,,,,,,,,,,,,,,,,,,,,,,,,,,,,,,,,,,,,
1768920117.166835,1768920117.167807,89.0,0.0,4332.692383,4325.769043,4339.743652,4352.179688,4330.769043,4336.794922,4343.077148,4351.922852,4331.153809,4308.077148,4492.94873,4514.743652,4399.102539,4450.256348,,,,,,,,,,,,,,,,,,,,,,,,,,,,,,,,,,,,,,,,,,,,,,,,,,,,,,,,,,,,,,,,,,,,,,
1768920117.174644,1768920117.175515,90.0,0.0,4335.897461,4325.384766,4340.512695,4350.256348,4330.256348,4335.128418,4343.717773,4352.179688,4333.333496,4308.846191,4488.717773,4510.384766,4390.897461,4445.128418,,,,,,,,,,,,,,,,,,,,,,,,,,,,,,,,,,,,,,,,,,,,,,,,,,,,,,,,,,,,,,,,,,,,,,
1768920117.182452,1768920117.183324,91.0,0.0,4339.230957,4328.846191,4341.794922,4347.94873,4327.94873,4335.641113,4343.205078,4356.666504,4339.615234,4321.025879,4505.641113,4519.358887,4402.94873,4453.589844,,,,,,,,,,,,,,,,,,,,,,,,,,,,,,,,,,,,,,,,,,,,,,,,,,,,,,,,,,,,,,,,,,,,,,
1768920117.190261,1768920117.191332,92.0,0.0,4339.743652,4336.025879,4339.487305,4351.794922,4330.256348,4335.256348,4343.589844,4359.358887,4343.846191,4328.846191,4517.436035,4531.794922,4422.436035,4467.94873,,,,,,,,,,,,,,,,,,,,,,,,,,,,,,,,,,,,,,,,,,,,,,,,,,,,,,,,,,,,,,,,,,,,,,
1768920117.198069,1768920117.19914,93.0,0.0,4341.922852,4340.384766,4340.641113,4356.794922,4332.307617,4331.025879,4343.205078,4358.717773,4343.974121,4327.05127,4512.05127,4536.794922,4423.461426,4472.94873,,,,,,,,,,,,,,,,,,,,,,,,,,,,,,,,,,,,,,,,,,,,,,,,,,,,,,,,,,,,,,,,,,,,,,
1768920117.205878,1768920117.207049,94.0,0.0,4342.179688,4336.153809,4348.333496,4356.025879,4331.025879,4333.077148,4341.153809,4355.128418,4339.743652,4318.589844,4506.153809,4531.025879,4409.743652,4465.384766,,,,,,,,,,,,,,,,,,,,,,,,,,,,,,,,,,,,,,,,,,,,,,,,,,,,,,,,,,,,,,,,,,,,,,
1768920117.213686,1768920117.214858,95.0,0.0,4335.769043,4330.0,4346.538574,4348.589844,4329.358887,4339.743652,4341.666504,4357.94873,4338.205078,4311.922852,4507.05127,4525.769043,4404.102539,4457.94873,,,,,,,,,,,,,,,,,,,,,,,,,,,,,,,,,,,,,,,,,,,,,,,,,,,,,,,,,,,,,,,,,,,,,,
1768920117.221495,1768920117.222466,96.0,0.0,4336.410156,4325.897461,4334.487305,4342.94873,4325.769043,4341.538574,4345.384766,4361.922852,4340.769043,4315.512695,4507.820313,4527.05127,4408.205078,4457.94873,0.933747,0.776798,0.398157,0.150735,0.113245,0.386804,0.239957,0.393006,0.220403,0.125307,1.068663,0.404775,0.411779,0.259871,0.079383,0.486939,0.200674,0.392133,0.284025,0.10001,0.127568,0.132076,0.105338,0.104516,0.070712,0.154081,0.211479,0.076987,0.167668,0.177123,0.285112,0.313803,0.203506,0.298601,0.193248,0.231347,0.171173,0.185769,0.154088,0.132855,0.428922,0.337386,0.245499,0.166969,0.084443,0.268338,0.328679,0.156483,0.137357,0.078277,0.552814,0.320469,0.20192,0.337936,0.123491,1.01563,0.411843,0.312159,0.588891,0.124449,0.887633,0.435795,0.408925,0.303068,0.14355,0.421201,0.521161,0.393284,0.323607,0.191504
1768920117.229303,1768920117.230274,97.0,0.0,4342.307617,4326.025879,4331.922852,4344.230957,4326.410156,4341.282227,4345.897461,4357.436035,4338.717773,4319.615234,4507.563965,4528.205078,4408.205078,4461.410156,,,,,,,,,,,,,,,,,,,,,,,,,,,,,,,,,,,,,,,,,,,,,,,,,,,,,,,,,,,,,,,,,,,,,,
1768920117.237112,1768920117.237983,98.0,0.0,4341.410156,4327.307617,4340.256348,4349.358887,4329.487305,4336.153809,4339.615234,4353.589844,4335.128418,4315.769043,4506.922852,4525.641113,4402.307617,4464.871582,,,,,,,,,,,,,,,,,,,,,,,,,,,,,,,,,,,,,,,,,,,,,,,,,,,,,,,,,,,,,,,,,,,,,,
1768920117.24492,1768920117.245791,99.0,0.0,4345.128418,4327.307617,4346.538574,4351.922852,4330.256348,4329.358887,4336.922852,4355.384766,4336.666504,4314.615234,4506.025879,4525.256348,4402.307617,4465.384766,,,,,,,,,,,,,,,,,,,,,,,,,,,,,,,,,,,,,,,,,,,,,,,,,,,,,,,,,,,,,,,,,,,,,,
1768920117.252729,1768920117.253399,100.0,0.0,4349.743652,4328.589844,4345.897461,4350.128418,4331.922852,4338.717773,4342.307617,4355.897461,4339.358887,4321.153809,4507.179688,4527.94873,4405.897461,4459.743652,,,,,,,,,,,,,,,,,,,,,,,,,,,,,,,,,,,,,,,,,,,,,,,,,,,,,,,,,,,,,,,,,,,,,,
1768920117.260538,1768920117.261207,101.0,0.0,4346.538574,4328.846191,4339.358887,4345.256348,4329.487305,4348.974121,4344.487305,4354.743652,4340.256348,4322.436035,4508.205078,4528.461426,4405.256348,4459.615234,,,,,,,,,,,,,,,,,,,,,,,,,,,,,,,,,,,,,,,,,,,,,,,,,,,,,,,,,,,,,,,,,,,,,,
1768920117.268346,1768920117.269116,102.0,0.0,4344.230957,4325.769043,4337.307617,4341.538574,4325.128418,4336.794922,4340.128418,4356.410156,4339.487305,4317.307617,4506.282227,4527.436035,4406.282227,4463.846191,,,,,,,,,,,,,,,,,,,,,,,,,,,,,,,,,,,,,,,,,,,,,,,,,,,,,,,,,,,,,,,,,,,,,,
1768920117.276154,1768920117.276924,103.0,0.0,4346.282227,4326.025879,4343.077148,4342.820313,4327.563965,4326.794922,4339.871582,4355.769043,4335.641113,4313.717773,4504.615234,4527.05127,4408.461426,4461.410156,,,,,,,,,,,,,,,,,,,,,,,,,,,,,,,,,,,,,,,,,,,,,,,,,,,,,,,,,,,,,,,,,,,,,,
1768920117.283963,1768920117.284932,104.0,0.0,4342.436035,4328.461426,4343.589844,4347.179688,4331.666504,4338.461426,4344.743652,4349.743652,4331.282227,4311.410156,4505.641113,4525.769043,4403.974121,4458.846191,,,,,,,,,,,,,,,,,,,,,,,,,,,,,,,,,,,,,,,,,,,,,,,,,,,,,,,,,,,,,,,,,,,,,,
1768920117.291772,1768920117.292741,105.0,0.0,4338.077148,4324.102539,4338.205078,4347.563965,4328.846191,4340.641113,4342.563965,4347.179688,4329.230957,4312.05127,4506.153809,4526.025879,4398.461426,4459.615234,,,,,,,,,,,,,,,,,,,,,,,,,,,,,,,,,,,,,,,,,,,,,,,,,,,,,,,,,,,,,,,,,,,,,,
1768920117.29958,1768920117.300649,106.0,0.0,4344.358887,4323.077148,4338.461426,4345.769043,4325.512695,4328.077148,4337.179688,4354.230957,4331.153809,4311.153809,4505.512695,4531.410156,4399.487305,4461.666504,,,,,,,,,,,,,,,,,,,,,,,,,,,,,,,,,,,,,,,,,,,,,,,,,,,,,,,,,,,,,,,,,,,,,,
1768920117.307389,1768920117.308458,107.0,0.0,4351.025879,4330.128418,4342.94873,4348.846191,4329.358887,4328.077148,4338.461426,4356.666504,4332.307617,4307.692383,4505.256348,4532.820313,4401.410156,4463.846191,,,,,,,,,,,,,,,,,,,,,,,,,,,,,,,,,,,,,,,,,,,,,,,,,,,,,,,,,,,,,,,,,,,,,,
1768920117.315197,1768920117.316466,108.0,0.0,4352.563965,4329.230957,4343.333496,4350.641113,4332.179688,4340.512695,4343.333496,4350.769043,4329.615234,4309.615234,4504.871582,4522.692383,4398.717773,4462.179688,,,,,,,,,,,,,,,,,,,,,,,,,,,,,,,,,,,,,,,,,,,,,,,,,,,,,,,,,,,,,,,,,,,,,,
1768920117.323006,1768920117.324274,109.0,0.0,4348.589844,4322.692383,4338.589844,4342.692383,4327.820313,4340.128418,4343.589844,4353.077148,4330.769043,4312.692383,4505.512695,4514.871582,4395.897461,4459.358887,,,,,,,,,,,,,,,,,,,,,,,,,,,,,,,,,,,,,,,,,,,,,,,,,,,,,,,,,,,,,,,,,,,,,,
1768920117.330814,1768920117.331983,110.0,0.0,4344.358887,4322.563965,4333.846191,4340.256348,4324.743652,4329.230957,4342.820313,4358.461426,4336.794922,4312.307617,4507.307617,4516.538574,4396.538574,4457.692383,,,,,,,,,,,,,,,,,,,,,,,,,,,,,,,,,,,,,,,,,,,,,,,,,,,,,,,,,,,,,,,,,,,,,,
1768920117.338623,1768920117.339791,111.0,0.0,4346.025879,4326.922852,4334.743652,4345.128418,4328.461426,4330.0,4343.717773,4356.282227,4336.282227,4309.487305,4503.717773,4517.436035,4397.692383,4458.077148,,,,,,,,,,,,,,,,,,,,,,,,,,,,,,,,,,,,,,,,,,,,,,,,,,,,,,,,,,,,,,,,,,,,,,
1768920117.346431,1768920117.3474,112.0,0.0,4350.897461,4328.461426,4336.794922,4343.974121,4330.384766,4338.717773,4341.025879,4351.922852,4328.077148,4303.205078,4493.846191,4512.563965,4389.487305,4458.205078,0.78786,0.685313,0.320118,0.175455,0.117148,0.313044,0.246961,0.410049,0.246123,0.151439,1.094016,0.339867,0.390962,0.301012,0.091018,0.470278,0.179652,0.413629,0.303368,0.112913,0.146144,0.141306,0.119844,0.10586,0.070568,0.148424,0.206822,0.065763,0.178146,0.159124,0.277379,0.256021,0.184952,0.318329,0.182307,0.278171,0.187653,0.180639,0.148218,0.129966,0.428777,0.379648,0.273715,0.166698,0.08239,0.309328,0.278023,0.128305,0.142575,0.069123,0.574689,0.308404,0.197218,0.349036,0.140177,0.92594,0.378587,0.285275,0.67099,0.130878,0.857087,0.369498,0.333294,0.338181,0.143671,0.358249,0.503316,0.332583,0.362126,0.194469
1768920117.35424,1768920117.355208,113.0,0.0,4357.436035,4328.717773,4334.743652,4342.94873,4328.974121,4338.461426,4340.897461,4348.077148,4326.538574,4298.589844,4490.769043,4507.179688,4386.666504,4457.94873,,,,,,,,,,,,,,,,,,,,,,,,,,,,,,,,,,,,,,,,,,,,,,,,,,,,,,,,,,,,,,,,,,,,,,
1768920117.362048,1768920117.362917,114.0,0.0,4358.589844,4328.077148,4334.743652,4342.436035,4326.410156,4326.922852,4339.743652,4343.205078,4327.05127,4302.05127,4493.717773,4509.743652,4393.846191,4457.436035,,,,,,,,,,,,,,,,,,,,,,,,,,,,,,,,,,,,,,,,,,,,,,,,,,,,,,,,,,,,,,,,,,,,,,
1768920117.369857,1768920117.370725,115.0,0.0,4354.358887,4325.128418,4340.641113,4340.256348,4324.487305,4320.256348,4330.384766,4346.153809,4323.846191,4300.512695,4492.692383,4518.717773,4393.205078,4458.589844,,,,,,,,,,,,,,,,,,,,,,,,,,,,,,,,,,,,,,,,,,,,,,,,,,,,,,,,,,,,,,,,,,,,,,
1768920117.377665,1768920117.378334,116.0,0.0,4353.589844,4327.94873,4342.179688,4345.0,4325.512695,4324.230957,4326.538574,4353.205078,4321.794922,4293.589844,4491.410156,4521.025879,4386.666504,4459.230957,,,,,,,,,,,,,,,,,,,,,,,,,,,,,,,,,,,,,,,,,,,,,,,,,,,,,,,,,,,,,,,,,,,,,,
1768920117.385474,1768920117.386142,117.0,0.0,4352.820313,4333.846191,4337.563965,4349.358887,4325.0,4325.769043,4334.102539,4351.922852,4324.358887,4297.307617,4491.922852,4511.794922,4385.641113,4453.717773,,,,,,,,,,,,,,,,,,,,,,,,,,,,,,,,,,,,,,,,,,,,,,,,,,,,,,,,,,,,,,,,,,,,,,
1768920117.393282,1768920117.394051,118.0,0.0,4353.205078,4333.589844,4335.769043,4345.0,4325.256348,4326.025879,4340.512695,4351.538574,4328.461426,4301.410156,4493.974121,4510.512695,4389.615234,4451.666504,,,,,,,,,,,,,,,,,,,,,,,,,,,,,,,,,,,,,,,,,,,,,,,,,,,,,,,,,,,,,,,,,,,,,,
1768920117.401091,1768920117.401859,119.0,0.0,4352.436035,4327.820313,4335.0,4342.692383,4328.717773,4330.769043,4342.05127,4352.692383,4327.179688,4300.897461,4496.666504,4519.615234,4393.846191,4455.384766,,,,,,,,,,,,,,,,,,,,,,,,,,,,,,,,,,,,,,,,,,,,,,,,,,,,,,,,,,,,,,,,,,,,,,
1768920117.408899,1768920117.409868,120.0,0.0,4345.512695,4325.0,4333.846191,4344.615234,4330.128418,4336.153809,4345.128418,4348.461426,4325.769043,4303.846191,4495.897461,4518.589844,4395.128418,4459.487305,,,,,,,,,,,,,,,,,,,,,,,,,,,,,,,,,,,,,,,,,,,,,,,,,,,,,,,,,,,,,,,,,,,,,,
1768920117.416708,1768920117.417676,121.0,0.0,4343.077148,4328.974121,4333.717773,4344.102539,4327.563965,4332.307617,4339.358887,4344.487305,4326.153809,4304.230957,4490.769043,4509.102539,4389.871582,4457.05127,,,,,,,,,,,,,,,,,,,,,,,,,,,,,,,,,,,,,,,,,,,,,,,,,,,,,,,,,,,,,,,,,,,,,,
1768920117.424516,1768920117.425384,122.0,0.0,4346.025879,4334.102539,4328.333496,4346.410156,4324.615234,4322.94873,4327.692383,4345.256348,4324.615234,4300.256348,4487.692383,4501.794922,4386.666504,4448.846191,,,,,,,,,,,,,,,,,,,,,,,,,,,,,,,,,,,,,,,,,,,,,,,,,,,,,,,,,,,,,,,,,,,,,,
1768920117.432325,1768920117.433193,123.0,0.0,4342.179688,4334.615234,4324.615234,4347.692383,4326.025879,4325.0,4332.179688,4352.563965,4326.282227,4303.333496,4493.589844,4503.461426,4391.666504,4446.666504,,,,,,,,,,,,,,,,,,,,,,,,,,,,,,,,,,,,,,,,,,,,,,,,,,,,,,,,,,,,,,,,,,,,,,
1768920117.440133,1768920117.440801,124.0,0.0,4341.410156,4333.846191,4334.487305,4348.205078,4332.05127,4332.94873,4343.077148,4354.358887,4329.230957,4311.410156,4502.820313,4517.307617,4399.102539,4453.846191,,,,,,,,,,,,,,,,,,,,,,,,,,,,,,,,,,,,,,,,,,,,,,,,,,,,,,,,,,,,,,,,,,,,,,
1768920117.447942,1768920117.448609,125.0,0.0,4349.230957,4339.743652,4345.897461,4353.333496,4334.230957,4332.436035,4344.871582,4346.153809,4326.025879,4314.230957,4509.615234,4527.179688,4405.769043,4468.077148,,,,,,,,,,,,,,,,,,,,,,,,,,,,,,,,,,,,,,,,,,,,,,,,,,,,,,,,,,,,,,,,,,,,,,
1768920117.45575,1768920117.456317,126.0,0.0,4348.846191,4342.179688,4343.974121,4354.615234,4328.846191,4327.05127,4340.256348,4345.0,4323.333496,4312.05127,4504.743652,4523.333496,4402.94873,4472.94873,,,,,,,,,,,,,,,,,,,,,,,,,,,,,,,,,,,,,,,,,,,,,,,,,,,,,,,,,,,,,,,,,,,,,,
1768920117.463559,1768920117.464126,127.0,0.0,4344.230957,4337.820313,4340.128418,4353.205078,4324.358887,4323.974121,4336.666504,4353.461426,4326.282227,4309.358887,4495.128418,4518.717773,4396.666504,4464.615234,,,,,,,,,,,,,,,,,,,,,,,,,,,,,,,,,,,,,,,,,,,,,,,,,,,,,,,,,,,,,,,,,,,,,,
1768920117.471367,1768920117.472134,0.0,0.0,4346.282227,4337.692383,4341.410156,4353.333496,4325.897461,4326.025879,4335.897461,4353.461426,4327.94873,4309.871582,4496.666504,4517.563965,4399.487305,4457.94873,0.650009,0.59212,0.25765,0.197244,0.122784,0.274315,0.283385,0.399479,0.264191,0.172452,1.0469,0.297024,0.358799,0.323721,0.107266,0.460314,0.182669,0.421664,0.304971,0.121338,0.172911,0.146081,0.1282,0.104862,0.070999,0.143676,0.202492,0.056791,0.17769,0.146759,0.261404,0.208292,0.163162,0.326384,0.176682,0.32511,0.196289,0.165467,0.143759,0.134149,0.427933,0.39447,0.277934,0.16692,0.087592,0.362603,0.256438,0.109758,0.153919,0.065511,0.5726,0.299938,0.199906,0.349149,0.156283,0.859854,0.390102,0.264752,0.689064,0.137514,0.811533,0.318666,0.292691,0.361322,0.145018,0.302306,0.475237,0.28947,0.380692,0.199491
1768920117.479176,1768920117.479942,1.0,0.0,4346.410156,4337.692383,4341.794922,4350.769043,4327.436035,4327.436035,4338.589844,4350.769043,4326.153809,4309.358887,4498.974121,4517.692383,4401.025879,4458.974121,,,,,,,,,,,,,,,,,,,,,,,,,,,,,,,,,,,,,,,,,,,,,,,,,,,,,,,,,,,,,,,,,,,,,,
1768920117.486984,1768920117.487851,2.0,0.0,4345.512695,4335.128418,4342.179688,4347.436035,4325.384766,4324.487305,4341.282227,4355.897461,4326.794922,4307.05127,4498.461426,4522.563965,4397.05127,4461.794922,,,,,,,,,,,,,,,,,,,,,,,,,,,,,,,,,,,,,,,,,,,,,,,,,,,,,,,,,,,,,,,,,,,,,,
1768920117.494793,1768920117.495659,3.0,0.0,4349.871582,4335.512695,4343.461426,4349.102539,4322.05127,4322.05127,4340.769043,4355.384766,4326.410156,4312.179688,4498.846191,4523.846191,4398.077148,4462.436035,,,,,,,,,,,,,,,,,,,,,,,,,,,,,,,,,,,,,,,,,,,,,,,,,,,,,,,,,,,,,,,,,,,,,,
1768920117.502602,1768920117.503667,4.0,0.0,4345.897461,4337.179688,4341.538574,4349.102539,4320.512695,4326.666504,4342.179688,4352.820313,4323.077148,4310.256348,4494.615234,4518.333496,4399.743652,4460.641113,,,,,,,,,,,,,,,,,,,,,,,,,,,,,,,,,,,,,,,,,,,,,,,,,,,,,,,,,,,,,,,,,,,,,,
1768920117.51041,1768920117.511476,5.0,0.0,4339.358887,4339.743652,4341.922852,4350.641113,4322.820313,4329.487305,4341.922852,4355.769043,4322.563965,4298.974121,4492.692383,4520.0,4394.102539,4462.692383,,,,,,,,,,,,,,,,,,,,,,,,,,,,,,,,,,,,,,,,,,,,,,,,,,,,,,,,,,,,,,,,,,,,,,
1768920117.518218,1768920117.519284,6.0,0.0,4346.538574,4343.333496,4349.743652,4359.230957,4326.153809,4322.179688,4338.589844,4355.256348,4325.256348,4306.025879,4504.102539,4526.794922,4399.615234,4472.307617,,,,,,,,,,,,,,,,,,,,,,,,,,,,,,,,,,,,,,,,,,,,,,,,,,,,,,,,,,,,,,,,,,,,,,
1768920117.526027,1768920117.527093,7.0,0.0,4352.563965,4340.769043,4351.538574,4359.743652,4326.538574,4320.897461,4338.205078,4355.128418,4327.307617,4321.538574,4512.436035,4529.615234,4409.743652,4473.589844,,,,,,,,,,,,,,,,,,,,,,,,,,,,,,,,,,,,,,,,,,,,,,,,,,,,,,,,,,,,,,,,,,,,,,
1768920117.533836,1768920117.534701,8.0,0.0,4345.256348,4336.153809,4344.743652,4351.410156,4325.0,4327.563965,4341.282227,4359.743652,4327.820313,4316.666504,4506.282227,4531.025879,4409.358887,4468.333496,,,,,,,,,,,,,,,,,,,,,,,,,,,,,,,,,,,,,,,,,,,,,,,,,,,,,,,,,,,,,,,,,,,,,,
1768920117.541644,1768920117.54251,9.0,0.0,4340.897461,4339.230957,4345.641113,4352.307617,4328.717773,4329.743652,4345.384766,4358.717773,4328.333496,4310.384766,4506.794922,4531.538574,4409.487305,4469.358887,,,,,,,,,,,,,,,,,,,,,,,,,,,,,,,,,,,,,,,,,,,,,,,,,,,,,,,,,,,,,,,,,,,,,,
1768920117.549453,1768920117.550218,10.0,0.0,4350.769043,4342.820313,4353.974121,4358.077148,4333.717773,4326.666504,4343.205078,4352.179688,4326.410156,4316.666504,4509.871582,4530.769043,4408.846191,4473.846191,,,,,,,,,,,,,,,,,,,,,,,,,,,,,,,,,,,,,,,,,,,,,,,,,,,,,,,,,,,,,,,,,,,,,,
1768920117.557261,1768920117.558027,11.0,0.0,4357.563965,4342.436035,4353.077148,4354.102539,4332.179688,4324.102539,4335.512695,4349.871582,4324.358887,4316.025879,4507.179688,4531.282227,4404.871582,4474.358887,,,,,,,,,,,,,,,,,,,,,,,,,,,,,,,,,,,,,,,,,,,,,,,,,,,,,,,,,,,,,,,,,,,,,,
1768920117.56507,1768920117.565635,12.0,0.0,4350.0,4337.563965,4344.615234,4347.820313,4328.333496,4326.538574,4333.589844,4354.230957,4327.05127,4310.0,4507.692383,4529.358887,4402.563965,4467.436035,,,,,,,,,,,,,,,,,,,,,,,,,,,,,,,,,,,,,,,,,,,,,,,,,,,,,,,,,,,,,,,,,,,,,,
1768920117.572878,1768920117.573444,13.0,0.0,4342.563965,4334.871582,4340.0,4347.820313,4327.820313,4326.282227,4336.922852,4359.615234,4327.436035,4311.538574,4507.94873,4521.025879,4400.0,4459.487305,,,,,,,,,,,,,,,,,,,,,,,,,,,,,,,,,,,,,,,,,,,,,,,,,,,,,,,,,,,,,,,,,,,,,,
1768920117.580687,1768920117.581152,14.0,0.0,4345.0,4339.615234,4345.128418,4352.307617,4327.436035,4325.128418,4339.743652,4358.589844,4329.358887,4313.846191,4506.410156,4520.641113,4396.153809,4461.282227,,,,,,,,,,,,,,,,,,,,,,,,,,,,,,,,,,,,,,,,,,,,,,,,,,,,,,,,,,,,,,,,,,,,,,
1768920117.588495,1768920117.588961,15.0,0.0,4346.922852,4337.563965,4350.897461,4353.717773,4327.692383,4333.461426,4345.128418,4359.230957,4335.641113,4313.846191,4506.282227,4528.205078,4396.153809,4464.358887,,,,,,,,,,,,,,,,,,,,,,,,,,,,,,,,,,,,,,,,,,,,,,,,,,,,,,,,,,,,,,,,,,,,,,
1768920117.596304,1768920117.596969,16.0,0.0,4338.974121,4326.922852,4345.128418,4346.794922,4325.512695,4338.974121,4345.769043,4361.922852,4332.820313,4312.563965,4505.897461,4523.077148,4396.922852,4458.589844,0.56744,0.520254,0.212696,0.209896,0.128285,0.260525,0.344838,0.35677,0.266658,0.183108,0.939826,0.279784,0.314598,0.326093,0.126176,0.451115,0.200398,0.398859,0.28706,0.122981,0.202312,0.14622,0.12626,0.100721,0.071682,0.135418,0.193508,0.051323,0.167309,0.145664,0.232985,0.176193,0.140771,0.314879,0.175474,0.364725,0.197744,0.145884,0.134903,0.14311,0.426835,0.387792,0.261629,0.159926,0.098157,0.421724,0.262844,0.100189,0.167457,0.0681,0.563995,0.304135,0.20057,0.325376,0.168369,0.842286,0.46177,0.234117,0.631217,0.143692,0.771644,0.296461,0.27788,0.365888,0.147501,0.265596,0.448621,0.257,0.375088,0.203884
1768920117.604112,1768920117.604778,17.0,0.0,4333.589844,4327.307617,4338.205078,4342.692383,4323.461426,4329.358887,4340.512695,4360.128418,4330.384766,4310.897461,4505.384766,4519.615234,4394.102539,4458.974121,,,,,,,,,,,,,,,,,,,,,,,,,,,,,,,,,,,,,,,,,,,,,,,,,,,,,,,,,,,,,,,,,,,,,,
1768920117.611921,1768920117.612686,18.0,0.0,4337.94873,4333.077148,4341.025879,4348.717773,4324.871582,4322.179688,4339.102539,4361.282227,4337.307617,4311.922852,4508.077148,4531.282227,4396.025879,4465.256348,,,,,,,,,,,,,,,,,,,,,,,,,,,,,,,,,,,,,,,,,,,,,,,,,,,,,,,,,,,,,,,,,,,,,,
1768920117.619729,1768920117.620494,19.0,0.0,4341.282227,4332.436035,4344.871582,4354.230957,4328.461426,4325.384766,4338.717773,4362.563965,4336.794922,4313.205078,4508.589844,4533.846191,4397.94873,4462.563965,,,,,,,,,,,,,,,,,,,,,,,,,,,,,,,,,,,,,,,,,,,,,,,,,,,,,,,,,,,,,,,,,,,,,,
1768920117.627538,1768920117.628103,20.0,0.0,4341.410156,4333.974121,4343.333496,4352.307617,4331.153809,4326.666504,4335.128418,4354.487305,4326.025879,4311.922852,4504.358887,4520.512695,4396.153809,4455.256348,,,,,,,,,,,,,,,,,,,,,,,,,,,,,,,,,,,,,,,,,,,,,,,,,,,,,,,,,,,,,,,,,,,,,,
1768920117.635346,1768920117.635911,21.0,0.0,4341.410156,4336.410156,4341.282227,4346.794922,4330.512695,4327.179688,4338.846191,4354.358887,4324.358887,4311.410156,4504.743652,4522.307617,4394.871582,4455.641113,,,,,,,,,,,,,,,,,,,,,,,,,,,,,,,,,,,,,,,,,,,,,,,,,,,,,,,,,,,,,,,,,,,,,,
1768920117.643155,1768920117.643619,22.0,0.0,4346.794922,4336.538574,4346.538574,4348.077148,4331.666504,4329.358887,4346.538574,4363.461426,4331.666504,4314.743652,4508.974121,4538.205078,4401.282227,4462.94873,,,,,,,,,,,,,,,,,,,,,,,,,,,,,,,,,,,,,,,,,,,,,,,,,,,,,,,,,,,,,,,,,,,,,,
1768920117.650963,1768920117.651428,23.0,0.0,4358.461426,4340.0,4353.205078,4353.974121,4333.974121,4324.743652,4337.307617,4357.820313,4332.563965,4316.282227,4509.487305,4541.410156,4405.897461,4464.615234,,,,,,,,,,,,,,,,,,,,,,,,,,,,,,,,,,,,,,,,,,,,,,,,,,,,,,,,,,,,,,,,,,,,,,
1768920117.658772,1768920117.659436,24.0,0.0,4363.461426,4341.538574,4349.487305,4354.358887,4331.153809,4322.05127,4324.871582,4351.794922,4328.205078,4314.358887,4507.94873,4531.922852,4400.256348,4461.794922,,,,,,,,,,,,,,,,,,,,,,,,,,,,,,,,,,,,,,,,,,,,,,,,,,,,,,,,,,,,,,,,,,,,,,
1768920117.66658,1768920117.667244,25.0,0.0,4360.897461,4336.410156,4345.256348,4351.410156,4327.307617,4330.128418,4335.256348,4359.102539,4325.128418,4314.230957,4508.077148,4527.692383,4398.077148,4461.153809,,,,,,,,,,,,,,,,,,,,,,,,,,,,,,,,,,,,,,,,,,,,,,,,,,,,,,,,,,,,,,,,,,,,,,
1768920117.674389,1768920117.675153,26.0,0.0,4364.102539,4331.282227,4347.563965,4352.307617,4328.846191,4334.358887,4345.512695,4358.846191,4325.641113,4312.692383,4505.769043,4528.717773,4399.871582,4460.0,,,,,,,,,,,,,,,,,,,,,,,,,,,,,,,,,,,,,,,,,,,,,,,,,,,,,,,,,,,,,,,,,,,,,,
1768920117.682197,1768920117.682961,27.0,0.0,4369.487305,4329.871582,4345.512695,4354.615234,4329.102539,4326.538574,4336.922852,4355.512695,4328.205078,4311.025879,4504.102539,4529.615234,4396.153809,4458.205078,,,,,,,,,,,,,,,,,,,,,,,,,,,,,,,,,,,,,,,,,,,,,,,,,,,,,,,,,,,,,,,,,,,,,,
1768920117.690006,1768920117.690969,28.0,0.0,4371.794922,4329.871582,4342.05127,4352.563965,4326.282227,4325.128418,4334.615234,4357.820313,4330.0,4313.846191,4507.179688,4528.461426,4395.769043,4460.641113,,,,,,,,,,,,,,,,,,,,,,,,,,,,,,,,,,,,,,,,,,,,,,,,,,,,,,,,,,,,,,,,,,,,,,
1768920117.697814,1768920117.698778,29.0,0.0,4372.563965,4329.487305,4343.333496,4348.077148,4325.769043,4330.897461,4340.641113,4356.153809,4328.846191,4313.846191,4506.794922,4525.384766,4400.384766,4462.05127,,,,,,,,,,,,,,,,,,,,,,,,,,,,,,,,,,,,,,,,,,,,,,,,,,,,,,,,,,,,,,,,,,,,,,
1768920117.705623,1768920117.706686,30.0,0.0,4368.333496,4332.820313,4342.307617,4347.94873,4324.230957,4326.794922,4336.410156,4354.358887,4325.897461,4310.256348,4502.820313,4523.333496,4398.461426,4455.897461,,,,,,,,,,,,,,,,,,,,,,,,,,,,,,,,,,,,,,,,,,,,,,,,,,,,,,,,,,,,,,,,,,,,,,
1768920117.713431,1768920117.714495,31.0,0.0,4364.871582,4337.563965,4342.179688,4355.512695,4326.410156,4322.692383,4331.282227,4356.538574,4324.743652,4311.666504,4505.128418,4521.922852,4395.0,4455.128418,,,,,,,,,,,,,,,,,,,,,,,,,,,,,,,,,,,,,,,,,,,,,,,,,,,,,,,,,,,,,,,,,,,,,,
1768920117.72124,1768920117.722403,32.0,0.0,4366.282227,4331.153809,4345.0,4356.922852,4329.615234,4327.307617,4335.384766,4353.589844,4319.871582,4309.615234,4507.307617,4522.179688,4396.794922,4455.128418,0.565609,0.475218,0.180502,0.212648,0.130989,0.260054,0.411769,0.289032,0.252865,0.181035,0.797063,0.280692,0.262227,0.31298,0.144386,0.439703,0.217386,0.339146,0.254714,0.117381,0.227617,0.143034,0.113753,0.094265,0.07237,0.123161,0.179797,0.050378,0.151975,0.15787,0.197518,0.159876,0.120329,0.285918,0.175262,0.39202,0.192657,0.130813,0.121715,0.152541,0.418252,0.371833,0.237723,0.143064,0.110015,0.463411,0.287215,0.100056,0.18051,0.076301,0.545384,0.327176,0.196182,0.281373,0.173933,0.840833,0.584736,0.191595,0.515949,0.149517,0.732295,0.305847,0.274508,0.356763,0.150749,0.24455,0.429507,0.228028,0.354342,0.205254
1768920117.729048,1768920117.730211,33.0,0.0,4364.102539,4324.743652,4342.05127,4349.358887,4326.282227,4328.205078,4341.025879,4349.102539,4315.897461,4303.589844,4504.871582,4523.077148,4397.436035,4450.0,,,,,,,,,,,,,,,,,,,,,,,,,,,,,,,,,,,,,,,,,,,,,,,,,,,,,,,,,,,,,,,,,,,,,,
1768920117.736857,1768920117.73792,34.0,0.0,4361.410156,4328.974121,4339.615234,4349.615234,4324.743652,4325.769043,4340.128418,4351.410156,4320.128418,4309.358887,4503.717773,4519.230957,4396.922852,4450.769043,,,,,,,,,,,,,,,,,,,,,,,,,,,,,,,,,,,,,,,,,,,,,,,,,,,,,,,,,,,,,,,,,,,,,,
1768920117.744666,1768920117.745728,35.0,0.0,4360.384766,4329.358887,4343.077148,4354.871582,4332.05127,4327.692383,4338.717773,4351.666504,4322.05127,4317.94873,4501.922852,4511.666504,4396.282227,4452.94873,,,,,,,,,,,,,,,,,,,,,,,,,,,,,,,,,,,,,,,,,,,,,,,,,,,,,,,,,,,,,,,,,,,,,,
1768920117.752474,1768920117.753337,36.0,0.0,4357.692383,4326.025879,4343.333496,4355.256348,4333.589844,4330.641113,4342.94873,4354.230957,4319.615234,4313.589844,4499.615234,4512.692383,4394.230957,4453.974121,,,,,,,,,,,,,,,,,,,,,,,,,,,,,,,,,,,,,,,,,,,,,,,,,,,,,,,,,,,,,,,,,,,,,,
1768920117.760282,1768920117.761145,37.0,0.0,4357.05127,4326.538574,4339.102539,4351.538574,4327.820313,4328.589844,4337.563965,4359.230957,4322.179688,4309.358887,4500.897461,4519.743652,4393.589844,4453.974121,,,,,,,,,,,,,,,,,,,,,,,,,,,,,,,,,,,,,,,,,,,,,,,,,,,,,,,,,,,,,,,,,,,,,,
1768920117.768091,1768920117.768854,38.0,0.0,4359.871582,4326.410156,4336.410156,4347.692383,4330.769043,4326.794922,4327.307617,4357.05127,4324.230957,4313.333496,4502.692383,4519.102539,4395.128418,4452.563965,,,,,,,,,,,,,,,,,,,,,,,,,,,,,,,,,,,,,,,,,,,,,,,,,,,,,,,,,,,,,,,,,,,,,,
1768920117.7759,1768920117.776662,39.0,0.0,4361.282227,4323.589844,4340.384766,4350.0,4334.743652,4330.512695,4333.846191,4356.794922,4326.922852,4317.05127,4504.743652,4522.820313,4395.384766,4452.563965,,,,,,,,,,,,,,,,,,,,,,,,,,,,,,,,,,,,,,,,,,,,,,,,,,,,,,,,,,,,,,,,,,,,,,
1768920117.783708,1768920117.784271,40.0,0.0,4362.94873,4327.179688,4347.94873,4355.641113,4331.282227,4332.436035,4341.922852,4363.205078,4335.256348,4321.025879,4515.128418,4535.128418,4399.871582,4460.128418,,,,,,,,,,,,,,,,,,,,,,,,,,,,,,,,,,,,,,,,,,,,,,,,,,,,,,,,,,,,,,,,,,,,,,
1768920117.791517,1768920117.792079,41.0,0.0,4366.538574,4335.769043,4352.436035,4358.717773,4329.743652,4331.794922,4339.102539,4367.307617,4336.153809,4326.410156,4523.846191,4541.538574,4410.384766,4471.538574,,,,,,,,,,,,,,,,,,,,,,,,,,,,,,,,,,,,,,,,,,,,,,,,,,,,,,,,,,,,,,,,,,,,,,
1768920117.799325,1768920117.799988,42.0,0.0,4366.025879,4340.384766,4350.897461,4357.436035,4336.025879,4338.461426,4341.794922,4362.05127,4330.0,4327.307617,4521.666504,4538.205078,4414.487305,4474.358887,,,,,,,,,,,,,,,,,,,,,,,,,,,,,,,,,,,,,,,,,,,,,,,,,,,,,,,,,,,,,,,,,,,,,,
1768920117.807134,1768920117.807796,43.0,0.0,4366.153809,4341.794922,4351.282227,4356.025879,4339.102539,4341.153809,4344.487305,4357.820313,4331.538574,4326.153809,4522.179688,4538.205078,4409.871582,4473.077148,,,,,,,,,,,,,,,,,,,,,,,,,,,,,,,,,,,,,,,,,,,,,,,,,,,,,,,,,,,,,,,,,,,,,,
1768920117.814942,1768920117.815805,44.0,0.0,4369.487305,4343.205078,4359.230957,4357.820313,4334.230957,4332.307617,4341.153809,4364.487305,4339.102539,4326.153809,4524.102539,4541.282227,4410.0,4472.692383,,,,,,,,,,,,,,,,,,,,,,,,,,,,,,,,,,,,,,,,,,,,,,,,,,,,,,,,,,,,,,,,,,,,,,
1768920117.822751,1768920117.823613,45.0,0.0,4365.256348,4343.846191,4359.871582,4359.358887,4333.589844,4327.820313,4338.717773,4365.897461,4337.820313,4324.230957,4514.615234,4534.358887,4413.333496,4469.230957,,,,,,,,,,,,,,,,,,,,,,,,,,,,,,,,,,,,,,,,,,,,,,,,,,,,,,,,,,,,,,,,,,,,,,
1768920117.830559,1768920117.831321,46.0,0.0,4359.102539,4342.179688,4349.487305,4358.205078,4337.436035,4333.461426,4338.205078,4353.589844,4328.461426,4324.358887,4505.384766,4527.692383,4410.128418,4466.666504,,,,,,,,,,,,,,,,,,,,,,,,,,,,,,,,,,,,,,,,,,,,,,,,,,,,,,,,,,,,,,,,,,,,,,
1768920117.838368,1768920117.839129,47.0,0.0,4358.077148,4342.436035,4347.05127,4357.307617,4338.846191,4340.641113,4344.615234,4353.077148,4329.615234,4326.282227,4513.846191,4533.205078,4408.846191,4468.717773,,,,,,,,,,,,,,,,,,,,,,,,,,,,,,,,,,,,,,,,,,,,,,,,,,,,,,,,,,,,,,,,,,,,,,
1768920117.846176,1768920117.846738,48.0,0.0,4353.846191,4342.94873,4355.0,4358.717773,4334.487305,4339.358887,4344.615234,4365.0,4338.205078,4324.615234,4523.461426,4537.436035,4412.436035,4469.230957,0.627152,0.450749,0.155496,0.207833,0.129589,0.253516,0.46191,0.213465,0.228162,0.167691,0.65135,0.287441,0.212063,0.29193,0.158415,0.413218,0.222806,0.257178,0.217045,0.106737,0.241954,0.141055,0.09437,0.087044,0.072877,0.107751,0.165366,0.055762,0.138529,0.180567,0.160336,0.154423,0.106355,0.251102,0.171883,0.396421,0.181618,0.126633,0.108539,0.158242,0.397764,0.356251,0.22082,0.120142,0.118788,0.483226,0.318891,0.112054,0.192621,0.088606,0.518474,0.369288,0.19246,0.23463,0.171953,0.825043,0.724988,0.15246,0.383492,0.155961,0.685616,0.343938,0.274431,0.343739,0.153493,0.236181,0.417544,0.204037,0.332933,0.201961
1768920117.853985,1768920117.854546,49.0,0.0,4350.256348,4341.153809,4356.538574,4358.717773,4330.641113,4328.717773,4326.410156,4360.641113,4335.512695,4323.717773,4519.230957,4531.282227,4414.871582,4466.794922,,,,,,,,,,,,,,,,,,,,,,,,,,,,,,,,,,,,,,,,,,,,,,,,,,,,,,,,,,,,,,,,,,,,,,
1768920117.861793,1768920117.862254,50.0,0.0,4350.641113,4342.563965,4348.974121,4358.333496,4328.333496,4323.205078,4318.974121,4350.256348,4324.871582,4326.666504,4510.769043,4526.025879,4412.05127,4467.692383,,,,,,,,,,,,,,,,,,,,,,,,,,,,,,,,,,,,,,,,,,,,,,,,,,,,,,,,,,,,,,,,,,,,,,
1768920117.869602,1768920117.870063,51.0,0.0,4348.846191,4342.05127,4343.461426,4357.820313,4326.538574,4325.128418,4325.897461,4353.461426,4321.922852,4325.769043,4507.94873,4527.307617,4408.846191,4464.358887,,,,,,,,,,,,,,,,,,,,,,,,,,,,,,,,,,,,,,,,,,,,,,,,,,,,,,,,,,,,,,,,,,,,,,
1768920117.87741,1768920117.878071,52.0,0.0,4343.077148,4333.974121,4342.820313,4351.282227,4327.436035,4328.717773,4327.179688,4360.0,4327.692383,4319.743652,4509.102539,4526.794922,4403.974121,4458.333496,,,,,,,,,,,,,,,,,,,,,,,,,,,,,,,,,,,,,,,,,,,,,,,,,,,,,,,,,,,,,,,,,,,,,,
1768920117.885219,1768920117.885879,53.0,0.0,4339.871582,4329.743652,4341.666504,4345.769043,4327.179688,4336.922852,4329.230957,4361.794922,4334.487305,4320.0,4506.666504,4522.692383,4396.410156,4454.743652,,,,,,,,,,,,,,,,,,,,,,,,,,,,,,,,,,,,,,,,,,,,,,,,,,,,,,,,,,,,,,,,,,,,,,
1768920117.893027,1768920117.893788,54.0,0.0,4343.974121,4339.358887,4340.512695,4352.436035,4327.94873,4336.794922,4331.153809,4360.769043,4334.230957,4325.0,4506.538574,4523.333496,4401.410156,4454.487305,,,,,,,,,,,,,,,,,,,,,,,,,,,,,,,,,,,,,,,,,,,,,,,,,,,,,,,,,,,,,,,,,,,,,,
1768920117.900836,1768920117.901596,55.0,0.0,4348.461426,4352.307617,4346.666504,4360.641113,4330.384766,4329.230957,4333.077148,4357.692383,4331.153809,4327.692383,4517.692383,4534.230957,4417.563965,4463.846191,,,,,,,,,,,,,,,,,,,,,,,,,,,,,,,,,,,,,,,,,,,,,,,,,,,,,,,,,,,,,,,,,,,,,,
1768920117.908644,1768920117.909405,56.0,0.0,4347.05127,4350.897461,4353.205078,4358.589844,4327.94873,4332.820313,4339.358887,4356.282227,4332.94873,4329.615234,4527.563965,4542.820313,4421.282227,4474.487305,,,,,,,,,,,,,,,,,,,,,,,,,,,,,,,,,,,,,,,,,,,,,,,,,,,,,,,,,,,,,,,,,,,,,,
1768920117.916453,1768920117.917213,57.0,0.0,4347.179688,4343.589844,4349.487305,4356.025879,4327.563965,4336.794922,4334.230957,4358.461426,4332.05127,4327.307617,4518.846191,4536.922852,4413.205078,4469.487305,,,,,,,,,,,,,,,,,,,,,,,,,,,,,,,,,,,,,,,,,,,,,,,,,,,,,,,,,,,,,,,,,,,,,,
1768920117.924261,1768920117.925122,58.0,0.0,4350.512695,4345.256348,4343.461426,4361.666504,4335.128418,4334.230957,4325.769043,4356.794922,4324.743652,4318.589844,4506.794922,4526.153809,4412.179688,4458.333496,,,,,,,,,,,,,,,,,,,,,,,,,,,,,,,,,,,,,,,,,,,,,,,,,,,,,,,,,,,,,,,,,,,,,,
1768920117.93207,1768920117.93293,59.0,0.0,4348.205078,4347.820313,4342.436035,4363.077148,4335.384766,4332.94873,4334.743652,4352.94873,4323.077148,4314.358887,4505.256348,4519.487305,4411.538574,4459.358887,,,,,,,,,,,,,,,,,,,,,,,,,,,,,,,,,,,,,,,,,,,,,,,,,,,,,,,,,,,,,,,,,,,,,,
1768920117.939878,1768920117.940539,60.0,0.0,4345.641113,4343.461426,4345.769043,4356.666504,4330.512695,4329.871582,4339.102539,4356.282227,4331.922852,4323.333496,4508.461426,4522.563965,4407.179688,4466.666504,,,,,,,,,,,,,,,,,,,,,,,,,,,,,,,,,,,,,,,,,,,,,,,,,,,,,,,,,,,,,,,,,,,,,,
1768920117.947687,1768920117.948347,61.0,0.0,4348.333496,4340.128418,4351.666504,4357.94873,4333.589844,4327.436035,4326.538574,4359.102539,4335.769043,4327.307617,4513.717773,4529.487305,4411.025879,4466.410156,,,,,,,,,,,,,,,,,,,,,,,,,,,,,,,,,,,,,,,,,,,,,,,,,,,,,,,,,,,,,,,,,,,,,,
1768920117.955495,1768920117.956056,62.0,0.0,4351.153809,4345.256348,4351.538574,4366.538574,4336.282227,4330.384766,4323.974121,4354.871582,4328.846191,4316.153809,4519.743652,4532.05127,4414.102539,4466.922852,,,,,,,,,,,,,,,,,,,,,,,,,,,,,,,,,,,,,,,,,,,,,,,,,,,,,,,,,,,,,,,,,,,,,,
1768920117.963304,1768920117.963864,63.0,0.0,4353.333496,4348.205078,4350.256348,4368.077148,4333.589844,4333.077148,4333.333496,4354.743652,4326.794922,4314.230957,4523.205078,4536.666504,4411.666504,4470.897461,,,,,,,,,,,,,,,,,,,,,,,,,,,,,,,,,,,,,,,,,,,,,,,,,,,,,,,,,,,,,,,,,,,,,,
1768920117.971112,1768920117.971473,64.0,0.0,4349.871582,4344.871582,4354.743652,4362.563965,4330.641113,4330.384766,4337.05127,4359.230957,4334.102539,4326.410156,4519.102539,4539.871582,4410.641113,4466.153809,0.735657,0.439999,0.134142,0.198003,0.124744,0.240141,0.482999,0.150163,0.200692,0.147524,0.525762,0.290806,0.17567,0.268478,0.165894,0.371503,0.215074,0.179155,0.182184,0.095183,0.242779,0.146131,0.072962,0.079977,0.072875,0.094,0.155788,0.068246,0.132931,0.207125,0.127454,0.153008,0.103211,0.225317,0.163742,0.374093,0.16684,0.132373,0.100011,0.157962,0.358359,0.345101,0.217944,0.098116,0.121713,0.46728,0.34847,0.134034,0.202801,0.102569,0.475218,0.423463,0.195127,0.201104,0.163087,0.768396,0.838719,0.136529,0.274909,0.16467,0.622593,0.402471,0.275953,0.332475,0.153493,0.227923,0.40985,0.191585,0.320183,0.193281
1768920117.978921,1768920117.979281,65.0,0.0,4342.692383,4342.05127,4354.102539,4358.333496,4330.128418,4329.871582,4333.974121,4359.358887,4336.794922,4331.538574,4510.897461,4535.128418,4409.358887,4457.307617,,,,,,,,,,,,,,,,,,,,,,,,,,,,,,,,,,,,,,,,,,,,,,,,,,,,,,,,,,,,,,,,,,,,,,
1768920117.98673,1768920117.986989,66.0,0.0,4343.846191,4342.307617,4347.05127,4358.974121,4332.05127,4330.0,4333.974121,4354.615234,4331.025879,4323.333496,4505.512695,4526.025879,4402.05127,4456.025879,,,,,,,,,,,,,,,,,,,,,,,,,,,,,,,,,,,,,,,,,,,,,,,,,,,,,,,,,,,,,,,,,,,,,,
1768920117.994538,1768920117.994798,67.0,0.0,4348.589844,4341.153809,4344.102539,4360.384766,4331.922852,4333.205078,4341.025879,4355.897461,4327.820313,4318.333496,4506.153809,4521.025879,4397.307617,4457.436035,,,,,,,,,,,,,,,,,,,,,,,,,,,,,,,,,,,,,,,,,,,,,,,,,,,,,,,,,,,,,,,,,,,,,,
1768920118.002346,1768920118.002806,68.0,0.0,4345.0,4337.692383,4343.077148,4356.282227,4326.282227,4333.461426,4337.307617,4356.153809,4326.922852,4322.179688,4507.307617,4520.641113,4398.333496,4457.436035,,,,,,,,,,,,,,,,,,,,,,,,,,,,,,,,,,,,,,,,,,,,,,,,,,,,,,,,,,,,,,,,,,,,,,
1768920118.010155,1768920118.010614,69.0,0.0,4342.94873,4338.077148,4342.820313,4352.307617,4325.128418,4326.282227,4326.153809,4350.128418,4324.743652,4322.94873,4505.256348,4523.717773,4397.94873,4461.794922,,,,,,,,,,,,,,,,,,,,,,,,,,,,,,,,,,,,,,,,,,,,,,,,,,,,,,,,,,,,,,,,,,,,,,
1768920118.017964,1768920118.018523,70.0,0.0,4345.0,4337.436035,4345.128418,4355.128418,4329.487305,4329.230957,4330.384766,4351.282227,4325.256348,4320.256348,4508.205078,4527.820313,4398.205078,4465.256348,,,,,,,,,,,,,,,,,,,,,,,,,,,,,,,,,,,,,,,,,,,,,,,,,,,,,,,,,,,,,,,,,,,,,,
1768920118.025772,1768920118.026331,71.0,0.0,4343.077148,4333.205078,4342.436035,4353.717773,4329.230957,4335.769043,4337.692383,4358.333496,4331.410156,4322.94873,4511.922852,4528.846191,4400.769043,4466.153809,,,,,,,,,,,,,,,,,,,,,,,,,,,,,,,,,,,,,,,,,,,,,,,,,,,,,,,,,,,,,,,,,,,,,,
1768920118.033581,1768920118.034339,72.0,0.0,4341.410156,4332.563965,4338.974121,4347.436035,4326.794922,4332.05127,4334.871582,4358.846191,4334.871582,4325.128418,4510.641113,4529.615234,4401.025879,4465.384766,,,,,,,,,,,,,,,,,,,,,,,,,,,,,,,,,,,,,,,,,,,,,,,,,,,,,,,,,,,,,,,,,,,,,,
1768920118.041389,1768920118.042148,73.0,0.0,4341.153809,4336.922852,4342.05127,4350.256348,4326.410156,4327.05127,4332.692383,4357.436035,4329.102539,4316.025879,4506.922852,4526.282227,4396.666504,4460.769043,,,,,,,,,,,,,,,,,,,,,,,,,,,,,,,,,,,,,,,,,,,,,,,,,,,,,,,,,,,,,,,,,,,,,,
1768920118.049198,1768920118.049856,74.0,0.0,4340.769043,4338.589844,4341.025879,4358.717773,4327.436035,4326.025879,4330.256348,4357.307617,4324.743652,4307.820313,4505.641113,4524.871582,4394.615234,4458.461426,,,,,,,,,,,,,,,,,,,,,,,,,,,,,,,,,,,,,,,,,,,,,,,,,,,,,,,,,,,,,,,,,,,,,,
1768920118.057006,1768920118.057664,75.0,0.0,4340.128418,4338.461426,4334.871582,4359.487305,4330.256348,4325.128418,4325.0,4351.666504,4325.256348,4310.256348,4508.974121,4528.717773,4400.256348,4465.769043,,,,,,,,,,,,,,,,,,,,,,,,,,,,,,,,,,,,,,,,,,,,,,,,,,,,,,,,,,,,,,,,,,,,,,
1768920118.064815,1768920118.065672,76.0,0.0,4337.05127,4337.94873,4331.410156,4356.025879,4331.666504,4328.589844,4330.384766,4352.436035,4327.179688,4313.205078,4506.794922,4524.615234,4402.820313,4467.179688,,,,,,,,,,,,,,,,,,,,,,,,,,,,,,,,,,,,,,,,,,,,,,,,,,,,,,,,,,,,,,,,,,,,,,
1768920118.072623,1768920118.073481,77.0,0.0,4332.179688,4330.512695,4333.717773,4355.641113,4330.0,4333.717773,4335.769043,4357.692383,4327.692383,4307.94873,4495.769043,4514.487305,4390.641113,4449.743652,,,,,,,,,,,,,,,,,,,,,,,,,,,,,,,,,,,,,,,,,,,,,,,,,,,,,,,,,,,,,,,,,,,,,,
1768920118.080432,1768920118.081389,78.0,0.0,4328.846191,4328.846191,4338.589844,4357.820313,4328.974121,4327.820313,4327.692383,4350.256348,4323.205078,4301.153809,4486.410156,4511.922852,4382.05127,4436.922852,,,,,,,,,,,,,,,,,,,,,,,,,,,,,,,,,,,,,,,,,,,,,,,,,,,,,,,,,,,,,,,,,,,,,,
1768920118.08824,1768920118.089198,79.0,0.0,4325.512695,4332.436035,4338.717773,4356.282227,4328.974121,4325.641113,4328.205078,4345.128418,4321.153809,4304.871582,4491.410156,4519.102539,4390.769043,4446.538574,,,,,,,,,,,,,,,,,,,,,,,,,,,,,,,,,,,,,,,,,,,,,,,,,,,,,,,,,,,,,,,,,,,,,,
1768920118.096049,1768920118.096806,80.0,0.0,4322.692383,4330.0,4333.974121,4351.922852,4326.410156,4329.358887,4335.0,4351.153809,4325.384766,4310.512695,4498.461426,4521.794922,4391.282227,4452.307617,0.873738,0.442707,0.114794,0.184506,0.118527,0.228306,0.474532,0.112887,0.176357,0.126331,0.439726,0.287869,0.159045,0.2429,0.166556,0.317452,0.196873,0.12589,0.154217,0.087021,0.232183,0.160389,0.053127,0.073093,0.071989,0.08776,0.153322,0.085928,0.138416,0.229123,0.1071,0.152283,0.112134,0.219449,0.152895,0.32834,0.151826,0.14023,0.097397,0.152294,0.317225,0.335657,0.224897,0.083291,0.118746,0.425636,0.366979,0.158171,0.207936,0.114938,0.43036,0.477872,0.206722,0.187647,0.149585,0.706381,0.89546,0.153395,0.211775,0.176163,0.554061,0.465367,0.275806,0.321138,0.148125,0.241278,0.403024,0.191883,0.315267,0.179389
1768920118.103857,1768920118.104615,81.0,0.0,4327.692383,4333.333496,4336.025879,4357.436035,4328.205078,4327.436035,4332.563965,4349.871582,4326.153809,4305.512695,4493.333496,4517.05127,4382.820313,4447.179688,,,,,,,,,,,,,,,,,,,,,,,,,,,,,,,,,,,,,,,,,,,,,,,,,,,,,,,,,,,,,,,,,,,,,,
1768920118.111666,1768920118.112323,82.0,0.0,4335.256348,4343.077148,4343.589844,4363.974121,4331.153809,4324.743652,4327.436035,4343.974121,4322.692383,4302.692383,4492.820313,4514.871582,4388.205078,4450.641113,,,,,,,,,,,,,,,,,,,,,,,,,,,,,,,,,,,,,,,,,,,,,,,,,,,,,,,,,,,,,,,,,,,,,,
1768920118.119474,1768920118.120132,83.0,0.0,4336.153809,4345.128418,4343.974121,4362.94873,4329.615234,4324.487305,4327.94873,4350.384766,4326.282227,4311.282227,4503.717773,4520.128418,4401.666504,4460.384766,,,,,,,,,,,,,,,,,,,,,,,,,,,,,,,,,,,,,,,,,,,,,,,,,,,,,,,,,,,,,,,,,,,,,,
1768920118.127283,1768920118.12814,84.0,0.0,4334.358887,4345.0,4342.05127,4362.94873,4331.410156,4328.974121,4334.743652,4356.282227,4333.077148,4317.436035,4511.666504,4530.897461,4407.820313,4469.743652,,,,,,,,,,,,,,,,,,,,,,,,,,,,,,,,,,,,,,,,,,,,,,,,,,,,,,,,,,,,,,,,,,,,,,
1768920118.135091,1768920118.135949,85.0,0.0,4333.205078,4348.077148,4343.077148,4364.487305,4332.563965,4331.025879,4337.563965,4349.743652,4331.922852,4316.282227,4509.871582,4537.692383,4405.641113,4476.666504,,,,,,,,,,,,,,,,,,,,,,,,,,,,,,,,,,,,,,,,,,,,,,,,,,,,,,,,,,,,,,,,,,,,,,
1768920118.1429,1768920118.143657,86.0,0.0,4333.077148,4342.820313,4342.307617,4363.333496,4326.922852,4321.666504,4326.794922,4343.461426,4326.025879,4311.794922,4503.333496,4537.05127,4397.820313,4472.563965,,,,,,,,,,,,,,,,,,,,,,,,,,,,,,,,,,,,,,,,,,,,,,,,,,,,,,,,,,,,,,,,,,,,,,
1768920118.150708,1768920118.151466,87.0,0.0,4333.589844,4338.205078,4342.436035,4362.563965,4326.153809,4318.077148,4321.025879,4346.666504,4325.0,4308.077148,4501.025879,4530.641113,4394.102539,4462.05127,,,,,,,,,,,,,,,,,,,,,,,,,,,,,,,,,,,,,,,,,,,,,,,,,,,,,,,,,,,,,,,,,,,,,,
1768920118.158517,1768920118.159074,88.0,0.0,4333.205078,4341.025879,4340.769043,4362.307617,4330.0,4326.025879,4330.769043,4351.794922,4330.128418,4314.102539,4503.846191,4523.077148,4396.410156,4457.307617,,,,,,,,,,,,,,,,,,,,,,,,,,,,,,,,,,,,,,,,,,,,,,,,,,,,,,,,,,,,,,,,,,,,,,
1768920118.166325,1768920118.166883,89.0,0.0,4329.743652,4339.358887,4333.077148,4357.436035,4330.384766,4328.974121,4332.692383,4355.128418,4334.102539,4319.871582,4506.282227,4522.307617,4396.153809,4457.94873,,,,,,,,,,,,,,,,,,,,,,,,,,,,,,,,,,,,,,,,,,,,,,,,,,,,,,,,,,,,,,,,,,,,,,
1768920118.174134,1768920118.174591,90.0,0.0,4327.307617,4335.384766,4330.512695,4355.128418,4329.102539,4323.846191,4324.358887,4355.641113,4332.563965,4315.641113,4506.025879,4528.461426,4398.205078,4464.230957,,,,,,,,,,,,,,,,,,,,,,,,,,,,,,,,,,,,,,,,,,,,,,,,,,,,,,,,,,,,,,,,,,,,,,
1768920118.181942,1768920118.182399,91.0,0.0,4327.692383,4335.128418,4338.589844,4361.410156,4327.563965,4322.179688,4326.794922,4348.589844,4329.615234,4314.102539,4508.974121,4531.282227,4402.307617,4470.0,,,,,,,,,,,,,,,,,,,,,,,,,,,,,,,,,,,,,,,,,,,,,,,,,,,,,,,,,,,,,,,,,,,,,,
1768920118.189751,1768920118.190407,92.0,0.0,4328.717773,4337.692383,4344.358887,4365.384766,4327.05127,4325.641113,4335.256348,4342.563965,4327.179688,4318.846191,4511.153809,4531.025879,4401.666504,4467.563965,,,,,,,,,,,,,,,,,,,,,,,,,,,,,,,,,,,,,,,,,,,,,,,,,,,,,,,,,,,,,,,,,,,,,,
1768920118.197559,1768920118.198216,93.0,0.0,4331.282227,4339.487305,4340.897461,4361.282227,4325.641113,4328.205078,4335.769043,4349.871582,4330.0,4320.769043,4508.974121,4534.871582,4400.256348,4465.897461,,,,,,,,,,,,,,,,,,,,,,,,,,,,,,,,,,,,,,,,,,,,,,,,,,,,,,,,,,,,,,,,,,,,,,
1768920118.205368,1768920118.206124,94.0,0.0,4329.871582,4336.410156,4336.153809,4355.769043,4321.538574,4324.358887,4329.615234,4356.922852,4335.897461,4320.641113,4508.717773,4533.333496,4400.256348,4463.717773,,,,,,,,,,,,,,,,,,,,,,,,,,,,,,,,,,,,,,,,,,,,,,,,,,,,,,,,,,,,,,,,,,,,,,
1768920118.213176,1768920118.213933,95.0,0.0,4322.692383,4332.05127,4335.128418,4355.897461,4323.717773,4320.641113,4327.436035,4350.512695,4332.692383,4318.461426,4506.922852,4522.307617,4395.897461,4455.512695,,,,,,,,,,,,,,,,,,,,,,,,,,,,,,,,,,,,,,,,,,,,,,,,,,,,,,,,,,,,,,,,,,,,,,
1768920118.220985,1768920118.221941,96.0,0.0,4319.230957,4328.461426,4334.615234,4355.641113,4327.436035,4324.487305,4330.641113,4348.077148,4326.538574,4310.641113,4499.358887,4520.128418,4390.512695,4450.769043,1.027633,0.462004,0.097262,0.167656,0.113227,0.23249,0.448446,0.102608,0.158106,0.108942,0.403982,0.277305,0.159982,0.21382,0.162381,0.267776,0.174482,0.103258,0.133363,0.085081,0.223006,0.181619,0.037469,0.065749,0.070213,0.089518,0.15708,0.10387,0.153977,0.238908,0.104352,0.155668,0.130863,0.234722,0.144392,0.274921,0.140484,0.140534,0.097633,0.143976,0.291886,0.323213,0.228567,0.078411,0.112307,0.374048,0.36767,0.172875,0.205106,0.123443,0.395102,0.521091,0.227386,0.1954,0.134784,0.677515,0.891469,0.201432,0.194317,0.188498,0.498605,0.517026,0.271039,0.306013,0.136707,0.289784,0.402501,0.201522,0.312247,0.162167
1768920118.228794,1768920118.229749,97.0,0.0,4322.563965,4326.666504,4335.512695,4352.436035,4326.153809,4329.743652,4339.102539,4357.307617,4332.05127,4308.461426,4495.0,4527.179688,4394.743652,4450.897461,,,,,,,,,,,,,,,,,,,,,,,,,,,,,,,,,,,,,,,,,,,,,,,,,,,,,,,,,,,,,,,,,,,,,,
1768920118.236602,1768920118.237658,98.0,0.0,4323.077148,4326.538574,4334.487305,4352.563965,4327.179688,4330.128418,4342.692383,4357.179688,4335.0,4311.922852,4494.230957,4520.512695,4397.94873,4447.307617,,,,,,,,,,,,,,,,,,,,,,,,,,,,,,,,,,,,,,,,,,,,,,,,,,,,,,,,,,,,,,,,,,,,,,
1768920118.24441,1768920118.245466,99.0,0.0,4319.487305,4326.025879,4331.025879,4352.94873,4328.077148,4324.358887,4333.717773,4346.538574,4326.282227,4308.333496,4490.256348,4506.025879,4390.0,4443.205078,,,,,,,,,,,,,,,,,,,,,,,,,,,,,,,,,,,,,,,,,,,,,,,,,,,,,,,,,,,,,,,,,,,,,,
1768920118.252219,1768920118.253074,100.0,0.0,4319.358887,4326.794922,4331.025879,4349.871582,4325.256348,4320.256348,4323.077148,4345.0,4322.820313,4304.102539,4487.436035,4510.128418,4386.153809,4444.102539,,,,,,,,,,,,,,,,,,,,,,,,,,,,,,,,,,,,,,,,,,,,,,,,,,,,,,,,,,,,,,,,,,,,,,
1768920118.260028,1768920118.260883,101.0,0.0,4320.128418,4326.666504,4331.153809,4345.641113,4324.358887,4323.333496,4323.974121,4347.179688,4326.025879,4306.794922,4491.282227,4518.974121,4394.230957,4447.05127,,,,,,,,,,,,,,,,,,,,,,,,,,,,,,,,,,,,,,,,,,,,,,,,,,,,,,,,,,,,,,,,,,,,,,
1768920118.267836,1768920118.268791,102.0,0.0,4320.641113,4324.615234,4329.358887,4349.102539,4325.256348,4326.794922,4331.794922,4341.794922,4323.077148,4308.974121,4493.461426,4513.205078,4397.05127,4448.333496,,,,,,,,,,,,,,,,,,,,,,,,,,,,,,,,,,,,,,,,,,,,,,,,,,,,,,,,,,,,,,,,,,,,,,
1768920118.275644,1768920118.276599,103.0,0.0,4323.077148,4325.128418,4333.846191,4357.05127,4324.230957,4325.769043,4334.230957,4344.743652,4324.487305,4306.922852,4492.05127,4510.897461,4390.256348,4445.0,,,,,,,,,,,,,,,,,,,,,,,,,,,,,,,,,,,,,,,,,,,,,,,,,,,,,,,,,,,,,,,,,,,,,,
1768920118.283453,1768920118.284608,104.0,0.0,4323.589844,4327.563965,4342.05127,4357.94873,4323.717773,4321.538574,4331.153809,4351.794922,4332.94873,4306.282227,4491.666504,4516.538574,4386.794922,4442.05127,,,,,,,,,,,,,,,,,,,,,,,,,,,,,,,,,,,,,,,,,,,,,,,,,,,,,,,,,,,,,,,,,,,,,,
1768920118.291262,1768920118.292416,105.0,0.0,4319.487305,4327.307617,4342.436035,4355.256348,4323.974121,4318.461426,4324.358887,4347.436035,4333.717773,4310.897461,4492.05127,4516.794922,4389.615234,4445.769043,,,,,,,,,,,,,,,,,,,,,,,,,,,,,,,,,,,,,,,,,,,,,,,,,,,,,,,,,,,,,,,,,,,,,,
1768920118.29907,1768920118.300125,106.0,0.0,4320.0,4330.897461,4339.230957,4357.692383,4324.358887,4321.794922,4323.846191,4344.615234,4332.307617,4314.230957,4499.743652,4520.512695,4395.384766,4456.410156,,,,,,,,,,,,,,,,,,,,,,,,,,,,,,,,,,,,,,,,,,,,,,,,,,,,,,,,,,,,,,,,,,,,,,
1768920118.306879,1768920118.307933,107.0,0.0,4328.589844,4341.025879,4340.897461,4363.205078,4325.769043,4328.333496,4337.05127,4346.666504,4332.436035,4310.384766,4506.410156,4528.717773,4399.871582,4463.205078,,,,,,,,,,,,,,,,,,,,,,,,,,,,,,,,,,,,,,,,,,,,,,,,,,,,,,,,,,,,,,,,,,,,,,
1768920118.314687,1768920118.315542,108.0,0.0,4334.358887,4345.0,4343.589844,4363.846191,4328.846191,4329.230957,4341.666504,4342.436035,4328.461426,4305.897461,4497.820313,4525.256348,4397.563965,4460.512695,,,,,,,,,,,,,,,,,,,,,,,,,,,,,,,,,,,,,,,,,,,,,,,,,,,,,,,,,,,,,,,,,,,,,,
1768920118.322496,1768920118.32335,109.0,0.0,4329.871582,4340.0,4343.846191,4358.077148,4330.641113,4324.358887,4329.743652,4339.871582,4327.05127,4307.94873,4488.077148,4518.333496,4388.846191,4452.820313,,,,,,,,,,,,,,,,,,,,,,,,,,,,,,,,,,,,,,,,,,,,,,,,,,,,,,,,,,,,,,,,,,,,,,
1768920118.330304,1768920118.331259,110.0,0.0,4323.589844,4334.871582,4342.307617,4354.871582,4327.05127,4319.230957,4322.820313,4346.794922,4330.641113,4311.794922,4493.077148,4518.205078,4386.922852,4449.102539,,,,,,,,,,,,,,,,,,,,,,,,,,,,,,,,,,,,,,,,,,,,,,,,,,,,,,,,,,,,,,,,,,,,,,
1768920118.338113,1768920118.339068,111.0,0.0,4327.692383,4336.538574,4343.589844,4360.512695,4327.94873,4321.282227,4330.128418,4349.615234,4328.333496,4311.153809,4495.256348,4522.05127,4394.230957,4448.077148,,,,,,,,,,,,,,,,,,,,,,,,,,,,,,,,,,,,,,,,,,,,,,,,,,,,,,,,,,,,,,,,,,,,,,
1768920118.345921,1768920118.346676,112.0,0.0,4334.487305,4341.282227,4344.615234,4364.871582,4333.589844,4327.436035,4330.769043,4343.589844,4324.871582,4310.769043,4492.05127,4527.179688,4399.358887,4449.871582,1.184058,0.50207,0.083033,0.147283,0.109564,0.264679,0.420024,0.115196,0.144512,0.097825,0.425471,0.259941,0.170511,0.181643,0.155931,0.241037,0.153548,0.103169,0.116842,0.089548,0.225217,0.203707,0.026939,0.057457,0.067856,0.098242,0.16407,0.116417,0.174571,0.23268,0.123735,0.168617,0.155468,0.261667,0.143703,0.231292,0.13696,0.129097,0.095792,0.136692,0.298339,0.304339,0.219219,0.082198,0.106303,0.342555,0.350565,0.170878,0.193592,0.128164,0.389111,0.551851,0.261514,0.221539,0.122222,0.719585,0.8475,0.274368,0.210226,0.197868,0.471907,0.550334,0.264467,0.285909,0.122023,0.388412,0.428794,0.217691,0.306952,0.145428
1768920118.35373,1768920118.354485,113.0,0.0,4333.461426,4339.358887,4342.94873,4359.743652,4331.666504,4324.487305,4323.461426,4341.922852,4328.589844,4312.05127,4499.487305,4525.128418,4397.307617,4456.666504,,,,,,,,,,,,,,,,,,,,,,,,,,,,,,,,,,,,,,,,,,,,,,,,,,,,,,,,,,,,,,,,,,,,,,
1768920118.361538,1768920118.362193,114.0,0.0,4326.025879,4332.692383,4342.179688,4355.0,4325.769043,4320.769043,4329.615234,4345.128418,4329.230957,4311.666504,4503.717773,4518.974121,4395.384766,4456.282227,,,,,,,,,,,,,,,,,,,,,,,,,,,,,,,,,,,,,,,,,,,,,,,,,,,,,,,,,,,,,,,,,,,,,,
1768920118.369347,1768920118.370001,115.0,0.0,4322.94873,4331.922852,4342.563965,4355.0,4325.0,4322.563965,4337.563965,4350.384766,4331.538574,4312.94873,4501.666504,4521.410156,4398.461426,4449.743652,,,,,,,,,,,,,,,,,,,,,,,,,,,,,,,,,,,,,,,,,,,,,,,,,,,,,,,,,,,,,,,,,,,,,,
1768920118.377155,1768920118.37761,116.0,0.0,4325.512695,4335.769043,4343.846191,4356.410156,4327.179688,4322.692383,4331.538574,4353.589844,4339.487305,4315.512695,4502.692383,4522.94873,4398.974121,4449.358887,,,,,,,,,,,,,,,,,,,,,,,,,,,,,,,,,,,,,,,,,,,,,,,,,,,,,,,,,,,,,,,,,,,,,,
1768920118.384964,1768920118.385418,117.0,0.0,4323.333496,4338.717773,4342.692383,4357.563965,4328.205078,4323.717773,4322.94873,4345.897461,4336.282227,4313.589844,4498.589844,4511.153809,4392.436035,4448.077148,,,,,,,,,,,,,,,,,,,,,,,,,,,,,,,,,,,,,,,,,,,,,,,,,,,,,,,,,,,,,,,,,,,,,,
1768920118.392772,1768920118.393126,118.0,0.0,4320.128418,4339.487305,4336.282227,4357.307617,4328.589844,4324.230957,4329.102539,4337.94873,4326.538574,4310.641113,4489.615234,4506.538574,4386.410156,4441.282227,,,,,,,,,,,,,,,,,,,,,,,,,,,,,,,,,,,,,,,,,,,,,,,,,,,,,,,,,,,,,,,,,,,,,,
1768920118.400581,1768920118.400934,119.0,0.0,4325.256348,4338.205078,4335.641113,4356.025879,4326.666504,4323.461426,4335.897461,4342.563965,4326.282227,4312.05127,4491.666504,4516.666504,4392.307617,4441.666504,,,,,,,,,,,,,,,,,,,,,,,,,,,,,,,,,,,,,,,,,,,,,,,,,,,,,,,,,,,,,,,,,,,,,,
1768920118.408389,1768920118.408943,120.0,0.0,4333.461426,4336.153809,4345.512695,4356.794922,4325.769043,4324.615234,4328.205078,4345.512695,4328.974121,4313.205078,4496.922852,4523.461426,4400.641113,4451.282227,,,,,,,,,,,,,,,,,,,,,,,,,,,,,,,,,,,,,,,,,,,,,,,,,,,,,,,,,,,,,,,,,,,,,,
1768920118.416198,1768920118.416751,121.0,0.0,4334.487305,4335.384766,4348.846191,4357.820313,4328.589844,4323.846191,4322.436035,4338.717773,4326.025879,4308.846191,4491.666504,4517.820313,4394.615234,4453.077148,,,,,,,,,,,,,,,,,,,,,,,,,,,,,,,,,,,,,,,,,,,,,,,,,,,,,,,,,,,,,,,,,,,,,,
1768920118.424006,1768920118.424659,122.0,0.0,4333.077148,4336.153809,4340.512695,4356.025879,4327.94873,4321.410156,4324.743652,4335.512695,4324.358887,4306.153809,4488.717773,4507.436035,4385.128418,4447.436035,,,,,,,,,,,,,,,,,,,,,,,,,,,,,,,,,,,,,,,,,,,,,,,,,,,,,,,,,,,,,,,,,,,,,,
1768920118.431815,1768920118.432468,123.0,0.0,4338.205078,4335.897461,4340.641113,4355.641113,4326.025879,4323.717773,4327.05127,4341.282227,4327.179688,4310.128418,4492.436035,4510.769043,4389.358887,4450.128418,,,,,,,,,,,,,,,,,,,,,,,,,,,,,,,,,,,,,,,,,,,,,,,,,,,,,,,,,,,,,,,,,,,,,,
1768920118.439623,1768920118.440476,124.0,0.0,4342.179688,4336.282227,4347.563965,4357.692383,4326.153809,4324.615234,4327.820313,4347.692383,4330.641113,4312.94873,4493.974121,4521.666504,4397.179688,4455.897461,,,,,,,,,,,,,,,,,,,,,,,,,,,,,,,,,,,,,,,,,,,,,,,,,,,,,,,,,,,,,,,,,,,,,,
1768920118.447432,1768920118.448284,125.0,0.0,4338.205078,4334.615234,4345.384766,4357.692383,4327.307617,4322.692383,4329.743652,4344.102539,4329.615234,4308.589844,4490.641113,4517.692383,4394.615234,4449.358887,,,,,,,,,,,,,,,,,,,,,,,,,,,,,,,,,,,,,,,,,,,,,,,,,,,,,,,,,,,,,,,,,,,,,,
1768920118.45524,1768920118.455993,126.0,0.0,4334.487305,4330.128418,4340.384766,4353.333496,4328.077148,4327.692383,4336.410156,4340.769043,4327.179688,4310.384766,4494.487305,4511.410156,4392.692383,4445.0,,,,,,,,,,,,,,,,,,,,,,,,,,,,,,,,,,,,,,,,,,,,,,,,,,,,,,,,,,,,,,,,,,,,,,
1768920118.463049,1768920118.463801,127.0,0.0,4331.410156,4329.615234,4341.282227,4349.358887,4326.794922,4330.384766,4341.538574,4347.94873,4335.0,4320.641113,4507.307617,4523.077148,4399.102539,4456.666504,,,,,,,,,,,,,,,,,,,,,,,,,,,,,,,,,,,,,,,,,,,,,,,,,,,,,,,,,,,,,,,,,,,,,,
1768920118.470858,1768920118.471809,0.0,0.0,4327.94873,4332.179688,4341.666504,4350.256348,4325.256348,4323.205078,4335.256348,4353.846191,4343.333496,4323.589844,4510.897461,4529.743652,4400.641113,4463.461426,1.33152,0.557085,0.073782,0.125119,0.105982,0.338775,0.399281,0.145778,0.133299,0.092281,0.49615,0.238879,0.181512,0.150576,0.148909,0.250568,0.138571,0.11152,0.103116,0.097814,0.24546,0.218929,0.02057,0.048538,0.065311,0.108796,0.169978,0.120463,0.192864,0.213133,0.160317,0.19405,0.181074,0.285664,0.154434,0.206587,0.142242,0.109457,0.089712,0.13366,0.332238,0.281062,0.197116,0.091052,0.104315,0.35093,0.322322,0.153353,0.175802,0.13132,0.431226,0.577081,0.314598,0.259241,0.114594,0.833976,0.791424,0.364157,0.244846,0.201202,0.475784,0.564662,0.263215,0.263347,0.109083,0.538836,0.499994,0.241146,0.302061,0.133441
1768920118.478666,1768920118.479618,1.0,0.0,4332.692383,4334.615234,4341.794922,4353.974121,4328.333496,4318.974121,4325.256348,4350.0,4336.794922,4318.974121,4499.487305,4516.794922,4396.922852,4456.025879,,,,,,,,,,,,,,,,,,,,,,,,,,,,,,,,,,,,,,,,,,,,,,,,,,,,,,,,,,,,,,,,,,,,,,
1768920118.486474,1768920118.487326,2.0,0.0,4338.205078,4339.487305,4344.615234,4357.307617,4330.769043,4324.487305,4326.538574,4344.102539,4327.820313,4318.333496,4491.794922,4508.589844,4396.794922,4450.641113,,,,,,,,,,,,,,,,,,,,,,,,,,,,,,,,,,,,,,,,,,,,,,,,,,,,,,,,,,,,,,,,,,,,,,
1768920118.494283,1768920118.495135,3.0,0.0,4337.05127,4344.871582,4343.205078,4358.205078,4325.897461,4326.922852,4331.410156,4344.230957,4327.692383,4319.102539,4499.743652,4514.615234,4398.077148,4451.538574,,,,,,,,,,,,,,,,,,,,,,,,,,,,,,,,,,,,,,,,,,,,,,,,,,,,,,,,,,,,,,,,,,,,,,
1768920118.502092,1768920118.502743,4.0,0.0,4335.897461,4341.922852,4340.384766,4356.282227,4327.820313,4324.230957,4331.794922,4345.128418,4330.512695,4320.128418,4510.256348,4523.846191,4406.410156,4458.846191,,,,,,,,,,,,,,,,,,,,,,,,,,,,,,,,,,,,,,,,,,,,,,,,,,,,,,,,,,,,,,,,,,,,,,
1768920118.5099,1768920118.510552,5.0,0.0,4336.538574,4337.05127,4347.307617,4357.179688,4336.794922,4329.871582,4339.487305,4348.717773,4335.641113,4322.692383,4511.538574,4531.538574,4413.461426,4464.102539,,,,,,,,,,,,,,,,,,,,,,,,,,,,,,,,,,,,,,,,,,,,,,,,,,,,,,,,,,,,,,,,,,,,,,
1768920118.517708,1768920118.51826,6.0,0.0,4332.692383,4337.692383,4352.436035,4359.871582,4335.128418,4334.615234,4345.641113,4352.563965,4335.0,4320.769043,4506.025879,4531.410156,4400.256348,4456.410156,,,,,,,,,,,,,,,,,,,,,,,,,,,,,,,,,,,,,,,,,,,,,,,,,,,,,,,,,,,,,,,,,,,,,,
1768920118.525517,1768920118.526069,7.0,0.0,4331.025879,4335.641113,4346.538574,4357.692383,4326.410156,4327.179688,4332.307617,4347.692383,4328.333496,4319.871582,4504.487305,4523.717773,4391.153809,4452.179688,,,,,,,,,,,,,,,,,,,,,,,,,,,,,,,,,,,,,,,,,,,,,,,,,,,,,,,,,,,,,,,,,,,,,,
1768920118.533326,1768920118.534077,8.0,0.0,4336.922852,4333.077148,4344.871582,4355.769043,4322.94873,4322.179688,4319.743652,4341.538574,4327.05127,4325.0,4507.563965,4525.384766,4406.666504,4466.410156,,,,,,,,,,,,,,,,,,,,,,,,,,,,,,,,,,,,,,,,,,,,,,,,,,,,,,,,,,,,,,,,,,,,,,
1768920118.541134,1768920118.541886,9.0,0.0,4338.974121,4336.666504,4351.410156,4358.717773,4328.589844,4325.256348,4327.820313,4346.410156,4333.589844,4327.692383,4510.512695,4537.05127,4420.769043,4474.358887,,,,,,,,,,,,,,,,,,,,,,,,,,,,,,,,,,,,,,,,,,,,,,,,,,,,,,,,,,,,,,,,,,,,,,
1768920118.548943,1768920118.549594,10.0,0.0,4336.666504,4342.692383,4353.974121,4358.846191,4334.871582,4326.538574,4338.077148,4354.102539,4338.974121,4326.282227,4511.538574,4538.077148,4412.307617,4468.205078,,,,,,,,,,,,,,,,,,,,,,,,,,,,,,,,,,,,,,,,,,,,,,,,,,,,,,,,,,,,,,,,,,,,,,
1768920118.556751,1768920118.557402,11.0,0.0,4336.410156,4343.205078,4355.384766,4358.077148,4333.589844,4327.436035,4339.358887,4352.563965,4338.846191,4327.05127,4510.256348,4534.487305,4404.743652,4465.769043,,,,,,,,,,,,,,,,,,,,,,,,,,,,,,,,,,,,,,,,,,,,,,,,,,,,,,,,,,,,,,,,,,,,,,
1768920118.56456,1768920118.565011,12.0,0.0,4340.641113,4340.512695,4359.871582,4363.077148,4332.307617,4327.307617,4335.641113,4348.717773,4335.128418,4326.922852,4509.358887,4540.0,4410.769043,4468.717773,,,,,,,,,,,,,,,,,,,,,,,,,,,,,,,,,,,,,,,,,,,,,,,,,,,,,,,,,,,,,,,,,,,,,,
1768920118.572368,1768920118.572819,13.0,0.0,4347.563965,4343.077148,4360.769043,4365.641113,4338.205078,4324.487305,4330.256348,4348.846191,4335.128418,4323.461426,4511.025879,4541.794922,4409.743652,4466.922852,,,,,,,,,,,,,,,,,,,,,,,,,,,,,,,,,,,,,,,,,,,,,,,,,,,,,,,,,,,,,,,,,,,,,,
1768920118.580177,1768920118.580527,14.0,0.0,4345.769043,4343.589844,4355.0,4360.641113,4340.641113,4327.820313,4331.025879,4349.102539,4337.820313,4325.256348,4511.282227,4532.820313,4399.230957,4463.077148,,,,,,,,,,,,,,,,,,,,,,,,,,,,,,,,,,,,,,,,,,,,,,,,,,,,,,,,,,,,,,,,,,,,,,
1768920118.587985,1768920118.588336,15.0,0.0,4333.205078,4334.743652,4346.282227,4355.769043,4334.743652,4329.487305,4335.641113,4348.205078,4332.692383,4323.333496,4502.436035,4523.846191,4390.641113,4454.871582,,,,,,,,,,,,,,,,,,,,,,,,,,,,,,,,,,,,,,,,,,,,,,,,,,,,,,,,,,,,,,,,,,,,,,
1768920118.595794,1768920118.596344,16.0,0.0,4324.743652,4324.230957,4338.846191,4350.384766,4329.743652,4325.384766,4334.871582,4348.846191,4327.692383,4313.974121,4493.205078,4520.0,4383.589844,4443.974121,1.442825,0.607786,0.072139,0.105234,0.100463,0.46151,0.391535,0.190939,0.124461,0.089794,0.600922,0.218031,0.188667,0.128717,0.141306,0.302793,0.132537,0.119312,0.093496,0.105919,0.276023,0.221117,0.017332,0.040631,0.062787,0.116545,0.169772,0.115073,0.202264,0.187457,0.208984,0.227269,0.202221,0.296027,0.176306,0.205178,0.151125,0.091118,0.082857,0.136356,0.376009,0.258296,0.174138,0.101821,0.107637,0.411916,0.290144,0.127999,0.156763,0.135349,0.535646,0.599804,0.389182,0.302329,0.112766,1.003221,0.741501,0.462572,0.291579,0.197839,0.501835,0.560351,0.274333,0.24674,0.102858,0.750518,0.614242,0.275314,0.308749,0.128303
1768920118.603602,1768920118.604152,17.0,0.0,4324.871582,4321.922852,4336.666504,4346.153809,4325.256348,4330.0,4335.0,4349.487305,4331.410156,4313.974121,4490.641113,4515.384766,4376.794922,4439.615234,,,,,,,,,,,,,,,,,,,,,,,,,,,,,,,,,,,,,,,,,,,,,,,,,,,,,,,,,,,,,,,,,,,,,,
1768920118.611411,1768920118.612061,18.0,0.0,4329.487305,4328.077148,4340.641113,4351.666504,4325.512695,4336.666504,4342.179688,4346.922852,4336.153809,4323.205078,4496.025879,4519.102539,4384.743652,4446.282227,,,,,,,,,,,,,,,,,,,,,,,,,,,,,,,,,,,,,,,,,,,,,,,,,,,,,,,,,,,,,,,,,,,,,,
1768920118.619219,1768920118.619869,19.0,0.0,4338.717773,4338.077148,4348.974121,4361.922852,4334.615234,4330.512695,4342.05127,4351.282227,4343.717773,4331.666504,4513.205078,4536.922852,4404.743652,4463.589844,,,,,,,,,,,,,,,,,,,,,,,,,,,,,,,,,,,,,,,,,,,,,,,,,,,,,,,,,,,,,,,,,,,,,,
1768920118.627028,1768920118.627877,20.0,0.0,4344.871582,4341.410156,4352.692383,4363.077148,4338.717773,4325.128418,4336.153809,4358.589844,4346.922852,4339.743652,4526.794922,4551.025879,4414.871582,4476.794922,,,,,,,,,,,,,,,,,,,,,,,,,,,,,,,,,,,,,,,,,,,,,,,,,,,,,,,,,,,,,,,,,,,,,,
1768920118.634836,1768920118.635686,21.0,0.0,4340.512695,4333.205078,4346.922852,4354.230957,4332.05127,4328.333496,4336.025879,4351.282227,4334.615234,4332.94873,4516.153809,4544.615234,4409.358887,4470.897461,,,,,,,,,,,,,,,,,,,,,,,,,,,,,,,,,,,,,,,,,,,,,,,,,,,,,,,,,,,,,,,,,,,,,,
1768920118.642645,1768920118.643594,22.0,0.0,4333.717773,4326.153809,4339.871582,4348.205078,4325.897461,4328.333496,4335.641113,4340.641113,4321.922852,4309.743652,4494.487305,4524.743652,4395.512695,4456.153809,,,,,,,,,,,,,,,,,,,,,,,,,,,,,,,,,,,,,,,,,,,,,,,,,,,,,,,,,,,,,,,,,,,,,,
1768920118.650453,1768920118.651403,23.0,0.0,4335.0,4327.692383,4338.333496,4349.487305,4326.410156,4327.05127,4332.820313,4343.717773,4323.205078,4306.410156,4488.461426,4514.487305,4385.641113,4447.436035,,,,,,,,,,,,,,,,,,,,,,,,,,,,,,,,,,,,,,,,,,,,,,,,,,,,,,,,,,,,,,,,,,,,,,
1768920118.658262,1768920118.659411,24.0,0.0,4338.974121,4329.230957,4341.410156,4351.922852,4327.692383,4327.05127,4331.794922,4347.820313,4325.769043,4325.256348,4495.641113,4519.358887,4387.563965,4451.794922,,,,,,,,,,,,,,,,,,,,,,,,,,,,,,,,,,,,,,,,,,,,,,,,,,,,,,,,,,,,,,,,,,,,,,
1768920118.66607,1768920118.667219,25.0,0.0,4336.538574,4326.666504,4344.358887,4349.230957,4326.153809,4323.974121,4335.0,4345.897461,4328.077148,4329.487305,4503.205078,4527.436035,4394.230957,4460.0,,,,,,,,,,,,,,,,,,,,,,,,,,,,,,,,,,,,,,,,,,,,,,,,,,,,,,,,,,,,,,,,,,,,,,
1768920118.673879,1768920118.674928,26.0,0.0,4332.692383,4323.717773,4342.436035,4348.205078,4324.615234,4325.512695,4338.717773,4346.794922,4331.794922,4322.307617,4505.641113,4530.512695,4392.05127,4459.230957,,,,,,,,,,,,,,,,,,,,,,,,,,,,,,,,,,,,,,,,,,,,,,,,,,,,,,,,,,,,,,,,,,,,,,
1768920118.681687,1768920118.682736,27.0,0.0,4337.820313,4327.820313,4343.333496,4356.282227,4329.487305,4333.846191,4342.307617,4348.461426,4331.410156,4324.102539,4504.871582,4533.077148,4390.512695,4457.692383,,,,,,,,,,,,,,,,,,,,,,,,,,,,,,,,,,,,,,,,,,,,,,,,,,,,,,,,,,,,,,,,,,,,,,
1768920118.689496,1768920118.690345,28.0,0.0,4346.922852,4335.769043,4352.179688,4361.153809,4334.871582,4335.0,4343.846191,4350.0,4334.358887,4327.94873,4506.666504,4537.307617,4400.128418,4468.205078,,,,,,,,,,,,,,,,,,,,,,,,,,,,,,,,,,,,,,,,,,,,,,,,,,,,,,,,,,,,,,,,,,,,,,
1768920118.697304,1768920118.698153,29.0,0.0,4348.589844,4339.487305,4354.487305,4360.769043,4330.641113,4328.974121,4340.256348,4353.589844,4338.717773,4327.820313,4510.897461,4538.333496,4406.410156,4474.102539,,,,,,,,,,,,,,,,,,,,,,,,,,,,,,,,,,,,,,,,,,,,,,,,,,,,,,,,,,,,,,,,,,,,,,
1768920118.705113,1768920118.705862,30.0,0.0,4339.230957,4333.333496,4341.538574,4356.666504,4323.461426,4325.256348,4336.666504,4347.94873,4330.384766,4324.871582,4506.410156,4531.410156,4399.358887,4464.487305,,,,,,,,,,,,,,,,,,,,,,,,,,,,,,,,,,,,,,,,,,,,,,,,,,,,,,,,,,,,,,,,,,,,,,
1768920118.712922,1768920118.71367,31.0,0.0,4328.846191,4323.974121,4333.717773,4350.384766,4323.717773,4327.179688,4337.05127,4339.487305,4322.820313,4320.384766,4498.589844,4518.717773,4393.846191,4454.358887,,,,,,,,,,,,,,,,,,,,,,,,,,,,,,,,,,,,,,,,,,,,,,,,,,,,,,,,,,,,,,,,,,,,,,
1768920118.72073,1768920118.721279,32.0,0.0,4334.102539,4327.436035,4344.487305,4354.230957,4328.589844,4334.487305,4344.871582,4347.820313,4330.256348,4322.05127,4503.205078,4520.897461,4398.077148,4458.589844,1.481996,0.633747,0.082669,0.091785,0.092497,0.62279,0.394232,0.246139,0.119124,0.088062,0.709442,0.201938,0.191054,0.12036,0.132256,0.393708,0.135623,0.125295,0.088941,0.110527,0.303523,0.208545,0.017619,0.035603,0.060296,0.116707,0.160646,0.101381,0.19963,0.163547,0.252637,0.257076,0.215507,0.292218,0.205482,0.21701,0.15733,0.083109,0.080229,0.144059,0.405286,0.241417,0.16429,0.112204,0.114618,0.508682,0.2601,0.105174,0.140787,0.141071,0.690227,0.620146,0.477117,0.34166,0.115734,1.18745,0.704448,0.553179,0.343812,0.190347,0.534286,0.540885,0.30152,0.242297,0.106984,1.005415,0.750899,0.32391,0.335076,0.129925
1768920118.728538,1768920118.729087,33.0,0.0,4345.769043,4335.384766,4354.102539,4361.922852,4330.256348,4332.307617,4342.563965,4354.230957,4334.102539,4322.94873,4509.743652,4529.102539,4399.743652,4465.256348,,,,,,,,,,,,,,,,,,,,,,,,,,,,,,,,,,,,,,,,,,,,,,,,,,,,,,,,,,,,,,,,,,,,,,
1768920118.736347,1768920118.736996,34.0,0.0,4343.333496,4330.769043,4347.436035,4358.333496,4327.179688,4320.641113,4326.666504,4343.461426,4327.692383,4315.0,4506.282227,4524.358887,4397.05127,4461.538574,,,,,,,,,,,,,,,,,,,,,,,,,,,,,,,,,,,,,,,,,,,,,,,,,,,,,,,,,,,,,,,,,,,,,,
1768920118.744156,1768920118.744804,35.0,0.0,4336.922852,4327.563965,4337.820313,4353.205078,4324.615234,4322.179688,4323.077148,4339.615234,4325.897461,4311.538574,4502.820313,4521.153809,4395.384766,4458.846191,,,,,,,,,,,,,,,,,,,,,,,,,,,,,,,,,,,,,,,,,,,,,,,,,,,,,,,,,,,,,,,,,,,,,,
1768920118.751964,1768920118.752413,36.0,0.0,4338.589844,4332.05127,4338.205078,4358.461426,4326.922852,4332.179688,4334.487305,4346.922852,4327.436035,4317.692383,4505.897461,4523.974121,4397.307617,4461.282227,,,,,,,,,,,,,,,,,,,,,,,,,,,,,,,,,,,,,,,,,,,,,,,,,,,,,,,,,,,,,,,,,,,,,,
1768920118.759772,1768920118.760221,37.0,0.0,4338.205078,4328.846191,4342.307617,4357.692383,4329.358887,4333.846191,4342.436035,4346.282227,4327.179688,4316.025879,4508.205078,4523.846191,4397.436035,4461.282227,,,,,,,,,,,,,,,,,,,,,,,,,,,,,,,,,,,,,,,,,,,,,,,,,,,,,,,,,,,,,,,,,,,,,,
1768920118.767581,1768920118.768129,38.0,0.0,4337.94873,4326.410156,4343.461426,4355.384766,4327.94873,4331.410156,4339.487305,4341.153809,4325.897461,4309.487305,4503.589844,4522.692383,4397.820313,4460.769043,,,,,,,,,,,,,,,,,,,,,,,,,,,,,,,,,,,,,,,,,,,,,,,,,,,,,,,,,,,,,,,,,,,,,,
1768920118.77539,1768920118.775938,39.0,0.0,4346.025879,4334.230957,4341.282227,4360.128418,4323.974121,4326.666504,4327.94873,4338.974121,4318.205078,4308.974121,4492.94873,4520.512695,4396.153809,4463.205078,,,,,,,,,,,,,,,,,,,,,,,,,,,,,,,,,,,,,,,,,,,,,,,,,,,,,,,,,,,,,,,,,,,,,,
1768920118.783198,1768920118.783546,40.0,0.0,4350.512695,4336.922852,4340.128418,4359.743652,4323.461426,4321.794922,4324.230957,4337.692383,4311.153809,4306.922852,4487.692383,4517.94873,4389.358887,4462.820313,,,,,,,,,,,,,,,,,,,,,,,,,,,,,,,,,,,,,,,,,,,,,,,,,,,,,,,,,,,,,,,,,,,,,,
1768920118.791007,1768920118.791354,41.0,0.0,4345.897461,4333.077148,4343.077148,4357.692383,4325.897461,4326.410156,4336.153809,4345.128418,4321.025879,4307.307617,4497.94873,4522.436035,4391.410156,4461.025879,,,,,,,,,,,,,,,,,,,,,,,,,,,,,,,,,,,,,,,,,,,,,,,,,,,,,,,,,,,,,,,,,,,,,,
1768920118.798815,1768920118.799263,42.0,0.0,4340.769043,4330.0,4344.487305,4358.974121,4325.0,4330.0,4338.589844,4352.94873,4333.205078,4312.179688,4506.666504,4526.538574,4398.846191,4461.025879,,,,,,,,,,,,,,,,,,,,,,,,,,,,,,,,,,,,,,,,,,,,,,,,,,,,,,,,,,,,,,,,,,,,,,
1768920118.806624,1768920118.807071,43.0,0.0,4340.769043,4325.897461,4342.307617,4357.05127,4323.974121,4328.333496,4327.436035,4342.05127,4322.692383,4310.384766,4504.230957,4521.538574,4395.512695,4461.153809,,,,,,,,,,,,,,,,,,,,,,,,,,,,,,,,,,,,,,,,,,,,,,,,,,,,,,,,,,,,,,,,,,,,,,
1768920118.814432,1768920118.815079,44.0,0.0,4347.94873,4325.897461,4340.512695,4353.589844,4325.641113,4323.333496,4326.153809,4330.128418,4311.282227,4307.179688,4503.461426,4520.512695,4392.179688,4463.205078,,,,,,,,,,,,,,,,,,,,,,,,,,,,,,,,,,,,,,,,,,,,,,,,,,,,,,,,,,,,,,,,,,,,,,
1768920118.822241,1768920118.822888,45.0,0.0,4356.153809,4328.333496,4341.025879,4355.897461,4324.358887,4315.0,4327.563965,4334.871582,4320.0,4311.153809,4502.563965,4524.615234,4396.922852,4462.307617,,,,,,,,,,,,,,,,,,,,,,,,,,,,,,,,,,,,,,,,,,,,,,,,,,,,,,,,,,,,,,,,,,,,,,
1768920118.830049,1768920118.830796,46.0,0.0,4352.692383,4326.025879,4341.666504,4356.282227,4321.025879,4316.922852,4322.692383,4340.641113,4327.179688,4312.436035,4498.077148,4524.743652,4396.538574,4457.692383,,,,,,,,,,,,,,,,,,,,,,,,,,,,,,,,,,,,,,,,,,,,,,,,,,,,,,,,,,,,,,,,,,,,,,
1768920118.837858,1768920118.838604,47.0,0.0,4345.512695,4326.538574,4339.487305,4351.922852,4326.666504,4329.102539,4328.846191,4340.128418,4323.717773,4310.384766,4499.487305,4522.94873,4395.384766,4460.384766,,,,,,,,,,,,,,,,,,,,,,,,,,,,,,,,,,,,,,,,,,,,,,,,,,,,,,,,,,,,,,,,,,,,,,
1768920118.845666,1768920118.846613,48.0,0.0,4349.743652,4333.205078,4339.487305,4352.179688,4335.128418,4329.487305,4338.717773,4343.077148,4326.282227,4315.897461,4505.897461,4525.897461,4399.743652,4464.487305,1.429895,0.626411,0.110887,0.088123,0.083786,0.794906,0.39947,0.305702,0.118195,0.085866,0.791897,0.196025,0.189203,0.122678,0.122078,0.503121,0.146216,0.13178,0.089335,0.110227,0.314542,0.183867,0.023361,0.034815,0.058222,0.107663,0.142899,0.082991,0.186226,0.146305,0.277792,0.26942,0.220937,0.285023,0.235409,0.22691,0.157447,0.089008,0.084552,0.154186,0.402142,0.232881,0.177754,0.121256,0.122145,0.613205,0.236399,0.095563,0.130618,0.147252,0.862766,0.63601,0.561791,0.370322,0.122625,1.345036,0.679265,0.614631,0.394002,0.185078,0.564732,0.516974,0.348948,0.251346,0.123425,1.265861,0.881587,0.39038,0.380635,0.137806
1768920118.853475,1768920118.854421,49.0,0.0,4354.102539,4336.794922,4341.282227,4354.487305,4332.179688,4322.436035,4336.666504,4347.94873,4332.692383,4322.94873,4505.769043,4531.538574,4402.94873,4461.666504,,,,,,,,,,,,,,,,,,,,,,,,,,,,,,,,,,,,,,,,,,,,,,,,,,,,,,,,,,,,,,,,,,,,,,
1768920118.861283,1768920118.862129,50.0,0.0,4350.128418,4336.922852,4342.307617,4355.0,4326.153809,4328.846191,4338.717773,4348.077148,4334.358887,4324.871582,4506.025879,4533.333496,4407.692383,4462.179688,,,,,,,,,,,,,,,,,,,,,,,,,,,,,,,,,,,,,,,,,,,,,,,,,,,,,,,,,,,,,,,,,,,,,,
1768920118.869092,1768920118.869938,51.0,0.0,4351.538574,4339.487305,4345.641113,4356.794922,4326.282227,4333.589844,4344.102539,4344.358887,4332.692383,4324.743652,4510.769043,4535.769043,4413.589844,4471.153809,,,,,,,,,,,,,,,,,,,,,,,,,,,,,,,,,,,,,,,,,,,,,,,,,,,,,,,,,,,,,,,,,,,,,,
1768920118.8769,1768920118.877546,52.0,0.0,4357.94873,4342.563965,4348.205078,4360.0,4330.769043,4326.153809,4337.179688,4341.922852,4331.538574,4324.615234,4509.615234,4536.153809,4413.846191,4475.256348,,,,,,,,,,,,,,,,,,,,,,,,,,,,,,,,,,,,,,,,,,,,,,,,,,,,,,,,,,,,,,,,,,,,,,
1768920118.884709,1768920118.885355,53.0,0.0,4354.871582,4342.307617,4344.743652,4360.0,4334.615234,4328.717773,4336.538574,4343.589844,4334.743652,4327.05127,4507.692383,4530.128418,4412.179688,4468.461426,,,,,,,,,,,,,,,,,,,,,,,,,,,,,,,,,,,,,,,,,,,,,,,,,,,,,,,,,,,,,,,,,,,,,,
1768920118.892517,1768920118.893063,54.0,0.0,4350.256348,4339.871582,4341.538574,4356.794922,4331.538574,4335.897461,4345.256348,4345.769043,4337.94873,4329.487305,4515.512695,4529.102539,4412.692383,4464.743652,,,,,,,,,,,,,,,,,,,,,,,,,,,,,,,,,,,,,,,,,,,,,,,,,,,,,,,,,,,,,,,,,,,,,,
1768920118.900326,1768920118.900872,55.0,0.0,4354.102539,4337.692383,4343.461426,4355.256348,4327.692383,4329.871582,4336.153809,4348.077148,4340.641113,4328.846191,4519.871582,4536.794922,4412.179688,4471.794922,,,,,,,,,,,,,,,,,,,,,,,,,,,,,,,,,,,,,,,,,,,,,,,,,,,,,,,,,,,,,,,,,,,,,,
1768920118.908134,1768920118.90848,56.0,0.0,4356.794922,4337.179688,4343.974121,4355.769043,4330.769043,4324.230957,4330.897461,4351.025879,4341.282227,4328.205078,4515.384766,4542.820313,4412.307617,4478.589844,,,,,,,,,,,,,,,,,,,,,,,,,,,,,,,,,,,,,,,,,,,,,,,,,,,,,,,,,,,,,,,,,,,,,,
1768920118.915943,1768920118.916289,57.0,0.0,4354.615234,4338.077148,4344.358887,4358.077148,4334.487305,4331.025879,4347.563965,4347.820313,4335.128418,4328.205078,4513.461426,4537.820313,4413.717773,4477.307617,,,,,,,,,,,,,,,,,,,,,,,,,,,,,,,,,,,,,,,,,,,,,,,,,,,,,,,,,,,,,,,,,,,,,,
1768920118.923751,1768920118.923997,58.0,0.0,4352.307617,4337.563965,4343.846191,4356.666504,4332.692383,4333.077148,4347.436035,4341.025879,4331.025879,4326.153809,4512.179688,4526.794922,4412.820313,4469.102539,,,,,,,,,,,,,,,,,,,,,,,,,,,,,,,,,,,,,,,,,,,,,,,,,,,,,,,,,,,,,,,,,,,,,,
1768920118.93156,1768920118.931805,59.0,0.0,4353.461426,4336.794922,4338.589844,4352.563965,4329.487305,4328.333496,4332.692383,4343.974121,4336.410156,4326.282227,4507.179688,4526.666504,4410.769043,4465.769043,,,,,,,,,,,,,,,,,,,,,,,,,,,,,,,,,,,,,,,,,,,,,,,,,,,,,,,,,,,,,,,,,,,,,,
1768920118.939368,1768920118.939814,60.0,0.0,4356.794922,4339.615234,4341.410156,4353.333496,4331.794922,4331.282227,4339.358887,4349.871582,4338.717773,4326.282227,4511.922852,4534.230957,4415.384766,4470.256348,,,,,,,,,,,,,,,,,,,,,,,,,,,,,,,,,,,,,,,,,,,,,,,,,,,,,,,,,,,,,,,,,,,,,,
1768920118.947177,1768920118.947622,61.0,0.0,4357.436035,4342.94873,4351.922852,4358.333496,4337.05127,4333.717773,4347.05127,4344.487305,4332.820313,4324.615234,4524.230957,4536.666504,4423.717773,4474.615234,,,,,,,,,,,,,,,,,,,,,,,,,,,,,,,,,,,,,,,,,,,,,,,,,,,,,,,,,,,,,,,,,,,,,,
1768920118.954986,1768920118.95553,62.0,0.0,4356.666504,4341.666504,4352.307617,4359.102539,4335.641113,4329.871582,4336.153809,4341.282227,4332.94873,4327.436035,4522.05127,4534.230957,4423.717773,4473.846191,,,,,,,,,,,,,,,,,,,,,,,,,,,,,,,,,,,,,,,,,,,,,,,,,,,,,,,,,,,,,,,,,,,,,,
1768920118.962794,1768920118.963339,63.0,0.0,4355.512695,4338.974121,4342.05127,4353.974121,4326.025879,4325.512695,4330.512695,4345.641113,4335.512695,4328.461426,4508.846191,4527.436035,4413.205078,4467.563965,,,,,,,,,,,,,,,,,,,,,,,,,,,,,,,,,,,,,,,,,,,,,,,,,,,,,,,,,,,,,,,,,,,,,,
1768920118.970602,1768920118.970947,64.0,0.0,4353.974121,4338.077148,4337.820313,4350.897461,4324.230957,4327.05127,4337.820313,4344.358887,4331.025879,4322.94873,4503.974121,4523.205078,4404.358887,4459.358887,1.27964,0.588995,0.159791,0.098142,0.07783,0.945696,0.393464,0.364689,0.122899,0.083431,0.831317,0.203067,0.187146,0.13162,0.113064,0.599495,0.158793,0.142889,0.094993,0.105799,0.303177,0.152259,0.035749,0.039616,0.057754,0.088815,0.119509,0.064988,0.167195,0.136521,0.271137,0.255859,0.221382,0.290225,0.259294,0.221463,0.151157,0.106762,0.095456,0.164345,0.364128,0.230733,0.217419,0.131371,0.127836,0.694743,0.218588,0.107615,0.130441,0.152308,1.009836,0.637147,0.626183,0.39619,0.133377,1.440118,0.651938,0.642342,0.44459,0.188647,0.589023,0.496455,0.425064,0.27462,0.151221,1.478866,0.973814,0.480555,0.438703,0.151459
1768920118.978411,1768920118.978756,65.0,0.0,4356.410156,4342.307617,4346.153809,4354.615234,4331.794922,4332.563965,4344.358887,4341.153809,4328.461426,4323.333496,4508.846191,4533.077148,4406.794922,4464.230957,,,,,,,,,,,,,,,,,,,,,,,,,,,,,,,,,,,,,,,,,,,,,,,,,,,,,,,,,,,,,,,,,,,,,,
1768920118.98622,1768920118.986464,66.0,0.0,4365.128418,4351.666504,4355.512695,4360.641113,4330.384766,4330.256348,4342.563965,4344.102539,4333.846191,4330.128418,4512.820313,4542.436035,4414.358887,4478.846191,,,,,,,,,,,,,,,,,,,,,,,,,,,,,,,,,,,,,,,,,,,,,,,,,,,,,,,,,,,,,,,,,,,,,,
1768920118.994028,1768920118.994272,67.0,0.0,4364.615234,4352.179688,4351.410156,4359.615234,4324.102539,4321.794922,4334.615234,4343.461426,4334.102539,4329.102539,4510.769043,4532.05127,4415.641113,4478.974121,,,,,,,,,,,,,,,,,,,,,,,,,,,,,,,,,,,,,,,,,,,,,,,,,,,,,,,,,,,,,,,,,,,,,,
1768920119.001836,1768920119.00228,68.0,0.0,4354.743652,4342.820313,4342.563965,4355.897461,4324.230957,4324.102539,4334.871582,4340.0,4328.846191,4324.743652,4509.102539,4523.205078,4414.743652,4470.256348,,,,,,,,,,,,,,,,,,,,,,,,,,,,,,,,,,,,,,,,,,,,,,,,,,,,,,,,,,,,,,,,,,,,,,
1768920119.009645,1768920119.010089,69.0,0.0,4354.358887,4341.410156,4344.102539,4357.179688,4327.820313,4332.307617,4342.563965,4343.077148,4331.794922,4326.410156,4510.512695,4526.153809,4416.410156,4471.666504,,,,,,,,,,,,,,,,,,,,,,,,,,,,,,,,,,,,,,,,,,,,,,,,,,,,,,,,,,,,,,,,,,,,,,
1768920119.017454,1768920119.017997,70.0,0.0,4357.307617,4346.410156,4343.077148,4352.820313,4327.436035,4328.974121,4341.666504,4343.333496,4332.692383,4324.743652,4505.128418,4522.820313,4408.974121,4470.0,,,,,,,,,,,,,,,,,,,,,,,,,,,,,,,,,,,,,,,,,,,,,,,,,,,,,,,,,,,,,,,,,,,,,,
1768920119.025262,1768920119.025806,71.0,0.0,4349.743652,4336.794922,4334.871582,4342.820313,4324.487305,4325.897461,4340.128418,4339.871582,4325.0,4320.256348,4498.205078,4519.358887,4399.487305,4460.641113,,,,,,,,,,,,,,,,,,,,,,,,,,,,,,,,,,,,,,,,,,,,,,,,,,,,,,,,,,,,,,,,,,,,,,
1768920119.03307,1768920119.033814,72.0,0.0,4343.333496,4327.307617,4335.512695,4340.641113,4323.846191,4325.512695,4339.615234,4339.743652,4323.205078,4316.922852,4498.461426,4521.794922,4400.128418,4456.794922,,,,,,,,,,,,,,,,,,,,,,,,,,,,,,,,,,,,,,,,,,,,,,,,,,,,,,,,,,,,,,,,,,,,,,
1768920119.040879,1768920119.041622,73.0,0.0,4350.256348,4337.94873,4339.230957,4347.94873,4324.358887,4317.307617,4331.666504,4338.717773,4325.384766,4314.102539,4495.256348,4515.897461,4398.717773,4457.179688,,,,,,,,,,,,,,,,,,,,,,,,,,,,,,,,,,,,,,,,,,,,,,,,,,,,,,,,,,,,,,,,,,,,,,
1768920119.048688,1768920119.049431,74.0,0.0,4357.307617,4347.307617,4336.922852,4353.589844,4325.641113,4315.897461,4329.230957,4336.025879,4323.333496,4316.538574,4492.692383,4510.384766,4399.487305,4458.846191,,,,,,,,,,,,,,,,,,,,,,,,,,,,,,,,,,,,,,,,,,,,,,,,,,,,,,,,,,,,,,,,,,,,,,
1768920119.056496,1768920119.057239,75.0,0.0,4358.461426,4342.820313,4340.384766,4351.794922,4325.769043,4325.769043,4341.538574,4340.897461,4327.179688,4327.307617,4503.974121,4522.94873,4411.666504,4469.230957,,,,,,,,,,,,,,,,,,,,,,,,,,,,,,,,,,,,,,,,,,,,,,,,,,,,,,,,,,,,,,,,,,,,,,
1768920119.064305,1768920119.064848,76.0,0.0,4356.538574,4339.871582,4345.384766,4348.461426,4325.256348,4327.436035,4350.128418,4348.077148,4339.358887,4335.128418,4513.461426,4535.897461,4417.179688,4479.615234,,,,,,,,,,,,,,,,,,,,,,,,,,,,,,,,,,,,,,,,,,,,,,,,,,,,,,,,,,,,,,,,,,,,,,
1768920119.072113,1768920119.072656,77.0,0.0,4353.846191,4341.794922,4342.307617,4352.05127,4324.871582,4325.256348,4346.153809,4348.461426,4343.205078,4332.563965,4510.384766,4533.205078,4412.307617,4479.230957,,,,,,,,,,,,,,,,,,,,,,,,,,,,,,,,,,,,,,,,,,,,,,,,,,,,,,,,,,,,,,,,,,,,,,
1768920119.079922,1768920119.080365,78.0,0.0,4359.230957,4342.05127,4341.922852,4357.563965,4326.410156,4328.205078,4344.102539,4342.179688,4333.077148,4327.692383,4507.94873,4526.282227,4413.077148,4472.436035,,,,,,,,,,,,,,,,,,,,,,,,,,,,,,,,,,,,,,,,,,,,,,,,,,,,,,,,,,,,,,,,,,,,,,
1768920119.08773,1768920119.088173,79.0,0.0,4363.461426,4341.666504,4343.717773,4354.358887,4324.102539,4325.0,4341.922852,4331.282227,4321.922852,4323.205078,4507.563965,4521.794922,4413.589844,4463.717773,,,,,,,,,,,,,,,,,,,,,,,,,,,,,,,,,,,,,,,,,,,,,,,,,,,,,,,,,,,,,,,,,,,,,,
1768920119.095539,1768920119.095782,80.0,0.0,4357.820313,4337.563965,4341.410156,4348.333496,4318.461426,4319.743652,4335.128418,4332.05127,4322.94873,4320.512695,4503.717773,4525.897461,4409.487305,4462.563965,1.052556,0.527158,0.22691,0.125401,0.078209,1.03156,0.366941,0.421525,0.134308,0.082333,0.824068,0.218948,0.191095,0.145041,0.108436,0.654504,0.165536,0.16098,0.105995,0.099313,0.269602,0.120732,0.053962,0.051025,0.060427,0.066655,0.096713,0.051766,0.148736,0.132248,0.241677,0.221146,0.221388,0.316348,0.273502,0.201506,0.140904,0.130182,0.110332,0.173572,0.308976,0.229528,0.275582,0.146615,0.132545,0.74233,0.203087,0.143081,0.144398,0.155599,1.095353,0.616,0.664929,0.434612,0.147112,1.44973,0.607757,0.653463,0.503012,0.203291,0.615408,0.483746,0.539808,0.311621,0.185394,1.590676,0.999876,0.594242,0.499985,0.169454
1768920119.103347,1768920119.10359,81.0,0.0,4355.512695,4335.512695,4344.615234,4348.461426,4318.846191,4325.0,4335.0,4342.179688,4329.743652,4324.102539,4506.794922,4532.94873,4408.717773,4470.512695,,,,,,,,,,,,,,,,,,,,,,,,,,,,,,,,,,,,,,,,,,,,,,,,,,,,,,,,,,,,,,,,,,,,,,
1768920119.111156,1768920119.111299,82.0,0.0,4363.205078,4344.743652,4354.487305,4354.358887,4326.922852,4333.077148,4347.94873,4342.179688,4332.05127,4326.410156,4516.410156,4533.589844,4411.922852,4474.230957,,,,,,,,,,,,,,,,,,,,,,,,,,,,,,,,,,,,,,,,,,,,,,,,,,,,,,,,,,,,,,,,,,,,,,
1768920119.118964,1768920119.119107,83.0,0.0,4362.563965,4349.615234,4356.666504,4358.974121,4330.128418,4330.128418,4351.282227,4337.436035,4329.358887,4323.974121,4516.794922,4531.025879,4414.102539,4469.102539,,,,,,,,,,,,,,,,,,,,,,,,,,,,,,,,,,,,,,,,,,,,,,,,,,,,,,,,,,,,,,,,,,,,,,
1768920119.126773,1768920119.127116,84.0,0.0,4353.333496,4344.615234,4350.256348,4355.384766,4325.128418,4321.666504,4335.0,4339.487305,4326.025879,4323.846191,4506.666504,4526.410156,4407.436035,4462.563965,,,,,,,,,,,,,,,,,,,,,,,,,,,,,,,,,,,,,,,,,,,,,,,,,,,,,,,,,,,,,,,,,,,,,,
1768920119.134581,1768920119.134924,85.0,0.0,4350.256348,4341.410156,4348.717773,4352.436035,4323.589844,4322.179688,4331.153809,4342.307617,4328.333496,4327.563965,4502.436035,4518.974121,4399.358887,4458.461426,,,,,,,,,,,,,,,,,,,,,,,,,,,,,,,,,,,,,,,,,,,,,,,,,,,,,,,,,,,,,,,,,,,,,,
1768920119.14239,1768920119.142832,86.0,0.0,4352.179688,4342.94873,4353.461426,4357.436035,4327.307617,4326.410156,4343.974121,4344.358887,4336.025879,4326.794922,4507.436035,4522.436035,4400.512695,4458.589844,,,,,,,,,,,,,,,,,,,,,,,,,,,,,,,,,,,,,,,,,,,,,,,,,,,,,,,,,,,,,,,,,,,,,,
1768920119.150198,1768920119.150641,87.0,0.0,4355.256348,4342.563965,4354.358887,4358.205078,4325.256348,4325.0,4347.563965,4349.487305,4338.846191,4323.461426,4507.94873,4534.871582,4404.102539,4465.384766,,,,,,,,,,,,,,,,,,,,,,,,,,,,,,,,,,,,,,,,,,,,,,,,,,,,,,,,,,,,,,,,,,,,,,
1768920119.158007,1768920119.158649,88.0,0.0,4356.410156,4342.563965,4348.461426,4352.820313,4319.615234,4323.333496,4342.820313,4346.153809,4332.179688,4324.871582,4505.641113,4538.717773,4406.410156,4468.077148,,,,,,,,,,,,,,,,,,,,,,,,,,,,,,,,,,,,,,,,,,,,,,,,,,,,,,,,,,,,,,,,,,,,,,
1768920119.165815,1768920119.166457,89.0,0.0,4357.436035,4345.128418,4350.128418,4353.974121,4321.794922,4327.307617,4347.179688,4340.512695,4328.461426,4328.205078,4508.974121,4535.769043,4410.0,4467.563965,,,,,,,,,,,,,,,,,,,,,,,,,,,,,,,,,,,,,,,,,,,,,,,,,,,,,,,,,,,,,,,,,,,,,,
1768920119.173624,1768920119.174166,90.0,0.0,4362.820313,4342.94873,4352.179688,4359.102539,4325.384766,4330.769043,4355.128418,4343.461426,4331.282227,4321.794922,4510.128418,4532.820313,4407.436035,4471.538574,,,,,,,,,,,,,,,,,,,,,,,,,,,,,,,,,,,,,,,,,,,,,,,,,,,,,,,,,,,,,,,,,,,,,,
1768920119.181432,1768920119.181974,91.0,0.0,4358.205078,4336.282227,4344.230957,4354.102539,4323.077148,4325.128418,4352.563965,4343.974121,4327.436035,4311.922852,4503.717773,4527.94873,4398.077148,4470.512695,,,,,,,,,,,,,,,,,,,,,,,,,,,,,,,,,,,,,,,,,,,,,,,,,,,,,,,,,,,,,,,,,,,,,,
1768920119.189241,1768920119.189582,92.0,0.0,4344.743652,4331.794922,4347.179688,4342.692383,4323.846191,4321.282227,4351.538574,4339.871582,4323.077148,4316.153809,4501.666504,4522.179688,4395.897461,4462.94873,,,,,,,,,,,,,,,,,,,,,,,,,,,,,,,,,,,,,,,,,,,,,,,,,,,,,,,,,,,,,,,,,,,,,,
1768920119.19705,1768920119.197391,93.0,0.0,4345.897461,4330.0,4346.922852,4340.128418,4325.641113,4325.256348,4355.512695,4341.025879,4326.153809,4323.077148,4506.153809,4519.743652,4398.846191,4462.307617,,,,,,,,,,,,,,,,,,,,,,,,,,,,,,,,,,,,,,,,,,,,,,,,,,,,,,,,,,,,,,,,,,,,,,
1768920119.204858,1768920119.205299,94.0,0.0,4353.205078,4327.179688,4330.0,4347.05127,4323.077148,4326.794922,4361.025879,4350.128418,4331.410156,4319.102539,4502.692383,4519.743652,4395.641113,4461.410156,,,,,,,,,,,,,,,,,,,,,,,,,,,,,,,,,,,,,,,,,,,,,,,,,,,,,,,,,,,,,,,,,,,,,,
1768920119.212666,1768920119.213107,95.0,0.0,4349.743652,4325.769043,4324.743652,4351.794922,4321.538574,4325.384766,4362.307617,4352.307617,4332.692383,4318.974121,4499.230957,4520.256348,4394.487305,4455.641113,,,,,,,,,,,,,,,,,,,,,,,,,,,,,,,,,,,,,,,,,,,,,,,,,,,,,,,,,,,,,,,,,,,,,,
1768920119.220475,1768920119.221116,96.0,0.0,4349.102539,4330.128418,4335.897461,4350.384766,4325.384766,4325.384766,4358.717773,4341.410156,4328.205078,4324.743652,4506.538574,4522.179688,4403.077148,4459.743652,0.798801,0.451943,0.301598,0.170203,0.086112,1.025077,0.327869,0.476246,0.153113,0.084281,0.778788,0.234771,0.203755,0.16362,0.110708,0.654157,0.163454,0.184626,0.122072,0.092943,0.226015,0.09544,0.075205,0.068365,0.067426,0.052296,0.081918,0.046689,0.1363,0.131499,0.211335,0.181889,0.226033,0.358779,0.27892,0.176002,0.130656,0.151154,0.125681,0.181684,0.271528,0.227704,0.337145,0.169059,0.139133,0.762984,0.189191,0.195448,0.173582,0.157138,1.106416,0.573165,0.681615,0.497664,0.162147,1.37352,0.549947,0.664833,0.573889,0.225951,0.658924,0.481419,0.692314,0.36059,0.217519,1.573783,0.954943,0.718487,0.556756,0.18976
1768920119.228284,1768920119.228924,97.0,0.0,4353.589844,4334.230957,4339.615234,4349.487305,4325.128418,4324.230957,4358.974121,4336.025879,4323.846191,4326.153809,4510.641113,4526.538574,4413.333496,4469.102539,,,,,,,,,,,,,,,,,,,,,,,,,,,,,,,,,,,,,,,,,,,,,,,,,,,,,,,,,,,,,,,,,,,,,,
1768920119.236092,1768920119.236633,98.0,0.0,4353.077148,4331.666504,4340.128418,4349.743652,4319.615234,4322.563965,4362.179688,4341.025879,4325.384766,4326.410156,4506.282227,4529.102539,4410.897461,4463.974121,,,,,,,,,,,,,,,,,,,,,,,,,,,,,,,,,,,,,,,,,,,,,,,,,,,,,,,,,,,,,,,,,,,,,,
1768920119.2439,1768920119.244441,99.0,0.0,4351.666504,4330.384766,4343.333496,4348.205078,4319.871582,4322.563965,4357.94873,4341.282227,4326.153809,4326.410156,4504.871582,4525.769043,4404.358887,4456.794922,,,,,,,,,,,,,,,,,,,,,,,,,,,,,,,,,,,,,,,,,,,,,,,,,,,,,,,,,,,,,,,,,,,,,,
1768920119.251709,1768920119.25205,100.0,0.0,4353.846191,4333.077148,4342.179688,4348.589844,4324.230957,4319.102539,4350.897461,4338.077148,4325.641113,4324.358887,4508.589844,4524.230957,4408.589844,4464.487305,,,,,,,,,,,,,,,,,,,,,,,,,,,,,,,,,,,,,,,,,,,,,,,,,,,,,,,,,,,,,,,,,,,,,,
1768920119.259518,1768920119.259858,101.0,0.0,4354.743652,4332.820313,4340.256348,4349.871582,4322.05127,4317.94873,4354.230957,4342.692383,4328.333496,4327.179688,4510.256348,4524.487305,4414.743652,4471.538574,,,,,,,,,,,,,,,,,,,,,,,,,,,,,,,,,,,,,,,,,,,,,,,,,,,,,,,,,,,,,,,,,,,,,,
1768920119.267326,1768920119.267567,102.0,0.0,4351.282227,4333.974121,4336.410156,4352.179688,4320.512695,4319.102539,4357.05127,4341.666504,4329.615234,4326.922852,4507.94873,4515.897461,4408.589844,4465.128418,,,,,,,,,,,,,,,,,,,,,,,,,,,,,,,,,,,,,,,,,,,,,,,,,,,,,,,,,,,,,,,,,,,,,,
1768920119.275134,1768920119.275375,103.0,0.0,4350.128418,4339.358887,4335.384766,4356.153809,4326.794922,4317.179688,4352.692383,4331.922852,4325.256348,4316.153809,4497.94873,4509.871582,4396.794922,4455.769043,,,,,,,,,,,,,,,,,,,,,,,,,,,,,,,,,,,,,,,,,,,,,,,,,,,,,,,,,,,,,,,,,,,,,,
1768920119.282943,1768920119.282984,104.0,0.0,4352.820313,4338.717773,4343.205078,4358.589844,4327.179688,4320.0,4352.820313,4333.077148,4321.794922,4311.538574,4492.436035,4517.820313,4392.563965,4455.769043,,,,,,,,,,,,,,,,,,,,,,,,,,,,,,,,,,,,,,,,,,,,,,,,,,,,,,,,,,,,,,,,,,,,,,
1768920119.290752,1768920119.290792,105.0,0.0,4356.025879,4336.538574,4342.563965,4356.282227,4322.05127,4323.461426,4350.769043,4336.025879,4322.307617,4317.179688,4500.256348,4524.615234,4399.230957,4461.153809,,,,,,,,,,,,,,,,,,,,,,,,,,,,,,,,,,,,,,,,,,,,,,,,,,,,,,,,,,,,,,,,,,,,,,
1768920119.29856,1768920119.298501,106.0,0.0,4356.794922,4338.077148,4331.538574,4351.922852,4323.846191,4322.692383,4348.333496,4333.717773,4322.692383,4318.589844,4505.0,4519.358887,4407.563965,4459.743652,,,,,,,,,,,,,,,,,,,,,,,,,,,,,,,,,,,,,,,,,,,,,,,,,,,,,,,,,,,,,,,,,,,,,,
1768920119.306369,1768920119.306309,107.0,0.0,4348.077148,4333.461426,4327.05127,4348.205078,4326.794922,4325.641113,4355.0,4335.769043,4322.820313,4311.410156,4494.871582,4509.871582,4400.641113,4449.230957,,,,,,,,,,,,,,,,,,,,,,,,,,,,,,,,,,,,,,,,,,,,,,,,,,,,,,,,,,,,,,,,,,,,,,
1768920119.314177,1768920119.313917,108.0,0.0,4341.538574,4330.512695,4333.333496,4346.410156,4326.666504,4326.538574,4358.077148,4337.563965,4320.641113,4306.922852,4485.512695,4506.282227,4386.922852,4445.256348,,,,,,,,,,,,,,,,,,,,,,,,,,,,,,,,,,,,,,,,,,,,,,,,,,,,,,,,,,,,,,,,,,,,,,
1768920119.321986,1768920119.321725,109.0,0.0,4357.563965,4341.794922,4345.0,4353.205078,4326.410156,4323.077148,4354.102539,4337.692383,4321.282227,4315.512695,4497.563965,4517.563965,4398.846191,4462.94873,,,,,,,,,,,,,,,,,,,,,,,,,,,,,,,,,,,,,,,,,,,,,,,,,,,,,,,,,,,,,,,,,,,,,,
1768920119.329794,1768920119.329634,110.0,0.0,4375.256348,4351.410156,4355.641113,4361.794922,4327.05127,4327.436035,4359.871582,4343.077148,4329.230957,4329.743652,4520.897461,4538.846191,4421.538574,4481.153809,,,,,,,,,,,,,,,,,,,,,,,,,,,,,,,,,,,,,,,,,,,,,,,,,,,,,,,,,,,,,,,,,,,,,,
1768920119.337603,1768920119.337442,111.0,0.0,4369.102539,4345.769043,4355.641113,4359.615234,4324.871582,4330.384766,4363.589844,4346.922852,4333.077148,4333.974121,4526.666504,4543.846191,4420.641113,4481.410156,,,,,,,,,,,,,,,,,,,,,,,,,,,,,,,,,,,,,,,,,,,,,,,,,,,,,,,,,,,,,,,,,,,,,,
1768920119.345411,1768920119.34545,112.0,0.0,4359.230957,4340.512695,4349.615234,4353.846191,4322.436035,4320.128418,4346.794922,4339.230957,4325.769043,4327.820313,4513.461426,4531.025879,4410.384766,4471.025879,0.570596,0.378051,0.363753,0.226455,0.099765,0.932917,0.290861,0.52149,0.177869,0.090157,0.712552,0.239593,0.221173,0.188584,0.120019,0.602147,0.155078,0.207875,0.141977,0.088447,0.183771,0.077984,0.094747,0.088333,0.078493,0.054071,0.078444,0.05006,0.134092,0.133825,0.200827,0.153116,0.236314,0.404255,0.280053,0.155736,0.121816,0.162573,0.139578,0.188117,0.277206,0.223243,0.386546,0.198138,0.149883,0.773309,0.178728,0.253732,0.21378,0.156906,1.05603,0.512064,0.679273,0.58475,0.176168,1.234247,0.487263,0.674902,0.653751,0.249039,0.722568,0.484159,0.856568,0.417345,0.238752,1.435208,0.857745,0.824505,0.602525,0.209115
1768920119.35322,1768920119.353259,113.0,0.0,4361.153809,4341.922852,4348.205078,4355.512695,4325.384766,4316.922852,4336.025879,4334.230957,4322.436035,4326.922852,4505.384766,4526.794922,4411.922852,4465.769043,,,,,,,,,,,,,,,,,,,,,,,,,,,,,,,,,,,,,,,,,,,,,,,,,,,,,,,,,,,,,,,,,,,,,,
1768920119.361028,1768920119.361167,114.0,0.0,4363.205078,4342.307617,4350.897461,4363.717773,4327.692383,4324.615234,4349.102539,4341.025879,4327.179688,4327.692383,4509.871582,4534.230957,4415.256348,4470.512695,,,,,,,,,,,,,,,,,,,,,,,,,,,,,,,,,,,,,,,,,,,,,,,,,,,,,,,,,,,,,,,,,,,,,,
1768920119.368837,1768920119.368976,115.0,0.0,4366.538574,4345.769043,4354.102539,4369.230957,4327.05127,4329.102539,4357.307617,4343.461426,4327.436035,4325.0,4509.871582,4538.077148,4412.820313,4477.307617,,,,,,,,,,,,,,,,,,,,,,,,,,,,,,,,,,,,,,,,,,,,,,,,,,,,,,,,,,,,,,,,,,,,,,
1768920119.376645,1768920119.376584,116.0,0.0,4373.717773,4350.641113,4358.974121,4368.717773,4326.666504,4327.436035,4352.820313,4340.641113,4326.153809,4326.410156,4506.922852,4539.102539,4411.153809,4478.717773,,,,,,,,,,,,,,,,,,,,,,,,,,,,,,,,,,,,,,,,,,,,,,,,,,,,,,,,,,,,,,,,,,,,,,
1768920119.384454,1768920119.384392,117.0,0.0,4372.820313,4344.615234,4354.743652,4364.871582,4327.05127,4324.358887,4352.179688,4338.333496,4326.025879,4323.717773,4508.589844,4535.128418,4411.282227,4469.743652,,,,,,,,,,,,,,,,,,,,,,,,,,,,,,,,,,,,,,,,,,,,,,,,,,,,,,,,,,,,,,,,,,,,,,
1768920119.392262,1768920119.392101,118.0,0.0,4361.538574,4336.153809,4342.307617,4361.282227,4327.436035,4325.769043,4359.230957,4338.589844,4325.256348,4317.436035,4508.205078,4523.846191,4410.897461,4461.153809,,,,,,,,,,,,,,,,,,,,,,,,,,,,,,,,,,,,,,,,,,,,,,,,,,,,,,,,,,,,,,,,,,,,,,
1768920119.400071,1768920119.399909,119.0,0.0,4356.410156,4337.307617,4339.871582,4361.538574,4327.05127,4330.897461,4361.666504,4342.820313,4328.461426,4322.05127,4506.794922,4522.05127,4410.769043,4464.487305,,,,,,,,,,,,,,,,,,,,,,,,,,,,,,,,,,,,,,,,,,,,,,,,,,,,,,,,,,,,,,,,,,,,,,
1768920119.407879,1768920119.407917,120.0,0.0,4363.717773,4341.153809,4346.538574,4362.436035,4325.512695,4329.487305,4350.641113,4341.282227,4330.0,4325.0,4508.205078,4531.025879,4412.820313,4472.820313,,,,,,,,,,,,,,,,,,,,,,,,,,,,,,,,,,,,,,,,,,,,,,,,,,,,,,,,,,,,,,,,,,,,,,
1768920119.415688,1768920119.415726,121.0,0.0,4367.692383,4341.410156,4348.205078,4361.025879,4325.512695,4320.897461,4343.589844,4335.128418,4324.358887,4313.333496,4509.102539,4531.794922,4413.717773,4473.974121,,,,,,,,,,,,,,,,,,,,,,,,,,,,,,,,,,,,,,,,,,,,,,,,,,,,,,,,,,,,,,,,,,,,,,
1768920119.423496,1768920119.423634,122.0,0.0,4362.05127,4339.871582,4344.487305,4360.0,4327.05127,4320.0,4355.256348,4337.179688,4322.05127,4311.538574,4508.077148,4526.538574,4410.384766,4468.974121,,,,,,,,,,,,,,,,,,,,,,,,,,,,,,,,,,,,,,,,,,,,,,,,,,,,,,,,,,,,,,,,,,,,,,
1768920119.431305,1768920119.431442,123.0,0.0,4358.717773,4336.794922,4340.769043,4360.128418,4327.307617,4327.436035,4361.282227,4341.025879,4326.922852,4322.563965,4507.436035,4523.461426,4408.717773,4467.820313,,,,,,,,,,,,,,,,,,,,,,,,,,,,,,,,,,,,,,,,,,,,,,,,,,,,,,,,,,,,,,,,,,,,,,
1768920119.439114,1768920119.439251,124.0,0.0,4359.871582,4336.410156,4342.563965,4357.820313,4326.282227,4327.820313,4346.922852,4336.666504,4327.179688,4324.102539,4508.205078,4522.307617,4410.769043,4471.282227,,,,,,,,,,,,,,,,,,,,,,,,,,,,,,,,,,,,,,,,,,,,,,,,,,,,,,,,,,,,,,,,,,,,,,
1768920119.446922,1768920119.447059,125.0,0.0,4357.436035,4338.077148,4349.487305,4356.666504,4326.282227,4323.974121,4341.922852,4335.384766,4324.871582,4319.230957,4509.102539,4525.769043,4412.05127,4475.512695,,,,,,,,,,,,,,,,,,,,,,,,,,,,,,,,,,,,,,,,,,,,,,,,,,,,,,,,,,,,,,,,,,,,,,
1768920119.45473,1768920119.454768,126.0,0.0,4353.461426,4332.692383,4349.743652,4359.230957,4325.769043,4325.384766,4352.436035,4341.153809,4326.666504,4317.436035,4508.589844,4530.897461,4409.743652,4474.615234,,,,,,,,,,,,,,,,,,,,,,,,,,,,,,,,,,,,,,,,,,,,,,,,,,,,,,,,,,,,,,,,,,,,,,
1768920119.462539,1768920119.462576,127.0,0.0,4352.692383,4328.589844,4343.461426,4357.692383,4327.179688,4326.538574,4352.94873,4343.589844,4327.563965,4317.307617,4507.436035,4530.384766,4407.94873,4471.025879,,,,,,,,,,,,,,,,,,,,,,,,,,,,,,,,,,,,,,,,,,,,,,,,,,,,,,,,,,,,,,,,,,,,,,
1768920119.470348,1768920119.470185,0.0,0.0,4354.615234,4332.179688,4341.282227,4356.410156,4329.358887,4323.077148,4347.692383,4340.256348,4324.743652,4314.615234,4505.641113,4524.358887,4404.615234,4466.153809,0.402259,0.315609,0.393043,0.281894,0.116047,0.784759,0.26786,0.54276,0.202958,0.099488,0.654723,0.2303,0.235289,0.21759,0.133929,0.5182,0.145926,0.223231,0.161783,0.0868,0.153311,0.065786,0.107233,0.105653,0.09154,0.075522,0.084889,0.058794,0.141974,0.138948,0.221317,0.142444,0.248722,0.437258,0.28138,0.149184,0.11358,0.162469,0.152347,0.191672,0.333688,0.214454,0.413801,0.228701,0.164061,0.785519,0.176979,0.304707,0.253731,0.154802,0.973806,0.441208,0.656469,0.674624,0.18685,1.064299,0.429887,0.670577,0.726027,0.26353,0.790642,0.484263,0.98781,0.471288,0.243984,1.204418,0.739311,0.881737,0.629603,0.223877
1768920119.478156,1768920119.477993,1.0,0.0,4353.717773,4335.512695,4343.589844,4358.077148,4330.128418,4327.307617,4351.922852,4337.563965,4324.743652,4312.05127,4503.461426,4519.230957,4396.794922,4458.717773,,,,,,,,,,,,,,,,,,,,,,,,,,,,,,,,,,,,,,,,,,,,,,,,,,,,,,,,,,,,,,,,,,,,,,
1768920119.485964,1768920119.485702,2.0,0.0,4351.282227,4336.922852,4343.077148,4356.538574,4332.436035,4334.871582,4358.846191,4338.205078,4325.384766,4315.128418,4504.358887,4520.128418,4398.333496,4459.358887,,,,,,,,,,,,,,,,,,,,,,,,,,,,,,,,,,,,,,,,,,,,,,,,,,,,,,,,,,,,,,,,,,,,,,
1768920119.493773,1768920119.49351,3.0,0.0,4354.871582,4339.102539,4341.410156,4356.666504,4333.205078,4330.0,4353.205078,4339.102539,4325.128418,4320.384766,4508.077148,4529.102539,4410.128418,4470.128418,,,,,,,,,,,,,,,,,,,,,,,,,,,,,,,,,,,,,,,,,,,,,,,,,,,,,,,,,,,,,,,,,,,,,,
1768920119.501582,1768920119.501118,4.0,0.0,4358.077148,4343.205078,4341.794922,4357.307617,4329.743652,4320.512695,4340.769043,4337.820313,4327.436035,4318.717773,4507.307617,4533.333496,4408.589844,4473.333496,,,,,,,,,,,,,,,,,,,,,,,,,,,,,,,,,,,,,,,,,,,,,,,,,,,,,,,,,,,,,,,,,,,,,,
1768920119.50939,1768920119.508926,5.0,0.0,4357.05127,4340.256348,4344.743652,4356.025879,4325.641113,4317.94873,4337.692383,4334.615234,4324.487305,4310.256348,4503.846191,4526.794922,4395.128418,4464.743652,,,,,,,,,,,,,,,,,,,,,,,,,,,,,,,,,,,,,,,,,,,,,,,,,,,,,,,,,,,,,,,,,,,,,,
1768920119.517198,1768920119.516635,6.0,0.0,4355.256348,4331.025879,4347.436035,4354.871582,4324.743652,4319.358887,4341.153809,4336.922852,4322.692383,4311.410156,4504.871582,4526.794922,4396.025879,4460.769043,,,,,,,,,,,,,,,,,,,,,,,,,,,,,,,,,,,,,,,,,,,,,,,,,,,,,,,,,,,,,,,,,,,,,,
1768920119.525007,1768920119.524443,7.0,0.0,4350.0,4330.641113,4343.333496,4354.871582,4329.358887,4326.025879,4345.384766,4346.282227,4331.282227,4319.487305,4507.05127,4531.794922,4399.102539,4462.820313,,,,,,,,,,,,,,,,,,,,,,,,,,,,,,,,,,,,,,,,,,,,,,,,,,,,,,,,,,,,,,,,,,,,,,
1768920119.532816,1768920119.532451,8.0,0.0,4348.461426,4342.307617,4340.641113,4357.05127,4333.333496,4331.922852,4352.436035,4346.922852,4333.461426,4318.077148,4506.794922,4534.230957,4393.846191,4465.128418,,,,,,,,,,,,,,,,,,,,,,,,,,,,,,,,,,,,,,,,,,,,,,,,,,,,,,,,,,,,,,,,,,,,,,
1768920119.540624,1768920119.54026,9.0,0.0,4354.871582,4348.461426,4346.922852,4359.487305,4331.666504,4330.0,4352.05127,4337.436035,4325.256348,4314.871582,4507.820313,4536.410156,4401.794922,4474.102539,,,,,,,,,,,,,,,,,,,,,,,,,,,,,,,,,,,,,,,,,,,,,,,,,,,,,,,,,,,,,,,,,,,,,,
1768920119.548433,1768920119.548168,10.0,0.0,4355.256348,4343.974121,4351.922852,4358.333496,4326.538574,4326.922852,4341.922852,4335.512695,4324.230957,4316.666504,4510.0,4531.666504,4411.153809,4480.0,,,,,,,,,,,,,,,,,,,,,,,,,,,,,,,,,,,,,,,,,,,,,,,,,,,,,,,,,,,,,,,,,,,,,,
1768920119.556241,1768920119.555976,11.0,0.0,4350.128418,4341.666504,4346.666504,4356.282227,4328.205078,4326.025879,4338.589844,4341.666504,4327.820313,4316.538574,4505.384766,4525.512695,4405.641113,4472.307617,,,,,,,,,,,,,,,,,,,,,,,,,,,,,,,,,,,,,,,,,,,,,,,,,,,,,,,,,,,,,,,,,,,,,,
1768920119.56405,1768920119.563985,12.0,0.0,4351.410156,4340.0,4342.820313,4357.307617,4339.358887,4327.94873,4346.922852,4341.922852,4330.769043,4317.820313,4502.820313,4532.692383,4405.384766,4469.871582,,,,,,,,,,,,,,,,,,,,,,,,,,,,,,,,,,,,,,,,,,,,,,,,,,,,,,,,,,,,,,,,,,,,,,
1768920119.571858,1768920119.571793,13.0,0.0,4352.563965,4333.077148,4348.589844,4356.025879,4341.922852,4333.589844,4351.282227,4340.0,4334.743652,4325.769043,4511.922852,4542.563965,4416.153809,4478.205078,,,,,,,,,,,,,,,,,,,,,,,,,,,,,,,,,,,,,,,,,,,,,,,,,,,,,,,,,,,,,,,,,,,,,,
1768920119.579667,1768920119.579701,14.0,0.0,4351.025879,4328.717773,4353.205078,4351.794922,4332.692383,4334.615234,4346.922852,4343.333496,4336.410156,4326.538574,4513.717773,4537.563965,4412.94873,4475.769043,,,,,,,,,,,,,,,,,,,,,,,,,,,,,,,,,,,,,,,,,,,,,,,,,,,,,,,,,,,,,,,,,,,,,,
1768920119.587475,1768920119.58751,15.0,0.0,4349.615234,4333.846191,4350.256348,4352.436035,4329.871582,4326.538574,4341.794922,4345.641113,4336.666504,4321.922852,4505.128418,4530.384766,4402.563965,4465.384766,,,,,,,,,,,,,,,,,,,,,,,,,,,,,,,,,,,,,,,,,,,,,,,,,,,,,,,,,,,,,,,,,,,,,,
1768920119.595284,1768920119.595518,16.0,0.0,4346.410156,4342.05127,4348.846191,4356.538574,4336.282227,4321.922852,4340.641113,4343.846191,4337.692383,4325.384766,4509.743652,4529.487305,4406.922852,4465.256348,0.302982,0.270498,0.38056,0.326487,0.13257,0.638858,0.263574,0.528339,0.222554,0.110379,0.642416,0.218902,0.239672,0.247598,0.148439,0.435067,0.142543,0.226746,0.178679,0.087976,0.135113,0.056502,0.10963,0.115388,0.103141,0.112527,0.09657,0.06863,0.155592,0.145312,0.271344,0.147894,0.257947,0.447916,0.28524,0.158425,0.10487,0.15514,0.164621,0.190954,0.420471,0.20063,0.41683,0.252154,0.177607,0.812855,0.198389,0.33805,0.279706,0.151067,0.902021,0.380866,0.612915,0.73616,0.194058,0.921517,0.395207,0.638439,0.772958,0.265064,0.85035,0.484071,1.044442,0.508335,0.235321,0.941559,0.642938,0.875366,0.634922,0.233268
1768920119.603092,1768920119.603327,17.0,0.0,4348.333496,4346.410156,4354.871582,4362.307617,4340.128418,4327.563965,4341.025879,4343.333496,4340.641113,4331.282227,4522.692383,4535.641113,4414.487305,4476.282227,,,,,,,,,,,,,,,,,,,,,,,,,,,,,,,,,,,,,,,,,,,,,,,,,,,,,,,,,,,,,,,,,,,,,,
1768920119.610901,1768920119.611235,18.0,0.0,4355.256348,4349.615234,4361.153809,4367.436035,4338.589844,4332.436035,4340.641113,4344.487305,4341.025879,4332.436035,4523.846191,4548.077148,4414.871582,4480.0,,,,,,,,,,,,,,,,,,,,,,,,,,,,,,,,,,,,,,,,,,,,,,,,,,,,,,,,,,,,,,,,,,,,,,
1768920119.618709,1768920119.619043,19.0,0.0,4357.436035,4348.846191,4363.333496,4364.871582,4337.820313,4330.256348,4342.563965,4341.153809,4333.717773,4328.846191,4517.820313,4550.512695,4411.410156,4476.153809,,,,,,,,,,,,,,,,,,,,,,,,,,,,,,,,,,,,,,,,,,,,,,,,,,,,,,,,,,,,,,,,,,,,,,
1768920119.626518,1768920119.626952,20.0,0.0,4350.769043,4342.692383,4355.512695,4357.436035,4337.94873,4325.128418,4343.589844,4339.102539,4327.692383,4322.179688,4512.436035,4538.461426,4407.563965,4476.282227,,,,,,,,,,,,,,,,,,,,,,,,,,,,,,,,,,,,,,,,,,,,,,,,,,,,,,,,,,,,,,,,,,,,,,
1768920119.634326,1768920119.63476,21.0,0.0,4342.05127,4341.538574,4344.358887,4357.307617,4337.436035,4322.692383,4338.333496,4342.436035,4331.153809,4319.487305,4506.922852,4531.025879,4403.205078,4475.641113,,,,,,,,,,,,,,,,,,,,,,,,,,,,,,,,,,,,,,,,,,,,,,,,,,,,,,,,,,,,,,,,,,,,,,
1768920119.642135,1768920119.642469,22.0,0.0,4338.461426,4346.153809,4344.743652,4361.282227,4337.94873,4324.487305,4335.384766,4342.563965,4330.256348,4321.538574,4505.897461,4531.922852,4401.410156,4472.94873,,,,,,,,,,,,,,,,,,,,,,,,,,,,,,,,,,,,,,,,,,,,,,,,,,,,,,,,,,,,,,,,,,,,,,
1768920119.649943,1768920119.650277,23.0,0.0,4340.256348,4348.333496,4351.282227,4360.512695,4339.358887,4330.384766,4342.820313,4337.436035,4323.461426,4325.384766,4509.615234,4529.358887,4406.666504,4473.717773,,,,,,,,,,,,,,,,,,,,,,,,,,,,,,,,,,,,,,,,,,,,,,,,,,,,,,,,,,,,,,,,,,,,,,
1768920119.657752,1768920119.658286,24.0,0.0,4342.05127,4346.538574,4348.077148,4358.717773,4335.897461,4329.615234,4345.256348,4338.717773,4328.717773,4326.153809,4508.589844,4528.717773,4412.820313,4475.128418,,,,,,,,,,,,,,,,,,,,,,,,,,,,,,,,,,,,,,,,,,,,,,,,,,,,,,,,,,,,,,,,,,,,,,
1768920119.66556,1768920119.666094,25.0,0.0,4337.692383,4342.179688,4340.769043,4357.692383,4328.461426,4320.769043,4337.692383,4347.05127,4339.615234,4326.410156,4509.358887,4537.563965,4414.102539,4475.128418,,,,,,,,,,,,,,,,,,,,,,,,,,,,,,,,,,,,,,,,,,,,,,,,,,,,,,,,,,,,,,,,,,,,,,
1768920119.673369,1768920119.673803,26.0,0.0,4331.538574,4342.179688,4345.897461,4356.922852,4330.897461,4323.205078,4340.0,4348.461426,4338.974121,4325.0,4517.05127,4542.307617,4412.307617,4476.410156,,,,,,,,,,,,,,,,,,,,,,,,,,,,,,,,,,,,,,,,,,,,,,,,,,,,,,,,,,,,,,,,,,,,,,
1768920119.681177,1768920119.681611,27.0,0.0,4331.666504,4344.487305,4353.974121,4357.563965,4338.205078,4331.153809,4345.769043,4341.794922,4329.102539,4322.563965,4516.282227,4535.128418,4408.974121,4474.615234,,,,,,,,,,,,,,,,,,,,,,,,,,,,,,,,,,,,,,,,,,,,,,,,,,,,,,,,,,,,,,,,,,,,,,
1768920119.688986,1768920119.68922,28.0,0.0,4337.05127,4342.692383,4350.897461,4356.153809,4335.0,4328.461426,4340.897461,4336.025879,4324.871582,4325.128418,4507.179688,4528.974121,4408.589844,4469.871582,,,,,,,,,,,,,,,,,,,,,,,,,,,,,,,,,,,,,,,,,,,,,,,,,,,,,,,,,,,,,,,,,,,,,,
1768920119.696794,1768920119.697028,29.0,0.0,4339.487305,4339.743652,4346.794922,4354.230957,4328.205078,4324.615234,4340.0,4337.307617,4328.077148,4326.025879,4506.025879,4531.666504,4409.615234,4470.384766,,,,,,,,,,,,,,,,,,,,,,,,,,,,,,,,,,,,,,,,,,,,,,,,,,,,,,,,,,,,,,,,,,,,,,
1768920119.704603,1768920119.704736,30.0,0.0,4338.461426,4343.077148,4351.153809,4356.666504,4329.487305,4326.410156,4344.358887,4338.717773,4328.205078,4323.333496,4511.410156,4538.846191,4410.641113,4475.256348,,,,,,,,,,,,,,,,,,,,,,,,,,,,,,,,,,,,,,,,,,,,,,,,,,,,,,,,,,,,,,,,,,,,,,
1768920119.712412,1768920119.712544,31.0,0.0,4342.563965,4348.205078,4358.333496,4360.128418,4331.025879,4326.153809,4342.692383,4337.563965,4325.384766,4322.94873,4511.282227,4542.692383,4413.077148,4478.717773,,,,,,,,,,,,,,,,,,,,,,,,,,,,,,,,,,,,,,,,,,,,,,,,,,,,,,,,,,,,,,,,,,,,,,
1768920119.72022,1768920119.720553,32.0,0.0,4345.769043,4346.153809,4359.102539,4360.128418,4332.05127,4325.384766,4339.615234,4336.025879,4322.436035,4318.077148,4506.282227,4534.230957,4407.820313,4472.179688,0.268245,0.244448,0.331186,0.356642,0.148091,0.549624,0.275191,0.474495,0.234628,0.120008,0.700471,0.228059,0.231866,0.276733,0.159609,0.380409,0.150744,0.217889,0.19168,0.090921,0.125267,0.050594,0.102128,0.11479,0.109665,0.155294,0.107532,0.076129,0.168799,0.150264,0.337364,0.161183,0.260341,0.435243,0.291748,0.183636,0.095064,0.147742,0.175089,0.185298,0.501805,0.182747,0.398467,0.260174,0.185091,0.848544,0.257991,0.346329,0.282671,0.146699,0.867423,0.355797,0.550088,0.743598,0.199509,0.857499,0.400256,0.572778,0.78496,0.255277,0.889319,0.494462,1.007713,0.518237,0.221009,0.708147,0.603433,0.810331,0.622489,0.239488
1768920119.728028,1768920119.728361,33.0,0.0,4340.897461,4341.153809,4357.94873,4360.769043,4333.846191,4328.974121,4341.282227,4335.0,4323.205078,4308.974121,4504.102539,4524.358887,4398.077148,4463.974121,,,,,,,,,,,,,,,,,,,,,,,,,,,,,,,,,,,,,,,,,,,,,,,,,,,,,,,,,,,,,,,,,,,,,,
1768920119.735837,1768920119.73627,34.0,0.0,4335.897461,4341.666504,4358.205078,4363.077148,4333.333496,4330.256348,4345.384766,4339.871582,4328.077148,4310.512695,4506.922852,4531.794922,4401.666504,4468.974121,,,,,,,,,,,,,,,,,,,,,,,,,,,,,,,,,,,,,,,,,,,,,,,,,,,,,,,,,,,,,,,,,,,,,,
1768920119.743646,1768920119.744078,35.0,0.0,4338.205078,4349.487305,4359.230957,4366.153809,4332.307617,4325.384766,4339.615234,4340.897461,4328.717773,4319.487305,4509.615234,4539.743652,4409.615234,4477.05127,,,,,,,,,,,,,,,,,,,,,,,,,,,,,,,,,,,,,,,,,,,,,,,,,,,,,,,,,,,,,,,,,,,,,,
1768920119.751454,1768920119.752086,36.0,0.0,4340.384766,4353.077148,4358.205078,4364.358887,4331.538574,4321.666504,4325.641113,4332.436035,4323.461426,4319.358887,4506.282227,4531.025879,4406.025879,4475.897461,,,,,,,,,,,,,,,,,,,,,,,,,,,,,,,,,,,,,,,,,,,,,,,,,,,,,,,,,,,,,,,,,,,,,,
1768920119.759262,1768920119.759895,37.0,0.0,4339.102539,4346.794922,4353.461426,4359.615234,4332.179688,4325.0,4326.153809,4332.05127,4323.461426,4313.717773,4505.128418,4525.128418,4401.666504,4472.692383,,,,,,,,,,,,,,,,,,,,,,,,,,,,,,,,,,,,,,,,,,,,,,,,,,,,,,,,,,,,,,,,,,,,,,
1768920119.767071,1768920119.767803,38.0,0.0,4342.563965,4343.461426,4351.153809,4358.589844,4331.794922,4327.436035,4335.769043,4338.846191,4326.794922,4313.589844,4507.179688,4529.230957,4404.487305,4472.94873,,,,,,,,,,,,,,,,,,,,,,,,,,,,,,,,,,,,,,,,,,,,,,,,,,,,,,,,,,,,,,,,,,,,,,
1768920119.77488,1768920119.775611,39.0,0.0,4349.487305,4349.487305,4356.282227,4361.025879,4332.94873,4325.128418,4335.384766,4338.077148,4325.641113,4318.846191,4508.333496,4532.307617,4407.820313,4480.769043,,,,,,,,,,,,,,,,,,,,,,,,,,,,,,,,,,,,,,,,,,,,,,,,,,,,,,,,,,,,,,,,,,,,,,
1768920119.782688,1768920119.78322,40.0,0.0,4353.205078,4353.461426,4361.282227,4361.025879,4335.0,4328.717773,4337.563965,4338.461426,4328.717773,4323.974121,4510.256348,4541.153809,4414.102539,4487.307617,,,,,,,,,,,,,,,,,,,,,,,,,,,,,,,,,,,,,,,,,,,,,,,,,,,,,,,,,,,,,,,,,,,,,,
1768920119.790497,1768920119.791028,41.0,0.0,4355.128418,4348.333496,4354.230957,4357.307617,4333.205078,4333.333496,4340.641113,4343.077148,4333.205078,4323.846191,4510.384766,4540.512695,4413.589844,4480.384766,,,,,,,,,,,,,,,,,,,,,,,,,,,,,,,,,,,,,,,,,,,,,,,,,,,,,,,,,,,,,,,,,,,,,,
1768920119.798305,1768920119.798936,42.0,0.0,4356.538574,4344.102539,4344.871582,4356.666504,4330.641113,4331.153809,4335.384766,4340.256348,4329.487305,4318.717773,4507.820313,4524.743652,4406.794922,4473.205078,,,,,,,,,,,,,,,,,,,,,,,,,,,,,,,,,,,,,,,,,,,,,,,,,,,,,,,,,,,,,,,,,,,,,,
1768920119.806114,1768920119.806745,43.0,0.0,4352.179688,4344.102539,4347.179688,4356.922852,4331.410156,4325.0,4335.128418,4336.410156,4324.615234,4311.666504,4502.563965,4520.769043,4401.794922,4470.641113,,,,,,,,,,,,,,,,,,,,,,,,,,,,,,,,,,,,,,,,,,,,,,,,,,,,,,,,,,,,,,,,,,,,,,
1768920119.813922,1768920119.814354,44.0,0.0,4349.102539,4343.205078,4352.692383,4356.922852,4333.461426,4324.615234,4340.128418,4338.846191,4326.025879,4308.333496,4500.512695,4527.563965,4396.794922,4465.384766,,,,,,,,,,,,,,,,,,,,,,,,,,,,,,,,,,,,,,,,,,,,,,,,,,,,,,,,,,,,,,,,,,,,,,
1768920119.821731,1768920119.822162,45.0,0.0,4357.563965,4342.563965,4355.512695,4361.025879,4333.589844,4335.897461,4341.794922,4342.179688,4331.666504,4316.282227,4506.025879,4531.666504,4403.333496,4469.743652,,,,,,,,,,,,,,,,,,,,,,,,,,,,,,,,,,,,,,,,,,,,,,,,,,,,,,,,,,,,,,,,,,,,,,
1768920119.829539,1768920119.829871,46.0,0.0,4361.410156,4342.94873,4354.615234,4359.230957,4332.436035,4341.025879,4341.666504,4344.358887,4336.282227,4326.282227,4512.436035,4538.077148,4416.025879,4480.384766,,,,,,,,,,,,,,,,,,,,,,,,,,,,,,,,,,,,,,,,,,,,,,,,,,,,,,,,,,,,,,,,,,,,,,
1768920119.837348,1768920119.837679,47.0,0.0,4351.282227,4341.025879,4346.666504,4349.615234,4329.487305,4332.05127,4342.820313,4346.922852,4335.256348,4321.410156,4509.871582,4536.794922,4408.077148,4471.666504,,,,,,,,,,,,,,,,,,,,,,,,,,,,,,,,,,,,,,,,,,,,,,,,,,,,,,,,,,,,,,,,,,,,,,
1768920119.845156,1768920119.845288,48.0,0.0,4348.717773,4338.846191,4341.282227,4348.717773,4329.358887,4326.922852,4337.692383,4338.974121,4327.179688,4308.333496,4500.128418,4520.384766,4393.589844,4458.205078,0.294356,0.233068,0.259645,0.373908,0.161297,0.542362,0.293143,0.390964,0.243135,0.12567,0.827398,0.277036,0.213403,0.303848,0.165014,0.366882,0.170399,0.199165,0.200823,0.09372,0.120176,0.048199,0.087665,0.105182,0.109416,0.19137,0.114457,0.080922,0.178508,0.15136,0.399078,0.174857,0.257143,0.407525,0.29895,0.21615,0.084352,0.145953,0.180464,0.175442,0.547963,0.165344,0.366308,0.249217,0.182888,0.880148,0.359582,0.328037,0.262796,0.14285,0.87224,0.380251,0.472553,0.689337,0.205,0.902261,0.449808,0.47791,0.767643,0.240576,0.907913,0.52718,0.88507,0.498501,0.210991,0.552701,0.627596,0.700475,0.599957,0.244893
1768920119.852965,1768920119.853096,49.0,0.0,4361.153809,4341.922852,4344.871582,4356.282227,4331.538574,4330.769043,4329.743652,4330.641113,4323.717773,4309.102539,4500.0,4514.743652,4397.436035,4460.0,,,,,,,,,,,,,,,,,,,,,,,,,,,,,,,,,,,,,,,,,,,,,,,,,,,,,,,,,,,,,,,,,,,,,,
1768920119.860773,1768920119.861005,50.0,0.0,4365.256348,4345.512695,4345.769043,4356.922852,4332.436035,4333.205078,4333.589844,4336.538574,4326.538574,4314.358887,4503.717773,4518.974121,4402.179688,4459.358887,,,,,,,,,,,,,,,,,,,,,,,,,,,,,,,,,,,,,,,,,,,,,,,,,,,,,,,,,,,,,,,,,,,,,,
1768920119.868582,1768920119.868813,51.0,0.0,4356.538574,4342.94873,4342.563965,4354.487305,4334.102539,4332.820313,4339.871582,4342.179688,4327.820313,4310.384766,4496.538574,4513.846191,4394.871582,4455.0,,,,,,,,,,,,,,,,,,,,,,,,,,,,,,,,,,,,,,,,,,,,,,,,,,,,,,,,,,,,,,,,,,,,,,
1768920119.87639,1768920119.876822,52.0,0.0,4355.512695,4342.05127,4344.615234,4355.384766,4335.769043,4332.94873,4333.077148,4336.410156,4325.384766,4309.358887,4489.615234,4511.538574,4393.205078,4455.769043,,,,,,,,,,,,,,,,,,,,,,,,,,,,,,,,,,,,,,,,,,,,,,,,,,,,,,,,,,,,,,,,,,,,,,
1768920119.884199,1768920119.88463,53.0,0.0,4365.384766,4350.128418,4350.641113,4359.871582,4335.897461,4328.205078,4325.384766,4334.230957,4324.615234,4313.333496,4498.717773,4523.077148,4399.871582,4460.897461,,,,,,,,,,,,,,,,,,,,,,,,,,,,,,,,,,,,,,,,,,,,,,,,,,,,,,,,,,,,,,,,,,,,,,
1768920119.892007,1768920119.892338,54.0,0.0,4369.487305,4352.94873,4356.025879,4363.589844,4333.333496,4325.128418,4329.102539,4341.666504,4329.871582,4312.307617,4508.974121,4530.256348,4402.179688,4467.307617,,,,,,,,,,,,,,,,,,,,,,,,,,,,,,,,,,,,,,,,,,,,,,,,,,,,,,,,,,,,,,,,,,,,,,
1768920119.899816,1768920119.900147,55.0,0.0,4366.025879,4345.897461,4357.94873,4363.205078,4330.897461,4333.077148,4339.358887,4343.846191,4331.922852,4314.230957,4507.179688,4526.153809,4397.179688,4467.179688,,,,,,,,,,,,,,,,,,,,,,,,,,,,,,,,,,,,,,,,,,,,,,,,,,,,,,,,,,,,,,,,,,,,,,
1768920119.907624,1768920119.907755,56.0,0.0,4367.436035,4348.974121,4354.871582,4364.487305,4333.717773,4337.820313,4343.461426,4337.179688,4326.410156,4319.102539,4505.128418,4524.743652,4395.641113,4462.05127,,,,,,,,,,,,,,,,,,,,,,,,,,,,,,,,,,,,,,,,,,,,,,,,,,,,,,,,,,,,,,,,,,,,,,
1768920119.915433,1768920119.915563,57.0,0.0,4373.077148,4360.897461,4351.538574,4366.282227,4335.384766,4330.256348,4333.846191,4335.128418,4325.256348,4315.897461,4505.769043,4522.94873,4403.717773,4466.922852,,,,,,,,,,,,,,,,,,,,,,,,,,,,,,,,,,,,,,,,,,,,,,,,,,,,,,,,,,,,,,,,,,,,,,
1768920119.923241,1768920119.923271,58.0,0.0,4372.820313,4359.871582,4349.358887,4361.025879,4327.307617,4322.307617,4326.025879,4341.410156,4332.179688,4313.333496,4508.461426,4522.179688,4412.05127,4478.589844,,,,,,,,,,,,,,,,,,,,,,,,,,,,,,,,,,,,,,,,,,,,,,,,,,,,,,,,,,,,,,,,,,,,,,
1768920119.93105,1768920119.93108,59.0,0.0,4369.871582,4345.897461,4351.282227,4355.256348,4322.436035,4323.589844,4333.589844,4343.077148,4332.563965,4320.256348,4508.589844,4527.94873,4411.538574,4477.820313,,,,,,,,,,,,,,,,,,,,,,,,,,,,,,,,,,,,,,,,,,,,,,,,,,,,,,,,,,,,,,,,,,,,,,
1768920119.938858,1768920119.939088,60.0,0.0,4370.769043,4343.717773,4356.282227,4359.102539,4326.153809,4323.461426,4338.846191,4339.230957,4330.0,4326.282227,4508.717773,4537.307617,4411.410156,4474.102539,,,,,,,,,,,,,,,,,,,,,,,,,,,,,,,,,,,,,,,,,,,,,,,,,,,,,,,,,,,,,,,,,,,,,,
1768920119.946667,1768920119.946896,61.0,0.0,4371.025879,4351.153809,4360.641113,4365.0,4323.717773,4323.333496,4333.589844,4340.128418,4335.512695,4326.666504,4511.794922,4542.436035,4415.641113,4478.077148,,,,,,,,,,,,,,,,,,,,,,,,,,,,,,,,,,,,,,,,,,,,,,,,,,,,,,,,,,,,,,,,,,,,,,
1768920119.954476,1768920119.954805,62.0,0.0,4368.589844,4349.230957,4358.974121,4363.205078,4319.230957,4328.461426,4331.538574,4340.512695,4335.641113,4324.743652,4510.0,4539.871582,4412.692383,4478.589844,,,,,,,,,,,,,,,,,,,,,,,,,,,,,,,,,,,,,,,,,,,,,,,,,,,,,,,,,,,,,,,,,,,,,,
1768920119.962284,1768920119.962613,63.0,0.0,4365.512695,4340.384766,4348.717773,4358.077148,4321.794922,4326.666504,4333.333496,4340.0,4329.358887,4324.358887,4507.692383,4533.461426,4406.922852,4473.333496,,,,,,,,,,,,,,,,,,,,,,,,,,,,,,,,,,,,,,,,,,,,,,,,,,,,,,,,,,,,,,,,,,,,,,
1768920119.970092,1768920119.970621,64.0,0.0,4362.05127,4339.871582,4340.641113,4355.384766,4325.769043,4322.179688,4331.794922,4341.538574,4328.589844,4321.282227,4508.205078,4527.307617,4410.256348,4468.717773,0.381178,0.234444,0.185024,0.382097,0.17002,0.597397,0.308821,0.297517,0.25534,0.126146,0.987417,0.367079,0.187145,0.326832,0.164835,0.384125,0.196975,0.17584,0.206994,0.094079,0.118357,0.048686,0.07108,0.09141,0.103604,0.213189,0.118085,0.084187,0.185075,0.147609,0.44058,0.188714,0.252957,0.377758,0.303448,0.250522,0.075415,0.151418,0.176982,0.163435,0.548723,0.156106,0.331206,0.222064,0.171235,0.890646,0.487252,0.288307,0.230415,0.140248,0.893853,0.446431,0.390823,0.591042,0.211327,1.026899,0.527719,0.366685,0.740589,0.227254,0.908352,0.583268,0.70838,0.459093,0.211067,0.484776,0.69158,0.564024,0.57647,0.249963
1768920119.977901,1768920119.97843,65.0,0.0,4358.461426,4343.461426,4345.0,4355.128418,4324.487305,4324.743652,4328.589844,4340.769043,4328.717773,4314.871582,4507.179688,4527.94873,4411.922852,4471.794922,,,,,,,,,,,,,,,,,,,,,,,,,,,,,,,,,,,,,,,,,,,,,,,,,,,,,,,,,,,,,,,,,,,,,,
1768920119.98571,1768920119.986138,66.0,0.0,4356.666504,4343.846191,4353.974121,4357.692383,4324.102539,4329.871582,4327.563965,4339.743652,4325.128418,4312.94873,4507.94873,4531.410156,4406.282227,4475.0,,,,,,,,,,,,,,,,,,,,,,,,,,,,,,,,,,,,,,,,,,,,,,,,,,,,,,,,,,,,,,,,,,,,,,
1768920119.993518,1768920119.993946,67.0,0.0,4353.205078,4339.487305,4351.153809,4354.230957,4325.897461,4326.282227,4326.153809,4340.0,4325.256348,4315.897461,4505.256348,4526.922852,4400.512695,4466.410156,,,,,,,,,,,,,,,,,,,,,,,,,,,,,,,,,,,,,,,,,,,,,,,,,,,,,,,,,,,,,,,,,,,,,,
1768920120.001326,1768920120.001755,68.0,0.0,4345.256348,4328.205078,4340.256348,4344.487305,4327.05127,4324.871582,4326.666504,4339.743652,4326.666504,4310.128418,4492.05127,4514.230957,4390.897461,4454.230957,,,,,,,,,,,,,,,,,,,,,,,,,,,,,,,,,,,,,,,,,,,,,,,,,,,,,,,,,,,,,,,,,,,,,,
1768920120.009135,1768920120.009563,69.0,0.0,4345.512695,4327.692383,4341.666504,4347.94873,4329.358887,4334.487305,4338.589844,4344.102539,4328.717773,4306.922852,4490.0,4516.153809,4388.846191,4456.794922,,,,,,,,,,,,,,,,,,,,,,,,,,,,,,,,,,,,,,,,,,,,,,,,,,,,,,,,,,,,,,,,,,,,,,
