Timestamp,OriginalTimestamp,EEG.Counter,EEG.Interpolated,EEG.AF3,EEG.F7,EEG.F3,EEG.FC5,EEG.T7,EEG.P7,EEG.O1,EEG.O2,EEG.P8,EEG.T8,EEG.FC6,EEG.F4,EEG.F8,EEG.AF4,POW.AF3.Theta,POW.AF3.Alpha,POW.AF3.BetaL,POW.AF3.BetaH,POW.AF3.Gamma,POW.F7.Theta,POW.F7.Alpha,POW.F7.BetaL,POW.F7.BetaH,POW.F7.Gamma,POW.F3.Theta,POW.F3.Alpha,POW.F3.BetaL,POW.F3.BetaH,POW.F3.Gamma,POW.FC5.Theta,POW.FC5.Alpha,POW.FC5.BetaL,POW.FC5.BetaH,POW.FC5.Gamma,POW.T7.Theta,POW.T7.Alpha,POW.T7.BetaL,POW.T7.BetaH,POW.T7.Gamma,POW.P7.Theta,POW.P7.Alpha,POW.P7.BetaL,POW.P7.BetaH,POW.P7.Gamma,POW.O1.Theta,POW.O1.Alpha,POW.O1.BetaL,POW.O1.BetaH,POW.O1.Gamma,POW.O2.Theta,POW.O2.Alpha,POW.O2.BetaL,POW.O2.BetaH,POW.O2.Gamma,POW.P8.Theta,POW.P8.Alpha,POW.P8.BetaL,POW.P8.BetaH,POW.P8.Gamma,POW.T8.Theta,POW.T8.Alpha,POW.T8.BetaL,POW.T8.BetaH,POW.T8.Gamma,POW.FC6.Theta,POW.FC6.Alpha,POW.FC6.BetaL,POW.FC6.BetaH,POW.FC6.Gamma,POW.F4.Theta,POW.F4.Alpha,POW.F4.BetaL,POW.F4.BetaH,POW.F4.Gamma,POW.F8.Theta,POW.F8.Alpha,POW.F8.BetaL,POW.F8.BetaH,POW.F8.Gamma,POW.AF4.Theta,POW.AF4.Alpha,POW.AF4.BetaL,POW.AF4.BetaH,POW.AF4.Gamma
1769164050.500987,1769164050.501725,113.0,0.0,4312.05127,4302.820313,4345.512695,4330.128418,4277.820313,4279.102539,4310.256348,4311.666504,4293.333496,4261.794922,4595.512695,4566.794922,4443.846191,4523.333496,,,,,,,,,,,,,,,,,,,,,,,,,,,,,,,,,,,,,,,,,,,,,,,,,,,,,,,,,,,,,,,,,,,,,,
1769164050.508796,1769164050.509434,114.0,0.0,4319.358887,4306.410156,4342.692383,4330.128418,4279.102539,4275.0,4307.94873,4316.025879,4296.282227,4265.641113,4597.94873,4567.307617,4446.282227,4525.897461,,,,,,,,,,,,,,,,,,,,,,,,,,,,,,,,,,,,,,,,,,,,,,,,,,,,,,,,,,,,,,,,,,,,,,
1769164050.516604,1769164050.517242,115.0,0.0,4323.589844,4296.538574,4347.307617,4330.256348,4277.179688,4281.666504,4316.666504,4321.282227,4295.897461,4266.538574,4602.563965,4577.692383,4443.333496,4534.743652,,,,,,,,,,,,,,,,,,,,,,,,,,,,,,,,,,,,,,,,,,,,,,,,,,,,,,,,,,,,,,,,,,,,,,
1769164050.524413,1769164050.524851,116.0,0.0,4339.487305,4300.128418,4359.615234,4333.717773,4273.974121,4281.666504,4318.333496,4316.153809,4292.94873,4263.077148,4604.102539,4585.512695,4450.128418,4551.282227,,,,,,,,,,,,,,,,,,,,,,,,,,,,,,,,,,,,,,,,,,,,,,,,,,,,,,,,,,,,,,,,,,,,,,
1769164050.532221,1769164050.532659,117.0,0.0,4364.743652,4314.102539,4368.974121,4344.230957,4273.846191,4265.641113,4307.307617,4310.256348,4294.102539,4266.538574,4603.461426,4586.666504,4459.615234,4565.256348,,,,,,,,,,,,,,,,,,,,,,,,,,,,,,,,,,,,,,,,,,,,,,,,,,,,,,,,,,,,,,,,,,,,,,
1769164050.54003,1769164050.540368,118.0,0.0,4371.282227,4314.615234,4368.333496,4348.205078,4271.922852,4262.307617,4302.94873,4309.102539,4287.692383,4267.307617,4600.128418,4582.94873,4449.230957,4565.0,,,,,,,,,,,,,,,,,,,,,,,,,,,,,,,,,,,,,,,,,,,,,,,,,,,,,,,,,,,,,,,,,,,,,,
1769164050.547838,1769164050.548176,119.0,0.0,4359.487305,4309.487305,4364.487305,4341.794922,4267.436035,4278.461426,4311.025879,4310.0,4280.897461,4262.563965,4598.461426,4582.307617,4443.205078,4564.230957,,,,,,,,,,,,,,,,,,,,,,,,,,,,,,,,,,,,,,,,,,,,,,,,,,,,,,,,,,,,,,,,,,,,,,
1769164050.555647,1769164050.555785,120.0,0.0,4361.922852,4310.384766,4365.897461,4339.743652,4270.769043,4277.94873,4313.717773,4310.769043,4287.563965,4267.179688,4605.897461,4587.94873,4460.641113,4583.589844,,,,,,,,,,,,,,,,,,,,,,,,,,,,,,,,,,,,,,,,,,,,,,,,,,,,,,,,,,,,,,,,,,,,,,
1769164050.563455,1769164050.563593,121.0,0.0,4381.666504,4316.666504,4368.205078,4346.666504,4275.384766,4264.487305,4310.897461,4312.179688,4292.820313,4273.589844,4609.615234,4587.307617,4465.128418,4595.384766,,,,,,,,,,,,,,,,,,,,,,,,,,,,,,,,,,,,,,,,,,,,,,,,,,,,,,,,,,,,,,,,,,,,,,
1769164050.571263,1769164050.571502,122.0,0.0,4387.692383,4320.0,4363.846191,4349.487305,4270.128418,4271.282227,4312.692383,4311.538574,4288.205078,4270.384766,4606.410156,4582.179688,4452.307617,4587.179688,,,,,,,,,,,,,,,,,,,,,,,,,,,,,,,,,,,,,,,,,,,,,,,,,,,,,,,,,,,,,,,,,,,,,,
1769164050.579072,1769164050.57931,123.0,0.0,4384.487305,4316.538574,4363.589844,4349.615234,4265.384766,4277.179688,4312.436035,4310.769043,4291.410156,4268.846191,4611.666504,4589.615234,4458.846191,4594.102539,,,,,,,,,,,,,,,,,,,,,,,,,,,,,,,,,,,,,,,,,,,,,,,,,,,,,,,,,,,,,,,,,,,,,,
1769164050.58688,1769164050.587318,124.0,0.0,4392.05127,4312.820313,4368.333496,4351.922852,4267.820313,4264.615234,4308.846191,4310.641113,4295.897461,4270.256348,4614.230957,4595.384766,4462.179688,4608.333496,,,,,,,,,,,,,,,,,,,,,,,,,,,,,,,,,,,,,,,,,,,,,,,,,,,,,,,,,,,,,,,,,,,,,,
1769164050.594689,1769164050.595127,125.0,0.0,4395.256348,4311.025879,4367.436035,4348.846191,4267.692383,4265.384766,4312.05127,4311.538574,4284.102539,4265.0,4603.589844,4586.410156,4443.974121,4601.538574,,,,,,,,,,,,,,,,,,,,,,,,,,,,,,,,,,,,,,,,,,,,,,,,,,,,,,,,,,,,,,,,,,,,,,
1769164050.602497,1769164050.602835,126.0,0.0,4390.128418,4310.384766,4363.717773,4343.461426,4266.282227,4276.410156,4316.282227,4311.794922,4277.94873,4258.974121,4599.871582,4585.384766,4442.436035,4597.05127,0.231395,0.470461,0.246213,0.192858,0.187216,0.539439,0.369316,0.161729,0.096532,0.084714,0.261761,0.289204,0.147286,0.20941,0.127404,0.403726,0.342935,0.123172,0.114419,0.084165,0.281287,0.300687,0.190673,0.081854,0.069715,0.202872,0.729695,0.122494,0.203873,0.180439,0.091158,0.190617,0.09548,0.102292,0.092107,0.466792,0.523359,0.264687,0.148872,0.07776,0.309913,0.5137,0.323075,0.093433,0.065933,0.33706,0.465643,0.266319,0.135379,0.170174,0.364323,0.241693,0.339182,0.20227,0.189041,0.302432,0.341602,0.367937,0.269609,0.123826,0.249672,0.387045,0.271816,0.189809,0.156923,0.426966,0.34779,0.315673,0.282346,0.164592
1769164050.610306,1769164050.610644,127.0,0.0,4394.358887,4319.358887,4366.922852,4346.410156,4267.94873,4270.384766,4311.025879,4310.128418,4290.128418,4264.615234,4610.769043,4597.436035,4457.05127,4608.333496,,,,,,,,,,,,,,,,,,,,,,,,,,,,,,,,,,,,,,,,,,,,,,,,,,,,,,,,,,,,,,,,,,,,,,
1769164050.618114,1769164050.618652,0.0,0.0,4400.0,4326.666504,4371.538574,4353.205078,4271.922852,4262.436035,4306.153809,4314.102539,4300.128418,4273.974121,4622.692383,4606.538574,4462.179688,4613.589844,,,,,,,,,,,,,,,,,,,,,,,,,,,,,,,,,,,,,,,,,,,,,,,,,,,,,,,,,,,,,,,,,,,,,,
1769164050.625923,1769164050.62646,1.0,0.0,4396.410156,4323.846191,4369.230957,4354.102539,4272.94873,4266.410156,4310.384766,4318.333496,4296.410156,4272.94873,4625.0,4605.128418,4462.692383,4610.769043,,,,,,,,,,,,,,,,,,,,,,,,,,,,,,,,,,,,,,,,,,,,,,,,,,,,,,,,,,,,,,,,,,,,,,
1769164050.633731,1769164050.634369,2.0,0.0,4395.384766,4319.615234,4366.666504,4350.512695,4269.358887,4269.230957,4313.333496,4314.358887,4291.538574,4262.94873,4611.025879,4591.666504,4456.922852,4605.0,,,,,,,,,,,,,,,,,,,,,,,,,,,,,,,,,,,,,,,,,,,,,,,,,,,,,,,,,,,,,,,,,,,,,,
1769164050.64154,1769164050.642177,3.0,0.0,4392.436035,4316.794922,4365.641113,4345.641113,4266.153809,4268.846191,4310.128418,4310.769043,4293.717773,4260.769043,4603.461426,4584.358887,4449.102539,4599.487305,,,,,,,,,,,,,,,,,,,,,,,,,,,,,,,,,,,,,,,,,,,,,,,,,,,,,,,,,,,,,,,,,,,,,,
1769164050.649348,1769164050.650185,4.0,0.0,4385.897461,4316.922852,4361.153809,4345.0,4267.563965,4272.05127,4309.102539,4312.05127,4292.820313,4264.358887,4613.461426,4590.897461,4456.538574,4602.436035,,,,,,,,,,,,,,,,,,,,,,,,,,,,,,,,,,,,,,,,,,,,,,,,,,,,,,,,,,,,,,,,,,,,,,
1769164050.657157,1769164050.657994,5.0,0.0,4390.769043,4321.282227,4357.820313,4350.256348,4273.846191,4274.487305,4310.897461,4311.282227,4286.922852,4260.641113,4609.615234,4590.641113,4457.563965,4603.589844,,,,,,,,,,,,,,,,,,,,,,,,,,,,,,,,,,,,,,,,,,,,,,,,,,,,,,,,,,,,,,,,,,,,,,
1769164050.664965,1769164050.665702,6.0,0.0,4393.846191,4321.025879,4358.205078,4350.897461,4277.05127,4268.589844,4308.461426,4310.128418,4287.307617,4260.512695,4599.230957,4589.358887,4447.820313,4599.230957,,,,,,,,,,,,,,,,,,,,,,,,,,,,,,,,,,,,,,,,,,,,,,,,,,,,,,,,,,,,,,,,,,,,,,
1769164050.672773,1769164050.673511,7.0,0.0,4387.179688,4317.05127,4357.307617,4348.461426,4271.025879,4264.615234,4306.794922,4312.563965,4295.256348,4267.692383,4609.871582,4599.487305,4455.897461,4601.666504,,,,,,,,,,,,,,,,,,,,,,,,,,,,,,,,,,,,,,,,,,,,,,,,,,,,,,,,,,,,,,,,,,,,,,
1769164050.680582,1769164050.681119,8.0,0.0,4388.205078,4318.974121,4355.512695,4350.897461,4267.692383,4272.179688,4308.974121,4312.692383,4295.769043,4265.769043,4618.974121,4602.436035,4463.717773,4603.974121,,,,,,,,,,,,,,,,,,,,,,,,,,,,,,,,,,,,,,,,,,,,,,,,,,,,,,,,,,,,,,,,,,,,,,
1769164050.68839,1769164050.688928,9.0,0.0,4391.666504,4320.897461,4357.05127,4351.282227,4274.230957,4277.436035,4310.641113,4311.410156,4292.563965,4265.769043,4616.666504,4596.794922,4461.282227,4601.922852,,,,,,,,,,,,,,,,,,,,,,,,,,,,,,,,,,,,,,,,,,,,,,,,,,,,,,,,,,,,,,,,,,,,,,
1769164050.696199,1769164050.696836,10.0,0.0,4388.974121,4318.333496,4357.94873,4351.153809,4276.922852,4270.769043,4310.384766,4311.794922,4296.153809,4279.102539,4624.230957,4601.538574,4471.282227,4607.692383,,,,,,,,,,,,,,,,,,,,,,,,,,,,,,,,,,,,,,,,,,,,,,,,,,,,,,,,,,,,,,,,,,,,,,
1769164050.704007,1769164050.704645,11.0,0.0,4391.922852,4319.230957,4355.897461,4355.256348,4272.436035,4263.333496,4308.974121,4311.410156,4297.94873,4285.769043,4630.0,4607.05127,4476.025879,4612.94873,,,,,,,,,,,,,,,,,,,,,,,,,,,,,,,,,,,,,,,,,,,,,,,,,,,,,,,,,,,,,,,,,,,,,,
1769164050.711816,1769164050.712253,12.0,0.0,4398.846191,4324.615234,4359.871582,4358.333496,4275.512695,4265.256348,4307.563965,4309.487305,4293.717773,4273.333496,4619.871582,4602.307617,4460.256348,4603.461426,,,,,,,,,,,,,,,,,,,,,,,,,,,,,,,,,,,,,,,,,,,,,,,,,,,,,,,,,,,,,,,,,,,,,,
1769164050.719624,1769164050.720062,13.0,0.0,4397.307617,4327.94873,4363.974121,4357.563965,4279.615234,4276.025879,4308.846191,4310.897461,4292.179688,4264.871582,4613.333496,4599.230957,4455.256348,4598.846191,,,,,,,,,,,,,,,,,,,,,,,,,,,,,,,,,,,,,,,,,,,,,,,,,,,,,,,,,,,,,,,,,,,,,,
1769164050.727433,1769164050.72777,14.0,0.0,4387.307617,4323.461426,4360.256348,4355.256348,4274.615234,4278.205078,4311.538574,4313.589844,4291.794922,4267.05127,4616.794922,4601.922852,4461.794922,4604.487305,0.246994,0.467523,0.273293,0.215591,0.18479,0.513637,0.363009,0.174631,0.096253,0.080692,0.270151,0.262846,0.136541,0.243819,0.124654,0.377043,0.371384,0.151737,0.124469,0.084461,0.225757,0.350921,0.207924,0.087725,0.075567,0.197943,0.636968,0.134586,0.22141,0.188388,0.095758,0.179394,0.089634,0.115889,0.096361,0.412006,0.420041,0.219483,0.122774,0.075215,0.23252,0.472817,0.290141,0.077343,0.065364,0.374198,0.514188,0.32614,0.148122,0.187682,0.277146,0.236079,0.342674,0.20265,0.193316,0.272236,0.307364,0.380419,0.266801,0.13506,0.226145,0.367267,0.256889,0.192684,0.168366,0.431413,0.308661,0.339765,0.277662,0.176171
1769164050.735241,1769164050.735579,15.0,0.0,4382.05127,4323.333496,4359.871582,4355.384766,4273.333496,4267.05127,4308.974121,4311.282227,4290.384766,4265.897461,4612.820313,4601.025879,4456.666504,4597.563965,,,,,,,,,,,,,,,,,,,,,,,,,,,,,,,,,,,,,,,,,,,,,,,,,,,,,,,,,,,,,,,,,,,,,,
1769164050.74305,1769164050.743187,16.0,0.0,4384.358887,4327.436035,4364.230957,4356.538574,4278.077148,4268.846191,4307.820313,4309.871582,4292.307617,4263.589844,4602.820313,4594.743652,4446.794922,4585.0,,,,,,,,,,,,,,,,,,,,,,,,,,,,,,,,,,,,,,,,,,,,,,,,,,,,,,,,,,,,,,,,,,,,,,
1769164050.750858,1769164050.750996,17.0,0.0,4379.615234,4320.641113,4362.436035,4351.922852,4279.358887,4282.563965,4314.230957,4313.846191,4293.717773,4262.692383,4603.846191,4594.102539,4445.641113,4583.717773,,,,,,,,,,,,,,,,,,,,,,,,,,,,,,,,,,,,,,,,,,,,,,,,,,,,,,,,,,,,,,,,,,,,,,
1769164050.758666,1769164050.758704,18.0,0.0,4371.666504,4313.333496,4355.128418,4344.615234,4275.256348,4278.974121,4315.769043,4313.717773,4293.333496,4265.897461,4613.333496,4597.436035,4453.461426,4587.94873,,,,,,,,,,,,,,,,,,,,,,,,,,,,,,,,,,,,,,,,,,,,,,,,,,,,,,,,,,,,,,,,,,,,,,
1769164050.766475,1769164050.766513,19.0,0.0,4366.794922,4311.025879,4349.487305,4340.641113,4273.461426,4272.05127,4311.666504,4314.358887,4293.974121,4269.102539,4614.102539,4595.384766,4454.871582,4587.436035,,,,,,,,,,,,,,,,,,,,,,,,,,,,,,,,,,,,,,,,,,,,,,,,,,,,,,,,,,,,,,,,,,,,,,
1769164050.774283,1769164050.774521,20.0,0.0,4367.94873,4312.436035,4352.820313,4341.410156,4275.769043,4276.922852,4311.410156,4319.358887,4295.128418,4267.563965,4611.282227,4593.974121,4453.846191,4587.436035,,,,,,,,,,,,,,,,,,,,,,,,,,,,,,,,,,,,,,,,,,,,,,,,,,,,,,,,,,,,,,,,,,,,,,
1769164050.782092,1769164050.78233,21.0,0.0,4376.794922,4320.641113,4364.230957,4347.563965,4276.282227,4269.871582,4309.230957,4316.410156,4293.461426,4266.410156,4612.05127,4596.153809,4455.128418,4589.102539,,,,,,,,,,,,,,,,,,,,,,,,,,,,,,,,,,,,,,,,,,,,,,,,,,,,,,,,,,,,,,,,,,,,,,
1769164050.7899,1769164050.790238,22.0,0.0,4380.897461,4324.487305,4364.487305,4351.666504,4275.769043,4260.769043,4304.871582,4308.205078,4292.179688,4267.05127,4609.871582,4594.743652,4448.846191,4584.615234,,,,,,,,,,,,,,,,,,,,,,,,,,,,,,,,,,,,,,,,,,,,,,,,,,,,,,,,,,,,,,,,,,,,,,
1769164050.797709,1769164050.798046,23.0,0.0,4372.692383,4319.102539,4356.153809,4350.0,4278.846191,4270.641113,4308.589844,4309.871582,4293.205078,4267.94873,4610.512695,4594.102539,4446.282227,4578.974121,,,,,,,,,,,,,,,,,,,,,,,,,,,,,,,,,,,,,,,,,,,,,,,,,,,,,,,,,,,,,,,,,,,,,,
1769164050.805517,1769164050.805655,24.0,0.0,4366.410156,4315.641113,4355.769043,4349.743652,4282.307617,4281.922852,4312.563965,4318.589844,4294.358887,4272.307617,4614.743652,4599.230957,4454.102539,4579.487305,,,,,,,,,,,,,,,,,,,,,,,,,,,,,,,,,,,,,,,,,,,,,,,,,,,,,,,,,,,,,,,,,,,,,,
1769164050.813326,1769164050.813463,25.0,0.0,4369.487305,4315.128418,4355.128418,4349.487305,4280.128418,4278.205078,4312.436035,4327.692383,4301.025879,4282.05127,4618.205078,4604.871582,4461.410156,4587.179688,,,,,,,,,,,,,,,,,,,,,,,,,,,,,,,,,,,,,,,,,,,,,,,,,,,,,,,,,,,,,,,,,,,,,,
1769164050.821134,1769164050.821172,26.0,0.0,4371.282227,4311.794922,4348.974121,4343.205078,4277.94873,4277.179688,4316.153809,4328.974121,4305.128418,4281.410156,4617.436035,4599.615234,4458.461426,4585.512695,,,,,,,,,,,,,,,,,,,,,,,,,,,,,,,,,,,,,,,,,,,,,,,,,,,,,,,,,,,,,,,,,,,,,,
1769164050.828942,1769164050.82898,27.0,0.0,4371.666504,4311.025879,4347.307617,4340.0,4280.0,4282.05127,4316.410156,4316.666504,4295.769043,4265.897461,4607.563965,4586.922852,4448.974121,4571.666504,,,,,,,,,,,,,,,,,,,,,,,,,,,,,,,,,,,,,,,,,,,,,,,,,,,,,,,,,,,,,,,,,,,,,,
1769164050.836751,1769164050.836989,28.0,0.0,4372.563965,4311.666504,4350.384766,4343.333496,4278.077148,4272.05127,4309.487305,4308.333496,4288.333496,4260.128418,4601.922852,4583.461426,4442.563965,4566.153809,,,,,,,,,,,,,,,,,,,,,,,,,,,,,,,,,,,,,,,,,,,,,,,,,,,,,,,,,,,,,,,,,,,,,,
1769164050.844559,1769164050.844797,29.0,0.0,4367.436035,4310.0,4351.153809,4343.205078,4274.230957,4262.05127,4306.794922,4315.641113,4294.230957,4272.436035,4611.025879,4587.692383,4450.769043,4572.307617,,,,,,,,,,,,,,,,,,,,,,,,,,,,,,,,,,,,,,,,,,,,,,,,,,,,,,,,,,,,,,,,,,,,,,
1769164050.852368,1769164050.852706,30.0,0.0,4360.128418,4309.230957,4346.282227,4340.384766,4274.871582,4272.307617,4312.820313,4321.538574,4298.077148,4279.102539,4616.794922,4588.333496,4459.102539,4572.307617,0.37953,0.455533,0.300302,0.247981,0.180412,0.479457,0.373863,0.183255,0.107976,0.08454,0.307289,0.227213,0.144602,0.265122,0.120442,0.346128,0.391899,0.186921,0.135169,0.084211,0.190414,0.363101,0.215445,0.092531,0.08023,0.203387,0.50163,0.152919,0.238978,0.189341,0.098405,0.165176,0.08286,0.130507,0.100451,0.3793,0.315331,0.182068,0.09793,0.069206,0.188658,0.394599,0.24504,0.071938,0.063608,0.418705,0.54243,0.383327,0.163268,0.199991,0.226427,0.217601,0.334756,0.19842,0.189538,0.260136,0.275699,0.399203,0.275637,0.146197,0.249999,0.340056,0.23892,0.201295,0.177898,0.628922,0.294383,0.360816,0.284684,0.185874
1769164050.860176,1769164050.860514,31.0,0.0,4358.846191,4307.05127,4342.436035,4340.384766,4277.05127,4281.025879,4315.897461,4317.436035,4293.205078,4273.974121,4614.871582,4591.025879,4452.692383,4565.512695,,,,,,,,,,,,,,,,,,,,,,,,,,,,,,,,,,,,,,,,,,,,,,,,,,,,,,,,,,,,,,,,,,,,,,
1769164050.867985,1769164050.868522,32.0,0.0,4365.128418,4308.461426,4343.717773,4341.410156,4277.692383,4275.384766,4313.077148,4318.205078,4295.384766,4275.0,4621.410156,4600.512695,4454.871582,4570.384766,,,,,,,,,,,,,,,,,,,,,,,,,,,,,,,,,,,,,,,,,,,,,,,,,,,,,,,,,,,,,,,,,,,,,,
1769164050.875793,1769164050.876331,33.0,0.0,4372.05127,4313.333496,4343.205078,4341.410156,4277.436035,4273.717773,4311.794922,4327.563965,4306.922852,4281.410156,4628.717773,4602.563965,4466.025879,4577.436035,,,,,,,,,,,,,,,,,,,,,,,,,,,,,,,,,,,,,,,,,,,,,,,,,,,,,,,,,,,,,,,,,,,,,,
1769164050.883602,1769164050.884039,34.0,0.0,4370.512695,4314.743652,4343.974121,4342.179688,4278.333496,4276.410156,4309.358887,4327.436035,4308.846191,4283.077148,4625.256348,4597.179688,4459.871582,4571.794922,,,,,,,,,,,,,,,,,,,,,,,,,,,,,,,,,,,,,,,,,,,,,,,,,,,,,,,,,,,,,,,,,,,,,,
1769164050.89141,1769164050.891848,35.0,0.0,4364.615234,4313.077148,4349.230957,4343.333496,4281.538574,4273.333496,4305.512695,4318.589844,4297.436035,4274.487305,4621.666504,4594.871582,4448.717773,4565.512695,,,,,,,,,,,,,,,,,,,,,,,,,,,,,,,,,,,,,,,,,,,,,,,,,,,,,,,,,,,,,,,,,,,,,,
1769164050.899218,1769164050.899856,36.0,0.0,4367.179688,4313.589844,4352.436035,4343.846191,4283.717773,4274.230957,4307.05127,4320.256348,4291.153809,4269.358887,4625.384766,4598.974121,4455.897461,4570.128418,,,,,,,,,,,,,,,,,,,,,,,,,,,,,,,,,,,,,,,,,,,,,,,,,,,,,,,,,,,,,,,,,,,,,,
1769164050.907027,1769164050.907664,37.0,0.0,4365.0,4311.282227,4350.256348,4344.615234,4281.410156,4279.358887,4312.436035,4328.974121,4297.05127,4275.769043,4629.358887,4607.820313,4460.897461,4574.102539,,,,,,,,,,,,,,,,,,,,,,,,,,,,,,,,,,,,,,,,,,,,,,,,,,,,,,,,,,,,,,,,,,,,,,
1769164050.914835,1769164050.915373,38.0,0.0,4348.974121,4301.153809,4343.205078,4337.94873,4279.358887,4278.589844,4312.94873,4330.384766,4300.256348,4275.0,4623.974121,4602.820313,4449.102539,4563.589844,,,,,,,,,,,,,,,,,,,,,,,,,,,,,,,,,,,,,,,,,,,,,,,,,,,,,,,,,,,,,,,,,,,,,,
1769164050.922644,1769164050.923181,39.0,0.0,4341.025879,4291.025879,4333.589844,4327.307617,4277.307617,4277.307617,4312.563965,4328.077148,4299.615234,4266.282227,4613.077148,4586.922852,4440.384766,4553.846191,,,,,,,,,,,,,,,,,,,,,,,,,,,,,,,,,,,,,,,,,,,,,,,,,,,,,,,,,,,,,,,,,,,,,,
1769164050.930452,1769164050.93079,40.0,0.0,4348.205078,4293.077148,4334.871582,4329.871582,4273.205078,4279.743652,4311.410156,4325.641113,4296.794922,4264.358887,4609.871582,4586.538574,4447.05127,4561.666504,,,,,,,,,,,,,,,,,,,,,,,,,,,,,,,,,,,,,,,,,,,,,,,,,,,,,,,,,,,,,,,,,,,,,,
1769164050.938261,1769164050.938598,41.0,0.0,4353.461426,4303.461426,4347.436035,4341.025879,4273.461426,4275.641113,4308.333496,4323.589844,4294.102539,4269.487305,4614.102539,4599.230957,4455.897461,4573.717773,,,,,,,,,,,,,,,,,,,,,,,,,,,,,,,,,,,,,,,,,,,,,,,,,,,,,,,,,,,,,,,,,,,,,,
1769164050.946069,1769164050.946307,42.0,0.0,4353.333496,4308.846191,4350.0,4343.205078,4275.0,4267.05127,4309.743652,4325.769043,4299.102539,4274.615234,4616.794922,4603.077148,4459.871582,4572.692383,,,,,,,,,,,,,,,,,,,,,,,,,,,,,,,,,,,,,,,,,,,,,,,,,,,,,,,,,,,,,,,,,,,,,,
1769164050.953878,1769164050.954115,43.0,0.0,4353.205078,4309.615234,4340.897461,4339.102539,4273.461426,4267.820313,4308.717773,4327.307617,4302.307617,4272.05127,4615.897461,4600.256348,4459.871582,4567.94873,,,,,,,,,,,,,,,,,,,,,,,,,,,,,,,,,,,,,,,,,,,,,,,,,,,,,,,,,,,,,,,,,,,,,,
1769164050.961686,1769164050.962124,44.0,0.0,4354.487305,4312.179688,4338.461426,4341.794922,4275.512695,4274.230957,4305.128418,4322.820313,4297.307617,4263.333496,4616.282227,4602.307617,4457.307617,4569.487305,,,,,,,,,,,,,,,,,,,,,,,,,,,,,,,,,,,,,,,,,,,,,,,,,,,,,,,,,,,,,,,,,,,,,,
1769164050.969495,1769164050.969932,45.0,0.0,4358.461426,4314.358887,4347.563965,4346.794922,4280.384766,4273.461426,4307.436035,4321.282227,4293.333496,4267.05127,4620.512695,4602.05127,4459.102539,4570.512695,,,,,,,,,,,,,,,,,,,,,,,,,,,,,,,,,,,,,,,,,,,,,,,,,,,,,,,,,,,,,,,,,,,,,,
1769164050.977303,1769164050.97784,46.0,0.0,4360.512695,4315.128418,4350.384766,4346.410156,4280.512695,4270.384766,4311.538574,4325.897461,4296.410156,4277.05127,4625.384766,4600.512695,4458.717773,4567.05127,0.678123,0.437952,0.333858,0.280445,0.17715,0.44188,0.392116,0.186486,0.127745,0.094847,0.394213,0.19252,0.174194,0.268738,0.115813,0.311302,0.394061,0.217942,0.148439,0.08241,0.178656,0.334114,0.208387,0.097735,0.082844,0.219683,0.360726,0.17052,0.250527,0.188586,0.096589,0.146421,0.074769,0.143335,0.105738,0.368475,0.230948,0.152032,0.081561,0.061015,0.173117,0.303348,0.194129,0.077995,0.062467,0.46992,0.54462,0.429033,0.17352,0.206454,0.201996,0.195299,0.336913,0.194936,0.180705,0.267668,0.256346,0.417403,0.29147,0.155881,0.300091,0.3124,0.235721,0.217667,0.186345,1.10363,0.304954,0.378148,0.297201,0.192377
1769164050.985112,1769164050.985649,47.0,0.0,4357.563965,4313.717773,4342.94873,4343.846191,4279.230957,4274.487305,4310.384766,4328.205078,4298.461426,4275.256348,4629.102539,4599.102539,4458.333496,4569.615234,,,,,,,,,,,,,,,,,,,,,,,,,,,,,,,,,,,,,,,,,,,,,,,,,,,,,,,,,,,,,,,,,,,,,,
1769164050.99292,1769164050.993657,48.0,0.0,4356.794922,4310.384766,4340.641113,4343.077148,4282.05127,4278.333496,4307.94873,4324.487305,4295.641113,4274.615234,4627.563965,4594.230957,4460.897461,4573.974121,,,,,,,,,,,,,,,,,,,,,,,,,,,,,,,,,,,,,,,,,,,,,,,,,,,,,,,,,,,,,,,,,,,,,,
1769164051.000728,1769164051.001466,49.0,0.0,4355.384766,4310.897461,4341.666504,4343.461426,4284.102539,4278.717773,4310.512695,4322.05127,4294.871582,4274.615234,4616.153809,4586.153809,4451.922852,4563.205078,,,,,,,,,,,,,,,,,,,,,,,,,,,,,,,,,,,,,,,,,,,,,,,,,,,,,,,,,,,,,,,,,,,,,,
1769164051.008537,1769164051.009374,50.0,0.0,4346.282227,4309.230957,4335.769043,4341.025879,4283.205078,4279.487305,4313.333496,4323.717773,4296.410156,4266.153809,4607.94873,4582.692383,4440.128418,4548.974121,,,,,,,,,,,,,,,,,,,,,,,,,,,,,,,,,,,,,,,,,,,,,,,,,,,,,,,,,,,,,,,,,,,,,,
1769164051.016345,1769164051.017182,51.0,0.0,4337.05127,4299.871582,4333.205078,4336.538574,4281.282227,4278.461426,4309.615234,4323.974121,4297.820313,4265.256348,4614.487305,4589.871582,4445.384766,4552.94873,,,,,,,,,,,,,,,,,,,,,,,,,,,,,,,,,,,,,,,,,,,,,,,,,,,,,,,,,,,,,,,,,,,,,,
1769164051.024154,1769164051.025191,52.0,0.0,4341.666504,4299.615234,4341.025879,4338.077148,4282.307617,4275.128418,4302.05127,4322.179688,4296.282227,4268.846191,4621.410156,4594.102539,4452.179688,4560.769043,,,,,,,,,,,,,,,,,,,,,,,,,,,,,,,,,,,,,,,,,,,,,,,,,,,,,,,,,,,,,,,,,,,,,,
1769164051.031962,1769164051.032999,53.0,0.0,4348.205078,4307.179688,4343.077148,4343.077148,4283.205078,4275.128418,4307.563965,4325.769043,4296.410156,4265.512695,4613.333496,4588.589844,4444.615234,4553.974121,,,,,,,,,,,,,,,,,,,,,,,,,,,,,,,,,,,,,,,,,,,,,,,,,,,,,,,,,,,,,,,,,,,,,,
1769164051.039771,1769164051.040907,54.0,0.0,4343.461426,4305.384766,4338.077148,4337.692383,4281.666504,4281.410156,4318.717773,4328.333496,4296.538574,4262.563965,4604.358887,4582.563965,4439.871582,4547.94873,,,,,,,,,,,,,,,,,,,,,,,,,,,,,,,,,,,,,,,,,,,,,,,,,,,,,,,,,,,,,,,,,,,,,,
1769164051.047579,1769164051.048716,55.0,0.0,4338.974121,4301.410156,4337.563965,4327.692383,4280.512695,4279.487305,4309.102539,4318.717773,4292.820313,4265.384766,4605.512695,4582.692383,4443.974121,4551.666504,,,,,,,,,,,,,,,,,,,,,,,,,,,,,,,,,,,,,,,,,,,,,,,,,,,,,,,,,,,,,,,,,,,,,,
1769164051.055388,1769164051.056325,56.0,0.0,4342.436035,4305.384766,4341.153809,4329.102539,4280.128418,4268.461426,4296.410156,4310.769043,4289.358887,4269.102539,4608.333496,4584.358887,4446.025879,4549.487305,,,,,,,,,,,,,,,,,,,,,,,,,,,,,,,,,,,,,,,,,,,,,,,,,,,,,,,,,,,,,,,,,,,,,,
1769164051.063196,1769164051.064133,57.0,0.0,4352.179688,4309.871582,4344.358887,4339.871582,4281.410156,4267.307617,4303.589844,4317.307617,4289.487305,4275.256348,4607.692383,4584.743652,4440.769043,4539.743652,,,,,,,,,,,,,,,,,,,,,,,,,,,,,,,,,,,,,,,,,,,,,,,,,,,,,,,,,,,,,,,,,,,,,,
1769164051.071005,1769164051.071842,58.0,0.0,4356.794922,4311.794922,4343.717773,4343.461426,4282.563965,4276.410156,4312.436035,4323.717773,4293.589844,4280.256348,4609.615234,4585.512695,4440.0,4539.230957,,,,,,,,,,,,,,,,,,,,,,,,,,,,,,,,,,,,,,,,,,,,,,,,,,,,,,,,,,,,,,,,,,,,,,
1769164051.078813,1769164051.07965,59.0,0.0,4345.641113,4309.230957,4339.487305,4335.897461,4281.282227,4278.717773,4308.974121,4321.922852,4291.666504,4281.538574,4618.717773,4587.436035,4455.384766,4553.589844,,,,,,,,,,,,,,,,,,,,,,,,,,,,,,,,,,,,,,,,,,,,,,,,,,,,,,,,,,,,,,,,,,,,,,
1769164051.086621,1769164051.087259,60.0,0.0,4334.358887,4302.179688,4339.871582,4329.102539,4278.333496,4276.282227,4307.563965,4321.153809,4283.846191,4281.666504,4622.179688,4593.589844,4460.897461,4558.205078,,,,,,,,,,,,,,,,,,,,,,,,,,,,,,,,,,,,,,,,,,,,,,,,,,,,,,,,,,,,,,,,,,,,,,
1769164051.09443,1769164051.095067,61.0,0.0,4333.461426,4301.922852,4340.512695,4329.358887,4278.974121,4278.974121,4310.384766,4321.410156,4282.179688,4277.563965,4610.384766,4588.333496,4444.871582,4542.94873,,,,,,,,,,,,,,,,,,,,,,,,,,,,,,,,,,,,,,,,,,,,,,,,,,,,,,,,,,,,,,,,,,,,,,
1769164051.102238,1769164051.102975,62.0,0.0,4329.230957,4303.077148,4329.615234,4330.0,4281.794922,4279.615234,4307.820313,4318.717773,4286.922852,4273.717773,4598.461426,4572.179688,4437.179688,4531.410156,1.208742,0.427752,0.372472,0.307128,0.177196,0.412112,0.41008,0.188093,0.151039,0.107459,0.532638,0.170042,0.216501,0.257047,0.11136,0.29068,0.376475,0.238463,0.166217,0.078494,0.180144,0.276146,0.185847,0.103357,0.08291,0.235792,0.245734,0.181783,0.253903,0.193087,0.089461,0.12352,0.065646,0.152783,0.112054,0.36092,0.180079,0.126157,0.078308,0.053575,0.162995,0.223446,0.146327,0.095675,0.06469,0.50731,0.524767,0.456302,0.177613,0.208569,0.187453,0.188207,0.364456,0.197372,0.171894,0.283403,0.255839,0.42759,0.305628,0.16303,0.355331,0.29126,0.260476,0.242206,0.195883,1.830405,0.33356,0.389208,0.304935,0.195795
1769164051.110047,1769164051.110784,63.0,0.0,4320.512695,4295.256348,4321.410156,4325.384766,4279.615234,4279.102539,4310.0,4321.538574,4285.128418,4271.282227,4600.0,4570.641113,4443.974121,4535.769043,,,,,,,,,,,,,,,,,,,,,,,,,,,,,,,,,,,,,,,,,,,,,,,,,,,,,,,,,,,,,,,,,,,,,,
1769164051.117855,1769164051.118393,64.0,0.0,4322.820313,4293.461426,4332.563965,4325.256348,4276.538574,4280.641113,4312.05127,4320.512695,4278.077148,4267.820313,4603.077148,4580.256348,4444.487305,4541.025879,,,,,,,,,,,,,,,,,,,,,,,,,,,,,,,,,,,,,,,,,,,,,,,,,,,,,,,,,,,,,,,,,,,,,,
1769164051.125664,1769164051.126201,65.0,0.0,4337.94873,4306.666504,4345.641113,4332.563965,4281.025879,4278.717773,4303.846191,4312.307617,4280.641113,4271.153809,4598.077148,4578.205078,4443.974121,4540.641113,,,,,,,,,,,,,,,,,,,,,,,,,,,,,,,,,,,,,,,,,,,,,,,,,,,,,,,,,,,,,,,,,,,,,,
1769164051.133472,1769164051.13391,66.0,0.0,4346.410156,4314.743652,4342.05127,4336.410156,4285.769043,4277.563965,4302.820313,4313.846191,4288.077148,4278.589844,4600.384766,4572.05127,4447.94873,4540.897461,,,,,,,,,,,,,,,,,,,,,,,,,,,,,,,,,,,,,,,,,,,,,,,,,,,,,,,,,,,,,,,,,,,,,,
1769164051.141281,1769164051.141718,67.0,0.0,4334.615234,4310.384766,4336.153809,4331.410156,4282.94873,4280.384766,4308.333496,4323.717773,4291.666504,4279.102539,4611.538574,4580.769043,4443.461426,4536.538574,,,,,,,,,,,,,,,,,,,,,,,,,,,,,,,,,,,,,,,,,,,,,,,,,,,,,,,,,,,,,,,,,,,,,,
1769164051.149089,1769164051.149327,68.0,0.0,4327.94873,4307.692383,4340.641113,4325.512695,4280.384766,4281.410156,4305.128418,4323.205078,4293.461426,4278.461426,4618.333496,4591.282227,4447.563965,4537.820313,,,,,,,,,,,,,,,,,,,,,,,,,,,,,,,,,,,,,,,,,,,,,,,,,,,,,,,,,,,,,,,,,,,,,,
1769164051.156897,1769164051.157135,69.0,0.0,4340.256348,4310.256348,4343.589844,4328.589844,4281.282227,4278.974121,4305.256348,4320.128418,4295.769043,4283.333496,4617.94873,4591.538574,4459.743652,4552.05127,,,,,,,,,,,,,,,,,,,,,,,,,,,,,,,,,,,,,,,,,,,,,,,,,,,,,,,,,,,,,,,,,,,,,,
1769164051.164706,1769164051.165043,70.0,0.0,4338.846191,4311.282227,4337.436035,4328.333496,4280.256348,4277.563965,4311.922852,4323.077148,4296.538574,4281.025879,4614.358887,4585.256348,4453.589844,4550.0,,,,,,,,,,,,,,,,,,,,,,,,,,,,,,,,,,,,,,,,,,,,,,,,,,,,,,,,,,,,,,,,,,,,,,
1769164051.172514,1769164051.172852,71.0,0.0,4323.205078,4310.384766,4332.820313,4320.769043,4278.589844,4275.128418,4305.897461,4319.871582,4295.512695,4277.436035,4611.025879,4579.230957,4440.256348,4526.794922,,,,,,,,,,,,,,,,,,,,,,,,,,,,,,,,,,,,,,,,,,,,,,,,,,,,,,,,,,,,,,,,,,,,,,
1769164051.180323,1769164051.18086,72.0,0.0,4326.922852,4309.871582,4335.897461,4318.461426,4278.077148,4271.794922,4301.410156,4311.922852,4293.077148,4281.410156,4609.487305,4581.153809,4442.563965,4522.436035,,,,,,,,,,,,,,,,,,,,,,,,,,,,,,,,,,,,,,,,,,,,,,,,,,,,,,,,,,,,,,,,,,,,,,
1769164051.188131,1769164051.188669,73.0,0.0,4339.615234,4310.256348,4342.307617,4321.538574,4279.358887,4272.94873,4311.153809,4310.128418,4291.538574,4275.897461,4608.846191,4585.128418,4447.436035,4539.230957,,,,,,,,,,,,,,,,,,,,,,,,,,,,,,,,,,,,,,,,,,,,,,,,,,,,,,,,,,,,,,,,,,,,,,
1769164051.19594,1769164051.196577,74.0,0.0,4336.538574,4313.205078,4343.333496,4318.589844,4282.05127,4278.077148,4313.077148,4314.743652,4292.692383,4268.717773,4609.230957,4585.0,4445.512695,4544.871582,,,,,,,,,,,,,,,,,,,,,,,,,,,,,,,,,,,,,,,,,,,,,,,,,,,,,,,,,,,,,,,,,,,,,,
1769164051.203748,1769164051.204385,75.0,0.0,4323.846191,4312.05127,4333.717773,4311.153809,4281.025879,4280.0,4308.974121,4321.025879,4294.487305,4275.512695,4611.666504,4583.589844,4445.384766,4537.436035,,,,,,,,,,,,,,,,,,,,,,,,,,,,,,,,,,,,,,,,,,,,,,,,,,,,,,,,,,,,,,,,,,,,,,
1769164051.211557,1769164051.212394,76.0,0.0,4321.410156,4307.179688,4330.128418,4307.692383,4277.94873,4276.794922,4309.871582,4322.436035,4295.0,4282.563965,4612.94873,4583.717773,4444.358887,4534.743652,,,,,,,,,,,,,,,,,,,,,,,,,,,,,,,,,,,,,,,,,,,,,,,,,,,,,,,,,,,,,,,,,,,,,,
1769164051.219365,1769164051.220202,77.0,0.0,4338.846191,4312.563965,4343.205078,4309.615234,4279.230957,4276.153809,4312.307617,4317.436035,4294.102539,4278.461426,4615.384766,4590.256348,4448.717773,4544.487305,,,,,,,,,,,,,,,,,,,,,,,,,,,,,,,,,,,,,,,,,,,,,,,,,,,,,,,,,,,,,,,,,,,,,,
1769164051.227173,1769164051.22811,78.0,0.0,4349.102539,4319.871582,4350.769043,4310.256348,4280.897461,4279.487305,4312.820313,4318.589844,4295.641113,4278.077148,4619.102539,4597.436035,4462.692383,4552.563965,1.863248,0.441979,0.405452,0.327522,0.181333,0.393225,0.429298,0.194982,0.174447,0.117806,0.698417,0.167835,0.25619,0.238768,0.108045,0.286438,0.347336,0.247228,0.188265,0.073178,0.186394,0.211031,0.152235,0.107546,0.080448,0.244188,0.173455,0.185047,0.250784,0.206876,0.077816,0.099648,0.056878,0.157763,0.117503,0.349705,0.162636,0.102738,0.089308,0.05039,0.154657,0.170836,0.112931,0.122495,0.072387,0.532206,0.496821,0.459209,0.179735,0.208882,0.179246,0.224453,0.415216,0.209317,0.168335,0.305477,0.278681,0.426891,0.314146,0.168021,0.411425,0.286057,0.3141,0.274171,0.209746,2.650859,0.367867,0.389155,0.30303,0.19944
1769164051.234982,1769164051.235919,79.0,0.0,4332.307617,4312.94873,4340.0,4302.436035,4278.846191,4277.692383,4308.717773,4328.205078,4300.769043,4283.846191,4616.666504,4592.692383,4462.436035,4545.641113,,,,,,,,,,,,,,,,,,,,,,,,,,,,,,,,,,,,,,,,,,,,,,,,,,,,,,,,,,,,,,,,,,,,,,
1769164051.24279,1769164051.243527,80.0,0.0,4316.538574,4305.128418,4333.589844,4292.307617,4277.307617,4274.871582,4307.307617,4324.358887,4299.102539,4282.05127,4612.179688,4582.94873,4447.179688,4535.769043,,,,,,,,,,,,,,,,,,,,,,,,,,,,,,,,,,,,,,,,,,,,,,,,,,,,,,,,,,,,,,,,,,,,,,
1769164051.250599,1769164051.251336,81.0,0.0,4321.538574,4309.102539,4340.384766,4291.922852,4278.846191,4277.179688,4309.230957,4309.743652,4291.410156,4277.94873,4614.102539,4585.256348,4446.666504,4537.436035,,,,,,,,,,,,,,,,,,,,,,,,,,,,,,,,,,,,,,,,,,,,,,,,,,,,,,,,,,,,,,,,,,,,,,
1769164051.258407,1769164051.259044,82.0,0.0,4330.897461,4313.205078,4343.077148,4295.0,4279.487305,4278.205078,4308.333496,4308.205078,4291.666504,4278.077148,4618.077148,4590.256348,4460.256348,4544.102539,,,,,,,,,,,,,,,,,,,,,,,,,,,,,,,,,,,,,,,,,,,,,,,,,,,,,,,,,,,,,,,,,,,,,,
1769164051.266216,1769164051.266853,83.0,0.0,4326.538574,4310.641113,4339.487305,4289.358887,4278.333496,4278.077148,4307.307617,4314.230957,4296.025879,4277.94873,4615.769043,4585.128418,4455.256348,4537.436035,,,,,,,,,,,,,,,,,,,,,,,,,,,,,,,,,,,,,,,,,,,,,,,,,,,,,,,,,,,,,,,,,,,,,,
1769164051.274024,1769164051.274462,84.0,0.0,4318.589844,4309.358887,4337.94873,4281.538574,4279.615234,4279.615234,4310.128418,4312.05127,4295.0,4276.794922,4613.589844,4581.666504,4441.153809,4524.358887,,,,,,,,,,,,,,,,,,,,,,,,,,,,,,,,,,,,,,,,,,,,,,,,,,,,,,,,,,,,,,,,,,,,,,
1769164051.281833,1769164051.28227,85.0,0.0,4319.615234,4308.717773,4338.461426,4279.358887,4279.230957,4281.666504,4316.410156,4315.512695,4295.384766,4278.589844,4618.077148,4589.230957,4448.333496,4527.563965,,,,,,,,,,,,,,,,,,,,,,,,,,,,,,,,,,,,,,,,,,,,,,,,,,,,,,,,,,,,,,,,,,,,,,
1769164051.289641,1769164051.290178,86.0,0.0,4326.794922,4310.128418,4337.307617,4280.384766,4277.692383,4285.384766,4320.384766,4320.897461,4296.666504,4279.871582,4619.487305,4596.794922,4461.794922,4541.666504,,,,,,,,,,,,,,,,,,,,,,,,,,,,,,,,,,,,,,,,,,,,,,,,,,,,,,,,,,,,,,,,,,,,,,
1769164051.29745,1769164051.297987,87.0,0.0,4329.102539,4317.820313,4339.615234,4282.179688,4283.461426,4285.384766,4315.641113,4315.512695,4297.05127,4281.025879,4618.589844,4597.692383,4460.512695,4541.794922,,,,,,,,,,,,,,,,,,,,,,,,,,,,,,,,,,,,,,,,,,,,,,,,,,,,,,,,,,,,,,,,,,,,,,
1769164051.305258,1769164051.305995,88.0,0.0,4322.436035,4322.563965,4343.205078,4280.0,4290.384766,4279.871582,4308.589844,4316.025879,4301.794922,4290.641113,4625.384766,4597.436035,4456.794922,4535.0,,,,,,,,,,,,,,,,,,,,,,,,,,,,,,,,,,,,,,,,,,,,,,,,,,,,,,,,,,,,,,,,,,,,,,
1769164051.313067,1769164051.313803,89.0,0.0,4314.615234,4317.307617,4339.871582,4278.077148,4288.589844,4277.307617,4309.743652,4323.717773,4306.922852,4299.871582,4627.179688,4596.666504,4457.436035,4534.230957,,,,,,,,,,,,,,,,,,,,,,,,,,,,,,,,,,,,,,,,,,,,,,,,,,,,,,,,,,,,,,,,,,,,,,
1769164051.320875,1769164051.321512,90.0,0.0,4312.436035,4311.538574,4337.179688,4278.205078,4286.794922,4280.384766,4311.666504,4321.666504,4306.538574,4299.230957,4621.410156,4597.179688,4461.282227,4537.436035,,,,,,,,,,,,,,,,,,,,,,,,,,,,,,,,,,,,,,,,,,,,,,,,,,,,,,,,,,,,,,,,,,,,,,
1769164051.328684,1769164051.32932,91.0,0.0,4315.641113,4314.743652,4337.436035,4272.307617,4288.589844,4285.641113,4312.179688,4317.692383,4301.282227,4291.410156,4621.538574,4597.563965,4462.563965,4544.230957,,,,,,,,,,,,,,,,,,,,,,,,,,,,,,,,,,,,,,,,,,,,,,,,,,,,,,,,,,,,,,,,,,,,,,
1769164051.336492,1769164051.336929,92.0,0.0,4315.512695,4313.205078,4335.641113,4264.743652,4284.871582,4287.94873,4317.307617,4319.102539,4296.153809,4282.563965,4619.743652,4591.282227,4452.179688,4539.743652,,,,,,,,,,,,,,,,,,,,,,,,,,,,,,,,,,,,,,,,,,,,,,,,,,,,,,,,,,,,,,,,,,,,,,
1769164051.3443,1769164051.344738,93.0,0.0,4305.641113,4300.256348,4332.307617,4261.666504,4277.692383,4283.846191,4320.0,4317.307617,4294.487305,4278.461426,4611.922852,4585.512695,4441.282227,4523.077148,,,,,,,,,,,,,,,,,,,,,,,,,,,,,,,,,,,,,,,,,,,,,,,,,,,,,,,,,,,,,,,,,,,,,,
1769164051.352109,1769164051.352446,94.0,0.0,4294.743652,4292.94873,4330.0,4254.487305,4276.538574,4280.384766,4319.743652,4318.461426,4295.897461,4281.153809,4612.692383,4588.461426,4443.846191,4517.820313,2.459806,0.501047,0.424778,0.343822,0.188967,0.37506,0.462448,0.214114,0.195202,0.122795,0.839763,0.189922,0.282155,0.224018,0.107366,0.295097,0.321029,0.247645,0.211634,0.068645,0.185969,0.159422,0.116445,0.107438,0.075888,0.234868,0.143534,0.179893,0.24526,0.227842,0.063917,0.079122,0.049032,0.158549,0.120552,0.322847,0.162564,0.084386,0.112293,0.054032,0.146957,0.147411,0.102263,0.151737,0.085582,0.54425,0.481893,0.439074,0.184646,0.208938,0.179837,0.329049,0.470542,0.230644,0.172271,0.318053,0.328506,0.41885,0.316712,0.171706,0.471704,0.308387,0.382651,0.308651,0.22936,3.301479,0.402484,0.375811,0.293816,0.207051
1769164051.359917,1769164051.360255,95.0,0.0,4292.436035,4295.384766,4327.307617,4245.256348,4279.230957,4283.333496,4318.589844,4324.743652,4296.922852,4283.589844,4613.461426,4589.743652,4445.897461,4521.025879,,,,,,,,,,,,,,,,,,,,,,,,,,,,,,,,,,,,,,,,,,,,,,,,,,,,,,,,,,,,,,,,,,,,,,
1769164051.367726,1769164051.368263,96.0,0.0,4296.538574,4295.0,4325.897461,4245.769043,4277.692383,4283.589844,4314.487305,4321.282227,4295.769043,4279.871582,4607.563965,4584.230957,4439.871582,4520.0,,,,,,,,,,,,,,,,,,,,,,,,,,,,,,,,,,,,,,,,,,,,,,,,,,,,,,,,,,,,,,,,,,,,,,
1769164051.375534,1769164051.376071,97.0,0.0,4295.128418,4293.974121,4325.512695,4248.589844,4276.410156,4279.871582,4309.487305,4313.461426,4294.615234,4275.256348,4609.615234,4582.820313,4444.487305,4525.128418,,,,,,,,,,,,,,,,,,,,,,,,,,,,,,,,,,,,,,,,,,,,,,,,,,,,,,,,,,,,,,,,,,,,,,
1769164051.383343,1769164051.38398,98.0,0.0,4291.538574,4302.94873,4324.230957,4248.333496,4285.769043,4278.846191,4306.666504,4311.794922,4295.897461,4278.077148,4612.307617,4583.717773,4452.436035,4527.563965,,,,,,,,,,,,,,,,,,,,,,,,,,,,,,,,,,,,,,,,,,,,,,,,,,,,,,,,,,,,,,,,,,,,,,
1769164051.391151,1769164051.391788,99.0,0.0,4297.05127,4310.256348,4326.538574,4251.410156,4292.179688,4280.641113,4307.563965,4312.307617,4297.692383,4283.077148,4603.077148,4581.794922,4444.230957,4513.589844,,,,,,,,,,,,,,,,,,,,,,,,,,,,,,,,,,,,,,,,,,,,,,,,,,,,,,,,,,,,,,,,,,,,,,
1769164051.39896,1769164051.399796,100.0,0.0,4295.641113,4300.512695,4328.846191,4251.025879,4284.102539,4280.0,4309.102539,4311.410156,4295.769043,4279.615234,4597.307617,4580.0,4435.384766,4505.512695,,,,,,,,,,,,,,,,,,,,,,,,,,,,,,,,,,,,,,,,,,,,,,,,,,,,,,,,,,,,,,,,,,,,,,
1769164051.406768,1769164051.407605,101.0,0.0,4280.641113,4286.153809,4327.820313,4242.563965,4277.179688,4280.256348,4311.922852,4312.179688,4294.230957,4272.692383,4602.436035,4583.717773,4441.282227,4509.487305,,,,,,,,,,,,,,,,,,,,,,,,,,,,,,,,,,,,,,,,,,,,,,,,,,,,,,,,,,,,,,,,,,,,,,
1769164051.414576,1769164051.415513,102.0,0.0,4274.358887,4285.128418,4327.179688,4240.0,4279.743652,4285.0,4317.563965,4311.794922,4294.871582,4272.179688,4604.871582,4586.410156,4444.615234,4510.769043,,,,,,,,,,,,,,,,,,,,,,,,,,,,,,,,,,,,,,,,,,,,,,,,,,,,,,,,,,,,,,,,,,,,,,
1769164051.422385,1769164051.423322,103.0,0.0,4281.025879,4293.205078,4328.077148,4246.538574,4280.897461,4283.717773,4317.179688,4309.487305,4293.589844,4274.615234,4599.871582,4576.282227,4437.820313,4515.256348,,,,,,,,,,,,,,,,,,,,,,,,,,,,,,,,,,,,,,,,,,,,,,,,,,,,,,,,,,,,,,,,,,,,,,
1769164051.430193,1769164051.43093,104.0,0.0,4281.153809,4296.410156,4326.025879,4248.333496,4280.128418,4281.666504,4315.256348,4310.769043,4292.05127,4273.077148,4596.666504,4567.94873,4432.05127,4521.922852,,,,,,,,,,,,,,,,,,,,,,,,,,,,,,,,,,,,,,,,,,,,,,,,,,,,,,,,,,,,,,,,,,,,,,
1769164051.438002,1769164051.438739,105.0,0.0,4277.692383,4294.230957,4325.0,4245.384766,4281.794922,4286.538574,4320.384766,4311.025879,4293.333496,4272.179688,4601.153809,4576.794922,4432.692383,4519.615234,,,,,,,,,,,,,,,,,,,,,,,,,,,,,,,,,,,,,,,,,,,,,,,,,,,,,,,,,,,,,,,,,,,,,,
1769164051.44581,1769164051.446447,106.0,0.0,4281.282227,4294.871582,4332.820313,4246.794922,4281.538574,4284.358887,4320.256348,4308.974121,4295.512695,4276.282227,4607.820313,4588.205078,4439.358887,4512.05127,,,,,,,,,,,,,,,,,,,,,,,,,,,,,,,,,,,,,,,,,,,,,,,,,,,,,,,,,,,,,,,,,,,,,,
1769164051.453619,1769164051.454256,107.0,0.0,4274.615234,4296.666504,4336.153809,4245.0,4280.641113,4280.0,4313.846191,4314.358887,4296.153809,4279.615234,4607.436035,4587.436035,4441.025879,4509.358887,,,,,,,,,,,,,,,,,,,,,,,,,,,,,,,,,,,,,,,,,,,,,,,,,,,,,,,,,,,,,,,,,,,,,,
1769164051.461427,1769164051.461864,108.0,0.0,4261.794922,4295.256348,4329.102539,4240.128418,4281.666504,4282.94873,4312.692383,4319.102539,4295.512695,4278.205078,4605.641113,4581.282227,4440.0,4512.692383,,,,,,,,,,,,,,,,,,,,,,,,,,,,,,,,,,,,,,,,,,,,,,,,,,,,,,,,,,,,,,,,,,,,,,
1769164051.469236,1769164051.469673,109.0,0.0,4268.974121,4296.025879,4326.666504,4243.333496,4281.666504,4282.05127,4311.666504,4310.384766,4293.461426,4278.717773,4609.871582,4580.384766,4451.538574,4525.769043,,,,,,,,,,,,,,,,,,,,,,,,,,,,,,,,,,,,,,,,,,,,,,,,,,,,,,,,,,,,,,,,,,,,,,
1769164051.477044,1769164051.477381,110.0,0.0,4282.05127,4297.692383,4329.743652,4247.94873,4279.871582,4277.05127,4307.179688,4301.794922,4292.692383,4281.922852,4615.897461,4583.205078,4458.077148,4536.282227,2.818802,0.616279,0.440311,0.35594,0.201339,0.354607,0.52522,0.249099,0.2105,0.121869,0.904539,0.233726,0.289545,0.219343,0.111423,0.311177,0.3102,0.244664,0.230828,0.067747,0.173893,0.132471,0.088344,0.100725,0.069895,0.204419,0.144347,0.166918,0.240988,0.247867,0.050058,0.066603,0.041803,0.156464,0.121299,0.275254,0.161172,0.076238,0.142628,0.065079,0.144072,0.142557,0.113402,0.17473,0.101519,0.53888,0.498717,0.409235,0.194964,0.208165,0.188289,0.503158,0.511225,0.256848,0.181249,0.316389,0.407336,0.413846,0.313726,0.175648,0.524381,0.364173,0.446388,0.335471,0.254227,3.548995,0.439347,0.352038,0.282819,0.223159
1769164051.484852,1769164051.48519,111.0,0.0,4273.717773,4296.538574,4329.230957,4242.179688,4280.128418,4277.307617,4309.615234,4306.794922,4293.461426,4281.794922,4615.641113,4586.025879,4449.743652,4532.307617,,,,,,,,,,,,,,,,,,,,,,,,,,,,,,,,,,,,,,,,,,,,,,,,,,,,,,,,,,,,,,,,,,,,,,
1769164051.492661,1769164051.493198,112.0,0.0,4258.589844,4291.410156,4326.794922,4235.641113,4279.230957,4283.077148,4317.179688,4311.666504,4293.461426,4278.974121,4606.282227,4584.358887,4443.205078,4521.922852,,,,,,,,,,,,,,,,,,,,,,,,,,,,,,,,,,,,,,,,,,,,,,,,,,,,,,,,,,,,,,,,,,,,,,
1769164051.500469,1769164051.501006,113.0,0.0,4258.333496,4292.179688,4328.077148,4240.897461,4280.0,4291.410156,4321.922852,4310.512695,4293.333496,4275.128418,4601.025879,4581.666504,4441.794922,4515.256348,,,,,,,,,,,,,,,,,,,,,,,,,,,,,,,,,,,,,,,,,,,,,,,,,,,,,,,,,,,,,,,,,,,,,,
1769164051.508278,1769164051.508915,114.0,0.0,4268.205078,4304.743652,4337.820313,4249.871582,4287.05127,4287.820313,4317.94873,4309.871582,4293.717773,4279.743652,4613.846191,4587.820313,4447.436035,4525.128418,,,,,,,,,,,,,,,,,,,,,,,,,,,,,,,,,,,,,,,,,,,,,,,,,,,,,,,,,,,,,,,,,,,,,,
1769164051.516086,1769164051.516723,115.0,0.0,4270.384766,4307.05127,4345.512695,4249.871582,4287.307617,4280.128418,4312.820313,4309.487305,4296.025879,4289.230957,4626.282227,4596.282227,4463.205078,4544.358887,,,,,,,,,,,,,,,,,,,,,,,,,,,,,,,,,,,,,,,,,,,,,,,,,,,,,,,,,,,,,,,,,,,,,,
1769164051.523895,1769164051.524332,116.0,0.0,4256.666504,4294.615234,4334.615234,4245.256348,4280.128418,4290.128418,4321.666504,4312.307617,4299.358887,4284.871582,4616.153809,4586.282227,4463.333496,4540.641113,,,,,,,,,,,,,,,,,,,,,,,,,,,,,,,,,,,,,,,,,,,,,,,,,,,,,,,,,,,,,,,,,,,,,,
1769164051.531703,1769164051.53214,117.0,0.0,4244.230957,4293.077148,4325.384766,4246.922852,4286.666504,4300.0,4328.589844,4318.461426,4303.974121,4279.615234,4606.922852,4573.461426,4445.512695,4524.615234,,,,,,,,,,,,,,,,,,,,,,,,,,,,,,,,,,,,,,,,,,,,,,,,,,,,,,,,,,,,,,,,,,,,,,
1769164051.539512,1769164051.539849,118.0,0.0,4245.256348,4298.461426,4329.615234,4247.307617,4296.538574,4295.128418,4321.538574,4321.025879,4307.05127,4291.153809,4611.794922,4578.974121,4441.666504,4520.256348,,,,,,,,,,,,,,,,,,,,,,,,,,,,,,,,,,,,,,,,,,,,,,,,,,,,,,,,,,,,,,,,,,,,,,
1769164051.54732,1769164051.547657,119.0,0.0,4247.820313,4297.692383,4330.512695,4244.615234,4289.358887,4288.077148,4315.256348,4316.794922,4306.410156,4299.358887,4613.974121,4588.077148,4451.794922,4521.666504,,,,,,,,,,,,,,,,,,,,,,,,,,,,,,,,,,,,,,,,,,,,,,,,,,,,,,,,,,,,,,,,,,,,,,
1769164051.555128,1769164051.555666,120.0,0.0,4246.538574,4303.333496,4332.563965,4245.897461,4279.358887,4281.922852,4313.846191,4311.538574,4307.436035,4297.94873,4618.333496,4590.641113,4458.846191,4529.487305,,,,,,,,,,,,,,,,,,,,,,,,,,,,,,,,,,,,,,,,,,,,,,,,,,,,,,,,,,,,,,,,,,,,,,
1769164051.562937,1769164051.563474,121.0,0.0,4249.230957,4306.922852,4337.179688,4244.615234,4277.307617,4275.512695,4309.230957,4309.871582,4306.410156,4298.461426,4626.922852,4591.922852,4464.102539,4539.358887,,,,,,,,,,,,,,,,,,,,,,,,,,,,,,,,,,,,,,,,,,,,,,,,,,,,,,,,,,,,,,,,,,,,,,
1769164051.570745,1769164051.571382,122.0,0.0,4249.615234,4297.94873,4332.820313,4243.077148,4280.641113,4277.692383,4310.641113,4309.230957,4298.205078,4290.769043,4619.230957,4587.436035,4461.153809,4534.230957,,,,,,,,,,,,,,,,,,,,,,,,,,,,,,,,,,,,,,,,,,,,,,,,,,,,,,,,,,,,,,,,,,,,,,
1769164051.578554,1769164051.579191,123.0,0.0,4240.128418,4294.743652,4327.94873,4244.871582,4285.256348,4284.871582,4322.692383,4308.846191,4290.897461,4277.94873,4603.974121,4578.205078,4449.358887,4519.743652,,,,,,,,,,,,,,,,,,,,,,,,,,,,,,,,,,,,,,,,,,,,,,,,,,,,,,,,,,,,,,,,,,,,,,
1769164051.586362,1769164051.587199,124.0,0.0,4230.512695,4298.589844,4329.102539,4247.05127,4283.717773,4288.333496,4327.563965,4309.358887,4295.0,4276.922852,4602.563965,4572.179688,4442.307617,4510.512695,,,,,,,,,,,,,,,,,,,,,,,,,,,,,,,,,,,,,,,,,,,,,,,,,,,,,,,,,,,,,,,,,,,,,,
1769164051.594171,1769164051.595007,125.0,0.0,4229.102539,4296.025879,4327.820313,4247.179688,4285.384766,4286.922852,4322.436035,4310.641113,4298.333496,4280.641113,4608.205078,4572.307617,4444.358887,4512.307617,,,,,,,,,,,,,,,,,,,,,,,,,,,,,,,,,,,,,,,,,,,,,,,,,,,,,,,,,,,,,,,,,,,,,,
1769164051.601979,1769164051.602916,126.0,0.0,4228.717773,4292.436035,4327.820313,4242.820313,4289.743652,4288.333496,4322.05127,4307.820313,4293.333496,4278.974121,4609.871582,4577.94873,4450.384766,4521.538574,2.786908,0.776697,0.464042,0.364829,0.222093,0.332458,0.622529,0.300706,0.221105,0.117497,0.877651,0.288085,0.279295,0.225054,0.122326,0.323786,0.319922,0.241418,0.241186,0.072327,0.153856,0.130601,0.07672,0.088177,0.063423,0.16351,0.163135,0.151008,0.238153,0.256489,0.039244,0.066953,0.039903,0.152897,0.120923,0.214299,0.15268,0.086397,0.173722,0.081889,0.151677,0.143343,0.140637,0.18421,0.115541,0.51997,0.54755,0.393024,0.207837,0.204262,0.204298,0.712841,0.531984,0.280532,0.189471,0.301313,0.504336,0.423555,0.305197,0.18117,0.55152,0.44684,0.493746,0.345918,0.282563,3.311422,0.481512,0.327091,0.279563,0.251303
1769164051.609788,1769164051.610724,127.0,0.0,4227.436035,4293.205078,4334.615234,4239.871582,4285.256348,4291.794922,4326.666504,4306.410156,4297.05127,4279.102539,4614.743652,4586.538574,4455.256348,4528.717773,,,,,,,,,,,,,,,,,,,,,,,,,,,,,,,,,,,,,,,,,,,,,,,,,,,,,,,,,,,,,,,,,,,,,,
1769164051.617596,1769164051.618533,0.0,0.0,4229.230957,4295.641113,4340.897461,4245.641113,4282.436035,4285.384766,4322.692383,4310.769043,4306.025879,4284.487305,4618.974121,4589.230957,4457.563965,4528.589844,,,,,,,,,,,,,,,,,,,,,,,,,,,,,,,,,,,,,,,,,,,,,,,,,,,,,,,,,,,,,,,,,,,,,,
1769164051.625405,1769164051.626341,1.0,0.0,4223.077148,4298.333496,4335.512695,4247.179688,4288.974121,4284.743652,4318.205078,4311.282227,4302.436035,4284.230957,4612.436035,4582.179688,4449.230957,4521.922852,,,,,,,,,,,,,,,,,,,,,,,,,,,,,,,,,,,,,,,,,,,,,,,,,,,,,,,,,,,,,,,,,,,,,,
1769164051.633213,1769164051.63405,2.0,0.0,4208.717773,4294.358887,4322.05127,4237.820313,4289.230957,4293.717773,4322.692383,4305.512695,4293.589844,4277.179688,4598.846191,4566.794922,4435.384766,4506.282227,,,,,,,,,,,,,,,,,,,,,,,,,,,,,,,,,,,,,,,,,,,,,,,,,,,,,,,,,,,,,,,,,,,,,,
1769164051.641022,1769164051.641858,3.0,0.0,4208.717773,4294.871582,4323.205078,4238.589844,4288.846191,4289.358887,4320.512695,4303.589844,4295.384766,4275.0,4596.025879,4561.794922,4437.820313,4501.410156,,,,,,,,,,,,,,,,,,,,,,,,,,,,,,,,,,,,,,,,,,,,,,,,,,,,,,,,,,,,,,,,,,,,,,
1769164051.64883,1769164051.649467,4.0,0.0,4222.179688,4307.179688,4338.589844,4253.077148,4298.077148,4278.589844,4310.641113,4304.102539,4298.077148,4281.410156,4609.615234,4572.05127,4453.077148,4521.282227,,,,,,,,,,,,,,,,,,,,,,,,,,,,,,,,,,,,,,,,,,,,,,,,,,,,,,,,,,,,,,,,,,,,,,
1769164051.656639,1769164051.657275,5.0,0.0,4222.05127,4309.358887,4339.102539,4254.871582,4295.256348,4279.743652,4311.922852,4300.256348,4295.641113,4285.0,4618.461426,4579.743652,4456.153809,4527.563965,,,,,,,,,,,,,,,,,,,,,,,,,,,,,,,,,,,,,,,,,,,,,,,,,,,,,,,,,,,,,,,,,,,,,,
1769164051.664447,1769164051.665184,6.0,0.0,4205.512695,4295.256348,4325.897461,4241.794922,4281.794922,4283.589844,4320.0,4296.282227,4291.410156,4278.077148,4605.641113,4571.153809,4441.922852,4506.025879,,,,,,,,,,,,,,,,,,,,,,,,,,,,,,,,,,,,,,,,,,,,,,,,,,,,,,,,,,,,,,,,,,,,,,
1769164051.672255,1769164051.672992,7.0,0.0,4193.846191,4289.102539,4321.666504,4237.820313,4278.461426,4281.794922,4316.794922,4296.025879,4283.461426,4267.05127,4586.025879,4557.307617,4428.461426,4483.717773,,,,,,,,,,,,,,,,,,,,,,,,,,,,,,,,,,,,,,,,,,,,,,,,,,,,,,,,,,,,,,,,,,,,,,
1769164051.680064,1769164051.680601,8.0,0.0,4195.384766,4294.358887,4325.641113,4245.512695,4282.563965,4282.05127,4310.256348,4298.589844,4280.512695,4266.153809,4585.512695,4559.358887,4426.538574,4487.563965,,,,,,,,,,,,,,,,,,,,,,,,,,,,,,,,,,,,,,,,,,,,,,,,,,,,,,,,,,,,,,,,,,,,,,
1769164051.687872,1769164051.688409,9.0,0.0,4201.666504,4296.666504,4327.692383,4248.717773,4282.94873,4279.102539,4313.333496,4302.436035,4284.358887,4274.871582,4598.974121,4570.256348,4432.820313,4505.641113,,,,,,,,,,,,,,,,,,,,,,,,,,,,,,,,,,,,,,,,,,,,,,,,,,,,,,,,,,,,,,,,,,,,,,
1769164051.695681,1769164051.696317,10.0,0.0,4198.846191,4296.025879,4327.692383,4246.025879,4279.358887,4281.794922,4319.615234,4307.692383,4290.256348,4279.230957,4600.512695,4569.230957,4433.717773,4504.743652,,,,,,,,,,,,,,,,,,,,,,,,,,,,,,,,,,,,,,,,,,,,,,,,,,,,,,,,,,,,,,,,,,,,,,
1769164051.703489,1769164051.704126,11.0,0.0,4188.205078,4288.846191,4325.384766,4245.641113,4278.846191,4290.897461,4318.205078,4311.666504,4295.0,4277.94873,4595.512695,4566.538574,4428.589844,4497.307617,,,,,,,,,,,,,,,,,,,,,,,,,,,,,,,,,,,,,,,,,,,,,,,,,,,,,,,,,,,,,,,,,,,,,,
1769164051.711298,1769164051.712134,12.0,0.0,4184.615234,4283.846191,4325.256348,4245.769043,4278.846191,4287.05127,4311.538574,4308.717773,4288.974121,4277.307617,4598.205078,4572.307617,4428.974121,4504.743652,,,,,,,,,,,,,,,,,,,,,,,,,,,,,,,,,,,,,,,,,,,,,,,,,,,,,,,,,,,,,,,,,,,,,,
1769164051.719106,1769164051.719943,13.0,0.0,4187.05127,4288.846191,4329.487305,4245.641113,4278.461426,4279.102539,4313.333496,4306.666504,4281.922852,4276.666504,4603.077148,4575.384766,4432.05127,4512.307617,,,,,,,,,,,,,,,,,,,,,,,,,,,,,,,,,,,,,,,,,,,,,,,,,,,,,,,,,,,,,,,,,,,,,,
1769164051.726915,1769164051.727651,14.0,0.0,4186.666504,4289.743652,4331.410156,4247.307617,4278.974121,4283.333496,4318.333496,4310.0,4283.974121,4279.230957,4603.717773,4573.077148,4432.05127,4508.333496,2.422974,0.94472,0.504413,0.370853,0.254441,0.314621,0.73829,0.365514,0.230392,0.114067,0.769499,0.338787,0.255726,0.235532,0.139972,0.338444,0.344119,0.239466,0.24068,0.082125,0.134885,0.146156,0.085237,0.072916,0.057719,0.126672,0.19031,0.134901,0.232721,0.246478,0.03277,0.084332,0.05308,0.148621,0.120366,0.158398,0.14017,0.118662,0.198765,0.10083,0.17474,0.144654,0.174943,0.177004,0.123005,0.505359,0.613964,0.411017,0.217655,0.195082,0.229551,0.895656,0.536384,0.294259,0.191683,0.281486,0.592375,0.449168,0.291724,0.188127,0.547823,0.535891,0.522415,0.337303,0.311079,2.690478,0.522324,0.309528,0.296403,0.290474
1769164051.734723,1769164051.73546,15.0,0.0,4185.256348,4282.436035,4330.256348,4246.794922,4280.641113,4289.871582,4317.692383,4306.538574,4282.563965,4276.794922,4601.538574,4572.563965,4430.769043,4507.179688,,,,,,,,,,,,,,,,,,,,,,,,,,,,,,,,,,,,,,,,,,,,,,,,,,,,,,,,,,,,,,,,,,,,,,
1769164051.742531,1769164051.743468,16.0,0.0,4179.743652,4276.666504,4332.94873,4247.179688,4281.794922,4287.05127,4316.282227,4299.487305,4276.282227,4267.436035,4599.871582,4571.282227,4430.256348,4509.871582,,,,,,,,,,,,,,,,,,,,,,,,,,,,,,,,,,,,,,,,,,,,,,,,,,,,,,,,,,,,,,,,,,,,,,
1769164051.75034,1769164051.751276,17.0,0.0,4174.230957,4280.128418,4338.846191,4256.282227,4281.153809,4283.205078,4315.256348,4304.487305,4278.205078,4269.615234,4603.846191,4570.641113,4432.307617,4509.230957,,,,,,,,,,,,,,,,,,,,,,,,,,,,,,,,,,,,,,,,,,,,,,,,,,,,,,,,,,,,,,,,,,,,,,
1769164051.758148,1769164051.758985,18.0,0.0,4180.512695,4291.282227,4338.077148,4270.384766,4281.410156,4280.128418,4311.794922,4309.487305,4284.743652,4277.692383,4606.025879,4571.538574,4430.256348,4508.974121,,,,,,,,,,,,,,,,,,,,,,,,,,,,,,,,,,,,,,,,,,,,,,,,,,,,,,,,,,,,,,,,,,,,,,
1769164051.765957,1769164051.766793,19.0,0.0,4184.102539,4294.615234,4331.025879,4276.794922,4280.897461,4277.563965,4309.743652,4307.436035,4291.282227,4275.384766,4602.179688,4572.436035,4429.102539,4508.974121,,,,,,,,,,,,,,,,,,,,,,,,,,,,,,,,,,,,,,,,,,,,,,,,,,,,,,,,,,,,,,,,,,,,,,
1769164051.773765,1769164051.774802,20.0,0.0,4174.487305,4285.0,4326.538574,4277.563965,4280.256348,4280.0,4312.436035,4310.384766,4294.743652,4271.794922,4607.436035,4574.358887,4440.769043,4511.410156,,,,,,,,,,,,,,,,,,,,,,,,,,,,,,,,,,,,,,,,,,,,,,,,,,,,,,,,,,,,,,,,,,,,,,
1769164051.781574,1769164051.78261,21.0,0.0,4168.974121,4280.128418,4327.436035,4278.846191,4278.846191,4282.563965,4316.025879,4313.589844,4291.025879,4277.692383,4615.256348,4572.692383,4444.358887,4512.692383,,,,,,,,,,,,,,,,,,,,,,,,,,,,,,,,,,,,,,,,,,,,,,,,,,,,,,,,,,,,,,,,,,,,,,
1769164051.789382,1769164051.790518,22.0,0.0,4169.743652,4282.179688,4327.307617,4279.487305,4274.615234,4282.179688,4315.384766,4311.666504,4291.153809,4276.410156,4607.94873,4569.743652,4435.512695,4508.846191,,,,,,,,,,,,,,,,,,,,,,,,,,,,,,,,,,,,,,,,,,,,,,,,,,,,,,,,,,,,,,,,,,,,,,
1769164051.797191,1769164051.798327,23.0,0.0,4164.487305,4282.692383,4326.410156,4285.384766,4275.0,4282.307617,4309.743652,4310.512695,4295.641113,4267.94873,4602.820313,4573.461426,4440.641113,4510.0,,,,,,,,,,,,,,,,,,,,,,,,,,,,,,,,,,,,,,,,,,,,,,,,,,,,,,,,,,,,,,,,,,,,,,
1769164051.804999,1769164051.806035,24.0,0.0,4156.666504,4283.974121,4327.820313,4294.871582,4280.897461,4292.563965,4313.974121,4309.743652,4291.794922,4270.384766,4604.230957,4567.692383,4443.974121,4508.333496,,,,,,,,,,,,,,,,,,,,,,,,,,,,,,,,,,,,,,,,,,,,,,,,,,,,,,,,,,,,,,,,,,,,,,
1769164051.812807,1769164051.813844,25.0,0.0,4152.05127,4285.256348,4326.025879,4296.410156,4282.94873,4300.128418,4320.256348,4306.666504,4286.538574,4277.820313,4600.256348,4554.358887,4434.230957,4499.487305,,,,,,,,,,,,,,,,,,,,,,,,,,,,,,,,,,,,,,,,,,,,,,,,,,,,,,,,,,,,,,,,,,,,,,
1769164051.820616,1769164051.821552,26.0,0.0,4153.205078,4289.615234,4325.128418,4293.461426,4280.512695,4288.205078,4310.256348,4306.538574,4290.897461,4279.871582,4605.256348,4563.589844,4437.436035,4501.282227,,,,,,,,,,,,,,,,,,,,,,,,,,,,,,,,,,,,,,,,,,,,,,,,,,,,,,,,,,,,,,,,,,,,,,
1769164051.828424,1769164051.829361,27.0,0.0,4159.102539,4294.102539,4329.615234,4295.512695,4278.333496,4276.282227,4302.563965,4309.615234,4297.692383,4280.769043,4618.589844,4581.025879,4449.230957,4510.641113,,,,,,,,,,,,,,,,,,,,,,,,,,,,,,,,,,,,,,,,,,,,,,,,,,,,,,,,,,,,,,,,,,,,,,
1769164051.836233,1769164051.836969,28.0,0.0,4159.102539,4291.794922,4331.025879,4300.128418,4278.205078,4279.487305,4308.205078,4311.153809,4297.94873,4284.615234,4620.641113,4577.692383,4448.717773,4510.641113,,,,,,,,,,,,,,,,,,,,,,,,,,,,,,,,,,,,,,,,,,,,,,,,,,,,,,,,,,,,,,,,,,,,,,
1769164051.844041,1769164051.844778,29.0,0.0,4154.615234,4286.538574,4326.922852,4302.820313,4279.487305,4284.743652,4310.897461,4310.769043,4295.641113,4282.820313,4614.230957,4565.769043,4444.230957,4510.0,,,,,,,,,,,,,,,,,,,,,,,,,,,,,,,,,,,,,,,,,,,,,,,,,,,,,,,,,,,,,,,,,,,,,,
1769164051.85185,1769164051.852486,30.0,0.0,4157.179688,4284.102539,4327.179688,4306.153809,4277.94873,4280.769043,4308.077148,4310.128418,4296.282227,4278.846191,4613.974121,4569.487305,4445.897461,4520.0,1.787783,1.068955,0.554939,0.376989,0.297923,0.30587,0.84052,0.436701,0.241658,0.11556,0.621136,0.372018,0.226063,0.244365,0.161367,0.345209,0.373737,0.238597,0.230044,0.095216,0.123972,0.170887,0.113594,0.05972,0.05476,0.106505,0.221217,0.120069,0.221094,0.218452,0.032559,0.122288,0.089959,0.145326,0.1201,0.120604,0.129934,0.168507,0.212905,0.117362,0.207983,0.151729,0.213776,0.155807,0.121465,0.520006,0.674045,0.473614,0.219252,0.180813,0.272047,0.993014,0.534658,0.299521,0.187402,0.272854,0.640781,0.484982,0.278954,0.195848,0.523066,0.605491,0.539681,0.321847,0.335805,1.912405,0.553021,0.306444,0.35324,0.333581
1769164051.859658,1769164051.860295,31.0,0.0,4157.94873,4281.666504,4332.179688,4307.692383,4273.846191,4276.538574,4307.820313,4310.769043,4297.179688,4278.589844,4618.205078,4579.487305,4449.230957,4523.333496,,,,,,,,,,,,,,,,,,,,,,,,,,,,,,,,,,,,,,,,,,,,,,,,,,,,,,,,,,,,,,,,,,,,,,
1769164051.867467,1769164051.867904,32.0,0.0,4142.94873,4278.461426,4329.871582,4306.153809,4273.974121,4282.692383,4311.025879,4313.077148,4295.0,4275.384766,4615.641113,4578.333496,4443.717773,4512.307617,,,,,,,,,,,,,,,,,,,,,,,,,,,,,,,,,,,,,,,,,,,,,,,,,,,,,,,,,,,,,,,,,,,,,,
1769164051.875275,1769164051.875712,33.0,0.0,4136.282227,4280.384766,4325.256348,4306.794922,4276.025879,4286.922852,4310.641113,4312.05127,4292.307617,4272.692383,4605.384766,4570.256348,4433.717773,4504.743652,,,,,,,,,,,,,,,,,,,,,,,,,,,,,,,,,,,,,,,,,,,,,,,,,,,,,,,,,,,,,,,,,,,,,,
1769164051.883083,1769164051.88362,34.0,0.0,4150.384766,4283.974121,4325.256348,4310.128418,4273.974121,4278.974121,4302.563965,4308.333496,4292.307617,4274.230957,4603.077148,4568.846191,4433.589844,4507.563965,,,,,,,,,,,,,,,,,,,,,,,,,,,,,,,,,,,,,,,,,,,,,,,,,,,,,,,,,,,,,,,,,,,,,,
1769164051.890892,1769164051.891429,35.0,0.0,4155.897461,4282.820313,4327.436035,4311.922852,4273.974121,4274.487305,4301.153809,4311.153809,4296.153809,4279.230957,4612.179688,4572.05127,4438.205078,4511.538574,,,,,,,,,,,,,,,,,,,,,,,,,,,,,,,,,,,,,,,,,,,,,,,,,,,,,,,,,,,,,,,,,,,,,,
1769164051.8987,1769164051.899437,36.0,0.0,4143.717773,4279.871582,4331.025879,4314.871582,4278.461426,4282.820313,4310.897461,4315.0,4296.922852,4280.128418,4613.077148,4570.384766,4436.410156,4509.487305,,,,,,,,,,,,,,,,,,,,,,,,,,,,,,,,,,,,,,,,,,,,,,,,,,,,,,,,,,,,,,,,,,,,,,
1769164051.906509,1769164051.907245,37.0,0.0,4138.333496,4280.897461,4333.974121,4319.102539,4279.871582,4284.743652,4307.05127,4310.512695,4292.94873,4275.384766,4605.128418,4566.153809,4439.230957,4507.820313,,,,,,,,,,,,,,,,,,,,,,,,,,,,,,,,,,,,,,,,,,,,,,,,,,,,,,,,,,,,,,,,,,,,,,
1769164051.914317,1769164051.915154,38.0,0.0,4141.666504,4279.102539,4334.230957,4320.0,4276.666504,4279.615234,4296.922852,4307.307617,4292.436035,4272.179688,4605.641113,4566.538574,4444.358887,4508.205078,,,,,,,,,,,,,,,,,,,,,,,,,,,,,,,,,,,,,,,,,,,,,,,,,,,,,,,,,,,,,,,,,,,,,,
1769164051.922126,1769164051.922962,39.0,0.0,4143.461426,4279.230957,4338.333496,4324.102539,4275.897461,4280.384766,4301.794922,4310.256348,4296.153809,4275.512695,4609.230957,4575.128418,4438.333496,4508.077148,,,,,,,,,,,,,,,,,,,,,,,,,,,,,,,,,,,,,,,,,,,,,,,,,,,,,,,,,,,,,,,,,,,,,,
1769164051.929934,1769164051.930571,40.0,0.0,4142.820313,4285.384766,4343.974121,4329.615234,4278.077148,4281.666504,4303.974121,4311.538574,4296.025879,4275.897461,4605.641113,4579.102539,4428.974121,4507.94873,,,,,,,,,,,,,,,,,,,,,,,,,,,,,,,,,,,,,,,,,,,,,,,,,,,,,,,,,,,,,,,,,,,,,,
1769164051.937743,1769164051.938379,41.0,0.0,4140.256348,4282.563965,4341.282227,4328.589844,4278.846191,4279.358887,4296.538574,4310.641113,4293.333496,4268.717773,4599.487305,4570.0,4428.461426,4508.205078,,,,,,,,,,,,,,,,,,,,,,,,,,,,,,,,,,,,,,,,,,,,,,,,,,,,,,,,,,,,,,,,,,,,,,
1769164051.945551,1769164051.946088,42.0,0.0,4138.077148,4276.794922,4337.436035,4325.512695,4277.563965,4277.563965,4299.358887,4310.256348,4292.179688,4266.666504,4599.615234,4570.769043,4431.794922,4508.205078,,,,,,,,,,,,,,,,,,,,,,,,,,,,,,,,,,,,,,,,,,,,,,,,,,,,,,,,,,,,,,,,,,,,,,
1769164051.95336,1769164051.953896,43.0,0.0,4137.436035,4279.230957,4339.102539,4324.358887,4273.205078,4279.743652,4307.307617,4312.820313,4294.871582,4271.922852,4606.538574,4587.179688,4431.025879,4507.05127,,,,,,,,,,,,,,,,,,,,,,,,,,,,,,,,,,,,,,,,,,,,,,,,,,,,,,,,,,,,,,,,,,,,,,
1769164051.961168,1769164051.961905,44.0,0.0,4139.358887,4282.307617,4343.205078,4329.358887,4271.666504,4281.922852,4304.102539,4315.0,4298.333496,4276.922852,4611.538574,4593.974121,4428.846191,4508.461426,,,,,,,,,,,,,,,,,,,,,,,,,,,,,,,,,,,,,,,,,,,,,,,,,,,,,,,,,,,,,,,,,,,,,,
1769164051.968977,1769164051.969713,45.0,0.0,4141.666504,4285.384766,4345.512695,4340.128418,4277.436035,4276.794922,4293.333496,4305.769043,4289.230957,4278.205078,4608.461426,4581.410156,4431.282227,4510.769043,,,,,,,,,,,,,,,,,,,,,,,,,,,,,,,,,,,,,,,,,,,,,,,,,,,,,,,,,,,,,,,,,,,,,,
1769164051.976785,1769164051.977621,46.0,0.0,4140.0,4291.538574,4343.461426,4345.128418,4281.153809,4276.153809,4293.846191,4297.692383,4278.717773,4275.256348,4605.0,4573.974121,4433.205078,4509.102539,1.168879,1.099108,0.594836,0.387842,0.346178,0.310301,0.891623,0.503105,0.256452,0.12359,0.474529,0.378355,0.194495,0.24919,0.181498,0.339801,0.397811,0.237607,0.212693,0.109124,0.122319,0.201578,0.155001,0.053497,0.056625,0.105715,0.25764,0.109704,0.203739,0.181005,0.038463,0.180608,0.152003,0.144521,0.120255,0.11831,0.131818,0.225905,0.214154,0.127675,0.244528,0.17038,0.257971,0.128116,0.111913,0.580236,0.706213,0.570073,0.211833,0.164185,0.34093,0.971128,0.531518,0.308783,0.18124,0.29265,0.627788,0.515201,0.278415,0.203794,0.497198,0.634393,0.554091,0.323611,0.352673,1.264536,0.562055,0.316358,0.469159,0.371251
1769164051.984594,1769164051.98543,47.0,0.0,4137.94873,4296.538574,4339.230957,4343.717773,4280.512695,4285.128418,4302.179688,4304.615234,4285.384766,4273.461426,4605.512695,4576.666504,4431.025879,4506.794922,,,,,,,,,,,,,,,,,,,,,,,,,,,,,,,,,,,,,,,,,,,,,,,,,,,,,,,,,,,,,,,,,,,,,,
1769164051.992402,1769164051.993438,48.0,0.0,4135.256348,4295.769043,4336.922852,4344.487305,4281.538574,4286.153809,4302.05127,4312.179688,4296.153809,4279.230957,4605.769043,4577.179688,4427.94873,4507.692383,,,,,,,,,,,,,,,,,,,,,,,,,,,,,,,,,,,,,,,,,,,,,,,,,,,,,,,,,,,,,,,,,,,,,,
1769164052.00021,1769164052.001247,49.0,0.0,4126.410156,4286.410156,4336.666504,4342.05127,4279.743652,4280.512695,4299.871582,4312.436035,4294.615234,4277.692383,4603.205078,4576.153809,4428.846191,4508.077148,,,,,,,,,,,,,,,,,,,,,,,,,,,,,,,,,,,,,,,,,,,,,,,,,,,,,,,,,,,,,,,,,,,,,,
1769164052.008019,1769164052.008955,50.0,0.0,4120.128418,4278.717773,4333.846191,4335.128418,4275.384766,4280.641113,4300.897461,4312.179688,4292.436035,4267.05127,4601.538574,4580.512695,4430.641113,4505.641113,,,,,,,,,,,,,,,,,,,,,,,,,,,,,,,,,,,,,,,,,,,,,,,,,,,,,,,,,,,,,,,,,,,,,,
1769164052.015827,1769164052.016763,51.0,0.0,4125.384766,4289.615234,4329.743652,4337.94873,4277.05127,4280.897461,4296.794922,4310.641113,4295.384766,4269.230957,4601.666504,4580.512695,4429.358887,4507.692383,,,,,,,,,,,,,,,,,,,,,,,,,,,,,,,,,,,,,,,,,,,,,,,,,,,,,,,,,,,,,,,,,,,,,,
1769164052.023636,1769164052.024772,52.0,0.0,4122.179688,4297.307617,4325.256348,4341.025879,4278.974121,4277.436035,4294.102539,4308.846191,4293.717773,4279.487305,4599.487305,4572.94873,4428.077148,4506.538574,,,,,,,,,,,,,,,,,,,,,,,,,,,,,,,,,,,,,,,,,,,,,,,,,,,,,,,,,,,,,,,,,,,,,,
1769164052.031444,1769164052.03258,53.0,0.0,4109.871582,4285.256348,4320.128418,4334.358887,4277.307617,4279.743652,4299.102539,4311.153809,4291.794922,4274.743652,4593.461426,4565.769043,4427.436035,4495.512695,,,,,,,,,,,,,,,,,,,,,,,,,,,,,,,,,,,,,,,,,,,,,,,,,,,,,,,,,,,,,,,,,,,,,,
1769164052.039253,1769164052.040289,54.0,0.0,4111.282227,4283.846191,4319.743652,4333.974121,4277.307617,4283.717773,4298.846191,4308.461426,4291.153809,4264.358887,4591.025879,4563.461426,4427.94873,4493.846191,,,,,,,,,,,,,,,,,,,,,,,,,,,,,,,,,,,,,,,,,,,,,,,,,,,,,,,,,,,,,,,,,,,,,,
1769164052.047061,1769164052.048097,55.0,0.0,4121.153809,4295.128418,4324.743652,4341.153809,4279.102539,4280.897461,4294.871582,4309.871582,4293.077148,4269.102539,4598.974121,4571.538574,4429.615234,4502.692383,,,,,,,,,,,,,,,,,,,,,,,,,,,,,,,,,,,,,,,,,,,,,,,,,,,,,,,,,,,,,,,,,,,,,,
1769164052.05487,1769164052.055706,56.0,0.0,4123.717773,4296.410156,4327.820313,4346.025879,4279.230957,4279.358887,4297.307617,4317.307617,4298.333496,4280.384766,4609.230957,4583.717773,4434.230957,4510.769043,,,,,,,,,,,,,,,,,,,,,,,,,,,,,,,,,,,,,,,,,,,,,,,,,,,,,,,,,,,,,,,,,,,,,,
1769164052.062678,1769164052.063514,57.0,0.0,4122.436035,4298.077148,4327.436035,4350.256348,4278.589844,4280.641113,4296.922852,4313.461426,4296.922852,4282.179688,4613.974121,4587.820313,4442.563965,4521.282227,,,,,,,,,,,,,,,,,,,,,,,,,,,,,,,,,,,,,,,,,,,,,,,,,,,,,,,,,,,,,,,,,,,,,,
1769164052.070486,1769164052.071223,58.0,0.0,4124.615234,4303.717773,4328.846191,4356.025879,4278.589844,4282.563965,4296.922852,4307.179688,4295.128418,4281.922852,4615.256348,4588.589844,4447.563965,4527.307617,,,,,,,,,,,,,,,,,,,,,,,,,,,,,,,,,,,,,,,,,,,,,,,,,,,,,,,,,,,,,,,,,,,,,,
1769164052.078295,1769164052.079031,59.0,0.0,4124.230957,4301.153809,4329.743652,4356.410156,4279.230957,4283.589844,4301.153809,4315.128418,4302.307617,4284.358887,4612.563965,4588.205078,4444.615234,4523.333496,,,,,,,,,,,,,,,,,,,,,,,,,,,,,,,,,,,,,,,,,,,,,,,,,,,,,,,,,,,,,,,,,,,,,,
1769164052.086103,1769164052.08664,60.0,0.0,4114.743652,4290.641113,4326.282227,4350.897461,4279.102539,4287.820313,4305.384766,4321.410156,4304.871582,4284.487305,4610.256348,4586.410156,4442.307617,4520.256348,,,,,,,,,,,,,,,,,,,,,,,,,,,,,,,,,,,,,,,,,,,,,,,,,,,,,,,,,,,,,,,,,,,,,,
1769164052.093912,1769164052.094448,61.0,0.0,4105.641113,4284.487305,4323.589844,4348.077148,4277.820313,4292.05127,4307.05127,4314.487305,4296.025879,4281.922852,4609.615234,4582.179688,4442.820313,4517.436035,,,,,,,,,,,,,,,,,,,,,,,,,,,,,,,,,,,,,,,,,,,,,,,,,,,,,,,,,,,,,,,,,,,,,,
1769164052.10172,1769164052.102357,62.0,0.0,4108.846191,4288.974121,4326.538574,4354.487305,4280.512695,4286.410156,4304.871582,4310.384766,4293.461426,4277.563965,4603.589844,4577.692383,4440.897461,4512.563965,0.649629,1.018303,0.60112,0.404518,0.387811,0.335519,0.868689,0.550954,0.273192,0.13702,0.364046,0.359226,0.163112,0.250725,0.195261,0.345894,0.409608,0.234765,0.193172,0.121596,0.133843,0.235838,0.197704,0.056682,0.063953,0.119767,0.303127,0.107476,0.185094,0.146639,0.051051,0.253076,0.22858,0.146648,0.120746,0.151055,0.150586,0.279628,0.203519,0.129547,0.281771,0.199892,0.310837,0.103771,0.098244,0.67643,0.697739,0.67312,0.199622,0.148627,0.439485,0.841036,0.525429,0.336044,0.179311,0.350919,0.554138,0.522891,0.299435,0.212127,0.500069,0.609559,0.566261,0.362566,0.357763,0.901234,0.546418,0.333346,0.644659,0.395007
1769164052.109529,1769164052.110165,63.0,0.0,4115.128418,4296.025879,4328.717773,4361.410156,4283.205078,4280.0,4300.384766,4313.717773,4297.436035,4278.461426,4601.794922,4578.589844,4441.922852,4517.692383,,,,,,,,,,,,,,,,,,,,,,,,,,,,,,,,,,,,,,,,,,,,,,,,,,,,,,,,,,,,,,,,,,,,,,
1769164052.117337,1769164052.118173,64.0,0.0,4110.769043,4294.487305,4325.897461,4355.897461,4280.384766,4280.512695,4297.05127,4313.333496,4294.615234,4288.974121,4608.461426,4583.974121,4446.153809,4525.384766,,,,,,,,,,,,,,,,,,,,,,,,,,,,,,,,,,,,,,,,,,,,,,,,,,,,,,,,,,,,,,,,,,,,,,
1769164052.125146,1769164052.125982,65.0,0.0,4106.922852,4291.153809,4325.641113,4352.179688,4278.205078,4280.256348,4296.922852,4311.666504,4293.205078,4291.410156,4615.256348,4588.461426,4447.820313,4526.153809,,,,,,,,,,,,,,,,,,,,,,,,,,,,,,,,,,,,,,,,,,,,,,,,,,,,,,,,,,,,,,,,,,,,,,
1769164052.132954,1769164052.13389,66.0,0.0,4108.205078,4292.05127,4324.871582,4356.410156,4280.128418,4280.128418,4302.05127,4315.128418,4295.384766,4279.615234,4613.205078,4588.077148,4444.871582,4523.461426,,,,,,,,,,,,,,,,,,,,,,,,,,,,,,,,,,,,,,,,,,,,,,,,,,,,,,,,,,,,,,,,,,,,,,
1769164052.140762,1769164052.141699,67.0,0.0,4108.077148,4293.077148,4321.794922,4355.641113,4281.410156,4285.256348,4310.384766,4319.102539,4294.102539,4276.410156,4609.487305,4584.615234,4442.820313,4519.358887,,,,,,,,,,,,,,,,,,,,,,,,,,,,,,,,,,,,,,,,,,,,,,,,,,,,,,,,,,,,,,,,,,,,,,
1769164052.148571,1769164052.149307,68.0,0.0,4106.922852,4292.436035,4324.230957,4355.769043,4280.897461,4286.153809,4307.563965,4320.897461,4300.128418,4287.05127,4612.436035,4585.256348,4444.615234,4519.743652,,,,,,,,,,,,,,,,,,,,,,,,,,,,,,,,,,,,,,,,,,,,,,,,,,,,,,,,,,,,,,,,,,,,,,
1769164052.156379,1769164052.157116,69.0,0.0,4105.384766,4288.846191,4327.692383,4357.820313,4279.871582,4280.384766,4295.512695,4322.436035,4311.025879,4288.077148,4612.307617,4591.282227,4442.692383,4521.282227,,,,,,,,,,,,,,,,,,,,,,,,,,,,,,,,,,,,,,,,,,,,,,,,,,,,,,,,,,,,,,,,,,,,,,
1769164052.164188,1769164052.165024,70.0,0.0,4105.897461,4287.563965,4324.230957,4357.307617,4278.717773,4279.230957,4295.384766,4323.333496,4313.205078,4290.128418,4612.692383,4595.256348,4445.769043,4523.589844,,,,,,,,,,,,,,,,,,,,,,,,,,,,,,,,,,,,,,,,,,,,,,,,,,,,,,,,,,,,,,,,,,,,,,
1769164052.171996,1769164052.172833,71.0,0.0,4110.641113,4295.512695,4325.641113,4360.512695,4278.846191,4279.871582,4304.487305,4326.922852,4312.05127,4295.897461,4618.461426,4592.820313,4456.410156,4529.358887,,,,,,,,,,,,,,,,,,,,,,,,,,,,,,,,,,,,,,,,,,,,,,,,,,,,,,,,,,,,,,,,,,,,,,
1769164052.179805,1769164052.180841,72.0,0.0,4112.05127,4299.102539,4333.589844,4366.025879,4277.563965,4280.128418,4304.487305,4328.461426,4308.461426,4285.897461,4618.077148,4589.358887,4454.615234,4527.563965,,,,,,,,,,,,,,,,,,,,,,,,,,,,,,,,,,,,,,,,,,,,,,,,,,,,,,,,,,,,,,,,,,,,,,
1769164052.187613,1769164052.188649,73.0,0.0,4111.666504,4295.0,4337.307617,4368.589844,4279.743652,4279.871582,4297.820313,4318.205078,4297.307617,4274.871582,4610.641113,4587.820313,4442.436035,4520.769043,,,,,,,,,,,,,,,,,,,,,,,,,,,,,,,,,,,,,,,,,,,,,,,,,,,,,,,,,,,,,,,,,,,,,,
1769164052.195422,1769164052.196358,74.0,0.0,4113.205078,4297.692383,4333.974121,4368.717773,4286.922852,4282.436035,4299.487305,4306.922852,4288.077148,4278.846191,4608.589844,4585.641113,4439.871582,4519.358887,,,,,,,,,,,,,,,,,,,,,,,,,,,,,,,,,,,,,,,,,,,,,,,,,,,,,,,,,,,,,,,,,,,,,,
1769164052.20323,1769164052.204166,75.0,0.0,4112.94873,4303.077148,4328.846191,4368.589844,4286.538574,4287.94873,4302.692383,4313.077148,4291.794922,4281.025879,4612.179688,4583.974121,4442.94873,4521.025879,,,,,,,,,,,,,,,,,,,,,,,,,,,,,,,,,,,,,,,,,,,,,,,,,,,,,,,,,,,,,,,,,,,,,,
1769164052.211038,1769164052.211775,76.0,0.0,4112.179688,4301.794922,4327.820313,4367.94873,4279.871582,4286.282227,4300.384766,4319.871582,4296.153809,4276.794922,4614.487305,4590.128418,4443.717773,4522.94873,,,,,,,,,,,,,,,,,,,,,,,,,,,,,,,,,,,,,,,,,,,,,,,,,,,,,,,,,,,,,,,,,,,,,,
1769164052.218847,1769164052.219583,77.0,0.0,4112.179688,4298.077148,4328.589844,4368.077148,4278.717773,4278.589844,4301.153809,4316.666504,4293.846191,4280.512695,4620.769043,4596.922852,4448.205078,4526.410156,,,,,,,,,,,,,,,,,,,,,,,,,,,,,,,,,,,,,,,,,,,,,,,,,,,,,,,,,,,,,,,,,,,,,,
1769164052.226655,1769164052.227492,78.0,0.0,4109.487305,4295.769043,4325.256348,4366.025879,4281.153809,4279.615234,4303.846191,4320.641113,4294.615234,4282.820313,4621.153809,4590.897461,4446.282227,4523.717773,0.379209,0.856877,0.56678,0.424536,0.411277,0.368496,0.776745,0.573313,0.289752,0.152444,0.314834,0.32709,0.135128,0.250797,0.199116,0.374911,0.403729,0.231392,0.17674,0.130667,0.151019,0.268227,0.229514,0.068313,0.074991,0.1349,0.357923,0.114498,0.170907,0.125709,0.067199,0.325631,0.299737,0.150805,0.121894,0.204766,0.181732,0.319938,0.18467,0.123167,0.313061,0.231977,0.371298,0.090457,0.085827,0.776423,0.655563,0.751396,0.189913,0.137427,0.548098,0.657213,0.510963,0.386471,0.185233,0.440823,0.452751,0.500877,0.344997,0.221684,0.533567,0.539743,0.571119,0.440614,0.348148,0.822614,0.522953,0.353043,0.85151,0.399304
1769164052.234464,1769164052.2353,79.0,0.0,4106.666504,4294.871582,4323.461426,4363.717773,4282.307617,4285.384766,4305.0,4326.410156,4297.692383,4280.384766,4618.333496,4587.94873,4443.077148,4520.256348,,,,,,,,,,,,,,,,,,,,,,,,,,,,,,,,,,,,,,,,,,,,,,,,,,,,,,,,,,,,,,,,,,,,,,
1769164052.242273,1769164052.242909,80.0,0.0,4108.077148,4294.615234,4327.94873,4366.025879,4283.205078,4282.94873,4305.897461,4323.717773,4295.897461,4281.282227,4623.974121,4594.871582,4449.230957,4524.871582,,,,,,,,,,,,,,,,,,,,,,,,,,,,,,,,,,,,,,,,,,,,,,,,,,,,,,,,,,,,,,,,,,,,,,
1769164052.250081,1769164052.250717,81.0,0.0,4107.307617,4295.641113,4327.692383,4367.179688,4281.282227,4277.307617,4303.461426,4328.077148,4300.641113,4282.307617,4625.512695,4595.0,4449.487305,4526.666504,,,,,,,,,,,,,,,,,,,,,,,,,,,,,,,,,,,,,,,,,,,,,,,,,,,,,,,,,,,,,,,,,,,,,,
1769164052.257889,1769164052.258426,82.0,0.0,4105.769043,4296.794922,4320.128418,4365.897461,4279.230957,4279.358887,4299.743652,4329.615234,4306.410156,4283.974121,4620.512695,4587.436035,4443.333496,4524.615234,,,,,,,,,,,,,,,,,,,,,,,,,,,,,,,,,,,,,,,,,,,,,,,,,,,,,,,,,,,,,,,,,,,,,,
1769164052.265698,1769164052.266234,83.0,0.0,4107.563965,4296.922852,4319.487305,4365.128418,4280.0,4280.128418,4298.077148,4313.974121,4292.05127,4278.077148,4614.487305,4580.897461,4438.717773,4521.282227,,,,,,,,,,,,,,,,,,,,,,,,,,,,,,,,,,,,,,,,,,,,,,,,,,,,,,,,,,,,,,,,,,,,,,
1769164052.273506,1769164052.273843,84.0,0.0,4105.512695,4293.333496,4325.128418,4365.641113,4280.769043,4274.615234,4295.897461,4305.641113,4277.179688,4266.025879,4606.025879,4579.487305,4433.589844,4513.333496,,,,,,,,,,,,,,,,,,,,,,,,,,,,,,,,,,,,,,,,,,,,,,,,,,,,,,,,,,,,,,,,,,,,,,
1769164052.281315,1769164052.281651,85.0,0.0,4099.230957,4289.487305,4326.666504,4366.153809,4280.769043,4275.384766,4294.358887,4310.0,4279.102539,4263.974121,4597.436035,4577.563965,4428.589844,4508.333496,,,,,,,,,,,,,,,,,,,,,,,,,,,,,,,,,,,,,,,,,,,,,,,,,,,,,,,,,,,,,,,,,,,,,,
1769164052.289123,1769164052.28936,86.0,0.0,4097.692383,4291.922852,4323.717773,4364.487305,4281.025879,4282.05127,4297.820313,4307.94873,4279.102539,4265.512695,4603.974121,4574.871582,4434.102539,4510.897461,,,,,,,,,,,,,,,,,,,,,,,,,,,,,,,,,,,,,,,,,,,,,,,,,,,,,,,,,,,,,,,,,,,,,,
1769164052.296932,1769164052.297168,87.0,0.0,4101.538574,4292.820313,4320.256348,4365.256348,4280.512695,4281.153809,4303.974121,4306.794922,4276.666504,4264.102539,4614.358887,4576.922852,4439.871582,4510.256348,,,,,,,,,,,,,,,,,,,,,,,,,,,,,,,,,,,,,,,,,,,,,,,,,,,,,,,,,,,,,,,,,,,,,,
1769164052.30474,1769164052.305177,88.0,0.0,4098.077148,4285.0,4318.974121,4363.974121,4279.743652,4278.333496,4304.487305,4312.179688,4279.487305,4270.641113,4607.692383,4581.794922,4431.794922,4505.256348,,,,,,,,,,,,,,,,,,,,,,,,,,,,,,,,,,,,,,,,,,,,,,,,,,,,,,,,,,,,,,,,,,,,,,
1769164052.312549,1769164052.312985,89.0,0.0,4091.153809,4278.333496,4320.384766,4361.153809,4280.0,4281.538574,4300.384766,4311.282227,4278.974121,4279.230957,4600.256348,4582.820313,4424.615234,4506.410156,,,,,,,,,,,,,,,,,,,,,,,,,,,,,,,,,,,,,,,,,,,,,,,,,,,,,,,,,,,,,,,,,,,,,,
1769164052.320357,1769164052.320893,90.0,0.0,4090.641113,4279.871582,4316.666504,4359.743652,4279.871582,4282.307617,4300.384766,4312.05127,4282.94873,4277.179688,4603.717773,4581.922852,4429.102539,4507.692383,,,,,,,,,,,,,,,,,,,,,,,,,,,,,,,,,,,,,,,,,,,,,,,,,,,,,,,,,,,,,,,,,,,,,,
1769164052.328165,1769164052.328702,91.0,0.0,4090.384521,4282.436035,4309.871582,4360.0,4279.358887,4279.871582,4306.410156,4317.05127,4289.230957,4276.153809,4605.0,4579.102539,4432.692383,4503.205078,,,,,,,,,,,,,,,,,,,,,,,,,,,,,,,,,,,,,,,,,,,,,,,,,,,,,,,,,,,,,,,,,,,,,,
1769164052.335974,1769164052.33671,92.0,0.0,4089.487061,4284.871582,4311.410156,4362.94873,4278.205078,4278.974121,4307.436035,4316.410156,4284.615234,4282.307617,4601.794922,4574.487305,4430.641113,4504.230957,,,,,,,,,,,,,,,,,,,,,,,,,,,,,,,,,,,,,,,,,,,,,,,,,,,,,,,,,,,,,,,,,,,,,,
1769164052.343782,1769164052.344518,93.0,0.0,4093.205078,4286.922852,4314.487305,4366.410156,4277.05127,4278.717773,4301.666504,4309.615234,4278.846191,4279.487305,4603.974121,4572.436035,4432.436035,4510.0,,,,,,,,,,,,,,,,,,,,,,,,,,,,,,,,,,,,,,,,,,,,,,,,,,,,,,,,,,,,,,,,,,,,,,
1769164052.351591,1769164052.352227,94.0,0.0,4095.256348,4282.307617,4311.538574,4366.025879,4277.820313,4279.743652,4298.461426,4298.461426,4275.897461,4269.358887,4599.358887,4566.153809,4428.077148,4504.615234,0.279416,0.669463,0.497804,0.441283,0.409843,0.414688,0.64234,0.567721,0.304109,0.166011,0.343162,0.300426,0.112373,0.249359,0.192304,0.439677,0.3817,0.229446,0.166981,0.134904,0.165792,0.291293,0.240921,0.084164,0.085763,0.141899,0.41525,0.127294,0.164647,0.121671,0.084296,0.378514,0.342989,0.155327,0.124629,0.25656,0.21168,0.340674,0.162794,0.111385,0.340445,0.255318,0.431916,0.090104,0.079311,0.835611,0.595359,0.777035,0.1867,0.133221,0.6395,0.49145,0.482333,0.451242,0.197551,0.535117,0.371943,0.452128,0.409274,0.232725,0.598069,0.446901,0.557994,0.535733,0.323141,0.894154,0.510959,0.371392,1.03776,0.382962
1769164052.359399,1769164052.360035,95.0,0.0,4086.923096,4276.666504,4310.512695,4365.0,4279.871582,4280.256348,4299.230957,4297.179688,4275.128418,4263.974121,4586.153809,4560.128418,4415.128418,4492.820313,,,,,,,,,,,,,,,,,,,,,,,,,,,,,,,,,,,,,,,,,,,,,,,,,,,,,,,,,,,,,,,,,,,,,,
1769164052.367208,1769164052.368044,96.0,0.0,4075.641113,4278.077148,4309.615234,4363.717773,4279.743652,4280.128418,4304.230957,4303.333496,4278.205078,4263.077148,4583.589844,4560.384766,4409.871582,4490.128418,,,,,,,,,,,,,,,,,,,,,,,,,,,,,,,,,,,,,,,,,,,,,,,,,,,,,,,,,,,,,,,,,,,,,,
1769164052.375016,1769164052.375852,97.0,0.0,4072.692383,4278.077148,4303.461426,4359.230957,4277.692383,4280.769043,4305.512695,4302.05127,4279.743652,4270.256348,4589.615234,4557.307617,4413.333496,4492.563965,,,,,,,,,,,,,,,,,,,,,,,,,,,,,,,,,,,,,,,,,,,,,,,,,,,,,,,,,,,,,,,,,,,,,,
1769164052.382825,1769164052.383561,98.0,0.0,4078.076904,4277.05127,4303.205078,4357.307617,4275.641113,4279.871582,4300.512695,4295.0,4277.94873,4274.358887,4593.333496,4554.102539,4417.05127,4491.794922,,,,,,,,,,,,,,,,,,,,,,,,,,,,,,,,,,,,,,,,,,,,,,,,,,,,,,,,,,,,,,,,,,,,,,
1769164052.390633,1769164052.391369,99.0,0.0,4082.307617,4279.743652,4309.230957,4360.384766,4276.282227,4278.077148,4299.487305,4295.512695,4278.974121,4266.538574,4591.794922,4558.461426,4416.025879,4490.769043,,,,,,,,,,,,,,,,,,,,,,,,,,,,,,,,,,,,,,,,,,,,,,,,,,,,,,,,,,,,,,,,,,,,,,
1769164052.398441,1769164052.398978,100.0,0.0,4076.666748,4279.871582,4304.487305,4359.487305,4275.897461,4280.0,4301.282227,4304.615234,4282.05127,4267.307617,4591.922852,4558.717773,4416.666504,4490.0,,,,,,,,,,,,,,,,,,,,,,,,,,,,,,,,,,,,,,,,,,,,,,,,,,,,,,,,,,,,,,,,,,,,,,
1769164052.40625,1769164052.406786,101.0,0.0,4070.256348,4276.153809,4294.743652,4354.871582,4270.512695,4279.102539,4298.974121,4306.282227,4281.282227,4281.153809,4596.153809,4556.282227,4422.692383,4488.974121,,,,,,,,,,,,,,,,,,,,,,,,,,,,,,,,,,,,,,,,,,,,,,,,,,,,,,,,,,,,,,,,,,,,,,
1769164052.414058,1769164052.414695,102.0,0.0,4079.230713,4277.692383,4298.461426,4354.230957,4266.025879,4270.641113,4294.615234,4298.974121,4280.897461,4285.897461,4601.538574,4561.153809,4427.436035,4492.563965,,,,,,,,,,,,,,,,,,,,,,,,,,,,,,,,,,,,,,,,,,,,,,,,,,,,,,,,,,,,,,,,,,,,,,
1769164052.421867,1769164052.422503,103.0,0.0,4094.358887,4283.333496,4306.025879,4359.230957,4266.282227,4262.436035,4293.589844,4292.563965,4280.641113,4276.794922,4601.794922,4561.666504,4428.077148,4496.153809,,,,,,,,,,,,,,,,,,,,,,,,,,,,,,,,,,,,,,,,,,,,,,,,,,,,,,,,,,,,,,,,,,,,,,
1769164052.429675,1769164052.430511,104.0,0.0,4088.718018,4276.538574,4300.641113,4354.743652,4265.0,4266.666504,4297.179688,4293.589844,4276.153809,4268.333496,4596.794922,4554.871582,4427.692383,4493.205078,,,,,,,,,,,,,,,,,,,,,,,,,,,,,,,,,,,,,,,,,,,,,,,,,,,,,,,,,,,,,,,,,,,,,,
1769164052.437484,1769164052.43832,105.0,0.0,4064.102539,4261.282227,4286.538574,4340.897461,4262.94873,4272.692383,4300.897461,4295.128418,4274.487305,4266.666504,4593.077148,4552.179688,4426.794922,4489.230957,,,,,,,,,,,,,,,,,,,,,,,,,,,,,,,,,,,,,,,,,,,,,,,,,,,,,,,,,,,,,,,,,,,,,,
1769164052.445292,1769164052.446028,106.0,0.0,4055.512939,4259.487305,4281.794922,4341.538574,4265.384766,4270.512695,4298.461426,4295.897461,4277.94873,4276.794922,4594.487305,4555.897461,4428.205078,4491.538574,,,,,,,,,,,,,,,,,,,,,,,,,,,,,,,,,,,,,,,,,,,,,,,,,,,,,,,,,,,,,,,,,,,,,,
1769164052.453101,1769164052.453837,107.0,0.0,4067.307617,4268.205078,4289.615234,4351.922852,4267.05127,4270.641113,4296.153809,4297.820313,4280.256348,4281.153809,4596.538574,4557.179688,4426.282227,4493.589844,,,,,,,,,,,,,,,,,,,,,,,,,,,,,,,,,,,,,,,,,,,,,,,,,,,,,,,,,,,,,,,,,,,,,,
1769164052.460909,1769164052.461445,108.0,0.0,4066.666748,4267.05127,4295.512695,4349.871582,4266.025879,4277.436035,4301.153809,4294.871582,4277.692383,4270.0,4591.922852,4552.307617,4416.794922,4490.0,,,,,,,,,,,,,,,,,,,,,,,,,,,,,,,,,,,,,,,,,,,,,,,,,,,,,,,,,,,,,,,,,,,,,,
1769164052.468717,1769164052.469254,109.0,0.0,4062.05127,4261.538574,4293.461426,4345.769043,4265.641113,4278.205078,4300.256348,4292.179688,4275.256348,4263.589844,4584.230957,4547.692383,4409.871582,4487.563965,,,,,,,,,,,,,,,,,,,,,,,,,,,,,,,,,,,,,,,,,,,,,,,,,,,,,,,,,,,,,,,,,,,,,,
1769164052.476526,1769164052.476962,110.0,0.0,4071.410156,4266.538574,4294.358887,4349.615234,4265.897461,4272.692383,4293.846191,4293.461426,4274.358887,4266.153809,4583.461426,4551.153809,4411.538574,4490.256348,0.261434,0.512178,0.413353,0.444803,0.383718,0.457648,0.500141,0.541113,0.312253,0.174591,0.434068,0.293585,0.096491,0.243236,0.176716,0.538983,0.354335,0.231536,0.16409,0.133481,0.17021,0.297547,0.22925,0.098345,0.091654,0.136464,0.460266,0.138809,0.164952,0.130114,0.097927,0.395428,0.344832,0.159139,0.129891,0.283186,0.228014,0.343734,0.14301,0.099016,0.35101,0.264481,0.488026,0.101215,0.080487,0.818059,0.537197,0.738507,0.189956,0.136455,0.68113,0.399394,0.442613,0.510816,0.210183,0.602785,0.350434,0.388074,0.476738,0.243599,0.660497,0.358492,0.521321,0.613003,0.285284,0.959267,0.521106,0.384528,1.148281,0.348657
1769164052.484334,1769164052.484771,111.0,0.0,4073.846191,4274.871582,4297.692383,4352.436035,4272.05127,4271.153809,4295.0,4294.871582,4276.666504,4272.692383,4593.461426,4564.743652,4419.871582,4493.846191,,,,,,,,,,,,,,,,,,,,,,,,,,,,,,,,,,,,,,,,,,,,,,,,,,,,,,,,,,,,,,,,,,,,,,
1769164052.492143,1769164052.492779,112.0,0.0,4061.666748,4275.384766,4294.871582,4355.256348,4278.974121,4270.897461,4297.307617,4294.615234,4281.538574,4280.512695,4600.512695,4571.025879,4424.487305,4490.128418,,,,,,,,,,,,,,,,,,,,,,,,,,,,,,,,,,,,,,,,,,,,,,,,,,,,,,,,,,,,,,,,,,,,,,
1769164052.499951,1769164052.500588,113.0,0.0,4061.794922,4273.846191,4293.461426,4359.615234,4277.820313,4268.717773,4293.717773,4293.205078,4280.897461,4281.666504,4591.666504,4561.025879,4418.461426,4477.692383,,,,,,,,,,,,,,,,,,,,,,,,,,,,,,,,,,,,,,,,,,,,,,,,,,,,,,,,,,,,,,,,,,,,,,
1769164052.50776,1769164052.508496,114.0,0.0,4076.281982,4278.846191,4297.692383,4360.512695,4275.384766,4270.769043,4295.0,4293.205078,4276.282227,4274.615234,4579.871582,4551.025879,4407.307617,4467.05127,,,,,,,,,,,,,,,,,,,,,,,,,,,,,,,,,,,,,,,,,,,,,,,,,,,,,,,,,,,,,,,,,,,,,,
1769164052.515568,1769164052.516304,115.0,0.0,4082.05127,4279.615234,4297.94873,4358.974121,4277.05127,4273.205078,4300.897461,4294.487305,4274.615234,4268.205078,4578.717773,4551.666504,4404.743652,4468.461426,,,,,,,,,,,,,,,,,,,,,,,,,,,,,,,,,,,,,,,,,,,,,,,,,,,,,,,,,,,,,,,,,,,,,,
1769164052.523377,1769164052.524313,116.0,0.0,4072.564209,4269.871582,4292.307617,4359.230957,4275.256348,4272.820313,4301.538574,4294.102539,4276.282227,4266.282227,4580.769043,4552.563965,4407.94873,4473.589844,,,,,,,,,,,,,,,,,,,,,,,,,,,,,,,,,,,,,,,,,,,,,,,,,,,,,,,,,,,,,,,,,,,,,,
1769164052.531185,1769164052.532121,117.0,0.0,4058.205078,4263.589844,4289.743652,4357.563965,4275.0,4276.794922,4304.230957,4295.512695,4278.205078,4267.05127,4582.307617,4551.282227,4410.256348,4476.282227,,,,,,,,,,,,,,,,,,,,,,,,,,,,,,,,,,,,,,,,,,,,,,,,,,,,,,,,,,,,,,,,,,,,,,
1769164052.538993,1769164052.540029,118.0,0.0,4053.846191,4263.589844,4292.436035,4354.102539,4276.538574,4282.307617,4306.153809,4302.692383,4278.589844,4270.128418,4586.794922,4554.230957,4411.922852,4478.589844,,,,,,,,,,,,,,,,,,,,,,,,,,,,,,,,,,,,,,,,,,,,,,,,,,,,,,,,,,,,,,,,,,,,,,
1769164052.546802,1769164052.547838,119.0,0.0,4058.461426,4262.563965,4295.256348,4353.717773,4268.717773,4275.641113,4301.666504,4305.897461,4281.025879,4275.128418,4589.487305,4557.692383,4413.974121,4480.769043,,,,,,,,,,,,,,,,,,,,,,,,,,,,,,,,,,,,,,,,,,,,,,,,,,,,,,,,,,,,,,,,,,,,,,
1769164052.554611,1769164052.555846,120.0,0.0,4066.794922,4262.820313,4296.410156,4356.282227,4262.692383,4262.307617,4298.974121,4299.230957,4281.666504,4276.025879,4586.922852,4556.282227,4413.333496,4484.230957,,,,,,,,,,,,,,,,,,,,,,,,,,,,,,,,,,,,,,,,,,,,,,,,,,,,,,,,,,,,,,,,,,,,,,
1769164052.562419,1769164052.563654,121.0,0.0,4076.410156,4266.410156,4296.153809,4358.589844,4267.179688,4263.077148,4298.333496,4294.358887,4275.512695,4263.333496,4586.025879,4551.153809,4406.538574,4485.0,,,,,,,,,,,,,,,,,,,,,,,,,,,,,,,,,,,,,,,,,,,,,,,,,,,,,,,,,,,,,,,,,,,,,,
1769164052.570228,1769164052.571363,122.0,0.0,4075.641113,4266.282227,4294.230957,4357.692383,4270.256348,4270.897461,4296.410156,4296.794922,4273.333496,4257.692383,4589.358887,4554.102539,4407.05127,4486.794922,,,,,,,,,,,,,,,,,,,,,,,,,,,,,,,,,,,,,,,,,,,,,,,,,,,,,,,,,,,,,,,,,,,,,,
1769164052.578036,1769164052.579171,123.0,0.0,4065.128174,4262.692383,4290.384766,4353.589844,4267.94873,4268.461426,4297.436035,4298.846191,4278.846191,4271.538574,4590.384766,4563.205078,4415.0,4490.897461,,,,,,,,,,,,,,,,,,,,,,,,,,,,,,,,,,,,,,,,,,,,,,,,,,,,,,,,,,,,,,,,,,,,,,
1769164052.585844,1769164052.58678,124.0,0.0,4060.769287,4260.256348,4288.589844,4348.077148,4267.820313,4267.563965,4300.0,4293.589844,4278.974121,4280.128418,4590.512695,4560.384766,4414.230957,4491.922852,,,,,,,,,,,,,,,,,,,,,,,,,,,,,,,,,,,,,,,,,,,,,,,,,,,,,,,,,,,,,,,,,,,,,,
1769164052.593653,1769164052.594589,125.0,0.0,4058.846191,4260.641113,4291.153809,4347.94873,4269.871582,4276.538574,4301.538574,4296.538574,4275.641113,4272.436035,4592.563965,4552.692383,4409.487305,4490.0,,,,,,,,,,,,,,,,,,,,,,,,,,,,,,,,,,,,,,,,,,,,,,,,,,,,,,,,,,,,,,,,,,,,,,
1769164052.601461,1769164052.602297,126.0,0.0,4058.205078,4262.179688,4293.589844,4355.897461,4276.153809,4280.641113,4301.922852,4308.717773,4278.717773,4270.769043,4589.230957,4554.358887,4410.641113,4490.128418,0.288807,0.417824,0.344554,0.426871,0.339711,0.501421,0.375821,0.507004,0.309327,0.176491,0.558264,0.308453,0.08907,0.228881,0.156012,0.637416,0.329366,0.238286,0.1661,0.126223,0.163808,0.282018,0.198704,0.106506,0.089561,0.12476,0.476109,0.14351,0.166558,0.141814,0.106227,0.371876,0.307931,0.161409,0.137149,0.275558,0.234031,0.345412,0.128783,0.091329,0.340543,0.272594,0.544297,0.119716,0.087915,0.715308,0.501186,0.652551,0.196296,0.145126,0.653091,0.399779,0.402981,0.544295,0.215773,0.624562,0.401864,0.327081,0.526934,0.250147,0.691967,0.296683,0.463865,0.641583,0.24032,0.944908,0.553534,0.393204,1.148369,0.30184
1769164052.60927,1769164052.610106,127.0,0.0,4071.666748,4264.358887,4290.128418,4359.230957,4279.358887,4275.641113,4300.641113,4305.384766,4281.666504,4277.05127,4584.615234,4553.205078,4414.358887,4490.769043,,,,,,,,,,,,,,,,,,,,,,,,,,,,,,,,,,,,,,,,,,,,,,,,,,,,,,,,,,,,,,,,,,,,,,
1769164052.617078,1769164052.617714,0.0,0.0,4075.256348,4263.846191,4282.179688,4352.179688,4269.487305,4276.666504,4303.974121,4296.282227,4277.692383,4271.153809,4582.307617,4545.641113,4405.897461,4482.820313,,,,,,,,,,,,,,,,,,,,,,,,,,,,,,,,,,,,,,,,,,,,,,,,,,,,,,,,,,,,,,,,,,,,,,
1769164052.624887,1769164052.625523,1.0,0.0,4060.641113,4261.153809,4277.436035,4347.820313,4264.358887,4282.563965,4309.358887,4305.512695,4276.666504,4262.563965,4579.487305,4546.922852,4396.153809,4473.333496,,,,,,,,,,,,,,,,,,,,,,,,,,,,,,,,,,,,,,,,,,,,,,,,,,,,,,,,,,,,,,,,,,,,,,
1769164052.632695,1769164052.633431,2.0,0.0,4057.692383,4264.871582,4281.666504,4355.512695,4273.846191,4279.487305,4305.897461,4316.282227,4285.897461,4271.666504,4582.179688,4555.0,4405.512695,4476.538574,,,,,,,,,,,,,,,,,,,,,,,,,,,,,,,,,,,,,,,,,,,,,,,,,,,,,,,,,,,,,,,,,,,,,,
1769164052.640504,1769164052.641239,3.0,0.0,4066.410156,4268.205078,4289.102539,4361.153809,4278.589844,4276.282227,4301.153809,4311.410156,4290.128418,4282.692383,4588.846191,4556.153809,4418.461426,4484.743652,,,,,,,,,,,,,,,,,,,,,,,,,,,,,,,,,,,,,,,,,,,,,,,,,,,,,,,,,,,,,,,,,,,,,,
1769164052.648312,1769164052.648848,4.0,0.0,4070.384521,4262.692383,4289.102539,4356.666504,4273.974121,4276.666504,4300.384766,4305.897461,4282.436035,4279.871582,4589.358887,4552.820313,4415.256348,4483.333496,,,,,,,,,,,,,,,,,,,,,,,,,,,,,,,,,,,,,,,,,,,,,,,,,,,,,,,,,,,,,,,,,,,,,,
1769164052.65612,1769164052.656657,5.0,0.0,4073.333252,4261.025879,4282.563965,4353.461426,4274.743652,4275.256348,4299.230957,4302.436035,4276.922852,4274.871582,4586.025879,4551.538574,4410.0,4481.410156,,,,,,,,,,,,,,,,,,,,,,,,,,,,,,,,,,,,,,,,,,,,,,,,,,,,,,,,,,,,,,,,,,,,,,
1769164052.663929,1769164052.664365,6.0,0.0,4076.281982,4266.282227,4279.871582,4356.794922,4278.974121,4273.077148,4301.282227,4295.769043,4280.769043,4277.820313,4586.025879,4552.563965,4411.922852,4488.205078,,,,,,,,,,,,,,,,,,,,,,,,,,,,,,,,,,,,,,,,,,,,,,,,,,,,,,,,,,,,,,,,,,,,,,
1769164052.671737,1769164052.672174,7.0,0.0,4075.384521,4266.410156,4287.179688,4358.974121,4278.461426,4275.0,4304.230957,4294.615234,4281.922852,4280.128418,4589.102539,4553.333496,4413.717773,4491.410156,,,,,,,,,,,,,,,,,,,,,,,,,,,,,,,,,,,,,,,,,,,,,,,,,,,,,,,,,,,,,,,,,,,,,,
1769164052.679546,1769164052.679782,8.0,0.0,4075.0,4261.410156,4295.384766,4357.05127,4274.487305,4275.256348,4302.820313,4295.128418,4277.05127,4274.230957,4590.256348,4553.717773,4414.615234,4490.128418,,,,,,,,,,,,,,,,,,,,,,,,,,,,,,,,,,,,,,,,,,,,,,,,,,,,,,,,,,,,,,,,,,,,,,
1769164052.687354,1769164052.687591,9.0,0.0,4076.538574,4261.666504,4296.538574,4358.846191,4271.410156,4273.589844,4303.333496,4296.538574,4280.0,4270.897461,4588.205078,4555.512695,4415.512695,4492.436035,,,,,,,,,,,,,,,,,,,,,,,,,,,,,,,,,,,,,,,,,,,,,,,,,,,,,,,,,,,,,,,,,,,,,,
1769164052.695163,1769164052.695499,10.0,0.0,4085.769287,4266.538574,4297.307617,4361.410156,4272.179688,4277.692383,4306.794922,4301.282227,4287.563965,4280.0,4586.538574,4556.025879,4413.333496,4492.94873,,,,,,,,,,,,,,,,,,,,,,,,,,,,,,,,,,,,,,,,,,,,,,,,,,,,,,,,,,,,,,,,,,,,,,
1769164052.702971,1769164052.703307,11.0,0.0,4092.820557,4267.307617,4294.230957,4355.128418,4273.205078,4281.282227,4309.615234,4307.94873,4292.307617,4278.077148,4587.94873,4553.333496,4411.666504,4487.307617,,,,,,,,,,,,,,,,,,,,,,,,,,,,,,,,,,,,,,,,,,,,,,,,,,,,,,,,,,,,,,,,,,,,,,
1769164052.71078,1769164052.711316,12.0,0.0,4085.128174,4262.820313,4287.179688,4347.94873,4273.717773,4279.743652,4312.436035,4307.563965,4293.589844,4262.820313,4588.461426,4552.820313,4416.666504,4490.384766,,,,,,,,,,,,,,,,,,,,,,,,,,,,,,,,,,,,,,,,,,,,,,,,,,,,,,,,,,,,,,,,,,,,,,
1769164052.718588,1769164052.719124,13.0,0.0,4079.102539,4262.436035,4286.282227,4349.871582,4275.512695,4278.077148,4309.230957,4298.333496,4287.179688,4266.410156,4587.692383,4555.0,4419.615234,4498.077148,,,,,,,,,,,,,,,,,,,,,,,,,,,,,,,,,,,,,,,,,,,,,,,,,,,,,,,,,,,,,,,,,,,,,,
1769164052.726396,1769164052.727032,14.0,0.0,4081.025635,4264.871582,4288.077148,4353.717773,4274.102539,4279.102539,4303.333496,4292.563965,4278.461426,4281.282227,4589.487305,4558.717773,4416.153809,4498.846191,0.257789,0.391461,0.3133,0.391441,0.289775,0.525987,0.283497,0.477205,0.294439,0.172166,0.658894,0.336492,0.091656,0.205627,0.134695,0.711029,0.309336,0.247614,0.168748,0.114268,0.156706,0.24725,0.1578,0.10701,0.079507,0.117541,0.452284,0.144709,0.164211,0.148241,0.111196,0.31654,0.252266,0.161611,0.144012,0.236425,0.242659,0.366994,0.121088,0.091711,0.315612,0.297765,0.607917,0.141301,0.097835,0.553598,0.499531,0.555196,0.205078,0.156524,0.564277,0.476738,0.378471,0.540782,0.210561,0.58751,0.510422,0.289669,0.543676,0.247635,0.661146,0.27993,0.401577,0.611706,0.19648,0.801966,0.602681,0.399891,1.03898,0.250032
1769164052.734205,1769164052.734841,15.0,0.0,4082.307617,4262.307617,4286.666504,4353.589844,4274.615234,4278.846191,4303.717773,4294.615234,4279.358887,4280.384766,4595.128418,4562.436035,4420.769043,4497.820313,,,,,,,,,,,,,,,,,,,,,,,,,,,,,,,,,,,,,,,,,,,,,,,,,,,,,,,,,,,,,,,,,,,,,,
1769164052.742013,1769164052.742849,16.0,0.0,4080.897461,4262.563965,4286.538574,4352.436035,4279.615234,4277.436035,4306.794922,4297.820313,4287.94873,4276.538574,4595.512695,4561.922852,4426.538574,4499.743652,,,,,,,,,,,,,,,,,,,,,,,,,,,,,,,,,,,,,,,,,,,,,,,,,,,,,,,,,,,,,,,,,,,,,,
1769164052.749822,1769164052.750658,17.0,0.0,4077.179443,4266.153809,4283.974121,4352.94873,4280.897461,4277.563965,4306.666504,4300.128418,4291.282227,4279.615234,4588.205078,4556.153809,4418.461426,4491.794922,,,,,,,,,,,,,,,,,,,,,,,,,,,,,,,,,,,,,,,,,,,,,,,,,,,,,,,,,,,,,,,,,,,,,,
1769164052.75763,1769164052.758366,18.0,0.0,4072.692383,4262.436035,4276.282227,4355.384766,4278.974121,4278.589844,4308.333496,4306.410156,4290.0,4277.05127,4581.538574,4548.974121,4408.461426,4479.358887,,,,,,,,,,,,,,,,,,,,,,,,,,,,,,,,,,,,,,,,,,,,,,,,,,,,,,,,,,,,,,,,,,,,,,
1769164052.765439,1769164052.766175,19.0,0.0,4073.846191,4259.358887,4276.153809,4355.512695,4277.436035,4279.743652,4313.461426,4312.436035,4292.307617,4274.871582,4578.333496,4546.538574,4406.794922,4481.538574,,,,,,,,,,,,,,,,,,,,,,,,,,,,,,,,,,,,,,,,,,,,,,,,,,,,,,,,,,,,,,,,,,,,,,
1769164052.773247,1769164052.773983,20.0,0.0,4080.512939,4265.0,4287.563965,4356.282227,4276.794922,4278.846191,4313.205078,4312.307617,4296.794922,4279.615234,4584.358887,4551.794922,4416.922852,4492.307617,,,,,,,,,,,,,,,,,,,,,,,,,,,,,,,,,,,,,,,,,,,,,,,,,,,,,,,,,,,,,,,,,,,,,,
1769164052.781056,1769164052.781791,21.0,0.0,4082.94873,4267.307617,4292.179688,4357.436035,4276.025879,4277.94873,4312.179688,4309.743652,4297.179688,4281.538574,4597.436035,4557.94873,4428.846191,4495.0,,,,,,,,,,,,,,,,,,,,,,,,,,,,,,,,,,,,,,,,,,,,,,,,,,,,,,,,,,,,,,,,,,,,,,
1769164052.788864,1769164052.7895,22.0,0.0,4077.692383,4262.820313,4284.615234,4353.077148,4274.615234,4278.589844,4313.717773,4309.487305,4294.487305,4279.358887,4597.307617,4557.94873,4425.769043,4491.922852,,,,,,,,,,,,,,,,,,,,,,,,,,,,,,,,,,,,,,,,,,,,,,,,,,,,,,,,,,,,,,,,,,,,,,
1769164052.796672,1769164052.797308,23.0,0.0,4070.769287,4260.0,4280.769043,4349.743652,4274.871582,4277.820313,4310.641113,4305.769043,4294.358887,4277.563965,4587.692383,4554.743652,4420.512695,4491.410156,,,,,,,,,,,,,,,,,,,,,,,,,,,,,,,,,,,,,,,,,,,,,,,,,,,,,,,,,,,,,,,,,,,,,,
1769164052.804481,1769164052.804917,24.0,0.0,4075.256348,4263.333496,4288.846191,4352.820313,4277.307617,4274.230957,4305.384766,4301.153809,4293.846191,4280.897461,4585.769043,4554.615234,4426.922852,4493.333496,,,,,,,,,,,,,,,,,,,,,,,,,,,,,,,,,,,,,,,,,,,,,,,,,,,,,,,,,,,,,,,,,,,,,,
1769164052.812289,1769164052.812726,25.0,0.0,4090.0,4273.333496,4294.871582,4358.589844,4280.256348,4273.077148,4305.897461,4304.230957,4293.717773,4281.410156,4588.589844,4555.512695,4429.487305,4492.692383,,,,,,,,,,,,,,,,,,,,,,,,,,,,,,,,,,,,,,,,,,,,,,,,,,,,,,,,,,,,,,,,,,,,,,
1769164052.820098,1769164052.820634,26.0,0.0,4100.769043,4278.077148,4295.384766,4363.974121,4278.461426,4280.256348,4310.512695,4304.230957,4292.05127,4277.05127,4591.025879,4556.538574,4425.897461,4492.307617,,,,,,,,,,,,,,,,,,,,,,,,,,,,,,,,,,,,,,,,,,,,,,,,,,,,,,,,,,,,,,,,,,,,,,
1769164052.827906,1769164052.828442,27.0,0.0,4095.769287,4268.846191,4295.769043,4362.307617,4270.128418,4282.563965,4311.666504,4297.692383,4283.205078,4275.641113,4590.769043,4556.794922,4424.230957,4490.769043,,,,,,,,,,,,,,,,,,,,,,,,,,,,,,,,,,,,,,,,,,,,,,,,,,,,,,,,,,,,,,,,,,,,,,
1769164052.835715,1769164052.836451,28.0,0.0,4085.128174,4261.153809,4295.128418,4352.692383,4263.461426,4270.769043,4308.974121,4294.487305,4276.282227,4275.256348,4586.410156,4553.974121,4419.871582,4490.128418,,,,,,,,,,,,,,,,,,,,,,,,,,,,,,,,,,,,,,,,,,,,,,,,,,,,,,,,,,,,,,,,,,,,,,
1769164052.843523,1769164052.844259,29.0,0.0,4087.94873,4265.128418,4293.205078,4350.128418,4268.846191,4269.102539,4308.333496,4295.512695,4279.615234,4272.563965,4585.0,4552.563965,4417.179688,4490.512695,,,,,,,,,,,,,,,,,,,,,,,,,,,,,,,,,,,,,,,,,,,,,,,,,,,,,,,,,,,,,,,,,,,,,,
1769164052.851332,1769164052.851968,30.0,0.0,4092.692383,4267.307617,4295.769043,4355.0,4277.436035,4277.05127,4310.384766,4304.743652,4289.230957,4273.077148,4590.769043,4560.384766,4418.333496,4491.922852,0.285291,0.410611,0.328637,0.359517,0.246226,0.544257,0.231877,0.459228,0.270464,0.163216,0.723226,0.364975,0.100275,0.178216,0.116823,0.738028,0.294163,0.254353,0.167126,0.100339,0.165735,0.205009,0.118178,0.100714,0.065082,0.121591,0.391103,0.152468,0.155312,0.145265,0.113358,0.248302,0.202715,0.158488,0.146622,0.178848,0.264276,0.421944,0.118913,0.100439,0.2783,0.345406,0.679479,0.161986,0.105841,0.384191,0.53434,0.48708,0.22107,0.16914,0.463709,0.591482,0.380582,0.503845,0.195925,0.516762,0.638815,0.288608,0.522487,0.233471,0.580793,0.314243,0.357107,0.538956,0.161438,0.642657,0.656343,0.404836,0.855499,0.200316
1769164052.85914,1769164052.859776,31.0,0.0,4090.128174,4264.615234,4304.102539,4354.487305,4274.230957,4273.205078,4310.256348,4314.358887,4299.358887,4278.589844,4597.436035,4571.794922,4422.692383,4500.512695,,,,,,,,,,,,,,,,,,,,,,,,,,,,,,,,,,,,,,,,,,,,,,,,,,,,,,,,,,,,,,,,,,,,,,
1769164052.866948,1769164052.867385,32.0,0.0,4091.153809,4264.102539,4307.307617,4353.333496,4267.94873,4265.256348,4308.846191,4306.282227,4295.512695,4280.769043,4597.94873,4573.974121,4429.102539,4507.05127,,,,,,,,,,,,,,,,,,,,,,,,,,,,,,,,,,,,,,,,,,,,,,,,,,,,,,,,,,,,,,,,,,,,,,
1769164052.874757,1769164052.875193,33.0,0.0,4090.641113,4262.820313,4299.102539,4350.641113,4267.179688,4274.615234,4310.0,4298.589844,4280.769043,4278.461426,4592.436035,4564.102539,4423.077148,4497.563965,,,,,,,,,,,,,,,,,,,,,,,,,,,,,,,,,,,,,,,,,,,,,,,,,,,,,,,,,,,,,,,,,,,,,,
1769164052.882566,1769164052.882902,34.0,0.0,4084.230713,4263.205078,4291.922852,4344.358887,4266.922852,4281.794922,4309.615234,4305.0,4278.077148,4276.922852,4587.05127,4554.358887,4412.307617,4485.384766,,,,,,,,,,,,,,,,,,,,,,,,,,,,,,,,,,,,,,,,,,,,,,,,,,,,,,,,,,,,,,,,,,,,,,
1769164052.890374,1769164052.89071,35.0,0.0,4081.153809,4265.769043,4293.461426,4342.05127,4264.230957,4271.538574,4307.05127,4307.179688,4282.692383,4279.102539,4587.05127,4551.922852,4414.615234,4488.717773,,,,,,,,,,,,,,,,,,,,,,,,,,,,,,,,,,,,,,,,,,,,,,,,,,,,,,,,,,,,,,,,,,,,,,
1769164052.898183,1769164052.898718,36.0,0.0,4077.564209,4262.820313,4292.820313,4342.820313,4263.333496,4264.102539,4309.230957,4303.846191,4278.846191,4276.666504,4587.436035,4553.461426,4416.153809,4491.282227,,,,,,,,,,,,,,,,,,,,,,,,,,,,,,,,,,,,,,,,,,,,,,,,,,,,,,,,,,,,,,,,,,,,,,
1769164052.905991,1769164052.906527,37.0,0.0,4074.487061,4259.230957,4290.128418,4341.153809,4265.512695,4267.179688,4312.179688,4302.179688,4271.538574,4266.922852,4580.641113,4553.205078,4409.615234,4481.153809,,,,,,,,,,,,,,,,,,,,,,,,,,,,,,,,,,,,,,,,,,,,,,,,,,,,,,,,,,,,,,,,,,,,,,
1769164052.913799,1769164052.914435,38.0,0.0,4073.333252,4260.256348,4291.410156,4339.743652,4265.512695,4268.077148,4308.974121,4298.205078,4268.461426,4264.871582,4573.205078,4548.717773,4408.333496,4472.94873,,,,,,,,,,,,,,,,,,,,,,,,,,,,,,,,,,,,,,,,,,,,,,,,,,,,,,,,,,,,,,,,,,,,,,
1769164052.921608,1769164052.922244,39.0,0.0,4068.974365,4263.205078,4292.692383,4342.05127,4265.769043,4264.615234,4306.410156,4293.333496,4265.512695,4265.897461,4575.128418,4546.153809,4412.179688,4473.974121,,,,,,,,,,,,,,,,,,,,,,,,,,,,,,,,,,,,,,,,,,,,,,,,,,,,,,,,,,,,,,,,,,,,,,
1769164052.929416,1769164052.930252,40.0,0.0,4068.589844,4260.256348,4292.94873,4341.666504,4265.641113,4269.102539,4310.128418,4294.743652,4265.769043,4260.769043,4580.0,4547.820313,4411.282227,4475.641113,,,,,,,,,,,,,,,,,,,,,,,,,,,,,,,,,,,,,,,,,,,,,,,,,,,,,,,,,,,,,,,,,,,,,,
1769164052.937225,1769164052.93806,41.0,0.0,4075.769287,4252.436035,4296.666504,4338.589844,4262.94873,4274.487305,4312.692383,4300.256348,4272.05127,4265.384766,4585.769043,4556.410156,4411.922852,4475.384766,,,,,,,,,,,,,,,,,,,,,,,,,,,,,,,,,,,,,,,,,,,,,,,,,,,,,,,,,,,,,,,,,,,,,,
1769164052.945033,1769164052.945969,42.0,0.0,4075.897461,4252.05127,4302.563965,4344.487305,4261.922852,4268.717773,4309.871582,4306.794922,4279.487305,4272.307617,4591.282227,4562.563965,4416.282227,4477.94873,,,,,,,,,,,,,,,,,,,,,,,,,,,,,,,,,,,,,,,,,,,,,,,,,,,,,,,,,,,,,,,,,,,,,,
1769164052.952842,1769164052.953777,43.0,0.0,4073.076904,4259.102539,4304.615234,4348.974121,4263.205078,4262.179688,4307.563965,4306.153809,4282.05127,4266.153809,4582.94873,4557.563965,4408.717773,4472.05127,,,,,,,,,,,,,,,,,,,,,,,,,,,,,,,,,,,,,,,,,,,,,,,,,,,,,,,,,,,,,,,,,,,,,,
1769164052.96065,1769164052.961386,44.0,0.0,4084.358887,4263.205078,4305.128418,4346.025879,4263.717773,4265.256348,4308.461426,4301.922852,4278.589844,4262.05127,4572.179688,4553.717773,4396.794922,4465.0,,,,,,,,,,,,,,,,,,,,,,,,,,,,,,,,,,,,,,,,,,,,,,,,,,,,,,,,,,,,,,,,,,,,,,
1769164052.968459,1769164052.969194,45.0,0.0,4095.512939,4262.94873,4306.025879,4344.487305,4262.563965,4275.256348,4310.256348,4303.974121,4273.846191,4261.025879,4580.384766,4556.794922,4396.025879,4467.820313,,,,,,,,,,,,,,,,,,,,,,,,,,,,,,,,,,,,,,,,,,,,,,,,,,,,,,,,,,,,,,,,,,,,,,
1769164052.976267,1769164052.976903,46.0,0.0,4091.410156,4262.05127,4306.538574,4347.436035,4263.333496,4274.743652,4310.128418,4302.563965,4271.794922,4256.410156,4589.487305,4556.410156,4396.794922,4466.025879,0.28107,0.442039,0.375266,0.357731,0.217401,0.543187,0.220951,0.45324,0.241743,0.151975,0.712366,0.382458,0.108294,0.156337,0.105016,0.721734,0.280643,0.253818,0.158998,0.088219,0.205491,0.170331,0.089498,0.090721,0.051964,0.137676,0.310367,0.176951,0.141176,0.134153,0.115464,0.187404,0.178899,0.150967,0.141676,0.12366,0.301412,0.505252,0.121704,0.11492,0.236358,0.404788,0.744282,0.178547,0.109051,0.250418,0.593781,0.465932,0.250543,0.182993,0.400606,0.697572,0.403946,0.449805,0.176085,0.428383,0.743242,0.318676,0.472142,0.208199,0.509098,0.38466,0.339909,0.454678,0.139059,0.534413,0.709586,0.405029,0.652113,0.157396
1769164052.984075,1769164052.984711,47.0,0.0,4087.05127,4258.205078,4308.846191,4345.384766,4263.461426,4266.153809,4309.230957,4297.307617,4275.0,4266.922852,4583.205078,4553.205078,4398.717773,4463.461426,,,,,,,,,,,,,,,,,,,,,,,,,,,,,,,,,,,,,,,,,,,,,,,,,,,,,,,,,,,,,,,,,,,,,,
1769164052.991884,1769164052.99232,48.0,0.0,4091.923096,4258.589844,4310.897461,4342.94873,4261.410156,4265.256348,4308.077148,4294.358887,4277.436035,4276.410156,4582.05127,4552.692383,4409.615234,4471.153809,,,,,,,,,,,,,,,,,,,,,,,,,,,,,,,,,,,,,,,,,,,,,,,,,,,,,,,,,,,,,,,,,,,,,,
1769164052.999692,1769164053.000128,49.0,0.0,4092.05127,4263.205078,4310.769043,4346.153809,4263.333496,4267.563965,4307.692383,4295.128418,4277.05127,4265.384766,4593.974121,4553.974121,4417.563965,4478.717773,,,,,,,,,,,,,,,,,,,,,,,,,,,,,,,,,,,,,,,,,,,,,,,,,,,,,,,,,,,,,,,,,,,,,,
1769164053.007501,1769164053.007837,50.0,0.0,4092.692383,4261.538574,4313.077148,4350.897461,4267.179688,4265.384766,4309.230957,4300.641113,4280.384766,4266.282227,4601.025879,4559.743652,4413.589844,4480.897461,,,,,,,,,,,,,,,,,,,,,,,,,,,,,,,,,,,,,,,,,,,,,,,,,,,,,,,,,,,,,,,,,,,,,,
1769164053.015309,1769164053.015645,51.0,0.0,4110.384766,4265.256348,4321.538574,4354.871582,4266.666504,4269.871582,4311.025879,4305.0,4280.769043,4274.871582,4595.897461,4570.0,4411.282227,4488.333496,,,,,,,,,,,,,,,,,,,,,,,,,,,,,,,,,,,,,,,,,,,,,,,,,,,,,,,,,,,,,,,,,,,,,,
1769164053.023118,1769164053.023654,52.0,0.0,4122.820313,4272.692383,4326.025879,4352.05127,4263.333496,4279.102539,4310.512695,4302.820313,4276.153809,4268.461426,4592.179688,4573.717773,4416.666504,4495.641113,,,,,,,,,,,,,,,,,,,,,,,,,,,,,,,,,,,,,,,,,,,,,,,,,,,,,,,,,,,,,,,,,,,,,,
1769164053.030926,1769164053.031462,53.0,0.0,4110.128418,4268.205078,4319.230957,4344.487305,4264.230957,4279.743652,4311.282227,4305.0,4280.128418,4267.692383,4595.769043,4567.05127,4420.0,4488.846191,,,,,,,,,,,,,,,,,,,,,,,,,,,,,,,,,,,,,,,,,,,,,,,,,,,,,,,,,,,,,,,,,,,,,,
1769164053.038735,1769164053.03937,54.0,0.0,4092.94873,4257.05127,4308.461426,4340.641113,4269.358887,4276.794922,4316.153809,4311.538574,4288.717773,4278.717773,4595.0,4557.179688,4417.820313,4476.666504,,,,,,,,,,,,,,,,,,,,,,,,,,,,,,,,,,,,,,,,,,,,,,,,,,,,,,,,,,,,,,,,,,,,,,
1769164053.046543,1769164053.047179,55.0,0.0,4096.922852,4258.717773,4311.794922,4345.256348,4272.179688,4278.205078,4318.205078,4305.641113,4285.0,4277.563965,4590.769043,4554.230957,4419.743652,4475.512695,,,,,,,,,,,,,,,,,,,,,,,,,,,,,,,,,,,,,,,,,,,,,,,,,,,,,,,,,,,,,,,,,,,,,,
1769164053.054351,1769164053.055187,56.0,0.0,4107.179688,4266.410156,4321.666504,4353.589844,4268.589844,4278.589844,4313.974121,4294.871582,4277.307617,4265.897461,4588.333496,4557.563965,4423.461426,4481.794922,,,,,,,,,,,,,,,,,,,,,,,,,,,,,,,,,,,,,,,,,,,,,,,,,,,,,,,,,,,,,,,,,,,,,,
1769164053.06216,1769164053.062995,57.0,0.0,4107.563965,4264.871582,4317.307617,4351.153809,4264.615234,4272.307617,4309.871582,4295.128418,4278.333496,4265.256348,4588.717773,4558.461426,4422.563965,4480.641113,,,,,,,,,,,,,,,,,,,,,,,,,,,,,,,,,,,,,,,,,,,,,,,,,,,,,,,,,,,,,,,,,,,,,,
1769164053.069968,1769164053.070704,58.0,0.0,4103.077148,4262.05127,4309.743652,4344.871582,4268.205078,4263.846191,4308.077148,4298.077148,4281.666504,4270.256348,4590.641113,4556.282227,4418.461426,4476.666504,,,,,,,,,,,,,,,,,,,,,,,,,,,,,,,,,,,,,,,,,,,,,,,,,,,,,,,,,,,,,,,,,,,,,,
1769164053.077777,1769164053.078512,59.0,0.0,4098.333496,4262.820313,4315.384766,4347.307617,4272.179688,4265.641113,4309.871582,4296.153809,4281.025879,4268.077148,4583.077148,4553.974121,4414.230957,4471.538574,,,,,,,,,,,,,,,,,,,,,,,,,,,,,,,,,,,,,,,,,,,,,,,,,,,,,,,,,,,,,,,,,,,,,,
1769164053.085585,1769164053.086521,60.0,0.0,4092.05127,4262.692383,4323.333496,4350.384766,4272.94873,4274.358887,4311.922852,4297.436035,4278.846191,4260.384766,4574.358887,4550.0,4411.282227,4460.769043,,,,,,,,,,,,,,,,,,,,,,,,,,,,,,,,,,,,,,,,,,,,,,,,,,,,,,,,,,,,,,,,,,,,,,
1769164053.093394,1769164053.094329,61.0,0.0,4090.512939,4260.256348,4324.871582,4345.512695,4271.410156,4274.487305,4310.897461,4303.589844,4281.794922,4259.358887,4579.487305,4551.025879,4408.974121,4456.282227,,,,,,,,,,,,,,,,,,,,,,,,,,,,,,,,,,,,,,,,,,,,,,,,,,,,,,,,,,,,,,,,,,,,,,
1769164053.101202,1769164053.102238,62.0,0.0,4091.281982,4258.461426,4322.94873,4340.512695,4265.897461,4276.025879,4315.641113,4308.974121,4287.436035,4266.025879,4585.897461,4554.230957,4405.256348,4462.436035,0.354099,0.458014,0.434476,0.402765,0.205022,0.5306,0.242241,0.449905,0.210868,0.141103,0.672919,0.382842,0.111468,0.150801,0.099742,0.68075,0.263337,0.242174,0.146272,0.080975,0.279353,0.153347,0.076281,0.081211,0.045112,0.163842,0.236236,0.219607,0.125393,0.120008,0.11699,0.147025,0.185335,0.138618,0.128622,0.095054,0.346444,0.598633,0.129632,0.130786,0.187492,0.452695,0.781315,0.191062,0.107701,0.177458,0.654579,0.481898,0.293663,0.19796,0.39302,0.756905,0.43078,0.39963,0.156922,0.364036,0.788045,0.36455,0.41174,0.176388,0.457492,0.463907,0.348967,0.388781,0.129526,0.527805,0.750896,0.402811,0.47915,0.124697
1769164053.109011,1769164053.110046,63.0,0.0,4090.769287,4257.436035,4318.205078,4340.128418,4262.179688,4281.025879,4322.563965,4310.0,4288.461426,4265.769043,4585.384766,4555.512695,4405.769043,4470.0,,,,,,,,,,,,,,,,,,,,,,,,,,,,,,,,,,,,,,,,,,,,,,,,,,,,,,,,,,,,,,,,,,,,,,
1769164053.116819,1769164053.118054,64.0,0.0,4098.461426,4260.128418,4321.153809,4344.102539,4264.102539,4272.563965,4316.538574,4307.307617,4287.179688,4263.333496,4588.461426,4562.307617,4414.871582,4475.897461,,,,,,,,,,,,,,,,,,,,,,,,,,,,,,,,,,,,,,,,,,,,,,,,,,,,,,,,,,,,,,,,,,,,,,
1769164053.124627,1769164053.125863,65.0,0.0,4109.487305,4269.230957,4334.871582,4351.025879,4267.563965,4264.230957,4307.563965,4305.256348,4289.487305,4271.538574,4589.615234,4570.128418,4418.333496,4479.487305,,,,,,,,,,,,,,,,,,,,,,,,,,,,,,,,,,,,,,,,,,,,,,,,,,,,,,,,,,,,,,,,,,,,,,
1769164053.132436,1769164053.133671,66.0,0.0,4116.538574,4272.436035,4342.436035,4353.974121,4267.179688,4273.846191,4312.563965,4308.589844,4290.769043,4281.410156,4589.871582,4569.743652,4415.0,4478.717773,,,,,,,,,,,,,,,,,,,,,,,,,,,,,,,,,,,,,,,,,,,,,,,,,,,,,,,,,,,,,,,,,,,,,,
1769164053.140244,1769164053.14148,67.0,0.0,4122.179688,4271.666504,4341.538574,4353.077148,4265.641113,4277.05127,4316.666504,4307.820313,4285.256348,4276.410156,4593.333496,4567.436035,4413.717773,4479.230957,,,,,,,,,,,,,,,,,,,,,,,,,,,,,,,,,,,,,,,,,,,,,,,,,,,,,,,,,,,,,,,,,,,,,,
1769164053.148053,1769164053.149288,68.0,0.0,4126.282227,4275.0,4343.846191,4353.589844,4268.205078,4266.410156,4311.153809,4298.461426,4280.256348,4266.794922,4591.410156,4568.717773,4415.128418,4486.410156,,,,,,,,,,,,,,,,,,,,,,,,,,,,,,,,,,,,,,,,,,,,,,,,,,,,,,,,,,,,,,,,,,,,,,
1769164053.155861,1769164053.157096,69.0,0.0,4125.641113,4273.461426,4345.128418,4351.282227,4268.974121,4267.94873,4310.641113,4295.384766,4281.025879,4265.897461,4585.769043,4570.897461,4417.692383,4492.563965,,,,,,,,,,,,,,,,,,,,,,,,,,,,,,,,,,,,,,,,,,,,,,,,,,,,,,,,,,,,,,,,,,,,,,
1769164053.16367,1769164053.164805,70.0,0.0,4117.179688,4264.102539,4335.769043,4344.615234,4262.820313,4268.846191,4312.307617,4294.358887,4279.102539,4265.769043,4583.717773,4569.102539,4413.846191,4488.205078,,,,,,,,,,,,,,,,,,,,,,,,,,,,,,,,,,,,,,,,,,,,,,,,,,,,,,,,,,,,,,,,,,,,,,
1769164053.171478,1769164053.172613,71.0,0.0,4110.384766,4260.256348,4327.179688,4340.641113,4261.282227,4265.384766,4312.05127,4294.102539,4278.077148,4266.666504,4584.102539,4561.153809,4411.410156,4484.743652,,,,,,,,,,,,,,,,,,,,,,,,,,,,,,,,,,,,,,,,,,,,,,,,,,,,,,,,,,,,,,,,,,,,,,
1769164053.179287,1769164053.180222,72.0,0.0,4115.0,4264.615234,4329.358887,4343.077148,4267.436035,4272.436035,4314.487305,4303.205078,4287.05127,4273.846191,4586.410156,4554.487305,4416.153809,4490.384766,,,,,,,,,,,,,,,,,,,,,,,,,,,,,,,,,,,,,,,,,,,,,,,,,,,,,,,,,,,,,,,,,,,,,,
1769164053.187095,1769164053.188031,73.0,0.0,4123.077148,4264.871582,4331.922852,4346.538574,4267.692383,4273.717773,4316.410156,4305.769043,4289.615234,4274.871582,4589.102539,4554.871582,4417.436035,4491.922852,,,,,,,,,,,,,,,,,,,,,,,,,,,,,,,,,,,,,,,,,,,,,,,,,,,,,,,,,,,,,,,,,,,,,,
1769164053.194904,1769164053.195739,74.0,0.0,4121.538574,4265.384766,4329.358887,4347.436035,4267.692383,4266.153809,4310.256348,4294.871582,4278.974121,4267.05127,4588.461426,4555.641113,4413.717773,4489.487305,,,,,,,,,,,,,,,,,,,,,,,,,,,,,,,,,,,,,,,,,,,,,,,,,,,,,,,,,,,,,,,,,,,,,,
1769164053.202712,1769164053.203548,75.0,0.0,4120.0,4270.0,4327.94873,4346.794922,4273.717773,4270.512695,4304.230957,4290.769043,4275.641113,4265.512695,4587.563965,4555.384766,4413.846191,4491.025879,,,,,,,,,,,,,,,,,,,,,,,,,,,,,,,,,,,,,,,,,,,,,,,,,,,,,,,,,,,,,,,,,,,,,,
1769164053.210521,1769164053.211156,76.0,0.0,4122.05127,4269.102539,4327.692383,4343.846191,4276.282227,4279.615234,4304.743652,4296.666504,4284.871582,4275.512695,4590.128418,4556.538574,4418.333496,4492.05127,,,,,,,,,,,,,,,,,,,,,,,,,,,,,,,,,,,,,,,,,,,,,,,,,,,,,,,,,,,,,,,,,,,,,,
1769164053.218329,1769164053.218965,77.0,0.0,4125.897461,4267.307617,4328.589844,4345.641113,4273.333496,4275.641113,4305.769043,4299.487305,4292.179688,4281.025879,4594.102539,4557.820313,4420.512695,4496.025879,,,,,,,,,,,,,,,,,,,,,,,,,,,,,,,,,,,,,,,,,,,,,,,,,,,,,,,,,,,,,,,,,,,,,,
1769164053.226138,1769164053.226873,78.0,0.0,4125.128418,4266.794922,4328.717773,4347.94873,4267.820313,4275.384766,4306.025879,4300.512695,4288.461426,4270.384766,4590.897461,4553.717773,4415.256348,4491.410156,0.446639,0.442415,0.481299,0.491237,0.205927,0.501017,0.277446,0.435775,0.181051,0.13284,0.627194,0.36603,0.108951,0.166033,0.09973,0.644052,0.235864,0.219878,0.135086,0.079718,0.370776,0.152484,0.077303,0.076016,0.046538,0.191129,0.189417,0.272706,0.112155,0.109253,0.117009,0.129627,0.212533,0.121907,0.110336,0.10562,0.387898,0.679592,0.142492,0.143488,0.153518,0.471766,0.774414,0.202771,0.104339,0.155728,0.684884,0.503145,0.34108,0.212199,0.429301,0.744354,0.447111,0.367385,0.143506,0.326133,0.754532,0.412156,0.360406,0.144838,0.446615,0.525152,0.377291,0.355194,0.129917,0.63801,0.7614,0.405367,0.362621,0.104481
1769164053.233946,1769164053.234681,79.0,0.0,4116.538574,4263.717773,4325.641113,4343.461426,4265.256348,4278.077148,4306.282227,4296.410156,4279.358887,4260.128418,4582.692383,4548.974121,4408.974121,4477.179688,,,,,,,,,,,,,,,,,,,,,,,,,,,,,,,,,,,,,,,,,,,,,,,,,,,,,,,,,,,,,,,,,,,,,,
1769164053.241754,1769164053.24269,80.0,0.0,4115.512695,4262.307617,4327.436035,4340.897461,4268.974121,4269.358887,4302.94873,4291.282227,4277.820313,4263.846191,4584.743652,4551.666504,4412.307617,4480.0,,,,,,,,,,,,,,,,,,,,,,,,,,,,,,,,,,,,,,,,,,,,,,,,,,,,,,,,,,,,,,,,,,,,,,
1769164053.249563,1769164053.250498,81.0,0.0,4123.077148,4262.692383,4329.871582,4341.153809,4269.487305,4265.897461,4302.307617,4295.128418,4285.0,4267.05127,4589.487305,4550.512695,4411.410156,4489.102539,,,,,,,,,,,,,,,,,,,,,,,,,,,,,,,,,,,,,,,,,,,,,,,,,,,,,,,,,,,,,,,,,,,,,,
1769164053.257371,1769164053.258406,82.0,0.0,4123.589844,4259.871582,4325.512695,4337.307617,4263.846191,4273.974121,4308.589844,4296.922852,4284.743652,4260.897461,4582.820313,4540.641113,4398.589844,4480.256348,,,,,,,,,,,,,,,,,,,,,,,,,,,,,,,,,,,,,,,,,,,,,,,,,,,,,,,,,,,,,,,,,,,,,,
1769164053.26518,1769164053.266215,83.0,0.0,4118.461426,4255.897461,4326.922852,4336.666504,4263.461426,4277.94873,4310.256348,4293.333496,4278.974121,4256.025879,4576.282227,4541.410156,4392.94873,4469.871582,,,,,,,,,,,,,,,,,,,,,,,,,,,,,,,,,,,,,,,,,,,,,,,,,,,,,,,,,,,,,,,,,,,,,,
1769164053.272988,1769164053.273824,84.0,0.0,4120.0,4257.94873,4336.410156,4342.179688,4265.897461,4274.230957,4306.025879,4292.820313,4276.538574,4260.769043,4579.615234,4551.282227,4400.641113,4476.025879,,,,,,,,,,,,,,,,,,,,,,,,,,,,,,,,,,,,,,,,,,,,,,,,,,,,,,,,,,,,,,,,,,,,,,
1769164053.280797,1769164053.281632,85.0,0.0,4124.743652,4259.358887,4339.358887,4343.077148,4264.230957,4275.769043,4308.846191,4296.410156,4281.922852,4262.94873,4585.384766,4553.077148,4408.589844,4486.538574,,,,,,,,,,,,,,,,,,,,,,,,,,,,,,,,,,,,,,,,,,,,,,,,,,,,,,,,,,,,,,,,,,,,,,
1769164053.288605,1769164053.289341,86.0,0.0,4123.717773,4255.641113,4336.922852,4340.512695,4263.077148,4278.589844,4312.820313,4297.179688,4290.384766,4256.794922,4588.205078,4551.282227,4411.538574,4490.384766,,,,,,,,,,,,,,,,,,,,,,,,,,,,,,,,,,,,,,,,,,,,,,,,,,,,,,,,,,,,,,,,,,,,,,
1769164053.296414,1769164053.297149,87.0,0.0,4119.102539,4253.589844,4338.077148,4340.384766,4264.230957,4277.179688,4311.282227,4294.743652,4287.563965,4262.05127,4587.692383,4553.205078,4412.307617,4491.410156,,,,,,,,,,,,,,,,,,,,,,,,,,,,,,,,,,,,,,,,,,,,,,,,,,,,,,,,,,,,,,,,,,,,,,
1769164053.304222,1769164053.305157,88.0,0.0,4127.563965,4261.025879,4341.922852,4341.025879,4264.615234,4274.615234,4312.307617,4295.897461,4280.897461,4278.333496,4588.077148,4561.025879,4413.461426,4499.102539,,,,,,,,,,,,,,,,,,,,,,,,,,,,,,,,,,,,,,,,,,,,,,,,,,,,,,,,,,,,,,,,,,,,,,
1769164053.31203,1769164053.312966,89.0,0.0,4142.179688,4266.794922,4346.410156,4343.333496,4263.717773,4268.077148,4309.871582,4297.94873,4281.282227,4276.794922,4593.205078,4567.692383,4416.025879,4508.846191,,,,,,,,,,,,,,,,,,,,,,,,,,,,,,,,,,,,,,,,,,,,,,,,,,,,,,,,,,,,,,,,,,,,,,
1769164053.319839,1769164053.320874,90.0,0.0,4136.666504,4255.897461,4345.897461,4341.922852,4262.307617,4260.769043,4303.205078,4296.153809,4282.307617,4262.94873,4594.743652,4561.538574,4415.897461,4508.461426,,,,,,,,,,,,,,,,,,,,,,,,,,,,,,,,,,,,,,,,,,,,,,,,,,,,,,,,,,,,,,,,,,,,,,
1769164053.327647,1769164053.328682,91.0,0.0,4128.717773,4244.615234,4341.666504,4337.692383,4263.077148,4264.615234,4306.794922,4295.769043,4279.102539,4261.410156,4589.615234,4552.820313,4411.538574,4502.692383,,,,,,,,,,,,,,,,,,,,,,,,,,,,,,,,,,,,,,,,,,,,,,,,,,,,,,,,,,,,,,,,,,,,,,
1769164053.335456,1769164053.336491,92.0,0.0,4132.436035,4248.846191,4341.922852,4338.205078,4264.358887,4275.897461,4313.333496,4299.102539,4279.102539,4262.94873,4585.128418,4552.94873,4404.230957,4494.230957,,,,,,,,,,,,,,,,,,,,,,,,,,,,,,,,,,,,,,,,,,,,,,,,,,,,,,,,,,,,,,,,,,,,,,
1769164053.343264,1769164053.344299,93.0,0.0,4128.333496,4248.589844,4340.769043,4336.410156,4264.358887,4277.436035,4309.615234,4295.512695,4279.102539,4259.230957,4584.487305,4554.615234,4402.05127,4490.256348,,,,,,,,,,,,,,,,,,,,,,,,,,,,,,,,,,,,,,,,,,,,,,,,,,,,,,,,,,,,,,,,,,,,,,
1769164053.351073,1769164053.352008,94.0,0.0,4117.307617,4234.871582,4332.179688,4326.410156,4263.974121,4275.641113,4310.0,4293.717773,4277.179688,4256.153809,4583.205078,4551.410156,4402.436035,4491.794922,0.718573,0.398511,0.506774,0.601904,0.21457,0.466957,0.304825,0.406198,0.155681,0.127923,0.632147,0.335703,0.105227,0.197027,0.103243,0.626425,0.196834,0.1932,0.131433,0.082831,0.452604,0.156616,0.086249,0.076777,0.05463,0.209663,0.176131,0.323463,0.105537,0.106378,0.113424,0.12778,0.244759,0.102147,0.091206,0.148063,0.42127,0.735883,0.158716,0.150038,0.140031,0.460335,0.722644,0.217998,0.102025,0.167558,0.660989,0.500803,0.378956,0.223107,0.486912,0.65961,0.452427,0.353241,0.138172,0.328317,0.656098,0.456265,0.328575,0.119828,0.456675,0.549346,0.422232,0.348124,0.135968,0.834335,0.736228,0.425138,0.301644,0.097504
1769164053.358881,1769164053.359816,95.0,0.0,4114.615234,4227.94873,4327.692383,4321.538574,4263.077148,4278.846191,4317.05127,4306.538574,4285.0,4260.384766,4584.743652,4550.769043,4397.692383,4489.743652,,,,,,,,,,,,,,,,,,,,,,,,,,,,,,,,,,,,,,,,,,,,,,,,,,,,,,,,,,,,,,,,,,,,,,
1769164053.36669,1769164053.367425,96.0,0.0,4118.333496,4238.077148,4336.538574,4327.563965,4262.436035,4274.871582,4314.743652,4309.871582,4292.436035,4273.717773,4594.230957,4558.205078,4404.487305,4494.487305,,,,,,,,,,,,,,,,,,,,,,,,,,,,,,,,,,,,,,,,,,,,,,,,,,,,,,,,,,,,,,,,,,,,,,
1769164053.374498,1769164053.375233,97.0,0.0,4131.538574,4250.128418,4345.641113,4335.769043,4263.333496,4266.794922,4307.563965,4297.94873,4291.025879,4277.179688,4602.563965,4568.333496,4422.820313,4512.436035,,,,,,,,,,,,,,,,,,,,,,,,,,,,,,,,,,,,,,,,,,,,,,,,,,,,,,,,,,,,,,,,,,,,,,
1769164053.382306,1769164053.382942,98.0,0.0,4140.0,4251.794922,4343.717773,4338.333496,4264.102539,4262.179688,4307.94873,4298.461426,4291.153809,4269.102539,4597.94873,4567.692383,4418.205078,4514.487305,,,,,,,,,,,,,,,,,,,,,,,,,,,,,,,,,,,,,,,,,,,,,,,,,,,,,,,,,,,,,,,,,,,,,,
1769164053.390115,1769164053.39075,99.0,0.0,4125.897461,4246.794922,4339.615234,4331.410156,4264.102539,4262.692383,4312.436035,4304.358887,4287.820313,4267.692383,4587.436035,4555.641113,4396.922852,4494.230957,,,,,,,,,,,,,,,,,,,,,,,,,,,,,,,,,,,,,,,,,,,,,,,,,,,,,,,,,,,,,,,,,,,,,,
1769164053.397923,1769164053.398359,100.0,0.0,4122.563965,4246.153809,4341.282227,4327.692383,4264.358887,4271.282227,4312.563965,4295.512695,4277.179688,4268.717773,4583.974121,4550.0,4402.179688,4489.358887,,,,,,,,,,,,,,,,,,,,,,,,,,,,,,,,,,,,,,,,,,,,,,,,,,,,,,,,,,,,,,,,,,,,,,
1769164053.405732,1769164053.406168,101.0,0.0,4139.230957,4250.0,4344.102539,4334.615234,4264.615234,4275.641113,4307.94873,4289.743652,4274.871582,4264.358887,4586.794922,4554.487305,4418.333496,4505.769043,,,,,,,,,,,,,,,,,,,,,,,,,,,,,,,,,,,,,,,,,,,,,,,,,,,,,,,,,,,,,,,,,,,,,,
1769164053.41354,1769164053.413876,102.0,0.0,4136.794922,4250.769043,4342.692383,4333.461426,4264.615234,4267.563965,4307.307617,4295.512695,4280.897461,4263.461426,4585.512695,4557.307617,4408.077148,4507.436035,,,,,,,,,,,,,,,,,,,,,,,,,,,,,,,,,,,,,,,,,,,,,,,,,,,,,,,,,,,,,,,,,,,,,,
1769164053.421349,1769164053.421685,103.0,0.0,4124.358887,4248.461426,4340.897461,4328.717773,4264.358887,4262.94873,4310.897461,4295.769043,4279.358887,4261.922852,4580.0,4551.794922,4393.205078,4490.641113,,,,,,,,,,,,,,,,,,,,,,,,,,,,,,,,,,,,,,,,,,,,,,,,,,,,,,,,,,,,,,,,,,,,,,
1769164053.429157,1769164053.429693,104.0,0.0,4134.358887,4249.615234,4342.94873,4335.769043,4264.230957,4268.333496,4311.282227,4293.205078,4276.282227,4257.179688,4579.230957,4548.589844,4397.179688,4489.615234,,,,,,,,,,,,,,,,,,,,,,,,,,,,,,,,,,,,,,,,,,,,,,,,,,,,,,,,,,,,,,,,,,,,,,
1769164053.436966,1769164053.437501,105.0,0.0,4139.871582,4250.256348,4343.205078,4337.563965,4265.0,4271.153809,4311.153809,4296.922852,4279.615234,4259.102539,4584.102539,4551.282227,4399.871582,4503.205078,,,,,,,,,,,,,,,,,,,,,,,,,,,,,,,,,,,,,,,,,,,,,,,,,,,,,,,,,,,,,,,,,,,,,,
