Timestamp,OriginalTimestamp,EEG.Counter,EEG.Interpolated,EEG.AF3,EEG.F7,EEG.F3,EEG.FC5,EEG.T7,EEG.P7,EEG.O1,EEG.O2,EEG.P8,EEG.T8,EEG.FC6,EEG.F4,EEG.F8,EEG.AF4,POW.AF3.Theta,POW.AF3.Alpha,POW.AF3.BetaL,POW.AF3.BetaH,POW.AF3.Gamma,POW.F7.Theta,POW.F7.Alpha,POW.F7.BetaL,POW.F7.BetaH,POW.F7.Gamma,POW.F3.Theta,POW.F3.Alpha,POW.F3.BetaL,POW.F3.BetaH,POW.F3.Gamma,POW.FC5.Theta,POW.FC5.Alpha,POW.FC5.BetaL,POW.FC5.BetaH,POW.FC5.Gamma,POW.T7.Theta,POW.T7.Alpha,POW.T7.BetaL,POW.T7.BetaH,POW.T7.Gamma,POW.P7.Theta,POW.P7.Alpha,POW.P7.BetaL,POW.P7.BetaH,POW.P7.Gamma,POW.O1.Theta,POW.O1.Alpha,POW.O1.BetaL,POW.O1.BetaH,POW.O1.Gamma,POW.O2.Theta,POW.O2.Alpha,POW.O2.BetaL,POW.O2.BetaH,POW.O2.Gamma,POW.P8.Theta,POW.P8.Alpha,POW.P8.BetaL,POW.P8.BetaH,POW.P8.Gamma,POW.T8.Theta,POW.T8.Alpha,POW.T8.BetaL,POW.T8.BetaH,POW.T8.Gamma,POW.FC6.Theta,POW.FC6.Alpha,POW.FC6.BetaL,POW.FC6.BetaH,POW.FC6.Gamma,POW.F4.Theta,POW.F4.Alpha,POW.F4.BetaL,POW.F4.BetaH,POW.F4.Gamma,POW.F8.Theta,POW.F8.Alpha,POW.F8.BetaL,POW.F8.BetaH,POW.F8.Gamma,POW.AF4.Theta,POW.AF4.Alpha,POW.AF4.BetaL,POW.AF4.BetaH,POW.AF4.Gamma
1769162785.906429,1769162785.906836,81.0,0.0,4328.846191,4288.461426,4134.871582,4323.589844,4293.974121,4296.666504,4302.05127,4296.538574,4289.871582,4277.05127,4553.846191,4516.153809,4397.179688,4442.692383,,,,,,,,,,,,,,,,,,,,,,,,,,,,,,,,,,,,,,,,,,,,,,,,,,,,,,,,,,,,,,,,,,,,,,
1769162785.914238,1769162785.914545,82.0,0.0,4325.384766,4284.487305,4130.384766,4318.846191,4292.436035,4297.05127,4307.307617,4297.563965,4294.615234,4277.436035,4556.282227,4520.769043,4398.974121,4443.077148,,,,,,,,,,,,,,,,,,,,,,,,,,,,,,,,,,,,,,,,,,,,,,,,,,,,,,,,,,,,,,,,,,,,,,
1769162785.922046,1769162785.922353,83.0,0.0,4322.563965,4286.282227,4131.025879,4318.461426,4292.436035,4293.461426,4305.641113,4297.94873,4294.871582,4280.128418,4557.563965,4523.205078,4399.871582,4444.102539,,,,,,,,,,,,,,,,,,,,,,,,,,,,,,,,,,,,,,,,,,,,,,,,,,,,,,,,,,,,,,,,,,,,,,
1769162785.929855,1769162785.929962,84.0,0.0,4327.436035,4294.487305,4134.743652,4323.461426,4295.384766,4289.230957,4299.358887,4296.025879,4286.410156,4279.615234,4556.794922,4517.692383,4400.769043,4445.256348,,,,,,,,,,,,,,,,,,,,,,,,,,,,,,,,,,,,,,,,,,,,,,,,,,,,,,,,,,,,,,,,,,,,,,
1769162785.937663,1769162785.93777,85.0,0.0,4328.589844,4296.666504,4130.769043,4325.769043,4295.512695,4291.282227,4299.102539,4292.820313,4278.333496,4277.563965,4555.897461,4511.025879,4402.179688,4445.128418,,,,,,,,,,,,,,,,,,,,,,,,,,,,,,,,,,,,,,,,,,,,,,,,,,,,,,,,,,,,,,,,,,,,,,
1769162785.945471,1769162785.945679,86.0,0.0,4325.512695,4292.179688,4123.589844,4322.307617,4293.077148,4294.102539,4297.05127,4292.692383,4280.0,4276.153809,4558.333496,4509.102539,4401.025879,4445.769043,,,,,,,,,,,,,,,,,,,,,,,,,,,,,,,,,,,,,,,,,,,,,,,,,,,,,,,,,,,,,,,,,,,,,,
1769162785.95328,1769162785.953487,87.0,0.0,4325.384766,4287.94873,4123.333496,4317.436035,4292.94873,4293.974121,4294.871582,4294.487305,4280.769043,4275.128418,4558.077148,4507.307617,4398.717773,4445.128418,,,,,,,,,,,,,,,,,,,,,,,,,,,,,,,,,,,,,,,,,,,,,,,,,,,,,,,,,,,,,,,,,,,,,,
1769162785.961088,1769162785.961495,88.0,0.0,4327.820313,4290.512695,4125.769043,4320.384766,4296.794922,4296.025879,4304.102539,4294.871582,4279.102539,4278.205078,4559.615234,4514.102539,4405.0,4451.794922,,,,,,,,,,,,,,,,,,,,,,,,,,,,,,,,,,,,,,,,,,,,,,,,,,,,,,,,,,,,,,,,,,,,,,
1769162785.968897,1769162785.969304,89.0,0.0,4328.205078,4294.358887,4123.974121,4325.769043,4297.820313,4295.897461,4306.538574,4296.282227,4286.794922,4279.487305,4562.436035,4520.897461,4412.692383,4456.538574,,,,,,,,,,,,,,,,,,,,,,,,,,,,,,,,,,,,,,,,,,,,,,,,,,,,,,,,,,,,,,,,,,,,,,
1769162785.976705,1769162785.977012,90.0,0.0,4324.102539,4287.307617,4118.077148,4319.102539,4294.871582,4293.077148,4296.282227,4297.563965,4292.692383,4277.563965,4559.230957,4513.717773,4406.538574,4448.205078,,,,,,,,,,,,,,,,,,,,,,,,,,,,,,,,,,,,,,,,,,,,,,,,,,,,,,,,,,,,,,,,,,,,,,
1769162785.984514,1769162785.984821,91.0,0.0,4320.128418,4276.025879,4113.333496,4309.230957,4293.846191,4290.897461,4297.179688,4296.153809,4290.256348,4278.461426,4555.384766,4505.641113,4398.589844,4443.333496,,,,,,,,,,,,,,,,,,,,,,,,,,,,,,,,,,,,,,,,,,,,,,,,,,,,,,,,,,,,,,,,,,,,,,
1769162785.992322,1769162785.992429,92.0,0.0,4322.179688,4278.333496,4113.717773,4310.128418,4292.179688,4284.871582,4303.461426,4295.512695,4286.666504,4276.410156,4554.487305,4506.922852,4397.94873,4445.897461,,,,,,,,,,,,,,,,,,,,,,,,,,,,,,,,,,,,,,,,,,,,,,,,,,,,,,,,,,,,,,,,,,,,,,
1769162786.000131,1769162786.000238,93.0,0.0,4327.179688,4282.563965,4113.717773,4313.077148,4288.589844,4280.769043,4295.897461,4295.384766,4283.589844,4271.410156,4553.205078,4505.128418,4396.538574,4445.0,,,,,,,,,,,,,,,,,,,,,,,,,,,,,,,,,,,,,,,,,,,,,,,,,,,,,,,,,,,,,,,,,,,,,,
1769162786.007939,1769162786.007946,94.0,0.0,4328.461426,4280.512695,4110.256348,4311.153809,4290.512695,4282.307617,4291.794922,4291.025879,4281.538574,4275.384766,4550.769043,4502.05127,4398.846191,4449.615234,0.303004,1.201383,0.476141,0.268321,0.156992,0.587581,0.484444,0.318052,0.109569,0.204994,0.344693,0.555075,0.193856,0.11696,0.165567,0.258872,0.657932,0.279583,0.074493,0.103911,0.324004,0.50103,0.073608,0.098355,0.058314,0.176239,0.211692,0.104489,0.101426,0.10064,0.305137,0.266539,0.170886,0.15079,0.152607,0.485342,0.643205,0.646666,0.162882,0.195056,0.375916,0.613126,1.277497,0.154174,0.237398,0.384207,0.316659,0.880829,0.116201,0.159026,0.273821,0.820494,0.368672,0.21201,0.160857,0.936117,0.898442,0.377257,0.266144,0.266428,0.396454,0.741114,0.516389,0.459353,0.26227,0.436931,1.33613,0.390467,0.594541,0.364556
1769162786.015748,1769162786.015755,95.0,0.0,4326.025879,4281.025879,4108.461426,4310.641113,4293.077148,4279.743652,4296.410156,4294.871582,4286.282227,4283.077148,4555.512695,4508.461426,4409.871582,4460.641113,,,,,,,,,,,,,,,,,,,,,,,,,,,,,,,,,,,,,,,,,,,,,,,,,,,,,,,,,,,,,,,,,,,,,,
1769162786.023556,1769162786.023763,96.0,0.0,4325.512695,4282.179688,4108.974121,4316.025879,4290.256348,4279.358887,4295.256348,4306.922852,4294.871582,4281.282227,4563.846191,4511.538574,4414.743652,4460.128418,,,,,,,,,,,,,,,,,,,,,,,,,,,,,,,,,,,,,,,,,,,,,,,,,,,,,,,,,,,,,,,,,,,,,,
1769162786.031365,1769162786.031571,97.0,0.0,4329.615234,4285.641113,4109.871582,4319.871582,4290.256348,4286.538574,4293.077148,4303.589844,4288.974121,4277.05127,4560.897461,4508.077148,4411.922852,4456.282227,,,,,,,,,,,,,,,,,,,,,,,,,,,,,,,,,,,,,,,,,,,,,,,,,,,,,,,,,,,,,,,,,,,,,,
1769162786.039173,1769162786.03948,98.0,0.0,4335.897461,4291.153809,4112.179688,4318.333496,4294.871582,4285.769043,4294.615234,4289.230957,4278.974121,4279.358887,4554.871582,4507.563965,4413.077148,4459.230957,,,,,,,,,,,,,,,,,,,,,,,,,,,,,,,,,,,,,,,,,,,,,,,,,,,,,,,,,,,,,,,,,,,,,,
1769162786.046981,1769162786.047288,99.0,0.0,4328.974121,4287.94873,4109.102539,4313.717773,4292.179688,4279.102539,4294.487305,4290.512695,4286.794922,4281.794922,4561.025879,4509.102539,4412.307617,4458.846191,,,,,,,,,,,,,,,,,,,,,,,,,,,,,,,,,,,,,,,,,,,,,,,,,,,,,,,,,,,,,,,,,,,,,,
1769162786.05479,1769162786.055296,100.0,0.0,4310.641113,4279.615234,4096.794922,4308.974121,4286.282227,4278.461426,4293.461426,4298.461426,4298.077148,4280.256348,4572.179688,4510.384766,4411.025879,4458.461426,,,,,,,,,,,,,,,,,,,,,,,,,,,,,,,,,,,,,,,,,,,,,,,,,,,,,,,,,,,,,,,,,,,,,,
1769162786.062598,1769162786.063105,101.0,0.0,4305.128418,4278.333496,4088.974365,4307.436035,4290.0,4281.794922,4294.102539,4294.230957,4293.461426,4278.461426,4566.666504,4508.974121,4413.333496,4461.282227,,,,,,,,,,,,,,,,,,,,,,,,,,,,,,,,,,,,,,,,,,,,,,,,,,,,,,,,,,,,,,,,,,,,,,
1769162786.070407,1769162786.070813,102.0,0.0,4313.974121,4283.846191,4097.692383,4310.641113,4294.871582,4285.0,4296.282227,4292.05127,4286.538574,4277.307617,4555.512695,4503.717773,4407.692383,4461.025879,,,,,,,,,,,,,,,,,,,,,,,,,,,,,,,,,,,,,,,,,,,,,,,,,,,,,,,,,,,,,,,,,,,,,,
1769162786.078215,1769162786.078622,103.0,0.0,4320.897461,4288.974121,4107.307617,4313.717773,4293.974121,4287.692383,4297.307617,4295.512695,4288.461426,4275.512695,4552.179688,4500.256348,4396.666504,4457.05127,,,,,,,,,,,,,,,,,,,,,,,,,,,,,,,,,,,,,,,,,,,,,,,,,,,,,,,,,,,,,,,,,,,,,,
1769162786.086024,1769162786.08643,104.0,0.0,4321.666504,4289.615234,4102.563965,4311.794922,4294.487305,4293.333496,4296.794922,4296.794922,4290.512695,4277.436035,4553.717773,4504.871582,4400.769043,4454.615234,,,,,,,,,,,,,,,,,,,,,,,,,,,,,,,,,,,,,,,,,,,,,,,,,,,,,,,,,,,,,,,,,,,,,,
1769162786.093832,1769162786.094239,105.0,0.0,4316.922852,4286.410156,4093.718018,4308.846191,4296.538574,4292.94873,4295.641113,4301.794922,4297.05127,4286.025879,4560.897461,4511.025879,4415.384766,4457.307617,,,,,,,,,,,,,,,,,,,,,,,,,,,,,,,,,,,,,,,,,,,,,,,,,,,,,,,,,,,,,,,,,,,,,,
1769162786.101641,1769162786.101947,106.0,0.0,4313.974121,4290.0,4095.128174,4312.692383,4295.897461,4284.743652,4296.794922,4300.769043,4297.820313,4287.94873,4562.436035,4508.717773,4415.897461,4460.128418,,,,,,,,,,,,,,,,,,,,,,,,,,,,,,,,,,,,,,,,,,,,,,,,,,,,,,,,,,,,,,,,,,,,,,
1769162786.109449,1769162786.109756,107.0,0.0,4321.025879,4296.538574,4103.077148,4319.615234,4294.871582,4282.563965,4298.461426,4291.794922,4288.717773,4279.487305,4556.153809,4504.230957,4408.461426,4458.333496,,,,,,,,,,,,,,,,,,,,,,,,,,,,,,,,,,,,,,,,,,,,,,,,,,,,,,,,,,,,,,,,,,,,,,
1769162786.117257,1769162786.117364,108.0,0.0,4326.538574,4294.230957,4106.794922,4321.922852,4295.0,4285.256348,4296.538574,4289.615234,4287.820313,4277.563965,4554.358887,4506.410156,4411.282227,4458.589844,,,,,,,,,,,,,,,,,,,,,,,,,,,,,,,,,,,,,,,,,,,,,,,,,,,,,,,,,,,,,,,,,,,,,,
1769162786.125066,1769162786.125173,109.0,0.0,4323.974121,4292.179688,4107.05127,4321.153809,4293.717773,4281.666504,4294.358887,4292.179688,4294.230957,4282.179688,4557.307617,4507.820313,4410.897461,4460.641113,,,,,,,,,,,,,,,,,,,,,,,,,,,,,,,,,,,,,,,,,,,,,,,,,,,,,,,,,,,,,,,,,,,,,,
1769162786.132874,1769162786.132881,110.0,0.0,4323.333496,4296.410156,4104.615234,4322.179688,4294.743652,4278.205078,4295.897461,4291.794922,4294.871582,4280.769043,4556.282227,4506.282227,4402.692383,4457.692383,0.27268,1.062629,0.502075,0.258428,0.151055,0.641543,0.467715,0.353909,0.107227,0.206807,0.450903,0.506746,0.215424,0.1196,0.148158,0.282094,0.559832,0.30411,0.083521,0.112649,0.311208,0.471946,0.078097,0.101266,0.05291,0.19267,0.220918,0.122261,0.102138,0.095929,0.332881,0.254664,0.161457,0.15867,0.156757,0.520441,0.640591,0.526924,0.133642,0.168324,0.396812,0.706103,1.039141,0.151732,0.213651,0.367685,0.257762,0.637429,0.112911,0.151995,0.310558,0.81113,0.314426,0.206362,0.170082,1.068685,0.792478,0.28701,0.267158,0.262587,0.374925,0.669938,0.518262,0.44662,0.255254,0.378955,1.187928,0.418808,0.573842,0.346317
1769162786.140683,1769162786.14069,111.0,0.0,4323.717773,4296.410156,4097.94873,4320.512695,4293.333496,4280.256348,4297.692383,4294.230957,4292.94873,4279.358887,4554.743652,4506.153809,4403.461426,4456.794922,,,,,,,,,,,,,,,,,,,,,,,,,,,,,,,,,,,,,,,,,,,,,,,,,,,,,,,,,,,,,,,,,,,,,,
1769162786.148491,1769162786.148698,112.0,0.0,4324.230957,4293.461426,4096.794922,4319.871582,4288.333496,4278.077148,4295.128418,4294.615234,4295.128418,4281.794922,4557.307617,4506.666504,4408.461426,4462.05127,,,,,,,,,,,,,,,,,,,,,,,,,,,,,,,,,,,,,,,,,,,,,,,,,,,,,,,,,,,,,,,,,,,,,,
1769162786.1563,1769162786.156507,113.0,0.0,4328.589844,4293.205078,4103.717773,4319.487305,4286.025879,4275.897461,4293.077148,4289.743652,4294.230957,4280.384766,4556.410156,4506.538574,4408.077148,4460.897461,,,,,,,,,,,,,,,,,,,,,,,,,,,,,,,,,,,,,,,,,,,,,,,,,,,,,,,,,,,,,,,,,,,,,,
1769162786.164108,1769162786.164415,114.0,0.0,4325.0,4290.0,4103.077148,4313.077148,4286.153809,4279.743652,4295.641113,4291.922852,4290.128418,4277.179688,4555.641113,4508.333496,4410.256348,4458.846191,,,,,,,,,,,,,,,,,,,,,,,,,,,,,,,,,,,,,,,,,,,,,,,,,,,,,,,,,,,,,,,,,,,,,,
1769162786.171917,1769162786.172223,115.0,0.0,4319.487305,4289.487305,4096.153809,4310.512695,4288.974121,4282.05127,4297.05127,4294.358887,4287.436035,4278.461426,4556.794922,4509.743652,4412.05127,4464.743652,,,,,,,,,,,,,,,,,,,,,,,,,,,,,,,,,,,,,,,,,,,,,,,,,,,,,,,,,,,,,,,,,,,,,,
1769162786.179725,1769162786.179832,116.0,0.0,4321.282227,4293.974121,4096.538574,4314.230957,4295.256348,4282.692383,4295.512695,4292.692383,4287.307617,4277.692383,4553.846191,4504.743652,4402.179688,4457.179688,,,,,,,,,,,,,,,,,,,,,,,,,,,,,,,,,,,,,,,,,,,,,,,,,,,,,,,,,,,,,,,,,,,,,,
1769162786.187534,1769162786.18764,117.0,0.0,4320.512695,4292.563965,4098.717773,4313.205078,4294.615234,4281.538574,4295.128418,4295.512695,4292.94873,4274.615234,4549.230957,4500.769043,4393.077148,4440.0,,,,,,,,,,,,,,,,,,,,,,,,,,,,,,,,,,,,,,,,,,,,,,,,,,,,,,,,,,,,,,,,,,,,,,
1769162786.195342,1769162786.195349,118.0,0.0,4320.128418,4290.128418,4096.538574,4311.538574,4287.820313,4279.358887,4294.871582,4296.025879,4291.794922,4275.897461,4551.153809,4505.128418,4401.153809,4446.025879,,,,,,,,,,,,,,,,,,,,,,,,,,,,,,,,,,,,,,,,,,,,,,,,,,,,,,,,,,,,,,,,,,,,,,
1769162786.20315,1769162786.203157,119.0,0.0,4324.487305,4294.487305,4099.102539,4312.692383,4289.358887,4277.820313,4291.922852,4290.897461,4284.358887,4278.333496,4557.179688,4509.743652,4414.871582,4463.589844,,,,,,,,,,,,,,,,,,,,,,,,,,,,,,,,,,,,,,,,,,,,,,,,,,,,,,,,,,,,,,,,,,,,,,
1769162786.210959,1769162786.211166,120.0,0.0,4323.333496,4297.179688,4107.05127,4313.589844,4293.205078,4277.94873,4292.563965,4292.05127,4286.922852,4278.077148,4556.153809,4508.333496,4409.871582,4462.692383,,,,,,,,,,,,,,,,,,,,,,,,,,,,,,,,,,,,,,,,,,,,,,,,,,,,,,,,,,,,,,,,,,,,,,
1769162786.218767,1769162786.218974,121.0,0.0,4319.743652,4295.0,4107.692383,4315.0,4289.358887,4279.230957,4296.410156,4297.563965,4296.282227,4278.589844,4552.820313,4507.563965,4398.589844,4454.871582,,,,,,,,,,,,,,,,,,,,,,,,,,,,,,,,,,,,,,,,,,,,,,,,,,,,,,,,,,,,,,,,,,,,,,
1769162786.226576,1769162786.226883,122.0,0.0,4318.589844,4295.512695,4101.538574,4315.256348,4287.563965,4278.974121,4296.538574,4296.410156,4295.512695,4280.256348,4555.512695,4509.871582,4403.461426,4457.692383,,,,,,,,,,,,,,,,,,,,,,,,,,,,,,,,,,,,,,,,,,,,,,,,,,,,,,,,,,,,,,,,,,,,,,
1769162786.234384,1769162786.234691,123.0,0.0,4313.589844,4295.769043,4097.820313,4312.692383,4289.615234,4279.871582,4295.641113,4293.589844,4291.025879,4280.0,4557.307617,4508.589844,4408.717773,4460.0,,,,,,,,,,,,,,,,,,,,,,,,,,,,,,,,,,,,,,,,,,,,,,,,,,,,,,,,,,,,,,,,,,,,,,
1769162786.242193,1769162786.242699,124.0,0.0,4310.769043,4293.589844,4094.743652,4311.538574,4288.846191,4282.563965,4296.025879,4295.512695,4295.256348,4280.384766,4556.025879,4507.563965,4404.358887,4458.461426,,,,,,,,,,,,,,,,,,,,,,,,,,,,,,,,,,,,,,,,,,,,,,,,,,,,,,,,,,,,,,,,,,,,,,
1769162786.250001,1769162786.250508,125.0,0.0,4315.512695,4292.307617,4093.589844,4310.641113,4289.102539,4277.436035,4297.05127,4297.94873,4298.333496,4280.384766,4556.153809,4510.512695,4404.615234,4460.0,,,,,,,,,,,,,,,,,,,,,,,,,,,,,,,,,,,,,,,,,,,,,,,,,,,,,,,,,,,,,,,,,,,,,,
1769162786.25781,1769162786.258416,126.0,0.0,4320.256348,4291.282227,4100.128418,4309.743652,4290.256348,4267.94873,4298.333496,4296.410156,4292.179688,4276.666504,4556.666504,4510.384766,4404.230957,4461.794922,0.270275,0.90999,0.515359,0.237319,0.146118,0.691772,0.475238,0.376115,0.107626,0.205242,0.605894,0.460194,0.237766,0.115738,0.130738,0.319949,0.446387,0.305734,0.090763,0.118414,0.281366,0.39444,0.078478,0.100096,0.049469,0.207241,0.263316,0.149617,0.109036,0.09406,0.333533,0.238974,0.14702,0.1611,0.155019,0.54192,0.605494,0.390584,0.117021,0.154979,0.406114,0.76785,0.779023,0.166563,0.198115,0.33356,0.222388,0.439067,0.109676,0.138385,0.35448,0.799258,0.297867,0.205185,0.183318,1.134477,0.685283,0.231985,0.26974,0.251304,0.347812,0.676611,0.536081,0.42999,0.260515,0.383314,1.077859,0.482599,0.541165,0.333691
1769162786.265618,1769162786.266224,127.0,0.0,4328.333496,4296.153809,4106.538574,4312.179688,4289.358887,4265.641113,4294.871582,4294.358887,4290.256348,4276.025879,4555.128418,4508.077148,4399.487305,4461.282227,,,,,,,,,,,,,,,,,,,,,,,,,,,,,,,,,,,,,,,,,,,,,,,,,,,,,,,,,,,,,,,,,,,,,,
1769162786.273426,1769162786.274233,0.0,0.0,4326.922852,4294.743652,4100.897461,4313.077148,4290.641113,4272.563965,4294.102539,4295.641113,4292.179688,4271.025879,4551.666504,4507.05127,4395.769043,4457.436035,,,,,,,,,,,,,,,,,,,,,,,,,,,,,,,,,,,,,,,,,,,,,,,,,,,,,,,,,,,,,,,,,,,,,,
1769162786.281235,1769162786.282041,1.0,0.0,4310.641113,4280.128418,4094.487061,4307.436035,4292.436035,4279.102539,4303.077148,4296.282227,4284.358887,4261.538574,4550.256348,4508.077148,4395.641113,4456.538574,,,,,,,,,,,,,,,,,,,,,,,,,,,,,,,,,,,,,,,,,,,,,,,,,,,,,,,,,,,,,,,,,,,,,,
1769162786.289043,1769162786.28975,2.0,0.0,4311.025879,4285.769043,4101.794922,4310.384766,4292.94873,4267.820313,4297.563965,4293.461426,4277.692383,4267.94873,4555.256348,4508.717773,4404.743652,4466.025879,,,,,,,,,,,,,,,,,,,,,,,,,,,,,,,,,,,,,,,,,,,,,,,,,,,,,,,,,,,,,,,,,,,,,,
1769162786.296852,1769162786.297558,3.0,0.0,4329.358887,4307.563965,4109.743652,4320.384766,4293.717773,4248.974121,4281.666504,4294.615234,4287.692383,4281.538574,4558.974121,4508.461426,4411.538574,4475.256348,,,,,,,,,,,,,,,,,,,,,,,,,,,,,,,,,,,,,,,,,,,,,,,,,,,,,,,,,,,,,,,,,,,,,,
1769162786.30466,1769162786.305167,4.0,0.0,4331.538574,4305.128418,4109.871582,4320.897461,4293.077148,4251.282227,4287.05127,4295.256348,4294.487305,4279.358887,4556.282227,4511.922852,4405.384766,4473.461426,,,,,,,,,,,,,,,,,,,,,,,,,,,,,,,,,,,,,,,,,,,,,,,,,,,,,,,,,,,,,,,,,,,,,,
1769162786.312469,1769162786.312975,5.0,0.0,4321.538574,4291.794922,4110.256348,4316.794922,4291.922852,4266.025879,4298.589844,4295.769043,4291.410156,4275.128418,4558.589844,4518.846191,4403.974121,4471.794922,,,,,,,,,,,,,,,,,,,,,,,,,,,,,,,,,,,,,,,,,,,,,,,,,,,,,,,,,,,,,,,,,,,,,,
1769162786.320277,1769162786.320684,6.0,0.0,4322.692383,4294.615234,4115.256348,4316.922852,4292.692383,4265.128418,4293.205078,4300.256348,4293.846191,4280.256348,4568.333496,4526.794922,4409.743652,4477.563965,,,,,,,,,,,,,,,,,,,,,,,,,,,,,,,,,,,,,,,,,,,,,,,,,,,,,,,,,,,,,,,,,,,,,,
1769162786.328086,1769162786.328492,7.0,0.0,4323.461426,4296.922852,4115.769043,4317.05127,4293.077148,4261.794922,4289.871582,4300.128418,4295.512695,4280.897461,4569.743652,4526.410156,4410.897461,4473.717773,,,,,,,,,,,,,,,,,,,,,,,,,,,,,,,,,,,,,,,,,,,,,,,,,,,,,,,,,,,,,,,,,,,,,,
1769162786.335894,1769162786.336101,8.0,0.0,4316.666504,4293.461426,4109.487305,4318.461426,4291.538574,4270.128418,4295.769043,4296.922852,4290.897461,4277.94873,4559.615234,4515.512695,4405.769043,4457.692383,,,,,,,,,,,,,,,,,,,,,,,,,,,,,,,,,,,,,,,,,,,,,,,,,,,,,,,,,,,,,,,,,,,,,,
1769162786.343703,1769162786.343909,9.0,0.0,4320.641113,4296.666504,4112.692383,4320.256348,4291.282227,4271.025879,4295.512695,4296.282227,4288.589844,4279.102539,4557.05127,4511.794922,4407.179688,4460.769043,,,,,,,,,,,,,,,,,,,,,,,,,,,,,,,,,,,,,,,,,,,,,,,,,,,,,,,,,,,,,,,,,,,,,,
1769162786.351511,1769162786.351818,10.0,0.0,4330.384766,4298.077148,4120.128418,4315.256348,4290.384766,4265.0,4292.820313,4293.846191,4288.589844,4278.974121,4570.641113,4523.589844,4416.922852,4480.256348,,,,,,,,,,,,,,,,,,,,,,,,,,,,,,,,,,,,,,,,,,,,,,,,,,,,,,,,,,,,,,,,,,,,,,
1769162786.35932,1769162786.359626,11.0,0.0,4323.461426,4293.333496,4117.179688,4311.922852,4287.563965,4267.820313,4293.461426,4295.0,4290.384766,4276.666504,4574.615234,4530.769043,4417.179688,4482.05127,,,,,,,,,,,,,,,,,,,,,,,,,,,,,,,,,,,,,,,,,,,,,,,,,,,,,,,,,,,,,,,,,,,,,,
1769162786.367128,1769162786.367634,12.0,0.0,4309.743652,4292.179688,4111.282227,4313.974121,4289.230957,4276.410156,4293.333496,4293.717773,4287.05127,4271.922852,4560.0,4517.179688,4409.487305,4472.94873,,,,,,,,,,,,,,,,,,,,,,,,,,,,,,,,,,,,,,,,,,,,,,,,,,,,,,,,,,,,,,,,,,,,,,
1769162786.374936,1769162786.375443,13.0,0.0,4309.743652,4294.358887,4110.384766,4312.436035,4294.871582,4277.692383,4292.307617,4283.333496,4277.307617,4264.743652,4552.307617,4505.384766,4409.871582,4472.820313,,,,,,,,,,,,,,,,,,,,,,,,,,,,,,,,,,,,,,,,,,,,,,,,,,,,,,,,,,,,,,,,,,,,,,
1769162786.382745,1769162786.383151,14.0,0.0,4303.333496,4288.461426,4106.794922,4305.897461,4291.538574,4277.307617,4293.461426,4283.333496,4276.922852,4262.692383,4553.846191,4504.102539,4406.410156,4465.384766,0.276954,0.781217,0.50603,0.210329,0.142086,0.711575,0.504473,0.370115,0.105492,0.198262,0.661807,0.417512,0.249049,0.109541,0.117638,0.344587,0.352976,0.282553,0.094992,0.119459,0.251414,0.292167,0.074627,0.093532,0.047449,0.228878,0.342685,0.176663,0.125265,0.093702,0.301903,0.228235,0.130031,0.15634,0.146723,0.53113,0.548341,0.266201,0.108282,0.149874,0.402885,0.794858,0.566171,0.191207,0.187921,0.293594,0.213486,0.314651,0.111204,0.122854,0.392266,0.771815,0.311487,0.208348,0.198724,1.106061,0.586978,0.218499,0.279876,0.239242,0.306844,0.742179,0.559115,0.409824,0.275724,0.369003,0.997222,0.55041,0.498599,0.33042
1769162786.390553,1769162786.39096,15.0,0.0,4292.05127,4275.512695,4102.820313,4296.666504,4281.025879,4282.563965,4295.512695,4295.769043,4290.0,4268.461426,4554.743652,4507.307617,4398.077148,4458.205078,,,,,,,,,,,,,,,,,,,,,,,,,,,,,,,,,,,,,,,,,,,,,,,,,,,,,,,,,,,,,,,,,,,,,,
1769162786.398362,1769162786.398968,16.0,0.0,4301.153809,4276.282227,4107.179688,4295.641113,4276.410156,4279.743652,4297.692383,4298.461426,4298.461426,4280.384766,4565.641113,4517.436035,4406.410156,4470.897461,,,,,,,,,,,,,,,,,,,,,,,,,,,,,,,,,,,,,,,,,,,,,,,,,,,,,,,,,,,,,,,,,,,,,,
1769162786.40617,1769162786.406776,17.0,0.0,4315.0,4292.05127,4115.128418,4305.128418,4278.846191,4265.641113,4295.641113,4295.897461,4298.077148,4292.05127,4576.666504,4525.384766,4422.436035,4481.666504,,,,,,,,,,,,,,,,,,,,,,,,,,,,,,,,,,,,,,,,,,,,,,,,,,,,,,,,,,,,,,,,,,,,,,
1769162786.413979,1769162786.414685,18.0,0.0,4313.461426,4298.974121,4120.256348,4311.153809,4280.641113,4261.025879,4287.94873,4296.153809,4297.307617,4293.461426,4573.589844,4523.974121,4423.461426,4478.846191,,,,,,,,,,,,,,,,,,,,,,,,,,,,,,,,,,,,,,,,,,,,,,,,,,,,,,,,,,,,,,,,,,,,,,
1769162786.421787,1769162786.422493,19.0,0.0,4309.487305,4293.717773,4119.615234,4309.743652,4280.384766,4269.615234,4285.769043,4292.307617,4295.0,4285.384766,4569.743652,4521.282227,4416.666504,4476.025879,,,,,,,,,,,,,,,,,,,,,,,,,,,,,,,,,,,,,,,,,,,,,,,,,,,,,,,,,,,,,,,,,,,,,,
1769162786.429596,1769162786.430502,20.0,0.0,4309.743652,4291.794922,4119.230957,4309.487305,4283.846191,4273.077148,4291.410156,4292.307617,4294.615234,4278.717773,4570.769043,4523.589844,4412.94873,4477.436035,,,,,,,,,,,,,,,,,,,,,,,,,,,,,,,,,,,,,,,,,,,,,,,,,,,,,,,,,,,,,,,,,,,,,,
1769162786.437404,1769162786.43831,21.0,0.0,4309.743652,4295.897461,4124.743652,4310.641113,4288.205078,4271.025879,4293.333496,4294.487305,4293.461426,4277.436035,4568.461426,4524.615234,4415.128418,4484.871582,,,,,,,,,,,,,,,,,,,,,,,,,,,,,,,,,,,,,,,,,,,,,,,,,,,,,,,,,,,,,,,,,,,,,,
1769162786.445212,1769162786.446218,22.0,0.0,4314.615234,4295.384766,4126.153809,4310.256348,4285.128418,4274.487305,4289.102539,4289.102539,4286.153809,4275.256348,4566.666504,4522.563965,4417.307617,4487.820313,,,,,,,,,,,,,,,,,,,,,,,,,,,,,,,,,,,,,,,,,,,,,,,,,,,,,,,,,,,,,,,,,,,,,,
1769162786.453021,1769162786.454027,23.0,0.0,4316.025879,4292.436035,4125.897461,4309.487305,4280.0,4279.102539,4290.256348,4288.589844,4283.333496,4272.436035,4565.769043,4519.358887,4412.563965,4478.974121,,,,,,,,,,,,,,,,,,,,,,,,,,,,,,,,,,,,,,,,,,,,,,,,,,,,,,,,,,,,,,,,,,,,,,
1769162786.460829,1769162786.461935,24.0,0.0,4302.563965,4292.820313,4126.922852,4308.717773,4282.307617,4279.871582,4294.230957,4296.282227,4292.436035,4275.897461,4565.769043,4520.512695,4411.025879,4474.871582,,,,,,,,,,,,,,,,,,,,,,,,,,,,,,,,,,,,,,,,,,,,,,,,,,,,,,,,,,,,,,,,,,,,,,
1769162786.468638,1769162786.469744,25.0,0.0,4293.717773,4290.769043,4124.743652,4307.307617,4282.94873,4281.794922,4294.487305,4296.153809,4294.230957,4278.461426,4567.436035,4523.717773,4412.692383,4478.333496,,,,,,,,,,,,,,,,,,,,,,,,,,,,,,,,,,,,,,,,,,,,,,,,,,,,,,,,,,,,,,,,,,,,,,
1769162786.476446,1769162786.477452,26.0,0.0,4302.05127,4289.358887,4127.692383,4307.307617,4278.846191,4283.717773,4296.666504,4294.743652,4290.897461,4275.897461,4566.794922,4523.077148,4409.102539,4481.153809,,,,,,,,,,,,,,,,,,,,,,,,,,,,,,,,,,,,,,,,,,,,,,,,,,,,,,,,,,,,,,,,,,,,,,
1769162786.484255,1769162786.485261,27.0,0.0,4314.615234,4293.205078,4138.333496,4311.282227,4279.615234,4280.0,4295.384766,4302.820313,4301.922852,4279.615234,4569.358887,4531.282227,4411.025879,4486.922852,,,,,,,,,,,,,,,,,,,,,,,,,,,,,,,,,,,,,,,,,,,,,,,,,,,,,,,,,,,,,,,,,,,,,,
1769162786.492063,1769162786.492869,28.0,0.0,4313.461426,4296.025879,4142.820313,4313.589844,4281.025879,4275.0,4288.205078,4303.205078,4304.871582,4286.025879,4575.256348,4539.615234,4425.0,4496.153809,,,,,,,,,,,,,,,,,,,,,,,,,,,,,,,,,,,,,,,,,,,,,,,,,,,,,,,,,,,,,,,,,,,,,,
1769162786.499872,1769162786.500678,29.0,0.0,4301.153809,4292.820313,4137.94873,4310.256348,4278.717773,4275.512695,4286.153809,4292.179688,4286.666504,4282.179688,4574.102539,4531.538574,4429.358887,4495.512695,,,,,,,,,,,,,,,,,,,,,,,,,,,,,,,,,,,,,,,,,,,,,,,,,,,,,,,,,,,,,,,,,,,,,,
1769162786.50768,1769162786.508386,30.0,0.0,4294.487305,4292.179688,4135.384766,4308.846191,4278.461426,4275.897461,4289.487305,4288.589844,4280.0,4276.410156,4568.846191,4519.487305,4417.179688,4486.153809,0.294032,0.704543,0.471582,0.186731,0.13908,0.698465,0.546327,0.332763,0.099013,0.185866,0.73642,0.380534,0.236474,0.108549,0.111249,0.357561,0.305579,0.240435,0.095447,0.115696,0.232042,0.194921,0.068327,0.082825,0.045813,0.270022,0.441666,0.192796,0.150098,0.093,0.248495,0.224585,0.112107,0.145159,0.133457,0.488291,0.479316,0.172196,0.104162,0.145578,0.384855,0.785412,0.434434,0.21702,0.178504,0.260076,0.225644,0.260407,0.119951,0.109729,0.419756,0.72167,0.334377,0.213172,0.212265,0.994554,0.502387,0.236071,0.298988,0.229396,0.264461,0.828878,0.575454,0.389213,0.293301,0.334088,0.924232,0.584996,0.452617,0.3338
1769162786.515489,1769162786.516195,31.0,0.0,4294.358887,4292.307617,4136.538574,4312.179688,4279.615234,4274.743652,4291.025879,4292.692383,4292.05127,4278.717773,4569.743652,4520.384766,4412.307617,4483.461426,,,,,,,,,,,,,,,,,,,,,,,,,,,,,,,,,,,,,,,,,,,,,,,,,,,,,,,,,,,,,,,,,,,,,,
1769162786.523297,1769162786.523803,32.0,0.0,4295.128418,4286.282227,4140.0,4311.410156,4277.563965,4276.922852,4294.102539,4296.025879,4298.205078,4281.794922,4572.436035,4531.025879,4417.307617,4488.461426,,,,,,,,,,,,,,,,,,,,,,,,,,,,,,,,,,,,,,,,,,,,,,,,,,,,,,,,,,,,,,,,,,,,,,
1769162786.531105,1769162786.531612,33.0,0.0,4294.743652,4285.128418,4144.487305,4308.589844,4276.794922,4278.333496,4296.282227,4296.282227,4292.436035,4281.538574,4571.666504,4534.230957,4419.615234,4491.282227,,,,,,,,,,,,,,,,,,,,,,,,,,,,,,,,,,,,,,,,,,,,,,,,,,,,,,,,,,,,,,,,,,,,,,
1769162786.538914,1769162786.53932,34.0,0.0,4288.589844,4288.589844,4142.436035,4309.487305,4279.871582,4276.538574,4293.077148,4293.461426,4286.025879,4280.512695,4568.461426,4528.461426,4418.205078,4489.743652,,,,,,,,,,,,,,,,,,,,,,,,,,,,,,,,,,,,,,,,,,,,,,,,,,,,,,,,,,,,,,,,,,,,,,
1769162786.546722,1769162786.547129,35.0,0.0,4279.102539,4286.794922,4137.307617,4307.820313,4280.512695,4276.794922,4292.820313,4292.563965,4281.794922,4279.102539,4569.871582,4526.794922,4417.563965,4488.974121,,,,,,,,,,,,,,,,,,,,,,,,,,,,,,,,,,,,,,,,,,,,,,,,,,,,,,,,,,,,,,,,,,,,,,
1769162786.554531,1769162786.555137,36.0,0.0,4281.794922,4281.153809,4140.897461,4302.563965,4275.0,4278.717773,4295.256348,4295.384766,4282.820313,4278.077148,4570.641113,4530.641113,4414.615234,4483.461426,,,,,,,,,,,,,,,,,,,,,,,,,,,,,,,,,,,,,,,,,,,,,,,,,,,,,,,,,,,,,,,,,,,,,,
1769162786.562339,1769162786.562945,37.0,0.0,4289.871582,4281.538574,4150.897461,4304.102539,4271.922852,4279.102539,4294.102539,4296.666504,4282.692383,4276.794922,4562.94873,4525.384766,4407.307617,4474.615234,,,,,,,,,,,,,,,,,,,,,,,,,,,,,,,,,,,,,,,,,,,,,,,,,,,,,,,,,,,,,,,,,,,,,,
1769162786.570148,1769162786.570854,38.0,0.0,4284.871582,4283.717773,4154.358887,4310.641113,4276.666504,4278.846191,4293.717773,4295.897461,4281.025879,4277.436035,4558.461426,4519.871582,4404.743652,4475.0,,,,,,,,,,,,,,,,,,,,,,,,,,,,,,,,,,,,,,,,,,,,,,,,,,,,,,,,,,,,,,,,,,,,,,
1769162786.577956,1769162786.578662,39.0,0.0,4277.436035,4279.743652,4151.666504,4310.256348,4276.922852,4277.94873,4293.205078,4294.230957,4279.358887,4277.94873,4563.589844,4524.743652,4412.179688,4479.230957,,,,,,,,,,,,,,,,,,,,,,,,,,,,,,,,,,,,,,,,,,,,,,,,,,,,,,,,,,,,,,,,,,,,,,
1769162786.585765,1769162786.586271,40.0,0.0,4276.794922,4276.410156,4150.897461,4306.282227,4268.589844,4278.846191,4293.717773,4293.717773,4280.256348,4275.384766,4567.179688,4526.025879,4415.769043,4477.94873,,,,,,,,,,,,,,,,,,,,,,,,,,,,,,,,,,,,,,,,,,,,,,,,,,,,,,,,,,,,,,,,,,,,,,
1769162786.593573,1769162786.594079,41.0,0.0,4277.307617,4279.358887,4151.794922,4306.538574,4267.563965,4280.641113,4296.025879,4294.487305,4286.794922,4274.487305,4563.589844,4522.05127,4410.769043,4473.717773,,,,,,,,,,,,,,,,,,,,,,,,,,,,,,,,,,,,,,,,,,,,,,,,,,,,,,,,,,,,,,,,,,,,,,
1769162786.601381,1769162786.601788,42.0,0.0,4279.102539,4282.563965,4155.384766,4307.94873,4276.922852,4278.717773,4295.128418,4297.179688,4289.743652,4278.077148,4560.641113,4520.256348,4410.897461,4474.102539,,,,,,,,,,,,,,,,,,,,,,,,,,,,,,,,,,,,,,,,,,,,,,,,,,,,,,,,,,,,,,,,,,,,,,
1769162786.60919,1769162786.609596,43.0,0.0,4278.717773,4282.179688,4157.94873,4307.179688,4281.282227,4277.820313,4293.333496,4294.615234,4283.461426,4276.666504,4558.974121,4516.794922,4412.05127,4475.384766,,,,,,,,,,,,,,,,,,,,,,,,,,,,,,,,,,,,,,,,,,,,,,,,,,,,,,,,,,,,,,,,,,,,,,
1769162786.616998,1769162786.617605,44.0,0.0,4274.358887,4284.230957,4155.0,4307.05127,4277.05127,4280.384766,4293.589844,4287.436035,4277.307617,4269.230957,4555.769043,4513.846191,4408.077148,4472.94873,,,,,,,,,,,,,,,,,,,,,,,,,,,,,,,,,,,,,,,,,,,,,,,,,,,,,,,,,,,,,,,,,,,,,,
1769162786.624807,1769162786.625413,45.0,0.0,4275.128418,4287.563965,4157.94873,4306.922852,4273.717773,4280.0,4295.128418,4288.461426,4279.230957,4270.512695,4556.153809,4517.692383,4410.0,4474.102539,,,,,,,,,,,,,,,,,,,,,,,,,,,,,,,,,,,,,,,,,,,,,,,,,,,,,,,,,,,,,,,,,,,,,,
1769162786.632615,1769162786.633321,46.0,0.0,4279.615234,4288.846191,4168.077148,4307.179688,4275.128418,4277.94873,4296.153809,4294.487305,4284.871582,4277.820313,4562.05127,4525.0,4414.230957,4478.461426,0.332322,0.679357,0.428141,0.17745,0.139062,0.661125,0.59067,0.278526,0.091037,0.172265,0.651068,0.358193,0.207222,0.119373,0.111268,0.359894,0.311229,0.194281,0.092264,0.10886,0.233283,0.125796,0.0629,0.071632,0.04402,0.344048,0.531881,0.192832,0.180304,0.091969,0.193483,0.223478,0.095949,0.129911,0.119141,0.421032,0.404737,0.116098,0.103641,0.137542,0.350206,0.745121,0.382766,0.239851,0.167582,0.236275,0.257032,0.256235,0.135908,0.101585,0.429199,0.657117,0.348447,0.216556,0.219543,0.821836,0.436352,0.268734,0.323204,0.220138,0.230233,0.89932,0.586079,0.373375,0.304424,0.286057,0.844564,0.575083,0.412185,0.336857
1769162786.640424,1769162786.64113,47.0,0.0,4278.974121,4286.922852,4169.102539,4307.692383,4273.717773,4277.692383,4293.589844,4293.846191,4288.333496,4278.461426,4568.077148,4524.487305,4412.436035,4476.922852,,,,,,,,,,,,,,,,,,,,,,,,,,,,,,,,,,,,,,,,,,,,,,,,,,,,,,,,,,,,,,,,,,,,,,
1769162786.648232,1769162786.649138,48.0,0.0,4276.922852,4285.769043,4166.410156,4306.410156,4267.692383,4278.846191,4291.153809,4290.769043,4287.179688,4276.794922,4569.102539,4522.307617,4415.0,4476.794922,,,,,,,,,,,,,,,,,,,,,,,,,,,,,,,,,,,,,,,,,,,,,,,,,,,,,,,,,,,,,,,,,,,,,,
1769162786.656041,1769162786.656946,49.0,0.0,4275.512695,4288.333496,4168.205078,4306.153809,4264.487305,4280.897461,4294.358887,4293.846191,4281.410156,4278.974121,4566.922852,4524.743652,4419.871582,4480.512695,,,,,,,,,,,,,,,,,,,,,,,,,,,,,,,,,,,,,,,,,,,,,,,,,,,,,,,,,,,,,,,,,,,,,,
1769162786.663849,1769162786.664655,50.0,0.0,4274.230957,4291.922852,4170.512695,4308.205078,4266.922852,4278.333496,4294.230957,4294.102539,4278.974121,4279.102539,4564.358887,4523.974121,4414.358887,4478.974121,,,,,,,,,,,,,,,,,,,,,,,,,,,,,,,,,,,,,,,,,,,,,,,,,,,,,,,,,,,,,,,,,,,,,,
1769162786.671658,1769162786.672463,51.0,0.0,4277.94873,4294.102539,4175.897461,4311.282227,4267.692383,4274.230957,4290.256348,4293.333496,4285.0,4278.077148,4565.897461,4523.077148,4415.641113,4480.384766,,,,,,,,,,,,,,,,,,,,,,,,,,,,,,,,,,,,,,,,,,,,,,,,,,,,,,,,,,,,,,,,,,,,,,
1769162786.679466,1769162786.680072,52.0,0.0,4276.282227,4292.563965,4183.333496,4310.769043,4266.153809,4277.563965,4293.333496,4299.230957,4290.641113,4280.256348,4571.282227,4528.205078,4428.077148,4488.333496,,,,,,,,,,,,,,,,,,,,,,,,,,,,,,,,,,,,,,,,,,,,,,,,,,,,,,,,,,,,,,,,,,,,,,
1769162786.687275,1769162786.687881,53.0,0.0,4267.94873,4290.0,4183.846191,4305.897461,4265.0,4281.538574,4296.922852,4302.307617,4291.666504,4278.589844,4570.897461,4530.641113,4428.461426,4489.487305,,,,,,,,,,,,,,,,,,,,,,,,,,,,,,,,,,,,,,,,,,,,,,,,,,,,,,,,,,,,,,,,,,,,,,
1769162786.695083,1769162786.695589,54.0,0.0,4275.256348,4292.563965,4182.820313,4305.897461,4268.974121,4279.487305,4294.487305,4299.230957,4293.333496,4276.666504,4568.461426,4527.05127,4424.230957,4489.743652,,,,,,,,,,,,,,,,,,,,,,,,,,,,,,,,,,,,,,,,,,,,,,,,,,,,,,,,,,,,,,,,,,,,,,
1769162786.702891,1769162786.703398,55.0,0.0,4282.307617,4297.307617,4186.666504,4312.692383,4273.333496,4278.589844,4295.384766,4294.358887,4288.461426,4277.820313,4570.384766,4525.384766,4427.436035,4492.94873,,,,,,,,,,,,,,,,,,,,,,,,,,,,,,,,,,,,,,,,,,,,,,,,,,,,,,,,,,,,,,,,,,,,,,
1769162786.7107,1769162786.711006,56.0,0.0,4268.589844,4291.922852,4187.692383,4314.487305,4270.512695,4278.974121,4293.717773,4292.436035,4279.102539,4275.641113,4568.846191,4525.384766,4425.897461,4488.589844,,,,,,,,,,,,,,,,,,,,,,,,,,,,,,,,,,,,,,,,,,,,,,,,,,,,,,,,,,,,,,,,,,,,,,
1769162786.718508,1769162786.718815,57.0,0.0,4265.769043,4287.692383,4184.358887,4309.102539,4267.179688,4275.128418,4282.307617,4292.563965,4280.769043,4270.769043,4566.666504,4525.384766,4422.05127,4488.333496,,,,,,,,,,,,,,,,,,,,,,,,,,,,,,,,,,,,,,,,,,,,,,,,,,,,,,,,,,,,,,,,,,,,,,
1769162786.726317,1769162786.726523,58.0,0.0,4276.538574,4296.153809,4186.282227,4307.94873,4269.102539,4273.589844,4280.641113,4291.794922,4282.820313,4270.769043,4566.666504,4526.282227,4422.563965,4490.384766,,,,,,,,,,,,,,,,,,,,,,,,,,,,,,,,,,,,,,,,,,,,,,,,,,,,,,,,,,,,,,,,,,,,,,
1769162786.734125,1769162786.734332,59.0,0.0,4271.282227,4296.538574,4188.974121,4309.743652,4268.333496,4278.205078,4291.666504,4289.230957,4277.436035,4271.666504,4559.358887,4523.205078,4414.871582,4477.820313,,,,,,,,,,,,,,,,,,,,,,,,,,,,,,,,,,,,,,,,,,,,,,,,,,,,,,,,,,,,,,,,,,,,,,
1769162786.741934,1769162786.74234,60.0,0.0,4261.794922,4285.512695,4183.205078,4306.666504,4265.512695,4281.794922,4295.641113,4288.461426,4282.179688,4271.794922,4557.307617,4518.461426,4413.974121,4470.384766,,,,,,,,,,,,,,,,,,,,,,,,,,,,,,,,,,,,,,,,,,,,,,,,,,,,,,,,,,,,,,,,,,,,,,
1769162786.749742,1769162786.750148,61.0,0.0,4255.512695,4279.102539,4188.717773,4297.692383,4266.794922,4281.025879,4292.94873,4293.333496,4290.256348,4278.077148,4566.410156,4522.307617,4427.05127,4478.205078,,,,,,,,,,,,,,,,,,,,,,,,,,,,,,,,,,,,,,,,,,,,,,,,,,,,,,,,,,,,,,,,,,,,,,
1769162786.757551,1769162786.758057,62.0,0.0,4246.282227,4276.282227,4200.256348,4290.512695,4266.922852,4280.0,4294.871582,4298.717773,4285.0,4278.589844,4564.358887,4525.641113,4423.333496,4476.794922,0.417885,0.667252,0.394324,0.191895,0.145557,0.615808,0.613104,0.227154,0.087072,0.163756,0.614417,0.345318,0.170793,0.143915,0.115285,0.367396,0.350648,0.159248,0.086342,0.101546,0.249573,0.091609,0.061973,0.063786,0.042445,0.452488,0.588263,0.179295,0.211717,0.092666,0.148816,0.215388,0.083616,0.11407,0.107912,0.345216,0.330114,0.09641,0.104655,0.126511,0.300037,0.691283,0.384691,0.256658,0.157254,0.216135,0.313394,0.279898,0.156766,0.098408,0.417143,0.592252,0.342438,0.21716,0.217852,0.636051,0.390682,0.298691,0.347243,0.208061,0.20868,0.917097,0.587697,0.366523,0.302929,0.271101,0.743925,0.526528,0.386819,0.33168
1769162786.765359,1769162786.765865,63.0,0.0,4248.333496,4277.05127,4188.589844,4295.384766,4265.128418,4280.0,4294.743652,4296.794922,4279.743652,4268.461426,4552.563965,4520.128418,4406.538574,4468.589844,,,,,,,,,,,,,,,,,,,,,,,,,,,,,,,,,,,,,,,,,,,,,,,,,,,,,,,,,,,,,,,,,,,,,,
1769162786.773167,1769162786.773873,64.0,0.0,4252.563965,4281.922852,4181.794922,4298.077148,4264.230957,4274.230957,4291.410156,4291.922852,4281.282227,4267.820313,4552.820313,4518.717773,4410.769043,4471.538574,,,,,,,,,,,,,,,,,,,,,,,,,,,,,,,,,,,,,,,,,,,,,,,,,,,,,,,,,,,,,,,,,,,,,,
1769162786.780976,1769162786.781682,65.0,0.0,4245.641113,4281.538574,4200.512695,4291.282227,4262.820313,4266.410156,4292.05127,4295.897461,4283.461426,4277.94873,4559.871582,4527.563965,4424.615234,4477.436035,,,,,,,,,,,,,,,,,,,,,,,,,,,,,,,,,,,,,,,,,,,,,,,,,,,,,,,,,,,,,,,,,,,,,,
1769162786.788784,1769162786.78939,66.0,0.0,4250.641113,4283.461426,4204.615234,4298.717773,4263.077148,4268.717773,4286.794922,4292.563965,4280.384766,4278.846191,4562.94873,4533.461426,4426.025879,4482.307617,,,,,,,,,,,,,,,,,,,,,,,,,,,,,,,,,,,,,,,,,,,,,,,,,,,,,,,,,,,,,,,,,,,,,,
1769162786.796593,1769162786.797199,67.0,0.0,4268.461426,4290.384766,4203.461426,4311.153809,4265.0,4271.282227,4278.077148,4279.102539,4276.410156,4275.0,4568.846191,4535.512695,4426.538574,4490.641113,,,,,,,,,,,,,,,,,,,,,,,,,,,,,,,,,,,,,,,,,,,,,,,,,,,,,,,,,,,,,,,,,,,,,,
1769162786.804401,1769162786.805207,68.0,0.0,4266.025879,4283.333496,4218.333496,4301.282227,4263.846191,4267.307617,4280.769043,4284.615234,4283.205078,4278.717773,4574.743652,4541.153809,4430.641113,4497.179688,,,,,,,,,,,,,,,,,,,,,,,,,,,,,,,,,,,,,,,,,,,,,,,,,,,,,,,,,,,,,,,,,,,,,,
1769162786.81221,1769162786.813016,69.0,0.0,4252.563965,4277.563965,4213.717773,4295.641113,4261.153809,4271.153809,4289.358887,4297.94873,4286.922852,4281.538574,4574.102539,4541.538574,4428.589844,4496.538574,,,,,,,,,,,,,,,,,,,,,,,,,,,,,,,,,,,,,,,,,,,,,,,,,,,,,,,,,,,,,,,,,,,,,,
1769162786.820018,1769162786.820924,70.0,0.0,4255.128418,4292.179688,4202.820313,4310.897461,4263.333496,4279.487305,4294.615234,4290.0,4280.128418,4278.461426,4570.384766,4536.282227,4426.922852,4492.820313,,,,,,,,,,,,,,,,,,,,,,,,,,,,,,,,,,,,,,,,,,,,,,,,,,,,,,,,,,,,,,,,,,,,,,
1769162786.827827,1769162786.828732,71.0,0.0,4258.205078,4298.205078,4214.230957,4316.410156,4265.641113,4277.820313,4290.641113,4287.307617,4282.307617,4278.333496,4570.512695,4536.794922,4426.794922,4492.05127,,,,,,,,,,,,,,,,,,,,,,,,,,,,,,,,,,,,,,,,,,,,,,,,,,,,,,,,,,,,,,,,,,,,,,
1769162786.835635,1769162786.836741,72.0,0.0,4248.461426,4288.461426,4217.563965,4308.846191,4264.487305,4275.256348,4286.025879,4297.820313,4288.205078,4276.666504,4571.538574,4536.025879,4417.692383,4491.922852,,,,,,,,,,,,,,,,,,,,,,,,,,,,,,,,,,,,,,,,,,,,,,,,,,,,,,,,,,,,,,,,,,,,,,
1769162786.843444,1769162786.844549,73.0,0.0,4246.025879,4290.256348,4211.666504,4309.871582,4263.974121,4281.666504,4289.102539,4290.641113,4280.512695,4273.846191,4567.94873,4531.922852,4413.461426,4492.436035,,,,,,,,,,,,,,,,,,,,,,,,,,,,,,,,,,,,,,,,,,,,,,,,,,,,,,,,,,,,,,,,,,,,,,
1769162786.851252,1769162786.852258,74.0,0.0,4253.461426,4295.769043,4218.589844,4313.461426,4264.230957,4283.205078,4287.692383,4279.871582,4275.384766,4278.077148,4567.94873,4534.102539,4425.128418,4493.846191,,,,,,,,,,,,,,,,,,,,,,,,,,,,,,,,,,,,,,,,,,,,,,,,,,,,,,,,,,,,,,,,,,,,,,
1769162786.85906,1769162786.860066,75.0,0.0,4251.153809,4286.410156,4219.871582,4308.974121,4263.333496,4277.94873,4281.794922,4289.743652,4278.589844,4279.102539,4569.358887,4534.358887,4428.717773,4493.333496,,,,,,,,,,,,,,,,,,,,,,,,,,,,,,,,,,,,,,,,,,,,,,,,,,,,,,,,,,,,,,,,,,,,,,
1769162786.866869,1769162786.867675,76.0,0.0,4244.358887,4280.384766,4216.153809,4307.94873,4263.205078,4277.692383,4286.666504,4297.563965,4277.05127,4272.307617,4565.769043,4524.358887,4415.0,4489.230957,,,,,,,,,,,,,,,,,,,,,,,,,,,,,,,,,,,,,,,,,,,,,,,,,,,,,,,,,,,,,,,,,,,,,,
1769162786.874677,1769162786.875483,77.0,0.0,4248.461426,4291.153809,4227.94873,4313.846191,4265.0,4281.282227,4291.025879,4287.179688,4277.307617,4274.615234,4565.512695,4520.897461,4411.922852,4488.205078,,,,,,,,,,,,,,,,,,,,,,,,,,,,,,,,,,,,,,,,,,,,,,,,,,,,,,,,,,,,,,,,,,,,,,
1769162786.882486,1769162786.883391,78.0,0.0,4252.436035,4298.589844,4235.128418,4314.615234,4265.256348,4278.974121,4281.538574,4280.384766,4279.615234,4280.0,4570.128418,4529.743652,4423.205078,4491.538574,0.535686,0.627359,0.381958,0.230852,0.161072,0.57031,0.599341,0.192718,0.091264,0.164219,0.492195,0.339624,0.145068,0.176907,0.120647,0.395553,0.395644,0.14211,0.079205,0.095718,0.271744,0.086397,0.068078,0.061426,0.042161,0.577951,0.60135,0.161107,0.239145,0.097202,0.123648,0.193727,0.077089,0.100902,0.101876,0.271092,0.262444,0.107578,0.10579,0.115714,0.249551,0.639203,0.411203,0.267305,0.151553,0.192477,0.397734,0.317318,0.179041,0.097795,0.388301,0.541468,0.316585,0.216098,0.207153,0.478491,0.364861,0.316423,0.366873,0.191783,0.197017,0.865566,0.573298,0.369238,0.287357,0.323274,0.621333,0.459484,0.381717,0.314175
1769162786.890294,1769162786.8912,79.0,0.0,4249.743652,4293.846191,4230.128418,4308.461426,4263.974121,4272.436035,4279.230957,4287.563965,4277.692383,4274.102539,4570.512695,4535.256348,4425.384766,4492.94873,,,,,,,,,,,,,,,,,,,,,,,,,,,,,,,,,,,,,,,,,,,,,,,,,,,,,,,,,,,,,,,,,,,,,,
1769162786.898103,1769162786.898809,80.0,0.0,4246.538574,4291.922852,4229.743652,4308.205078,4262.436035,4275.384766,4290.384766,4293.974121,4283.205078,4274.615234,4571.666504,4537.05127,4426.025879,4493.974121,,,,,,,,,,,,,,,,,,,,,,,,,,,,,,,,,,,,,,,,,,,,,,,,,,,,,,,,,,,,,,,,,,,,,,
1769162786.905911,1769162786.906617,81.0,0.0,4246.410156,4293.717773,4235.256348,4312.820313,4262.05127,4283.717773,4296.794922,4295.641113,4290.256348,4282.436035,4574.871582,4540.256348,4430.384766,4494.230957,,,,,,,,,,,,,,,,,,,,,,,,,,,,,,,,,,,,,,,,,,,,,,,,,,,,,,,,,,,,,,,,,,,,,,
1769162786.91372,1769162786.914326,82.0,0.0,4246.410156,4290.0,4232.94873,4312.436035,4262.436035,4283.974121,4296.025879,4297.563965,4289.743652,4274.743652,4570.512695,4539.487305,4420.641113,4490.256348,,,,,,,,,,,,,,,,,,,,,,,,,,,,,,,,,,,,,,,,,,,,,,,,,,,,,,,,,,,,,,,,,,,,,,
1769162786.921528,1769162786.922134,83.0,0.0,4248.461426,4290.128418,4230.641113,4311.025879,4263.333496,4280.512695,4293.589844,4298.717773,4287.179688,4264.487305,4566.538574,4536.025879,4408.717773,4486.025879,,,,,,,,,,,,,,,,,,,,,,,,,,,,,,,,,,,,,,,,,,,,,,,,,,,,,,,,,,,,,,,,,,,,,,
1769162786.929336,1769162786.929743,84.0,0.0,4251.666504,4295.897461,4239.487305,4312.05127,4264.358887,4281.282227,4293.974121,4295.384766,4283.846191,4272.179688,4570.897461,4538.333496,4418.589844,4489.615234,,,,,,,,,,,,,,,,,,,,,,,,,,,,,,,,,,,,,,,,,,,,,,,,,,,,,,,,,,,,,,,,,,,,,,
1769162786.937145,1769162786.937551,85.0,0.0,4250.0,4294.102539,4248.461426,4312.05127,4263.461426,4282.563965,4296.153809,4292.436035,4278.333496,4277.94873,4573.846191,4541.922852,4431.153809,4493.974121,,,,,,,,,,,,,,,,,,,,,,,,,,,,,,,,,,,,,,,,,,,,,,,,,,,,,,,,,,,,,,,,,,,,,,
1769162786.944953,1769162786.945459,86.0,0.0,4244.743652,4286.410156,4243.333496,4311.922852,4262.436035,4282.436035,4296.410156,4292.692383,4278.589844,4269.871582,4570.897461,4538.717773,4426.538574,4492.563965,,,,,,,,,,,,,,,,,,,,,,,,,,,,,,,,,,,,,,,,,,,,,,,,,,,,,,,,,,,,,,,,,,,,,,
1769162786.952762,1769162786.953268,87.0,0.0,4243.589844,4287.94873,4236.282227,4312.179688,4263.589844,4279.102539,4290.897461,4294.743652,4284.358887,4270.641113,4569.102539,4538.205078,4426.538574,4492.05127,,,,,,,,,,,,,,,,,,,,,,,,,,,,,,,,,,,,,,,,,,,,,,,,,,,,,,,,,,,,,,,,,,,,,,
1769162786.96057,1769162786.961276,88.0,0.0,4245.384766,4295.128418,4241.922852,4312.307617,4265.0,4272.436035,4284.102539,4292.179688,4280.512695,4279.615234,4569.615234,4539.230957,4428.205078,4491.282227,,,,,,,,,,,,,,,,,,,,,,,,,,,,,,,,,,,,,,,,,,,,,,,,,,,,,,,,,,,,,,,,,,,,,,
1769162786.968379,1769162786.969085,89.0,0.0,4247.179688,4295.256348,4247.820313,4311.666504,4265.256348,4273.205078,4285.256348,4290.512695,4280.897461,4279.358887,4569.871582,4538.461426,4418.205078,4487.436035,,,,,,,,,,,,,,,,,,,,,,,,,,,,,,,,,,,,,,,,,,,,,,,,,,,,,,,,,,,,,,,,,,,,,,
1769162786.976187,1769162786.976993,90.0,0.0,4249.871582,4289.871582,4247.692383,4312.94873,4263.461426,4275.897461,4289.102539,4295.256348,4293.205078,4276.922852,4570.769043,4541.922852,4417.563965,4490.384766,,,,,,,,,,,,,,,,,,,,,,,,,,,,,,,,,,,,,,,,,,,,,,,,,,,,,,,,,,,,,,,,,,,,,,
1769162786.983996,1769162786.984801,91.0,0.0,4244.358887,4284.102539,4248.461426,4312.05127,4261.410156,4269.615234,4288.589844,4297.307617,4291.666504,4280.641113,4572.563965,4544.743652,4425.0,4495.384766,,,,,,,,,,,,,,,,,,,,,,,,,,,,,,,,,,,,,,,,,,,,,,,,,,,,,,,,,,,,,,,,,,,,,,
1769162786.991804,1769162786.99241,92.0,0.0,4233.333496,4278.717773,4247.820313,4306.410156,4264.358887,4265.128418,4289.487305,4291.666504,4277.05127,4280.0,4569.102539,4538.461426,4416.025879,4482.820313,,,,,,,,,,,,,,,,,,,,,,,,,,,,,,,,,,,,,,,,,,,,,,,,,,,,,,,,,,,,,,,,,,,,,,
1769162786.999613,1769162787.000218,93.0,0.0,4232.563965,4277.436035,4246.666504,4303.205078,4267.94873,4268.846191,4293.974121,4292.307617,4280.384766,4275.128418,4562.563965,4531.922852,4406.025879,4469.871582,,,,,,,,,,,,,,,,,,,,,,,,,,,,,,,,,,,,,,,,,,,,,,,,,,,,,,,,,,,,,,,,,,,,,,
1769162787.007421,1769162787.007927,94.0,0.0,4236.025879,4280.256348,4248.717773,4300.512695,4266.282227,4273.205078,4297.820313,4303.846191,4294.615234,4273.077148,4561.794922,4537.563965,4411.153809,4482.820313,0.688798,0.543205,0.386615,0.284234,0.185243,0.555764,0.549446,0.176747,0.104444,0.172356,0.464437,0.336093,0.134348,0.207906,0.126092,0.458878,0.42577,0.138353,0.072773,0.0922,0.28934,0.100105,0.081393,0.063976,0.044176,0.703793,0.582948,0.145939,0.257058,0.105724,0.110171,0.160508,0.079819,0.092784,0.100841,0.206705,0.208841,0.142333,0.106788,0.10803,0.210133,0.595994,0.44452,0.276277,0.152705,0.16333,0.499757,0.360902,0.199078,0.096803,0.357827,0.510929,0.281543,0.215973,0.190045,0.380981,0.35995,0.321566,0.379765,0.173024,0.197093,0.758972,0.536298,0.377238,0.261776,0.444688,0.497779,0.394269,0.394296,0.28593
1769162787.01523,1769162787.015735,95.0,0.0,4232.05127,4278.589844,4251.538574,4297.692383,4266.922852,4275.897461,4297.563965,4305.256348,4290.897461,4269.871582,4560.384766,4539.871582,4413.461426,4497.179688,,,,,,,,,,,,,,,,,,,,,,,,,,,,,,,,,,,,,,,,,,,,,,,,,,,,,,,,,,,,,,,,,,,,,,
1769162787.023038,1769162787.023744,96.0,0.0,4229.615234,4274.743652,4250.128418,4301.282227,4275.0,4275.384766,4290.0,4290.384766,4277.692383,4271.794922,4556.025879,4527.179688,4411.410156,4487.05127,,,,,,,,,,,,,,,,,,,,,,,,,,,,,,,,,,,,,,,,,,,,,,,,,,,,,,,,,,,,,,,,,,,,,,
1769162787.030846,1769162787.031552,97.0,0.0,4227.820313,4275.256348,4247.563965,4304.871582,4280.384766,4275.128418,4288.205078,4286.538574,4278.333496,4276.794922,4557.563965,4518.077148,4411.153809,4476.282227,,,,,,,,,,,,,,,,,,,,,,,,,,,,,,,,,,,,,,,,,,,,,,,,,,,,,,,,,,,,,,,,,,,,,,
1769162787.038655,1769162787.039261,98.0,0.0,4223.205078,4277.436035,4251.922852,4304.615234,4278.846191,4275.256348,4295.0,4298.717773,4290.128418,4280.128418,4566.025879,4527.563965,4411.794922,4484.743652,,,,,,,,,,,,,,,,,,,,,,,,,,,,,,,,,,,,,,,,,,,,,,,,,,,,,,,,,,,,,,,,,,,,,,
1769162787.046463,1769162787.047069,99.0,0.0,4228.077148,4279.102539,4260.512695,4308.333496,4276.666504,4268.846191,4293.461426,4298.846191,4296.666504,4286.025879,4571.025879,4537.94873,4420.512695,4493.717773,,,,,,,,,,,,,,,,,,,,,,,,,,,,,,,,,,,,,,,,,,,,,,,,,,,,,,,,,,,,,,,,,,,,,,
1769162787.054272,1769162787.054678,100.0,0.0,4231.922852,4277.307617,4258.974121,4309.102539,4275.512695,4263.077148,4288.717773,4291.153809,4293.717773,4287.94873,4571.794922,4536.410156,4431.410156,4494.358887,,,,,,,,,,,,,,,,,,,,,,,,,,,,,,,,,,,,,,,,,,,,,,,,,,,,,,,,,,,,,,,,,,,,,,
1769162787.06208,1769162787.062486,101.0,0.0,4221.666504,4273.333496,4254.358887,4300.384766,4276.410156,4266.666504,4293.205078,4298.589844,4292.820313,4283.717773,4575.128418,4538.205078,4430.897461,4492.94873,,,,,,,,,,,,,,,,,,,,,,,,,,,,,,,,,,,,,,,,,,,,,,,,,,,,,,,,,,,,,,,,,,,,,,
1769162787.069889,1769162787.070195,102.0,0.0,4214.230957,4273.333496,4259.487305,4295.769043,4279.102539,4266.666504,4297.05127,4306.025879,4297.05127,4281.025879,4573.077148,4541.922852,4420.897461,4482.563965,,,,,,,,,,,,,,,,,,,,,,,,,,,,,,,,,,,,,,,,,,,,,,,,,,,,,,,,,,,,,,,,,,,,,,
1769162787.077697,1769162787.078003,103.0,0.0,4223.333496,4278.717773,4263.717773,4299.871582,4280.384766,4261.794922,4294.743652,4299.615234,4292.563965,4277.563965,4563.589844,4537.179688,4412.820313,4470.256348,,,,,,,,,,,,,,,,,,,,,,,,,,,,,,,,,,,,,,,,,,,,,,,,,,,,,,,,,,,,,,,,,,,,,,
1769162787.085506,1769162787.086011,104.0,0.0,4231.538574,4282.05127,4263.974121,4305.769043,4280.0,4261.666504,4295.0,4294.358887,4282.692383,4274.102539,4561.282227,4534.871582,4412.307617,4476.282227,,,,,,,,,,,,,,,,,,,,,,,,,,,,,,,,,,,,,,,,,,,,,,,,,,,,,,,,,,,,,,,,,,,,,,
1769162787.093314,1769162787.09382,105.0,0.0,4231.153809,4282.94873,4267.436035,4310.256348,4278.974121,4261.538574,4297.179688,4293.717773,4284.102539,4278.589844,4570.256348,4541.410156,4418.846191,4491.922852,,,,,,,,,,,,,,,,,,,,,,,,,,,,,,,,,,,,,,,,,,,,,,,,,,,,,,,,,,,,,,,,,,,,,,
1769162787.101123,1769162787.101528,106.0,0.0,4230.641113,4285.128418,4268.717773,4310.128418,4280.256348,4259.102539,4297.05127,4297.307617,4291.922852,4281.282227,4574.743652,4544.102539,4422.179688,4490.128418,,,,,,,,,,,,,,,,,,,,,,,,,,,,,,,,,,,,,,,,,,,,,,,,,,,,,,,,,,,,,,,,,,,,,,
1769162787.108931,1769162787.109337,107.0,0.0,4230.0,4287.820313,4270.256348,4308.589844,4286.282227,4261.922852,4295.512695,4304.102539,4291.922852,4276.410156,4569.230957,4540.128418,4414.743652,4475.641113,,,,,,,,,,,,,,,,,,,,,,,,,,,,,,,,,,,,,,,,,,,,,,,,,,,,,,,,,,,,,,,,,,,,,,
1769162787.116739,1769162787.116946,108.0,0.0,4228.717773,4291.153809,4275.641113,4309.871582,4291.025879,4265.512695,4294.871582,4303.589844,4284.102539,4276.666504,4566.025879,4538.205078,4410.641113,4475.897461,,,,,,,,,,,,,,,,,,,,,,,,,,,,,,,,,,,,,,,,,,,,,,,,,,,,,,,,,,,,,,,,,,,,,,
1769162787.124548,1769162787.124754,109.0,0.0,4231.538574,4293.205078,4277.820313,4311.538574,4287.05127,4263.717773,4293.589844,4297.436035,4283.077148,4279.487305,4573.077148,4543.589844,4418.205078,4493.589844,,,,,,,,,,,,,,,,,,,,,,,,,,,,,,,,,,,,,,,,,,,,,,,,,,,,,,,,,,,,,,,,,,,,,,
1769162787.132356,1769162787.132463,110.0,0.0,4231.666504,4293.205078,4278.974121,4310.897461,4286.153809,4262.820313,4290.769043,4294.487305,4284.743652,4273.461426,4575.256348,4544.230957,4420.512695,4497.820313,0.838005,0.443933,0.404265,0.336085,0.214311,0.590076,0.479594,0.173727,0.124421,0.183644,0.438674,0.336378,0.140791,0.227613,0.132291,0.539974,0.435063,0.142156,0.069066,0.09155,0.287518,0.123295,0.09878,0.068385,0.048455,0.783588,0.551002,0.1395,0.26108,0.115769,0.099895,0.126352,0.09743,0.090812,0.102836,0.15905,0.178545,0.188617,0.107535,0.105569,0.190783,0.563207,0.469104,0.285542,0.159579,0.135846,0.59462,0.402872,0.21293,0.094684,0.348451,0.496859,0.252734,0.219156,0.170563,0.35667,0.379576,0.319691,0.384699,0.155396,0.217458,0.635293,0.47843,0.384569,0.235427,0.633527,0.41245,0.350806,0.415465,0.252037
1769162787.140165,1769162787.140271,111.0,0.0,4220.256348,4287.94873,4275.0,4307.436035,4288.333496,4266.410156,4292.436035,4295.897461,4281.794922,4264.615234,4561.282227,4530.0,4405.897461,4479.615234,,,,,,,,,,,,,,,,,,,,,,,,,,,,,,,,,,,,,,,,,,,,,,,,,,,,,,,,,,,,,,,,,,,,,,
1769162787.147973,1769162787.148279,112.0,0.0,4216.282227,4281.794922,4266.794922,4305.128418,4284.871582,4266.282227,4290.897461,4295.384766,4278.717773,4263.974121,4553.846191,4524.743652,4399.102539,4475.897461,,,,,,,,,,,,,,,,,,,,,,,,,,,,,,,,,,,,,,,,,,,,,,,,,,,,,,,,,,,,,,,,,,,,,,
1769162787.155782,1769162787.156088,113.0,0.0,4222.436035,4279.871582,4270.0,4305.512695,4280.641113,4261.410156,4282.436035,4291.410156,4277.436035,4266.153809,4561.794922,4532.436035,4405.384766,4486.025879,,,,,,,,,,,,,,,,,,,,,,,,,,,,,,,,,,,,,,,,,,,,,,,,,,,,,,,,,,,,,,,,,,,,,,
1769162787.16359,1769162787.163996,114.0,0.0,4222.820313,4281.538574,4280.256348,4309.615234,4281.666504,4258.846191,4282.179688,4288.589844,4275.0,4262.563965,4559.871582,4529.615234,4402.563965,4481.282227,,,,,,,,,,,,,,,,,,,,,,,,,,,,,,,,,,,,,,,,,,,,,,,,,,,,,,,,,,,,,,,,,,,,,,
1769162787.171399,1769162787.171804,115.0,0.0,4218.205078,4281.153809,4280.641113,4309.230957,4281.794922,4261.794922,4291.666504,4294.871582,4276.410156,4260.128418,4550.897461,4522.94873,4395.128418,4472.307617,,,,,,,,,,,,,,,,,,,,,,,,,,,,,,,,,,,,,,,,,,,,,,,,,,,,,,,,,,,,,,,,,,,,,,
1769162787.179207,1769162787.179813,116.0,0.0,4212.94873,4276.282227,4275.384766,4301.666504,4281.538574,4266.666504,4297.307617,4301.410156,4281.922852,4263.461426,4551.922852,4524.102539,4395.128418,4474.358887,,,,,,,,,,,,,,,,,,,,,,,,,,,,,,,,,,,,,,,,,,,,,,,,,,,,,,,,,,,,,,,,,,,,,,
1769162787.187015,1769162787.187621,117.0,0.0,4209.743652,4278.717773,4277.05127,4302.307617,4286.538574,4266.282227,4293.205078,4295.384766,4275.384766,4263.846191,4553.846191,4523.589844,4397.692383,4477.563965,,,,,,,,,,,,,,,,,,,,,,,,,,,,,,,,,,,,,,,,,,,,,,,,,,,,,,,,,,,,,,,,,,,,,,
1769162787.194824,1769162787.19553,118.0,0.0,4217.307617,4289.358887,4285.256348,4311.025879,4288.846191,4259.743652,4286.666504,4290.641113,4270.0,4264.871582,4552.820313,4526.153809,4401.025879,4476.410156,,,,,,,,,,,,,,,,,,,,,,,,,,,,,,,,,,,,,,,,,,,,,,,,,,,,,,,,,,,,,,,,,,,,,,
1769162787.202632,1769162787.203338,119.0,0.0,4227.179688,4292.563965,4294.102539,4313.717773,4286.666504,4258.974121,4285.897461,4291.025879,4276.025879,4270.641113,4554.358887,4536.282227,4404.102539,4478.333496,,,,,,,,,,,,,,,,,,,,,,,,,,,,,,,,,,,,,,,,,,,,,,,,,,,,,,,,,,,,,,,,,,,,,,
1769162787.210441,1769162787.211346,120.0,0.0,4221.025879,4285.0,4294.487305,4310.0,4286.922852,4264.487305,4291.153809,4291.410156,4279.358887,4273.717773,4554.487305,4538.717773,4403.717773,4479.230957,,,,,,,,,,,,,,,,,,,,,,,,,,,,,,,,,,,,,,,,,,,,,,,,,,,,,,,,,,,,,,,,,,,,,,
1769162787.218249,1769162787.219155,121.0,0.0,4210.769043,4278.333496,4288.974121,4308.077148,4287.94873,4265.897461,4294.871582,4293.717773,4279.230957,4277.179688,4555.769043,4536.922852,4407.820313,4479.102539,,,,,,,,,,,,,,,,,,,,,,,,,,,,,,,,,,,,,,,,,,,,,,,,,,,,,,,,,,,,,,,,,,,,,,
1769162787.226058,1769162787.226863,122.0,0.0,4212.307617,4277.307617,4289.615234,4307.436035,4284.615234,4263.974121,4293.717773,4295.384766,4280.769043,4279.102539,4558.589844,4538.333496,4413.846191,4484.230957,,,,,,,,,,,,,,,,,,,,,,,,,,,,,,,,,,,,,,,,,,,,,,,,,,,,,,,,,,,,,,,,,,,,,,
1769162787.233866,1769162787.234672,123.0,0.0,4214.102539,4277.563965,4293.589844,4307.563965,4280.256348,4263.846191,4293.333496,4295.0,4279.743652,4271.282227,4556.538574,4537.692383,4408.205078,4488.846191,,,,,,,,,,,,,,,,,,,,,,,,,,,,,,,,,,,,,,,,,,,,,,,,,,,,,,,,,,,,,,,,,,,,,,
1769162787.241675,1769162787.24228,124.0,0.0,4214.358887,4278.205078,4294.871582,4309.615234,4281.282227,4265.512695,4294.615234,4292.179688,4276.538574,4263.717773,4551.794922,4534.358887,4396.922852,4480.512695,,,,,,,,,,,,,,,,,,,,,,,,,,,,,,,,,,,,,,,,,,,,,,,,,,,,,,,,,,,,,,,,,,,,,,
1769162787.249483,1769162787.250089,125.0,0.0,4218.846191,4278.974121,4295.512695,4311.538574,4282.692383,4265.512695,4296.153809,4289.743652,4277.563965,4266.282227,4552.307617,4535.641113,4396.794922,4474.358887,,,,,,,,,,,,,,,,,,,,,,,,,,,,,,,,,,,,,,,,,,,,,,,,,,,,,,,,,,,,,,,,,,,,,,
1769162787.257291,1769162787.257997,126.0,0.0,4219.358887,4279.743652,4296.794922,4310.769043,4281.025879,4263.205078,4295.256348,4294.102539,4277.307617,4267.307617,4556.922852,4536.410156,4407.307617,4486.794922,0.976875,0.369392,0.429961,0.370952,0.242408,0.691675,0.412239,0.176578,0.146513,0.19279,0.461257,0.336536,0.157888,0.23246,0.141076,0.63088,0.427421,0.149516,0.069522,0.094113,0.265748,0.150236,0.116713,0.070929,0.053564,0.805218,0.52104,0.142809,0.249089,0.123207,0.088979,0.106323,0.133898,0.094676,0.105346,0.130482,0.174673,0.233194,0.108568,0.10991,0.193635,0.532939,0.476291,0.293559,0.169084,0.123554,0.650681,0.433777,0.217017,0.093278,0.38383,0.483837,0.240807,0.224726,0.15177,0.408921,0.415778,0.315823,0.38074,0.142429,0.273058,0.533727,0.410632,0.388495,0.218468,0.871091,0.389836,0.332175,0.432561,0.219841
1769162787.2651,1769162787.265806,127.0,0.0,4212.94873,4276.410156,4295.256348,4304.871582,4280.384766,4263.333496,4293.461426,4296.922852,4277.179688,4266.666504,4559.230957,4530.384766,4413.846191,4495.641113,,,,,,,,,,,,,,,,,,,,,,,,,,,,,,,,,,,,,,,,,,,,,,,,,,,,,,,,,,,,,,,,,,,,,,
1769162787.272909,1769162787.273814,0.0,0.0,4212.94873,4275.384766,4293.589844,4305.256348,4282.820313,4266.794922,4292.820313,4285.128418,4276.666504,4272.179688,4555.512695,4527.692383,4409.230957,4488.717773,,,,,,,,,,,,,,,,,,,,,,,,,,,,,,,,,,,,,,,,,,,,,,,,,,,,,,,,,,,,,,,,,,,,,,
1769162787.280717,1769162787.281622,1.0,0.0,4216.025879,4279.487305,4298.846191,4311.153809,4282.436035,4266.153809,4289.615234,4280.641113,4275.512695,4276.794922,4555.769043,4534.743652,4406.025879,4487.563965,,,,,,,,,,,,,,,,,,,,,,,,,,,,,,,,,,,,,,,,,,,,,,,,,,,,,,,,,,,,,,,,,,,,,,
1769162787.288525,1769162787.289531,2.0,0.0,4213.974121,4277.179688,4303.205078,4308.205078,4278.333496,4263.333496,4289.230957,4294.743652,4278.717773,4277.179688,4562.179688,4539.871582,4410.641113,4492.05127,,,,,,,,,,,,,,,,,,,,,,,,,,,,,,,,,,,,,,,,,,,,,,,,,,,,,,,,,,,,,,,,,,,,,,
1769162787.296334,1769162787.297339,3.0,0.0,4212.94873,4272.05127,4303.589844,4302.820313,4278.333496,4265.384766,4292.820313,4298.333496,4280.256348,4278.717773,4564.871582,4539.871582,4414.487305,4493.717773,,,,,,,,,,,,,,,,,,,,,,,,,,,,,,,,,,,,,,,,,,,,,,,,,,,,,,,,,,,,,,,,,,,,,,
1769162787.304142,1769162787.304948,4.0,0.0,4216.025879,4278.589844,4303.589844,4305.384766,4282.179688,4267.05127,4292.179688,4286.025879,4277.820313,4281.666504,4563.846191,4535.897461,4413.974121,4495.128418,,,,,,,,,,,,,,,,,,,,,,,,,,,,,,,,,,,,,,,,,,,,,,,,,,,,,,,,,,,,,,,,,,,,,,
1769162787.311951,1769162787.312756,5.0,0.0,4216.410156,4282.436035,4300.0,4306.410156,4282.436035,4269.487305,4291.922852,4287.179688,4279.358887,4281.538574,4558.333496,4523.333496,4410.384766,4485.0,,,,,,,,,,,,,,,,,,,,,,,,,,,,,,,,,,,,,,,,,,,,,,,,,,,,,,,,,,,,,,,,,,,,,,
1769162787.319759,1769162787.320465,6.0,0.0,4212.692383,4276.025879,4296.794922,4303.846191,4279.871582,4274.102539,4295.897461,4296.794922,4283.077148,4278.077148,4554.102539,4520.512695,4409.358887,4475.384766,,,,,,,,,,,,,,,,,,,,,,,,,,,,,,,,,,,,,,,,,,,,,,,,,,,,,,,,,,,,,,,,,,,,,,
1769162787.327568,1769162787.328273,7.0,0.0,4214.871582,4280.769043,4301.538574,4307.692383,4279.615234,4271.153809,4293.205078,4290.128418,4281.410156,4278.077148,4562.820313,4532.05127,4414.743652,4489.230957,,,,,,,,,,,,,,,,,,,,,,,,,,,,,,,,,,,,,,,,,,,,,,,,,,,,,,,,,,,,,,,,,,,,,,
1769162787.335376,1769162787.336281,8.0,0.0,4218.461426,4289.487305,4307.436035,4310.769043,4281.025879,4265.512695,4288.205078,4279.358887,4276.794922,4279.615234,4567.179688,4529.743652,4415.897461,4494.743652,,,,,,,,,,,,,,,,,,,,,,,,,,,,,,,,,,,,,,,,,,,,,,,,,,,,,,,,,,,,,,,,,,,,,,
1769162787.343185,1769162787.34409,9.0,0.0,4209.743652,4282.820313,4303.205078,4306.025879,4281.153809,4267.307617,4292.563965,4285.897461,4279.743652,4276.153809,4556.538574,4521.025879,4410.0,4477.05127,,,,,,,,,,,,,,,,,,,,,,,,,,,,,,,,,,,,,,,,,,,,,,,,,,,,,,,,,,,,,,,,,,,,,,
1769162787.350993,1769162787.351998,10.0,0.0,4203.717773,4277.692383,4301.922852,4304.358887,4281.410156,4273.205078,4297.05127,4296.153809,4286.153809,4273.717773,4556.922852,4530.384766,4408.846191,4477.692383,,,,,,,,,,,,,,,,,,,,,,,,,,,,,,,,,,,,,,,,,,,,,,,,,,,,,,,,,,,,,,,,,,,,,,
1769162787.358801,1769162787.359807,11.0,0.0,4213.077148,4287.563965,4313.461426,4309.743652,4283.205078,4275.769043,4294.615234,4294.615234,4285.897461,4277.179688,4571.538574,4542.436035,4413.589844,4495.897461,,,,,,,,,,,,,,,,,,,,,,,,,,,,,,,,,,,,,,,,,,,,,,,,,,,,,,,,,,,,,,,,,,,,,,
1769162787.36661,1769162787.367815,12.0,0.0,4221.538574,4295.512695,4321.410156,4312.05127,4282.820313,4274.871582,4292.563965,4292.94873,4281.153809,4279.487305,4573.077148,4541.025879,4415.256348,4496.922852,,,,,,,,,,,,,,,,,,,,,,,,,,,,,,,,,,,,,,,,,,,,,,,,,,,,,,,,,,,,,,,,,,,,,,
1769162787.374418,1769162787.375623,13.0,0.0,4215.128418,4290.0,4315.897461,4309.487305,4279.102539,4272.820313,4296.538574,4293.974121,4280.384766,4273.589844,4563.974121,4539.358887,4412.436035,4488.846191,,,,,,,,,,,,,,,,,,,,,,,,,,,,,,,,,,,,,,,,,,,,,,,,,,,,,,,,,,,,,,,,,,,,,,
1769162787.382227,1769162787.383532,14.0,0.0,4206.153809,4282.820313,4309.487305,4307.692383,4277.05127,4269.230957,4293.717773,4293.589844,4281.922852,4266.538574,4558.077148,4540.641113,4405.512695,4483.717773,1.078854,0.337045,0.452903,0.378506,0.26395,0.86135,0.359294,0.178996,0.165061,0.19572,0.472222,0.329319,0.175875,0.225333,0.153612,0.711129,0.4078,0.158047,0.074441,0.09948,0.232401,0.177861,0.132544,0.069034,0.057548,0.744895,0.504087,0.149582,0.22197,0.124354,0.07917,0.111284,0.185757,0.102852,0.107094,0.119428,0.190753,0.265993,0.111046,0.122084,0.212409,0.492918,0.471407,0.296284,0.178364,0.140712,0.642074,0.447244,0.209516,0.094544,0.477548,0.457623,0.249647,0.228687,0.135298,0.523681,0.45222,0.313374,0.367114,0.135553,0.373265,0.474598,0.348171,0.389157,0.216329,1.108224,0.427928,0.324704,0.435111,0.198084
1769162787.390035,1769162787.39134,15.0,0.0,4205.641113,4281.025879,4311.538574,4308.846191,4277.436035,4266.282227,4285.0,4292.563965,4280.256348,4264.871582,4554.743652,4533.077148,4397.820313,4477.436035,,,,,,,,,,,,,,,,,,,,,,,,,,,,,,,,,,,,,,,,,,,,,,,,,,,,,,,,,,,,,,,,,,,,,,
1769162787.397844,1769162787.399348,16.0,0.0,4206.538574,4280.641113,4317.179688,4308.589844,4278.077148,4266.794922,4288.717773,4283.333496,4276.025879,4262.307617,4553.974121,4523.974121,4393.205078,4475.641113,,,,,,,,,,,,,,,,,,,,,,,,,,,,,,,,,,,,,,,,,,,,,,,,,,,,,,,,,,,,,,,,,,,,,,
1769162787.405652,1769162787.407157,17.0,0.0,4204.615234,4277.307617,4318.333496,4306.282227,4278.717773,4267.179688,4290.0,4276.922852,4275.256348,4266.922852,4555.641113,4528.717773,4396.538574,4479.230957,,,,,,,,,,,,,,,,,,,,,,,,,,,,,,,,,,,,,,,,,,,,,,,,,,,,,,,,,,,,,,,,,,,,,,
1769162787.413461,1769162787.414865,18.0,0.0,4200.512695,4274.487305,4316.282227,4307.179688,4279.102539,4263.333496,4280.897461,4287.94873,4281.538574,4279.230957,4556.794922,4541.922852,4404.102539,4480.384766,,,,,,,,,,,,,,,,,,,,,,,,,,,,,,,,,,,,,,,,,,,,,,,,,,,,,,,,,,,,,,,,,,,,,,
1769162787.421269,1769162787.422674,19.0,0.0,4199.230957,4274.487305,4316.410156,4308.974121,4278.461426,4265.0,4283.846191,4296.282227,4284.871582,4276.666504,4555.769043,4537.436035,4400.256348,4475.0,,,,,,,,,,,,,,,,,,,,,,,,,,,,,,,,,,,,,,,,,,,,,,,,,,,,,,,,,,,,,,,,,,,,,,
1769162787.429078,1769162787.430282,20.0,0.0,4209.230957,4277.179688,4320.256348,4307.94873,4277.692383,4267.436035,4290.256348,4290.128418,4278.717773,4263.333496,4552.94873,4523.205078,4390.641113,4471.153809,,,,,,,,,,,,,,,,,,,,,,,,,,,,,,,,,,,,,,,,,,,,,,,,,,,,,,,,,,,,,,,,,,,,,,
1769162787.436886,1769162787.438091,21.0,0.0,4216.666504,4279.871582,4322.820313,4308.077148,4277.307617,4264.615234,4284.615234,4289.743652,4277.563965,4266.282227,4553.461426,4527.179688,4395.769043,4476.410156,,,,,,,,,,,,,,,,,,,,,,,,,,,,,,,,,,,,,,,,,,,,,,,,,,,,,,,,,,,,,,,,,,,,,,
1769162787.444694,1769162787.445799,22.0,0.0,4207.820313,4278.205078,4322.05127,4309.871582,4277.307617,4267.307617,4287.179688,4296.153809,4282.94873,4276.282227,4556.922852,4540.256348,4410.384766,4479.871582,,,,,,,,,,,,,,,,,,,,,,,,,,,,,,,,,,,,,,,,,,,,,,,,,,,,,,,,,,,,,,,,,,,,,,
1769162787.452503,1769162787.453608,23.0,0.0,4200.256348,4278.205078,4321.666504,4312.179688,4280.897461,4274.358887,4296.922852,4295.769043,4283.461426,4271.922852,4557.94873,4540.769043,4413.205078,4476.282227,,,,,,,,,,,,,,,,,,,,,,,,,,,,,,,,,,,,,,,,,,,,,,,,,,,,,,,,,,,,,,,,,,,,,,
1769162787.460311,1769162787.461216,24.0,0.0,4203.974121,4283.205078,4323.205078,4313.205078,4280.512695,4274.871582,4296.282227,4294.487305,4278.589844,4263.205078,4556.025879,4535.512695,4403.333496,4475.256348,,,,,,,,,,,,,,,,,,,,,,,,,,,,,,,,,,,,,,,,,,,,,,,,,,,,,,,,,,,,,,,,,,,,,,
1769162787.46812,1769162787.469025,25.0,0.0,4203.589844,4280.128418,4323.589844,4310.128418,4272.563965,4267.820313,4291.025879,4292.436035,4276.282227,4260.256348,4553.846191,4534.102539,4394.615234,4472.820313,,,,,,,,,,,,,,,,,,,,,,,,,,,,,,,,,,,,,,,,,,,,,,,,,,,,,,,,,,,,,,,,,,,,,,
1769162787.475928,1769162787.476933,26.0,0.0,4204.102539,4276.666504,4322.692383,4308.846191,4273.717773,4262.179688,4283.717773,4289.871582,4278.205078,4262.94873,4555.512695,4534.871582,4396.666504,4467.94873,,,,,,,,,,,,,,,,,,,,,,,,,,,,,,,,,,,,,,,,,,,,,,,,,,,,,,,,,,,,,,,,,,,,,,
1769162787.483737,1769162787.484742,27.0,0.0,4208.846191,4278.717773,4324.487305,4311.666504,4280.0,4262.436035,4277.179688,4291.282227,4280.384766,4266.025879,4558.846191,4539.487305,4402.94873,4473.846191,,,,,,,,,,,,,,,,,,,,,,,,,,,,,,,,,,,,,,,,,,,,,,,,,,,,,,,,,,,,,,,,,,,,,,
1769162787.491545,1769162787.49275,28.0,0.0,4203.974121,4272.94873,4326.153809,4306.922852,4271.025879,4263.077148,4279.871582,4290.512695,4278.974121,4262.94873,4556.025879,4537.179688,4398.589844,4478.461426,,,,,,,,,,,,,,,,,,,,,,,,,,,,,,,,,,,,,,,,,,,,,,,,,,,,,,,,,,,,,,,,,,,,,,
1769162787.499354,1769162787.500558,29.0,0.0,4201.410156,4266.666504,4324.230957,4302.05127,4263.974121,4265.256348,4287.563965,4290.256348,4277.820313,4259.615234,4550.0,4523.461426,4391.922852,4468.717773,,,,,,,,,,,,,,,,,,,,,,,,,,,,,,,,,,,,,,,,,,,,,,,,,,,,,,,,,,,,,,,,,,,,,,
1769162787.507162,1769162787.508267,30.0,0.0,4204.615234,4268.846191,4324.743652,4306.153809,4272.05127,4273.461426,4292.820313,4294.230957,4278.846191,4260.769043,4550.641113,4519.743652,4393.333496,4464.743652,1.159052,0.338716,0.459488,0.358172,0.275271,1.077782,0.319961,0.17978,0.17682,0.191337,0.473481,0.308726,0.186509,0.21284,0.168559,0.775715,0.378375,0.166688,0.082751,0.10642,0.197688,0.200911,0.14398,0.062409,0.058852,0.634839,0.499457,0.151187,0.184471,0.118012,0.078228,0.14136,0.241955,0.114278,0.108536,0.117301,0.210813,0.280042,0.116342,0.142093,0.236213,0.431783,0.462569,0.288852,0.185825,0.195223,0.571962,0.446009,0.191359,0.098753,0.619606,0.411751,0.274373,0.225691,0.122465,0.679804,0.467973,0.313275,0.343301,0.133887,0.51478,0.457753,0.305817,0.385493,0.228223,1.298253,0.504544,0.317275,0.417611,0.195254
1769162787.51497,1769162787.516075,31.0,0.0,4196.410156,4267.307617,4326.794922,4306.794922,4273.461426,4277.94873,4295.641113,4293.846191,4278.974121,4262.820313,4555.641113,4531.282227,4397.563965,4474.487305,,,,,,,,,,,,,,,,,,,,,,,,,,,,,,,,,,,,,,,,,,,,,,,,,,,,,,,,,,,,,,,,,,,,,,
1769162787.522779,1769162787.524084,32.0,0.0,4189.358887,4262.179688,4325.384766,4301.794922,4264.615234,4274.871582,4294.743652,4294.487305,4278.974121,4261.666504,4555.384766,4538.717773,4397.820313,4479.871582,,,,,,,,,,,,,,,,,,,,,,,,,,,,,,,,,,,,,,,,,,,,,,,,,,,,,,,,,,,,,,,,,,,,,,
1769162787.530587,1769162787.531892,33.0,0.0,4198.461426,4267.307617,4325.512695,4303.077148,4265.256348,4274.615234,4287.05127,4294.871582,4281.282227,4260.641113,4553.461426,4535.0,4393.974121,4475.897461,,,,,,,,,,,,,,,,,,,,,,,,,,,,,,,,,,,,,,,,,,,,,,,,,,,,,,,,,,,,,,,,,,,,,,
1769162787.538396,1769162787.539601,34.0,0.0,4204.102539,4275.512695,4327.307617,4307.436035,4273.717773,4273.717773,4282.05127,4284.615234,4277.563965,4263.974121,4555.256348,4533.205078,4397.563965,4474.230957,,,,,,,,,,,,,,,,,,,,,,,,,,,,,,,,,,,,,,,,,,,,,,,,,,,,,,,,,,,,,,,,,,,,,,
1769162787.546204,1769162787.547409,35.0,0.0,4201.538574,4277.563965,4328.461426,4309.871582,4278.077148,4272.692383,4287.436035,4274.487305,4268.077148,4267.179688,4556.666504,4535.641113,4409.615234,4476.794922,,,,,,,,,,,,,,,,,,,,,,,,,,,,,,,,,,,,,,,,,,,,,,,,,,,,,,,,,,,,,,,,,,,,,,
1769162787.554013,1769162787.555417,36.0,0.0,4209.615234,4278.333496,4333.461426,4311.922852,4277.692383,4274.487305,4291.922852,4277.563965,4266.410156,4265.897461,4559.615234,4538.461426,4416.666504,4482.05127,,,,,,,,,,,,,,,,,,,,,,,,,,,,,,,,,,,,,,,,,,,,,,,,,,,,,,,,,,,,,,,,,,,,,,
1769162787.561821,1769162787.563226,37.0,0.0,4214.871582,4279.230957,4341.282227,4312.820313,4276.922852,4272.820313,4290.512695,4284.102539,4272.692383,4264.615234,4566.410156,4540.0,4412.692383,4487.563965,,,,,,,,,,,,,,,,,,,,,,,,,,,,,,,,,,,,,,,,,,,,,,,,,,,,,,,,,,,,,,,,,,,,,,
1769162787.56963,1769162787.571134,38.0,0.0,4210.256348,4280.128418,4344.871582,4312.692383,4277.94873,4273.205078,4293.205078,4289.102539,4277.179688,4266.538574,4565.512695,4540.641113,4411.538574,4488.717773,,,,,,,,,,,,,,,,,,,,,,,,,,,,,,,,,,,,,,,,,,,,,,,,,,,,,,,,,,,,,,,,,,,,,,
1769162787.577438,1769162787.578943,39.0,0.0,4214.487305,4277.563965,4341.538574,4312.436035,4277.05127,4280.128418,4295.384766,4294.358887,4278.205078,4265.512695,4558.077148,4539.743652,4412.563965,4488.846191,,,,,,,,,,,,,,,,,,,,,,,,,,,,,,,,,,,,,,,,,,,,,,,,,,,,,,,,,,,,,,,,,,,,,,
1769162787.585247,1769162787.586951,40.0,0.0,4215.769043,4275.128418,4337.436035,4311.794922,4273.974121,4281.922852,4293.717773,4295.512695,4278.461426,4265.256348,4556.282227,4537.692383,4408.205078,4488.717773,,,,,,,,,,,,,,,,,,,,,,,,,,,,,,,,,,,,,,,,,,,,,,,,,,,,,,,,,,,,,,,,,,,,,,
1769162787.593055,1769162787.594759,41.0,0.0,4206.025879,4273.589844,4337.820313,4310.512695,4274.743652,4278.974121,4294.871582,4295.769043,4280.384766,4268.974121,4558.461426,4537.94873,4407.563965,4487.436035,,,,,,,,,,,,,,,,,,,,,,,,,,,,,,,,,,,,,,,,,,,,,,,,,,,,,,,,,,,,,,,,,,,,,,
1769162787.600864,1769162787.602468,42.0,0.0,4201.666504,4268.077148,4339.358887,4308.333496,4273.333496,4277.307617,4294.743652,4296.025879,4282.179688,4269.358887,4559.743652,4540.256348,4410.384766,4487.563965,,,,,,,,,,,,,,,,,,,,,,,,,,,,,,,,,,,,,,,,,,,,,,,,,,,,,,,,,,,,,,,,,,,,,,
1769162787.608672,1769162787.610276,43.0,0.0,4203.589844,4265.897461,4340.256348,4308.077148,4266.922852,4275.769043,4293.974121,4293.974121,4280.384766,4265.769043,4564.743652,4541.153809,4411.666504,4490.512695,,,,,,,,,,,,,,,,,,,,,,,,,,,,,,,,,,,,,,,,,,,,,,,,,,,,,,,,,,,,,,,,,,,,,,
1769162787.61648,1769162787.617885,44.0,0.0,4209.102539,4273.974121,4342.05127,4311.025879,4266.666504,4276.922852,4294.615234,4292.436035,4276.922852,4264.743652,4566.025879,4540.641113,4412.94873,4493.461426,,,,,,,,,,,,,,,,,,,,,,,,,,,,,,,,,,,,,,,,,,,,,,,,,,,,,,,,,,,,,,,,,,,,,,
1769162787.624289,1769162787.625693,45.0,0.0,4214.743652,4281.410156,4342.436035,4312.05127,4273.589844,4278.846191,4292.820313,4292.436035,4276.794922,4265.384766,4558.205078,4540.512695,4406.153809,4491.538574,,,,,,,,,,,,,,,,,,,,,,,,,,,,,,,,,,,,,,,,,,,,,,,,,,,,,,,,,,,,,,,,,,,,,,
1769162787.632097,1769162787.633402,46.0,0.0,4205.769043,4277.05127,4341.794922,4309.102539,4273.717773,4277.307617,4291.794922,4291.282227,4278.589844,4264.743652,4553.717773,4539.743652,4399.615234,4487.436035,1.176496,0.35209,0.443713,0.320287,0.276108,1.292356,0.294159,0.184541,0.181607,0.181475,0.449784,0.276661,0.188126,0.20186,0.182545,0.803646,0.343239,0.175498,0.092721,0.112755,0.168685,0.21566,0.150033,0.053083,0.057051,0.491607,0.496164,0.144315,0.144606,0.106126,0.090416,0.187099,0.288451,0.127235,0.110231,0.11463,0.219422,0.276954,0.124914,0.168776,0.254192,0.346661,0.451149,0.268799,0.190973,0.288183,0.47099,0.439551,0.166919,0.104401,0.780092,0.349091,0.308685,0.212826,0.115164,0.85048,0.452394,0.318924,0.312185,0.137288,0.687074,0.465901,0.295319,0.375234,0.248603,1.372932,0.583027,0.309171,0.381233,0.217087
1769162787.639906,1769162787.64121,47.0,0.0,4201.282227,4273.717773,4348.333496,4309.102539,4273.461426,4278.717773,4293.974121,4289.615234,4279.743652,4266.025879,4556.410156,4539.102539,4406.538574,4492.307617,,,,,,,,,,,,,,,,,,,,,,,,,,,,,,,,,,,,,,,,,,,,,,,,,,,,,,,,,,,,,,,,,,,,,,
1769162787.647714,1769162787.648819,48.0,0.0,4211.538574,4276.410156,4351.794922,4310.897461,4278.717773,4283.205078,4295.256348,4293.333496,4280.256348,4265.0,4558.461426,4538.974121,4405.128418,4490.256348,,,,,,,,,,,,,,,,,,,,,,,,,,,,,,,,,,,,,,,,,,,,,,,,,,,,,,,,,,,,,,,,,,,,,,
1769162787.655523,1769162787.656627,49.0,0.0,4206.922852,4269.230957,4346.410156,4309.743652,4275.641113,4282.692383,4295.384766,4296.153809,4279.102539,4261.538574,4554.871582,4537.692383,4387.563965,4476.410156,,,,,,,,,,,,,,,,,,,,,,,,,,,,,,,,,,,,,,,,,,,,,,,,,,,,,,,,,,,,,,,,,,,,,,
1769162787.663331,1769162787.664336,50.0,0.0,4200.897461,4260.512695,4345.769043,4309.102539,4267.05127,4279.487305,4294.615234,4292.436035,4277.692383,4263.589844,4553.717773,4537.563965,4389.230957,4479.743652,,,,,,,,,,,,,,,,,,,,,,,,,,,,,,,,,,,,,,,,,,,,,,,,,,,,,,,,,,,,,,,,,,,,,,
1769162787.67114,1769162787.672144,51.0,0.0,4213.589844,4267.692383,4351.410156,4310.384766,4264.871582,4277.05127,4291.794922,4291.025879,4279.230957,4267.820313,4562.563965,4540.0,4409.743652,4495.769043,,,,,,,,,,,,,,,,,,,,,,,,,,,,,,,,,,,,,,,,,,,,,,,,,,,,,,,,,,,,,,,,,,,,,,
1769162787.678948,1769162787.680153,52.0,0.0,4219.102539,4280.0,4355.384766,4314.358887,4265.641113,4273.589844,4291.153809,4293.717773,4281.025879,4267.692383,4571.153809,4541.282227,4415.769043,4496.538574,,,,,,,,,,,,,,,,,,,,,,,,,,,,,,,,,,,,,,,,,,,,,,,,,,,,,,,,,,,,,,,,,,,,,,
1769162787.686756,1769162787.687961,53.0,0.0,4216.282227,4280.897461,4358.461426,4318.717773,4266.410156,4274.358887,4293.974121,4296.025879,4278.974121,4266.025879,4565.641113,4540.256348,4405.769043,4490.128418,,,,,,,,,,,,,,,,,,,,,,,,,,,,,,,,,,,,,,,,,,,,,,,,,,,,,,,,,,,,,,,,,,,,,,
1769162787.694565,1769162787.695869,54.0,0.0,4218.717773,4274.871582,4359.102539,4316.410156,4266.410156,4279.230957,4294.102539,4294.871582,4277.436035,4265.384766,4555.897461,4539.871582,4397.563965,4490.128418,,,,,,,,,,,,,,,,,,,,,,,,,,,,,,,,,,,,,,,,,,,,,,,,,,,,,,,,,,,,,,,,,,,,,,
1769162787.702373,1769162787.703678,55.0,0.0,4211.025879,4272.307617,4355.384766,4310.256348,4266.922852,4277.692383,4292.179688,4288.077148,4277.05127,4266.153809,4558.333496,4539.358887,4398.717773,4488.974121,,,,,,,,,,,,,,,,,,,,,,,,,,,,,,,,,,,,,,,,,,,,,,,,,,,,,,,,,,,,,,,,,,,,,,
1769162787.710182,1769162787.711287,56.0,0.0,4203.589844,4272.820313,4353.717773,4310.256348,4270.897461,4274.871582,4293.205078,4283.589844,4273.846191,4269.230957,4566.153809,4539.358887,4407.692383,4490.512695,,,,,,,,,,,,,,,,,,,,,,,,,,,,,,,,,,,,,,,,,,,,,,,,,,,,,,,,,,,,,,,,,,,,,,
1769162787.71799,1769162787.719095,57.0,0.0,4216.410156,4276.153809,4356.538574,4313.205078,4272.94873,4272.692383,4292.563965,4287.179688,4271.538574,4269.230957,4567.563965,4539.102539,4413.333496,4493.974121,,,,,,,,,,,,,,,,,,,,,,,,,,,,,,,,,,,,,,,,,,,,,,,,,,,,,,,,,,,,,,,,,,,,,,
1769162787.725799,1769162787.726804,58.0,0.0,4222.307617,4277.05127,4357.05127,4310.897461,4268.205078,4268.589844,4289.871582,4289.487305,4274.230957,4263.333496,4561.025879,4536.025879,4406.538574,4490.384766,,,,,,,,,,,,,,,,,,,,,,,,,,,,,,,,,,,,,,,,,,,,,,,,,,,,,,,,,,,,,,,,,,,,,,
1769162787.733607,1769162787.734612,59.0,0.0,4211.538574,4274.487305,4353.717773,4308.333496,4264.743652,4271.666504,4293.461426,4288.846191,4276.666504,4261.282227,4555.897461,4534.615234,4397.436035,4487.307617,,,,,,,,,,,,,,,,,,,,,,,,,,,,,,,,,,,,,,,,,,,,,,,,,,,,,,,,,,,,,,,,,,,,,,
1769162787.741416,1769162787.74262,60.0,0.0,4211.153809,4274.871582,4353.717773,4310.128418,4268.077148,4279.743652,4297.436035,4291.410156,4278.333496,4265.897461,4562.05127,4537.179688,4402.820313,4489.230957,,,,,,,,,,,,,,,,,,,,,,,,,,,,,,,,,,,,,,,,,,,,,,,,,,,,,,,,,,,,,,,,,,,,,,
1769162787.749224,1769162787.750429,61.0,0.0,4218.589844,4276.282227,4358.333496,4313.205078,4272.307617,4279.487305,4294.871582,4288.717773,4278.974121,4267.307617,4567.307617,4536.282227,4408.974121,4491.666504,,,,,,,,,,,,,,,,,,,,,,,,,,,,,,,,,,,,,,,,,,,,,,,,,,,,,,,,,,,,,,,,,,,,,,
1769162787.757033,1769162787.758337,62.0,0.0,4216.153809,4276.922852,4358.974121,4313.077148,4271.538574,4274.615234,4291.538574,4278.461426,4274.358887,4263.205078,4558.589844,4532.563965,4400.128418,4490.128418,1.157376,0.361079,0.405765,0.279771,0.268494,1.463544,0.293716,0.197644,0.180456,0.169322,0.406632,0.241619,0.184361,0.195292,0.191237,0.797825,0.307444,0.181944,0.101704,0.115662,0.147318,0.221969,0.149488,0.044056,0.053406,0.36041,0.481478,0.133593,0.111748,0.092782,0.114589,0.235747,0.317973,0.139875,0.111842,0.108069,0.212204,0.272038,0.134872,0.198738,0.26115,0.251023,0.433049,0.237418,0.19304,0.400072,0.382959,0.437023,0.142359,0.109652,0.919146,0.283498,0.346355,0.191612,0.115356,1.004265,0.41631,0.336817,0.279177,0.148119,0.866731,0.487799,0.319386,0.356527,0.27075,1.31805,0.630271,0.30949,0.332917,0.263509
1769162787.764841,1769162787.766146,63.0,0.0,4212.692383,4277.179688,4355.512695,4311.538574,4267.307617,4276.794922,4292.820313,4279.743652,4274.487305,4261.922852,4554.358887,4535.0,4393.589844,4491.410156,,,,,,,,,,,,,,,,,,,,,,,,,,,,,,,,,,,,,,,,,,,,,,,,,,,,,,,,,,,,,,,,,,,,,,
1769162787.772649,1769162787.774154,64.0,0.0,4215.384766,4277.820313,4354.615234,4315.641113,4265.769043,4278.589844,4294.487305,4284.743652,4277.692383,4264.230957,4562.436035,4539.230957,4401.153809,4496.410156,,,,,,,,,,,,,,,,,,,,,,,,,,,,,,,,,,,,,,,,,,,,,,,,,,,,,,,,,,,,,,,,,,,,,,
1769162787.780458,1769162787.781962,65.0,0.0,4221.153809,4280.641113,4357.179688,4319.743652,4266.922852,4274.743652,4293.846191,4281.153809,4274.230957,4266.794922,4561.410156,4537.820313,4404.871582,4496.922852,,,,,,,,,,,,,,,,,,,,,,,,,,,,,,,,,,,,,,,,,,,,,,,,,,,,,,,,,,,,,,,,,,,,,,
1769162787.788266,1769162787.789671,66.0,0.0,4217.820313,4279.487305,4357.692383,4315.256348,4267.179688,4276.153809,4293.717773,4281.538574,4273.717773,4267.307617,4555.384766,4536.025879,4399.102539,4494.358887,,,,,,,,,,,,,,,,,,,,,,,,,,,,,,,,,,,,,,,,,,,,,,,,,,,,,,,,,,,,,,,,,,,,,,
1769162787.796075,1769162787.797479,67.0,0.0,4205.128418,4270.128418,4354.230957,4308.461426,4266.410156,4278.589844,4294.487305,4286.794922,4276.410156,4265.769043,4557.436035,4536.922852,4397.820313,4492.820313,,,,,,,,,,,,,,,,,,,,,,,,,,,,,,,,,,,,,,,,,,,,,,,,,,,,,,,,,,,,,,,,,,,,,,
1769162787.803883,1769162787.805088,68.0,0.0,4204.487305,4266.922852,4355.769043,4311.538574,4264.230957,4271.794922,4291.282227,4281.410156,4269.230957,4263.846191,4558.077148,4537.563965,4399.487305,4493.077148,,,,,,,,,,,,,,,,,,,,,,,,,,,,,,,,,,,,,,,,,,,,,,,,,,,,,,,,,,,,,,,,,,,,,,
1769162787.811692,1769162787.812896,69.0,0.0,4215.256348,4276.666504,4362.05127,4317.820313,4265.128418,4263.589844,4288.846191,4276.153809,4260.897461,4264.743652,4555.0,4533.717773,4398.846191,4495.512695,,,,,,,,,,,,,,,,,,,,,,,,,,,,,,,,,,,,,,,,,,,,,,,,,,,,,,,,,,,,,,,,,,,,,,
1769162787.8195,1769162787.820605,70.0,0.0,4218.205078,4278.333496,4361.922852,4315.769043,4266.922852,4266.538574,4292.692383,4279.487305,4261.794922,4263.974121,4552.563965,4526.410156,4396.282227,4491.025879,,,,,,,,,,,,,,,,,,,,,,,,,,,,,,,,,,,,,,,,,,,,,,,,,,,,,,,,,,,,,,,,,,,,,,
1769162787.827309,1769162787.828413,71.0,0.0,4215.256348,4268.333496,4356.538574,4309.615234,4265.256348,4268.205078,4289.615234,4277.179688,4261.410156,4260.897461,4551.025879,4521.025879,4393.717773,4481.410156,,,,,,,,,,,,,,,,,,,,,,,,,,,,,,,,,,,,,,,,,,,,,,,,,,,,,,,,,,,,,,,,,,,,,,
1769162787.835117,1769162787.836022,72.0,0.0,4214.102539,4265.512695,4358.974121,4308.077148,4265.128418,4263.077148,4281.922852,4275.897461,4263.589844,4263.846191,4553.717773,4523.333496,4394.615234,4484.743652,,,,,,,,,,,,,,,,,,,,,,,,,,,,,,,,,,,,,,,,,,,,,,,,,,,,,,,,,,,,,,,,,,,,,,
1769162787.842925,1769162787.84383,73.0,0.0,4211.153809,4266.922852,4362.307617,4309.615234,4267.307617,4263.589844,4286.922852,4279.871582,4266.794922,4265.128418,4556.538574,4525.641113,4397.05127,4491.922852,,,,,,,,,,,,,,,,,,,,,,,,,,,,,,,,,,,,,,,,,,,,,,,,,,,,,,,,,,,,,,,,,,,,,,
1769162787.850734,1769162787.851539,74.0,0.0,4211.153809,4264.871582,4358.974121,4309.102539,4266.538574,4267.307617,4295.0,4275.0,4261.153809,4256.922852,4551.922852,4521.794922,4396.538574,4483.333496,,,,,,,,,,,,,,,,,,,,,,,,,,,,,,,,,,,,,,,,,,,,,,,,,,,,,,,,,,,,,,,,,,,,,,
1769162787.858542,1769162787.859347,75.0,0.0,4217.179688,4267.179688,4362.307617,4308.589844,4264.230957,4267.436035,4293.589844,4273.077148,4261.538574,4253.077148,4549.230957,4522.436035,4390.641113,4475.256348,,,,,,,,,,,,,,,,,,,,,,,,,,,,,,,,,,,,,,,,,,,,,,,,,,,,,,,,,,,,,,,,,,,,,,
1769162787.866351,1769162787.866956,76.0,0.0,4212.692383,4270.512695,4366.282227,4309.102539,4265.512695,4265.769043,4292.436035,4279.615234,4269.743652,4260.0,4554.358887,4526.666504,4392.05127,4485.0,,,,,,,,,,,,,,,,,,,,,,,,,,,,,,,,,,,,,,,,,,,,,,,,,,,,,,,,,,,,,,,,,,,,,,
1769162787.874159,1769162787.874764,77.0,0.0,4204.615234,4267.692383,4361.538574,4309.102539,4265.769043,4265.512695,4294.871582,4280.769043,4266.794922,4263.589844,4557.179688,4524.871582,4401.538574,4494.871582,,,,,,,,,,,,,,,,,,,,,,,,,,,,,,,,,,,,,,,,,,,,,,,,,,,,,,,,,,,,,,,,,,,,,,
1769162787.881968,1769162787.882673,78.0,0.0,4209.102539,4264.358887,4362.307617,4309.102539,4263.077148,4266.538574,4293.717773,4277.307617,4261.153809,4260.769043,4557.05127,4526.282227,4404.487305,4495.256348,1.060106,0.361515,0.355566,0.249612,0.256772,1.529237,0.33426,0.220354,0.175486,0.157694,0.374782,0.215011,0.180567,0.191258,0.191077,0.736648,0.274718,0.182167,0.106837,0.112987,0.135429,0.225449,0.142688,0.038027,0.050417,0.26158,0.449623,0.12868,0.092733,0.08146,0.142748,0.274341,0.330681,0.151596,0.112169,0.105182,0.19508,0.282433,0.143021,0.225821,0.260391,0.165859,0.400239,0.199098,0.190054,0.511553,0.342305,0.441228,0.123939,0.11352,1.004451,0.231095,0.379957,0.167232,0.123672,1.101946,0.381944,0.370018,0.250747,0.168333,1.040118,0.518642,0.369866,0.329124,0.289719,1.149597,0.626652,0.325123,0.28188,0.325501
1769162787.889776,1769162787.890481,79.0,0.0,4217.94873,4267.692383,4371.025879,4309.102539,4261.666504,4266.666504,4294.615234,4281.410156,4267.820313,4261.282227,4557.563965,4533.717773,4399.615234,4493.461426,,,,,,,,,,,,,,,,,,,,,,,,,,,,,,,,,,,,,,,,,,,,,,,,,,,,,,,,,,,,,,,,,,,,,,
1769162787.897585,1769162787.89849,80.0,0.0,4217.307617,4273.077148,4372.94873,4309.102539,4263.077148,4267.05127,4297.05127,4283.077148,4268.077148,4260.769043,4556.538574,4533.333496,4398.974121,4491.410156,,,,,,,,,,,,,,,,,,,,,,,,,,,,,,,,,,,,,,,,,,,,,,,,,,,,,,,,,,,,,,,,,,,,,,
1769162787.905393,1769162787.906298,81.0,0.0,4213.589844,4273.974121,4369.615234,4309.102539,4265.256348,4265.256348,4294.358887,4278.589844,4263.589844,4262.820313,4560.256348,4531.538574,4407.307617,4498.846191,,,,,,,,,,,,,,,,,,,,,,,,,,,,,,,,,,,,,,,,,,,,,,,,,,,,,,,,,,,,,,,,,,,,,,
1769162787.913202,1769162787.914007,82.0,0.0,4212.05127,4268.205078,4367.436035,4309.102539,4265.0,4262.820313,4290.769043,4278.461426,4270.128418,4272.436035,4567.94873,4537.436035,4412.563965,4506.282227,,,,,,,,,,,,,,,,,,,,,,,,,,,,,,,,,,,,,,,,,,,,,,,,,,,,,,,,,,,,,,,,,,,,,,
1769162787.92101,1769162787.921815,83.0,0.0,4212.563965,4265.256348,4366.025879,4309.102539,4263.846191,4265.641113,4290.641113,4280.897461,4272.692383,4273.717773,4568.717773,4539.871582,4411.153809,4500.769043,,,,,,,,,,,,,,,,,,,,,,,,,,,,,,,,,,,,,,,,,,,,,,,,,,,,,,,,,,,,,,,,,,,,,,
1769162787.928819,1769162787.929823,84.0,0.0,4217.563965,4271.025879,4370.897461,4309.102539,4261.666504,4266.666504,4290.256348,4279.871582,4266.153809,4265.512695,4566.153809,4537.05127,4410.641113,4498.717773,,,,,,,,,,,,,,,,,,,,,,,,,,,,,,,,,,,,,,,,,,,,,,,,,,,,,,,,,,,,,,,,,,,,,,
1769162787.936627,1769162787.937632,85.0,0.0,4218.333496,4275.256348,4375.256348,4309.102539,4257.307617,4266.153809,4290.128418,4277.692383,4262.179688,4261.538574,4565.897461,4536.794922,4412.94873,4503.077148,,,,,,,,,,,,,,,,,,,,,,,,,,,,,,,,,,,,,,,,,,,,,,,,,,,,,,,,,,,,,,,,,,,,,,
1769162787.944435,1769162787.94554,86.0,0.0,4216.282227,4275.897461,4372.05127,4309.102539,4258.717773,4269.871582,4292.692383,4282.820313,4266.025879,4264.102539,4565.897461,4536.282227,4412.820313,4501.282227,,,,,,,,,,,,,,,,,,,,,,,,,,,,,,,,,,,,,,,,,,,,,,,,,,,,,,,,,,,,,,,,,,,,,,
1769162787.952244,1769162787.953348,87.0,0.0,4219.102539,4278.589844,4371.153809,4309.102539,4266.153809,4274.615234,4293.846191,4292.94873,4275.256348,4272.692383,4571.538574,4537.692383,4413.333496,4502.05127,,,,,,,,,,,,,,,,,,,,,,,,,,,,,,,,,,,,,,,,,,,,,,,,,,,,,,,,,,,,,,,,,,,,,,
1769162787.960052,1769162787.961357,88.0,0.0,4220.641113,4280.897461,4373.846191,4309.230957,4268.461426,4272.94873,4294.102539,4296.666504,4282.436035,4281.410156,4579.230957,4542.820313,4418.333496,4509.743652,,,,,,,,,,,,,,,,,,,,,,,,,,,,,,,,,,,,,,,,,,,,,,,,,,,,,,,,,,,,,,,,,,,,,,
1769162787.967861,1769162787.969165,89.0,0.0,4222.179688,4280.769043,4373.333496,4309.487305,4265.0,4270.256348,4295.897461,4294.487305,4280.128418,4275.769043,4574.230957,4542.307617,4415.256348,4509.871582,,,,,,,,,,,,,,,,,,,,,,,,,,,,,,,,,,,,,,,,,,,,,,,,,,,,,,,,,,,,,,,,,,,,,,
1769162787.975669,1769162787.976874,90.0,0.0,4221.025879,4278.077148,4373.717773,4309.487305,4263.846191,4271.153809,4296.282227,4289.615234,4270.256348,4265.0,4567.94873,4536.153809,4408.974121,4505.256348,,,,,,,,,,,,,,,,,,,,,,,,,,,,,,,,,,,,,,,,,,,,,,,,,,,,,,,,,,,,,,,,,,,,,,
1769162787.983478,1769162787.984682,91.0,0.0,4216.538574,4275.897461,4379.487305,4307.94873,4263.333496,4267.563965,4294.743652,4282.307617,4265.0,4267.179688,4569.487305,4534.743652,4410.641113,4498.077148,,,,,,,,,,,,,,,,,,,,,,,,,,,,,,,,,,,,,,,,,,,,,,,,,,,,,,,,,,,,,,,,,,,,,,
1769162787.991286,1769162787.992291,92.0,0.0,4218.974121,4279.102539,4383.461426,4308.333496,4262.307617,4263.077148,4293.461426,4283.333496,4270.897461,4271.153809,4570.128418,4536.794922,4412.94873,4490.384766,,,,,,,,,,,,,,,,,,,,,,,,,,,,,,,,,,,,,,,,,,,,,,,,,,,,,,,,,,,,,,,,,,,,,,
1769162787.999095,1769162788.000099,93.0,0.0,4224.230957,4282.05127,4376.666504,4308.333496,4262.820313,4269.358887,4294.230957,4292.820313,4280.256348,4269.102539,4569.615234,4538.077148,4411.794922,4497.820313,,,,,,,,,,,,,,,,,,,,,,,,,,,,,,,,,,,,,,,,,,,,,,,,,,,,,,,,,,,,,,,,,,,,,,
1769162788.006903,1769162788.008008,94.0,0.0,4218.077148,4276.538574,4371.153809,4301.410156,4262.436035,4276.025879,4296.794922,4294.615234,4278.974121,4264.358887,4570.512695,4537.307617,4410.641113,4507.94873,0.932049,0.358258,0.305531,0.234596,0.245326,1.48058,0.415238,0.252053,0.169757,0.147828,0.319839,0.201178,0.180231,0.185119,0.180881,0.632311,0.248124,0.173934,0.106116,0.1045,0.132005,0.232996,0.133751,0.036369,0.05047,0.206671,0.403204,0.138096,0.089069,0.073306,0.163785,0.291037,0.330771,0.16251,0.10975,0.115572,0.177915,0.317753,0.146864,0.242774,0.252499,0.107428,0.3513,0.160464,0.179746,0.586512,0.356939,0.445854,0.114681,0.115535,1.01414,0.202176,0.401218,0.146039,0.138377,1.113423,0.36756,0.41292,0.231859,0.195427,1.184125,0.561178,0.425222,0.29698,0.303445,0.941747,0.575822,0.351758,0.236127,0.385515
1769162788.014712,1769162788.015816,95.0,0.0,4213.589844,4271.794922,4379.102539,4295.641113,4261.538574,4271.025879,4297.820313,4293.846191,4275.641113,4264.102539,4570.384766,4537.820313,4410.128418,4505.512695,,,,,,,,,,,,,,,,,,,,,,,,,,,,,,,,,,,,,,,,,,,,,,,,,,,,,,,,,,,,,,,,,,,,,,
1769162788.02252,1769162788.023425,96.0,0.0,4218.077148,4272.94873,4385.512695,4296.025879,4260.641113,4269.102539,4296.025879,4292.820313,4278.589844,4271.922852,4570.512695,4539.358887,4411.538574,4505.0,,,,,,,,,,,,,,,,,,,,,,,,,,,,,,,,,,,,,,,,,,,,,,,,,,,,,,,,,,,,,,,,,,,,,,
1769162788.030328,1769162788.031233,97.0,0.0,4217.94873,4274.871582,4382.563965,4297.436035,4261.282227,4274.102539,4293.333496,4283.589844,4276.538574,4277.179688,4569.743652,4538.333496,4414.230957,4510.128418,,,,,,,,,,,,,,,,,,,,,,,,,,,,,,,,,,,,,,,,,,,,,,,,,,,,,,,,,,,,,,,,,,,,,,
1769162788.038137,1769162788.038942,98.0,0.0,4216.282227,4274.743652,4380.128418,4297.820313,4264.358887,4269.102539,4292.692383,4283.846191,4273.205078,4276.410156,4567.436035,4535.256348,4413.077148,4508.974121,,,,,,,,,,,,,,,,,,,,,,,,,,,,,,,,,,,,,,,,,,,,,,,,,,,,,,,,,,,,,,,,,,,,,,
1769162788.045945,1769162788.04675,99.0,0.0,4217.05127,4275.769043,4380.897461,4298.205078,4264.871582,4261.666504,4292.94873,4295.641113,4279.102539,4278.077148,4567.307617,4535.641113,4409.487305,4503.846191,,,,,,,,,,,,,,,,,,,,,,,,,,,,,,,,,,,,,,,,,,,,,,,,,,,,,,,,,,,,,,,,,,,,,,
1769162788.053754,1769162788.054359,100.0,0.0,4216.922852,4274.743652,4383.333496,4296.922852,4261.666504,4263.333496,4292.94873,4294.358887,4281.666504,4279.615234,4568.974121,4538.077148,4413.333496,4504.871582,,,,,,,,,,,,,,,,,,,,,,,,,,,,,,,,,,,,,,,,,,,,,,,,,,,,,,,,,,,,,,,,,,,,,,
1769162788.061562,1769162788.062167,101.0,0.0,4217.307617,4269.615234,4386.794922,4295.769043,4259.743652,4267.436035,4294.615234,4288.077148,4276.922852,4278.461426,4568.589844,4537.94873,4415.128418,4508.333496,,,,,,,,,,,,,,,,,,,,,,,,,,,,,,,,,,,,,,,,,,,,,,,,,,,,,,,,,,,,,,,,,,,,,,
1769162788.069371,1769162788.069876,102.0,0.0,4219.102539,4270.0,4385.128418,4297.820313,4260.0,4267.307617,4295.128418,4293.974121,4276.282227,4277.179688,4567.436035,4536.922852,4406.794922,4504.230957,,,,,,,,,,,,,,,,,,,,,,,,,,,,,,,,,,,,,,,,,,,,,,,,,,,,,,,,,,,,,,,,,,,,,,
1769162788.077179,1769162788.077684,103.0,0.0,4220.0,4278.333496,4385.512695,4302.94873,4257.563965,4265.256348,4293.333496,4295.384766,4277.436035,4273.846191,4568.077148,4537.307617,4404.230957,4500.641113,,,,,,,,,,,,,,,,,,,,,,,,,,,,,,,,,,,,,,,,,,,,,,,,,,,,,,,,,,,,,,,,,,,,,,
1769162788.084988,1769162788.085692,104.0,0.0,4219.230957,4282.436035,4392.05127,4306.282227,4252.05127,4263.205078,4291.153809,4287.179688,4275.128418,4275.384766,4570.384766,4538.077148,4411.282227,4506.410156,,,,,,,,,,,,,,,,,,,,,,,,,,,,,,,,,,,,,,,,,,,,,,,,,,,,,,,,,,,,,,,,,,,,,,
1769162788.092796,1769162788.093501,105.0,0.0,4217.179688,4275.0,4391.666504,4300.512695,4248.333496,4265.384766,4291.153809,4290.0,4277.05127,4278.077148,4570.128418,4538.974121,4409.871582,4509.230957,,,,,,,,,,,,,,,,,,,,,,,,,,,,,,,,,,,,,,,,,,,,,,,,,,,,,,,,,,,,,,,,,,,,,,
1769162788.100604,1769162788.101409,106.0,0.0,4212.94873,4270.897461,4386.794922,4292.820313,4247.563965,4269.871582,4294.615234,4298.717773,4281.153809,4269.871582,4568.077148,4538.846191,4399.871582,4503.461426,,,,,,,,,,,,,,,,,,,,,,,,,,,,,,,,,,,,,,,,,,,,,,,,,,,,,,,,,,,,,,,,,,,,,,
1769162788.108413,1769162788.109218,107.0,0.0,4216.153809,4276.794922,4389.102539,4296.410156,4247.692383,4273.717773,4298.461426,4294.230957,4278.333496,4265.256348,4567.05127,4537.692383,4401.025879,4502.179688,,,,,,,,,,,,,,,,,,,,,,,,,,,,,,,,,,,,,,,,,,,,,,,,,,,,,,,,,,,,,,,,,,,,,,
1769162788.116221,1769162788.116826,108.0,0.0,4226.153809,4282.05127,4391.538574,4307.307617,4249.743652,4277.179688,4297.307617,4287.05127,4275.256348,4274.358887,4568.589844,4538.461426,4412.307617,4507.436035,,,,,,,,,,,,,,,,,,,,,,,,,,,,,,,,,,,,,,,,,,,,,,,,,,,,,,,,,,,,,,,,,,,,,,
1769162788.12403,1769162788.124635,109.0,0.0,4223.974121,4278.717773,4388.589844,4308.717773,4250.0,4274.358887,4294.743652,4294.487305,4280.897461,4278.974121,4570.897461,4541.922852,4413.717773,4508.077148,,,,,,,,,,,,,,,,,,,,,,,,,,,,,,,,,,,,,,,,,,,,,,,,,,,,,,,,,,,,,,,,,,,,,,
1769162788.131838,1769162788.132343,110.0,0.0,4212.436035,4272.563965,4387.563965,4299.358887,4246.666504,4267.563965,4296.794922,4299.871582,4283.461426,4273.461426,4569.615234,4541.282227,4404.743652,4504.358887,0.764862,0.358037,0.266504,0.231795,0.237529,1.31828,0.51799,0.288247,0.16557,0.139515,0.306409,0.197554,0.181877,0.172383,0.162246,0.495679,0.232355,0.156356,0.099014,0.092191,0.140494,0.246189,0.127934,0.038934,0.054425,0.183921,0.348307,0.164901,0.096845,0.067328,0.171648,0.280769,0.324737,0.172477,0.103789,0.141395,0.169348,0.37475,0.14585,0.244431,0.242984,0.080095,0.292568,0.128223,0.161966,0.608357,0.402184,0.436052,0.112246,0.115562,0.942143,0.196324,0.400562,0.131288,0.155464,1.028324,0.377669,0.448003,0.221197,0.221409,1.270112,0.611792,0.457334,0.264449,0.311916,0.74428,0.498566,0.371515,0.198507,0.423615
1769162788.139647,1769162788.140152,111.0,0.0,4219.358887,4276.282227,4391.025879,4301.666504,4248.589844,4266.794922,4297.05127,4291.410156,4275.512695,4273.974121,4566.025879,4533.717773,4402.94873,4501.922852,,,,,,,,,,,,,,,,,,,,,,,,,,,,,,,,,,,,,,,,,,,,,,,,,,,,,,,,,,,,,,,,,,,,,,
1769162788.147455,1769162788.14816,112.0,0.0,4233.461426,4281.794922,4395.512695,4309.743652,4253.589844,4272.692383,4294.487305,4291.153809,4279.230957,4280.512695,4571.410156,4535.769043,4412.563965,4504.358887,,,,,,,,,,,,,,,,,,,,,,,,,,,,,,,,,,,,,,,,,,,,,,,,,,,,,,,,,,,,,,,,,,,,,,
1769162788.155264,1769162788.155968,113.0,0.0,4223.846191,4277.307617,4395.897461,4302.05127,4251.153809,4275.256348,4296.025879,4299.615234,4290.384766,4280.897461,4574.358887,4541.794922,4414.102539,4507.436035,,,,,,,,,,,,,,,,,,,,,,,,,,,,,,,,,,,,,,,,,,,,,,,,,,,,,,,,,,,,,,,,,,,,,,
1769162788.163072,1769162788.163777,114.0,0.0,4213.846191,4272.692383,4393.589844,4296.025879,4249.615234,4271.153809,4297.05127,4288.846191,4278.205078,4274.615234,4561.153809,4530.769043,4406.922852,4503.846191,,,,,,,,,,,,,,,,,,,,,,,,,,,,,,,,,,,,,,,,,,,,,,,,,,,,,,,,,,,,,,,,,,,,,,
1769162788.17088,1769162788.171585,115.0,0.0,4224.871582,4278.974121,4394.358887,4306.922852,4254.102539,4266.282227,4294.487305,4276.153809,4264.871582,4273.589844,4553.974121,4523.077148,4401.666504,4497.563965,,,,,,,,,,,,,,,,,,,,,,,,,,,,,,,,,,,,,,,,,,,,,,,,,,,,,,,,,,,,,,,,,,,,,,
1769162788.178689,1769162788.179594,116.0,0.0,4233.461426,4284.358887,4397.436035,4312.563965,4253.461426,4263.205078,4294.615234,4290.512695,4276.922852,4279.358887,4565.641113,4537.307617,4403.461426,4502.436035,,,,,,,,,,,,,,,,,,,,,,,,,,,,,,,,,,,,,,,,,,,,,,,,,,,,,,,,,,,,,,,,,,,,,,
1769162788.186497,1769162788.187402,117.0,0.0,4234.487305,4281.922852,4398.205078,4308.846191,4251.153809,4265.256348,4293.846191,4297.692383,4285.897461,4280.512695,4576.666504,4547.436035,4414.743652,4518.077148,,,,,,,,,,,,,,,,,,,,,,,,,,,,,,,,,,,,,,,,,,,,,,,,,,,,,,,,,,,,,,,,,,,,,,
1769162788.194306,1769162788.195111,118.0,0.0,4235.384766,4280.641113,4398.077148,4309.102539,4257.05127,4274.102539,4293.717773,4283.333496,4277.436035,4279.230957,4571.410156,4539.358887,4418.205078,4517.179688,,,,,,,,,,,,,,,,,,,,,,,,,,,,,,,,,,,,,,,,,,,,,,,,,,,,,,,,,,,,,,,,,,,,,,
1769162788.202114,1769162788.202919,119.0,0.0,4232.820313,4282.179688,4400.384766,4311.538574,4262.436035,4279.871582,4301.922852,4286.794922,4277.179688,4278.589844,4566.153809,4534.743652,4411.282227,4506.666504,,,,,,,,,,,,,,,,,,,,,,,,,,,,,,,,,,,,,,,,,,,,,,,,,,,,,,,,,,,,,,,,,,,,,,
1769162788.209923,1769162788.210927,120.0,0.0,4234.358887,4285.897461,4403.974121,4313.846191,4262.307617,4273.461426,4304.487305,4293.974121,4281.538574,4276.538574,4575.384766,4544.230957,4418.077148,4515.641113,,,,,,,,,,,,,,,,,,,,,,,,,,,,,,,,,,,,,,,,,,,,,,,,,,,,,,,,,,,,,,,,,,,,,,
1769162788.217731,1769162788.218736,121.0,0.0,4247.179688,4292.820313,4407.94873,4315.128418,4259.102539,4263.589844,4294.615234,4279.615234,4277.692383,4277.05127,4581.922852,4553.077148,4430.256348,4531.025879,,,,,,,,,,,,,,,,,,,,,,,,,,,,,,,,,,,,,,,,,,,,,,,,,,,,,,,,,,,,,,,,,,,,,,
1769162788.22554,1769162788.226444,122.0,0.0,4251.282227,4296.153809,4411.666504,4317.563965,4257.820313,4261.794922,4290.384766,4277.563965,4278.846191,4278.974121,4575.769043,4549.615234,4423.717773,4526.922852,,,,,,,,,,,,,,,,,,,,,,,,,,,,,,,,,,,,,,,,,,,,,,,,,,,,,,,,,,,,,,,,,,,,,,
1769162788.233348,1769162788.234253,123.0,0.0,4238.717773,4288.974121,4412.820313,4320.256348,4259.743652,4261.922852,4295.128418,4288.717773,4278.333496,4272.563965,4570.0,4539.743652,4412.307617,4511.794922,,,,,,,,,,,,,,,,,,,,,,,,,,,,,,,,,,,,,,,,,,,,,,,,,,,,,,,,,,,,,,,,,,,,,,
1769162788.241157,1769162788.241861,124.0,0.0,4230.512695,4279.743652,4408.717773,4313.205078,4256.922852,4261.794922,4296.666504,4282.436035,4267.563965,4263.461426,4568.846191,4536.282227,4411.410156,4503.717773,,,,,,,,,,,,,,,,,,,,,,,,,,,,,,,,,,,,,,,,,,,,,,,,,,,,,,,,,,,,,,,,,,,,,,
1769162788.248965,1769162788.24967,125.0,0.0,4233.589844,4279.615234,4403.846191,4309.871582,4253.974121,4263.846191,4295.256348,4274.871582,4262.563965,4263.205078,4566.794922,4537.692383,4412.94873,4505.897461,,,,,,,,,,,,,,,,,,,,,,,,,,,,,,,,,,,,,,,,,,,,,,,,,,,,,,,,,,,,,,,,,,,,,,
1769162788.256774,1769162788.257378,126.0,0.0,4234.358887,4283.589844,4403.974121,4318.461426,4260.0,4263.461426,4293.846191,4282.436035,4271.794922,4266.410156,4567.179688,4537.94873,4413.333496,4506.282227,0.608386,0.363378,0.244031,0.233525,0.233905,1.095235,0.606052,0.31973,0.164972,0.132064,0.250687,0.197054,0.180772,0.153188,0.13915,0.362501,0.227414,0.130996,0.087214,0.079172,0.151992,0.260252,0.128168,0.044622,0.06091,0.181962,0.293062,0.202799,0.109494,0.062182,0.165155,0.248693,0.315161,0.179207,0.094371,0.176042,0.171036,0.437106,0.143784,0.22996,0.229963,0.078865,0.232987,0.108554,0.139336,0.570279,0.439625,0.399467,0.113173,0.114252,0.811851,0.200895,0.370365,0.12281,0.169964,0.876264,0.400449,0.454042,0.210859,0.235917,1.27973,0.654668,0.447678,0.2357,0.316447,0.616135,0.422439,0.368813,0.170116,0.42698
1769162788.264582,1769162788.265187,127.0,0.0,4229.871582,4281.922852,4405.897461,4318.077148,4265.384766,4267.820313,4295.0,4290.0,4279.615234,4266.153809,4563.333496,4534.358887,4406.410156,4492.05127,,,,,,,,,,,,,,,,,,,,,,,,,,,,,,,,,,,,,,,,,,,,,,,,,,,,,,,,,,,,,,,,,,,,,,
1769162788.27239,1769162788.273195,0.0,0.0,4228.974121,4277.94873,4405.128418,4308.333496,4261.666504,4277.179688,4299.487305,4294.230957,4279.487305,4267.05127,4560.641113,4533.077148,4403.461426,4490.769043,,,,,,,,,,,,,,,,,,,,,,,,,,,,,,,,,,,,,,,,,,,,,,,,,,,,,,,,,,,,,,,,,,,,,,
1769162788.280199,1769162788.281004,1.0,0.0,4230.641113,4277.05127,4401.666504,4309.615234,4259.358887,4273.974121,4297.94873,4296.538574,4279.615234,4267.436035,4569.230957,4539.358887,4412.179688,4507.05127,,,,,,,,,,,,,,,,,,,,,,,,,,,,,,,,,,,,,,,,,,,,,,,,,,,,,,,,,,,,,,,,,,,,,,
1769162788.288007,1769162788.288912,2.0,0.0,4227.820313,4275.641113,4398.461426,4314.230957,4259.615234,4263.974121,4294.871582,4293.717773,4278.589844,4265.641113,4568.461426,4541.794922,4409.871582,4503.717773,,,,,,,,,,,,,,,,,,,,,,,,,,,,,,,,,,,,,,,,,,,,,,,,,,,,,,,,,,,,,,,,,,,,,,
1769162788.295816,1769162788.29672,3.0,0.0,4227.94873,4270.512695,4396.410156,4311.153809,4254.102539,4265.0,4297.307617,4293.717773,4277.94873,4269.743652,4559.487305,4535.512695,4401.794922,4493.077148,,,,,,,,,,,,,,,,,,,,,,,,,,,,,,,,,,,,,,,,,,,,,,,,,,,,,,,,,,,,,,,,,,,,,,
1769162788.303624,1769162788.304729,4.0,0.0,4236.153809,4272.05127,4400.641113,4313.717773,4249.743652,4268.077148,4297.307617,4299.871582,4282.179688,4277.692383,4570.769043,4544.871582,4413.846191,4507.436035,,,,,,,,,,,,,,,,,,,,,,,,,,,,,,,,,,,,,,,,,,,,,,,,,,,,,,,,,,,,,,,,,,,,,,
1769162788.311433,1769162788.312537,5.0,0.0,4249.358887,4286.153809,4408.846191,4323.333496,4250.897461,4263.589844,4292.692383,4294.102539,4282.05127,4281.666504,4591.153809,4564.615234,4432.563965,4527.436035,,,,,,,,,,,,,,,,,,,,,,,,,,,,,,,,,,,,,,,,,,,,,,,,,,,,,,,,,,,,,,,,,,,,,,
1769162788.319241,1769162788.320445,6.0,0.0,4250.641113,4291.794922,4410.641113,4328.333496,4252.820313,4262.94873,4292.436035,4283.333496,4278.077148,4276.794922,4587.94873,4563.333496,4433.589844,4523.461426,,,,,,,,,,,,,,,,,,,,,,,,,,,,,,,,,,,,,,,,,,,,,,,,,,,,,,,,,,,,,,,,,,,,,,
1769162788.32705,1769162788.328254,7.0,0.0,4235.897461,4281.666504,4403.077148,4325.256348,4251.282227,4267.563965,4295.641113,4285.512695,4277.179688,4267.05127,4571.922852,4542.179688,4419.743652,4509.871582,,,,,,,,,,,,,,,,,,,,,,,,,,,,,,,,,,,,,,,,,,,,,,,,,,,,,,,,,,,,,,,,,,,,,,
1769162788.334858,1769162788.336262,8.0,0.0,4232.307617,4276.666504,4396.538574,4322.820313,4249.871582,4267.563965,4295.256348,4287.563965,4276.666504,4261.410156,4567.820313,4533.205078,4410.769043,4504.358887,,,,,,,,,,,,,,,,,,,,,,,,,,,,,,,,,,,,,,,,,,,,,,,,,,,,,,,,,,,,,,,,,,,,,,
1769162788.342667,1769162788.34407,9.0,0.0,4247.05127,4283.077148,4398.205078,4326.025879,4250.384766,4265.512695,4293.974121,4285.641113,4276.410156,4264.102539,4574.487305,4546.025879,4419.615234,4508.717773,,,,,,,,,,,,,,,,,,,,,,,,,,,,,,,,,,,,,,,,,,,,,,,,,,,,,,,,,,,,,,,,,,,,,,
1769162788.350475,1769162788.351779,10.0,0.0,4249.358887,4284.358887,4400.641113,4328.333496,4249.102539,4264.743652,4295.769043,4290.384766,4278.333496,4268.077148,4576.666504,4552.820313,4427.179688,4514.358887,,,,,,,,,,,,,,,,,,,,,,,,,,,,,,,,,,,,,,,,,,,,,,,,,,,,,,,,,,,,,,,,,,,,,,
1769162788.358283,1769162788.359587,11.0,0.0,4235.0,4279.230957,4398.077148,4326.153809,4249.358887,4263.846191,4295.0,4292.179688,4276.025879,4259.871582,4569.102539,4542.307617,4413.205078,4507.436035,,,,,,,,,,,,,,,,,,,,,,,,,,,,,,,,,,,,,,,,,,,,,,,,,,,,,,,,,,,,,,,,,,,,,,
1769162788.366092,1769162788.367196,12.0,0.0,4229.230957,4277.820313,4394.871582,4323.333496,4249.871582,4261.538574,4291.538574,4287.436035,4272.563965,4251.282227,4561.410156,4534.230957,4400.641113,4492.179688,,,,,,,,,,,,,,,,,,,,,,,,,,,,,,,,,,,,,,,,,,,,,,,,,,,,,,,,,,,,,,,,,,,,,,
1769162788.3739,1769162788.375005,13.0,0.0,4233.077148,4278.205078,4394.230957,4323.205078,4248.717773,4263.205078,4292.307617,4290.897461,4277.179688,4251.666504,4563.589844,4539.615234,4407.179688,4487.179688,,,,,,,,,,,,,,,,,,,,,,,,,,,,,,,,,,,,,,,,,,,,,,,,,,,,,,,,,,,,,,,,,,,,,,
1769162788.381709,1769162788.382713,14.0,0.0,4233.461426,4278.077148,4394.615234,4322.436035,4248.333496,4268.333496,4296.538574,4296.922852,4277.820313,4252.179688,4568.333496,4543.205078,4413.974121,4495.256348,0.467828,0.3693,0.23478,0.231864,0.232882,0.863119,0.64571,0.336709,0.16771,0.125491,0.247887,0.191263,0.172232,0.132222,0.116396,0.260428,0.228336,0.103276,0.074371,0.068809,0.161205,0.268923,0.134361,0.051954,0.066942,0.192342,0.247221,0.240955,0.122908,0.057723,0.147993,0.207327,0.29956,0.179085,0.082618,0.206254,0.176574,0.4819,0.146065,0.204116,0.216357,0.093271,0.179465,0.10485,0.117267,0.493259,0.444242,0.335479,0.115418,0.112987,0.666179,0.205476,0.31254,0.118146,0.177959,0.708721,0.420081,0.419702,0.191979,0.231881,1.215039,0.674186,0.395948,0.212735,0.318402,0.556136,0.371103,0.342155,0.150687,0.39621
1769162788.389517,1769162788.390522,15.0,0.0,4234.230957,4279.230957,4396.666504,4322.307617,4247.307617,4267.563965,4292.563965,4293.333496,4272.307617,4251.153809,4564.615234,4538.846191,4410.897461,4497.05127,,,,,,,,,,,,,,,,,,,,,,,,,,,,,,,,,,,,,,,,,,,,,,,,,,,,,,,,,,,,,,,,,,,,,,
1769162788.397326,1769162788.39813,16.0,0.0,4236.666504,4280.897461,4399.358887,4325.512695,4245.0,4262.307617,4285.0,4291.282227,4275.0,4253.846191,4562.05127,4538.333496,4408.333496,4492.692383,,,,,,,,,,,,,,,,,,,,,,,,,,,,,,,,,,,,,,,,,,,,,,,,,,,,,,,,,,,,,,,,,,,,,,
1769162788.405134,1769162788.405939,17.0,0.0,4237.436035,4279.358887,4398.974121,4326.153809,4246.794922,4262.307617,4288.589844,4290.769043,4278.846191,4258.846191,4569.487305,4541.410156,4410.512695,4497.94873,,,,,,,,,,,,,,,,,,,,,,,,,,,,,,,,,,,,,,,,,,,,,,,,,,,,,,,,,,,,,,,,,,,,,,
1769162788.412943,1769162788.413847,18.0,0.0,4235.897461,4279.102539,4396.922852,4323.077148,4249.230957,4266.153809,4295.641113,4288.205078,4276.666504,4261.410156,4576.666504,4542.307617,4415.641113,4504.487305,,,,,,,,,,,,,,,,,,,,,,,,,,,,,,,,,,,,,,,,,,,,,,,,,,,,,,,,,,,,,,,,,,,,,,
1769162788.420751,1769162788.421655,19.0,0.0,4234.102539,4279.358887,4396.538574,4324.230957,4247.692383,4265.769043,4295.641113,4283.205078,4275.769043,4263.205078,4568.589844,4539.487305,4416.282227,4501.025879,,,,,,,,,,,,,,,,,,,,,,,,,,,,,,,,,,,,,,,,,,,,,,,,,,,,,,,,,,,,,,,,,,,,,,
1769162788.428559,1769162788.429264,20.0,0.0,4231.153809,4271.538574,4395.769043,4323.333496,4248.333496,4261.794922,4292.563965,4279.102539,4274.230957,4262.05127,4555.641113,4536.666504,4412.05127,4493.077148,,,,,,,,,,,,,,,,,,,,,,,,,,,,,,,,,,,,,,,,,,,,,,,,,,,,,,,,,,,,,,,,,,,,,,
1769162788.436368,1769162788.437073,21.0,0.0,4227.436035,4261.666504,4393.461426,4313.846191,4246.794922,4261.538574,4295.0,4286.538574,4275.512695,4261.538574,4562.307617,4538.974121,4410.769043,4489.102539,,,,,,,,,,,,,,,,,,,,,,,,,,,,,,,,,,,,,,,,,,,,,,,,,,,,,,,,,,,,,,,,,,,,,,
1769162788.444176,1769162788.444781,22.0,0.0,4229.358887,4263.205078,4394.230957,4312.563965,4242.179688,4261.282227,4294.487305,4296.282227,4278.846191,4265.769043,4574.230957,4545.0,4413.589844,4491.666504,,,,,,,,,,,,,,,,,,,,,,,,,,,,,,,,,,,,,,,,,,,,,,,,,,,,,,,,,,,,,,,,,,,,,,
1769162788.451985,1769162788.45259,23.0,0.0,4232.692383,4272.307617,4396.282227,4322.94873,4243.846191,4258.846191,4284.871582,4285.769043,4269.615234,4263.974121,4562.94873,4539.487305,4408.589844,4488.205078,,,,,,,,,,,,,,,,,,,,,,,,,,,,,,,,,,,,,,,,,,,,,,,,,,,,,,,,,,,,,,,,,,,,,,
1769162788.459793,1769162788.460198,24.0,0.0,4232.05127,4275.897461,4395.0,4326.794922,4248.333496,4260.384766,4284.615234,4272.692383,4257.436035,4257.179688,4547.692383,4529.102539,4399.358887,4476.794922,,,,,,,,,,,,,,,,,,,,,,,,,,,,,,,,,,,,,,,,,,,,,,,,,,,,,,,,,,,,,,,,,,,,,,
1769162788.467602,1769162788.468007,25.0,0.0,4230.256348,4273.589844,4393.333496,4323.717773,4248.077148,4263.205078,4291.410156,4284.230957,4263.333496,4258.205078,4557.05127,4533.717773,4402.94873,4478.205078,,,,,,,,,,,,,,,,,,,,,,,,,,,,,,,,,,,,,,,,,,,,,,,,,,,,,,,,,,,,,,,,,,,,,,
1769162788.47541,1769162788.475915,26.0,0.0,4232.820313,4273.333496,4395.256348,4324.358887,4246.794922,4259.743652,4288.717773,4292.692383,4270.256348,4268.717773,4571.538574,4545.0,4414.871582,4494.743652,,,,,,,,,,,,,,,,,,,,,,,,,,,,,,,,,,,,,,,,,,,,,,,,,,,,,,,,,,,,,,,,,,,,,,
1769162788.483219,1769162788.483723,27.0,0.0,4237.94873,4277.307617,4399.230957,4326.282227,4247.436035,4258.461426,4284.102539,4280.256348,4264.871582,4266.282227,4565.128418,4540.897461,4412.05127,4495.769043,,,,,,,,,,,,,,,,,,,,,,,,,,,,,,,,,,,,,,,,,,,,,,,,,,,,,,,,,,,,,,,,,,,,,,
1769162788.491027,1769162788.491732,28.0,0.0,4238.461426,4279.102539,4399.230957,4325.128418,4247.692383,4265.512695,4287.563965,4272.307617,4256.666504,4250.128418,4544.102539,4522.820313,4395.512695,4476.922852,,,,,,,,,,,,,,,,,,,,,,,,,,,,,,,,,,,,,,,,,,,,,,,,,,,,,,,,,,,,,,,,,,,,,,
1769162788.498835,1769162788.49954,29.0,0.0,4232.563965,4276.282227,4394.743652,4325.0,4248.717773,4267.436035,4291.538574,4278.077148,4257.820313,4249.102539,4537.563965,4515.0,4394.230957,4469.102539,,,,,,,,,,,,,,,,,,,,,,,,,,,,,,,,,,,,,,,,,,,,,,,,,,,,,,,,,,,,,,,,,,,,,,
1769162788.506644,1769162788.507448,30.0,0.0,4232.436035,4273.846191,4393.717773,4325.128418,4249.487305,4264.102539,4292.820313,4288.077148,4272.179688,4263.461426,4555.897461,4526.794922,4408.974121,4482.179688,0.388573,0.368131,0.230132,0.223541,0.233615,0.689862,0.620444,0.332656,0.172965,0.121016,0.192741,0.176822,0.155313,0.115288,0.097631,0.209936,0.227972,0.079937,0.064849,0.064162,0.18097,0.2637,0.144514,0.059617,0.069572,0.212851,0.220719,0.268878,0.136997,0.055473,0.126464,0.170224,0.274153,0.169752,0.070913,0.22439,0.178983,0.492004,0.156591,0.177112,0.205001,0.114244,0.139142,0.11755,0.102963,0.411034,0.422842,0.258714,0.11985,0.113342,0.54311,0.207889,0.238963,0.115878,0.179595,0.571317,0.427734,0.350269,0.163161,0.211135,1.104828,0.660934,0.314781,0.19431,0.318354,0.559266,0.355843,0.296976,0.140954,0.346358
1769162788.514453,1769162788.515257,31.0,0.0,4242.94873,4274.358887,4398.333496,4325.769043,4248.974121,4266.025879,4296.922852,4289.230957,4283.077148,4267.820313,4568.461426,4541.922852,4414.871582,4496.666504,,,,,,,,,,,,,,,,,,,,,,,,,,,,,,,,,,,,,,,,,,,,,,,,,,,,,,,,,,,,,,,,,,,,,,
1769162788.522261,1769162788.523265,32.0,0.0,4246.794922,4277.692383,4402.692383,4328.461426,4249.102539,4266.282227,4293.333496,4281.282227,4276.666504,4262.179688,4559.102539,4536.666504,4410.128418,4488.846191,,,,,,,,,,,,,,,,,,,,,,,,,,,,,,,,,,,,,,,,,,,,,,,,,,,,,,,,,,,,,,,,,,,,,,
1769162788.530069,1769162788.531074,33.0,0.0,4243.974121,4281.922852,4403.077148,4334.615234,4249.615234,4262.94873,4287.436035,4277.436035,4268.077148,4260.769043,4552.179688,4523.589844,4409.102539,4473.461426,,,,,,,,,,,,,,,,,,,,,,,,,,,,,,,,,,,,,,,,,,,,,,,,,,,,,,,,,,,,,,,,,,,,,,
1769162788.537878,1769162788.538782,34.0,0.0,4247.436035,4283.077148,4400.256348,4336.538574,4249.615234,4263.205078,4291.282227,4279.487305,4266.410156,4262.563965,4558.205078,4530.128418,4411.666504,4480.769043,,,,,,,,,,,,,,,,,,,,,,,,,,,,,,,,,,,,,,,,,,,,,,,,,,,,,,,,,,,,,,,,,,,,,,
1769162788.545686,1769162788.546591,35.0,0.0,4248.974121,4280.769043,4398.205078,4330.897461,4248.333496,4264.487305,4291.794922,4278.205078,4266.282227,4262.94873,4561.538574,4537.179688,4413.974121,4493.461426,,,,,,,,,,,,,,,,,,,,,,,,,,,,,,,,,,,,,,,,,,,,,,,,,,,,,,,,,,,,,,,,,,,,,,
1769162788.553495,1769162788.554399,36.0,0.0,4245.641113,4280.512695,4398.077148,4330.128418,4247.820313,4262.307617,4285.384766,4278.205078,4265.256348,4261.282227,4555.641113,4526.538574,4414.487305,4491.922852,,,,,,,,,,,,,,,,,,,,,,,,,,,,,,,,,,,,,,,,,,,,,,,,,,,,,,,,,,,,,,,,,,,,,,
1769162788.561303,1769162788.562208,37.0,0.0,4246.666504,4282.563965,4397.94873,4336.410156,4249.102539,4262.820313,4287.179688,4280.384766,4266.794922,4260.128418,4551.794922,4522.692383,4410.769043,4486.922852,,,,,,,,,,,,,,,,,,,,,,,,,,,,,,,,,,,,,,,,,,,,,,,,,,,,,,,,,,,,,,,,,,,,,,
1769162788.569112,1769162788.569916,38.0,0.0,4248.077148,4281.538574,4397.307617,4335.769043,4249.487305,4264.743652,4294.102539,4278.717773,4270.641113,4263.461426,4560.769043,4537.307617,4414.743652,4490.384766,,,,,,,,,,,,,,,,,,,,,,,,,,,,,,,,,,,,,,,,,,,,,,,,,,,,,,,,,,,,,,,,,,,,,,
1769162788.57692,1769162788.577725,39.0,0.0,4247.436035,4278.589844,4398.717773,4328.717773,4249.102539,4261.794922,4290.769043,4280.641113,4271.922852,4268.077148,4569.102539,4545.384766,4422.94873,4498.589844,,,,,,,,,,,,,,,,,,,,,,,,,,,,,,,,,,,,,,,,,,,,,,,,,,,,,,,,,,,,,,,,,,,,,,
1769162788.584729,1769162788.585333,40.0,0.0,4246.153809,4279.230957,4397.436035,4326.922852,4248.846191,4262.307617,4288.461426,4278.077148,4265.0,4265.897461,4559.487305,4534.615234,4415.0,4496.025879,,,,,,,,,,,,,,,,,,,,,,,,,,,,,,,,,,,,,,,,,,,,,,,,,,,,,,,,,,,,,,,,,,,,,,
1769162788.592537,1769162788.593142,41.0,0.0,4239.743652,4277.436035,4391.922852,4328.333496,4248.589844,4266.666504,4294.871582,4274.743652,4266.666504,4260.0,4548.461426,4520.512695,4402.692383,4481.025879,,,,,,,,,,,,,,,,,,,,,,,,,,,,,,,,,,,,,,,,,,,,,,,,,,,,,,,,,,,,,,,,,,,,,,
1769162788.600345,1769162788.60085,42.0,0.0,4231.922852,4267.179688,4387.692383,4327.307617,4250.0,4265.384766,4294.743652,4286.666504,4282.563965,4267.05127,4558.205078,4521.153809,4408.846191,4478.205078,,,,,,,,,,,,,,,,,,,,,,,,,,,,,,,,,,,,,,,,,,,,,,,,,,,,,,,,,,,,,,,,,,,,,,
1769162788.608154,1769162788.608659,43.0,0.0,4230.384766,4262.307617,4387.307617,4324.230957,4250.0,4267.94873,4292.563965,4292.436035,4283.717773,4277.692383,4569.871582,4532.692383,4419.358887,4491.538574,,,,,,,,,,,,,,,,,,,,,,,,,,,,,,,,,,,,,,,,,,,,,,,,,,,,,,,,,,,,,,,,,,,,,,
1769162788.615962,1769162788.616667,44.0,0.0,4236.025879,4271.794922,4390.0,4323.974121,4250.128418,4273.333496,4294.358887,4277.94873,4265.384766,4272.436035,4568.717773,4533.077148,4416.538574,4495.256348,,,,,,,,,,,,,,,,,,,,,,,,,,,,,,,,,,,,,,,,,,,,,,,,,,,,,,,,,,,,,,,,,,,,,,
1769162788.623771,1769162788.624475,45.0,0.0,4244.615234,4280.769043,4396.666504,4333.461426,4256.282227,4267.307617,4290.769043,4271.282227,4261.794922,4262.94873,4563.717773,4523.077148,4411.794922,4491.410156,,,,,,,,,,,,,,,,,,,,,,,,,,,,,,,,,,,,,,,,,,,,,,,,,,,,,,,,,,,,,,,,,,,,,,
1769162788.631579,1769162788.632184,46.0,0.0,4245.769043,4279.743652,4400.512695,4339.871582,4261.282227,4261.538574,4286.538574,4281.666504,4277.05127,4263.846191,4558.589844,4521.153809,4410.256348,4487.692383,0.360981,0.360795,0.219908,0.209962,0.236272,0.593377,0.540512,0.307727,0.178501,0.119611,0.193533,0.157551,0.136092,0.106055,0.083879,0.214385,0.222306,0.067098,0.061583,0.066666,0.219398,0.240734,0.155911,0.066307,0.067416,0.238418,0.216116,0.283565,0.15256,0.056602,0.105796,0.144342,0.238533,0.151788,0.061417,0.229881,0.180419,0.465307,0.175333,0.160236,0.19853,0.136633,0.117817,0.143729,0.101857,0.368892,0.405985,0.190044,0.128828,0.116147,0.468825,0.223547,0.16642,0.117778,0.180211,0.492963,0.432619,0.26554,0.133448,0.185217,0.985633,0.63266,0.226851,0.179399,0.317788,0.616614,0.403544,0.246266,0.142871,0.300279
1769162788.639388,1769162788.639992,47.0,0.0,4242.307617,4278.717773,4397.179688,4335.256348,4259.102539,4267.692383,4290.128418,4285.512695,4278.333496,4267.307617,4561.025879,4529.871582,4414.743652,4487.307617,,,,,,,,,,,,,,,,,,,,,,,,,,,,,,,,,,,,,,,,,,,,,,,,,,,,,,,,,,,,,,,,,,,,,,
1769162788.647196,1769162788.647601,48.0,0.0,4250.897461,4280.897461,4401.666504,4335.512695,4256.794922,4267.179688,4293.846191,4279.871582,4268.846191,4266.922852,4573.077148,4542.692383,4426.794922,4502.179688,,,,,,,,,,,,,,,,,,,,,,,,,,,,,,,,,,,,,,,,,,,,,,,,,,,,,,,,,,,,,,,,,,,,,,
1769162788.655005,1769162788.655409,49.0,0.0,4259.615234,4282.563965,4410.641113,4340.641113,4260.128418,4264.102539,4292.307617,4276.922852,4267.94873,4265.384766,4571.025879,4541.025879,4426.922852,4507.05127,,,,,,,,,,,,,,,,,,,,,,,,,,,,,,,,,,,,,,,,,,,,,,,,,,,,,,,,,,,,,,,,,,,,,,
1769162788.662813,1769162788.663118,50.0,0.0,4251.153809,4282.94873,4407.179688,4338.461426,4262.307617,4274.102539,4292.692383,4276.538574,4267.692383,4261.282227,4555.769043,4524.358887,4412.307617,4490.128418,,,,,,,,,,,,,,,,,,,,,,,,,,,,,,,,,,,,,,,,,,,,,,,,,,,,,,,,,,,,,,,,,,,,,,
1769162788.670622,1769162788.670926,51.0,0.0,4245.256348,4282.307617,4403.205078,4336.025879,4261.025879,4275.897461,4292.820313,4278.333496,4268.077148,4263.589844,4559.615234,4525.128418,4410.256348,4493.077148,,,,,,,,,,,,,,,,,,,,,,,,,,,,,,,,,,,,,,,,,,,,,,,,,,,,,,,,,,,,,,,,,,,,,,
1769162788.67843,1769162788.678935,52.0,0.0,4255.512695,4281.282227,4406.153809,4338.974121,4257.563965,4265.128418,4290.512695,4279.102539,4278.461426,4273.974121,4575.256348,4543.205078,4424.102539,4512.692383,,,,,,,,,,,,,,,,,,,,,,,,,,,,,,,,,,,,,,,,,,,,,,,,,,,,,,,,,,,,,,,,,,,,,,
1769162788.686238,1769162788.686743,53.0,0.0,4262.307617,4280.897461,4405.512695,4340.256348,4252.307617,4266.025879,4292.563965,4279.487305,4283.077148,4273.589844,4573.846191,4545.512695,4425.128418,4511.410156,,,,,,,,,,,,,,,,,,,,,,,,,,,,,,,,,,,,,,,,,,,,,,,,,,,,,,,,,,,,,,,,,,,,,,
1769162788.694047,1769162788.694651,54.0,0.0,4255.256348,4279.487305,4404.230957,4338.333496,4250.641113,4274.230957,4295.897461,4278.205078,4272.94873,4263.589844,4564.230957,4535.384766,4412.179688,4500.641113,,,,,,,,,,,,,,,,,,,,,,,,,,,,,,,,,,,,,,,,,,,,,,,,,,,,,,,,,,,,,,,,,,,,,,
1769162788.701855,1769162788.70246,55.0,0.0,4249.102539,4277.307617,4406.922852,4334.230957,4251.153809,4272.94873,4292.563965,4277.563965,4270.897461,4262.692383,4566.922852,4536.538574,4416.025879,4506.025879,,,,,,,,,,,,,,,,,,,,,,,,,,,,,,,,,,,,,,,,,,,,,,,,,,,,,,,,,,,,,,,,,,,,,,
1769162788.709664,1769162788.710468,56.0,0.0,4248.589844,4277.05127,4404.358887,4331.025879,4250.512695,4270.769043,4290.897461,4281.153809,4280.128418,4268.717773,4575.512695,4544.871582,4427.692383,4509.487305,,,,,,,,,,,,,,,,,,,,,,,,,,,,,,,,,,,,,,,,,,,,,,,,,,,,,,,,,,,,,,,,,,,,,,
1769162788.717472,1769162788.718277,57.0,0.0,4248.717773,4278.461426,4402.179688,4334.743652,4249.487305,4277.563965,4296.666504,4278.717773,4272.820313,4263.846191,4567.436035,4536.025879,4416.666504,4497.563965,,,,,,,,,,,,,,,,,,,,,,,,,,,,,,,,,,,,,,,,,,,,,,,,,,,,,,,,,,,,,,,,,,,,,,
1769162788.725281,1769162788.726185,58.0,0.0,4246.282227,4278.461426,4403.589844,4333.717773,4253.333496,4280.897461,4293.077148,4272.94873,4257.820313,4257.820313,4552.307617,4521.410156,4401.666504,4485.256348,,,,,,,,,,,,,,,,,,,,,,,,,,,,,,,,,,,,,,,,,,,,,,,,,,,,,,,,,,,,,,,,,,,,,,
1769162788.733089,1769162788.733993,59.0,0.0,4249.743652,4279.358887,4402.94873,4327.436035,4259.615234,4273.974121,4282.94873,4276.666504,4265.128418,4264.102539,4556.538574,4527.692383,4409.230957,4489.358887,,,,,,,,,,,,,,,,,,,,,,,,,,,,,,,,,,,,,,,,,,,,,,,,,,,,,,,,,,,,,,,,,,,,,,
1769162788.740898,1769162788.741802,60.0,0.0,4256.666504,4279.358887,4407.05127,4329.871582,4261.410156,4268.461426,4287.692383,4281.922852,4276.025879,4269.102539,4571.538574,4543.589844,4416.410156,4500.0,,,,,,,,,,,,,,,,,,,,,,,,,,,,,,,,,,,,,,,,,,,,,,,,,,,,,,,,,,,,,,,,,,,,,,
1769162788.748706,1769162788.74961,61.0,0.0,4256.025879,4278.846191,4410.769043,4335.384766,4261.666504,4273.974121,4295.128418,4279.102539,4267.436035,4269.743652,4569.743652,4537.692383,4410.641113,4497.05127,,,,,,,,,,,,,,,,,,,,,,,,,,,,,,,,,,,,,,,,,,,,,,,,,,,,,,,,,,,,,,,,,,,,,,
1769162788.756514,1769162788.757319,62.0,0.0,4250.512695,4283.205078,4406.282227,4336.282227,4264.230957,4280.0,4292.436035,4278.589844,4267.563965,4273.077148,4564.487305,4525.897461,4409.615234,4491.025879,0.391589,0.362902,0.20019,0.197007,0.241325,0.575829,0.437797,0.270328,0.182781,0.121217,0.16585,0.142405,0.11991,0.105418,0.074267,0.254487,0.213613,0.067806,0.065194,0.075688,0.285537,0.203655,0.165803,0.071002,0.061276,0.260721,0.224722,0.288645,0.169095,0.060913,0.088617,0.12813,0.19624,0.12851,0.055549,0.230848,0.188623,0.413698,0.197556,0.161369,0.197774,0.160178,0.117187,0.178084,0.114977,0.393092,0.420355,0.143538,0.144121,0.12153,0.442622,0.273706,0.110761,0.128796,0.190114,0.466563,0.452687,0.187923,0.118842,0.171607,0.882913,0.625313,0.153161,0.169704,0.3194,0.709845,0.544031,0.202515,0.158154,0.27945
1769162788.764323,1769162788.765127,63.0,0.0,4250.641113,4286.153809,4405.0,4338.461426,4265.641113,4277.307617,4290.512695,4280.769043,4281.282227,4275.128418,4567.307617,4531.410156,4412.179688,4490.641113,,,,,,,,,,,,,,,,,,,,,,,,,,,,,,,,,,,,,,,,,,,,,,,,,,,,,,,,,,,,,,,,,,,,,,
1769162788.772131,1769162788.772736,64.0,0.0,4256.794922,4281.153809,4411.153809,4340.384766,4262.179688,4273.589844,4292.179688,4278.846191,4282.179688,4271.538574,4567.94873,4538.205078,4410.897461,4489.615234,,,,,,,,,,,,,,,,,,,,,,,,,,,,,,,,,,,,,,,,,,,,,,,,,,,,,,,,,,,,,,,,,,,,,,
1769162788.77994,1769162788.780544,65.0,0.0,4261.794922,4278.333496,4413.461426,4338.589844,4259.615234,4275.769043,4292.05127,4284.743652,4277.692383,4268.589844,4567.436035,4536.922852,4410.256348,4489.743652,,,,,,,,,,,,,,,,,,,,,,,,,,,,,,,,,,,,,,,,,,,,,,,,,,,,,,,,,,,,,,,,,,,,,,
1769162788.787748,1769162788.788253,66.0,0.0,4263.717773,4282.94873,4411.153809,4340.512695,4262.05127,4278.589844,4293.846191,4288.717773,4277.05127,4265.384766,4567.820313,4532.563965,4411.794922,4489.358887,,,,,,,,,,,,,,,,,,,,,,,,,,,,,,,,,,,,,,,,,,,,,,,,,,,,,,,,,,,,,,,,,,,,,,
1769162788.795557,1769162788.796061,67.0,0.0,4261.410156,4282.436035,4409.615234,4341.922852,4266.025879,4280.0,4296.410156,4284.230957,4275.641113,4262.436035,4563.974121,4530.0,4410.769043,4485.0,,,,,,,,,,,,,,,,,,,,,,,,,,,,,,,,,,,,,,,,,,,,,,,,,,,,,,,,,,,,,,,,,,,,,,
1769162788.803365,1769162788.80407,68.0,0.0,4259.487305,4279.487305,4410.897461,4340.128418,4268.717773,4282.05127,4296.282227,4288.461426,4277.307617,4267.94873,4565.0,4536.922852,4410.256348,4484.615234,,,,,,,,,,,,,,,,,,,,,,,,,,,,,,,,,,,,,,,,,,,,,,,,,,,,,,,,,,,,,,,,,,,,,,
1769162788.811174,1769162788.811878,69.0,0.0,4265.897461,4285.769043,4415.769043,4343.717773,4269.615234,4281.410156,4295.769043,4296.794922,4281.410156,4273.333496,4576.666504,4552.820313,4419.102539,4497.307617,,,,,,,,,,,,,,,,,,,,,,,,,,,,,,,,,,,,,,,,,,,,,,,,,,,,,,,,,,,,,,,,,,,,,,
1769162788.818982,1769162788.819786,70.0,0.0,4267.563965,4286.666504,4416.794922,4344.743652,4271.282227,4278.589844,4293.846191,4294.102539,4279.102539,4268.589844,4579.615234,4554.871582,4429.102539,4507.436035,,,,,,,,,,,,,,,,,,,,,,,,,,,,,,,,,,,,,,,,,,,,,,,,,,,,,,,,,,,,,,,,,,,,,,
1769162788.826791,1769162788.827595,71.0,0.0,4261.025879,4281.538574,4411.538574,4340.641113,4275.897461,4278.205078,4293.974121,4288.846191,4277.179688,4265.128418,4573.205078,4542.05127,4430.384766,4506.025879,,,,,,,,,,,,,,,,,,,,,,,,,,,,,,,,,,,,,,,,,,,,,,,,,,,,,,,,,,,,,,,,,,,,,,
1769162788.834599,1769162788.835203,72.0,0.0,4264.358887,4284.615234,4411.794922,4341.025879,4273.461426,4278.974121,4295.128418,4293.846191,4279.743652,4267.179688,4570.897461,4537.820313,4423.589844,4498.717773,,,,,,,,,,,,,,,,,,,,,,,,,,,,,,,,,,,,,,,,,,,,,,,,,,,,,,,,,,,,,,,,,,,,,,
1769162788.842408,1769162788.843012,73.0,0.0,4276.666504,4291.666504,4418.846191,4344.358887,4266.410156,4275.384766,4292.692383,4292.436035,4278.846191,4265.128418,4570.512695,4541.538574,4417.94873,4494.743652,,,,,,,,,,,,,,,,,,,,,,,,,,,,,,,,,,,,,,,,,,,,,,,,,,,,,,,,,,,,,,,,,,,,,,
