Timestamp,OriginalTimestamp,EEG.Counter,EEG.Interpolated,EEG.AF3,EEG.F7,EEG.F3,EEG.FC5,EEG.T7,EEG.P7,EEG.O1,EEG.O2,EEG.P8,EEG.T8,EEG.FC6,EEG.F4,EEG.F8,EEG.AF4,POW.AF3.Theta,POW.AF3.Alpha,POW.AF3.BetaL,POW.AF3.BetaH,POW.AF3.Gamma,POW.F7.Theta,POW.F7.Alpha,POW.F7.BetaL,POW.F7.BetaH,POW.F7.Gamma,POW.F3.Theta,POW.F3.Alpha,POW.F3.BetaL,POW.F3.BetaH,POW.F3.Gamma,POW.FC5.Theta,POW.FC5.Alpha,POW.FC5.BetaL,POW.FC5.BetaH,POW.FC5.Gamma,POW.T7.Theta,POW.T7.Alpha,POW.T7.BetaL,POW.T7.BetaH,POW.T7.Gamma,POW.P7.Theta,POW.P7.Alpha,POW.P7.BetaL,POW.P7.BetaH,POW.P7.Gamma,POW.O1.Theta,POW.O1.Alpha,POW.O1.BetaL,POW.O1.BetaH,POW.O1.Gamma,POW.O2.Theta,POW.O2.Alpha,POW.O2.BetaL,POW.O2.BetaH,POW.O2.Gamma,POW.P8.Theta,POW.P8.Alpha,POW.P8.BetaL,POW.P8.BetaH,POW.P8.Gamma,POW.T8.Theta,POW.T8.Alpha,POW.T8.BetaL,POW.T8.BetaH,POW.T8.Gamma,POW.FC6.Theta,POW.FC6.Alpha,POW.FC6.BetaL,POW.FC6.BetaH,POW.FC6.Gamma,POW.F4.Theta,POW.F4.Alpha,POW.F4.BetaL,POW.F4.BetaH,POW.F4.Gamma,POW.F8.Theta,POW.F8.Alpha,POW.F8.BetaL,POW.F8.BetaH,POW.F8.Gamma,POW.AF4.Theta,POW.AF4.Alpha,POW.AF4.BetaL,POW.AF4.BetaH,POW.AF4.Gamma
1769164136.612743,1769164136.613077,5.0,0.0,4461.922852,4341.538574,4324.230957,4412.94873,4302.94873,4298.333496,4325.769043,4348.333496,4326.794922,4303.717773,4622.05127,4587.94873,4476.153809,4565.897461,,,,,,,,,,,,,,,,,,,,,,,,,,,,,,,,,,,,,,,,,,,,,,,,,,,,,,,,,,,,,,,,,,,,,,
1769164136.620551,1769164136.620986,6.0,0.0,4460.897461,4338.717773,4321.794922,4410.512695,4306.282227,4304.615234,4330.384766,4353.717773,4327.307617,4308.589844,4627.563965,4586.666504,4488.333496,4568.717773,,,,,,,,,,,,,,,,,,,,,,,,,,,,,,,,,,,,,,,,,,,,,,,,,,,,,,,,,,,,,,,,,,,,,,
1769164136.62836,1769164136.628794,7.0,0.0,4473.974121,4344.487305,4323.205078,4412.436035,4308.333496,4305.256348,4334.230957,4358.333496,4328.077148,4309.743652,4629.743652,4587.307617,4487.05127,4572.179688,,,,,,,,,,,,,,,,,,,,,,,,,,,,,,,,,,,,,,,,,,,,,,,,,,,,,,,,,,,,,,,,,,,,,,
1769164136.636168,1769164136.636802,8.0,0.0,4479.230957,4350.128418,4329.102539,4417.436035,4309.230957,4300.128418,4331.153809,4357.692383,4326.025879,4306.153809,4628.205078,4588.974121,4475.256348,4573.589844,,,,,,,,,,,,,,,,,,,,,,,,,,,,,,,,,,,,,,,,,,,,,,,,,,,,,,,,,,,,,,,,,,,,,,
1769164136.643977,1769164136.644611,9.0,0.0,4461.794922,4344.230957,4324.615234,4415.769043,4307.05127,4299.102539,4331.794922,4355.641113,4323.589844,4302.179688,4627.436035,4588.333496,4475.128418,4572.05127,,,,,,,,,,,,,,,,,,,,,,,,,,,,,,,,,,,,,,,,,,,,,,,,,,,,,,,,,,,,,,,,,,,,,,
1769164136.651785,1769164136.652319,10.0,0.0,4450.128418,4337.692383,4314.102539,4410.384766,4304.230957,4308.205078,4337.179688,4357.692383,4323.589844,4302.307617,4626.922852,4585.897461,4477.94873,4566.922852,,,,,,,,,,,,,,,,,,,,,,,,,,,,,,,,,,,,,,,,,,,,,,,,,,,,,,,,,,,,,,,,,,,,,,
1769164136.659593,1769164136.660128,11.0,0.0,4457.05127,4341.153809,4317.436035,4411.410156,4306.794922,4308.205078,4335.256348,4362.436035,4327.563965,4308.461426,4627.820313,4586.538574,4476.538574,4568.333496,,,,,,,,,,,,,,,,,,,,,,,,,,,,,,,,,,,,,,,,,,,,,,,,,,,,,,,,,,,,,,,,,,,,,,
1769164136.667402,1769164136.667737,12.0,0.0,4460.769043,4344.615234,4320.769043,4414.743652,4312.563965,4298.846191,4335.0,4364.358887,4325.256348,4307.820313,4625.641113,4587.179688,4475.512695,4566.794922,,,,,,,,,,,,,,,,,,,,,,,,,,,,,,,,,,,,,,,,,,,,,,,,,,,,,,,,,,,,,,,,,,,,,,
1769164136.67521,1769164136.675545,13.0,0.0,4455.641113,4341.794922,4312.820313,4413.461426,4311.666504,4297.820313,4337.307617,4364.871582,4318.846191,4300.128418,4620.0,4585.128418,4473.589844,4555.384766,,,,,,,,,,,,,,,,,,,,,,,,,,,,,,,,,,,,,,,,,,,,,,,,,,,,,,,,,,,,,,,,,,,,,,
1769164136.683019,1769164136.683453,14.0,0.0,4455.384766,4340.128418,4312.563965,4413.846191,4310.0,4298.717773,4327.820313,4364.102539,4324.615234,4304.743652,4625.128418,4586.025879,4473.205078,4557.05127,1.387699,0.484959,0.323858,0.36508,0.215059,0.508384,0.539906,0.173491,0.148741,0.156508,0.416235,0.294725,0.300017,0.279277,0.109277,1.224144,0.622324,0.149157,0.129083,0.132507,0.331163,0.252072,0.101855,0.068749,0.045817,0.093,0.242077,0.199517,0.139802,0.069773,0.135301,0.11465,0.061947,0.110363,0.092407,0.167232,0.164937,0.06652,0.091074,0.072395,0.204081,0.094907,0.143785,0.093524,0.098507,0.383592,0.272363,0.192139,0.246371,0.170443,0.542758,0.29778,0.23135,0.373896,0.13321,0.298201,0.215798,0.436634,0.473874,0.148741,0.550339,0.528871,0.228132,0.507692,0.211386,1.278023,0.396096,0.410709,0.745499,0.174641
1769164136.690827,1769164136.691262,15.0,0.0,4458.205078,4341.538574,4319.358887,4419.230957,4316.666504,4293.461426,4320.769043,4361.025879,4334.615234,4315.512695,4633.717773,4588.589844,4478.333496,4571.538574,,,,,,,,,,,,,,,,,,,,,,,,,,,,,,,,,,,,,,,,,,,,,,,,,,,,,,,,,,,,,,,,,,,,,,
1769164136.698636,1769164136.69927,16.0,0.0,4457.05127,4343.205078,4316.410156,4422.692383,4319.871582,4293.461426,4326.538574,4360.897461,4331.794922,4312.436035,4630.769043,4587.563965,4479.230957,4572.94873,,,,,,,,,,,,,,,,,,,,,,,,,,,,,,,,,,,,,,,,,,,,,,,,,,,,,,,,,,,,,,,,,,,,,,
1769164136.706444,1769164136.707079,17.0,0.0,4458.717773,4343.974121,4315.384766,4425.0,4313.461426,4297.179688,4329.230957,4363.974121,4324.615234,4306.666504,4627.692383,4585.512695,4476.922852,4568.205078,,,,,,,,,,,,,,,,,,,,,,,,,,,,,,,,,,,,,,,,,,,,,,,,,,,,,,,,,,,,,,,,,,,,,,
1769164136.714253,1769164136.714987,18.0,0.0,4462.94873,4345.641113,4323.717773,4428.077148,4310.897461,4295.128418,4327.307617,4364.230957,4326.153809,4309.358887,4631.153809,4587.05127,4476.410156,4570.384766,,,,,,,,,,,,,,,,,,,,,,,,,,,,,,,,,,,,,,,,,,,,,,,,,,,,,,,,,,,,,,,,,,,,,,
1769164136.722061,1769164136.722795,19.0,0.0,4461.282227,4345.128418,4322.94873,4429.358887,4313.461426,4297.436035,4333.205078,4364.358887,4327.820313,4309.230957,4630.384766,4588.461426,4475.512695,4570.0,,,,,,,,,,,,,,,,,,,,,,,,,,,,,,,,,,,,,,,,,,,,,,,,,,,,,,,,,,,,,,,,,,,,,,
1769164136.729869,1769164136.730704,20.0,0.0,4457.692383,4342.94873,4314.615234,4427.94873,4312.820313,4303.333496,4337.307617,4365.897461,4326.794922,4307.307617,4628.205078,4586.666504,4477.820313,4568.589844,,,,,,,,,,,,,,,,,,,,,,,,,,,,,,,,,,,,,,,,,,,,,,,,,,,,,,,,,,,,,,,,,,,,,,
1769164136.737678,1769164136.738512,21.0,0.0,4459.230957,4344.102539,4313.717773,4428.461426,4310.641113,4307.94873,4335.384766,4364.871582,4327.436035,4308.205078,4629.615234,4585.256348,4478.589844,4570.512695,,,,,,,,,,,,,,,,,,,,,,,,,,,,,,,,,,,,,,,,,,,,,,,,,,,,,,,,,,,,,,,,,,,,,,
1769164136.745486,1769164136.746221,22.0,0.0,4461.794922,4344.230957,4319.487305,4426.666504,4309.743652,4311.922852,4335.769043,4364.230957,4326.282227,4307.563965,4628.461426,4585.256348,4476.282227,4568.333496,,,,,,,,,,,,,,,,,,,,,,,,,,,,,,,,,,,,,,,,,,,,,,,,,,,,,,,,,,,,,,,,,,,,,,
1769164136.753295,1769164136.754029,23.0,0.0,4460.384766,4343.333496,4325.0,4426.538574,4309.230957,4304.871582,4331.922852,4364.871582,4329.487305,4308.461426,4629.230957,4589.358887,4482.563965,4567.820313,,,,,,,,,,,,,,,,,,,,,,,,,,,,,,,,,,,,,,,,,,,,,,,,,,,,,,,,,,,,,,,,,,,,,,
1769164136.761103,1769164136.761638,24.0,0.0,4460.512695,4347.563965,4324.230957,4434.871582,4311.153809,4292.307617,4324.230957,4364.487305,4338.205078,4314.102539,4639.615234,4596.666504,4494.487305,4577.820313,,,,,,,,,,,,,,,,,,,,,,,,,,,,,,,,,,,,,,,,,,,,,,,,,,,,,,,,,,,,,,,,,,,,,,
1769164136.768912,1769164136.769446,25.0,0.0,4460.641113,4353.333496,4320.128418,4441.410156,4311.794922,4293.205078,4323.717773,4365.0,4337.94873,4314.615234,4641.538574,4597.692383,4493.589844,4579.230957,,,,,,,,,,,,,,,,,,,,,,,,,,,,,,,,,,,,,,,,,,,,,,,,,,,,,,,,,,,,,,,,,,,,,,
1769164136.77672,1769164136.777155,26.0,0.0,4457.436035,4355.256348,4318.205078,4440.769043,4311.410156,4302.307617,4326.410156,4363.461426,4327.563965,4308.717773,4634.358887,4593.077148,4486.922852,4570.769043,,,,,,,,,,,,,,,,,,,,,,,,,,,,,,,,,,,,,,,,,,,,,,,,,,,,,,,,,,,,,,,,,,,,,,
1769164136.784529,1769164136.784963,27.0,0.0,4456.922852,4356.922852,4322.307617,4441.410156,4312.436035,4302.563965,4325.0,4363.333496,4324.615234,4308.205078,4638.205078,4597.05127,4490.384766,4580.897461,,,,,,,,,,,,,,,,,,,,,,,,,,,,,,,,,,,,,,,,,,,,,,,,,,,,,,,,,,,,,,,,,,,,,,
1769164136.792337,1769164136.792572,28.0,0.0,4459.743652,4357.94873,4323.846191,4443.589844,4311.666504,4302.563965,4325.512695,4366.025879,4331.666504,4312.692383,4641.922852,4598.205078,4493.333496,4588.077148,,,,,,,,,,,,,,,,,,,,,,,,,,,,,,,,,,,,,,,,,,,,,,,,,,,,,,,,,,,,,,,,,,,,,,
1769164136.800146,1769164136.80038,29.0,0.0,4457.692383,4355.0,4318.077148,4442.436035,4306.666504,4305.512695,4328.846191,4366.282227,4331.410156,4311.282227,4636.410156,4590.256348,4486.794922,4573.461426,,,,,,,,,,,,,,,,,,,,,,,,,,,,,,,,,,,,,,,,,,,,,,,,,,,,,,,,,,,,,,,,,,,,,,
1769164136.807954,1769164136.808089,30.0,0.0,4455.0,4353.333496,4319.358887,4443.205078,4304.487305,4303.333496,4327.179688,4367.94873,4329.358887,4309.487305,4638.974121,4593.077148,4487.692383,4573.974121,1.397547,0.53005,0.439228,0.402589,0.255728,0.630113,0.610971,0.191565,0.155422,0.18765,0.446635,0.362553,0.392418,0.313649,0.122312,0.969264,0.678783,0.121466,0.145254,0.14804,0.34297,0.262696,0.123891,0.076717,0.05274,0.090564,0.211027,0.186878,0.12353,0.074762,0.138901,0.107644,0.060389,0.112524,0.102224,0.119548,0.1523,0.081033,0.103887,0.080929,0.209766,0.096879,0.125596,0.099084,0.108971,0.478593,0.271803,0.193505,0.240296,0.176325,0.628955,0.256161,0.244448,0.427601,0.147739,0.311929,0.23221,0.506642,0.518543,0.162876,0.709596,0.482141,0.240834,0.574051,0.213438,1.340349,0.32793,0.460565,0.83986,0.172289
1769164136.815763,1769164136.815897,31.0,0.0,4457.563965,4356.410156,4326.794922,4446.282227,4307.820313,4305.769043,4331.410156,4373.333496,4337.179688,4313.461426,4648.974121,4604.743652,4500.769043,4591.153809,,,,,,,,,,,,,,,,,,,,,,,,,,,,,,,,,,,,,,,,,,,,,,,,,,,,,,,,,,,,,,,,,,,,,,
1769164136.823571,1769164136.823906,32.0,0.0,4460.769043,4358.717773,4326.282227,4445.897461,4309.230957,4312.179688,4340.512695,4377.179688,4346.410156,4316.538574,4650.897461,4606.666504,4503.846191,4591.922852,,,,,,,,,,,,,,,,,,,,,,,,,,,,,,,,,,,,,,,,,,,,,,,,,,,,,,,,,,,,,,,,,,,,,,
1769164136.83138,1769164136.831714,33.0,0.0,4459.743652,4358.461426,4321.153809,4445.897461,4308.077148,4312.820313,4338.077148,4374.487305,4338.846191,4312.692383,4645.512695,4600.0,4492.436035,4584.743652,,,,,,,,,,,,,,,,,,,,,,,,,,,,,,,,,,,,,,,,,,,,,,,,,,,,,,,,,,,,,,,,,,,,,,
1769164136.839188,1769164136.839622,34.0,0.0,4456.666504,4355.128418,4322.436035,4444.615234,4308.589844,4307.179688,4327.692383,4367.820313,4325.256348,4310.512695,4641.538574,4596.794922,4488.974121,4583.589844,,,,,,,,,,,,,,,,,,,,,,,,,,,,,,,,,,,,,,,,,,,,,,,,,,,,,,,,,,,,,,,,,,,,,,
1769164136.846996,1769164136.847431,35.0,0.0,4457.179688,4353.205078,4327.436035,4445.769043,4311.922852,4298.461426,4322.692383,4363.589844,4330.256348,4315.0,4644.487305,4600.128418,4495.256348,4585.128418,,,,,,,,,,,,,,,,,,,,,,,,,,,,,,,,,,,,,,,,,,,,,,,,,,,,,,,,,,,,,,,,,,,,,,
1769164136.854805,1769164136.855039,36.0,0.0,4461.794922,4359.358887,4329.743652,4449.102539,4309.487305,4292.179688,4322.820313,4364.743652,4337.307617,4316.282227,4650.769043,4604.743652,4496.282227,4587.692383,,,,,,,,,,,,,,,,,,,,,,,,,,,,,,,,,,,,,,,,,,,,,,,,,,,,,,,,,,,,,,,,,,,,,,
1769164136.862613,1769164136.862848,37.0,0.0,4458.974121,4358.205078,4325.769043,4447.179688,4299.487305,4292.820313,4322.307617,4365.512695,4329.871582,4310.897461,4649.230957,4603.846191,4492.307617,4587.179688,,,,,,,,,,,,,,,,,,,,,,,,,,,,,,,,,,,,,,,,,,,,,,,,,,,,,,,,,,,,,,,,,,,,,,
1769164136.870422,1769164136.870556,38.0,0.0,4447.179688,4345.512695,4319.743652,4442.436035,4296.666504,4295.128418,4322.692383,4365.512695,4322.179688,4309.358887,4643.846191,4601.025879,4492.436035,4585.128418,,,,,,,,,,,,,,,,,,,,,,,,,,,,,,,,,,,,,,,,,,,,,,,,,,,,,,,,,,,,,,,,,,,,,,
1769164136.87823,1769164136.878365,39.0,0.0,4442.307617,4343.846191,4318.717773,4442.563965,4303.461426,4297.307617,4325.0,4370.128418,4327.692383,4312.307617,4642.436035,4601.666504,4493.205078,4583.717773,,,,,,,,,,,,,,,,,,,,,,,,,,,,,,,,,,,,,,,,,,,,,,,,,,,,,,,,,,,,,,,,,,,,,,
1769164136.886039,1769164136.886373,40.0,0.0,4446.794922,4351.666504,4320.0,4446.025879,4306.410156,4304.743652,4326.410156,4375.512695,4332.94873,4312.563965,4641.538574,4599.743652,4491.410156,4579.230957,,,,,,,,,,,,,,,,,,,,,,,,,,,,,,,,,,,,,,,,,,,,,,,,,,,,,,,,,,,,,,,,,,,,,,
1769164136.893847,1769164136.894182,41.0,0.0,4445.769043,4347.05127,4320.512695,4445.0,4300.897461,4308.846191,4327.563965,4375.769043,4329.102539,4310.897461,4640.512695,4597.05127,4490.897461,4578.974121,,,,,,,,,,,,,,,,,,,,,,,,,,,,,,,,,,,,,,,,,,,,,,,,,,,,,,,,,,,,,,,,,,,,,,
1769164136.901656,1769164136.90209,42.0,0.0,4441.410156,4338.846191,4319.871582,4442.05127,4299.487305,4303.589844,4328.077148,4374.358887,4326.153809,4310.897461,4639.230957,4597.179688,4492.820313,4583.717773,,,,,,,,,,,,,,,,,,,,,,,,,,,,,,,,,,,,,,,,,,,,,,,,,,,,,,,,,,,,,,,,,,,,,,
1769164136.909464,1769164136.909898,43.0,0.0,4443.589844,4347.179688,4315.769043,4443.333496,4304.102539,4296.025879,4326.282227,4373.077148,4327.563965,4312.05127,4641.794922,4602.692383,4495.512695,4588.846191,,,,,,,,,,,,,,,,,,,,,,,,,,,,,,,,,,,,,,,,,,,,,,,,,,,,,,,,,,,,,,,,,,,,,,
1769164136.917272,1769164136.917907,44.0,0.0,4444.871582,4356.666504,4311.282227,4445.256348,4303.717773,4293.333496,4324.743652,4369.102539,4330.0,4313.077148,4646.410156,4604.230957,4496.153809,4589.615234,,,,,,,,,,,,,,,,,,,,,,,,,,,,,,,,,,,,,,,,,,,,,,,,,,,,,,,,,,,,,,,,,,,,,,
1769164136.925081,1769164136.925715,45.0,0.0,4440.897461,4348.333496,4310.897461,4444.615234,4301.025879,4295.897461,4325.384766,4364.871582,4324.358887,4310.0,4638.974121,4590.769043,4485.256348,4579.871582,,,,,,,,,,,,,,,,,,,,,,,,,,,,,,,,,,,,,,,,,,,,,,,,,,,,,,,,,,,,,,,,,,,,,,
1769164136.932889,1769164136.933623,46.0,0.0,4441.025879,4342.563965,4311.282227,4443.461426,4302.94873,4295.384766,4321.666504,4365.0,4317.94873,4307.692383,4630.512695,4583.717773,4473.589844,4573.846191,1.300226,0.544322,0.527276,0.412833,0.292386,0.697767,0.631592,0.211511,0.153163,0.212464,0.465614,0.405996,0.456045,0.319289,0.137952,0.744182,0.671731,0.104369,0.148609,0.158718,0.328124,0.266372,0.153062,0.081312,0.058806,0.085575,0.188988,0.163649,0.105526,0.082905,0.138275,0.113291,0.062096,0.119729,0.107656,0.115387,0.162244,0.101835,0.122616,0.086838,0.225129,0.120411,0.10733,0.114694,0.120603,0.543137,0.280952,0.193438,0.229702,0.182946,0.672981,0.242434,0.247465,0.441187,0.162096,0.303242,0.245567,0.528638,0.520952,0.188398,0.823488,0.437971,0.23981,0.599355,0.215679,1.30487,0.27742,0.479381,0.845981,0.175905
1769164136.940698,1769164136.941432,47.0,0.0,4445.512695,4346.922852,4310.641113,4444.871582,4304.102539,4293.205078,4318.846191,4364.615234,4319.743652,4309.102539,4636.410156,4593.589844,4480.769043,4583.077148,,,,,,,,,,,,,,,,,,,,,,,,,,,,,,,,,,,,,,,,,,,,,,,,,,,,,,,,,,,,,,,,,,,,,,
1769164136.948506,1769164136.94904,48.0,0.0,4444.358887,4345.897461,4311.794922,4445.641113,4300.512695,4295.128418,4326.538574,4363.589844,4322.94873,4308.846191,4641.025879,4596.025879,4492.179688,4588.846191,,,,,,,,,,,,,,,,,,,,,,,,,,,,,,,,,,,,,,,,,,,,,,,,,,,,,,,,,,,,,,,,,,,,,,
1769164136.956315,1769164136.956849,49.0,0.0,4443.077148,4345.128418,4312.307617,4445.769043,4301.153809,4297.94873,4328.974121,4367.436035,4324.102539,4308.077148,4636.794922,4590.769043,4489.358887,4583.589844,,,,,,,,,,,,,,,,,,,,,,,,,,,,,,,,,,,,,,,,,,,,,,,,,,,,,,,,,,,,,,,,,,,,,,
1769164136.964123,1769164136.964557,50.0,0.0,4447.563965,4353.333496,4311.282227,4446.153809,4304.743652,4296.922852,4322.307617,4373.717773,4327.179688,4311.794922,4639.871582,4598.589844,4487.563965,4583.077148,,,,,,,,,,,,,,,,,,,,,,,,,,,,,,,,,,,,,,,,,,,,,,,,,,,,,,,,,,,,,,,,,,,,,,
1769164136.971932,1769164136.972366,51.0,0.0,4450.256348,4354.230957,4313.333496,4445.897461,4304.102539,4295.769043,4322.820313,4375.384766,4329.230957,4315.256348,4648.333496,4607.179688,4493.717773,4589.487305,,,,,,,,,,,,,,,,,,,,,,,,,,,,,,,,,,,,,,,,,,,,,,,,,,,,,,,,,,,,,,,,,,,,,,
1769164136.97974,1769164136.979975,52.0,0.0,4447.94873,4349.358887,4315.512695,4446.282227,4302.94873,4301.282227,4329.102539,4374.487305,4325.769043,4313.205078,4647.179688,4602.692383,4495.384766,4592.05127,,,,,,,,,,,,,,,,,,,,,,,,,,,,,,,,,,,,,,,,,,,,,,,,,,,,,,,,,,,,,,,,,,,,,,
1769164136.987548,1769164136.987783,53.0,0.0,4444.358887,4351.538574,4312.820313,4445.769043,4306.922852,4305.641113,4325.769043,4371.666504,4325.384766,4310.256348,4640.769043,4600.512695,4491.410156,4583.461426,,,,,,,,,,,,,,,,,,,,,,,,,,,,,,,,,,,,,,,,,,,,,,,,,,,,,,,,,,,,,,,,,,,,,,
1769164136.995357,1769164136.995492,54.0,0.0,4441.922852,4347.820313,4309.230957,4443.717773,4307.307617,4301.025879,4316.538574,4367.307617,4326.282227,4308.205078,4635.128418,4602.436035,4484.871582,4569.358887,,,,,,,,,,,,,,,,,,,,,,,,,,,,,,,,,,,,,,,,,,,,,,,,,,,,,,,,,,,,,,,,,,,,,,
1769164137.003165,1769164137.0033,55.0,0.0,4443.077148,4341.153809,4309.871582,4443.461426,4300.897461,4294.871582,4314.487305,4365.512695,4321.922852,4305.512695,4632.692383,4601.153809,4483.077148,4568.974121,,,,,,,,,,,,,,,,,,,,,,,,,,,,,,,,,,,,,,,,,,,,,,,,,,,,,,,,,,,,,,,,,,,,,,
1769164137.010974,1769164137.011308,56.0,0.0,4443.333496,4343.589844,4311.282227,4445.0,4294.230957,4295.256348,4318.974121,4364.871582,4318.461426,4304.871582,4636.410156,4599.487305,4487.94873,4580.512695,,,,,,,,,,,,,,,,,,,,,,,,,,,,,,,,,,,,,,,,,,,,,,,,,,,,,,,,,,,,,,,,,,,,,,
1769164137.018782,1769164137.019117,57.0,0.0,4442.436035,4344.743652,4310.128418,4444.871582,4295.897461,4297.05127,4322.179688,4364.743652,4321.025879,4308.205078,4642.05127,4600.0,4488.974121,4586.922852,,,,,,,,,,,,,,,,,,,,,,,,,,,,,,,,,,,,,,,,,,,,,,,,,,,,,,,,,,,,,,,,,,,,,,
1769164137.026591,1769164137.027025,58.0,0.0,4444.487305,4341.922852,4308.205078,4443.077148,4300.512695,4296.025879,4319.230957,4369.102539,4325.897461,4310.897461,4647.179688,4604.102539,4489.358887,4584.615234,,,,,,,,,,,,,,,,,,,,,,,,,,,,,,,,,,,,,,,,,,,,,,,,,,,,,,,,,,,,,,,,,,,,,,
1769164137.034399,1769164137.034833,59.0,0.0,4440.512695,4342.05127,4307.05127,4442.94873,4298.589844,4294.871582,4314.871582,4372.563965,4328.077148,4310.769043,4647.436035,4603.589844,4490.769043,4579.615234,,,,,,,,,,,,,,,,,,,,,,,,,,,,,,,,,,,,,,,,,,,,,,,,,,,,,,,,,,,,,,,,,,,,,,
1769164137.042208,1769164137.042842,60.0,0.0,4429.743652,4338.717773,4304.487305,4440.769043,4295.512695,4294.102539,4316.153809,4371.666504,4327.307617,4310.128418,4641.153809,4593.974121,4484.487305,4574.102539,,,,,,,,,,,,,,,,,,,,,,,,,,,,,,,,,,,,,,,,,,,,,,,,,,,,,,,,,,,,,,,,,,,,,,
1769164137.050016,1769164137.05065,61.0,0.0,4425.0,4328.461426,4297.563965,4431.666504,4293.974121,4296.153809,4320.512695,4369.871582,4325.0,4306.922852,4630.897461,4584.102539,4473.589844,4564.871582,,,,,,,,,,,,,,,,,,,,,,,,,,,,,,,,,,,,,,,,,,,,,,,,,,,,,,,,,,,,,,,,,,,,,,
1769164137.057824,1769164137.058359,62.0,0.0,4425.512695,4327.307617,4295.512695,4426.410156,4291.538574,4295.512695,4319.615234,4367.692383,4325.384766,4302.820313,4628.077148,4586.922852,4474.743652,4560.512695,1.138703,0.511834,0.556808,0.397586,0.319745,0.694377,0.593781,0.223414,0.143767,0.224493,0.473007,0.410072,0.468793,0.294459,0.153284,0.602826,0.607306,0.098837,0.139466,0.161317,0.293928,0.263488,0.183895,0.079998,0.063123,0.080004,0.190928,0.137899,0.092246,0.093361,0.134636,0.137873,0.071972,0.12937,0.109182,0.132666,0.170251,0.122933,0.142105,0.089129,0.243818,0.153837,0.097619,0.136031,0.132685,0.555699,0.291295,0.188208,0.2132,0.188967,0.658146,0.252908,0.244969,0.409958,0.174296,0.286852,0.254827,0.49848,0.483601,0.221446,0.850222,0.399767,0.238154,0.57375,0.222391,1.223133,0.247211,0.477122,0.761793,0.188232
1769164137.065633,1769164137.066167,63.0,0.0,4426.794922,4338.205078,4304.743652,4436.025879,4294.102539,4293.077148,4317.179688,4367.820313,4327.179688,4305.897461,4636.153809,4596.794922,4484.615234,4567.820313,,,,,,,,,,,,,,,,,,,,,,,,,,,,,,,,,,,,,,,,,,,,,,,,,,,,,,,,,,,,,,,,,,,,,,
1769164137.073441,1769164137.073776,64.0,0.0,4430.256348,4344.871582,4309.615234,4445.128418,4298.846191,4300.256348,4321.282227,4372.179688,4325.128418,4310.256348,4642.179688,4601.666504,4489.230957,4573.333496,,,,,,,,,,,,,,,,,,,,,,,,,,,,,,,,,,,,,,,,,,,,,,,,,,,,,,,,,,,,,,,,,,,,,,
1769164137.08125,1769164137.081584,65.0,0.0,4431.025879,4342.179688,4307.05127,4444.230957,4297.692383,4302.179688,4323.846191,4374.743652,4327.05127,4309.743652,4644.358887,4603.333496,4491.153809,4572.563965,,,,,,,,,,,,,,,,,,,,,,,,,,,,,,,,,,,,,,,,,,,,,,,,,,,,,,,,,,,,,,,,,,,,,,
1769164137.089059,1769164137.089493,66.0,0.0,4429.102539,4335.641113,4307.94873,4441.025879,4295.769043,4299.487305,4325.769043,4378.461426,4333.846191,4311.794922,4644.615234,4603.974121,4491.025879,4573.077148,,,,,,,,,,,,,,,,,,,,,,,,,,,,,,,,,,,,,,,,,,,,,,,,,,,,,,,,,,,,,,,,,,,,,,
1769164137.096867,1769164137.097301,67.0,0.0,4429.743652,4333.846191,4310.641113,4440.384766,4297.05127,4304.487305,4328.461426,4381.922852,4333.077148,4316.282227,4646.666504,4602.563965,4489.358887,4573.077148,,,,,,,,,,,,,,,,,,,,,,,,,,,,,,,,,,,,,,,,,,,,,,,,,,,,,,,,,,,,,,,,,,,,,,
1769164137.104675,1769164137.105309,68.0,0.0,4430.512695,4336.666504,4309.743652,4441.025879,4295.384766,4301.538574,4324.358887,4377.94873,4328.717773,4317.05127,4647.94873,4604.102539,4493.333496,4573.077148,,,,,,,,,,,,,,,,,,,,,,,,,,,,,,,,,,,,,,,,,,,,,,,,,,,,,,,,,,,,,,,,,,,,,,
1769164137.112484,1769164137.113118,69.0,0.0,4425.641113,4335.897461,4307.436035,4436.410156,4292.94873,4292.179688,4324.102539,4374.615234,4328.077148,4312.563965,4640.897461,4601.282227,4492.05127,4572.820313,,,,,,,,,,,,,,,,,,,,,,,,,,,,,,,,,,,,,,,,,,,,,,,,,,,,,,,,,,,,,,,,,,,,,,
1769164137.120292,1769164137.120826,70.0,0.0,4421.794922,4335.769043,4306.794922,4432.179688,4294.871582,4294.230957,4327.05127,4373.589844,4323.589844,4306.282227,4631.922852,4588.077148,4478.205078,4561.922852,,,,,,,,,,,,,,,,,,,,,,,,,,,,,,,,,,,,,,,,,,,,,,,,,,,,,,,,,,,,,,,,,,,,,,
1769164137.128101,1769164137.128635,71.0,0.0,4425.897461,4341.794922,4308.974121,4438.589844,4300.128418,4296.922852,4317.436035,4366.794922,4320.0,4304.102539,4628.974121,4584.230957,4470.897461,4553.461426,,,,,,,,,,,,,,,,,,,,,,,,,,,,,,,,,,,,,,,,,,,,,,,,,,,,,,,,,,,,,,,,,,,,,,
1769164137.135909,1769164137.136243,72.0,0.0,4429.487305,4345.0,4310.0,4445.512695,4303.461426,4291.666504,4308.077148,4364.102539,4324.615234,4307.692383,4632.692383,4594.743652,4478.333496,4561.538574,,,,,,,,,,,,,,,,,,,,,,,,,,,,,,,,,,,,,,,,,,,,,,,,,,,,,,,,,,,,,,,,,,,,,,
1769164137.143718,1769164137.144052,73.0,0.0,4426.538574,4342.563965,4309.743652,4441.794922,4304.487305,4293.461426,4316.410156,4364.358887,4327.820313,4310.641113,4637.179688,4595.897461,4480.512695,4568.589844,,,,,,,,,,,,,,,,,,,,,,,,,,,,,,,,,,,,,,,,,,,,,,,,,,,,,,,,,,,,,,,,,,,,,,
1769164137.151526,1769164137.15196,74.0,0.0,4427.179688,4343.846191,4312.820313,4443.077148,4306.794922,4296.922852,4322.692383,4358.589844,4325.769043,4307.94873,4637.820313,4591.410156,4477.179688,4568.461426,,,,,,,,,,,,,,,,,,,,,,,,,,,,,,,,,,,,,,,,,,,,,,,,,,,,,,,,,,,,,,,,,,,,,,
1769164137.159335,1769164137.159769,75.0,0.0,4428.461426,4344.871582,4311.922852,4444.871582,4305.128418,4295.512695,4316.025879,4358.846191,4324.487305,4302.179688,4632.563965,4592.692383,4477.692383,4566.410156,,,,,,,,,,,,,,,,,,,,,,,,,,,,,,,,,,,,,,,,,,,,,,,,,,,,,,,,,,,,,,,,,,,,,,
1769164137.167143,1769164137.167377,76.0,0.0,4418.333496,4339.358887,4306.025879,4433.205078,4298.717773,4294.743652,4312.820313,4364.871582,4324.615234,4301.538574,4629.230957,4591.666504,4476.538574,4559.358887,,,,,,,,,,,,,,,,,,,,,,,,,,,,,,,,,,,,,,,,,,,,,,,,,,,,,,,,,,,,,,,,,,,,,,
1769164137.174951,1769164137.175186,77.0,0.0,4409.358887,4334.871582,4303.589844,4425.897461,4295.512695,4292.94873,4317.179688,4363.717773,4324.615234,4301.794922,4628.846191,4586.538574,4472.692383,4549.615234,,,,,,,,,,,,,,,,,,,,,,,,,,,,,,,,,,,,,,,,,,,,,,,,,,,,,,,,,,,,,,,,,,,,,,
1769164137.18276,1769164137.182894,78.0,0.0,4411.538574,4335.0,4304.743652,4429.358887,4298.077148,4298.717773,4323.077148,4363.333496,4321.922852,4300.641113,4628.333496,4588.461426,4472.179688,4555.0,0.968235,0.438589,0.519383,0.365106,0.333857,0.638891,0.507805,0.21867,0.131933,0.221085,0.44808,0.375327,0.426867,0.247132,0.164503,0.564683,0.506592,0.101677,0.122437,0.153715,0.250487,0.253128,0.209464,0.073064,0.06596,0.078303,0.22805,0.126313,0.089998,0.104011,0.131347,0.18506,0.096739,0.13706,0.108602,0.162725,0.168906,0.145843,0.155144,0.087195,0.253059,0.180506,0.103438,0.156831,0.144638,0.503698,0.295548,0.17603,0.1911,0.192124,0.572691,0.274544,0.243023,0.346383,0.182526,0.263432,0.258451,0.431855,0.423393,0.253432,0.77803,0.364703,0.254325,0.506138,0.235613,1.142152,0.231195,0.476081,0.617663,0.209138
1769164137.190568,1769164137.190703,79.0,0.0,4415.512695,4336.025879,4305.769043,4433.205078,4302.820313,4302.820313,4324.615234,4367.692383,4323.589844,4304.615234,4635.128418,4594.102539,4476.538574,4564.615234,,,,,,,,,,,,,,,,,,,,,,,,,,,,,,,,,,,,,,,,,,,,,,,,,,,,,,,,,,,,,,,,,,,,,,
1769164137.198377,1769164137.198311,80.0,0.0,4413.333496,4334.230957,4307.820313,4434.358887,4306.922852,4299.487305,4324.487305,4372.05127,4332.94873,4312.179688,4643.077148,4597.692383,4480.384766,4561.666504,,,,,,,,,,,,,,,,,,,,,,,,,,,,,,,,,,,,,,,,,,,,,,,,,,,,,,,,,,,,,,,,,,,,,,
1769164137.206185,1769164137.20612,81.0,0.0,4406.025879,4333.077148,4308.077148,4433.077148,4307.563965,4304.102539,4327.307617,4374.230957,4333.846191,4312.820313,4640.641113,4599.615234,4480.641113,4558.717773,,,,,,,,,,,,,,,,,,,,,,,,,,,,,,,,,,,,,,,,,,,,,,,,,,,,,,,,,,,,,,,,,,,,,,
1769164137.213994,1769164137.214028,82.0,0.0,4401.538574,4336.410156,4301.794922,4431.282227,4308.846191,4308.205078,4322.692383,4367.307617,4324.871582,4310.256348,4634.358887,4596.410156,4480.0,4560.256348,,,,,,,,,,,,,,,,,,,,,,,,,,,,,,,,,,,,,,,,,,,,,,,,,,,,,,,,,,,,,,,,,,,,,,
1769164137.221802,1769164137.221837,83.0,0.0,4405.256348,4341.666504,4298.077148,4432.436035,4311.410156,4294.615234,4311.794922,4358.717773,4322.692383,4312.692383,4633.205078,4593.717773,4479.230957,4558.077148,,,,,,,,,,,,,,,,,,,,,,,,,,,,,,,,,,,,,,,,,,,,,,,,,,,,,,,,,,,,,,,,,,,,,,
1769164137.229611,1769164137.229845,84.0,0.0,4413.717773,4343.205078,4305.128418,4433.717773,4309.230957,4285.0,4308.589844,4361.922852,4326.922852,4313.461426,4634.615234,4596.666504,4478.461426,4555.256348,,,,,,,,,,,,,,,,,,,,,,,,,,,,,,,,,,,,,,,,,,,,,,,,,,,,,,,,,,,,,,,,,,,,,,
1769164137.237419,1769164137.237653,85.0,0.0,4417.307617,4341.410156,4310.641113,4429.743652,4307.94873,4291.666504,4314.102539,4366.922852,4326.794922,4311.922852,4633.717773,4599.230957,4480.128418,4559.102539,,,,,,,,,,,,,,,,,,,,,,,,,,,,,,,,,,,,,,,,,,,,,,,,,,,,,,,,,,,,,,,,,,,,,,
1769164137.245227,1769164137.245562,86.0,0.0,4408.077148,4339.487305,4301.410156,4425.897461,4310.641113,4297.179688,4317.692383,4364.358887,4325.256348,4311.666504,4631.538574,4593.333496,4481.410156,4559.358887,,,,,,,,,,,,,,,,,,,,,,,,,,,,,,,,,,,,,,,,,,,,,,,,,,,,,,,,,,,,,,,,,,,,,,
1769164137.253036,1769164137.25337,87.0,0.0,4395.897461,4338.589844,4295.256348,4428.077148,4310.897461,4300.128418,4319.358887,4363.589844,4325.897461,4312.436035,4631.410156,4585.128418,4478.589844,4553.589844,,,,,,,,,,,,,,,,,,,,,,,,,,,,,,,,,,,,,,,,,,,,,,,,,,,,,,,,,,,,,,,,,,,,,,
1769164137.260844,1769164137.260979,88.0,0.0,4396.282227,4335.897461,4300.128418,4429.487305,4310.384766,4302.307617,4323.717773,4370.512695,4326.922852,4313.461426,4632.820313,4586.538574,4476.922852,4554.487305,,,,,,,,,,,,,,,,,,,,,,,,,,,,,,,,,,,,,,,,,,,,,,,,,,,,,,,,,,,,,,,,,,,,,,
1769164137.268653,1769164137.268787,89.0,0.0,4398.461426,4328.205078,4298.846191,4420.0,4309.871582,4305.128418,4327.307617,4374.230957,4326.025879,4309.871582,4628.717773,4589.102539,4476.153809,4555.641113,,,,,,,,,,,,,,,,,,,,,,,,,,,,,,,,,,,,,,,,,,,,,,,,,,,,,,,,,,,,,,,,,,,,,,
1769164137.276461,1769164137.276496,90.0,0.0,4391.025879,4322.563965,4295.641113,4413.333496,4310.641113,4311.410156,4324.743652,4368.974121,4323.333496,4307.179688,4625.897461,4585.897461,4474.487305,4551.666504,,,,,,,,,,,,,,,,,,,,,,,,,,,,,,,,,,,,,,,,,,,,,,,,,,,,,,,,,,,,,,,,,,,,,,
1769164137.28427,1769164137.284304,91.0,0.0,4386.666504,4327.692383,4300.897461,4419.102539,4311.922852,4306.666504,4317.563965,4363.461426,4322.94873,4310.641113,4630.897461,4582.692383,4475.641113,4548.333496,,,,,,,,,,,,,,,,,,,,,,,,,,,,,,,,,,,,,,,,,,,,,,,,,,,,,,,,,,,,,,,,,,,,,,
1769164137.292078,1769164137.292312,92.0,0.0,4391.794922,4332.05127,4305.256348,4422.563965,4310.897461,4294.871582,4316.410156,4364.487305,4323.846191,4314.230957,4634.871582,4585.128418,4479.230957,4551.794922,,,,,,,,,,,,,,,,,,,,,,,,,,,,,,,,,,,,,,,,,,,,,,,,,,,,,,,,,,,,,,,,,,,,,,
1769164137.299887,1769164137.300121,93.0,0.0,4396.538574,4328.077148,4304.230957,4421.025879,4310.512695,4298.333496,4320.256348,4365.769043,4321.794922,4311.282227,4632.05127,4587.692383,4477.179688,4553.589844,,,,,,,,,,,,,,,,,,,,,,,,,,,,,,,,,,,,,,,,,,,,,,,,,,,,,,,,,,,,,,,,,,,,,,
1769164137.307695,1769164137.308029,94.0,0.0,4395.769043,4325.0,4306.153809,4419.487305,4312.05127,4307.820313,4323.333496,4365.128418,4320.384766,4306.922852,4629.487305,4587.307617,4473.589844,4553.077148,0.89157,0.348412,0.430856,0.326308,0.332542,0.573265,0.39407,0.195233,0.12459,0.20487,0.419719,0.317002,0.345975,0.192357,0.168403,0.590652,0.394025,0.106824,0.105248,0.136394,0.218968,0.234169,0.223441,0.063868,0.068289,0.084256,0.299284,0.144276,0.101886,0.112237,0.131401,0.251173,0.139007,0.139039,0.108066,0.204172,0.162422,0.1784,0.156294,0.081031,0.250895,0.18855,0.12843,0.170462,0.155645,0.415712,0.287808,0.159805,0.165199,0.189744,0.467486,0.288829,0.24636,0.27611,0.185481,0.271015,0.259466,0.353279,0.363683,0.274769,0.657877,0.330862,0.297122,0.42019,0.252876,1.092105,0.218506,0.495325,0.465185,0.234775
1769164137.315503,1769164137.315838,95.0,0.0,4396.153809,4327.692383,4308.974121,4418.077148,4310.897461,4303.461426,4323.077148,4366.025879,4323.717773,4310.128418,4628.974121,4586.794922,4478.589844,4556.666504,,,,,,,,,,,,,,,,,,,,,,,,,,,,,,,,,,,,,,,,,,,,,,,,,,,,,,,,,,,,,,,,,,,,,,
1769164137.323312,1769164137.323446,96.0,0.0,4396.538574,4329.358887,4308.077148,4419.615234,4308.974121,4297.436035,4320.897461,4367.692383,4326.025879,4313.846191,4628.333496,4586.410156,4478.846191,4556.025879,,,,,,,,,,,,,,,,,,,,,,,,,,,,,,,,,,,,,,,,,,,,,,,,,,,,,,,,,,,,,,,,,,,,,,
1769164137.33112,1769164137.331255,97.0,0.0,4388.846191,4324.743652,4306.153809,4418.717773,4310.769043,4310.128418,4328.846191,4371.922852,4321.025879,4306.538574,4627.179688,4583.974121,4468.205078,4550.897461,,,,,,,,,,,,,,,,,,,,,,,,,,,,,,,,,,,,,,,,,,,,,,,,,,,,,,,,,,,,,,,,,,,,,,
1769164137.338929,1769164137.339163,98.0,0.0,4386.153809,4324.102539,4306.666504,4416.666504,4311.538574,4321.538574,4337.94873,4375.641113,4321.025879,4301.538574,4625.384766,4584.358887,4465.0,4550.384766,,,,,,,,,,,,,,,,,,,,,,,,,,,,,,,,,,,,,,,,,,,,,,,,,,,,,,,,,,,,,,,,,,,,,,
1769164137.346737,1769164137.346972,99.0,0.0,4399.102539,4336.922852,4311.025879,4423.589844,4310.384766,4306.410156,4329.871582,4376.410156,4333.974121,4318.333496,4633.077148,4593.205078,4476.666504,4555.641113,,,,,,,,,,,,,,,,,,,,,,,,,,,,,,,,,,,,,,,,,,,,,,,,,,,,,,,,,,,,,,,,,,,,,,
1769164137.354546,1769164137.35498,100.0,0.0,4405.641113,4347.05127,4312.820313,4430.641113,4311.666504,4291.153809,4318.205078,4372.820313,4337.179688,4329.615234,4640.512695,4597.563965,4482.179688,4558.077148,,,,,,,,,,,,,,,,,,,,,,,,,,,,,,,,,,,,,,,,,,,,,,,,,,,,,,,,,,,,,,,,,,,,,,
1769164137.362354,1769164137.362788,101.0,0.0,4393.717773,4342.05127,4312.179688,4427.563965,4313.461426,4296.794922,4320.897461,4365.769043,4326.282227,4313.077148,4633.077148,4591.922852,4475.512695,4551.153809,,,,,,,,,,,,,,,,,,,,,,,,,,,,,,,,,,,,,,,,,,,,,,,,,,,,,,,,,,,,,,,,,,,,,,
1769164137.370163,1769164137.370497,102.0,0.0,4386.153809,4337.179688,4316.666504,4426.410156,4313.461426,4299.102539,4326.410156,4367.563965,4331.282227,4309.358887,4633.589844,4596.922852,4482.179688,4553.461426,,,,,,,,,,,,,,,,,,,,,,,,,,,,,,,,,,,,,,,,,,,,,,,,,,,,,,,,,,,,,,,,,,,,,,
1769164137.377971,1769164137.378305,103.0,0.0,4395.0,4343.333496,4322.563965,4431.282227,4312.820313,4293.077148,4324.743652,4374.102539,4342.563965,4326.410156,4647.307617,4607.563965,4495.256348,4568.589844,,,,,,,,,,,,,,,,,,,,,,,,,,,,,,,,,,,,,,,,,,,,,,,,,,,,,,,,,,,,,,,,,,,,,,
1769164137.38578,1769164137.385914,104.0,0.0,4398.461426,4346.794922,4320.384766,4430.769043,4311.153809,4298.846191,4325.128418,4369.487305,4334.358887,4322.820313,4643.077148,4599.102539,4487.692383,4565.897461,,,,,,,,,,,,,,,,,,,,,,,,,,,,,,,,,,,,,,,,,,,,,,,,,,,,,,,,,,,,,,,,,,,,,,
1769164137.393588,1769164137.393722,105.0,0.0,4387.05127,4339.358887,4314.102539,4425.384766,4310.256348,4306.538574,4326.666504,4362.563965,4323.846191,4307.692383,4628.461426,4583.589844,4474.743652,4551.153809,,,,,,,,,,,,,,,,,,,,,,,,,,,,,,,,,,,,,,,,,,,,,,,,,,,,,,,,,,,,,,,,,,,,,,
1769164137.401397,1769164137.401431,106.0,0.0,4378.717773,4333.205078,4312.05127,4424.230957,4311.794922,4307.820313,4328.205078,4367.307617,4328.205078,4308.589844,4629.615234,4585.641113,4477.179688,4557.563965,,,,,,,,,,,,,,,,,,,,,,,,,,,,,,,,,,,,,,,,,,,,,,,,,,,,,,,,,,,,,,,,,,,,,,
1769164137.409205,1769164137.409239,107.0,0.0,4381.025879,4335.256348,4312.820313,4425.128418,4311.282227,4309.102539,4326.794922,4373.077148,4337.563965,4314.102539,4635.641113,4592.563965,4481.282227,4567.05127,,,,,,,,,,,,,,,,,,,,,,,,,,,,,,,,,,,,,,,,,,,,,,,,,,,,,,,,,,,,,,,,,,,,,,
1769164137.417014,1769164137.417248,108.0,0.0,4379.743652,4334.358887,4310.0,4417.692383,4308.717773,4307.436035,4325.897461,4372.436035,4338.333496,4311.282227,4633.589844,4589.871582,4476.794922,4559.487305,,,,,,,,,,,,,,,,,,,,,,,,,,,,,,,,,,,,,,,,,,,,,,,,,,,,,,,,,,,,,,,,,,,,,,
1769164137.424822,1769164137.425056,109.0,0.0,4369.102539,4325.256348,4302.692383,4408.974121,4310.128418,4315.0,4335.512695,4368.461426,4330.128418,4301.538574,4625.0,4581.538574,4468.077148,4549.871582,,,,,,,,,,,,,,,,,,,,,,,,,,,,,,,,,,,,,,,,,,,,,,,,,,,,,,,,,,,,,,,,,,,,,,
1769164137.43263,1769164137.432964,110.0,0.0,4367.563965,4325.0,4304.102539,4416.410156,4311.153809,4320.384766,4340.512695,4368.333496,4330.0,4300.128418,4622.179688,4579.487305,4464.102539,4546.282227,0.843616,0.2676,0.325601,0.290879,0.315568,0.531878,0.277117,0.164431,0.126934,0.182381,0.3745,0.257312,0.254821,0.145661,0.163813,0.618975,0.290859,0.116089,0.095904,0.113314,0.204482,0.205672,0.225417,0.057411,0.070688,0.097181,0.392284,0.192016,0.126456,0.116132,0.135614,0.32709,0.193753,0.134852,0.109008,0.24338,0.162881,0.227195,0.144952,0.071629,0.234247,0.176524,0.169289,0.173463,0.164197,0.310527,0.265812,0.143276,0.139123,0.179937,0.365124,0.28403,0.256329,0.228314,0.182344,0.29503,0.26715,0.287203,0.324123,0.278882,0.53972,0.301335,0.357916,0.343251,0.267681,1.033812,0.197786,0.537641,0.356633,0.258277
1769164137.440439,1769164137.440773,111.0,0.0,4384.487305,4341.025879,4318.717773,4428.717773,4311.410156,4303.205078,4323.974121,4376.666504,4347.692383,4317.563965,4637.94873,4595.256348,4479.615234,4557.820313,,,,,,,,,,,,,,,,,,,,,,,,,,,,,,,,,,,,,,,,,,,,,,,,,,,,,,,,,,,,,,,,,,,,,,
1769164137.448247,1769164137.448781,112.0,0.0,4395.897461,4351.025879,4328.974121,4430.512695,4314.102539,4287.820313,4310.769043,4381.794922,4357.307617,4334.230957,4654.871582,4612.563965,4498.846191,4577.563965,,,,,,,,,,,,,,,,,,,,,,,,,,,,,,,,,,,,,,,,,,,,,,,,,,,,,,,,,,,,,,,,,,,,,,
1769164137.456056,1769164137.45659,113.0,0.0,4388.077148,4345.256348,4326.153809,4426.922852,4315.0,4297.563965,4320.512695,4375.769043,4346.666504,4329.102539,4650.128418,4608.974121,4494.102539,4578.205078,,,,,,,,,,,,,,,,,,,,,,,,,,,,,,,,,,,,,,,,,,,,,,,,,,,,,,,,,,,,,,,,,,,,,,
1769164137.463864,1769164137.464498,114.0,0.0,4378.974121,4338.077148,4322.436035,4424.487305,4312.436035,4309.615234,4328.717773,4368.333496,4339.615234,4317.307617,4639.230957,4598.333496,4483.589844,4567.820313,,,,,,,,,,,,,,,,,,,,,,,,,,,,,,,,,,,,,,,,,,,,,,,,,,,,,,,,,,,,,,,,,,,,,,
1769164137.471673,1769164137.472306,115.0,0.0,4378.974121,4336.922852,4325.897461,4423.589844,4312.436035,4309.487305,4325.384766,4371.025879,4341.794922,4317.563965,4641.025879,4598.589844,4487.820313,4567.436035,,,,,,,,,,,,,,,,,,,,,,,,,,,,,,,,,,,,,,,,,,,,,,,,,,,,,,,,,,,,,,,,,,,,,,
1769164137.479481,1769164137.480315,116.0,0.0,4385.384766,4341.282227,4329.487305,4428.077148,4313.589844,4308.846191,4327.436035,4377.307617,4342.94873,4321.922852,4646.025879,4602.820313,4489.230957,4571.794922,,,,,,,,,,,,,,,,,,,,,,,,,,,,,,,,,,,,,,,,,,,,,,,,,,,,,,,,,,,,,,,,,,,,,,
1769164137.48729,1769164137.488123,117.0,0.0,4388.205078,4343.846191,4327.436035,4427.436035,4311.153809,4311.410156,4330.641113,4376.410156,4339.102539,4318.077148,4641.025879,4600.769043,4479.615234,4570.0,,,,,,,,,,,,,,,,,,,,,,,,,,,,,,,,,,,,,,,,,,,,,,,,,,,,,,,,,,,,,,,,,,,,,,
1769164137.495098,1769164137.495832,118.0,0.0,4377.307617,4336.282227,4323.077148,4418.589844,4310.128418,4316.922852,4331.794922,4372.692383,4333.077148,4305.0,4629.487305,4593.589844,4470.128418,4561.410156,,,,,,,,,,,,,,,,,,,,,,,,,,,,,,,,,,,,,,,,,,,,,,,,,,,,,,,,,,,,,,,,,,,,,,
1769164137.502906,1769164137.50364,119.0,0.0,4372.436035,4334.230957,4325.128418,4422.94873,4313.205078,4316.025879,4332.05127,4376.282227,4335.128418,4307.94873,4632.820313,4593.974121,4475.128418,4560.641113,,,,,,,,,,,,,,,,,,,,,,,,,,,,,,,,,,,,,,,,,,,,,,,,,,,,,,,,,,,,,,,,,,,,,,
1769164137.510715,1769164137.511249,120.0,0.0,4383.333496,4342.436035,4329.615234,4429.615234,4313.974121,4308.974121,4328.461426,4382.436035,4345.512695,4325.128418,4649.743652,4607.563965,4486.153809,4570.384766,,,,,,,,,,,,,,,,,,,,,,,,,,,,,,,,,,,,,,,,,,,,,,,,,,,,,,,,,,,,,,,,,,,,,,
1769164137.518523,1769164137.519057,121.0,0.0,4379.871582,4337.307617,4326.025879,4415.897461,4310.641113,4309.102539,4326.922852,4380.641113,4347.179688,4320.0,4649.743652,4609.615234,4482.436035,4565.384766,,,,,,,,,,,,,,,,,,,,,,,,,,,,,,,,,,,,,,,,,,,,,,,,,,,,,,,,,,,,,,,,,,,,,,
1769164137.526332,1769164137.526766,122.0,0.0,4371.794922,4329.230957,4323.333496,4410.0,4308.205078,4310.897461,4329.230957,4377.820313,4341.153809,4306.794922,4641.025879,4598.974121,4474.230957,4557.179688,,,,,,,,,,,,,,,,,,,,,,,,,,,,,,,,,,,,,,,,,,,,,,,,,,,,,,,,,,,,,,,,,,,,,,
1769164137.53414,1769164137.534574,123.0,0.0,4380.897461,4339.871582,4328.461426,4428.461426,4310.897461,4306.025879,4325.641113,4379.487305,4344.743652,4316.794922,4646.922852,4603.461426,4478.205078,4564.358887,,,,,,,,,,,,,,,,,,,,,,,,,,,,,,,,,,,,,,,,,,,,,,,,,,,,,,,,,,,,,,,,,,,,,,
1769164137.541949,1769164137.542582,124.0,0.0,4382.94873,4344.871582,4331.153809,4430.769043,4313.205078,4306.538574,4325.128418,4383.077148,4349.358887,4327.820313,4651.282227,4611.410156,4482.179688,4563.077148,,,,,,,,,,,,,,,,,,,,,,,,,,,,,,,,,,,,,,,,,,,,,,,,,,,,,,,,,,,,,,,,,,,,,,
1769164137.549757,1769164137.550391,125.0,0.0,4371.794922,4331.922852,4325.897461,4412.179688,4311.538574,4318.077148,4335.0,4381.538574,4344.615234,4316.153809,4642.179688,4604.358887,4475.256348,4551.282227,,,,,,,,,,,,,,,,,,,,,,,,,,,,,,,,,,,,,,,,,,,,,,,,,,,,,,,,,,,,,,,,,,,,,,
1769164137.557566,1769164137.558299,126.0,0.0,4372.820313,4330.512695,4324.871582,4412.563965,4311.153809,4320.512695,4336.538574,4375.128418,4339.230957,4307.563965,4638.077148,4600.897461,4473.333496,4551.538574,0.879118,0.215101,0.241697,0.263759,0.285393,0.542105,0.182889,0.14634,0.139222,0.160978,0.335487,0.211311,0.180428,0.11614,0.151653,0.617997,0.210276,0.136221,0.098908,0.090686,0.213417,0.16922,0.220521,0.057402,0.072565,0.115215,0.490871,0.262516,0.15809,0.116528,0.146307,0.402004,0.254202,0.127535,0.112066,0.277869,0.182003,0.29265,0.125538,0.061242,0.217349,0.15135,0.214777,0.166508,0.168578,0.237957,0.234038,0.130076,0.117577,0.163626,0.314152,0.261847,0.271916,0.220366,0.172985,0.335025,0.29164,0.246228,0.309171,0.26494,0.480588,0.280879,0.418601,0.293057,0.272715,0.957956,0.163891,0.58933,0.319677,0.272371
1769164137.565374,1769164137.566108,127.0,0.0,4377.820313,4340.256348,4330.128418,4424.743652,4313.077148,4312.436035,4327.94873,4373.846191,4337.05127,4311.922852,4641.025879,4605.128418,4477.05127,4555.128418,,,,,,,,,,,,,,,,,,,,,,,,,,,,,,,,,,,,,,,,,,,,,,,,,,,,,,,,,,,,,,,,,,,,,,
1769164137.573182,1769164137.573716,0.0,0.0,4372.692383,4336.794922,4329.871582,4421.025879,4312.563965,4309.871582,4326.922852,4374.358887,4335.128418,4312.307617,4639.743652,4601.666504,4475.384766,4550.769043,,,,,,,,,,,,,,,,,,,,,,,,,,,,,,,,,,,,,,,,,,,,,,,,,,,,,,,,,,,,,,,,,,,,,,
1769164137.580991,1769164137.581525,1.0,0.0,4370.0,4327.563965,4326.666504,4412.563965,4309.871582,4313.846191,4328.461426,4374.358887,4334.230957,4311.025879,4640.256348,4598.717773,4474.871582,4551.153809,,,,,,,,,,,,,,,,,,,,,,,,,,,,,,,,,,,,,,,,,,,,,,,,,,,,,,,,,,,,,,,,,,,,,,
1769164137.588799,1769164137.589233,2.0,0.0,4374.102539,4327.307617,4327.179688,4413.846191,4309.102539,4311.794922,4324.743652,4377.563965,4335.769043,4311.025879,4642.94873,4601.794922,4477.692383,4554.871582,,,,,,,,,,,,,,,,,,,,,,,,,,,,,,,,,,,,,,,,,,,,,,,,,,,,,,,,,,,,,,,,,,,,,,
1769164137.596608,1769164137.597042,3.0,0.0,4371.922852,4326.282227,4327.436035,4412.692383,4309.487305,4309.615234,4329.102539,4379.358887,4338.461426,4312.179688,4643.205078,4599.615234,4476.794922,4554.487305,,,,,,,,,,,,,,,,,,,,,,,,,,,,,,,,,,,,,,,,,,,,,,,,,,,,,,,,,,,,,,,,,,,,,,
1769164137.604416,1769164137.60465,4.0,0.0,4368.846191,4321.666504,4328.205078,4409.871582,4308.461426,4315.128418,4335.512695,4376.922852,4339.230957,4313.333496,4645.256348,4596.153809,4474.615234,4553.077148,,,,,,,,,,,,,,,,,,,,,,,,,,,,,,,,,,,,,,,,,,,,,,,,,,,,,,,,,,,,,,,,,,,,,,
1769164137.612225,1769164137.612459,5.0,0.0,4375.769043,4330.641113,4334.230957,4414.743652,4310.256348,4314.615234,4328.077148,4376.666504,4337.820313,4311.922852,4645.256348,4599.743652,4476.538574,4554.871582,,,,,,,,,,,,,,,,,,,,,,,,,,,,,,,,,,,,,,,,,,,,,,,,,,,,,,,,,,,,,,,,,,,,,,
1769164137.620033,1769164137.620367,6.0,0.0,4378.846191,4335.769043,4337.307617,4416.025879,4313.846191,4311.538574,4324.743652,4381.153809,4337.307617,4312.563965,4640.641113,4601.410156,4475.897461,4555.256348,,,,,,,,,,,,,,,,,,,,,,,,,,,,,,,,,,,,,,,,,,,,,,,,,,,,,,,,,,,,,,,,,,,,,,
1769164137.627842,1769164137.628176,7.0,0.0,4371.666504,4327.307617,4336.153809,4413.461426,4312.563965,4311.922852,4331.153809,4380.128418,4336.666504,4319.743652,4642.179688,4599.871582,4475.512695,4555.512695,,,,,,,,,,,,,,,,,,,,,,,,,,,,,,,,,,,,,,,,,,,,,,,,,,,,,,,,,,,,,,,,,,,,,,
1769164137.63565,1769164137.636184,8.0,0.0,4371.153809,4331.538574,4339.358887,4414.358887,4312.692383,4310.897461,4329.102539,4374.615234,4336.025879,4322.307617,4647.692383,4606.025879,4479.230957,4560.641113,,,,,,,,,,,,,,,,,,,,,,,,,,,,,,,,,,,,,,,,,,,,,,,,,,,,,,,,,,,,,,,,,,,,,,
1769164137.643458,1769164137.643992,9.0,0.0,4377.820313,4343.077148,4342.563965,4418.333496,4321.538574,4313.205078,4323.461426,4373.461426,4333.846191,4314.358887,4646.153809,4610.641113,4478.589844,4560.769043,,,,,,,,,,,,,,,,,,,,,,,,,,,,,,,,,,,,,,,,,,,,,,,,,,,,,,,,,,,,,,,,,,,,,,
1769164137.651267,1769164137.651901,10.0,0.0,4382.307617,4346.282227,4343.846191,4425.128418,4329.743652,4317.820313,4326.922852,4373.589844,4328.717773,4308.846191,4642.692383,4604.487305,4475.769043,4555.897461,,,,,,,,,,,,,,,,,,,,,,,,,,,,,,,,,,,,,,,,,,,,,,,,,,,,,,,,,,,,,,,,,,,,,,
1769164137.659075,1769164137.659709,11.0,0.0,4381.282227,4347.05127,4344.230957,4426.025879,4328.461426,4315.0,4326.538574,4373.461426,4330.641113,4311.282227,4642.179688,4600.256348,4477.05127,4554.871582,,,,,,,,,,,,,,,,,,,,,,,,,,,,,,,,,,,,,,,,,,,,,,,,,,,,,,,,,,,,,,,,,,,,,,
1769164137.666884,1769164137.667717,12.0,0.0,4376.153809,4346.794922,4341.666504,4416.410156,4325.897461,4314.102539,4325.256348,4375.769043,4338.077148,4311.538574,4640.128418,4601.922852,4478.461426,4553.846191,,,,,,,,,,,,,,,,,,,,,,,,,,,,,,,,,,,,,,,,,,,,,,,,,,,,,,,,,,,,,,,,,,,,,,
1769164137.674693,1769164137.675526,13.0,0.0,4373.077148,4339.358887,4339.102539,4410.512695,4327.820313,4322.692383,4331.666504,4380.384766,4342.307617,4311.410156,4643.717773,4603.205078,4477.820313,4553.846191,,,,,,,,,,,,,,,,,,,,,,,,,,,,,,,,,,,,,,,,,,,,,,,,,,,,,,,,,,,,,,,,,,,,,,
1769164137.682501,1769164137.683234,14.0,0.0,4368.846191,4329.615234,4337.692383,4412.307617,4329.743652,4326.794922,4338.846191,4386.410156,4347.820313,4317.692383,4648.205078,4602.820313,4476.794922,4553.974121,0.885207,0.202421,0.204191,0.245267,0.248276,0.597,0.134892,0.154624,0.156863,0.145987,0.326373,0.189364,0.141585,0.103827,0.134765,0.569097,0.162123,0.171509,0.114167,0.074855,0.231093,0.128892,0.213841,0.064066,0.072375,0.134209,0.577616,0.352773,0.189305,0.117904,0.160219,0.462712,0.317538,0.123454,0.117417,0.30743,0.222991,0.366947,0.10531,0.053344,0.203868,0.127054,0.251781,0.153806,0.169275,0.208785,0.208712,0.126368,0.105858,0.14728,0.303225,0.240785,0.293317,0.250901,0.16019,0.385294,0.343042,0.234812,0.309344,0.239558,0.475743,0.282099,0.466909,0.272402,0.265122,0.816921,0.124191,0.627757,0.347104,0.273637
1769164137.690309,1769164137.691043,15.0,0.0,4362.563965,4325.512695,4337.436035,4409.487305,4326.666504,4327.94873,4342.820313,4389.102539,4352.307617,4323.461426,4645.0,4602.692383,4475.897461,4549.743652,,,,,,,,,,,,,,,,,,,,,,,,,,,,,,,,,,,,,,,,,,,,,,,,,,,,,,,,,,,,,,,,,,,,,,
1769164137.698118,1769164137.699051,16.0,0.0,4370.384766,4333.461426,4342.05127,4410.384766,4325.128418,4327.05127,4337.563965,4384.871582,4347.179688,4322.820313,4648.717773,4605.769043,4476.922852,4550.769043,,,,,,,,,,,,,,,,,,,,,,,,,,,,,,,,,,,,,,,,,,,,,,,,,,,,,,,,,,,,,,,,,,,,,,
1769164137.705926,1769164137.706859,17.0,0.0,4384.743652,4346.025879,4346.922852,4418.205078,4330.256348,4314.871582,4325.128418,4380.384766,4343.974121,4320.897461,4656.410156,4608.333496,4476.666504,4558.333496,,,,,,,,,,,,,,,,,,,,,,,,,,,,,,,,,,,,,,,,,,,,,,,,,,,,,,,,,,,,,,,,,,,,,,
1769164137.713735,1769164137.714568,18.0,0.0,4378.589844,4341.794922,4343.717773,4414.615234,4334.487305,4311.922852,4323.077148,4379.358887,4342.307617,4317.436035,4649.615234,4604.615234,4474.102539,4551.794922,,,,,,,,,,,,,,,,,,,,,,,,,,,,,,,,,,,,,,,,,,,,,,,,,,,,,,,,,,,,,,,,,,,,,,
1769164137.721543,1769164137.722376,19.0,0.0,4362.563965,4333.717773,4339.230957,4409.743652,4336.153809,4324.743652,4327.94873,4375.384766,4332.820313,4311.153809,4638.974121,4598.205078,4472.820313,4542.820313,,,,,,,,,,,,,,,,,,,,,,,,,,,,,,,,,,,,,,,,,,,,,,,,,,,,,,,,,,,,,,,,,,,,,,
1769164137.729352,1769164137.729985,20.0,0.0,4367.820313,4341.153809,4343.589844,4419.230957,4339.102539,4323.717773,4327.692383,4372.563965,4331.282227,4308.205078,4639.615234,4595.641113,4470.897461,4547.820313,,,,,,,,,,,,,,,,,,,,,,,,,,,,,,,,,,,,,,,,,,,,,,,,,,,,,,,,,,,,,,,,,,,,,,
1769164137.73716,1769164137.737793,21.0,0.0,4383.589844,4353.205078,4353.974121,4430.384766,4341.538574,4309.743652,4325.0,4372.94873,4341.282227,4311.153809,4644.358887,4602.179688,4471.153809,4554.358887,,,,,,,,,,,,,,,,,,,,,,,,,,,,,,,,,,,,,,,,,,,,,,,,,,,,,,,,,,,,,,,,,,,,,,
1769164137.744969,1769164137.745702,22.0,0.0,4383.846191,4351.794922,4358.461426,4430.0,4339.102539,4310.897461,4325.128418,4372.179688,4342.692383,4311.922852,4645.897461,4611.282227,4476.153809,4556.025879,,,,,,,,,,,,,,,,,,,,,,,,,,,,,,,,,,,,,,,,,,,,,,,,,,,,,,,,,,,,,,,,,,,,,,
1769164137.752777,1769164137.75351,23.0,0.0,4369.615234,4341.538574,4350.256348,4419.102539,4334.487305,4323.846191,4329.358887,4377.94873,4338.846191,4310.256348,4644.487305,4608.974121,4476.282227,4556.922852,,,,,,,,,,,,,,,,,,,,,,,,,,,,,,,,,,,,,,,,,,,,,,,,,,,,,,,,,,,,,,,,,,,,,,
1769164137.760585,1769164137.761519,24.0,0.0,4363.717773,4343.589844,4343.717773,4411.666504,4336.410156,4325.256348,4332.563965,4384.102539,4342.436035,4315.0,4643.333496,4599.615234,4472.436035,4556.025879,,,,,,,,,,,,,,,,,,,,,,,,,,,,,,,,,,,,,,,,,,,,,,,,,,,,,,,,,,,,,,,,,,,,,,
1769164137.768394,1769164137.769327,25.0,0.0,4369.743652,4354.358887,4349.230957,4419.102539,4341.922852,4319.358887,4327.820313,4378.333496,4344.615234,4319.230957,4646.153809,4598.333496,4474.871582,4551.794922,,,,,,,,,,,,,,,,,,,,,,,,,,,,,,,,,,,,,,,,,,,,,,,,,,,,,,,,,,,,,,,,,,,,,,
1769164137.776202,1769164137.777036,26.0,0.0,4373.461426,4357.179688,4356.666504,4429.743652,4343.974121,4317.820313,4322.436035,4371.922852,4342.436035,4317.692383,4648.333496,4606.025879,4478.717773,4555.256348,,,,,,,,,,,,,,,,,,,,,,,,,,,,,,,,,,,,,,,,,,,,,,,,,,,,,,,,,,,,,,,,,,,,,,
1769164137.784011,1769164137.784844,27.0,0.0,4378.077148,4357.692383,4357.692383,4428.333496,4345.128418,4318.846191,4326.410156,4373.461426,4343.846191,4315.897461,4648.077148,4612.563965,4477.94873,4566.794922,,,,,,,,,,,,,,,,,,,,,,,,,,,,,,,,,,,,,,,,,,,,,,,,,,,,,,,,,,,,,,,,,,,,,,
1769164137.791819,1769164137.792453,28.0,0.0,4383.333496,4364.615234,4357.436035,4424.358887,4350.897461,4322.820313,4329.871582,4375.512695,4342.436035,4314.615234,4647.05127,4608.717773,4475.512695,4567.692383,,,,,,,,,,,,,,,,,,,,,,,,,,,,,,,,,,,,,,,,,,,,,,,,,,,,,,,,,,,,,,,,,,,,,,
1769164137.799628,1769164137.800261,29.0,0.0,4380.0,4365.897461,4355.512695,4427.820313,4351.538574,4325.512695,4326.153809,4371.153809,4333.461426,4310.769043,4642.820313,4598.589844,4475.0,4554.230957,,,,,,,,,,,,,,,,,,,,,,,,,,,,,,,,,,,,,,,,,,,,,,,,,,,,,,,,,,,,,,,,,,,,,,
1769164137.807436,1769164137.80797,30.0,0.0,4376.794922,4359.230957,4354.871582,4428.589844,4344.615234,4323.205078,4326.794922,4368.461426,4329.871582,4309.871582,4639.102539,4598.717773,4474.487305,4549.102539,0.885164,0.229063,0.217129,0.235234,0.214712,0.675878,0.145354,0.191457,0.174469,0.140322,0.34857,0.193375,0.142633,0.103047,0.117345,0.532316,0.14753,0.215988,0.137294,0.07142,0.247803,0.091703,0.207327,0.073961,0.06872,0.146893,0.637021,0.460908,0.213747,0.126186,0.172115,0.495889,0.380346,0.129209,0.125169,0.333216,0.278803,0.432636,0.090092,0.05147,0.193894,0.120797,0.27395,0.140143,0.169515,0.222626,0.211529,0.141757,0.1067,0.141924,0.319315,0.243774,0.326839,0.300255,0.150646,0.44016,0.424814,0.252881,0.309088,0.214746,0.497919,0.316749,0.501846,0.26927,0.249451,0.642616,0.093531,0.636345,0.40469,0.264862
1769164137.815245,1769164137.815778,31.0,0.0,4380.897461,4356.153809,4361.025879,4425.384766,4341.538574,4321.282227,4329.871582,4373.077148,4333.205078,4312.820313,4643.717773,4612.05127,4473.589844,4563.333496,,,,,,,,,,,,,,,,,,,,,,,,,,,,,,,,,,,,,,,,,,,,,,,,,,,,,,,,,,,,,,,,,,,,,,
1769164137.823053,1769164137.823786,32.0,0.0,4381.666504,4355.641113,4363.205078,4422.692383,4342.307617,4317.436035,4327.820313,4373.461426,4331.922852,4312.692383,4647.820313,4617.179688,4477.307617,4568.846191,,,,,,,,,,,,,,,,,,,,,,,,,,,,,,,,,,,,,,,,,,,,,,,,,,,,,,,,,,,,,,,,,,,,,,
1769164137.830861,1769164137.831595,33.0,0.0,4379.102539,4354.102539,4357.820313,4422.05127,4342.05127,4314.358887,4324.230957,4365.897461,4326.794922,4311.153809,4642.05127,4605.769043,4473.589844,4556.922852,,,,,,,,,,,,,,,,,,,,,,,,,,,,,,,,,,,,,,,,,,,,,,,,,,,,,,,,,,,,,,,,,,,,,,
1769164137.83867,1769164137.839503,34.0,0.0,4377.436035,4355.384766,4356.794922,4421.153809,4340.128418,4314.487305,4325.641113,4366.025879,4327.692383,4310.641113,4638.333496,4597.436035,4462.307617,4552.307617,,,,,,,,,,,,,,,,,,,,,,,,,,,,,,,,,,,,,,,,,,,,,,,,,,,,,,,,,,,,,,,,,,,,,,
1769164137.846478,1769164137.847312,35.0,0.0,4366.794922,4353.974121,4358.461426,4415.128418,4340.769043,4314.743652,4326.282227,4375.384766,4332.692383,4311.922852,4643.205078,4603.589844,4460.769043,4553.846191,,,,,,,,,,,,,,,,,,,,,,,,,,,,,,,,,,,,,,,,,,,,,,,,,,,,,,,,,,,,,,,,,,,,,,
1769164137.854287,1769164137.85532,36.0,0.0,4356.410156,4348.846191,4354.615234,4412.179688,4342.820313,4315.0,4323.717773,4374.743652,4332.563965,4309.615234,4641.794922,4600.897461,4464.230957,4543.974121,,,,,,,,,,,,,,,,,,,,,,,,,,,,,,,,,,,,,,,,,,,,,,,,,,,,,,,,,,,,,,,,,,,,,,
1769164137.862095,1769164137.863128,37.0,0.0,4357.05127,4347.94873,4352.179688,4412.436035,4342.307617,4317.820313,4322.692383,4370.641113,4333.717773,4305.769043,4631.410156,4587.820313,4461.153809,4539.230957,,,,,,,,,,,,,,,,,,,,,,,,,,,,,,,,,,,,,,,,,,,,,,,,,,,,,,,,,,,,,,,,,,,,,,
1769164137.869904,1769164137.870837,38.0,0.0,4358.205078,4346.922852,4355.512695,4408.589844,4339.743652,4321.153809,4322.820313,4373.205078,4333.974121,4308.846191,4628.974121,4592.05127,4457.692383,4552.820313,,,,,,,,,,,,,,,,,,,,,,,,,,,,,,,,,,,,,,,,,,,,,,,,,,,,,,,,,,,,,,,,,,,,,,
1769164137.877712,1769164137.878645,39.0,0.0,4356.794922,4342.820313,4357.820313,4406.538574,4338.846191,4324.743652,4326.538574,4373.333496,4328.974121,4310.769043,4635.897461,4603.974121,4460.384766,4557.05127,,,,,,,,,,,,,,,,,,,,,,,,,,,,,,,,,,,,,,,,,,,,,,,,,,,,,,,,,,,,,,,,,,,,,,
1769164137.885521,1769164137.886254,40.0,0.0,4363.846191,4346.666504,4356.538574,4410.256348,4340.128418,4322.94873,4326.538574,4370.512695,4329.102539,4311.410156,4642.94873,4607.94873,4466.666504,4554.743652,,,,,,,,,,,,,,,,,,,,,,,,,,,,,,,,,,,,,,,,,,,,,,,,,,,,,,,,,,,,,,,,,,,,,,
1769164137.893329,1769164137.894062,41.0,0.0,4375.897461,4358.717773,4357.692383,4413.846191,4340.256348,4312.563965,4316.666504,4372.692383,4336.922852,4320.0,4648.717773,4613.205078,4476.794922,4563.846191,,,,,,,,,,,,,,,,,,,,,,,,,,,,,,,,,,,,,,,,,,,,,,,,,,,,,,,,,,,,,,,,,,,,,,
1769164137.901137,1769164137.901771,42.0,0.0,4374.743652,4360.641113,4363.333496,4413.974121,4340.256348,4312.820313,4314.230957,4375.641113,4339.230957,4327.563965,4649.358887,4615.512695,4479.358887,4565.256348,,,,,,,,,,,,,,,,,,,,,,,,,,,,,,,,,,,,,,,,,,,,,,,,,,,,,,,,,,,,,,,,,,,,,,
1769164137.908946,1769164137.909579,43.0,0.0,4367.05127,4353.205078,4366.922852,4414.487305,4341.282227,4320.0,4319.871582,4374.102539,4332.179688,4321.025879,4644.358887,4606.666504,4473.717773,4555.769043,,,,,,,,,,,,,,,,,,,,,,,,,,,,,,,,,,,,,,,,,,,,,,,,,,,,,,,,,,,,,,,,,,,,,,
1769164137.916754,1769164137.917188,44.0,0.0,4370.256348,4355.0,4366.538574,4415.384766,4342.436035,4317.436035,4318.846191,4372.563965,4329.358887,4315.0,4641.282227,4597.307617,4474.487305,4552.179688,,,,,,,,,,,,,,,,,,,,,,,,,,,,,,,,,,,,,,,,,,,,,,,,,,,,,,,,,,,,,,,,,,,,,,
1769164137.924563,1769164137.924996,45.0,0.0,4367.94873,4356.282227,4364.102539,4414.743652,4342.563965,4318.589844,4320.0,4373.077148,4331.025879,4316.025879,4639.743652,4598.717773,4473.461426,4552.94873,,,,,,,,,,,,,,,,,,,,,,,,,,,,,,,,,,,,,,,,,,,,,,,,,,,,,,,,,,,,,,,,,,,,,,
1769164137.932371,1769164137.932705,46.0,0.0,4358.974121,4350.0,4362.94873,4413.333496,4341.025879,4323.333496,4325.384766,4377.436035,4336.282227,4317.05127,4640.0,4606.282227,4471.153809,4560.769043,0.873989,0.284411,0.263189,0.235218,0.196144,0.747433,0.214947,0.248172,0.189739,0.144781,0.406087,0.218628,0.172734,0.107325,0.103456,0.463849,0.165339,0.260898,0.161958,0.083522,0.264695,0.06679,0.202088,0.081911,0.061547,0.154717,0.661633,0.581574,0.22791,0.144932,0.178238,0.496525,0.439945,0.147207,0.135076,0.350434,0.336738,0.472423,0.081705,0.057165,0.183654,0.145808,0.288962,0.128523,0.172613,0.255064,0.256881,0.187868,0.119315,0.157037,0.336105,0.282217,0.381847,0.344171,0.15151,0.495426,0.525023,0.296741,0.299644,0.201844,0.51242,0.382419,0.533432,0.268993,0.234196,0.492499,0.081856,0.617024,0.457185,0.253212
1769164137.94018,1769164137.940513,47.0,0.0,4363.333496,4351.538574,4365.128418,4413.974121,4338.205078,4321.153809,4324.358887,4381.153809,4343.589844,4324.487305,4647.307617,4610.256348,4476.794922,4570.769043,,,,,,,,,,,,,,,,,,,,,,,,,,,,,,,,,,,,,,,,,,,,,,,,,,,,,,,,,,,,,,,,,,,,,,
1769164137.947988,1769164137.948522,48.0,0.0,4365.897461,4355.256348,4364.743652,4415.384766,4336.025879,4323.077148,4324.358887,4376.794922,4340.512695,4325.384766,4648.461426,4602.05127,4472.692383,4561.794922,,,,,,,,,,,,,,,,,,,,,,,,,,,,,,,,,,,,,,,,,,,,,,,,,,,,,,,,,,,,,,,,,,,,,,
1769164137.955797,1769164137.95633,49.0,0.0,4356.666504,4348.205078,4360.384766,4412.692383,4335.769043,4327.563965,4327.94873,4371.794922,4334.358887,4316.666504,4641.410156,4595.256348,4461.538574,4549.358887,,,,,,,,,,,,,,,,,,,,,,,,,,,,,,,,,,,,,,,,,,,,,,,,,,,,,,,,,,,,,,,,,,,,,,
1769164137.963605,1769164137.964238,50.0,0.0,4358.461426,4344.230957,4364.102539,4408.974121,4335.256348,4328.461426,4327.05127,4373.333496,4338.205078,4315.897461,4642.94873,4602.179688,4466.538574,4554.615234,,,,,,,,,,,,,,,,,,,,,,,,,,,,,,,,,,,,,,,,,,,,,,,,,,,,,,,,,,,,,,,,,,,,,,
1769164137.971414,1769164137.972047,51.0,0.0,4370.512695,4355.0,4373.974121,4416.538574,4336.282227,4325.512695,4322.307617,4374.102539,4339.102539,4322.94873,4650.128418,4611.922852,4477.692383,4560.897461,,,,,,,,,,,,,,,,,,,,,,,,,,,,,,,,,,,,,,,,,,,,,,,,,,,,,,,,,,,,,,,,,,,,,,
1769164137.979222,1769164137.979656,52.0,0.0,4372.05127,4363.077148,4373.333496,4424.743652,4338.589844,4315.128418,4313.077148,4367.94873,4329.615234,4323.205078,4648.974121,4611.794922,4477.692383,4562.94873,,,,,,,,,,,,,,,,,,,,,,,,,,,,,,,,,,,,,,,,,,,,,,,,,,,,,,,,,,,,,,,,,,,,,,
1769164137.987031,1769164137.987464,53.0,0.0,4366.282227,4360.512695,4368.717773,4423.077148,4338.461426,4307.563965,4306.282227,4362.692383,4326.153809,4318.205078,4646.794922,4608.846191,4476.282227,4568.077148,,,,,,,,,,,,,,,,,,,,,,,,,,,,,,,,,,,,,,,,,,,,,,,,,,,,,,,,,,,,,,,,,,,,,,
1769164137.994839,1769164137.995173,54.0,0.0,4366.538574,4356.922852,4370.897461,4417.820313,4338.333496,4311.025879,4311.153809,4366.282227,4329.871582,4318.717773,4648.846191,4612.307617,4477.307617,4572.05127,,,,,,,,,,,,,,,,,,,,,,,,,,,,,,,,,,,,,,,,,,,,,,,,,,,,,,,,,,,,,,,,,,,,,,
1769164138.002648,1769164138.002981,55.0,0.0,4372.05127,4356.794922,4376.410156,4415.0,4337.436035,4312.94873,4315.641113,4372.820313,4331.153809,4319.230957,4647.820313,4617.563965,4475.256348,4571.794922,,,,,,,,,,,,,,,,,,,,,,,,,,,,,,,,,,,,,,,,,,,,,,,,,,,,,,,,,,,,,,,,,,,,,,
1769164138.010456,1769164138.010989,56.0,0.0,4368.974121,4356.410156,4374.615234,4415.256348,4331.025879,4312.05127,4312.307617,4374.487305,4336.410156,4320.769043,4648.974121,4617.94873,4474.358887,4569.358887,,,,,,,,,,,,,,,,,,,,,,,,,,,,,,,,,,,,,,,,,,,,,,,,,,,,,,,,,,,,,,,,,,,,,,
1769164138.018264,1769164138.018798,57.0,0.0,4356.794922,4350.641113,4367.563965,4411.666504,4326.666504,4318.974121,4313.205078,4375.128418,4345.384766,4322.94873,4654.487305,4615.769043,4474.102539,4567.179688,,,,,,,,,,,,,,,,,,,,,,,,,,,,,,,,,,,,,,,,,,,,,,,,,,,,,,,,,,,,,,,,,,,,,,
1769164138.026073,1769164138.026706,58.0,0.0,4354.871582,4349.358887,4368.205078,4405.769043,4331.666504,4328.205078,4321.538574,4380.256348,4347.692383,4323.461426,4660.0,4614.487305,4473.974121,4568.205078,,,,,,,,,,,,,,,,,,,,,,,,,,,,,,,,,,,,,,,,,,,,,,,,,,,,,,,,,,,,,,,,,,,,,,
1769164138.033881,1769164138.034514,59.0,0.0,4359.102539,4353.205078,4373.333496,4405.128418,4338.077148,4330.256348,4324.871582,4384.358887,4346.025879,4325.256348,4662.820313,4616.922852,4476.538574,4570.256348,,,,,,,,,,,,,,,,,,,,,,,,,,,,,,,,,,,,,,,,,,,,,,,,,,,,,,,,,,,,,,,,,,,,,,
1769164138.04169,1769164138.042523,60.0,0.0,4357.692383,4354.615234,4371.410156,4406.922852,4338.974121,4326.025879,4317.179688,4378.717773,4344.871582,4325.512695,4658.717773,4612.820313,4477.05127,4571.282227,,,,,,,,,,,,,,,,,,,,,,,,,,,,,,,,,,,,,,,,,,,,,,,,,,,,,,,,,,,,,,,,,,,,,,
1769164138.049498,1769164138.050331,61.0,0.0,4358.461426,4354.743652,4368.205078,4403.846191,4341.025879,4323.205078,4310.384766,4373.205078,4342.307617,4323.717773,4650.769043,4602.692383,4475.641113,4567.307617,,,,,,,,,,,,,,,,,,,,,,,,,,,,,,,,,,,,,,,,,,,,,,,,,,,,,,,,,,,,,,,,,,,,,,
1769164138.057307,1769164138.05824,62.0,0.0,4357.563965,4352.307617,4371.025879,4400.0,4342.179688,4327.563965,4311.282227,4378.974121,4337.307617,4318.461426,4645.897461,4604.358887,4472.94873,4556.538574,0.820384,0.353887,0.320308,0.24743,0.199119,0.792866,0.331734,0.312054,0.204127,0.157937,0.464077,0.257479,0.215229,0.113709,0.095545,0.429342,0.21216,0.295271,0.184543,0.109958,0.259185,0.059807,0.197841,0.083948,0.052439,0.159817,0.65364,0.69761,0.231926,0.173157,0.176368,0.469784,0.49247,0.174102,0.145945,0.352669,0.385228,0.481309,0.078214,0.069128,0.176302,0.207374,0.315343,0.119022,0.179706,0.285117,0.340983,0.269803,0.139256,0.193971,0.328873,0.346856,0.456804,0.363868,0.165773,0.528795,0.618508,0.353279,0.280968,0.205801,0.481264,0.460586,0.566471,0.261599,0.225461,0.413731,0.091182,0.581039,0.482682,0.245713
1769164138.065115,1769164138.066048,63.0,0.0,4355.0,4352.436035,4374.102539,4401.794922,4339.615234,4326.538574,4312.05127,4381.538574,4333.589844,4318.333496,4650.897461,4616.666504,4472.179688,4556.538574,,,,,,,,,,,,,,,,,,,,,,,,,,,,,,,,,,,,,,,,,,,,,,,,,,,,,,,,,,,,,,,,,,,,,,
1769164138.072924,1769164138.074056,64.0,0.0,4358.333496,4357.436035,4374.230957,4404.871582,4340.128418,4319.743652,4309.487305,4374.871582,4334.487305,4323.205078,4659.358887,4620.769043,4478.205078,4571.410156,,,,,,,,,,,,,,,,,,,,,,,,,,,,,,,,,,,,,,,,,,,,,,,,,,,,,,,,,,,,,,,,,,,,,,
1769164138.080732,1769164138.081865,65.0,0.0,4355.384766,4357.436035,4372.820313,4404.358887,4342.820313,4321.794922,4308.846191,4373.974121,4335.0,4320.128418,4658.077148,4617.307617,4480.384766,4571.282227,,,,,,,,,,,,,,,,,,,,,,,,,,,,,,,,,,,,,,,,,,,,,,,,,,,,,,,,,,,,,,,,,,,,,,
1769164138.08854,1769164138.089573,66.0,0.0,4343.974121,4350.256348,4370.897461,4398.077148,4341.153809,4325.769043,4310.512695,4379.358887,4333.205078,4314.102539,4649.871582,4614.358887,4473.589844,4557.307617,,,,,,,,,,,,,,,,,,,,,,,,,,,,,,,,,,,,,,,,,,,,,,,,,,,,,,,,,,,,,,,,,,,,,,
1769164138.096349,1769164138.097382,67.0,0.0,4341.666504,4346.538574,4373.077148,4394.871582,4336.922852,4325.641113,4311.282227,4381.282227,4335.769043,4318.717773,4647.820313,4612.94873,4473.333496,4559.615234,,,,,,,,,,,,,,,,,,,,,,,,,,,,,,,,,,,,,,,,,,,,,,,,,,,,,,,,,,,,,,,,,,,,,,
1769164138.104157,1769164138.10499,68.0,0.0,4348.205078,4351.794922,4375.897461,4398.589844,4336.153809,4326.538574,4311.922852,4379.487305,4340.0,4323.205078,4651.538574,4614.615234,4475.512695,4568.974121,,,,,,,,,,,,,,,,,,,,,,,,,,,,,,,,,,,,,,,,,,,,,,,,,,,,,,,,,,,,,,,,,,,,,,
1769164138.111966,1769164138.112799,69.0,0.0,4346.025879,4353.461426,4372.94873,4399.102539,4336.538574,4329.615234,4311.794922,4377.307617,4338.846191,4316.025879,4647.179688,4613.974121,4464.615234,4560.0,,,,,,,,,,,,,,,,,,,,,,,,,,,,,,,,,,,,,,,,,,,,,,,,,,,,,,,,,,,,,,,,,,,,,,
1769164138.119774,1769164138.120507,70.0,0.0,4333.077148,4344.615234,4366.666504,4393.205078,4331.538574,4333.974121,4313.205078,4378.333496,4334.871582,4310.641113,4641.922852,4610.384766,4460.128418,4546.666504,,,,,,,,,,,,,,,,,,,,,,,,,,,,,,,,,,,,,,,,,,,,,,,,,,,,,,,,,,,,,,,,,,,,,,
1769164138.127583,1769164138.128316,71.0,0.0,4326.282227,4342.820313,4365.128418,4389.871582,4327.94873,4333.333496,4313.461426,4381.794922,4336.410156,4313.846191,4648.461426,4616.025879,4474.102539,4557.307617,,,,,,,,,,,,,,,,,,,,,,,,,,,,,,,,,,,,,,,,,,,,,,,,,,,,,,,,,,,,,,,,,,,,,,
1769164138.135391,1769164138.135924,72.0,0.0,4332.307617,4353.333496,4368.205078,4390.384766,4332.692383,4325.769043,4307.94873,4381.666504,4341.282227,4316.922852,4656.538574,4622.94873,4477.692383,4571.153809,,,,,,,,,,,,,,,,,,,,,,,,,,,,,,,,,,,,,,,,,,,,,,,,,,,,,,,,,,,,,,,,,,,,,,
1769164138.1432,1769164138.143733,73.0,0.0,4338.589844,4356.153809,4371.153809,4390.128418,4340.128418,4323.974121,4307.436035,4382.563965,4344.743652,4324.230957,4658.205078,4623.461426,4471.538574,4565.0,,,,,,,,,,,,,,,,,,,,,,,,,,,,,,,,,,,,,,,,,,,,,,,,,,,,,,,,,,,,,,,,,,,,,,
1769164138.151008,1769164138.151641,74.0,0.0,4338.717773,4352.436035,4374.102539,4391.922852,4341.666504,4328.717773,4309.487305,4385.384766,4345.256348,4332.692383,4662.05127,4627.820313,4483.974121,4568.333496,,,,,,,,,,,,,,,,,,,,,,,,,,,,,,,,,,,,,,,,,,,,,,,,,,,,,,,,,,,,,,,,,,,,,,
1769164138.158816,1769164138.15945,75.0,0.0,4342.94873,4357.05127,4375.769043,4396.153809,4338.205078,4327.307617,4303.077148,4382.179688,4343.077148,4330.384766,4665.769043,4630.128418,4492.692383,4581.666504,,,,,,,,,,,,,,,,,,,,,,,,,,,,,,,,,,,,,,,,,,,,,,,,,,,,,,,,,,,,,,,,,,,,,,
1769164138.166625,1769164138.167458,76.0,0.0,4341.538574,4360.897461,4372.820313,4397.179688,4335.641113,4324.358887,4296.794922,4380.384766,4342.307617,4324.102539,4660.384766,4622.179688,4481.153809,4578.974121,,,,,,,,,,,,,,,,,,,,,,,,,,,,,,,,,,,,,,,,,,,,,,,,,,,,,,,,,,,,,,,,,,,,,,
1769164138.174433,1769164138.175266,77.0,0.0,4329.871582,4357.307617,4370.0,4395.256348,4334.487305,4325.256348,4301.666504,4382.436035,4342.692383,4324.743652,4654.871582,4615.0,4475.384766,4566.794922,,,,,,,,,,,,,,,,,,,,,,,,,,,,,,,,,,,,,,,,,,,,,,,,,,,,,,,,,,,,,,,,,,,,,,
1769164138.182242,1769164138.182975,78.0,0.0,4330.897461,4357.179688,4372.563965,4396.153809,4334.871582,4325.897461,4307.179688,4381.922852,4341.794922,4326.025879,4655.384766,4616.538574,4475.384766,4560.512695,0.767235,0.437086,0.368981,0.26986,0.221385,0.818233,0.476364,0.369297,0.219393,0.176801,0.506051,0.301678,0.251692,0.120069,0.093734,0.417073,0.283131,0.31162,0.202631,0.144624,0.252409,0.071079,0.196002,0.078706,0.043808,0.169185,0.623995,0.78298,0.228636,0.204867,0.17029,0.430116,0.531699,0.201934,0.155482,0.339788,0.419733,0.466519,0.076507,0.083794,0.183965,0.303079,0.370718,0.110498,0.188977,0.303162,0.437771,0.379671,0.159573,0.242944,0.296514,0.409918,0.539156,0.351804,0.189764,0.531038,0.680536,0.407402,0.257813,0.224532,0.431765,0.527089,0.593046,0.241017,0.223864,0.419107,0.11311,0.532146,0.472989,0.246496
1769164138.19005,1769164138.190783,79.0,0.0,4333.974121,4358.077148,4374.102539,4395.641113,4334.743652,4330.512695,4307.179688,4381.282227,4341.922852,4324.230957,4657.307617,4617.179688,4476.410156,4559.487305,,,,,,,,,,,,,,,,,,,,,,,,,,,,,,,,,,,,,,,,,,,,,,,,,,,,,,,,,,,,,,,,,,,,,,
1769164138.197859,1769164138.198392,80.0,0.0,4327.05127,4356.282227,4372.05127,4392.563965,4334.615234,4334.358887,4311.410156,4380.897461,4343.589844,4325.128418,4661.282227,4617.179688,4486.666504,4567.05127,,,,,,,,,,,,,,,,,,,,,,,,,,,,,,,,,,,,,,,,,,,,,,,,,,,,,,,,,,,,,,,,,,,,,,
1769164138.205667,1769164138.2062,81.0,0.0,4330.0,4358.077148,4373.461426,4394.358887,4335.128418,4330.897461,4308.589844,4381.538574,4343.589844,4327.307617,4662.307617,4622.307617,4492.820313,4573.846191,,,,,,,,,,,,,,,,,,,,,,,,,,,,,,,,,,,,,,,,,,,,,,,,,,,,,,,,,,,,,,,,,,,,,,
1769164138.213476,1769164138.214109,82.0,0.0,4337.820313,4360.128418,4375.128418,4395.512695,4334.743652,4326.922852,4301.538574,4388.333496,4342.436035,4327.307617,4662.05127,4628.974121,4487.563965,4569.743652,,,,,,,,,,,,,,,,,,,,,,,,,,,,,,,,,,,,,,,,,,,,,,,,,,,,,,,,,,,,,,,,,,,,,,
1769164138.221284,1769164138.221917,83.0,0.0,4332.820313,4358.846191,4374.230957,4394.102539,4335.128418,4329.871582,4306.153809,4395.0,4342.563965,4327.94873,4669.615234,4633.461426,4490.128418,4569.871582,,,,,,,,,,,,,,,,,,,,,,,,,,,,,,,,,,,,,,,,,,,,,,,,,,,,,,,,,,,,,,,,,,,,,,
1769164138.229092,1769164138.229925,84.0,0.0,4330.128418,4358.589844,4377.05127,4394.743652,4333.974121,4331.282227,4305.897461,4393.205078,4343.333496,4328.461426,4674.358887,4632.307617,4495.512695,4573.461426,,,,,,,,,,,,,,,,,,,,,,,,,,,,,,,,,,,,,,,,,,,,,,,,,,,,,,,,,,,,,,,,,,,,,,
1769164138.236901,1769164138.237734,85.0,0.0,4338.589844,4359.743652,4380.769043,4397.436035,4330.384766,4319.230957,4294.358887,4387.05127,4342.820313,4328.077148,4667.307617,4627.179688,4491.025879,4569.358887,,,,,,,,,,,,,,,,,,,,,,,,,,,,,,,,,,,,,,,,,,,,,,,,,,,,,,,,,,,,,,,,,,,,,,
1769164138.244709,1769164138.245442,86.0,0.0,4335.512695,4356.410156,4376.666504,4393.333496,4327.692383,4307.820313,4290.384766,4382.179688,4341.153809,4327.436035,4662.179688,4625.512695,4489.871582,4567.692383,,,,,,,,,,,,,,,,,,,,,,,,,,,,,,,,,,,,,,,,,,,,,,,,,,,,,,,,,,,,,,,,,,,,,,
1769164138.252518,1769164138.253251,87.0,0.0,4326.794922,4354.743652,4371.410156,4387.94873,4326.922852,4312.563965,4295.641113,4379.615234,4342.307617,4328.077148,4666.025879,4626.282227,4494.487305,4572.179688,,,,,,,,,,,,,,,,,,,,,,,,,,,,,,,,,,,,,,,,,,,,,,,,,,,,,,,,,,,,,,,,,,,,,,
1769164138.260326,1769164138.261259,88.0,0.0,4325.769043,4358.461426,4371.922852,4388.077148,4326.153809,4320.512695,4295.256348,4381.922852,4344.615234,4327.179688,4665.512695,4622.820313,4492.436035,4571.282227,,,,,,,,,,,,,,,,,,,,,,,,,,,,,,,,,,,,,,,,,,,,,,,,,,,,,,,,,,,,,,,,,,,,,,
1769164138.268135,1769164138.269068,89.0,0.0,4320.128418,4353.589844,4365.897461,4386.410156,4325.641113,4322.307617,4293.846191,4382.307617,4342.563965,4322.563965,4655.641113,4613.846191,4480.384766,4558.717773,,,,,,,,,,,,,,,,,,,,,,,,,,,,,,,,,,,,,,,,,,,,,,,,,,,,,,,,,,,,,,,,,,,,,,
1769164138.275943,1769164138.276776,90.0,0.0,4307.436035,4341.282227,4355.641113,4378.077148,4327.05127,4325.384766,4299.102539,4382.05127,4340.769043,4321.025879,4649.615234,4611.282227,4470.512695,4547.563965,,,,,,,,,,,,,,,,,,,,,,,,,,,,,,,,,,,,,,,,,,,,,,,,,,,,,,,,,,,,,,,,,,,,,,
1769164138.283752,1769164138.284585,91.0,0.0,4307.307617,4339.743652,4357.05127,4377.307617,4326.666504,4327.820313,4300.897461,4386.282227,4344.230957,4325.897461,4653.974121,4615.897461,4477.820313,4551.025879,,,,,,,,,,,,,,,,,,,,,,,,,,,,,,,,,,,,,,,,,,,,,,,,,,,,,,,,,,,,,,,,,,,,,,
1769164138.29156,1769164138.292193,92.0,0.0,4321.538574,4350.769043,4366.794922,4387.820313,4324.230957,4322.179688,4299.487305,4384.743652,4348.846191,4332.94873,4662.05127,4617.307617,4493.077148,4561.153809,,,,,,,,,,,,,,,,,,,,,,,,,,,,,,,,,,,,,,,,,,,,,,,,,,,,,,,,,,,,,,,,,,,,,,
1769164138.299369,1769164138.300002,93.0,0.0,4323.077148,4355.897461,4367.436035,4392.179688,4325.256348,4320.384766,4300.256348,4383.846191,4349.615234,4335.769043,4665.0,4618.077148,4496.153809,4566.025879,,,,,,,,,,,,,,,,,,,,,,,,,,,,,,,,,,,,,,,,,,,,,,,,,,,,,,,,,,,,,,,,,,,,,,
1769164138.307177,1769164138.30771,94.0,0.0,4314.871582,4354.871582,4363.461426,4391.282227,4332.307617,4334.358887,4306.282227,4390.384766,4345.128418,4329.358887,4663.974121,4623.461426,4491.025879,4567.563965,0.699889,0.538624,0.398769,0.296794,0.252622,0.83442,0.616735,0.410777,0.235685,0.196948,0.5233,0.341477,0.265917,0.125028,0.096099,0.444201,0.363623,0.30703,0.215164,0.178318,0.232535,0.094987,0.200948,0.069464,0.037651,0.188054,0.588725,0.81874,0.220618,0.231133,0.161348,0.396411,0.554154,0.221049,0.160959,0.316622,0.439961,0.442058,0.074585,0.096794,0.212691,0.424119,0.458435,0.10235,0.195812,0.30429,0.509478,0.494236,0.174322,0.285926,0.250145,0.443652,0.609124,0.316238,0.213885,0.496053,0.702121,0.447207,0.23974,0.250419,0.385865,0.566398,0.599299,0.208869,0.224729,0.493432,0.142933,0.475554,0.4384,0.255084
1769164138.314986,1769164138.315519,95.0,0.0,4322.307617,4361.282227,4371.410156,4396.410156,4337.820313,4341.666504,4305.641113,4388.461426,4341.282227,4325.256348,4667.436035,4630.384766,4495.641113,4572.05127,,,,,,,,,,,,,,,,,,,,,,,,,,,,,,,,,,,,,,,,,,,,,,,,,,,,,,,,,,,,,,,,,,,,,,
1769164138.322794,1769164138.323127,96.0,0.0,4331.153809,4367.179688,4379.871582,4400.384766,4332.94873,4328.717773,4295.0,4380.641113,4345.769043,4331.922852,4673.205078,4632.692383,4498.717773,4572.94873,,,,,,,,,,,,,,,,,,,,,,,,,,,,,,,,,,,,,,,,,,,,,,,,,,,,,,,,,,,,,,,,,,,,,,
1769164138.330603,1769164138.330936,97.0,0.0,4324.615234,4364.615234,4375.384766,4395.897461,4328.717773,4320.256348,4291.153809,4383.077148,4353.077148,4337.179688,4673.205078,4628.846191,4492.820313,4570.256348,,,,,,,,,,,,,,,,,,,,,,,,,,,,,,,,,,,,,,,,,,,,,,,,,,,,,,,,,,,,,,,,,,,,,,
1769164138.338411,1769164138.338644,98.0,0.0,4323.974121,4365.128418,4371.153809,4394.102539,4331.025879,4325.0,4293.205078,4387.563965,4353.333496,4335.128418,4669.871582,4628.333496,4498.846191,4575.641113,,,,,,,,,,,,,,,,,,,,,,,,,,,,,,,,,,,,,,,,,,,,,,,,,,,,,,,,,,,,,,,,,,,,,,
1769164138.346219,1769164138.346453,99.0,0.0,4330.384766,4368.205078,4375.384766,4397.179688,4331.538574,4324.358887,4293.717773,4388.333496,4351.025879,4336.410156,4674.871582,4634.358887,4507.179688,4583.333496,,,,,,,,,,,,,,,,,,,,,,,,,,,,,,,,,,,,,,,,,,,,,,,,,,,,,,,,,,,,,,,,,,,,,,
1769164138.354028,1769164138.354461,100.0,0.0,4319.358887,4362.563965,4376.282227,4393.205078,4328.077148,4322.692383,4295.0,4388.846191,4349.230957,4335.769043,4676.282227,4636.794922,4498.077148,4578.461426,,,,,,,,,,,,,,,,,,,,,,,,,,,,,,,,,,,,,,,,,,,,,,,,,,,,,,,,,,,,,,,,,,,,,,
1769164138.361836,1769164138.362269,101.0,0.0,4307.307617,4353.846191,4370.641113,4388.461426,4325.897461,4327.307617,4294.871582,4383.589844,4345.641113,4327.94873,4667.436035,4631.153809,4488.974121,4571.153809,,,,,,,,,,,,,,,,,,,,,,,,,,,,,,,,,,,,,,,,,,,,,,,,,,,,,,,,,,,,,,,,,,,,,,
1769164138.369645,1769164138.370178,102.0,0.0,4309.102539,4350.384766,4367.307617,4388.077148,4327.05127,4326.025879,4293.333496,4382.820313,4342.692383,4325.128418,4667.179688,4629.615234,4492.436035,4571.922852,,,,,,,,,,,,,,,,,,,,,,,,,,,,,,,,,,,,,,,,,,,,,,,,,,,,,,,,,,,,,,,,,,,,,,
1769164138.377453,1769164138.377986,103.0,0.0,4305.512695,4349.358887,4364.102539,4388.717773,4328.205078,4331.153809,4295.0,4389.871582,4343.461426,4327.307617,4672.179688,4631.794922,4493.974121,4572.692383,,,,,,,,,,,,,,,,,,,,,,,,,,,,,,,,,,,,,,,,,,,,,,,,,,,,,,,,,,,,,,,,,,,,,,
1769164138.385262,1769164138.385994,104.0,0.0,4303.461426,4350.512695,4363.717773,4391.794922,4327.436035,4336.153809,4295.769043,4390.641113,4348.333496,4328.974121,4672.436035,4632.05127,4491.666504,4574.230957,,,,,,,,,,,,,,,,,,,,,,,,,,,,,,,,,,,,,,,,,,,,,,,,,,,,,,,,,,,,,,,,,,,,,,
1769164138.39307,1769164138.393803,105.0,0.0,4308.205078,4350.0,4365.384766,4396.025879,4327.436035,4328.205078,4294.743652,4388.974121,4350.769043,4328.846191,4672.05127,4633.205078,4491.282227,4576.153809,,,,,,,,,,,,,,,,,,,,,,,,,,,,,,,,,,,,,,,,,,,,,,,,,,,,,,,,,,,,,,,,,,,,,,
1769164138.400879,1769164138.401511,106.0,0.0,4302.05127,4347.563965,4361.922852,4395.641113,4329.230957,4329.102539,4296.282227,4390.0,4344.230957,4326.794922,4671.410156,4633.205078,4490.897461,4576.538574,,,,,,,,,,,,,,,,,,,,,,,,,,,,,,,,,,,,,,,,,,,,,,,,,,,,,,,,,,,,,,,,,,,,,,
1769164138.408687,1769164138.40932,107.0,0.0,4293.077148,4348.077148,4357.436035,4391.410156,4328.461426,4335.769043,4292.563965,4389.487305,4340.384766,4328.205078,4668.846191,4632.820313,4493.333496,4579.487305,,,,,,,,,,,,,,,,,,,,,,,,,,,,,,,,,,,,,,,,,,,,,,,,,,,,,,,,,,,,,,,,,,,,,,
1769164138.416495,1769164138.417328,108.0,0.0,4295.0,4352.179688,4357.563965,4389.358887,4326.410156,4332.05127,4292.179688,4388.333496,4346.410156,4333.333496,4670.128418,4632.307617,4494.102539,4575.128418,,,,,,,,,,,,,,,,,,,,,,,,,,,,,,,,,,,,,,,,,,,,,,,,,,,,,,,,,,,,,,,,,,,,,,
1769164138.424304,1769164138.425137,109.0,0.0,4298.717773,4353.205078,4358.461426,4393.333496,4327.563965,4324.871582,4294.102539,4388.717773,4350.128418,4337.436035,4673.461426,4631.538574,4492.692383,4570.128418,,,,,,,,,,,,,,,,,,,,,,,,,,,,,,,,,,,,,,,,,,,,,,,,,,,,,,,,,,,,,,,,,,,,,,
1769164138.432112,1769164138.433045,110.0,0.0,4293.461426,4346.025879,4355.897461,4393.461426,4326.666504,4322.05127,4286.666504,4387.179688,4347.820313,4336.282227,4672.307617,4632.820313,4493.589844,4577.436035,0.653714,0.664334,0.414306,0.319182,0.27923,0.851917,0.720117,0.432421,0.24935,0.212956,0.510908,0.368812,0.253804,0.127647,0.099609,0.532453,0.434385,0.288075,0.220661,0.201568,0.223136,0.123535,0.214349,0.061628,0.034808,0.218765,0.566212,0.799963,0.208973,0.243984,0.157174,0.386459,0.556567,0.223526,0.160459,0.287241,0.448376,0.416445,0.071648,0.104666,0.260779,0.554393,0.563101,0.094905,0.194676,0.294576,0.53033,0.585897,0.180173,0.304998,0.217237,0.437045,0.650633,0.273876,0.227224,0.436531,0.694427,0.475568,0.233035,0.27338,0.3746,0.577177,0.57758,0.172488,0.221676,0.603581,0.183211,0.421909,0.398074,0.268063
1769164138.439921,1769164138.440853,111.0,0.0,4283.846191,4340.512695,4354.358887,4386.538574,4325.384766,4322.436035,4283.461426,4387.563965,4345.256348,4331.666504,4672.820313,4632.692383,4493.461426,4579.615234,,,,,,,,,,,,,,,,,,,,,,,,,,,,,,,,,,,,,,,,,,,,,,,,,,,,,,,,,,,,,,,,,,,,,,
1769164138.447729,1769164138.448462,112.0,0.0,4278.974121,4341.538574,4352.307617,4384.615234,4325.769043,4326.538574,4292.05127,4387.820313,4341.794922,4328.077148,4671.153809,4628.333496,4492.94873,4572.179688,,,,,,,,,,,,,,,,,,,,,,,,,,,,,,,,,,,,,,,,,,,,,,,,,,,,,,,,,,,,,,,,,,,,,,
1769164138.455538,1769164138.456271,113.0,0.0,4278.077148,4338.717773,4349.102539,4386.922852,4325.256348,4328.077148,4295.0,4386.666504,4337.820313,4326.666504,4664.743652,4625.769043,4491.410156,4569.230957,,,,,,,,,,,,,,,,,,,,,,,,,,,,,,,,,,,,,,,,,,,,,,,,,,,,,,,,,,,,,,,,,,,,,,
1769164138.463346,1769164138.464179,114.0,0.0,4278.589844,4338.717773,4352.436035,4386.666504,4327.436035,4328.589844,4291.282227,4390.641113,4336.794922,4323.589844,4664.615234,4629.230957,4488.974121,4572.436035,,,,,,,,,,,,,,,,,,,,,,,,,,,,,,,,,,,,,,,,,,,,,,,,,,,,,,,,,,,,,,,,,,,,,,
1769164138.471155,1769164138.471987,115.0,0.0,4280.512695,4348.333496,4357.820313,4390.0,4330.641113,4334.871582,4293.333496,4395.512695,4340.384766,4326.153809,4675.128418,4633.333496,4497.05127,4579.358887,,,,,,,,,,,,,,,,,,,,,,,,,,,,,,,,,,,,,,,,,,,,,,,,,,,,,,,,,,,,,,,,,,,,,,
1769164138.478963,1769164138.479996,116.0,0.0,4281.538574,4353.205078,4354.871582,4396.538574,4331.538574,4336.794922,4294.230957,4393.589844,4344.487305,4335.384766,4682.436035,4636.025879,4506.153809,4588.717773,,,,,,,,,,,,,,,,,,,,,,,,,,,,,,,,,,,,,,,,,,,,,,,,,,,,,,,,,,,,,,,,,,,,,,
1769164138.486771,1769164138.487804,117.0,0.0,4277.436035,4348.205078,4352.692383,4396.666504,4334.358887,4334.487305,4293.205078,4385.512695,4342.05127,4334.230957,4673.846191,4631.922852,4498.077148,4588.205078,,,,,,,,,,,,,,,,,,,,,,,,,,,,,,,,,,,,,,,,,,,,,,,,,,,,,,,,,,,,,,,,,,,,,,
1769164138.49458,1769164138.495513,118.0,0.0,4276.794922,4344.615234,4357.179688,4394.487305,4335.128418,4339.230957,4295.512695,4384.358887,4340.641113,4325.897461,4663.205078,4624.615234,4487.179688,4578.077148,,,,,,,,,,,,,,,,,,,,,,,,,,,,,,,,,,,,,,,,,,,,,,,,,,,,,,,,,,,,,,,,,,,,,,
1769164138.502388,1769164138.503321,119.0,0.0,4276.282227,4341.538574,4354.102539,4390.0,4329.615234,4343.333496,4295.897461,4392.307617,4349.487305,4325.769043,4664.743652,4625.128418,4490.641113,4574.102539,,,,,,,,,,,,,,,,,,,,,,,,,,,,,,,,,,,,,,,,,,,,,,,,,,,,,,,,,,,,,,,,,,,,,,
1769164138.510197,1769164138.51093,120.0,0.0,4272.05127,4343.461426,4345.897461,4387.179688,4325.897461,4333.717773,4292.436035,4393.205078,4352.94873,4332.692383,4669.871582,4629.102539,4496.282227,4578.077148,,,,,,,,,,,,,,,,,,,,,,,,,,,,,,,,,,,,,,,,,,,,,,,,,,,,,,,,,,,,,,,,,,,,,,
1769164138.518005,1769164138.518738,121.0,0.0,4272.94873,4350.128418,4347.692383,4392.436035,4327.692383,4324.487305,4288.974121,4387.820313,4344.871582,4338.333496,4672.436035,4630.128418,4499.358887,4584.487305,,,,,,,,,,,,,,,,,,,,,,,,,,,,,,,,,,,,,,,,,,,,,,,,,,,,,,,,,,,,,,,,,,,,,,
1769164138.525814,1769164138.526447,122.0,0.0,4276.153809,4350.641113,4353.589844,4395.512695,4328.846191,4330.0,4288.846191,4388.461426,4342.307617,4339.871582,4674.743652,4631.282227,4504.615234,4586.282227,,,,,,,,,,,,,,,,,,,,,,,,,,,,,,,,,,,,,,,,,,,,,,,,,,,,,,,,,,,,,,,,,,,,,,
1769164138.533622,1769164138.534255,123.0,0.0,4280.897461,4352.94873,4355.641113,4395.769043,4328.077148,4333.589844,4288.077148,4390.769043,4346.922852,4338.846191,4676.666504,4631.666504,4506.922852,4587.820313,,,,,,,,,,,,,,,,,,,,,,,,,,,,,,,,,,,,,,,,,,,,,,,,,,,,,,,,,,,,,,,,,,,,,,
1769164138.541431,1769164138.542263,124.0,0.0,4278.846191,4353.589844,4356.794922,4395.897461,4328.461426,4325.512695,4288.461426,4389.102539,4346.153809,4339.615234,4678.974121,4631.922852,4506.410156,4591.025879,,,,,,,,,,,,,,,,,,,,,,,,,,,,,,,,,,,,,,,,,,,,,,,,,,,,,,,,,,,,,,,,,,,,,,
1769164138.549239,1769164138.550072,125.0,0.0,4269.102539,4345.128418,4355.769043,4392.05127,4331.410156,4322.94873,4291.794922,4388.846191,4342.179688,4337.307617,4676.922852,4632.179688,4502.692383,4585.897461,,,,,,,,,,,,,,,,,,,,,,,,,,,,,,,,,,,,,,,,,,,,,,,,,,,,,,,,,,,,,,,,,,,,,,
1769164138.557048,1769164138.55798,126.0,0.0,4272.179688,4346.153809,4354.230957,4391.794922,4333.205078,4328.461426,4292.94873,4389.102539,4340.641113,4329.743652,4669.871582,4629.358887,4496.025879,4580.128418,0.645664,0.808123,0.426822,0.330846,0.291867,0.868721,0.76946,0.434446,0.255172,0.219889,0.477484,0.384039,0.223402,0.127232,0.101731,0.652426,0.482986,0.267181,0.217536,0.207338,0.21679,0.151805,0.232722,0.059836,0.034757,0.259352,0.57403,0.736457,0.194546,0.240199,0.154531,0.411088,0.537419,0.206753,0.153981,0.261347,0.44717,0.390724,0.068193,0.10607,0.315422,0.669093,0.652155,0.08939,0.182217,0.286316,0.496665,0.628937,0.177694,0.291437,0.219955,0.403275,0.657858,0.240922,0.223418,0.369178,0.684669,0.504696,0.237001,0.284665,0.405699,0.572128,0.534341,0.144985,0.211575,0.720672,0.2431,0.385448,0.372104,0.281205
1769164138.564856,1769164138.565789,127.0,0.0,4278.461426,4354.102539,4358.717773,4395.512695,4329.743652,4330.256348,4291.666504,4386.922852,4340.641113,4330.769043,4667.94873,4628.205078,4492.563965,4582.05127,,,,,,,,,,,,,,,,,,,,,,,,,,,,,,,,,,,,,,,,,,,,,,,,,,,,,,,,,,,,,,,,,,,,,,
1769164138.572665,1769164138.573797,0.0,0.0,4266.666504,4343.717773,4357.179688,4391.538574,4325.384766,4328.974121,4293.077148,4388.461426,4345.0,4337.05127,4671.282227,4631.922852,4492.05127,4580.128418,,,,,,,,,,,,,,,,,,,,,,,,,,,,,,,,,,,,,,,,,,,,,,,,,,,,,,,,,,,,,,,,,,,,,,
1769164138.580473,1769164138.581605,1.0,0.0,4257.05127,4332.563965,4349.102539,4384.230957,4325.897461,4328.077148,4295.256348,4392.820313,4347.820313,4338.077148,4671.153809,4632.179688,4493.974121,4573.077148,,,,,,,,,,,,,,,,,,,,,,,,,,,,,,,,,,,,,,,,,,,,,,,,,,,,,,,,,,,,,,,,,,,,,,
1769164138.588282,1769164138.589514,2.0,0.0,4263.333496,4343.333496,4349.487305,4387.820313,4327.05127,4326.666504,4293.589844,4396.538574,4346.282227,4336.922852,4669.871582,4628.077148,4494.743652,4569.743652,,,,,,,,,,,,,,,,,,,,,,,,,,,,,,,,,,,,,,,,,,,,,,,,,,,,,,,,,,,,,,,,,,,,,,
1769164138.59609,1769164138.597322,3.0,0.0,4265.384766,4351.410156,4355.0,4393.461426,4324.743652,4326.538574,4290.512695,4395.897461,4344.743652,4337.692383,4671.666504,4626.794922,4492.307617,4570.641113,,,,,,,,,,,,,,,,,,,,,,,,,,,,,,,,,,,,,,,,,,,,,,,,,,,,,,,,,,,,,,,,,,,,,,
1769164138.603898,1769164138.604931,4.0,0.0,4262.179688,4345.897461,4354.743652,4391.282227,4323.589844,4324.102539,4287.692383,4390.256348,4345.769043,4338.717773,4673.717773,4629.487305,4492.05127,4570.769043,,,,,,,,,,,,,,,,,,,,,,,,,,,,,,,,,,,,,,,,,,,,,,,,,,,,,,,,,,,,,,,,,,,,,,
1769164138.611707,1769164138.612739,5.0,0.0,4262.436035,4341.025879,4350.384766,4387.179688,4325.256348,4318.461426,4286.153809,4387.179688,4346.282227,4340.128418,4675.641113,4631.666504,4496.153809,4573.077148,,,,,,,,,,,,,,,,,,,,,,,,,,,,,,,,,,,,,,,,,,,,,,,,,,,,,,,,,,,,,,,,,,,,,,
1769164138.619515,1769164138.620548,6.0,0.0,4260.769043,4342.820313,4348.205078,4387.94873,4324.871582,4318.461426,4288.589844,4387.563965,4343.461426,4337.307617,4672.820313,4628.333496,4492.436035,4572.94873,,,,,,,,,,,,,,,,,,,,,,,,,,,,,,,,,,,,,,,,,,,,,,,,,,,,,,,,,,,,,,,,,,,,,,
1769164138.627324,1769164138.628356,7.0,0.0,4261.794922,4351.794922,4354.743652,4394.230957,4324.487305,4323.717773,4290.128418,4387.436035,4340.128418,4331.922852,4668.846191,4627.563965,4489.871582,4572.307617,,,,,,,,,,,,,,,,,,,,,,,,,,,,,,,,,,,,,,,,,,,,,,,,,,,,,,,,,,,,,,,,,,,,,,
1769164138.635132,1769164138.636164,8.0,0.0,4266.794922,4358.846191,4360.128418,4396.922852,4327.436035,4323.846191,4286.410156,4388.717773,4340.641113,4337.436035,4671.922852,4632.05127,4497.820313,4577.05127,,,,,,,,,,,,,,,,,,,,,,,,,,,,,,,,,,,,,,,,,,,,,,,,,,,,,,,,,,,,,,,,,,,,,,
1769164138.642941,1769164138.643973,9.0,0.0,4261.666504,4351.410156,4349.487305,4389.615234,4327.820313,4322.692383,4286.153809,4389.102539,4345.128418,4342.307617,4675.512695,4629.743652,4499.102539,4576.666504,,,,,,,,,,,,,,,,,,,,,,,,,,,,,,,,,,,,,,,,,,,,,,,,,,,,,,,,,,,,,,,,,,,,,,
1769164138.650749,1769164138.651681,10.0,0.0,4248.205078,4338.077148,4338.333496,4380.0,4324.102539,4326.282227,4292.820313,4387.692383,4343.589844,4334.102539,4670.641113,4623.461426,4491.025879,4570.384766,,,,,,,,,,,,,,,,,,,,,,,,,,,,,,,,,,,,,,,,,,,,,,,,,,,,,,,,,,,,,,,,,,,,,,
1769164138.658558,1769164138.65949,11.0,0.0,4244.230957,4337.692383,4341.282227,4379.358887,4322.94873,4327.563965,4295.769043,4389.871582,4339.230957,4329.102539,4663.846191,4619.102539,4488.974121,4569.615234,,,,,,,,,,,,,,,,,,,,,,,,,,,,,,,,,,,,,,,,,,,,,,,,,,,,,,,,,,,,,,,,,,,,,,
1769164138.666366,1769164138.667099,12.0,0.0,4249.102539,4341.794922,4342.692383,4384.487305,4324.487305,4328.974121,4295.897461,4396.153809,4346.922852,4337.05127,4665.897461,4618.461426,4492.05127,4571.794922,,,,,,,,,,,,,,,,,,,,,,,,,,,,,,,,,,,,,,,,,,,,,,,,,,,,,,,,,,,,,,,,,,,,,,
1769164138.674174,1769164138.674907,13.0,0.0,4249.487305,4341.282227,4339.487305,4387.436035,4325.384766,4332.820313,4298.589844,4398.974121,4351.410156,4340.897461,4670.641113,4623.717773,4492.692383,4572.436035,,,,,,,,,,,,,,,,,,,,,,,,,,,,,,,,,,,,,,,,,,,,,,,,,,,,,,,,,,,,,,,,,,,,,,
1769164138.681983,1769164138.682815,14.0,0.0,4247.179688,4343.589844,4340.769043,4387.94873,4325.641113,4327.307617,4297.820313,4396.282227,4344.743652,4337.179688,4672.692383,4630.384766,4497.307617,4572.94873,0.659073,0.954384,0.451412,0.328035,0.288288,0.888645,0.774015,0.424652,0.249163,0.215058,0.442947,0.39246,0.193489,0.122898,0.101555,0.780103,0.508375,0.258691,0.204631,0.194034,0.226685,0.177725,0.25059,0.065369,0.036163,0.297128,0.62239,0.64427,0.179023,0.223367,0.153773,0.470885,0.495153,0.174422,0.143796,0.242508,0.438112,0.361649,0.066514,0.101936,0.36437,0.741301,0.692818,0.088604,0.159213,0.293432,0.428063,0.613936,0.171259,0.249643,0.270015,0.368439,0.639005,0.225492,0.203539,0.314896,0.695024,0.547008,0.244625,0.279579,0.466501,0.568535,0.490747,0.138178,0.19694,0.819458,0.326476,0.382376,0.369486,0.290297
1769164138.689791,1769164138.690624,15.0,0.0,4247.307617,4347.820313,4341.538574,4388.461426,4325.641113,4319.871582,4291.538574,4393.974121,4344.230957,4338.717773,4673.846191,4630.128418,4504.743652,4571.666504,,,,,,,,,,,,,,,,,,,,,,,,,,,,,,,,,,,,,,,,,,,,,,,,,,,,,,,,,,,,,,,,,,,,,,
1769164138.6976,1769164138.698232,16.0,0.0,4248.846191,4347.05127,4339.358887,4389.615234,4325.769043,4325.0,4291.282227,4395.384766,4351.025879,4342.563965,4674.615234,4628.333496,4506.410156,4571.153809,,,,,,,,,,,,,,,,,,,,,,,,,,,,,,,,,,,,,,,,,,,,,,,,,,,,,,,,,,,,,,,,,,,,,,
1769164138.705408,1769164138.706041,17.0,0.0,4250.512695,4345.0,4339.743652,4389.102539,4325.769043,4326.794922,4294.743652,4396.794922,4347.05127,4342.692383,4674.487305,4630.641113,4505.769043,4577.307617,,,,,,,,,,,,,,,,,,,,,,,,,,,,,,,,,,,,,,,,,,,,,,,,,,,,,,,,,,,,,,,,,,,,,,
1769164138.713217,1769164138.713749,18.0,0.0,4250.512695,4348.205078,4341.282227,4390.897461,4325.641113,4318.205078,4294.743652,4395.384766,4340.0,4341.666504,4677.436035,4633.717773,4507.820313,4583.205078,,,,,,,,,,,,,,,,,,,,,,,,,,,,,,,,,,,,,,,,,,,,,,,,,,,,,,,,,,,,,,,,,,,,,,
1769164138.721025,1769164138.721558,19.0,0.0,4250.769043,4352.436035,4342.692383,4396.794922,4325.641113,4320.897461,4298.717773,4395.256348,4345.769043,4343.333496,4681.025879,4636.794922,4505.769043,4582.563965,,,,,,,,,,,,,,,,,,,,,,,,,,,,,,,,,,,,,,,,,,,,,,,,,,,,,,,,,,,,,,,,,,,,,,
1769164138.728834,1769164138.729167,20.0,0.0,4246.538574,4349.358887,4341.538574,4397.436035,4325.641113,4333.846191,4302.94873,4397.820313,4350.897461,4342.820313,4675.512695,4629.615234,4495.0,4574.358887,,,,,,,,,,,,,,,,,,,,,,,,,,,,,,,,,,,,,,,,,,,,,,,,,,,,,,,,,,,,,,,,,,,,,,
1769164138.736642,1769164138.736975,21.0,0.0,4234.615234,4341.538574,4336.025879,4387.563965,4325.769043,4336.282227,4300.641113,4397.94873,4347.692383,4338.846191,4665.256348,4617.436035,4486.538574,4563.461426,,,,,,,,,,,,,,,,,,,,,,,,,,,,,,,,,,,,,,,,,,,,,,,,,,,,,,,,,,,,,,,,,,,,,,
1769164138.74445,1769164138.744883,22.0,0.0,4229.487305,4339.743652,4333.077148,4380.384766,4325.641113,4335.128418,4303.461426,4395.384766,4343.461426,4333.333496,4658.461426,4615.769043,4485.128418,4562.820313,,,,,,,,,,,,,,,,,,,,,,,,,,,,,,,,,,,,,,,,,,,,,,,,,,,,,,,,,,,,,,,,,,,,,,
1769164138.752259,1769164138.752692,23.0,0.0,4237.179688,4344.615234,4337.94873,4382.820313,4325.512695,4337.05127,4307.820313,4396.025879,4342.307617,4333.077148,4660.128418,4619.615234,4482.179688,4571.538574,,,,,,,,,,,,,,,,,,,,,,,,,,,,,,,,,,,,,,,,,,,,,,,,,,,,,,,,,,,,,,,,,,,,,,
1769164138.760067,1769164138.7607,24.0,0.0,4233.205078,4339.102539,4336.410156,4382.05127,4326.025879,4333.461426,4303.589844,4398.974121,4343.846191,4340.0,4662.436035,4616.410156,4478.846191,4567.820313,,,,,,,,,,,,,,,,,,,,,,,,,,,,,,,,,,,,,,,,,,,,,,,,,,,,,,,,,,,,,,,,,,,,,,
1769164138.767876,1769164138.768508,25.0,0.0,4216.538574,4328.205078,4324.615234,4373.205078,4325.256348,4332.179688,4305.256348,4393.589844,4341.538574,4337.179688,4658.846191,4609.871582,4481.794922,4556.410156,,,,,,,,,,,,,,,,,,,,,,,,,,,,,,,,,,,,,,,,,,,,,,,,,,,,,,,,,,,,,,,,,,,,,,
1769164138.775684,1769164138.776417,26.0,0.0,4220.512695,4333.077148,4328.461426,4374.102539,4324.487305,4331.538574,4312.05127,4386.666504,4338.077148,4331.025879,4662.94873,4617.563965,4489.358887,4563.717773,,,,,,,,,,,,,,,,,,,,,,,,,,,,,,,,,,,,,,,,,,,,,,,,,,,,,,,,,,,,,,,,,,,,,,
1769164138.783493,1769164138.784225,27.0,0.0,4244.615234,4348.717773,4347.05127,4388.205078,4325.128418,4321.666504,4307.436035,4390.641113,4341.025879,4336.922852,4671.153809,4631.794922,4493.846191,4578.205078,,,,,,,,,,,,,,,,,,,,,,,,,,,,,,,,,,,,,,,,,,,,,,,,,,,,,,,,,,,,,,,,,,,,,,
1769164138.791301,1769164138.792234,28.0,0.0,4254.487305,4353.717773,4348.205078,4392.05127,4325.256348,4317.307617,4299.615234,4394.102539,4345.384766,4341.538574,4666.538574,4629.487305,4493.717773,4572.820313,,,,,,,,,,,,,,,,,,,,,,,,,,,,,,,,,,,,,,,,,,,,,,,,,,,,,,,,,,,,,,,,,,,,,,
1769164138.79911,1769164138.800042,29.0,0.0,4235.769043,4344.871582,4332.436035,4381.538574,4325.641113,4322.563965,4299.487305,4387.94873,4341.666504,4336.538574,4658.974121,4616.282227,4489.743652,4563.205078,,,,,,,,,,,,,,,,,,,,,,,,,,,,,,,,,,,,,,,,,,,,,,,,,,,,,,,,,,,,,,,,,,,,,,
1769164138.806918,1769164138.807751,30.0,0.0,4216.025879,4338.589844,4328.717773,4376.538574,4325.897461,4322.05127,4299.615234,4384.615234,4340.641113,4337.692383,4667.179688,4618.461426,4490.641113,4571.153809,0.713256,1.069789,0.490905,0.310995,0.272904,0.912338,0.751196,0.413146,0.231489,0.19947,0.427068,0.398518,0.182712,0.11398,0.099872,0.890431,0.511744,0.271529,0.183002,0.166087,0.24484,0.199077,0.262011,0.075539,0.037621,0.328506,0.710698,0.539063,0.16523,0.201672,0.151496,0.555116,0.433191,0.135332,0.13262,0.230062,0.42011,0.325033,0.069315,0.094681,0.385523,0.751025,0.666993,0.093893,0.1307,0.308165,0.356015,0.548913,0.166938,0.194213,0.346331,0.353255,0.607054,0.225469,0.174849,0.287507,0.726921,0.602127,0.247053,0.257473,0.534339,0.573509,0.465866,0.156303,0.183457,0.890375,0.420898,0.419056,0.385062,0.291778
1769164138.814726,1769164138.815559,31.0,0.0,4225.0,4342.05127,4339.615234,4383.333496,4324.615234,4320.641113,4299.358887,4386.153809,4348.717773,4343.461426,4679.102539,4635.0,4503.077148,4589.487305,,,,,,,,,,,,,,,,,,,,,,,,,,,,,,,,,,,,,,,,,,,,,,,,,,,,,,,,,,,,,,,,,,,,,,
1769164138.822535,1769164138.823567,32.0,0.0,4248.333496,4350.384766,4345.0,4390.256348,4324.871582,4326.153809,4303.333496,4387.05127,4353.077148,4341.538574,4672.820313,4635.641113,4504.743652,4593.846191,,,,,,,,,,,,,,,,,,,,,,,,,,,,,,,,,,,,,,,,,,,,,,,,,,,,,,,,,,,,,,,,,,,,,,
1769164138.830343,1769164138.831376,33.0,0.0,4250.0,4354.230957,4342.563965,4389.102539,4326.538574,4331.666504,4310.897461,4392.307617,4352.563965,4339.615234,4662.94873,4623.077148,4491.153809,4578.461426,,,,,,,,,,,,,,,,,,,,,,,,,,,,,,,,,,,,,,,,,,,,,,,,,,,,,,,,,,,,,,,,,,,,,,
1769164138.838152,1769164138.839084,34.0,0.0,4237.820313,4350.897461,4340.256348,4385.641113,4324.743652,4334.487305,4318.333496,4397.94873,4354.743652,4340.897461,4669.615234,4623.333496,4494.230957,4572.436035,,,,,,,,,,,,,,,,,,,,,,,,,,,,,,,,,,,,,,,,,,,,,,,,,,,,,,,,,,,,,,,,,,,,,,
1769164138.84596,1769164138.846893,35.0,0.0,4230.512695,4345.512695,4337.307617,4384.487305,4323.589844,4331.410156,4318.717773,4396.410156,4356.794922,4340.897461,4682.307617,4633.333496,4510.0,4584.230957,,,,,,,,,,,,,,,,,,,,,,,,,,,,,,,,,,,,,,,,,,,,,,,,,,,,,,,,,,,,,,,,,,,,,,
1769164138.853769,1769164138.854501,36.0,0.0,4219.230957,4337.94873,4333.717773,4378.589844,4325.256348,4326.282227,4318.717773,4396.794922,4355.897461,4340.256348,4680.769043,4634.871582,4507.820313,4589.743652,,,,,,,,,,,,,,,,,,,,,,,,,,,,,,,,,,,,,,,,,,,,,,,,,,,,,,,,,,,,,,,,,,,,,,
1769164138.861577,1769164138.86231,37.0,0.0,4217.692383,4338.461426,4337.436035,4375.128418,4325.512695,4327.563965,4322.94873,4396.153809,4351.666504,4340.512695,4671.025879,4632.179688,4495.512695,4583.717773,,,,,,,,,,,,,,,,,,,,,,,,,,,,,,,,,,,,,,,,,,,,,,,,,,,,,,,,,,,,,,,,,,,,,,
1769164138.869386,1769164138.870218,38.0,0.0,4233.205078,4349.743652,4341.922852,4386.025879,4326.153809,4328.589844,4319.102539,4391.282227,4347.820313,4340.0,4666.153809,4631.282227,4493.205078,4575.769043,,,,,,,,,,,,,,,,,,,,,,,,,,,,,,,,,,,,,,,,,,,,,,,,,,,,,,,,,,,,,,,,,,,,,,
1769164138.877194,1769164138.878027,39.0,0.0,4237.436035,4353.461426,4338.461426,4391.025879,4327.692383,4325.128418,4313.717773,4389.743652,4347.94873,4338.205078,4663.717773,4626.025879,4491.410156,4569.615234,,,,,,,,,,,,,,,,,,,,,,,,,,,,,,,,,,,,,,,,,,,,,,,,,,,,,,,,,,,,,,,,,,,,,,
1769164138.885003,1769164138.886035,40.0,0.0,4229.743652,4347.179688,4338.461426,4382.307617,4328.333496,4325.0,4315.128418,4391.538574,4349.871582,4338.077148,4665.384766,4626.666504,4488.717773,4573.589844,,,,,,,,,,,,,,,,,,,,,,,,,,,,,,,,,,,,,,,,,,,,,,,,,,,,,,,,,,,,,,,,,,,,,,
1769164138.892811,1769164138.893843,41.0,0.0,4231.794922,4348.205078,4343.717773,4382.436035,4325.128418,4327.179688,4316.282227,4390.641113,4354.102539,4341.025879,4671.025879,4635.769043,4494.358887,4586.538574,,,,,,,,,,,,,,,,,,,,,,,,,,,,,,,,,,,,,,,,,,,,,,,,,,,,,,,,,,,,,,,,,,,,,,
1769164138.90062,1769164138.901552,42.0,0.0,4235.256348,4350.0,4343.333496,4386.410156,4318.333496,4325.897461,4315.897461,4387.05127,4357.436035,4344.358887,4673.461426,4636.666504,4498.589844,4588.205078,,,,,,,,,,,,,,,,,,,,,,,,,,,,,,,,,,,,,,,,,,,,,,,,,,,,,,,,,,,,,,,,,,,,,,
1769164138.908428,1769164138.90936,43.0,0.0,4230.641113,4342.307617,4338.846191,4380.256348,4316.282227,4323.974121,4321.025879,4383.717773,4353.205078,4343.717773,4671.922852,4630.641113,4493.205078,4582.179688,,,,,,,,,,,,,,,,,,,,,,,,,,,,,,,,,,,,,,,,,,,,,,,,,,,,,,,,,,,,,,,,,,,,,,
1769164138.916237,1769164138.916969,44.0,0.0,4231.410156,4344.358887,4342.94873,4381.666504,4321.282227,4325.128418,4324.230957,4385.769043,4350.0,4340.897461,4670.256348,4630.0,4490.256348,4583.846191,,,,,,,,,,,,,,,,,,,,,,,,,,,,,,,,,,,,,,,,,,,,,,,,,,,,,,,,,,,,,,,,,,,,,,
1769164138.924045,1769164138.924777,45.0,0.0,4236.282227,4350.769043,4351.282227,4392.820313,4324.487305,4327.436035,4324.615234,4388.589844,4353.589844,4339.615234,4672.05127,4634.102539,4492.820313,4586.794922,,,,,,,,,,,,,,,,,,,,,,,,,,,,,,,,,,,,,,,,,,,,,,,,,,,,,,,,,,,,,,,,,,,,,,
1769164138.931853,1769164138.932486,46.0,0.0,4236.410156,4345.512695,4352.05127,4392.436035,4323.205078,4327.94873,4328.077148,4385.128418,4350.641113,4337.692383,4673.589844,4634.743652,4493.589844,4585.128418,0.772702,1.127131,0.542438,0.284293,0.253767,0.933128,0.71711,0.411537,0.208073,0.178816,0.451504,0.403654,0.199556,0.101485,0.099099,0.928245,0.498924,0.306558,0.157429,0.132643,0.263842,0.212755,0.262922,0.085163,0.038132,0.343999,0.818675,0.434262,0.155676,0.18306,0.144592,0.640381,0.360397,0.099607,0.121943,0.215439,0.390625,0.282154,0.077952,0.086647,0.377019,0.693597,0.581864,0.103485,0.104171,0.329039,0.306479,0.455199,0.169191,0.14246,0.431037,0.362799,0.574618,0.233319,0.146772,0.292781,0.761048,0.655252,0.237569,0.222327,0.600453,0.584225,0.467588,0.195471,0.17509,0.93173,0.502103,0.487539,0.405198,0.283587
1769164138.939662,1769164138.940294,47.0,0.0,4233.589844,4342.94873,4350.769043,4387.820313,4322.436035,4327.94873,4326.410156,4384.102539,4345.512695,4337.179688,4673.717773,4633.333496,4499.871582,4589.102539,,,,,,,,,,,,,,,,,,,,,,,,,,,,,,,,,,,,,,,,,,,,,,,,,,,,,,,,,,,,,,,,,,,,,,
1769164138.94747,1769164138.948303,48.0,0.0,4235.897461,4351.282227,4354.102539,4391.025879,4324.615234,4328.205078,4324.615234,4388.846191,4351.794922,4341.538574,4675.641113,4636.538574,4509.230957,4600.512695,,,,,,,,,,,,,,,,,,,,,,,,,,,,,,,,,,,,,,,,,,,,,,,,,,,,,,,,,,,,,,,,,,,,,,
1769164138.955279,1769164138.956111,49.0,0.0,4234.230957,4351.410156,4352.820313,4389.871582,4327.179688,4328.077148,4331.025879,4391.666504,4359.102539,4344.743652,4678.589844,4642.436035,4508.333496,4602.692383,,,,,,,,,,,,,,,,,,,,,,,,,,,,,,,,,,,,,,,,,,,,,,,,,,,,,,,,,,,,,,,,,,,,,,
1769164138.963087,1769164138.964019,50.0,0.0,4222.307617,4343.717773,4347.94873,4385.897461,4327.692383,4329.358887,4335.769043,4394.102539,4359.230957,4344.230957,4681.282227,4641.153809,4504.102539,4597.692383,,,,,,,,,,,,,,,,,,,,,,,,,,,,,,,,,,,,,,,,,,,,,,,,,,,,,,,,,,,,,,,,,,,,,,
1769164138.970896,1769164138.971828,51.0,0.0,4221.538574,4346.282227,4349.487305,4389.487305,4329.358887,4335.256348,4335.0,4392.179688,4357.05127,4343.461426,4681.025879,4635.128418,4509.487305,4599.615234,,,,,,,,,,,,,,,,,,,,,,,,,,,,,,,,,,,,,,,,,,,,,,,,,,,,,,,,,,,,,,,,,,,,,,
1769164138.978704,1769164138.979836,52.0,0.0,4232.820313,4349.230957,4352.563965,4390.769043,4331.922852,4337.179688,4332.94873,4383.077148,4357.436035,4343.077148,4675.641113,4633.717773,4509.487305,4596.922852,,,,,,,,,,,,,,,,,,,,,,,,,,,,,,,,,,,,,,,,,,,,,,,,,,,,,,,,,,,,,,,,,,,,,,
1769164138.986513,1769164138.987644,53.0,0.0,4230.256348,4345.0,4351.922852,4383.974121,4328.846191,4331.282227,4333.077148,4379.230957,4357.563965,4342.820313,4672.179688,4635.0,4499.871582,4586.282227,,,,,,,,,,,,,,,,,,,,,,,,,,,,,,,,,,,,,,,,,,,,,,,,,,,,,,,,,,,,,,,,,,,,,,
1769164138.994321,1769164138.995553,54.0,0.0,4217.94873,4339.615234,4350.128418,4380.769043,4323.333496,4327.692383,4333.461426,4382.820313,4351.666504,4336.666504,4672.307617,4633.589844,4497.179688,4587.436035,,,,,,,,,,,,,,,,,,,,,,,,,,,,,,,,,,,,,,,,,,,,,,,,,,,,,,,,,,,,,,,,,,,,,,
1769164139.002129,1769164139.003361,55.0,0.0,4216.153809,4335.769043,4349.487305,4381.922852,4323.077148,4328.461426,4334.102539,4383.461426,4345.641113,4326.666504,4666.794922,4629.871582,4498.333496,4593.974121,,,,,,,,,,,,,,,,,,,,,,,,,,,,,,,,,,,,,,,,,,,,,,,,,,,,,,,,,,,,,,,,,,,,,,
1769164139.009938,1769164139.01097,56.0,0.0,4220.256348,4334.358887,4353.974121,4382.307617,4325.128418,4326.025879,4332.05127,4381.153809,4346.153809,4328.717773,4660.897461,4629.358887,4493.589844,4588.974121,,,,,,,,,,,,,,,,,,,,,,,,,,,,,,,,,,,,,,,,,,,,,,,,,,,,,,,,,,,,,,,,,,,,,,
1769164139.017746,1769164139.018778,57.0,0.0,4220.641113,4332.436035,4358.205078,4381.922852,4324.871582,4323.205078,4331.153809,4380.0,4346.153809,4338.333496,4664.615234,4629.487305,4491.282227,4583.205078,,,,,,,,,,,,,,,,,,,,,,,,,,,,,,,,,,,,,,,,,,,,,,,,,,,,,,,,,,,,,,,,,,,,,,
1769164139.025555,1769164139.026487,58.0,0.0,4216.153809,4327.94873,4354.102539,4378.974121,4323.589844,4326.153809,4335.769043,4381.282227,4342.05127,4336.025879,4666.025879,4626.410156,4494.615234,4585.256348,,,,,,,,,,,,,,,,,,,,,,,,,,,,,,,,,,,,,,,,,,,,,,,,,,,,,,,,,,,,,,,,,,,,,,
1769164139.033363,1769164139.034295,59.0,0.0,4214.487305,4325.256348,4352.179688,4377.05127,4322.05127,4325.384766,4337.94873,4381.922852,4341.025879,4332.05127,4665.641113,4626.922852,4494.487305,4587.179688,,,,,,,,,,,,,,,,,,,,,,,,,,,,,,,,,,,,,,,,,,,,,,,,,,,,,,,,,,,,,,,,,,,,,,
1769164139.041172,1769164139.041904,60.0,0.0,4222.179688,4331.666504,4358.717773,4381.922852,4323.077148,4317.820313,4335.384766,4380.128418,4341.922852,4334.871582,4671.410156,4634.230957,4492.692383,4590.641113,,,,,,,,,,,,,,,,,,,,,,,,,,,,,,,,,,,,,,,,,,,,,,,,,,,,,,,,,,,,,,,,,,,,,,
1769164139.04898,1769164139.049712,61.0,0.0,4226.025879,4336.538574,4362.436035,4385.769043,4326.538574,4320.0,4335.256348,4379.615234,4339.487305,4331.666504,4670.641113,4633.589844,4491.794922,4588.846191,,,,,,,,,,,,,,,,,,,,,,,,,,,,,,,,,,,,,,,,,,,,,,,,,,,,,,,,,,,,,,,,,,,,,,
1769164139.056789,1769164139.057421,62.0,0.0,4218.205078,4332.436035,4355.769043,4380.769043,4327.820313,4327.05127,4340.256348,4380.128418,4339.871582,4327.307617,4661.922852,4621.153809,4491.153809,4578.717773,0.807345,1.116256,0.58673,0.258903,0.241119,0.935161,0.687053,0.420854,0.188873,0.162189,0.508378,0.406363,0.237046,0.088412,0.102677,0.895355,0.4797,0.349881,0.13515,0.104554,0.271426,0.213517,0.252272,0.088939,0.037365,0.34377,0.921363,0.337923,0.149749,0.171548,0.133654,0.702633,0.286056,0.074295,0.111843,0.193527,0.349917,0.241704,0.091251,0.079058,0.335924,0.585239,0.467698,0.113328,0.086017,0.332725,0.289891,0.356474,0.178437,0.106616,0.494768,0.391585,0.545694,0.241869,0.126752,0.325054,0.776523,0.682426,0.215345,0.183174,0.664613,0.600729,0.487013,0.244055,0.172353,0.951974,0.55224,0.562663,0.415627,0.267435
1769164139.064597,1769164139.065229,63.0,0.0,4207.05127,4325.897461,4344.230957,4372.94873,4326.153809,4327.820313,4342.563965,4380.128418,4342.563965,4328.974121,4659.230957,4613.461426,4488.461426,4568.717773,,,,,,,,,,,,,,,,,,,,,,,,,,,,,,,,,,,,,,,,,,,,,,,,,,,,,,,,,,,,,,,,,,,,,,
1769164139.072405,1769164139.073238,64.0,0.0,4197.820313,4324.487305,4339.743652,4370.256348,4323.717773,4331.666504,4340.256348,4381.025879,4341.794922,4326.538574,4658.717773,4612.179688,4482.563965,4560.384766,,,,,,,,,,,,,,,,,,,,,,,,,,,,,,,,,,,,,,,,,,,,,,,,,,,,,,,,,,,,,,,,,,,,,,
1769164139.080214,1769164139.081046,65.0,0.0,4194.743652,4327.307617,4346.282227,4372.94873,4323.205078,4335.769043,4342.179688,4385.512695,4340.128418,4325.384766,4657.436035,4615.0,4483.717773,4560.0,,,,,,,,,,,,,,,,,,,,,,,,,,,,,,,,,,,,,,,,,,,,,,,,,,,,,,,,,,,,,,,,,,,,,,
1769164139.088022,1769164139.088954,66.0,0.0,4200.256348,4326.794922,4354.615234,4375.769043,4324.743652,4331.666504,4348.205078,4392.94873,4344.743652,4330.0,4661.538574,4623.717773,4490.384766,4567.563965,,,,,,,,,,,,,,,,,,,,,,,,,,,,,,,,,,,,,,,,,,,,,,,,,,,,,,,,,,,,,,,,,,,,,,
1769164139.095831,1769164139.096763,67.0,0.0,4202.436035,4324.358887,4356.666504,4373.333496,4325.128418,4331.666504,4353.333496,4397.05127,4351.282227,4332.692383,4665.641113,4630.384766,4491.025879,4573.974121,,,,,,,,,,,,,,,,,,,,,,,,,,,,,,,,,,,,,,,,,,,,,,,,,,,,,,,,,,,,,,,,,,,,,,
1769164139.103639,1769164139.104372,68.0,0.0,4199.615234,4325.641113,4354.743652,4371.282227,4325.897461,4335.512695,4351.410156,4395.769043,4350.384766,4331.794922,4663.333496,4630.769043,4488.717773,4576.794922,,,,,,,,,,,,,,,,,,,,,,,,,,,,,,,,,,,,,,,,,,,,,,,,,,,,,,,,,,,,,,,,,,,,,,
1769164139.111448,1769164139.11218,69.0,0.0,4202.436035,4331.922852,4353.589844,4375.641113,4329.487305,4330.256348,4346.153809,4395.769043,4348.333496,4334.871582,4661.794922,4627.820313,4494.102539,4575.769043,,,,,,,,,,,,,,,,,,,,,,,,,,,,,,,,,,,,,,,,,,,,,,,,,,,,,,,,,,,,,,,,,,,,,,
1769164139.119256,1769164139.119889,70.0,0.0,4206.153809,4337.436035,4354.487305,4382.436035,4330.897461,4325.769043,4347.94873,4397.692383,4349.743652,4340.0,4665.769043,4625.897461,4502.436035,4571.666504,,,,,,,,,,,,,,,,,,,,,,,,,,,,,,,,,,,,,,,,,,,,,,,,,,,,,,,,,,,,,,,,,,,,,,
1769164139.127065,1769164139.127697,71.0,0.0,4203.461426,4336.410156,4353.589844,4381.794922,4327.307617,4328.205078,4350.128418,4397.179688,4352.179688,4342.94873,4672.94873,4628.077148,4507.179688,4575.897461,,,,,,,,,,,,,,,,,,,,,,,,,,,,,,,,,,,,,,,,,,,,,,,,,,,,,,,,,,,,,,,,,,,,,,
1769164139.134873,1769164139.135705,72.0,0.0,4198.333496,4332.436035,4350.897461,4373.846191,4327.05127,4327.436035,4344.230957,4396.282227,4351.282227,4345.256348,4678.974121,4632.05127,4509.358887,4585.384766,,,,,,,,,,,,,,,,,,,,,,,,,,,,,,,,,,,,,,,,,,,,,,,,,,,,,,,,,,,,,,,,,,,,,,
1769164139.142681,1769164139.143514,73.0,0.0,4198.974121,4333.205078,4353.205078,4372.05127,4329.615234,4325.897461,4342.436035,4396.282227,4346.666504,4344.615234,4678.846191,4633.077148,4506.538574,4587.307617,,,,,,,,,,,,,,,,,,,,,,,,,,,,,,,,,,,,,,,,,,,,,,,,,,,,,,,,,,,,,,,,,,,,,,
1769164139.15049,1769164139.151422,74.0,0.0,4203.717773,4337.94873,4358.589844,4379.358887,4327.94873,4327.179688,4349.615234,4397.436035,4342.436035,4337.307617,4670.897461,4631.538574,4497.692383,4587.563965,,,,,,,,,,,,,,,,,,,,,,,,,,,,,,,,,,,,,,,,,,,,,,,,,,,,,,,,,,,,,,,,,,,,,,
1769164139.158299,1769164139.159231,75.0,0.0,4206.025879,4340.512695,4358.846191,4382.436035,4326.025879,4327.307617,4351.410156,4396.410156,4339.230957,4326.794922,4662.692383,4628.077148,4489.487305,4584.358887,,,,,,,,,,,,,,,,,,,,,,,,,,,,,,,,,,,,,,,,,,,,,,,,,,,,,,,,,,,,,,,,,,,,,,
1769164139.166107,1769164139.167239,76.0,0.0,4205.0,4341.025879,4357.05127,4379.358887,4326.025879,4326.666504,4350.0,4390.128418,4337.94873,4324.358887,4660.897461,4624.615234,4492.05127,4580.0,,,,,,,,,,,,,,,,,,,,,,,,,,,,,,,,,,,,,,,,,,,,,,,,,,,,,,,,,,,,,,,,,,,,,,
1769164139.173916,1769164139.175047,77.0,0.0,4204.871582,4342.05127,4359.102539,4380.256348,4328.333496,4328.333496,4352.05127,4387.94873,4340.256348,4330.384766,4662.436035,4627.692383,4494.743652,4585.128418,,,,,,,,,,,,,,,,,,,,,,,,,,,,,,,,,,,,,,,,,,,,,,,,,,,,,,,,,,,,,,,,,,,,,,
1769164139.181724,1769164139.182956,78.0,0.0,4205.384766,4343.589844,4360.512695,4380.897461,4330.384766,4334.230957,4354.487305,4393.717773,4342.94873,4335.256348,4666.538574,4633.205078,4492.307617,4590.641113,0.826336,1.054372,0.604736,0.253657,0.244425,0.899625,0.666397,0.431159,0.185324,0.157208,0.566924,0.400962,0.274463,0.079762,0.113322,0.784637,0.464158,0.3835,0.125356,0.090068,0.26401,0.19966,0.232704,0.084808,0.035366,0.334391,1.002973,0.252301,0.143379,0.165861,0.123548,0.732105,0.214047,0.062178,0.101624,0.174703,0.306216,0.207614,0.106783,0.071996,0.285769,0.454508,0.359796,0.119236,0.078349,0.319928,0.297914,0.270425,0.190297,0.089378,0.530736,0.429393,0.518176,0.247949,0.117586,0.369961,0.760982,0.663432,0.185652,0.151038,0.753272,0.62647,0.508874,0.287732,0.172652,0.964926,0.567147,0.613479,0.409048,0.249171
1769164139.189532,1769164139.190764,79.0,0.0,4200.641113,4339.615234,4356.410156,4375.0,4328.846191,4340.384766,4358.205078,4397.05127,4344.615234,4339.871582,4671.538574,4631.922852,4496.410156,4585.769043,,,,,,,,,,,,,,,,,,,,,,,,,,,,,,,,,,,,,,,,,,,,,,,,,,,,,,,,,,,,,,,,,,,,,,
1769164139.197341,1769164139.198572,80.0,0.0,4198.461426,4338.974121,4355.0,4373.974121,4329.743652,4337.563965,4357.179688,4395.256348,4348.974121,4343.333496,4670.128418,4628.846191,4504.230957,4584.743652,,,,,,,,,,,,,,,,,,,,,,,,,,,,,,,,,,,,,,,,,,,,,,,,,,,,,,,,,,,,,,,,,,,,,,
1769164139.205149,1769164139.206381,81.0,0.0,4211.153809,4352.563965,4366.282227,4387.563965,4337.436035,4329.743652,4353.205078,4396.666504,4356.282227,4349.358887,4673.846191,4636.282227,4514.230957,4599.871582,,,,,,,,,,,,,,,,,,,,,,,,,,,,,,,,,,,,,,,,,,,,,,,,,,,,,,,,,,,,,,,,,,,,,,
1769164139.212958,1769164139.214089,82.0,0.0,4225.128418,4361.538574,4377.436035,4397.05127,4342.179688,4330.0,4355.897461,4400.769043,4360.384766,4357.820313,4684.871582,4646.282227,4519.871582,4608.461426,,,,,,,,,,,,,,,,,,,,,,,,,,,,,,,,,,,,,,,,,,,,,,,,,,,,,,,,,,,,,,,,,,,,,,
1769164139.220766,1769164139.221898,83.0,0.0,4217.05127,4349.487305,4373.333496,4387.563965,4335.128418,4336.153809,4360.128418,4396.922852,4357.692383,4353.717773,4683.077148,4642.436035,4512.436035,4594.871582,,,,,,,,,,,,,,,,,,,,,,,,,,,,,,,,,,,,,,,,,,,,,,,,,,,,,,,,,,,,,,,,,,,,,,
1769164139.228575,1769164139.229507,84.0,0.0,4202.692383,4337.820313,4365.641113,4377.05127,4327.05127,4336.666504,4357.179688,4388.974121,4351.410156,4342.563965,4673.974121,4633.717773,4507.05127,4584.615234,,,,,,,,,,,,,,,,,,,,,,,,,,,,,,,,,,,,,,,,,,,,,,,,,,,,,,,,,,,,,,,,,,,,,,
1769164139.236383,1769164139.237315,85.0,0.0,4203.333496,4341.538574,4366.025879,4379.743652,4327.94873,4332.436035,4355.897461,4389.743652,4350.128418,4341.025879,4674.615234,4633.717773,4505.512695,4588.589844,,,,,,,,,,,,,,,,,,,,,,,,,,,,,,,,,,,,,,,,,,,,,,,,,,,,,,,,,,,,,,,,,,,,,,
1769164139.244192,1769164139.245024,86.0,0.0,4205.256348,4342.820313,4369.102539,4382.692383,4332.94873,4333.461426,4361.922852,4393.461426,4353.974121,4344.102539,4675.0,4634.743652,4496.410156,4584.615234,,,,,,,,,,,,,,,,,,,,,,,,,,,,,,,,,,,,,,,,,,,,,,,,,,,,,,,,,,,,,,,,,,,,,,
1769164139.252,1769164139.252832,87.0,0.0,4200.512695,4340.128418,4367.563965,4381.025879,4338.846191,4338.077148,4365.769043,4390.769043,4353.974121,4342.307617,4671.410156,4632.179688,4495.897461,4575.641113,,,,,,,,,,,,,,,,,,,,,,,,,,,,,,,,,,,,,,,,,,,,,,,,,,,,,,,,,,,,,,,,,,,,,,
1769164139.259808,1769164139.260441,88.0,0.0,4200.512695,4343.589844,4366.922852,4381.794922,4343.077148,4339.615234,4365.512695,4390.128418,4352.179688,4342.436035,4674.230957,4631.153809,4509.102539,4578.077148,,,,,,,,,,,,,,,,,,,,,,,,,,,,,,,,,,,,,,,,,,,,,,,,,,,,,,,,,,,,,,,,,,,,,,
1769164139.267617,1769164139.268249,89.0,0.0,4201.410156,4341.666504,4367.179688,4381.153809,4337.94873,4337.94873,4364.102539,4394.743652,4354.487305,4344.102539,4675.897461,4631.666504,4509.230957,4582.563965,,,,,,,,,,,,,,,,,,,,,,,,,,,,,,,,,,,,,,,,,,,,,,,,,,,,,,,,,,,,,,,,,,,,,,
1769164139.275425,1769164139.276157,90.0,0.0,4198.461426,4336.282227,4366.153809,4380.128418,4329.615234,4336.794922,4365.769043,4397.307617,4358.717773,4342.563965,4675.128418,4636.025879,4505.0,4582.820313,,,,,,,,,,,,,,,,,,,,,,,,,,,,,,,,,,,,,,,,,,,,,,,,,,,,,,,,,,,,,,,,,,,,,,
1769164139.283234,1769164139.283966,91.0,0.0,4198.205078,4336.153809,4371.794922,4381.410156,4329.230957,4338.589844,4370.384766,4398.333496,4359.102539,4343.461426,4678.461426,4644.487305,4510.128418,4583.846191,,,,,,,,,,,,,,,,,,,,,,,,,,,,,,,,,,,,,,,,,,,,,,,,,,,,,,,,,,,,,,,,,,,,,,
1769164139.291042,1769164139.291974,92.0,0.0,4200.384766,4336.922852,4378.974121,4377.563965,4329.230957,4334.615234,4370.512695,4398.077148,4357.692383,4345.769043,4679.487305,4648.461426,4508.846191,4583.461426,,,,,,,,,,,,,,,,,,,,,,,,,,,,,,,,,,,,,,,,,,,,,,,,,,,,,,,,,,,,,,,,,,,,,,
1769164139.298851,1769164139.299783,93.0,0.0,4200.512695,4335.0,4374.743652,4372.94873,4326.794922,4327.436035,4366.922852,4396.922852,4358.717773,4344.487305,4678.974121,4650.256348,4505.384766,4584.871582,,,,,,,,,,,,,,,,,,,,,,,,,,,,,,,,,,,,,,,,,,,,,,,,,,,,,,,,,,,,,,,,,,,,,,
1769164139.306659,1769164139.307691,94.0,0.0,4197.307617,4329.615234,4365.384766,4373.333496,4325.641113,4327.692383,4364.871582,4397.563965,4359.102539,4341.794922,4678.077148,4646.282227,4507.307617,4586.538574,0.75097,0.968752,0.581329,0.284712,0.267478,0.82073,0.650263,0.430162,0.202198,0.165157,0.600406,0.383085,0.294614,0.080345,0.131202,0.639046,0.454652,0.39314,0.133661,0.091217,0.242362,0.174591,0.208714,0.074967,0.032345,0.320086,1.056486,0.181669,0.132918,0.161341,0.119203,0.734531,0.15142,0.06084,0.090729,0.17782,0.271943,0.179438,0.121571,0.065342,0.252046,0.332713,0.282918,0.118617,0.07885,0.287918,0.310207,0.204494,0.197314,0.085305,0.541775,0.467767,0.487413,0.252615,0.117033,0.420312,0.714772,0.599916,0.157975,0.134127,0.888027,0.665168,0.518488,0.314252,0.172291,0.984328,0.559131,0.622831,0.388727,0.235965
1769164139.314468,1769164139.315499,95.0,0.0,4194.871582,4327.05127,4364.487305,4373.205078,4323.846191,4334.358887,4365.128418,4396.538574,4356.538574,4340.897461,4673.589844,4638.717773,4506.025879,4582.05127,,,,,,,,,,,,,,,,,,,,,,,,,,,,,,,,,,,,,,,,,,,,,,,,,,,,,,,,,,,,,,,,,,,,,,
1769164139.322276,1769164139.323108,96.0,0.0,4199.102539,4332.563965,4366.794922,4375.641113,4325.256348,4337.94873,4365.384766,4395.0,4354.615234,4341.922852,4672.563965,4641.538574,4504.358887,4582.179688,,,,,,,,,,,,,,,,,,,,,,,,,,,,,,,,,,,,,,,,,,,,,,,,,,,,,,,,,,,,,,,,,,,,,,
1769164139.330084,1769164139.330916,97.0,0.0,4202.307617,4338.589844,4367.307617,4378.077148,4329.615234,4336.922852,4365.897461,4396.666504,4355.384766,4341.922852,4675.641113,4646.410156,4503.974121,4587.436035,,,,,,,,,,,,,,,,,,,,,,,,,,,,,,,,,,,,,,,,,,,,,,,,,,,,,,,,,,,,,,,,,,,,,,
1769164139.337893,1769164139.338625,98.0,0.0,4200.641113,4339.230957,4371.153809,4376.794922,4327.94873,4336.538574,4366.922852,4397.692383,4356.538574,4341.538574,4675.256348,4641.025879,4500.512695,4584.102539,,,,,,,,,,,,,,,,,,,,,,,,,,,,,,,,,,,,,,,,,,,,,,,,,,,,,,,,,,,,,,,,,,,,,,
1769164139.345701,1769164139.346433,99.0,0.0,4201.922852,4338.846191,4373.974121,4378.077148,4325.0,4334.358887,4367.94873,4397.05127,4355.769043,4341.410156,4675.128418,4641.153809,4499.871582,4581.538574,,,,,,,,,,,,,,,,,,,,,,,,,,,,,,,,,,,,,,,,,,,,,,,,,,,,,,,,,,,,,,,,,,,,,,
1769164139.35351,1769164139.354442,100.0,0.0,4202.179688,4335.384766,4371.282227,4380.128418,4326.153809,4328.589844,4368.846191,4397.179688,4353.589844,4341.025879,4675.897461,4646.666504,4504.102539,4587.436035,,,,,,,,,,,,,,,,,,,,,,,,,,,,,,,,,,,,,,,,,,,,,,,,,,,,,,,,,,,,,,,,,,,,,,
1769164139.361318,1769164139.36225,101.0,0.0,4203.589844,4334.230957,4371.794922,4379.743652,4326.410156,4327.05127,4369.487305,4396.410156,4350.128418,4341.025879,4673.461426,4642.179688,4506.538574,4589.615234,,,,,,,,,,,,,,,,,,,,,,,,,,,,,,,,,,,,,,,,,,,,,,,,,,,,,,,,,,,,,,,,,,,,,,
1769164139.369127,1769164139.370158,102.0,0.0,4213.589844,4341.282227,4376.794922,4379.615234,4324.615234,4328.974121,4370.641113,4394.487305,4348.461426,4341.538574,4675.384766,4640.256348,4506.666504,4591.538574,,,,,,,,,,,,,,,,,,,,,,,,,,,,,,,,,,,,,,,,,,,,,,,,,,,,,,,,,,,,,,,,,,,,,,
1769164139.376935,1769164139.377967,103.0,0.0,4220.256348,4344.102539,4376.153809,4381.922852,4323.846191,4326.538574,4370.0,4394.615234,4351.282227,4344.615234,4680.641113,4647.179688,4507.820313,4599.743652,,,,,,,,,,,,,,,,,,,,,,,,,,,,,,,,,,,,,,,,,,,,,,,,,,,,,,,,,,,,,,,,,,,,,,
1769164139.384744,1769164139.385975,104.0,0.0,4216.666504,4346.410156,4371.794922,4386.282227,4329.487305,4325.128418,4370.256348,4397.563965,4361.410156,4353.717773,4680.256348,4648.589844,4513.974121,4605.384766,,,,,,,,,,,,,,,,,,,,,,,,,,,,,,,,,,,,,,,,,,,,,,,,,,,,,,,,,,,,,,,,,,,,,,
1769164139.392552,1769164139.393784,105.0,0.0,4213.333496,4351.410156,4371.410156,4390.512695,4334.102539,4331.282227,4373.589844,4399.615234,4368.077148,4359.615234,4678.589844,4646.410156,4519.487305,4601.922852,,,,,,,,,,,,,,,,,,,,,,,,,,,,,,,,,,,,,,,,,,,,,,,,,,,,,,,,,,,,,,,,,,,,,,
1769164139.40036,1769164139.401492,106.0,0.0,4212.179688,4347.563965,4369.871582,4388.846191,4329.743652,4334.102539,4373.333496,4398.333496,4362.307617,4353.589844,4680.384766,4646.282227,4517.436035,4600.256348,,,,,,,,,,,,,,,,,,,,,,,,,,,,,,,,,,,,,,,,,,,,,,,,,,,,,,,,,,,,,,,,,,,,,,
1769164139.408169,1769164139.409301,107.0,0.0,4212.820313,4343.205078,4368.974121,4388.333496,4328.461426,4330.897461,4371.794922,4399.487305,4360.641113,4348.461426,4684.358887,4649.615234,4521.153809,4608.461426,,,,,,,,,,,,,,,,,,,,,,,,,,,,,,,,,,,,,,,,,,,,,,,,,,,,,,,,,,,,,,,,,,,,,,
1769164139.415977,1769164139.416909,108.0,0.0,4216.538574,4348.589844,4371.666504,4391.153809,4333.717773,4335.512695,4375.0,4404.102539,4365.128418,4352.05127,4686.410156,4651.025879,4526.538574,4613.461426,,,,,,,,,,,,,,,,,,,,,,,,,,,,,,,,,,,,,,,,,,,,,,,,,,,,,,,,,,,,,,,,,,,,,,
1769164139.423786,1769164139.424718,109.0,0.0,4216.922852,4351.410156,4368.589844,4387.94873,4334.358887,4339.615234,4375.384766,4404.230957,4361.025879,4348.461426,4678.333496,4641.153809,4513.717773,4602.94873,,,,,,,,,,,,,,,,,,,,,,,,,,,,,,,,,,,,,,,,,,,,,,,,,,,,,,,,,,,,,,,,,,,,,,
1769164139.431594,1769164139.432426,110.0,0.0,4215.641113,4349.743652,4363.589844,4390.0,4335.384766,4336.282227,4373.717773,4401.410156,4355.897461,4342.179688,4671.666504,4634.102539,4505.384766,4596.153809,0.674843,0.891399,0.527337,0.353598,0.305696,0.717239,0.626864,0.413089,0.233817,0.180777,0.573267,0.353917,0.290308,0.09217,0.153351,0.503605,0.447921,0.374663,0.157808,0.104122,0.211359,0.144415,0.185097,0.063662,0.028732,0.311937,1.082894,0.138261,0.117493,0.153651,0.124226,0.7213,0.111074,0.064817,0.079747,0.225905,0.260805,0.15743,0.132666,0.059191,0.262785,0.248023,0.242295,0.11156,0.083138,0.257979,0.318293,0.164794,0.194812,0.08664,0.548244,0.505339,0.453633,0.259828,0.120304,0.463892,0.652975,0.515418,0.142852,0.134286,1.087466,0.724573,0.519627,0.319314,0.169016,1.051025,0.551716,0.595396,0.365202,0.233028
1769164139.439403,1769164139.440235,111.0,0.0,4217.692383,4352.05127,4364.743652,4395.897461,4338.974121,4336.153809,4375.769043,4401.922852,4358.077148,4344.102539,4681.666504,4643.974121,4520.769043,4608.333496,,,,,,,,,,,,,,,,,,,,,,,,,,,,,,,,,,,,,,,,,,,,,,,,,,,,,,,,,,,,,,,,,,,,,,
1769164139.447211,1769164139.447843,112.0,0.0,4213.589844,4351.666504,4364.615234,4391.282227,4335.897461,4341.025879,4381.538574,4404.615234,4356.794922,4345.512695,4689.871582,4651.282227,4528.717773,4612.436035,,,,,,,,,,,,,,,,,,,,,,,,,,,,,,,,,,,,,,,,,,,,,,,,,,,,,,,,,,,,,,,,,,,,,,
1769164139.45502,1769164139.455652,113.0,0.0,4206.410156,4347.820313,4363.589844,4385.769043,4334.871582,4343.717773,4383.077148,4405.128418,4358.205078,4347.436035,4686.666504,4647.05127,4521.153809,4601.025879,,,,,,,,,,,,,,,,,,,,,,,,,,,,,,,,,,,,,,,,,,,,,,,,,,,,,,,,,,,,,,,,,,,,,,
1769164139.462828,1769164139.46336,114.0,0.0,4216.025879,4354.230957,4369.102539,4391.666504,4342.05127,4338.846191,4376.410156,4402.563965,4368.077148,4357.820313,4690.256348,4646.666504,4523.461426,4601.025879,,,,,,,,,,,,,,,,,,,,,,,,,,,,,,,,,,,,,,,,,,,,,,,,,,,,,,,,,,,,,,,,,,,,,,
1769164139.470637,1769164139.471169,115.0,0.0,4226.282227,4363.077148,4374.358887,4398.077148,4344.871582,4336.922852,4375.0,4401.153809,4368.461426,4361.538574,4694.871582,4647.692383,4528.589844,4605.384766,,,,,,,,,,,,,,,,,,,,,,,,,,,,,,,,,,,,,,,,,,,,,,,,,,,,,,,,,,,,,,,,,,,,,,
1769164139.478445,1769164139.479177,116.0,0.0,4222.179688,4358.205078,4373.717773,4394.487305,4340.0,4341.025879,4381.025879,4403.333496,4362.94873,4350.256348,4688.717773,4645.128418,4523.333496,4599.487305,,,,,,,,,,,,,,,,,,,,,,,,,,,,,,,,,,,,,,,,,,,,,,,,,,,,,,,,,,,,,,,,,,,,,,
1769164139.486254,1769164139.486985,117.0,0.0,4222.05127,4350.0,4373.846191,4389.615234,4337.179688,4340.0,4378.589844,4402.307617,4363.974121,4345.256348,4685.256348,4644.615234,4518.461426,4595.897461,,,,,,,,,,,,,,,,,,,,,,,,,,,,,,,,,,,,,,,,,,,,,,,,,,,,,,,,,,,,,,,,,,,,,,
1769164139.494062,1769164139.494894,118.0,0.0,4224.102539,4347.563965,4372.692383,4386.666504,4338.077148,4335.384766,4373.717773,4402.692383,4366.410156,4352.94873,4688.077148,4644.102539,4519.358887,4599.743652,,,,,,,,,,,,,,,,,,,,,,,,,,,,,,,,,,,,,,,,,,,,,,,,,,,,,,,,,,,,,,,,,,,,,,
1769164139.501871,1769164139.502702,119.0,0.0,4216.153809,4343.205078,4372.307617,4382.692383,4336.025879,4336.666504,4379.230957,4410.512695,4367.307617,4357.692383,4692.692383,4646.794922,4522.820313,4605.256348,,,,,,,,,,,,,,,,,,,,,,,,,,,,,,,,,,,,,,,,,,,,,,,,,,,,,,,,,,,,,,,,,,,,,,
1769164139.509679,1769164139.510711,120.0,0.0,4214.743652,4342.692383,4378.077148,4381.666504,4332.563965,4338.717773,4381.794922,4410.641113,4366.666504,4358.333496,4699.743652,4654.871582,4525.641113,4614.743652,,,,,,,,,,,,,,,,,,,,,,,,,,,,,,,,,,,,,,,,,,,,,,,,,,,,,,,,,,,,,,,,,,,,,,
1769164139.517487,1769164139.518519,121.0,0.0,4222.94873,4351.153809,4385.256348,4388.077148,4335.128418,4337.436035,4379.615234,4405.0,4362.692383,4357.820313,4700.769043,4659.871582,4525.384766,4622.05127,,,,,,,,,,,,,,,,,,,,,,,,,,,,,,,,,,,,,,,,,,,,,,,,,,,,,,,,,,,,,,,,,,,,,,
1769164139.525296,1769164139.526228,122.0,0.0,4228.717773,4356.153809,4387.563965,4396.282227,4342.307617,4340.641113,4384.615234,4406.153809,4357.179688,4350.512695,4692.436035,4654.102539,4522.94873,4617.563965,,,,,,,,,,,,,,,,,,,,,,,,,,,,,,,,,,,,,,,,,,,,,,,,,,,,,,,,,,,,,,,,,,,,,,
1769164139.533104,1769164139.534036,123.0,0.0,4232.05127,4356.538574,4389.487305,4398.077148,4344.102539,4341.282227,4384.615234,4406.922852,4356.794922,4344.871582,4687.307617,4647.307617,4521.538574,4613.205078,,,,,,,,,,,,,,,,,,,,,,,,,,,,,,,,,,,,,,,,,,,,,,,,,,,,,,,,,,,,,,,,,,,,,,
1769164139.540913,1769164139.542044,124.0,0.0,4227.563965,4352.820313,4390.897461,4394.230957,4340.256348,4338.333496,4381.025879,4404.102539,4362.179688,4352.94873,4688.974121,4651.794922,4522.820313,4615.512695,,,,,,,,,,,,,,,,,,,,,,,,,,,,,,,,,,,,,,,,,,,,,,,,,,,,,,,,,,,,,,,,,,,,,,
1769164139.548721,1769164139.549853,125.0,0.0,4215.256348,4342.179688,4383.974121,4388.589844,4338.846191,4340.384766,4383.589844,4404.358887,4367.05127,4357.563965,4689.743652,4657.563965,4522.692383,4616.153809,,,,,,,,,,,,,,,,,,,,,,,,,,,,,,,,,,,,,,,,,,,,,,,,,,,,,,,,,,,,,,,,,,,,,,
