Timestamp,OriginalTimestamp,EEG.Counter,EEG.Interpolated,EEG.AF3,EEG.F7,EEG.F3,EEG.FC5,EEG.T7,EEG.P7,EEG.O1,EEG.O2,EEG.P8,EEG.T8,EEG.FC6,EEG.F4,EEG.F8,EEG.AF4,POW.AF3.Theta,POW.AF3.Alpha,POW.AF3.BetaL,POW.AF3.BetaH,POW.AF3.Gamma,POW.F7.Theta,POW.F7.Alpha,POW.F7.BetaL,POW.F7.BetaH,POW.F7.Gamma,POW.F3.Theta,POW.F3.Alpha,POW.F3.BetaL,POW.F3.BetaH,POW.F3.Gamma,POW.FC5.Theta,POW.FC5.Alpha,POW.FC5.BetaL,POW.FC5.BetaH,POW.FC5.Gamma,POW.T7.Theta,POW.T7.Alpha,POW.T7.BetaL,POW.T7.BetaH,POW.T7.Gamma,POW.P7.Theta,POW.P7.Alpha,POW.P7.BetaL,POW.P7.BetaH,POW.P7.Gamma,POW.O1.Theta,POW.O1.Alpha,POW.O1.BetaL,POW.O1.BetaH,POW.O1.Gamma,POW.O2.Theta,POW.O2.Alpha,POW.O2.BetaL,POW.O2.BetaH,POW.O2.Gamma,POW.P8.Theta,POW.P8.Alpha,POW.P8.BetaL,POW.P8.BetaH,POW.P8.Gamma,POW.T8.Theta,POW.T8.Alpha,POW.T8.BetaL,POW.T8.BetaH,POW.T8.Gamma,POW.FC6.Theta,POW.FC6.Alpha,POW.FC6.BetaL,POW.FC6.BetaH,POW.FC6.Gamma,POW.F4.Theta,POW.F4.Alpha,POW.F4.BetaL,POW.F4.BetaH,POW.F4.Gamma,POW.F8.Theta,POW.F8.Alpha,POW.F8.BetaL,POW.F8.BetaH,POW.F8.Gamma,POW.AF4.Theta,POW.AF4.Alpha,POW.AF4.BetaL,POW.AF4.BetaH,POW.AF4.Gamma
1769162028.798743,1769162028.799126,17.0,0.0,4318.974121,4296.538574,4357.179688,4332.307617,4274.743652,4279.871582,4281.922852,4298.205078,4294.487305,4296.153809,4604.230957,4570.641113,4431.153809,4522.692383,,,,,,,,,,,,,,,,,,,,,,,,,,,,,,,,,,,,,,,,,,,,,,,,,,,,,,,,,,,,,,,,,,,,,,
1769162028.806551,1769162028.807034,18.0,0.0,4312.563965,4293.461426,4353.589844,4325.128418,4273.974121,4279.230957,4292.563965,4293.846191,4291.538574,4293.461426,4601.538574,4566.922852,4427.94873,4528.077148,,,,,,,,,,,,,,,,,,,,,,,,,,,,,,,,,,,,,,,,,,,,,,,,,,,,,,,,,,,,,,,,,,,,,,
1769162028.81436,1769162028.814843,19.0,0.0,4315.128418,4294.358887,4356.282227,4327.94873,4273.333496,4277.307617,4290.641113,4297.436035,4294.358887,4295.128418,4606.282227,4573.974121,4431.794922,4535.512695,,,,,,,,,,,,,,,,,,,,,,,,,,,,,,,,,,,,,,,,,,,,,,,,,,,,,,,,,,,,,,,,,,,,,,
1769162028.822168,1769162028.822451,20.0,0.0,4320.769043,4294.871582,4357.05127,4330.384766,4275.641113,4279.743652,4291.282227,4307.563965,4298.461426,4295.769043,4612.563965,4579.230957,4432.05127,4536.794922,,,,,,,,,,,,,,,,,,,,,,,,,,,,,,,,,,,,,,,,,,,,,,,,,,,,,,,,,,,,,,,,,,,,,,
1769162028.829977,1769162028.83026,21.0,0.0,4319.743652,4295.256348,4356.922852,4326.282227,4277.692383,4281.922852,4295.0,4307.179688,4296.794922,4294.102539,4607.94873,4573.846191,4428.717773,4536.538574,,,,,,,,,,,,,,,,,,,,,,,,,,,,,,,,,,,,,,,,,,,,,,,,,,,,,,,,,,,,,,,,,,,,,,
1769162028.837785,1769162028.837968,22.0,0.0,4322.179688,4297.94873,4364.871582,4326.794922,4275.128418,4274.743652,4286.410156,4294.743652,4294.358887,4295.384766,4606.538574,4577.05127,4435.897461,4540.0,,,,,,,,,,,,,,,,,,,,,,,,,,,,,,,,,,,,,,,,,,,,,,,,,,,,,,,,,,,,,,,,,,,,,,
1769162028.845594,1769162028.845777,23.0,0.0,4327.436035,4298.589844,4365.384766,4328.846191,4272.820313,4265.384766,4279.102539,4293.717773,4293.717773,4296.794922,4612.820313,4586.410156,4443.974121,4541.153809,,,,,,,,,,,,,,,,,,,,,,,,,,,,,,,,,,,,,,,,,,,,,,,,,,,,,,,,,,,,,,,,,,,,,,
1769162028.853402,1769162028.853785,24.0,0.0,4326.153809,4297.563965,4360.769043,4327.05127,4273.461426,4265.128418,4283.717773,4303.461426,4294.102539,4296.282227,4611.538574,4585.512695,4441.666504,4537.307617,,,,,,,,,,,,,,,,,,,,,,,,,,,,,,,,,,,,,,,,,,,,,,,,,,,,,,,,,,,,,,,,,,,,,,
1769162028.86121,1769162028.861594,25.0,0.0,4324.487305,4296.666504,4362.307617,4325.512695,4270.769043,4271.025879,4282.820313,4299.487305,4293.461426,4294.615234,4608.461426,4583.974121,4442.820313,4538.077148,,,,,,,,,,,,,,,,,,,,,,,,,,,,,,,,,,,,,,,,,,,,,,,,,,,,,,,,,,,,,,,,,,,,,,
1769162028.869019,1769162028.869502,26.0,0.0,4325.897461,4295.769043,4362.692383,4325.769043,4266.922852,4274.358887,4278.846191,4292.307617,4292.94873,4292.820313,4608.846191,4586.410156,4444.358887,4539.230957,,,,,,,,,,,,,,,,,,,,,,,,,,,,,,,,,,,,,,,,,,,,,,,,,,,,,,,,,,,,,,,,,,,,,,
1769162028.876827,1769162028.87731,27.0,0.0,4325.512695,4294.871582,4360.128418,4326.922852,4267.05127,4275.256348,4285.769043,4299.358887,4292.94873,4291.153809,4604.487305,4581.025879,4433.974121,4531.410156,,,,,,,,,,,,,,,,,,,,,,,,,,,,,,,,,,,,,,,,,,,,,,,,,,,,,,,,,,,,,,,,,,,,,,
1769162028.884636,1769162028.885319,28.0,0.0,4325.128418,4299.102539,4364.358887,4327.692383,4270.897461,4276.794922,4290.384766,4304.230957,4291.153809,4290.641113,4602.05127,4577.820313,4430.769043,4527.436035,,,,,,,,,,,,,,,,,,,,,,,,,,,,,,,,,,,,,,,,,,,,,,,,,,,,,,,,,,,,,,,,,,,,,,
1769162028.892444,1769162028.893127,29.0,0.0,4326.410156,4305.897461,4368.461426,4327.94873,4274.743652,4279.230957,4290.0,4298.205078,4290.641113,4290.128418,4604.743652,4584.743652,4442.307617,4537.563965,,,,,,,,,,,,,,,,,,,,,,,,,,,,,,,,,,,,,,,,,,,,,,,,,,,,,,,,,,,,,,,,,,,,,,
1769162028.900253,1769162028.900836,30.0,0.0,4327.179688,4305.512695,4364.230957,4327.563965,4276.410156,4281.410156,4293.589844,4294.230957,4290.384766,4290.384766,4605.512695,4588.205078,4445.769043,4541.666504,0.484444,0.133668,0.205612,0.253722,0.129814,0.57348,0.230117,0.175419,0.141713,0.075322,0.470805,0.217663,0.245108,0.107181,0.078931,0.452026,0.301687,0.179658,0.148247,0.079034,0.178446,0.246709,0.138938,0.108908,0.040951,0.179212,0.188045,0.10729,0.100851,0.079753,0.292564,0.178219,0.051502,0.108947,0.158683,0.292146,0.267953,0.239506,0.050708,0.097397,0.258967,0.375085,0.304967,0.190876,0.138755,0.619483,0.479756,0.157186,0.253919,0.086781,0.38608,0.337742,0.292527,0.326447,0.130834,0.270382,0.575169,0.30707,0.385664,0.270111,0.345119,0.318618,0.257797,0.147933,0.087587,0.542733,0.370367,0.256573,0.254587,0.255073
1769162028.908061,1769162028.908644,31.0,0.0,4326.922852,4300.769043,4365.512695,4328.589844,4275.897461,4278.461426,4291.538574,4297.820313,4294.358887,4292.94873,4609.358887,4583.846191,4442.179688,4535.384766,,,,,,,,,,,,,,,,,,,,,,,,,,,,,,,,,,,,,,,,,,,,,,,,,,,,,,,,,,,,,,,,,,,,,,
1769162028.91587,1769162028.916652,32.0,0.0,4328.461426,4298.717773,4370.897461,4328.333496,4272.436035,4274.871582,4284.871582,4297.692383,4294.358887,4289.102539,4609.743652,4574.871582,4443.717773,4536.794922,,,,,,,,,,,,,,,,,,,,,,,,,,,,,,,,,,,,,,,,,,,,,,,,,,,,,,,,,,,,,,,,,,,,,,
1769162028.923678,1769162028.924461,33.0,0.0,4326.282227,4297.436035,4369.102539,4326.025879,4269.230957,4278.205078,4291.666504,4293.333496,4283.589844,4279.102539,4600.0,4568.717773,4438.974121,4536.538574,,,,,,,,,,,,,,,,,,,,,,,,,,,,,,,,,,,,,,,,,,,,,,,,,,,,,,,,,,,,,,,,,,,,,,
1769162028.931486,1769162028.932369,34.0,0.0,4319.487305,4295.641113,4364.743652,4325.641113,4273.974121,4281.153809,4298.077148,4294.358887,4282.307617,4280.897461,4596.538574,4571.794922,4431.666504,4525.0,,,,,,,,,,,,,,,,,,,,,,,,,,,,,,,,,,,,,,,,,,,,,,,,,,,,,,,,,,,,,,,,,,,,,,
1769162028.939295,1769162028.940177,35.0,0.0,4318.846191,4296.153809,4366.410156,4326.538574,4276.666504,4275.0,4285.0,4297.94873,4295.0,4293.589844,4604.230957,4578.846191,4433.974121,4520.897461,,,,,,,,,,,,,,,,,,,,,,,,,,,,,,,,,,,,,,,,,,,,,,,,,,,,,,,,,,,,,,,,,,,,,,
1769162028.947103,1769162028.948186,36.0,0.0,4320.897461,4296.794922,4371.922852,4326.282227,4269.358887,4273.077148,4275.897461,4297.692383,4298.717773,4296.666504,4604.487305,4579.871582,4435.256348,4525.769043,,,,,,,,,,,,,,,,,,,,,,,,,,,,,,,,,,,,,,,,,,,,,,,,,,,,,,,,,,,,,,,,,,,,,,
1769162028.954912,1769162028.955994,37.0,0.0,4315.128418,4295.897461,4372.307617,4326.025879,4267.94873,4278.333496,4282.05127,4295.641113,4291.153809,4288.205078,4600.0,4577.179688,4430.384766,4525.256348,,,,,,,,,,,,,,,,,,,,,,,,,,,,,,,,,,,,,,,,,,,,,,,,,,,,,,,,,,,,,,,,,,,,,,
1769162028.96272,1769162028.963703,38.0,0.0,4309.230957,4297.05127,4369.102539,4324.615234,4272.692383,4277.820313,4282.307617,4295.256348,4291.025879,4284.743652,4600.897461,4574.871582,4427.820313,4520.897461,,,,,,,,,,,,,,,,,,,,,,,,,,,,,,,,,,,,,,,,,,,,,,,,,,,,,,,,,,,,,,,,,,,,,,
1769162028.970529,1769162028.971511,39.0,0.0,4311.153809,4293.974121,4368.461426,4321.922852,4268.077148,4275.512695,4278.717773,4295.769043,4296.538574,4288.974121,4600.512695,4572.820313,4428.461426,4519.615234,,,,,,,,,,,,,,,,,,,,,,,,,,,,,,,,,,,,,,,,,,,,,,,,,,,,,,,,,,,,,,,,,,,,,,
1769162028.978337,1769162028.97912,40.0,0.0,4313.077148,4285.769043,4368.846191,4321.922852,4265.769043,4278.589844,4286.794922,4295.512695,4295.641113,4288.205078,4595.256348,4571.153809,4429.615234,4519.615234,,,,,,,,,,,,,,,,,,,,,,,,,,,,,,,,,,,,,,,,,,,,,,,,,,,,,,,,,,,,,,,,,,,,,,
1769162028.986146,1769162028.986928,41.0,0.0,4311.282227,4280.384766,4365.641113,4322.307617,4267.820313,4282.820313,4294.743652,4295.384766,4290.641113,4284.102539,4593.205078,4570.512695,4426.794922,4518.974121,,,,,,,,,,,,,,,,,,,,,,,,,,,,,,,,,,,,,,,,,,,,,,,,,,,,,,,,,,,,,,,,,,,,,,
1769162028.993954,1769162028.994637,42.0,0.0,4311.538574,4283.077148,4362.307617,4321.666504,4263.974121,4281.794922,4290.0,4296.025879,4290.384766,4288.589844,4598.974121,4571.153809,4429.487305,4519.102539,,,,,,,,,,,,,,,,,,,,,,,,,,,,,,,,,,,,,,,,,,,,,,,,,,,,,,,,,,,,,,,,,,,,,,
1769162029.001763,1769162029.002445,43.0,0.0,4316.025879,4284.358887,4366.410156,4322.05127,4267.94873,4278.077148,4284.871582,4297.563965,4296.282227,4297.94873,4603.589844,4571.666504,4441.282227,4522.692383,,,,,,,,,,,,,,,,,,,,,,,,,,,,,,,,,,,,,,,,,,,,,,,,,,,,,,,,,,,,,,,,,,,,,,
1769162029.009571,1769162029.010054,44.0,0.0,4321.153809,4280.769043,4371.794922,4321.282227,4274.743652,4279.615234,4290.0,4295.641113,4294.230957,4292.563965,4599.743652,4571.922852,4439.358887,4524.487305,,,,,,,,,,,,,,,,,,,,,,,,,,,,,,,,,,,,,,,,,,,,,,,,,,,,,,,,,,,,,,,,,,,,,,
1769162029.017379,1769162029.017862,45.0,0.0,4324.743652,4286.666504,4371.922852,4322.179688,4269.102539,4280.0,4288.846191,4292.692383,4288.846191,4283.974121,4598.846191,4577.820313,4432.563965,4521.922852,,,,,,,,,,,,,,,,,,,,,,,,,,,,,,,,,,,,,,,,,,,,,,,,,,,,,,,,,,,,,,,,,,,,,,
1769162029.025188,1769162029.025571,46.0,0.0,4327.05127,4297.05127,4373.333496,4325.512695,4267.179688,4275.769043,4280.897461,4294.743652,4293.077148,4289.871582,4602.94873,4585.384766,4440.512695,4522.307617,0.56676,0.133109,0.19172,0.265661,0.151801,0.621303,0.246189,0.164647,0.142308,0.081041,0.482618,0.260012,0.232942,0.106423,0.086906,0.46484,0.339877,0.175536,0.141013,0.082019,0.169169,0.214281,0.136407,0.132397,0.041874,0.142422,0.191556,0.115065,0.103754,0.074815,0.367193,0.155936,0.050681,0.127285,0.17525,0.271352,0.2708,0.299894,0.059443,0.112038,0.209832,0.391075,0.340226,0.185601,0.1352,0.613241,0.599208,0.181332,0.239189,0.092898,0.433149,0.455587,0.369804,0.328392,0.131841,0.309506,0.77135,0.314467,0.39068,0.28279,0.418054,0.398948,0.327116,0.145708,0.0927,0.587086,0.484723,0.299186,0.25594,0.266019
1769162029.032996,1769162029.033379,47.0,0.0,4328.077148,4295.641113,4378.077148,4323.974121,4271.282227,4274.871582,4285.256348,4299.358887,4297.94873,4296.410156,4603.205078,4585.641113,4445.897461,4523.974121,,,,,,,,,,,,,,,,,,,,,,,,,,,,,,,,,,,,,,,,,,,,,,,,,,,,,,,,,,,,,,,,,,,,,,
1769162029.040805,1769162029.040988,48.0,0.0,4327.307617,4292.05127,4380.128418,4321.025879,4271.282227,4277.692383,4289.358887,4301.153809,4296.666504,4293.589844,4604.102539,4583.846191,4442.05127,4522.692383,,,,,,,,,,,,,,,,,,,,,,,,,,,,,,,,,,,,,,,,,,,,,,,,,,,,,,,,,,,,,,,,,,,,,,
1769162029.048613,1769162029.048796,49.0,0.0,4328.205078,4296.794922,4379.102539,4323.974121,4273.077148,4278.717773,4283.205078,4298.589844,4296.153809,4291.538574,4607.692383,4583.333496,4444.358887,4524.743652,,,,,,,,,,,,,,,,,,,,,,,,,,,,,,,,,,,,,,,,,,,,,,,,,,,,,,,,,,,,,,,,,,,,,,
1769162029.056422,1769162029.056705,50.0,0.0,4330.641113,4298.461426,4378.461426,4326.282227,4276.666504,4278.974121,4284.358887,4296.922852,4297.179688,4295.384766,4605.256348,4581.922852,4446.282227,4527.179688,,,,,,,,,,,,,,,,,,,,,,,,,,,,,,,,,,,,,,,,,,,,,,,,,,,,,,,,,,,,,,,,,,,,,,
1769162029.06423,1769162029.064513,51.0,0.0,4326.282227,4291.666504,4378.974121,4324.487305,4274.358887,4279.615234,4294.102539,4295.897461,4295.256348,4292.820313,4601.282227,4580.256348,4442.563965,4524.743652,,,,,,,,,,,,,,,,,,,,,,,,,,,,,,,,,,,,,,,,,,,,,,,,,,,,,,,,,,,,,,,,,,,,,,
1769162029.072039,1769162029.072521,52.0,0.0,4318.077148,4290.641113,4375.0,4324.230957,4273.333496,4280.384766,4294.230957,4295.128418,4292.05127,4282.307617,4600.769043,4576.153809,4442.692383,4523.205078,,,,,,,,,,,,,,,,,,,,,,,,,,,,,,,,,,,,,,,,,,,,,,,,,,,,,,,,,,,,,,,,,,,,,,
1769162029.079847,1769162029.08033,53.0,0.0,4319.102539,4294.615234,4372.05127,4325.0,4275.128418,4284.487305,4293.589844,4300.897461,4293.077148,4280.641113,4600.128418,4571.666504,4442.94873,4523.333496,,,,,,,,,,,,,,,,,,,,,,,,,,,,,,,,,,,,,,,,,,,,,,,,,,,,,,,,,,,,,,,,,,,,,,
1769162029.087655,1769162029.088238,54.0,0.0,4326.794922,4296.410156,4376.538574,4326.666504,4275.128418,4285.384766,4296.282227,4303.461426,4296.025879,4289.358887,4600.0,4570.641113,4442.94873,4521.666504,,,,,,,,,,,,,,,,,,,,,,,,,,,,,,,,,,,,,,,,,,,,,,,,,,,,,,,,,,,,,,,,,,,,,,
1769162029.095464,1769162029.096047,55.0,0.0,4328.333496,4296.025879,4381.794922,4328.974121,4275.897461,4280.256348,4292.179688,4295.128418,4295.384766,4290.256348,4602.179688,4571.538574,4443.717773,4522.179688,,,,,,,,,,,,,,,,,,,,,,,,,,,,,,,,,,,,,,,,,,,,,,,,,,,,,,,,,,,,,,,,,,,,,,
1769162029.103272,1769162029.103655,56.0,0.0,4325.769043,4292.820313,4381.794922,4328.077148,4275.769043,4280.897461,4293.333496,4295.897461,4292.820313,4281.794922,4603.589844,4576.025879,4442.436035,4523.846191,,,,,,,,,,,,,,,,,,,,,,,,,,,,,,,,,,,,,,,,,,,,,,,,,,,,,,,,,,,,,,,,,,,,,,
1769162029.111081,1769162029.111464,57.0,0.0,4327.692383,4290.0,4378.333496,4325.128418,4275.641113,4283.461426,4298.974121,4303.846191,4293.846191,4279.230957,4604.102539,4581.153809,4442.692383,4524.487305,,,,,,,,,,,,,,,,,,,,,,,,,,,,,,,,,,,,,,,,,,,,,,,,,,,,,,,,,,,,,,,,,,,,,,
1769162029.118889,1769162029.119372,58.0,0.0,4324.358887,4286.538574,4375.0,4325.384766,4275.641113,4280.384766,4291.666504,4304.358887,4296.922852,4283.205078,4603.077148,4577.436035,4444.230957,4523.717773,,,,,,,,,,,,,,,,,,,,,,,,,,,,,,,,,,,,,,,,,,,,,,,,,,,,,,,,,,,,,,,,,,,,,,
1769162029.126698,1769162029.127181,59.0,0.0,4313.461426,4280.128418,4372.692383,4324.358887,4270.641113,4277.436035,4282.820313,4306.794922,4297.307617,4288.077148,4602.563965,4569.871582,4445.512695,4520.641113,,,,,,,,,,,,,,,,,,,,,,,,,,,,,,,,,,,,,,,,,,,,,,,,,,,,,,,,,,,,,,,,,,,,,,
1769162029.134506,1769162029.135189,60.0,0.0,4310.897461,4276.153809,4373.589844,4319.487305,4264.615234,4278.205078,4289.230957,4305.641113,4295.897461,4286.794922,4603.205078,4572.94873,4445.0,4516.666504,,,,,,,,,,,,,,,,,,,,,,,,,,,,,,,,,,,,,,,,,,,,,,,,,,,,,,,,,,,,,,,,,,,,,,
1769162029.142315,1769162029.142997,61.0,0.0,4316.153809,4278.333496,4378.846191,4318.461426,4261.794922,4277.94873,4296.282227,4297.436035,4295.512695,4280.897461,4603.461426,4580.897461,4444.743652,4518.205078,,,,,,,,,,,,,,,,,,,,,,,,,,,,,,,,,,,,,,,,,,,,,,,,,,,,,,,,,,,,,,,,,,,,,,
1769162029.150123,1769162029.150706,62.0,0.0,4318.589844,4280.384766,4383.717773,4321.538574,4263.205078,4278.717773,4293.333496,4301.922852,4295.128418,4280.0,4603.461426,4579.102539,4443.589844,4521.410156,0.639666,0.139623,0.18443,0.26117,0.17679,0.698255,0.264248,0.141678,0.142367,0.090379,0.526048,0.303975,0.209916,0.105827,0.099569,0.455852,0.345246,0.159645,0.123527,0.092252,0.158091,0.169299,0.120554,0.15477,0.042816,0.138064,0.20699,0.139433,0.115906,0.073472,0.442137,0.152049,0.051284,0.151556,0.188701,0.26434,0.263636,0.343696,0.068462,0.124901,0.182075,0.395488,0.375817,0.167545,0.130961,0.573781,0.691838,0.219677,0.220309,0.099835,0.45901,0.564753,0.464841,0.31529,0.133702,0.354337,0.958004,0.313507,0.365786,0.279775,0.510734,0.469568,0.411071,0.153195,0.100012,0.710055,0.585005,0.358343,0.253292,0.265112
1769162029.157931,1769162029.158514,63.0,0.0,4318.589844,4282.307617,4383.333496,4324.230957,4269.487305,4283.077148,4293.589844,4307.692383,4291.282227,4279.871582,4602.179688,4571.666504,4439.102539,4520.641113,,,,,,,,,,,,,,,,,,,,,,,,,,,,,,,,,,,,,,,,,,,,,,,,,,,,,,,,,,,,,,,,,,,,,,
1769162029.16574,1769162029.166123,64.0,0.0,4318.077148,4287.820313,4381.922852,4326.538574,4271.538574,4282.692383,4294.358887,4299.230957,4289.358887,4279.871582,4600.256348,4571.153809,4436.922852,4520.0,,,,,,,,,,,,,,,,,,,,,,,,,,,,,,,,,,,,,,,,,,,,,,,,,,,,,,,,,,,,,,,,,,,,,,
1769162029.173548,1769162029.173931,65.0,0.0,4318.205078,4292.307617,4387.05127,4327.179688,4268.077148,4278.205078,4289.102539,4294.743652,4295.897461,4284.871582,4600.769043,4574.358887,4440.769043,4521.666504,,,,,,,,,,,,,,,,,,,,,,,,,,,,,,,,,,,,,,,,,,,,,,,,,,,,,,,,,,,,,,,,,,,,,,
1769162029.181357,1769162029.18184,66.0,0.0,4321.282227,4291.538574,4389.358887,4326.025879,4267.94873,4277.307617,4289.743652,4298.205078,4296.666504,4285.256348,4603.077148,4573.589844,4446.025879,4522.05127,,,,,,,,,,,,,,,,,,,,,,,,,,,,,,,,,,,,,,,,,,,,,,,,,,,,,,,,,,,,,,,,,,,,,,
1769162029.189165,1769162029.189648,67.0,0.0,4321.282227,4288.974121,4388.077148,4326.410156,4269.615234,4280.0,4296.025879,4297.307617,4285.384766,4276.282227,4600.512695,4571.538574,4442.563965,4522.179688,,,,,,,,,,,,,,,,,,,,,,,,,,,,,,,,,,,,,,,,,,,,,,,,,,,,,,,,,,,,,,,,,,,,,,
1769162029.196974,1769162029.197656,68.0,0.0,4313.974121,4288.461426,4387.179688,4328.077148,4267.563965,4282.94873,4295.897461,4294.871582,4280.897461,4273.461426,4591.153809,4566.922852,4431.538574,4518.077148,,,,,,,,,,,,,,,,,,,,,,,,,,,,,,,,,,,,,,,,,,,,,,,,,,,,,,,,,,,,,,,,,,,,,,
1769162029.204782,1769162029.205465,69.0,0.0,4308.461426,4288.461426,4383.077148,4326.538574,4267.05127,4281.282227,4292.563965,4293.846191,4287.94873,4277.820313,4585.512695,4561.922852,4426.282227,4512.05127,,,,,,,,,,,,,,,,,,,,,,,,,,,,,,,,,,,,,,,,,,,,,,,,,,,,,,,,,,,,,,,,,,,,,,
1769162029.212591,1769162029.213173,70.0,0.0,4311.153809,4289.102539,4383.461426,4323.974121,4267.307617,4277.05127,4291.922852,4295.384766,4291.794922,4280.128418,4592.563965,4566.666504,4431.538574,4516.153809,,,,,,,,,,,,,,,,,,,,,,,,,,,,,,,,,,,,,,,,,,,,,,,,,,,,,,,,,,,,,,,,,,,,,,
1769162029.220399,1769162029.220982,71.0,0.0,4317.820313,4288.461426,4392.05127,4324.487305,4264.102539,4276.410156,4291.153809,4297.692383,4291.922852,4280.256348,4599.871582,4573.333496,4434.102539,4525.256348,,,,,,,,,,,,,,,,,,,,,,,,,,,,,,,,,,,,,,,,,,,,,,,,,,,,,,,,,,,,,,,,,,,,,,
1769162029.228208,1769162029.228591,72.0,0.0,4322.94873,4284.230957,4398.333496,4327.307617,4264.358887,4278.205078,4290.897461,4295.0,4289.871582,4278.077148,4593.333496,4571.538574,4427.563965,4523.589844,,,,,,,,,,,,,,,,,,,,,,,,,,,,,,,,,,,,,,,,,,,,,,,,,,,,,,,,,,,,,,,,,,,,,,
1769162029.236016,1769162029.236399,73.0,0.0,4319.743652,4282.436035,4396.282227,4325.897461,4265.384766,4278.461426,4293.846191,4291.922852,4285.384766,4275.769043,4584.487305,4567.563965,4423.333496,4517.692383,,,,,,,,,,,,,,,,,,,,,,,,,,,,,,,,,,,,,,,,,,,,,,,,,,,,,,,,,,,,,,,,,,,,,,
1769162029.243825,1769162029.244108,74.0,0.0,4312.563965,4284.358887,4392.820313,4322.820313,4263.077148,4277.436035,4294.487305,4293.461426,4284.230957,4276.538574,4586.538574,4568.846191,4425.769043,4520.0,,,,,,,,,,,,,,,,,,,,,,,,,,,,,,,,,,,,,,,,,,,,,,,,,,,,,,,,,,,,,,,,,,,,,,
1769162029.251633,1769162029.251916,75.0,0.0,4311.794922,4282.692383,4393.461426,4324.102539,4263.461426,4278.589844,4295.384766,4293.846191,4284.230957,4280.384766,4591.922852,4570.769043,4428.717773,4520.0,,,,,,,,,,,,,,,,,,,,,,,,,,,,,,,,,,,,,,,,,,,,,,,,,,,,,,,,,,,,,,,,,,,,,,
1769162029.259442,1769162029.259924,76.0,0.0,4313.846191,4279.102539,4395.769043,4326.922852,4265.769043,4279.102539,4295.641113,4292.436035,4280.256348,4277.307617,4589.487305,4569.358887,4422.563965,4513.333496,,,,,,,,,,,,,,,,,,,,,,,,,,,,,,,,,,,,,,,,,,,,,,,,,,,,,,,,,,,,,,,,,,,,,,
1769162029.26725,1769162029.267733,77.0,0.0,4311.922852,4280.384766,4393.077148,4325.769043,4265.897461,4273.846191,4288.461426,4293.589844,4280.512695,4267.692383,4585.512695,4568.077148,4413.846191,4507.820313,,,,,,,,,,,,,,,,,,,,,,,,,,,,,,,,,,,,,,,,,,,,,,,,,,,,,,,,,,,,,,,,,,,,,,
1769162029.275058,1769162029.275641,78.0,0.0,4309.358887,4280.512695,4387.05127,4320.769043,4264.102539,4272.307617,4286.410156,4295.641113,4282.692383,4264.743652,4585.128418,4568.205078,4413.717773,4507.94873,0.727288,0.14809,0.177052,0.240363,0.198623,0.799345,0.28897,0.117459,0.138465,0.100151,0.594858,0.337431,0.177118,0.103548,0.112816,0.425093,0.317205,0.135462,0.100324,0.107719,0.148576,0.126259,0.098194,0.170142,0.044441,0.161799,0.235347,0.170945,0.132917,0.076462,0.48706,0.169768,0.056203,0.1746,0.195154,0.250643,0.249642,0.355552,0.077405,0.132638,0.159289,0.388433,0.397718,0.141515,0.12824,0.503084,0.726299,0.249171,0.199847,0.106436,0.447801,0.632753,0.539372,0.290519,0.135637,0.395194,1.086465,0.30087,0.321121,0.263547,0.615178,0.504883,0.482749,0.168369,0.108604,0.87544,0.635951,0.420429,0.249721,0.252294
1769162029.282867,1769162029.283449,79.0,0.0,4310.512695,4278.589844,4390.897461,4320.256348,4264.743652,4279.615234,4294.102539,4294.230957,4280.769043,4266.666504,4585.769043,4568.846191,4420.512695,4514.871582,,,,,,,,,,,,,,,,,,,,,,,,,,,,,,,,,,,,,,,,,,,,,,,,,,,,,,,,,,,,,,,,,,,,,,
1769162029.290675,1769162029.291458,80.0,0.0,4312.563965,4280.769043,4398.589844,4325.897461,4266.282227,4279.358887,4296.538574,4291.410156,4278.717773,4268.846191,4587.692383,4570.384766,4426.410156,4522.563965,,,,,,,,,,,,,,,,,,,,,,,,,,,,,,,,,,,,,,,,,,,,,,,,,,,,,,,,,,,,,,,,,,,,,,
1769162029.298484,1769162029.299266,81.0,0.0,4312.563965,4283.077148,4397.820313,4328.333496,4265.384766,4266.538574,4290.0,4291.666504,4280.384766,4273.589844,4587.436035,4569.871582,4426.025879,4522.179688,,,,,,,,,,,,,,,,,,,,,,,,,,,,,,,,,,,,,,,,,,,,,,,,,,,,,,,,,,,,,,,,,,,,,,
1769162029.306292,1769162029.306975,82.0,0.0,4311.794922,4283.205078,4396.025879,4325.769043,4267.05127,4263.077148,4286.794922,4294.102539,4281.922852,4279.230957,4590.128418,4569.230957,4424.358887,4519.358887,,,,,,,,,,,,,,,,,,,,,,,,,,,,,,,,,,,,,,,,,,,,,,,,,,,,,,,,,,,,,,,,,,,,,,
1769162029.314101,1769162029.314783,83.0,0.0,4312.563965,4283.205078,4396.538574,4324.615234,4271.153809,4273.589844,4291.666504,4295.256348,4280.897461,4281.538574,4596.666504,4571.153809,4428.846191,4526.410156,,,,,,,,,,,,,,,,,,,,,,,,,,,,,,,,,,,,,,,,,,,,,,,,,,,,,,,,,,,,,,,,,,,,,,
1769162029.321909,1769162029.322791,84.0,0.0,4310.641113,4280.897461,4392.05127,4323.461426,4269.871582,4279.743652,4295.256348,4294.487305,4280.641113,4275.256348,4593.461426,4562.436035,4426.282227,4523.077148,,,,,,,,,,,,,,,,,,,,,,,,,,,,,,,,,,,,,,,,,,,,,,,,,,,,,,,,,,,,,,,,,,,,,,
1769162029.329718,1769162029.3306,85.0,0.0,4303.974121,4275.641113,4385.384766,4320.0,4265.256348,4279.230957,4295.384766,4294.102539,4280.769043,4268.077148,4584.358887,4552.05127,4413.077148,4508.077148,,,,,,,,,,,,,,,,,,,,,,,,,,,,,,,,,,,,,,,,,,,,,,,,,,,,,,,,,,,,,,,,,,,,,,
1769162029.337526,1769162029.338308,86.0,0.0,4303.974121,4275.897461,4388.717773,4318.589844,4267.94873,4280.256348,4293.846191,4295.512695,4282.692383,4271.153809,4586.794922,4560.256348,4414.102539,4512.05127,,,,,,,,,,,,,,,,,,,,,,,,,,,,,,,,,,,,,,,,,,,,,,,,,,,,,,,,,,,,,,,,,,,,,,
1769162029.345334,1769162029.346117,87.0,0.0,4308.974121,4280.128418,4396.410156,4321.153809,4274.487305,4281.025879,4294.358887,4295.256348,4286.794922,4278.333496,4590.897461,4564.615234,4426.538574,4523.205078,,,,,,,,,,,,,,,,,,,,,,,,,,,,,,,,,,,,,,,,,,,,,,,,,,,,,,,,,,,,,,,,,,,,,,
1769162029.353143,1769162029.353725,88.0,0.0,4305.256348,4278.333496,4395.512695,4322.94873,4274.487305,4280.512695,4295.641113,4293.717773,4288.974121,4277.179688,4584.358887,4554.871582,4426.538574,4518.461426,,,,,,,,,,,,,,,,,,,,,,,,,,,,,,,,,,,,,,,,,,,,,,,,,,,,,,,,,,,,,,,,,,,,,,
1769162029.360951,1769162029.361534,89.0,0.0,4301.410156,4276.410156,4396.025879,4324.102539,4273.077148,4280.128418,4296.410156,4295.641113,4292.05127,4276.410156,4587.94873,4560.128418,4425.128418,4516.153809,,,,,,,,,,,,,,,,,,,,,,,,,,,,,,,,,,,,,,,,,,,,,,,,,,,,,,,,,,,,,,,,,,,,,,
1769162029.36876,1769162029.369242,90.0,0.0,4306.794922,4279.230957,4403.846191,4325.384766,4275.128418,4281.410156,4297.307617,4296.922852,4290.0,4278.461426,4595.897461,4574.358887,4429.615234,4525.897461,,,,,,,,,,,,,,,,,,,,,,,,,,,,,,,,,,,,,,,,,,,,,,,,,,,,,,,,,,,,,,,,,,,,,,
1769162029.376568,1769162029.377051,91.0,0.0,4309.871582,4282.820313,4406.410156,4327.179688,4275.769043,4280.384766,4295.769043,4292.179688,4281.153809,4277.05127,4590.897461,4570.897461,4430.384766,4524.358887,,,,,,,,,,,,,,,,,,,,,,,,,,,,,,,,,,,,,,,,,,,,,,,,,,,,,,,,,,,,,,,,,,,,,,
1769162029.384377,1769162029.385059,92.0,0.0,4308.974121,4286.538574,4402.820313,4330.769043,4275.0,4277.563965,4293.717773,4290.256348,4282.692383,4280.384766,4591.922852,4566.666504,4434.615234,4517.820313,,,,,,,,,,,,,,,,,,,,,,,,,,,,,,,,,,,,,,,,,,,,,,,,,,,,,,,,,,,,,,,,,,,,,,
1769162029.392185,1769162029.392868,93.0,0.0,4309.871582,4289.615234,4403.846191,4331.794922,4278.461426,4277.692383,4293.846191,4296.153809,4294.230957,4287.820313,4602.179688,4574.743652,4443.205078,4523.589844,,,,,,,,,,,,,,,,,,,,,,,,,,,,,,,,,,,,,,,,,,,,,,,,,,,,,,,,,,,,,,,,,,,,,,
1769162029.399994,1769162029.400576,94.0,0.0,4309.487305,4289.487305,4406.282227,4330.769043,4280.769043,4279.230957,4295.641113,4299.615234,4296.794922,4292.692383,4604.487305,4578.974121,4445.384766,4528.205078,0.845021,0.159494,0.168354,0.20836,0.211768,0.916193,0.323044,0.107342,0.128359,0.106818,0.657545,0.35168,0.143928,0.09903,0.121811,0.395022,0.266806,0.107687,0.076668,0.123074,0.150874,0.096219,0.077034,0.173643,0.046879,0.201284,0.270203,0.195452,0.148482,0.082481,0.48482,0.208757,0.068899,0.190135,0.194681,0.219076,0.231008,0.329738,0.086202,0.134502,0.135468,0.369398,0.394575,0.114628,0.127651,0.416884,0.68983,0.252716,0.181382,0.112377,0.408286,0.640138,0.562414,0.260086,0.136654,0.443561,1.124752,0.27955,0.2722,0.239123,0.732986,0.495647,0.519916,0.187155,0.117145,1.04247,0.618397,0.469288,0.244975,0.230365
1769162029.407802,1769162029.408385,95.0,0.0,4308.846191,4290.384766,4403.333496,4330.512695,4277.820313,4278.589844,4296.153809,4297.307617,4291.025879,4290.769043,4601.153809,4574.871582,4440.512695,4523.846191,,,,,,,,,,,,,,,,,,,,,,,,,,,,,,,,,,,,,,,,,,,,,,,,,,,,,,,,,,,,,,,,,,,,,,
1769162029.41561,1769162029.415993,96.0,0.0,4308.589844,4288.461426,4397.820313,4328.974121,4274.871582,4278.333496,4294.358887,4296.410156,4287.05127,4282.179688,4596.666504,4564.102539,4433.589844,4518.333496,,,,,,,,,,,,,,,,,,,,,,,,,,,,,,,,,,,,,,,,,,,,,,,,,,,,,,,,,,,,,,,,,,,,,,
1769162029.423419,1769162029.423802,97.0,0.0,4306.922852,4281.282227,4396.410156,4326.410156,4274.230957,4280.384766,4294.102539,4297.05127,4280.641113,4277.179688,4587.94873,4557.820313,4429.487305,4517.94873,,,,,,,,,,,,,,,,,,,,,,,,,,,,,,,,,,,,,,,,,,,,,,,,,,,,,,,,,,,,,,,,,,,,,,
1769162029.431227,1769162029.43151,98.0,0.0,4306.410156,4281.153809,4398.974121,4325.897461,4273.846191,4281.538574,4295.769043,4296.794922,4278.974121,4279.615234,4587.563965,4565.0,4430.769043,4520.641113,,,,,,,,,,,,,,,,,,,,,,,,,,,,,,,,,,,,,,,,,,,,,,,,,,,,,,,,,,,,,,,,,,,,,,
1769162029.439036,1769162029.439319,99.0,0.0,4309.487305,4289.230957,4399.358887,4326.282227,4275.512695,4280.256348,4296.025879,4296.410156,4284.743652,4282.307617,4595.641113,4571.282227,4432.692383,4523.461426,,,,,,,,,,,,,,,,,,,,,,,,,,,,,,,,,,,,,,,,,,,,,,,,,,,,,,,,,,,,,,,,,,,,,,
1769162029.446844,1769162029.447327,100.0,0.0,4313.846191,4295.256348,4396.410156,4328.974121,4275.897461,4280.769043,4295.512695,4295.512695,4284.358887,4280.897461,4595.256348,4563.461426,4433.974121,4524.102539,,,,,,,,,,,,,,,,,,,,,,,,,,,,,,,,,,,,,,,,,,,,,,,,,,,,,,,,,,,,,,,,,,,,,,
1769162029.454653,1769162029.455135,101.0,0.0,4319.358887,4295.641113,4399.358887,4336.153809,4275.128418,4282.307617,4295.641113,4294.358887,4279.871582,4281.922852,4593.333496,4557.692383,4438.846191,4522.563965,,,,,,,,,,,,,,,,,,,,,,,,,,,,,,,,,,,,,,,,,,,,,,,,,,,,,,,,,,,,,,,,,,,,,,
1769162029.462461,1769162029.463044,102.0,0.0,4322.820313,4293.589844,4405.512695,4340.0,4276.794922,4280.897461,4292.94873,4293.846191,4279.230957,4288.846191,4598.333496,4566.282227,4443.461426,4522.820313,,,,,,,,,,,,,,,,,,,,,,,,,,,,,,,,,,,,,,,,,,,,,,,,,,,,,,,,,,,,,,,,,,,,,,
1769162029.47027,1769162029.470852,103.0,0.0,4321.666504,4299.487305,4406.538574,4340.641113,4276.794922,4277.436035,4289.871582,4292.563965,4282.307617,4294.743652,4601.794922,4571.282227,4445.128418,4525.256348,,,,,,,,,,,,,,,,,,,,,,,,,,,,,,,,,,,,,,,,,,,,,,,,,,,,,,,,,,,,,,,,,,,,,,
1769162029.478078,1769162029.47886,104.0,0.0,4320.384766,4304.230957,4401.666504,4339.871582,4273.846191,4278.205078,4294.230957,4292.692383,4285.384766,4295.128418,4598.974121,4563.589844,4445.256348,4525.769043,,,,,,,,,,,,,,,,,,,,,,,,,,,,,,,,,,,,,,,,,,,,,,,,,,,,,,,,,,,,,,,,,,,,,,
1769162029.485886,1769162029.486669,105.0,0.0,4322.05127,4298.461426,4397.94873,4339.358887,4276.410156,4281.922852,4297.307617,4295.897461,4284.358887,4288.974121,4597.563965,4559.230957,4444.230957,4523.717773,,,,,,,,,,,,,,,,,,,,,,,,,,,,,,,,,,,,,,,,,,,,,,,,,,,,,,,,,,,,,,,,,,,,,,
1769162029.493695,1769162029.494577,106.0,0.0,4321.025879,4297.563965,4401.538574,4342.05127,4279.871582,4281.153809,4293.077148,4297.436035,4280.897461,4282.436035,4599.230957,4565.641113,4443.846191,4524.102539,,,,,,,,,,,,,,,,,,,,,,,,,,,,,,,,,,,,,,,,,,,,,,,,,,,,,,,,,,,,,,,,,,,,,,
1769162029.501503,1769162029.502386,107.0,0.0,4314.871582,4301.922852,4405.512695,4343.333496,4278.205078,4277.436035,4292.179688,4293.974121,4279.743652,4280.0,4600.128418,4569.615234,4444.358887,4527.692383,,,,,,,,,,,,,,,,,,,,,,,,,,,,,,,,,,,,,,,,,,,,,,,,,,,,,,,,,,,,,,,,,,,,,,
1769162029.509312,1769162029.509994,108.0,0.0,4310.641113,4297.820313,4404.230957,4340.641113,4278.589844,4278.461426,4295.897461,4291.922852,4280.384766,4281.922852,4600.897461,4571.538574,4446.538574,4528.333496,,,,,,,,,,,,,,,,,,,,,,,,,,,,,,,,,,,,,,,,,,,,,,,,,,,,,,,,,,,,,,,,,,,,,,
1769162029.51712,1769162029.517803,109.0,0.0,4312.179688,4292.820313,4402.94873,4337.436035,4277.820313,4280.256348,4295.0,4293.717773,4278.077148,4280.769043,4599.102539,4569.102539,4442.692383,4523.846191,,,,,,,,,,,,,,,,,,,,,,,,,,,,,,,,,,,,,,,,,,,,,,,,,,,,,,,,,,,,,,,,,,,,,,
1769162029.524929,1769162029.525711,110.0,0.0,4312.94873,4294.230957,4405.256348,4335.0,4272.820313,4277.436035,4293.461426,4294.743652,4277.307617,4276.922852,4594.487305,4560.512695,4432.820313,4520.384766,0.994238,0.174462,0.165552,0.173161,0.212893,1.031556,0.363206,0.12421,0.113026,0.107708,0.673166,0.339658,0.122682,0.093346,0.123038,0.365517,0.210124,0.082515,0.056658,0.132014,0.165167,0.083808,0.06326,0.163957,0.049565,0.238582,0.301416,0.200947,0.156322,0.088662,0.440189,0.263721,0.091,0.195636,0.190042,0.180505,0.210133,0.273132,0.094126,0.131549,0.103452,0.337622,0.363687,0.093677,0.127533,0.32478,0.591723,0.22895,0.169607,0.11725,0.339773,0.586348,0.525096,0.2305,0.135189,0.496349,1.070521,0.25635,0.232184,0.21137,0.841046,0.443065,0.512265,0.205027,0.124067,1.145836,0.534733,0.495532,0.236672,0.202995
1769162029.532737,1769162029.53352,111.0,0.0,4311.410156,4294.487305,4406.153809,4336.153809,4274.871582,4278.461426,4296.922852,4294.102539,4279.871582,4277.692383,4594.615234,4560.897461,4434.487305,4521.025879,,,,,,,,,,,,,,,,,,,,,,,,,,,,,,,,,,,,,,,,,,,,,,,,,,,,,,,,,,,,,,,,,,,,,,
1769162029.540546,1769162029.541128,112.0,0.0,4312.179688,4293.846191,4404.743652,4339.487305,4280.384766,4281.025879,4298.846191,4294.743652,4280.384766,4280.512695,4600.512695,4570.256348,4445.128418,4523.461426,,,,,,,,,,,,,,,,,,,,,,,,,,,,,,,,,,,,,,,,,,,,,,,,,,,,,,,,,,,,,,,,,,,,,,
1769162029.548354,1769162029.548937,113.0,0.0,4311.410156,4293.205078,4403.589844,4337.307617,4276.282227,4276.538574,4294.615234,4295.769043,4278.717773,4279.871582,4602.307617,4571.025879,4445.512695,4525.0,,,,,,,,,,,,,,,,,,,,,,,,,,,,,,,,,,,,,,,,,,,,,,,,,,,,,,,,,,,,,,,,,,,,,,
1769162029.556163,1769162029.556645,114.0,0.0,4310.128418,4292.436035,4407.307617,4337.94873,4273.077148,4275.512695,4294.102539,4295.384766,4277.05127,4277.820313,4599.487305,4566.922852,4440.0,4523.461426,,,,,,,,,,,,,,,,,,,,,,,,,,,,,,,,,,,,,,,,,,,,,,,,,,,,,,,,,,,,,,,,,,,,,,
1769162029.563971,1769162029.564454,115.0,0.0,4316.153809,4296.922852,4413.333496,4345.128418,4278.205078,4280.641113,4297.436035,4297.94873,4276.282227,4278.077148,4599.871582,4569.102539,4440.384766,4519.743652,,,,,,,,,,,,,,,,,,,,,,,,,,,,,,,,,,,,,,,,,,,,,,,,,,,,,,,,,,,,,,,,,,,,,,
1769162029.57178,1769162029.572062,116.0,0.0,4320.897461,4298.846191,4411.538574,4346.282227,4279.230957,4280.384766,4296.666504,4306.025879,4277.94873,4280.384766,4601.794922,4571.025879,4443.974121,4519.102539,,,,,,,,,,,,,,,,,,,,,,,,,,,,,,,,,,,,,,,,,,,,,,,,,,,,,,,,,,,,,,,,,,,,,,
1769162029.579588,1769162029.579871,117.0,0.0,4316.794922,4295.256348,4409.230957,4341.410156,4274.615234,4278.077148,4292.179688,4311.153809,4280.256348,4279.743652,4601.538574,4572.692383,4446.538574,4523.846191,,,,,,,,,,,,,,,,,,,,,,,,,,,,,,,,,,,,,,,,,,,,,,,,,,,,,,,,,,,,,,,,,,,,,,
1769162029.587397,1769162029.587779,118.0,0.0,4310.897461,4294.102539,4413.077148,4340.769043,4273.077148,4278.717773,4291.666504,4308.717773,4277.94873,4277.436035,4601.538574,4574.230957,4442.05127,4519.743652,,,,,,,,,,,,,,,,,,,,,,,,,,,,,,,,,,,,,,,,,,,,,,,,,,,,,,,,,,,,,,,,,,,,,,
1769162029.595205,1769162029.595588,119.0,0.0,4311.282227,4293.717773,4414.487305,4341.410156,4274.487305,4278.205078,4295.384766,4308.205078,4272.820313,4279.230957,4601.538574,4570.897461,4433.717773,4509.487305,,,,,,,,,,,,,,,,,,,,,,,,,,,,,,,,,,,,,,,,,,,,,,,,,,,,,,,,,,,,,,,,,,,,,,
1769162029.603013,1769162029.603596,120.0,0.0,4318.717773,4293.974121,4411.538574,4341.153809,4275.0,4278.205078,4296.794922,4311.025879,4272.05127,4277.307617,4600.897461,4569.230957,4436.922852,4513.974121,,,,,,,,,,,,,,,,,,,,,,,,,,,,,,,,,,,,,,,,,,,,,,,,,,,,,,,,,,,,,,,,,,,,,,
1769162029.610822,1769162029.611404,121.0,0.0,4323.333496,4293.589844,4413.717773,4342.820313,4274.358887,4276.794922,4292.820313,4306.922852,4273.205078,4273.846191,4602.307617,4571.794922,4444.230957,4526.153809,,,,,,,,,,,,,,,,,,,,,,,,,,,,,,,,,,,,,,,,,,,,,,,,,,,,,,,,,,,,,,,,,,,,,,
1769162029.61863,1769162029.619113,122.0,0.0,4315.769043,4286.922852,4412.436035,4341.794922,4273.205078,4275.769043,4292.436035,4306.282227,4269.230957,4282.436035,4605.512695,4573.846191,4444.230957,4527.307617,,,,,,,,,,,,,,,,,,,,,,,,,,,,,,,,,,,,,,,,,,,,,,,,,,,,,,,,,,,,,,,,,,,,,,
1769162029.626439,1769162029.626921,123.0,0.0,4307.94873,4282.563965,4405.897461,4337.820313,4273.589844,4280.256348,4296.922852,4309.871582,4264.615234,4288.846191,4602.820313,4571.025879,4444.358887,4523.717773,,,,,,,,,,,,,,,,,,,,,,,,,,,,,,,,,,,,,,,,,,,,,,,,,,,,,,,,,,,,,,,,,,,,,,
1769162029.634247,1769162029.63453,124.0,0.0,4311.025879,4289.743652,4406.922852,4339.230957,4272.820313,4278.846191,4296.666504,4300.897461,4262.563965,4279.743652,4595.128418,4567.563965,4438.974121,4522.179688,,,,,,,,,,,,,,,,,,,,,,,,,,,,,,,,,,,,,,,,,,,,,,,,,,,,,,,,,,,,,,,,,,,,,,
1769162029.642056,1769162029.642338,125.0,0.0,4313.974121,4295.256348,4411.922852,4343.717773,4270.128418,4273.077148,4293.846191,4293.077148,4261.282227,4274.358887,4592.436035,4567.94873,4429.615234,4520.384766,,,,,,,,,,,,,,,,,,,,,,,,,,,,,,,,,,,,,,,,,,,,,,,,,,,,,,,,,,,,,,,,,,,,,,
1769162029.649864,1769162029.650047,126.0,0.0,4310.769043,4292.692383,4411.666504,4343.846191,4271.794922,4273.461426,4295.128418,4305.384766,4263.717773,4281.025879,4600.256348,4571.153809,4436.410156,4521.538574,1.143162,0.190027,0.175596,0.142631,0.201411,1.125991,0.40216,0.169822,0.095854,0.102215,0.640095,0.306434,0.126159,0.088933,0.116078,0.331979,0.163611,0.065399,0.04233,0.130224,0.193341,0.086168,0.058627,0.144193,0.051559,0.258822,0.319048,0.183798,0.153662,0.091901,0.373278,0.323142,0.117925,0.191813,0.183755,0.149177,0.18788,0.202144,0.100007,0.125546,0.081637,0.295446,0.310561,0.083482,0.125483,0.249744,0.465188,0.190515,0.169103,0.120852,0.276956,0.491841,0.441098,0.205991,0.130386,0.558819,0.958136,0.236163,0.206551,0.18474,0.917797,0.368067,0.464743,0.21824,0.128347,1.155654,0.411685,0.498997,0.222671,0.174388
1769162029.657673,1769162029.657855,127.0,0.0,4310.384766,4294.358887,4409.871582,4342.307617,4277.563965,4275.512695,4294.102539,4313.077148,4265.512695,4282.436035,4605.128418,4572.692383,4448.077148,4525.256348,,,,,,,,,,,,,,,,,,,,,,,,,,,,,,,,,,,,,,,,,,,,,,,,,,,,,,,,,,,,,,,,,,,,,,
1769162029.665481,1769162029.665864,0.0,0.0,4312.692383,4297.436035,4413.077148,4344.102539,4279.102539,4275.256348,4291.153809,4303.077148,4262.05127,4279.230957,4600.512695,4570.384766,4445.0,4525.384766,,,,,,,,,,,,,,,,,,,,,,,,,,,,,,,,,,,,,,,,,,,,,,,,,,,,,,,,,,,,,,,,,,,,,,
1769162029.673289,1769162029.673672,1.0,0.0,4312.692383,4295.384766,4414.230957,4343.974121,4277.307617,4277.05127,4292.692383,4305.256348,4261.538574,4280.0,4599.230957,4570.897461,4440.769043,4523.974121,,,,,,,,,,,,,,,,,,,,,,,,,,,,,,,,,,,,,,,,,,,,,,,,,,,,,,,,,,,,,,,,,,,,,,
1769162029.681098,1769162029.68158,2.0,0.0,4311.538574,4294.487305,4410.256348,4339.871582,4277.692383,4279.871582,4296.666504,4312.307617,4264.102539,4279.743652,4600.128418,4573.846191,4444.102539,4522.692383,,,,,,,,,,,,,,,,,,,,,,,,,,,,,,,,,,,,,,,,,,,,,,,,,,,,,,,,,,,,,,,,,,,,,,
1769162029.688906,1769162029.689389,3.0,0.0,4311.538574,4296.025879,4409.102539,4337.692383,4279.230957,4280.512695,4296.282227,4303.717773,4261.922852,4278.717773,4596.282227,4570.384766,4442.05127,4518.974121,,,,,,,,,,,,,,,,,,,,,,,,,,,,,,,,,,,,,,,,,,,,,,,,,,,,,,,,,,,,,,,,,,,,,,
1769162029.696715,1769162029.697397,4.0,0.0,4312.436035,4296.922852,4411.922852,4339.358887,4279.230957,4280.128418,4294.487305,4299.230957,4258.974121,4278.717773,4596.794922,4566.153809,4436.538574,4516.153809,,,,,,,,,,,,,,,,,,,,,,,,,,,,,,,,,,,,,,,,,,,,,,,,,,,,,,,,,,,,,,,,,,,,,,
1769162029.704523,1769162029.705205,5.0,0.0,4312.179688,4293.333496,4413.077148,4336.922852,4275.641113,4281.025879,4296.025879,4307.94873,4260.128418,4279.871582,4600.897461,4569.487305,4434.871582,4518.077148,,,,,,,,,,,,,,,,,,,,,,,,,,,,,,,,,,,,,,,,,,,,,,,,,,,,,,,,,,,,,,,,,,,,,,
1769162029.712332,1769162029.712914,6.0,0.0,4310.128418,4288.589844,4409.743652,4329.102539,4274.102539,4282.05127,4296.153809,4310.897461,4262.05127,4279.615234,4598.846191,4572.05127,4433.077148,4520.769043,,,,,,,,,,,,,,,,,,,,,,,,,,,,,,,,,,,,,,,,,,,,,,,,,,,,,,,,,,,,,,,,,,,,,,
1769162029.72014,1769162029.720722,7.0,0.0,4308.846191,4288.077148,4409.230957,4327.436035,4277.563965,4279.487305,4294.487305,4308.333496,4262.820313,4279.871582,4597.94873,4570.641113,4434.230957,4521.282227,,,,,,,,,,,,,,,,,,,,,,,,,,,,,,,,,,,,,,,,,,,,,,,,,,,,,,,,,,,,,,,,,,,,,,
1769162029.727949,1769162029.728331,8.0,0.0,4308.974121,4287.94873,4411.025879,4329.487305,4275.384766,4278.589844,4296.794922,4311.922852,4263.077148,4285.256348,4602.563965,4571.153809,4438.846191,4521.666504,,,,,,,,,,,,,,,,,,,,,,,,,,,,,,,,,,,,,,,,,,,,,,,,,,,,,,,,,,,,,,,,,,,,,,
1769162029.735757,1769162029.73614,9.0,0.0,4312.692383,4288.461426,4411.153809,4328.717773,4272.05127,4280.769043,4297.820313,4309.871582,4263.205078,4291.666504,4603.846191,4572.307617,4442.05127,4521.666504,,,,,,,,,,,,,,,,,,,,,,,,,,,,,,,,,,,,,,,,,,,,,,,,,,,,,,,,,,,,,,,,,,,,,,
1769162029.743565,1769162029.743848,10.0,0.0,4318.846191,4294.230957,4411.538574,4333.205078,4277.307617,4278.077148,4292.05127,4304.358887,4263.717773,4295.512695,4602.436035,4573.333496,4444.358887,4525.769043,,,,,,,,,,,,,,,,,,,,,,,,,,,,,,,,,,,,,,,,,,,,,,,,,,,,,,,,,,,,,,,,,,,,,,
1769162029.751374,1769162029.751657,11.0,0.0,4320.641113,4299.358887,4411.922852,4340.384766,4282.179688,4276.794922,4290.384766,4308.077148,4263.717773,4295.256348,4602.692383,4573.333496,4445.769043,4530.769043,,,,,,,,,,,,,,,,,,,,,,,,,,,,,,,,,,,,,,,,,,,,,,,,,,,,,,,,,,,,,,,,,,,,,,
1769162029.759182,1769162029.759265,12.0,0.0,4317.94873,4298.205078,4411.794922,4340.897461,4280.641113,4283.333496,4295.256348,4308.717773,4261.025879,4288.205078,4603.205078,4571.153809,4442.94873,4527.820313,,,,,,,,,,,,,,,,,,,,,,,,,,,,,,,,,,,,,,,,,,,,,,,,,,,,,,,,,,,,,,,,,,,,,,
1769162029.766991,1769162029.767074,13.0,0.0,4321.153809,4297.820313,4412.05127,4339.230957,4280.256348,4283.717773,4296.025879,4308.846191,4261.153809,4281.153809,4604.615234,4571.922852,4443.461426,4523.974121,,,,,,,,,,,,,,,,,,,,,,,,,,,,,,,,,,,,,,,,,,,,,,,,,,,,,,,,,,,,,,,,,,,,,,
1769162029.774799,1769162029.774782,14.0,0.0,4319.871582,4297.307617,4411.410156,4335.128418,4278.846191,4276.282227,4292.436035,4309.358887,4262.05127,4279.358887,4603.205078,4572.820313,4443.461426,4524.358887,1.248432,0.202454,0.20138,0.121897,0.179789,1.177254,0.43456,0.23212,0.080615,0.09214,0.547024,0.266908,0.157205,0.087144,0.103632,0.294034,0.139546,0.059546,0.033489,0.117224,0.223344,0.09548,0.060148,0.120041,0.052097,0.256434,0.318212,0.14987,0.142258,0.090482,0.30052,0.368565,0.14057,0.180608,0.176068,0.129958,0.163569,0.135074,0.102146,0.11753,0.07228,0.246915,0.245186,0.085958,0.119958,0.194296,0.347616,0.158976,0.181388,0.123107,0.224226,0.389607,0.339553,0.186886,0.122955,0.62079,0.83692,0.220169,0.192135,0.163563,0.935493,0.306093,0.395951,0.22449,0.130077,1.052401,0.284884,0.485064,0.201987,0.148652
1769162029.782608,1769162029.782591,15.0,0.0,4309.871582,4292.820313,4408.077148,4327.307617,4275.641113,4276.794922,4292.563965,4301.666504,4254.230957,4277.436035,4597.307617,4567.563965,4430.384766,4521.538574,,,,,,,,,,,,,,,,,,,,,,,,,,,,,,,,,,,,,,,,,,,,,,,,,,,,,,,,,,,,,,,,,,,,,,
1769162029.790416,1769162029.790599,16.0,0.0,4313.205078,4293.205078,4411.025879,4330.128418,4277.05127,4281.794922,4296.025879,4299.102539,4248.461426,4277.94873,4596.025879,4567.563965,4426.794922,4518.333496,,,,,,,,,,,,,,,,,,,,,,,,,,,,,,,,,,,,,,,,,,,,,,,,,,,,,,,,,,,,,,,,,,,,,,
1769162029.798225,1769162029.798407,17.0,0.0,4325.256348,4300.769043,4417.436035,4340.384766,4278.461426,4277.692383,4296.153809,4305.256348,4254.871582,4281.282227,4601.666504,4576.153809,4440.641113,4522.436035,,,,,,,,,,,,,,,,,,,,,,,,,,,,,,,,,,,,,,,,,,,,,,,,,,,,,,,,,,,,,,,,,,,,,,
1769162029.806033,1769162029.806316,18.0,0.0,4325.384766,4307.307617,4416.538574,4341.666504,4277.563965,4272.94873,4292.94873,4301.666504,4259.615234,4280.0,4602.94873,4574.358887,4444.743652,4526.666504,,,,,,,,,,,,,,,,,,,,,,,,,,,,,,,,,,,,,,,,,,,,,,,,,,,,,,,,,,,,,,,,,,,,,,
1769162029.813841,1769162029.814124,19.0,0.0,4323.333496,4308.333496,4416.410156,4340.128418,4284.102539,4278.333496,4293.077148,4297.179688,4258.077148,4283.717773,4599.743652,4568.846191,4440.0,4522.94873,,,,,,,,,,,,,,,,,,,,,,,,,,,,,,,,,,,,,,,,,,,,,,,,,,,,,,,,,,,,,,,,,,,,,,
1769162029.82165,1769162029.821733,20.0,0.0,4328.589844,4308.461426,4421.153809,4343.846191,4290.128418,4282.436035,4296.922852,4310.128418,4261.538574,4290.384766,4602.436035,4579.743652,4443.589844,4525.769043,,,,,,,,,,,,,,,,,,,,,,,,,,,,,,,,,,,,,,,,,,,,,,,,,,,,,,,,,,,,,,,,,,,,,,
1769162029.829458,1769162029.829541,21.0,0.0,4328.846191,4307.436035,4420.256348,4344.615234,4283.077148,4277.563965,4296.025879,4315.0,4264.615234,4285.512695,4605.0,4585.256348,4443.333496,4532.307617,,,,,,,,,,,,,,,,,,,,,,,,,,,,,,,,,,,,,,,,,,,,,,,,,,,,,,,,,,,,,,,,,,,,,,
1769162029.837267,1769162029.83725,22.0,0.0,4326.410156,4304.487305,4417.307617,4341.922852,4280.897461,4274.743652,4292.05127,4300.512695,4261.410156,4279.743652,4600.769043,4574.230957,4438.333496,4529.358887,,,,,,,,,,,,,,,,,,,,,,,,,,,,,,,,,,,,,,,,,,,,,,,,,,,,,,,,,,,,,,,,,,,,,,
1769162029.845075,1769162029.845058,23.0,0.0,4328.589844,4304.230957,4419.487305,4341.538574,4290.128418,4278.461426,4291.410156,4297.307617,4261.153809,4283.974121,4600.512695,4572.179688,4442.307617,4527.94873,,,,,,,,,,,,,,,,,,,,,,,,,,,,,,,,,,,,,,,,,,,,,,,,,,,,,,,,,,,,,,,,,,,,,,
1769162029.852884,1769162029.853066,24.0,0.0,4326.922852,4306.666504,4419.743652,4342.692383,4290.0,4279.871582,4294.487305,4308.461426,4262.820313,4283.077148,4606.410156,4582.436035,4445.769043,4536.410156,,,,,,,,,,,,,,,,,,,,,,,,,,,,,,,,,,,,,,,,,,,,,,,,,,,,,,,,,,,,,,,,,,,,,,
1769162029.860692,1769162029.860875,25.0,0.0,4325.256348,4305.0,4418.589844,4343.077148,4281.410156,4278.077148,4296.282227,4310.384766,4262.05127,4279.871582,4611.025879,4585.641113,4443.461426,4541.025879,,,,,,,,,,,,,,,,,,,,,,,,,,,,,,,,,,,,,,,,,,,,,,,,,,,,,,,,,,,,,,,,,,,,,,
1769162029.868501,1769162029.868783,26.0,0.0,4323.333496,4298.333496,4419.487305,4343.205078,4280.384766,4278.589844,4294.487305,4305.128418,4262.05127,4287.307617,4610.384766,4579.615234,4444.230957,4537.692383,,,,,,,,,,,,,,,,,,,,,,,,,,,,,,,,,,,,,,,,,,,,,,,,,,,,,,,,,,,,,,,,,,,,,,
1769162029.876309,1769162029.876592,27.0,0.0,4316.922852,4292.05127,4416.153809,4342.179688,4280.512695,4280.0,4294.358887,4308.077148,4262.05127,4289.230957,4605.769043,4573.461426,4446.282227,4537.179688,,,,,,,,,,,,,,,,,,,,,,,,,,,,,,,,,,,,,,,,,,,,,,,,,,,,,,,,,,,,,,,,,,,,,,
1769162029.884117,1769162029.8846,28.0,0.0,4313.333496,4290.128418,4410.128418,4340.256348,4277.820313,4281.025879,4296.922852,4311.153809,4260.769043,4284.358887,4601.025879,4571.282227,4443.846191,4539.102539,,,,,,,,,,,,,,,,,,,,,,,,,,,,,,,,,,,,,,,,,,,,,,,,,,,,,,,,,,,,,,,,,,,,,,
1769162029.891926,1769162029.892408,29.0,0.0,4318.846191,4292.05127,4411.025879,4341.538574,4277.692383,4281.153809,4297.05127,4306.538574,4260.897461,4285.384766,4601.282227,4571.794922,4440.256348,4539.230957,,,,,,,,,,,,,,,,,,,,,,,,,,,,,,,,,,,,,,,,,,,,,,,,,,,,,,,,,,,,,,,,,,,,,,
1769162029.899734,1769162029.900317,30.0,0.0,4324.230957,4292.820313,4417.436035,4343.589844,4278.846191,4278.589844,4294.487305,4305.384766,4261.794922,4289.102539,4603.589844,4570.384766,4440.512695,4538.461426,1.266294,0.210979,0.237688,0.111373,0.153137,1.156508,0.458204,0.288094,0.070039,0.080605,0.44808,0.236134,0.205507,0.08779,0.090105,0.244535,0.143754,0.063077,0.028733,0.096501,0.247132,0.104302,0.062997,0.097249,0.051132,0.231143,0.300962,0.110237,0.12679,0.085062,0.235891,0.38178,0.149093,0.164107,0.165144,0.135319,0.137701,0.08525,0.099459,0.108152,0.097183,0.198551,0.180317,0.09925,0.111004,0.170692,0.269285,0.153796,0.202506,0.12363,0.197607,0.3088,0.251714,0.171234,0.115059,0.660399,0.741199,0.207362,0.18174,0.151678,0.881022,0.288949,0.329241,0.223964,0.130904,0.860652,0.187421,0.461068,0.176776,0.129403
1769162029.907543,1769162029.908125,31.0,0.0,4318.461426,4289.230957,4416.153809,4341.410156,4278.205078,4277.820313,4293.589844,4308.846191,4260.256348,4287.94873,4601.282227,4568.717773,4442.436035,4534.358887,,,,,,,,,,,,,,,,,,,,,,,,,,,,,,,,,,,,,,,,,,,,,,,,,,,,,,,,,,,,,,,,,,,,,,
1769162029.915352,1769162029.916133,32.0,0.0,4314.230957,4287.692383,4411.153809,4339.743652,4277.692383,4280.0,4293.974121,4310.128418,4261.922852,4288.846191,4602.05127,4572.563965,4443.333496,4534.871582,,,,,,,,,,,,,,,,,,,,,,,,,,,,,,,,,,,,,,,,,,,,,,,,,,,,,,,,,,,,,,,,,,,,,,
1769162029.92316,1769162029.923942,33.0,0.0,4318.717773,4291.666504,4414.230957,4343.589844,4279.358887,4276.794922,4292.307617,4306.282227,4264.358887,4292.563965,4607.820313,4573.846191,4443.333496,4539.615234,,,,,,,,,,,,,,,,,,,,,,,,,,,,,,,,,,,,,,,,,,,,,,,,,,,,,,,,,,,,,,,,,,,,,,
1769162029.930968,1769162029.93165,34.0,0.0,4323.333496,4294.487305,4420.897461,4343.589844,4281.538574,4275.384766,4291.666504,4301.025879,4261.922852,4288.333496,4609.615234,4571.025879,4442.692383,4540.641113,,,,,,,,,,,,,,,,,,,,,,,,,,,,,,,,,,,,,,,,,,,,,,,,,,,,,,,,,,,,,,,,,,,,,,
1769162029.938777,1769162029.939459,35.0,0.0,4324.615234,4294.102539,4424.487305,4342.05127,4281.410156,4278.333496,4293.846191,4307.179688,4267.05127,4290.0,4611.922852,4575.384766,4443.589844,4540.128418,,,,,,,,,,,,,,,,,,,,,,,,,,,,,,,,,,,,,,,,,,,,,,,,,,,,,,,,,,,,,,,,,,,,,,
1769162029.946585,1769162029.947068,36.0,0.0,4325.641113,4295.384766,4426.282227,4346.410156,4279.871582,4272.05127,4295.0,4312.05127,4273.333496,4294.358887,4612.179688,4581.794922,4445.769043,4540.512695,,,,,,,,,,,,,,,,,,,,,,,,,,,,,,,,,,,,,,,,,,,,,,,,,,,,,,,,,,,,,,,,,,,,,,
1769162029.954394,1769162029.954876,37.0,0.0,4326.153809,4295.128418,4422.692383,4347.179688,4278.589844,4267.436035,4294.230957,4300.512695,4264.871582,4286.025879,4603.205078,4574.487305,4443.077148,4538.077148,,,,,,,,,,,,,,,,,,,,,,,,,,,,,,,,,,,,,,,,,,,,,,,,,,,,,,,,,,,,,,,,,,,,,,
1769162029.962202,1769162029.962585,38.0,0.0,4325.256348,4292.94873,4418.974121,4342.692383,4280.256348,4276.282227,4294.615234,4295.128418,4261.922852,4282.563965,4604.102539,4567.563965,4444.615234,4543.846191,,,,,,,,,,,,,,,,,,,,,,,,,,,,,,,,,,,,,,,,,,,,,,,,,,,,,,,,,,,,,,,,,,,,,,
1769162029.970011,1769162029.970393,39.0,0.0,4327.820313,4293.205078,4421.922852,4341.538574,4282.820313,4282.307617,4296.153809,4302.820313,4269.743652,4292.307617,4614.871582,4577.307617,4452.94873,4553.461426,,,,,,,,,,,,,,,,,,,,,,,,,,,,,,,,,,,,,,,,,,,,,,,,,,,,,,,,,,,,,,,,,,,,,,
1769162029.977819,1769162029.978002,40.0,0.0,4328.974121,4294.871582,4422.436035,4341.025879,4281.666504,4278.846191,4296.153809,4305.384766,4267.692383,4293.333496,4609.487305,4580.0,4452.05127,4547.94873,,,,,,,,,,,,,,,,,,,,,,,,,,,,,,,,,,,,,,,,,,,,,,,,,,,,,,,,,,,,,,,,,,,,,,
1769162029.985628,1769162029.98581,41.0,0.0,4324.871582,4294.102539,4417.94873,4339.102539,4280.256348,4278.589844,4295.384766,4305.897461,4266.794922,4287.820313,4601.410156,4570.256348,4443.461426,4535.641113,,,,,,,,,,,,,,,,,,,,,,,,,,,,,,,,,,,,,,,,,,,,,,,,,,,,,,,,,,,,,,,,,,,,,,
1769162029.993436,1769162029.993718,42.0,0.0,4322.563965,4290.512695,4418.461426,4339.743652,4282.307617,4280.769043,4297.563965,4311.538574,4281.153809,4293.077148,4609.487305,4571.282227,4442.05127,4537.820313,,,,,,,,,,,,,,,,,,,,,,,,,,,,,,,,,,,,,,,,,,,,,,,,,,,,,,,,,,,,,,,,,,,,,,
1769162030.001244,1769162030.001527,43.0,0.0,4324.871582,4290.769043,4424.102539,4343.974121,4283.461426,4282.05127,4300.256348,4312.307617,4280.256348,4295.128418,4615.384766,4581.025879,4449.487305,4547.94873,,,,,,,,,,,,,,,,,,,,,,,,,,,,,,,,,,,,,,,,,,,,,,,,,,,,,,,,,,,,,,,,,,,,,,
1769162030.009053,1769162030.009535,44.0,0.0,4327.692383,4295.0,4427.563965,4346.410156,4285.256348,4284.102539,4299.487305,4308.717773,4265.384766,4291.025879,4615.128418,4586.153809,4456.153809,4552.436035,,,,,,,,,,,,,,,,,,,,,,,,,,,,,,,,,,,,,,,,,,,,,,,,,,,,,,,,,,,,,,,,,,,,,,
1769162030.016861,1769162030.017344,45.0,0.0,4327.05127,4295.641113,4426.538574,4346.282227,4288.974121,4282.436035,4295.897461,4310.128418,4269.230957,4293.717773,4616.922852,4583.589844,4457.563965,4548.717773,,,,,,,,,,,,,,,,,,,,,,,,,,,,,,,,,,,,,,,,,,,,,,,,,,,,,,,,,,,,,,,,,,,,,,
1769162030.02467,1769162030.025052,46.0,0.0,4326.153809,4291.410156,4424.358887,4344.487305,4288.589844,4282.820313,4295.256348,4312.307617,4281.922852,4295.897461,4616.538574,4579.358887,4456.153809,4540.769043,1.179457,0.218313,0.273143,0.107361,0.127146,1.062814,0.476215,0.315653,0.065184,0.070462,0.350165,0.220327,0.252669,0.089049,0.079353,0.197657,0.176347,0.071547,0.027993,0.073972,0.255251,0.109458,0.064524,0.079344,0.049347,0.196721,0.273228,0.076108,0.111206,0.077798,0.18266,0.354253,0.138671,0.143852,0.149079,0.164946,0.116341,0.057658,0.093168,0.099194,0.14318,0.160711,0.126844,0.117638,0.099895,0.172864,0.246851,0.183336,0.223369,0.121468,0.184641,0.262611,0.196683,0.156511,0.109033,0.655023,0.675624,0.195985,0.168613,0.151056,0.764863,0.327614,0.284058,0.218768,0.13313,0.637327,0.135952,0.432493,0.152115,0.118762
1769162030.032478,1769162030.032861,47.0,0.0,4326.282227,4291.410156,4425.256348,4347.307617,4285.384766,4286.666504,4297.436035,4312.692383,4280.512695,4294.102539,4616.410156,4580.512695,4458.077148,4539.871582,,,,,,,,,,,,,,,,,,,,,,,,,,,,,,,,,,,,,,,,,,,,,,,,,,,,,,,,,,,,,,,,,,,,,,
1769162030.040287,1769162030.040469,48.0,0.0,4326.794922,4296.282227,4427.563965,4350.384766,4286.410156,4290.897461,4302.179688,4311.282227,4275.128418,4294.871582,4618.974121,4584.743652,4461.922852,4544.358887,,,,,,,,,,,,,,,,,,,,,,,,,,,,,,,,,,,,,,,,,,,,,,,,,,,,,,,,,,,,,,,,,,,,,,
1769162030.048095,1769162030.048278,49.0,0.0,4327.05127,4296.282227,4428.077148,4349.743652,4290.256348,4297.179688,4305.512695,4310.897461,4278.077148,4296.025879,4617.820313,4584.102539,4461.922852,4542.563965,,,,,,,,,,,,,,,,,,,,,,,,,,,,,,,,,,,,,,,,,,,,,,,,,,,,,,,,,,,,,,,,,,,,,,
1769162030.055904,1769162030.056186,50.0,0.0,4328.205078,4297.820313,4428.974121,4350.384766,4290.897461,4295.256348,4301.153809,4313.205078,4281.282227,4294.871582,4617.692383,4579.743652,4460.897461,4538.846191,,,,,,,,,,,,,,,,,,,,,,,,,,,,,,,,,,,,,,,,,,,,,,,,,,,,,,,,,,,,,,,,,,,,,,
1769162030.063712,1769162030.063994,51.0,0.0,4329.102539,4304.871582,4429.102539,4353.717773,4289.871582,4284.358887,4293.846191,4311.666504,4280.0,4292.05127,4618.333496,4575.769043,4459.230957,4539.743652,,,,,,,,,,,,,,,,,,,,,,,,,,,,,,,,,,,,,,,,,,,,,,,,,,,,,,,,,,,,,,,,,,,,,,
1769162030.07152,1769162030.072003,52.0,0.0,4328.461426,4306.666504,4427.820313,4353.717773,4291.794922,4283.974121,4292.820313,4308.974121,4278.205078,4292.307617,4615.512695,4575.769043,4460.512695,4540.256348,,,,,,,,,,,,,,,,,,,,,,,,,,,,,,,,,,,,,,,,,,,,,,,,,,,,,,,,,,,,,,,,,,,,,,
1769162030.079329,1769162030.079811,53.0,0.0,4323.846191,4303.333496,4426.282227,4351.922852,4296.666504,4295.256348,4303.461426,4315.641113,4280.897461,4297.179688,4616.025879,4581.410156,4461.410156,4541.153809,,,,,,,,,,,,,,,,,,,,,,,,,,,,,,,,,,,,,,,,,,,,,,,,,,,,,,,,,,,,,,,,,,,,,,
1769162030.087137,1769162030.087719,54.0,0.0,4322.563965,4304.358887,4426.666504,4353.333496,4296.025879,4297.05127,4313.461426,4320.128418,4287.692383,4297.179688,4622.307617,4584.743652,4458.974121,4546.538574,,,,,,,,,,,,,,,,,,,,,,,,,,,,,,,,,,,,,,,,,,,,,,,,,,,,,,,,,,,,,,,,,,,,,,
1769162030.094946,1769162030.095528,55.0,0.0,4330.0,4306.025879,4427.05127,4355.641113,4290.384766,4292.692383,4306.794922,4315.256348,4287.820313,4296.794922,4627.820313,4583.461426,4465.512695,4550.0,,,,,,,,,,,,,,,,,,,,,,,,,,,,,,,,,,,,,,,,,,,,,,,,,,,,,,,,,,,,,,,,,,,,,,
1769162030.102754,1769162030.103137,56.0,0.0,4335.769043,4303.717773,4428.974121,4357.436035,4291.025879,4292.05127,4296.538574,4317.307617,4290.384766,4304.615234,4629.102539,4583.589844,4474.102539,4551.666504,,,,,,,,,,,,,,,,,,,,,,,,,,,,,,,,,,,,,,,,,,,,,,,,,,,,,,,,,,,,,,,,,,,,,,
1769162030.110563,1769162030.110945,57.0,0.0,4328.974121,4302.820313,4429.358887,4356.153809,4294.615234,4295.256348,4304.487305,4327.692383,4295.641113,4306.666504,4625.256348,4584.871582,4468.717773,4552.563965,,,,,,,,,,,,,,,,,,,,,,,,,,,,,,,,,,,,,,,,,,,,,,,,,,,,,,,,,,,,,,,,,,,,,,
1769162030.118371,1769162030.118654,58.0,0.0,4323.461426,4304.102539,4426.282227,4352.563965,4292.820313,4297.692383,4313.077148,4326.538574,4289.102539,4297.307617,4623.461426,4584.102539,4461.282227,4551.153809,,,,,,,,,,,,,,,,,,,,,,,,,,,,,,,,,,,,,,,,,,,,,,,,,,,,,,,,,,,,,,,,,,,,,,
1769162030.12618,1769162030.126462,59.0,0.0,4335.256348,4306.922852,4432.307617,4356.025879,4291.538574,4294.615234,4301.538574,4315.512695,4279.743652,4293.077148,4625.0,4582.94873,4464.615234,4553.461426,,,,,,,,,,,,,,,,,,,,,,,,,,,,,,,,,,,,,,,,,,,,,,,,,,,,,,,,,,,,,,,,,,,,,,
1769162030.133988,1769162030.134071,60.0,0.0,4342.692383,4306.922852,4439.102539,4361.410156,4293.205078,4293.974121,4297.820313,4311.025879,4278.717773,4296.025879,4620.0,4584.230957,4464.615234,4555.128418,,,,,,,,,,,,,,,,,,,,,,,,,,,,,,,,,,,,,,,,,,,,,,,,,,,,,,,,,,,,,,,,,,,,,,
1769162030.141796,1769162030.141879,61.0,0.0,4331.794922,4302.436035,4431.025879,4355.769043,4291.153809,4296.153809,4302.307617,4311.538574,4281.538574,4295.128418,4614.358887,4583.461426,4458.974121,4545.256348,,,,,,,,,,,,,,,,,,,,,,,,,,,,,,,,,,,,,,,,,,,,,,,,,,,,,,,,,,,,,,,,,,,,,,
1769162030.149605,1769162030.149588,62.0,0.0,4323.589844,4301.794922,4423.205078,4349.358887,4288.846191,4294.358887,4300.384766,4312.307617,4283.846191,4294.615234,4617.179688,4574.230957,4460.128418,4536.153809,1.011767,0.230183,0.294221,0.105339,0.106605,0.915847,0.492901,0.306398,0.067259,0.063193,0.295613,0.217396,0.279274,0.088129,0.073147,0.165459,0.229455,0.083233,0.032689,0.055501,0.247134,0.111716,0.065248,0.066874,0.047954,0.160716,0.23988,0.053873,0.097446,0.071156,0.139129,0.292036,0.11221,0.121165,0.128085,0.217037,0.106707,0.050257,0.086811,0.093961,0.20986,0.142824,0.091985,0.134169,0.08837,0.191758,0.276954,0.241095,0.234608,0.116033,0.175639,0.247108,0.174093,0.142134,0.106061,0.600323,0.623587,0.181711,0.14991,0.160668,0.603043,0.406322,0.268265,0.212024,0.138211,0.43592,0.129751,0.399286,0.133116,0.116556
1769162030.157413,1769162030.157396,63.0,0.0,4324.615234,4304.615234,4426.794922,4354.230957,4290.897461,4293.974121,4303.333496,4312.436035,4286.922852,4295.128418,4618.974121,4570.0,4462.05127,4539.102539,,,,,,,,,,,,,,,,,,,,,,,,,,,,,,,,,,,,,,,,,,,,,,,,,,,,,,,,,,,,,,,,,,,,,,
1769162030.165222,1769162030.165005,64.0,0.0,4326.538574,4304.487305,4428.589844,4357.179688,4291.025879,4294.871582,4303.205078,4310.256348,4288.205078,4293.589844,4616.538574,4579.102539,4461.282227,4540.897461,,,,,,,,,,,,,,,,,,,,,,,,,,,,,,,,,,,,,,,,,,,,,,,,,,,,,,,,,,,,,,,,,,,,,,
1769162030.17303,1769162030.172813,65.0,0.0,4331.666504,4304.102539,4433.077148,4353.974121,4288.205078,4292.05127,4299.102539,4312.692383,4289.871582,4294.230957,4618.846191,4586.153809,4459.487305,4539.487305,,,,,,,,,,,,,,,,,,,,,,,,,,,,,,,,,,,,,,,,,,,,,,,,,,,,,,,,,,,,,,,,,,,,,,
1769162030.180839,1769162030.180522,66.0,0.0,4336.282227,4306.410156,4439.871582,4355.512695,4286.922852,4292.05127,4306.153809,4320.384766,4293.717773,4295.256348,4618.846191,4583.461426,4458.077148,4541.025879,,,,,,,,,,,,,,,,,,,,,,,,,,,,,,,,,,,,,,,,,,,,,,,,,,,,,,,,,,,,,,,,,,,,,,
1769162030.188647,1769162030.18833,67.0,0.0,4334.743652,4310.641113,4437.05127,4362.05127,4290.897461,4295.641113,4312.179688,4319.871582,4293.717773,4293.846191,4616.666504,4581.794922,4463.589844,4540.769043,,,,,,,,,,,,,,,,,,,,,,,,,,,,,,,,,,,,,,,,,,,,,,,,,,,,,,,,,,,,,,,,,,,,,,
1769162030.196456,1769162030.196338,68.0,0.0,4336.410156,4316.922852,4436.153809,4366.282227,4296.410156,4295.0,4306.025879,4314.871582,4293.333496,4295.0,4622.307617,4585.256348,4474.615234,4540.128418,,,,,,,,,,,,,,,,,,,,,,,,,,,,,,,,,,,,,,,,,,,,,,,,,,,,,,,,,,,,,,,,,,,,,,
1769162030.204264,1769162030.204147,69.0,0.0,4343.461426,4322.179688,4442.563965,4366.153809,4296.410156,4299.358887,4308.589844,4321.153809,4295.641113,4303.205078,4629.230957,4587.436035,4477.307617,4545.128418,,,,,,,,,,,,,,,,,,,,,,,,,,,,,,,,,,,,,,,,,,,,,,,,,,,,,,,,,,,,,,,,,,,,,,
1769162030.212072,1769162030.212055,70.0,0.0,4350.512695,4323.589844,4445.641113,4367.436035,4293.974121,4304.102539,4314.102539,4328.461426,4299.102539,4307.179688,4630.512695,4587.820313,4472.307617,4551.410156,,,,,,,,,,,,,,,,,,,,,,,,,,,,,,,,,,,,,,,,,,,,,,,,,,,,,,,,,,,,,,,,,,,,,,
1769162030.219881,1769162030.219864,71.0,0.0,4350.384766,4322.436035,4443.333496,4367.307617,4296.410156,4297.436035,4308.333496,4325.897461,4298.205078,4303.205078,4630.128418,4592.179688,4472.436035,4552.692383,,,,,,,,,,,,,,,,,,,,,,,,,,,,,,,,,,,,,,,,,,,,,,,,,,,,,,,,,,,,,,,,,,,,,,
1769162030.227689,1769162030.227472,72.0,0.0,4343.077148,4321.538574,4442.563965,4363.461426,4298.846191,4297.307617,4310.384766,4327.179688,4298.333496,4304.743652,4632.307617,4600.512695,4476.666504,4555.897461,,,,,,,,,,,,,,,,,,,,,,,,,,,,,,,,,,,,,,,,,,,,,,,,,,,,,,,,,,,,,,,,,,,,,,
1769162030.235498,1769162030.235281,73.0,0.0,4342.820313,4323.717773,4448.717773,4365.641113,4297.563965,4304.743652,4314.230957,4332.179688,4307.307617,4311.666504,4639.487305,4604.358887,4478.205078,4565.128418,,,,,,,,,,,,,,,,,,,,,,,,,,,,,,,,,,,,,,,,,,,,,,,,,,,,,,,,,,,,,,,,,,,,,,
1769162030.243306,1769162030.242989,74.0,0.0,4351.538574,4327.179688,4458.077148,4373.461426,4300.512695,4303.205078,4309.230957,4333.205078,4312.692383,4312.563965,4642.820313,4601.922852,4478.333496,4566.922852,,,,,,,,,,,,,,,,,,,,,,,,,,,,,,,,,,,,,,,,,,,,,,,,,,,,,,,,,,,,,,,,,,,,,,
1769162030.251115,1769162030.250798,75.0,0.0,4353.846191,4325.897461,4460.512695,4374.871582,4306.025879,4303.846191,4313.589844,4335.512695,4309.871582,4310.0,4639.615234,4601.922852,4477.05127,4562.307617,,,,,,,,,,,,,,,,,,,,,,,,,,,,,,,,,,,,,,,,,,,,,,,,,,,,,,,,,,,,,,,,,,,,,,
1769162030.258923,1769162030.258806,76.0,0.0,4350.512695,4323.077148,4453.461426,4371.794922,4307.179688,4311.282227,4323.205078,4334.871582,4308.461426,4310.897461,4641.153809,4604.743652,4478.461426,4569.358887,,,,,,,,,,,,,,,,,,,,,,,,,,,,,,,,,,,,,,,,,,,,,,,,,,,,,,,,,,,,,,,,,,,,,,
1769162030.266732,1769162030.266614,77.0,0.0,4351.410156,4322.94873,4446.153809,4371.153809,4301.538574,4306.153809,4316.666504,4328.974121,4311.538574,4310.256348,4642.307617,4604.358887,4480.0,4574.230957,,,,,,,,,,,,,,,,,,,,,,,,,,,,,,,,,,,,,,,,,,,,,,,,,,,,,,,,,,,,,,,,,,,,,,
1769162030.27454,1769162030.274523,78.0,0.0,4351.666504,4320.384766,4448.461426,4369.871582,4295.641113,4296.538574,4309.230957,4326.153809,4310.384766,4306.025879,4631.282227,4599.102539,4475.769043,4560.256348,0.81809,0.249265,0.292633,0.103423,0.094024,0.76952,0.509357,0.266616,0.075482,0.058627,0.269131,0.222074,0.274434,0.083251,0.070824,0.161201,0.288949,0.097815,0.043201,0.04433,0.230378,0.113412,0.067038,0.058076,0.047952,0.134807,0.203047,0.043297,0.0858,0.067071,0.103233,0.212543,0.077878,0.098211,0.105065,0.284247,0.112001,0.0556,0.084986,0.095902,0.273993,0.146104,0.074386,0.143819,0.078524,0.217612,0.337605,0.305463,0.23065,0.108221,0.162541,0.24822,0.168947,0.128849,0.105609,0.515657,0.568643,0.161364,0.12632,0.175221,0.433784,0.48874,0.274282,0.205182,0.145242,0.293286,0.158888,0.356681,0.122083,0.119683
1769162030.282349,1769162030.282331,79.0,0.0,4351.025879,4319.102539,4456.410156,4369.102539,4298.333496,4299.230957,4317.05127,4324.743652,4304.487305,4302.94873,4624.871582,4596.410156,4470.897461,4549.743652,,,,,,,,,,,,,,,,,,,,,,,,,,,,,,,,,,,,,,,,,,,,,,,,,,,,,,,,,,,,,,,,,,,,,,
1769162030.290157,1769162030.29034,80.0,0.0,4352.94873,4323.461426,4460.512695,4372.563965,4304.487305,4306.025879,4321.410156,4326.153809,4304.487305,4304.615234,4635.256348,4602.820313,4472.94873,4555.769043,,,,,,,,,,,,,,,,,,,,,,,,,,,,,,,,,,,,,,,,,,,,,,,,,,,,,,,,,,,,,,,,,,,,,,
1769162030.297966,1769162030.298148,81.0,0.0,4350.128418,4324.615234,4458.461426,4375.256348,4307.179688,4310.0,4321.025879,4331.794922,4310.512695,4310.897461,4644.358887,4613.333496,4477.307617,4560.897461,,,,,,,,,,,,,,,,,,,,,,,,,,,,,,,,,,,,,,,,,,,,,,,,,,,,,,,,,,,,,,,,,,,,,,
1769162030.305774,1769162030.305857,82.0,0.0,4341.922852,4319.102539,4452.94873,4370.769043,4305.256348,4309.487305,4324.871582,4335.769043,4315.641113,4312.94873,4643.717773,4615.769043,4478.333496,4556.666504,,,,,,,,,,,,,,,,,,,,,,,,,,,,,,,,,,,,,,,,,,,,,,,,,,,,,,,,,,,,,,,,,,,,,,
1769162030.313583,1769162030.313665,83.0,0.0,4341.410156,4317.820313,4449.230957,4364.230957,4305.256348,4308.077148,4326.153809,4338.846191,4320.384766,4313.077148,4641.025879,4610.384766,4474.615234,4552.692383,,,,,,,,,,,,,,,,,,,,,,,,,,,,,,,,,,,,,,,,,,,,,,,,,,,,,,,,,,,,,,,,,,,,,,
1769162030.321391,1769162030.321473,84.0,0.0,4350.128418,4321.666504,4453.077148,4366.410156,4307.179688,4311.922852,4325.384766,4343.589844,4327.563965,4318.846191,4641.794922,4610.512695,4473.333496,4559.230957,,,,,,,,,,,,,,,,,,,,,,,,,,,,,,,,,,,,,,,,,,,,,,,,,,,,,,,,,,,,,,,,,,,,,,
1769162030.329199,1769162030.329282,85.0,0.0,4358.077148,4323.717773,4466.666504,4374.102539,4302.820313,4312.436035,4327.820313,4344.871582,4330.128418,4325.512695,4652.179688,4621.282227,4483.333496,4571.153809,,,,,,,,,,,,,,,,,,,,,,,,,,,,,,,,,,,,,,,,,,,,,,,,,,,,,,,,,,,,,,,,,,,,,,
1769162030.337008,1769162030.33699,86.0,0.0,4359.871582,4322.820313,4473.846191,4377.94873,4300.0,4308.846191,4328.461426,4340.256348,4326.666504,4323.717773,4657.692383,4627.307617,4491.153809,4574.230957,,,,,,,,,,,,,,,,,,,,,,,,,,,,,,,,,,,,,,,,,,,,,,,,,,,,,,,,,,,,,,,,,,,,,,
1769162030.344816,1769162030.344799,87.0,0.0,4354.615234,4323.461426,4465.384766,4377.436035,4306.410156,4312.05127,4326.025879,4335.0,4324.102539,4319.230957,4651.153809,4619.487305,4488.974121,4569.358887,,,,,,,,,,,,,,,,,,,,,,,,,,,,,,,,,,,,,,,,,,,,,,,,,,,,,,,,,,,,,,,,,,,,,,
1769162030.352625,1769162030.352408,88.0,0.0,4349.230957,4327.307617,4456.282227,4376.282227,4313.205078,4319.743652,4327.563965,4336.153809,4324.615234,4321.794922,4650.897461,4614.487305,4487.94873,4568.205078,,,,,,,,,,,,,,,,,,,,,,,,,,,,,,,,,,,,,,,,,,,,,,,,,,,,,,,,,,,,,,,,,,,,,,
1769162030.360433,1769162030.360216,89.0,0.0,4355.0,4326.282227,4463.205078,4373.589844,4311.025879,4321.666504,4330.128418,4342.820313,4326.282227,4324.743652,4656.410156,4622.179688,4485.641113,4569.358887,,,,,,,,,,,,,,,,,,,,,,,,,,,,,,,,,,,,,,,,,,,,,,,,,,,,,,,,,,,,,,,,,,,,,,
1769162030.368242,1769162030.367925,90.0,0.0,4362.307617,4320.384766,4474.358887,4373.461426,4307.436035,4316.922852,4329.871582,4343.205078,4325.0,4319.743652,4650.512695,4626.794922,4477.179688,4570.0,,,,,,,,,,,,,,,,,,,,,,,,,,,,,,,,,,,,,,,,,,,,,,,,,,,,,,,,,,,,,,,,,,,,,,
1769162030.37605,1769162030.375733,91.0,0.0,4359.871582,4319.487305,4474.743652,4376.538574,4308.974121,4311.410156,4325.641113,4338.846191,4321.666504,4310.897461,4642.692383,4620.0,4474.358887,4565.512695,,,,,,,,,,,,,,,,,,,,,,,,,,,,,,,,,,,,,,,,,,,,,,,,,,,,,,,,,,,,,,,,,,,,,,
1769162030.383859,1769162030.383741,92.0,0.0,4355.256348,4322.179688,4475.512695,4375.769043,4310.256348,4313.717773,4324.615234,4341.153809,4323.461426,4309.615234,4644.743652,4614.230957,4474.743652,4553.974121,,,,,,,,,,,,,,,,,,,,,,,,,,,,,,,,,,,,,,,,,,,,,,,,,,,,,,,,,,,,,,,,,,,,,,
1769162030.391667,1769162030.39155,93.0,0.0,4355.641113,4323.333496,4475.897461,4373.077148,4311.025879,4324.487305,4332.563965,4343.717773,4329.230957,4317.179688,4647.05127,4614.615234,4471.282227,4553.333496,,,,,,,,,,,,,,,,,,,,,,,,,,,,,,,,,,,,,,,,,,,,,,,,,,,,,,,,,,,,,,,,,,,,,,
1769162030.399475,1769162030.399458,94.0,0.0,4356.025879,4326.153809,4471.794922,4373.846191,4316.922852,4326.666504,4333.846191,4343.333496,4330.128418,4325.0,4652.179688,4616.282227,4481.666504,4565.0,0.657986,0.273269,0.269242,0.102123,0.089771,0.669123,0.518429,0.213334,0.087331,0.055634,0.264542,0.228296,0.240316,0.075285,0.07056,0.185776,0.33566,0.114231,0.057822,0.040297,0.216513,0.115271,0.070847,0.05111,0.049606,0.124597,0.164481,0.04069,0.076173,0.066628,0.075452,0.138499,0.047144,0.078268,0.085809,0.35234,0.133251,0.066932,0.090171,0.106635,0.319554,0.166453,0.069682,0.144687,0.072911,0.242545,0.404914,0.352507,0.211271,0.100442,0.143173,0.255063,0.166299,0.11723,0.105993,0.430557,0.504263,0.135465,0.102442,0.188136,0.284395,0.53982,0.286689,0.197822,0.151319,0.21458,0.216339,0.303557,0.118986,0.123582
1769162030.407284,1769162030.407266,95.0,0.0,4357.307617,4329.487305,4471.666504,4375.769043,4319.615234,4319.871582,4327.179688,4344.102539,4326.794922,4326.410156,4657.820313,4616.922852,4492.563965,4570.256348,,,,,,,,,,,,,,,,,,,,,,,,,,,,,,,,,,,,,,,,,,,,,,,,,,,,,,,,,,,,,,,,,,,,,,
1769162030.415092,1769162030.415275,96.0,0.0,4362.179688,4331.538574,4475.641113,4375.384766,4313.077148,4321.666504,4329.230957,4343.205078,4326.666504,4322.692383,4652.692383,4616.666504,4481.282227,4569.230957,,,,,,,,,,,,,,,,,,,,,,,,,,,,,,,,,,,,,,,,,,,,,,,,,,,,,,,,,,,,,,,,,,,,,,
1769162030.422901,1769162030.423083,97.0,0.0,4365.256348,4335.897461,4478.333496,4374.102539,4313.974121,4326.153809,4334.358887,4341.282227,4327.05127,4322.692383,4649.102539,4616.538574,4473.846191,4569.615234,,,,,,,,,,,,,,,,,,,,,,,,,,,,,,,,,,,,,,,,,,,,,,,,,,,,,,,,,,,,,,,,,,,,,,
1769162030.430709,1769162030.430792,98.0,0.0,4366.282227,4339.358887,4477.05127,4375.256348,4319.615234,4321.282227,4327.436035,4342.05127,4327.307617,4327.05127,4655.128418,4617.94873,4486.666504,4573.077148,,,,,,,,,,,,,,,,,,,,,,,,,,,,,,,,,,,,,,,,,,,,,,,,,,,,,,,,,,,,,,,,,,,,,,
1769162030.438518,1769162030.4386,99.0,0.0,4368.717773,4337.307617,4477.179688,4374.871582,4313.461426,4320.384766,4327.05127,4343.333496,4327.436035,4327.307617,4658.205078,4619.102539,4493.717773,4578.461426,,,,,,,,,,,,,,,,,,,,,,,,,,,,,,,,,,,,,,,,,,,,,,,,,,,,,,,,,,,,,,,,,,,,,,
1769162030.446326,1769162030.446608,100.0,0.0,4368.974121,4335.512695,4477.436035,4374.102539,4310.897461,4326.794922,4339.871582,4342.692383,4327.179688,4325.769043,4658.846191,4621.666504,4490.0,4582.563965,,,,,,,,,,,,,,,,,,,,,,,,,,,,,,,,,,,,,,,,,,,,,,,,,,,,,,,,,,,,,,,,,,,,,,
1769162030.454135,1769162030.454417,101.0,0.0,4364.871582,4336.666504,4476.282227,4375.769043,4321.410156,4326.410156,4340.256348,4345.128418,4332.436035,4330.384766,4664.230957,4628.077148,4493.846191,4585.897461,,,,,,,,,,,,,,,,,,,,,,,,,,,,,,,,,,,,,,,,,,,,,,,,,,,,,,,,,,,,,,,,,,,,,,
1769162030.461943,1769162030.462325,102.0,0.0,4363.846191,4338.589844,4481.025879,4380.512695,4325.897461,4325.897461,4331.538574,4348.717773,4336.410156,4331.794922,4662.307617,4628.846191,4493.974121,4587.05127,,,,,,,,,,,,,,,,,,,,,,,,,,,,,,,,,,,,,,,,,,,,,,,,,,,,,,,,,,,,,,,,,,,,,,
1769162030.469751,1769162030.470134,103.0,0.0,4372.94873,4343.974121,4490.384766,4389.871582,4324.487305,4330.128418,4331.922852,4350.512695,4334.358887,4327.307617,4658.077148,4625.897461,4487.179688,4585.512695,,,,,,,,,,,,,,,,,,,,,,,,,,,,,,,,,,,,,,,,,,,,,,,,,,,,,,,,,,,,,,,,,,,,,,
1769162030.47756,1769162030.478142,104.0,0.0,4374.871582,4342.179688,4489.358887,4393.589844,4326.410156,4333.589844,4340.384766,4354.102539,4338.077148,4330.384766,4662.820313,4630.128418,4489.871582,4587.05127,,,,,,,,,,,,,,,,,,,,,,,,,,,,,,,,,,,,,,,,,,,,,,,,,,,,,,,,,,,,,,,,,,,,,,
1769162030.485368,1769162030.48595,105.0,0.0,4362.563965,4330.512695,4477.05127,4385.0,4327.436035,4336.410156,4341.153809,4358.077148,4342.820313,4333.461426,4666.025879,4632.563965,4488.205078,4592.94873,,,,,,,,,,,,,,,,,,,,,,,,,,,,,,,,,,,,,,,,,,,,,,,,,,,,,,,,,,,,,,,,,,,,,,
1769162030.493177,1769162030.493659,106.0,0.0,4356.794922,4328.333496,4473.077148,4377.563965,4327.563965,4336.538574,4335.769043,4358.974121,4340.256348,4328.717773,4663.077148,4629.358887,4476.666504,4595.641113,,,,,,,,,,,,,,,,,,,,,,,,,,,,,,,,,,,,,,,,,,,,,,,,,,,,,,,,,,,,,,,,,,,,,,
1769162030.500985,1769162030.501467,107.0,0.0,4364.487305,4332.692383,4483.077148,4382.692383,4327.179688,4333.974121,4336.153809,4357.179688,4340.0,4329.102539,4662.692383,4631.410156,4480.897461,4596.794922,,,,,,,,,,,,,,,,,,,,,,,,,,,,,,,,,,,,,,,,,,,,,,,,,,,,,,,,,,,,,,,,,,,,,,
1769162030.508794,1769162030.509076,108.0,0.0,4369.230957,4329.230957,4490.256348,4387.563965,4327.692383,4336.666504,4337.179688,4355.769043,4342.820313,4333.205078,4665.897461,4636.410156,4491.282227,4598.333496,,,,,,,,,,,,,,,,,,,,,,,,,,,,,,,,,,,,,,,,,,,,,,,,,,,,,,,,,,,,,,,,,,,,,,
1769162030.516602,1769162030.516884,109.0,0.0,4365.384766,4324.358887,4484.743652,4386.794922,4327.563965,4339.487305,4336.153809,4355.512695,4339.743652,4328.333496,4663.333496,4631.153809,4479.102539,4589.615234,,,,,,,,,,,,,,,,,,,,,,,,,,,,,,,,,,,,,,,,,,,,,,,,,,,,,,,,,,,,,,,,,,,,,,
1769162030.524411,1769162030.524793,110.0,0.0,4365.0,4327.179688,4476.538574,4386.922852,4325.897461,4337.436035,4340.256348,4358.846191,4340.0,4328.589844,4660.769043,4625.128418,4472.563965,4585.512695,0.570921,0.297126,0.234312,0.103541,0.093273,0.643346,0.510802,0.164111,0.099695,0.05308,0.268359,0.23083,0.189932,0.069732,0.07151,0.230318,0.352341,0.129423,0.073665,0.041052,0.221239,0.116324,0.075802,0.046478,0.052457,0.131139,0.128491,0.042319,0.069993,0.070118,0.057702,0.087799,0.028562,0.065201,0.076189,0.410033,0.170679,0.082257,0.100978,0.124309,0.341193,0.198106,0.079845,0.138503,0.073449,0.258845,0.46184,0.366191,0.181872,0.094889,0.137965,0.267836,0.1615,0.108213,0.105903,0.381139,0.437504,0.111683,0.084224,0.194531,0.189843,0.544699,0.292742,0.189069,0.153444,0.209741,0.303508,0.246209,0.122371,0.125655
1769162030.532219,1769162030.532601,111.0,0.0,4368.461426,4331.282227,4480.769043,4386.666504,4329.358887,4338.846191,4344.743652,4362.820313,4345.128418,4334.743652,4665.256348,4629.743652,4485.769043,4593.333496,,,,,,,,,,,,,,,,,,,,,,,,,,,,,,,,,,,,,,,,,,,,,,,,,,,,,,,,,,,,,,,,,,,,,,
1769162030.540028,1769162030.54021,112.0,0.0,4372.307617,4336.153809,4490.0,4391.538574,4332.94873,4337.692383,4339.358887,4360.384766,4344.487305,4331.282227,4667.94873,4632.94873,4485.769043,4595.0,,,,,,,,,,,,,,,,,,,,,,,,,,,,,,,,,,,,,,,,,,,,,,,,,,,,,,,,,,,,,,,,,,,,,,
1769162030.547836,1769162030.548018,113.0,0.0,4373.717773,4337.820313,4487.563965,4395.384766,4328.461426,4331.410156,4336.794922,4355.384766,4340.897461,4326.282227,4660.0,4625.128418,4474.230957,4585.641113,,,,,,,,,,,,,,,,,,,,,,,,,,,,,,,,,,,,,,,,,,,,,,,,,,,,,,,,,,,,,,,,,,,,,,
1769162030.555644,1769162030.555727,114.0,0.0,4368.077148,4330.512695,4477.05127,4389.615234,4324.871582,4331.025879,4341.410156,4354.102539,4339.743652,4326.922852,4651.666504,4615.641113,4471.282227,4576.410156,,,,,,,,,,,,,,,,,,,,,,,,,,,,,,,,,,,,,,,,,,,,,,,,,,,,,,,,,,,,,,,,,,,,,,
1769162030.563453,1769162030.563535,115.0,0.0,4359.615234,4328.461426,4472.820313,4386.282227,4330.897461,4337.692383,4344.230957,4358.846191,4343.461426,4329.102539,4656.025879,4618.205078,4473.974121,4576.410156,,,,,,,,,,,,,,,,,,,,,,,,,,,,,,,,,,,,,,,,,,,,,,,,,,,,,,,,,,,,,,,,,,,,,,
1769162030.571261,1769162030.571144,116.0,0.0,4360.769043,4336.666504,4481.153809,4391.282227,4334.615234,4343.461426,4344.358887,4360.128418,4344.871582,4333.461426,4666.410156,4630.897461,4483.461426,4587.692383,,,,,,,,,,,,,,,,,,,,,,,,,,,,,,,,,,,,,,,,,,,,,,,,,,,,,,,,,,,,,,,,,,,,,,
1769162030.57907,1769162030.578952,117.0,0.0,4376.153809,4343.717773,4492.563965,4397.307617,4333.205078,4337.05127,4341.794922,4355.256348,4340.897461,4339.358887,4674.230957,4641.666504,4495.384766,4602.94873,,,,,,,,,,,,,,,,,,,,,,,,,,,,,,,,,,,,,,,,,,,,,,,,,,,,,,,,,,,,,,,,,,,,,,
1769162030.586878,1769162030.586861,118.0,0.0,4383.974121,4343.717773,4493.077148,4400.0,4335.769043,4325.769043,4340.512695,4358.846191,4344.615234,4339.102539,4675.128418,4642.94873,4494.487305,4605.0,,,,,,,,,,,,,,,,,,,,,,,,,,,,,,,,,,,,,,,,,,,,,,,,,,,,,,,,,,,,,,,,,,,,,,
1769162030.594687,1769162030.594669,119.0,0.0,4379.230957,4345.641113,4491.153809,4402.94873,4338.717773,4329.871582,4343.461426,4365.256348,4349.487305,4337.692383,4673.077148,4641.666504,4489.358887,4597.307617,,,,,,,,,,,,,,,,,,,,,,,,,,,,,,,,,,,,,,,,,,,,,,,,,,,,,,,,,,,,,,,,,,,,,,
1769162030.602495,1769162030.602677,120.0,0.0,4382.692383,4350.256348,4500.641113,4407.179688,4338.077148,4340.769043,4343.974121,4361.153809,4345.641113,4338.974121,4676.282227,4645.897461,4492.563965,4601.025879,,,,,,,,,,,,,,,,,,,,,,,,,,,,,,,,,,,,,,,,,,,,,,,,,,,,,,,,,,,,,,,,,,,,,,
1769162030.610304,1769162030.610486,121.0,0.0,4390.384766,4347.563965,4505.384766,4410.0,4334.615234,4335.384766,4341.666504,4355.512695,4344.102539,4336.666504,4678.205078,4648.717773,4493.589844,4609.487305,,,,,,,,,,,,,,,,,,,,,,,,,,,,,,,,,,,,,,,,,,,,,,,,,,,,,,,,,,,,,,,,,,,,,,
1769162030.618112,1769162030.618394,122.0,0.0,4389.487305,4342.94873,4494.230957,4405.769043,4333.974121,4330.256348,4346.666504,4359.871582,4348.205078,4333.333496,4673.974121,4647.563965,4490.512695,4607.307617,,,,,,,,,,,,,,,,,,,,,,,,,,,,,,,,,,,,,,,,,,,,,,,,,,,,,,,,,,,,,,,,,,,,,,
1769162030.625921,1769162030.626203,123.0,0.0,4385.0,4341.794922,4490.641113,4402.692383,4337.692383,4340.0,4352.563965,4365.641113,4352.05127,4334.871582,4671.794922,4645.384766,4488.077148,4599.615234,,,,,,,,,,,,,,,,,,,,,,,,,,,,,,,,,,,,,,,,,,,,,,,,,,,,,,,,,,,,,,,,,,,,,,
1769162030.633729,1769162030.633811,124.0,0.0,4381.922852,4342.05127,4500.128418,4408.974121,4339.743652,4343.846191,4347.820313,4369.230957,4356.410156,4343.333496,4676.410156,4646.794922,4486.538574,4599.487305,,,,,,,,,,,,,,,,,,,,,,,,,,,,,,,,,,,,,,,,,,,,,,,,,,,,,,,,,,,,,,,,,,,,,,
1769162030.641538,1769162030.64162,125.0,0.0,4380.0,4343.589844,4505.128418,4413.077148,4339.102539,4340.384766,4343.205078,4371.282227,4358.589844,4341.282227,4679.230957,4653.205078,4487.692383,4602.307617,,,,,,,,,,,,,,,,,,,,,,,,,,,,,,,,,,,,,,,,,,,,,,,,,,,,,,,,,,,,,,,,,,,,,,
1769162030.649346,1769162030.649328,126.0,0.0,4386.922852,4350.769043,4508.974121,4411.538574,4338.461426,4339.615234,4340.769043,4366.282227,4356.282227,4331.538574,4678.846191,4656.538574,4491.410156,4603.077148,0.558231,0.315973,0.201993,0.109654,0.10315,0.698059,0.485621,0.130263,0.10851,0.050403,0.277143,0.226737,0.140062,0.07731,0.07453,0.283347,0.332444,0.140098,0.087653,0.043937,0.245029,0.114686,0.079521,0.046138,0.055892,0.150916,0.100822,0.045131,0.069802,0.077336,0.052313,0.066115,0.023683,0.061187,0.079167,0.451255,0.223165,0.104264,0.112813,0.143105,0.344106,0.23329,0.11267,0.129195,0.079959,0.26911,0.503207,0.344804,0.150015,0.092404,0.167088,0.297031,0.158569,0.102698,0.106003,0.384704,0.385347,0.098716,0.075821,0.193646,0.174068,0.51645,0.285445,0.178409,0.150824,0.289777,0.439368,0.19663,0.130008,0.127379
1769162030.657154,1769162030.657137,127.0,0.0,4392.692383,4355.128418,4508.077148,4412.05127,4338.205078,4339.743652,4343.589844,4363.205078,4356.794922,4338.077148,4678.333496,4650.512695,4492.436035,4603.333496,,,,,,,,,,,,,,,,,,,,,,,,,,,,,,,,,,,,,,,,,,,,,,,,,,,,,,,,,,,,,,,,,,,,,,
1769162030.664963,1769162030.665145,0.0,0.0,4385.512695,4350.512695,4494.743652,4412.307617,4338.589844,4343.077148,4355.512695,4371.538574,4358.077148,4350.128418,4676.538574,4646.153809,4490.0,4599.358887,,,,,,,,,,,,,,,,,,,,,,,,,,,,,,,,,,,,,,,,,,,,,,,,,,,,,,,,,,,,,,,,,,,,,,
1769162030.672771,1769162030.672953,1.0,0.0,4384.102539,4351.025879,4494.230957,4411.282227,4341.794922,4344.615234,4354.615234,4381.538574,4362.563965,4351.153809,4681.794922,4656.282227,4492.820313,4599.102539,,,,,,,,,,,,,,,,,,,,,,,,,,,,,,,,,,,,,,,,,,,,,,,,,,,,,,,,,,,,,,,,,,,,,,
1769162030.68058,1769162030.680862,2.0,0.0,4391.538574,4353.205078,4505.256348,4410.769043,4342.94873,4340.0,4342.94873,4384.487305,4372.692383,4354.102539,4691.922852,4666.666504,4496.666504,4604.230957,,,,,,,,,,,,,,,,,,,,,,,,,,,,,,,,,,,,,,,,,,,,,,,,,,,,,,,,,,,,,,,,,,,,,,
1769162030.688388,1769162030.68867,3.0,0.0,4384.102539,4347.436035,4500.0,4411.153809,4340.384766,4342.05127,4346.410156,4380.641113,4369.871582,4359.743652,4691.410156,4662.307617,4492.179688,4603.333496,,,,,,,,,,,,,,,,,,,,,,,,,,,,,,,,,,,,,,,,,,,,,,,,,,,,,,,,,,,,,,,,,,,,,,
1769162030.696197,1769162030.696279,4.0,0.0,4371.922852,4345.384766,4490.128418,4410.641113,4339.743652,4347.436035,4354.487305,4376.794922,4358.589844,4354.102539,4686.025879,4654.743652,4490.128418,4600.128418,,,,,,,,,,,,,,,,,,,,,,,,,,,,,,,,,,,,,,,,,,,,,,,,,,,,,,,,,,,,,,,,,,,,,,
1769162030.704005,1769162030.704087,5.0,0.0,4375.641113,4349.358887,4490.769043,4409.743652,4340.641113,4343.846191,4350.128418,4376.666504,4357.563965,4348.077148,4685.769043,4654.487305,4493.205078,4600.641113,,,,,,,,,,,,,,,,,,,,,,,,,,,,,,,,,,,,,,,,,,,,,,,,,,,,,,,,,,,,,,,,,,,,,,
1769162030.711814,1769162030.711796,6.0,0.0,4382.05127,4350.512695,4495.256348,4410.897461,4341.153809,4343.846191,4349.871582,4380.512695,4362.692383,4352.692383,4685.769043,4657.94873,4490.897461,4599.102539,,,,,,,,,,,,,,,,,,,,,,,,,,,,,,,,,,,,,,,,,,,,,,,,,,,,,,,,,,,,,,,,,,,,,,
1769162030.719622,1769162030.719604,7.0,0.0,4382.307617,4353.846191,4502.05127,4413.333496,4341.153809,4352.436035,4357.436035,4388.717773,4371.538574,4358.333496,4691.410156,4665.897461,4495.769043,4602.94873,,,,,,,,,,,,,,,,,,,,,,,,,,,,,,,,,,,,,,,,,,,,,,,,,,,,,,,,,,,,,,,,,,,,,,
1769162030.72743,1769162030.727613,8.0,0.0,4381.410156,4352.563965,4504.487305,4414.230957,4340.769043,4351.922852,4357.563965,4391.153809,4378.461426,4360.769043,4700.256348,4672.563965,4506.282227,4607.692383,,,,,,,,,,,,,,,,,,,,,,,,,,,,,,,,,,,,,,,,,,,,,,,,,,,,,,,,,,,,,,,,,,,,,,
1769162030.735239,1769162030.735421,9.0,0.0,4380.256348,4344.487305,4499.743652,4413.846191,4341.410156,4345.512695,4354.615234,4386.794922,4375.897461,4357.563965,4697.563965,4666.922852,4502.820313,4604.230957,,,,,,,,,,,,,,,,,,,,,,,,,,,,,,,,,,,,,,,,,,,,,,,,,,,,,,,,,,,,,,,,,,,,,,
1769162030.743047,1769162030.74313,10.0,0.0,4381.153809,4345.641113,4501.922852,4413.846191,4341.025879,4345.384766,4354.871582,4383.846191,4370.769043,4352.94873,4691.922852,4660.256348,4492.436035,4605.384766,,,,,,,,,,,,,,,,,,,,,,,,,,,,,,,,,,,,,,,,,,,,,,,,,,,,,,,,,,,,,,,,,,,,,,
1769162030.750856,1769162030.750938,11.0,0.0,4382.179688,4350.384766,4507.436035,4413.846191,4339.743652,4344.102539,4356.153809,4383.974121,4370.769043,4353.974121,4695.512695,4662.820313,4492.563965,4612.692383,,,,,,,,,,,,,,,,,,,,,,,,,,,,,,,,,,,,,,,,,,,,,,,,,,,,,,,,,,,,,,,,,,,,,,
1769162030.758664,1769162030.758547,12.0,0.0,4382.820313,4351.666504,4507.436035,4414.230957,4339.487305,4342.307617,4352.307617,4386.538574,4370.384766,4356.410156,4697.692383,4665.769043,4498.846191,4613.333496,,,,,,,,,,,,,,,,,,,,,,,,,,,,,,,,,,,,,,,,,,,,,,,,,,,,,,,,,,,,,,,,,,,,,,
1769162030.766473,1769162030.766355,13.0,0.0,4385.256348,4355.641113,4508.589844,4414.358887,4342.436035,4347.179688,4348.461426,4389.615234,4368.461426,4352.563965,4695.128418,4666.410156,4500.0,4613.461426,,,,,,,,,,,,,,,,,,,,,,,,,,,,,,,,,,,,,,,,,,,,,,,,,,,,,,,,,,,,,,,,,,,,,,
1769162030.774281,1769162030.774064,14.0,0.0,4384.743652,4358.333496,4508.717773,4413.717773,4343.846191,4346.922852,4352.436035,4388.077148,4369.871582,4348.589844,4696.410156,4665.384766,4501.410156,4617.692383,0.595296,0.324286,0.185248,0.120748,0.117388,0.814719,0.449933,0.113261,0.110356,0.047942,0.301897,0.215286,0.104165,0.107452,0.081514,0.335882,0.28325,0.144277,0.098516,0.047218,0.28697,0.109446,0.079461,0.051733,0.059414,0.179269,0.084026,0.04727,0.077815,0.087665,0.058052,0.067,0.028119,0.065463,0.093665,0.482322,0.285322,0.13531,0.12038,0.15566,0.346256,0.26355,0.171823,0.120228,0.08969,0.27062,0.533276,0.297438,0.122551,0.092292,0.240972,0.35377,0.161693,0.102618,0.108118,0.450745,0.366459,0.100407,0.077673,0.188188,0.229427,0.486188,0.267182,0.169009,0.146314,0.463233,0.639319,0.167255,0.140724,0.131936
1769162030.78209,1769162030.781872,15.0,0.0,4382.179688,4355.128418,4505.769043,4413.589844,4342.94873,4343.461426,4356.282227,4384.230957,4370.897461,4350.512695,4696.538574,4663.333496,4504.871582,4615.128418,,,,,,,,,,,,,,,,,,,,,,,,,,,,,,,,,,,,,,,,,,,,,,,,,,,,,,,,,,,,,,,,,,,,,,
1769162030.789898,1769162030.78988,16.0,0.0,4387.436035,4354.615234,4506.282227,4414.358887,4345.256348,4348.846191,4357.436035,4383.974121,4371.538574,4350.384766,4695.256348,4667.436035,4507.307617,4612.436035,,,,,,,,,,,,,,,,,,,,,,,,,,,,,,,,,,,,,,,,,,,,,,,,,,,,,,,,,,,,,,,,,,,,,,
1769162030.797706,1769162030.797689,17.0,0.0,4391.666504,4358.589844,4506.794922,4417.307617,4349.743652,4353.589844,4357.563965,4379.102539,4370.128418,4348.205078,4697.94873,4671.794922,4507.692383,4618.205078,,,,,,,,,,,,,,,,,,,,,,,,,,,,,,,,,,,,,,,,,,,,,,,,,,,,,,,,,,,,,,,,,,,,,,
1769162030.805515,1769162030.805597,18.0,0.0,4388.077148,4359.358887,4505.897461,4418.846191,4350.769043,4348.589844,4357.820313,4380.769043,4368.461426,4352.692383,4701.153809,4671.282227,4507.563965,4620.0,,,,,,,,,,,,,,,,,,,,,,,,,,,,,,,,,,,,,,,,,,,,,,,,,,,,,,,,,,,,,,,,,,,,,,
1769162030.813323,1769162030.813406,19.0,0.0,4386.410156,4356.794922,4506.153809,4417.563965,4349.102539,4348.333496,4362.179688,4395.256348,4376.666504,4357.692383,4702.692383,4674.487305,4510.512695,4617.05127,,,,,,,,,,,,,,,,,,,,,,,,,,,,,,,,,,,,,,,,,,,,,,,,,,,,,,,,,,,,,,,,,,,,,,
1769162030.821132,1769162030.821414,20.0,0.0,4388.846191,4358.461426,4507.307617,4418.717773,4349.743652,4352.436035,4363.205078,4397.563965,4381.153809,4356.153809,4704.743652,4679.230957,4514.871582,4619.743652,,,,,,,,,,,,,,,,,,,,,,,,,,,,,,,,,,,,,,,,,,,,,,,,,,,,,,,,,,,,,,,,,,,,,,
1769162030.82894,1769162030.829222,21.0,0.0,4389.487305,4362.820313,4509.615234,4419.871582,4351.410156,4350.769043,4357.692383,4387.436035,4375.769043,4358.077148,4706.538574,4678.846191,4516.666504,4624.743652,,,,,,,,,,,,,,,,,,,,,,,,,,,,,,,,,,,,,,,,,,,,,,,,,,,,,,,,,,,,,,,,,,,,,,
1769162030.836749,1769162030.837131,22.0,0.0,4389.358887,4358.717773,4508.846191,4416.794922,4350.256348,4353.846191,4359.358887,4389.230957,4373.077148,4357.05127,4705.0,4674.102539,4514.230957,4623.589844,,,,,,,,,,,,,,,,,,,,,,,,,,,,,,,,,,,,,,,,,,,,,,,,,,,,,,,,,,,,,,,,,,,,,,
1769162030.844557,1769162030.844939,23.0,0.0,4391.282227,4356.410156,4506.538574,4419.230957,4349.871582,4360.256348,4364.871582,4397.820313,4380.256348,4351.922852,4708.205078,4674.871582,4517.820313,4626.282227,,,,,,,,,,,,,,,,,,,,,,,,,,,,,,,,,,,,,,,,,,,,,,,,,,,,,,,,,,,,,,,,,,,,,,
1769162030.852366,1769162030.852947,24.0,0.0,4394.487305,4365.512695,4511.153809,4425.769043,4352.05127,4357.94873,4361.410156,4397.692383,4384.230957,4358.717773,4713.461426,4683.461426,4524.743652,4630.256348,,,,,,,,,,,,,,,,,,,,,,,,,,,,,,,,,,,,,,,,,,,,,,,,,,,,,,,,,,,,,,,,,,,,,,
1769162030.860174,1769162030.860756,25.0,0.0,4399.615234,4373.077148,4521.410156,4427.05127,4355.641113,4352.692383,4356.153809,4396.025879,4378.461426,4367.179688,4712.692383,4686.794922,4524.102539,4627.692383,,,,,,,,,,,,,,,,,,,,,,,,,,,,,,,,,,,,,,,,,,,,,,,,,,,,,,,,,,,,,,,,,,,,,,
1769162030.867983,1769162030.868464,26.0,0.0,4404.487305,4374.230957,4526.410156,4429.487305,4357.179688,4352.563965,4356.922852,4394.743652,4377.820313,4363.589844,4711.025879,4681.538574,4523.205078,4629.358887,,,,,,,,,,,,,,,,,,,,,,,,,,,,,,,,,,,,,,,,,,,,,,,,,,,,,,,,,,,,,,,,,,,,,,
1769162030.875791,1769162030.876273,27.0,0.0,4401.538574,4372.820313,4518.333496,4430.256348,4354.102539,4356.666504,4360.128418,4389.358887,4378.846191,4356.410156,4708.589844,4676.025879,4522.692383,4628.205078,,,,,,,,,,,,,,,,,,,,,,,,,,,,,,,,,,,,,,,,,,,,,,,,,,,,,,,,,,,,,,,,,,,,,,
1769162030.883599,1769162030.884081,28.0,0.0,4394.743652,4371.153809,4511.410156,4424.871582,4351.794922,4355.512695,4357.436035,4387.563965,4376.282227,4356.666504,4705.0,4674.487305,4519.102539,4619.358887,,,,,,,,,,,,,,,,,,,,,,,,,,,,,,,,,,,,,,,,,,,,,,,,,,,,,,,,,,,,,,,,,,,,,,
1769162030.891408,1769162030.89189,29.0,0.0,4399.358887,4377.307617,4518.589844,4431.794922,4354.871582,4346.025879,4347.820313,4388.846191,4376.794922,4362.179688,4708.589844,4678.974121,4523.589844,4627.179688,,,,,,,,,,,,,,,,,,,,,,,,,,,,,,,,,,,,,,,,,,,,,,,,,,,,,,,,,,,,,,,,,,,,,,
1769162030.899216,1769162030.899598,30.0,0.0,4407.820313,4381.282227,4527.94873,4442.307617,4357.563965,4345.0,4347.94873,4388.461426,4379.743652,4362.692383,4710.769043,4682.307617,4523.077148,4636.666504,0.636838,0.317599,0.192701,0.134978,0.134316,0.950095,0.414522,0.109201,0.105828,0.046953,0.331397,0.196562,0.089248,0.162092,0.095107,0.367656,0.22174,0.144835,0.107762,0.050417,0.321732,0.101325,0.074459,0.063373,0.062523,0.208325,0.077163,0.04916,0.093985,0.100026,0.068317,0.077876,0.035427,0.075113,0.115154,0.51188,0.346076,0.173133,0.121734,0.15675,0.357894,0.282046,0.250366,0.114269,0.098098,0.278897,0.562378,0.243948,0.104676,0.093201,0.34596,0.440717,0.173787,0.110127,0.113286,0.544386,0.390532,0.116924,0.087638,0.182491,0.345153,0.483947,0.254088,0.165859,0.144946,0.733322,0.888791,0.170333,0.155761,0.141424
1769162030.907025,1769162030.907407,31.0,0.0,4400.0,4373.717773,4518.974121,4434.102539,4356.794922,4355.128418,4358.205078,4392.563965,4380.769043,4356.794922,4702.307617,4674.102539,4511.025879,4621.922852,,,,,,,,,,,,,,,,,,,,,,,,,,,,,,,,,,,,,,,,,,,,,,,,,,,,,,,,,,,,,,,,,,,,,,
1769162030.914833,1769162030.915415,32.0,0.0,4392.692383,4372.820313,4506.794922,4424.102539,4356.666504,4355.897461,4358.717773,4396.153809,4382.307617,4357.94873,4702.563965,4671.922852,4509.358887,4616.666504,,,,,,,,,,,,,,,,,,,,,,,,,,,,,,,,,,,,,,,,,,,,,,,,,,,,,,,,,,,,,,,,,,,,,,
1769162030.922642,1769162030.923223,33.0,0.0,4402.179688,4380.256348,4512.563965,4431.282227,4357.05127,4350.641113,4355.256348,4394.871582,4389.230957,4371.282227,4716.538574,4687.179688,4524.871582,4637.563965,,,,,,,,,,,,,,,,,,,,,,,,,,,,,,,,,,,,,,,,,,,,,,,,,,,,,,,,,,,,,,,,,,,,,,
1769162030.93045,1769162030.931132,34.0,0.0,4409.230957,4382.94873,4524.102539,4442.692383,4355.384766,4354.102539,4360.512695,4395.897461,4391.794922,4375.641113,4724.358887,4694.871582,4533.333496,4645.256348,,,,,,,,,,,,,,,,,,,,,,,,,,,,,,,,,,,,,,,,,,,,,,,,,,,,,,,,,,,,,,,,,,,,,,
1769162030.938259,1769162030.93894,35.0,0.0,4406.025879,4382.692383,4527.94873,4442.307617,4355.641113,4356.794922,4362.820313,4394.871582,4388.717773,4367.05127,4721.538574,4691.025879,4530.128418,4636.922852,,,,,,,,,,,,,,,,,,,,,,,,,,,,,,,,,,,,,,,,,,,,,,,,,,,,,,,,,,,,,,,,,,,,,,
1769162030.946067,1769162030.946549,36.0,0.0,4399.615234,4378.205078,4520.384766,4431.922852,4357.563965,4357.94873,4365.769043,4393.333496,4382.436035,4359.102539,4712.692383,4685.0,4524.230957,4633.461426,,,,,,,,,,,,,,,,,,,,,,,,,,,,,,,,,,,,,,,,,,,,,,,,,,,,,,,,,,,,,,,,,,,,,,
1769162030.953875,1769162030.954357,37.0,0.0,4395.641113,4371.282227,4514.102539,4425.384766,4356.666504,4359.487305,4367.94873,4393.333496,4378.077148,4356.410156,4705.897461,4678.974121,4520.897461,4632.307617,,,,,,,,,,,,,,,,,,,,,,,,,,,,,,,,,,,,,,,,,,,,,,,,,,,,,,,,,,,,,,,,,,,,,,
1769162030.961684,1769162030.962066,38.0,0.0,4401.922852,4376.794922,4517.179688,4431.410156,4357.820313,4349.358887,4357.05127,4391.153809,4387.05127,4362.05127,4714.230957,4681.794922,4530.512695,4634.743652,,,,,,,,,,,,,,,,,,,,,,,,,,,,,,,,,,,,,,,,,,,,,,,,,,,,,,,,,,,,,,,,,,,,,,
1769162030.969492,1769162030.969874,39.0,0.0,4407.436035,4382.563965,4517.179688,4435.897461,4361.538574,4342.179688,4349.615234,4390.384766,4394.615234,4369.358887,4720.384766,4685.128418,4538.333496,4638.717773,,,,,,,,,,,,,,,,,,,,,,,,,,,,,,,,,,,,,,,,,,,,,,,,,,,,,,,,,,,,,,,,,,,,,,
1769162030.977301,1769162030.977882,40.0,0.0,4399.615234,4374.871582,4509.358887,4429.487305,4361.025879,4349.871582,4355.512695,4394.230957,4388.974121,4370.256348,4712.692383,4677.307617,4527.179688,4632.563965,,,,,,,,,,,,,,,,,,,,,,,,,,,,,,,,,,,,,,,,,,,,,,,,,,,,,,,,,,,,,,,,,,,,,,
1769162030.985109,1769162030.985691,41.0,0.0,4396.538574,4373.974121,4504.487305,4427.05127,4357.692383,4353.333496,4358.205078,4395.128418,4385.256348,4362.05127,4712.436035,4674.871582,4523.205078,4625.897461,,,,,,,,,,,,,,,,,,,,,,,,,,,,,,,,,,,,,,,,,,,,,,,,,,,,,,,,,,,,,,,,,,,,,,
1769162030.992918,1769162030.993599,42.0,0.0,4403.589844,4381.410156,4509.487305,4431.794922,4358.974121,4346.794922,4355.128418,4394.487305,4389.871582,4357.563965,4716.538574,4680.769043,4533.461426,4628.077148,,,,,,,,,,,,,,,,,,,,,,,,,,,,,,,,,,,,,,,,,,,,,,,,,,,,,,,,,,,,,,,,,,,,,,
1769162031.000726,1769162031.001408,43.0,0.0,4403.333496,4380.641113,4513.589844,4435.128418,4360.897461,4347.05127,4358.077148,4397.820313,4390.0,4364.743652,4712.563965,4680.769043,4533.333496,4632.692383,,,,,,,,,,,,,,,,,,,,,,,,,,,,,,,,,,,,,,,,,,,,,,,,,,,,,,,,,,,,,,,,,,,,,,
1769162031.008535,1769162031.009416,44.0,0.0,4404.615234,4377.94873,4512.179688,4437.94873,4359.615234,4355.128418,4361.153809,4397.820313,4386.794922,4368.589844,4711.538574,4676.794922,4527.179688,4631.282227,,,,,,,,,,,,,,,,,,,,,,,,,,,,,,,,,,,,,,,,,,,,,,,,,,,,,,,,,,,,,,,,,,,,,,
1769162031.016343,1769162031.017224,45.0,0.0,4411.666504,4381.410156,4510.769043,4439.230957,4359.102539,4357.820313,4358.461426,4397.179688,4389.487305,4364.871582,4717.179688,4677.563965,4532.820313,4629.743652,,,,,,,,,,,,,,,,,,,,,,,,,,,,,,,,,,,,,,,,,,,,,,,,,,,,,,,,,,,,,,,,,,,,,,
1769162031.024152,1769162031.025133,46.0,0.0,4411.410156,4383.077148,4517.179688,4436.922852,4359.358887,4357.820313,4358.205078,4399.871582,4389.871582,4366.410156,4719.358887,4684.230957,4536.282227,4636.282227,0.683367,0.297426,0.225039,0.14964,0.152279,1.07232,0.387519,0.112005,0.100236,0.04879,0.386968,0.175047,0.094909,0.233854,0.116985,0.385532,0.165152,0.145358,0.117176,0.053612,0.344673,0.091931,0.064932,0.078468,0.064733,0.238721,0.078132,0.052209,0.114653,0.113172,0.08677,0.08942,0.041528,0.086532,0.137562,0.543984,0.391442,0.209603,0.121298,0.145907,0.390969,0.2845,0.329378,0.113518,0.101124,0.289965,0.594058,0.201662,0.098875,0.094186,0.460581,0.543639,0.192119,0.126094,0.120774,0.666827,0.448064,0.143072,0.104712,0.17983,0.489918,0.520164,0.258886,0.171577,0.150647,1.039904,1.140546,0.204866,0.175136,0.155325
1769162031.03196,1769162031.032941,47.0,0.0,4410.512695,4381.538574,4525.769043,4435.0,4358.333496,4359.230957,4360.0,4398.846191,4387.436035,4368.589844,4717.563965,4687.563965,4530.384766,4642.05127,,,,,,,,,,,,,,,,,,,,,,,,,,,,,,,,,,,,,,,,,,,,,,,,,,,,,,,,,,,,,,,,,,,,,,
1769162031.039769,1769162031.04065,48.0,0.0,4409.743652,4377.94873,4520.0,4434.615234,4357.820313,4357.820313,4360.256348,4395.897461,4389.615234,4364.102539,4712.94873,4682.179688,4525.897461,4635.384766,,,,,,,,,,,,,,,,,,,,,,,,,,,,,,,,,,,,,,,,,,,,,,,,,,,,,,,,,,,,,,,,,,,,,,
1769162031.047577,1769162031.048458,49.0,0.0,4402.94873,4374.102539,4508.974121,4433.205078,4357.179688,4357.563965,4359.230957,4396.922852,4388.589844,4362.307617,4709.358887,4675.128418,4523.717773,4627.436035,,,,,,,,,,,,,,,,,,,,,,,,,,,,,,,,,,,,,,,,,,,,,,,,,,,,,,,,,,,,,,,,,,,,,,
1769162031.055385,1769162031.056366,50.0,0.0,4401.153809,4375.641113,4507.820313,4434.615234,4357.820313,4358.717773,4359.230957,4396.538574,4381.922852,4364.487305,4713.717773,4677.307617,4525.384766,4631.025879,,,,,,,,,,,,,,,,,,,,,,,,,,,,,,,,,,,,,,,,,,,,,,,,,,,,,,,,,,,,,,,,,,,,,,
1769162031.063194,1769162031.064175,51.0,0.0,4405.128418,4374.743652,4511.794922,4436.153809,4357.563965,4354.230957,4357.94873,4395.0,4384.615234,4367.820313,4718.846191,4684.102539,4532.820313,4639.102539,,,,,,,,,,,,,,,,,,,,,,,,,,,,,,,,,,,,,,,,,,,,,,,,,,,,,,,,,,,,,,,,,,,,,,
1769162031.071002,1769162031.071784,52.0,0.0,4405.512695,4371.282227,4515.897461,4435.512695,4356.922852,4346.794922,4355.256348,4400.769043,4397.820313,4375.512695,4723.461426,4689.230957,4541.282227,4647.820313,,,,,,,,,,,,,,,,,,,,,,,,,,,,,,,,,,,,,,,,,,,,,,,,,,,,,,,,,,,,,,,,,,,,,,
1769162031.078811,1769162031.079592,53.0,0.0,4409.102539,4378.205078,4522.05127,4440.897461,4358.333496,4347.94873,4352.563965,4402.820313,4402.05127,4378.974121,4724.743652,4689.615234,4541.153809,4653.333496,,,,,,,,,,,,,,,,,,,,,,,,,,,,,,,,,,,,,,,,,,,,,,,,,,,,,,,,,,,,,,,,,,,,,,
1769162031.086619,1769162031.087301,54.0,0.0,4411.025879,4383.461426,4518.974121,4444.358887,4358.077148,4353.974121,4351.282227,4395.641113,4390.769043,4366.794922,4713.717773,4681.922852,4528.974121,4644.102539,,,,,,,,,,,,,,,,,,,,,,,,,,,,,,,,,,,,,,,,,,,,,,,,,,,,,,,,,,,,,,,,,,,,,,
1769162031.094428,1769162031.095109,55.0,0.0,4404.230957,4377.94873,4510.897461,4440.384766,4358.077148,4355.769043,4353.461426,4393.077148,4381.794922,4355.384766,4704.487305,4673.974121,4520.769043,4632.820313,,,,,,,,,,,,,,,,,,,,,,,,,,,,,,,,,,,,,,,,,,,,,,,,,,,,,,,,,,,,,,,,,,,,,,
1769162031.102236,1769162031.102718,56.0,0.0,4401.410156,4377.563965,4514.615234,4440.512695,4362.820313,4355.256348,4356.410156,4397.94873,4387.05127,4361.794922,4711.538574,4674.102539,4523.077148,4636.282227,,,,,,,,,,,,,,,,,,,,,,,,,,,,,,,,,,,,,,,,,,,,,,,,,,,,,,,,,,,,,,,,,,,,,,
1769162031.110045,1769162031.110526,57.0,0.0,4406.153809,4383.461426,4518.077148,4443.974121,4367.179688,4357.563965,4360.512695,4404.743652,4395.897461,4368.846191,4720.512695,4679.615234,4526.794922,4640.384766,,,,,,,,,,,,,,,,,,,,,,,,,,,,,,,,,,,,,,,,,,,,,,,,,,,,,,,,,,,,,,,,,,,,,,
1769162031.117853,1769162031.118434,58.0,0.0,4407.820313,4382.563965,4517.05127,4442.820313,4366.282227,4360.0,4363.461426,4409.230957,4396.794922,4364.358887,4718.589844,4678.589844,4526.153809,4633.333496,,,,,,,,,,,,,,,,,,,,,,,,,,,,,,,,,,,,,,,,,,,,,,,,,,,,,,,,,,,,,,,,,,,,,,
1769162031.125661,1769162031.126243,59.0,0.0,4407.820313,4380.641113,4518.077148,4441.538574,4367.307617,4358.077148,4360.128418,4407.307617,4394.102539,4362.94873,4714.743652,4672.820313,4525.384766,4629.743652,,,,,,,,,,,,,,,,,,,,,,,,,,,,,,,,,,,,,,,,,,,,,,,,,,,,,,,,,,,,,,,,,,,,,,
1769162031.13347,1769162031.134251,60.0,0.0,4406.410156,4380.897461,4513.974121,4442.563965,4368.205078,4356.153809,4357.94873,4403.461426,4394.871582,4365.384766,4712.307617,4671.282227,4523.846191,4632.05127,,,,,,,,,,,,,,,,,,,,,,,,,,,,,,,,,,,,,,,,,,,,,,,,,,,,,,,,,,,,,,,,,,,,,,
1769162031.141278,1769162031.14206,61.0,0.0,4401.410156,4379.487305,4510.384766,4441.282227,4362.436035,4357.436035,4360.641113,4404.102539,4395.0,4360.897461,4710.256348,4671.794922,4524.871582,4632.692383,,,,,,,,,,,,,,,,,,,,,,,,,,,,,,,,,,,,,,,,,,,,,,,,,,,,,,,,,,,,,,,,,,,,,,
1769162031.149087,1769162031.149768,62.0,0.0,4401.538574,4381.922852,4519.871582,4441.025879,4363.205078,4357.307617,4354.743652,4401.282227,4394.743652,4361.410156,4712.436035,4676.153809,4531.666504,4638.205078,0.722409,0.271779,0.276021,0.161262,0.169254,1.142205,0.370504,0.121868,0.099421,0.054309,0.456503,0.157653,0.116224,0.305368,0.146452,0.377232,0.123307,0.149579,0.126872,0.057416,0.324567,0.084907,0.053478,0.092161,0.065582,0.25711,0.082328,0.056809,0.132321,0.125798,0.098954,0.100927,0.045886,0.096117,0.155348,0.579112,0.410482,0.234408,0.126894,0.127308,0.421379,0.27423,0.387623,0.119834,0.097509,0.319485,0.620562,0.179798,0.105086,0.095623,0.536819,0.636745,0.21132,0.148905,0.128472,0.754199,0.517102,0.173669,0.12709,0.180927,0.636029,0.580739,0.283677,0.183599,0.164134,1.318843,1.333626,0.255595,0.19538,0.17135
1769162031.156895,1769162031.157577,63.0,0.0,4401.666504,4384.102539,4524.743652,4443.846191,4366.538574,4356.538574,4348.205078,4399.487305,4396.025879,4368.205078,4712.94873,4674.871582,4530.128418,4637.05127,,,,,,,,,,,,,,,,,,,,,,,,,,,,,,,,,,,,,,,,,,,,,,,,,,,,,,,,,,,,,,,,,,,,,,
1769162031.164704,1769162031.165185,64.0,0.0,4399.615234,4380.512695,4518.589844,4443.846191,4360.641113,4356.794922,4357.820313,4402.94873,4395.769043,4366.410156,4706.153809,4664.743652,4522.179688,4620.769043,,,,,,,,,,,,,,,,,,,,,,,,,,,,,,,,,,,,,,,,,,,,,,,,,,,,,,,,,,,,,,,,,,,,,,
1769162031.172512,1769162031.172994,65.0,0.0,4407.436035,4382.436035,4522.05127,4443.461426,4360.384766,4356.922852,4361.282227,4401.025879,4392.179688,4363.333496,4706.025879,4664.230957,4521.666504,4619.487305,,,,,,,,,,,,,,,,,,,,,,,,,,,,,,,,,,,,,,,,,,,,,,,,,,,,,,,,,,,,,,,,,,,,,,
1769162031.180321,1769162031.180702,66.0,0.0,4414.487305,4388.077148,4527.307617,4445.384766,4365.897461,4356.025879,4351.922852,4402.692383,4388.205078,4366.410156,4714.102539,4680.512695,4526.538574,4638.205078,,,,,,,,,,,,,,,,,,,,,,,,,,,,,,,,,,,,,,,,,,,,,,,,,,,,,,,,,,,,,,,,,,,,,,
1769162031.188129,1769162031.188511,67.0,0.0,4407.179688,4384.102539,4522.692383,4442.436035,4360.512695,4355.0,4353.461426,4406.025879,4390.128418,4367.307617,4715.0,4685.128418,4525.641113,4641.410156,,,,,,,,,,,,,,,,,,,,,,,,,,,,,,,,,,,,,,,,,,,,,,,,,,,,,,,,,,,,,,,,,,,,,,
1769162031.195938,1769162031.196519,68.0,0.0,4401.153809,4378.461426,4519.102539,4438.846191,4354.615234,4354.615234,4359.743652,4401.794922,4395.641113,4364.102539,4705.384766,4671.282227,4520.769043,4622.94873,,,,,,,,,,,,,,,,,,,,,,,,,,,,,,,,,,,,,,,,,,,,,,,,,,,,,,,,,,,,,,,,,,,,,,
1769162031.203746,1769162031.204327,69.0,0.0,4408.333496,4382.436035,4523.589844,4443.077148,4358.974121,4354.871582,4354.358887,4398.461426,4397.307617,4364.743652,4705.256348,4670.641113,4521.538574,4614.358887,,,,,,,,,,,,,,,,,,,,,,,,,,,,,,,,,,,,,,,,,,,,,,,,,,,,,,,,,,,,,,,,,,,,,,
1769162031.211554,1769162031.212236,70.0,0.0,4411.922852,4384.358887,4527.05127,4445.128418,4360.256348,4356.025879,4350.641113,4401.282227,4396.922852,4369.615234,4714.358887,4682.820313,4526.538574,4624.615234,,,,,,,,,,,,,,,,,,,,,,,,,,,,,,,,,,,,,,,,,,,,,,,,,,,,,,,,,,,,,,,,,,,,,,
1769162031.219363,1769162031.220044,71.0,0.0,4405.641113,4379.358887,4524.358887,4438.333496,4357.307617,4358.333496,4356.794922,4402.307617,4397.94873,4371.666504,4714.743652,4683.974121,4528.717773,4634.487305,,,,,,,,,,,,,,,,,,,,,,,,,,,,,,,,,,,,,,,,,,,,,,,,,,,,,,,,,,,,,,,,,,,,,,
1769162031.227171,1769162031.228052,72.0,0.0,4403.461426,4377.05127,4519.871582,4435.512695,4357.436035,4358.717773,4359.358887,4401.666504,4398.333496,4367.94873,4710.512695,4678.333496,4525.512695,4632.307617,,,,,,,,,,,,,,,,,,,,,,,,,,,,,,,,,,,,,,,,,,,,,,,,,,,,,,,,,,,,,,,,,,,,,,
1769162031.23498,1769162031.235861,73.0,0.0,4404.487305,4377.05127,4513.205078,4435.769043,4357.94873,4358.333496,4354.743652,4404.871582,4397.436035,4363.974121,4710.0,4675.256348,4524.358887,4623.205078,,,,,,,,,,,,,,,,,,,,,,,,,,,,,,,,,,,,,,,,,,,,,,,,,,,,,,,,,,,,,,,,,,,,,,
1769162031.242788,1769162031.243569,74.0,0.0,4400.128418,4374.230957,4508.461426,4430.512695,4356.666504,4357.436035,4348.846191,4402.94873,4396.538574,4363.846191,4708.717773,4672.05127,4525.128418,4617.563965,,,,,,,,,,,,,,,,,,,,,,,,,,,,,,,,,,,,,,,,,,,,,,,,,,,,,,,,,,,,,,,,,,,,,,
1769162031.250597,1769162031.251378,75.0,0.0,4395.897461,4372.94873,4508.461426,4425.897461,4354.230957,4354.358887,4345.128418,4397.05127,4394.743652,4364.358887,4705.897461,4672.820313,4523.461426,4617.307617,,,,,,,,,,,,,,,,,,,,,,,,,,,,,,,,,,,,,,,,,,,,,,,,,,,,,,,,,,,,,,,,,,,,,,
1769162031.258405,1769162031.258987,76.0,0.0,4399.871582,4376.794922,4509.102539,4428.333496,4353.461426,4351.794922,4342.94873,4396.410156,4394.358887,4364.358887,4710.128418,4679.102539,4524.871582,4623.205078,,,,,,,,,,,,,,,,,,,,,,,,,,,,,,,,,,,,,,,,,,,,,,,,,,,,,,,,,,,,,,,,,,,,,,
1769162031.266214,1769162031.266795,77.0,0.0,4402.692383,4381.410156,4509.615234,4433.589844,4356.410156,4351.922852,4342.563965,4399.871582,4396.922852,4369.102539,4716.410156,4681.153809,4532.179688,4633.205078,,,,,,,,,,,,,,,,,,,,,,,,,,,,,,,,,,,,,,,,,,,,,,,,,,,,,,,,,,,,,,,,,,,,,,
1769162031.274022,1769162031.274504,78.0,0.0,4397.94873,4377.307617,4509.871582,4432.05127,4355.897461,4354.871582,4348.205078,4401.794922,4397.94873,4370.897461,4713.205078,4678.077148,4528.461426,4628.974121,0.774441,0.245144,0.332838,0.167105,0.183102,1.156478,0.354403,0.137052,0.106025,0.063422,0.547541,0.152337,0.147763,0.356174,0.180068,0.36688,0.097774,0.157272,0.134783,0.063369,0.288522,0.080575,0.043184,0.099593,0.064476,0.270366,0.089888,0.064301,0.14003,0.137143,0.113325,0.116945,0.051945,0.10217,0.165293,0.603874,0.39902,0.238203,0.143892,0.107343,0.448794,0.25687,0.406594,0.134124,0.090024,0.359317,0.627994,0.174934,0.122252,0.099397,0.569711,0.692038,0.223185,0.174274,0.133722,0.814443,0.576754,0.201865,0.151299,0.184238,0.761595,0.631519,0.318831,0.196544,0.182577,1.495808,1.414373,0.300494,0.210349,0.186578
1769162031.28183,1769162031.282312,79.0,0.0,4393.846191,4368.589844,4508.974121,4427.307617,4353.333496,4357.820313,4351.666504,4403.974121,4397.563965,4367.307617,4711.794922,4678.205078,4522.436035,4617.563965,,,,,,,,,,,,,,,,,,,,,,,,,,,,,,,,,,,,,,,,,,,,,,,,,,,,,,,,,,,,,,,,,,,,,,
1769162031.289639,1769162031.289921,80.0,0.0,4395.769043,4368.974121,4509.487305,4428.589844,4355.512695,4357.563965,4348.589844,4410.897461,4399.487305,4368.333496,4717.307617,4683.846191,4531.282227,4622.563965,,,,,,,,,,,,,,,,,,,,,,,,,,,,,,,,,,,,,,,,,,,,,,,,,,,,,,,,,,,,,,,,,,,,,,
1769162031.297447,1769162031.297729,81.0,0.0,4397.179688,4373.461426,4511.282227,4430.641113,4357.436035,4357.05127,4350.0,4409.487305,4399.487305,4370.384766,4720.512695,4684.743652,4533.077148,4629.487305,,,,,,,,,,,,,,,,,,,,,,,,,,,,,,,,,,,,,,,,,,,,,,,,,,,,,,,,,,,,,,,,,,,,,,
1769162031.305256,1769162031.305438,82.0,0.0,4396.153809,4372.179688,4510.256348,4427.179688,4355.897461,4357.563965,4350.384766,4398.717773,4396.153809,4367.563965,4717.820313,4680.0,4521.410156,4622.05127,,,,,,,,,,,,,,,,,,,,,,,,,,,,,,,,,,,,,,,,,,,,,,,,,,,,,,,,,,,,,,,,,,,,,,
1769162031.313064,1769162031.313246,83.0,0.0,4394.358887,4369.358887,4508.589844,4427.05127,4354.615234,4354.487305,4341.538574,4395.128418,4395.512695,4366.666504,4714.487305,4677.94873,4524.615234,4622.179688,,,,,,,,,,,,,,,,,,,,,,,,,,,,,,,,,,,,,,,,,,,,,,,,,,,,,,,,,,,,,,,,,,,,,,
1769162031.320873,1769162031.321254,84.0,0.0,4390.769043,4365.769043,4506.538574,4425.897461,4354.743652,4353.333496,4340.641113,4398.333496,4397.307617,4368.077148,4712.692383,4676.025879,4534.743652,4628.589844,,,,,,,,,,,,,,,,,,,,,,,,,,,,,,,,,,,,,,,,,,,,,,,,,,,,,,,,,,,,,,,,,,,,,,
1769162031.328681,1769162031.329063,85.0,0.0,4387.05127,4362.94873,4504.743652,4418.717773,4353.589844,4359.102539,4351.025879,4399.102539,4396.538574,4365.128418,4709.102539,4671.025879,4527.692383,4621.538574,,,,,,,,,,,,,,,,,,,,,,,,,,,,,,,,,,,,,,,,,,,,,,,,,,,,,,,,,,,,,,,,,,,,,,
1769162031.33649,1769162031.336971,86.0,0.0,4388.717773,4366.153809,4506.538574,4421.794922,4352.307617,4358.461426,4350.256348,4397.179688,4395.641113,4363.717773,4706.794922,4670.0,4521.922852,4614.615234,,,,,,,,,,,,,,,,,,,,,,,,,,,,,,,,,,,,,,,,,,,,,,,,,,,,,,,,,,,,,,,,,,,,,,
1769162031.344298,1769162031.34478,87.0,0.0,4389.871582,4367.820313,4502.05127,4427.436035,4350.897461,4355.897461,4345.128418,4397.436035,4396.153809,4364.615234,4705.0,4671.410156,4524.615234,4617.05127,,,,,,,,,,,,,,,,,,,,,,,,,,,,,,,,,,,,,,,,,,,,,,,,,,,,,,,,,,,,,,,,,,,,,,
1769162031.352107,1769162031.352388,88.0,0.0,4385.897461,4363.077148,4495.641113,4422.692383,4350.0,4361.282227,4350.512695,4401.538574,4396.153809,4362.436035,4705.128418,4670.512695,4524.230957,4617.179688,,,,,,,,,,,,,,,,,,,,,,,,,,,,,,,,,,,,,,,,,,,,,,,,,,,,,,,,,,,,,,,,,,,,,,
1769162031.359915,1769162031.360197,89.0,0.0,4387.692383,4368.205078,4501.025879,4422.05127,4350.897461,4360.384766,4351.794922,4401.794922,4396.025879,4364.743652,4708.077148,4669.871582,4527.692383,4616.410156,,,,,,,,,,,,,,,,,,,,,,,,,,,,,,,,,,,,,,,,,,,,,,,,,,,,,,,,,,,,,,,,,,,,,,
1769162031.367724,1769162031.367905,90.0,0.0,4395.512695,4381.025879,4508.461426,4430.128418,4352.179688,4350.897461,4343.077148,4395.641113,4395.769043,4365.769043,4707.307617,4670.769043,4533.974121,4617.307617,,,,,,,,,,,,,,,,,,,,,,,,,,,,,,,,,,,,,,,,,,,,,,,,,,,,,,,,,,,,,,,,,,,,,,
1769162031.375532,1769162031.375714,91.0,0.0,4399.743652,4381.794922,4508.589844,4431.794922,4354.871582,4351.153809,4340.256348,4395.384766,4396.410156,4361.282227,4709.871582,4676.153809,4536.410156,4621.410156,,,,,,,,,,,,,,,,,,,,,,,,,,,,,,,,,,,,,,,,,,,,,,,,,,,,,,,,,,,,,,,,,,,,,,
1769162031.38334,1769162031.383722,92.0,0.0,4396.794922,4373.205078,4507.179688,4427.692383,4356.666504,4358.589844,4345.384766,4398.974121,4396.153809,4360.641113,4716.410156,4678.333496,4535.384766,4625.512695,,,,,,,,,,,,,,,,,,,,,,,,,,,,,,,,,,,,,,,,,,,,,,,,,,,,,,,,,,,,,,,,,,,,,,
1769162031.391149,1769162031.39153,93.0,0.0,4395.128418,4372.436035,4507.179688,4427.94873,4355.128418,4361.025879,4346.153809,4396.666504,4395.512695,4368.846191,4720.0,4680.128418,4539.871582,4629.230957,,,,,,,,,,,,,,,,,,,,,,,,,,,,,,,,,,,,,,,,,,,,,,,,,,,,,,,,,,,,,,,,,,,,,,
1769162031.398957,1769162031.399439,94.0,0.0,4402.436035,4378.717773,4508.205078,4429.871582,4354.358887,4360.897461,4343.205078,4397.436035,4400.128418,4376.794922,4722.05127,4687.307617,4548.589844,4634.615234,0.808147,0.219222,0.378889,0.166527,0.192311,1.112752,0.331572,0.153515,0.117634,0.074988,0.638601,0.160745,0.185375,0.373818,0.212915,0.358864,0.08413,0.165683,0.137719,0.072761,0.225108,0.079185,0.03686,0.097796,0.060971,0.265757,0.107444,0.076541,0.134458,0.146418,0.114714,0.144973,0.062331,0.105174,0.166605,0.599196,0.364154,0.219558,0.17135,0.091211,0.441222,0.237372,0.382778,0.156078,0.084239,0.409846,0.600709,0.178443,0.149118,0.106885,0.529292,0.690801,0.224389,0.199387,0.135652,0.793974,0.610637,0.222826,0.174278,0.188195,0.820481,0.638047,0.352416,0.207186,0.201099,1.505224,1.360042,0.326094,0.217598,0.200924
1769162031.406766,1769162031.407247,95.0,0.0,4406.538574,4380.897461,4510.128418,4430.384766,4355.384766,4359.230957,4344.102539,4401.153809,4402.307617,4374.358887,4722.94873,4684.487305,4544.487305,4633.846191,,,,,,,,,,,,,,,,,,,,,,,,,,,,,,,,,,,,,,,,,,,,,,,,,,,,,,,,,,,,,,,,,,,,,,
1769162031.414574,1769162031.415255,96.0,0.0,4402.307617,4380.256348,4508.461426,4429.615234,4355.0,4357.179688,4346.025879,4397.05127,4395.256348,4369.487305,4717.563965,4676.153809,4535.769043,4628.846191,,,,,,,,,,,,,,,,,,,,,,,,,,,,,,,,,,,,,,,,,,,,,,,,,,,,,,,,,,,,,,,,,,,,,,
1769162031.422383,1769162031.423064,97.0,0.0,4401.538574,4379.102539,4506.153809,4429.230957,4352.692383,4356.025879,4343.461426,4397.179688,4395.128418,4371.538574,4716.794922,4681.282227,4545.512695,4634.102539,,,,,,,,,,,,,,,,,,,,,,,,,,,,,,,,,,,,,,,,,,,,,,,,,,,,,,,,,,,,,,,,,,,,,,
1769162031.430191,1769162031.430772,98.0,0.0,4405.769043,4376.538574,4506.794922,4428.461426,4351.922852,4353.846191,4341.922852,4404.743652,4403.077148,4376.666504,4723.077148,4687.179688,4553.846191,4641.025879,,,,,,,,,,,,,,,,,,,,,,,,,,,,,,,,,,,,,,,,,,,,,,,,,,,,,,,,,,,,,,,,,,,,,,
1769162031.438,1769162031.438581,99.0,0.0,4399.487305,4371.410156,4506.025879,4426.410156,4349.615234,4352.436035,4342.179688,4402.436035,4400.0,4373.461426,4716.025879,4676.538574,4539.871582,4631.153809,,,,,,,,,,,,,,,,,,,,,,,,,,,,,,,,,,,,,,,,,,,,,,,,,,,,,,,,,,,,,,,,,,,,,,
1769162031.445808,1769162031.446589,100.0,0.0,4388.974121,4368.846191,4505.128418,4425.384766,4345.128418,4353.205078,4342.692383,4395.128418,4393.461426,4366.153809,4708.077148,4669.615234,4530.769043,4623.077148,,,,,,,,,,,,,,,,,,,,,,,,,,,,,,,,,,,,,,,,,,,,,,,,,,,,,,,,,,,,,,,,,,,,,,
1769162031.453617,1769162031.454397,101.0,0.0,4390.512695,4370.384766,4506.153809,4425.0,4342.692383,4354.358887,4348.589844,4398.205078,4396.666504,4367.179688,4716.410156,4678.461426,4540.641113,4630.384766,,,,,,,,,,,,,,,,,,,,,,,,,,,,,,,,,,,,,,,,,,,,,,,,,,,,,,,,,,,,,,,,,,,,,,
1769162031.461425,1769162031.462106,102.0,0.0,4399.487305,4374.358887,4507.179688,4428.205078,4344.743652,4353.846191,4350.641113,4404.871582,4397.820313,4372.94873,4722.563965,4686.794922,4548.077148,4634.230957,,,,,,,,,,,,,,,,,,,,,,,,,,,,,,,,,,,,,,,,,,,,,,,,,,,,,,,,,,,,,,,,,,,,,,
1769162031.469233,1769162031.469914,103.0,0.0,4405.641113,4376.794922,4507.563965,4431.794922,4344.871582,4351.794922,4343.077148,4404.743652,4395.256348,4373.974121,4718.205078,4686.922852,4544.230957,4631.153809,,,,,,,,,,,,,,,,,,,,,,,,,,,,,,,,,,,,,,,,,,,,,,,,,,,,,,,,,,,,,,,,,,,,,,
1769162031.477042,1769162031.477523,104.0,0.0,4402.307617,4374.615234,4507.307617,4428.333496,4342.692383,4353.461426,4344.358887,4400.384766,4396.153809,4367.563965,4714.487305,4681.666504,4537.820313,4630.769043,,,,,,,,,,,,,,,,,,,,,,,,,,,,,,,,,,,,,,,,,,,,,,,,,,,,,,,,,,,,,,,,,,,,,,
1769162031.48485,1769162031.485332,105.0,0.0,4393.333496,4374.230957,4504.487305,4426.794922,4348.205078,4359.615234,4350.769043,4396.794922,4396.153809,4363.846191,4712.179688,4672.94873,4538.974121,4630.769043,,,,,,,,,,,,,,,,,,,,,,,,,,,,,,,,,,,,,,,,,,,,,,,,,,,,,,,,,,,,,,,,,,,,,,
1769162031.492659,1769162031.49304,106.0,0.0,4387.692383,4373.077148,4496.922852,4427.820313,4352.692383,4357.692383,4344.102539,4396.153809,4395.256348,4363.589844,4705.512695,4664.358887,4537.05127,4623.077148,,,,,,,,,,,,,,,,,,,,,,,,,,,,,,,,,,,,,,,,,,,,,,,,,,,,,,,,,,,,,,,,,,,,,,
1769162031.500467,1769162031.500849,107.0,0.0,4385.0,4365.769043,4490.769043,4420.641113,4345.769043,4348.333496,4336.666504,4396.794922,4397.307617,4358.461426,4699.102539,4661.538574,4523.333496,4612.94873,,,,,,,,,,,,,,,,,,,,,,,,,,,,,,,,,,,,,,,,,,,,,,,,,,,,,,,,,,,,,,,,,,,,,,
1769162031.508276,1769162031.508457,108.0,0.0,4387.94873,4364.358887,4496.922852,4417.307617,4339.615234,4348.846191,4341.666504,4396.282227,4397.692383,4358.589844,4703.333496,4666.538574,4524.230957,4618.846191,,,,,,,,,,,,,,,,,,,,,,,,,,,,,,,,,,,,,,,,,,,,,,,,,,,,,,,,,,,,,,,,,,,,,,
1769162031.516084,1769162031.516266,109.0,0.0,4395.384766,4376.153809,4508.077148,4425.897461,4342.94873,4352.307617,4344.487305,4396.153809,4397.05127,4372.94873,4716.025879,4675.128418,4541.666504,4637.94873,,,,,,,,,,,,,,,,,,,,,,,,,,,,,,,,,,,,,,,,,,,,,,,,,,,,,,,,,,,,,,,,,,,,,,
1769162031.523893,1769162031.524174,110.0,0.0,4399.615234,4382.563965,4510.128418,4429.615234,4344.871582,4345.0,4339.358887,4396.538574,4398.333496,4379.487305,4722.307617,4680.512695,4545.897461,4644.230957,0.813627,0.195898,0.397599,0.160257,0.195541,1.009781,0.300339,0.165393,0.128144,0.087256,0.70763,0.180423,0.223833,0.357801,0.238999,0.358855,0.078999,0.170667,0.13302,0.085347,0.181953,0.078357,0.034915,0.086982,0.055302,0.254522,0.142128,0.093312,0.11735,0.152151,0.117248,0.189746,0.077119,0.107314,0.161093,0.562187,0.318017,0.183458,0.202345,0.080743,0.411643,0.215171,0.327996,0.182901,0.084623,0.444453,0.533138,0.182289,0.183004,0.117774,0.44925,0.630004,0.215174,0.222839,0.135361,0.729865,0.611938,0.234188,0.193052,0.192945,0.813406,0.585021,0.375176,0.214465,0.214984,1.373351,1.185011,0.3284,0.221041,0.218491
1769162031.531701,1769162031.531982,111.0,0.0,4396.410156,4374.871582,4508.205078,4424.871582,4341.410156,4343.589844,4338.846191,4396.538574,4397.05127,4367.692383,4716.922852,4677.05127,4538.077148,4633.205078,,,,,,,,,,,,,,,,,,,,,,,,,,,,,,,,,,,,,,,,,,,,,,,,,,,,,,,,,,,,,,,,,,,,,,
1769162031.539509,1769162031.539991,112.0,0.0,4395.384766,4371.282227,4512.820313,4426.025879,4343.461426,4351.410156,4341.153809,4397.05127,4391.538574,4362.05127,4711.666504,4671.666504,4535.128418,4627.692383,,,,,,,,,,,,,,,,,,,,,,,,,,,,,,,,,,,,,,,,,,,,,,,,,,,,,,,,,,,,,,,,,,,,,,
1769162031.547318,1769162031.547799,113.0,0.0,4399.615234,4374.358887,4516.666504,4429.615234,4346.666504,4351.282227,4337.820313,4396.538574,4388.461426,4362.563965,4709.615234,4672.94873,4536.153809,4635.256348,,,,,,,,,,,,,,,,,,,,,,,,,,,,,,,,,,,,,,,,,,,,,,,,,,,,,,,,,,,,,,,,,,,,,,
1769162031.555126,1769162031.555508,114.0,0.0,4397.563965,4373.589844,4511.282227,4427.692383,4343.974121,4347.307617,4333.461426,4395.769043,4392.05127,4360.0,4708.846191,4674.871582,4535.769043,4639.102539,,,,,,,,,,,,,,,,,,,,,,,,,,,,,,,,,,,,,,,,,,,,,,,,,,,,,,,,,,,,,,,,,,,,,,
1769162031.562935,1769162031.563316,115.0,0.0,4389.615234,4370.384766,4506.153809,4426.025879,4341.922852,4350.641113,4336.153809,4398.333496,4393.589844,4360.641113,4705.256348,4671.794922,4529.743652,4629.230957,,,,,,,,,,,,,,,,,,,,,,,,,,,,,,,,,,,,,,,,,,,,,,,,,,,,,,,,,,,,,,,,,,,,,,
1769162031.570743,1769162031.570925,116.0,0.0,4384.358887,4368.589844,4506.282227,4425.128418,4343.333496,4352.307617,4338.846191,4394.871582,4384.743652,4352.05127,4694.487305,4661.922852,4513.717773,4612.179688,,,,,,,,,,,,,,,,,,,,,,,,,,,,,,,,,,,,,,,,,,,,,,,,,,,,,,,,,,,,,,,,,,,,,,
1769162031.578552,1769162031.578733,117.0,0.0,4385.512695,4370.256348,4506.666504,4424.615234,4341.922852,4346.666504,4332.563965,4387.179688,4377.820313,4342.436035,4690.641113,4656.282227,4508.077148,4607.179688,,,,,,,,,,,,,,,,,,,,,,,,,,,,,,,,,,,,,,,,,,,,,,,,,,,,,,,,,,,,,,,,,,,,,,
1769162031.58636,1769162031.586642,118.0,0.0,4392.94873,4377.563965,4507.307617,4426.282227,4340.384766,4343.205078,4327.05127,4389.230957,4385.128418,4355.384766,4702.179688,4667.179688,4526.282227,4624.102539,,,,,,,,,,,,,,,,,,,,,,,,,,,,,,,,,,,,,,,,,,,,,,,,,,,,,,,,,,,,,,,,,,,,,,
1769162031.594169,1769162031.59445,119.0,0.0,4396.666504,4382.692383,4507.94873,4428.333496,4344.102539,4341.666504,4329.871582,4392.692383,4391.282227,4366.025879,4709.102539,4675.897461,4538.333496,4633.974121,,,,,,,,,,,,,,,,,,,,,,,,,,,,,,,,,,,,,,,,,,,,,,,,,,,,,,,,,,,,,,,,,,,,,,
1769162031.601977,1769162031.602458,120.0,0.0,4390.512695,4379.615234,4502.179688,4426.282227,4345.0,4339.743652,4331.922852,4390.256348,4386.922852,4354.615234,4702.05127,4665.897461,4527.436035,4619.743652,,,,,,,,,,,,,,,,,,,,,,,,,,,,,,,,,,,,,,,,,,,,,,,,,,,,,,,,,,,,,,,,,,,,,,
1769162031.609785,1769162031.610267,121.0,0.0,4388.461426,4377.563965,4499.871582,4425.769043,4342.692383,4339.743652,4331.282227,4393.077148,4386.922852,4353.846191,4699.102539,4658.461426,4523.717773,4609.487305,,,,,,,,,,,,,,,,,,,,,,,,,,,,,,,,,,,,,,,,,,,,,,,,,,,,,,,,,,,,,,,,,,,,,,
1769162031.617594,1769162031.618175,122.0,0.0,4397.692383,4380.769043,4503.461426,4429.102539,4343.589844,4342.179688,4333.205078,4399.102539,4392.692383,4367.820313,4707.692383,4667.563965,4538.846191,4621.025879,,,,,,,,,,,,,,,,,,,,,,,,,,,,,,,,,,,,,,,,,,,,,,,,,,,,,,,,,,,,,,,,,,,,,,
1769162031.625402,1769162031.625984,123.0,0.0,4399.230957,4378.461426,4499.102539,4423.077148,4343.333496,4343.205078,4336.025879,4392.692383,4388.846191,4367.179688,4714.615234,4671.538574,4546.410156,4634.102539,,,,,,,,,,,,,,,,,,,,,,,,,,,,,,,,,,,,,,,,,,,,,,,,,,,,,,,,,,,,,,,,,,,,,,
1769162031.633211,1769162031.633592,124.0,0.0,4388.589844,4367.179688,4490.769043,4412.179688,4339.743652,4341.794922,4335.897461,4383.077148,4380.384766,4358.205078,4707.820313,4660.641113,4535.384766,4628.333496,,,,,,,,,,,,,,,,,,,,,,,,,,,,,,,,,,,,,,,,,,,,,,,,,,,,,,,,,,,,,,,,,,,,,,
1769162031.641019,1769162031.641401,125.0,0.0,4381.025879,4357.820313,4489.743652,4409.615234,4338.333496,4342.436035,4336.410156,4384.871582,4379.743652,4356.025879,4695.128418,4652.94873,4523.846191,4611.538574,,,,,,,,,,,,,,,,,,,,,,,,,,,,,,,,,,,,,,,,,,,,,,,,,,,,,,,,,,,,,,,,,,,,,,
1769162031.648828,1769162031.649309,126.0,0.0,4374.871582,4355.897461,4489.871582,4411.794922,4341.025879,4344.487305,4338.077148,4389.743652,4382.563965,4356.666504,4695.0,4653.589844,4522.563965,4602.692383,0.784155,0.17815,0.381004,0.151365,0.191981,0.892179,0.265862,0.168348,0.132486,0.098571,0.746506,0.20658,0.257451,0.317689,0.252375,0.376419,0.080898,0.167993,0.120327,0.098974,0.159913,0.077049,0.035715,0.070504,0.048462,0.22633,0.193527,0.110815,0.09519,0.152449,0.113723,0.247511,0.093388,0.111201,0.152181,0.483759,0.275278,0.142521,0.227301,0.074863,0.352854,0.192152,0.264668,0.207866,0.091856,0.458699,0.438128,0.183306,0.217547,0.12992,0.338627,0.533241,0.201167,0.242902,0.134458,0.621513,0.588768,0.23654,0.205541,0.198995,0.731667,0.484912,0.383515,0.21784,0.222042,1.109609,0.940232,0.314035,0.228058,0.242901
1769162031.656636,1769162031.657117,127.0,0.0,4370.897461,4357.563965,4487.692383,4409.615234,4342.436035,4343.205078,4335.641113,4389.743652,4382.563965,4356.794922,4703.589844,4656.025879,4525.641113,4611.794922,,,,,,,,,,,,,,,,,,,,,,,,,,,,,,,,,,,,,,,,,,,,,,,,,,,,,,,,,,,,,,,,,,,,,,
1769162031.664445,1769162031.664726,0.0,0.0,4375.769043,4362.307617,4488.974121,4409.743652,4341.025879,4340.384766,4331.282227,4387.94873,4380.897461,4357.692383,4705.769043,4656.922852,4525.128418,4624.102539,,,,,,,,,,,,,,,,,,,,,,,,,,,,,,,,,,,,,,,,,,,,,,,,,,,,,,,,,,,,,,,,,,,,,,
1769162031.672253,1769162031.672535,1.0,0.0,4383.077148,4364.871582,4491.410156,4414.487305,4340.512695,4341.666504,4327.307617,4387.563965,4379.615234,4356.282227,4701.410156,4657.692383,4523.333496,4623.974121,,,,,,,,,,,,,,,,,,,,,,,,,,,,,,,,,,,,,,,,,,,,,,,,,,,,,,,,,,,,,,,,,,,,,,
1769162031.680061,1769162031.680243,2.0,0.0,4383.077148,4360.384766,4493.205078,4415.0,4342.179688,4341.153809,4326.410156,4383.589844,4379.743652,4353.717773,4699.615234,4656.794922,4522.436035,4618.717773,,,,,,,,,,,,,,,,,,,,,,,,,,,,,,,,,,,,,,,,,,,,,,,,,,,,,,,,,,,,,,,,,,,,,,
1769162031.68787,1769162031.688052,3.0,0.0,4377.436035,4356.666504,4488.461426,4412.436035,4340.897461,4334.487305,4325.0,4380.128418,4379.743652,4355.256348,4701.538574,4654.871582,4520.769043,4614.102539,,,,,,,,,,,,,,,,,,,,,,,,,,,,,,,,,,,,,,,,,,,,,,,,,,,,,,,,,,,,,,,,,,,,,,
1769162031.695678,1769162031.69566,4.0,0.0,4371.410156,4357.179688,4476.922852,4410.0,4337.692383,4334.358887,4325.641113,4383.077148,4380.512695,4358.846191,4704.102539,4657.307617,4527.436035,4616.922852,,,,,,,,,,,,,,,,,,,,,,,,,,,,,,,,,,,,,,,,,,,,,,,,,,,,,,,,,,,,,,,,,,,,,,
1769162031.703487,1769162031.703469,5.0,0.0,4369.487305,4358.077148,4474.487305,4410.512695,4339.487305,4337.820313,4328.205078,4385.128418,4383.333496,4361.922852,4705.897461,4659.358887,4535.256348,4628.333496,,,,,,,,,,,,,,,,,,,,,,,,,,,,,,,,,,,,,,,,,,,,,,,,,,,,,,,,,,,,,,,,,,,,,,
1769162031.711295,1769162031.711177,6.0,0.0,4370.769043,4356.666504,4478.077148,4411.538574,4342.307617,4338.205078,4333.205078,4386.282227,4379.102539,4357.436035,4700.384766,4652.563965,4526.922852,4626.922852,,,,,,,,,,,,,,,,,,,,,,,,,,,,,,,,,,,,,,,,,,,,,,,,,,,,,,,,,,,,,,,,,,,,,,
1769162031.719104,1769162031.718986,7.0,0.0,4367.820313,4349.615234,4474.230957,4405.512695,4336.538574,4344.102539,4343.717773,4386.410156,4370.641113,4345.769043,4689.743652,4645.512695,4515.256348,4607.307617,,,,,,,,,,,,,,,,,,,,,,,,,,,,,,,,,,,,,,,,,,,,,,,,,,,,,,,,,,,,,,,,,,,,,,
1769162031.726912,1769162031.726994,8.0,0.0,4363.589844,4342.436035,4473.077148,4396.025879,4329.102539,4341.153809,4340.0,4383.589844,4374.615234,4345.512695,4691.282227,4650.128418,4517.307617,4603.589844,,,,,,,,,,,,,,,,,,,,,,,,,,,,,,,,,,,,,,,,,,,,,,,,,,,,,,,,,,,,,,,,,,,,,,
1769162031.734721,1769162031.734802,9.0,0.0,4365.0,4341.794922,4474.743652,4394.358887,4326.666504,4328.077148,4326.666504,4382.05127,4384.615234,4356.538574,4704.487305,4663.974121,4528.077148,4624.487305,,,,,,,,,,,,,,,,,,,,,,,,,,,,,,,,,,,,,,,,,,,,,,,,,,,,,,,,,,,,,,,,,,,,,,
