Timestamp,OriginalTimestamp,EEG.Counter,EEG.Interpolated,EEG.AF3,EEG.F7,EEG.F3,EEG.FC5,EEG.T7,EEG.P7,EEG.O1,EEG.O2,EEG.P8,EEG.T8,EEG.FC6,EEG.F4,EEG.F8,EEG.AF4,POW.AF3.Theta,POW.AF3.Alpha,POW.AF3.BetaL,POW.AF3.BetaH,POW.AF3.Gamma,POW.F7.Theta,POW.F7.Alpha,POW.F7.BetaL,POW.F7.BetaH,POW.F7.Gamma,POW.F3.Theta,POW.F3.Alpha,POW.F3.BetaL,POW.F3.BetaH,POW.F3.Gamma,POW.FC5.Theta,POW.FC5.Alpha,POW.FC5.BetaL,POW.FC5.BetaH,POW.FC5.Gamma,POW.T7.Theta,POW.T7.Alpha,POW.T7.BetaL,POW.T7.BetaH,POW.T7.Gamma,POW.P7.Theta,POW.P7.Alpha,POW.P7.BetaL,POW.P7.BetaH,POW.P7.Gamma,POW.O1.Theta,POW.O1.Alpha,POW.O1.BetaL,POW.O1.BetaH,POW.O1.Gamma,POW.O2.Theta,POW.O2.Alpha,POW.O2.BetaL,POW.O2.BetaH,POW.O2.Gamma,POW.P8.Theta,POW.P8.Alpha,POW.P8.BetaL,POW.P8.BetaH,POW.P8.Gamma,POW.T8.Theta,POW.T8.Alpha,POW.T8.BetaL,POW.T8.BetaH,POW.T8.Gamma,POW.FC6.Theta,POW.FC6.Alpha,POW.FC6.BetaL,POW.FC6.BetaH,POW.FC6.Gamma,POW.F4.Theta,POW.F4.Alpha,POW.F4.BetaL,POW.F4.BetaH,POW.F4.Gamma,POW.F8.Theta,POW.F8.Alpha,POW.F8.BetaL,POW.F8.BetaH,POW.F8.Gamma,POW.AF4.Theta,POW.AF4.Alpha,POW.AF4.BetaL,POW.AF4.BetaH,POW.AF4.Gamma
1769162089.767192,1769162089.768179,17.0,0.0,4342.692383,4291.025879,4415.769043,4359.358887,4275.512695,4269.230957,4293.846191,4279.102539,4279.358887,4293.974121,4582.94873,4506.666504,4430.384766,4524.102539,,,,,,,,,,,,,,,,,,,,,,,,,,,,,,,,,,,,,,,,,,,,,,,,,,,,,,,,,,,,,,,,,,,,,,
1769162089.775,1769162089.775887,18.0,0.0,4340.0,4288.461426,4413.461426,4358.589844,4274.615234,4277.436035,4295.769043,4288.717773,4280.769043,4297.307617,4586.025879,4509.230957,4429.871582,4523.333496,,,,,,,,,,,,,,,,,,,,,,,,,,,,,,,,,,,,,,,,,,,,,,,,,,,,,,,,,,,,,,,,,,,,,,
1769162089.782809,1769162089.783696,19.0,0.0,4333.333496,4279.615234,4409.230957,4353.717773,4274.102539,4281.794922,4296.025879,4294.102539,4279.743652,4286.666504,4579.230957,4506.025879,4426.410156,4520.384766,,,,,,,,,,,,,,,,,,,,,,,,,,,,,,,,,,,,,,,,,,,,,,,,,,,,,,,,,,,,,,,,,,,,,,
1769162089.790617,1769162089.791304,20.0,0.0,4333.589844,4282.94873,4410.128418,4354.230957,4271.153809,4278.589844,4294.743652,4284.487305,4278.077148,4281.153809,4579.487305,4501.410156,4427.94873,4522.692383,,,,,,,,,,,,,,,,,,,,,,,,,,,,,,,,,,,,,,,,,,,,,,,,,,,,,,,,,,,,,,,,,,,,,,
1769162089.798426,1769162089.799113,21.0,0.0,4339.487305,4290.769043,4411.922852,4355.256348,4265.512695,4276.282227,4294.358887,4282.692383,4278.461426,4292.94873,4582.692383,4503.205078,4431.538574,4523.205078,,,,,,,,,,,,,,,,,,,,,,,,,,,,,,,,,,,,,,,,,,,,,,,,,,,,,,,,,,,,,,,,,,,,,,
1769162089.806234,1769162089.806821,22.0,0.0,4336.922852,4287.05127,4408.974121,4349.871582,4264.487305,4270.512695,4294.871582,4289.102539,4280.641113,4300.0,4584.102539,4507.436035,4430.897461,4520.897461,,,,,,,,,,,,,,,,,,,,,,,,,,,,,,,,,,,,,,,,,,,,,,,,,,,,,,,,,,,,,,,,,,,,,,
1769162089.814043,1769162089.81463,23.0,0.0,4329.743652,4281.025879,4405.769043,4343.717773,4266.410156,4264.487305,4293.333496,4289.230957,4281.666504,4296.153809,4585.897461,4506.538574,4430.512695,4523.461426,,,,,,,,,,,,,,,,,,,,,,,,,,,,,,,,,,,,,,,,,,,,,,,,,,,,,,,,,,,,,,,,,,,,,,
1769162089.821851,1769162089.822638,24.0,0.0,4324.743652,4278.205078,4400.897461,4339.487305,4263.205078,4263.717773,4294.230957,4287.820313,4278.461426,4291.153809,4577.692383,4496.666504,4428.333496,4521.153809,,,,,,,,,,,,,,,,,,,,,,,,,,,,,,,,,,,,,,,,,,,,,,,,,,,,,,,,,,,,,,,,,,,,,,
1769162089.82966,1769162089.830446,25.0,0.0,4323.974121,4277.563965,4398.205078,4340.0,4263.205078,4265.641113,4297.05127,4289.102539,4278.205078,4289.487305,4568.589844,4491.153809,4424.487305,4513.205078,,,,,,,,,,,,,,,,,,,,,,,,,,,,,,,,,,,,,,,,,,,,,,,,,,,,,,,,,,,,,,,,,,,,,,
1769162089.837468,1769162089.838155,26.0,0.0,4333.077148,4285.641113,4406.538574,4347.436035,4273.333496,4263.974121,4288.589844,4294.102539,4290.641113,4296.922852,4580.769043,4502.307617,4434.102539,4517.179688,,,,,,,,,,,,,,,,,,,,,,,,,,,,,,,,,,,,,,,,,,,,,,,,,,,,,,,,,,,,,,,,,,,,,,
1769162089.845276,1769162089.845963,27.0,0.0,4344.743652,4296.153809,4413.974121,4352.436035,4278.461426,4258.717773,4279.487305,4295.641113,4297.94873,4308.333496,4594.230957,4513.333496,4443.846191,4529.615234,,,,,,,,,,,,,,,,,,,,,,,,,,,,,,,,,,,,,,,,,,,,,,,,,,,,,,,,,,,,,,,,,,,,,,
1769162089.853085,1769162089.853572,28.0,0.0,4343.205078,4293.077148,4407.692383,4350.897461,4276.794922,4260.384766,4287.692383,4287.05127,4285.897461,4305.641113,4585.512695,4506.666504,4434.871582,4524.743652,,,,,,,,,,,,,,,,,,,,,,,,,,,,,,,,,,,,,,,,,,,,,,,,,,,,,,,,,,,,,,,,,,,,,,
1769162089.860894,1769162089.86138,29.0,0.0,4336.538574,4286.666504,4402.692383,4352.563965,4274.871582,4265.897461,4296.922852,4280.769043,4276.282227,4296.282227,4577.563965,4498.461426,4424.230957,4508.974121,,,,,,,,,,,,,,,,,,,,,,,,,,,,,,,,,,,,,,,,,,,,,,,,,,,,,,,,,,,,,,,,,,,,,,
1769162089.868702,1769162089.869089,30.0,0.0,4340.897461,4291.025879,4406.410156,4358.333496,4271.538574,4263.846191,4292.820313,4287.307617,4280.769043,4296.666504,4582.307617,4499.358887,4426.282227,4508.205078,0.843869,0.390497,0.278519,0.300275,0.122335,0.385736,0.370206,0.132791,0.074264,0.092098,0.631905,0.196038,0.468073,0.278579,0.095495,0.309536,0.352152,0.170019,0.105857,0.08781,0.23777,0.187796,0.069588,0.10247,0.055357,0.121437,0.234715,0.142651,0.118232,0.07359,0.104198,0.232526,0.127226,0.16956,0.113288,0.121488,0.371614,0.308848,0.18951,0.132554,0.20058,0.41327,0.243048,0.1579,0.092972,0.295503,0.49,0.239617,0.165044,0.206127,0.313006,0.460092,0.485276,0.115216,0.083411,0.617624,0.541466,0.588568,0.281202,0.146093,0.716691,0.335396,0.574195,0.262149,0.110704,0.642241,0.574118,0.679825,0.286096,0.177421
1769162089.876511,1769162089.876897,31.0,0.0,4343.717773,4293.461426,4406.794922,4357.94873,4270.512695,4260.897461,4294.230957,4293.589844,4281.538574,4295.128418,4576.794922,4498.589844,4426.538574,4517.179688,,,,,,,,,,,,,,,,,,,,,,,,,,,,,,,,,,,,,,,,,,,,,,,,,,,,,,,,,,,,,,,,,,,,,,
1769162089.884319,1769162089.884906,32.0,0.0,4337.436035,4287.692383,4400.512695,4352.307617,4277.05127,4267.563965,4301.666504,4292.692383,4277.692383,4290.641113,4567.692383,4492.820313,4422.820313,4520.897461,,,,,,,,,,,,,,,,,,,,,,,,,,,,,,,,,,,,,,,,,,,,,,,,,,,,,,,,,,,,,,,,,,,,,,
1769162089.892127,1769162089.892714,33.0,0.0,4336.025879,4285.0,4397.179688,4351.794922,4277.05127,4267.820313,4298.333496,4293.205078,4284.743652,4298.077148,4575.128418,4492.179688,4427.436035,4521.538574,,,,,,,,,,,,,,,,,,,,,,,,,,,,,,,,,,,,,,,,,,,,,,,,,,,,,,,,,,,,,,,,,,,,,,
1769162089.899936,1769162089.900622,34.0,0.0,4335.384766,4287.307617,4395.897461,4351.538574,4267.692383,4258.846191,4294.871582,4297.563965,4291.666504,4301.410156,4586.282227,4499.871582,4433.333496,4523.461426,,,,,,,,,,,,,,,,,,,,,,,,,,,,,,,,,,,,,,,,,,,,,,,,,,,,,,,,,,,,,,,,,,,,,,
1769162089.907744,1769162089.908431,35.0,0.0,4328.205078,4287.94873,4391.794922,4346.922852,4270.256348,4258.717773,4298.717773,4299.615234,4292.436035,4295.384766,4587.436035,4506.410156,4434.230957,4525.256348,,,,,,,,,,,,,,,,,,,,,,,,,,,,,,,,,,,,,,,,,,,,,,,,,,,,,,,,,,,,,,,,,,,,,,
1769162089.915553,1769162089.916439,36.0,0.0,4328.461426,4288.589844,4392.94873,4346.410156,4279.743652,4266.153809,4297.820313,4297.563965,4294.358887,4301.922852,4583.205078,4505.641113,4431.282227,4524.615234,,,,,,,,,,,,,,,,,,,,,,,,,,,,,,,,,,,,,,,,,,,,,,,,,,,,,,,,,,,,,,,,,,,,,,
1769162089.923361,1769162089.924248,37.0,0.0,4342.820313,4294.871582,4402.307617,4357.179688,4282.436035,4266.025879,4294.102539,4294.615234,4292.05127,4313.333496,4584.358887,4506.025879,4431.538574,4526.153809,,,,,,,,,,,,,,,,,,,,,,,,,,,,,,,,,,,,,,,,,,,,,,,,,,,,,,,,,,,,,,,,,,,,,,
1769162089.93117,1769162089.932156,38.0,0.0,4347.436035,4298.846191,4402.820313,4358.974121,4280.256348,4262.436035,4295.128418,4296.794922,4287.05127,4305.384766,4586.538574,4509.358887,4433.974121,4535.512695,,,,,,,,,,,,,,,,,,,,,,,,,,,,,,,,,,,,,,,,,,,,,,,,,,,,,,,,,,,,,,,,,,,,,,
1769162089.938978,1769162089.939964,39.0,0.0,4335.256348,4292.307617,4391.153809,4345.512695,4277.179688,4263.717773,4296.153809,4297.692383,4282.94873,4293.333496,4581.666504,4507.563965,4430.384766,4538.846191,,,,,,,,,,,,,,,,,,,,,,,,,,,,,,,,,,,,,,,,,,,,,,,,,,,,,,,,,,,,,,,,,,,,,,
1769162089.946787,1769162089.947773,40.0,0.0,4327.307617,4289.102539,4387.05127,4344.743652,4277.94873,4263.974121,4294.230957,4293.717773,4280.769043,4296.025879,4579.102539,4505.0,4428.461426,4528.846191,,,,,,,,,,,,,,,,,,,,,,,,,,,,,,,,,,,,,,,,,,,,,,,,,,,,,,,,,,,,,,,,,,,,,,
1769162089.954595,1769162089.955581,41.0,0.0,4326.666504,4293.846191,4390.512695,4353.461426,4280.0,4262.692383,4297.820313,4293.333496,4281.794922,4298.205078,4582.820313,4506.922852,4430.769043,4521.538574,,,,,,,,,,,,,,,,,,,,,,,,,,,,,,,,,,,,,,,,,,,,,,,,,,,,,,,,,,,,,,,,,,,,,,
1769162089.962403,1769162089.96329,42.0,0.0,4330.256348,4295.0,4388.077148,4352.05127,4280.128418,4263.333496,4298.717773,4294.743652,4286.410156,4295.256348,4582.179688,4505.897461,4430.0,4523.333496,,,,,,,,,,,,,,,,,,,,,,,,,,,,,,,,,,,,,,,,,,,,,,,,,,,,,,,,,,,,,,,,,,,,,,
1769162089.970212,1769162089.971098,43.0,0.0,4337.820313,4292.436035,4386.666504,4347.436035,4277.307617,4264.615234,4298.077148,4294.230957,4290.384766,4293.717773,4578.333496,4506.153809,4428.461426,4524.358887,,,,,,,,,,,,,,,,,,,,,,,,,,,,,,,,,,,,,,,,,,,,,,,,,,,,,,,,,,,,,,,,,,,,,,
1769162089.97802,1769162089.978707,44.0,0.0,4340.256348,4292.563965,4392.820313,4351.794922,4276.794922,4267.563965,4304.743652,4295.641113,4293.333496,4296.794922,4579.615234,4508.846191,4428.077148,4521.922852,,,,,,,,,,,,,,,,,,,,,,,,,,,,,,,,,,,,,,,,,,,,,,,,,,,,,,,,,,,,,,,,,,,,,,
1769162089.985829,1769162089.986515,45.0,0.0,4338.333496,4295.0,4398.461426,4356.025879,4280.641113,4264.871582,4300.769043,4294.230957,4294.615234,4297.05127,4577.692383,4503.974121,4427.94873,4521.410156,,,,,,,,,,,,,,,,,,,,,,,,,,,,,,,,,,,,,,,,,,,,,,,,,,,,,,,,,,,,,,,,,,,,,,
1769162089.993637,1769162089.994224,46.0,0.0,4338.461426,4295.256348,4394.871582,4353.461426,4281.153809,4263.333496,4296.282227,4289.615234,4290.256348,4293.205078,4569.871582,4497.563965,4426.538574,4519.230957,0.928217,0.374027,0.258642,0.255026,0.103764,0.363463,0.332133,0.122183,0.073186,0.090603,0.72526,0.185877,0.465149,0.238116,0.096043,0.343838,0.345679,0.152157,0.105609,0.096221,0.21879,0.168469,0.073262,0.086475,0.058795,0.133933,0.236465,0.140097,0.122925,0.080563,0.090308,0.20006,0.119917,0.1542,0.094169,0.117901,0.343313,0.296327,0.168142,0.133812,0.251741,0.322327,0.200669,0.143944,0.096528,0.332646,0.4082,0.225685,0.187864,0.209505,0.298202,0.326712,0.413233,0.100045,0.081295,0.601397,0.430846,0.537783,0.259851,0.146762,0.782666,0.29813,0.539904,0.24238,0.112256,0.429805,0.411048,0.555882,0.342584,0.176385
1769162090.001446,1769162090.002032,47.0,0.0,4341.410156,4299.358887,4390.641113,4356.153809,4280.512695,4268.974121,4305.0,4292.820313,4291.922852,4304.743652,4574.102539,4504.102539,4427.820313,4519.230957,,,,,,,,,,,,,,,,,,,,,,,,,,,,,,,,,,,,,,,,,,,,,,,,,,,,,,,,,,,,,,,,,,,,,,
1769162090.009254,1769162090.010041,48.0,0.0,4344.102539,4303.333496,4388.589844,4358.846191,4285.897461,4270.128418,4306.025879,4298.974121,4298.461426,4321.282227,4587.05127,4511.794922,4434.102539,4523.205078,,,,,,,,,,,,,,,,,,,,,,,,,,,,,,,,,,,,,,,,,,,,,,,,,,,,,,,,,,,,,,,,,,,,,,
1769162090.017063,1769162090.017849,49.0,0.0,4340.0,4297.94873,4382.05127,4352.94873,4287.692383,4268.077148,4300.769043,4296.410156,4293.974121,4318.077148,4588.846191,4506.025879,4440.128418,4522.820313,,,,,,,,,,,,,,,,,,,,,,,,,,,,,,,,,,,,,,,,,,,,,,,,,,,,,,,,,,,,,,,,,,,,,,
1769162090.024871,1769162090.025757,50.0,0.0,4331.410156,4294.871582,4379.358887,4349.487305,4282.307617,4264.615234,4298.461426,4293.717773,4291.538574,4311.666504,4586.666504,4504.615234,4444.487305,4524.102539,,,,,,,,,,,,,,,,,,,,,,,,,,,,,,,,,,,,,,,,,,,,,,,,,,,,,,,,,,,,,,,,,,,,,,
1769162090.032679,1769162090.033566,51.0,0.0,4328.205078,4295.512695,4379.615234,4349.743652,4280.897461,4263.846191,4299.871582,4295.128418,4294.615234,4310.128418,4582.820313,4506.410156,4440.384766,4524.615234,,,,,,,,,,,,,,,,,,,,,,,,,,,,,,,,,,,,,,,,,,,,,,,,,,,,,,,,,,,,,,,,,,,,,,
1769162090.040488,1769162090.041574,52.0,0.0,4327.307617,4289.871582,4373.974121,4345.128418,4279.615234,4270.769043,4307.436035,4294.230957,4288.077148,4301.153809,4570.897461,4496.153809,4427.179688,4514.230957,,,,,,,,,,,,,,,,,,,,,,,,,,,,,,,,,,,,,,,,,,,,,,,,,,,,,,,,,,,,,,,,,,,,,,
1769162090.048296,1769162090.049382,53.0,0.0,4325.512695,4285.897461,4374.230957,4340.384766,4274.358887,4272.05127,4309.743652,4290.384766,4280.128418,4293.205078,4564.743652,4487.436035,4423.077148,4504.487305,,,,,,,,,,,,,,,,,,,,,,,,,,,,,,,,,,,,,,,,,,,,,,,,,,,,,,,,,,,,,,,,,,,,,,
1769162090.056105,1769162090.057091,54.0,0.0,4330.897461,4288.974121,4380.897461,4343.077148,4277.563965,4265.384766,4297.94873,4288.717773,4284.615234,4290.897461,4570.256348,4492.179688,4428.846191,4509.487305,,,,,,,,,,,,,,,,,,,,,,,,,,,,,,,,,,,,,,,,,,,,,,,,,,,,,,,,,,,,,,,,,,,,,,
1769162090.063913,1769162090.064899,55.0,0.0,4339.615234,4293.205078,4378.077148,4347.307617,4286.666504,4260.256348,4289.358887,4290.897461,4292.436035,4296.538574,4574.230957,4499.615234,4428.974121,4518.589844,,,,,,,,,,,,,,,,,,,,,,,,,,,,,,,,,,,,,,,,,,,,,,,,,,,,,,,,,,,,,,,,,,,,,,
1769162090.071722,1769162090.072508,56.0,0.0,4341.794922,4301.538574,4377.307617,4353.974121,4288.461426,4254.230957,4288.717773,4293.717773,4296.794922,4311.794922,4578.333496,4505.128418,4433.077148,4520.897461,,,,,,,,,,,,,,,,,,,,,,,,,,,,,,,,,,,,,,,,,,,,,,,,,,,,,,,,,,,,,,,,,,,,,,
1769162090.07953,1769162090.080317,57.0,0.0,4341.794922,4306.538574,4383.589844,4359.615234,4289.743652,4254.230957,4289.615234,4295.0,4299.358887,4317.94873,4586.410156,4511.666504,4443.717773,4524.487305,,,,,,,,,,,,,,,,,,,,,,,,,,,,,,,,,,,,,,,,,,,,,,,,,,,,,,,,,,,,,,,,,,,,,,
1769162090.087339,1769162090.088225,58.0,0.0,4341.538574,4298.461426,4378.461426,4357.05127,4290.897461,4271.410156,4301.025879,4296.282227,4297.820313,4307.94873,4586.410156,4512.307617,4437.820313,4526.153809,,,,,,,,,,,,,,,,,,,,,,,,,,,,,,,,,,,,,,,,,,,,,,,,,,,,,,,,,,,,,,,,,,,,,,
1769162090.095147,1769162090.096033,59.0,0.0,4338.589844,4291.794922,4372.563965,4352.820313,4286.153809,4281.794922,4310.256348,4297.436035,4295.0,4308.077148,4581.025879,4509.230957,4426.282227,4519.358887,,,,,,,,,,,,,,,,,,,,,,,,,,,,,,,,,,,,,,,,,,,,,,,,,,,,,,,,,,,,,,,,,,,,,,
1769162090.102955,1769162090.104042,60.0,0.0,4332.820313,4292.94873,4373.974121,4348.717773,4281.282227,4276.282227,4306.922852,4298.589844,4295.512695,4312.820313,4580.0,4509.102539,4427.563965,4512.307617,,,,,,,,,,,,,,,,,,,,,,,,,,,,,,,,,,,,,,,,,,,,,,,,,,,,,,,,,,,,,,,,,,,,,,
1769162090.110764,1769162090.11185,61.0,0.0,4327.05127,4288.974121,4368.846191,4344.230957,4281.282227,4276.794922,4305.128418,4302.94873,4296.282227,4305.256348,4579.487305,4508.333496,4428.717773,4509.615234,,,,,,,,,,,,,,,,,,,,,,,,,,,,,,,,,,,,,,,,,,,,,,,,,,,,,,,,,,,,,,,,,,,,,,
1769162090.118572,1769162090.119758,62.0,0.0,4327.179688,4288.846191,4366.410156,4348.205078,4281.666504,4278.974121,4306.282227,4303.974121,4296.282227,4304.487305,4580.641113,4507.563965,4426.410156,4509.871582,0.953817,0.390155,0.248047,0.205314,0.09341,0.32248,0.284049,0.110067,0.070632,0.088446,0.741886,0.182271,0.424827,0.19,0.09844,0.362885,0.32521,0.1335,0.099926,0.104633,0.198595,0.151206,0.076293,0.069541,0.062114,0.152936,0.227056,0.131473,0.119589,0.08759,0.088765,0.162005,0.10685,0.126797,0.077812,0.13092,0.354487,0.26813,0.142335,0.133105,0.330033,0.279889,0.159662,0.122811,0.097693,0.395483,0.351272,0.206172,0.216953,0.216691,0.33913,0.246844,0.33263,0.090394,0.080945,0.616225,0.356442,0.466863,0.236735,0.148811,0.81915,0.303451,0.476604,0.228709,0.113338,0.391365,0.358328,0.416055,0.408389,0.170596
1769162090.126381,1769162090.127567,63.0,0.0,4327.94873,4293.589844,4371.794922,4354.743652,4281.666504,4278.974121,4310.384766,4303.077148,4296.153809,4308.333496,4579.871582,4508.461426,4426.410156,4509.358887,,,,,,,,,,,,,,,,,,,,,,,,,,,,,,,,,,,,,,,,,,,,,,,,,,,,,,,,,,,,,,,,,,,,,,
1769162090.134189,1769162090.135176,64.0,0.0,4323.333496,4288.077148,4368.333496,4348.846191,4283.077148,4281.153809,4312.94873,4309.230957,4300.769043,4305.128418,4573.461426,4507.692383,4424.871582,4506.538574,,,,,,,,,,,,,,,,,,,,,,,,,,,,,,,,,,,,,,,,,,,,,,,,,,,,,,,,,,,,,,,,,,,,,,
1769162090.141998,1769162090.142984,65.0,0.0,4324.487305,4282.05127,4362.307617,4343.461426,4281.922852,4280.769043,4310.0,4313.205078,4307.692383,4307.179688,4572.436035,4505.384766,4422.307617,4505.897461,,,,,,,,,,,,,,,,,,,,,,,,,,,,,,,,,,,,,,,,,,,,,,,,,,,,,,,,,,,,,,,,,,,,,,
1769162090.149806,1769162090.150693,66.0,0.0,4336.410156,4289.743652,4368.333496,4351.410156,4280.128418,4280.384766,4311.666504,4309.487305,4306.153809,4308.846191,4582.563965,4511.794922,4426.410156,4515.128418,,,,,,,,,,,,,,,,,,,,,,,,,,,,,,,,,,,,,,,,,,,,,,,,,,,,,,,,,,,,,,,,,,,,,,
1769162090.157615,1769162090.158501,67.0,0.0,4345.256348,4303.846191,4376.666504,4358.077148,4281.666504,4281.410156,4316.025879,4310.0,4299.615234,4302.05127,4593.333496,4526.666504,4438.846191,4532.05127,,,,,,,,,,,,,,,,,,,,,,,,,,,,,,,,,,,,,,,,,,,,,,,,,,,,,,,,,,,,,,,,,,,,,,
1769162090.165423,1769162090.16611,68.0,0.0,4344.230957,4305.256348,4374.230957,4355.384766,4281.794922,4278.333496,4309.102539,4309.615234,4294.615234,4302.179688,4592.05127,4526.410156,4447.05127,4537.563965,,,,,,,,,,,,,,,,,,,,,,,,,,,,,,,,,,,,,,,,,,,,,,,,,,,,,,,,,,,,,,,,,,,,,,
1769162090.173231,1769162090.173918,69.0,0.0,4343.974121,4298.077148,4368.846191,4353.974121,4280.256348,4272.05127,4297.692383,4296.922852,4291.153809,4308.205078,4588.846191,4510.0,4446.922852,4533.846191,,,,,,,,,,,,,,,,,,,,,,,,,,,,,,,,,,,,,,,,,,,,,,,,,,,,,,,,,,,,,,,,,,,,,,
1769162090.18104,1769162090.181627,70.0,0.0,4348.846191,4298.589844,4368.077148,4354.487305,4280.256348,4273.077148,4301.410156,4295.769043,4291.025879,4304.487305,4593.205078,4508.333496,4450.384766,4535.641113,,,,,,,,,,,,,,,,,,,,,,,,,,,,,,,,,,,,,,,,,,,,,,,,,,,,,,,,,,,,,,,,,,,,,,
1769162090.188849,1769162090.189435,71.0,0.0,4353.846191,4306.922852,4367.307617,4353.846191,4280.641113,4279.102539,4306.538574,4307.179688,4294.615234,4308.589844,4595.769043,4517.94873,4458.589844,4540.641113,,,,,,,,,,,,,,,,,,,,,,,,,,,,,,,,,,,,,,,,,,,,,,,,,,,,,,,,,,,,,,,,,,,,,,
1769162090.196657,1769162090.197044,72.0,0.0,4353.717773,4312.692383,4366.153809,4358.589844,4281.025879,4277.820313,4295.128418,4301.282227,4296.025879,4314.743652,4592.307617,4514.102539,4458.077148,4537.820313,,,,,,,,,,,,,,,,,,,,,,,,,,,,,,,,,,,,,,,,,,,,,,,,,,,,,,,,,,,,,,,,,,,,,,
1769162090.204466,1769162090.204852,73.0,0.0,4346.538574,4309.230957,4363.077148,4357.692383,4284.102539,4275.0,4295.256348,4294.487305,4293.846191,4303.589844,4589.102539,4506.538574,4447.94873,4527.436035,,,,,,,,,,,,,,,,,,,,,,,,,,,,,,,,,,,,,,,,,,,,,,,,,,,,,,,,,,,,,,,,,,,,,,
1769162090.212274,1769162090.212561,74.0,0.0,4340.256348,4304.871582,4360.641113,4350.256348,4284.871582,4278.461426,4309.230957,4307.307617,4295.256348,4301.025879,4586.922852,4513.205078,4442.563965,4521.410156,,,,,,,,,,,,,,,,,,,,,,,,,,,,,,,,,,,,,,,,,,,,,,,,,,,,,,,,,,,,,,,,,,,,,,
1769162090.220082,1769162090.220369,75.0,0.0,4341.666504,4303.077148,4360.897461,4352.436035,4284.102539,4280.256348,4304.871582,4310.897461,4298.717773,4313.589844,4586.922852,4522.179688,4446.153809,4524.487305,,,,,,,,,,,,,,,,,,,,,,,,,,,,,,,,,,,,,,,,,,,,,,,,,,,,,,,,,,,,,,,,,,,,,,
1769162090.227891,1769162090.228377,76.0,0.0,4343.205078,4301.794922,4360.769043,4358.077148,4285.769043,4276.922852,4295.0,4301.153809,4297.05127,4309.743652,4591.282227,4522.05127,4445.897461,4524.615234,,,,,,,,,,,,,,,,,,,,,,,,,,,,,,,,,,,,,,,,,,,,,,,,,,,,,,,,,,,,,,,,,,,,,,
1769162090.235699,1769162090.236186,77.0,0.0,4340.769043,4301.538574,4358.846191,4355.512695,4283.717773,4275.897461,4299.102539,4302.820313,4293.717773,4298.974121,4589.743652,4520.897461,4445.0,4523.077148,,,,,,,,,,,,,,,,,,,,,,,,,,,,,,,,,,,,,,,,,,,,,,,,,,,,,,,,,,,,,,,,,,,,,,
1769162090.243508,1769162090.244094,78.0,0.0,4340.769043,4304.487305,4358.717773,4353.717773,4280.256348,4276.922852,4298.717773,4308.461426,4294.871582,4301.538574,4587.179688,4523.077148,4454.615234,4533.077148,0.887723,0.422894,0.250909,0.168729,0.092828,0.263117,0.229573,0.104339,0.069538,0.086139,0.684073,0.183283,0.359914,0.149089,0.101912,0.35402,0.301425,0.124552,0.091059,0.110469,0.182809,0.14352,0.081585,0.05763,0.065676,0.189166,0.210651,0.124588,0.110339,0.095962,0.096902,0.125572,0.095317,0.095741,0.069348,0.157936,0.405946,0.238181,0.117671,0.131492,0.422668,0.29079,0.13262,0.10347,0.096811,0.468757,0.323169,0.187249,0.244219,0.227981,0.414818,0.221965,0.269294,0.097292,0.085335,0.642414,0.323319,0.394354,0.21801,0.150144,0.792534,0.333231,0.398994,0.226073,0.11284,0.463104,0.398709,0.291505,0.467569,0.161144
1769162090.251316,1769162090.251903,79.0,0.0,4343.077148,4306.153809,4359.230957,4356.794922,4283.846191,4280.0,4298.717773,4309.743652,4298.333496,4308.846191,4590.641113,4526.410156,4456.922852,4537.563965,,,,,,,,,,,,,,,,,,,,,,,,,,,,,,,,,,,,,,,,,,,,,,,,,,,,,,,,,,,,,,,,,,,,,,
1769162090.259125,1769162090.259511,80.0,0.0,4343.974121,4304.871582,4357.05127,4358.205078,4286.538574,4281.794922,4308.077148,4311.153809,4299.487305,4311.282227,4590.0,4526.153809,4446.025879,4526.282227,,,,,,,,,,,,,,,,,,,,,,,,,,,,,,,,,,,,,,,,,,,,,,,,,,,,,,,,,,,,,,,,,,,,,,
1769162090.266933,1769162090.26732,81.0,0.0,4343.846191,4307.179688,4358.077148,4357.436035,4282.307617,4278.333496,4305.256348,4307.179688,4297.05127,4312.307617,4588.077148,4524.358887,4443.205078,4522.436035,,,,,,,,,,,,,,,,,,,,,,,,,,,,,,,,,,,,,,,,,,,,,,,,,,,,,,,,,,,,,,,,,,,,,,
1769162090.274742,1769162090.275028,82.0,0.0,4340.0,4303.589844,4354.358887,4352.94873,4280.128418,4275.0,4295.897461,4301.922852,4292.94873,4309.487305,4586.025879,4521.922852,4447.05127,4520.512695,,,,,,,,,,,,,,,,,,,,,,,,,,,,,,,,,,,,,,,,,,,,,,,,,,,,,,,,,,,,,,,,,,,,,,
1769162090.28255,1769162090.282837,83.0,0.0,4336.922852,4296.922852,4345.128418,4348.974121,4280.256348,4271.538574,4295.0,4300.641113,4293.974121,4305.512695,4582.05127,4520.0,4445.256348,4513.461426,,,,,,,,,,,,,,,,,,,,,,,,,,,,,,,,,,,,,,,,,,,,,,,,,,,,,,,,,,,,,,,,,,,,,,
1769162090.290358,1769162090.290845,84.0,0.0,4339.102539,4301.153809,4342.307617,4351.922852,4278.589844,4265.128418,4292.05127,4297.436035,4292.94873,4301.922852,4580.256348,4519.230957,4443.333496,4517.179688,,,,,,,,,,,,,,,,,,,,,,,,,,,,,,,,,,,,,,,,,,,,,,,,,,,,,,,,,,,,,,,,,,,,,,
1769162090.298167,1769162090.298653,85.0,0.0,4340.769043,4306.666504,4341.922852,4352.179688,4280.769043,4265.256348,4290.384766,4292.94873,4283.589844,4297.94873,4581.025879,4517.820313,4445.641113,4523.461426,,,,,,,,,,,,,,,,,,,,,,,,,,,,,,,,,,,,,,,,,,,,,,,,,,,,,,,,,,,,,,,,,,,,,,
1769162090.305975,1769162090.306562,86.0,0.0,4340.512695,4304.230957,4338.846191,4348.846191,4282.563965,4271.794922,4293.589844,4294.615234,4281.666504,4295.384766,4578.333496,4514.871582,4444.615234,4520.128418,,,,,,,,,,,,,,,,,,,,,,,,,,,,,,,,,,,,,,,,,,,,,,,,,,,,,,,,,,,,,,,,,,,,,,
1769162090.313784,1769162090.31437,87.0,0.0,4342.94873,4303.974121,4334.615234,4348.077148,4280.128418,4273.205078,4291.922852,4296.922852,4288.077148,4295.0,4574.487305,4511.153809,4440.0,4516.666504,,,,,,,,,,,,,,,,,,,,,,,,,,,,,,,,,,,,,,,,,,,,,,,,,,,,,,,,,,,,,,,,,,,,,,
1769162090.321592,1769162090.322378,88.0,0.0,4339.871582,4303.333496,4330.256348,4345.769043,4281.282227,4272.563965,4291.666504,4296.538574,4286.282227,4295.769043,4572.692383,4509.743652,4433.589844,4513.461426,,,,,,,,,,,,,,,,,,,,,,,,,,,,,,,,,,,,,,,,,,,,,,,,,,,,,,,,,,,,,,,,,,,,,,
1769162090.329401,1769162090.330187,89.0,0.0,4329.358887,4297.05127,4321.410156,4341.922852,4283.717773,4276.410156,4294.615234,4296.282227,4279.487305,4295.384766,4568.589844,4503.717773,4429.871582,4505.769043,,,,,,,,,,,,,,,,,,,,,,,,,,,,,,,,,,,,,,,,,,,,,,,,,,,,,,,,,,,,,,,,,,,,,,
1769162090.337209,1769162090.337895,90.0,0.0,4320.128418,4290.384766,4311.410156,4339.615234,4279.615234,4276.153809,4290.641113,4295.512695,4280.0,4291.410156,4562.436035,4495.769043,4427.820313,4497.94873,,,,,,,,,,,,,,,,,,,,,,,,,,,,,,,,,,,,,,,,,,,,,,,,,,,,,,,,,,,,,,,,,,,,,,
1769162090.345018,1769162090.345704,91.0,0.0,4316.282227,4286.025879,4308.077148,4337.563965,4275.641113,4270.512695,4287.307617,4295.384766,4281.410156,4292.436035,4560.512695,4496.794922,4425.769043,4493.717773,,,,,,,,,,,,,,,,,,,,,,,,,,,,,,,,,,,,,,,,,,,,,,,,,,,,,,,,,,,,,,,,,,,,,,
1769162090.352826,1769162090.353313,92.0,0.0,4316.794922,4289.230957,4309.102539,4339.358887,4277.94873,4266.153809,4290.641113,4295.128418,4278.846191,4295.256348,4566.025879,4503.461426,4427.436035,4497.692383,,,,,,,,,,,,,,,,,,,,,,,,,,,,,,,,,,,,,,,,,,,,,,,,,,,,,,,,,,,,,,,,,,,,,,
1769162090.360634,1769162090.361121,93.0,0.0,4317.05127,4293.974121,4303.846191,4341.538574,4277.94873,4266.922852,4292.94873,4293.589844,4276.922852,4286.153809,4569.230957,4502.307617,4429.102539,4503.846191,,,,,,,,,,,,,,,,,,,,,,,,,,,,,,,,,,,,,,,,,,,,,,,,,,,,,,,,,,,,,,,,,,,,,,
1769162090.368443,1769162090.36883,94.0,0.0,4316.794922,4292.307617,4295.897461,4337.563965,4273.717773,4265.897461,4287.692383,4291.538574,4276.794922,4282.179688,4566.794922,4501.282227,4434.871582,4502.692383,0.773064,0.461992,0.276541,0.157803,0.100308,0.199097,0.18077,0.118618,0.072986,0.085429,0.550855,0.189652,0.293905,0.123507,0.105834,0.333914,0.291069,0.138686,0.082075,0.113296,0.172792,0.148477,0.096864,0.054292,0.069365,0.247697,0.197457,0.125293,0.101909,0.10599,0.118069,0.103893,0.093522,0.07321,0.071235,0.199602,0.48214,0.219192,0.099811,0.130228,0.508553,0.336587,0.132779,0.095253,0.095263,0.53995,0.335563,0.18427,0.265425,0.242037,0.504762,0.238541,0.242159,0.12771,0.096131,0.649692,0.323075,0.340641,0.210333,0.150413,0.699754,0.368373,0.323159,0.23507,0.110428,0.616168,0.489848,0.206641,0.505214,0.151101
1769162090.376251,1769162090.376638,95.0,0.0,4321.025879,4290.641113,4295.897461,4338.461426,4273.846191,4261.282227,4279.615234,4292.692383,4278.077148,4294.230957,4570.384766,4509.487305,4444.102539,4505.128418,,,,,,,,,,,,,,,,,,,,,,,,,,,,,,,,,,,,,,,,,,,,,,,,,,,,,,,,,,,,,,,,,,,,,,
1769162090.38406,1769162090.384247,96.0,0.0,4321.153809,4289.871582,4297.563965,4341.794922,4276.153809,4261.922852,4278.461426,4294.615234,4277.307617,4298.717773,4572.307617,4510.384766,4444.102539,4513.205078,,,,,,,,,,,,,,,,,,,,,,,,,,,,,,,,,,,,,,,,,,,,,,,,,,,,,,,,,,,,,,,,,,,,,,
1769162090.391868,1769162090.392055,97.0,0.0,4311.410156,4288.077148,4293.846191,4336.025879,4276.282227,4265.641113,4281.410156,4292.94873,4277.94873,4293.333496,4573.077148,4509.487305,4441.538574,4520.0,,,,,,,,,,,,,,,,,,,,,,,,,,,,,,,,,,,,,,,,,,,,,,,,,,,,,,,,,,,,,,,,,,,,,,
1769162090.399677,1769162090.399963,98.0,0.0,4308.077148,4290.256348,4289.358887,4333.333496,4277.820313,4260.641113,4277.94873,4291.922852,4279.871582,4295.256348,4575.769043,4518.717773,4446.666504,4523.974121,,,,,,,,,,,,,,,,,,,,,,,,,,,,,,,,,,,,,,,,,,,,,,,,,,,,,,,,,,,,,,,,,,,,,,
1769162090.407485,1769162090.407772,99.0,0.0,4316.410156,4295.641113,4290.0,4338.461426,4280.0,4259.230957,4276.153809,4294.102539,4280.384766,4297.307617,4576.025879,4524.615234,4447.820313,4523.461426,,,,,,,,,,,,,,,,,,,,,,,,,,,,,,,,,,,,,,,,,,,,,,,,,,,,,,,,,,,,,,,,,,,,,,
1769162090.415294,1769162090.41578,100.0,0.0,4319.102539,4292.436035,4288.589844,4336.153809,4278.717773,4268.589844,4285.512695,4296.153809,4284.487305,4294.230957,4575.0,4523.333496,4442.94873,4523.846191,,,,,,,,,,,,,,,,,,,,,,,,,,,,,,,,,,,,,,,,,,,,,,,,,,,,,,,,,,,,,,,,,,,,,,
1769162090.423102,1769162090.423589,101.0,0.0,4310.769043,4286.153809,4281.666504,4330.384766,4276.922852,4270.769043,4290.512695,4297.820313,4288.205078,4294.871582,4575.256348,4523.333496,4444.102539,4519.743652,,,,,,,,,,,,,,,,,,,,,,,,,,,,,,,,,,,,,,,,,,,,,,,,,,,,,,,,,,,,,,,,,,,,,,
1769162090.43091,1769162090.431497,102.0,0.0,4308.333496,4288.077148,4278.333496,4333.589844,4277.692383,4263.846191,4284.358887,4298.205078,4282.692383,4294.871582,4573.077148,4523.589844,4441.922852,4511.025879,,,,,,,,,,,,,,,,,,,,,,,,,,,,,,,,,,,,,,,,,,,,,,,,,,,,,,,,,,,,,,,,,,,,,,
1769162090.438719,1769162090.439305,103.0,0.0,4318.974121,4294.743652,4281.410156,4339.358887,4278.461426,4262.94873,4277.94873,4293.589844,4275.512695,4291.666504,4568.333496,4521.025879,4432.692383,4514.230957,,,,,,,,,,,,,,,,,,,,,,,,,,,,,,,,,,,,,,,,,,,,,,,,,,,,,,,,,,,,,,,,,,,,,,
1769162090.446527,1769162090.447314,104.0,0.0,4327.692383,4296.153809,4280.512695,4338.717773,4277.94873,4264.871582,4278.077148,4287.692383,4276.794922,4283.077148,4569.615234,4521.282227,4432.563965,4524.358887,,,,,,,,,,,,,,,,,,,,,,,,,,,,,,,,,,,,,,,,,,,,,,,,,,,,,,,,,,,,,,,,,,,,,,
1769162090.454336,1769162090.455122,105.0,0.0,4326.153809,4292.692383,4277.05127,4335.641113,4276.922852,4263.333496,4278.974121,4288.846191,4278.717773,4280.128418,4576.922852,4525.897461,4442.436035,4525.128418,,,,,,,,,,,,,,,,,,,,,,,,,,,,,,,,,,,,,,,,,,,,,,,,,,,,,,,,,,,,,,,,,,,,,,
1769162090.462144,1769162090.462831,106.0,0.0,4324.743652,4291.025879,4279.358887,4333.974121,4275.384766,4263.333496,4278.589844,4292.692383,4276.538574,4291.282227,4580.897461,4530.897461,4446.666504,4523.589844,,,,,,,,,,,,,,,,,,,,,,,,,,,,,,,,,,,,,,,,,,,,,,,,,,,,,,,,,,,,,,,,,,,,,,
1769162090.469953,1769162090.470639,107.0,0.0,4326.025879,4289.358887,4278.461426,4333.461426,4273.461426,4265.128418,4280.641113,4294.102539,4277.94873,4298.974121,4577.692383,4530.128418,4443.205078,4523.205078,,,,,,,,,,,,,,,,,,,,,,,,,,,,,,,,,,,,,,,,,,,,,,,,,,,,,,,,,,,,,,,,,,,,,,
1769162090.477761,1769162090.478647,108.0,0.0,4322.820313,4288.974121,4273.205078,4334.102539,4271.794922,4264.615234,4282.05127,4296.410156,4280.128418,4293.077148,4572.436035,4526.025879,4441.282227,4514.358887,,,,,,,,,,,,,,,,,,,,,,,,,,,,,,,,,,,,,,,,,,,,,,,,,,,,,,,,,,,,,,,,,,,,,,
1769162090.48557,1769162090.486456,109.0,0.0,4317.563965,4290.384766,4273.077148,4335.897461,4271.666504,4264.871582,4281.153809,4294.230957,4278.717773,4287.94873,4573.717773,4526.922852,4442.820313,4510.897461,,,,,,,,,,,,,,,,,,,,,,,,,,,,,,,,,,,,,,,,,,,,,,,,,,,,,,,,,,,,,,,,,,,,,,
1769162090.493378,1769162090.494364,110.0,0.0,4315.641113,4288.974121,4269.487305,4335.256348,4272.820313,4266.410156,4279.102539,4286.282227,4276.538574,4289.102539,4572.94873,4524.743652,4442.94873,4517.05127,0.639228,0.51596,0.336399,0.17384,0.111216,0.142881,0.154967,0.161638,0.083795,0.088601,0.41764,0.204659,0.253572,0.11299,0.109183,0.303067,0.303491,0.181578,0.075551,0.114442,0.166919,0.162373,0.128746,0.059277,0.072376,0.324229,0.19917,0.134291,0.102708,0.116152,0.161416,0.109652,0.103344,0.070421,0.082685,0.250619,0.559272,0.213535,0.091464,0.130091,0.555273,0.389658,0.168249,0.103316,0.094335,0.573783,0.397087,0.212572,0.280787,0.255991,0.557843,0.279018,0.260284,0.178754,0.112255,0.650028,0.335669,0.325662,0.214844,0.150524,0.579893,0.409742,0.266407,0.253751,0.106566,0.783875,0.604768,0.185319,0.513197,0.142642
1769162090.501186,1769162090.502173,111.0,0.0,4317.307617,4290.641113,4263.333496,4333.974121,4275.897461,4266.282227,4277.307617,4285.897461,4276.666504,4291.025879,4569.615234,4521.922852,4441.922852,4519.102539,,,,,,,,,,,,,,,,,,,,,,,,,,,,,,,,,,,,,,,,,,,,,,,,,,,,,,,,,,,,,,,,,,,,,,
1769162090.508995,1769162090.509981,112.0,0.0,4323.205078,4295.512695,4269.615234,4338.077148,4280.256348,4262.94873,4277.436035,4293.333496,4283.846191,4293.333496,4575.0,4533.205078,4444.102539,4521.794922,,,,,,,,,,,,,,,,,,,,,,,,,,,,,,,,,,,,,,,,,,,,,,,,,,,,,,,,,,,,,,,,,,,,,,
1769162090.516804,1769162090.517789,113.0,0.0,4325.769043,4295.128418,4277.563965,4338.974121,4280.769043,4262.05127,4278.589844,4296.025879,4290.256348,4295.384766,4581.025879,4542.692383,4445.641113,4525.897461,,,,,,,,,,,,,,,,,,,,,,,,,,,,,,,,,,,,,,,,,,,,,,,,,,,,,,,,,,,,,,,,,,,,,,
1769162090.524612,1769162090.525498,114.0,0.0,4324.230957,4292.436035,4274.871582,4336.025879,4277.94873,4264.487305,4279.230957,4294.230957,4286.794922,4296.025879,4574.743652,4537.94873,4442.692383,4523.077148,,,,,,,,,,,,,,,,,,,,,,,,,,,,,,,,,,,,,,,,,,,,,,,,,,,,,,,,,,,,,,,,,,,,,,
1769162090.532421,1769162090.533306,115.0,0.0,4331.153809,4294.487305,4277.179688,4338.205078,4282.563965,4265.897461,4278.846191,4294.358887,4283.205078,4287.94873,4569.358887,4534.871582,4442.692383,4520.769043,,,,,,,,,,,,,,,,,,,,,,,,,,,,,,,,,,,,,,,,,,,,,,,,,,,,,,,,,,,,,,,,,,,,,,
1769162090.540229,1769162090.540915,116.0,0.0,4334.743652,4294.230957,4280.769043,4337.820313,4288.974121,4266.794922,4281.282227,4294.615234,4283.589844,4278.974121,4573.077148,4532.05127,4439.358887,4520.256348,,,,,,,,,,,,,,,,,,,,,,,,,,,,,,,,,,,,,,,,,,,,,,,,,,,,,,,,,,,,,,,,,,,,,,
1769162090.548037,1769162090.548724,117.0,0.0,4324.358887,4291.153809,4271.153809,4332.436035,4285.256348,4267.94873,4282.820313,4294.102539,4279.230957,4284.358887,4572.179688,4523.333496,4429.871582,4511.666504,,,,,,,,,,,,,,,,,,,,,,,,,,,,,,,,,,,,,,,,,,,,,,,,,,,,,,,,,,,,,,,,,,,,,,
1769162090.555846,1769162090.556432,118.0,0.0,4319.615234,4293.589844,4262.94873,4335.641113,4281.666504,4267.307617,4279.230957,4293.333496,4276.666504,4290.384766,4566.794922,4520.769043,4428.589844,4505.512695,,,,,,,,,,,,,,,,,,,,,,,,,,,,,,,,,,,,,,,,,,,,,,,,,,,,,,,,,,,,,,,,,,,,,,
1769162090.563654,1769162090.564241,119.0,0.0,4324.615234,4296.282227,4264.358887,4343.077148,4283.461426,4265.769043,4277.94873,4293.205078,4281.538574,4283.333496,4565.641113,4523.461426,4431.538574,4506.538574,,,,,,,,,,,,,,,,,,,,,,,,,,,,,,,,,,,,,,,,,,,,,,,,,,,,,,,,,,,,,,,,,,,,,,
1769162090.571463,1769162090.571849,120.0,0.0,4320.897461,4291.922852,4263.077148,4338.974121,4283.205078,4264.871582,4277.05127,4293.846191,4280.897461,4276.794922,4566.153809,4520.769043,4429.871582,4505.641113,,,,,,,,,,,,,,,,,,,,,,,,,,,,,,,,,,,,,,,,,,,,,,,,,,,,,,,,,,,,,,,,,,,,,,
1769162090.579271,1769162090.579658,121.0,0.0,4321.922852,4292.94873,4263.589844,4337.436035,4281.666504,4264.230957,4269.743652,4293.717773,4278.205078,4281.153809,4568.461426,4520.128418,4435.512695,4504.615234,,,,,,,,,,,,,,,,,,,,,,,,,,,,,,,,,,,,,,,,,,,,,,,,,,,,,,,,,,,,,,,,,,,,,,
1769162090.58708,1769162090.587366,122.0,0.0,4331.025879,4297.94873,4266.666504,4341.922852,4281.794922,4263.974121,4262.820313,4293.077148,4280.384766,4284.871582,4570.512695,4523.461426,4446.666504,4509.615234,,,,,,,,,,,,,,,,,,,,,,,,,,,,,,,,,,,,,,,,,,,,,,,,,,,,,,,,,,,,,,,,,,,,,,
1769162090.594888,1769162090.595175,123.0,0.0,4319.230957,4288.333496,4261.666504,4335.256348,4279.487305,4264.358887,4267.436035,4291.794922,4278.717773,4283.717773,4568.205078,4525.641113,4441.410156,4509.102539,,,,,,,,,,,,,,,,,,,,,,,,,,,,,,,,,,,,,,,,,,,,,,,,,,,,,,,,,,,,,,,,,,,,,,
1769162090.602697,1769162090.602783,124.0,0.0,4306.282227,4279.871582,4257.820313,4329.615234,4277.94873,4265.384766,4271.666504,4290.384766,4276.922852,4276.922852,4566.922852,4523.589844,4427.436035,4500.384766,,,,,,,,,,,,,,,,,,,,,,,,,,,,,,,,,,,,,,,,,,,,,,,,,,,,,,,,,,,,,,,,,,,,,,
1769162090.610505,1769162090.610592,125.0,0.0,4321.922852,4291.410156,4263.461426,4338.589844,4279.615234,4264.743652,4267.820313,4291.282227,4278.846191,4273.333496,4567.436035,4521.794922,4426.538574,4500.256348,,,,,,,,,,,,,,,,,,,,,,,,,,,,,,,,,,,,,,,,,,,,,,,,,,,,,,,,,,,,,,,,,,,,,,
1769162090.618313,1769162090.6185,126.0,0.0,4336.538574,4300.128418,4265.897461,4344.615234,4277.820313,4263.077148,4264.230957,4293.717773,4279.743652,4279.230957,4567.05127,4528.205078,4431.153809,4508.077148,0.53222,0.59831,0.428175,0.205107,0.120545,0.117066,0.164992,0.227713,0.104109,0.096649,0.290821,0.229153,0.250414,0.110049,0.110925,0.269171,0.334066,0.245057,0.073542,0.115731,0.15902,0.177048,0.175526,0.069184,0.073499,0.402253,0.223018,0.149271,0.117899,0.123416,0.229505,0.148863,0.121078,0.091793,0.100164,0.312839,0.613324,0.213653,0.09137,0.130728,0.554711,0.428171,0.233563,0.125577,0.094357,0.574567,0.498767,0.281779,0.292102,0.265848,0.578591,0.329355,0.318254,0.238342,0.129257,0.659379,0.340793,0.357102,0.225742,0.151645,0.520323,0.470028,0.243142,0.278108,0.102404,0.992738,0.734929,0.247886,0.493402,0.136539
1769162090.626122,1769162090.626308,127.0,0.0,4329.615234,4294.615234,4263.589844,4340.0,4272.692383,4261.922852,4265.769043,4294.615234,4280.0,4283.077148,4568.589844,4537.436035,4431.794922,4511.922852,,,,,,,,,,,,,,,,,,,,,,,,,,,,,,,,,,,,,,,,,,,,,,,,,,,,,,,,,,,,,,,,,,,,,,
1769162090.63393,1769162090.634317,0.0,0.0,4324.743652,4290.0,4265.256348,4338.589844,4271.922852,4263.717773,4271.666504,4294.487305,4280.0,4280.128418,4570.512695,4539.871582,4433.589844,4509.871582,,,,,,,,,,,,,,,,,,,,,,,,,,,,,,,,,,,,,,,,,,,,,,,,,,,,,,,,,,,,,,,,,,,,,,
1769162090.641739,1769162090.642125,1.0,0.0,4326.538574,4285.0,4265.897461,4334.487305,4273.846191,4266.410156,4273.205078,4293.333496,4277.307617,4276.025879,4568.333496,4529.230957,4431.025879,4502.179688,,,,,,,,,,,,,,,,,,,,,,,,,,,,,,,,,,,,,,,,,,,,,,,,,,,,,,,,,,,,,,,,,,,,,,
1769162090.649547,1769162090.650034,2.0,0.0,4321.922852,4280.897461,4260.128418,4326.666504,4274.743652,4263.717773,4264.487305,4290.769043,4276.538574,4275.641113,4568.077148,4521.538574,4428.333496,4497.820313,,,,,,,,,,,,,,,,,,,,,,,,,,,,,,,,,,,,,,,,,,,,,,,,,,,,,,,,,,,,,,,,,,,,,,
1769162090.657356,1769162090.657842,3.0,0.0,4320.0,4284.487305,4256.666504,4329.871582,4277.05127,4262.436035,4262.179688,4291.025879,4279.743652,4279.487305,4571.794922,4533.333496,4436.666504,4504.871582,,,,,,,,,,,,,,,,,,,,,,,,,,,,,,,,,,,,,,,,,,,,,,,,,,,,,,,,,,,,,,,,,,,,,,
1769162090.665164,1769162090.665451,4.0,0.0,4324.102539,4286.410156,4258.589844,4336.410156,4279.230957,4268.974121,4276.794922,4295.128418,4280.769043,4279.743652,4569.230957,4537.436035,4437.179688,4507.820313,,,,,,,,,,,,,,,,,,,,,,,,,,,,,,,,,,,,,,,,,,,,,,,,,,,,,,,,,,,,,,,,,,,,,,
1769162090.672973,1769162090.673259,5.0,0.0,4329.871582,4289.487305,4262.692383,4339.615234,4277.692383,4270.128418,4279.743652,4292.94873,4278.461426,4273.461426,4565.0,4524.743652,4425.769043,4501.794922,,,,,,,,,,,,,,,,,,,,,,,,,,,,,,,,,,,,,,,,,,,,,,,,,,,,,,,,,,,,,,,,,,,,,,
1769162090.680781,1769162090.681167,6.0,0.0,4335.641113,4296.794922,4266.282227,4341.538574,4277.436035,4261.666504,4263.589844,4286.794922,4279.358887,4272.563965,4568.974121,4527.179688,4429.102539,4505.0,,,,,,,,,,,,,,,,,,,,,,,,,,,,,,,,,,,,,,,,,,,,,,,,,,,,,,,,,,,,,,,,,,,,,,
1769162090.688589,1769162090.688976,7.0,0.0,4335.256348,4296.922852,4265.0,4341.282227,4278.205078,4260.0,4262.436035,4289.102539,4281.922852,4280.512695,4572.563965,4540.128418,4437.436035,4511.666504,,,,,,,,,,,,,,,,,,,,,,,,,,,,,,,,,,,,,,,,,,,,,,,,,,,,,,,,,,,,,,,,,,,,,,
1769162090.696398,1769162090.696984,8.0,0.0,4329.487305,4293.333496,4265.641113,4340.384766,4276.794922,4266.153809,4276.794922,4295.256348,4281.922852,4281.538574,4570.384766,4536.922852,4432.692383,4508.974121,,,,,,,,,,,,,,,,,,,,,,,,,,,,,,,,,,,,,,,,,,,,,,,,,,,,,,,,,,,,,,,,,,,,,,
1769162090.704206,1769162090.704793,9.0,0.0,4327.820313,4295.512695,4270.512695,4342.307617,4275.384766,4266.666504,4280.769043,4295.0,4281.153809,4276.153809,4570.897461,4534.743652,4433.333496,4505.512695,,,,,,,,,,,,,,,,,,,,,,,,,,,,,,,,,,,,,,,,,,,,,,,,,,,,,,,,,,,,,,,,,,,,,,
1769162090.712015,1769162090.712501,10.0,0.0,4334.358887,4295.897461,4270.512695,4343.205078,4276.410156,4264.358887,4274.615234,4294.358887,4280.0,4278.846191,4573.846191,4541.282227,4441.282227,4506.282227,,,,,,,,,,,,,,,,,,,,,,,,,,,,,,,,,,,,,,,,,,,,,,,,,,,,,,,,,,,,,,,,,,,,,,
1769162090.719823,1769162090.72031,11.0,0.0,4337.692383,4293.717773,4266.922852,4342.05127,4277.179688,4267.563965,4275.769043,4297.05127,4280.128418,4283.846191,4572.05127,4541.410156,4443.333496,4508.974121,,,,,,,,,,,,,,,,,,,,,,,,,,,,,,,,,,,,,,,,,,,,,,,,,,,,,,,,,,,,,,,,,,,,,,
1769162090.727632,1769162090.727918,12.0,0.0,4333.461426,4294.743652,4266.794922,4344.358887,4277.563965,4270.256348,4279.230957,4296.410156,4285.384766,4278.846191,4572.94873,4540.256348,4440.897461,4507.94873,,,,,,,,,,,,,,,,,,,,,,,,,,,,,,,,,,,,,,,,,,,,,,,,,,,,,,,,,,,,,,,,,,,,,,
1769162090.73544,1769162090.735727,13.0,0.0,4325.641113,4290.897461,4260.256348,4340.897461,4276.794922,4270.0,4277.436035,4293.461426,4283.846191,4274.230957,4569.487305,4533.461426,4434.230957,4497.307617,,,,,,,,,,,,,,,,,,,,,,,,,,,,,,,,,,,,,,,,,,,,,,,,,,,,,,,,,,,,,,,,,,,,,,
1769162090.743249,1769162090.743435,14.0,0.0,4313.461426,4276.410156,4248.974121,4328.461426,4274.487305,4275.897461,4278.461426,4294.743652,4277.820313,4276.282227,4556.153809,4518.846191,4425.0,4484.358887,0.485483,0.715611,0.536351,0.235383,0.125619,0.131286,0.212051,0.299209,0.132684,0.107453,0.231985,0.260931,0.277475,0.10725,0.110416,0.236288,0.367034,0.309875,0.076026,0.117696,0.146251,0.185691,0.226208,0.079104,0.071718,0.458352,0.268742,0.166487,0.144964,0.124791,0.312888,0.214689,0.141955,0.13196,0.118718,0.367433,0.630449,0.20875,0.095808,0.130729,0.510096,0.440253,0.308203,0.15433,0.094478,0.527483,0.61582,0.38462,0.30138,0.268094,0.569919,0.383007,0.394792,0.289815,0.141221,0.741407,0.337085,0.423009,0.235825,0.154253,0.572043,0.56342,0.258435,0.301913,0.099249,1.218607,0.886189,0.393901,0.455247,0.132107
1769162090.751057,1769162090.751244,15.0,0.0,4306.922852,4269.871582,4251.922852,4325.256348,4272.94873,4278.846191,4278.846191,4296.794922,4286.922852,4278.846191,4556.153809,4519.615234,4427.179688,4482.307617,,,,,,,,,,,,,,,,,,,,,,,,,,,,,,,,,,,,,,,,,,,,,,,,,,,,,,,,,,,,,,,,,,,,,,
1769162090.758865,1769162090.758852,16.0,0.0,4320.384766,4284.358887,4263.461426,4336.410156,4272.436035,4267.820313,4270.256348,4295.641113,4297.05127,4284.230957,4572.563965,4534.743652,4440.256348,4494.102539,,,,,,,,,,,,,,,,,,,,,,,,,,,,,,,,,,,,,,,,,,,,,,,,,,,,,,,,,,,,,,,,,,,,,,
1769162090.766674,1769162090.766661,17.0,0.0,4338.077148,4297.692383,4269.487305,4345.256348,4273.077148,4260.256348,4262.179688,4293.205078,4291.794922,4287.563965,4577.563965,4542.179688,4446.153809,4507.307617,,,,,,,,,,,,,,,,,,,,,,,,,,,,,,,,,,,,,,,,,,,,,,,,,,,,,,,,,,,,,,,,,,,,,,
1769162090.774482,1769162090.774369,18.0,0.0,4334.871582,4295.0,4273.205078,4342.820313,4275.512695,4263.974121,4266.794922,4293.205078,4285.897461,4281.666504,4570.256348,4539.102539,4442.692383,4505.769043,,,,,,,,,,,,,,,,,,,,,,,,,,,,,,,,,,,,,,,,,,,,,,,,,,,,,,,,,,,,,,,,,,,,,,
1769162090.782291,1769162090.782178,19.0,0.0,4325.641113,4293.846191,4272.179688,4340.641113,4279.615234,4265.897461,4270.256348,4294.615234,4286.025879,4277.563965,4571.282227,4539.230957,4442.179688,4497.307617,,,,,,,,,,,,,,,,,,,,,,,,,,,,,,,,,,,,,,,,,,,,,,,,,,,,,,,,,,,,,,,,,,,,,,
1769162090.790099,1769162090.789786,20.0,0.0,4327.563965,4298.589844,4266.922852,4343.974121,4282.563965,4268.974121,4266.025879,4293.461426,4281.538574,4278.205078,4573.589844,4539.358887,4444.102539,4492.820313,,,,,,,,,,,,,,,,,,,,,,,,,,,,,,,,,,,,,,,,,,,,,,,,,,,,,,,,,,,,,,,,,,,,,,
1769162090.797908,1769162090.797595,21.0,0.0,4328.717773,4296.410156,4267.436035,4342.307617,4281.153809,4273.461426,4266.410156,4291.282227,4277.820313,4275.512695,4570.641113,4536.794922,4440.512695,4491.794922,,,,,,,,,,,,,,,,,,,,,,,,,,,,,,,,,,,,,,,,,,,,,,,,,,,,,,,,,,,,,,,,,,,,,,
1769162090.805716,1769162090.805503,22.0,0.0,4325.641113,4292.692383,4274.615234,4336.538574,4278.461426,4267.307617,4267.179688,4293.461426,4281.794922,4278.461426,4571.666504,4538.974121,4439.615234,4497.692383,,,,,,,,,,,,,,,,,,,,,,,,,,,,,,,,,,,,,,,,,,,,,,,,,,,,,,,,,,,,,,,,,,,,,,
1769162090.813525,1769162090.813312,23.0,0.0,4326.794922,4295.512695,4278.717773,4336.666504,4277.563965,4262.563965,4265.769043,4297.05127,4283.717773,4285.384766,4573.461426,4541.410156,4444.487305,4508.717773,,,,,,,,,,,,,,,,,,,,,,,,,,,,,,,,,,,,,,,,,,,,,,,,,,,,,,,,,,,,,,,,,,,,,,
1769162090.821333,1769162090.82132,24.0,0.0,4327.307617,4292.436035,4276.666504,4336.410156,4276.282227,4271.025879,4270.769043,4295.0,4280.769043,4278.333496,4573.589844,4539.743652,4442.05127,4505.384766,,,,,,,,,,,,,,,,,,,,,,,,,,,,,,,,,,,,,,,,,,,,,,,,,,,,,,,,,,,,,,,,,,,,,,
1769162090.829142,1769162090.829128,25.0,0.0,4322.436035,4284.230957,4272.94873,4327.436035,4276.282227,4273.846191,4274.871582,4291.794922,4278.846191,4271.282227,4569.102539,4537.820313,4434.230957,4494.102539,,,,,,,,,,,,,,,,,,,,,,,,,,,,,,,,,,,,,,,,,,,,,,,,,,,,,,,,,,,,,,,,,,,,,,
1769162090.83695,1769162090.837037,26.0,0.0,4321.153809,4281.025879,4273.846191,4325.0,4275.641113,4266.666504,4273.077148,4292.820313,4280.641113,4278.461426,4558.717773,4531.538574,4427.94873,4485.512695,,,,,,,,,,,,,,,,,,,,,,,,,,,,,,,,,,,,,,,,,,,,,,,,,,,,,,,,,,,,,,,,,,,,,,
1769162090.844759,1769162090.844845,27.0,0.0,4322.05127,4281.538574,4277.307617,4333.589844,4270.128418,4264.487305,4271.538574,4288.461426,4279.743652,4280.769043,4552.820313,4524.743652,4420.0,4475.256348,,,,,,,,,,,,,,,,,,,,,,,,,,,,,,,,,,,,,,,,,,,,,,,,,,,,,,,,,,,,,,,,,,,,,,
1769162090.852567,1769162090.852853,28.0,0.0,4319.358887,4280.384766,4277.692383,4334.615234,4268.846191,4266.922852,4269.743652,4278.717773,4275.512695,4273.717773,4553.461426,4529.358887,4411.538574,4475.769043,,,,,,,,,,,,,,,,,,,,,,,,,,,,,,,,,,,,,,,,,,,,,,,,,,,,,,,,,,,,,,,,,,,,,,
1769162090.860376,1769162090.860662,29.0,0.0,4319.743652,4279.615234,4275.769043,4325.897461,4271.153809,4266.410156,4265.512695,4279.615234,4275.384766,4273.717773,4554.230957,4537.179688,4416.025879,4487.436035,,,,,,,,,,,,,,,,,,,,,,,,,,,,,,,,,,,,,,,,,,,,,,,,,,,,,,,,,,,,,,,,,,,,,,
1769162090.868184,1769162090.86837,30.0,0.0,4324.743652,4284.487305,4276.922852,4326.025879,4267.05127,4262.692383,4263.077148,4289.871582,4277.05127,4280.128418,4561.025879,4537.179688,4434.743652,4496.666504,0.516695,0.845832,0.637125,0.254042,0.127443,0.18623,0.281092,0.352888,0.166137,0.117202,0.260866,0.290497,0.313761,0.102861,0.107577,0.207562,0.382291,0.352881,0.082425,0.119224,0.13434,0.186883,0.264069,0.084917,0.066946,0.472116,0.325868,0.182042,0.174362,0.118883,0.392636,0.288474,0.161693,0.178297,0.133903,0.411895,0.609101,0.194731,0.101295,0.128241,0.452694,0.426448,0.366468,0.179628,0.093082,0.473099,0.711356,0.494544,0.309764,0.261198,0.568466,0.430488,0.463468,0.318938,0.143628,0.921759,0.334658,0.498283,0.241429,0.157575,0.752327,0.68948,0.30868,0.320608,0.0984,1.476207,1.049405,0.597683,0.412352,0.128362
1769162090.875992,1769162090.876179,31.0,0.0,4328.974121,4288.589844,4282.692383,4334.743652,4266.922852,4261.538574,4264.358887,4291.666504,4279.615234,4281.666504,4573.717773,4539.615234,4443.974121,4501.025879,,,,,,,,,,,,,,,,,,,,,,,,,,,,,,,,,,,,,,,,,,,,,,,,,,,,,,,,,,,,,,,,,,,,,,
1769162090.883801,1769162090.884187,32.0,0.0,4326.025879,4284.871582,4286.025879,4335.384766,4272.307617,4262.94873,4264.743652,4283.717773,4279.487305,4279.743652,4571.666504,4543.205078,4435.0,4499.871582,,,,,,,,,,,,,,,,,,,,,,,,,,,,,,,,,,,,,,,,,,,,,,,,,,,,,,,,,,,,,,,,,,,,,,
1769162090.891609,1769162090.891995,33.0,0.0,4315.512695,4279.102539,4281.538574,4328.077148,4269.487305,4262.179688,4262.692383,4279.358887,4271.153809,4278.846191,4556.538574,4539.358887,4425.897461,4493.205078,,,,,,,,,,,,,,,,,,,,,,,,,,,,,,,,,,,,,,,,,,,,,,,,,,,,,,,,,,,,,,,,,,,,,,
1769162090.899418,1769162090.899704,34.0,0.0,4308.077148,4279.102539,4276.666504,4324.487305,4264.743652,4260.897461,4267.05127,4283.974121,4267.820313,4274.743652,4555.256348,4536.410156,4426.666504,4491.666504,,,,,,,,,,,,,,,,,,,,,,,,,,,,,,,,,,,,,,,,,,,,,,,,,,,,,,,,,,,,,,,,,,,,,,
1769162090.907226,1769162090.907512,35.0,0.0,4312.820313,4282.05127,4277.307617,4326.410156,4267.05127,4262.179688,4275.512695,4291.025879,4275.128418,4272.820313,4562.820313,4538.461426,4429.102539,4495.0,,,,,,,,,,,,,,,,,,,,,,,,,,,,,,,,,,,,,,,,,,,,,,,,,,,,,,,,,,,,,,,,,,,,,,
1769162090.915035,1769162090.915121,36.0,0.0,4317.307617,4282.05127,4281.153809,4330.897461,4267.820313,4261.538574,4274.615234,4290.0,4277.820313,4277.94873,4561.025879,4541.922852,4426.153809,4493.717773,,,,,,,,,,,,,,,,,,,,,,,,,,,,,,,,,,,,,,,,,,,,,,,,,,,,,,,,,,,,,,,,,,,,,,
1769162090.922843,1769162090.92293,37.0,0.0,4312.563965,4281.025879,4280.256348,4333.461426,4265.641113,4258.077148,4268.974121,4282.307617,4272.94873,4282.05127,4555.128418,4539.871582,4421.538574,4488.717773,,,,,,,,,,,,,,,,,,,,,,,,,,,,,,,,,,,,,,,,,,,,,,,,,,,,,,,,,,,,,,,,,,,,,,
1769162090.930652,1769162090.930638,38.0,0.0,4306.153809,4276.538574,4272.820313,4328.717773,4264.615234,4260.897461,4275.897461,4279.487305,4271.666504,4275.512695,4554.358887,4529.230957,4416.282227,4479.487305,,,,,,,,,,,,,,,,,,,,,,,,,,,,,,,,,,,,,,,,,,,,,,,,,,,,,,,,,,,,,,,,,,,,,,
1769162090.93846,1769162090.938447,39.0,0.0,4306.153809,4273.589844,4268.974121,4324.487305,4265.256348,4265.897461,4281.153809,4282.563965,4273.974121,4269.615234,4556.282227,4526.153809,4414.102539,4478.461426,,,,,,,,,,,,,,,,,,,,,,,,,,,,,,,,,,,,,,,,,,,,,,,,,,,,,,,,,,,,,,,,,,,,,,
1769162090.946268,1769162090.946455,40.0,0.0,4311.410156,4277.307617,4276.025879,4327.692383,4267.692383,4262.436035,4269.230957,4282.692383,4270.512695,4276.538574,4556.922852,4538.205078,4417.436035,4489.487305,,,,,,,,,,,,,,,,,,,,,,,,,,,,,,,,,,,,,,,,,,,,,,,,,,,,,,,,,,,,,,,,,,,,,,
1769162090.954077,1769162090.954263,41.0,0.0,4313.589844,4281.922852,4279.615234,4329.358887,4266.282227,4256.282227,4261.666504,4278.974121,4266.922852,4273.974121,4556.794922,4539.358887,4418.077148,4493.461426,,,,,,,,,,,,,,,,,,,,,,,,,,,,,,,,,,,,,,,,,,,,,,,,,,,,,,,,,,,,,,,,,,,,,,
1769162090.961885,1769162090.962172,42.0,0.0,4308.461426,4279.358887,4273.974121,4325.0,4263.205078,4260.769043,4272.563965,4284.487305,4269.487305,4260.128418,4553.974121,4524.743652,4416.538574,4487.820313,,,,,,,,,,,,,,,,,,,,,,,,,,,,,,,,,,,,,,,,,,,,,,,,,,,,,,,,,,,,,,,,,,,,,,
1769162090.969694,1769162090.96998,43.0,0.0,4306.666504,4276.410156,4274.615234,4323.205078,4264.358887,4266.153809,4283.205078,4295.512695,4277.436035,4265.384766,4556.666504,4525.256348,4421.153809,4486.922852,,,,,,,,,,,,,,,,,,,,,,,,,,,,,,,,,,,,,,,,,,,,,,,,,,,,,,,,,,,,,,,,,,,,,,
1769162090.977502,1769162090.977589,44.0,0.0,4316.794922,4284.871582,4282.820313,4328.589844,4267.05127,4260.897461,4278.589844,4290.384766,4280.256348,4283.461426,4565.384766,4538.974121,4431.153809,4492.307617,,,,,,,,,,,,,,,,,,,,,,,,,,,,,,,,,,,,,,,,,,,,,,,,,,,,,,,,,,,,,,,,,,,,,,
1769162090.985311,1769162090.985397,45.0,0.0,4325.512695,4289.871582,4285.128418,4330.769043,4267.563965,4259.230957,4274.487305,4279.230957,4271.025879,4282.179688,4563.846191,4538.205078,4430.897461,4494.102539,,,,,,,,,,,,,,,,,,,,,,,,,,,,,,,,,,,,,,,,,,,,,,,,,,,,,,,,,,,,,,,,,,,,,,
1769162090.993119,1769162090.993106,46.0,0.0,4317.820313,4282.307617,4281.410156,4326.666504,4266.153809,4261.153809,4278.589844,4280.641113,4262.436035,4265.512695,4553.589844,4526.282227,4419.230957,4490.384766,0.622183,0.951103,0.708648,0.261573,0.129729,0.266758,0.355771,0.372533,0.200345,0.122809,0.315762,0.308023,0.339224,0.099592,0.102624,0.188273,0.370293,0.358637,0.092809,0.118582,0.13277,0.18295,0.275089,0.084031,0.059777,0.437097,0.374784,0.193327,0.194725,0.107009,0.453844,0.347325,0.176415,0.216432,0.144505,0.421407,0.554693,0.173178,0.106207,0.121877,0.403361,0.394502,0.386868,0.193756,0.089066,0.42107,0.750544,0.57276,0.315637,0.245901,0.588304,0.460015,0.495828,0.318774,0.135756,1.188031,0.347597,0.55155,0.243736,0.160609,0.992053,0.825682,0.371732,0.331056,0.100571,1.730922,1.19626,0.804083,0.377935,0.124192
1769162091.000928,1769162091.000914,47.0,0.0,4308.974121,4279.102539,4279.487305,4326.025879,4265.897461,4253.717773,4277.820313,4281.794922,4267.820313,4266.153809,4551.153809,4523.717773,4418.077148,4485.769043,,,,,,,,,,,,,,,,,,,,,,,,,,,,,,,,,,,,,,,,,,,,,,,,,,,,,,,,,,,,,,,,,,,,,,
1769162091.008736,1769162091.008922,48.0,0.0,4315.384766,4282.563965,4280.641113,4327.820313,4265.512695,4248.717773,4275.897461,4277.436035,4278.205078,4277.179688,4557.436035,4533.077148,4430.128418,4487.94873,,,,,,,,,,,,,,,,,,,,,,,,,,,,,,,,,,,,,,,,,,,,,,,,,,,,,,,,,,,,,,,,,,,,,,
1769162091.016544,1769162091.016731,49.0,0.0,4323.461426,4280.769043,4282.05127,4325.641113,4263.205078,4253.461426,4277.94873,4280.128418,4278.205078,4270.128418,4557.692383,4534.102539,4428.589844,4489.871582,,,,,,,,,,,,,,,,,,,,,,,,,,,,,,,,,,,,,,,,,,,,,,,,,,,,,,,,,,,,,,,,,,,,,,
1769162091.024353,1769162091.024639,50.0,0.0,4317.820313,4278.589844,4281.666504,4323.077148,4261.410156,4252.05127,4278.077148,4283.717773,4273.717773,4259.487305,4553.205078,4525.512695,4411.025879,4485.512695,,,,,,,,,,,,,,,,,,,,,,,,,,,,,,,,,,,,,,,,,,,,,,,,,,,,,,,,,,,,,,,,,,,,,,
1769162091.032161,1769162091.032448,51.0,0.0,4311.025879,4281.538574,4280.641113,4324.743652,4262.94873,4246.153809,4276.410156,4280.641113,4275.641113,4270.256348,4556.282227,4527.05127,4412.05127,4484.230957,,,,,,,,,,,,,,,,,,,,,,,,,,,,,,,,,,,,,,,,,,,,,,,,,,,,,,,,,,,,,,,,,,,,,,
1769162091.03997,1769162091.040456,52.0,0.0,4316.282227,4282.820313,4281.153809,4326.538574,4265.384766,4250.256348,4278.589844,4279.615234,4278.205078,4283.846191,4565.0,4538.589844,4429.615234,4491.538574,,,,,,,,,,,,,,,,,,,,,,,,,,,,,,,,,,,,,,,,,,,,,,,,,,,,,,,,,,,,,,,,,,,,,,
1769162091.047778,1769162091.048264,53.0,0.0,4321.282227,4283.589844,4281.410156,4324.230957,4265.641113,4254.230957,4281.922852,4281.666504,4277.563965,4278.846191,4568.974121,4540.769043,4432.05127,4499.871582,,,,,,,,,,,,,,,,,,,,,,,,,,,,,,,,,,,,,,,,,,,,,,,,,,,,,,,,,,,,,,,,,,,,,,
1769162091.055587,1769162091.056173,54.0,0.0,4318.077148,4289.358887,4283.461426,4325.0,4265.512695,4250.0,4281.666504,4281.282227,4276.538574,4274.615234,4568.974121,4537.179688,4425.897461,4505.128418,,,,,,,,,,,,,,,,,,,,,,,,,,,,,,,,,,,,,,,,,,,,,,,,,,,,,,,,,,,,,,,,,,,,,,
1769162091.063395,1769162091.063981,55.0,0.0,4319.871582,4294.871582,4287.94873,4331.025879,4265.897461,4246.538574,4279.615234,4279.871582,4278.077148,4278.974121,4571.922852,4539.871582,4429.487305,4507.05127,,,,,,,,,,,,,,,,,,,,,,,,,,,,,,,,,,,,,,,,,,,,,,,,,,,,,,,,,,,,,,,,,,,,,,
1769162091.071204,1769162091.07159,56.0,0.0,4327.307617,4295.384766,4291.666504,4331.025879,4266.025879,4247.563965,4277.820313,4279.743652,4278.717773,4280.256348,4571.794922,4541.282227,4433.205078,4501.666504,,,,,,,,,,,,,,,,,,,,,,,,,,,,,,,,,,,,,,,,,,,,,,,,,,,,,,,,,,,,,,,,,,,,,,
1769162091.079012,1769162091.079398,57.0,0.0,4325.897461,4294.871582,4291.538574,4324.230957,4265.384766,4248.846191,4277.94873,4281.538574,4278.717773,4275.512695,4567.436035,4539.230957,4428.333496,4498.333496,,,,,,,,,,,,,,,,,,,,,,,,,,,,,,,,,,,,,,,,,,,,,,,,,,,,,,,,,,,,,,,,,,,,,,
1769162091.08682,1769162091.087307,58.0,0.0,4322.179688,4297.179688,4288.205078,4325.0,4266.538574,4248.205078,4279.743652,4282.05127,4281.538574,4276.666504,4569.871582,4539.615234,4433.205078,4503.461426,,,,,,,,,,,,,,,,,,,,,,,,,,,,,,,,,,,,,,,,,,,,,,,,,,,,,,,,,,,,,,,,,,,,,,
1769162091.094629,1769162091.095115,59.0,0.0,4325.512695,4296.025879,4289.102539,4327.307617,4268.589844,4247.179688,4280.769043,4281.153809,4282.563965,4285.641113,4573.974121,4539.358887,4441.922852,4509.615234,,,,,,,,,,,,,,,,,,,,,,,,,,,,,,,,,,,,,,,,,,,,,,,,,,,,,,,,,,,,,,,,,,,,,,
1769162091.102437,1769162091.102724,60.0,0.0,4328.589844,4295.384766,4292.307617,4326.025879,4267.94873,4246.666504,4279.487305,4280.769043,4280.256348,4285.769043,4571.153809,4537.820313,4437.436035,4508.461426,,,,,,,,,,,,,,,,,,,,,,,,,,,,,,,,,,,,,,,,,,,,,,,,,,,,,,,,,,,,,,,,,,,,,,
1769162091.110246,1769162091.110532,61.0,0.0,4327.179688,4300.641113,4291.666504,4330.128418,4266.794922,4249.102539,4282.563965,4281.410156,4281.153809,4277.563965,4569.358887,4538.974121,4430.256348,4498.461426,,,,,,,,,,,,,,,,,,,,,,,,,,,,,,,,,,,,,,,,,,,,,,,,,,,,,,,,,,,,,,,,,,,,,,
1769162091.118054,1769162091.118241,62.0,0.0,4325.512695,4302.692383,4289.743652,4333.974121,4266.666504,4251.410156,4289.358887,4281.282227,4282.307617,4280.384766,4571.410156,4535.897461,4432.05127,4490.512695,0.74125,0.997254,0.739701,0.269102,0.136542,0.342842,0.432557,0.356807,0.2315,0.123916,0.425259,0.316478,0.346865,0.102555,0.096303,0.173775,0.340105,0.328607,0.107774,0.115293,0.154586,0.179772,0.254893,0.076371,0.051349,0.362055,0.395602,0.198845,0.198779,0.093336,0.494282,0.377815,0.183635,0.23539,0.152561,0.399197,0.47807,0.148426,0.11072,0.111704,0.381908,0.355448,0.362085,0.193227,0.082863,0.394473,0.716379,0.586644,0.314043,0.225372,0.622731,0.467447,0.475533,0.294574,0.121583,1.473108,0.39099,0.559175,0.246943,0.16326,1.195047,0.941441,0.421983,0.336243,0.105807,1.921141,1.298322,0.949589,0.366731,0.119089
1769162091.125863,1769162091.126049,63.0,0.0,4320.128418,4296.538574,4287.563965,4327.94873,4265.0,4250.641113,4290.384766,4281.666504,4279.230957,4278.077148,4568.205078,4525.512695,4430.769043,4488.333496,,,,,,,,,,,,,,,,,,,,,,,,,,,,,,,,,,,,,,,,,,,,,,,,,,,,,,,,,,,,,,,,,,,,,,
1769162091.133671,1769162091.133658,64.0,0.0,4317.692383,4292.820313,4283.846191,4323.077148,4263.717773,4249.358887,4283.461426,4282.307617,4278.333496,4266.282227,4565.128418,4525.897461,4425.769043,4491.666504,,,,,,,,,,,,,,,,,,,,,,,,,,,,,,,,,,,,,,,,,,,,,,,,,,,,,,,,,,,,,,,,,,,,,,
1769162091.14148,1769162091.141466,65.0,0.0,4322.179688,4294.615234,4281.410156,4326.410156,4264.358887,4248.589844,4278.077148,4279.102539,4279.743652,4273.077148,4566.410156,4535.384766,4428.077148,4493.205078,,,,,,,,,,,,,,,,,,,,,,,,,,,,,,,,,,,,,,,,,,,,,,,,,,,,,,,,,,,,,,,,,,,,,,
1769162091.149288,1769162091.149375,66.0,0.0,4322.05127,4294.615234,4279.230957,4326.410156,4262.307617,4250.0,4281.282227,4275.512695,4277.307617,4283.461426,4565.0,4536.282227,4428.077148,4490.256348,,,,,,,,,,,,,,,,,,,,,,,,,,,,,,,,,,,,,,,,,,,,,,,,,,,,,,,,,,,,,,,,,,,,,,
1769162091.157097,1769162091.157183,67.0,0.0,4320.256348,4296.666504,4280.256348,4324.743652,4265.256348,4248.846191,4283.333496,4276.153809,4276.153809,4281.282227,4566.538574,4535.512695,4428.717773,4494.871582,,,,,,,,,,,,,,,,,,,,,,,,,,,,,,,,,,,,,,,,,,,,,,,,,,,,,,,,,,,,,,,,,,,,,,
1769162091.164905,1769162091.165191,68.0,0.0,4324.358887,4300.769043,4288.205078,4326.666504,4273.846191,4244.230957,4277.820313,4279.743652,4281.025879,4285.256348,4574.615234,4542.179688,4432.436035,4505.897461,,,,,,,,,,,,,,,,,,,,,,,,,,,,,,,,,,,,,,,,,,,,,,,,,,,,,,,,,,,,,,,,,,,,,,
1769162091.172714,1769162091.173,69.0,0.0,4327.563965,4301.538574,4292.692383,4328.974121,4275.897461,4244.615234,4278.589844,4280.897461,4284.358887,4286.410156,4576.666504,4545.641113,4431.282227,4509.358887,,,,,,,,,,,,,,,,,,,,,,,,,,,,,,,,,,,,,,,,,,,,,,,,,,,,,,,,,,,,,,,,,,,,,,
1769162091.180522,1769162091.180708,70.0,0.0,4326.794922,4303.461426,4291.153809,4330.256348,4273.589844,4249.102539,4291.025879,4280.256348,4280.897461,4277.563965,4572.179688,4541.538574,4431.025879,4505.256348,,,,,,,,,,,,,,,,,,,,,,,,,,,,,,,,,,,,,,,,,,,,,,,,,,,,,,,,,,,,,,,,,,,,,,
1769162091.188331,1769162091.188517,71.0,0.0,4324.871582,4302.820313,4290.0,4329.358887,4274.230957,4251.282227,4296.666504,4285.128418,4278.717773,4277.94873,4571.794922,4538.077148,4434.230957,4504.871582,,,,,,,,,,,,,,,,,,,,,,,,,,,,,,,,,,,,,,,,,,,,,,,,,,,,,,,,,,,,,,,,,,,,,,
1769162091.196139,1769162091.196125,72.0,0.0,4322.820313,4297.563965,4285.128418,4326.794922,4275.256348,4251.794922,4292.563965,4288.589844,4282.94873,4284.102539,4573.205078,4541.666504,4433.333496,4508.205078,,,,,,,,,,,,,,,,,,,,,,,,,,,,,,,,,,,,,,,,,,,,,,,,,,,,,,,,,,,,,,,,,,,,,,
1769162091.203947,1769162091.203934,73.0,0.0,4321.666504,4294.743652,4280.512695,4325.256348,4275.128418,4252.436035,4291.538574,4280.641113,4281.666504,4277.94873,4570.128418,4544.102539,4428.717773,4507.179688,,,,,,,,,,,,,,,,,,,,,,,,,,,,,,,,,,,,,,,,,,,,,,,,,,,,,,,,,,,,,,,,,,,,,,
1769162091.211756,1769162091.211842,74.0,0.0,4320.769043,4296.153809,4284.743652,4326.282227,4275.384766,4251.282227,4287.94873,4277.820313,4281.282227,4274.871582,4566.666504,4537.563965,4428.589844,4501.666504,,,,,,,,,,,,,,,,,,,,,,,,,,,,,,,,,,,,,,,,,,,,,,,,,,,,,,,,,,,,,,,,,,,,,,
1769162091.219564,1769162091.219651,75.0,0.0,4319.230957,4295.769043,4290.0,4326.538574,4274.615234,4248.974121,4281.794922,4289.871582,4291.282227,4281.794922,4568.974121,4539.230957,4428.205078,4499.871582,,,,,,,,,,,,,,,,,,,,,,,,,,,,,,,,,,,,,,,,,,,,,,,,,,,,,,,,,,,,,,,,,,,,,,
1769162091.227373,1769162091.227659,76.0,0.0,4323.461426,4295.769043,4293.077148,4327.05127,4276.794922,4247.692383,4281.538574,4288.717773,4292.179688,4277.820313,4572.820313,4550.512695,4427.307617,4500.769043,,,,,,,,,,,,,,,,,,,,,,,,,,,,,,,,,,,,,,,,,,,,,,,,,,,,,,,,,,,,,,,,,,,,,,
1769162091.235181,1769162091.235467,77.0,0.0,4322.307617,4295.897461,4294.871582,4324.615234,4280.0,4250.128418,4291.153809,4277.94873,4280.128418,4269.358887,4570.256348,4546.410156,4426.153809,4495.897461,,,,,,,,,,,,,,,,,,,,,,,,,,,,,,,,,,,,,,,,,,,,,,,,,,,,,,,,,,,,,,,,,,,,,,
1769162091.24299,1769162091.243376,78.0,0.0,4312.307617,4291.922852,4291.666504,4320.128418,4277.692383,4252.05127,4297.179688,4284.102539,4276.410156,4273.589844,4565.897461,4535.897461,4424.615234,4490.897461,0.827443,0.973598,0.729119,0.288603,0.150413,0.388586,0.516306,0.317801,0.256162,0.122525,0.465089,0.326109,0.339425,0.11531,0.090142,0.162735,0.309232,0.277977,0.126785,0.111218,0.2054,0.181912,0.210439,0.064406,0.043098,0.272818,0.378967,0.19905,0.185935,0.082642,0.519691,0.383089,0.184902,0.2307,0.161032,0.350345,0.390135,0.126259,0.115684,0.099854,0.378164,0.317034,0.304091,0.180935,0.076779,0.376821,0.614247,0.528654,0.302294,0.20576,0.647333,0.459563,0.410506,0.262145,0.108192,1.682192,0.467327,0.518555,0.255705,0.167407,1.265083,1.022591,0.446138,0.344536,0.114903,1.984524,1.345565,0.99388,0.389776,0.113873
1769162091.250798,1769162091.251184,79.0,0.0,4310.128418,4293.205078,4293.077148,4322.307617,4275.384766,4249.230957,4288.333496,4292.179688,4285.384766,4282.692383,4570.128418,4544.487305,4428.846191,4493.077148,,,,,,,,,,,,,,,,,,,,,,,,,,,,,,,,,,,,,,,,,,,,,,,,,,,,,,,,,,,,,,,,,,,,,,
1769162091.258607,1769162091.259192,80.0,0.0,4313.717773,4290.512695,4293.589844,4321.282227,4272.820313,4247.820313,4282.692383,4289.358887,4290.512695,4279.358887,4572.563965,4551.794922,4427.179688,4496.282227,,,,,,,,,,,,,,,,,,,,,,,,,,,,,,,,,,,,,,,,,,,,,,,,,,,,,,,,,,,,,,,,,,,,,,
1769162091.266415,1769162091.267001,81.0,0.0,4309.358887,4279.487305,4284.615234,4314.487305,4267.307617,4251.282227,4292.179688,4283.846191,4285.128418,4270.256348,4563.589844,4540.0,4414.487305,4488.589844,,,,,,,,,,,,,,,,,,,,,,,,,,,,,,,,,,,,,,,,,,,,,,,,,,,,,,,,,,,,,,,,,,,,,,
1769162091.274223,1769162091.274709,82.0,0.0,4308.205078,4280.256348,4284.615234,4316.410156,4267.179688,4251.282227,4296.794922,4280.769043,4278.717773,4263.974121,4553.974121,4531.922852,4407.179688,4476.153809,,,,,,,,,,,,,,,,,,,,,,,,,,,,,,,,,,,,,,,,,,,,,,,,,,,,,,,,,,,,,,,,,,,,,,
1769162091.282032,1769162091.282518,83.0,0.0,4318.846191,4289.358887,4296.282227,4324.230957,4273.077148,4246.538574,4289.743652,4281.794922,4279.871582,4261.666504,4555.128418,4535.512695,4414.230957,4477.820313,,,,,,,,,,,,,,,,,,,,,,,,,,,,,,,,,,,,,,,,,,,,,,,,,,,,,,,,,,,,,,,,,,,,,,
1769162091.28984,1769162091.290126,84.0,0.0,4319.743652,4284.358887,4297.307617,4320.512695,4271.922852,4245.641113,4290.128418,4286.666504,4284.230957,4270.0,4561.666504,4540.128418,4418.077148,4491.666504,,,,,,,,,,,,,,,,,,,,,,,,,,,,,,,,,,,,,,,,,,,,,,,,,,,,,,,,,,,,,,,,,,,,,,
1769162091.297649,1769162091.297935,85.0,0.0,4310.641113,4278.846191,4292.307617,4315.512695,4266.282227,4249.871582,4297.820313,4290.641113,4285.128418,4280.0,4566.794922,4545.384766,4415.256348,4494.743652,,,,,,,,,,,,,,,,,,,,,,,,,,,,,,,,,,,,,,,,,,,,,,,,,,,,,,,,,,,,,,,,,,,,,,
1769162091.305457,1769162091.305643,86.0,0.0,4314.358887,4286.153809,4295.897461,4319.743652,4265.384766,4248.846191,4294.102539,4292.436035,4288.205078,4280.897461,4570.512695,4552.05127,4421.153809,4489.487305,,,,,,,,,,,,,,,,,,,,,,,,,,,,,,,,,,,,,,,,,,,,,,,,,,,,,,,,,,,,,,,,,,,,,,
1769162091.313266,1769162091.313452,87.0,0.0,4323.205078,4289.487305,4300.384766,4322.436035,4265.897461,4240.512695,4282.307617,4287.692383,4290.512695,4279.230957,4571.538574,4554.102539,4429.743652,4490.512695,,,,,,,,,,,,,,,,,,,,,,,,,,,,,,,,,,,,,,,,,,,,,,,,,,,,,,,,,,,,,,,,,,,,,,
1769162091.321074,1769162091.32106,88.0,0.0,4321.410156,4289.230957,4300.641113,4322.692383,4269.358887,4239.871582,4280.897461,4279.743652,4289.487305,4281.025879,4573.717773,4554.102539,4429.615234,4495.512695,,,,,,,,,,,,,,,,,,,,,,,,,,,,,,,,,,,,,,,,,,,,,,,,,,,,,,,,,,,,,,,,,,,,,,
1769162091.328883,1769162091.328869,89.0,0.0,4317.820313,4293.974121,4297.179688,4325.384766,4277.05127,4249.487305,4291.410156,4283.846191,4288.461426,4281.025879,4581.282227,4556.153809,4427.05127,4498.333496,,,,,,,,,,,,,,,,,,,,,,,,,,,,,,,,,,,,,,,,,,,,,,,,,,,,,,,,,,,,,,,,,,,,,,
1769162091.336691,1769162091.336577,90.0,0.0,4320.641113,4295.512695,4297.307617,4327.307617,4279.358887,4255.769043,4295.512695,4295.641113,4291.794922,4281.666504,4583.333496,4557.94873,4429.230957,4498.077148,,,,,,,,,,,,,,,,,,,,,,,,,,,,,,,,,,,,,,,,,,,,,,,,,,,,,,,,,,,,,,,,,,,,,,
1769162091.344499,1769162091.344386,91.0,0.0,4322.692383,4293.717773,4301.794922,4326.794922,4275.128418,4255.256348,4292.436035,4295.384766,4293.589844,4281.153809,4575.384766,4556.794922,4431.025879,4499.871582,,,,,,,,,,,,,,,,,,,,,,,,,,,,,,,,,,,,,,,,,,,,,,,,,,,,,,,,,,,,,,,,,,,,,,
1769162091.352308,1769162091.352394,92.0,0.0,4323.205078,4294.743652,4301.153809,4327.436035,4273.461426,4259.487305,4293.974121,4284.358887,4286.794922,4269.743652,4569.230957,4553.461426,4429.615234,4504.871582,,,,,,,,,,,,,,,,,,,,,,,,,,,,,,,,,,,,,,,,,,,,,,,,,,,,,,,,,,,,,,,,,,,,,,
1769162091.360116,1769162091.360203,93.0,0.0,4325.641113,4295.128418,4301.025879,4327.179688,4272.436035,4263.077148,4293.974121,4278.333496,4278.717773,4268.974121,4571.025879,4554.487305,4428.205078,4506.922852,,,,,,,,,,,,,,,,,,,,,,,,,,,,,,,,,,,,,,,,,,,,,,,,,,,,,,,,,,,,,,,,,,,,,,
1769162091.367925,1769162091.368111,94.0,0.0,4324.615234,4294.615234,4301.666504,4324.615234,4270.769043,4255.256348,4290.128418,4280.384766,4278.589844,4278.846191,4570.641113,4556.153809,4426.153809,4502.692383,0.840733,0.893773,0.682233,0.322343,0.170666,0.388602,0.609774,0.271595,0.270775,0.121018,0.524309,0.345001,0.325491,0.136536,0.085797,0.159239,0.291846,0.22714,0.146487,0.109088,0.276177,0.188607,0.156095,0.051707,0.036225,0.199314,0.330933,0.195493,0.161036,0.07789,0.536292,0.373863,0.18462,0.205212,0.171314,0.287774,0.300403,0.112594,0.121176,0.08976,0.370695,0.280141,0.232594,0.164419,0.073735,0.351851,0.473261,0.418503,0.282904,0.19444,0.637439,0.450899,0.323636,0.237841,0.102045,1.746778,0.562497,0.442321,0.269624,0.176025,1.163231,1.071008,0.439796,0.362614,0.129671,1.891087,1.347325,0.930341,0.447849,0.110518
1769162091.375733,1769162091.375919,95.0,0.0,4316.410156,4295.0,4297.179688,4322.94873,4273.077148,4248.589844,4292.05127,4282.692383,4280.256348,4273.589844,4565.256348,4545.897461,4420.384766,4494.871582,,,,,,,,,,,,,,,,,,,,,,,,,,,,,,,,,,,,,,,,,,,,,,,,,,,,,,,,,,,,,,,,,,,,,,
1769162091.383542,1769162091.383528,96.0,0.0,4310.0,4293.333496,4291.666504,4320.641113,4272.05127,4251.538574,4295.128418,4285.256348,4277.94873,4262.563965,4561.153809,4537.05127,4411.538574,4487.436035,,,,,,,,,,,,,,,,,,,,,,,,,,,,,,,,,,,,,,,,,,,,,,,,,,,,,,,,,,,,,,,,,,,,,,
1769162091.39135,1769162091.391336,97.0,0.0,4315.384766,4291.794922,4293.589844,4320.128418,4267.179688,4252.179688,4295.0,4290.384766,4280.512695,4274.487305,4566.282227,4547.05127,4414.487305,4491.282227,,,,,,,,,,,,,,,,,,,,,,,,,,,,,,,,,,,,,,,,,,,,,,,,,,,,,,,,,,,,,,,,,,,,,,
1769162091.399159,1769162091.399045,98.0,0.0,4325.0,4296.153809,4298.205078,4324.615234,4269.615234,4248.077148,4292.436035,4292.05127,4286.538574,4287.05127,4578.461426,4557.94873,4433.461426,4505.128418,,,,,,,,,,,,,,,,,,,,,,,,,,,,,,,,,,,,,,,,,,,,,,,,,,,,,,,,,,,,,,,,,,,,,,
1769162091.406967,1769162091.406853,99.0,0.0,4327.436035,4304.102539,4298.974121,4327.820313,4275.769043,4246.282227,4289.743652,4290.897461,4286.153809,4281.153809,4586.025879,4557.563965,4447.692383,4510.897461,,,,,,,,,,,,,,,,,,,,,,,,,,,,,,,,,,,,,,,,,,,,,,,,,,,,,,,,,,,,,,,,,,,,,,
1769162091.414775,1769162091.414862,100.0,0.0,4325.512695,4303.717773,4297.820313,4325.641113,4275.512695,4245.769043,4289.615234,4289.871582,4282.307617,4279.230957,4582.436035,4557.05127,4442.179688,4508.205078,,,,,,,,,,,,,,,,,,,,,,,,,,,,,,,,,,,,,,,,,,,,,,,,,,,,,,,,,,,,,,,,,,,,,,
1769162091.422584,1769162091.42267,101.0,0.0,4325.384766,4296.922852,4294.615234,4323.974121,4273.974121,4247.307617,4292.563965,4283.205078,4278.974121,4279.615234,4573.846191,4552.436035,4429.358887,4505.512695,,,,,,,,,,,,,,,,,,,,,,,,,,,,,,,,,,,,,,,,,,,,,,,,,,,,,,,,,,,,,,,,,,,,,,
1769162091.430392,1769162091.430579,102.0,0.0,4326.538574,4298.589844,4294.615234,4324.871582,4275.256348,4252.563965,4294.615234,4277.179688,4277.563965,4275.256348,4570.641113,4545.256348,4425.897461,4508.077148,,,,,,,,,,,,,,,,,,,,,,,,,,,,,,,,,,,,,,,,,,,,,,,,,,,,,,,,,,,,,,,,,,,,,,
1769162091.438201,1769162091.438387,103.0,0.0,4327.179688,4308.589844,4300.0,4326.922852,4275.897461,4249.102539,4292.94873,4285.384766,4282.563965,4276.282227,4572.94873,4550.128418,4430.0,4516.922852,,,,,,,,,,,,,,,,,,,,,,,,,,,,,,,,,,,,,,,,,,,,,,,,,,,,,,,,,,,,,,,,,,,,,,
1769162091.446009,1769162091.446395,104.0,0.0,4326.538574,4312.692383,4301.282227,4328.846191,4277.820313,4248.333496,4293.589844,4296.410156,4287.820313,4278.974121,4572.820313,4556.410156,4430.256348,4520.128418,,,,,,,,,,,,,,,,,,,,,,,,,,,,,,,,,,,,,,,,,,,,,,,,,,,,,,,,,,,,,,,,,,,,,,
1769162091.453818,1769162091.454204,105.0,0.0,4324.102539,4307.692383,4295.641113,4325.384766,4280.897461,4256.666504,4295.897461,4289.230957,4283.077148,4276.538574,4570.384766,4551.794922,4425.769043,4510.897461,,,,,,,,,,,,,,,,,,,,,,,,,,,,,,,,,,,,,,,,,,,,,,,,,,,,,,,,,,,,,,,,,,,,,,
1769162091.461626,1769162091.462112,106.0,0.0,4324.230957,4305.256348,4297.436035,4322.436035,4281.282227,4257.692383,4295.641113,4278.974121,4278.974121,4276.666504,4570.641113,4550.512695,4426.794922,4504.871582,,,,,,,,,,,,,,,,,,,,,,,,,,,,,,,,,,,,,,,,,,,,,,,,,,,,,,,,,,,,,,,,,,,,,,
1769162091.469435,1769162091.46992,107.0,0.0,4327.307617,4305.897461,4304.358887,4325.641113,4280.769043,4252.563965,4295.769043,4285.897461,4281.025879,4281.794922,4574.102539,4554.871582,4430.512695,4510.897461,,,,,,,,,,,,,,,,,,,,,,,,,,,,,,,,,,,,,,,,,,,,,,,,,,,,,,,,,,,,,,,,,,,,,,
1769162091.477243,1769162091.477729,108.0,0.0,4322.05127,4299.743652,4297.94873,4324.615234,4280.512695,4255.128418,4296.538574,4295.897461,4281.153809,4279.871582,4572.05127,4554.230957,4429.487305,4510.641113,,,,,,,,,,,,,,,,,,,,,,,,,,,,,,,,,,,,,,,,,,,,,,,,,,,,,,,,,,,,,,,,,,,,,,
1769162091.485052,1769162091.485537,109.0,0.0,4311.410156,4296.794922,4292.179688,4321.025879,4280.384766,4261.410156,4298.333496,4295.256348,4288.461426,4279.358887,4570.0,4553.333496,4427.307617,4504.230957,,,,,,,,,,,,,,,,,,,,,,,,,,,,,,,,,,,,,,,,,,,,,,,,,,,,,,,,,,,,,,,,,,,,,,
1769162091.49286,1769162091.493246,110.0,0.0,4308.846191,4301.153809,4296.025879,4321.538574,4280.512695,4262.820313,4298.846191,4294.615234,4294.615234,4283.974121,4577.307617,4556.025879,4430.0,4506.153809,0.767684,0.787009,0.609212,0.359959,0.193147,0.356342,0.703243,0.231382,0.272824,0.120706,0.494275,0.372727,0.308452,0.160738,0.084169,0.150911,0.291187,0.191197,0.161633,0.110354,0.346338,0.193438,0.108271,0.042317,0.031501,0.158912,0.268128,0.18922,0.132268,0.079083,0.540555,0.362305,0.190249,0.169636,0.18268,0.226192,0.220345,0.111641,0.127043,0.085038,0.34275,0.241414,0.169494,0.152628,0.075375,0.308972,0.332726,0.293849,0.26294,0.196552,0.57918,0.455015,0.240518,0.230015,0.105581,1.629404,0.648213,0.350735,0.28234,0.190706,0.924296,1.099651,0.406236,0.389637,0.150657,1.671204,1.322238,0.783413,0.527464,0.111097
1769162091.500668,1769162091.501054,111.0,0.0,4312.436035,4299.615234,4294.487305,4317.563965,4276.794922,4263.077148,4297.692383,4294.743652,4284.230957,4280.128418,4580.897461,4555.256348,4432.94873,4509.358887,,,,,,,,,,,,,,,,,,,,,,,,,,,,,,,,,,,,,,,,,,,,,,,,,,,,,,,,,,,,,,,,,,,,,,
1769162091.508477,1769162091.508663,112.0,0.0,4312.307617,4292.692383,4288.974121,4309.230957,4269.102539,4259.487305,4296.025879,4288.974121,4275.256348,4268.205078,4571.410156,4549.358887,4430.256348,4507.692383,,,,,,,,,,,,,,,,,,,,,,,,,,,,,,,,,,,,,,,,,,,,,,,,,,,,,,,,,,,,,,,,,,,,,,
1769162091.516286,1769162091.516471,113.0,0.0,4310.512695,4292.436035,4287.692383,4308.205078,4266.282227,4251.153809,4295.769043,4285.256348,4277.94873,4263.077148,4565.897461,4547.94873,4425.256348,4507.05127,,,,,,,,,,,,,,,,,,,,,,,,,,,,,,,,,,,,,,,,,,,,,,,,,,,,,,,,,,,,,,,,,,,,,,
1769162091.524094,1769162091.52418,114.0,0.0,4310.641113,4293.846191,4290.0,4310.897461,4268.589844,4251.153809,4296.666504,4290.641113,4279.487305,4268.589844,4571.666504,4553.974121,4423.717773,4508.461426,,,,,,,,,,,,,,,,,,,,,,,,,,,,,,,,,,,,,,,,,,,,,,,,,,,,,,,,,,,,,,,,,,,,,,
1769162091.531902,1769162091.531988,115.0,0.0,4312.179688,4293.974121,4292.563965,4311.153809,4270.0,4252.179688,4296.153809,4295.512695,4277.436035,4278.974121,4574.743652,4556.666504,4424.487305,4507.692383,,,,,,,,,,,,,,,,,,,,,,,,,,,,,,,,,,,,,,,,,,,,,,,,,,,,,,,,,,,,,,,,,,,,,,
1769162091.539711,1769162091.539997,116.0,0.0,4314.487305,4295.769043,4292.563965,4312.820313,4271.538574,4248.846191,4294.230957,4288.333496,4277.820313,4277.307617,4571.410156,4553.333496,4421.153809,4508.205078,,,,,,,,,,,,,,,,,,,,,,,,,,,,,,,,,,,,,,,,,,,,,,,,,,,,,,,,,,,,,,,,,,,,,,
1769162091.547519,1769162091.547805,117.0,0.0,4312.820313,4294.230957,4293.205078,4312.05127,4273.974121,4252.820313,4295.0,4279.743652,4277.179688,4265.0,4568.589844,4551.538574,4414.615234,4506.410156,,,,,,,,,,,,,,,,,,,,,,,,,,,,,,,,,,,,,,,,,,,,,,,,,,,,,,,,,,,,,,,,,,,,,,
1769162091.555328,1769162091.555713,118.0,0.0,4310.0,4292.563965,4293.974121,4311.153809,4275.384766,4260.0,4296.410156,4280.256348,4276.538574,4266.666504,4568.974121,4551.922852,4412.563965,4501.025879,,,,,,,,,,,,,,,,,,,,,,,,,,,,,,,,,,,,,,,,,,,,,,,,,,,,,,,,,,,,,,,,,,,,,,
1769162091.563136,1769162091.563522,119.0,0.0,4314.871582,4295.897461,4295.897461,4319.871582,4278.589844,4253.589844,4294.102539,4282.436035,4278.205078,4281.410156,4571.025879,4553.846191,4419.743652,4503.205078,,,,,,,,,,,,,,,,,,,,,,,,,,,,,,,,,,,,,,,,,,,,,,,,,,,,,,,,,,,,,,,,,,,,,,
1769162091.570945,1769162091.57153,120.0,0.0,4323.461426,4297.179688,4302.436035,4326.666504,4280.897461,4246.538574,4292.05127,4277.94873,4278.589844,4279.871582,4571.153809,4557.05127,4427.820313,4511.153809,,,,,,,,,,,,,,,,,,,,,,,,,,,,,,,,,,,,,,,,,,,,,,,,,,,,,,,,,,,,,,,,,,,,,,
1769162091.578753,1769162091.579339,121.0,0.0,4322.820313,4295.0,4305.256348,4321.794922,4277.820313,4255.384766,4294.358887,4281.538574,4277.820313,4266.794922,4569.487305,4555.769043,4423.974121,4506.538574,,,,,,,,,,,,,,,,,,,,,,,,,,,,,,,,,,,,,,,,,,,,,,,,,,,,,,,,,,,,,,,,,,,,,,
1769162091.586562,1769162091.587047,122.0,0.0,4314.871582,4292.94873,4297.05127,4316.922852,4276.282227,4260.769043,4296.025879,4290.256348,4276.153809,4263.974121,4563.077148,4549.487305,4413.205078,4493.846191,,,,,,,,,,,,,,,,,,,,,,,,,,,,,,,,,,,,,,,,,,,,,,,,,,,,,,,,,,,,,,,,,,,,,,
1769162091.59437,1769162091.594856,123.0,0.0,4310.641113,4289.615234,4291.153809,4319.487305,4276.794922,4257.307617,4294.871582,4287.307617,4275.897461,4261.666504,4555.384766,4546.410156,4409.743652,4490.512695,,,,,,,,,,,,,,,,,,,,,,,,,,,,,,,,,,,,,,,,,,,,,,,,,,,,,,,,,,,,,,,,,,,,,,
1769162091.602178,1769162091.602464,124.0,0.0,4313.846191,4287.179688,4294.487305,4318.846191,4275.384766,4256.666504,4294.102539,4283.461426,4277.179688,4261.282227,4554.615234,4550.897461,4411.153809,4492.692383,,,,,,,,,,,,,,,,,,,,,,,,,,,,,,,,,,,,,,,,,,,,,,,,,,,,,,,,,,,,,,,,,,,,,,
1769162091.609987,1769162091.610273,125.0,0.0,4320.128418,4290.897461,4298.077148,4313.333496,4276.922852,4258.077148,4294.743652,4283.846191,4278.333496,4272.692383,4556.922852,4555.384766,4410.897461,4493.461426,,,,,,,,,,,,,,,,,,,,,,,,,,,,,,,,,,,,,,,,,,,,,,,,,,,,,,,,,,,,,,,,,,,,,,
1769162091.617795,1769162091.618181,126.0,0.0,4317.436035,4289.358887,4296.153809,4310.0,4279.743652,4260.384766,4297.692383,4280.256348,4277.692383,4277.563965,4553.589844,4551.794922,4409.230957,4491.922852,0.642243,0.687148,0.520118,0.384647,0.211533,0.308689,0.779255,0.203143,0.261414,0.12099,0.490343,0.399937,0.288234,0.180845,0.084841,0.147271,0.298864,0.173398,0.167613,0.113797,0.396765,0.191144,0.077526,0.039786,0.028889,0.159879,0.20947,0.182055,0.107136,0.083848,0.527007,0.353301,0.206818,0.13735,0.192841,0.178708,0.159655,0.120771,0.133866,0.087722,0.294057,0.201676,0.127017,0.151004,0.081527,0.255686,0.228171,0.19747,0.249609,0.212047,0.489595,0.484399,0.184263,0.235657,0.11662,1.375555,0.700029,0.268646,0.28571,0.210216,0.633064,1.125768,0.357898,0.417341,0.175569,1.414553,1.297733,0.59964,0.601339,0.116808
1769162091.625604,1769162091.625989,127.0,0.0,4305.256348,4279.615234,4291.538574,4310.641113,4277.563965,4263.205078,4297.563965,4283.077148,4277.179688,4274.487305,4554.743652,4548.461426,4409.230957,4490.641113,,,,,,,,,,,,,,,,,,,,,,,,,,,,,,,,,,,,,,,,,,,,,,,,,,,,,,,,,,,,,,,,,,,,,,
1769162091.633412,1769162091.633998,0.0,0.0,4308.717773,4279.871582,4294.102539,4311.153809,4275.641113,4263.333496,4295.128418,4295.769043,4281.282227,4276.922852,4566.282227,4553.333496,4413.461426,4496.794922,,,,,,,,,,,,,,,,,,,,,,,,,,,,,,,,,,,,,,,,,,,,,,,,,,,,,,,,,,,,,,,,,,,,,,
1769162091.641221,1769162091.641806,1.0,0.0,4323.205078,4290.641113,4301.153809,4310.769043,4276.410156,4261.410156,4298.205078,4294.358887,4283.077148,4280.128418,4572.563965,4557.05127,4417.820313,4504.743652,,,,,,,,,,,,,,,,,,,,,,,,,,,,,,,,,,,,,,,,,,,,,,,,,,,,,,,,,,,,,,,,,,,,,,
1769162091.649029,1769162091.649615,2.0,0.0,4321.922852,4296.538574,4300.256348,4315.641113,4276.922852,4262.307617,4298.077148,4282.820313,4281.153809,4277.179688,4570.512695,4554.743652,4419.615234,4505.769043,,,,,,,,,,,,,,,,,,,,,,,,,,,,,,,,,,,,,,,,,,,,,,,,,,,,,,,,,,,,,,,,,,,,,,
1769162091.656838,1769162091.657423,3.0,0.0,4308.333496,4292.94873,4292.05127,4318.333496,4278.077148,4264.230957,4298.205078,4284.358887,4278.077148,4277.436035,4567.179688,4551.282227,4422.307617,4502.563965,,,,,,,,,,,,,,,,,,,,,,,,,,,,,,,,,,,,,,,,,,,,,,,,,,,,,,,,,,,,,,,,,,,,,,
1769162091.664646,1769162091.665032,4.0,0.0,4307.820313,4290.384766,4289.487305,4316.025879,4280.256348,4264.102539,4304.487305,4294.487305,4281.025879,4279.102539,4571.153809,4553.333496,4424.487305,4506.282227,,,,,,,,,,,,,,,,,,,,,,,,,,,,,,,,,,,,,,,,,,,,,,,,,,,,,,,,,,,,,,,,,,,,,,
1769162091.672454,1769162091.67284,5.0,0.0,4323.205078,4294.230957,4299.230957,4323.461426,4281.538574,4263.846191,4303.333496,4298.717773,4289.358887,4277.05127,4579.102539,4561.794922,4427.307617,4514.615234,,,,,,,,,,,,,,,,,,,,,,,,,,,,,,,,,,,,,,,,,,,,,,,,,,,,,,,,,,,,,,,,,,,,,,
1769162091.680263,1769162091.680549,6.0,0.0,4331.538574,4297.307617,4306.666504,4329.487305,4281.025879,4262.307617,4293.077148,4288.717773,4289.230957,4279.358887,4578.461426,4562.692383,4431.282227,4515.384766,,,,,,,,,,,,,,,,,,,,,,,,,,,,,,,,,,,,,,,,,,,,,,,,,,,,,,,,,,,,,,,,,,,,,,
1769162091.688071,1769162091.688357,7.0,0.0,4319.743652,4291.538574,4298.717773,4318.205078,4278.333496,4260.0,4291.153809,4276.794922,4279.102539,4282.436035,4569.743652,4551.538574,4424.230957,4506.153809,,,,,,,,,,,,,,,,,,,,,,,,,,,,,,,,,,,,,,,,,,,,,,,,,,,,,,,,,,,,,,,,,,,,,,
1769162091.69588,1769162091.695966,8.0,0.0,4306.794922,4285.256348,4290.0,4309.487305,4276.538574,4260.512695,4301.153809,4281.538574,4274.102539,4276.666504,4563.846191,4547.307617,4410.256348,4499.871582,,,,,,,,,,,,,,,,,,,,,,,,,,,,,,,,,,,,,,,,,,,,,,,,,,,,,,,,,,,,,,,,,,,,,,
1769162091.703688,1769162091.703774,9.0,0.0,4316.666504,4290.641113,4299.615234,4320.512695,4278.205078,4263.974121,4303.077148,4291.666504,4279.487305,4272.436035,4569.743652,4555.128418,4415.256348,4505.769043,,,,,,,,,,,,,,,,,,,,,,,,,,,,,,,,,,,,,,,,,,,,,,,,,,,,,,,,,,,,,,,,,,,,,,
1769162091.711497,1769162091.711483,10.0,0.0,4329.358887,4297.563965,4309.615234,4328.974121,4281.153809,4264.487305,4299.102539,4289.871582,4282.820313,4278.077148,4577.820313,4559.358887,4430.769043,4511.538574,,,,,,,,,,,,,,,,,,,,,,,,,,,,,,,,,,,,,,,,,,,,,,,,,,,,,,,,,,,,,,,,,,,,,,
1769162091.719305,1769162091.719291,11.0,0.0,4320.128418,4296.282227,4302.820313,4322.692383,4280.769043,4262.307617,4299.487305,4286.922852,4280.641113,4280.256348,4577.05127,4557.436035,4430.128418,4510.384766,,,,,,,,,,,,,,,,,,,,,,,,,,,,,,,,,,,,,,,,,,,,,,,,,,,,,,,,,,,,,,,,,,,,,,
1769162091.727114,1769162091.7269,12.0,0.0,4307.94873,4292.179688,4292.179688,4318.077148,4276.666504,4262.563965,4303.717773,4295.0,4281.025879,4281.794922,4571.410156,4556.794922,4424.102539,4507.563965,,,,,,,,,,,,,,,,,,,,,,,,,,,,,,,,,,,,,,,,,,,,,,,,,,,,,,,,,,,,,,,,,,,,,,
1769162091.734922,1769162091.734708,13.0,0.0,4307.179688,4291.922852,4289.358887,4321.153809,4275.384766,4263.717773,4306.410156,4296.538574,4282.820313,4282.05127,4571.153809,4556.410156,4427.05127,4505.128418,,,,,,,,,,,,,,,,,,,,,,,,,,,,,,,,,,,,,,,,,,,,,,,,,,,,,,,,,,,,,,,,,,,,,,
1769162091.742731,1769162091.742617,14.0,0.0,4311.794922,4295.128418,4293.717773,4323.205078,4278.077148,4264.230957,4301.153809,4283.846191,4280.769043,4271.666504,4573.846191,4553.461426,4428.589844,4505.384766,0.500844,0.615547,0.419417,0.383451,0.219907,0.280705,0.819017,0.181222,0.238288,0.11991,0.443687,0.416773,0.262061,0.191561,0.086754,0.14431,0.302555,0.163933,0.162388,0.116136,0.423834,0.18488,0.066321,0.045501,0.027759,0.190962,0.172377,0.17721,0.09002,0.089385,0.485001,0.343726,0.232683,0.118569,0.198873,0.154251,0.122668,0.134924,0.144579,0.098198,0.245828,0.16851,0.105982,0.159469,0.090614,0.210612,0.176644,0.162859,0.245397,0.236065,0.408068,0.544632,0.172658,0.243849,0.130069,1.086967,0.707765,0.214641,0.275494,0.230027,0.390308,1.157318,0.314177,0.43715,0.199516,1.206982,1.296939,0.426185,0.64044,0.127563
1769162091.750539,1769162091.750425,15.0,0.0,4318.333496,4297.563965,4296.025879,4323.717773,4279.487305,4263.846191,4294.743652,4279.615234,4276.282227,4269.487305,4572.692383,4550.512695,4423.846191,4505.769043,,,,,,,,,,,,,,,,,,,,,,,,,,,,,,,,,,,,,,,,,,,,,,,,,,,,,,,,,,,,,,,,,,,,,,
1769162091.758347,1769162091.758433,16.0,0.0,4322.05127,4299.871582,4291.282227,4324.615234,4279.871582,4262.692383,4295.769043,4290.897461,4277.307617,4281.410156,4573.077148,4552.179688,4425.641113,4501.282227,,,,,,,,,,,,,,,,,,,,,,,,,,,,,,,,,,,,,,,,,,,,,,,,,,,,,,,,,,,,,,,,,,,,,,
1769162091.766156,1769162091.766242,17.0,0.0,4314.615234,4296.282227,4284.358887,4319.871582,4279.487305,4267.563965,4308.077148,4297.436035,4283.333496,4283.589844,4573.717773,4553.205078,4429.871582,4495.641113,,,,,,,,,,,,,,,,,,,,,,,,,,,,,,,,,,,,,,,,,,,,,,,,,,,,,,,,,,,,,,,,,,,,,,
1769162091.773964,1769162091.77415,18.0,0.0,4307.563965,4289.230957,4284.487305,4310.897461,4278.205078,4276.666504,4314.743652,4295.897461,4284.871582,4276.666504,4572.563965,4551.153809,4423.717773,4497.692383,,,,,,,,,,,,,,,,,,,,,,,,,,,,,,,,,,,,,,,,,,,,,,,,,,,,,,,,,,,,,,,,,,,,,,
1769162091.781773,1769162091.781959,19.0,0.0,4311.922852,4292.820313,4288.333496,4310.128418,4278.205078,4276.794922,4301.922852,4293.461426,4282.179688,4278.461426,4573.974121,4554.743652,4422.05127,4503.205078,,,,,,,,,,,,,,,,,,,,,,,,,,,,,,,,,,,,,,,,,,,,,,,,,,,,,,,,,,,,,,,,,,,,,,
1769162091.789581,1769162091.789567,20.0,0.0,4310.384766,4292.179688,4283.717773,4311.922852,4278.589844,4274.230957,4297.179688,4291.025879,4278.717773,4280.769043,4573.205078,4553.846191,4429.487305,4499.743652,,,,,,,,,,,,,,,,,,,,,,,,,,,,,,,,,,,,,,,,,,,,,,,,,,,,,,,,,,,,,,,,,,,,,,
1769162091.79739,1769162091.797376,21.0,0.0,4304.871582,4281.794922,4276.410156,4308.717773,4277.563965,4274.871582,4308.846191,4290.641113,4277.563965,4276.922852,4567.436035,4542.179688,4421.538574,4490.769043,,,,,,,,,,,,,,,,,,,,,,,,,,,,,,,,,,,,,,,,,,,,,,,,,,,,,,,,,,,,,,,,,,,,,,
1769162091.805198,1769162091.805084,22.0,0.0,4312.307617,4285.769043,4276.794922,4311.794922,4279.487305,4268.974121,4307.05127,4295.384766,4282.563965,4276.538574,4565.769043,4538.846191,4413.077148,4489.615234,,,,,,,,,,,,,,,,,,,,,,,,,,,,,,,,,,,,,,,,,,,,,,,,,,,,,,,,,,,,,,,,,,,,,,
1769162091.813007,1769162091.812893,23.0,0.0,4318.461426,4298.717773,4279.358887,4318.461426,4282.692383,4262.05127,4295.384766,4295.384766,4286.410156,4279.102539,4570.128418,4550.256348,4425.256348,4493.846191,,,,,,,,,,,,,,,,,,,,,,,,,,,,,,,,,,,,,,,,,,,,,,,,,,,,,,,,,,,,,,,,,,,,,,
1769162091.820815,1769162091.820901,24.0,0.0,4309.102539,4294.743652,4278.717773,4315.641113,4281.922852,4265.769043,4299.358887,4285.641113,4279.871582,4280.128418,4571.666504,4556.410156,4429.743652,4494.615234,,,,,,,,,,,,,,,,,,,,,,,,,,,,,,,,,,,,,,,,,,,,,,,,,,,,,,,,,,,,,,,,,,,,,,
1769162091.828623,1769162091.828709,25.0,0.0,4302.179688,4285.897461,4278.589844,4308.717773,4279.615234,4268.589844,4302.94873,4277.94873,4271.922852,4272.94873,4567.179688,4546.282227,4421.794922,4493.205078,,,,,,,,,,,,,,,,,,,,,,,,,,,,,,,,,,,,,,,,,,,,,,,,,,,,,,,,,,,,,,,,,,,,,,
1769162091.836432,1769162091.836618,26.0,0.0,4307.94873,4289.743652,4276.922852,4311.922852,4279.743652,4264.230957,4295.128418,4284.102539,4276.153809,4262.563965,4564.230957,4538.077148,4425.0,4491.153809,,,,,,,,,,,,,,,,,,,,,,,,,,,,,,,,,,,,,,,,,,,,,,,,,,,,,,,,,,,,,,,,,,,,,,
1769162091.844241,1769162091.844426,27.0,0.0,4320.897461,4296.153809,4279.871582,4321.153809,4280.897461,4265.769043,4297.179688,4291.666504,4280.897461,4266.025879,4569.102539,4546.025879,4431.666504,4492.563965,,,,,,,,,,,,,,,,,,,,,,,,,,,,,,,,,,,,,,,,,,,,,,,,,,,,,,,,,,,,,,,,,,,,,,
1769162091.852049,1769162091.852335,28.0,0.0,4327.563965,4297.307617,4286.153809,4323.333496,4281.025879,4272.307617,4308.589844,4288.205078,4278.461426,4277.692383,4574.102539,4556.538574,4430.897461,4498.205078,,,,,,,,,,,,,,,,,,,,,,,,,,,,,,,,,,,,,,,,,,,,,,,,,,,,,,,,,,,,,,,,,,,,,,
1769162091.859857,1769162091.860143,29.0,0.0,4317.563965,4294.743652,4283.333496,4320.128418,4280.897461,4274.230957,4310.512695,4284.615234,4277.436035,4277.692383,4572.692383,4555.256348,4430.769043,4497.94873,,,,,,,,,,,,,,,,,,,,,,,,,,,,,,,,,,,,,,,,,,,,,,,,,,,,,,,,,,,,,,,,,,,,,,
1769162091.867666,1769162091.867852,30.0,0.0,4306.922852,4293.333496,4277.05127,4320.641113,4280.256348,4273.846191,4303.846191,4286.025879,4277.94873,4268.717773,4569.230957,4551.410156,4430.0,4491.410156,0.397185,0.57465,0.313653,0.353917,0.217079,0.280597,0.810759,0.157316,0.207745,0.116219,0.428386,0.417928,0.230635,0.191183,0.089439,0.162931,0.298671,0.151818,0.147147,0.114419,0.438644,0.18586,0.070942,0.058023,0.02741,0.245532,0.162837,0.177179,0.081353,0.093719,0.4126,0.324931,0.258927,0.115687,0.198039,0.153435,0.108167,0.150448,0.163165,0.115469,0.214037,0.148074,0.100915,0.173244,0.100278,0.192943,0.176156,0.201222,0.249316,0.2623,0.36686,0.630574,0.210677,0.24289,0.14128,0.834223,0.676581,0.192838,0.254099,0.244004,0.247636,1.187496,0.294307,0.443351,0.217055,1.09682,1.322293,0.29479,0.62677,0.142025
1769162091.875474,1769162091.87566,31.0,0.0,4310.641113,4294.871582,4279.102539,4323.974121,4279.102539,4273.974121,4300.897461,4286.282227,4278.461426,4265.128418,4568.717773,4552.05127,4424.615234,4490.0,,,,,,,,,,,,,,,,,,,,,,,,,,,,,,,,,,,,,,,,,,,,,,,,,,,,,,,,,,,,,,,,,,,,,,
1769162091.883283,1769162091.883668,32.0,0.0,4312.94873,4295.512695,4282.820313,4324.230957,4279.358887,4273.077148,4302.692383,4289.615234,4279.358887,4268.077148,4568.589844,4552.563965,4418.077148,4493.846191,,,,,,,,,,,,,,,,,,,,,,,,,,,,,,,,,,,,,,,,,,,,,,,,,,,,,,,,,,,,,,,,,,,,,,
1769162091.891091,1769162091.891477,33.0,0.0,4308.846191,4296.666504,4281.538574,4324.230957,4278.461426,4274.615234,4307.94873,4295.512695,4281.025879,4273.846191,4569.871582,4557.820313,4416.922852,4495.128418,,,,,,,,,,,,,,,,,,,,,,,,,,,,,,,,,,,,,,,,,,,,,,,,,,,,,,,,,,,,,,,,,,,,,,
1769162091.8989,1769162091.899185,34.0,0.0,4311.153809,4295.0,4278.717773,4325.384766,4275.512695,4277.436035,4310.128418,4294.743652,4281.666504,4278.974121,4571.025879,4565.128418,4425.256348,4497.820313,,,,,,,,,,,,,,,,,,,,,,,,,,,,,,,,,,,,,,,,,,,,,,,,,,,,,,,,,,,,,,,,,,,,,,
1769162091.906708,1769162091.906994,35.0,0.0,4319.102539,4295.128418,4278.205078,4325.512695,4276.153809,4272.436035,4303.974121,4292.05127,4282.563965,4278.589844,4571.666504,4569.615234,4431.410156,4506.153809,,,,,,,,,,,,,,,,,,,,,,,,,,,,,,,,,,,,,,,,,,,,,,,,,,,,,,,,,,,,,,,,,,,,,,
1769162091.914517,1769162091.914602,36.0,0.0,4320.769043,4300.641113,4281.922852,4326.153809,4280.512695,4262.307617,4294.871582,4291.794922,4282.94873,4278.333496,4575.0,4568.717773,4431.794922,4509.230957,,,,,,,,,,,,,,,,,,,,,,,,,,,,,,,,,,,,,,,,,,,,,,,,,,,,,,,,,,,,,,,,,,,,,,
1769162091.922325,1769162091.922411,37.0,0.0,4315.641113,4300.128418,4277.692383,4326.025879,4280.384766,4263.461426,4299.358887,4292.820313,4280.512695,4280.512695,4573.333496,4559.615234,4431.025879,4494.358887,,,,,,,,,,,,,,,,,,,,,,,,,,,,,,,,,,,,,,,,,,,,,,,,,,,,,,,,,,,,,,,,,,,,,,
1769162091.930133,1769162091.930119,38.0,0.0,4308.846191,4291.794922,4264.743652,4321.794922,4278.974121,4273.333496,4311.153809,4292.436035,4277.563965,4279.358887,4566.410156,4551.282227,4426.666504,4477.94873,,,,,,,,,,,,,,,,,,,,,,,,,,,,,,,,,,,,,,,,,,,,,,,,,,,,,,,,,,,,,,,,,,,,,,
1769162091.937942,1769162091.937928,39.0,0.0,4308.461426,4290.512695,4262.179688,4319.487305,4280.512695,4270.128418,4304.102539,4290.641113,4279.743652,4278.717773,4566.153809,4554.102539,4423.846191,4482.563965,,,,,,,,,,,,,,,,,,,,,,,,,,,,,,,,,,,,,,,,,,,,,,,,,,,,,,,,,,,,,,,,,,,,,,
1769162091.94575,1769162091.945936,40.0,0.0,4315.128418,4296.410156,4267.820313,4321.922852,4279.615234,4262.436035,4293.974121,4291.794922,4285.256348,4278.974121,4571.025879,4556.538574,4427.94873,4492.692383,,,,,,,,,,,,,,,,,,,,,,,,,,,,,,,,,,,,,,,,,,,,,,,,,,,,,,,,,,,,,,,,,,,,,,
1769162091.953559,1769162091.953744,41.0,0.0,4318.077148,4296.282227,4267.05127,4321.410156,4277.05127,4271.794922,4302.436035,4292.436035,4286.282227,4277.94873,4571.922852,4555.897461,4430.384766,4492.307617,,,,,,,,,,,,,,,,,,,,,,,,,,,,,,,,,,,,,,,,,,,,,,,,,,,,,,,,,,,,,,,,,,,,,,
1769162091.961367,1769162091.961653,42.0,0.0,4313.077148,4290.512695,4264.615234,4319.487305,4276.282227,4283.333496,4312.94873,4295.384766,4288.717773,4277.05127,4572.179688,4561.794922,4428.589844,4490.128418,,,,,,,,,,,,,,,,,,,,,,,,,,,,,,,,,,,,,,,,,,,,,,,,,,,,,,,,,,,,,,,,,,,,,,
1769162091.969176,1769162091.969461,43.0,0.0,4308.589844,4287.179688,4269.871582,4321.538574,4278.077148,4283.333496,4311.538574,4302.94873,4292.563965,4277.692383,4572.820313,4565.512695,4428.461426,4491.282227,,,,,,,,,,,,,,,,,,,,,,,,,,,,,,,,,,,,,,,,,,,,,,,,,,,,,,,,,,,,,,,,,,,,,,
1769162091.976984,1769162091.977469,44.0,0.0,4310.0,4291.153809,4277.05127,4325.769043,4285.769043,4282.307617,4309.743652,4300.769043,4289.102539,4278.974121,4573.333496,4564.230957,4429.487305,4490.384766,,,,,,,,,,,,,,,,,,,,,,,,,,,,,,,,,,,,,,,,,,,,,,,,,,,,,,,,,,,,,,,,,,,,,,
1769162091.984793,1769162091.985278,45.0,0.0,4311.153809,4295.384766,4275.256348,4329.487305,4289.871582,4280.384766,4311.025879,4295.128418,4289.230957,4278.717773,4577.307617,4567.436035,4432.307617,4490.769043,,,,,,,,,,,,,,,,,,,,,,,,,,,,,,,,,,,,,,,,,,,,,,,,,,,,,,,,,,,,,,,,,,,,,,
1769162091.992601,1769162091.992986,46.0,0.0,4307.692383,4290.256348,4266.282227,4325.897461,4281.025879,4279.102539,4310.641113,4304.102539,4295.512695,4278.205078,4577.05127,4573.717773,4432.94873,4496.538574,0.357325,0.551342,0.213058,0.306924,0.209808,0.306751,0.756288,0.129823,0.175292,0.111166,0.396873,0.401749,0.198939,0.18087,0.094284,0.209718,0.294325,0.133324,0.126323,0.10868,0.454399,0.206309,0.08461,0.073283,0.02738,0.3142,0.177165,0.181977,0.078735,0.095912,0.321013,0.29019,0.273628,0.123118,0.189681,0.172325,0.108609,0.165321,0.192168,0.137905,0.205821,0.142027,0.104916,0.18683,0.108379,0.203256,0.210276,0.294356,0.258712,0.284055,0.366521,0.724863,0.287261,0.227835,0.148118,0.676977,0.619521,0.195758,0.229307,0.247452,0.198942,1.198425,0.308755,0.435836,0.224829,1.082295,1.343497,0.214979,0.56157,0.15798
1769162092.000409,1769162092.000795,47.0,0.0,4304.743652,4281.282227,4261.538574,4317.436035,4275.384766,4284.871582,4314.615234,4307.179688,4287.692383,4275.641113,4570.384766,4570.0,4427.94873,4498.589844,,,,,,,,,,,,,,,,,,,,,,,,,,,,,,,,,,,,,,,,,,,,,,,,,,,,,,,,,,,,,,,,,,,,,,
1769162092.008218,1769162092.008803,48.0,0.0,4305.897461,4281.025879,4265.128418,4317.563965,4284.487305,4285.0,4311.922852,4293.205078,4276.282227,4266.153809,4567.307617,4559.615234,4425.384766,4494.102539,,,,,,,,,,,,,,,,,,,,,,,,,,,,,,,,,,,,,,,,,,,,,,,,,,,,,,,,,,,,,,,,,,,,,,
1769162092.016026,1769162092.016612,49.0,0.0,4310.256348,4288.077148,4267.179688,4325.897461,4289.487305,4278.974121,4302.94873,4291.282227,4284.487305,4267.436035,4570.128418,4558.077148,4428.077148,4490.0,,,,,,,,,,,,,,,,,,,,,,,,,,,,,,,,,,,,,,,,,,,,,,,,,,,,,,,,,,,,,,,,,,,,,,
1769162092.023835,1769162092.02452,50.0,0.0,4312.307617,4290.641113,4266.538574,4327.820313,4282.05127,4280.128418,4305.512695,4299.871582,4295.641113,4284.102539,4571.282227,4564.102539,4428.717773,4489.615234,,,,,,,,,,,,,,,,,,,,,,,,,,,,,,,,,,,,,,,,,,,,,,,,,,,,,,,,,,,,,,,,,,,,,,
1769162092.031643,1769162092.032328,51.0,0.0,4313.077148,4288.974121,4267.692383,4324.358887,4277.692383,4281.410156,4311.538574,4297.692383,4293.461426,4288.589844,4571.666504,4571.153809,4430.641113,4493.846191,,,,,,,,,,,,,,,,,,,,,,,,,,,,,,,,,,,,,,,,,,,,,,,,,,,,,,,,,,,,,,,,,,,,,,
1769162092.039452,1769162092.039937,52.0,0.0,4313.974121,4287.94873,4267.05127,4324.358887,4280.0,4278.077148,4309.102539,4293.974121,4285.769043,4279.487305,4572.94873,4570.256348,4432.820313,4494.230957,,,,,,,,,,,,,,,,,,,,,,,,,,,,,,,,,,,,,,,,,,,,,,,,,,,,,,,,,,,,,,,,,,,,,,
1769162092.04726,1769162092.047746,53.0,0.0,4309.230957,4281.794922,4261.794922,4321.538574,4279.230957,4276.922852,4308.205078,4296.538574,4280.256348,4274.358887,4570.512695,4560.0,4424.743652,4483.717773,,,,,,,,,,,,,,,,,,,,,,,,,,,,,,,,,,,,,,,,,,,,,,,,,,,,,,,,,,,,,,,,,,,,,,
1769162092.055069,1769162092.055554,54.0,0.0,4305.512695,4275.128418,4258.846191,4317.94873,4272.307617,4276.153809,4309.871582,4296.794922,4280.512695,4270.384766,4566.922852,4556.410156,4420.256348,4480.897461,,,,,,,,,,,,,,,,,,,,,,,,,,,,,,,,,,,,,,,,,,,,,,,,,,,,,,,,,,,,,,,,,,,,,,
1769162092.062877,1769162092.063362,55.0,0.0,4313.589844,4280.769043,4262.820313,4321.794922,4271.538574,4273.205078,4306.666504,4294.871582,4282.563965,4264.615234,4568.846191,4567.692383,4431.282227,4493.846191,,,,,,,,,,,,,,,,,,,,,,,,,,,,,,,,,,,,,,,,,,,,,,,,,,,,,,,,,,,,,,,,,,,,,,
1769162092.070686,1769162092.070971,56.0,0.0,4322.820313,4285.897461,4265.641113,4327.307617,4274.487305,4271.538574,4305.0,4296.666504,4282.307617,4265.769043,4572.436035,4570.256348,4434.871582,4497.05127,,,,,,,,,,,,,,,,,,,,,,,,,,,,,,,,,,,,,,,,,,,,,,,,,,,,,,,,,,,,,,,,,,,,,,
1769162092.078494,1769162092.07878,57.0,0.0,4322.692383,4281.153809,4263.461426,4326.538574,4269.743652,4272.820313,4309.871582,4295.0,4280.384766,4264.871582,4564.615234,4557.692383,4421.538574,4487.94873,,,,,,,,,,,,,,,,,,,,,,,,,,,,,,,,,,,,,,,,,,,,,,,,,,,,,,,,,,,,,,,,,,,,,,
1769162092.086302,1769162092.086688,58.0,0.0,4324.358887,4284.615234,4261.538574,4324.487305,4267.307617,4278.333496,4312.563965,4284.358887,4273.589844,4262.94873,4558.077148,4553.589844,4417.05127,4487.436035,,,,,,,,,,,,,,,,,,,,,,,,,,,,,,,,,,,,,,,,,,,,,,,,,,,,,,,,,,,,,,,,,,,,,,
1769162092.094111,1769162092.094496,59.0,0.0,4328.974121,4294.230957,4262.436035,4327.94873,4275.897461,4277.692383,4305.256348,4279.102539,4268.717773,4260.641113,4564.615234,4558.846191,4429.743652,4491.922852,,,,,,,,,,,,,,,,,,,,,,,,,,,,,,,,,,,,,,,,,,,,,,,,,,,,,,,,,,,,,,,,,,,,,,
1769162092.101919,1769162092.102505,60.0,0.0,4329.102539,4297.692383,4264.615234,4333.846191,4279.230957,4268.717773,4296.025879,4280.769043,4272.436035,4252.820313,4566.282227,4563.333496,4435.0,4495.512695,,,,,,,,,,,,,,,,,,,,,,,,,,,,,,,,,,,,,,,,,,,,,,,,,,,,,,,,,,,,,,,,,,,,,,
1769162092.109728,1769162092.110313,61.0,0.0,4333.205078,4301.794922,4268.846191,4340.384766,4273.846191,4267.436035,4296.025879,4279.871582,4274.871582,4255.0,4561.922852,4567.692383,4427.94873,4498.589844,,,,,,,,,,,,,,,,,,,,,,,,,,,,,,,,,,,,,,,,,,,,,,,,,,,,,,,,,,,,,,,,,,,,,,
1769162092.117536,1769162092.118022,62.0,0.0,4336.282227,4309.871582,4268.589844,4341.666504,4274.358887,4275.256348,4302.05127,4284.102539,4276.794922,4266.538574,4568.461426,4567.05127,4425.769043,4495.897461,0.387787,0.532012,0.134038,0.262816,0.209272,0.349703,0.674408,0.104839,0.145849,0.108031,0.379607,0.370281,0.173589,0.164021,0.104118,0.294981,0.302296,0.114766,0.106496,0.101978,0.471218,0.245113,0.100843,0.086839,0.02736,0.390373,0.212098,0.188886,0.079129,0.096347,0.228192,0.243816,0.268604,0.132132,0.177515,0.209155,0.115675,0.179995,0.230785,0.163221,0.217732,0.145661,0.113146,0.196281,0.113313,0.230829,0.25644,0.406111,0.271,0.295469,0.396372,0.804123,0.381303,0.202063,0.150653,0.585486,0.548222,0.214942,0.211305,0.239603,0.211186,1.175094,0.355983,0.418666,0.223084,1.123828,1.321874,0.181181,0.463853,0.172621
1769162092.125345,1769162092.12583,63.0,0.0,4327.820313,4307.307617,4255.384766,4334.358887,4272.307617,4277.179688,4308.589844,4293.717773,4278.974121,4267.692383,4572.94873,4558.974121,4428.974121,4493.846191,,,,,,,,,,,,,,,,,,,,,,,,,,,,,,,,,,,,,,,,,,,,,,,,,,,,,,,,,,,,,,,,,,,,,,
1769162092.133153,1769162092.133439,64.0,0.0,4325.769043,4302.05127,4251.666504,4335.256348,4267.05127,4275.256348,4315.0,4289.743652,4270.641113,4258.205078,4563.589844,4553.974121,4429.102539,4488.974121,,,,,,,,,,,,,,,,,,,,,,,,,,,,,,,,,,,,,,,,,,,,,,,,,,,,,,,,,,,,,,,,,,,,,,
1769162092.140962,1769162092.141247,65.0,0.0,4335.897461,4305.641113,4262.563965,4341.025879,4272.820313,4275.384766,4309.615234,4283.077148,4263.205078,4259.487305,4557.307617,4556.666504,4422.436035,4480.641113,,,,,,,,,,,,,,,,,,,,,,,,,,,,,,,,,,,,,,,,,,,,,,,,,,,,,,,,,,,,,,,,,,,,,,
1769162092.14877,1769162092.149155,66.0,0.0,4336.153809,4307.692383,4265.0,4336.922852,4279.743652,4272.436035,4299.871582,4290.0,4270.769043,4266.282227,4557.563965,4559.487305,4415.256348,4482.307617,,,,,,,,,,,,,,,,,,,,,,,,,,,,,,,,,,,,,,,,,,,,,,,,,,,,,,,,,,,,,,,,,,,,,,
1769162092.156578,1769162092.156964,67.0,0.0,4327.563965,4308.333496,4261.282227,4335.128418,4278.717773,4267.307617,4305.384766,4295.128418,4275.512695,4258.077148,4557.179688,4562.563965,4420.256348,4492.179688,,,,,,,,,,,,,,,,,,,,,,,,,,,,,,,,,,,,,,,,,,,,,,,,,,,,,,,,,,,,,,,,,,,,,,
1769162092.164387,1769162092.164972,68.0,0.0,4326.666504,4308.333496,4259.743652,4340.512695,4276.794922,4265.384766,4307.563965,4295.641113,4274.743652,4252.563965,4557.05127,4565.0,4424.743652,4495.769043,,,,,,,,,,,,,,,,,,,,,,,,,,,,,,,,,,,,,,,,,,,,,,,,,,,,,,,,,,,,,,,,,,,,,,
1769162092.172196,1769162092.172781,69.0,0.0,4326.025879,4300.0,4254.230957,4336.794922,4275.128418,4265.641113,4299.487305,4292.820313,4272.307617,4261.282227,4555.512695,4560.512695,4416.794922,4489.487305,,,,,,,,,,,,,,,,,,,,,,,,,,,,,,,,,,,,,,,,,,,,,,,,,,,,,,,,,,,,,,,,,,,,,,
1769162092.180004,1769162092.180689,70.0,0.0,4322.307617,4294.487305,4248.846191,4331.666504,4274.743652,4265.897461,4302.692383,4286.153809,4266.025879,4267.436035,4553.717773,4552.94873,4410.769043,4485.0,,,,,,,,,,,,,,,,,,,,,,,,,,,,,,,,,,,,,,,,,,,,,,,,,,,,,,,,,,,,,,,,,,,,,,
1769162092.187812,1769162092.188497,71.0,0.0,4324.743652,4300.897461,4252.179688,4337.436035,4278.717773,4265.641113,4307.179688,4286.282227,4266.153809,4260.384766,4555.128418,4553.717773,4414.102539,4487.94873,,,,,,,,,,,,,,,,,,,,,,,,,,,,,,,,,,,,,,,,,,,,,,,,,,,,,,,,,,,,,,,,,,,,,,
1769162092.195621,1769162092.196106,72.0,0.0,4330.256348,4301.922852,4252.307617,4335.641113,4280.0,4266.538574,4297.820313,4294.102539,4274.358887,4260.769043,4557.307617,4557.820313,4414.871582,4493.205078,,,,,,,,,,,,,,,,,,,,,,,,,,,,,,,,,,,,,,,,,,,,,,,,,,,,,,,,,,,,,,,,,,,,,,
1769162092.203429,1769162092.203914,73.0,0.0,4326.666504,4293.461426,4247.692383,4326.410156,4276.538574,4267.05127,4292.692383,4295.512695,4278.461426,4262.820313,4557.05127,4557.307617,4414.743652,4492.179688,,,,,,,,,,,,,,,,,,,,,,,,,,,,,,,,,,,,,,,,,,,,,,,,,,,,,,,,,,,,,,,,,,,,,,
1769162092.211238,1769162092.211823,74.0,0.0,4319.615234,4292.307617,4246.794922,4328.205078,4274.358887,4266.538574,4298.974121,4292.94873,4274.871582,4252.692383,4556.282227,4555.0,4414.871582,4491.025879,,,,,,,,,,,,,,,,,,,,,,,,,,,,,,,,,,,,,,,,,,,,,,,,,,,,,,,,,,,,,,,,,,,,,,
1769162092.219046,1769162092.219631,75.0,0.0,4322.563965,4295.641113,4248.461426,4331.410156,4273.974121,4267.179688,4301.666504,4294.743652,4270.897461,4251.922852,4556.922852,4555.641113,4410.897461,4492.94873,,,,,,,,,,,,,,,,,,,,,,,,,,,,,,,,,,,,,,,,,,,,,,,,,,,,,,,,,,,,,,,,,,,,,,
1769162092.226855,1769162092.22734,76.0,0.0,4327.692383,4295.384766,4251.153809,4328.846191,4273.589844,4271.025879,4300.641113,4293.333496,4270.256348,4264.102539,4557.179688,4557.436035,4413.974121,4491.282227,,,,,,,,,,,,,,,,,,,,,,,,,,,,,,,,,,,,,,,,,,,,,,,,,,,,,,,,,,,,,,,,,,,,,,
1769162092.234663,1769162092.235148,77.0,0.0,4323.846191,4292.563965,4248.205078,4323.589844,4273.077148,4274.871582,4306.410156,4292.436035,4274.102539,4267.307617,4553.846191,4556.025879,4416.025879,4491.410156,,,,,,,,,,,,,,,,,,,,,,,,,,,,,,,,,,,,,,,,,,,,,,,,,,,,,,,,,,,,,,,,,,,,,,
1769162092.242472,1769162092.242957,78.0,0.0,4319.230957,4290.769043,4242.94873,4321.282227,4274.615234,4273.205078,4309.358887,4291.922852,4277.307617,4260.128418,4556.922852,4556.666504,4411.794922,4492.94873,0.473405,0.509979,0.089334,0.239121,0.223955,0.407287,0.586375,0.089283,0.123456,0.110148,0.38643,0.33005,0.159588,0.144146,0.12074,0.423498,0.32718,0.106747,0.094295,0.098214,0.479959,0.285921,0.114258,0.095848,0.027438,0.465471,0.264843,0.193105,0.080922,0.096814,0.160095,0.198859,0.241066,0.136293,0.168823,0.263576,0.126167,0.195841,0.272078,0.188413,0.23482,0.15119,0.122334,0.199773,0.114625,0.268448,0.294771,0.500284,0.28515,0.293135,0.436012,0.844279,0.468772,0.173409,0.149781,0.527947,0.474827,0.244777,0.207606,0.223672,0.249034,1.108675,0.423264,0.397115,0.214944,1.174891,1.239356,0.182103,0.36399,0.18367
1769162092.25028,1769162092.250765,79.0,0.0,4323.974121,4294.102539,4247.05127,4327.563965,4277.820313,4265.769043,4302.307617,4290.256348,4277.436035,4263.846191,4568.974121,4565.384766,4419.358887,4492.563965,,,,,,,,,,,,,,,,,,,,,,,,,,,,,,,,,,,,,,,,,,,,,,,,,,,,,,,,,,,,,,,,,,,,,,
1769162092.258088,1769162092.258374,80.0,0.0,4328.589844,4297.307617,4251.666504,4333.974121,4278.333496,4262.94873,4297.307617,4291.410156,4280.0,4272.05127,4575.0,4572.820313,4429.487305,4494.102539,,,,,,,,,,,,,,,,,,,,,,,,,,,,,,,,,,,,,,,,,,,,,,,,,,,,,,,,,,,,,,,,,,,,,,
1769162092.265897,1769162092.266182,81.0,0.0,4326.794922,4294.358887,4249.102539,4329.230957,4277.05127,4267.436035,4299.102539,4286.025879,4280.0,4266.025879,4570.128418,4569.230957,4424.358887,4495.128418,,,,,,,,,,,,,,,,,,,,,,,,,,,,,,,,,,,,,,,,,,,,,,,,,,,,,,,,,,,,,,,,,,,,,,
1769162092.273705,1769162092.273891,82.0,0.0,4323.589844,4293.333496,4248.589844,4323.974121,4278.846191,4272.94873,4301.282227,4283.589844,4277.307617,4261.538574,4567.05127,4563.589844,4415.641113,4495.641113,,,,,,,,,,,,,,,,,,,,,,,,,,,,,,,,,,,,,,,,,,,,,,,,,,,,,,,,,,,,,,,,,,,,,,
1769162092.281514,1769162092.281699,83.0,0.0,4321.410156,4294.615234,4244.487305,4327.179688,4275.897461,4272.563965,4300.897461,4288.974121,4277.94873,4266.922852,4568.461426,4565.384766,4418.205078,4499.102539,,,,,,,,,,,,,,,,,,,,,,,,,,,,,,,,,,,,,,,,,,,,,,,,,,,,,,,,,,,,,,,,,,,,,,
1769162092.289322,1769162092.289707,84.0,0.0,4321.025879,4291.794922,4235.0,4325.512695,4267.563965,4268.333496,4301.410156,4288.205078,4273.846191,4265.256348,4567.94873,4569.102539,4416.794922,4498.589844,,,,,,,,,,,,,,,,,,,,,,,,,,,,,,,,,,,,,,,,,,,,,,,,,,,,,,,,,,,,,,,,,,,,,,
1769162092.297131,1769162092.297516,85.0,0.0,4323.333496,4291.025879,4237.179688,4319.358887,4267.820313,4270.384766,4301.410156,4282.05127,4265.897461,4255.512695,4566.666504,4569.230957,4410.128418,4493.846191,,,,,,,,,,,,,,,,,,,,,,,,,,,,,,,,,,,,,,,,,,,,,,,,,,,,,,,,,,,,,,,,,,,,,,
1769162092.304939,1769162092.305224,86.0,0.0,4328.717773,4296.666504,4243.717773,4321.282227,4275.512695,4270.384766,4295.897461,4282.436035,4270.128418,4260.641113,4567.436035,4569.358887,4418.846191,4501.025879,,,,,,,,,,,,,,,,,,,,,,,,,,,,,,,,,,,,,,,,,,,,,,,,,,,,,,,,,,,,,,,,,,,,,,
1769162092.312748,1769162092.313033,87.0,0.0,4326.153809,4295.897461,4237.820313,4322.820313,4272.436035,4265.641113,4295.769043,4288.333496,4278.077148,4268.846191,4567.563965,4568.974121,4424.615234,4505.128418,,,,,,,,,,,,,,,,,,,,,,,,,,,,,,,,,,,,,,,,,,,,,,,,,,,,,,,,,,,,,,,,,,,,,,
1769162092.320556,1769162092.320642,88.0,0.0,4318.333496,4287.820313,4230.256348,4318.461426,4265.897461,4275.0,4306.538574,4287.94873,4269.230957,4258.717773,4560.0,4564.102539,4416.538574,4494.743652,,,,,,,,,,,,,,,,,,,,,,,,,,,,,,,,,,,,,,,,,,,,,,,,,,,,,,,,,,,,,,,,,,,,,,
1769162092.328364,1769162092.32845,89.0,0.0,4326.794922,4294.615234,4234.615234,4321.153809,4274.230957,4280.641113,4307.307617,4280.897461,4265.384766,4260.0,4563.077148,4566.922852,4424.743652,4500.256348,,,,,,,,,,,,,,,,,,,,,,,,,,,,,,,,,,,,,,,,,,,,,,,,,,,,,,,,,,,,,,,,,,,,,,
1769162092.336173,1769162092.336159,90.0,0.0,4341.794922,4310.512695,4245.128418,4330.256348,4284.102539,4266.538574,4291.025879,4278.205078,4279.102539,4274.102539,4580.256348,4580.641113,4447.307617,4521.666504,,,,,,,,,,,,,,,,,,,,,,,,,,,,,,,,,,,,,,,,,,,,,,,,,,,,,,,,,,,,,,,,,,,,,,
1769162092.343981,1769162092.343967,91.0,0.0,4337.820313,4307.820313,4248.589844,4329.230957,4281.410156,4265.0,4289.743652,4291.666504,4283.461426,4271.025879,4581.794922,4583.974121,4445.769043,4523.846191,,,,,,,,,,,,,,,,,,,,,,,,,,,,,,,,,,,,,,,,,,,,,,,,,,,,,,,,,,,,,,,,,,,,,,
1769162092.35179,1769162092.351975,92.0,0.0,4332.563965,4296.282227,4242.307617,4322.820313,4279.230957,4281.538574,4306.794922,4297.563965,4277.436035,4265.256348,4570.512695,4573.974121,4429.743652,4517.820313,,,,,,,,,,,,,,,,,,,,,,,,,,,,,,,,,,,,,,,,,,,,,,,,,,,,,,,,,,,,,,,,,,,,,,
1769162092.359598,1769162092.359784,93.0,0.0,4340.256348,4300.384766,4243.205078,4326.025879,4282.179688,4282.179688,4315.384766,4284.487305,4276.794922,4274.871582,4570.641113,4569.358887,4430.0,4520.384766,,,,,,,,,,,,,,,,,,,,,,,,,,,,,,,,,,,,,,,,,,,,,,,,,,,,,,,,,,,,,,,,,,,,,,
1769162092.367407,1769162092.367692,94.0,0.0,4338.077148,4306.282227,4249.487305,4331.794922,4281.153809,4274.358887,4307.563965,4278.461426,4272.05127,4277.820313,4573.461426,4572.179688,4432.05127,4515.0,0.581943,0.474264,0.075622,0.24179,0.253423,0.489468,0.504864,0.084214,0.110626,0.11862,0.398895,0.285274,0.156537,0.125211,0.142821,0.577709,0.35661,0.110634,0.092955,0.099699,0.471728,0.310049,0.119516,0.099353,0.028445,0.527492,0.33337,0.18995,0.083472,0.099156,0.127213,0.169609,0.198335,0.134488,0.170376,0.337871,0.141144,0.212735,0.305449,0.210223,0.253517,0.150475,0.13047,0.19944,0.113388,0.299395,0.314811,0.548601,0.300577,0.277421,0.460364,0.822732,0.521928,0.148814,0.146452,0.464895,0.404779,0.278548,0.220605,0.20548,0.284596,0.997826,0.487363,0.373238,0.205358,1.181204,1.099687,0.202306,0.291329,0.190043
1769162092.375215,1769162092.3755,95.0,0.0,4325.256348,4298.461426,4242.307617,4325.897461,4278.333496,4274.102539,4298.717773,4282.692383,4266.410156,4270.384766,4568.846191,4571.666504,4425.769043,4504.615234,,,,,,,,,,,,,,,,,,,,,,,,,,,,,,,,,,,,,,,,,,,,,,,,,,,,,,,,,,,,,,,,,,,,,,
1769162092.383024,1769162092.383509,96.0,0.0,4322.307617,4291.666504,4231.282227,4316.794922,4278.717773,4276.153809,4302.436035,4287.05127,4273.589844,4267.436035,4568.077148,4569.102539,4417.05127,4504.615234,,,,,,,,,,,,,,,,,,,,,,,,,,,,,,,,,,,,,,,,,,,,,,,,,,,,,,,,,,,,,,,,,,,,,,
1769162092.390832,1769162092.391317,97.0,0.0,4327.05127,4296.538574,4233.717773,4319.871582,4278.589844,4278.205078,4305.384766,4287.692383,4277.94873,4265.897461,4569.230957,4569.743652,4416.025879,4507.563965,,,,,,,,,,,,,,,,,,,,,,,,,,,,,,,,,,,,,,,,,,,,,,,,,,,,,,,,,,,,,,,,,,,,,,
1769162092.398641,1769162092.399226,98.0,0.0,4328.461426,4300.769043,4240.641113,4327.179688,4279.102539,4275.769043,4296.538574,4280.384766,4269.871582,4265.0,4568.333496,4572.05127,4423.717773,4506.153809,,,,,,,,,,,,,,,,,,,,,,,,,,,,,,,,,,,,,,,,,,,,,,,,,,,,,,,,,,,,,,,,,,,,,,
1769162092.406449,1769162092.407034,99.0,0.0,4325.384766,4298.717773,4237.820313,4327.307617,4279.871582,4272.94873,4292.307617,4277.436035,4267.820313,4264.743652,4571.025879,4571.666504,4429.102539,4506.794922,,,,,,,,,,,,,,,,,,,,,,,,,,,,,,,,,,,,,,,,,,,,,,,,,,,,,,,,,,,,,,,,,,,,,,
1769162092.414257,1769162092.414842,100.0,0.0,4324.358887,4299.615234,4231.794922,4327.692383,4280.384766,4277.94873,4301.666504,4288.077148,4275.897461,4263.205078,4572.820313,4573.333496,4427.820313,4508.077148,,,,,,,,,,,,,,,,,,,,,,,,,,,,,,,,,,,,,,,,,,,,,,,,,,,,,,,,,,,,,,,,,,,,,,
1769162092.422066,1769162092.422651,101.0,0.0,4325.641113,4300.512695,4230.641113,4330.384766,4281.794922,4283.846191,4310.897461,4289.743652,4270.897461,4263.717773,4568.333496,4568.461426,4420.512695,4500.769043,,,,,,,,,,,,,,,,,,,,,,,,,,,,,,,,,,,,,,,,,,,,,,,,,,,,,,,,,,,,,,,,,,,,,,
1769162092.429874,1769162092.430359,102.0,0.0,4325.641113,4296.153809,4231.410156,4328.333496,4280.128418,4282.05127,4306.794922,4278.461426,4260.0,4264.358887,4563.974121,4555.512695,4413.717773,4496.410156,,,,,,,,,,,,,,,,,,,,,,,,,,,,,,,,,,,,,,,,,,,,,,,,,,,,,,,,,,,,,,,,,,,,,,
1769162092.437683,1769162092.438168,103.0,0.0,4326.282227,4299.358887,4232.94873,4326.666504,4281.025879,4277.820313,4296.410156,4281.922852,4268.846191,4269.615234,4567.563965,4558.846191,4418.974121,4500.641113,,,,,,,,,,,,,,,,,,,,,,,,,,,,,,,,,,,,,,,,,,,,,,,,,,,,,,,,,,,,,,,,,,,,,,
1769162092.445491,1769162092.445777,104.0,0.0,4327.94873,4305.897461,4233.205078,4328.077148,4289.230957,4275.384766,4293.077148,4292.563965,4280.641113,4276.538574,4572.179688,4571.410156,4427.179688,4498.205078,,,,,,,,,,,,,,,,,,,,,,,,,,,,,,,,,,,,,,,,,,,,,,,,,,,,,,,,,,,,,,,,,,,,,,
1769162092.4533,1769162092.453585,105.0,0.0,4325.512695,4300.897461,4230.512695,4327.820313,4291.282227,4275.641113,4298.461426,4288.205078,4275.641113,4277.307617,4569.743652,4568.717773,4421.794922,4491.025879,,,,,,,,,,,,,,,,,,,,,,,,,,,,,,,,,,,,,,,,,,,,,,,,,,,,,,,,,,,,,,,,,,,,,,
1769162092.461108,1769162092.461294,106.0,0.0,4323.333496,4294.102539,4228.333496,4325.641113,4283.717773,4278.589844,4300.128418,4278.589844,4272.307617,4272.94873,4567.820313,4563.333496,4416.025879,4495.256348,,,,,,,,,,,,,,,,,,,,,,,,,,,,,,,,,,,,,,,,,,,,,,,,,,,,,,,,,,,,,,,,,,,,,,
1769162092.468917,1769162092.469102,107.0,0.0,4322.692383,4294.615234,4228.717773,4321.410156,4279.871582,4280.769043,4296.538574,4278.974121,4271.922852,4269.358887,4565.384766,4562.692383,4415.769043,4497.307617,,,,,,,,,,,,,,,,,,,,,,,,,,,,,,,,,,,,,,,,,,,,,,,,,,,,,,,,,,,,,,,,,,,,,,
1769162092.476725,1769162092.47711,108.0,0.0,4320.256348,4293.461426,4227.820313,4322.179688,4281.153809,4279.358887,4296.922852,4278.974121,4265.897461,4264.102539,4562.436035,4559.358887,4412.436035,4490.897461,,,,,,,,,,,,,,,,,,,,,,,,,,,,,,,,,,,,,,,,,,,,,,,,,,,,,,,,,,,,,,,,,,,,,,
1769162092.484533,1769162092.484919,109.0,0.0,4321.538574,4292.820313,4230.256348,4325.128418,4281.025879,4278.333496,4303.077148,4280.128418,4272.307617,4263.589844,4565.897461,4565.897461,4414.230957,4492.692383,,,,,,,,,,,,,,,,,,,,,,,,,,,,,,,,,,,,,,,,,,,,,,,,,,,,,,,,,,,,,,,,,,,,,,
1769162092.492342,1769162092.492827,110.0,0.0,4322.692383,4294.743652,4233.589844,4320.128418,4280.512695,4281.153809,4305.256348,4285.0,4280.641113,4267.436035,4562.436035,4569.230957,4416.410156,4494.743652,0.709587,0.424451,0.0827,0.263488,0.287902,0.623661,0.441848,0.086421,0.106707,0.131404,0.457741,0.243136,0.160896,0.112294,0.16585,0.750176,0.373606,0.120474,0.100797,0.106025,0.443548,0.305248,0.113984,0.099376,0.031722,0.562326,0.41134,0.178852,0.086103,0.104032,0.12156,0.165421,0.15469,0.130057,0.184336,0.426474,0.162298,0.230557,0.32105,0.225094,0.269184,0.138662,0.135464,0.200442,0.111303,0.333157,0.317116,0.539334,0.316746,0.252845,0.460874,0.73793,0.523693,0.131262,0.140981,0.39102,0.345127,0.306905,0.248168,0.190125,0.307762,0.863048,0.525239,0.344701,0.199092,1.128438,0.935308,0.226246,0.260691,0.191625
1769162092.500151,1769162092.500635,111.0,0.0,4320.256348,4295.0,4231.410156,4318.717773,4279.230957,4279.743652,4298.205078,4283.333496,4270.128418,4259.358887,4552.692383,4557.436035,4411.282227,4492.05127,,,,,,,,,,,,,,,,,,,,,,,,,,,,,,,,,,,,,,,,,,,,,,,,,,,,,,,,,,,,,,,,,,,,,,
1769162092.507959,1769162092.508244,112.0,0.0,4321.025879,4295.256348,4230.256348,4325.128418,4277.692383,4275.256348,4293.461426,4277.820313,4262.436035,4254.871582,4555.512695,4558.461426,4410.256348,4494.615234,,,,,,,,,,,,,,,,,,,,,,,,,,,,,,,,,,,,,,,,,,,,,,,,,,,,,,,,,,,,,,,,,,,,,,
1769162092.515767,1769162092.516053,113.0,0.0,4323.461426,4297.179688,4232.563965,4325.128418,4281.025879,4277.820313,4294.230957,4279.487305,4267.820313,4266.153809,4567.179688,4571.538574,4416.410156,4496.794922,,,,,,,,,,,,,,,,,,,,,,,,,,,,,,,,,,,,,,,,,,,,,,,,,,,,,,,,,,,,,,,,,,,,,,
1769162092.523576,1769162092.523761,114.0,0.0,4322.94873,4297.820313,4231.538574,4320.641113,4284.871582,4282.05127,4295.512695,4282.436035,4268.333496,4272.05127,4566.666504,4571.666504,4417.94873,4493.974121,,,,,,,,,,,,,,,,,,,,,,,,,,,,,,,,,,,,,,,,,,,,,,,,,,,,,,,,,,,,,,,,,,,,,,
1769162092.531384,1769162092.53157,115.0,0.0,4322.179688,4294.615234,4229.102539,4322.307617,4284.230957,4282.179688,4296.282227,4281.410156,4265.512695,4263.461426,4560.0,4565.641113,4418.461426,4491.666504,,,,,,,,,,,,,,,,,,,,,,,,,,,,,,,,,,,,,,,,,,,,,,,,,,,,,,,,,,,,,,,,,,,,,,
1769162092.539193,1769162092.539578,116.0,0.0,4321.922852,4292.692383,4230.256348,4324.487305,4282.179688,4282.307617,4297.436035,4284.358887,4267.692383,4259.230957,4561.025879,4568.333496,4424.230957,4493.974121,,,,,,,,,,,,,,,,,,,,,,,,,,,,,,,,,,,,,,,,,,,,,,,,,,,,,,,,,,,,,,,,,,,,,,
1769162092.547001,1769162092.547386,117.0,0.0,4320.512695,4293.205078,4228.461426,4325.128418,4282.307617,4282.94873,4299.358887,4285.0,4265.769043,4264.871582,4562.94873,4570.384766,4424.102539,4500.256348,,,,,,,,,,,,,,,,,,,,,,,,,,,,,,,,,,,,,,,,,,,,,,,,,,,,,,,,,,,,,,,,,,,,,,
1769162092.55481,1769162092.555295,118.0,0.0,4320.641113,4293.077148,4221.025879,4325.641113,4282.179688,4279.615234,4297.307617,4278.846191,4263.974121,4265.897461,4564.871582,4568.974121,4416.666504,4502.563965,,,,,,,,,,,,,,,,,,,,,,,,,,,,,,,,,,,,,,,,,,,,,,,,,,,,,,,,,,,,,,,,,,,,,,
1769162092.562618,1769162092.563103,119.0,0.0,4320.512695,4293.461426,4218.205078,4321.794922,4281.282227,4277.563965,4294.230957,4280.384766,4268.974121,4260.256348,4567.94873,4567.692383,4414.743652,4499.487305,,,,,,,,,,,,,,,,,,,,,,,,,,,,,,,,,,,,,,,,,,,,,,,,,,,,,,,,,,,,,,,,,,,,,,
1769162092.570427,1769162092.571111,120.0,0.0,4319.230957,4292.563965,4220.897461,4318.589844,4281.922852,4278.846191,4294.743652,4289.743652,4274.358887,4263.205078,4568.589844,4568.333496,4423.077148,4502.94873,,,,,,,,,,,,,,,,,,,,,,,,,,,,,,,,,,,,,,,,,,,,,,,,,,,,,,,,,,,,,,,,,,,,,,
1769162092.578235,1769162092.57892,121.0,0.0,4320.641113,4289.743652,4220.641113,4318.846191,4281.153809,4278.717773,4294.743652,4289.230957,4276.538574,4276.153809,4571.538574,4574.871582,4430.641113,4510.256348,,,,,,,,,,,,,,,,,,,,,,,,,,,,,,,,,,,,,,,,,,,,,,,,,,,,,,,,,,,,,,,,,,,,,,
1769162092.586043,1769162092.586828,122.0,0.0,4323.205078,4291.153809,4219.487305,4319.615234,4281.282227,4276.666504,4292.179688,4280.897461,4277.820313,4283.846191,4580.0,4582.05127,4432.94873,4510.769043,,,,,,,,,,,,,,,,,,,,,,,,,,,,,,,,,,,,,,,,,,,,,,,,,,,,,,,,,,,,,,,,,,,,,,
1769162092.593852,1769162092.594636,123.0,0.0,4326.410156,4295.512695,4222.307617,4320.384766,4283.717773,4276.666504,4292.179688,4283.077148,4277.436035,4277.94873,4580.384766,4580.128418,4433.205078,4511.025879,,,,,,,,,,,,,,,,,,,,,,,,,,,,,,,,,,,,,,,,,,,,,,,,,,,,,,,,,,,,,,,,,,,,,,
1769162092.60166,1769162092.602645,124.0,0.0,4326.282227,4291.922852,4220.769043,4319.487305,4281.794922,4278.974121,4295.769043,4290.641113,4276.410156,4267.94873,4570.769043,4570.256348,4428.461426,4506.666504,,,,,,,,,,,,,,,,,,,,,,,,,,,,,,,,,,,,,,,,,,,,,,,,,,,,,,,,,,,,,,,,,,,,,,
1769162092.609469,1769162092.610453,125.0,0.0,4320.256348,4287.05127,4215.256348,4316.153809,4277.563965,4278.461426,4296.922852,4288.205078,4276.025879,4264.358887,4567.820313,4562.436035,4424.230957,4493.717773,,,,,,,,,,,,,,,,,,,,,,,,,,,,,,,,,,,,,,,,,,,,,,,,,,,,,,,,,,,,,,,,,,,,,,
1769162092.617277,1769162092.618162,126.0,0.0,4317.94873,4292.179688,4215.897461,4315.512695,4277.820313,4275.897461,4295.384766,4280.384766,4271.153809,4265.256348,4569.230957,4563.333496,4427.436035,4489.102539,0.850589,0.363816,0.102249,0.287834,0.31385,0.825167,0.395655,0.093497,0.108433,0.145091,0.521243,0.210721,0.169414,0.109488,0.184213,0.906961,0.362622,0.130117,0.112451,0.114684,0.405738,0.275324,0.099766,0.099303,0.038654,0.563663,0.484453,0.161821,0.08857,0.111282,0.12611,0.18519,0.124339,0.129922,0.207811,0.521836,0.187341,0.245622,0.314023,0.230896,0.282188,0.119965,0.136692,0.208176,0.110668,0.36069,0.312767,0.479209,0.331431,0.227098,0.43639,0.606361,0.480223,0.120551,0.133705,0.3314,0.300501,0.322957,0.2839,0.180115,0.310482,0.733564,0.52627,0.3088,0.199813,1.015065,0.777451,0.248146,0.268182,0.189399
1769162092.625086,1769162092.62597,127.0,0.0,4319.102539,4293.846191,4214.871582,4314.871582,4280.256348,4275.769043,4295.128418,4278.589844,4263.717773,4260.512695,4566.922852,4566.025879,4426.794922,4492.179688,,,,,,,,,,,,,,,,,,,,,,,,,,,,,,,,,,,,,,,,,,,,,,,,,,,,,,,,,,,,,,,,,,,,,,
1769162092.632894,1769162092.633579,0.0,0.0,4316.922852,4284.743652,4209.487305,4310.512695,4279.743652,4279.871582,4302.179688,4283.461426,4265.897461,4255.641113,4563.589844,4559.615234,4413.205078,4488.974121,,,,,,,,,,,,,,,,,,,,,,,,,,,,,,,,,,,,,,,,,,,,,,,,,,,,,,,,,,,,,,,,,,,,,,
1769162092.640703,1769162092.641387,1.0,0.0,4310.769043,4280.641113,4210.641113,4307.692383,4279.230957,4281.794922,4308.077148,4291.538574,4277.05127,4265.128418,4562.94873,4556.666504,4410.256348,4484.358887,,,,,,,,,,,,,,,,,,,,,,,,,,,,,,,,,,,,,,,,,,,,,,,,,,,,,,,,,,,,,,,,,,,,,,
1769162092.648511,1769162092.649096,2.0,0.0,4310.641113,4289.615234,4216.153809,4312.563965,4280.256348,4278.333496,4302.692383,4296.282227,4283.205078,4277.692383,4570.0,4568.589844,4426.025879,4491.282227,,,,,,,,,,,,,,,,,,,,,,,,,,,,,,,,,,,,,,,,,,,,,,,,,,,,,,,,,,,,,,,,,,,,,,
1769162092.65632,1769162092.656904,3.0,0.0,4317.820313,4296.025879,4216.538574,4318.077148,4279.743652,4278.333496,4299.487305,4295.512695,4279.871582,4277.563965,4577.179688,4574.487305,4433.846191,4503.077148,,,,,,,,,,,,,,,,,,,,,,,,,,,,,,,,,,,,,,,,,,,,,,,,,,,,,,,,,,,,,,,,,,,,,,
1769162092.664128,1769162092.664513,4.0,0.0,4322.94873,4293.205078,4214.358887,4315.897461,4279.358887,4281.282227,4300.897461,4292.307617,4280.0,4275.128418,4573.077148,4567.692383,4425.512695,4505.384766,,,,,,,,,,,,,,,,,,,,,,,,,,,,,,,,,,,,,,,,,,,,,,,,,,,,,,,,,,,,,,,,,,,,,,
1769162092.671936,1769162092.672321,5.0,0.0,4326.666504,4293.717773,4217.692383,4316.922852,4280.256348,4278.333496,4297.692383,4285.897461,4277.05127,4273.077148,4569.487305,4569.102539,4424.102539,4505.897461,,,,,,,,,,,,,,,,,,,,,,,,,,,,,,,,,,,,,,,,,,,,,,,,,,,,,,,,,,,,,,,,,,,,,,
1769162092.679745,1769162092.68023,6.0,0.0,4328.077148,4291.666504,4220.512695,4318.717773,4281.153809,4275.128418,4294.871582,4279.102539,4267.179688,4268.077148,4570.512695,4572.563965,4429.358887,4507.563965,,,,,,,,,,,,,,,,,,,,,,,,,,,,,,,,,,,,,,,,,,,,,,,,,,,,,,,,,,,,,,,,,,,,,,
1769162092.687553,1769162092.688038,7.0,0.0,4322.563965,4284.358887,4211.794922,4311.922852,4280.512695,4279.102539,4296.410156,4279.487305,4269.487305,4269.743652,4572.307617,4568.461426,4426.794922,4498.461426,,,,,,,,,,,,,,,,,,,,,,,,,,,,,,,,,,,,,,,,,,,,,,,,,,,,,,,,,,,,,,,,,,,,,,
1769162092.695362,1769162092.696046,8.0,0.0,4320.256348,4283.333496,4205.0,4309.615234,4280.769043,4281.282227,4295.384766,4288.077148,4281.153809,4277.94873,4577.820313,4568.333496,4429.230957,4489.743652,,,,,,,,,,,,,,,,,,,,,,,,,,,,,,,,,,,,,,,,,,,,,,,,,,,,,,,,,,,,,,,,,,,,,,
1769162092.70317,1769162092.703855,9.0,0.0,4327.179688,4291.538574,4213.717773,4320.769043,4281.794922,4279.230957,4294.102539,4291.666504,4282.692383,4279.615234,4582.307617,4572.05127,4440.641113,4499.615234,,,,,,,,,,,,,,,,,,,,,,,,,,,,,,,,,,,,,,,,,,,,,,,,,,,,,,,,,,,,,,,,,,,,,,
