title:mouse_5, start timestamp:1768210864.400265, stop timestamp:1768210895.165486, headset type:EPOCX, headset serial:E5020E3B, headset firmware:730, channels:156, sampling rate:eeg_128;pm_0.1;pow_8, samples:3941      , version:2.2, 
Timestamp,OriginalTimestamp,EEG.Counter,EEG.Interpolated,EEG.AF3,EEG.F7,EEG.F3,EEG.FC5,EEG.T7,EEG.P7,EEG.O1,EEG.O2,EEG.P8,EEG.T8,EEG.FC6,EEG.F4,EEG.F8,EEG.AF4,EEG.RawCq,EEG.Battery,EEG.BatteryPercent,MarkerIndex,MarkerType,MarkerValueInt,EEG.MarkerHardware,CQ.AF3,CQ.F7,CQ.F3,CQ.FC5,CQ.T7,CQ.P7,CQ.O1,CQ.O2,CQ.P8,CQ.T8,CQ.FC6,CQ.F4,CQ.F8,CQ.AF4,CQ.Overall,EQ.SampleRateQuality,EQ.OVERALL,EQ.AF3,EQ.F7,EQ.F3,EQ.FC5,EQ.T7,EQ.P7,EQ.O1,EQ.O2,EQ.P8,EQ.T8,EQ.FC6,EQ.F4,EQ.F8,EQ.AF4,PM.Attention.IsActive,PM.Attention.Scaled,PM.Attention.Raw,PM.Attention.Min,PM.Attention.Max,PM.Engagement.IsActive,PM.Engagement.Scaled,PM.Engagement.Raw,PM.Engagement.Min,PM.Engagement.Max,PM.Excitement.IsActive,PM.Excitement.Scaled,PM.Excitement.Raw,PM.Excitement.Min,PM.Excitement.Max,PM.LongTermExcitement,PM.Stress.IsActive,PM.Stress.Scaled,PM.Stress.Raw,PM.Stress.Min,PM.Stress.Max,PM.Relaxation.IsActive,PM.Relaxation.Scaled,PM.Relaxation.Raw,PM.Relaxation.Min,PM.Relaxation.Max,PM.Interest.IsActive,PM.Interest.Scaled,PM.Interest.Raw,PM.Interest.Min,PM.Interest.Max,POW.AF3.Theta,POW.AF3.Alpha,POW.AF3.BetaL,POW.AF3.BetaH,POW.AF3.Gamma,POW.F7.Theta,POW.F7.Alpha,POW.F7.BetaL,POW.F7.BetaH,POW.F7.Gamma,POW.F3.Theta,POW.F3.Alpha,POW.F3.BetaL,POW.F3.BetaH,POW.F3.Gamma,POW.FC5.Theta,POW.FC5.Alpha,POW.FC5.BetaL,POW.FC5.BetaH,POW.FC5.Gamma,POW.T7.Theta,POW.T7.Alpha,POW.T7.BetaL,POW.T7.BetaH,POW.T7.Gamma,POW.P7.Theta,POW.P7.Alpha,POW.P7.BetaL,POW.P7.BetaH,POW.P7.Gamma,POW.O1.Theta,POW.O1.Alpha,POW.O1.BetaL,POW.O1.BetaH,POW.O1.Gamma,POW.O2.Theta,POW.O2.Alpha,POW.O2.BetaL,POW.O2.BetaH,POW.O2.Gamma,POW.P8.Theta,POW.P8.Alpha,POW.P8.BetaL,POW.P8.BetaH,POW.P8.Gamma,POW.T8.Theta,POW.T8.Alpha,POW.T8.BetaL,POW.T8.BetaH,POW.T8.Gamma,POW.FC6.Theta,POW.FC6.Alpha,POW.FC6.BetaL,POW.FC6.BetaH,POW.FC6.Gamma,POW.F4.Theta,POW.F4.Alpha,POW.F4.BetaL,POW.F4.BetaH,POW.F4.Gamma,POW.F8.Theta,POW.F8.Alpha,POW.F8.BetaL,POW.F8.BetaH,POW.F8.Gamma,POW.AF4.Theta,POW.AF4.Alpha,POW.AF4.BetaL,POW.AF4.BetaH,POW.AF4.Gamma
1768210864.400265,1768210864.401968,85.000000,0.000000,4347.436035,4320.000000,4341.666504,4335.769043,4309.358887,4315.384766,4325.641113,4327.948730,4311.153809,4297.051270,4509.871582,4487.820313,4404.230957,4452.436035,3635.000000,4.000000,80.000000,,,,0.000000,4.000000,4.000000,4.000000,4.000000,4.000000,4.000000,4.000000,4.000000,4.000000,4.000000,4.000000,4.000000,4.000000,4.000000,100.000000,,,,,,,,,,,,,,,,,,,,,,,,,,,,,,,,,,,,,,,,,,,,,,,,,,,,,,,,,,,,,,,,,,,,,,,,,,,,,,,,,,,,,,,,,,,,,,,,,,,,,,,,,,,,,,,,,,,,,
1768210864.408073,1768210864.409876,86.000000,0.000000,4349.615234,4323.077148,4342.436035,4339.615234,4308.461426,4308.974121,4313.589844,4326.922852,4309.871582,4300.769043,4512.563965,4491.153809,4409.615234,4460.000000,3951.000000,4.000000,80.000000,,,,0.000000,4.000000,4.000000,4.000000,4.000000,4.000000,4.000000,4.000000,4.000000,4.000000,4.000000,4.000000,4.000000,4.000000,4.000000,100.000000,1.000000,75.000000,4.000000,4.000000,4.000000,4.000000,4.000000,1.000000,4.000000,4.000000,4.000000,4.000000,4.000000,4.000000,4.000000,4.000000,,,,,,,,,,,,,,,,,,,,,,,,,,,,,,,,1.341717,0.123246,0.055517,0.074954,0.042086,1.826618,0.383885,0.219942,0.167714,0.063750,0.790972,0.119443,0.177524,0.135266,0.096144,0.612444,0.182961,0.093316,0.050356,0.056897,0.209162,0.162947,0.167653,0.069757,0.060844,0.167889,0.115529,0.103272,0.096869,0.039537,0.126601,0.210907,0.151110,0.115246,0.085112,0.241985,0.379706,0.257648,0.340628,0.181074,0.237008,0.760489,0.375103,0.315354,0.161322,0.302448,0.642467,0.307251,0.404843,0.161824,0.976482,0.762201,0.305742,0.557150,0.167619,0.474538,0.486809,0.101554,0.195996,0.149405,3.152827,1.145923,0.577262,0.676400,0.107297,1.587946,0.414609,0.322703,0.260023,0.141099
1768210864.415882,1768210864.417684,87.000000,0.000000,4354.615234,4327.179688,4354.230957,4342.820313,4307.563965,4310.256348,4307.179688,4320.384766,4309.102539,4306.025879,4523.077148,4491.538574,4413.846191,4462.563965,4054.000000,4.000000,80.000000,,,,0.000000,4.000000,4.000000,4.000000,4.000000,4.000000,4.000000,4.000000,4.000000,4.000000,4.000000,4.000000,4.000000,4.000000,4.000000,100.000000,,,,,,,,,,,,,,,,,,,,,,,,,,,,,,,,,,,,,,,,,,,,,,,,,,,,,,,,,,,,,,,,,,,,,,,,,,,,,,,,,,,,,,,,,,,,,,,,,,,,,,,,,,,,,,,,,,,,,
1768210864.423690,1768210864.425293,88.000000,0.000000,4355.641113,4326.666504,4361.025879,4343.077148,4308.589844,4313.333496,4313.077148,4314.102539,4309.743652,4310.641113,4526.282227,4492.436035,4414.230957,4461.410156,4978.000000,4.000000,80.000000,,,,0.000000,4.000000,4.000000,4.000000,4.000000,4.000000,4.000000,4.000000,4.000000,4.000000,4.000000,4.000000,4.000000,4.000000,4.000000,100.000000,,,,,,,,,,,,,,,,,,,,,,,,,,,,,,,,,,,,,,,,,,,,,,,,,,,,,,,,,,,,,,,,,,,,,,,,,,,,,,,,,,,,,,,,,,,,,,,,,,,,,,,,,,,,,,,,,,,,,
1768210864.431499,1768210864.433101,89.000000,0.000000,4348.717773,4318.333496,4350.128418,4338.589844,4308.589844,4310.512695,4313.077148,4319.230957,4309.743652,4313.205078,4524.743652,4493.205078,4414.230957,4463.205078,3635.000000,4.000000,80.000000,,,,0.000000,4.000000,4.000000,4.000000,4.000000,4.000000,4.000000,4.000000,4.000000,4.000000,4.000000,4.000000,4.000000,4.000000,4.000000,100.000000,,,,,,,,,,,,,,,,,,,,,,,,,,,,,,,,,,,,,,,,,,,,,,,,,,,,,,,,,,,,,,,,,,,,,,,,,,,,,,,,,,,,,,,,,,,,,,,,,,,,,,,,,,,,,,,,,,,,,
1768210864.439307,1768210864.440810,90.000000,0.000000,4343.589844,4315.769043,4343.589844,4335.384766,4310.769043,4311.410156,4311.153809,4327.051270,4311.025879,4311.794922,4523.974121,4493.589844,4412.820313,4462.051270,3951.000000,4.000000,80.000000,,,,0.000000,4.000000,4.000000,4.000000,4.000000,4.000000,4.000000,4.000000,4.000000,4.000000,4.000000,4.000000,4.000000,4.000000,4.000000,100.000000,,,,,,,,,,,,,,,,,,,,,,,,,,,,,,,,,,,,,,,,,,,,,,,,,,,,,,,,,,,,,,,,,,,,,,,,,,,,,,,,,,,,,,,,,,,,,,,,,,,,,,,,,,,,,,,,,,,,,
1768210864.447116,1768210864.448618,91.000000,0.000000,4349.615234,4322.436035,4351.666504,4338.077148,4314.615234,4318.205078,4313.589844,4324.230957,4309.615234,4309.871582,4522.179688,4496.025879,4411.153809,4459.615234,4054.000000,4.000000,80.000000,,,,0.000000,4.000000,4.000000,4.000000,4.000000,4.000000,4.000000,4.000000,4.000000,4.000000,4.000000,4.000000,4.000000,4.000000,4.000000,100.000000,,,,,,,,,,,,,,,,,,,,,,,,,,,,,,,,,,,,,,,,,,,,,,,,,,,,,,,,,,,,,,,,,,,,,,,,,,,,,,,,,,,,,,,,,,,,,,,,,,,,,,,,,,,,,,,,,,,,,
1768210864.454924,1768210864.456227,92.000000,0.000000,4355.384766,4324.358887,4355.641113,4339.871582,4313.974121,4319.102539,4312.948730,4323.461426,4310.256348,4311.538574,4523.333496,4500.256348,4412.948730,4468.077148,4978.000000,4.000000,80.000000,,,,0.000000,4.000000,4.000000,4.000000,4.000000,4.000000,4.000000,4.000000,4.000000,4.000000,4.000000,4.000000,4.000000,4.000000,4.000000,100.000000,,,,,,,,,,,,,,,,,,,,,,,,,,,,,,,,,,,,,,,,,,,,,,,,,,,,,,,,,,,,,,,,,,,,,,,,,,,,,,,,,,,,,,,,,,,,,,,,,,,,,,,,,,,,,,,,,,,,,
1768210864.462732,1768210864.464036,93.000000,0.000000,4353.205078,4322.692383,4353.589844,4339.358887,4311.282227,4316.794922,4313.589844,4328.077148,4311.025879,4312.820313,4527.307617,4505.128418,4414.230957,4478.589844,3635.000000,4.000000,80.000000,,,,0.000000,4.000000,4.000000,4.000000,4.000000,4.000000,4.000000,4.000000,4.000000,4.000000,4.000000,4.000000,4.000000,4.000000,4.000000,100.000000,,,,,,,,,,,,,,,,,,,,,,,,,,,,,,,,,,,,,,,,,,,,,,,,,,,,,,,,,,,,,,,,,,,,,,,,,,,,,,,,,,,,,,,,,,,,,,,,,,,,,,,,,,,,,,,,,,,,,
1768210864.470541,1768210864.471744,94.000000,0.000000,4352.820313,4324.487305,4354.871582,4340.384766,4310.256348,4317.051270,4319.615234,4328.974121,4309.871582,4312.051270,4526.410156,4505.512695,4412.179688,4476.153809,3951.000000,4.000000,80.000000,,,,0.000000,4.000000,4.000000,4.000000,4.000000,4.000000,4.000000,4.000000,4.000000,4.000000,4.000000,4.000000,4.000000,4.000000,4.000000,100.000000,,,,,,,,,,,,,,,,,,,,,,,,,,,,,,,,,,,,,,,,,,,,,,,,,,,,,,,,,,,,,,,,,,,,,,,,,,,,,,,,,,,,,,,,,,,,,,,,,,,,,,,,,,,,,,,,,,,,,
1768210864.478349,1768210864.479553,95.000000,0.000000,4354.615234,4327.692383,4354.743652,4340.897461,4311.025879,4313.974121,4319.487305,4330.256348,4316.666504,4311.025879,4524.487305,4497.307617,4410.384766,4470.384766,4054.000000,4.000000,80.000000,,,,0.000000,4.000000,4.000000,4.000000,4.000000,4.000000,4.000000,4.000000,4.000000,4.000000,4.000000,4.000000,4.000000,4.000000,4.000000,100.000000,,,,,,,,,,,,,,,,,,,,,,,,,,,,,,,,,,,,,,,,,,,,,,,,,,,,,,,,,,,,,,,,,,,,,,,,,,,,,,,,,,,,,,,,,,,,,,,,,,,,,,,,,,,,,,,,,,,,,
1768210864.486158,1768210864.487161,96.000000,0.000000,4351.153809,4331.922852,4347.179688,4336.794922,4311.538574,4308.974121,4311.922852,4330.256348,4322.179688,4312.051270,4524.102539,4490.128418,4410.897461,4469.487305,4978.000000,4.000000,80.000000,,,,0.000000,4.000000,4.000000,4.000000,4.000000,4.000000,4.000000,4.000000,4.000000,4.000000,4.000000,4.000000,4.000000,4.000000,4.000000,100.000000,,,,,,,,,,,,,,,,,,,,,,,,,,,,,,,,,,,,,,,,,,,,,,,,,,,,,,,,,,,,,,,,,,,,,,,,,,,,,,,,,,,,,,,,,,,,,,,,,,,,,,,,,,,,,,,,,,,,,
1768210864.493966,1768210864.494970,97.000000,0.000000,4347.563965,4338.717773,4341.922852,4330.128418,4309.358887,4307.179688,4307.692383,4323.461426,4314.230957,4312.051270,4522.948730,4490.641113,4415.256348,4471.025879,3635.000000,4.000000,80.000000,,,,0.000000,4.000000,4.000000,4.000000,4.000000,4.000000,4.000000,4.000000,4.000000,4.000000,4.000000,4.000000,4.000000,4.000000,4.000000,100.000000,,,,,,,,,,,,,,,,,,,,,,,,,,,,,,,,,,,,,,,,,,,,,,,,,,,,,,,,,,,,,,,,,,,,,,,,,,,,,,,,,,,,,,,,,,,,,,,,,,,,,,,,,,,,,,,,,,,,,
1768210864.501774,1768210864.502678,98.000000,0.000000,4349.102539,4343.461426,4344.743652,4329.230957,4308.205078,4307.051270,4309.615234,4321.025879,4307.948730,4310.256348,4522.948730,4492.051270,4423.205078,4470.769043,3951.000000,4.000000,80.000000,,,,0.000000,4.000000,4.000000,4.000000,4.000000,4.000000,4.000000,4.000000,4.000000,4.000000,4.000000,4.000000,4.000000,4.000000,4.000000,100.000000,,,,,,,,,,,,,,,,,,,,,,,,,,,,,,,,,,,,,,,,,,,,,,,,,,,,,,,,,,,,,,,,,,,,,,,,,,,,,,,,,,,,,,,,,,,,,,,,,,,,,,,,,,,,,,,,,,,,,
1768210864.509583,1768210864.510487,99.000000,0.000000,4348.589844,4343.589844,4347.948730,4338.333496,4308.974121,4308.333496,4311.282227,4325.000000,4316.282227,4310.512695,4525.000000,4491.410156,4428.717773,4466.922852,4054.000000,4.000000,80.000000,,,,0.000000,4.000000,4.000000,4.000000,4.000000,4.000000,4.000000,4.000000,4.000000,4.000000,4.000000,4.000000,4.000000,4.000000,4.000000,100.000000,,,,,,,,,,,,,,,,,,,,,,,,,,,,,,,,,,,,,,,,,,,,,,,,,,,,,,,,,,,,,,,,,,,,,,,,,,,,,,,,,,,,,,,,,,,,,,,,,,,,,,,,,,,,,,,,,,,,,
1768210864.517391,1768210864.518495,100.000000,0.000000,4347.179688,4344.615234,4345.256348,4343.846191,4309.487305,4310.769043,4312.051270,4327.692383,4320.641113,4311.538574,4526.153809,4492.820313,4428.846191,4461.025879,4978.000000,4.000000,80.000000,,,,0.000000,4.000000,4.000000,4.000000,4.000000,4.000000,4.000000,4.000000,4.000000,4.000000,4.000000,4.000000,4.000000,4.000000,4.000000,100.000000,,,,,,,,,,,,,,,,,,,,,,,,,,,,,,,,,,,,,,,,,,,,,,,,,,,,,,,,,,,,,,,,,,,,,,,,,,,,,,,,,,,,,,,,,,,,,,,,,,,,,,,,,,,,,,,,,,,,,
1768210864.525200,1768210864.526303,101.000000,0.000000,4347.563965,4346.153809,4341.922852,4339.871582,4310.512695,4309.358887,4312.948730,4326.794922,4313.589844,4311.794922,4524.871582,4493.205078,4429.102539,4461.538574,3635.000000,4.000000,80.000000,,,,0.000000,4.000000,4.000000,4.000000,4.000000,4.000000,4.000000,4.000000,4.000000,4.000000,4.000000,4.000000,4.000000,4.000000,4.000000,100.000000,,,,,,,,,,,,,,,,,,,,,,,,,,,,,,,,,,,,,,,,,,,,,,,,,,,,,,,,,,,,,,,,,,,,,,,,,,,,,,,,,,,,,,,,,,,,,,,,,,,,,,,,,,,,,,,,,,,,,
1768210864.533008,1768210864.534012,102.000000,0.000000,4346.025879,4342.051270,4343.589844,4336.153809,4311.025879,4307.179688,4310.769043,4323.846191,4310.256348,4310.384766,4521.666504,4491.153809,4429.871582,4461.410156,3951.000000,4.000000,80.000000,,,,0.000000,4.000000,4.000000,4.000000,4.000000,4.000000,4.000000,4.000000,4.000000,4.000000,4.000000,4.000000,4.000000,4.000000,4.000000,100.000000,,,,,,,,,,,,,,,,,,,,,,,,,,,,,,,,,,,,,,,,,,,,,,,,0.863435,0.117241,0.069547,0.073044,0.043233,2.090291,0.411084,0.275679,0.189395,0.066281,0.605420,0.117788,0.185769,0.141533,0.107164,0.521037,0.181714,0.095797,0.045521,0.058807,0.185287,0.161289,0.154143,0.065349,0.063580,0.182018,0.145471,0.089389,0.080614,0.038445,0.085441,0.219674,0.155751,0.113300,0.097277,0.240084,0.451698,0.219644,0.384279,0.206199,0.224114,0.813657,0.337896,0.352926,0.155048,0.316242,0.607026,0.335760,0.418703,0.140914,0.770565,0.718538,0.331115,0.625847,0.143410,0.403696,0.571338,0.104430,0.221628,0.148762,4.132540,1.448938,0.629903,0.683935,0.086365,1.144866,0.414627,0.349014,0.315878,0.135717
1768210864.540817,1768210864.541820,103.000000,0.000000,4345.128418,4340.384766,4342.948730,4337.179688,4309.358887,4310.769043,4310.641113,4321.922852,4313.077148,4308.846191,4519.487305,4489.102539,4427.948730,4456.025879,4054.000000,4.000000,80.000000,,,,0.000000,4.000000,4.000000,4.000000,4.000000,4.000000,4.000000,4.000000,4.000000,4.000000,4.000000,4.000000,4.000000,4.000000,4.000000,100.000000,,,,,,,,,,,,,,,,,,,,,,,,,,,,,,,,,,,,,,,,,,,,,,,,,,,,,,,,,,,,,,,,,,,,,,,,,,,,,,,,,,,,,,,,,,,,,,,,,,,,,,,,,,,,,,,,,,,,,
1768210864.548625,1768210864.549428,104.000000,0.000000,4347.820313,4347.179688,4341.794922,4338.974121,4309.358887,4314.615234,4314.358887,4324.615234,4314.743652,4312.307617,4521.922852,4489.358887,4428.077148,4456.153809,4978.000000,4.000000,80.000000,,,,0.000000,4.000000,4.000000,4.000000,4.000000,4.000000,4.000000,4.000000,4.000000,4.000000,4.000000,4.000000,4.000000,4.000000,4.000000,100.000000,,,,,,,,,,,,,,,,,,,,,,,,,,,,,,,,,,,,,,,,,,,,,,,,,,,,,,,,,,,,,,,,,,,,,,,,,,,,,,,,,,,,,,,,,,,,,,,,,,,,,,,,,,,,,,,,,,,,,
1768210864.556434,1768210864.557236,105.000000,0.000000,4351.153809,4347.820313,4342.692383,4338.077148,4311.025879,4311.025879,4311.666504,4325.000000,4311.794922,4320.512695,4525.384766,4490.512695,4433.077148,4459.230957,3635.000000,4.000000,80.000000,,,,0.000000,4.000000,4.000000,4.000000,4.000000,4.000000,4.000000,4.000000,4.000000,4.000000,4.000000,4.000000,4.000000,4.000000,4.000000,100.000000,,,,,,,,,,,,,,,,,,,,,,,,,,,,,,,,,,,,,,,,,,,,,,,,,,,,,,,,,,,,,,,,,,,,,,,,,,,,,,,,,,,,,,,,,,,,,,,,,,,,,,,,,,,,,,,,,,,,,
1768210864.564242,1768210864.564945,106.000000,0.000000,4350.000000,4340.769043,4340.897461,4335.000000,4308.589844,4310.512695,4311.922852,4323.846191,4312.051270,4317.948730,4523.717773,4490.769043,4430.128418,4458.461426,3951.000000,4.000000,80.000000,,,,0.000000,4.000000,4.000000,4.000000,4.000000,4.000000,4.000000,4.000000,4.000000,4.000000,4.000000,4.000000,4.000000,4.000000,4.000000,100.000000,,,,,,,,,,,,,,,,,,,,,,,,,,,,,,,,,,,,,,,,,,,,,,,,,,,,,,,,,,,,,,,,,,,,,,,,,,,,,,,,,,,,,,,,,,,,,,,,,,,,,,,,,,,,,,,,,,,,,
1768210864.572050,1768210864.572753,107.000000,0.000000,4350.128418,4340.769043,4339.230957,4336.922852,4307.563965,4321.666504,4321.794922,4328.589844,4318.077148,4302.051270,4521.666504,4491.282227,4421.153809,4459.871582,4054.000000,4.000000,80.000000,,,,0.000000,4.000000,4.000000,4.000000,4.000000,4.000000,4.000000,4.000000,4.000000,4.000000,4.000000,4.000000,4.000000,4.000000,4.000000,100.000000,,,,,,,,,,,,,,,,,,,,,,,,,,,,,,,,,,,,,,,,,,,,,,,,,,,,,,,,,,,,,,,,,,,,,,,,,,,,,,,,,,,,,,,,,,,,,,,,,,,,,,,,,,,,,,,,,,,,,
1768210864.579859,1768210864.580761,108.000000,0.000000,4354.230957,4345.128418,4341.538574,4343.205078,4312.307617,4323.589844,4321.153809,4330.128418,4317.179688,4293.589844,4522.820313,4490.128418,4423.205078,4461.153809,4978.000000,4.000000,80.000000,,,,0.000000,4.000000,4.000000,4.000000,4.000000,4.000000,4.000000,4.000000,4.000000,4.000000,4.000000,4.000000,4.000000,4.000000,4.000000,100.000000,,,,,,,,,,,,,,,,,,,,,,,,,,,,,,,,,,,,,,,,,,,,,,,,,,,,,,,,,,,,,,,,,,,,,,,,,,,,,,,,,,,,,,,,,,,,,,,,,,,,,,,,,,,,,,,,,,,,,
1768210864.587667,1768210864.588570,109.000000,0.000000,4354.358887,4346.922852,4342.820313,4343.717773,4313.333496,4312.692383,4310.128418,4324.487305,4311.025879,4297.179688,4521.153809,4487.051270,4423.461426,4456.410156,3635.000000,4.000000,80.000000,,,,0.000000,4.000000,4.000000,4.000000,4.000000,4.000000,4.000000,4.000000,4.000000,4.000000,4.000000,4.000000,4.000000,4.000000,4.000000,100.000000,,,,,,,,,,,,,,,,,,,,,,,,,,,,,,,,,,,,,,,,,,,,,,,,,,,,,,,,,,,,,,,,,,,,,,,,,,,,,,,,,,,,,,,,,,,,,,,,,,,,,,,,,,,,,,,,,,,,,
1768210864.595476,1768210864.596478,110.000000,0.000000,4351.922852,4347.051270,4341.410156,4340.128418,4310.769043,4309.871582,4309.743652,4325.512695,4310.641113,4303.846191,4520.128418,4487.179688,4412.179688,4458.717773,3951.000000,4.000000,80.000000,,,,0.000000,4.000000,4.000000,4.000000,4.000000,4.000000,4.000000,4.000000,4.000000,4.000000,4.000000,4.000000,4.000000,4.000000,4.000000,100.000000,,,,,,,,,,,,,,,,,,,,,,,,,,,,,,,,,,,,,,,,,,,,,,,,,,,,,,,,,,,,,,,,,,,,,,,,,,,,,,,,,,,,,,,,,,,,,,,,,,,,,,,,,,,,,,,,,,,,,
1768210864.603284,1768210864.604286,111.000000,0.000000,4355.641113,4344.487305,4347.307617,4341.153809,4311.666504,4312.820313,4314.743652,4328.717773,4314.230957,4311.025879,4530.000000,4491.153809,4416.794922,4472.051270,4054.000000,4.000000,80.000000,,,,0.000000,4.000000,4.000000,4.000000,4.000000,4.000000,4.000000,4.000000,4.000000,4.000000,4.000000,4.000000,4.000000,4.000000,4.000000,100.000000,,,,,,,,,,,,,,,,,,,,,,,,,,,,,,,,,,,,,,,,,,,,,,,,,,,,,,,,,,,,,,,,,,,,,,,,,,,,,,,,,,,,,,,,,,,,,,,,,,,,,,,,,,,,,,,,,,,,,
1768210864.611093,1768210864.612295,112.000000,0.000000,4361.666504,4342.179688,4354.871582,4344.358887,4313.333496,4311.025879,4311.538574,4325.256348,4314.615234,4313.717773,4537.820313,4493.589844,4427.948730,4473.461426,4978.000000,4.000000,80.000000,,,,0.000000,4.000000,4.000000,4.000000,4.000000,4.000000,4.000000,4.000000,4.000000,4.000000,4.000000,4.000000,4.000000,4.000000,4.000000,100.000000,,,,,,,,,,,,,,,,,,,,,,,,,,,,,,,,,,,,,,,,,,,,,,,,,,,,,,,,,,,,,,,,,,,,,,,,,,,,,,,,,,,,,,,,,,,,,,,,,,,,,,,,,,,,,,,,,,,,,
1768210864.618901,1768210864.620103,113.000000,0.000000,4357.948730,4343.717773,4353.205078,4343.205078,4312.948730,4308.205078,4307.307617,4324.358887,4314.358887,4308.589844,4527.179688,4491.282227,4410.897461,4459.615234,3635.000000,4.000000,80.000000,,,,0.000000,4.000000,4.000000,4.000000,4.000000,4.000000,4.000000,4.000000,4.000000,4.000000,4.000000,4.000000,4.000000,4.000000,4.000000,100.000000,,,,,,,,,,,,,,,,,,,,,,,,,,,,,,,,,,,,,,,,,,,,,,,,,,,,,,,,,,,,,,,,,,,,,,,,,,,,,,,,,,,,,,,,,,,,,,,,,,,,,,,,,,,,,,,,,,,,,
1768210864.626709,1768210864.627812,114.000000,0.000000,4353.077148,4343.205078,4350.897461,4344.871582,4313.333496,4311.153809,4314.358887,4325.769043,4312.563965,4307.051270,4519.487305,4489.487305,4398.461426,4453.974121,3951.000000,4.000000,80.000000,,,,0.000000,4.000000,4.000000,4.000000,4.000000,4.000000,4.000000,4.000000,4.000000,4.000000,4.000000,4.000000,4.000000,4.000000,4.000000,100.000000,,,,,,,,,,,,,,,,,,,,,,,,,,,,,,,,,,,,,,,,,,,,,,,,,,,,,,,,,,,,,,,,,,,,,,,,,,,,,,,,,,,,,,,,,,,,,,,,,,,,,,,,,,,,,,,,,,,,,
1768210864.634518,1768210864.635620,115.000000,0.000000,4354.102539,4340.512695,4351.410156,4348.846191,4312.692383,4315.384766,4322.307617,4325.769043,4311.153809,4311.153809,4530.897461,4492.692383,4419.102539,4466.922852,4054.000000,4.000000,80.000000,,,,0.000000,4.000000,4.000000,4.000000,4.000000,4.000000,4.000000,4.000000,4.000000,4.000000,4.000000,4.000000,4.000000,4.000000,4.000000,100.000000,,,,,,,,,,,,,,,,,,,,,,,,,,,,,,,,,,,,,,,,,,,,,,,,,,,,,,,,,,,,,,,,,,,,,,,,,,,,,,,,,,,,,,,,,,,,,,,,,,,,,,,,,,,,,,,,,,,,,
1768210864.642326,1768210864.643229,116.000000,0.000000,4356.282227,4339.487305,4349.871582,4345.384766,4311.666504,4315.000000,4317.307617,4328.717773,4318.589844,4310.512695,4537.307617,4495.769043,4427.179688,4474.871582,4978.000000,4.000000,80.000000,,,,0.000000,4.000000,4.000000,4.000000,4.000000,4.000000,4.000000,4.000000,4.000000,4.000000,4.000000,4.000000,4.000000,4.000000,4.000000,100.000000,,,,,,,,,,,,,,,,,,,,,,,,,,,,,,,,,,,,,,,,,,,,,,,,,,,,,,,,,,,,,,,,,,,,,,,,,,,,,,,,,,,,,,,,,,,,,,,,,,,,,,,,,,,,,,,,,,,,,
1768210864.650135,1768210864.651037,117.000000,0.000000,4356.794922,4340.256348,4348.589844,4344.230957,4313.974121,4311.282227,4311.794922,4328.077148,4321.025879,4308.717773,4527.307617,4493.974121,4412.692383,4464.743652,3635.000000,4.000000,80.000000,,,,0.000000,4.000000,4.000000,4.000000,4.000000,4.000000,4.000000,4.000000,4.000000,4.000000,4.000000,4.000000,4.000000,4.000000,4.000000,100.000000,,,,,,,,,,,,,,,,,,,,,,,,,,,,,,,,,,,,,,,,,,,,,,,,,,,,,,,,,,,,,,,,,,,,,,,,,,,,,,,,,,,,,,,,,,,,,,,,,,,,,,,,,,,,,,,,,,,,,
1768210864.657943,1768210864.658746,118.000000,0.000000,4353.846191,4340.384766,4350.641113,4350.384766,4312.436035,4311.922852,4316.666504,4323.717773,4312.948730,4311.666504,4521.025879,4489.615234,4408.974121,4461.025879,3951.000000,4.000000,80.000000,,,,0.000000,4.000000,4.000000,4.000000,4.000000,4.000000,4.000000,4.000000,4.000000,4.000000,4.000000,4.000000,4.000000,4.000000,4.000000,100.000000,,,,,,,,,,,,,,,,,,,,,,,,,,,,,,,,,,,,,,,,,,,,,,,,0.482530,0.112359,0.089585,0.072679,0.045298,2.190058,0.458220,0.316476,0.206680,0.071615,0.465797,0.129834,0.179643,0.146607,0.115381,0.427708,0.183658,0.106873,0.053149,0.060098,0.174638,0.173925,0.143244,0.070341,0.066286,0.225217,0.193918,0.079741,0.068435,0.042118,0.066041,0.245757,0.161847,0.113034,0.111490,0.249545,0.521916,0.192357,0.405621,0.231608,0.252538,0.803094,0.291179,0.362637,0.147550,0.334052,0.556845,0.346637,0.416081,0.118065,0.649065,0.651249,0.355156,0.662448,0.138313,0.402771,0.624342,0.104840,0.254389,0.155674,4.902040,1.687965,0.657777,0.638030,0.076873,0.883856,0.459087,0.379789,0.382340,0.141391
1768210864.665752,1768210864.666554,119.000000,0.000000,4351.538574,4337.563965,4352.692383,4350.384766,4310.512695,4316.666504,4321.666504,4324.358887,4309.230957,4312.948730,4525.256348,4487.563965,4413.333496,4466.666504,4054.000000,4.000000,80.000000,,,,0.000000,4.000000,4.000000,4.000000,4.000000,4.000000,4.000000,4.000000,4.000000,4.000000,4.000000,4.000000,4.000000,4.000000,4.000000,100.000000,,,,,,,,,,,,,,,,,,,,,,,,,,,,,,,,,,,,,,,,,,,,,,,,,,,,,,,,,,,,,,,,,,,,,,,,,,,,,,,,,,,,,,,,,,,,,,,,,,,,,,,,,,,,,,,,,,,,,
1768210864.673560,1768210864.674163,120.000000,0.000000,4350.769043,4337.179688,4354.102539,4347.563965,4317.563965,4315.384766,4319.743652,4324.615234,4311.666504,4310.000000,4527.179688,4489.102539,4411.794922,4466.922852,4978.000000,4.000000,80.000000,,,,0.000000,4.000000,4.000000,4.000000,4.000000,4.000000,4.000000,4.000000,4.000000,4.000000,4.000000,4.000000,4.000000,4.000000,4.000000,100.000000,,,,,,,,,,,,,,,,,,,,,,,,,,,,,,,,,,,,,,,,,,,,,,,,,,,,,,,,,,,,,,,,,,,,,,,,,,,,,,,,,,,,,,,,,,,,,,,,,,,,,,,,,,,,,,,,,,,,,
1768210864.681368,1768210864.681971,121.000000,0.000000,4350.769043,4337.563965,4356.410156,4350.897461,4320.384766,4309.871582,4313.205078,4321.153809,4311.282227,4309.358887,4522.820313,4492.820313,4411.410156,4462.307617,3635.000000,4.000000,80.000000,,,,0.000000,4.000000,4.000000,4.000000,4.000000,4.000000,4.000000,4.000000,4.000000,4.000000,4.000000,4.000000,4.000000,4.000000,4.000000,100.000000,,,,,,,,,,,,,,,,,,,,,,,,,,,,,,,,,,,,,,,,,,,,,,,,,,,,,,,,,,,,,,,,,,,,,,,,,,,,,,,,,,,,,,,,,,,,,,,,,,,,,,,,,,,,,,,,,,,,,
1768210864.689177,1768210864.689680,122.000000,0.000000,4351.410156,4335.641113,4357.179688,4350.128418,4310.641113,4308.077148,4307.820313,4323.846191,4310.256348,4309.743652,4522.563965,4493.205078,4412.692383,4461.538574,3951.000000,4.000000,80.000000,,,,0.000000,4.000000,4.000000,4.000000,4.000000,4.000000,4.000000,4.000000,4.000000,4.000000,4.000000,4.000000,4.000000,4.000000,4.000000,100.000000,,,,,,,,,,,,,,,,,,,,,,,,,,,,,,,,,,,,,,,,,,,,,,,,,,,,,,,,,,,,,,,,,,,,,,,,,,,,,,,,,,,,,,,,,,,,,,,,,,,,,,,,,,,,,,,,,,,,,
1768210864.696985,1768210864.697488,123.000000,0.000000,4351.922852,4335.384766,4355.641113,4347.563965,4308.846191,4310.769043,4312.436035,4328.333496,4312.563965,4308.846191,4528.333496,4495.000000,4412.563965,4468.717773,4054.000000,4.000000,80.000000,,,,0.000000,4.000000,4.000000,4.000000,4.000000,4.000000,4.000000,4.000000,4.000000,4.000000,4.000000,4.000000,4.000000,4.000000,4.000000,100.000000,,,,,,,,,,,,,,,,,,,,,,,,,,,,,,,,,,,,,,,,,,,,,,,,,,,,,,,,,,,,,,,,,,,,,,,,,,,,,,,,,,,,,,,,,,,,,,,,,,,,,,,,,,,,,,,,,,,,,
1768210864.704794,1768210864.705497,124.000000,0.000000,4353.846191,4339.102539,4354.743652,4353.333496,4319.102539,4317.179688,4323.205078,4325.512695,4311.666504,4310.000000,4535.000000,4501.922852,4415.384766,4473.589844,4978.000000,4.000000,80.000000,,,,0.000000,4.000000,4.000000,4.000000,4.000000,4.000000,4.000000,4.000000,4.000000,4.000000,4.000000,4.000000,4.000000,4.000000,4.000000,100.000000,,,,,,,,,,,,,,,,,,,,,,,,,,,,,,,,,,,,,,,,,,,,,,,,,,,,,,,,,,,,,,,,,,,,,,,,,,,,,,,,,,,,,,,,,,,,,,,,,,,,,,,,,,,,,,,,,,,,,
1768210864.712602,1768210864.713305,125.000000,0.000000,4355.384766,4337.563965,4354.871582,4351.666504,4318.974121,4320.897461,4325.000000,4325.000000,4311.410156,4311.538574,4532.948730,4501.666504,4415.641113,4468.846191,3635.000000,4.000000,80.000000,,,,0.000000,4.000000,4.000000,4.000000,4.000000,4.000000,4.000000,4.000000,4.000000,4.000000,4.000000,4.000000,4.000000,4.000000,4.000000,100.000000,,,,,,,,,,,,,,,,,,,,,,,,,,,,,,,,,,,,,,,,,,,,,,,,,,,,,,,,,,,,,,,,,,,,,,,,,,,,,,,,,,,,,,,,,,,,,,,,,,,,,,,,,,,,,,,,,,,,,
1768210864.720411,1768210864.721213,126.000000,0.000000,4355.897461,4332.436035,4354.871582,4343.077148,4314.230957,4319.487305,4319.743652,4327.692383,4313.333496,4310.769043,4529.487305,4495.512695,4412.692383,4465.512695,3951.000000,4.000000,80.000000,,,,0.000000,4.000000,4.000000,4.000000,4.000000,4.000000,4.000000,4.000000,4.000000,4.000000,4.000000,4.000000,4.000000,4.000000,4.000000,100.000000,,,,,,,,,,,,,,,,,,,,,,,,,,,,,,,,,,,,,,,,,,,,,,,,,,,,,,,,,,,,,,,,,,,,,,,,,,,,,,,,,,,,,,,,,,,,,,,,,,,,,,,,,,,,,,,,,,,,,
1768210864.728219,1768210864.729022,127.000000,0.000000,4356.282227,4333.461426,4356.282227,4345.128418,4321.282227,4319.615234,4318.589844,4327.692383,4313.205078,4311.538574,4529.743652,4492.307617,4412.179688,4469.615234,80.000000,4.000000,80.000000,,,,0.000000,4.000000,4.000000,4.000000,4.000000,4.000000,4.000000,4.000000,4.000000,4.000000,4.000000,4.000000,4.000000,4.000000,4.000000,100.000000,,,,,,,,,,,,,,,,,,,,,,,,,,,,,,,,,,,,,,,,,,,,,,,,,,,,,,,,,,,,,,,,,,,,,,,,,,,,,,,,,,,,,,,,,,,,,,,,,,,,,,,,,,,,,,,,,,,,,
1768210864.736027,1768210864.736630,0.000000,0.000000,4356.666504,4336.922852,4358.461426,4351.922852,4327.179688,4323.205078,4321.153809,4325.512695,4311.282227,4312.692383,4528.846191,4492.307617,4411.282227,4471.153809,3011.000000,4.000000,80.000000,,,,0.000000,4.000000,4.000000,4.000000,4.000000,4.000000,4.000000,4.000000,4.000000,4.000000,4.000000,4.000000,4.000000,4.000000,4.000000,100.000000,,,,,,,,,,,,,,,,,,,,,,,,,,,,,,,,,,,,,,,,,,,,,,,,,,,,,,,,,,,,,,,,,,,,,,,,,,,,,,,,,,,,,,,,,,,,,,,,,,,,,,,,,,,,,,,,,,,,,
1768210864.743836,1768210864.744438,1.000000,0.000000,4355.897461,4335.256348,4358.333496,4350.512695,4323.205078,4323.589844,4320.384766,4325.512695,4311.153809,4310.000000,4528.589844,4499.487305,4411.922852,4473.589844,4071.000000,4.000000,80.000000,,,,0.000000,4.000000,4.000000,4.000000,4.000000,4.000000,4.000000,4.000000,4.000000,4.000000,4.000000,4.000000,4.000000,4.000000,4.000000,100.000000,,,,,,,,,,,,,,,,,,,,,,,,,,,,,,,,,,,,,,,,,,,,,,,,,,,,,,,,,,,,,,,,,,,,,,,,,,,,,,,,,,,,,,,,,,,,,,,,,,,,,,,,,,,,,,,,,,,,,
1768210864.751644,1768210864.752147,2.000000,0.000000,4354.871582,4331.666504,4358.205078,4347.307617,4318.461426,4323.461426,4320.641113,4328.846191,4315.256348,4310.769043,4530.128418,4506.282227,4413.846191,4478.846191,1811.000000,4.000000,80.000000,,,,0.000000,4.000000,4.000000,4.000000,4.000000,4.000000,4.000000,4.000000,4.000000,4.000000,4.000000,4.000000,4.000000,4.000000,4.000000,100.000000,,,,,,,,,,,,,,,,,,,,,,,,,,,,,,,,,,,,,,,,,,,,,,,,,,,,,,,,,,,,,,,,,,,,,,,,,,,,,,,,,,,,,,,,,,,,,,,,,,,,,,,,,,,,,,,,,,,,,
1768210864.759453,1768210864.759955,3.000000,0.000000,4355.512695,4332.948730,4356.410156,4350.512695,4316.794922,4326.794922,4326.794922,4337.051270,4320.384766,4314.102539,4527.436035,4501.282227,4413.846191,4473.589844,3937.000000,4.000000,80.000000,,,,0.000000,4.000000,4.000000,4.000000,4.000000,4.000000,4.000000,4.000000,4.000000,4.000000,4.000000,4.000000,4.000000,4.000000,4.000000,100.000000,,,,,,,,,,,,,,,,,,,,,,,,,,,,,,,,,,,,,,,,,,,,,,,,,,,,,,,,,,,,,,,,,,,,,,,,,,,,,,,,,,,,,,,,,,,,,,,,,,,,,,,,,,,,,,,,,,,,,
1768210864.767261,1768210864.767963,4.000000,0.000000,4353.333496,4333.589844,4351.153809,4351.025879,4311.794922,4327.051270,4329.743652,4342.948730,4321.025879,4312.307617,4522.051270,4493.846191,4409.743652,4467.436035,3869.000000,4.000000,80.000000,,,,0.000000,4.000000,4.000000,4.000000,4.000000,4.000000,4.000000,4.000000,4.000000,4.000000,4.000000,4.000000,4.000000,4.000000,4.000000,100.000000,,,,,,,,,,,,,,,,,,,,,,,,,,,,,,,,,,,,,,,,,,,,,,,,,,,,,,,,,,,,,,,,,,,,,,,,,,,,,,,,,,,,,,,,,,,,,,,,,,,,,,,,,,,,,,,,,,,,,
1768210864.775070,1768210864.775772,5.000000,0.000000,4351.922852,4329.358887,4349.487305,4343.589844,4309.230957,4324.102539,4323.077148,4332.820313,4314.743652,4310.897461,4521.794922,4492.179688,4407.948730,4464.743652,3400.000000,4.000000,80.000000,,,,0.000000,4.000000,4.000000,4.000000,4.000000,4.000000,4.000000,4.000000,4.000000,4.000000,4.000000,4.000000,4.000000,4.000000,4.000000,100.000000,,,,,,,,,,,,,,,,,,,,,,,,,,,,,,,,,,,,,,,,,,,,,,,,,,,,,,,,,,,,,,,,,,,,,,,,,,,,,,,,,,,,,,,,,,,,,,,,,,,,,,,,,,,,,,,,,,,,,
1768210864.782878,1768210864.783680,6.000000,0.000000,4351.538574,4326.794922,4351.410156,4341.282227,4315.512695,4321.025879,4319.615234,4317.436035,4306.025879,4309.358887,4521.666504,4488.717773,4407.307617,4459.743652,3901.000000,4.000000,80.000000,,,,0.000000,4.000000,4.000000,4.000000,4.000000,4.000000,4.000000,4.000000,4.000000,4.000000,4.000000,4.000000,4.000000,4.000000,4.000000,100.000000,,,,,,,,,,,,,,,,,,,,,,,,,,,,,,,,,,,,,,,,,,,,,,,,0.268998,0.118129,0.110725,0.076323,0.049107,2.078165,0.514614,0.325029,0.218583,0.081137,0.440737,0.160067,0.162736,0.155323,0.120101,0.366612,0.199957,0.122200,0.076949,0.061777,0.195860,0.198588,0.136355,0.082678,0.069080,0.286054,0.245591,0.079069,0.061086,0.049561,0.074180,0.283200,0.165313,0.111058,0.124215,0.264031,0.575432,0.175910,0.398772,0.250466,0.313697,0.723755,0.245766,0.341591,0.140908,0.362512,0.495858,0.339594,0.400717,0.097869,0.625111,0.576443,0.364029,0.657645,0.150733,0.494779,0.636295,0.101947,0.289681,0.168613,5.183635,1.784181,0.637804,0.552798,0.079656,0.893831,0.533678,0.409345,0.446455,0.154917
1768210864.790686,1768210864.791488,7.000000,0.000000,4348.333496,4327.436035,4348.589844,4347.948730,4321.538574,4317.948730,4321.282227,4322.692383,4306.538574,4303.974121,4522.051270,4488.846191,4400.128418,4460.256348,3931.000000,4.000000,80.000000,,,,0.000000,4.000000,4.000000,4.000000,4.000000,4.000000,4.000000,4.000000,4.000000,4.000000,4.000000,4.000000,4.000000,4.000000,4.000000,100.000000,,,,,,,,,,,,,,,,,,,,,,,,,,,,,,,,,,,,,,,,,,,,,,,,,,,,,,,,,,,,,,,,,,,,,,,,,,,,,,,,,,,,,,,,,,,,,,,,,,,,,,,,,,,,,,,,,,,,,
1768210864.798495,1768210864.799497,8.000000,0.000000,4347.051270,4326.153809,4343.077148,4349.615234,4318.461426,4318.333496,4318.077148,4332.051270,4313.589844,4301.410156,4521.025879,4491.538574,4394.743652,4461.922852,3974.000000,4.000000,80.000000,,,,0.000000,4.000000,4.000000,4.000000,4.000000,4.000000,4.000000,4.000000,4.000000,4.000000,4.000000,4.000000,4.000000,4.000000,4.000000,100.000000,,,,,,,,,,,,,,,,,,,,,,,,,,,,,,,,,,,,,,,,,,,,,,,,,,,,,,,,,,,,,,,,,,,,,,,,,,,,,,,,,,,,,,,,,,,,,,,,,,,,,,,,,,,,,,,,,,,,,
1768210864.806303,1768210864.807305,9.000000,0.000000,4350.897461,4323.717773,4341.538574,4346.025879,4317.820313,4321.922852,4311.666504,4318.077148,4310.512695,4304.230957,4510.897461,4481.538574,4397.820313,4453.974121,4068.000000,4.000000,80.000000,,,,0.000000,4.000000,4.000000,4.000000,4.000000,4.000000,4.000000,4.000000,4.000000,4.000000,4.000000,4.000000,4.000000,4.000000,4.000000,100.000000,,,,,,,,,,,,,,,,,,,,,,,,,,,,,,,,,,,,,,,,,,,,,,,,,,,,,,,,,,,,,,,,,,,,,,,,,,,,,,,,,,,,,,,,,,,,,,,,,,,,,,,,,,,,,,,,,,,,,
1768210864.814112,1768210864.815213,10.000000,0.000000,4353.717773,4326.538574,4343.589844,4345.897461,4324.102539,4320.384766,4309.358887,4305.512695,4301.025879,4304.743652,4508.205078,4471.922852,4405.000000,4450.641113,3956.000000,4.000000,80.000000,,,,0.000000,4.000000,4.000000,4.000000,4.000000,4.000000,4.000000,4.000000,4.000000,4.000000,4.000000,4.000000,4.000000,4.000000,4.000000,100.000000,,,,,,,,,,,,,,,,,,,,,,,,,,,,,,,,,,,,,,,,,,,,,,,,,,,,,,,,,,,,,,,,,,,,,,,,,,,,,,,,,,,,,,,,,,,,,,,,,,,,,,,,,,,,,,,,,,,,,
1768210864.821920,1768210864.823022,11.000000,0.000000,4351.922852,4326.666504,4343.717773,4345.384766,4320.769043,4318.077148,4314.102539,4321.282227,4305.256348,4302.436035,4520.384766,4483.205078,4408.589844,4458.333496,4056.000000,4.000000,80.000000,,,,0.000000,4.000000,4.000000,4.000000,4.000000,4.000000,4.000000,4.000000,4.000000,4.000000,4.000000,4.000000,4.000000,4.000000,4.000000,100.000000,,,,,,,,,,,,,,,,,,,,,,,,,,,,,,,,,,,,,,,,,,,,,,,,,,,,,,,,,,,,,,,,,,,,,,,,,,,,,,,,,,,,,,,,,,,,,,,,,,,,,,,,,,,,,,,,,,,,,
1768210864.829729,1768210864.831030,12.000000,0.000000,4346.666504,4323.077148,4340.000000,4342.307617,4315.641113,4320.641113,4318.717773,4329.743652,4311.025879,4304.615234,4526.282227,4491.410156,4405.000000,4458.333496,4978.000000,4.000000,80.000000,,,,0.000000,4.000000,4.000000,4.000000,4.000000,4.000000,4.000000,4.000000,4.000000,4.000000,4.000000,4.000000,4.000000,4.000000,4.000000,100.000000,,,,,,,,,,,,,,,,,,,,,,,,,,,,,,,,,,,,,,,,,,,,,,,,,,,,,,,,,,,,,,,,,,,,,,,,,,,,,,,,,,,,,,,,,,,,,,,,,,,,,,,,,,,,,,,,,,,,,
1768210864.837537,1768210864.838839,13.000000,0.000000,4344.102539,4318.077148,4337.948730,4340.128418,4319.358887,4321.922852,4320.256348,4316.410156,4305.384766,4302.179688,4516.410156,4480.128418,4400.897461,4452.436035,3635.000000,4.000000,80.000000,,,,0.000000,4.000000,4.000000,4.000000,4.000000,4.000000,4.000000,4.000000,4.000000,4.000000,4.000000,4.000000,4.000000,4.000000,4.000000,100.000000,,,,,,,,,,,,,,,,,,,,,,,,,,,,,,,,,,,,,,,,,,,,,,,,,,,,,,,,,,,,,,,,,,,,,,,,,,,,,,,,,,,,,,,,,,,,,,,,,,,,,,,,,,,,,,,,,,,,,
1768210864.845346,1768210864.846547,14.000000,0.000000,4344.871582,4314.358887,4340.769043,4339.358887,4317.563965,4321.410156,4319.102539,4313.846191,4302.307617,4293.333496,4512.820313,4476.538574,4400.641113,4452.436035,3956.000000,4.000000,80.000000,,,,0.000000,4.000000,4.000000,4.000000,4.000000,4.000000,4.000000,4.000000,4.000000,4.000000,4.000000,4.000000,4.000000,4.000000,4.000000,100.000000,,,,,,,,,,,,,,,,,,,,,,,,,,,,,,,,,,,,,,,,,,,,,,,,,,,,,,,,,,,,,,,,,,,,,,,,,,,,,,,,,,,,,,,,,,,,,,,,,,,,,,,,,,,,,,,,,,,,,
1768210864.853154,1768210864.854356,15.000000,0.000000,4345.641113,4314.615234,4340.897461,4340.897461,4311.538574,4324.743652,4317.436035,4325.384766,4308.717773,4296.666504,4521.025879,4488.974121,4402.179688,4454.358887,4056.000000,4.000000,80.000000,,,,0.000000,4.000000,4.000000,4.000000,4.000000,4.000000,4.000000,4.000000,4.000000,4.000000,4.000000,4.000000,4.000000,4.000000,4.000000,100.000000,,,,,,,,,,,,,,,,,,,,,,,,,,,,,,,,,,,,,,,,,,,,,,,,,,,,,,,,,,,,,,,,,,,,,,,,,,,,,,,,,,,,,,,,,,,,,,,,,,,,,,,,,,,,,,,,,,,,,
1768210864.860962,1768210864.861964,16.000000,0.000000,4344.615234,4313.717773,4338.717773,4339.743652,4311.538574,4327.948730,4320.128418,4332.820313,4317.307617,4312.051270,4525.256348,4494.358887,4404.743652,4454.743652,0.000000,4.000000,80.000000,,,,0.000000,4.000000,4.000000,4.000000,4.000000,4.000000,4.000000,4.000000,4.000000,4.000000,4.000000,4.000000,4.000000,4.000000,4.000000,100.000000,,,,,,,,,,,,,,,,,,,,,,,,,,,,,,,,,,,,,,,,,,,,,,,,,,,,,,,,,,,,,,,,,,,,,,,,,,,,,,,,,,,,,,,,,,,,,,,,,,,,,,,,,,,,,,,,,,,,,
1768210864.868771,1768210864.869773,17.000000,0.000000,4345.512695,4312.179688,4339.487305,4336.538574,4310.256348,4324.615234,4322.563965,4335.897461,4324.358887,4317.436035,4524.102539,4492.820313,4410.512695,4459.615234,0.000000,4.000000,80.000000,,,,0.000000,4.000000,4.000000,4.000000,4.000000,4.000000,4.000000,4.000000,4.000000,4.000000,4.000000,4.000000,4.000000,4.000000,4.000000,100.000000,,,,,,,,,,,,,,,,,,,,,,,,,,,,,,,,,,,,,,,,,,,,,,,,,,,,,,,,,,,,,,,,,,,,,,,,,,,,,,,,,,,,,,,,,,,,,,,,,,,,,,,,,,,,,,,,,,,,,
1768210864.876579,1768210864.877481,18.000000,0.000000,4348.846191,4317.692383,4342.051270,4341.025879,4309.487305,4320.641113,4316.922852,4331.794922,4323.333496,4306.282227,4523.974121,4494.230957,4409.743652,4468.205078,0.000000,4.000000,80.000000,,,,0.000000,4.000000,4.000000,4.000000,4.000000,4.000000,4.000000,4.000000,4.000000,4.000000,4.000000,4.000000,4.000000,4.000000,4.000000,100.000000,,,,,,,,,,,,,,,,,,,,,,,,,,,,,,,,,,,,,,,,,,,,,,,,,,,,,,,,,,,,,,,,,,,,,,,,,,,,,,,,,,,,,,,,,,,,,,,,,,,,,,,,,,,,,,,,,,,,,
1768210864.884388,1768210864.885290,19.000000,0.000000,4352.436035,4326.794922,4345.256348,4345.512695,4317.692383,4322.436035,4312.563965,4326.666504,4317.948730,4302.692383,4522.820313,4493.717773,4402.436035,4468.717773,0.000000,4.000000,80.000000,,,,0.000000,4.000000,4.000000,4.000000,4.000000,4.000000,4.000000,4.000000,4.000000,4.000000,4.000000,4.000000,4.000000,4.000000,4.000000,100.000000,,,,,,,,,,,,,,,,,,,,,,,,,,,,,,,,,,,,,,,,,,,,,,,,,,,,,,,,,,,,,,,,,,,,,,,,,,,,,,,,,,,,,,,,,,,,,,,,,,,,,,,,,,,,,,,,,,,,,
1768210864.892196,1768210864.892898,20.000000,0.000000,4354.871582,4327.948730,4350.128418,4344.230957,4323.846191,4324.871582,4319.230957,4331.410156,4321.666504,4313.461426,4522.820313,4497.692383,4405.128418,4465.000000,0.000000,4.000000,80.000000,,,,0.000000,4.000000,4.000000,4.000000,4.000000,4.000000,4.000000,4.000000,4.000000,4.000000,4.000000,4.000000,4.000000,4.000000,4.000000,100.000000,,,,,,,,,,,,,,,,,,,,,,,,,,,,,,,,,,,,,,,,,,,,,,,,,,,,,,,,,,,,,,,,,,,,,,,,,,,,,,,,,,,,,,,,,,,,,,,,,,,,,,,,,,,,,,,,,,,,,
1768210864.900005,1768210864.900707,21.000000,0.000000,4356.666504,4326.922852,4355.128418,4346.538574,4323.717773,4324.358887,4322.820313,4334.230957,4321.794922,4321.025879,4531.538574,4506.410156,4416.666504,4470.128418,0.000000,4.000000,80.000000,,,,0.000000,4.000000,4.000000,4.000000,4.000000,4.000000,4.000000,4.000000,4.000000,4.000000,4.000000,4.000000,4.000000,4.000000,4.000000,100.000000,,,,,,,,,,,,,,,,,,,,,,,,,,,,,,,,,,,,,,,,,,,,,,,,,,,,,,,,,,,,,,,,,,,,,,,,,,,,,,,,,,,,,,,,,,,,,,,,,,,,,,,,,,,,,,,,,,,,,
1768210864.907813,1768210864.908615,22.000000,0.000000,4359.230957,4328.846191,4357.436035,4353.461426,4324.230957,4324.615234,4319.102539,4326.282227,4313.717773,4315.256348,4538.077148,4507.820313,4432.563965,4478.846191,0.000000,4.000000,80.000000,,,,0.000000,4.000000,4.000000,4.000000,4.000000,4.000000,4.000000,4.000000,4.000000,4.000000,4.000000,4.000000,4.000000,4.000000,4.000000,100.000000,1.000000,100.000000,4.000000,4.000000,4.000000,4.000000,4.000000,4.000000,4.000000,4.000000,4.000000,4.000000,4.000000,4.000000,4.000000,4.000000,,,,,,,,,,,,,,,,,,,,,,,,,,,,,,,,0.207949,0.137834,0.126499,0.085537,0.054825,1.791247,0.565772,0.296266,0.225575,0.094645,0.546236,0.201855,0.143020,0.171386,0.121401,0.352131,0.233341,0.135172,0.114359,0.064907,0.254493,0.225039,0.133099,0.096262,0.071412,0.346159,0.286445,0.089349,0.058065,0.058793,0.105049,0.322497,0.164306,0.104886,0.132838,0.272329,0.597917,0.170038,0.368416,0.259379,0.383325,0.589473,0.211496,0.298602,0.137913,0.411817,0.434237,0.321090,0.383097,0.084240,0.683991,0.505981,0.348995,0.617133,0.172478,0.669375,0.606193,0.096342,0.323008,0.181566,4.854964,1.718005,0.557091,0.452163,0.093543,1.158877,0.605135,0.425413,0.495547,0.170261
1768210864.915621,1768210864.916424,23.000000,0.000000,4359.615234,4328.974121,4358.974121,4356.025879,4324.615234,4328.717773,4320.384766,4324.230957,4315.128418,4306.794922,4535.769043,4504.743652,4451.794922,4478.846191,0.000000,4.000000,80.000000,,,,0.000000,4.000000,4.000000,4.000000,4.000000,4.000000,4.000000,4.000000,4.000000,4.000000,4.000000,4.000000,4.000000,4.000000,4.000000,100.000000,,,,,,,,,,,,,,,,,,,,,,,,,,,,,,,,,,,,,,,,,,,,,,,,,,,,,,,,,,,,,,,,,,,,,,,,,,,,,,,,,,,,,,,,,,,,,,,,,,,,,,,,,,,,,,,,,,,,,
1768210864.923430,1768210864.924432,24.000000,0.000000,4357.563965,4328.077148,4358.461426,4352.307617,4324.487305,4328.205078,4322.820313,4329.358887,4321.025879,4312.948730,4534.102539,4504.743652,4467.948730,4472.948730,0.000000,4.000000,80.000000,,,,0.000000,4.000000,4.000000,4.000000,4.000000,4.000000,4.000000,4.000000,4.000000,4.000000,4.000000,4.000000,4.000000,4.000000,4.000000,100.000000,,,,,,,,,,,,,,,,,,,,,,,,,,,,,,,,,,,,,,,,,,,,,,,,,,,,,,,,,,,,,,,,,,,,,,,,,,,,,,,,,,,,,,,,,,,,,,,,,,,,,,,,,,,,,,,,,,,,,
1768210864.931238,1768210864.932240,25.000000,0.000000,4357.307617,4327.051270,4350.897461,4350.256348,4324.230957,4324.615234,4321.282227,4335.384766,4322.563965,4320.000000,4537.563965,4501.666504,4475.384766,4467.051270,0.000000,4.000000,80.000000,,,,0.000000,4.000000,4.000000,4.000000,4.000000,4.000000,4.000000,4.000000,4.000000,4.000000,4.000000,4.000000,4.000000,4.000000,4.000000,100.000000,,,,,,,,,,,,,,,,,,,,,,,,,,,,,,,,,,,,,,,,,,,,,,,,,,,,,,,,,,,,,,,,,,,,,,,,,,,,,,,,,,,,,,,,,,,,,,,,,,,,,,,,,,,,,,,,,,,,,
1768210864.939047,1768210864.940149,26.000000,0.000000,4356.794922,4326.794922,4344.230957,4353.077148,4323.846191,4326.282227,4323.461426,4340.512695,4327.051270,4312.948730,4541.153809,4499.102539,4476.666504,4468.333496,0.000000,4.000000,80.000000,,,,0.000000,4.000000,4.000000,4.000000,4.000000,4.000000,4.000000,4.000000,4.000000,4.000000,4.000000,4.000000,4.000000,4.000000,4.000000,100.000000,,,,,,,,,,,,,,,,,,,,,,,,,,,,,,,,,,,,,,,,,,,,,,,,,,,,,,,,,,,,,,,,,,,,,,,,,,,,,,,,,,,,,,,,,,,,,,,,,,,,,,,,,,,,,,,,,,,,,
1768210864.946855,1768210864.947957,27.000000,0.000000,4355.128418,4327.820313,4344.743652,4353.077148,4324.615234,4327.179688,4323.333496,4333.461426,4322.563965,4305.000000,4534.871582,4504.615234,4478.205078,4473.717773,0.000000,4.000000,80.000000,,,,0.000000,4.000000,4.000000,4.000000,4.000000,4.000000,4.000000,4.000000,4.000000,4.000000,4.000000,4.000000,4.000000,4.000000,4.000000,100.000000,,,,,,,,,,,,,,,,,,,,,,,,,,,,,,,,,,,,,,,,,,,,,,,,,,,,,,,,,,,,,,,,,,,,,,,,,,,,,,,,,,,,,,,,,,,,,,,,,,,,,,,,,,,,,,,,,,,,,
1768210864.954664,1768210864.955566,28.000000,0.000000,4354.230957,4325.512695,4345.512695,4347.692383,4324.230957,4325.897461,4319.358887,4322.820313,4309.615234,4311.794922,4524.358887,4504.230957,4479.615234,4467.436035,0.000000,4.000000,80.000000,,,,0.000000,4.000000,4.000000,4.000000,4.000000,4.000000,4.000000,4.000000,4.000000,4.000000,4.000000,4.000000,4.000000,4.000000,4.000000,100.000000,,,,,,,,,,,,,,,,,,,,,,,,,,,,,,,,,,,,,,,,,,,,,,,,,,,,,,,,,,,,,,,,,,,,,,,,,,,,,,,,,,,,,,,,,,,,,,,,,,,,,,,,,,,,,,,,,,,,,
1768210864.962472,1768210864.963374,29.000000,0.000000,4350.769043,4320.512695,4342.051270,4343.589844,4321.538574,4325.769043,4324.230957,4330.897461,4317.436035,4320.000000,4521.666504,4494.615234,4475.897461,4457.692383,0.000000,4.000000,80.000000,,,,0.000000,4.000000,4.000000,4.000000,4.000000,4.000000,4.000000,4.000000,4.000000,4.000000,4.000000,4.000000,4.000000,4.000000,4.000000,100.000000,,,,,,,,,,,,,,,,,,,,,,,,,,,,,,,,,,,,,,,,,,,,,,,,,,,,,,,,,,,,,,,,,,,,,,,,,,,,,,,,,,,,,,,,,,,,,,,,,,,,,,,,,,,,,,,,,,,,,
1768210864.970281,1768210864.971082,30.000000,0.000000,4347.051270,4322.563965,4342.436035,4344.102539,4320.128418,4323.205078,4325.641113,4337.307617,4329.871582,4318.717773,4522.692383,4489.487305,4473.077148,4458.205078,0.000000,4.000000,80.000000,,,,0.000000,4.000000,4.000000,4.000000,4.000000,4.000000,4.000000,4.000000,4.000000,4.000000,4.000000,4.000000,4.000000,4.000000,4.000000,100.000000,,,,,,,,,,,,,,,,,,,,,,,,,,,,,,,,,,,,,,,,,,,,,,,,,,,,,,,,,,,,,,,,,,,,,,,,,,,,,,,,,,,,,,,,,,,,,,,,,,,,,,,,,,,,,,,,,,,,,
1768210864.978089,1768210864.978890,31.000000,0.000000,4350.000000,4327.307617,4343.974121,4348.077148,4320.256348,4319.743652,4315.897461,4326.282227,4321.153809,4315.897461,4522.179688,4490.000000,4472.307617,4459.487305,0.000000,4.000000,80.000000,,,,0.000000,4.000000,4.000000,4.000000,4.000000,4.000000,4.000000,4.000000,4.000000,4.000000,4.000000,4.000000,4.000000,4.000000,4.000000,100.000000,,,,,,,,,,,,,,,,,,,,,,,,,,,,,,,,,,,,,,,,,,,,,,,,,,,,,,,,,,,,,,,,,,,,,,,,,,,,,,,,,,,,,,,,,,,,,,,,,,,,,,,,,,,,,,,,,,,,,
1768210864.985897,1768210864.986898,32.000000,0.000000,4350.897461,4321.922852,4342.179688,4349.615234,4320.256348,4320.512695,4313.974121,4324.358887,4315.000000,4311.025879,4517.563965,4491.153809,4463.974121,4452.820313,0.000000,4.000000,80.000000,,,,0.000000,4.000000,4.000000,4.000000,4.000000,4.000000,4.000000,4.000000,4.000000,4.000000,4.000000,4.000000,4.000000,4.000000,4.000000,100.000000,,,,,,,,,,,,,,,,,,,,,,,,,,,,,,,,,,,,,,,,,,,,,,,,,,,,,,,,,,,,,,,,,,,,,,,,,,,,,,,,,,,,,,,,,,,,,,,,,,,,,,,,,,,,,,,,,,,,,
1768210864.993706,1768210864.994707,33.000000,0.000000,4343.974121,4311.538574,4340.128418,4343.974121,4315.897461,4322.820313,4322.563965,4332.051270,4321.666504,4305.512695,4512.436035,4492.179688,4453.974121,4448.846191,0.000000,4.000000,80.000000,,,,0.000000,4.000000,4.000000,4.000000,4.000000,4.000000,4.000000,4.000000,4.000000,4.000000,4.000000,4.000000,4.000000,4.000000,4.000000,100.000000,,,,,,,,,,,,,,,,,,,,,,,,,,,,,,,,,,,,,,,,,,,,,,,,,,,,,,,,,,,,,,,,,,,,,,,,,,,,,,,,,,,,,,,,,,,,,,,,,,,,,,,,,,,,,,,,,,,,,
1768210865.001514,1768210865.002615,34.000000,0.000000,4343.205078,4306.794922,4339.487305,4336.153809,4309.102539,4322.820313,4327.563965,4330.256348,4322.820313,4306.025879,4515.769043,4492.820313,4455.769043,4451.153809,0.000000,4.000000,80.000000,,,,0.000000,4.000000,4.000000,4.000000,4.000000,4.000000,4.000000,4.000000,4.000000,4.000000,4.000000,4.000000,4.000000,4.000000,4.000000,100.000000,,,,,,,,,,,,,,,,,,,,,,,,,,,,,,,,,,,,,,,,,,,,,,,,,,,,,,,,,,,,,,,,,,,,,,,,,,,,,,,,,,,,,,,,,,,,,,,,,,,,,,,,,,,,,,,,,,,,,
1768210865.009323,1768210865.010424,35.000000,0.000000,4349.743652,4311.794922,4342.307617,4338.717773,4312.692383,4322.307617,4329.871582,4329.358887,4323.846191,4315.256348,4526.666504,4497.948730,4461.666504,4457.692383,0.000000,4.000000,80.000000,,,,0.000000,4.000000,4.000000,4.000000,4.000000,4.000000,4.000000,4.000000,4.000000,4.000000,4.000000,4.000000,4.000000,4.000000,4.000000,100.000000,,,,,,,,,,,,,,,,,,,,,,,,,,,,,,,,,,,,,,,,,,,,,,,,,,,,,,,,,,,,,,,,,,,,,,,,,,,,,,,,,,,,,,,,,,,,,,,,,,,,,,,,,,,,,,,,,,,,,
1768210865.017131,1768210865.018032,36.000000,0.000000,4352.051270,4320.384766,4347.563965,4347.820313,4321.794922,4322.307617,4332.179688,4340.384766,4329.487305,4317.692383,4536.666504,4508.717773,4461.538574,4465.641113,0.000000,4.000000,80.000000,,,,0.000000,4.000000,4.000000,4.000000,4.000000,4.000000,4.000000,4.000000,4.000000,4.000000,4.000000,4.000000,4.000000,4.000000,4.000000,100.000000,,,,,,,,,,,,,,,,,,,,,,,,,,,,,,,,,,,,,,,,,,,,,,,,,,,,,,,,,,,,,,,,,,,,,,,,,,,,,,,,,,,,,,,,,,,,,,,,,,,,,,,,,,,,,,,,,,,,,
1768210865.024939,1768210865.025841,37.000000,0.000000,4352.820313,4324.743652,4347.948730,4350.384766,4321.922852,4325.384766,4329.615234,4345.256348,4328.077148,4309.102539,4537.563965,4510.256348,4458.974121,4467.948730,0.000000,4.000000,80.000000,,,,0.000000,4.000000,4.000000,4.000000,4.000000,4.000000,4.000000,4.000000,4.000000,4.000000,4.000000,4.000000,4.000000,4.000000,4.000000,100.000000,,,,,,,,,,,,,,,,,,,,,,,,,,,,,,,,,,,,,,,,,,,,,,,,,,,,,,,,,,,,,,,,,,,,,,,,,,,,,,,,,,,,,,,,,,,,,,,,,,,,,,,,,,,,,,,,,,,,,
1768210865.032748,1768210865.033549,38.000000,0.000000,4353.717773,4326.025879,4344.743652,4350.256348,4321.282227,4326.666504,4326.282227,4333.461426,4322.692383,4310.512695,4528.717773,4500.769043,4459.743652,4462.307617,0.000000,4.000000,80.000000,,,,0.000000,4.000000,4.000000,4.000000,4.000000,4.000000,4.000000,4.000000,4.000000,4.000000,4.000000,4.000000,4.000000,4.000000,4.000000,100.000000,,,,,,,,,,,,,,,,,,,,,,,,,,,,,,,,,,,,,,,,,,,,,,,,0.234718,0.167712,0.130787,0.099012,0.061391,1.414692,0.597974,0.241057,0.228337,0.109258,0.744331,0.245021,0.128501,0.193964,0.119548,0.379895,0.279083,0.140313,0.156821,0.070004,0.338628,0.243541,0.132461,0.105285,0.072861,0.388217,0.307836,0.106937,0.058466,0.067595,0.147231,0.353612,0.160187,0.095745,0.136983,0.273203,0.582309,0.170305,0.326456,0.259737,0.440284,0.429649,0.191630,0.248909,0.140656,0.492698,0.385324,0.297926,0.372922,0.079305,0.793632,0.449396,0.310566,0.554574,0.194157,0.894219,0.541428,0.090153,0.349540,0.187854,4.033537,1.517203,0.426205,0.361817,0.116886,1.587785,0.644101,0.416264,0.520170,0.182502
1768210865.040556,1768210865.041358,39.000000,0.000000,4355.128418,4328.205078,4348.589844,4355.384766,4326.282227,4322.692383,4324.487305,4327.563965,4319.743652,4318.974121,4521.410156,4500.384766,4457.563965,4457.563965,0.000000,4.000000,80.000000,,,,0.000000,4.000000,4.000000,4.000000,4.000000,4.000000,4.000000,4.000000,4.000000,4.000000,4.000000,4.000000,4.000000,4.000000,4.000000,100.000000,,,,,,,,,,,,,,,,,,,,,,,,,,,,,,,,,,,,,,,,,,,,,,,,,,,,,,,,,,,,,,,,,,,,,,,,,,,,,,,,,,,,,,,,,,,,,,,,,,,,,,,,,,,,,,,,,,,,,
1768210865.048365,1768210865.048966,40.000000,0.000000,4357.948730,4328.205078,4355.769043,4358.717773,4327.179688,4324.230957,4324.358887,4334.615234,4320.000000,4314.871582,4523.974121,4506.666504,4448.333496,4459.615234,0.000000,4.000000,80.000000,,,,0.000000,4.000000,4.000000,4.000000,4.000000,4.000000,4.000000,4.000000,4.000000,4.000000,4.000000,4.000000,4.000000,4.000000,4.000000,100.000000,,,,,,,,,,,,,,,,,,,,,,,,,,,,,,,,,,,,,,,,,,,,,,,,,,,,,,,,,,,,,,,,,,,,,,,,,,,,,,,,,,,,,,,,,,,,,,,,,,,,,,,,,,,,,,,,,,,,,
1768210865.056173,1768210865.056775,41.000000,0.000000,4357.179688,4325.641113,4350.641113,4350.769043,4322.948730,4326.538574,4325.000000,4335.256348,4317.820313,4305.512695,4525.384766,4500.384766,4442.436035,4462.436035,0.000000,4.000000,80.000000,,,,0.000000,4.000000,4.000000,4.000000,4.000000,4.000000,4.000000,4.000000,4.000000,4.000000,4.000000,4.000000,4.000000,4.000000,4.000000,100.000000,,,,,,,,,,,,,,,,,,,,,,,,,,,,,,,,,,,,,,,,,,,,,,,,,,,,,,,,,,,,,,,,,,,,,,,,,,,,,,,,,,,,,,,,,,,,,,,,,,,,,,,,,,,,,,,,,,,,,
1768210865.063982,1768210865.064483,42.000000,0.000000,4354.615234,4327.051270,4343.205078,4345.000000,4321.410156,4320.384766,4322.179688,4326.282227,4310.769043,4308.205078,4520.128418,4489.871582,4443.205078,4462.692383,0.000000,4.000000,80.000000,,,,0.000000,4.000000,4.000000,4.000000,4.000000,4.000000,4.000000,4.000000,4.000000,4.000000,4.000000,4.000000,4.000000,4.000000,4.000000,100.000000,,,,,,,,,,,,,,,,,,,,,,,,,,,,,,,,,,,,,,,,,,,,,,,,,,,,,,,,,,,,,,,,,,,,,,,,,,,,,,,,,,,,,,,,,,,,,,,,,,,,,,,,,,,,,,,,,,,,,
1768210865.071790,1768210865.072292,43.000000,0.000000,4356.410156,4326.666504,4347.948730,4350.384766,4323.846191,4320.641113,4321.025879,4325.000000,4310.128418,4313.589844,4522.692383,4492.179688,4440.897461,4464.615234,0.000000,4.000000,80.000000,,,,0.000000,4.000000,4.000000,4.000000,4.000000,4.000000,4.000000,4.000000,4.000000,4.000000,4.000000,4.000000,4.000000,4.000000,4.000000,100.000000,,,,,,,,,,,,,,,,,,,,,,,,,,,,,,,,,,,,,,,,,,,,,,,,,,,,,,,,,,,,,,,,,,,,,,,,,,,,,,,,,,,,,,,,,,,,,,,,,,,,,,,,,,,,,,,,,,,,,
1768210865.079599,1768210865.079901,44.000000,0.000000,4360.512695,4326.282227,4355.384766,4356.666504,4327.436035,4327.820313,4319.487305,4330.128418,4318.461426,4310.512695,4532.692383,4496.153809,4439.871582,4470.000000,0.000000,4.000000,80.000000,,,,0.000000,4.000000,4.000000,4.000000,4.000000,4.000000,4.000000,4.000000,4.000000,4.000000,4.000000,4.000000,4.000000,4.000000,4.000000,100.000000,,,,,,,,,,,,,,,,,,,,,,,,,,,,,,,,,,,,,,,,,,,,,,,,,,,,,,,,,,,,,,,,,,,,,,,,,,,,,,,,,,,,,,,,,,,,,,,,,,,,,,,,,,,,,,,,,,,,,
1768210865.087407,1768210865.087709,45.000000,0.000000,4358.974121,4331.922852,4352.820313,4356.410156,4326.794922,4325.000000,4312.948730,4328.974121,4320.897461,4307.563965,4535.128418,4492.436035,4444.871582,4471.410156,0.000000,4.000000,80.000000,,,,0.000000,4.000000,4.000000,4.000000,4.000000,4.000000,4.000000,4.000000,4.000000,4.000000,4.000000,4.000000,4.000000,4.000000,4.000000,100.000000,,,,,,,,,,,,,,,,,,,,,,,,,,,,,,,,,,,,,,,,,,,,,,,,,,,,,,,,,,,,,,,,,,,,,,,,,,,,,,,,,,,,,,,,,,,,,,,,,,,,,,,,,,,,,,,,,,,,,
1768210865.095215,1768210865.095417,46.000000,0.000000,4354.871582,4333.077148,4346.538574,4352.436035,4325.256348,4321.025879,4309.615234,4328.589844,4315.128418,4309.743652,4526.282227,4490.128418,4440.769043,4464.871582,0.000000,4.000000,80.000000,,,,0.000000,4.000000,4.000000,4.000000,4.000000,4.000000,4.000000,4.000000,4.000000,4.000000,4.000000,4.000000,4.000000,4.000000,4.000000,100.000000,,,,,,,,,,,,,,,,,,,,,,,,,,,,,,,,,,,,,,,,,,,,,,,,,,,,,,,,,,,,,,,,,,,,,,,,,,,,,,,,,,,,,,,,,,,,,,,,,,,,,,,,,,,,,,,,,,,,,
1768210865.103024,1768210865.103226,47.000000,0.000000,4352.436035,4327.307617,4341.538574,4347.692383,4327.820313,4324.743652,4313.333496,4329.743652,4313.077148,4313.333496,4516.025879,4486.025879,4428.717773,4457.179688,0.000000,4.000000,80.000000,,,,0.000000,4.000000,4.000000,4.000000,4.000000,4.000000,4.000000,4.000000,4.000000,4.000000,4.000000,4.000000,4.000000,4.000000,4.000000,100.000000,,,,,,,,,,,,,,,,,,,,,,,,,,,,,,,,,,,,,,,,,,,,,,,,,,,,,,,,,,,,,,,,,,,,,,,,,,,,,,,,,,,,,,,,,,,,,,,,,,,,,,,,,,,,,,,,,,,,,
1768210865.110832,1768210865.111234,48.000000,0.000000,4349.102539,4324.871582,4338.333496,4342.948730,4329.358887,4325.512695,4316.025879,4326.410156,4311.153809,4310.641113,4515.256348,4476.025879,4425.000000,4451.025879,0.000000,4.000000,80.000000,,,,0.000000,4.000000,4.000000,4.000000,4.000000,4.000000,4.000000,4.000000,4.000000,4.000000,4.000000,4.000000,4.000000,4.000000,4.000000,100.000000,,,,,,,,,,,,,,,,,,,,,,,,,,,,,,,,,,,,,,,,,,,,,,,,,,,,,,,,,,,,,,,,,,,,,,,,,,,,,,,,,,,,,,,,,,,,,,,,,,,,,,,,,,,,,,,,,,,,,
1768210865.118641,1768210865.119042,49.000000,0.000000,4348.589844,4327.820313,4338.717773,4341.025879,4328.077148,4325.897461,4319.102539,4327.820313,4309.487305,4307.307617,4519.358887,4479.102539,4428.333496,4450.000000,0.000000,4.000000,80.000000,,,,0.000000,4.000000,4.000000,4.000000,4.000000,4.000000,4.000000,4.000000,4.000000,4.000000,4.000000,4.000000,4.000000,4.000000,4.000000,100.000000,,,,,,,,,,,,,,,,,,,,,,,,,,,,,,,,,,,,,,,,,,,,,,,,,,,,,,,,,,,,,,,,,,,,,,,,,,,,,,,,,,,,,,,,,,,,,,,,,,,,,,,,,,,,,,,,,,,,,
1768210865.126449,1768210865.126951,50.000000,0.000000,4350.384766,4331.410156,4340.384766,4341.538574,4326.794922,4328.205078,4325.256348,4337.179688,4315.256348,4309.102539,4523.205078,4494.487305,4428.846191,4458.205078,0.000000,4.000000,80.000000,,,,0.000000,4.000000,4.000000,4.000000,4.000000,4.000000,4.000000,4.000000,4.000000,4.000000,4.000000,4.000000,4.000000,4.000000,4.000000,100.000000,,,,,,,,,,,,,,,,,,,,,,,,,,,,,,,,,,,,,,,,,,,,,,,,,,,,,,,,,,,,,,,,,,,,,,,,,,,,,,,,,,,,,,,,,,,,,,,,,,,,,,,,,,,,,,,,,,,,,
1768210865.134257,1768210865.134759,51.000000,0.000000,4350.384766,4335.897461,4341.410156,4342.307617,4325.384766,4325.256348,4324.615234,4338.589844,4320.128418,4309.102539,4524.487305,4499.743652,4432.948730,4464.615234,0.000000,4.000000,80.000000,,,,0.000000,4.000000,4.000000,4.000000,4.000000,4.000000,4.000000,4.000000,4.000000,4.000000,4.000000,4.000000,4.000000,4.000000,4.000000,100.000000,,,,,,,,,,,,,,,,,,,,,,,,,,,,,,,,,,,,,,,,,,,,,,,,,,,,,,,,,,,,,,,,,,,,,,,,,,,,,,,,,,,,,,,,,,,,,,,,,,,,,,,,,,,,,,,,,,,,,
1768210865.142066,1768210865.142767,52.000000,0.000000,4348.589844,4340.256348,4342.051270,4342.436035,4321.538574,4323.717773,4322.820313,4328.846191,4315.384766,4308.461426,4524.358887,4492.436035,4440.769043,4459.230957,0.000000,4.000000,80.000000,,,,0.000000,4.000000,4.000000,4.000000,4.000000,4.000000,4.000000,4.000000,4.000000,4.000000,4.000000,4.000000,4.000000,4.000000,4.000000,100.000000,,,,,,,,,,,,,,,,,,,,,,,,,,,,,,,,,,,,,,,,,,,,,,,,,,,,,,,,,,,,,,,,,,,,,,,,,,,,,,,,,,,,,,,,,,,,,,,,,,,,,,,,,,,,,,,,,,,,,
1768210865.149874,1768210865.150576,53.000000,0.000000,4347.436035,4341.538574,4341.794922,4344.358887,4318.205078,4323.974121,4320.897461,4325.000000,4311.794922,4310.897461,4522.692383,4490.128418,4446.794922,4453.846191,0.000000,4.000000,80.000000,,,,0.000000,4.000000,4.000000,4.000000,4.000000,4.000000,4.000000,4.000000,4.000000,4.000000,4.000000,4.000000,4.000000,4.000000,4.000000,100.000000,,,,,,,,,,,,,,,,,,,,,,,,,,,,,,,,,,,,,,,,,,,,,,,,,,,,,,,,,,,,,,,,,,,,,,,,,,,,,,,,,,,,,,,,,,,,,,,,,,,,,,,,,,,,,,,,,,,,,
1768210865.157683,1768210865.158484,54.000000,0.000000,4347.563965,4342.948730,4341.538574,4346.025879,4317.307617,4319.615234,4312.692383,4327.692383,4313.974121,4307.436035,4519.871582,4492.307617,4460.512695,4456.666504,0.000000,4.000000,80.000000,,,,0.000000,4.000000,4.000000,4.000000,4.000000,4.000000,4.000000,4.000000,4.000000,4.000000,4.000000,4.000000,4.000000,4.000000,4.000000,100.000000,,,,,,,,,,,,,,,,,,,,,,,,,,,,,,,,,,,,,,,,,,,,,,,,0.294470,0.199516,0.121607,0.112837,0.066651,1.057658,0.603063,0.180048,0.226821,0.120306,0.979092,0.277872,0.123827,0.216246,0.114489,0.431456,0.327095,0.135930,0.192946,0.076625,0.424712,0.252187,0.133407,0.107095,0.073458,0.406073,0.309536,0.125468,0.061599,0.074147,0.192123,0.371137,0.157437,0.089147,0.138119,0.286506,0.536274,0.171301,0.284762,0.256732,0.478906,0.281099,0.182480,0.207767,0.148833,0.602763,0.358245,0.275809,0.373973,0.083656,0.925345,0.407495,0.257195,0.483480,0.210287,1.148291,0.454678,0.087654,0.363993,0.185049,3.074872,1.273507,0.282044,0.300281,0.146522,2.066078,0.635755,0.375822,0.515581,0.190154
1768210865.165491,1768210865.166292,55.000000,0.000000,4347.948730,4341.025879,4339.487305,4343.589844,4318.461426,4319.743652,4314.102539,4332.051270,4317.436035,4305.000000,4527.179688,4492.692383,4475.000000,4460.512695,0.000000,4.000000,80.000000,,,,0.000000,4.000000,4.000000,4.000000,4.000000,4.000000,4.000000,4.000000,4.000000,4.000000,4.000000,4.000000,4.000000,4.000000,4.000000,100.000000,,,,,,,,,,,,,,,,,,,,,,,,,,,,,,,,,,,,,,,,,,,,,,,,,,,,,,,,,,,,,,,,,,,,,,,,,,,,,,,,,,,,,,,,,,,,,,,,,,,,,,,,,,,,,,,,,,,,,
1768210865.173300,1768210865.174301,56.000000,0.000000,4349.743652,4337.436035,4337.179688,4340.769043,4318.333496,4320.897461,4321.538574,4335.512695,4319.871582,4315.256348,4534.743652,4494.102539,4476.410156,4462.436035,0.000000,4.000000,80.000000,,,,0.000000,4.000000,4.000000,4.000000,4.000000,4.000000,4.000000,4.000000,4.000000,4.000000,4.000000,4.000000,4.000000,4.000000,4.000000,100.000000,,,,,,,,,,,,,,,,,,,,,,,,,,,,,,,,,,,,,,,,,,,,,,,,,,,,,,,,,,,,,,,,,,,,,,,,,,,,,,,,,,,,,,,,,,,,,,,,,,,,,,,,,,,,,,,,,,,,,
1768210865.181108,1768210865.182109,57.000000,0.000000,4353.589844,4337.820313,4341.794922,4342.948730,4316.410156,4317.051270,4316.794922,4332.436035,4317.948730,4320.769043,4529.743652,4495.641113,4474.615234,4464.743652,0.000000,4.000000,80.000000,,,,0.000000,4.000000,4.000000,4.000000,4.000000,4.000000,4.000000,4.000000,4.000000,4.000000,4.000000,4.000000,4.000000,4.000000,4.000000,100.000000,,,,,,,,,,,,,,,,,,,,,,,,,,,,,,,,,,,,,,,,,,,,,,,,,,,,,,,,,,,,,,,,,,,,,,,,,,,,,,,,,,,,,,,,,,,,,,,,,,,,,,,,,,,,,,,,,,,,,
1768210865.188917,1768210865.189818,58.000000,0.000000,4355.384766,4338.205078,4347.692383,4345.256348,4312.307617,4318.333496,4310.641113,4326.153809,4313.205078,4311.153809,4523.461426,4493.205078,4471.153809,4464.743652,0.000000,4.000000,80.000000,,,,0.000000,4.000000,4.000000,4.000000,4.000000,4.000000,4.000000,4.000000,4.000000,4.000000,4.000000,4.000000,4.000000,4.000000,4.000000,100.000000,,,,,,,,,,,,,,,,,,,,,,,,,,,,,,,,,,,,,,,,,,,,,,,,,,,,,,,,,,,,,,,,,,,,,,,,,,,,,,,,,,,,,,,,,,,,,,,,,,,,,,,,,,,,,,,,,,,,,
1768210865.196725,1768210865.197626,59.000000,0.000000,4353.589844,4335.512695,4348.974121,4342.692383,4307.692383,4323.461426,4317.563965,4326.794922,4311.538574,4306.410156,4521.794922,4492.563965,4461.282227,4461.410156,0.000000,4.000000,80.000000,,,,0.000000,4.000000,4.000000,4.000000,4.000000,4.000000,4.000000,4.000000,4.000000,4.000000,4.000000,4.000000,4.000000,4.000000,4.000000,100.000000,,,,,,,,,,,,,,,,,,,,,,,,,,,,,,,,,,,,,,,,,,,,,,,,,,,,,,,,,,,,,,,,,,,,,,,,,,,,,,,,,,,,,,,,,,,,,,,,,,,,,,,,,,,,,,,,,,,,,
1768210865.204533,1768210865.205634,60.000000,0.000000,4356.538574,4337.179688,4350.256348,4345.769043,4308.974121,4324.358887,4324.230957,4333.205078,4310.384766,4308.974121,4525.384766,4502.436035,4457.948730,4467.436035,0.000000,4.000000,80.000000,,,,0.000000,4.000000,4.000000,4.000000,4.000000,4.000000,4.000000,4.000000,4.000000,4.000000,4.000000,4.000000,4.000000,4.000000,4.000000,100.000000,,,,,,,,,,,,,,,,,,,,,,,,,,,,,,,,,,,,,,,,,,,,,,,,,,,,,,,,,,,,,,,,,,,,,,,,,,,,,,,,,,,,,,,,,,,,,,,,,,,,,,,,,,,,,,,,,,,,,
1768210865.212342,1768210865.213443,61.000000,0.000000,4361.538574,4343.461426,4353.205078,4355.128418,4313.589844,4325.000000,4324.871582,4337.051270,4313.333496,4307.820313,4532.820313,4508.717773,4464.230957,4479.358887,0.000000,4.000000,80.000000,,,,0.000000,4.000000,4.000000,4.000000,4.000000,4.000000,4.000000,4.000000,4.000000,4.000000,4.000000,4.000000,4.000000,4.000000,4.000000,100.000000,,,,,,,,,,,,,,,,,,,,,,,,,,,,,,,,,,,,,,,,,,,,,,,,,,,,,,,,,,,,,,,,,,,,,,,,,,,,,,,,,,,,,,,,,,,,,,,,,,,,,,,,,,,,,,,,,,,,,
1768210865.220150,1768210865.221151,62.000000,0.000000,4358.974121,4343.717773,4352.307617,4353.461426,4314.230957,4327.179688,4324.358887,4335.641113,4316.538574,4308.846191,4531.922852,4500.384766,4460.641113,4473.846191,0.000000,4.000000,80.000000,,,,0.000000,4.000000,4.000000,4.000000,4.000000,4.000000,4.000000,4.000000,4.000000,4.000000,4.000000,4.000000,4.000000,4.000000,4.000000,100.000000,,,,,,,,,,,,,,,,,,,,,,,,,,,,,,,,,,,,,,,,,,,,,,,,,,,,,,,,,,,,,,,,,,,,,,,,,,,,,,,,,,,,,,,,,,,,,,,,,,,,,,,,,,,,,,,,,,,,,
1768210865.227959,1768210865.228960,63.000000,0.000000,4355.256348,4340.256348,4346.922852,4343.846191,4313.205078,4327.436035,4322.948730,4333.846191,4315.000000,4307.179688,4522.179688,4492.563965,4448.846191,4457.948730,0.000000,4.000000,80.000000,,,,0.000000,4.000000,4.000000,4.000000,4.000000,4.000000,4.000000,4.000000,4.000000,4.000000,4.000000,4.000000,4.000000,4.000000,4.000000,100.000000,,,,,,,,,,,,,,,,,,,,,,,,,,,,,,,,,,,,,,,,,,,,,,,,,,,,,,,,,,,,,,,,,,,,,,,,,,,,,,,,,,,,,,,,,,,,,,,,,,,,,,,,,,,,,,,,,,,,,
1768210865.235767,1768210865.236968,64.000000,0.000000,4354.358887,4338.974121,4341.922852,4343.333496,4311.794922,4325.897461,4324.743652,4335.769043,4316.922852,4302.820313,4520.769043,4495.000000,4442.051270,4457.563965,3011.000000,4.000000,80.000000,,,,0.000000,4.000000,4.000000,4.000000,4.000000,4.000000,4.000000,4.000000,4.000000,4.000000,4.000000,4.000000,4.000000,4.000000,4.000000,100.000000,,,,,,,,,,,,,,,,,,,,,,,,,,,,,,,,,,,,,,,,,,,,,,,,,,,,,,,,,,,,,,,,,,,,,,,,,,,,,,,,,,,,,,,,,,,,,,,,,,,,,,,,,,,,,,,,,,,,,
1768210865.243575,1768210865.244777,65.000000,0.000000,4353.077148,4338.974121,4343.717773,4348.205078,4311.153809,4323.717773,4323.333496,4337.051270,4322.436035,4307.820313,4525.384766,4501.538574,4443.717773,4470.128418,4071.000000,4.000000,80.000000,,,,0.000000,4.000000,4.000000,4.000000,4.000000,4.000000,4.000000,4.000000,4.000000,4.000000,4.000000,4.000000,4.000000,4.000000,4.000000,100.000000,,,,,,,,,,,,,,,,,,,,,,,,,,,,,,,,,,,,,,,,,,,,,,,,,,,,,,,,,,,,,,,,,,,,,,,,,,,,,,,,,,,,,,,,,,,,,,,,,,,,,,,,,,,,,,,,,,,,,
1768210865.251384,1768210865.252485,66.000000,0.000000,4356.153809,4341.922852,4352.307617,4350.128418,4315.384766,4323.077148,4314.615234,4332.948730,4321.153809,4303.589844,4525.769043,4503.846191,4448.589844,4479.230957,1813.000000,4.000000,80.000000,,,,0.000000,4.000000,4.000000,4.000000,4.000000,4.000000,4.000000,4.000000,4.000000,4.000000,4.000000,4.000000,4.000000,4.000000,4.000000,100.000000,,,,,,,,,,,,,,,,,,,,,,,,,,,,,,,,,,,,,,,,,,,,,,,,,,,,,,,,,,,,,,,,,,,,,,,,,,,,,,,,,,,,,,,,,,,,,,,,,,,,,,,,,,,,,,,,,,,,,
1768210865.259192,1768210865.260294,67.000000,0.000000,4360.000000,4342.563965,4351.666504,4349.743652,4318.461426,4324.358887,4314.615234,4329.102539,4320.897461,4293.205078,4525.000000,4501.538574,4447.563965,4479.487305,3937.000000,4.000000,80.000000,,,,0.000000,4.000000,4.000000,4.000000,4.000000,4.000000,4.000000,4.000000,4.000000,4.000000,4.000000,4.000000,4.000000,4.000000,4.000000,100.000000,,,,,,,,,,,,,,,,,,,,,,,,,,,,,,,,,,,,,,,,,,,,,,,,,,,,,,,,,,,,,,,,,,,,,,,,,,,,,,,,,,,,,,,,,,,,,,,,,,,,,,,,,,,,,,,,,,,,,
1768210865.267001,1768210865.267902,68.000000,0.000000,4357.948730,4336.794922,4341.410156,4344.615234,4314.487305,4325.641113,4323.077148,4330.000000,4324.230957,4301.794922,4523.205078,4495.641113,4438.461426,4471.666504,3869.000000,4.000000,80.000000,,,,0.000000,4.000000,4.000000,4.000000,4.000000,4.000000,4.000000,4.000000,4.000000,4.000000,4.000000,4.000000,4.000000,4.000000,4.000000,100.000000,,,,,,,,,,,,,,,,,,,,,,,,,,,,,,,,,,,,,,,,,,,,,,,,,,,,,,,,,,,,,,,,,,,,,,,,,,,,,,,,,,,,,,,,,,,,,,,,,,,,,,,,,,,,,,,,,,,,,
1768210865.274809,1768210865.275711,69.000000,0.000000,4354.230957,4336.666504,4339.743652,4341.282227,4310.512695,4327.563965,4325.128418,4340.256348,4324.102539,4313.974121,4523.077148,4493.205078,4430.769043,4462.563965,3398.000000,4.000000,80.000000,,,,0.000000,4.000000,4.000000,4.000000,4.000000,4.000000,4.000000,4.000000,4.000000,4.000000,4.000000,4.000000,4.000000,4.000000,4.000000,100.000000,,,,,,,,,,,,,,,,,,,,,,,,,,,,,,,,,,,,,,,,,,,,,,,,,,,,,,,,,,,,,,,,,,,,,,,,,,,,,,,,,,,,,,,,,,,,,,,,,,,,,,,,,,,,,,,,,,,,,
1768210865.282618,1768210865.283419,70.000000,0.000000,4353.974121,4340.256348,4343.333496,4345.641113,4312.436035,4325.897461,4320.128418,4346.922852,4325.000000,4310.000000,4523.974121,4492.563965,4431.025879,4458.589844,3901.000000,4.000000,80.000000,,,,0.000000,4.000000,4.000000,4.000000,4.000000,4.000000,4.000000,4.000000,4.000000,4.000000,4.000000,4.000000,4.000000,4.000000,4.000000,100.000000,,,,,,,,,,,,,,,,,,,,,,,,,,,,,,,,,,,,,,,,,,,,,,,,0.375721,0.224774,0.102733,0.121860,0.068539,0.813565,0.583943,0.136642,0.219312,0.123658,1.210078,0.292270,0.129668,0.228383,0.106222,0.496600,0.364644,0.125404,0.213600,0.083634,0.490866,0.254186,0.138687,0.102066,0.073695,0.401403,0.295036,0.138011,0.066545,0.077275,0.232474,0.377234,0.159711,0.090840,0.138065,0.323998,0.478400,0.170985,0.250851,0.256969,0.495656,0.174593,0.179608,0.184288,0.160560,0.717461,0.350456,0.258016,0.380463,0.097071,1.065096,0.378485,0.207343,0.412492,0.219894,1.417708,0.368137,0.093834,0.361803,0.175928,2.494289,1.126892,0.173229,0.274087,0.176011,2.514193,0.579493,0.311971,0.482025,0.194377
1768210865.290426,1768210865.291227,71.000000,0.000000,4353.717773,4337.692383,4343.461426,4351.282227,4317.307617,4323.333496,4320.769043,4338.077148,4325.512695,4310.000000,4521.025879,4490.384766,4430.641113,4455.000000,3926.000000,4.000000,80.000000,,,,0.000000,4.000000,4.000000,4.000000,4.000000,4.000000,4.000000,4.000000,4.000000,4.000000,4.000000,4.000000,4.000000,4.000000,4.000000,100.000000,,,,,,,,,,,,,,,,,,,,,,,,,,,,,,,,,,,,,,,,,,,,,,,,,,,,,,,,,,,,,,,,,,,,,,,,,,,,,,,,,,,,,,,,,,,,,,,,,,,,,,,,,,,,,,,,,,,,,
1768210865.298235,1768210865.298836,72.000000,0.000000,4351.538574,4337.692383,4343.205078,4354.230957,4320.256348,4325.128418,4327.307617,4333.589844,4324.230957,4317.692383,4522.563965,4490.512695,4427.179688,4453.717773,3974.000000,4.000000,80.000000,,,,0.000000,4.000000,4.000000,4.000000,4.000000,4.000000,4.000000,4.000000,4.000000,4.000000,4.000000,4.000000,4.000000,4.000000,4.000000,100.000000,,,,,,,,,,,,,,,,,,,,,,,,,,,,,,,,,,,,,,,,,,,,,,,,,,,,,,,,,,,,,,,,,,,,,,,,,,,,,,,,,,,,,,,,,,,,,,,,,,,,,,,,,,,,,,,,,,,,,
1768210865.306043,1768210865.306644,73.000000,0.000000,4350.000000,4338.077148,4343.205078,4351.538574,4317.307617,4326.153809,4327.948730,4341.666504,4326.410156,4312.051270,4526.666504,4491.666504,4427.436035,4457.820313,4048.000000,4.000000,80.000000,,,,0.000000,4.000000,4.000000,4.000000,4.000000,4.000000,4.000000,4.000000,4.000000,4.000000,4.000000,4.000000,4.000000,4.000000,4.000000,100.000000,,,,,,,,,,,,,,,,,,,,,,,,,,,,,,,,,,,,,,,,,,,,,,,,,,,,,,,,,,,,,,,,,,,,,,,,,,,,,,,,,,,,,,,,,,,,,,,,,,,,,,,,,,,,,,,,,,,,,
1768210865.313851,1768210865.314552,74.000000,0.000000,4348.333496,4327.948730,4340.512695,4343.205078,4311.922852,4322.051270,4319.487305,4339.743652,4325.256348,4306.538574,4523.717773,4492.307617,4426.282227,4460.641113,3956.000000,4.000000,80.000000,,,,0.000000,4.000000,4.000000,4.000000,4.000000,4.000000,4.000000,4.000000,4.000000,4.000000,4.000000,4.000000,4.000000,4.000000,4.000000,100.000000,,,,,,,,,,,,,,,,,,,,,,,,,,,,,,,,,,,,,,,,,,,,,,,,,,,,,,,,,,,,,,,,,,,,,,,,,,,,,,,,,,,,,,,,,,,,,,,,,,,,,,,,,,,,,,,,,,,,,
1768210865.321660,1768210865.322361,75.000000,0.000000,4347.436035,4318.461426,4343.974121,4339.102539,4311.538574,4319.230957,4314.102539,4328.974121,4319.230957,4307.563965,4519.615234,4489.743652,4419.230957,4460.384766,4056.000000,4.000000,80.000000,,,,0.000000,4.000000,4.000000,4.000000,4.000000,4.000000,4.000000,4.000000,4.000000,4.000000,4.000000,4.000000,4.000000,4.000000,4.000000,100.000000,,,,,,,,,,,,,,,,,,,,,,,,,,,,,,,,,,,,,,,,,,,,,,,,,,,,,,,,,,,,,,,,,,,,,,,,,,,,,,,,,,,,,,,,,,,,,,,,,,,,,,,,,,,,,,,,,,,,,
1768210865.329468,1768210865.330369,76.000000,0.000000,4347.179688,4322.563965,4348.717773,4342.307617,4312.948730,4321.794922,4321.282227,4331.794922,4317.436035,4300.000000,4522.179688,4490.512695,4412.692383,4460.128418,4978.000000,4.000000,80.000000,,,,0.000000,4.000000,4.000000,4.000000,4.000000,4.000000,4.000000,4.000000,4.000000,4.000000,4.000000,4.000000,4.000000,4.000000,4.000000,100.000000,,,,,,,,,,,,,,,,,,,,,,,,,,,,,,,,,,,,,,,,,,,,,,,,,,,,,,,,,,,,,,,,,,,,,,,,,,,,,,,,,,,,,,,,,,,,,,,,,,,,,,,,,,,,,,,,,,,,,
1768210865.337277,1768210865.338177,77.000000,0.000000,4348.205078,4326.922852,4346.153809,4343.589844,4312.436035,4322.948730,4324.743652,4338.974121,4321.153809,4297.948730,4523.974121,4494.102539,4410.384766,4463.974121,3635.000000,4.000000,80.000000,,,,0.000000,4.000000,4.000000,4.000000,4.000000,4.000000,4.000000,4.000000,4.000000,4.000000,4.000000,4.000000,4.000000,4.000000,4.000000,100.000000,,,,,,,,,,,,,,,,,,,,,,,,,,,,,,,,,,,,,,,,,,,,,,,,,,,,,,,,,,,,,,,,,,,,,,,,,,,,,,,,,,,,,,,,,,,,,,,,,,,,,,,,,,,,,,,,,,,,,
1768210865.345085,1768210865.346086,78.000000,0.000000,4351.282227,4326.025879,4345.897461,4342.692383,4312.051270,4321.666504,4317.563965,4337.820313,4325.256348,4310.256348,4520.769043,4494.743652,4410.000000,4466.666504,3956.000000,4.000000,80.000000,,,,0.000000,4.000000,4.000000,4.000000,4.000000,4.000000,4.000000,4.000000,4.000000,4.000000,4.000000,4.000000,4.000000,4.000000,4.000000,100.000000,,,,,,,,,,,,,,,,,,,,,,,,,,,,,,,,,,,,,,,,,,,,,,,,,,,,,,,,,,,,,,,,,,,,,,,,,,,,,,,,,,,,,,,,,,,,,,,,,,,,,,,,,,,,,,,,,,,,,
1768210865.352893,1768210865.353894,79.000000,0.000000,4353.461426,4329.102539,4351.922852,4348.974121,4316.410156,4324.230957,4318.589844,4334.871582,4325.512695,4314.871582,4521.153809,4494.358887,4410.769043,4465.897461,4056.000000,4.000000,80.000000,,,,0.000000,4.000000,4.000000,4.000000,4.000000,4.000000,4.000000,4.000000,4.000000,4.000000,4.000000,4.000000,4.000000,4.000000,4.000000,100.000000,,,,,,,,,,,,,,,,,,,,,,,,,,,,,,,,,,,,,,,,,,,,,,,,,,,,,,,,,,,,,,,,,,,,,,,,,,,,,,,,,,,,,,,,,,,,,,,,,,,,,,,,,,,,,,,,,,,,,
1768210865.360702,1768210865.361902,80.000000,0.000000,4355.641113,4338.846191,4355.897461,4357.307617,4322.307617,4328.846191,4328.077148,4333.974121,4322.179688,4306.538574,4523.589844,4494.230957,4410.256348,4468.974121,4978.000000,4.000000,80.000000,,,,0.000000,4.000000,4.000000,4.000000,4.000000,4.000000,4.000000,4.000000,4.000000,4.000000,4.000000,4.000000,4.000000,4.000000,4.000000,100.000000,,,,,,,,,,,,,,,,,,,,,,,,,,,,,,,,,,,,,,,,,,,,,,,,,,,,,,,,,,,,,,,,,,,,,,,,,,,,,,,,,,,,,,,,,,,,,,,,,,,,,,,,,,,,,,,,,,,,,
1768210865.368510,1768210865.369711,81.000000,0.000000,4358.333496,4344.102539,4355.256348,4357.948730,4322.051270,4329.230957,4327.820313,4335.000000,4319.743652,4302.179688,4516.666504,4494.230957,4405.000000,4470.641113,3635.000000,4.000000,80.000000,,,,0.000000,4.000000,4.000000,4.000000,4.000000,4.000000,4.000000,4.000000,4.000000,4.000000,4.000000,4.000000,4.000000,4.000000,4.000000,100.000000,,,,,,,,,,,,,,,,,,,,,,,,,,,,,,,,,,,,,,,,,,,,,,,,,,,,,,,,,,,,,,,,,,,,,,,,,,,,,,,,,,,,,,,,,,,,,,,,,,,,,,,,,,,,,,,,,,,,,
1768210865.376319,1768210865.377419,82.000000,0.000000,4356.025879,4334.615234,4353.333496,4353.974121,4318.846191,4326.794922,4323.589844,4335.641113,4319.102539,4304.230957,4506.538574,4492.051270,4397.692383,4462.692383,3956.000000,4.000000,80.000000,,,,0.000000,4.000000,4.000000,4.000000,4.000000,4.000000,4.000000,4.000000,4.000000,4.000000,4.000000,4.000000,4.000000,4.000000,4.000000,100.000000,,,,,,,,,,,,,,,,,,,,,,,,,,,,,,,,,,,,,,,,,,,,,,,,,,,,,,,,,,,,,,,,,,,,,,,,,,,,,,,,,,,,,,,,,,,,,,,,,,,,,,,,,,,,,,,,,,,,,
1768210865.384127,1768210865.385228,83.000000,0.000000,4349.871582,4325.000000,4349.615234,4352.563965,4318.205078,4325.641113,4325.897461,4337.307617,4322.051270,4307.948730,4509.487305,4490.384766,4395.128418,4457.820313,4056.000000,4.000000,80.000000,,,,0.000000,4.000000,4.000000,4.000000,4.000000,4.000000,4.000000,4.000000,4.000000,4.000000,4.000000,4.000000,4.000000,4.000000,4.000000,100.000000,,,,,,,,,,,,,,,,,,,,,,,,,,,,,,,,,,,,,,,,,,,,,,,,,,,,,,,,,,,,,,,,,,,,,,,,,,,,,,,,,,,,,,,,,,,,,,,,,,,,,,,,,,,,,,,,,,,,,
1768210865.391936,1768210865.392836,84.000000,0.000000,4348.077148,4329.871582,4343.589844,4350.256348,4318.077148,4323.333496,4323.974121,4336.282227,4325.384766,4309.871582,4518.846191,4489.871582,4397.692383,4459.358887,4978.000000,4.000000,80.000000,,,,0.000000,4.000000,4.000000,4.000000,4.000000,4.000000,4.000000,4.000000,4.000000,4.000000,4.000000,4.000000,4.000000,4.000000,4.000000,100.000000,,,,,,,,,,,,,,,,,,,,,,,,,,,,,,,,,,,,,,,,,,,,,,,,,,,,,,,,,,,,,,,,,,,,,,,,,,,,,,,,,,,,,,,,,,,,,,,,,,,,,,,,,,,,,,,,,,,,,
1768210865.399744,1768210865.400645,85.000000,0.000000,4349.871582,4334.102539,4338.589844,4348.077148,4317.307617,4321.794922,4319.615234,4331.153809,4322.820313,4305.384766,4519.871582,4489.487305,4397.307617,4457.051270,3635.000000,4.000000,80.000000,,,,0.000000,4.000000,4.000000,4.000000,4.000000,4.000000,4.000000,4.000000,4.000000,4.000000,4.000000,4.000000,4.000000,4.000000,4.000000,100.000000,,,,,,,,,,,,,,,,,,,,,,,,,,,,,,,,,,,,,,,,,,,,,,,,,,,,,,,,,,,,,,,,,,,,,,,,,,,,,,,,,,,,,,,,,,,,,,,,,,,,,,,,,,,,,,,,,,,,,
1768210865.407553,1768210865.408353,86.000000,0.000000,4351.282227,4327.820313,4342.563965,4349.743652,4317.820313,4322.948730,4320.769043,4330.512695,4320.512695,4304.358887,4517.948730,4488.717773,4396.922852,4456.538574,3956.000000,4.000000,80.000000,,,,0.000000,4.000000,4.000000,4.000000,4.000000,4.000000,4.000000,4.000000,4.000000,4.000000,4.000000,4.000000,4.000000,4.000000,4.000000,100.000000,1.000000,50.000000,1.000000,4.000000,4.000000,4.000000,4.000000,1.000000,4.000000,4.000000,4.000000,4.000000,4.000000,4.000000,4.000000,4.000000,,,,,,,,,,,,,,,,,,,,,,,,,,,,,,,,0.474596,0.234087,0.080501,0.122289,0.066054,0.708648,0.548232,0.125297,0.204489,0.117745,1.404809,0.281707,0.141874,0.223810,0.095467,0.564553,0.376281,0.112758,0.215703,0.089657,0.526200,0.256692,0.151929,0.092829,0.074090,0.381593,0.271632,0.138767,0.071236,0.076582,0.264402,0.380149,0.166781,0.102351,0.137560,0.389179,0.433287,0.170235,0.226119,0.265086,0.502063,0.127148,0.178449,0.178065,0.172555,0.802425,0.348829,0.246197,0.379726,0.117436,1.198018,0.364225,0.180801,0.346815,0.224064,1.680395,0.303059,0.109998,0.342968,0.166525,2.810991,1.182181,0.139322,0.277063,0.197076,2.861248,0.483095,0.242280,0.427596,0.196529
1768210865.415361,1768210865.416162,87.000000,0.000000,4352.179688,4327.563965,4349.487305,4352.179688,4319.615234,4326.153809,4323.205078,4336.025879,4325.000000,4307.307617,4520.641113,4488.461426,4402.179688,4462.948730,4056.000000,4.000000,80.000000,,,,0.000000,4.000000,4.000000,4.000000,4.000000,4.000000,4.000000,4.000000,4.000000,4.000000,4.000000,4.000000,4.000000,4.000000,4.000000,100.000000,,,,,,,,,,,,,,,,,,,,,,,,,,,,,,,,,,,,,,,,,,,,,,,,,,,,,,,,,,,,,,,,,,,,,,,,,,,,,,,,,,,,,,,,,,,,,,,,,,,,,,,,,,,,,,,,,,,,,
1768210865.423169,1768210865.423770,88.000000,0.000000,4353.846191,4335.384766,4345.512695,4356.410156,4323.077148,4326.538574,4324.615234,4340.128418,4328.205078,4307.948730,4524.487305,4490.512695,4405.641113,4463.461426,4978.000000,4.000000,80.000000,,,,0.000000,4.000000,4.000000,4.000000,4.000000,4.000000,4.000000,4.000000,4.000000,4.000000,4.000000,4.000000,4.000000,4.000000,4.000000,100.000000,,,,,,,,,,,,,,,,,,,,,,,,,,,,,,,,,,,,,,,,,,,,,,,,,,,,,,,,,,,,,,,,,,,,,,,,,,,,,,,,,,,,,,,,,,,,,,,,,,,,,,,,,,,,,,,,,,,,,
1768210865.430978,1768210865.431579,89.000000,0.000000,4355.256348,4336.666504,4339.743652,4358.846191,4323.589844,4323.717773,4323.974121,4337.692383,4327.051270,4309.743652,4523.846191,4488.461426,4406.282227,4462.307617,3635.000000,4.000000,80.000000,,,,0.000000,4.000000,4.000000,4.000000,4.000000,4.000000,4.000000,4.000000,4.000000,4.000000,4.000000,4.000000,4.000000,4.000000,4.000000,100.000000,,,,,,,,,,,,,,,,,,,,,,,,,,,,,,,,,,,,,,,,,,,,,,,,,,,,,,,,,,,,,,,,,,,,,,,,,,,,,,,,,,,,,,,,,,,,,,,,,,,,,,,,,,,,,,,,,,,,,
1768210865.438786,1768210865.439487,90.000000,0.000000,4353.333496,4333.974121,4345.256348,4353.333496,4320.000000,4324.615234,4324.230957,4335.384766,4324.230957,4309.230957,4520.000000,4485.384766,4404.615234,4464.487305,3956.000000,4.000000,80.000000,,,,0.000000,4.000000,4.000000,4.000000,4.000000,4.000000,4.000000,4.000000,4.000000,4.000000,4.000000,4.000000,4.000000,4.000000,4.000000,100.000000,,,,,,,,,,,,,,,,,,,,,,,,,,,,,,,,,,,,,,,,,,,,,,,,,,,,,,,,,,,,,,,,,,,,,,,,,,,,,,,,,,,,,,,,,,,,,,,,,,,,,,,,,,,,,,,,,,,,,
1768210865.446595,1768210865.447296,91.000000,0.000000,4350.000000,4334.230957,4353.205078,4351.025879,4318.717773,4326.025879,4325.128418,4336.794922,4323.461426,4305.128418,4520.128418,4488.333496,4400.384766,4462.820313,4056.000000,4.000000,80.000000,,,,0.000000,4.000000,4.000000,4.000000,4.000000,4.000000,4.000000,4.000000,4.000000,4.000000,4.000000,4.000000,4.000000,4.000000,4.000000,100.000000,,,,,,,,,,,,,,,,,,,,,,,,,,,,,,,,,,,,,,,,,,,,,,,,,,,,,,,,,,,,,,,,,,,,,,,,,,,,,,,,,,,,,,,,,,,,,,,,,,,,,,,,,,,,,,,,,,,,,
1768210865.454403,1768210865.454904,92.000000,0.000000,4350.128418,4334.102539,4349.487305,4355.256348,4318.077148,4325.256348,4322.948730,4336.282227,4324.358887,4301.794922,4517.051270,4491.794922,4395.256348,4463.846191,4978.000000,4.000000,80.000000,,,,0.000000,4.000000,4.000000,4.000000,4.000000,4.000000,4.000000,4.000000,4.000000,4.000000,4.000000,4.000000,4.000000,4.000000,4.000000,100.000000,,,,,,,,,,,,,,,,,,,,,,,,,,,,,,,,,,,,,,,,,,,,,,,,,,,,,,,,,,,,,,,,,,,,,,,,,,,,,,,,,,,,,,,,,,,,,,,,,,,,,,,,,,,,,,,,,,,,,
1768210865.462212,1768210865.462713,93.000000,0.000000,4352.436035,4331.410156,4344.487305,4353.333496,4313.589844,4324.487305,4319.871582,4331.794922,4321.922852,4297.692383,4509.615234,4490.128418,4393.974121,4467.948730,3635.000000,4.000000,80.000000,,,,0.000000,4.000000,4.000000,4.000000,4.000000,4.000000,4.000000,4.000000,4.000000,4.000000,4.000000,4.000000,4.000000,4.000000,4.000000,100.000000,,,,,,,,,,,,,,,,,,,,,,,,,,,,,,,,,,,,,,,,,,,,,,,,,,,,,,,,,,,,,,,,,,,,,,,,,,,,,,,,,,,,,,,,,,,,,,,,,,,,,,,,,,,,,,,,,,,,,
1768210865.470020,1768210865.470421,94.000000,0.000000,4351.153809,4327.692383,4344.358887,4347.307617,4311.666504,4324.358887,4321.794922,4331.922852,4320.000000,4295.897461,4512.051270,4489.487305,4396.025879,4467.051270,3956.000000,4.000000,80.000000,,,,0.000000,4.000000,4.000000,4.000000,4.000000,4.000000,4.000000,4.000000,4.000000,4.000000,4.000000,4.000000,4.000000,4.000000,4.000000,100.000000,,,,,,,,,,,,,,,,,,,,,,,,,,,,,,,,,,,,,,,,,,,,,,,,,,,,,,,,,,,,,,,,,,,,,,,,,,,,,,,,,,,,,,,,,,,,,,,,,,,,,,,,,,,,,,,,,,,,,
1768210865.477828,1768210865.478230,95.000000,0.000000,4350.256348,4326.794922,4344.615234,4346.538574,4312.307617,4324.358887,4326.025879,4335.000000,4324.358887,4297.307617,4520.128418,4492.051270,4394.487305,4466.153809,4056.000000,4.000000,80.000000,,,,0.000000,4.000000,4.000000,4.000000,4.000000,4.000000,4.000000,4.000000,4.000000,4.000000,4.000000,4.000000,4.000000,4.000000,4.000000,100.000000,,,,,,,,,,,,,,,,,,,,,,,,,,,,,,,,,,,,,,,,,,,,,,,,,,,,,,,,,,,,,,,,,,,,,,,,,,,,,,,,,,,,,,,,,,,,,,,,,,,,,,,,,,,,,,,,,,,,,
1768210865.485637,1768210865.485838,96.000000,0.000000,4353.846191,4328.333496,4346.794922,4349.230957,4311.794922,4324.743652,4326.025879,4333.974121,4325.384766,4296.282227,4518.846191,4491.153809,4391.282227,4465.769043,4978.000000,4.000000,80.000000,,,,0.000000,4.000000,4.000000,4.000000,4.000000,4.000000,4.000000,4.000000,4.000000,4.000000,4.000000,4.000000,4.000000,4.000000,4.000000,100.000000,,,,,,,,,,,,,,,,,,,,,,,,,,,,,,,,,,,,,,,,,,,,,,,,,,,,,,,,,,,,,,,,,,,,,,,,,,,,,,,,,,,,,,,,,,,,,,,,,,,,,,,,,,,,,,,,,,,,,
1768210865.493445,1768210865.493647,97.000000,0.000000,4356.025879,4331.025879,4351.410156,4353.589844,4316.410156,4327.563965,4326.794922,4337.179688,4322.051270,4293.974121,4515.897461,4490.897461,4392.820313,4466.666504,3635.000000,4.000000,80.000000,,,,0.000000,4.000000,4.000000,4.000000,4.000000,4.000000,4.000000,4.000000,4.000000,4.000000,4.000000,4.000000,4.000000,4.000000,4.000000,100.000000,,,,,,,,,,,,,,,,,,,,,,,,,,,,,,,,,,,,,,,,,,,,,,,,,,,,,,,,,,,,,,,,,,,,,,,,,,,,,,,,,,,,,,,,,,,,,,,,,,,,,,,,,,,,,,,,,,,,,
1768210865.501254,1768210865.501355,98.000000,0.000000,4356.153809,4334.487305,4356.153809,4357.948730,4321.025879,4329.358887,4327.820313,4340.384766,4321.025879,4295.769043,4517.563965,4492.692383,4396.666504,4471.794922,3956.000000,4.000000,80.000000,,,,0.000000,4.000000,4.000000,4.000000,4.000000,4.000000,4.000000,4.000000,4.000000,4.000000,4.000000,4.000000,4.000000,4.000000,4.000000,100.000000,,,,,,,,,,,,,,,,,,,,,,,,,,,,,,,,,,,,,,,,,,,,,,,,,,,,,,,,,,,,,,,,,,,,,,,,,,,,,,,,,,,,,,,,,,,,,,,,,,,,,,,,,,,,,,,,,,,,,
1768210865.509062,1768210865.509163,99.000000,0.000000,4355.769043,4331.282227,4354.743652,4359.230957,4315.256348,4326.538574,4325.256348,4337.820313,4321.922852,4298.974121,4514.102539,4492.307617,4396.025879,4472.692383,4056.000000,4.000000,80.000000,,,,0.000000,4.000000,4.000000,4.000000,4.000000,4.000000,4.000000,4.000000,4.000000,4.000000,4.000000,4.000000,4.000000,4.000000,4.000000,100.000000,,,,,,,,,,,,,,,,,,,,,,,,,,,,,,,,,,,,,,,,,,,,,,,,,,,,,,,,,,,,,,,,,,,,,,,,,,,,,,,,,,,,,,,,,,,,,,,,,,,,,,,,,,,,,,,,,,,,,
1768210865.516871,1768210865.517172,100.000000,0.000000,4353.717773,4325.512695,4349.102539,4358.205078,4310.384766,4322.948730,4322.692383,4334.743652,4325.897461,4302.948730,4512.692383,4491.538574,4397.051270,4466.282227,4978.000000,4.000000,80.000000,,,,0.000000,4.000000,4.000000,4.000000,4.000000,4.000000,4.000000,4.000000,4.000000,4.000000,4.000000,4.000000,4.000000,4.000000,4.000000,100.000000,,,,,,,,,,,,,,,,,,,,,,,,,,,,,,,,,,,,,,,,,,,,,,,,,,,,,,,,,,,,,,,,,,,,,,,,,,,,,,,,,,,,,,,,,,,,,,,,,,,,,,,,,,,,,,,,,,,,,
1768210865.524679,1768210865.524980,101.000000,0.000000,4353.333496,4325.512695,4347.948730,4354.358887,4312.051270,4326.153809,4320.000000,4331.153809,4326.153809,4305.000000,4518.974121,4492.820313,4398.717773,4470.512695,3635.000000,4.000000,80.000000,,,,0.000000,4.000000,4.000000,4.000000,4.000000,4.000000,4.000000,4.000000,4.000000,4.000000,4.000000,4.000000,4.000000,4.000000,4.000000,100.000000,,,,,,,,,,,,,,,,,,,,,,,,,,,,,,,,,,,,,,,,,,,,,,,,,,,,,,,,,,,,,,,,,,,,,,,,,,,,,,,,,,,,,,,,,,,,,,,,,,,,,,,,,,,,,,,,,,,,,
1768210865.532488,1768210865.532888,102.000000,0.000000,4354.871582,4325.897461,4351.410156,4348.974121,4310.769043,4324.871582,4317.436035,4326.922852,4320.000000,4302.692383,4521.666504,4493.333496,4395.897461,4478.333496,3956.000000,4.000000,80.000000,,,,0.000000,4.000000,4.000000,4.000000,4.000000,4.000000,4.000000,4.000000,4.000000,4.000000,4.000000,4.000000,4.000000,4.000000,4.000000,100.000000,,,,,,,,,,,,,,,,,,,,,,,,,,,,,,,,,,,,,,,,,,,,,,,,0.583624,0.223450,0.061235,0.113576,0.059758,0.718811,0.502063,0.147881,0.182803,0.104589,1.534978,0.247615,0.153248,0.204475,0.084124,0.625900,0.355727,0.102514,0.203690,0.093655,0.536429,0.263259,0.173404,0.083077,0.074602,0.355842,0.246870,0.126046,0.072811,0.072455,0.290665,0.388538,0.176200,0.119596,0.136132,0.463238,0.413335,0.169557,0.206743,0.280570,0.504700,0.132295,0.176907,0.181173,0.180344,0.836538,0.337358,0.237558,0.360638,0.141558,1.297446,0.364833,0.188900,0.291107,0.224382,1.894930,0.273997,0.132803,0.313512,0.162651,4.157438,1.461884,0.194898,0.297126,0.203291,3.038985,0.369527,0.188557,0.370802,0.197381
1768210865.540296,1768210865.540697,103.000000,0.000000,4354.615234,4324.230957,4351.922852,4350.897461,4308.974121,4316.153809,4317.307617,4326.794922,4321.922852,4304.230957,4521.538574,4492.692383,4401.538574,4475.000000,4056.000000,4.000000,80.000000,,,,0.000000,4.000000,4.000000,4.000000,4.000000,4.000000,4.000000,4.000000,4.000000,4.000000,4.000000,4.000000,4.000000,4.000000,4.000000,100.000000,,,,,,,,,,,,,,,,,,,,,,,,,,,,,,,,,,,,,,,,,,,,,,,,,,,,,,,,,,,,,,,,,,,,,,,,,,,,,,,,,,,,,,,,,,,,,,,,,,,,,,,,,,,,,,,,,,,,,
1768210865.548104,1768210865.548705,104.000000,0.000000,4355.256348,4325.384766,4349.743652,4354.358887,4311.666504,4316.153809,4319.487305,4333.974121,4328.846191,4309.871582,4524.871582,4494.230957,4412.820313,4475.769043,4978.000000,4.000000,80.000000,,,,0.000000,4.000000,4.000000,4.000000,4.000000,4.000000,4.000000,4.000000,4.000000,4.000000,4.000000,4.000000,4.000000,4.000000,4.000000,100.000000,,,,,,,,,,,,,,,,,,,,,,,,,,,,,,,,,,,,,,,,,,,,,,,,,,,,,,,,,,,,,,,,,,,,,,,,,,,,,,,,,,,,,,,,,,,,,,,,,,,,,,,,,,,,,,,,,,,,,
1768210865.555913,1768210865.556514,105.000000,0.000000,4356.153809,4327.307617,4351.282227,4354.230957,4312.692383,4322.563965,4321.922852,4336.410156,4326.282227,4311.666504,4525.897461,4495.384766,4415.769043,4478.974121,3635.000000,4.000000,80.000000,,,,0.000000,4.000000,4.000000,4.000000,4.000000,4.000000,4.000000,4.000000,4.000000,4.000000,4.000000,4.000000,4.000000,4.000000,4.000000,100.000000,,,,,,,,,,,,,,,,,,,,,,,,,,,,,,,,,,,,,,,,,,,,,,,,,,,,,,,,,,,,,,,,,,,,,,,,,,,,,,,,,,,,,,,,,,,,,,,,,,,,,,,,,,,,,,,,,,,,,
1768210865.563721,1768210865.564422,106.000000,0.000000,4352.948730,4325.897461,4353.333496,4355.897461,4310.897461,4322.692383,4317.948730,4329.102539,4321.282227,4310.000000,4522.051270,4491.666504,4410.128418,4474.487305,3956.000000,4.000000,80.000000,,,,0.000000,4.000000,4.000000,4.000000,4.000000,4.000000,4.000000,4.000000,4.000000,4.000000,4.000000,4.000000,4.000000,4.000000,4.000000,100.000000,,,,,,,,,,,,,,,,,,,,,,,,,,,,,,,,,,,,,,,,,,,,,,,,,,,,,,,,,,,,,,,,,,,,,,,,,,,,,,,,,,,,,,,,,,,,,,,,,,,,,,,,,,,,,,,,,,,,,
1768210865.571530,1768210865.572230,107.000000,0.000000,4352.692383,4326.025879,4351.410156,4357.820313,4312.179688,4316.153809,4311.153809,4324.102539,4322.051270,4308.589844,4522.436035,4490.512695,4406.922852,4470.641113,4056.000000,4.000000,80.000000,,,,0.000000,4.000000,4.000000,4.000000,4.000000,4.000000,4.000000,4.000000,4.000000,4.000000,4.000000,4.000000,4.000000,4.000000,4.000000,100.000000,,,,,,,,,,,,,,,,,,,,,,,,,,,,,,,,,,,,,,,,,,,,,,,,,,,,,,,,,,,,,,,,,,,,,,,,,,,,,,,,,,,,,,,,,,,,,,,,,,,,,,,,,,,,,,,,,,,,,
1768210865.579338,1768210865.580039,108.000000,0.000000,4357.692383,4329.230957,4347.436035,4357.179688,4317.563965,4314.102539,4312.820313,4326.794922,4321.025879,4309.230957,4523.846191,4494.102539,4409.615234,4472.436035,4978.000000,4.000000,80.000000,,,,0.000000,4.000000,4.000000,4.000000,4.000000,4.000000,4.000000,4.000000,4.000000,4.000000,4.000000,4.000000,4.000000,4.000000,4.000000,100.000000,,,,,,,,,,,,,,,,,,,,,,,,,,,,,,,,,,,,,,,,,,,,,,,,,,,,,,,,,,,,,,,,,,,,,,,,,,,,,,,,,,,,,,,,,,,,,,,,,,,,,,,,,,,,,,,,,,,,,
1768210865.587147,1768210865.587847,109.000000,0.000000,4356.922852,4330.769043,4348.077148,4357.436035,4322.179688,4322.307617,4321.922852,4326.922852,4318.461426,4309.230957,4521.794922,4494.102539,4411.538574,4476.410156,3635.000000,4.000000,80.000000,,,,0.000000,4.000000,4.000000,4.000000,4.000000,4.000000,4.000000,4.000000,4.000000,4.000000,4.000000,4.000000,4.000000,4.000000,4.000000,100.000000,,,,,,,,,,,,,,,,,,,,,,,,,,,,,,,,,,,,,,,,,,,,,,,,,,,,,,,,,,,,,,,,,,,,,,,,,,,,,,,,,,,,,,,,,,,,,,,,,,,,,,,,,,,,,,,,,,,,,
1768210865.594955,1768210865.595556,110.000000,0.000000,4352.436035,4328.589844,4352.307617,4358.717773,4322.692383,4327.820313,4326.025879,4324.871582,4320.256348,4307.692383,4520.897461,4491.282227,4409.487305,4476.410156,3956.000000,4.000000,80.000000,,,,0.000000,4.000000,4.000000,4.000000,4.000000,4.000000,4.000000,4.000000,4.000000,4.000000,4.000000,4.000000,4.000000,4.000000,4.000000,100.000000,,,,,,,,,,,,,,,,,,,,,,,,,,,,,,,,,,,,,,,,,,,,,,,,,,,,,,,,,,,,,,,,,,,,,,,,,,,,,,,,,,,,,,,,,,,,,,,,,,,,,,,,,,,,,,,,,,,,,
1768210865.602763,1768210865.603364,111.000000,0.000000,4352.692383,4326.025879,4350.384766,4357.436035,4320.769043,4321.153809,4320.384766,4326.666504,4318.589844,4305.000000,4516.025879,4489.871582,4402.179688,4473.461426,4056.000000,4.000000,80.000000,,,,0.000000,4.000000,4.000000,4.000000,4.000000,4.000000,4.000000,4.000000,4.000000,4.000000,4.000000,4.000000,4.000000,4.000000,4.000000,100.000000,,,,,,,,,,,,,,,,,,,,,,,,,,,,,,,,,,,,,,,,,,,,,,,,,,,,,,,,,,,,,,,,,,,,,,,,,,,,,,,,,,,,,,,,,,,,,,,,,,,,,,,,,,,,,,,,,,,,,
1768210865.610572,1768210865.610973,112.000000,0.000000,4353.974121,4326.538574,4348.077148,4356.922852,4321.410156,4313.461426,4313.077148,4327.179688,4312.307617,4303.333496,4506.922852,4488.589844,4394.615234,4473.077148,4978.000000,4.000000,80.000000,,,,0.000000,4.000000,4.000000,4.000000,4.000000,4.000000,4.000000,4.000000,4.000000,4.000000,4.000000,4.000000,4.000000,4.000000,4.000000,100.000000,,,,,,,,,,,,,,,,,,,,,,,,,,,,,,,,,,,,,,,,,,,,,,,,,,,,,,,,,,,,,,,,,,,,,,,,,,,,,,,,,,,,,,,,,,,,,,,,,,,,,,,,,,,,,,,,,,,,,
1768210865.618380,1768210865.618781,113.000000,0.000000,4354.871582,4329.358887,4351.282227,4359.871582,4323.974121,4318.461426,4313.974121,4323.974121,4313.846191,4304.102539,4507.948730,4488.205078,4396.282227,4475.256348,3635.000000,4.000000,80.000000,,,,0.000000,4.000000,4.000000,4.000000,4.000000,4.000000,4.000000,4.000000,4.000000,4.000000,4.000000,4.000000,4.000000,4.000000,4.000000,100.000000,,,,,,,,,,,,,,,,,,,,,,,,,,,,,,,,,,,,,,,,,,,,,,,,,,,,,,,,,,,,,,,,,,,,,,,,,,,,,,,,,,,,,,,,,,,,,,,,,,,,,,,,,,,,,,,,,,,,,
1768210865.626189,1768210865.626490,114.000000,0.000000,4351.025879,4324.358887,4348.077148,4355.384766,4323.974121,4326.153809,4322.820313,4327.051270,4321.025879,4305.256348,4511.153809,4488.974121,4395.769043,4468.846191,3956.000000,4.000000,80.000000,,,,0.000000,4.000000,4.000000,4.000000,4.000000,4.000000,4.000000,4.000000,4.000000,4.000000,4.000000,4.000000,4.000000,4.000000,4.000000,100.000000,,,,,,,,,,,,,,,,,,,,,,,,,,,,,,,,,,,,,,,,,,,,,,,,,,,,,,,,,,,,,,,,,,,,,,,,,,,,,,,,,,,,,,,,,,,,,,,,,,,,,,,,,,,,,,,,,,,,,
1768210865.633997,1768210865.634298,115.000000,0.000000,4344.230957,4315.128418,4340.897461,4348.589844,4321.410156,4327.051270,4328.461426,4337.563965,4324.615234,4303.077148,4506.666504,4487.948730,4381.922852,4457.436035,4056.000000,4.000000,80.000000,,,,0.000000,4.000000,4.000000,4.000000,4.000000,4.000000,4.000000,4.000000,4.000000,4.000000,4.000000,4.000000,4.000000,4.000000,4.000000,100.000000,,,,,,,,,,,,,,,,,,,,,,,,,,,,,,,,,,,,,,,,,,,,,,,,,,,,,,,,,,,,,,,,,,,,,,,,,,,,,,,,,,,,,,,,,,,,,,,,,,,,,,,,,,,,,,,,,,,,,
1768210865.641806,1768210865.642307,116.000000,0.000000,4346.282227,4318.589844,4343.205078,4352.563965,4321.666504,4325.769043,4327.948730,4339.871582,4325.641113,4305.512695,4510.384766,4487.692383,4380.641113,4460.897461,4978.000000,4.000000,80.000000,,,,0.000000,4.000000,4.000000,4.000000,4.000000,4.000000,4.000000,4.000000,4.000000,4.000000,4.000000,4.000000,4.000000,4.000000,4.000000,100.000000,,,,,,,,,,,,,,,,,,,,,,,,,,,,,,,,,,,,,,,,,,,,,,,,,,,,,,,,,,,,,,,,,,,,,,,,,,,,,,,,,,,,,,,,,,,,,,,,,,,,,,,,,,,,,,,,,,,,,
1768210865.649614,1768210865.650115,117.000000,0.000000,4354.230957,4327.179688,4350.897461,4360.512695,4322.179688,4323.974121,4327.307617,4334.871582,4328.589844,4317.692383,4524.230957,4491.666504,4405.897461,4473.333496,3635.000000,4.000000,80.000000,,,,0.000000,4.000000,4.000000,4.000000,4.000000,4.000000,4.000000,4.000000,4.000000,4.000000,4.000000,4.000000,4.000000,4.000000,4.000000,100.000000,,,,,,,,,,,,,,,,,,,,,,,,,,,,,,,,,,,,,,,,,,,,,,,,,,,,,,,,,,,,,,,,,,,,,,,,,,,,,,,,,,,,,,,,,,,,,,,,,,,,,,,,,,,,,,,,,,,,,
1768210865.657422,1768210865.657823,118.000000,0.000000,4355.897461,4327.051270,4353.333496,4360.000000,4320.000000,4321.794922,4325.512695,4330.769043,4328.205078,4322.563965,4528.717773,4491.538574,4416.922852,4477.179688,3956.000000,4.000000,80.000000,,,,0.000000,4.000000,4.000000,4.000000,4.000000,4.000000,4.000000,4.000000,4.000000,4.000000,4.000000,4.000000,4.000000,4.000000,4.000000,100.000000,,,,,,,,,,,,,,,,,,,,,,,,,,,,,,,,,,,,,,,,,,,,,,,,0.693454,0.197385,0.050815,0.098504,0.051413,0.779402,0.453836,0.202361,0.157877,0.089369,1.591290,0.201660,0.159136,0.179613,0.075050,0.676226,0.309416,0.104696,0.187397,0.095231,0.536777,0.270995,0.200176,0.076077,0.074486,0.328994,0.225367,0.106135,0.069538,0.065866,0.310865,0.405113,0.186043,0.135765,0.133096,0.522308,0.410142,0.168656,0.187912,0.297268,0.508426,0.163321,0.175820,0.184377,0.180127,0.802638,0.309593,0.229996,0.322248,0.166061,1.343214,0.375327,0.230186,0.249644,0.221277,2.023068,0.281688,0.155718,0.282351,0.165726,6.205657,1.895412,0.320779,0.320712,0.192752,3.029425,0.273211,0.166675,0.331380,0.196039
1768210865.665231,1768210865.665632,119.000000,0.000000,4352.948730,4324.102539,4350.512695,4357.051270,4321.153809,4321.794922,4323.589844,4326.666504,4323.077148,4312.307617,4516.922852,4480.897461,4399.487305,4469.871582,4056.000000,4.000000,80.000000,,,,0.000000,4.000000,4.000000,4.000000,4.000000,4.000000,4.000000,4.000000,4.000000,4.000000,4.000000,4.000000,4.000000,4.000000,4.000000,100.000000,,,,,,,,,,,,,,,,,,,,,,,,,,,,,,,,,,,,,,,,,,,,,,,,,,,,,,,,,,,,,,,,,,,,,,,,,,,,,,,,,,,,,,,,,,,,,,,,,,,,,,,,,,,,,,,,,,,,,
1768210865.673039,1768210865.673240,120.000000,0.000000,4355.128418,4326.282227,4350.641113,4357.563965,4322.948730,4321.282227,4320.897461,4323.333496,4321.282227,4306.794922,4507.692383,4472.563965,4391.922852,4462.692383,4978.000000,4.000000,80.000000,,,,0.000000,4.000000,4.000000,4.000000,4.000000,4.000000,4.000000,4.000000,4.000000,4.000000,4.000000,4.000000,4.000000,4.000000,4.000000,100.000000,,,,,,,,,,,,,,,,,,,,,,,,,,,,,,,,,,,,,,,,,,,,,,,,,,,,,,,,,,,,,,,,,,,,,,,,,,,,,,,,,,,,,,,,,,,,,,,,,,,,,,,,,,,,,,,,,,,,,
1768210865.680848,1768210865.681048,121.000000,0.000000,4358.205078,4326.922852,4355.128418,4358.461426,4320.128418,4319.230957,4318.846191,4327.051270,4325.897461,4314.230957,4516.666504,4482.820313,4405.256348,4467.563965,3635.000000,4.000000,80.000000,,,,0.000000,4.000000,4.000000,4.000000,4.000000,4.000000,4.000000,4.000000,4.000000,4.000000,4.000000,4.000000,4.000000,4.000000,4.000000,100.000000,,,,,,,,,,,,,,,,,,,,,,,,,,,,,,,,,,,,,,,,,,,,,,,,,,,,,,,,,,,,,,,,,,,,,,,,,,,,,,,,,,,,,,,,,,,,,,,,,,,,,,,,,,,,,,,,,,,,,
1768210865.688656,1768210865.688757,122.000000,0.000000,4355.000000,4325.384766,4355.384766,4357.692383,4319.102539,4320.000000,4322.051270,4332.563965,4328.205078,4315.128418,4527.307617,4495.256348,4413.461426,4477.179688,3956.000000,4.000000,80.000000,,,,0.000000,4.000000,4.000000,4.000000,4.000000,4.000000,4.000000,4.000000,4.000000,4.000000,4.000000,4.000000,4.000000,4.000000,4.000000,100.000000,,,,,,,,,,,,,,,,,,,,,,,,,,,,,,,,,,,,,,,,,,,,,,,,,,,,,,,,,,,,,,,,,,,,,,,,,,,,,,,,,,,,,,,,,,,,,,,,,,,,,,,,,,,,,,,,,,,,,
1768210865.696465,1768210865.696565,123.000000,0.000000,4351.410156,4325.641113,4350.000000,4358.077148,4323.077148,4323.077148,4324.871582,4332.820313,4323.717773,4307.051270,4523.461426,4492.820313,4412.692383,4476.153809,4056.000000,4.000000,80.000000,,,,0.000000,4.000000,4.000000,4.000000,4.000000,4.000000,4.000000,4.000000,4.000000,4.000000,4.000000,4.000000,4.000000,4.000000,4.000000,100.000000,,,,,,,,,,,,,,,,,,,,,,,,,,,,,,,,,,,,,,,,,,,,,,,,,,,,,,,,,,,,,,,,,,,,,,,,,,,,,,,,,,,,,,,,,,,,,,,,,,,,,,,,,,,,,,,,,,,,,
1768210865.704273,1768210865.704573,124.000000,0.000000,4353.717773,4324.487305,4349.871582,4358.461426,4322.948730,4325.256348,4327.563965,4337.948730,4322.948730,4306.922852,4521.153809,4489.743652,4411.025879,4472.692383,4978.000000,4.000000,80.000000,,,,0.000000,4.000000,4.000000,4.000000,4.000000,4.000000,4.000000,4.000000,4.000000,4.000000,4.000000,4.000000,4.000000,4.000000,4.000000,100.000000,,,,,,,,,,,,,,,,,,,,,,,,,,,,,,,,,,,,,,,,,,,,,,,,,,,,,,,,,,,,,,,,,,,,,,,,,,,,,,,,,,,,,,,,,,,,,,,,,,,,,,,,,,,,,,,,,,,,,
1768210865.712081,1768210865.712381,125.000000,0.000000,4357.820313,4319.230957,4350.897461,4353.846191,4317.820313,4326.025879,4330.769043,4343.077148,4325.384766,4308.077148,4525.769043,4494.230957,4404.102539,4476.153809,3635.000000,4.000000,80.000000,,,,0.000000,4.000000,4.000000,4.000000,4.000000,4.000000,4.000000,4.000000,4.000000,4.000000,4.000000,4.000000,4.000000,4.000000,4.000000,100.000000,,,,,,,,,,,,,,,,,,,,,,,,,,,,,,,,,,,,,,,,,,,,,,,,,,,,,,,,,,,,,,,,,,,,,,,,,,,,,,,,,,,,,,,,,,,,,,,,,,,,,,,,,,,,,,,,,,,,,
1768210865.719890,1768210865.720290,126.000000,0.000000,4357.692383,4319.487305,4348.333496,4352.307617,4321.282227,4322.179688,4322.307617,4332.820313,4322.692383,4305.000000,4523.461426,4494.102539,4402.307617,4477.436035,3956.000000,4.000000,80.000000,,,,0.000000,4.000000,4.000000,4.000000,4.000000,4.000000,4.000000,4.000000,4.000000,4.000000,4.000000,4.000000,4.000000,4.000000,4.000000,100.000000,,,,,,,,,,,,,,,,,,,,,,,,,,,,,,,,,,,,,,,,,,,,,,,,,,,,,,,,,,,,,,,,,,,,,,,,,,,,,,,,,,,,,,,,,,,,,,,,,,,,,,,,,,,,,,,,,,,,,
1768210865.727698,1768210865.728098,127.000000,0.000000,4357.307617,4326.666504,4348.974121,4359.743652,4327.563965,4319.743652,4312.051270,4323.974121,4320.769043,4306.153809,4521.666504,4489.615234,4411.282227,4476.025879,80.000000,4.000000,80.000000,,,,0.000000,4.000000,4.000000,4.000000,4.000000,4.000000,4.000000,4.000000,4.000000,4.000000,4.000000,4.000000,4.000000,4.000000,4.000000,100.000000,,,,,,,,,,,,,,,,,,,,,,,,,,,,,,,,,,,,,,,,,,,,,,,,,,,,,,,,,,,,,,,,,,,,,,,,,,,,,,,,,,,,,,,,,,,,,,,,,,,,,,,,,,,,,,,,,,,,,
1768210865.735507,1768210865.736106,0.000000,0.000000,4357.307617,4324.743652,4347.436035,4358.333496,4323.333496,4324.871582,4319.615234,4337.692383,4323.461426,4305.000000,4518.974121,4491.282227,4408.333496,4476.922852,3011.000000,4.000000,80.000000,,,,0.000000,4.000000,4.000000,4.000000,4.000000,4.000000,4.000000,4.000000,4.000000,4.000000,4.000000,4.000000,4.000000,4.000000,4.000000,100.000000,,,,,,,,,,,,,,,,,,,,,,,,,,,,,,,,,,,,,,,,,,,,,,,,,,,,,,,,,,,,,,,,,,,,,,,,,,,,,,,,,,,,,,,,,,,,,,,,,,,,,,,,,,,,,,,,,,,,,
1768210865.743315,1768210865.743915,1.000000,0.000000,4355.641113,4319.615234,4343.461426,4349.743652,4319.358887,4328.077148,4328.333496,4345.128418,4324.615234,4300.256348,4512.563965,4493.461426,4396.025879,4474.871582,4071.000000,4.000000,80.000000,,,,0.000000,4.000000,4.000000,4.000000,4.000000,4.000000,4.000000,4.000000,4.000000,4.000000,4.000000,4.000000,4.000000,4.000000,4.000000,100.000000,,,,,,,,,,,,,,,,,,,,,,,,,,,,,,,,,,,,,,,,,,,,,,,,,,,,,,,,,,,,,,,,,,,,,,,,,,,,,,,,,,,,,,,,,,,,,,,,,,,,,,,,,,,,,,,,,,,,,
1768210865.751124,1768210865.751823,2.000000,0.000000,4356.666504,4324.871582,4347.436035,4352.948730,4323.205078,4324.871582,4320.641113,4327.179688,4320.256348,4304.743652,4515.641113,4490.512695,4396.794922,4471.538574,1811.000000,4.000000,80.000000,,,,0.000000,4.000000,4.000000,4.000000,4.000000,4.000000,4.000000,4.000000,4.000000,4.000000,4.000000,4.000000,4.000000,4.000000,4.000000,100.000000,,,,,,,,,,,,,,,,,,,,,,,,,,,,,,,,,,,,,,,,,,,,,,,,,,,,,,,,,,,,,,,,,,,,,,,,,,,,,,,,,,,,,,,,,,,,,,,,,,,,,,,,,,,,,,,,,,,,,
1768210865.758932,1768210865.759632,3.000000,0.000000,4357.820313,4330.128418,4353.717773,4360.128418,4319.871582,4321.794922,4315.641113,4318.846191,4318.077148,4309.230957,4521.025879,4489.358887,4402.948730,4472.436035,3937.000000,4.000000,80.000000,,,,0.000000,4.000000,4.000000,4.000000,4.000000,4.000000,4.000000,4.000000,4.000000,4.000000,4.000000,4.000000,4.000000,4.000000,4.000000,100.000000,,,,,,,,,,,,,,,,,,,,,,,,,,,,,,,,,,,,,,,,,,,,,,,,,,,,,,,,,,,,,,,,,,,,,,,,,,,,,,,,,,,,,,,,,,,,,,,,,,,,,,,,,,,,,,,,,,,,,
1768210865.766740,1768210865.767640,4.000000,0.000000,4356.282227,4333.205078,4349.230957,4357.563965,4314.871582,4320.641113,4320.256348,4331.025879,4319.871582,4307.436035,4521.666504,4493.205078,4405.256348,4472.436035,3869.000000,4.000000,80.000000,,,,0.000000,4.000000,4.000000,4.000000,4.000000,4.000000,4.000000,4.000000,4.000000,4.000000,4.000000,4.000000,4.000000,4.000000,4.000000,100.000000,,,,,,,,,,,,,,,,,,,,,,,,,,,,,,,,,,,,,,,,,,,,,,,,,,,,,,,,,,,,,,,,,,,,,,,,,,,,,,,,,,,,,,,,,,,,,,,,,,,,,,,,,,,,,,,,,,,,,
1768210865.774549,1768210865.775449,5.000000,0.000000,4355.256348,4339.102539,4343.717773,4354.102539,4318.077148,4318.717773,4318.589844,4335.000000,4320.512695,4309.871582,4522.820313,4492.820313,4410.512695,4471.025879,3398.000000,4.000000,80.000000,,,,0.000000,4.000000,4.000000,4.000000,4.000000,4.000000,4.000000,4.000000,4.000000,4.000000,4.000000,4.000000,4.000000,4.000000,4.000000,100.000000,,,,,,,,,,,,,,,,,,,,,,,,,,,,,,,,,,,,,,,,,,,,,,,,,,,,,,,,,,,,,,,,,,,,,,,,,,,,,,,,,,,,,,,,,,,,,,,,,,,,,,,,,,,,,,,,,,,,,
1768210865.782357,1768210865.783357,6.000000,0.000000,4356.282227,4339.230957,4347.436035,4354.615234,4318.846191,4319.358887,4314.230957,4329.358887,4319.358887,4308.974121,4521.794922,4491.538574,4410.897461,4471.666504,3901.000000,4.000000,80.000000,,,,0.000000,4.000000,4.000000,4.000000,4.000000,4.000000,4.000000,4.000000,4.000000,4.000000,4.000000,4.000000,4.000000,4.000000,4.000000,100.000000,,,,,,,,,,,,,,,,,,,,,,,,,,,,,,,,,,,,,,,,,,,,,,,,0.784912,0.165862,0.052942,0.082257,0.043194,0.823042,0.414526,0.280570,0.135527,0.078055,1.573492,0.159110,0.158988,0.160430,0.070626,0.708215,0.254290,0.130779,0.176869,0.094599,0.540864,0.271242,0.227055,0.073730,0.072527,0.301530,0.207978,0.089164,0.061970,0.058445,0.326129,0.424960,0.197776,0.145700,0.128534,0.539465,0.405914,0.169807,0.169285,0.306476,0.509649,0.189643,0.174603,0.182968,0.170899,0.728764,0.273905,0.223307,0.274040,0.187006,1.321308,0.386674,0.292417,0.225819,0.213870,2.026592,0.310569,0.172185,0.257217,0.171464,8.276919,2.350076,0.479309,0.337648,0.169063,2.837756,0.222367,0.177258,0.320294,0.190660
1768210865.790166,1768210865.791166,7.000000,0.000000,4356.282227,4338.974121,4352.179688,4356.922852,4316.282227,4323.974121,4315.128418,4326.922852,4315.512695,4304.743652,4519.487305,4495.769043,4411.153809,4474.487305,3926.000000,4.000000,80.000000,,,,0.000000,4.000000,4.000000,4.000000,4.000000,4.000000,4.000000,4.000000,4.000000,4.000000,4.000000,4.000000,4.000000,4.000000,4.000000,100.000000,,,,,,,,,,,,,,,,,,,,,,,,,,,,,,,,,,,,,,,,,,,,,,,,,,,,,,,,,,,,,,,,,,,,,,,,,,,,,,,,,,,,,,,,,,,,,,,,,,,,,,,,,,,,,,,,,,,,,
1768210865.797974,1768210865.798774,8.000000,0.000000,4356.153809,4345.128418,4350.897461,4356.794922,4317.692383,4324.743652,4313.846191,4326.922852,4312.179688,4310.384766,4525.384766,4497.179688,4420.000000,4475.897461,3974.000000,4.000000,80.000000,,,,0.000000,4.000000,4.000000,4.000000,4.000000,4.000000,4.000000,4.000000,4.000000,4.000000,4.000000,4.000000,4.000000,4.000000,4.000000,100.000000,,,,,,,,,,,,,,,,,,,,,,,,,,,,,,,,,,,,,,,,,,,,,,,,,,,,,,,,,,,,,,,,,,,,,,,,,,,,,,,,,,,,,,,,,,,,,,,,,,,,,,,,,,,,,,,,,,,,,
1768210865.805783,1768210865.806583,9.000000,0.000000,4356.794922,4345.000000,4347.692383,4351.538574,4315.641113,4320.769043,4306.538574,4325.384766,4312.179688,4311.794922,4522.051270,4494.615234,4417.051270,4473.205078,4051.000000,4.000000,80.000000,,,,0.000000,4.000000,4.000000,4.000000,4.000000,4.000000,4.000000,4.000000,4.000000,4.000000,4.000000,4.000000,4.000000,4.000000,4.000000,100.000000,,,,,,,,,,,,,,,,,,,,,,,,,,,,,,,,,,,,,,,,,,,,,,,,,,,,,,,,,,,,,,,,,,,,,,,,,,,,,,,,,,,,,,,,,,,,,,,,,,,,,,,,,,,,,,,,,,,,,
1768210865.813591,1768210865.814291,10.000000,0.000000,4354.871582,4338.846191,4350.256348,4348.589844,4310.000000,4321.666504,4308.589844,4324.358887,4311.538574,4302.563965,4507.436035,4493.846191,4400.897461,4469.615234,3956.000000,4.000000,80.000000,,,,0.000000,4.000000,4.000000,4.000000,4.000000,4.000000,4.000000,4.000000,4.000000,4.000000,4.000000,4.000000,4.000000,4.000000,4.000000,100.000000,,,,,,,,,,,,,,,,,,,,,,,,,,,,,,,,,,,,,,,,,,,,,,,,,,,,,,,,,,,,,,,,,,,,,,,,,,,,,,,,,,,,,,,,,,,,,,,,,,,,,,,,,,,,,,,,,,,,,
1768210865.821400,1768210865.822100,11.000000,0.000000,4354.487305,4341.282227,4354.230957,4350.897461,4314.230957,4326.922852,4319.358887,4326.666504,4310.641113,4303.077148,4511.794922,4494.358887,4405.897461,4471.410156,4056.000000,4.000000,80.000000,,,,0.000000,4.000000,4.000000,4.000000,4.000000,4.000000,4.000000,4.000000,4.000000,4.000000,4.000000,4.000000,4.000000,4.000000,4.000000,100.000000,,,,,,,,,,,,,,,,,,,,,,,,,,,,,,,,,,,,,,,,,,,,,,,,,,,,,,,,,,,,,,,,,,,,,,,,,,,,,,,,,,,,,,,,,,,,,,,,,,,,,,,,,,,,,,,,,,,,,
1768210865.829208,1768210865.830108,12.000000,0.000000,4356.538574,4343.974121,4351.025879,4352.307617,4319.102539,4327.563965,4318.974121,4327.948730,4315.641113,4311.538574,4526.538574,4493.589844,4427.436035,4478.205078,4978.000000,4.000000,80.000000,,,,0.000000,4.000000,4.000000,4.000000,4.000000,4.000000,4.000000,4.000000,4.000000,4.000000,4.000000,4.000000,4.000000,4.000000,4.000000,100.000000,,,,,,,,,,,,,,,,,,,,,,,,,,,,,,,,,,,,,,,,,,,,,,,,,,,,,,,,,,,,,,,,,,,,,,,,,,,,,,,,,,,,,,,,,,,,,,,,,,,,,,,,,,,,,,,,,,,,,
1768210865.837016,1768210865.837916,13.000000,0.000000,4354.358887,4332.820313,4343.589844,4350.128418,4314.230957,4323.717773,4309.102539,4327.563965,4316.025879,4309.102539,4523.717773,4492.307617,4429.230957,4478.077148,3635.000000,4.000000,80.000000,,,,0.000000,4.000000,4.000000,4.000000,4.000000,4.000000,4.000000,4.000000,4.000000,4.000000,4.000000,4.000000,4.000000,4.000000,4.000000,100.000000,,,,,,,,,,,,,,,,,,,,,,,,,,,,,,,,,,,,,,,,,,,,,,,,,,,,,,,,,,,,,,,,,,,,,,,,,,,,,,,,,,,,,,,,,,,,,,,,,,,,,,,,,,,,,,,,,,,,,
1768210865.844825,1768210865.845825,14.000000,0.000000,4353.077148,4327.436035,4344.487305,4348.717773,4310.000000,4321.538574,4313.333496,4326.282227,4313.077148,4303.974121,4518.205078,4491.666504,4416.922852,4474.358887,3956.000000,4.000000,80.000000,,,,0.000000,4.000000,4.000000,4.000000,4.000000,4.000000,4.000000,4.000000,4.000000,4.000000,4.000000,4.000000,4.000000,4.000000,4.000000,100.000000,,,,,,,,,,,,,,,,,,,,,,,,,,,,,,,,,,,,,,,,,,,,,,,,,,,,,,,,,,,,,,,,,,,,,,,,,,,,,,,,,,,,,,,,,,,,,,,,,,,,,,,,,,,,,,,,,,,,,
1768210865.852633,1768210865.853633,15.000000,0.000000,4355.128418,4332.307617,4350.000000,4351.282227,4311.410156,4321.538574,4324.358887,4326.922852,4320.000000,4306.666504,4524.743652,4492.307617,4415.512695,4474.615234,4056.000000,4.000000,80.000000,,,,0.000000,4.000000,4.000000,4.000000,4.000000,4.000000,4.000000,4.000000,4.000000,4.000000,4.000000,4.000000,4.000000,4.000000,4.000000,100.000000,,,,,,,,,,,,,,,,,,,,,,,,,,,,,,,,,,,,,,,,,,,,,,,,,,,,,,,,,,,,,,,,,,,,,,,,,,,,,,,,,,,,,,,,,,,,,,,,,,,,,,,,,,,,,,,,,,,,,
1768210865.860442,1768210865.861641,16.000000,0.000000,4353.717773,4330.256348,4343.846191,4348.974121,4310.897461,4321.025879,4318.205078,4327.563965,4321.282227,4306.538574,4519.743652,4491.922852,4417.563965,4473.333496,0.000000,4.000000,80.000000,,,,0.000000,4.000000,4.000000,4.000000,4.000000,4.000000,4.000000,4.000000,4.000000,4.000000,4.000000,4.000000,4.000000,4.000000,4.000000,100.000000,,,,,,,,,,,,,,,,,,,,,,,,,,,,,,,,,,,,,,,,,,,,,,,,,,,,,,,,,,,,,,,,,,,,,,,,,,,,,,,,,,,,,,,,,,,,,,,,,,,,,,,,,,,,,,,,,,,,,
1768210865.868250,1768210865.869450,17.000000,0.000000,4350.256348,4325.512695,4338.846191,4342.179688,4308.717773,4320.000000,4307.820313,4325.769043,4315.256348,4303.589844,4508.846191,4488.205078,4414.615234,4470.384766,0.000000,4.000000,80.000000,,,,0.000000,4.000000,4.000000,4.000000,4.000000,4.000000,4.000000,4.000000,4.000000,4.000000,4.000000,4.000000,4.000000,4.000000,4.000000,100.000000,,,,,,,,,,,,,,,,,,,,,,,,,,,,,,,,,,,,,,,,,,,,,,,,,,,,,,,,,,,,,,,,,,,,,,,,,,,,,,,,,,,,,,,,,,,,,,,,,,,,,,,,,,,,,,,,,,,,,
1768210865.876058,1768210865.877158,18.000000,0.000000,4352.051270,4327.051270,4347.051270,4344.230957,4311.153809,4316.794922,4310.384766,4326.538574,4321.025879,4307.563965,4515.384766,4488.333496,4415.128418,4471.410156,0.000000,4.000000,80.000000,,,,0.000000,4.000000,4.000000,4.000000,4.000000,4.000000,4.000000,4.000000,4.000000,4.000000,4.000000,4.000000,4.000000,4.000000,4.000000,100.000000,,,,,,,,,,,,,,,,,,,,,,,,,,,,,,,,,,,,,,,,,,,,,,,,,,,,,,,,,,,,,,,,,,,,,,,,,,,,,,,,,,,,,,,,,,,,,,,,,,,,,,,,,,,,,,,,,,,,,
1768210865.883867,1768210865.884966,19.000000,0.000000,4354.615234,4328.333496,4351.666504,4350.384766,4312.436035,4313.846191,4312.307617,4328.461426,4326.538574,4311.538574,4525.256348,4492.948730,4417.307617,4475.897461,0.000000,4.000000,80.000000,,,,0.000000,4.000000,4.000000,4.000000,4.000000,4.000000,4.000000,4.000000,4.000000,4.000000,4.000000,4.000000,4.000000,4.000000,4.000000,100.000000,,,,,,,,,,,,,,,,,,,,,,,,,,,,,,,,,,,,,,,,,,,,,,,,,,,,,,,,,,,,,,,,,,,,,,,,,,,,,,,,,,,,,,,,,,,,,,,,,,,,,,,,,,,,,,,,,,,,,
1768210865.891675,1768210865.892575,20.000000,0.000000,4351.922852,4327.307617,4345.000000,4348.974121,4310.512695,4313.461426,4308.589844,4326.538574,4316.410156,4310.256348,4522.563965,4489.230957,4414.743652,4477.563965,0.000000,4.000000,80.000000,,,,0.000000,4.000000,4.000000,4.000000,4.000000,4.000000,4.000000,4.000000,4.000000,4.000000,4.000000,4.000000,4.000000,4.000000,4.000000,100.000000,,,,,,,,,,,,,,,,,,,,,,,,,,,,,,,,,,,,,,,,,,,,,,,,,,,,,,,,,,,,,,,,,,,,,,,,,,,,,,,,,,,,,,,,,,,,,,,,,,,,,,,,,,,,,,,,,,,,,
1768210865.899484,1768210865.900383,21.000000,0.000000,4350.384766,4329.358887,4342.307617,4348.461426,4310.128418,4315.256348,4310.769043,4321.410156,4308.846191,4307.820313,4513.717773,4481.153809,4410.769043,4474.743652,0.000000,4.000000,80.000000,,,,0.000000,4.000000,4.000000,4.000000,4.000000,4.000000,4.000000,4.000000,4.000000,4.000000,4.000000,4.000000,4.000000,4.000000,4.000000,100.000000,,,,,,,,,,,,,,,,,,,,,,,,,,,,,,,,,,,,,,,,,,,,,,,,,,,,,,,,,,,,,,,,,,,,,,,,,,,,,,,,,,,,,,,,,,,,,,,,,,,,,,,,,,,,,,,,,,,,,
1768210865.907292,1768210865.908291,22.000000,0.000000,4351.922852,4329.871582,4346.794922,4353.974121,4311.282227,4321.153809,4321.922852,4325.000000,4312.692383,4306.922852,4512.563965,4484.230957,4409.102539,4471.922852,0.000000,4.000000,80.000000,,,,0.000000,4.000000,4.000000,4.000000,4.000000,4.000000,4.000000,4.000000,4.000000,4.000000,4.000000,4.000000,4.000000,4.000000,4.000000,100.000000,1.000000,50.000000,1.000000,4.000000,4.000000,4.000000,4.000000,1.000000,4.000000,4.000000,4.000000,4.000000,4.000000,4.000000,4.000000,4.000000,,,,,,,,,,,,,,,,,,,,,,,,,,,,,,,,0.834188,0.136357,0.066799,0.069725,0.036953,0.811417,0.391340,0.367943,0.120601,0.074511,1.487707,0.129582,0.155073,0.153981,0.071586,0.715004,0.204354,0.185627,0.176203,0.092283,0.554741,0.257183,0.248501,0.075433,0.068035,0.272743,0.192212,0.081761,0.052056,0.052562,0.335704,0.436598,0.212218,0.147709,0.123590,0.511573,0.385408,0.176716,0.154504,0.301624,0.506081,0.197483,0.171810,0.176632,0.154491,0.644538,0.252069,0.220387,0.228711,0.200185,1.228844,0.394321,0.356902,0.221012,0.201784,1.886419,0.339554,0.177038,0.241243,0.173086,9.618582,2.681920,0.624154,0.344774,0.142341,2.507499,0.224891,0.205834,0.336113,0.180684
1768210865.915101,1768210865.916100,23.000000,0.000000,4352.563965,4332.179688,4351.025879,4355.128418,4313.077148,4324.871582,4326.025879,4330.256348,4316.410156,4309.615234,4519.230957,4492.820313,4410.256348,4480.384766,0.000000,4.000000,80.000000,,,,0.000000,4.000000,4.000000,4.000000,4.000000,4.000000,4.000000,4.000000,4.000000,4.000000,4.000000,4.000000,4.000000,4.000000,4.000000,100.000000,,,,,,,,,,,,,,,,,,,,,,,,,,,,,,,,,,,,,,,,,,,,,,,,,,,,,,,,,,,,,,,,,,,,,,,,,,,,,,,,,,,,,,,,,,,,,,,,,,,,,,,,,,,,,,,,,,,,,
1768210865.922909,1768210865.924108,24.000000,0.000000,4353.846191,4337.820313,4351.922852,4352.436035,4314.487305,4321.282227,4315.128418,4330.000000,4318.974121,4312.948730,4524.871582,4493.333496,4411.666504,4490.000000,0.000000,4.000000,80.000000,,,,0.000000,4.000000,4.000000,4.000000,4.000000,4.000000,4.000000,4.000000,4.000000,4.000000,4.000000,4.000000,4.000000,4.000000,4.000000,100.000000,,,,,,,,,,,,,,,,,,,,,,,,,,,,,,,,,,,,,,,,,,,,,,,,,,,,,,,,,,,,,,,,,,,,,,,,,,,,,,,,,,,,,,,,,,,,,,,,,,,,,,,,,,,,,,,,,,,,,
1768210865.930718,1768210865.931917,25.000000,0.000000,4355.000000,4335.512695,4349.615234,4352.692383,4313.717773,4319.230957,4310.256348,4331.282227,4322.307617,4312.820313,4523.846191,4491.794922,4412.051270,4484.743652,0.000000,4.000000,80.000000,,,,0.000000,4.000000,4.000000,4.000000,4.000000,4.000000,4.000000,4.000000,4.000000,4.000000,4.000000,4.000000,4.000000,4.000000,4.000000,100.000000,,,,,,,,,,,,,,,,,,,,,,,,,,,,,,,,,,,,,,,,,,,,,,,,,,,,,,,,,,,,,,,,,,,,,,,,,,,,,,,,,,,,,,,,,,,,,,,,,,,,,,,,,,,,,,,,,,,,,
1768210865.938526,1768210865.939725,26.000000,0.000000,4354.358887,4327.692383,4350.512695,4352.307617,4311.794922,4319.743652,4319.871582,4332.436035,4322.692383,4311.922852,4521.410156,4491.153809,4411.025879,4475.769043,0.000000,4.000000,80.000000,,,,0.000000,4.000000,4.000000,4.000000,4.000000,4.000000,4.000000,4.000000,4.000000,4.000000,4.000000,4.000000,4.000000,4.000000,4.000000,100.000000,,,,,,,,,,,,,,,,,,,,,,,,,,,,,,,,,,,,,,,,,,,,,,,,,,,,,,,,,,,,,,,,,,,,,,,,,,,,,,,,,,,,,,,,,,,,,,,,,,,,,,,,,,,,,,,,,,,,,
1768210865.946334,1768210865.947533,27.000000,0.000000,4353.333496,4323.717773,4351.025879,4346.666504,4310.897461,4315.384766,4319.615234,4327.692383,4320.769043,4310.512695,4520.769043,4488.077148,4409.358887,4475.256348,0.000000,4.000000,80.000000,,,,0.000000,4.000000,4.000000,4.000000,4.000000,4.000000,4.000000,4.000000,4.000000,4.000000,4.000000,4.000000,4.000000,4.000000,4.000000,100.000000,,,,,,,,,,,,,,,,,,,,,,,,,,,,,,,,,,,,,,,,,,,,,,,,,,,,,,,,,,,,,,,,,,,,,,,,,,,,,,,,,,,,,,,,,,,,,,,,,,,,,,,,,,,,,,,,,,,,,
1768210865.954143,1768210865.955142,28.000000,0.000000,4354.615234,4323.846191,4344.487305,4340.769043,4309.743652,4310.384766,4308.589844,4324.230957,4319.230957,4307.692383,4519.871582,4489.230957,4407.051270,4478.333496,0.000000,4.000000,80.000000,,,,0.000000,4.000000,4.000000,4.000000,4.000000,4.000000,4.000000,4.000000,4.000000,4.000000,4.000000,4.000000,4.000000,4.000000,4.000000,100.000000,,,,,,,,,,,,,,,,,,,,,,,,,,,,,,,,,,,,,,,,,,,,,,,,,,,,,,,,,,,,,,,,,,,,,,,,,,,,,,,,,,,,,,,,,,,,,,,,,,,,,,,,,,,,,,,,,,,,,
1768210865.961951,1768210865.962951,29.000000,0.000000,4353.846191,4324.102539,4342.948730,4342.563965,4308.333496,4313.077148,4310.512695,4335.512695,4322.692383,4307.948730,4521.666504,4492.563965,4403.974121,4481.794922,0.000000,4.000000,80.000000,,,,0.000000,4.000000,4.000000,4.000000,4.000000,4.000000,4.000000,4.000000,4.000000,4.000000,4.000000,4.000000,4.000000,4.000000,4.000000,100.000000,,,,,,,,,,,,,,,,,,,,,,,,,,,,,,,,,,,,,,,,,,,,,,,,,,,,,,,,,,,,,,,,,,,,,,,,,,,,,,,,,,,,,,,,,,,,,,,,,,,,,,,,,,,,,,,,,,,,,
1768210865.969760,1768210865.970659,30.000000,0.000000,4347.820313,4325.128418,4349.743652,4348.077148,4308.717773,4316.922852,4318.461426,4346.538574,4327.820313,4309.871582,4522.692383,4491.153809,4401.922852,4482.051270,0.000000,4.000000,80.000000,,,,0.000000,4.000000,4.000000,4.000000,4.000000,4.000000,4.000000,4.000000,4.000000,4.000000,4.000000,4.000000,4.000000,4.000000,4.000000,100.000000,,,,,,,,,,,,,,,,,,,,,,,,,,,,,,,,,,,,,,,,,,,,,,,,,,,,,,,,,,,,,,,,,,,,,,,,,,,,,,,,,,,,,,,,,,,,,,,,,,,,,,,,,,,,,,,,,,,,,
1768210865.977568,1768210865.978468,31.000000,0.000000,4347.563965,4327.436035,4353.205078,4350.000000,4310.641113,4317.051270,4318.846191,4336.666504,4325.897461,4309.615234,4521.922852,4490.769043,4401.538574,4477.051270,0.000000,4.000000,80.000000,,,,0.000000,4.000000,4.000000,4.000000,4.000000,4.000000,4.000000,4.000000,4.000000,4.000000,4.000000,4.000000,4.000000,4.000000,4.000000,100.000000,,,,,,,,,,,,,,,,,,,,,,,,,,,,,,,,,,,,,,,,,,,,,,,,,,,,,,,,,,,,,,,,,,,,,,,,,,,,,,,,,,,,,,,,,,,,,,,,,,,,,,,,,,,,,,,,,,,,,
1768210865.985376,1768210865.986076,32.000000,0.000000,4352.051270,4327.307617,4348.077148,4349.230957,4310.384766,4317.563965,4318.589844,4324.871582,4321.282227,4309.102539,4521.794922,4491.922852,4402.692383,4475.384766,0.000000,4.000000,80.000000,,,,0.000000,4.000000,4.000000,4.000000,4.000000,4.000000,4.000000,4.000000,4.000000,4.000000,4.000000,4.000000,4.000000,4.000000,4.000000,100.000000,,,,,,,,,,,,,,,,,,,,,,,,,,,,,,,,,,,,,,,,,,,,,,,,,,,,,,,,,,,,,,,,,,,,,,,,,,,,,,,,,,,,,,,,,,,,,,,,,,,,,,,,,,,,,,,,,,,,,
1768210865.993185,1768210865.993885,33.000000,0.000000,4352.692383,4326.538574,4344.102539,4348.717773,4310.256348,4319.871582,4320.256348,4328.717773,4320.512695,4309.230957,4522.692383,4489.871582,4405.512695,4478.717773,0.000000,4.000000,80.000000,,,,0.000000,4.000000,4.000000,4.000000,4.000000,4.000000,4.000000,4.000000,4.000000,4.000000,4.000000,4.000000,4.000000,4.000000,4.000000,100.000000,,,,,,,,,,,,,,,,,,,,,,,,,,,,,,,,,,,,,,,,,,,,,,,,,,,,,,,,,,,,,,,,,,,,,,,,,,,,,,,,,,,,,,,,,,,,,,,,,,,,,,,,,,,,,,,,,,,,,
1768210866.000993,1768210866.001593,34.000000,0.000000,4349.743652,4327.307617,4347.948730,4348.717773,4311.153809,4320.256348,4321.666504,4333.846191,4321.794922,4310.000000,4522.179688,4487.820313,4403.077148,4479.358887,0.000000,4.000000,80.000000,,,,0.000000,4.000000,4.000000,4.000000,4.000000,4.000000,4.000000,4.000000,4.000000,4.000000,4.000000,4.000000,4.000000,4.000000,4.000000,100.000000,,,,,,,,,,,,,,,,,,,,,,,,,,,,,,,,,,,,,,,,,,,,,,,,,,,,,,,,,,,,,,,,,,,,,,,,,,,,,,,,,,,,,,,,,,,,,,,,,,,,,,,,,,,,,,,,,,,,,
1768210866.008802,1768210866.009402,35.000000,0.000000,4348.974121,4328.846191,4349.487305,4349.487305,4311.282227,4319.358887,4319.487305,4327.692383,4321.282227,4310.256348,4520.000000,4488.589844,4396.666504,4476.282227,0.000000,4.000000,80.000000,,,,0.000000,4.000000,4.000000,4.000000,4.000000,4.000000,4.000000,4.000000,4.000000,4.000000,4.000000,4.000000,4.000000,4.000000,4.000000,100.000000,,,,,,,,,,,,,,,,,,,,,,,,,,,,,,,,,,,,,,,,,,,,,,,,,,,,,,,,,,,,,,,,,,,,,,,,,,,,,,,,,,,,,,,,,,,,,,,,,,,,,,,,,,,,,,,,,,,,,
1768210866.016610,1768210866.017010,36.000000,0.000000,4350.384766,4328.974121,4348.846191,4351.153809,4312.179688,4321.794922,4313.846191,4324.743652,4322.051270,4310.000000,4520.128418,4488.717773,4401.153809,4475.128418,0.000000,4.000000,80.000000,,,,0.000000,4.000000,4.000000,4.000000,4.000000,4.000000,4.000000,4.000000,4.000000,4.000000,4.000000,4.000000,4.000000,4.000000,4.000000,100.000000,,,,,,,,,,,,,,,,,,,,,,,,,,,,,,,,,,,,,,,,,,,,,,,,,,,,,,,,,,,,,,,,,,,,,,,,,,,,,,,,,,,,,,,,,,,,,,,,,,,,,,,,,,,,,,,,,,,,,
1768210866.024419,1768210866.024819,37.000000,0.000000,4351.666504,4328.205078,4352.436035,4350.769043,4312.563965,4321.282227,4311.153809,4331.025879,4322.948730,4308.589844,4522.692383,4489.230957,4411.410156,4477.436035,0.000000,4.000000,80.000000,,,,0.000000,4.000000,4.000000,4.000000,4.000000,4.000000,4.000000,4.000000,4.000000,4.000000,4.000000,4.000000,4.000000,4.000000,4.000000,100.000000,,,,,,,,,,,,,,,,,,,,,,,,,,,,,,,,,,,,,,,,,,,,,,,,,,,,,,,,,,,,,,,,,,,,,,,,,,,,,,,,,,,,,,,,,,,,,,,,,,,,,,,,,,,,,,,,,,,,,
1768210866.032227,1768210866.032527,38.000000,0.000000,4352.563965,4329.358887,4354.102539,4347.820313,4311.666504,4315.512695,4311.794922,4336.666504,4323.333496,4310.128418,4523.461426,4491.666504,4413.846191,4482.436035,0.000000,4.000000,80.000000,,,,0.000000,4.000000,4.000000,4.000000,4.000000,4.000000,4.000000,4.000000,4.000000,4.000000,4.000000,4.000000,4.000000,4.000000,4.000000,100.000000,,,,,,,,,,,,,,,,,,,,,,,,,,,,,,,,,,,,,,,,,,,,,,,,0.822027,0.112553,0.088157,0.063158,0.033577,0.745319,0.386854,0.446052,0.112874,0.078547,1.337394,0.115553,0.150813,0.159188,0.076896,0.680613,0.166292,0.262268,0.181744,0.088931,0.566328,0.226795,0.260309,0.078627,0.061510,0.241416,0.175145,0.084297,0.042923,0.050489,0.337281,0.428662,0.227576,0.144266,0.120443,0.444154,0.346960,0.194442,0.146625,0.281601,0.488411,0.191702,0.165163,0.165304,0.133559,0.579121,0.263433,0.221595,0.193559,0.202288,1.082425,0.399372,0.406481,0.230134,0.186820,1.614016,0.351613,0.169450,0.231058,0.165845,9.857901,2.801018,0.711374,0.342478,0.126534,2.086272,0.269484,0.231729,0.363781,0.168075
