Timestamp,OriginalTimestamp,EEG.Counter,EEG.Interpolated,EEG.AF3,EEG.F7,EEG.F3,EEG.FC5,EEG.T7,EEG.P7,EEG.O1,EEG.O2,EEG.P8,EEG.T8,EEG.FC6,EEG.F4,EEG.F8,EEG.AF4,POW.AF3.Theta,POW.AF3.Alpha,POW.AF3.BetaL,POW.AF3.BetaH,POW.AF3.Gamma,POW.F7.Theta,POW.F7.Alpha,POW.F7.BetaL,POW.F7.BetaH,POW.F7.Gamma,POW.F3.Theta,POW.F3.Alpha,POW.F3.BetaL,POW.F3.BetaH,POW.F3.Gamma,POW.FC5.Theta,POW.FC5.Alpha,POW.FC5.BetaL,POW.FC5.BetaH,POW.FC5.Gamma,POW.T7.Theta,POW.T7.Alpha,POW.T7.BetaL,POW.T7.BetaH,POW.T7.Gamma,POW.P7.Theta,POW.P7.Alpha,POW.P7.BetaL,POW.P7.BetaH,POW.P7.Gamma,POW.O1.Theta,POW.O1.Alpha,POW.O1.BetaL,POW.O1.BetaH,POW.O1.Gamma,POW.O2.Theta,POW.O2.Alpha,POW.O2.BetaL,POW.O2.BetaH,POW.O2.Gamma,POW.P8.Theta,POW.P8.Alpha,POW.P8.BetaL,POW.P8.BetaH,POW.P8.Gamma,POW.T8.Theta,POW.T8.Alpha,POW.T8.BetaL,POW.T8.BetaH,POW.T8.Gamma,POW.FC6.Theta,POW.FC6.Alpha,POW.FC6.BetaL,POW.FC6.BetaH,POW.FC6.Gamma,POW.F4.Theta,POW.F4.Alpha,POW.F4.BetaL,POW.F4.BetaH,POW.F4.Gamma,POW.F8.Theta,POW.F8.Alpha,POW.F8.BetaL,POW.F8.BetaH,POW.F8.Gamma,POW.AF4.Theta,POW.AF4.Alpha,POW.AF4.BetaL,POW.AF4.BetaH,POW.AF4.Gamma
1768973183.061897,1768973183.062598,49.0,0.0,4388.333496,4367.307617,4369.871582,4390.0,4388.589844,4398.205078,4400.769043,4410.641113,4394.615234,4369.487305,4473.974121,4534.871582,4410.897461,4442.94873,,,,,,,,,,,,,,,,,,,,,,,,,,,,,,,,,,,,,,,,,,,,,,,,,,,,,,,,,,,,,,,,,,,,,,
1768973183.069706,1768973183.070306,50.0,0.0,4403.077148,4378.461426,4376.538574,4401.153809,4392.820313,4394.615234,4395.0,4415.897461,4406.538574,4384.358887,4494.615234,4548.974121,4431.410156,4466.922852,,,,,,,,,,,,,,,,,,,,,,,,,,,,,,,,,,,,,,,,,,,,,,,,,,,,,,,,,,,,,,,,,,,,,,
1768973183.077514,1768973183.078115,51.0,0.0,4413.974121,4393.077148,4378.974121,4408.717773,4393.077148,4394.230957,4396.794922,4427.179688,4415.641113,4396.666504,4505.128418,4561.410156,4444.230957,4478.333496,,,,,,,,,,,,,,,,,,,,,,,,,,,,,,,,,,,,,,,,,,,,,,,,,,,,,,,,,,,,,,,,,,,,,,
1768973183.085323,1768973183.085723,52.0,0.0,4410.641113,4393.717773,4380.641113,4406.153809,4395.897461,4399.230957,4401.666504,4426.410156,4412.179688,4392.436035,4497.563965,4558.205078,4433.589844,4464.615234,,,,,,,,,,,,,,,,,,,,,,,,,,,,,,,,,,,,,,,,,,,,,,,,,,,,,,,,,,,,,,,,,,,,,,
1768973183.093131,1768973183.093532,53.0,0.0,4408.974121,4388.461426,4381.794922,4406.282227,4399.102539,4396.282227,4397.307617,4421.794922,4409.743652,4383.846191,4490.0,4554.743652,4427.05127,4455.384766,,,,,,,,,,,,,,,,,,,,,,,,,,,,,,,,,,,,,,,,,,,,,,,,,,,,,,,,,,,,,,,,,,,,,,
1768973183.10094,1768973183.10124,54.0,0.0,4412.94873,4387.692383,4380.512695,4407.436035,4397.307617,4395.384766,4396.025879,4424.743652,4411.025879,4385.512695,4495.641113,4557.820313,4432.436035,4462.05127,,,,,,,,,,,,,,,,,,,,,,,,,,,,,,,,,,,,,,,,,,,,,,,,,,,,,,,,,,,,,,,,,,,,,,
1768973183.108748,1768973183.109049,55.0,0.0,4411.794922,4390.512695,4377.179688,4404.487305,4392.94873,4397.307617,4400.769043,4427.436035,4407.692383,4388.461426,4501.025879,4558.077148,4432.563965,4465.769043,,,,,,,,,,,,,,,,,,,,,,,,,,,,,,,,,,,,,,,,,,,,,,,,,,,,,,,,,,,,,,,,,,,,,,
1768973183.116557,1768973183.117057,56.0,0.0,4406.025879,4390.384766,4374.487305,4398.974121,4388.077148,4389.102539,4397.05127,4422.436035,4404.615234,4381.666504,4496.282227,4558.077148,4428.461426,4462.05127,,,,,,,,,,,,,,,,,,,,,,,,,,,,,,,,,,,,,,,,,,,,,,,,,,,,,,,,,,,,,,,,,,,,,,
1768973183.124365,1768973183.124865,57.0,0.0,4406.410156,4387.436035,4373.846191,4395.641113,4386.794922,4385.897461,4391.410156,4418.205078,4403.077148,4378.589844,4497.692383,4562.05127,4429.743652,4467.692383,,,,,,,,,,,,,,,,,,,,,,,,,,,,,,,,,,,,,,,,,,,,,,,,,,,,,,,,,,,,,,,,,,,,,,
1768973183.132173,1768973183.132774,58.0,0.0,4411.025879,4390.384766,4375.512695,4397.436035,4387.179688,4389.743652,4394.487305,4419.358887,4402.179688,4383.717773,4502.05127,4561.666504,4431.794922,4472.307617,,,,,,,,,,,,,,,,,,,,,,,,,,,,,,,,,,,,,,,,,,,,,,,,,,,,,,,,,,,,,,,,,,,,,,
1768973183.139982,1768973183.140582,59.0,0.0,4413.717773,4395.128418,4381.410156,4403.205078,4386.922852,4387.692383,4398.077148,4425.128418,4407.692383,4381.153809,4496.538574,4556.922852,4430.897461,4465.641113,,,,,,,,,,,,,,,,,,,,,,,,,,,,,,,,,,,,,,,,,,,,,,,,,,,,,,,,,,,,,,,,,,,,,,
1768973183.14779,1768973183.14859,60.0,0.0,4413.717773,4393.077148,4386.794922,4404.871582,4387.563965,4387.179688,4395.512695,4423.333496,4407.563965,4375.897461,4488.333496,4554.487305,4428.461426,4466.282227,,,,,,,,,,,,,,,,,,,,,,,,,,,,,,,,,,,,,,,,,,,,,,,,,,,,,,,,,,,,,,,,,,,,,,
1768973183.155599,1768973183.156399,61.0,0.0,4414.230957,4390.512695,4384.615234,4400.897461,4388.974121,4390.0,4390.769043,4411.666504,4397.94873,4379.615234,4491.666504,4555.769043,4426.666504,4474.743652,,,,,,,,,,,,,,,,,,,,,,,,,,,,,,,,,,,,,,,,,,,,,,,,,,,,,,,,,,,,,,,,,,,,,,
1768973183.163407,1768973183.164307,62.0,0.0,4413.461426,4397.436035,4377.307617,4398.717773,4387.436035,4386.538574,4390.512695,4409.871582,4394.743652,4382.94873,4495.897461,4550.0,4429.743652,4470.0,1.492187,0.2232,0.623498,0.161603,0.166265,1.560808,0.456419,0.533141,0.193592,0.142855,0.711342,0.108605,0.276057,0.0795,0.086669,0.937369,0.298465,0.218233,0.111953,0.094215,0.185147,0.081058,0.032774,0.064471,0.053981,0.207494,0.247663,0.162735,0.169241,0.170319,0.310359,0.282206,0.197288,0.204245,0.172313,0.350871,0.222865,0.215171,0.152385,0.151234,0.614631,0.227058,0.16108,0.116112,0.089179,0.583658,0.219761,0.120792,0.193309,0.178143,1.327507,0.311735,0.216359,0.175399,0.12643,2.424378,0.432202,0.462665,0.239242,0.129061,1.341076,0.192129,0.203281,0.206634,0.136047,1.233043,0.179253,0.245415,0.238994,0.161403
1768973183.171216,1768973183.172116,63.0,0.0,4407.563965,4397.94873,4370.256348,4395.897461,4383.846191,4382.820313,4390.641113,4414.230957,4393.333496,4376.538574,4488.333496,4541.025879,4428.077148,4456.794922,,,,,,,,,,,,,,,,,,,,,,,,,,,,,,,,,,,,,,,,,,,,,,,,,,,,,,,,,,,,,,,,,,,,,,
1768973183.179024,1768973183.179724,64.0,0.0,4402.820313,4388.846191,4370.897461,4393.589844,4385.641113,4386.025879,4391.666504,4413.974121,4389.743652,4372.820313,4484.487305,4544.102539,4420.641113,4460.512695,,,,,,,,,,,,,,,,,,,,,,,,,,,,,,,,,,,,,,,,,,,,,,,,,,,,,,,,,,,,,,,,,,,,,,
1768973183.186833,1768973183.187533,65.0,0.0,4407.436035,4389.743652,4376.410156,4396.025879,4386.794922,4388.077148,4395.256348,4416.922852,4393.717773,4377.05127,4490.769043,4551.153809,4422.436035,4468.333496,,,,,,,,,,,,,,,,,,,,,,,,,,,,,,,,,,,,,,,,,,,,,,,,,,,,,,,,,,,,,,,,,,,,,,
1768973183.194641,1768973183.195241,66.0,0.0,4410.641113,4399.358887,4373.846191,4397.692383,4381.538574,4386.410156,4395.897461,4420.0,4394.230957,4375.641113,4488.205078,4544.871582,4427.179688,4463.461426,,,,,,,,,,,,,,,,,,,,,,,,,,,,,,,,,,,,,,,,,,,,,,,,,,,,,,,,,,,,,,,,,,,,,,
1768973183.202449,1768973183.20305,67.0,0.0,4402.05127,4397.820313,4367.05127,4394.615234,4379.743652,4383.461426,4389.230957,4414.615234,4386.410156,4369.230957,4476.282227,4535.256348,4422.179688,4458.461426,,,,,,,,,,,,,,,,,,,,,,,,,,,,,,,,,,,,,,,,,,,,,,,,,,,,,,,,,,,,,,,,,,,,,,
1768973183.210258,1768973183.210658,68.0,0.0,4396.666504,4389.358887,4368.077148,4393.589844,4381.794922,4380.384766,4386.282227,4414.615234,4389.871582,4371.922852,4482.436035,4541.282227,4421.666504,4459.615234,,,,,,,,,,,,,,,,,,,,,,,,,,,,,,,,,,,,,,,,,,,,,,,,,,,,,,,,,,,,,,,,,,,,,,
1768973183.218066,1768973183.218467,69.0,0.0,4401.666504,4386.410156,4370.641113,4395.512695,4380.897461,4380.512695,4390.384766,4421.794922,4397.692383,4377.692383,4491.282227,4552.692383,4428.333496,4461.538574,,,,,,,,,,,,,,,,,,,,,,,,,,,,,,,,,,,,,,,,,,,,,,,,,,,,,,,,,,,,,,,,,,,,,,
1768973183.225875,1768973183.226175,70.0,0.0,4405.897461,4389.487305,4371.922852,4396.282227,4380.641113,4387.436035,4393.333496,4420.769043,4392.563965,4367.436035,4480.256348,4552.307617,4420.897461,4460.512695,,,,,,,,,,,,,,,,,,,,,,,,,,,,,,,,,,,,,,,,,,,,,,,,,,,,,,,,,,,,,,,,,,,,,,
1768973183.233683,1768973183.233984,71.0,0.0,4403.077148,4393.589844,4373.717773,4395.512695,4381.922852,4396.153809,4396.922852,4414.230957,4385.641113,4355.128418,4472.307617,4547.05127,4409.487305,4455.256348,,,,,,,,,,,,,,,,,,,,,,,,,,,,,,,,,,,,,,,,,,,,,,,,,,,,,,,,,,,,,,,,,,,,,,
1768973183.241492,1768973183.241992,72.0,0.0,4396.538574,4396.794922,4368.461426,4395.0,4381.282227,4393.461426,4395.641113,4412.94873,4390.256348,4364.102539,4477.436035,4545.641113,4411.538574,4451.282227,,,,,,,,,,,,,,,,,,,,,,,,,,,,,,,,,,,,,,,,,,,,,,,,,,,,,,,,,,,,,,,,,,,,,,
1768973183.2493,1768973183.2498,73.0,0.0,4393.077148,4397.94873,4362.307617,4394.358887,4381.153809,4387.563965,4391.153809,4416.153809,4399.230957,4377.307617,4478.461426,4546.153809,4417.179688,4453.205078,,,,,,,,,,,,,,,,,,,,,,,,,,,,,,,,,,,,,,,,,,,,,,,,,,,,,,,,,,,,,,,,,,,,,,
1768973183.257109,1768973183.257709,74.0,0.0,4395.897461,4397.179688,4366.794922,4395.256348,4382.436035,4397.436035,4400.384766,4416.153809,4397.820313,4378.461426,4480.128418,4547.05127,4421.282227,4456.794922,,,,,,,,,,,,,,,,,,,,,,,,,,,,,,,,,,,,,,,,,,,,,,,,,,,,,,,,,,,,,,,,,,,,,,
1768973183.264917,1768973183.265517,75.0,0.0,4396.538574,4396.410156,4374.743652,4397.307617,4382.05127,4395.897461,4400.769043,4416.282227,4394.743652,4374.358887,4486.666504,4551.794922,4420.641113,4457.94873,,,,,,,,,,,,,,,,,,,,,,,,,,,,,,,,,,,,,,,,,,,,,,,,,,,,,,,,,,,,,,,,,,,,,,
1768973183.272725,1768973183.273126,76.0,0.0,4393.974121,4398.205078,4372.436035,4396.794922,4380.256348,4376.922852,4382.05127,4413.205078,4397.692383,4368.717773,4482.94873,4552.436035,4414.358887,4458.846191,,,,,,,,,,,,,,,,,,,,,,,,,,,,,,,,,,,,,,,,,,,,,,,,,,,,,,,,,,,,,,,,,,,,,,
1768973183.280534,1768973183.280934,77.0,0.0,4395.0,4398.205078,4365.512695,4395.256348,4380.256348,4378.461426,4382.307617,4400.769043,4390.256348,4365.0,4474.871582,4541.538574,4410.641113,4457.05127,,,,,,,,,,,,,,,,,,,,,,,,,,,,,,,,,,,,,,,,,,,,,,,,,,,,,,,,,,,,,,,,,,,,,,
1768973183.288342,1768973183.288643,78.0,0.0,4397.436035,4397.307617,4366.538574,4394.487305,4381.538574,4388.461426,4396.153809,4396.025879,4381.153809,4369.615234,4471.922852,4534.102539,4411.794922,4454.615234,1.245899,0.27095,0.635729,0.157562,0.153132,1.755224,0.52452,0.488608,0.167131,0.13426,0.499749,0.117482,0.247622,0.081571,0.088708,1.005526,0.362861,0.225075,0.114258,0.095114,0.198437,0.09446,0.036529,0.056857,0.057789,0.186938,0.253028,0.143722,0.13113,0.171781,0.234491,0.217897,0.195774,0.162078,0.164453,0.26168,0.187298,0.217913,0.1579,0.15953,0.610219,0.214695,0.169956,0.12521,0.091493,0.637351,0.272244,0.099281,0.197885,0.195146,1.467903,0.29573,0.215602,0.161456,0.138539,2.213275,0.42101,0.397601,0.242262,0.13669,1.801246,0.200005,0.236392,0.217331,0.160128,1.194418,0.215015,0.265779,0.26535,0.181226
1768973183.296151,1768973183.296451,79.0,0.0,4398.589844,4404.358887,4372.179688,4395.769043,4382.692383,4381.538574,4390.641113,4403.589844,4388.333496,4376.922852,4475.128418,4541.794922,4415.256348,4457.563965,,,,,,,,,,,,,,,,,,,,,,,,,,,,,,,,,,,,,,,,,,,,,,,,,,,,,,,,,,,,,,,,,,,,,,
1768973183.303959,1768973183.30446,80.0,0.0,4397.307617,4410.769043,4374.230957,4398.205078,4382.692383,4380.128418,4387.179688,4404.615234,4394.743652,4377.563965,4484.487305,4549.743652,4419.615234,4460.897461,,,,,,,,,,,,,,,,,,,,,,,,,,,,,,,,,,,,,,,,,,,,,,,,,,,,,,,,,,,,,,,,,,,,,,
1768973183.311768,1768973183.312268,81.0,0.0,4394.615234,4407.05127,4375.641113,4398.717773,4381.282227,4391.025879,4398.461426,4403.589844,4394.102539,4373.717773,4487.436035,4549.102539,4422.820313,4460.384766,,,,,,,,,,,,,,,,,,,,,,,,,,,,,,,,,,,,,,,,,,,,,,,,,,,,,,,,,,,,,,,,,,,,,,
1768973183.319576,1768973183.320176,82.0,0.0,4398.589844,4406.153809,4379.230957,4396.666504,4379.487305,4388.205078,4393.333496,4407.179688,4395.512695,4371.282227,4481.153809,4545.128418,4422.692383,4459.487305,,,,,,,,,,,,,,,,,,,,,,,,,,,,,,,,,,,,,,,,,,,,,,,,,,,,,,,,,,,,,,,,,,,,,,
1768973183.327385,1768973183.327985,83.0,0.0,4407.179688,4410.128418,4379.615234,4396.025879,4380.128418,4382.307617,4386.922852,4401.538574,4390.641113,4370.128418,4475.769043,4539.102539,4423.461426,4458.717773,,,,,,,,,,,,,,,,,,,,,,,,,,,,,,,,,,,,,,,,,,,,,,,,,,,,,,,,,,,,,,,,,,,,,,
1768973183.335193,1768973183.335993,84.0,0.0,4404.743652,4406.282227,4378.974121,4399.102539,4381.153809,4389.615234,4396.794922,4399.230957,4386.666504,4372.307617,4476.922852,4539.102539,4427.436035,4458.077148,,,,,,,,,,,,,,,,,,,,,,,,,,,,,,,,,,,,,,,,,,,,,,,,,,,,,,,,,,,,,,,,,,,,,,
1768973183.343001,1768973183.343802,85.0,0.0,4395.384766,4402.05127,4377.692383,4399.102539,4379.743652,4390.128418,4395.384766,4409.102539,4398.205078,4371.922852,4483.717773,4548.461426,4430.641113,4458.589844,,,,,,,,,,,,,,,,,,,,,,,,,,,,,,,,,,,,,,,,,,,,,,,,,,,,,,,,,,,,,,,,,,,,,,
1768973183.35081,1768973183.35171,86.0,0.0,4397.05127,4405.769043,4376.025879,4397.179688,4381.025879,4381.153809,4382.820313,4407.307617,4400.897461,4367.179688,4487.94873,4551.282227,4428.333496,4460.512695,,,,,,,,,,,,,,,,,,,,,,,,,,,,,,,,,,,,,,,,,,,,,,,,,,,,,,,,,,,,,,,,,,,,,,
1768973183.358618,1768973183.359518,87.0,0.0,4401.794922,4405.769043,4376.794922,4399.230957,4383.717773,4382.692383,4386.153809,4399.871582,4391.153809,4372.436035,4484.743652,4547.05127,4426.666504,4461.538574,,,,,,,,,,,,,,,,,,,,,,,,,,,,,,,,,,,,,,,,,,,,,,,,,,,,,,,,,,,,,,,,,,,,,,
1768973183.366427,1768973183.367327,88.0,0.0,4397.692383,4399.743652,4376.794922,4397.179688,4382.307617,4390.256348,4396.153809,4400.641113,4390.512695,4382.436035,4481.282227,4544.358887,4428.974121,4457.692383,,,,,,,,,,,,,,,,,,,,,,,,,,,,,,,,,,,,,,,,,,,,,,,,,,,,,,,,,,,,,,,,,,,,,,
1768973183.374235,1768973183.375135,89.0,0.0,4393.077148,4396.666504,4375.897461,4392.05127,4381.794922,4390.128418,4395.641113,4407.05127,4397.563965,4380.128418,4486.153809,4544.487305,4427.05127,4456.153809,,,,,,,,,,,,,,,,,,,,,,,,,,,,,,,,,,,,,,,,,,,,,,,,,,,,,,,,,,,,,,,,,,,,,,
1768973183.382044,1768973183.382844,90.0,0.0,4395.0,4398.717773,4375.256348,4393.717773,4383.205078,4391.410156,4397.307617,4417.692383,4403.205078,4376.282227,4491.410156,4548.077148,4424.230957,4460.0,,,,,,,,,,,,,,,,,,,,,,,,,,,,,,,,,,,,,,,,,,,,,,,,,,,,,,,,,,,,,,,,,,,,,,
1768973183.389852,1768973183.390652,91.0,0.0,4401.794922,4402.05127,4376.410156,4397.179688,4383.717773,4395.128418,4398.974121,4414.615234,4397.94873,4379.358887,4491.794922,4550.0,4427.307617,4462.563965,,,,,,,,,,,,,,,,,,,,,,,,,,,,,,,,,,,,,,,,,,,,,,,,,,,,,,,,,,,,,,,,,,,,,,
1768973183.397661,1768973183.398261,92.0,0.0,4406.153809,4403.205078,4378.846191,4397.179688,4386.410156,4389.615234,4393.333496,4397.692383,4386.153809,4376.025879,4485.256348,4542.692383,4426.153809,4461.794922,,,,,,,,,,,,,,,,,,,,,,,,,,,,,,,,,,,,,,,,,,,,,,,,,,,,,,,,,,,,,,,,,,,,,,
1768973183.405469,1768973183.406069,93.0,0.0,4401.153809,4404.358887,4376.025879,4397.05127,4387.563965,4381.025879,4389.102539,4396.410156,4386.794922,4369.615234,4475.128418,4535.769043,4420.0,4460.384766,,,,,,,,,,,,,,,,,,,,,,,,,,,,,,,,,,,,,,,,,,,,,,,,,,,,,,,,,,,,,,,,,,,,,,
1768973183.413278,1768973183.413778,94.0,0.0,4394.358887,4404.487305,4369.230957,4396.666504,4384.615234,4379.358887,4389.743652,4408.846191,4396.538574,4371.153809,4479.102539,4538.333496,4421.922852,4460.0,1.065477,0.335509,0.591828,0.152152,0.139019,1.910097,0.588427,0.41942,0.138749,0.126031,0.38413,0.142487,0.212565,0.083586,0.087507,1.040429,0.408277,0.212663,0.111228,0.092899,0.218808,0.122394,0.041022,0.051101,0.063904,0.185515,0.259719,0.133188,0.109752,0.172629,0.208843,0.176226,0.201714,0.142012,0.168438,0.24074,0.161803,0.227028,0.173882,0.175686,0.627619,0.199483,0.190468,0.140877,0.103195,0.689424,0.329861,0.09326,0.200037,0.200805,1.600765,0.303672,0.209445,0.160722,0.155475,1.934668,0.437316,0.338968,0.237252,0.156547,2.261515,0.264008,0.259312,0.232582,0.186943,1.269107,0.290628,0.283043,0.295207,0.212679
1768973183.421086,1768973183.421586,95.0,0.0,4395.769043,4403.846191,4370.128418,4396.025879,4383.589844,4385.256348,4391.922852,4408.205078,4398.205078,4375.512695,4492.820313,4543.077148,4430.641113,4459.871582,,,,,,,,,,,,,,,,,,,,,,,,,,,,,,,,,,,,,,,,,,,,,,,,,,,,,,,,,,,,,,,,,,,,,,
1768973183.428894,1768973183.429195,96.0,0.0,4401.025879,4406.025879,4374.743652,4396.794922,4386.025879,4391.922852,4393.461426,4402.307617,4397.05127,4375.256348,4493.205078,4546.922852,4432.436035,4460.641113,,,,,,,,,,,,,,,,,,,,,,,,,,,,,,,,,,,,,,,,,,,,,,,,,,,,,,,,,,,,,,,,,,,,,,
1768973183.436703,1768973183.437003,97.0,0.0,4399.102539,4405.897461,4372.05127,4394.871582,4385.512695,4390.897461,4395.769043,4402.436035,4398.589844,4363.461426,4479.743652,4542.94873,4419.615234,4459.358887,,,,,,,,,,,,,,,,,,,,,,,,,,,,,,,,,,,,,,,,,,,,,,,,,,,,,,,,,,,,,,,,,,,,,,
1768973183.444511,1768973183.444912,98.0,0.0,4395.769043,4404.230957,4371.922852,4392.307617,4382.179688,4384.615234,4393.589844,4399.743652,4393.205078,4356.922852,4474.615234,4535.641113,4412.05127,4456.922852,,,,,,,,,,,,,,,,,,,,,,,,,,,,,,,,,,,,,,,,,,,,,,,,,,,,,,,,,,,,,,,,,,,,,,
1768973183.45232,1768973183.45272,99.0,0.0,4400.769043,4407.820313,4377.05127,4395.769043,4382.563965,4384.358887,4389.230957,4398.077148,4390.769043,4367.179688,4478.461426,4541.922852,4421.666504,4459.871582,,,,,,,,,,,,,,,,,,,,,,,,,,,,,,,,,,,,,,,,,,,,,,,,,,,,,,,,,,,,,,,,,,,,,,
1768973183.460128,1768973183.460728,100.0,0.0,4403.717773,4408.461426,4376.153809,4396.025879,4385.256348,4391.025879,4391.410156,4398.717773,4395.384766,4373.205078,4476.794922,4548.461426,4427.307617,4460.512695,,,,,,,,,,,,,,,,,,,,,,,,,,,,,,,,,,,,,,,,,,,,,,,,,,,,,,,,,,,,,,,,,,,,,,
1768973183.467937,1768973183.468537,101.0,0.0,4396.922852,4398.589844,4372.692383,4391.410156,4383.974121,4391.025879,4396.666504,4401.794922,4398.461426,4371.794922,4480.384766,4546.025879,4425.897461,4458.333496,,,,,,,,,,,,,,,,,,,,,,,,,,,,,,,,,,,,,,,,,,,,,,,,,,,,,,,,,,,,,,,,,,,,,,
1768973183.475745,1768973183.476245,102.0,0.0,4394.615234,4396.922852,4373.589844,4392.692383,4380.256348,4386.153809,4395.512695,4404.743652,4396.025879,4375.0,4487.563965,4547.94873,4425.0,4459.615234,,,,,,,,,,,,,,,,,,,,,,,,,,,,,,,,,,,,,,,,,,,,,,,,,,,,,,,,,,,,,,,,,,,,,,
1768973183.483553,1768973183.484054,103.0,0.0,4398.589844,4410.512695,4376.153809,4398.717773,4382.820313,4390.512695,4397.563965,4404.358887,4394.230957,4372.179688,4482.820313,4549.743652,4418.846191,4456.153809,,,,,,,,,,,,,,,,,,,,,,,,,,,,,,,,,,,,,,,,,,,,,,,,,,,,,,,,,,,,,,,,,,,,,,
1768973183.491362,1768973183.492062,104.0,0.0,4396.922852,4414.615234,4378.461426,4400.384766,4385.128418,4394.743652,4402.436035,4406.025879,4397.05127,4363.589844,4470.0,4544.230957,4409.358887,4444.487305,,,,,,,,,,,,,,,,,,,,,,,,,,,,,,,,,,,,,,,,,,,,,,,,,,,,,,,,,,,,,,,,,,,,,,
1768973183.49917,1768973183.499871,105.0,0.0,4395.512695,4405.769043,4377.563965,4397.692383,4378.846191,4384.230957,4393.717773,4403.717773,4396.410156,4360.769043,4466.282227,4540.897461,4408.461426,4440.897461,,,,,,,,,,,,,,,,,,,,,,,,,,,,,,,,,,,,,,,,,,,,,,,,,,,,,,,,,,,,,,,,,,,,,,
1768973183.506979,1768973183.507579,106.0,0.0,4400.512695,4402.436035,4375.641113,4396.794922,4378.461426,4380.384766,4389.615234,4396.794922,4389.487305,4359.102539,4469.615234,4543.205078,4411.025879,4452.307617,,,,,,,,,,,,,,,,,,,,,,,,,,,,,,,,,,,,,,,,,,,,,,,,,,,,,,,,,,,,,,,,,,,,,,
1768973183.514787,1768973183.515388,107.0,0.0,4402.692383,4406.794922,4377.179688,4397.179688,4384.230957,4389.487305,4399.230957,4396.282227,4388.333496,4360.641113,4473.077148,4545.769043,4410.128418,4460.641113,,,,,,,,,,,,,,,,,,,,,,,,,,,,,,,,,,,,,,,,,,,,,,,,,,,,,,,,,,,,,,,,,,,,,,
1768973183.522596,1768973183.523396,108.0,0.0,4402.820313,4409.358887,4378.589844,4394.871582,4379.871582,4385.897461,4396.410156,4399.102539,4394.743652,4369.358887,4476.794922,4546.153809,4414.871582,4460.384766,,,,,,,,,,,,,,,,,,,,,,,,,,,,,,,,,,,,,,,,,,,,,,,,,,,,,,,,,,,,,,,,,,,,,,
1768973183.530404,1768973183.531204,109.0,0.0,4404.230957,4409.102539,4376.410156,4391.666504,4372.94873,4373.077148,4383.461426,4395.0,4391.282227,4374.358887,4478.205078,4545.512695,4421.794922,4460.384766,,,,,,,,,,,,,,,,,,,,,,,,,,,,,,,,,,,,,,,,,,,,,,,,,,,,,,,,,,,,,,,,,,,,,,
1768973183.538212,1768973183.539113,110.0,0.0,4405.256348,4410.641113,4372.307617,4391.410156,4375.0,4370.641113,4375.769043,4387.94873,4380.512695,4369.615234,4478.846191,4547.436035,4425.0,4465.769043,0.970252,0.418852,0.501629,0.146198,0.126798,2.009174,0.64562,0.352185,0.115127,0.120537,0.380212,0.184534,0.183233,0.087425,0.083876,1.024895,0.437116,0.185294,0.10509,0.087761,0.24082,0.164558,0.04563,0.046678,0.069539,0.200039,0.262583,0.135275,0.105725,0.175017,0.215659,0.15616,0.215061,0.143819,0.18092,0.278749,0.145376,0.240065,0.196985,0.194424,0.642201,0.17999,0.221578,0.16194,0.121661,0.720087,0.390278,0.104258,0.199935,0.195134,1.665005,0.335335,0.194485,0.17439,0.176977,1.693309,0.480647,0.289281,0.224193,0.185853,2.554016,0.38628,0.26648,0.250699,0.209895,1.435503,0.399911,0.300969,0.324241,0.250288
1768973183.546021,1768973183.546921,111.0,0.0,4404.230957,4412.307617,4370.897461,4391.666504,4375.512695,4372.179688,4370.384766,4386.538574,4381.025879,4362.179688,4477.94873,4548.717773,4421.153809,4468.846191,,,,,,,,,,,,,,,,,,,,,,,,,,,,,,,,,,,,,,,,,,,,,,,,,,,,,,,,,,,,,,,,,,,,,,
1768973183.553829,1768973183.554829,112.0,0.0,4398.717773,4411.922852,4370.897461,4388.333496,4369.871582,4373.205078,4372.179688,4387.563965,4384.871582,4358.846191,4471.282227,4540.128418,4412.820313,4462.179688,,,,,,,,,,,,,,,,,,,,,,,,,,,,,,,,,,,,,,,,,,,,,,,,,,,,,,,,,,,,,,,,,,,,,,
1768973183.561638,1768973183.562638,113.0,0.0,4393.846191,4411.538574,4370.256348,4390.769043,4370.256348,4378.717773,4381.410156,4386.025879,4381.538574,4361.794922,4466.538574,4534.230957,4410.128418,4457.820313,,,,,,,,,,,,,,,,,,,,,,,,,,,,,,,,,,,,,,,,,,,,,,,,,,,,,,,,,,,,,,,,,,,,,,
1768973183.569446,1768973183.570546,114.0,0.0,4397.05127,4412.94873,4369.615234,4396.666504,4374.743652,4379.743652,4382.692383,4388.717773,4383.461426,4366.666504,4471.666504,4540.384766,4412.307617,4459.743652,,,,,,,,,,,,,,,,,,,,,,,,,,,,,,,,,,,,,,,,,,,,,,,,,,,,,,,,,,,,,,,,,,,,,,
1768973183.577255,1768973183.578355,115.0,0.0,4401.666504,4413.205078,4368.846191,4392.436035,4372.820313,4376.794922,4381.282227,4393.717773,4389.487305,4365.384766,4477.692383,4540.641113,4414.743652,4460.384766,,,,,,,,,,,,,,,,,,,,,,,,,,,,,,,,,,,,,,,,,,,,,,,,,,,,,,,,,,,,,,,,,,,,,,
1768973183.585063,1768973183.585963,116.0,0.0,4399.102539,4408.717773,4367.307617,4386.025879,4370.641113,4379.615234,4385.128418,4392.436035,4389.230957,4360.128418,4473.461426,4531.410156,4414.230957,4461.025879,,,,,,,,,,,,,,,,,,,,,,,,,,,,,,,,,,,,,,,,,,,,,,,,,,,,,,,,,,,,,,,,,,,,,,
1768973183.592872,1768973183.593772,117.0,0.0,4395.256348,4406.922852,4365.769043,4386.538574,4377.05127,4383.333496,4388.461426,4391.666504,4388.205078,4359.743652,4470.641113,4528.461426,4411.666504,4459.102539,,,,,,,,,,,,,,,,,,,,,,,,,,,,,,,,,,,,,,,,,,,,,,,,,,,,,,,,,,,,,,,,,,,,,,
1768973183.60068,1768973183.60148,118.0,0.0,4395.0,4403.333496,4366.153809,4387.436035,4379.358887,4383.077148,4389.102539,4395.128418,4388.077148,4359.358887,4475.256348,4532.820313,4411.025879,4453.333496,,,,,,,,,,,,,,,,,,,,,,,,,,,,,,,,,,,,,,,,,,,,,,,,,,,,,,,,,,,,,,,,,,,,,,
1768973183.608488,1768973183.609289,119.0,0.0,4395.641113,4397.307617,4364.487305,4386.538574,4373.589844,4376.410156,4380.897461,4390.384766,4381.282227,4351.666504,4475.384766,4531.922852,4412.820313,4453.077148,,,,,,,,,,,,,,,,,,,,,,,,,,,,,,,,,,,,,,,,,,,,,,,,,,,,,,,,,,,,,,,,,,,,,,
1768973183.616297,1768973183.616897,120.0,0.0,4397.179688,4402.820313,4365.769043,4386.410156,4373.717773,4369.743652,4371.282227,4385.0,4377.563965,4352.436035,4471.410156,4528.717773,4413.589844,4457.692383,,,,,,,,,,,,,,,,,,,,,,,,,,,,,,,,,,,,,,,,,,,,,,,,,,,,,,,,,,,,,,,,,,,,,,
1768973183.624105,1768973183.624706,121.0,0.0,4397.563965,4406.922852,4372.179688,4386.282227,4377.179688,4372.05127,4376.025879,4391.922852,4383.589844,4363.974121,4471.666504,4531.538574,4412.820313,4457.820313,,,,,,,,,,,,,,,,,,,,,,,,,,,,,,,,,,,,,,,,,,,,,,,,,,,,,,,,,,,,,,,,,,,,,,
1768973183.631914,1768973183.632414,122.0,0.0,4395.256348,4399.615234,4371.153809,4387.307617,4375.512695,4374.102539,4382.563965,4394.743652,4385.512695,4367.436035,4475.384766,4540.128418,4415.897461,4458.077148,,,,,,,,,,,,,,,,,,,,,,,,,,,,,,,,,,,,,,,,,,,,,,,,,,,,,,,,,,,,,,,,,,,,,,
1768973183.639722,1768973183.640223,123.0,0.0,4395.897461,4397.436035,4365.0,4387.436035,4377.692383,4373.333496,4380.256348,4385.256348,4379.871582,4365.897461,4476.794922,4545.384766,4419.102539,4462.179688,,,,,,,,,,,,,,,,,,,,,,,,,,,,,,,,,,,,,,,,,,,,,,,,,,,,,,,,,,,,,,,,,,,,,,
1768973183.647531,1768973183.648231,124.0,0.0,4398.717773,4399.358887,4367.820313,4384.871582,4383.717773,4378.974121,4382.436035,4386.538574,4379.487305,4370.384766,4476.282227,4544.743652,4419.102539,4463.589844,,,,,,,,,,,,,,,,,,,,,,,,,,,,,,,,,,,,,,,,,,,,,,,,,,,,,,,,,,,,,,,,,,,,,,
1768973183.655339,1768973183.65604,125.0,0.0,4394.871582,4394.102539,4375.769043,4389.487305,4383.333496,4384.358887,4390.512695,4400.641113,4390.0,4373.846191,4475.256348,4542.436035,4417.94873,4458.461426,,,,,,,,,,,,,,,,,,,,,,,,,,,,,,,,,,,,,,,,,,,,,,,,,,,,,,,,,,,,,,,,,,,,,,
1768973183.663148,1768973183.663948,126.0,0.0,4386.922852,4392.179688,4375.256348,4395.256348,4379.871582,4387.05127,4396.922852,4403.974121,4396.025879,4370.769043,4474.102539,4540.0,4413.974121,4450.769043,0.931149,0.509553,0.393885,0.139986,0.119065,2.043648,0.688524,0.306752,0.100761,0.119189,0.461417,0.238686,0.171734,0.095013,0.079325,0.958392,0.454458,0.152625,0.098361,0.080521,0.261491,0.21611,0.050257,0.042359,0.071755,0.229651,0.259473,0.150648,0.113231,0.180805,0.241369,0.147628,0.230908,0.159305,0.197499,0.361754,0.139143,0.248108,0.222808,0.211605,0.641319,0.161826,0.255275,0.187268,0.143866,0.728451,0.447771,0.129168,0.203675,0.182561,1.655084,0.379691,0.17049,0.205304,0.201478,1.547729,0.540219,0.244473,0.210075,0.218961,2.616167,0.540573,0.25816,0.270447,0.222971,1.642857,0.517302,0.320339,0.346002,0.28405
1768973183.670956,1768973183.671756,127.0,0.0,4385.256348,4396.282227,4368.717773,4391.794922,4379.358887,4392.436035,4399.743652,4397.692383,4391.025879,4367.436035,4474.487305,4538.077148,4411.282227,4444.743652,,,,,,,,,,,,,,,,,,,,,,,,,,,,,,,,,,,,,,,,,,,,,,,,,,,,,,,,,,,,,,,,,,,,,,
1768973183.678764,1768973183.679765,0.0,0.0,4391.538574,4395.641113,4366.025879,4386.922852,4377.692383,4385.897461,4392.563965,4397.436035,4388.974121,4367.307617,4470.384766,4534.102539,4413.717773,4444.743652,,,,,,,,,,,,,,,,,,,,,,,,,,,,,,,,,,,,,,,,,,,,,,,,,,,,,,,,,,,,,,,,,,,,,,
1768973183.686573,1768973183.687573,1.0,0.0,4396.282227,4396.282227,4368.717773,4389.615234,4377.05127,4373.077148,4378.205078,4395.384766,4388.333496,4362.692383,4466.538574,4527.820313,4413.974121,4452.94873,,,,,,,,,,,,,,,,,,,,,,,,,,,,,,,,,,,,,,,,,,,,,,,,,,,,,,,,,,,,,,,,,,,,,,
1768973183.694381,1768973183.695282,2.0,0.0,4389.487305,4398.205078,4370.512695,4392.436035,4377.05127,4374.743652,4371.922852,4388.974121,4381.794922,4354.743652,4467.692383,4527.179688,4411.922852,4457.05127,,,,,,,,,,,,,,,,,,,,,,,,,,,,,,,,,,,,,,,,,,,,,,,,,,,,,,,,,,,,,,,,,,,,,,
1768973183.70219,1768973183.70309,3.0,0.0,4381.282227,4396.025879,4365.128418,4383.333496,4374.743652,4379.615234,4377.692383,4390.512695,4378.589844,4358.205078,4466.922852,4530.769043,4412.179688,4449.487305,,,,,,,,,,,,,,,,,,,,,,,,,,,,,,,,,,,,,,,,,,,,,,,,,,,,,,,,,,,,,,,,,,,,,,
1768973183.709998,1768973183.711098,4.0,0.0,4378.974121,4389.230957,4356.922852,4371.666504,4370.769043,4377.94873,4385.256348,4394.102539,4382.820313,4363.333496,4460.0,4526.922852,4407.563965,4441.410156,,,,,,,,,,,,,,,,,,,,,,,,,,,,,,,,,,,,,,,,,,,,,,,,,,,,,,,,,,,,,,,,,,,,,,
1768973183.717807,1768973183.718907,5.0,0.0,4380.512695,4385.0,4357.94873,4373.077148,4370.897461,4378.846191,4387.436035,4394.102539,4387.179688,4357.05127,4457.179688,4522.692383,4400.512695,4441.538574,,,,,,,,,,,,,,,,,,,,,,,,,,,,,,,,,,,,,,,,,,,,,,,,,,,,,,,,,,,,,,,,,,,,,,
1768973183.725615,1768973183.726715,6.0,0.0,4389.487305,4397.692383,4369.615234,4384.871582,4374.487305,4384.358887,4391.922852,4400.641113,4394.743652,4360.256348,4467.692383,4535.897461,4409.230957,4451.153809,,,,,,,,,,,,,,,,,,,,,,,,,,,,,,,,,,,,,,,,,,,,,,,,,,,,,,,,,,,,,,,,,,,,,,
1768973183.733424,1768973183.734524,7.0,0.0,4400.256348,4412.563965,4378.846191,4391.922852,4375.128418,4383.205078,4394.743652,4404.358887,4401.666504,4372.820313,4479.743652,4551.025879,4421.922852,4463.846191,,,,,,,,,,,,,,,,,,,,,,,,,,,,,,,,,,,,,,,,,,,,,,,,,,,,,,,,,,,,,,,,,,,,,,
1768973183.741232,1768973183.742432,8.0,0.0,4400.256348,4413.205078,4374.230957,4386.922852,4373.589844,4375.512695,4386.153809,4395.769043,4394.487305,4368.589844,4480.512695,4550.0,4416.282227,4466.153809,,,,,,,,,,,,,,,,,,,,,,,,,,,,,,,,,,,,,,,,,,,,,,,,,,,,,,,,,,,,,,,,,,,,,,
1768973183.74904,1768973183.75024,9.0,0.0,4395.897461,4411.153809,4365.256348,4382.436035,4373.461426,4372.05127,4377.05127,4389.615234,4383.205078,4358.717773,4471.153809,4542.05127,4407.563965,4458.333496,,,,,,,,,,,,,,,,,,,,,,,,,,,,,,,,,,,,,,,,,,,,,,,,,,,,,,,,,,,,,,,,,,,,,,
1768973183.756849,1768973183.757949,10.0,0.0,4398.846191,4416.666504,4364.871582,4388.461426,4372.820313,4372.436035,4378.077148,4389.743652,4380.512695,4358.974121,4466.025879,4535.512695,4410.641113,4456.025879,,,,,,,,,,,,,,,,,,,,,,,,,,,,,,,,,,,,,,,,,,,,,,,,,,,,,,,,,,,,,,,,,,,,,,
1768973183.764657,1768973183.765757,11.0,0.0,4400.256348,4416.282227,4365.512695,4391.282227,4374.487305,4374.102539,4380.641113,4390.0,4379.102539,4356.410156,4466.153809,4531.410156,4415.0,4459.487305,,,,,,,,,,,,,,,,,,,,,,,,,,,,,,,,,,,,,,,,,,,,,,,,,,,,,,,,,,,,,,,,,,,,,,
1768973183.772466,1768973183.773766,12.0,0.0,4393.846191,4407.436035,4362.179688,4383.077148,4375.0,4375.256348,4377.94873,4388.205078,4374.487305,4351.538574,4463.717773,4531.153809,4410.256348,4458.717773,,,,,,,,,,,,,,,,,,,,,,,,,,,,,,,,,,,,,,,,,,,,,,,,,,,,,,,,,,,,,,,,,,,,,,
1768973183.780274,1768973183.781574,13.0,0.0,4391.666504,4405.128418,4360.897461,4380.128418,4371.666504,4373.974121,4377.692383,4384.615234,4371.538574,4353.974121,4460.256348,4531.922852,4403.717773,4451.922852,,,,,,,,,,,,,,,,,,,,,,,,,,,,,,,,,,,,,,,,,,,,,,,,,,,,,,,,,,,,,,,,,,,,,,
1768973183.788083,1768973183.789283,14.0,0.0,4394.743652,4411.153809,4363.077148,4385.128418,4369.743652,4371.666504,4378.717773,4385.0,4373.717773,4358.461426,4460.512695,4532.05127,4405.641113,4447.436035,0.902453,0.585311,0.298355,0.133649,0.117297,2.005134,0.712904,0.287981,0.096536,0.121706,0.573019,0.290297,0.180536,0.105844,0.075201,0.844014,0.461217,0.124189,0.092524,0.072497,0.27417,0.265839,0.055332,0.037668,0.069235,0.268988,0.25572,0.178385,0.125721,0.190162,0.268022,0.143598,0.247177,0.178849,0.21419,0.46432,0.146359,0.241747,0.246965,0.224593,0.615389,0.15212,0.28045,0.214869,0.166221,0.710173,0.494922,0.161935,0.219474,0.16908,1.556658,0.419284,0.139594,0.255118,0.225666,1.491497,0.593118,0.198033,0.202909,0.248244,2.432072,0.684592,0.241191,0.292066,0.223387,1.763164,0.60731,0.33732,0.353943,0.303702
1768973183.795891,1768973183.797091,15.0,0.0,4395.641113,4414.615234,4365.256348,4388.846191,4372.563965,4376.282227,4382.820313,4390.0,4378.717773,4357.563965,4466.922852,4536.025879,4413.589844,4454.871582,,,,,,,,,,,,,,,,,,,,,,,,,,,,,,,,,,,,,,,,,,,,,,,,,,,,,,,,,,,,,,,,,,,,,,
1768973183.8037,1768973183.8047,16.0,0.0,4396.282227,4413.846191,4363.077148,4387.820313,4373.974121,4383.589844,4388.974121,4393.077148,4383.333496,4357.563965,4468.205078,4541.538574,4413.077148,4463.205078,,,,,,,,,,,,,,,,,,,,,,,,,,,,,,,,,,,,,,,,,,,,,,,,,,,,,,,,,,,,,,,,,,,,,,
1768973183.811508,1768973183.812508,17.0,0.0,4395.897461,4412.179688,4361.666504,4383.589844,4371.538574,4376.922852,4383.077148,4389.615234,4380.256348,4358.717773,4461.410156,4534.615234,4404.487305,4457.179688,,,,,,,,,,,,,,,,,,,,,,,,,,,,,,,,,,,,,,,,,,,,,,,,,,,,,,,,,,,,,,,,,,,,,,
1768973183.819317,1768973183.820217,18.0,0.0,4390.384766,4410.897461,4362.94873,4380.256348,4371.282227,4366.922852,4372.179688,4383.846191,4373.205078,4354.358887,4458.077148,4520.512695,4403.846191,4445.897461,,,,,,,,,,,,,,,,,,,,,,,,,,,,,,,,,,,,,,,,,,,,,,,,,,,,,,,,,,,,,,,,,,,,,,
1768973183.827125,1768973183.828025,19.0,0.0,4389.871582,4409.230957,4362.307617,4379.102539,4373.077148,4365.128418,4369.102539,4378.974121,4371.922852,4350.256348,4458.077148,4517.05127,4406.410156,4445.0,,,,,,,,,,,,,,,,,,,,,,,,,,,,,,,,,,,,,,,,,,,,,,,,,,,,,,,,,,,,,,,,,,,,,,
1768973183.834933,1768973183.836033,20.0,0.0,4397.307617,4407.563965,4359.871582,4379.102539,4372.94873,4366.538574,4371.794922,4380.128418,4372.94873,4353.717773,4458.205078,4523.333496,4403.974121,4450.0,,,,,,,,,,,,,,,,,,,,,,,,,,,,,,,,,,,,,,,,,,,,,,,,,,,,,,,,,,,,,,,,,,,,,,
1768973183.842742,1768973183.843842,21.0,0.0,4395.769043,4402.563965,4359.615234,4378.333496,4371.282227,4369.743652,4376.410156,4384.871582,4374.743652,4357.820313,4460.512695,4524.743652,4404.743652,4452.563965,,,,,,,,,,,,,,,,,,,,,,,,,,,,,,,,,,,,,,,,,,,,,,,,,,,,,,,,,,,,,,,,,,,,,,
1768973183.85055,1768973183.85175,22.0,0.0,4387.820313,4400.512695,4359.487305,4375.769043,4370.128418,4374.743652,4380.256348,4384.871582,4374.358887,4353.205078,4462.307617,4524.743652,4406.153809,4449.358887,,,,,,,,,,,,,,,,,,,,,,,,,,,,,,,,,,,,,,,,,,,,,,,,,,,,,,,,,,,,,,,,,,,,,,
1768973183.858359,1768973183.859559,23.0,0.0,4388.333496,4404.871582,4359.743652,4375.128418,4372.563965,4373.974121,4376.666504,4379.615234,4368.205078,4347.179688,4459.743652,4530.384766,4399.871582,4447.820313,,,,,,,,,,,,,,,,,,,,,,,,,,,,,,,,,,,,,,,,,,,,,,,,,,,,,,,,,,,,,,,,,,,,,,
1768973183.866167,1768973183.867567,24.0,0.0,4392.307617,4407.436035,4362.563965,4379.358887,4374.230957,4368.077148,4374.743652,4385.769043,4370.256348,4354.102539,4461.153809,4533.589844,4398.589844,4452.820313,,,,,,,,,,,,,,,,,,,,,,,,,,,,,,,,,,,,,,,,,,,,,,,,,,,,,,,,,,,,,,,,,,,,,,
1768973183.873976,1768973183.875375,25.0,0.0,4393.077148,4407.820313,4360.897461,4381.666504,4373.846191,4370.128418,4381.282227,4396.922852,4380.128418,4359.615234,4464.615234,4532.436035,4407.94873,4458.077148,,,,,,,,,,,,,,,,,,,,,,,,,,,,,,,,,,,,,,,,,,,,,,,,,,,,,,,,,,,,,,,,,,,,,,
1768973183.881784,1768973183.883284,26.0,0.0,4395.0,4410.0,4356.153809,4380.512695,4373.974121,4375.641113,4379.615234,4387.692383,4375.256348,4346.794922,4461.153809,4531.538574,4411.025879,4460.0,,,,,,,,,,,,,,,,,,,,,,,,,,,,,,,,,,,,,,,,,,,,,,,,,,,,,,,,,,,,,,,,,,,,,,
1768973183.889593,1768973183.891092,27.0,0.0,4396.153809,4411.538574,4355.769043,4381.410156,4371.410156,4370.128418,4368.333496,4368.589844,4361.410156,4340.0,4455.897461,4529.871582,4402.692383,4455.512695,,,,,,,,,,,,,,,,,,,,,,,,,,,,,,,,,,,,,,,,,,,,,,,,,,,,,,,,,,,,,,,,,,,,,,
1768973183.897401,1768973183.8991,28.0,0.0,4393.461426,4410.641113,4356.794922,4380.641113,4369.358887,4364.102539,4366.538574,4369.358887,4362.692383,4351.282227,4456.794922,4528.205078,4397.179688,4448.461426,,,,,,,,,,,,,,,,,,,,,,,,,,,,,,,,,,,,,,,,,,,,,,,,,,,,,,,,,,,,,,,,,,,,,,
1768973183.905209,1768973183.906909,29.0,0.0,4388.589844,4408.461426,4358.461426,4377.692383,4371.666504,4370.769043,4374.615234,4382.692383,4370.128418,4355.384766,4458.333496,4527.563965,4396.538574,4445.641113,,,,,,,,,,,,,,,,,,,,,,,,,,,,,,,,,,,,,,,,,,,,,,,,,,,,,,,,,,,,,,,,,,,,,,
1768973183.913018,1768973183.914617,30.0,0.0,4387.820313,4410.512695,4359.358887,4377.692383,4373.461426,4376.538574,4377.436035,4384.487305,4369.102539,4348.846191,4456.666504,4526.025879,4397.563965,4448.205078,0.860279,0.627342,0.232448,0.128021,0.120731,1.89258,0.709665,0.287701,0.102199,0.125898,0.673464,0.325734,0.202157,0.11692,0.072627,0.701884,0.45317,0.107027,0.087784,0.065216,0.278411,0.298301,0.0605,0.033112,0.062928,0.312233,0.263787,0.218915,0.138673,0.200682,0.300336,0.152044,0.275486,0.194605,0.227326,0.568702,0.170325,0.219559,0.264365,0.231687,0.56671,0.153003,0.290846,0.239544,0.184983,0.672636,0.526925,0.196315,0.251829,0.15939,1.410779,0.438246,0.109651,0.31823,0.244866,1.483085,0.62501,0.150376,0.205502,0.266704,2.092385,0.779138,0.226552,0.314217,0.212589,1.762712,0.653529,0.346068,0.345824,0.303642
1768973183.920826,1768973183.922426,31.0,0.0,4392.820313,4414.743652,4356.922852,4380.128418,4372.692383,4373.205078,4372.692383,4381.410156,4369.487305,4352.179688,4456.666504,4523.205078,4400.641113,4453.461426,,,,,,,,,,,,,,,,,,,,,,,,,,,,,,,,,,,,,,,,,,,,,,,,,,,,,,,,,,,,,,,,,,,,,,
1768973183.928635,1768973183.930034,32.0,0.0,4396.538574,4416.538574,4357.820313,4380.256348,4373.077148,4372.436035,4370.641113,4383.589844,4374.358887,4359.487305,4459.615234,4526.922852,4403.974121,4457.05127,,,,,,,,,,,,,,,,,,,,,,,,,,,,,,,,,,,,,,,,,,,,,,,,,,,,,,,,,,,,,,,,,,,,,,
1768973183.936443,1768973183.937843,33.0,0.0,4397.179688,4419.102539,4363.461426,4379.487305,4373.846191,4375.769043,4373.205078,4383.846191,4375.0,4359.102539,4460.897461,4533.589844,4409.358887,4459.743652,,,,,,,,,,,,,,,,,,,,,,,,,,,,,,,,,,,,,,,,,,,,,,,,,,,,,,,,,,,,,,,,,,,,,,
1768973183.944252,1768973183.945551,34.0,0.0,4398.461426,4426.922852,4363.717773,4383.846191,4372.820313,4379.743652,4378.589844,4383.333496,4371.794922,4357.05127,4460.512695,4534.743652,4413.589844,4459.743652,,,,,,,,,,,,,,,,,,,,,,,,,,,,,,,,,,,,,,,,,,,,,,,,,,,,,,,,,,,,,,,,,,,,,,
1768973183.95206,1768973183.95336,35.0,0.0,4398.333496,4429.615234,4360.128418,4386.282227,4371.794922,4382.307617,4382.820313,4384.358887,4373.974121,4357.179688,4458.589844,4530.256348,4410.128418,4453.846191,,,,,,,,,,,,,,,,,,,,,,,,,,,,,,,,,,,,,,,,,,,,,,,,,,,,,,,,,,,,,,,,,,,,,,
1768973183.959869,1768973183.960969,36.0,0.0,4395.641113,4418.717773,4360.769043,4381.282227,4370.512695,4380.128418,4383.461426,4384.358887,4378.974121,4358.461426,4456.410156,4529.871582,4407.820313,4446.922852,,,,,,,,,,,,,,,,,,,,,,,,,,,,,,,,,,,,,,,,,,,,,,,,,,,,,,,,,,,,,,,,,,,,,,
1768973183.967677,1768973183.968777,37.0,0.0,4397.307617,4411.666504,4364.871582,4381.666504,4373.461426,4381.666504,4385.641113,4385.0,4381.538574,4356.666504,4464.871582,4541.410156,4411.666504,4452.307617,,,,,,,,,,,,,,,,,,,,,,,,,,,,,,,,,,,,,,,,,,,,,,,,,,,,,,,,,,,,,,,,,,,,,,
1768973183.975485,1768973183.976685,38.0,0.0,4399.487305,4417.692383,4364.102539,4387.179688,4375.256348,4385.384766,4386.282227,4390.897461,4385.897461,4360.128418,4474.743652,4551.153809,4415.512695,4461.794922,,,,,,,,,,,,,,,,,,,,,,,,,,,,,,,,,,,,,,,,,,,,,,,,,,,,,,,,,,,,,,,,,,,,,,
1768973183.983294,1768973183.984494,39.0,0.0,4399.487305,4422.179688,4365.0,4388.589844,4372.307617,4383.717773,4384.487305,4392.563965,4388.077148,4370.0,4473.717773,4548.333496,4415.256348,4460.256348,,,,,,,,,,,,,,,,,,,,,,,,,,,,,,,,,,,,,,,,,,,,,,,,,,,,,,,,,,,,,,,,,,,,,,
1768973183.991102,1768973183.992102,40.0,0.0,4402.436035,4418.077148,4371.794922,4389.230957,4376.153809,4385.512695,4386.153809,4390.641113,4389.358887,4372.94873,4471.794922,4547.820313,4413.846191,4460.769043,,,,,,,,,,,,,,,,,,,,,,,,,,,,,,,,,,,,,,,,,,,,,,,,,,,,,,,,,,,,,,,,,,,,,,
1768973183.998911,1768973183.999911,41.0,0.0,4404.230957,4413.974121,4370.641113,4388.333496,4378.846191,4384.102539,4381.153809,4389.102539,4391.538574,4368.589844,4475.0,4552.179688,4414.615234,4465.512695,,,,,,,,,,,,,,,,,,,,,,,,,,,,,,,,,,,,,,,,,,,,,,,,,,,,,,,,,,,,,,,,,,,,,,
1768973184.006719,1768973184.007619,42.0,0.0,4403.461426,4414.487305,4366.538574,4383.333496,4371.794922,4374.487305,4372.179688,4382.563965,4382.05127,4363.717773,4476.025879,4549.615234,4416.410156,4462.563965,,,,,,,,,,,,,,,,,,,,,,,,,,,,,,,,,,,,,,,,,,,,,,,,,,,,,,,,,,,,,,,,,,,,,,
1768973184.014528,1768973184.015428,43.0,0.0,4401.922852,4414.102539,4366.922852,4380.897461,4369.102539,4375.769043,4377.94873,4379.358887,4372.692383,4361.538574,4471.794922,4544.743652,4414.230957,4458.589844,,,,,,,,,,,,,,,,,,,,,,,,,,,,,,,,,,,,,,,,,,,,,,,,,,,,,,,,,,,,,,,,,,,,,,
1768973184.022336,1768973184.023037,44.0,0.0,4398.846191,4409.615234,4364.230957,4382.179688,4373.205078,4382.436035,4385.641113,4382.692383,4377.436035,4354.358887,4465.897461,4545.641113,4410.0,4459.743652,,,,,,,,,,,,,,,,,,,,,,,,,,,,,,,,,,,,,,,,,,,,,,,,,,,,,,,,,,,,,,,,,,,,,,
1768973184.030145,1768973184.030845,45.0,0.0,4395.641113,4406.666504,4361.153809,4381.410156,4372.307617,4376.410156,4378.077148,4380.897461,4378.461426,4346.794922,4460.256348,4545.897461,4413.205078,4459.743652,,,,,,,,,,,,,,,,,,,,,,,,,,,,,,,,,,,,,,,,,,,,,,,,,,,,,,,,,,,,,,,,,,,,,,
1768973184.037953,1768973184.038554,46.0,0.0,4398.077148,4404.743652,4366.282227,4379.487305,4371.794922,4370.512695,4372.307617,4373.589844,4372.94873,4348.846191,4459.230957,4539.102539,4411.922852,4455.384766,0.800059,0.618287,0.197301,0.125497,0.12657,1.727655,0.669452,0.292502,0.116963,0.129191,0.728604,0.331536,0.223129,0.125361,0.072273,0.554887,0.424697,0.103691,0.083699,0.060648,0.278778,0.301677,0.064446,0.029139,0.055161,0.352006,0.290628,0.275616,0.149839,0.208102,0.347696,0.184771,0.34347,0.203525,0.233833,0.654026,0.208779,0.194671,0.271334,0.231903,0.508186,0.165626,0.298496,0.256019,0.196812,0.617468,0.544839,0.228626,0.295933,0.155025,1.235064,0.428224,0.092736,0.382788,0.25396,1.448775,0.635948,0.117279,0.216892,0.270324,1.68276,0.797675,0.22083,0.331974,0.195235,1.624251,0.657254,0.339299,0.326826,0.284457
1768973184.045761,1768973184.046362,47.0,0.0,4396.794922,4399.615234,4367.436035,4380.384766,4374.102539,4372.307617,4377.563965,4376.538574,4377.307617,4355.769043,4457.436035,4530.769043,4398.589844,4449.487305,,,,,,,,,,,,,,,,,,,,,,,,,,,,,,,,,,,,,,,,,,,,,,,,,,,,,,,,,,,,,,,,,,,,,,
1768973184.05357,1768973184.05437,48.0,0.0,4389.230957,4395.769043,4360.641113,4381.282227,4375.0,4378.077148,4388.077148,4387.05127,4382.94873,4357.307617,4456.794922,4533.589844,4398.846191,4446.025879,,,,,,,,,,,,,,,,,,,,,,,,,,,,,,,,,,,,,,,,,,,,,,,,,,,,,,,,,,,,,,,,,,,,,,
1768973184.061378,1768973184.062179,49.0,0.0,4391.666504,4394.102539,4366.153809,4381.410156,4378.717773,4385.128418,4390.512695,4385.0,4379.743652,4355.384766,4463.205078,4543.333496,4410.897461,4452.94873,,,,,,,,,,,,,,,,,,,,,,,,,,,,,,,,,,,,,,,,,,,,,,,,,,,,,,,,,,,,,,,,,,,,,,
1768973184.069187,1768973184.070087,50.0,0.0,4397.05127,4389.487305,4376.153809,4382.05127,4378.589844,4380.897461,4382.05127,4379.615234,4380.769043,4358.205078,4466.666504,4545.384766,4409.487305,4462.05127,,,,,,,,,,,,,,,,,,,,,,,,,,,,,,,,,,,,,,,,,,,,,,,,,,,,,,,,,,,,,,,,,,,,,,
1768973184.076995,1768973184.077895,51.0,0.0,4392.820313,4389.743652,4371.282227,4381.538574,4372.94873,4373.077148,4378.461426,4379.230957,4381.025879,4361.025879,4462.820313,4541.025879,4401.666504,4454.102539,,,,,,,,,,,,,,,,,,,,,,,,,,,,,,,,,,,,,,,,,,,,,,,,,,,,,,,,,,,,,,,,,,,,,,
1768973184.084804,1768973184.085904,52.0,0.0,4387.820313,4395.384766,4361.666504,4378.589844,4373.461426,4375.769043,4381.538574,4374.358887,4373.205078,4353.974121,4458.717773,4541.410156,4401.922852,4442.436035,,,,,,,,,,,,,,,,,,,,,,,,,,,,,,,,,,,,,,,,,,,,,,,,,,,,,,,,,,,,,,,,,,,,,,
1768973184.092612,1768973184.093712,53.0,0.0,4387.05127,4389.487305,4362.307617,4374.871582,4375.384766,4377.307617,4382.307617,4375.256348,4372.94873,4343.846191,4458.077148,4541.666504,4397.563965,4446.025879,,,,,,,,,,,,,,,,,,,,,,,,,,,,,,,,,,,,,,,,,,,,,,,,,,,,,,,,,,,,,,,,,,,,,,
1768973184.100421,1768973184.101521,54.0,0.0,4384.487305,4378.077148,4365.384766,4373.077148,4372.05127,4371.666504,4380.256348,4380.384766,4378.846191,4348.846191,4458.077148,4538.205078,4395.641113,4450.384766,,,,,,,,,,,,,,,,,,,,,,,,,,,,,,,,,,,,,,,,,,,,,,,,,,,,,,,,,,,,,,,,,,,,,,
1768973184.108229,1768973184.109329,55.0,0.0,4383.974121,4380.512695,4362.820313,4373.077148,4372.05127,4370.897461,4378.846191,4373.461426,4377.692383,4362.820313,4458.717773,4536.538574,4409.358887,4445.897461,,,,,,,,,,,,,,,,,,,,,,,,,,,,,,,,,,,,,,,,,,,,,,,,,,,,,,,,,,,,,,,,,,,,,,
1768973184.116037,1768973184.117337,56.0,0.0,4385.384766,4384.230957,4362.05127,4373.846191,4375.512695,4377.94873,4381.282227,4368.974121,4370.512695,4359.743652,4457.820313,4533.589844,4411.922852,4445.512695,,,,,,,,,,,,,,,,,,,,,,,,,,,,,,,,,,,,,,,,,,,,,,,,,,,,,,,,,,,,,,,,,,,,,,
1768973184.123846,1768973184.125146,57.0,0.0,4382.436035,4375.641113,4363.205078,4373.077148,4372.436035,4380.0,4385.384766,4381.538574,4372.179688,4349.102539,4456.538574,4535.0,4397.820313,4446.025879,,,,,,,,,,,,,,,,,,,,,,,,,,,,,,,,,,,,,,,,,,,,,,,,,,,,,,,,,,,,,,,,,,,,,,
1768973184.131654,1768973184.133054,58.0,0.0,4382.05127,4371.025879,4363.589844,4371.153809,4368.589844,4373.077148,4380.128418,4386.666504,4379.743652,4351.282227,4457.307617,4541.410156,4395.512695,4444.102539,,,,,,,,,,,,,,,,,,,,,,,,,,,,,,,,,,,,,,,,,,,,,,,,,,,,,,,,,,,,,,,,,,,,,,
1768973184.139463,1768973184.140863,59.0,0.0,4382.436035,4375.641113,4362.05127,4372.94873,4371.410156,4370.0,4376.025879,4375.512695,4376.410156,4355.0,4455.769043,4541.922852,4402.179688,4445.0,,,,,,,,,,,,,,,,,,,,,,,,,,,,,,,,,,,,,,,,,,,,,,,,,,,,,,,,,,,,,,,,,,,,,,
1768973184.147271,1768973184.148471,60.0,0.0,4378.461426,4376.666504,4361.153809,4374.487305,4372.94873,4371.153809,4381.153809,4371.410156,4368.589844,4349.615234,4453.589844,4539.487305,4396.666504,4444.358887,,,,,,,,,,,,,,,,,,,,,,,,,,,,,,,,,,,,,,,,,,,,,,,,,,,,,,,,,,,,,,,,,,,,,,
1768973184.15508,1768973184.15628,61.0,0.0,4383.589844,4376.410156,4363.846191,4375.384766,4372.563965,4368.974121,4378.205078,4376.282227,4373.077148,4355.384766,4457.692383,4542.94873,4396.538574,4449.230957,,,,,,,,,,,,,,,,,,,,,,,,,,,,,,,,,,,,,,,,,,,,,,,,,,,,,,,,,,,,,,,,,,,,,,
1768973184.162888,1768973184.163988,62.0,0.0,4392.563965,4381.025879,4364.230957,4375.641113,4373.974121,4369.230957,4372.307617,4378.205078,4379.871582,4363.205078,4465.256348,4544.615234,4413.846191,4461.666504,0.731339,0.558972,0.18285,0.128416,0.131284,1.552652,0.594006,0.295477,0.13839,0.129801,0.724916,0.30836,0.232208,0.129932,0.074134,0.42732,0.380065,0.114321,0.080143,0.060694,0.279811,0.274231,0.066205,0.026075,0.048477,0.382156,0.33105,0.348239,0.158759,0.20885,0.411507,0.242375,0.475581,0.207925,0.2324,0.701937,0.252222,0.189406,0.26643,0.226218,0.452323,0.189839,0.326655,0.259728,0.200179,0.547021,0.554003,0.257718,0.337634,0.154932,1.050808,0.398684,0.09932,0.431716,0.249231,1.350839,0.657838,0.12528,0.23181,0.258619,1.29291,0.739334,0.223614,0.337925,0.177001,1.405558,0.63532,0.315891,0.306082,0.252253
1768973184.170697,1768973184.171797,63.0,0.0,4384.615234,4380.128418,4360.128418,4374.615234,4375.512695,4375.384766,4378.589844,4374.743652,4375.128418,4350.512695,4464.230957,4537.820313,4412.307617,4459.615234,,,,,,,,,,,,,,,,,,,,,,,,,,,,,,,,,,,,,,,,,,,,,,,,,,,,,,,,,,,,,,,,,,,,,,
1768973184.178505,1768973184.179805,64.0,0.0,4373.589844,4375.256348,4357.436035,4377.820313,4377.179688,4378.205078,4382.820313,4371.410156,4370.128418,4342.94873,4458.077148,4531.666504,4395.769043,4445.384766,,,,,,,,,,,,,,,,,,,,,,,,,,,,,,,,,,,,,,,,,,,,,,,,,,,,,,,,,,,,,,,,,,,,,,
1768973184.186314,1768973184.187613,65.0,0.0,4378.205078,4368.974121,4359.358887,4380.128418,4377.179688,4376.538574,4378.974121,4373.974121,4372.436035,4356.538574,4458.205078,4528.974121,4401.282227,4445.128418,,,,,,,,,,,,,,,,,,,,,,,,,,,,,,,,,,,,,,,,,,,,,,,,,,,,,,,,,,,,,,,,,,,,,,
1768973184.194122,1768973184.195322,66.0,0.0,4383.077148,4363.717773,4362.692383,4374.615234,4374.871582,4375.897461,4381.025879,4380.769043,4378.077148,4362.05127,4462.05127,4532.692383,4413.717773,4455.0,,,,,,,,,,,,,,,,,,,,,,,,,,,,,,,,,,,,,,,,,,,,,,,,,,,,,,,,,,,,,,,,,,,,,,
1768973184.20193,1768973184.20313,67.0,0.0,4380.769043,4362.179688,4363.846191,4371.922852,4372.94873,4373.461426,4382.05127,4384.230957,4381.153809,4353.717773,4461.666504,4538.974121,4407.179688,4453.974121,,,,,,,,,,,,,,,,,,,,,,,,,,,,,,,,,,,,,,,,,,,,,,,,,,,,,,,,,,,,,,,,,,,,,,
1768973184.209739,1768973184.210739,68.0,0.0,4378.717773,4358.461426,4361.794922,4374.615234,4375.128418,4372.05127,4376.153809,4380.128418,4378.077148,4352.692383,4458.333496,4535.0,4400.384766,4445.128418,,,,,,,,,,,,,,,,,,,,,,,,,,,,,,,,,,,,,,,,,,,,,,,,,,,,,,,,,,,,,,,,,,,,,,
1768973184.217547,1768973184.218547,69.0,0.0,4374.743652,4356.025879,4357.307617,4371.666504,4379.743652,4378.974121,4380.256348,4377.436035,4377.563965,4354.871582,4457.820313,4526.666504,4404.487305,4442.436035,,,,,,,,,,,,,,,,,,,,,,,,,,,,,,,,,,,,,,,,,,,,,,,,,,,,,,,,,,,,,,,,,,,,,,
1768973184.225356,1768973184.226256,70.0,0.0,4374.102539,4360.769043,4356.025879,4368.589844,4380.769043,4384.743652,4386.922852,4379.871582,4382.179688,4356.794922,4458.974121,4528.077148,4401.794922,4445.512695,,,,,,,,,,,,,,,,,,,,,,,,,,,,,,,,,,,,,,,,,,,,,,,,,,,,,,,,,,,,,,,,,,,,,,
1768973184.233164,1768973184.234064,71.0,0.0,4380.897461,4360.897461,4360.512695,4370.512695,4379.230957,4381.153809,4382.179688,4380.769043,4380.769043,4357.179688,4459.358887,4536.282227,4398.717773,4445.128418,,,,,,,,,,,,,,,,,,,,,,,,,,,,,,,,,,,,,,,,,,,,,,,,,,,,,,,,,,,,,,,,,,,,,,
1768973184.240973,1768973184.242073,72.0,0.0,4381.153809,4354.102539,4363.589844,4369.487305,4378.589844,4374.230957,4376.282227,4377.179688,4378.205078,4347.436035,4458.461426,4535.641113,4405.256348,4445.384766,,,,,,,,,,,,,,,,,,,,,,,,,,,,,,,,,,,,,,,,,,,,,,,,,,,,,,,,,,,,,,,,,,,,,,
1768973184.248781,1768973184.249881,73.0,0.0,4376.922852,4355.256348,4359.102539,4370.128418,4381.666504,4373.846191,4378.461426,4374.230957,4381.922852,4344.871582,4460.641113,4529.871582,4413.589844,4450.256348,,,,,,,,,,,,,,,,,,,,,,,,,,,,,,,,,,,,,,,,,,,,,,,,,,,,,,,,,,,,,,,,,,,,,,
1768973184.25659,1768973184.257789,74.0,0.0,4377.820313,4357.692383,4353.077148,4370.769043,4382.94873,4377.820313,4380.256348,4374.230957,4381.410156,4355.641113,4462.692383,4525.0,4413.077148,4449.743652,,,,,,,,,,,,,,,,,,,,,,,,,,,,,,,,,,,,,,,,,,,,,,,,,,,,,,,,,,,,,,,,,,,,,,
1768973184.264398,1768973184.265598,75.0,0.0,4377.436035,4356.794922,4355.897461,4367.692383,4379.358887,4376.922852,4380.0,4374.358887,4378.846191,4357.820313,4458.589844,4521.282227,4400.641113,4442.563965,,,,,,,,,,,,,,,,,,,,,,,,,,,,,,,,,,,,,,,,,,,,,,,,,,,,,,,,,,,,,,,,,,,,,,
1768973184.272206,1768973184.273606,76.0,0.0,4377.820313,4363.717773,4363.717773,4372.94873,4378.846191,4376.025879,4381.282227,4374.743652,4380.384766,4351.538574,4456.794922,4525.128418,4398.205078,4441.794922,,,,,,,,,,,,,,,,,,,,,,,,,,,,,,,,,,,,,,,,,,,,,,,,,,,,,,,,,,,,,,,,,,,,,,
1768973184.280015,1768973184.281415,77.0,0.0,4383.077148,4368.589844,4363.846191,4383.077148,4379.358887,4379.487305,4382.307617,4374.743652,4377.307617,4351.794922,4461.538574,4532.820313,4407.563965,4449.871582,,,,,,,,,,,,,,,,,,,,,,,,,,,,,,,,,,,,,,,,,,,,,,,,,,,,,,,,,,,,,,,,,,,,,,
1768973184.287823,1768973184.289123,78.0,0.0,4382.179688,4363.205078,4358.974121,4380.384766,4375.256348,4378.333496,4381.922852,4375.128418,4372.563965,4351.538574,4460.128418,4534.871582,4407.563965,4454.615234,0.660493,0.469665,0.179278,0.137431,0.132083,1.442495,0.492554,0.30366,0.162014,0.127746,0.661638,0.267091,0.228011,0.130517,0.077672,0.335223,0.32595,0.137915,0.077316,0.066079,0.282918,0.223808,0.06626,0.02427,0.044449,0.400426,0.368985,0.427287,0.164682,0.201804,0.47524,0.311145,0.66747,0.21059,0.22408,0.699246,0.285875,0.222385,0.251183,0.217559,0.411447,0.222011,0.395859,0.249688,0.195896,0.470562,0.559799,0.289717,0.360069,0.156777,0.857982,0.369304,0.134137,0.450898,0.230326,1.19271,0.717746,0.188538,0.245213,0.235141,0.961398,0.627484,0.229782,0.327523,0.162429,1.156968,0.606025,0.284555,0.294187,0.216545
1768973184.295632,1768973184.296932,79.0,0.0,4382.307617,4365.641113,4361.410156,4377.179688,4375.128418,4374.615234,4380.641113,4378.461426,4376.538574,4352.05127,4456.410156,4533.461426,4403.333496,4457.05127,,,,,,,,,,,,,,,,,,,,,,,,,,,,,,,,,,,,,,,,,,,,,,,,,,,,,,,,,,,,,,,,,,,,,,
1768973184.30344,1768973184.30454,80.0,0.0,4391.153809,4376.538574,4369.102539,4382.94873,4380.512695,4379.487305,4381.794922,4383.846191,4384.102539,4362.179688,4467.692383,4541.538574,4411.922852,4465.128418,,,,,,,,,,,,,,,,,,,,,,,,,,,,,,,,,,,,,,,,,,,,,,,,,,,,,,,,,,,,,,,,,,,,,,
1768973184.311249,1768973184.312349,81.0,0.0,4398.333496,4377.820313,4368.974121,4385.384766,4381.282227,4381.153809,4381.410156,4383.846191,4383.205078,4363.974121,4475.512695,4548.205078,4417.820313,4473.717773,,,,,,,,,,,,,,,,,,,,,,,,,,,,,,,,,,,,,,,,,,,,,,,,,,,,,,,,,,,,,,,,,,,,,,
1768973184.319057,1768973184.320057,82.0,0.0,4397.307617,4378.974121,4364.230957,4383.333496,4378.974121,4369.102539,4372.94873,4378.589844,4378.974121,4353.974121,4467.692383,4542.05127,4412.820313,4471.666504,,,,,,,,,,,,,,,,,,,,,,,,,,,,,,,,,,,,,,,,,,,,,,,,,,,,,,,,,,,,,,,,,,,,,,
1768973184.326866,1768973184.327866,83.0,0.0,4390.384766,4382.820313,4362.820313,4380.256348,4379.102539,4367.436035,4372.820313,4382.307617,4382.820313,4355.0,4467.436035,4537.563965,4412.94873,4462.436035,,,,,,,,,,,,,,,,,,,,,,,,,,,,,,,,,,,,,,,,,,,,,,,,,,,,,,,,,,,,,,,,,,,,,,
1768973184.334674,1768973184.335474,84.0,0.0,4384.230957,4377.563965,4364.487305,4380.0,4380.256348,4379.615234,4383.205078,4390.641113,4385.256348,4362.179688,4472.563965,4540.641113,4412.94873,4459.743652,,,,,,,,,,,,,,,,,,,,,,,,,,,,,,,,,,,,,,,,,,,,,,,,,,,,,,,,,,,,,,,,,,,,,,
1768973184.342482,1768973184.343283,85.0,0.0,4388.461426,4375.0,4364.230957,4384.230957,4378.717773,4380.512695,4386.282227,4384.615234,4375.128418,4358.461426,4464.743652,4540.256348,4411.282227,4461.922852,,,,,,,,,,,,,,,,,,,,,,,,,,,,,,,,,,,,,,,,,,,,,,,,,,,,,,,,,,,,,,,,,,,,,,
1768973184.350291,1768973184.350991,86.0,0.0,4396.025879,4380.512695,4360.769043,4385.897461,4375.384766,4375.384766,4381.410156,4375.769043,4370.384766,4353.461426,4456.153809,4533.974121,4410.897461,4460.641113,,,,,,,,,,,,,,,,,,,,,,,,,,,,,,,,,,,,,,,,,,,,,,,,,,,,,,,,,,,,,,,,,,,,,,
1768973184.358099,1768973184.3588,87.0,0.0,4394.487305,4383.333496,4362.692383,4385.384766,4376.153809,4376.153809,4379.230957,4379.871582,4376.794922,4356.153809,4459.743652,4532.307617,4406.666504,4458.077148,,,,,,,,,,,,,,,,,,,,,,,,,,,,,,,,,,,,,,,,,,,,,,,,,,,,,,,,,,,,,,,,,,,,,,
1768973184.365908,1768973184.366408,88.0,0.0,4389.487305,4381.282227,4369.102539,4387.307617,4380.0,4377.820313,4380.769043,4385.769043,4378.333496,4358.205078,4462.692383,4537.307617,4403.846191,4459.230957,,,,,,,,,,,,,,,,,,,,,,,,,,,,,,,,,,,,,,,,,,,,,,,,,,,,,,,,,,,,,,,,,,,,,,
1768973184.373716,1768973184.374217,89.0,0.0,4383.461426,4376.922852,4365.256348,4384.871582,4377.179688,4378.974121,4383.589844,4385.0,4375.512695,4350.769043,4459.743652,4541.153809,4405.512695,4458.589844,,,,,,,,,,,,,,,,,,,,,,,,,,,,,,,,,,,,,,,,,,,,,,,,,,,,,,,,,,,,,,,,,,,,,,
1768973184.381525,1768973184.382125,90.0,0.0,4379.871582,4374.102539,4359.871582,4377.94873,4371.025879,4378.205078,4384.487305,4385.512695,4378.461426,4342.563965,4458.974121,4539.230957,4407.05127,4455.0,,,,,,,,,,,,,,,,,,,,,,,,,,,,,,,,,,,,,,,,,,,,,,,,,,,,,,,,,,,,,,,,,,,,,,
1768973184.389333,1768973184.389934,91.0,0.0,4388.333496,4379.102539,4365.769043,4382.820313,4372.436035,4372.05127,4379.102539,4389.615234,4382.820313,4353.974121,4466.025879,4539.871582,4409.487305,4463.974121,,,,,,,,,,,,,,,,,,,,,,,,,,,,,,,,,,,,,,,,,,,,,,,,,,,,,,,,,,,,,,,,,,,,,,
1768973184.397142,1768973184.397542,92.0,0.0,4398.846191,4383.589844,4371.282227,4393.846191,4377.179688,4372.692383,4380.128418,4395.128418,4386.538574,4372.179688,4476.794922,4546.153809,4415.128418,4473.846191,,,,,,,,,,,,,,,,,,,,,,,,,,,,,,,,,,,,,,,,,,,,,,,,,,,,,,,,,,,,,,,,,,,,,,
1768973184.40495,1768973184.405351,93.0,0.0,4397.05127,4380.384766,4371.025879,4393.974121,4377.820313,4379.102539,4390.0,4398.077148,4389.487305,4368.974121,4477.05127,4547.05127,4413.717773,4466.794922,,,,,,,,,,,,,,,,,,,,,,,,,,,,,,,,,,,,,,,,,,,,,,,,,,,,,,,,,,,,,,,,,,,,,,
1768973184.412758,1768973184.413059,94.0,0.0,4390.769043,4375.897461,4368.205078,4387.94873,4378.205078,4379.871582,4389.871582,4389.230957,4382.692383,4356.025879,4465.384766,4540.897461,4407.563965,4456.282227,0.59392,0.376535,0.179747,0.150085,0.128369,1.430838,0.383625,0.324393,0.182333,0.12404,0.552984,0.222788,0.216197,0.127837,0.082033,0.277701,0.272906,0.167195,0.07575,0.075258,0.28162,0.16605,0.066008,0.024024,0.04313,0.406879,0.387988,0.496835,0.166822,0.188761,0.517794,0.370681,0.879298,0.212633,0.211827,0.650642,0.299596,0.296723,0.22871,0.209844,0.39547,0.259197,0.507261,0.228366,0.186739,0.404131,0.560857,0.332699,0.353758,0.159727,0.672886,0.358068,0.192652,0.434358,0.200851,1.025094,0.814392,0.299926,0.25251,0.206196,0.704503,0.49729,0.233487,0.303454,0.154868,0.935622,0.576839,0.257314,0.297423,0.186954
1768973184.420567,1768973184.420868,95.0,0.0,4388.333496,4372.563965,4363.077148,4385.256348,4376.538574,4376.922852,4386.025879,4385.128418,4378.589844,4355.512695,4458.846191,4536.666504,4406.538574,4459.871582,,,,,,,,,,,,,,,,,,,,,,,,,,,,,,,,,,,,,,,,,,,,,,,,,,,,,,,,,,,,,,,,,,,,,,
1768973184.428375,1768973184.428476,96.0,0.0,4387.820313,4371.282227,4366.666504,4386.153809,4375.512695,4379.358887,4393.077148,4396.794922,4386.538574,4358.205078,4465.897461,4539.743652,4409.615234,4468.717773,,,,,,,,,,,,,,,,,,,,,,,,,,,,,,,,,,,,,,,,,,,,,,,,,,,,,,,,,,,,,,,,,,,,,,
1768973184.436184,1768973184.436285,97.0,0.0,4391.410156,4376.025879,4376.282227,4388.333496,4376.922852,4380.512695,4396.025879,4395.641113,4386.794922,4359.871582,4473.846191,4544.358887,4410.769043,4468.333496,,,,,,,,,,,,,,,,,,,,,,,,,,,,,,,,,,,,,,,,,,,,,,,,,,,,,,,,,,,,,,,,,,,,,,
1768973184.443992,1768973184.444193,98.0,0.0,4396.538574,4380.512695,4377.820313,4391.025879,4380.128418,4376.922852,4386.794922,4383.974121,4380.128418,4364.743652,4476.410156,4547.692383,4411.794922,4470.769043,,,,,,,,,,,,,,,,,,,,,,,,,,,,,,,,,,,,,,,,,,,,,,,,,,,,,,,,,,,,,,,,,,,,,,
1768973184.451801,1768973184.452002,99.0,0.0,4394.487305,4378.333496,4373.461426,4391.666504,4381.794922,4373.333496,4380.769043,4385.0,4380.512695,4359.358887,4472.692383,4547.307617,4413.717773,4473.589844,,,,,,,,,,,,,,,,,,,,,,,,,,,,,,,,,,,,,,,,,,,,,,,,,,,,,,,,,,,,,,,,,,,,,,
1768973184.459609,1768973184.46001,100.0,0.0,4389.743652,4373.077148,4370.128418,4389.743652,4380.384766,4371.794922,4380.641113,4388.589844,4382.94873,4353.589844,4464.230957,4540.512695,4408.077148,4466.282227,,,,,,,,,,,,,,,,,,,,,,,,,,,,,,,,,,,,,,,,,,,,,,,,,,,,,,,,,,,,,,,,,,,,,,
1768973184.467418,1768973184.467818,101.0,0.0,4385.512695,4372.307617,4367.179688,4387.563965,4376.794922,4371.538574,4378.846191,4385.641113,4379.358887,4360.128418,4458.717773,4536.410156,4397.307617,4456.922852,,,,,,,,,,,,,,,,,,,,,,,,,,,,,,,,,,,,,,,,,,,,,,,,,,,,,,,,,,,,,,,,,,,,,,
1768973184.475226,1768973184.475727,102.0,0.0,4382.94873,4374.102539,4365.769043,4386.282227,4375.384766,4371.282227,4377.563965,4386.282227,4378.589844,4362.179688,4461.666504,4538.717773,4399.102539,4457.692383,,,,,,,,,,,,,,,,,,,,,,,,,,,,,,,,,,,,,,,,,,,,,,,,,,,,,,,,,,,,,,,,,,,,,,
1768973184.483034,1768973184.483535,103.0,0.0,4384.102539,4374.487305,4363.461426,4390.0,4378.461426,4372.820313,4378.077148,4387.307617,4381.282227,4356.538574,4464.487305,4535.128418,4410.641113,4462.179688,,,,,,,,,,,,,,,,,,,,,,,,,,,,,,,,,,,,,,,,,,,,,,,,,,,,,,,,,,,,,,,,,,,,,,
1768973184.490843,1768973184.491543,104.0,0.0,4385.0,4373.077148,4359.871582,4388.974121,4378.974121,4374.230957,4378.461426,4386.922852,4381.025879,4355.128418,4461.922852,4527.692383,4413.589844,4459.615234,,,,,,,,,,,,,,,,,,,,,,,,,,,,,,,,,,,,,,,,,,,,,,,,,,,,,,,,,,,,,,,,,,,,,,
1768973184.498651,1768973184.499352,105.0,0.0,4385.384766,4370.512695,4360.0,4381.410156,4375.769043,4376.153809,4382.563965,4392.179688,4382.05127,4357.307617,4460.512695,4527.563965,4411.153809,4457.94873,,,,,,,,,,,,,,,,,,,,,,,,,,,,,,,,,,,,,,,,,,,,,,,,,,,,,,,,,,,,,,,,,,,,,,
1768973184.50646,1768973184.50706,106.0,0.0,4387.692383,4371.025879,4364.102539,4381.666504,4375.897461,4384.743652,4388.717773,4390.0,4380.0,4358.717773,4462.05127,4528.589844,4413.717773,4458.461426,,,,,,,,,,,,,,,,,,,,,,,,,,,,,,,,,,,,,,,,,,,,,,,,,,,,,,,,,,,,,,,,,,,,,,
1768973184.514268,1768973184.514869,107.0,0.0,4385.512695,4372.436035,4366.538574,4385.512695,4374.615234,4383.589844,4383.974121,4386.538574,4379.743652,4358.077148,4468.077148,4528.589844,4413.589844,4458.589844,,,,,,,,,,,,,,,,,,,,,,,,,,,,,,,,,,,,,,,,,,,,,,,,,,,,,,,,,,,,,,,,,,,,,,
1768973184.522077,1768973184.522477,108.0,0.0,4381.025879,4368.974121,4364.615234,4382.563965,4371.666504,4371.025879,4374.871582,4394.230957,4386.538574,4355.256348,4475.769043,4532.179688,4407.820313,4460.256348,,,,,,,,,,,,,,,,,,,,,,,,,,,,,,,,,,,,,,,,,,,,,,,,,,,,,,,,,,,,,,,,,,,,,,
1768973184.529885,1768973184.530286,109.0,0.0,4383.333496,4367.436035,4362.820313,4379.487305,4375.0,4372.436035,4381.538574,4397.05127,4387.307617,4357.563965,4472.307617,4534.102539,4408.846191,4464.615234,,,,,,,,,,,,,,,,,,,,,,,,,,,,,,,,,,,,,,,,,,,,,,,,,,,,,,,,,,,,,,,,,,,,,,
1768973184.537694,1768973184.537994,110.0,0.0,4387.307617,4369.487305,4364.230957,4382.436035,4382.563965,4385.897461,4391.410156,4391.153809,4381.666504,4367.179688,4463.205078,4532.820313,4412.94873,4466.794922,0.546126,0.299909,0.18194,0.162265,0.122078,1.502264,0.291128,0.354926,0.194423,0.119887,0.424591,0.186779,0.205913,0.123037,0.086348,0.25261,0.236827,0.191342,0.075435,0.084754,0.269971,0.116633,0.066275,0.025223,0.043337,0.404992,0.377206,0.538188,0.165358,0.173355,0.520141,0.400988,1.047844,0.212361,0.199045,0.573959,0.293066,0.39563,0.201551,0.20608,0.410977,0.296588,0.635406,0.199664,0.176151,0.364622,0.553934,0.387302,0.322093,0.165658,0.516653,0.375248,0.263587,0.385006,0.167453,0.889302,0.923792,0.43521,0.251173,0.178671,0.519162,0.380711,0.233481,0.276574,0.15633,0.76995,0.546164,0.24864,0.314838,0.169564
1768973184.545502,1768973184.545803,111.0,0.0,4382.94873,4368.077148,4362.436035,4383.589844,4383.077148,4388.077148,4390.641113,4388.589844,4381.153809,4369.358887,4463.205078,4529.871582,4409.743652,4462.179688,,,,,,,,,,,,,,,,,,,,,,,,,,,,,,,,,,,,,,,,,,,,,,,,,,,,,,,,,,,,,,,,,,,,,,
1768973184.55331,1768973184.553611,112.0,0.0,4377.436035,4367.307617,4360.641113,4381.025879,4375.641113,4381.410156,4388.974121,4387.563965,4382.820313,4360.0,4463.846191,4528.077148,4405.256348,4458.077148,,,,,,,,,,,,,,,,,,,,,,,,,,,,,,,,,,,,,,,,,,,,,,,,,,,,,,,,,,,,,,,,,,,,,,
1768973184.561119,1768973184.56142,113.0,0.0,4379.743652,4371.025879,4362.436035,4379.871582,4370.769043,4379.743652,4386.538574,4389.102539,4380.769043,4358.974121,4460.512695,4530.769043,4406.282227,4460.256348,,,,,,,,,,,,,,,,,,,,,,,,,,,,,,,,,,,,,,,,,,,,,,,,,,,,,,,,,,,,,,,,,,,,,,
1768973184.568927,1768973184.569128,114.0,0.0,4381.538574,4372.307617,4362.05127,4380.512695,4373.333496,4381.410156,4381.410156,4395.256348,4380.769043,4358.846191,4462.820313,4531.922852,4405.641113,4459.358887,,,,,,,,,,,,,,,,,,,,,,,,,,,,,,,,,,,,,,,,,,,,,,,,,,,,,,,,,,,,,,,,,,,,,,
1768973184.576736,1768973184.576937,115.0,0.0,4376.282227,4371.282227,4358.589844,4379.102539,4374.615234,4379.358887,4379.487305,4391.153809,4382.307617,4347.820313,4463.717773,4524.615234,4398.333496,4448.846191,,,,,,,,,,,,,,,,,,,,,,,,,,,,,,,,,,,,,,,,,,,,,,,,,,,,,,,,,,,,,,,,,,,,,,
1768973184.584544,1768973184.584945,116.0,0.0,4375.0,4371.922852,4356.666504,4376.538574,4371.666504,4374.871582,4378.333496,4381.153809,4376.922852,4347.05127,4460.384766,4523.974121,4395.256348,4442.94873,,,,,,,,,,,,,,,,,,,,,,,,,,,,,,,,,,,,,,,,,,,,,,,,,,,,,,,,,,,,,,,,,,,,,,
1768973184.592353,1768973184.592753,117.0,0.0,4380.769043,4373.205078,4358.461426,4378.589844,4370.641113,4374.743652,4377.05127,4385.128418,4374.615234,4358.846191,4460.641113,4533.589844,4401.538574,4449.230957,,,,,,,,,,,,,,,,,,,,,,,,,,,,,,,,,,,,,,,,,,,,,,,,,,,,,,,,,,,,,,,,,,,,,,
1768973184.600161,1768973184.600662,118.0,0.0,4381.922852,4372.307617,4363.077148,4380.384766,4372.820313,4378.333496,4378.077148,4388.077148,4376.410156,4358.077148,4462.05127,4536.282227,4404.230957,4455.384766,,,,,,,,,,,,,,,,,,,,,,,,,,,,,,,,,,,,,,,,,,,,,,,,,,,,,,,,,,,,,,,,,,,,,,
1768973184.607969,1768973184.60847,119.0,0.0,4379.358887,4372.436035,4366.794922,4380.128418,4371.666504,4379.871582,4379.102539,4382.94873,4375.256348,4350.384766,4461.922852,4534.743652,4400.512695,4457.05127,,,,,,,,,,,,,,,,,,,,,,,,,,,,,,,,,,,,,,,,,,,,,,,,,,,,,,,,,,,,,,,,,,,,,,
1768973184.615778,1768973184.616079,120.0,0.0,4382.05127,4374.487305,4366.538574,4385.769043,4373.333496,4385.128418,4382.05127,4382.563965,4377.94873,4355.0,4466.153809,4538.077148,4404.743652,4456.922852,,,,,,,,,,,,,,,,,,,,,,,,,,,,,,,,,,,,,,,,,,,,,,,,,,,,,,,,,,,,,,,,,,,,,,
1768973184.623586,1768973184.623887,121.0,0.0,4386.025879,4373.846191,4370.128418,4392.692383,4377.692383,4389.743652,4383.589844,4383.717773,4379.871582,4358.077148,4464.871582,4536.666504,4410.384766,4454.358887,,,,,,,,,,,,,,,,,,,,,,,,,,,,,,,,,,,,,,,,,,,,,,,,,,,,,,,,,,,,,,,,,,,,,,
1768973184.631395,1768973184.631596,122.0,0.0,4384.487305,4370.769043,4374.487305,4393.717773,4377.179688,4383.589844,4378.461426,4381.666504,4374.871582,4356.538574,4460.641113,4531.153809,4406.922852,4455.512695,,,,,,,,,,,,,,,,,,,,,,,,,,,,,,,,,,,,,,,,,,,,,,,,,,,,,,,,,,,,,,,,,,,,,,
1768973184.639203,1768973184.639404,123.0,0.0,4382.307617,4371.025879,4369.358887,4387.307617,4375.769043,4382.179688,4381.025879,4382.05127,4374.615234,4354.743652,4467.692383,4531.922852,4405.384766,4460.512695,,,,,,,,,,,,,,,,,,,,,,,,,,,,,,,,,,,,,,,,,,,,,,,,,,,,,,,,,,,,,,,,,,,,,,
1768973184.647012,1768973184.647413,124.0,0.0,4382.179688,4372.436035,4363.846191,4380.897461,4374.487305,4385.897461,4387.307617,4384.358887,4382.179688,4350.256348,4472.94873,4536.025879,4409.743652,4459.615234,,,,,,,,,,,,,,,,,,,,,,,,,,,,,,,,,,,,,,,,,,,,,,,,,,,,,,,,,,,,,,,,,,,,,,
1768973184.65482,1768973184.655221,125.0,0.0,4384.230957,4370.897461,4367.307617,4383.333496,4375.256348,4379.358887,4381.538574,4384.102539,4382.307617,4351.025879,4466.922852,4538.077148,4411.410156,4456.538574,,,,,,,,,,,,,,,,,,,,,,,,,,,,,,,,,,,,,,,,,,,,,,,,,,,,,,,,,,,,,,,,,,,,,,
1768973184.662629,1768973184.663129,126.0,0.0,4386.794922,4370.512695,4371.666504,4388.205078,4377.563965,4376.282227,4375.128418,4383.205078,4377.563965,4357.179688,4461.666504,4536.410156,4409.102539,4456.666504,0.522768,0.246689,0.183838,0.172956,0.11597,1.610864,0.227379,0.385574,0.196197,0.115856,0.303035,0.161758,0.201647,0.117445,0.090012,0.254064,0.223055,0.200894,0.076313,0.090825,0.245108,0.085062,0.066882,0.027583,0.043623,0.392665,0.335549,0.539371,0.161166,0.159537,0.477613,0.392478,1.116277,0.205879,0.188378,0.489817,0.276451,0.487377,0.172161,0.206939,0.453269,0.32725,0.736233,0.168269,0.166913,0.358451,0.534799,0.443874,0.279918,0.177747,0.422513,0.41539,0.33139,0.315326,0.137385,0.807103,0.999839,0.56107,0.241829,0.157595,0.420354,0.292718,0.232449,0.258998,0.166428,0.695982,0.509626,0.2662,0.338398,0.1651
1768973184.670437,1768973184.670938,127.0,0.0,4382.563965,4371.666504,4367.94873,4385.384766,4378.205078,4385.512695,4381.538574,4385.512695,4381.410156,4359.615234,4465.384766,4533.461426,4410.641113,4458.717773,,,,,,,,,,,,,,,,,,,,,,,,,,,,,,,,,,,,,,,,,,,,,,,,,,,,,,,,,,,,,,,,,,,,,,
1768973184.678245,1768973184.678946,0.0,0.0,4374.487305,4370.641113,4360.512695,4380.256348,4377.820313,4385.0,4382.820313,4386.922852,4384.615234,4358.974121,4468.077148,4530.641113,4410.384766,4456.538574,,,,,,,,,,,,,,,,,,,,,,,,,,,,,,,,,,,,,,,,,,,,,,,,,,,,,,,,,,,,,,,,,,,,,,
1768973184.686054,1768973184.686755,1.0,0.0,4372.179688,4371.282227,4358.461426,4381.922852,4376.666504,4373.974121,4372.179688,4378.717773,4376.153809,4357.94873,4461.025879,4524.743652,4406.410156,4447.179688,,,,,,,,,,,,,,,,,,,,,,,,,,,,,,,,,,,,,,,,,,,,,,,,,,,,,,,,,,,,,,,,,,,,,,
1768973184.693862,1768973184.694663,2.0,0.0,4373.461426,4374.871582,4362.563965,4386.666504,4377.05127,4374.230957,4370.769043,4371.794922,4367.436035,4353.974121,4455.128418,4518.205078,4406.538574,4441.538574,,,,,,,,,,,,,,,,,,,,,,,,,,,,,,,,,,,,,,,,,,,,,,,,,,,,,,,,,,,,,,,,,,,,,,
1768973184.701671,1768973184.702471,3.0,0.0,4376.538574,4379.871582,4365.641113,4387.820313,4377.436035,4377.820313,4375.512695,4376.666504,4372.307617,4355.769043,4464.230957,4523.205078,4411.410156,4450.256348,,,,,,,,,,,,,,,,,,,,,,,,,,,,,,,,,,,,,,,,,,,,,,,,,,,,,,,,,,,,,,,,,,,,,,
1768973184.709479,1768973184.71008,4.0,0.0,4384.358887,4385.897461,4364.230957,4388.333496,4377.94873,4373.717773,4372.692383,4382.94873,4378.717773,4361.410156,4475.0,4536.922852,4413.974121,4460.641113,,,,,,,,,,,,,,,,,,,,,,,,,,,,,,,,,,,,,,,,,,,,,,,,,,,,,,,,,,,,,,,,,,,,,,
1768973184.717288,1768973184.717888,5.0,0.0,4386.025879,4391.922852,4364.615234,4392.05127,4378.205078,4374.230957,4370.641113,4383.589844,4373.974121,4351.794922,4467.179688,4535.128418,4411.794922,4456.153809,,,,,,,,,,,,,,,,,,,,,,,,,,,,,,,,,,,,,,,,,,,,,,,,,,,,,,,,,,,,,,,,,,,,,,
1768973184.725096,1768973184.725597,6.0,0.0,4380.512695,4396.410156,4368.333496,4393.974121,4378.333496,4379.102539,4375.0,4380.641113,4371.410156,4344.615234,4458.589844,4524.102539,4410.128418,4447.436035,,,,,,,,,,,,,,,,,,,,,,,,,,,,,,,,,,,,,,,,,,,,,,,,,,,,,,,,,,,,,,,,,,,,,,
1768973184.732905,1768973184.733405,7.0,0.0,4381.538574,4397.179688,4365.641113,4389.358887,4380.384766,4380.0,4378.717773,4378.589844,4374.230957,4357.692383,4462.563965,4522.820313,4411.282227,4445.897461,,,,,,,,,,,,,,,,,,,,,,,,,,,,,,,,,,,,,,,,,,,,,,,,,,,,,,,,,,,,,,,,,,,,,,
1768973184.740713,1768973184.741014,8.0,0.0,4382.692383,4396.666504,4357.05127,4385.384766,4380.0,4379.871582,4375.0,4380.641113,4374.487305,4365.641113,4464.358887,4523.077148,4412.94873,4445.0,,,,,,,,,,,,,,,,,,,,,,,,,,,,,,,,,,,,,,,,,,,,,,,,,,,,,,,,,,,,,,,,,,,,,,
1768973184.748521,1768973184.748822,9.0,0.0,4379.615234,4398.077148,4358.077148,4386.666504,4376.153809,4376.794922,4370.897461,4386.538574,4375.0,4358.846191,4467.307617,4521.794922,4412.05127,4447.179688,,,,,,,,,,,,,,,,,,,,,,,,,,,,,,,,,,,,,,,,,,,,,,,,,,,,,,,,,,,,,,,,,,,,,,
1768973184.75633,1768973184.756531,10.0,0.0,4380.769043,4397.436035,4364.487305,4389.230957,4375.256348,4375.641113,4378.717773,4388.333496,4375.512695,4356.538574,4472.820313,4529.871582,4412.563965,4455.897461,,,,,,,,,,,,,,,,,,,,,,,,,,,,,,,,,,,,,,,,,,,,,,,,,,,,,,,,,,,,,,,,,,,,,,
1768973184.764138,1768973184.764339,11.0,0.0,4381.153809,4392.820313,4362.436035,4388.717773,4380.512695,4377.563965,4383.974121,4380.512695,4372.436035,4358.461426,4467.692383,4534.487305,4413.846191,4457.179688,,,,,,,,,,,,,,,,,,,,,,,,,,,,,,,,,,,,,,,,,,,,,,,,,,,,,,,,,,,,,,,,,,,,,,
1768973184.771947,1768973184.772348,12.0,0.0,4374.487305,4387.436035,4355.0,4386.410156,4378.589844,4370.769043,4372.820313,4374.871582,4371.538574,4357.563965,4459.871582,4526.666504,4410.512695,4449.102539,,,,,,,,,,,,,,,,,,,,,,,,,,,,,,,,,,,,,,,,,,,,,,,,,,,,,,,,,,,,,,,,,,,,,,
1768973184.779755,1768973184.780156,13.0,0.0,4371.025879,4385.641113,4353.205078,4385.769043,4370.512695,4363.974121,4366.666504,4378.589844,4371.794922,4350.641113,4460.769043,4524.615234,4411.025879,4445.384766,,,,,,,,,,,,,,,,,,,,,,,,,,,,,,,,,,,,,,,,,,,,,,,,,,,,,,,,,,,,,,,,,,,,,,
1768973184.787564,1768973184.788065,14.0,0.0,4373.846191,4387.692383,4354.487305,4386.410156,4372.307617,4367.179688,4370.769043,4377.94873,4366.794922,4341.922852,4460.512695,4527.179688,4412.820313,4446.282227,0.514167,0.212838,0.181414,0.184642,0.111858,1.693107,0.187202,0.402418,0.189434,0.111615,0.207793,0.147445,0.202736,0.112557,0.092804,0.271351,0.223136,0.191404,0.07899,0.09127,0.21001,0.071781,0.067008,0.031469,0.043251,0.369472,0.274511,0.499796,0.155836,0.149819,0.406413,0.355904,1.060914,0.19117,0.180695,0.414759,0.264684,0.537672,0.142378,0.210329,0.503536,0.348329,0.769355,0.137744,0.159917,0.373629,0.499766,0.48708,0.245398,0.19773,0.389819,0.463837,0.38361,0.244669,0.116016,0.761915,1.005546,0.652847,0.22574,0.144055,0.39507,0.235101,0.233045,0.25785,0.181653,0.694803,0.469959,0.309203,0.358068,0.169084
1768973184.795372,1768973184.795873,15.0,0.0,4374.102539,4392.307617,4352.179688,4389.358887,4375.641113,4368.717773,4367.692383,4371.794922,4367.307617,4348.077148,4458.461426,4520.769043,4408.077148,4446.153809,,,,,,,,,,,,,,,,,,,,,,,,,,,,,,,,,,,,,,,,,,,,,,,,,,,,,,,,,,,,,,,,,,,,,,
1768973184.803181,1768973184.803881,16.0,0.0,4370.512695,4394.102539,4350.641113,4390.512695,4373.461426,4366.410156,4365.256348,4373.717773,4372.05127,4357.820313,4459.487305,4516.794922,4402.563965,4444.743652,,,,,,,,,,,,,,,,,,,,,,,,,,,,,,,,,,,,,,,,,,,,,,,,,,,,,,,,,,,,,,,,,,,,,,
1768973184.810989,1768973184.81169,17.0,0.0,4371.153809,4396.153809,4356.922852,4388.717773,4373.205078,4371.794922,4372.05127,4377.563965,4369.615234,4353.589844,4458.333496,4520.769043,4403.974121,4443.846191,,,,,,,,,,,,,,,,,,,,,,,,,,,,,,,,,,,,,,,,,,,,,,,,,,,,,,,,,,,,,,,,,,,,,,
1768973184.818797,1768973184.819398,18.0,0.0,4378.589844,4401.922852,4363.333496,4393.077148,4378.333496,4376.538574,4375.897461,4373.846191,4368.461426,4351.282227,4457.05127,4521.666504,4403.717773,4446.025879,,,,,,,,,,,,,,,,,,,,,,,,,,,,,,,,,,,,,,,,,,,,,,,,,,,,,,,,,,,,,,,,,,,,,,
1768973184.826606,1768973184.827207,19.0,0.0,4382.179688,4401.922852,4361.025879,4395.769043,4381.794922,4375.256348,4375.256348,4372.05127,4371.282227,4351.282227,4457.692383,4519.487305,4401.666504,4444.615234,,,,,,,,,,,,,,,,,,,,,,,,,,,,,,,,,,,,,,,,,,,,,,,,,,,,,,,,,,,,,,,,,,,,,,
1768973184.834414,1768973184.835215,20.0,0.0,4378.589844,4395.897461,4359.871582,4390.769043,4380.256348,4373.974121,4375.641113,4375.384766,4372.05127,4350.128418,4458.589844,4520.256348,4405.0,4441.922852,,,,,,,,,,,,,,,,,,,,,,,,,,,,,,,,,,,,,,,,,,,,,,,,,,,,,,,,,,,,,,,,,,,,,,
1768973184.842223,1768973184.843023,21.0,0.0,4380.897461,4392.692383,4363.974121,4389.615234,4380.897461,4373.589844,4374.358887,4376.922852,4373.589844,4356.922852,4460.128418,4522.94873,4410.769043,4453.589844,,,,,,,,,,,,,,,,,,,,,,,,,,,,,,,,,,,,,,,,,,,,,,,,,,,,,,,,,,,,,,,,,,,,,,
1768973184.850031,1768973184.850932,22.0,0.0,4383.846191,4393.717773,4362.820313,4392.563965,4381.153809,4373.205078,4372.436035,4375.256348,4373.461426,4356.282227,4460.384766,4524.358887,4414.358887,4460.897461,,,,,,,,,,,,,,,,,,,,,,,,,,,,,,,,,,,,,,,,,,,,,,,,,,,,,,,,,,,,,,,,,,,,,,
1768973184.85784,1768973184.85874,23.0,0.0,4376.153809,4389.743652,4358.205078,4390.0,4378.589844,4375.256348,4374.102539,4375.897461,4370.512695,4344.615234,4458.846191,4521.410156,4410.641113,4447.820313,,,,,,,,,,,,,,,,,,,,,,,,,,,,,,,,,,,,,,,,,,,,,,,,,,,,,,,,,,,,,,,,,,,,,,
1768973184.865648,1768973184.866748,24.0,0.0,4371.666504,4382.820313,4356.666504,4385.641113,4376.025879,4381.410156,4381.282227,4382.05127,4375.897461,4344.871582,4457.692383,4519.743652,4402.94873,4438.974121,,,,,,,,,,,,,,,,,,,,,,,,,,,,,,,,,,,,,,,,,,,,,,,,,,,,,,,,,,,,,,,,,,,,,,
1768973184.873457,1768973184.874557,25.0,0.0,4379.230957,4385.897461,4358.974121,4385.128418,4377.94873,4384.102539,4383.333496,4379.230957,4379.358887,4356.153809,4456.794922,4519.743652,4402.563965,4442.436035,,,,,,,,,,,,,,,,,,,,,,,,,,,,,,,,,,,,,,,,,,,,,,,,,,,,,,,,,,,,,,,,,,,,,,
1768973184.881265,1768973184.882265,26.0,0.0,4383.077148,4388.205078,4363.077148,4386.153809,4382.05127,4380.384766,4378.205078,4368.717773,4373.077148,4357.436035,4458.205078,4516.794922,4405.769043,4444.230957,,,,,,,,,,,,,,,,,,,,,,,,,,,,,,,,,,,,,,,,,,,,,,,,,,,,,,,,,,,,,,,,,,,,,,
1768973184.889073,1768973184.890074,27.0,0.0,4376.025879,4379.487305,4361.282227,4385.0,4380.769043,4373.717773,4371.794922,4369.615234,4373.461426,4348.846191,4460.769043,4516.410156,4401.538574,4443.333496,,,,,,,,,,,,,,,,,,,,,,,,,,,,,,,,,,,,,,,,,,,,,,,,,,,,,,,,,,,,,,,,,,,,,,
1768973184.896882,1768973184.897782,28.0,0.0,4370.384766,4375.256348,4352.692383,4382.05127,4377.563965,4369.743652,4366.666504,4374.102539,4375.897461,4344.615234,4455.0,4516.282227,4395.641113,4438.461426,,,,,,,,,,,,,,,,,,,,,,,,,,,,,,,,,,,,,,,,,,,,,,,,,,,,,,,,,,,,,,,,,,,,,,
1768973184.90469,1768973184.905591,29.0,0.0,4371.410156,4377.820313,4351.410156,4382.436035,4377.563965,4369.487305,4365.384766,4372.436035,4368.846191,4348.205078,4448.333496,4510.128418,4398.333496,4435.0,,,,,,,,,,,,,,,,,,,,,,,,,,,,,,,,,,,,,,,,,,,,,,,,,,,,,,,,,,,,,,,,,,,,,,
1768973184.912499,1768973184.913299,30.0,0.0,4372.563965,4375.512695,4360.128418,4384.230957,4376.410156,4368.846191,4367.692383,4372.05127,4364.358887,4348.077148,4448.333496,4507.307617,4398.589844,4435.641113,0.495452,0.19141,0.172871,0.200351,0.109928,1.682544,0.157676,0.394932,0.177691,0.106107,0.14938,0.142722,0.204651,0.109299,0.094854,0.289916,0.224339,0.167018,0.083504,0.086585,0.174975,0.07107,0.066707,0.037649,0.042335,0.333717,0.213896,0.432309,0.151361,0.144871,0.33044,0.314502,0.900669,0.169571,0.175003,0.356236,0.268482,0.526408,0.113394,0.212991,0.533223,0.358554,0.718169,0.109844,0.154654,0.388478,0.449567,0.503447,0.22973,0.223619,0.398759,0.50602,0.414603,0.190533,0.106157,0.729582,0.925758,0.695204,0.205033,0.136028,0.421071,0.204684,0.235057,0.270623,0.196075,0.727037,0.438947,0.363608,0.365896,0.175016
1768973184.920307,1768973184.921108,31.0,0.0,4373.846191,4374.743652,4364.487305,4385.128418,4371.794922,4367.563965,4367.94873,4370.769043,4366.025879,4340.641113,4448.205078,4514.615234,4394.871582,4437.820313,,,,,,,,,,,,,,,,,,,,,,,,,,,,,,,,,,,,,,,,,,,,,,,,,,,,,,,,,,,,,,,,,,,,,,
1768973184.928116,1768973184.928716,32.0,0.0,4374.230957,4377.692383,4360.512695,4385.256348,4371.922852,4364.358887,4366.153809,4365.769043,4364.487305,4341.794922,4446.538574,4521.282227,4398.974121,4439.743652,,,,,,,,,,,,,,,,,,,,,,,,,,,,,,,,,,,,,,,,,,,,,,,,,,,,,,,,,,,,,,,,,,,,,,
1768973184.935924,1768973184.936525,33.0,0.0,4369.230957,4374.871582,4357.05127,4381.666504,4374.871582,4363.717773,4367.692383,4369.871582,4364.102539,4347.563965,4445.384766,4520.769043,4404.358887,4436.666504,,,,,,,,,,,,,,,,,,,,,,,,,,,,,,,,,,,,,,,,,,,,,,,,,,,,,,,,,,,,,,,,,,,,,,
1768973184.943733,1768973184.944233,34.0,0.0,4364.487305,4371.794922,4356.282227,4379.358887,4373.077148,4367.05127,4370.512695,4376.794922,4367.436035,4339.358887,4446.153809,4518.846191,4401.025879,4433.461426,,,,,,,,,,,,,,,,,,,,,,,,,,,,,,,,,,,,,,,,,,,,,,,,,,,,,,,,,,,,,,,,,,,,,,
1768973184.951541,1768973184.952042,35.0,0.0,4368.461426,4372.307617,4357.94873,4380.256348,4372.436035,4368.077148,4371.794922,4375.384766,4366.538574,4332.94873,4447.94873,4518.974121,4396.282227,4437.94873,,,,,,,,,,,,,,,,,,,,,,,,,,,,,,,,,,,,,,,,,,,,,,,,,,,,,,,,,,,,,,,,,,,,,,
1768973184.95935,1768973184.959651,36.0,0.0,4372.820313,4376.794922,4363.461426,4380.897461,4374.871582,4369.615234,4376.153809,4375.128418,4362.94873,4341.538574,4448.974121,4519.615234,4396.538574,4441.025879,,,,,,,,,,,,,,,,,,,,,,,,,,,,,,,,,,,,,,,,,,,,,,,,,,,,,,,,,,,,,,,,,,,,,,
1768973184.967158,1768973184.967459,37.0,0.0,4369.871582,4380.769043,4366.282227,4381.538574,4375.384766,4372.307617,4377.436035,4377.820313,4366.794922,4349.615234,4447.820313,4518.333496,4396.666504,4434.615234,,,,,,,,,,,,,,,,,,,,,,,,,,,,,,,,,,,,,,,,,,,,,,,,,,,,,,,,,,,,,,,,,,,,,,
1768973184.974966,1768973184.975367,38.0,0.0,4366.666504,4376.410156,4363.205078,4382.179688,4374.487305,4370.769043,4371.282227,4371.410156,4367.692383,4344.615234,4446.666504,4512.307617,4396.282227,4430.641113,,,,,,,,,,,,,,,,,,,,,,,,,,,,,,,,,,,,,,,,,,,,,,,,,,,,,,,,,,,,,,,,,,,,,,
1768973184.982775,1768973184.983176,39.0,0.0,4370.0,4369.871582,4360.0,4379.743652,4372.05127,4364.230957,4365.128418,4360.641113,4359.102539,4340.0,4444.358887,4507.307617,4395.512695,4430.256348,,,,,,,,,,,,,,,,,,,,,,,,,,,,,,,,,,,,,,,,,,,,,,,,,,,,,,,,,,,,,,,,,,,,,,
1768973184.990583,1768973184.991184,40.0,0.0,4371.794922,4367.820313,4362.307617,4376.922852,4367.692383,4361.025879,4365.384766,4360.128418,4354.743652,4341.666504,4442.307617,4506.153809,4391.410156,4428.846191,,,,,,,,,,,,,,,,,,,,,,,,,,,,,,,,,,,,,,,,,,,,,,,,,,,,,,,,,,,,,,,,,,,,,,
1768973184.998392,1768973184.998992,41.0,0.0,4366.410156,4368.846191,4362.436035,4376.666504,4368.333496,4361.282227,4365.256348,4366.153809,4357.820313,4341.666504,4443.974121,4504.102539,4387.692383,4428.589844,,,,,,,,,,,,,,,,,,,,,,,,,,,,,,,,,,,,,,,,,,,,,,,,,,,,,,,,,,,,,,,,,,,,,,
1768973185.0062,1768973185.006901,42.0,0.0,4366.794922,4370.384766,4359.230957,4378.974121,4371.794922,4360.384766,4364.358887,4367.179688,4357.820313,4340.641113,4443.846191,4504.358887,4388.974121,4426.282227,,,,,,,,,,,,,,,,,,,,,,,,,,,,,,,,,,,,,,,,,,,,,,,,,,,,,,,,,,,,,,,,,,,,,,
1768973185.014009,1768973185.014709,43.0,0.0,4374.743652,4373.333496,4361.282227,4384.743652,4373.205078,4360.641113,4368.333496,4367.820313,4359.487305,4343.205078,4443.461426,4512.179688,4391.794922,4428.077148,,,,,,,,,,,,,,,,,,,,,,,,,,,,,,,,,,,,,,,,,,,,,,,,,,,,,,,,,,,,,,,,,,,,,,
1768973185.021817,1768973185.022318,44.0,0.0,4373.846191,4372.820313,4363.846191,4387.05127,4374.743652,4366.410156,4371.538574,4372.436035,4363.205078,4341.153809,4445.0,4512.692383,4391.410156,4426.666504,,,,,,,,,,,,,,,,,,,,,,,,,,,,,,,,,,,,,,,,,,,,,,,,,,,,,,,,,,,,,,,,,,,,,,
1768973185.029626,1768973185.030126,45.0,0.0,4364.487305,4366.538574,4359.487305,4381.282227,4374.871582,4374.615234,4375.0,4378.461426,4366.025879,4336.153809,4442.94873,4504.358887,4387.179688,4418.077148,,,,,,,,,,,,,,,,,,,,,,,,,,,,,,,,,,,,,,,,,,,,,,,,,,,,,,,,,,,,,,,,,,,,,,
1768973185.037434,1768973185.037835,46.0,0.0,4362.94873,4366.025879,4354.230957,4378.205078,4371.410156,4375.256348,4380.512695,4384.615234,4376.666504,4346.794922,4445.769043,4510.512695,4388.974121,4419.230957,0.444146,0.183716,0.156422,0.221485,0.108852,1.583475,0.137421,0.36061,0.164346,0.098034,0.129107,0.150135,0.199781,0.108197,0.096454,0.296855,0.221163,0.136368,0.08969,0.079374,0.149266,0.0763,0.065719,0.046142,0.041421,0.288296,0.17358,0.357235,0.149121,0.143867,0.271467,0.292198,0.68707,0.145873,0.169837,0.318171,0.287388,0.455148,0.088039,0.211969,0.524013,0.357142,0.596022,0.086135,0.14953,0.383236,0.390273,0.490137,0.231769,0.249823,0.405806,0.53055,0.42383,0.164331,0.107676,0.692933,0.773198,0.684827,0.186153,0.130773,0.456619,0.201165,0.233559,0.287069,0.203072,0.738763,0.430519,0.406981,0.361876,0.177704
1768973185.045242,1768973185.045643,47.0,0.0,4373.461426,4377.692383,4358.974121,4385.256348,4370.769043,4371.794922,4381.153809,4383.077148,4381.666504,4364.871582,4458.333496,4519.230957,4400.384766,4434.615234,,,,,,,,,,,,,,,,,,,,,,,,,,,,,,,,,,,,,,,,,,,,,,,,,,,,,,,,,,,,,,,,,,,,,,
1768973185.053051,1768973185.053652,48.0,0.0,4378.846191,4386.794922,4364.102539,4391.538574,4373.077148,4372.563965,4377.307617,4376.666504,4372.307617,4363.077148,4460.0,4513.461426,4404.871582,4440.0,,,,,,,,,,,,,,,,,,,,,,,,,,,,,,,,,,,,,,,,,,,,,,,,,,,,,,,,,,,,,,,,,,,,,,
1768973185.060859,1768973185.06146,49.0,0.0,4369.871582,4381.282227,4362.307617,4385.897461,4371.666504,4372.179688,4373.333496,4375.128418,4370.128418,4354.102539,4450.641113,4511.794922,4397.94873,4431.282227,,,,,,,,,,,,,,,,,,,,,,,,,,,,,,,,,,,,,,,,,,,,,,,,,,,,,,,,,,,,,,,,,,,,,,
1768973185.068668,1768973185.069368,50.0,0.0,4363.589844,4374.743652,4358.461426,4381.153809,4370.384766,4369.230957,4370.0,4373.974121,4372.692383,4357.307617,4447.692383,4515.128418,4397.05127,4428.589844,,,,,,,,,,,,,,,,,,,,,,,,,,,,,,,,,,,,,,,,,,,,,,,,,,,,,,,,,,,,,,,,,,,,,,
1768973185.076476,1768973185.077177,51.0,0.0,4366.410156,4371.922852,4351.282227,4382.05127,4370.512695,4366.794922,4366.666504,4361.025879,4360.384766,4357.436035,4446.538574,4502.94873,4397.436035,4426.666504,,,,,,,,,,,,,,,,,,,,,,,,,,,,,,,,,,,,,,,,,,,,,,,,,,,,,,,,,,,,,,,,,,,,,,
1768973185.084285,1768973185.084786,52.0,0.0,4366.410156,4371.538574,4351.153809,4379.358887,4367.436035,4362.820313,4366.153809,4354.615234,4351.410156,4348.974121,4440.897461,4489.230957,4390.512695,4419.102539,,,,,,,,,,,,,,,,,,,,,,,,,,,,,,,,,,,,,,,,,,,,,,,,,,,,,,,,,,,,,,,,,,,,,,
1768973185.092093,1768973185.092594,53.0,0.0,4364.358887,4374.487305,4356.410156,4377.307617,4366.153809,4360.641113,4367.820313,4367.820313,4362.692383,4348.205078,4440.897461,4495.897461,4390.641113,4421.410156,,,,,,,,,,,,,,,,,,,,,,,,,,,,,,,,,,,,,,,,,,,,,,,,,,,,,,,,,,,,,,,,,,,,,,
1768973185.099902,1768973185.100502,54.0,0.0,4367.94873,4372.820313,4354.358887,4379.358887,4366.922852,4362.94873,4364.230957,4371.025879,4367.692383,4358.077148,4444.102539,4498.077148,4397.436035,4431.153809,,,,,,,,,,,,,,,,,,,,,,,,,,,,,,,,,,,,,,,,,,,,,,,,,,,,,,,,,,,,,,,,,,,,,,
1768973185.10771,1768973185.108311,55.0,0.0,4368.974121,4371.410156,4351.282227,4379.358887,4366.282227,4363.461426,4357.563965,4363.333496,4359.743652,4358.974121,4442.179688,4489.230957,4395.384766,4429.358887,,,,,,,,,,,,,,,,,,,,,,,,,,,,,,,,,,,,,,,,,,,,,,,,,,,,,,,,,,,,,,,,,,,,,,
1768973185.115518,1768973185.115919,56.0,0.0,4366.410156,4376.922852,4353.205078,4377.692383,4367.563965,4364.102539,4360.0,4364.615234,4358.846191,4348.333496,4441.794922,4494.487305,4392.94873,4424.871582,,,,,,,,,,,,,,,,,,,,,,,,,,,,,,,,,,,,,,,,,,,,,,,,,,,,,,,,,,,,,,,,,,,,,,
1768973185.123327,1768973185.123728,57.0,0.0,4368.333496,4379.871582,4356.282227,4379.230957,4370.0,4369.615234,4370.128418,4369.230957,4364.871582,4352.05127,4444.743652,4501.538574,4397.307617,4427.179688,,,,,,,,,,,,,,,,,,,,,,,,,,,,,,,,,,,,,,,,,,,,,,,,,,,,,,,,,,,,,,,,,,,,,,
1768973185.131135,1768973185.131436,58.0,0.0,4369.615234,4375.769043,4354.102539,4380.0,4367.563965,4374.358887,4374.102539,4367.820313,4366.153809,4364.230957,4441.153809,4495.512695,4397.307617,4427.179688,,,,,,,,,,,,,,,,,,,,,,,,,,,,,,,,,,,,,,,,,,,,,,,,,,,,,,,,,,,,,,,,,,,,,,
1768973185.138944,1768973185.139245,59.0,0.0,4367.179688,4372.307617,4350.384766,4377.563965,4365.512695,4373.205078,4371.922852,4366.153809,4363.589844,4363.589844,4434.615234,4492.692383,4394.230957,4424.230957,,,,,,,,,,,,,,,,,,,,,,,,,,,,,,,,,,,,,,,,,,,,,,,,,,,,,,,,,,,,,,,,,,,,,,
1768973185.146752,1768973185.146853,60.0,0.0,4365.641113,4374.230957,4350.897461,4377.820313,4368.461426,4371.538574,4371.666504,4367.05127,4365.0,4362.563965,4438.077148,4500.384766,4395.769043,4424.871582,,,,,,,,,,,,,,,,,,,,,,,,,,,,,,,,,,,,,,,,,,,,,,,,,,,,,,,,,,,,,,,,,,,,,,
1768973185.154561,1768973185.154662,61.0,0.0,4368.846191,4380.384766,4354.102539,4380.128418,4370.897461,4371.153809,4372.820313,4368.077148,4369.358887,4372.307617,4445.769043,4504.871582,4398.077148,4429.743652,,,,,,,,,,,,,,,,,,,,,,,,,,,,,,,,,,,,,,,,,,,,,,,,,,,,,,,,,,,,,,,,,,,,,,
1768973185.162369,1768973185.16237,62.0,0.0,4373.333496,4384.358887,4357.179688,4385.512695,4374.358887,4372.820313,4375.769043,4370.769043,4369.615234,4375.641113,4445.256348,4507.05127,4398.077148,4432.563965,0.373199,0.19985,0.132121,0.244994,0.106795,1.429881,0.145686,0.306809,0.151172,0.087025,0.144174,0.17575,0.183547,0.109773,0.097781,0.288106,0.219083,0.108129,0.096559,0.072695,0.135102,0.084312,0.063639,0.05577,0.04101,0.235273,0.166702,0.296218,0.149315,0.144573,0.232579,0.304987,0.483476,0.126851,0.163986,0.274503,0.313054,0.346621,0.069825,0.205562,0.45512,0.343,0.442017,0.068329,0.142687,0.332897,0.334874,0.457885,0.240613,0.269881,0.368051,0.534804,0.412023,0.167078,0.117245,0.645891,0.593678,0.630471,0.17675,0.126303,0.453447,0.22527,0.224124,0.294913,0.197934,0.703791,0.4585,0.423107,0.353044,0.17552
1768973185.170178,1768973185.170179,63.0,0.0,4375.128418,4378.589844,4355.897461,4389.743652,4375.641113,4372.436035,4371.922852,4371.666504,4365.128418,4372.563965,4442.436035,4509.102539,4397.179688,4429.487305,,,,,,,,,,,,,,,,,,,,,,,,,,,,,,,,,,,,,,,,,,,,,,,,,,,,,,,,,,,,,,,,,,,,,,
1768973185.177986,1768973185.178187,64.0,0.0,4371.922852,4371.025879,4353.846191,4386.025879,4369.871582,4367.179688,4362.692383,4375.0,4368.077148,4374.871582,4443.974121,4507.05127,4396.922852,4428.077148,,,,,,,,,,,,,,,,,,,,,,,,,,,,,,,,,,,,,,,,,,,,,,,,,,,,,,,,,,,,,,,,,,,,,,
1768973185.185794,1768973185.185996,65.0,0.0,4369.358887,4370.897461,4355.128418,4384.743652,4368.717773,4369.358887,4369.743652,4375.512695,4370.769043,4375.897461,4445.0,4506.410156,4394.743652,4433.333496,,,,,,,,,,,,,,,,,,,,,,,,,,,,,,,,,,,,,,,,,,,,,,,,,,,,,,,,,,,,,,,,,,,,,,
1768973185.193603,1768973185.193904,66.0,0.0,4370.128418,4369.743652,4356.153809,4387.563965,4372.307617,4375.0,4377.94873,4366.282227,4360.512695,4374.358887,4440.0,4503.846191,4389.230957,4432.692383,,,,,,,,,,,,,,,,,,,,,,,,,,,,,,,,,,,,,,,,,,,,,,,,,,,,,,,,,,,,,,,,,,,,,,
1768973185.201411,1768973185.201712,67.0,0.0,4362.94873,4363.846191,4349.743652,4384.743652,4366.538574,4371.025879,4367.179688,4361.153809,4354.230957,4369.102539,4431.282227,4494.230957,4381.538574,4422.307617,,,,,,,,,,,,,,,,,,,,,,,,,,,,,,,,,,,,,,,,,,,,,,,,,,,,,,,,,,,,,,,,,,,,,,
1768973185.20922,1768973185.209721,68.0,0.0,4355.0,4362.179688,4343.974121,4377.820313,4360.128418,4366.153809,4359.615234,4361.666504,4356.922852,4367.436035,4425.769043,4490.641113,4379.358887,4414.871582,,,,,,,,,,,,,,,,,,,,,,,,,,,,,,,,,,,,,,,,,,,,,,,,,,,,,,,,,,,,,,,,,,,,,,
1768973185.217028,1768973185.217529,69.0,0.0,4360.512695,4366.410156,4348.717773,4378.846191,4364.358887,4370.897461,4366.410156,4358.077148,4354.487305,4376.025879,4429.743652,4497.05127,4386.410156,4416.538574,,,,,,,,,,,,,,,,,,,,,,,,,,,,,,,,,,,,,,,,,,,,,,,,,,,,,,,,,,,,,,,,,,,,,,
1768973185.224837,1768973185.225238,70.0,0.0,4368.333496,4366.666504,4354.871582,4382.692383,4367.436035,4372.307617,4366.153809,4354.102539,4351.410156,4384.230957,4438.589844,4503.077148,4389.615234,4424.230957,,,,,,,,,,,,,,,,,,,,,,,,,,,,,,,,,,,,,,,,,,,,,,,,,,,,,,,,,,,,,,,,,,,,,,
1768973185.232645,1768973185.233046,71.0,0.0,4365.0,4365.0,4353.205078,4381.794922,4365.897461,4367.436035,4361.666504,4358.077148,4354.871582,4387.692383,4443.333496,4503.333496,4389.615234,4428.461426,,,,,,,,,,,,,,,,,,,,,,,,,,,,,,,,,,,,,,,,,,,,,,,,,,,,,,,,,,,,,,,,,,,,,,
1768973185.240454,1768973185.241054,72.0,0.0,4364.358887,4363.461426,4348.717773,4381.666504,4367.436035,4370.641113,4366.153809,4363.205078,4357.307617,4393.974121,4443.846191,4503.077148,4393.589844,4427.820313,,,,,,,,,,,,,,,,,,,,,,,,,,,,,,,,,,,,,,,,,,,,,,,,,,,,,,,,,,,,,,,,,,,,,,
1768973185.248262,1768973185.248863,73.0,0.0,4371.794922,4361.794922,4350.897461,4382.692383,4369.743652,4375.641113,4366.922852,4361.282227,4358.717773,4397.307617,4440.641113,4502.179688,4392.820313,4427.307617,,,,,,,,,,,,,,,,,,,,,,,,,,,,,,,,,,,,,,,,,,,,,,,,,,,,,,,,,,,,,,,,,,,,,,
1768973185.256071,1768973185.256771,74.0,0.0,4370.641113,4362.179688,4353.717773,4382.563965,4367.692383,4374.358887,4366.922852,4360.512695,4361.538574,4393.717773,4437.820313,4499.743652,4384.615234,4423.974121,,,,,,,,,,,,,,,,,,,,,,,,,,,,,,,,,,,,,,,,,,,,,,,,,,,,,,,,,,,,,,,,,,,,,,
1768973185.263879,1768973185.26458,75.0,0.0,4365.384766,4362.179688,4353.077148,4382.05127,4362.820313,4375.897461,4375.512695,4367.820313,4366.410156,4401.410156,4441.282227,4503.717773,4386.922852,4422.820313,,,,,,,,,,,,,,,,,,,,,,,,,,,,,,,,,,,,,,,,,,,,,,,,,,,,,,,,,,,,,,,,,,,,,,
1768973185.271687,1768973185.272188,76.0,0.0,4370.128418,4358.077148,4354.230957,4379.871582,4362.820313,4384.743652,4384.871582,4374.871582,4369.615234,4407.94873,4447.307617,4510.769043,4395.384766,4426.666504,,,,,,,,,,,,,,,,,,,,,,,,,,,,,,,,,,,,,,,,,,,,,,,,,,,,,,,,,,,,,,,,,,,,,,
1768973185.279496,1768973185.279997,77.0,0.0,4374.743652,4352.820313,4354.871582,4379.102539,4366.410156,4385.128418,4381.410156,4367.94873,4362.05127,4396.922852,4441.153809,4503.717773,4389.230957,4422.179688,,,,,,,,,,,,,,,,,,,,,,,,,,,,,,,,,,,,,,,,,,,,,,,,,,,,,,,,,,,,,,,,,,,,,,
1768973185.287304,1768973185.287705,78.0,0.0,4372.820313,4353.717773,4352.307617,4383.205078,4365.512695,4374.743652,4372.307617,4361.794922,4357.563965,4397.563965,4433.589844,4494.487305,4379.743652,4417.307617,0.295554,0.24068,0.105834,0.263964,0.103059,1.25978,0.20293,0.252421,0.14004,0.074503,0.184271,0.219583,0.159146,0.115153,0.098747,0.268862,0.22527,0.089945,0.102813,0.068407,0.139179,0.09286,0.062211,0.06468,0.041046,0.201475,0.197616,0.264464,0.150042,0.143551,0.220885,0.359131,0.336439,0.116582,0.156204,0.242721,0.342635,0.238535,0.060957,0.194015,0.369194,0.32387,0.30424,0.057044,0.133629,0.263226,0.294227,0.425562,0.243985,0.280063,0.298723,0.522656,0.381983,0.187732,0.129273,0.586284,0.449545,0.551991,0.180086,0.121685,0.408809,0.271721,0.204879,0.285458,0.18023,0.619349,0.517309,0.40711,0.347465,0.169651
1768973185.295113,1768973185.295514,79.0,0.0,4371.282227,4359.743652,4351.666504,4384.487305,4362.179688,4371.538574,4372.563965,4367.307617,4365.512695,4412.820313,4439.358887,4501.025879,4380.512695,4419.358887,,,,,,,,,,,,,,,,,,,,,,,,,,,,,,,,,,,,,,,,,,,,,,,,,,,,,,,,,,,,,,,,,,,,,,
1768973185.302921,1768973185.303522,80.0,0.0,4374.487305,4366.025879,4353.974121,4385.256348,4363.717773,4375.897461,4374.102539,4367.94873,4363.205078,4414.230957,4442.94873,4508.846191,4382.05127,4420.0,,,,,,,,,,,,,,,,,,,,,,,,,,,,,,,,,,,,,,,,,,,,,,,,,,,,,,,,,,,,,,,,,,,,,,
1768973185.31073,1768973185.31133,81.0,0.0,4382.05127,4372.692383,4359.102539,4393.846191,4369.358887,4374.871582,4370.769043,4362.820313,4355.897461,4409.102539,4441.153809,4506.794922,4383.461426,4423.974121,,,,,,,,,,,,,,,,,,,,,,,,,,,,,,,,,,,,,,,,,,,,,,,,,,,,,,,,,,,,,,,,,,,,,,
1768973185.318538,1768973185.319039,82.0,0.0,4386.922852,4377.563965,4362.94873,4398.077148,4370.897461,4370.256348,4370.641113,4364.358887,4361.922852,4414.487305,4443.589844,4505.641113,4384.743652,4427.307617,,,,,,,,,,,,,,,,,,,,,,,,,,,,,,,,,,,,,,,,,,,,,,,,,,,,,,,,,,,,,,,,,,,,,,
1768973185.326347,1768973185.326847,83.0,0.0,4381.153809,4373.589844,4358.717773,4390.769043,4365.769043,4371.282227,4373.846191,4368.589844,4363.333496,4415.897461,4444.230957,4503.077148,4384.230957,4419.743652,,,,,,,,,,,,,,,,,,,,,,,,,,,,,,,,,,,,,,,,,,,,,,,,,,,,,,,,,,,,,,,,,,,,,,
1768973185.334155,1768973185.334456,84.0,0.0,4377.05127,4366.410156,4356.410156,4388.333496,4361.794922,4371.025879,4368.333496,4367.307617,4357.563965,4415.641113,4441.025879,4500.769043,4388.205078,4419.230957,,,,,,,,,,,,,,,,,,,,,,,,,,,,,,,,,,,,,,,,,,,,,,,,,,,,,,,,,,,,,,,,,,,,,,
1768973185.341963,1768973185.342264,85.0,0.0,4380.512695,4367.94873,4361.153809,4395.897461,4364.102539,4369.230957,4368.846191,4368.333496,4365.384766,4424.358887,4443.974121,4505.128418,4392.179688,4431.282227,,,,,,,,,,,,,,,,,,,,,,,,,,,,,,,,,,,,,,,,,,,,,,,,,,,,,,,,,,,,,,,,,,,,,,
1768973185.349772,1768973185.349973,86.0,0.0,4382.563965,4372.436035,4361.666504,4399.230957,4367.692383,4371.794922,4378.333496,4370.0,4371.666504,4430.384766,4446.538574,4505.641113,4389.358887,4433.333496,,,,,,,,,,,,,,,,,,,,,,,,,,,,,,,,,,,,,,,,,,,,,,,,,,,,,,,,,,,,,,,,,,,,,,
1768973185.35758,1768973185.357781,87.0,0.0,4382.179688,4376.538574,4356.922852,4397.307617,4372.94873,4375.769043,4376.922852,4366.538574,4365.128418,4431.794922,4442.179688,4498.589844,4390.512695,4428.333496,,,,,,,,,,,,,,,,,,,,,,,,,,,,,,,,,,,,,,,,,,,,,,,,,,,,,,,,,,,,,,,,,,,,,,
1768973185.365389,1768973185.36579,88.0,0.0,4383.333496,4377.820313,4353.077148,4396.538574,4373.077148,4380.641113,4376.153809,4372.05127,4368.717773,4431.153809,4446.025879,4500.128418,4397.692383,4430.897461,,,,,,,,,,,,,,,,,,,,,,,,,,,,,,,,,,,,,,,,,,,,,,,,,,,,,,,,,,,,,,,,,,,,,,
1768973185.373197,1768973185.373598,89.0,0.0,4386.538574,4375.0,4355.0,4399.358887,4365.384766,4378.717773,4380.897461,4380.384766,4378.589844,4432.436035,4456.153809,4510.384766,4399.487305,4437.05127,,,,,,,,,,,,,,,,,,,,,,,,,,,,,,,,,,,,,,,,,,,,,,,,,,,,,,,,,,,,,,,,,,,,,,
1768973185.381006,1768973185.381506,90.0,0.0,4391.025879,4374.743652,4361.153809,4402.307617,4365.128418,4371.538574,4376.666504,4371.922852,4372.307617,4440.897461,4454.743652,4507.94873,4397.820313,4437.563965,,,,,,,,,,,,,,,,,,,,,,,,,,,,,,,,,,,,,,,,,,,,,,,,,,,,,,,,,,,,,,,,,,,,,,
1768973185.388814,1768973185.389315,91.0,0.0,4390.769043,4375.384766,4359.743652,4400.128418,4372.563965,4376.666504,4373.589844,4362.94873,4362.94873,4448.461426,4443.717773,4497.692383,4396.922852,4430.256348,,,,,,,,,,,,,,,,,,,,,,,,,,,,,,,,,,,,,,,,,,,,,,,,,,,,,,,,,,,,,,,,,,,,,,
1768973185.396623,1768973185.397323,92.0,0.0,4381.666504,4371.666504,4349.615234,4395.128418,4372.820313,4384.615234,4379.487305,4371.153809,4369.743652,4445.384766,4441.025879,4498.589844,4395.0,4426.153809,,,,,,,,,,,,,,,,,,,,,,,,,,,,,,,,,,,,,,,,,,,,,,,,,,,,,,,,,,,,,,,,,,,,,,
1768973185.404431,1768973185.405132,93.0,0.0,4375.384766,4368.077148,4349.487305,4395.384766,4367.179688,4378.461426,4377.436035,4373.717773,4373.846191,4441.794922,4443.717773,4501.025879,4395.384766,4427.179688,,,,,,,,,,,,,,,,,,,,,,,,,,,,,,,,,,,,,,,,,,,,,,,,,,,,,,,,,,,,,,,,,,,,,,
1768973185.412239,1768973185.41304,94.0,0.0,4380.641113,4369.615234,4356.025879,4398.333496,4366.538574,4371.153809,4371.025879,4368.205078,4366.153809,4445.256348,4442.563965,4498.077148,4396.794922,4428.333496,0.249746,0.291947,0.08389,0.271558,0.098815,1.097491,0.312924,0.213605,0.133154,0.063249,0.230803,0.269884,0.131569,0.124211,0.099262,0.246753,0.239454,0.082334,0.106592,0.066445,0.152753,0.099386,0.063726,0.070645,0.041051,0.205146,0.261424,0.264942,0.147337,0.137974,0.230664,0.450284,0.258793,0.114814,0.146363,0.218008,0.381542,0.16605,0.060835,0.179573,0.311995,0.318287,0.215017,0.050825,0.124061,0.2059,0.275979,0.405859,0.236779,0.281143,0.224494,0.502219,0.337998,0.209252,0.138092,0.524959,0.388397,0.463772,0.194479,0.1174,0.335559,0.330263,0.178727,0.257248,0.153904,0.507378,0.577782,0.365709,0.349096,0.16242
1768973185.420048,1768973185.420848,95.0,0.0,4385.384766,4370.128418,4352.563965,4397.436035,4368.717773,4372.820313,4371.025879,4371.282227,4368.974121,4446.025879,4441.922852,4500.0,4396.922852,4430.256348,,,,,,,,,,,,,,,,,,,,,,,,,,,,,,,,,,,,,,,,,,,,,,,,,,,,,,,,,,,,,,,,,,,,,,
1768973185.427856,1768973185.428457,96.0,0.0,4382.05127,4364.487305,4347.436035,4396.666504,4368.974121,4375.384766,4369.358887,4373.333496,4377.05127,4447.820313,4442.563965,4505.128418,4396.282227,4430.512695,,,,,,,,,,,,,,,,,,,,,,,,,,,,,,,,,,,,,,,,,,,,,,,,,,,,,,,,,,,,,,,,,,,,,,
1768973185.435665,1768973185.436266,97.0,0.0,4379.743652,4360.256348,4350.128418,4398.333496,4368.333496,4373.461426,4370.384766,4368.205078,4374.102539,4455.256348,4442.692383,4504.615234,4395.128418,4428.077148,,,,,,,,,,,,,,,,,,,,,,,,,,,,,,,,,,,,,,,,,,,,,,,,,,,,,,,,,,,,,,,,,,,,,,
1768973185.443473,1768973185.444174,98.0,0.0,4385.0,4360.897461,4355.256348,4396.538574,4368.846191,4372.05127,4373.717773,4370.897461,4376.025879,4462.563965,4442.692383,4506.410156,4395.512695,4429.615234,,,,,,,,,,,,,,,,,,,,,,,,,,,,,,,,,,,,,,,,,,,,,,,,,,,,,,,,,,,,,,,,,,,,,,
1768973185.451282,1768973185.451982,99.0,0.0,4386.025879,4361.666504,4354.358887,4395.897461,4369.743652,4373.205078,4372.94873,4376.922852,4384.743652,4458.974121,4442.692383,4508.461426,4396.153809,4433.846191,,,,,,,,,,,,,,,,,,,,,,,,,,,,,,,,,,,,,,,,,,,,,,,,,,,,,,,,,,,,,,,,,,,,,,
1768973185.45909,1768973185.459691,100.0,0.0,4380.256348,4360.769043,4350.256348,4396.794922,4368.461426,4372.94873,4370.769043,4372.820313,4378.846191,4453.077148,4442.692383,4501.410156,4396.025879,4431.410156,,,,,,,,,,,,,,,,,,,,,,,,,,,,,,,,,,,,,,,,,,,,,,,,,,,,,,,,,,,,,,,,,,,,,,
1768973185.466899,1768973185.467499,101.0,0.0,4378.461426,4359.102539,4350.256348,4393.205078,4367.307617,4371.794922,4371.153809,4367.05127,4366.794922,4458.077148,4442.692383,4495.384766,4393.974121,4425.769043,,,,,,,,,,,,,,,,,,,,,,,,,,,,,,,,,,,,,,,,,,,,,,,,,,,,,,,,,,,,,,,,,,,,,,
1768973185.474707,1768973185.475208,102.0,0.0,4382.05127,4354.871582,4353.077148,4392.307617,4367.436035,4376.025879,4374.743652,4367.307617,4370.641113,4462.692383,4443.333496,4500.256348,4392.820313,4426.025879,,,,,,,,,,,,,,,,,,,,,,,,,,,,,,,,,,,,,,,,,,,,,,,,,,,,,,,,,,,,,,,,,,,,,,
1768973185.482515,1768973185.483016,103.0,0.0,4381.666504,4353.077148,4354.743652,4396.794922,4367.05127,4376.153809,4375.256348,4366.410156,4373.846191,4459.102539,4442.820313,4502.94873,4395.897461,4426.666504,,,,,,,,,,,,,,,,,,,,,,,,,,,,,,,,,,,,,,,,,,,,,,,,,,,,,,,,,,,,,,,,,,,,,,
1768973185.490324,1768973185.490625,104.0,0.0,4378.974121,4357.563965,4354.871582,4397.94873,4368.205078,4370.0,4372.436035,4366.153809,4368.077148,4457.94873,4441.538574,4500.512695,4397.820313,4424.358887,,,,,,,,,,,,,,,,,,,,,,,,,,,,,,,,,,,,,,,,,,,,,,,,,,,,,,,,,,,,,,,,,,,,,,
1768973185.498132,1768973185.498433,105.0,0.0,4384.487305,4358.205078,4354.743652,4397.179688,4368.333496,4374.743652,4373.589844,4372.307617,4372.307617,4462.307617,4444.230957,4504.358887,4397.436035,4428.205078,,,,,,,,,,,,,,,,,,,,,,,,,,,,,,,,,,,,,,,,,,,,,,,,,,,,,,,,,,,,,,,,,,,,,,
1768973185.505941,1768973185.506342,106.0,0.0,4387.692383,4356.025879,4351.922852,4397.05127,4364.358887,4377.820313,4374.102539,4370.769043,4378.461426,4464.358887,4442.820313,4507.179688,4397.307617,4432.179688,,,,,,,,,,,,,,,,,,,,,,,,,,,,,,,,,,,,,,,,,,,,,,,,,,,,,,,,,,,,,,,,,,,,,,
1768973185.513749,1768973185.51415,107.0,0.0,4377.94873,4360.384766,4350.128418,4396.282227,4362.94873,4367.820313,4365.512695,4358.461426,4368.974121,4462.307617,4431.794922,4495.512695,4394.487305,4421.794922,,,,,,,,,,,,,,,,,,,,,,,,,,,,,,,,,,,,,,,,,,,,,,,,,,,,,,,,,,,,,,,,,,,,,,
1768973185.521558,1768973185.521759,108.0,0.0,4373.205078,4362.563965,4352.563965,4399.871582,4366.282227,4362.94873,4361.794922,4357.94873,4362.307617,4458.333496,4430.897461,4490.384766,4392.692383,4415.128418,,,,,,,,,,,,,,,,,,,,,,,,,,,,,,,,,,,,,,,,,,,,,,,,,,,,,,,,,,,,,,,,,,,,,,
1768973185.529366,1768973185.529567,109.0,0.0,4381.922852,4362.05127,4355.0,4406.666504,4368.717773,4368.717773,4369.871582,4366.025879,4368.589844,4457.692383,4443.333496,4501.922852,4396.666504,4425.128418,,,,,,,,,,,,,,,,,,,,,,,,,,,,,,,,,,,,,,,,,,,,,,,,,,,,,,,,,,,,,,,,,,,,,,
1768973185.537175,1768973185.537276,110.0,0.0,4385.769043,4365.0,4354.358887,4407.179688,4370.769043,4370.384766,4371.282227,4361.538574,4369.743652,4461.153809,4441.794922,4503.205078,4399.230957,4430.897461,0.237804,0.331093,0.071263,0.262862,0.096277,0.935976,0.453311,0.198546,0.132826,0.056115,0.264656,0.30824,0.105384,0.133997,0.099043,0.230963,0.254214,0.081124,0.106089,0.065449,0.167796,0.102461,0.06898,0.072147,0.04081,0.245725,0.347071,0.287942,0.139412,0.127,0.252505,0.568246,0.234213,0.118718,0.136035,0.214782,0.440825,0.150901,0.066834,0.165468,0.309038,0.348575,0.183,0.047846,0.117178,0.174712,0.289158,0.397677,0.221515,0.276216,0.173024,0.47981,0.287103,0.220229,0.140079,0.467378,0.427343,0.375055,0.214012,0.114993,0.260444,0.391209,0.151524,0.217825,0.125724,0.385259,0.608483,0.313191,0.354851,0.155231
1768973185.544983,1768973185.545084,111.0,0.0,4380.769043,4365.769043,4349.487305,4401.794922,4370.641113,4364.871582,4364.615234,4354.871582,4369.487305,4462.692383,4432.179688,4496.282227,4395.769043,4425.897461,,,,,,,,,,,,,,,,,,,,,,,,,,,,,,,,,,,,,,,,,,,,,,,,,,,,,,,,,,,,,,,,,,,,,,
1768973185.552791,1768973185.552693,112.0,0.0,4381.666504,4362.307617,4348.589844,4400.512695,4367.692383,4362.94873,4363.846191,4360.0,4374.871582,4467.436035,4436.666504,4501.025879,4395.897461,4425.897461,,,,,,,,,,,,,,,,,,,,,,,,,,,,,,,,,,,,,,,,,,,,,,,,,,,,,,,,,,,,,,,,,,,,,,
1768973185.5606,1768973185.560501,113.0,0.0,4386.153809,4368.205078,4355.641113,4404.743652,4368.461426,4366.410156,4367.820313,4363.077148,4374.358887,4474.487305,4445.641113,4505.897461,4407.179688,4431.153809,,,,,,,,,,,,,,,,,,,,,,,,,,,,,,,,,,,,,,,,,,,,,,,,,,,,,,,,,,,,,,,,,,,,,,
1768973185.568408,1768973185.56821,114.0,0.0,4385.384766,4375.512695,4359.615234,4407.820313,4371.153809,4368.333496,4366.410156,4360.641113,4371.538574,4475.512695,4442.563965,4505.0,4410.0,4432.436035,,,,,,,,,,,,,,,,,,,,,,,,,,,,,,,,,,,,,,,,,,,,,,,,,,,,,,,,,,,,,,,,,,,,,,
1768973185.576217,1768973185.576018,115.0,0.0,4382.179688,4371.538574,4353.974121,4404.871582,4367.94873,4366.666504,4364.358887,4363.589844,4375.128418,4472.692383,4431.410156,4503.717773,4397.307617,4428.333496,,,,,,,,,,,,,,,,,,,,,,,,,,,,,,,,,,,,,,,,,,,,,,,,,,,,,,,,,,,,,,,,,,,,,,
1768973185.584025,1768973185.584027,116.0,0.0,4378.974121,4369.487305,4349.615234,4402.05127,4366.410156,4368.333496,4368.846191,4369.102539,4378.974121,4473.974121,4430.512695,4501.282227,4396.922852,4427.05127,,,,,,,,,,,,,,,,,,,,,,,,,,,,,,,,,,,,,,,,,,,,,,,,,,,,,,,,,,,,,,,,,,,,,,
1768973185.591834,1768973185.591835,117.0,0.0,4379.871582,4375.512695,4353.974121,4407.563965,4369.102539,4367.563965,4370.512695,4369.487305,4377.436035,4477.307617,4441.410156,4500.897461,4411.794922,4433.846191,,,,,,,,,,,,,,,,,,,,,,,,,,,,,,,,,,,,,,,,,,,,,,,,,,,,,,,,,,,,,,,,,,,,,,
1768973185.599642,1768973185.599743,118.0,0.0,4383.717773,4376.538574,4355.897461,4412.563965,4369.358887,4363.589844,4366.794922,4364.743652,4372.94873,4477.820313,4446.538574,4505.512695,4414.743652,4438.974121,,,,,,,,,,,,,,,,,,,,,,,,,,,,,,,,,,,,,,,,,,,,,,,,,,,,,,,,,,,,,,,,,,,,,,
1768973185.607451,1768973185.607552,119.0,0.0,4380.641113,4373.333496,4352.563965,4410.897461,4367.436035,4370.0,4371.153809,4363.846191,4370.897461,4477.563965,4442.94873,4506.282227,4409.358887,4434.102539,,,,,,,,,,,,,,,,,,,,,,,,,,,,,,,,,,,,,,,,,,,,,,,,,,,,,,,,,,,,,,,,,,,,,,
1768973185.615259,1768973185.61556,120.0,0.0,4373.589844,4376.153809,4352.179688,4409.743652,4367.563965,4378.589844,4377.820313,4370.0,4376.538574,4479.871582,4443.077148,4504.871582,4411.922852,4429.615234,,,,,,,,,,,,,,,,,,,,,,,,,,,,,,,,,,,,,,,,,,,,,,,,,,,,,,,,,,,,,,,,,,,,,,
1768973185.623068,1768973185.623369,121.0,0.0,4375.256348,4380.128418,4348.717773,4409.615234,4368.333496,4371.538574,4374.615234,4370.128418,4382.94873,4479.487305,4444.230957,4501.153809,4413.461426,4429.615234,,,,,,,,,,,,,,,,,,,,,,,,,,,,,,,,,,,,,,,,,,,,,,,,,,,,,,,,,,,,,,,,,,,,,,
1768973185.630876,1768973185.631077,122.0,0.0,4381.153809,4382.94873,4342.563965,4408.589844,4368.077148,4361.538574,4368.205078,4357.563965,4377.692383,4478.333496,4440.897461,4496.153809,4410.512695,4427.563965,,,,,,,,,,,,,,,,,,,,,,,,,,,,,,,,,,,,,,,,,,,,,,,,,,,,,,,,,,,,,,,,,,,,,,
1768973185.638684,1768973185.638886,123.0,0.0,4382.94873,4389.871582,4344.102539,4410.897461,4368.717773,4362.436035,4364.358887,4350.897461,4372.692383,4487.05127,4442.94873,4499.487305,4412.05127,4429.871582,,,,,,,,,,,,,,,,,,,,,,,,,,,,,,,,,,,,,,,,,,,,,,,,,,,,,,,,,,,,,,,,,,,,,,
1768973185.646493,1768973185.646894,124.0,0.0,4381.153809,4397.692383,4344.871582,4411.922852,4371.282227,4360.384766,4358.717773,4356.282227,4373.077148,4491.153809,4443.077148,4503.589844,4415.897461,4435.128418,,,,,,,,,,,,,,,,,,,,,,,,,,,,,,,,,,,,,,,,,,,,,,,,,,,,,,,,,,,,,,,,,,,,,,
1768973185.654301,1768973185.654702,125.0,0.0,4373.589844,4397.820313,4337.94873,4406.794922,4371.794922,4355.384766,4355.897461,4355.384766,4366.153809,4480.897461,4432.436035,4491.666504,4412.179688,4424.871582,,,,,,,,,,,,,,,,,,,,,,,,,,,,,,,,,,,,,,,,,,,,,,,,,,,,,,,,,,,,,,,,,,,,,,
1768973185.66211,1768973185.662411,126.0,0.0,4366.538574,4395.897461,4335.256348,4402.307617,4368.461426,4357.307617,4360.128418,4349.230957,4358.846191,4472.436035,4425.256348,4478.974121,4402.820313,4412.563965,0.262499,0.341507,0.073172,0.23825,0.097478,0.812161,0.584127,0.207317,0.140145,0.054523,0.272833,0.318519,0.084203,0.140334,0.098144,0.232706,0.260882,0.082424,0.100906,0.064252,0.178058,0.102253,0.077357,0.069761,0.040976,0.309044,0.440769,0.314993,0.127254,0.112593,0.280391,0.698503,0.234906,0.124734,0.127311,0.235357,0.52411,0.192681,0.074877,0.154331,0.364295,0.423917,0.197409,0.046534,0.115987,0.174464,0.338663,0.393466,0.206129,0.268209,0.161874,0.461016,0.241801,0.217304,0.135033,0.418234,0.543569,0.292728,0.22931,0.116388,0.210554,0.44775,0.131982,0.179278,0.102442,0.284116,0.595943,0.26683,0.356937,0.148687
1768973185.669918,1768973185.670219,127.0,0.0,4369.871582,4396.794922,4338.461426,4402.94873,4365.897461,4360.897461,4363.205078,4354.230957,4363.974121,4477.563965,4429.615234,4485.512695,4403.589844,4420.0,,,,,,,,,,,,,,,,,,,,,,,,,,,,,,,,,,,,,,,,,,,,,,,,,,,,,,,,,,,,,,,,,,,,,,
1768973185.677726,1768973185.677828,0.0,0.0,4374.487305,4398.461426,4339.871582,4409.743652,4368.205078,4364.615234,4363.461426,4362.436035,4367.179688,4486.153809,4432.692383,4496.153809,4407.563965,4430.128418,,,,,,,,,,,,,,,,,,,,,,,,,,,,,,,,,,,,,,,,,,,,,,,,,,,,,,,,,,,,,,,,,,,,,,
1768973185.685535,1768973185.685636,1.0,0.0,4369.230957,4395.641113,4337.05127,4409.615234,4368.333496,4363.333496,4362.179688,4362.563965,4364.358887,4484.871582,4428.974121,4491.025879,4401.282227,4422.820313,,,,,,,,,,,,,,,,,,,,,,,,,,,,,,,,,,,,,,,,,,,,,,,,,,,,,,,,,,,,,,,,,,,,,,
1768973185.693343,1768973185.693345,2.0,0.0,4357.820313,4384.230957,4330.256348,4399.358887,4365.641113,4362.436035,4365.0,4366.538574,4370.641113,4478.589844,4422.307617,4479.102539,4393.205078,4407.436035,,,,,,,,,,,,,,,,,,,,,,,,,,,,,,,,,,,,,,,,,,,,,,,,,,,,,,,,,,,,,,,,,,,,,,
1768973185.701152,1768973185.701153,3.0,0.0,4355.0,4380.897461,4330.384766,4399.487305,4368.717773,4367.436035,4370.897461,4372.820313,4379.358887,4481.922852,4420.512695,4477.307617,4392.820313,4405.256348,,,,,,,,,,,,,,,,,,,,,,,,,,,,,,,,,,,,,,,,,,,,,,,,,,,,,,,,,,,,,,,,,,,,,,
1768973185.70896,1768973185.709162,4.0,0.0,4368.974121,4395.256348,4343.846191,4410.897461,4376.538574,4367.563965,4368.974121,4373.077148,4383.333496,4501.025879,4434.743652,4494.102539,4407.563965,4425.897461,,,,,,,,,,,,,,,,,,,,,,,,,,,,,,,,,,,,,,,,,,,,,,,,,,,,,,,,,,,,,,,,,,,,,,
1768973185.716769,1768973185.71697,5.0,0.0,4383.846191,4410.128418,4351.538574,4420.384766,4379.871582,4362.179688,4362.820313,4369.230957,4384.102539,4514.102539,4449.743652,4511.282227,4427.307617,4446.025879,,,,,,,,,,,,,,,,,,,,,,,,,,,,,,,,,,,,,,,,,,,,,,,,,,,,,,,,,,,,,,,,,,,,,,
1768973185.724577,1768973185.724878,6.0,0.0,4384.871582,4411.538574,4350.897461,4425.769043,4382.563965,4367.436035,4367.436035,4365.769043,4378.846191,4502.820313,4446.410156,4507.94873,4428.846191,4446.153809,,,,,,,,,,,,,,,,,,,,,,,,,,,,,,,,,,,,,,,,,,,,,,,,,,,,,,,,,,,,,,,,,,,,,,
1768973185.732386,1768973185.732687,7.0,0.0,4378.846191,4406.025879,4354.102539,4422.307617,4384.615234,4374.358887,4374.871582,4366.666504,4373.205078,4491.666504,4440.769043,4499.871582,4416.794922,4439.743652,,,,,,,,,,,,,,,,,,,,,,,,,,,,,,,,,,,,,,,,,,,,,,,,,,,,,,,,,,,,,,,,,,,,,,
1768973185.740194,1768973185.740295,8.0,0.0,4375.897461,4404.358887,4352.436035,4412.94873,4381.025879,4365.641113,4366.025879,4366.922852,4374.743652,4496.922852,4439.871582,4499.230957,4413.589844,4436.282227,,,,,,,,,,,,,,,,,,,,,,,,,,,,,,,,,,,,,,,,,,,,,,,,,,,,,,,,,,,,,,,,,,,,,,
1768973185.748002,1768973185.748104,9.0,0.0,4373.589844,4409.743652,4344.615234,4411.282227,4378.333496,4358.077148,4356.538574,4363.461426,4373.717773,4497.307617,4431.153809,4491.282227,4415.256348,4429.358887,,,,,,,,,,,,,,,,,,,,,,,,,,,,,,,,,,,,,,,,,,,,,,,,,,,,,,,,,,,,,,,,,,,,,,
1768973185.755811,1768973185.755812,10.0,0.0,4371.794922,4411.410156,4346.922852,4419.358887,4381.153809,4363.333496,4360.641113,4361.025879,4367.820313,4492.179688,4424.487305,4488.333496,4410.769043,4425.0,,,,,,,,,,,,,,,,,,,,,,,,,,,,,,,,,,,,,,,,,,,,,,,,,,,,,,,,,,,,,,,,,,,,,,
1768973185.763619,1768973185.763621,11.0,0.0,4375.512695,4409.615234,4352.820313,4424.102539,4384.487305,4368.974121,4365.512695,4364.743652,4374.230957,4502.820313,4435.897461,4500.897461,4414.871582,4434.102539,,,,,,,,,,,,,,,,,,,,,,,,,,,,,,,,,,,,,,,,,,,,,,,,,,,,,,,,,,,,,,,,,,,,,,
1768973185.771428,1768973185.771629,12.0,0.0,4379.615234,4421.153809,4351.538574,4422.563965,4386.153809,4368.974121,4364.743652,4367.94873,4382.563965,4512.179688,4445.769043,4503.333496,4426.153809,4444.230957,,,,,,,,,,,,,,,,,,,,,,,,,,,,,,,,,,,,,,,,,,,,,,,,,,,,,,,,,,,,,,,,,,,,,,
1768973185.779236,1768973185.779438,13.0,0.0,4378.205078,4430.384766,4348.077148,4422.307617,4390.0,4367.307617,4364.487305,4366.025879,4380.0,4503.077148,4437.563965,4494.358887,4425.641113,4440.384766,,,,,,,,,,,,,,,,,,,,,,,,,,,,,,,,,,,,,,,,,,,,,,,,,,,,,,,,,,,,,,,,,,,,,,
1768973185.787045,1768973185.787346,14.0,0.0,4372.563965,4420.769043,4345.384766,4423.717773,4396.538574,4371.282227,4368.974121,4365.384766,4379.487305,4493.717773,4426.410156,4491.282227,4413.717773,4427.692383,0.305768,0.31933,0.092435,0.20511,0.103585,0.727283,0.663775,0.232925,0.154016,0.058047,0.259933,0.295801,0.069773,0.140504,0.097577,0.260684,0.252577,0.084658,0.092988,0.06311,0.182978,0.099758,0.086918,0.065832,0.042373,0.366119,0.527995,0.332834,0.113948,0.098685,0.301729,0.820216,0.243349,0.129958,0.121656,0.270266,0.616085,0.271389,0.081048,0.147654,0.441107,0.530705,0.238323,0.046381,0.122024,0.199302,0.417748,0.385258,0.197027,0.258119,0.175585,0.448468,0.214385,0.203959,0.126748,0.384436,0.683269,0.225066,0.233499,0.123044,0.194487,0.494176,0.122994,0.150252,0.088005,0.221433,0.548321,0.23648,0.34906,0.14402
1768973185.794853,1768973185.795154,15.0,0.0,4374.102539,4413.077148,4345.256348,4423.717773,4398.717773,4378.589844,4374.871582,4368.717773,4383.589844,4493.974121,4427.05127,4488.333496,4410.384766,4424.743652,,,,,,,,,,,,,,,,,,,,,,,,,,,,,,,,,,,,,,,,,,,,,,,,,,,,,,,,,,,,,,,,,,,,,,
1768973185.802662,1768973185.803163,16.0,0.0,4374.487305,4414.871582,4346.922852,4422.05127,4400.128418,4377.94873,4374.102539,4369.615234,4384.615234,4494.871582,4434.230957,4487.820313,4417.563965,4429.615234,,,,,,,,,,,,,,,,,,,,,,,,,,,,,,,,,,,,,,,,,,,,,,,,,,,,,,,,,,,,,,,,,,,,,,
1768973185.81047,1768973185.810971,17.0,0.0,4362.436035,4410.384766,4343.717773,4417.179688,4402.436035,4370.128418,4364.230957,4365.256348,4382.307617,4491.410156,4434.487305,4493.205078,4415.512695,4426.025879,,,,,,,,,,,,,,,,,,,,,,,,,,,,,,,,,,,,,,,,,,,,,,,,,,,,,,,,,,,,,,,,,,,,,,
1768973185.818278,1768973185.818879,18.0,0.0,4357.05127,4407.05127,4337.179688,4415.512695,4404.230957,4366.794922,4360.0,4361.282227,4378.846191,4489.358887,4429.358887,4489.102539,4408.205078,4420.0,,,,,,,,,,,,,,,,,,,,,,,,,,,,,,,,,,,,,,,,,,,,,,,,,,,,,,,,,,,,,,,,,,,,,,
1768973185.826087,1768973185.826688,19.0,0.0,4364.230957,4411.922852,4338.717773,4424.487305,4408.077148,4368.974121,4363.205078,4365.512695,4378.974121,4494.615234,4427.05127,4482.05127,4408.846191,4420.641113,,,,,,,,,,,,,,,,,,,,,,,,,,,,,,,,,,,,,,,,,,,,,,,,,,,,,,,,,,,,,,,,,,,,,,
1768973185.833895,1768973185.834496,20.0,0.0,4368.205078,4413.333496,4347.179688,4431.153809,4413.333496,4367.820313,4365.512695,4373.461426,4383.846191,4495.769043,4428.589844,4486.538574,4412.179688,4426.025879,,,,,,,,,,,,,,,,,,,,,,,,,,,,,,,,,,,,,,,,,,,,,,,,,,,,,,,,,,,,,,,,,,,,,,
1768973185.841704,1768973185.842305,21.0,0.0,4364.487305,4411.025879,4348.333496,4426.538574,4414.743652,4369.358887,4366.922852,4371.410156,4384.487305,4490.384766,4428.846191,4490.641113,4411.153809,4427.94873,,,,,,,,,,,,,,,,,,,,,,,,,,,,,,,,,,,,,,,,,,,,,,,,,,,,,,,,,,,,,,,,,,,,,,
1768973185.849512,1768973185.850013,22.0,0.0,4359.487305,4408.974121,4345.256348,4425.384766,4412.94873,4374.358887,4365.0,4362.307617,4380.512695,4493.333496,4428.333496,4489.487305,4409.358887,4425.256348,,,,,,,,,,,,,,,,,,,,,,,,,,,,,,,,,,,,,,,,,,,,,,,,,,,,,,,,,,,,,,,,,,,,,,
1768973185.857321,1768973185.857822,23.0,0.0,4352.94873,4404.230957,4344.358887,4428.461426,4411.666504,4374.871582,4366.794922,4361.922852,4380.128418,4500.256348,4430.0,4490.256348,4411.666504,4426.538574,,,,,,,,,,,,,,,,,,,,,,,,,,,,,,,,,,,,,,,,,,,,,,,,,,,,,,,,,,,,,,,,,,,,,,
1768973185.865129,1768973185.86543,24.0,0.0,4351.794922,4399.615234,4342.820313,4425.769043,4412.179688,4373.461426,4373.077148,4371.922852,4384.743652,4496.666504,4431.282227,4495.769043,4412.05127,4429.871582,,,,,,,,,,,,,,,,,,,,,,,,,,,,,,,,,,,,,,,,,,,,,,,,,,,,,,,,,,,,,,,,,,,,,,
1768973185.872938,1768973185.873239,25.0,0.0,4355.512695,4398.461426,4340.512695,4420.897461,4413.077148,4370.128418,4368.461426,4371.922852,4385.128418,4493.717773,4430.256348,4497.05127,4404.871582,4423.461426,,,,,,,,,,,,,,,,,,,,,,,,,,,,,,,,,,,,,,,,,,,,,,,,,,,,,,,,,,,,,,,,,,,,,,
1768973185.880746,1768973185.880947,26.0,0.0,4354.615234,4397.563965,4340.0,4420.897461,4410.641113,4366.025879,4358.333496,4357.820313,4376.410156,4490.384766,4427.307617,4485.128418,4396.153809,4416.666504,,,,,,,,,,,,,,,,,,,,,,,,,,,,,,,,,,,,,,,,,,,,,,,,,,,,,,,,,,,,,,,,,,,,,,
1768973185.888554,1768973185.888756,27.0,0.0,4355.128418,4398.717773,4342.563965,4427.436035,4410.256348,4368.846191,4361.410156,4355.256348,4374.487305,4479.102539,4427.05127,4476.538574,4395.769043,4422.179688,,,,,,,,,,,,,,,,,,,,,,,,,,,,,,,,,,,,,,,,,,,,,,,,,,,,,,,,,,,,,,,,,,,,,,
1768973185.896363,1768973185.896364,28.0,0.0,4356.922852,4398.717773,4347.179688,4430.641113,4415.897461,4372.820313,4368.333496,4366.410156,4383.974121,4481.282227,4428.589844,4483.974121,4398.717773,4421.922852,,,,,,,,,,,,,,,,,,,,,,,,,,,,,,,,,,,,,,,,,,,,,,,,,,,,,,,,,,,,,,,,,,,,,,
1768973185.904171,1768973185.904173,29.0,0.0,4356.666504,4395.641113,4346.922852,4429.487305,4418.333496,4371.794922,4365.256348,4366.282227,4384.615234,4492.563965,4428.333496,4492.436035,4396.666504,4417.692383,,,,,,,,,,,,,,,,,,,,,,,,,,,,,,,,,,,,,,,,,,,,,,,,,,,,,,,,,,,,,,,,,,,,,,
1768973185.91198,1768973185.912081,30.0,0.0,4355.128418,4395.769043,4343.717773,4435.256348,4417.05127,4372.179688,4363.077148,4359.487305,4380.512695,4485.384766,4428.589844,4491.025879,4397.436035,4422.436035,0.357595,0.274535,0.126832,0.174118,0.113946,0.712091,0.670617,0.265391,0.170329,0.064718,0.245135,0.24766,0.062758,0.134569,0.098472,0.314087,0.228296,0.08791,0.085349,0.063616,0.181658,0.09615,0.095177,0.062961,0.045205,0.388452,0.594627,0.333867,0.101685,0.089636,0.306378,0.910542,0.25351,0.132316,0.119151,0.307956,0.694945,0.356177,0.083684,0.145814,0.503876,0.640486,0.287942,0.048314,0.134243,0.213199,0.502187,0.368179,0.195252,0.24543,0.205026,0.445726,0.210329,0.189206,0.121491,0.357427,0.786503,0.182894,0.227573,0.135777,0.220288,0.527055,0.120581,0.134894,0.083698,0.21432,0.488063,0.220957,0.332222,0.143153
1768973185.919788,1768973185.91989,31.0,0.0,4350.256348,4398.846191,4344.487305,4441.666504,4415.384766,4373.205078,4366.922852,4365.0,4385.256348,4472.436035,4428.846191,4486.922852,4399.615234,4418.077148,,,,,,,,,,,,,,,,,,,,,,,,,,,,,,,,,,,,,,,,,,,,,,,,,,,,,,,,,,,,,,,,,,,,,,
1768973185.927597,1768973185.927898,32.0,0.0,4349.358887,4395.769043,4350.0,4442.179688,4417.94873,4372.692383,4369.230957,4368.846191,4384.230957,4476.666504,4427.94873,4486.666504,4396.922852,4411.922852,,,,,,,,,,,,,,,,,,,,,,,,,,,,,,,,,,,,,,,,,,,,,,,,,,,,,,,,,,,,,,,,,,,,,,
1768973185.935405,1768973185.935706,33.0,0.0,4355.641113,4390.897461,4352.94873,4441.538574,4422.94873,4374.871582,4368.974121,4365.256348,4381.922852,4479.358887,4428.205078,4490.897461,4396.794922,4422.436035,,,,,,,,,,,,,,,,,,,,,,,,,,,,,,,,,,,,,,,,,,,,,,,,,,,,,,,,,,,,,,,,,,,,,,
1768973185.943214,1768973185.943415,34.0,0.0,4352.179688,4393.717773,4350.897461,4442.563965,4424.230957,4380.0,4370.641113,4366.153809,4388.846191,4475.128418,4431.410156,4491.410156,4401.666504,4426.922852,,,,,,,,,,,,,,,,,,,,,,,,,,,,,,,,,,,,,,,,,,,,,,,,,,,,,,,,,,,,,,,,,,,,,,
1768973185.951022,1768973185.951223,35.0,0.0,4342.307617,4396.666504,4346.794922,4443.205078,4424.102539,4384.615234,4374.230957,4368.077148,4392.436035,4484.102539,4432.05127,4485.256348,4405.769043,4417.05127,,,,,,,,,,,,,,,,,,,,,,,,,,,,,,,,,,,,,,,,,,,,,,,,,,,,,,,,,,,,,,,,,,,,,,
1768973185.95883,1768973185.958832,36.0,0.0,4346.153809,4397.307617,4345.512695,4445.0,4426.666504,4379.487305,4368.589844,4365.384766,4393.077148,4489.743652,4428.974121,4483.846191,4410.128418,4417.05127,,,,,,,,,,,,,,,,,,,,,,,,,,,,,,,,,,,,,,,,,,,,,,,,,,,,,,,,,,,,,,,,,,,,,,
1768973185.966639,1768973185.966641,37.0,0.0,4351.025879,4398.589844,4349.487305,4445.641113,4428.077148,4370.641113,4364.230957,4368.077148,4398.846191,4479.743652,4428.717773,4490.641113,4411.410156,4422.692383,,,,,,,,,,,,,,,,,,,,,,,,,,,,,,,,,,,,,,,,,,,,,,,,,,,,,,,,,,,,,,,,,,,,,,
1768973185.974447,1768973185.974549,38.0,0.0,4344.102539,4397.179688,4350.384766,4443.846191,4426.025879,4375.512695,4369.358887,4374.358887,4402.436035,4475.384766,4431.410156,4493.717773,4405.641113,4418.846191,,,,,,,,,,,,,,,,,,,,,,,,,,,,,,,,,,,,,,,,,,,,,,,,,,,,,,,,,,,,,,,,,,,,,,
1768973185.982256,1768973185.982357,39.0,0.0,4338.589844,4394.230957,4344.615234,4444.102539,4425.512695,4381.282227,4368.717773,4367.179688,4395.641113,4481.410156,4431.538574,4489.871582,4402.436035,4414.358887,,,,,,,,,,,,,,,,,,,,,,,,,,,,,,,,,,,,,,,,,,,,,,,,,,,,,,,,,,,,,,,,,,,,,,
1768973185.990064,1768973185.990366,40.0,0.0,4340.512695,4395.256348,4341.025879,4444.743652,4424.871582,4376.153809,4366.282227,4365.897461,4396.410156,4478.974121,4431.666504,4489.615234,4409.102539,4417.94873,,,,,,,,,,,,,,,,,,,,,,,,,,,,,,,,,,,,,,,,,,,,,,,,,,,,,,,,,,,,,,,,,,,,,,
1768973185.997873,1768973185.998174,41.0,0.0,4341.794922,4394.615234,4345.0,4448.461426,4422.692383,4375.512695,4372.563965,4376.794922,4409.487305,4473.717773,4436.922852,4492.436035,4412.436035,4424.871582,,,,,,,,,,,,,,,,,,,,,,,,,,,,,,,,,,,,,,,,,,,,,,,,,,,,,,,,,,,,,,,,,,,,,,
