title:mouse_4, start timestamp:1768210770.699067, stop timestamp:1768210803.150904, headset type:EPOCX, headset serial:E5020E3B, headset firmware:730, channels:156, sampling rate:eeg_128;pm_0.1;pow_8, samples:4157      , version:2.2, 
Timestamp,OriginalTimestamp,EEG.Counter,EEG.Interpolated,EEG.AF3,EEG.F7,EEG.F3,EEG.FC5,EEG.T7,EEG.P7,EEG.O1,EEG.O2,EEG.P8,EEG.T8,EEG.FC6,EEG.F4,EEG.F8,EEG.AF4,EEG.RawCq,EEG.Battery,EEG.BatteryPercent,MarkerIndex,MarkerType,MarkerValueInt,EEG.MarkerHardware,CQ.AF3,CQ.F7,CQ.F3,CQ.FC5,CQ.T7,CQ.P7,CQ.O1,CQ.O2,CQ.P8,CQ.T8,CQ.FC6,CQ.F4,CQ.F8,CQ.AF4,CQ.Overall,EQ.SampleRateQuality,EQ.OVERALL,EQ.AF3,EQ.F7,EQ.F3,EQ.FC5,EQ.T7,EQ.P7,EQ.O1,EQ.O2,EQ.P8,EQ.T8,EQ.FC6,EQ.F4,EQ.F8,EQ.AF4,PM.Attention.IsActive,PM.Attention.Scaled,PM.Attention.Raw,PM.Attention.Min,PM.Attention.Max,PM.Engagement.IsActive,PM.Engagement.Scaled,PM.Engagement.Raw,PM.Engagement.Min,PM.Engagement.Max,PM.Excitement.IsActive,PM.Excitement.Scaled,PM.Excitement.Raw,PM.Excitement.Min,PM.Excitement.Max,PM.LongTermExcitement,PM.Stress.IsActive,PM.Stress.Scaled,PM.Stress.Raw,PM.Stress.Min,PM.Stress.Max,PM.Relaxation.IsActive,PM.Relaxation.Scaled,PM.Relaxation.Raw,PM.Relaxation.Min,PM.Relaxation.Max,PM.Interest.IsActive,PM.Interest.Scaled,PM.Interest.Raw,PM.Interest.Min,PM.Interest.Max,POW.AF3.Theta,POW.AF3.Alpha,POW.AF3.BetaL,POW.AF3.BetaH,POW.AF3.Gamma,POW.F7.Theta,POW.F7.Alpha,POW.F7.BetaL,POW.F7.BetaH,POW.F7.Gamma,POW.F3.Theta,POW.F3.Alpha,POW.F3.BetaL,POW.F3.BetaH,POW.F3.Gamma,POW.FC5.Theta,POW.FC5.Alpha,POW.FC5.BetaL,POW.FC5.BetaH,POW.FC5.Gamma,POW.T7.Theta,POW.T7.Alpha,POW.T7.BetaL,POW.T7.BetaH,POW.T7.Gamma,POW.P7.Theta,POW.P7.Alpha,POW.P7.BetaL,POW.P7.BetaH,POW.P7.Gamma,POW.O1.Theta,POW.O1.Alpha,POW.O1.BetaL,POW.O1.BetaH,POW.O1.Gamma,POW.O2.Theta,POW.O2.Alpha,POW.O2.BetaL,POW.O2.BetaH,POW.O2.Gamma,POW.P8.Theta,POW.P8.Alpha,POW.P8.BetaL,POW.P8.BetaH,POW.P8.Gamma,POW.T8.Theta,POW.T8.Alpha,POW.T8.BetaL,POW.T8.BetaH,POW.T8.Gamma,POW.FC6.Theta,POW.FC6.Alpha,POW.FC6.BetaL,POW.FC6.BetaH,POW.FC6.Gamma,POW.F4.Theta,POW.F4.Alpha,POW.F4.BetaL,POW.F4.BetaH,POW.F4.Gamma,POW.F8.Theta,POW.F8.Alpha,POW.F8.BetaL,POW.F8.BetaH,POW.F8.Gamma,POW.AF4.Theta,POW.AF4.Alpha,POW.AF4.BetaL,POW.AF4.BetaH,POW.AF4.Gamma
1768210770.699067,1768210770.699544,117.000000,0.000000,4346.666504,4322.820313,4332.820313,4342.563965,4309.615234,4322.307617,4309.102539,4317.179688,4307.692383,4297.563965,4509.230957,4476.410156,4407.179688,4460.897461,3802.000000,4.000000,81.000000,,,,0.000000,4.000000,4.000000,4.000000,4.000000,4.000000,4.000000,4.000000,4.000000,4.000000,4.000000,4.000000,4.000000,4.000000,4.000000,100.000000,,,,,,,,,,,,,,,,,,,,,,,,,,,,,,,,,,,,,,,,,,,,,,,,,,,,,,,,,,,,,,,,,,,,,,,,,,,,,,,,,,,,,,,,,,,,,,,,,,,,,,,,,,,,,,,,,,,,,
1768210770.706875,1768210770.707253,118.000000,0.000000,4343.333496,4323.461426,4331.025879,4338.974121,4311.538574,4321.282227,4304.230957,4318.717773,4305.897461,4296.538574,4509.230957,4478.333496,4400.897461,4454.230957,3901.000000,4.000000,81.000000,,,,0.000000,4.000000,4.000000,4.000000,4.000000,4.000000,4.000000,4.000000,4.000000,4.000000,4.000000,4.000000,4.000000,4.000000,4.000000,100.000000,,,,,,,,,,,,,,,,,,,,,,,,,,,,,,,,,,,,,,,,,,,,,,,,0.169039,0.115913,0.160074,0.159368,0.087613,3.392737,1.132893,0.271685,0.227270,0.146726,0.245039,0.099510,0.091347,0.150972,0.081743,0.295796,0.272870,0.111651,0.206354,0.095168,0.359822,0.161459,0.148833,0.160859,0.092651,0.212620,0.070611,0.062866,0.141577,0.054987,0.345963,0.295885,0.271884,0.122419,0.128431,0.392457,0.411799,0.353751,0.214716,0.299797,0.774602,0.251609,0.202052,0.202078,0.156205,0.959813,0.284562,0.344409,0.292543,0.142904,1.167337,0.248107,0.393172,0.329367,0.237357,1.562266,0.221715,0.167572,0.114675,0.189135,0.510964,0.232818,0.470146,0.300300,0.167881,0.440724,0.476188,0.460409,0.336574,0.198614
1768210770.714683,1768210770.715061,119.000000,0.000000,4341.666504,4326.025879,4337.563965,4342.820313,4313.589844,4321.282227,4310.128418,4314.743652,4309.487305,4297.179688,4508.205078,4477.436035,4408.974121,4459.230957,4046.000000,4.000000,81.000000,,,,0.000000,4.000000,4.000000,4.000000,4.000000,4.000000,4.000000,4.000000,4.000000,4.000000,4.000000,4.000000,4.000000,4.000000,4.000000,100.000000,,,,,,,,,,,,,,,,,,,,,,,,,,,,,,,,,,,,,,,,,,,,,,,,,,,,,,,,,,,,,,,,,,,,,,,,,,,,,,,,,,,,,,,,,,,,,,,,,,,,,,,,,,,,,,,,,,,,,
1768210770.722492,1768210770.722669,120.000000,0.000000,4341.666504,4324.230957,4334.102539,4340.641113,4311.025879,4321.410156,4318.846191,4324.615234,4313.205078,4300.256348,4513.205078,4477.179688,4413.974121,4463.461426,4986.000000,4.000000,81.000000,,,,0.000000,4.000000,4.000000,4.000000,4.000000,4.000000,4.000000,4.000000,4.000000,4.000000,4.000000,4.000000,4.000000,4.000000,4.000000,100.000000,,,,,,,,,,,,,,,,,,,,,,,,,,,,,,,,,,,,,,,,,,,,,,,,,,,,,,,,,,,,,,,,,,,,,,,,,,,,,,,,,,,,,,,,,,,,,,,,,,,,,,,,,,,,,,,,,,,,,
1768210770.730300,1768210770.730478,121.000000,0.000000,4341.410156,4323.717773,4329.743652,4339.102539,4309.487305,4320.769043,4312.948730,4321.153809,4310.512695,4304.102539,4515.512695,4478.589844,4412.179688,4459.102539,3802.000000,4.000000,81.000000,,,,0.000000,4.000000,4.000000,4.000000,4.000000,4.000000,4.000000,4.000000,4.000000,4.000000,4.000000,4.000000,4.000000,4.000000,4.000000,100.000000,,,,,,,,,,,,,,,,,,,,,,,,,,,,,,,,,,,,,,,,,,,,,,,,,,,,,,,,,,,,,,,,,,,,,,,,,,,,,,,,,,,,,,,,,,,,,,,,,,,,,,,,,,,,,,,,,,,,,
1768210770.738109,1768210770.738386,122.000000,0.000000,4340.641113,4325.769043,4335.897461,4343.333496,4311.538574,4322.307617,4312.692383,4310.256348,4308.333496,4300.256348,4510.128418,4475.641113,4408.974121,4456.922852,3901.000000,4.000000,81.000000,,,,0.000000,4.000000,4.000000,4.000000,4.000000,4.000000,4.000000,4.000000,4.000000,4.000000,4.000000,4.000000,4.000000,4.000000,4.000000,100.000000,,,,,,,,,,,,,,,,,,,,,,,,,,,,,,,,,,,,,,,,,,,,,,,,,,,,,,,,,,,,,,,,,,,,,,,,,,,,,,,,,,,,,,,,,,,,,,,,,,,,,,,,,,,,,,,,,,,,,
1768210770.745917,1768210770.746194,123.000000,0.000000,4340.897461,4325.256348,4339.230957,4341.282227,4311.922852,4324.871582,4317.307617,4317.051270,4310.512695,4294.615234,4506.666504,4475.256348,4403.974121,4460.769043,4046.000000,4.000000,81.000000,,,,0.000000,4.000000,4.000000,4.000000,4.000000,4.000000,4.000000,4.000000,4.000000,4.000000,4.000000,4.000000,4.000000,4.000000,4.000000,100.000000,,,,,,,,,,,,,,,,,,,,,,,,,,,,,,,,,,,,,,,,,,,,,,,,,,,,,,,,,,,,,,,,,,,,,,,,,,,,,,,,,,,,,,,,,,,,,,,,,,,,,,,,,,,,,,,,,,,,,
1768210770.753726,1768210770.754203,124.000000,0.000000,4345.256348,4325.641113,4337.179688,4341.410156,4310.000000,4326.794922,4314.358887,4319.358887,4310.000000,4295.256348,4508.333496,4483.205078,4405.128418,4460.512695,4986.000000,4.000000,81.000000,,,,0.000000,4.000000,4.000000,4.000000,4.000000,4.000000,4.000000,4.000000,4.000000,4.000000,4.000000,4.000000,4.000000,4.000000,4.000000,100.000000,,,,,,,,,,,,,,,,,,,,,,,,,,,,,,,,,,,,,,,,,,,,,,,,,,,,,,,,,,,,,,,,,,,,,,,,,,,,,,,,,,,,,,,,,,,,,,,,,,,,,,,,,,,,,,,,,,,,,
1768210770.761534,1768210770.762011,125.000000,0.000000,4348.333496,4327.051270,4341.538574,4348.717773,4309.487305,4325.000000,4309.871582,4312.436035,4308.717773,4295.897461,4510.384766,4490.384766,4410.000000,4458.205078,3802.000000,4.000000,81.000000,,,,0.000000,4.000000,4.000000,4.000000,4.000000,4.000000,4.000000,4.000000,4.000000,4.000000,4.000000,4.000000,4.000000,4.000000,4.000000,100.000000,,,,,,,,,,,,,,,,,,,,,,,,,,,,,,,,,,,,,,,,,,,,,,,,,,,,,,,,,,,,,,,,,,,,,,,,,,,,,,,,,,,,,,,,,,,,,,,,,,,,,,,,,,,,,,,,,,,,,
1768210770.769342,1768210770.769919,126.000000,0.000000,4347.051270,4327.948730,4342.563965,4349.743652,4310.641113,4319.871582,4309.743652,4316.410156,4311.410156,4294.102539,4510.128418,4489.102539,4410.256348,4466.025879,3901.000000,4.000000,81.000000,,,,0.000000,4.000000,4.000000,4.000000,4.000000,4.000000,4.000000,4.000000,4.000000,4.000000,4.000000,4.000000,4.000000,4.000000,4.000000,100.000000,,,,,,,,,,,,,,,,,,,,,,,,,,,,,,,,,,,,,,,,,,,,,,,,,,,,,,,,,,,,,,,,,,,,,,,,,,,,,,,,,,,,,,,,,,,,,,,,,,,,,,,,,,,,,,,,,,,,,
1768210770.777151,1768210770.777728,127.000000,0.000000,4349.487305,4330.128418,4337.436035,4347.051270,4312.051270,4319.871582,4310.897461,4315.384766,4312.307617,4295.512695,4511.153809,4486.794922,4409.743652,4470.897461,81.000000,4.000000,81.000000,,,,0.000000,4.000000,4.000000,4.000000,4.000000,4.000000,4.000000,4.000000,4.000000,4.000000,4.000000,4.000000,4.000000,4.000000,4.000000,100.000000,,,,,,,,,,,,,,,,,,,,,,,,,,,,,,,,,,,,,,,,,,,,,,,,,,,,,,,,,,,,,,,,,,,,,,,,,,,,,,,,,,,,,,,,,,,,,,,,,,,,,,,,,,,,,,,,,,,,,
1768210770.784959,1768210770.785736,0.000000,0.000000,4351.153809,4330.769043,4339.358887,4346.666504,4311.666504,4323.974121,4310.384766,4307.436035,4309.487305,4297.563965,4517.436035,4487.948730,4411.794922,4463.333496,3011.000000,4.000000,81.000000,,,,0.000000,4.000000,4.000000,4.000000,4.000000,4.000000,4.000000,4.000000,4.000000,4.000000,4.000000,4.000000,4.000000,4.000000,4.000000,100.000000,,,,,,,,,,,,,,,,,,,,,,,,,,,,,,,,,,,,,,,,,,,,,,,,,,,,,,,,,,,,,,,,,,,,,,,,,,,,,,,,,,,,,,,,,,,,,,,,,,,,,,,,,,,,,,,,,,,,,
1768210770.792768,1768210770.793545,1.000000,0.000000,4346.025879,4326.538574,4341.794922,4343.974121,4310.512695,4323.333496,4312.051270,4315.897461,4308.717773,4296.410156,4524.102539,4491.153809,4413.205078,4466.282227,4066.000000,4.000000,81.000000,,,,0.000000,4.000000,4.000000,4.000000,4.000000,4.000000,4.000000,4.000000,4.000000,4.000000,4.000000,4.000000,4.000000,4.000000,4.000000,100.000000,,,,,,,,,,,,,,,,,,,,,,,,,,,,,,,,,,,,,,,,,,,,,,,,,,,,,,,,,,,,,,,,,,,,,,,,,,,,,,,,,,,,,,,,,,,,,,,,,,,,,,,,,,,,,,,,,,,,,
1768210770.800576,1768210770.801253,2.000000,0.000000,4344.230957,4322.436035,4341.153809,4342.436035,4311.025879,4321.282227,4315.897461,4323.205078,4310.000000,4296.538574,4523.846191,4488.846191,4414.358887,4472.563965,2363.000000,4.000000,81.000000,,,,0.000000,4.000000,4.000000,4.000000,4.000000,4.000000,4.000000,4.000000,4.000000,4.000000,4.000000,4.000000,4.000000,4.000000,4.000000,100.000000,,,,,,,,,,,,,,,,,,,,,,,,,,,,,,,,,,,,,,,,,,,,,,,,,,,,,,,,,,,,,,,,,,,,,,,,,,,,,,,,,,,,,,,,,,,,,,,,,,,,,,,,,,,,,,,,,,,,,
1768210770.808385,1768210770.809062,3.000000,0.000000,4349.358887,4325.512695,4343.205078,4345.512695,4311.538574,4322.051270,4318.077148,4314.615234,4310.000000,4297.563965,4517.307617,4481.922852,4413.077148,4466.153809,3916.000000,4.000000,81.000000,,,,0.000000,4.000000,4.000000,4.000000,4.000000,4.000000,4.000000,4.000000,4.000000,4.000000,4.000000,4.000000,4.000000,4.000000,4.000000,100.000000,,,,,,,,,,,,,,,,,,,,,,,,,,,,,,,,,,,,,,,,,,,,,,,,,,,,,,,,,,,,,,,,,,,,,,,,,,,,,,,,,,,,,,,,,,,,,,,,,,,,,,,,,,,,,,,,,,,,,
1768210770.816193,1768210770.816670,4.000000,0.000000,4349.615234,4326.410156,4341.922852,4345.512695,4308.205078,4321.025879,4312.820313,4313.589844,4308.589844,4295.000000,4510.769043,4479.615234,4408.846191,4461.410156,3864.000000,4.000000,81.000000,,,,0.000000,4.000000,4.000000,4.000000,4.000000,4.000000,4.000000,4.000000,4.000000,4.000000,4.000000,4.000000,4.000000,4.000000,4.000000,100.000000,,,,,,,,,,,,,,,,,,,,,,,,,,,,,,,,,,,,,,,,,,,,,,,,,,,,,,,,,,,,,,,,,,,,,,,,,,,,,,,,,,,,,,,,,,,,,,,,,,,,,,,,,,,,,,,,,,,,,
1768210770.824001,1768210770.824479,5.000000,0.000000,4342.948730,4317.051270,4336.410156,4341.025879,4304.871582,4321.538574,4310.128418,4322.179688,4308.846191,4291.922852,4507.948730,4480.128418,4405.256348,4464.487305,3283.000000,4.000000,81.000000,,,,0.000000,4.000000,4.000000,4.000000,4.000000,4.000000,4.000000,4.000000,4.000000,4.000000,4.000000,4.000000,4.000000,4.000000,4.000000,100.000000,,,,,,,,,,,,,,,,,,,,,,,,,,,,,,,,,,,,,,,,,,,,,,,,,,,,,,,,,,,,,,,,,,,,,,,,,,,,,,,,,,,,,,,,,,,,,,,,,,,,,,,,,,,,,,,,,,,,,
1768210770.831810,1768210770.832187,6.000000,0.000000,4342.051270,4312.820313,4340.769043,4339.615234,4308.846191,4326.153809,4317.820313,4321.666504,4311.666504,4294.230957,4509.102539,4478.717773,4402.307617,4466.794922,3882.000000,4.000000,81.000000,,,,0.000000,4.000000,4.000000,4.000000,4.000000,4.000000,4.000000,4.000000,4.000000,4.000000,4.000000,4.000000,4.000000,4.000000,4.000000,100.000000,,,,,,,,,,,,,,,,,,,,,,,,,,,,,,,,,,,,,,,,,,,,,,,,0.183678,0.104372,0.137277,0.165735,0.077317,3.172543,1.130048,0.257483,0.211206,0.130285,0.264133,0.115959,0.103442,0.154587,0.074375,0.322659,0.276868,0.105809,0.195913,0.091088,0.339050,0.172101,0.153509,0.146510,0.089276,0.231036,0.075460,0.049281,0.137545,0.057712,0.330280,0.287112,0.318886,0.137946,0.123080,0.333997,0.408273,0.370584,0.230272,0.313484,0.631446,0.232125,0.222785,0.190049,0.162402,0.948612,0.277663,0.318357,0.277408,0.163557,1.232849,0.214165,0.364249,0.337453,0.226214,1.450569,0.189713,0.155145,0.125672,0.183999,0.470967,0.217651,0.417176,0.281328,0.165378,0.351264,0.416929,0.456157,0.369679,0.186028
1768210770.839618,1768210770.839995,7.000000,0.000000,4347.179688,4319.358887,4348.333496,4344.615234,4313.974121,4327.307617,4318.846191,4312.179688,4310.512695,4295.641113,4507.692383,4476.025879,4401.922852,4464.102539,3924.000000,4.000000,81.000000,,,,0.000000,4.000000,4.000000,4.000000,4.000000,4.000000,4.000000,4.000000,4.000000,4.000000,4.000000,4.000000,4.000000,4.000000,4.000000,100.000000,,,,,,,,,,,,,,,,,,,,,,,,,,,,,,,,,,,,,,,,,,,,,,,,,,,,,,,,,,,,,,,,,,,,,,,,,,,,,,,,,,,,,,,,,,,,,,,,,,,,,,,,,,,,,,,,,,,,,
1768210770.847427,1768210770.847604,8.000000,0.000000,4349.487305,4322.051270,4346.025879,4349.487305,4314.102539,4324.230957,4309.871582,4307.948730,4307.436035,4292.179688,4503.333496,4477.820313,4402.948730,4463.589844,3969.000000,4.000000,81.000000,,,,0.000000,4.000000,4.000000,4.000000,4.000000,4.000000,4.000000,4.000000,4.000000,4.000000,4.000000,4.000000,4.000000,4.000000,4.000000,100.000000,,,,,,,,,,,,,,,,,,,,,,,,,,,,,,,,,,,,,,,,,,,,,,,,,,,,,,,,,,,,,,,,,,,,,,,,,,,,,,,,,,,,,,,,,,,,,,,,,,,,,,,,,,,,,,,,,,,,,
1768210770.855235,1768210770.855412,9.000000,0.000000,4348.589844,4322.948730,4343.589844,4346.538574,4313.333496,4323.333496,4308.974121,4311.794922,4309.102539,4291.922852,4505.769043,4485.128418,4403.846191,4466.153809,4044.000000,4.000000,81.000000,,,,0.000000,4.000000,4.000000,4.000000,4.000000,4.000000,4.000000,4.000000,4.000000,4.000000,4.000000,4.000000,4.000000,4.000000,4.000000,100.000000,,,,,,,,,,,,,,,,,,,,,,,,,,,,,,,,,,,,,,,,,,,,,,,,,,,,,,,,,,,,,,,,,,,,,,,,,,,,,,,,,,,,,,,,,,,,,,,,,,,,,,,,,,,,,,,,,,,,,
1768210770.863044,1768210770.863321,10.000000,0.000000,4347.307617,4325.384766,4343.589844,4341.666504,4313.974121,4325.000000,4314.358887,4316.794922,4312.051270,4294.743652,4509.743652,4486.025879,4402.948730,4463.077148,3901.000000,4.000000,81.000000,,,,0.000000,4.000000,4.000000,4.000000,4.000000,4.000000,4.000000,4.000000,4.000000,4.000000,4.000000,4.000000,4.000000,4.000000,4.000000,100.000000,,,,,,,,,,,,,,,,,,,,,,,,,,,,,,,,,,,,,,,,,,,,,,,,,,,,,,,,,,,,,,,,,,,,,,,,,,,,,,,,,,,,,,,,,,,,,,,,,,,,,,,,,,,,,,,,,,,,,
1768210770.870852,1768210770.871129,11.000000,0.000000,4345.641113,4320.512695,4340.769043,4341.794922,4314.102539,4325.641113,4313.589844,4320.000000,4311.153809,4294.871582,4507.436035,4483.589844,4401.538574,4460.769043,4043.000000,4.000000,81.000000,,,,0.000000,4.000000,4.000000,4.000000,4.000000,4.000000,4.000000,4.000000,4.000000,4.000000,4.000000,4.000000,4.000000,4.000000,4.000000,100.000000,,,,,,,,,,,,,,,,,,,,,,,,,,,,,,,,,,,,,,,,,,,,,,,,,,,,,,,,,,,,,,,,,,,,,,,,,,,,,,,,,,,,,,,,,,,,,,,,,,,,,,,,,,,,,,,,,,,,,
1768210770.878660,1768210770.879137,12.000000,0.000000,4346.282227,4316.922852,4339.871582,4342.051270,4313.974121,4326.153809,4311.153809,4318.077148,4310.256348,4293.974121,4505.128418,4484.487305,4405.512695,4465.897461,4986.000000,4.000000,81.000000,,,,0.000000,4.000000,4.000000,4.000000,4.000000,4.000000,4.000000,4.000000,4.000000,4.000000,4.000000,4.000000,4.000000,4.000000,4.000000,100.000000,,,,,,,,,,,,,,,,,,,,,,,,,,,,,,,,,,,,,,,,,,,,,,,,,,,,,,,,,,,,,,,,,,,,,,,,,,,,,,,,,,,,,,,,,,,,,,,,,,,,,,,,,,,,,,,,,,,,,
1768210770.886469,1768210770.886946,13.000000,0.000000,4345.641113,4318.205078,4339.487305,4341.025879,4313.846191,4327.692383,4312.820313,4319.358887,4315.641113,4295.128418,4509.487305,4487.948730,4412.563965,4468.461426,3802.000000,4.000000,81.000000,,,,0.000000,4.000000,4.000000,4.000000,4.000000,4.000000,4.000000,4.000000,4.000000,4.000000,4.000000,4.000000,4.000000,4.000000,4.000000,100.000000,,,,,,,,,,,,,,,,,,,,,,,,,,,,,,,,,,,,,,,,,,,,,,,,,,,,,,,,,,,,,,,,,,,,,,,,,,,,,,,,,,,,,,,,,,,,,,,,,,,,,,,,,,,,,,,,,,,,,
1768210770.894277,1768210770.894854,14.000000,0.000000,4343.333496,4314.487305,4336.410156,4341.538574,4313.333496,4326.666504,4311.922852,4327.692383,4321.538574,4300.128418,4513.205078,4487.051270,4411.666504,4462.692383,3901.000000,4.000000,81.000000,,,,0.000000,4.000000,4.000000,4.000000,4.000000,4.000000,4.000000,4.000000,4.000000,4.000000,4.000000,4.000000,4.000000,4.000000,4.000000,100.000000,,,,,,,,,,,,,,,,,,,,,,,,,,,,,,,,,,,,,,,,,,,,,,,,,,,,,,,,,,,,,,,,,,,,,,,,,,,,,,,,,,,,,,,,,,,,,,,,,,,,,,,,,,,,,,,,,,,,,
1768210770.902086,1768210770.902663,15.000000,0.000000,4344.871582,4312.051270,4335.512695,4340.769043,4314.230957,4322.820313,4310.512695,4324.615234,4318.333496,4298.077148,4510.128418,4479.358887,4404.102539,4458.717773,4043.000000,4.000000,81.000000,,,,0.000000,4.000000,4.000000,4.000000,4.000000,4.000000,4.000000,4.000000,4.000000,4.000000,4.000000,4.000000,4.000000,4.000000,4.000000,100.000000,,,,,,,,,,,,,,,,,,,,,,,,,,,,,,,,,,,,,,,,,,,,,,,,,,,,,,,,,,,,,,,,,,,,,,,,,,,,,,,,,,,,,,,,,,,,,,,,,,,,,,,,,,,,,,,,,,,,,
1768210770.909894,1768210770.910271,16.000000,0.000000,4345.384766,4312.307617,4336.410156,4340.512695,4313.974121,4322.820313,4312.436035,4309.615234,4309.615234,4289.230957,4507.563965,4474.358887,4403.205078,4458.974121,0.000000,4.000000,81.000000,,,,0.000000,4.000000,4.000000,4.000000,4.000000,4.000000,4.000000,4.000000,4.000000,4.000000,4.000000,4.000000,4.000000,4.000000,4.000000,100.000000,,,,,,,,,,,,,,,,,,,,,,,,,,,,,,,,,,,,,,,,,,,,,,,,,,,,,,,,,,,,,,,,,,,,,,,,,,,,,,,,,,,,,,,,,,,,,,,,,,,,,,,,,,,,,,,,,,,,,
1768210770.917703,1768210770.918079,17.000000,0.000000,4342.692383,4312.948730,4336.922852,4341.666504,4310.641113,4325.128418,4312.436035,4309.743652,4312.179688,4293.333496,4509.743652,4479.871582,4407.563965,4462.563965,0.000000,4.000000,81.000000,,,,0.000000,4.000000,4.000000,4.000000,4.000000,4.000000,4.000000,4.000000,4.000000,4.000000,4.000000,4.000000,4.000000,4.000000,4.000000,100.000000,,,,,,,,,,,,,,,,,,,,,,,,,,,,,,,,,,,,,,,,,,,,,,,,,,,,,,,,,,,,,,,,,,,,,,,,,,,,,,,,,,,,,,,,,,,,,,,,,,,,,,,,,,,,,,,,,,,,,
1768210770.925511,1768210770.925787,18.000000,0.000000,4344.871582,4319.358887,4339.487305,4343.077148,4310.000000,4321.538574,4307.051270,4324.615234,4322.051270,4307.820313,4511.922852,4486.922852,4410.641113,4464.615234,0.000000,4.000000,81.000000,,,,0.000000,4.000000,4.000000,4.000000,4.000000,4.000000,4.000000,4.000000,4.000000,4.000000,4.000000,4.000000,4.000000,4.000000,4.000000,100.000000,,,,,,,,,,,,,,,,,,,,,,,,,,,,,,,,,,,,,,,,,,,,,,,,,,,,,,,,,,,,,,,,,,,,,,,,,,,,,,,,,,,,,,,,,,,,,,,,,,,,,,,,,,,,,,,,,,,,,
1768210770.933319,1768210770.933596,19.000000,0.000000,4349.487305,4326.410156,4341.410156,4344.230957,4312.820313,4315.897461,4306.025879,4324.743652,4318.974121,4307.692383,4510.000000,4485.512695,4412.436035,4459.358887,0.000000,4.000000,81.000000,,,,0.000000,4.000000,4.000000,4.000000,4.000000,4.000000,4.000000,4.000000,4.000000,4.000000,4.000000,4.000000,4.000000,4.000000,4.000000,100.000000,,,,,,,,,,,,,,,,,,,,,,,,,,,,,,,,,,,,,,,,,,,,,,,,,,,,,,,,,,,,,,,,,,,,,,,,,,,,,,,,,,,,,,,,,,,,,,,,,,,,,,,,,,,,,,,,,,,,,
1768210770.941128,1768210770.941604,20.000000,0.000000,4345.000000,4323.589844,4337.692383,4343.974121,4313.333496,4320.128418,4315.641113,4312.179688,4310.769043,4298.974121,4507.692383,4483.461426,4409.102539,4460.256348,0.000000,4.000000,81.000000,,,,0.000000,4.000000,4.000000,4.000000,4.000000,4.000000,4.000000,4.000000,4.000000,4.000000,4.000000,4.000000,4.000000,4.000000,4.000000,100.000000,,,,,,,,,,,,,,,,,,,,,,,,,,,,,,,,,,,,,,,,,,,,,,,,,,,,,,,,,,,,,,,,,,,,,,,,,,,,,,,,,,,,,,,,,,,,,,,,,,,,,,,,,,,,,,,,,,,,,
1768210770.948936,1768210770.949412,21.000000,0.000000,4340.512695,4317.692383,4336.410156,4343.974121,4312.563965,4325.641113,4320.384766,4310.512695,4310.000000,4301.153809,4508.205078,4484.871582,4403.717773,4463.205078,0.000000,4.000000,81.000000,,,,0.000000,4.000000,4.000000,4.000000,4.000000,4.000000,4.000000,4.000000,4.000000,4.000000,4.000000,4.000000,4.000000,4.000000,4.000000,100.000000,,,,,,,,,,,,,,,,,,,,,,,,,,,,,,,,,,,,,,,,,,,,,,,,,,,,,,,,,,,,,,,,,,,,,,,,,,,,,,,,,,,,,,,,,,,,,,,,,,,,,,,,,,,,,,,,,,,,,
1768210770.956745,1768210770.957321,22.000000,0.000000,4343.846191,4313.974121,4338.717773,4343.589844,4313.974121,4319.743652,4312.820313,4318.077148,4314.871582,4305.384766,4507.436035,4486.666504,4401.025879,4457.563965,0.000000,4.000000,81.000000,,,,0.000000,4.000000,4.000000,4.000000,4.000000,4.000000,4.000000,4.000000,4.000000,4.000000,4.000000,4.000000,4.000000,4.000000,4.000000,100.000000,1.000000,25.000000,1.000000,4.000000,1.000000,4.000000,1.000000,1.000000,4.000000,4.000000,4.000000,4.000000,4.000000,4.000000,4.000000,4.000000,,,,,,,,,,,,,,,,,,,,,,,,,,,,,,,,0.203722,0.099215,0.114860,0.162194,0.062612,3.147331,1.080415,0.230607,0.187429,0.108767,0.287862,0.139348,0.113805,0.151666,0.066258,0.404101,0.279488,0.103455,0.173952,0.085107,0.315596,0.185064,0.159866,0.131998,0.084501,0.235160,0.085906,0.041090,0.129110,0.060336,0.313552,0.271828,0.339788,0.158962,0.121679,0.281819,0.397082,0.349814,0.226136,0.322139,0.477507,0.234674,0.234642,0.173868,0.160615,0.891876,0.294735,0.275394,0.256142,0.181025,1.285779,0.216278,0.322366,0.336442,0.206534,1.288413,0.169335,0.142339,0.138669,0.165066,0.451239,0.223525,0.355817,0.252378,0.155417,0.303011,0.361225,0.417812,0.392697,0.160218
1768210770.964553,1768210770.965129,23.000000,0.000000,4344.230957,4312.948730,4338.205078,4342.692383,4314.615234,4314.487305,4306.794922,4323.461426,4321.025879,4305.128418,4506.666504,4489.743652,4401.794922,4458.077148,0.000000,4.000000,81.000000,,,,0.000000,4.000000,4.000000,4.000000,4.000000,4.000000,4.000000,4.000000,4.000000,4.000000,4.000000,4.000000,4.000000,4.000000,4.000000,100.000000,,,,,,,,,,,,,,,,,,,,,,,,,,,,,,,,,,,,,,,,,,,,,,,,,,,,,,,,,,,,,,,,,,,,,,,,,,,,,,,,,,,,,,,,,,,,,,,,,,,,,,,,,,,,,,,,,,,,,
1768210770.972362,1768210770.973137,24.000000,0.000000,4342.436035,4314.871582,4339.230957,4342.820313,4313.717773,4318.974121,4309.358887,4322.436035,4324.743652,4307.820313,4509.871582,4490.769043,4407.179688,4467.307617,0.000000,4.000000,81.000000,,,,0.000000,4.000000,4.000000,4.000000,4.000000,4.000000,4.000000,4.000000,4.000000,4.000000,4.000000,4.000000,4.000000,4.000000,4.000000,100.000000,,,,,,,,,,,,,,,,,,,,,,,,,,,,,,,,,,,,,,,,,,,,,,,,,,,,,,,,,,,,,,,,,,,,,,,,,,,,,,,,,,,,,,,,,,,,,,,,,,,,,,,,,,,,,,,,,,,,,
1768210770.980170,1768210770.980946,25.000000,0.000000,4343.717773,4316.794922,4338.717773,4344.102539,4313.205078,4326.153809,4313.205078,4321.153809,4324.871582,4310.000000,4511.410156,4488.717773,4411.922852,4468.077148,0.000000,4.000000,81.000000,,,,0.000000,4.000000,4.000000,4.000000,4.000000,4.000000,4.000000,4.000000,4.000000,4.000000,4.000000,4.000000,4.000000,4.000000,4.000000,100.000000,,,,,,,,,,,,,,,,,,,,,,,,,,,,,,,,,,,,,,,,,,,,,,,,,,,,,,,,,,,,,,,,,,,,,,,,,,,,,,,,,,,,,,,,,,,,,,,,,,,,,,,,,,,,,,,,,,,,,
1768210770.987979,1768210770.988654,26.000000,0.000000,4339.871582,4314.487305,4333.333496,4343.589844,4311.666504,4325.897461,4311.794922,4318.077148,4319.615234,4306.025879,4507.051270,4486.025879,4411.282227,4465.128418,0.000000,4.000000,81.000000,,,,0.000000,4.000000,4.000000,4.000000,4.000000,4.000000,4.000000,4.000000,4.000000,4.000000,4.000000,4.000000,4.000000,4.000000,4.000000,100.000000,,,,,,,,,,,,,,,,,,,,,,,,,,,,,,,,,,,,,,,,,,,,,,,,,,,,,,,,,,,,,,,,,,,,,,,,,,,,,,,,,,,,,,,,,,,,,,,,,,,,,,,,,,,,,,,,,,,,,
1768210770.995787,1768210770.996463,27.000000,0.000000,4335.128418,4310.000000,4330.769043,4339.871582,4310.384766,4318.974121,4307.948730,4310.512695,4314.102539,4301.794922,4505.897461,4484.871582,4411.538574,4466.538574,0.000000,4.000000,81.000000,,,,0.000000,4.000000,4.000000,4.000000,4.000000,4.000000,4.000000,4.000000,4.000000,4.000000,4.000000,4.000000,4.000000,4.000000,4.000000,100.000000,,,,,,,,,,,,,,,,,,,,,,,,,,,,,,,,,,,,,,,,,,,,,,,,,,,,,,,,,,,,,,,,,,,,,,,,,,,,,,,,,,,,,,,,,,,,,,,,,,,,,,,,,,,,,,,,,,,,,
1768210771.003595,1768210771.004471,28.000000,0.000000,4339.871582,4308.846191,4334.871582,4339.743652,4310.128418,4317.436035,4310.128418,4315.512695,4317.948730,4297.436035,4509.230957,4489.230957,4409.487305,4467.307617,0.000000,4.000000,81.000000,,,,0.000000,4.000000,4.000000,4.000000,4.000000,4.000000,4.000000,4.000000,4.000000,4.000000,4.000000,4.000000,4.000000,4.000000,4.000000,100.000000,,,,,,,,,,,,,,,,,,,,,,,,,,,,,,,,,,,,,,,,,,,,,,,,,,,,,,,,,,,,,,,,,,,,,,,,,,,,,,,,,,,,,,,,,,,,,,,,,,,,,,,,,,,,,,,,,,,,,
1768210771.011404,1768210771.012280,29.000000,0.000000,4340.512695,4305.000000,4337.051270,4340.512695,4309.615234,4326.025879,4320.641113,4331.922852,4327.307617,4291.922852,4507.563965,4491.153809,4398.077148,4468.589844,0.000000,4.000000,81.000000,,,,0.000000,4.000000,4.000000,4.000000,4.000000,4.000000,4.000000,4.000000,4.000000,4.000000,4.000000,4.000000,4.000000,4.000000,4.000000,100.000000,,,,,,,,,,,,,,,,,,,,,,,,,,,,,,,,,,,,,,,,,,,,,,,,,,,,,,,,,,,,,,,,,,,,,,,,,,,,,,,,,,,,,,,,,,,,,,,,,,,,,,,,,,,,,,,,,,,,,
1768210771.019212,1768210771.019988,30.000000,0.000000,4332.307617,4299.743652,4332.436035,4337.436035,4309.358887,4332.307617,4327.051270,4334.487305,4328.846191,4298.974121,4508.077148,4489.743652,4396.922852,4468.333496,0.000000,4.000000,81.000000,,,,0.000000,4.000000,4.000000,4.000000,4.000000,4.000000,4.000000,4.000000,4.000000,4.000000,4.000000,4.000000,4.000000,4.000000,4.000000,100.000000,,,,,,,,,,,,,,,,,,,,,,,,,,,,,,,,,,,,,,,,,,,,,,,,,,,,,,,,,,,,,,,,,,,,,,,,,,,,,,,,,,,,,,,,,,,,,,,,,,,,,,,,,,,,,,,,,,,,,
1768210771.027021,1768210771.027797,31.000000,0.000000,4333.717773,4304.230957,4331.922852,4337.563965,4308.333496,4325.512695,4321.410156,4326.410156,4326.794922,4316.410156,4518.461426,4492.051270,4410.384766,4468.077148,0.000000,4.000000,81.000000,,,,0.000000,4.000000,4.000000,4.000000,4.000000,4.000000,4.000000,4.000000,4.000000,4.000000,4.000000,4.000000,4.000000,4.000000,4.000000,100.000000,,,,,,,,,,,,,,,,,,,,,,,,,,,,,,,,,,,,,,,,,,,,,,,,,,,,,,,,,,,,,,,,,,,,,,,,,,,,,,,,,,,,,,,,,,,,,,,,,,,,,,,,,,,,,,,,,,,,,
1768210771.034829,1768210771.035405,32.000000,0.000000,4345.384766,4313.077148,4340.641113,4341.666504,4306.922852,4319.230957,4314.487305,4327.692383,4329.743652,4324.358887,4527.179688,4495.769043,4417.436035,4475.641113,0.000000,4.000000,81.000000,,,,0.000000,4.000000,4.000000,4.000000,4.000000,4.000000,4.000000,4.000000,4.000000,4.000000,4.000000,4.000000,4.000000,4.000000,4.000000,100.000000,,,,,,,,,,,,,,,,,,,,,,,,,,,,,,,,,,,,,,,,,,,,,,,,,,,,,,,,,,,,,,,,,,,,,,,,,,,,,,,,,,,,,,,,,,,,,,,,,,,,,,,,,,,,,,,,,,,,,
1768210771.042637,1768210771.043213,33.000000,0.000000,4351.282227,4317.692383,4347.436035,4342.948730,4309.102539,4323.077148,4319.615234,4330.641113,4328.589844,4318.333496,4527.179688,4496.282227,4416.025879,4483.077148,0.000000,4.000000,81.000000,,,,0.000000,4.000000,4.000000,4.000000,4.000000,4.000000,4.000000,4.000000,4.000000,4.000000,4.000000,4.000000,4.000000,4.000000,4.000000,100.000000,,,,,,,,,,,,,,,,,,,,,,,,,,,,,,,,,,,,,,,,,,,,,,,,,,,,,,,,,,,,,,,,,,,,,,,,,,,,,,,,,,,,,,,,,,,,,,,,,,,,,,,,,,,,,,,,,,,,,
1768210771.050446,1768210771.050921,34.000000,0.000000,4347.692383,4319.102539,4346.153809,4342.051270,4312.820313,4327.563965,4325.897461,4327.563965,4322.307617,4308.846191,4524.358887,4494.230957,4415.256348,4477.179688,0.000000,4.000000,81.000000,,,,0.000000,4.000000,4.000000,4.000000,4.000000,4.000000,4.000000,4.000000,4.000000,4.000000,4.000000,4.000000,4.000000,4.000000,4.000000,100.000000,,,,,,,,,,,,,,,,,,,,,,,,,,,,,,,,,,,,,,,,,,,,,,,,,,,,,,,,,,,,,,,,,,,,,,,,,,,,,,,,,,,,,,,,,,,,,,,,,,,,,,,,,,,,,,,,,,,,,
1768210771.058254,1768210771.058730,35.000000,0.000000,4341.153809,4314.102539,4344.358887,4341.410156,4312.948730,4325.128418,4316.025879,4325.384766,4322.179688,4305.897461,4521.153809,4492.820313,4413.077148,4471.922852,0.000000,4.000000,81.000000,,,,0.000000,4.000000,4.000000,4.000000,4.000000,4.000000,4.000000,4.000000,4.000000,4.000000,4.000000,4.000000,4.000000,4.000000,4.000000,100.000000,,,,,,,,,,,,,,,,,,,,,,,,,,,,,,,,,,,,,,,,,,,,,,,,,,,,,,,,,,,,,,,,,,,,,,,,,,,,,,,,,,,,,,,,,,,,,,,,,,,,,,,,,,,,,,,,,,,,,
1768210771.066063,1768210771.066738,36.000000,0.000000,4339.230957,4304.102539,4345.384766,4338.461426,4311.282227,4322.692383,4306.794922,4325.000000,4324.230957,4304.871582,4519.230957,4493.333496,4410.512695,4477.307617,0.000000,4.000000,81.000000,,,,0.000000,4.000000,4.000000,4.000000,4.000000,4.000000,4.000000,4.000000,4.000000,4.000000,4.000000,4.000000,4.000000,4.000000,4.000000,100.000000,,,,,,,,,,,,,,,,,,,,,,,,,,,,,,,,,,,,,,,,,,,,,,,,,,,,,,,,,,,,,,,,,,,,,,,,,,,,,,,,,,,,,,,,,,,,,,,,,,,,,,,,,,,,,,,,,,,,,
1768210771.073871,1768210771.074546,37.000000,0.000000,4341.538574,4301.666504,4344.743652,4336.282227,4310.769043,4326.538574,4316.794922,4328.333496,4322.179688,4298.461426,4521.794922,4493.205078,4412.051270,4478.333496,0.000000,4.000000,81.000000,,,,0.000000,4.000000,4.000000,4.000000,4.000000,4.000000,4.000000,4.000000,4.000000,4.000000,4.000000,4.000000,4.000000,4.000000,4.000000,100.000000,,,,,,,,,,,,,,,,,,,,,,,,,,,,,,,,,,,,,,,,,,,,,,,,,,,,,,,,,,,,,,,,,,,,,,,,,,,,,,,,,,,,,,,,,,,,,,,,,,,,,,,,,,,,,,,,,,,,,
1768210771.081680,1768210771.082455,38.000000,0.000000,4341.153809,4305.897461,4345.256348,4339.102539,4312.307617,4328.077148,4323.974121,4327.692383,4320.384766,4297.307617,4518.974121,4492.307617,4410.897461,4472.692383,0.000000,4.000000,81.000000,,,,0.000000,4.000000,4.000000,4.000000,4.000000,4.000000,4.000000,4.000000,4.000000,4.000000,4.000000,4.000000,4.000000,4.000000,4.000000,100.000000,,,,,,,,,,,,,,,,,,,,,,,,,,,,,,,,,,,,,,,,,,,,,,,,0.220821,0.101331,0.101684,0.151666,0.048110,3.292928,1.021332,0.197982,0.165283,0.087286,0.301809,0.163180,0.117420,0.142972,0.060564,0.497219,0.287165,0.104349,0.149002,0.078654,0.285068,0.195544,0.163584,0.120466,0.077921,0.217873,0.099483,0.040536,0.118473,0.062695,0.288903,0.252232,0.331723,0.180848,0.125018,0.235433,0.361483,0.298894,0.205252,0.321075,0.338517,0.242764,0.234992,0.157630,0.151077,0.779210,0.315494,0.225893,0.239202,0.194443,1.287463,0.251994,0.279999,0.328966,0.183866,1.108927,0.163403,0.134748,0.153823,0.140978,0.450515,0.244045,0.300013,0.219920,0.142588,0.282580,0.318862,0.353985,0.401611,0.130353
1768210771.089488,1768210771.090263,39.000000,0.000000,4341.153809,4311.922852,4345.512695,4342.179688,4313.205078,4323.077148,4315.128418,4316.666504,4318.589844,4302.820313,4510.128418,4491.153809,4404.487305,4470.128418,0.000000,4.000000,81.000000,,,,0.000000,4.000000,4.000000,4.000000,4.000000,4.000000,4.000000,4.000000,4.000000,4.000000,4.000000,4.000000,4.000000,4.000000,4.000000,100.000000,,,,,,,,,,,,,,,,,,,,,,,,,,,,,,,,,,,,,,,,,,,,,,,,,,,,,,,,,,,,,,,,,,,,,,,,,,,,,,,,,,,,,,,,,,,,,,,,,,,,,,,,,,,,,,,,,,,,,
1768210771.097297,1768210771.098271,40.000000,0.000000,4344.358887,4310.512695,4344.487305,4341.794922,4311.794922,4319.487305,4305.897461,4312.051270,4312.948730,4297.692383,4506.794922,4491.282227,4401.410156,4469.358887,0.000000,4.000000,81.000000,,,,0.000000,4.000000,4.000000,4.000000,4.000000,4.000000,4.000000,4.000000,4.000000,4.000000,4.000000,4.000000,4.000000,4.000000,4.000000,100.000000,,,,,,,,,,,,,,,,,,,,,,,,,,,,,,,,,,,,,,,,,,,,,,,,,,,,,,,,,,,,,,,,,,,,,,,,,,,,,,,,,,,,,,,,,,,,,,,,,,,,,,,,,,,,,,,,,,,,,
1768210771.105105,1768210771.106080,41.000000,0.000000,4343.333496,4299.615234,4344.230957,4338.846191,4310.256348,4316.410156,4306.410156,4321.025879,4310.000000,4292.307617,4508.589844,4493.077148,4404.871582,4468.205078,0.000000,4.000000,81.000000,,,,0.000000,4.000000,4.000000,4.000000,4.000000,4.000000,4.000000,4.000000,4.000000,4.000000,4.000000,4.000000,4.000000,4.000000,4.000000,100.000000,,,,,,,,,,,,,,,,,,,,,,,,,,,,,,,,,,,,,,,,,,,,,,,,,,,,,,,,,,,,,,,,,,,,,,,,,,,,,,,,,,,,,,,,,,,,,,,,,,,,,,,,,,,,,,,,,,,,,
1768210771.112913,1768210771.113988,42.000000,0.000000,4338.077148,4296.922852,4340.897461,4337.820313,4310.256348,4316.410156,4310.897461,4326.666504,4313.461426,4297.948730,4508.717773,4492.563965,4404.871582,4469.102539,0.000000,4.000000,81.000000,,,,0.000000,4.000000,4.000000,4.000000,4.000000,4.000000,4.000000,4.000000,4.000000,4.000000,4.000000,4.000000,4.000000,4.000000,4.000000,100.000000,,,,,,,,,,,,,,,,,,,,,,,,,,,,,,,,,,,,,,,,,,,,,,,,,,,,,,,,,,,,,,,,,,,,,,,,,,,,,,,,,,,,,,,,,,,,,,,,,,,,,,,,,,,,,,,,,,,,,
1768210771.120722,1768210771.121797,43.000000,0.000000,4335.897461,4303.205078,4339.102539,4339.743652,4312.692383,4322.820313,4312.948730,4319.230957,4312.436035,4297.436035,4506.025879,4489.871582,4397.436035,4465.000000,0.000000,4.000000,81.000000,,,,0.000000,4.000000,4.000000,4.000000,4.000000,4.000000,4.000000,4.000000,4.000000,4.000000,4.000000,4.000000,4.000000,4.000000,4.000000,100.000000,,,,,,,,,,,,,,,,,,,,,,,,,,,,,,,,,,,,,,,,,,,,,,,,,,,,,,,,,,,,,,,,,,,,,,,,,,,,,,,,,,,,,,,,,,,,,,,,,,,,,,,,,,,,,,,,,,,,,
1768210771.128530,1768210771.129405,44.000000,0.000000,4339.358887,4306.153809,4341.666504,4339.743652,4314.487305,4326.794922,4311.666504,4310.256348,4308.974121,4295.512695,4505.000000,4489.358887,4395.897461,4459.358887,0.000000,4.000000,81.000000,,,,0.000000,4.000000,4.000000,4.000000,4.000000,4.000000,4.000000,4.000000,4.000000,4.000000,4.000000,4.000000,4.000000,4.000000,4.000000,100.000000,,,,,,,,,,,,,,,,,,,,,,,,,,,,,,,,,,,,,,,,,,,,,,,,,,,,,,,,,,,,,,,,,,,,,,,,,,,,,,,,,,,,,,,,,,,,,,,,,,,,,,,,,,,,,,,,,,,,,
1768210771.136339,1768210771.137213,45.000000,0.000000,4343.589844,4308.333496,4341.153809,4339.615234,4313.974121,4322.948730,4309.871582,4311.538574,4311.410156,4306.282227,4506.666504,4492.179688,4402.179688,4464.230957,0.000000,4.000000,81.000000,,,,0.000000,4.000000,4.000000,4.000000,4.000000,4.000000,4.000000,4.000000,4.000000,4.000000,4.000000,4.000000,4.000000,4.000000,4.000000,100.000000,,,,,,,,,,,,,,,,,,,,,,,,,,,,,,,,,,,,,,,,,,,,,,,,,,,,,,,,,,,,,,,,,,,,,,,,,,,,,,,,,,,,,,,,,,,,,,,,,,,,,,,,,,,,,,,,,,,,,
1768210771.144147,1768210771.145122,46.000000,0.000000,4342.563965,4315.641113,4336.282227,4338.589844,4312.948730,4318.974121,4310.384766,4316.410156,4312.692383,4309.102539,4507.692383,4493.974121,4401.794922,4467.307617,0.000000,4.000000,81.000000,,,,0.000000,4.000000,4.000000,4.000000,4.000000,4.000000,4.000000,4.000000,4.000000,4.000000,4.000000,4.000000,4.000000,4.000000,4.000000,100.000000,,,,,,,,,,,,,,,,,,,,,,,,,,,,,,,,,,,,,,,,,,,,,,,,,,,,,,,,,,,,,,,,,,,,,,,,,,,,,,,,,,,,,,,,,,,,,,,,,,,,,,,,,,,,,,,,,,,,,
1768210771.151955,1768210771.152930,47.000000,0.000000,4338.333496,4323.846191,4336.153809,4334.358887,4312.307617,4320.897461,4314.358887,4313.461426,4311.794922,4297.307617,4506.410156,4490.769043,4396.794922,4457.692383,0.000000,4.000000,81.000000,,,,0.000000,4.000000,4.000000,4.000000,4.000000,4.000000,4.000000,4.000000,4.000000,4.000000,4.000000,4.000000,4.000000,4.000000,4.000000,100.000000,,,,,,,,,,,,,,,,,,,,,,,,,,,,,,,,,,,,,,,,,,,,,,,,,,,,,,,,,,,,,,,,,,,,,,,,,,,,,,,,,,,,,,,,,,,,,,,,,,,,,,,,,,,,,,,,,,,,,
1768210771.159764,1768210771.160539,48.000000,0.000000,4337.436035,4332.179688,4338.589844,4334.871582,4311.025879,4319.487305,4310.641113,4308.461426,4311.282227,4291.282227,4506.666504,4487.820313,4398.333496,4453.461426,0.000000,4.000000,81.000000,,,,0.000000,4.000000,4.000000,4.000000,4.000000,4.000000,4.000000,4.000000,4.000000,4.000000,4.000000,4.000000,4.000000,4.000000,4.000000,100.000000,,,,,,,,,,,,,,,,,,,,,,,,,,,,,,,,,,,,,,,,,,,,,,,,,,,,,,,,,,,,,,,,,,,,,,,,,,,,,,,,,,,,,,,,,,,,,,,,,,,,,,,,,,,,,,,,,,,,,
1768210771.167572,1768210771.168347,49.000000,0.000000,4338.333496,4344.615234,4336.666504,4341.153809,4310.512695,4310.384766,4296.153809,4313.589844,4311.410156,4296.153809,4509.615234,4491.025879,4405.000000,4464.102539,0.000000,4.000000,81.000000,,,,0.000000,4.000000,4.000000,4.000000,4.000000,4.000000,4.000000,4.000000,4.000000,4.000000,4.000000,4.000000,4.000000,4.000000,4.000000,100.000000,,,,,,,,,,,,,,,,,,,,,,,,,,,,,,,,,,,,,,,,,,,,,,,,,,,,,,,,,,,,,,,,,,,,,,,,,,,,,,,,,,,,,,,,,,,,,,,,,,,,,,,,,,,,,,,,,,,,,
1768210771.175381,1768210771.176056,50.000000,0.000000,4339.871582,4354.230957,4337.307617,4343.717773,4311.282227,4310.256348,4298.974121,4322.307617,4311.538574,4297.948730,4509.743652,4489.230957,4405.897461,4467.820313,0.000000,4.000000,81.000000,,,,0.000000,4.000000,4.000000,4.000000,4.000000,4.000000,4.000000,4.000000,4.000000,4.000000,4.000000,4.000000,4.000000,4.000000,4.000000,100.000000,,,,,,,,,,,,,,,,,,,,,,,,,,,,,,,,,,,,,,,,,,,,,,,,,,,,,,,,,,,,,,,,,,,,,,,,,,,,,,,,,,,,,,,,,,,,,,,,,,,,,,,,,,,,,,,,,,,,,
1768210771.183189,1768210771.183864,51.000000,0.000000,4339.615234,4356.666504,4336.538574,4342.820313,4310.897461,4319.871582,4316.538574,4321.794922,4312.436035,4293.717773,4507.948730,4479.358887,4399.871582,4461.153809,0.000000,4.000000,81.000000,,,,0.000000,4.000000,4.000000,4.000000,4.000000,4.000000,4.000000,4.000000,4.000000,4.000000,4.000000,4.000000,4.000000,4.000000,4.000000,100.000000,,,,,,,,,,,,,,,,,,,,,,,,,,,,,,,,,,,,,,,,,,,,,,,,,,,,,,,,,,,,,,,,,,,,,,,,,,,,,,,,,,,,,,,,,,,,,,,,,,,,,,,,,,,,,,,,,,,,,
1768210771.190998,1768210771.191872,52.000000,0.000000,4340.384766,4354.615234,4332.563965,4342.307617,4309.871582,4319.743652,4317.179688,4318.717773,4312.820313,4294.358887,4508.205078,4475.000000,4401.282227,4463.717773,0.000000,4.000000,81.000000,,,,0.000000,4.000000,4.000000,4.000000,4.000000,4.000000,4.000000,4.000000,4.000000,4.000000,4.000000,4.000000,4.000000,4.000000,4.000000,100.000000,,,,,,,,,,,,,,,,,,,,,,,,,,,,,,,,,,,,,,,,,,,,,,,,,,,,,,,,,,,,,,,,,,,,,,,,,,,,,,,,,,,,,,,,,,,,,,,,,,,,,,,,,,,,,,,,,,,,,
1768210771.198806,1768210771.199681,53.000000,0.000000,4341.025879,4351.922852,4330.128418,4337.307617,4309.615234,4315.128418,4307.307617,4323.205078,4311.666504,4295.512695,4509.615234,4476.922852,4405.384766,4467.563965,0.000000,4.000000,81.000000,,,,0.000000,4.000000,4.000000,4.000000,4.000000,4.000000,4.000000,4.000000,4.000000,4.000000,4.000000,4.000000,4.000000,4.000000,4.000000,100.000000,,,,,,,,,,,,,,,,,,,,,,,,,,,,,,,,,,,,,,,,,,,,,,,,,,,,,,,,,,,,,,,,,,,,,,,,,,,,,,,,,,,,,,,,,,,,,,,,,,,,,,,,,,,,,,,,,,,,,
1768210771.206615,1768210771.207589,54.000000,0.000000,4340.000000,4350.384766,4331.794922,4334.487305,4310.384766,4317.307617,4305.384766,4319.230957,4309.487305,4292.307617,4506.666504,4475.000000,4403.589844,4460.641113,0.000000,4.000000,81.000000,,,,0.000000,4.000000,4.000000,4.000000,4.000000,4.000000,4.000000,4.000000,4.000000,4.000000,4.000000,4.000000,4.000000,4.000000,4.000000,100.000000,,,,,,,,,,,,,,,,,,,,,,,,,,,,,,,,,,,,,,,,,,,,,,,,0.227640,0.109914,0.101406,0.137806,0.038127,3.516681,0.979633,0.170328,0.152909,0.070149,0.303262,0.183258,0.113099,0.131140,0.058996,0.560966,0.300714,0.107025,0.127652,0.072801,0.249452,0.198149,0.160135,0.111901,0.069587,0.184020,0.113979,0.046914,0.108350,0.065067,0.257541,0.232032,0.302064,0.196936,0.132240,0.201047,0.300698,0.237731,0.177589,0.312758,0.240018,0.243584,0.222176,0.144441,0.136500,0.626443,0.322036,0.181520,0.233042,0.203216,1.231474,0.309106,0.250904,0.315725,0.163935,0.951427,0.177881,0.133672,0.168040,0.121491,0.466695,0.267325,0.260186,0.191450,0.131928,0.278959,0.288640,0.280493,0.392452,0.106360
1768210771.214423,1768210771.215398,55.000000,0.000000,4342.692383,4353.461426,4338.461426,4342.436035,4310.897461,4317.436035,4307.307617,4311.025879,4312.179688,4293.077148,4506.666504,4473.461426,4405.897461,4461.410156,0.000000,4.000000,81.000000,,,,0.000000,4.000000,4.000000,4.000000,4.000000,4.000000,4.000000,4.000000,4.000000,4.000000,4.000000,4.000000,4.000000,4.000000,4.000000,100.000000,,,,,,,,,,,,,,,,,,,,,,,,,,,,,,,,,,,,,,,,,,,,,,,,,,,,,,,,,,,,,,,,,,,,,,,,,,,,,,,,,,,,,,,,,,,,,,,,,,,,,,,,,,,,,,,,,,,,,
1768210771.222231,1768210771.223006,56.000000,0.000000,4348.846191,4360.641113,4344.102539,4349.358887,4311.538574,4319.743652,4310.384766,4316.922852,4315.256348,4296.666504,4513.077148,4475.000000,4410.641113,4472.563965,0.000000,4.000000,81.000000,,,,0.000000,4.000000,4.000000,4.000000,4.000000,4.000000,4.000000,4.000000,4.000000,4.000000,4.000000,4.000000,4.000000,4.000000,4.000000,100.000000,,,,,,,,,,,,,,,,,,,,,,,,,,,,,,,,,,,,,,,,,,,,,,,,,,,,,,,,,,,,,,,,,,,,,,,,,,,,,,,,,,,,,,,,,,,,,,,,,,,,,,,,,,,,,,,,,,,,,
1768210771.230040,1768210771.230814,57.000000,0.000000,4348.589844,4359.743652,4340.769043,4347.179688,4313.077148,4327.307617,4313.461426,4325.384766,4314.230957,4292.948730,4513.461426,4480.384766,4406.025879,4473.717773,0.000000,4.000000,81.000000,,,,0.000000,4.000000,4.000000,4.000000,4.000000,4.000000,4.000000,4.000000,4.000000,4.000000,4.000000,4.000000,4.000000,4.000000,4.000000,100.000000,,,,,,,,,,,,,,,,,,,,,,,,,,,,,,,,,,,,,,,,,,,,,,,,,,,,,,,,,,,,,,,,,,,,,,,,,,,,,,,,,,,,,,,,,,,,,,,,,,,,,,,,,,,,,,,,,,,,,
1768210771.237848,1768210771.238523,58.000000,0.000000,4342.948730,4347.820313,4337.692383,4343.077148,4311.410156,4325.384766,4310.897461,4324.487305,4313.333496,4291.666504,4508.589844,4487.051270,4403.461426,4468.846191,0.000000,4.000000,81.000000,,,,0.000000,4.000000,4.000000,4.000000,4.000000,4.000000,4.000000,4.000000,4.000000,4.000000,4.000000,4.000000,4.000000,4.000000,4.000000,100.000000,,,,,,,,,,,,,,,,,,,,,,,,,,,,,,,,,,,,,,,,,,,,,,,,,,,,,,,,,,,,,,,,,,,,,,,,,,,,,,,,,,,,,,,,,,,,,,,,,,,,,,,,,,,,,,,,,,,,,
1768210771.245657,1768210771.246331,59.000000,0.000000,4342.692383,4340.384766,4341.538574,4342.692383,4307.692383,4314.615234,4308.333496,4319.871582,4314.358887,4291.025879,4507.820313,4489.358887,4411.282227,4471.410156,0.000000,4.000000,81.000000,,,,0.000000,4.000000,4.000000,4.000000,4.000000,4.000000,4.000000,4.000000,4.000000,4.000000,4.000000,4.000000,4.000000,4.000000,4.000000,100.000000,,,,,,,,,,,,,,,,,,,,,,,,,,,,,,,,,,,,,,,,,,,,,,,,,,,,,,,,,,,,,,,,,,,,,,,,,,,,,,,,,,,,,,,,,,,,,,,,,,,,,,,,,,,,,,,,,,,,,
1768210771.253465,1768210771.253939,60.000000,0.000000,4345.512695,4344.358887,4341.794922,4344.230957,4309.358887,4312.307617,4306.666504,4317.563965,4310.897461,4283.077148,4511.025879,4490.384766,4413.846191,4474.102539,0.000000,4.000000,81.000000,,,,0.000000,4.000000,4.000000,4.000000,4.000000,4.000000,4.000000,4.000000,4.000000,4.000000,4.000000,4.000000,4.000000,4.000000,4.000000,100.000000,,,,,,,,,,,,,,,,,,,,,,,,,,,,,,,,,,,,,,,,,,,,,,,,,,,,,,,,,,,,,,,,,,,,,,,,,,,,,,,,,,,,,,,,,,,,,,,,,,,,,,,,,,,,,,,,,,,,,
1768210771.261274,1768210771.261747,61.000000,0.000000,4343.589844,4345.128418,4339.230957,4344.743652,4311.922852,4317.051270,4306.666504,4319.743652,4308.717773,4286.025879,4510.769043,4485.769043,4406.666504,4470.000000,0.000000,4.000000,81.000000,,,,0.000000,4.000000,4.000000,4.000000,4.000000,4.000000,4.000000,4.000000,4.000000,4.000000,4.000000,4.000000,4.000000,4.000000,4.000000,100.000000,,,,,,,,,,,,,,,,,,,,,,,,,,,,,,,,,,,,,,,,,,,,,,,,,,,,,,,,,,,,,,,,,,,,,,,,,,,,,,,,,,,,,,,,,,,,,,,,,,,,,,,,,,,,,,,,,,,,,
1768210771.269082,1768210771.269656,62.000000,0.000000,4339.743652,4335.641113,4339.871582,4342.820313,4309.871582,4319.102539,4309.487305,4328.077148,4316.922852,4297.820313,4506.794922,4479.871582,4402.179688,4466.282227,0.000000,4.000000,81.000000,,,,0.000000,4.000000,4.000000,4.000000,4.000000,4.000000,4.000000,4.000000,4.000000,4.000000,4.000000,4.000000,4.000000,4.000000,4.000000,100.000000,,,,,,,,,,,,,,,,,,,,,,,,,,,,,,,,,,,,,,,,,,,,,,,,,,,,,,,,,,,,,,,,,,,,,,,,,,,,,,,,,,,,,,,,,,,,,,,,,,,,,,,,,,,,,,,,,,,,,
1768210771.276890,1768210771.277464,63.000000,0.000000,4339.487305,4333.461426,4341.025879,4341.025879,4309.230957,4317.563965,4308.974121,4326.410156,4318.333496,4298.461426,4512.436035,4486.538574,4405.000000,4468.077148,0.000000,4.000000,81.000000,,,,0.000000,4.000000,4.000000,4.000000,4.000000,4.000000,4.000000,4.000000,4.000000,4.000000,4.000000,4.000000,4.000000,4.000000,4.000000,100.000000,,,,,,,,,,,,,,,,,,,,,,,,,,,,,,,,,,,,,,,,,,,,,,,,,,,,,,,,,,,,,,,,,,,,,,,,,,,,,,,,,,,,,,,,,,,,,,,,,,,,,,,,,,,,,,,,,,,,,
1768210771.284699,1768210771.285472,64.000000,0.000000,4343.077148,4339.358887,4341.025879,4341.794922,4310.512695,4319.615234,4313.589844,4318.846191,4310.897461,4296.025879,4521.794922,4491.410156,4410.769043,4473.077148,3011.000000,4.000000,81.000000,,,,0.000000,4.000000,4.000000,4.000000,4.000000,4.000000,4.000000,4.000000,4.000000,4.000000,4.000000,4.000000,4.000000,4.000000,4.000000,100.000000,,,,,,,,,,,,,,,,,,,,,,,,,,,,,,,,,,,,,,,,,,,,,,,,,,,,,,,,,,,,,,,,,,,,,,,,,,,,,,,,,,,,,,,,,,,,,,,,,,,,,,,,,,,,,,,,,,,,,
1768210771.292507,1768210771.293281,65.000000,0.000000,4343.333496,4335.128418,4339.743652,4343.205078,4311.025879,4323.717773,4320.128418,4323.846191,4315.897461,4298.205078,4516.410156,4486.025879,4410.384766,4472.563965,4066.000000,4.000000,81.000000,,,,0.000000,4.000000,4.000000,4.000000,4.000000,4.000000,4.000000,4.000000,4.000000,4.000000,4.000000,4.000000,4.000000,4.000000,4.000000,100.000000,,,,,,,,,,,,,,,,,,,,,,,,,,,,,,,,,,,,,,,,,,,,,,,,,,,,,,,,,,,,,,,,,,,,,,,,,,,,,,,,,,,,,,,,,,,,,,,,,,,,,,,,,,,,,,,,,,,,,
1768210771.300316,1768210771.301189,66.000000,0.000000,4342.179688,4326.922852,4339.102539,4342.436035,4312.948730,4319.871582,4314.230957,4327.563965,4322.563965,4296.538574,4508.717773,4485.512695,4406.282227,4467.179688,2359.000000,4.000000,81.000000,,,,0.000000,4.000000,4.000000,4.000000,4.000000,4.000000,4.000000,4.000000,4.000000,4.000000,4.000000,4.000000,4.000000,4.000000,4.000000,100.000000,,,,,,,,,,,,,,,,,,,,,,,,,,,,,,,,,,,,,,,,,,,,,,,,,,,,,,,,,,,,,,,,,,,,,,,,,,,,,,,,,,,,,,,,,,,,,,,,,,,,,,,,,,,,,,,,,,,,,
1768210771.308124,1768210771.308998,67.000000,0.000000,4346.410156,4327.948730,4342.051270,4341.666504,4313.589844,4316.666504,4308.077148,4323.205078,4316.153809,4296.282227,4520.000000,4491.025879,4407.948730,4472.051270,3916.000000,4.000000,81.000000,,,,0.000000,4.000000,4.000000,4.000000,4.000000,4.000000,4.000000,4.000000,4.000000,4.000000,4.000000,4.000000,4.000000,4.000000,4.000000,100.000000,,,,,,,,,,,,,,,,,,,,,,,,,,,,,,,,,,,,,,,,,,,,,,,,,,,,,,,,,,,,,,,,,,,,,,,,,,,,,,,,,,,,,,,,,,,,,,,,,,,,,,,,,,,,,,,,,,,,,
1768210771.315933,1768210771.317006,68.000000,0.000000,4348.333496,4329.230957,4344.230957,4342.307617,4310.000000,4319.230957,4313.974121,4323.205078,4313.205078,4299.358887,4525.641113,4491.922852,4412.436035,4483.461426,3864.000000,4.000000,81.000000,,,,0.000000,4.000000,4.000000,4.000000,4.000000,4.000000,4.000000,4.000000,4.000000,4.000000,4.000000,4.000000,4.000000,4.000000,4.000000,100.000000,,,,,,,,,,,,,,,,,,,,,,,,,,,,,,,,,,,,,,,,,,,,,,,,,,,,,,,,,,,,,,,,,,,,,,,,,,,,,,,,,,,,,,,,,,,,,,,,,,,,,,,,,,,,,,,,,,,,,
1768210771.323741,1768210771.324814,69.000000,0.000000,4343.077148,4323.717773,4340.256348,4342.179688,4310.769043,4316.794922,4312.563965,4324.358887,4317.692383,4296.794922,4510.641113,4485.256348,4413.461426,4480.769043,3283.000000,4.000000,81.000000,,,,0.000000,4.000000,4.000000,4.000000,4.000000,4.000000,4.000000,4.000000,4.000000,4.000000,4.000000,4.000000,4.000000,4.000000,4.000000,100.000000,,,,,,,,,,,,,,,,,,,,,,,,,,,,,,,,,,,,,,,,,,,,,,,,,,,,,,,,,,,,,,,,,,,,,,,,,,,,,,,,,,,,,,,,,,,,,,,,,,,,,,,,,,,,,,,,,,,,,
1768210771.331549,1768210771.332523,70.000000,0.000000,4341.666504,4321.922852,4336.922852,4341.922852,4316.410156,4313.205078,4302.563965,4321.410156,4313.589844,4296.025879,4504.615234,4478.974121,4409.871582,4469.358887,3882.000000,4.000000,81.000000,,,,0.000000,4.000000,4.000000,4.000000,4.000000,4.000000,4.000000,4.000000,4.000000,4.000000,4.000000,4.000000,4.000000,4.000000,4.000000,100.000000,,,,,,,,,,,,,,,,,,,,,,,,,,,,,,,,,,,,,,,,,,,,,,,,0.222220,0.122247,0.110062,0.124094,0.035064,3.729519,0.954186,0.155309,0.155706,0.059542,0.296101,0.197027,0.101677,0.119449,0.061077,0.571563,0.310802,0.108458,0.112274,0.067878,0.211303,0.189019,0.146196,0.103781,0.059824,0.146829,0.126147,0.057737,0.100560,0.068404,0.229664,0.215050,0.265074,0.201234,0.142724,0.186698,0.229262,0.190342,0.156148,0.304699,0.192423,0.228342,0.197392,0.136513,0.121046,0.460654,0.312467,0.153497,0.239852,0.206839,1.138863,0.371937,0.240751,0.296303,0.149801,0.831657,0.214657,0.135917,0.176151,0.112092,0.493322,0.283298,0.236913,0.175381,0.126331,0.287501,0.261993,0.211540,0.362929,0.094274
1768210771.339358,1768210771.340331,71.000000,0.000000,4341.282227,4323.846191,4338.717773,4342.179688,4320.000000,4315.897461,4305.128418,4326.922852,4310.256348,4298.974121,4515.769043,4482.436035,4410.769043,4470.769043,3921.000000,4.000000,81.000000,,,,0.000000,4.000000,4.000000,4.000000,4.000000,4.000000,4.000000,4.000000,4.000000,4.000000,4.000000,4.000000,4.000000,4.000000,4.000000,100.000000,,,,,,,,,,,,,,,,,,,,,,,,,,,,,,,,,,,,,,,,,,,,,,,,,,,,,,,,,,,,,,,,,,,,,,,,,,,,,,,,,,,,,,,,,,,,,,,,,,,,,,,,,,,,,,,,,,,,,
1768210771.347166,1768210771.347940,72.000000,0.000000,4336.410156,4318.333496,4340.256348,4342.051270,4317.563965,4320.512695,4312.051270,4326.153809,4312.307617,4298.589844,4517.436035,4484.743652,4414.487305,4477.563965,3967.000000,4.000000,81.000000,,,,0.000000,4.000000,4.000000,4.000000,4.000000,4.000000,4.000000,4.000000,4.000000,4.000000,4.000000,4.000000,4.000000,4.000000,4.000000,100.000000,,,,,,,,,,,,,,,,,,,,,,,,,,,,,,,,,,,,,,,,,,,,,,,,,,,,,,,,,,,,,,,,,,,,,,,,,,,,,,,,,,,,,,,,,,,,,,,,,,,,,,,,,,,,,,,,,,,,,
1768210771.354975,1768210771.355748,73.000000,0.000000,4337.436035,4313.333496,4339.743652,4341.282227,4313.974121,4324.487305,4310.000000,4314.487305,4310.512695,4296.666504,4507.436035,4476.153809,4408.846191,4470.384766,4046.000000,4.000000,81.000000,,,,0.000000,4.000000,4.000000,4.000000,4.000000,4.000000,4.000000,4.000000,4.000000,4.000000,4.000000,4.000000,4.000000,4.000000,4.000000,100.000000,,,,,,,,,,,,,,,,,,,,,,,,,,,,,,,,,,,,,,,,,,,,,,,,,,,,,,,,,,,,,,,,,,,,,,,,,,,,,,,,,,,,,,,,,,,,,,,,,,,,,,,,,,,,,,,,,,,,,
1768210771.362783,1768210771.363457,74.000000,0.000000,4344.358887,4321.025879,4340.641113,4342.820313,4316.410156,4327.820313,4308.717773,4320.128418,4310.641113,4296.666504,4505.641113,4474.871582,4401.666504,4463.461426,3901.000000,4.000000,81.000000,,,,0.000000,4.000000,4.000000,4.000000,4.000000,4.000000,4.000000,4.000000,4.000000,4.000000,4.000000,4.000000,4.000000,4.000000,4.000000,100.000000,,,,,,,,,,,,,,,,,,,,,,,,,,,,,,,,,,,,,,,,,,,,,,,,,,,,,,,,,,,,,,,,,,,,,,,,,,,,,,,,,,,,,,,,,,,,,,,,,,,,,,,,,,,,,,,,,,,,,
1768210771.370592,1768210771.371265,75.000000,0.000000,4341.538574,4328.846191,4340.128418,4343.333496,4320.384766,4323.333496,4309.230957,4328.846191,4312.436035,4295.128418,4511.410156,4481.025879,4403.077148,4468.077148,4039.000000,4.000000,81.000000,,,,0.000000,4.000000,4.000000,4.000000,4.000000,4.000000,4.000000,4.000000,4.000000,4.000000,4.000000,4.000000,4.000000,4.000000,4.000000,100.000000,,,,,,,,,,,,,,,,,,,,,,,,,,,,,,,,,,,,,,,,,,,,,,,,,,,,,,,,,,,,,,,,,,,,,,,,,,,,,,,,,,,,,,,,,,,,,,,,,,,,,,,,,,,,,,,,,,,,,
1768210771.378400,1768210771.379273,76.000000,0.000000,4336.666504,4326.794922,4337.692383,4342.948730,4322.051270,4322.051270,4308.589844,4320.128418,4310.384766,4294.102539,4512.436035,4477.179688,4403.974121,4472.307617,4983.000000,4.000000,81.000000,,,,0.000000,4.000000,4.000000,4.000000,4.000000,4.000000,4.000000,4.000000,4.000000,4.000000,4.000000,4.000000,4.000000,4.000000,4.000000,100.000000,,,,,,,,,,,,,,,,,,,,,,,,,,,,,,,,,,,,,,,,,,,,,,,,,,,,,,,,,,,,,,,,,,,,,,,,,,,,,,,,,,,,,,,,,,,,,,,,,,,,,,,,,,,,,,,,,,,,,
1768210771.386208,1768210771.387082,77.000000,0.000000,4344.230957,4326.282227,4341.666504,4346.922852,4319.358887,4327.948730,4312.948730,4319.615234,4314.102539,4296.282227,4509.743652,4478.717773,4400.384766,4471.025879,3800.000000,4.000000,81.000000,,,,0.000000,4.000000,4.000000,4.000000,4.000000,4.000000,4.000000,4.000000,4.000000,4.000000,4.000000,4.000000,4.000000,4.000000,4.000000,100.000000,,,,,,,,,,,,,,,,,,,,,,,,,,,,,,,,,,,,,,,,,,,,,,,,,,,,,,,,,,,,,,,,,,,,,,,,,,,,,,,,,,,,,,,,,,,,,,,,,,,,,,,,,,,,,,,,,,,,,
1768210771.394017,1768210771.394790,78.000000,0.000000,4350.897461,4328.717773,4345.641113,4348.205078,4314.358887,4321.922852,4314.743652,4327.820313,4320.000000,4297.179688,4508.205078,4489.358887,4403.846191,4471.794922,3901.000000,4.000000,81.000000,,,,0.000000,4.000000,4.000000,4.000000,4.000000,4.000000,4.000000,4.000000,4.000000,4.000000,4.000000,4.000000,4.000000,4.000000,4.000000,100.000000,,,,,,,,,,,,,,,,,,,,,,,,,,,,,,,,,,,,,,,,,,,,,,,,,,,,,,,,,,,,,,,,,,,,,,,,,,,,,,,,,,,,,,,,,,,,,,,,,,,,,,,,,,,,,,,,,,,,,
1768210771.401825,1768210771.402598,79.000000,0.000000,4344.102539,4324.358887,4337.948730,4342.563965,4311.794922,4308.589844,4307.692383,4323.205078,4319.102539,4298.589844,4512.563965,4488.717773,4411.153809,4474.102539,4039.000000,4.000000,81.000000,,,,0.000000,4.000000,4.000000,4.000000,4.000000,4.000000,4.000000,4.000000,4.000000,4.000000,4.000000,4.000000,4.000000,4.000000,4.000000,100.000000,,,,,,,,,,,,,,,,,,,,,,,,,,,,,,,,,,,,,,,,,,,,,,,,,,,,,,,,,,,,,,,,,,,,,,,,,,,,,,,,,,,,,,,,,,,,,,,,,,,,,,,,,,,,,,,,,,,,,
1768210771.409634,1768210771.410606,80.000000,0.000000,4338.077148,4319.615234,4330.384766,4340.000000,4311.794922,4310.000000,4307.051270,4320.769043,4318.077148,4302.820313,4518.589844,4484.358887,4410.641113,4471.025879,4983.000000,4.000000,81.000000,,,,0.000000,4.000000,4.000000,4.000000,4.000000,4.000000,4.000000,4.000000,4.000000,4.000000,4.000000,4.000000,4.000000,4.000000,4.000000,100.000000,,,,,,,,,,,,,,,,,,,,,,,,,,,,,,,,,,,,,,,,,,,,,,,,,,,,,,,,,,,,,,,,,,,,,,,,,,,,,,,,,,,,,,,,,,,,,,,,,,,,,,,,,,,,,,,,,,,,,
1768210771.417442,1768210771.418415,81.000000,0.000000,4342.436035,4321.410156,4337.051270,4342.948730,4310.897461,4319.358887,4312.948730,4326.538574,4321.025879,4305.256348,4519.358887,4489.615234,4408.974121,4473.077148,3800.000000,4.000000,81.000000,,,,0.000000,4.000000,4.000000,4.000000,4.000000,4.000000,4.000000,4.000000,4.000000,4.000000,4.000000,4.000000,4.000000,4.000000,4.000000,100.000000,,,,,,,,,,,,,,,,,,,,,,,,,,,,,,,,,,,,,,,,,,,,,,,,,,,,,,,,,,,,,,,,,,,,,,,,,,,,,,,,,,,,,,,,,,,,,,,,,,,,,,,,,,,,,,,,,,,,,
1768210771.425251,1768210771.426123,82.000000,0.000000,4346.282227,4325.000000,4346.666504,4343.589844,4309.615234,4316.922852,4311.666504,4326.794922,4321.794922,4301.282227,4520.641113,4494.358887,4410.512695,4478.333496,3901.000000,4.000000,81.000000,,,,0.000000,4.000000,4.000000,4.000000,4.000000,4.000000,4.000000,4.000000,4.000000,4.000000,4.000000,4.000000,4.000000,4.000000,4.000000,100.000000,,,,,,,,,,,,,,,,,,,,,,,,,,,,,,,,,,,,,,,,,,,,,,,,,,,,,,,,,,,,,,,,,,,,,,,,,,,,,,,,,,,,,,,,,,,,,,,,,,,,,,,,,,,,,,,,,,,,,
1768210771.433059,1768210771.433931,83.000000,0.000000,4344.487305,4324.487305,4343.589844,4341.922852,4311.410156,4313.205078,4309.487305,4325.512695,4320.000000,4295.512695,4520.897461,4488.846191,4410.256348,4474.743652,4039.000000,4.000000,81.000000,,,,0.000000,4.000000,4.000000,4.000000,4.000000,4.000000,4.000000,4.000000,4.000000,4.000000,4.000000,4.000000,4.000000,4.000000,4.000000,100.000000,,,,,,,,,,,,,,,,,,,,,,,,,,,,,,,,,,,,,,,,,,,,,,,,,,,,,,,,,,,,,,,,,,,,,,,,,,,,,,,,,,,,,,,,,,,,,,,,,,,,,,,,,,,,,,,,,,,,,
1768210771.440868,1768210771.441540,84.000000,0.000000,4342.436035,4321.025879,4335.897461,4339.615234,4310.897461,4318.461426,4312.307617,4326.025879,4319.487305,4298.077148,4518.589844,4487.179688,4409.615234,4473.205078,4983.000000,4.000000,81.000000,,,,0.000000,4.000000,4.000000,4.000000,4.000000,4.000000,4.000000,4.000000,4.000000,4.000000,4.000000,4.000000,4.000000,4.000000,4.000000,100.000000,,,,,,,,,,,,,,,,,,,,,,,,,,,,,,,,,,,,,,,,,,,,,,,,,,,,,,,,,,,,,,,,,,,,,,,,,,,,,,,,,,,,,,,,,,,,,,,,,,,,,,,,,,,,,,,,,,,,,
1768210771.448676,1768210771.449348,85.000000,0.000000,4344.358887,4322.051270,4339.871582,4339.102539,4309.358887,4320.384766,4312.948730,4326.153809,4320.256348,4306.410156,4521.794922,4492.051270,4410.641113,4478.205078,3800.000000,4.000000,81.000000,,,,0.000000,4.000000,4.000000,4.000000,4.000000,4.000000,4.000000,4.000000,4.000000,4.000000,4.000000,4.000000,4.000000,4.000000,4.000000,100.000000,,,,,,,,,,,,,,,,,,,,,,,,,,,,,,,,,,,,,,,,,,,,,,,,,,,,,,,,,,,,,,,,,,,,,,,,,,,,,,,,,,,,,,,,,,,,,,,,,,,,,,,,,,,,,,,,,,,,,
1768210771.456484,1768210771.457056,86.000000,0.000000,4348.333496,4327.436035,4346.666504,4342.948730,4312.436035,4313.974121,4308.717773,4326.666504,4323.846191,4307.948730,4525.000000,4492.820313,4407.307617,4479.615234,3901.000000,4.000000,81.000000,,,,0.000000,4.000000,4.000000,4.000000,4.000000,4.000000,4.000000,4.000000,4.000000,4.000000,4.000000,4.000000,4.000000,4.000000,4.000000,100.000000,1.000000,25.000000,1.000000,4.000000,1.000000,1.000000,1.000000,1.000000,4.000000,4.000000,4.000000,4.000000,4.000000,4.000000,4.000000,4.000000,,,,,,,,,,,,,,,,,,,,,,,,,,,,,,,,0.207860,0.135739,0.119320,0.112946,0.038659,3.884040,0.938299,0.155319,0.175342,0.055237,0.293510,0.204781,0.086160,0.109994,0.064526,0.523619,0.306401,0.105491,0.101847,0.063314,0.175625,0.168973,0.122064,0.092806,0.049259,0.123091,0.132926,0.071881,0.095847,0.073970,0.219004,0.204586,0.233817,0.191899,0.156834,0.201964,0.161906,0.171621,0.150507,0.302798,0.188560,0.195354,0.165751,0.133918,0.107973,0.310357,0.299861,0.150648,0.256980,0.204907,1.050252,0.427595,0.245903,0.268463,0.140410,0.745156,0.270177,0.139217,0.172924,0.111453,0.516159,0.284963,0.223276,0.175640,0.125460,0.316630,0.230999,0.157336,0.314177,0.094431
1768210771.464293,1768210771.464865,87.000000,0.000000,4348.589844,4329.743652,4344.358887,4343.974121,4314.358887,4311.025879,4306.538574,4326.538574,4323.717773,4300.769043,4520.512695,4490.897461,4400.641113,4476.538574,4039.000000,4.000000,81.000000,,,,0.000000,4.000000,4.000000,4.000000,4.000000,4.000000,4.000000,4.000000,4.000000,4.000000,4.000000,4.000000,4.000000,4.000000,4.000000,100.000000,,,,,,,,,,,,,,,,,,,,,,,,,,,,,,,,,,,,,,,,,,,,,,,,,,,,,,,,,,,,,,,,,,,,,,,,,,,,,,,,,,,,,,,,,,,,,,,,,,,,,,,,,,,,,,,,,,,,,
1768210771.472101,1768210771.472873,88.000000,0.000000,4349.487305,4328.077148,4342.179688,4343.077148,4315.769043,4317.051270,4311.282227,4325.512695,4320.256348,4305.128418,4521.922852,4490.128418,4404.102539,4477.307617,4983.000000,4.000000,81.000000,,,,0.000000,4.000000,4.000000,4.000000,4.000000,4.000000,4.000000,4.000000,4.000000,4.000000,4.000000,4.000000,4.000000,4.000000,4.000000,100.000000,,,,,,,,,,,,,,,,,,,,,,,,,,,,,,,,,,,,,,,,,,,,,,,,,,,,,,,,,,,,,,,,,,,,,,,,,,,,,,,,,,,,,,,,,,,,,,,,,,,,,,,,,,,,,,,,,,,,,
1768210771.479910,1768210771.480681,89.000000,0.000000,4351.153809,4324.615234,4344.871582,4344.358887,4317.051270,4318.461426,4312.563965,4325.384766,4319.487305,4312.948730,4527.948730,4491.922852,4412.307617,4477.563965,3800.000000,4.000000,81.000000,,,,0.000000,4.000000,4.000000,4.000000,4.000000,4.000000,4.000000,4.000000,4.000000,4.000000,4.000000,4.000000,4.000000,4.000000,4.000000,100.000000,,,,,,,,,,,,,,,,,,,,,,,,,,,,,,,,,,,,,,,,,,,,,,,,,,,,,,,,,,,,,,,,,,,,,,,,,,,,,,,,,,,,,,,,,,,,,,,,,,,,,,,,,,,,,,,,,,,,,
1768210771.487718,1768210771.488590,90.000000,0.000000,4349.358887,4323.461426,4344.230957,4344.102539,4315.256348,4313.717773,4310.384766,4325.897461,4318.333496,4303.077148,4526.282227,4492.692383,4413.333496,4477.179688,3901.000000,4.000000,81.000000,,,,0.000000,4.000000,4.000000,4.000000,4.000000,4.000000,4.000000,4.000000,4.000000,4.000000,4.000000,4.000000,4.000000,4.000000,4.000000,100.000000,,,,,,,,,,,,,,,,,,,,,,,,,,,,,,,,,,,,,,,,,,,,,,,,,,,,,,,,,,,,,,,,,,,,,,,,,,,,,,,,,,,,,,,,,,,,,,,,,,,,,,,,,,,,,,,,,,,,,
1768210771.495526,1768210771.496398,91.000000,0.000000,4350.512695,4322.051270,4344.102539,4341.922852,4312.692383,4311.922852,4311.794922,4327.307617,4319.230957,4295.641113,4524.871582,4493.077148,4411.282227,4481.410156,4039.000000,4.000000,81.000000,,,,0.000000,4.000000,4.000000,4.000000,4.000000,4.000000,4.000000,4.000000,4.000000,4.000000,4.000000,4.000000,4.000000,4.000000,4.000000,100.000000,,,,,,,,,,,,,,,,,,,,,,,,,,,,,,,,,,,,,,,,,,,,,,,,,,,,,,,,,,,,,,,,,,,,,,,,,,,,,,,,,,,,,,,,,,,,,,,,,,,,,,,,,,,,,,,,,,,,,
1768210771.503335,1768210771.504406,92.000000,0.000000,4352.179688,4316.025879,4346.025879,4341.922852,4312.692383,4312.307617,4305.769043,4324.615234,4316.922852,4301.282227,4523.974121,4491.538574,4409.230957,4480.128418,4983.000000,4.000000,81.000000,,,,0.000000,4.000000,4.000000,4.000000,4.000000,4.000000,4.000000,4.000000,4.000000,4.000000,4.000000,4.000000,4.000000,4.000000,4.000000,100.000000,,,,,,,,,,,,,,,,,,,,,,,,,,,,,,,,,,,,,,,,,,,,,,,,,,,,,,,,,,,,,,,,,,,,,,,,,,,,,,,,,,,,,,,,,,,,,,,,,,,,,,,,,,,,,,,,,,,,,
1768210771.511143,1768210771.512215,93.000000,0.000000,4348.333496,4311.153809,4343.077148,4341.666504,4313.461426,4311.666504,4295.128418,4320.897461,4311.025879,4303.589844,4522.948730,4487.051270,4408.205078,4478.205078,3800.000000,4.000000,81.000000,,,,0.000000,4.000000,4.000000,4.000000,4.000000,4.000000,4.000000,4.000000,4.000000,4.000000,4.000000,4.000000,4.000000,4.000000,4.000000,100.000000,,,,,,,,,,,,,,,,,,,,,,,,,,,,,,,,,,,,,,,,,,,,,,,,,,,,,,,,,,,,,,,,,,,,,,,,,,,,,,,,,,,,,,,,,,,,,,,,,,,,,,,,,,,,,,,,,,,,,
1768210771.518952,1768210771.520123,94.000000,0.000000,4346.794922,4312.179688,4340.256348,4341.666504,4312.692383,4317.563965,4305.384766,4330.384766,4316.282227,4297.179688,4527.051270,4488.205078,4411.025879,4480.769043,3901.000000,4.000000,81.000000,,,,0.000000,4.000000,4.000000,4.000000,4.000000,4.000000,4.000000,4.000000,4.000000,4.000000,4.000000,4.000000,4.000000,4.000000,4.000000,100.000000,,,,,,,,,,,,,,,,,,,,,,,,,,,,,,,,,,,,,,,,,,,,,,,,,,,,,,,,,,,,,,,,,,,,,,,,,,,,,,,,,,,,,,,,,,,,,,,,,,,,,,,,,,,,,,,,,,,,,
1768210771.526760,1768210771.527932,95.000000,0.000000,4348.461426,4310.256348,4340.897461,4339.871582,4311.025879,4324.615234,4319.230957,4337.307617,4321.666504,4292.948730,4529.358887,4493.077148,4414.871582,4483.077148,4039.000000,4.000000,81.000000,,,,0.000000,4.000000,4.000000,4.000000,4.000000,4.000000,4.000000,4.000000,4.000000,4.000000,4.000000,4.000000,4.000000,4.000000,4.000000,100.000000,,,,,,,,,,,,,,,,,,,,,,,,,,,,,,,,,,,,,,,,,,,,,,,,,,,,,,,,,,,,,,,,,,,,,,,,,,,,,,,,,,,,,,,,,,,,,,,,,,,,,,,,,,,,,,,,,,,,,
1768210771.534569,1768210771.535640,96.000000,0.000000,4346.153809,4306.538574,4338.461426,4334.358887,4309.358887,4321.282227,4310.897461,4326.153809,4312.820313,4296.666504,4524.358887,4492.436035,4412.307617,4481.794922,4983.000000,4.000000,81.000000,,,,0.000000,4.000000,4.000000,4.000000,4.000000,4.000000,4.000000,4.000000,4.000000,4.000000,4.000000,4.000000,4.000000,4.000000,4.000000,100.000000,,,,,,,,,,,,,,,,,,,,,,,,,,,,,,,,,,,,,,,,,,,,,,,,,,,,,,,,,,,,,,,,,,,,,,,,,,,,,,,,,,,,,,,,,,,,,,,,,,,,,,,,,,,,,,,,,,,,,
1768210771.542377,1768210771.543448,97.000000,0.000000,4343.461426,4306.025879,4335.256348,4332.436035,4309.487305,4319.743652,4306.538574,4324.743652,4313.974121,4305.384766,4521.410156,4490.256348,4407.820313,4478.717773,3800.000000,4.000000,81.000000,,,,0.000000,4.000000,4.000000,4.000000,4.000000,4.000000,4.000000,4.000000,4.000000,4.000000,4.000000,4.000000,4.000000,4.000000,4.000000,100.000000,,,,,,,,,,,,,,,,,,,,,,,,,,,,,,,,,,,,,,,,,,,,,,,,,,,,,,,,,,,,,,,,,,,,,,,,,,,,,,,,,,,,,,,,,,,,,,,,,,,,,,,,,,,,,,,,,,,,,
1768210771.550186,1768210771.551157,98.000000,0.000000,4343.846191,4304.487305,4337.820313,4334.871582,4310.897461,4326.666504,4315.897461,4335.128418,4324.615234,4309.743652,4525.000000,4492.051270,4409.871582,4473.974121,3901.000000,4.000000,81.000000,,,,0.000000,4.000000,4.000000,4.000000,4.000000,4.000000,4.000000,4.000000,4.000000,4.000000,4.000000,4.000000,4.000000,4.000000,4.000000,100.000000,,,,,,,,,,,,,,,,,,,,,,,,,,,,,,,,,,,,,,,,,,,,,,,,,,,,,,,,,,,,,,,,,,,,,,,,,,,,,,,,,,,,,,,,,,,,,,,,,,,,,,,,,,,,,,,,,,,,,
1768210771.557994,1768210771.558965,99.000000,0.000000,4343.846191,4303.205078,4339.615234,4337.179688,4310.769043,4328.846191,4316.538574,4329.230957,4316.666504,4301.410156,4523.846191,4491.410156,4408.077148,4470.384766,4039.000000,4.000000,81.000000,,,,0.000000,4.000000,4.000000,4.000000,4.000000,4.000000,4.000000,4.000000,4.000000,4.000000,4.000000,4.000000,4.000000,4.000000,4.000000,100.000000,,,,,,,,,,,,,,,,,,,,,,,,,,,,,,,,,,,,,,,,,,,,,,,,,,,,,,,,,,,,,,,,,,,,,,,,,,,,,,,,,,,,,,,,,,,,,,,,,,,,,,,,,,,,,,,,,,,,,
1768210771.565802,1768210771.566574,100.000000,0.000000,4343.333496,4303.589844,4336.538574,4338.461426,4311.538574,4326.025879,4309.871582,4319.358887,4309.871582,4295.641113,4519.358887,4488.461426,4403.333496,4473.974121,4983.000000,4.000000,81.000000,,,,0.000000,4.000000,4.000000,4.000000,4.000000,4.000000,4.000000,4.000000,4.000000,4.000000,4.000000,4.000000,4.000000,4.000000,4.000000,100.000000,,,,,,,,,,,,,,,,,,,,,,,,,,,,,,,,,,,,,,,,,,,,,,,,,,,,,,,,,,,,,,,,,,,,,,,,,,,,,,,,,,,,,,,,,,,,,,,,,,,,,,,,,,,,,,,,,,,,,
1768210771.573611,1768210771.574383,101.000000,0.000000,4343.974121,4302.051270,4338.717773,4338.461426,4311.794922,4326.025879,4308.077148,4319.358887,4312.948730,4298.077148,4517.692383,4488.205078,4404.615234,4475.000000,3800.000000,4.000000,81.000000,,,,0.000000,4.000000,4.000000,4.000000,4.000000,4.000000,4.000000,4.000000,4.000000,4.000000,4.000000,4.000000,4.000000,4.000000,4.000000,100.000000,,,,,,,,,,,,,,,,,,,,,,,,,,,,,,,,,,,,,,,,,,,,,,,,,,,,,,,,,,,,,,,,,,,,,,,,,,,,,,,,,,,,,,,,,,,,,,,,,,,,,,,,,,,,,,,,,,,,,
1768210771.581419,1768210771.582091,102.000000,0.000000,4344.743652,4300.512695,4343.846191,4337.692383,4310.641113,4325.641113,4309.487305,4321.282227,4312.307617,4297.948730,4519.487305,4489.487305,4406.282227,4469.230957,3901.000000,4.000000,81.000000,,,,0.000000,4.000000,4.000000,4.000000,4.000000,4.000000,4.000000,4.000000,4.000000,4.000000,4.000000,4.000000,4.000000,4.000000,4.000000,100.000000,,,,,,,,,,,,,,,,,,,,,,,,,,,,,,,,,,,,,,,,,,,,,,,,0.189224,0.147985,0.121450,0.105001,0.046484,3.977350,0.913565,0.166184,0.209154,0.055885,0.308185,0.206971,0.070938,0.102577,0.066782,0.433654,0.280429,0.096838,0.094550,0.058138,0.145298,0.142394,0.093612,0.078046,0.038986,0.120380,0.133148,0.090326,0.094272,0.082549,0.230191,0.202487,0.215122,0.173398,0.175022,0.252205,0.109251,0.180377,0.161567,0.307237,0.218908,0.151881,0.133129,0.134846,0.098334,0.204794,0.301992,0.174725,0.279429,0.197537,1.006024,0.469749,0.254572,0.230679,0.133243,0.691553,0.333058,0.142883,0.156285,0.113874,0.530666,0.272996,0.207371,0.188043,0.126318,0.384219,0.194286,0.119623,0.251743,0.103232
1768210771.589228,1768210771.589900,103.000000,0.000000,4343.974121,4301.410156,4342.051270,4338.333496,4312.436035,4325.512695,4310.384766,4326.282227,4316.922852,4295.641113,4521.922852,4491.410156,4402.307617,4467.563965,4039.000000,4.000000,81.000000,,,,0.000000,4.000000,4.000000,4.000000,4.000000,4.000000,4.000000,4.000000,4.000000,4.000000,4.000000,4.000000,4.000000,4.000000,4.000000,100.000000,,,,,,,,,,,,,,,,,,,,,,,,,,,,,,,,,,,,,,,,,,,,,,,,,,,,,,,,,,,,,,,,,,,,,,,,,,,,,,,,,,,,,,,,,,,,,,,,,,,,,,,,,,,,,,,,,,,,,
1768210771.597036,1768210771.597908,104.000000,0.000000,4342.692383,4304.358887,4337.692383,4338.333496,4316.025879,4327.307617,4309.615234,4327.563965,4318.846191,4296.153809,4516.666504,4489.615234,4399.358887,4467.307617,4983.000000,4.000000,81.000000,,,,0.000000,4.000000,4.000000,4.000000,4.000000,4.000000,4.000000,4.000000,4.000000,4.000000,4.000000,4.000000,4.000000,4.000000,4.000000,100.000000,,,,,,,,,,,,,,,,,,,,,,,,,,,,,,,,,,,,,,,,,,,,,,,,,,,,,,,,,,,,,,,,,,,,,,,,,,,,,,,,,,,,,,,,,,,,,,,,,,,,,,,,,,,,,,,,,,,,,
1768210771.604844,1768210771.605716,105.000000,0.000000,4341.025879,4302.820313,4337.948730,4334.871582,4314.358887,4327.436035,4308.589844,4320.000000,4312.051270,4298.077148,4510.000000,4487.307617,4399.358887,4462.948730,3800.000000,4.000000,81.000000,,,,0.000000,4.000000,4.000000,4.000000,4.000000,4.000000,4.000000,4.000000,4.000000,4.000000,4.000000,4.000000,4.000000,4.000000,4.000000,100.000000,,,,,,,,,,,,,,,,,,,,,,,,,,,,,,,,,,,,,,,,,,,,,,,,,,,,,,,,,,,,,,,,,,,,,,,,,,,,,,,,,,,,,,,,,,,,,,,,,,,,,,,,,,,,,,,,,,,,,
1768210771.612653,1768210771.613625,106.000000,0.000000,4340.256348,4297.692383,4338.077148,4332.820313,4310.000000,4324.743652,4311.025879,4318.461426,4309.102539,4296.410156,4507.307617,4488.846191,4398.717773,4464.358887,3901.000000,4.000000,81.000000,,,,0.000000,4.000000,4.000000,4.000000,4.000000,4.000000,4.000000,4.000000,4.000000,4.000000,4.000000,4.000000,4.000000,4.000000,4.000000,100.000000,,,,,,,,,,,,,,,,,,,,,,,,,,,,,,,,,,,,,,,,,,,,,,,,,,,,,,,,,,,,,,,,,,,,,,,,,,,,,,,,,,,,,,,,,,,,,,,,,,,,,,,,,,,,,,,,,,,,,
1768210771.620461,1768210771.621433,107.000000,0.000000,4343.077148,4297.820313,4338.461426,4336.282227,4311.666504,4322.820313,4312.563965,4324.102539,4310.000000,4294.615234,4505.897461,4489.615234,4399.615234,4468.974121,4039.000000,4.000000,81.000000,,,,0.000000,4.000000,4.000000,4.000000,4.000000,4.000000,4.000000,4.000000,4.000000,4.000000,4.000000,4.000000,4.000000,4.000000,4.000000,100.000000,,,,,,,,,,,,,,,,,,,,,,,,,,,,,,,,,,,,,,,,,,,,,,,,,,,,,,,,,,,,,,,,,,,,,,,,,,,,,,,,,,,,,,,,,,,,,,,,,,,,,,,,,,,,,,,,,,,,,
1768210771.628270,1768210771.629041,108.000000,0.000000,4346.282227,4298.846191,4342.563965,4342.307617,4314.102539,4324.743652,4311.153809,4330.384766,4315.000000,4294.743652,4511.666504,4491.153809,4396.794922,4468.333496,4983.000000,4.000000,81.000000,,,,0.000000,4.000000,4.000000,4.000000,4.000000,4.000000,4.000000,4.000000,4.000000,4.000000,4.000000,4.000000,4.000000,4.000000,4.000000,100.000000,,,,,,,,,,,,,,,,,,,,,,,,,,,,,,,,,,,,,,,,,,,,,,,,,,,,,,,,,,,,,,,,,,,,,,,,,,,,,,,,,,,,,,,,,,,,,,,,,,,,,,,,,,,,,,,,,,,,,
1768210771.636078,1768210771.636850,109.000000,0.000000,4345.256348,4295.256348,4341.922852,4343.589844,4312.179688,4327.436035,4311.025879,4330.256348,4319.743652,4294.615234,4518.205078,4493.333496,4394.230957,4466.922852,3800.000000,4.000000,81.000000,,,,0.000000,4.000000,4.000000,4.000000,4.000000,4.000000,4.000000,4.000000,4.000000,4.000000,4.000000,4.000000,4.000000,4.000000,4.000000,100.000000,,,,,,,,,,,,,,,,,,,,,,,,,,,,,,,,,,,,,,,,,,,,,,,,,,,,,,,,,,,,,,,,,,,,,,,,,,,,,,,,,,,,,,,,,,,,,,,,,,,,,,,,,,,,,,,,,,,,,
1768210771.643887,1768210771.644558,110.000000,0.000000,4343.846191,4300.256348,4337.948730,4342.051270,4315.000000,4327.948730,4311.538574,4314.358887,4309.871582,4295.769043,4513.974121,4490.384766,4401.153809,4468.461426,3901.000000,4.000000,81.000000,,,,0.000000,4.000000,4.000000,4.000000,4.000000,4.000000,4.000000,4.000000,4.000000,4.000000,4.000000,4.000000,4.000000,4.000000,4.000000,100.000000,,,,,,,,,,,,,,,,,,,,,,,,,,,,,,,,,,,,,,,,,,,,,,,,,,,,,,,,,,,,,,,,,,,,,,,,,,,,,,,,,,,,,,,,,,,,,,,,,,,,,,,,,,,,,,,,,,,,,
1768210771.651695,1768210771.652366,111.000000,0.000000,4346.282227,4308.974121,4337.563965,4341.410156,4319.358887,4324.743652,4308.333496,4304.230957,4301.666504,4295.512695,4506.922852,4488.589844,4401.794922,4466.282227,4039.000000,4.000000,81.000000,,,,0.000000,4.000000,4.000000,4.000000,4.000000,4.000000,4.000000,4.000000,4.000000,4.000000,4.000000,4.000000,4.000000,4.000000,4.000000,100.000000,,,,,,,,,,,,,,,,,,,,,,,,,,,,,,,,,,,,,,,,,,,,,,,,,,,,,,,,,,,,,,,,,,,,,,,,,,,,,,,,,,,,,,,,,,,,,,,,,,,,,,,,,,,,,,,,,,,,,
1768210771.659504,1768210771.659975,112.000000,0.000000,4348.077148,4304.102539,4340.512695,4341.922852,4313.846191,4323.205078,4306.538574,4317.179688,4310.641113,4293.333496,4506.666504,4488.077148,4394.102539,4462.948730,4983.000000,4.000000,81.000000,,,,0.000000,4.000000,4.000000,4.000000,4.000000,4.000000,4.000000,4.000000,4.000000,4.000000,4.000000,4.000000,4.000000,4.000000,4.000000,100.000000,,,,,,,,,,,,,,,,,,,,,,,,,,,,,,,,,,,,,,,,,,,,,,,,,,,,,,,,,,,,,,,,,,,,,,,,,,,,,,,,,,,,,,,,,,,,,,,,,,,,,,,,,,,,,,,,,,,,,
1768210771.667312,1768210771.667783,113.000000,0.000000,4342.436035,4296.282227,4341.282227,4339.615234,4308.461426,4326.282227,4310.512695,4326.282227,4313.974121,4291.410156,4508.846191,4482.051270,4396.025879,4463.974121,3800.000000,4.000000,81.000000,,,,0.000000,4.000000,4.000000,4.000000,4.000000,4.000000,4.000000,4.000000,4.000000,4.000000,4.000000,4.000000,4.000000,4.000000,4.000000,100.000000,,,,,,,,,,,,,,,,,,,,,,,,,,,,,,,,,,,,,,,,,,,,,,,,,,,,,,,,,,,,,,,,,,,,,,,,,,,,,,,,,,,,,,,,,,,,,,,,,,,,,,,,,,,,,,,,,,,,,
1768210771.675120,1768210771.675691,114.000000,0.000000,4333.333496,4292.051270,4336.153809,4331.922852,4308.333496,4328.077148,4312.179688,4320.384766,4307.692383,4292.820313,4505.769043,4476.410156,4397.820313,4457.179688,3901.000000,4.000000,81.000000,,,,0.000000,4.000000,4.000000,4.000000,4.000000,4.000000,4.000000,4.000000,4.000000,4.000000,4.000000,4.000000,4.000000,4.000000,4.000000,100.000000,,,,,,,,,,,,,,,,,,,,,,,,,,,,,,,,,,,,,,,,,,,,,,,,,,,,,,,,,,,,,,,,,,,,,,,,,,,,,,,,,,,,,,,,,,,,,,,,,,,,,,,,,,,,,,,,,,,,,
1768210771.682929,1768210771.683500,115.000000,0.000000,4331.282227,4290.384766,4332.563965,4329.102539,4308.461426,4326.538574,4310.897461,4319.615234,4307.692383,4294.743652,4501.025879,4477.179688,4388.589844,4447.307617,4039.000000,4.000000,81.000000,,,,0.000000,4.000000,4.000000,4.000000,4.000000,4.000000,4.000000,4.000000,4.000000,4.000000,4.000000,4.000000,4.000000,4.000000,4.000000,100.000000,,,,,,,,,,,,,,,,,,,,,,,,,,,,,,,,,,,,,,,,,,,,,,,,,,,,,,,,,,,,,,,,,,,,,,,,,,,,,,,,,,,,,,,,,,,,,,,,,,,,,,,,,,,,,,,,,,,,,
1768210771.690737,1768210771.691508,116.000000,0.000000,4339.487305,4300.641113,4337.436035,4338.846191,4311.538574,4327.563965,4310.769043,4325.512695,4315.000000,4293.974121,4507.051270,4483.461426,4393.717773,4456.538574,4983.000000,4.000000,81.000000,,,,0.000000,4.000000,4.000000,4.000000,4.000000,4.000000,4.000000,4.000000,4.000000,4.000000,4.000000,4.000000,4.000000,4.000000,4.000000,100.000000,,,,,,,,,,,,,,,,,,,,,,,,,,,,,,,,,,,,,,,,,,,,,,,,,,,,,,,,,,,,,,,,,,,,,,,,,,,,,,,,,,,,,,,,,,,,,,,,,,,,,,,,,,,,,,,,,,,,,
1768210771.698546,1768210771.699316,117.000000,0.000000,4344.743652,4312.692383,4341.538574,4347.051270,4320.512695,4329.487305,4315.000000,4332.436035,4324.487305,4302.051270,4524.871582,4492.948730,4412.820313,4472.563965,3800.000000,4.000000,81.000000,,,,0.000000,4.000000,4.000000,4.000000,4.000000,4.000000,4.000000,4.000000,4.000000,4.000000,4.000000,4.000000,4.000000,4.000000,4.000000,100.000000,,,,,,,,,,,,,,,,,,,,,,,,,,,,,,,,,,,,,,,,,,,,,,,,,,,,,,,,,,,,,,,,,,,,,,,,,,,,,,,,,,,,,,,,,,,,,,,,,,,,,,,,,,,,,,,,,,,,,
1768210771.706354,1768210771.707225,118.000000,0.000000,4342.436035,4306.666504,4338.461426,4344.871582,4321.282227,4327.436035,4320.256348,4335.897461,4322.307617,4311.922852,4527.692383,4491.538574,4411.794922,4467.692383,3901.000000,4.000000,81.000000,,,,0.000000,4.000000,4.000000,4.000000,4.000000,4.000000,4.000000,4.000000,4.000000,4.000000,4.000000,4.000000,4.000000,4.000000,4.000000,100.000000,,,,,,,,,,,,,,,,,,,,,,,,,,,,,,,,,,,,,,,,,,,,,,,,0.176497,0.156534,0.113962,0.099660,0.055703,4.037918,0.861613,0.181773,0.250654,0.059881,0.346922,0.202472,0.059302,0.096160,0.066878,0.330305,0.232371,0.084181,0.089864,0.051695,0.126785,0.116612,0.067377,0.062253,0.030294,0.137614,0.129434,0.116670,0.095111,0.094005,0.257450,0.205192,0.205932,0.153493,0.196009,0.331191,0.075333,0.202852,0.181568,0.312450,0.277730,0.110219,0.106156,0.136322,0.091442,0.156374,0.328956,0.220293,0.300802,0.185613,1.024487,0.493305,0.255371,0.185776,0.127529,0.670747,0.386963,0.147915,0.129534,0.114111,0.538802,0.256963,0.185651,0.203819,0.125637,0.501889,0.158099,0.095982,0.185657,0.116435
1768210771.714162,1768210771.715033,119.000000,0.000000,4340.512695,4298.205078,4336.794922,4342.563965,4316.153809,4324.871582,4318.077148,4327.692383,4311.282227,4304.487305,4511.025879,4479.615234,4397.948730,4456.025879,4039.000000,4.000000,81.000000,,,,0.000000,4.000000,4.000000,4.000000,4.000000,4.000000,4.000000,4.000000,4.000000,4.000000,4.000000,4.000000,4.000000,4.000000,4.000000,100.000000,,,,,,,,,,,,,,,,,,,,,,,,,,,,,,,,,,,,,,,,,,,,,,,,,,,,,,,,,,,,,,,,,,,,,,,,,,,,,,,,,,,,,,,,,,,,,,,,,,,,,,,,,,,,,,,,,,,,,
1768210771.721971,1768210771.723041,120.000000,0.000000,4337.948730,4297.948730,4335.512695,4342.820313,4316.282227,4325.128418,4311.666504,4321.025879,4309.102539,4292.563965,4502.820313,4476.025879,4394.230957,4458.974121,4983.000000,4.000000,81.000000,,,,0.000000,4.000000,4.000000,4.000000,4.000000,4.000000,4.000000,4.000000,4.000000,4.000000,4.000000,4.000000,4.000000,4.000000,4.000000,100.000000,,,,,,,,,,,,,,,,,,,,,,,,,,,,,,,,,,,,,,,,,,,,,,,,,,,,,,,,,,,,,,,,,,,,,,,,,,,,,,,,,,,,,,,,,,,,,,,,,,,,,,,,,,,,,,,,,,,,,
1768210771.729779,1768210771.730850,121.000000,0.000000,4332.820313,4294.102539,4334.230957,4341.794922,4315.512695,4325.769043,4311.538574,4318.717773,4310.256348,4293.589844,4505.641113,4478.205078,4398.077148,4461.025879,3800.000000,4.000000,81.000000,,,,0.000000,4.000000,4.000000,4.000000,4.000000,4.000000,4.000000,4.000000,4.000000,4.000000,4.000000,4.000000,4.000000,4.000000,4.000000,100.000000,,,,,,,,,,,,,,,,,,,,,,,,,,,,,,,,,,,,,,,,,,,,,,,,,,,,,,,,,,,,,,,,,,,,,,,,,,,,,,,,,,,,,,,,,,,,,,,,,,,,,,,,,,,,,,,,,,,,,
1768210771.737588,1768210771.738558,122.000000,0.000000,4335.384766,4296.538574,4337.820313,4342.307617,4315.512695,4325.000000,4312.436035,4315.256348,4307.179688,4297.563965,4508.077148,4478.077148,4398.461426,4459.871582,3901.000000,4.000000,81.000000,,,,0.000000,4.000000,4.000000,4.000000,4.000000,4.000000,4.000000,4.000000,4.000000,4.000000,4.000000,4.000000,4.000000,4.000000,4.000000,100.000000,,,,,,,,,,,,,,,,,,,,,,,,,,,,,,,,,,,,,,,,,,,,,,,,,,,,,,,,,,,,,,,,,,,,,,,,,,,,,,,,,,,,,,,,,,,,,,,,,,,,,,,,,,,,,,,,,,,,,
1768210771.745396,1768210771.746367,123.000000,0.000000,4341.922852,4302.179688,4339.102539,4341.794922,4319.615234,4325.897461,4310.256348,4318.077148,4308.461426,4295.256348,4506.153809,4475.897461,4392.563965,4458.717773,4039.000000,4.000000,81.000000,,,,0.000000,4.000000,4.000000,4.000000,4.000000,4.000000,4.000000,4.000000,4.000000,4.000000,4.000000,4.000000,4.000000,4.000000,4.000000,100.000000,,,,,,,,,,,,,,,,,,,,,,,,,,,,,,,,,,,,,,,,,,,,,,,,,,,,,,,,,,,,,,,,,,,,,,,,,,,,,,,,,,,,,,,,,,,,,,,,,,,,,,,,,,,,,,,,,,,,,
1768210771.753205,1768210771.753975,124.000000,0.000000,4339.230957,4298.333496,4337.051270,4341.153809,4319.615234,4325.897461,4312.692383,4321.282227,4311.410156,4293.333496,4504.102539,4474.743652,4388.846191,4456.025879,4983.000000,4.000000,81.000000,,,,0.000000,4.000000,4.000000,4.000000,4.000000,4.000000,4.000000,4.000000,4.000000,4.000000,4.000000,4.000000,4.000000,4.000000,4.000000,100.000000,,,,,,,,,,,,,,,,,,,,,,,,,,,,,,,,,,,,,,,,,,,,,,,,,,,,,,,,,,,,,,,,,,,,,,,,,,,,,,,,,,,,,,,,,,,,,,,,,,,,,,,,,,,,,,,,,,,,,
1768210771.761013,1768210771.761784,125.000000,0.000000,4337.948730,4299.230957,4340.256348,4343.974121,4319.487305,4322.051270,4311.410156,4315.128418,4309.487305,4293.717773,4507.948730,4482.436035,4395.256348,4458.974121,3800.000000,4.000000,81.000000,,,,0.000000,4.000000,4.000000,4.000000,4.000000,4.000000,4.000000,4.000000,4.000000,4.000000,4.000000,4.000000,4.000000,4.000000,4.000000,100.000000,,,,,,,,,,,,,,,,,,,,,,,,,,,,,,,,,,,,,,,,,,,,,,,,,,,,,,,,,,,,,,,,,,,,,,,,,,,,,,,,,,,,,,,,,,,,,,,,,,,,,,,,,,,,,,,,,,,,,
1768210771.768822,1768210771.769492,126.000000,0.000000,4343.974121,4305.256348,4342.436035,4344.743652,4323.077148,4320.256348,4305.128418,4308.717773,4308.717773,4297.051270,4509.743652,4491.282227,4398.205078,4465.384766,3901.000000,4.000000,81.000000,,,,0.000000,4.000000,4.000000,4.000000,4.000000,4.000000,4.000000,4.000000,4.000000,4.000000,4.000000,4.000000,4.000000,4.000000,4.000000,100.000000,,,,,,,,,,,,,,,,,,,,,,,,,,,,,,,,,,,,,,,,,,,,,,,,,,,,,,,,,,,,,,,,,,,,,,,,,,,,,,,,,,,,,,,,,,,,,,,,,,,,,,,,,,,,,,,,,,,,,
1768210771.776630,1768210771.777301,127.000000,0.000000,4345.384766,4299.487305,4339.487305,4341.666504,4322.179688,4323.461426,4306.922852,4312.948730,4309.871582,4298.589844,4509.102539,4491.025879,4393.589844,4466.666504,81.000000,4.000000,81.000000,,,,0.000000,4.000000,4.000000,4.000000,4.000000,4.000000,4.000000,4.000000,4.000000,4.000000,4.000000,4.000000,4.000000,4.000000,4.000000,100.000000,,,,,,,,,,,,,,,,,,,,,,,,,,,,,,,,,,,,,,,,,,,,,,,,,,,,,,,,,,,,,,,,,,,,,,,,,,,,,,,,,,,,,,,,,,,,,,,,,,,,,,,,,,,,,,,,,,,,,
1768210771.784438,1768210771.784909,0.000000,0.000000,4342.179688,4293.077148,4340.897461,4343.205078,4316.153809,4324.615234,4310.384766,4323.205078,4310.641113,4293.974121,4514.871582,4488.717773,4395.256348,4465.256348,3011.000000,4.000000,81.000000,,,,0.000000,4.000000,4.000000,4.000000,4.000000,4.000000,4.000000,4.000000,4.000000,4.000000,4.000000,4.000000,4.000000,4.000000,4.000000,100.000000,,,,,,,,,,,,,,,,,,,,,,,,,,,,,,,,,,,,,,,,,,,,,,,,,,,,,,,,,,,,,,,,,,,,,,,,,,,,,,,,,,,,,,,,,,,,,,,,,,,,,,,,,,,,,,,,,,,,,
1768210771.792247,1768210771.792718,1.000000,0.000000,4343.717773,4302.051270,4346.025879,4350.256348,4318.333496,4322.563965,4308.717773,4327.179688,4309.102539,4294.102539,4523.846191,4491.794922,4399.230957,4469.487305,4066.000000,4.000000,81.000000,,,,0.000000,4.000000,4.000000,4.000000,4.000000,4.000000,4.000000,4.000000,4.000000,4.000000,4.000000,4.000000,4.000000,4.000000,4.000000,100.000000,,,,,,,,,,,,,,,,,,,,,,,,,,,,,,,,,,,,,,,,,,,,,,,,,,,,,,,,,,,,,,,,,,,,,,,,,,,,,,,,,,,,,,,,,,,,,,,,,,,,,,,,,,,,,,,,,,,,,
1768210771.800055,1768210771.800626,2.000000,0.000000,4347.179688,4309.102539,4346.410156,4351.282227,4321.410156,4324.230957,4309.871582,4320.000000,4307.307617,4304.358887,4521.410156,4493.589844,4397.179688,4471.410156,2363.000000,4.000000,81.000000,,,,0.000000,4.000000,4.000000,4.000000,4.000000,4.000000,4.000000,4.000000,4.000000,4.000000,4.000000,4.000000,4.000000,4.000000,4.000000,100.000000,,,,,,,,,,,,,,,,,,,,,,,,,,,,,,,,,,,,,,,,,,,,,,,,,,,,,,,,,,,,,,,,,,,,,,,,,,,,,,,,,,,,,,,,,,,,,,,,,,,,,,,,,,,,,,,,,,,,,
1768210771.807864,1768210771.808434,3.000000,0.000000,4342.563965,4308.974121,4339.871582,4344.358887,4316.282227,4327.179688,4311.794922,4315.897461,4309.615234,4309.230957,4510.256348,4491.410156,4396.025879,4466.666504,3916.000000,4.000000,81.000000,,,,0.000000,4.000000,4.000000,4.000000,4.000000,4.000000,4.000000,4.000000,4.000000,4.000000,4.000000,4.000000,4.000000,4.000000,4.000000,100.000000,,,,,,,,,,,,,,,,,,,,,,,,,,,,,,,,,,,,,,,,,,,,,,,,,,,,,,,,,,,,,,,,,,,,,,,,,,,,,,,,,,,,,,,,,,,,,,,,,,,,,,,,,,,,,,,,,,,,,
1768210771.815672,1768210771.816443,4.000000,0.000000,4335.128418,4316.794922,4335.384766,4341.153809,4313.846191,4326.025879,4308.717773,4322.948730,4310.384766,4299.487305,4505.897461,4488.717773,4396.282227,4462.179688,3864.000000,4.000000,81.000000,,,,0.000000,4.000000,4.000000,4.000000,4.000000,4.000000,4.000000,4.000000,4.000000,4.000000,4.000000,4.000000,4.000000,4.000000,4.000000,100.000000,,,,,,,,,,,,,,,,,,,,,,,,,,,,,,,,,,,,,,,,,,,,,,,,,,,,,,,,,,,,,,,,,,,,,,,,,,,,,,,,,,,,,,,,,,,,,,,,,,,,,,,,,,,,,,,,,,,,,
1768210771.823480,1768210771.824251,5.000000,0.000000,4337.692383,4331.153809,4340.000000,4343.717773,4317.820313,4325.512695,4313.205078,4330.384766,4309.871582,4296.538574,4514.487305,4488.589844,4397.563965,4463.589844,3283.000000,4.000000,81.000000,,,,0.000000,4.000000,4.000000,4.000000,4.000000,4.000000,4.000000,4.000000,4.000000,4.000000,4.000000,4.000000,4.000000,4.000000,4.000000,100.000000,,,,,,,,,,,,,,,,,,,,,,,,,,,,,,,,,,,,,,,,,,,,,,,,,,,,,,,,,,,,,,,,,,,,,,,,,,,,,,,,,,,,,,,,,,,,,,,,,,,,,,,,,,,,,,,,,,,,,
1768210771.831289,1768210771.831959,6.000000,0.000000,4346.025879,4341.922852,4345.641113,4345.256348,4319.487305,4327.692383,4320.641113,4326.794922,4311.922852,4305.128418,4523.846191,4491.538574,4399.487305,4469.487305,3882.000000,4.000000,81.000000,,,,0.000000,4.000000,4.000000,4.000000,4.000000,4.000000,4.000000,4.000000,4.000000,4.000000,4.000000,4.000000,4.000000,4.000000,4.000000,100.000000,,,,,,,,,,,,,,,,,,,,,,,,,,,,,,,,,,,,,,,,,,,,,,,,0.174903,0.161885,0.101111,0.096296,0.064402,4.101220,0.787606,0.196631,0.291060,0.066188,0.402639,0.191723,0.053218,0.090050,0.065973,0.239386,0.174423,0.072689,0.088828,0.044434,0.124957,0.101164,0.047877,0.049533,0.024124,0.169033,0.126667,0.153092,0.097884,0.107042,0.287335,0.207816,0.199576,0.139948,0.216613,0.418923,0.059282,0.221579,0.199318,0.311660,0.355065,0.080547,0.088664,0.135228,0.087013,0.158984,0.376004,0.275686,0.315624,0.171751,1.089062,0.494952,0.241967,0.141433,0.125119,0.682413,0.419116,0.155384,0.100001,0.110406,0.544330,0.247568,0.160958,0.214686,0.122447,0.660225,0.132851,0.084916,0.127958,0.130787
1768210771.839097,1768210771.839768,7.000000,0.000000,4344.615234,4343.077148,4340.384766,4343.205078,4320.256348,4328.077148,4316.794922,4315.769043,4310.769043,4302.692383,4521.153809,4492.307617,4398.205078,4471.410156,3919.000000,4.000000,81.000000,,,,0.000000,4.000000,4.000000,4.000000,4.000000,4.000000,4.000000,4.000000,4.000000,4.000000,4.000000,4.000000,4.000000,4.000000,4.000000,100.000000,,,,,,,,,,,,,,,,,,,,,,,,,,,,,,,,,,,,,,,,,,,,,,,,,,,,,,,,,,,,,,,,,,,,,,,,,,,,,,,,,,,,,,,,,,,,,,,,,,,,,,,,,,,,,,,,,,,,,
1768210771.846906,1768210771.847376,8.000000,0.000000,4338.974121,4341.538574,4332.179688,4340.384766,4318.846191,4324.743652,4309.871582,4315.128418,4307.436035,4294.743652,4515.512695,4487.307617,4398.205078,4466.410156,3961.000000,4.000000,81.000000,,,,0.000000,4.000000,4.000000,4.000000,4.000000,4.000000,4.000000,4.000000,4.000000,4.000000,4.000000,4.000000,4.000000,4.000000,4.000000,100.000000,,,,,,,,,,,,,,,,,,,,,,,,,,,,,,,,,,,,,,,,,,,,,,,,,,,,,,,,,,,,,,,,,,,,,,,,,,,,,,,,,,,,,,,,,,,,,,,,,,,,,,,,,,,,,,,,,,,,,
1768210771.854714,1768210771.855184,9.000000,0.000000,4339.615234,4344.230957,4333.846191,4339.615234,4313.974121,4322.948730,4311.282227,4326.025879,4309.102539,4295.897461,4517.051270,4478.974121,4400.512695,4459.102539,4041.000000,4.000000,81.000000,,,,0.000000,4.000000,4.000000,4.000000,4.000000,4.000000,4.000000,4.000000,4.000000,4.000000,4.000000,4.000000,4.000000,4.000000,4.000000,100.000000,,,,,,,,,,,,,,,,,,,,,,,,,,,,,,,,,,,,,,,,,,,,,,,,,,,,,,,,,,,,,,,,,,,,,,,,,,,,,,,,,,,,,,,,,,,,,,,,,,,,,,,,,,,,,,,,,,,,,
1768210771.862523,1768210771.862892,10.000000,0.000000,4343.333496,4345.256348,4338.717773,4340.384766,4313.333496,4323.333496,4313.205078,4321.282227,4310.384766,4297.307617,4519.487305,4474.358887,4398.333496,4458.461426,3901.000000,4.000000,81.000000,,,,0.000000,4.000000,4.000000,4.000000,4.000000,4.000000,4.000000,4.000000,4.000000,4.000000,4.000000,4.000000,4.000000,4.000000,4.000000,100.000000,,,,,,,,,,,,,,,,,,,,,,,,,,,,,,,,,,,,,,,,,,,,,,,,,,,,,,,,,,,,,,,,,,,,,,,,,,,,,,,,,,,,,,,,,,,,,,,,,,,,,,,,,,,,,,,,,,,,,
1768210771.870331,1768210771.870701,11.000000,0.000000,4345.897461,4343.846191,4341.538574,4342.179688,4317.563965,4322.820313,4312.563965,4309.230957,4307.179688,4293.589844,4518.077148,4475.769043,4399.102539,4465.256348,4039.000000,4.000000,81.000000,,,,0.000000,4.000000,4.000000,4.000000,4.000000,4.000000,4.000000,4.000000,4.000000,4.000000,4.000000,4.000000,4.000000,4.000000,4.000000,100.000000,,,,,,,,,,,,,,,,,,,,,,,,,,,,,,,,,,,,,,,,,,,,,,,,,,,,,,,,,,,,,,,,,,,,,,,,,,,,,,,,,,,,,,,,,,,,,,,,,,,,,,,,,,,,,,,,,,,,,
1768210771.878140,1768210771.878709,12.000000,0.000000,4345.256348,4346.410156,4342.051270,4343.974121,4316.922852,4323.077148,4312.692383,4318.717773,4310.128418,4293.717773,4518.205078,4477.692383,4403.974121,4467.307617,4983.000000,4.000000,81.000000,,,,0.000000,4.000000,4.000000,4.000000,4.000000,4.000000,4.000000,4.000000,4.000000,4.000000,4.000000,4.000000,4.000000,4.000000,4.000000,100.000000,,,,,,,,,,,,,,,,,,,,,,,,,,,,,,,,,,,,,,,,,,,,,,,,,,,,,,,,,,,,,,,,,,,,,,,,,,,,,,,,,,,,,,,,,,,,,,,,,,,,,,,,,,,,,,,,,,,,,
1768210771.885948,1768210771.886517,13.000000,0.000000,4344.358887,4350.384766,4337.436035,4343.974121,4313.589844,4324.230957,4311.153809,4326.922852,4313.077148,4299.358887,4520.897461,4476.282227,4403.717773,4465.897461,3800.000000,4.000000,81.000000,,,,0.000000,4.000000,4.000000,4.000000,4.000000,4.000000,4.000000,4.000000,4.000000,4.000000,4.000000,4.000000,4.000000,4.000000,4.000000,100.000000,,,,,,,,,,,,,,,,,,,,,,,,,,,,,,,,,,,,,,,,,,,,,,,,,,,,,,,,,,,,,,,,,,,,,,,,,,,,,,,,,,,,,,,,,,,,,,,,,,,,,,,,,,,,,,,,,,,,,
1768210771.893757,1768210771.894426,14.000000,0.000000,4344.358887,4346.922852,4332.051270,4342.820313,4312.436035,4324.743652,4311.025879,4319.743652,4310.769043,4296.794922,4523.205078,4476.153809,4404.615234,4468.205078,3901.000000,4.000000,81.000000,,,,0.000000,4.000000,4.000000,4.000000,4.000000,4.000000,4.000000,4.000000,4.000000,4.000000,4.000000,4.000000,4.000000,4.000000,4.000000,100.000000,,,,,,,,,,,,,,,,,,,,,,,,,,,,,,,,,,,,,,,,,,,,,,,,,,,,,,,,,,,,,,,,,,,,,,,,,,,,,,,,,,,,,,,,,,,,,,,,,,,,,,,,,,,,,,,,,,,,,
1768210771.901565,1768210771.902234,15.000000,0.000000,4342.307617,4338.846191,4332.948730,4340.641113,4310.897461,4321.922852,4311.282227,4321.794922,4314.358887,4287.179688,4522.179688,4475.128418,4407.179688,4468.717773,4039.000000,4.000000,81.000000,,,,0.000000,4.000000,4.000000,4.000000,4.000000,4.000000,4.000000,4.000000,4.000000,4.000000,4.000000,4.000000,4.000000,4.000000,4.000000,100.000000,,,,,,,,,,,,,,,,,,,,,,,,,,,,,,,,,,,,,,,,,,,,,,,,,,,,,,,,,,,,,,,,,,,,,,,,,,,,,,,,,,,,,,,,,,,,,,,,,,,,,,,,,,,,,,,,,,,,,
1768210771.909373,1768210771.910142,16.000000,0.000000,4341.538574,4335.384766,4338.461426,4337.820313,4310.512695,4318.846191,4312.051270,4327.563965,4317.692383,4290.641113,4519.615234,4476.538574,4405.128418,4465.384766,0.000000,4.000000,81.000000,,,,0.000000,4.000000,4.000000,4.000000,4.000000,4.000000,4.000000,4.000000,4.000000,4.000000,4.000000,4.000000,4.000000,4.000000,4.000000,100.000000,,,,,,,,,,,,,,,,,,,,,,,,,,,,,,,,,,,,,,,,,,,,,,,,,,,,,,,,,,,,,,,,,,,,,,,,,,,,,,,,,,,,,,,,,,,,,,,,,,,,,,,,,,,,,,,,,,,,,
1768210771.917182,1768210771.917951,17.000000,0.000000,4344.102539,4336.282227,4338.974121,4337.563965,4313.717773,4320.384766,4318.589844,4327.179688,4317.948730,4304.487305,4521.282227,4483.077148,4403.205078,4467.436035,0.000000,4.000000,81.000000,,,,0.000000,4.000000,4.000000,4.000000,4.000000,4.000000,4.000000,4.000000,4.000000,4.000000,4.000000,4.000000,4.000000,4.000000,4.000000,100.000000,,,,,,,,,,,,,,,,,,,,,,,,,,,,,,,,,,,,,,,,,,,,,,,,,,,,,,,,,,,,,,,,,,,,,,,,,,,,,,,,,,,,,,,,,,,,,,,,,,,,,,,,,,,,,,,,,,,,,
1768210771.924990,1768210771.925659,18.000000,0.000000,4341.922852,4337.179688,4334.615234,4341.410156,4317.179688,4324.487305,4321.025879,4328.461426,4323.717773,4310.384766,4523.589844,4484.743652,4405.512695,4468.205078,0.000000,4.000000,81.000000,,,,0.000000,4.000000,4.000000,4.000000,4.000000,4.000000,4.000000,4.000000,4.000000,4.000000,4.000000,4.000000,4.000000,4.000000,4.000000,100.000000,,,,,,,,,,,,,,,,,,,,,,,,,,,,,,,,,,,,,,,,,,,,,,,,,,,,,,,,,,,,,,,,,,,,,,,,,,,,,,,,,,,,,,,,,,,,,,,,,,,,,,,,,,,,,,,,,,,,,
1768210771.932799,1768210771.933468,19.000000,0.000000,4337.563965,4338.846191,4334.358887,4343.974121,4319.615234,4326.794922,4319.871582,4331.025879,4328.589844,4306.410156,4521.794922,4478.077148,4408.974121,4460.897461,0.000000,4.000000,81.000000,,,,0.000000,4.000000,4.000000,4.000000,4.000000,4.000000,4.000000,4.000000,4.000000,4.000000,4.000000,4.000000,4.000000,4.000000,4.000000,100.000000,,,,,,,,,,,,,,,,,,,,,,,,,,,,,,,,,,,,,,,,,,,,,,,,,,,,,,,,,,,,,,,,,,,,,,,,,,,,,,,,,,,,,,,,,,,,,,,,,,,,,,,,,,,,,,,,,,,,,
1768210771.940607,1768210771.941077,20.000000,0.000000,4340.128418,4340.256348,4340.512695,4343.077148,4320.128418,4327.820313,4321.666504,4328.205078,4324.487305,4304.358887,4523.461426,4475.897461,4410.256348,4459.487305,0.000000,4.000000,81.000000,,,,0.000000,4.000000,4.000000,4.000000,4.000000,4.000000,4.000000,4.000000,4.000000,4.000000,4.000000,4.000000,4.000000,4.000000,4.000000,100.000000,,,,,,,,,,,,,,,,,,,,,,,,,,,,,,,,,,,,,,,,,,,,,,,,,,,,,,,,,,,,,,,,,,,,,,,,,,,,,,,,,,,,,,,,,,,,,,,,,,,,,,,,,,,,,,,,,,,,,
1768210771.948415,1768210771.948885,21.000000,0.000000,4342.307617,4334.358887,4343.974121,4344.102539,4318.077148,4325.769043,4318.846191,4325.384766,4319.871582,4306.153809,4521.538574,4480.000000,4408.077148,4462.692383,0.000000,4.000000,81.000000,,,,0.000000,4.000000,4.000000,4.000000,4.000000,4.000000,4.000000,4.000000,4.000000,4.000000,4.000000,4.000000,4.000000,4.000000,4.000000,100.000000,,,,,,,,,,,,,,,,,,,,,,,,,,,,,,,,,,,,,,,,,,,,,,,,,,,,,,,,,,,,,,,,,,,,,,,,,,,,,,,,,,,,,,,,,,,,,,,,,,,,,,,,,,,,,,,,,,,,,
1768210771.956224,1768210771.956594,22.000000,0.000000,4335.641113,4325.256348,4338.461426,4341.666504,4312.179688,4318.846191,4309.230957,4324.102539,4319.230957,4303.846191,4508.717773,4478.589844,4399.871582,4458.717773,0.000000,4.000000,81.000000,,,,0.000000,4.000000,4.000000,4.000000,4.000000,4.000000,4.000000,4.000000,4.000000,4.000000,4.000000,4.000000,4.000000,4.000000,4.000000,100.000000,1.000000,25.000000,1.000000,4.000000,1.000000,1.000000,1.000000,1.000000,4.000000,4.000000,4.000000,4.000000,4.000000,4.000000,4.000000,4.000000,,,,,,,,,,,,,,,,,,,,,,,,,,,,,,,,0.184211,0.164070,0.091299,0.094394,0.071405,4.182151,0.715008,0.204685,0.321768,0.073756,0.457150,0.174940,0.052619,0.084122,0.066087,0.176198,0.123361,0.069322,0.091742,0.037763,0.141837,0.099429,0.036917,0.043291,0.020829,0.204678,0.129455,0.195728,0.102023,0.119162,0.303259,0.205212,0.190368,0.136474,0.232094,0.491320,0.063047,0.225673,0.206670,0.302387,0.432742,0.065825,0.082087,0.129645,0.086232,0.189430,0.422786,0.325063,0.318604,0.158961,1.157751,0.473718,0.217457,0.107687,0.128509,0.717479,0.419653,0.166593,0.075533,0.104472,0.550616,0.248686,0.138869,0.215453,0.118341,0.816225,0.124399,0.086379,0.087167,0.143750
1768210771.964032,1768210771.964402,23.000000,0.000000,4332.307617,4324.487305,4334.615234,4336.410156,4310.256348,4318.717773,4309.743652,4325.000000,4316.410156,4297.179688,4508.461426,4475.256348,4395.384766,4456.025879,0.000000,4.000000,81.000000,,,,0.000000,4.000000,4.000000,4.000000,4.000000,4.000000,4.000000,4.000000,4.000000,4.000000,4.000000,4.000000,4.000000,4.000000,4.000000,100.000000,,,,,,,,,,,,,,,,,,,,,,,,,,,,,,,,,,,,,,,,,,,,,,,,,,,,,,,,,,,,,,,,,,,,,,,,,,,,,,,,,,,,,,,,,,,,,,,,,,,,,,,,,,,,,,,,,,,,,
1768210771.971841,1768210771.972010,24.000000,0.000000,4335.641113,4325.000000,4335.256348,4336.794922,4311.922852,4322.051270,4316.922852,4326.282227,4313.461426,4295.128418,4522.436035,4476.538574,4402.179688,4457.692383,0.000000,4.000000,81.000000,,,,0.000000,4.000000,4.000000,4.000000,4.000000,4.000000,4.000000,4.000000,4.000000,4.000000,4.000000,4.000000,4.000000,4.000000,4.000000,100.000000,,,,,,,,,,,,,,,,,,,,,,,,,,,,,,,,,,,,,,,,,,,,,,,,,,,,,,,,,,,,,,,,,,,,,,,,,,,,,,,,,,,,,,,,,,,,,,,,,,,,,,,,,,,,,,,,,,,,,
1768210771.979649,1768210771.979819,25.000000,0.000000,4336.410156,4322.820313,4334.615234,4338.077148,4310.769043,4315.128418,4313.205078,4322.563965,4309.487305,4303.974121,4523.461426,4476.794922,4406.538574,4459.102539,0.000000,4.000000,81.000000,,,,0.000000,4.000000,4.000000,4.000000,4.000000,4.000000,4.000000,4.000000,4.000000,4.000000,4.000000,4.000000,4.000000,4.000000,4.000000,100.000000,,,,,,,,,,,,,,,,,,,,,,,,,,,,,,,,,,,,,,,,,,,,,,,,,,,,,,,,,,,,,,,,,,,,,,,,,,,,,,,,,,,,,,,,,,,,,,,,,,,,,,,,,,,,,,,,,,,,,
1768210771.987458,1768210771.987727,26.000000,0.000000,4337.692383,4325.384766,4336.282227,4337.307617,4309.615234,4308.846191,4305.000000,4321.666504,4310.641113,4308.461426,4517.692383,4479.743652,4402.436035,4458.077148,0.000000,4.000000,81.000000,,,,0.000000,4.000000,4.000000,4.000000,4.000000,4.000000,4.000000,4.000000,4.000000,4.000000,4.000000,4.000000,4.000000,4.000000,4.000000,100.000000,,,,,,,,,,,,,,,,,,,,,,,,,,,,,,,,,,,,,,,,,,,,,,,,,,,,,,,,,,,,,,,,,,,,,,,,,,,,,,,,,,,,,,,,,,,,,,,,,,,,,,,,,,,,,,,,,,,,,
1768210771.995266,1768210771.995535,27.000000,0.000000,4339.615234,4322.179688,4335.769043,4339.871582,4310.384766,4315.000000,4308.974121,4325.512695,4317.563965,4297.948730,4519.871582,4481.794922,4397.436035,4457.179688,0.000000,4.000000,81.000000,,,,0.000000,4.000000,4.000000,4.000000,4.000000,4.000000,4.000000,4.000000,4.000000,4.000000,4.000000,4.000000,4.000000,4.000000,4.000000,100.000000,,,,,,,,,,,,,,,,,,,,,,,,,,,,,,,,,,,,,,,,,,,,,,,,,,,,,,,,,,,,,,,,,,,,,,,,,,,,,,,,,,,,,,,,,,,,,,,,,,,,,,,,,,,,,,,,,,,,,
1768210772.003075,1768210772.003544,28.000000,0.000000,4334.230957,4311.410156,4331.922852,4342.563965,4310.512695,4322.948730,4318.333496,4325.512695,4318.589844,4291.025879,4518.205078,4477.820313,4396.025879,4456.794922,0.000000,4.000000,81.000000,,,,0.000000,4.000000,4.000000,4.000000,4.000000,4.000000,4.000000,4.000000,4.000000,4.000000,4.000000,4.000000,4.000000,4.000000,4.000000,100.000000,,,,,,,,,,,,,,,,,,,,,,,,,,,,,,,,,,,,,,,,,,,,,,,,,,,,,,,,,,,,,,,,,,,,,,,,,,,,,,,,,,,,,,,,,,,,,,,,,,,,,,,,,,,,,,,,,,,,,
1768210772.010883,1768210772.011352,29.000000,0.000000,4329.358887,4312.692383,4334.743652,4341.153809,4310.769043,4319.230957,4315.769043,4327.692383,4318.077148,4301.794922,4518.974121,4480.897461,4399.102539,4459.743652,0.000000,4.000000,81.000000,,,,0.000000,4.000000,4.000000,4.000000,4.000000,4.000000,4.000000,4.000000,4.000000,4.000000,4.000000,4.000000,4.000000,4.000000,4.000000,100.000000,,,,,,,,,,,,,,,,,,,,,,,,,,,,,,,,,,,,,,,,,,,,,,,,,,,,,,,,,,,,,,,,,,,,,,,,,,,,,,,,,,,,,,,,,,,,,,,,,,,,,,,,,,,,,,,,,,,,,
1768210772.018691,1768210772.019260,30.000000,0.000000,4333.461426,4321.153809,4339.871582,4341.410156,4311.538574,4316.025879,4308.974121,4325.128418,4315.769043,4311.794922,4520.128418,4486.282227,4403.333496,4462.179688,0.000000,4.000000,81.000000,,,,0.000000,4.000000,4.000000,4.000000,4.000000,4.000000,4.000000,4.000000,4.000000,4.000000,4.000000,4.000000,4.000000,4.000000,4.000000,100.000000,,,,,,,,,,,,,,,,,,,,,,,,,,,,,,,,,,,,,,,,,,,,,,,,,,,,,,,,,,,,,,,,,,,,,,,,,,,,,,,,,,,,,,,,,,,,,,,,,,,,,,,,,,,,,,,,,,,,,
1768210772.026500,1768210772.027069,31.000000,0.000000,4336.666504,4317.307617,4336.153809,4342.820313,4310.641113,4318.974121,4309.358887,4318.205078,4311.794922,4306.410156,4510.897461,4483.589844,4400.384766,4458.974121,0.000000,4.000000,81.000000,,,,0.000000,4.000000,4.000000,4.000000,4.000000,4.000000,4.000000,4.000000,4.000000,4.000000,4.000000,4.000000,4.000000,4.000000,4.000000,100.000000,,,,,,,,,,,,,,,,,,,,,,,,,,,,,,,,,,,,,,,,,,,,,,,,,,,,,,,,,,,,,,,,,,,,,,,,,,,,,,,,,,,,,,,,,,,,,,,,,,,,,,,,,,,,,,,,,,,,,
1768210772.034308,1768210772.035077,32.000000,0.000000,4333.974121,4313.974121,4333.077148,4341.025879,4310.128418,4320.769043,4311.025879,4320.000000,4315.128418,4303.589844,4511.666504,4484.615234,4397.179688,4457.948730,0.000000,4.000000,81.000000,,,,0.000000,4.000000,4.000000,4.000000,4.000000,4.000000,4.000000,4.000000,4.000000,4.000000,4.000000,4.000000,4.000000,4.000000,4.000000,100.000000,,,,,,,,,,,,,,,,,,,,,,,,,,,,,,,,,,,,,,,,,,,,,,,,,,,,,,,,,,,,,,,,,,,,,,,,,,,,,,,,,,,,,,,,,,,,,,,,,,,,,,,,,,,,,,,,,,,,,
1768210772.042117,1768210772.042886,33.000000,0.000000,4335.897461,4322.051270,4341.666504,4343.333496,4314.743652,4322.820313,4316.538574,4322.820313,4320.384766,4307.692383,4523.717773,4492.692383,4403.461426,4461.794922,0.000000,4.000000,81.000000,,,,0.000000,4.000000,4.000000,4.000000,4.000000,4.000000,4.000000,4.000000,4.000000,4.000000,4.000000,4.000000,4.000000,4.000000,4.000000,100.000000,,,,,,,,,,,,,,,,,,,,,,,,,,,,,,,,,,,,,,,,,,,,,,,,,,,,,,,,,,,,,,,,,,,,,,,,,,,,,,,,,,,,,,,,,,,,,,,,,,,,,,,,,,,,,,,,,,,,,
1768210772.049925,1768210772.050594,34.000000,0.000000,4339.358887,4325.769043,4347.948730,4346.282227,4318.333496,4325.128418,4318.461426,4321.025879,4320.769043,4308.333496,4525.384766,4493.846191,4406.410156,4465.384766,0.000000,4.000000,81.000000,,,,0.000000,4.000000,4.000000,4.000000,4.000000,4.000000,4.000000,4.000000,4.000000,4.000000,4.000000,4.000000,4.000000,4.000000,4.000000,100.000000,,,,,,,,,,,,,,,,,,,,,,,,,,,,,,,,,,,,,,,,,,,,,,,,,,,,,,,,,,,,,,,,,,,,,,,,,,,,,,,,,,,,,,,,,,,,,,,,,,,,,,,,,,,,,,,,,,,,,
1768210772.057733,1768210772.058402,35.000000,0.000000,4339.487305,4322.692383,4345.128418,4344.487305,4314.615234,4320.384766,4310.256348,4325.897461,4322.820313,4308.846191,4521.666504,4490.256348,4402.307617,4466.794922,0.000000,4.000000,81.000000,,,,0.000000,4.000000,4.000000,4.000000,4.000000,4.000000,4.000000,4.000000,4.000000,4.000000,4.000000,4.000000,4.000000,4.000000,4.000000,100.000000,,,,,,,,,,,,,,,,,,,,,,,,,,,,,,,,,,,,,,,,,,,,,,,,,,,,,,,,,,,,,,,,,,,,,,,,,,,,,,,,,,,,,,,,,,,,,,,,,,,,,,,,,,,,,,,,,,,,,
1768210772.065542,1768210772.066410,36.000000,0.000000,4340.641113,4323.461426,4342.692383,4344.230957,4310.384766,4315.512695,4306.922852,4329.871582,4323.589844,4310.000000,4523.333496,4490.000000,4399.871582,4464.871582,0.000000,4.000000,81.000000,,,,0.000000,4.000000,4.000000,4.000000,4.000000,4.000000,4.000000,4.000000,4.000000,4.000000,4.000000,4.000000,4.000000,4.000000,4.000000,100.000000,,,,,,,,,,,,,,,,,,,,,,,,,,,,,,,,,,,,,,,,,,,,,,,,,,,,,,,,,,,,,,,,,,,,,,,,,,,,,,,,,,,,,,,,,,,,,,,,,,,,,,,,,,,,,,,,,,,,,
1768210772.073350,1768210772.074219,37.000000,0.000000,4342.692383,4326.666504,4343.589844,4347.563965,4312.692383,4322.563965,4313.077148,4320.384766,4315.897461,4305.512695,4522.179688,4489.871582,4399.230957,4460.128418,0.000000,4.000000,81.000000,,,,0.000000,4.000000,4.000000,4.000000,4.000000,4.000000,4.000000,4.000000,4.000000,4.000000,4.000000,4.000000,4.000000,4.000000,4.000000,100.000000,,,,,,,,,,,,,,,,,,,,,,,,,,,,,,,,,,,,,,,,,,,,,,,,,,,,,,,,,,,,,,,,,,,,,,,,,,,,,,,,,,,,,,,,,,,,,,,,,,,,,,,,,,,,,,,,,,,,,
1768210772.081159,1768210772.082127,38.000000,0.000000,4338.205078,4326.025879,4343.589844,4345.897461,4314.230957,4327.179688,4313.589844,4317.436035,4309.230957,4299.230957,4519.743652,4491.153809,4399.230957,4458.205078,0.000000,4.000000,81.000000,,,,0.000000,4.000000,4.000000,4.000000,4.000000,4.000000,4.000000,4.000000,4.000000,4.000000,4.000000,4.000000,4.000000,4.000000,4.000000,100.000000,,,,,,,,,,,,,,,,,,,,,,,,,,,,,,,,,,,,,,,,,,,,,,,,0.196321,0.161013,0.092523,0.093182,0.076119,4.265858,0.658950,0.203889,0.337931,0.081585,0.486417,0.152463,0.056165,0.078895,0.068613,0.140750,0.088617,0.079854,0.096891,0.033332,0.169522,0.108237,0.034392,0.045299,0.020261,0.237188,0.138735,0.234252,0.105892,0.126753,0.295547,0.194702,0.176570,0.140560,0.237460,0.528615,0.093482,0.216670,0.201903,0.288687,0.492691,0.065424,0.085271,0.119759,0.090273,0.232512,0.447259,0.353537,0.306038,0.149707,1.184843,0.434353,0.194026,0.093805,0.138794,0.775859,0.389447,0.184386,0.061796,0.099216,0.553676,0.259003,0.123192,0.205406,0.115622,0.911898,0.131794,0.101493,0.065542,0.153336
1768210772.088967,1768210772.089936,39.000000,0.000000,4332.436035,4321.538574,4340.512695,4343.077148,4311.922852,4321.410156,4309.615234,4325.897461,4310.897461,4300.000000,4521.666504,4489.615234,4396.538574,4456.025879,0.000000,4.000000,81.000000,,,,0.000000,4.000000,4.000000,4.000000,4.000000,4.000000,4.000000,4.000000,4.000000,4.000000,4.000000,4.000000,4.000000,4.000000,4.000000,100.000000,,,,,,,,,,,,,,,,,,,,,,,,,,,,,,,,,,,,,,,,,,,,,,,,,,,,,,,,,,,,,,,,,,,,,,,,,,,,,,,,,,,,,,,,,,,,,,,,,,,,,,,,,,,,,,,,,,,,,
1768210772.096776,1768210772.097944,40.000000,0.000000,4334.871582,4321.666504,4340.256348,4348.461426,4316.025879,4322.179688,4312.436035,4327.436035,4315.128418,4304.102539,4522.307617,4486.666504,4396.282227,4455.641113,0.000000,4.000000,81.000000,,,,0.000000,4.000000,4.000000,4.000000,4.000000,4.000000,4.000000,4.000000,4.000000,4.000000,4.000000,4.000000,4.000000,4.000000,4.000000,100.000000,,,,,,,,,,,,,,,,,,,,,,,,,,,,,,,,,,,,,,,,,,,,,,,,,,,,,,,,,,,,,,,,,,,,,,,,,,,,,,,,,,,,,,,,,,,,,,,,,,,,,,,,,,,,,,,,,,,,,
1768210772.104584,1768210772.105753,41.000000,0.000000,4337.820313,4327.051270,4342.948730,4351.025879,4321.410156,4328.461426,4320.000000,4325.769043,4318.974121,4306.025879,4522.692383,4491.282227,4404.871582,4461.410156,0.000000,4.000000,81.000000,,,,0.000000,4.000000,4.000000,4.000000,4.000000,4.000000,4.000000,4.000000,4.000000,4.000000,4.000000,4.000000,4.000000,4.000000,4.000000,100.000000,,,,,,,,,,,,,,,,,,,,,,,,,,,,,,,,,,,,,,,,,,,,,,,,,,,,,,,,,,,,,,,,,,,,,,,,,,,,,,,,,,,,,,,,,,,,,,,,,,,,,,,,,,,,,,,,,,,,,
1768210772.112393,1768210772.113661,42.000000,0.000000,4335.641113,4324.102539,4341.922852,4344.358887,4319.358887,4327.051270,4318.846191,4327.307617,4320.256348,4307.436035,4522.436035,4495.512695,4405.897461,4461.538574,0.000000,4.000000,81.000000,,,,0.000000,4.000000,4.000000,4.000000,4.000000,4.000000,4.000000,4.000000,4.000000,4.000000,4.000000,4.000000,4.000000,4.000000,4.000000,100.000000,,,,,,,,,,,,,,,,,,,,,,,,,,,,,,,,,,,,,,,,,,,,,,,,,,,,,,,,,,,,,,,,,,,,,,,,,,,,,,,,,,,,,,,,,,,,,,,,,,,,,,,,,,,,,,,,,,,,,
1768210772.120201,1768210772.121470,43.000000,0.000000,4333.717773,4312.692383,4338.974121,4340.000000,4317.307617,4321.410156,4309.358887,4326.410156,4318.205078,4307.948730,4520.512695,4487.692383,4397.179688,4454.230957,0.000000,4.000000,81.000000,,,,0.000000,4.000000,4.000000,4.000000,4.000000,4.000000,4.000000,4.000000,4.000000,4.000000,4.000000,4.000000,4.000000,4.000000,4.000000,100.000000,,,,,,,,,,,,,,,,,,,,,,,,,,,,,,,,,,,,,,,,,,,,,,,,,,,,,,,,,,,,,,,,,,,,,,,,,,,,,,,,,,,,,,,,,,,,,,,,,,,,,,,,,,,,,,,,,,,,,
1768210772.128009,1768210772.129479,44.000000,0.000000,4335.000000,4310.256348,4338.333496,4341.794922,4316.922852,4321.666504,4311.153809,4325.769043,4313.846191,4303.205078,4520.000000,4482.179688,4395.641113,4454.487305,0.000000,4.000000,81.000000,,,,0.000000,4.000000,4.000000,4.000000,4.000000,4.000000,4.000000,4.000000,4.000000,4.000000,4.000000,4.000000,4.000000,4.000000,4.000000,100.000000,,,,,,,,,,,,,,,,,,,,,,,,,,,,,,,,,,,,,,,,,,,,,,,,,,,,,,,,,,,,,,,,,,,,,,,,,,,,,,,,,,,,,,,,,,,,,,,,,,,,,,,,,,,,,,,,,,,,,
1768210772.135818,1768210772.137287,45.000000,0.000000,4337.692383,4313.461426,4338.461426,4341.922852,4316.410156,4322.820313,4316.282227,4328.974121,4311.922852,4297.307617,4517.179688,4486.922852,4397.948730,4456.025879,0.000000,4.000000,81.000000,,,,0.000000,4.000000,4.000000,4.000000,4.000000,4.000000,4.000000,4.000000,4.000000,4.000000,4.000000,4.000000,4.000000,4.000000,4.000000,100.000000,,,,,,,,,,,,,,,,,,,,,,,,,,,,,,,,,,,,,,,,,,,,,,,,,,,,,,,,,,,,,,,,,,,,,,,,,,,,,,,,,,,,,,,,,,,,,,,,,,,,,,,,,,,,,,,,,,,,,
1768210772.143626,1768210772.144996,46.000000,0.000000,4337.179688,4312.948730,4338.974121,4342.051270,4319.615234,4320.769043,4310.000000,4324.102539,4311.410156,4295.897461,4511.666504,4483.461426,4396.153809,4452.051270,0.000000,4.000000,81.000000,,,,0.000000,4.000000,4.000000,4.000000,4.000000,4.000000,4.000000,4.000000,4.000000,4.000000,4.000000,4.000000,4.000000,4.000000,4.000000,100.000000,,,,,,,,,,,,,,,,,,,,,,,,,,,,,,,,,,,,,,,,,,,,,,,,,,,,,,,,,,,,,,,,,,,,,,,,,,,,,,,,,,,,,,,,,,,,,,,,,,,,,,,,,,,,,,,,,,,,,
1768210772.151435,1768210772.152804,47.000000,0.000000,4335.256348,4310.128418,4339.487305,4343.077148,4319.615234,4317.948730,4306.025879,4319.871582,4310.000000,4295.897461,4514.487305,4481.666504,4395.128418,4453.846191,0.000000,4.000000,81.000000,,,,0.000000,4.000000,4.000000,4.000000,4.000000,4.000000,4.000000,4.000000,4.000000,4.000000,4.000000,4.000000,4.000000,4.000000,4.000000,100.000000,,,,,,,,,,,,,,,,,,,,,,,,,,,,,,,,,,,,,,,,,,,,,,,,,,,,,,,,,,,,,,,,,,,,,,,,,,,,,,,,,,,,,,,,,,,,,,,,,,,,,,,,,,,,,,,,,,,,,
1768210772.159243,1768210772.160413,48.000000,0.000000,4338.461426,4308.717773,4338.846191,4342.051270,4314.487305,4317.436035,4310.256348,4322.436035,4310.641113,4295.897461,4518.461426,4486.153809,4396.794922,4459.615234,0.000000,4.000000,81.000000,,,,0.000000,4.000000,4.000000,4.000000,4.000000,4.000000,4.000000,4.000000,4.000000,4.000000,4.000000,4.000000,4.000000,4.000000,4.000000,100.000000,,,,,,,,,,,,,,,,,,,,,,,,,,,,,,,,,,,,,,,,,,,,,,,,,,,,,,,,,,,,,,,,,,,,,,,,,,,,,,,,,,,,,,,,,,,,,,,,,,,,,,,,,,,,,,,,,,,,,
1768210772.167051,1768210772.168221,49.000000,0.000000,4344.102539,4314.743652,4342.051270,4346.794922,4318.333496,4319.615234,4312.179688,4320.512695,4310.000000,4293.333496,4513.077148,4481.410156,4397.179688,4456.794922,0.000000,4.000000,81.000000,,,,0.000000,4.000000,4.000000,4.000000,4.000000,4.000000,4.000000,4.000000,4.000000,4.000000,4.000000,4.000000,4.000000,4.000000,4.000000,100.000000,,,,,,,,,,,,,,,,,,,,,,,,,,,,,,,,,,,,,,,,,,,,,,,,,,,,,,,,,,,,,,,,,,,,,,,,,,,,,,,,,,,,,,,,,,,,,,,,,,,,,,,,,,,,,,,,,,,,,
1768210772.174860,1768210772.175930,50.000000,0.000000,4342.948730,4320.641113,4345.512695,4349.871582,4323.846191,4319.487305,4313.205078,4320.641113,4309.615234,4294.615234,4513.333496,4478.974121,4397.307617,4454.743652,0.000000,4.000000,81.000000,,,,0.000000,4.000000,4.000000,4.000000,4.000000,4.000000,4.000000,4.000000,4.000000,4.000000,4.000000,4.000000,4.000000,4.000000,4.000000,100.000000,,,,,,,,,,,,,,,,,,,,,,,,,,,,,,,,,,,,,,,,,,,,,,,,,,,,,,,,,,,,,,,,,,,,,,,,,,,,,,,,,,,,,,,,,,,,,,,,,,,,,,,,,,,,,,,,,,,,,
1768210772.182668,1768210772.183738,51.000000,0.000000,4340.641113,4315.000000,4340.641113,4343.846191,4319.487305,4317.436035,4315.641113,4326.922852,4314.743652,4300.897461,4522.820313,4489.358887,4397.307617,4458.974121,0.000000,4.000000,81.000000,,,,0.000000,4.000000,4.000000,4.000000,4.000000,4.000000,4.000000,4.000000,4.000000,4.000000,4.000000,4.000000,4.000000,4.000000,4.000000,100.000000,,,,,,,,,,,,,,,,,,,,,,,,,,,,,,,,,,,,,,,,,,,,,,,,,,,,,,,,,,,,,,,,,,,,,,,,,,,,,,,,,,,,,,,,,,,,,,,,,,,,,,,,,,,,,,,,,,,,,
1768210772.190477,1768210772.191346,52.000000,0.000000,4345.897461,4308.077148,4338.077148,4343.333496,4321.153809,4318.717773,4318.461426,4327.692383,4317.179688,4303.589844,4524.358887,4493.333496,4399.358887,4461.922852,0.000000,4.000000,81.000000,,,,0.000000,4.000000,4.000000,4.000000,4.000000,4.000000,4.000000,4.000000,4.000000,4.000000,4.000000,4.000000,4.000000,4.000000,4.000000,100.000000,,,,,,,,,,,,,,,,,,,,,,,,,,,,,,,,,,,,,,,,,,,,,,,,,,,,,,,,,,,,,,,,,,,,,,,,,,,,,,,,,,,,,,,,,,,,,,,,,,,,,,,,,,,,,,,,,,,,,
1768210772.198285,1768210772.199154,53.000000,0.000000,4346.282227,4309.102539,4341.922852,4351.282227,4326.794922,4321.538574,4321.153809,4325.000000,4317.563965,4303.974121,4522.307617,4485.256348,4403.333496,4458.333496,0.000000,4.000000,81.000000,,,,0.000000,4.000000,4.000000,4.000000,4.000000,4.000000,4.000000,4.000000,4.000000,4.000000,4.000000,4.000000,4.000000,4.000000,4.000000,100.000000,,,,,,,,,,,,,,,,,,,,,,,,,,,,,,,,,,,,,,,,,,,,,,,,,,,,,,,,,,,,,,,,,,,,,,,,,,,,,,,,,,,,,,,,,,,,,,,,,,,,,,,,,,,,,,,,,,,,,
1768210772.206094,1768210772.207063,54.000000,0.000000,4337.436035,4311.025879,4339.102539,4351.153809,4326.538574,4319.743652,4315.897461,4325.128418,4319.230957,4305.384766,4520.512695,4481.025879,4398.461426,4453.717773,0.000000,4.000000,81.000000,,,,0.000000,4.000000,4.000000,4.000000,4.000000,4.000000,4.000000,4.000000,4.000000,4.000000,4.000000,4.000000,4.000000,4.000000,4.000000,100.000000,,,,,,,,,,,,,,,,,,,,,,,,,,,,,,,,,,,,,,,,,,,,,,,,0.205898,0.151403,0.106391,0.092637,0.078652,4.286788,0.618721,0.194336,0.341315,0.088743,0.476564,0.125850,0.061111,0.075990,0.073970,0.122540,0.070247,0.105563,0.101934,0.032177,0.195305,0.119601,0.039289,0.055355,0.021861,0.260623,0.152600,0.256474,0.106716,0.126800,0.266871,0.182883,0.162143,0.144787,0.229853,0.524770,0.157504,0.202603,0.188082,0.278133,0.524277,0.080852,0.096209,0.107862,0.098668,0.274941,0.445453,0.357159,0.278463,0.146027,1.135602,0.386159,0.187962,0.103143,0.154492,0.851231,0.339679,0.211433,0.059876,0.096568,0.541268,0.271760,0.115133,0.188913,0.115873,0.905398,0.150255,0.128772,0.061330,0.158298
1768210772.213902,1768210772.214871,55.000000,0.000000,4334.102539,4309.743652,4332.948730,4343.077148,4323.461426,4317.692383,4309.102539,4323.846191,4315.128418,4303.717773,4510.897461,4480.769043,4389.230957,4450.512695,0.000000,4.000000,81.000000,,,,0.000000,4.000000,4.000000,4.000000,4.000000,4.000000,4.000000,4.000000,4.000000,4.000000,4.000000,4.000000,4.000000,4.000000,4.000000,100.000000,,,,,,,,,,,,,,,,,,,,,,,,,,,,,,,,,,,,,,,,,,,,,,,,,,,,,,,,,,,,,,,,,,,,,,,,,,,,,,,,,,,,,,,,,,,,,,,,,,,,,,,,,,,,,,,,,,,,,
1768210772.221711,1768210772.222879,56.000000,0.000000,4337.436035,4305.512695,4334.871582,4340.128418,4320.512695,4321.025879,4308.974121,4322.820313,4310.384766,4302.051270,4505.512695,4478.333496,4390.000000,4448.846191,0.000000,4.000000,81.000000,,,,0.000000,4.000000,4.000000,4.000000,4.000000,4.000000,4.000000,4.000000,4.000000,4.000000,4.000000,4.000000,4.000000,4.000000,4.000000,100.000000,,,,,,,,,,,,,,,,,,,,,,,,,,,,,,,,,,,,,,,,,,,,,,,,,,,,,,,,,,,,,,,,,,,,,,,,,,,,,,,,,,,,,,,,,,,,,,,,,,,,,,,,,,,,,,,,,,,,,
1768210772.229519,1768210772.230688,57.000000,0.000000,4335.769043,4298.205078,4339.230957,4339.743652,4316.410156,4326.794922,4313.077148,4323.846191,4311.666504,4302.436035,4508.589844,4476.282227,4395.641113,4448.717773,0.000000,4.000000,81.000000,,,,0.000000,4.000000,4.000000,4.000000,4.000000,4.000000,4.000000,4.000000,4.000000,4.000000,4.000000,4.000000,4.000000,4.000000,4.000000,100.000000,,,,,,,,,,,,,,,,,,,,,,,,,,,,,,,,,,,,,,,,,,,,,,,,,,,,,,,,,,,,,,,,,,,,,,,,,,,,,,,,,,,,,,,,,,,,,,,,,,,,,,,,,,,,,,,,,,,,,
1768210772.237327,1768210772.238596,58.000000,0.000000,4331.282227,4295.512695,4337.820313,4340.256348,4315.256348,4326.794922,4319.230957,4328.205078,4314.743652,4303.589844,4509.358887,4482.692383,4392.948730,4449.487305,0.000000,4.000000,81.000000,,,,0.000000,4.000000,4.000000,4.000000,4.000000,4.000000,4.000000,4.000000,4.000000,4.000000,4.000000,4.000000,4.000000,4.000000,4.000000,100.000000,,,,,,,,,,,,,,,,,,,,,,,,,,,,,,,,,,,,,,,,,,,,,,,,,,,,,,,,,,,,,,,,,,,,,,,,,,,,,,,,,,,,,,,,,,,,,,,,,,,,,,,,,,,,,,,,,,,,,
1768210772.245136,1768210772.246405,59.000000,0.000000,4332.948730,4297.179688,4334.615234,4342.307617,4317.179688,4322.051270,4318.717773,4330.641113,4315.512695,4302.692383,4510.000000,4488.333496,4388.077148,4447.948730,0.000000,4.000000,81.000000,,,,0.000000,4.000000,4.000000,4.000000,4.000000,4.000000,4.000000,4.000000,4.000000,4.000000,4.000000,4.000000,4.000000,4.000000,4.000000,100.000000,,,,,,,,,,,,,,,,,,,,,,,,,,,,,,,,,,,,,,,,,,,,,,,,,,,,,,,,,,,,,,,,,,,,,,,,,,,,,,,,,,,,,,,,,,,,,,,,,,,,,,,,,,,,,,,,,,,,,
1768210772.252944,1768210772.254013,60.000000,0.000000,4334.743652,4296.025879,4334.615234,4341.025879,4315.256348,4321.282227,4315.897461,4323.589844,4313.589844,4298.333496,4510.512695,4478.333496,4390.897461,4445.128418,0.000000,4.000000,81.000000,,,,0.000000,4.000000,4.000000,4.000000,4.000000,4.000000,4.000000,4.000000,4.000000,4.000000,4.000000,4.000000,4.000000,4.000000,4.000000,100.000000,,,,,,,,,,,,,,,,,,,,,,,,,,,,,,,,,,,,,,,,,,,,,,,,,,,,,,,,,,,,,,,,,,,,,,,,,,,,,,,,,,,,,,,,,,,,,,,,,,,,,,,,,,,,,,,,,,,,,
1768210772.260753,1768210772.261821,61.000000,0.000000,4332.563965,4293.974121,4335.128418,4338.461426,4315.769043,4324.871582,4324.743652,4317.820313,4307.179688,4292.436035,4506.922852,4473.205078,4393.974121,4444.871582,0.000000,4.000000,81.000000,,,,0.000000,4.000000,4.000000,4.000000,4.000000,4.000000,4.000000,4.000000,4.000000,4.000000,4.000000,4.000000,4.000000,4.000000,4.000000,100.000000,,,,,,,,,,,,,,,,,,,,,,,,,,,,,,,,,,,,,,,,,,,,,,,,,,,,,,,,,,,,,,,,,,,,,,,,,,,,,,,,,,,,,,,,,,,,,,,,,,,,,,,,,,,,,,,,,,,,,
1768210772.268561,1768210772.269730,62.000000,0.000000,4332.563965,4294.871582,4334.487305,4340.512695,4317.563965,4323.846191,4326.538574,4324.358887,4309.487305,4294.871582,4509.871582,4485.384766,4393.846191,4448.717773,0.000000,4.000000,81.000000,,,,0.000000,4.000000,4.000000,4.000000,4.000000,4.000000,4.000000,4.000000,4.000000,4.000000,4.000000,4.000000,4.000000,4.000000,4.000000,100.000000,,,,,,,,,,,,,,,,,,,,,,,,,,,,,,,,,,,,,,,,,,,,,,,,,,,,,,,,,,,,,,,,,,,,,,,,,,,,,,,,,,,,,,,,,,,,,,,,,,,,,,,,,,,,,,,,,,,,,
1768210772.276369,1768210772.277538,63.000000,0.000000,4335.512695,4295.384766,4335.897461,4343.077148,4315.384766,4318.974121,4315.128418,4338.461426,4321.922852,4306.025879,4520.000000,4493.205078,4395.641113,4453.974121,0.000000,4.000000,81.000000,,,,0.000000,4.000000,4.000000,4.000000,4.000000,4.000000,4.000000,4.000000,4.000000,4.000000,4.000000,4.000000,4.000000,4.000000,4.000000,100.000000,,,,,,,,,,,,,,,,,,,,,,,,,,,,,,,,,,,,,,,,,,,,,,,,,,,,,,,,,,,,,,,,,,,,,,,,,,,,,,,,,,,,,,,,,,,,,,,,,,,,,,,,,,,,,,,,,,,,,
1768210772.284178,1768210772.285546,64.000000,0.000000,4338.717773,4294.871582,4338.077148,4341.025879,4315.384766,4320.256348,4314.230957,4341.025879,4326.153809,4312.179688,4524.871582,4491.025879,4397.436035,4457.563965,3011.000000,4.000000,81.000000,,,,0.000000,4.000000,4.000000,4.000000,4.000000,4.000000,4.000000,4.000000,4.000000,4.000000,4.000000,4.000000,4.000000,4.000000,4.000000,100.000000,,,,,,,,,,,,,,,,,,,,,,,,,,,,,,,,,,,,,,,,,,,,,,,,,,,,,,,,,,,,,,,,,,,,,,,,,,,,,,,,,,,,,,,,,,,,,,,,,,,,,,,,,,,,,,,,,,,,,
1768210772.291986,1768210772.293355,65.000000,0.000000,4338.461426,4294.358887,4337.051270,4341.282227,4319.230957,4325.512695,4320.384766,4331.794922,4323.846191,4311.025879,4523.333496,4490.384766,4397.307617,4457.436035,4066.000000,4.000000,81.000000,,,,0.000000,4.000000,4.000000,4.000000,4.000000,4.000000,4.000000,4.000000,4.000000,4.000000,4.000000,4.000000,4.000000,4.000000,4.000000,100.000000,,,,,,,,,,,,,,,,,,,,,,,,,,,,,,,,,,,,,,,,,,,,,,,,,,,,,,,,,,,,,,,,,,,,,,,,,,,,,,,,,,,,,,,,,,,,,,,,,,,,,,,,,,,,,,,,,,,,,
1768210772.299795,1768210772.301063,66.000000,0.000000,4336.282227,4293.461426,4336.666504,4343.077148,4322.436035,4327.051270,4321.025879,4331.282227,4325.641113,4311.153809,4521.922852,4493.205078,4398.974121,4455.897461,2363.000000,4.000000,81.000000,,,,0.000000,4.000000,4.000000,4.000000,4.000000,4.000000,4.000000,4.000000,4.000000,4.000000,4.000000,4.000000,4.000000,4.000000,4.000000,100.000000,,,,,,,,,,,,,,,,,,,,,,,,,,,,,,,,,,,,,,,,,,,,,,,,,,,,,,,,,,,,,,,,,,,,,,,,,,,,,,,,,,,,,,,,,,,,,,,,,,,,,,,,,,,,,,,,,,,,,
1768210772.307603,1768210772.308872,67.000000,0.000000,4337.051270,4293.846191,4341.922852,4342.820313,4322.051270,4326.025879,4323.846191,4335.128418,4326.410156,4313.974121,4522.563965,4494.487305,4400.256348,4457.820313,3916.000000,4.000000,81.000000,,,,0.000000,4.000000,4.000000,4.000000,4.000000,4.000000,4.000000,4.000000,4.000000,4.000000,4.000000,4.000000,4.000000,4.000000,4.000000,100.000000,,,,,,,,,,,,,,,,,,,,,,,,,,,,,,,,,,,,,,,,,,,,,,,,,,,,,,,,,,,,,,,,,,,,,,,,,,,,,,,,,,,,,,,,,,,,,,,,,,,,,,,,,,,,,,,,,,,,,
1768210772.315412,1768210772.316480,68.000000,0.000000,4341.282227,4296.153809,4344.230957,4345.512695,4321.794922,4326.153809,4326.538574,4330.641113,4322.692383,4314.230957,4524.230957,4493.205078,4400.384766,4464.487305,3864.000000,4.000000,81.000000,,,,0.000000,4.000000,4.000000,4.000000,4.000000,4.000000,4.000000,4.000000,4.000000,4.000000,4.000000,4.000000,4.000000,4.000000,4.000000,100.000000,,,,,,,,,,,,,,,,,,,,,,,,,,,,,,,,,,,,,,,,,,,,,,,,,,,,,,,,,,,,,,,,,,,,,,,,,,,,,,,,,,,,,,,,,,,,,,,,,,,,,,,,,,,,,,,,,,,,,
1768210772.323220,1768210772.324289,69.000000,0.000000,4343.846191,4296.538574,4341.666504,4350.000000,4323.974121,4324.487305,4325.769043,4328.589844,4322.307617,4311.538574,4523.589844,4493.589844,4404.358887,4467.563965,3278.000000,4.000000,81.000000,,,,0.000000,4.000000,4.000000,4.000000,4.000000,4.000000,4.000000,4.000000,4.000000,4.000000,4.000000,4.000000,4.000000,4.000000,4.000000,100.000000,,,,,,,,,,,,,,,,,,,,,,,,,,,,,,,,,,,,,,,,,,,,,,,,,,,,,,,,,,,,,,,,,,,,,,,,,,,,,,,,,,,,,,,,,,,,,,,,,,,,,,,,,,,,,,,,,,,,,
1768210772.331029,1768210772.331997,70.000000,0.000000,4343.461426,4298.974121,4342.692383,4353.974121,4326.538574,4321.410156,4326.538574,4331.410156,4320.897461,4311.410156,4521.153809,4494.743652,4405.256348,4463.589844,3879.000000,4.000000,81.000000,,,,0.000000,4.000000,4.000000,4.000000,4.000000,4.000000,4.000000,4.000000,4.000000,4.000000,4.000000,4.000000,4.000000,4.000000,4.000000,100.000000,,,,,,,,,,,,,,,,,,,,,,,,,,,,,,,,,,,,,,,,,,,,,,,,0.211238,0.135629,0.126893,0.093413,0.079642,4.191519,0.586058,0.177846,0.338526,0.094760,0.427812,0.099194,0.064296,0.077094,0.081328,0.112455,0.062116,0.141878,0.105182,0.034127,0.207362,0.127954,0.049712,0.071043,0.024857,0.276848,0.167537,0.254999,0.102361,0.119026,0.230603,0.178731,0.151167,0.143222,0.210729,0.488421,0.251116,0.190146,0.170574,0.275616,0.523946,0.114043,0.111003,0.098746,0.108783,0.306146,0.428206,0.339704,0.242985,0.148656,1.002866,0.337105,0.204960,0.131561,0.171758,0.930741,0.288106,0.244436,0.066000,0.096286,0.511323,0.276926,0.111289,0.172491,0.118505,0.804686,0.172285,0.159708,0.069942,0.157629
