Timestamp,OriginalTimestamp,EEG.Counter,EEG.Interpolated,EEG.AF3,EEG.F7,EEG.F3,EEG.FC5,EEG.T7,EEG.P7,EEG.O1,EEG.O2,EEG.P8,EEG.T8,EEG.FC6,EEG.F4,EEG.F8,EEG.AF4,POW.AF3.Theta,POW.AF3.Alpha,POW.AF3.BetaL,POW.AF3.BetaH,POW.AF3.Gamma,POW.F7.Theta,POW.F7.Alpha,POW.F7.BetaL,POW.F7.BetaH,POW.F7.Gamma,POW.F3.Theta,POW.F3.Alpha,POW.F3.BetaL,POW.F3.BetaH,POW.F3.Gamma,POW.FC5.Theta,POW.FC5.Alpha,POW.FC5.BetaL,POW.FC5.BetaH,POW.FC5.Gamma,POW.T7.Theta,POW.T7.Alpha,POW.T7.BetaL,POW.T7.BetaH,POW.T7.Gamma,POW.P7.Theta,POW.P7.Alpha,POW.P7.BetaL,POW.P7.BetaH,POW.P7.Gamma,POW.O1.Theta,POW.O1.Alpha,POW.O1.BetaL,POW.O1.BetaH,POW.O1.Gamma,POW.O2.Theta,POW.O2.Alpha,POW.O2.BetaL,POW.O2.BetaH,POW.O2.Gamma,POW.P8.Theta,POW.P8.Alpha,POW.P8.BetaL,POW.P8.BetaH,POW.P8.Gamma,POW.T8.Theta,POW.T8.Alpha,POW.T8.BetaL,POW.T8.BetaH,POW.T8.Gamma,POW.FC6.Theta,POW.FC6.Alpha,POW.FC6.BetaL,POW.FC6.BetaH,POW.FC6.Gamma,POW.F4.Theta,POW.F4.Alpha,POW.F4.BetaL,POW.F4.BetaH,POW.F4.Gamma,POW.F8.Theta,POW.F8.Alpha,POW.F8.BetaL,POW.F8.BetaH,POW.F8.Gamma,POW.AF4.Theta,POW.AF4.Alpha,POW.AF4.BetaL,POW.AF4.BetaH,POW.AF4.Gamma
1768972689.130818,1768972689.132173,25.0,0.0,4381.666504,4398.461426,4365.769043,4383.077148,4368.205078,4378.333496,4371.282227,4381.153809,4375.512695,4355.384766,4460.897461,4523.077148,4412.94873,4443.717773,,,,,,,,,,,,,,,,,,,,,,,,,,,,,,,,,,,,,,,,,,,,,,,,,,,,,,,,,,,,,,,,,,,,,,
1768972689.138626,1768972689.140081,26.0,0.0,4381.538574,4391.410156,4367.692383,4383.461426,4369.358887,4380.0,4371.538574,4380.641113,4375.128418,4354.230957,4461.025879,4521.794922,4411.153809,4441.922852,,,,,,,,,,,,,,,,,,,,,,,,,,,,,,,,,,,,,,,,,,,,,,,,,,,,,,,,,,,,,,,,,,,,,,
1768972689.146434,1768972689.147889,27.0,0.0,4382.563965,4394.487305,4362.94873,4389.871582,4371.666504,4377.563965,4376.794922,4380.512695,4373.974121,4357.179688,4466.282227,4518.974121,4411.666504,4441.410156,,,,,,,,,,,,,,,,,,,,,,,,,,,,,,,,,,,,,,,,,,,,,,,,,,,,,,,,,,,,,,,,,,,,,,
1768972689.154243,1768972689.155898,28.0,0.0,4377.05127,4394.743652,4359.743652,4386.794922,4367.692383,4372.436035,4376.025879,4376.666504,4373.333496,4359.487305,4464.358887,4513.461426,4407.563965,4437.05127,,,,,,,,,,,,,,,,,,,,,,,,,,,,,,,,,,,,,,,,,,,,,,,,,,,,,,,,,,,,,,,,,,,,,,
1768972689.162051,1768972689.163706,29.0,0.0,4373.717773,4387.820313,4362.436035,4379.743652,4364.102539,4370.897461,4370.0,4372.94873,4373.589844,4355.641113,4457.94873,4511.282227,4401.153809,4431.153809,,,,,,,,,,,,,,,,,,,,,,,,,,,,,,,,,,,,,,,,,,,,,,,,,,,,,,,,,,,,,,,,,,,,,,
1768972689.16986,1768972689.171415,30.0,0.0,4373.205078,4385.0,4360.0,4378.846191,4365.769043,4373.846191,4367.307617,4374.102539,4373.077148,4352.436035,4459.871582,4510.897461,4400.0,4430.0,0.278273,0.246641,0.291639,0.240445,0.124342,1.611295,0.595014,0.464905,0.19726,0.13209,0.375833,0.303834,0.095873,0.092501,0.064515,0.319896,0.095731,0.092185,0.094279,0.068382,0.447864,0.174625,0.131622,0.094167,0.054153,0.49196,0.101305,0.189756,0.185044,0.228904,0.442286,0.083739,0.092064,0.148801,0.163084,0.684938,0.306124,0.111863,0.113224,0.13215,1.023289,0.336664,0.150933,0.151156,0.14421,0.487804,0.138708,0.130832,0.106525,0.08136,0.507273,0.187953,0.369162,0.186226,0.135625,0.569829,0.344604,0.852882,0.202465,0.122397,0.679719,0.199728,0.233423,0.238007,0.217054,0.541176,0.194072,0.371214,0.211661,0.178597
1768972689.177668,1768972689.179223,31.0,0.0,4371.025879,4391.666504,4355.256348,4378.717773,4368.461426,4375.769043,4369.487305,4369.230957,4366.666504,4347.563965,4456.282227,4506.922852,4396.153809,4430.384766,,,,,,,,,,,,,,,,,,,,,,,,,,,,,,,,,,,,,,,,,,,,,,,,,,,,,,,,,,,,,,,,,,,,,,
1768972689.185477,1768972689.186832,32.0,0.0,4371.153809,4396.794922,4358.333496,4379.743652,4364.615234,4370.641113,4370.897461,4363.205078,4359.230957,4340.897461,4445.128418,4501.410156,4393.333496,4428.205078,,,,,,,,,,,,,,,,,,,,,,,,,,,,,,,,,,,,,,,,,,,,,,,,,,,,,,,,,,,,,,,,,,,,,,
1768972689.193285,1768972689.19464,33.0,0.0,4373.205078,4392.94873,4362.307617,4381.922852,4361.282227,4367.563965,4370.641113,4367.179688,4359.487305,4340.512695,4447.820313,4500.384766,4396.282227,4426.922852,,,,,,,,,,,,,,,,,,,,,,,,,,,,,,,,,,,,,,,,,,,,,,,,,,,,,,,,,,,,,,,,,,,,,,
1768972689.201094,1768972689.202349,34.0,0.0,4371.282227,4385.128418,4357.692383,4379.615234,4363.717773,4371.538574,4370.512695,4370.384766,4367.05127,4344.871582,4454.358887,4501.025879,4394.487305,4426.282227,,,,,,,,,,,,,,,,,,,,,,,,,,,,,,,,,,,,,,,,,,,,,,,,,,,,,,,,,,,,,,,,,,,,,,
1768972689.208902,1768972689.210157,35.0,0.0,4371.025879,4384.743652,4354.871582,4379.102539,4365.512695,4373.333496,4370.256348,4369.230957,4371.666504,4350.641113,4454.358887,4501.410156,4394.102539,4427.692383,,,,,,,,,,,,,,,,,,,,,,,,,,,,,,,,,,,,,,,,,,,,,,,,,,,,,,,,,,,,,,,,,,,,,,
1768972689.21671,1768972689.217766,36.0,0.0,4376.282227,4388.974121,4360.128418,4380.897461,4367.94873,4373.333496,4373.846191,4368.589844,4370.128418,4355.128418,4458.077148,4505.128418,4401.410156,4432.94873,,,,,,,,,,,,,,,,,,,,,,,,,,,,,,,,,,,,,,,,,,,,,,,,,,,,,,,,,,,,,,,,,,,,,,
1768972689.224519,1768972689.225574,37.0,0.0,4380.384766,4388.077148,4363.461426,4382.179688,4370.128418,4371.153809,4374.743652,4366.410156,4367.307617,4351.025879,4458.461426,4502.692383,4402.436035,4433.846191,,,,,,,,,,,,,,,,,,,,,,,,,,,,,,,,,,,,,,,,,,,,,,,,,,,,,,,,,,,,,,,,,,,,,,
1768972689.232327,1768972689.233283,38.0,0.0,4380.384766,4382.94873,4361.794922,4382.436035,4368.846191,4367.692383,4369.743652,4361.922852,4362.94873,4344.615234,4451.410156,4495.897461,4396.794922,4427.820313,,,,,,,,,,,,,,,,,,,,,,,,,,,,,,,,,,,,,,,,,,,,,,,,,,,,,,,,,,,,,,,,,,,,,,
1768972689.240136,1768972689.241091,39.0,0.0,4378.589844,4381.666504,4360.769043,4378.461426,4368.205078,4368.846191,4365.512695,4358.205078,4357.307617,4347.307617,4448.461426,4497.05127,4397.05127,4425.128418,,,,,,,,,,,,,,,,,,,,,,,,,,,,,,,,,,,,,,,,,,,,,,,,,,,,,,,,,,,,,,,,,,,,,,
1768972689.247944,1768972689.2491,40.0,0.0,4377.692383,4382.820313,4361.538574,4376.153809,4368.205078,4368.974121,4366.922852,4360.256348,4357.05127,4347.94873,4450.0,4503.589844,4397.94873,4429.358887,,,,,,,,,,,,,,,,,,,,,,,,,,,,,,,,,,,,,,,,,,,,,,,,,,,,,,,,,,,,,,,,,,,,,,
1768972689.255753,1768972689.256908,41.0,0.0,4377.436035,4381.282227,4361.282227,4375.769043,4365.384766,4364.871582,4370.641113,4363.589844,4359.615234,4344.358887,4450.128418,4507.563965,4395.769043,4428.717773,,,,,,,,,,,,,,,,,,,,,,,,,,,,,,,,,,,,,,,,,,,,,,,,,,,,,,,,,,,,,,,,,,,,,,
1768972689.263561,1768972689.264617,42.0,0.0,4380.897461,4386.794922,4362.05127,4373.077148,4366.282227,4370.384766,4373.461426,4365.512695,4361.025879,4351.538574,4453.974121,4508.846191,4399.230957,4426.153809,,,,,,,,,,,,,,,,,,,,,,,,,,,,,,,,,,,,,,,,,,,,,,,,,,,,,,,,,,,,,,,,,,,,,,
1768972689.271369,1768972689.272425,43.0,0.0,4386.410156,4395.897461,4365.384766,4375.128418,4373.205078,4380.384766,4379.615234,4371.282227,4367.436035,4361.538574,4458.717773,4512.563965,4403.846191,4435.769043,,,,,,,,,,,,,,,,,,,,,,,,,,,,,,,,,,,,,,,,,,,,,,,,,,,,,,,,,,,,,,,,,,,,,,
1768972689.279178,1768972689.280034,44.0,0.0,4384.487305,4393.717773,4365.897461,4380.256348,4373.717773,4375.769043,4384.871582,4377.436035,4373.333496,4359.615234,4459.358887,4515.897461,4403.461426,4441.153809,,,,,,,,,,,,,,,,,,,,,,,,,,,,,,,,,,,,,,,,,,,,,,,,,,,,,,,,,,,,,,,,,,,,,,
1768972689.286986,1768972689.287842,45.0,0.0,4382.692383,4388.846191,4364.615234,4379.743652,4371.794922,4369.358887,4382.436035,4377.563965,4374.230957,4358.589844,4462.436035,4514.871582,4406.153809,4436.153809,,,,,,,,,,,,,,,,,,,,,,,,,,,,,,,,,,,,,,,,,,,,,,,,,,,,,,,,,,,,,,,,,,,,,,
1768972689.294795,1768972689.295551,46.0,0.0,4386.153809,4388.461426,4365.897461,4377.94873,4374.102539,4376.153809,4378.846191,4377.179688,4375.512695,4362.563965,4463.333496,4514.230957,4408.461426,4438.717773,0.233491,0.284019,0.260922,0.250888,0.140339,1.997583,0.703321,0.515049,0.21251,0.135236,0.350531,0.305927,0.079685,0.097794,0.071084,0.321529,0.110085,0.091124,0.091953,0.066336,0.460954,0.185116,0.143997,0.106549,0.049435,0.555945,0.093317,0.155502,0.167125,0.21904,0.516148,0.084093,0.075122,0.149834,0.159213,0.657549,0.322791,0.123667,0.141218,0.144535,0.942958,0.338885,0.144616,0.172842,0.152534,0.395758,0.138022,0.160126,0.114151,0.084894,0.562056,0.241232,0.385568,0.204219,0.137654,0.612916,0.420606,0.900332,0.222346,0.130667,0.56974,0.250989,0.216007,0.247433,0.217636,0.400789,0.315931,0.325632,0.239463,0.199662
1768972689.302603,1768972689.303359,47.0,0.0,4390.384766,4386.153809,4364.615234,4379.871582,4373.077148,4381.794922,4383.461426,4375.512695,4373.846191,4360.256348,4461.794922,4515.897461,4406.410156,4446.410156,,,,,,,,,,,,,,,,,,,,,,,,,,,,,,,,,,,,,,,,,,,,,,,,,,,,,,,,,,,,,,,,,,,,,,
1768972689.310412,1768972689.311367,48.0,0.0,4389.743652,4385.769043,4360.384766,4379.743652,4368.589844,4380.384766,4386.666504,4372.563965,4368.717773,4357.692383,4468.333496,4517.820313,4409.487305,4446.153809,,,,,,,,,,,,,,,,,,,,,,,,,,,,,,,,,,,,,,,,,,,,,,,,,,,,,,,,,,,,,,,,,,,,,,
1768972689.31822,1768972689.319176,49.0,0.0,4382.05127,4390.0,4359.102539,4376.025879,4367.05127,4373.333496,4378.589844,4371.922852,4366.794922,4359.615234,4472.692383,4513.846191,4412.307617,4439.487305,,,,,,,,,,,,,,,,,,,,,,,,,,,,,,,,,,,,,,,,,,,,,,,,,,,,,,,,,,,,,,,,,,,,,,
1768972689.326028,1768972689.327084,50.0,0.0,4372.05127,4385.256348,4357.94873,4369.743652,4365.0,4363.717773,4371.922852,4370.256348,4365.384766,4358.846191,4464.102539,4507.179688,4405.512695,4436.282227,,,,,,,,,,,,,,,,,,,,,,,,,,,,,,,,,,,,,,,,,,,,,,,,,,,,,,,,,,,,,,,,,,,,,,
1768972689.333837,1768972689.334893,51.0,0.0,4368.077148,4380.0,4356.922852,4368.205078,4363.974121,4367.436035,4373.461426,4369.230957,4365.641113,4356.794922,4458.974121,4507.692383,4404.102539,4436.922852,,,,,,,,,,,,,,,,,,,,,,,,,,,,,,,,,,,,,,,,,,,,,,,,,,,,,,,,,,,,,,,,,,,,,,
1768972689.341645,1768972689.342901,52.0,0.0,4376.025879,4386.025879,4361.282227,4374.615234,4368.589844,4377.05127,4373.846191,4370.512695,4369.487305,4358.846191,4466.538574,4514.358887,4411.794922,4438.205078,,,,,,,,,,,,,,,,,,,,,,,,,,,,,,,,,,,,,,,,,,,,,,,,,,,,,,,,,,,,,,,,,,,,,,
1768972689.349454,1768972689.350709,53.0,0.0,4383.846191,4388.974121,4365.256348,4376.922852,4369.871582,4376.922852,4375.641113,4373.974121,4370.641113,4358.333496,4468.974121,4518.077148,4411.538574,4436.410156,,,,,,,,,,,,,,,,,,,,,,,,,,,,,,,,,,,,,,,,,,,,,,,,,,,,,,,,,,,,,,,,,,,,,,
1768972689.357262,1768972689.358418,54.0,0.0,4381.538574,4385.0,4363.205078,4375.641113,4367.563965,4371.922852,4380.256348,4374.871582,4370.512695,4356.153809,4462.05127,4514.487305,4406.794922,4433.846191,,,,,,,,,,,,,,,,,,,,,,,,,,,,,,,,,,,,,,,,,,,,,,,,,,,,,,,,,,,,,,,,,,,,,,
1768972689.365071,1768972689.366226,55.0,0.0,4378.589844,4382.820313,4362.692383,4379.615234,4370.641113,4372.307617,4380.256348,4371.538574,4371.282227,4356.410156,4463.077148,4511.922852,4409.743652,4434.615234,,,,,,,,,,,,,,,,,,,,,,,,,,,,,,,,,,,,,,,,,,,,,,,,,,,,,,,,,,,,,,,,,,,,,,
1768972689.372879,1768972689.373835,56.0,0.0,4384.743652,4381.666504,4367.436035,4383.461426,4371.666504,4375.256348,4381.666504,4375.769043,4375.256348,4357.820313,4471.922852,4519.871582,4414.230957,4440.128418,,,,,,,,,,,,,,,,,,,,,,,,,,,,,,,,,,,,,,,,,,,,,,,,,,,,,,,,,,,,,,,,,,,,,,
1768972689.380688,1768972689.381643,57.0,0.0,4387.692383,4379.871582,4367.436035,4378.974121,4368.205078,4378.333496,4385.128418,4385.128418,4381.282227,4362.820313,4478.717773,4525.384766,4414.358887,4444.230957,,,,,,,,,,,,,,,,,,,,,,,,,,,,,,,,,,,,,,,,,,,,,,,,,,,,,,,,,,,,,,,,,,,,,,
1768972689.388496,1768972689.389352,58.0,0.0,4377.436035,4380.897461,4361.666504,4374.102539,4368.461426,4379.871582,4383.846191,4376.538574,4378.077148,4364.230957,4473.077148,4517.692383,4413.333496,4439.743652,,,,,,,,,,,,,,,,,,,,,,,,,,,,,,,,,,,,,,,,,,,,,,,,,,,,,,,,,,,,,,,,,,,,,,
1768972689.396304,1768972689.39716,59.0,0.0,4372.563965,4383.205078,4356.410156,4374.230957,4370.641113,4376.410156,4380.384766,4361.153809,4370.0,4359.871582,4461.538574,4510.769043,4412.179688,4434.487305,,,,,,,,,,,,,,,,,,,,,,,,,,,,,,,,,,,,,,,,,,,,,,,,,,,,,,,,,,,,,,,,,,,,,,
1768972689.404113,1768972689.404769,60.0,0.0,4372.94873,4381.666504,4350.769043,4373.589844,4370.128418,4369.358887,4376.538574,4363.846191,4371.410156,4358.717773,4458.461426,4509.102539,4406.025879,4428.589844,,,,,,,,,,,,,,,,,,,,,,,,,,,,,,,,,,,,,,,,,,,,,,,,,,,,,,,,,,,,,,,,,,,,,,
1768972689.411921,1768972689.412577,61.0,0.0,4370.384766,4380.128418,4348.846191,4373.461426,4368.717773,4365.897461,4372.820313,4369.615234,4373.333496,4355.128418,4458.974121,4502.692383,4396.282227,4421.922852,,,,,,,,,,,,,,,,,,,,,,,,,,,,,,,,,,,,,,,,,,,,,,,,,,,,,,,,,,,,,,,,,,,,,,
1768972689.41973,1768972689.420286,62.0,0.0,4369.102539,4383.589844,4353.846191,4375.641113,4367.436035,4368.461426,4370.128418,4363.205078,4363.717773,4346.153809,4456.410156,4494.743652,4392.94873,4424.102539,0.216359,0.325988,0.221474,0.25252,0.155869,2.302295,0.793786,0.519269,0.217099,0.136285,0.421047,0.288099,0.066034,0.105621,0.078072,0.308735,0.138916,0.086641,0.092014,0.065535,0.434994,0.196263,0.156216,0.116459,0.045469,0.571104,0.093294,0.132068,0.152577,0.204509,0.598867,0.100797,0.068504,0.145839,0.153835,0.593771,0.31846,0.142032,0.165782,0.151582,0.809276,0.321531,0.142838,0.18422,0.158884,0.304801,0.142261,0.208588,0.127175,0.088149,0.653484,0.316564,0.382766,0.230929,0.135694,0.758516,0.521667,0.848005,0.240202,0.137943,0.460076,0.305771,0.186867,0.249488,0.213706,0.359988,0.494999,0.273577,0.27081,0.21353
1768972689.427538,1768972689.428094,63.0,0.0,4370.0,4387.179688,4357.179688,4376.153809,4366.025879,4367.820313,4366.666504,4361.794922,4362.307617,4346.666504,4455.384766,4498.846191,4394.230957,4427.307617,,,,,,,,,,,,,,,,,,,,,,,,,,,,,,,,,,,,,,,,,,,,,,,,,,,,,,,,,,,,,,,,,,,,,,
1768972689.435347,1768972689.436103,64.0,0.0,4370.769043,4386.922852,4352.436035,4372.563965,4364.230957,4362.563965,4364.487305,4370.384766,4372.94873,4355.641113,4460.769043,4507.436035,4398.974121,4425.897461,,,,,,,,,,,,,,,,,,,,,,,,,,,,,,,,,,,,,,,,,,,,,,,,,,,,,,,,,,,,,,,,,,,,,,
1768972689.443155,1768972689.443911,65.0,0.0,4371.666504,4391.922852,4350.512695,4372.307617,4362.94873,4365.0,4366.794922,4368.205078,4371.025879,4357.436035,4462.692383,4504.871582,4404.102539,4428.461426,,,,,,,,,,,,,,,,,,,,,,,,,,,,,,,,,,,,,,,,,,,,,,,,,,,,,,,,,,,,,,,,,,,,,,
1768972689.450964,1768972689.451819,66.0,0.0,4374.487305,4397.563965,4353.077148,4375.512695,4365.256348,4365.769043,4367.692383,4360.512695,4361.538574,4352.820313,4458.333496,4501.025879,4401.666504,4430.769043,,,,,,,,,,,,,,,,,,,,,,,,,,,,,,,,,,,,,,,,,,,,,,,,,,,,,,,,,,,,,,,,,,,,,,
1768972689.458772,1768972689.459628,67.0,0.0,4374.615234,4390.384766,4353.461426,4373.717773,4366.282227,4358.974121,4367.05127,4366.025879,4364.487305,4345.769043,4457.563965,4503.589844,4396.153809,4429.487305,,,,,,,,,,,,,,,,,,,,,,,,,,,,,,,,,,,,,,,,,,,,,,,,,,,,,,,,,,,,,,,,,,,,,,
1768972689.466581,1768972689.467237,68.0,0.0,4371.922852,4384.615234,4356.025879,4370.641113,4364.615234,4360.384766,4369.743652,4369.615234,4364.871582,4340.897461,4456.666504,4496.282227,4394.102539,4427.436035,,,,,,,,,,,,,,,,,,,,,,,,,,,,,,,,,,,,,,,,,,,,,,,,,,,,,,,,,,,,,,,,,,,,,,
1768972689.474389,1768972689.475045,69.0,0.0,4374.230957,4393.077148,4361.410156,4374.358887,4368.974121,4368.974121,4371.025879,4365.512695,4357.94873,4345.769043,4455.256348,4491.410156,4398.717773,4429.487305,,,,,,,,,,,,,,,,,,,,,,,,,,,,,,,,,,,,,,,,,,,,,,,,,,,,,,,,,,,,,,,,,,,,,,
1768972689.482197,1768972689.482754,70.0,0.0,4382.692383,4398.461426,4363.974121,4380.641113,4374.743652,4371.025879,4373.461426,4370.128418,4366.794922,4353.717773,4459.230957,4508.077148,4408.846191,4439.871582,,,,,,,,,,,,,,,,,,,,,,,,,,,,,,,,,,,,,,,,,,,,,,,,,,,,,,,,,,,,,,,,,,,,,,
1768972689.490006,1768972689.490562,71.0,0.0,4384.615234,4394.102539,4364.230957,4381.025879,4373.461426,4370.128418,4374.230957,4373.461426,4371.922852,4352.436035,4462.05127,4517.307617,4413.333496,4445.512695,,,,,,,,,,,,,,,,,,,,,,,,,,,,,,,,,,,,,,,,,,,,,,,,,,,,,,,,,,,,,,,,,,,,,,
1768972689.497814,1768972689.49857,72.0,0.0,4383.846191,4397.179688,4366.153809,4381.025879,4371.153809,4365.897461,4366.538574,4366.025879,4361.538574,4344.871582,4458.717773,4507.05127,4411.410156,4438.846191,,,,,,,,,,,,,,,,,,,,,,,,,,,,,,,,,,,,,,,,,,,,,,,,,,,,,,,,,,,,,,,,,,,,,,
1768972689.505623,1768972689.506379,73.0,0.0,4385.128418,4397.692383,4365.512695,4383.461426,4372.307617,4361.922852,4363.846191,4361.666504,4358.846191,4342.94873,4456.538574,4505.384766,4412.692383,4434.615234,,,,,,,,,,,,,,,,,,,,,,,,,,,,,,,,,,,,,,,,,,,,,,,,,,,,,,,,,,,,,,,,,,,,,,
1768972689.513431,1768972689.514287,74.0,0.0,4372.436035,4382.692383,4361.025879,4379.102539,4369.871582,4365.769043,4371.282227,4363.333496,4363.205078,4344.743652,4457.179688,4511.666504,4406.282227,4430.384766,,,,,,,,,,,,,,,,,,,,,,,,,,,,,,,,,,,,,,,,,,,,,,,,,,,,,,,,,,,,,,,,,,,,,,
1768972689.52124,1768972689.522095,75.0,0.0,4363.846191,4380.641113,4360.0,4374.871582,4365.256348,4364.615234,4372.820313,4366.922852,4364.871582,4343.846191,4457.05127,4512.563965,4397.179688,4424.871582,,,,,,,,,,,,,,,,,,,,,,,,,,,,,,,,,,,,,,,,,,,,,,,,,,,,,,,,,,,,,,,,,,,,,,
1768972689.529048,1768972689.530104,76.0,0.0,4381.922852,4397.436035,4363.846191,4379.743652,4365.128418,4357.820313,4367.692383,4365.769043,4363.333496,4340.512695,4457.436035,4513.077148,4405.0,4433.461426,,,,,,,,,,,,,,,,,,,,,,,,,,,,,,,,,,,,,,,,,,,,,,,,,,,,,,,,,,,,,,,,,,,,,,
1768972689.536857,1768972689.537912,77.0,0.0,4399.743652,4407.179688,4369.230957,4388.461426,4367.692383,4360.384766,4367.307617,4357.820313,4357.692383,4341.153809,4458.077148,4516.666504,4413.846191,4445.641113,,,,,,,,,,,,,,,,,,,,,,,,,,,,,,,,,,,,,,,,,,,,,,,,,,,,,,,,,,,,,,,,,,,,,,
1768972689.544665,1768972689.545821,78.0,0.0,4397.692383,4409.487305,4369.615234,4392.94873,4369.615234,4362.05127,4366.922852,4356.282227,4357.436035,4347.692383,4460.256348,4522.307617,4412.692383,4446.794922,0.250262,0.370198,0.189019,0.245009,0.167868,2.424671,0.841976,0.47546,0.210542,0.137256,0.567679,0.256633,0.058806,0.111864,0.083304,0.285184,0.179662,0.083141,0.091263,0.066669,0.379666,0.211339,0.165508,0.121894,0.043229,0.54358,0.104364,0.127067,0.139724,0.190914,0.657634,0.126354,0.072209,0.134964,0.146335,0.533067,0.295405,0.170705,0.179105,0.151364,0.680019,0.290585,0.153231,0.183661,0.161442,0.239577,0.154491,0.274344,0.143761,0.091622,0.763096,0.396045,0.369777,0.265715,0.131278,1.044679,0.624259,0.718311,0.252202,0.140789,0.396437,0.362475,0.164807,0.25082,0.209277,0.436179,0.702549,0.238026,0.297948,0.215709
1768972689.552473,1768972689.553629,79.0,0.0,4395.0,4410.0,4368.077148,4389.102539,4367.94873,4357.307617,4365.256348,4363.846191,4363.974121,4348.461426,4462.563965,4528.461426,4412.820313,4444.871582,,,,,,,,,,,,,,,,,,,,,,,,,,,,,,,,,,,,,,,,,,,,,,,,,,,,,,,,,,,,,,,,,,,,,,
1768972689.560282,1768972689.561238,80.0,0.0,4399.358887,4404.102539,4365.128418,4383.589844,4365.641113,4357.307617,4364.358887,4364.487305,4364.102539,4345.897461,4460.512695,4529.615234,4412.436035,4443.461426,,,,,,,,,,,,,,,,,,,,,,,,,,,,,,,,,,,,,,,,,,,,,,,,,,,,,,,,,,,,,,,,,,,,,,
1768972689.56809,1768972689.569046,81.0,0.0,4396.282227,4396.153809,4361.153809,4382.05127,4367.05127,4362.05127,4367.05127,4367.820313,4365.641113,4348.205078,4458.461426,4529.230957,4409.615234,4442.436035,,,,,,,,,,,,,,,,,,,,,,,,,,,,,,,,,,,,,,,,,,,,,,,,,,,,,,,,,,,,,,,,,,,,,,
1768972689.575899,1768972689.576755,82.0,0.0,4386.922852,4391.282227,4362.05127,4382.179688,4366.025879,4360.512695,4371.153809,4377.179688,4371.538574,4346.153809,4459.615234,4532.05127,4411.153809,4443.974121,,,,,,,,,,,,,,,,,,,,,,,,,,,,,,,,,,,,,,,,,,,,,,,,,,,,,,,,,,,,,,,,,,,,,,
1768972689.583707,1768972689.584563,83.0,0.0,4381.538574,4385.128418,4362.820313,4380.897461,4365.128418,4355.897461,4370.769043,4368.333496,4363.846191,4340.769043,4460.384766,4531.922852,4410.0,4440.897461,,,,,,,,,,,,,,,,,,,,,,,,,,,,,,,,,,,,,,,,,,,,,,,,,,,,,,,,,,,,,,,,,,,,,,
1768972689.591516,1768972689.592172,84.0,0.0,4379.102539,4377.436035,4358.077148,4378.846191,4369.615234,4357.692383,4367.820313,4359.743652,4355.897461,4342.692383,4456.794922,4526.794922,4402.179688,4431.410156,,,,,,,,,,,,,,,,,,,,,,,,,,,,,,,,,,,,,,,,,,,,,,,,,,,,,,,,,,,,,,,,,,,,,,
1768972689.599324,1768972689.59998,85.0,0.0,4372.820313,4366.794922,4352.94873,4372.307617,4365.512695,4364.358887,4367.563965,4368.333496,4361.153809,4343.846191,4449.102539,4518.077148,4394.615234,4423.974121,,,,,,,,,,,,,,,,,,,,,,,,,,,,,,,,,,,,,,,,,,,,,,,,,,,,,,,,,,,,,,,,,,,,,,
1768972689.607133,1768972689.607889,86.0,0.0,4372.563965,4364.615234,4353.974121,4369.487305,4357.692383,4367.307617,4367.820313,4368.846191,4365.384766,4343.846191,4445.769043,4517.05127,4393.974121,4425.769043,,,,,,,,,,,,,,,,,,,,,,,,,,,,,,,,,,,,,,,,,,,,,,,,,,,,,,,,,,,,,,,,,,,,,,
1768972689.614941,1768972689.615697,87.0,0.0,4385.128418,4376.666504,4360.769043,4379.487305,4366.410156,4363.974121,4369.102539,4366.922852,4372.436035,4355.256348,4460.256348,4530.128418,4408.077148,4439.230957,,,,,,,,,,,,,,,,,,,,,,,,,,,,,,,,,,,,,,,,,,,,,,,,,,,,,,,,,,,,,,,,,,,,,,
1768972689.622749,1768972689.623705,88.0,0.0,4391.282227,4383.589844,4364.358887,4383.589844,4374.358887,4365.256348,4375.641113,4379.487305,4384.102539,4363.205078,4474.615234,4535.0,4421.794922,4448.205078,,,,,,,,,,,,,,,,,,,,,,,,,,,,,,,,,,,,,,,,,,,,,,,,,,,,,,,,,,,,,,,,,,,,,,
1768972689.630558,1768972689.631514,89.0,0.0,4386.410156,4383.717773,4360.897461,4375.384766,4368.077148,4365.512695,4374.102539,4381.410156,4380.0,4355.0,4467.563965,4527.436035,4417.436035,4444.743652,,,,,,,,,,,,,,,,,,,,,,,,,,,,,,,,,,,,,,,,,,,,,,,,,,,,,,,,,,,,,,,,,,,,,,
1768972689.638366,1768972689.639422,90.0,0.0,4383.717773,4385.128418,4359.358887,4376.282227,4367.05127,4362.820313,4365.769043,4365.769043,4367.307617,4349.230957,4458.461426,4526.025879,4410.897461,4437.563965,,,,,,,,,,,,,,,,,,,,,,,,,,,,,,,,,,,,,,,,,,,,,,,,,,,,,,,,,,,,,,,,,,,,,,
1768972689.646175,1768972689.64723,91.0,0.0,4383.846191,4380.128418,4362.94873,4380.512695,4371.410156,4368.974121,4369.871582,4366.922852,4370.384766,4352.563965,4461.282227,4529.615234,4412.307617,4435.256348,,,,,,,,,,,,,,,,,,,,,,,,,,,,,,,,,,,,,,,,,,,,,,,,,,,,,,,,,,,,,,,,,,,,,,
1768972689.653983,1768972689.655239,92.0,0.0,4380.641113,4373.205078,4363.461426,4373.974121,4367.05127,4375.897461,4380.256348,4382.563965,4377.05127,4353.077148,4463.461426,4531.794922,4411.794922,4436.922852,,,,,,,,,,,,,,,,,,,,,,,,,,,,,,,,,,,,,,,,,,,,,,,,,,,,,,,,,,,,,,,,,,,,,,
1768972689.661792,1768972689.663047,93.0,0.0,4381.025879,4376.666504,4359.871582,4372.436035,4368.077148,4375.769043,4384.230957,4380.641113,4373.461426,4353.205078,4460.641113,4532.436035,4410.128418,4438.717773,,,,,,,,,,,,,,,,,,,,,,,,,,,,,,,,,,,,,,,,,,,,,,,,,,,,,,,,,,,,,,,,,,,,,,
1768972689.6696,1768972689.670756,94.0,0.0,4385.512695,4383.461426,4358.974121,4381.794922,4373.717773,4370.769043,4381.282227,4370.769043,4370.0,4353.846191,4458.974121,4530.256348,4411.922852,4437.563965,0.341988,0.417397,0.178381,0.231426,0.173579,2.296915,0.83412,0.397451,0.196706,0.138994,0.737831,0.225041,0.060741,0.113777,0.085264,0.263775,0.226385,0.085719,0.087878,0.069455,0.313529,0.229925,0.170019,0.121543,0.042702,0.497155,0.126915,0.138652,0.128184,0.182525,0.674341,0.16176,0.085282,0.118593,0.136667,0.518954,0.267615,0.211779,0.1765,0.144546,0.607056,0.261161,0.184497,0.174264,0.159171,0.223224,0.178826,0.348726,0.163048,0.094808,0.869767,0.457603,0.359931,0.3029,0.126434,1.471132,0.706283,0.555022,0.256661,0.13755,0.416004,0.420082,0.165942,0.256124,0.20549,0.608715,0.890122,0.23322,0.313246,0.204887
1768972689.677409,1768972689.678564,95.0,0.0,4385.512695,4381.282227,4360.512695,4383.077148,4368.846191,4362.179688,4375.0,4371.794922,4367.436035,4351.282227,4458.974121,4528.461426,4412.692383,4432.179688,,,,,,,,,,,,,,,,,,,,,,,,,,,,,,,,,,,,,,,,,,,,,,,,,,,,,,,,,,,,,,,,,,,,,,
1768972689.685217,1768972689.686173,96.0,0.0,4380.769043,4378.589844,4360.897461,4378.717773,4364.487305,4360.512695,4372.563965,4373.461426,4366.794922,4349.487305,4459.615234,4527.820313,4411.794922,4434.102539,,,,,,,,,,,,,,,,,,,,,,,,,,,,,,,,,,,,,,,,,,,,,,,,,,,,,,,,,,,,,,,,,,,,,,
1768972689.693025,1768972689.693981,97.0,0.0,4376.025879,4381.538574,4361.153809,4379.615234,4366.666504,4370.384766,4377.692383,4373.589844,4372.563965,4347.692383,4461.410156,4527.820313,4410.897461,4440.128418,,,,,,,,,,,,,,,,,,,,,,,,,,,,,,,,,,,,,,,,,,,,,,,,,,,,,,,,,,,,,,,,,,,,,,
1768972689.700834,1768972689.70189,98.0,0.0,4376.410156,4382.94873,4360.256348,4380.512695,4366.025879,4372.94873,4378.077148,4373.461426,4372.05127,4345.769043,4460.769043,4529.743652,4410.128418,4439.743652,,,,,,,,,,,,,,,,,,,,,,,,,,,,,,,,,,,,,,,,,,,,,,,,,,,,,,,,,,,,,,,,,,,,,,
1768972689.708642,1768972689.709698,99.0,0.0,4381.153809,4380.256348,4359.102539,4381.025879,4363.205078,4361.794922,4370.512695,4372.94873,4368.333496,4346.282227,4459.871582,4531.025879,4410.384766,4435.128418,,,,,,,,,,,,,,,,,,,,,,,,,,,,,,,,,,,,,,,,,,,,,,,,,,,,,,,,,,,,,,,,,,,,,,
1768972689.716451,1768972689.717706,100.0,0.0,4382.820313,4383.333496,4362.05127,4382.692383,4364.871582,4360.256348,4369.358887,4374.615234,4372.436035,4346.538574,4459.230957,4529.102539,4409.615234,4432.692383,,,,,,,,,,,,,,,,,,,,,,,,,,,,,,,,,,,,,,,,,,,,,,,,,,,,,,,,,,,,,,,,,,,,,,
1768972689.724259,1768972689.725515,101.0,0.0,4380.641113,4387.179688,4362.563965,4382.05127,4369.871582,4369.358887,4374.743652,4372.563965,4372.179688,4346.538574,4458.589844,4528.846191,4408.333496,4434.871582,,,,,,,,,,,,,,,,,,,,,,,,,,,,,,,,,,,,,,,,,,,,,,,,,,,,,,,,,,,,,,,,,,,,,,
1768972689.732068,1768972689.733323,102.0,0.0,4379.615234,4383.077148,4358.589844,4381.025879,4373.333496,4369.230957,4378.461426,4369.102539,4365.897461,4350.897461,4459.743652,4535.897461,4411.922852,4440.256348,,,,,,,,,,,,,,,,,,,,,,,,,,,,,,,,,,,,,,,,,,,,,,,,,,,,,,,,,,,,,,,,,,,,,,
1768972689.739876,1768972689.741132,103.0,0.0,4381.153809,4380.512695,4360.0,4383.205078,4373.205078,4364.230957,4379.743652,4373.461426,4369.615234,4352.692383,4460.384766,4538.974121,4412.563965,4441.025879,,,,,,,,,,,,,,,,,,,,,,,,,,,,,,,,,,,,,,,,,,,,,,,,,,,,,,,,,,,,,,,,,,,,,,
1768972689.747685,1768972689.74874,104.0,0.0,4382.05127,4382.436035,4365.769043,4386.538574,4373.077148,4370.512695,4381.153809,4378.333496,4372.692383,4349.487305,4459.102539,4533.589844,4409.102539,4434.358887,,,,,,,,,,,,,,,,,,,,,,,,,,,,,,,,,,,,,,,,,,,,,,,,,,,,,,,,,,,,,,,,,,,,,,
1768972689.755493,1768972689.756549,105.0,0.0,4381.922852,4382.307617,4365.0,4388.846191,4374.743652,4376.922852,4380.512695,4373.461426,4368.974121,4350.0,4459.615234,4531.538574,4410.512695,4435.384766,,,,,,,,,,,,,,,,,,,,,,,,,,,,,,,,,,,,,,,,,,,,,,,,,,,,,,,,,,,,,,,,,,,,,,
1768972689.763301,1768972689.764457,106.0,0.0,4382.692383,4384.487305,4362.05127,4388.077148,4373.461426,4374.871582,4376.922852,4371.410156,4373.717773,4351.666504,4461.666504,4533.589844,4413.589844,4444.358887,,,,,,,,,,,,,,,,,,,,,,,,,,,,,,,,,,,,,,,,,,,,,,,,,,,,,,,,,,,,,,,,,,,,,,
1768972689.77111,1768972689.772265,107.0,0.0,4385.128418,4384.230957,4365.128418,4383.717773,4371.922852,4371.666504,4373.077148,4377.94873,4381.794922,4350.128418,4462.436035,4535.641113,4411.922852,4444.871582,,,,,,,,,,,,,,,,,,,,,,,,,,,,,,,,,,,,,,,,,,,,,,,,,,,,,,,,,,,,,,,,,,,,,,
1768972689.778918,1768972689.779874,108.0,0.0,4385.256348,4375.128418,4364.615234,4381.025879,4371.794922,4371.153809,4373.461426,4382.692383,4383.974121,4352.179688,4463.589844,4538.461426,4410.256348,4440.769043,,,,,,,,,,,,,,,,,,,,,,,,,,,,,,,,,,,,,,,,,,,,,,,,,,,,,,,,,,,,,,,,,,,,,,
1768972689.786727,1768972689.787683,109.0,0.0,4381.153809,4368.717773,4359.358887,4382.179688,4369.102539,4375.512695,4375.897461,4377.94873,4384.102539,4353.717773,4464.102539,4536.410156,4411.922852,4441.538574,,,,,,,,,,,,,,,,,,,,,,,,,,,,,,,,,,,,,,,,,,,,,,,,,,,,,,,,,,,,,,,,,,,,,,
1768972689.794535,1768972689.795391,110.0,0.0,4375.128418,4370.384766,4358.077148,4379.487305,4368.974121,4379.743652,4375.641113,4368.205078,4378.589844,4348.461426,4461.025879,4530.384766,4410.384766,4440.897461,0.485233,0.472216,0.201885,0.218581,0.172595,1.967583,0.783949,0.313896,0.183075,0.141284,0.882055,0.20775,0.072373,0.111098,0.083584,0.257701,0.269611,0.099742,0.082399,0.072902,0.255289,0.249233,0.167906,0.114962,0.043294,0.45638,0.159885,0.155743,0.119645,0.179438,0.649305,0.213457,0.105272,0.100615,0.125376,0.57577,0.251704,0.262071,0.160139,0.134501,0.608817,0.246264,0.239717,0.162182,0.151999,0.256782,0.213552,0.417186,0.184808,0.096211,0.960421,0.485026,0.364623,0.332218,0.122579,2.012392,0.75352,0.403582,0.255412,0.129811,0.535999,0.478617,0.199839,0.267872,0.200109,0.848676,1.016412,0.264948,0.313801,0.183951
1768972689.802344,1768972689.8032,111.0,0.0,4373.333496,4372.436035,4359.358887,4372.05127,4371.922852,4374.871582,4372.307617,4365.641113,4374.615234,4346.025879,4458.846191,4531.666504,4408.333496,4433.974121,,,,,,,,,,,,,,,,,,,,,,,,,,,,,,,,,,,,,,,,,,,,,,,,,,,,,,,,,,,,,,,,,,,,,,
1768972689.810152,1768972689.811208,112.0,0.0,4375.512695,4372.307617,4360.897461,4370.641113,4368.333496,4368.717773,4366.282227,4370.512695,4378.333496,4347.563965,4459.615234,4533.717773,4410.128418,4433.717773,,,,,,,,,,,,,,,,,,,,,,,,,,,,,,,,,,,,,,,,,,,,,,,,,,,,,,,,,,,,,,,,,,,,,,
1768972689.817961,1768972689.819016,113.0,0.0,4376.153809,4367.94873,4359.615234,4372.563965,4364.487305,4372.563965,4361.282227,4370.769043,4375.256348,4343.846191,4459.230957,4530.897461,4412.05127,4437.563965,,,,,,,,,,,,,,,,,,,,,,,,,,,,,,,,,,,,,,,,,,,,,,,,,,,,,,,,,,,,,,,,,,,,,,
1768972689.825769,1768972689.826725,114.0,0.0,4372.563965,4365.128418,4357.05127,4371.410156,4368.974121,4378.846191,4368.077148,4367.05127,4372.436035,4342.820313,4459.615234,4530.641113,4409.871582,4431.794922,,,,,,,,,,,,,,,,,,,,,,,,,,,,,,,,,,,,,,,,,,,,,,,,,,,,,,,,,,,,,,,,,,,,,,
1768972689.833578,1768972689.834533,115.0,0.0,4370.512695,4369.487305,4357.820313,4371.922852,4370.512695,4375.641113,4378.077148,4368.846191,4379.615234,4348.846191,4459.871582,4532.179688,4405.897461,4424.871582,,,,,,,,,,,,,,,,,,,,,,,,,,,,,,,,,,,,,,,,,,,,,,,,,,,,,,,,,,,,,,,,,,,,,,
1768972689.841386,1768972689.842542,116.0,0.0,4371.410156,4372.94873,4361.666504,4372.179688,4365.769043,4367.05127,4372.692383,4372.563965,4379.615234,4353.589844,4458.077148,4533.205078,4407.820313,4429.102539,,,,,,,,,,,,,,,,,,,,,,,,,,,,,,,,,,,,,,,,,,,,,,,,,,,,,,,,,,,,,,,,,,,,,,
1768972689.849194,1768972689.85035,117.0,0.0,4371.666504,4372.563965,4365.0,4372.436035,4364.615234,4368.589844,4367.94873,4375.0,4375.769043,4357.820313,4461.666504,4540.769043,4412.05127,4431.922852,,,,,,,,,,,,,,,,,,,,,,,,,,,,,,,,,,,,,,,,,,,,,,,,,,,,,,,,,,,,,,,,,,,,,,
1768972689.857003,1768972689.858258,118.0,0.0,4372.820313,4371.153809,4365.384766,4377.94873,4366.794922,4377.563965,4376.666504,4376.794922,4380.384766,4360.384766,4465.256348,4543.846191,4412.692383,4428.461426,,,,,,,,,,,,,,,,,,,,,,,,,,,,,,,,,,,,,,,,,,,,,,,,,,,,,,,,,,,,,,,,,,,,,,
1768972689.864811,1768972689.866067,119.0,0.0,4373.974121,4368.717773,4362.692383,4379.487305,4366.794922,4372.436035,4375.512695,4372.436035,4381.282227,4357.05127,4462.436035,4533.974121,4412.179688,4430.128418,,,,,,,,,,,,,,,,,,,,,,,,,,,,,,,,,,,,,,,,,,,,,,,,,,,,,,,,,,,,,,,,,,,,,,
1768972689.87262,1768972689.874075,120.0,0.0,4372.436035,4365.769043,4362.692383,4375.512695,4366.922852,4365.512695,4366.666504,4368.589844,4376.153809,4354.871582,4459.487305,4532.820313,4410.256348,4430.256348,,,,,,,,,,,,,,,,,,,,,,,,,,,,,,,,,,,,,,,,,,,,,,,,,,,,,,,,,,,,,,,,,,,,,,
1768972689.880428,1768972689.881883,121.0,0.0,4372.563965,4363.333496,4368.717773,4378.077148,4368.846191,4372.563965,4369.230957,4374.743652,4378.461426,4355.512695,4460.256348,4541.794922,4407.307617,4426.922852,,,,,,,,,,,,,,,,,,,,,,,,,,,,,,,,,,,,,,,,,,,,,,,,,,,,,,,,,,,,,,,,,,,,,,
1768972689.888237,1768972689.889592,122.0,0.0,4377.307617,4364.871582,4370.897461,4382.307617,4369.358887,4372.692383,4373.589844,4377.692383,4379.871582,4355.769043,4464.358887,4544.102539,4408.974121,4432.563965,,,,,,,,,,,,,,,,,,,,,,,,,,,,,,,,,,,,,,,,,,,,,,,,,,,,,,,,,,,,,,,,,,,,,,
1768972689.896045,1768972689.8974,123.0,0.0,4382.307617,4370.897461,4367.179688,4382.94873,4373.205078,4367.692383,4370.641113,4374.615234,4375.384766,4356.794922,4470.897461,4543.461426,4413.846191,4442.94873,,,,,,,,,,,,,,,,,,,,,,,,,,,,,,,,,,,,,,,,,,,,,,,,,,,,,,,,,,,,,,,,,,,,,,
1768972689.903853,1768972689.905409,124.0,0.0,4384.743652,4373.974121,4370.769043,4385.128418,4377.436035,4377.563965,4372.05127,4378.717773,4378.077148,4357.05127,4474.615234,4546.666504,4415.128418,4444.743652,,,,,,,,,,,,,,,,,,,,,,,,,,,,,,,,,,,,,,,,,,,,,,,,,,,,,,,,,,,,,,,,,,,,,,
1768972689.911662,1768972689.913217,125.0,0.0,4385.897461,4372.94873,4376.922852,4385.128418,4376.410156,4383.717773,4378.205078,4381.153809,4383.717773,4356.153809,4472.563965,4548.205078,4413.974121,4442.692383,,,,,,,,,,,,,,,,,,,,,,,,,,,,,,,,,,,,,,,,,,,,,,,,,,,,,,,,,,,,,,,,,,,,,,
1768972689.91947,1768972689.920926,126.0,0.0,4384.102539,4374.487305,4373.077148,4382.179688,4374.358887,4376.666504,4380.256348,4375.897461,4380.769043,4358.974121,4471.922852,4542.820313,4415.0,4444.615234,0.65438,0.540154,0.266619,0.21416,0.166774,1.557338,0.731398,0.25886,0.178671,0.142585,0.969783,0.211518,0.091091,0.105392,0.07903,0.272368,0.297821,0.12811,0.077857,0.075997,0.217215,0.265008,0.158633,0.103319,0.044587,0.432381,0.199504,0.163967,0.11755,0.178092,0.597992,0.284743,0.127229,0.086438,0.113289,0.681873,0.258403,0.311331,0.138798,0.126504,0.665469,0.251785,0.313543,0.154973,0.14153,0.321383,0.251669,0.46186,0.208202,0.094794,1.016659,0.473387,0.383102,0.343747,0.120453,2.550566,0.761219,0.292939,0.252202,0.121606,0.720732,0.532544,0.263193,0.285857,0.189525,1.094572,1.058257,0.331759,0.304342,0.159059
1768972689.927279,1768972689.928734,127.0,0.0,4381.922852,4373.717773,4369.615234,4382.05127,4375.384766,4378.974121,4381.794922,4379.230957,4381.410156,4361.538574,4475.256348,4539.871582,4418.333496,4445.256348,,,,,,,,,,,,,,,,,,,,,,,,,,,,,,,,,,,,,,,,,,,,,,,,,,,,,,,,,,,,,,,,,,,,,,
1768972689.935087,1768972689.936343,0.0,0.0,4381.666504,4366.282227,4374.743652,4380.769043,4374.615234,4384.615234,4384.487305,4387.05127,4389.487305,4359.230957,4476.794922,4546.025879,4417.563965,4444.743652,,,,,,,,,,,,,,,,,,,,,,,,,,,,,,,,,,,,,,,,,,,,,,,,,,,,,,,,,,,,,,,,,,,,,,
1768972689.942896,1768972689.944151,1.0,0.0,4384.871582,4367.563965,4377.820313,4384.487305,4373.205078,4375.128418,4379.487305,4376.666504,4387.307617,4359.102539,4474.487305,4544.871582,4412.179688,4444.743652,,,,,,,,,,,,,,,,,,,,,,,,,,,,,,,,,,,,,,,,,,,,,,,,,,,,,,,,,,,,,,,,,,,,,,
1768972689.950704,1768972689.95186,2.0,0.0,4387.436035,4373.717773,4376.153809,4390.641113,4374.358887,4369.743652,4370.897461,4365.512695,4378.974121,4361.410156,4471.410156,4533.974121,4411.666504,4443.974121,,,,,,,,,,,,,,,,,,,,,,,,,,,,,,,,,,,,,,,,,,,,,,,,,,,,,,,,,,,,,,,,,,,,,,
1768972689.958512,1768972689.959668,3.0,0.0,4384.871582,4365.769043,4373.461426,4385.769043,4375.0,4376.922852,4371.922852,4371.794922,4380.512695,4359.743652,4473.205078,4531.794922,4414.615234,4444.615234,,,,,,,,,,,,,,,,,,,,,,,,,,,,,,,,,,,,,,,,,,,,,,,,,,,,,,,,,,,,,,,,,,,,,,
1768972689.966321,1768972689.967676,4.0,0.0,4381.538574,4355.897461,4372.05127,4379.487305,4375.769043,4377.563965,4376.794922,4376.410156,4382.307617,4357.307617,4473.333496,4535.256348,4414.102539,4444.871582,,,,,,,,,,,,,,,,,,,,,,,,,,,,,,,,,,,,,,,,,,,,,,,,,,,,,,,,,,,,,,,,,,,,,,
1768972689.974129,1768972689.975485,5.0,0.0,4383.077148,4358.333496,4372.436035,4384.487305,4374.487305,4372.692383,4372.179688,4371.410156,4374.871582,4356.794922,4465.512695,4532.436035,4411.282227,4443.589844,,,,,,,,,,,,,,,,,,,,,,,,,,,,,,,,,,,,,,,,,,,,,,,,,,,,,,,,,,,,,,,,,,,,,,
1768972689.981938,1768972689.983193,6.0,0.0,4384.230957,4359.743652,4368.589844,4388.333496,4370.128418,4373.846191,4369.358887,4367.436035,4371.538574,4354.615234,4456.666504,4525.256348,4410.128418,4443.205078,,,,,,,,,,,,,,,,,,,,,,,,,,,,,,,,,,,,,,,,,,,,,,,,,,,,,,,,,,,,,,,,,,,,,,
1768972689.989746,1768972689.991002,7.0,0.0,4377.820313,4356.282227,4362.94873,4383.205078,4371.025879,4376.410156,4372.436035,4369.871582,4374.102539,4356.410156,4462.179688,4521.666504,4412.563965,4443.205078,,,,,,,,,,,,,,,,,,,,,,,,,,,,,,,,,,,,,,,,,,,,,,,,,,,,,,,,,,,,,,,,,,,,,,
1768972689.997555,1768972689.998611,8.0,0.0,4372.307617,4360.512695,4363.461426,4379.743652,4374.743652,4378.461426,4374.615234,4376.025879,4373.077148,4360.0,4469.871582,4520.897461,4415.0,4443.589844,,,,,,,,,,,,,,,,,,,,,,,,,,,,,,,,,,,,,,,,,,,,,,,,,,,,,,,,,,,,,,,,,,,,,,
1768972690.005363,1768972690.006419,9.0,0.0,4377.436035,4363.333496,4365.512695,4381.794922,4374.871582,4379.615234,4377.179688,4381.025879,4374.487305,4356.538574,4465.769043,4521.666504,4413.333496,4443.461426,,,,,,,,,,,,,,,,,,,,,,,,,,,,,,,,,,,,,,,,,,,,,,,,,,,,,,,,,,,,,,,,,,,,,,
1768972690.013172,1768972690.014128,10.0,0.0,4382.820313,4358.589844,4367.563965,4380.769043,4372.307617,4375.0,4377.820313,4380.0,4377.820313,4353.717773,4467.307617,4521.922852,4411.538574,4443.205078,,,,,,,,,,,,,,,,,,,,,,,,,,,,,,,,,,,,,,,,,,,,,,,,,,,,,,,,,,,,,,,,,,,,,,
1768972690.02098,1768972690.021936,11.0,0.0,4376.282227,4355.0,4367.307617,4375.0,4369.871582,4370.769043,4373.077148,4376.282227,4375.256348,4354.871582,4473.974121,4520.256348,4412.692383,4443.846191,,,,,,,,,,,,,,,,,,,,,,,,,,,,,,,,,,,,,,,,,,,,,,,,,,,,,,,,,,,,,,,,,,,,,,
1768972690.028788,1768972690.029944,12.0,0.0,4369.615234,4350.512695,4362.692383,4368.974121,4365.897461,4372.820313,4370.256348,4373.974121,4370.128418,4352.563965,4468.846191,4520.641113,4413.077148,4443.205078,,,,,,,,,,,,,,,,,,,,,,,,,,,,,,,,,,,,,,,,,,,,,,,,,,,,,,,,,,,,,,,,,,,,,,
1768972690.036597,1768972690.037753,13.0,0.0,4373.461426,4347.179688,4360.641113,4370.384766,4364.102539,4373.205078,4371.922852,4375.769043,4374.487305,4353.333496,4461.282227,4528.333496,4412.820313,4443.461426,,,,,,,,,,,,,,,,,,,,,,,,,,,,,,,,,,,,,,,,,,,,,,,,,,,,,,,,,,,,,,,,,,,,,,
1768972690.044405,1768972690.045661,14.0,0.0,4374.102539,4350.256348,4363.589844,4377.179688,4364.871582,4367.307617,4370.384766,4377.692383,4378.717773,4359.487305,4463.461426,4532.05127,4412.307617,4445.769043,0.814581,0.6204,0.367446,0.222032,0.158617,1.22331,0.711208,0.256737,0.189347,0.141126,0.991217,0.231328,0.112574,0.098429,0.073003,0.313924,0.304447,0.167668,0.077478,0.077937,0.203597,0.275565,0.143314,0.08898,0.046513,0.426785,0.238647,0.156073,0.124937,0.174733,0.533452,0.368912,0.145782,0.080847,0.101665,0.780096,0.284408,0.345906,0.123187,0.125616,0.735275,0.271126,0.390828,0.157365,0.130745,0.388114,0.282663,0.469568,0.231189,0.090581,1.018919,0.429662,0.403829,0.332304,0.119677,2.944474,0.734617,0.228675,0.249219,0.116767,0.922834,0.568587,0.340028,0.306635,0.171692,1.285383,1.018217,0.420799,0.292674,0.136656
1768972690.052214,1768972690.053469,15.0,0.0,4370.128418,4355.0,4365.256348,4377.436035,4360.897461,4366.410156,4369.230957,4377.94873,4375.256348,4359.743652,4465.384766,4525.769043,4412.436035,4446.153809,,,,,,,,,,,,,,,,,,,,,,,,,,,,,,,,,,,,,,,,,,,,,,,,,,,,,,,,,,,,,,,,,,,,,,
1768972690.060022,1768972690.061478,16.0,0.0,4374.102539,4357.820313,4363.589844,4371.153809,4358.205078,4372.05127,4371.666504,4381.410156,4374.102539,4355.769043,4463.717773,4526.025879,4414.615234,4443.717773,,,,,,,,,,,,,,,,,,,,,,,,,,,,,,,,,,,,,,,,,,,,,,,,,,,,,,,,,,,,,,,,,,,,,,
1768972690.067831,1768972690.069286,17.0,0.0,4381.025879,4362.436035,4362.05127,4374.230957,4363.077148,4372.820313,4370.0,4380.0,4373.974121,4355.512695,4467.307617,4533.846191,4414.615234,4445.128418,,,,,,,,,,,,,,,,,,,,,,,,,,,,,,,,,,,,,,,,,,,,,,,,,,,,,,,,,,,,,,,,,,,,,,
1768972690.075639,1768972690.077195,18.0,0.0,4381.922852,4367.179688,4362.436035,4380.897461,4368.974121,4371.922852,4368.589844,4375.641113,4372.436035,4357.179688,4472.94873,4537.307617,4415.256348,4448.589844,,,,,,,,,,,,,,,,,,,,,,,,,,,,,,,,,,,,,,,,,,,,,,,,,,,,,,,,,,,,,,,,,,,,,,
1768972690.083448,1768972690.085003,19.0,0.0,4380.128418,4364.871582,4362.179688,4375.769043,4369.102539,4373.205078,4372.307617,4378.589844,4376.666504,4357.94873,4476.794922,4538.846191,4420.384766,4448.461426,,,,,,,,,,,,,,,,,,,,,,,,,,,,,,,,,,,,,,,,,,,,,,,,,,,,,,,,,,,,,,,,,,,,,,
1768972690.091256,1768972690.092612,20.0,0.0,4380.0,4358.333496,4359.871582,4371.282227,4366.410156,4370.769043,4373.077148,4382.94873,4381.794922,4358.589844,4474.615234,4539.102539,4421.410156,4451.538574,,,,,,,,,,,,,,,,,,,,,,,,,,,,,,,,,,,,,,,,,,,,,,,,,,,,,,,,,,,,,,,,,,,,,,
1768972690.099064,1768972690.10042,21.0,0.0,4378.974121,4355.897461,4359.230957,4375.384766,4368.717773,4370.769043,4369.743652,4377.94873,4375.897461,4359.487305,4470.769043,4535.512695,4416.922852,4455.128418,,,,,,,,,,,,,,,,,,,,,,,,,,,,,,,,,,,,,,,,,,,,,,,,,,,,,,,,,,,,,,,,,,,,,,
1768972690.106873,1768972690.108129,22.0,0.0,4378.974121,4357.692383,4363.077148,4374.358887,4370.641113,4377.436035,4371.666504,4374.615234,4371.153809,4357.692383,4472.820313,4531.025879,4414.230957,4453.461426,,,,,,,,,,,,,,,,,,,,,,,,,,,,,,,,,,,,,,,,,,,,,,,,,,,,,,,,,,,,,,,,,,,,,,
1768972690.114681,1768972690.115937,23.0,0.0,4383.333496,4357.307617,4367.692383,4371.282227,4367.307617,4373.974121,4371.666504,4380.897461,4377.436035,4354.102539,4474.230957,4531.025879,4413.205078,4448.589844,,,,,,,,,,,,,,,,,,,,,,,,,,,,,,,,,,,,,,,,,,,,,,,,,,,,,,,,,,,,,,,,,,,,,,
1768972690.12249,1768972690.123546,24.0,0.0,4384.487305,4355.0,4369.230957,4377.05127,4367.692383,4364.358887,4366.794922,4378.846191,4374.102539,4351.282227,4467.94873,4531.282227,4410.897461,4446.538574,,,,,,,,,,,,,,,,,,,,,,,,,,,,,,,,,,,,,,,,,,,,,,,,,,,,,,,,,,,,,,,,,,,,,,
1768972690.130298,1768972690.131354,25.0,0.0,4381.666504,4356.410156,4368.974121,4381.025879,4372.05127,4368.461426,4367.05127,4375.384766,4365.897461,4349.743652,4459.743652,4530.128418,4409.743652,4448.333496,,,,,,,,,,,,,,,,,,,,,,,,,,,,,,,,,,,,,,,,,,,,,,,,,,,,,,,,,,,,,,,,,,,,,,
1768972690.138107,1768972690.139063,26.0,0.0,4380.0,4360.256348,4368.077148,4379.615234,4373.205078,4375.384766,4369.743652,4380.512695,4370.0,4349.358887,4458.846191,4526.025879,4409.487305,4445.769043,,,,,,,,,,,,,,,,,,,,,,,,,,,,,,,,,,,,,,,,,,,,,,,,,,,,,,,,,,,,,,,,,,,,,,
1768972690.145915,1768972690.146871,27.0,0.0,4382.94873,4364.743652,4366.282227,4382.179688,4372.94873,4373.333496,4368.846191,4383.846191,4372.820313,4350.384766,4466.025879,4524.743652,4411.410156,4447.820313,,,,,,,,,,,,,,,,,,,,,,,,,,,,,,,,,,,,,,,,,,,,,,,,,,,,,,,,,,,,,,,,,,,,,,
1768972690.153724,1768972690.15448,28.0,0.0,4387.436035,4367.820313,4366.025879,4385.0,4375.256348,4370.769043,4370.256348,4383.077148,4369.230957,4352.307617,4475.0,4530.512695,4415.384766,4457.820313,,,,,,,,,,,,,,,,,,,,,,,,,,,,,,,,,,,,,,,,,,,,,,,,,,,,,,,,,,,,,,,,,,,,,,
1768972690.161532,1768972690.162288,29.0,0.0,4388.205078,4367.692383,4369.871582,4383.461426,4376.025879,4376.538574,4378.589844,4384.230957,4369.230957,4353.333496,4473.846191,4531.794922,4414.743652,4457.05127,,,,,,,,,,,,,,,,,,,,,,,,,,,,,,,,,,,,,,,,,,,,,,,,,,,,,,,,,,,,,,,,,,,,,,
1768972690.16934,1768972690.170197,30.0,0.0,4385.897461,4363.333496,4373.205078,4383.461426,4374.743652,4382.692383,4382.94873,4382.563965,4367.820313,4349.615234,4461.794922,4522.94873,4410.641113,4446.410156,0.937735,0.702239,0.483645,0.240186,0.149876,1.07874,0.739425,0.309964,0.214436,0.135741,0.959949,0.253798,0.132266,0.091318,0.067106,0.39044,0.291491,0.209049,0.082249,0.078572,0.21244,0.280633,0.125179,0.07432,0.049024,0.42951,0.268482,0.133117,0.13982,0.168756,0.464804,0.449268,0.156975,0.0851,0.092334,0.815656,0.313579,0.356119,0.120293,0.134544,0.772555,0.287502,0.453098,0.168808,0.122875,0.430563,0.299965,0.4388,0.250013,0.084662,0.959055,0.366532,0.414202,0.300593,0.119383,3.071461,0.679828,0.198068,0.245985,0.117376,1.075362,0.573582,0.407531,0.325041,0.147879,1.379229,0.920361,0.509899,0.285177,0.121104
1768972690.177149,1768972690.178005,31.0,0.0,4382.820313,4361.410156,4369.487305,4382.94873,4372.563965,4377.179688,4372.692383,4379.487305,4363.846191,4346.025879,4459.615234,4521.282227,4410.512695,4447.692383,,,,,,,,,,,,,,,,,,,,,,,,,,,,,,,,,,,,,,,,,,,,,,,,,,,,,,,,,,,,,,,,,,,,,,
1768972690.184957,1768972690.185614,32.0,0.0,4383.077148,4363.589844,4365.0,4377.436035,4373.333496,4371.282227,4365.0,4383.077148,4367.692383,4349.743652,4468.333496,4528.333496,4411.410156,4452.307617,,,,,,,,,,,,,,,,,,,,,,,,,,,,,,,,,,,,,,,,,,,,,,,,,,,,,,,,,,,,,,,,,,,,,,
1768972690.192766,1768972690.193422,33.0,0.0,4380.384766,4362.05127,4363.589844,4374.487305,4376.538574,4373.846191,4372.563965,4386.025879,4371.153809,4351.538574,4467.179688,4527.94873,4407.820313,4443.974121,,,,,,,,,,,,,,,,,,,,,,,,,,,,,,,,,,,,,,,,,,,,,,,,,,,,,,,,,,,,,,,,,,,,,,
1768972690.200574,1768972690.201131,34.0,0.0,4377.563965,4361.794922,4364.230957,4374.743652,4374.615234,4374.230957,4372.94873,4380.512695,4365.769043,4347.307617,4458.077148,4519.871582,4403.205078,4439.615234,,,,,,,,,,,,,,,,,,,,,,,,,,,,,,,,,,,,,,,,,,,,,,,,,,,,,,,,,,,,,,,,,,,,,,
1768972690.208383,1768972690.208939,35.0,0.0,4379.487305,4369.102539,4365.897461,4373.589844,4369.487305,4371.282227,4363.333496,4376.922852,4363.589844,4346.025879,4457.692383,4520.384766,4402.820313,4443.077148,,,,,,,,,,,,,,,,,,,,,,,,,,,,,,,,,,,,,,,,,,,,,,,,,,,,,,,,,,,,,,,,,,,,,,
1768972690.216191,1768972690.216548,36.0,0.0,4376.666504,4371.025879,4364.358887,4373.717773,4366.282227,4371.153809,4367.436035,4385.128418,4366.794922,4348.205078,4464.358887,4531.282227,4404.615234,4442.94873,,,,,,,,,,,,,,,,,,,,,,,,,,,,,,,,,,,,,,,,,,,,,,,,,,,,,,,,,,,,,,,,,,,,,,
1768972690.224,1768972690.224356,37.0,0.0,4374.102539,4364.743652,4360.897461,4378.077148,4367.94873,4372.692383,4376.282227,4387.179688,4365.769043,4348.205078,4466.153809,4533.205078,4405.897461,4444.358887,,,,,,,,,,,,,,,,,,,,,,,,,,,,,,,,,,,,,,,,,,,,,,,,,,,,,,,,,,,,,,,,,,,,,,
1768972690.231808,1768972690.232065,38.0,0.0,4380.128418,4363.846191,4363.974121,4382.307617,4372.436035,4376.153809,4371.922852,4377.436035,4365.384766,4348.846191,4463.846191,4526.922852,4405.897461,4448.974121,,,,,,,,,,,,,,,,,,,,,,,,,,,,,,,,,,,,,,,,,,,,,,,,,,,,,,,,,,,,,,,,,,,,,,
1768972690.239617,1768972690.239873,39.0,0.0,4385.256348,4367.436035,4367.94873,4383.717773,4371.538574,4373.205078,4363.333496,4376.025879,4369.615234,4351.282227,4463.846191,4526.666504,4405.512695,4449.102539,,,,,,,,,,,,,,,,,,,,,,,,,,,,,,,,,,,,,,,,,,,,,,,,,,,,,,,,,,,,,,,,,,,,,,
1768972690.247425,1768972690.247881,40.0,0.0,4381.153809,4364.102539,4364.102539,4380.384766,4366.922852,4363.717773,4364.487305,4381.538574,4367.94873,4349.487305,4463.589844,4524.358887,4401.282227,4443.717773,,,,,,,,,,,,,,,,,,,,,,,,,,,,,,,,,,,,,,,,,,,,,,,,,,,,,,,,,,,,,,,,,,,,,,
1768972690.255233,1768972690.25569,41.0,0.0,4376.538574,4359.358887,4359.743652,4373.974121,4366.025879,4365.128418,4369.102539,4385.769043,4366.282227,4345.128418,4461.025879,4521.666504,4394.102539,4440.897461,,,,,,,,,,,,,,,,,,,,,,,,,,,,,,,,,,,,,,,,,,,,,,,,,,,,,,,,,,,,,,,,,,,,,,
1768972690.263042,1768972690.263598,42.0,0.0,4382.820313,4361.538574,4363.205078,4380.256348,4369.358887,4373.077148,4368.333496,4387.05127,4373.974121,4348.846191,4465.384766,4526.794922,4399.871582,4445.128418,,,,,,,,,,,,,,,,,,,,,,,,,,,,,,,,,,,,,,,,,,,,,,,,,,,,,,,,,,,,,,,,,,,,,,
1768972690.27085,1768972690.271407,43.0,0.0,4393.589844,4366.794922,4372.820313,4391.794922,4374.358887,4373.974121,4367.05127,4387.94873,4378.717773,4357.307617,4476.282227,4531.538574,4412.94873,4450.0,,,,,,,,,,,,,,,,,,,,,,,,,,,,,,,,,,,,,,,,,,,,,,,,,,,,,,,,,,,,,,,,,,,,,,
1768972690.278659,1768972690.279415,44.0,0.0,4392.692383,4364.487305,4375.0,4387.563965,4375.641113,4372.94873,4371.025879,4388.974121,4372.94873,4354.743652,4474.743652,4531.410156,4408.717773,4448.461426,,,,,,,,,,,,,,,,,,,,,,,,,,,,,,,,,,,,,,,,,,,,,,,,,,,,,,,,,,,,,,,,,,,,,,
1768972690.286467,1768972690.287223,45.0,0.0,4380.256348,4361.282227,4365.897461,4379.487305,4371.538574,4371.922852,4372.436035,4388.205078,4370.256348,4344.358887,4461.538574,4531.025879,4394.615234,4442.563965,,,,,,,,,,,,,,,,,,,,,,,,,,,,,,,,,,,,,,,,,,,,,,,,,,,,,,,,,,,,,,,,,,,,,,
1768972690.294276,1768972690.295132,46.0,0.0,4378.846191,4366.794922,4364.871582,4384.487305,4372.179688,4370.512695,4370.128418,4385.0,4370.897461,4344.615234,4459.102539,4529.358887,4397.436035,4440.897461,1.012805,0.766331,0.584254,0.261625,0.141137,1.124588,0.80556,0.399203,0.24584,0.12651,0.900173,0.266299,0.146482,0.08448,0.062628,0.510992,0.270377,0.23988,0.090397,0.078563,0.2433,0.281248,0.107996,0.061464,0.051891,0.430865,0.283187,0.103493,0.155789,0.162681,0.401319,0.507029,0.161077,0.096476,0.087209,0.772466,0.327825,0.339929,0.129363,0.152165,0.762573,0.287053,0.487258,0.183242,0.119704,0.435993,0.302538,0.378948,0.259384,0.078486,0.84895,0.295929,0.407777,0.257867,0.119097,2.895644,0.598549,0.1816,0.239652,0.123148,1.133601,0.539687,0.445141,0.334809,0.122074,1.376742,0.794939,0.573014,0.282966,0.113368
1768972690.302084,1768972690.30294,47.0,0.0,4384.487305,4370.128418,4369.487305,4386.666504,4373.205078,4372.94873,4372.05127,4383.846191,4370.0,4352.307617,4467.179688,4523.974121,4405.897461,4443.589844,,,,,,,,,,,,,,,,,,,,,,,,,,,,,,,,,,,,,,,,,,,,,,,,,,,,,,,,,,,,,,,,,,,,,,
1768972690.309893,1768972690.310948,48.0,0.0,4380.0,4364.743652,4364.743652,4377.307617,4367.820313,4371.410156,4372.692383,4388.461426,4373.846191,4352.692383,4466.153809,4527.05127,4402.307617,4442.436035,,,,,,,,,,,,,,,,,,,,,,,,,,,,,,,,,,,,,,,,,,,,,,,,,,,,,,,,,,,,,,,,,,,,,,
1768972690.317701,1768972690.318757,49.0,0.0,4374.102539,4361.666504,4361.410156,4372.307617,4364.871582,4369.487305,4370.769043,4389.102539,4374.230957,4346.282227,4460.897461,4530.897461,4396.153809,4437.436035,,,,,,,,,,,,,,,,,,,,,,,,,,,,,,,,,,,,,,,,,,,,,,,,,,,,,,,,,,,,,,,,,,,,,,
1768972690.325509,1768972690.326465,50.0,0.0,4371.282227,4357.94873,4363.333496,4368.717773,4364.487305,4370.769043,4372.05127,4383.717773,4367.05127,4341.282227,4458.333496,4520.769043,4388.333496,4429.615234,,,,,,,,,,,,,,,,,,,,,,,,,,,,,,,,,,,,,,,,,,,,,,,,,,,,,,,,,,,,,,,,,,,,,,
1768972690.333318,1768972690.334274,51.0,0.0,4368.974121,4349.102539,4361.025879,4364.487305,4362.692383,4366.538574,4371.922852,4383.974121,4366.282227,4341.410156,4455.769043,4514.615234,4379.743652,4423.205078,,,,,,,,,,,,,,,,,,,,,,,,,,,,,,,,,,,,,,,,,,,,,,,,,,,,,,,,,,,,,,,,,,,,,,
1768972690.341126,1768972690.341883,52.0,0.0,4372.94873,4350.0,4362.94873,4372.05127,4365.641113,4369.743652,4374.102539,4390.897461,4375.384766,4348.717773,4462.307617,4525.641113,4389.102539,4431.153809,,,,,,,,,,,,,,,,,,,,,,,,,,,,,,,,,,,,,,,,,,,,,,,,,,,,,,,,,,,,,,,,,,,,,,
1768972690.348935,1768972690.349691,53.0,0.0,4380.0,4356.666504,4371.922852,4383.461426,4369.102539,4375.897461,4379.358887,4393.461426,4381.410156,4360.769043,4475.897461,4538.077148,4408.974121,4445.256348,,,,,,,,,,,,,,,,,,,,,,,,,,,,,,,,,,,,,,,,,,,,,,,,,,,,,,,,,,,,,,,,,,,,,,
1768972690.356743,1768972690.3574,54.0,0.0,4380.256348,4350.769043,4372.307617,4381.922852,4366.025879,4371.538574,4378.333496,4393.077148,4378.717773,4361.538574,4478.461426,4539.230957,4412.179688,4446.025879,,,,,,,,,,,,,,,,,,,,,,,,,,,,,,,,,,,,,,,,,,,,,,,,,,,,,,,,,,,,,,,,,,,,,,
1768972690.364552,1768972690.365208,55.0,0.0,4378.974121,4344.743652,4363.461426,4379.102539,4369.743652,4372.307617,4373.461426,4392.307617,4374.358887,4351.666504,4472.179688,4531.922852,4403.846191,4442.05127,,,,,,,,,,,,,,,,,,,,,,,,,,,,,,,,,,,,,,,,,,,,,,,,,,,,,,,,,,,,,,,,,,,,,,
1768972690.37236,1768972690.373216,56.0,0.0,4378.461426,4345.897461,4359.487305,4382.05127,4375.641113,4377.692383,4372.563965,4390.128418,4373.077148,4350.128418,4473.846191,4527.307617,4401.410156,4445.512695,,,,,,,,,,,,,,,,,,,,,,,,,,,,,,,,,,,,,,,,,,,,,,,,,,,,,,,,,,,,,,,,,,,,,,
1768972690.380169,1768972690.381025,57.0,0.0,4371.666504,4340.128418,4361.922852,4377.94873,4370.256348,4374.230957,4375.256348,4389.615234,4373.717773,4355.512695,4475.512695,4532.179688,4400.897461,4441.282227,,,,,,,,,,,,,,,,,,,,,,,,,,,,,,,,,,,,,,,,,,,,,,,,,,,,,,,,,,,,,,,,,,,,,,
1768972690.387977,1768972690.388733,58.0,0.0,4372.179688,4338.717773,4362.05127,4373.717773,4364.615234,4368.717773,4374.487305,4388.205078,4369.615234,4351.538574,4466.794922,4532.692383,4397.179688,4433.077148,,,,,,,,,,,,,,,,,,,,,,,,,,,,,,,,,,,,,,,,,,,,,,,,,,,,,,,,,,,,,,,,,,,,,,
1768972690.395785,1768972690.396542,59.0,0.0,4382.820313,4350.641113,4362.94873,4379.615234,4366.538574,4368.205078,4367.94873,4383.717773,4363.205078,4343.205078,4460.897461,4526.282227,4395.128418,4438.846191,,,,,,,,,,,,,,,,,,,,,,,,,,,,,,,,,,,,,,,,,,,,,,,,,,,,,,,,,,,,,,,,,,,,,,
1768972690.403594,1768972690.40415,60.0,0.0,4383.589844,4352.820313,4363.589844,4382.307617,4370.128418,4363.846191,4364.871582,4383.846191,4362.820313,4346.410156,4466.666504,4525.512695,4401.538574,4445.897461,,,,,,,,,,,,,,,,,,,,,,,,,,,,,,,,,,,,,,,,,,,,,,,,,,,,,,,,,,,,,,,,,,,,,,
1768972690.411402,1768972690.411959,61.0,0.0,4378.717773,4347.307617,4362.05127,4377.307617,4370.897461,4362.563965,4366.794922,4383.846191,4361.538574,4351.538574,4470.384766,4525.128418,4406.153809,4443.717773,,,,,,,,,,,,,,,,,,,,,,,,,,,,,,,,,,,,,,,,,,,,,,,,,,,,,,,,,,,,,,,,,,,,,,
1768972690.419211,1768972690.419667,62.0,0.0,4381.794922,4352.692383,4362.179688,4377.436035,4370.0,4366.025879,4365.769043,4378.846191,4354.615234,4345.384766,4463.333496,4521.025879,4401.538574,4443.205078,1.045158,0.790604,0.633134,0.276211,0.131968,1.273464,0.875816,0.496564,0.270944,0.114789,0.836043,0.262327,0.149984,0.077621,0.06016,0.667784,0.254377,0.2503,0.098515,0.079126,0.300401,0.277196,0.094122,0.051873,0.05465,0.43066,0.280931,0.07803,0.165227,0.159634,0.350103,0.527356,0.163742,0.110563,0.087321,0.670428,0.317073,0.304344,0.143302,0.173285,0.715294,0.264583,0.489003,0.192519,0.120709,0.408121,0.294057,0.30637,0.255295,0.072754,0.725803,0.231901,0.390066,0.216116,0.119118,2.54044,0.499632,0.166586,0.226591,0.131785,1.072557,0.471353,0.442104,0.330815,0.09916,1.304228,0.667605,0.589396,0.28106,0.111111
1768972690.427019,1768972690.427476,63.0,0.0,4385.769043,4356.794922,4362.820313,4382.179688,4371.794922,4365.897461,4360.384766,4378.077148,4352.692383,4339.871582,4458.205078,4517.563965,4395.641113,4443.717773,,,,,,,,,,,,,,,,,,,,,,,,,,,,,,,,,,,,,,,,,,,,,,,,,,,,,,,,,,,,,,,,,,,,,,
1768972690.434828,1768972690.435484,64.0,0.0,4383.974121,4351.538574,4361.153809,4382.94873,4375.641113,4363.205078,4359.102539,4380.256348,4355.0,4341.922852,4460.641113,4517.692383,4396.922852,4441.282227,,,,,,,,,,,,,,,,,,,,,,,,,,,,,,,,,,,,,,,,,,,,,,,,,,,,,,,,,,,,,,,,,,,,,,
1768972690.442636,1768972690.443292,65.0,0.0,4382.563965,4352.179688,4358.333496,4383.846191,4375.512695,4365.897461,4361.666504,4381.153809,4355.641113,4345.769043,4462.692383,4522.94873,4402.307617,4442.307617,,,,,,,,,,,,,,,,,,,,,,,,,,,,,,,,,,,,,,,,,,,,,,,,,,,,,,,,,,,,,,,,,,,,,,
1768972690.450445,1768972690.451201,66.0,0.0,4381.666504,4358.461426,4358.333496,4384.487305,4370.897461,4371.794922,4367.692383,4385.897461,4359.743652,4347.436035,4462.05127,4530.897461,4404.615234,4444.358887,,,,,,,,,,,,,,,,,,,,,,,,,,,,,,,,,,,,,,,,,,,,,,,,,,,,,,,,,,,,,,,,,,,,,,
1768972690.458253,1768972690.459009,67.0,0.0,4380.641113,4358.333496,4356.922852,4381.538574,4368.077148,4370.384766,4370.641113,4389.102539,4366.666504,4345.769043,4462.436035,4533.461426,4400.0,4443.974121,,,,,,,,,,,,,,,,,,,,,,,,,,,,,,,,,,,,,,,,,,,,,,,,,,,,,,,,,,,,,,,,,,,,,,
1768972690.466061,1768972690.467017,68.0,0.0,4380.0,4356.282227,4351.538574,4380.128418,4369.358887,4366.153809,4362.307617,4384.743652,4366.153809,4342.563965,4461.538574,4530.641113,4394.743652,4443.077148,,,,,,,,,,,,,,,,,,,,,,,,,,,,,,,,,,,,,,,,,,,,,,,,,,,,,,,,,,,,,,,,,,,,,,
1768972690.47387,1768972690.474826,69.0,0.0,4380.384766,4358.205078,4350.512695,4384.102539,4372.94873,4366.153809,4354.487305,4379.358887,4358.589844,4342.05127,4459.871582,4525.641113,4400.897461,4441.025879,,,,,,,,,,,,,,,,,,,,,,,,,,,,,,,,,,,,,,,,,,,,,,,,,,,,,,,,,,,,,,,,,,,,,,
1768972690.481678,1768972690.482734,70.0,0.0,4383.333496,4360.0,4353.077148,4382.563965,4372.179688,4366.410156,4359.743652,4380.0,4358.205078,4343.205078,4460.769043,4520.128418,4408.589844,4442.05127,,,,,,,,,,,,,,,,,,,,,,,,,,,,,,,,,,,,,,,,,,,,,,,,,,,,,,,,,,,,,,,,,,,,,,
1768972690.489487,1768972690.490543,71.0,0.0,4381.282227,4354.487305,4355.384766,4372.820313,4366.538574,4367.436035,4368.077148,4378.461426,4357.820313,4343.205078,4459.871582,4519.743652,4405.897461,4443.589844,,,,,,,,,,,,,,,,,,,,,,,,,,,,,,,,,,,,,,,,,,,,,,,,,,,,,,,,,,,,,,,,,,,,,,
1768972690.497295,1768972690.498551,72.0,0.0,4375.128418,4349.230957,4354.871582,4370.769043,4364.230957,4369.487305,4368.205078,4374.871582,4352.05127,4342.820313,4455.897461,4521.538574,4401.025879,4437.179688,,,,,,,,,,,,,,,,,,,,,,,,,,,,,,,,,,,,,,,,,,,,,,,,,,,,,,,,,,,,,,,,,,,,,,
1768972690.505104,1768972690.506359,73.0,0.0,4372.179688,4356.794922,4351.794922,4378.974121,4368.589844,4371.153809,4362.820313,4372.94873,4352.307617,4342.179688,4453.846191,4513.461426,4398.333496,4428.461426,,,,,,,,,,,,,,,,,,,,,,,,,,,,,,,,,,,,,,,,,,,,,,,,,,,,,,,,,,,,,,,,,,,,,,
1768972690.512912,1768972690.514068,74.0,0.0,4370.897461,4364.487305,4347.179688,4379.230957,4370.256348,4373.205078,4358.205078,4372.05127,4356.410156,4342.820313,4456.153809,4507.692383,4396.922852,4426.282227,,,,,,,,,,,,,,,,,,,,,,,,,,,,,,,,,,,,,,,,,,,,,,,,,,,,,,,,,,,,,,,,,,,,,,
1768972690.520721,1768972690.521876,75.0,0.0,4370.512695,4360.512695,4347.307617,4375.769043,4368.589844,4373.846191,4356.922852,4375.769043,4357.820313,4344.230957,4456.282227,4513.846191,4397.563965,4427.436035,,,,,,,,,,,,,,,,,,,,,,,,,,,,,,,,,,,,,,,,,,,,,,,,,,,,,,,,,,,,,,,,,,,,,,
1768972690.528529,1768972690.529485,76.0,0.0,4371.794922,4352.820313,4354.743652,4376.282227,4363.974121,4372.94873,4361.410156,4377.692383,4356.025879,4342.05127,4451.153809,4515.769043,4393.717773,4427.179688,,,,,,,,,,,,,,,,,,,,,,,,,,,,,,,,,,,,,,,,,,,,,,,,,,,,,,,,,,,,,,,,,,,,,,
1768972690.536337,1768972690.537293,77.0,0.0,4373.205078,4351.538574,4360.384766,4376.922852,4361.666504,4373.717773,4365.897461,4376.282227,4355.384766,4339.615234,4449.871582,4512.307617,4386.410156,4427.436035,,,,,,,,,,,,,,,,,,,,,,,,,,,,,,,,,,,,,,,,,,,,,,,,,,,,,,,,,,,,,,,,,,,,,,
1768972690.544146,1768972690.545002,78.0,0.0,4375.0,4357.436035,4361.410156,4378.846191,4367.179688,4374.358887,4364.871582,4377.692383,4360.769043,4341.282227,4458.461426,4515.512695,4391.666504,4428.461426,1.048738,0.761468,0.609954,0.27492,0.121837,1.405696,0.904777,0.577086,0.278635,0.102776,0.782248,0.24194,0.140797,0.070957,0.059836,0.835629,0.25284,0.239748,0.103498,0.081499,0.379533,0.267936,0.083638,0.046253,0.056625,0.425599,0.263368,0.064951,0.163202,0.161007,0.318134,0.505371,0.170883,0.122954,0.092169,0.551,0.283333,0.261533,0.152583,0.190612,0.652557,0.226003,0.462634,0.189806,0.123345,0.367313,0.279667,0.237898,0.237006,0.067767,0.631199,0.189065,0.370586,0.183734,0.120533,2.158492,0.39459,0.151314,0.205529,0.140012,0.91389,0.386157,0.402176,0.310698,0.083034,1.194065,0.553753,0.556557,0.271526,0.110244
1768972690.551954,1768972690.55281,79.0,0.0,4373.589844,4354.871582,4359.743652,4378.461426,4367.179688,4374.487305,4364.487305,4379.615234,4365.897461,4342.563965,4463.974121,4519.871582,4399.487305,4427.820313,,,,,,,,,,,,,,,,,,,,,,,,,,,,,,,,,,,,,,,,,,,,,,,,,,,,,,,,,,,,,,,,,,,,,,
1768972690.559763,1768972690.560819,80.0,0.0,4371.410156,4348.333496,4360.0,4375.512695,4361.538574,4375.512695,4367.05127,4374.487305,4360.512695,4340.256348,4459.230957,4516.282227,4393.205078,4427.563965,,,,,,,,,,,,,,,,,,,,,,,,,,,,,,,,,,,,,,,,,,,,,,,,,,,,,,,,,,,,,,,,,,,,,,
1768972690.567571,1768972690.568627,81.0,0.0,4376.282227,4348.333496,4362.692383,4378.333496,4361.794922,4372.94873,4362.307617,4366.666504,4355.769043,4337.692383,4454.743652,4512.436035,4388.333496,4428.333496,,,,,,,,,,,,,,,,,,,,,,,,,,,,,,,,,,,,,,,,,,,,,,,,,,,,,,,,,,,,,,,,,,,,,,
1768972690.575379,1768972690.576536,82.0,0.0,4381.410156,4346.025879,4362.94873,4381.794922,4364.615234,4369.230957,4355.512695,4372.307617,4365.641113,4339.487305,4456.153809,4517.820313,4392.436035,4429.102539,,,,,,,,,,,,,,,,,,,,,,,,,,,,,,,,,,,,,,,,,,,,,,,,,,,,,,,,,,,,,,,,,,,,,,
1768972690.583188,1768972690.584344,83.0,0.0,4380.897461,4342.563965,4365.512695,4381.153809,4367.692383,4375.128418,4364.871582,4381.794922,4374.102539,4346.794922,4462.563965,4524.230957,4398.717773,4436.025879,,,,,,,,,,,,,,,,,,,,,,,,,,,,,,,,,,,,,,,,,,,,,,,,,,,,,,,,,,,,,,,,,,,,,,
1768972690.590996,1768972690.591953,84.0,0.0,4383.077148,4350.128418,4371.922852,4384.358887,4372.563965,4378.974121,4378.589844,4373.589844,4365.128418,4350.769043,4468.205078,4518.846191,4402.307617,4444.230957,,,,,,,,,,,,,,,,,,,,,,,,,,,,,,,,,,,,,,,,,,,,,,,,,,,,,,,,,,,,,,,,,,,,,,
1768972690.598805,1768972690.599761,85.0,0.0,4384.102539,4355.512695,4369.358887,4385.769043,4370.128418,4369.487305,4375.0,4362.563965,4354.615234,4345.0,4461.410156,4511.153809,4398.717773,4441.666504,,,,,,,,,,,,,,,,,,,,,,,,,,,,,,,,,,,,,,,,,,,,,,,,,,,,,,,,,,,,,,,,,,,,,,
1768972690.606613,1768972690.60747,86.0,0.0,4381.153809,4351.025879,4361.794922,4381.025879,4362.94873,4366.922852,4369.615234,4370.128418,4361.282227,4340.0,4457.179688,4519.358887,4394.487305,4438.974121,,,,,,,,,,,,,,,,,,,,,,,,,,,,,,,,,,,,,,,,,,,,,,,,,,,,,,,,,,,,,,,,,,,,,,
1768972690.614422,1768972690.615278,87.0,0.0,4379.615234,4349.230957,4365.512695,4380.769043,4364.230957,4372.820313,4372.94873,4379.102539,4370.384766,4345.384766,4470.128418,4530.641113,4399.871582,4446.794922,,,,,,,,,,,,,,,,,,,,,,,,,,,,,,,,,,,,,,,,,,,,,,,,,,,,,,,,,,,,,,,,,,,,,,
1768972690.62223,1768972690.622887,88.0,0.0,4376.538574,4346.666504,4366.282227,4381.410156,4367.692383,4371.153809,4370.641113,4374.102539,4364.743652,4348.205078,4474.615234,4529.102539,4404.871582,4447.563965,,,,,,,,,,,,,,,,,,,,,,,,,,,,,,,,,,,,,,,,,,,,,,,,,,,,,,,,,,,,,,,,,,,,,,
1768972690.630039,1768972690.630695,89.0,0.0,4376.153809,4346.922852,4357.436035,4381.922852,4368.333496,4370.512695,4368.974121,4373.461426,4361.538574,4342.820313,4464.871582,4529.358887,4401.025879,4441.025879,,,,,,,,,,,,,,,,,,,,,,,,,,,,,,,,,,,,,,,,,,,,,,,,,,,,,,,,,,,,,,,,,,,,,,
1768972690.637847,1768972690.638603,90.0,0.0,4381.922852,4355.384766,4360.128418,4383.974121,4367.563965,4371.282227,4372.436035,4379.871582,4366.794922,4342.436035,4464.871582,4535.512695,4401.153809,4444.358887,,,,,,,,,,,,,,,,,,,,,,,,,,,,,,,,,,,,,,,,,,,,,,,,,,,,,,,,,,,,,,,,,,,,,,
1768972690.645656,1768972690.646412,91.0,0.0,4384.743652,4359.871582,4365.384766,4381.410156,4365.512695,4365.128418,4367.94873,4377.94873,4363.205078,4343.589844,4467.692383,4535.0,4401.538574,4447.179688,,,,,,,,,,,,,,,,,,,,,,,,,,,,,,,,,,,,,,,,,,,,,,,,,,,,,,,,,,,,,,,,,,,,,,
1768972690.653464,1768972690.65442,92.0,0.0,4379.358887,4358.717773,4360.641113,4379.358887,4365.384766,4367.692383,4366.282227,4376.025879,4360.384766,4342.179688,4465.641113,4535.641113,4396.282227,4442.179688,,,,,,,,,,,,,,,,,,,,,,,,,,,,,,,,,,,,,,,,,,,,,,,,,,,,,,,,,,,,,,,,,,,,,,
1768972690.661272,1768972690.662229,93.0,0.0,4374.871582,4356.153809,4359.743652,4381.410156,4366.538574,4375.769043,4373.717773,4382.692383,4366.153809,4347.692383,4473.205078,4542.436035,4400.769043,4442.820313,,,,,,,,,,,,,,,,,,,,,,,,,,,,,,,,,,,,,,,,,,,,,,,,,,,,,,,,,,,,,,,,,,,,,,
1768972690.669081,1768972690.670137,94.0,0.0,4377.692383,4353.461426,4362.563965,4381.410156,4365.641113,4372.179688,4373.205078,4381.538574,4364.230957,4351.153809,4473.589844,4542.307617,4408.846191,4447.94873,1.036667,0.6783,0.521276,0.255461,0.111456,1.438574,0.857022,0.62499,0.264896,0.092766,0.740433,0.20914,0.123511,0.066161,0.061632,0.975511,0.266426,0.217529,0.104512,0.086312,0.470848,0.253212,0.076224,0.043988,0.057465,0.411314,0.237236,0.066627,0.14902,0.164741,0.309593,0.44793,0.18503,0.130569,0.100035,0.449383,0.241513,0.221701,0.150865,0.197914,0.599723,0.189054,0.41499,0.172826,0.124778,0.332359,0.264963,0.184059,0.208425,0.064632,0.58631,0.179853,0.356079,0.163383,0.124814,1.867892,0.299371,0.13998,0.180531,0.145765,0.696619,0.306204,0.345398,0.280169,0.075535,1.068492,0.455606,0.490323,0.251749,0.108085
1768972690.676889,1768972690.677945,95.0,0.0,4382.692383,4355.897461,4361.538574,4380.897461,4366.922852,4372.436035,4369.230957,4371.025879,4359.230957,4344.615234,4460.128418,4528.974121,4403.333496,4446.153809,,,,,,,,,,,,,,,,,,,,,,,,,,,,,,,,,,,,,,,,,,,,,,,,,,,,,,,,,,,,,,,,,,,,,,
1768972690.684698,1768972690.685954,96.0,0.0,4383.333496,4359.615234,4361.025879,4381.410156,4370.0,4375.641113,4372.563965,4368.846191,4363.717773,4344.487305,4461.794922,4515.512695,4394.358887,4441.410156,,,,,,,,,,,,,,,,,,,,,,,,,,,,,,,,,,,,,,,,,,,,,,,,,,,,,,,,,,,,,,,,,,,,,,
1768972690.692506,1768972690.693762,97.0,0.0,4380.512695,4353.205078,4363.846191,4378.717773,4366.922852,4368.461426,4373.205078,4376.538574,4368.974121,4354.102539,4476.922852,4522.94873,4402.307617,4444.743652,,,,,,,,,,,,,,,,,,,,,,,,,,,,,,,,,,,,,,,,,,,,,,,,,,,,,,,,,,,,,,,,,,,,,,
1768972690.700315,1768972690.701471,98.0,0.0,4380.0,4346.666504,4367.692383,4376.922852,4363.333496,4367.307617,4373.717773,4381.666504,4367.563965,4353.974121,4480.897461,4536.153809,4409.615234,4450.384766,,,,,,,,,,,,,,,,,,,,,,,,,,,,,,,,,,,,,,,,,,,,,,,,,,,,,,,,,,,,,,,,,,,,,,
1768972690.708123,1768972690.709279,99.0,0.0,4381.025879,4349.487305,4371.282227,4380.897461,4366.282227,4376.282227,4379.487305,4380.641113,4365.256348,4343.589844,4470.128418,4527.563965,4401.794922,4444.743652,,,,,,,,,,,,,,,,,,,,,,,,,,,,,,,,,,,,,,,,,,,,,,,,,,,,,,,,,,,,,,,,,,,,,,
1768972690.715932,1768972690.716888,100.0,0.0,4381.538574,4348.846191,4369.615234,4383.717773,4371.922852,4376.025879,4380.0,4376.153809,4362.307617,4339.102539,4459.743652,4513.589844,4394.358887,4431.282227,,,,,,,,,,,,,,,,,,,,,,,,,,,,,,,,,,,,,,,,,,,,,,,,,,,,,,,,,,,,,,,,,,,,,,
1768972690.72374,1768972690.724696,101.0,0.0,4383.077148,4343.205078,4359.743652,4379.102539,4372.307617,4368.077148,4371.538574,4368.205078,4359.358887,4344.358887,4460.0,4514.230957,4397.307617,4431.025879,,,,,,,,,,,,,,,,,,,,,,,,,,,,,,,,,,,,,,,,,,,,,,,,,,,,,,,,,,,,,,,,,,,,,,
1768972690.731548,1768972690.732405,102.0,0.0,4380.0,4337.563965,4354.743652,4371.794922,4365.256348,4364.615234,4364.358887,4366.282227,4359.102539,4347.436035,4464.358887,4523.461426,4401.666504,4442.820313,,,,,,,,,,,,,,,,,,,,,,,,,,,,,,,,,,,,,,,,,,,,,,,,,,,,,,,,,,,,,,,,,,,,,,
1768972690.739357,1768972690.740213,103.0,0.0,4374.102539,4331.794922,4356.538574,4367.820313,4358.846191,4366.025879,4363.589844,4370.641113,4357.05127,4341.922852,4460.641113,4527.307617,4395.641113,4441.282227,,,,,,,,,,,,,,,,,,,,,,,,,,,,,,,,,,,,,,,,,,,,,,,,,,,,,,,,,,,,,,,,,,,,,,
1768972690.747165,1768972690.747822,104.0,0.0,4371.025879,4328.717773,4357.94873,4366.282227,4360.641113,4368.846191,4364.358887,4373.846191,4360.128418,4338.461426,4458.717773,4521.410156,4389.487305,4431.922852,,,,,,,,,,,,,,,,,,,,,,,,,,,,,,,,,,,,,,,,,,,,,,,,,,,,,,,,,,,,,,,,,,,,,,
1768972690.754974,1768972690.75563,105.0,0.0,4368.589844,4332.307617,4354.743652,4366.410156,4365.641113,4374.230957,4369.871582,4377.94873,4363.077148,4337.692383,4456.025879,4512.94873,4387.05127,4426.282227,,,,,,,,,,,,,,,,,,,,,,,,,,,,,,,,,,,,,,,,,,,,,,,,,,,,,,,,,,,,,,,,,,,,,,
1768972690.762782,1768972690.763339,106.0,0.0,4363.077148,4336.153809,4346.794922,4368.846191,4365.897461,4371.538574,4374.230957,4378.205078,4357.820313,4333.461426,4444.615234,4503.205078,4379.358887,4414.743652,,,,,,,,,,,,,,,,,,,,,,,,,,,,,,,,,,,,,,,,,,,,,,,,,,,,,,,,,,,,,,,,,,,,,,
1768972690.770591,1768972690.771147,107.0,0.0,4362.820313,4337.820313,4347.05127,4371.922852,4366.410156,4367.563965,4372.820313,4374.743652,4357.05127,4335.512695,4447.179688,4504.358887,4379.871582,4413.974121,,,,,,,,,,,,,,,,,,,,,,,,,,,,,,,,,,,,,,,,,,,,,,,,,,,,,,,,,,,,,,,,,,,,,,
1768972690.778399,1768972690.779156,108.0,0.0,4369.615234,4340.641113,4355.256348,4372.820313,4369.102539,4371.282227,4372.692383,4376.410156,4367.692383,4340.641113,4461.153809,4523.077148,4391.922852,4429.615234,,,,,,,,,,,,,,,,,,,,,,,,,,,,,,,,,,,,,,,,,,,,,,,,,,,,,,,,,,,,,,,,,,,,,,
1768972690.786208,1768972690.786964,109.0,0.0,4374.230957,4341.153809,4356.282227,4372.307617,4368.077148,4376.025879,4374.871582,4375.769043,4367.820313,4338.077148,4462.820313,4532.05127,4393.077148,4434.230957,,,,,,,,,,,,,,,,,,,,,,,,,,,,,,,,,,,,,,,,,,,,,,,,,,,,,,,,,,,,,,,,,,,,,,
1768972690.794016,1768972690.794673,110.0,0.0,4375.256348,4340.128418,4354.615234,4372.563965,4366.538574,4373.589844,4373.461426,4370.897461,4357.820313,4334.487305,4457.307617,4521.538574,4386.666504,4427.94873,1.020083,0.560773,0.395931,0.222236,0.102195,1.380454,0.738546,0.633966,0.234076,0.086434,0.704908,0.170217,0.105732,0.065241,0.06514,1.052271,0.291583,0.197181,0.103166,0.093233,0.553985,0.235299,0.072974,0.043697,0.057668,0.384323,0.209933,0.080137,0.126613,0.1664,0.321579,0.370471,0.201922,0.133884,0.108958,0.378444,0.211274,0.189497,0.138079,0.192424,0.567813,0.175901,0.353315,0.14534,0.123882,0.3081,0.252973,0.148943,0.176809,0.065223,0.583264,0.207995,0.348489,0.152976,0.133636,1.698667,0.238196,0.13768,0.157604,0.149038,0.480828,0.252639,0.296804,0.2508,0.077029,0.957104,0.375839,0.414945,0.22543,0.103947
1768972690.801824,1768972690.802481,111.0,0.0,4370.384766,4339.358887,4353.846191,4375.384766,4366.922852,4368.974121,4371.922852,4374.102539,4361.666504,4338.717773,4459.871582,4516.794922,4391.922852,4424.871582,,,,,,,,,,,,,,,,,,,,,,,,,,,,,,,,,,,,,,,,,,,,,,,,,,,,,,,,,,,,,,,,,,,,,,
1768972690.809633,1768972690.81009,112.0,0.0,4360.256348,4336.153809,4347.563965,4378.846191,4366.666504,4370.641113,4373.717773,4378.461426,4366.282227,4341.282227,4460.897461,4523.589844,4391.282227,4420.641113,,,,,,,,,,,,,,,,,,,,,,,,,,,,,,,,,,,,,,,,,,,,,,,,,,,,,,,,,,,,,,,,,,,,,,
1768972690.817441,1768972690.817898,113.0,0.0,4359.230957,4335.0,4349.102539,4379.743652,4366.025879,4373.461426,4368.846191,4370.512695,4357.436035,4337.436035,4456.794922,4523.846191,4381.153809,4420.256348,,,,,,,,,,,,,,,,,,,,,,,,,,,,,,,,,,,,,,,,,,,,,,,,,,,,,,,,,,,,,,,,,,,,,,
1768972690.82525,1768972690.825607,114.0,0.0,4372.94873,4339.743652,4361.025879,4382.05127,4366.282227,4372.436035,4364.871582,4363.846191,4353.333496,4335.0,4456.794922,4518.589844,4381.282227,4427.436035,,,,,,,,,,,,,,,,,,,,,,,,,,,,,,,,,,,,,,,,,,,,,,,,,,,,,,,,,,,,,,,,,,,,,,
1768972690.833058,1768972690.833415,115.0,0.0,4379.358887,4343.717773,4361.538574,4381.282227,4363.333496,4369.358887,4368.205078,4369.871582,4359.743652,4335.0,4458.717773,4518.846191,4389.358887,4428.461426,,,,,,,,,,,,,,,,,,,,,,,,,,,,,,,,,,,,,,,,,,,,,,,,,,,,,,,,,,,,,,,,,,,,,,
1768972690.840867,1768972690.841423,116.0,0.0,4367.05127,4341.666504,4350.641113,4375.256348,4362.307617,4365.769043,4369.230957,4375.769043,4360.769043,4335.641113,4459.358887,4522.179688,4393.461426,4423.589844,,,,,,,,,,,,,,,,,,,,,,,,,,,,,,,,,,,,,,,,,,,,,,,,,,,,,,,,,,,,,,,,,,,,,,
1768972690.848675,1768972690.849232,117.0,0.0,4360.384766,4345.512695,4343.589844,4374.102539,4364.743652,4362.436035,4365.897461,4371.666504,4355.0,4336.666504,4458.589844,4522.307617,4395.512695,4422.820313,,,,,,,,,,,,,,,,,,,,,,,,,,,,,,,,,,,,,,,,,,,,,,,,,,,,,,,,,,,,,,,,,,,,,,
1768972690.856484,1768972690.85714,118.0,0.0,4365.256348,4356.794922,4345.769043,4376.794922,4360.897461,4361.538574,4359.871582,4365.128418,4354.102539,4339.615234,4458.077148,4518.846191,4398.717773,4425.128418,,,,,,,,,,,,,,,,,,,,,,,,,,,,,,,,,,,,,,,,,,,,,,,,,,,,,,,,,,,,,,,,,,,,,,
1768972690.864292,1768972690.864949,119.0,0.0,4365.897461,4358.333496,4348.205078,4373.461426,4356.922852,4366.282227,4358.077148,4365.769043,4356.025879,4339.615234,4458.077148,4517.94873,4397.436035,4426.666504,,,,,,,,,,,,,,,,,,,,,,,,,,,,,,,,,,,,,,,,,,,,,,,,,,,,,,,,,,,,,,,,,,,,,,
1768972690.8721,1768972690.872957,120.0,0.0,4365.256348,4351.666504,4345.0,4369.102539,4360.769043,4367.820313,4362.179688,4371.922852,4358.461426,4335.769043,4459.743652,4521.538574,4394.487305,4426.922852,,,,,,,,,,,,,,,,,,,,,,,,,,,,,,,,,,,,,,,,,,,,,,,,,,,,,,,,,,,,,,,,,,,,,,
1768972690.879909,1768972690.880765,121.0,0.0,4370.897461,4354.615234,4345.384766,4371.538574,4359.358887,4363.333496,4361.922852,4371.538574,4359.871582,4337.94873,4460.256348,4521.153809,4401.922852,4429.871582,,,,,,,,,,,,,,,,,,,,,,,,,,,,,,,,,,,,,,,,,,,,,,,,,,,,,,,,,,,,,,,,,,,,,,
1768972690.887717,1768972690.888474,122.0,0.0,4366.794922,4358.846191,4347.820313,4368.589844,4353.589844,4361.922852,4356.282227,4365.384766,4356.153809,4341.410156,4459.615234,4511.410156,4408.589844,4430.897461,,,,,,,,,,,,,,,,,,,,,,,,,,,,,,,,,,,,,,,,,,,,,,,,,,,,,,,,,,,,,,,,,,,,,,
1768972690.895526,1768972690.896282,123.0,0.0,4354.487305,4352.179688,4341.025879,4359.230957,4356.410156,4366.538574,4357.179688,4363.589844,4351.153809,4337.820313,4459.487305,4506.025879,4403.974121,4426.025879,,,,,,,,,,,,,,,,,,,,,,,,,,,,,,,,,,,,,,,,,,,,,,,,,,,,,,,,,,,,,,,,,,,,,,
1768972690.903334,1768972690.903891,124.0,0.0,4356.922852,4349.102539,4335.512695,4360.0,4359.358887,4366.794922,4361.282227,4363.717773,4350.0,4334.230957,4454.358887,4508.589844,4397.179688,4423.974121,,,,,,,,,,,,,,,,,,,,,,,,,,,,,,,,,,,,,,,,,,,,,,,,,,,,,,,,,,,,,,,,,,,,,,
1768972690.911143,1768972690.911699,125.0,0.0,4367.94873,4353.333496,4341.538574,4367.05127,4356.025879,4357.179688,4358.461426,4364.743652,4352.436035,4337.307617,4450.0,4509.743652,4397.692383,4426.282227,,,,,,,,,,,,,,,,,,,,,,,,,,,,,,,,,,,,,,,,,,,,,,,,,,,,,,,,,,,,,,,,,,,,,,
1768972690.918951,1768972690.919408,126.0,0.0,4371.538574,4356.794922,4346.410156,4369.487305,4359.102539,4354.743652,4356.025879,4370.512695,4356.922852,4342.05127,4455.384766,4507.692383,4404.871582,4429.230957,1.005235,0.438849,0.272939,0.186517,0.095626,1.247972,0.587491,0.603575,0.199221,0.084474,0.676161,0.135936,0.094093,0.070346,0.069601,1.045673,0.318419,0.188282,0.103241,0.10078,0.607862,0.2157,0.075102,0.0451,0.058307,0.348364,0.189234,0.098895,0.102455,0.162197,0.344732,0.295729,0.212207,0.136487,0.117004,0.331056,0.206898,0.164378,0.120931,0.17635,0.548323,0.203875,0.285851,0.115777,0.122274,0.28874,0.244435,0.13112,0.149057,0.071566,0.599742,0.267923,0.343635,0.148926,0.14866,1.620214,0.229711,0.147059,0.144173,0.152591,0.322262,0.235893,0.274619,0.234291,0.087905,0.898182,0.320862,0.355436,0.201925,0.0991
1768972690.92676,1768972690.927216,127.0,0.0,4367.05127,4359.615234,4343.846191,4368.205078,4363.589844,4364.230957,4360.384766,4370.0,4354.743652,4340.384766,4460.128418,4503.077148,4411.410156,4428.205078,,,,,,,,,,,,,,,,,,,,,,,,,,,,,,,,,,,,,,,,,,,,,,,,,,,,,,,,,,,,,,,,,,,,,,
1768972690.934568,1768972690.934825,0.0,0.0,4363.974121,4358.461426,4340.641113,4366.410156,4361.794922,4365.769043,4362.563965,4367.05127,4352.436035,4336.666504,4458.717773,4502.436035,4412.05127,4429.102539,,,,,,,,,,,,,,,,,,,,,,,,,,,,,,,,,,,,,,,,,,,,,,,,,,,,,,,,,,,,,,,,,,,,,,
1768972690.942377,1768972690.942633,1.0,0.0,4371.410156,4359.871582,4342.820313,4368.846191,4362.179688,4362.307617,4362.692383,4374.230957,4360.897461,4340.769043,4461.153809,4512.692383,4411.666504,4434.743652,,,,,,,,,,,,,,,,,,,,,,,,,,,,,,,,,,,,,,,,,,,,,,,,,,,,,,,,,,,,,,,,,,,,,,
1768972690.950185,1768972690.950342,2.0,0.0,4381.153809,4373.461426,4352.563965,4375.769043,4366.153809,4365.128418,4366.794922,4375.0,4361.025879,4341.794922,4462.307617,4520.769043,4411.922852,4436.794922,,,,,,,,,,,,,,,,,,,,,,,,,,,,,,,,,,,,,,,,,,,,,,,,,,,,,,,,,,,,,,,,,,,,,,
1768972690.957993,1768972690.95815,3.0,0.0,4380.897461,4380.256348,4359.871582,4376.025879,4365.512695,4367.820313,4372.436035,4368.205078,4349.230957,4332.692383,4457.820313,4519.615234,4405.512695,4433.333496,,,,,,,,,,,,,,,,,,,,,,,,,,,,,,,,,,,,,,,,,,,,,,,,,,,,,,,,,,,,,,,,,,,,,,
1768972690.965802,1768972690.966159,4.0,0.0,4375.769043,4372.94873,4356.538574,4373.717773,4364.102539,4367.820313,4371.282227,4370.0,4352.307617,4330.384766,4457.05127,4516.538574,4401.666504,4430.384766,,,,,,,,,,,,,,,,,,,,,,,,,,,,,,,,,,,,,,,,,,,,,,,,,,,,,,,,,,,,,,,,,,,,,,
1768972690.97361,1768972690.973967,5.0,0.0,4376.025879,4373.205078,4352.436035,4378.974121,4366.282227,4367.05127,4365.641113,4372.692383,4361.153809,4337.436035,4458.461426,4515.641113,4406.153809,4428.461426,,,,,,,,,,,,,,,,,,,,,,,,,,,,,,,,,,,,,,,,,,,,,,,,,,,,,,,,,,,,,,,,,,,,,,
1768972690.981419,1768972690.981875,6.0,0.0,4373.589844,4376.410156,4350.769043,4380.769043,4366.025879,4363.461426,4362.692383,4368.717773,4355.512695,4339.358887,4458.205078,4513.077148,4406.666504,4428.077148,,,,,,,,,,,,,,,,,,,,,,,,,,,,,,,,,,,,,,,,,,,,,,,,,,,,,,,,,,,,,,,,,,,,,,
1768972690.989227,1768972690.989684,7.0,0.0,4367.436035,4372.05127,4351.666504,4378.846191,4363.205078,4360.512695,4366.282227,4370.256348,4353.461426,4337.307617,4460.0,4502.179688,4402.820313,4428.717773,,,,,,,,,,,,,,,,,,,,,,,,,,,,,,,,,,,,,,,,,,,,,,,,,,,,,,,,,,,,,,,,,,,,,,
1768972690.997036,1768972690.997293,8.0,0.0,4367.820313,4373.846191,4352.94873,4380.769043,4366.666504,4368.589844,4372.05127,4380.897461,4363.205078,4339.358887,4460.256348,4489.615234,4403.846191,4426.410156,,,,,,,,,,,,,,,,,,,,,,,,,,,,,,,,,,,,,,,,,,,,,,,,,,,,,,,,,,,,,,,,,,,,,,
1768972691.004844,1768972691.005101,9.0,0.0,4373.717773,4377.307617,4350.897461,4379.871582,4370.128418,4375.512695,4370.128418,4382.179688,4365.384766,4342.436035,4458.974121,4486.410156,4410.128418,4429.871582,,,,,,,,,,,,,,,,,,,,,,,,,,,,,,,,,,,,,,,,,,,,,,,,,,,,,,,,,,,,,,,,,,,,,,
1768972691.012653,1768972691.01281,10.0,0.0,4381.794922,4376.153809,4355.512695,4380.512695,4365.384766,4375.769043,4370.641113,4375.128418,4360.384766,4344.871582,4466.538574,4493.077148,4415.512695,4442.307617,,,,,,,,,,,,,,,,,,,,,,,,,,,,,,,,,,,,,,,,,,,,,,,,,,,,,,,,,,,,,,,,,,,,,,
1768972691.020461,1768972691.020618,11.0,0.0,4383.589844,4374.230957,4362.05127,4384.487305,4362.820313,4373.461426,4375.641113,4375.128418,4356.538574,4343.461426,4473.333496,4497.820313,4414.358887,4447.692383,,,,,,,,,,,,,,,,,,,,,,,,,,,,,,,,,,,,,,,,,,,,,,,,,,,,,,,,,,,,,,,,,,,,,,
1768972691.028269,1768972691.028626,12.0,0.0,4373.333496,4364.230957,4352.307617,4379.102539,4365.0,4362.820313,4367.307617,4380.0,4356.922852,4339.230957,4463.077148,4487.179688,4405.512695,4437.820313,,,,,,,,,,,,,,,,,,,,,,,,,,,,,,,,,,,,,,,,,,,,,,,,,,,,,,,,,,,,,,,,,,,,,,
1768972691.036078,1768972691.036435,13.0,0.0,4365.769043,4357.692383,4341.538574,4374.487305,4367.692383,4360.897461,4360.512695,4379.230957,4360.384766,4340.384766,4452.820313,4474.871582,4400.256348,4431.153809,,,,,,,,,,,,,,,,,,,,,,,,,,,,,,,,,,,,,,,,,,,,,,,,,,,,,,,,,,,,,,,,,,,,,,
1768972691.043886,1768972691.044343,14.0,0.0,4373.333496,4370.0,4353.333496,4384.102539,4369.102539,4375.512695,4369.358887,4377.436035,4364.743652,4349.358887,4465.0,4480.128418,4407.820313,4440.0,0.989744,0.339831,0.181256,0.16167,0.093514,1.129632,0.443503,0.540756,0.174151,0.086722,0.655572,0.114868,0.090756,0.083587,0.074427,0.966419,0.335205,0.191901,0.107964,0.106817,0.612367,0.194461,0.083083,0.049339,0.060188,0.308814,0.176055,0.115162,0.082604,0.151355,0.362145,0.240166,0.208806,0.143626,0.122741,0.286433,0.227893,0.144362,0.109513,0.155951,0.52569,0.271607,0.221125,0.093246,0.123237,0.263561,0.23904,0.124102,0.129111,0.084498,0.61003,0.346191,0.332231,0.150527,0.170135,1.575216,0.27735,0.16848,0.149727,0.160846,0.256735,0.253205,0.280536,0.237547,0.108233,0.921849,0.297467,0.319856,0.193948,0.096456
1768972691.051695,1768972691.052151,15.0,0.0,4382.179688,4378.717773,4366.794922,4391.282227,4363.974121,4375.128418,4372.94873,4385.512695,4369.230957,4355.641113,4479.358887,4490.384766,4417.179688,4448.974121,,,,,,,,,,,,,,,,,,,,,,,,,,,,,,,,,,,,,,,,,,,,,,,,,,,,,,,,,,,,,,,,,,,,,,
1768972691.059503,1768972691.06016,16.0,0.0,4379.102539,4373.461426,4362.94873,4388.461426,4359.487305,4359.102539,4364.615234,4383.974121,4365.128418,4347.563965,4470.641113,4484.358887,4411.666504,4443.333496,,,,,,,,,,,,,,,,,,,,,,,,,,,,,,,,,,,,,,,,,,,,,,,,,,,,,,,,,,,,,,,,,,,,,,
1768972691.067312,1768972691.067968,17.0,0.0,4372.563965,4373.205078,4357.692383,4384.743652,4361.153809,4361.538574,4364.102539,4372.692383,4357.307617,4338.717773,4456.410156,4474.871582,4399.230957,4431.538574,,,,,,,,,,,,,,,,,,,,,,,,,,,,,,,,,,,,,,,,,,,,,,,,,,,,,,,,,,,,,,,,,,,,,,
1768972691.07512,1768972691.075877,18.0,0.0,4371.922852,4376.538574,4357.436035,4382.94873,4362.692383,4373.077148,4368.077148,4375.256348,4357.692383,4341.666504,4455.384766,4479.358887,4394.102539,4427.179688,,,,,,,,,,,,,,,,,,,,,,,,,,,,,,,,,,,,,,,,,,,,,,,,,,,,,,,,,,,,,,,,,,,,,,
1768972691.082929,1768972691.083685,19.0,0.0,4374.487305,4373.717773,4356.410156,4383.589844,4361.794922,4369.871582,4363.205078,4377.179688,4358.846191,4343.974121,4458.974121,4482.94873,4394.615234,4428.077148,,,,,,,,,,,,,,,,,,,,,,,,,,,,,,,,,,,,,,,,,,,,,,,,,,,,,,,,,,,,,,,,,,,,,,
1768972691.090737,1768972691.091294,20.0,0.0,4373.461426,4371.282227,4355.128418,4380.769043,4362.307617,4363.846191,4358.974121,4370.128418,4353.589844,4338.205078,4456.153809,4477.563965,4395.256348,4428.589844,,,,,,,,,,,,,,,,,,,,,,,,,,,,,,,,,,,,,,,,,,,,,,,,,,,,,,,,,,,,,,,,,,,,,,
1768972691.098545,1768972691.099102,21.0,0.0,4368.589844,4371.410156,4353.333496,4372.820313,4363.205078,4362.820313,4360.384766,4371.410156,4351.153809,4335.641113,4454.743652,4475.897461,4393.717773,4427.94873,,,,,,,,,,,,,,,,,,,,,,,,,,,,,,,,,,,,,,,,,,,,,,,,,,,,,,,,,,,,,,,,,,,,,,
1768972691.106354,1768972691.106811,22.0,0.0,4366.666504,4371.794922,4350.512695,4372.179688,4362.179688,4361.282227,4362.94873,4375.641113,4357.179688,4341.153809,4457.692383,4478.717773,4393.461426,4428.461426,,,,,,,,,,,,,,,,,,,,,,,,,,,,,,,,,,,,,,,,,,,,,,,,,,,,,,,,,,,,,,,,,,,,,,
1768972691.114162,1768972691.114619,23.0,0.0,4367.179688,4373.461426,4351.153809,4377.563965,4360.256348,4359.871582,4363.461426,4374.230957,4359.230957,4343.974121,4458.077148,4480.128418,4394.615234,4430.384766,,,,,,,,,,,,,,,,,,,,,,,,,,,,,,,,,,,,,,,,,,,,,,,,,,,,,,,,,,,,,,,,,,,,,,
1768972691.121971,1768972691.122228,24.0,0.0,4365.128418,4376.922852,4352.05127,4378.974121,4358.077148,4358.974121,4365.0,4377.94873,4358.077148,4339.871582,4455.384766,4482.692383,4394.230957,4428.333496,,,,,,,,,,,,,,,,,,,,,,,,,,,,,,,,,,,,,,,,,,,,,,,,,,,,,,,,,,,,,,,,,,,,,,
1768972691.129779,1768972691.130036,25.0,0.0,4368.589844,4384.487305,4354.230957,4377.563965,4360.769043,4364.871582,4367.05127,4376.794922,4358.461426,4340.512695,4455.897461,4487.692383,4393.974121,4428.461426,,,,,,,,,,,,,,,,,,,,,,,,,,,,,,,,,,,,,,,,,,,,,,,,,,,,,,,,,,,,,,,,,,,,,,
1768972691.137588,1768972691.137745,26.0,0.0,4374.102539,4388.717773,4357.179688,4376.153809,4364.871582,4366.666504,4364.871582,4368.205078,4356.282227,4344.743652,4459.102539,4489.230957,4394.871582,4432.05127,,,,,,,,,,,,,,,,,,,,,,,,,,,,,,,,,,,,,,,,,,,,,,,,,,,,,,,,,,,,,,,,,,,,,,
1768972691.145396,1768972691.145553,27.0,0.0,4372.820313,4388.077148,4355.128418,4376.153809,4366.025879,4358.333496,4362.563965,4370.0,4354.487305,4342.563965,4457.436035,4487.05127,4395.384766,4432.94873,,,,,,,,,,,,,,,,,,,,,,,,,,,,,,,,,,,,,,,,,,,,,,,,,,,,,,,,,,,,,,,,,,,,,,
1768972691.153205,1768972691.153561,28.0,0.0,4374.615234,4387.94873,4355.512695,4380.897461,4365.0,4360.897461,4365.897461,4371.410156,4354.358887,4342.436035,4458.589844,4489.871582,4396.025879,4436.282227,,,,,,,,,,,,,,,,,,,,,,,,,,,,,,,,,,,,,,,,,,,,,,,,,,,,,,,,,,,,,,,,,,,,,,
1768972691.161013,1768972691.16137,29.0,0.0,4381.153809,4386.025879,4360.641113,4382.05127,4362.05127,4367.820313,4369.230957,4368.077148,4356.025879,4347.94873,4460.897461,4495.0,4398.333496,4440.0,,,,,,,,,,,,,,,,,,,,,,,,,,,,,,,,,,,,,,,,,,,,,,,,,,,,,,,,,,,,,,,,,,,,,,
1768972691.168821,1768972691.169278,30.0,0.0,4382.179688,4379.230957,4362.436035,4379.615234,4361.282227,4362.94873,4370.256348,4376.410156,4362.563965,4351.025879,4461.666504,4497.820313,4398.846191,4439.102539,0.962612,0.279545,0.131684,0.15818,0.095866,1.091063,0.340853,0.460078,0.166242,0.091932,0.646408,0.11358,0.09241,0.106658,0.079374,0.857742,0.338165,0.200382,0.117266,0.108936,0.56115,0.173081,0.093992,0.057282,0.063292,0.277552,0.166972,0.123508,0.070792,0.136481,0.367396,0.210926,0.189853,0.158726,0.125221,0.235063,0.262013,0.129382,0.111021,0.138258,0.494842,0.356773,0.167261,0.082277,0.129094,0.230519,0.23502,0.120516,0.116205,0.102045,0.599258,0.421311,0.307673,0.157029,0.195202,1.54332,0.371142,0.204951,0.180998,0.176916,0.288598,0.288022,0.305307,0.256257,0.135441,1.026007,0.301802,0.303186,0.208968,0.098079
1768972691.17663,1768972691.177087,31.0,0.0,4377.94873,4375.128418,4360.641113,4380.128418,4363.974121,4365.769043,4376.794922,4384.743652,4370.256348,4353.589844,4468.461426,4502.307617,4399.487305,4440.128418,,,,,,,,,,,,,,,,,,,,,,,,,,,,,,,,,,,,,,,,,,,,,,,,,,,,,,,,,,,,,,,,,,,,,,
1768972691.184438,1768972691.185095,32.0,0.0,4373.205078,4375.512695,4360.769043,4377.436035,4366.410156,4375.641113,4381.794922,4381.025879,4373.846191,4357.307617,4473.333496,4505.256348,4402.563965,4442.692383,,,,,,,,,,,,,,,,,,,,,,,,,,,,,,,,,,,,,,,,,,,,,,,,,,,,,,,,,,,,,,,,,,,,,,
1768972691.192247,1768972691.192903,33.0,0.0,4371.794922,4373.974121,4359.743652,4374.743652,4364.358887,4365.641113,4373.717773,4380.256348,4373.717773,4354.871582,4469.871582,4505.769043,4401.666504,4442.692383,,,,,,,,,,,,,,,,,,,,,,,,,,,,,,,,,,,,,,,,,,,,,,,,,,,,,,,,,,,,,,,,,,,,,,
1768972691.200055,1768972691.200812,34.0,0.0,4374.487305,4373.589844,4353.461426,4379.230957,4360.384766,4357.436035,4366.794922,4380.769043,4369.230957,4350.897461,4464.358887,4503.333496,4397.820313,4440.641113,,,,,,,,,,,,,,,,,,,,,,,,,,,,,,,,,,,,,,,,,,,,,,,,,,,,,,,,,,,,,,,,,,,,,,
1768972691.207863,1768972691.20862,35.0,0.0,4374.230957,4379.487305,4347.692383,4379.615234,4364.102539,4371.025879,4371.153809,4377.179688,4367.692383,4350.384766,4462.94873,4498.717773,4397.94873,4439.102539,,,,,,,,,,,,,,,,,,,,,,,,,,,,,,,,,,,,,,,,,,,,,,,,,,,,,,,,,,,,,,,,,,,,,,
1768972691.215672,1768972691.216229,36.0,0.0,4369.230957,4384.358887,4347.692383,4373.205078,4366.666504,4375.641113,4374.743652,4379.871582,4372.179688,4347.692383,4462.179688,4493.717773,4398.589844,4437.692383,,,,,,,,,,,,,,,,,,,,,,,,,,,,,,,,,,,,,,,,,,,,,,,,,,,,,,,,,,,,,,,,,,,,,,
1768972691.22348,1768972691.224037,37.0,0.0,4370.0,4381.666504,4351.538574,4376.538574,4362.563965,4371.794922,4372.179688,4380.512695,4372.563965,4348.846191,4463.205078,4492.05127,4400.0,4441.922852,,,,,,,,,,,,,,,,,,,,,,,,,,,,,,,,,,,,,,,,,,,,,,,,,,,,,,,,,,,,,,,,,,,,,,
1768972691.231289,1768972691.231946,38.0,0.0,4373.717773,4380.769043,4357.179688,4384.230957,4364.871582,4373.077148,4370.769043,4371.538574,4367.307617,4352.94873,4464.230957,4493.461426,4403.589844,4444.102539,,,,,,,,,,,,,,,,,,,,,,,,,,,,,,,,,,,,,,,,,,,,,,,,,,,,,,,,,,,,,,,,,,,,,,
1768972691.239097,1768972691.239754,39.0,0.0,4372.307617,4384.487305,4356.922852,4381.922852,4369.743652,4368.205078,4371.666504,4367.436035,4366.666504,4347.563965,4460.128418,4491.538574,4402.436035,4435.641113,,,,,,,,,,,,,,,,,,,,,,,,,,,,,,,,,,,,,,,,,,,,,,,,,,,,,,,,,,,,,,,,,,,,,,
1768972691.246906,1768972691.247762,40.0,0.0,4368.461426,4381.025879,4349.871582,4376.153809,4367.307617,4365.256348,4370.641113,4371.666504,4369.871582,4340.128418,4456.538574,4486.410156,4396.666504,4426.794922,,,,,,,,,,,,,,,,,,,,,,,,,,,,,,,,,,,,,,,,,,,,,,,,,,,,,,,,,,,,,,,,,,,,,,
1768972691.254714,1768972691.255571,41.0,0.0,4366.666504,4372.820313,4352.692383,4374.743652,4363.333496,4374.743652,4370.0,4372.179688,4370.384766,4342.563965,4455.512695,4487.05127,4395.256348,4426.922852,,,,,,,,,,,,,,,,,,,,,,,,,,,,,,,,,,,,,,,,,,,,,,,,,,,,,,,,,,,,,,,,,,,,,,
1768972691.262523,1768972691.263279,42.0,0.0,4368.205078,4373.205078,4359.102539,4378.333496,4363.461426,4376.410156,4371.025879,4371.282227,4371.153809,4344.487305,4458.077148,4493.717773,4396.025879,4429.615234,,,,,,,,,,,,,,,,,,,,,,,,,,,,,,,,,,,,,,,,,,,,,,,,,,,,,,,,,,,,,,,,,,,,,,
1768972691.270331,1768972691.271088,43.0,0.0,4370.897461,4377.436035,4354.487305,4381.153809,4362.563965,4366.538574,4369.230957,4373.333496,4371.282227,4341.153809,4460.0,4493.205078,4395.897461,4430.0,,,,,,,,,,,,,,,,,,,,,,,,,,,,,,,,,,,,,,,,,,,,,,,,,,,,,,,,,,,,,,,,,,,,,,
1768972691.278139,1768972691.278896,44.0,0.0,4367.563965,4366.410156,4349.358887,4375.897461,4360.256348,4364.230957,4365.641113,4377.05127,4376.794922,4346.410156,4459.743652,4490.769043,4398.333496,4430.897461,,,,,,,,,,,,,,,,,,,,,,,,,,,,,,,,,,,,,,,,,,,,,,,,,,,,,,,,,,,,,,,,,,,,,,
1768972691.285948,1768972691.286705,45.0,0.0,4362.307617,4357.307617,4351.666504,4370.128418,4359.230957,4363.846191,4363.205078,4376.538574,4381.025879,4354.487305,4461.282227,4495.256348,4398.333496,4429.358887,,,,,,,,,,,,,,,,,,,,,,,,,,,,,,,,,,,,,,,,,,,,,,,,,,,,,,,,,,,,,,,,,,,,,,
1768972691.293756,1768972691.294413,46.0,0.0,4371.794922,4365.384766,4355.0,4374.230957,4360.256348,4359.615234,4366.153809,4369.615234,4370.384766,4348.077148,4461.025879,4499.487305,4397.179688,4430.128418,0.909509,0.259249,0.118913,0.179157,0.101715,1.164194,0.30056,0.37634,0.174042,0.098251,0.646123,0.137174,0.092718,0.139519,0.08508,0.775314,0.330524,0.201168,0.127579,0.105886,0.474626,0.152508,0.103172,0.068137,0.066549,0.267404,0.157415,0.124527,0.068252,0.12289,0.3667,0.206297,0.162539,0.181311,0.124133,0.185481,0.29086,0.120994,0.126097,0.127995,0.449542,0.427791,0.131938,0.081891,0.139598,0.195865,0.229336,0.117603,0.106586,0.120087,0.569944,0.47061,0.272052,0.16574,0.219028,1.521489,0.48568,0.25514,0.233724,0.200747,0.387635,0.319458,0.33692,0.277498,0.163888,1.164982,0.320625,0.297512,0.243729,0.104452
1768972691.301565,1768972691.302222,47.0,0.0,4384.615234,4367.94873,4356.153809,4381.153809,4359.743652,4362.436035,4367.692383,4367.436035,4363.205078,4341.794922,4459.230957,4505.769043,4404.358887,4441.538574,,,,,,,,,,,,,,,,,,,,,,,,,,,,,,,,,,,,,,,,,,,,,,,,,,,,,,,,,,,,,,,,,,,,,,
1768972691.309373,1768972691.30983,48.0,0.0,4376.922852,4357.436035,4353.846191,4378.205078,4355.641113,4362.436035,4361.410156,4371.025879,4370.641113,4347.563965,4457.94873,4506.025879,4407.179688,4447.05127,,,,,,,,,,,,,,,,,,,,,,,,,,,,,,,,,,,,,,,,,,,,,,,,,,,,,,,,,,,,,,,,,,,,,,
1768972691.317182,1768972691.317639,49.0,0.0,4369.743652,4355.128418,4351.025879,4373.333496,4357.307617,4356.153809,4359.487305,4368.205078,4371.153809,4348.717773,4458.205078,4494.487305,4400.641113,4441.282227,,,,,,,,,,,,,,,,,,,,,,,,,,,,,,,,,,,,,,,,,,,,,,,,,,,,,,,,,,,,,,,,,,,,,,
1768972691.32499,1768972691.325547,50.0,0.0,4379.743652,4360.256348,4354.102539,4378.205078,4363.461426,4359.230957,4366.153809,4362.307617,4361.410156,4341.025879,4458.589844,4491.282227,4400.128418,4443.077148,,,,,,,,,,,,,,,,,,,,,,,,,,,,,,,,,,,,,,,,,,,,,,,,,,,,,,,,,,,,,,,,,,,,,,
1768972691.332799,1768972691.333355,51.0,0.0,4380.256348,4350.384766,4354.487305,4381.666504,4359.871582,4365.897461,4366.666504,4369.743652,4368.077148,4339.487305,4458.205078,4501.922852,4402.563965,4445.256348,,,,,,,,,,,,,,,,,,,,,,,,,,,,,,,,,,,,,,,,,,,,,,,,,,,,,,,,,,,,,,,,,,,,,,
1768972691.340607,1768972691.341364,52.0,0.0,4367.179688,4338.846191,4348.589844,4375.256348,4355.512695,4366.153809,4365.641113,4377.563965,4372.94873,4340.512695,4457.820313,4501.922852,4396.794922,4432.820313,,,,,,,,,,,,,,,,,,,,,,,,,,,,,,,,,,,,,,,,,,,,,,,,,,,,,,,,,,,,,,,,,,,,,,
1768972691.348415,1768972691.349172,53.0,0.0,4362.563965,4342.563965,4348.717773,4374.358887,4361.666504,4365.384766,4371.922852,4366.922852,4359.743652,4337.820313,4456.538574,4488.589844,4393.846191,4424.615234,,,,,,,,,,,,,,,,,,,,,,,,,,,,,,,,,,,,,,,,,,,,,,,,,,,,,,,,,,,,,,,,,,,,,,
1768972691.356224,1768972691.357081,54.0,0.0,4365.0,4350.512695,4354.487305,4380.769043,4365.256348,4361.282227,4366.922852,4361.922852,4360.384766,4338.077148,4456.153809,4489.487305,4396.410156,4432.563965,,,,,,,,,,,,,,,,,,,,,,,,,,,,,,,,,,,,,,,,,,,,,,,,,,,,,,,,,,,,,,,,,,,,,,
1768972691.364032,1768972691.364889,55.0,0.0,4366.538574,4351.153809,4356.282227,4380.512695,4360.512695,4358.717773,4358.333496,4369.743652,4376.153809,4341.666504,4458.461426,4500.128418,4396.153809,4441.794922,,,,,,,,,,,,,,,,,,,,,,,,,,,,,,,,,,,,,,,,,,,,,,,,,,,,,,,,,,,,,,,,,,,,,,
1768972691.371841,1768972691.372897,56.0,0.0,4372.307617,4353.589844,4356.025879,4379.358887,4362.563965,4370.769043,4367.692383,4372.436035,4376.794922,4345.0,4462.179688,4503.205078,4400.128418,4445.384766,,,,,,,,,,,,,,,,,,,,,,,,,,,,,,,,,,,,,,,,,,,,,,,,,,,,,,,,,,,,,,,,,,,,,,
1768972691.379649,1768972691.380706,57.0,0.0,4375.256348,4359.102539,4356.794922,4381.794922,4370.512695,4376.282227,4372.307617,4371.410156,4366.025879,4343.974121,4462.05127,4502.820313,4402.563965,4442.436035,,,,,,,,,,,,,,,,,,,,,,,,,,,,,,,,,,,,,,,,,,,,,,,,,,,,,,,,,,,,,,,,,,,,,,
1768972691.387458,1768972691.388614,58.0,0.0,4370.512695,4355.128418,4355.512695,4379.743652,4367.94873,4362.692383,4360.641113,4370.897461,4365.128418,4340.384766,4458.717773,4500.256348,4396.410156,4436.025879,,,,,,,,,,,,,,,,,,,,,,,,,,,,,,,,,,,,,,,,,,,,,,,,,,,,,,,,,,,,,,,,,,,,,,
1768972691.395266,1768972691.396422,59.0,0.0,4369.230957,4351.153809,4358.717773,4378.077148,4359.871582,4354.230957,4359.230957,4371.922852,4367.820313,4339.487305,4459.487305,4498.205078,4395.0,4438.461426,,,,,,,,,,,,,,,,,,,,,,,,,,,,,,,,,,,,,,,,,,,,,,,,,,,,,,,,,,,,,,,,,,,,,,
1768972691.403075,1768972691.404431,60.0,0.0,4371.922852,4355.512695,4362.05127,4380.0,4360.384766,4361.794922,4371.410156,4372.692383,4364.743652,4339.230957,4461.282227,4496.153809,4397.563965,4442.820313,,,,,,,,,,,,,,,,,,,,,,,,,,,,,,,,,,,,,,,,,,,,,,,,,,,,,,,,,,,,,,,,,,,,,,
1768972691.410883,1768972691.412239,61.0,0.0,4372.820313,4357.307617,4357.179688,4381.794922,4366.922852,4366.794922,4375.512695,4369.743652,4362.307617,4341.153809,4459.743652,4490.897461,4396.282227,4438.974121,,,,,,,,,,,,,,,,,,,,,,,,,,,,,,,,,,,,,,,,,,,,,,,,,,,,,,,,,,,,,,,,,,,,,,
1768972691.418692,1768972691.420147,62.0,0.0,4373.333496,4355.256348,4353.589844,4381.410156,4367.94873,4359.230957,4372.307617,4368.974121,4363.589844,4343.077148,4458.846191,4492.94873,4395.512695,4438.205078,0.82301,0.269694,0.125606,0.218471,0.1098,1.302143,0.318392,0.301998,0.188852,0.103935,0.645986,0.186571,0.08604,0.179628,0.092517,0.756731,0.31905,0.186089,0.134021,0.098662,0.384339,0.131531,0.105862,0.079367,0.068381,0.284099,0.142142,0.121609,0.074866,0.116913,0.375492,0.216878,0.136793,0.205953,0.119892,0.15623,0.298829,0.12146,0.149885,0.125969,0.399327,0.457098,0.120368,0.088744,0.151694,0.176406,0.219602,0.114947,0.097172,0.134304,0.540899,0.480176,0.235571,0.176497,0.236877,1.535927,0.594037,0.314023,0.294524,0.228646,0.511087,0.331515,0.360937,0.289227,0.186397,1.283144,0.34065,0.29012,0.286687,0.114172
1768972691.4265,1768972691.427956,63.0,0.0,4373.846191,4354.230957,4354.743652,4380.0,4364.487305,4356.922852,4371.025879,4371.025879,4365.256348,4341.153809,4460.769043,4498.974121,4397.563965,4445.128418,,,,,,,,,,,,,,,,,,,,,,,,,,,,,,,,,,,,,,,,,,,,,,,,,,,,,,,,,,,,,,,,,,,,,,
1768972691.434308,1768972691.435864,64.0,0.0,4373.461426,4354.615234,4357.307617,4383.333496,4365.384766,4365.641113,4372.94873,4368.717773,4366.153809,4340.128418,4462.820313,4498.717773,4401.025879,4447.05127,,,,,,,,,,,,,,,,,,,,,,,,,,,,,,,,,,,,,,,,,,,,,,,,,,,,,,,,,,,,,,,,,,,,,,
1768972691.442117,1768972691.443673,65.0,0.0,4375.256348,4355.641113,4361.025879,4389.102539,4370.512695,4368.589844,4373.333496,4367.94873,4365.769043,4342.820313,4463.846191,4499.358887,4407.436035,4445.384766,,,,,,,,,,,,,,,,,,,,,,,,,,,,,,,,,,,,,,,,,,,,,,,,,,,,,,,,,,,,,,,,,,,,,,
1768972691.449925,1768972691.451381,66.0,0.0,4375.512695,4357.05127,4358.589844,4389.743652,4370.512695,4363.717773,4372.820313,4374.358887,4366.410156,4344.230957,4463.589844,4503.333496,4407.307617,4445.128418,,,,,,,,,,,,,,,,,,,,,,,,,,,,,,,,,,,,,,,,,,,,,,,,,,,,,,,,,,,,,,,,,,,,,,
1768972691.457734,1768972691.45919,67.0,0.0,4374.358887,4355.897461,4355.128418,4386.410156,4365.0,4363.333496,4371.410156,4375.0,4366.794922,4343.461426,4460.641113,4497.436035,4398.333496,4443.205078,,,,,,,,,,,,,,,,,,,,,,,,,,,,,,,,,,,,,,,,,,,,,,,,,,,,,,,,,,,,,,,,,,,,,,
1768972691.465542,1768972691.466798,68.0,0.0,4377.692383,4353.333496,4360.0,4386.538574,4368.205078,4368.205078,4368.205078,4372.436035,4363.077148,4342.820313,4458.717773,4487.820313,4396.538574,4444.358887,,,,,,,,,,,,,,,,,,,,,,,,,,,,,,,,,,,,,,,,,,,,,,,,,,,,,,,,,,,,,,,,,,,,,,
1768972691.473351,1768972691.474607,69.0,0.0,4381.282227,4351.538574,4362.436035,4386.794922,4374.102539,4368.846191,4367.436035,4372.692383,4357.692383,4343.077148,4461.922852,4488.077148,4399.487305,4445.384766,,,,,,,,,,,,,,,,,,,,,,,,,,,,,,,,,,,,,,,,,,,,,,,,,,,,,,,,,,,,,,,,,,,,,,
1768972691.481159,1768972691.482315,70.0,0.0,4382.692383,4352.05127,4358.589844,4385.769043,4372.179688,4365.0,4370.0,4372.563965,4358.333496,4346.153809,4472.563965,4489.615234,4396.025879,4443.205078,,,,,,,,,,,,,,,,,,,,,,,,,,,,,,,,,,,,,,,,,,,,,,,,,,,,,,,,,,,,,,,,,,,,,,
1768972691.488968,1768972691.490124,71.0,0.0,4383.205078,4354.615234,4359.615234,4386.410156,4370.897461,4365.897461,4372.307617,4376.410156,4365.256348,4350.256348,4486.922852,4492.692383,4394.358887,4442.307617,,,,,,,,,,,,,,,,,,,,,,,,,,,,,,,,,,,,,,,,,,,,,,,,,,,,,,,,,,,,,,,,,,,,,,
1768972691.496776,1768972691.498132,72.0,0.0,4381.153809,4353.205078,4361.153809,4384.743652,4370.128418,4368.974121,4370.384766,4380.0,4365.897461,4349.358887,4493.846191,4501.410156,4398.077148,4444.102539,,,,,,,,,,,,,,,,,,,,,,,,,,,,,,,,,,,,,,,,,,,,,,,,,,,,,,,,,,,,,,,,,,,,,,
1768972691.504584,1768972691.50594,73.0,0.0,4378.974121,4348.461426,4359.487305,4380.641113,4366.538574,4371.153809,4372.94873,4376.538574,4362.05127,4345.0,4493.974121,4503.333496,4400.256348,4444.487305,,,,,,,,,,,,,,,,,,,,,,,,,,,,,,,,,,,,,,,,,,,,,,,,,,,,,,,,,,,,,,,,,,,,,,
1768972691.512393,1768972691.513649,74.0,0.0,4380.384766,4349.615234,4359.230957,4380.641113,4368.461426,4374.102539,4379.487305,4372.179688,4364.102539,4343.461426,4494.230957,4498.717773,4398.974121,4444.102539,,,,,,,,,,,,,,,,,,,,,,,,,,,,,,,,,,,,,,,,,,,,,,,,,,,,,,,,,,,,,,,,,,,,,,
1768972691.520201,1768972691.521457,75.0,0.0,4380.512695,4352.820313,4361.153809,4383.333496,4372.692383,4368.333496,4375.384766,4376.666504,4370.384766,4347.179688,4495.769043,4500.0,4397.05127,4445.641113,,,,,,,,,,,,,,,,,,,,,,,,,,,,,,,,,,,,,,,,,,,,,,,,,,,,,,,,,,,,,,,,,,,,,,
1768972691.52801,1768972691.529066,76.0,0.0,4379.487305,4348.205078,4360.512695,4379.743652,4368.589844,4358.077148,4365.641113,4384.743652,4375.512695,4350.769043,4495.512695,4504.743652,4395.512695,4446.538574,,,,,,,,,,,,,,,,,,,,,,,,,,,,,,,,,,,,,,,,,,,,,,,,,,,,,,,,,,,,,,,,,,,,,,
1768972691.535818,1768972691.536875,77.0,0.0,4380.897461,4342.05127,4357.563965,4374.358887,4365.641113,4361.282227,4365.641113,4382.692383,4374.871582,4351.666504,4494.102539,4506.282227,4397.563965,4447.563965,,,,,,,,,,,,,,,,,,,,,,,,,,,,,,,,,,,,,,,,,,,,,,,,,,,,,,,,,,,,,,,,,,,,,,
1768972691.543627,1768972691.544583,78.0,0.0,4378.717773,4343.717773,4355.384766,4374.102539,4368.077148,4370.128418,4373.205078,4375.128418,4368.846191,4350.128418,4493.846191,4506.025879,4399.102539,4449.871582,0.716791,0.300812,0.135975,0.262896,0.119509,1.439651,0.377474,0.247851,0.199931,0.108214,0.634335,0.257864,0.071231,0.221529,0.101911,0.801065,0.310439,0.155997,0.132773,0.090336,0.325361,0.110308,0.099514,0.087455,0.067618,0.326199,0.122251,0.118544,0.089757,0.122522,0.412663,0.230174,0.120332,0.224705,0.113603,0.161298,0.284188,0.130714,0.174291,0.129534,0.358632,0.437637,0.132347,0.098864,0.161414,0.186607,0.208006,0.112566,0.088108,0.141953,0.528671,0.451651,0.207512,0.189864,0.244991,1.611891,0.680477,0.370585,0.345606,0.254734,0.61897,0.31973,0.366847,0.28678,0.196776,1.345628,0.357985,0.272576,0.323515,0.124595
1768972691.551435,1768972691.552392,79.0,0.0,4370.512695,4340.256348,4353.077148,4374.102539,4366.666504,4366.538574,4374.615234,4372.307617,4360.512695,4344.102539,4487.05127,4501.025879,4391.025879,4446.025879,,,,,,,,,,,,,,,,,,,,,,,,,,,,,,,,,,,,,,,,,,,,,,,,,,,,,,,,,,,,,,,,,,,,,,
1768972691.559244,1768972691.5604,80.0,0.0,4365.512695,4331.666504,4347.692383,4372.94873,4366.025879,4362.563965,4372.05127,4373.333496,4358.717773,4340.0,4477.820313,4493.717773,4383.846191,4437.692383,,,,,,,,,,,,,,,,,,,,,,,,,,,,,,,,,,,,,,,,,,,,,,,,,,,,,,,,,,,,,,,,,,,,,,
1768972691.567052,1768972691.568208,81.0,0.0,4368.589844,4334.871582,4348.333496,4376.410156,4368.589844,4370.384766,4375.0,4370.0,4357.179688,4339.615234,4475.641113,4490.128418,4386.282227,4438.205078,,,,,,,,,,,,,,,,,,,,,,,,,,,,,,,,,,,,,,,,,,,,,,,,,,,,,,,,,,,,,,,,,,,,,,
1768972691.57486,1768972691.576117,82.0,0.0,4371.538574,4343.717773,4356.538574,4381.410156,4362.820313,4368.974121,4374.358887,4364.358887,4351.922852,4335.641113,4477.05127,4489.743652,4386.410156,4444.743652,,,,,,,,,,,,,,,,,,,,,,,,,,,,,,,,,,,,,,,,,,,,,,,,,,,,,,,,,,,,,,,,,,,,,,
1768972691.582669,1768972691.583925,83.0,0.0,4369.487305,4347.05127,4355.512695,4381.922852,4358.077148,4357.307617,4364.358887,4360.897461,4352.692383,4335.256348,4475.384766,4489.615234,4382.179688,4442.179688,,,,,,,,,,,,,,,,,,,,,,,,,,,,,,,,,,,,,,,,,,,,,,,,,,,,,,,,,,,,,,,,,,,,,,
1768972691.590477,1768972691.591933,84.0,0.0,4369.743652,4349.743652,4351.153809,4380.897461,4367.820313,4358.974121,4360.769043,4366.410156,4358.077148,4341.922852,4473.974121,4491.410156,4382.436035,4438.589844,,,,,,,,,,,,,,,,,,,,,,,,,,,,,,,,,,,,,,,,,,,,,,,,,,,,,,,,,,,,,,,,,,,,,,
1768972691.598286,1768972691.599742,85.0,0.0,4370.897461,4351.538574,4353.205078,4379.615234,4374.871582,4374.230957,4372.563965,4375.897461,4360.128418,4345.128418,4476.410156,4496.922852,4384.743652,4440.897461,,,,,,,,,,,,,,,,,,,,,,,,,,,,,,,,,,,,,,,,,,,,,,,,,,,,,,,,,,,,,,,,,,,,,,
1768972691.606094,1768972691.60765,86.0,0.0,4367.563965,4353.333496,4353.333496,4379.358887,4370.256348,4376.282227,4377.05127,4373.717773,4359.230957,4345.128418,4477.179688,4499.230957,4383.974121,4437.820313,,,,,,,,,,,,,,,,,,,,,,,,,,,,,,,,,,,,,,,,,,,,,,,,,,,,,,,,,,,,,,,,,,,,,,
1768972691.613903,1768972691.615459,87.0,0.0,4367.179688,4357.05127,4353.333496,4380.384766,4370.897461,4365.384766,4369.487305,4369.743652,4358.974121,4345.897461,4475.512695,4498.205078,4384.743652,4433.077148,,,,,,,,,,,,,,,,,,,,,,,,,,,,,,,,,,,,,,,,,,,,,,,,,,,,,,,,,,,,,,,,,,,,,,
1768972691.621711,1768972691.623467,88.0,0.0,4371.410156,4359.102539,4357.563965,4382.563965,4375.256348,4365.641113,4370.512695,4370.128418,4355.897461,4343.589844,4471.922852,4498.974121,4384.487305,4432.05127,,,,,,,,,,,,,,,,,,,,,,,,,,,,,,,,,,,,,,,,,,,,,,,,,,,,,,,,,,,,,,,,,,,,,,
1768972691.62952,1768972691.631276,89.0,0.0,4371.410156,4359.487305,4360.0,4383.974121,4371.025879,4371.282227,4373.333496,4366.410156,4352.820313,4341.410156,4471.666504,4497.307617,4383.974121,4430.512695,,,,,,,,,,,,,,,,,,,,,,,,,,,,,,,,,,,,,,,,,,,,,,,,,,,,,,,,,,,,,,,,,,,,,,
1768972691.637328,1768972691.638984,90.0,0.0,4367.820313,4364.615234,4360.256348,4384.102539,4368.717773,4368.205078,4369.358887,4370.384766,4360.384766,4343.589844,4476.666504,4497.563965,4388.846191,4433.589844,,,,,,,,,,,,,,,,,,,,,,,,,,,,,,,,,,,,,,,,,,,,,,,,,,,,,,,,,,,,,,,,,,,,,,
1768972691.645136,1768972691.646793,91.0,0.0,4365.641113,4371.794922,4357.563965,4385.0,4371.666504,4363.333496,4371.410156,4379.487305,4366.282227,4346.153809,4475.769043,4498.077148,4391.794922,4433.974121,,,,,,,,,,,,,,,,,,,,,,,,,,,,,,,,,,,,,,,,,,,,,,,,,,,,,,,,,,,,,,,,,,,,,,
1768972691.652945,1768972691.654401,92.0,0.0,4370.256348,4375.769043,4355.512695,4388.205078,4371.666504,4368.333496,4378.077148,4376.538574,4362.05127,4349.358887,4478.333496,4500.897461,4393.589844,4433.589844,,,,,,,,,,,,,,,,,,,,,,,,,,,,,,,,,,,,,,,,,,,,,,,,,,,,,,,,,,,,,,,,,,,,,,
1768972691.660753,1768972691.66221,93.0,0.0,4376.538574,4374.358887,4362.94873,4391.282227,4370.128418,4373.461426,4377.179688,4375.0,4357.820313,4353.846191,4486.538574,4508.974121,4398.333496,4441.025879,,,,,,,,,,,,,,,,,,,,,,,,,,,,,,,,,,,,,,,,,,,,,,,,,,,,,,,,,,,,,,,,,,,,,,
1768972691.668562,1768972691.669918,94.0,0.0,4377.436035,4373.461426,4367.820313,4389.743652,4370.897461,4369.230957,4371.025879,4377.94873,4359.102539,4351.922852,4483.461426,4506.538574,4395.641113,4441.922852,0.611723,0.341978,0.147919,0.299111,0.131215,1.500774,0.45476,0.229793,0.202112,0.112047,0.598887,0.33824,0.054578,0.256587,0.112228,0.873681,0.306189,0.120413,0.123241,0.084801,0.309505,0.090979,0.085753,0.089966,0.064892,0.389479,0.103352,0.116458,0.112217,0.140108,0.485754,0.232178,0.112597,0.230611,0.1075,0.202576,0.257102,0.146598,0.191139,0.134749,0.341567,0.385163,0.164297,0.11045,0.166625,0.226751,0.200254,0.111749,0.083218,0.142672,0.526138,0.401313,0.193018,0.205478,0.241379,1.737498,0.740553,0.415572,0.373294,0.27325,0.687334,0.290933,0.356996,0.273632,0.192587,1.345482,0.377182,0.251904,0.344764,0.133407
1768972691.67637,1768972691.677727,95.0,0.0,4372.820313,4374.358887,4358.717773,4386.153809,4372.179688,4365.256348,4371.025879,4375.384766,4360.0,4345.384766,4475.897461,4497.820313,4392.05127,4436.794922,,,,,,,,,,,,,,,,,,,,,,,,,,,,,,,,,,,,,,,,,,,,,,,,,,,,,,,,,,,,,,,,,,,,,,
1768972691.684179,1768972691.685335,96.0,0.0,4368.205078,4367.179688,4351.282227,4382.05127,4371.538574,4365.384766,4373.589844,4372.307617,4357.820313,4343.205078,4476.025879,4497.563965,4393.717773,4437.05127,,,,,,,,,,,,,,,,,,,,,,,,,,,,,,,,,,,,,,,,,,,,,,,,,,,,,,,,,,,,,,,,,,,,,,
1768972691.691987,1768972691.693144,97.0,0.0,4366.282227,4356.282227,4352.94873,4378.077148,4366.922852,4366.922852,4373.333496,4372.692383,4356.794922,4343.974121,4476.666504,4498.077148,4394.358887,4434.358887,,,,,,,,,,,,,,,,,,,,,,,,,,,,,,,,,,,,,,,,,,,,,,,,,,,,,,,,,,,,,,,,,,,,,,
1768972691.699796,1768972691.701052,98.0,0.0,4365.897461,4356.922852,4352.05127,4376.153809,4361.666504,4366.153809,4370.769043,4374.230957,4357.820313,4342.94873,4475.128418,4497.436035,4395.0,4428.461426,,,,,,,,,,,,,,,,,,,,,,,,,,,,,,,,,,,,,,,,,,,,,,,,,,,,,,,,,,,,,,,,,,,,,,
1768972691.707604,1768972691.708861,99.0,0.0,4367.563965,4362.307617,4345.641113,4374.487305,4363.461426,4362.692383,4368.846191,4372.436035,4358.589844,4341.922852,4471.410156,4499.487305,4395.512695,4428.461426,,,,,,,,,,,,,,,,,,,,,,,,,,,,,,,,,,,,,,,,,,,,,,,,,,,,,,,,,,,,,,,,,,,,,,
1768972691.715413,1768972691.716469,100.0,0.0,4369.615234,4360.384766,4346.410156,4376.153809,4368.077148,4363.846191,4371.282227,4369.871582,4356.922852,4341.282227,4463.077148,4496.410156,4389.615234,4426.153809,,,,,,,,,,,,,,,,,,,,,,,,,,,,,,,,,,,,,,,,,,,,,,,,,,,,,,,,,,,,,,,,,,,,,,
1768972691.723221,1768972691.724278,101.0,0.0,4366.922852,4355.256348,4352.94873,4378.461426,4367.820313,4370.897461,4374.743652,4375.897461,4360.0,4342.307617,4462.307617,4495.641113,4387.436035,4425.769043,,,,,,,,,,,,,,,,,,,,,,,,,,,,,,,,,,,,,,,,,,,,,,,,,,,,,,,,,,,,,,,,,,,,,,
1768972691.731029,1768972691.731986,102.0,0.0,4359.487305,4343.974121,4348.077148,4369.230957,4364.358887,4370.0,4372.820313,4383.333496,4365.128418,4343.974121,4466.666504,4500.512695,4389.487305,4425.897461,,,,,,,,,,,,,,,,,,,,,,,,,,,,,,,,,,,,,,,,,,,,,,,,,,,,,,,,,,,,,,,,,,,,,,
1768972691.738838,1768972691.739795,103.0,0.0,4354.230957,4328.717773,4337.820313,4356.153809,4359.358887,4358.589844,4367.436035,4377.563965,4357.94873,4340.512695,4457.307617,4491.666504,4381.282227,4413.333496,,,,,,,,,,,,,,,,,,,,,,,,,,,,,,,,,,,,,,,,,,,,,,,,,,,,,,,,,,,,,,,,,,,,,,
1768972691.746646,1768972691.747403,104.0,0.0,4357.692383,4333.589844,4344.102539,4360.641113,4357.692383,4358.974121,4371.410156,4373.974121,4354.487305,4342.05127,4457.05127,4486.153809,4384.743652,4412.563965,,,,,,,,,,,,,,,,,,,,,,,,,,,,,,,,,,,,,,,,,,,,,,,,,,,,,,,,,,,,,,,,,,,,,,
1768972691.754455,1768972691.755212,105.0,0.0,4370.897461,4353.846191,4361.153809,4377.94873,4363.461426,4370.256348,4381.282227,4387.94873,4367.94873,4357.05127,4481.922852,4509.230957,4408.589844,4437.179688,,,,,,,,,,,,,,,,,,,,,,,,,,,,,,,,,,,,,,,,,,,,,,,,,,,,,,,,,,,,,,,,,,,,,,
1768972691.762263,1768972691.76292,106.0,0.0,4385.512695,4359.615234,4367.307617,4383.333496,4366.153809,4371.025879,4379.615234,4392.436035,4372.307617,4365.384766,4494.358887,4528.461426,4420.897461,4455.641113,,,,,,,,,,,,,,,,,,,,,,,,,,,,,,,,,,,,,,,,,,,,,,,,,,,,,,,,,,,,,,,,,,,,,,
1768972691.770072,1768972691.770729,107.0,0.0,4383.589844,4352.563965,4361.282227,4376.666504,4362.179688,4363.461426,4371.922852,4377.307617,4357.94873,4352.820313,4479.743652,4516.922852,4410.897461,4450.0,,,,,,,,,,,,,,,,,,,,,,,,,,,,,,,,,,,,,,,,,,,,,,,,,,,,,,,,,,,,,,,,,,,,,,
1768972691.77788,1768972691.778737,108.0,0.0,4373.974121,4352.692383,4360.512695,4374.487305,4363.589844,4363.461426,4372.563965,4371.538574,4350.897461,4340.384766,4468.974121,4507.692383,4399.230957,4437.563965,,,,,,,,,,,,,,,,,,,,,,,,,,,,,,,,,,,,,,,,,,,,,,,,,,,,,,,,,,,,,,,,,,,,,,
1768972691.785689,1768972691.786546,109.0,0.0,4377.05127,4357.307617,4365.0,4379.102539,4371.153809,4371.282227,4376.922852,4379.871582,4358.846191,4343.974121,4473.461426,4512.563965,4397.563965,4431.410156,,,,,,,,,,,,,,,,,,,,,,,,,,,,,,,,,,,,,,,,,,,,,,,,,,,,,,,,,,,,,,,,,,,,,,
1768972691.793497,1768972691.794454,110.0,0.0,4381.025879,4358.077148,4364.871582,4381.282227,4368.077148,4372.692383,4374.743652,4382.179688,4364.871582,4351.410156,4475.128418,4507.179688,4397.820313,4429.358887,0.534775,0.382227,0.165699,0.316459,0.143707,1.52783,0.527601,0.252785,0.195112,0.116573,0.532061,0.405481,0.043949,0.275347,0.121201,0.92123,0.300762,0.090829,0.107708,0.084356,0.328297,0.075628,0.068886,0.086644,0.062554,0.462558,0.090934,0.113372,0.140325,0.166358,0.583177,0.215268,0.110074,0.221909,0.104482,0.269272,0.232645,0.163669,0.19496,0.138375,0.355082,0.329673,0.207261,0.122621,0.167327,0.290726,0.201932,0.112373,0.086277,0.137645,0.549775,0.358724,0.19025,0.220913,0.225864,1.858973,0.778637,0.444925,0.371736,0.279163,0.719071,0.258846,0.340223,0.255765,0.175969,1.283434,0.40196,0.240395,0.346745,0.138859
1768972691.801305,1768972691.802262,111.0,0.0,4376.410156,4357.94873,4360.128418,4379.487305,4359.358887,4368.205078,4372.563965,4379.871582,4367.94873,4351.666504,4472.307617,4496.153809,4396.794922,4430.512695,,,,,,,,,,,,,,,,,,,,,,,,,,,,,,,,,,,,,,,,,,,,,,,,,,,,,,,,,,,,,,,,,,,,,,
1768972691.809114,1768972691.810271,112.0,0.0,4372.820313,4359.487305,4359.230957,4380.256348,4361.666504,4366.794922,4373.974121,4379.358887,4364.743652,4348.974121,4472.436035,4496.538574,4396.410156,4433.205078,,,,,,,,,,,,,,,,,,,,,,,,,,,,,,,,,,,,,,,,,,,,,,,,,,,,,,,,,,,,,,,,,,,,,,
1768972691.816922,1768972691.818079,113.0,0.0,4373.077148,4360.256348,4362.692383,4378.461426,4368.333496,4366.538574,4373.077148,4382.307617,4358.205078,4350.384766,4472.94873,4505.384766,4396.794922,4432.179688,,,,,,,,,,,,,,,,,,,,,,,,,,,,,,,,,,,,,,,,,,,,,,,,,,,,,,,,,,,,,,,,,,,,,,
1768972691.824731,1768972691.825987,114.0,0.0,4370.897461,4360.769043,4360.897461,4374.358887,4367.179688,4367.563965,4372.179688,4385.769043,4360.769043,4351.025879,4470.769043,4509.615234,4396.282227,4429.102539,,,,,,,,,,,,,,,,,,,,,,,,,,,,,,,,,,,,,,,,,,,,,,,,,,,,,,,,,,,,,,,,,,,,,,
1768972691.832539,1768972691.833796,115.0,0.0,4365.128418,4363.717773,4356.282227,4373.717773,4366.025879,4370.641113,4372.307617,4379.230957,4359.743652,4346.538574,4462.692383,4507.179688,4396.282227,4427.05127,,,,,,,,,,,,,,,,,,,,,,,,,,,,,,,,,,,,,,,,,,,,,,,,,,,,,,,,,,,,,,,,,,,,,,
1768972691.840347,1768972691.841404,116.0,0.0,4364.487305,4366.666504,4351.666504,4373.846191,4370.769043,4374.487305,4372.820313,4372.436035,4355.384766,4342.563965,4456.153809,4503.205078,4397.692383,4428.205078,,,,,,,,,,,,,,,,,,,,,,,,,,,,,,,,,,,,,,,,,,,,,,,,,,,,,,,,,,,,,,,,,,,,,,
1768972691.848156,1768972691.849213,117.0,0.0,4370.512695,4370.512695,4348.461426,4376.282227,4373.461426,4372.436035,4374.743652,4375.897461,4355.384766,4342.94873,4457.179688,4500.641113,4396.794922,4431.153809,,,,,,,,,,,,,,,,,,,,,,,,,,,,,,,,,,,,,,,,,,,,,,,,,,,,,,,,,,,,,,,,,,,,,,
1768972691.855964,1768972691.856921,118.0,0.0,4373.717773,4374.615234,4352.820313,4380.384766,4373.846191,4365.512695,4373.333496,4375.897461,4351.666504,4342.563965,4457.563965,4502.94873,4395.897461,4428.461426,,,,,,,,,,,,,,,,,,,,,,,,,,,,,,,,,,,,,,,,,,,,,,,,,,,,,,,,,,,,,,,,,,,,,,
1768972691.863773,1768972691.86473,119.0,0.0,4372.563965,4374.487305,4357.692383,4380.256348,4373.333496,4365.641113,4368.333496,4370.641113,4346.794922,4341.153809,4456.282227,4506.282227,4397.692383,4429.615234,,,,,,,,,,,,,,,,,,,,,,,,,,,,,,,,,,,,,,,,,,,,,,,,,,,,,,,,,,,,,,,,,,,,,,
1768972691.871581,1768972691.872339,120.0,0.0,4377.563965,4369.230957,4358.077148,4380.256348,4371.025879,4373.589844,4371.538574,4373.333496,4352.179688,4343.717773,4458.077148,4504.487305,4399.358887,4440.0,,,,,,,,,,,,,,,,,,,,,,,,,,,,,,,,,,,,,,,,,,,,,,,,,,,,,,,,,,,,,,,,,,,,,,
1768972691.87939,1768972691.880147,121.0,0.0,4380.384766,4365.0,4357.692383,4380.641113,4369.743652,4373.205078,4375.128418,4376.794922,4357.820313,4345.128418,4459.743652,4502.05127,4398.205078,4439.230957,,,,,,,,,,,,,,,,,,,,,,,,,,,,,,,,,,,,,,,,,,,,,,,,,,,,,,,,,,,,,,,,,,,,,,
1768972691.887198,1768972691.887856,122.0,0.0,4374.230957,4365.0,4356.153809,4375.769043,4368.589844,4363.717773,4368.846191,4373.333496,4352.436035,4343.205078,4458.846191,4500.769043,4397.563965,4427.436035,,,,,,,,,,,,,,,,,,,,,,,,,,,,,,,,,,,,,,,,,,,,,,,,,,,,,,,,,,,,,,,,,,,,,,
1768972691.895007,1768972691.895664,123.0,0.0,4368.333496,4365.641113,4350.128418,4371.794922,4364.230957,4365.256348,4368.205078,4372.820313,4348.205078,4341.153809,4458.333496,4499.230957,4397.94873,4424.743652,,,,,,,,,,,,,,,,,,,,,,,,,,,,,,,,,,,,,,,,,,,,,,,,,,,,,,,,,,,,,,,,,,,,,,
1768972691.902815,1768972691.903672,124.0,0.0,4365.897461,4367.179688,4345.897461,4373.846191,4363.717773,4373.589844,4372.179688,4375.128418,4353.077148,4343.717773,4458.846191,4498.974121,4397.94873,4428.461426,,,,,,,,,,,,,,,,,,,,,,,,,,,,,,,,,,,,,,,,,,,,,,,,,,,,,,,,,,,,,,,,,,,,,,
1768972691.910623,1768972691.911481,125.0,0.0,4369.358887,4376.410156,4352.436035,4376.282227,4368.846191,4373.974121,4370.897461,4374.615234,4362.179688,4347.307617,4459.743652,4504.358887,4397.94873,4427.94873,,,,,,,,,,,,,,,,,,,,,,,,,,,,,,,,,,,,,,,,,,,,,,,,,,,,,,,,,,,,,,,,,,,,,,
1768972691.918432,1768972691.919189,126.0,0.0,4373.461426,4383.205078,4357.307617,4376.153809,4366.410156,4366.410156,4370.512695,4378.461426,4367.820313,4347.436035,4460.897461,4513.461426,4397.436035,4429.615234,0.489213,0.411531,0.187466,0.310158,0.153658,1.598159,0.57372,0.303234,0.182087,0.121935,0.444384,0.441112,0.043886,0.271918,0.126265,0.913582,0.289623,0.075645,0.090175,0.088361,0.360143,0.06582,0.053867,0.079638,0.063104,0.52524,0.087877,0.105964,0.169767,0.195922,0.673518,0.184219,0.110453,0.202826,0.106918,0.34544,0.219814,0.17719,0.184666,0.139486,0.397992,0.298641,0.252288,0.13384,0.165363,0.362616,0.215409,0.114589,0.09781,0.128522,0.661012,0.354302,0.193882,0.231214,0.20016,1.878709,0.803898,0.458535,0.343264,0.270098,0.705923,0.23831,0.322925,0.235234,0.152233,1.177918,0.436564,0.241651,0.329552,0.140008
1768972691.92624,1768972691.926998,127.0,0.0,4369.230957,4376.666504,4353.717773,4374.230957,4360.512695,4359.615234,4366.538574,4380.769043,4366.538574,4348.974121,4461.153809,4511.666504,4397.820313,4432.179688,,,,,,,,,,,,,,,,,,,,,,,,,,,,,,,,,,,,,,,,,,,,,,,,,,,,,,,,,,,,,,,,,,,,,,
1768972691.934049,1768972691.934606,0.0,0.0,4362.563965,4369.230957,4349.358887,4372.563965,4363.077148,4363.717773,4355.384766,4371.794922,4360.769043,4349.102539,4459.871582,4498.461426,4400.512695,4430.384766,,,,,,,,,,,,,,,,,,,,,,,,,,,,,,,,,,,,,,,,,,,,,,,,,,,,,,,,,,,,,,,,,,,,,,
1768972691.941857,1768972691.942415,1.0,0.0,4365.0,4372.05127,4352.307617,4375.384766,4368.205078,4372.307617,4355.256348,4366.666504,4360.641113,4347.179688,4460.256348,4495.897461,4401.410156,4429.358887,,,,,,,,,,,,,,,,,,,,,,,,,,,,,,,,,,,,,,,,,,,,,,,,,,,,,,,,,,,,,,,,,,,,,,
1768972691.949666,1768972691.950123,2.0,0.0,4369.358887,4372.05127,4358.205078,4374.615234,4364.358887,4373.589844,4366.282227,4377.94873,4370.512695,4347.820313,4462.307617,4506.794922,4398.974121,4429.230957,,,,,,,,,,,,,,,,,,,,,,,,,,,,,,,,,,,,,,,,,,,,,,,,,,,,,,,,,,,,,,,,,,,,,,
1768972691.957474,1768972691.957932,3.0,0.0,4366.410156,4363.974121,4357.307617,4366.410156,4357.05127,4371.538574,4366.538574,4382.563965,4370.769043,4346.794922,4462.05127,4507.820313,4396.025879,4428.077148,,,,,,,,,,,,,,,,,,,,,,,,,,,,,,,,,,,,,,,,,,,,,,,,,,,,,,,,,,,,,,,,,,,,,,
1768972691.965283,1768972691.96594,4.0,0.0,4364.230957,4361.794922,4352.436035,4366.922852,4358.333496,4372.307617,4359.230957,4370.769043,4361.922852,4344.487305,4459.615234,4498.333496,4394.102539,4427.436035,,,,,,,,,,,,,,,,,,,,,,,,,,,,,,,,,,,,,,,,,,,,,,,,,,,,,,,,,,,,,,,,,,,,,,
1768972691.973091,1768972691.973748,5.0,0.0,4369.487305,4367.179688,4354.230957,4372.436035,4360.512695,4367.563965,4354.871582,4366.538574,4365.0,4348.717773,4460.0,4501.666504,4395.897461,4428.974121,,,,,,,,,,,,,,,,,,,,,,,,,,,,,,,,,,,,,,,,,,,,,,,,,,,,,,,,,,,,,,,,,,,,,,
1768972691.980899,1768972691.981657,6.0,0.0,4373.974121,4366.282227,4362.820313,4371.538574,4357.94873,4362.05127,4357.820313,4375.128418,4373.077148,4351.666504,4461.025879,4508.589844,4397.820313,4429.358887,,,,,,,,,,,,,,,,,,,,,,,,,,,,,,,,,,,,,,,,,,,,,,,,,,,,,,,,,,,,,,,,,,,,,,
1768972691.988708,1768972691.989465,7.0,0.0,4371.282227,4358.077148,4364.230957,4373.077148,4359.871582,4369.487305,4365.769043,4378.846191,4373.846191,4351.410156,4463.974121,4505.384766,4396.410156,4431.538574,,,,,,,,,,,,,,,,,,,,,,,,,,,,,,,,,,,,,,,,,,,,,,,,,,,,,,,,,,,,,,,,,,,,,,
1768972691.996516,1768972691.997474,8.0,0.0,4370.128418,4356.794922,4362.436035,4380.641113,4366.538574,4378.077148,4368.077148,4375.384766,4372.307617,4355.641113,4471.538574,4505.384766,4401.153809,4438.846191,,,,,,,,,,,,,,,,,,,,,,,,,,,,,,,,,,,,,,,,,,,,,,,,,,,,,,,,,,,,,,,,,,,,,,
1768972692.004325,1768972692.005282,9.0,0.0,4374.615234,4362.179688,4363.461426,4382.179688,4368.077148,4373.717773,4366.666504,4376.410156,4372.563965,4356.410156,4475.512695,4514.102539,4409.102539,4443.717773,,,,,,,,,,,,,,,,,,,,,,,,,,,,,,,,,,,,,,,,,,,,,,,,,,,,,,,,,,,,,,,,,,,,,,
1768972692.012133,1768972692.01319,10.0,0.0,4375.0,4363.974121,4360.897461,4379.358887,4366.410156,4368.077148,4369.743652,4384.487305,4377.820313,4355.0,4475.512695,4518.717773,4413.589844,4443.717773,,,,,,,,,,,,,,,,,,,,,,,,,,,,,,,,,,,,,,,,,,,,,,,,,,,,,,,,,,,,,,,,,,,,,,
1768972692.019942,1768972692.020999,11.0,0.0,4371.794922,4365.256348,4359.102539,4379.487305,4366.282227,4372.563965,4368.077148,4387.307617,4380.0,4359.615234,4477.94873,4511.153809,4412.94873,4440.128418,,,,,,,,,,,,,,,,,,,,,,,,,,,,,,,,,,,,,,,,,,,,,,,,,,,,,,,,,,,,,,,,,,,,,,
1768972692.02775,1768972692.028607,12.0,0.0,4374.487305,4369.358887,4361.410156,4378.974121,4367.94873,4374.743652,4361.282227,4380.384766,4370.128418,4358.205078,4472.692383,4501.538574,4404.487305,4436.153809,,,,,,,,,,,,,,,,,,,,,,,,,,,,,,,,,,,,,,,,,,,,,,,,,,,,,,,,,,,,,,,,,,,,,,
1768972692.035559,1768972692.036416,13.0,0.0,4382.307617,4374.487305,4366.025879,4381.794922,4371.666504,4369.871582,4364.871582,4374.487305,4363.461426,4349.743652,4464.230957,4503.589844,4400.0,4439.230957,,,,,,,,,,,,,,,,,,,,,,,,,,,,,,,,,,,,,,,,,,,,,,,,,,,,,,,,,,,,,,,,,,,,,,
1768972692.043367,1768972692.044124,14.0,0.0,4383.205078,4372.692383,4368.461426,4385.512695,4373.205078,4372.436035,4370.641113,4375.769043,4366.922852,4352.94873,4468.717773,4509.615234,4409.230957,4445.128418,0.481496,0.425705,0.205746,0.286055,0.157073,1.850376,0.57414,0.358317,0.171113,0.127249,0.374969,0.441235,0.052791,0.248705,0.126484,0.868417,0.270767,0.075181,0.076991,0.094036,0.38859,0.061805,0.044173,0.072447,0.067798,0.557999,0.093217,0.092924,0.194694,0.223249,0.717287,0.149875,0.112284,0.180359,0.115258,0.414726,0.220302,0.186691,0.164012,0.1399,0.459761,0.30323,0.291037,0.142339,0.163795,0.42966,0.237749,0.120961,0.116349,0.117361,0.907329,0.406866,0.202335,0.235544,0.169388,1.781492,0.823241,0.464264,0.302751,0.24907,0.681835,0.242818,0.313127,0.215233,0.128001,1.051076,0.487627,0.255358,0.304507,0.137596
1768972692.051175,1768972692.051933,15.0,0.0,4375.384766,4366.153809,4362.94873,4380.769043,4371.153809,4377.563965,4369.358887,4376.794922,4369.615234,4357.563965,4477.94873,4508.333496,4414.230957,4444.871582,,,,,,,,,,,,,,,,,,,,,,,,,,,,,,,,,,,,,,,,,,,,,,,,,,,,,,,,,,,,,,,,,,,,,,
