Timestamp,OriginalTimestamp,EEG.Counter,EEG.Interpolated,EEG.AF3,EEG.F7,EEG.F3,EEG.FC5,EEG.T7,EEG.P7,EEG.O1,EEG.O2,EEG.P8,EEG.T8,EEG.FC6,EEG.F4,EEG.F8,EEG.AF4,POW.AF3.Theta,POW.AF3.Alpha,POW.AF3.BetaL,POW.AF3.BetaH,POW.AF3.Gamma,POW.F7.Theta,POW.F7.Alpha,POW.F7.BetaL,POW.F7.BetaH,POW.F7.Gamma,POW.F3.Theta,POW.F3.Alpha,POW.F3.BetaL,POW.F3.BetaH,POW.F3.Gamma,POW.FC5.Theta,POW.FC5.Alpha,POW.FC5.BetaL,POW.FC5.BetaH,POW.FC5.Gamma,POW.T7.Theta,POW.T7.Alpha,POW.T7.BetaL,POW.T7.BetaH,POW.T7.Gamma,POW.P7.Theta,POW.P7.Alpha,POW.P7.BetaL,POW.P7.BetaH,POW.P7.Gamma,POW.O1.Theta,POW.O1.Alpha,POW.O1.BetaL,POW.O1.BetaH,POW.O1.Gamma,POW.O2.Theta,POW.O2.Alpha,POW.O2.BetaL,POW.O2.BetaH,POW.O2.Gamma,POW.P8.Theta,POW.P8.Alpha,POW.P8.BetaL,POW.P8.BetaH,POW.P8.Gamma,POW.T8.Theta,POW.T8.Alpha,POW.T8.BetaL,POW.T8.BetaH,POW.T8.Gamma,POW.FC6.Theta,POW.FC6.Alpha,POW.FC6.BetaL,POW.FC6.BetaH,POW.FC6.Gamma,POW.F4.Theta,POW.F4.Alpha,POW.F4.BetaL,POW.F4.BetaH,POW.F4.Gamma,POW.F8.Theta,POW.F8.Alpha,POW.F8.BetaL,POW.F8.BetaH,POW.F8.Gamma,POW.AF4.Theta,POW.AF4.Alpha,POW.AF4.BetaL,POW.AF4.BetaH,POW.AF4.Gamma
1768919973.536946,1768919973.53791,127.0,0.0,4369.743652,4345.128418,4356.410156,4357.820313,4338.077148,4332.436035,4347.307617,4340.384766,4334.871582,4322.436035,4510.512695,4536.538574,4404.615234,4454.743652,,,,,,,,,,,,,,,,,,,,,,,,,,,,,,,,,,,,,,,,,,,,,,,,,,,,,,,,,,,,,,,,,,,,,,
1768919973.544754,1768919973.545518,0.0,0.0,4380.256348,4345.384766,4360.256348,4356.282227,4343.205078,4339.743652,4360.641113,4340.384766,4331.410156,4315.641113,4504.871582,4541.538574,4402.05127,4460.384766,0.963554,0.273823,0.119295,0.1543,0.106378,1.301786,0.389116,0.435692,0.198145,0.123095,1.327695,0.280569,0.179607,0.209992,0.142757,0.703227,0.381216,0.190067,0.132996,0.107775,0.2405,0.084786,0.093476,0.121579,0.057131,0.219005,0.252528,0.184918,0.178537,0.299682,0.620408,0.386896,0.220205,0.272767,0.371713,0.273775,0.164707,0.10403,0.076952,0.125196,0.617831,0.16752,0.267901,0.104268,0.143203,0.885797,0.303781,0.174979,0.142532,0.087339,0.885838,0.523667,0.326857,0.201533,0.154107,1.116999,0.457307,0.272132,0.196535,0.18615,1.603683,0.844771,0.215489,0.267005,0.163404,1.76517,0.582001,0.321594,0.315562,0.185207
1768919973.552563,1768919973.553327,1.0,0.0,4374.871582,4341.282227,4359.230957,4354.102539,4341.538574,4349.743652,4370.641113,4339.871582,4328.974121,4312.307617,4501.922852,4536.794922,4395.769043,4451.153809,,,,,,,,,,,,,,,,,,,,,,,,,,,,,,,,,,,,,,,,,,,,,,,,,,,,,,,,,,,,,,,,,,,,,,
1768919973.560372,1768919973.561235,2.0,0.0,4362.692383,4341.538574,4355.384766,4351.538574,4337.179688,4343.846191,4361.794922,4342.94873,4330.384766,4313.974121,4504.230957,4536.282227,4393.717773,4449.102539,,,,,,,,,,,,,,,,,,,,,,,,,,,,,,,,,,,,,,,,,,,,,,,,,,,,,,,,,,,,,,,,,,,,,,
1768919973.56818,1768919973.569044,3.0,0.0,4366.282227,4342.820313,4356.410156,4352.692383,4338.333496,4328.205078,4347.820313,4343.846191,4328.205078,4312.820313,4506.922852,4541.153809,4396.025879,4454.743652,,,,,,,,,,,,,,,,,,,,,,,,,,,,,,,,,,,,,,,,,,,,,,,,,,,,,,,,,,,,,,,,,,,,,,
1768919973.575988,1768919973.577052,4.0,0.0,4371.666504,4342.820313,4358.717773,4354.358887,4340.897461,4331.410156,4350.641113,4338.461426,4326.666504,4312.05127,4506.794922,4541.666504,4396.538574,4453.333496,,,,,,,,,,,,,,,,,,,,,,,,,,,,,,,,,,,,,,,,,,,,,,,,,,,,,,,,,,,,,,,,,,,,,,
1768919973.583797,1768919973.584861,5.0,0.0,4363.461426,4340.256348,4355.128418,4352.05127,4337.94873,4342.179688,4360.384766,4333.846191,4327.179688,4311.282227,4499.102539,4533.333496,4395.128418,4449.743652,,,,,,,,,,,,,,,,,,,,,,,,,,,,,,,,,,,,,,,,,,,,,,,,,,,,,,,,,,,,,,,,,,,,,,
1768919973.591606,1768919973.59277,6.0,0.0,4357.820313,4339.743652,4353.589844,4349.743652,4333.589844,4329.743652,4349.358887,4333.846191,4324.358887,4310.641113,4497.436035,4530.512695,4396.538574,4456.922852,,,,,,,,,,,,,,,,,,,,,,,,,,,,,,,,,,,,,,,,,,,,,,,,,,,,,,,,,,,,,,,,,,,,,,
1768919973.599414,1768919973.600578,7.0,0.0,4363.461426,4341.922852,4356.794922,4350.256348,4333.717773,4321.538574,4338.717773,4336.410156,4324.871582,4314.230957,4506.666504,4538.589844,4401.538574,4461.538574,,,,,,,,,,,,,,,,,,,,,,,,,,,,,,,,,,,,,,,,,,,,,,,,,,,,,,,,,,,,,,,,,,,,,,
1768919973.607222,1768919973.608587,8.0,0.0,4363.461426,4342.94873,4355.897461,4354.358887,4338.461426,4337.692383,4354.358887,4339.358887,4328.333496,4313.846191,4505.128418,4536.410156,4400.0,4453.717773,,,,,,,,,,,,,,,,,,,,,,,,,,,,,,,,,,,,,,,,,,,,,,,,,,,,,,,,,,,,,,,,,,,,,,
1768919973.615031,1768919973.616395,9.0,0.0,4356.666504,4340.769043,4350.256348,4355.641113,4341.794922,4340.512695,4361.153809,4339.102539,4326.538574,4308.717773,4495.641113,4527.692383,4392.692383,4452.05127,,,,,,,,,,,,,,,,,,,,,,,,,,,,,,,,,,,,,,,,,,,,,,,,,,,,,,,,,,,,,,,,,,,,,,
1768919973.62284,1768919973.624103,10.0,0.0,4360.128418,4337.179688,4348.974121,4352.05127,4340.256348,4325.641113,4348.717773,4336.153809,4324.615234,4311.794922,4501.666504,4530.897461,4393.846191,4456.410156,,,,,,,,,,,,,,,,,,,,,,,,,,,,,,,,,,,,,,,,,,,,,,,,,,,,,,,,,,,,,,,,,,,,,,
1768919973.630648,1768919973.631911,11.0,0.0,4362.436035,4335.256348,4352.179688,4348.589844,4339.358887,4329.102539,4350.512695,4337.179688,4328.974121,4315.128418,4511.282227,4537.692383,4397.692383,4452.692383,,,,,,,,,,,,,,,,,,,,,,,,,,,,,,,,,,,,,,,,,,,,,,,,,,,,,,,,,,,,,,,,,,,,,,
1768919973.638456,1768919973.639519,12.0,0.0,4356.025879,4335.641113,4351.922852,4346.538574,4338.461426,4341.666504,4354.871582,4342.692383,4335.897461,4313.461426,4508.333496,4539.230957,4395.256348,4451.153809,,,,,,,,,,,,,,,,,,,,,,,,,,,,,,,,,,,,,,,,,,,,,,,,,,,,,,,,,,,,,,,,,,,,,,
1768919973.646265,1768919973.647327,13.0,0.0,4355.641113,4340.384766,4348.077148,4348.461426,4337.05127,4337.179688,4345.128418,4340.0,4335.0,4319.615234,4506.922852,4535.769043,4395.0,4457.179688,,,,,,,,,,,,,,,,,,,,,,,,,,,,,,,,,,,,,,,,,,,,,,,,,,,,,,,,,,,,,,,,,,,,,,
1768919973.654074,1768919973.655235,14.0,0.0,4360.0,4338.461426,4349.102539,4351.025879,4339.743652,4332.179688,4343.589844,4339.102539,4331.794922,4322.563965,4508.589844,4531.922852,4398.461426,4453.717773,,,,,,,,,,,,,,,,,,,,,,,,,,,,,,,,,,,,,,,,,,,,,,,,,,,,,,,,,,,,,,,,,,,,,,
1768919973.661882,1768919973.663044,15.0,0.0,4355.128418,4331.538574,4347.307617,4346.282227,4343.205078,4336.922852,4353.974121,4346.922852,4338.333496,4317.179688,4507.307617,4528.974121,4396.794922,4443.846191,,,,,,,,,,,,,,,,,,,,,,,,,,,,,,,,,,,,,,,,,,,,,,,,,,,,,,,,,,,,,,,,,,,,,,
1768919973.66969,1768919973.671052,16.0,0.0,4350.128418,4332.05127,4342.179688,4344.230957,4342.820313,4340.512695,4362.692383,4346.410156,4341.538574,4317.307617,4507.436035,4525.769043,4394.871582,4443.717773,0.815192,0.230663,0.12075,0.178251,0.104399,1.279238,0.320509,0.368554,0.239673,0.135398,1.152048,0.235444,0.142659,0.23562,0.138724,0.703587,0.32521,0.162957,0.16547,0.092658,0.253752,0.075896,0.094375,0.135474,0.059105,0.200163,0.254282,0.203643,0.196906,0.291194,0.459873,0.402761,0.283704,0.26033,0.367051,0.260612,0.133821,0.103222,0.086313,0.126721,0.622295,0.173995,0.298324,0.151412,0.146186,0.852331,0.271072,0.182302,0.150498,0.083562,0.831118,0.429425,0.334374,0.206666,0.142226,0.998429,0.421545,0.247452,0.224913,0.189387,1.44149,0.600897,0.223102,0.26226,0.153987,1.620197,0.436857,0.372542,0.374317,0.18495
1768919973.677499,1768919973.67886,17.0,0.0,4355.769043,4336.282227,4345.384766,4352.820313,4341.794922,4341.282227,4356.666504,4339.743652,4332.692383,4320.512695,4506.538574,4528.589844,4396.794922,4451.666504,,,,,,,,,,,,,,,,,,,,,,,,,,,,,,,,,,,,,,,,,,,,,,,,,,,,,,,,,,,,,,,,,,,,,,
1768919973.685308,1768919973.686768,18.0,0.0,4361.666504,4335.128418,4349.230957,4353.974121,4340.128418,4340.0,4342.436035,4339.743652,4331.922852,4322.05127,4506.794922,4532.179688,4396.153809,4453.846191,,,,,,,,,,,,,,,,,,,,,,,,,,,,,,,,,,,,,,,,,,,,,,,,,,,,,,,,,,,,,,,,,,,,,,
1768919973.693116,1768919973.694576,19.0,0.0,4360.512695,4332.179688,4346.282227,4349.102539,4339.358887,4337.05127,4343.589844,4342.307617,4339.487305,4326.922852,4508.846191,4529.871582,4396.282227,4448.717773,,,,,,,,,,,,,,,,,,,,,,,,,,,,,,,,,,,,,,,,,,,,,,,,,,,,,,,,,,,,,,,,,,,,,,
1768919973.700925,1768919973.702184,20.0,0.0,4357.05127,4334.615234,4347.436035,4352.307617,4341.666504,4334.743652,4353.717773,4343.077148,4338.205078,4327.820313,4507.05127,4528.077148,4398.205078,4447.692383,,,,,,,,,,,,,,,,,,,,,,,,,,,,,,,,,,,,,,,,,,,,,,,,,,,,,,,,,,,,,,,,,,,,,,
1768919973.708733,1768919973.709993,21.0,0.0,4356.153809,4339.615234,4351.922852,4355.128418,4342.94873,4337.563965,4345.641113,4342.692383,4334.487305,4321.922852,4504.358887,4531.153809,4397.179688,4450.0,,,,,,,,,,,,,,,,,,,,,,,,,,,,,,,,,,,,,,,,,,,,,,,,,,,,,,,,,,,,,,,,,,,,,,
1768919973.716542,1768919973.717701,22.0,0.0,4355.897461,4339.358887,4350.128418,4356.282227,4342.692383,4342.94873,4338.589844,4343.205078,4337.436035,4318.461426,4505.769043,4532.820313,4393.205078,4446.282227,,,,,,,,,,,,,,,,,,,,,,,,,,,,,,,,,,,,,,,,,,,,,,,,,,,,,,,,,,,,,,,,,,,,,,
1768919973.72435,1768919973.725509,23.0,0.0,4354.743652,4334.871582,4348.846191,4358.077148,4345.769043,4344.230957,4350.128418,4347.563965,4339.102539,4317.436035,4507.563965,4537.179688,4393.461426,4443.846191,,,,,,,,,,,,,,,,,,,,,,,,,,,,,,,,,,,,,,,,,,,,,,,,,,,,,,,,,,,,,,,,,,,,,,
1768919973.732159,1768919973.733518,24.0,0.0,4356.410156,4335.769043,4353.333496,4356.282227,4347.820313,4342.436035,4353.589844,4354.487305,4340.512695,4320.384766,4507.179688,4543.077148,4397.436035,4448.077148,,,,,,,,,,,,,,,,,,,,,,,,,,,,,,,,,,,,,,,,,,,,,,,,,,,,,,,,,,,,,,,,,,,,,,
1768919973.739967,1768919973.741328,25.0,0.0,4354.358887,4338.846191,4354.230957,4352.692383,4344.615234,4339.615234,4343.077148,4350.641113,4339.743652,4324.615234,4507.820313,4539.358887,4397.94873,4451.922852,,,,,,,,,,,,,,,,,,,,,,,,,,,,,,,,,,,,,,,,,,,,,,,,,,,,,,,,,,,,,,,,,,,,,,
1768919973.747776,1768919973.749036,26.0,0.0,4348.846191,4335.256348,4350.128418,4350.512695,4340.897461,4339.487305,4339.743652,4341.922852,4333.717773,4322.94873,4510.128418,4537.307617,4395.128418,4453.205078,,,,,,,,,,,,,,,,,,,,,,,,,,,,,,,,,,,,,,,,,,,,,,,,,,,,,,,,,,,,,,,,,,,,,,
1768919973.755584,1768919973.756844,27.0,0.0,4347.05127,4332.436035,4348.333496,4351.153809,4337.307617,4342.692383,4344.230957,4345.897461,4336.410156,4321.538574,4511.538574,4545.897461,4397.307617,4455.512695,,,,,,,,,,,,,,,,,,,,,,,,,,,,,,,,,,,,,,,,,,,,,,,,,,,,,,,,,,,,,,,,,,,,,,
1768919973.763393,1768919973.764453,28.0,0.0,4345.512695,4328.974121,4351.282227,4354.358887,4334.358887,4340.897461,4343.333496,4353.205078,4344.102539,4323.846191,4508.205078,4544.358887,4397.307617,4453.205078,,,,,,,,,,,,,,,,,,,,,,,,,,,,,,,,,,,,,,,,,,,,,,,,,,,,,,,,,,,,,,,,,,,,,,
1768919973.771201,1768919973.77226,29.0,0.0,4341.153809,4326.153809,4351.666504,4353.846191,4337.820313,4338.846191,4341.282227,4348.205078,4341.922852,4324.230957,4505.256348,4529.615234,4390.512695,4446.538574,,,,,,,,,,,,,,,,,,,,,,,,,,,,,,,,,,,,,,,,,,,,,,,,,,,,,,,,,,,,,,,,,,,,,,
1768919973.77901,1768919973.779969,30.0,0.0,4344.487305,4330.0,4347.820313,4351.794922,4342.94873,4342.307617,4342.05127,4337.563965,4337.179688,4322.820313,4505.384766,4526.025879,4391.666504,4450.0,,,,,,,,,,,,,,,,,,,,,,,,,,,,,,,,,,,,,,,,,,,,,,,,,,,,,,,,,,,,,,,,,,,,,,
1768919973.786818,1768919973.787777,31.0,0.0,4348.461426,4329.871582,4344.102539,4350.769043,4341.538574,4340.641113,4338.589844,4337.692383,4339.230957,4323.589844,4505.897461,4536.666504,4397.05127,4458.589844,,,,,,,,,,,,,,,,,,,,,,,,,,,,,,,,,,,,,,,,,,,,,,,,,,,,,,,,,,,,,,,,,,,,,,
1768919973.794627,1768919973.795785,32.0,0.0,4337.307617,4321.666504,4344.230957,4346.025879,4339.102539,4336.538574,4337.94873,4345.641113,4341.666504,4326.666504,4510.512695,4536.538574,4399.743652,4455.256348,0.673512,0.207682,0.128352,0.211941,0.109514,1.161385,0.254561,0.29516,0.281699,0.145208,0.933863,0.193344,0.10741,0.266606,0.126356,0.661486,0.266895,0.138053,0.206303,0.07927,0.256226,0.064908,0.091833,0.138779,0.058065,0.17298,0.253033,0.209412,0.20574,0.276585,0.311734,0.404144,0.337254,0.260394,0.379102,0.223128,0.123429,0.101884,0.10546,0.125288,0.575618,0.204688,0.320214,0.204996,0.148765,0.766913,0.262866,0.191971,0.167947,0.081074,0.771932,0.336954,0.340609,0.225794,0.135979,0.838256,0.373168,0.22794,0.264988,0.196617,1.26828,0.399225,0.246259,0.273239,0.147458,1.386011,0.31127,0.431696,0.452465,0.180771
1768919973.802435,1768919973.803593,33.0,0.0,4329.358887,4322.05127,4350.641113,4344.743652,4340.384766,4340.641113,4340.897461,4351.922852,4342.563965,4331.410156,4521.794922,4534.871582,4407.05127,4454.102539,,,,,,,,,,,,,,,,,,,,,,,,,,,,,,,,,,,,,,,,,,,,,,,,,,,,,,,,,,,,,,,,,,,,,,
1768919973.810244,1768919973.811502,34.0,0.0,4338.717773,4330.128418,4352.563965,4352.94873,4336.794922,4342.563965,4341.282227,4354.871582,4345.0,4330.641113,4523.717773,4545.384766,4409.871582,4463.077148,,,,,,,,,,,,,,,,,,,,,,,,,,,,,,,,,,,,,,,,,,,,,,,,,,,,,,,,,,,,,,,,,,,,,,
1768919973.818052,1768919973.81931,35.0,0.0,4342.436035,4332.436035,4345.256348,4358.461426,4333.461426,4339.102539,4341.410156,4349.358887,4341.666504,4319.743652,4510.256348,4541.538574,4399.358887,4457.820313,,,,,,,,,,,,,,,,,,,,,,,,,,,,,,,,,,,,,,,,,,,,,,,,,,,,,,,,,,,,,,,,,,,,,,
1768919973.825861,1768919973.826918,36.0,0.0,4332.436035,4328.461426,4341.153809,4356.922852,4341.025879,4338.974121,4339.615234,4341.153809,4333.205078,4315.256348,4501.538574,4523.461426,4393.077148,4444.871582,,,,,,,,,,,,,,,,,,,,,,,,,,,,,,,,,,,,,,,,,,,,,,,,,,,,,,,,,,,,,,,,,,,,,,
1768919973.833669,1768919973.834726,37.0,0.0,4332.179688,4325.128418,4341.922852,4351.922852,4341.153809,4339.743652,4335.769043,4342.692383,4332.692383,4322.307617,4504.102539,4520.128418,4400.0,4448.717773,,,,,,,,,,,,,,,,,,,,,,,,,,,,,,,,,,,,,,,,,,,,,,,,,,,,,,,,,,,,,,,,,,,,,,
1768919973.841478,1768919973.842434,38.0,0.0,4342.179688,4325.641113,4342.94873,4346.538574,4330.641113,4341.153809,4336.153809,4347.692383,4338.205078,4323.846191,4506.153809,4528.333496,4402.94873,4455.0,,,,,,,,,,,,,,,,,,,,,,,,,,,,,,,,,,,,,,,,,,,,,,,,,,,,,,,,,,,,,,,,,,,,,,
1768919973.849286,1768919973.850241,39.0,0.0,4340.769043,4327.563965,4344.230957,4345.769043,4330.641113,4334.871582,4331.282227,4343.461426,4336.153809,4320.256348,4505.897461,4526.025879,4399.358887,4453.461426,,,,,,,,,,,,,,,,,,,,,,,,,,,,,,,,,,,,,,,,,,,,,,,,,,,,,,,,,,,,,,,,,,,,,,
1768919973.857095,1768919973.858249,40.0,0.0,4331.153809,4325.384766,4339.743652,4348.589844,4334.487305,4325.641113,4322.307617,4343.461426,4335.384766,4322.820313,4506.538574,4517.94873,4396.153809,4446.025879,,,,,,,,,,,,,,,,,,,,,,,,,,,,,,,,,,,,,,,,,,,,,,,,,,,,,,,,,,,,,,,,,,,,,,
1768919973.864904,1768919973.866058,41.0,0.0,4326.025879,4323.333496,4337.307617,4348.461426,4328.974121,4335.641113,4336.922852,4356.153809,4345.384766,4325.641113,4508.461426,4520.0,4395.769043,4441.538574,,,,,,,,,,,,,,,,,,,,,,,,,,,,,,,,,,,,,,,,,,,,,,,,,,,,,,,,,,,,,,,,,,,,,,
1768919973.872712,1768919973.873966,42.0,0.0,4333.205078,4324.487305,4343.717773,4350.512695,4329.615234,4346.410156,4348.846191,4353.333496,4343.205078,4321.794922,4507.307617,4525.0,4400.256348,4450.256348,,,,,,,,,,,,,,,,,,,,,,,,,,,,,,,,,,,,,,,,,,,,,,,,,,,,,,,,,,,,,,,,,,,,,,
1768919973.88052,1768919973.881774,43.0,0.0,4341.922852,4327.692383,4348.717773,4355.384766,4338.205078,4332.05127,4329.871582,4336.153809,4329.743652,4319.743652,4507.436035,4530.128418,4407.05127,4460.641113,,,,,,,,,,,,,,,,,,,,,,,,,,,,,,,,,,,,,,,,,,,,,,,,,,,,,,,,,,,,,,,,,,,,,,
1768919973.888329,1768919973.889383,44.0,0.0,4336.538574,4332.692383,4348.077148,4355.769043,4341.538574,4328.333496,4324.487305,4336.922852,4333.589844,4327.563965,4516.794922,4537.820313,4415.128418,4462.436035,,,,,,,,,,,,,,,,,,,,,,,,,,,,,,,,,,,,,,,,,,,,,,,,,,,,,,,,,,,,,,,,,,,,,,
1768919973.896138,1768919973.897191,45.0,0.0,4328.974121,4333.589844,4346.922852,4355.128418,4338.846191,4342.05127,4337.436035,4344.230957,4343.717773,4333.333496,4524.871582,4539.615234,4418.974121,4460.641113,,,,,,,,,,,,,,,,,,,,,,,,,,,,,,,,,,,,,,,,,,,,,,,,,,,,,,,,,,,,,,,,,,,,,,
1768919973.903946,1768919973.904899,46.0,0.0,4331.025879,4332.307617,4343.846191,4356.538574,4335.128418,4335.512695,4328.846191,4339.743652,4339.230957,4330.769043,4523.077148,4538.205078,4415.769043,4462.563965,,,,,,,,,,,,,,,,,,,,,,,,,,,,,,,,,,,,,,,,,,,,,,,,,,,,,,,,,,,,,,,,,,,,,,
1768919973.911754,1768919973.912707,47.0,0.0,4333.589844,4333.333496,4341.025879,4353.077148,4334.230957,4325.769043,4323.205078,4345.769043,4337.820313,4329.615234,4522.563965,4541.282227,4413.589844,4463.589844,,,,,,,,,,,,,,,,,,,,,,,,,,,,,,,,,,,,,,,,,,,,,,,,,,,,,,,,,,,,,,,,,,,,,,
1768919973.919563,1768919973.920316,48.0,0.0,4330.256348,4335.256348,4343.717773,4350.0,4334.358887,4333.333496,4334.743652,4356.025879,4343.846191,4331.794922,4524.487305,4541.666504,4413.461426,4459.487305,0.596131,0.203394,0.1351,0.244225,0.124455,0.97791,0.211143,0.233921,0.310755,0.148603,0.742092,0.163563,0.083049,0.296246,0.109922,0.599676,0.223959,0.124895,0.247076,0.073032,0.250519,0.054699,0.087106,0.1317,0.055455,0.144791,0.244545,0.199367,0.203877,0.267089,0.197814,0.38379,0.36604,0.273574,0.408954,0.178531,0.140351,0.096891,0.128283,0.124681,0.502541,0.261047,0.328429,0.249992,0.153874,0.658732,0.288979,0.202671,0.191431,0.079125,0.697527,0.271727,0.344064,0.259776,0.135717,0.687654,0.339688,0.217487,0.309314,0.204657,1.088482,0.286358,0.281878,0.302856,0.143978,1.097988,0.232788,0.483484,0.534416,0.172048
1768919973.927372,1768919973.928124,49.0,0.0,4326.794922,4337.307617,4345.512695,4351.282227,4333.461426,4332.179688,4330.897461,4346.538574,4341.410156,4327.820313,4522.692383,4537.05127,4414.358887,4456.025879,,,,,,,,,,,,,,,,,,,,,,,,,,,,,,,,,,,,,,,,,,,,,,,,,,,,,,,,,,,,,,,,,,,,,,
1768919973.93518,1768919973.935832,50.0,0.0,4329.358887,4338.717773,4347.563965,4352.94873,4335.256348,4322.179688,4321.794922,4337.436035,4336.282227,4324.871582,4522.436035,4536.666504,4418.974121,4461.153809,,,,,,,,,,,,,,,,,,,,,,,,,,,,,,,,,,,,,,,,,,,,,,,,,,,,,,,,,,,,,,,,,,,,,,
1768919973.942989,1768919973.94364,51.0,0.0,4334.615234,4341.410156,4350.128418,4355.0,4337.436035,4330.0,4336.794922,4348.846191,4339.871582,4331.282227,4524.358887,4538.974121,4423.717773,4468.717773,,,,,,,,,,,,,,,,,,,,,,,,,,,,,,,,,,,,,,,,,,,,,,,,,,,,,,,,,,,,,,,,,,,,,,
1768919973.950797,1768919973.951248,52.0,0.0,4333.717773,4339.358887,4345.641113,4357.692383,4336.666504,4343.205078,4348.717773,4357.05127,4344.615234,4334.487305,4526.666504,4541.538574,4420.897461,4465.0,,,,,,,,,,,,,,,,,,,,,,,,,,,,,,,,,,,,,,,,,,,,,,,,,,,,,,,,,,,,,,,,,,,,,,
1768919973.958606,1768919973.959056,53.0,0.0,4328.205078,4331.794922,4341.282227,4356.410156,4336.538574,4335.256348,4334.102539,4346.282227,4338.589844,4329.743652,4522.436035,4536.538574,4415.0,4457.820313,,,,,,,,,,,,,,,,,,,,,,,,,,,,,,,,,,,,,,,,,,,,,,,,,,,,,,,,,,,,,,,,,,,,,,
1768919973.966414,1768919973.966764,54.0,0.0,4329.615234,4329.743652,4341.153809,4352.94873,4338.717773,4322.94873,4323.077148,4340.0,4329.615234,4321.794922,4510.769043,4524.102539,4410.512695,4455.128418,,,,,,,,,,,,,,,,,,,,,,,,,,,,,,,,,,,,,,,,,,,,,,,,,,,,,,,,,,,,,,,,,,,,,,
1768919973.974223,1768919973.974572,55.0,0.0,4336.794922,4333.846191,4342.05127,4353.333496,4336.538574,4329.487305,4336.538574,4350.897461,4335.0,4318.589844,4508.461426,4525.512695,4405.641113,4455.641113,,,,,,,,,,,,,,,,,,,,,,,,,,,,,,,,,,,,,,,,,,,,,,,,,,,,,,,,,,,,,,,,,,,,,,
1768919973.982031,1768919973.98258,56.0,0.0,4339.871582,4329.358887,4340.897461,4351.922852,4332.563965,4339.871582,4347.692383,4353.974121,4344.358887,4320.384766,4507.692383,4532.820313,4402.05127,4454.487305,,,,,,,,,,,,,,,,,,,,,,,,,,,,,,,,,,,,,,,,,,,,,,,,,,,,,,,,,,,,,,,,,,,,,,
1768919973.98984,1768919973.990389,57.0,0.0,4338.717773,4325.128418,4341.666504,4351.282227,4333.717773,4336.410156,4339.615234,4340.897461,4339.743652,4324.615234,4505.641113,4531.282227,4406.794922,4458.589844,,,,,,,,,,,,,,,,,,,,,,,,,,,,,,,,,,,,,,,,,,,,,,,,,,,,,,,,,,,,,,,,,,,,,,
1768919973.997648,1768919973.998297,58.0,0.0,4345.128418,4338.589844,4355.128418,4362.307617,4340.769043,4335.897461,4337.692383,4341.025879,4341.794922,4338.846191,4526.153809,4543.846191,4424.358887,4480.641113,,,,,,,,,,,,,,,,,,,,,,,,,,,,,,,,,,,,,,,,,,,,,,,,,,,,,,,,,,,,,,,,,,,,,,
1768919974.005457,1768919974.006106,59.0,0.0,4355.128418,4345.769043,4367.05127,4373.461426,4344.615234,4337.94873,4345.512695,4355.769043,4354.102539,4348.974121,4546.538574,4563.717773,4437.307617,4496.153809,,,,,,,,,,,,,,,,,,,,,,,,,,,,,,,,,,,,,,,,,,,,,,,,,,,,,,,,,,,,,,,,,,,,,,
1768919974.013265,1768919974.014114,60.0,0.0,4355.897461,4341.025879,4361.410156,4370.128418,4339.871582,4332.05127,4342.307617,4357.692383,4350.641113,4337.692383,4533.333496,4558.717773,4426.282227,4485.384766,,,,,,,,,,,,,,,,,,,,,,,,,,,,,,,,,,,,,,,,,,,,,,,,,,,,,,,,,,,,,,,,,,,,,,
1768919974.021074,1768919974.021922,61.0,0.0,4352.05127,4342.179688,4354.743652,4364.102539,4336.538574,4331.922852,4336.282227,4350.256348,4338.974121,4325.769043,4518.461426,4547.05127,4414.871582,4472.05127,,,,,,,,,,,,,,,,,,,,,,,,,,,,,,,,,,,,,,,,,,,,,,,,,,,,,,,,,,,,,,,,,,,,,,
1768919974.028882,1768919974.02963,62.0,0.0,4356.794922,4343.205078,4363.589844,4368.589844,4339.230957,4337.563965,4339.871582,4349.230957,4340.128418,4331.794922,4526.025879,4552.820313,4424.102539,4479.487305,,,,,,,,,,,,,,,,,,,,,,,,,,,,,,,,,,,,,,,,,,,,,,,,,,,,,,,,,,,,,,,,,,,,,,
1768919974.036691,1768919974.037438,63.0,0.0,4363.974121,4341.922852,4369.102539,4370.641113,4340.641113,4333.589844,4343.589844,4353.717773,4344.871582,4335.769043,4529.871582,4558.974121,4429.358887,4487.436035,,,,,,,,,,,,,,,,,,,,,,,,,,,,,,,,,,,,,,,,,,,,,,,,,,,,,,,,,,,,,,,,,,,,,,
1768919974.044499,1768919974.045446,64.0,0.0,4357.307617,4343.333496,4362.179688,4362.436035,4337.436035,4329.487305,4343.077148,4351.538574,4338.077148,4326.794922,4523.589844,4552.05127,4416.538574,4479.102539,0.60456,0.213471,0.13389,0.263412,0.148745,0.773452,0.194028,0.189794,0.315226,0.144048,0.619306,0.15063,0.073051,0.314404,0.093845,0.541029,0.202212,0.125198,0.277225,0.075158,0.237477,0.047151,0.081562,0.118567,0.053124,0.124234,0.22704,0.175105,0.192537,0.271161,0.129331,0.3472,0.364885,0.295606,0.450065,0.13562,0.182435,0.089462,0.148021,0.127738,0.427329,0.328623,0.319932,0.273333,0.161592,0.55241,0.340906,0.209076,0.213045,0.076844,0.589546,0.248321,0.336163,0.299517,0.139551,0.588515,0.346746,0.212708,0.345739,0.20901,0.913951,0.26106,0.317432,0.340141,0.142527,0.802625,0.20352,0.50651,0.595324,0.161494
1768919974.052308,1768919974.053255,65.0,0.0,4346.025879,4341.922852,4355.128418,4355.128418,4330.897461,4333.205078,4341.410156,4342.307617,4326.410156,4321.410156,4519.358887,4540.897461,4408.077148,4469.743652,,,,,,,,,,,,,,,,,,,,,,,,,,,,,,,,,,,,,,,,,,,,,,,,,,,,,,,,,,,,,,,,,,,,,,
1768919974.060116,1768919974.061163,66.0,0.0,4345.384766,4338.717773,4352.179688,4356.922852,4331.538574,4332.307617,4339.102539,4340.897461,4324.615234,4322.436035,4518.974121,4537.94873,4411.666504,4470.897461,,,,,,,,,,,,,,,,,,,,,,,,,,,,,,,,,,,,,,,,,,,,,,,,,,,,,,,,,,,,,,,,,,,,,,
1768919974.067925,1768919974.068971,67.0,0.0,4346.282227,4342.94873,4354.358887,4360.897461,4335.641113,4324.871582,4333.589844,4350.0,4333.717773,4324.358887,4521.922852,4543.077148,4415.128418,4477.05127,,,,,,,,,,,,,,,,,,,,,,,,,,,,,,,,,,,,,,,,,,,,,,,,,,,,,,,,,,,,,,,,,,,,,,
1768919974.075733,1768919974.076979,68.0,0.0,4342.563965,4342.563965,4353.077148,4357.436035,4330.256348,4324.358887,4329.102539,4350.384766,4333.205078,4325.128418,4523.974121,4542.436035,4413.846191,4476.153809,,,,,,,,,,,,,,,,,,,,,,,,,,,,,,,,,,,,,,,,,,,,,,,,,,,,,,,,,,,,,,,,,,,,,,
1768919974.083542,1768919974.084787,69.0,0.0,4335.128418,4334.102539,4343.205078,4350.769043,4326.282227,4327.563965,4328.846191,4341.410156,4327.05127,4323.846191,4520.512695,4537.692383,4413.205078,4466.666504,,,,,,,,,,,,,,,,,,,,,,,,,,,,,,,,,,,,,,,,,,,,,,,,,,,,,,,,,,,,,,,,,,,,,,
1768919974.09135,1768919974.092495,70.0,0.0,4332.563965,4333.974121,4341.666504,4349.487305,4332.820313,4323.589844,4326.282227,4336.538574,4332.05127,4325.0,4520.384766,4538.461426,4416.922852,4466.282227,,,,,,,,,,,,,,,,,,,,,,,,,,,,,,,,,,,,,,,,,,,,,,,,,,,,,,,,,,,,,,,,,,,,,,
1768919974.099159,1768919974.100304,71.0,0.0,4339.487305,4338.461426,4350.384766,4353.461426,4333.333496,4321.410156,4323.589844,4335.897461,4333.974121,4325.897461,4524.743652,4540.128418,4418.974121,4473.717773,,,,,,,,,,,,,,,,,,,,,,,,,,,,,,,,,,,,,,,,,,,,,,,,,,,,,,,,,,,,,,,,,,,,,,
1768919974.106967,1768919974.108312,72.0,0.0,4341.282227,4341.794922,4351.794922,4356.025879,4327.179688,4326.282227,4331.025879,4337.563965,4325.769043,4324.102539,4518.461426,4532.179688,4415.769043,4468.333496,,,,,,,,,,,,,,,,,,,,,,,,,,,,,,,,,,,,,,,,,,,,,,,,,,,,,,,,,,,,,,,,,,,,,,
1768919974.114776,1768919974.116121,73.0,0.0,4339.102539,4339.102539,4345.256348,4356.922852,4329.230957,4327.563965,4339.358887,4341.922852,4324.230957,4318.205078,4511.538574,4523.077148,4412.179688,4460.897461,,,,,,,,,,,,,,,,,,,,,,,,,,,,,,,,,,,,,,,,,,,,,,,,,,,,,,,,,,,,,,,,,,,,,,
1768919974.122584,1768919974.123829,74.0,0.0,4343.333496,4333.974121,4343.205078,4356.153809,4333.461426,4326.153809,4335.0,4342.692383,4329.487305,4312.05127,4514.871582,4522.94873,4411.794922,4467.820313,,,,,,,,,,,,,,,,,,,,,,,,,,,,,,,,,,,,,,,,,,,,,,,,,,,,,,,,,,,,,,,,,,,,,,
1768919974.130393,1768919974.131637,75.0,0.0,4342.05127,4331.794922,4343.846191,4351.153809,4329.615234,4326.410156,4327.436035,4340.512695,4326.794922,4316.025879,4515.256348,4529.358887,4412.820313,4469.487305,,,,,,,,,,,,,,,,,,,,,,,,,,,,,,,,,,,,,,,,,,,,,,,,,,,,,,,,,,,,,,,,,,,,,,
1768919974.138201,1768919974.139245,76.0,0.0,4334.615234,4331.153809,4340.384766,4343.461426,4326.922852,4323.205078,4326.282227,4341.153809,4327.94873,4325.512695,4514.358887,4532.05127,4413.974121,4463.589844,,,,,,,,,,,,,,,,,,,,,,,,,,,,,,,,,,,,,,,,,,,,,,,,,,,,,,,,,,,,,,,,,,,,,,
1768919974.14601,1768919974.147054,77.0,0.0,4333.717773,4331.282227,4334.230957,4340.769043,4332.179688,4322.307617,4328.205078,4344.358887,4336.922852,4326.794922,4516.282227,4526.922852,4413.717773,4466.153809,,,,,,,,,,,,,,,,,,,,,,,,,,,,,,,,,,,,,,,,,,,,,,,,,,,,,,,,,,,,,,,,,,,,,,
1768919974.153818,1768919974.154962,78.0,0.0,4335.641113,4331.794922,4332.94873,4346.538574,4337.307617,4332.307617,4336.282227,4350.256348,4340.769043,4322.179688,4511.666504,4526.410156,4412.563965,4467.179688,,,,,,,,,,,,,,,,,,,,,,,,,,,,,,,,,,,,,,,,,,,,,,,,,,,,,,,,,,,,,,,,,,,,,,
1768919974.161627,1768919974.162771,79.0,0.0,4331.922852,4330.384766,4338.205078,4351.282227,4332.307617,4340.897461,4344.230957,4354.358887,4340.0,4322.307617,4506.922852,4531.922852,4413.846191,4461.025879,,,,,,,,,,,,,,,,,,,,,,,,,,,,,,,,,,,,,,,,,,,,,,,,,,,,,,,,,,,,,,,,,,,,,,
1768919974.169435,1768919974.170379,80.0,0.0,4330.384766,4324.743652,4338.846191,4348.717773,4328.333496,4338.333496,4338.974121,4346.153809,4334.871582,4321.025879,4509.615234,4527.563965,4410.769043,4455.641113,0.673232,0.2355,0.1232,0.262112,0.178399,0.585504,0.192383,0.15658,0.291312,0.132824,0.565532,0.153123,0.075455,0.312249,0.081255,0.496478,0.19469,0.13484,0.289005,0.08243,0.220077,0.044348,0.077065,0.105927,0.05255,0.117475,0.202824,0.14266,0.174831,0.290682,0.102163,0.306881,0.340658,0.318093,0.49146,0.111546,0.238196,0.084296,0.161291,0.136246,0.377107,0.381881,0.295941,0.269101,0.169533,0.475292,0.396945,0.208341,0.22593,0.074457,0.471059,0.272097,0.314778,0.331996,0.144995,0.576134,0.411415,0.210489,0.363716,0.207756,0.739407,0.290053,0.341922,0.368832,0.140914,0.554833,0.208162,0.489888,0.613595,0.152869
1768919974.177244,1768919974.178187,81.0,0.0,4335.256348,4326.666504,4333.333496,4345.0,4335.0,4329.615234,4327.692383,4333.974121,4326.282227,4311.410156,4506.666504,4514.487305,4406.538574,4452.563965,,,,,,,,,,,,,,,,,,,,,,,,,,,,,,,,,,,,,,,,,,,,,,,,,,,,,,,,,,,,,,,,,,,,,,
1768919974.185053,1768919974.186095,82.0,0.0,4335.0,4327.820313,4333.589844,4342.94873,4339.615234,4326.410156,4322.94873,4337.05127,4326.538574,4311.282227,4505.897461,4515.128418,4410.897461,4457.179688,,,,,,,,,,,,,,,,,,,,,,,,,,,,,,,,,,,,,,,,,,,,,,,,,,,,,,,,,,,,,,,,,,,,,,
1768919974.192861,1768919974.193904,83.0,0.0,4328.589844,4321.922852,4337.94873,4340.384766,4338.077148,4330.897461,4327.436035,4346.025879,4334.102539,4320.256348,4512.05127,4526.794922,4414.230957,4461.410156,,,,,,,,,,,,,,,,,,,,,,,,,,,,,,,,,,,,,,,,,,,,,,,,,,,,,,,,,,,,,,,,,,,,,,
1768919974.20067,1768919974.201912,84.0,0.0,4332.563965,4330.384766,4337.05127,4344.358887,4339.871582,4335.384766,4330.641113,4341.153809,4329.871582,4319.230957,4508.717773,4520.641113,4410.256348,4456.794922,,,,,,,,,,,,,,,,,,,,,,,,,,,,,,,,,,,,,,,,,,,,,,,,,,,,,,,,,,,,,,,,,,,,,,
1768919974.208478,1768919974.20972,85.0,0.0,4344.102539,4343.717773,4333.846191,4351.794922,4341.666504,4338.333496,4328.846191,4335.897461,4323.717773,4310.897461,4501.666504,4507.307617,4405.256348,4454.230957,,,,,,,,,,,,,,,,,,,,,,,,,,,,,,,,,,,,,,,,,,,,,,,,,,,,,,,,,,,,,,,,,,,,,,
1768919974.216287,1768919974.217629,86.0,0.0,4348.333496,4344.615234,4334.102539,4350.512695,4339.102539,4336.922852,4327.94873,4342.307617,4327.692383,4308.974121,4503.717773,4510.512695,4403.589844,4460.256348,,,,,,,,,,,,,,,,,,,,,,,,,,,,,,,,,,,,,,,,,,,,,,,,,,,,,,,,,,,,,,,,,,,,,,
1768919974.224095,1768919974.225437,87.0,0.0,4347.820313,4340.384766,4337.563965,4347.563965,4338.717773,4328.846191,4324.743652,4343.205078,4326.410156,4310.769043,4505.769043,4518.333496,4405.641113,4465.128418,,,,,,,,,,,,,,,,,,,,,,,,,,,,,,,,,,,,,,,,,,,,,,,,,,,,,,,,,,,,,,,,,,,,,,
1768919974.231904,1768919974.233045,88.0,0.0,4350.641113,4342.692383,4342.563965,4353.205078,4339.615234,4327.820313,4321.538574,4336.538574,4322.436035,4311.666504,4505.128418,4522.05127,4410.0,4467.05127,,,,,,,,,,,,,,,,,,,,,,,,,,,,,,,,,,,,,,,,,,,,,,,,,,,,,,,,,,,,,,,,,,,,,,
1768919974.239712,1768919974.240853,89.0,0.0,4351.666504,4344.487305,4344.230957,4355.128418,4338.205078,4336.666504,4326.153809,4341.153809,4326.794922,4315.128418,4513.205078,4527.307617,4413.077148,4472.436035,,,,,,,,,,,,,,,,,,,,,,,,,,,,,,,,,,,,,,,,,,,,,,,,,,,,,,,,,,,,,,,,,,,,,,
1768919974.247521,1768919974.248761,90.0,0.0,4348.846191,4341.666504,4342.436035,4348.717773,4338.205078,4336.538574,4333.846191,4350.128418,4328.333496,4314.615234,4519.487305,4530.512695,4413.077148,4477.820313,,,,,,,,,,,,,,,,,,,,,,,,,,,,,,,,,,,,,,,,,,,,,,,,,,,,,,,,,,,,,,,,,,,,,,
1768919974.255329,1768919974.256569,91.0,0.0,4353.205078,4341.025879,4345.512695,4347.692383,4340.512695,4332.94873,4332.307617,4345.384766,4325.641113,4312.307617,4515.897461,4531.025879,4413.589844,4479.230957,,,,,,,,,,,,,,,,,,,,,,,,,,,,,,,,,,,,,,,,,,,,,,,,,,,,,,,,,,,,,,,,,,,,,,
1768919974.263138,1768919974.264577,92.0,0.0,4363.205078,4342.05127,4348.717773,4351.922852,4339.487305,4340.897461,4334.743652,4338.077148,4328.846191,4314.358887,4512.692383,4533.846191,4415.384766,4474.230957,,,,,,,,,,,,,,,,,,,,,,,,,,,,,,,,,,,,,,,,,,,,,,,,,,,,,,,,,,,,,,,,,,,,,,
1768919974.270946,1768919974.272386,93.0,0.0,4365.512695,4343.717773,4344.358887,4354.358887,4331.666504,4340.256348,4337.307617,4338.077148,4328.974121,4312.94873,4509.230957,4529.230957,4409.358887,4464.102539,,,,,,,,,,,,,,,,,,,,,,,,,,,,,,,,,,,,,,,,,,,,,,,,,,,,,,,,,,,,,,,,,,,,,,
1768919974.278755,1768919974.280294,94.0,0.0,4358.205078,4342.179688,4340.641113,4352.05127,4326.666504,4326.282227,4321.410156,4335.256348,4322.05127,4309.743652,4503.205078,4518.077148,4397.820313,4456.282227,,,,,,,,,,,,,,,,,,,,,,,,,,,,,,,,,,,,,,,,,,,,,,,,,,,,,,,,,,,,,,,,,,,,,,
1768919974.286563,1768919974.288103,95.0,0.0,4356.538574,4340.512695,4341.282227,4349.615234,4328.717773,4321.538574,4311.538574,4333.974121,4323.333496,4310.384766,4503.461426,4518.717773,4395.897461,4455.0,,,,,,,,,,,,,,,,,,,,,,,,,,,,,,,,,,,,,,,,,,,,,,,,,,,,,,,,,,,,,,,,,,,,,,
1768919974.294372,1768919974.295712,96.0,0.0,4369.102539,4341.282227,4344.487305,4351.410156,4329.102539,4327.692383,4315.641113,4337.179688,4329.358887,4311.410156,4506.794922,4524.230957,4399.102539,4456.282227,0.763056,0.267743,0.108857,0.240167,0.207337,0.439086,0.19818,0.126388,0.245114,0.118546,0.559702,0.169109,0.087511,0.287531,0.074151,0.464811,0.192793,0.150229,0.281491,0.089719,0.199224,0.047238,0.075284,0.099486,0.054313,0.129362,0.176645,0.109591,0.154865,0.319954,0.111397,0.274192,0.305965,0.333199,0.522235,0.104849,0.29149,0.085037,0.169001,0.151527,0.355345,0.401985,0.261008,0.240317,0.175096,0.422806,0.437084,0.200687,0.229091,0.073261,0.359713,0.340471,0.286579,0.348826,0.150955,0.651269,0.539059,0.210368,0.358015,0.202988,0.569136,0.34084,0.352028,0.376973,0.137776,0.400142,0.238539,0.441545,0.583719,0.1509
1768919974.30218,1768919974.30352,97.0,0.0,4381.410156,4344.615234,4348.461426,4355.512695,4327.563965,4327.820313,4315.128418,4336.794922,4326.922852,4309.871582,4505.128418,4522.563965,4395.512695,4456.153809,,,,,,,,,,,,,,,,,,,,,,,,,,,,,,,,,,,,,,,,,,,,,,,,,,,,,,,,,,,,,,,,,,,,,,
1768919974.309989,1768919974.311228,98.0,0.0,4380.769043,4348.846191,4350.384766,4357.05127,4329.743652,4323.717773,4314.358887,4335.769043,4323.846191,4310.384766,4505.128418,4520.641113,4396.410156,4458.974121,,,,,,,,,,,,,,,,,,,,,,,,,,,,,,,,,,,,,,,,,,,,,,,,,,,,,,,,,,,,,,,,,,,,,,
1768919974.317797,1768919974.319036,99.0,0.0,4376.794922,4347.179688,4347.563965,4355.384766,4334.487305,4328.974121,4325.897461,4340.128418,4327.05127,4312.436035,4507.94873,4522.307617,4402.307617,4460.0,,,,,,,,,,,,,,,,,,,,,,,,,,,,,,,,,,,,,,,,,,,,,,,,,,,,,,,,,,,,,,,,,,,,,,
1768919974.325606,1768919974.326644,100.0,0.0,4382.692383,4342.94873,4344.743652,4355.769043,4335.641113,4337.436035,4329.358887,4343.077148,4329.615234,4310.897461,4509.230957,4520.512695,4399.871582,4455.0,,,,,,,,,,,,,,,,,,,,,,,,,,,,,,,,,,,,,,,,,,,,,,,,,,,,,,,,,,,,,,,,,,,,,,
1768919974.333414,1768919974.334452,101.0,0.0,4388.333496,4341.538574,4343.717773,4355.128418,4331.922852,4331.282227,4320.0,4340.641113,4326.666504,4309.358887,4502.820313,4514.743652,4395.897461,4451.666504,,,,,,,,,,,,,,,,,,,,,,,,,,,,,,,,,,,,,,,,,,,,,,,,,,,,,,,,,,,,,,,,,,,,,,
1768919974.341223,1768919974.34216,102.0,0.0,4386.538574,4341.410156,4341.282227,4352.94873,4330.641113,4325.897461,4320.512695,4340.384766,4325.256348,4309.358887,4498.589844,4513.717773,4397.563965,4455.128418,,,,,,,,,,,,,,,,,,,,,,,,,,,,,,,,,,,,,,,,,,,,,,,,,,,,,,,,,,,,,,,,,,,,,,
1768919974.349031,1768919974.349968,103.0,0.0,4389.358887,4341.794922,4341.025879,4352.820313,4334.615234,4335.384766,4325.769043,4340.769043,4327.692383,4311.794922,4503.846191,4513.205078,4401.025879,4455.128418,,,,,,,,,,,,,,,,,,,,,,,,,,,,,,,,,,,,,,,,,,,,,,,,,,,,,,,,,,,,,,,,,,,,,,
1768919974.35684,1768919974.357576,104.0,0.0,4394.487305,4342.820313,4346.282227,4355.128418,4333.461426,4339.358887,4327.563965,4338.333496,4326.410156,4316.666504,4507.563965,4514.102539,4399.487305,4449.743652,,,,,,,,,,,,,,,,,,,,,,,,,,,,,,,,,,,,,,,,,,,,,,,,,,,,,,,,,,,,,,,,,,,,,,
1768919974.364648,1768919974.365384,105.0,0.0,4393.846191,4342.692383,4352.307617,4357.179688,4327.692383,4333.461426,4326.153809,4339.871582,4325.769043,4320.512695,4504.871582,4522.692383,4396.410156,4453.333496,,,,,,,,,,,,,,,,,,,,,,,,,,,,,,,,,,,,,,,,,,,,,,,,,,,,,,,,,,,,,,,,,,,,,,
1768919974.372457,1768919974.373092,106.0,0.0,4391.153809,4342.820313,4352.05127,4357.179688,4329.871582,4335.128418,4324.358887,4343.846191,4330.256348,4320.0,4506.282227,4529.230957,4403.205078,4459.230957,,,,,,,,,,,,,,,,,,,,,,,,,,,,,,,,,,,,,,,,,,,,,,,,,,,,,,,,,,,,,,,,,,,,,,
1768919974.380265,1768919974.3809,107.0,0.0,4379.743652,4344.358887,4349.230957,4355.128418,4335.769043,4338.974121,4323.205078,4345.128418,4336.666504,4320.0,4511.666504,4524.871582,4409.230957,4458.461426,,,,,,,,,,,,,,,,,,,,,,,,,,,,,,,,,,,,,,,,,,,,,,,,,,,,,,,,,,,,,,,,,,,,,,
1768919974.388074,1768919974.388908,108.0,0.0,4366.153809,4342.94873,4348.974121,4352.307617,4338.717773,4335.384766,4326.153809,4347.436035,4341.025879,4323.333496,4510.641113,4524.230957,4406.794922,4460.769043,,,,,,,,,,,,,,,,,,,,,,,,,,,,,,,,,,,,,,,,,,,,,,,,,,,,,,,,,,,,,,,,,,,,,,
1768919974.395882,1768919974.396717,109.0,0.0,4369.230957,4341.922852,4350.769043,4352.436035,4336.538574,4330.512695,4324.615234,4347.436035,4336.025879,4324.230957,4509.102539,4531.025879,4408.077148,4463.077148,,,,,,,,,,,,,,,,,,,,,,,,,,,,,,,,,,,,,,,,,,,,,,,,,,,,,,,,,,,,,,,,,,,,,,
1768919974.403691,1768919974.404625,110.0,0.0,4370.512695,4345.769043,4351.410156,4352.563965,4328.974121,4328.461426,4314.102539,4344.358887,4331.025879,4325.897461,4510.128418,4528.077148,4409.230957,4458.974121,,,,,,,,,,,,,,,,,,,,,,,,,,,,,,,,,,,,,,,,,,,,,,,,,,,,,,,,,,,,,,,,,,,,,,
1768919974.411499,1768919974.412434,111.0,0.0,4358.974121,4346.153809,4350.384766,4352.179688,4329.615234,4330.897461,4315.897461,4345.769043,4333.205078,4324.487305,4512.05127,4523.846191,4403.589844,4458.717773,,,,,,,,,,,,,,,,,,,,,,,,,,,,,,,,,,,,,,,,,,,,,,,,,,,,,,,,,,,,,,,,,,,,,,
1768919974.419308,1768919974.420442,112.0,0.0,4355.256348,4342.820313,4351.794922,4352.94873,4340.512695,4337.05127,4326.410156,4346.794922,4333.077148,4318.077148,4508.846191,4526.538574,4404.102539,4460.897461,0.853602,0.30563,0.094892,0.203968,0.229401,0.34952,0.210161,0.097368,0.189607,0.105735,0.59241,0.19602,0.106194,0.246007,0.073737,0.445341,0.194365,0.167096,0.260927,0.09336,0.189311,0.055341,0.076017,0.100662,0.058322,0.165791,0.153314,0.081876,0.138692,0.347166,0.155013,0.253204,0.272421,0.338432,0.533804,0.11868,0.327375,0.092494,0.175265,0.173722,0.364184,0.38615,0.225388,0.1981,0.17754,0.386506,0.453493,0.194302,0.227764,0.075328,0.291158,0.447128,0.268506,0.351838,0.15791,0.80975,0.718256,0.221799,0.333463,0.199904,0.4259,0.401022,0.356639,0.364015,0.134458,0.371289,0.301333,0.383227,0.519019,0.159596
1768919974.427117,1768919974.42825,113.0,0.0,4359.487305,4345.897461,4354.871582,4357.05127,4344.358887,4338.205078,4322.820313,4341.025879,4329.615234,4319.358887,4507.563965,4529.615234,4410.897461,4460.256348,,,,,,,,,,,,,,,,,,,,,,,,,,,,,,,,,,,,,,,,,,,,,,,,,,,,,,,,,,,,,,,,,,,,,,
1768919974.434925,1768919974.435958,114.0,0.0,4358.205078,4348.077148,4353.589844,4357.436035,4340.641113,4336.025879,4318.333496,4337.307617,4328.974121,4327.563965,4517.179688,4531.025879,4412.436035,4460.897461,,,,,,,,,,,,,,,,,,,,,,,,,,,,,,,,,,,,,,,,,,,,,,,,,,,,,,,,,,,,,,,,,,,,,,
1768919974.442733,1768919974.443766,115.0,0.0,4351.922852,4342.307617,4350.128418,4348.205078,4334.358887,4333.205078,4325.769043,4338.205078,4332.05127,4326.025879,4518.846191,4531.153809,4412.436035,4463.846191,,,,,,,,,,,,,,,,,,,,,,,,,,,,,,,,,,,,,,,,,,,,,,,,,,,,,,,,,,,,,,,,,,,,,,
1768919974.450542,1768919974.451474,116.0,0.0,4348.077148,4340.128418,4352.563965,4344.358887,4327.307617,4328.333496,4323.717773,4339.615234,4336.153809,4321.538574,4514.743652,4533.461426,4412.05127,4463.589844,,,,,,,,,,,,,,,,,,,,,,,,,,,,,,,,,,,,,,,,,,,,,,,,,,,,,,,,,,,,,,,,,,,,,,
1768919974.458351,1768919974.459282,117.0,0.0,4349.615234,4341.153809,4354.871582,4346.282227,4322.05127,4323.205078,4309.487305,4342.692383,4335.512695,4324.230957,4518.205078,4539.230957,4411.794922,4462.05127,,,,,,,,,,,,,,,,,,,,,,,,,,,,,,,,,,,,,,,,,,,,,,,,,,,,,,,,,,,,,,,,,,,,,,
1768919974.466159,1768919974.466991,118.0,0.0,4351.666504,4342.436035,4350.769043,4346.153809,4323.205078,4326.922852,4313.077148,4343.846191,4331.922852,4322.563965,4517.05127,4537.692383,4414.102539,4462.563965,,,,,,,,,,,,,,,,,,,,,,,,,,,,,,,,,,,,,,,,,,,,,,,,,,,,,,,,,,,,,,,,,,,,,,
1768919974.473967,1768919974.474799,119.0,0.0,4350.641113,4346.538574,4346.922852,4346.153809,4328.333496,4333.077148,4324.871582,4340.128418,4330.897461,4314.871582,4504.615234,4526.922852,4409.358887,4459.487305,,,,,,,,,,,,,,,,,,,,,,,,,,,,,,,,,,,,,,,,,,,,,,,,,,,,,,,,,,,,,,,,,,,,,,
1768919974.481776,1768919974.482407,120.0,0.0,4348.077148,4345.769043,4347.94873,4347.179688,4327.820313,4325.641113,4315.641113,4336.538574,4330.0,4316.538574,4505.512695,4527.820313,4404.102539,4457.436035,,,,,,,,,,,,,,,,,,,,,,,,,,,,,,,,,,,,,,,,,,,,,,,,,,,,,,,,,,,,,,,,,,,,,,
1768919974.489585,1768919974.490216,121.0,0.0,4350.897461,4338.846191,4351.794922,4346.410156,4324.487305,4320.256348,4308.333496,4339.487305,4329.487305,4323.333496,4517.307617,4540.512695,4411.794922,4461.025879,,,,,,,,,,,,,,,,,,,,,,,,,,,,,,,,,,,,,,,,,,,,,,,,,,,,,,,,,,,,,,,,,,,,,,
1768919974.497393,1768919974.497924,122.0,0.0,4355.769043,4337.563965,4350.769043,4347.820313,4324.615234,4327.94873,4319.487305,4339.102539,4329.743652,4318.589844,4511.922852,4536.794922,4413.974121,4461.153809,,,,,,,,,,,,,,,,,,,,,,,,,,,,,,,,,,,,,,,,,,,,,,,,,,,,,,,,,,,,,,,,,,,,,,
1768919974.505202,1768919974.505732,123.0,0.0,4354.743652,4340.128418,4348.205078,4351.282227,4327.820313,4330.128418,4322.05127,4334.102539,4328.077148,4313.846191,4504.358887,4523.333496,4404.230957,4456.666504,,,,,,,,,,,,,,,,,,,,,,,,,,,,,,,,,,,,,,,,,,,,,,,,,,,,,,,,,,,,,,,,,,,,,,
1768919974.51301,1768919974.513741,124.0,0.0,4355.641113,4341.282227,4349.487305,4352.436035,4329.102539,4324.871582,4309.871582,4336.922852,4330.128418,4320.128418,4507.820313,4526.794922,4405.384766,4463.846191,,,,,,,,,,,,,,,,,,,,,,,,,,,,,,,,,,,,,,,,,,,,,,,,,,,,,,,,,,,,,,,,,,,,,,
1768919974.520819,1768919974.521549,125.0,0.0,4359.102539,4343.333496,4350.384766,4354.487305,4330.0,4327.179688,4307.563965,4339.487305,4333.717773,4321.410156,4511.025879,4534.871582,4415.384766,4472.820313,,,,,,,,,,,,,,,,,,,,,,,,,,,,,,,,,,,,,,,,,,,,,,,,,,,,,,,,,,,,,,,,,,,,,,
1768919974.528627,1768919974.529257,126.0,0.0,4353.717773,4341.410156,4347.436035,4350.641113,4331.410156,4333.717773,4319.102539,4335.641113,4328.205078,4319.615234,4508.333496,4527.05127,4414.743652,4464.487305,,,,,,,,,,,,,,,,,,,,,,,,,,,,,,,,,,,,,,,,,,,,,,,,,,,,,,,,,,,,,,,,,,,,,,
1768919974.536436,1768919974.537065,127.0,0.0,4351.410156,4337.563965,4350.0,4346.538574,4333.974121,4334.871582,4322.179688,4336.153809,4324.743652,4323.717773,4508.974121,4524.358887,4410.641113,4455.897461,,,,,,,,,,,,,,,,,,,,,,,,,,,,,,,,,,,,,,,,,,,,,,,,,,,,,,,,,,,,,,,,,,,,,,
1768919974.544244,1768919974.544673,0.0,0.0,4360.384766,4341.282227,4358.846191,4351.025879,4333.717773,4331.666504,4316.922852,4339.102539,4331.025879,4325.256348,4516.153809,4537.179688,4411.794922,4459.102539,0.940491,0.349143,0.086402,0.1651,0.240589,0.319899,0.236301,0.075466,0.140006,0.097695,0.663819,0.234671,0.131189,0.200001,0.080227,0.439559,0.205074,0.182991,0.237915,0.092772,0.202702,0.067941,0.078216,0.106643,0.064005,0.22838,0.13607,0.0633,0.132634,0.36056,0.231531,0.244963,0.251087,0.338038,0.522571,0.144163,0.340475,0.106475,0.184741,0.200951,0.395271,0.347971,0.20312,0.156644,0.178489,0.349939,0.453746,0.200665,0.230239,0.082066,0.273053,0.578745,0.28064,0.350847,0.166122,1.020802,0.926856,0.260699,0.30243,0.203143,0.320824,0.478549,0.373379,0.339621,0.133382,0.465892,0.418201,0.345121,0.444556,0.178764
1768919974.552053,1768919974.552481,1.0,0.0,4361.666504,4344.615234,4359.230957,4352.820313,4328.461426,4326.922852,4315.384766,4338.333496,4334.615234,4319.358887,4521.153809,4543.077148,4412.05127,4465.897461,,,,,,,,,,,,,,,,,,,,,,,,,,,,,,,,,,,,,,,,,,,,,,,,,,,,,,,,,,,,,,,,,,,,,,
1768919974.559861,1768919974.56019,2.0,0.0,4356.666504,4339.743652,4354.871582,4348.846191,4327.820313,4327.692383,4316.666504,4340.128418,4332.179688,4320.256348,4524.358887,4538.717773,4412.692383,4473.077148,,,,,,,,,,,,,,,,,,,,,,,,,,,,,,,,,,,,,,,,,,,,,,,,,,,,,,,,,,,,,,,,,,,,,,
1768919974.56767,1768919974.567998,3.0,0.0,4356.794922,4338.205078,4354.487305,4350.256348,4327.179688,4326.282227,4313.717773,4338.077148,4325.769043,4321.666504,4519.102539,4532.692383,4412.692383,4474.487305,,,,,,,,,,,,,,,,,,,,,,,,,,,,,,,,,,,,,,,,,,,,,,,,,,,,,,,,,,,,,,,,,,,,,,
1768919974.575478,1768919974.576006,4.0,0.0,4356.922852,4342.692383,4357.307617,4350.897461,4326.410156,4321.922852,4309.230957,4334.871582,4328.077148,4318.333496,4515.128418,4530.256348,4410.384766,4470.256348,,,,,,,,,,,,,,,,,,,,,,,,,,,,,,,,,,,,,,,,,,,,,,,,,,,,,,,,,,,,,,,,,,,,,,
1768919974.583287,1768919974.583814,5.0,0.0,4356.153809,4342.820313,4359.487305,4347.05127,4331.922852,4328.077148,4313.077148,4340.128418,4333.589844,4322.179688,4520.0,4533.461426,4412.307617,4468.589844,,,,,,,,,,,,,,,,,,,,,,,,,,,,,,,,,,,,,,,,,,,,,,,,,,,,,,,,,,,,,,,,,,,,,,
1768919974.591095,1768919974.591723,6.0,0.0,4353.205078,4336.922852,4352.563965,4347.436035,4332.05127,4332.436035,4316.025879,4339.358887,4327.307617,4325.769043,4518.205078,4530.0,4411.666504,4466.666504,,,,,,,,,,,,,,,,,,,,,,,,,,,,,,,,,,,,,,,,,,,,,,,,,,,,,,,,,,,,,,,,,,,,,,
1768919974.598904,1768919974.599531,7.0,0.0,4348.461426,4331.410156,4342.179688,4349.102539,4328.461426,4326.025879,4314.871582,4334.743652,4322.563965,4317.436035,4507.94873,4520.128418,4406.282227,4459.871582,,,,,,,,,,,,,,,,,,,,,,,,,,,,,,,,,,,,,,,,,,,,,,,,,,,,,,,,,,,,,,,,,,,,,,
1768919974.606712,1768919974.607539,8.0,0.0,4349.871582,4330.897461,4343.589844,4351.794922,4333.461426,4329.615234,4322.436035,4337.692383,4326.666504,4308.846191,4506.153809,4521.922852,4406.282227,4458.717773,,,,,,,,,,,,,,,,,,,,,,,,,,,,,,,,,,,,,,,,,,,,,,,,,,,,,,,,,,,,,,,,,,,,,,
1768919974.614521,1768919974.615348,9.0,0.0,4355.256348,4331.025879,4353.846191,4353.717773,4337.05127,4337.563965,4324.743652,4337.94873,4325.128418,4310.641113,4509.615234,4525.384766,4406.538574,4461.922852,,,,,,,,,,,,,,,,,,,,,,,,,,,,,,,,,,,,,,,,,,,,,,,,,,,,,,,,,,,,,,,,,,,,,,
1768919974.622329,1768919974.623256,10.0,0.0,4352.05127,4329.230957,4353.974121,4354.102539,4328.077148,4328.974121,4313.717773,4334.230957,4322.692383,4313.205078,4506.282227,4521.922852,4401.282227,4460.128418,,,,,,,,,,,,,,,,,,,,,,,,,,,,,,,,,,,,,,,,,,,,,,,,,,,,,,,,,,,,,,,,,,,,,,
1768919974.630138,1768919974.631064,11.0,0.0,4346.922852,4328.333496,4343.846191,4352.436035,4323.974121,4322.820313,4309.871582,4336.282227,4326.410156,4313.589844,4505.384766,4523.589844,4402.692383,4454.615234,,,,,,,,,,,,,,,,,,,,,,,,,,,,,,,,,,,,,,,,,,,,,,,,,,,,,,,,,,,,,,,,,,,,,,
1768919974.637946,1768919974.638672,12.0,0.0,4349.358887,4328.461426,4338.333496,4345.897461,4329.487305,4330.512695,4316.666504,4336.666504,4321.538574,4314.743652,4507.94873,4522.436035,4404.487305,4452.307617,,,,,,,,,,,,,,,,,,,,,,,,,,,,,,,,,,,,,,,,,,,,,,,,,,,,,,,,,,,,,,,,,,,,,,
1768919974.645755,1768919974.64648,13.0,0.0,4351.282227,4327.692383,4344.871582,4343.205078,4330.128418,4334.102539,4319.230957,4334.615234,4316.025879,4310.256348,4504.487305,4517.820313,4398.717773,4456.538574,,,,,,,,,,,,,,,,,,,,,,,,,,,,,,,,,,,,,,,,,,,,,,,,,,,,,,,,,,,,,,,,,,,,,,
1768919974.653563,1768919974.654188,14.0,0.0,4349.230957,4325.641113,4353.205078,4350.128418,4325.641113,4327.563965,4317.05127,4336.666504,4324.230957,4310.256348,4506.282227,4528.077148,4402.563965,4461.282227,,,,,,,,,,,,,,,,,,,,,,,,,,,,,,,,,,,,,,,,,,,,,,,,,,,,,,,,,,,,,,,,,,,,,,
1768919974.661372,1768919974.661996,15.0,0.0,4348.846191,4328.461426,4348.077148,4353.461426,4326.794922,4326.153809,4315.128418,4338.205078,4330.128418,4320.128418,4518.205078,4537.820313,4414.615234,4461.025879,,,,,,,,,,,,,,,,,,,,,,,,,,,,,,,,,,,,,,,,,,,,,,,,,,,,,,,,,,,,,,,,,,,,,,
1768919974.66918,1768919974.669605,16.0,0.0,4348.974121,4333.589844,4343.589844,4347.563965,4331.794922,4332.179688,4311.922852,4340.0,4326.538574,4322.820313,4519.615234,4530.256348,4415.256348,4458.077148,1.057785,0.405415,0.084432,0.135215,0.240192,0.346486,0.277179,0.064744,0.106424,0.094627,0.761896,0.281587,0.159407,0.161372,0.091786,0.441905,0.226371,0.194628,0.220793,0.089348,0.252672,0.084116,0.079785,0.113518,0.070591,0.309842,0.127088,0.052385,0.141118,0.354397,0.321822,0.253352,0.243498,0.341173,0.490814,0.177099,0.334851,0.126273,0.19855,0.228345,0.441233,0.308337,0.203919,0.126934,0.179679,0.315477,0.448472,0.223142,0.241396,0.092815,0.305299,0.706373,0.326918,0.354775,0.174156,1.247712,1.128937,0.33133,0.276898,0.213705,0.268155,0.570038,0.410241,0.315294,0.135976,0.660069,0.587688,0.343728,0.38375,0.202798
1768919974.676989,1768919974.677413,17.0,0.0,4347.563965,4333.717773,4346.666504,4351.922852,4329.358887,4332.05127,4310.512695,4339.871582,4324.230957,4319.102539,4508.333496,4525.769043,4409.615234,4456.282227,,,,,,,,,,,,,,,,,,,,,,,,,,,,,,,,,,,,,,,,,,,,,,,,,,,,,,,,,,,,,,,,,,,,,,
1768919974.684797,1768919974.685121,18.0,0.0,4345.897461,4329.230957,4346.282227,4360.641113,4325.897461,4331.410156,4314.230957,4339.871582,4327.94873,4321.538574,4511.410156,4531.666504,4411.282227,4457.563965,,,,,,,,,,,,,,,,,,,,,,,,,,,,,,,,,,,,,,,,,,,,,,,,,,,,,,,,,,,,,,,,,,,,,,
1768919974.692606,1768919974.692929,19.0,0.0,4344.743652,4326.794922,4347.307617,4355.512695,4327.307617,4336.538574,4317.820313,4345.769043,4332.563965,4324.230957,4526.410156,4537.820313,4414.615234,4462.05127,,,,,,,,,,,,,,,,,,,,,,,,,,,,,,,,,,,,,,,,,,,,,,,,,,,,,,,,,,,,,,,,,,,,,,
1768919974.700415,1768919974.700938,20.0,0.0,4346.922852,4328.717773,4349.358887,4349.102539,4331.282227,4332.436035,4313.589844,4340.641113,4329.615234,4323.589844,4522.94873,4536.666504,4413.589844,4463.974121,,,,,,,,,,,,,,,,,,,,,,,,,,,,,,,,,,,,,,,,,,,,,,,,,,,,,,,,,,,,,,,,,,,,,,
1768919974.708223,1768919974.708746,21.0,0.0,4349.358887,4333.077148,4342.436035,4352.820313,4334.743652,4322.820313,4304.871582,4327.820313,4321.282227,4324.615234,4508.461426,4527.820313,4413.077148,4461.922852,,,,,,,,,,,,,,,,,,,,,,,,,,,,,,,,,,,,,,,,,,,,,,,,,,,,,,,,,,,,,,,,,,,,,,
1768919974.716031,1768919974.716655,22.0,0.0,4346.666504,4336.282227,4342.94873,4357.94873,4332.94873,4332.820313,4315.256348,4336.666504,4324.615234,4325.897461,4507.94873,4527.94873,4414.615234,4461.153809,,,,,,,,,,,,,,,,,,,,,,,,,,,,,,,,,,,,,,,,,,,,,,,,,,,,,,,,,,,,,,,,,,,,,,
1768919974.72384,1768919974.724464,23.0,0.0,4342.820313,4331.922852,4350.897461,4353.077148,4328.461426,4340.512695,4326.794922,4348.077148,4331.922852,4325.384766,4512.307617,4533.846191,4412.179688,4460.641113,,,,,,,,,,,,,,,,,,,,,,,,,,,,,,,,,,,,,,,,,,,,,,,,,,,,,,,,,,,,,,,,,,,,,,
1768919974.731649,1768919974.732472,24.0,0.0,4344.743652,4324.230957,4346.025879,4346.153809,4328.205078,4326.666504,4315.384766,4336.666504,4326.025879,4324.230957,4509.102539,4528.974121,4408.846191,4460.128418,,,,,,,,,,,,,,,,,,,,,,,,,,,,,,,,,,,,,,,,,,,,,,,,,,,,,,,,,,,,,,,,,,,,,,
1768919974.739457,1768919974.740281,25.0,0.0,4348.589844,4326.410156,4341.666504,4345.384766,4327.05127,4322.179688,4306.410156,4331.666504,4318.589844,4319.743652,4506.794922,4524.487305,4413.077148,4462.94873,,,,,,,,,,,,,,,,,,,,,,,,,,,,,,,,,,,,,,,,,,,,,,,,,,,,,,,,,,,,,,,,,,,,,,
1768919974.747265,1768919974.747989,26.0,0.0,4346.922852,4327.820313,4346.410156,4345.256348,4321.153809,4330.0,4312.05127,4343.205078,4324.487305,4312.436035,4510.897461,4530.512695,4410.384766,4459.871582,,,,,,,,,,,,,,,,,,,,,,,,,,,,,,,,,,,,,,,,,,,,,,,,,,,,,,,,,,,,,,,,,,,,,,
1768919974.755074,1768919974.755797,27.0,0.0,4339.871582,4314.358887,4342.94873,4339.358887,4321.922852,4328.589844,4317.05127,4344.102539,4324.871582,4307.307617,4506.410156,4523.846191,4390.384766,4446.410156,,,,,,,,,,,,,,,,,,,,,,,,,,,,,,,,,,,,,,,,,,,,,,,,,,,,,,,,,,,,,,,,,,,,,,
1768919974.762883,1768919974.763405,28.0,0.0,4334.615234,4309.358887,4336.666504,4338.461426,4327.179688,4326.922852,4318.974121,4339.487305,4320.897461,4313.846191,4502.179688,4516.538574,4384.102539,4443.846191,,,,,,,,,,,,,,,,,,,,,,,,,,,,,,,,,,,,,,,,,,,,,,,,,,,,,,,,,,,,,,,,,,,,,,
1768919974.770691,1768919974.771213,29.0,0.0,4340.897461,4327.692383,4345.0,4350.641113,4327.94873,4333.077148,4321.922852,4349.102539,4337.307617,4332.179688,4517.307617,4531.410156,4407.563965,4464.358887,,,,,,,,,,,,,,,,,,,,,,,,,,,,,,,,,,,,,,,,,,,,,,,,,,,,,,,,,,,,,,,,,,,,,,
1768919974.778499,1768919974.779121,30.0,0.0,4351.025879,4338.333496,4357.94873,4360.641113,4329.487305,4332.692383,4319.102539,4356.538574,4350.512695,4338.717773,4530.641113,4544.358887,4423.461426,4477.563965,,,,,,,,,,,,,,,,,,,,,,,,,,,,,,,,,,,,,,,,,,,,,,,,,,,,,,,,,,,,,,,,,,,,,,
1768919974.786308,1768919974.78693,31.0,0.0,4350.128418,4328.205078,4357.94873,4357.692383,4329.102539,4325.256348,4312.820313,4343.717773,4333.589844,4328.333496,4520.0,4535.769043,4414.743652,4465.256348,,,,,,,,,,,,,,,,,,,,,,,,,,,,,,,,,,,,,,,,,,,,,,,,,,,,,,,,,,,,,,,,,,,,,,
1768919974.794117,1768919974.794938,32.0,0.0,4345.769043,4324.102539,4350.769043,4354.615234,4325.256348,4323.846191,4312.307617,4334.102539,4318.974121,4322.05127,4508.974121,4524.743652,4410.0,4458.461426,1.26492,0.473415,0.087336,0.12061,0.230484,0.415735,0.323818,0.064285,0.090869,0.094061,0.866493,0.324243,0.185583,0.135739,0.104748,0.445389,0.252385,0.19913,0.21177,0.084995,0.338211,0.104778,0.079099,0.119968,0.077353,0.398824,0.127602,0.045652,0.164352,0.330229,0.404772,0.281098,0.240678,0.354397,0.445301,0.214309,0.319211,0.149031,0.212596,0.248278,0.497012,0.280191,0.225608,0.11278,0.180675,0.298826,0.439461,0.254252,0.257753,0.104692,0.372185,0.793255,0.391764,0.364071,0.179456,1.452644,1.276458,0.419422,0.261981,0.228225,0.2653,0.651824,0.459072,0.295754,0.14124,0.911736,0.769267,0.378212,0.346921,0.222316
1768919974.801925,1768919974.802747,33.0,0.0,4344.743652,4330.384766,4346.282227,4357.436035,4327.820313,4326.538574,4311.153809,4341.538574,4328.205078,4324.487305,4508.717773,4522.820313,4414.871582,4466.282227,,,,,,,,,,,,,,,,,,,,,,,,,,,,,,,,,,,,,,,,,,,,,,,,,,,,,,,,,,,,,,,,,,,,,,
1768919974.809734,1768919974.810655,34.0,0.0,4347.05127,4332.94873,4349.487305,4357.05127,4334.615234,4326.025879,4310.256348,4341.922852,4329.230957,4321.410156,4506.666504,4521.666504,4412.692383,4465.256348,,,,,,,,,,,,,,,,,,,,,,,,,,,,,,,,,,,,,,,,,,,,,,,,,,,,,,,,,,,,,,,,,,,,,,
1768919974.817542,1768919974.818463,35.0,0.0,4354.487305,4333.974121,4355.769043,4357.692383,4333.461426,4327.307617,4313.077148,4336.025879,4318.077148,4317.820313,4512.563965,4528.333496,4408.846191,4458.589844,,,,,,,,,,,,,,,,,,,,,,,,,,,,,,,,,,,,,,,,,,,,,,,,,,,,,,,,,,,,,,,,,,,,,,
1768919974.825351,1768919974.826471,36.0,0.0,4354.102539,4336.410156,4352.94873,4358.846191,4327.05127,4333.205078,4313.974121,4339.871582,4322.436035,4322.436035,4518.974121,4536.410156,4411.922852,4460.384766,,,,,,,,,,,,,,,,,,,,,,,,,,,,,,,,,,,,,,,,,,,,,,,,,,,,,,,,,,,,,,,,,,,,,,
1768919974.833159,1768919974.834279,37.0,0.0,4342.820313,4335.256348,4341.153809,4348.589844,4325.769043,4333.333496,4317.05127,4345.128418,4333.846191,4327.179688,4515.384766,4530.256348,4413.205078,4462.05127,,,,,,,,,,,,,,,,,,,,,,,,,,,,,,,,,,,,,,,,,,,,,,,,,,,,,,,,,,,,,,,,,,,,,,
1768919974.840968,1768919974.841987,38.0,0.0,4340.512695,4329.871582,4338.205078,4344.487305,4327.94873,4329.230957,4323.846191,4345.641113,4333.205078,4325.256348,4514.230957,4525.897461,4412.692383,4457.179688,,,,,,,,,,,,,,,,,,,,,,,,,,,,,,,,,,,,,,,,,,,,,,,,,,,,,,,,,,,,,,,,,,,,,,
1768919974.848776,1768919974.849795,39.0,0.0,4345.769043,4326.025879,4345.897461,4351.794922,4326.410156,4326.025879,4316.922852,4341.794922,4326.153809,4323.333496,4515.0,4530.0,4412.05127,4452.307617,,,,,,,,,,,,,,,,,,,,,,,,,,,,,,,,,,,,,,,,,,,,,,,,,,,,,,,,,,,,,,,,,,,,,,
1768919974.856585,1768919974.857403,40.0,0.0,4341.922852,4327.307617,4343.333496,4349.615234,4322.307617,4322.05127,4305.128418,4337.436035,4326.538574,4321.666504,4507.563965,4526.025879,4404.743652,4447.05127,,,,,,,,,,,,,,,,,,,,,,,,,,,,,,,,,,,,,,,,,,,,,,,,,,,,,,,,,,,,,,,,,,,,,,
1768919974.864393,1768919974.865211,41.0,0.0,4335.641113,4328.333496,4333.589844,4344.743652,4322.179688,4322.179688,4307.692383,4340.769043,4330.641113,4321.538574,4504.230957,4516.794922,4399.230957,4444.743652,,,,,,,,,,,,,,,,,,,,,,,,,,,,,,,,,,,,,,,,,,,,,,,,,,,,,,,,,,,,,,,,,,,,,,
1768919974.872202,1768919974.87292,42.0,0.0,4333.974121,4325.897461,4333.077148,4349.615234,4326.922852,4325.384766,4311.538574,4344.615234,4329.487305,4322.692383,4508.205078,4520.256348,4400.128418,4444.743652,,,,,,,,,,,,,,,,,,,,,,,,,,,,,,,,,,,,,,,,,,,,,,,,,,,,,,,,,,,,,,,,,,,,,,
1768919974.88001,1768919974.880728,43.0,0.0,4332.307617,4322.436035,4333.846191,4348.333496,4326.794922,4328.077148,4315.512695,4338.589844,4322.436035,4317.820313,4504.487305,4520.512695,4398.077148,4444.358887,,,,,,,,,,,,,,,,,,,,,,,,,,,,,,,,,,,,,,,,,,,,,,,,,,,,,,,,,,,,,,,,,,,,,,
1768919974.887819,1768919974.888336,44.0,0.0,4330.641113,4323.077148,4331.538574,4340.641113,4324.871582,4330.897461,4323.461426,4335.897461,4318.589844,4313.461426,4502.563965,4511.153809,4394.102539,4442.94873,,,,,,,,,,,,,,,,,,,,,,,,,,,,,,,,,,,,,,,,,,,,,,,,,,,,,,,,,,,,,,,,,,,,,,
1768919974.895627,1768919974.896144,45.0,0.0,4326.666504,4325.641113,4332.436035,4343.333496,4327.05127,4330.256348,4318.846191,4341.025879,4325.897461,4317.563965,4505.384766,4513.974121,4394.230957,4440.128418,,,,,,,,,,,,,,,,,,,,,,,,,,,,,,,,,,,,,,,,,,,,,,,,,,,,,,,,,,,,,,,,,,,,,,
1768919974.903436,1768919974.903852,46.0,0.0,4325.256348,4325.769043,4334.615234,4344.871582,4326.922852,4325.641113,4309.615234,4338.974121,4328.846191,4317.179688,4503.589844,4518.974121,4396.153809,4440.256348,,,,,,,,,,,,,,,,,,,,,,,,,,,,,,,,,,,,,,,,,,,,,,,,,,,,,,,,,,,,,,,,,,,,,,
1768919974.911244,1768919974.91166,47.0,0.0,4332.179688,4325.128418,4335.384766,4339.487305,4323.589844,4323.846191,4309.487305,4332.94873,4319.102539,4310.128418,4504.102539,4514.487305,4395.769043,4445.384766,,,,,,,,,,,,,,,,,,,,,,,,,,,,,,,,,,,,,,,,,,,,,,,,,,,,,,,,,,,,,,,,,,,,,,
1768919974.919053,1768919974.919668,48.0,0.0,4335.641113,4324.230957,4334.487305,4340.384766,4324.230957,4326.282227,4311.025879,4335.0,4316.282227,4311.153809,4505.128418,4513.205078,4393.077148,4447.563965,1.589547,0.540194,0.092905,0.120212,0.215534,0.496037,0.362634,0.06995,0.088811,0.093298,0.94726,0.348515,0.203108,0.122383,0.115933,0.437545,0.274826,0.194472,0.206757,0.081215,0.443081,0.132383,0.075312,0.12721,0.083471,0.476708,0.138714,0.041657,0.195927,0.295165,0.460015,0.327318,0.232038,0.374799,0.394516,0.251357,0.300878,0.169335,0.219198,0.253263,0.545185,0.263128,0.255812,0.110263,0.17949,0.308276,0.419491,0.280995,0.269606,0.113969,0.449765,0.817631,0.446973,0.369601,0.180551,1.587355,1.326306,0.496675,0.253658,0.241604,0.300579,0.69276,0.498537,0.276488,0.146565,1.155649,0.907123,0.432332,0.327441,0.228914
1768919974.926861,1768919974.927477,49.0,0.0,4326.794922,4324.871582,4331.538574,4342.05127,4326.410156,4325.641113,4311.153809,4339.871582,4323.846191,4312.692383,4497.563965,4515.512695,4388.589844,4439.487305,,,,,,,,,,,,,,,,,,,,,,,,,,,,,,,,,,,,,,,,,,,,,,,,,,,,,,,,,,,,,,,,,,,,,,
1768919974.93467,1768919974.935386,50.0,0.0,4320.0,4324.743652,4329.487305,4340.384766,4322.179688,4322.692383,4308.974121,4339.102539,4320.512695,4308.846191,4490.128418,4508.846191,4384.743652,4434.487305,,,,,,,,,,,,,,,,,,,,,,,,,,,,,,,,,,,,,,,,,,,,,,,,,,,,,,,,,,,,,,,,,,,,,,
1768919974.942478,1768919974.943194,51.0,0.0,4325.0,4322.179688,4333.205078,4340.256348,4323.974121,4323.974121,4310.0,4336.025879,4313.461426,4310.0,4492.820313,4503.846191,4384.487305,4435.128418,,,,,,,,,,,,,,,,,,,,,,,,,,,,,,,,,,,,,,,,,,,,,,,,,,,,,,,,,,,,,,,,,,,,,,
1768919974.950287,1768919974.950802,52.0,0.0,4330.641113,4320.0,4337.94873,4341.410156,4330.512695,4327.179688,4320.256348,4339.102539,4318.846191,4311.025879,4494.230957,4509.358887,4384.102539,4432.563965,,,,,,,,,,,,,,,,,,,,,,,,,,,,,,,,,,,,,,,,,,,,,,,,,,,,,,,,,,,,,,,,,,,,,,
1768919974.958095,1768919974.95861,53.0,0.0,4327.94873,4321.025879,4341.025879,4341.410156,4327.179688,4325.0,4319.615234,4342.692383,4325.512695,4308.717773,4490.897461,4513.461426,4381.666504,4433.205078,,,,,,,,,,,,,,,,,,,,,,,,,,,,,,,,,,,,,,,,,,,,,,,,,,,,,,,,,,,,,,,,,,,,,,
1768919974.965904,1768919974.966318,54.0,0.0,4323.077148,4324.102539,4342.692383,4342.179688,4326.922852,4323.077148,4310.128418,4340.0,4322.820313,4305.512695,4490.641113,4511.410156,4381.794922,4434.102539,,,,,,,,,,,,,,,,,,,,,,,,,,,,,,,,,,,,,,,,,,,,,,,,,,,,,,,,,,,,,,,,,,,,,,
1768919974.973712,1768919974.974126,55.0,0.0,4323.077148,4319.871582,4342.820313,4343.077148,4334.102539,4330.0,4319.102539,4336.922852,4315.384766,4300.256348,4490.897461,4509.615234,4383.589844,4434.358887,,,,,,,,,,,,,,,,,,,,,,,,,,,,,,,,,,,,,,,,,,,,,,,,,,,,,,,,,,,,,,,,,,,,,,
1768919974.981521,1768919974.982134,56.0,0.0,4326.282227,4312.436035,4344.615234,4341.922852,4332.820313,4332.05127,4329.358887,4339.615234,4316.282227,4297.307617,4491.153809,4511.282227,4379.615234,4435.256348,,,,,,,,,,,,,,,,,,,,,,,,,,,,,,,,,,,,,,,,,,,,,,,,,,,,,,,,,,,,,,,,,,,,,,
1768919974.989329,1768919974.989942,57.0,0.0,4331.153809,4315.641113,4343.589844,4341.025879,4328.589844,4323.974121,4320.897461,4338.717773,4318.974121,4302.820313,4491.922852,4511.410156,4380.384766,4435.897461,,,,,,,,,,,,,,,,,,,,,,,,,,,,,,,,,,,,,,,,,,,,,,,,,,,,,,,,,,,,,,,,,,,,,,
1768919974.997138,1768919974.99785,58.0,0.0,4334.358887,4327.307617,4340.769043,4342.820313,4332.563965,4320.641113,4313.333496,4331.794922,4314.102539,4310.384766,4491.538574,4511.410156,4392.307617,4436.025879,,,,,,,,,,,,,,,,,,,,,,,,,,,,,,,,,,,,,,,,,,,,,,,,,,,,,,,,,,,,,,,,,,,,,,
1768919975.004947,1768919975.005659,59.0,0.0,4334.615234,4330.512695,4346.538574,4348.846191,4333.333496,4328.205078,4320.769043,4333.077148,4314.230957,4313.333496,4497.05127,4520.769043,4398.589844,4441.922852,,,,,,,,,,,,,,,,,,,,,,,,,,,,,,,,,,,,,,,,,,,,,,,,,,,,,,,,,,,,,,,,,,,,,,
1768919975.012755,1768919975.013667,60.0,0.0,4337.307617,4325.641113,4354.743652,4355.128418,4326.794922,4332.05127,4326.025879,4340.641113,4323.589844,4311.025879,4505.384766,4525.641113,4394.743652,4446.538574,,,,,,,,,,,,,,,,,,,,,,,,,,,,,,,,,,,,,,,,,,,,,,,,,,,,,,,,,,,,,,,,,,,,,,
1768919975.020563,1768919975.021475,61.0,0.0,4340.384766,4327.05127,4353.077148,4354.102539,4328.205078,4327.05127,4318.333496,4338.461426,4326.153809,4310.897461,4507.179688,4520.897461,4396.538574,4442.436035,,,,,,,,,,,,,,,,,,,,,,,,,,,,,,,,,,,,,,,,,,,,,,,,,,,,,,,,,,,,,,,,,,,,,,
1768919975.028372,1768919975.029283,62.0,0.0,4334.871582,4331.153809,4344.487305,4350.0,4334.743652,4327.563965,4316.666504,4337.307617,4327.05127,4320.897461,4509.487305,4523.717773,4406.666504,4445.512695,,,,,,,,,,,,,,,,,,,,,,,,,,,,,,,,,,,,,,,,,,,,,,,,,,,,,,,,,,,,,,,,,,,,,,
1768919975.036181,1768919975.037091,63.0,0.0,4329.743652,4330.128418,4341.538574,4350.641113,4333.589844,4334.358887,4328.461426,4342.436035,4332.179688,4324.743652,4511.153809,4528.461426,4408.205078,4451.922852,,,,,,,,,,,,,,,,,,,,,,,,,,,,,,,,,,,,,,,,,,,,,,,,,,,,,,,,,,,,,,,,,,,,,,
1768919975.043989,1768919975.0447,64.0,0.0,4333.974121,4326.282227,4345.0,4352.179688,4328.589844,4329.615234,4323.846191,4339.358887,4325.0,4314.487305,4498.846191,4518.717773,4398.077148,4444.230957,2.012738,0.583523,0.098852,0.127398,0.199265,0.556966,0.381194,0.076345,0.094181,0.092061,0.985091,0.34427,0.206689,0.118188,0.124153,0.413866,0.288883,0.179481,0.200152,0.079049,0.539956,0.168173,0.067919,0.136962,0.087989,0.525095,0.15882,0.04152,0.224726,0.258542,0.472818,0.381591,0.213569,0.392251,0.347116,0.278067,0.283591,0.181949,0.211765,0.240809,0.562336,0.249369,0.280759,0.112384,0.175944,0.339391,0.382158,0.294489,0.269209,0.118294,0.516873,0.78207,0.469531,0.359368,0.179089,1.627677,1.259486,0.536412,0.24567,0.250525,0.359767,0.674516,0.508536,0.252155,0.150871,1.334938,0.955354,0.482771,0.312524,0.220419
1768919975.051798,1768919975.052508,65.0,0.0,4335.512695,4327.179688,4343.974121,4349.230957,4326.794922,4316.794922,4305.128418,4331.410156,4314.871582,4307.692383,4486.922852,4507.436035,4391.410156,4430.897461,,,,,,,,,,,,,,,,,,,,,,,,,,,,,,,,,,,,,,,,,,,,,,,,,,,,,,,,,,,,,,,,,,,,,,
1768919975.059606,1768919975.060216,66.0,0.0,4333.333496,4332.563965,4339.102539,4348.077148,4329.102539,4321.025879,4313.333496,4337.05127,4319.102539,4310.897461,4495.384766,4512.179688,4394.871582,4431.922852,,,,,,,,,,,,,,,,,,,,,,,,,,,,,,,,,,,,,,,,,,,,,,,,,,,,,,,,,,,,,,,,,,,,,,
1768919975.067415,1768919975.068024,67.0,0.0,4332.820313,4338.077148,4344.358887,4354.102539,4335.128418,4335.897461,4333.717773,4345.256348,4326.153809,4315.897461,4506.666504,4525.128418,4399.358887,4444.615234,,,,,,,,,,,,,,,,,,,,,,,,,,,,,,,,,,,,,,,,,,,,,,,,,,,,,,,,,,,,,,,,,,,,,,
1768919975.075223,1768919975.075633,68.0,0.0,4336.922852,4342.94873,4352.05127,4357.94873,4336.410156,4331.666504,4325.256348,4338.589844,4326.538574,4315.769043,4505.512695,4527.179688,4398.461426,4447.563965,,,,,,,,,,,,,,,,,,,,,,,,,,,,,,,,,,,,,,,,,,,,,,,,,,,,,,,,,,,,,,,,,,,,,,
1768919975.083032,1768919975.083441,69.0,0.0,4342.436035,4342.436035,4346.794922,4353.589844,4331.538574,4316.922852,4308.974121,4329.102539,4322.820313,4313.717773,4502.05127,4517.179688,4396.794922,4442.692383,,,,,,,,,,,,,,,,,,,,,,,,,,,,,,,,,,,,,,,,,,,,,,,,,,,,,,,,,,,,,,,,,,,,,,
1768919975.09084,1768919975.091149,70.0,0.0,4341.025879,4336.282227,4339.871582,4344.871582,4330.512695,4319.615234,4307.820313,4330.641113,4321.666504,4319.102539,4504.487305,4513.461426,4400.256348,4442.94873,,,,,,,,,,,,,,,,,,,,,,,,,,,,,,,,,,,,,,,,,,,,,,,,,,,,,,,,,,,,,,,,,,,,,,
1768919975.098649,1768919975.098957,71.0,0.0,4335.641113,4333.717773,4341.538574,4340.512695,4334.871582,4329.102539,4314.102539,4335.384766,4325.641113,4327.692383,4508.205078,4521.025879,4405.897461,4445.641113,,,,,,,,,,,,,,,,,,,,,,,,,,,,,,,,,,,,,,,,,,,,,,,,,,,,,,,,,,,,,,,,,,,,,,
1768919975.106457,1768919975.106966,72.0,0.0,4334.615234,4337.436035,4342.94873,4348.205078,4337.820313,4327.94873,4323.974121,4337.692383,4327.05127,4324.743652,4507.94873,4526.025879,4404.230957,4445.384766,,,,,,,,,,,,,,,,,,,,,,,,,,,,,,,,,,,,,,,,,,,,,,,,,,,,,,,,,,,,,,,,,,,,,,
1768919975.114266,1768919975.114774,73.0,0.0,4335.512695,4338.333496,4342.307617,4355.641113,4335.769043,4326.666504,4325.256348,4338.461426,4323.717773,4318.974121,4505.512695,4524.487305,4403.461426,4451.794922,,,,,,,,,,,,,,,,,,,,,,,,,,,,,,,,,,,,,,,,,,,,,,,,,,,,,,,,,,,,,,,,,,,,,,
1768919975.122074,1768919975.122683,74.0,0.0,4333.333496,4334.230957,4341.025879,4349.230957,4328.974121,4326.025879,4311.666504,4335.0,4323.717773,4322.436035,4505.641113,4522.307617,4407.436035,4455.128418,,,,,,,,,,,,,,,,,,,,,,,,,,,,,,,,,,,,,,,,,,,,,,,,,,,,,,,,,,,,,,,,,,,,,,
1768919975.129883,1768919975.130491,75.0,0.0,4334.487305,4328.974121,4338.333496,4344.871582,4327.436035,4324.230957,4311.153809,4335.641113,4327.692383,4325.512695,4508.205078,4523.589844,4406.794922,4449.871582,,,,,,,,,,,,,,,,,,,,,,,,,,,,,,,,,,,,,,,,,,,,,,,,,,,,,,,,,,,,,,,,,,,,,,
1768919975.137691,1768919975.1385,76.0,0.0,4337.05127,4328.077148,4346.025879,4352.692383,4335.641113,4326.153809,4326.282227,4340.512695,4329.487305,4323.846191,4508.717773,4528.717773,4404.102539,4453.333496,,,,,,,,,,,,,,,,,,,,,,,,,,,,,,,,,,,,,,,,,,,,,,,,,,,,,,,,,,,,,,,,,,,,,,
1768919975.1455,1768919975.146309,77.0,0.0,4338.461426,4335.897461,4356.410156,4359.487305,4336.666504,4326.282227,4321.153809,4336.153809,4324.615234,4320.897461,4507.563965,4531.410156,4405.769043,4458.589844,,,,,,,,,,,,,,,,,,,,,,,,,,,,,,,,,,,,,,,,,,,,,,,,,,,,,,,,,,,,,,,,,,,,,,
1768919975.153308,1768919975.154017,78.0,0.0,4342.179688,4339.230957,4350.641113,4357.820313,4330.897461,4324.871582,4309.871582,4331.666504,4320.384766,4320.256348,4509.487305,4526.025879,4404.102539,4451.153809,,,,,,,,,,,,,,,,,,,,,,,,,,,,,,,,,,,,,,,,,,,,,,,,,,,,,,,,,,,,,,,,,,,,,,
1768919975.161117,1768919975.161825,79.0,0.0,4339.615234,4330.641113,4340.128418,4349.615234,4334.487305,4325.512695,4314.487305,4334.871582,4321.282227,4321.922852,4505.256348,4520.897461,4398.077148,4445.384766,,,,,,,,,,,,,,,,,,,,,,,,,,,,,,,,,,,,,,,,,,,,,,,,,,,,,,,,,,,,,,,,,,,,,,
1768919975.168925,1768919975.169433,80.0,0.0,4332.820313,4328.077148,4342.820313,4346.538574,4338.333496,4324.615234,4316.666504,4338.461426,4322.820313,4319.743652,4498.589844,4523.461426,4395.128418,4448.974121,2.468411,0.582028,0.103367,0.134925,0.183939,0.585237,0.377648,0.079485,0.102774,0.092585,0.987817,0.312924,0.193186,0.120235,0.130676,0.390871,0.299943,0.157048,0.18842,0.079075,0.597184,0.209341,0.057295,0.148436,0.090225,0.528155,0.181468,0.046794,0.240638,0.227465,0.442876,0.424765,0.18918,0.397587,0.30917,0.284098,0.266567,0.184322,0.189606,0.215545,0.528302,0.234122,0.293527,0.115372,0.173,0.380716,0.333242,0.296208,0.257711,0.117829,0.56395,0.716539,0.453263,0.329816,0.178344,1.570668,1.096289,0.52409,0.236404,0.254392,0.429969,0.610121,0.482073,0.224573,0.154993,1.415674,0.906502,0.506949,0.293341,0.201202
1768919975.176734,1768919975.177241,81.0,0.0,4333.461426,4335.128418,4350.641113,4355.897461,4331.922852,4325.256348,4320.0,4341.025879,4322.692383,4313.461426,4498.461426,4525.128418,4395.769043,4446.794922,,,,,,,,,,,,,,,,,,,,,,,,,,,,,,,,,,,,,,,,,,,,,,,,,,,,,,,,,,,,,,,,,,,,,,
1768919975.184542,1768919975.185149,82.0,0.0,4337.820313,4332.179688,4350.512695,4362.05127,4331.794922,4331.410156,4328.846191,4340.897461,4322.94873,4312.179688,4496.794922,4519.743652,4395.512695,4441.538574,,,,,,,,,,,,,,,,,,,,,,,,,,,,,,,,,,,,,,,,,,,,,,,,,,,,,,,,,,,,,,,,,,,,,,
1768919975.192351,1768919975.192958,83.0,0.0,4335.256348,4324.487305,4345.384766,4355.128418,4339.230957,4328.846191,4321.538574,4336.794922,4325.128418,4317.307617,4495.384766,4519.230957,4396.153809,4446.922852,,,,,,,,,,,,,,,,,,,,,,,,,,,,,,,,,,,,,,,,,,,,,,,,,,,,,,,,,,,,,,,,,,,,,,
1768919975.200159,1768919975.200966,84.0,0.0,4329.615234,4327.436035,4340.769043,4348.717773,4332.692383,4318.974121,4310.0,4335.641113,4326.410156,4322.94873,4503.846191,4526.794922,4400.256348,4450.256348,,,,,,,,,,,,,,,,,,,,,,,,,,,,,,,,,,,,,,,,,,,,,,,,,,,,,,,,,,,,,,,,,,,,,,
1768919975.207968,1768919975.208775,85.0,0.0,4333.717773,4332.307617,4342.563965,4355.384766,4325.512695,4322.692383,4316.794922,4339.871582,4326.153809,4324.487305,4510.641113,4529.358887,4404.102539,4445.897461,,,,,,,,,,,,,,,,,,,,,,,,,,,,,,,,,,,,,,,,,,,,,,,,,,,,,,,,,,,,,,,,,,,,,,
1768919975.215776,1768919975.216584,86.0,0.0,4344.230957,4336.025879,4349.102539,4363.333496,4330.769043,4330.641113,4325.128418,4342.307617,4325.641113,4320.769043,4505.897461,4524.487305,4404.487305,4448.461426,,,,,,,,,,,,,,,,,,,,,,,,,,,,,,,,,,,,,,,,,,,,,,,,,,,,,,,,,,,,,,,,,,,,,,
1768919975.223585,1768919975.224392,87.0,0.0,4345.0,4339.358887,4350.0,4361.410156,4329.871582,4331.282227,4330.0,4342.05127,4326.666504,4319.102539,4503.461426,4522.179688,4405.384766,4453.589844,,,,,,,,,,,,,,,,,,,,,,,,,,,,,,,,,,,,,,,,,,,,,,,,,,,,,,,,,,,,,,,,,,,,,,
1768919975.231393,1768919975.232,88.0,0.0,4338.589844,4336.666504,4344.615234,4355.256348,4325.512695,4326.153809,4334.487305,4340.128418,4327.179688,4322.563965,4506.025879,4523.461426,4404.230957,4450.256348,,,,,,,,,,,,,,,,,,,,,,,,,,,,,,,,,,,,,,,,,,,,,,,,,,,,,,,,,,,,,,,,,,,,,,
1768919975.239202,1768919975.239808,89.0,0.0,4335.769043,4333.461426,4341.153809,4355.897461,4332.436035,4320.256348,4325.0,4340.769043,4327.436035,4322.692383,4505.769043,4526.410156,4398.589844,4448.846191,,,,,,,,,,,,,,,,,,,,,,,,,,,,,,,,,,,,,,,,,,,,,,,,,,,,,,,,,,,,,,,,,,,,,,
1768919975.24701,1768919975.247517,90.0,0.0,4337.820313,4337.179688,4343.461426,4361.410156,4338.974121,4323.589844,4321.153809,4342.563965,4327.563965,4319.358887,4504.743652,4526.794922,4397.94873,4452.94873,,,,,,,,,,,,,,,,,,,,,,,,,,,,,,,,,,,,,,,,,,,,,,,,,,,,,,,,,,,,,,,,,,,,,,
1768919975.254819,1768919975.255325,91.0,0.0,4343.461426,4342.179688,4346.538574,4366.282227,4337.307617,4328.461426,4335.128418,4336.922852,4325.256348,4320.769043,4503.333496,4522.563965,4406.794922,4455.0,,,,,,,,,,,,,,,,,,,,,,,,,,,,,,,,,,,,,,,,,,,,,,,,,,,,,,,,,,,,,,,,,,,,,,
1768919975.262627,1768919975.262933,92.0,0.0,4350.641113,4343.205078,4352.563965,4369.871582,4340.0,4328.205078,4343.461426,4337.563965,4329.358887,4326.538574,4504.230957,4527.05127,4413.974121,4457.436035,,,,,,,,,,,,,,,,,,,,,,,,,,,,,,,,,,,,,,,,,,,,,,,,,,,,,,,,,,,,,,,,,,,,,,
1768919975.270436,1768919975.270742,93.0,0.0,4349.615234,4341.666504,4362.436035,4365.384766,4340.897461,4329.487305,4343.205078,4349.358887,4337.563965,4328.461426,4510.384766,4542.179688,4414.230957,4463.461426,,,,,,,,,,,,,,,,,,,,,,,,,,,,,,,,,,,,,,,,,,,,,,,,,,,,,,,,,,,,,,,,,,,,,,
1768919975.278244,1768919975.27845,94.0,0.0,4345.128418,4341.153809,4363.846191,4361.410156,4332.179688,4331.794922,4341.282227,4350.0,4336.922852,4327.94873,4516.282227,4547.179688,4412.307617,4469.102539,,,,,,,,,,,,,,,,,,,,,,,,,,,,,,,,,,,,,,,,,,,,,,,,,,,,,,,,,,,,,,,,,,,,,,
1768919975.286053,1768919975.286258,95.0,0.0,4351.538574,4343.846191,4361.410156,4368.717773,4329.871582,4326.282227,4338.846191,4340.0,4330.128418,4328.333496,4512.179688,4542.563965,4412.692383,4473.333496,,,,,,,,,,,,,,,,,,,,,,,,,,,,,,,,,,,,,,,,,,,,,,,,,,,,,,,,,,,,,,,,,,,,,,
1768919975.293862,1768919975.293866,96.0,0.0,4352.307617,4341.282227,4361.922852,4368.974121,4337.05127,4323.589844,4344.743652,4336.153809,4324.102539,4322.692383,4504.615234,4542.692383,4411.666504,4468.333496,2.811104,0.528776,0.105004,0.138389,0.170098,0.581769,0.362567,0.079213,0.113254,0.097511,0.970201,0.267315,0.165388,0.127874,0.137845,0.384889,0.317154,0.133869,0.171835,0.081549,0.594614,0.248558,0.045004,0.157851,0.090284,0.482723,0.196527,0.058742,0.239285,0.205388,0.381654,0.435735,0.165569,0.387574,0.285268,0.265178,0.248759,0.176333,0.158703,0.187298,0.448005,0.222248,0.295667,0.120657,0.175451,0.41806,0.289055,0.295801,0.243282,0.114966,0.585686,0.656262,0.411491,0.291585,0.180754,1.418951,0.883361,0.466545,0.231044,0.254994,0.505385,0.533877,0.426034,0.20326,0.160792,1.368911,0.790055,0.493705,0.271626,0.17952
1768919975.30167,1768919975.301674,97.0,0.0,4341.794922,4333.717773,4358.333496,4358.589844,4337.820313,4331.922852,4348.974121,4338.333496,4323.461426,4315.897461,4504.615234,4537.05127,4408.461426,4459.230957,,,,,,,,,,,,,,,,,,,,,,,,,,,,,,,,,,,,,,,,,,,,,,,,,,,,,,,,,,,,,,,,,,,,,,
1768919975.309478,1768919975.309582,98.0,0.0,4341.666504,4335.641113,4353.717773,4358.717773,4336.538574,4334.230957,4343.461426,4341.794922,4328.077148,4319.615234,4507.179688,4524.230957,4407.179688,4457.563965,,,,,,,,,,,,,,,,,,,,,,,,,,,,,,,,,,,,,,,,,,,,,,,,,,,,,,,,,,,,,,,,,,,,,,
1768919975.317287,1768919975.31739,99.0,0.0,4347.94873,4341.794922,4355.0,4365.384766,4340.0,4328.846191,4340.0,4345.641113,4330.769043,4327.307617,4506.794922,4527.563965,4405.128418,4458.333496,,,,,,,,,,,,,,,,,,,,,,,,,,,,,,,,,,,,,,,,,,,,,,,,,,,,,,,,,,,,,,,,,,,,,,
1768919975.325096,1768919975.325399,100.0,0.0,4347.05127,4339.487305,4356.538574,4360.769043,4338.717773,4323.333496,4338.717773,4342.692383,4327.05127,4327.179688,4506.282227,4535.128418,4404.487305,4456.794922,,,,,,,,,,,,,,,,,,,,,,,,,,,,,,,,,,,,,,,,,,,,,,,,,,,,,,,,,,,,,,,,,,,,,,
1768919975.332904,1768919975.333207,101.0,0.0,4341.666504,4337.05127,4350.384766,4355.641113,4334.102539,4320.384766,4331.922852,4336.282227,4324.358887,4324.871582,4505.769043,4529.871582,4408.205078,4453.333496,,,,,,,,,,,,,,,,,,,,,,,,,,,,,,,,,,,,,,,,,,,,,,,,,,,,,,,,,,,,,,,,,,,,,,
1768919975.340713,1768919975.341116,102.0,0.0,4341.538574,4341.666504,4343.205078,4357.820313,4335.128418,4320.897461,4330.512695,4335.0,4326.410156,4324.615234,4505.769043,4524.615234,4410.128418,4453.333496,,,,,,,,,,,,,,,,,,,,,,,,,,,,,,,,,,,,,,,,,,,,,,,,,,,,,,,,,,,,,,,,,,,,,,
1768919975.348521,1768919975.348924,103.0,0.0,4346.410156,4343.077148,4345.769043,4357.820313,4335.897461,4324.230957,4336.538574,4337.820313,4325.769043,4320.256348,4507.94873,4528.717773,4404.871582,4460.0,,,,,,,,,,,,,,,,,,,,,,,,,,,,,,,,,,,,,,,,,,,,,,,,,,,,,,,,,,,,,,,,,,,,,,
1768919975.35633,1768919975.356532,104.0,0.0,4349.871582,4340.769043,4353.461426,4357.692383,4336.153809,4328.461426,4341.794922,4342.563965,4323.077148,4318.077148,4506.922852,4532.820313,4399.230957,4461.922852,,,,,,,,,,,,,,,,,,,,,,,,,,,,,,,,,,,,,,,,,,,,,,,,,,,,,,,,,,,,,,,,,,,,,,
1768919975.364138,1768919975.36434,105.0,0.0,4348.205078,4340.769043,4353.846191,4358.461426,4337.179688,4326.025879,4341.410156,4343.589844,4327.05127,4322.179688,4505.0,4537.436035,4405.128418,4459.230957,,,,,,,,,,,,,,,,,,,,,,,,,,,,,,,,,,,,,,,,,,,,,,,,,,,,,,,,,,,,,,,,,,,,,,
1768919975.371947,1768919975.372248,106.0,0.0,4347.820313,4341.922852,4351.153809,4357.94873,4331.410156,4324.230957,4337.692383,4339.615234,4332.692383,4327.179688,4508.333496,4542.436035,4414.615234,4461.538574,,,,,,,,,,,,,,,,,,,,,,,,,,,,,,,,,,,,,,,,,,,,,,,,,,,,,,,,,,,,,,,,,,,,,,
1768919975.379755,1768919975.380056,107.0,0.0,4352.05127,4340.128418,4353.077148,4358.717773,4327.05127,4329.615234,4341.538574,4340.897461,4331.282227,4327.692383,4512.05127,4540.0,4413.461426,4463.589844,,,,,,,,,,,,,,,,,,,,,,,,,,,,,,,,,,,,,,,,,,,,,,,,,,,,,,,,,,,,,,,,,,,,,,
1768919975.387564,1768919975.388064,108.0,0.0,4351.025879,4334.358887,4347.563965,4354.615234,4329.487305,4327.692383,4344.615234,4346.025879,4328.077148,4325.256348,4510.0,4534.102539,4407.563965,4455.897461,,,,,,,,,,,,,,,,,,,,,,,,,,,,,,,,,,,,,,,,,,,,,,,,,,,,,,,,,,,,,,,,,,,,,,
1768919975.395372,1768919975.395873,109.0,0.0,4347.436035,4332.563965,4340.0,4348.974121,4330.641113,4324.358887,4340.256348,4346.538574,4332.94873,4323.717773,4507.94873,4531.538574,4410.512695,4450.897461,,,,,,,,,,,,,,,,,,,,,,,,,,,,,,,,,,,,,,,,,,,,,,,,,,,,,,,,,,,,,,,,,,,,,,
1768919975.403181,1768919975.403781,110.0,0.0,4346.922852,4335.897461,4347.820313,4352.94873,4330.128418,4333.846191,4341.153809,4345.769043,4338.589844,4324.230957,4509.743652,4537.820313,4415.0,4458.077148,,,,,,,,,,,,,,,,,,,,,,,,,,,,,,,,,,,,,,,,,,,,,,,,,,,,,,,,,,,,,,,,,,,,,,
1768919975.410989,1768919975.411589,111.0,0.0,4347.436035,4337.307617,4353.333496,4359.615234,4329.615234,4336.153809,4339.615234,4342.94873,4332.179688,4325.512695,4508.717773,4544.230957,4410.0,4465.256348,,,,,,,,,,,,,,,,,,,,,,,,,,,,,,,,,,,,,,,,,,,,,,,,,,,,,,,,,,,,,,,,,,,,,,
1768919975.418798,1768919975.419197,112.0,0.0,4348.589844,4337.436035,4343.717773,4357.436035,4330.897461,4323.974121,4328.974121,4336.282227,4322.820313,4325.256348,4505.897461,4532.820313,4404.102539,4461.282227,2.952035,0.437026,0.104733,0.137296,0.158019,0.572207,0.347438,0.079551,0.125215,0.107984,0.968301,0.226533,0.131415,0.141782,0.14766,0.414243,0.346518,0.116922,0.154045,0.087484,0.534256,0.276748,0.034177,0.160086,0.089377,0.398525,0.194581,0.076053,0.22294,0.192847,0.315241,0.403065,0.147441,0.365377,0.279631,0.225594,0.230275,0.160293,0.128913,0.166598,0.344817,0.222462,0.295669,0.131892,0.186402,0.44351,0.270544,0.30643,0.235897,0.113013,0.588441,0.6272,0.366439,0.26282,0.185775,1.213769,0.676825,0.383956,0.235055,0.254192,0.594622,0.488043,0.357348,0.198782,0.169425,1.230166,0.663732,0.444071,0.253967,0.163275
1768919975.426606,1768919975.427006,113.0,0.0,4343.077148,4339.743652,4336.153809,4355.769043,4335.769043,4327.820313,4332.179688,4337.563965,4327.692383,4324.615234,4506.666504,4521.153809,4402.94873,4451.922852,,,,,,,,,,,,,,,,,,,,,,,,,,,,,,,,,,,,,,,,,,,,,,,,,,,,,,,,,,,,,,,,,,,,,,
1768919975.434415,1768919975.434714,114.0,0.0,4339.871582,4343.077148,4339.102539,4356.410156,4340.897461,4337.436035,4343.717773,4343.077148,4335.0,4326.794922,4507.820313,4521.794922,4401.922852,4450.0,,,,,,,,,,,,,,,,,,,,,,,,,,,,,,,,,,,,,,,,,,,,,,,,,,,,,,,,,,,,,,,,,,,,,,
1768919975.442223,1768919975.442522,115.0,0.0,4348.461426,4344.102539,4344.102539,4358.205078,4339.358887,4331.794922,4338.205078,4340.256348,4329.743652,4326.666504,4506.153809,4521.794922,4403.589844,4455.641113,,,,,,,,,,,,,,,,,,,,,,,,,,,,,,,,,,,,,,,,,,,,,,,,,,,,,,,,,,,,,,,,,,,,,,
1768919975.450032,1768919975.45013,116.0,0.0,4357.94873,4343.333496,4350.256348,4364.230957,4335.384766,4329.743652,4333.333496,4339.743652,4327.307617,4325.256348,4508.461426,4525.769043,4410.512695,4461.410156,,,,,,,,,,,,,,,,,,,,,,,,,,,,,,,,,,,,,,,,,,,,,,,,,,,,,,,,,,,,,,,,,,,,,,
1768919975.45784,1768919975.457938,117.0,0.0,4357.563965,4342.436035,4357.692383,4364.487305,4336.922852,4337.563965,4342.179688,4346.025879,4336.410156,4327.94873,4517.563965,4540.641113,4414.743652,4469.102539,,,,,,,,,,,,,,,,,,,,,,,,,,,,,,,,,,,,,,,,,,,,,,,,,,,,,,,,,,,,,,,,,,,,,,
1768919975.465649,1768919975.465646,118.0,0.0,4352.179688,4341.153809,4360.897461,4361.666504,4339.743652,4339.102539,4345.128418,4344.358887,4336.282227,4329.102539,4524.358887,4548.589844,4413.974121,4474.743652,,,,,,,,,,,,,,,,,,,,,,,,,,,,,,,,,,,,,,,,,,,,,,,,,,,,,,,,,,,,,,,,,,,,,,
1768919975.473457,1768919975.473454,119.0,0.0,4352.94873,4341.153809,4360.0,4363.461426,4341.282227,4337.307617,4341.922852,4339.102539,4326.025879,4326.153809,4520.384766,4543.717773,4415.384766,4470.641113,,,,,,,,,,,,,,,,,,,,,,,,,,,,,,,,,,,,,,,,,,,,,,,,,,,,,,,,,,,,,,,,,,,,,,
1768919975.481266,1768919975.481062,120.0,0.0,4355.128418,4337.563965,4352.94873,4361.794922,4342.436035,4341.538574,4344.358887,4339.487305,4326.025879,4324.230957,4510.641113,4535.384766,4413.333496,4460.641113,,,,,,,,,,,,,,,,,,,,,,,,,,,,,,,,,,,,,,,,,,,,,,,,,,,,,,,,,,,,,,,,,,,,,,
1768919975.489074,1768919975.48887,121.0,0.0,4349.487305,4328.974121,4342.307617,4356.666504,4340.641113,4341.922852,4344.102539,4344.102539,4337.307617,4324.743652,4506.922852,4526.410156,4406.538574,4454.102539,,,,,,,,,,,,,,,,,,,,,,,,,,,,,,,,,,,,,,,,,,,,,,,,,,,,,,,,,,,,,,,,,,,,,,
1768919975.496883,1768919975.496579,122.0,0.0,4345.0,4324.230957,4336.282227,4355.512695,4337.436035,4337.179688,4339.871582,4347.820313,4339.487305,4325.512695,4508.717773,4522.563965,4403.846191,4452.692383,,,,,,,,,,,,,,,,,,,,,,,,,,,,,,,,,,,,,,,,,,,,,,,,,,,,,,,,,,,,,,,,,,,,,,
1768919975.504691,1768919975.504386,123.0,0.0,4347.179688,4325.128418,4332.692383,4352.436035,4337.563965,4337.563965,4337.94873,4341.922852,4331.538574,4324.102539,4502.436035,4519.358887,4397.436035,4447.307617,,,,,,,,,,,,,,,,,,,,,,,,,,,,,,,,,,,,,,,,,,,,,,,,,,,,,,,,,,,,,,,,,,,,,,
1768919975.5125,1768919975.512395,124.0,0.0,4348.077148,4328.205078,4333.974121,4350.897461,4341.410156,4342.94873,4339.358887,4334.871582,4331.153809,4322.05127,4496.282227,4514.487305,4392.179688,4443.846191,,,,,,,,,,,,,,,,,,,,,,,,,,,,,,,,,,,,,,,,,,,,,,,,,,,,,,,,,,,,,,,,,,,,,,
1768919975.520308,1768919975.520203,125.0,0.0,4350.641113,4337.436035,4349.743652,4362.307617,4343.077148,4343.717773,4346.282227,4341.282227,4342.563965,4330.384766,4508.974121,4523.461426,4406.153809,4460.0,,,,,,,,,,,,,,,,,,,,,,,,,,,,,,,,,,,,,,,,,,,,,,,,,,,,,,,,,,,,,,,,,,,,,,
1768919975.528117,1768919975.528112,126.0,0.0,4358.846191,4351.410156,4366.922852,4371.794922,4341.153809,4339.871582,4349.743652,4349.743652,4350.641113,4347.820313,4529.871582,4543.846191,4429.358887,4481.666504,,,,,,,,,,,,,,,,,,,,,,,,,,,,,,,,,,,,,,,,,,,,,,,,,,,,,,,,,,,,,,,,,,,,,,
1768919975.535926,1768919975.53592,127.0,0.0,4359.615234,4354.102539,4366.025879,4372.94873,4342.692383,4343.077148,4344.871582,4350.384766,4348.205078,4352.820313,4535.256348,4554.487305,4434.230957,4482.94873,,,,,,,,,,,,,,,,,,,,,,,,,,,,,,,,,,,,,,,,,,,,,,,,,,,,,,,,,,,,,,,,,,,,,,
1768919975.543734,1768919975.543928,0.0,0.0,4357.05127,4346.410156,4358.077148,4372.307617,4343.846191,4339.871582,4340.897461,4348.205078,4340.0,4339.230957,4523.333496,4547.563965,4420.769043,4473.077148,2.824103,0.334603,0.106375,0.132875,0.148375,0.584508,0.338085,0.085314,0.137033,0.122472,1.007936,0.203626,0.10449,0.16176,0.159909,0.483055,0.382455,0.110095,0.13903,0.098808,0.436301,0.286595,0.027799,0.152182,0.089589,0.296093,0.173075,0.093949,0.199526,0.188495,0.270554,0.332412,0.13511,0.341411,0.293979,0.175503,0.21383,0.138697,0.109276,0.158874,0.247624,0.238674,0.297992,0.15102,0.203622,0.452619,0.287901,0.332469,0.240146,0.113812,0.58265,0.632902,0.339119,0.257046,0.189958,1.000156,0.521934,0.30435,0.249381,0.252378,0.704497,0.498761,0.2943,0.213774,0.179498,1.050719,0.577918,0.37483,0.24469,0.156622
1768919975.551542,1768919975.551737,1.0,0.0,4361.153809,4340.897461,4355.512695,4367.307617,4341.538574,4330.897461,4341.538574,4343.333496,4331.666504,4326.410156,4510.512695,4537.94873,4411.025879,4467.05127,,,,,,,,,,,,,,,,,,,,,,,,,,,,,,,,,,,,,,,,,,,,,,,,,,,,,,,,,,,,,,,,,,,,,,
1768919975.559351,1768919975.559444,2.0,0.0,4358.717773,4338.461426,4350.0,4364.102539,4341.025879,4332.94873,4338.717773,4339.230957,4330.512695,4327.436035,4508.974121,4532.563965,4412.563965,4461.025879,,,,,,,,,,,,,,,,,,,,,,,,,,,,,,,,,,,,,,,,,,,,,,,,,,,,,,,,,,,,,,,,,,,,,,
1768919975.56716,1768919975.567252,3.0,0.0,4350.641113,4340.256348,4345.128418,4369.743652,4342.179688,4344.358887,4342.692383,4347.307617,4339.487305,4332.436035,4512.820313,4527.820313,4412.692383,4459.230957,,,,,,,,,,,,,,,,,,,,,,,,,,,,,,,,,,,,,,,,,,,,,,,,,,,,,,,,,,,,,,,,,,,,,,
1768919975.574968,1768919975.57526,4.0,0.0,4353.205078,4340.256348,4347.563965,4372.820313,4341.794922,4348.333496,4353.077148,4354.230957,4344.615234,4330.512695,4510.512695,4528.589844,4406.282227,4460.256348,,,,,,,,,,,,,,,,,,,,,,,,,,,,,,,,,,,,,,,,,,,,,,,,,,,,,,,,,,,,,,,,,,,,,,
1768919975.582776,1768919975.583068,5.0,0.0,4361.282227,4335.256348,4349.871582,4365.512695,4340.641113,4339.871582,4349.871582,4345.256348,4334.615234,4325.384766,4506.282227,4530.769043,4401.794922,4459.230957,,,,,,,,,,,,,,,,,,,,,,,,,,,,,,,,,,,,,,,,,,,,,,,,,,,,,,,,,,,,,,,,,,,,,,
1768919975.590585,1768919975.590977,6.0,0.0,4360.641113,4333.974121,4348.974121,4364.871582,4342.436035,4336.282227,4346.666504,4335.128418,4325.384766,4324.487305,4507.820313,4528.846191,4404.358887,4460.256348,,,,,,,,,,,,,,,,,,,,,,,,,,,,,,,,,,,,,,,,,,,,,,,,,,,,,,,,,,,,,,,,,,,,,,
1768919975.598394,1768919975.598785,7.0,0.0,4352.820313,4334.358887,4346.538574,4371.538574,4343.077148,4342.94873,4354.871582,4340.0,4328.846191,4326.794922,4509.230957,4529.102539,4406.410156,4459.615234,,,,,,,,,,,,,,,,,,,,,,,,,,,,,,,,,,,,,,,,,,,,,,,,,,,,,,,,,,,,,,,,,,,,,,
1768919975.606202,1768919975.606793,8.0,0.0,4351.922852,4329.102539,4343.846191,4368.846191,4338.205078,4343.846191,4354.230957,4344.102539,4328.974121,4323.974121,4507.05127,4529.615234,4399.615234,4454.871582,,,,,,,,,,,,,,,,,,,,,,,,,,,,,,,,,,,,,,,,,,,,,,,,,,,,,,,,,,,,,,,,,,,,,,
1768919975.61401,1768919975.614601,9.0,0.0,4358.717773,4325.512695,4347.436035,4364.615234,4334.230957,4334.487305,4346.025879,4335.512695,4322.307617,4317.692383,4507.563965,4524.615234,4398.333496,4458.846191,,,,,,,,,,,,,,,,,,,,,,,,,,,,,,,,,,,,,,,,,,,,,,,,,,,,,,,,,,,,,,,,,,,,,,
1768919975.621819,1768919975.622309,10.0,0.0,4362.94873,4327.94873,4351.153809,4368.717773,4335.641113,4334.743652,4352.436035,4334.358887,4325.641113,4320.256348,4508.205078,4524.230957,4403.589844,4461.794922,,,,,,,,,,,,,,,,,,,,,,,,,,,,,,,,,,,,,,,,,,,,,,,,,,,,,,,,,,,,,,,,,,,,,,
1768919975.629628,1768919975.630117,11.0,0.0,4359.358887,4328.333496,4345.897461,4374.102539,4338.205078,4346.410156,4367.563965,4345.128418,4336.666504,4326.410156,4505.641113,4530.641113,4399.743652,4449.358887,,,,,,,,,,,,,,,,,,,,,,,,,,,,,,,,,,,,,,,,,,,,,,,,,,,,,,,,,,,,,,,,,,,,,,
1768919975.637436,1768919975.638126,12.0,0.0,4356.538574,4327.94873,4343.461426,4371.410156,4335.897461,4345.384766,4363.333496,4345.0,4334.358887,4325.0,4511.410156,4535.0,4400.256348,4448.461426,,,,,,,,,,,,,,,,,,,,,,,,,,,,,,,,,,,,,,,,,,,,,,,,,,,,,,,,,,,,,,,,,,,,,,
1768919975.645245,1768919975.645935,13.0,0.0,4358.717773,4327.94873,4349.871582,4366.282227,4335.897461,4338.589844,4350.512695,4337.692383,4326.538574,4322.563965,4520.384766,4536.025879,4414.358887,4466.282227,,,,,,,,,,,,,,,,,,,,,,,,,,,,,,,,,,,,,,,,,,,,,,,,,,,,,,,,,,,,,,,,,,,,,,
1768919975.653053,1768919975.653843,14.0,0.0,4360.256348,4326.666504,4352.563965,4365.128418,4338.461426,4335.384766,4347.436035,4338.974121,4330.256348,4323.846191,4516.153809,4533.589844,4418.077148,4470.256348,,,,,,,,,,,,,,,,,,,,,,,,,,,,,,,,,,,,,,,,,,,,,,,,,,,,,,,,,,,,,,,,,,,,,,
1768919975.660862,1768919975.661652,15.0,0.0,4358.974121,4326.666504,4347.820313,4361.922852,4335.384766,4330.769043,4348.077148,4340.897461,4332.05127,4318.461426,4505.256348,4529.487305,4408.461426,4458.974121,,,,,,,,,,,,,,,,,,,,,,,,,,,,,,,,,,,,,,,,,,,,,,,,,,,,,,,,,,,,,,,,,,,,,,
1768919975.66867,1768919975.66926,16.0,0.0,4356.282227,4325.512695,4341.153809,4357.307617,4331.282227,4331.922852,4345.0,4336.922852,4323.846191,4310.128418,4503.846191,4527.563965,4402.820313,4457.05127,2.473553,0.251439,0.115105,0.126824,0.14162,0.625108,0.338531,0.09928,0.145596,0.136897,1.076854,0.209167,0.101911,0.185673,0.171551,0.568383,0.410655,0.113234,0.127918,0.116418,0.333355,0.276293,0.027246,0.13584,0.092185,0.200828,0.13858,0.106956,0.178765,0.189506,0.263669,0.250561,0.12863,0.326629,0.32304,0.129288,0.201585,0.114961,0.103723,0.161351,0.184289,0.264615,0.301572,0.175541,0.219694,0.448237,0.334313,0.367481,0.252378,0.116453,0.570574,0.654986,0.34108,0.271802,0.189301,0.810978,0.449611,0.258514,0.27117,0.248096,0.831627,0.564133,0.25465,0.238377,0.187081,0.888396,0.557371,0.312369,0.243385,0.158138
1768919975.676479,1768919975.677068,17.0,0.0,4359.487305,4325.769043,4343.077148,4357.307617,4332.436035,4341.025879,4347.436035,4337.94873,4322.94873,4309.487305,4506.794922,4529.358887,4398.333496,4459.615234,,,,,,,,,,,,,,,,,,,,,,,,,,,,,,,,,,,,,,,,,,,,,,,,,,,,,,,,,,,,,,,,,,,,,,
1768919975.684287,1768919975.684776,18.0,0.0,4362.94873,4332.820313,4350.128418,4359.358887,4335.384766,4340.128418,4352.820313,4343.333496,4329.743652,4310.384766,4503.974121,4533.461426,4396.922852,4456.666504,,,,,,,,,,,,,,,,,,,,,,,,,,,,,,,,,,,,,,,,,,,,,,,,,,,,,,,,,,,,,,,,,,,,,,
1768919975.692096,1768919975.692584,19.0,0.0,4357.436035,4333.717773,4347.05127,4357.307617,4333.205078,4330.256348,4348.077148,4342.179688,4328.205078,4308.974121,4497.436035,4529.230957,4396.794922,4452.307617,,,,,,,,,,,,,,,,,,,,,,,,,,,,,,,,,,,,,,,,,,,,,,,,,,,,,,,,,,,,,,,,,,,,,,
1768919975.699904,1768919975.700192,20.0,0.0,4350.384766,4325.897461,4339.871582,4357.820313,4333.974121,4338.974121,4353.205078,4342.436035,4325.128418,4309.615234,4490.384766,4520.384766,4390.897461,4443.077148,,,,,,,,,,,,,,,,,,,,,,,,,,,,,,,,,,,,,,,,,,,,,,,,,,,,,,,,,,,,,,,,,,,,,,
1768919975.707713,1768919975.708,21.0,0.0,4350.897461,4327.436035,4338.333496,4361.282227,4341.922852,4351.794922,4362.692383,4345.256348,4330.0,4310.897461,4491.666504,4522.307617,4391.410156,4441.025879,,,,,,,,,,,,,,,,,,,,,,,,,,,,,,,,,,,,,,,,,,,,,,,,,,,,,,,,,,,,,,,,,,,,,,
1768919975.715521,1768919975.715909,22.0,0.0,4351.666504,4329.743652,4335.256348,4356.666504,4344.230957,4343.461426,4351.282227,4342.05127,4330.897461,4311.153809,4501.922852,4525.512695,4398.717773,4450.384766,,,,,,,,,,,,,,,,,,,,,,,,,,,,,,,,,,,,,,,,,,,,,,,,,,,,,,,,,,,,,,,,,,,,,,
1768919975.72333,1768919975.723717,23.0,0.0,4348.846191,4323.717773,4335.512695,4353.717773,4340.384766,4334.358887,4339.230957,4338.205078,4323.717773,4310.897461,4506.025879,4524.230957,4397.94873,4452.563965,,,,,,,,,,,,,,,,,,,,,,,,,,,,,,,,,,,,,,,,,,,,,,,,,,,,,,,,,,,,,,,,,,,,,,
1768919975.731138,1768919975.731725,24.0,0.0,4354.615234,4325.0,4342.436035,4356.666504,4335.769043,4335.769043,4342.05127,4335.256348,4319.743652,4308.461426,4494.358887,4522.05127,4390.128418,4445.128418,,,,,,,,,,,,,,,,,,,,,,,,,,,,,,,,,,,,,,,,,,,,,,,,,,,,,,,,,,,,,,,,,,,,,,
1768919975.738947,1768919975.739534,25.0,0.0,4360.128418,4330.384766,4343.461426,4355.256348,4331.794922,4329.615234,4342.05127,4336.282227,4322.820313,4305.256348,4486.538574,4518.333496,4386.153809,4440.0,,,,,,,,,,,,,,,,,,,,,,,,,,,,,,,,,,,,,,,,,,,,,,,,,,,,,,,,,,,,,,,,,,,,,,
1768919975.746755,1768919975.747442,26.0,0.0,4356.922852,4327.05127,4339.102539,4353.077148,4332.820313,4323.846191,4336.153809,4341.538574,4325.641113,4310.384766,4499.230957,4521.666504,4393.717773,4445.769043,,,,,,,,,,,,,,,,,,,,,,,,,,,,,,,,,,,,,,,,,,,,,,,,,,,,,,,,,,,,,,,,,,,,,,
1768919975.754564,1768919975.755251,27.0,0.0,4353.846191,4324.230957,4340.897461,4356.410156,4336.282227,4334.743652,4342.05127,4344.358887,4328.333496,4318.205078,4510.641113,4533.846191,4409.358887,4458.461426,,,,,,,,,,,,,,,,,,,,,,,,,,,,,,,,,,,,,,,,,,,,,,,,,,,,,,,,,,,,,,,,,,,,,,
1768919975.762372,1768919975.762858,28.0,0.0,4355.512695,4329.230957,4343.077148,4356.410156,4333.077148,4340.128418,4344.487305,4341.538574,4330.897461,4318.333496,4507.692383,4535.769043,4410.641113,4463.589844,,,,,,,,,,,,,,,,,,,,,,,,,,,,,,,,,,,,,,,,,,,,,,,,,,,,,,,,,,,,,,,,,,,,,,
1768919975.770181,1768919975.770666,29.0,0.0,4360.0,4330.769043,4342.692383,4353.077148,4331.922852,4333.717773,4339.871582,4339.358887,4327.05127,4314.743652,4504.487305,4530.128418,4396.410156,4456.410156,,,,,,,,,,,,,,,,,,,,,,,,,,,,,,,,,,,,,,,,,,,,,,,,,,,,,,,,,,,,,,,,,,,,,,
1768919975.777989,1768919975.778574,30.0,0.0,4361.153809,4330.0,4347.179688,4356.282227,4339.615234,4336.666504,4346.922852,4342.692383,4326.410156,4314.358887,4506.538574,4535.256348,4396.153809,4453.077148,,,,,,,,,,,,,,,,,,,,,,,,,,,,,,,,,,,,,,,,,,,,,,,,,,,,,,,,,,,,,,,,,,,,,,
1768919975.785798,1768919975.786382,31.0,0.0,4363.846191,4332.692383,4352.692383,4360.384766,4337.820313,4339.743652,4351.025879,4343.461426,4333.077148,4318.333496,4508.717773,4542.05127,4408.846191,4459.487305,,,,,,,,,,,,,,,,,,,,,,,,,,,,,,,,,,,,,,,,,,,,,,,,,,,,,,,,,,,,,,,,,,,,,,
1768919975.793606,1768919975.794091,32.0,0.0,4368.717773,4335.641113,4350.128418,4357.94873,4330.0,4330.384766,4339.230957,4338.333496,4333.846191,4318.333496,4507.436035,4538.205078,4406.922852,4460.769043,1.960402,0.206792,0.13574,0.121122,0.137595,0.6881,0.356416,0.122399,0.149077,0.14629,1.143707,0.254386,0.15022,0.214151,0.178534,0.64936,0.418846,0.123415,0.11997,0.138335,0.257942,0.251012,0.032127,0.116672,0.096412,0.132925,0.103391,0.111472,0.167949,0.192474,0.296921,0.192047,0.129696,0.326991,0.355607,0.097404,0.191768,0.092786,0.11177,0.166327,0.171864,0.285384,0.300276,0.200978,0.226884,0.44526,0.387651,0.398011,0.266194,0.118575,0.559723,0.669922,0.381678,0.295209,0.181602,0.680221,0.47385,0.286025,0.300489,0.239207,0.963806,0.659586,0.258935,0.259596,0.188415,0.803167,0.601662,0.297455,0.250748,0.162521
1768919975.801415,1768919975.801899,33.0,0.0,4363.846191,4337.307617,4342.563965,4356.153809,4335.769043,4326.410156,4334.871582,4334.487305,4328.589844,4315.256348,4505.641113,4533.077148,4399.487305,4459.487305,,,,,,,,,,,,,,,,,,,,,,,,,,,,,,,,,,,,,,,,,,,,,,,,,,,,,,,,,,,,,,,,,,,,,,
1768919975.809223,1768919975.809607,34.0,0.0,4352.307617,4335.128418,4342.436035,4359.358887,4340.769043,4333.205078,4346.282227,4337.436035,4326.538574,4316.025879,4506.538574,4534.358887,4406.153809,4461.153809,,,,,,,,,,,,,,,,,,,,,,,,,,,,,,,,,,,,,,,,,,,,,,,,,,,,,,,,,,,,,,,,,,,,,,
1768919975.817032,1768919975.817416,35.0,0.0,4355.128418,4333.205078,4349.102539,4363.846191,4335.512695,4333.205078,4346.410156,4338.461426,4326.282227,4316.538574,4508.974121,4537.692383,4413.974121,4463.589844,,,,,,,,,,,,,,,,,,,,,,,,,,,,,,,,,,,,,,,,,,,,,,,,,,,,,,,,,,,,,,,,,,,,,,
1768919975.82484,1768919975.825424,36.0,0.0,4368.077148,4336.282227,4354.102539,4367.94873,4335.641113,4331.410156,4338.846191,4339.358887,4332.563965,4316.025879,4507.692383,4537.94873,4411.922852,4465.0,,,,,,,,,,,,,,,,,,,,,,,,,,,,,,,,,,,,,,,,,,,,,,,,,,,,,,,,,,,,,,,,,,,,,,
1768919975.832649,1768919975.833233,37.0,0.0,4371.538574,4341.282227,4356.025879,4371.794922,4341.666504,4338.461426,4341.410156,4345.897461,4340.897461,4319.871582,4508.589844,4542.820313,4410.0,4468.717773,,,,,,,,,,,,,,,,,,,,,,,,,,,,,,,,,,,,,,,,,,,,,,,,,,,,,,,,,,,,,,,,,,,,,,
1768919975.840458,1768919975.840941,38.0,0.0,4371.025879,4342.94873,4357.94873,4375.641113,4341.410156,4340.0,4341.282227,4342.563965,4336.282227,4325.0,4511.922852,4549.102539,4412.94873,4473.205078,,,,,,,,,,,,,,,,,,,,,,,,,,,,,,,,,,,,,,,,,,,,,,,,,,,,,,,,,,,,,,,,,,,,,,
1768919975.848266,1768919975.848749,39.0,0.0,4369.102539,4340.641113,4358.461426,4374.487305,4338.589844,4333.589844,4339.102539,4338.205078,4334.743652,4325.0,4513.589844,4548.333496,4414.871582,4470.897461,,,,,,,,,,,,,,,,,,,,,,,,,,,,,,,,,,,,,,,,,,,,,,,,,,,,,,,,,,,,,,,,,,,,,,
1768919975.856074,1768919975.856757,40.0,0.0,4362.307617,4338.205078,4352.563965,4364.615234,4339.487305,4335.256348,4341.538574,4341.538574,4343.589844,4326.282227,4513.333496,4543.205078,4414.230957,4467.692383,,,,,,,,,,,,,,,,,,,,,,,,,,,,,,,,,,,,,,,,,,,,,,,,,,,,,,,,,,,,,,,,,,,,,,
1768919975.863883,1768919975.864566,41.0,0.0,4361.666504,4338.077148,4346.538574,4360.256348,4340.769043,4341.666504,4340.128418,4338.974121,4341.282227,4326.282227,4510.512695,4539.871582,4414.102539,4466.410156,,,,,,,,,,,,,,,,,,,,,,,,,,,,,,,,,,,,,,,,,,,,,,,,,,,,,,,,,,,,,,,,,,,,,,
1768919975.871692,1768919975.872274,42.0,0.0,4369.358887,4342.563965,4354.743652,4371.282227,4340.0,4339.102539,4336.666504,4337.563965,4334.615234,4323.974121,4508.717773,4542.563965,4412.94873,4465.384766,,,,,,,,,,,,,,,,,,,,,,,,,,,,,,,,,,,,,,,,,,,,,,,,,,,,,,,,,,,,,,,,,,,,,,
1768919975.8795,1768919975.880082,43.0,0.0,4373.846191,4343.077148,4365.641113,4379.102539,4338.333496,4335.769043,4345.0,4347.179688,4340.128418,4325.384766,4508.717773,4548.589844,4408.205078,4461.410156,,,,,,,,,,,,,,,,,,,,,,,,,,,,,,,,,,,,,,,,,,,,,,,,,,,,,,,,,,,,,,,,,,,,,,
1768919975.887308,1768919975.88809,44.0,0.0,4372.307617,4338.589844,4362.94873,4373.846191,4339.102539,4345.512695,4358.717773,4352.179688,4345.0,4326.282227,4512.820313,4552.307617,4407.179688,4459.871582,,,,,,,,,,,,,,,,,,,,,,,,,,,,,,,,,,,,,,,,,,,,,,,,,,,,,,,,,,,,,,,,,,,,,,
1768919975.895117,1768919975.895899,45.0,0.0,4368.077148,4340.256348,4356.666504,4371.410156,4340.512695,4346.794922,4350.769043,4344.487305,4340.384766,4326.666504,4521.282227,4550.641113,4412.692383,4467.94873,,,,,,,,,,,,,,,,,,,,,,,,,,,,,,,,,,,,,,,,,,,,,,,,,,,,,,,,,,,,,,,,,,,,,,
1768919975.902926,1768919975.903807,46.0,0.0,4365.512695,4343.589844,4352.692383,4370.641113,4339.615234,4331.410156,4327.820313,4341.025879,4336.922852,4326.410156,4520.897461,4543.974121,4414.230957,4469.743652,,,,,,,,,,,,,,,,,,,,,,,,,,,,,,,,,,,,,,,,,,,,,,,,,,,,,,,,,,,,,,,,,,,,,,
1768919975.910734,1768919975.911615,47.0,0.0,4365.769043,4337.179688,4349.102539,4364.487305,4335.641113,4327.436035,4326.922852,4342.94873,4339.615234,4324.871582,4509.615234,4537.179688,4409.358887,4458.846191,,,,,,,,,,,,,,,,,,,,,,,,,,,,,,,,,,,,,,,,,,,,,,,,,,,,,,,,,,,,,,,,,,,,,,
1768919975.918543,1768919975.919624,48.0,0.0,4364.871582,4331.666504,4352.436035,4363.717773,4332.820313,4332.692383,4337.307617,4343.461426,4342.820313,4325.512695,4506.282227,4535.128418,4405.512695,4452.820313,1.414104,0.200106,0.169776,0.116707,0.135656,0.759625,0.402081,0.153074,0.14877,0.146899,1.173522,0.344789,0.270828,0.249184,0.178055,0.691109,0.405979,0.136914,0.114714,0.159616,0.226929,0.219907,0.040861,0.101313,0.099842,0.098353,0.079561,0.109368,0.169115,0.194899,0.352104,0.177799,0.142378,0.339978,0.378614,0.084087,0.180224,0.077146,0.129823,0.167275,0.207747,0.289486,0.289321,0.224067,0.222182,0.456782,0.429795,0.412516,0.277382,0.11854,0.550987,0.669531,0.462976,0.316054,0.168898,0.62231,0.586445,0.414007,0.341331,0.224799,1.071873,0.759491,0.319568,0.271703,0.183367,0.802575,0.689218,0.363213,0.270036,0.165551
1768919975.926351,1768919975.927432,49.0,0.0,4364.358887,4336.410156,4358.717773,4367.307617,4335.128418,4329.615234,4330.0,4344.871582,4343.333496,4325.769043,4512.563965,4539.230957,4404.102539,4460.769043,,,,,,,,,,,,,,,,,,,,,,,,,,,,,,,,,,,,,,,,,,,,,,,,,,,,,,,,,,,,,,,,,,,,,,
1768919975.93416,1768919975.93534,50.0,0.0,4368.461426,4340.384766,4357.692383,4368.333496,4337.94873,4332.563965,4328.077148,4345.769043,4344.615234,4323.077148,4510.512695,4544.102539,4403.846191,4463.077148,,,,,,,,,,,,,,,,,,,,,,,,,,,,,,,,,,,,,,,,,,,,,,,,,,,,,,,,,,,,,,,,,,,,,,
1768919975.941968,1768919975.943149,51.0,0.0,4372.05127,4341.282227,4356.922852,4372.692383,4340.256348,4344.487305,4345.512695,4344.230957,4342.307617,4323.717773,4507.05127,4547.436035,4406.410156,4460.384766,,,,,,,,,,,,,,,,,,,,,,,,,,,,,,,,,,,,,,,,,,,,,,,,,,,,,,,,,,,,,,,,,,,,,,
1768919975.949777,1768919975.951157,52.0,0.0,4367.692383,4340.769043,4360.0,4374.230957,4340.512695,4342.05127,4345.641113,4338.461426,4335.384766,4325.128418,4508.205078,4542.692383,4404.230957,4461.538574,,,,,,,,,,,,,,,,,,,,,,,,,,,,,,,,,,,,,,,,,,,,,,,,,,,,,,,,,,,,,,,,,,,,,,
1768919975.957585,1768919975.958965,53.0,0.0,4363.589844,4338.205078,4358.846191,4365.897461,4336.410156,4336.666504,4336.922852,4338.077148,4337.179688,4323.205078,4510.0,4535.384766,4397.563965,4458.846191,,,,,,,,,,,,,,,,,,,,,,,,,,,,,,,,,,,,,,,,,,,,,,,,,,,,,,,,,,,,,,,,,,,,,,
1768919975.965394,1768919975.966773,54.0,0.0,4365.512695,4338.974121,4355.0,4361.538574,4330.897461,4340.897461,4345.769043,4344.487305,4342.692383,4322.307617,4506.410156,4539.743652,4395.897461,4457.820313,,,,,,,,,,,,,,,,,,,,,,,,,,,,,,,,,,,,,,,,,,,,,,,,,,,,,,,,,,,,,,,,,,,,,,
1768919975.973202,1768919975.974582,55.0,0.0,4362.692383,4341.410156,4355.512695,4365.256348,4333.974121,4341.538574,4350.128418,4341.794922,4336.666504,4317.94873,4496.410156,4541.025879,4397.179688,4460.512695,,,,,,,,,,,,,,,,,,,,,,,,,,,,,,,,,,,,,,,,,,,,,,,,,,,,,,,,,,,,,,,,,,,,,,
1768919975.981011,1768919975.98219,56.0,0.0,4358.461426,4338.846191,4358.461426,4367.05127,4342.05127,4338.333496,4346.794922,4338.974121,4331.666504,4313.461426,4493.205078,4535.641113,4394.743652,4454.102539,,,,,,,,,,,,,,,,,,,,,,,,,,,,,,,,,,,,,,,,,,,,,,,,,,,,,,,,,,,,,,,,,,,,,,
1768919975.988819,1768919975.989998,57.0,0.0,4360.897461,4335.384766,4355.0,4369.743652,4342.94873,4341.025879,4355.769043,4349.230957,4339.743652,4316.666504,4501.153809,4536.410156,4393.589844,4445.769043,,,,,,,,,,,,,,,,,,,,,,,,,,,,,,,,,,,,,,,,,,,,,,,,,,,,,,,,,,,,,,,,,,,,,,
1768919975.996628,1768919975.997706,58.0,0.0,4366.282227,4336.153809,4349.487305,4369.871582,4341.153809,4345.256348,4360.128418,4352.820313,4342.307617,4318.717773,4505.897461,4538.717773,4395.256348,4450.897461,,,,,,,,,,,,,,,,,,,,,,,,,,,,,,,,,,,,,,,,,,,,,,,,,,,,,,,,,,,,,,,,,,,,,,
1768919976.004436,1768919976.005515,59.0,0.0,4367.05127,4337.05127,4352.563965,4361.282227,4339.615234,4343.205078,4346.153809,4346.794922,4338.974121,4317.692383,4506.025879,4538.333496,4398.589844,4457.820313,,,,,,,,,,,,,,,,,,,,,,,,,,,,,,,,,,,,,,,,,,,,,,,,,,,,,,,,,,,,,,,,,,,,,,
1768919976.012245,1768919976.013123,60.0,0.0,4362.05127,4337.94873,4355.769043,4358.077148,4339.743652,4336.153809,4336.922852,4347.307617,4339.487305,4318.077148,4506.666504,4540.128418,4401.410156,4455.769043,,,,,,,,,,,,,,,,,,,,,,,,,,,,,,,,,,,,,,,,,,,,,,,,,,,,,,,,,,,,,,,,,,,,,,
1768919976.020053,1768919976.020931,61.0,0.0,4357.05127,4338.846191,4351.922852,4365.641113,4342.307617,4333.333496,4344.871582,4344.230957,4336.025879,4314.743652,4501.922852,4535.0,4398.717773,4451.410156,,,,,,,,,,,,,,,,,,,,,,,,,,,,,,,,,,,,,,,,,,,,,,,,,,,,,,,,,,,,,,,,,,,,,,
1768919976.027862,1768919976.028639,62.0,0.0,4360.641113,4338.717773,4348.717773,4367.179688,4341.922852,4338.205078,4348.205078,4335.641113,4330.897461,4312.436035,4499.230957,4525.128418,4400.0,4451.025879,,,,,,,,,,,,,,,,,,,,,,,,,,,,,,,,,,,,,,,,,,,,,,,,,,,,,,,,,,,,,,,,,,,,,,
1768919976.03567,1768919976.036447,63.0,0.0,4369.487305,4341.025879,4349.358887,4364.487305,4339.487305,4341.410156,4343.077148,4337.563965,4333.589844,4320.641113,4507.05127,4530.256348,4410.512695,4457.563965,,,,,,,,,,,,,,,,,,,,,,,,,,,,,,,,,,,,,,,,,,,,,,,,,,,,,,,,,,,,,,,,,,,,,,
1768919976.043479,1768919976.044456,64.0,0.0,4370.897461,4342.692383,4351.538574,4366.025879,4339.102539,4338.077148,4342.307617,4342.563965,4340.0,4327.05127,4511.794922,4541.538574,4415.512695,4465.769043,0.966204,0.21724,0.211865,0.115267,0.134869,0.817001,0.478219,0.188269,0.148352,0.138084,1.131265,0.470254,0.461824,0.29201,0.169918,0.679088,0.378622,0.151777,0.112299,0.174122,0.236063,0.191429,0.051457,0.09406,0.100079,0.092296,0.074035,0.108395,0.179001,0.197123,0.402004,0.212368,0.170075,0.355691,0.383541,0.088161,0.163453,0.071984,0.152516,0.162523,0.269815,0.274105,0.270755,0.243128,0.208817,0.482387,0.455504,0.408091,0.284824,0.116279,0.542562,0.664871,0.572103,0.330087,0.158157,0.620245,0.757779,0.634934,0.396379,0.206207,1.135481,0.849587,0.428894,0.279468,0.176992,0.862428,0.791,0.511855,0.303661,0.167608
1768919976.051287,1768919976.052265,65.0,0.0,4368.205078,4342.692383,4353.205078,4366.282227,4338.461426,4333.846191,4345.128418,4340.256348,4341.794922,4325.512695,4510.769043,4540.769043,4413.461426,4465.897461,,,,,,,,,,,,,,,,,,,,,,,,,,,,,,,,,,,,,,,,,,,,,,,,,,,,,,,,,,,,,,,,,,,,,,
1768919976.059096,1768919976.060173,66.0,0.0,4368.333496,4343.333496,4353.205078,4363.461426,4335.256348,4335.0,4344.230957,4338.589844,4342.820313,4328.205078,4511.410156,4537.820313,4415.256348,4460.897461,,,,,,,,,,,,,,,,,,,,,,,,,,,,,,,,,,,,,,,,,,,,,,,,,,,,,,,,,,,,,,,,,,,,,,
1768919976.066904,1768919976.067982,67.0,0.0,4368.589844,4342.563965,4352.436035,4365.0,4337.563965,4340.384766,4341.538574,4337.820313,4340.641113,4329.871582,4509.487305,4536.922852,4410.256348,4460.512695,,,,,,,,,,,,,,,,,,,,,,,,,,,,,,,,,,,,,,,,,,,,,,,,,,,,,,,,,,,,,,,,,,,,,,
1768919976.074713,1768919976.07559,68.0,0.0,4370.128418,4338.205078,4354.487305,4369.743652,4339.487305,4342.820313,4343.205078,4333.589844,4332.692383,4320.641113,4503.974121,4533.974121,4398.846191,4465.769043,,,,,,,,,,,,,,,,,,,,,,,,,,,,,,,,,,,,,,,,,,,,,,,,,,,,,,,,,,,,,,,,,,,,,,
1768919976.082521,1768919976.083398,69.0,0.0,4371.794922,4334.102539,4355.641113,4367.436035,4336.666504,4342.307617,4344.871582,4335.769043,4333.461426,4314.230957,4504.102539,4534.102539,4398.205078,4468.205078,,,,,,,,,,,,,,,,,,,,,,,,,,,,,,,,,,,,,,,,,,,,,,,,,,,,,,,,,,,,,,,,,,,,,,
1768919976.09033,1768919976.091307,70.0,0.0,4365.0,4331.025879,4348.974121,4358.846191,4335.128418,4339.102539,4342.94873,4343.974121,4341.794922,4320.769043,4507.563965,4537.820313,4401.410156,4460.512695,,,,,,,,,,,,,,,,,,,,,,,,,,,,,,,,,,,,,,,,,,,,,,,,,,,,,,,,,,,,,,,,,,,,,,
1768919976.098138,1768919976.099115,71.0,0.0,4355.897461,4327.436035,4344.102539,4356.025879,4330.384766,4332.820313,4339.102539,4344.615234,4344.615234,4324.230957,4506.794922,4538.461426,4397.563965,4452.94873,,,,,,,,,,,,,,,,,,,,,,,,,,,,,,,,,,,,,,,,,,,,,,,,,,,,,,,,,,,,,,,,,,,,,,
1768919976.105947,1768919976.107123,72.0,0.0,4359.743652,4329.743652,4350.128418,4357.820313,4324.615234,4330.641113,4334.230957,4336.153809,4338.846191,4321.538574,4504.871582,4537.820313,4394.102539,4456.538574,,,,,,,,,,,,,,,,,,,,,,,,,,,,,,,,,,,,,,,,,,,,,,,,,,,,,,,,,,,,,,,,,,,,,,
1768919976.113755,1768919976.114932,73.0,0.0,4369.230957,4333.589844,4359.743652,4358.205078,4325.384766,4331.794922,4330.769043,4333.333496,4332.94873,4321.282227,4506.538574,4540.512695,4397.692383,4461.666504,,,,,,,,,,,,,,,,,,,,,,,,,,,,,,,,,,,,,,,,,,,,,,,,,,,,,,,,,,,,,,,,,,,,,,
1768919976.121564,1768919976.12284,74.0,0.0,4365.256348,4329.743652,4356.153809,4358.717773,4330.897461,4329.358887,4334.487305,4340.512695,4333.589844,4321.538574,4508.846191,4539.487305,4401.025879,4461.666504,,,,,,,,,,,,,,,,,,,,,,,,,,,,,,,,,,,,,,,,,,,,,,,,,,,,,,,,,,,,,,,,,,,,,,
1768919976.129372,1768919976.130649,75.0,0.0,4352.436035,4326.794922,4344.615234,4357.436035,4331.922852,4330.897461,4342.692383,4341.794922,4335.897461,4321.282227,4507.05127,4531.025879,4398.077148,4455.897461,,,,,,,,,,,,,,,,,,,,,,,,,,,,,,,,,,,,,,,,,,,,,,,,,,,,,,,,,,,,,,,,,,,,,,
1768919976.137181,1768919976.138657,76.0,0.0,4351.153809,4332.692383,4342.563965,4356.666504,4329.487305,4336.794922,4341.538574,4335.897461,4337.436035,4322.05127,4503.717773,4526.794922,4395.384766,4451.153809,,,,,,,,,,,,,,,,,,,,,,,,,,,,,,,,,,,,,,,,,,,,,,,,,,,,,,,,,,,,,,,,,,,,,,
1768919976.14499,1768919976.146465,77.0,0.0,4361.410156,4340.512695,4352.692383,4365.512695,4332.692383,4342.436035,4341.410156,4340.384766,4342.179688,4323.717773,4505.641113,4532.436035,4403.589844,4456.025879,,,,,,,,,,,,,,,,,,,,,,,,,,,,,,,,,,,,,,,,,,,,,,,,,,,,,,,,,,,,,,,,,,,,,,
1768919976.152798,1768919976.154173,78.0,0.0,4365.641113,4339.358887,4358.589844,4370.384766,4338.846191,4341.794922,4344.743652,4345.0,4342.307617,4321.410156,4509.615234,4540.897461,4411.282227,4462.820313,,,,,,,,,,,,,,,,,,,,,,,,,,,,,,,,,,,,,,,,,,,,,,,,,,,,,,,,,,,,,,,,,,,,,,
1768919976.160607,1768919976.161981,79.0,0.0,4358.461426,4335.897461,4348.846191,4362.94873,4336.025879,4333.333496,4335.128418,4332.307617,4328.333496,4313.717773,4503.974121,4536.025879,4404.615234,4459.358887,,,,,,,,,,,,,,,,,,,,,,,,,,,,,,,,,,,,,,,,,,,,,,,,,,,,,,,,,,,,,,,,,,,,,,
1768919976.168415,1768919976.16959,80.0,0.0,4350.641113,4337.563965,4341.025879,4355.769043,4326.666504,4330.0,4328.974121,4326.922852,4323.974121,4311.410156,4495.641113,4522.563965,4395.256348,4447.692383,0.639653,0.241989,0.249867,0.120319,0.13368,0.834827,0.572501,0.221067,0.150995,0.122458,1.006244,0.609142,0.686501,0.341095,0.156895,0.614846,0.350708,0.165658,0.115525,0.177553,0.267544,0.168786,0.061469,0.094658,0.096313,0.104822,0.0875,0.11712,0.193302,0.200788,0.427278,0.285696,0.210633,0.365349,0.369915,0.101857,0.141237,0.075684,0.174006,0.154592,0.331699,0.24424,0.24979,0.256457,0.193972,0.513763,0.468742,0.388899,0.289019,0.112817,0.540067,0.674086,0.678558,0.338467,0.156956,0.639152,0.946971,0.895238,0.461168,0.186131,1.153448,0.929575,0.559347,0.291113,0.176431,0.93362,0.885182,0.707367,0.349512,0.172661
1768919976.176224,1768919976.177398,81.0,0.0,4353.846191,4342.179688,4346.794922,4357.307617,4324.615234,4333.974121,4334.871582,4340.897461,4335.641113,4319.102539,4500.897461,4527.179688,4401.794922,4448.974121,,,,,,,,,,,,,,,,,,,,,,,,,,,,,,,,,,,,,,,,,,,,,,,,,,,,,,,,,,,,,,,,,,,,,,
1768919976.184032,1768919976.185106,82.0,0.0,4361.666504,4342.563965,4356.922852,4364.615234,4328.461426,4331.538574,4333.717773,4342.307617,4332.307617,4324.102539,4509.743652,4537.307617,4410.641113,4459.871582,,,,,,,,,,,,,,,,,,,,,,,,,,,,,,,,,,,,,,,,,,,,,,,,,,,,,,,,,,,,,,,,,,,,,,
1768919976.191841,1768919976.192915,83.0,0.0,4359.871582,4339.102539,4359.230957,4367.307617,4333.077148,4327.179688,4328.717773,4329.358887,4320.256348,4317.307617,4505.769043,4528.846191,4398.974121,4452.692383,,,,,,,,,,,,,,,,,,,,,,,,,,,,,,,,,,,,,,,,,,,,,,,,,,,,,,,,,,,,,,,,,,,,,,
1768919976.199649,1768919976.200523,84.0,0.0,4354.102539,4338.717773,4356.922852,4364.743652,4334.487305,4337.05127,4335.897461,4329.743652,4323.077148,4312.820313,4503.461426,4525.0,4393.333496,4443.717773,,,,,,,,,,,,,,,,,,,,,,,,,,,,,,,,,,,,,,,,,,,,,,,,,,,,,,,,,,,,,,,,,,,,,,
1768919976.207458,1768919976.208331,85.0,0.0,4359.230957,4338.974121,4357.692383,4368.461426,4329.358887,4340.128418,4340.897461,4336.538574,4329.230957,4315.641113,4510.0,4541.025879,4410.128418,4458.461426,,,,,,,,,,,,,,,,,,,,,,,,,,,,,,,,,,,,,,,,,,,,,,,,,,,,,,,,,,,,,,,,,,,,,,
1768919976.215266,1768919976.216039,86.0,0.0,4363.717773,4337.179688,4357.94873,4371.794922,4325.0,4326.922852,4332.563965,4333.717773,4327.179688,4314.743652,4510.0,4543.461426,4418.077148,4470.512695,,,,,,,,,,,,,,,,,,,,,,,,,,,,,,,,,,,,,,,,,,,,,,,,,,,,,,,,,,,,,,,,,,,,,,
1768919976.223075,1768919976.223848,87.0,0.0,4358.461426,4337.436035,4358.717773,4368.077148,4329.102539,4327.820313,4329.743652,4330.641113,4328.461426,4313.205078,4505.384766,4531.538574,4407.94873,4462.05127,,,,,,,,,,,,,,,,,,,,,,,,,,,,,,,,,,,,,,,,,,,,,,,,,,,,,,,,,,,,,,,,,,,,,,
1768919976.230883,1768919976.231856,88.0,0.0,4358.077148,4337.436035,4363.077148,4371.153809,4335.0,4344.230957,4339.615234,4336.666504,4332.307617,4314.871582,4505.384766,4531.538574,4402.307617,4456.282227,,,,,,,,,,,,,,,,,,,,,,,,,,,,,,,,,,,,,,,,,,,,,,,,,,,,,,,,,,,,,,,,,,,,,,
1768919976.238692,1768919976.239665,89.0,0.0,4361.282227,4333.717773,4364.487305,4374.871582,4330.384766,4347.05127,4342.692383,4344.358887,4334.615234,4316.282227,4504.487305,4536.025879,4399.358887,4456.538574,,,,,,,,,,,,,,,,,,,,,,,,,,,,,,,,,,,,,,,,,,,,,,,,,,,,,,,,,,,,,,,,,,,,,,
1768919976.2465,1768919976.247573,90.0,0.0,4359.230957,4332.179688,4360.897461,4367.692383,4326.153809,4334.743652,4331.282227,4341.794922,4336.922852,4317.820313,4503.974121,4537.820313,4397.05127,4454.743652,,,,,,,,,,,,,,,,,,,,,,,,,,,,,,,,,,,,,,,,,,,,,,,,,,,,,,,,,,,,,,,,,,,,,,
1768919976.254309,1768919976.255382,91.0,0.0,4356.538574,4333.461426,4356.153809,4362.692383,4334.743652,4334.743652,4330.128418,4335.641113,4334.487305,4317.563965,4510.0,4539.743652,4402.563965,4454.871582,,,,,,,,,,,,,,,,,,,,,,,,,,,,,,,,,,,,,,,,,,,,,,,,,,,,,,,,,,,,,,,,,,,,,,
1768919976.262117,1768919976.26339,92.0,0.0,4352.179688,4327.94873,4347.563965,4361.153809,4334.487305,4342.179688,4341.282227,4337.94873,4335.128418,4314.358887,4505.897461,4532.692383,4398.333496,4447.307617,,,,,,,,,,,,,,,,,,,,,,,,,,,,,,,,,,,,,,,,,,,,,,,,,,,,,,,,,,,,,,,,,,,,,,
1768919976.269926,1768919976.271199,93.0,0.0,4346.794922,4322.307617,4338.974121,4355.0,4324.230957,4339.230957,4340.128418,4342.179688,4341.153809,4317.307617,4492.05127,4521.025879,4389.230957,4433.717773,,,,,,,,,,,,,,,,,,,,,,,,,,,,,,,,,,,,,,,,,,,,,,,,,,,,,,,,,,,,,,,,,,,,,,
1768919976.277734,1768919976.278907,94.0,0.0,4346.794922,4325.128418,4341.922852,4354.871582,4330.897461,4343.333496,4341.666504,4343.077148,4342.307617,4326.666504,4496.153809,4524.615234,4397.94873,4438.205078,,,,,,,,,,,,,,,,,,,,,,,,,,,,,,,,,,,,,,,,,,,,,,,,,,,,,,,,,,,,,,,,,,,,,,
1768919976.285543,1768919976.286715,95.0,0.0,4349.358887,4330.769043,4355.641113,4362.563965,4340.384766,4351.538574,4349.871582,4342.05127,4338.461426,4327.820313,4511.410156,4537.94873,4411.410156,4456.666504,,,,,,,,,,,,,,,,,,,,,,,,,,,,,,,,,,,,,,,,,,,,,,,,,,,,,,,,,,,,,,,,,,,,,,
1768919976.293351,1768919976.294323,96.0,0.0,4351.410156,4336.538574,4362.820313,4365.0,4331.025879,4344.102539,4339.487305,4337.94873,4332.94873,4325.0,4512.307617,4545.256348,4414.615234,4464.743652,0.452214,0.262007,0.269875,0.136379,0.130968,0.806215,0.660523,0.241344,0.156489,0.104464,0.82322,0.724237,0.878788,0.388932,0.142608,0.530545,0.332564,0.174136,0.128768,0.169175,0.301407,0.14963,0.069434,0.099751,0.089361,0.122455,0.117031,0.14125,0.209782,0.206641,0.429668,0.382338,0.258149,0.366511,0.344849,0.116304,0.11927,0.08589,0.190683,0.147025,0.373045,0.207547,0.23247,0.263418,0.183741,0.533705,0.474035,0.359532,0.288409,0.108919,0.536524,0.699009,0.744409,0.344461,0.167727,0.647881,1.09706,1.113073,0.522943,0.167376,1.13136,0.997185,0.667493,0.308941,0.185292,0.973344,0.94692,0.883257,0.395704,0.184378
1768919976.30116,1768919976.302131,97.0,0.0,4356.410156,4341.794922,4360.641113,4366.282227,4329.487305,4338.974121,4333.846191,4338.333496,4329.743652,4325.256348,4508.205078,4548.974121,4411.922852,4463.846191,,,,,,,,,,,,,,,,,,,,,,,,,,,,,,,,,,,,,,,,,,,,,,,,,,,,,,,,,,,,,,,,,,,,,,
1768919976.308968,1768919976.310039,98.0,0.0,4356.538574,4341.794922,4358.717773,4370.769043,4338.077148,4341.153809,4345.256348,4345.128418,4333.717773,4323.717773,4510.641113,4547.820313,4405.641113,4458.205078,,,,,,,,,,,,,,,,,,,,,,,,,,,,,,,,,,,,,,,,,,,,,,,,,,,,,,,,,,,,,,,,,,,,,,
1768919976.316777,1768919976.317848,99.0,0.0,4349.743652,4337.692383,4357.820313,4367.94873,4333.461426,4331.922852,4337.563965,4347.179688,4341.410156,4319.487305,4508.333496,4539.615234,4398.077148,4449.871582,,,,,,,,,,,,,,,,,,,,,,,,,,,,,,,,,,,,,,,,,,,,,,,,,,,,,,,,,,,,,,,,,,,,,,
1768919976.324585,1768919976.325856,100.0,0.0,4348.846191,4335.641113,4357.436035,4363.205078,4326.922852,4326.666504,4326.025879,4347.179688,4342.820313,4318.461426,4505.128418,4537.05127,4397.179688,4450.0,,,,,,,,,,,,,,,,,,,,,,,,,,,,,,,,,,,,,,,,,,,,,,,,,,,,,,,,,,,,,,,,,,,,,,
1768919976.332394,1768919976.333664,101.0,0.0,4355.128418,4333.974121,4362.179688,4366.666504,4329.102539,4336.410156,4338.077148,4348.846191,4341.025879,4317.820313,4508.077148,4546.794922,4399.487305,4459.743652,,,,,,,,,,,,,,,,,,,,,,,,,,,,,,,,,,,,,,,,,,,,,,,,,,,,,,,,,,,,,,,,,,,,,,
1768919976.340202,1768919976.341573,102.0,0.0,4356.922852,4330.641113,4367.692383,4369.358887,4329.358887,4337.692383,4343.077148,4343.077148,4336.794922,4314.230957,4508.589844,4552.436035,4400.0,4460.897461,,,,,,,,,,,,,,,,,,,,,,,,,,,,,,,,,,,,,,,,,,,,,,,,,,,,,,,,,,,,,,,,,,,,,,
1768919976.348011,1768919976.349381,103.0,0.0,4352.820313,4331.025879,4363.974121,4366.922852,4329.102539,4336.794922,4336.794922,4339.358887,4334.230957,4314.743652,4507.307617,4549.487305,4399.230957,4450.641113,,,,,,,,,,,,,,,,,,,,,,,,,,,,,,,,,,,,,,,,,,,,,,,,,,,,,,,,,,,,,,,,,,,,,,
1768919976.355819,1768919976.356989,104.0,0.0,4348.461426,4332.820313,4362.94873,4366.922852,4330.641113,4345.0,4343.077148,4348.974121,4340.128418,4321.025879,4508.077148,4548.974121,4400.0,4448.205078,,,,,,,,,,,,,,,,,,,,,,,,,,,,,,,,,,,,,,,,,,,,,,,,,,,,,,,,,,,,,,,,,,,,,,
1768919976.363628,1768919976.364797,105.0,0.0,4349.615234,4333.461426,4371.794922,4370.641113,4333.461426,4342.307617,4347.179688,4350.897461,4340.0,4325.769043,4509.615234,4553.846191,4406.922852,4457.563965,,,,,,,,,,,,,,,,,,,,,,,,,,,,,,,,,,,,,,,,,,,,,,,,,,,,,,,,,,,,,,,,,,,,,,
1768919976.371436,1768919976.372506,106.0,0.0,4352.307617,4331.922852,4374.615234,4371.922852,4336.410156,4335.256348,4341.666504,4344.487305,4337.05127,4323.717773,4510.256348,4559.230957,4408.846191,4464.358887,,,,,,,,,,,,,,,,,,,,,,,,,,,,,,,,,,,,,,,,,,,,,,,,,,,,,,,,,,,,,,,,,,,,,,
1768919976.379245,1768919976.380314,107.0,0.0,4348.974121,4329.230957,4365.384766,4365.897461,4332.820313,4341.666504,4343.589844,4344.743652,4339.230957,4318.205078,4506.538574,4551.922852,4398.077148,4457.563965,,,,,,,,,,,,,,,,,,,,,,,,,,,,,,,,,,,,,,,,,,,,,,,,,,,,,,,,,,,,,,,,,,,,,,
1768919976.387053,1768919976.387922,108.0,0.0,4348.589844,4330.641113,4359.230957,4362.05127,4329.487305,4345.256348,4344.358887,4342.692383,4336.282227,4317.05127,4503.461426,4541.922852,4396.922852,4454.871582,,,,,,,,,,,,,,,,,,,,,,,,,,,,,,,,,,,,,,,,,,,,,,,,,,,,,,,,,,,,,,,,,,,,,,
1768919976.394862,1768919976.395731,109.0,0.0,4357.307617,4334.871582,4365.0,4367.179688,4335.512695,4336.922852,4340.256348,4336.922852,4333.077148,4323.461426,4514.871582,4550.512695,4410.897461,4467.820313,,,,,,,,,,,,,,,,,,,,,,,,,,,,,,,,,,,,,,,,,,,,,,,,,,,,,,,,,,,,,,,,,,,,,,
1768919976.402671,1768919976.403439,110.0,0.0,4358.205078,4337.307617,4368.205078,4369.487305,4335.0,4335.256348,4344.230957,4342.692383,4337.436035,4325.384766,4522.307617,4561.410156,4414.615234,4473.846191,,,,,,,,,,,,,,,,,,,,,,,,,,,,,,,,,,,,,,,,,,,,,,,,,,,,,,,,,,,,,,,,,,,,,,
1768919976.410479,1768919976.411247,111.0,0.0,4348.077148,4335.641113,4361.922852,4365.128418,4325.641113,4339.102539,4341.025879,4346.410156,4334.358887,4316.666504,4510.512695,4548.461426,4403.589844,4463.846191,,,,,,,,,,,,,,,,,,,,,,,,,,,,,,,,,,,,,,,,,,,,,,,,,,,,,,,,,,,,,,,,,,,,,,
1768919976.418287,1768919976.418855,112.0,0.0,4347.692383,4334.615234,4356.922852,4364.871582,4325.384766,4332.94873,4326.666504,4335.769043,4325.0,4312.05127,4502.179688,4533.077148,4398.846191,4455.0,0.35452,0.266826,0.262685,0.165228,0.127717,0.745777,0.718748,0.240636,0.160621,0.088229,0.615982,0.779024,0.974768,0.425601,0.130565,0.445431,0.324889,0.175203,0.153418,0.152101,0.323351,0.129456,0.075887,0.10616,0.081369,0.139342,0.158546,0.180062,0.226348,0.213818,0.421153,0.489699,0.306345,0.361156,0.319101,0.127066,0.105978,0.099556,0.20167,0.142409,0.385838,0.174098,0.221931,0.265507,0.179534,0.533143,0.473422,0.325911,0.281363,0.104477,0.536698,0.719486,0.743174,0.351255,0.185489,0.623816,1.154999,1.216271,0.568185,0.152338,1.107554,1.045406,0.722378,0.329482,0.201659,0.982743,0.959261,0.979814,0.426937,0.2031
1768919976.426096,1768919976.426663,113.0,0.0,4353.974121,4335.897461,4357.820313,4366.282227,4328.333496,4328.461426,4329.743652,4336.025879,4329.871582,4314.871582,4507.436035,4537.820313,4401.153809,4458.333496,,,,,,,,,,,,,,,,,,,,,,,,,,,,,,,,,,,,,,,,,,,,,,,,,,,,,,,,,,,,,,,,,,,,,,
1768919976.433905,1768919976.434371,114.0,0.0,4348.077148,4333.461426,4357.94873,4361.538574,4325.897461,4336.794922,4343.974121,4344.871582,4336.410156,4316.538574,4509.871582,4540.512695,4403.077148,4460.0,,,,,,,,,,,,,,,,,,,,,,,,,,,,,,,,,,,,,,,,,,,,,,,,,,,,,,,,,,,,,,,,,,,,,,
1768919976.441713,1768919976.442179,115.0,0.0,4338.589844,4326.922852,4356.666504,4363.589844,4328.717773,4340.512695,4337.307617,4341.153809,4333.461426,4316.666504,4507.179688,4536.922852,4407.94873,4458.205078,,,,,,,,,,,,,,,,,,,,,,,,,,,,,,,,,,,,,,,,,,,,,,,,,,,,,,,,,,,,,,,,,,,,,,
1768919976.449522,1768919976.450187,116.0,0.0,4341.538574,4327.05127,4361.153809,4371.410156,4333.461426,4338.077148,4330.641113,4338.717773,4332.563965,4316.666504,4508.205078,4538.717773,4409.102539,4460.897461,,,,,,,,,,,,,,,,,,,,,,,,,,,,,,,,,,,,,,,,,,,,,,,,,,,,,,,,,,,,,,,,,,,,,,
1768919976.45733,1768919976.457996,117.0,0.0,4347.94873,4332.820313,4364.615234,4368.717773,4334.743652,4339.102539,4343.461426,4344.358887,4335.641113,4314.230957,4508.205078,4539.230957,4401.025879,4459.871582,,,,,,,,,,,,,,,,,,,,,,,,,,,,,,,,,,,,,,,,,,,,,,,,,,,,,,,,,,,,,,,,,,,,,,
