Timestamp,OriginalTimestamp,EEG.Counter,EEG.Interpolated,EEG.AF3,EEG.F7,EEG.F3,EEG.FC5,EEG.T7,EEG.P7,EEG.O1,EEG.O2,EEG.P8,EEG.T8,EEG.FC6,EEG.F4,EEG.F8,EEG.AF4,POW.AF3.Theta,POW.AF3.Alpha,POW.AF3.BetaL,POW.AF3.BetaH,POW.AF3.Gamma,POW.F7.Theta,POW.F7.Alpha,POW.F7.BetaL,POW.F7.BetaH,POW.F7.Gamma,POW.F3.Theta,POW.F3.Alpha,POW.F3.BetaL,POW.F3.BetaH,POW.F3.Gamma,POW.FC5.Theta,POW.FC5.Alpha,POW.FC5.BetaL,POW.FC5.BetaH,POW.FC5.Gamma,POW.T7.Theta,POW.T7.Alpha,POW.T7.BetaL,POW.T7.BetaH,POW.T7.Gamma,POW.P7.Theta,POW.P7.Alpha,POW.P7.BetaL,POW.P7.BetaH,POW.P7.Gamma,POW.O1.Theta,POW.O1.Alpha,POW.O1.BetaL,POW.O1.BetaH,POW.O1.Gamma,POW.O2.Theta,POW.O2.Alpha,POW.O2.BetaL,POW.O2.BetaH,POW.O2.Gamma,POW.P8.Theta,POW.P8.Alpha,POW.P8.BetaL,POW.P8.BetaH,POW.P8.Gamma,POW.T8.Theta,POW.T8.Alpha,POW.T8.BetaL,POW.T8.BetaH,POW.T8.Gamma,POW.FC6.Theta,POW.FC6.Alpha,POW.FC6.BetaL,POW.FC6.BetaH,POW.FC6.Gamma,POW.F4.Theta,POW.F4.Alpha,POW.F4.BetaL,POW.F4.BetaH,POW.F4.Gamma,POW.F8.Theta,POW.F8.Alpha,POW.F8.BetaL,POW.F8.BetaH,POW.F8.Gamma,POW.AF4.Theta,POW.AF4.Alpha,POW.AF4.BetaL,POW.AF4.BetaH,POW.AF4.Gamma
1769164106.784428,1769164106.78521,25.0,0.0,4268.717773,4295.256348,4341.282227,4357.692383,4295.897461,4299.487305,4296.538574,4333.717773,4311.153809,4297.05127,4618.333496,4572.05127,4443.205078,4538.205078,,,,,,,,,,,,,,,,,,,,,,,,,,,,,,,,,,,,,,,,,,,,,,,,,,,,,,,,,,,,,,,,,,,,,,
1769164106.792237,1769164106.792918,26.0,0.0,4269.615234,4294.487305,4340.256348,4356.153809,4295.0,4297.05127,4293.974121,4334.230957,4310.512695,4294.615234,4619.615234,4576.025879,4444.743652,4544.487305,,,,,,,,,,,,,,,,,,,,,,,,,,,,,,,,,,,,,,,,,,,,,,,,,,,,,,,,,,,,,,,,,,,,,,
1769164106.800045,1769164106.800727,27.0,0.0,4274.615234,4295.512695,4334.230957,4355.641113,4294.102539,4294.743652,4294.102539,4339.743652,4312.563965,4296.410156,4625.897461,4585.769043,4453.077148,4554.230957,,,,,,,,,,,,,,,,,,,,,,,,,,,,,,,,,,,,,,,,,,,,,,,,,,,,,,,,,,,,,,,,,,,,,,
1769164106.807854,1769164106.808735,28.0,0.0,4272.05127,4294.743652,4324.358887,4352.94873,4294.871582,4296.153809,4297.692383,4342.692383,4312.820313,4297.179688,4627.692383,4585.256348,4457.692383,4554.358887,,,,,,,,,,,,,,,,,,,,,,,,,,,,,,,,,,,,,,,,,,,,,,,,,,,,,,,,,,,,,,,,,,,,,,
1769164106.815662,1769164106.816544,29.0,0.0,4267.563965,4294.358887,4320.384766,4350.128418,4299.743652,4297.94873,4297.307617,4333.717773,4312.179688,4297.563965,4625.897461,4582.05127,4453.077148,4551.282227,,,,,,,,,,,,,,,,,,,,,,,,,,,,,,,,,,,,,,,,,,,,,,,,,,,,,,,,,,,,,,,,,,,,,,
1769164106.823471,1769164106.824452,30.0,0.0,4271.666504,4296.922852,4321.025879,4352.820313,4300.641113,4295.769043,4293.205078,4328.846191,4311.538574,4296.538574,4625.769043,4584.358887,4450.897461,4553.461426,2.143349,0.406681,0.355817,0.410667,0.091881,0.781556,0.443095,0.29235,0.156606,0.144948,0.853536,0.332767,0.182513,0.170658,0.09188,0.59837,0.380111,0.105128,0.137124,0.050399,0.053814,0.021412,0.016803,0.011022,0.012553,0.044082,0.117557,0.148669,0.096749,0.057181,0.185085,0.282261,0.108179,0.078772,0.17188,0.241025,0.522585,0.269549,0.12854,0.084601,0.332272,0.804074,0.800518,0.106589,0.068781,1.089189,0.878893,0.998203,0.231278,0.079717,0.500977,0.720641,0.499649,0.265347,0.091951,0.20369,0.883797,0.447332,0.288648,0.129341,0.571312,0.489144,0.500748,0.319123,0.123031,0.646156,0.725837,0.520331,0.296691,0.192299
1769164106.831279,1769164106.83226,31.0,0.0,4278.461426,4299.487305,4320.128418,4358.846191,4296.538574,4292.436035,4292.436035,4332.436035,4310.641113,4297.307617,4629.230957,4586.538574,4457.179688,4556.666504,,,,,,,,,,,,,,,,,,,,,,,,,,,,,,,,,,,,,,,,,,,,,,,,,,,,,,,,,,,,,,,,,,,,,,
1769164106.839088,1769164106.839869,32.0,0.0,4279.871582,4296.922852,4314.102539,4358.589844,4294.743652,4292.307617,4293.333496,4331.538574,4312.179688,4298.589844,4629.358887,4586.922852,4459.871582,4555.641113,,,,,,,,,,,,,,,,,,,,,,,,,,,,,,,,,,,,,,,,,,,,,,,,,,,,,,,,,,,,,,,,,,,,,,
1769164106.846896,1769164106.847678,33.0,0.0,4276.282227,4293.974121,4306.410156,4353.461426,4296.153809,4293.717773,4292.563965,4327.436035,4311.538574,4294.871582,4625.0,4583.077148,4456.794922,4554.230957,,,,,,,,,,,,,,,,,,,,,,,,,,,,,,,,,,,,,,,,,,,,,,,,,,,,,,,,,,,,,,,,,,,,,,
1769164106.854705,1769164106.855386,34.0,0.0,4275.641113,4299.230957,4304.743652,4358.589844,4300.512695,4294.743652,4292.94873,4325.512695,4307.563965,4295.128418,4625.769043,4581.538574,4458.333496,4555.897461,,,,,,,,,,,,,,,,,,,,,,,,,,,,,,,,,,,,,,,,,,,,,,,,,,,,,,,,,,,,,,,,,,,,,,
1769164106.862513,1769164106.863195,35.0,0.0,4283.846191,4305.512695,4307.436035,4367.179688,4304.102539,4295.512695,4293.461426,4328.717773,4310.897461,4302.820313,4629.102539,4587.179688,4459.358887,4553.846191,,,,,,,,,,,,,,,,,,,,,,,,,,,,,,,,,,,,,,,,,,,,,,,,,,,,,,,,,,,,,,,,,,,,,,
1769164106.870321,1769164106.871203,36.0,0.0,4289.743652,4300.384766,4304.102539,4363.077148,4300.769043,4295.897461,4291.794922,4337.307617,4320.769043,4309.358887,4630.0,4589.871582,4454.615234,4548.461426,,,,,,,,,,,,,,,,,,,,,,,,,,,,,,,,,,,,,,,,,,,,,,,,,,,,,,,,,,,,,,,,,,,,,,
1769164106.87813,1769164106.879011,37.0,0.0,4288.717773,4292.94873,4295.641113,4355.897461,4295.897461,4294.871582,4293.205078,4342.436035,4323.846191,4310.128418,4631.922852,4588.333496,4456.538574,4550.641113,,,,,,,,,,,,,,,,,,,,,,,,,,,,,,,,,,,,,,,,,,,,,,,,,,,,,,,,,,,,,,,,,,,,,,
1769164106.885938,1769164106.88692,38.0,0.0,4289.230957,4293.717773,4294.230957,4357.820313,4296.666504,4295.256348,4297.563965,4341.666504,4317.307617,4305.256348,4633.974121,4589.871582,4458.846191,4555.256348,,,,,,,,,,,,,,,,,,,,,,,,,,,,,,,,,,,,,,,,,,,,,,,,,,,,,,,,,,,,,,,,,,,,,,
1769164106.893747,1769164106.894728,39.0,0.0,4296.410156,4296.153809,4297.820313,4360.0,4296.538574,4296.153809,4295.769043,4341.666504,4311.410156,4298.205078,4633.846191,4591.922852,4450.128418,4552.692383,,,,,,,,,,,,,,,,,,,,,,,,,,,,,,,,,,,,,,,,,,,,,,,,,,,,,,,,,,,,,,,,,,,,,,
1769164106.901555,1769164106.902337,40.0,0.0,4298.589844,4295.128418,4290.256348,4355.512695,4293.717773,4295.769043,4293.461426,4338.077148,4310.512695,4295.384766,4629.487305,4586.794922,4442.820313,4550.897461,,,,,,,,,,,,,,,,,,,,,,,,,,,,,,,,,,,,,,,,,,,,,,,,,,,,,,,,,,,,,,,,,,,,,,
1769164106.909364,1769164106.910145,41.0,0.0,4295.128418,4294.230957,4280.128418,4355.512695,4293.974121,4295.256348,4295.897461,4333.077148,4311.794922,4298.846191,4623.974121,4584.102539,4445.897461,4552.820313,,,,,,,,,,,,,,,,,,,,,,,,,,,,,,,,,,,,,,,,,,,,,,,,,,,,,,,,,,,,,,,,,,,,,,
1769164106.917172,1769164106.917854,42.0,0.0,4294.358887,4294.358887,4279.230957,4359.230957,4296.025879,4297.94873,4296.025879,4335.128418,4311.666504,4298.461426,4618.717773,4585.384766,4446.538574,4545.897461,,,,,,,,,,,,,,,,,,,,,,,,,,,,,,,,,,,,,,,,,,,,,,,,,,,,,,,,,,,,,,,,,,,,,,
1769164106.924981,1769164106.925662,43.0,0.0,4293.846191,4291.153809,4275.256348,4353.717773,4295.0,4303.205078,4298.589844,4334.487305,4309.358887,4291.538574,4612.820313,4577.05127,4441.153809,4537.307617,,,,,,,,,,,,,,,,,,,,,,,,,,,,,,,,,,,,,,,,,,,,,,,,,,,,,,,,,,,,,,,,,,,,,,
1769164106.932789,1769164106.93367,44.0,0.0,4292.307617,4288.846191,4265.128418,4346.666504,4291.922852,4300.769043,4297.436035,4328.461426,4308.461426,4288.589844,4614.615234,4568.077148,4442.436035,4543.077148,,,,,,,,,,,,,,,,,,,,,,,,,,,,,,,,,,,,,,,,,,,,,,,,,,,,,,,,,,,,,,,,,,,,,,
1769164106.940597,1769164106.941479,45.0,0.0,4294.743652,4294.358887,4261.794922,4350.897461,4293.846191,4292.820313,4285.384766,4326.153809,4309.743652,4293.717773,4623.974121,4572.436035,4448.589844,4557.179688,,,,,,,,,,,,,,,,,,,,,,,,,,,,,,,,,,,,,,,,,,,,,,,,,,,,,,,,,,,,,,,,,,,,,,
1769164106.948406,1769164106.949187,46.0,0.0,4297.94873,4298.846191,4264.358887,4355.0,4297.563965,4291.282227,4280.256348,4324.871582,4310.128418,4296.538574,4623.461426,4575.128418,4448.077148,4556.153809,1.884961,0.417225,0.305297,0.324971,0.0835,0.723053,0.406947,0.208227,0.143363,0.143404,0.838263,0.367226,0.168483,0.138722,0.093655,0.584849,0.431165,0.091635,0.130707,0.055294,0.056044,0.020798,0.014076,0.011183,0.013376,0.064681,0.172868,0.197698,0.099451,0.066431,0.195683,0.276183,0.129517,0.082008,0.154882,0.23416,0.466972,0.274513,0.123919,0.086488,0.32737,0.71728,0.610608,0.094988,0.072633,1.07129,0.878138,0.786397,0.177244,0.076837,0.534647,0.718168,0.340313,0.224489,0.088642,0.244429,1.004517,0.400085,0.232703,0.118622,0.583066,0.52934,0.417085,0.294987,0.127836,0.65732,0.693539,0.45462,0.288376,0.217331
1769164106.956214,1769164106.956996,47.0,0.0,4296.538574,4294.102539,4261.666504,4347.94873,4294.615234,4292.692383,4290.128418,4326.153809,4310.0,4292.94873,4612.94873,4569.487305,4444.743652,4543.077148,,,,,,,,,,,,,,,,,,,,,,,,,,,,,,,,,,,,,,,,,,,,,,,,,,,,,,,,,,,,,,,,,,,,,,
1769164106.964023,1769164106.964604,48.0,0.0,4293.846191,4289.358887,4257.820313,4345.0,4291.282227,4291.794922,4296.538574,4333.846191,4312.692383,4294.487305,4617.94873,4574.487305,4446.538574,4542.436035,,,,,,,,,,,,,,,,,,,,,,,,,,,,,,,,,,,,,,,,,,,,,,,,,,,,,,,,,,,,,,,,,,,,,,
1769164106.971831,1769164106.972413,49.0,0.0,4293.846191,4291.410156,4253.077148,4349.487305,4294.230957,4293.077148,4293.589844,4334.871582,4313.333496,4296.538574,4626.153809,4583.461426,4451.410156,4553.333496,,,,,,,,,,,,,,,,,,,,,,,,,,,,,,,,,,,,,,,,,,,,,,,,,,,,,,,,,,,,,,,,,,,,,,
1769164106.97964,1769164106.980121,50.0,0.0,4296.666504,4293.846191,4247.307617,4348.846191,4296.666504,4295.769043,4293.205078,4327.307617,4312.05127,4295.256348,4620.384766,4581.538574,4453.589844,4554.615234,,,,,,,,,,,,,,,,,,,,,,,,,,,,,,,,,,,,,,,,,,,,,,,,,,,,,,,,,,,,,,,,,,,,,,
1769164106.987448,1769164106.98793,51.0,0.0,4304.358887,4295.897461,4253.974121,4350.0,4294.358887,4294.102539,4295.128418,4329.743652,4315.512695,4298.974121,4622.94873,4582.179688,4457.820313,4553.333496,,,,,,,,,,,,,,,,,,,,,,,,,,,,,,,,,,,,,,,,,,,,,,,,,,,,,,,,,,,,,,,,,,,,,,
1769164106.995257,1769164106.995938,52.0,0.0,4312.436035,4298.205078,4261.282227,4356.538574,4294.871582,4293.205078,4295.384766,4335.0,4317.436035,4301.282227,4632.94873,4587.94873,4464.743652,4563.333496,,,,,,,,,,,,,,,,,,,,,,,,,,,,,,,,,,,,,,,,,,,,,,,,,,,,,,,,,,,,,,,,,,,,,,
1769164107.003065,1769164107.003747,53.0,0.0,4310.641113,4297.307617,4255.0,4357.820313,4296.666504,4296.282227,4296.282227,4329.615234,4312.179688,4294.871582,4627.820313,4587.820313,4460.128418,4562.94873,,,,,,,,,,,,,,,,,,,,,,,,,,,,,,,,,,,,,,,,,,,,,,,,,,,,,,,,,,,,,,,,,,,,,,
1769164107.010873,1769164107.011655,54.0,0.0,4305.512695,4295.641113,4247.94873,4356.153809,4295.128418,4297.179688,4294.871582,4324.358887,4308.589844,4289.358887,4616.794922,4581.153809,4451.538574,4552.563965,,,,,,,,,,,,,,,,,,,,,,,,,,,,,,,,,,,,,,,,,,,,,,,,,,,,,,,,,,,,,,,,,,,,,,
1769164107.018682,1769164107.019463,55.0,0.0,4304.743652,4297.05127,4248.205078,4354.871582,4299.358887,4295.769043,4294.102539,4326.025879,4310.769043,4291.538574,4617.820313,4575.128418,4455.256348,4552.692383,,,,,,,,,,,,,,,,,,,,,,,,,,,,,,,,,,,,,,,,,,,,,,,,,,,,,,,,,,,,,,,,,,,,,,
1769164107.02649,1769164107.027472,56.0,0.0,4301.153809,4294.871582,4244.102539,4351.922852,4304.487305,4297.94873,4296.025879,4327.05127,4309.487305,4290.128418,4613.461426,4567.94873,4455.897461,4550.384766,,,,,,,,,,,,,,,,,,,,,,,,,,,,,,,,,,,,,,,,,,,,,,,,,,,,,,,,,,,,,,,,,,,,,,
1769164107.034299,1769164107.03528,57.0,0.0,4303.077148,4295.897461,4241.410156,4352.05127,4299.871582,4297.436035,4295.0,4324.871582,4307.179688,4288.589844,4607.563965,4569.358887,4451.025879,4546.666504,,,,,,,,,,,,,,,,,,,,,,,,,,,,,,,,,,,,,,,,,,,,,,,,,,,,,,,,,,,,,,,,,,,,,,
1769164107.042107,1769164107.042989,58.0,0.0,4318.589844,4305.256348,4248.077148,4358.974121,4295.641113,4293.077148,4291.666504,4327.307617,4313.461426,4299.743652,4617.05127,4582.05127,4457.436035,4553.846191,,,,,,,,,,,,,,,,,,,,,,,,,,,,,,,,,,,,,,,,,,,,,,,,,,,,,,,,,,,,,,,,,,,,,,
1769164107.049916,1769164107.050797,59.0,0.0,4323.846191,4304.743652,4246.922852,4359.102539,4297.307617,4294.102539,4294.102539,4331.538574,4321.794922,4305.769043,4622.692383,4586.153809,4465.256348,4558.846191,,,,,,,,,,,,,,,,,,,,,,,,,,,,,,,,,,,,,,,,,,,,,,,,,,,,,,,,,,,,,,,,,,,,,,
1769164107.057724,1769164107.058406,60.0,0.0,4313.205078,4294.487305,4240.384766,4351.538574,4296.794922,4295.512695,4295.512695,4331.153809,4320.897461,4295.641113,4618.205078,4580.769043,4461.153809,4552.563965,,,,,,,,,,,,,,,,,,,,,,,,,,,,,,,,,,,,,,,,,,,,,,,,,,,,,,,,,,,,,,,,,,,,,,
1769164107.065533,1769164107.066214,61.0,0.0,4310.0,4293.974121,4241.666504,4355.128418,4296.922852,4289.230957,4291.922852,4331.410156,4319.871582,4294.871582,4620.256348,4584.487305,4459.615234,4555.256348,,,,,,,,,,,,,,,,,,,,,,,,,,,,,,,,,,,,,,,,,,,,,,,,,,,,,,,,,,,,,,,,,,,,,,
1769164107.073341,1769164107.074122,62.0,0.0,4313.461426,4298.589844,4240.128418,4356.922852,4299.230957,4290.128418,4293.974121,4335.641113,4323.461426,4307.05127,4622.179688,4589.230957,4462.94873,4560.512695,1.584174,0.525968,0.279023,0.262889,0.080691,0.692505,0.41158,0.149163,0.125986,0.138797,0.827349,0.432068,0.1793,0.116229,0.09165,0.613105,0.478472,0.08195,0.1215,0.062053,0.058983,0.028274,0.019927,0.013428,0.015089,0.096438,0.292784,0.256415,0.100285,0.078038,0.185827,0.258526,0.14707,0.084626,0.126724,0.224952,0.422355,0.295944,0.1271,0.083793,0.331883,0.642063,0.455044,0.099644,0.076591,0.966121,0.88046,0.575316,0.128212,0.074966,0.527472,0.761837,0.261282,0.21053,0.082781,0.332895,1.152947,0.40696,0.215024,0.11252,0.568056,0.648127,0.373778,0.267524,0.130874,0.668472,0.746035,0.44287,0.295925,0.233032
1769164107.081149,1769164107.081931,63.0,0.0,4310.769043,4296.538574,4232.05127,4346.410156,4296.666504,4298.461426,4299.487305,4334.871582,4321.282227,4305.769043,4615.0,4583.205078,4456.666504,4554.102539,,,,,,,,,,,,,,,,,,,,,,,,,,,,,,,,,,,,,,,,,,,,,,,,,,,,,,,,,,,,,,,,,,,,,,
1769164107.088958,1769164107.089939,64.0,0.0,4312.307617,4296.922852,4232.307617,4343.589844,4295.641113,4295.0,4297.05127,4332.692383,4320.641113,4303.589844,4621.153809,4585.897461,4459.487305,4554.743652,,,,,,,,,,,,,,,,,,,,,,,,,,,,,,,,,,,,,,,,,,,,,,,,,,,,,,,,,,,,,,,,,,,,,,
1769164107.096767,1769164107.097748,65.0,0.0,4316.410156,4299.230957,4236.922852,4347.563965,4298.077148,4290.128418,4294.615234,4336.153809,4323.717773,4312.820313,4633.589844,4595.256348,4472.563965,4563.589844,,,,,,,,,,,,,,,,,,,,,,,,,,,,,,,,,,,,,,,,,,,,,,,,,,,,,,,,,,,,,,,,,,,,,,
1769164107.104575,1769164107.105456,66.0,0.0,4309.743652,4294.743652,4232.05127,4342.820313,4297.307617,4295.512695,4296.666504,4333.461426,4317.820313,4308.717773,4626.025879,4587.94873,4467.563965,4554.871582,,,,,,,,,,,,,,,,,,,,,,,,,,,,,,,,,,,,,,,,,,,,,,,,,,,,,,,,,,,,,,,,,,,,,,
1769164107.112383,1769164107.113265,67.0,0.0,4303.333496,4291.025879,4226.922852,4337.179688,4296.794922,4296.794922,4295.641113,4325.0,4308.974121,4294.358887,4611.410156,4576.666504,4453.077148,4539.358887,,,,,,,,,,,,,,,,,,,,,,,,,,,,,,,,,,,,,,,,,,,,,,,,,,,,,,,,,,,,,,,,,,,,,,
1769164107.120192,1769164107.121073,68.0,0.0,4307.563965,4292.94873,4229.487305,4341.153809,4298.589844,4294.230957,4293.333496,4323.333496,4309.615234,4294.102539,4612.820313,4580.0,4454.871582,4544.871582,,,,,,,,,,,,,,,,,,,,,,,,,,,,,,,,,,,,,,,,,,,,,,,,,,,,,,,,,,,,,,,,,,,,,,
1769164107.128,1769164107.128882,69.0,0.0,4316.410156,4294.871582,4233.589844,4344.743652,4298.589844,4296.410156,4293.717773,4326.153809,4316.153809,4303.974121,4623.974121,4586.410156,4463.077148,4556.538574,,,,,,,,,,,,,,,,,,,,,,,,,,,,,,,,,,,,,,,,,,,,,,,,,,,,,,,,,,,,,,,,,,,,,,
1769164107.135809,1769164107.13679,70.0,0.0,4322.94873,4295.256348,4234.358887,4344.487305,4297.563965,4296.666504,4294.871582,4328.077148,4320.769043,4306.794922,4625.769043,4588.461426,4462.307617,4558.589844,,,,,,,,,,,,,,,,,,,,,,,,,,,,,,,,,,,,,,,,,,,,,,,,,,,,,,,,,,,,,,,,,,,,,,
1769164107.143617,1769164107.144598,71.0,0.0,4318.205078,4295.256348,4229.230957,4341.922852,4297.692383,4294.871582,4298.717773,4328.205078,4317.94873,4298.205078,4618.846191,4584.102539,4460.384766,4553.974121,,,,,,,,,,,,,,,,,,,,,,,,,,,,,,,,,,,,,,,,,,,,,,,,,,,,,,,,,,,,,,,,,,,,,,
1769164107.151426,1769164107.152207,72.0,0.0,4310.512695,4294.102539,4226.794922,4337.94873,4296.153809,4297.307617,4305.128418,4327.307617,4311.025879,4292.05127,4615.256348,4574.743652,4458.333496,4542.05127,,,,,,,,,,,,,,,,,,,,,,,,,,,,,,,,,,,,,,,,,,,,,,,,,,,,,,,,,,,,,,,,,,,,,,
1769164107.159234,1769164107.160015,73.0,0.0,4315.128418,4294.487305,4228.589844,4338.846191,4296.153809,4297.94873,4303.589844,4326.538574,4312.05127,4299.743652,4618.461426,4574.487305,4457.05127,4543.205078,,,,,,,,,,,,,,,,,,,,,,,,,,,,,,,,,,,,,,,,,,,,,,,,,,,,,,,,,,,,,,,,,,,,,,
1769164107.167043,1769164107.167724,74.0,0.0,4318.077148,4295.512695,4223.589844,4339.102539,4298.077148,4295.0,4296.025879,4327.307617,4315.128418,4303.974121,4617.563965,4579.230957,4459.871582,4555.256348,,,,,,,,,,,,,,,,,,,,,,,,,,,,,,,,,,,,,,,,,,,,,,,,,,,,,,,,,,,,,,,,,,,,,,
1769164107.174851,1769164107.175532,75.0,0.0,4307.820313,4293.461426,4216.282227,4336.922852,4294.102539,4294.102539,4293.717773,4328.333496,4311.794922,4295.512695,4611.282227,4572.692383,4457.563965,4547.05127,,,,,,,,,,,,,,,,,,,,,,,,,,,,,,,,,,,,,,,,,,,,,,,,,,,,,,,,,,,,,,,,,,,,,,
1769164107.18266,1769164107.183541,76.0,0.0,4307.179688,4296.025879,4217.179688,4337.436035,4293.205078,4293.974121,4293.974121,4327.436035,4310.128418,4293.974121,4609.615234,4566.922852,4456.794922,4534.230957,,,,,,,,,,,,,,,,,,,,,,,,,,,,,,,,,,,,,,,,,,,,,,,,,,,,,,,,,,,,,,,,,,,,,,
1769164107.190468,1769164107.191349,77.0,0.0,4323.717773,4306.666504,4220.384766,4341.666504,4302.436035,4293.974121,4291.922852,4326.410156,4312.05127,4300.128418,4613.846191,4575.128418,4460.512695,4545.384766,,,,,,,,,,,,,,,,,,,,,,,,,,,,,,,,,,,,,,,,,,,,,,,,,,,,,,,,,,,,,,,,,,,,,,
1769164107.198276,1769164107.199257,78.0,0.0,4326.538574,4309.743652,4218.974121,4343.717773,4303.846191,4293.205078,4290.128418,4326.410156,4311.538574,4297.563965,4614.358887,4577.05127,4461.282227,4552.179688,1.337089,0.722055,0.297431,0.223097,0.082904,0.699239,0.459716,0.125157,0.107872,0.131214,0.845875,0.504362,0.21787,0.103758,0.087783,0.706304,0.517917,0.076201,0.109709,0.069382,0.062919,0.040298,0.033705,0.018798,0.017414,0.125945,0.461152,0.318832,0.098754,0.090805,0.157119,0.239331,0.154908,0.086397,0.095416,0.214578,0.396215,0.337465,0.13689,0.07832,0.347596,0.58643,0.371166,0.117059,0.078925,0.795772,0.889209,0.425839,0.092742,0.075232,0.496092,0.833975,0.284722,0.222655,0.076689,0.495117,1.298496,0.485259,0.2319,0.113849,0.529606,0.825113,0.37662,0.241316,0.131966,0.699686,0.873604,0.490847,0.31734,0.235348
1769164107.206085,1769164107.207066,79.0,0.0,4316.025879,4303.077148,4216.538574,4341.538574,4296.025879,4293.205078,4290.641113,4325.128418,4308.974121,4294.615234,4609.487305,4569.615234,4460.897461,4548.205078,,,,,,,,,,,,,,,,,,,,,,,,,,,,,,,,,,,,,,,,,,,,,,,,,,,,,,,,,,,,,,,,,,,,,,
1769164107.213893,1769164107.215074,80.0,0.0,4320.128418,4299.230957,4216.794922,4338.974121,4294.743652,4296.410156,4293.461426,4325.512695,4309.871582,4300.384766,4613.205078,4572.179688,4461.538574,4551.410156,,,,,,,,,,,,,,,,,,,,,,,,,,,,,,,,,,,,,,,,,,,,,,,,,,,,,,,,,,,,,,,,,,,,,,
1769164107.221702,1769164107.222883,81.0,0.0,4328.205078,4299.358887,4216.922852,4336.282227,4297.820313,4298.333496,4295.512695,4327.94873,4313.077148,4303.974121,4618.077148,4576.153809,4461.025879,4547.179688,,,,,,,,,,,,,,,,,,,,,,,,,,,,,,,,,,,,,,,,,,,,,,,,,,,,,,,,,,,,,,,,,,,,,,
1769164107.22951,1769164107.230791,82.0,0.0,4322.05127,4296.922852,4215.641113,4334.487305,4298.717773,4296.666504,4296.282227,4328.461426,4312.436035,4297.436035,4608.846191,4570.897461,4458.589844,4535.384766,,,,,,,,,,,,,,,,,,,,,,,,,,,,,,,,,,,,,,,,,,,,,,,,,,,,,,,,,,,,,,,,,,,,,,
1769164107.237319,1769164107.238599,83.0,0.0,4318.333496,4294.358887,4214.871582,4337.307617,4301.794922,4294.871582,4296.282227,4327.307617,4309.102539,4286.666504,4598.589844,4566.282227,4455.641113,4534.230957,,,,,,,,,,,,,,,,,,,,,,,,,,,,,,,,,,,,,,,,,,,,,,,,,,,,,,,,,,,,,,,,,,,,,,
1769164107.245127,1769164107.246608,84.0,0.0,4327.94873,4303.205078,4216.410156,4341.922852,4304.358887,4293.205078,4295.512695,4327.179688,4308.589844,4286.282227,4600.512695,4570.0,4455.128418,4539.487305,,,,,,,,,,,,,,,,,,,,,,,,,,,,,,,,,,,,,,,,,,,,,,,,,,,,,,,,,,,,,,,,,,,,,,
1769164107.252936,1769164107.254416,85.0,0.0,4331.282227,4311.410156,4217.179688,4343.461426,4302.563965,4294.487305,4294.230957,4327.05127,4310.384766,4292.307617,4603.589844,4571.794922,4458.077148,4537.94873,,,,,,,,,,,,,,,,,,,,,,,,,,,,,,,,,,,,,,,,,,,,,,,,,,,,,,,,,,,,,,,,,,,,,,
1769164107.260744,1769164107.262324,86.0,0.0,4325.512695,4305.0,4215.897461,4342.692383,4301.282227,4293.205078,4292.692383,4327.436035,4311.410156,4294.871582,4603.717773,4571.153809,4460.0,4534.615234,,,,,,,,,,,,,,,,,,,,,,,,,,,,,,,,,,,,,,,,,,,,,,,,,,,,,,,,,,,,,,,,,,,,,,
1769164107.268552,1769164107.270133,87.0,0.0,4326.153809,4298.589844,4216.282227,4342.179688,4303.717773,4285.0,4289.487305,4327.692383,4311.922852,4295.769043,4604.871582,4571.538574,4460.256348,4537.94873,,,,,,,,,,,,,,,,,,,,,,,,,,,,,,,,,,,,,,,,,,,,,,,,,,,,,,,,,,,,,,,,,,,,,,
1769164107.276361,1769164107.277741,88.0,0.0,4335.769043,4299.102539,4216.282227,4341.666504,4301.410156,4284.615234,4287.94873,4322.563965,4307.94873,4293.846191,4601.538574,4570.128418,4460.128418,4538.846191,,,,,,,,,,,,,,,,,,,,,,,,,,,,,,,,,,,,,,,,,,,,,,,,,,,,,,,,,,,,,,,,,,,,,,
1769164107.284169,1769164107.28555,89.0,0.0,4341.922852,4298.205078,4217.94873,4339.743652,4297.179688,4293.846191,4290.512695,4317.94873,4303.846191,4291.153809,4601.282227,4569.871582,4459.871582,4538.205078,,,,,,,,,,,,,,,,,,,,,,,,,,,,,,,,,,,,,,,,,,,,,,,,,,,,,,,,,,,,,,,,,,,,,,
1769164107.291978,1769164107.293258,90.0,0.0,4334.615234,4295.897461,4215.769043,4335.512695,4298.461426,4292.436035,4292.94873,4321.538574,4307.436035,4293.846191,4607.436035,4572.05127,4462.692383,4543.333496,,,,,,,,,,,,,,,,,,,,,,,,,,,,,,,,,,,,,,,,,,,,,,,,,,,,,,,,,,,,,,,,,,,,,,
1769164107.299786,1769164107.301067,91.0,0.0,4326.794922,4297.307617,4207.436035,4335.0,4300.897461,4287.563965,4294.102539,4325.897461,4312.05127,4296.666504,4606.922852,4570.641113,4462.307617,4546.794922,,,,,,,,,,,,,,,,,,,,,,,,,,,,,,,,,,,,,,,,,,,,,,,,,,,,,,,,,,,,,,,,,,,,,,
1769164107.307595,1769164107.308676,92.0,0.0,4327.820313,4295.641113,4204.743652,4337.820313,4301.538574,4293.717773,4295.384766,4326.282227,4311.410156,4293.846191,4601.794922,4567.820313,4457.820313,4540.897461,,,,,,,,,,,,,,,,,,,,,,,,,,,,,,,,,,,,,,,,,,,,,,,,,,,,,,,,,,,,,,,,,,,,,,
1769164107.315403,1769164107.316484,93.0,0.0,4328.461426,4292.94873,4207.307617,4333.461426,4302.436035,4297.05127,4294.102539,4324.615234,4307.563965,4292.179688,4602.436035,4569.615234,4457.820313,4536.025879,,,,,,,,,,,,,,,,,,,,,,,,,,,,,,,,,,,,,,,,,,,,,,,,,,,,,,,,,,,,,,,,,,,,,,
1769164107.323212,1769164107.324193,94.0,0.0,4323.461426,4292.94873,4203.974121,4326.282227,4298.717773,4295.128418,4295.769043,4323.077148,4305.512695,4286.666504,4602.820313,4570.512695,4456.153809,4539.102539,1.199479,0.947339,0.355762,0.205301,0.088816,0.733866,0.530172,0.129575,0.092602,0.121222,0.921729,0.555435,0.273457,0.101594,0.085153,0.832292,0.543117,0.074442,0.096997,0.076421,0.069415,0.053533,0.051825,0.027644,0.020236,0.143173,0.635815,0.371876,0.094726,0.102124,0.118438,0.229443,0.150185,0.087186,0.069098,0.203037,0.394122,0.387365,0.147972,0.072559,0.364222,0.55161,0.362541,0.137984,0.0789,0.597948,0.900266,0.362413,0.074114,0.078555,0.47279,0.89802,0.390134,0.247438,0.073922,0.73872,1.405523,0.620729,0.26406,0.12389,0.492271,1.006184,0.411483,0.219765,0.131699,0.742313,1.022466,0.582352,0.344234,0.226489
1769164107.33102,1769164107.332001,95.0,0.0,4321.410156,4291.538574,4200.128418,4325.769043,4293.846191,4296.794922,4298.461426,4322.692383,4307.05127,4278.974121,4600.0,4570.256348,4450.769043,4537.692383,,,,,,,,,,,,,,,,,,,,,,,,,,,,,,,,,,,,,,,,,,,,,,,,,,,,,,,,,,,,,,,,,,,,,,
1769164107.338828,1769164107.340009,96.0,0.0,4325.769043,4293.077148,4203.461426,4327.94873,4297.307617,4294.487305,4295.0,4325.641113,4308.589844,4281.794922,4598.846191,4569.871582,4447.94873,4526.666504,,,,,,,,,,,,,,,,,,,,,,,,,,,,,,,,,,,,,,,,,,,,,,,,,,,,,,,,,,,,,,,,,,,,,,
1769164107.346637,1769164107.347818,97.0,0.0,4327.179688,4293.717773,4203.974121,4326.282227,4299.358887,4289.487305,4291.025879,4328.205078,4312.94873,4290.128418,4598.077148,4566.666504,4449.615234,4522.94873,,,,,,,,,,,,,,,,,,,,,,,,,,,,,,,,,,,,,,,,,,,,,,,,,,,,,,,,,,,,,,,,,,,,,,
1769164107.354445,1769164107.355526,98.0,0.0,4325.256348,4294.230957,4200.769043,4324.230957,4296.153809,4288.589844,4293.461426,4328.205078,4322.692383,4298.077148,4605.512695,4573.846191,4459.358887,4541.666504,,,,,,,,,,,,,,,,,,,,,,,,,,,,,,,,,,,,,,,,,,,,,,,,,,,,,,,,,,,,,,,,,,,,,,
1769164107.362254,1769164107.363335,99.0,0.0,4329.615234,4301.153809,4201.025879,4327.307617,4297.179688,4288.205078,4296.153809,4328.717773,4323.205078,4303.205078,4616.153809,4588.205078,4469.102539,4556.025879,,,,,,,,,,,,,,,,,,,,,,,,,,,,,,,,,,,,,,,,,,,,,,,,,,,,,,,,,,,,,,,,,,,,,,
1769164107.370062,1769164107.370943,100.0,0.0,4339.358887,4307.820313,4202.436035,4331.410156,4297.692383,4289.102539,4294.487305,4324.487305,4313.461426,4299.358887,4610.0,4585.128418,4463.333496,4544.358887,,,,,,,,,,,,,,,,,,,,,,,,,,,,,,,,,,,,,,,,,,,,,,,,,,,,,,,,,,,,,,,,,,,,,,
1769164107.377871,1769164107.378752,101.0,0.0,4343.077148,4308.205078,4202.692383,4331.794922,4297.05127,4292.820313,4293.589844,4318.205078,4310.256348,4292.563965,4600.897461,4575.512695,4455.512695,4534.487305,,,,,,,,,,,,,,,,,,,,,,,,,,,,,,,,,,,,,,,,,,,,,,,,,,,,,,,,,,,,,,,,,,,,,,
1769164107.385679,1769164107.38646,102.0,0.0,4342.436035,4307.94873,4202.563965,4330.384766,4297.692383,4294.230957,4295.769043,4320.641113,4312.820313,4293.205078,4603.589844,4579.743652,4459.871582,4540.0,,,,,,,,,,,,,,,,,,,,,,,,,,,,,,,,,,,,,,,,,,,,,,,,,,,,,,,,,,,,,,,,,,,,,,
1769164107.393488,1769164107.394269,103.0,0.0,4346.794922,4313.205078,4206.922852,4335.384766,4297.94873,4293.461426,4298.717773,4326.794922,4314.358887,4294.615234,4607.179688,4584.102539,4460.897461,4545.128418,,,,,,,,,,,,,,,,,,,,,,,,,,,,,,,,,,,,,,,,,,,,,,,,,,,,,,,,,,,,,,,,,,,,,,
1769164107.401296,1769164107.402277,104.0,0.0,4356.538574,4321.410156,4215.384766,4343.333496,4298.333496,4292.179688,4297.05127,4327.307617,4316.666504,4293.205078,4608.846191,4583.205078,4457.94873,4549.743652,,,,,,,,,,,,,,,,,,,,,,,,,,,,,,,,,,,,,,,,,,,,,,,,,,,,,,,,,,,,,,,,,,,,,,
1769164107.409105,1769164107.410085,105.0,0.0,4358.461426,4322.179688,4218.717773,4341.666504,4298.974121,4292.820313,4294.871582,4325.512695,4315.256348,4293.461426,4613.077148,4586.666504,4462.307617,4553.846191,,,,,,,,,,,,,,,,,,,,,,,,,,,,,,,,,,,,,,,,,,,,,,,,,,,,,,,,,,,,,,,,,,,,,,
1769164107.416913,1769164107.417994,106.0,0.0,4351.922852,4313.974121,4210.0,4334.358887,4296.153809,4295.641113,4297.94873,4327.563965,4311.025879,4293.846191,4611.282227,4586.794922,4463.205078,4551.025879,,,,,,,,,,,,,,,,,,,,,,,,,,,,,,,,,,,,,,,,,,,,,,,,,,,,,,,,,,,,,,,,,,,,,,
1769164107.424722,1769164107.425802,107.0,0.0,4352.05127,4313.589844,4205.384766,4334.230957,4296.410156,4295.641113,4298.333496,4328.205078,4314.615234,4294.615234,4609.615234,4582.94873,4458.205078,4550.384766,,,,,,,,,,,,,,,,,,,,,,,,,,,,,,,,,,,,,,,,,,,,,,,,,,,,,,,,,,,,,,,,,,,,,,
1769164107.43253,1769164107.433811,108.0,0.0,4357.94873,4323.717773,4213.717773,4340.512695,4303.974121,4292.436035,4293.974121,4325.769043,4321.025879,4298.077148,4616.922852,4588.461426,4465.384766,4557.94873,,,,,,,,,,,,,,,,,,,,,,,,,,,,,,,,,,,,,,,,,,,,,,,,,,,,,,,,,,,,,,,,,,,,,,
1769164107.440338,1769164107.441619,109.0,0.0,4360.897461,4327.563965,4218.333496,4342.307617,4307.692383,4293.077148,4293.974121,4326.282227,4319.358887,4300.0,4620.897461,4596.025879,4472.820313,4559.871582,,,,,,,,,,,,,,,,,,,,,,,,,,,,,,,,,,,,,,,,,,,,,,,,,,,,,,,,,,,,,,,,,,,,,,
1769164107.448147,1769164107.449527,110.0,0.0,4360.256348,4325.641113,4216.153809,4339.102539,4308.333496,4296.282227,4295.769043,4328.205078,4312.05127,4295.769043,4618.205078,4594.230957,4465.897461,4555.384766,1.151547,1.11513,0.42448,0.209083,0.09779,0.760922,0.586513,0.145258,0.083613,0.109906,1.001049,0.563532,0.323932,0.108344,0.086143,0.9494,0.543618,0.077048,0.085413,0.082577,0.080924,0.064822,0.069142,0.039078,0.023546,0.142914,0.761908,0.399135,0.088363,0.108915,0.083574,0.233636,0.136354,0.087376,0.052879,0.198028,0.417224,0.426915,0.153958,0.068399,0.370415,0.527631,0.400535,0.153704,0.077117,0.419232,0.894566,0.363731,0.072425,0.085996,0.477144,0.914149,0.52137,0.26853,0.078239,1.032998,1.438185,0.769379,0.28976,0.141154,0.483997,1.123676,0.446898,0.204412,0.131178,0.794321,1.11281,0.679349,0.364915,0.21476
1769164107.455955,1769164107.457336,111.0,0.0,4361.153809,4320.512695,4216.794922,4333.333496,4308.589844,4296.666504,4293.717773,4324.871582,4309.871582,4291.025879,4611.666504,4585.384766,4458.333496,4555.769043,,,,,,,,,,,,,,,,,,,,,,,,,,,,,,,,,,,,,,,,,,,,,,,,,,,,,,,,,,,,,,,,,,,,,,
1769164107.463764,1769164107.464944,112.0,0.0,4359.358887,4312.692383,4212.94873,4328.461426,4303.205078,4293.333496,4292.692383,4321.153809,4312.563965,4291.922852,4602.179688,4578.974121,4454.230957,4550.897461,,,,,,,,,,,,,,,,,,,,,,,,,,,,,,,,,,,,,,,,,,,,,,,,,,,,,,,,,,,,,,,,,,,,,,
1769164107.471572,1769164107.472753,113.0,0.0,4349.743652,4308.589844,4201.794922,4327.436035,4298.974121,4293.205078,4295.641113,4324.230957,4312.692383,4294.871582,4599.358887,4578.717773,4450.512695,4539.358887,,,,,,,,,,,,,,,,,,,,,,,,,,,,,,,,,,,,,,,,,,,,,,,,,,,,,,,,,,,,,,,,,,,,,,
1769164107.479381,1769164107.480461,114.0,0.0,4338.846191,4306.153809,4199.871582,4324.871582,4303.333496,4301.538574,4298.974121,4326.922852,4314.743652,4294.871582,4607.05127,4581.666504,4455.641113,4544.743652,,,,,,,,,,,,,,,,,,,,,,,,,,,,,,,,,,,,,,,,,,,,,,,,,,,,,,,,,,,,,,,,,,,,,,
1769164107.487189,1769164107.48827,115.0,0.0,4340.256348,4304.743652,4203.974121,4324.230957,4306.922852,4304.487305,4297.94873,4326.025879,4317.307617,4297.179688,4612.94873,4584.615234,4463.846191,4558.974121,,,,,,,,,,,,,,,,,,,,,,,,,,,,,,,,,,,,,,,,,,,,,,,,,,,,,,,,,,,,,,,,,,,,,,
1769164107.494998,1769164107.495879,116.0,0.0,4353.461426,4311.025879,4203.846191,4330.384766,4305.641113,4295.256348,4294.615234,4327.820313,4314.487305,4306.025879,4613.205078,4585.0,4460.897461,4555.897461,,,,,,,,,,,,,,,,,,,,,,,,,,,,,,,,,,,,,,,,,,,,,,,,,,,,,,,,,,,,,,,,,,,,,,
1769164107.502806,1769164107.503687,117.0,0.0,4358.974121,4316.153809,4201.922852,4332.05127,4304.487305,4290.384766,4294.871582,4329.102539,4312.179688,4310.384766,4615.641113,4583.589844,4459.743652,4551.666504,,,,,,,,,,,,,,,,,,,,,,,,,,,,,,,,,,,,,,,,,,,,,,,,,,,,,,,,,,,,,,,,,,,,,,
1769164107.510615,1769164107.511396,118.0,0.0,4356.410156,4309.615234,4201.794922,4325.0,4305.384766,4295.256348,4296.794922,4326.794922,4312.94873,4306.538574,4616.922852,4583.846191,4463.846191,4564.487305,,,,,,,,,,,,,,,,,,,,,,,,,,,,,,,,,,,,,,,,,,,,,,,,,,,,,,,,,,,,,,,,,,,,,,
1769164107.518423,1769164107.519204,119.0,0.0,4357.179688,4305.384766,4203.461426,4324.102539,4307.563965,4296.794922,4296.282227,4326.922852,4312.563965,4304.871582,4614.615234,4587.692383,4462.692383,4568.717773,,,,,,,,,,,,,,,,,,,,,,,,,,,,,,,,,,,,,,,,,,,,,,,,,,,,,,,,,,,,,,,,,,,,,,
1769164107.526231,1769164107.527212,120.0,0.0,4360.256348,4309.230957,4204.615234,4328.333496,4307.307617,4293.205078,4294.487305,4328.589844,4311.153809,4303.077148,4611.666504,4585.256348,4462.563965,4558.077148,,,,,,,,,,,,,,,,,,,,,,,,,,,,,,,,,,,,,,,,,,,,,,,,,,,,,,,,,,,,,,,,,,,,,,
1769164107.53404,1769164107.535021,121.0,0.0,4359.615234,4310.128418,4203.589844,4327.692383,4303.974121,4292.179688,4295.641113,4325.256348,4309.743652,4295.769043,4606.025879,4572.307617,4458.333496,4552.05127,,,,,,,,,,,,,,,,,,,,,,,,,,,,,,,,,,,,,,,,,,,,,,,,,,,,,,,,,,,,,,,,,,,,,,
1769164107.541848,1769164107.542929,122.0,0.0,4355.512695,4308.846191,4202.563965,4325.897461,4302.820313,4294.230957,4297.307617,4320.0,4307.436035,4290.897461,4597.692383,4565.512695,4450.256348,4552.692383,,,,,,,,,,,,,,,,,,,,,,,,,,,,,,,,,,,,,,,,,,,,,,,,,,,,,,,,,,,,,,,,,,,,,,
1769164107.549657,1769164107.550737,123.0,0.0,4355.128418,4309.358887,4204.487305,4328.717773,4304.102539,4296.794922,4295.897461,4321.153809,4308.589844,4293.333496,4599.230957,4570.897461,4451.025879,4552.820313,,,,,,,,,,,,,,,,,,,,,,,,,,,,,,,,,,,,,,,,,,,,,,,,,,,,,,,,,,,,,,,,,,,,,,
1769164107.557465,1769164107.558346,124.0,0.0,4356.666504,4310.256348,4206.025879,4330.128418,4308.333496,4295.897461,4297.436035,4326.794922,4311.922852,4296.153809,4606.025879,4574.743652,4457.563965,4550.641113,,,,,,,,,,,,,,,,,,,,,,,,,,,,,,,,,,,,,,,,,,,,,,,,,,,,,,,,,,,,,,,,,,,,,,
1769164107.565274,1769164107.566155,125.0,0.0,4358.846191,4310.512695,4204.743652,4326.666504,4310.769043,4296.666504,4306.794922,4328.846191,4313.077148,4296.410156,4605.256348,4570.512695,4457.563965,4549.358887,,,,,,,,,,,,,,,,,,,,,,,,,,,,,,,,,,,,,,,,,,,,,,,,,,,,,,,,,,,,,,,,,,,,,,
1769164107.573082,1769164107.573863,126.0,0.0,4358.846191,4310.641113,4200.897461,4322.307617,4306.282227,4301.153809,4310.0,4326.410156,4311.794922,4294.615234,4599.743652,4568.205078,4453.717773,4546.794922,1.150264,1.159492,0.473366,0.228613,0.10978,0.760659,0.597922,0.155902,0.084504,0.098886,1.074404,0.523343,0.353314,0.11968,0.090764,1.037595,0.512885,0.086391,0.076943,0.087352,0.098453,0.071024,0.080345,0.05133,0.027301,0.126114,0.799471,0.390575,0.080239,0.109121,0.059689,0.249361,0.122078,0.086856,0.047156,0.202409,0.456958,0.434408,0.151222,0.066175,0.359301,0.49994,0.440305,0.160509,0.074441,0.296787,0.853597,0.385002,0.08745,0.097847,0.503467,0.864737,0.620329,0.275438,0.091622,1.306795,1.377928,0.877728,0.294815,0.161164,0.508329,1.134039,0.457931,0.195505,0.131208,0.826694,1.096318,0.746042,0.37198,0.210998
1769164107.580891,1769164107.581672,127.0,0.0,4357.179688,4309.358887,4201.025879,4321.922852,4303.461426,4302.436035,4302.563965,4324.615234,4308.717773,4291.794922,4602.563965,4575.256348,4457.179688,4548.589844,,,,,,,,,,,,,,,,,,,,,,,,,,,,,,,,,,,,,,,,,,,,,,,,,,,,,,,,,,,,,,,,,,,,,,
1769164107.588699,1769164107.58968,0.0,0.0,4362.05127,4312.94873,4210.128418,4324.230957,4308.461426,4296.794922,4296.410156,4325.641113,4310.769043,4297.307617,4613.717773,4585.641113,4460.641113,4553.717773,,,,,,,,,,,,,,,,,,,,,,,,,,,,,,,,,,,,,,,,,,,,,,,,,,,,,,,,,,,,,,,,,,,,,,
1769164107.596507,1769164107.597488,1.0,0.0,4371.666504,4321.922852,4219.358887,4326.666504,4311.410156,4288.846191,4295.0,4328.461426,4318.461426,4307.820313,4620.384766,4588.333496,4459.871582,4556.153809,,,,,,,,,,,,,,,,,,,,,,,,,,,,,,,,,,,,,,,,,,,,,,,,,,,,,,,,,,,,,,,,,,,,,,
1769164107.604316,1769164107.605397,2.0,0.0,4374.358887,4322.563965,4216.538574,4326.025879,4310.0,4293.461426,4298.717773,4328.974121,4320.0,4310.641113,4618.717773,4584.743652,4467.05127,4556.794922,,,,,,,,,,,,,,,,,,,,,,,,,,,,,,,,,,,,,,,,,,,,,,,,,,,,,,,,,,,,,,,,,,,,,,
1769164107.612124,1769164107.613205,3.0,0.0,4366.794922,4315.0,4205.0,4319.102539,4310.641113,4305.128418,4306.153809,4327.05127,4317.563965,4308.846191,4616.538574,4583.461426,4472.436035,4556.153809,,,,,,,,,,,,,,,,,,,,,,,,,,,,,,,,,,,,,,,,,,,,,,,,,,,,,,,,,,,,,,,,,,,,,,
1769164107.619933,1769164107.621213,4.0,0.0,4358.205078,4310.128418,4200.384766,4311.025879,4310.256348,4302.94873,4308.589844,4331.025879,4320.256348,4310.641113,4618.589844,4585.641113,4467.179688,4554.102539,,,,,,,,,,,,,,,,,,,,,,,,,,,,,,,,,,,,,,,,,,,,,,,,,,,,,,,,,,,,,,,,,,,,,,
1769164107.627741,1769164107.629022,5.0,0.0,4356.153809,4309.487305,4206.666504,4308.461426,4305.641113,4293.846191,4305.897461,4333.589844,4318.205078,4310.769043,4619.102539,4586.282227,4463.846191,4553.846191,,,,,,,,,,,,,,,,,,,,,,,,,,,,,,,,,,,,,,,,,,,,,,,,,,,,,,,,,,,,,,,,,,,,,,
1769164107.63555,1769164107.63693,6.0,0.0,4361.794922,4309.358887,4213.333496,4309.102539,4305.384766,4298.333496,4306.282227,4327.05127,4309.230957,4304.487305,4612.307617,4582.94873,4462.307617,4553.717773,,,,,,,,,,,,,,,,,,,,,,,,,,,,,,,,,,,,,,,,,,,,,,,,,,,,,,,,,,,,,,,,,,,,,,
1769164107.643358,1769164107.644738,7.0,0.0,4366.666504,4310.128418,4217.179688,4309.487305,4309.743652,4305.0,4309.615234,4327.436035,4314.358887,4305.0,4613.077148,4584.487305,4460.512695,4555.128418,,,,,,,,,,,,,,,,,,,,,,,,,,,,,,,,,,,,,,,,,,,,,,,,,,,,,,,,,,,,,,,,,,,,,,
1769164107.651167,1769164107.652447,8.0,0.0,4363.461426,4311.153809,4218.333496,4310.128418,4308.589844,4298.846191,4308.461426,4335.0,4324.615234,4311.794922,4621.922852,4592.05127,4468.205078,4560.384766,,,,,,,,,,,,,,,,,,,,,,,,,,,,,,,,,,,,,,,,,,,,,,,,,,,,,,,,,,,,,,,,,,,,,,
1769164107.658975,1769164107.660255,9.0,0.0,4362.563965,4310.256348,4217.436035,4310.128418,4302.820313,4293.333496,4304.230957,4330.897461,4320.0,4311.794922,4620.512695,4592.436035,4474.487305,4561.153809,,,,,,,,,,,,,,,,,,,,,,,,,,,,,,,,,,,,,,,,,,,,,,,,,,,,,,,,,,,,,,,,,,,,,,
1769164107.666783,1769164107.667964,10.0,0.0,4369.358887,4308.846191,4217.692383,4308.846191,4304.615234,4297.05127,4304.487305,4324.615234,4313.717773,4307.563965,4613.077148,4587.307617,4472.05127,4557.563965,,,,,,,,,,,,,,,,,,,,,,,,,,,,,,,,,,,,,,,,,,,,,,,,,,,,,,,,,,,,,,,,,,,,,,
1769164107.674592,1769164107.675772,11.0,0.0,4373.974121,4310.128418,4220.128418,4309.871582,4312.307617,4304.743652,4310.384766,4330.384766,4320.0,4310.641113,4614.743652,4587.05127,4474.230957,4557.563965,,,,,,,,,,,,,,,,,,,,,,,,,,,,,,,,,,,,,,,,,,,,,,,,,,,,,,,,,,,,,,,,,,,,,,
1769164107.6824,1769164107.683381,12.0,0.0,4370.512695,4312.05127,4221.410156,4310.769043,4312.179688,4305.769043,4312.563965,4332.307617,4322.05127,4314.358887,4619.230957,4589.102539,4472.692383,4557.563965,,,,,,,,,,,,,,,,,,,,,,,,,,,,,,,,,,,,,,,,,,,,,,,,,,,,,,,,,,,,,,,,,,,,,,
1769164107.690209,1769164107.69119,13.0,0.0,4370.512695,4309.358887,4217.94873,4306.666504,4304.871582,4297.820313,4305.769043,4326.025879,4313.077148,4305.128418,4612.436035,4587.05127,4463.205078,4556.794922,,,,,,,,,,,,,,,,,,,,,,,,,,,,,,,,,,,,,,,,,,,,,,,,,,,,,,,,,,,,,,,,,,,,,,
1769164107.698017,1769164107.698898,14.0,0.0,4376.153809,4306.153809,4216.410156,4302.563965,4302.307617,4292.563965,4301.922852,4323.461426,4308.461426,4296.153809,4604.615234,4584.358887,4460.641113,4557.94873,1.163699,1.069158,0.489032,0.255278,0.124563,0.761881,0.555228,0.15531,0.097838,0.08986,1.068628,0.445279,0.352129,0.130763,0.096758,1.070599,0.453688,0.101777,0.073041,0.090321,0.122421,0.071211,0.083639,0.06274,0.03126,0.099506,0.741963,0.3483,0.07168,0.103011,0.050791,0.267074,0.117564,0.085169,0.04852,0.211799,0.498187,0.401469,0.14019,0.064869,0.332926,0.461429,0.447569,0.160593,0.071552,0.242955,0.776426,0.39767,0.117692,0.112557,0.52998,0.763605,0.657282,0.267171,0.113111,1.480955,1.235803,0.909454,0.277222,0.178651,0.549701,1.03666,0.44514,0.192382,0.132016,0.813993,0.97667,0.766848,0.364795,0.222678
1769164107.705826,1769164107.706707,15.0,0.0,4377.179688,4308.846191,4224.102539,4302.820313,4304.615234,4294.358887,4307.563965,4323.974121,4311.410156,4300.897461,4607.563965,4584.743652,4462.94873,4556.538574,,,,,,,,,,,,,,,,,,,,,,,,,,,,,,,,,,,,,,,,,,,,,,,,,,,,,,,,,,,,,,,,,,,,,,
1769164107.713634,1769164107.714315,16.0,0.0,4374.358887,4304.871582,4228.077148,4300.897461,4304.487305,4295.512695,4310.256348,4323.974121,4312.307617,4306.025879,4612.307617,4586.410156,4460.769043,4552.820313,,,,,,,,,,,,,,,,,,,,,,,,,,,,,,,,,,,,,,,,,,,,,,,,,,,,,,,,,,,,,,,,,,,,,,
1769164107.721443,1769164107.722124,17.0,0.0,4372.436035,4295.897461,4220.384766,4296.410156,4304.615234,4294.230957,4308.077148,4325.0,4312.563965,4301.538574,4610.512695,4585.384766,4457.692383,4551.922852,,,,,,,,,,,,,,,,,,,,,,,,,,,,,,,,,,,,,,,,,,,,,,,,,,,,,,,,,,,,,,,,,,,,,,
1769164107.729251,1769164107.729832,18.0,0.0,4375.641113,4301.666504,4216.922852,4295.512695,4307.692383,4294.487305,4309.487305,4326.538574,4319.102539,4302.307617,4610.641113,4583.846191,4463.846191,4552.692383,,,,,,,,,,,,,,,,,,,,,,,,,,,,,,,,,,,,,,,,,,,,,,,,,,,,,,,,,,,,,,,,,,,,,,
1769164107.73706,1769164107.737641,19.0,0.0,4380.512695,4312.307617,4219.102539,4295.769043,4307.94873,4296.153809,4311.794922,4327.05127,4323.589844,4308.717773,4615.256348,4585.512695,4471.410156,4555.384766,,,,,,,,,,,,,,,,,,,,,,,,,,,,,,,,,,,,,,,,,,,,,,,,,,,,,,,,,,,,,,,,,,,,,,
1769164107.744868,1769164107.745649,20.0,0.0,4378.205078,4308.846191,4218.461426,4293.333496,4307.179688,4296.538574,4310.384766,4328.205078,4318.333496,4303.846191,4613.974121,4586.666504,4466.538574,4555.897461,,,,,,,,,,,,,,,,,,,,,,,,,,,,,,,,,,,,,,,,,,,,,,,,,,,,,,,,,,,,,,,,,,,,,,
1769164107.752677,1769164107.753457,21.0,0.0,4373.589844,4304.615234,4222.307617,4292.307617,4307.563965,4296.922852,4311.282227,4328.717773,4313.077148,4297.563965,4610.128418,4586.538574,4458.205078,4550.512695,,,,,,,,,,,,,,,,,,,,,,,,,,,,,,,,,,,,,,,,,,,,,,,,,,,,,,,,,,,,,,,,,,,,,,
1769164107.760485,1769164107.761166,22.0,0.0,4379.102539,4310.641113,4229.871582,4294.615234,4308.077148,4298.077148,4312.563965,4326.666504,4312.563965,4298.333496,4611.538574,4586.153809,4460.641113,4552.05127,,,,,,,,,,,,,,,,,,,,,,,,,,,,,,,,,,,,,,,,,,,,,,,,,,,,,,,,,,,,,,,,,,,,,,
1769164107.768294,1769164107.768974,23.0,0.0,4385.384766,4314.743652,4224.871582,4297.563965,4307.05127,4297.436035,4310.897461,4324.871582,4312.05127,4296.922852,4614.102539,4584.615234,4464.230957,4563.461426,,,,,,,,,,,,,,,,,,,,,,,,,,,,,,,,,,,,,,,,,,,,,,,,,,,,,,,,,,,,,,,,,,,,,,
1769164107.776102,1769164107.776583,24.0,0.0,4377.94873,4312.692383,4216.666504,4296.282227,4306.922852,4297.179688,4312.563965,4326.025879,4310.769043,4297.307617,4617.307617,4587.563965,4464.871582,4565.0,,,,,,,,,,,,,,,,,,,,,,,,,,,,,,,,,,,,,,,,,,,,,,,,,,,,,,,,,,,,,,,,,,,,,,
1769164107.78391,1769164107.784391,25.0,0.0,4376.538574,4311.282227,4224.615234,4294.871582,4308.717773,4298.205078,4312.692383,4327.05127,4316.153809,4305.256348,4619.871582,4593.461426,4468.589844,4556.794922,,,,,,,,,,,,,,,,,,,,,,,,,,,,,,,,,,,,,,,,,,,,,,,,,,,,,,,,,,,,,,,,,,,,,,
1769164107.791719,1769164107.7921,26.0,0.0,4381.922852,4312.307617,4232.179688,4298.846191,4309.743652,4292.94873,4307.563965,4324.358887,4319.102539,4306.282227,4616.922852,4590.512695,4467.820313,4553.077148,,,,,,,,,,,,,,,,,,,,,,,,,,,,,,,,,,,,,,,,,,,,,,,,,,,,,,,,,,,,,,,,,,,,,,
1769164107.799527,1769164107.799908,27.0,0.0,4373.077148,4312.94873,4220.0,4300.641113,4310.641113,4290.512695,4307.307617,4322.820313,4311.922852,4296.153809,4610.769043,4582.820313,4461.794922,4552.05127,,,,,,,,,,,,,,,,,,,,,,,,,,,,,,,,,,,,,,,,,,,,,,,,,,,,,,,,,,,,,,,,,,,,,,
1769164107.807336,1769164107.807917,28.0,0.0,4372.307617,4310.641113,4216.282227,4295.256348,4312.05127,4304.230957,4316.922852,4325.256348,4309.487305,4292.563965,4609.358887,4582.307617,4459.615234,4551.410156,,,,,,,,,,,,,,,,,,,,,,,,,,,,,,,,,,,,,,,,,,,,,,,,,,,,,,,,,,,,,,,,,,,,,,
1769164107.815144,1769164107.815725,29.0,0.0,4381.410156,4309.230957,4233.846191,4292.94873,4312.179688,4311.282227,4322.179688,4328.333496,4319.102539,4301.666504,4613.846191,4586.666504,4459.615234,4550.897461,,,,,,,,,,,,,,,,,,,,,,,,,,,,,,,,,,,,,,,,,,,,,,,,,,,,,,,,,,,,,,,,,,,,,,
1769164107.822953,1769164107.823633,30.0,0.0,4375.897461,4313.589844,4232.179688,4298.717773,4312.179688,4297.94873,4315.384766,4328.974121,4322.94873,4309.871582,4614.743652,4587.05127,4459.230957,4548.846191,1.182015,0.883852,0.482783,0.280407,0.141668,0.814414,0.468949,0.15198,0.123529,0.084109,1.06753,0.348704,0.322153,0.139786,0.101506,1.089065,0.377132,0.120085,0.074512,0.091108,0.148831,0.066404,0.081654,0.07285,0.03507,0.072678,0.615662,0.284633,0.064003,0.093646,0.052628,0.275912,0.129172,0.082073,0.052433,0.217481,0.52392,0.336508,0.124829,0.062968,0.300361,0.413936,0.412585,0.15943,0.068839,0.243919,0.679834,0.399355,0.158498,0.126522,0.53569,0.642222,0.63677,0.249706,0.138721,1.51165,1.043453,0.86046,0.244684,0.18984,0.576077,0.863181,0.422901,0.194038,0.133228,0.735291,0.79785,0.747711,0.347856,0.249591
1769164107.830761,1769164107.831442,31.0,0.0,4371.282227,4320.897461,4214.358887,4308.077148,4313.205078,4292.307617,4310.0,4328.717773,4320.0,4309.230957,4614.230957,4585.0,4463.333496,4550.641113,,,,,,,,,,,,,,,,,,,,,,,,,,,,,,,,,,,,,,,,,,,,,,,,,,,,,,,,,,,,,,,,,,,,,,
1769164107.83857,1769164107.83945,32.0,0.0,4377.179688,4321.538574,4221.794922,4309.230957,4313.974121,4305.0,4315.512695,4329.102539,4323.077148,4305.384766,4615.128418,4584.358887,4463.974121,4554.871582,,,,,,,,,,,,,,,,,,,,,,,,,,,,,,,,,,,,,,,,,,,,,,,,,,,,,,,,,,,,,,,,,,,,,,
1769164107.846378,1769164107.847259,33.0,0.0,4374.487305,4316.922852,4235.0,4303.461426,4313.077148,4309.743652,4317.692383,4329.487305,4320.897461,4304.871582,4612.692383,4584.102539,4459.230957,4550.769043,,,,,,,,,,,,,,,,,,,,,,,,,,,,,,,,,,,,,,,,,,,,,,,,,,,,,,,,,,,,,,,,,,,,,,
1769164107.854186,1769164107.854967,34.0,0.0,4379.102539,4321.666504,4231.666504,4304.871582,4312.307617,4301.666504,4312.436035,4327.563965,4314.615234,4308.205078,4613.846191,4585.641113,4467.820313,4550.641113,,,,,,,,,,,,,,,,,,,,,,,,,,,,,,,,,,,,,,,,,,,,,,,,,,,,,,,,,,,,,,,,,,,,,,
1769164107.861995,1769164107.862776,35.0,0.0,4390.128418,4324.871582,4228.846191,4309.358887,4311.025879,4301.922852,4315.128418,4326.666504,4314.102539,4305.641113,4618.205078,4586.666504,4475.0,4557.563965,,,,,,,,,,,,,,,,,,,,,,,,,,,,,,,,,,,,,,,,,,,,,,,,,,,,,,,,,,,,,,,,,,,,,,
1769164107.869803,1769164107.870384,36.0,0.0,4380.256348,4315.384766,4231.538574,4306.282227,4308.205078,4306.922852,4319.743652,4327.692383,4312.692383,4295.512695,4614.743652,4578.589844,4461.538574,4556.410156,,,,,,,,,,,,,,,,,,,,,,,,,,,,,,,,,,,,,,,,,,,,,,,,,,,,,,,,,,,,,,,,,,,,,,
1769164107.877612,1769164107.878193,37.0,0.0,4374.871582,4310.128418,4231.025879,4304.487305,4305.769043,4299.615234,4313.205078,4326.410156,4310.897461,4292.820313,4610.512695,4572.563965,4456.794922,4553.077148,,,,,,,,,,,,,,,,,,,,,,,,,,,,,,,,,,,,,,,,,,,,,,,,,,,,,,,,,,,,,,,,,,,,,,
1769164107.88542,1769164107.885901,38.0,0.0,4383.077148,4314.487305,4226.794922,4307.436035,4307.05127,4292.563965,4309.230957,4325.256348,4311.794922,4301.666504,4616.922852,4578.077148,4469.487305,4555.384766,,,,,,,,,,,,,,,,,,,,,,,,,,,,,,,,,,,,,,,,,,,,,,,,,,,,,,,,,,,,,,,,,,,,,,
1769164107.893229,1769164107.89371,39.0,0.0,4378.589844,4314.230957,4226.922852,4308.205078,4309.615234,4301.922852,4316.153809,4327.820313,4313.846191,4304.743652,4620.641113,4580.384766,4466.025879,4554.871582,,,,,,,,,,,,,,,,,,,,,,,,,,,,,,,,,,,,,,,,,,,,,,,,,,,,,,,,,,,,,,,,,,,,,,
1769164107.901037,1769164107.901318,40.0,0.0,4375.641113,4311.153809,4232.563965,4309.102539,4307.94873,4305.128418,4316.666504,4329.102539,4316.538574,4302.563965,4615.641113,4577.05127,4457.05127,4552.94873,,,,,,,,,,,,,,,,,,,,,,,,,,,,,,,,,,,,,,,,,,,,,,,,,,,,,,,,,,,,,,,,,,,,,,
1769164107.908846,1769164107.909127,41.0,0.0,4381.794922,4313.205078,4229.615234,4312.05127,4307.820313,4292.179688,4309.102539,4326.538574,4320.769043,4307.820313,4620.512695,4581.025879,4468.589844,4555.769043,,,,,,,,,,,,,,,,,,,,,,,,,,,,,,,,,,,,,,,,,,,,,,,,,,,,,,,,,,,,,,,,,,,,,,
1769164107.916654,1769164107.916835,42.0,0.0,4378.077148,4313.077148,4216.666504,4311.153809,4310.128418,4293.974121,4312.436035,4326.410156,4321.794922,4312.563965,4628.589844,4584.102539,4479.871582,4556.410156,,,,,,,,,,,,,,,,,,,,,,,,,,,,,,,,,,,,,,,,,,,,,,,,,,,,,,,,,,,,,,,,,,,,,,
1769164107.924462,1769164107.924644,43.0,0.0,4367.94873,4309.230957,4213.846191,4309.871582,4307.692383,4309.615234,4324.230957,4329.487305,4322.563965,4311.025879,4622.820313,4578.846191,4471.153809,4552.563965,,,,,,,,,,,,,,,,,,,,,,,,,,,,,,,,,,,,,,,,,,,,,,,,,,,,,,,,,,,,,,,,,,,,,,
1769164107.932271,1769164107.932652,44.0,0.0,4372.436035,4308.974121,4224.615234,4310.384766,4306.410156,4305.256348,4321.153809,4328.333496,4324.487305,4308.205078,4618.589844,4580.512695,4466.538574,4552.307617,,,,,,,,,,,,,,,,,,,,,,,,,,,,,,,,,,,,,,,,,,,,,,,,,,,,,,,,,,,,,,,,,,,,,,
1769164107.940079,1769164107.94046,45.0,0.0,4383.846191,4312.563965,4233.077148,4311.410156,4310.0,4291.025879,4310.0,4326.153809,4323.974121,4309.615234,4626.282227,4587.436035,4474.743652,4557.179688,,,,,,,,,,,,,,,,,,,,,,,,,,,,,,,,,,,,,,,,,,,,,,,,,,,,,,,,,,,,,,,,,,,,,,
1769164107.947888,1769164107.948369,46.0,0.0,4379.358887,4313.333496,4228.717773,4312.692383,4310.897461,4298.077148,4316.538574,4330.384766,4326.282227,4314.743652,4626.282227,4584.358887,4471.282227,4559.615234,1.239358,0.665699,0.4727,0.296853,0.15911,0.958736,0.364293,0.157943,0.156818,0.08209,1.019429,0.250422,0.275707,0.148617,0.103956,1.083831,0.29749,0.135744,0.081053,0.089682,0.172015,0.058347,0.078374,0.081957,0.03865,0.054952,0.466124,0.217162,0.058817,0.086185,0.059382,0.269363,0.156595,0.078712,0.055742,0.21224,0.517447,0.257722,0.11034,0.059674,0.269885,0.364904,0.35078,0.163354,0.066919,0.276721,0.589938,0.403922,0.202526,0.135829,0.521853,0.535254,0.58527,0.231357,0.162561,1.395702,0.839241,0.752282,0.207565,0.19355,0.567668,0.662759,0.406304,0.199631,0.133474,0.607437,0.620776,0.703536,0.326526,0.282984
1769164107.955696,1769164107.956177,47.0,0.0,4364.358887,4308.589844,4216.794922,4310.897461,4310.769043,4313.333496,4329.230957,4338.333496,4328.333496,4313.589844,4616.794922,4577.05127,4457.436035,4551.153809,,,,,,,,,,,,,,,,,,,,,,,,,,,,,,,,,,,,,,,,,,,,,,,,,,,,,,,,,,,,,,,,,,,,,,
1769164107.963505,1769164107.963786,48.0,0.0,4367.179688,4305.769043,4219.487305,4308.974121,4312.692383,4315.384766,4328.589844,4342.692383,4327.179688,4308.717773,4620.0,4578.846191,4456.025879,4543.589844,,,,,,,,,,,,,,,,,,,,,,,,,,,,,,,,,,,,,,,,,,,,,,,,,,,,,,,,,,,,,,,,,,,,,,
1769164107.971313,1769164107.971594,49.0,0.0,4384.102539,4313.846191,4234.487305,4316.410156,4312.307617,4304.615234,4323.846191,4342.307617,4328.717773,4314.358887,4631.538574,4587.692383,4468.717773,4550.512695,,,,,,,,,,,,,,,,,,,,,,,,,,,,,,,,,,,,,,,,,,,,,,,,,,,,,,,,,,,,,,,,,,,,,,
1769164107.979122,1769164107.979303,50.0,0.0,4385.384766,4322.94873,4235.0,4327.179688,4310.897461,4296.025879,4319.871582,4339.871582,4334.102539,4322.307617,4633.333496,4589.871582,4478.205078,4559.743652,,,,,,,,,,,,,,,,,,,,,,,,,,,,,,,,,,,,,,,,,,,,,,,,,,,,,,,,,,,,,,,,,,,,,,
1769164107.98693,1769164107.987111,51.0,0.0,4377.179688,4319.487305,4228.461426,4328.077148,4312.307617,4300.0,4318.461426,4339.230957,4336.666504,4316.666504,4628.589844,4585.384766,4474.743652,4557.563965,,,,,,,,,,,,,,,,,,,,,,,,,,,,,,,,,,,,,,,,,,,,,,,,,,,,,,,,,,,,,,,,,,,,,,
1769164107.994739,1769164107.99512,52.0,0.0,4382.436035,4316.282227,4232.436035,4325.769043,4312.820313,4306.794922,4323.974121,4343.461426,4332.307617,4308.717773,4628.205078,4583.461426,4464.230957,4552.692383,,,,,,,,,,,,,,,,,,,,,,,,,,,,,,,,,,,,,,,,,,,,,,,,,,,,,,,,,,,,,,,,,,,,,,
1769164108.002547,1769164108.002928,53.0,0.0,4389.358887,4319.743652,4235.641113,4327.05127,4312.05127,4299.871582,4324.358887,4339.743652,4326.922852,4308.333496,4627.307617,4586.025879,4459.871582,4553.333496,,,,,,,,,,,,,,,,,,,,,,,,,,,,,,,,,,,,,,,,,,,,,,,,,,,,,,,,,,,,,,,,,,,,,,
1769164108.010356,1769164108.010836,54.0,0.0,4385.128418,4316.282227,4232.179688,4326.666504,4310.0,4292.436035,4316.153809,4328.589844,4325.0,4308.589844,4621.282227,4582.307617,4461.666504,4553.333496,,,,,,,,,,,,,,,,,,,,,,,,,,,,,,,,,,,,,,,,,,,,,,,,,,,,,,,,,,,,,,,,,,,,,,
1769164108.018164,1769164108.018645,55.0,0.0,4381.794922,4309.743652,4233.461426,4324.743652,4308.333496,4301.922852,4317.307617,4330.512695,4324.871582,4307.307617,4617.563965,4573.589844,4459.871582,4552.563965,,,,,,,,,,,,,,,,,,,,,,,,,,,,,,,,,,,,,,,,,,,,,,,,,,,,,,,,,,,,,,,,,,,,,,
1769164108.025972,1769164108.026653,56.0,0.0,4381.794922,4312.820313,4233.077148,4322.436035,4309.871582,4311.538574,4326.025879,4336.025879,4324.871582,4302.692383,4615.0,4569.487305,4457.563965,4551.538574,,,,,,,,,,,,,,,,,,,,,,,,,,,,,,,,,,,,,,,,,,,,,,,,,,,,,,,,,,,,,,,,,,,,,,
1769164108.033781,1769164108.034462,57.0,0.0,4382.179688,4313.974121,4231.922852,4321.538574,4311.538574,4305.769043,4322.436035,4329.743652,4324.615234,4298.717773,4611.922852,4570.384766,4459.615234,4551.666504,,,,,,,,,,,,,,,,,,,,,,,,,,,,,,,,,,,,,,,,,,,,,,,,,,,,,,,,,,,,,,,,,,,,,,
1769164108.041589,1769164108.04227,58.0,0.0,4385.897461,4311.153809,4238.717773,4324.487305,4310.0,4296.538574,4315.0,4328.077148,4324.743652,4304.358887,4614.487305,4577.179688,4459.358887,4551.922852,,,,,,,,,,,,,,,,,,,,,,,,,,,,,,,,,,,,,,,,,,,,,,,,,,,,,,,,,,,,,,,,,,,,,,
1769164108.049398,1769164108.050078,59.0,0.0,4385.0,4317.436035,4244.871582,4326.282227,4308.974121,4298.077148,4318.077148,4335.128418,4325.128418,4309.102539,4619.102539,4585.769043,4460.0,4555.769043,,,,,,,,,,,,,,,,,,,,,,,,,,,,,,,,,,,,,,,,,,,,,,,,,,,,,,,,,,,,,,,,,,,,,,
1769164108.057206,1769164108.057687,60.0,0.0,4379.487305,4325.128418,4243.974121,4327.05127,4313.717773,4306.153809,4321.153809,4335.256348,4325.128418,4306.025879,4619.487305,4585.256348,4469.871582,4564.487305,,,,,,,,,,,,,,,,,,,,,,,,,,,,,,,,,,,,,,,,,,,,,,,,,,,,,,,,,,,,,,,,,,,,,,
1769164108.065015,1769164108.065496,61.0,0.0,4384.230957,4325.512695,4245.769043,4331.538574,4316.666504,4308.461426,4321.922852,4334.615234,4324.487305,4304.615234,4619.102539,4581.666504,4472.563965,4564.743652,,,,,,,,,,,,,,,,,,,,,,,,,,,,,,,,,,,,,,,,,,,,,,,,,,,,,,,,,,,,,,,,,,,,,,
1769164108.072823,1769164108.073204,62.0,0.0,4390.256348,4324.102539,4250.128418,4335.384766,4312.563965,4303.974121,4324.615234,4339.615234,4325.512695,4307.563965,4619.615234,4583.717773,4463.717773,4557.563965,1.304754,0.479929,0.475762,0.299912,0.173594,1.178315,0.269694,0.18027,0.189397,0.083091,1.007401,0.169611,0.228585,0.159951,0.106321,1.090513,0.230716,0.143413,0.091523,0.086273,0.186405,0.049027,0.077477,0.090074,0.042062,0.052259,0.336338,0.161978,0.058128,0.086328,0.066178,0.248124,0.190494,0.077197,0.057793,0.19638,0.471422,0.184749,0.099254,0.055323,0.247854,0.31739,0.286225,0.174127,0.066251,0.324817,0.52458,0.422888,0.24097,0.138339,0.509171,0.463537,0.535864,0.217309,0.178535,1.192371,0.655462,0.625293,0.173607,0.190611,0.52532,0.483356,0.408269,0.209604,0.131501,0.463278,0.499057,0.653077,0.303835,0.309027
1769164108.080632,1769164108.081013,63.0,0.0,4384.102539,4325.128418,4248.589844,4335.512695,4309.230957,4300.641113,4323.846191,4339.743652,4326.538574,4307.179688,4618.589844,4585.384766,4459.615234,4554.487305,,,,,,,,,,,,,,,,,,,,,,,,,,,,,,,,,,,,,,,,,,,,,,,,,,,,,,,,,,,,,,,,,,,,,,
1769164108.08844,1769164108.088621,64.0,0.0,4380.384766,4321.794922,4249.102539,4334.871582,4310.0,4303.077148,4322.05127,4335.769043,4325.128418,4304.487305,4618.333496,4583.205078,4461.025879,4554.487305,,,,,,,,,,,,,,,,,,,,,,,,,,,,,,,,,,,,,,,,,,,,,,,,,,,,,,,,,,,,,,,,,,,,,,
1769164108.096249,1769164108.09643,65.0,0.0,4382.820313,4315.128418,4251.410156,4329.743652,4310.512695,4305.641113,4326.025879,4334.615234,4324.871582,4303.461426,4618.205078,4580.0,4459.358887,4551.794922,,,,,,,,,,,,,,,,,,,,,,,,,,,,,,,,,,,,,,,,,,,,,,,,,,,,,,,,,,,,,,,,,,,,,,
1769164108.104057,1769164108.104138,66.0,0.0,4380.256348,4312.563965,4249.358887,4324.743652,4310.256348,4303.846191,4326.538574,4333.846191,4326.282227,4306.666504,4616.666504,4574.102539,4458.205078,4551.025879,,,,,,,,,,,,,,,,,,,,,,,,,,,,,,,,,,,,,,,,,,,,,,,,,,,,,,,,,,,,,,,,,,,,,,
1769164108.111865,1769164108.111947,67.0,0.0,4373.205078,4310.641113,4249.487305,4325.256348,4311.282227,4305.897461,4324.871582,4333.205078,4325.512695,4309.358887,4615.0,4570.641113,4460.512695,4553.333496,,,,,,,,,,,,,,,,,,,,,,,,,,,,,,,,,,,,,,,,,,,,,,,,,,,,,,,,,,,,,,,,,,,,,,
1769164108.119674,1769164108.119555,68.0,0.0,4371.153809,4310.897461,4251.410156,4327.05127,4311.794922,4312.179688,4329.358887,4337.94873,4325.512695,4307.94873,4615.512695,4575.897461,4458.846191,4551.666504,,,,,,,,,,,,,,,,,,,,,,,,,,,,,,,,,,,,,,,,,,,,,,,,,,,,,,,,,,,,,,,,,,,,,,
1769164108.127482,1769164108.127364,69.0,0.0,4377.94873,4316.794922,4253.974121,4327.307617,4312.179688,4308.846191,4329.743652,4344.102539,4328.333496,4308.077148,4618.205078,4582.820313,4457.692383,4552.179688,,,,,,,,,,,,,,,,,,,,,,,,,,,,,,,,,,,,,,,,,,,,,,,,,,,,,,,,,,,,,,,,,,,,,,
1769164108.135291,1769164108.135272,70.0,0.0,4383.333496,4321.666504,4258.974121,4327.692383,4312.820313,4295.769043,4322.436035,4341.538574,4327.820313,4309.871582,4619.358887,4581.538574,4460.256348,4556.666504,,,,,,,,,,,,,,,,,,,,,,,,,,,,,,,,,,,,,,,,,,,,,,,,,,,,,,,,,,,,,,,,,,,,,,
1769164108.143099,1769164108.143081,71.0,0.0,4382.05127,4319.358887,4264.102539,4330.0,4312.307617,4292.692383,4319.615234,4333.333496,4323.974121,4306.666504,4616.410156,4576.410156,4461.538574,4556.538574,,,,,,,,,,,,,,,,,,,,,,,,,,,,,,,,,,,,,,,,,,,,,,,,,,,,,,,,,,,,,,,,,,,,,,
1769164108.150908,1769164108.151089,72.0,0.0,4385.0,4317.94873,4267.563965,4335.769043,4312.05127,4302.94873,4324.871582,4332.94873,4322.94873,4302.820313,4614.743652,4578.077148,4459.743652,4555.256348,,,,,,,,,,,,,,,,,,,,,,,,,,,,,,,,,,,,,,,,,,,,,,,,,,,,,,,,,,,,,,,,,,,,,,
1769164108.158716,1769164108.158897,73.0,0.0,4392.179688,4317.94873,4271.794922,4341.153809,4312.563965,4307.05127,4329.358887,4339.743652,4325.128418,4305.384766,4619.615234,4584.230957,4460.0,4561.794922,,,,,,,,,,,,,,,,,,,,,,,,,,,,,,,,,,,,,,,,,,,,,,,,,,,,,,,,,,,,,,,,,,,,,,
1769164108.166525,1769164108.166806,74.0,0.0,4388.717773,4314.230957,4273.589844,4336.153809,4311.794922,4302.307617,4328.333496,4342.307617,4327.179688,4309.615234,4624.102539,4586.794922,4463.589844,4568.974121,,,,,,,,,,,,,,,,,,,,,,,,,,,,,,,,,,,,,,,,,,,,,,,,,,,,,,,,,,,,,,,,,,,,,,
1769164108.174333,1769164108.174614,75.0,0.0,4382.179688,4311.025879,4272.05127,4329.871582,4309.871582,4300.641113,4325.128418,4340.512695,4325.897461,4307.692383,4620.256348,4583.974121,4464.487305,4564.743652,,,,,,,,,,,,,,,,,,,,,,,,,,,,,,,,,,,,,,,,,,,,,,,,,,,,,,,,,,,,,,,,,,,,,,
1769164108.182141,1769164108.182223,76.0,0.0,4384.743652,4312.563965,4275.256348,4330.0,4309.743652,4305.769043,4328.205078,4341.025879,4321.410156,4302.692383,4614.102539,4578.077148,4458.205078,4554.743652,,,,,,,,,,,,,,,,,,,,,,,,,,,,,,,,,,,,,,,,,,,,,,,,,,,,,,,,,,,,,,,,,,,,,,
1769164108.18995,1769164108.190031,77.0,0.0,4387.820313,4313.846191,4282.179688,4331.410156,4311.153809,4310.384766,4332.94873,4344.487305,4321.794922,4304.871582,4618.333496,4579.615234,4458.589844,4555.0,,,,,,,,,,,,,,,,,,,,,,,,,,,,,,,,,,,,,,,,,,,,,,,,,,,,,,,,,,,,,,,,,,,,,,
1769164108.197758,1769164108.197939,78.0,0.0,4382.692383,4312.05127,4283.717773,4331.282227,4312.307617,4309.615234,4331.794922,4345.0,4327.563965,4313.205078,4628.717773,4588.846191,4471.410156,4564.743652,1.379715,0.365678,0.491077,0.28837,0.183335,1.412402,0.202619,0.216505,0.212473,0.086057,0.965154,0.117804,0.193628,0.175705,0.114306,1.081804,0.187212,0.144949,0.103306,0.081555,0.190489,0.040031,0.079541,0.096388,0.045145,0.06472,0.248303,0.126267,0.063049,0.099594,0.069195,0.216877,0.217141,0.079237,0.061127,0.173027,0.393212,0.13292,0.091071,0.051341,0.232859,0.27308,0.239162,0.189331,0.066976,0.381949,0.483216,0.45383,0.266561,0.135124,0.517005,0.424533,0.509684,0.207606,0.183322,0.978704,0.50633,0.519245,0.145894,0.183124,0.469065,0.350483,0.433579,0.22521,0.128511,0.346183,0.448825,0.604664,0.280557,0.315476
1769164108.205567,1769164108.205748,79.0,0.0,4378.461426,4312.820313,4281.794922,4332.307617,4313.333496,4309.102539,4330.769043,4343.333496,4328.846191,4314.615234,4628.205078,4588.589844,4471.282227,4568.846191,,,,,,,,,,,,,,,,,,,,,,,,,,,,,,,,,,,,,,,,,,,,,,,,,,,,,,,,,,,,,,,,,,,,,,
1769164108.213375,1769164108.213756,80.0,0.0,4387.820313,4320.384766,4284.487305,4334.102539,4313.333496,4309.358887,4328.589844,4342.05127,4326.153809,4309.358887,4622.692383,4581.025879,4463.846191,4568.846191,,,,,,,,,,,,,,,,,,,,,,,,,,,,,,,,,,,,,,,,,,,,,,,,,,,,,,,,,,,,,,,,,,,,,,
1769164108.221184,1769164108.221565,81.0,0.0,4398.846191,4322.94873,4288.589844,4334.102539,4312.94873,4305.897461,4323.461426,4338.974121,4326.410156,4309.871582,4625.512695,4578.589844,4474.358887,4573.333496,,,,,,,,,,,,,,,,,,,,,,,,,,,,,,,,,,,,,,,,,,,,,,,,,,,,,,,,,,,,,,,,,,,,,,
1769164108.228992,1769164108.229473,82.0,0.0,4394.102539,4314.871582,4288.846191,4335.769043,4314.102539,4304.487305,4321.410156,4335.0,4327.436035,4315.0,4628.333496,4580.641113,4478.589844,4572.179688,,,,,,,,,,,,,,,,,,,,,,,,,,,,,,,,,,,,,,,,,,,,,,,,,,,,,,,,,,,,,,,,,,,,,,
1769164108.236801,1769164108.237281,83.0,0.0,4380.256348,4310.512695,4291.025879,4334.102539,4312.563965,4305.641113,4323.333496,4335.512695,4327.179688,4313.333496,4625.641113,4580.256348,4464.230957,4563.717773,,,,,,,,,,,,,,,,,,,,,,,,,,,,,,,,,,,,,,,,,,,,,,,,,,,,,,,,,,,,,,,,,,,,,,
1769164108.244609,1769164108.24529,84.0,0.0,4380.256348,4312.563965,4295.641113,4329.230957,4307.692383,4300.512695,4323.846191,4337.436035,4328.077148,4309.358887,4623.461426,4577.563965,4460.128418,4558.974121,,,,,,,,,,,,,,,,,,,,,,,,,,,,,,,,,,,,,,,,,,,,,,,,,,,,,,,,,,,,,,,,,,,,,,
1769164108.252417,1769164108.253098,85.0,0.0,4390.769043,4312.05127,4297.05127,4327.820313,4306.282227,4297.692383,4322.94873,4337.563965,4327.692383,4310.384766,4622.307617,4579.487305,4466.922852,4562.436035,,,,,,,,,,,,,,,,,,,,,,,,,,,,,,,,,,,,,,,,,,,,,,,,,,,,,,,,,,,,,,,,,,,,,,
1769164108.260226,1769164108.260807,86.0,0.0,4385.769043,4307.820313,4293.077148,4326.025879,4306.410156,4306.922852,4327.692383,4340.769043,4325.128418,4307.563965,4617.307617,4577.820313,4461.666504,4567.436035,,,,,,,,,,,,,,,,,,,,,,,,,,,,,,,,,,,,,,,,,,,,,,,,,,,,,,,,,,,,,,,,,,,,,,
1769164108.268034,1769164108.268615,87.0,0.0,4374.358887,4305.0,4293.077148,4323.717773,4304.230957,4314.615234,4332.05127,4344.102539,4324.358887,4301.794922,4613.461426,4570.897461,4455.512695,4567.179688,,,,,,,,,,,,,,,,,,,,,,,,,,,,,,,,,,,,,,,,,,,,,,,,,,,,,,,,,,,,,,,,,,,,,,
1769164108.275843,1769164108.276224,88.0,0.0,4378.077148,4307.692383,4303.205078,4326.153809,4305.897461,4308.717773,4330.384766,4342.94873,4327.179688,4307.307617,4619.487305,4578.333496,4466.666504,4570.641113,,,,,,,,,,,,,,,,,,,,,,,,,,,,,,,,,,,,,,,,,,,,,,,,,,,,,,,,,,,,,,,,,,,,,,
1769164108.283651,1769164108.284032,89.0,0.0,4382.692383,4309.871582,4311.153809,4327.94873,4311.025879,4301.666504,4325.512695,4341.922852,4328.589844,4315.384766,4625.641113,4586.794922,4475.897461,4575.384766,,,,,,,,,,,,,,,,,,,,,,,,,,,,,,,,,,,,,,,,,,,,,,,,,,,,,,,,,,,,,,,,,,,,,,
1769164108.29146,1769164108.291741,90.0,0.0,4378.205078,4309.743652,4311.282227,4326.025879,4312.05127,4302.692383,4325.384766,4343.205078,4326.025879,4309.615234,4618.717773,4576.538574,4463.846191,4563.589844,,,,,,,,,,,,,,,,,,,,,,,,,,,,,,,,,,,,,,,,,,,,,,,,,,,,,,,,,,,,,,,,,,,,,,
1769164108.299268,1769164108.299549,91.0,0.0,4385.0,4314.358887,4318.205078,4333.333496,4311.282227,4306.922852,4327.179688,4343.077148,4326.025879,4304.102539,4613.205078,4572.307617,4455.512695,4551.153809,,,,,,,,,,,,,,,,,,,,,,,,,,,,,,,,,,,,,,,,,,,,,,,,,,,,,,,,,,,,,,,,,,,,,,
1769164108.307077,1769164108.307158,92.0,0.0,4394.230957,4323.589844,4328.077148,4342.307617,4312.820313,4305.512695,4326.794922,4344.615234,4328.846191,4309.743652,4621.666504,4584.230957,4471.794922,4563.717773,,,,,,,,,,,,,,,,,,,,,,,,,,,,,,,,,,,,,,,,,,,,,,,,,,,,,,,,,,,,,,,,,,,,,,
1769164108.314885,1769164108.314966,93.0,0.0,4385.897461,4322.94873,4327.436035,4339.743652,4313.077148,4302.820313,4328.717773,4344.871582,4327.436035,4312.05127,4625.384766,4583.205078,4478.589844,4575.769043,,,,,,,,,,,,,,,,,,,,,,,,,,,,,,,,,,,,,,,,,,,,,,,,,,,,,,,,,,,,,,,,,,,,,,
1769164108.322694,1769164108.322675,94.0,0.0,4377.179688,4313.717773,4328.333496,4334.615234,4309.871582,4306.282227,4327.94873,4341.666504,4325.128418,4304.871582,4617.563965,4571.538574,4462.05127,4561.794922,1.377528,0.313287,0.505823,0.264607,0.189633,1.577095,0.165083,0.261018,0.219037,0.090178,0.938182,0.09623,0.172672,0.19493,0.133356,1.044929,0.16483,0.147408,0.112053,0.076576,0.186634,0.032753,0.082868,0.098957,0.047363,0.088827,0.200766,0.107743,0.074175,0.129819,0.074608,0.182,0.224719,0.085425,0.069753,0.157328,0.305453,0.107569,0.083643,0.049449,0.234463,0.234534,0.219338,0.202588,0.06873,0.449566,0.453318,0.485272,0.274879,0.129935,0.549586,0.398824,0.508744,0.197633,0.177804,0.816771,0.388474,0.459922,0.123031,0.173719,0.425465,0.262502,0.483535,0.245501,0.128429,0.279712,0.445426,0.559723,0.255323,0.298297
1769164108.330502,1769164108.330483,95.0,0.0,4379.358887,4311.282227,4334.230957,4335.256348,4309.743652,4310.128418,4326.666504,4341.794922,4327.307617,4301.282227,4613.589844,4570.128418,4454.615234,4549.871582,,,,,,,,,,,,,,,,,,,,,,,,,,,,,,,,,,,,,,,,,,,,,,,,,,,,,,,,,,,,,,,,,,,,,,
1769164108.338311,1769164108.338491,96.0,0.0,4381.666504,4312.307617,4337.05127,4336.025879,4311.153809,4311.282227,4331.794922,4343.974121,4328.717773,4305.512695,4615.769043,4576.794922,4460.0,4558.717773,,,,,,,,,,,,,,,,,,,,,,,,,,,,,,,,,,,,,,,,,,,,,,,,,,,,,,,,,,,,,,,,,,,,,,
1769164108.346119,1769164108.3463,97.0,0.0,4382.436035,4313.974121,4340.512695,4337.179688,4308.846191,4310.0,4335.256348,4343.333496,4327.820313,4309.487305,4623.589844,4583.333496,4463.077148,4570.512695,,,,,,,,,,,,,,,,,,,,,,,,,,,,,,,,,,,,,,,,,,,,,,,,,,,,,,,,,,,,,,,,,,,,,,
1769164108.353927,1769164108.354208,98.0,0.0,4385.512695,4314.487305,4343.589844,4340.512695,4309.102539,4308.589844,4334.102539,4343.205078,4328.205078,4308.205078,4629.102539,4585.641113,4460.897461,4569.487305,,,,,,,,,,,,,,,,,,,,,,,,,,,,,,,,,,,,,,,,,,,,,,,,,,,,,,,,,,,,,,,,,,,,,,
1769164108.361736,1769164108.362017,99.0,0.0,4387.563965,4315.384766,4346.025879,4341.538574,4311.666504,4310.128418,4335.641113,4343.589844,4328.461426,4306.410156,4626.666504,4586.922852,4462.692383,4567.307617,,,,,,,,,,,,,,,,,,,,,,,,,,,,,,,,,,,,,,,,,,,,,,,,,,,,,,,,,,,,,,,,,,,,,,
1769164108.369544,1769164108.370025,100.0,0.0,4387.563965,4317.820313,4350.384766,4343.205078,4310.0,4311.025879,4335.641113,4343.974121,4328.205078,4310.256348,4625.897461,4589.487305,4468.974121,4572.179688,,,,,,,,,,,,,,,,,,,,,,,,,,,,,,,,,,,,,,,,,,,,,,,,,,,,,,,,,,,,,,,,,,,,,,
1769164108.377353,1769164108.377833,101.0,0.0,4383.077148,4317.563965,4350.641113,4344.102539,4310.128418,4306.666504,4330.769043,4345.512695,4331.025879,4312.436035,4626.794922,4583.205078,4465.897461,4568.461426,,,,,,,,,,,,,,,,,,,,,,,,,,,,,,,,,,,,,,,,,,,,,,,,,,,,,,,,,,,,,,,,,,,,,,
1769164108.385161,1769164108.385742,102.0,0.0,4377.820313,4312.179688,4346.922852,4341.538574,4313.077148,4303.461426,4331.666504,4349.230957,4335.641113,4309.230957,4624.358887,4579.871582,4459.871582,4561.666504,,,,,,,,,,,,,,,,,,,,,,,,,,,,,,,,,,,,,,,,,,,,,,,,,,,,,,,,,,,,,,,,,,,,,,
1769164108.39297,1769164108.39355,103.0,0.0,4383.333496,4310.0,4350.256348,4340.641113,4311.153809,4308.974121,4336.666504,4349.102539,4337.179688,4310.0,4626.025879,4588.205078,4463.205078,4568.077148,,,,,,,,,,,,,,,,,,,,,,,,,,,,,,,,,,,,,,,,,,,,,,,,,,,,,,,,,,,,,,,,,,,,,,
1769164108.400778,1769164108.401558,104.0,0.0,4391.666504,4317.820313,4353.589844,4343.333496,4309.615234,4309.230957,4334.358887,4344.615234,4333.589844,4313.589844,4630.128418,4593.461426,4465.769043,4572.820313,,,,,,,,,,,,,,,,,,,,,,,,,,,,,,,,,,,,,,,,,,,,,,,,,,,,,,,,,,,,,,,,,,,,,,
1769164108.408587,1769164108.409367,105.0,0.0,4383.333496,4317.563965,4345.512695,4343.077148,4310.897461,4304.102539,4332.179688,4345.128418,4327.820313,4311.922852,4625.897461,4585.256348,4459.487305,4563.974121,,,,,,,,,,,,,,,,,,,,,,,,,,,,,,,,,,,,,,,,,,,,,,,,,,,,,,,,,,,,,,,,,,,,,,
1769164108.416395,1769164108.417275,106.0,0.0,4374.615234,4307.692383,4341.282227,4338.717773,4308.717773,4305.512695,4334.230957,4347.05127,4326.666504,4307.820313,4621.794922,4577.436035,4457.692383,4562.436035,,,,,,,,,,,,,,,,,,,,,,,,,,,,,,,,,,,,,,,,,,,,,,,,,,,,,,,,,,,,,,,,,,,,,,
1769164108.424204,1769164108.425084,107.0,0.0,4389.487305,4311.922852,4352.179688,4342.05127,4305.512695,4307.820313,4332.179688,4344.230957,4332.436035,4309.102539,4626.410156,4581.282227,4462.307617,4573.846191,,,,,,,,,,,,,,,,,,,,,,,,,,,,,,,,,,,,,,,,,,,,,,,,,,,,,,,,,,,,,,,,,,,,,,
1769164108.432012,1769164108.432692,108.0,0.0,4402.436035,4319.615234,4358.717773,4347.820313,4305.512695,4306.025879,4331.025879,4344.358887,4337.179688,4311.794922,4630.641113,4586.282227,4462.820313,4579.615234,,,,,,,,,,,,,,,,,,,,,,,,,,,,,,,,,,,,,,,,,,,,,,,,,,,,,,,,,,,,,,,,,,,,,,
1769164108.43982,1769164108.440501,109.0,0.0,4390.256348,4314.615234,4351.282227,4345.128418,4307.692383,4308.589844,4336.410156,4349.230957,4337.436035,4311.794922,4628.717773,4584.871582,4459.358887,4567.563965,,,,,,,,,,,,,,,,,,,,,,,,,,,,,,,,,,,,,,,,,,,,,,,,,,,,,,,,,,,,,,,,,,,,,,
1769164108.447629,1769164108.448209,110.0,0.0,4377.307617,4308.974121,4346.666504,4340.384766,4309.743652,4313.589844,4341.410156,4351.794922,4338.205078,4311.922852,4624.871582,4581.153809,4456.153809,4553.589844,1.311526,0.288381,0.502592,0.23355,0.196025,1.605113,0.15027,0.312499,0.207165,0.094631,0.86554,0.099422,0.159612,0.212657,0.163645,0.957116,0.155688,0.1651,0.114179,0.072251,0.178182,0.028511,0.084637,0.095775,0.04797,0.117174,0.179904,0.100303,0.090314,0.176068,0.08066,0.149379,0.208679,0.09396,0.085949,0.155861,0.237859,0.105002,0.075559,0.05067,0.249089,0.208441,0.222458,0.206913,0.07067,0.513822,0.425064,0.500271,0.265227,0.126843,0.592993,0.3734,0.516052,0.182117,0.165886,0.722655,0.30339,0.445475,0.102609,0.164538,0.400123,0.206621,0.547217,0.266201,0.135604,0.265213,0.450227,0.510941,0.227541,0.261991
1769164108.455437,1769164108.456018,111.0,0.0,4381.025879,4312.179688,4346.794922,4341.282227,4308.846191,4311.282227,4342.05127,4349.358887,4337.05127,4311.538574,4627.563965,4581.153809,4459.743652,4560.641113,,,,,,,,,,,,,,,,,,,,,,,,,,,,,,,,,,,,,,,,,,,,,,,,,,,,,,,,,,,,,,,,,,,,,,
1769164108.463246,1769164108.464026,112.0,0.0,4386.025879,4312.307617,4346.025879,4343.333496,4308.333496,4307.436035,4338.846191,4348.077148,4333.846191,4310.128418,4632.05127,4583.461426,4463.717773,4572.692383,,,,,,,,,,,,,,,,,,,,,,,,,,,,,,,,,,,,,,,,,,,,,,,,,,,,,,,,,,,,,,,,,,,,,,
1769164108.471054,1769164108.471834,113.0,0.0,4381.410156,4310.769043,4349.358887,4343.846191,4310.641113,4310.769043,4340.128418,4347.307617,4333.205078,4310.384766,4628.846191,4583.589844,4458.333496,4565.897461,,,,,,,,,,,,,,,,,,,,,,,,,,,,,,,,,,,,,,,,,,,,,,,,,,,,,,,,,,,,,,,,,,,,,,
1769164108.478863,1769164108.479543,114.0,0.0,4380.769043,4316.410156,4353.974121,4344.102539,4311.794922,4313.717773,4341.666504,4347.307617,4332.436035,4311.922852,4628.589844,4584.615234,4464.615234,4566.922852,,,,,,,,,,,,,,,,,,,,,,,,,,,,,,,,,,,,,,,,,,,,,,,,,,,,,,,,,,,,,,,,,,,,,,
1769164108.486671,1769164108.487351,115.0,0.0,4388.846191,4322.179688,4356.410156,4345.641113,4310.641113,4307.563965,4334.743652,4345.769043,4328.589844,4308.205078,4632.05127,4584.230957,4473.974121,4574.615234,,,,,,,,,,,,,,,,,,,,,,,,,,,,,,,,,,,,,,,,,,,,,,,,,,,,,,,,,,,,,,,,,,,,,,
1769164108.49448,1769164108.49496,116.0,0.0,4393.461426,4322.436035,4358.077148,4350.641113,4310.0,4304.358887,4329.871582,4342.436035,4326.282227,4302.436035,4623.974121,4582.820313,4463.589844,4562.436035,,,,,,,,,,,,,,,,,,,,,,,,,,,,,,,,,,,,,,,,,,,,,,,,,,,,,,,,,,,,,,,,,,,,,,
1769164108.502288,1769164108.502769,117.0,0.0,4390.256348,4322.436035,4358.717773,4352.820313,4311.666504,4309.871582,4334.743652,4342.436035,4329.615234,4307.179688,4624.358887,4584.230957,4461.282227,4557.94873,,,,,,,,,,,,,,,,,,,,,,,,,,,,,,,,,,,,,,,,,,,,,,,,,,,,,,,,,,,,,,,,,,,,,,
1769164108.510096,1769164108.510477,118.0,0.0,4386.922852,4325.641113,4358.846191,4348.461426,4312.94873,4310.641113,4338.077148,4346.538574,4336.282227,4315.0,4638.333496,4587.563965,4476.794922,4573.333496,,,,,,,,,,,,,,,,,,,,,,,,,,,,,,,,,,,,,,,,,,,,,,,,,,,,,,,,,,,,,,,,,,,,,,
1769164108.517905,1769164108.518286,119.0,0.0,4391.538574,4327.307617,4363.846191,4350.641113,4311.538574,4309.102539,4337.692383,4350.384766,4340.897461,4312.692383,4638.846191,4585.769043,4478.077148,4575.384766,,,,,,,,,,,,,,,,,,,,,,,,,,,,,,,,,,,,,,,,,,,,,,,,,,,,,,,,,,,,,,,,,,,,,,
1769164108.525713,1769164108.526294,120.0,0.0,4400.769043,4327.563965,4371.666504,4357.436035,4310.512695,4311.666504,4337.563965,4349.230957,4340.256348,4309.102539,4635.256348,4584.102539,4471.025879,4570.384766,,,,,,,,,,,,,,,,,,,,,,,,,,,,,,,,,,,,,,,,,,,,,,,,,,,,,,,,,,,,,,,,,,,,,,
1769164108.533522,1769164108.534102,121.0,0.0,4399.743652,4328.333496,4372.563965,4354.871582,4310.641113,4310.0,4337.307617,4347.436035,4336.153809,4311.922852,4640.128418,4588.077148,4475.641113,4576.666504,,,,,,,,,,,,,,,,,,,,,,,,,,,,,,,,,,,,,,,,,,,,,,,,,,,,,,,,,,,,,,,,,,,,,,
1769164108.54133,1769164108.542011,122.0,0.0,4387.820313,4321.538574,4366.410156,4346.538574,4309.102539,4308.846191,4341.410156,4346.922852,4330.128418,4311.153809,4637.436035,4587.820313,4474.358887,4574.358887,,,,,,,,,,,,,,,,,,,,,,,,,,,,,,,,,,,,,,,,,,,,,,,,,,,,,,,,,,,,,,,,,,,,,,
1769164108.549139,1769164108.549819,123.0,0.0,4387.179688,4320.769043,4369.358887,4348.077148,4309.743652,4312.820313,4343.461426,4345.0,4327.820313,4307.307617,4635.128418,4587.05127,4471.794922,4568.461426,,,,,,,,,,,,,,,,,,,,,,,,,,,,,,,,,,,,,,,,,,,,,,,,,,,,,,,,,,,,,,,,,,,,,,
1769164108.556947,1769164108.557827,124.0,0.0,4402.94873,4333.846191,4381.794922,4356.666504,4312.179688,4310.512695,4336.666504,4343.205078,4328.589844,4309.743652,4642.820313,4592.820313,4479.358887,4579.230957,,,,,,,,,,,,,,,,,,,,,,,,,,,,,,,,,,,,,,,,,,,,,,,,,,,,,,,,,,,,,,,,,,,,,,
1769164108.564756,1769164108.565636,125.0,0.0,4402.563965,4336.153809,4382.563965,4354.487305,4311.153809,4308.974121,4337.05127,4341.410156,4326.666504,4311.666504,4639.102539,4591.666504,4478.589844,4578.205078,,,,,,,,,,,,,,,,,,,,,,,,,,,,,,,,,,,,,,,,,,,,,,,,,,,,,,,,,,,,,,,,,,,,,,
1769164108.572564,1769164108.573544,126.0,0.0,4381.922852,4322.05127,4372.05127,4342.307617,4311.410156,4313.461426,4341.666504,4343.717773,4330.384766,4309.615234,4627.179688,4584.743652,4471.538574,4558.589844,1.128535,0.264624,0.476886,0.201451,0.206184,1.474001,0.153151,0.373875,0.18095,0.098434,0.768959,0.118906,0.145645,0.22204,0.198397,0.817535,0.155085,0.210889,0.108546,0.069089,0.169412,0.029044,0.084258,0.086187,0.046377,0.144899,0.173744,0.098436,0.108572,0.231166,0.098022,0.125629,0.175531,0.101221,0.108049,0.175779,0.208743,0.116002,0.067592,0.054518,0.28522,0.195915,0.232934,0.19791,0.071279,0.568779,0.390272,0.485353,0.239971,0.128079,0.634848,0.343379,0.508795,0.159278,0.152736,0.678256,0.255541,0.451594,0.084132,0.157501,0.390651,0.168815,0.606696,0.280954,0.153016,0.279893,0.435256,0.452182,0.201474,0.217891
1769164108.580372,1769164108.581353,127.0,0.0,4373.333496,4315.641113,4369.102539,4338.589844,4313.589844,4311.538574,4339.102539,4349.102539,4341.538574,4310.897461,4629.743652,4588.077148,4471.666504,4555.256348,,,,,,,,,,,,,,,,,,,,,,,,,,,,,,,,,,,,,,,,,,,,,,,,,,,,,,,,,,,,,,,,,,,,,,
1769164108.588181,1769164108.588961,0.0,0.0,4384.102539,4321.282227,4375.384766,4345.384766,4310.897461,4307.692383,4337.692383,4351.794922,4344.358887,4315.897461,4637.692383,4595.128418,4476.153809,4568.077148,,,,,,,,,,,,,,,,,,,,,,,,,,,,,,,,,,,,,,,,,,,,,,,,,,,,,,,,,,,,,,,,,,,,,,
1769164108.59599,1769164108.59677,1.0,0.0,4393.846191,4325.0,4381.282227,4348.589844,4307.94873,4311.025879,4341.153809,4349.230957,4339.743652,4318.974121,4640.641113,4595.641113,4481.153809,4570.128418,,,,,,,,,,,,,,,,,,,,,,,,,,,,,,,,,,,,,,,,,,,,,,,,,,,,,,,,,,,,,,,,,,,,,,
1769164108.603798,1769164108.604678,2.0,0.0,4396.410156,4326.282227,4382.179688,4349.358887,4310.128418,4313.333496,4342.05127,4349.743652,4342.307617,4323.333496,4643.461426,4597.820313,4490.512695,4571.410156,,,,,,,,,,,,,,,,,,,,,,,,,,,,,,,,,,,,,,,,,,,,,,,,,,,,,,,,,,,,,,,,,,,,,,
1769164108.611606,1769164108.612486,3.0,0.0,4394.487305,4326.282227,4385.256348,4350.256348,4310.256348,4312.05127,4342.05127,4355.0,4345.897461,4324.487305,4647.179688,4603.589844,4492.179688,4578.077148,,,,,,,,,,,,,,,,,,,,,,,,,,,,,,,,,,,,,,,,,,,,,,,,,,,,,,,,,,,,,,,,,,,,,,
1769164108.619415,1769164108.620495,4.0,0.0,4389.358887,4325.512695,4389.615234,4349.615234,4308.717773,4312.692383,4342.179688,4356.025879,4342.436035,4315.256348,4643.717773,4600.384766,4480.384766,4573.589844,,,,,,,,,,,,,,,,,,,,,,,,,,,,,,,,,,,,,,,,,,,,,,,,,,,,,,,,,,,,,,,,,,,,,,
1769164108.627223,1769164108.628303,5.0,0.0,4386.666504,4325.256348,4388.974121,4353.205078,4311.282227,4313.461426,4342.05127,4355.384766,4338.717773,4308.589844,4634.871582,4588.589844,4474.358887,4564.743652,,,,,,,,,,,,,,,,,,,,,,,,,,,,,,,,,,,,,,,,,,,,,,,,,,,,,,,,,,,,,,,,,,,,,,
1769164108.635032,1769164108.636012,6.0,0.0,4392.692383,4326.282227,4390.769043,4357.820313,4312.692383,4312.563965,4343.717773,4356.538574,4339.230957,4312.820313,4633.846191,4586.153809,4476.538574,4561.410156,,,,,,,,,,,,,,,,,,,,,,,,,,,,,,,,,,,,,,,,,,,,,,,,,,,,,,,,,,,,,,,,,,,,,,
1769164108.64284,1769164108.64382,7.0,0.0,4397.563965,4327.436035,4396.410156,4356.153809,4312.179688,4315.256348,4343.717773,4357.05127,4341.282227,4315.0,4640.769043,4596.666504,4477.820313,4566.794922,,,,,,,,,,,,,,,,,,,,,,,,,,,,,,,,,,,,,,,,,,,,,,,,,,,,,,,,,,,,,,,,,,,,,,
1769164108.650649,1769164108.651429,8.0,0.0,4391.410156,4325.384766,4397.820313,4352.307617,4316.153809,4322.307617,4343.717773,4356.666504,4339.102539,4310.897461,4642.436035,4602.179688,4479.230957,4571.666504,,,,,,,,,,,,,,,,,,,,,,,,,,,,,,,,,,,,,,,,,,,,,,,,,,,,,,,,,,,,,,,,,,,,,,
1769164108.658457,1769164108.659237,9.0,0.0,4388.717773,4325.128418,4400.0,4354.615234,4322.692383,4320.256348,4343.846191,4358.077148,4337.436035,4310.384766,4638.717773,4599.615234,4480.128418,4572.820313,,,,,,,,,,,,,,,,,,,,,,,,,,,,,,,,,,,,,,,,,,,,,,,,,,,,,,,,,,,,,,,,,,,,,,
1769164108.666266,1769164108.667146,10.0,0.0,4397.05127,4327.820313,4404.743652,4358.333496,4324.102539,4309.615234,4340.897461,4359.102539,4339.871582,4313.205078,4641.410156,4600.897461,4480.512695,4579.358887,,,,,,,,,,,,,,,,,,,,,,,,,,,,,,,,,,,,,,,,,,,,,,,,,,,,,,,,,,,,,,,,,,,,,,
1769164108.674074,1769164108.674954,11.0,0.0,4395.384766,4325.641113,4403.974121,4355.512695,4321.153809,4307.436035,4338.974121,4357.94873,4339.615234,4313.846191,4643.717773,4599.615234,4480.512695,4581.282227,,,,,,,,,,,,,,,,,,,,,,,,,,,,,,,,,,,,,,,,,,,,,,,,,,,,,,,,,,,,,,,,,,,,,,
1769164108.681883,1769164108.682563,12.0,0.0,4385.641113,4321.794922,4404.358887,4351.153809,4318.974121,4310.256348,4339.358887,4357.436035,4337.563965,4311.153809,4636.025879,4593.974121,4476.025879,4570.384766,,,,,,,,,,,,,,,,,,,,,,,,,,,,,,,,,,,,,,,,,,,,,,,,,,,,,,,,,,,,,,,,,,,,,,
1769164108.689691,1769164108.690371,13.0,0.0,4391.025879,4324.102539,4410.769043,4353.717773,4319.615234,4308.846191,4340.512695,4357.820313,4339.230957,4307.563965,4632.307617,4597.820313,4470.512695,4571.538574,,,,,,,,,,,,,,,,,,,,,,,,,,,,,,,,,,,,,,,,,,,,,,,,,,,,,,,,,,,,,,,,,,,,,,
1769164108.697499,1769164108.69808,14.0,0.0,4399.358887,4329.871582,4415.897461,4356.922852,4319.230957,4308.589844,4342.179688,4361.538574,4341.666504,4311.025879,4639.743652,4603.333496,4474.102539,4584.358887,0.923934,0.238633,0.43873,0.175073,0.222448,1.222199,0.172209,0.44391,0.148392,0.100933,0.66976,0.147769,0.12851,0.218158,0.226557,0.661823,0.164455,0.284111,0.096883,0.067004,0.160678,0.035701,0.083223,0.071441,0.042484,0.166046,0.177078,0.101306,0.124805,0.282749,0.11887,0.118133,0.139332,0.103739,0.130524,0.208127,0.214916,0.131573,0.061277,0.059261,0.328548,0.188586,0.235951,0.176061,0.068978,0.596596,0.342924,0.440363,0.203621,0.132907,0.650987,0.304881,0.476084,0.132789,0.143136,0.636706,0.240468,0.453369,0.069958,0.155141,0.375011,0.142052,0.645481,0.284813,0.180671,0.306305,0.39211,0.389172,0.187403,0.18196
1769164108.705308,1769164108.705888,15.0,0.0,4391.410156,4325.384766,4413.205078,4352.820313,4315.897461,4310.256348,4341.922852,4363.333496,4341.666504,4315.384766,4644.487305,4600.256348,4478.461426,4579.102539,,,,,,,,,,,,,,,,,,,,,,,,,,,,,,,,,,,,,,,,,,,,,,,,,,,,,,,,,,,,,,,,,,,,,,
1769164108.713116,1769164108.713497,16.0,0.0,4380.256348,4313.589844,4408.333496,4346.666504,4313.974121,4310.897461,4343.333496,4360.384766,4337.820313,4311.410156,4637.820313,4598.205078,4474.615234,4567.436035,,,,,,,,,,,,,,,,,,,,,,,,,,,,,,,,,,,,,,,,,,,,,,,,,,,,,,,,,,,,,,,,,,,,,,
1769164108.720925,1769164108.721305,17.0,0.0,4384.358887,4312.820313,4417.307617,4349.487305,4316.666504,4312.179688,4350.0,4357.563965,4329.358887,4308.974121,4630.897461,4603.077148,4470.897461,4570.384766,,,,,,,,,,,,,,,,,,,,,,,,,,,,,,,,,,,,,,,,,,,,,,,,,,,,,,,,,,,,,,,,,,,,,,
1769164108.728733,1769164108.729214,18.0,0.0,4394.615234,4322.307617,4431.025879,4355.641113,4317.563965,4313.333496,4350.641113,4355.128418,4323.077148,4312.05127,4630.897461,4602.05127,4470.512695,4574.487305,,,,,,,,,,,,,,,,,,,,,,,,,,,,,,,,,,,,,,,,,,,,,,,,,,,,,,,,,,,,,,,,,,,,,,
1769164108.736542,1769164108.737022,19.0,0.0,4395.641113,4323.589844,4423.717773,4352.820313,4312.94873,4311.538574,4343.077148,4354.102539,4324.230957,4310.769043,4635.0,4593.846191,4470.769043,4573.589844,,,,,,,,,,,,,,,,,,,,,,,,,,,,,,,,,,,,,,,,,,,,,,,,,,,,,,,,,,,,,,,,,,,,,,
1769164108.74435,1769164108.74503,20.0,0.0,4389.487305,4317.820313,4409.743652,4348.205078,4309.871582,4305.769043,4339.102539,4351.666504,4327.05127,4308.846191,4636.922852,4592.05127,4472.436035,4571.538574,,,,,,,,,,,,,,,,,,,,,,,,,,,,,,,,,,,,,,,,,,,,,,,,,,,,,,,,,,,,,,,,,,,,,,
1769164108.752159,1769164108.752839,21.0,0.0,4380.769043,4317.179688,4416.922852,4348.077148,4311.025879,4302.307617,4339.871582,4345.897461,4326.282227,4311.666504,4634.615234,4593.846191,4475.256348,4571.153809,,,,,,,,,,,,,,,,,,,,,,,,,,,,,,,,,,,,,,,,,,,,,,,,,,,,,,,,,,,,,,,,,,,,,,
1769164108.759967,1769164108.760747,22.0,0.0,4380.512695,4320.0,4429.615234,4350.384766,4311.153809,4307.563965,4339.615234,4343.717773,4326.153809,4312.563965,4636.794922,4592.692383,4476.025879,4572.179688,,,,,,,,,,,,,,,,,,,,,,,,,,,,,,,,,,,,,,,,,,,,,,,,,,,,,,,,,,,,,,,,,,,,,,
1769164108.767775,1769164108.768555,23.0,0.0,4392.820313,4325.512695,4431.410156,4355.641113,4310.128418,4308.717773,4339.102539,4344.743652,4332.307617,4311.410156,4644.102539,4594.230957,4477.05127,4572.692383,,,,,,,,,,,,,,,,,,,,,,,,,,,,,,,,,,,,,,,,,,,,,,,,,,,,,,,,,,,,,,,,,,,,,,
1769164108.775584,1769164108.776564,24.0,0.0,4397.94873,4327.436035,4430.128418,4359.487305,4308.333496,4302.307617,4339.487305,4344.102539,4336.410156,4312.436035,4645.897461,4599.230957,4477.692383,4574.487305,,,,,,,,,,,,,,,,,,,,,,,,,,,,,,,,,,,,,,,,,,,,,,,,,,,,,,,,,,,,,,,,,,,,,,
1769164108.783392,1769164108.784372,25.0,0.0,4385.256348,4318.077148,4430.128418,4352.820313,4308.205078,4304.230957,4341.666504,4347.436035,4331.282227,4313.974121,4638.461426,4598.333496,4470.0,4572.563965,,,,,,,,,,,,,,,,,,,,,,,,,,,,,,,,,,,,,,,,,,,,,,,,,,,,,,,,,,,,,,,,,,,,,,
1769164108.791201,1769164108.79228,26.0,0.0,4372.307617,4308.589844,4424.487305,4342.563965,4308.589844,4312.692383,4343.717773,4350.897461,4326.153809,4308.974121,4628.974121,4590.256348,4458.974121,4563.205078,,,,,,,,,,,,,,,,,,,,,,,,,,,,,,,,,,,,,,,,,,,,,,,,,,,,,,,,,,,,,,,,,,,,,,
1769164108.799009,1769164108.800089,27.0,0.0,4369.102539,4308.205078,4418.974121,4340.0,4306.153809,4311.794922,4342.307617,4345.641113,4326.794922,4302.692383,4627.436035,4582.436035,4458.077148,4557.820313,,,,,,,,,,,,,,,,,,,,,,,,,,,,,,,,,,,,,,,,,,,,,,,,,,,,,,,,,,,,,,,,,,,,,,
1769164108.806818,1769164108.807897,28.0,0.0,4373.589844,4312.179688,4423.461426,4344.230957,4303.717773,4306.538574,4341.410156,4341.538574,4328.846191,4305.384766,4630.897461,4582.692383,4465.128418,4560.769043,,,,,,,,,,,,,,,,,,,,,,,,,,,,,,,,,,,,,,,,,,,,,,,,,,,,,,,,,,,,,,,,,,,,,,
1769164108.814626,1769164108.815706,29.0,0.0,4376.922852,4311.666504,4428.077148,4348.846191,4305.0,4313.589844,4344.230957,4343.846191,4325.128418,4305.128418,4625.769043,4582.94873,4461.153809,4555.128418,,,,,,,,,,,,,,,,,,,,,,,,,,,,,,,,,,,,,,,,,,,,,,,,,,,,,,,,,,,,,,,,,,,,,,
1769164108.822435,1769164108.823414,30.0,0.0,4374.615234,4311.153809,4427.179688,4351.153809,4306.794922,4320.128418,4345.384766,4344.487305,4317.820313,4291.025879,4617.179688,4580.769043,4450.897461,4547.820313,0.702945,0.212741,0.407022,0.160855,0.245479,0.931138,0.201653,0.513547,0.119343,0.102434,0.613245,0.173439,0.113835,0.201506,0.238269,0.523276,0.176476,0.368587,0.082983,0.065936,0.150538,0.049395,0.08348,0.054382,0.036823,0.176608,0.187023,0.111107,0.135047,0.316739,0.144335,0.130552,0.113905,0.099911,0.146192,0.241063,0.238832,0.147198,0.057498,0.06263,0.366027,0.176685,0.231438,0.146981,0.063313,0.588938,0.282242,0.379502,0.162246,0.138121,0.630459,0.257108,0.42613,0.108512,0.139579,0.575599,0.243263,0.438629,0.064043,0.159014,0.336701,0.124191,0.6567,0.276896,0.214585,0.324375,0.327727,0.342336,0.194582,0.168521
1769164108.830243,1769164108.831223,31.0,0.0,4380.897461,4323.974121,4430.0,4356.538574,4308.077148,4309.615234,4338.333496,4341.538574,4322.820313,4293.333496,4625.769043,4588.589844,4463.205078,4561.666504,,,,,,,,,,,,,,,,,,,,,,,,,,,,,,,,,,,,,,,,,,,,,,,,,,,,,,,,,,,,,,,,,,,,,,
1769164108.838051,1769164108.838831,32.0,0.0,4384.615234,4330.0,4431.282227,4356.666504,4309.102539,4303.333496,4334.871582,4342.94873,4332.820313,4315.256348,4636.025879,4594.487305,4477.05127,4576.025879,,,,,,,,,,,,,,,,,,,,,,,,,,,,,,,,,,,,,,,,,,,,,,,,,,,,,,,,,,,,,,,,,,,,,,
1769164108.84586,1769164108.84664,33.0,0.0,4370.384766,4315.897461,4427.692383,4347.05127,4306.153809,4308.717773,4340.769043,4347.94873,4330.0,4317.179688,4630.128418,4582.436035,4466.410156,4567.307617,,,,,,,,,,,,,,,,,,,,,,,,,,,,,,,,,,,,,,,,,,,,,,,,,,,,,,,,,,,,,,,,,,,,,,
1769164108.853668,1769164108.854348,34.0,0.0,4368.205078,4314.487305,4435.0,4350.0,4304.102539,4306.922852,4343.077148,4350.769043,4328.333496,4307.307617,4632.179688,4581.410156,4463.077148,4565.384766,,,,,,,,,,,,,,,,,,,,,,,,,,,,,,,,,,,,,,,,,,,,,,,,,,,,,,,,,,,,,,,,,,,,,,
1769164108.861477,1769164108.862157,35.0,0.0,4381.922852,4326.794922,4446.282227,4360.897461,4302.179688,4301.794922,4339.487305,4351.025879,4338.333496,4311.538574,4642.692383,4599.230957,4477.563965,4580.769043,,,,,,,,,,,,,,,,,,,,,,,,,,,,,,,,,,,,,,,,,,,,,,,,,,,,,,,,,,,,,,,,,,,,,,
1769164108.869285,1769164108.870165,36.0,0.0,4383.717773,4322.179688,4442.179688,4351.794922,4296.410156,4306.282227,4340.0,4347.436035,4336.153809,4313.333496,4636.410156,4598.974121,4471.794922,4580.641113,,,,,,,,,,,,,,,,,,,,,,,,,,,,,,,,,,,,,,,,,,,,,,,,,,,,,,,,,,,,,,,,,,,,,,
1769164108.877094,1769164108.877974,37.0,0.0,4380.384766,4317.820313,4437.307617,4342.563965,4294.487305,4308.717773,4342.563965,4342.692383,4324.871582,4307.179688,4625.641113,4583.461426,4455.512695,4565.384766,,,,,,,,,,,,,,,,,,,,,,,,,,,,,,,,,,,,,,,,,,,,,,,,,,,,,,,,,,,,,,,,,,,,,,
1769164108.884902,1769164108.885682,38.0,0.0,4380.0,4327.05127,4439.871582,4354.230957,4299.230957,4308.461426,4340.897461,4346.282227,4330.128418,4310.0,4633.461426,4582.94873,4466.922852,4563.589844,,,,,,,,,,,,,,,,,,,,,,,,,,,,,,,,,,,,,,,,,,,,,,,,,,,,,,,,,,,,,,,,,,,,,,
1769164108.892711,1769164108.893491,39.0,0.0,4376.153809,4327.05127,4442.820313,4360.769043,4304.871582,4311.282227,4341.922852,4350.897461,4336.153809,4314.487305,4643.589844,4592.307617,4481.282227,4570.128418,,,,,,,,,,,,,,,,,,,,,,,,,,,,,,,,,,,,,,,,,,,,,,,,,,,,,,,,,,,,,,,,,,,,,,
1769164108.900519,1769164108.901099,40.0,0.0,4382.94873,4323.846191,4450.512695,4357.94873,4304.358887,4307.94873,4341.922852,4345.641113,4327.820313,4310.128418,4640.769043,4600.384766,4477.05127,4575.769043,,,,,,,,,,,,,,,,,,,,,,,,,,,,,,,,,,,,,,,,,,,,,,,,,,,,,,,,,,,,,,,,,,,,,,
1769164108.908328,1769164108.908908,41.0,0.0,4398.974121,4330.256348,4459.871582,4361.282227,4300.128418,4303.077148,4338.461426,4342.563965,4327.563965,4308.974121,4639.102539,4600.641113,4474.102539,4579.487305,,,,,,,,,,,,,,,,,,,,,,,,,,,,,,,,,,,,,,,,,,,,,,,,,,,,,,,,,,,,,,,,,,,,,,
1769164108.916136,1769164108.916616,42.0,0.0,4397.563965,4330.641113,4458.589844,4362.05127,4297.563965,4307.307617,4340.769043,4348.589844,4335.769043,4311.794922,4641.153809,4592.05127,4476.794922,4575.512695,,,,,,,,,,,,,,,,,,,,,,,,,,,,,,,,,,,,,,,,,,,,,,,,,,,,,,,,,,,,,,,,,,,,,,
1769164108.923945,1769164108.924425,43.0,0.0,4381.282227,4321.410156,4453.589844,4355.384766,4297.436035,4310.512695,4344.871582,4350.897461,4333.333496,4312.563965,4640.897461,4590.128418,4475.512695,4564.871582,,,,,,,,,,,,,,,,,,,,,,,,,,,,,,,,,,,,,,,,,,,,,,,,,,,,,,,,,,,,,,,,,,,,,,
1769164108.931753,1769164108.932433,44.0,0.0,4377.94873,4318.717773,4455.512695,4354.102539,4294.615234,4303.717773,4342.94873,4345.769043,4326.922852,4308.589844,4638.846191,4600.769043,4473.461426,4566.538574,,,,,,,,,,,,,,,,,,,,,,,,,,,,,,,,,,,,,,,,,,,,,,,,,,,,,,,,,,,,,,,,,,,,,,
1769164108.939561,1769164108.940241,45.0,0.0,4388.461426,4323.717773,4460.512695,4358.589844,4294.487305,4299.871582,4339.615234,4343.077148,4326.922852,4306.282227,4636.538574,4603.461426,4475.512695,4574.230957,,,,,,,,,,,,,,,,,,,,,,,,,,,,,,,,,,,,,,,,,,,,,,,,,,,,,,,,,,,,,,,,,,,,,,
1769164108.94737,1769164108.94815,46.0,0.0,4388.077148,4320.0,4461.538574,4358.077148,4296.538574,4307.05127,4343.077148,4344.487305,4328.077148,4309.358887,4632.436035,4595.0,4472.94873,4565.897461,0.560224,0.196652,0.39204,0.165851,0.274337,0.680783,0.234245,0.563947,0.101826,0.104193,0.621653,0.186979,0.10768,0.179539,0.230248,0.42606,0.187719,0.438267,0.07096,0.066465,0.139283,0.069626,0.084914,0.038623,0.03064,0.174325,0.198345,0.125709,0.137108,0.32262,0.161357,0.159907,0.103637,0.090438,0.149489,0.268447,0.261067,0.162041,0.055606,0.062877,0.386941,0.157991,0.231237,0.118397,0.055595,0.552191,0.214299,0.320766,0.122394,0.139961,0.588083,0.204693,0.374611,0.092293,0.141537,0.504226,0.246649,0.404401,0.069923,0.167613,0.28195,0.115896,0.636934,0.260894,0.247213,0.343273,0.258233,0.328474,0.22657,0.18319
1769164108.955178,1769164108.955958,47.0,0.0,4378.717773,4309.358887,4460.384766,4354.102539,4291.282227,4312.563965,4347.307617,4347.94873,4331.922852,4311.410156,4633.974121,4594.743652,4470.641113,4557.563965,,,,,,,,,,,,,,,,,,,,,,,,,,,,,,,,,,,,,,,,,,,,,,,,,,,,,,,,,,,,,,,,,,,,,,
1769164108.962987,1769164108.963966,48.0,0.0,4382.05127,4308.974121,4461.794922,4353.717773,4288.589844,4310.769043,4344.102539,4350.512695,4336.282227,4311.538574,4642.563965,4603.333496,4475.769043,4569.230957,,,,,,,,,,,,,,,,,,,,,,,,,,,,,,,,,,,,,,,,,,,,,,,,,,,,,,,,,,,,,,,,,,,,,,
1769164108.970795,1769164108.971775,49.0,0.0,4388.974121,4314.871582,4465.0,4356.666504,4293.461426,4308.333496,4339.871582,4350.769043,4334.743652,4311.666504,4641.794922,4606.025879,4477.820313,4577.307617,,,,,,,,,,,,,,,,,,,,,,,,,,,,,,,,,,,,,,,,,,,,,,,,,,,,,,,,,,,,,,,,,,,,,,
1769164108.978604,1769164108.979683,50.0,0.0,4385.641113,4316.666504,4464.615234,4357.05127,4293.205078,4308.333496,4342.179688,4350.512695,4333.205078,4311.410156,4633.077148,4602.563965,4473.717773,4568.461426,,,,,,,,,,,,,,,,,,,,,,,,,,,,,,,,,,,,,,,,,,,,,,,,,,,,,,,,,,,,,,,,,,,,,,
1769164108.986412,1769164108.987492,51.0,0.0,4383.333496,4320.0,4464.615234,4355.641113,4291.153809,4307.563965,4343.205078,4347.307617,4333.974121,4312.307617,4636.794922,4601.538574,4475.0,4568.205078,,,,,,,,,,,,,,,,,,,,,,,,,,,,,,,,,,,,,,,,,,,,,,,,,,,,,,,,,,,,,,,,,,,,,,
1769164108.994221,1769164108.9951,52.0,0.0,4383.205078,4320.128418,4462.820313,4355.769043,4292.820313,4300.769043,4335.897461,4343.461426,4334.358887,4313.717773,4647.307617,4604.230957,4480.0,4574.871582,,,,,,,,,,,,,,,,,,,,,,,,,,,,,,,,,,,,,,,,,,,,,,,,,,,,,,,,,,,,,,,,,,,,,,
1769164109.002029,1769164109.002909,53.0,0.0,4380.897461,4312.05127,4459.358887,4356.922852,4290.0,4294.487305,4332.436035,4340.641113,4333.077148,4311.538574,4642.179688,4603.717773,4477.563965,4572.94873,,,,,,,,,,,,,,,,,,,,,,,,,,,,,,,,,,,,,,,,,,,,,,,,,,,,,,,,,,,,,,,,,,,,,,
1769164109.009838,1769164109.010617,54.0,0.0,4384.358887,4312.563965,4465.128418,4358.717773,4288.205078,4300.128418,4337.692383,4340.384766,4327.820313,4308.589844,4630.769043,4601.153809,4473.077148,4577.05127,,,,,,,,,,,,,,,,,,,,,,,,,,,,,,,,,,,,,,,,,,,,,,,,,,,,,,,,,,,,,,,,,,,,,,
1769164109.017646,1769164109.018426,55.0,0.0,4389.743652,4321.666504,4475.384766,4359.102539,4295.128418,4309.871582,4341.153809,4342.179688,4323.974121,4310.128418,4630.256348,4600.641113,4474.230957,4578.974121,,,,,,,,,,,,,,,,,,,,,,,,,,,,,,,,,,,,,,,,,,,,,,,,,,,,,,,,,,,,,,,,,,,,,,
1769164109.025454,1769164109.026034,56.0,0.0,4387.94873,4322.436035,4476.794922,4358.333496,4296.538574,4311.025879,4342.179688,4341.922852,4329.743652,4311.922852,4637.692383,4601.538574,4477.05127,4569.358887,,,,,,,,,,,,,,,,,,,,,,,,,,,,,,,,,,,,,,,,,,,,,,,,,,,,,,,,,,,,,,,,,,,,,,
1769164109.033263,1769164109.033843,57.0,0.0,4380.897461,4315.512695,4473.717773,4359.615234,4291.410156,4309.487305,4342.820313,4342.692383,4337.563965,4312.692383,4643.717773,4602.692383,4476.922852,4562.94873,,,,,,,,,,,,,,,,,,,,,,,,,,,,,,,,,,,,,,,,,,,,,,,,,,,,,,,,,,,,,,,,,,,,,,
1769164109.041071,1769164109.041551,58.0,0.0,4375.128418,4311.282227,4473.077148,4356.666504,4289.615234,4312.563965,4343.077148,4346.410156,4336.025879,4311.282227,4643.205078,4602.563965,4475.128418,4565.384766,,,,,,,,,,,,,,,,,,,,,,,,,,,,,,,,,,,,,,,,,,,,,,,,,,,,,,,,,,,,,,,,,,,,,,
1769164109.04888,1769164109.04936,59.0,0.0,4380.0,4310.384766,4474.230957,4348.846191,4285.256348,4314.358887,4342.179688,4350.128418,4331.538574,4307.94873,4640.0,4603.205078,4476.153809,4577.692383,,,,,,,,,,,,,,,,,,,,,,,,,,,,,,,,,,,,,,,,,,,,,,,,,,,,,,,,,,,,,,,,,,,,,,
1769164109.056688,1769164109.057368,60.0,0.0,4390.0,4310.384766,4476.794922,4348.846191,4279.743652,4310.384766,4341.410156,4352.179688,4337.692383,4310.0,4640.641113,4607.179688,4477.94873,4587.179688,,,,,,,,,,,,,,,,,,,,,,,,,,,,,,,,,,,,,,,,,,,,,,,,,,,,,,,,,,,,,,,,,,,,,,
1769164109.064497,1769164109.065177,61.0,0.0,4385.897461,4309.487305,4477.436035,4353.717773,4281.666504,4304.615234,4341.282227,4349.230957,4344.871582,4314.615234,4642.436035,4607.05127,4475.897461,4577.307617,,,,,,,,,,,,,,,,,,,,,,,,,,,,,,,,,,,,,,,,,,,,,,,,,,,,,,,,,,,,,,,,,,,,,,
1769164109.072305,1769164109.073085,62.0,0.0,4374.230957,4308.846191,4475.256348,4352.307617,4284.102539,4302.307617,4340.256348,4345.897461,4337.692383,4313.461426,4640.897461,4602.563965,4476.794922,4565.641113,0.465263,0.200563,0.3903,0.196184,0.305455,0.513942,0.262052,0.578407,0.099302,0.108145,0.710296,0.185207,0.109774,0.164205,0.207379,0.375731,0.197934,0.470978,0.065198,0.069837,0.136509,0.09399,0.085452,0.0272,0.025356,0.163474,0.206588,0.13929,0.13101,0.298707,0.167532,0.197968,0.106159,0.078012,0.139279,0.292978,0.269118,0.176551,0.053592,0.059648,0.386197,0.145396,0.253677,0.097261,0.048686,0.495311,0.154404,0.277891,0.091453,0.136745,0.535667,0.159196,0.33783,0.090013,0.147009,0.437807,0.239763,0.355537,0.089802,0.176844,0.227833,0.12071,0.589441,0.245057,0.270857,0.365957,0.204058,0.351753,0.278973,0.220677
1769164109.080114,1769164109.080893,63.0,0.0,4371.922852,4308.589844,4476.025879,4350.256348,4280.769043,4307.179688,4342.692383,4345.512695,4326.794922,4306.410156,4635.641113,4601.025879,4476.538574,4567.820313,,,,,,,,,,,,,,,,,,,,,,,,,,,,,,,,,,,,,,,,,,,,,,,,,,,,,,,,,,,,,,,,,,,,,,
1769164109.087922,1769164109.088502,64.0,0.0,4376.282227,4309.487305,4478.589844,4353.333496,4280.641113,4311.410156,4344.358887,4344.615234,4323.589844,4304.871582,4631.025879,4603.077148,4471.538574,4570.641113,,,,,,,,,,,,,,,,,,,,,,,,,,,,,,,,,,,,,,,,,,,,,,,,,,,,,,,,,,,,,,,,,,,,,,
1769164109.09573,1769164109.09631,65.0,0.0,4381.025879,4314.487305,4478.974121,4355.641113,4286.153809,4302.94873,4338.461426,4342.436035,4327.307617,4310.0,4636.410156,4606.538574,4480.0,4573.974121,,,,,,,,,,,,,,,,,,,,,,,,,,,,,,,,,,,,,,,,,,,,,,,,,,,,,,,,,,,,,,,,,,,,,,
1769164109.103539,1769164109.104019,66.0,0.0,4381.922852,4318.717773,4476.410156,4358.077148,4287.307617,4292.307617,4333.846191,4343.974121,4330.512695,4312.94873,4643.717773,4606.282227,4492.692383,4578.333496,,,,,,,,,,,,,,,,,,,,,,,,,,,,,,,,,,,,,,,,,,,,,,,,,,,,,,,,,,,,,,,,,,,,,,
1769164109.111347,1769164109.111827,67.0,0.0,4375.897461,4320.897461,4475.128418,4360.769043,4283.205078,4297.05127,4337.692383,4346.025879,4330.128418,4311.282227,4639.487305,4601.410156,4484.487305,4566.538574,,,,,,,,,,,,,,,,,,,,,,,,,,,,,,,,,,,,,,,,,,,,,,,,,,,,,,,,,,,,,,,,,,,,,,
1769164109.119156,1769164109.119436,68.0,0.0,4370.641113,4320.128418,4478.205078,4358.461426,4281.282227,4306.410156,4341.153809,4342.436035,4326.666504,4307.820313,4630.384766,4597.307617,4467.94873,4551.410156,,,,,,,,,,,,,,,,,,,,,,,,,,,,,,,,,,,,,,,,,,,,,,,,,,,,,,,,,,,,,,,,,,,,,,
1769164109.126964,1769164109.127245,69.0,0.0,4372.179688,4313.846191,4481.794922,4354.743652,4281.153809,4307.307617,4341.153809,4341.410156,4326.410156,4305.769043,4627.820313,4600.769043,4466.025879,4555.128418,,,,,,,,,,,,,,,,,,,,,,,,,,,,,,,,,,,,,,,,,,,,,,,,,,,,,,,,,,,,,,,,,,,,,,
1769164109.134773,1769164109.135153,70.0,0.0,4369.487305,4307.820313,4478.846191,4351.025879,4279.615234,4306.538574,4342.436035,4347.179688,4331.410156,4307.820313,4631.666504,4603.589844,4473.205078,4566.922852,,,,,,,,,,,,,,,,,,,,,,,,,,,,,,,,,,,,,,,,,,,,,,,,,,,,,,,,,,,,,,,,,,,,,,
1769164109.142581,1769164109.142961,71.0,0.0,4366.153809,4310.512695,4473.333496,4349.358887,4278.846191,4307.563965,4341.794922,4351.410156,4332.820313,4312.307617,4636.153809,4597.820313,4478.846191,4573.589844,,,,,,,,,,,,,,,,,,,,,,,,,,,,,,,,,,,,,,,,,,,,,,,,,,,,,,,,,,,,,,,,,,,,,,
1769164109.15039,1769164109.15097,72.0,0.0,4371.922852,4312.179688,4478.589844,4352.436035,4279.871582,4310.256348,4342.05127,4350.512695,4329.615234,4310.256348,4632.94873,4593.205078,4477.179688,4564.358887,,,,,,,,,,,,,,,,,,,,,,,,,,,,,,,,,,,,,,,,,,,,,,,,,,,,,,,,,,,,,,,,,,,,,,
1769164109.158198,1769164109.158778,73.0,0.0,4380.897461,4311.666504,4491.153809,4356.410156,4279.230957,4309.743652,4344.743652,4345.769043,4324.230957,4305.256348,4627.307617,4599.487305,4470.256348,4552.94873,,,,,,,,,,,,,,,,,,,,,,,,,,,,,,,,,,,,,,,,,,,,,,,,,,,,,,,,,,,,,,,,,,,,,,
1769164109.166006,1769164109.166686,74.0,0.0,4389.102539,4317.307617,4496.153809,4360.0,4278.717773,4298.077148,4342.307617,4344.615234,4326.538574,4307.436035,4635.0,4611.666504,4473.205078,4566.538574,,,,,,,,,,,,,,,,,,,,,,,,,,,,,,,,,,,,,,,,,,,,,,,,,,,,,,,,,,,,,,,,,,,,,,
1769164109.173815,1769164109.174495,75.0,0.0,4387.05127,4318.077148,4488.846191,4359.871582,4281.666504,4289.487305,4338.333496,4349.230957,4342.94873,4312.94873,4647.05127,4614.487305,4482.692383,4582.692383,,,,,,,,,,,,,,,,,,,,,,,,,,,,,,,,,,,,,,,,,,,,,,,,,,,,,,,,,,,,,,,,,,,,,,
1769164109.181623,1769164109.182503,76.0,0.0,4367.692383,4310.641113,4478.077148,4350.0,4283.974121,4298.461426,4338.717773,4353.974121,4355.256348,4313.077148,4639.743652,4600.769043,4479.871582,4568.846191,,,,,,,,,,,,,,,,,,,,,,,,,,,,,,,,,,,,,,,,,,,,,,,,,,,,,,,,,,,,,,,,,,,,,,
1769164109.189432,1769164109.190311,77.0,0.0,4350.512695,4303.589844,4469.743652,4339.871582,4281.666504,4303.077148,4337.94873,4350.384766,4348.846191,4307.692383,4622.692383,4584.358887,4470.128418,4546.666504,,,,,,,,,,,,,,,,,,,,,,,,,,,,,,,,,,,,,,,,,,,,,,,,,,,,,,,,,,,,,,,,,,,,,,
1769164109.19724,1769164109.19802,78.0,0.0,4360.128418,4306.410156,4474.871582,4347.179688,4278.846191,4298.717773,4337.05127,4343.846191,4339.230957,4307.820313,4629.358887,4588.333496,4475.128418,4552.692383,0.433902,0.22166,0.389351,0.253737,0.334855,0.423448,0.277807,0.552585,0.110343,0.116487,0.778674,0.169819,0.116386,0.165951,0.179773,0.360843,0.203484,0.458485,0.069298,0.077333,0.146277,0.118183,0.084067,0.02223,0.022053,0.148516,0.209812,0.150941,0.118593,0.253583,0.157291,0.235247,0.116125,0.065924,0.119423,0.321544,0.261277,0.188801,0.049812,0.054285,0.371819,0.156597,0.303952,0.086067,0.046407,0.437109,0.117998,0.254228,0.074605,0.130595,0.485116,0.132718,0.324782,0.103362,0.154951,0.385227,0.220036,0.301132,0.122865,0.183872,0.197306,0.13656,0.525169,0.23634,0.281835,0.408855,0.179703,0.403322,0.338046,0.268844
1769164109.205049,1769164109.205828,79.0,0.0,4377.05127,4315.512695,4491.282227,4357.820313,4278.589844,4301.282227,4338.589844,4343.205078,4342.563965,4313.077148,4644.743652,4601.794922,4484.230957,4564.615234,,,,,,,,,,,,,,,,,,,,,,,,,,,,,,,,,,,,,,,,,,,,,,,,,,,,,,,,,,,,,,,,,,,,,,
1769164109.212857,1769164109.213437,80.0,0.0,4371.410156,4315.128418,4490.641113,4351.153809,4278.205078,4302.179688,4336.794922,4342.563965,4343.589844,4309.230957,4635.384766,4598.333496,4476.025879,4555.641113,,,,,,,,,,,,,,,,,,,,,,,,,,,,,,,,,,,,,,,,,,,,,,,,,,,,,,,,,,,,,,,,,,,,,,
1769164109.220666,1769164109.221246,81.0,0.0,4362.05127,4308.333496,4475.897461,4340.384766,4277.94873,4297.179688,4335.256348,4340.256348,4339.102539,4303.077148,4627.179688,4593.205078,4469.358887,4553.974121,,,,,,,,,,,,,,,,,,,,,,,,,,,,,,,,,,,,,,,,,,,,,,,,,,,,,,,,,,,,,,,,,,,,,,
1769164109.228474,1769164109.228954,82.0,0.0,4363.333496,4308.205078,4474.230957,4340.641113,4279.358887,4302.05127,4340.769043,4343.333496,4341.153809,4307.94873,4641.922852,4602.05127,4477.436035,4570.256348,,,,,,,,,,,,,,,,,,,,,,,,,,,,,,,,,,,,,,,,,,,,,,,,,,,,,,,,,,,,,,,,,,,,,,
1769164109.236283,1769164109.236763,83.0,0.0,4360.512695,4310.256348,4478.077148,4345.384766,4280.512695,4311.282227,4344.358887,4343.846191,4344.358887,4312.307617,4648.846191,4601.538574,4481.025879,4571.025879,,,,,,,,,,,,,,,,,,,,,,,,,,,,,,,,,,,,,,,,,,,,,,,,,,,,,,,,,,,,,,,,,,,,,,
1769164109.244091,1769164109.244371,84.0,0.0,4358.077148,4311.282227,4477.820313,4348.717773,4280.641113,4306.153809,4340.128418,4341.025879,4342.307617,4307.307617,4639.230957,4590.384766,4476.410156,4555.512695,,,,,,,,,,,,,,,,,,,,,,,,,,,,,,,,,,,,,,,,,,,,,,,,,,,,,,,,,,,,,,,,,,,,,,
1769164109.2519,1769164109.25218,85.0,0.0,4372.692383,4315.897461,4486.794922,4355.769043,4280.641113,4294.487305,4337.307617,4347.179688,4342.692383,4309.743652,4640.0,4594.871582,4476.025879,4551.666504,,,,,,,,,,,,,,,,,,,,,,,,,,,,,,,,,,,,,,,,,,,,,,,,,,,,,,,,,,,,,,,,,,,,,,
1769164109.259708,1769164109.259888,86.0,0.0,4386.794922,4316.025879,4497.05127,4356.794922,4277.05127,4295.512695,4338.333496,4351.538574,4342.563965,4311.922852,4642.05127,4605.0,4476.794922,4557.563965,,,,,,,,,,,,,,,,,,,,,,,,,,,,,,,,,,,,,,,,,,,,,,,,,,,,,,,,,,,,,,,,,,,,,,
1769164109.267516,1769164109.267697,87.0,0.0,4376.282227,4308.974121,4491.410156,4346.794922,4274.230957,4306.922852,4340.769043,4343.461426,4336.666504,4300.641113,4634.487305,4601.282227,4477.05127,4562.05127,,,,,,,,,,,,,,,,,,,,,,,,,,,,,,,,,,,,,,,,,,,,,,,,,,,,,,,,,,,,,,,,,,,,,,
1769164109.275325,1769164109.275705,88.0,0.0,4363.333496,4306.794922,4484.487305,4345.0,4280.128418,4306.410156,4338.717773,4338.461426,4335.512695,4297.820313,4635.512695,4599.230957,4478.589844,4568.589844,,,,,,,,,,,,,,,,,,,,,,,,,,,,,,,,,,,,,,,,,,,,,,,,,,,,,,,,,,,,,,,,,,,,,,
1769164109.283133,1769164109.283513,89.0,0.0,4373.077148,4313.846191,4490.384766,4355.384766,4286.282227,4293.974121,4333.974121,4344.102539,4339.230957,4304.102539,4641.922852,4604.743652,4477.820313,4572.179688,,,,,,,,,,,,,,,,,,,,,,,,,,,,,,,,,,,,,,,,,,,,,,,,,,,,,,,,,,,,,,,,,,,,,,
1769164109.290942,1769164109.291422,90.0,0.0,4385.769043,4319.615234,4493.333496,4359.743652,4284.871582,4293.205078,4333.077148,4344.743652,4338.077148,4301.153809,4639.102539,4598.846191,4475.641113,4567.563965,,,,,,,,,,,,,,,,,,,,,,,,,,,,,,,,,,,,,,,,,,,,,,,,,,,,,,,,,,,,,,,,,,,,,,
1769164109.29875,1769164109.29923,91.0,0.0,4377.05127,4314.102539,4484.102539,4352.179688,4281.282227,4296.410156,4334.743652,4337.563965,4335.128418,4294.230957,4631.410156,4585.769043,4474.743652,4556.282227,,,,,,,,,,,,,,,,,,,,,,,,,,,,,,,,,,,,,,,,,,,,,,,,,,,,,,,,,,,,,,,,,,,,,,
1769164109.306559,1769164109.306839,92.0,0.0,4368.974121,4307.820313,4479.358887,4349.871582,4281.153809,4296.282227,4337.820313,4337.179688,4335.641113,4295.256348,4630.512695,4585.897461,4473.974121,4550.641113,,,,,,,,,,,,,,,,,,,,,,,,,,,,,,,,,,,,,,,,,,,,,,,,,,,,,,,,,,,,,,,,,,,,,,
1769164109.314367,1769164109.314647,93.0,0.0,4376.410156,4312.307617,4489.743652,4355.641113,4282.05127,4303.333496,4341.666504,4343.589844,4337.820313,4302.05127,4637.692383,4597.94873,4476.410156,4563.717773,,,,,,,,,,,,,,,,,,,,,,,,,,,,,,,,,,,,,,,,,,,,,,,,,,,,,,,,,,,,,,,,,,,,,,
1769164109.322176,1769164109.322356,94.0,0.0,4371.538574,4308.205078,4496.282227,4351.538574,4280.897461,4311.153809,4343.333496,4345.641113,4338.974121,4305.769043,4642.05127,4600.897461,4480.128418,4570.897461,0.421738,0.250914,0.378603,0.331727,0.359171,0.389103,0.285191,0.496059,0.129885,0.129903,0.858017,0.147103,0.12195,0.187829,0.157488,0.365737,0.206029,0.410455,0.083909,0.088836,0.167933,0.139174,0.081123,0.024417,0.02122,0.13543,0.211186,0.165929,0.104327,0.202602,0.134794,0.262133,0.12817,0.056518,0.096707,0.359573,0.244537,0.197011,0.044386,0.048839,0.352725,0.2022,0.372478,0.081971,0.052193,0.385438,0.111669,0.245554,0.071844,0.125729,0.436272,0.130596,0.337065,0.127122,0.165907,0.342999,0.189598,0.253245,0.163259,0.1889,0.190833,0.158989,0.460572,0.236648,0.281658,0.469417,0.186804,0.469544,0.389062,0.315288
1769164109.329984,1769164109.330164,95.0,0.0,4354.487305,4294.871582,4483.974121,4339.487305,4278.077148,4305.384766,4339.743652,4342.820313,4338.333496,4306.538574,4636.410156,4590.897461,4477.692383,4557.692383,,,,,,,,,,,,,,,,,,,,,,,,,,,,,,,,,,,,,,,,,,,,,,,,,,,,,,,,,,,,,,,,,,,,,,
1769164109.337793,1769164109.338172,96.0,0.0,4352.436035,4292.563965,4473.589844,4339.358887,4276.794922,4299.615234,4338.717773,4343.333496,4334.230957,4305.769043,4629.871582,4583.589844,4473.846191,4548.846191,,,,,,,,,,,,,,,,,,,,,,,,,,,,,,,,,,,,,,,,,,,,,,,,,,,,,,,,,,,,,,,,,,,,,,
1769164109.345601,1769164109.345981,97.0,0.0,4359.102539,4295.641113,4473.846191,4347.692383,4279.487305,4305.641113,4341.794922,4341.794922,4327.307617,4301.538574,4629.871582,4585.256348,4474.358887,4553.589844,,,,,,,,,,,,,,,,,,,,,,,,,,,,,,,,,,,,,,,,,,,,,,,,,,,,,,,,,,,,,,,,,,,,,,
1769164109.353409,1769164109.353889,98.0,0.0,4363.205078,4301.153809,4475.256348,4350.0,4285.384766,4306.538574,4339.358887,4335.256348,4324.743652,4297.563965,4628.077148,4588.205078,4474.743652,4560.897461,,,,,,,,,,,,,,,,,,,,,,,,,,,,,,,,,,,,,,,,,,,,,,,,,,,,,,,,,,,,,,,,,,,,,,
1769164109.361218,1769164109.361698,99.0,0.0,4375.256348,4320.256348,4485.256348,4361.410156,4297.692383,4303.846191,4337.179688,4340.256348,4335.769043,4310.0,4633.717773,4599.743652,4481.282227,4570.641113,,,,,,,,,,,,,,,,,,,,,,,,,,,,,,,,,,,,,,,,,,,,,,,,,,,,,,,,,,,,,,,,,,,,,,
1769164109.369026,1769164109.369706,100.0,0.0,4393.589844,4340.769043,4508.205078,4386.922852,4315.256348,4317.820313,4345.0,4356.410156,4352.820313,4332.436035,4655.512695,4625.0,4501.922852,4588.461426,,,,,,,,,,,,,,,,,,,,,,,,,,,,,,,,,,,,,,,,,,,,,,,,,,,,,,,,,,,,,,,,,,,,,,
1769164109.376835,1769164109.377514,101.0,0.0,4403.974121,4347.179688,4524.871582,4399.871582,4327.563965,4336.410156,4356.666504,4367.94873,4361.922852,4341.153809,4675.0,4642.179688,4520.897461,4601.538574,,,,,,,,,,,,,,,,,,,,,,,,,,,,,,,,,,,,,,,,,,,,,,,,,,,,,,,,,,,,,,,,,,,,,,
1769164109.384643,1769164109.385223,102.0,0.0,4408.205078,4347.563965,4524.871582,4396.922852,4329.871582,4337.436035,4359.230957,4374.230957,4366.538574,4341.025879,4683.846191,4647.307617,4524.871582,4603.974121,,,,,,,,,,,,,,,,,,,,,,,,,,,,,,,,,,,,,,,,,,,,,,,,,,,,,,,,,,,,,,,,,,,,,,
1769164109.392452,1769164109.393031,103.0,0.0,4411.922852,4351.410156,4523.461426,4396.153809,4327.307617,4333.846191,4357.692383,4381.025879,4367.436035,4343.461426,4687.179688,4654.487305,4524.358887,4607.436035,,,,,,,,,,,,,,,,,,,,,,,,,,,,,,,,,,,,,,,,,,,,,,,,,,,,,,,,,,,,,,,,,,,,,,
1769164109.40026,1769164109.40064,104.0,0.0,4413.461426,4354.615234,4524.615234,4397.563965,4327.563965,4338.205078,4360.0,4383.077148,4365.128418,4343.077148,4688.333496,4658.717773,4525.897461,4614.743652,,,,,,,,,,,,,,,,,,,,,,,,,,,,,,,,,,,,,,,,,,,,,,,,,,,,,,,,,,,,,,,,,,,,,,
1769164109.408069,1769164109.408449,105.0,0.0,4412.05127,4354.487305,4523.974121,4396.922852,4333.205078,4340.897461,4362.820313,4380.769043,4367.820313,4343.717773,4691.410156,4657.820313,4525.384766,4616.794922,,,,,,,,,,,,,,,,,,,,,,,,,,,,,,,,,,,,,,,,,,,,,,,,,,,,,,,,,,,,,,,,,,,,,,
1769164109.415877,1769164109.416157,106.0,0.0,4406.666504,4348.205078,4522.436035,4396.922852,4336.025879,4345.0,4369.871582,4386.025879,4373.974121,4348.333496,4694.358887,4658.077148,4526.025879,4613.205078,,,,,,,,,,,,,,,,,,,,,,,,,,,,,,,,,,,,,,,,,,,,,,,,,,,,,,,,,,,,,,,,,,,,,,
1769164109.423685,1769164109.423966,107.0,0.0,4399.871582,4342.820313,4522.179688,4391.794922,4330.769043,4350.384766,4376.153809,4390.512695,4374.615234,4350.256348,4694.358887,4657.820313,4526.538574,4611.410156,,,,,,,,,,,,,,,,,,,,,,,,,,,,,,,,,,,,,,,,,,,,,,,,,,,,,,,,,,,,,,,,,,,,,,
1769164109.431494,1769164109.431574,108.0,0.0,4401.538574,4345.641113,4522.179688,4390.256348,4328.461426,4346.153809,4369.230957,4383.974121,4370.769043,4349.487305,4694.358887,4657.179688,4523.846191,4609.871582,,,,,,,,,,,,,,,,,,,,,,,,,,,,,,,,,,,,,,,,,,,,,,,,,,,,,,,,,,,,,,,,,,,,,,
1769164109.439302,1769164109.439383,109.0,0.0,4410.897461,4357.436035,4525.128418,4405.0,4333.077148,4335.897461,4358.077148,4378.717773,4371.025879,4352.820313,4696.153809,4661.794922,4528.077148,4612.307617,,,,,,,,,,,,,,,,,,,,,,,,,,,,,,,,,,,,,,,,,,,,,,,,,,,,,,,,,,,,,,,,,,,,,,
1769164109.447111,1769164109.447091,110.0,0.0,4417.563965,4366.282227,4530.384766,4414.487305,4336.922852,4331.538574,4356.025879,4381.922852,4372.563965,4353.846191,4696.410156,4663.205078,4538.974121,4618.589844,0.434914,0.279666,0.354674,0.417566,0.376821,0.384085,0.296455,0.429049,0.151753,0.146515,0.818297,0.12959,0.123427,0.227188,0.14637,0.373424,0.211373,0.347435,0.107077,0.102455,0.197087,0.156582,0.079539,0.032468,0.022632,0.12525,0.222778,0.190991,0.094,0.161872,0.105868,0.274195,0.136856,0.050297,0.0776,0.404416,0.230752,0.199791,0.039529,0.045337,0.339763,0.277784,0.44042,0.080441,0.067622,0.347933,0.13167,0.244225,0.078035,0.125081,0.400715,0.149811,0.367424,0.150556,0.18193,0.311173,0.154205,0.219869,0.20198,0.194935,0.205401,0.183813,0.409151,0.24135,0.275514,0.548663,0.217128,0.535699,0.425458,0.353757
1769164109.454919,1769164109.4549,111.0,0.0,4413.974121,4361.922852,4528.077148,4406.794922,4335.0,4335.897461,4359.615234,4383.846191,4369.358887,4347.179688,4691.153809,4652.94873,4537.436035,4617.436035,,,,,,,,,,,,,,,,,,,,,,,,,,,,,,,,,,,,,,,,,,,,,,,,,,,,,,,,,,,,,,,,,,,,,,
1769164109.462728,1769164109.462908,112.0,0.0,4405.128418,4352.307617,4522.307617,4400.128418,4333.077148,4341.666504,4364.102539,4380.769043,4364.102539,4339.358887,4682.94873,4645.769043,4522.179688,4610.256348,,,,,,,,,,,,,,,,,,,,,,,,,,,,,,,,,,,,,,,,,,,,,,,,,,,,,,,,,,,,,,,,,,,,,,
1769164109.470536,1769164109.470716,113.0,0.0,4405.0,4353.333496,4528.077148,4407.05127,4334.615234,4342.563965,4366.538574,4383.846191,4368.846191,4341.922852,4683.333496,4655.769043,4520.641113,4609.871582,,,,,,,,,,,,,,,,,,,,,,,,,,,,,,,,,,,,,,,,,,,,,,,,,,,,,,,,,,,,,,,,,,,,,,
1769164109.478345,1769164109.478625,114.0,0.0,4412.692383,4358.974121,4538.589844,4411.282227,4332.820313,4340.0,4365.769043,4391.666504,4378.589844,4349.743652,4690.384766,4667.94873,4529.743652,4616.153809,,,,,,,,,,,,,,,,,,,,,,,,,,,,,,,,,,,,,,,,,,,,,,,,,,,,,,,,,,,,,,,,,,,,,,
1769164109.486153,1769164109.486433,115.0,0.0,4414.615234,4357.307617,4537.94873,4404.230957,4327.05127,4341.794922,4368.461426,4392.820313,4378.205078,4348.461426,4690.641113,4665.641113,4529.615234,4620.256348,,,,,,,,,,,,,,,,,,,,,,,,,,,,,,,,,,,,,,,,,,,,,,,,,,,,,,,,,,,,,,,,,,,,,,
1769164109.493962,1769164109.494441,116.0,0.0,4411.666504,4358.717773,4534.871582,4402.179688,4325.641113,4341.666504,4367.94873,4389.358887,4374.230957,4347.563965,4688.333496,4660.769043,4527.436035,4620.128418,,,,,,,,,,,,,,,,,,,,,,,,,,,,,,,,,,,,,,,,,,,,,,,,,,,,,,,,,,,,,,,,,,,,,,
1769164109.50177,1769164109.50225,117.0,0.0,4414.871582,4366.282227,4537.563965,4408.205078,4329.743652,4335.128418,4359.871582,4387.692383,4374.230957,4351.025879,4689.487305,4664.871582,4527.436035,4618.461426,,,,,,,,,,,,,,,,,,,,,,,,,,,,,,,,,,,,,,,,,,,,,,,,,,,,,,,,,,,,,,,,,,,,,,
1769164109.509579,1769164109.509958,118.0,0.0,4419.871582,4365.256348,4538.333496,4407.307617,4328.461426,4334.871582,4361.153809,4387.307617,4375.0,4346.538574,4690.128418,4667.692383,4527.307617,4621.922852,,,,,,,,,,,,,,,,,,,,,,,,,,,,,,,,,,,,,,,,,,,,,,,,,,,,,,,,,,,,,,,,,,,,,,
1769164109.517387,1769164109.517767,119.0,0.0,4419.743652,4357.94873,4538.077148,4402.692383,4326.282227,4341.794922,4368.461426,4386.153809,4376.410156,4343.717773,4691.153809,4663.589844,4530.641113,4625.256348,,,,,,,,,,,,,,,,,,,,,,,,,,,,,,,,,,,,,,,,,,,,,,,,,,,,,,,,,,,,,,,,,,,,,,
1769164109.525195,1769164109.525775,120.0,0.0,4415.897461,4358.589844,4538.333496,4404.487305,4329.743652,4340.897461,4365.128418,4385.128418,4377.179688,4349.487305,4691.794922,4659.743652,4533.846191,4620.384766,,,,,,,,,,,,,,,,,,,,,,,,,,,,,,,,,,,,,,,,,,,,,,,,,,,,,,,,,,,,,,,,,,,,,,
1769164109.533004,1769164109.533583,121.0,0.0,4411.666504,4361.282227,4534.743652,4404.487305,4329.615234,4339.102539,4362.820313,4383.077148,4373.717773,4348.589844,4692.05127,4663.077148,4531.025879,4617.692383,,,,,,,,,,,,,,,,,,,,,,,,,,,,,,,,,,,,,,,,,,,,,,,,,,,,,,,,,,,,,,,,,,,,,,
1769164109.540812,1769164109.541492,122.0,0.0,4411.025879,4357.179688,4534.102539,4402.820313,4326.538574,4346.538574,4369.487305,4382.307617,4368.717773,4341.794922,4689.230957,4664.487305,4527.436035,4619.615234,,,,,,,,,,,,,,,,,,,,,,,,,,,,,,,,,,,,,,,,,,,,,,,,,,,,,,,,,,,,,,,,,,,,,,
1769164109.548621,1769164109.5493,123.0,0.0,4411.025879,4355.0,4533.717773,4405.641113,4326.794922,4348.974121,4369.358887,4384.615234,4365.769043,4339.615234,4681.153809,4656.666504,4524.358887,4613.077148,,,,,,,,,,,,,,,,,,,,,,,,,,,,,,,,,,,,,,,,,,,,,,,,,,,,,,,,,,,,,,,,,,,,,,
1769164109.556429,1769164109.557308,124.0,0.0,4412.05127,4358.077148,4528.333496,4405.256348,4328.717773,4338.461426,4359.615234,4383.333496,4367.05127,4342.563965,4682.436035,4654.230957,4524.102539,4608.717773,,,,,,,,,,,,,,,,,,,,,,,,,,,,,,,,,,,,,,,,,,,,,,,,,,,,,,,,,,,,,,,,,,,,,,
1769164109.564238,1769164109.565117,125.0,0.0,4414.743652,4358.717773,4523.077148,4403.589844,4328.077148,4331.922852,4357.179688,4380.641113,4371.922852,4349.102539,4692.692383,4661.025879,4534.871582,4617.820313,,,,,,,,,,,,,,,,,,,,,,,,,,,,,,,,,,,,,,,,,,,,,,,,,,,,,,,,,,,,,,,,,,,,,,
1769164109.572046,1769164109.572825,126.0,0.0,4414.102539,4358.205078,4522.94873,4403.205078,4327.436035,4339.102539,4365.384766,4386.153809,4373.589844,4352.94873,4693.461426,4661.922852,4538.461426,4622.692383,0.487928,0.325014,0.325996,0.500314,0.388313,0.424987,0.335186,0.376823,0.171154,0.162618,0.797696,0.141638,0.121273,0.282398,0.147189,0.404965,0.238314,0.293196,0.137145,0.116221,0.24339,0.178219,0.084979,0.043907,0.025513,0.125546,0.258278,0.226951,0.09349,0.141907,0.084041,0.272851,0.136945,0.046464,0.06564,0.46522,0.23312,0.197248,0.038391,0.045344,0.363317,0.363585,0.48928,0.079823,0.09132,0.345062,0.160793,0.243306,0.086894,0.128713,0.407801,0.182794,0.404788,0.163524,0.205067,0.336679,0.132492,0.203956,0.233737,0.206244,0.248683,0.208641,0.377846,0.243628,0.269155,0.646605,0.266512,0.585285,0.451149,0.385461
1769164109.579855,1769164109.580634,127.0,0.0,4410.641113,4357.94873,4528.846191,4403.461426,4327.05127,4342.94873,4369.487305,4391.410156,4373.974121,4352.436035,4689.615234,4661.025879,4526.922852,4618.461426,,,,,,,,,,,,,,,,,,,,,,,,,,,,,,,,,,,,,,,,,,,,,,,,,,,,,,,,,,,,,,,,,,,,,,
1769164109.587663,1769164109.588243,0.0,0.0,4410.641113,4357.179688,4534.743652,4406.538574,4323.205078,4333.461426,4364.871582,4385.769043,4373.333496,4352.820313,4691.282227,4662.820313,4522.179688,4616.025879,,,,,,,,,,,,,,,,,,,,,,,,,,,,,,,,,,,,,,,,,,,,,,,,,,,,,,,,,,,,,,,,,,,,,,
1769164109.595472,1769164109.596051,1.0,0.0,4413.717773,4358.974121,4533.717773,4410.0,4322.05127,4329.358887,4363.333496,4380.128418,4372.94873,4350.897461,4693.717773,4661.666504,4531.025879,4617.563965,,,,,,,,,,,,,,,,,,,,,,,,,,,,,,,,,,,,,,,,,,,,,,,,,,,,,,,,,,,,,,,,,,,,,,
1769164109.60328,1769164109.60376,2.0,0.0,4414.487305,4363.589844,4530.769043,4409.743652,4325.128418,4338.717773,4367.05127,4383.974121,4377.94873,4349.743652,4693.589844,4662.820313,4533.589844,4617.436035,,,,,,,,,,,,,,,,,,,,,,,,,,,,,,,,,,,,,,,,,,,,,,,,,,,,,,,,,,,,,,,,,,,,,,
1769164109.611088,1769164109.611568,3.0,0.0,4413.589844,4364.615234,4534.615234,4409.358887,4326.538574,4342.820313,4367.436035,4385.897461,4380.384766,4352.94873,4692.692383,4664.102539,4525.128418,4617.307617,,,,,,,,,,,,,,,,,,,,,,,,,,,,,,,,,,,,,,,,,,,,,,,,,,,,,,,,,,,,,,,,,,,,,,
1769164109.618897,1769164109.619177,4.0,0.0,4412.563965,4360.256348,4537.692383,4409.487305,4323.205078,4340.0,4365.897461,4380.769043,4370.897461,4348.589844,4685.641113,4658.333496,4520.512695,4613.333496,,,,,,,,,,,,,,,,,,,,,,,,,,,,,,,,,,,,,,,,,,,,,,,,,,,,,,,,,,,,,,,,,,,,,,
1769164109.626705,1769164109.626985,5.0,0.0,4412.563965,4353.589844,4535.641113,4409.358887,4322.692383,4342.820313,4372.05127,4381.538574,4361.922852,4338.461426,4679.358887,4654.102539,4521.794922,4606.153809,,,,,,,,,,,,,,,,,,,,,,,,,,,,,,,,,,,,,,,,,,,,,,,,,,,,,,,,,,,,,,,,,,,,,,
1769164109.634514,1769164109.634694,6.0,0.0,4415.0,4354.871582,4536.922852,4411.538574,4325.897461,4344.615234,4374.871582,4385.256348,4366.282227,4337.692383,4679.487305,4657.820313,4523.333496,4609.102539,,,,,,,,,,,,,,,,,,,,,,,,,,,,,,,,,,,,,,,,,,,,,,,,,,,,,,,,,,,,,,,,,,,,,,
1769164109.642322,1769164109.642502,7.0,0.0,4414.487305,4363.846191,4538.205078,4413.846191,4326.282227,4341.410156,4368.974121,4382.94873,4369.615234,4340.769043,4678.333496,4660.384766,4520.897461,4615.384766,,,,,,,,,,,,,,,,,,,,,,,,,,,,,,,,,,,,,,,,,,,,,,,,,,,,,,,,,,,,,,,,,,,,,,
1769164109.650131,1769164109.650111,8.0,0.0,4412.436035,4364.358887,4538.461426,4412.563965,4325.384766,4340.769043,4368.589844,4384.615234,4364.871582,4340.384766,4680.641113,4661.666504,4520.512695,4617.179688,,,,,,,,,,,,,,,,,,,,,,,,,,,,,,,,,,,,,,,,,,,,,,,,,,,,,,,,,,,,,,,,,,,,,,
1769164109.657939,1769164109.657919,9.0,0.0,4416.153809,4356.794922,4538.846191,4413.205078,4325.256348,4342.179688,4374.102539,4393.974121,4371.282227,4344.615234,4690.384766,4667.307617,4528.205078,4621.794922,,,,,,,,,,,,,,,,,,,,,,,,,,,,,,,,,,,,,,,,,,,,,,,,,,,,,,,,,,,,,,,,,,,,,,
1769164109.665748,1769164109.665828,10.0,0.0,4417.179688,4359.487305,4539.358887,4413.077148,4325.0,4340.512695,4376.025879,4398.461426,4383.205078,4352.563965,4695.897461,4672.436035,4533.205078,4624.102539,,,,,,,,,,,,,,,,,,,,,,,,,,,,,,,,,,,,,,,,,,,,,,,,,,,,,,,,,,,,,,,,,,,,,,
1769164109.673556,1769164109.673636,11.0,0.0,4412.436035,4366.025879,4539.230957,4410.641113,4324.358887,4342.820313,4374.615234,4396.025879,4378.333496,4351.538574,4691.025879,4671.153809,4529.358887,4617.436035,,,,,,,,,,,,,,,,,,,,,,,,,,,,,,,,,,,,,,,,,,,,,,,,,,,,,,,,,,,,,,,,,,,,,,
1769164109.681364,1769164109.681644,12.0,0.0,4418.205078,4366.794922,4539.358887,4419.487305,4326.153809,4350.256348,4375.128418,4395.897461,4371.282227,4349.743652,4692.94873,4670.384766,4531.153809,4622.692383,,,,,,,,,,,,,,,,,,,,,,,,,,,,,,,,,,,,,,,,,,,,,,,,,,,,,,,,,,,,,,,,,,,,,,
1769164109.689173,1769164109.689453,13.0,0.0,4426.538574,4368.846191,4540.512695,4430.384766,4328.589844,4351.410156,4376.282227,4397.94873,4381.025879,4357.436035,4707.05127,4680.128418,4541.666504,4641.410156,,,,,,,,,,,,,,,,,,,,,,,,,,,,,,,,,,,,,,,,,,,,,,,,,,,,,,,,,,,,,,,,,,,,,,
1769164109.696981,1769164109.697361,14.0,0.0,4416.538574,4367.05127,4538.589844,4421.666504,4327.05127,4353.333496,4381.922852,4397.05127,4382.94873,4357.820313,4703.846191,4680.256348,4539.358887,4633.846191,0.626501,0.435396,0.318624,0.571588,0.395304,0.547124,0.435659,0.368557,0.186485,0.174413,0.740604,0.223343,0.126403,0.352857,0.15657,0.481629,0.318616,0.276447,0.172652,0.129578,0.355539,0.221928,0.105503,0.056842,0.029231,0.159449,0.326813,0.269904,0.107926,0.144335,0.085388,0.268663,0.130939,0.046478,0.061092,0.557748,0.268215,0.194873,0.043851,0.049554,0.470118,0.445512,0.51324,0.083253,0.119035,0.434443,0.186408,0.241506,0.097679,0.134635,0.574757,0.236149,0.445788,0.16606,0.234568,0.531446,0.172331,0.210356,0.262102,0.224992,0.367416,0.239758,0.370812,0.241611,0.265846,0.801992,0.346132,0.611277,0.478338,0.413899
1769164109.70479,1769164109.705169,15.0,0.0,4405.769043,4363.205078,4536.666504,4413.205078,4325.512695,4357.307617,4386.025879,4394.487305,4372.436035,4351.410156,4687.692383,4666.794922,4530.897461,4614.102539,,,,,,,,,,,,,,,,,,,,,,,,,,,,,,,,,,,,,,,,,,,,,,,,,,,,,,,,,,,,,,,,,,,,,,
