Timestamp,OriginalTimestamp,EEG.Counter,EEG.Interpolated,EEG.AF3,EEG.F7,EEG.F3,EEG.FC5,EEG.T7,EEG.P7,EEG.O1,EEG.O2,EEG.P8,EEG.T8,EEG.FC6,EEG.F4,EEG.F8,EEG.AF4,POW.AF3.Theta,POW.AF3.Alpha,POW.AF3.BetaL,POW.AF3.BetaH,POW.AF3.Gamma,POW.F7.Theta,POW.F7.Alpha,POW.F7.BetaL,POW.F7.BetaH,POW.F7.Gamma,POW.F3.Theta,POW.F3.Alpha,POW.F3.BetaL,POW.F3.BetaH,POW.F3.Gamma,POW.FC5.Theta,POW.FC5.Alpha,POW.FC5.BetaL,POW.FC5.BetaH,POW.FC5.Gamma,POW.T7.Theta,POW.T7.Alpha,POW.T7.BetaL,POW.T7.BetaH,POW.T7.Gamma,POW.P7.Theta,POW.P7.Alpha,POW.P7.BetaL,POW.P7.BetaH,POW.P7.Gamma,POW.O1.Theta,POW.O1.Alpha,POW.O1.BetaL,POW.O1.BetaH,POW.O1.Gamma,POW.O2.Theta,POW.O2.Alpha,POW.O2.BetaL,POW.O2.BetaH,POW.O2.Gamma,POW.P8.Theta,POW.P8.Alpha,POW.P8.BetaL,POW.P8.BetaH,POW.P8.Gamma,POW.T8.Theta,POW.T8.Alpha,POW.T8.BetaL,POW.T8.BetaH,POW.T8.Gamma,POW.FC6.Theta,POW.FC6.Alpha,POW.FC6.BetaL,POW.FC6.BetaH,POW.FC6.Gamma,POW.F4.Theta,POW.F4.Alpha,POW.F4.BetaL,POW.F4.BetaH,POW.F4.Gamma,POW.F8.Theta,POW.F8.Alpha,POW.F8.BetaL,POW.F8.BetaH,POW.F8.Gamma,POW.AF4.Theta,POW.AF4.Alpha,POW.AF4.BetaL,POW.AF4.BetaH,POW.AF4.Gamma
1768920048.529974,1768920048.530512,3.0,0.0,4338.846191,4327.820313,4338.974121,4340.769043,4330.897461,4324.230957,4304.743652,4367.563965,4322.179688,4307.179688,4495.512695,4536.666504,4405.256348,4453.333496,,,,,,,,,,,,,,,,,,,,,,,,,,,,,,,,,,,,,,,,,,,,,,,,,,,,,,,,,,,,,,,,,,,,,,
1768920048.537783,1768920048.538521,4.0,0.0,4342.692383,4328.846191,4343.717773,4342.436035,4335.0,4324.871582,4305.641113,4369.487305,4322.94873,4310.128418,4492.05127,4537.05127,4406.025879,4453.077148,,,,,,,,,,,,,,,,,,,,,,,,,,,,,,,,,,,,,,,,,,,,,,,,,,,,,,,,,,,,,,,,,,,,,,
1768920048.545591,1768920048.546329,5.0,0.0,4341.922852,4330.512695,4341.282227,4341.794922,4335.256348,4333.077148,4312.436035,4372.05127,4323.589844,4311.666504,4494.102539,4524.743652,4407.307617,4451.410156,,,,,,,,,,,,,,,,,,,,,,,,,,,,,,,,,,,,,,,,,,,,,,,,,,,,,,,,,,,,,,,,,,,,,,
1768920048.5534,1768920048.554237,6.0,0.0,4342.179688,4332.563965,4339.487305,4338.333496,4330.384766,4331.538574,4309.487305,4369.743652,4323.717773,4309.487305,4492.94873,4523.717773,4399.743652,4448.461426,,,,,,,,,,,,,,,,,,,,,,,,,,,,,,,,,,,,,,,,,,,,,,,,,,,,,,,,,,,,,,,,,,,,,,
1768920048.561208,1768920048.562046,7.0,0.0,4347.307617,4334.743652,4348.589844,4340.769043,4329.358887,4327.563965,4308.589844,4371.794922,4320.384766,4310.384766,4493.205078,4535.384766,4398.717773,4453.974121,,,,,,,,,,,,,,,,,,,,,,,,,,,,,,,,,,,,,,,,,,,,,,,,,,,,,,,,,,,,,,,,,,,,,,
1768920048.569017,1768920048.569854,8.0,0.0,4345.769043,4335.897461,4352.563965,4346.666504,4330.512695,4325.128418,4310.256348,4378.461426,4322.436035,4310.384766,4495.256348,4542.05127,4408.205078,4461.025879,,,,,,,,,,,,,,,,,,,,,,,,,,,,,,,,,,,,,,,,,,,,,,,,,,,,,,,,,,,,,,,,,,,,,,
1768920048.576825,1768920048.577663,9.0,0.0,4348.589844,4339.871582,4349.743652,4349.358887,4333.717773,4324.230957,4310.512695,4373.333496,4323.846191,4310.641113,4499.615234,4543.589844,4412.307617,4457.692383,,,,,,,,,,,,,,,,,,,,,,,,,,,,,,,,,,,,,,,,,,,,,,,,,,,,,,,,,,,,,,,,,,,,,,
1768920048.584634,1768920048.585371,10.0,0.0,4358.717773,4342.820313,4354.358887,4349.743652,4336.666504,4330.641113,4313.974121,4363.974121,4320.641113,4312.05127,4507.05127,4541.666504,4411.922852,4455.256348,,,,,,,,,,,,,,,,,,,,,,,,,,,,,,,,,,,,,,,,,,,,,,,,,,,,,,,,,,,,,,,,,,,,,,
1768920048.592442,1768920048.593179,11.0,0.0,4357.05127,4340.897461,4359.358887,4350.384766,4333.846191,4336.153809,4314.615234,4368.333496,4319.102539,4311.153809,4508.974121,4540.897461,4411.666504,4459.487305,,,,,,,,,,,,,,,,,,,,,,,,,,,,,,,,,,,,,,,,,,,,,,,,,,,,,,,,,,,,,,,,,,,,,,
1768920048.600251,1768920048.600788,12.0,0.0,4347.179688,4339.743652,4353.461426,4351.410156,4329.487305,4328.974121,4311.025879,4375.0,4318.974121,4309.615234,4503.333496,4547.307617,4410.128418,4459.230957,,,,,,,,,,,,,,,,,,,,,,,,,,,,,,,,,,,,,,,,,,,,,,,,,,,,,,,,,,,,,,,,,,,,,,
1768920048.60806,1768920048.608596,13.0,0.0,4345.641113,4340.256348,4349.487305,4352.692383,4329.871582,4322.820313,4310.256348,4370.128418,4319.102539,4310.128418,4502.436035,4549.615234,4410.641113,4456.282227,,,,,,,,,,,,,,,,,,,,,,,,,,,,,,,,,,,,,,,,,,,,,,,,,,,,,,,,,,,,,,,,,,,,,,
1768920048.615868,1768920048.616304,14.0,0.0,4353.717773,4342.820313,4354.871582,4355.128418,4335.128418,4327.05127,4309.358887,4365.384766,4321.025879,4309.230957,4504.487305,4546.666504,4412.94873,4456.794922,,,,,,,,,,,,,,,,,,,,,,,,,,,,,,,,,,,,,,,,,,,,,,,,,,,,,,,,,,,,,,,,,,,,,,
1768920048.623676,1768920048.624112,15.0,0.0,4354.871582,4344.230957,4356.922852,4355.512695,4338.333496,4328.205078,4309.743652,4369.615234,4323.846191,4311.794922,4506.153809,4547.179688,4412.179688,4456.282227,,,,,,,,,,,,,,,,,,,,,,,,,,,,,,,,,,,,,,,,,,,,,,,,,,,,,,,,,,,,,,,,,,,,,,
1768920048.631485,1768920048.631721,16.0,0.0,4348.333496,4343.077148,4357.307617,4352.692383,4336.922852,4327.179688,4314.102539,4372.820313,4323.974121,4318.333496,4507.692383,4547.563965,4411.538574,4453.461426,0.299682,0.25362,0.254911,0.334069,0.279563,0.229316,0.310521,0.538523,0.203977,0.154581,0.175186,0.323616,0.467323,0.453411,0.201716,0.259301,0.211502,0.296413,0.299622,0.1421,0.150197,0.103633,0.102164,0.106947,0.051478,0.39826,0.198028,0.06386,0.258548,0.166844,2.383888,0.367558,0.136111,0.373052,0.249283,0.128897,0.191816,0.173706,0.202848,0.122837,0.396404,0.279149,0.30255,0.206151,0.08504,0.354658,0.318567,0.205555,0.271214,0.107251,0.441667,0.733574,0.610786,0.271188,0.205111,0.233055,0.722817,0.570109,0.461827,0.36428,0.839717,0.868192,0.456582,0.256862,0.190801,0.458002,0.682061,0.40081,0.422633,0.26132
1768920048.639294,1768920048.639529,17.0,0.0,4348.461426,4341.666504,4358.333496,4351.666504,4332.563965,4324.615234,4311.153809,4367.820313,4322.436035,4315.897461,4506.410156,4544.358887,4414.487305,4455.384766,,,,,,,,,,,,,,,,,,,,,,,,,,,,,,,,,,,,,,,,,,,,,,,,,,,,,,,,,,,,,,,,,,,,,,
1768920048.647102,1768920048.647237,18.0,0.0,4349.230957,4340.256348,4350.769043,4350.769043,4326.794922,4321.666504,4304.102539,4361.410156,4318.077148,4309.358887,4506.410156,4541.025879,4416.410156,4460.0,,,,,,,,,,,,,,,,,,,,,,,,,,,,,,,,,,,,,,,,,,,,,,,,,,,,,,,,,,,,,,,,,,,,,,
1768920048.65491,1768920048.655046,19.0,0.0,4343.589844,4338.974121,4340.128418,4347.94873,4325.769043,4325.128418,4310.384766,4369.358887,4320.769043,4311.666504,4507.05127,4544.743652,4416.538574,4463.846191,,,,,,,,,,,,,,,,,,,,,,,,,,,,,,,,,,,,,,,,,,,,,,,,,,,,,,,,,,,,,,,,,,,,,,
1768920048.662719,1768920048.663054,20.0,0.0,4343.846191,4341.025879,4341.410156,4349.102539,4333.077148,4328.205078,4315.641113,4375.512695,4325.641113,4314.487305,4505.128418,4549.743652,4417.179688,4465.384766,,,,,,,,,,,,,,,,,,,,,,,,,,,,,,,,,,,,,,,,,,,,,,,,,,,,,,,,,,,,,,,,,,,,,,
1768920048.670528,1768920048.670862,21.0,0.0,4347.05127,4341.922852,4348.461426,4351.025879,4340.256348,4325.512695,4302.820313,4361.025879,4315.897461,4311.666504,4504.743652,4545.384766,4417.05127,4465.769043,,,,,,,,,,,,,,,,,,,,,,,,,,,,,,,,,,,,,,,,,,,,,,,,,,,,,,,,,,,,,,,,,,,,,,
1768920048.678336,1768920048.678771,22.0,0.0,4342.563965,4334.743652,4347.307617,4346.025879,4333.077148,4324.615234,4294.615234,4352.05127,4307.307617,4311.538574,4507.307617,4535.641113,4416.538574,4463.077148,,,,,,,,,,,,,,,,,,,,,,,,,,,,,,,,,,,,,,,,,,,,,,,,,,,,,,,,,,,,,,,,,,,,,,
1768920048.686145,1768920048.686579,23.0,0.0,4335.128418,4326.025879,4342.179688,4341.282227,4322.820313,4326.410156,4304.743652,4363.717773,4313.461426,4312.05127,4502.307617,4530.512695,4411.282227,4452.692383,,,,,,,,,,,,,,,,,,,,,,,,,,,,,,,,,,,,,,,,,,,,,,,,,,,,,,,,,,,,,,,,,,,,,,
1768920048.693953,1768920048.694187,24.0,0.0,4330.128418,4323.717773,4341.922852,4341.153809,4324.871582,4325.128418,4310.256348,4367.05127,4316.538574,4308.717773,4492.307617,4531.153809,4405.384766,4447.94873,,,,,,,,,,,,,,,,,,,,,,,,,,,,,,,,,,,,,,,,,,,,,,,,,,,,,,,,,,,,,,,,,,,,,,
1768920048.701762,1768920048.701996,25.0,0.0,4328.077148,4327.820313,4340.897461,4341.538574,4326.794922,4323.717773,4305.0,4357.820313,4309.487305,4306.666504,4491.410156,4530.256348,4406.410156,4452.179688,,,,,,,,,,,,,,,,,,,,,,,,,,,,,,,,,,,,,,,,,,,,,,,,,,,,,,,,,,,,,,,,,,,,,,
1768920048.70957,1768920048.709704,26.0,0.0,4331.282227,4334.230957,4338.589844,4344.358887,4326.538574,4324.743652,4307.94873,4361.794922,4310.641113,4305.641113,4492.563965,4527.820313,4403.974121,4449.487305,,,,,,,,,,,,,,,,,,,,,,,,,,,,,,,,,,,,,,,,,,,,,,,,,,,,,,,,,,,,,,,,,,,,,,
1768920048.717379,1768920048.717512,27.0,0.0,4332.179688,4338.205078,4339.743652,4348.974121,4329.871582,4326.922852,4314.358887,4371.410156,4319.230957,4306.922852,4491.538574,4530.0,4397.05127,4442.563965,,,,,,,,,,,,,,,,,,,,,,,,,,,,,,,,,,,,,,,,,,,,,,,,,,,,,,,,,,,,,,,,,,,,,,
1768920048.725187,1768920048.72552,28.0,0.0,4329.487305,4337.307617,4343.205078,4351.025879,4331.282227,4328.846191,4312.179688,4369.871582,4323.205078,4308.974121,4491.666504,4532.179688,4397.94873,4442.307617,,,,,,,,,,,,,,,,,,,,,,,,,,,,,,,,,,,,,,,,,,,,,,,,,,,,,,,,,,,,,,,,,,,,,,
1768920048.732996,1768920048.733329,29.0,0.0,4333.589844,4332.563965,4344.102539,4349.871582,4328.333496,4326.025879,4309.358887,4367.179688,4325.641113,4310.0,4493.589844,4529.102539,4403.205078,4443.846191,,,,,,,,,,,,,,,,,,,,,,,,,,,,,,,,,,,,,,,,,,,,,,,,,,,,,,,,,,,,,,,,,,,,,,
1768920048.740804,1768920048.741237,30.0,0.0,4331.794922,4327.692383,4342.820313,4345.641113,4327.436035,4324.102539,4315.512695,4371.025879,4327.563965,4315.128418,4499.102539,4531.794922,4405.769043,4445.384766,,,,,,,,,,,,,,,,,,,,,,,,,,,,,,,,,,,,,,,,,,,,,,,,,,,,,,,,,,,,,,,,,,,,,,
1768920048.748613,1768920048.749046,31.0,0.0,4320.512695,4325.769043,4340.128418,4339.743652,4332.307617,4331.282227,4324.102539,4374.487305,4330.384766,4323.461426,4508.333496,4541.153809,4410.641113,4450.256348,,,,,,,,,,,,,,,,,,,,,,,,,,,,,,,,,,,,,,,,,,,,,,,,,,,,,,,,,,,,,,,,,,,,,,
1768920048.756421,1768920048.757054,32.0,0.0,4320.897461,4327.563965,4338.205078,4339.358887,4334.743652,4338.461426,4319.230957,4373.974121,4333.974121,4325.641113,4511.922852,4540.897461,4415.256348,4450.128418,0.304018,0.265261,0.244521,0.367065,0.300304,0.317667,0.326894,0.459587,0.201043,0.139827,0.146217,0.32391,0.488345,0.500482,0.205194,0.313537,0.228979,0.33991,0.321385,0.144185,0.158254,0.069381,0.090413,0.101553,0.051965,0.36835,0.20411,0.070404,0.28095,0.150897,1.833375,0.377327,0.153925,0.425737,0.237017,0.142837,0.247098,0.147072,0.208388,0.112979,0.408664,0.433152,0.270692,0.207331,0.083647,0.373769,0.499122,0.227064,0.293564,0.105733,0.481986,0.897754,0.644661,0.289221,0.205539,0.254298,0.850482,0.588851,0.491926,0.352397,1.035097,0.997993,0.456792,0.250658,0.175406,0.606423,0.792023,0.394738,0.514861,0.278366
1768920048.76423,1768920048.764862,33.0,0.0,4330.897461,4329.230957,4341.282227,4347.307617,4333.846191,4340.128418,4313.717773,4373.589844,4331.538574,4323.205078,4506.794922,4538.461426,4412.179688,4445.384766,,,,,,,,,,,,,,,,,,,,,,,,,,,,,,,,,,,,,,,,,,,,,,,,,,,,,,,,,,,,,,,,,,,,,,
1768920048.772038,1768920048.772571,34.0,0.0,4337.179688,4330.897461,4349.102539,4351.922852,4335.128418,4337.05127,4317.05127,4373.717773,4326.025879,4318.205078,4503.333496,4538.461426,4409.871582,4446.153809,,,,,,,,,,,,,,,,,,,,,,,,,,,,,,,,,,,,,,,,,,,,,,,,,,,,,,,,,,,,,,,,,,,,,,
1768920048.779847,1768920048.780379,35.0,0.0,4336.794922,4335.256348,4351.025879,4349.743652,4338.077148,4331.410156,4315.769043,4372.436035,4327.563965,4312.692383,4505.0,4535.769043,4411.153809,4453.077148,,,,,,,,,,,,,,,,,,,,,,,,,,,,,,,,,,,,,,,,,,,,,,,,,,,,,,,,,,,,,,,,,,,,,,
1768920048.787655,1768920048.788387,36.0,0.0,4332.692383,4336.282227,4344.871582,4351.025879,4336.025879,4330.128418,4309.615234,4368.333496,4327.94873,4316.153809,4507.94873,4538.846191,4412.692383,4456.410156,,,,,,,,,,,,,,,,,,,,,,,,,,,,,,,,,,,,,,,,,,,,,,,,,,,,,,,,,,,,,,,,,,,,,,
1768920048.795464,1768920048.796196,37.0,0.0,4332.436035,4333.974121,4344.102539,4354.615234,4331.025879,4334.615234,4310.769043,4365.256348,4323.717773,4320.384766,4507.307617,4541.410156,4411.922852,4454.102539,,,,,,,,,,,,,,,,,,,,,,,,,,,,,,,,,,,,,,,,,,,,,,,,,,,,,,,,,,,,,,,,,,,,,,
1768920048.803272,1768920048.803904,38.0,0.0,4337.563965,4335.641113,4350.641113,4356.282227,4332.820313,4340.512695,4319.102539,4370.897461,4327.94873,4313.589844,4505.128418,4540.128418,4413.077148,4454.871582,,,,,,,,,,,,,,,,,,,,,,,,,,,,,,,,,,,,,,,,,,,,,,,,,,,,,,,,,,,,,,,,,,,,,,
1768920048.811081,1768920048.811713,39.0,0.0,4336.025879,4336.794922,4351.282227,4355.384766,4335.769043,4339.743652,4325.769043,4379.230957,4334.487305,4310.256348,4508.077148,4542.436035,4416.153809,4457.692383,,,,,,,,,,,,,,,,,,,,,,,,,,,,,,,,,,,,,,,,,,,,,,,,,,,,,,,,,,,,,,,,,,,,,,
1768920048.818889,1768920048.819321,40.0,0.0,4327.179688,4324.615234,4342.692383,4345.384766,4333.333496,4337.436035,4327.436035,4373.461426,4329.358887,4311.025879,4505.256348,4538.077148,4406.922852,4448.333496,,,,,,,,,,,,,,,,,,,,,,,,,,,,,,,,,,,,,,,,,,,,,,,,,,,,,,,,,,,,,,,,,,,,,,
1768920048.826698,1768920048.827129,41.0,0.0,4324.871582,4312.692383,4337.307617,4336.282227,4325.769043,4337.307617,4322.436035,4365.641113,4326.282227,4309.358887,4498.974121,4531.282227,4398.974121,4442.692383,,,,,,,,,,,,,,,,,,,,,,,,,,,,,,,,,,,,,,,,,,,,,,,,,,,,,,,,,,,,,,,,,,,,,,
1768920048.834506,1768920048.834837,42.0,0.0,4334.230957,4319.615234,4343.077148,4346.282227,4323.205078,4336.410156,4322.563965,4378.974121,4340.128418,4317.820313,4509.743652,4546.794922,4414.358887,4460.641113,,,,,,,,,,,,,,,,,,,,,,,,,,,,,,,,,,,,,,,,,,,,,,,,,,,,,,,,,,,,,,,,,,,,,,
1768920048.842315,1768920048.842646,43.0,0.0,4343.717773,4334.487305,4356.153809,4359.871582,4331.794922,4333.589844,4330.384766,4387.307617,4347.436035,4330.128418,4526.922852,4565.0,4431.538574,4476.538574,,,,,,,,,,,,,,,,,,,,,,,,,,,,,,,,,,,,,,,,,,,,,,,,,,,,,,,,,,,,,,,,,,,,,,
1768920048.850124,1768920048.850654,44.0,0.0,4339.615234,4336.538574,4358.589844,4359.102539,4333.717773,4328.205078,4325.897461,4371.922852,4333.077148,4328.974121,4527.05127,4558.974121,4431.153809,4470.0,,,,,,,,,,,,,,,,,,,,,,,,,,,,,,,,,,,,,,,,,,,,,,,,,,,,,,,,,,,,,,,,,,,,,,
1768920048.857932,1768920048.858463,45.0,0.0,4330.641113,4329.743652,4346.025879,4352.563965,4329.743652,4328.461426,4312.436035,4364.102539,4322.563965,4323.461426,4520.0,4546.922852,4424.871582,4459.230957,,,,,,,,,,,,,,,,,,,,,,,,,,,,,,,,,,,,,,,,,,,,,,,,,,,,,,,,,,,,,,,,,,,,,,
1768920048.86574,1768920048.866371,46.0,0.0,4330.512695,4327.179688,4340.512695,4350.769043,4332.307617,4333.333496,4311.153809,4370.512695,4328.846191,4324.615234,4520.384766,4543.077148,4421.282227,4460.0,,,,,,,,,,,,,,,,,,,,,,,,,,,,,,,,,,,,,,,,,,,,,,,,,,,,,,,,,,,,,,,,,,,,,,
1768920048.873549,1768920048.87418,47.0,0.0,4331.282227,4325.641113,4345.897461,4351.410156,4332.820313,4337.05127,4323.717773,4373.461426,4338.717773,4327.307617,4521.794922,4546.794922,4422.820313,4461.794922,,,,,,,,,,,,,,,,,,,,,,,,,,,,,,,,,,,,,,,,,,,,,,,,,,,,,,,,,,,,,,,,,,,,,,
1768920048.881358,1768920048.882188,48.0,0.0,4330.128418,4321.538574,4346.153809,4351.282227,4329.871582,4336.410156,4330.128418,4373.589844,4340.769043,4327.820313,4522.692383,4553.333496,4428.974121,4461.025879,0.331969,0.275289,0.229341,0.383247,0.311987,0.471029,0.365323,0.373864,0.195449,0.130136,0.14366,0.319297,0.480087,0.504113,0.198304,0.391492,0.273678,0.370915,0.333597,0.146708,0.175613,0.049522,0.091578,0.103465,0.053404,0.305295,0.192421,0.082672,0.28821,0.144484,1.211455,0.383353,0.175246,0.463291,0.230155,0.15107,0.30035,0.121283,0.204149,0.112416,0.398729,0.599747,0.259054,0.207968,0.084825,0.422094,0.706501,0.26242,0.31504,0.103537,0.572161,1.039099,0.678743,0.317779,0.211372,0.334729,0.979432,0.595733,0.532522,0.324553,1.236355,1.088088,0.46818,0.263407,0.169488,0.785313,0.895558,0.39841,0.625343,0.29526
1768920048.889166,1768920048.889996,49.0,0.0,4328.717773,4319.615234,4340.256348,4348.846191,4333.205078,4333.974121,4323.461426,4372.307617,4336.538574,4326.666504,4519.871582,4547.94873,4425.0,4456.410156,,,,,,,,,,,,,,,,,,,,,,,,,,,,,,,,,,,,,,,,,,,,,,,,,,,,,,,,,,,,,,,,,,,,,,
1768920048.896974,1768920048.897705,50.0,0.0,4327.05127,4320.384766,4340.769043,4348.333496,4339.871582,4336.922852,4322.94873,4373.717773,4336.922852,4324.871582,4513.461426,4536.153809,4414.743652,4453.717773,,,,,,,,,,,,,,,,,,,,,,,,,,,,,,,,,,,,,,,,,,,,,,,,,,,,,,,,,,,,,,,,,,,,,,
1768920048.904783,1768920048.905513,51.0,0.0,4327.94873,4322.692383,4343.974121,4352.94873,4340.384766,4342.05127,4334.102539,4376.410156,4341.538574,4324.743652,4508.717773,4539.102539,4414.487305,4453.589844,,,,,,,,,,,,,,,,,,,,,,,,,,,,,,,,,,,,,,,,,,,,,,,,,,,,,,,,,,,,,,,,,,,,,,
1768920048.912592,1768920048.913521,52.0,0.0,4330.384766,4325.256348,4342.307617,4355.897461,4342.307617,4337.436035,4334.615234,4372.94873,4338.205078,4324.102539,4508.717773,4543.333496,4413.846191,4449.358887,,,,,,,,,,,,,,,,,,,,,,,,,,,,,,,,,,,,,,,,,,,,,,,,,,,,,,,,,,,,,,,,,,,,,,
1768920048.9204,1768920048.92133,53.0,0.0,4331.025879,4326.410156,4343.333496,4354.615234,4345.0,4328.974121,4323.589844,4370.384766,4332.05127,4323.589844,4511.794922,4537.307617,4415.0,4450.769043,,,,,,,,,,,,,,,,,,,,,,,,,,,,,,,,,,,,,,,,,,,,,,,,,,,,,,,,,,,,,,,,,,,,,,
1768920048.928209,1768920048.929238,54.0,0.0,4328.717773,4323.205078,4342.179688,4349.871582,4340.0,4332.94873,4328.589844,4378.333496,4338.333496,4325.512695,4511.410156,4537.563965,4422.820313,4454.102539,,,,,,,,,,,,,,,,,,,,,,,,,,,,,,,,,,,,,,,,,,,,,,,,,,,,,,,,,,,,,,,,,,,,,,
1768920048.936017,1768920048.937046,55.0,0.0,4324.102539,4320.769043,4330.769043,4343.077148,4336.410156,4339.487305,4337.563965,4379.615234,4344.615234,4328.077148,4512.05127,4539.487305,4423.077148,4449.871582,,,,,,,,,,,,,,,,,,,,,,,,,,,,,,,,,,,,,,,,,,,,,,,,,,,,,,,,,,,,,,,,,,,,,,
1768920048.943826,1768920048.944655,56.0,0.0,4318.974121,4321.666504,4324.615234,4343.461426,4339.358887,4338.461426,4329.230957,4369.871582,4339.102539,4328.077148,4514.487305,4532.94873,4419.615234,4447.94873,,,,,,,,,,,,,,,,,,,,,,,,,,,,,,,,,,,,,,,,,,,,,,,,,,,,,,,,,,,,,,,,,,,,,,
1768920048.951634,1768920048.952463,57.0,0.0,4319.102539,4323.461426,4333.589844,4350.128418,4343.717773,4339.102539,4322.692383,4367.436035,4336.025879,4326.794922,4517.94873,4533.077148,4425.384766,4454.743652,,,,,,,,,,,,,,,,,,,,,,,,,,,,,,,,,,,,,,,,,,,,,,,,,,,,,,,,,,,,,,,,,,,,,,
1768920048.959443,1768920048.960172,58.0,0.0,4327.563965,4325.256348,4338.333496,4351.538574,4342.563965,4342.05127,4329.487305,4374.487305,4340.641113,4327.436035,4520.769043,4543.461426,4430.512695,4458.717773,,,,,,,,,,,,,,,,,,,,,,,,,,,,,,,,,,,,,,,,,,,,,,,,,,,,,,,,,,,,,,,,,,,,,,
1768920048.967251,1768920048.96798,59.0,0.0,4331.410156,4325.384766,4332.820313,4350.128418,4339.871582,4338.717773,4332.05127,4375.641113,4341.538574,4327.820313,4521.794922,4544.230957,4426.153809,4456.025879,,,,,,,,,,,,,,,,,,,,,,,,,,,,,,,,,,,,,,,,,,,,,,,,,,,,,,,,,,,,,,,,,,,,,,
1768920048.97506,1768920048.975988,60.0,0.0,4325.512695,4317.436035,4334.358887,4348.846191,4339.358887,4335.128418,4324.871582,4368.974121,4340.512695,4326.794922,4523.461426,4542.436035,4424.102539,4457.05127,,,,,,,,,,,,,,,,,,,,,,,,,,,,,,,,,,,,,,,,,,,,,,,,,,,,,,,,,,,,,,,,,,,,,,
1768920048.982868,1768920048.983797,61.0,0.0,4326.153809,4308.077148,4342.563965,4345.128418,4337.820313,4336.666504,4327.05127,4372.436035,4343.077148,4326.794922,4523.717773,4552.179688,4426.666504,4466.282227,,,,,,,,,,,,,,,,,,,,,,,,,,,,,,,,,,,,,,,,,,,,,,,,,,,,,,,,,,,,,,,,,,,,,,
1768920048.990677,1768920048.991706,62.0,0.0,4339.102539,4315.128418,4346.410156,4348.717773,4340.128418,4343.589844,4336.153809,4378.717773,4342.563965,4323.077148,4525.384766,4558.333496,4427.307617,4479.487305,,,,,,,,,,,,,,,,,,,,,,,,,,,,,,,,,,,,,,,,,,,,,,,,,,,,,,,,,,,,,,,,,,,,,,
1768920048.998485,1768920048.999514,63.0,0.0,4351.153809,4326.538574,4344.871582,4356.153809,4342.05127,4342.692383,4333.077148,4373.333496,4338.589844,4315.128418,4528.333496,4557.94873,4426.666504,4487.179688,,,,,,,,,,,,,,,,,,,,,,,,,,,,,,,,,,,,,,,,,,,,,,,,,,,,,,,,,,,,,,,,,,,,,,
1768920049.006294,1768920049.007123,64.0,0.0,4357.179688,4327.94873,4344.230957,4355.897461,4339.358887,4332.692383,4325.769043,4370.897461,4337.307617,4315.384766,4530.897461,4559.358887,4428.461426,4497.820313,0.401612,0.281847,0.208018,0.377218,0.309281,0.682338,0.417801,0.300585,0.188652,0.12543,0.17644,0.313401,0.444498,0.464783,0.183741,0.490881,0.331598,0.383582,0.330662,0.146993,0.199941,0.045455,0.100775,0.112974,0.054314,0.227213,0.166979,0.096158,0.277026,0.146776,0.688308,0.3904,0.191252,0.473508,0.229981,0.159471,0.334373,0.099908,0.190356,0.124184,0.385092,0.727865,0.261105,0.205771,0.08684,0.495202,0.879895,0.293076,0.331949,0.101087,0.727666,1.12657,0.691155,0.348689,0.216716,0.504351,1.101945,0.578479,0.566757,0.290464,1.429014,1.118194,0.476877,0.286669,0.168631,0.981215,0.970881,0.411545,0.722175,0.304631
1768920049.014102,1768920049.014931,65.0,0.0,4366.538574,4333.717773,4353.205078,4359.743652,4340.897461,4335.897461,4335.0,4376.282227,4334.615234,4317.563965,4526.282227,4561.410156,4429.615234,4511.153809,,,,,,,,,,,,,,,,,,,,,,,,,,,,,,,,,,,,,,,,,,,,,,,,,,,,,,,,,,,,,,,,,,,,,,
1768920049.021911,1768920049.022639,66.0,0.0,4379.615234,4345.256348,4363.974121,4368.461426,4345.897461,4345.0,4342.179688,4376.153809,4330.0,4312.436035,4520.769043,4559.487305,4420.769043,4509.743652,,,,,,,,,,,,,,,,,,,,,,,,,,,,,,,,,,,,,,,,,,,,,,,,,,,,,,,,,,,,,,,,,,,,,,
1768920049.029719,1768920049.030448,67.0,0.0,4385.384766,4343.846191,4360.128418,4366.282227,4344.230957,4338.077148,4325.384766,4364.102539,4324.871582,4308.589844,4522.05127,4550.769043,4416.153809,4499.743652,,,,,,,,,,,,,,,,,,,,,,,,,,,,,,,,,,,,,,,,,,,,,,,,,,,,,,,,,,,,,,,,,,,,,,
1768920049.037528,1768920049.038056,68.0,0.0,4377.436035,4336.538574,4350.512695,4361.794922,4340.384766,4327.05127,4313.974121,4358.589844,4322.436035,4308.205078,4519.230957,4543.589844,4417.307617,4494.358887,,,,,,,,,,,,,,,,,,,,,,,,,,,,,,,,,,,,,,,,,,,,,,,,,,,,,,,,,,,,,,,,,,,,,,
1768920049.045336,1768920049.045864,69.0,0.0,4363.333496,4335.512695,4349.743652,4359.615234,4341.410156,4328.974121,4322.94873,4366.538574,4324.871582,4308.589844,4513.205078,4545.641113,4414.615234,4493.461426,,,,,,,,,,,,,,,,,,,,,,,,,,,,,,,,,,,,,,,,,,,,,,,,,,,,,,,,,,,,,,,,,,,,,,
1768920049.053145,1768920049.053772,70.0,0.0,4359.615234,4334.102539,4349.102539,4353.461426,4340.512695,4331.666504,4329.102539,4368.205078,4327.05127,4309.102539,4509.230957,4545.897461,4412.05127,4490.769043,,,,,,,,,,,,,,,,,,,,,,,,,,,,,,,,,,,,,,,,,,,,,,,,,,,,,,,,,,,,,,,,,,,,,,
1768920049.060953,1768920049.061581,71.0,0.0,4359.487305,4330.128418,4342.307617,4350.256348,4336.666504,4330.128418,4324.487305,4363.077148,4326.153809,4308.589844,4508.077148,4540.384766,4406.025879,4481.410156,,,,,,,,,,,,,,,,,,,,,,,,,,,,,,,,,,,,,,,,,,,,,,,,,,,,,,,,,,,,,,,,,,,,,,
1768920049.068762,1768920049.069589,72.0,0.0,4348.333496,4325.769043,4338.333496,4349.871582,4335.641113,4328.717773,4322.563965,4365.128418,4325.769043,4307.692383,4508.333496,4540.256348,4399.615234,4469.102539,,,,,,,,,,,,,,,,,,,,,,,,,,,,,,,,,,,,,,,,,,,,,,,,,,,,,,,,,,,,,,,,,,,,,,
1768920049.07657,1768920049.077398,73.0,0.0,4341.025879,4324.871582,4339.230957,4348.589844,4338.589844,4328.333496,4324.615234,4369.871582,4327.436035,4309.487305,4507.94873,4540.769043,4404.871582,4461.794922,,,,,,,,,,,,,,,,,,,,,,,,,,,,,,,,,,,,,,,,,,,,,,,,,,,,,,,,,,,,,,,,,,,,,,
1768920049.084379,1768920049.085306,74.0,0.0,4349.102539,4327.563965,4338.846191,4350.128418,4341.922852,4331.794922,4324.230957,4370.641113,4333.333496,4314.743652,4510.384766,4537.179688,4415.897461,4462.179688,,,,,,,,,,,,,,,,,,,,,,,,,,,,,,,,,,,,,,,,,,,,,,,,,,,,,,,,,,,,,,,,,,,,,,
1768920049.092188,1768920049.093114,75.0,0.0,4356.153809,4326.153809,4337.692383,4350.384766,4340.256348,4330.641113,4325.384766,4373.333496,4340.512695,4316.666504,4512.436035,4541.025879,4414.615234,4461.922852,,,,,,,,,,,,,,,,,,,,,,,,,,,,,,,,,,,,,,,,,,,,,,,,,,,,,,,,,,,,,,,,,,,,,,
1768920049.099996,1768920049.101123,76.0,0.0,4355.769043,4325.384766,4339.871582,4348.846191,4338.205078,4323.846191,4325.512695,4374.743652,4341.538574,4316.282227,4511.153809,4549.615234,4412.307617,4459.743652,,,,,,,,,,,,,,,,,,,,,,,,,,,,,,,,,,,,,,,,,,,,,,,,,,,,,,,,,,,,,,,,,,,,,,
1768920049.107804,1768920049.108931,77.0,0.0,4360.256348,4333.974121,4343.717773,4352.563965,4340.769043,4329.743652,4325.641113,4374.102539,4341.922852,4318.717773,4509.743652,4550.256348,4413.461426,4456.282227,,,,,,,,,,,,,,,,,,,,,,,,,,,,,,,,,,,,,,,,,,,,,,,,,,,,,,,,,,,,,,,,,,,,,,
1768920049.115613,1768920049.116639,78.0,0.0,4365.641113,4335.384766,4343.974121,4350.769043,4340.0,4335.897461,4323.717773,4371.794922,4341.153809,4321.153809,4509.871582,4541.025879,4407.820313,4449.615234,,,,,,,,,,,,,,,,,,,,,,,,,,,,,,,,,,,,,,,,,,,,,,,,,,,,,,,,,,,,,,,,,,,,,,
1768920049.123422,1768920049.124447,79.0,0.0,4360.641113,4329.102539,4338.974121,4343.205078,4337.94873,4329.487305,4321.282227,4367.307617,4336.794922,4321.410156,4508.461426,4534.487305,4407.179688,4445.769043,,,,,,,,,,,,,,,,,,,,,,,,,,,,,,,,,,,,,,,,,,,,,,,,,,,,,,,,,,,,,,,,,,,,,,
1768920049.13123,1768920049.132455,80.0,0.0,4357.179688,4331.025879,4341.794922,4347.436035,4341.922852,4334.615234,4332.692383,4375.0,4340.256348,4323.333496,4508.846191,4540.0,4413.077148,4446.410156,0.536556,0.276598,0.182735,0.350087,0.291518,0.91769,0.461917,0.260278,0.183931,0.122407,0.26453,0.305838,0.389947,0.398272,0.166915,0.60191,0.380917,0.379908,0.312996,0.142667,0.227403,0.052413,0.110437,0.128645,0.054135,0.160134,0.135254,0.107367,0.249158,0.153628,0.35363,0.399255,0.194243,0.450012,0.235098,0.167381,0.340098,0.082973,0.169873,0.147724,0.385701,0.783185,0.261292,0.196918,0.089921,0.575397,0.975643,0.299493,0.339499,0.098817,0.944405,1.155646,0.65967,0.370835,0.216449,0.788136,1.210588,0.526673,0.577446,0.260681,1.590127,1.093592,0.463111,0.307991,0.167377,1.192319,1.000082,0.424498,0.773483,0.302383
1768920049.139038,1768920049.140264,81.0,0.0,4360.256348,4333.717773,4347.94873,4355.0,4344.230957,4339.230957,4339.358887,4385.769043,4346.922852,4323.077148,4512.436035,4544.358887,4412.692383,4446.025879,,,,,,,,,,,,,,,,,,,,,,,,,,,,,,,,,,,,,,,,,,,,,,,,,,,,,,,,,,,,,,,,,,,,,,
1768920049.146847,1768920049.147972,82.0,0.0,4357.05127,4332.05127,4346.153809,4356.025879,4343.461426,4329.487305,4326.922852,4378.461426,4341.410156,4318.589844,4510.641113,4540.769043,4406.025879,4440.128418,,,,,,,,,,,,,,,,,,,,,,,,,,,,,,,,,,,,,,,,,,,,,,,,,,,,,,,,,,,,,,,,,,,,,,
1768920049.154656,1768920049.15578,83.0,0.0,4351.666504,4331.282227,4342.820313,4354.230957,4344.871582,4334.102539,4321.922852,4370.0,4334.743652,4313.333496,4505.256348,4537.563965,4400.769043,4438.205078,,,,,,,,,,,,,,,,,,,,,,,,,,,,,,,,,,,,,,,,,,,,,,,,,,,,,,,,,,,,,,,,,,,,,,
1768920049.162464,1768920049.163389,84.0,0.0,4350.512695,4328.846191,4342.307617,4353.717773,4343.974121,4345.256348,4331.282227,4374.358887,4335.0,4311.153809,4504.743652,4536.922852,4403.333496,4438.717773,,,,,,,,,,,,,,,,,,,,,,,,,,,,,,,,,,,,,,,,,,,,,,,,,,,,,,,,,,,,,,,,,,,,,,
1768920049.170273,1768920049.171197,85.0,0.0,4350.256348,4329.102539,4345.641113,4358.974121,4344.615234,4342.05127,4334.487305,4378.333496,4333.589844,4314.102539,4507.692383,4536.282227,4404.871582,4434.743652,,,,,,,,,,,,,,,,,,,,,,,,,,,,,,,,,,,,,,,,,,,,,,,,,,,,,,,,,,,,,,,,,,,,,,
1768920049.178081,1768920049.178905,86.0,0.0,4352.05127,4338.077148,4357.436035,4368.717773,4349.743652,4339.871582,4331.922852,4379.230957,4336.025879,4314.358887,4507.436035,4542.179688,4398.717773,4434.358887,,,,,,,,,,,,,,,,,,,,,,,,,,,,,,,,,,,,,,,,,,,,,,,,,,,,,,,,,,,,,,,,,,,,,,
1768920049.18589,1768920049.186714,87.0,0.0,4352.307617,4342.820313,4368.461426,4371.794922,4351.794922,4342.820313,4333.461426,4378.846191,4341.153809,4311.666504,4506.410156,4550.512695,4396.794922,4441.922852,,,,,,,,,,,,,,,,,,,,,,,,,,,,,,,,,,,,,,,,,,,,,,,,,,,,,,,,,,,,,,,,,,,,,,
1768920049.193698,1768920049.194722,88.0,0.0,4348.974121,4340.641113,4367.05127,4368.205078,4351.666504,4342.563965,4338.461426,4376.025879,4338.205078,4314.487305,4507.436035,4548.077148,4405.769043,4445.769043,,,,,,,,,,,,,,,,,,,,,,,,,,,,,,,,,,,,,,,,,,,,,,,,,,,,,,,,,,,,,,,,,,,,,,
1768920049.201507,1768920049.202531,89.0,0.0,4344.615234,4340.512695,4360.641113,4367.307617,4354.358887,4346.282227,4338.717773,4372.820313,4333.974121,4318.717773,4509.487305,4540.0,4413.205078,4444.615234,,,,,,,,,,,,,,,,,,,,,,,,,,,,,,,,,,,,,,,,,,,,,,,,,,,,,,,,,,,,,,,,,,,,,,
1768920049.209315,1768920049.210239,90.0,0.0,4339.487305,4338.846191,4350.641113,4364.102539,4351.282227,4342.436035,4328.205078,4372.692383,4335.512695,4316.794922,4509.487305,4537.179688,4410.769043,4443.077148,,,,,,,,,,,,,,,,,,,,,,,,,,,,,,,,,,,,,,,,,,,,,,,,,,,,,,,,,,,,,,,,,,,,,,
1768920049.217124,1768920049.218047,91.0,0.0,4335.897461,4334.871582,4341.794922,4357.05127,4341.666504,4333.333496,4323.333496,4377.436035,4338.333496,4317.820313,4508.333496,4542.692383,4408.589844,4443.846191,,,,,,,,,,,,,,,,,,,,,,,,,,,,,,,,,,,,,,,,,,,,,,,,,,,,,,,,,,,,,,,,,,,,,,
1768920049.224932,1768920049.225656,92.0,0.0,4336.922852,4338.333496,4349.358887,4358.077148,4342.436035,4337.05127,4330.512695,4382.05127,4340.128418,4323.974121,4514.230957,4548.846191,4416.794922,4450.384766,,,,,,,,,,,,,,,,,,,,,,,,,,,,,,,,,,,,,,,,,,,,,,,,,,,,,,,,,,,,,,,,,,,,,,
1768920049.232741,1768920049.233464,93.0,0.0,4337.94873,4343.205078,4357.563965,4364.871582,4351.153809,4342.692383,4331.922852,4376.666504,4339.358887,4325.256348,4523.461426,4546.538574,4424.230957,4454.102539,,,,,,,,,,,,,,,,,,,,,,,,,,,,,,,,,,,,,,,,,,,,,,,,,,,,,,,,,,,,,,,,,,,,,,
1768920049.240549,1768920049.241172,94.0,0.0,4333.589844,4334.487305,4348.205078,4362.692383,4349.102539,4340.128418,4324.487305,4371.025879,4335.384766,4322.05127,4523.077148,4540.384766,4418.974121,4447.692383,,,,,,,,,,,,,,,,,,,,,,,,,,,,,,,,,,,,,,,,,,,,,,,,,,,,,,,,,,,,,,,,,,,,,,
1768920049.248358,1768920049.24898,95.0,0.0,4328.846191,4328.846191,4339.230957,4355.769043,4342.05127,4335.641113,4323.077148,4371.794922,4335.897461,4318.077148,4510.641113,4535.897461,4410.512695,4440.384766,,,,,,,,,,,,,,,,,,,,,,,,,,,,,,,,,,,,,,,,,,,,,,,,,,,,,,,,,,,,,,,,,,,,,,
1768920049.256166,1768920049.256989,96.0,0.0,4332.307617,4333.846191,4342.94873,4356.922852,4343.461426,4335.0,4327.05127,4370.641113,4339.230957,4318.077148,4504.871582,4533.974121,4411.153809,4437.94873,0.78527,0.269881,0.159487,0.310977,0.262902,1.121359,0.473927,0.266236,0.187473,0.117725,0.429744,0.293816,0.329129,0.328434,0.154063,0.710007,0.399711,0.366984,0.288828,0.133555,0.256327,0.063647,0.114054,0.147495,0.053345,0.125749,0.105857,0.116674,0.212117,0.159996,0.2056,0.410242,0.184661,0.395866,0.242793,0.183035,0.321662,0.069426,0.148148,0.179123,0.410207,0.766578,0.248119,0.181008,0.096216,0.640478,0.985933,0.275152,0.334342,0.096424,1.194597,1.144558,0.580581,0.375781,0.207984,1.184221,1.294131,0.443881,0.558706,0.241239,1.690113,1.040085,0.418361,0.318773,0.163008,1.484374,0.983209,0.422658,0.765064,0.289711
1768920049.263975,1768920049.264797,97.0,0.0,4341.025879,4335.0,4348.589844,4359.743652,4343.846191,4338.205078,4327.94873,4373.333496,4339.230957,4321.666504,4514.102539,4535.128418,4413.205078,4441.025879,,,,,,,,,,,,,,,,,,,,,,,,,,,,,,,,,,,,,,,,,,,,,,,,,,,,,,,,,,,,,,,,,,,,,,
1768920049.271783,1768920049.272705,98.0,0.0,4345.128418,4333.974121,4353.077148,4360.128418,4339.230957,4334.102539,4325.897461,4379.487305,4337.820313,4325.256348,4523.205078,4540.641113,4413.846191,4445.128418,,,,,,,,,,,,,,,,,,,,,,,,,,,,,,,,,,,,,,,,,,,,,,,,,,,,,,,,,,,,,,,,,,,,,,
1768920049.279592,1768920049.280514,99.0,0.0,4344.102539,4338.846191,4355.256348,4363.717773,4340.0,4329.743652,4325.897461,4378.974121,4337.563965,4328.205078,4523.846191,4545.128418,4415.256348,4444.743652,,,,,,,,,,,,,,,,,,,,,,,,,,,,,,,,,,,,,,,,,,,,,,,,,,,,,,,,,,,,,,,,,,,,,,
1768920049.2874,1768920049.288522,100.0,0.0,4346.282227,4344.230957,4354.871582,4367.436035,4342.307617,4337.820313,4327.94873,4374.487305,4334.487305,4325.769043,4517.436035,4543.974121,4412.692383,4443.717773,,,,,,,,,,,,,,,,,,,,,,,,,,,,,,,,,,,,,,,,,,,,,,,,,,,,,,,,,,,,,,,,,,,,,,
1768920049.295209,1768920049.296331,101.0,0.0,4354.615234,4346.794922,4357.94873,4368.974121,4341.538574,4341.410156,4328.974121,4373.077148,4333.077148,4323.077148,4516.282227,4546.282227,4411.922852,4444.615234,,,,,,,,,,,,,,,,,,,,,,,,,,,,,,,,,,,,,,,,,,,,,,,,,,,,,,,,,,,,,,,,,,,,,,
1768920049.303017,1768920049.304239,102.0,0.0,4357.692383,4346.282227,4357.563965,4367.05127,4343.077148,4327.692383,4324.743652,4373.589844,4338.846191,4324.743652,4520.641113,4549.102539,4415.897461,4443.077148,,,,,,,,,,,,,,,,,,,,,,,,,,,,,,,,,,,,,,,,,,,,,,,,,,,,,,,,,,,,,,,,,,,,,,
1768920049.310826,1768920049.312047,103.0,0.0,4351.025879,4342.820313,4350.128418,4363.333496,4345.384766,4323.717773,4324.230957,4372.563965,4338.846191,4323.589844,4522.179688,4545.384766,4416.410156,4444.615234,,,,,,,,,,,,,,,,,,,,,,,,,,,,,,,,,,,,,,,,,,,,,,,,,,,,,,,,,,,,,,,,,,,,,,
1768920049.318634,1768920049.319656,104.0,0.0,4350.128418,4342.563965,4351.410156,4366.666504,4346.025879,4338.205078,4333.461426,4374.230957,4331.153809,4320.256348,4519.743652,4544.230957,4416.410156,4446.666504,,,,,,,,,,,,,,,,,,,,,,,,,,,,,,,,,,,,,,,,,,,,,,,,,,,,,,,,,,,,,,,,,,,,,,
1768920049.326443,1768920049.327464,105.0,0.0,4356.410156,4345.128418,4363.846191,4372.436035,4343.461426,4345.769043,4337.05127,4375.0,4330.769043,4322.179688,4520.128418,4552.307617,4422.307617,4444.615234,,,,,,,,,,,,,,,,,,,,,,,,,,,,,,,,,,,,,,,,,,,,,,,,,,,,,,,,,,,,,,,,,,,,,,
1768920049.334252,1768920049.335173,106.0,0.0,4360.897461,4347.179688,4367.307617,4369.615234,4340.256348,4338.333496,4326.794922,4370.897461,4332.436035,4321.922852,4522.05127,4554.230957,4422.436035,4449.358887,,,,,,,,,,,,,,,,,,,,,,,,,,,,,,,,,,,,,,,,,,,,,,,,,,,,,,,,,,,,,,,,,,,,,,
1768920049.34206,1768920049.342981,107.0,0.0,4358.461426,4344.487305,4360.384766,4365.0,4340.897461,4335.641113,4321.410156,4366.410156,4325.769043,4315.641113,4518.461426,4544.615234,4413.589844,4454.102539,,,,,,,,,,,,,,,,,,,,,,,,,,,,,,,,,,,,,,,,,,,,,,,,,,,,,,,,,,,,,,,,,,,,,,
1768920049.349868,1768920049.350589,108.0,0.0,4351.153809,4337.179688,4357.820313,4365.0,4343.077148,4339.358887,4328.205078,4371.538574,4326.538574,4318.333496,4518.717773,4544.615234,4413.333496,4450.641113,,,,,,,,,,,,,,,,,,,,,,,,,,,,,,,,,,,,,,,,,,,,,,,,,,,,,,,,,,,,,,,,,,,,,,
1768920049.357677,1768920049.358398,109.0,0.0,4349.487305,4336.153809,4356.666504,4362.436035,4341.410156,4333.846191,4326.153809,4377.179688,4337.179688,4325.512695,4522.820313,4552.436035,4418.846191,4452.179688,,,,,,,,,,,,,,,,,,,,,,,,,,,,,,,,,,,,,,,,,,,,,,,,,,,,,,,,,,,,,,,,,,,,,,
1768920049.365486,1768920049.366106,110.0,0.0,4357.94873,4341.794922,4356.538574,4361.410156,4339.230957,4331.153809,4324.871582,4372.692383,4339.230957,4324.358887,4522.820313,4557.05127,4418.589844,4460.512695,,,,,,,,,,,,,,,,,,,,,,,,,,,,,,,,,,,,,,,,,,,,,,,,,,,,,,,,,,,,,,,,,,,,,,
1768920049.373294,1768920049.373914,111.0,0.0,4369.487305,4344.871582,4363.461426,4366.666504,4341.538574,4342.05127,4335.897461,4371.025879,4337.436035,4322.692383,4521.794922,4557.436035,4421.282227,4463.333496,,,,,,,,,,,,,,,,,,,,,,,,,,,,,,,,,,,,,,,,,,,,,,,,,,,,,,,,,,,,,,,,,,,,,,
1768920049.381102,1768920049.381923,112.0,0.0,4370.769043,4344.230957,4369.230957,4368.333496,4342.94873,4344.230957,4335.256348,4375.0,4339.230957,4326.410156,4522.307617,4554.871582,4427.307617,4460.128418,1.205233,0.318527,0.153608,0.271819,0.230885,1.245523,0.457651,0.321729,0.204148,0.110873,0.678811,0.281464,0.274558,0.275535,0.149553,0.803457,0.378978,0.354155,0.268917,0.122203,0.28574,0.07413,0.108977,0.165456,0.052873,0.136273,0.08372,0.126063,0.176547,0.163148,0.175758,0.421835,0.170196,0.324708,0.252164,0.202219,0.29175,0.059997,0.131026,0.21161,0.459215,0.705178,0.220324,0.161908,0.106845,0.682338,0.936723,0.226273,0.314982,0.092617,1.434398,1.126216,0.468687,0.359799,0.190969,1.633326,1.344499,0.347414,0.516127,0.231145,1.711103,0.99688,0.347881,0.317915,0.155859,2.021408,0.961717,0.398204,0.703015,0.269854
1768920049.388911,1768920049.389731,113.0,0.0,4366.794922,4346.922852,4369.358887,4368.589844,4341.410156,4338.205078,4326.153809,4376.538574,4341.025879,4328.846191,4525.128418,4556.538574,4429.102539,4464.230957,,,,,,,,,,,,,,,,,,,,,,,,,,,,,,,,,,,,,,,,,,,,,,,,,,,,,,,,,,,,,,,,,,,,,,
1768920049.39672,1768920049.39764,114.0,0.0,4367.692383,4350.769043,4367.94873,4373.461426,4341.922852,4339.358887,4331.410156,4380.0,4343.205078,4330.384766,4529.871582,4564.743652,4432.179688,4473.205078,,,,,,,,,,,,,,,,,,,,,,,,,,,,,,,,,,,,,,,,,,,,,,,,,,,,,,,,,,,,,,,,,,,,,,
1768920049.404528,1768920049.405448,115.0,0.0,4367.94873,4348.717773,4364.615234,4372.307617,4342.563965,4340.641113,4339.871582,4381.282227,4337.94873,4330.384766,4531.538574,4564.230957,4433.846191,4470.769043,,,,,,,,,,,,,,,,,,,,,,,,,,,,,,,,,,,,,,,,,,,,,,,,,,,,,,,,,,,,,,,,,,,,,,
1768920049.412337,1768920049.413457,116.0,0.0,4358.077148,4340.384766,4355.769043,4362.563965,4341.025879,4341.025879,4333.461426,4369.487305,4324.102539,4320.0,4520.256348,4546.410156,4424.102539,4456.794922,,,,,,,,,,,,,,,,,,,,,,,,,,,,,,,,,,,,,,,,,,,,,,,,,,,,,,,,,,,,,,,,,,,,,,
1768920049.420145,1768920049.421266,117.0,0.0,4348.077148,4334.743652,4350.384766,4357.307617,4341.282227,4343.333496,4327.179688,4362.307617,4322.692383,4310.897461,4508.717773,4532.563965,4416.922852,4446.025879,,,,,,,,,,,,,,,,,,,,,,,,,,,,,,,,,,,,,,,,,,,,,,,,,,,,,,,,,,,,,,,,,,,,,,
1768920049.427954,1768920049.428974,118.0,0.0,4346.538574,4337.820313,4353.974121,4357.179688,4342.94873,4337.307617,4327.05127,4370.897461,4338.077148,4318.717773,4515.128418,4539.230957,4418.846191,4446.922852,,,,,,,,,,,,,,,,,,,,,,,,,,,,,,,,,,,,,,,,,,,,,,,,,,,,,,,,,,,,,,,,,,,,,,
1768920049.435762,1768920049.436782,119.0,0.0,4345.0,4338.717773,4358.717773,4356.153809,4340.897461,4334.743652,4326.666504,4375.128418,4346.153809,4327.563965,4525.128418,4550.512695,4417.307617,4453.205078,,,,,,,,,,,,,,,,,,,,,,,,,,,,,,,,,,,,,,,,,,,,,,,,,,,,,,,,,,,,,,,,,,,,,,
1768920049.443571,1768920049.44479,120.0,0.0,4345.512695,4331.153809,4355.128418,4355.897461,4339.743652,4342.307617,4327.436035,4369.615234,4338.333496,4321.666504,4516.922852,4546.410156,4412.307617,4453.333496,,,,,,,,,,,,,,,,,,,,,,,,,,,,,,,,,,,,,,,,,,,,,,,,,,,,,,,,,,,,,,,,,,,,,,
1768920049.451379,1768920049.452599,121.0,0.0,4347.563965,4324.871582,4346.538574,4355.128418,4338.846191,4340.512695,4328.205078,4367.692383,4333.205078,4314.743652,4506.153809,4535.769043,4410.128418,4443.846191,,,,,,,,,,,,,,,,,,,,,,,,,,,,,,,,,,,,,,,,,,,,,,,,,,,,,,,,,,,,,,,,,,,,,,
1768920049.459188,1768920049.460507,122.0,0.0,4348.333496,4330.897461,4350.0,4357.05127,4337.05127,4335.512695,4328.974121,4368.077148,4334.230957,4318.717773,4508.589844,4536.153809,4411.666504,4440.256348,,,,,,,,,,,,,,,,,,,,,,,,,,,,,,,,,,,,,,,,,,,,,,,,,,,,,,,,,,,,,,,,,,,,,,
1768920049.466996,1768920049.468316,123.0,0.0,4348.077148,4338.846191,4359.230957,4362.307617,4338.846191,4337.563965,4326.282227,4365.512695,4330.641113,4322.436035,4512.563965,4540.897461,4412.94873,4447.307617,,,,,,,,,,,,,,,,,,,,,,,,,,,,,,,,,,,,,,,,,,,,,,,,,,,,,,,,,,,,,,,,,,,,,,
1768920049.474805,1768920049.476324,124.0,0.0,4344.743652,4339.358887,4357.692383,4364.743652,4341.922852,4331.794922,4323.974121,4364.358887,4326.025879,4320.769043,4515.512695,4540.0,4415.641113,4452.179688,,,,,,,,,,,,,,,,,,,,,,,,,,,,,,,,,,,,,,,,,,,,,,,,,,,,,,,,,,,,,,,,,,,,,,
1768920049.482613,1768920049.484132,125.0,0.0,4346.538574,4339.615234,4355.128418,4365.897461,4342.94873,4327.307617,4327.692383,4365.256348,4329.358887,4319.487305,4520.897461,4542.692383,4417.563965,4456.282227,,,,,,,,,,,,,,,,,,,,,,,,,,,,,,,,,,,,,,,,,,,,,,,,,,,,,,,,,,,,,,,,,,,,,,
1768920049.490422,1768920049.491841,126.0,0.0,4355.0,4341.666504,4358.846191,4366.153809,4338.974121,4331.666504,4326.794922,4371.282227,4340.0,4323.333496,4523.205078,4553.846191,4415.897461,4462.05127,,,,,,,,,,,,,,,,,,,,,,,,,,,,,,,,,,,,,,,,,,,,,,,,,,,,,,,,,,,,,,,,,,,,,,
1768920049.49823,1768920049.499649,127.0,0.0,4357.692383,4341.410156,4360.0,4363.333496,4334.871582,4334.615234,4324.230957,4373.461426,4340.512695,4327.820313,4523.717773,4559.230957,4415.897461,4461.282227,,,,,,,,,,,,,,,,,,,,,,,,,,,,,,,,,,,,,,,,,,,,,,,,,,,,,,,,,,,,,,,,,,,,,,
1768920049.506039,1768920049.507258,0.0,0.0,4350.897461,4339.230957,4357.436035,4362.307617,4339.358887,4334.615234,4330.0,4363.846191,4328.974121,4325.512695,4521.282227,4550.512695,4416.282227,4457.820313,1.811917,0.483161,0.177945,0.241098,0.202384,1.273141,0.436442,0.411846,0.232218,0.104205,1.001096,0.276883,0.237175,0.250595,0.153516,0.885509,0.329097,0.348417,0.259652,0.112388,0.31688,0.082161,0.096155,0.178206,0.053476,0.194349,0.069885,0.136279,0.150242,0.163284,0.190336,0.430292,0.160694,0.255236,0.263638,0.224695,0.26388,0.057653,0.12335,0.237486,0.53058,0.635297,0.187098,0.146469,0.120218,0.711078,0.865868,0.167888,0.282876,0.086083,1.611496,1.1193,0.351187,0.326218,0.167756,2.041805,1.353097,0.260643,0.464048,0.224598,1.642923,0.98725,0.269206,0.308906,0.148533,2.91959,0.97405,0.355678,0.609487,0.245325
1768920049.513847,1768920049.515066,1.0,0.0,4350.641113,4339.615234,4357.692383,4363.205078,4339.358887,4332.692383,4329.230957,4360.897461,4325.256348,4322.820313,4520.0,4546.922852,4415.769043,4460.769043,,,,,,,,,,,,,,,,,,,,,,,,,,,,,,,,,,,,,,,,,,,,,,,,,,,,,,,,,,,,,,,,,,,,,,
1768920049.521656,1768920049.522775,2.0,0.0,4354.230957,4339.743652,4358.205078,4363.077148,4333.717773,4325.641113,4319.358887,4368.717773,4330.384766,4326.794922,4523.974121,4552.820313,4414.487305,4460.128418,,,,,,,,,,,,,,,,,,,,,,,,,,,,,,,,,,,,,,,,,,,,,,,,,,,,,,,,,,,,,,,,,,,,,,
1768920049.529464,1768920049.530583,3.0,0.0,4350.769043,4333.846191,4358.077148,4363.333496,4335.512695,4324.230957,4318.717773,4366.666504,4329.743652,4326.153809,4520.641113,4548.589844,4414.615234,4449.102539,,,,,,,,,,,,,,,,,,,,,,,,,,,,,,,,,,,,,,,,,,,,,,,,,,,,,,,,,,,,,,,,,,,,,,
1768920049.537273,1768920049.538191,4.0,0.0,4348.205078,4327.563965,4358.974121,4362.436035,4335.641113,4329.871582,4323.205078,4361.794922,4325.512695,4318.077148,4515.512695,4545.512695,4414.358887,4448.589844,,,,,,,,,,,,,,,,,,,,,,,,,,,,,,,,,,,,,,,,,,,,,,,,,,,,,,,,,,,,,,,,,,,,,,
1768920049.545081,1768920049.546,5.0,0.0,4347.307617,4326.794922,4354.230957,4355.641113,4329.230957,4328.077148,4322.692383,4364.871582,4325.0,4313.461426,4517.692383,4547.436035,4410.0,4454.487305,,,,,,,,,,,,,,,,,,,,,,,,,,,,,,,,,,,,,,,,,,,,,,,,,,,,,,,,,,,,,,,,,,,,,,
1768920049.55289,1768920049.553708,6.0,0.0,4344.743652,4330.0,4349.102539,4354.615234,4331.666504,4330.256348,4324.615234,4364.102539,4323.717773,4313.974121,4512.692383,4541.666504,4409.743652,4448.717773,,,,,,,,,,,,,,,,,,,,,,,,,,,,,,,,,,,,,,,,,,,,,,,,,,,,,,,,,,,,,,,,,,,,,,
1768920049.560698,1768920049.561517,7.0,0.0,4342.563965,4330.512695,4352.179688,4360.384766,4339.743652,4336.666504,4328.846191,4364.358887,4325.641113,4313.205078,4506.153809,4542.820313,4412.05127,4445.128418,,,,,,,,,,,,,,,,,,,,,,,,,,,,,,,,,,,,,,,,,,,,,,,,,,,,,,,,,,,,,,,,,,,,,,
1768920049.568507,1768920049.569125,8.0,0.0,4339.230957,4325.128418,4349.743652,4351.666504,4335.128418,4334.615234,4329.230957,4365.769043,4325.769043,4308.846191,4506.666504,4546.922852,4403.461426,4445.128418,,,,,,,,,,,,,,,,,,,,,,,,,,,,,,,,,,,,,,,,,,,,,,,,,,,,,,,,,,,,,,,,,,,,,,
1768920049.576316,1768920049.576933,9.0,0.0,4332.94873,4319.358887,4340.384766,4339.871582,4326.025879,4331.025879,4326.410156,4364.230957,4324.871582,4310.897461,4505.384766,4538.077148,4393.333496,4439.615234,,,,,,,,,,,,,,,,,,,,,,,,,,,,,,,,,,,,,,,,,,,,,,,,,,,,,,,,,,,,,,,,,,,,,,
1768920049.584124,1768920049.584842,10.0,0.0,4336.282227,4326.410156,4345.769043,4349.487305,4329.102539,4334.102539,4325.897461,4368.333496,4335.384766,4325.384766,4511.794922,4540.641113,4404.743652,4446.538574,,,,,,,,,,,,,,,,,,,,,,,,,,,,,,,,,,,,,,,,,,,,,,,,,,,,,,,,,,,,,,,,,,,,,,
1768920049.591932,1768920049.59265,11.0,0.0,4344.487305,4338.717773,4360.897461,4363.846191,4339.102539,4340.384766,4330.641113,4372.563965,4345.0,4335.641113,4526.410156,4558.333496,4427.436035,4464.358887,,,,,,,,,,,,,,,,,,,,,,,,,,,,,,,,,,,,,,,,,,,,,,,,,,,,,,,,,,,,,,,,,,,,,,
1768920049.599741,1768920049.600659,12.0,0.0,4343.846191,4336.410156,4361.538574,4362.05127,4340.641113,4334.743652,4330.256348,4367.179688,4340.641113,4332.05127,4525.256348,4558.846191,4427.94873,4464.615234,,,,,,,,,,,,,,,,,,,,,,,,,,,,,,,,,,,,,,,,,,,,,,,,,,,,,,,,,,,,,,,,,,,,,,
1768920049.60755,1768920049.608467,13.0,0.0,4343.461426,4329.615234,4355.512695,4358.589844,4335.384766,4326.666504,4322.307617,4363.333496,4336.153809,4324.358887,4519.358887,4549.743652,4415.0,4455.512695,,,,,,,,,,,,,,,,,,,,,,,,,,,,,,,,,,,,,,,,,,,,,,,,,,,,,,,,,,,,,,,,,,,,,,
1768920049.615358,1768920049.616175,14.0,0.0,4346.666504,4331.922852,4359.230957,4363.333496,4336.794922,4333.077148,4321.410156,4368.333496,4337.820313,4319.102539,4523.333496,4549.487305,4413.461426,4455.0,,,,,,,,,,,,,,,,,,,,,,,,,,,,,,,,,,,,,,,,,,,,,,,,,,,,,,,,,,,,,,,,,,,,,,
1768920049.623166,1768920049.623984,15.0,0.0,4346.153809,4330.769043,4364.102539,4365.0,4338.589844,4343.077148,4330.128418,4370.128418,4334.871582,4318.205078,4519.358887,4550.384766,4414.743652,4458.205078,,,,,,,,,,,,,,,,,,,,,,,,,,,,,,,,,,,,,,,,,,,,,,,,,,,,,,,,,,,,,,,,,,,,,,
1768920049.630975,1768920049.631592,16.0,0.0,4347.820313,4323.974121,4366.025879,4361.922852,4335.128418,4340.256348,4335.769043,4368.974121,4333.333496,4324.358887,4514.102539,4552.692383,4413.461426,4460.0,2.520574,0.794294,0.230916,0.220625,0.181714,1.212786,0.44481,0.502756,0.262547,0.100196,1.353856,0.294321,0.220738,0.253502,0.162607,0.967038,0.278979,0.349118,0.26039,0.106136,0.356787,0.086234,0.07899,0.182129,0.055232,0.293582,0.06125,0.145627,0.136188,0.162498,0.22293,0.428586,0.161138,0.202481,0.276713,0.2478,0.245801,0.06351,0.127565,0.250396,0.623089,0.583641,0.15846,0.14121,0.132573,0.742454,0.805474,0.114518,0.242957,0.07718,1.684758,1.122315,0.25158,0.285757,0.143297,2.321698,1.323447,0.197815,0.417477,0.216736,1.502464,1.011941,0.201519,0.295631,0.14361,4.132258,1.046217,0.304553,0.511534,0.218053
1768920049.638784,1768920049.6394,17.0,0.0,4356.410156,4325.384766,4365.0,4358.333496,4334.871582,4335.384766,4332.94873,4369.743652,4338.717773,4328.333496,4520.769043,4555.256348,4415.384766,4459.871582,,,,,,,,,,,,,,,,,,,,,,,,,,,,,,,,,,,,,,,,,,,,,,,,,,,,,,,,,,,,,,,,,,,,,,
1768920049.646592,1768920049.647309,18.0,0.0,4357.820313,4328.461426,4360.128418,4357.179688,4338.461426,4336.666504,4328.974121,4369.102539,4338.205078,4328.589844,4524.871582,4551.282227,4416.538574,4459.615234,,,,,,,,,,,,,,,,,,,,,,,,,,,,,,,,,,,,,,,,,,,,,,,,,,,,,,,,,,,,,,,,,,,,,,
1768920049.654401,1768920049.655117,19.0,0.0,4352.820313,4325.897461,4356.153809,4358.205078,4339.615234,4332.692383,4326.922852,4361.794922,4329.487305,4324.358887,4518.077148,4545.769043,4411.410156,4457.179688,,,,,,,,,,,,,,,,,,,,,,,,,,,,,,,,,,,,,,,,,,,,,,,,,,,,,,,,,,,,,,,,,,,,,,
1768920049.662209,1768920049.663125,20.0,0.0,4352.436035,4329.102539,4355.897461,4358.205078,4338.461426,4332.436035,4325.641113,4352.820313,4323.333496,4314.871582,4507.692383,4541.666504,4409.615234,4453.077148,,,,,,,,,,,,,,,,,,,,,,,,,,,,,,,,,,,,,,,,,,,,,,,,,,,,,,,,,,,,,,,,,,,,,,
1768920049.670018,1768920049.670934,21.0,0.0,4353.846191,4337.436035,4357.692383,4362.05127,4340.128418,4337.692383,4325.128418,4357.05127,4325.512695,4315.897461,4508.461426,4541.538574,4413.205078,4456.794922,,,,,,,,,,,,,,,,,,,,,,,,,,,,,,,,,,,,,,,,,,,,,,,,,,,,,,,,,,,,,,,,,,,,,,
1768920049.677826,1768920049.678842,22.0,0.0,4356.666504,4339.615234,4359.487305,4368.333496,4340.641113,4331.282227,4325.769043,4367.692383,4329.102539,4323.717773,4518.333496,4546.410156,4412.307617,4462.05127,,,,,,,,,,,,,,,,,,,,,,,,,,,,,,,,,,,,,,,,,,,,,,,,,,,,,,,,,,,,,,,,,,,,,,
1768920049.685635,1768920049.686651,23.0,0.0,4359.102539,4335.384766,4360.769043,4367.692383,4337.692383,4326.666504,4325.897461,4364.871582,4327.94873,4322.94873,4521.410156,4552.436035,4412.820313,4460.384766,,,,,,,,,,,,,,,,,,,,,,,,,,,,,,,,,,,,,,,,,,,,,,,,,,,,,,,,,,,,,,,,,,,,,,
1768920049.693443,1768920049.694659,24.0,0.0,4359.487305,4335.128418,4359.487305,4365.512695,4340.0,4333.589844,4321.410156,4355.512695,4324.743652,4321.282227,4520.769043,4556.538574,4419.358887,4465.384766,,,,,,,,,,,,,,,,,,,,,,,,,,,,,,,,,,,,,,,,,,,,,,,,,,,,,,,,,,,,,,,,,,,,,,
1768920049.701252,1768920049.702467,25.0,0.0,4360.128418,4340.769043,4359.230957,4367.179688,4343.717773,4335.128418,4317.692383,4355.641113,4324.358887,4323.333496,4520.641113,4552.179688,4420.0,4470.512695,,,,,,,,,,,,,,,,,,,,,,,,,,,,,,,,,,,,,,,,,,,,,,,,,,,,,,,,,,,,,,,,,,,,,,
1768920049.70906,1768920049.710176,26.0,0.0,4361.666504,4342.307617,4358.846191,4367.692383,4342.179688,4334.615234,4322.94873,4358.846191,4325.128418,4319.102539,4514.230957,4543.974121,4413.974121,4463.846191,,,,,,,,,,,,,,,,,,,,,,,,,,,,,,,,,,,,,,,,,,,,,,,,,,,,,,,,,,,,,,,,,,,,,,
1768920049.716869,1768920049.717984,27.0,0.0,4363.846191,4336.410156,4353.846191,4366.153809,4339.871582,4335.897461,4327.179688,4357.05127,4325.384766,4314.487305,4511.025879,4545.641113,4416.282227,4465.641113,,,,,,,,,,,,,,,,,,,,,,,,,,,,,,,,,,,,,,,,,,,,,,,,,,,,,,,,,,,,,,,,,,,,,,
1768920049.724677,1768920049.725593,28.0,0.0,4364.743652,4334.230957,4349.102539,4365.641113,4337.692383,4330.256348,4323.846191,4358.717773,4326.922852,4318.461426,4519.743652,4551.922852,4422.436035,4473.461426,,,,,,,,,,,,,,,,,,,,,,,,,,,,,,,,,,,,,,,,,,,,,,,,,,,,,,,,,,,,,,,,,,,,,,
1768920049.732486,1768920049.733401,29.0,0.0,4359.358887,4336.025879,4351.794922,4365.256348,4336.025879,4326.794922,4323.717773,4363.717773,4326.153809,4319.230957,4525.384766,4550.128418,4416.794922,4466.538574,,,,,,,,,,,,,,,,,,,,,,,,,,,,,,,,,,,,,,,,,,,,,,,,,,,,,,,,,,,,,,,,,,,,,,
1768920049.740294,1768920049.741109,30.0,0.0,4355.769043,4334.358887,4357.05127,4365.0,4336.538574,4336.153809,4328.205078,4362.820313,4324.358887,4313.589844,4516.410156,4542.179688,4409.743652,4456.025879,,,,,,,,,,,,,,,,,,,,,,,,,,,,,,,,,,,,,,,,,,,,,,,,,,,,,,,,,,,,,,,,,,,,,,
1768920049.748103,1768920049.748917,31.0,0.0,4361.794922,4336.538574,4358.717773,4366.794922,4337.436035,4335.128418,4326.282227,4356.025879,4326.922852,4312.436035,4509.358887,4540.512695,4412.307617,4457.94873,,,,,,,,,,,,,,,,,,,,,,,,,,,,,,,,,,,,,,,,,,,,,,,,,,,,,,,,,,,,,,,,,,,,,,
1768920049.755911,1768920049.756526,32.0,0.0,4361.666504,4341.538574,4357.820313,4366.025879,4338.333496,4325.769043,4325.0,4356.666504,4327.820313,4313.974121,4513.461426,4545.641113,4413.717773,4460.641113,3.180378,1.224195,0.296848,0.205504,0.170176,1.088242,0.508322,0.556379,0.282778,0.099915,1.6738,0.346248,0.221542,0.275866,0.172366,1.040685,0.25919,0.35084,0.263589,0.103063,0.398814,0.086276,0.061744,0.175666,0.057572,0.420537,0.054326,0.151783,0.13385,0.163228,0.267726,0.413935,0.172727,0.172757,0.288652,0.270155,0.237364,0.074569,0.14305,0.247322,0.729072,0.557911,0.141678,0.14983,0.140295,0.784198,0.766835,0.077289,0.202246,0.068577,1.639008,1.118525,0.180509,0.251667,0.123761,2.416546,1.263064,0.157918,0.385264,0.207151,1.315491,1.052151,0.160136,0.279282,0.142215,5.410635,1.17658,0.255511,0.429252,0.190538
1768920049.76372,1768920049.764334,33.0,0.0,4355.256348,4342.307617,4356.025879,4363.589844,4340.256348,4333.846191,4334.102539,4363.717773,4325.641113,4311.922852,4519.743652,4546.666504,4410.512695,4458.589844,,,,,,,,,,,,,,,,,,,,,,,,,,,,,,,,,,,,,,,,,,,,,,,,,,,,,,,,,,,,,,,,,,,,,,
1768920049.771528,1768920049.772042,34.0,0.0,4359.487305,4344.871582,4356.025879,4366.025879,4340.641113,4343.589844,4338.205078,4361.922852,4327.436035,4313.205078,4522.179688,4540.384766,4412.436035,4460.128418,,,,,,,,,,,,,,,,,,,,,,,,,,,,,,,,,,,,,,,,,,,,,,,,,,,,,,,,,,,,,,,,,,,,,,
1768920049.779337,1768920049.779851,35.0,0.0,4366.538574,4348.589844,4357.563965,4369.871582,4340.641113,4338.589844,4329.230957,4356.025879,4326.538574,4317.307617,4520.128418,4536.538574,4414.102539,4462.436035,,,,,,,,,,,,,,,,,,,,,,,,,,,,,,,,,,,,,,,,,,,,,,,,,,,,,,,,,,,,,,,,,,,,,,
1768920049.787145,1768920049.787859,36.0,0.0,4360.256348,4344.871582,4356.025879,4367.05127,4341.282227,4329.743652,4320.897461,4356.025879,4321.666504,4313.077148,4512.179688,4538.589844,4408.333496,4458.461426,,,,,,,,,,,,,,,,,,,,,,,,,,,,,,,,,,,,,,,,,,,,,,,,,,,,,,,,,,,,,,,,,,,,,,
1768920049.794954,1768920049.795667,37.0,0.0,4353.205078,4339.743652,4354.102539,4363.461426,4339.230957,4324.871582,4320.641113,4358.589844,4323.717773,4307.820313,4504.487305,4537.563965,4405.512695,4452.94873,,,,,,,,,,,,,,,,,,,,,,,,,,,,,,,,,,,,,,,,,,,,,,,,,,,,,,,,,,,,,,,,,,,,,,
1768920049.802762,1768920049.803576,38.0,0.0,4358.205078,4345.256348,4359.871582,4368.077148,4337.692383,4330.256348,4328.461426,4360.384766,4326.410156,4311.922852,4513.205078,4543.974121,4410.128418,4457.436035,,,,,,,,,,,,,,,,,,,,,,,,,,,,,,,,,,,,,,,,,,,,,,,,,,,,,,,,,,,,,,,,,,,,,,
1768920049.810571,1768920049.811384,39.0,0.0,4367.820313,4351.410156,4367.05127,4372.692383,4340.256348,4344.615234,4339.743652,4364.615234,4326.025879,4317.307617,4526.025879,4556.153809,4415.0,4467.307617,,,,,,,,,,,,,,,,,,,,,,,,,,,,,,,,,,,,,,,,,,,,,,,,,,,,,,,,,,,,,,,,,,,,,,
1768920049.81838,1768920049.818992,40.0,0.0,4370.384766,4351.153809,4366.538574,4370.128418,4343.461426,4348.974121,4341.410156,4367.692383,4331.666504,4318.717773,4526.153809,4556.794922,4416.410156,4472.692383,,,,,,,,,,,,,,,,,,,,,,,,,,,,,,,,,,,,,,,,,,,,,,,,,,,,,,,,,,,,,,,,,,,,,,
1768920049.826188,1768920049.826801,41.0,0.0,4363.205078,4350.128418,4364.102539,4366.538574,4343.077148,4336.666504,4331.410156,4365.128418,4340.384766,4321.153809,4522.436035,4554.487305,4415.128418,4475.0,,,,,,,,,,,,,,,,,,,,,,,,,,,,,,,,,,,,,,,,,,,,,,,,,,,,,,,,,,,,,,,,,,,,,,
1768920049.833996,1768920049.834509,42.0,0.0,4359.615234,4349.230957,4364.871582,4363.589844,4341.153809,4332.307617,4324.743652,4365.641113,4341.538574,4325.256348,4525.128418,4558.461426,4417.692383,4476.410156,,,,,,,,,,,,,,,,,,,,,,,,,,,,,,,,,,,,,,,,,,,,,,,,,,,,,,,,,,,,,,,,,,,,,,
1768920049.841805,1768920049.842317,43.0,0.0,4363.461426,4349.230957,4367.179688,4362.692383,4340.769043,4341.666504,4330.128418,4369.358887,4341.153809,4328.205078,4533.461426,4559.871582,4425.0,4476.794922,,,,,,,,,,,,,,,,,,,,,,,,,,,,,,,,,,,,,,,,,,,,,,,,,,,,,,,,,,,,,,,,,,,,,,
1768920049.849614,1768920049.850325,44.0,0.0,4368.333496,4350.256348,4368.333496,4368.077148,4342.307617,4345.256348,4339.487305,4370.641113,4339.743652,4324.871582,4533.077148,4554.615234,4428.205078,4478.333496,,,,,,,,,,,,,,,,,,,,,,,,,,,,,,,,,,,,,,,,,,,,,,,,,,,,,,,,,,,,,,,,,,,,,,
1768920049.857422,1768920049.858134,45.0,0.0,4369.743652,4351.794922,4367.179688,4372.05127,4341.153809,4336.025879,4333.589844,4365.769043,4331.153809,4316.153809,4524.102539,4552.563965,4423.077148,4478.717773,,,,,,,,,,,,,,,,,,,,,,,,,,,,,,,,,,,,,,,,,,,,,,,,,,,,,,,,,,,,,,,,,,,,,,
1768920049.86523,1768920049.866042,46.0,0.0,4367.179688,4351.153809,4364.743652,4366.794922,4337.692383,4331.410156,4323.589844,4358.717773,4325.769043,4311.410156,4521.794922,4549.743652,4416.025879,4477.05127,,,,,,,,,,,,,,,,,,,,,,,,,,,,,,,,,,,,,,,,,,,,,,,,,,,,,,,,,,,,,,,,,,,,,,
1768920049.873039,1768920049.873851,47.0,0.0,4364.615234,4347.820313,4364.230957,4364.743652,4337.820313,4339.871582,4334.102539,4358.461426,4327.436035,4312.563965,4520.641113,4543.077148,4409.871582,4475.384766,,,,,,,,,,,,,,,,,,,,,,,,,,,,,,,,,,,,,,,,,,,,,,,,,,,,,,,,,,,,,,,,,,,,,,
1768920049.880848,1768920049.881859,48.0,0.0,4363.589844,4346.282227,4365.0,4371.025879,4341.538574,4342.05127,4342.436035,4364.871582,4326.538574,4312.436035,4517.692383,4542.692383,4413.846191,4473.846191,3.609898,1.67779,0.351467,0.191023,0.164854,0.937466,0.627616,0.548446,0.283288,0.10287,1.88842,0.432201,0.231462,0.307099,0.178666,1.097053,0.284338,0.347764,0.259785,0.101777,0.437148,0.083208,0.047862,0.16016,0.059981,0.556011,0.047493,0.153242,0.139832,0.166678,0.315538,0.385266,0.188839,0.162562,0.294381,0.290166,0.232268,0.084692,0.166324,0.229521,0.838114,0.545242,0.142032,0.172108,0.141806,0.833658,0.739748,0.065132,0.170895,0.064144,1.496175,1.089116,0.135112,0.235957,0.1134,2.32585,1.187764,0.132732,0.369036,0.198032,1.132904,1.078383,0.148348,0.261484,0.144382,6.377337,1.328694,0.21112,0.370969,0.166183
1768920049.888656,1768920049.889667,49.0,0.0,4365.256348,4350.512695,4366.410156,4373.461426,4339.615234,4333.974121,4329.102539,4368.077148,4325.641113,4314.487305,4526.410156,4552.563965,4424.871582,4477.179688,,,,,,,,,,,,,,,,,,,,,,,,,,,,,,,,,,,,,,,,,,,,,,,,,,,,,,,,,,,,,,,,,,,,,,
1768920049.896465,1768920049.897376,50.0,0.0,4370.512695,4356.025879,4369.615234,4372.05127,4331.410156,4330.256348,4322.307617,4364.487305,4333.205078,4322.94873,4538.589844,4565.641113,4428.077148,4488.974121,,,,,,,,,,,,,,,,,,,,,,,,,,,,,,,,,,,,,,,,,,,,,,,,,,,,,,,,,,,,,,,,,,,,,,
1768920049.904273,1768920049.905184,51.0,0.0,4373.205078,4356.282227,4374.230957,4374.102539,4333.717773,4329.615234,4329.615234,4365.384766,4337.94873,4328.846191,4540.512695,4570.641113,4428.589844,4493.205078,,,,,,,,,,,,,,,,,,,,,,,,,,,,,,,,,,,,,,,,,,,,,,,,,,,,,,,,,,,,,,,,,,,,,,
1768920049.912082,1768920049.913193,52.0,0.0,4366.666504,4351.666504,4374.358887,4372.563965,4337.692383,4326.025879,4328.846191,4365.256348,4327.563965,4325.897461,4537.307617,4561.794922,4430.769043,4483.846191,,,,,,,,,,,,,,,,,,,,,,,,,,,,,,,,,,,,,,,,,,,,,,,,,,,,,,,,,,,,,,,,,,,,,,
1768920049.91989,1768920049.921001,53.0,0.0,4360.384766,4346.282227,4368.461426,4365.641113,4331.410156,4325.128418,4322.436035,4360.0,4325.0,4320.512695,4531.282227,4551.025879,4428.461426,4477.436035,,,,,,,,,,,,,,,,,,,,,,,,,,,,,,,,,,,,,,,,,,,,,,,,,,,,,,,,,,,,,,,,,,,,,,
1768920049.927699,1768920049.92871,54.0,0.0,4366.538574,4347.563965,4365.128418,4368.205078,4333.589844,4335.384766,4328.333496,4361.153809,4337.692383,4321.282227,4531.282227,4557.692383,4426.666504,4482.307617,,,,,,,,,,,,,,,,,,,,,,,,,,,,,,,,,,,,,,,,,,,,,,,,,,,,,,,,,,,,,,,,,,,,,,
1768920049.935507,1768920049.936518,55.0,0.0,4368.333496,4348.461426,4366.410156,4376.666504,4341.666504,4341.538574,4335.256348,4364.871582,4337.307617,4319.871582,4538.205078,4569.358887,4427.94873,4485.897461,,,,,,,,,,,,,,,,,,,,,,,,,,,,,,,,,,,,,,,,,,,,,,,,,,,,,,,,,,,,,,,,,,,,,,
1768920049.943316,1768920049.944126,56.0,0.0,4355.897461,4344.358887,4366.794922,4376.410156,4338.205078,4333.461426,4330.769043,4366.922852,4328.461426,4311.025879,4537.563965,4565.384766,4425.641113,4480.384766,,,,,,,,,,,,,,,,,,,,,,,,,,,,,,,,,,,,,,,,,,,,,,,,,,,,,,,,,,,,,,,,,,,,,,
1768920049.951124,1768920049.951935,57.0,0.0,4349.487305,4349.615234,4365.384766,4370.641113,4335.128418,4326.794922,4324.230957,4366.410156,4330.897461,4310.128418,4532.94873,4557.307617,4425.128418,4473.717773,,,,,,,,,,,,,,,,,,,,,,,,,,,,,,,,,,,,,,,,,,,,,,,,,,,,,,,,,,,,,,,,,,,,,,
1768920049.958933,1768920049.959643,58.0,0.0,4356.666504,4355.641113,4365.256348,4370.256348,4340.512695,4331.282227,4324.871582,4361.666504,4332.307617,4320.769043,4532.563965,4555.641113,4427.563965,4473.974121,,,,,,,,,,,,,,,,,,,,,,,,,,,,,,,,,,,,,,,,,,,,,,,,,,,,,,,,,,,,,,,,,,,,,,
1768920049.966741,1768920049.967451,59.0,0.0,4355.641113,4345.256348,4358.974121,4368.589844,4337.179688,4335.769043,4330.0,4359.358887,4324.615234,4322.820313,4528.974121,4549.615234,4422.05127,4470.641113,,,,,,,,,,,,,,,,,,,,,,,,,,,,,,,,,,,,,,,,,,,,,,,,,,,,,,,,,,,,,,,,,,,,,,
1768920049.97455,1768920049.97506,60.0,0.0,4346.282227,4337.692383,4349.487305,4360.897461,4328.974121,4335.641113,4335.512695,4366.025879,4324.487305,4312.179688,4523.589844,4545.0,4412.307617,4462.563965,,,,,,,,,,,,,,,,,,,,,,,,,,,,,,,,,,,,,,,,,,,,,,,,,,,,,,,,,,,,,,,,,,,,,,
1768920049.982358,1768920049.982868,61.0,0.0,4347.179688,4343.846191,4351.410156,4360.897461,4328.205078,4338.974121,4340.0,4371.025879,4332.436035,4309.871582,4521.410156,4548.205078,4413.461426,4462.436035,,,,,,,,,,,,,,,,,,,,,,,,,,,,,,,,,,,,,,,,,,,,,,,,,,,,,,,,,,,,,,,,,,,,,,
1768920049.990167,1768920049.990776,62.0,0.0,4353.333496,4344.230957,4358.589844,4365.769043,4328.846191,4338.333496,4338.205078,4366.794922,4335.769043,4318.974121,4523.205078,4547.307617,4417.05127,4466.922852,,,,,,,,,,,,,,,,,,,,,,,,,,,,,,,,,,,,,,,,,,,,,,,,,,,,,,,,,,,,,,,,,,,,,,
1768920049.997975,1768920049.998585,63.0,0.0,4355.641113,4339.743652,4354.358887,4361.410156,4329.102539,4333.205078,4339.487305,4367.692383,4336.666504,4325.384766,4528.717773,4547.820313,4416.282227,4470.512695,,,,,,,,,,,,,,,,,,,,,,,,,,,,,,,,,,,,,,,,,,,,,,,,,,,,,,,,,,,,,,,,,,,,,,
1768920050.005784,1768920050.006593,64.0,0.0,4353.333496,4341.025879,4346.922852,4354.487305,4328.461426,4336.025879,4342.820313,4372.436035,4338.333496,4325.384766,4530.128418,4550.897461,4421.410156,4471.025879,3.70057,2.024072,0.377553,0.176018,0.160712,0.79227,0.776244,0.480764,0.263122,0.107523,1.952964,0.532778,0.246654,0.338163,0.178736,1.111551,0.350084,0.341587,0.244025,0.101113,0.453199,0.078241,0.038514,0.13928,0.062165,0.673297,0.04016,0.151417,0.151639,0.173016,0.36156,0.34412,0.202005,0.165608,0.288377,0.305843,0.22378,0.0893,0.192922,0.202047,0.930552,0.529108,0.161403,0.203058,0.138172,0.864876,0.709683,0.081734,0.158436,0.066007,1.290018,1.032529,0.111197,0.244483,0.111923,2.084873,1.115669,0.118075,0.366515,0.191862,0.983022,1.07568,0.162871,0.246203,0.148717,6.682758,1.461997,0.173532,0.334706,0.148212
1768920050.013592,1768920050.014401,65.0,0.0,4348.974121,4343.461426,4351.794922,4357.692383,4325.769043,4339.358887,4335.769043,4367.820313,4335.769043,4321.538574,4524.615234,4550.128418,4425.641113,4465.384766,,,,,,,,,,,,,,,,,,,,,,,,,,,,,,,,,,,,,,,,,,,,,,,,,,,,,,,,,,,,,,,,,,,,,,
1768920050.021401,1768920050.02231,66.0,0.0,4353.205078,4346.153809,4358.333496,4364.871582,4326.666504,4332.692383,4324.743652,4360.256348,4327.94873,4318.077148,4521.666504,4545.384766,4417.820313,4460.769043,,,,,,,,,,,,,,,,,,,,,,,,,,,,,,,,,,,,,,,,,,,,,,,,,,,,,,,,,,,,,,,,,,,,,,
1768920050.029209,1768920050.030118,67.0,0.0,4365.512695,4353.717773,4360.769043,4370.897461,4332.307617,4324.615234,4322.307617,4360.641113,4324.487305,4318.461426,4524.615234,4543.461426,4414.358887,4462.692383,,,,,,,,,,,,,,,,,,,,,,,,,,,,,,,,,,,,,,,,,,,,,,,,,,,,,,,,,,,,,,,,,,,,,,
1768920050.037018,1768920050.038126,68.0,0.0,4366.538574,4360.641113,4364.871582,4373.461426,4332.307617,4325.897461,4327.820313,4362.820313,4326.538574,4315.897461,4525.384766,4548.077148,4423.717773,4468.333496,,,,,,,,,,,,,,,,,,,,,,,,,,,,,,,,,,,,,,,,,,,,,,,,,,,,,,,,,,,,,,,,,,,,,,
1768920050.044826,1768920050.045935,69.0,0.0,4359.487305,4359.615234,4366.153809,4371.153809,4328.846191,4329.871582,4327.307617,4358.846191,4324.615234,4310.897461,4523.461426,4553.333496,4428.974121,4472.563965,,,,,,,,,,,,,,,,,,,,,,,,,,,,,,,,,,,,,,,,,,,,,,,,,,,,,,,,,,,,,,,,,,,,,,
1768920050.052635,1768920050.053843,70.0,0.0,4362.307617,4355.512695,4366.538574,4372.94873,4333.077148,4335.641113,4323.974121,4358.077148,4323.846191,4314.871582,4530.897461,4557.179688,4427.05127,4480.256348,,,,,,,,,,,,,,,,,,,,,,,,,,,,,,,,,,,,,,,,,,,,,,,,,,,,,,,,,,,,,,,,,,,,,,
1768920050.060444,1768920050.061652,71.0,0.0,4370.384766,4356.538574,4367.05127,4377.436035,4339.230957,4337.692383,4328.205078,4363.077148,4326.922852,4319.358887,4536.922852,4559.358887,4427.436035,4484.487305,,,,,,,,,,,,,,,,,,,,,,,,,,,,,,,,,,,,,,,,,,,,,,,,,,,,,,,,,,,,,,,,,,,,,,
1768920050.068252,1768920050.06926,72.0,0.0,4368.846191,4354.230957,4361.794922,4374.230957,4338.333496,4326.282227,4328.974121,4360.769043,4326.410156,4317.179688,4530.0,4558.589844,4428.205078,4481.922852,,,,,,,,,,,,,,,,,,,,,,,,,,,,,,,,,,,,,,,,,,,,,,,,,,,,,,,,,,,,,,,,,,,,,,
1768920050.07606,1768920050.077069,73.0,0.0,4359.615234,4343.461426,4357.692383,4365.897461,4331.538574,4320.384766,4327.94873,4361.025879,4325.512695,4318.205078,4529.615234,4559.615234,4429.230957,4481.282227,,,,,,,,,,,,,,,,,,,,,,,,,,,,,,,,,,,,,,,,,,,,,,,,,,,,,,,,,,,,,,,,,,,,,,
1768920050.083869,1768920050.084777,74.0,0.0,4359.871582,4342.563965,4365.128418,4365.897461,4330.128418,4333.333496,4338.717773,4369.871582,4333.205078,4320.0,4535.897461,4564.743652,4428.717773,4488.974121,,,,,,,,,,,,,,,,,,,,,,,,,,,,,,,,,,,,,,,,,,,,,,,,,,,,,,,,,,,,,,,,,,,,,,
1768920050.091678,1768920050.092586,75.0,0.0,4368.974121,4351.538574,4369.871582,4371.538574,4335.769043,4342.307617,4346.794922,4368.077148,4335.384766,4320.128418,4530.641113,4562.179688,4429.230957,4496.282227,,,,,,,,,,,,,,,,,,,,,,,,,,,,,,,,,,,,,,,,,,,,,,,,,,,,,,,,,,,,,,,,,,,,,,
1768920050.099486,1768920050.100194,76.0,0.0,4367.692383,4349.615234,4362.692383,4370.128418,4335.0,4332.05127,4333.974121,4362.563965,4330.897461,4324.358887,4525.769043,4552.692383,4430.769043,4490.384766,,,,,,,,,,,,,,,,,,,,,,,,,,,,,,,,,,,,,,,,,,,,,,,,,,,,,,,,,,,,,,,,,,,,,,
1768920050.107294,1768920050.108002,77.0,0.0,4356.410156,4340.384766,4356.153809,4365.384766,4327.692383,4324.615234,4325.128418,4365.0,4333.717773,4323.846191,4526.922852,4547.820313,4424.102539,4480.512695,,,,,,,,,,,,,,,,,,,,,,,,,,,,,,,,,,,,,,,,,,,,,,,,,,,,,,,,,,,,,,,,,,,,,,
1768920050.115103,1768920050.115911,78.0,0.0,4356.153809,4343.589844,4359.102539,4368.333496,4330.384766,4333.846191,4336.794922,4366.666504,4338.077148,4317.820313,4522.436035,4548.333496,4413.717773,4475.641113,,,,,,,,,,,,,,,,,,,,,,,,,,,,,,,,,,,,,,,,,,,,,,,,,,,,,,,,,,,,,,,,,,,,,,
1768920050.122912,1768920050.12372,79.0,0.0,4359.358887,4345.769043,4359.230957,4367.563965,4336.410156,4340.641113,4344.871582,4366.794922,4335.769043,4322.307617,4520.769043,4546.153809,4412.563965,4474.487305,,,,,,,,,,,,,,,,,,,,,,,,,,,,,,,,,,,,,,,,,,,,,,,,,,,,,,,,,,,,,,,,,,,,,,
1768920050.13072,1768920050.131328,80.0,0.0,4351.538574,4338.205078,4352.05127,4359.487305,4333.589844,4340.0,4344.358887,4368.974121,4332.820313,4323.589844,4523.589844,4541.922852,4415.256348,4475.256348,3.445338,2.153711,0.367103,0.161403,0.154495,0.662512,0.9075,0.377816,0.228665,0.111854,1.863823,0.615785,0.264478,0.357766,0.171798,1.068028,0.431925,0.336795,0.215027,0.100437,0.441987,0.073509,0.033045,0.117786,0.064214,0.749596,0.0328,0.14742,0.168046,0.182568,0.396913,0.297687,0.206239,0.177925,0.269184,0.316544,0.210335,0.087025,0.217882,0.171628,0.989339,0.503518,0.199191,0.235319,0.132377,0.852749,0.668641,0.129012,0.169333,0.073591,1.051085,0.952135,0.106708,0.277912,0.116237,1.749254,1.057461,0.114051,0.374383,0.189437,0.873332,1.03151,0.192332,0.23869,0.152858,6.173147,1.537419,0.141544,0.315213,0.138385
1768920050.138529,1768920050.139136,81.0,0.0,4347.179688,4336.538574,4348.461426,4360.384766,4337.05127,4340.769043,4342.179688,4367.179688,4333.846191,4313.717773,4519.487305,4542.179688,4412.436035,4475.384766,,,,,,,,,,,,,,,,,,,,,,,,,,,,,,,,,,,,,,,,,,,,,,,,,,,,,,,,,,,,,,,,,,,,,,
1768920050.146337,1768920050.146844,82.0,0.0,4348.461426,4340.897461,4347.436035,4362.436035,4341.153809,4339.230957,4336.025879,4362.692383,4335.897461,4314.102539,4519.615234,4543.077148,4414.871582,4470.769043,,,,,,,,,,,,,,,,,,,,,,,,,,,,,,,,,,,,,,,,,,,,,,,,,,,,,,,,,,,,,,,,,,,,,,
1768920050.154146,1768920050.154653,83.0,0.0,4345.128418,4338.717773,4343.205078,4356.538574,4333.333496,4334.871582,4332.692383,4364.230957,4338.077148,4319.102539,4523.205078,4537.820313,4420.0,4468.974121,,,,,,,,,,,,,,,,,,,,,,,,,,,,,,,,,,,,,,,,,,,,,,,,,,,,,,,,,,,,,,,,,,,,,,
1768920050.161954,1768920050.162261,84.0,0.0,4343.974121,4331.666504,4341.153809,4353.974121,4326.666504,4337.05127,4338.717773,4369.230957,4337.436035,4312.94873,4518.717773,4535.0,4411.538574,4469.358887,,,,,,,,,,,,,,,,,,,,,,,,,,,,,,,,,,,,,,,,,,,,,,,,,,,,,,,,,,,,,,,,,,,,,,
1768920050.169763,1768920050.170069,85.0,0.0,4347.307617,4328.461426,4344.871582,4355.256348,4327.563965,4339.102539,4344.102539,4373.461426,4338.589844,4312.820313,4515.641113,4541.282227,4403.974121,4463.333496,,,,,,,,,,,,,,,,,,,,,,,,,,,,,,,,,,,,,,,,,,,,,,,,,,,,,,,,,,,,,,,,,,,,,,
1768920050.177571,1768920050.177778,86.0,0.0,4345.256348,4326.922852,4345.256348,4353.846191,4329.102539,4332.563965,4341.410156,4373.205078,4342.94873,4323.717773,4521.025879,4547.179688,4410.641113,4463.461426,,,,,,,,,,,,,,,,,,,,,,,,,,,,,,,,,,,,,,,,,,,,,,,,,,,,,,,,,,,,,,,,,,,,,,
1768920050.18538,1768920050.185586,87.0,0.0,4344.615234,4325.641113,4343.333496,4352.94873,4331.922852,4329.743652,4337.692383,4369.358887,4340.769043,4325.512695,4525.128418,4551.153809,4416.153809,4469.615234,,,,,,,,,,,,,,,,,,,,,,,,,,,,,,,,,,,,,,,,,,,,,,,,,,,,,,,,,,,,,,,,,,,,,,
1768920050.193188,1768920050.193594,88.0,0.0,4349.615234,4325.384766,4345.384766,4354.230957,4333.077148,4334.487305,4338.974121,4369.230957,4341.025879,4319.102539,4523.846191,4552.436035,4412.179688,4467.307617,,,,,,,,,,,,,,,,,,,,,,,,,,,,,,,,,,,,,,,,,,,,,,,,,,,,,,,,,,,,,,,,,,,,,,
1768920050.200997,1768920050.201402,89.0,0.0,4348.846191,4323.589844,4347.436035,4355.512695,4328.077148,4338.205078,4342.820313,4371.282227,4344.102539,4315.384766,4521.794922,4551.282227,4410.769043,4466.922852,,,,,,,,,,,,,,,,,,,,,,,,,,,,,,,,,,,,,,,,,,,,,,,,,,,,,,,,,,,,,,,,,,,,,,
1768920050.208805,1768920050.209311,90.0,0.0,4347.307617,4326.025879,4352.307617,4359.487305,4326.410156,4335.384766,4342.563965,4369.487305,4337.94873,4312.307617,4518.846191,4555.897461,4411.538574,4474.871582,,,,,,,,,,,,,,,,,,,,,,,,,,,,,,,,,,,,,,,,,,,,,,,,,,,,,,,,,,,,,,,,,,,,,,
1768920050.216614,1768920050.217119,91.0,0.0,4354.230957,4336.153809,4361.025879,4365.256348,4331.153809,4328.846191,4336.538574,4361.922852,4329.230957,4308.717773,4517.820313,4556.794922,4410.128418,4477.05127,,,,,,,,,,,,,,,,,,,,,,,,,,,,,,,,,,,,,,,,,,,,,,,,,,,,,,,,,,,,,,,,,,,,,,
1768920050.224422,1768920050.225128,92.0,0.0,4362.436035,4343.717773,4367.692383,4372.820313,4336.410156,4331.538574,4336.922852,4360.0,4331.025879,4310.769043,4521.282227,4553.461426,4412.94873,4475.641113,,,,,,,,,,,,,,,,,,,,,,,,,,,,,,,,,,,,,,,,,,,,,,,,,,,,,,,,,,,,,,,,,,,,,,
1768920050.232231,1768920050.232936,93.0,0.0,4362.94873,4342.307617,4368.461426,4380.256348,4337.563965,4343.846191,4348.205078,4369.102539,4334.230957,4316.025879,4522.05127,4557.94873,4411.922852,4479.615234,,,,,,,,,,,,,,,,,,,,,,,,,,,,,,,,,,,,,,,,,,,,,,,,,,,,,,,,,,,,,,,,,,,,,,
1768920050.240039,1768920050.240644,94.0,0.0,4357.436035,4341.794922,4368.205078,4381.794922,4331.025879,4348.846191,4350.256348,4374.358887,4334.102539,4317.179688,4522.692383,4565.256348,4413.974121,4485.512695,,,,,,,,,,,,,,,,,,,,,,,,,,,,,,,,,,,,,,,,,,,,,,,,,,,,,,,,,,,,,,,,,,,,,,
1768920050.247848,1768920050.248452,95.0,0.0,4354.102539,4343.333496,4368.077148,4381.538574,4329.743652,4332.94873,4331.922852,4366.666504,4332.94873,4315.256348,4525.897461,4562.820313,4426.410156,4487.820313,,,,,,,,,,,,,,,,,,,,,,,,,,,,,,,,,,,,,,,,,,,,,,,,,,,,,,,,,,,,,,,,,,,,,,
1768920050.255656,1768920050.25646,96.0,0.0,4357.563965,4342.563965,4366.282227,4378.974121,4335.256348,4323.461426,4326.025879,4361.794922,4330.0,4315.0,4526.922852,4555.897461,4427.307617,4487.307617,2.954805,2.021898,0.323301,0.148976,0.147299,0.546667,0.979339,0.274193,0.190423,0.114629,1.665034,0.649976,0.279051,0.355725,0.159164,0.960574,0.499202,0.335306,0.177496,0.100093,0.397903,0.073044,0.029857,0.099619,0.066611,0.772546,0.026999,0.142524,0.188288,0.195746,0.415262,0.258057,0.201873,0.199395,0.241971,0.322398,0.197921,0.079798,0.237087,0.144606,1.000025,0.48441,0.249741,0.261646,0.127513,0.782265,0.629765,0.201623,0.200711,0.084363,0.803241,0.871827,0.118871,0.331095,0.122524,1.39078,1.029314,0.123216,0.390879,0.189224,0.7723,0.960755,0.223488,0.244161,0.154562,5.043201,1.537009,0.114775,0.307656,0.135901
1768920050.263465,1768920050.264269,97.0,0.0,4361.538574,4342.436035,4366.538574,4375.384766,4330.512695,4334.743652,4337.179688,4364.871582,4326.794922,4312.692383,4522.820313,4554.743652,4414.230957,4484.871582,,,,,,,,,,,,,,,,,,,,,,,,,,,,,,,,,,,,,,,,,,,,,,,,,,,,,,,,,,,,,,,,,,,,,,
1768920050.271273,1768920050.271977,98.0,0.0,4361.153809,4345.897461,4363.333496,4377.820313,4322.692383,4336.922852,4331.282227,4361.794922,4326.282227,4310.0,4517.692383,4555.256348,4412.179688,4482.436035,,,,,,,,,,,,,,,,,,,,,,,,,,,,,,,,,,,,,,,,,,,,,,,,,,,,,,,,,,,,,,,,,,,,,,
1768920050.279082,1768920050.279786,99.0,0.0,4358.461426,4351.410156,4359.487305,4381.025879,4327.436035,4325.769043,4320.0,4358.717773,4328.461426,4313.077148,4520.0,4551.922852,4417.94873,4482.05127,,,,,,,,,,,,,,,,,,,,,,,,,,,,,,,,,,,,,,,,,,,,,,,,,,,,,,,,,,,,,,,,,,,,,,
1768920050.28689,1768920050.287394,100.0,0.0,4351.794922,4350.512695,4356.922852,4375.384766,4330.769043,4324.487305,4325.0,4360.384766,4327.307617,4312.94873,4520.128418,4543.461426,4413.846191,4480.769043,,,,,,,,,,,,,,,,,,,,,,,,,,,,,,,,,,,,,,,,,,,,,,,,,,,,,,,,,,,,,,,,,,,,,,
1768920050.294699,1768920050.295203,101.0,0.0,4344.743652,4344.487305,4349.871582,4368.205078,4326.153809,4329.230957,4328.846191,4362.179688,4323.846191,4308.461426,4509.615234,4538.077148,4410.256348,4476.410156,,,,,,,,,,,,,,,,,,,,,,,,,,,,,,,,,,,,,,,,,,,,,,,,,,,,,,,,,,,,,,,,,,,,,,
1768920050.302508,1768920050.302911,102.0,0.0,4343.717773,4339.871582,4342.692383,4366.538574,4325.769043,4327.820313,4326.794922,4370.512695,4329.102539,4310.128418,4506.153809,4537.05127,4407.563965,4470.128418,,,,,,,,,,,,,,,,,,,,,,,,,,,,,,,,,,,,,,,,,,,,,,,,,,,,,,,,,,,,,,,,,,,,,,
1768920050.310316,1768920050.310719,103.0,0.0,4341.666504,4337.436035,4338.974121,4365.384766,4327.05127,4329.102539,4328.846191,4370.256348,4333.717773,4308.846191,4508.461426,4529.743652,4397.692383,4462.94873,,,,,,,,,,,,,,,,,,,,,,,,,,,,,,,,,,,,,,,,,,,,,,,,,,,,,,,,,,,,,,,,,,,,,,
1768920050.318124,1768920050.318728,104.0,0.0,4338.333496,4335.897461,4337.94873,4363.717773,4328.077148,4332.94873,4328.974121,4353.077148,4326.153809,4306.282227,4505.769043,4524.102539,4394.871582,4458.846191,,,,,,,,,,,,,,,,,,,,,,,,,,,,,,,,,,,,,,,,,,,,,,,,,,,,,,,,,,,,,,,,,,,,,,
1768920050.325933,1768920050.326536,105.0,0.0,4343.205078,4340.128418,4342.05127,4369.230957,4331.666504,4331.153809,4329.615234,4348.717773,4324.230957,4315.384766,4511.666504,4532.05127,4410.0,4468.077148,,,,,,,,,,,,,,,,,,,,,,,,,,,,,,,,,,,,,,,,,,,,,,,,,,,,,,,,,,,,,,,,,,,,,,
1768920050.333742,1768920050.334245,106.0,0.0,4352.563965,4346.153809,4351.153809,4380.384766,4332.05127,4333.461426,4336.282227,4367.436035,4338.461426,4328.205078,4528.333496,4544.230957,4427.692383,4482.179688,,,,,,,,,,,,,,,,,,,,,,,,,,,,,,,,,,,,,,,,,,,,,,,,,,,,,,,,,,,,,,,,,,,,,,
1768920050.34155,1768920050.342053,107.0,0.0,4356.025879,4347.94873,4351.410156,4383.205078,4330.0,4338.717773,4341.410156,4373.589844,4343.974121,4328.461426,4530.384766,4546.922852,4429.358887,4482.436035,,,,,,,,,,,,,,,,,,,,,,,,,,,,,,,,,,,,,,,,,,,,,,,,,,,,,,,,,,,,,,,,,,,,,,
1768920050.349358,1768920050.349661,108.0,0.0,4352.436035,4346.282227,4343.077148,4376.282227,4330.0,4335.769043,4339.487305,4362.05127,4336.538574,4324.743652,4524.743652,4543.974121,4421.410156,4477.94873,,,,,,,,,,,,,,,,,,,,,,,,,,,,,,,,,,,,,,,,,,,,,,,,,,,,,,,,,,,,,,,,,,,,,,
1768920050.357167,1768920050.35747,109.0,0.0,4346.410156,4342.563965,4341.153809,4372.692383,4327.436035,4327.94873,4331.794922,4358.846191,4329.615234,4322.179688,4525.128418,4541.666504,4416.153809,4475.512695,,,,,,,,,,,,,,,,,,,,,,,,,,,,,,,,,,,,,,,,,,,,,,,,,,,,,,,,,,,,,,,,,,,,,,
1768920050.364976,1768920050.365178,110.0,0.0,4343.205078,4337.692383,4340.769043,4369.230957,4320.384766,4323.846191,4324.871582,4361.794922,4326.153809,4312.05127,4514.743652,4533.205078,4412.179688,4467.692383,,,,,,,,,,,,,,,,,,,,,,,,,,,,,,,,,,,,,,,,,,,,,,,,,,,,,,,,,,,,,,,,,,,,,,
1768920050.372784,1768920050.372986,111.0,0.0,4345.128418,4334.871582,4337.436035,4362.436035,4318.205078,4326.538574,4324.230957,4360.512695,4331.666504,4306.794922,4505.0,4524.743652,4409.487305,4460.256348,,,,,,,,,,,,,,,,,,,,,,,,,,,,,,,,,,,,,,,,,,,,,,,,,,,,,,,,,,,,,,,,,,,,,,
1768920050.380593,1768920050.380994,112.0,0.0,4347.563965,4335.769043,4341.282227,4363.846191,4323.205078,4329.102539,4326.922852,4357.307617,4335.384766,4313.333496,4516.282227,4531.666504,4413.205078,4467.307617,2.408048,1.674615,0.259849,0.140346,0.14277,0.465031,0.97236,0.198696,0.158632,0.115827,1.450644,0.622802,0.282956,0.328566,0.143803,0.825471,0.531026,0.332149,0.141062,0.100689,0.337463,0.081521,0.0275,0.086378,0.069889,0.750148,0.025106,0.137347,0.210419,0.2133,0.426414,0.240507,0.192783,0.230074,0.216872,0.322616,0.193882,0.07145,0.246813,0.124888,0.969287,0.489693,0.302973,0.275228,0.124863,0.669066,0.612985,0.287236,0.241646,0.095321,0.593565,0.818755,0.149425,0.392433,0.127731,1.10107,1.039981,0.149806,0.411471,0.187701,0.691696,0.889032,0.249978,0.264051,0.152559,3.734183,1.472714,0.099701,0.307408,0.137028
1768920050.388401,1768920050.388803,113.0,0.0,4349.102539,4336.410156,4349.358887,4370.128418,4326.025879,4325.0,4326.666504,4357.307617,4326.922852,4314.358887,4525.512695,4543.077148,4416.153809,4478.589844,,,,,,,,,,,,,,,,,,,,,,,,,,,,,,,,,,,,,,,,,,,,,,,,,,,,,,,,,,,,,,,,,,,,,,
1768920050.39621,1768920050.396711,114.0,0.0,4353.974121,4335.384766,4350.897461,4370.897461,4323.974121,4323.974121,4324.358887,4361.282227,4326.153809,4310.897461,4521.538574,4541.538574,4413.717773,4480.512695,,,,,,,,,,,,,,,,,,,,,,,,,,,,,,,,,,,,,,,,,,,,,,,,,,,,,,,,,,,,,,,,,,,,,,
1768920050.404018,1768920050.40452,115.0,0.0,4359.230957,4336.922852,4351.794922,4372.563965,4323.846191,4327.179688,4323.846191,4360.256348,4333.461426,4311.282227,4520.384766,4538.717773,4414.230957,4474.743652,,,,,,,,,,,,,,,,,,,,,,,,,,,,,,,,,,,,,,,,,,,,,,,,,,,,,,,,,,,,,,,,,,,,,,
1768920050.411827,1768920050.412528,116.0,0.0,4357.436035,4335.0,4350.256348,4372.179688,4323.974121,4325.256348,4322.820313,4354.230957,4329.615234,4312.563965,4518.589844,4541.410156,4415.641113,4467.179688,,,,,,,,,,,,,,,,,,,,,,,,,,,,,,,,,,,,,,,,,,,,,,,,,,,,,,,,,,,,,,,,,,,,,,
1768920050.419635,1768920050.420337,117.0,0.0,4350.384766,4328.717773,4342.436035,4362.307617,4320.0,4321.538574,4321.794922,4353.077148,4324.615234,4309.743652,4510.128418,4539.487305,4411.794922,4465.769043,,,,,,,,,,,,,,,,,,,,,,,,,,,,,,,,,,,,,,,,,,,,,,,,,,,,,,,,,,,,,,,,,,,,,,
1768920050.427444,1768920050.428245,118.0,0.0,4346.282227,4328.589844,4342.94873,4357.307617,4320.512695,4324.102539,4323.461426,4355.128418,4326.666504,4306.794922,4507.05127,4534.487305,4410.0,4473.205078,,,,,,,,,,,,,,,,,,,,,,,,,,,,,,,,,,,,,,,,,,,,,,,,,,,,,,,,,,,,,,,,,,,,,,
1768920050.435252,1768920050.436054,119.0,0.0,4350.641113,4336.794922,4350.641113,4363.846191,4325.512695,4322.692383,4321.794922,4352.307617,4326.025879,4307.94873,4508.717773,4532.179688,4412.820313,4475.0,,,,,,,,,,,,,,,,,,,,,,,,,,,,,,,,,,,,,,,,,,,,,,,,,,,,,,,,,,,,,,,,,,,,,,
1768920050.443061,1768920050.444062,120.0,0.0,4355.897461,4341.282227,4352.820313,4370.384766,4324.230957,4320.256348,4316.282227,4351.410156,4326.025879,4311.410156,4508.974121,4536.282227,4414.230957,4472.692383,,,,,,,,,,,,,,,,,,,,,,,,,,,,,,,,,,,,,,,,,,,,,,,,,,,,,,,,,,,,,,,,,,,,,,
1768920050.450869,1768920050.45187,121.0,0.0,4352.563965,4341.282227,4348.974121,4368.077148,4323.589844,4329.102539,4322.179688,4353.846191,4328.205078,4311.410156,4508.974121,4540.384766,4413.846191,4476.025879,,,,,,,,,,,,,,,,,,,,,,,,,,,,,,,,,,,,,,,,,,,,,,,,,,,,,,,,,,,,,,,,,,,,,,
1768920050.458678,1768920050.459579,122.0,0.0,4344.487305,4342.05127,4342.94873,4362.820313,4328.077148,4332.692383,4330.0,4351.410156,4327.179688,4307.179688,4506.666504,4536.153809,4409.871582,4476.410156,,,,,,,,,,,,,,,,,,,,,,,,,,,,,,,,,,,,,,,,,,,,,,,,,,,,,,,,,,,,,,,,,,,,,,
1768920050.466486,1768920050.467387,123.0,0.0,4344.871582,4342.436035,4343.846191,4364.230957,4332.05127,4326.282227,4327.94873,4351.025879,4324.871582,4307.05127,4506.794922,4533.077148,4408.077148,4475.128418,,,,,,,,,,,,,,,,,,,,,,,,,,,,,,,,,,,,,,,,,,,,,,,,,,,,,,,,,,,,,,,,,,,,,,
1768920050.474295,1768920050.474996,124.0,0.0,4351.666504,4342.94873,4352.820313,4368.974121,4330.641113,4330.128418,4331.025879,4354.487305,4325.128418,4308.589844,4508.974121,4539.487305,4410.0,4475.512695,,,,,,,,,,,,,,,,,,,,,,,,,,,,,,,,,,,,,,,,,,,,,,,,,,,,,,,,,,,,,,,,,,,,,,
1768920050.482103,1768920050.482804,125.0,0.0,4353.077148,4342.05127,4354.230957,4368.461426,4329.871582,4339.487305,4334.615234,4354.871582,4326.410156,4306.922852,4507.307617,4536.538574,4408.846191,4472.563965,,,,,,,,,,,,,,,,,,,,,,,,,,,,,,,,,,,,,,,,,,,,,,,,,,,,,,,,,,,,,,,,,,,,,,
1768920050.489912,1768920050.490512,126.0,0.0,4348.077148,4341.153809,4347.692383,4362.94873,4331.794922,4336.410156,4328.333496,4353.333496,4327.820313,4309.358887,4506.282227,4526.025879,4407.436035,4473.717773,,,,,,,,,,,,,,,,,,,,,,,,,,,,,,,,,,,,,,,,,,,,,,,,,,,,,,,,,,,,,,,,,,,,,,
1768920050.49772,1768920050.49832,127.0,0.0,4343.077148,4339.743652,4347.563965,4358.589844,4332.436035,4328.205078,4324.615234,4350.641113,4325.641113,4310.384766,4507.692383,4529.871582,4405.641113,4475.897461,,,,,,,,,,,,,,,,,,,,,,,,,,,,,,,,,,,,,,,,,,,,,,,,,,,,,,,,,,,,,,,,,,,,,,
1768920050.505529,1768920050.506329,0.0,0.0,4343.846191,4338.077148,4352.436035,4358.461426,4329.230957,4325.512695,4326.025879,4348.974121,4323.333496,4302.436035,4507.563965,4538.589844,4400.0,4467.692383,1.977205,1.22701,0.193923,0.136321,0.144087,0.455614,0.90126,0.165656,0.13973,0.116062,1.336658,0.546887,0.27395,0.282453,0.12844,0.737231,0.525019,0.319,0.115363,0.102007,0.280611,0.103507,0.026065,0.077626,0.074353,0.697125,0.033191,0.13223,0.231178,0.235797,0.432018,0.260301,0.18538,0.267306,0.203763,0.31619,0.199827,0.065439,0.245681,0.113322,0.906737,0.522194,0.345967,0.271927,0.123602,0.544224,0.622799,0.371443,0.279131,0.104119,0.465272,0.79099,0.198292,0.446067,0.129751,0.961275,1.067676,0.193349,0.428686,0.181477,0.659803,0.823958,0.271641,0.295222,0.146908,2.744347,1.354725,0.104627,0.311836,0.13735
1768920050.513337,1768920050.514138,1.0,0.0,4345.384766,4336.025879,4351.282227,4356.025879,4326.153809,4324.743652,4322.307617,4351.922852,4326.025879,4297.307617,4503.333496,4531.922852,4396.153809,4460.128418,,,,,,,,,,,,,,,,,,,,,,,,,,,,,,,,,,,,,,,,,,,,,,,,,,,,,,,,,,,,,,,,,,,,,,
1768920050.521146,1768920050.522046,2.0,0.0,4340.897461,4331.153809,4344.230957,4347.94873,4325.769043,4323.461426,4320.0,4353.589844,4325.512695,4302.563965,4494.102539,4519.487305,4394.487305,4455.769043,,,,,,,,,,,,,,,,,,,,,,,,,,,,,,,,,,,,,,,,,,,,,,,,,,,,,,,,,,,,,,,,,,,,,,
1768920050.528954,1768920050.529855,3.0,0.0,4333.205078,4326.025879,4339.358887,4343.589844,4327.563965,4323.846191,4324.102539,4353.205078,4323.717773,4306.153809,4492.436035,4519.615234,4392.307617,4445.769043,,,,,,,,,,,,,,,,,,,,,,,,,,,,,,,,,,,,,,,,,,,,,,,,,,,,,,,,,,,,,,,,,,,,,,
1768920050.536763,1768920050.537863,4.0,0.0,4332.307617,4327.179688,4339.358887,4347.820313,4331.922852,4327.05127,4328.077148,4354.743652,4326.025879,4301.794922,4500.769043,4524.871582,4391.025879,4448.077148,,,,,,,,,,,,,,,,,,,,,,,,,,,,,,,,,,,,,,,,,,,,,,,,,,,,,,,,,,,,,,,,,,,,,,
1768920050.544572,1768920050.545672,5.0,0.0,4341.282227,4334.615234,4342.692383,4353.205078,4336.922852,4328.077148,4328.717773,4351.666504,4323.461426,4297.563965,4498.717773,4524.871582,4389.615234,4458.589844,,,,,,,,,,,,,,,,,,,,,,,,,,,,,,,,,,,,,,,,,,,,,,,,,,,,,,,,,,,,,,,,,,,,,,
1768920050.55238,1768920050.55338,6.0,0.0,4346.794922,4338.461426,4344.743652,4355.769043,4335.0,4324.102539,4323.974121,4343.846191,4316.794922,4294.358887,4490.0,4521.538574,4390.0,4454.230957,,,,,,,,,,,,,,,,,,,,,,,,,,,,,,,,,,,,,,,,,,,,,,,,,,,,,,,,,,,,,,,,,,,,,,
1768920050.560188,1768920050.561189,7.0,0.0,4340.641113,4335.769043,4343.333496,4355.256348,4329.743652,4323.461426,4321.794922,4346.153809,4320.128418,4294.743652,4494.871582,4521.153809,4395.641113,4451.025879,,,,,,,,,,,,,,,,,,,,,,,,,,,,,,,,,,,,,,,,,,,,,,,,,,,,,,,,,,,,,,,,,,,,,,
1768920050.567997,1768920050.568797,8.0,0.0,4335.384766,4336.794922,4343.461426,4355.384766,4330.384766,4331.282227,4325.897461,4353.717773,4328.077148,4303.717773,4505.384766,4525.0,4398.333496,4462.436035,,,,,,,,,,,,,,,,,,,,,,,,,,,,,,,,,,,,,,,,,,,,,,,,,,,,,,,,,,,,,,,,,,,,,,
1768920050.575806,1768920050.576605,9.0,0.0,4340.641113,4341.794922,4345.641113,4357.307617,4333.717773,4329.871582,4325.256348,4350.256348,4326.153809,4309.102539,4505.769043,4525.256348,4395.512695,4464.487305,,,,,,,,,,,,,,,,,,,,,,,,,,,,,,,,,,,,,,,,,,,,,,,,,,,,,,,,,,,,,,,,,,,,,,
1768920050.583614,1768920050.584513,10.0,0.0,4345.256348,4343.461426,4347.692383,4359.230957,4333.717773,4325.512695,4325.384766,4346.922852,4323.717773,4307.307617,4504.102539,4521.410156,4400.256348,4456.282227,,,,,,,,,,,,,,,,,,,,,,,,,,,,,,,,,,,,,,,,,,,,,,,,,,,,,,,,,,,,,,,,,,,,,,
1768920050.591422,1768920050.592322,11.0,0.0,4342.563965,4341.922852,4348.333496,4360.0,4334.102539,4334.615234,4333.077148,4354.615234,4330.0,4307.563965,4508.077148,4527.692383,4408.205078,4459.615234,,,,,,,,,,,,,,,,,,,,,,,,,,,,,,,,,,,,,,,,,,,,,,,,,,,,,,,,,,,,,,,,,,,,,,
1768920050.599231,1768920050.60033,12.0,0.0,4339.230957,4339.358887,4343.846191,4353.333496,4330.0,4335.641113,4333.461426,4355.769043,4332.820313,4311.794922,4508.205078,4534.230957,4410.0,4463.974121,,,,,,,,,,,,,,,,,,,,,,,,,,,,,,,,,,,,,,,,,,,,,,,,,,,,,,,,,,,,,,,,,,,,,,
1768920050.60704,1768920050.608139,13.0,0.0,4339.102539,4336.922852,4337.692383,4343.717773,4326.538574,4326.153809,4326.025879,4346.794922,4331.538574,4310.128418,4506.153809,4526.410156,4408.205078,4460.512695,,,,,,,,,,,,,,,,,,,,,,,,,,,,,,,,,,,,,,,,,,,,,,,,,,,,,,,,,,,,,,,,,,,,,,
1768920050.614848,1768920050.616047,14.0,0.0,4342.563965,4338.333496,4340.384766,4348.717773,4330.0,4326.282227,4324.358887,4346.666504,4332.692383,4308.205078,4507.436035,4526.410156,4407.05127,4465.897461,,,,,,,,,,,,,,,,,,,,,,,,,,,,,,,,,,,,,,,,,,,,,,,,,,,,,,,,,,,,,,,,,,,,,,
1768920050.622657,1768920050.623855,15.0,0.0,4344.615234,4342.179688,4344.487305,4359.487305,4333.077148,4328.717773,4327.563965,4356.153809,4336.153809,4314.743652,4509.743652,4537.179688,4410.897461,4475.384766,,,,,,,,,,,,,,,,,,,,,,,,,,,,,,,,,,,,,,,,,,,,,,,,,,,,,,,,,,,,,,,,,,,,,,
1768920050.630465,1768920050.631864,16.0,0.0,4339.358887,4341.666504,4338.717773,4355.897461,4333.461426,4328.589844,4333.205078,4357.692383,4338.974121,4319.615234,4508.333496,4530.769043,4411.794922,4467.179688,1.773767,0.799238,0.140187,0.136764,0.151343,0.551884,0.801393,0.168965,0.1353,0.115377,1.43165,0.451646,0.25422,0.231679,0.114545,0.760832,0.501607,0.291335,0.106772,0.102689,0.23825,0.139267,0.026607,0.072395,0.079838,0.628952,0.059761,0.126262,0.245272,0.262374,0.44831,0.324935,0.182375,0.302542,0.20666,0.300892,0.210664,0.063812,0.236927,0.1096,0.834721,0.56472,0.368012,0.2525,0.122342,0.439141,0.648511,0.441335,0.302085,0.109658,0.437316,0.761814,0.264243,0.47704,0.127727,1.036771,1.076959,0.249245,0.436473,0.169373,0.699547,0.763472,0.293298,0.331492,0.139048,2.334087,1.194315,0.133992,0.320804,0.133923
1768920050.638274,1768920050.639672,17.0,0.0,4336.153809,4339.871582,4333.589844,4351.410156,4335.897461,4333.589844,4334.743652,4349.743652,4332.692383,4314.615234,4505.256348,4516.410156,4405.0,4453.846191,,,,,,,,,,,,,,,,,,,,,,,,,,,,,,,,,,,,,,,,,,,,,,,,,,,,,,,,,,,,,,,,,,,,,,
1768920050.646082,1768920050.64738,18.0,0.0,4337.563965,4340.769043,4335.128418,4355.897461,4337.692383,4332.436035,4328.717773,4348.077148,4325.769043,4308.717773,4504.230957,4518.717773,4401.538574,4457.179688,,,,,,,,,,,,,,,,,,,,,,,,,,,,,,,,,,,,,,,,,,,,,,,,,,,,,,,,,,,,,,,,,,,,,,
1768920050.653891,1768920050.655188,19.0,0.0,4336.153809,4342.94873,4338.461426,4358.205078,4335.128418,4326.153809,4327.820313,4352.94873,4330.641113,4312.436035,4505.256348,4524.615234,4409.102539,4463.589844,,,,,,,,,,,,,,,,,,,,,,,,,,,,,,,,,,,,,,,,,,,,,,,,,,,,,,,,,,,,,,,,,,,,,,
1768920050.661699,1768920050.662797,20.0,0.0,4334.358887,4343.846191,4341.666504,4357.307617,4331.922852,4331.538574,4333.717773,4353.589844,4337.94873,4321.025879,4508.846191,4522.820313,4415.769043,4462.692383,,,,,,,,,,,,,,,,,,,,,,,,,,,,,,,,,,,,,,,,,,,,,,,,,,,,,,,,,,,,,,,,,,,,,,
1768920050.669508,1768920050.670605,21.0,0.0,4335.769043,4342.05127,4342.563965,4355.897461,4332.179688,4341.922852,4338.333496,4351.666504,4336.282227,4323.846191,4510.128418,4523.974121,4411.410156,4458.205078,,,,,,,,,,,,,,,,,,,,,,,,,,,,,,,,,,,,,,,,,,,,,,,,,,,,,,,,,,,,,,,,,,,,,,
1768920050.677316,1768920050.678314,22.0,0.0,4337.436035,4339.102539,4340.641113,4355.0,4335.128418,4342.563965,4341.410156,4353.333496,4331.666504,4318.333496,4507.436035,4526.410156,4404.487305,4454.487305,,,,,,,,,,,,,,,,,,,,,,,,,,,,,,,,,,,,,,,,,,,,,,,,,,,,,,,,,,,,,,,,,,,,,,
1768920050.685125,1768920050.686122,23.0,0.0,4336.410156,4338.846191,4343.333496,4354.871582,4337.05127,4333.717773,4337.692383,4355.0,4330.128418,4310.897461,4506.282227,4527.436035,4397.94873,4456.025879,,,,,,,,,,,,,,,,,,,,,,,,,,,,,,,,,,,,,,,,,,,,,,,,,,,,,,,,,,,,,,,,,,,,,,
1768920050.692933,1768920050.69373,24.0,0.0,4335.641113,4338.589844,4348.077148,4354.743652,4332.307617,4323.333496,4327.307617,4350.512695,4326.922852,4311.025879,4506.794922,4524.871582,4395.0,4458.589844,,,,,,,,,,,,,,,,,,,,,,,,,,,,,,,,,,,,,,,,,,,,,,,,,,,,,,,,,,,,,,,,,,,,,,
1768920050.700742,1768920050.701538,25.0,0.0,4340.0,4335.384766,4344.871582,4354.230957,4326.666504,4324.871582,4325.256348,4347.05127,4323.589844,4311.794922,4502.94873,4520.512695,4396.666504,4457.179688,,,,,,,,,,,,,,,,,,,,,,,,,,,,,,,,,,,,,,,,,,,,,,,,,,,,,,,,,,,,,,,,,,,,,,
1768920050.70855,1768920050.709247,26.0,0.0,4346.025879,4336.153809,4341.410156,4354.615234,4329.487305,4336.538574,4334.102539,4348.717773,4327.179688,4308.461426,4499.871582,4519.871582,4396.282227,4456.025879,,,,,,,,,,,,,,,,,,,,,,,,,,,,,,,,,,,,,,,,,,,,,,,,,,,,,,,,,,,,,,,,,,,,,,
1768920050.716359,1768920050.717055,27.0,0.0,4347.179688,4336.410156,4348.077148,4356.666504,4335.769043,4336.922852,4339.487305,4354.743652,4335.256348,4311.410156,4505.256348,4526.153809,4400.0,4457.05127,,,,,,,,,,,,,,,,,,,,,,,,,,,,,,,,,,,,,,,,,,,,,,,,,,,,,,,,,,,,,,,,,,,,,,
1768920050.724167,1768920050.725063,28.0,0.0,4342.436035,4332.05127,4354.102539,4358.205078,4333.205078,4329.615234,4338.205078,4362.307617,4344.743652,4324.358887,4513.077148,4536.282227,4411.282227,4460.128418,,,,,,,,,,,,,,,,,,,,,,,,,,,,,,,,,,,,,,,,,,,,,,,,,,,,,,,,,,,,,,,,,,,,,,
1768920050.731976,1768920050.732872,29.0,0.0,4336.538574,4330.512695,4349.487305,4354.487305,4324.487305,4329.358887,4334.615234,4360.128418,4343.717773,4326.538574,4512.307617,4540.769043,4413.717773,4462.692383,,,,,,,,,,,,,,,,,,,,,,,,,,,,,,,,,,,,,,,,,,,,,,,,,,,,,,,,,,,,,,,,,,,,,,
1768920050.739784,1768920050.74058,30.0,0.0,4336.666504,4335.384766,4346.538574,4349.102539,4326.922852,4331.794922,4333.717773,4349.615234,4333.974121,4314.871582,4508.077148,4532.820313,4404.615234,4460.384766,,,,,,,,,,,,,,,,,,,,,,,,,,,,,,,,,,,,,,,,,,,,,,,,,,,,,,,,,,,,,,,,,,,,,,
1768920050.747593,1768920050.748388,31.0,0.0,4343.717773,4341.922852,4351.922852,4354.102539,4336.410156,4332.94873,4340.256348,4345.769043,4332.94873,4315.512695,4507.820313,4526.410156,4405.897461,4460.769043,,,,,,,,,,,,,,,,,,,,,,,,,,,,,,,,,,,,,,,,,,,,,,,,,,,,,,,,,,,,,,,,,,,,,,
1768920050.755401,1768920050.755997,32.0,0.0,4345.769043,4340.897461,4352.563965,4358.974121,4335.641113,4332.94873,4345.128418,4352.94873,4336.794922,4325.512695,4509.230957,4529.871582,4414.358887,4463.461426,1.785246,0.475445,0.112777,0.141269,0.161456,0.755614,0.712625,0.190525,0.143528,0.112889,1.756717,0.371897,0.229013,0.192819,0.102879,0.918586,0.493387,0.253547,0.11711,0.101269,0.214014,0.183801,0.031479,0.070422,0.085558,0.559383,0.110385,0.1206,0.247511,0.288942,0.482583,0.424425,0.186217,0.325524,0.221474,0.283867,0.217898,0.065635,0.225912,0.113099,0.774601,0.594015,0.364873,0.221728,0.120564,0.379341,0.674612,0.489468,0.30601,0.111836,0.499348,0.710163,0.344049,0.478045,0.122701,1.32501,1.04116,0.310218,0.430809,0.15344,0.810888,0.71157,0.32361,0.365718,0.131058,2.474505,1.019256,0.184731,0.335471,0.126045
1768920050.76321,1768920050.763805,33.0,0.0,4339.615234,4332.563965,4344.615234,4349.871582,4327.307617,4328.461426,4336.922852,4355.897461,4333.717773,4319.615234,4506.282227,4527.820313,4409.871582,4460.769043,,,,,,,,,,,,,,,,,,,,,,,,,,,,,,,,,,,,,,,,,,,,,,,,,,,,,,,,,,,,,,,,,,,,,,
1768920050.771018,1768920050.771513,34.0,0.0,4333.077148,4327.05127,4338.333496,4342.05127,4323.974121,4326.538574,4328.974121,4349.871582,4332.179688,4308.333496,4501.410156,4520.641113,4396.666504,4457.692383,,,,,,,,,,,,,,,,,,,,,,,,,,,,,,,,,,,,,,,,,,,,,,,,,,,,,,,,,,,,,,,,,,,,,,
1768920050.778827,1768920050.779321,35.0,0.0,4332.307617,4328.205078,4337.307617,4347.692383,4326.282227,4332.820313,4339.743652,4351.282227,4339.871582,4312.436035,4503.461426,4522.563965,4394.743652,4458.333496,,,,,,,,,,,,,,,,,,,,,,,,,,,,,,,,,,,,,,,,,,,,,,,,,,,,,,,,,,,,,,,,,,,,,,
1768920050.786636,1768920050.787329,36.0,0.0,4336.282227,4331.025879,4336.410156,4355.256348,4329.743652,4332.820313,4344.871582,4356.025879,4338.974121,4316.153809,4507.692383,4523.205078,4404.487305,4459.615234,,,,,,,,,,,,,,,,,,,,,,,,,,,,,,,,,,,,,,,,,,,,,,,,,,,,,,,,,,,,,,,,,,,,,,
1768920050.794444,1768920050.795138,37.0,0.0,4337.563965,4331.794922,4339.102539,4354.102539,4331.410156,4326.153809,4327.94873,4349.230957,4326.794922,4310.0,4505.384766,4514.871582,4407.563965,4458.333496,,,,,,,,,,,,,,,,,,,,,,,,,,,,,,,,,,,,,,,,,,,,,,,,,,,,,,,,,,,,,,,,,,,,,,
1768920050.802252,1768920050.803046,38.0,0.0,4334.615234,4330.897461,4343.077148,4354.102539,4329.230957,4325.512695,4320.897461,4342.94873,4324.102539,4309.615234,4503.077148,4516.282227,4398.974121,4456.794922,,,,,,,,,,,,,,,,,,,,,,,,,,,,,,,,,,,,,,,,,,,,,,,,,,,,,,,,,,,,,,,,,,,,,,
1768920050.810061,1768920050.810855,39.0,0.0,4332.94873,4328.461426,4342.05127,4358.846191,4324.358887,4327.820313,4332.692383,4354.487305,4333.205078,4311.538574,4506.025879,4526.025879,4392.94873,4456.282227,,,,,,,,,,,,,,,,,,,,,,,,,,,,,,,,,,,,,,,,,,,,,,,,,,,,,,,,,,,,,,,,,,,,,,
1768920050.81787,1768920050.818863,40.0,0.0,4333.717773,4332.820313,4343.717773,4360.128418,4326.794922,4334.230957,4336.410156,4361.153809,4337.436035,4310.897461,4508.589844,4524.743652,4401.538574,4458.717773,,,,,,,,,,,,,,,,,,,,,,,,,,,,,,,,,,,,,,,,,,,,,,,,,,,,,,,,,,,,,,,,,,,,,,
1768920050.825678,1768920050.826671,41.0,0.0,4334.230957,4342.94873,4350.384766,4361.025879,4335.769043,4337.05127,4327.94873,4347.179688,4328.205078,4313.333496,4507.692383,4518.974121,4410.0,4460.256348,,,,,,,,,,,,,,,,,,,,,,,,,,,,,,,,,,,,,,,,,,,,,,,,,,,,,,,,,,,,,,,,,,,,,,
1768920050.833486,1768920050.83438,42.0,0.0,4336.282227,4341.794922,4351.153809,4362.05127,4337.05127,4328.717773,4323.333496,4343.333496,4323.717773,4314.615234,4508.333496,4522.307617,4405.512695,4461.153809,,,,,,,,,,,,,,,,,,,,,,,,,,,,,,,,,,,,,,,,,,,,,,,,,,,,,,,,,,,,,,,,,,,,,,
1768920050.841295,1768920050.842188,43.0,0.0,4339.615234,4332.94873,4348.589844,4362.179688,4329.615234,4328.461426,4330.256348,4354.102539,4328.846191,4310.897461,4508.077148,4527.94873,4399.615234,4463.333496,,,,,,,,,,,,,,,,,,,,,,,,,,,,,,,,,,,,,,,,,,,,,,,,,,,,,,,,,,,,,,,,,,,,,,
1768920050.849104,1768920050.849797,44.0,0.0,4341.538574,4334.615234,4353.717773,4363.846191,4330.256348,4338.333496,4337.692383,4355.769043,4331.538574,4311.025879,4506.666504,4526.922852,4404.743652,4463.205078,,,,,,,,,,,,,,,,,,,,,,,,,,,,,,,,,,,,,,,,,,,,,,,,,,,,,,,,,,,,,,,,,,,,,,
1768920050.856912,1768920050.857606,45.0,0.0,4342.436035,4342.820313,4358.846191,4368.589844,4335.384766,4336.410156,4336.538574,4351.410156,4334.230957,4312.692383,4512.563965,4530.384766,4414.230957,4470.256348,,,,,,,,,,,,,,,,,,,,,,,,,,,,,,,,,,,,,,,,,,,,,,,,,,,,,,,,,,,,,,,,,,,,,,
1768920050.864721,1768920050.865314,46.0,0.0,4343.205078,4344.230957,4356.282227,4368.333496,4330.897461,4329.102539,4335.512695,4353.205078,4338.077148,4312.94873,4515.256348,4538.333496,4413.846191,4476.410156,,,,,,,,,,,,,,,,,,,,,,,,,,,,,,,,,,,,,,,,,,,,,,,,,,,,,,,,,,,,,,,,,,,,,,
1768920050.872529,1768920050.873122,47.0,0.0,4342.179688,4337.820313,4354.230957,4362.563965,4328.205078,4333.846191,4341.410156,4357.307617,4337.692383,4317.820313,4510.769043,4539.743652,4410.641113,4469.358887,,,,,,,,,,,,,,,,,,,,,,,,,,,,,,,,,,,,,,,,,,,,,,,,,,,,,,,,,,,,,,,,,,,,,,
1768920050.880338,1768920050.88073,48.0,0.0,4340.128418,4332.563965,4355.0,4358.974121,4331.794922,4340.256348,4344.487305,4361.025879,4339.358887,4323.077148,4511.025879,4538.333496,4412.563965,4463.077148,1.90444,0.276537,0.116892,0.14965,0.170046,1.016465,0.658215,0.210678,0.159872,0.107518,2.221778,0.328983,0.204916,0.175787,0.094162,1.158215,0.521846,0.220317,0.142879,0.097889,0.204369,0.228133,0.043076,0.072392,0.090174,0.497819,0.183388,0.117287,0.23458,0.308261,0.538217,0.534209,0.197386,0.328874,0.238214,0.263311,0.214035,0.067502,0.217287,0.123108,0.743144,0.588064,0.338331,0.186668,0.119144,0.369157,0.683121,0.51368,0.294557,0.111346,0.615026,0.637491,0.427964,0.451879,0.116823,1.739136,0.951965,0.368166,0.41128,0.138669,0.972395,0.673464,0.369983,0.390879,0.124564,2.884529,0.861454,0.245068,0.357055,0.116235
1768920050.888146,1768920050.888539,49.0,0.0,4340.384766,4331.282227,4352.436035,4357.436035,4328.077148,4333.589844,4336.538574,4359.487305,4342.179688,4321.410156,4512.05127,4534.743652,4410.0,4462.94873,,,,,,,,,,,,,,,,,,,,,,,,,,,,,,,,,,,,,,,,,,,,,,,,,,,,,,,,,,,,,,,,,,,,,,
1768920050.895955,1768920050.896247,50.0,0.0,4343.077148,4336.538574,4345.128418,4356.538574,4325.0,4325.128418,4326.922852,4353.589844,4339.487305,4318.717773,4507.692383,4531.666504,4405.0,4462.307617,,,,,,,,,,,,,,,,,,,,,,,,,,,,,,,,,,,,,,,,,,,,,,,,,,,,,,,,,,,,,,,,,,,,,,
1768920050.903763,1768920050.904055,51.0,0.0,4341.666504,4338.461426,4342.563965,4355.769043,4327.820313,4324.615234,4325.384766,4354.743652,4337.436035,4320.384766,4507.692383,4530.128418,4408.589844,4461.025879,,,,,,,,,,,,,,,,,,,,,,,,,,,,,,,,,,,,,,,,,,,,,,,,,,,,,,,,,,,,,,,,,,,,,,
1768920050.911572,1768920050.912063,52.0,0.0,4335.512695,4331.153809,4340.897461,4351.794922,4326.025879,4327.179688,4324.487305,4353.077148,4330.897461,4314.230957,4507.307617,4521.282227,4405.897461,4456.282227,,,,,,,,,,,,,,,,,,,,,,,,,,,,,,,,,,,,,,,,,,,,,,,,,,,,,,,,,,,,,,,,,,,,,,
1768920050.91938,1768920050.919872,53.0,0.0,4330.769043,4325.0,4330.512695,4345.769043,4321.922852,4324.743652,4324.102539,4351.025879,4326.410156,4305.641113,4503.461426,4513.589844,4393.846191,4449.743652,,,,,,,,,,,,,,,,,,,,,,,,,,,,,,,,,,,,,,,,,,,,,,,,,,,,,,,,,,,,,,,,,,,,,,
1768920050.927189,1768920050.92778,54.0,0.0,4331.794922,4327.179688,4326.025879,4345.769043,4322.820313,4326.282227,4335.128418,4358.461426,4337.179688,4314.230957,4509.102539,4519.871582,4397.820313,4455.641113,,,,,,,,,,,,,,,,,,,,,,,,,,,,,,,,,,,,,,,,,,,,,,,,,,,,,,,,,,,,,,,,,,,,,,
1768920050.934997,1768920050.935589,55.0,0.0,4335.512695,4331.153809,4336.025879,4348.589844,4326.282227,4333.077148,4340.897461,4352.179688,4341.410156,4323.333496,4505.512695,4522.436035,4406.794922,4464.487305,,,,,,,,,,,,,,,,,,,,,,,,,,,,,,,,,,,,,,,,,,,,,,,,,,,,,,,,,,,,,,,,,,,,,,
1768920050.942806,1768920050.943597,56.0,0.0,4342.179688,4332.307617,4342.563965,4347.05127,4328.717773,4332.820313,4329.871582,4338.974121,4326.538574,4314.743652,4490.512695,4517.692383,4398.077148,4460.641113,,,,,,,,,,,,,,,,,,,,,,,,,,,,,,,,,,,,,,,,,,,,,,,,,,,,,,,,,,,,,,,,,,,,,,
1768920050.950614,1768920050.951405,57.0,0.0,4347.436035,4332.563965,4340.256348,4350.769043,4326.794922,4326.025879,4323.333496,4345.384766,4321.153809,4307.05127,4493.846191,4520.897461,4391.922852,4459.871582,,,,,,,,,,,,,,,,,,,,,,,,,,,,,,,,,,,,,,,,,,,,,,,,,,,,,,,,,,,,,,,,,,,,,,
1768920050.958423,1768920050.959114,58.0,0.0,4343.077148,4331.410156,4341.025879,4360.0,4323.974121,4320.897461,4327.307617,4351.282227,4330.256348,4312.179688,4506.153809,4522.179688,4400.0,4466.410156,,,,,,,,,,,,,,,,,,,,,,,,,,,,,,,,,,,,,,,,,,,,,,,,,,,,,,,,,,,,,,,,,,,,,,
1768920050.966231,1768920050.966922,59.0,0.0,4337.179688,4327.307617,4342.307617,4359.358887,4325.256348,4324.102539,4333.589844,4345.897461,4330.128418,4314.487305,4506.025879,4520.128418,4403.333496,4464.487305,,,,,,,,,,,,,,,,,,,,,,,,,,,,,,,,,,,,,,,,,,,,,,,,,,,,,,,,,,,,,,,,,,,,,,
1768920050.97404,1768920050.97493,60.0,0.0,4339.743652,4326.025879,4343.077148,4356.282227,4323.077148,4328.846191,4338.077148,4348.077148,4324.230957,4311.025879,4501.666504,4523.461426,4400.384766,4460.512695,,,,,,,,,,,,,,,,,,,,,,,,,,,,,,,,,,,,,,,,,,,,,,,,,,,,,,,,,,,,,,,,,,,,,,
1768920050.981848,1768920050.982739,61.0,0.0,4346.282227,4327.179688,4345.641113,4359.102539,4317.692383,4325.256348,4331.922852,4349.615234,4324.743652,4311.153809,4503.333496,4521.794922,4398.974121,4464.358887,,,,,,,,,,,,,,,,,,,,,,,,,,,,,,,,,,,,,,,,,,,,,,,,,,,,,,,,,,,,,,,,,,,,,,
1768920050.989657,1768920050.990647,62.0,0.0,4348.974121,4330.641113,4346.410156,4359.102539,4320.256348,4320.897461,4324.102539,4342.179688,4326.538574,4314.230957,4504.487305,4519.871582,4398.589844,4467.05127,,,,,,,,,,,,,,,,,,,,,,,,,,,,,,,,,,,,,,,,,,,,,,,,,,,,,,,,,,,,,,,,,,,,,,
1768920050.997465,1768920050.998455,63.0,0.0,4349.615234,4337.563965,4350.512695,4358.974121,4325.769043,4324.615234,4332.820313,4342.307617,4326.025879,4315.0,4506.410156,4528.205078,4401.410156,4467.436035,,,,,,,,,,,,,,,,,,,,,,,,,,,,,,,,,,,,,,,,,,,,,,,,,,,,,,,,,,,,,,,,,,,,,,
1768920051.005274,1768920051.006464,64.0,0.0,4352.307617,4342.179688,4356.410156,4364.102539,4328.077148,4328.974121,4336.282227,4347.692383,4325.769043,4314.230957,4508.333496,4531.153809,4408.846191,4474.102539,2.002976,0.181151,0.14623,0.161342,0.173585,1.254429,0.638782,0.215212,0.17951,0.099439,2.666424,0.328982,0.187911,0.17896,0.0896,1.382855,0.586177,0.206863,0.176168,0.09479,0.201714,0.262958,0.060585,0.078887,0.092687,0.44795,0.269586,0.11858,0.209126,0.314423,0.597482,0.621053,0.210925,0.31232,0.247119,0.244605,0.196042,0.066562,0.213506,0.138063,0.730747,0.53729,0.295291,0.156491,0.119566,0.394268,0.661624,0.515715,0.276843,0.109694,0.730061,0.564162,0.501838,0.408229,0.11187,2.151205,0.819887,0.416105,0.381887,0.13073,1.147118,0.652969,0.431498,0.401861,0.12065,3.221212,0.741313,0.298609,0.383794,0.108882
1768920051.013082,1768920051.014272,65.0,0.0,4352.05127,4339.487305,4355.0,4367.820313,4325.641113,4322.94873,4319.102539,4344.743652,4326.410156,4315.512695,4508.205078,4530.641113,4412.436035,4478.333496,,,,,,,,,,,,,,,,,,,,,,,,,,,,,,,,,,,,,,,,,,,,,,,,,,,,,,,,,,,,,,,,,,,,,,
1768920051.020891,1768920051.021981,66.0,0.0,4349.102539,4336.282227,4349.871582,4362.05127,4315.384766,4313.205078,4310.769043,4340.128418,4321.794922,4313.205078,4506.282227,4533.589844,4409.743652,4473.717773,,,,,,,,,,,,,,,,,,,,,,,,,,,,,,,,,,,,,,,,,,,,,,,,,,,,,,,,,,,,,,,,,,,,,,
1768920051.0287,1768920051.029789,67.0,0.0,4346.410156,4335.128418,4350.128418,4356.025879,4310.769043,4313.461426,4321.538574,4337.436035,4316.538574,4307.563965,4505.0,4530.769043,4409.358887,4470.897461,,,,,,,,,,,,,,,,,,,,,,,,,,,,,,,,,,,,,,,,,,,,,,,,,,,,,,,,,,,,,,,,,,,,,,
1768920051.036508,1768920051.037398,68.0,0.0,4345.384766,4332.820313,4353.077148,4357.436035,4320.641113,4326.025879,4330.384766,4338.461426,4318.077148,4307.307617,4508.461426,4528.077148,4412.05127,4470.384766,,,,,,,,,,,,,,,,,,,,,,,,,,,,,,,,,,,,,,,,,,,,,,,,,,,,,,,,,,,,,,,,,,,,,,
1768920051.044316,1768920051.045206,69.0,0.0,4344.743652,4326.922852,4348.717773,4357.436035,4324.358887,4330.256348,4327.692383,4340.897461,4320.0,4307.94873,4503.461426,4526.153809,4405.256348,4461.025879,,,,,,,,,,,,,,,,,,,,,,,,,,,,,,,,,,,,,,,,,,,,,,,,,,,,,,,,,,,,,,,,,,,,,,
1768920051.052125,1768920051.052914,70.0,0.0,4344.615234,4321.282227,4342.436035,4353.077148,4314.743652,4314.358887,4320.897461,4340.641113,4319.871582,4304.487305,4494.743652,4518.589844,4396.538574,4455.512695,,,,,,,,,,,,,,,,,,,,,,,,,,,,,,,,,,,,,,,,,,,,,,,,,,,,,,,,,,,,,,,,,,,,,,
1768920051.059934,1768920051.060723,71.0,0.0,4353.077148,4326.025879,4350.128418,4354.743652,4313.461426,4310.128418,4325.512695,4346.666504,4326.666504,4310.769043,4508.717773,4527.05127,4407.94873,4472.94873,,,,,,,,,,,,,,,,,,,,,,,,,,,,,,,,,,,,,,,,,,,,,,,,,,,,,,,,,,,,,,,,,,,,,,
1768920051.067742,1768920051.068331,72.0,0.0,4364.358887,4339.102539,4366.410156,4364.615234,4319.615234,4324.871582,4336.794922,4356.153809,4336.922852,4324.615234,4531.538574,4552.563965,4429.358887,4494.230957,,,,,,,,,,,,,,,,,,,,,,,,,,,,,,,,,,,,,,,,,,,,,,,,,,,,,,,,,,,,,,,,,,,,,,
1768920051.07555,1768920051.076139,73.0,0.0,4365.128418,4344.743652,4368.205078,4370.256348,4320.256348,4323.205078,4331.666504,4355.384766,4338.077148,4329.743652,4532.820313,4556.922852,4434.102539,4494.871582,,,,,,,,,,,,,,,,,,,,,,,,,,,,,,,,,,,,,,,,,,,,,,,,,,,,,,,,,,,,,,,,,,,,,,
1768920051.083359,1768920051.083848,74.0,0.0,4358.717773,4339.358887,4359.871582,4369.358887,4320.641113,4309.102539,4316.666504,4346.538574,4329.230957,4322.820313,4518.717773,4536.282227,4422.94873,4484.358887,,,,,,,,,,,,,,,,,,,,,,,,,,,,,,,,,,,,,,,,,,,,,,,,,,,,,,,,,,,,,,,,,,,,,,
1768920051.091168,1768920051.091656,75.0,0.0,4354.615234,4335.0,4357.307617,4364.871582,4322.692383,4312.436035,4319.743652,4344.487305,4322.05127,4315.769043,4514.743652,4526.025879,4413.974121,4477.820313,,,,,,,,,,,,,,,,,,,,,,,,,,,,,,,,,,,,,,,,,,,,,,,,,,,,,,,,,,,,,,,,,,,,,,
1768920051.098976,1768920051.099264,76.0,0.0,4349.871582,4337.179688,4357.307617,4363.205078,4321.282227,4324.871582,4330.512695,4353.461426,4329.102539,4317.05127,4520.641113,4532.563965,4412.820313,4476.282227,,,,,,,,,,,,,,,,,,,,,,,,,,,,,,,,,,,,,,,,,,,,,,,,,,,,,,,,,,,,,,,,,,,,,,
1768920051.106785,1768920051.107072,77.0,0.0,4350.384766,4341.922852,4357.563965,4371.025879,4323.974121,4326.025879,4327.05127,4358.589844,4338.077148,4323.589844,4524.102539,4535.897461,4419.871582,4479.615234,,,,,,,,,,,,,,,,,,,,,,,,,,,,,,,,,,,,,,,,,,,,,,,,,,,,,,,,,,,,,,,,,,,,,,
1768920051.114593,1768920051.114981,78.0,0.0,4359.230957,4343.846191,4360.0,4375.512695,4327.05127,4323.589844,4323.717773,4347.307617,4331.538574,4324.871582,4523.974121,4533.077148,4425.512695,4480.897461,,,,,,,,,,,,,,,,,,,,,,,,,,,,,,,,,,,,,,,,,,,,,,,,,,,,,,,,,,,,,,,,,,,,,,
1768920051.122402,1768920051.122789,79.0,0.0,4357.94873,4339.743652,4356.666504,4365.0,4318.974121,4322.692383,4326.794922,4335.0,4323.333496,4320.0,4516.794922,4530.641113,4418.077148,4475.0,,,,,,,,,,,,,,,,,,,,,,,,,,,,,,,,,,,,,,,,,,,,,,,,,,,,,,,,,,,,,,,,,,,,,,
1768920051.13021,1768920051.130797,80.0,0.0,4347.05127,4336.666504,4350.641113,4356.282227,4315.128418,4319.102539,4324.230957,4341.666504,4327.820313,4319.230957,4512.307617,4527.94873,4411.538574,4473.589844,1.989815,0.152032,0.186213,0.174285,0.170616,1.386427,0.640576,0.199134,0.196368,0.090599,2.937076,0.364107,0.178935,0.189873,0.089813,1.50769,0.663338,0.219554,0.205942,0.094581,0.197919,0.279851,0.08003,0.0885,0.093258,0.405654,0.350161,0.1247,0.178098,0.306042,0.64393,0.663105,0.223614,0.283522,0.245099,0.223373,0.165877,0.062538,0.214534,0.155717,0.729676,0.449605,0.247654,0.139582,0.123084,0.437792,0.607528,0.50177,0.261179,0.109101,0.804752,0.50696,0.552377,0.357592,0.108708,2.426007,0.672459,0.44763,0.34808,0.132729,1.298502,0.646226,0.498654,0.396146,0.121305,3.29227,0.665264,0.330985,0.40798,0.107537
1768920051.138019,1768920051.138606,81.0,0.0,4343.333496,4334.615234,4348.974121,4357.692383,4320.769043,4320.128418,4326.153809,4354.743652,4331.410156,4317.179688,4514.487305,4526.282227,4413.589844,4475.897461,,,,,,,,,,,,,,,,,,,,,,,,,,,,,,,,,,,,,,,,,,,,,,,,,,,,,,,,,,,,,,,,,,,,,,
1768920051.145827,1768920051.146514,82.0,0.0,4345.0,4327.563965,4345.384766,4355.384766,4315.128418,4328.333496,4338.846191,4355.769043,4330.256348,4310.256348,4510.384766,4524.102539,4411.025879,4471.410156,,,,,,,,,,,,,,,,,,,,,,,,,,,,,,,,,,,,,,,,,,,,,,,,,,,,,,,,,,,,,,,,,,,,,,
1768920051.153636,1768920051.154323,83.0,0.0,4341.410156,4323.846191,4341.666504,4352.563965,4307.692383,4327.94873,4343.205078,4350.0,4330.512695,4313.077148,4508.333496,4524.102539,4407.94873,4468.333496,,,,,,,,,,,,,,,,,,,,,,,,,,,,,,,,,,,,,,,,,,,,,,,,,,,,,,,,,,,,,,,,,,,,,,
1768920051.161444,1768920051.161931,84.0,0.0,4340.769043,4327.563965,4341.794922,4357.307617,4311.794922,4314.487305,4336.794922,4349.358887,4330.384766,4321.410156,4518.846191,4526.922852,4414.487305,4475.512695,,,,,,,,,,,,,,,,,,,,,,,,,,,,,,,,,,,,,,,,,,,,,,,,,,,,,,,,,,,,,,,,,,,,,,
1768920051.169253,1768920051.169739,85.0,0.0,4347.692383,4329.230957,4343.974121,4357.563965,4313.333496,4314.230957,4348.077148,4351.282227,4334.358887,4321.410156,4526.666504,4530.384766,4418.589844,4481.025879,,,,,,,,,,,,,,,,,,,,,,,,,,,,,,,,,,,,,,,,,,,,,,,,,,,,,,,,,,,,,,,,,,,,,,
1768920051.177061,1768920051.177447,86.0,0.0,4347.436035,4327.692383,4348.717773,4355.512695,4309.743652,4328.974121,4375.641113,4351.794922,4340.641113,4321.538574,4522.05127,4530.0,4415.512695,4476.538574,,,,,,,,,,,,,,,,,,,,,,,,,,,,,,,,,,,,,,,,,,,,,,,,,,,,,,,,,,,,,,,,,,,,,,
1768920051.18487,1768920051.185255,87.0,0.0,4342.307617,4326.410156,4350.384766,4359.743652,4310.384766,4328.461426,4387.820313,4352.436035,4338.589844,4323.205078,4516.282227,4527.820313,4414.230957,4475.256348,,,,,,,,,,,,,,,,,,,,,,,,,,,,,,,,,,,,,,,,,,,,,,,,,,,,,,,,,,,,,,,,,,,,,,
1768920051.192678,1768920051.193264,88.0,0.0,4343.846191,4326.153809,4343.589844,4357.05127,4312.307617,4319.871582,4388.589844,4350.128418,4330.128418,4315.512695,4511.282227,4523.333496,4412.692383,4478.461426,,,,,,,,,,,,,,,,,,,,,,,,,,,,,,,,,,,,,,,,,,,,,,,,,,,,,,,,,,,,,,,,,,,,,,
1768920051.200487,1768920051.201072,89.0,0.0,4343.717773,4326.153809,4339.358887,4348.461426,4312.563965,4323.589844,4391.538574,4345.512695,4323.717773,4308.717773,4506.538574,4520.128418,4410.512695,4475.641113,,,,,,,,,,,,,,,,,,,,,,,,,,,,,,,,,,,,,,,,,,,,,,,,,,,,,,,,,,,,,,,,,,,,,,
1768920051.208295,1768920051.20898,90.0,0.0,4336.794922,4320.384766,4343.717773,4350.897461,4311.025879,4325.512695,4388.077148,4349.102539,4325.512695,4311.153809,4508.974121,4526.666504,4413.846191,4473.974121,,,,,,,,,,,,,,,,,,,,,,,,,,,,,,,,,,,,,,,,,,,,,,,,,,,,,,,,,,,,,,,,,,,,,,
1768920051.216104,1768920051.216789,91.0,0.0,4332.692383,4309.615234,4343.974121,4351.153809,4309.230957,4317.820313,4381.153809,4353.589844,4328.205078,4308.589844,4508.846191,4528.974121,4411.922852,4475.0,,,,,,,,,,,,,,,,,,,,,,,,,,,,,,,,,,,,,,,,,,,,,,,,,,,,,,,,,,,,,,,,,,,,,,
1768920051.223912,1768920051.224397,92.0,0.0,4332.820313,4309.871582,4339.743652,4344.358887,4308.333496,4317.307617,4383.333496,4344.358887,4320.384766,4303.589844,4503.846191,4521.666504,4401.922852,4470.0,,,,,,,,,,,,,,,,,,,,,,,,,,,,,,,,,,,,,,,,,,,,,,,,,,,,,,,,,,,,,,,,,,,,,,
1768920051.231721,1768920051.232206,93.0,0.0,4329.358887,4316.666504,4339.102539,4347.94873,4308.205078,4318.974121,4381.666504,4335.128418,4314.615234,4302.692383,4503.077148,4518.974121,4399.230957,4462.820313,,,,,,,,,,,,,,,,,,,,,,,,,,,,,,,,,,,,,,,,,,,,,,,,,,,,,,,,,,,,,,,,,,,,,,
1768920051.239529,1768920051.240114,94.0,0.0,4325.641113,4315.384766,4340.512695,4355.769043,4308.461426,4315.384766,4375.0,4341.794922,4322.436035,4297.94873,4506.282227,4522.563965,4405.512695,4460.256348,,,,,,,,,,,,,,,,,,,,,,,,,,,,,,,,,,,,,,,,,,,,,,,,,,,,,,,,,,,,,,,,,,,,,,
1768920051.247338,1768920051.247923,95.0,0.0,4328.717773,4313.205078,4344.230957,4353.333496,4311.794922,4317.563965,4374.615234,4347.05127,4326.410156,4296.153809,4504.358887,4522.307617,4406.410156,4461.025879,,,,,,,,,,,,,,,,,,,,,,,,,,,,,,,,,,,,,,,,,,,,,,,,,,,,,,,,,,,,,,,,,,,,,,
1768920051.255146,1768920051.255532,96.0,0.0,4335.128418,4320.512695,4348.846191,4354.358887,4316.666504,4322.820313,4369.230957,4343.077148,4321.025879,4301.538574,4501.794922,4518.974121,4401.025879,4459.358887,1.82729,0.164043,0.220349,0.186448,0.16137,1.382558,0.64506,0.167893,0.206071,0.083764,2.954183,0.426123,0.177906,0.194911,0.094162,1.512557,0.724908,0.248725,0.222406,0.098214,0.190288,0.276607,0.094867,0.099089,0.09313,0.371089,0.404687,0.132395,0.149087,0.28737,0.656992,0.655313,0.234649,0.253509,0.236688,0.210788,0.131891,0.05772,0.217791,0.173028,0.739905,0.348474,0.206863,0.139401,0.129636,0.494619,0.530129,0.479625,0.251037,0.111456,0.837159,0.476014,0.569289,0.307848,0.107583,2.497388,0.554512,0.463133,0.314743,0.142887,1.428954,0.648779,0.553453,0.373045,0.128488,3.09588,0.651456,0.343336,0.418997,0.112249
1768920051.262955,1768920051.26334,97.0,0.0,4334.230957,4326.538574,4351.538574,4360.769043,4322.179688,4321.282227,4357.692383,4340.897461,4320.641113,4300.897461,4501.666504,4518.846191,4399.615234,4457.179688,,,,,,,,,,,,,,,,,,,,,,,,,,,,,,,,,,,,,,,,,,,,,,,,,,,,,,,,,,,,,,,,,,,,,,
1768920051.270764,1768920051.271048,98.0,0.0,4330.384766,4325.384766,4351.538574,4359.615234,4320.641113,4318.205078,4357.692383,4343.846191,4324.487305,4295.128418,4496.922852,4519.102539,4400.256348,4458.461426,,,,,,,,,,,,,,,,,,,,,,,,,,,,,,,,,,,,,,,,,,,,,,,,,,,,,,,,,,,,,,,,,,,,,,
1768920051.278572,1768920051.278856,99.0,0.0,4335.897461,4326.282227,4351.922852,4357.820313,4314.871582,4319.615234,4359.487305,4345.384766,4321.922852,4294.871582,4491.666504,4519.358887,4398.205078,4461.282227,,,,,,,,,,,,,,,,,,,,,,,,,,,,,,,,,,,,,,,,,,,,,,,,,,,,,,,,,,,,,,,,,,,,,,
1768920051.28638,1768920051.286465,100.0,0.0,4346.153809,4328.077148,4353.461426,4358.974121,4316.922852,4321.794922,4356.025879,4342.563965,4318.717773,4298.717773,4492.436035,4521.922852,4395.641113,4460.641113,,,,,,,,,,,,,,,,,,,,,,,,,,,,,,,,,,,,,,,,,,,,,,,,,,,,,,,,,,,,,,,,,,,,,,
1768920051.294189,1768920051.294273,101.0,0.0,4345.512695,4326.794922,4352.94873,4359.102539,4320.128418,4325.641113,4358.974121,4345.256348,4324.487305,4301.025879,4499.102539,4523.846191,4397.179688,4459.871582,,,,,,,,,,,,,,,,,,,,,,,,,,,,,,,,,,,,,,,,,,,,,,,,,,,,,,,,,,,,,,,,,,,,,,
1768920051.301998,1768920051.301981,102.0,0.0,4337.820313,4326.794922,4352.307617,4359.230957,4318.974121,4327.05127,4356.025879,4351.410156,4330.0,4299.102539,4500.256348,4523.461426,4399.743652,4460.641113,,,,,,,,,,,,,,,,,,,,,,,,,,,,,,,,,,,,,,,,,,,,,,,,,,,,,,,,,,,,,,,,,,,,,,
1768920051.309806,1768920051.309789,103.0,0.0,4331.410156,4327.692383,4351.666504,4358.846191,4321.666504,4320.769043,4340.641113,4345.256348,4323.333496,4297.179688,4493.205078,4521.538574,4397.692383,4454.615234,,,,,,,,,,,,,,,,,,,,,,,,,,,,,,,,,,,,,,,,,,,,,,,,,,,,,,,,,,,,,,,,,,,,,,
1768920051.317614,1768920051.317798,104.0,0.0,4328.461426,4325.256348,4349.487305,4355.512695,4326.153809,4318.205078,4340.256348,4338.205078,4320.256348,4301.922852,4492.563965,4520.256348,4399.871582,4451.025879,,,,,,,,,,,,,,,,,,,,,,,,,,,,,,,,,,,,,,,,,,,,,,,,,,,,,,,,,,,,,,,,,,,,,,
1768920051.325423,1768920051.325606,105.0,0.0,4330.512695,4326.794922,4350.384766,4355.641113,4324.615234,4322.563965,4355.256348,4346.922852,4327.05127,4308.461426,4505.256348,4522.692383,4408.974121,4457.179688,,,,,,,,,,,,,,,,,,,,,,,,,,,,,,,,,,,,,,,,,,,,,,,,,,,,,,,,,,,,,,,,,,,,,,
1768920051.333232,1768920051.333515,106.0,0.0,4333.717773,4334.743652,4355.0,4363.205078,4323.846191,4327.94873,4355.897461,4350.128418,4329.487305,4310.384766,4511.410156,4529.871582,4413.717773,4463.333496,,,,,,,,,,,,,,,,,,,,,,,,,,,,,,,,,,,,,,,,,,,,,,,,,,,,,,,,,,,,,,,,,,,,,,
1768920051.34104,1768920051.341323,107.0,0.0,4331.153809,4337.05127,4355.512695,4364.615234,4325.512695,4327.820313,4341.922852,4342.179688,4326.922852,4310.769043,4506.153809,4533.205078,4410.128418,4464.743652,,,,,,,,,,,,,,,,,,,,,,,,,,,,,,,,,,,,,,,,,,,,,,,,,,,,,,,,,,,,,,,,,,,,,,
1768920051.348849,1768920051.349331,108.0,0.0,4324.230957,4337.436035,4350.256348,4357.820313,4323.717773,4321.922852,4339.615234,4344.615234,4326.794922,4313.717773,4507.436035,4529.615234,4409.871582,4464.102539,,,,,,,,,,,,,,,,,,,,,,,,,,,,,,,,,,,,,,,,,,,,,,,,,,,,,,,,,,,,,,,,,,,,,,
1768920051.356657,1768920051.35714,109.0,0.0,4320.641113,4340.641113,4348.974121,4356.282227,4325.0,4320.0,4342.94873,4350.384766,4328.333496,4316.538574,4510.897461,4528.333496,4415.256348,4463.846191,,,,,,,,,,,,,,,,,,,,,,,,,,,,,,,,,,,,,,,,,,,,,,,,,,,,,,,,,,,,,,,,,,,,,,
1768920051.364466,1768920051.364848,110.0,0.0,4318.461426,4337.94873,4350.769043,4359.102539,4328.077148,4320.256348,4334.615234,4345.641113,4328.205078,4313.974121,4509.871582,4529.743652,4414.871582,4462.307617,,,,,,,,,,,,,,,,,,,,,,,,,,,,,,,,,,,,,,,,,,,,,,,,,,,,,,,,,,,,,,,,,,,,,,
1768920051.372274,1768920051.372657,111.0,0.0,4313.461426,4332.05127,4347.307617,4357.05127,4326.666504,4319.487305,4325.384766,4341.282227,4326.282227,4309.615234,4507.05127,4525.897461,4410.897461,4462.307617,,,,,,,,,,,,,,,,,,,,,,,,,,,,,,,,,,,,,,,,,,,,,,,,,,,,,,,,,,,,,,,,,,,,,,
1768920051.380083,1768920051.380665,112.0,0.0,4310.128418,4333.333496,4342.436035,4357.179688,4323.717773,4319.102539,4325.769043,4341.922852,4324.615234,4310.769043,4506.025879,4521.410156,4412.179688,4463.846191,1.536469,0.19958,0.235154,0.19927,0.1474,1.275721,0.636381,0.135941,0.209413,0.080934,2.743345,0.50669,0.18526,0.188858,0.100904,1.439828,0.748833,0.275502,0.221772,0.104551,0.183484,0.255327,0.099866,0.108969,0.094435,0.339809,0.417583,0.136468,0.128537,0.267928,0.664047,0.625677,0.24398,0.231655,0.23265,0.205966,0.106942,0.054726,0.220561,0.187985,0.753209,0.263293,0.181619,0.153425,0.138798,0.562236,0.44861,0.453347,0.245534,0.11761,0.840659,0.472394,0.549054,0.266065,0.110483,2.362801,0.494055,0.466516,0.288383,0.157363,1.543804,0.652962,0.579643,0.339205,0.143933,2.700896,0.683031,0.34629,0.412191,0.120952
1768920051.387891,1768920051.388473,113.0,0.0,4307.94873,4335.897461,4342.94873,4357.179688,4325.769043,4318.077148,4325.512695,4341.153809,4326.025879,4311.538574,4506.922852,4522.563965,4412.05127,4461.153809,,,,,,,,,,,,,,,,,,,,,,,,,,,,,,,,,,,,,,,,,,,,,,,,,,,,,,,,,,,,,,,,,,,,,,
1768920051.3957,1768920051.396382,114.0,0.0,4306.794922,4331.538574,4344.230957,4347.05127,4324.743652,4317.820313,4324.615234,4341.410156,4326.410156,4309.102539,4505.641113,4523.974121,4405.128418,4456.153809,,,,,,,,,,,,,,,,,,,,,,,,,,,,,,,,,,,,,,,,,,,,,,,,,,,,,,,,,,,,,,,,,,,,,,
1768920051.403508,1768920051.40419,115.0,0.0,4310.0,4327.563965,4340.897461,4343.461426,4316.410156,4320.384766,4324.487305,4340.512695,4324.102539,4309.102539,4506.922852,4522.05127,4404.358887,4453.974121,,,,,,,,,,,,,,,,,,,,,,,,,,,,,,,,,,,,,,,,,,,,,,,,,,,,,,,,,,,,,,,,,,,,,,
1768920051.411317,1768920051.411799,116.0,0.0,4314.743652,4325.897461,4337.94873,4347.179688,4312.563965,4321.025879,4320.897461,4337.94873,4325.641113,4309.487305,4509.743652,4524.102539,4410.897461,4455.641113,,,,,,,,,,,,,,,,,,,,,,,,,,,,,,,,,,,,,,,,,,,,,,,,,,,,,,,,,,,,,,,,,,,,,,
1768920051.419125,1768920051.419607,117.0,0.0,4317.563965,4328.461426,4340.641113,4346.410156,4317.692383,4319.615234,4322.436035,4343.846191,4329.487305,4313.333496,4509.487305,4530.641113,4410.256348,4458.205078,,,,,,,,,,,,,,,,,,,,,,,,,,,,,,,,,,,,,,,,,,,,,,,,,,,,,,,,,,,,,,,,,,,,,,
1768920051.426934,1768920051.427316,118.0,0.0,4322.436035,4331.025879,4342.563965,4347.05127,4323.077148,4320.897461,4326.922852,4350.0,4329.871582,4318.205078,4508.589844,4531.282227,4405.769043,4456.538574,,,,,,,,,,,,,,,,,,,,,,,,,,,,,,,,,,,,,,,,,,,,,,,,,,,,,,,,,,,,,,,,,,,,,,
1768920051.434742,1768920051.435124,119.0,0.0,4328.333496,4329.102539,4341.153809,4348.205078,4318.589844,4321.922852,4321.922852,4344.358887,4327.94873,4316.153809,4508.846191,4523.846191,4408.205078,4452.179688,,,,,,,,,,,,,,,,,,,,,,,,,,,,,,,,,,,,,,,,,,,,,,,,,,,,,,,,,,,,,,,,,,,,,,
1768920051.442551,1768920051.443132,120.0,0.0,4330.641113,4328.077148,4341.794922,4347.563965,4312.692383,4323.717773,4313.717773,4337.692383,4325.128418,4309.871582,4505.641113,4521.794922,4411.153809,4452.563965,,,,,,,,,,,,,,,,,,,,,,,,,,,,,,,,,,,,,,,,,,,,,,,,,,,,,,,,,,,,,,,,,,,,,,
1768920051.450359,1768920051.450941,121.0,0.0,4333.846191,4328.974121,4343.461426,4350.769043,4316.025879,4323.333496,4311.794922,4338.333496,4319.102539,4308.077148,4503.589844,4525.512695,4412.179688,4456.666504,,,,,,,,,,,,,,,,,,,,,,,,,,,,,,,,,,,,,,,,,,,,,,,,,,,,,,,,,,,,,,,,,,,,,,
1768920051.458168,1768920051.458649,122.0,0.0,4335.769043,4329.102539,4343.077148,4355.0,4316.666504,4314.358887,4312.179688,4339.487305,4312.307617,4308.846191,4507.05127,4523.717773,4410.256348,4455.897461,,,,,,,,,,,,,,,,,,,,,,,,,,,,,,,,,,,,,,,,,,,,,,,,,,,,,,,,,,,,,,,,,,,,,,
1768920051.465976,1768920051.466457,123.0,0.0,4332.05127,4333.205078,4342.05127,4355.641113,4311.282227,4312.05127,4309.358887,4337.563965,4312.820313,4307.692383,4501.666504,4521.410156,4405.512695,4457.692383,,,,,,,,,,,,,,,,,,,,,,,,,,,,,,,,,,,,,,,,,,,,,,,,,,,,,,,,,,,,,,,,,,,,,,
