Timestamp,OriginalTimestamp,EEG.Counter,EEG.Interpolated,EEG.AF3,EEG.F7,EEG.F3,EEG.FC5,EEG.T7,EEG.P7,EEG.O1,EEG.O2,EEG.P8,EEG.T8,EEG.FC6,EEG.F4,EEG.F8,EEG.AF4,POW.AF3.Theta,POW.AF3.Alpha,POW.AF3.BetaL,POW.AF3.BetaH,POW.AF3.Gamma,POW.F7.Theta,POW.F7.Alpha,POW.F7.BetaL,POW.F7.BetaH,POW.F7.Gamma,POW.F3.Theta,POW.F3.Alpha,POW.F3.BetaL,POW.F3.BetaH,POW.F3.Gamma,POW.FC5.Theta,POW.FC5.Alpha,POW.FC5.BetaL,POW.FC5.BetaH,POW.FC5.Gamma,POW.T7.Theta,POW.T7.Alpha,POW.T7.BetaL,POW.T7.BetaH,POW.T7.Gamma,POW.P7.Theta,POW.P7.Alpha,POW.P7.BetaL,POW.P7.BetaH,POW.P7.Gamma,POW.O1.Theta,POW.O1.Alpha,POW.O1.BetaL,POW.O1.BetaH,POW.O1.Gamma,POW.O2.Theta,POW.O2.Alpha,POW.O2.BetaL,POW.O2.BetaH,POW.O2.Gamma,POW.P8.Theta,POW.P8.Alpha,POW.P8.BetaL,POW.P8.BetaH,POW.P8.Gamma,POW.T8.Theta,POW.T8.Alpha,POW.T8.BetaL,POW.T8.BetaH,POW.T8.Gamma,POW.FC6.Theta,POW.FC6.Alpha,POW.FC6.BetaL,POW.FC6.BetaH,POW.FC6.Gamma,POW.F4.Theta,POW.F4.Alpha,POW.F4.BetaL,POW.F4.BetaH,POW.F4.Gamma,POW.F8.Theta,POW.F8.Alpha,POW.F8.BetaL,POW.F8.BetaH,POW.F8.Gamma,POW.AF4.Theta,POW.AF4.Alpha,POW.AF4.BetaL,POW.AF4.BetaH,POW.AF4.Gamma
1769162112.067947,1769162112.068803,57.0,0.0,4315.512695,4302.436035,4305.128418,4338.974121,4281.153809,4286.410156,4274.102539,4277.94873,4278.333496,4276.282227,4579.743652,4556.538574,4427.94873,4530.128418,,,,,,,,,,,,,,,,,,,,,,,,,,,,,,,,,,,,,,,,,,,,,,,,,,,,,,,,,,,,,,,,,,,,,,
1769162112.075756,1769162112.076512,58.0,0.0,4322.307617,4301.666504,4305.897461,4338.846191,4282.436035,4282.94873,4268.205078,4278.077148,4280.512695,4278.589844,4578.461426,4556.153809,4427.05127,4530.0,,,,,,,,,,,,,,,,,,,,,,,,,,,,,,,,,,,,,,,,,,,,,,,,,,,,,,,,,,,,,,,,,,,,,,
1769162112.083564,1769162112.08432,59.0,0.0,4316.025879,4292.692383,4302.692383,4331.922852,4282.563965,4281.794922,4263.077148,4276.794922,4280.897461,4277.563965,4575.128418,4552.94873,4427.307617,4523.333496,,,,,,,,,,,,,,,,,,,,,,,,,,,,,,,,,,,,,,,,,,,,,,,,,,,,,,,,,,,,,,,,,,,,,,
1769162112.091373,1769162112.091929,60.0,0.0,4308.333496,4292.94873,4307.05127,4332.307617,4282.820313,4286.153809,4267.563965,4275.512695,4280.384766,4277.94873,4579.487305,4555.128418,4430.0,4524.358887,,,,,,,,,,,,,,,,,,,,,,,,,,,,,,,,,,,,,,,,,,,,,,,,,,,,,,,,,,,,,,,,,,,,,,
1769162112.099181,1769162112.099737,61.0,0.0,4314.871582,4302.94873,4316.153809,4340.128418,4281.410156,4284.102539,4268.589844,4278.205078,4281.794922,4277.820313,4583.077148,4564.358887,4429.743652,4528.077148,,,,,,,,,,,,,,,,,,,,,,,,,,,,,,,,,,,,,,,,,,,,,,,,,,,,,,,,,,,,,,,,,,,,,,
1769162112.10699,1769162112.107446,62.0,0.0,4321.538574,4302.94873,4321.538574,4338.205078,4279.871582,4278.974121,4262.94873,4279.358887,4281.282227,4277.94873,4580.641113,4564.487305,4428.461426,4527.05127,1.176979,0.495962,0.238951,0.444248,0.236018,0.649582,0.213646,0.161488,0.232336,0.151273,0.9026,0.152859,0.166124,0.192024,0.197211,0.63139,0.108603,0.135328,0.195657,0.119855,0.254043,0.090581,0.116921,0.113121,0.052668,0.208298,0.049835,0.068673,0.070941,0.08015,0.287827,0.402984,0.123438,0.140624,0.088708,0.549548,0.271195,0.147666,0.24228,0.116849,0.304578,0.244851,0.060694,0.09835,0.086988,0.23628,0.347356,0.10065,0.16078,0.266228,0.582121,0.626991,0.300275,0.086426,0.110023,1.018512,0.791826,0.266955,0.325117,0.237866,0.593959,0.713067,0.407942,0.110592,0.164686,1.620987,1.014592,0.453061,0.160165,0.302742
1769162112.114798,1769162112.115254,63.0,0.0,4321.153809,4296.922852,4322.179688,4328.846191,4279.487305,4278.974121,4261.410156,4275.128418,4277.820313,4278.717773,4580.897461,4555.512695,4428.974121,4526.282227,,,,,,,,,,,,,,,,,,,,,,,,,,,,,,,,,,,,,,,,,,,,,,,,,,,,,,,,,,,,,,,,,,,,,,
1769162112.122606,1769162112.123262,64.0,0.0,4315.128418,4296.666504,4319.230957,4325.769043,4278.974121,4279.871582,4264.487305,4275.128418,4277.436035,4278.846191,4581.922852,4555.0,4426.410156,4525.641113,,,,,,,,,,,,,,,,,,,,,,,,,,,,,,,,,,,,,,,,,,,,,,,,,,,,,,,,,,,,,,,,,,,,,,
1769162112.130415,1769162112.131071,65.0,0.0,4310.384766,4298.077148,4319.358887,4328.333496,4280.256348,4280.512695,4268.205078,4279.230957,4280.769043,4278.589844,4577.94873,4559.102539,4425.384766,4522.563965,,,,,,,,,,,,,,,,,,,,,,,,,,,,,,,,,,,,,,,,,,,,,,,,,,,,,,,,,,,,,,,,,,,,,,
1769162112.138223,1769162112.138979,66.0,0.0,4313.974121,4297.436035,4321.410156,4330.256348,4282.436035,4282.307617,4273.205078,4277.692383,4280.0,4278.589844,4574.102539,4556.282227,4427.820313,4521.153809,,,,,,,,,,,,,,,,,,,,,,,,,,,,,,,,,,,,,,,,,,,,,,,,,,,,,,,,,,,,,,,,,,,,,,
1769162112.146032,1769162112.146788,67.0,0.0,4317.179688,4296.666504,4316.538574,4326.922852,4281.666504,4281.025879,4275.0,4275.769043,4277.436035,4278.205078,4570.512695,4552.307617,4427.307617,4521.922852,,,,,,,,,,,,,,,,,,,,,,,,,,,,,,,,,,,,,,,,,,,,,,,,,,,,,,,,,,,,,,,,,,,,,,
1769162112.15384,1769162112.154796,68.0,0.0,4310.641113,4294.358887,4309.615234,4323.333496,4280.897461,4280.256348,4268.077148,4278.846191,4279.358887,4279.871582,4571.666504,4552.692383,4425.641113,4522.563965,,,,,,,,,,,,,,,,,,,,,,,,,,,,,,,,,,,,,,,,,,,,,,,,,,,,,,,,,,,,,,,,,,,,,,
1769162112.161649,1769162112.162604,69.0,0.0,4308.205078,4291.794922,4311.538574,4324.615234,4283.205078,4281.282227,4265.128418,4277.05127,4281.153809,4279.871582,4580.256348,4559.358887,4428.077148,4523.974121,,,,,,,,,,,,,,,,,,,,,,,,,,,,,,,,,,,,,,,,,,,,,,,,,,,,,,,,,,,,,,,,,,,,,,
1769162112.169457,1769162112.170313,70.0,0.0,4316.666504,4295.0,4319.615234,4328.974121,4283.589844,4281.025879,4268.077148,4273.205078,4278.974121,4279.102539,4585.256348,4566.282227,4429.615234,4527.692383,,,,,,,,,,,,,,,,,,,,,,,,,,,,,,,,,,,,,,,,,,,,,,,,,,,,,,,,,,,,,,,,,,,,,,
1769162112.177266,1769162112.178121,71.0,0.0,4318.974121,4297.436035,4319.743652,4328.461426,4279.871582,4277.179688,4263.461426,4276.538574,4278.589844,4287.05127,4583.974121,4564.487305,4429.358887,4533.077148,,,,,,,,,,,,,,,,,,,,,,,,,,,,,,,,,,,,,,,,,,,,,,,,,,,,,,,,,,,,,,,,,,,,,,
1769162112.185074,1769162112.18593,72.0,0.0,4312.05127,4295.128418,4310.512695,4323.461426,4278.205078,4280.256348,4265.769043,4279.871582,4281.025879,4288.333496,4583.717773,4557.179688,4429.230957,4530.641113,,,,,,,,,,,,,,,,,,,,,,,,,,,,,,,,,,,,,,,,,,,,,,,,,,,,,,,,,,,,,,,,,,,,,,
1769162112.192882,1769162112.193738,73.0,0.0,4307.820313,4290.641113,4304.230957,4321.153809,4279.230957,4286.922852,4277.307617,4279.615234,4281.666504,4278.077148,4581.282227,4555.256348,4427.307617,4524.615234,,,,,,,,,,,,,,,,,,,,,,,,,,,,,,,,,,,,,,,,,,,,,,,,,,,,,,,,,,,,,,,,,,,,,,
1769162112.200691,1769162112.201447,74.0,0.0,4312.94873,4289.102539,4309.487305,4324.102539,4278.974121,4281.794922,4271.538574,4279.102539,4279.743652,4285.0,4580.769043,4562.94873,4427.436035,4529.358887,,,,,,,,,,,,,,,,,,,,,,,,,,,,,,,,,,,,,,,,,,,,,,,,,,,,,,,,,,,,,,,,,,,,,,
1769162112.208499,1769162112.209255,75.0,0.0,4323.974121,4294.743652,4322.94873,4327.820313,4277.692383,4273.717773,4260.0,4278.846191,4278.461426,4298.077148,4585.641113,4572.436035,4430.384766,4539.230957,,,,,,,,,,,,,,,,,,,,,,,,,,,,,,,,,,,,,,,,,,,,,,,,,,,,,,,,,,,,,,,,,,,,,,
1769162112.216308,1769162112.216864,76.0,0.0,4328.461426,4298.333496,4326.794922,4328.077148,4278.461426,4274.743652,4265.256348,4276.922852,4280.0,4287.820313,4582.179688,4573.461426,4430.128418,4538.974121,,,,,,,,,,,,,,,,,,,,,,,,,,,,,,,,,,,,,,,,,,,,,,,,,,,,,,,,,,,,,,,,,,,,,,
1769162112.224116,1769162112.224672,77.0,0.0,4321.410156,4294.230957,4317.436035,4326.410156,4277.692383,4276.282227,4268.461426,4274.358887,4279.102539,4276.153809,4572.307617,4563.077148,4426.794922,4530.128418,,,,,,,,,,,,,,,,,,,,,,,,,,,,,,,,,,,,,,,,,,,,,,,,,,,,,,,,,,,,,,,,,,,,,,
1769162112.231925,1769162112.232381,78.0,0.0,4311.666504,4289.615234,4308.077148,4325.0,4276.538574,4276.410156,4265.897461,4275.256348,4280.512695,4281.282227,4570.0,4554.358887,4425.384766,4523.205078,0.850301,0.519881,0.25531,0.49787,0.252296,0.615011,0.25255,0.159168,0.274853,0.153933,0.969668,0.173359,0.180353,0.236538,0.194969,0.631006,0.117808,0.13561,0.210393,0.135377,0.21972,0.087417,0.104656,0.099087,0.044511,0.213833,0.066443,0.09265,0.086173,0.079151,0.285484,0.371326,0.1056,0.135456,0.076605,0.597338,0.255998,0.178982,0.224706,0.109024,0.392191,0.272697,0.066591,0.097555,0.084046,0.227638,0.353781,0.116583,0.164465,0.259836,0.517157,0.686743,0.245974,0.080281,0.114012,1.013649,0.951502,0.216405,0.335647,0.220457,0.449927,0.726673,0.31832,0.116193,0.157371,0.944161,1.108721,0.378685,0.162869,0.334329
1769162112.239733,1769162112.240189,79.0,0.0,4310.641113,4288.333496,4306.410156,4324.743652,4282.692383,4281.410156,4276.282227,4278.846191,4286.025879,4282.307617,4571.922852,4553.717773,4425.256348,4522.820313,,,,,,,,,,,,,,,,,,,,,,,,,,,,,,,,,,,,,,,,,,,,,,,,,,,,,,,,,,,,,,,,,,,,,,
1769162112.247542,1769162112.248198,80.0,0.0,4313.205078,4289.615234,4308.333496,4327.436035,4287.05127,4283.333496,4278.589844,4278.846191,4285.384766,4278.846191,4571.666504,4555.256348,4421.922852,4521.153809,,,,,,,,,,,,,,,,,,,,,,,,,,,,,,,,,,,,,,,,,,,,,,,,,,,,,,,,,,,,,,,,,,,,,,
1769162112.25535,1769162112.256006,81.0,0.0,4311.922852,4288.974121,4307.820313,4328.461426,4281.025879,4280.769043,4271.538574,4276.282227,4279.102539,4277.05127,4569.358887,4554.615234,4414.358887,4510.384766,,,,,,,,,,,,,,,,,,,,,,,,,,,,,,,,,,,,,,,,,,,,,,,,,,,,,,,,,,,,,,,,,,,,,,
1769162112.263158,1769162112.263914,82.0,0.0,4309.871582,4287.820313,4303.974121,4326.666504,4280.128418,4280.512695,4271.153809,4277.307617,4280.128418,4278.205078,4567.692383,4552.94873,4410.128418,4504.102539,,,,,,,,,,,,,,,,,,,,,,,,,,,,,,,,,,,,,,,,,,,,,,,,,,,,,,,,,,,,,,,,,,,,,,
1769162112.270967,1769162112.271723,83.0,0.0,4314.230957,4291.922852,4302.820313,4330.384766,4288.717773,4279.358887,4268.205078,4279.487305,4288.589844,4288.077148,4574.230957,4555.769043,4421.025879,4516.282227,,,,,,,,,,,,,,,,,,,,,,,,,,,,,,,,,,,,,,,,,,,,,,,,,,,,,,,,,,,,,,,,,,,,,,
1769162112.278775,1769162112.279331,84.0,0.0,4320.897461,4296.282227,4304.487305,4335.641113,4289.487305,4278.077148,4266.538574,4279.487305,4290.769043,4287.563965,4583.333496,4558.717773,4432.436035,4527.436035,,,,,,,,,,,,,,,,,,,,,,,,,,,,,,,,,,,,,,,,,,,,,,,,,,,,,,,,,,,,,,,,,,,,,,
1769162112.286584,1769162112.28714,85.0,0.0,4321.922852,4296.025879,4301.410156,4335.512695,4285.256348,4279.358887,4269.358887,4278.333496,4286.666504,4276.153809,4581.410156,4555.769043,4429.358887,4523.974121,,,,,,,,,,,,,,,,,,,,,,,,,,,,,,,,,,,,,,,,,,,,,,,,,,,,,,,,,,,,,,,,,,,,,,
1769162112.294392,1769162112.294848,86.0,0.0,4318.589844,4294.615234,4296.410156,4332.307617,4285.897461,4279.615234,4267.94873,4278.461426,4286.922852,4281.666504,4578.589844,4553.589844,4425.897461,4521.282227,,,,,,,,,,,,,,,,,,,,,,,,,,,,,,,,,,,,,,,,,,,,,,,,,,,,,,,,,,,,,,,,,,,,,,
1769162112.302201,1769162112.302657,87.0,0.0,4317.05127,4291.922852,4296.794922,4328.461426,4285.128418,4277.05127,4268.717773,4279.871582,4291.922852,4291.922852,4581.922852,4560.897461,4429.358887,4524.743652,,,,,,,,,,,,,,,,,,,,,,,,,,,,,,,,,,,,,,,,,,,,,,,,,,,,,,,,,,,,,,,,,,,,,,
1769162112.310009,1769162112.310665,88.0,0.0,4318.461426,4287.94873,4297.94873,4325.256348,4282.05127,4278.974121,4277.94873,4282.307617,4290.769043,4284.230957,4582.05127,4565.0,4429.487305,4525.256348,,,,,,,,,,,,,,,,,,,,,,,,,,,,,,,,,,,,,,,,,,,,,,,,,,,,,,,,,,,,,,,,,,,,,,
1769162112.317818,1769162112.318474,89.0,0.0,4318.333496,4290.0,4295.512695,4325.0,4280.769043,4277.94873,4277.692383,4278.846191,4283.205078,4278.461426,4582.179688,4559.230957,4427.179688,4523.717773,,,,,,,,,,,,,,,,,,,,,,,,,,,,,,,,,,,,,,,,,,,,,,,,,,,,,,,,,,,,,,,,,,,,,,
1769162112.325626,1769162112.326382,90.0,0.0,4314.871582,4292.563965,4293.077148,4326.666504,4279.230957,4266.666504,4272.692383,4268.846191,4279.102539,4283.077148,4580.641113,4555.641113,4428.589844,4523.974121,,,,,,,,,,,,,,,,,,,,,,,,,,,,,,,,,,,,,,,,,,,,,,,,,,,,,,,,,,,,,,,,,,,,,,
1769162112.333435,1769162112.33419,91.0,0.0,4310.897461,4286.794922,4296.153809,4325.641113,4276.794922,4264.487305,4277.563965,4267.436035,4276.794922,4280.0,4573.974121,4558.461426,4428.461426,4523.717773,,,,,,,,,,,,,,,,,,,,,,,,,,,,,,,,,,,,,,,,,,,,,,,,,,,,,,,,,,,,,,,,,,,,,,
1769162112.341243,1769162112.342199,92.0,0.0,4312.307617,4282.563965,4300.897461,4323.974121,4277.05127,4269.487305,4273.461426,4277.307617,4275.769043,4277.436035,4575.128418,4564.487305,4426.922852,4521.538574,,,,,,,,,,,,,,,,,,,,,,,,,,,,,,,,,,,,,,,,,,,,,,,,,,,,,,,,,,,,,,,,,,,,,,
1769162112.349052,1769162112.350007,93.0,0.0,4321.666504,4286.922852,4303.974121,4325.641113,4279.487305,4268.205078,4263.974121,4282.307617,4278.974121,4281.794922,4584.487305,4569.871582,4428.077148,4524.743652,,,,,,,,,,,,,,,,,,,,,,,,,,,,,,,,,,,,,,,,,,,,,,,,,,,,,,,,,,,,,,,,,,,,,,
1769162112.35686,1769162112.357716,94.0,0.0,4325.769043,4291.025879,4305.128418,4327.436035,4281.666504,4271.538574,4266.794922,4279.358887,4280.769043,4279.743652,4586.666504,4570.769043,4430.897461,4530.384766,0.708062,0.567448,0.33518,0.529885,0.271319,0.570233,0.295161,0.185527,0.307022,0.155838,1.014041,0.218593,0.208339,0.268978,0.192821,0.586374,0.123509,0.136362,0.204648,0.146463,0.175665,0.086982,0.097856,0.086983,0.037715,0.217707,0.102468,0.123679,0.095285,0.078429,0.298002,0.341116,0.098308,0.128467,0.068752,0.623577,0.233993,0.201871,0.208103,0.103567,0.468423,0.278506,0.069983,0.093495,0.08327,0.227187,0.362515,0.134022,0.160263,0.259449,0.485912,0.760294,0.246423,0.080432,0.124401,1.055646,1.066498,0.208729,0.32321,0.210969,0.386052,0.741844,0.272755,0.122871,0.153307,0.661156,1.267994,0.400826,0.173717,0.357567
1769162112.364668,1769162112.365524,95.0,0.0,4315.128418,4287.692383,4301.538574,4326.153809,4282.692383,4279.743652,4278.461426,4282.820313,4279.615234,4280.256348,4583.461426,4570.256348,4430.256348,4529.230957,,,,,,,,,,,,,,,,,,,,,,,,,,,,,,,,,,,,,,,,,,,,,,,,,,,,,,,,,,,,,,,,,,,,,,
1769162112.372477,1769162112.373432,96.0,0.0,4303.717773,4281.666504,4295.769043,4322.307617,4287.05127,4280.641113,4282.820313,4290.897461,4283.077148,4281.794922,4582.563965,4571.666504,4424.871582,4523.974121,,,,,,,,,,,,,,,,,,,,,,,,,,,,,,,,,,,,,,,,,,,,,,,,,,,,,,,,,,,,,,,,,,,,,,
1769162112.380285,1769162112.381241,97.0,0.0,4303.717773,4277.820313,4290.512695,4319.102539,4290.128418,4281.666504,4280.0,4294.230957,4288.589844,4271.025879,4578.077148,4568.205078,4422.179688,4521.025879,,,,,,,,,,,,,,,,,,,,,,,,,,,,,,,,,,,,,,,,,,,,,,,,,,,,,,,,,,,,,,,,,,,,,,
1769162112.388094,1769162112.388949,98.0,0.0,4307.820313,4280.128418,4291.282227,4320.256348,4284.230957,4282.563965,4280.384766,4292.94873,4290.384766,4272.307617,4576.794922,4564.487305,4423.333496,4520.384766,,,,,,,,,,,,,,,,,,,,,,,,,,,,,,,,,,,,,,,,,,,,,,,,,,,,,,,,,,,,,,,,,,,,,,
1769162112.395902,1769162112.396758,99.0,0.0,4311.538574,4289.102539,4301.922852,4326.153809,4278.974121,4275.769043,4282.436035,4293.333496,4293.974121,4291.153809,4586.025879,4570.769043,4428.461426,4521.666504,,,,,,,,,,,,,,,,,,,,,,,,,,,,,,,,,,,,,,,,,,,,,,,,,,,,,,,,,,,,,,,,,,,,,,
1769162112.403711,1769162112.404367,100.0,0.0,4312.692383,4295.128418,4311.410156,4328.974121,4281.153809,4272.692383,4280.641113,4294.230957,4295.641113,4291.794922,4588.589844,4572.563965,4432.820313,4524.102539,,,,,,,,,,,,,,,,,,,,,,,,,,,,,,,,,,,,,,,,,,,,,,,,,,,,,,,,,,,,,,,,,,,,,,
1769162112.411519,1769162112.412175,101.0,0.0,4310.769043,4294.743652,4308.974121,4326.922852,4282.94873,4273.205078,4276.666504,4284.487305,4285.897461,4276.666504,4580.769043,4561.282227,4424.230957,4518.461426,,,,,,,,,,,,,,,,,,,,,,,,,,,,,,,,,,,,,,,,,,,,,,,,,,,,,,,,,,,,,,,,,,,,,,
1769162112.419328,1769162112.419884,102.0,0.0,4309.358887,4292.307617,4303.717773,4326.025879,4279.743652,4270.512695,4275.641113,4275.512695,4277.820313,4275.0,4574.615234,4553.205078,4408.717773,4508.205078,,,,,,,,,,,,,,,,,,,,,,,,,,,,,,,,,,,,,,,,,,,,,,,,,,,,,,,,,,,,,,,,,,,,,,
1769162112.427136,1769162112.427692,103.0,0.0,4311.922852,4294.102539,4306.282227,4325.769043,4280.641113,4274.615234,4276.794922,4277.820313,4279.615234,4280.769043,4575.384766,4555.769043,4409.358887,4507.307617,,,,,,,,,,,,,,,,,,,,,,,,,,,,,,,,,,,,,,,,,,,,,,,,,,,,,,,,,,,,,,,,,,,,,,
1769162112.434945,1769162112.4357,104.0,0.0,4315.256348,4297.179688,4309.102539,4325.769043,4285.512695,4276.794922,4279.102539,4279.102539,4280.128418,4276.794922,4579.230957,4560.641113,4424.487305,4512.179688,,,,,,,,,,,,,,,,,,,,,,,,,,,,,,,,,,,,,,,,,,,,,,,,,,,,,,,,,,,,,,,,,,,,,,
1769162112.442753,1769162112.443509,105.0,0.0,4314.487305,4296.282227,4309.615234,4327.820313,4285.0,4268.846191,4276.153809,4276.025879,4278.589844,4272.692383,4582.05127,4564.102539,4427.692383,4514.871582,,,,,,,,,,,,,,,,,,,,,,,,,,,,,,,,,,,,,,,,,,,,,,,,,,,,,,,,,,,,,,,,,,,,,,
1769162112.450561,1769162112.451417,106.0,0.0,4312.563965,4293.846191,4308.846191,4327.563965,4279.102539,4266.794922,4270.128418,4276.922852,4280.256348,4277.05127,4580.256348,4567.179688,4416.153809,4516.666504,,,,,,,,,,,,,,,,,,,,,,,,,,,,,,,,,,,,,,,,,,,,,,,,,,,,,,,,,,,,,,,,,,,,,,
1769162112.45837,1769162112.459225,107.0,0.0,4313.846191,4294.230957,4309.102539,4326.538574,4283.846191,4274.358887,4272.692383,4279.743652,4282.179688,4283.589844,4581.153809,4570.0,4415.897461,4521.922852,,,,,,,,,,,,,,,,,,,,,,,,,,,,,,,,,,,,,,,,,,,,,,,,,,,,,,,,,,,,,,,,,,,,,,
1769162112.466178,1769162112.467234,108.0,0.0,4313.461426,4293.589844,4310.641113,4326.025879,4292.307617,4277.179688,4278.974121,4279.102539,4282.436035,4280.897461,4584.358887,4570.897461,4426.794922,4523.589844,,,,,,,,,,,,,,,,,,,,,,,,,,,,,,,,,,,,,,,,,,,,,,,,,,,,,,,,,,,,,,,,,,,,,,
1769162112.473987,1769162112.475042,109.0,0.0,4314.871582,4292.05127,4310.256348,4324.487305,4287.94873,4276.282227,4279.102539,4277.563965,4282.05127,4276.538574,4582.692383,4569.487305,4424.102539,4521.794922,,,,,,,,,,,,,,,,,,,,,,,,,,,,,,,,,,,,,,,,,,,,,,,,,,,,,,,,,,,,,,,,,,,,,,
1769162112.481795,1769162112.482751,110.0,0.0,4321.794922,4291.153809,4313.717773,4327.563965,4283.589844,4277.692383,4278.205078,4276.025879,4279.871582,4278.461426,4579.230957,4569.615234,4415.769043,4521.153809,0.666989,0.623603,0.463115,0.522918,0.287687,0.500885,0.336152,0.234232,0.321318,0.156943,1.014309,0.279826,0.24702,0.279721,0.193329,0.502126,0.122793,0.135947,0.180663,0.151729,0.131912,0.088374,0.094078,0.076689,0.033168,0.2183,0.153232,0.153704,0.097041,0.078886,0.301542,0.31275,0.100714,0.12609,0.066457,0.614695,0.211082,0.20849,0.190855,0.098991,0.505412,0.260031,0.071286,0.08563,0.082183,0.239154,0.361251,0.148361,0.149287,0.256018,0.459096,0.821225,0.292834,0.083739,0.137015,1.065995,1.097507,0.247313,0.290916,0.21411,0.363738,0.739707,0.268951,0.127758,0.14966,0.619986,1.447895,0.498392,0.185299,0.370687
1769162112.489604,1769162112.490559,111.0,0.0,4322.05127,4291.282227,4318.846191,4335.384766,4288.589844,4277.179688,4279.871582,4277.179688,4279.615234,4277.307617,4580.256348,4572.05127,4424.615234,4520.641113,,,,,,,,,,,,,,,,,,,,,,,,,,,,,,,,,,,,,,,,,,,,,,,,,,,,,,,,,,,,,,,,,,,,,,
1769162112.497412,1769162112.498168,112.0,0.0,4313.974121,4291.410156,4316.153809,4334.743652,4287.820313,4276.025879,4278.846191,4279.615234,4281.538574,4279.230957,4582.436035,4571.153809,4428.589844,4520.384766,,,,,,,,,,,,,,,,,,,,,,,,,,,,,,,,,,,,,,,,,,,,,,,,,,,,,,,,,,,,,,,,,,,,,,
1769162112.505221,1769162112.505976,113.0,0.0,4308.589844,4287.692383,4310.128418,4326.538574,4282.179688,4278.974121,4278.077148,4280.384766,4281.922852,4278.333496,4583.333496,4568.717773,4416.410156,4519.102539,,,,,,,,,,,,,,,,,,,,,,,,,,,,,,,,,,,,,,,,,,,,,,,,,,,,,,,,,,,,,,,,,,,,,,
1769162112.513029,1769162112.513885,114.0,0.0,4306.282227,4283.589844,4309.871582,4324.871582,4281.666504,4280.384766,4281.025879,4280.128418,4281.153809,4266.922852,4577.436035,4567.307617,4409.743652,4518.846191,,,,,,,,,,,,,,,,,,,,,,,,,,,,,,,,,,,,,,,,,,,,,,,,,,,,,,,,,,,,,,,,,,,,,,
1769162112.520837,1769162112.521693,115.0,0.0,4307.563965,4287.436035,4311.794922,4328.461426,4281.153809,4276.282227,4280.384766,4277.94873,4280.641113,4268.205078,4571.410156,4566.922852,4414.102539,4520.256348,,,,,,,,,,,,,,,,,,,,,,,,,,,,,,,,,,,,,,,,,,,,,,,,,,,,,,,,,,,,,,,,,,,,,,
1769162112.528646,1769162112.529701,116.0,0.0,4312.820313,4293.333496,4312.94873,4327.820313,4280.0,4274.230957,4275.897461,4276.153809,4280.0,4283.077148,4577.05127,4569.871582,4419.102539,4523.717773,,,,,,,,,,,,,,,,,,,,,,,,,,,,,,,,,,,,,,,,,,,,,,,,,,,,,,,,,,,,,,,,,,,,,,
1769162112.536454,1769162112.53751,117.0,0.0,4314.102539,4289.871582,4313.846191,4325.641113,4281.153809,4278.461426,4272.820313,4272.436035,4277.94873,4279.743652,4578.974121,4568.077148,4419.102539,4521.153809,,,,,,,,,,,,,,,,,,,,,,,,,,,,,,,,,,,,,,,,,,,,,,,,,,,,,,,,,,,,,,,,,,,,,,
1769162112.544263,1769162112.545418,118.0,0.0,4310.128418,4288.717773,4312.563965,4325.256348,4280.641113,4278.461426,4273.333496,4267.692383,4274.615234,4264.615234,4568.846191,4557.179688,4412.820313,4511.410156,,,,,,,,,,,,,,,,,,,,,,,,,,,,,,,,,,,,,,,,,,,,,,,,,,,,,,,,,,,,,,,,,,,,,,
1769162112.552071,1769162112.553227,119.0,0.0,4311.153809,4293.846191,4310.384766,4326.153809,4280.256348,4274.358887,4275.512695,4270.769043,4275.384766,4270.769043,4568.205078,4552.820313,4411.153809,4508.974121,,,,,,,,,,,,,,,,,,,,,,,,,,,,,,,,,,,,,,,,,,,,,,,,,,,,,,,,,,,,,,,,,,,,,,
1769162112.55988,1769162112.560835,120.0,0.0,4310.769043,4289.871582,4309.102539,4326.153809,4281.153809,4275.512695,4278.333496,4276.922852,4280.0,4279.743652,4573.589844,4558.077148,4415.256348,4509.487305,,,,,,,,,,,,,,,,,,,,,,,,,,,,,,,,,,,,,,,,,,,,,,,,,,,,,,,,,,,,,,,,,,,,,,
1769162112.567688,1769162112.568644,121.0,0.0,4300.897461,4278.717773,4307.820313,4322.179688,4277.563965,4277.179688,4280.128418,4270.641113,4275.641113,4269.615234,4562.307617,4551.666504,4407.307617,4496.410156,,,,,,,,,,,,,,,,,,,,,,,,,,,,,,,,,,,,,,,,,,,,,,,,,,,,,,,,,,,,,,,,,,,,,,
1769162112.575497,1769162112.576352,122.0,0.0,4296.153809,4275.769043,4305.512695,4317.94873,4273.974121,4270.769043,4279.230957,4263.589844,4269.743652,4260.512695,4550.128418,4538.205078,4397.436035,4485.256348,,,,,,,,,,,,,,,,,,,,,,,,,,,,,,,,,,,,,,,,,,,,,,,,,,,,,,,,,,,,,,,,,,,,,,
1769162112.583305,1769162112.584161,123.0,0.0,4305.512695,4281.666504,4305.769043,4320.641113,4276.153809,4264.487305,4278.717773,4272.179688,4275.641113,4262.563965,4558.974121,4543.333496,4405.128418,4497.436035,,,,,,,,,,,,,,,,,,,,,,,,,,,,,,,,,,,,,,,,,,,,,,,,,,,,,,,,,,,,,,,,,,,,,,
1769162112.591113,1769162112.591769,124.0,0.0,4312.179688,4283.205078,4309.230957,4326.282227,4280.128418,4264.487305,4278.974121,4280.512695,4282.179688,4266.538574,4571.410156,4557.94873,4415.384766,4512.307617,,,,,,,,,,,,,,,,,,,,,,,,,,,,,,,,,,,,,,,,,,,,,,,,,,,,,,,,,,,,,,,,,,,,,,
1769162112.598922,1769162112.599578,125.0,0.0,4309.615234,4280.256348,4311.410156,4326.666504,4279.102539,4263.717773,4277.692383,4280.256348,4280.641113,4266.538574,4572.692383,4559.615234,4414.871582,4510.512695,,,,,,,,,,,,,,,,,,,,,,,,,,,,,,,,,,,,,,,,,,,,,,,,,,,,,,,,,,,,,,,,,,,,,,
1769162112.60673,1769162112.607286,126.0,0.0,4307.563965,4279.487305,4311.025879,4324.230957,4274.615234,4264.487305,4277.179688,4279.230957,4277.692383,4260.641113,4568.205078,4555.0,4405.128418,4505.512695,0.619838,0.6577,0.597596,0.477207,0.295198,0.414682,0.363916,0.287632,0.315536,0.156597,0.937925,0.342951,0.288267,0.269568,0.196368,0.405829,0.115197,0.133865,0.14666,0.151133,0.09758,0.094739,0.0893,0.066638,0.03118,0.217007,0.208026,0.174201,0.09401,0.08044,0.284318,0.2835,0.111185,0.133049,0.069785,0.571174,0.191009,0.196024,0.170778,0.094745,0.490388,0.228009,0.071285,0.075498,0.079637,0.257857,0.345503,0.156247,0.134834,0.244049,0.420777,0.846934,0.354978,0.088729,0.146875,1.010314,1.028787,0.313714,0.250689,0.22862,0.346759,0.701128,0.290635,0.13196,0.144049,0.665735,1.573411,0.622803,0.19224,0.372489
1769162112.614539,1769162112.615095,127.0,0.0,4308.846191,4280.384766,4310.128418,4324.230957,4274.615234,4270.384766,4277.692383,4276.538574,4277.05127,4255.897461,4564.871582,4555.0,4397.179688,4505.769043,,,,,,,,,,,,,,,,,,,,,,,,,,,,,,,,,,,,,,,,,,,,,,,,,,,,,,,,,,,,,,,,,,,,,,
1769162112.622347,1769162112.622703,0.0,0.0,4310.256348,4279.358887,4308.205078,4323.461426,4277.820313,4279.615234,4280.641113,4276.794922,4276.794922,4261.794922,4564.358887,4553.974121,4402.436035,4505.384766,,,,,,,,,,,,,,,,,,,,,,,,,,,,,,,,,,,,,,,,,,,,,,,,,,,,,,,,,,,,,,,,,,,,,,
1769162112.630156,1769162112.630512,1.0,0.0,4311.794922,4281.025879,4309.615234,4322.94873,4278.717773,4280.384766,4282.820313,4276.282227,4277.563965,4266.794922,4568.717773,4553.589844,4412.436035,4508.974121,,,,,,,,,,,,,,,,,,,,,,,,,,,,,,,,,,,,,,,,,,,,,,,,,,,,,,,,,,,,,,,,,,,,,,
1769162112.637964,1769162112.63822,2.0,0.0,4314.487305,4289.230957,4317.05127,4325.641113,4278.589844,4271.025879,4277.820313,4271.153809,4278.589844,4268.717773,4574.743652,4562.94873,4417.179688,4520.256348,,,,,,,,,,,,,,,,,,,,,,,,,,,,,,,,,,,,,,,,,,,,,,,,,,,,,,,,,,,,,,,,,,,,,,
1769162112.645773,1769162112.646029,3.0,0.0,4318.846191,4294.871582,4322.94873,4326.538574,4279.871582,4268.077148,4276.922852,4271.666504,4280.512695,4272.820313,4575.641113,4566.282227,4420.128418,4526.153809,,,,,,,,,,,,,,,,,,,,,,,,,,,,,,,,,,,,,,,,,,,,,,,,,,,,,,,,,,,,,,,,,,,,,,
1769162112.653581,1769162112.654037,4.0,0.0,4322.307617,4294.230957,4325.641113,4324.487305,4279.615234,4275.769043,4287.05127,4278.461426,4283.333496,4268.205078,4571.410156,4559.358887,4416.282227,4523.333496,,,,,,,,,,,,,,,,,,,,,,,,,,,,,,,,,,,,,,,,,,,,,,,,,,,,,,,,,,,,,,,,,,,,,,
1769162112.661389,1769162112.661845,5.0,0.0,4324.487305,4293.205078,4329.230957,4325.0,4278.717773,4278.461426,4288.974121,4278.589844,4287.307617,4263.589844,4570.128418,4558.461426,4411.282227,4520.512695,,,,,,,,,,,,,,,,,,,,,,,,,,,,,,,,,,,,,,,,,,,,,,,,,,,,,,,,,,,,,,,,,,,,,,
1769162112.669198,1769162112.669754,6.0,0.0,4321.282227,4294.871582,4328.333496,4325.384766,4280.384766,4273.461426,4280.641113,4277.94873,4295.0,4272.436035,4573.974121,4562.05127,4423.846191,4523.589844,,,,,,,,,,,,,,,,,,,,,,,,,,,,,,,,,,,,,,,,,,,,,,,,,,,,,,,,,,,,,,,,,,,,,,
1769162112.677006,1769162112.677562,7.0,0.0,4314.102539,4294.358887,4321.794922,4321.666504,4280.897461,4273.846191,4283.077148,4280.897461,4293.846191,4274.358887,4574.743652,4557.179688,4431.538574,4524.358887,,,,,,,,,,,,,,,,,,,,,,,,,,,,,,,,,,,,,,,,,,,,,,,,,,,,,,,,,,,,,,,,,,,,,,
1769162112.684815,1769162112.685171,8.0,0.0,4312.436035,4291.922852,4318.333496,4321.538574,4279.487305,4277.436035,4288.589844,4278.846191,4286.153809,4263.333496,4569.230957,4550.512695,4417.94873,4515.128418,,,,,,,,,,,,,,,,,,,,,,,,,,,,,,,,,,,,,,,,,,,,,,,,,,,,,,,,,,,,,,,,,,,,,,
1769162112.692623,1769162112.692979,9.0,0.0,4316.282227,4292.307617,4321.410156,4324.871582,4278.461426,4276.282227,4283.974121,4277.05127,4284.871582,4260.128418,4566.025879,4551.794922,4407.05127,4502.307617,,,,,,,,,,,,,,,,,,,,,,,,,,,,,,,,,,,,,,,,,,,,,,,,,,,,,,,,,,,,,,,,,,,,,,
1769162112.700432,1769162112.700888,10.0,0.0,4323.333496,4297.307617,4325.769043,4325.641113,4279.615234,4275.256348,4279.358887,4277.820313,4283.461426,4264.871582,4568.589844,4554.615234,4412.307617,4505.641113,,,,,,,,,,,,,,,,,,,,,,,,,,,,,,,,,,,,,,,,,,,,,,,,,,,,,,,,,,,,,,,,,,,,,,
1769162112.70824,1769162112.708696,11.0,0.0,4329.358887,4297.179688,4328.077148,4326.025879,4278.589844,4275.128418,4280.128418,4277.436035,4282.820313,4265.641113,4571.794922,4556.282227,4419.358887,4522.05127,,,,,,,,,,,,,,,,,,,,,,,,,,,,,,,,,,,,,,,,,,,,,,,,,,,,,,,,,,,,,,,,,,,,,,
1769162112.716049,1769162112.716704,12.0,0.0,4322.563965,4287.692383,4326.794922,4324.230957,4274.871582,4275.512695,4287.692383,4278.461426,4286.025879,4261.025879,4572.307617,4556.794922,4416.282227,4521.666504,,,,,,,,,,,,,,,,,,,,,,,,,,,,,,,,,,,,,,,,,,,,,,,,,,,,,,,,,,,,,,,,,,,,,,
1769162112.723857,1769162112.724513,13.0,0.0,4311.410156,4285.0,4322.436035,4319.615234,4275.769043,4276.666504,4291.538574,4279.743652,4283.974121,4260.384766,4572.05127,4556.410156,4410.641113,4508.077148,,,,,,,,,,,,,,,,,,,,,,,,,,,,,,,,,,,,,,,,,,,,,,,,,,,,,,,,,,,,,,,,,,,,,,
1769162112.731665,1769162112.732421,14.0,0.0,4311.922852,4289.743652,4322.05127,4320.512695,4279.102539,4278.717773,4286.538574,4280.897461,4279.871582,4270.512695,4572.307617,4557.05127,4410.769043,4506.538574,0.542814,0.646643,0.697769,0.410818,0.289465,0.335932,0.370825,0.325821,0.292783,0.153571,0.820769,0.394174,0.324306,0.248741,0.199013,0.33588,0.102914,0.131183,0.112916,0.14524,0.08105,0.110724,0.081337,0.055947,0.031908,0.214381,0.256214,0.180172,0.090848,0.082273,0.242717,0.254555,0.129917,0.149634,0.077533,0.518307,0.18516,0.1689,0.147285,0.090645,0.433971,0.205615,0.072361,0.066057,0.076204,0.272241,0.317845,0.156864,0.121554,0.226071,0.37818,0.829617,0.40066,0.096742,0.150893,0.918134,0.875162,0.379682,0.216826,0.246794,0.333514,0.621088,0.315959,0.13909,0.137446,0.729167,1.575158,0.72878,0.193329,0.36152
1769162112.739474,1769162112.74023,15.0,0.0,4316.025879,4287.692383,4326.666504,4326.153809,4280.384766,4277.94873,4284.743652,4278.974121,4280.897461,4277.05127,4570.897461,4554.743652,4413.205078,4510.0,,,,,,,,,,,,,,,,,,,,,,,,,,,,,,,,,,,,,,,,,,,,,,,,,,,,,,,,,,,,,,,,,,,,,,
1769162112.747282,1769162112.748038,16.0,0.0,4313.205078,4286.410156,4326.922852,4323.846191,4280.128418,4275.641113,4290.897461,4281.153809,4283.205078,4270.897461,4571.282227,4553.333496,4411.025879,4506.794922,,,,,,,,,,,,,,,,,,,,,,,,,,,,,,,,,,,,,,,,,,,,,,,,,,,,,,,,,,,,,,,,,,,,,,
1769162112.755091,1769162112.755847,17.0,0.0,4309.102539,4286.282227,4322.05127,4316.153809,4275.128418,4278.974121,4294.102539,4288.333496,4284.358887,4263.333496,4578.077148,4558.333496,4410.0,4511.538574,,,,,,,,,,,,,,,,,,,,,,,,,,,,,,,,,,,,,,,,,,,,,,,,,,,,,,,,,,,,,,,,,,,,,,
1769162112.7629,1769162112.763555,18.0,0.0,4309.487305,4282.94873,4322.563965,4320.0,4272.307617,4277.563965,4287.692383,4286.794922,4283.333496,4263.974121,4582.179688,4567.179688,4417.436035,4525.897461,,,,,,,,,,,,,,,,,,,,,,,,,,,,,,,,,,,,,,,,,,,,,,,,,,,,,,,,,,,,,,,,,,,,,,
1769162112.770708,1769162112.771364,19.0,0.0,4312.436035,4286.410156,4326.538574,4327.563965,4277.94873,4268.333496,4279.358887,4277.820313,4279.871582,4272.05127,4576.282227,4567.307617,4420.641113,4525.384766,,,,,,,,,,,,,,,,,,,,,,,,,,,,,,,,,,,,,,,,,,,,,,,,,,,,,,,,,,,,,,,,,,,,,,
1769162112.778516,1769162112.779372,20.0,0.0,4312.179688,4290.0,4322.94873,4318.333496,4281.282227,4269.102539,4281.538574,4277.05127,4280.0,4276.794922,4568.717773,4557.179688,4413.077148,4510.0,,,,,,,,,,,,,,,,,,,,,,,,,,,,,,,,,,,,,,,,,,,,,,,,,,,,,,,,,,,,,,,,,,,,,,
1769162112.786325,1769162112.78718,21.0,0.0,4307.307617,4281.153809,4317.820313,4308.717773,4277.820313,4278.333496,4291.538574,4280.641113,4281.794922,4271.410156,4568.974121,4550.384766,4413.974121,4500.641113,,,,,,,,,,,,,,,,,,,,,,,,,,,,,,,,,,,,,,,,,,,,,,,,,,,,,,,,,,,,,,,,,,,,,,
1769162112.794133,1769162112.794889,22.0,0.0,4307.05127,4276.666504,4321.025879,4318.974121,4277.820313,4276.410156,4289.358887,4280.384766,4281.794922,4273.461426,4573.589844,4553.333496,4423.974121,4503.717773,,,,,,,,,,,,,,,,,,,,,,,,,,,,,,,,,,,,,,,,,,,,,,,,,,,,,,,,,,,,,,,,,,,,,,
1769162112.801942,1769162112.802697,23.0,0.0,4315.128418,4285.512695,4325.0,4328.589844,4279.230957,4271.025879,4283.589844,4281.410156,4282.692383,4280.769043,4574.358887,4555.769043,4419.871582,4508.205078,,,,,,,,,,,,,,,,,,,,,,,,,,,,,,,,,,,,,,,,,,,,,,,,,,,,,,,,,,,,,,,,,,,,,,
1769162112.80975,1769162112.810306,24.0,0.0,4320.128418,4292.692383,4323.077148,4324.358887,4279.102539,4278.077148,4291.153809,4283.077148,4286.410156,4269.358887,4570.0,4553.461426,4409.743652,4505.384766,,,,,,,,,,,,,,,,,,,,,,,,,,,,,,,,,,,,,,,,,,,,,,,,,,,,,,,,,,,,,,,,,,,,,,
1769162112.817559,1769162112.818114,25.0,0.0,4318.974121,4292.94873,4321.794922,4325.256348,4280.128418,4280.256348,4294.871582,4283.333496,4289.230957,4260.641113,4568.717773,4550.897461,4411.282227,4501.666504,,,,,,,,,,,,,,,,,,,,,,,,,,,,,,,,,,,,,,,,,,,,,,,,,,,,,,,,,,,,,,,,,,,,,,
1769162112.825367,1769162112.825823,26.0,0.0,4318.333496,4286.025879,4324.487305,4328.205078,4278.205078,4274.102539,4291.025879,4281.538574,4283.717773,4273.205078,4569.230957,4553.461426,4411.666504,4511.153809,,,,,,,,,,,,,,,,,,,,,,,,,,,,,,,,,,,,,,,,,,,,,,,,,,,,,,,,,,,,,,,,,,,,,,
1769162112.833176,1769162112.833631,27.0,0.0,4322.692383,4279.743652,4327.436035,4323.589844,4277.05127,4275.256348,4291.410156,4278.846191,4280.897461,4280.512695,4573.333496,4561.538574,4415.0,4522.307617,,,,,,,,,,,,,,,,,,,,,,,,,,,,,,,,,,,,,,,,,,,,,,,,,,,,,,,,,,,,,,,,,,,,,,
1769162112.840984,1769162112.84164,28.0,0.0,4321.794922,4282.179688,4326.922852,4320.897461,4280.128418,4278.333496,4293.333496,4285.641113,4290.0,4275.384766,4580.641113,4562.563965,4426.666504,4517.05127,,,,,,,,,,,,,,,,,,,,,,,,,,,,,,,,,,,,,,,,,,,,,,,,,,,,,,,,,,,,,,,,,,,,,,
1769162112.848792,1769162112.849448,29.0,0.0,4311.282227,4279.358887,4323.333496,4320.641113,4279.102539,4278.461426,4294.230957,4292.436035,4290.0,4270.128418,4578.077148,4555.512695,4424.358887,4505.0,,,,,,,,,,,,,,,,,,,,,,,,,,,,,,,,,,,,,,,,,,,,,,,,,,,,,,,,,,,,,,,,,,,,,,
1769162112.856601,1769162112.857356,30.0,0.0,4311.025879,4276.666504,4326.666504,4321.666504,4276.666504,4282.179688,4296.666504,4286.025879,4279.871582,4265.384766,4572.307617,4558.077148,4413.589844,4503.589844,0.463638,0.587936,0.735417,0.3484,0.269889,0.297358,0.35907,0.33484,0.259524,0.147022,0.712855,0.421918,0.348315,0.231761,0.197034,0.314427,0.088883,0.129637,0.087596,0.134874,0.081951,0.138271,0.071068,0.04561,0.035215,0.216608,0.293345,0.174168,0.092139,0.083517,0.188781,0.232365,0.156702,0.170952,0.0874,0.476058,0.209039,0.139256,0.122758,0.086449,0.361652,0.212623,0.07713,0.059964,0.072952,0.27174,0.286804,0.150675,0.113571,0.211548,0.346624,0.777823,0.407244,0.111278,0.149163,0.854144,0.685422,0.419383,0.199845,0.258076,0.332462,0.517976,0.324558,0.153682,0.134521,0.825546,1.441068,0.784649,0.19482,0.33752
1769162112.864409,1769162112.865165,31.0,0.0,4324.743652,4284.102539,4337.436035,4327.307617,4282.563965,4279.230957,4290.128418,4280.512695,4284.102539,4267.307617,4577.563965,4570.256348,4413.589844,4508.333496,,,,,,,,,,,,,,,,,,,,,,,,,,,,,,,,,,,,,,,,,,,,,,,,,,,,,,,,,,,,,,,,,,,,,,
1769162112.872218,1769162112.873173,32.0,0.0,4329.871582,4286.922852,4337.436035,4330.0,4289.487305,4266.410156,4278.974121,4284.743652,4295.384766,4273.589844,4580.641113,4572.820313,4415.641113,4508.846191,,,,,,,,,,,,,,,,,,,,,,,,,,,,,,,,,,,,,,,,,,,,,,,,,,,,,,,,,,,,,,,,,,,,,,
1769162112.880026,1769162112.880981,33.0,0.0,4318.333496,4279.871582,4326.922852,4325.769043,4290.0,4268.077148,4282.307617,4283.846191,4294.102539,4268.461426,4572.436035,4562.179688,4411.922852,4506.538574,,,,,,,,,,,,,,,,,,,,,,,,,,,,,,,,,,,,,,,,,,,,,,,,,,,,,,,,,,,,,,,,,,,,,,
1769162112.887835,1769162112.88869,34.0,0.0,4307.563965,4275.384766,4321.922852,4322.692383,4291.025879,4278.974121,4291.794922,4283.205078,4288.077148,4263.974121,4570.897461,4554.487305,4410.641113,4502.692383,,,,,,,,,,,,,,,,,,,,,,,,,,,,,,,,,,,,,,,,,,,,,,,,,,,,,,,,,,,,,,,,,,,,,,
1769162112.895643,1769162112.896498,35.0,0.0,4307.307617,4276.666504,4323.589844,4322.692383,4289.358887,4278.205078,4292.94873,4290.641113,4289.615234,4274.743652,4579.487305,4556.794922,4413.205078,4500.769043,,,,,,,,,,,,,,,,,,,,,,,,,,,,,,,,,,,,,,,,,,,,,,,,,,,,,,,,,,,,,,,,,,,,,,
1769162112.903452,1769162112.904507,36.0,0.0,4309.743652,4278.589844,4322.94873,4322.820313,4282.563965,4274.871582,4292.307617,4289.102539,4291.666504,4278.077148,4581.153809,4558.589844,4413.846191,4497.436035,,,,,,,,,,,,,,,,,,,,,,,,,,,,,,,,,,,,,,,,,,,,,,,,,,,,,,,,,,,,,,,,,,,,,,
1769162112.91126,1769162112.912315,37.0,0.0,4310.128418,4279.230957,4323.205078,4324.615234,4279.615234,4277.820313,4292.94873,4280.128418,4290.0,4264.871582,4572.820313,4553.333496,4413.461426,4491.922852,,,,,,,,,,,,,,,,,,,,,,,,,,,,,,,,,,,,,,,,,,,,,,,,,,,,,,,,,,,,,,,,,,,,,,
1769162112.919068,1769162112.920224,38.0,0.0,4310.641113,4279.102539,4326.538574,4326.794922,4282.05127,4276.538574,4290.0,4278.717773,4287.563965,4262.179688,4567.94873,4555.512695,4412.820313,4496.666504,,,,,,,,,,,,,,,,,,,,,,,,,,,,,,,,,,,,,,,,,,,,,,,,,,,,,,,,,,,,,,,,,,,,,,
1769162112.926877,1769162112.928032,39.0,0.0,4313.333496,4280.256348,4328.589844,4327.436035,4281.922852,4273.333496,4290.384766,4285.512695,4288.461426,4275.384766,4578.333496,4568.077148,4413.077148,4507.179688,,,,,,,,,,,,,,,,,,,,,,,,,,,,,,,,,,,,,,,,,,,,,,,,,,,,,,,,,,,,,,,,,,,,,,
1769162112.934685,1769162112.935641,40.0,0.0,4309.615234,4278.589844,4326.025879,4323.461426,4280.384766,4277.436035,4295.256348,4290.641113,4290.512695,4280.512695,4582.563965,4570.256348,4413.461426,4508.205078,,,,,,,,,,,,,,,,,,,,,,,,,,,,,,,,,,,,,,,,,,,,,,,,,,,,,,,,,,,,,,,,,,,,,,
1769162112.942494,1769162112.943449,41.0,0.0,4303.461426,4272.94873,4323.333496,4321.794922,4282.05127,4281.025879,4295.769043,4289.871582,4290.512695,4276.794922,4574.615234,4564.230957,4413.461426,4503.461426,,,,,,,,,,,,,,,,,,,,,,,,,,,,,,,,,,,,,,,,,,,,,,,,,,,,,,,,,,,,,,,,,,,,,,
1769162112.950302,1769162112.951158,42.0,0.0,4305.512695,4273.077148,4325.512695,4325.641113,4283.077148,4281.410156,4294.102539,4289.487305,4290.641113,4277.436035,4574.871582,4563.717773,4413.846191,4504.230957,,,,,,,,,,,,,,,,,,,,,,,,,,,,,,,,,,,,,,,,,,,,,,,,,,,,,,,,,,,,,,,,,,,,,,
1769162112.958111,1769162112.958966,43.0,0.0,4308.846191,4277.820313,4328.717773,4327.05127,4282.692383,4280.897461,4294.102539,4293.077148,4290.769043,4278.717773,4579.743652,4567.820313,4413.205078,4506.025879,,,,,,,,,,,,,,,,,,,,,,,,,,,,,,,,,,,,,,,,,,,,,,,,,,,,,,,,,,,,,,,,,,,,,,
1769162112.965919,1769162112.966575,44.0,0.0,4305.641113,4279.487305,4328.974121,4325.512695,4281.794922,4278.589844,4294.102539,4296.794922,4293.333496,4277.820313,4584.743652,4571.153809,4413.461426,4507.94873,,,,,,,,,,,,,,,,,,,,,,,,,,,,,,,,,,,,,,,,,,,,,,,,,,,,,,,,,,,,,,,,,,,,,,
1769162112.973728,1769162112.974383,45.0,0.0,4303.461426,4277.05127,4325.769043,4324.871582,4280.897461,4275.384766,4293.461426,4295.0,4294.358887,4276.666504,4585.641113,4569.102539,4412.307617,4508.846191,,,,,,,,,,,,,,,,,,,,,,,,,,,,,,,,,,,,,,,,,,,,,,,,,,,,,,,,,,,,,,,,,,,,,,
1769162112.981536,1769162112.982292,46.0,0.0,4307.05127,4275.384766,4323.461426,4323.077148,4280.0,4276.922852,4293.974121,4293.077148,4291.153809,4277.820313,4578.589844,4562.563965,4407.94873,4501.794922,0.41432,0.495548,0.704075,0.31023,0.240484,0.317631,0.337288,0.311475,0.223797,0.137168,0.643319,0.421294,0.358052,0.228574,0.186942,0.338835,0.076029,0.129179,0.073845,0.121357,0.099795,0.1738,0.061379,0.037855,0.04036,0.230848,0.322059,0.163789,0.099859,0.084062,0.139196,0.224616,0.189064,0.189387,0.097283,0.460381,0.271835,0.120449,0.101906,0.082266,0.305924,0.256381,0.089391,0.058731,0.070369,0.255105,0.265211,0.142508,0.111665,0.210505,0.334299,0.70554,0.372059,0.134148,0.144359,0.858345,0.513435,0.421506,0.201901,0.255151,0.350689,0.417189,0.310091,0.180287,0.141537,0.976302,1.206724,0.781885,0.208951,0.304136
1769162112.989344,1769162112.9901,47.0,0.0,4305.0,4273.717773,4325.512695,4320.641113,4279.615234,4275.384766,4295.0,4293.461426,4288.974121,4278.589844,4571.025879,4557.692383,4400.256348,4492.692383,,,,,,,,,,,,,,,,,,,,,,,,,,,,,,,,,,,,,,,,,,,,,,,,,,,,,,,,,,,,,,,,,,,,,,
1769162112.997153,1769162112.997709,48.0,0.0,4294.871582,4267.179688,4325.512695,4316.025879,4279.102539,4268.333496,4294.230957,4292.820313,4291.410156,4267.436035,4571.922852,4556.282227,4394.871582,4489.743652,,,,,,,,,,,,,,,,,,,,,,,,,,,,,,,,,,,,,,,,,,,,,,,,,,,,,,,,,,,,,,,,,,,,,,
1769162113.004961,1769162113.005517,49.0,0.0,4293.974121,4263.461426,4323.974121,4313.205078,4275.769043,4265.769043,4293.333496,4293.205078,4294.230957,4267.436035,4578.974121,4561.025879,4402.820313,4496.666504,,,,,,,,,,,,,,,,,,,,,,,,,,,,,,,,,,,,,,,,,,,,,,,,,,,,,,,,,,,,,,,,,,,,,,
1769162113.01277,1769162113.013226,50.0,0.0,4302.436035,4271.410156,4325.769043,4318.974121,4272.692383,4265.512695,4293.333496,4295.128418,4295.897461,4289.871582,4587.692383,4571.922852,4415.769043,4508.846191,,,,,,,,,,,,,,,,,,,,,,,,,,,,,,,,,,,,,,,,,,,,,,,,,,,,,,,,,,,,,,,,,,,,,,
1769162113.020578,1769162113.021034,51.0,0.0,4299.871582,4278.974121,4327.94873,4323.205078,4273.077148,4267.05127,4294.743652,4295.897461,4294.358887,4293.205078,4591.153809,4569.615234,4416.922852,4510.641113,,,,,,,,,,,,,,,,,,,,,,,,,,,,,,,,,,,,,,,,,,,,,,,,,,,,,,,,,,,,,,,,,,,,,,
1769162113.028387,1769162113.028643,52.0,0.0,4292.436035,4280.256348,4324.871582,4322.179688,4276.538574,4271.410156,4293.846191,4293.333496,4286.282227,4275.641113,4579.743652,4556.153809,4410.769043,4500.512695,,,,,,,,,,,,,,,,,,,,,,,,,,,,,,,,,,,,,,,,,,,,,,,,,,,,,,,,,,,,,,,,,,,,,,
1769162113.036195,1769162113.036451,53.0,0.0,4300.512695,4283.717773,4325.641113,4324.230957,4279.230957,4275.384766,4294.230957,4292.436035,4281.410156,4273.333496,4570.897461,4553.461426,4410.256348,4497.94873,,,,,,,,,,,,,,,,,,,,,,,,,,,,,,,,,,,,,,,,,,,,,,,,,,,,,,,,,,,,,,,,,,,,,,
1769162113.044004,1769162113.044359,54.0,0.0,4312.820313,4289.102539,4334.487305,4329.358887,4281.794922,4277.179688,4292.436035,4293.205078,4286.410156,4281.282227,4572.94873,4559.102539,4412.692383,4504.358887,,,,,,,,,,,,,,,,,,,,,,,,,,,,,,,,,,,,,,,,,,,,,,,,,,,,,,,,,,,,,,,,,,,,,,
1769162113.051812,1769162113.052168,55.0,0.0,4311.538574,4289.102539,4340.256348,4334.102539,4284.358887,4276.538574,4286.282227,4291.794922,4288.717773,4276.410156,4572.94873,4561.794922,4411.538574,4504.230957,,,,,,,,,,,,,,,,,,,,,,,,,,,,,,,,,,,,,,,,,,,,,,,,,,,,,,,,,,,,,,,,,,,,,,
1769162113.059621,1769162113.060176,56.0,0.0,4305.256348,4287.307617,4338.846191,4336.538574,4284.230957,4275.128418,4288.974121,4290.128418,4281.410156,4268.077148,4573.205078,4563.717773,4409.743652,4502.94873,,,,,,,,,,,,,,,,,,,,,,,,,,,,,,,,,,,,,,,,,,,,,,,,,,,,,,,,,,,,,,,,,,,,,,
1769162113.067429,1769162113.067985,57.0,0.0,4307.94873,4290.384766,4338.589844,4336.153809,4281.025879,4276.153809,4293.333496,4291.410156,4279.871582,4269.102539,4578.974121,4568.205078,4410.256348,4505.512695,,,,,,,,,,,,,,,,,,,,,,,,,,,,,,,,,,,,,,,,,,,,,,,,,,,,,,,,,,,,,,,,,,,,,,
1769162113.075237,1769162113.075893,58.0,0.0,4313.589844,4293.589844,4342.94873,4337.94873,4279.487305,4277.179688,4290.769043,4294.102539,4288.077148,4274.743652,4583.846191,4571.025879,4413.846191,4506.538574,,,,,,,,,,,,,,,,,,,,,,,,,,,,,,,,,,,,,,,,,,,,,,,,,,,,,,,,,,,,,,,,,,,,,,
1769162113.083046,1769162113.083701,59.0,0.0,4314.102539,4294.487305,4340.641113,4337.820313,4280.641113,4275.512695,4291.410156,4294.615234,4294.871582,4283.077148,4585.128418,4568.461426,4415.256348,4505.128418,,,,,,,,,,,,,,,,,,,,,,,,,,,,,,,,,,,,,,,,,,,,,,,,,,,,,,,,,,,,,,,,,,,,,,
1769162113.090854,1769162113.09171,60.0,0.0,4311.922852,4294.487305,4331.025879,4330.0,4281.538574,4279.487305,4295.897461,4295.128418,4293.717773,4279.230957,4584.743652,4565.256348,4415.0,4504.871582,,,,,,,,,,,,,,,,,,,,,,,,,,,,,,,,,,,,,,,,,,,,,,,,,,,,,,,,,,,,,,,,,,,,,,
1769162113.098663,1769162113.099518,61.0,0.0,4310.384766,4290.641113,4330.512695,4326.282227,4281.410156,4283.846191,4295.641113,4296.922852,4286.794922,4266.282227,4580.512695,4569.230957,4413.589844,4508.333496,,,,,,,,,,,,,,,,,,,,,,,,,,,,,,,,,,,,,,,,,,,,,,,,,,,,,,,,,,,,,,,,,,,,,,
1769162113.106471,1769162113.107227,62.0,0.0,4309.358887,4286.153809,4336.538574,4329.102539,4280.384766,4279.230957,4293.717773,4296.025879,4284.102539,4267.692383,4578.077148,4570.897461,4413.717773,4510.384766,0.42624,0.393083,0.620639,0.303075,0.207835,0.401265,0.317107,0.265005,0.193763,0.125588,0.621172,0.395093,0.355179,0.238837,0.168222,0.37345,0.067171,0.12905,0.07073,0.107332,0.128415,0.209597,0.05567,0.034249,0.046264,0.259629,0.342915,0.155666,0.112695,0.084934,0.10255,0.232885,0.218887,0.198023,0.106167,0.460467,0.365948,0.120245,0.089681,0.078862,0.288435,0.324603,0.110345,0.062146,0.068761,0.231299,0.260246,0.135718,0.115885,0.22741,0.34418,0.625309,0.308066,0.164636,0.14019,0.940657,0.40559,0.392727,0.218213,0.238541,0.393436,0.336745,0.276951,0.221069,0.162172,1.178579,0.944904,0.731636,0.248875,0.26939
1769162113.11428,1769162113.115035,63.0,0.0,4309.358887,4284.487305,4335.128418,4328.717773,4277.563965,4275.512695,4294.615234,4292.692383,4281.153809,4273.974121,4576.538574,4560.384766,4412.94873,4501.410156,,,,,,,,,,,,,,,,,,,,,,,,,,,,,,,,,,,,,,,,,,,,,,,,,,,,,,,,,,,,,,,,,,,,,,
1769162113.122088,1769162113.122844,64.0,0.0,4310.512695,4283.846191,4329.743652,4326.282227,4276.153809,4279.358887,4295.128418,4292.05127,4279.102539,4268.333496,4570.512695,4553.205078,4406.666504,4489.743652,,,,,,,,,,,,,,,,,,,,,,,,,,,,,,,,,,,,,,,,,,,,,,,,,,,,,,,,,,,,,,,,,,,,,,
1769162113.129897,1769162113.130652,65.0,0.0,4310.384766,4281.282227,4326.666504,4326.025879,4276.666504,4279.487305,4291.282227,4292.179688,4284.358887,4262.820313,4567.820313,4554.230957,4404.743652,4492.436035,,,,,,,,,,,,,,,,,,,,,,,,,,,,,,,,,,,,,,,,,,,,,,,,,,,,,,,,,,,,,,,,,,,,,,
1769162113.137705,1769162113.138361,66.0,0.0,4306.794922,4280.897461,4324.230957,4324.871582,4274.871582,4273.974121,4284.230957,4285.256348,4285.256348,4266.538574,4568.717773,4553.461426,4409.743652,4496.153809,,,,,,,,,,,,,,,,,,,,,,,,,,,,,,,,,,,,,,,,,,,,,,,,,,,,,,,,,,,,,,,,,,,,,,
1769162113.145513,1769162113.146169,67.0,0.0,4306.282227,4284.743652,4326.794922,4326.025879,4273.846191,4273.846191,4281.153809,4278.589844,4277.179688,4271.538574,4568.974121,4552.563965,4413.461426,4491.153809,,,,,,,,,,,,,,,,,,,,,,,,,,,,,,,,,,,,,,,,,,,,,,,,,,,,,,,,,,,,,,,,,,,,,,
1769162113.153322,1769162113.154177,68.0,0.0,4312.05127,4289.743652,4338.077148,4334.102539,4276.410156,4274.615234,4281.922852,4282.563965,4276.794922,4276.025879,4571.922852,4556.538574,4413.077148,4497.179688,,,,,,,,,,,,,,,,,,,,,,,,,,,,,,,,,,,,,,,,,,,,,,,,,,,,,,,,,,,,,,,,,,,,,,
1769162113.16113,1769162113.161986,69.0,0.0,4314.871582,4287.692383,4343.077148,4336.025879,4270.897461,4270.641113,4284.615234,4291.666504,4283.205078,4273.461426,4573.589844,4558.974121,4412.307617,4507.179688,,,,,,,,,,,,,,,,,,,,,,,,,,,,,,,,,,,,,,,,,,,,,,,,,,,,,,,,,,,,,,,,,,,,,,
1769162113.168939,1769162113.169694,70.0,0.0,4310.256348,4279.102539,4334.871582,4327.692383,4265.0,4273.461426,4291.538574,4294.615234,4279.358887,4263.205078,4570.128418,4557.05127,4411.666504,4500.384766,,,,,,,,,,,,,,,,,,,,,,,,,,,,,,,,,,,,,,,,,,,,,,,,,,,,,,,,,,,,,,,,,,,,,,
1769162113.176747,1769162113.177503,71.0,0.0,4304.743652,4277.563965,4326.153809,4324.487305,4271.025879,4280.384766,4295.0,4295.128418,4275.512695,4263.589844,4570.128418,4556.025879,4411.538574,4490.384766,,,,,,,,,,,,,,,,,,,,,,,,,,,,,,,,,,,,,,,,,,,,,,,,,,,,,,,,,,,,,,,,,,,,,,
1769162113.184556,1769162113.185511,72.0,0.0,4302.692383,4280.384766,4325.897461,4327.179688,4274.358887,4279.743652,4293.333496,4297.563965,4278.461426,4266.410156,4568.974121,4553.589844,4406.794922,4491.410156,,,,,,,,,,,,,,,,,,,,,,,,,,,,,,,,,,,,,,,,,,,,,,,,,,,,,,,,,,,,,,,,,,,,,,
1769162113.192364,1769162113.193319,73.0,0.0,4302.820313,4279.487305,4330.384766,4324.230957,4269.871582,4278.589844,4292.820313,4296.538574,4278.333496,4265.0,4566.153809,4551.153809,4398.717773,4493.077148,,,,,,,,,,,,,,,,,,,,,,,,,,,,,,,,,,,,,,,,,,,,,,,,,,,,,,,,,,,,,,,,,,,,,,
1769162113.200173,1769162113.201028,74.0,0.0,4305.897461,4279.358887,4333.077148,4321.794922,4272.179688,4279.230957,4289.871582,4294.487305,4278.461426,4263.077148,4568.333496,4554.358887,4403.717773,4495.128418,,,,,,,,,,,,,,,,,,,,,,,,,,,,,,,,,,,,,,,,,,,,,,,,,,,,,,,,,,,,,,,,,,,,,,
1769162113.207981,1769162113.208836,75.0,0.0,4308.589844,4279.230957,4333.461426,4323.846191,4276.666504,4276.410156,4288.077148,4295.128418,4279.102539,4258.077148,4568.461426,4556.922852,4411.666504,4500.512695,,,,,,,,,,,,,,,,,,,,,,,,,,,,,,,,,,,,,,,,,,,,,,,,,,,,,,,,,,,,,,,,,,,,,,
1769162113.215789,1769162113.216445,76.0,0.0,4311.153809,4281.794922,4335.769043,4325.384766,4273.205078,4278.333496,4295.641113,4296.025879,4277.94873,4261.922852,4566.025879,4556.538574,4412.05127,4503.589844,,,,,,,,,,,,,,,,,,,,,,,,,,,,,,,,,,,,,,,,,,,,,,,,,,,,,,,,,,,,,,,,,,,,,,
1769162113.223598,1769162113.224253,77.0,0.0,4316.794922,4290.256348,4338.974121,4330.0,4274.358887,4277.820313,4294.743652,4294.871582,4279.230957,4273.333496,4568.846191,4559.102539,4412.820313,4505.641113,,,,,,,,,,,,,,,,,,,,,,,,,,,,,,,,,,,,,,,,,,,,,,,,,,,,,,,,,,,,,,,,,,,,,,
1769162113.231407,1769162113.231962,78.0,0.0,4323.077148,4296.410156,4341.025879,4335.897461,4280.384766,4269.230957,4281.666504,4294.102539,4280.384766,4275.769043,4571.153809,4565.0,4413.717773,4505.769043,0.5144,0.304838,0.512275,0.320554,0.178999,0.533576,0.30842,0.212151,0.175949,0.114721,0.63408,0.350749,0.342472,0.253733,0.143614,0.393442,0.065049,0.127256,0.075267,0.096009,0.163018,0.236823,0.056652,0.034776,0.051593,0.299062,0.354824,0.152579,0.127519,0.087269,0.079451,0.251029,0.234305,0.19387,0.113662,0.459025,0.463831,0.136184,0.088148,0.077197,0.308698,0.388118,0.136213,0.068822,0.068567,0.213827,0.267438,0.13079,0.1265,0.259272,0.370046,0.544394,0.235671,0.19987,0.139681,1.06128,0.378218,0.349653,0.241284,0.215417,0.457697,0.284831,0.23853,0.272852,0.193733,1.396834,0.727143,0.653624,0.320771,0.242348
1769162113.239215,1769162113.23977,79.0,0.0,4326.153809,4295.897461,4346.282227,4339.615234,4280.769043,4265.128418,4278.846191,4294.615234,4278.846191,4275.512695,4571.922852,4569.358887,4415.897461,4510.0,,,,,,,,,,,,,,,,,,,,,,,,,,,,,,,,,,,,,,,,,,,,,,,,,,,,,,,,,,,,,,,,,,,,,,
1769162113.247023,1769162113.247779,80.0,0.0,4327.94873,4294.230957,4350.769043,4340.384766,4279.487305,4271.153809,4288.717773,4294.230957,4280.384766,4280.128418,4582.05127,4572.820313,4423.717773,4522.307617,,,,,,,,,,,,,,,,,,,,,,,,,,,,,,,,,,,,,,,,,,,,,,,,,,,,,,,,,,,,,,,,,,,,,,
1769162113.254832,1769162113.255587,81.0,0.0,4326.538574,4296.025879,4345.769043,4335.512695,4281.666504,4277.436035,4291.025879,4293.974121,4283.333496,4281.025879,4588.846191,4573.717773,4428.974121,4523.846191,,,,,,,,,,,,,,,,,,,,,,,,,,,,,,,,,,,,,,,,,,,,,,,,,,,,,,,,,,,,,,,,,,,,,,
1769162113.26264,1769162113.263495,82.0,0.0,4323.846191,4293.846191,4340.0,4328.461426,4282.436035,4276.538574,4286.410156,4294.102539,4280.512695,4275.0,4577.05127,4569.487305,4421.410156,4510.128418,,,,,,,,,,,,,,,,,,,,,,,,,,,,,,,,,,,,,,,,,,,,,,,,,,,,,,,,,,,,,,,,,,,,,,
1769162113.270449,1769162113.271304,83.0,0.0,4321.410156,4284.487305,4340.897461,4326.153809,4276.538574,4274.487305,4286.153809,4293.974121,4277.820313,4273.974121,4568.589844,4566.410156,4414.230957,4502.563965,,,,,,,,,,,,,,,,,,,,,,,,,,,,,,,,,,,,,,,,,,,,,,,,,,,,,,,,,,,,,,,,,,,,,,
1769162113.278257,1769162113.279312,84.0,0.0,4318.077148,4279.358887,4340.256348,4325.897461,4273.589844,4276.282227,4287.94873,4294.102539,4282.307617,4274.358887,4577.436035,4569.230957,4420.256348,4508.717773,,,,,,,,,,,,,,,,,,,,,,,,,,,,,,,,,,,,,,,,,,,,,,,,,,,,,,,,,,,,,,,,,,,,,,
1769162113.286066,1769162113.287121,85.0,0.0,4316.282227,4279.871582,4338.461426,4323.717773,4276.025879,4279.487305,4287.820313,4297.05127,4284.230957,4266.666504,4582.307617,4571.666504,4427.820313,4515.0,,,,,,,,,,,,,,,,,,,,,,,,,,,,,,,,,,,,,,,,,,,,,,,,,,,,,,,,,,,,,,,,,,,,,,
1769162113.293874,1769162113.295029,86.0,0.0,4317.436035,4280.641113,4339.230957,4324.230957,4275.769043,4281.153809,4290.384766,4297.307617,4280.256348,4264.102539,4577.563965,4568.974121,4426.025879,4517.820313,,,,,,,,,,,,,,,,,,,,,,,,,,,,,,,,,,,,,,,,,,,,,,,,,,,,,,,,,,,,,,,,,,,,,,
1769162113.301683,1769162113.302837,87.0,0.0,4320.256348,4284.230957,4338.461426,4326.794922,4273.077148,4281.794922,4291.666504,4286.666504,4279.102539,4276.282227,4579.102539,4567.692383,4424.487305,4519.615234,,,,,,,,,,,,,,,,,,,,,,,,,,,,,,,,,,,,,,,,,,,,,,,,,,,,,,,,,,,,,,,,,,,,,,
1769162113.309491,1769162113.310646,88.0,0.0,4323.974121,4288.589844,4339.615234,4327.05127,4273.846191,4276.025879,4283.333496,4279.871582,4280.897461,4282.692383,4585.641113,4572.05127,4432.179688,4523.846191,,,,,,,,,,,,,,,,,,,,,,,,,,,,,,,,,,,,,,,,,,,,,,,,,,,,,,,,,,,,,,,,,,,,,,
1769162113.317299,1769162113.318454,89.0,0.0,4326.410156,4287.94873,4343.205078,4326.922852,4276.410156,4269.487305,4278.333496,4284.615234,4281.410156,4276.153809,4585.256348,4573.846191,4433.461426,4525.897461,,,,,,,,,,,,,,,,,,,,,,,,,,,,,,,,,,,,,,,,,,,,,,,,,,,,,,,,,,,,,,,,,,,,,,
1769162113.325108,1769162113.326163,90.0,0.0,4322.179688,4288.846191,4342.94873,4327.436035,4277.436035,4274.743652,4285.769043,4284.487305,4280.769043,4274.615234,4578.846191,4569.743652,4422.563965,4518.461426,,,,,,,,,,,,,,,,,,,,,,,,,,,,,,,,,,,,,,,,,,,,,,,,,,,,,,,,,,,,,,,,,,,,,,
1769162113.332916,1769162113.333971,91.0,0.0,4320.897461,4291.922852,4341.153809,4327.436035,4277.692383,4279.743652,4287.307617,4279.871582,4280.897461,4278.077148,4577.436035,4568.077148,4421.794922,4515.256348,,,,,,,,,,,,,,,,,,,,,,,,,,,,,,,,,,,,,,,,,,,,,,,,,,,,,,,,,,,,,,,,,,,,,,
1769162113.340725,1769162113.34158,92.0,0.0,4326.025879,4289.615234,4341.538574,4326.922852,4278.589844,4277.179688,4287.179688,4285.128418,4281.410156,4275.512695,4586.538574,4572.563965,4430.769043,4525.256348,,,,,,,,,,,,,,,,,,,,,,,,,,,,,,,,,,,,,,,,,,,,,,,,,,,,,,,,,,,,,,,,,,,,,,
1769162113.348533,1769162113.349388,93.0,0.0,4326.025879,4287.563965,4340.384766,4329.487305,4280.256348,4278.717773,4294.230957,4289.487305,4281.153809,4275.512695,4585.897461,4568.589844,4429.487305,4524.102539,,,,,,,,,,,,,,,,,,,,,,,,,,,,,,,,,,,,,,,,,,,,,,,,,,,,,,,,,,,,,,,,,,,,,,
1769162113.356342,1769162113.357097,94.0,0.0,4324.871582,4290.384766,4339.230957,4334.871582,4279.615234,4280.256348,4290.384766,4287.820313,4280.769043,4277.94873,4574.487305,4556.666504,4422.563965,4509.487305,0.664748,0.240756,0.402755,0.349295,0.158886,0.682843,0.308177,0.166457,0.173298,0.106257,0.664862,0.301266,0.320937,0.263416,0.117763,0.387994,0.074955,0.121471,0.08481,0.089382,0.199721,0.250567,0.065392,0.038491,0.054896,0.341074,0.355556,0.15557,0.140691,0.091374,0.067254,0.269034,0.226177,0.178634,0.119115,0.431818,0.531729,0.158317,0.094904,0.077293,0.344286,0.418765,0.162292,0.076496,0.070252,0.213168,0.274369,0.130925,0.143393,0.297919,0.391875,0.466204,0.179562,0.236518,0.143141,1.147658,0.416394,0.312779,0.264865,0.194202,0.525593,0.257671,0.209701,0.32721,0.226825,1.561851,0.592638,0.574684,0.417728,0.228102
1769162113.36415,1769162113.364905,95.0,0.0,4326.666504,4293.333496,4341.666504,4334.102539,4278.077148,4275.256348,4278.205078,4290.641113,4281.153809,4270.128418,4573.974121,4556.153809,4420.897461,4504.615234,,,,,,,,,,,,,,,,,,,,,,,,,,,,,,,,,,,,,,,,,,,,,,,,,,,,,,,,,,,,,,,,,,,,,,
1769162113.371959,1769162113.372914,96.0,0.0,4327.692383,4295.769043,4342.563965,4329.487305,4279.487305,4274.102539,4279.615234,4287.563965,4280.256348,4260.128418,4579.743652,4566.153809,4420.897461,4510.384766,,,,,,,,,,,,,,,,,,,,,,,,,,,,,,,,,,,,,,,,,,,,,,,,,,,,,,,,,,,,,,,,,,,,,,
1769162113.379767,1769162113.380722,97.0,0.0,4325.512695,4295.0,4339.487305,4328.077148,4279.230957,4277.563965,4284.358887,4279.487305,4277.820313,4263.974121,4577.179688,4567.692383,4417.307617,4510.128418,,,,,,,,,,,,,,,,,,,,,,,,,,,,,,,,,,,,,,,,,,,,,,,,,,,,,,,,,,,,,,,,,,,,,,
1769162113.387576,1769162113.38863,98.0,0.0,4323.461426,4291.153809,4337.307617,4327.436035,4276.282227,4275.769043,4279.230957,4278.974121,4275.256348,4268.461426,4571.025879,4557.563965,4414.871582,4505.769043,,,,,,,,,,,,,,,,,,,,,,,,,,,,,,,,,,,,,,,,,,,,,,,,,,,,,,,,,,,,,,,,,,,,,,
1769162113.395384,1769162113.396439,99.0,0.0,4321.153809,4291.538574,4338.846191,4327.436035,4278.333496,4275.0,4280.256348,4284.487305,4276.922852,4267.05127,4572.94873,4552.692383,4419.487305,4505.256348,,,,,,,,,,,,,,,,,,,,,,,,,,,,,,,,,,,,,,,,,,,,,,,,,,,,,,,,,,,,,,,,,,,,,,
1769162113.403192,1769162113.404048,100.0,0.0,4318.846191,4293.333496,4340.897461,4329.102539,4282.94873,4280.769043,4292.307617,4289.871582,4284.358887,4273.589844,4582.307617,4559.743652,4427.692383,4506.025879,,,,,,,,,,,,,,,,,,,,,,,,,,,,,,,,,,,,,,,,,,,,,,,,,,,,,,,,,,,,,,,,,,,,,,
1769162113.411001,1769162113.411856,101.0,0.0,4320.128418,4291.666504,4341.666504,4327.820313,4282.820313,4284.487305,4295.256348,4296.538574,4288.077148,4281.153809,4587.436035,4569.102539,4429.358887,4507.307617,,,,,,,,,,,,,,,,,,,,,,,,,,,,,,,,,,,,,,,,,,,,,,,,,,,,,,,,,,,,,,,,,,,,,,
1769162113.418809,1769162113.419565,102.0,0.0,4319.871582,4290.0,4339.871582,4326.153809,4280.384766,4279.743652,4284.871582,4295.256348,4282.94873,4279.871582,4584.487305,4566.282227,4425.256348,4506.410156,,,,,,,,,,,,,,,,,,,,,,,,,,,,,,,,,,,,,,,,,,,,,,,,,,,,,,,,,,,,,,,,,,,,,,
1769162113.426618,1769162113.427373,103.0,0.0,4314.358887,4288.077148,4334.358887,4326.153809,4280.256348,4275.128418,4277.179688,4283.717773,4277.563965,4277.05127,4579.615234,4556.153809,4427.820313,4501.410156,,,,,,,,,,,,,,,,,,,,,,,,,,,,,,,,,,,,,,,,,,,,,,,,,,,,,,,,,,,,,,,,,,,,,,
1769162113.434426,1769162113.434982,104.0,0.0,4306.794922,4279.743652,4327.692383,4322.307617,4280.128418,4278.205078,4285.384766,4286.410156,4278.717773,4266.153809,4573.974121,4552.307617,4425.769043,4492.436035,,,,,,,,,,,,,,,,,,,,,,,,,,,,,,,,,,,,,,,,,,,,,,,,,,,,,,,,,,,,,,,,,,,,,,
1769162113.442235,1769162113.44279,105.0,0.0,4307.692383,4276.794922,4324.871582,4319.487305,4279.102539,4282.820313,4294.487305,4295.0,4280.897461,4256.025879,4569.871582,4553.717773,4416.153809,4489.871582,,,,,,,,,,,,,,,,,,,,,,,,,,,,,,,,,,,,,,,,,,,,,,,,,,,,,,,,,,,,,,,,,,,,,,
1769162113.450043,1769162113.450698,106.0,0.0,4317.307617,4289.102539,4330.641113,4324.615234,4279.615234,4279.871582,4286.922852,4289.615234,4280.256348,4269.230957,4578.205078,4557.307617,4420.897461,4500.384766,,,,,,,,,,,,,,,,,,,,,,,,,,,,,,,,,,,,,,,,,,,,,,,,,,,,,,,,,,,,,,,,,,,,,,
1769162113.457852,1769162113.458507,107.0,0.0,4321.922852,4297.563965,4336.922852,4328.974121,4279.487305,4278.077148,4282.307617,4283.333496,4279.743652,4283.717773,4583.077148,4558.461426,4429.743652,4509.871582,,,,,,,,,,,,,,,,,,,,,,,,,,,,,,,,,,,,,,,,,,,,,,,,,,,,,,,,,,,,,,,,,,,,,,
1769162113.46566,1769162113.466515,108.0,0.0,4316.025879,4291.538574,4332.307617,4325.0,4278.717773,4283.205078,4291.922852,4290.256348,4280.384766,4276.282227,4574.358887,4555.897461,4422.563965,4507.179688,,,,,,,,,,,,,,,,,,,,,,,,,,,,,,,,,,,,,,,,,,,,,,,,,,,,,,,,,,,,,,,,,,,,,,
1769162113.473468,1769162113.474324,109.0,0.0,4310.769043,4287.692383,4323.974121,4320.769043,4277.05127,4284.102539,4291.410156,4294.358887,4281.282227,4270.384766,4570.0,4554.871582,4417.179688,4502.179688,,,,,,,,,,,,,,,,,,,,,,,,,,,,,,,,,,,,,,,,,,,,,,,,,,,,,,,,,,,,,,,,,,,,,,
1769162113.481277,1769162113.482232,110.0,0.0,4315.0,4290.769043,4324.871582,4323.205078,4273.333496,4276.794922,4280.0,4288.589844,4281.538574,4273.461426,4572.436035,4556.410156,4423.846191,4504.743652,0.846361,0.208602,0.305128,0.372888,0.148516,0.827988,0.311862,0.135243,0.182044,0.100239,0.689597,0.264146,0.290263,0.262728,0.095431,0.376123,0.108224,0.112692,0.096473,0.087051,0.239513,0.249896,0.079625,0.044142,0.055234,0.37609,0.345716,0.162154,0.148837,0.096542,0.060708,0.284644,0.195293,0.157869,0.122089,0.374734,0.549727,0.176794,0.104945,0.078021,0.365953,0.404974,0.184,0.083445,0.074025,0.232448,0.272776,0.143012,0.163921,0.333452,0.392704,0.394519,0.158743,0.270095,0.147779,1.144508,0.483003,0.296126,0.28367,0.179574,0.581526,0.247942,0.202943,0.370643,0.249188,1.619159,0.542212,0.516649,0.517559,0.224134
1769162113.489085,1769162113.49004,111.0,0.0,4321.282227,4288.974121,4329.871582,4326.538574,4273.589844,4272.307617,4278.589844,4286.410156,4280.897461,4269.102539,4572.692383,4556.282227,4422.05127,4508.846191,,,,,,,,,,,,,,,,,,,,,,,,,,,,,,,,,,,,,,,,,,,,,,,,,,,,,,,,,,,,,,,,,,,,,,
1769162113.496894,1769162113.498049,112.0,0.0,4323.974121,4287.820313,4329.102539,4325.0,4276.922852,4273.205078,4281.282227,4285.897461,4277.820313,4265.0,4571.538574,4554.743652,4415.512695,4508.974121,,,,,,,,,,,,,,,,,,,,,,,,,,,,,,,,,,,,,,,,,,,,,,,,,,,,,,,,,,,,,,,,,,,,,,
1769162113.504702,1769162113.505857,113.0,0.0,4324.743652,4291.410156,4327.05127,4323.077148,4271.410156,4273.205078,4282.179688,4289.615234,4277.820313,4264.358887,4572.436035,4555.641113,4420.897461,4505.897461,,,,,,,,,,,,,,,,,,,,,,,,,,,,,,,,,,,,,,,,,,,,,,,,,,,,,,,,,,,,,,,,,,,,,,
1769162113.512511,1769162113.513566,114.0,0.0,4323.205078,4285.769043,4323.846191,4323.333496,4265.256348,4275.384766,4288.461426,4293.333496,4280.769043,4259.230957,4576.666504,4558.974121,4426.410156,4506.922852,,,,,,,,,,,,,,,,,,,,,,,,,,,,,,,,,,,,,,,,,,,,,,,,,,,,,,,,,,,,,,,,,,,,,,
1769162113.520319,1769162113.521374,115.0,0.0,4321.794922,4280.128418,4321.922852,4324.230957,4271.025879,4277.179688,4287.05127,4290.0,4281.153809,4265.897461,4581.922852,4564.743652,4429.358887,4518.205078,,,,,,,,,,,,,,,,,,,,,,,,,,,,,,,,,,,,,,,,,,,,,,,,,,,,,,,,,,,,,,,,,,,,,,
1769162113.528128,1769162113.528983,116.0,0.0,4323.461426,4287.692383,4326.025879,4325.769043,4275.128418,4278.717773,4283.974121,4289.743652,4280.512695,4277.436035,4582.179688,4567.692383,4428.333496,4522.820313,,,,,,,,,,,,,,,,,,,,,,,,,,,,,,,,,,,,,,,,,,,,,,,,,,,,,,,,,,,,,,,,,,,,,,
1769162113.535936,1769162113.536791,117.0,0.0,4328.333496,4294.358887,4328.205078,4326.794922,4273.846191,4286.282227,4294.615234,4294.102539,4280.897461,4269.743652,4580.128418,4563.077148,4418.717773,4511.410156,,,,,,,,,,,,,,,,,,,,,,,,,,,,,,,,,,,,,,,,,,,,,,,,,,,,,,,,,,,,,,,,,,,,,,
1769162113.543744,1769162113.5445,118.0,0.0,4325.512695,4294.102539,4325.641113,4325.256348,4276.666504,4288.717773,4295.769043,4298.205078,4285.769043,4263.205078,4582.94873,4561.538574,4417.563965,4505.384766,,,,,,,,,,,,,,,,,,,,,,,,,,,,,,,,,,,,,,,,,,,,,,,,,,,,,,,,,,,,,,,,,,,,,,
1769162113.551553,1769162113.552308,119.0,0.0,4315.512695,4293.333496,4324.615234,4325.0,4274.358887,4278.717773,4280.641113,4297.179688,4287.820313,4271.410156,4585.641113,4566.538574,4427.94873,4516.153809,,,,,,,,,,,,,,,,,,,,,,,,,,,,,,,,,,,,,,,,,,,,,,,,,,,,,,,,,,,,,,,,,,,,,,
1769162113.559361,1769162113.560316,120.0,0.0,4314.615234,4291.410156,4326.153809,4326.794922,4266.410156,4273.461426,4276.282227,4292.820313,4281.410156,4271.282227,4584.102539,4565.128418,4431.025879,4521.153809,,,,,,,,,,,,,,,,,,,,,,,,,,,,,,,,,,,,,,,,,,,,,,,,,,,,,,,,,,,,,,,,,,,,,,
1769162113.56717,1769162113.568125,121.0,0.0,4320.769043,4288.974121,4325.769043,4326.794922,4265.769043,4279.230957,4285.256348,4290.384766,4276.794922,4263.589844,4580.128418,4559.871582,4427.179688,4513.974121,,,,,,,,,,,,,,,,,,,,,,,,,,,,,,,,,,,,,,,,,,,,,,,,,,,,,,,,,,,,,,,,,,,,,,
1769162113.574978,1769162113.576033,122.0,0.0,4320.897461,4289.615234,4322.692383,4325.384766,4267.820313,4280.0,4287.307617,4286.153809,4276.794922,4265.128418,4572.05127,4551.025879,4426.153809,4506.538574,,,,,,,,,,,,,,,,,,,,,,,,,,,,,,,,,,,,,,,,,,,,,,,,,,,,,,,,,,,,,,,,,,,,,,
1769162113.582787,1769162113.583842,123.0,0.0,4317.692383,4289.743652,4319.743652,4324.743652,4268.077148,4275.897461,4280.384766,4280.641113,4275.512695,4263.589844,4566.025879,4540.769043,4424.743652,4502.94873,,,,,,,,,,,,,,,,,,,,,,,,,,,,,,,,,,,,,,,,,,,,,,,,,,,,,,,,,,,,,,,,,,,,,,
1769162113.590595,1769162113.59185,124.0,0.0,4317.307617,4286.025879,4322.436035,4325.769043,4270.128418,4275.128418,4278.846191,4285.0,4277.820313,4262.05127,4573.205078,4545.0,4423.333496,4505.512695,,,,,,,,,,,,,,,,,,,,,,,,,,,,,,,,,,,,,,,,,,,,,,,,,,,,,,,,,,,,,,,,,,,,,,
1769162113.598404,1769162113.599658,125.0,0.0,4313.205078,4280.256348,4326.153809,4325.384766,4268.717773,4277.307617,4289.743652,4294.102539,4282.563965,4269.102539,4579.358887,4557.307617,4423.461426,4506.025879,,,,,,,,,,,,,,,,,,,,,,,,,,,,,,,,,,,,,,,,,,,,,,,,,,,,,,,,,,,,,,,,,,,,,,
1769162113.606212,1769162113.607367,126.0,0.0,4309.102539,4280.256348,4323.077148,4323.717773,4263.589844,4280.641113,4294.102539,4291.153809,4280.384766,4270.769043,4573.589844,4554.358887,4423.077148,4502.94873,1.022012,0.210665,0.227051,0.378234,0.144827,0.953863,0.318574,0.125717,0.19473,0.095519,0.702677,0.254791,0.254251,0.254303,0.079957,0.380543,0.174879,0.107183,0.108067,0.086785,0.28529,0.238979,0.094721,0.050164,0.052714,0.396356,0.330253,0.168448,0.15074,0.101248,0.059857,0.302587,0.154287,0.140102,0.123015,0.301207,0.520083,0.189124,0.114455,0.078263,0.359889,0.353965,0.197931,0.088666,0.079394,0.265256,0.267092,0.180263,0.18477,0.358133,0.367208,0.334486,0.180992,0.296549,0.150604,1.048053,0.542748,0.303509,0.294331,0.171215,0.615962,0.247863,0.223562,0.391211,0.252184,1.546761,0.542654,0.494286,0.595781,0.223454
1769162113.61402,1769162113.615175,127.0,0.0,4318.461426,4290.512695,4322.94873,4325.512695,4263.846191,4279.871582,4285.128418,4286.794922,4280.769043,4267.05127,4571.666504,4549.743652,4427.820313,4505.384766,,,,,,,,,,,,,,,,,,,,,,,,,,,,,,,,,,,,,,,,,,,,,,,,,,,,,,,,,,,,,,,,,,,,,,
1769162113.621829,1769162113.622784,0.0,0.0,4325.512695,4295.256348,4327.820313,4327.94873,4265.256348,4276.666504,4283.846191,4291.666504,4283.846191,4266.922852,4574.615234,4552.692383,4426.922852,4504.615234,,,,,,,,,,,,,,,,,,,,,,,,,,,,,,,,,,,,,,,,,,,,,,,,,,,,,,,,,,,,,,,,,,,,,,
1769162113.629637,1769162113.630592,1.0,0.0,4316.025879,4288.589844,4325.897461,4326.666504,4262.820313,4275.769043,4288.205078,4290.512695,4280.512695,4265.384766,4570.641113,4545.0,4413.589844,4492.05127,,,,,,,,,,,,,,,,,,,,,,,,,,,,,,,,,,,,,,,,,,,,,,,,,,,,,,,,,,,,,,,,,,,,,,
1769162113.637446,1769162113.638501,2.0,0.0,4310.256348,4289.230957,4321.410156,4325.256348,4265.0,4277.94873,4282.820313,4281.794922,4277.94873,4263.461426,4568.333496,4537.307617,4411.666504,4489.358887,,,,,,,,,,,,,,,,,,,,,,,,,,,,,,,,,,,,,,,,,,,,,,,,,,,,,,,,,,,,,,,,,,,,,,
1769162113.645254,1769162113.646309,3.0,0.0,4320.128418,4296.153809,4323.974121,4327.05127,4271.922852,4278.974121,4278.974121,4277.436035,4278.461426,4263.077148,4572.05127,4543.205078,4424.871582,4502.05127,,,,,,,,,,,,,,,,,,,,,,,,,,,,,,,,,,,,,,,,,,,,,,,,,,,,,,,,,,,,,,,,,,,,,,
1769162113.653063,1769162113.654317,4.0,0.0,4326.538574,4295.641113,4330.641113,4327.94873,4273.846191,4275.0,4282.307617,4275.769043,4278.717773,4261.153809,4571.538574,4550.641113,4429.102539,4507.179688,,,,,,,,,,,,,,,,,,,,,,,,,,,,,,,,,,,,,,,,,,,,,,,,,,,,,,,,,,,,,,,,,,,,,,
1769162113.660871,1769162113.662126,5.0,0.0,4324.358887,4293.077148,4336.410156,4327.05127,4271.666504,4272.307617,4282.692383,4276.538574,4276.666504,4262.692383,4575.128418,4554.871582,4425.0,4505.0,,,,,,,,,,,,,,,,,,,,,,,,,,,,,,,,,,,,,,,,,,,,,,,,,,,,,,,,,,,,,,,,,,,,,,
1769162113.66868,1769162113.670034,6.0,0.0,4326.410156,4289.358887,4335.512695,4326.538574,4271.794922,4275.384766,4287.307617,4285.641113,4278.205078,4267.94873,4580.769043,4557.692383,4426.282227,4507.05127,,,,,,,,,,,,,,,,,,,,,,,,,,,,,,,,,,,,,,,,,,,,,,,,,,,,,,,,,,,,,,,,,,,,,,
1769162113.676488,1769162113.677843,7.0,0.0,4322.179688,4283.974121,4329.230957,4326.538574,4274.230957,4278.205078,4291.410156,4293.974121,4285.512695,4266.153809,4577.307617,4555.641113,4421.538574,4508.589844,,,,,,,,,,,,,,,,,,,,,,,,,,,,,,,,,,,,,,,,,,,,,,,,,,,,,,,,,,,,,,,,,,,,,,
1769162113.684297,1769162113.685451,8.0,0.0,4311.922852,4287.05127,4329.487305,4327.05127,4273.589844,4276.538574,4285.769043,4290.897461,4287.436035,4266.666504,4571.282227,4550.897461,4414.102539,4503.717773,,,,,,,,,,,,,,,,,,,,,,,,,,,,,,,,,,,,,,,,,,,,,,,,,,,,,,,,,,,,,,,,,,,,,,
1769162113.692105,1769162113.69326,9.0,0.0,4314.230957,4288.461426,4338.589844,4326.922852,4268.717773,4277.94873,4290.641113,4290.128418,4282.820313,4270.128418,4572.563965,4551.410156,4415.512695,4497.307617,,,,,,,,,,,,,,,,,,,,,,,,,,,,,,,,,,,,,,,,,,,,,,,,,,,,,,,,,,,,,,,,,,,,,,
1769162113.699914,1769162113.700968,10.0,0.0,4319.871582,4281.410156,4339.102539,4326.153809,4265.0,4282.307617,4296.794922,4292.563965,4280.512695,4261.410156,4573.846191,4554.102539,4415.897461,4499.358887,,,,,,,,,,,,,,,,,,,,,,,,,,,,,,,,,,,,,,,,,,,,,,,,,,,,,,,,,,,,,,,,,,,,,,
1769162113.707722,1769162113.708777,11.0,0.0,4315.0,4283.589844,4330.0,4325.897461,4266.922852,4281.538574,4284.358887,4285.128418,4280.0,4257.436035,4571.153809,4552.692383,4413.846191,4503.077148,,,,,,,,,,,,,,,,,,,,,,,,,,,,,,,,,,,,,,,,,,,,,,,,,,,,,,,,,,,,,,,,,,,,,,
1769162113.715531,1769162113.716385,12.0,0.0,4308.589844,4288.461426,4328.846191,4326.410156,4269.743652,4277.179688,4280.897461,4279.487305,4279.102539,4267.563965,4571.538574,4549.743652,4413.333496,4499.230957,,,,,,,,,,,,,,,,,,,,,,,,,,,,,,,,,,,,,,,,,,,,,,,,,,,,,,,,,,,,,,,,,,,,,,
1769162113.723339,1769162113.724194,13.0,0.0,4314.615234,4283.974121,4336.794922,4327.563965,4268.846191,4274.102539,4291.410156,4282.563965,4280.128418,4269.743652,4572.05127,4551.153809,4414.358887,4497.563965,,,,,,,,,,,,,,,,,,,,,,,,,,,,,,,,,,,,,,,,,,,,,,,,,,,,,,,,,,,,,,,,,,,,,,
1769162113.731147,1769162113.731902,14.0,0.0,4321.025879,4281.025879,4341.410156,4327.94873,4268.589844,4275.0,4288.077148,4281.666504,4280.897461,4263.974121,4572.307617,4553.974121,4417.307617,4506.025879,1.159774,0.240425,0.172367,0.360111,0.143329,1.051951,0.332935,0.144771,0.203439,0.091263,0.698947,0.275683,0.220784,0.245084,0.072069,0.416164,0.273277,0.111193,0.11737,0.085768,0.335468,0.224342,0.106231,0.05501,0.04845,0.396724,0.317516,0.175183,0.147169,0.103881,0.063169,0.325238,0.120288,0.133472,0.123972,0.246771,0.464153,0.20047,0.122244,0.078086,0.322892,0.283163,0.201945,0.09142,0.085017,0.300553,0.266287,0.252869,0.202968,0.36918,0.326474,0.292482,0.239024,0.313016,0.151085,0.917976,0.572207,0.330513,0.295715,0.166352,0.62757,0.251657,0.26408,0.383762,0.235502,1.393043,0.549838,0.508972,0.633727,0.220826
1769162113.738956,1769162113.739711,15.0,0.0,4313.846191,4282.05127,4335.384766,4326.666504,4270.128418,4277.05127,4281.794922,4280.0,4279.487305,4263.589844,4572.05127,4553.461426,4418.205078,4508.974121,,,,,,,,,,,,,,,,,,,,,,,,,,,,,,,,,,,,,,,,,,,,,,,,,,,,,,,,,,,,,,,,,,,,,,
1769162113.746764,1769162113.74732,16.0,0.0,4310.641113,4282.436035,4328.589844,4326.025879,4272.05127,4275.769043,4288.461426,4286.025879,4279.230957,4264.102539,4570.384766,4551.922852,4416.410156,4506.922852,,,,,,,,,,,,,,,,,,,,,,,,,,,,,,,,,,,,,,,,,,,,,,,,,,,,,,,,,,,,,,,,,,,,,,
1769162113.754573,1769162113.755128,17.0,0.0,4319.358887,4287.179688,4333.974121,4327.94873,4274.102539,4275.0,4290.769043,4291.538574,4278.717773,4264.230957,4577.179688,4551.538574,4418.461426,4511.538574,,,,,,,,,,,,,,,,,,,,,,,,,,,,,,,,,,,,,,,,,,,,,,,,,,,,,,,,,,,,,,,,,,,,,,
1769162113.762381,1769162113.762837,18.0,0.0,4319.615234,4292.307617,4339.743652,4329.102539,4270.641113,4279.871582,4290.128418,4287.820313,4276.538574,4267.436035,4581.794922,4553.077148,4423.205078,4514.487305,,,,,,,,,,,,,,,,,,,,,,,,,,,,,,,,,,,,,,,,,,,,,,,,,,,,,,,,,,,,,,,,,,,,,,
1769162113.77019,1769162113.770645,19.0,0.0,4308.974121,4288.974121,4331.282227,4326.538574,4263.717773,4282.05127,4292.820313,4280.769043,4273.717773,4261.153809,4575.641113,4554.102539,4420.897461,4511.538574,,,,,,,,,,,,,,,,,,,,,,,,,,,,,,,,,,,,,,,,,,,,,,,,,,,,,,,,,,,,,,,,,,,,,,
1769162113.777998,1769162113.778653,20.0,0.0,4307.563965,4283.333496,4322.436035,4325.641113,4262.820313,4276.153809,4289.615234,4281.282227,4275.256348,4257.05127,4575.897461,4552.94873,4416.922852,4510.512695,,,,,,,,,,,,,,,,,,,,,,,,,,,,,,,,,,,,,,,,,,,,,,,,,,,,,,,,,,,,,,,,,,,,,,
1769162113.785807,1769162113.786462,21.0,0.0,4312.05127,4281.282227,4326.538574,4327.692383,4265.128418,4272.307617,4287.692383,4290.128418,4281.538574,4268.846191,4581.922852,4552.307617,4416.025879,4509.102539,,,,,,,,,,,,,,,,,,,,,,,,,,,,,,,,,,,,,,,,,,,,,,,,,,,,,,,,,,,,,,,,,,,,,,
1769162113.793615,1769162113.79437,22.0,0.0,4314.102539,4282.05127,4329.102539,4327.307617,4263.461426,4275.384766,4292.692383,4294.487305,4283.589844,4272.307617,4575.897461,4552.94873,4414.230957,4505.128418,,,,,,,,,,,,,,,,,,,,,,,,,,,,,,,,,,,,,,,,,,,,,,,,,,,,,,,,,,,,,,,,,,,,,,
1769162113.801423,1769162113.802178,23.0,0.0,4310.512695,4281.922852,4326.666504,4324.487305,4262.94873,4277.820313,4293.846191,4294.358887,4280.641113,4262.563965,4567.179688,4549.358887,4410.897461,4504.871582,,,,,,,,,,,,,,,,,,,,,,,,,,,,,,,,,,,,,,,,,,,,,,,,,,,,,,,,,,,,,,,,,,,,,,
1769162113.809232,1769162113.809787,24.0,0.0,4301.410156,4280.384766,4325.512695,4322.436035,4264.487305,4273.589844,4290.384766,4293.717773,4279.615234,4260.512695,4567.307617,4541.410156,4405.897461,4505.897461,,,,,,,,,,,,,,,,,,,,,,,,,,,,,,,,,,,,,,,,,,,,,,,,,,,,,,,,,,,,,,,,,,,,,,
1769162113.81704,1769162113.817596,25.0,0.0,4299.871582,4280.384766,4324.615234,4322.820313,4263.333496,4266.538574,4287.436035,4287.436035,4276.922852,4262.307617,4565.512695,4537.94873,4402.94873,4504.102539,,,,,,,,,,,,,,,,,,,,,,,,,,,,,,,,,,,,,,,,,,,,,,,,,,,,,,,,,,,,,,,,,,,,,,
1769162113.824849,1769162113.825304,26.0,0.0,4305.256348,4280.897461,4324.871582,4323.461426,4261.922852,4265.256348,4283.205078,4281.922852,4272.692383,4259.615234,4565.641113,4540.128418,4407.94873,4506.794922,,,,,,,,,,,,,,,,,,,,,,,,,,,,,,,,,,,,,,,,,,,,,,,,,,,,,,,,,,,,,,,,,,,,,,
1769162113.832657,1769162113.833113,27.0,0.0,4304.615234,4282.179688,4326.153809,4322.436035,4261.922852,4264.102539,4278.461426,4280.897461,4272.820313,4263.077148,4570.641113,4541.922852,4416.410156,4511.410156,,,,,,,,,,,,,,,,,,,,,,,,,,,,,,,,,,,,,,,,,,,,,,,,,,,,,,,,,,,,,,,,,,,,,,
1769162113.840466,1769162113.841121,28.0,0.0,4300.897461,4280.769043,4325.256348,4321.666504,4262.692383,4265.256348,4283.974121,4282.179688,4277.563965,4264.230957,4569.743652,4541.025879,4416.922852,4509.358887,,,,,,,,,,,,,,,,,,,,,,,,,,,,,,,,,,,,,,,,,,,,,,,,,,,,,,,,,,,,,,,,,,,,,,
1769162113.848274,1769162113.848929,29.0,0.0,4302.05127,4277.692383,4324.743652,4321.922852,4263.846191,4271.025879,4293.589844,4287.307617,4280.769043,4259.743652,4568.717773,4539.871582,4411.025879,4505.897461,,,,,,,,,,,,,,,,,,,,,,,,,,,,,,,,,,,,,,,,,,,,,,,,,,,,,,,,,,,,,,,,,,,,,,
1769162113.856083,1769162113.856838,30.0,0.0,4307.692383,4278.077148,4328.333496,4322.692383,4263.461426,4270.384766,4296.922852,4292.692383,4280.128418,4268.205078,4571.538574,4541.153809,4411.538574,4509.487305,1.24636,0.283906,0.143441,0.322368,0.140154,1.112184,0.357836,0.19554,0.203072,0.087538,0.672545,0.312067,0.197582,0.239871,0.069443,0.472349,0.383205,0.125654,0.12202,0.081557,0.381548,0.210462,0.109368,0.058104,0.044128,0.377303,0.313878,0.185659,0.139935,0.103778,0.06918,0.351894,0.112004,0.140778,0.128784,0.234791,0.407973,0.222336,0.127809,0.079183,0.263142,0.212703,0.197695,0.091213,0.089096,0.329337,0.276554,0.359266,0.216535,0.367292,0.29465,0.27286,0.31302,0.317279,0.150561,0.815548,0.55943,0.366088,0.288366,0.16235,0.624943,0.257341,0.311653,0.354046,0.206913,1.258589,0.53276,0.549267,0.624229,0.215286
1769162113.863891,1769162113.864646,31.0,0.0,4313.077148,4281.922852,4331.794922,4324.871582,4261.282227,4267.820313,4292.436035,4290.128418,4279.230957,4273.974121,4572.436035,4542.436035,4418.205078,4511.282227,,,,,,,,,,,,,,,,,,,,,,,,,,,,,,,,,,,,,,,,,,,,,,,,,,,,,,,,,,,,,,,,,,,,,,
1769162113.871699,1769162113.872654,32.0,0.0,4313.461426,4285.897461,4332.05127,4326.794922,4262.94873,4274.743652,4286.025879,4282.94873,4276.410156,4264.487305,4570.512695,4540.512695,4421.025879,4507.436035,,,,,,,,,,,,,,,,,,,,,,,,,,,,,,,,,,,,,,,,,,,,,,,,,,,,,,,,,,,,,,,,,,,,,,
1769162113.879508,1769162113.880463,33.0,0.0,4314.743652,4288.589844,4332.692383,4324.615234,4267.05127,4278.077148,4286.410156,4279.487305,4274.615234,4260.897461,4568.589844,4537.94873,4417.94873,4506.666504,,,,,,,,,,,,,,,,,,,,,,,,,,,,,,,,,,,,,,,,,,,,,,,,,,,,,,,,,,,,,,,,,,,,,,
1769162113.887316,1769162113.888171,34.0,0.0,4319.871582,4290.256348,4331.922852,4324.102539,4267.820313,4275.641113,4290.769043,4280.128418,4276.666504,4264.871582,4565.897461,4539.102539,4412.436035,4508.077148,,,,,,,,,,,,,,,,,,,,,,,,,,,,,,,,,,,,,,,,,,,,,,,,,,,,,,,,,,,,,,,,,,,,,,
1769162113.895125,1769162113.89598,35.0,0.0,4317.436035,4293.717773,4331.025879,4327.436035,4264.102539,4275.256348,4286.666504,4282.692383,4279.358887,4263.589844,4567.307617,4541.025879,4411.282227,4508.974121,,,,,,,,,,,,,,,,,,,,,,,,,,,,,,,,,,,,,,,,,,,,,,,,,,,,,,,,,,,,,,,,,,,,,,
1769162113.902933,1769162113.903988,36.0,0.0,4309.358887,4297.179688,4331.922852,4327.436035,4262.94873,4269.102539,4277.820313,4280.384766,4278.333496,4262.563965,4572.05127,4540.0,4419.102539,4508.077148,,,,,,,,,,,,,,,,,,,,,,,,,,,,,,,,,,,,,,,,,,,,,,,,,,,,,,,,,,,,,,,,,,,,,,
1769162113.910742,1769162113.911796,37.0,0.0,4310.128418,4296.410156,4332.436035,4326.410156,4271.153809,4264.871582,4280.897461,4279.743652,4277.179688,4261.025879,4573.077148,4538.077148,4426.538574,4508.717773,,,,,,,,,,,,,,,,,,,,,,,,,,,,,,,,,,,,,,,,,,,,,,,,,,,,,,,,,,,,,,,,,,,,,,
1769162113.91855,1769162113.919505,38.0,0.0,4321.282227,4298.974121,4336.794922,4332.692383,4275.641113,4270.0,4286.666504,4285.384766,4280.128418,4261.922852,4576.025879,4539.871582,4429.615234,4516.538574,,,,,,,,,,,,,,,,,,,,,,,,,,,,,,,,,,,,,,,,,,,,,,,,,,,,,,,,,,,,,,,,,,,,,,
1769162113.926359,1769162113.927313,39.0,0.0,4330.0,4304.871582,4343.974121,4338.205078,4269.487305,4268.717773,4282.307617,4287.436035,4281.794922,4274.615234,4586.282227,4547.05127,4431.153809,4525.128418,,,,,,,,,,,,,,,,,,,,,,,,,,,,,,,,,,,,,,,,,,,,,,,,,,,,,,,,,,,,,,,,,,,,,,
1769162113.934167,1769162113.934922,40.0,0.0,4329.102539,4303.589844,4338.589844,4333.077148,4265.384766,4265.128418,4282.05127,4287.563965,4279.358887,4279.615234,4588.589844,4553.717773,4431.666504,4526.922852,,,,,,,,,,,,,,,,,,,,,,,,,,,,,,,,,,,,,,,,,,,,,,,,,,,,,,,,,,,,,,,,,,,,,,
1769162113.941975,1769162113.94273,41.0,0.0,4319.871582,4297.94873,4327.436035,4327.179688,4267.94873,4267.436035,4288.333496,4288.717773,4278.846191,4269.358887,4576.794922,4551.282227,4432.179688,4521.410156,,,,,,,,,,,,,,,,,,,,,,,,,,,,,,,,,,,,,,,,,,,,,,,,,,,,,,,,,,,,,,,,,,,,,,
1769162113.949784,1769162113.950439,42.0,0.0,4311.666504,4295.769043,4324.358887,4326.538574,4267.307617,4267.563965,4291.153809,4284.358887,4279.487305,4262.94873,4569.102539,4542.436035,4423.205078,4512.307617,,,,,,,,,,,,,,,,,,,,,,,,,,,,,,,,,,,,,,,,,,,,,,,,,,,,,,,,,,,,,,,,,,,,,,
1769162113.957592,1769162113.958247,43.0,0.0,4311.538574,4295.512695,4322.820313,4325.641113,4264.487305,4267.94873,4288.077148,4278.333496,4275.897461,4262.307617,4568.333496,4536.410156,4410.256348,4504.743652,,,,,,,,,,,,,,,,,,,,,,,,,,,,,,,,,,,,,,,,,,,,,,,,,,,,,,,,,,,,,,,,,,,,,,
1769162113.965401,1769162113.966256,44.0,0.0,4314.871582,4296.153809,4319.871582,4325.897461,4266.282227,4274.102539,4290.128418,4282.94873,4275.128418,4262.820313,4572.563965,4538.333496,4416.666504,4508.333496,,,,,,,,,,,,,,,,,,,,,,,,,,,,,,,,,,,,,,,,,,,,,,,,,,,,,,,,,,,,,,,,,,,,,,
1769162113.973209,1769162113.974064,45.0,0.0,4310.897461,4297.179688,4321.153809,4327.820313,4268.205078,4278.717773,4294.230957,4288.846191,4280.128418,4264.230957,4577.436035,4540.384766,4430.769043,4513.974121,,,,,,,,,,,,,,,,,,,,,,,,,,,,,,,,,,,,,,,,,,,,,,,,,,,,,,,,,,,,,,,,,,,,,,
1769162113.981018,1769162113.981973,46.0,0.0,4308.333496,4296.666504,4322.94873,4327.307617,4267.179688,4276.153809,4287.436035,4284.102539,4279.358887,4263.333496,4576.666504,4538.717773,4428.717773,4513.205078,1.279319,0.326494,0.13766,0.275122,0.134552,1.121333,0.390304,0.268833,0.193065,0.085218,0.636862,0.340889,0.186845,0.237588,0.069593,0.51998,0.471676,0.14431,0.120422,0.073176,0.411954,0.200016,0.104491,0.059807,0.041234,0.340616,0.323185,0.204422,0.130493,0.101641,0.073616,0.379033,0.138283,0.157341,0.141244,0.258632,0.371003,0.268604,0.131489,0.083475,0.196385,0.157205,0.19032,0.088126,0.089745,0.337312,0.295608,0.483161,0.224343,0.354095,0.294349,0.279318,0.378277,0.308885,0.150355,0.807589,0.509457,0.399094,0.275415,0.15775,0.610414,0.268565,0.349032,0.316208,0.178402,1.226954,0.491938,0.593277,0.574774,0.209511
1769162113.988826,1769162113.989781,47.0,0.0,4316.410156,4296.922852,4325.769043,4327.436035,4265.897461,4270.641113,4279.358887,4276.538574,4273.333496,4264.743652,4576.282227,4542.94873,4424.102539,4518.717773,,,,,,,,,,,,,,,,,,,,,,,,,,,,,,,,,,,,,,,,,,,,,,,,,,,,,,,,,,,,,,,,,,,,,,
1769162113.996635,1769162113.997789,48.0,0.0,4317.563965,4296.666504,4325.128418,4328.846191,4265.641113,4267.05127,4282.307617,4282.436035,4274.102539,4264.743652,4581.922852,4550.897461,4428.974121,4523.333496,,,,,,,,,,,,,,,,,,,,,,,,,,,,,,,,,,,,,,,,,,,,,,,,,,,,,,,,,,,,,,,,,,,,,,
1769162114.004443,1769162114.005598,49.0,0.0,4310.769043,4294.358887,4314.102539,4325.512695,4265.897461,4269.102539,4287.692383,4292.05127,4279.615234,4262.563965,4583.589844,4545.641113,4430.128418,4514.615234,,,,,,,,,,,,,,,,,,,,,,,,,,,,,,,,,,,,,,,,,,,,,,,,,,,,,,,,,,,,,,,,,,,,,,
1769162114.012252,1769162114.013506,50.0,0.0,4309.487305,4294.358887,4308.077148,4323.717773,4265.384766,4271.666504,4283.589844,4285.512695,4280.641113,4269.487305,4572.563965,4534.487305,4428.461426,4505.128418,,,,,,,,,,,,,,,,,,,,,,,,,,,,,,,,,,,,,,,,,,,,,,,,,,,,,,,,,,,,,,,,,,,,,,
1769162114.02006,1769162114.021314,51.0,0.0,4311.282227,4298.205078,4315.769043,4327.692383,4266.538574,4271.666504,4279.358887,4280.641113,4279.358887,4280.512695,4570.641113,4535.769043,4427.692383,4506.922852,,,,,,,,,,,,,,,,,,,,,,,,,,,,,,,,,,,,,,,,,,,,,,,,,,,,,,,,,,,,,,,,,,,,,,
1769162114.027868,1769162114.028923,52.0,0.0,4312.179688,4298.461426,4318.589844,4328.461426,4266.794922,4272.692383,4282.820313,4287.179688,4279.230957,4277.307617,4577.820313,4541.410156,4427.436035,4511.025879,,,,,,,,,,,,,,,,,,,,,,,,,,,,,,,,,,,,,,,,,,,,,,,,,,,,,,,,,,,,,,,,,,,,,,
1769162114.035677,1769162114.036732,53.0,0.0,4317.436035,4296.025879,4312.94873,4324.871582,4265.256348,4275.0,4287.94873,4283.846191,4278.461426,4266.153809,4576.282227,4540.769043,4429.102539,4509.487305,,,,,,,,,,,,,,,,,,,,,,,,,,,,,,,,,,,,,,,,,,,,,,,,,,,,,,,,,,,,,,,,,,,,,,
1769162114.043485,1769162114.04464,54.0,0.0,4321.666504,4296.794922,4310.0,4327.05127,4271.538574,4277.179688,4289.615234,4275.769043,4277.820313,4265.384766,4576.794922,4538.846191,4428.717773,4508.589844,,,,,,,,,,,,,,,,,,,,,,,,,,,,,,,,,,,,,,,,,,,,,,,,,,,,,,,,,,,,,,,,,,,,,,
1769162114.051294,1769162114.052448,55.0,0.0,4319.743652,4296.666504,4309.743652,4329.230957,4274.743652,4277.436035,4288.461426,4285.384766,4279.358887,4272.05127,4583.846191,4540.384766,4428.589844,4510.384766,,,,,,,,,,,,,,,,,,,,,,,,,,,,,,,,,,,,,,,,,,,,,,,,,,,,,,,,,,,,,,,,,,,,,,
1769162114.059102,1769162114.060457,56.0,0.0,4322.436035,4297.05127,4311.794922,4325.897461,4267.563965,4277.94873,4289.615234,4291.025879,4279.743652,4274.743652,4586.666504,4547.820313,4430.128418,4517.307617,,,,,,,,,,,,,,,,,,,,,,,,,,,,,,,,,,,,,,,,,,,,,,,,,,,,,,,,,,,,,,,,,,,,,,
1769162114.066911,1769162114.068265,57.0,0.0,4328.205078,4302.179688,4314.871582,4330.897461,4269.615234,4280.256348,4288.846191,4282.307617,4277.563965,4269.615234,4585.769043,4550.256348,4430.897461,4525.0,,,,,,,,,,,,,,,,,,,,,,,,,,,,,,,,,,,,,,,,,,,,,,,,,,,,,,,,,,,,,,,,,,,,,,
1769162114.074719,1769162114.075974,58.0,0.0,4324.358887,4303.846191,4314.487305,4340.897461,4280.897461,4281.282227,4285.512695,4281.410156,4276.666504,4260.769043,4582.05127,4543.333496,4430.256348,4520.128418,,,,,,,,,,,,,,,,,,,,,,,,,,,,,,,,,,,,,,,,,,,,,,,,,,,,,,,,,,,,,,,,,,,,,,
1769162114.082528,1769162114.083782,59.0,0.0,4313.333496,4298.077148,4309.358887,4335.512695,4280.256348,4279.615234,4286.282227,4286.410156,4276.794922,4261.794922,4571.922852,4537.05127,4424.871582,4508.333496,,,,,,,,,,,,,,,,,,,,,,,,,,,,,,,,,,,,,,,,,,,,,,,,,,,,,,,,,,,,,,,,,,,,,,
1769162114.090336,1769162114.091391,60.0,0.0,4309.358887,4294.230957,4305.128418,4325.384766,4275.769043,4278.974121,4292.563965,4292.436035,4277.94873,4274.102539,4573.077148,4537.179688,4426.922852,4505.897461,,,,,,,,,,,,,,,,,,,,,,,,,,,,,,,,,,,,,,,,,,,,,,,,,,,,,,,,,,,,,,,,,,,,,,
1769162114.098144,1769162114.099199,61.0,0.0,4313.205078,4294.743652,4306.922852,4326.538574,4278.846191,4280.384766,4293.589844,4295.0,4278.461426,4278.589844,4583.461426,4538.846191,4438.205078,4510.384766,,,,,,,,,,,,,,,,,,,,,,,,,,,,,,,,,,,,,,,,,,,,,,,,,,,,,,,,,,,,,,,,,,,,,,
1769162114.105953,1769162114.107107,62.0,0.0,4311.794922,4294.871582,4310.128418,4327.307617,4278.077148,4278.077148,4286.538574,4285.641113,4275.384766,4266.666504,4576.410156,4539.487305,4436.666504,4509.487305,1.265948,0.352213,0.146934,0.232081,0.128653,1.071077,0.423329,0.344361,0.177512,0.085159,0.579334,0.340356,0.184574,0.233421,0.072148,0.53039,0.507674,0.157598,0.112687,0.061658,0.415741,0.192676,0.096831,0.060902,0.040396,0.29071,0.340046,0.228461,0.119716,0.098962,0.073703,0.402577,0.193351,0.174433,0.162349,0.303308,0.359433,0.34728,0.136794,0.091229,0.137965,0.121014,0.18605,0.083891,0.085771,0.327099,0.313991,0.596538,0.224686,0.331863,0.33201,0.307552,0.416299,0.28839,0.150686,0.900726,0.438095,0.421603,0.260958,0.152369,0.583801,0.293234,0.362593,0.282969,0.158904,1.326762,0.442449,0.615368,0.500885,0.205953
1769162114.113761,1769162114.114916,63.0,0.0,4311.153809,4295.384766,4308.333496,4323.333496,4276.666504,4276.538574,4281.794922,4276.794922,4273.461426,4263.077148,4567.436035,4538.333496,4425.769043,4507.05127,,,,,,,,,,,,,,,,,,,,,,,,,,,,,,,,,,,,,,,,,,,,,,,,,,,,,,,,,,,,,,,,,,,,,,
1769162114.12157,1769162114.122525,64.0,0.0,4318.461426,4294.743652,4305.769043,4323.846191,4279.102539,4276.282227,4280.769043,4285.641113,4276.666504,4270.897461,4576.410156,4538.205078,4430.384766,4507.692383,,,,,,,,,,,,,,,,,,,,,,,,,,,,,,,,,,,,,,,,,,,,,,,,,,,,,,,,,,,,,,,,,,,,,,
1769162114.129378,1769162114.130333,65.0,0.0,4319.102539,4296.025879,4307.692383,4326.153809,4278.333496,4276.153809,4281.922852,4291.025879,4281.538574,4271.025879,4582.94873,4542.307617,4439.615234,4509.102539,,,,,,,,,,,,,,,,,,,,,,,,,,,,,,,,,,,,,,,,,,,,,,,,,,,,,,,,,,,,,,,,,,,,,,
1769162114.137187,1769162114.138042,66.0,0.0,4311.666504,4295.897461,4306.538574,4326.282227,4278.589844,4280.128418,4289.230957,4283.077148,4279.102539,4263.589844,4575.897461,4540.0,4432.563965,4510.0,,,,,,,,,,,,,,,,,,,,,,,,,,,,,,,,,,,,,,,,,,,,,,,,,,,,,,,,,,,,,,,,,,,,,,
1769162114.144995,1769162114.14585,67.0,0.0,4312.563965,4293.846191,4303.461426,4326.153809,4281.025879,4282.436035,4291.410156,4283.333496,4272.436035,4260.769043,4567.94873,4532.05127,4422.692383,4506.153809,,,,,,,,,,,,,,,,,,,,,,,,,,,,,,,,,,,,,,,,,,,,,,,,,,,,,,,,,,,,,,,,,,,,,,
1769162114.152804,1769162114.153459,68.0,0.0,4319.230957,4299.871582,4305.769043,4326.666504,4280.769043,4279.871582,4283.589844,4288.589844,4273.461426,4266.025879,4571.282227,4535.128418,4427.05127,4506.538574,,,,,,,,,,,,,,,,,,,,,,,,,,,,,,,,,,,,,,,,,,,,,,,,,,,,,,,,,,,,,,,,,,,,,,
1769162114.160612,1769162114.161267,69.0,0.0,4322.692383,4305.384766,4310.384766,4328.205078,4278.974121,4279.230957,4280.128418,4290.641113,4280.897461,4266.538574,4582.307617,4546.153809,4435.384766,4518.461426,,,,,,,,,,,,,,,,,,,,,,,,,,,,,,,,,,,,,,,,,,,,,,,,,,,,,,,,,,,,,,,,,,,,,,
1769162114.168421,1769162114.168976,70.0,0.0,4327.820313,4300.256348,4311.282227,4327.563965,4276.922852,4277.692383,4283.974121,4292.692383,4277.820313,4261.794922,4587.563965,4547.94873,4432.94873,4522.05127,,,,,,,,,,,,,,,,,,,,,,,,,,,,,,,,,,,,,,,,,,,,,,,,,,,,,,,,,,,,,,,,,,,,,,
1769162114.176229,1769162114.176784,71.0,0.0,4329.615234,4294.743652,4304.358887,4326.153809,4274.230957,4274.102539,4285.641113,4294.871582,4268.205078,4263.461426,4580.0,4541.153809,4426.666504,4509.615234,,,,,,,,,,,,,,,,,,,,,,,,,,,,,,,,,,,,,,,,,,,,,,,,,,,,,,,,,,,,,,,,,,,,,,
1769162114.184038,1769162114.184792,72.0,0.0,4318.589844,4296.025879,4292.563965,4326.153809,4276.666504,4277.436035,4287.05127,4294.615234,4268.846191,4267.05127,4573.205078,4537.436035,4428.846191,4503.461426,,,,,,,,,,,,,,,,,,,,,,,,,,,,,,,,,,,,,,,,,,,,,,,,,,,,,,,,,,,,,,,,,,,,,,
1769162114.191846,1769162114.192601,73.0,0.0,4309.358887,4293.974121,4287.307617,4320.512695,4278.717773,4279.615234,4285.512695,4291.922852,4267.436035,4265.256348,4575.384766,4536.282227,4429.743652,4507.692383,,,,,,,,,,,,,,,,,,,,,,,,,,,,,,,,,,,,,,,,,,,,,,,,,,,,,,,,,,,,,,,,,,,,,,
1769162114.199654,1769162114.200509,74.0,0.0,4311.794922,4285.897461,4289.358887,4311.794922,4276.153809,4271.794922,4279.230957,4291.794922,4265.897461,4266.025879,4575.641113,4532.94873,4422.05127,4508.461426,,,,,,,,,,,,,,,,,,,,,,,,,,,,,,,,,,,,,,,,,,,,,,,,,,,,,,,,,,,,,,,,,,,,,,
1769162114.207463,1769162114.208318,75.0,0.0,4311.153809,4279.102539,4288.205078,4311.922852,4274.871582,4272.692383,4280.641113,4295.384766,4272.692383,4264.743652,4569.615234,4532.179688,4413.205078,4504.358887,,,,,,,,,,,,,,,,,,,,,,,,,,,,,,,,,,,,,,,,,,,,,,,,,,,,,,,,,,,,,,,,,,,,,,
1769162114.215271,1769162114.216326,76.0,0.0,4309.102539,4281.153809,4288.205078,4318.461426,4272.307617,4281.538574,4282.94873,4297.307617,4275.384766,4261.794922,4567.94873,4534.230957,4415.256348,4502.94873,,,,,,,,,,,,,,,,,,,,,,,,,,,,,,,,,,,,,,,,,,,,,,,,,,,,,,,,,,,,,,,,,,,,,,
1769162114.22308,1769162114.224134,77.0,0.0,4316.282227,4291.666504,4291.922852,4319.615234,4265.641113,4273.846191,4281.153809,4294.871582,4275.512695,4271.410156,4579.358887,4538.589844,4425.769043,4513.717773,,,,,,,,,,,,,,,,,,,,,,,,,,,,,,,,,,,,,,,,,,,,,,,,,,,,,,,,,,,,,,,,,,,,,,
1769162114.230888,1769162114.231843,78.0,0.0,4318.974121,4296.025879,4288.589844,4317.307617,4265.128418,4263.717773,4284.487305,4294.230957,4277.563965,4272.436035,4588.333496,4542.94873,4432.692383,4526.410156,1.223072,0.350258,0.163457,0.204436,0.126036,0.96839,0.443057,0.397624,0.160757,0.087259,0.531306,0.305968,0.185931,0.222205,0.078113,0.490939,0.478234,0.159164,0.099996,0.049637,0.395842,0.186541,0.092882,0.062107,0.041415,0.23475,0.358304,0.248194,0.108926,0.096759,0.07058,0.42075,0.259435,0.184007,0.188778,0.339631,0.363029,0.452135,0.148136,0.100896,0.09659,0.098612,0.187292,0.081406,0.077413,0.293189,0.318301,0.673569,0.218313,0.303856,0.393762,0.344991,0.427196,0.258717,0.150382,1.039423,0.363273,0.432953,0.248812,0.146492,0.541466,0.332434,0.353256,0.261139,0.150851,1.48151,0.402338,0.607727,0.421638,0.204439
1769162114.238697,1769162114.239651,79.0,0.0,4309.102539,4290.0,4283.461426,4317.307617,4267.179688,4271.410156,4285.769043,4295.384766,4275.897461,4262.436035,4581.025879,4540.512695,4428.589844,4518.461426,,,,,,,,,,,,,,,,,,,,,,,,,,,,,,,,,,,,,,,,,,,,,,,,,,,,,,,,,,,,,,,,,,,,,,
1769162114.246505,1769162114.247659,80.0,0.0,4309.743652,4286.922852,4287.179688,4320.641113,4265.384766,4274.230957,4280.0,4293.717773,4274.615234,4268.846191,4574.358887,4537.179688,4421.922852,4505.0,,,,,,,,,,,,,,,,,,,,,,,,,,,,,,,,,,,,,,,,,,,,,,,,,,,,,,,,,,,,,,,,,,,,,,
1769162114.254314,1769162114.255468,81.0,0.0,4321.666504,4291.410156,4289.487305,4321.538574,4269.102539,4266.410156,4280.0,4293.077148,4278.205078,4278.205078,4578.974121,4541.153809,4419.615234,4507.94873,,,,,,,,,,,,,,,,,,,,,,,,,,,,,,,,,,,,,,,,,,,,,,,,,,,,,,,,,,,,,,,,,,,,,,
1769162114.262122,1769162114.263176,82.0,0.0,4320.0,4293.974121,4282.307617,4319.102539,4276.153809,4272.436035,4289.743652,4294.230957,4277.563965,4275.897461,4583.205078,4543.974121,4420.769043,4511.538574,,,,,,,,,,,,,,,,,,,,,,,,,,,,,,,,,,,,,,,,,,,,,,,,,,,,,,,,,,,,,,,,,,,,,,
1769162114.26993,1769162114.270985,83.0,0.0,4310.128418,4286.666504,4278.205078,4318.846191,4276.282227,4282.692383,4294.358887,4294.743652,4277.179688,4275.0,4581.794922,4540.128418,4420.384766,4505.0,,,,,,,,,,,,,,,,,,,,,,,,,,,,,,,,,,,,,,,,,,,,,,,,,,,,,,,,,,,,,,,,,,,,,,
1769162114.277739,1769162114.278594,84.0,0.0,4308.077148,4280.384766,4279.615234,4320.256348,4274.743652,4278.974121,4291.794922,4293.717773,4279.871582,4273.974121,4581.025879,4539.102539,4419.615234,4503.589844,,,,,,,,,,,,,,,,,,,,,,,,,,,,,,,,,,,,,,,,,,,,,,,,,,,,,,,,,,,,,,,,,,,,,,
1769162114.285547,1769162114.286402,85.0,0.0,4309.358887,4283.846191,4278.846191,4320.641113,4272.820313,4278.974121,4288.846191,4293.077148,4278.461426,4268.077148,4578.461426,4541.153809,4416.282227,4507.563965,,,,,,,,,,,,,,,,,,,,,,,,,,,,,,,,,,,,,,,,,,,,,,,,,,,,,,,,,,,,,,,,,,,,,,
1769162114.293356,1769162114.294111,86.0,0.0,4313.717773,4290.897461,4278.333496,4323.461426,4269.871582,4280.384766,4285.641113,4294.615234,4278.974121,4271.666504,4580.256348,4540.769043,4412.05127,4508.077148,,,,,,,,,,,,,,,,,,,,,,,,,,,,,,,,,,,,,,,,,,,,,,,,,,,,,,,,,,,,,,,,,,,,,,
1769162114.301164,1769162114.301919,87.0,0.0,4322.05127,4295.769043,4284.358887,4329.102539,4271.538574,4271.410156,4281.410156,4291.666504,4281.153809,4283.205078,4587.05127,4541.410156,4419.487305,4508.333496,,,,,,,,,,,,,,,,,,,,,,,,,,,,,,,,,,,,,,,,,,,,,,,,,,,,,,,,,,,,,,,,,,,,,,
1769162114.308973,1769162114.309927,88.0,0.0,4321.666504,4295.384766,4288.205078,4326.666504,4275.641113,4269.358887,4279.487305,4287.307617,4280.128418,4279.230957,4584.743652,4541.538574,4426.410156,4509.230957,,,,,,,,,,,,,,,,,,,,,,,,,,,,,,,,,,,,,,,,,,,,,,,,,,,,,,,,,,,,,,,,,,,,,,
1769162114.316781,1769162114.317736,89.0,0.0,4312.563965,4290.384766,4280.769043,4319.871582,4275.128418,4278.589844,4283.461426,4287.820313,4279.487305,4264.230957,4578.974121,4539.615234,4419.487305,4508.974121,,,,,,,,,,,,,,,,,,,,,,,,,,,,,,,,,,,,,,,,,,,,,,,,,,,,,,,,,,,,,,,,,,,,,,
1769162114.32459,1769162114.325444,90.0,0.0,4310.897461,4288.974121,4278.333496,4322.94873,4273.333496,4282.820313,4287.436035,4290.128418,4279.230957,4267.307617,4580.256348,4539.358887,4415.641113,4510.128418,,,,,,,,,,,,,,,,,,,,,,,,,,,,,,,,,,,,,,,,,,,,,,,,,,,,,,,,,,,,,,,,,,,,,,
1769162114.332398,1769162114.333253,91.0,0.0,4312.692383,4288.077148,4284.615234,4326.153809,4273.974121,4280.769043,4289.230957,4292.179688,4279.358887,4278.717773,4579.743652,4538.205078,4416.794922,4509.230957,,,,,,,,,,,,,,,,,,,,,,,,,,,,,,,,,,,,,,,,,,,,,,,,,,,,,,,,,,,,,,,,,,,,,,
1769162114.340207,1769162114.340861,92.0,0.0,4309.102539,4281.153809,4283.846191,4321.025879,4273.974121,4279.102539,4287.563965,4286.410156,4277.94873,4271.922852,4572.05127,4534.615234,4409.871582,4503.205078,,,,,,,,,,,,,,,,,,,,,,,,,,,,,,,,,,,,,,,,,,,,,,,,,,,,,,,,,,,,,,,,,,,,,,
1769162114.348015,1769162114.34867,93.0,0.0,4308.846191,4279.487305,4278.333496,4321.666504,4275.384766,4275.641113,4282.820313,4280.512695,4273.205078,4261.794922,4569.102539,4534.487305,4408.333496,4501.794922,,,,,,,,,,,,,,,,,,,,,,,,,,,,,,,,,,,,,,,,,,,,,,,,,,,,,,,,,,,,,,,,,,,,,,
1769162114.355823,1769162114.356378,94.0,0.0,4312.820313,4285.128418,4279.871582,4328.974121,4278.461426,4272.94873,4280.641113,4286.282227,4272.436035,4266.153809,4573.077148,4540.0,4413.333496,4505.641113,1.172618,0.322939,0.183149,0.197888,0.129488,0.841341,0.439246,0.410351,0.145585,0.089772,0.519108,0.249457,0.188529,0.204556,0.0883,0.415045,0.393801,0.149595,0.085071,0.040137,0.365503,0.180019,0.094852,0.063528,0.043886,0.181913,0.375601,0.254065,0.09994,0.094707,0.062034,0.434141,0.314364,0.184064,0.213272,0.345394,0.363327,0.560537,0.168028,0.110738,0.072104,0.083602,0.190852,0.08309,0.066582,0.250098,0.302558,0.699574,0.207538,0.275069,0.45933,0.379544,0.429254,0.226078,0.14844,1.161848,0.303361,0.438404,0.242099,0.139757,0.48532,0.380469,0.336417,0.250961,0.151132,1.599368,0.3843,0.58501,0.354912,0.201863
1769162114.363632,1769162114.364187,95.0,0.0,4311.153809,4287.820313,4279.615234,4326.922852,4277.179688,4276.153809,4281.282227,4287.820313,4273.846191,4265.769043,4572.820313,4537.692383,4406.922852,4505.641113,,,,,,,,,,,,,,,,,,,,,,,,,,,,,,,,,,,,,,,,,,,,,,,,,,,,,,,,,,,,,,,,,,,,,,
1769162114.37144,1769162114.372195,96.0,0.0,4309.358887,4286.410156,4275.641113,4323.717773,4275.897461,4278.461426,4281.153809,4278.461426,4271.794922,4263.205078,4569.615234,4526.794922,4405.512695,4503.974121,,,,,,,,,,,,,,,,,,,,,,,,,,,,,,,,,,,,,,,,,,,,,,,,,,,,,,,,,,,,,,,,,,,,,,
1769162114.379249,1769162114.380004,97.0,0.0,4311.282227,4283.846191,4277.820313,4324.871582,4278.077148,4279.230957,4283.077148,4282.307617,4274.871582,4268.333496,4569.487305,4523.974121,4411.025879,4501.282227,,,,,,,,,,,,,,,,,,,,,,,,,,,,,,,,,,,,,,,,,,,,,,,,,,,,,,,,,,,,,,,,,,,,,,
1769162114.387057,1769162114.387912,98.0,0.0,4311.538574,4279.102539,4281.410156,4322.179688,4275.0,4280.128418,4287.692383,4293.333496,4281.025879,4265.641113,4570.0,4528.846191,4405.769043,4498.077148,,,,,,,,,,,,,,,,,,,,,,,,,,,,,,,,,,,,,,,,,,,,,,,,,,,,,,,,,,,,,,,,,,,,,,
1769162114.394866,1769162114.39572,99.0,0.0,4314.615234,4278.333496,4281.922852,4321.666504,4269.615234,4279.615234,4290.0,4286.922852,4278.974121,4264.102539,4571.025879,4527.179688,4399.871582,4500.128418,,,,,,,,,,,,,,,,,,,,,,,,,,,,,,,,,,,,,,,,,,,,,,,,,,,,,,,,,,,,,,,,,,,,,,
1769162114.402674,1769162114.403729,100.0,0.0,4318.717773,4287.05127,4280.641113,4326.025879,4273.589844,4277.94873,4285.512695,4279.230957,4277.820313,4275.641113,4574.230957,4522.307617,4407.692383,4506.025879,,,,,,,,,,,,,,,,,,,,,,,,,,,,,,,,,,,,,,,,,,,,,,,,,,,,,,,,,,,,,,,,,,,,,,
1769162114.410483,1769162114.411537,101.0,0.0,4314.487305,4292.94873,4278.974121,4326.282227,4275.769043,4276.922852,4282.563965,4281.538574,4278.589844,4272.94873,4575.512695,4524.102539,4415.641113,4508.205078,,,,,,,,,,,,,,,,,,,,,,,,,,,,,,,,,,,,,,,,,,,,,,,,,,,,,,,,,,,,,,,,,,,,,,
1769162114.418291,1769162114.419445,102.0,0.0,4309.743652,4285.256348,4282.307617,4322.692383,4267.94873,4278.333496,4288.717773,4282.179688,4270.512695,4252.307617,4570.0,4524.102539,4408.974121,4505.897461,,,,,,,,,,,,,,,,,,,,,,,,,,,,,,,,,,,,,,,,,,,,,,,,,,,,,,,,,,,,,,,,,,,,,,
1769162114.426099,1769162114.427254,103.0,0.0,4317.179688,4278.205078,4286.538574,4320.641113,4264.871582,4278.077148,4289.743652,4279.615234,4261.282227,4251.922852,4567.179688,4520.897461,4403.717773,4503.589844,,,,,,,,,,,,,,,,,,,,,,,,,,,,,,,,,,,,,,,,,,,,,,,,,,,,,,,,,,,,,,,,,,,,,,
1769162114.433908,1769162114.435262,104.0,0.0,4322.692383,4282.307617,4284.102539,4320.128418,4268.077148,4273.974121,4279.871582,4278.717773,4262.94873,4267.820313,4575.512695,4528.461426,4411.410156,4508.589844,,,,,,,,,,,,,,,,,,,,,,,,,,,,,,,,,,,,,,,,,,,,,,,,,,,,,,,,,,,,,,,,,,,,,,
1769162114.441716,1769162114.44307,105.0,0.0,4315.897461,4283.461426,4279.102539,4320.641113,4267.436035,4273.077148,4280.384766,4286.410156,4272.179688,4267.05127,4581.538574,4535.256348,4416.025879,4511.922852,,,,,,,,,,,,,,,,,,,,,,,,,,,,,,,,,,,,,,,,,,,,,,,,,,,,,,,,,,,,,,,,,,,,,,
1769162114.449525,1769162114.450779,106.0,0.0,4308.077148,4277.563965,4279.743652,4320.769043,4267.05127,4278.077148,4287.94873,4293.589844,4279.615234,4260.897461,4576.025879,4527.820313,4412.179688,4499.102539,,,,,,,,,,,,,,,,,,,,,,,,,,,,,,,,,,,,,,,,,,,,,,,,,,,,,,,,,,,,,,,,,,,,,,
1769162114.457333,1769162114.458587,107.0,0.0,4310.897461,4276.282227,4288.077148,4320.897461,4268.846191,4280.0,4283.205078,4287.692383,4277.436035,4262.820313,4568.717773,4519.743652,4408.205078,4487.692383,,,,,,,,,,,,,,,,,,,,,,,,,,,,,,,,,,,,,,,,,,,,,,,,,,,,,,,,,,,,,,,,,,,,,,
1769162114.465142,1769162114.466196,108.0,0.0,4320.384766,4279.743652,4293.333496,4321.282227,4269.871582,4276.282227,4278.717773,4277.05127,4273.077148,4264.871582,4569.358887,4523.205078,4409.358887,4496.666504,,,,,,,,,,,,,,,,,,,,,,,,,,,,,,,,,,,,,,,,,,,,,,,,,,,,,,,,,,,,,,,,,,,,,,
1769162114.47295,1769162114.474005,109.0,0.0,4324.230957,4285.0,4287.307617,4319.615234,4273.974121,4274.615234,4279.743652,4279.615234,4277.692383,4271.282227,4577.692383,4532.05127,4419.615234,4510.769043,,,,,,,,,,,,,,,,,,,,,,,,,,,,,,,,,,,,,,,,,,,,,,,,,,,,,,,,,,,,,,,,,,,,,,
1769162114.480759,1769162114.481713,110.0,0.0,4314.743652,4283.589844,4281.538574,4312.692383,4276.282227,4277.307617,4282.692383,4291.410156,4282.820313,4277.94873,4583.077148,4537.563965,4425.128418,4509.487305,1.130538,0.291992,0.207423,0.212365,0.138794,0.727158,0.415992,0.38169,0.133414,0.090841,0.565043,0.190521,0.194055,0.186292,0.101256,0.334302,0.287151,0.136249,0.071587,0.035184,0.349039,0.172581,0.100891,0.064829,0.047463,0.142662,0.393073,0.242856,0.094666,0.091981,0.054202,0.443877,0.342145,0.179252,0.22703,0.32613,0.34722,0.639403,0.193343,0.119882,0.060861,0.075106,0.19079,0.089132,0.056161,0.202616,0.271699,0.673746,0.195353,0.251203,0.503685,0.399274,0.445985,0.197349,0.146366,1.19499,0.264271,0.444637,0.241603,0.131788,0.419386,0.42547,0.335091,0.24694,0.155238,1.578959,0.386447,0.575436,0.309707,0.195326
1769162114.488567,1769162114.489522,111.0,0.0,4305.641113,4276.538574,4288.461426,4308.205078,4273.846191,4280.897461,4291.794922,4297.179688,4279.743652,4275.512695,4580.897461,4535.256348,4419.358887,4504.230957,,,,,,,,,,,,,,,,,,,,,,,,,,,,,,,,,,,,,,,,,,,,,,,,,,,,,,,,,,,,,,,,,,,,,,
1769162114.496375,1769162114.49753,112.0,0.0,4319.358887,4286.025879,4297.05127,4316.794922,4276.922852,4279.487305,4290.128418,4288.205078,4277.436035,4275.769043,4583.205078,4530.769043,4423.717773,4513.717773,,,,,,,,,,,,,,,,,,,,,,,,,,,,,,,,,,,,,,,,,,,,,,,,,,,,,,,,,,,,,,,,,,,,,,
1769162114.504184,1769162114.505338,113.0,0.0,4337.05127,4302.563965,4298.461426,4326.282227,4281.025879,4268.974121,4277.179688,4278.333496,4279.615234,4281.153809,4586.922852,4533.974121,4434.358887,4523.461426,,,,,,,,,,,,,,,,,,,,,,,,,,,,,,,,,,,,,,,,,,,,,,,,,,,,,,,,,,,,,,,,,,,,,,
1769162114.511992,1769162114.513247,114.0,0.0,4333.205078,4301.025879,4296.153809,4323.077148,4275.897461,4264.102539,4275.769043,4283.205078,4280.256348,4275.897461,4577.05127,4538.077148,4426.794922,4520.384766,,,,,,,,,,,,,,,,,,,,,,,,,,,,,,,,,,,,,,,,,,,,,,,,,,,,,,,,,,,,,,,,,,,,,,
1769162114.519801,1769162114.521055,115.0,0.0,4325.512695,4295.0,4293.717773,4319.487305,4273.846191,4272.563965,4281.025879,4288.205078,4278.205078,4260.128418,4570.128418,4537.94873,4419.487305,4519.743652,,,,,,,,,,,,,,,,,,,,,,,,,,,,,,,,,,,,,,,,,,,,,,,,,,,,,,,,,,,,,,,,,,,,,,
1769162114.527609,1769162114.528664,116.0,0.0,4328.846191,4298.974121,4293.589844,4321.153809,4278.589844,4279.871582,4280.384766,4288.717773,4283.589844,4260.128418,4581.538574,4538.717773,4428.461426,4525.256348,,,,,,,,,,,,,,,,,,,,,,,,,,,,,,,,,,,,,,,,,,,,,,,,,,,,,,,,,,,,,,,,,,,,,,
1769162114.535418,1769162114.536472,117.0,0.0,4329.102539,4298.717773,4295.256348,4319.358887,4276.922852,4278.974121,4281.282227,4295.0,4290.512695,4277.94873,4588.205078,4537.179688,4431.153809,4522.692383,,,,,,,,,,,,,,,,,,,,,,,,,,,,,,,,,,,,,,,,,,,,,,,,,,,,,,,,,,,,,,,,,,,,,,
1769162114.543226,1769162114.544181,118.0,0.0,4325.641113,4293.205078,4297.563965,4319.230957,4274.743652,4277.436035,4281.794922,4296.153809,4285.769043,4284.871582,4582.94873,4535.769043,4427.563965,4518.717773,,,,,,,,,,,,,,,,,,,,,,,,,,,,,,,,,,,,,,,,,,,,,,,,,,,,,,,,,,,,,,,,,,,,,,
1769162114.551035,1769162114.551989,119.0,0.0,4326.538574,4294.487305,4298.846191,4319.358887,4277.563965,4276.666504,4278.589844,4290.641113,4278.205078,4275.512695,4580.641113,4537.05127,4425.641113,4517.692383,,,,,,,,,,,,,,,,,,,,,,,,,,,,,,,,,,,,,,,,,,,,,,,,,,,,,,,,,,,,,,,,,,,,,,
1769162114.558843,1769162114.559598,120.0,0.0,4319.102539,4295.512695,4293.974121,4313.333496,4277.563965,4276.794922,4281.282227,4292.179688,4279.615234,4272.179688,4577.563965,4533.589844,4420.256348,4510.897461,,,,,,,,,,,,,,,,,,,,,,,,,,,,,,,,,,,,,,,,,,,,,,,,,,,,,,,,,,,,,,,,,,,,,,
1769162114.566651,1769162114.567406,121.0,0.0,4310.256348,4290.128418,4287.94873,4312.94873,4277.05127,4279.487305,4280.769043,4296.153809,4282.820313,4275.641113,4574.358887,4524.743652,4414.358887,4504.102539,,,,,,,,,,,,,,,,,,,,,,,,,,,,,,,,,,,,,,,,,,,,,,,,,,,,,,,,,,,,,,,,,,,,,,
1769162114.57446,1769162114.575315,122.0,0.0,4315.897461,4286.922852,4291.666504,4318.846191,4279.487305,4279.487305,4280.128418,4294.743652,4279.871582,4273.589844,4577.436035,4522.05127,4415.256348,4507.05127,,,,,,,,,,,,,,,,,,,,,,,,,,,,,,,,,,,,,,,,,,,,,,,,,,,,,,,,,,,,,,,,,,,,,,
1769162114.582268,1769162114.583123,123.0,0.0,4325.512695,4290.897461,4304.102539,4321.794922,4280.641113,4277.820313,4289.102539,4294.230957,4278.717773,4275.0,4581.282227,4530.641113,4422.692383,4516.666504,,,,,,,,,,,,,,,,,,,,,,,,,,,,,,,,,,,,,,,,,,,,,,,,,,,,,,,,,,,,,,,,,,,,,,
1769162114.590077,1769162114.591131,124.0,0.0,4326.282227,4294.358887,4311.153809,4323.333496,4279.487305,4277.820313,4290.128418,4295.0,4281.922852,4278.717773,4583.846191,4540.128418,4428.589844,4525.256348,,,,,,,,,,,,,,,,,,,,,,,,,,,,,,,,,,,,,,,,,,,,,,,,,,,,,,,,,,,,,,,,,,,,,,
1769162114.597885,1769162114.59894,125.0,0.0,4323.974121,4293.461426,4309.871582,4325.641113,4280.641113,4274.487305,4277.436035,4295.769043,4279.871582,4278.205078,4585.384766,4542.436035,4428.974121,4525.384766,,,,,,,,,,,,,,,,,,,,,,,,,,,,,,,,,,,,,,,,,,,,,,,,,,,,,,,,,,,,,,,,,,,,,,
1769162114.605694,1769162114.606848,126.0,0.0,4326.410156,4294.102539,4308.461426,4323.205078,4282.820313,4273.717773,4280.0,4297.820313,4281.538574,4280.256348,4583.846191,4541.025879,4427.563965,4519.743652,1.097901,0.283511,0.237408,0.242034,0.150446,0.654366,0.388746,0.329665,0.124723,0.089883,0.657721,0.147294,0.205393,0.174375,0.113296,0.277715,0.194957,0.126367,0.062679,0.035337,0.359216,0.16577,0.107206,0.065951,0.051718,0.123769,0.409367,0.218006,0.09499,0.088589,0.050247,0.447945,0.334024,0.177453,0.223806,0.294197,0.313735,0.663677,0.216914,0.128466,0.061838,0.075309,0.182699,0.097843,0.04881,0.170245,0.23617,0.607083,0.184065,0.237329,0.517674,0.394387,0.489315,0.178725,0.147393,1.136615,0.241192,0.453799,0.245219,0.122638,0.353042,0.451928,0.365901,0.244271,0.160801,1.397953,0.398039,0.600527,0.286748,0.184474
1769162114.613502,1769162114.614656,127.0,0.0,4326.410156,4292.820313,4307.820313,4321.025879,4281.666504,4279.358887,4296.025879,4298.461426,4290.512695,4273.974121,4579.102539,4539.358887,4427.179688,4518.974121,,,,,,,,,,,,,,,,,,,,,,,,,,,,,,,,,,,,,,,,,,,,,,,,,,,,,,,,,,,,,,,,,,,,,,
1769162114.621311,1769162114.622665,0.0,0.0,4324.230957,4291.666504,4306.410156,4323.974121,4279.358887,4281.025879,4290.897461,4297.05127,4287.179688,4264.487305,4578.205078,4537.563965,4427.179688,4521.410156,,,,,,,,,,,,,,,,,,,,,,,,,,,,,,,,,,,,,,,,,,,,,,,,,,,,,,,,,,,,,,,,,,,,,,
1769162114.629119,1769162114.630473,1.0,0.0,4328.717773,4295.641113,4308.461426,4327.436035,4281.282227,4278.589844,4278.717773,4293.717773,4279.230957,4273.077148,4581.794922,4537.307617,4427.563965,4522.05127,,,,,,,,,,,,,,,,,,,,,,,,,,,,,,,,,,,,,,,,,,,,,,,,,,,,,,,,,,,,,,,,,,,,,,
1769162114.636928,1769162114.638182,2.0,0.0,4334.358887,4296.922852,4314.230957,4327.307617,4283.333496,4280.769043,4287.179688,4294.871582,4286.153809,4285.0,4582.307617,4539.102539,4427.692383,4521.794922,,,,,,,,,,,,,,,,,,,,,,,,,,,,,,,,,,,,,,,,,,,,,,,,,,,,,,,,,,,,,,,,,,,,,,
1769162114.644736,1769162114.64599,3.0,0.0,4332.820313,4293.974121,4316.538574,4325.128418,4281.282227,4285.128418,4299.102539,4302.94873,4295.128418,4280.256348,4581.666504,4540.384766,4427.820313,4521.794922,,,,,,,,,,,,,,,,,,,,,,,,,,,,,,,,,,,,,,,,,,,,,,,,,,,,,,,,,,,,,,,,,,,,,,
1769162114.652545,1769162114.653799,4.0,0.0,4328.077148,4293.333496,4315.0,4325.384766,4284.358887,4288.846191,4297.05127,4305.0,4292.307617,4276.153809,4581.794922,4540.256348,4424.871582,4517.692383,,,,,,,,,,,,,,,,,,,,,,,,,,,,,,,,,,,,,,,,,,,,,,,,,,,,,,,,,,,,,,,,,,,,,,
1769162114.660353,1769162114.661607,5.0,0.0,4325.512695,4293.333496,4312.820313,4323.461426,4287.563965,4288.333496,4292.692383,4297.94873,4285.128418,4279.230957,4578.205078,4536.666504,4415.256348,4510.0,,,,,,,,,,,,,,,,,,,,,,,,,,,,,,,,,,,,,,,,,,,,,,,,,,,,,,,,,,,,,,,,,,,,,,
1769162114.668162,1769162114.669316,6.0,0.0,4325.128418,4289.743652,4311.538574,4320.128418,4283.333496,4280.512695,4294.102539,4295.128418,4281.538574,4274.487305,4571.153809,4533.974121,4410.384766,4506.794922,,,,,,,,,,,,,,,,,,,,,,,,,,,,,,,,,,,,,,,,,,,,,,,,,,,,,,,,,,,,,,,,,,,,,,
1769162114.67597,1769162114.677124,7.0,0.0,4323.974121,4286.282227,4312.307617,4320.897461,4280.0,4281.410156,4295.641113,4298.974121,4285.512695,4271.666504,4569.615234,4536.794922,4412.436035,4508.205078,,,,,,,,,,,,,,,,,,,,,,,,,,,,,,,,,,,,,,,,,,,,,,,,,,,,,,,,,,,,,,,,,,,,,,
1769162114.683778,1769162114.684733,8.0,0.0,4325.897461,4289.487305,4314.743652,4327.307617,4283.205078,4287.820313,4292.563965,4298.846191,4291.794922,4277.179688,4576.922852,4539.230957,4413.205078,4513.974121,,,,,,,,,,,,,,,,,,,,,,,,,,,,,,,,,,,,,,,,,,,,,,,,,,,,,,,,,,,,,,,,,,,,,,
1769162114.691587,1769162114.692541,9.0,0.0,4334.487305,4296.153809,4321.666504,4334.487305,4286.282227,4281.153809,4283.077148,4296.025879,4293.205078,4280.256348,4585.256348,4538.846191,4420.128418,4521.538574,,,,,,,,,,,,,,,,,,,,,,,,,,,,,,,,,,,,,,,,,,,,,,,,,,,,,,,,,,,,,,,,,,,,,,
1769162114.699395,1769162114.70025,10.0,0.0,4343.461426,4298.846191,4329.615234,4335.641113,4287.179688,4273.846191,4280.512695,4294.487305,4292.563965,4278.333496,4587.563965,4540.0,4427.94873,4525.512695,,,,,,,,,,,,,,,,,,,,,,,,,,,,,,,,,,,,,,,,,,,,,,,,,,,,,,,,,,,,,,,,,,,,,,
1769162114.707204,1769162114.708058,11.0,0.0,4345.512695,4298.589844,4332.692383,4336.153809,4290.256348,4278.974121,4289.358887,4293.461426,4285.897461,4280.128418,4584.871582,4543.205078,4423.333496,4525.384766,,,,,,,,,,,,,,,,,,,,,,,,,,,,,,,,,,,,,,,,,,,,,,,,,,,,,,,,,,,,,,,,,,,,,,
1769162114.715012,1769162114.716066,12.0,0.0,4343.589844,4296.922852,4328.205078,4335.512695,4287.820313,4282.179688,4295.128418,4294.358887,4278.717773,4277.436035,4583.717773,4541.794922,4417.692383,4524.743652,,,,,,,,,,,,,,,,,,,,,,,,,,,,,,,,,,,,,,,,,,,,,,,,,,,,,,,,,,,,,,,,,,,,,,
1769162114.722821,1769162114.723875,13.0,0.0,4339.102539,4293.846191,4324.743652,4329.487305,4277.820313,4277.94873,4291.282227,4296.282227,4279.358887,4267.692383,4583.333496,4539.358887,4419.358887,4522.179688,,,,,,,,,,,,,,,,,,,,,,,,,,,,,,,,,,,,,,,,,,,,,,,,,,,,,,,,,,,,,,,,,,,,,,
1769162114.730629,1769162114.731583,14.0,0.0,4343.077148,4294.871582,4332.94873,4326.282227,4273.461426,4275.384766,4284.102539,4297.436035,4281.922852,4272.05127,4585.897461,4546.666504,4419.615234,4521.922852,1.059683,0.316031,0.269065,0.277314,0.160593,0.628325,0.377833,0.278434,0.119801,0.088571,0.773672,0.129514,0.220571,0.173178,0.120615,0.258554,0.142385,0.124264,0.060242,0.039861,0.402741,0.160884,0.108794,0.0667,0.055968,0.123081,0.41772,0.188785,0.101823,0.085628,0.052861,0.439648,0.294705,0.184608,0.203709,0.263426,0.267327,0.621596,0.231607,0.137693,0.076897,0.0854,0.170125,0.106574,0.046113,0.168916,0.208645,0.519346,0.176695,0.236755,0.511942,0.363191,0.54806,0.17361,0.154207,0.99374,0.224649,0.457041,0.249493,0.113822,0.308057,0.448722,0.42312,0.239986,0.16808,1.114708,0.414484,0.653955,0.280159,0.173361
1769162114.738438,1769162114.739392,15.0,0.0,4345.128418,4292.692383,4336.025879,4327.179688,4275.384766,4276.282227,4285.128418,4297.436035,4283.846191,4284.358887,4589.615234,4552.05127,4420.641113,4528.077148,,,,,,,,,,,,,,,,,,,,,,,,,,,,,,,,,,,,,,,,,,,,,,,,,,,,,,,,,,,,,,,,,,,,,,
1769162114.746246,1769162114.747001,16.0,0.0,4327.692383,4278.717773,4325.512695,4323.077148,4275.384766,4278.461426,4292.563965,4296.410156,4283.589844,4282.307617,4580.128418,4542.820313,4417.563965,4518.846191,,,,,,,,,,,,,,,,,,,,,,,,,,,,,,,,,,,,,,,,,,,,,,,,,,,,,,,,,,,,,,,,,,,,,,
1769162114.754054,1769162114.754809,17.0,0.0,4326.025879,4276.666504,4324.487305,4321.666504,4274.102539,4276.922852,4294.871582,4295.641113,4278.974121,4276.153809,4571.282227,4535.769043,4410.128418,4503.461426,,,,,,,,,,,,,,,,,,,,,,,,,,,,,,,,,,,,,,,,,,,,,,,,,,,,,,,,,,,,,,,,,,,,,,
1769162114.761863,1769162114.762717,18.0,0.0,4348.461426,4292.692383,4336.410156,4327.692383,4275.769043,4274.871582,4291.666504,4297.436035,4278.589844,4278.589844,4579.615234,4540.769043,4418.333496,4511.538574,,,,,,,,,,,,,,,,,,,,,,,,,,,,,,,,,,,,,,,,,,,,,,,,,,,,,,,,,,,,,,,,,,,,,,
1769162114.769671,1769162114.770526,19.0,0.0,4351.153809,4297.820313,4338.333496,4328.205078,4277.05127,4277.179688,4291.922852,4298.461426,4283.717773,4281.153809,4589.487305,4543.974121,4432.436035,4527.94873,,,,,,,,,,,,,,,,,,,,,,,,,,,,,,,,,,,,,,,,,,,,,,,,,,,,,,,,,,,,,,,,,,,,,,
1769162114.77748,1769162114.778534,20.0,0.0,4337.179688,4288.974121,4332.179688,4324.487305,4276.922852,4277.563965,4294.487305,4294.102539,4281.282227,4279.615234,4587.436035,4541.410156,4430.897461,4524.230957,,,,,,,,,,,,,,,,,,,,,,,,,,,,,,,,,,,,,,,,,,,,,,,,,,,,,,,,,,,,,,,,,,,,,,
1769162114.785288,1769162114.786342,21.0,0.0,4339.230957,4286.025879,4333.717773,4325.256348,4277.05127,4274.358887,4290.512695,4292.179688,4277.307617,4275.769043,4584.358887,4540.769043,4424.743652,4517.94873,,,,,,,,,,,,,,,,,,,,,,,,,,,,,,,,,,,,,,,,,,,,,,,,,,,,,,,,,,,,,,,,,,,,,,
1769162114.793097,1769162114.794251,22.0,0.0,4345.512695,4288.205078,4339.102539,4327.307617,4277.563965,4272.179688,4282.436035,4296.794922,4280.512695,4278.205078,4586.922852,4543.077148,4428.333496,4522.05127,,,,,,,,,,,,,,,,,,,,,,,,,,,,,,,,,,,,,,,,,,,,,,,,,,,,,,,,,,,,,,,,,,,,,,
1769162114.800905,1769162114.802059,23.0,0.0,4338.333496,4284.743652,4337.179688,4324.871582,4277.820313,4272.307617,4281.410156,4297.436035,4282.94873,4283.461426,4585.641113,4542.436035,4426.025879,4517.820313,,,,,,,,,,,,,,,,,,,,,,,,,,,,,,,,,,,,,,,,,,,,,,,,,,,,,,,,,,,,,,,,,,,,,,
1769162114.808714,1769162114.810067,24.0,0.0,4326.922852,4277.563965,4329.743652,4317.692383,4277.05127,4276.153809,4290.641113,4293.461426,4284.230957,4273.846191,4579.230957,4536.666504,4414.102539,4505.641113,,,,,,,,,,,,,,,,,,,,,,,,,,,,,,,,,,,,,,,,,,,,,,,,,,,,,,,,,,,,,,,,,,,,,,
1769162114.816522,1769162114.817876,25.0,0.0,4325.256348,4277.692383,4330.128418,4315.641113,4277.436035,4281.282227,4296.410156,4297.307617,4289.615234,4271.922852,4578.974121,4534.487305,4414.871582,4501.922852,,,,,,,,,,,,,,,,,,,,,,,,,,,,,,,,,,,,,,,,,,,,,,,,,,,,,,,,,,,,,,,,,,,,,,
1769162114.82433,1769162114.825584,26.0,0.0,4336.794922,4285.641113,4339.102539,4324.615234,4278.333496,4280.384766,4293.589844,4305.512695,4294.102539,4292.94873,4587.692383,4539.358887,4428.205078,4513.974121,,,,,,,,,,,,,,,,,,,,,,,,,,,,,,,,,,,,,,,,,,,,,,,,,,,,,,,,,,,,,,,,,,,,,,
1769162114.832139,1769162114.833393,27.0,0.0,4340.384766,4287.436035,4342.820313,4328.589844,4275.384766,4278.333496,4291.666504,4309.102539,4296.282227,4300.384766,4590.512695,4542.692383,4433.333496,4523.974121,,,,,,,,,,,,,,,,,,,,,,,,,,,,,,,,,,,,,,,,,,,,,,,,,,,,,,,,,,,,,,,,,,,,,,
1769162114.839947,1769162114.841201,28.0,0.0,4332.436035,4278.461426,4338.589844,4322.05127,4274.358887,4282.179688,4298.461426,4307.94873,4293.846191,4280.512695,4584.358887,4542.307617,4422.436035,4513.333496,,,,,,,,,,,,,,,,,,,,,,,,,,,,,,,,,,,,,,,,,,,,,,,,,,,,,,,,,,,,,,,,,,,,,,
1769162114.847756,1769162114.84901,29.0,0.0,4334.102539,4277.436035,4337.307617,4319.743652,4277.436035,4283.589844,4297.692383,4297.820313,4284.230957,4271.153809,4580.897461,4539.487305,4415.0,4503.974121,,,,,,,,,,,,,,,,,,,,,,,,,,,,,,,,,,,,,,,,,,,,,,,,,,,,,,,,,,,,,,,,,,,,,,
1769162114.855564,1769162114.856718,30.0,0.0,4344.102539,4288.717773,4344.743652,4328.333496,4278.589844,4278.333496,4286.153809,4296.025879,4284.230957,4282.692383,4585.641113,4542.307617,4421.922852,4515.128418,0.993969,0.386539,0.294929,0.309436,0.168092,0.631757,0.39345,0.24638,0.119156,0.090129,0.849896,0.135586,0.232095,0.18342,0.121442,0.264925,0.133256,0.129422,0.065094,0.047314,0.469844,0.157873,0.102572,0.066693,0.059283,0.131571,0.408783,0.164055,0.114294,0.084788,0.060946,0.411777,0.240861,0.200465,0.17448,0.227059,0.215144,0.521542,0.234176,0.148604,0.109571,0.102928,0.162634,0.113899,0.048644,0.201468,0.198458,0.428387,0.176588,0.24959,0.492911,0.310135,0.589992,0.181757,0.166304,0.824115,0.209528,0.440348,0.252819,0.107577,0.295166,0.415965,0.474876,0.233469,0.17791,0.809543,0.442821,0.696722,0.283025,0.168206
1769162114.863373,1769162114.864527,31.0,0.0,4345.384766,4294.358887,4350.256348,4334.487305,4275.897461,4273.205078,4283.846191,4309.358887,4296.410156,4288.333496,4591.025879,4553.846191,4430.769043,4527.820313,,,,,,,,,,,,,,,,,,,,,,,,,,,,,,,,,,,,,,,,,,,,,,,,,,,,,,,,,,,,,,,,,,,,,,
1769162114.871181,1769162114.872135,32.0,0.0,4339.230957,4290.128418,4345.384766,4330.384766,4274.487305,4271.410156,4286.794922,4306.666504,4292.05127,4279.487305,4588.589844,4554.230957,4430.769043,4523.717773,,,,,,,,,,,,,,,,,,,,,,,,,,,,,,,,,,,,,,,,,,,,,,,,,,,,,,,,,,,,,,,,,,,,,,
1769162114.87899,1769162114.879944,33.0,0.0,4340.256348,4286.410156,4339.743652,4326.025879,4277.179688,4272.307617,4285.0,4290.897461,4278.974121,4274.743652,4585.128418,4541.538574,4428.205078,4514.487305,,,,,,,,,,,,,,,,,,,,,,,,,,,,,,,,,,,,,,,,,,,,,,,,,,,,,,,,,,,,,,,,,,,,,,
1769162114.886798,1769162114.887652,34.0,0.0,4341.410156,4285.897461,4341.666504,4325.897461,4278.589844,4272.563965,4281.282227,4292.436035,4278.333496,4281.025879,4584.358887,4537.436035,4428.077148,4508.846191,,,,,,,,,,,,,,,,,,,,,,,,,,,,,,,,,,,,,,,,,,,,,,,,,,,,,,,,,,,,,,,,,,,,,,
1769162114.894606,1769162114.895461,35.0,0.0,4334.743652,4286.410156,4342.05127,4324.615234,4277.179688,4270.256348,4281.153809,4299.102539,4281.410156,4274.102539,4580.512695,4540.641113,4425.897461,4508.846191,,,,,,,,,,,,,,,,,,,,,,,,,,,,,,,,,,,,,,,,,,,,,,,,,,,,,,,,,,,,,,,,,,,,,,
1769162114.902415,1769162114.903469,36.0,0.0,4333.589844,4290.128418,4341.025879,4325.0,4277.692383,4271.538574,4287.05127,4295.256348,4281.153809,4266.153809,4580.897461,4539.871582,4425.897461,4510.897461,,,,,,,,,,,,,,,,,,,,,,,,,,,,,,,,,,,,,,,,,,,,,,,,,,,,,,,,,,,,,,,,,,,,,,
1769162114.910223,1769162114.911278,37.0,0.0,4338.205078,4294.743652,4343.077148,4327.692383,4279.487305,4275.769043,4292.179688,4295.256348,4280.769043,4277.179688,4584.358887,4539.743652,4428.205078,4510.256348,,,,,,,,,,,,,,,,,,,,,,,,,,,,,,,,,,,,,,,,,,,,,,,,,,,,,,,,,,,,,,,,,,,,,,
1769162114.918032,1769162114.919186,38.0,0.0,4336.025879,4292.307617,4342.820313,4326.794922,4278.717773,4273.205078,4287.692383,4297.820313,4278.205078,4277.94873,4581.025879,4539.615234,4424.615234,4509.743652,,,,,,,,,,,,,,,,,,,,,,,,,,,,,,,,,,,,,,,,,,,,,,,,,,,,,,,,,,,,,,,,,,,,,,
1769162114.92584,1769162114.926994,39.0,0.0,4332.94873,4289.102539,4340.641113,4325.256348,4278.205078,4272.05127,4284.871582,4296.538574,4277.94873,4266.538574,4578.333496,4537.563965,4421.410156,4509.230957,,,,,,,,,,,,,,,,,,,,,,,,,,,,,,,,,,,,,,,,,,,,,,,,,,,,,,,,,,,,,,,,,,,,,,
1769162114.933649,1769162114.934603,40.0,0.0,4334.358887,4291.794922,4339.358887,4326.666504,4280.769043,4280.769043,4295.384766,4295.128418,4281.025879,4269.487305,4579.487305,4537.94873,4420.512695,4506.153809,,,,,,,,,,,,,,,,,,,,,,,,,,,,,,,,,,,,,,,,,,,,,,,,,,,,,,,,,,,,,,,,,,,,,,
1769162114.941457,1769162114.942411,41.0,0.0,4330.897461,4292.307617,4339.230957,4326.282227,4282.05127,4283.205078,4293.589844,4295.769043,4280.128418,4276.538574,4573.846191,4537.563965,4418.589844,4505.384766,,,,,,,,,,,,,,,,,,,,,,,,,,,,,,,,,,,,,,,,,,,,,,,,,,,,,,,,,,,,,,,,,,,,,,
1769162114.949266,1769162114.95012,42.0,0.0,4324.871582,4286.153809,4342.307617,4326.410156,4280.0,4278.205078,4284.615234,4300.897461,4279.102539,4275.256348,4570.384766,4536.922852,4421.282227,4505.769043,,,,,,,,,,,,,,,,,,,,,,,,,,,,,,,,,,,,,,,,,,,,,,,,,,,,,,,,,,,,,,,,,,,,,,
1769162114.957074,1769162114.957928,43.0,0.0,4329.230957,4287.820313,4349.102539,4328.461426,4278.589844,4278.974121,4287.563965,4299.102539,4278.461426,4274.871582,4577.179688,4538.846191,4429.358887,4505.897461,,,,,,,,,,,,,,,,,,,,,,,,,,,,,,,,,,,,,,,,,,,,,,,,,,,,,,,,,,,,,,,,,,,,,,
1769162114.964882,1769162114.965537,44.0,0.0,4338.589844,4291.794922,4352.05127,4327.307617,4279.615234,4281.153809,4289.358887,4296.410156,4278.461426,4274.102539,4584.615234,4540.256348,4431.025879,4508.205078,,,,,,,,,,,,,,,,,,,,,,,,,,,,,,,,,,,,,,,,,,,,,,,,,,,,,,,,,,,,,,,,,,,,,,
1769162114.972691,1769162114.973346,45.0,0.0,4339.487305,4284.358887,4346.794922,4324.358887,4279.871582,4277.05127,4283.717773,4306.410156,4285.769043,4277.05127,4585.641113,4541.666504,4428.974121,4511.410156,,,,,,,,,,,,,,,,,,,,,,,,,,,,,,,,,,,,,,,,,,,,,,,,,,,,,,,,,,,,,,,,,,,,,,
1769162114.980499,1769162114.981254,46.0,0.0,4332.563965,4277.692383,4341.666504,4324.871582,4278.589844,4276.025879,4281.025879,4306.282227,4282.307617,4282.563965,4579.487305,4536.794922,4427.94873,4506.410156,0.882494,0.484318,0.308305,0.332353,0.175237,0.634736,0.432744,0.237562,0.123251,0.097365,0.84378,0.158623,0.232864,0.202364,0.116939,0.273197,0.155576,0.138964,0.077101,0.055797,0.536087,0.157832,0.090982,0.066269,0.060813,0.139958,0.378962,0.148445,0.129764,0.087393,0.075502,0.365911,0.192151,0.219992,0.148729,0.190862,0.167096,0.389726,0.227121,0.16029,0.158729,0.121366,0.168732,0.122173,0.05575,0.262789,0.206432,0.34485,0.188133,0.272193,0.472578,0.25098,0.583436,0.201124,0.179449,0.665547,0.201383,0.395235,0.255399,0.105267,0.310536,0.373787,0.489497,0.227193,0.189012,0.551258,0.505733,0.688599,0.290519,0.172628
1769162114.988308,1769162114.989062,47.0,0.0,4326.666504,4279.358887,4339.871582,4325.384766,4277.692383,4277.94873,4282.563965,4289.743652,4266.922852,4274.487305,4570.641113,4526.794922,4421.282227,4494.871582,,,,,,,,,,,,,,,,,,,,,,,,,,,,,,,,,,,,,,,,,,,,,,,,,,,,,,,,,,,,,,,,,,,,,,
