title:mouse_7, start timestamp:1768210987.086289, stop timestamp:1768211017.632869, headset type:EPOCX, headset serial:E5020E3B, headset firmware:730, channels:156, sampling rate:eeg_128;pm_0.1;pow_8, samples:3913      , version:2.2, 
Timestamp,OriginalTimestamp,EEG.Counter,EEG.Interpolated,EEG.AF3,EEG.F7,EEG.F3,EEG.FC5,EEG.T7,EEG.P7,EEG.O1,EEG.O2,EEG.P8,EEG.T8,EEG.FC6,EEG.F4,EEG.F8,EEG.AF4,EEG.RawCq,EEG.Battery,EEG.BatteryPercent,MarkerIndex,MarkerType,MarkerValueInt,EEG.MarkerHardware,CQ.AF3,CQ.F7,CQ.F3,CQ.FC5,CQ.T7,CQ.P7,CQ.O1,CQ.O2,CQ.P8,CQ.T8,CQ.FC6,CQ.F4,CQ.F8,CQ.AF4,CQ.Overall,EQ.SampleRateQuality,EQ.OVERALL,EQ.AF3,EQ.F7,EQ.F3,EQ.FC5,EQ.T7,EQ.P7,EQ.O1,EQ.O2,EQ.P8,EQ.T8,EQ.FC6,EQ.F4,EQ.F8,EQ.AF4,PM.Attention.IsActive,PM.Attention.Scaled,PM.Attention.Raw,PM.Attention.Min,PM.Attention.Max,PM.Engagement.IsActive,PM.Engagement.Scaled,PM.Engagement.Raw,PM.Engagement.Min,PM.Engagement.Max,PM.Excitement.IsActive,PM.Excitement.Scaled,PM.Excitement.Raw,PM.Excitement.Min,PM.Excitement.Max,PM.LongTermExcitement,PM.Stress.IsActive,PM.Stress.Scaled,PM.Stress.Raw,PM.Stress.Min,PM.Stress.Max,PM.Relaxation.IsActive,PM.Relaxation.Scaled,PM.Relaxation.Raw,PM.Relaxation.Min,PM.Relaxation.Max,PM.Interest.IsActive,PM.Interest.Scaled,PM.Interest.Raw,PM.Interest.Min,PM.Interest.Max,POW.AF3.Theta,POW.AF3.Alpha,POW.AF3.BetaL,POW.AF3.BetaH,POW.AF3.Gamma,POW.F7.Theta,POW.F7.Alpha,POW.F7.BetaL,POW.F7.BetaH,POW.F7.Gamma,POW.F3.Theta,POW.F3.Alpha,POW.F3.BetaL,POW.F3.BetaH,POW.F3.Gamma,POW.FC5.Theta,POW.FC5.Alpha,POW.FC5.BetaL,POW.FC5.BetaH,POW.FC5.Gamma,POW.T7.Theta,POW.T7.Alpha,POW.T7.BetaL,POW.T7.BetaH,POW.T7.Gamma,POW.P7.Theta,POW.P7.Alpha,POW.P7.BetaL,POW.P7.BetaH,POW.P7.Gamma,POW.O1.Theta,POW.O1.Alpha,POW.O1.BetaL,POW.O1.BetaH,POW.O1.Gamma,POW.O2.Theta,POW.O2.Alpha,POW.O2.BetaL,POW.O2.BetaH,POW.O2.Gamma,POW.P8.Theta,POW.P8.Alpha,POW.P8.BetaL,POW.P8.BetaH,POW.P8.Gamma,POW.T8.Theta,POW.T8.Alpha,POW.T8.BetaL,POW.T8.BetaH,POW.T8.Gamma,POW.FC6.Theta,POW.FC6.Alpha,POW.FC6.BetaL,POW.FC6.BetaH,POW.FC6.Gamma,POW.F4.Theta,POW.F4.Alpha,POW.F4.BetaL,POW.F4.BetaH,POW.F4.Gamma,POW.F8.Theta,POW.F8.Alpha,POW.F8.BetaL,POW.F8.BetaH,POW.F8.Gamma,POW.AF4.Theta,POW.AF4.Alpha,POW.AF4.BetaL,POW.AF4.BetaH,POW.AF4.Gamma
1768210987.086289,1768210987.086712,53.000000,0.000000,4373.333496,4339.358887,4344.871582,4362.051270,4322.948730,4310.512695,4305.384766,4301.538574,4299.615234,4302.563965,4508.461426,4491.282227,4415.897461,4461.025879,0.000000,4.000000,80.000000,,,,0.000000,2.000000,4.000000,4.000000,4.000000,4.000000,4.000000,4.000000,4.000000,4.000000,4.000000,4.000000,4.000000,4.000000,4.000000,83.333336,,,,,,,,,,,,,,,,,,,,,,,,,,,,,,,,,,,,,,,,,,,,,,,,,,,,,,,,,,,,,,,,,,,,,,,,,,,,,,,,,,,,,,,,,,,,,,,,,,,,,,,,,,,,,,,,,,,,,
1768210987.094098,1768210987.094621,54.000000,0.000000,4370.769043,4341.922852,4341.538574,4367.948730,4327.948730,4309.743652,4296.538574,4300.384766,4298.461426,4310.000000,4507.563965,4488.077148,4422.051270,4452.948730,0.000000,4.000000,80.000000,,,,0.000000,2.000000,4.000000,4.000000,4.000000,4.000000,4.000000,4.000000,4.000000,4.000000,4.000000,4.000000,4.000000,4.000000,4.000000,83.333336,,,,,,,,,,,,,,,,,,,,,,,,,,,,,,,,,,,,,,,,,,,,,,,,1.237569,0.310613,0.097892,0.074386,0.043508,2.962467,0.788557,0.133621,0.085810,0.119498,0.684548,0.186164,0.205744,0.125043,0.120086,0.743450,0.171389,0.155128,0.065905,0.090042,0.112262,0.110555,0.123613,0.065418,0.057390,0.259217,0.338656,0.221335,0.110693,0.082763,0.126960,0.321185,0.313190,0.368425,0.321501,0.321408,0.118830,0.294493,0.383554,0.175898,0.184802,0.244797,0.209154,0.200620,0.148233,0.326650,0.762073,0.585543,0.514383,0.251064,0.875535,0.518161,0.367826,0.493025,0.229181,0.560386,0.248208,0.261224,0.332929,0.167360,1.381323,0.598304,0.381044,0.466204,0.149850,2.492022,0.536781,0.445380,0.332280,0.201385
1768210987.101906,1768210987.102429,55.000000,0.000000,4368.333496,4342.563965,4336.410156,4363.077148,4328.077148,4310.897461,4294.358887,4307.051270,4302.820313,4300.512695,4506.538574,4488.717773,4415.000000,4449.871582,0.000000,4.000000,80.000000,,,,0.000000,2.000000,4.000000,4.000000,4.000000,4.000000,4.000000,4.000000,4.000000,4.000000,4.000000,4.000000,4.000000,4.000000,4.000000,83.333336,,,,,,,,,,,,,,,,,,,,,,,,,,,,,,,,,,,,,,,,,,,,,,,,,,,,,,,,,,,,,,,,,,,,,,,,,,,,,,,,,,,,,,,,,,,,,,,,,,,,,,,,,,,,,,,,,,,,,
1768210987.109714,1768210987.110437,56.000000,0.000000,4369.102539,4336.153809,4335.769043,4354.102539,4322.436035,4310.128418,4298.974121,4307.948730,4302.436035,4291.153809,4506.922852,4491.410156,4411.794922,4455.512695,0.000000,4.000000,80.000000,,,,0.000000,2.000000,4.000000,4.000000,4.000000,4.000000,4.000000,4.000000,4.000000,4.000000,4.000000,4.000000,4.000000,4.000000,4.000000,83.333336,,,,,,,,,,,,,,,,,,,,,,,,,,,,,,,,,,,,,,,,,,,,,,,,,,,,,,,,,,,,,,,,,,,,,,,,,,,,,,,,,,,,,,,,,,,,,,,,,,,,,,,,,,,,,,,,,,,,,
1768210987.117523,1768210987.118246,57.000000,0.000000,4367.179688,4334.230957,4333.974121,4355.128418,4321.153809,4305.384766,4296.025879,4305.384766,4301.666504,4305.000000,4509.230957,4491.666504,4425.256348,4459.358887,0.000000,4.000000,80.000000,,,,0.000000,2.000000,4.000000,4.000000,4.000000,4.000000,4.000000,4.000000,4.000000,4.000000,4.000000,4.000000,4.000000,4.000000,4.000000,83.333336,,,,,,,,,,,,,,,,,,,,,,,,,,,,,,,,,,,,,,,,,,,,,,,,,,,,,,,,,,,,,,,,,,,,,,,,,,,,,,,,,,,,,,,,,,,,,,,,,,,,,,,,,,,,,,,,,,,,,
1768210987.125331,1768210987.126154,58.000000,0.000000,4366.794922,4337.051270,4329.230957,4353.333496,4321.282227,4303.589844,4294.487305,4310.384766,4300.897461,4308.974121,4506.025879,4488.333496,4423.589844,4452.563965,0.000000,4.000000,80.000000,,,,0.000000,2.000000,4.000000,4.000000,4.000000,4.000000,4.000000,4.000000,4.000000,4.000000,4.000000,4.000000,4.000000,4.000000,4.000000,83.333336,,,,,,,,,,,,,,,,,,,,,,,,,,,,,,,,,,,,,,,,,,,,,,,,,,,,,,,,,,,,,,,,,,,,,,,,,,,,,,,,,,,,,,,,,,,,,,,,,,,,,,,,,,,,,,,,,,,,,
1768210987.133140,1768210987.133963,59.000000,0.000000,4367.948730,4331.025879,4330.897461,4345.641113,4318.717773,4307.563965,4301.666504,4311.153809,4297.436035,4293.077148,4494.487305,4485.769043,4403.589844,4444.871582,0.000000,4.000000,80.000000,,,,0.000000,2.000000,4.000000,4.000000,4.000000,4.000000,4.000000,4.000000,4.000000,4.000000,4.000000,4.000000,4.000000,4.000000,4.000000,83.333336,,,,,,,,,,,,,,,,,,,,,,,,,,,,,,,,,,,,,,,,,,,,,,,,,,,,,,,,,,,,,,,,,,,,,,,,,,,,,,,,,,,,,,,,,,,,,,,,,,,,,,,,,,,,,,,,,,,,,
1768210987.140948,1768210987.141971,60.000000,0.000000,4363.717773,4322.692383,4332.563965,4342.692383,4318.333496,4313.077148,4307.436035,4305.512695,4301.153809,4292.563965,4487.820313,4482.820313,4397.820313,4445.512695,0.000000,4.000000,80.000000,,,,0.000000,2.000000,4.000000,4.000000,4.000000,4.000000,4.000000,4.000000,4.000000,4.000000,4.000000,4.000000,4.000000,4.000000,4.000000,83.333336,,,,,,,,,,,,,,,,,,,,,,,,,,,,,,,,,,,,,,,,,,,,,,,,,,,,,,,,,,,,,,,,,,,,,,,,,,,,,,,,,,,,,,,,,,,,,,,,,,,,,,,,,,,,,,,,,,,,,
1768210987.148757,1768210987.149779,61.000000,0.000000,4360.384766,4323.846191,4329.230957,4342.307617,4318.717773,4313.974121,4313.461426,4316.153809,4312.436035,4298.205078,4495.769043,4486.666504,4408.717773,4454.230957,0.000000,4.000000,80.000000,,,,0.000000,2.000000,4.000000,4.000000,4.000000,4.000000,4.000000,4.000000,4.000000,4.000000,4.000000,4.000000,4.000000,4.000000,4.000000,83.333336,,,,,,,,,,,,,,,,,,,,,,,,,,,,,,,,,,,,,,,,,,,,,,,,,,,,,,,,,,,,,,,,,,,,,,,,,,,,,,,,,,,,,,,,,,,,,,,,,,,,,,,,,,,,,,,,,,,,,
1768210987.156565,1768210987.157488,62.000000,0.000000,4363.461426,4327.563965,4329.615234,4347.179688,4321.025879,4310.512695,4311.666504,4325.897461,4317.179688,4299.615234,4511.153809,4494.358887,4418.333496,4463.205078,0.000000,4.000000,80.000000,,,,0.000000,2.000000,4.000000,4.000000,4.000000,4.000000,4.000000,4.000000,4.000000,4.000000,4.000000,4.000000,4.000000,4.000000,4.000000,83.333336,,,,,,,,,,,,,,,,,,,,,,,,,,,,,,,,,,,,,,,,,,,,,,,,,,,,,,,,,,,,,,,,,,,,,,,,,,,,,,,,,,,,,,,,,,,,,,,,,,,,,,,,,,,,,,,,,,,,,
1768210987.164374,1768210987.165296,63.000000,0.000000,4366.922852,4328.205078,4331.153809,4355.769043,4326.025879,4310.128418,4300.897461,4313.974121,4307.820313,4305.641113,4510.641113,4490.769043,4418.205078,4457.307617,0.000000,4.000000,80.000000,,,,0.000000,2.000000,4.000000,4.000000,4.000000,4.000000,4.000000,4.000000,4.000000,4.000000,4.000000,4.000000,4.000000,4.000000,4.000000,83.333336,,,,,,,,,,,,,,,,,,,,,,,,,,,,,,,,,,,,,,,,,,,,,,,,,,,,,,,,,,,,,,,,,,,,,,,,,,,,,,,,,,,,,,,,,,,,,,,,,,,,,,,,,,,,,,,,,,,,,
1768210987.172182,1768210987.172905,64.000000,0.000000,4362.307617,4326.538574,4326.025879,4354.102539,4324.358887,4311.538574,4298.205078,4302.307617,4297.051270,4310.000000,4494.230957,4482.307617,4411.282227,4440.256348,3037.000000,4.000000,80.000000,,,,0.000000,2.000000,4.000000,4.000000,4.000000,4.000000,4.000000,4.000000,4.000000,4.000000,4.000000,4.000000,4.000000,4.000000,4.000000,83.333336,,,,,,,,,,,,,,,,,,,,,,,,,,,,,,,,,,,,,,,,,,,,,,,,,,,,,,,,,,,,,,,,,,,,,,,,,,,,,,,,,,,,,,,,,,,,,,,,,,,,,,,,,,,,,,,,,,,,,
1768210987.179990,1768210987.180713,65.000000,0.000000,4358.461426,4325.128418,4324.358887,4348.333496,4321.410156,4310.384766,4301.922852,4306.153809,4297.948730,4306.282227,4495.000000,4487.436035,4410.512695,4441.282227,4078.000000,4.000000,80.000000,,,,0.000000,2.000000,4.000000,4.000000,4.000000,4.000000,4.000000,4.000000,4.000000,4.000000,4.000000,4.000000,4.000000,4.000000,4.000000,83.333336,,,,,,,,,,,,,,,,,,,,,,,,,,,,,,,,,,,,,,,,,,,,,,,,,,,,,,,,,,,,,,,,,,,,,,,,,,,,,,,,,,,,,,,,,,,,,,,,,,,,,,,,,,,,,,,,,,,,,
1768210987.187799,1768210987.188422,66.000000,0.000000,4363.461426,4329.743652,4332.051270,4354.615234,4325.897461,4309.615234,4298.205078,4310.769043,4306.666504,4298.461426,4511.282227,4496.410156,4417.436035,4458.589844,1469.000000,4.000000,80.000000,,,,0.000000,2.000000,4.000000,4.000000,4.000000,4.000000,4.000000,4.000000,4.000000,4.000000,4.000000,4.000000,4.000000,4.000000,4.000000,83.333336,,,,,,,,,,,,,,,,,,,,,,,,,,,,,,,,,,,,,,,,,,,,,,,,,,,,,,,,,,,,,,,,,,,,,,,,,,,,,,,,,,,,,,,,,,,,,,,,,,,,,,,,,,,,,,,,,,,,,
1768210987.195607,1768210987.196230,67.000000,0.000000,4365.128418,4333.461426,4335.769043,4358.717773,4326.794922,4312.179688,4297.820313,4310.000000,4303.589844,4292.051270,4507.820313,4493.461426,4411.794922,4459.230957,3944.000000,4.000000,80.000000,,,,0.000000,2.000000,4.000000,4.000000,4.000000,4.000000,4.000000,4.000000,4.000000,4.000000,4.000000,4.000000,4.000000,4.000000,4.000000,83.333336,,,,,,,,,,,,,,,,,,,,,,,,,,,,,,,,,,,,,,,,,,,,,,,,,,,,,,,,,,,,,,,,,,,,,,,,,,,,,,,,,,,,,,,,,,,,,,,,,,,,,,,,,,,,,,,,,,,,,
1768210987.203416,1768210987.204238,68.000000,0.000000,4361.025879,4328.205078,4331.538574,4351.410156,4324.102539,4312.948730,4302.948730,4307.051270,4294.487305,4296.538574,4492.436035,4489.871582,4401.922852,4444.230957,3861.000000,4.000000,80.000000,,,,0.000000,2.000000,4.000000,4.000000,4.000000,4.000000,4.000000,4.000000,4.000000,4.000000,4.000000,4.000000,4.000000,4.000000,4.000000,83.333336,,,,,,,,,,,,,,,,,,,,,,,,,,,,,,,,,,,,,,,,,,,,,,,,,,,,,,,,,,,,,,,,,,,,,,,,,,,,,,,,,,,,,,,,,,,,,,,,,,,,,,,,,,,,,,,,,,,,,
1768210987.211224,1768210987.212047,69.000000,0.000000,4359.358887,4322.307617,4325.256348,4347.820313,4326.794922,4308.974121,4296.794922,4305.641113,4296.282227,4305.897461,4492.307617,4491.666504,4408.846191,4440.641113,3391.000000,4.000000,80.000000,,,,0.000000,2.000000,4.000000,4.000000,4.000000,4.000000,4.000000,4.000000,4.000000,4.000000,4.000000,4.000000,4.000000,4.000000,4.000000,83.333336,,,,,,,,,,,,,,,,,,,,,,,,,,,,,,,,,,,,,,,,,,,,,,,,,,,,,,,,,,,,,,,,,,,,,,,,,,,,,,,,,,,,,,,,,,,,,,,,,,,,,,,,,,,,,,,,,,,,,
1768210987.219032,1768210987.219755,70.000000,0.000000,4359.230957,4321.922852,4323.589844,4348.974121,4325.512695,4307.820313,4291.025879,4307.179688,4298.333496,4299.358887,4495.000000,4489.615234,4412.051270,4445.897461,3904.000000,4.000000,80.000000,,,,0.000000,2.000000,4.000000,4.000000,4.000000,4.000000,4.000000,4.000000,4.000000,4.000000,4.000000,4.000000,4.000000,4.000000,4.000000,83.333336,,,,,,,,,,,,,,,,,,,,,,,,,,,,,,,,,,,,,,,,,,,,,,,,1.303325,0.316636,0.094436,0.069279,0.037877,2.670307,0.696247,0.125083,0.098953,0.112371,0.501064,0.179405,0.245831,0.133588,0.121170,0.551281,0.168124,0.172654,0.075239,0.095640,0.103604,0.106412,0.166529,0.071872,0.049686,0.274367,0.266831,0.215758,0.095491,0.072066,0.151948,0.349953,0.356004,0.371237,0.301248,0.282898,0.118463,0.301537,0.428913,0.165879,0.185812,0.216451,0.177249,0.214364,0.128093,0.316556,0.649779,0.570036,0.568941,0.245027,0.729267,0.454446,0.444107,0.606084,0.245030,0.563533,0.302282,0.280369,0.442610,0.174376,1.028463,0.526323,0.412496,0.592365,0.147855,1.589224,0.514547,0.495748,0.381068,0.203954
1768210987.226841,1768210987.227564,71.000000,0.000000,4357.051270,4323.846191,4325.641113,4349.487305,4321.794922,4310.512695,4297.563965,4302.692383,4295.128418,4290.128418,4488.589844,4483.461426,4398.717773,4444.615234,3932.000000,4.000000,80.000000,,,,0.000000,2.000000,4.000000,4.000000,4.000000,4.000000,4.000000,4.000000,4.000000,4.000000,4.000000,4.000000,4.000000,4.000000,4.000000,83.333336,,,,,,,,,,,,,,,,,,,,,,,,,,,,,,,,,,,,,,,,,,,,,,,,,,,,,,,,,,,,,,,,,,,,,,,,,,,,,,,,,,,,,,,,,,,,,,,,,,,,,,,,,,,,,,,,,,,,,
1768210987.234649,1768210987.235572,72.000000,0.000000,4357.563965,4327.307617,4326.666504,4347.563965,4326.025879,4310.128418,4296.538574,4297.948730,4293.205078,4292.820313,4488.077148,4478.333496,4393.589844,4436.282227,3981.000000,4.000000,80.000000,,,,0.000000,2.000000,4.000000,4.000000,4.000000,4.000000,4.000000,4.000000,4.000000,4.000000,4.000000,4.000000,4.000000,4.000000,4.000000,83.333336,,,,,,,,,,,,,,,,,,,,,,,,,,,,,,,,,,,,,,,,,,,,,,,,,,,,,,,,,,,,,,,,,,,,,,,,,,,,,,,,,,,,,,,,,,,,,,,,,,,,,,,,,,,,,,,,,,,,,
1768210987.242458,1768210987.243380,73.000000,0.000000,4355.384766,4324.615234,4324.743652,4343.205078,4326.538574,4308.333496,4290.897461,4302.820313,4294.358887,4290.128418,4489.743652,4475.128418,4399.230957,4431.794922,4054.000000,4.000000,80.000000,,,,0.000000,2.000000,4.000000,4.000000,4.000000,4.000000,4.000000,4.000000,4.000000,4.000000,4.000000,4.000000,4.000000,4.000000,4.000000,83.333336,,,,,,,,,,,,,,,,,,,,,,,,,,,,,,,,,,,,,,,,,,,,,,,,,,,,,,,,,,,,,,,,,,,,,,,,,,,,,,,,,,,,,,,,,,,,,,,,,,,,,,,,,,,,,,,,,,,,,
1768210987.250266,1768210987.251089,74.000000,0.000000,4350.641113,4315.384766,4320.256348,4338.846191,4321.666504,4311.794922,4298.717773,4308.077148,4294.743652,4285.641113,4489.615234,4479.487305,4399.358887,4436.538574,4002.000000,4.000000,80.000000,,,,0.000000,2.000000,4.000000,4.000000,4.000000,4.000000,4.000000,4.000000,4.000000,4.000000,4.000000,4.000000,4.000000,4.000000,4.000000,83.333336,,,,,,,,,,,,,,,,,,,,,,,,,,,,,,,,,,,,,,,,,,,,,,,,,,,,,,,,,,,,,,,,,,,,,,,,,,,,,,,,,,,,,,,,,,,,,,,,,,,,,,,,,,,,,,,,,,,,,
1768210987.258075,1768210987.258897,75.000000,0.000000,4352.307617,4319.358887,4322.179688,4340.000000,4323.974121,4314.871582,4307.051270,4307.436035,4294.358887,4292.436035,4491.666504,4486.922852,4398.589844,4443.974121,4039.000000,4.000000,80.000000,,,,0.000000,2.000000,4.000000,4.000000,4.000000,4.000000,4.000000,4.000000,4.000000,4.000000,4.000000,4.000000,4.000000,4.000000,4.000000,83.333336,,,,,,,,,,,,,,,,,,,,,,,,,,,,,,,,,,,,,,,,,,,,,,,,,,,,,,,,,,,,,,,,,,,,,,,,,,,,,,,,,,,,,,,,,,,,,,,,,,,,,,,,,,,,,,,,,,,,,
1768210987.265883,1768210987.266506,76.000000,0.000000,4355.128418,4337.051270,4329.230957,4345.897461,4325.897461,4310.641113,4299.358887,4303.461426,4294.743652,4297.820313,4488.717773,4481.922852,4396.922852,4441.794922,4976.000000,4.000000,80.000000,,,,0.000000,2.000000,4.000000,4.000000,4.000000,4.000000,4.000000,4.000000,4.000000,4.000000,4.000000,4.000000,4.000000,4.000000,4.000000,83.333336,,,,,,,,,,,,,,,,,,,,,,,,,,,,,,,,,,,,,,,,,,,,,,,,,,,,,,,,,,,,,,,,,,,,,,,,,,,,,,,,,,,,,,,,,,,,,,,,,,,,,,,,,,,,,,,,,,,,,
1768210987.273692,1768210987.274314,77.000000,0.000000,4355.512695,4345.000000,4331.922852,4351.282227,4324.102539,4310.256348,4294.743652,4300.769043,4292.820313,4293.461426,4483.461426,4478.461426,4389.615234,4435.641113,3720.000000,4.000000,80.000000,,,,0.000000,2.000000,4.000000,4.000000,4.000000,4.000000,4.000000,4.000000,4.000000,4.000000,4.000000,4.000000,4.000000,4.000000,4.000000,83.333336,,,,,,,,,,,,,,,,,,,,,,,,,,,,,,,,,,,,,,,,,,,,,,,,,,,,,,,,,,,,,,,,,,,,,,,,,,,,,,,,,,,,,,,,,,,,,,,,,,,,,,,,,,,,,,,,,,,,,
1768210987.281500,1768210987.282023,78.000000,0.000000,4353.717773,4342.307617,4328.846191,4349.743652,4325.128418,4314.743652,4306.538574,4305.512695,4295.769043,4291.538574,4488.077148,4488.589844,4388.077148,4439.230957,4002.000000,4.000000,80.000000,,,,0.000000,2.000000,4.000000,4.000000,4.000000,4.000000,4.000000,4.000000,4.000000,4.000000,4.000000,4.000000,4.000000,4.000000,4.000000,83.333336,,,,,,,,,,,,,,,,,,,,,,,,,,,,,,,,,,,,,,,,,,,,,,,,,,,,,,,,,,,,,,,,,,,,,,,,,,,,,,,,,,,,,,,,,,,,,,,,,,,,,,,,,,,,,,,,,,,,,
1768210987.289308,1768210987.289831,79.000000,0.000000,4351.410156,4347.692383,4326.666504,4343.717773,4325.256348,4314.358887,4312.563965,4313.205078,4305.256348,4295.641113,4499.102539,4496.922852,4398.589844,4449.615234,4039.000000,4.000000,80.000000,,,,0.000000,2.000000,4.000000,4.000000,4.000000,4.000000,4.000000,4.000000,4.000000,4.000000,4.000000,4.000000,4.000000,4.000000,4.000000,83.333336,,,,,,,,,,,,,,,,,,,,,,,,,,,,,,,,,,,,,,,,,,,,,,,,,,,,,,,,,,,,,,,,,,,,,,,,,,,,,,,,,,,,,,,,,,,,,,,,,,,,,,,,,,,,,,,,,,,,,
1768210987.297117,1768210987.297839,80.000000,0.000000,4352.051270,4353.589844,4326.153809,4345.128418,4325.128418,4314.230957,4308.333496,4312.563965,4312.051270,4301.410156,4504.487305,4494.743652,4411.794922,4452.436035,4976.000000,4.000000,80.000000,,,,0.000000,2.000000,4.000000,4.000000,4.000000,4.000000,4.000000,4.000000,4.000000,4.000000,4.000000,4.000000,4.000000,4.000000,4.000000,83.333336,,,,,,,,,,,,,,,,,,,,,,,,,,,,,,,,,,,,,,,,,,,,,,,,,,,,,,,,,,,,,,,,,,,,,,,,,,,,,,,,,,,,,,,,,,,,,,,,,,,,,,,,,,,,,,,,,,,,,
1768210987.304925,1768210987.305648,81.000000,0.000000,4352.948730,4348.589844,4325.256348,4348.846191,4328.333496,4317.820313,4304.615234,4309.871582,4306.153809,4295.128418,4502.820313,4488.205078,4413.717773,4444.358887,3720.000000,4.000000,80.000000,,,,0.000000,2.000000,4.000000,4.000000,4.000000,4.000000,4.000000,4.000000,4.000000,4.000000,4.000000,4.000000,4.000000,4.000000,4.000000,83.333336,,,,,,,,,,,,,,,,,,,,,,,,,,,,,,,,,,,,,,,,,,,,,,,,,,,,,,,,,,,,,,,,,,,,,,,,,,,,,,,,,,,,,,,,,,,,,,,,,,,,,,,,,,,,,,,,,,,,,
1768210987.312734,1768210987.313556,82.000000,0.000000,4352.051270,4344.487305,4329.102539,4345.641113,4328.846191,4313.846191,4299.102539,4310.000000,4295.512695,4281.538574,4496.153809,4483.077148,4405.000000,4441.282227,4002.000000,4.000000,80.000000,,,,0.000000,2.000000,4.000000,4.000000,4.000000,4.000000,4.000000,4.000000,4.000000,4.000000,4.000000,4.000000,4.000000,4.000000,4.000000,83.333336,,,,,,,,,,,,,,,,,,,,,,,,,,,,,,,,,,,,,,,,,,,,,,,,,,,,,,,,,,,,,,,,,,,,,,,,,,,,,,,,,,,,,,,,,,,,,,,,,,,,,,,,,,,,,,,,,,,,,
1768210987.320542,1768210987.321364,83.000000,0.000000,4353.461426,4346.153809,4332.692383,4342.051270,4326.538574,4310.128418,4298.846191,4309.871582,4300.769043,4285.256348,4495.256348,4482.436035,4398.205078,4446.922852,4039.000000,4.000000,80.000000,,,,0.000000,2.000000,4.000000,4.000000,4.000000,4.000000,4.000000,4.000000,4.000000,4.000000,4.000000,4.000000,4.000000,4.000000,4.000000,83.333336,,,,,,,,,,,,,,,,,,,,,,,,,,,,,,,,,,,,,,,,,,,,,,,,,,,,,,,,,,,,,,,,,,,,,,,,,,,,,,,,,,,,,,,,,,,,,,,,,,,,,,,,,,,,,,,,,,,,,
1768210987.328350,1768210987.329373,84.000000,0.000000,4354.230957,4345.512695,4330.000000,4344.230957,4326.794922,4318.846191,4307.179688,4311.153809,4309.615234,4298.205078,4503.333496,4481.410156,4396.666504,4446.794922,4976.000000,4.000000,80.000000,,,,0.000000,2.000000,4.000000,4.000000,4.000000,4.000000,4.000000,4.000000,4.000000,4.000000,4.000000,4.000000,4.000000,4.000000,4.000000,83.333336,,,,,,,,,,,,,,,,,,,,,,,,,,,,,,,,,,,,,,,,,,,,,,,,,,,,,,,,,,,,,,,,,,,,,,,,,,,,,,,,,,,,,,,,,,,,,,,,,,,,,,,,,,,,,,,,,,,,,
1768210987.336159,1768210987.337181,85.000000,0.000000,4348.589844,4343.846191,4325.897461,4345.384766,4326.666504,4321.666504,4306.410156,4311.410156,4303.461426,4296.666504,4502.436035,4474.102539,4396.282227,4441.025879,3720.000000,4.000000,80.000000,,,,0.000000,2.000000,4.000000,4.000000,4.000000,4.000000,4.000000,4.000000,4.000000,4.000000,4.000000,4.000000,4.000000,4.000000,4.000000,83.333336,,,,,,,,,,,,,,,,,,,,,,,,,,,,,,,,,,,,,,,,,,,,,,,,,,,,,,,,,,,,,,,,,,,,,,,,,,,,,,,,,,,,,,,,,,,,,,,,,,,,,,,,,,,,,,,,,,,,,
1768210987.343967,1768210987.344890,86.000000,0.000000,4345.769043,4342.436035,4326.153809,4341.922852,4321.538574,4312.051270,4299.358887,4310.769043,4299.102539,4290.128418,4490.897461,4469.487305,4393.974121,4437.820313,4002.000000,4.000000,80.000000,,,,0.000000,2.000000,4.000000,4.000000,4.000000,4.000000,4.000000,4.000000,4.000000,4.000000,4.000000,4.000000,4.000000,4.000000,4.000000,83.333336,1.000000,83.333336,2.000000,4.000000,4.000000,4.000000,4.000000,4.000000,4.000000,4.000000,4.000000,4.000000,4.000000,4.000000,4.000000,4.000000,,,,,,,,,,,,,,,,,,,,,,,,,,,,,,,,1.553657,0.339265,0.091347,0.064921,0.033998,2.320145,0.605886,0.126303,0.108461,0.099768,0.353672,0.171936,0.285033,0.134511,0.114609,0.392624,0.174379,0.191236,0.083625,0.099191,0.109231,0.092133,0.204080,0.073499,0.043695,0.298593,0.204933,0.206428,0.078627,0.065306,0.184580,0.371558,0.400269,0.351796,0.284353,0.262541,0.119992,0.283268,0.444774,0.154510,0.207699,0.198118,0.147381,0.219557,0.107160,0.294095,0.523215,0.546059,0.584741,0.237485,0.602311,0.393753,0.502909,0.682034,0.256618,0.594323,0.364481,0.286455,0.526005,0.185391,0.696919,0.483620,0.437510,0.682519,0.152065,0.881800,0.482273,0.511777,0.415353,0.222450
1768210987.351776,1768210987.352698,87.000000,0.000000,4347.051270,4338.461426,4325.897461,4338.333496,4315.256348,4309.871582,4301.153809,4313.077148,4307.307617,4291.794922,4491.025879,4470.769043,4393.846191,4440.897461,4039.000000,4.000000,80.000000,,,,0.000000,2.000000,4.000000,4.000000,4.000000,4.000000,4.000000,4.000000,4.000000,4.000000,4.000000,4.000000,4.000000,4.000000,4.000000,83.333336,,,,,,,,,,,,,,,,,,,,,,,,,,,,,,,,,,,,,,,,,,,,,,,,,,,,,,,,,,,,,,,,,,,,,,,,,,,,,,,,,,,,,,,,,,,,,,,,,,,,,,,,,,,,,,,,,,,,,
1768210987.359584,1768210987.360307,88.000000,0.000000,4347.051270,4338.461426,4324.871582,4338.333496,4315.384766,4315.897461,4307.692383,4313.974121,4308.589844,4295.128418,4504.615234,4475.897461,4401.153809,4445.128418,4976.000000,4.000000,80.000000,,,,0.000000,2.000000,4.000000,4.000000,4.000000,4.000000,4.000000,4.000000,4.000000,4.000000,4.000000,4.000000,4.000000,4.000000,4.000000,83.333336,,,,,,,,,,,,,,,,,,,,,,,,,,,,,,,,,,,,,,,,,,,,,,,,,,,,,,,,,,,,,,,,,,,,,,,,,,,,,,,,,,,,,,,,,,,,,,,,,,,,,,,,,,,,,,,,,,,,,
1768210987.367393,1768210987.368115,89.000000,0.000000,4346.282227,4340.128418,4331.410156,4341.538574,4319.230957,4318.205078,4308.846191,4311.153809,4304.102539,4296.538574,4504.358887,4479.743652,4398.205078,4443.589844,3720.000000,4.000000,80.000000,,,,0.000000,2.000000,4.000000,4.000000,4.000000,4.000000,4.000000,4.000000,4.000000,4.000000,4.000000,4.000000,4.000000,4.000000,4.000000,83.333336,,,,,,,,,,,,,,,,,,,,,,,,,,,,,,,,,,,,,,,,,,,,,,,,,,,,,,,,,,,,,,,,,,,,,,,,,,,,,,,,,,,,,,,,,,,,,,,,,,,,,,,,,,,,,,,,,,,,,
1768210987.375201,1768210987.375824,90.000000,0.000000,4344.615234,4336.794922,4333.333496,4341.922852,4320.384766,4320.897461,4310.128418,4312.051270,4307.307617,4295.000000,4495.000000,4476.794922,4388.461426,4441.794922,4002.000000,4.000000,80.000000,,,,0.000000,2.000000,4.000000,4.000000,4.000000,4.000000,4.000000,4.000000,4.000000,4.000000,4.000000,4.000000,4.000000,4.000000,4.000000,83.333336,,,,,,,,,,,,,,,,,,,,,,,,,,,,,,,,,,,,,,,,,,,,,,,,,,,,,,,,,,,,,,,,,,,,,,,,,,,,,,,,,,,,,,,,,,,,,,,,,,,,,,,,,,,,,,,,,,,,,
1768210987.383010,1768210987.383632,91.000000,0.000000,4346.025879,4337.820313,4327.051270,4341.538574,4321.025879,4323.077148,4311.666504,4315.512695,4309.358887,4293.461426,4499.743652,4474.615234,4401.153809,4444.743652,4039.000000,4.000000,80.000000,,,,0.000000,2.000000,4.000000,4.000000,4.000000,4.000000,4.000000,4.000000,4.000000,4.000000,4.000000,4.000000,4.000000,4.000000,4.000000,83.333336,,,,,,,,,,,,,,,,,,,,,,,,,,,,,,,,,,,,,,,,,,,,,,,,,,,,,,,,,,,,,,,,,,,,,,,,,,,,,,,,,,,,,,,,,,,,,,,,,,,,,,,,,,,,,,,,,,,,,
1768210987.390818,1768210987.391241,92.000000,0.000000,4348.333496,4343.461426,4326.538574,4342.948730,4324.102539,4315.512695,4301.153809,4310.641113,4307.948730,4294.743652,4508.717773,4476.153809,4418.333496,4444.102539,4976.000000,4.000000,80.000000,,,,0.000000,2.000000,4.000000,4.000000,4.000000,4.000000,4.000000,4.000000,4.000000,4.000000,4.000000,4.000000,4.000000,4.000000,4.000000,83.333336,,,,,,,,,,,,,,,,,,,,,,,,,,,,,,,,,,,,,,,,,,,,,,,,,,,,,,,,,,,,,,,,,,,,,,,,,,,,,,,,,,,,,,,,,,,,,,,,,,,,,,,,,,,,,,,,,,,,,
1768210987.398626,1768210987.399049,93.000000,0.000000,4346.282227,4341.025879,4329.487305,4342.051270,4321.794922,4308.717773,4292.051270,4304.871582,4310.000000,4296.794922,4507.563965,4480.769043,4413.974121,4442.692383,3720.000000,4.000000,80.000000,,,,0.000000,2.000000,4.000000,4.000000,4.000000,4.000000,4.000000,4.000000,4.000000,4.000000,4.000000,4.000000,4.000000,4.000000,4.000000,83.333336,,,,,,,,,,,,,,,,,,,,,,,,,,,,,,,,,,,,,,,,,,,,,,,,,,,,,,,,,,,,,,,,,,,,,,,,,,,,,,,,,,,,,,,,,,,,,,,,,,,,,,,,,,,,,,,,,,,,,
1768210987.406435,1768210987.406958,94.000000,0.000000,4346.025879,4333.461426,4331.025879,4341.025879,4317.563965,4312.820313,4303.589844,4314.487305,4314.230957,4307.179688,4507.948730,4490.384766,4409.230957,4453.589844,4002.000000,4.000000,80.000000,,,,0.000000,2.000000,4.000000,4.000000,4.000000,4.000000,4.000000,4.000000,4.000000,4.000000,4.000000,4.000000,4.000000,4.000000,4.000000,83.333336,,,,,,,,,,,,,,,,,,,,,,,,,,,,,,,,,,,,,,,,,,,,,,,,,,,,,,,,,,,,,,,,,,,,,,,,,,,,,,,,,,,,,,,,,,,,,,,,,,,,,,,,,,,,,,,,,,,,,
1768210987.414243,1768210987.414766,95.000000,0.000000,4347.692383,4330.256348,4332.179688,4343.077148,4318.717773,4317.820313,4314.743652,4321.153809,4314.871582,4308.974121,4509.871582,4492.692383,4415.512695,4458.589844,4039.000000,4.000000,80.000000,,,,0.000000,2.000000,4.000000,4.000000,4.000000,4.000000,4.000000,4.000000,4.000000,4.000000,4.000000,4.000000,4.000000,4.000000,4.000000,83.333336,,,,,,,,,,,,,,,,,,,,,,,,,,,,,,,,,,,,,,,,,,,,,,,,,,,,,,,,,,,,,,,,,,,,,,,,,,,,,,,,,,,,,,,,,,,,,,,,,,,,,,,,,,,,,,,,,,,,,
1768210987.422052,1768210987.422774,96.000000,0.000000,4345.512695,4328.333496,4330.641113,4342.436035,4316.666504,4312.692383,4307.948730,4311.410156,4310.384766,4295.769043,4505.128418,4484.487305,4413.974121,4448.461426,4976.000000,4.000000,80.000000,,,,0.000000,2.000000,4.000000,4.000000,4.000000,4.000000,4.000000,4.000000,4.000000,4.000000,4.000000,4.000000,4.000000,4.000000,4.000000,83.333336,,,,,,,,,,,,,,,,,,,,,,,,,,,,,,,,,,,,,,,,,,,,,,,,,,,,,,,,,,,,,,,,,,,,,,,,,,,,,,,,,,,,,,,,,,,,,,,,,,,,,,,,,,,,,,,,,,,,,
1768210987.429860,1768210987.430583,97.000000,0.000000,4344.615234,4326.666504,4326.666504,4338.333496,4311.025879,4311.794922,4308.205078,4310.897461,4310.000000,4297.563965,4504.102539,4483.974121,4403.589844,4443.846191,3720.000000,4.000000,80.000000,,,,0.000000,2.000000,4.000000,4.000000,4.000000,4.000000,4.000000,4.000000,4.000000,4.000000,4.000000,4.000000,4.000000,4.000000,4.000000,83.333336,,,,,,,,,,,,,,,,,,,,,,,,,,,,,,,,,,,,,,,,,,,,,,,,,,,,,,,,,,,,,,,,,,,,,,,,,,,,,,,,,,,,,,,,,,,,,,,,,,,,,,,,,,,,,,,,,,,,,
1768210987.437668,1768210987.438491,98.000000,0.000000,4345.641113,4325.512695,4330.897461,4337.307617,4312.692383,4318.461426,4315.512695,4318.846191,4312.051270,4310.512695,4505.128418,4487.820313,4395.769043,4446.666504,4002.000000,4.000000,80.000000,,,,0.000000,2.000000,4.000000,4.000000,4.000000,4.000000,4.000000,4.000000,4.000000,4.000000,4.000000,4.000000,4.000000,4.000000,4.000000,83.333336,,,,,,,,,,,,,,,,,,,,,,,,,,,,,,,,,,,,,,,,,,,,,,,,,,,,,,,,,,,,,,,,,,,,,,,,,,,,,,,,,,,,,,,,,,,,,,,,,,,,,,,,,,,,,,,,,,,,,
1768210987.445477,1768210987.446300,99.000000,0.000000,4346.922852,4325.512695,4337.563965,4339.871582,4320.769043,4317.179688,4310.512695,4314.102539,4310.128418,4306.794922,4502.820313,4485.256348,4399.487305,4451.153809,4039.000000,4.000000,80.000000,,,,0.000000,2.000000,4.000000,4.000000,4.000000,4.000000,4.000000,4.000000,4.000000,4.000000,4.000000,4.000000,4.000000,4.000000,4.000000,83.333336,,,,,,,,,,,,,,,,,,,,,,,,,,,,,,,,,,,,,,,,,,,,,,,,,,,,,,,,,,,,,,,,,,,,,,,,,,,,,,,,,,,,,,,,,,,,,,,,,,,,,,,,,,,,,,,,,,,,,
1768210987.453285,1768210987.454308,100.000000,0.000000,4348.589844,4327.563965,4333.205078,4341.282227,4323.717773,4311.666504,4306.538574,4310.512695,4309.615234,4302.307617,4503.589844,4485.641113,4408.077148,4455.000000,4976.000000,4.000000,80.000000,,,,0.000000,2.000000,4.000000,4.000000,4.000000,4.000000,4.000000,4.000000,4.000000,4.000000,4.000000,4.000000,4.000000,4.000000,4.000000,83.333336,,,,,,,,,,,,,,,,,,,,,,,,,,,,,,,,,,,,,,,,,,,,,,,,,,,,,,,,,,,,,,,,,,,,,,,,,,,,,,,,,,,,,,,,,,,,,,,,,,,,,,,,,,,,,,,,,,,,,
1768210987.461094,1768210987.462116,101.000000,0.000000,4345.897461,4326.025879,4326.538574,4338.461426,4317.563965,4311.538574,4309.615234,4320.000000,4313.846191,4309.487305,4509.743652,4491.666504,4408.077148,4451.922852,3720.000000,4.000000,80.000000,,,,0.000000,2.000000,4.000000,4.000000,4.000000,4.000000,4.000000,4.000000,4.000000,4.000000,4.000000,4.000000,4.000000,4.000000,4.000000,83.333336,,,,,,,,,,,,,,,,,,,,,,,,,,,,,,,,,,,,,,,,,,,,,,,,,,,,,,,,,,,,,,,,,,,,,,,,,,,,,,,,,,,,,,,,,,,,,,,,,,,,,,,,,,,,,,,,,,,,,
1768210987.468902,1768210987.469825,102.000000,0.000000,4342.051270,4318.461426,4325.641113,4333.333496,4315.256348,4314.102539,4308.974121,4323.333496,4313.461426,4305.384766,4506.025879,4492.692383,4403.717773,4444.871582,4002.000000,4.000000,80.000000,,,,0.000000,2.000000,4.000000,4.000000,4.000000,4.000000,4.000000,4.000000,4.000000,4.000000,4.000000,4.000000,4.000000,4.000000,4.000000,83.333336,,,,,,,,,,,,,,,,,,,,,,,,,,,,,,,,,,,,,,,,,,,,,,,,1.890766,0.369211,0.087979,0.060545,0.032492,2.020902,0.532336,0.138293,0.110739,0.085517,0.270132,0.164045,0.312326,0.129911,0.103556,0.289792,0.195291,0.203027,0.088015,0.101716,0.122577,0.072251,0.226622,0.069120,0.038964,0.318954,0.168648,0.197268,0.065690,0.062606,0.222206,0.383435,0.443106,0.317221,0.271909,0.261652,0.118469,0.242612,0.424430,0.144297,0.245136,0.191884,0.123305,0.213532,0.091174,0.270109,0.414613,0.507044,0.556789,0.232744,0.511994,0.351159,0.521635,0.693144,0.259849,0.633214,0.424550,0.272640,0.557127,0.199488,0.456445,0.477327,0.449505,0.706345,0.162310,0.497076,0.436110,0.487916,0.424138,0.251604
1768210987.476711,1768210987.477633,103.000000,0.000000,4342.948730,4315.641113,4326.794922,4333.077148,4318.461426,4316.666504,4308.333496,4313.333496,4308.717773,4291.666504,4494.487305,4489.102539,4394.743652,4443.589844,4039.000000,4.000000,80.000000,,,,0.000000,2.000000,4.000000,4.000000,4.000000,4.000000,4.000000,4.000000,4.000000,4.000000,4.000000,4.000000,4.000000,4.000000,4.000000,83.333336,,,,,,,,,,,,,,,,,,,,,,,,,,,,,,,,,,,,,,,,,,,,,,,,,,,,,,,,,,,,,,,,,,,,,,,,,,,,,,,,,,,,,,,,,,,,,,,,,,,,,,,,,,,,,,,,,,,,,
1768210987.484519,1768210987.485641,104.000000,0.000000,4344.615234,4320.128418,4329.102539,4338.589844,4315.897461,4320.128418,4312.051270,4309.871582,4310.128418,4289.743652,4496.282227,4490.000000,4386.025879,4447.820313,4976.000000,4.000000,80.000000,,,,0.000000,2.000000,4.000000,4.000000,4.000000,4.000000,4.000000,4.000000,4.000000,4.000000,4.000000,4.000000,4.000000,4.000000,4.000000,83.333336,,,,,,,,,,,,,,,,,,,,,,,,,,,,,,,,,,,,,,,,,,,,,,,,,,,,,,,,,,,,,,,,,,,,,,,,,,,,,,,,,,,,,,,,,,,,,,,,,,,,,,,,,,,,,,,,,,,,,
1768210987.492328,1768210987.493449,105.000000,0.000000,4345.000000,4320.384766,4333.846191,4341.922852,4311.666504,4321.794922,4314.871582,4316.922852,4311.538574,4292.948730,4506.666504,4493.846191,4388.974121,4448.717773,3720.000000,4.000000,80.000000,,,,0.000000,2.000000,4.000000,4.000000,4.000000,4.000000,4.000000,4.000000,4.000000,4.000000,4.000000,4.000000,4.000000,4.000000,4.000000,83.333336,,,,,,,,,,,,,,,,,,,,,,,,,,,,,,,,,,,,,,,,,,,,,,,,,,,,,,,,,,,,,,,,,,,,,,,,,,,,,,,,,,,,,,,,,,,,,,,,,,,,,,,,,,,,,,,,,,,,,
1768210987.500136,1768210987.501358,106.000000,0.000000,4346.922852,4319.102539,4337.179688,4340.641113,4311.666504,4317.563965,4311.153809,4322.051270,4306.538574,4299.487305,4508.205078,4495.769043,4400.256348,4449.358887,4002.000000,4.000000,80.000000,,,,0.000000,2.000000,4.000000,4.000000,4.000000,4.000000,4.000000,4.000000,4.000000,4.000000,4.000000,4.000000,4.000000,4.000000,4.000000,83.333336,,,,,,,,,,,,,,,,,,,,,,,,,,,,,,,,,,,,,,,,,,,,,,,,,,,,,,,,,,,,,,,,,,,,,,,,,,,,,,,,,,,,,,,,,,,,,,,,,,,,,,,,,,,,,,,,,,,,,
1768210987.507944,1768210987.509166,107.000000,0.000000,4348.333496,4323.846191,4337.563965,4340.384766,4311.282227,4311.153809,4310.384766,4323.717773,4309.871582,4302.948730,4505.897461,4499.102539,4405.128418,4452.820313,4039.000000,4.000000,80.000000,,,,0.000000,2.000000,4.000000,4.000000,4.000000,4.000000,4.000000,4.000000,4.000000,4.000000,4.000000,4.000000,4.000000,4.000000,4.000000,83.333336,,,,,,,,,,,,,,,,,,,,,,,,,,,,,,,,,,,,,,,,,,,,,,,,,,,,,,,,,,,,,,,,,,,,,,,,,,,,,,,,,,,,,,,,,,,,,,,,,,,,,,,,,,,,,,,,,,,,,
1768210987.515753,1768210987.517175,108.000000,0.000000,4347.692383,4328.205078,4341.410156,4343.077148,4315.256348,4313.077148,4319.615234,4328.077148,4317.948730,4298.461426,4508.333496,4502.051270,4398.205078,4455.128418,4976.000000,4.000000,80.000000,,,,0.000000,2.000000,4.000000,4.000000,4.000000,4.000000,4.000000,4.000000,4.000000,4.000000,4.000000,4.000000,4.000000,4.000000,4.000000,83.333336,,,,,,,,,,,,,,,,,,,,,,,,,,,,,,,,,,,,,,,,,,,,,,,,,,,,,,,,,,,,,,,,,,,,,,,,,,,,,,,,,,,,,,,,,,,,,,,,,,,,,,,,,,,,,,,,,,,,,
1768210987.523561,1768210987.524983,109.000000,0.000000,4349.102539,4328.846191,4342.692383,4344.102539,4319.743652,4317.436035,4315.256348,4325.000000,4314.230957,4299.743652,4507.692383,4499.102539,4393.077148,4455.897461,3720.000000,4.000000,80.000000,,,,0.000000,2.000000,4.000000,4.000000,4.000000,4.000000,4.000000,4.000000,4.000000,4.000000,4.000000,4.000000,4.000000,4.000000,4.000000,83.333336,,,,,,,,,,,,,,,,,,,,,,,,,,,,,,,,,,,,,,,,,,,,,,,,,,,,,,,,,,,,,,,,,,,,,,,,,,,,,,,,,,,,,,,,,,,,,,,,,,,,,,,,,,,,,,,,,,,,,
1768210987.531370,1768210987.532692,110.000000,0.000000,4351.922852,4328.461426,4340.641113,4341.538574,4313.974121,4312.307617,4298.974121,4313.846191,4307.307617,4305.256348,4504.358887,4493.846191,4395.897461,4455.128418,4002.000000,4.000000,80.000000,,,,0.000000,2.000000,4.000000,4.000000,4.000000,4.000000,4.000000,4.000000,4.000000,4.000000,4.000000,4.000000,4.000000,4.000000,4.000000,83.333336,,,,,,,,,,,,,,,,,,,,,,,,,,,,,,,,,,,,,,,,,,,,,,,,,,,,,,,,,,,,,,,,,,,,,,,,,,,,,,,,,,,,,,,,,,,,,,,,,,,,,,,,,,,,,,,,,,,,,
1768210987.539178,1768210987.540500,111.000000,0.000000,4348.461426,4328.589844,4340.000000,4341.025879,4311.538574,4307.051270,4298.974121,4312.307617,4309.102539,4301.922852,4503.589844,4491.282227,4393.846191,4448.846191,4039.000000,4.000000,80.000000,,,,0.000000,2.000000,4.000000,4.000000,4.000000,4.000000,4.000000,4.000000,4.000000,4.000000,4.000000,4.000000,4.000000,4.000000,4.000000,83.333336,,,,,,,,,,,,,,,,,,,,,,,,,,,,,,,,,,,,,,,,,,,,,,,,,,,,,,,,,,,,,,,,,,,,,,,,,,,,,,,,,,,,,,,,,,,,,,,,,,,,,,,,,,,,,,,,,,,,,
1768210987.546986,1768210987.548109,112.000000,0.000000,4341.410156,4332.307617,4339.230957,4343.974121,4318.077148,4312.051270,4310.384766,4318.333496,4310.897461,4292.563965,4502.563965,4491.282227,4388.461426,4440.256348,4976.000000,4.000000,80.000000,,,,0.000000,2.000000,4.000000,4.000000,4.000000,4.000000,4.000000,4.000000,4.000000,4.000000,4.000000,4.000000,4.000000,4.000000,4.000000,83.333336,,,,,,,,,,,,,,,,,,,,,,,,,,,,,,,,,,,,,,,,,,,,,,,,,,,,,,,,,,,,,,,,,,,,,,,,,,,,,,,,,,,,,,,,,,,,,,,,,,,,,,,,,,,,,,,,,,,,,
1768210987.554795,1768210987.555917,113.000000,0.000000,4343.077148,4336.666504,4339.358887,4344.871582,4313.461426,4317.948730,4321.794922,4322.436035,4311.025879,4296.922852,4504.487305,4496.282227,4394.358887,4442.820313,3720.000000,4.000000,80.000000,,,,0.000000,2.000000,4.000000,4.000000,4.000000,4.000000,4.000000,4.000000,4.000000,4.000000,4.000000,4.000000,4.000000,4.000000,4.000000,83.333336,,,,,,,,,,,,,,,,,,,,,,,,,,,,,,,,,,,,,,,,,,,,,,,,,,,,,,,,,,,,,,,,,,,,,,,,,,,,,,,,,,,,,,,,,,,,,,,,,,,,,,,,,,,,,,,,,,,,,
1768210987.562603,1768210987.563626,114.000000,0.000000,4350.128418,4332.307617,4339.358887,4342.820313,4309.102539,4316.538574,4326.538574,4320.769043,4312.820313,4304.358887,4508.205078,4499.615234,4400.000000,4449.102539,4002.000000,4.000000,80.000000,,,,0.000000,2.000000,4.000000,4.000000,4.000000,4.000000,4.000000,4.000000,4.000000,4.000000,4.000000,4.000000,4.000000,4.000000,4.000000,83.333336,,,,,,,,,,,,,,,,,,,,,,,,,,,,,,,,,,,,,,,,,,,,,,,,,,,,,,,,,,,,,,,,,,,,,,,,,,,,,,,,,,,,,,,,,,,,,,,,,,,,,,,,,,,,,,,,,,,,,
1768210987.570412,1768210987.571434,115.000000,0.000000,4350.128418,4327.179688,4335.769043,4342.307617,4318.077148,4312.179688,4316.282227,4315.000000,4310.641113,4295.641113,4504.230957,4493.205078,4394.230957,4444.871582,4039.000000,4.000000,80.000000,,,,0.000000,2.000000,4.000000,4.000000,4.000000,4.000000,4.000000,4.000000,4.000000,4.000000,4.000000,4.000000,4.000000,4.000000,4.000000,83.333336,,,,,,,,,,,,,,,,,,,,,,,,,,,,,,,,,,,,,,,,,,,,,,,,,,,,,,,,,,,,,,,,,,,,,,,,,,,,,,,,,,,,,,,,,,,,,,,,,,,,,,,,,,,,,,,,,,,,,
1768210987.578220,1768210987.579043,116.000000,0.000000,4346.153809,4326.282227,4334.102539,4343.077148,4318.846191,4310.000000,4306.282227,4316.538574,4309.615234,4294.230957,4498.589844,4488.077148,4393.077148,4441.025879,4976.000000,4.000000,80.000000,,,,0.000000,2.000000,4.000000,4.000000,4.000000,4.000000,4.000000,4.000000,4.000000,4.000000,4.000000,4.000000,4.000000,4.000000,4.000000,83.333336,,,,,,,,,,,,,,,,,,,,,,,,,,,,,,,,,,,,,,,,,,,,,,,,,,,,,,,,,,,,,,,,,,,,,,,,,,,,,,,,,,,,,,,,,,,,,,,,,,,,,,,,,,,,,,,,,,,,,
1768210987.586029,1768210987.586851,117.000000,0.000000,4347.051270,4323.205078,4336.282227,4342.820313,4310.897461,4311.922852,4314.230957,4323.717773,4312.692383,4307.179688,4502.179688,4497.948730,4397.820313,4447.948730,3720.000000,4.000000,80.000000,,,,0.000000,2.000000,4.000000,4.000000,4.000000,4.000000,4.000000,4.000000,4.000000,4.000000,4.000000,4.000000,4.000000,4.000000,4.000000,83.333336,,,,,,,,,,,,,,,,,,,,,,,,,,,,,,,,,,,,,,,,,,,,,,,,,,,,,,,,,,,,,,,,,,,,,,,,,,,,,,,,,,,,,,,,,,,,,,,,,,,,,,,,,,,,,,,,,,,,,
1768210987.593837,1768210987.594560,118.000000,0.000000,4349.743652,4320.512695,4335.384766,4341.922852,4310.000000,4310.897461,4314.102539,4323.846191,4312.051270,4308.461426,4508.461426,4509.358887,4397.563965,4452.820313,4002.000000,4.000000,80.000000,,,,0.000000,2.000000,4.000000,4.000000,4.000000,4.000000,4.000000,4.000000,4.000000,4.000000,4.000000,4.000000,4.000000,4.000000,4.000000,83.333336,,,,,,,,,,,,,,,,,,,,,,,,,,,,,,,,,,,,,,,,,,,,,,,,2.122134,0.389401,0.082473,0.055044,0.033023,1.811638,0.484898,0.155837,0.106979,0.074338,0.235866,0.158931,0.317204,0.125667,0.091998,0.236496,0.236996,0.201127,0.087530,0.104483,0.140761,0.055131,0.230019,0.060149,0.035242,0.328706,0.158284,0.187566,0.060518,0.063266,0.270075,0.389676,0.484438,0.278637,0.262065,0.292242,0.110689,0.193082,0.373094,0.137443,0.302559,0.193188,0.108487,0.197318,0.084410,0.260464,0.344438,0.452160,0.494148,0.234907,0.456499,0.339245,0.494099,0.634422,0.256957,0.655238,0.481891,0.241733,0.527151,0.213168,0.325796,0.509361,0.441374,0.657975,0.178748,0.353082,0.384394,0.428952,0.403407,0.284880
1768210987.601646,1768210987.602368,119.000000,0.000000,4347.692383,4321.794922,4334.102539,4340.128418,4311.153809,4308.846191,4304.743652,4320.897461,4309.871582,4297.692383,4509.487305,4503.717773,4396.538574,4448.077148,4039.000000,4.000000,80.000000,,,,0.000000,2.000000,4.000000,4.000000,4.000000,4.000000,4.000000,4.000000,4.000000,4.000000,4.000000,4.000000,4.000000,4.000000,4.000000,83.333336,,,,,,,,,,,,,,,,,,,,,,,,,,,,,,,,,,,,,,,,,,,,,,,,,,,,,,,,,,,,,,,,,,,,,,,,,,,,,,,,,,,,,,,,,,,,,,,,,,,,,,,,,,,,,,,,,,,,,
1768210987.609454,1768210987.609977,120.000000,0.000000,4342.820313,4323.077148,4335.512695,4338.333496,4308.974121,4310.256348,4306.025879,4321.153809,4309.615234,4297.436035,4507.563965,4494.358887,4397.563965,4444.358887,4976.000000,4.000000,80.000000,,,,0.000000,2.000000,4.000000,4.000000,4.000000,4.000000,4.000000,4.000000,4.000000,4.000000,4.000000,4.000000,4.000000,4.000000,4.000000,83.333336,,,,,,,,,,,,,,,,,,,,,,,,,,,,,,,,,,,,,,,,,,,,,,,,,,,,,,,,,,,,,,,,,,,,,,,,,,,,,,,,,,,,,,,,,,,,,,,,,,,,,,,,,,,,,,,,,,,,,
1768210987.617262,1768210987.617785,121.000000,0.000000,4341.282227,4317.563965,4332.948730,4336.666504,4308.717773,4314.487305,4309.358887,4319.230957,4311.410156,4307.436035,4511.153809,4497.051270,4397.563965,4448.589844,3720.000000,4.000000,80.000000,,,,0.000000,2.000000,4.000000,4.000000,4.000000,4.000000,4.000000,4.000000,4.000000,4.000000,4.000000,4.000000,4.000000,4.000000,4.000000,83.333336,,,,,,,,,,,,,,,,,,,,,,,,,,,,,,,,,,,,,,,,,,,,,,,,,,,,,,,,,,,,,,,,,,,,,,,,,,,,,,,,,,,,,,,,,,,,,,,,,,,,,,,,,,,,,,,,,,,,,
1768210987.625071,1768210987.625694,122.000000,0.000000,4341.410156,4310.769043,4328.589844,4334.102539,4311.794922,4322.948730,4318.589844,4322.436035,4317.563965,4310.384766,4517.179688,4500.769043,4399.102539,4453.077148,4002.000000,4.000000,80.000000,,,,0.000000,2.000000,4.000000,4.000000,4.000000,4.000000,4.000000,4.000000,4.000000,4.000000,4.000000,4.000000,4.000000,4.000000,4.000000,83.333336,,,,,,,,,,,,,,,,,,,,,,,,,,,,,,,,,,,,,,,,,,,,,,,,,,,,,,,,,,,,,,,,,,,,,,,,,,,,,,,,,,,,,,,,,,,,,,,,,,,,,,,,,,,,,,,,,,,,,
1768210987.632879,1768210987.633502,123.000000,0.000000,4339.871582,4315.128418,4327.436035,4334.230957,4313.077148,4322.948730,4325.384766,4328.846191,4321.410156,4302.820313,4514.615234,4495.897461,4402.051270,4448.461426,4039.000000,4.000000,80.000000,,,,0.000000,2.000000,4.000000,4.000000,4.000000,4.000000,4.000000,4.000000,4.000000,4.000000,4.000000,4.000000,4.000000,4.000000,4.000000,83.333336,,,,,,,,,,,,,,,,,,,,,,,,,,,,,,,,,,,,,,,,,,,,,,,,,,,,,,,,,,,,,,,,,,,,,,,,,,,,,,,,,,,,,,,,,,,,,,,,,,,,,,,,,,,,,,,,,,,,,
1768210987.640688,1768210987.641510,124.000000,0.000000,4338.846191,4319.871582,4326.282227,4339.487305,4313.589844,4312.436035,4313.589844,4325.256348,4315.000000,4297.436035,4507.307617,4491.282227,4400.256348,4444.871582,4976.000000,4.000000,80.000000,,,,0.000000,2.000000,4.000000,4.000000,4.000000,4.000000,4.000000,4.000000,4.000000,4.000000,4.000000,4.000000,4.000000,4.000000,4.000000,83.333336,,,,,,,,,,,,,,,,,,,,,,,,,,,,,,,,,,,,,,,,,,,,,,,,,,,,,,,,,,,,,,,,,,,,,,,,,,,,,,,,,,,,,,,,,,,,,,,,,,,,,,,,,,,,,,,,,,,,,
1768210987.648496,1768210987.649319,125.000000,0.000000,4342.179688,4312.307617,4327.563965,4340.128418,4310.000000,4307.820313,4308.077148,4320.512695,4310.512695,4304.487305,4505.769043,4494.358887,4396.025879,4447.307617,3720.000000,4.000000,80.000000,,,,0.000000,2.000000,4.000000,4.000000,4.000000,4.000000,4.000000,4.000000,4.000000,4.000000,4.000000,4.000000,4.000000,4.000000,4.000000,83.333336,,,,,,,,,,,,,,,,,,,,,,,,,,,,,,,,,,,,,,,,,,,,,,,,,,,,,,,,,,,,,,,,,,,,,,,,,,,,,,,,,,,,,,,,,,,,,,,,,,,,,,,,,,,,,,,,,,,,,
1768210987.656304,1768210987.657227,126.000000,0.000000,4346.922852,4313.333496,4333.077148,4339.102539,4310.000000,4311.538574,4317.820313,4324.230957,4313.589844,4310.769043,4507.820313,4501.025879,4401.153809,4449.102539,4002.000000,4.000000,80.000000,,,,0.000000,2.000000,4.000000,4.000000,4.000000,4.000000,4.000000,4.000000,4.000000,4.000000,4.000000,4.000000,4.000000,4.000000,4.000000,83.333336,,,,,,,,,,,,,,,,,,,,,,,,,,,,,,,,,,,,,,,,,,,,,,,,,,,,,,,,,,,,,,,,,,,,,,,,,,,,,,,,,,,,,,,,,,,,,,,,,,,,,,,,,,,,,,,,,,,,,
1768210987.664113,1768210987.665036,127.000000,0.000000,4346.025879,4323.461426,4336.794922,4345.897461,4317.436035,4312.179688,4318.077148,4327.307617,4318.589844,4310.641113,4515.384766,4502.948730,4412.820313,4452.179688,80.000000,4.000000,80.000000,,,,0.000000,2.000000,4.000000,4.000000,4.000000,4.000000,4.000000,4.000000,4.000000,4.000000,4.000000,4.000000,4.000000,4.000000,4.000000,83.333336,,,,,,,,,,,,,,,,,,,,,,,,,,,,,,,,,,,,,,,,,,,,,,,,,,,,,,,,,,,,,,,,,,,,,,,,,,,,,,,,,,,,,,,,,,,,,,,,,,,,,,,,,,,,,,,,,,,,,
1768210987.671921,1768210987.673044,0.000000,0.000000,4342.307617,4321.025879,4338.974121,4349.743652,4320.897461,4311.922852,4310.641113,4328.077148,4323.205078,4313.974121,4525.512695,4503.333496,4412.948730,4458.846191,3037.000000,4.000000,80.000000,,,,0.000000,2.000000,4.000000,4.000000,4.000000,4.000000,4.000000,4.000000,4.000000,4.000000,4.000000,4.000000,4.000000,4.000000,4.000000,83.333336,,,,,,,,,,,,,,,,,,,,,,,,,,,,,,,,,,,,,,,,,,,,,,,,,,,,,,,,,,,,,,,,,,,,,,,,,,,,,,,,,,,,,,,,,,,,,,,,,,,,,,,,,,,,,,,,,,,,,
1768210987.679730,1768210987.680852,1.000000,0.000000,4345.256348,4319.102539,4340.769043,4347.051270,4319.230957,4312.692383,4310.512695,4329.230957,4318.846191,4313.333496,4519.743652,4502.820313,4403.846191,4461.025879,4078.000000,4.000000,80.000000,,,,0.000000,2.000000,4.000000,4.000000,4.000000,4.000000,4.000000,4.000000,4.000000,4.000000,4.000000,4.000000,4.000000,4.000000,4.000000,83.333336,,,,,,,,,,,,,,,,,,,,,,,,,,,,,,,,,,,,,,,,,,,,,,,,,,,,,,,,,,,,,,,,,,,,,,,,,,,,,,,,,,,,,,,,,,,,,,,,,,,,,,,,,,,,,,,,,,,,,
1768210987.687538,1768210987.688561,2.000000,0.000000,4349.358887,4327.179688,4340.641113,4348.461426,4319.615234,4308.846191,4310.897461,4325.897461,4312.436035,4308.846191,4508.589844,4499.743652,4403.974121,4457.563965,1474.000000,4.000000,80.000000,,,,0.000000,2.000000,4.000000,4.000000,4.000000,4.000000,4.000000,4.000000,4.000000,4.000000,4.000000,4.000000,4.000000,4.000000,4.000000,83.333336,,,,,,,,,,,,,,,,,,,,,,,,,,,,,,,,,,,,,,,,,,,,,,,,,,,,,,,,,,,,,,,,,,,,,,,,,,,,,,,,,,,,,,,,,,,,,,,,,,,,,,,,,,,,,,,,,,,,,
1768210987.695347,1768210987.696369,3.000000,0.000000,4345.897461,4327.563965,4339.615234,4349.871582,4320.384766,4308.717773,4312.307617,4325.641113,4315.512695,4310.128418,4511.922852,4502.051270,4410.641113,4458.461426,3944.000000,4.000000,80.000000,,,,0.000000,2.000000,4.000000,4.000000,4.000000,4.000000,4.000000,4.000000,4.000000,4.000000,4.000000,4.000000,4.000000,4.000000,4.000000,83.333336,,,,,,,,,,,,,,,,,,,,,,,,,,,,,,,,,,,,,,,,,,,,,,,,,,,,,,,,,,,,,,,,,,,,,,,,,,,,,,,,,,,,,,,,,,,,,,,,,,,,,,,,,,,,,,,,,,,,,
1768210987.703155,1768210987.704377,4.000000,0.000000,4344.230957,4322.051270,4337.820313,4344.487305,4318.846191,4309.230957,4313.205078,4327.179688,4316.922852,4309.358887,4513.461426,4506.282227,4406.282227,4455.769043,3861.000000,4.000000,80.000000,,,,0.000000,2.000000,4.000000,4.000000,4.000000,4.000000,4.000000,4.000000,4.000000,4.000000,4.000000,4.000000,4.000000,4.000000,4.000000,83.333336,,,,,,,,,,,,,,,,,,,,,,,,,,,,,,,,,,,,,,,,,,,,,,,,,,,,,,,,,,,,,,,,,,,,,,,,,,,,,,,,,,,,,,,,,,,,,,,,,,,,,,,,,,,,,,,,,,,,,
1768210987.710964,1768210987.712185,5.000000,0.000000,4347.307617,4323.205078,4336.538574,4341.794922,4319.487305,4303.974121,4308.589844,4317.436035,4308.717773,4300.128418,4504.358887,4495.641113,4395.512695,4448.974121,3391.000000,4.000000,80.000000,,,,0.000000,2.000000,4.000000,4.000000,4.000000,4.000000,4.000000,4.000000,4.000000,4.000000,4.000000,4.000000,4.000000,4.000000,4.000000,83.333336,,,,,,,,,,,,,,,,,,,,,,,,,,,,,,,,,,,,,,,,,,,,,,,,,,,,,,,,,,,,,,,,,,,,,,,,,,,,,,,,,,,,,,,,,,,,,,,,,,,,,,,,,,,,,,,,,,,,,
1768210987.718772,1768210987.719894,6.000000,0.000000,4344.230957,4321.922852,4334.743652,4342.051270,4322.179688,4304.230957,4311.153809,4309.102539,4305.000000,4291.538574,4500.512695,4486.922852,4393.974121,4444.615234,3891.000000,4.000000,80.000000,,,,0.000000,2.000000,4.000000,4.000000,4.000000,4.000000,4.000000,4.000000,4.000000,4.000000,4.000000,4.000000,4.000000,4.000000,4.000000,83.333336,,,,,,,,,,,,,,,,,,,,,,,,,,,,,,,,,,,,,,,,,,,,,,,,2.092526,0.383783,0.073739,0.047984,0.034549,1.665908,0.482076,0.171626,0.101202,0.069530,0.225727,0.159642,0.295063,0.127286,0.082630,0.212595,0.299206,0.183974,0.082854,0.107737,0.162736,0.047885,0.217955,0.049861,0.033148,0.316349,0.161504,0.174050,0.064190,0.066630,0.325123,0.395148,0.523859,0.246878,0.252854,0.353255,0.096945,0.148895,0.306159,0.135073,0.377739,0.194053,0.103663,0.175398,0.088032,0.270501,0.314465,0.383280,0.415103,0.245587,0.416790,0.359974,0.434043,0.527024,0.253508,0.644590,0.540102,0.202867,0.449265,0.221755,0.278860,0.579233,0.416058,0.563025,0.200314,0.321769,0.338053,0.346760,0.359408,0.315117
1768210987.726581,1768210987.727702,7.000000,0.000000,4338.205078,4314.102539,4331.922852,4340.897461,4320.128418,4308.717773,4313.846191,4313.205078,4306.410156,4293.846191,4506.922852,4493.333496,4397.948730,4444.358887,3934.000000,4.000000,80.000000,,,,0.000000,2.000000,4.000000,4.000000,4.000000,4.000000,4.000000,4.000000,4.000000,4.000000,4.000000,4.000000,4.000000,4.000000,4.000000,83.333336,,,,,,,,,,,,,,,,,,,,,,,,,,,,,,,,,,,,,,,,,,,,,,,,,,,,,,,,,,,,,,,,,,,,,,,,,,,,,,,,,,,,,,,,,,,,,,,,,,,,,,,,,,,,,,,,,,,,,
1768210987.734389,1768210987.735311,8.000000,0.000000,4339.230957,4310.641113,4329.230957,4338.077148,4314.358887,4305.128418,4302.051270,4314.102539,4304.743652,4299.487305,4503.846191,4494.743652,4396.410156,4442.179688,3981.000000,4.000000,80.000000,,,,0.000000,2.000000,4.000000,4.000000,4.000000,4.000000,4.000000,4.000000,4.000000,4.000000,4.000000,4.000000,4.000000,4.000000,4.000000,83.333336,,,,,,,,,,,,,,,,,,,,,,,,,,,,,,,,,,,,,,,,,,,,,,,,,,,,,,,,,,,,,,,,,,,,,,,,,,,,,,,,,,,,,,,,,,,,,,,,,,,,,,,,,,,,,,,,,,,,,
1768210987.742197,1768210987.743120,9.000000,0.000000,4338.333496,4309.358887,4327.436035,4329.871582,4310.897461,4303.077148,4301.666504,4312.179688,4303.461426,4293.846191,4489.615234,4487.563965,4386.153809,4432.948730,4073.000000,4.000000,80.000000,,,,0.000000,2.000000,4.000000,4.000000,4.000000,4.000000,4.000000,4.000000,4.000000,4.000000,4.000000,4.000000,4.000000,4.000000,4.000000,83.333336,,,,,,,,,,,,,,,,,,,,,,,,,,,,,,,,,,,,,,,,,,,,,,,,,,,,,,,,,,,,,,,,,,,,,,,,,,,,,,,,,,,,,,,,,,,,,,,,,,,,,,,,,,,,,,,,,,,,,
1768210987.750006,1768210987.750828,10.000000,0.000000,4333.974121,4306.153809,4325.769043,4327.948730,4310.000000,4309.487305,4316.666504,4318.974121,4305.897461,4289.230957,4491.153809,4488.717773,4382.051270,4431.666504,4006.000000,4.000000,80.000000,,,,0.000000,2.000000,4.000000,4.000000,4.000000,4.000000,4.000000,4.000000,4.000000,4.000000,4.000000,4.000000,4.000000,4.000000,4.000000,83.333336,,,,,,,,,,,,,,,,,,,,,,,,,,,,,,,,,,,,,,,,,,,,,,,,,,,,,,,,,,,,,,,,,,,,,,,,,,,,,,,,,,,,,,,,,,,,,,,,,,,,,,,,,,,,,,,,,,,,,
1768210987.757814,1768210987.758637,11.000000,0.000000,4337.820313,4310.512695,4325.128418,4338.077148,4310.641113,4308.974121,4315.897461,4327.820313,4317.436035,4303.589844,4508.589844,4500.512695,4400.512695,4444.743652,4039.000000,4.000000,80.000000,,,,0.000000,2.000000,4.000000,4.000000,4.000000,4.000000,4.000000,4.000000,4.000000,4.000000,4.000000,4.000000,4.000000,4.000000,4.000000,83.333336,,,,,,,,,,,,,,,,,,,,,,,,,,,,,,,,,,,,,,,,,,,,,,,,,,,,,,,,,,,,,,,,,,,,,,,,,,,,,,,,,,,,,,,,,,,,,,,,,,,,,,,,,,,,,,,,,,,,,
1768210987.765623,1768210987.766245,12.000000,0.000000,4344.358887,4321.538574,4329.230957,4344.743652,4315.128418,4304.871582,4306.410156,4328.333496,4324.615234,4317.692383,4516.410156,4505.769043,4415.897461,4453.974121,4986.000000,4.000000,80.000000,,,,0.000000,2.000000,4.000000,4.000000,4.000000,4.000000,4.000000,4.000000,4.000000,4.000000,4.000000,4.000000,4.000000,4.000000,4.000000,83.333336,,,,,,,,,,,,,,,,,,,,,,,,,,,,,,,,,,,,,,,,,,,,,,,,,,,,,,,,,,,,,,,,,,,,,,,,,,,,,,,,,,,,,,,,,,,,,,,,,,,,,,,,,,,,,,,,,,,,,
1768210987.773431,1768210987.774054,13.000000,0.000000,4343.461426,4320.000000,4332.820313,4340.641113,4319.102539,4308.717773,4312.563965,4321.794922,4314.615234,4307.436035,4506.153809,4496.025879,4405.128418,4444.230957,3722.000000,4.000000,80.000000,,,,0.000000,2.000000,4.000000,4.000000,4.000000,4.000000,4.000000,4.000000,4.000000,4.000000,4.000000,4.000000,4.000000,4.000000,4.000000,83.333336,,,,,,,,,,,,,,,,,,,,,,,,,,,,,,,,,,,,,,,,,,,,,,,,,,,,,,,,,,,,,,,,,,,,,,,,,,,,,,,,,,,,,,,,,,,,,,,,,,,,,,,,,,,,,,,,,,,,,
1768210987.781239,1768210987.781762,14.000000,0.000000,4339.743652,4314.358887,4329.615234,4338.205078,4318.974121,4312.179688,4315.769043,4313.461426,4304.102539,4291.794922,4494.358887,4484.615234,4393.077148,4431.025879,4006.000000,4.000000,80.000000,,,,0.000000,2.000000,4.000000,4.000000,4.000000,4.000000,4.000000,4.000000,4.000000,4.000000,4.000000,4.000000,4.000000,4.000000,4.000000,83.333336,,,,,,,,,,,,,,,,,,,,,,,,,,,,,,,,,,,,,,,,,,,,,,,,,,,,,,,,,,,,,,,,,,,,,,,,,,,,,,,,,,,,,,,,,,,,,,,,,,,,,,,,,,,,,,,,,,,,,
1768210987.789048,1768210987.789571,15.000000,0.000000,4340.000000,4319.871582,4326.922852,4342.051270,4319.102539,4309.615234,4308.461426,4313.589844,4305.641113,4298.589844,4496.410156,4485.128418,4397.563965,4433.717773,4039.000000,4.000000,80.000000,,,,0.000000,2.000000,4.000000,4.000000,4.000000,4.000000,4.000000,4.000000,4.000000,4.000000,4.000000,4.000000,4.000000,4.000000,4.000000,83.333336,,,,,,,,,,,,,,,,,,,,,,,,,,,,,,,,,,,,,,,,,,,,,,,,,,,,,,,,,,,,,,,,,,,,,,,,,,,,,,,,,,,,,,,,,,,,,,,,,,,,,,,,,,,,,,,,,,,,,
1768210987.796856,1768210987.797179,16.000000,0.000000,4342.692383,4322.436035,4328.461426,4343.717773,4319.871582,4308.205078,4314.230957,4323.974121,4311.282227,4305.641113,4506.282227,4491.410156,4402.051270,4444.102539,0.000000,4.000000,80.000000,,,,0.000000,2.000000,4.000000,4.000000,4.000000,4.000000,4.000000,4.000000,4.000000,4.000000,4.000000,4.000000,4.000000,4.000000,4.000000,83.333336,,,,,,,,,,,,,,,,,,,,,,,,,,,,,,,,,,,,,,,,,,,,,,,,,,,,,,,,,,,,,,,,,,,,,,,,,,,,,,,,,,,,,,,,,,,,,,,,,,,,,,,,,,,,,,,,,,,,,
1768210987.804665,1768210987.804988,17.000000,0.000000,4345.769043,4319.230957,4329.358887,4342.820313,4321.538574,4310.256348,4321.666504,4325.000000,4309.743652,4293.461426,4507.179688,4493.077148,4402.692383,4444.615234,0.000000,4.000000,80.000000,,,,0.000000,2.000000,4.000000,4.000000,4.000000,4.000000,4.000000,4.000000,4.000000,4.000000,4.000000,4.000000,4.000000,4.000000,4.000000,83.333336,,,,,,,,,,,,,,,,,,,,,,,,,,,,,,,,,,,,,,,,,,,,,,,,,,,,,,,,,,,,,,,,,,,,,,,,,,,,,,,,,,,,,,,,,,,,,,,,,,,,,,,,,,,,,,,,,,,,,
1768210987.812473,1768210987.812896,18.000000,0.000000,4345.128418,4323.077148,4332.179688,4346.410156,4325.128418,4309.615234,4312.948730,4315.384766,4307.307617,4293.077148,4504.358887,4490.641113,4406.025879,4438.846191,0.000000,4.000000,80.000000,,,,0.000000,2.000000,4.000000,4.000000,4.000000,4.000000,4.000000,4.000000,4.000000,4.000000,4.000000,4.000000,4.000000,4.000000,4.000000,83.333336,,,,,,,,,,,,,,,,,,,,,,,,,,,,,,,,,,,,,,,,,,,,,,,,,,,,,,,,,,,,,,,,,,,,,,,,,,,,,,,,,,,,,,,,,,,,,,,,,,,,,,,,,,,,,,,,,,,,,
1768210987.820282,1768210987.820705,19.000000,0.000000,4344.615234,4327.948730,4341.538574,4354.615234,4328.333496,4307.179688,4307.436035,4316.538574,4308.589844,4305.256348,4502.692383,4490.128418,4400.128418,4438.974121,0.000000,4.000000,80.000000,,,,0.000000,2.000000,4.000000,4.000000,4.000000,4.000000,4.000000,4.000000,4.000000,4.000000,4.000000,4.000000,4.000000,4.000000,4.000000,83.333336,,,,,,,,,,,,,,,,,,,,,,,,,,,,,,,,,,,,,,,,,,,,,,,,,,,,,,,,,,,,,,,,,,,,,,,,,,,,,,,,,,,,,,,,,,,,,,,,,,,,,,,,,,,,,,,,,,,,,
1768210987.828090,1768210987.828713,20.000000,0.000000,4346.666504,4326.538574,4345.000000,4358.974121,4328.589844,4309.358887,4313.077148,4319.615234,4310.512695,4302.307617,4495.897461,4491.666504,4389.743652,4439.615234,0.000000,4.000000,80.000000,,,,0.000000,2.000000,4.000000,4.000000,4.000000,4.000000,4.000000,4.000000,4.000000,4.000000,4.000000,4.000000,4.000000,4.000000,4.000000,83.333336,,,,,,,,,,,,,,,,,,,,,,,,,,,,,,,,,,,,,,,,,,,,,,,,,,,,,,,,,,,,,,,,,,,,,,,,,,,,,,,,,,,,,,,,,,,,,,,,,,,,,,,,,,,,,,,,,,,,,
1768210987.835899,1768210987.836521,21.000000,0.000000,4347.563965,4325.512695,4339.743652,4358.461426,4328.077148,4308.461426,4312.307617,4313.077148,4309.358887,4294.743652,4496.025879,4491.282227,4394.487305,4441.153809,0.000000,4.000000,80.000000,,,,0.000000,2.000000,4.000000,4.000000,4.000000,4.000000,4.000000,4.000000,4.000000,4.000000,4.000000,4.000000,4.000000,4.000000,4.000000,83.333336,,,,,,,,,,,,,,,,,,,,,,,,,,,,,,,,,,,,,,,,,,,,,,,,,,,,,,,,,,,,,,,,,,,,,,,,,,,,,,,,,,,,,,,,,,,,,,,,,,,,,,,,,,,,,,,,,,,,,
1768210987.843707,1768210987.844430,22.000000,0.000000,4348.205078,4327.563965,4336.538574,4356.025879,4326.410156,4301.025879,4306.153809,4317.948730,4308.717773,4295.897461,4506.025879,4493.717773,4403.974121,4444.743652,0.000000,4.000000,80.000000,,,,0.000000,2.000000,4.000000,4.000000,4.000000,4.000000,4.000000,4.000000,4.000000,4.000000,4.000000,4.000000,4.000000,4.000000,4.000000,83.333336,1.000000,83.333336,2.000000,4.000000,4.000000,4.000000,4.000000,4.000000,4.000000,4.000000,4.000000,4.000000,4.000000,4.000000,4.000000,4.000000,,,,,,,,,,,,,,,,,,,,,,,,,,,,,,,,1.772936,0.347875,0.063036,0.040264,0.036142,1.549712,0.527379,0.180752,0.098038,0.071674,0.222648,0.167393,0.251279,0.136615,0.076006,0.205782,0.373585,0.156031,0.075685,0.110322,0.184043,0.053735,0.199923,0.041922,0.033913,0.280768,0.162197,0.155778,0.075093,0.072561,0.377520,0.397810,0.560494,0.229247,0.243862,0.433180,0.080855,0.117887,0.244158,0.136913,0.460280,0.189007,0.104870,0.153693,0.099670,0.295025,0.314280,0.310167,0.343430,0.263524,0.384414,0.405361,0.362076,0.406802,0.253937,0.602462,0.600817,0.166085,0.351596,0.221597,0.291614,0.677792,0.380566,0.465945,0.223975,0.297642,0.309489,0.258980,0.306491,0.335176
1768210987.851515,1768210987.852238,23.000000,0.000000,4346.666504,4325.384766,4335.000000,4351.666504,4324.102539,4300.769043,4309.743652,4328.333496,4311.922852,4297.307617,4507.179688,4495.128418,4399.230957,4444.743652,0.000000,4.000000,80.000000,,,,0.000000,2.000000,4.000000,4.000000,4.000000,4.000000,4.000000,4.000000,4.000000,4.000000,4.000000,4.000000,4.000000,4.000000,4.000000,83.333336,,,,,,,,,,,,,,,,,,,,,,,,,,,,,,,,,,,,,,,,,,,,,,,,,,,,,,,,,,,,,,,,,,,,,,,,,,,,,,,,,,,,,,,,,,,,,,,,,,,,,,,,,,,,,,,,,,,,,
1768210987.859324,1768210987.860246,24.000000,0.000000,4347.436035,4325.128418,4333.974121,4349.230957,4324.871582,4306.410156,4312.820313,4317.563965,4308.077148,4302.179688,4501.922852,4492.051270,4399.230957,4445.000000,0.000000,4.000000,80.000000,,,,0.000000,2.000000,4.000000,4.000000,4.000000,4.000000,4.000000,4.000000,4.000000,4.000000,4.000000,4.000000,4.000000,4.000000,4.000000,83.333336,,,,,,,,,,,,,,,,,,,,,,,,,,,,,,,,,,,,,,,,,,,,,,,,,,,,,,,,,,,,,,,,,,,,,,,,,,,,,,,,,,,,,,,,,,,,,,,,,,,,,,,,,,,,,,,,,,,,,
1768210987.867132,1768210987.868055,25.000000,0.000000,4351.538574,4332.179688,4334.487305,4350.512695,4327.179688,4306.538574,4304.615234,4303.846191,4296.666504,4300.384766,4495.769043,4489.358887,4397.692383,4445.256348,0.000000,4.000000,80.000000,,,,0.000000,2.000000,4.000000,4.000000,4.000000,4.000000,4.000000,4.000000,4.000000,4.000000,4.000000,4.000000,4.000000,4.000000,4.000000,83.333336,,,,,,,,,,,,,,,,,,,,,,,,,,,,,,,,,,,,,,,,,,,,,,,,,,,,,,,,,,,,,,,,,,,,,,,,,,,,,,,,,,,,,,,,,,,,,,,,,,,,,,,,,,,,,,,,,,,,,
1768210987.874941,1768210987.875763,26.000000,0.000000,4348.077148,4336.153809,4336.025879,4350.256348,4327.179688,4307.692383,4303.589844,4309.358887,4294.230957,4288.589844,4486.794922,4489.358887,4374.102539,4440.512695,0.000000,4.000000,80.000000,,,,0.000000,2.000000,4.000000,4.000000,4.000000,4.000000,4.000000,4.000000,4.000000,4.000000,4.000000,4.000000,4.000000,4.000000,4.000000,83.333336,,,,,,,,,,,,,,,,,,,,,,,,,,,,,,,,,,,,,,,,,,,,,,,,,,,,,,,,,,,,,,,,,,,,,,,,,,,,,,,,,,,,,,,,,,,,,,,,,,,,,,,,,,,,,,,,,,,,,
1768210987.882749,1768210987.883571,27.000000,0.000000,4340.769043,4336.153809,4337.563965,4348.846191,4326.410156,4314.102539,4318.846191,4318.461426,4305.897461,4295.128418,4491.538574,4492.179688,4373.589844,4441.922852,0.000000,4.000000,80.000000,,,,0.000000,2.000000,4.000000,4.000000,4.000000,4.000000,4.000000,4.000000,4.000000,4.000000,4.000000,4.000000,4.000000,4.000000,4.000000,83.333336,,,,,,,,,,,,,,,,,,,,,,,,,,,,,,,,,,,,,,,,,,,,,,,,,,,,,,,,,,,,,,,,,,,,,,,,,,,,,,,,,,,,,,,,,,,,,,,,,,,,,,,,,,,,,,,,,,,,,
1768210987.890557,1768210987.891579,28.000000,0.000000,4345.769043,4343.205078,4338.846191,4350.384766,4326.538574,4313.846191,4321.153809,4320.256348,4313.589844,4309.743652,4507.820313,4495.897461,4407.820313,4452.692383,0.000000,4.000000,80.000000,,,,0.000000,2.000000,4.000000,4.000000,4.000000,4.000000,4.000000,4.000000,4.000000,4.000000,4.000000,4.000000,4.000000,4.000000,4.000000,83.333336,,,,,,,,,,,,,,,,,,,,,,,,,,,,,,,,,,,,,,,,,,,,,,,,,,,,,,,,,,,,,,,,,,,,,,,,,,,,,,,,,,,,,,,,,,,,,,,,,,,,,,,,,,,,,,,,,,,,,
1768210987.898366,1768210987.899388,29.000000,0.000000,4353.717773,4351.922852,4338.846191,4352.820313,4325.512695,4308.717773,4305.769043,4319.615234,4309.871582,4306.410156,4511.410156,4497.563965,4417.563965,4459.871582,0.000000,4.000000,80.000000,,,,0.000000,2.000000,4.000000,4.000000,4.000000,4.000000,4.000000,4.000000,4.000000,4.000000,4.000000,4.000000,4.000000,4.000000,4.000000,83.333336,,,,,,,,,,,,,,,,,,,,,,,,,,,,,,,,,,,,,,,,,,,,,,,,,,,,,,,,,,,,,,,,,,,,,,,,,,,,,,,,,,,,,,,,,,,,,,,,,,,,,,,,,,,,,,,,,,,,,
1768210987.906174,1768210987.907096,30.000000,0.000000,4350.384766,4351.666504,4336.922852,4352.820313,4324.871582,4311.025879,4309.743652,4318.846191,4309.615234,4304.487305,4507.820313,4493.717773,4400.897461,4459.230957,0.000000,4.000000,80.000000,,,,0.000000,2.000000,4.000000,4.000000,4.000000,4.000000,4.000000,4.000000,4.000000,4.000000,4.000000,4.000000,4.000000,4.000000,4.000000,83.333336,,,,,,,,,,,,,,,,,,,,,,,,,,,,,,,,,,,,,,,,,,,,,,,,,,,,,,,,,,,,,,,,,,,,,,,,,,,,,,,,,,,,,,,,,,,,,,,,,,,,,,,,,,,,,,,,,,,,,
1768210987.913983,1768210987.914905,31.000000,0.000000,4348.846191,4351.666504,4336.922852,4354.358887,4326.666504,4314.358887,4324.230957,4321.025879,4314.615234,4310.128418,4509.358887,4484.230957,4400.128418,4455.256348,0.000000,4.000000,80.000000,,,,0.000000,2.000000,4.000000,4.000000,4.000000,4.000000,4.000000,4.000000,4.000000,4.000000,4.000000,4.000000,4.000000,4.000000,4.000000,83.333336,,,,,,,,,,,,,,,,,,,,,,,,,,,,,,,,,,,,,,,,,,,,,,,,,,,,,,,,,,,,,,,,,,,,,,,,,,,,,,,,,,,,,,,,,,,,,,,,,,,,,,,,,,,,,,,,,,,,,
1768210987.921791,1768210987.922514,32.000000,0.000000,4351.538574,4354.487305,4338.077148,4356.282227,4324.102539,4308.461426,4314.487305,4322.948730,4315.256348,4305.256348,4510.256348,4474.615234,4405.897461,4451.922852,0.000000,4.000000,80.000000,,,,0.000000,2.000000,4.000000,4.000000,4.000000,4.000000,4.000000,4.000000,4.000000,4.000000,4.000000,4.000000,4.000000,4.000000,4.000000,83.333336,,,,,,,,,,,,,,,,,,,,,,,,,,,,,,,,,,,,,,,,,,,,,,,,,,,,,,,,,,,,,,,,,,,,,,,,,,,,,,,,,,,,,,,,,,,,,,,,,,,,,,,,,,,,,,,,,,,,,
1768210987.929600,1768210987.930322,33.000000,0.000000,4352.051270,4351.922852,4338.461426,4352.307617,4320.000000,4301.282227,4303.589844,4320.641113,4312.307617,4302.948730,4507.948730,4477.307617,4404.487305,4454.230957,0.000000,4.000000,80.000000,,,,0.000000,2.000000,4.000000,4.000000,4.000000,4.000000,4.000000,4.000000,4.000000,4.000000,4.000000,4.000000,4.000000,4.000000,4.000000,83.333336,,,,,,,,,,,,,,,,,,,,,,,,,,,,,,,,,,,,,,,,,,,,,,,,,,,,,,,,,,,,,,,,,,,,,,,,,,,,,,,,,,,,,,,,,,,,,,,,,,,,,,,,,,,,,,,,,,,,,
1768210987.937408,1768210987.938031,34.000000,0.000000,4351.666504,4350.769043,4340.000000,4348.717773,4323.717773,4304.743652,4310.512695,4321.410156,4313.205078,4303.846191,4510.000000,4485.512695,4409.230957,4460.897461,0.000000,4.000000,80.000000,,,,0.000000,2.000000,4.000000,4.000000,4.000000,4.000000,4.000000,4.000000,4.000000,4.000000,4.000000,4.000000,4.000000,4.000000,4.000000,83.333336,,,,,,,,,,,,,,,,,,,,,,,,,,,,,,,,,,,,,,,,,,,,,,,,,,,,,,,,,,,,,,,,,,,,,,,,,,,,,,,,,,,,,,,,,,,,,,,,,,,,,,,,,,,,,,,,,,,,,
1768210987.945217,1768210987.945839,35.000000,0.000000,4351.153809,4351.153809,4340.384766,4350.641113,4325.897461,4310.128418,4315.000000,4328.589844,4314.487305,4296.025879,4511.666504,4483.589844,4410.769043,4461.666504,0.000000,4.000000,80.000000,,,,0.000000,2.000000,4.000000,4.000000,4.000000,4.000000,4.000000,4.000000,4.000000,4.000000,4.000000,4.000000,4.000000,4.000000,4.000000,83.333336,,,,,,,,,,,,,,,,,,,,,,,,,,,,,,,,,,,,,,,,,,,,,,,,,,,,,,,,,,,,,,,,,,,,,,,,,,,,,,,,,,,,,,,,,,,,,,,,,,,,,,,,,,,,,,,,,,,,,
1768210987.953025,1768210987.953847,36.000000,0.000000,4350.000000,4347.051270,4339.102539,4351.153809,4320.641113,4311.410156,4316.153809,4327.436035,4311.666504,4296.153809,4510.769043,4475.256348,4405.128418,4452.051270,0.000000,4.000000,80.000000,,,,0.000000,2.000000,4.000000,4.000000,4.000000,4.000000,4.000000,4.000000,4.000000,4.000000,4.000000,4.000000,4.000000,4.000000,4.000000,83.333336,,,,,,,,,,,,,,,,,,,,,,,,,,,,,,,,,,,,,,,,,,,,,,,,,,,,,,,,,,,,,,,,,,,,,,,,,,,,,,,,,,,,,,,,,,,,,,,,,,,,,,,,,,,,,,,,,,,,,
1768210987.960833,1768210987.961656,37.000000,0.000000,4349.615234,4342.179688,4339.871582,4348.205078,4321.282227,4312.436035,4317.820313,4318.333496,4311.025879,4303.589844,4510.128418,4473.461426,4400.512695,4445.769043,0.000000,4.000000,80.000000,,,,0.000000,2.000000,4.000000,4.000000,4.000000,4.000000,4.000000,4.000000,4.000000,4.000000,4.000000,4.000000,4.000000,4.000000,4.000000,83.333336,,,,,,,,,,,,,,,,,,,,,,,,,,,,,,,,,,,,,,,,,,,,,,,,,,,,,,,,,,,,,,,,,,,,,,,,,,,,,,,,,,,,,,,,,,,,,,,,,,,,,,,,,,,,,,,,,,,,,
1768210987.968642,1768210987.969364,38.000000,0.000000,4350.128418,4341.922852,4340.897461,4343.717773,4322.820313,4311.794922,4312.820313,4320.384766,4312.692383,4300.512695,4507.051270,4476.666504,4397.179688,4447.820313,0.000000,4.000000,80.000000,,,,0.000000,2.000000,4.000000,4.000000,4.000000,4.000000,4.000000,4.000000,4.000000,4.000000,4.000000,4.000000,4.000000,4.000000,4.000000,83.333336,,,,,,,,,,,,,,,,,,,,,,,,,,,,,,,,,,,,,,,,,,,,,,,,1.268788,0.287861,0.053575,0.033946,0.037537,1.453473,0.602867,0.183035,0.100384,0.079100,0.231684,0.180490,0.201813,0.151022,0.070919,0.215472,0.444928,0.125754,0.068831,0.110472,0.204457,0.071621,0.186176,0.039148,0.038127,0.228550,0.151740,0.138182,0.089762,0.080820,0.412748,0.390517,0.593914,0.227086,0.237905,0.511484,0.069488,0.103903,0.203863,0.141473,0.533102,0.181041,0.108538,0.137742,0.114374,0.329877,0.336313,0.250310,0.295279,0.284470,0.367275,0.462417,0.297053,0.308268,0.258682,0.543104,0.664878,0.140709,0.263174,0.212371,0.349863,0.788374,0.342127,0.404124,0.245686,0.266894,0.307787,0.184839,0.259188,0.339797
1768210987.976450,1768210987.977173,39.000000,0.000000,4348.077148,4341.538574,4338.717773,4343.333496,4319.102539,4310.128418,4308.077148,4319.743652,4311.025879,4294.358887,4507.051270,4476.794922,4397.307617,4449.102539,0.000000,4.000000,80.000000,,,,0.000000,2.000000,4.000000,4.000000,4.000000,4.000000,4.000000,4.000000,4.000000,4.000000,4.000000,4.000000,4.000000,4.000000,4.000000,83.333336,,,,,,,,,,,,,,,,,,,,,,,,,,,,,,,,,,,,,,,,,,,,,,,,,,,,,,,,,,,,,,,,,,,,,,,,,,,,,,,,,,,,,,,,,,,,,,,,,,,,,,,,,,,,,,,,,,,,,
1768210987.984259,1768210987.984781,40.000000,0.000000,4349.358887,4341.538574,4339.102539,4347.179688,4318.333496,4311.153809,4307.948730,4309.102539,4308.717773,4295.769043,4508.333496,4474.615234,4396.410156,4449.102539,0.000000,4.000000,80.000000,,,,0.000000,2.000000,4.000000,4.000000,4.000000,4.000000,4.000000,4.000000,4.000000,4.000000,4.000000,4.000000,4.000000,4.000000,4.000000,83.333336,,,,,,,,,,,,,,,,,,,,,,,,,,,,,,,,,,,,,,,,,,,,,,,,,,,,,,,,,,,,,,,,,,,,,,,,,,,,,,,,,,,,,,,,,,,,,,,,,,,,,,,,,,,,,,,,,,,,,
1768210987.992067,1768210987.992590,41.000000,0.000000,4351.794922,4341.153809,4338.846191,4346.794922,4317.051270,4309.487305,4304.615234,4310.384766,4309.487305,4295.000000,4498.333496,4473.333496,4392.948730,4445.641113,0.000000,4.000000,80.000000,,,,0.000000,2.000000,4.000000,4.000000,4.000000,4.000000,4.000000,4.000000,4.000000,4.000000,4.000000,4.000000,4.000000,4.000000,4.000000,83.333336,,,,,,,,,,,,,,,,,,,,,,,,,,,,,,,,,,,,,,,,,,,,,,,,,,,,,,,,,,,,,,,,,,,,,,,,,,,,,,,,,,,,,,,,,,,,,,,,,,,,,,,,,,,,,,,,,,,,,
1768210987.999875,1768210988.000298,42.000000,0.000000,4349.230957,4335.384766,4334.230957,4340.897461,4312.051270,4306.025879,4306.153809,4319.743652,4309.615234,4290.256348,4489.230957,4472.820313,4392.179688,4433.717773,0.000000,4.000000,80.000000,,,,0.000000,2.000000,4.000000,4.000000,4.000000,4.000000,4.000000,4.000000,4.000000,4.000000,4.000000,4.000000,4.000000,4.000000,4.000000,83.333336,,,,,,,,,,,,,,,,,,,,,,,,,,,,,,,,,,,,,,,,,,,,,,,,,,,,,,,,,,,,,,,,,,,,,,,,,,,,,,,,,,,,,,,,,,,,,,,,,,,,,,,,,,,,,,,,,,,,,
1768210988.007684,1768210988.008107,43.000000,0.000000,4345.769043,4327.948730,4331.282227,4340.128418,4310.897461,4307.179688,4311.922852,4321.025879,4309.230957,4292.307617,4497.948730,4473.846191,4395.512695,4431.794922,0.000000,4.000000,80.000000,,,,0.000000,2.000000,4.000000,4.000000,4.000000,4.000000,4.000000,4.000000,4.000000,4.000000,4.000000,4.000000,4.000000,4.000000,4.000000,83.333336,,,,,,,,,,,,,,,,,,,,,,,,,,,,,,,,,,,,,,,,,,,,,,,,,,,,,,,,,,,,,,,,,,,,,,,,,,,,,,,,,,,,,,,,,,,,,,,,,,,,,,,,,,,,,,,,,,,,,
1768210988.015492,1768210988.015715,44.000000,0.000000,4342.948730,4326.666504,4333.077148,4341.282227,4312.692383,4307.692383,4312.948730,4322.051270,4311.153809,4297.307617,4506.666504,4474.487305,4396.666504,4443.589844,0.000000,4.000000,80.000000,,,,0.000000,2.000000,4.000000,4.000000,4.000000,4.000000,4.000000,4.000000,4.000000,4.000000,4.000000,4.000000,4.000000,4.000000,4.000000,83.333336,,,,,,,,,,,,,,,,,,,,,,,,,,,,,,,,,,,,,,,,,,,,,,,,,,,,,,,,,,,,,,,,,,,,,,,,,,,,,,,,,,,,,,,,,,,,,,,,,,,,,,,,,,,,,,,,,,,,,
1768210988.023301,1768210988.023524,45.000000,0.000000,4343.461426,4330.128418,4334.358887,4341.410156,4315.512695,4307.179688,4312.820313,4322.179688,4310.641113,4291.153809,4498.077148,4474.871582,4395.000000,4445.256348,0.000000,4.000000,80.000000,,,,0.000000,2.000000,4.000000,4.000000,4.000000,4.000000,4.000000,4.000000,4.000000,4.000000,4.000000,4.000000,4.000000,4.000000,4.000000,83.333336,,,,,,,,,,,,,,,,,,,,,,,,,,,,,,,,,,,,,,,,,,,,,,,,,,,,,,,,,,,,,,,,,,,,,,,,,,,,,,,,,,,,,,,,,,,,,,,,,,,,,,,,,,,,,,,,,,,,,
1768210988.031109,1768210988.031432,46.000000,0.000000,4345.256348,4333.333496,4334.358887,4347.307617,4322.948730,4307.820313,4310.256348,4312.051270,4306.922852,4284.615234,4490.897461,4476.794922,4392.307617,4440.256348,0.000000,4.000000,80.000000,,,,0.000000,2.000000,4.000000,4.000000,4.000000,4.000000,4.000000,4.000000,4.000000,4.000000,4.000000,4.000000,4.000000,4.000000,4.000000,83.333336,,,,,,,,,,,,,,,,,,,,,,,,,,,,,,,,,,,,,,,,,,,,,,,,,,,,,,,,,,,,,,,,,,,,,,,,,,,,,,,,,,,,,,,,,,,,,,,,,,,,,,,,,,,,,,,,,,,,,
1768210988.038918,1768210988.039241,47.000000,0.000000,4343.717773,4336.922852,4336.282227,4348.333496,4327.436035,4306.410156,4308.077148,4310.641113,4306.666504,4299.358887,4499.358887,4476.538574,4394.743652,4446.922852,0.000000,4.000000,80.000000,,,,0.000000,2.000000,4.000000,4.000000,4.000000,4.000000,4.000000,4.000000,4.000000,4.000000,4.000000,4.000000,4.000000,4.000000,4.000000,83.333336,,,,,,,,,,,,,,,,,,,,,,,,,,,,,,,,,,,,,,,,,,,,,,,,,,,,,,,,,,,,,,,,,,,,,,,,,,,,,,,,,,,,,,,,,,,,,,,,,,,,,,,,,,,,,,,,,,,,,
1768210988.046726,1768210988.047249,48.000000,0.000000,4344.102539,4335.897461,4337.179688,4342.307617,4325.769043,4307.436035,4311.410156,4320.000000,4312.051270,4315.000000,4509.358887,4479.102539,4403.717773,4451.153809,0.000000,4.000000,80.000000,,,,0.000000,2.000000,4.000000,4.000000,4.000000,4.000000,4.000000,4.000000,4.000000,4.000000,4.000000,4.000000,4.000000,4.000000,4.000000,83.333336,,,,,,,,,,,,,,,,,,,,,,,,,,,,,,,,,,,,,,,,,,,,,,,,,,,,,,,,,,,,,,,,,,,,,,,,,,,,,,,,,,,,,,,,,,,,,,,,,,,,,,,,,,,,,,,,,,,,,
1768210988.054535,1768210988.055057,49.000000,0.000000,4350.641113,4330.128418,4336.666504,4344.102539,4325.384766,4309.102539,4312.692383,4316.666504,4314.358887,4307.692383,4509.871582,4485.512695,4403.717773,4445.641113,0.000000,4.000000,80.000000,,,,0.000000,2.000000,4.000000,4.000000,4.000000,4.000000,4.000000,4.000000,4.000000,4.000000,4.000000,4.000000,4.000000,4.000000,4.000000,83.333336,,,,,,,,,,,,,,,,,,,,,,,,,,,,,,,,,,,,,,,,,,,,,,,,,,,,,,,,,,,,,,,,,,,,,,,,,,,,,,,,,,,,,,,,,,,,,,,,,,,,,,,,,,,,,,,,,,,,,
1768210988.062343,1768210988.062966,50.000000,0.000000,4352.692383,4327.179688,4340.384766,4348.846191,4326.025879,4302.436035,4306.410156,4301.922852,4304.230957,4293.205078,4505.384766,4482.436035,4396.666504,4448.974121,0.000000,4.000000,80.000000,,,,0.000000,2.000000,4.000000,4.000000,4.000000,4.000000,4.000000,4.000000,4.000000,4.000000,4.000000,4.000000,4.000000,4.000000,4.000000,83.333336,,,,,,,,,,,,,,,,,,,,,,,,,,,,,,,,,,,,,,,,,,,,,,,,,,,,,,,,,,,,,,,,,,,,,,,,,,,,,,,,,,,,,,,,,,,,,,,,,,,,,,,,,,,,,,,,,,,,,
1768210988.070151,1768210988.070774,51.000000,0.000000,4349.358887,4328.589844,4342.692383,4348.461426,4326.153809,4298.589844,4305.256348,4300.384766,4297.692383,4295.641113,4505.769043,4480.384766,4398.846191,4455.769043,0.000000,4.000000,80.000000,,,,0.000000,2.000000,4.000000,4.000000,4.000000,4.000000,4.000000,4.000000,4.000000,4.000000,4.000000,4.000000,4.000000,4.000000,4.000000,83.333336,,,,,,,,,,,,,,,,,,,,,,,,,,,,,,,,,,,,,,,,,,,,,,,,,,,,,,,,,,,,,,,,,,,,,,,,,,,,,,,,,,,,,,,,,,,,,,,,,,,,,,,,,,,,,,,,,,,,,
1768210988.077960,1768210988.078782,52.000000,0.000000,4349.615234,4331.538574,4340.641113,4348.846191,4326.410156,4306.282227,4311.153809,4311.666504,4307.051270,4308.077148,4510.000000,4491.410156,4402.820313,4452.563965,0.000000,4.000000,80.000000,,,,0.000000,2.000000,4.000000,4.000000,4.000000,4.000000,4.000000,4.000000,4.000000,4.000000,4.000000,4.000000,4.000000,4.000000,4.000000,83.333336,,,,,,,,,,,,,,,,,,,,,,,,,,,,,,,,,,,,,,,,,,,,,,,,,,,,,,,,,,,,,,,,,,,,,,,,,,,,,,,,,,,,,,,,,,,,,,,,,,,,,,,,,,,,,,,,,,,,,
1768210988.085768,1768210988.086591,53.000000,0.000000,4350.128418,4329.102539,4340.512695,4348.717773,4326.282227,4309.487305,4313.077148,4314.615234,4313.974121,4303.333496,4510.384766,4495.384766,4397.563965,4446.922852,0.000000,4.000000,80.000000,,,,0.000000,2.000000,4.000000,4.000000,4.000000,4.000000,4.000000,4.000000,4.000000,4.000000,4.000000,4.000000,4.000000,4.000000,4.000000,83.333336,,,,,,,,,,,,,,,,,,,,,,,,,,,,,,,,,,,,,,,,,,,,,,,,,,,,,,,,,,,,,,,,,,,,,,,,,,,,,,,,,,,,,,,,,,,,,,,,,,,,,,,,,,,,,,,,,,,,,
1768210988.093577,1768210988.094499,54.000000,0.000000,4350.769043,4327.563965,4342.948730,4344.102539,4326.153809,4304.358887,4310.641113,4309.487305,4308.974121,4290.641113,4508.974121,4488.077148,4392.436035,4445.256348,0.000000,4.000000,80.000000,,,,0.000000,2.000000,4.000000,4.000000,4.000000,4.000000,4.000000,4.000000,4.000000,4.000000,4.000000,4.000000,4.000000,4.000000,4.000000,83.333336,,,,,,,,,,,,,,,,,,,,,,,,,,,,,,,,,,,,,,,,,,,,,,,,0.776737,0.225927,0.049761,0.031076,0.039087,1.414414,0.694751,0.180684,0.107555,0.088959,0.268298,0.198396,0.164993,0.164344,0.065555,0.259452,0.499504,0.103641,0.064953,0.106967,0.222178,0.097533,0.181637,0.042620,0.044941,0.178787,0.131879,0.129286,0.104446,0.090144,0.419232,0.365847,0.621113,0.236167,0.239289,0.566391,0.070037,0.107561,0.193032,0.147173,0.577797,0.175987,0.117023,0.131891,0.127282,0.379001,0.378214,0.223091,0.273414,0.304032,0.374111,0.517561,0.251616,0.255661,0.264991,0.482874,0.724874,0.132456,0.203196,0.197946,0.446476,0.893040,0.309072,0.395761,0.263761,0.275841,0.341812,0.143965,0.227736,0.328030
1768210988.101385,1768210988.102308,55.000000,0.000000,4351.153809,4332.948730,4341.794922,4343.333496,4326.410156,4306.025879,4311.282227,4310.000000,4308.717773,4299.230957,4508.717773,4489.230957,4399.230957,4445.769043,0.000000,4.000000,80.000000,,,,0.000000,2.000000,4.000000,4.000000,4.000000,4.000000,4.000000,4.000000,4.000000,4.000000,4.000000,4.000000,4.000000,4.000000,4.000000,83.333336,,,,,,,,,,,,,,,,,,,,,,,,,,,,,,,,,,,,,,,,,,,,,,,,,,,,,,,,,,,,,,,,,,,,,,,,,,,,,,,,,,,,,,,,,,,,,,,,,,,,,,,,,,,,,,,,,,,,,
1768210988.109193,1768210988.109916,56.000000,0.000000,4350.000000,4335.000000,4338.077148,4344.230957,4326.794922,4311.410156,4312.436035,4314.358887,4314.230957,4315.769043,4510.897461,4496.025879,4410.256348,4450.128418,0.000000,4.000000,80.000000,,,,0.000000,2.000000,4.000000,4.000000,4.000000,4.000000,4.000000,4.000000,4.000000,4.000000,4.000000,4.000000,4.000000,4.000000,4.000000,83.333336,,,,,,,,,,,,,,,,,,,,,,,,,,,,,,,,,,,,,,,,,,,,,,,,,,,,,,,,,,,,,,,,,,,,,,,,,,,,,,,,,,,,,,,,,,,,,,,,,,,,,,,,,,,,,,,,,,,,,
1768210988.117002,1768210988.117725,57.000000,0.000000,4350.512695,4331.538574,4336.922852,4343.077148,4325.769043,4310.128418,4310.897461,4311.538574,4311.538574,4311.410156,4510.256348,4493.974121,4413.717773,4451.025879,0.000000,4.000000,80.000000,,,,0.000000,2.000000,4.000000,4.000000,4.000000,4.000000,4.000000,4.000000,4.000000,4.000000,4.000000,4.000000,4.000000,4.000000,4.000000,83.333336,,,,,,,,,,,,,,,,,,,,,,,,,,,,,,,,,,,,,,,,,,,,,,,,,,,,,,,,,,,,,,,,,,,,,,,,,,,,,,,,,,,,,,,,,,,,,,,,,,,,,,,,,,,,,,,,,,,,,
1768210988.124810,1768210988.125433,58.000000,0.000000,4350.512695,4333.205078,4337.948730,4343.077148,4325.384766,4307.436035,4311.025879,4306.025879,4307.436035,4300.000000,4507.307617,4486.666504,4405.000000,4443.461426,0.000000,4.000000,80.000000,,,,0.000000,2.000000,4.000000,4.000000,4.000000,4.000000,4.000000,4.000000,4.000000,4.000000,4.000000,4.000000,4.000000,4.000000,4.000000,83.333336,,,,,,,,,,,,,,,,,,,,,,,,,,,,,,,,,,,,,,,,,,,,,,,,,,,,,,,,,,,,,,,,,,,,,,,,,,,,,,,,,,,,,,,,,,,,,,,,,,,,,,,,,,,,,,,,,,,,,
1768210988.132619,1768210988.133242,59.000000,0.000000,4349.743652,4336.410156,4338.846191,4343.974121,4325.256348,4309.871582,4313.717773,4312.563965,4310.384766,4299.743652,4507.051270,4485.128418,4397.436035,4441.666504,0.000000,4.000000,80.000000,,,,0.000000,2.000000,4.000000,4.000000,4.000000,4.000000,4.000000,4.000000,4.000000,4.000000,4.000000,4.000000,4.000000,4.000000,4.000000,83.333336,,,,,,,,,,,,,,,,,,,,,,,,,,,,,,,,,,,,,,,,,,,,,,,,,,,,,,,,,,,,,,,,,,,,,,,,,,,,,,,,,,,,,,,,,,,,,,,,,,,,,,,,,,,,,,,,,,,,,
1768210988.140427,1768210988.140850,60.000000,0.000000,4350.000000,4329.487305,4336.922852,4344.230957,4322.179688,4311.794922,4313.846191,4319.615234,4312.692383,4304.871582,4509.487305,4491.025879,4405.897461,4448.461426,0.000000,4.000000,80.000000,,,,0.000000,2.000000,4.000000,4.000000,4.000000,4.000000,4.000000,4.000000,4.000000,4.000000,4.000000,4.000000,4.000000,4.000000,4.000000,83.333336,,,,,,,,,,,,,,,,,,,,,,,,,,,,,,,,,,,,,,,,,,,,,,,,,,,,,,,,,,,,,,,,,,,,,,,,,,,,,,,,,,,,,,,,,,,,,,,,,,,,,,,,,,,,,,,,,,,,,
1768210988.148236,1768210988.148659,61.000000,0.000000,4349.102539,4325.897461,4333.077148,4341.025879,4319.743652,4307.179688,4308.461426,4310.384766,4309.102539,4308.717773,4509.743652,4490.769043,4413.717773,4448.205078,0.000000,4.000000,80.000000,,,,0.000000,2.000000,4.000000,4.000000,4.000000,4.000000,4.000000,4.000000,4.000000,4.000000,4.000000,4.000000,4.000000,4.000000,4.000000,83.333336,,,,,,,,,,,,,,,,,,,,,,,,,,,,,,,,,,,,,,,,,,,,,,,,,,,,,,,,,,,,,,,,,,,,,,,,,,,,,,,,,,,,,,,,,,,,,,,,,,,,,,,,,,,,,,,,,,,,,
1768210988.156044,1768210988.156567,62.000000,0.000000,4347.307617,4335.000000,4334.615234,4342.179688,4322.436035,4304.871582,4305.256348,4304.871582,4305.897461,4302.563965,4507.051270,4485.512695,4404.743652,4445.256348,0.000000,4.000000,80.000000,,,,0.000000,2.000000,4.000000,4.000000,4.000000,4.000000,4.000000,4.000000,4.000000,4.000000,4.000000,4.000000,4.000000,4.000000,4.000000,83.333336,,,,,,,,,,,,,,,,,,,,,,,,,,,,,,,,,,,,,,,,,,,,,,,,,,,,,,,,,,,,,,,,,,,,,,,,,,,,,,,,,,,,,,,,,,,,,,,,,,,,,,,,,,,,,,,,,,,,,
1768210988.163853,1768210988.164376,63.000000,0.000000,4350.512695,4342.820313,4339.487305,4349.487305,4324.487305,4307.948730,4308.333496,4310.256348,4306.282227,4292.948730,4506.538574,4488.717773,4400.897461,4447.820313,0.000000,4.000000,80.000000,,,,0.000000,2.000000,4.000000,4.000000,4.000000,4.000000,4.000000,4.000000,4.000000,4.000000,4.000000,4.000000,4.000000,4.000000,4.000000,83.333336,,,,,,,,,,,,,,,,,,,,,,,,,,,,,,,,,,,,,,,,,,,,,,,,,,,,,,,,,,,,,,,,,,,,,,,,,,,,,,,,,,,,,,,,,,,,,,,,,,,,,,,,,,,,,,,,,,,,,
1768210988.171661,1768210988.171984,64.000000,0.000000,4353.846191,4337.307617,4336.794922,4348.717773,4320.897461,4308.077148,4308.589844,4307.563965,4306.794922,4296.922852,4508.461426,4492.820313,4409.230957,4449.358887,3037.000000,4.000000,80.000000,,,,0.000000,2.000000,4.000000,4.000000,4.000000,4.000000,4.000000,4.000000,4.000000,4.000000,4.000000,4.000000,4.000000,4.000000,4.000000,83.333336,,,,,,,,,,,,,,,,,,,,,,,,,,,,,,,,,,,,,,,,,,,,,,,,,,,,,,,,,,,,,,,,,,,,,,,,,,,,,,,,,,,,,,,,,,,,,,,,,,,,,,,,,,,,,,,,,,,,,
1768210988.179469,1768210988.179793,65.000000,0.000000,4349.871582,4326.153809,4326.794922,4339.487305,4316.282227,4306.538574,4306.922852,4303.974121,4307.692383,4305.512695,4507.692383,4483.461426,4409.230957,4444.358887,4078.000000,4.000000,80.000000,,,,0.000000,2.000000,4.000000,4.000000,4.000000,4.000000,4.000000,4.000000,4.000000,4.000000,4.000000,4.000000,4.000000,4.000000,4.000000,83.333336,,,,,,,,,,,,,,,,,,,,,,,,,,,,,,,,,,,,,,,,,,,,,,,,,,,,,,,,,,,,,,,,,,,,,,,,,,,,,,,,,,,,,,,,,,,,,,,,,,,,,,,,,,,,,,,,,,,,,
1768210988.187278,1768210988.187501,66.000000,0.000000,4346.794922,4323.589844,4325.769043,4338.333496,4316.538574,4308.461426,4310.128418,4310.769043,4309.358887,4305.000000,4504.871582,4476.538574,4402.051270,4440.128418,1471.000000,4.000000,80.000000,,,,0.000000,2.000000,4.000000,4.000000,4.000000,4.000000,4.000000,4.000000,4.000000,4.000000,4.000000,4.000000,4.000000,4.000000,4.000000,83.333336,,,,,,,,,,,,,,,,,,,,,,,,,,,,,,,,,,,,,,,,,,,,,,,,,,,,,,,,,,,,,,,,,,,,,,,,,,,,,,,,,,,,,,,,,,,,,,,,,,,,,,,,,,,,,,,,,,,,,
1768210988.195086,1768210988.195310,67.000000,0.000000,4350.641113,4329.487305,4332.307617,4342.692383,4322.436035,4310.897461,4312.692383,4313.589844,4309.743652,4306.025879,4505.641113,4483.461426,4404.615234,4443.717773,3944.000000,4.000000,80.000000,,,,0.000000,2.000000,4.000000,4.000000,4.000000,4.000000,4.000000,4.000000,4.000000,4.000000,4.000000,4.000000,4.000000,4.000000,4.000000,83.333336,,,,,,,,,,,,,,,,,,,,,,,,,,,,,,,,,,,,,,,,,,,,,,,,,,,,,,,,,,,,,,,,,,,,,,,,,,,,,,,,,,,,,,,,,,,,,,,,,,,,,,,,,,,,,,,,,,,,,
1768210988.202895,1768210988.202918,68.000000,0.000000,4354.615234,4332.436035,4331.282227,4342.563965,4325.256348,4311.025879,4309.743652,4310.384766,4310.384766,4309.230957,4510.641113,4491.794922,4410.384766,4447.692383,3861.000000,4.000000,80.000000,,,,0.000000,2.000000,4.000000,4.000000,4.000000,4.000000,4.000000,4.000000,4.000000,4.000000,4.000000,4.000000,4.000000,4.000000,4.000000,83.333336,,,,,,,,,,,,,,,,,,,,,,,,,,,,,,,,,,,,,,,,,,,,,,,,,,,,,,,,,,,,,,,,,,,,,,,,,,,,,,,,,,,,,,,,,,,,,,,,,,,,,,,,,,,,,,,,,,,,,
1768210988.210703,1768210988.210727,69.000000,0.000000,4351.922852,4325.897461,4325.897461,4340.384766,4320.512695,4312.436035,4313.589844,4311.538574,4310.512695,4301.282227,4509.230957,4492.948730,4403.717773,4446.538574,3391.000000,4.000000,80.000000,,,,0.000000,2.000000,4.000000,4.000000,4.000000,4.000000,4.000000,4.000000,4.000000,4.000000,4.000000,4.000000,4.000000,4.000000,4.000000,83.333336,,,,,,,,,,,,,,,,,,,,,,,,,,,,,,,,,,,,,,,,,,,,,,,,,,,,,,,,,,,,,,,,,,,,,,,,,,,,,,,,,,,,,,,,,,,,,,,,,,,,,,,,,,,,,,,,,,,,,
1768210988.218511,1768210988.218435,70.000000,0.000000,4347.563965,4320.128418,4323.589844,4336.666504,4317.436035,4310.769043,4315.000000,4312.436035,4307.179688,4295.128418,4502.307617,4487.179688,4392.051270,4441.922852,3901.000000,4.000000,80.000000,,,,0.000000,2.000000,4.000000,4.000000,4.000000,4.000000,4.000000,4.000000,4.000000,4.000000,4.000000,4.000000,4.000000,4.000000,4.000000,83.333336,,,,,,,,,,,,,,,,,,,,,,,,,,,,,,,,,,,,,,,,,,,,,,,,0.407305,0.179488,0.053829,0.031984,0.041304,1.453326,0.776280,0.176512,0.115652,0.097751,0.347117,0.216562,0.150408,0.170137,0.058727,0.350804,0.526686,0.096136,0.064710,0.099738,0.249865,0.129122,0.184185,0.050849,0.052170,0.145647,0.110831,0.133926,0.115568,0.098543,0.394594,0.321776,0.635147,0.247417,0.250351,0.583100,0.088868,0.127246,0.207774,0.152751,0.583206,0.176929,0.135919,0.136812,0.135478,0.450504,0.433353,0.238721,0.266110,0.320364,0.416701,0.550050,0.227907,0.254892,0.267435,0.433620,0.760777,0.143486,0.175966,0.184051,0.592138,0.971056,0.286567,0.438065,0.279586,0.353538,0.399926,0.141201,0.215350,0.302624
1768210988.226320,1768210988.226244,71.000000,0.000000,4348.205078,4325.384766,4326.794922,4336.410156,4322.436035,4307.436035,4304.358887,4311.666504,4305.512695,4293.077148,4502.436035,4482.948730,4392.692383,4440.897461,3936.000000,4.000000,80.000000,,,,0.000000,2.000000,4.000000,4.000000,4.000000,4.000000,4.000000,4.000000,4.000000,4.000000,4.000000,4.000000,4.000000,4.000000,4.000000,83.333336,,,,,,,,,,,,,,,,,,,,,,,,,,,,,,,,,,,,,,,,,,,,,,,,,,,,,,,,,,,,,,,,,,,,,,,,,,,,,,,,,,,,,,,,,,,,,,,,,,,,,,,,,,,,,,,,,,,,,
1768210988.234128,1768210988.234252,72.000000,0.000000,4348.846191,4331.282227,4333.205078,4341.922852,4326.666504,4308.205078,4299.487305,4310.000000,4306.025879,4291.153809,4506.794922,4488.333496,4400.512695,4443.333496,3977.000000,4.000000,80.000000,,,,0.000000,2.000000,4.000000,4.000000,4.000000,4.000000,4.000000,4.000000,4.000000,4.000000,4.000000,4.000000,4.000000,4.000000,4.000000,83.333336,,,,,,,,,,,,,,,,,,,,,,,,,,,,,,,,,,,,,,,,,,,,,,,,,,,,,,,,,,,,,,,,,,,,,,,,,,,,,,,,,,,,,,,,,,,,,,,,,,,,,,,,,,,,,,,,,,,,,
1768210988.241937,1768210988.242060,73.000000,0.000000,4347.307617,4328.461426,4333.846191,4344.230957,4325.512695,4310.000000,4306.922852,4307.948730,4304.615234,4300.256348,4505.769043,4488.846191,4398.589844,4439.358887,4073.000000,4.000000,80.000000,,,,0.000000,2.000000,4.000000,4.000000,4.000000,4.000000,4.000000,4.000000,4.000000,4.000000,4.000000,4.000000,4.000000,4.000000,4.000000,83.333336,,,,,,,,,,,,,,,,,,,,,,,,,,,,,,,,,,,,,,,,,,,,,,,,,,,,,,,,,,,,,,,,,,,,,,,,,,,,,,,,,,,,,,,,,,,,,,,,,,,,,,,,,,,,,,,,,,,,,
1768210988.249745,1768210988.249969,74.000000,0.000000,4348.077148,4325.641113,4327.692383,4341.410156,4322.820313,4310.128418,4312.948730,4309.871582,4305.897461,4305.256348,4504.230957,4480.384766,4393.461426,4435.897461,4006.000000,4.000000,80.000000,,,,0.000000,2.000000,4.000000,4.000000,4.000000,4.000000,4.000000,4.000000,4.000000,4.000000,4.000000,4.000000,4.000000,4.000000,4.000000,83.333336,,,,,,,,,,,,,,,,,,,,,,,,,,,,,,,,,,,,,,,,,,,,,,,,,,,,,,,,,,,,,,,,,,,,,,,,,,,,,,,,,,,,,,,,,,,,,,,,,,,,,,,,,,,,,,,,,,,,,
1768210988.257554,1768210988.257777,75.000000,0.000000,4350.641113,4326.538574,4325.512695,4341.538574,4323.846191,4309.743652,4311.794922,4311.538574,4308.846191,4297.179688,4505.897461,4478.077148,4395.641113,4440.769043,4039.000000,4.000000,80.000000,,,,0.000000,2.000000,4.000000,4.000000,4.000000,4.000000,4.000000,4.000000,4.000000,4.000000,4.000000,4.000000,4.000000,4.000000,4.000000,83.333336,,,,,,,,,,,,,,,,,,,,,,,,,,,,,,,,,,,,,,,,,,,,,,,,,,,,,,,,,,,,,,,,,,,,,,,,,,,,,,,,,,,,,,,,,,,,,,,,,,,,,,,,,,,,,,,,,,,,,
1768210988.265362,1768210988.265786,76.000000,0.000000,4352.051270,4327.436035,4328.589844,4343.461426,4327.179688,4309.487305,4307.692383,4308.846191,4306.410156,4297.948730,4506.794922,4481.794922,4402.820313,4445.256348,4983.000000,4.000000,80.000000,,,,0.000000,2.000000,4.000000,4.000000,4.000000,4.000000,4.000000,4.000000,4.000000,4.000000,4.000000,4.000000,4.000000,4.000000,4.000000,83.333336,,,,,,,,,,,,,,,,,,,,,,,,,,,,,,,,,,,,,,,,,,,,,,,,,,,,,,,,,,,,,,,,,,,,,,,,,,,,,,,,,,,,,,,,,,,,,,,,,,,,,,,,,,,,,,,,,,,,,
1768210988.273171,1768210988.273594,77.000000,0.000000,4353.461426,4328.205078,4327.563965,4342.307617,4326.922852,4308.717773,4308.077148,4308.333496,4302.820313,4305.512695,4507.563965,4485.000000,4410.512695,4444.615234,3730.000000,4.000000,80.000000,,,,0.000000,2.000000,4.000000,4.000000,4.000000,4.000000,4.000000,4.000000,4.000000,4.000000,4.000000,4.000000,4.000000,4.000000,4.000000,83.333336,,,,,,,,,,,,,,,,,,,,,,,,,,,,,,,,,,,,,,,,,,,,,,,,,,,,,,,,,,,,,,,,,,,,,,,,,,,,,,,,,,,,,,,,,,,,,,,,,,,,,,,,,,,,,,,,,,,,,
1768210988.280979,1768210988.281302,78.000000,0.000000,4355.641113,4327.820313,4325.897461,4345.000000,4325.000000,4311.538574,4316.282227,4315.384766,4307.051270,4307.692383,4508.461426,4483.974121,4412.692383,4445.384766,4006.000000,4.000000,80.000000,,,,0.000000,2.000000,4.000000,4.000000,4.000000,4.000000,4.000000,4.000000,4.000000,4.000000,4.000000,4.000000,4.000000,4.000000,4.000000,83.333336,,,,,,,,,,,,,,,,,,,,,,,,,,,,,,,,,,,,,,,,,,,,,,,,,,,,,,,,,,,,,,,,,,,,,,,,,,,,,,,,,,,,,,,,,,,,,,,,,,,,,,,,,,,,,,,,,,,,,
1768210988.288787,1768210988.289110,79.000000,0.000000,4357.692383,4328.077148,4331.666504,4353.333496,4327.692383,4313.589844,4318.974121,4322.948730,4312.051270,4303.589844,4508.333496,4482.307617,4410.897461,4447.436035,4039.000000,4.000000,80.000000,,,,0.000000,2.000000,4.000000,4.000000,4.000000,4.000000,4.000000,4.000000,4.000000,4.000000,4.000000,4.000000,4.000000,4.000000,4.000000,83.333336,,,,,,,,,,,,,,,,,,,,,,,,,,,,,,,,,,,,,,,,,,,,,,,,,,,,,,,,,,,,,,,,,,,,,,,,,,,,,,,,,,,,,,,,,,,,,,,,,,,,,,,,,,,,,,,,,,,,,
1768210988.296596,1768210988.297119,80.000000,0.000000,4358.589844,4328.589844,4338.717773,4355.512695,4328.974121,4309.871582,4310.384766,4322.051270,4310.256348,4295.641113,4510.000000,4485.641113,4409.871582,4446.666504,4983.000000,4.000000,80.000000,,,,0.000000,2.000000,4.000000,4.000000,4.000000,4.000000,4.000000,4.000000,4.000000,4.000000,4.000000,4.000000,4.000000,4.000000,4.000000,83.333336,,,,,,,,,,,,,,,,,,,,,,,,,,,,,,,,,,,,,,,,,,,,,,,,,,,,,,,,,,,,,,,,,,,,,,,,,,,,,,,,,,,,,,,,,,,,,,,,,,,,,,,,,,,,,,,,,,,,,
1768210988.304404,1768210988.304927,81.000000,0.000000,4356.666504,4327.307617,4339.871582,4349.487305,4325.512695,4308.846191,4306.410156,4314.615234,4308.077148,4299.230957,4511.282227,4487.692383,4411.025879,4450.256348,3730.000000,4.000000,80.000000,,,,0.000000,2.000000,4.000000,4.000000,4.000000,4.000000,4.000000,4.000000,4.000000,4.000000,4.000000,4.000000,4.000000,4.000000,4.000000,83.333336,,,,,,,,,,,,,,,,,,,,,,,,,,,,,,,,,,,,,,,,,,,,,,,,,,,,,,,,,,,,,,,,,,,,,,,,,,,,,,,,,,,,,,,,,,,,,,,,,,,,,,,,,,,,,,,,,,,,,
1768210988.312213,1768210988.312636,82.000000,0.000000,4355.897461,4328.589844,4337.179688,4349.230957,4326.025879,4312.307617,4314.743652,4311.282227,4312.307617,4314.358887,4510.512695,4485.641113,4413.589844,4454.358887,4006.000000,4.000000,80.000000,,,,0.000000,2.000000,4.000000,4.000000,4.000000,4.000000,4.000000,4.000000,4.000000,4.000000,4.000000,4.000000,4.000000,4.000000,4.000000,83.333336,,,,,,,,,,,,,,,,,,,,,,,,,,,,,,,,,,,,,,,,,,,,,,,,,,,,,,,,,,,,,,,,,,,,,,,,,,,,,,,,,,,,,,,,,,,,,,,,,,,,,,,,,,,,,,,,,,,,,
1768210988.320021,1768210988.320444,83.000000,0.000000,4357.820313,4330.000000,4336.025879,4351.666504,4328.589844,4312.692383,4312.948730,4311.538574,4313.461426,4311.538574,4507.948730,4482.692383,4409.871582,4451.794922,4039.000000,4.000000,80.000000,,,,0.000000,2.000000,4.000000,4.000000,4.000000,4.000000,4.000000,4.000000,4.000000,4.000000,4.000000,4.000000,4.000000,4.000000,4.000000,83.333336,,,,,,,,,,,,,,,,,,,,,,,,,,,,,,,,,,,,,,,,,,,,,,,,,,,,,,,,,,,,,,,,,,,,,,,,,,,,,,,,,,,,,,,,,,,,,,,,,,,,,,,,,,,,,,,,,,,,,
1768210988.327829,1768210988.328253,84.000000,0.000000,4355.897461,4329.358887,4336.922852,4345.769043,4327.051270,4307.820313,4294.487305,4308.589844,4307.051270,4301.410156,4505.128418,4483.333496,4404.230957,4447.179688,4983.000000,4.000000,80.000000,,,,0.000000,2.000000,4.000000,4.000000,4.000000,4.000000,4.000000,4.000000,4.000000,4.000000,4.000000,4.000000,4.000000,4.000000,4.000000,83.333336,,,,,,,,,,,,,,,,,,,,,,,,,,,,,,,,,,,,,,,,,,,,,,,,,,,,,,,,,,,,,,,,,,,,,,,,,,,,,,,,,,,,,,,,,,,,,,,,,,,,,,,,,,,,,,,,,,,,,
1768210988.335638,1768210988.336061,85.000000,0.000000,4349.871582,4325.641113,4333.589844,4340.000000,4324.487305,4307.563965,4294.487305,4310.384766,4306.282227,4304.743652,4507.436035,4482.820313,4403.077148,4443.461426,3730.000000,4.000000,80.000000,,,,0.000000,2.000000,4.000000,4.000000,4.000000,4.000000,4.000000,4.000000,4.000000,4.000000,4.000000,4.000000,4.000000,4.000000,4.000000,83.333336,,,,,,,,,,,,,,,,,,,,,,,,,,,,,,,,,,,,,,,,,,,,,,,,,,,,,,,,,,,,,,,,,,,,,,,,,,,,,,,,,,,,,,,,,,,,,,,,,,,,,,,,,,,,,,,,,,,,,
1768210988.343446,1768210988.343770,86.000000,0.000000,4346.282227,4318.205078,4324.102539,4341.666504,4322.179688,4315.128418,4313.333496,4315.769043,4310.000000,4307.692383,4507.436035,4479.487305,4400.000000,4439.487305,4006.000000,4.000000,80.000000,,,,0.000000,2.000000,4.000000,4.000000,4.000000,4.000000,4.000000,4.000000,4.000000,4.000000,4.000000,4.000000,4.000000,4.000000,4.000000,83.333336,1.000000,58.333332,2.000000,4.000000,4.000000,4.000000,4.000000,1.000000,4.000000,4.000000,4.000000,4.000000,4.000000,4.000000,4.000000,4.000000,,,,,,,,,,,,,,,,,,,,,,,,,,,,,,,,0.215513,0.154782,0.064564,0.035289,0.044520,1.540843,0.830127,0.172890,0.121071,0.102477,0.463765,0.228510,0.155387,0.165579,0.050520,0.482833,0.523743,0.102996,0.067304,0.090041,0.301005,0.163336,0.187508,0.061100,0.057205,0.137522,0.097453,0.151700,0.119838,0.104011,0.344874,0.264483,0.629268,0.252380,0.268688,0.558448,0.129701,0.159151,0.236984,0.157941,0.551354,0.183941,0.167526,0.149018,0.138233,0.552618,0.483584,0.293033,0.257239,0.335492,0.511630,0.542136,0.220060,0.293385,0.262553,0.414268,0.749273,0.169894,0.173258,0.174918,0.784832,1.002715,0.273151,0.509610,0.295790,0.525113,0.458680,0.164852,0.219223,0.268939
1768210988.351255,1768210988.351578,87.000000,0.000000,4349.358887,4314.871582,4323.205078,4341.538574,4320.000000,4320.256348,4316.410156,4317.051270,4310.641113,4307.051270,4503.589844,4478.205078,4399.102539,4436.794922,4039.000000,4.000000,80.000000,,,,0.000000,2.000000,4.000000,4.000000,4.000000,4.000000,4.000000,4.000000,4.000000,4.000000,4.000000,4.000000,4.000000,4.000000,4.000000,83.333336,,,,,,,,,,,,,,,,,,,,,,,,,,,,,,,,,,,,,,,,,,,,,,,,,,,,,,,,,,,,,,,,,,,,,,,,,,,,,,,,,,,,,,,,,,,,,,,,,,,,,,,,,,,,,,,,,,,,,
1768210988.359063,1768210988.359586,88.000000,0.000000,4355.512695,4321.282227,4335.769043,4339.615234,4319.487305,4317.820313,4307.692383,4320.384766,4315.128418,4307.820313,4512.051270,4487.563965,4408.974121,4446.025879,4983.000000,4.000000,80.000000,,,,0.000000,2.000000,4.000000,4.000000,4.000000,4.000000,4.000000,4.000000,4.000000,4.000000,4.000000,4.000000,4.000000,4.000000,4.000000,83.333336,,,,,,,,,,,,,,,,,,,,,,,,,,,,,,,,,,,,,,,,,,,,,,,,,,,,,,,,,,,,,,,,,,,,,,,,,,,,,,,,,,,,,,,,,,,,,,,,,,,,,,,,,,,,,,,,,,,,,
1768210988.366872,1768210988.367395,89.000000,0.000000,4356.794922,4328.846191,4342.820313,4345.769043,4322.948730,4313.846191,4310.256348,4323.461426,4319.615234,4309.230957,4528.717773,4498.333496,4419.487305,4459.615234,3730.000000,4.000000,80.000000,,,,0.000000,2.000000,4.000000,4.000000,4.000000,4.000000,4.000000,4.000000,4.000000,4.000000,4.000000,4.000000,4.000000,4.000000,4.000000,83.333336,,,,,,,,,,,,,,,,,,,,,,,,,,,,,,,,,,,,,,,,,,,,,,,,,,,,,,,,,,,,,,,,,,,,,,,,,,,,,,,,,,,,,,,,,,,,,,,,,,,,,,,,,,,,,,,,,,,,,
1768210988.374680,1768210988.375303,90.000000,0.000000,4355.512695,4328.846191,4339.743652,4352.179688,4326.794922,4311.794922,4314.230957,4315.000000,4314.102539,4312.051270,4525.000000,4494.487305,4419.230957,4457.948730,4006.000000,4.000000,80.000000,,,,0.000000,2.000000,4.000000,4.000000,4.000000,4.000000,4.000000,4.000000,4.000000,4.000000,4.000000,4.000000,4.000000,4.000000,4.000000,83.333336,,,,,,,,,,,,,,,,,,,,,,,,,,,,,,,,,,,,,,,,,,,,,,,,,,,,,,,,,,,,,,,,,,,,,,,,,,,,,,,,,,,,,,,,,,,,,,,,,,,,,,,,,,,,,,,,,,,,,
1768210988.382489,1768210988.383112,91.000000,0.000000,4355.769043,4326.794922,4337.436035,4350.000000,4326.794922,4311.153809,4310.256348,4306.794922,4305.641113,4310.769043,4508.717773,4485.641113,4413.717773,4449.230957,4039.000000,4.000000,80.000000,,,,0.000000,2.000000,4.000000,4.000000,4.000000,4.000000,4.000000,4.000000,4.000000,4.000000,4.000000,4.000000,4.000000,4.000000,4.000000,83.333336,,,,,,,,,,,,,,,,,,,,,,,,,,,,,,,,,,,,,,,,,,,,,,,,,,,,,,,,,,,,,,,,,,,,,,,,,,,,,,,,,,,,,,,,,,,,,,,,,,,,,,,,,,,,,,,,,,,,,
1768210988.390297,1768210988.390720,92.000000,0.000000,4354.743652,4328.974121,4337.051270,4347.307617,4324.230957,4311.538574,4308.846191,4316.153809,4310.256348,4308.589844,4512.179688,4486.794922,4411.025879,4449.358887,4983.000000,4.000000,80.000000,,,,0.000000,2.000000,4.000000,4.000000,4.000000,4.000000,4.000000,4.000000,4.000000,4.000000,4.000000,4.000000,4.000000,4.000000,4.000000,83.333336,,,,,,,,,,,,,,,,,,,,,,,,,,,,,,,,,,,,,,,,,,,,,,,,,,,,,,,,,,,,,,,,,,,,,,,,,,,,,,,,,,,,,,,,,,,,,,,,,,,,,,,,,,,,,,,,,,,,,
1768210988.398106,1768210988.398529,93.000000,0.000000,4354.487305,4333.077148,4338.846191,4348.974121,4325.000000,4313.461426,4315.641113,4325.897461,4319.230957,4313.333496,4524.743652,4493.717773,4412.051270,4453.846191,3730.000000,4.000000,80.000000,,,,0.000000,2.000000,4.000000,4.000000,4.000000,4.000000,4.000000,4.000000,4.000000,4.000000,4.000000,4.000000,4.000000,4.000000,4.000000,83.333336,,,,,,,,,,,,,,,,,,,,,,,,,,,,,,,,,,,,,,,,,,,,,,,,,,,,,,,,,,,,,,,,,,,,,,,,,,,,,,,,,,,,,,,,,,,,,,,,,,,,,,,,,,,,,,,,,,,,,
1768210988.405914,1768210988.406237,94.000000,0.000000,4360.641113,4334.615234,4340.641113,4351.153809,4327.820313,4314.230957,4321.538574,4316.153809,4316.282227,4313.461426,4518.205078,4488.333496,4414.871582,4455.256348,4006.000000,4.000000,80.000000,,,,0.000000,2.000000,4.000000,4.000000,4.000000,4.000000,4.000000,4.000000,4.000000,4.000000,4.000000,4.000000,4.000000,4.000000,4.000000,83.333336,,,,,,,,,,,,,,,,,,,,,,,,,,,,,,,,,,,,,,,,,,,,,,,,,,,,,,,,,,,,,,,,,,,,,,,,,,,,,,,,,,,,,,,,,,,,,,,,,,,,,,,,,,,,,,,,,,,,,
1768210988.413722,1768210988.414046,95.000000,0.000000,4363.333496,4328.333496,4338.717773,4352.307617,4326.410156,4311.025879,4308.333496,4305.128418,4305.256348,4301.282227,4504.358887,4476.666504,4411.666504,4455.128418,4039.000000,4.000000,80.000000,,,,0.000000,2.000000,4.000000,4.000000,4.000000,4.000000,4.000000,4.000000,4.000000,4.000000,4.000000,4.000000,4.000000,4.000000,4.000000,83.333336,,,,,,,,,,,,,,,,,,,,,,,,,,,,,,,,,,,,,,,,,,,,,,,,,,,,,,,,,,,,,,,,,,,,,,,,,,,,,,,,,,,,,,,,,,,,,,,,,,,,,,,,,,,,,,,,,,,,,
1768210988.421531,1768210988.422054,96.000000,0.000000,4363.205078,4325.000000,4340.000000,4354.871582,4324.358887,4308.589844,4295.000000,4305.384766,4298.205078,4298.974121,4505.256348,4479.743652,4406.410156,4457.307617,4983.000000,4.000000,80.000000,,,,0.000000,2.000000,4.000000,4.000000,4.000000,4.000000,4.000000,4.000000,4.000000,4.000000,4.000000,4.000000,4.000000,4.000000,4.000000,83.333336,,,,,,,,,,,,,,,,,,,,,,,,,,,,,,,,,,,,,,,,,,,,,,,,,,,,,,,,,,,,,,,,,,,,,,,,,,,,,,,,,,,,,,,,,,,,,,,,,,,,,,,,,,,,,,,,,,,,,
1768210988.429339,1768210988.429862,97.000000,0.000000,4371.282227,4334.102539,4345.128418,4357.051270,4326.538574,4309.615234,4302.307617,4303.205078,4295.897461,4305.000000,4511.922852,4487.692383,4409.230957,4463.717773,3730.000000,4.000000,80.000000,,,,0.000000,2.000000,4.000000,4.000000,4.000000,4.000000,4.000000,4.000000,4.000000,4.000000,4.000000,4.000000,4.000000,4.000000,4.000000,83.333336,,,,,,,,,,,,,,,,,,,,,,,,,,,,,,,,,,,,,,,,,,,,,,,,,,,,,,,,,,,,,,,,,,,,,,,,,,,,,,,,,,,,,,,,,,,,,,,,,,,,,,,,,,,,,,,,,,,,,
1768210988.437148,1768210988.437771,98.000000,0.000000,4375.641113,4341.922852,4343.205078,4356.153809,4326.922852,4312.051270,4311.666504,4293.461426,4291.794922,4298.077148,4508.333496,4488.717773,4415.384766,4465.128418,4006.000000,4.000000,80.000000,,,,0.000000,2.000000,4.000000,4.000000,4.000000,4.000000,4.000000,4.000000,4.000000,4.000000,4.000000,4.000000,4.000000,4.000000,4.000000,83.333336,,,,,,,,,,,,,,,,,,,,,,,,,,,,,,,,,,,,,,,,,,,,,,,,,,,,,,,,,,,,,,,,,,,,,,,,,,,,,,,,,,,,,,,,,,,,,,,,,,,,,,,,,,,,,,,,,,,,,
1768210988.444956,1768210988.445579,99.000000,0.000000,4373.077148,4336.538574,4341.410156,4354.358887,4323.077148,4311.666504,4303.461426,4292.563965,4289.487305,4286.794922,4503.077148,4489.871582,4411.025879,4462.820313,4039.000000,4.000000,80.000000,,,,0.000000,2.000000,4.000000,4.000000,4.000000,4.000000,4.000000,4.000000,4.000000,4.000000,4.000000,4.000000,4.000000,4.000000,4.000000,83.333336,,,,,,,,,,,,,,,,,,,,,,,,,,,,,,,,,,,,,,,,,,,,,,,,,,,,,,,,,,,,,,,,,,,,,,,,,,,,,,,,,,,,,,,,,,,,,,,,,,,,,,,,,,,,,,,,,,,,,
1768210988.452764,1768210988.453587,100.000000,0.000000,4375.769043,4335.128418,4346.794922,4355.641113,4322.948730,4309.102539,4299.102539,4303.333496,4294.102539,4296.666504,4509.743652,4491.410156,4409.230957,4468.717773,4983.000000,4.000000,80.000000,,,,0.000000,2.000000,4.000000,4.000000,4.000000,4.000000,4.000000,4.000000,4.000000,4.000000,4.000000,4.000000,4.000000,4.000000,4.000000,83.333336,,,,,,,,,,,,,,,,,,,,,,,,,,,,,,,,,,,,,,,,,,,,,,,,,,,,,,,,,,,,,,,,,,,,,,,,,,,,,,,,,,,,,,,,,,,,,,,,,,,,,,,,,,,,,,,,,,,,,
1768210988.460573,1768210988.461396,101.000000,0.000000,4383.974121,4346.538574,4351.666504,4358.205078,4324.743652,4309.743652,4309.743652,4313.077148,4306.922852,4307.563965,4522.563965,4492.692383,4424.743652,4479.871582,3730.000000,4.000000,80.000000,,,,0.000000,2.000000,4.000000,4.000000,4.000000,4.000000,4.000000,4.000000,4.000000,4.000000,4.000000,4.000000,4.000000,4.000000,4.000000,83.333336,,,,,,,,,,,,,,,,,,,,,,,,,,,,,,,,,,,,,,,,,,,,,,,,,,,,,,,,,,,,,,,,,,,,,,,,,,,,,,,,,,,,,,,,,,,,,,,,,,,,,,,,,,,,,,,,,,,,,
1768210988.468381,1768210988.469304,102.000000,0.000000,4388.333496,4357.948730,4354.615234,4357.948730,4321.538574,4309.230957,4311.794922,4313.717773,4311.538574,4298.333496,4525.512695,4495.256348,4427.563965,4487.307617,4006.000000,4.000000,80.000000,,,,0.000000,2.000000,4.000000,4.000000,4.000000,4.000000,4.000000,4.000000,4.000000,4.000000,4.000000,4.000000,4.000000,4.000000,4.000000,83.333336,,,,,,,,,,,,,,,,,,,,,,,,,,,,,,,,,,,,,,,,,,,,,,,,0.172054,0.148095,0.077049,0.038649,0.048528,1.620214,0.844058,0.170714,0.123189,0.102632,0.592432,0.230053,0.168236,0.151606,0.042566,0.634029,0.499091,0.118029,0.071528,0.080089,0.385209,0.196535,0.186116,0.070797,0.058392,0.146094,0.096159,0.176335,0.115372,0.105257,0.283712,0.206932,0.598485,0.246116,0.287604,0.502636,0.191513,0.196413,0.266920,0.163450,0.497605,0.194648,0.207541,0.162559,0.136514,0.672283,0.509282,0.368336,0.235566,0.352687,0.655359,0.490197,0.219692,0.349098,0.250911,0.437993,0.678400,0.203238,0.182720,0.171629,0.998698,0.985428,0.264502,0.580983,0.313892,0.779151,0.496866,0.196776,0.233593,0.233322
1768210988.476190,1768210988.477113,103.000000,0.000000,4390.000000,4362.179688,4355.000000,4358.077148,4319.230957,4306.922852,4307.948730,4309.871582,4302.179688,4297.179688,4520.512695,4495.128418,4410.769043,4487.307617,4039.000000,4.000000,80.000000,,,,0.000000,2.000000,4.000000,4.000000,4.000000,4.000000,4.000000,4.000000,4.000000,4.000000,4.000000,4.000000,4.000000,4.000000,4.000000,83.333336,,,,,,,,,,,,,,,,,,,,,,,,,,,,,,,,,,,,,,,,,,,,,,,,,,,,,,,,,,,,,,,,,,,,,,,,,,,,,,,,,,,,,,,,,,,,,,,,,,,,,,,,,,,,,,,,,,,,,
1768210988.483998,1768210988.485021,104.000000,0.000000,4393.077148,4364.743652,4351.538574,4358.846191,4316.922852,4305.512695,4308.205078,4310.384766,4299.230957,4304.230957,4519.487305,4493.974121,4414.871582,4483.846191,4983.000000,4.000000,80.000000,,,,0.000000,2.000000,4.000000,4.000000,4.000000,4.000000,4.000000,4.000000,4.000000,4.000000,4.000000,4.000000,4.000000,4.000000,4.000000,83.333336,,,,,,,,,,,,,,,,,,,,,,,,,,,,,,,,,,,,,,,,,,,,,,,,,,,,,,,,,,,,,,,,,,,,,,,,,,,,,,,,,,,,,,,,,,,,,,,,,,,,,,,,,,,,,,,,,,,,,
1768210988.491807,1768210988.492829,105.000000,0.000000,4396.153809,4370.000000,4350.256348,4358.205078,4311.153809,4304.871582,4301.282227,4307.563965,4300.000000,4300.000000,4523.846191,4492.051270,4430.256348,4487.563965,3730.000000,4.000000,80.000000,,,,0.000000,2.000000,4.000000,4.000000,4.000000,4.000000,4.000000,4.000000,4.000000,4.000000,4.000000,4.000000,4.000000,4.000000,4.000000,83.333336,,,,,,,,,,,,,,,,,,,,,,,,,,,,,,,,,,,,,,,,,,,,,,,,,,,,,,,,,,,,,,,,,,,,,,,,,,,,,,,,,,,,,,,,,,,,,,,,,,,,,,,,,,,,,,,,,,,,,
1768210988.499615,1768210988.500538,106.000000,0.000000,4399.487305,4376.282227,4354.871582,4358.589844,4312.563965,4303.589844,4293.461426,4297.563965,4294.871582,4296.666504,4524.102539,4490.897461,4422.820313,4494.871582,4006.000000,4.000000,80.000000,,,,0.000000,2.000000,4.000000,4.000000,4.000000,4.000000,4.000000,4.000000,4.000000,4.000000,4.000000,4.000000,4.000000,4.000000,4.000000,83.333336,,,,,,,,,,,,,,,,,,,,,,,,,,,,,,,,,,,,,,,,,,,,,,,,,,,,,,,,,,,,,,,,,,,,,,,,,,,,,,,,,,,,,,,,,,,,,,,,,,,,,,,,,,,,,,,,,,,,,
1768210988.507424,1768210988.508346,107.000000,0.000000,4398.846191,4377.179688,4357.820313,4359.358887,4319.871582,4304.743652,4298.846191,4295.384766,4292.051270,4291.666504,4515.128418,4489.487305,4408.846191,4491.922852,4039.000000,4.000000,80.000000,,,,0.000000,2.000000,4.000000,4.000000,4.000000,4.000000,4.000000,4.000000,4.000000,4.000000,4.000000,4.000000,4.000000,4.000000,4.000000,83.333336,,,,,,,,,,,,,,,,,,,,,,,,,,,,,,,,,,,,,,,,,,,,,,,,,,,,,,,,,,,,,,,,,,,,,,,,,,,,,,,,,,,,,,,,,,,,,,,,,,,,,,,,,,,,,,,,,,,,,
1768210988.515232,1768210988.515955,108.000000,0.000000,4395.512695,4375.000000,4355.641113,4357.307617,4321.025879,4308.717773,4305.000000,4300.769043,4294.743652,4279.487305,4507.948730,4487.436035,4407.436035,4489.358887,4983.000000,4.000000,80.000000,,,,0.000000,2.000000,4.000000,4.000000,4.000000,4.000000,4.000000,4.000000,4.000000,4.000000,4.000000,4.000000,4.000000,4.000000,4.000000,83.333336,,,,,,,,,,,,,,,,,,,,,,,,,,,,,,,,,,,,,,,,,,,,,,,,,,,,,,,,,,,,,,,,,,,,,,,,,,,,,,,,,,,,,,,,,,,,,,,,,,,,,,,,,,,,,,,,,,,,,
1768210988.523040,1768210988.523763,109.000000,0.000000,4395.128418,4374.615234,4353.974121,4360.128418,4316.922852,4309.871582,4304.615234,4303.846191,4296.794922,4287.179688,4512.948730,4488.077148,4415.769043,4492.563965,3730.000000,4.000000,80.000000,,,,0.000000,2.000000,4.000000,4.000000,4.000000,4.000000,4.000000,4.000000,4.000000,4.000000,4.000000,4.000000,4.000000,4.000000,4.000000,83.333336,,,,,,,,,,,,,,,,,,,,,,,,,,,,,,,,,,,,,,,,,,,,,,,,,,,,,,,,,,,,,,,,,,,,,,,,,,,,,,,,,,,,,,,,,,,,,,,,,,,,,,,,,,,,,,,,,,,,,
1768210988.530849,1768210988.531472,110.000000,0.000000,4396.153809,4375.256348,4355.769043,4365.000000,4318.717773,4309.615234,4311.025879,4308.333496,4303.077148,4304.230957,4526.538574,4492.436035,4427.179688,4494.230957,4006.000000,4.000000,80.000000,,,,0.000000,2.000000,4.000000,4.000000,4.000000,4.000000,4.000000,4.000000,4.000000,4.000000,4.000000,4.000000,4.000000,4.000000,4.000000,83.333336,,,,,,,,,,,,,,,,,,,,,,,,,,,,,,,,,,,,,,,,,,,,,,,,,,,,,,,,,,,,,,,,,,,,,,,,,,,,,,,,,,,,,,,,,,,,,,,,,,,,,,,,,,,,,,,,,,,,,
1768210988.538657,1768210988.539280,111.000000,0.000000,4391.153809,4372.563965,4351.794922,4362.051270,4322.436035,4312.051270,4310.000000,4311.153809,4310.641113,4298.717773,4527.436035,4489.358887,4425.000000,4490.512695,4039.000000,4.000000,80.000000,,,,0.000000,2.000000,4.000000,4.000000,4.000000,4.000000,4.000000,4.000000,4.000000,4.000000,4.000000,4.000000,4.000000,4.000000,4.000000,83.333336,,,,,,,,,,,,,,,,,,,,,,,,,,,,,,,,,,,,,,,,,,,,,,,,,,,,,,,,,,,,,,,,,,,,,,,,,,,,,,,,,,,,,,,,,,,,,,,,,,,,,,,,,,,,,,,,,,,,,
1768210988.546466,1768210988.546889,112.000000,0.000000,4383.461426,4364.615234,4344.230957,4356.025879,4319.615234,4313.077148,4297.820313,4302.179688,4307.563965,4291.410156,4511.666504,4479.743652,4410.897461,4479.230957,4983.000000,4.000000,80.000000,,,,0.000000,2.000000,4.000000,4.000000,4.000000,4.000000,4.000000,4.000000,4.000000,4.000000,4.000000,4.000000,4.000000,4.000000,4.000000,83.333336,,,,,,,,,,,,,,,,,,,,,,,,,,,,,,,,,,,,,,,,,,,,,,,,,,,,,,,,,,,,,,,,,,,,,,,,,,,,,,,,,,,,,,,,,,,,,,,,,,,,,,,,,,,,,,,,,,,,,
1768210988.554274,1768210988.554698,113.000000,0.000000,4382.820313,4355.000000,4343.846191,4353.717773,4311.410156,4310.641113,4297.820313,4297.051270,4302.436035,4292.563965,4506.538574,4476.410156,4408.717773,4472.563965,3730.000000,4.000000,80.000000,,,,0.000000,2.000000,4.000000,4.000000,4.000000,4.000000,4.000000,4.000000,4.000000,4.000000,4.000000,4.000000,4.000000,4.000000,4.000000,83.333336,,,,,,,,,,,,,,,,,,,,,,,,,,,,,,,,,,,,,,,,,,,,,,,,,,,,,,,,,,,,,,,,,,,,,,,,,,,,,,,,,,,,,,,,,,,,,,,,,,,,,,,,,,,,,,,,,,,,,
1768210988.562082,1768210988.562606,114.000000,0.000000,4379.615234,4351.153809,4344.230957,4350.384766,4310.512695,4310.641113,4308.974121,4307.436035,4306.538574,4293.717773,4518.846191,4478.846191,4416.025879,4474.615234,4006.000000,4.000000,80.000000,,,,0.000000,2.000000,4.000000,4.000000,4.000000,4.000000,4.000000,4.000000,4.000000,4.000000,4.000000,4.000000,4.000000,4.000000,4.000000,83.333336,,,,,,,,,,,,,,,,,,,,,,,,,,,,,,,,,,,,,,,,,,,,,,,,,,,,,,,,,,,,,,,,,,,,,,,,,,,,,,,,,,,,,,,,,,,,,,,,,,,,,,,,,,,,,,,,,,,,,
1768210988.569891,1768210988.570414,115.000000,0.000000,4374.615234,4356.538574,4340.000000,4348.333496,4318.846191,4314.358887,4311.666504,4314.487305,4310.384766,4297.692383,4526.282227,4486.538574,4415.641113,4476.538574,4039.000000,4.000000,80.000000,,,,0.000000,2.000000,4.000000,4.000000,4.000000,4.000000,4.000000,4.000000,4.000000,4.000000,4.000000,4.000000,4.000000,4.000000,4.000000,83.333336,,,,,,,,,,,,,,,,,,,,,,,,,,,,,,,,,,,,,,,,,,,,,,,,,,,,,,,,,,,,,,,,,,,,,,,,,,,,,,,,,,,,,,,,,,,,,,,,,,,,,,,,,,,,,,,,,,,,,
1768210988.577699,1768210988.578423,116.000000,0.000000,4374.743652,4359.871582,4340.256348,4354.487305,4319.102539,4313.461426,4306.794922,4308.077148,4305.384766,4292.948730,4521.410156,4487.563965,4411.538574,4475.384766,4983.000000,4.000000,80.000000,,,,0.000000,2.000000,4.000000,4.000000,4.000000,4.000000,4.000000,4.000000,4.000000,4.000000,4.000000,4.000000,4.000000,4.000000,4.000000,83.333336,,,,,,,,,,,,,,,,,,,,,,,,,,,,,,,,,,,,,,,,,,,,,,,,,,,,,,,,,,,,,,,,,,,,,,,,,,,,,,,,,,,,,,,,,,,,,,,,,,,,,,,,,,,,,,,,,,,,,
1768210988.585508,1768210988.586231,117.000000,0.000000,4373.077148,4351.025879,4341.025879,4355.897461,4311.794922,4311.153809,4310.641113,4304.102539,4303.846191,4286.666504,4519.230957,4479.615234,4413.461426,4474.102539,3730.000000,4.000000,80.000000,,,,0.000000,2.000000,4.000000,4.000000,4.000000,4.000000,4.000000,4.000000,4.000000,4.000000,4.000000,4.000000,4.000000,4.000000,4.000000,83.333336,,,,,,,,,,,,,,,,,,,,,,,,,,,,,,,,,,,,,,,,,,,,,,,,,,,,,,,,,,,,,,,,,,,,,,,,,,,,,,,,,,,,,,,,,,,,,,,,,,,,,,,,,,,,,,,,,,,,,
1768210988.593316,1768210988.594140,118.000000,0.000000,4367.820313,4341.922852,4339.102539,4347.051270,4309.615234,4312.820313,4311.794922,4308.333496,4310.512695,4301.538574,4522.179688,4481.666504,4418.589844,4469.487305,4006.000000,4.000000,80.000000,,,,0.000000,2.000000,4.000000,4.000000,4.000000,4.000000,4.000000,4.000000,4.000000,4.000000,4.000000,4.000000,4.000000,4.000000,4.000000,83.333336,,,,,,,,,,,,,,,,,,,,,,,,,,,,,,,,,,,,,,,,,,,,,,,,0.195992,0.150081,0.085889,0.040227,0.052413,1.623417,0.809371,0.170639,0.124481,0.100320,0.696670,0.220489,0.180553,0.132683,0.037299,0.768249,0.466355,0.135033,0.076356,0.071962,0.497953,0.224547,0.177079,0.077956,0.055696,0.156420,0.105293,0.199785,0.103256,0.102003,0.225210,0.167444,0.542629,0.228664,0.299975,0.430369,0.266584,0.228383,0.287207,0.170143,0.438617,0.204707,0.244903,0.172422,0.132028,0.789902,0.497243,0.439612,0.203485,0.373586,0.822197,0.406028,0.218744,0.399753,0.235625,0.497107,0.557882,0.234561,0.194124,0.172090,1.194513,0.935584,0.256135,0.631293,0.331852,1.061847,0.504637,0.220081,0.253450,0.200489
1768210988.601125,1768210988.601948,119.000000,0.000000,4366.794922,4343.974121,4340.512695,4342.051270,4311.538574,4310.641113,4297.307617,4311.025879,4311.282227,4315.641113,4523.077148,4490.512695,4416.410156,4468.205078,4039.000000,4.000000,80.000000,,,,0.000000,2.000000,4.000000,4.000000,4.000000,4.000000,4.000000,4.000000,4.000000,4.000000,4.000000,4.000000,4.000000,4.000000,4.000000,83.333336,,,,,,,,,,,,,,,,,,,,,,,,,,,,,,,,,,,,,,,,,,,,,,,,,,,,,,,,,,,,,,,,,,,,,,,,,,,,,,,,,,,,,,,,,,,,,,,,,,,,,,,,,,,,,,,,,,,,,
1768210988.608933,1768210988.609957,120.000000,0.000000,4367.436035,4344.615234,4342.307617,4343.461426,4311.410156,4307.692383,4294.358887,4311.922852,4308.717773,4308.333496,4523.205078,4488.461426,4419.102539,4472.692383,4983.000000,4.000000,80.000000,,,,0.000000,2.000000,4.000000,4.000000,4.000000,4.000000,4.000000,4.000000,4.000000,4.000000,4.000000,4.000000,4.000000,4.000000,4.000000,83.333336,,,,,,,,,,,,,,,,,,,,,,,,,,,,,,,,,,,,,,,,,,,,,,,,,,,,,,,,,,,,,,,,,,,,,,,,,,,,,,,,,,,,,,,,,,,,,,,,,,,,,,,,,,,,,,,,,,,,,
1768210988.616742,1768210988.617765,121.000000,0.000000,4362.436035,4337.692383,4341.282227,4342.948730,4310.256348,4310.256348,4300.512695,4308.205078,4309.358887,4302.307617,4521.666504,4484.487305,4426.922852,4468.974121,3730.000000,4.000000,80.000000,,,,0.000000,2.000000,4.000000,4.000000,4.000000,4.000000,4.000000,4.000000,4.000000,4.000000,4.000000,4.000000,4.000000,4.000000,4.000000,83.333336,,,,,,,,,,,,,,,,,,,,,,,,,,,,,,,,,,,,,,,,,,,,,,,,,,,,,,,,,,,,,,,,,,,,,,,,,,,,,,,,,,,,,,,,,,,,,,,,,,,,,,,,,,,,,,,,,,,,,
1768210988.624550,1768210988.625673,122.000000,0.000000,4362.436035,4338.205078,4339.871582,4340.769043,4311.153809,4310.897461,4296.282227,4303.974121,4310.384766,4312.051270,4520.000000,4490.384766,4419.487305,4460.769043,4006.000000,4.000000,80.000000,,,,0.000000,2.000000,4.000000,4.000000,4.000000,4.000000,4.000000,4.000000,4.000000,4.000000,4.000000,4.000000,4.000000,4.000000,4.000000,83.333336,,,,,,,,,,,,,,,,,,,,,,,,,,,,,,,,,,,,,,,,,,,,,,,,,,,,,,,,,,,,,,,,,,,,,,,,,,,,,,,,,,,,,,,,,,,,,,,,,,,,,,,,,,,,,,,,,,,,,
1768210988.632358,1768210988.633482,123.000000,0.000000,4363.846191,4340.000000,4339.743652,4340.641113,4309.615234,4310.128418,4301.538574,4319.230957,4315.769043,4309.871582,4519.358887,4494.230957,4408.333496,4462.051270,4039.000000,4.000000,80.000000,,,,0.000000,2.000000,4.000000,4.000000,4.000000,4.000000,4.000000,4.000000,4.000000,4.000000,4.000000,4.000000,4.000000,4.000000,4.000000,83.333336,,,,,,,,,,,,,,,,,,,,,,,,,,,,,,,,,,,,,,,,,,,,,,,,,,,,,,,,,,,,,,,,,,,,,,,,,,,,,,,,,,,,,,,,,,,,,,,,,,,,,,,,,,,,,,,,,,,,,
1768210988.640167,1768210988.641490,124.000000,0.000000,4359.615234,4335.128418,4342.692383,4340.897461,4308.077148,4310.897461,4313.205078,4330.000000,4320.769043,4297.692383,4524.871582,4492.563965,4412.820313,4470.897461,4983.000000,4.000000,80.000000,,,,0.000000,2.000000,4.000000,4.000000,4.000000,4.000000,4.000000,4.000000,4.000000,4.000000,4.000000,4.000000,4.000000,4.000000,4.000000,83.333336,,,,,,,,,,,,,,,,,,,,,,,,,,,,,,,,,,,,,,,,,,,,,,,,,,,,,,,,,,,,,,,,,,,,,,,,,,,,,,,,,,,,,,,,,,,,,,,,,,,,,,,,,,,,,,,,,,,,,
1768210988.647975,1768210988.649298,125.000000,0.000000,4358.717773,4333.589844,4342.820313,4341.538574,4309.102539,4310.641113,4310.000000,4309.230957,4310.512695,4303.077148,4525.384766,4493.205078,4418.717773,4472.307617,3730.000000,4.000000,80.000000,,,,0.000000,2.000000,4.000000,4.000000,4.000000,4.000000,4.000000,4.000000,4.000000,4.000000,4.000000,4.000000,4.000000,4.000000,4.000000,83.333336,,,,,,,,,,,,,,,,,,,,,,,,,,,,,,,,,,,,,,,,,,,,,,,,,,,,,,,,,,,,,,,,,,,,,,,,,,,,,,,,,,,,,,,,,,,,,,,,,,,,,,,,,,,,,,,,,,,,,
1768210988.655784,1768210988.657007,126.000000,0.000000,4359.102539,4334.487305,4339.102539,4339.615234,4311.025879,4309.871582,4305.384766,4292.563965,4296.922852,4311.794922,4511.282227,4489.487305,4415.641113,4462.179688,4006.000000,4.000000,80.000000,,,,0.000000,2.000000,4.000000,4.000000,4.000000,4.000000,4.000000,4.000000,4.000000,4.000000,4.000000,4.000000,4.000000,4.000000,4.000000,83.333336,,,,,,,,,,,,,,,,,,,,,,,,,,,,,,,,,,,,,,,,,,,,,,,,,,,,,,,,,,,,,,,,,,,,,,,,,,,,,,,,,,,,,,,,,,,,,,,,,,,,,,,,,,,,,,,,,,,,,
1768210988.663592,1768210988.664815,127.000000,0.000000,4355.000000,4330.769043,4339.615234,4338.846191,4308.846191,4311.794922,4306.282227,4301.666504,4299.743652,4307.307617,4505.256348,4482.307617,4413.205078,4453.461426,80.000000,4.000000,80.000000,,,,0.000000,2.000000,4.000000,4.000000,4.000000,4.000000,4.000000,4.000000,4.000000,4.000000,4.000000,4.000000,4.000000,4.000000,4.000000,83.333336,,,,,,,,,,,,,,,,,,,,,,,,,,,,,,,,,,,,,,,,,,,,,,,,,,,,,,,,,,,,,,,,,,,,,,,,,,,,,,,,,,,,,,,,,,,,,,,,,,,,,,,,,,,,,,,,,,,,,
1768210988.671400,1768210988.672524,0.000000,0.000000,4355.384766,4332.692383,4343.077148,4345.128418,4309.487305,4314.230957,4301.282227,4313.589844,4310.897461,4310.769043,4517.563965,4485.512695,4413.333496,4457.179688,3037.000000,4.000000,80.000000,,,,0.000000,2.000000,4.000000,4.000000,4.000000,4.000000,4.000000,4.000000,4.000000,4.000000,4.000000,4.000000,4.000000,4.000000,4.000000,83.333336,,,,,,,,,,,,,,,,,,,,,,,,,,,,,,,,,,,,,,,,,,,,,,,,,,,,,,,,,,,,,,,,,,,,,,,,,,,,,,,,,,,,,,,,,,,,,,,,,,,,,,,,,,,,,,,,,,,,,
1768210988.679209,1768210988.680332,1.000000,0.000000,4358.205078,4342.692383,4341.025879,4347.436035,4316.922852,4312.948730,4298.846191,4314.102539,4312.948730,4313.974121,4522.692383,4490.769043,4415.000000,4461.153809,4078.000000,4.000000,80.000000,,,,0.000000,2.000000,4.000000,4.000000,4.000000,4.000000,4.000000,4.000000,4.000000,4.000000,4.000000,4.000000,4.000000,4.000000,4.000000,83.333336,,,,,,,,,,,,,,,,,,,,,,,,,,,,,,,,,,,,,,,,,,,,,,,,,,,,,,,,,,,,,,,,,,,,,,,,,,,,,,,,,,,,,,,,,,,,,,,,,,,,,,,,,,,,,,,,,,,,,
1768210988.687017,1768210988.688041,2.000000,0.000000,4352.436035,4338.077148,4335.384766,4340.897461,4320.769043,4315.769043,4306.666504,4310.641113,4309.358887,4299.230957,4511.410156,4485.512695,4415.000000,4451.922852,1477.000000,4.000000,80.000000,,,,0.000000,2.000000,4.000000,4.000000,4.000000,4.000000,4.000000,4.000000,4.000000,4.000000,4.000000,4.000000,4.000000,4.000000,4.000000,83.333336,,,,,,,,,,,,,,,,,,,,,,,,,,,,,,,,,,,,,,,,,,,,,,,,,,,,,,,,,,,,,,,,,,,,,,,,,,,,,,,,,,,,,,,,,,,,,,,,,,,,,,,,,,,,,,,,,,,,,
1768210988.694826,1768210988.695849,3.000000,0.000000,4351.025879,4327.179688,4335.000000,4339.487305,4319.102539,4325.128418,4315.128418,4312.436035,4309.102539,4294.871582,4506.794922,4485.384766,4408.205078,4444.230957,3944.000000,4.000000,80.000000,,,,0.000000,2.000000,4.000000,4.000000,4.000000,4.000000,4.000000,4.000000,4.000000,4.000000,4.000000,4.000000,4.000000,4.000000,4.000000,83.333336,,,,,,,,,,,,,,,,,,,,,,,,,,,,,,,,,,,,,,,,,,,,,,,,,,,,,,,,,,,,,,,,,,,,,,,,,,,,,,,,,,,,,,,,,,,,,,,,,,,,,,,,,,,,,,,,,,,,,
1768210988.702634,1768210988.703458,4.000000,0.000000,4355.641113,4328.461426,4337.307617,4343.717773,4320.000000,4325.256348,4316.794922,4319.102539,4311.922852,4307.051270,4511.410156,4490.000000,4403.205078,4446.794922,3861.000000,4.000000,80.000000,,,,0.000000,2.000000,4.000000,4.000000,4.000000,4.000000,4.000000,4.000000,4.000000,4.000000,4.000000,4.000000,4.000000,4.000000,4.000000,83.333336,,,,,,,,,,,,,,,,,,,,,,,,,,,,,,,,,,,,,,,,,,,,,,,,,,,,,,,,,,,,,,,,,,,,,,,,,,,,,,,,,,,,,,,,,,,,,,,,,,,,,,,,,,,,,,,,,,,,,
1768210988.710443,1768210988.711267,5.000000,0.000000,4354.230957,4333.974121,4339.487305,4341.666504,4323.333496,4317.051270,4309.615234,4315.769043,4309.487305,4306.794922,4506.025879,4481.282227,4406.282227,4444.102539,3391.000000,4.000000,80.000000,,,,0.000000,2.000000,4.000000,4.000000,4.000000,4.000000,4.000000,4.000000,4.000000,4.000000,4.000000,4.000000,4.000000,4.000000,4.000000,83.333336,,,,,,,,,,,,,,,,,,,,,,,,,,,,,,,,,,,,,,,,,,,,,,,,,,,,,,,,,,,,,,,,,,,,,,,,,,,,,,,,,,,,,,,,,,,,,,,,,,,,,,,,,,,,,,,,,,,,,
1768210988.718251,1768210988.718975,6.000000,0.000000,4354.230957,4337.307617,4341.025879,4340.256348,4323.077148,4317.436035,4303.846191,4305.000000,4303.205078,4295.384766,4499.358887,4470.897461,4413.461426,4438.974121,3904.000000,4.000000,80.000000,,,,0.000000,2.000000,4.000000,4.000000,4.000000,4.000000,4.000000,4.000000,4.000000,4.000000,4.000000,4.000000,4.000000,4.000000,4.000000,83.333336,,,,,,,,,,,,,,,,,,,,,,,,,,,,,,,,,,,,,,,,,,,,,,,,0.236362,0.153034,0.088723,0.040082,0.055057,1.492646,0.737663,0.172705,0.127998,0.098659,0.739353,0.201667,0.192370,0.114681,0.036987,0.840421,0.437956,0.149894,0.081509,0.066604,0.610190,0.243037,0.162086,0.081179,0.050590,0.158618,0.117800,0.214732,0.086954,0.094966,0.181790,0.159277,0.470247,0.206919,0.302524,0.361368,0.345996,0.249248,0.295784,0.178699,0.394845,0.214304,0.268988,0.176944,0.126867,0.879405,0.452733,0.492612,0.171521,0.395641,0.955940,0.324238,0.213755,0.426888,0.222362,0.569540,0.419523,0.258810,0.199678,0.173425,1.311349,0.883813,0.246603,0.649778,0.345203,1.275037,0.486445,0.226009,0.273711,0.173497
