Timestamp,OriginalTimestamp,EEG.Counter,EEG.Interpolated,EEG.AF3,EEG.F7,EEG.F3,EEG.FC5,EEG.T7,EEG.P7,EEG.O1,EEG.O2,EEG.P8,EEG.T8,EEG.FC6,EEG.F4,EEG.F8,EEG.AF4,POW.AF3.Theta,POW.AF3.Alpha,POW.AF3.BetaL,POW.AF3.BetaH,POW.AF3.Gamma,POW.F7.Theta,POW.F7.Alpha,POW.F7.BetaL,POW.F7.BetaH,POW.F7.Gamma,POW.F3.Theta,POW.F3.Alpha,POW.F3.BetaL,POW.F3.BetaH,POW.F3.Gamma,POW.FC5.Theta,POW.FC5.Alpha,POW.FC5.BetaL,POW.FC5.BetaH,POW.FC5.Gamma,POW.T7.Theta,POW.T7.Alpha,POW.T7.BetaL,POW.T7.BetaH,POW.T7.Gamma,POW.P7.Theta,POW.P7.Alpha,POW.P7.BetaL,POW.P7.BetaH,POW.P7.Gamma,POW.O1.Theta,POW.O1.Alpha,POW.O1.BetaL,POW.O1.BetaH,POW.O1.Gamma,POW.O2.Theta,POW.O2.Alpha,POW.O2.BetaL,POW.O2.BetaH,POW.O2.Gamma,POW.P8.Theta,POW.P8.Alpha,POW.P8.BetaL,POW.P8.BetaH,POW.P8.Gamma,POW.T8.Theta,POW.T8.Alpha,POW.T8.BetaL,POW.T8.BetaH,POW.T8.Gamma,POW.FC6.Theta,POW.FC6.Alpha,POW.FC6.BetaL,POW.FC6.BetaH,POW.FC6.Gamma,POW.F4.Theta,POW.F4.Alpha,POW.F4.BetaL,POW.F4.BetaH,POW.F4.Gamma,POW.F8.Theta,POW.F8.Alpha,POW.F8.BetaL,POW.F8.BetaH,POW.F8.Gamma,POW.AF4.Theta,POW.AF4.Alpha,POW.AF4.BetaL,POW.AF4.BetaH,POW.AF4.Gamma
1768973078.741038,1768973078.741547,1.0,0.0,4372.179688,4394.102539,4346.794922,4381.153809,4370.512695,4374.358887,4381.282227,4380.256348,4369.358887,4351.025879,4447.307617,4526.153809,4388.974121,4414.487305,,,,,,,,,,,,,,,,,,,,,,,,,,,,,,,,,,,,,,,,,,,,,,,,,,,,,,,,,,,,,,,,,,,,,,
1768973078.748847,1768973078.749255,2.0,0.0,4374.871582,4395.897461,4345.641113,4381.025879,4375.897461,4370.256348,4375.512695,4365.641113,4358.333496,4351.282227,4439.102539,4520.256348,4387.307617,4410.897461,,,,,,,,,,,,,,,,,,,,,,,,,,,,,,,,,,,,,,,,,,,,,,,,,,,,,,,,,,,,,,,,,,,,,,
1768973078.756655,1768973078.757064,3.0,0.0,4379.102539,4393.846191,4348.333496,4380.512695,4379.358887,4367.307617,4373.974121,4363.846191,4356.025879,4355.384766,4443.461426,4518.974121,4387.94873,4416.538574,,,,,,,,,,,,,,,,,,,,,,,,,,,,,,,,,,,,,,,,,,,,,,,,,,,,,,,,,,,,,,,,,,,,,,
1768973078.764464,1768973078.765072,4.0,0.0,4375.256348,4391.794922,4349.615234,4380.256348,4374.871582,4373.589844,4383.077148,4373.205078,4360.384766,4354.102539,4445.256348,4523.974121,4383.333496,4417.307617,,,,,,,,,,,,,,,,,,,,,,,,,,,,,,,,,,,,,,,,,,,,,,,,,,,,,,,,,,,,,,,,,,,,,,
1768973078.772272,1768973078.772881,5.0,0.0,4370.128418,4391.666504,4351.153809,4380.641113,4370.0,4374.615234,4382.692383,4374.102539,4359.743652,4351.538574,4444.230957,4524.615234,4382.563965,4411.922852,,,,,,,,,,,,,,,,,,,,,,,,,,,,,,,,,,,,,,,,,,,,,,,,,,,,,,,,,,,,,,,,,,,,,,
1768973078.780081,1768973078.780789,6.0,0.0,4375.641113,4391.282227,4354.871582,4381.666504,4370.256348,4370.128418,4374.102539,4369.743652,4360.512695,4356.922852,4446.410156,4524.358887,4390.128418,4414.615234,,,,,,,,,,,,,,,,,,,,,,,,,,,,,,,,,,,,,,,,,,,,,,,,,,,,,,,,,,,,,,,,,,,,,,
1768973078.787889,1768973078.788597,7.0,0.0,4380.897461,4390.641113,4356.666504,4385.641113,4370.256348,4372.05127,4371.922852,4367.179688,4363.333496,4358.333496,4447.05127,4530.769043,4393.717773,4424.487305,,,,,,,,,,,,,,,,,,,,,,,,,,,,,,,,,,,,,,,,,,,,,,,,,,,,,,,,,,,,,,,,,,,,,,
1768973078.795698,1768973078.796206,8.0,0.0,4377.563965,4396.282227,4354.615234,4390.128418,4371.794922,4373.846191,4373.333496,4366.666504,4358.077148,4349.230957,4444.487305,4532.179688,4389.230957,4425.769043,,,,,,,,,,,,,,,,,,,,,,,,,,,,,,,,,,,,,,,,,,,,,,,,,,,,,,,,,,,,,,,,,,,,,,
1768973078.803506,1768973078.804014,9.0,0.0,4372.692383,4403.205078,4351.282227,4386.666504,4374.487305,4370.384766,4372.179688,4370.512695,4358.846191,4346.410156,4442.05127,4521.410156,4382.94873,4416.794922,,,,,,,,,,,,,,,,,,,,,,,,,,,,,,,,,,,,,,,,,,,,,,,,,,,,,,,,,,,,,,,,,,,,,,
1768973078.811314,1768973078.811723,10.0,0.0,4371.666504,4402.563965,4348.974121,4378.717773,4370.897461,4369.615234,4370.384766,4374.102539,4365.256348,4350.512695,4440.641113,4510.897461,4380.0,4411.025879,,,,,,,,,,,,,,,,,,,,,,,,,,,,,,,,,,,,,,,,,,,,,,,,,,,,,,,,,,,,,,,,,,,,,,
1768973078.819123,1768973078.819531,11.0,0.0,4369.871582,4396.538574,4350.256348,4377.436035,4365.769043,4373.974121,4372.692383,4373.077148,4360.641113,4348.974121,4440.512695,4511.666504,4381.025879,4410.641113,,,,,,,,,,,,,,,,,,,,,,,,,,,,,,,,,,,,,,,,,,,,,,,,,,,,,,,,,,,,,,,,,,,,,,
1768973078.826931,1768973078.82754,12.0,0.0,4370.0,4391.794922,4352.692383,4380.128418,4368.205078,4377.563965,4378.333496,4375.641113,4360.769043,4349.102539,4444.102539,4523.846191,4381.794922,4411.794922,,,,,,,,,,,,,,,,,,,,,,,,,,,,,,,,,,,,,,,,,,,,,,,,,,,,,,,,,,,,,,,,,,,,,,
1768973078.83474,1768973078.835348,13.0,0.0,4377.563965,4394.615234,4356.922852,4381.410156,4371.410156,4375.641113,4377.692383,4376.666504,4367.179688,4350.512695,4444.743652,4526.666504,4381.282227,4413.589844,,,,,,,,,,,,,,,,,,,,,,,,,,,,,,,,,,,,,,,,,,,,,,,,,,,,,,,,,,,,,,,,,,,,,,
1768973078.842548,1768973078.843257,14.0,0.0,4382.692383,4405.0,4358.589844,4384.230957,4368.589844,4372.820313,4371.666504,4371.794922,4360.256348,4342.94873,4439.487305,4515.769043,4380.641113,4412.94873,0.705035,0.251852,0.137272,0.178939,0.062459,1.023836,0.440249,0.240412,0.194862,0.121212,0.40757,0.290786,0.101319,0.092232,0.088898,0.135452,0.095797,0.081191,0.14233,0.09802,0.159395,0.098047,0.047267,0.061229,0.047394,0.149991,0.509894,0.172322,0.053807,0.245259,0.236763,0.51969,0.161725,0.093713,0.108545,0.296854,0.13625,0.105526,0.081594,0.105597,0.4484,0.198782,0.104789,0.173748,0.133934,0.44161,0.163236,0.089079,0.096957,0.085096,0.482225,0.290437,0.112108,0.274645,0.159591,0.727626,0.393772,0.282921,0.260913,0.128089,0.692866,0.137914,0.156209,0.259045,0.128168,1.146313,0.300413,0.120912,0.320739,0.123703
1768973078.850357,1768973078.851065,15.0,0.0,4380.256348,4409.615234,4351.282227,4387.05127,4366.410156,4371.410156,4372.820313,4373.077148,4356.666504,4341.538574,4439.743652,4513.461426,4379.102539,4411.282227,,,,,,,,,,,,,,,,,,,,,,,,,,,,,,,,,,,,,,,,,,,,,,,,,,,,,,,,,,,,,,,,,,,,,,
1768973078.858165,1768973078.859073,16.0,0.0,4379.487305,4406.794922,4344.487305,4386.666504,4369.743652,4374.230957,4381.794922,4377.692383,4364.102539,4352.179688,4444.358887,4521.922852,4382.179688,4412.692383,,,,,,,,,,,,,,,,,,,,,,,,,,,,,,,,,,,,,,,,,,,,,,,,,,,,,,,,,,,,,,,,,,,,,,
1768973078.865974,1768973078.866882,17.0,0.0,4379.487305,4409.743652,4351.025879,4389.102539,4374.871582,4378.717773,4381.794922,4376.666504,4367.179688,4357.179688,4445.897461,4522.94873,4389.871582,4415.641113,,,,,,,,,,,,,,,,,,,,,,,,,,,,,,,,,,,,,,,,,,,,,,,,,,,,,,,,,,,,,,,,,,,,,,
1768973078.873782,1768973078.87459,18.0,0.0,4378.333496,4416.025879,4360.0,4396.666504,4378.077148,4375.641113,4375.384766,4372.820313,4362.94873,4356.666504,4445.128418,4519.871582,4392.820313,4418.717773,,,,,,,,,,,,,,,,,,,,,,,,,,,,,,,,,,,,,,,,,,,,,,,,,,,,,,,,,,,,,,,,,,,,,,
1768973078.88159,1768973078.882399,19.0,0.0,4380.897461,4414.743652,4361.922852,4399.743652,4378.205078,4374.615234,4378.461426,4376.410156,4359.487305,4355.0,4444.102539,4520.512695,4389.102539,4416.410156,,,,,,,,,,,,,,,,,,,,,,,,,,,,,,,,,,,,,,,,,,,,,,,,,,,,,,,,,,,,,,,,,,,,,,
1768973078.889399,1768973078.890007,20.0,0.0,4386.538574,4414.487305,4363.077148,4396.538574,4378.077148,4380.641113,4384.358887,4379.615234,4360.0,4348.461426,4442.692383,4518.974121,4383.589844,4409.615234,,,,,,,,,,,,,,,,,,,,,,,,,,,,,,,,,,,,,,,,,,,,,,,,,,,,,,,,,,,,,,,,,,,,,,
1768973078.897207,1768973078.897816,21.0,0.0,4386.666504,4417.94873,4364.487305,4397.05127,4378.461426,4381.153809,4382.179688,4377.436035,4364.871582,4346.410156,4443.846191,4522.05127,4385.512695,4414.615234,,,,,,,,,,,,,,,,,,,,,,,,,,,,,,,,,,,,,,,,,,,,,,,,,,,,,,,,,,,,,,,,,,,,,,
1768973078.905016,1768973078.905524,22.0,0.0,4382.94873,4413.589844,4361.153809,4398.589844,4378.589844,4375.128418,4378.717773,4377.436035,4367.820313,4351.410156,4446.025879,4525.384766,4393.077148,4425.512695,,,,,,,,,,,,,,,,,,,,,,,,,,,,,,,,,,,,,,,,,,,,,,,,,,,,,,,,,,,,,,,,,,,,,,
1768973078.912824,1768973078.913333,23.0,0.0,4377.820313,4410.512695,4356.666504,4392.179688,4378.461426,4371.922852,4380.769043,4378.717773,4365.641113,4353.717773,4444.358887,4516.794922,4393.846191,4423.205078,,,,,,,,,,,,,,,,,,,,,,,,,,,,,,,,,,,,,,,,,,,,,,,,,,,,,,,,,,,,,,,,,,,,,,
1768973078.920633,1768973078.920941,24.0,0.0,4375.769043,4411.282227,4356.538574,4386.153809,4377.820313,4371.282227,4379.743652,4376.025879,4368.205078,4355.128418,4444.358887,4511.153809,4387.436035,4415.641113,,,,,,,,,,,,,,,,,,,,,,,,,,,,,,,,,,,,,,,,,,,,,,,,,,,,,,,,,,,,,,,,,,,,,,
1768973078.928441,1768973078.92875,25.0,0.0,4385.384766,4411.282227,4363.974121,4391.666504,4377.820313,4375.897461,4375.897461,4374.230957,4373.589844,4361.282227,4452.307617,4523.717773,4389.102539,4420.128418,,,,,,,,,,,,,,,,,,,,,,,,,,,,,,,,,,,,,,,,,,,,,,,,,,,,,,,,,,,,,,,,,,,,,,
1768973078.93625,1768973078.936458,26.0,0.0,4400.128418,4418.846191,4373.461426,4400.897461,4381.666504,4382.179688,4377.436035,4376.794922,4373.077148,4363.461426,4460.0,4540.0,4399.358887,4437.179688,,,,,,,,,,,,,,,,,,,,,,,,,,,,,,,,,,,,,,,,,,,,,,,,,,,,,,,,,,,,,,,,,,,,,,
1768973078.944058,1768973078.944267,27.0,0.0,4400.512695,4422.563965,4372.94873,4399.230957,4382.307617,4376.153809,4379.615234,4378.333496,4373.205078,4360.0,4459.743652,4543.205078,4401.410156,4446.922852,,,,,,,,,,,,,,,,,,,,,,,,,,,,,,,,,,,,,,,,,,,,,,,,,,,,,,,,,,,,,,,,,,,,,,
1768973078.951867,1768973078.952275,28.0,0.0,4389.743652,4414.358887,4363.589844,4391.410156,4379.358887,4370.512695,4380.384766,4384.102539,4379.358887,4361.794922,4457.94873,4536.153809,4395.512695,4437.692383,,,,,,,,,,,,,,,,,,,,,,,,,,,,,,,,,,,,,,,,,,,,,,,,,,,,,,,,,,,,,,,,,,,,,,
1768973078.959675,1768973078.960084,29.0,0.0,4386.794922,4410.897461,4360.512695,4389.102539,4381.538574,4373.461426,4381.794922,4389.743652,4379.615234,4367.05127,4461.666504,4533.077148,4395.641113,4431.025879,,,,,,,,,,,,,,,,,,,,,,,,,,,,,,,,,,,,,,,,,,,,,,,,,,,,,,,,,,,,,,,,,,,,,,
1768973078.967483,1768973078.967992,30.0,0.0,4385.256348,4415.0,4362.692383,4388.846191,4381.538574,4377.563965,4382.179688,4386.666504,4374.230957,4365.769043,4465.512695,4535.641113,4402.692383,4437.692383,0.612604,0.265125,0.137142,0.158742,0.076069,0.906926,0.427301,0.229748,0.190405,0.115462,0.464676,0.23463,0.106889,0.088562,0.098767,0.134135,0.126942,0.083075,0.147115,0.101301,0.174966,0.092579,0.040264,0.053662,0.047819,0.112674,0.534805,0.166706,0.055535,0.250751,0.215333,0.603556,0.213551,0.103429,0.117479,0.335032,0.164704,0.120273,0.084174,0.120077,0.406854,0.182414,0.121822,0.181734,0.13152,0.529882,0.180249,0.083305,0.090093,0.085227,0.567329,0.268097,0.098536,0.246329,0.152404,0.752641,0.333354,0.34474,0.215227,0.127715,0.719639,0.158029,0.124761,0.243594,0.13365,1.040708,0.193993,0.094494,0.258264,0.109291
1768973078.975292,1768973078.9758,31.0,0.0,4379.358887,4412.436035,4360.641113,4384.230957,4377.436035,4379.487305,4384.487305,4386.282227,4375.384766,4362.692383,4462.563965,4533.846191,4402.436035,4438.846191,,,,,,,,,,,,,,,,,,,,,,,,,,,,,,,,,,,,,,,,,,,,,,,,,,,,,,,,,,,,,,,,,,,,,,
1768973078.9831,1768973078.983809,32.0,0.0,4378.333496,4409.230957,4357.436035,4379.487305,4377.820313,4376.153809,4387.436035,4387.692383,4376.794922,4359.102539,4457.820313,4529.743652,4397.820313,4431.538574,,,,,,,,,,,,,,,,,,,,,,,,,,,,,,,,,,,,,,,,,,,,,,,,,,,,,,,,,,,,,,,,,,,,,,
1768973078.990909,1768973078.991617,33.0,0.0,4383.205078,4418.205078,4358.205078,4386.410156,4380.512695,4373.974121,4384.615234,4384.102539,4374.230957,4356.025879,4458.589844,4525.897461,4399.230957,4429.358887,,,,,,,,,,,,,,,,,,,,,,,,,,,,,,,,,,,,,,,,,,,,,,,,,,,,,,,,,,,,,,,,,,,,,,
1768973078.998717,1768973078.999326,34.0,0.0,4384.358887,4427.692383,4358.589844,4396.282227,4381.538574,4380.769043,4381.282227,4379.487305,4371.282227,4357.692383,4456.153809,4516.282227,4395.512695,4427.436035,,,,,,,,,,,,,,,,,,,,,,,,,,,,,,,,,,,,,,,,,,,,,,,,,,,,,,,,,,,,,,,,,,,,,,
1768973079.006526,1768973079.007134,35.0,0.0,4380.512695,4428.974121,4359.615234,4398.077148,4385.769043,4384.871582,4383.717773,4379.102539,4368.589844,4358.333496,4451.025879,4511.282227,4390.512695,4425.0,,,,,,,,,,,,,,,,,,,,,,,,,,,,,,,,,,,,,,,,,,,,,,,,,,,,,,,,,,,,,,,,,,,,,,
1768973079.014334,1768973079.014743,36.0,0.0,4383.717773,4426.922852,4360.384766,4396.025879,4387.820313,4378.589844,4383.461426,4380.256348,4368.846191,4358.461426,4456.922852,4515.256348,4396.025879,4427.820313,,,,,,,,,,,,,,,,,,,,,,,,,,,,,,,,,,,,,,,,,,,,,,,,,,,,,,,,,,,,,,,,,,,,,,
1768973079.022143,1768973079.022551,37.0,0.0,4388.846191,4427.436035,4358.589844,4392.05127,4382.179688,4374.358887,4381.794922,4380.384766,4370.128418,4356.666504,4457.563965,4516.410156,4400.0,4429.102539,,,,,,,,,,,,,,,,,,,,,,,,,,,,,,,,,,,,,,,,,,,,,,,,,,,,,,,,,,,,,,,,,,,,,,
1768973079.029951,1768973079.030459,38.0,0.0,4388.333496,4428.461426,4359.230957,4388.846191,4379.871582,4377.820313,4383.205078,4381.666504,4368.717773,4354.743652,4448.077148,4513.717773,4396.410156,4427.436035,,,,,,,,,,,,,,,,,,,,,,,,,,,,,,,,,,,,,,,,,,,,,,,,,,,,,,,,,,,,,,,,,,,,,,
1768973079.037759,1768973079.038268,39.0,0.0,4385.128418,4425.256348,4361.025879,4389.871582,4383.461426,4382.05127,4385.0,4384.743652,4370.897461,4357.563965,4451.538574,4514.743652,4394.230957,4427.692383,,,,,,,,,,,,,,,,,,,,,,,,,,,,,,,,,,,,,,,,,,,,,,,,,,,,,,,,,,,,,,,,,,,,,,
1768973079.045568,1768973079.046276,40.0,0.0,4383.077148,4423.205078,4357.563965,4390.512695,4383.589844,4382.820313,4387.692383,4386.153809,4372.94873,4359.102539,4455.641113,4515.128418,4390.512695,4425.769043,,,,,,,,,,,,,,,,,,,,,,,,,,,,,,,,,,,,,,,,,,,,,,,,,,,,,,,,,,,,,,,,,,,,,,
1768973079.053376,1768973079.054085,41.0,0.0,4381.538574,4423.077148,4355.256348,4388.333496,4378.717773,4379.230957,4389.230957,4377.94873,4366.025879,4356.922852,4449.102539,4514.230957,4386.282227,4422.436035,,,,,,,,,,,,,,,,,,,,,,,,,,,,,,,,,,,,,,,,,,,,,,,,,,,,,,,,,,,,,,,,,,,,,,
1768973079.061185,1768973079.061793,42.0,0.0,4383.589844,4423.205078,4358.205078,4388.974121,4378.461426,4374.743652,4387.179688,4374.230957,4362.820313,4356.025879,4453.717773,4516.538574,4390.256348,4424.358887,,,,,,,,,,,,,,,,,,,,,,,,,,,,,,,,,,,,,,,,,,,,,,,,,,,,,,,,,,,,,,,,,,,,,,
1768973079.068993,1768973079.069602,43.0,0.0,4388.974121,4420.0,4356.666504,4391.282227,4380.0,4371.794922,4383.717773,4378.205078,4367.436035,4358.461426,4462.94873,4516.410156,4397.05127,4430.256348,,,,,,,,,,,,,,,,,,,,,,,,,,,,,,,,,,,,,,,,,,,,,,,,,,,,,,,,,,,,,,,,,,,,,,
1768973079.076802,1768973079.07761,44.0,0.0,4385.897461,4415.0,4352.436035,4386.153809,4376.922852,4372.94873,4380.769043,4379.487305,4369.102539,4357.307617,4458.077148,4514.102539,4395.384766,4432.05127,,,,,,,,,,,,,,,,,,,,,,,,,,,,,,,,,,,,,,,,,,,,,,,,,,,,,,,,,,,,,,,,,,,,,,
1768973079.08461,1768973079.085418,45.0,0.0,4374.743652,4411.410156,4350.512695,4380.384766,4375.384766,4374.743652,4381.922852,4381.794922,4374.615234,4354.871582,4454.230957,4512.94873,4389.487305,4425.0,,,,,,,,,,,,,,,,,,,,,,,,,,,,,,,,,,,,,,,,,,,,,,,,,,,,,,,,,,,,,,,,,,,,,,
1768973079.092419,1768973079.093327,46.0,0.0,4370.512695,4410.0,4347.820313,4381.794922,4376.538574,4374.102539,4383.333496,4381.538574,4379.230957,4354.871582,4457.179688,4510.384766,4390.769043,4419.615234,0.566794,0.277598,0.147038,0.152003,0.095191,0.728784,0.419491,0.220031,0.191728,0.109832,0.562365,0.196711,0.121223,0.095341,0.106434,0.14006,0.167143,0.082698,0.144951,0.100982,0.204414,0.090928,0.035159,0.048647,0.047985,0.086933,0.518764,0.164414,0.063583,0.240961,0.2096,0.679964,0.286034,0.121192,0.130192,0.367323,0.23313,0.140911,0.095149,0.139821,0.38217,0.222586,0.150297,0.195084,0.132664,0.579175,0.232621,0.111264,0.088663,0.087606,0.65698,0.291431,0.103935,0.213838,0.145399,0.746138,0.317407,0.407854,0.187301,0.131385,0.732079,0.225242,0.111898,0.219342,0.138103,0.910121,0.128274,0.10528,0.202382,0.095129
1768973079.100227,1768973079.101135,47.0,0.0,4377.436035,4417.94873,4345.641113,4383.717773,4375.256348,4372.436035,4377.436035,4373.333496,4371.410156,4356.922852,4457.563965,4509.358887,4396.538574,4423.205078,,,,,,,,,,,,,,,,,,,,,,,,,,,,,,,,,,,,,,,,,,,,,,,,,,,,,,,,,,,,,,,,,,,,,,
1768973079.108035,1768973079.108744,48.0,0.0,4382.307617,4424.743652,4345.641113,4384.871582,4376.153809,4372.820313,4375.0,4369.615234,4365.128418,4361.538574,4459.487305,4512.436035,4401.538574,4429.871582,,,,,,,,,,,,,,,,,,,,,,,,,,,,,,,,,,,,,,,,,,,,,,,,,,,,,,,,,,,,,,,,,,,,,,
1768973079.115844,1768973079.116552,49.0,0.0,4379.358887,4421.538574,4348.461426,4388.333496,4378.461426,4375.512695,4381.538574,4379.871582,4374.358887,4362.94873,4463.589844,4516.410156,4404.615234,4432.179688,,,,,,,,,,,,,,,,,,,,,,,,,,,,,,,,,,,,,,,,,,,,,,,,,,,,,,,,,,,,,,,,,,,,,,
1768973079.123652,1768973079.124261,50.0,0.0,4380.897461,4422.692383,4352.94873,4391.153809,4378.077148,4373.846191,4381.025879,4381.666504,4376.282227,4360.384766,4461.922852,4512.94873,4400.384766,4427.05127,,,,,,,,,,,,,,,,,,,,,,,,,,,,,,,,,,,,,,,,,,,,,,,,,,,,,,,,,,,,,,,,,,,,,,
1768973079.131461,1768973079.132069,51.0,0.0,4381.794922,4426.666504,4353.717773,4388.846191,4377.820313,4372.436035,4378.461426,4369.102539,4360.384766,4355.0,4452.692383,4503.461426,4389.743652,4419.615234,,,,,,,,,,,,,,,,,,,,,,,,,,,,,,,,,,,,,,,,,,,,,,,,,,,,,,,,,,,,,,,,,,,,,,
1768973079.139269,1768973079.139678,52.0,0.0,4373.333496,4417.436035,4350.0,4383.846191,4375.769043,4373.974121,4382.436035,4366.666504,4354.230957,4350.128418,4446.025879,4496.538574,4385.897461,4419.358887,,,,,,,,,,,,,,,,,,,,,,,,,,,,,,,,,,,,,,,,,,,,,,,,,,,,,,,,,,,,,,,,,,,,,,
1768973079.147078,1768973079.147486,53.0,0.0,4368.846191,4407.05127,4346.282227,4380.256348,4371.153809,4370.384766,4378.205078,4373.461426,4364.102539,4351.666504,4449.615234,4497.307617,4392.692383,4426.666504,,,,,,,,,,,,,,,,,,,,,,,,,,,,,,,,,,,,,,,,,,,,,,,,,,,,,,,,,,,,,,,,,,,,,,
1768973079.154886,1768973079.155195,54.0,0.0,4374.230957,4410.256348,4344.102539,4379.743652,4370.897461,4363.077148,4368.205078,4375.128418,4368.333496,4355.0,4452.436035,4501.025879,4393.205078,4427.94873,,,,,,,,,,,,,,,,,,,,,,,,,,,,,,,,,,,,,,,,,,,,,,,,,,,,,,,,,,,,,,,,,,,,,,
1768973079.162695,1768973079.163003,55.0,0.0,4372.820313,4413.333496,4343.589844,4382.94873,4374.230957,4364.487305,4374.102539,4374.487305,4360.384766,4351.410156,4446.538574,4499.358887,4387.436035,4420.384766,,,,,,,,,,,,,,,,,,,,,,,,,,,,,,,,,,,,,,,,,,,,,,,,,,,,,,,,,,,,,,,,,,,,,,
1768973079.170503,1768973079.171011,56.0,0.0,4368.333496,4414.358887,4345.512695,4382.94873,4376.025879,4376.538574,4382.94873,4378.077148,4359.871582,4347.179688,4441.794922,4494.102539,4384.743652,4413.717773,,,,,,,,,,,,,,,,,,,,,,,,,,,,,,,,,,,,,,,,,,,,,,,,,,,,,,,,,,,,,,,,,,,,,,
1768973079.178311,1768973079.17882,57.0,0.0,4372.94873,4416.922852,4346.794922,4382.820313,4376.410156,4383.205078,4380.641113,4377.307617,4367.179688,4350.897461,4442.692383,4493.717773,4387.563965,4411.410156,,,,,,,,,,,,,,,,,,,,,,,,,,,,,,,,,,,,,,,,,,,,,,,,,,,,,,,,,,,,,,,,,,,,,,
1768973079.18612,1768973079.186728,58.0,0.0,4373.846191,4416.794922,4348.717773,4386.666504,4376.794922,4382.563965,4383.461426,4375.384766,4366.410156,4355.256348,4448.846191,4502.436035,4392.436035,4418.077148,,,,,,,,,,,,,,,,,,,,,,,,,,,,,,,,,,,,,,,,,,,,,,,,,,,,,,,,,,,,,,,,,,,,,,
1768973079.193928,1768973079.194537,59.0,0.0,4369.871582,4416.538574,4352.05127,4387.436035,4376.794922,4380.0,4390.897461,4377.692383,4364.615234,4356.538574,4457.563965,4513.589844,4397.05127,4427.436035,,,,,,,,,,,,,,,,,,,,,,,,,,,,,,,,,,,,,,,,,,,,,,,,,,,,,,,,,,,,,,,,,,,,,,
1768973079.201737,1768973079.202145,60.0,0.0,4375.512695,4415.641113,4352.05127,4385.641113,4376.538574,4375.512695,4385.897461,4377.820313,4367.563965,4357.692383,4460.384766,4517.94873,4397.563965,4429.871582,,,,,,,,,,,,,,,,,,,,,,,,,,,,,,,,,,,,,,,,,,,,,,,,,,,,,,,,,,,,,,,,,,,,,,
1768973079.209545,1768973079.209954,61.0,0.0,4383.333496,4413.717773,4351.282227,4390.128418,4374.102539,4369.743652,4376.794922,4376.666504,4368.974121,4358.077148,4458.077148,4514.743652,4395.384766,4426.410156,,,,,,,,,,,,,,,,,,,,,,,,,,,,,,,,,,,,,,,,,,,,,,,,,,,,,,,,,,,,,,,,,,,,,,
1768973079.217354,1768973079.217662,62.0,0.0,4383.205078,4413.846191,4352.820313,4395.384766,4374.358887,4369.615234,4382.436035,4379.743652,4366.410156,4356.666504,4459.743652,4511.538574,4397.692383,4425.256348,0.585669,0.290276,0.165628,0.156466,0.114387,0.53955,0.410666,0.217239,0.200338,0.107261,0.679249,0.181917,0.140028,0.110043,0.109603,0.158441,0.210646,0.08542,0.139025,0.097406,0.240746,0.095225,0.03419,0.047256,0.047514,0.07147,0.472311,0.165043,0.075666,0.220634,0.211228,0.726095,0.3654,0.139976,0.144225,0.38139,0.334794,0.159146,0.111088,0.160983,0.364933,0.31607,0.179396,0.209501,0.137509,0.571391,0.303493,0.16653,0.0919,0.090382,0.719213,0.351378,0.119514,0.180442,0.138229,0.731932,0.349412,0.450202,0.177446,0.138744,0.711419,0.315575,0.11256,0.190796,0.137365,0.785889,0.106057,0.134502,0.15681,0.08376
1768973079.225162,1768973079.225471,63.0,0.0,4381.282227,4412.692383,4350.769043,4392.179688,4378.461426,4379.358887,4390.256348,4383.077148,4367.94873,4354.871582,4458.846191,4511.025879,4396.153809,4427.436035,,,,,,,,,,,,,,,,,,,,,,,,,,,,,,,,,,,,,,,,,,,,,,,,,,,,,,,,,,,,,,,,,,,,,,
1768973079.232971,1768973079.233479,64.0,0.0,4380.256348,4406.922852,4348.974121,4386.666504,4377.94873,4377.179688,4381.538574,4377.307617,4368.333496,4352.179688,4448.205078,4505.512695,4387.179688,4425.256348,,,,,,,,,,,,,,,,,,,,,,,,,,,,,,,,,,,,,,,,,,,,,,,,,,,,,,,,,,,,,,,,,,,,,,
1768973079.240779,1768973079.241288,65.0,0.0,4378.846191,4403.205078,4354.102539,4385.256348,4374.358887,4360.897461,4368.461426,4367.179688,4361.538574,4345.641113,4441.282227,4499.102539,4380.897461,4423.333496,,,,,,,,,,,,,,,,,,,,,,,,,,,,,,,,,,,,,,,,,,,,,,,,,,,,,,,,,,,,,,,,,,,,,,
1768973079.248587,1768973079.249096,66.0,0.0,4380.641113,4401.410156,4358.333496,4385.897461,4371.153809,4354.358887,4367.05127,4363.974121,4353.205078,4340.384766,4442.05127,4501.922852,4381.666504,4426.538574,,,,,,,,,,,,,,,,,,,,,,,,,,,,,,,,,,,,,,,,,,,,,,,,,,,,,,,,,,,,,,,,,,,,,,
1768973079.256396,1768973079.256904,67.0,0.0,4383.974121,4394.487305,4356.153809,4386.153809,4369.615234,4363.974121,4372.94873,4370.256348,4355.512695,4343.589844,4444.871582,4512.94873,4387.307617,4428.333496,,,,,,,,,,,,,,,,,,,,,,,,,,,,,,,,,,,,,,,,,,,,,,,,,,,,,,,,,,,,,,,,,,,,,,
1768973079.264204,1768973079.264813,68.0,0.0,4383.077148,4387.179688,4350.256348,4382.94873,4369.230957,4372.436035,4373.846191,4375.897461,4365.641113,4344.871582,4447.820313,4518.077148,4389.358887,4425.384766,,,,,,,,,,,,,,,,,,,,,,,,,,,,,,,,,,,,,,,,,,,,,,,,,,,,,,,,,,,,,,,,,,,,,,
1768973079.272013,1768973079.272621,69.0,0.0,4380.0,4389.358887,4351.282227,4383.589844,4370.897461,4368.205078,4370.641113,4374.871582,4366.025879,4340.641113,4451.410156,4514.102539,4387.692383,4425.128418,,,,,,,,,,,,,,,,,,,,,,,,,,,,,,,,,,,,,,,,,,,,,,,,,,,,,,,,,,,,,,,,,,,,,,
1768973079.279821,1768973079.28033,70.0,0.0,4380.641113,4396.025879,4357.563965,4390.256348,4371.794922,4364.743652,4370.769043,4372.94873,4359.358887,4341.410156,4451.794922,4511.666504,4390.512695,4431.025879,,,,,,,,,,,,,,,,,,,,,,,,,,,,,,,,,,,,,,,,,,,,,,,,,,,,,,,,,,,,,,,,,,,,,,
1768973079.287629,1768973079.288138,71.0,0.0,4383.333496,4391.666504,4356.153809,4389.871582,4370.512695,4368.846191,4373.077148,4371.153809,4359.358887,4343.205078,4447.563965,4508.333496,4390.641113,4426.282227,,,,,,,,,,,,,,,,,,,,,,,,,,,,,,,,,,,,,,,,,,,,,,,,,,,,,,,,,,,,,,,,,,,,,,
1768973079.295438,1768973079.296146,72.0,0.0,4378.717773,4380.897461,4351.538574,4382.05127,4372.05127,4372.563965,4377.563965,4373.589844,4365.769043,4340.384766,4443.205078,4505.256348,4380.128418,4411.794922,,,,,,,,,,,,,,,,,,,,,,,,,,,,,,,,,,,,,,,,,,,,,,,,,,,,,,,,,,,,,,,,,,,,,,
1768973079.303246,1768973079.303955,73.0,0.0,4372.436035,4383.205078,4355.256348,4382.692383,4372.307617,4369.871582,4378.589844,4377.692383,4369.230957,4344.743652,4444.743652,4510.256348,4378.846191,4412.179688,,,,,,,,,,,,,,,,,,,,,,,,,,,,,,,,,,,,,,,,,,,,,,,,,,,,,,,,,,,,,,,,,,,,,,
1768973079.311055,1768973079.311663,74.0,0.0,4378.846191,4400.641113,4360.641113,4392.94873,4371.025879,4365.256348,4372.820313,4377.563965,4372.179688,4356.794922,4453.333496,4517.05127,4393.717773,4428.461426,,,,,,,,,,,,,,,,,,,,,,,,,,,,,,,,,,,,,,,,,,,,,,,,,,,,,,,,,,,,,,,,,,,,,,
1768973079.318863,1768973079.319472,75.0,0.0,4388.846191,4411.922852,4361.282227,4395.641113,4374.230957,4367.307617,4373.205078,4377.563965,4376.025879,4360.512695,4457.820313,4514.615234,4399.743652,4433.333496,,,,,,,,,,,,,,,,,,,,,,,,,,,,,,,,,,,,,,,,,,,,,,,,,,,,,,,,,,,,,,,,,,,,,,
1768973079.326672,1768973079.327081,76.0,0.0,4387.563965,4408.205078,4361.922852,4393.333496,4379.487305,4373.461426,4382.692383,4379.615234,4374.871582,4358.461426,4458.717773,4508.333496,4393.333496,4421.538574,,,,,,,,,,,,,,,,,,,,,,,,,,,,,,,,,,,,,,,,,,,,,,,,,,,,,,,,,,,,,,,,,,,,,,
1768973079.33448,1768973079.334889,77.0,0.0,4375.897461,4399.871582,4354.358887,4390.0,4377.820313,4371.922852,4384.871582,4378.205078,4371.666504,4356.794922,4457.307617,4504.871582,4387.820313,4412.307617,,,,,,,,,,,,,,,,,,,,,,,,,,,,,,,,,,,,,,,,,,,,,,,,,,,,,,,,,,,,,,,,,,,,,,
1768973079.342289,1768973079.342598,78.0,0.0,4365.128418,4393.077148,4343.974121,4379.871582,4370.769043,4368.589844,4379.487305,4374.615234,4370.512695,4353.589844,4449.743652,4500.641113,4381.410156,4411.666504,0.652562,0.30578,0.190065,0.173828,0.128603,0.417146,0.395927,0.227685,0.215638,0.108424,0.777573,0.184527,0.16047,0.133327,0.107657,0.193552,0.252279,0.09903,0.135919,0.091992,0.272068,0.103495,0.038609,0.049908,0.046225,0.063592,0.412678,0.164039,0.089604,0.196897,0.206766,0.722522,0.429921,0.153503,0.155912,0.368744,0.446931,0.171077,0.12652,0.177292,0.349381,0.440942,0.19991,0.218453,0.144116,0.515465,0.373391,0.240106,0.099482,0.091716,0.739122,0.432127,0.142856,0.15187,0.131698,0.73238,0.421991,0.466529,0.188292,0.149494,0.652009,0.401019,0.126182,0.167477,0.131181,0.697837,0.119456,0.168905,0.130257,0.080492
1768973079.350097,1768973079.350406,79.0,0.0,4366.410156,4393.461426,4344.871582,4374.230957,4370.769043,4376.153809,4381.794922,4374.230957,4371.153809,4354.615234,4450.0,4501.282227,4380.128418,4413.077148,,,,,,,,,,,,,,,,,,,,,,,,,,,,,,,,,,,,,,,,,,,,,,,,,,,,,,,,,,,,,,,,,,,,,,
1768973079.357906,1768973079.358414,80.0,0.0,4370.897461,4395.897461,4349.615234,4381.410156,4375.769043,4376.282227,4383.333496,4375.128418,4374.102539,4357.307617,4456.153809,4505.897461,4387.563965,4413.461426,,,,,,,,,,,,,,,,,,,,,,,,,,,,,,,,,,,,,,,,,,,,,,,,,,,,,,,,,,,,,,,,,,,,,,
1768973079.365714,1768973079.366223,81.0,0.0,4366.666504,4391.794922,4347.179688,4383.333496,4373.205078,4364.230957,4376.666504,4375.256348,4372.692383,4353.333496,4450.512695,4503.077148,4384.102539,4410.512695,,,,,,,,,,,,,,,,,,,,,,,,,,,,,,,,,,,,,,,,,,,,,,,,,,,,,,,,,,,,,,,,,,,,,,
1768973079.373522,1768973079.374131,82.0,0.0,4362.563965,4388.333496,4343.974121,4376.153809,4367.307617,4367.307617,4380.256348,4376.794922,4365.769043,4347.05127,4438.589844,4495.256348,4372.94873,4408.461426,,,,,,,,,,,,,,,,,,,,,,,,,,,,,,,,,,,,,,,,,,,,,,,,,,,,,,,,,,,,,,,,,,,,,,
1768973079.381331,1768973079.381939,83.0,0.0,4366.794922,4391.410156,4346.282227,4376.282227,4368.589844,4376.025879,4384.230957,4374.615234,4361.538574,4349.358887,4439.615234,4494.615234,4381.153809,4414.871582,,,,,,,,,,,,,,,,,,,,,,,,,,,,,,,,,,,,,,,,,,,,,,,,,,,,,,,,,,,,,,,,,,,,,,
1768973079.389139,1768973079.389948,84.0,0.0,4372.307617,4394.358887,4348.846191,4380.897461,4371.538574,4371.410156,4375.897461,4370.512695,4365.769043,4357.307617,4450.641113,4500.0,4394.230957,4426.410156,,,,,,,,,,,,,,,,,,,,,,,,,,,,,,,,,,,,,,,,,,,,,,,,,,,,,,,,,,,,,,,,,,,,,,
1768973079.396948,1768973079.397756,85.0,0.0,4374.743652,4395.256348,4351.794922,4380.897461,4370.769043,4369.615234,4376.666504,4373.974121,4371.153809,4359.102539,4461.666504,4505.769043,4392.820313,4431.922852,,,,,,,,,,,,,,,,,,,,,,,,,,,,,,,,,,,,,,,,,,,,,,,,,,,,,,,,,,,,,,,,,,,,,,
1768973079.404756,1768973079.405664,86.0,0.0,4379.230957,4399.487305,4353.461426,4379.871582,4371.153809,4373.589844,4383.205078,4377.563965,4367.692383,4356.922852,4460.769043,4507.94873,4386.794922,4427.94873,,,,,,,,,,,,,,,,,,,,,,,,,,,,,,,,,,,,,,,,,,,,,,,,,,,,,,,,,,,,,,,,,,,,,,
1768973079.412565,1768973079.413473,87.0,0.0,4380.256348,4399.102539,4351.410156,4378.461426,4369.743652,4369.102539,4377.563965,4374.102539,4363.846191,4355.256348,4449.230957,4500.256348,4382.563965,4419.230957,,,,,,,,,,,,,,,,,,,,,,,,,,,,,,,,,,,,,,,,,,,,,,,,,,,,,,,,,,,,,,,,,,,,,,
1768973079.420373,1768973079.421481,88.0,0.0,4375.0,4395.256348,4352.179688,4378.717773,4364.743652,4361.794922,4373.717773,4374.487305,4366.410156,4352.436035,4446.025879,4494.358887,4379.743652,4413.461426,,,,,,,,,,,,,,,,,,,,,,,,,,,,,,,,,,,,,,,,,,,,,,,,,,,,,,,,,,,,,,,,,,,,,,
1768973079.428182,1768973079.42929,89.0,0.0,4374.871582,4401.922852,4355.0,4380.769043,4368.717773,4367.563965,4381.153809,4372.94873,4361.282227,4344.743652,4446.410156,4497.94873,4379.743652,4411.922852,,,,,,,,,,,,,,,,,,,,,,,,,,,,,,,,,,,,,,,,,,,,,,,,,,,,,,,,,,,,,,,,,,,,,,
1768973079.43599,1768973079.436998,90.0,0.0,4381.666504,4411.410156,4356.666504,4382.94873,4374.487305,4374.615234,4383.589844,4371.922852,4355.384766,4341.666504,4443.333496,4501.153809,4379.871582,4413.077148,,,,,,,,,,,,,,,,,,,,,,,,,,,,,,,,,,,,,,,,,,,,,,,,,,,,,,,,,,,,,,,,,,,,,,
1768973079.443798,1768973079.444807,91.0,0.0,4383.461426,4412.179688,4360.512695,4381.922852,4367.307617,4365.769043,4375.128418,4376.282227,4360.769043,4348.589844,4443.974121,4500.512695,4379.743652,4415.128418,,,,,,,,,,,,,,,,,,,,,,,,,,,,,,,,,,,,,,,,,,,,,,,,,,,,,,,,,,,,,,,,,,,,,,
1768973079.451607,1768973079.452415,92.0,0.0,4381.922852,4411.666504,4361.666504,4381.410156,4364.871582,4355.897461,4366.410156,4368.589844,4360.256348,4349.230957,4444.358887,4496.666504,4381.282227,4416.922852,,,,,,,,,,,,,,,,,,,,,,,,,,,,,,,,,,,,,,,,,,,,,,,,,,,,,,,,,,,,,,,,,,,,,,
1768973079.459415,1768973079.460224,93.0,0.0,4381.922852,4413.461426,4355.384766,4383.461426,4373.846191,4366.282227,4375.769043,4363.846191,4353.974121,4343.846191,4443.846191,4497.05127,4381.666504,4416.666504,,,,,,,,,,,,,,,,,,,,,,,,,,,,,,,,,,,,,,,,,,,,,,,,,,,,,,,,,,,,,,,,,,,,,,
1768973079.467224,1768973079.467932,94.0,0.0,4376.282227,4407.307617,4349.615234,4380.0,4373.589844,4374.487305,4383.846191,4372.692383,4358.589844,4346.794922,4445.256348,4503.205078,4380.897461,4414.871582,0.724764,0.324557,0.216962,0.204712,0.135035,0.374085,0.379813,0.253243,0.234507,0.11201,0.819457,0.19365,0.179526,0.164504,0.101311,0.240241,0.287564,0.127691,0.140803,0.086593,0.288272,0.11051,0.047664,0.055872,0.04414,0.06721,0.356633,0.159129,0.105111,0.175622,0.19506,0.664128,0.46044,0.157298,0.162001,0.330054,0.540412,0.175565,0.13685,0.183439,0.340925,0.566935,0.205054,0.216718,0.149929,0.442643,0.43032,0.314683,0.110638,0.090329,0.726589,0.520628,0.174158,0.133373,0.126673,0.772633,0.519821,0.465762,0.220004,0.161025,0.565554,0.463348,0.152208,0.158163,0.122395,0.663363,0.152336,0.20282,0.129896,0.088347
1768973079.475032,1768973079.475741,95.0,0.0,4374.871582,4397.563965,4350.641113,4374.615234,4367.436035,4361.153809,4366.794922,4365.769043,4358.589844,4349.487305,4444.358887,4501.794922,4380.769043,4413.846191,,,,,,,,,,,,,,,,,,,,,,,,,,,,,,,,,,,,,,,,,,,,,,,,,,,,,,,,,,,,,,,,,,,,,,
1768973079.482841,1768973079.483749,96.0,0.0,4380.512695,4399.615234,4353.077148,4381.794922,4370.256348,4357.307617,4359.230957,4355.256348,4352.307617,4345.769043,4442.05127,4496.922852,4378.461426,4413.717773,,,,,,,,,,,,,,,,,,,,,,,,,,,,,,,,,,,,,,,,,,,,,,,,,,,,,,,,,,,,,,,,,,,,,,
1768973079.490649,1768973079.491557,97.0,0.0,4377.307617,4407.05127,4352.05127,4389.615234,4373.717773,4370.641113,4373.077148,4367.820313,4357.436035,4345.0,4444.487305,4500.769043,4380.256348,4413.461426,,,,,,,,,,,,,,,,,,,,,,,,,,,,,,,,,,,,,,,,,,,,,,,,,,,,,,,,,,,,,,,,,,,,,,
1768973079.498458,1768973079.499466,98.0,0.0,4367.563965,4406.410156,4350.641113,4384.230957,4373.333496,4376.666504,4375.256348,4378.461426,4362.179688,4346.794922,4447.307617,4503.077148,4382.436035,4412.820313,,,,,,,,,,,,,,,,,,,,,,,,,,,,,,,,,,,,,,,,,,,,,,,,,,,,,,,,,,,,,,,,,,,,,,
1768973079.506266,1768973079.507274,99.0,0.0,4365.897461,4401.666504,4349.358887,4380.256348,4373.333496,4373.589844,4370.256348,4372.436035,4356.410156,4344.487305,4444.615234,4498.333496,4381.410156,4414.743652,,,,,,,,,,,,,,,,,,,,,,,,,,,,,,,,,,,,,,,,,,,,,,,,,,,,,,,,,,,,,,,,,,,,,,
1768973079.514074,1768973079.514883,100.0,0.0,4368.974121,4399.615234,4347.05127,4381.282227,4373.974121,4372.436035,4373.717773,4373.589844,4358.846191,4346.794922,4444.871582,4498.846191,4383.205078,4419.358887,,,,,,,,,,,,,,,,,,,,,,,,,,,,,,,,,,,,,,,,,,,,,,,,,,,,,,,,,,,,,,,,,,,,,,
1768973079.521883,1768973079.522691,101.0,0.0,4373.717773,4404.487305,4348.589844,4382.94873,4374.358887,4374.743652,4373.974121,4376.538574,4366.153809,4354.615234,4453.846191,4504.358887,4389.102539,4423.461426,,,,,,,,,,,,,,,,,,,,,,,,,,,,,,,,,,,,,,,,,,,,,,,,,,,,,,,,,,,,,,,,,,,,,,
1768973079.529691,1768973079.5304,102.0,0.0,4379.230957,4409.743652,4353.717773,4385.384766,4374.102539,4376.153809,4374.102539,4375.769043,4366.666504,4357.692383,4459.743652,4510.256348,4394.487305,4428.589844,,,,,,,,,,,,,,,,,,,,,,,,,,,,,,,,,,,,,,,,,,,,,,,,,,,,,,,,,,,,,,,,,,,,,,
1768973079.5375,1768973079.538208,103.0,0.0,4376.922852,4401.922852,4354.358887,4381.538574,4372.179688,4377.307617,4376.410156,4378.205078,4367.05127,4354.487305,4453.974121,4514.102539,4392.563965,4425.128418,,,,,,,,,,,,,,,,,,,,,,,,,,,,,,,,,,,,,,,,,,,,,,,,,,,,,,,,,,,,,,,,,,,,,,
1768973079.545308,1768973079.545817,104.0,0.0,4370.512695,4389.487305,4347.692383,4375.641113,4371.025879,4373.846191,4375.897461,4373.589844,4363.846191,4349.230957,4443.717773,4501.794922,4386.794922,4412.179688,,,,,,,,,,,,,,,,,,,,,,,,,,,,,,,,,,,,,,,,,,,,,,,,,,,,,,,,,,,,,,,,,,,,,,
1768973079.553117,1768973079.553625,105.0,0.0,4370.769043,4389.358887,4343.333496,4378.461426,4370.512695,4369.487305,4377.179688,4366.922852,4357.692383,4348.205078,4442.94873,4487.692383,4388.717773,4412.820313,,,,,,,,,,,,,,,,,,,,,,,,,,,,,,,,,,,,,,,,,,,,,,,,,,,,,,,,,,,,,,,,,,,,,,
1768973079.560925,1768973079.561534,106.0,0.0,4379.358887,4398.333496,4350.641113,4382.563965,4372.179688,4370.512695,4376.025879,4373.077148,4363.846191,4352.563965,4452.05127,4491.410156,4395.641113,4426.025879,,,,,,,,,,,,,,,,,,,,,,,,,,,,,,,,,,,,,,,,,,,,,,,,,,,,,,,,,,,,,,,,,,,,,,
1768973079.568734,1768973079.569342,107.0,0.0,4385.256348,4405.384766,4358.717773,4383.461426,4376.282227,4374.615234,4372.563965,4374.102539,4370.0,4353.846191,4457.94873,4497.05127,4396.538574,4428.077148,,,,,,,,,,,,,,,,,,,,,,,,,,,,,,,,,,,,,,,,,,,,,,,,,,,,,,,,,,,,,,,,,,,,,,
1768973079.576542,1768973079.57735,108.0,0.0,4383.589844,4410.769043,4357.563965,4388.589844,4376.538574,4372.179688,4373.333496,4364.615234,4360.384766,4352.820313,4455.769043,4493.461426,4393.717773,4423.717773,,,,,,,,,,,,,,,,,,,,,,,,,,,,,,,,,,,,,,,,,,,,,,,,,,,,,,,,,,,,,,,,,,,,,,
1768973079.58435,1768973079.585159,109.0,0.0,4387.179688,4411.153809,4357.436035,4393.205078,4375.0,4368.589844,4373.974121,4367.436035,4358.461426,4355.384766,4457.179688,4496.538574,4399.487305,4429.615234,,,,,,,,,,,,,,,,,,,,,,,,,,,,,,,,,,,,,,,,,,,,,,,,,,,,,,,,,,,,,,,,,,,,,,
1768973079.592159,1768973079.593067,110.0,0.0,4393.846191,4404.743652,4364.743652,4394.615234,4378.333496,4372.94873,4373.205078,4376.666504,4368.461426,4359.230957,4463.461426,4508.846191,4406.025879,4436.794922,0.76859,0.346699,0.239662,0.24439,0.133926,0.423424,0.378889,0.292491,0.253024,0.116315,0.791973,0.202189,0.194635,0.19819,0.092189,0.287352,0.315494,0.167978,0.154665,0.082772,0.285012,0.113543,0.05806,0.06363,0.041679,0.090047,0.314465,0.151037,0.124307,0.160432,0.193582,0.565179,0.449252,0.151423,0.162164,0.278362,0.591535,0.173708,0.140735,0.177905,0.350798,0.667153,0.193594,0.203791,0.153563,0.393631,0.477596,0.366485,0.122711,0.085934,0.699745,0.609404,0.210013,0.128053,0.123209,0.851632,0.626653,0.457923,0.26551,0.168883,0.469415,0.500153,0.183199,0.167598,0.114522,0.677287,0.190742,0.228384,0.156561,0.105596
1768973079.599967,1768973079.600876,111.0,0.0,4391.922852,4401.666504,4368.077148,4397.307617,4381.282227,4375.897461,4378.846191,4375.641113,4368.333496,4358.205078,4463.461426,4510.0,4402.436035,4432.307617,,,,,,,,,,,,,,,,,,,,,,,,,,,,,,,,,,,,,,,,,,,,,,,,,,,,,,,,,,,,,,,,,,,,,,
1768973079.607776,1768973079.608884,112.0,0.0,4386.410156,4406.538574,4364.871582,4396.282227,4381.794922,4375.512695,4380.769043,4373.333496,4366.025879,4354.615234,4459.487305,4500.128418,4393.333496,4426.025879,,,,,,,,,,,,,,,,,,,,,,,,,,,,,,,,,,,,,,,,,,,,,,,,,,,,,,,,,,,,,,,,,,,,,,
1768973079.615584,1768973079.616692,113.0,0.0,4386.538574,4411.922852,4365.512695,4396.025879,4378.717773,4378.077148,4374.871582,4375.0,4371.794922,4356.538574,4458.461426,4501.025879,4397.692383,4432.179688,,,,,,,,,,,,,,,,,,,,,,,,,,,,,,,,,,,,,,,,,,,,,,,,,,,,,,,,,,,,,,,,,,,,,,
1768973079.623393,1768973079.624401,114.0,0.0,4388.333496,4408.333496,4366.025879,4398.077148,4377.94873,4377.563965,4374.487305,4377.692383,4376.538574,4358.974121,4460.641113,4509.743652,4409.615234,4443.205078,,,,,,,,,,,,,,,,,,,,,,,,,,,,,,,,,,,,,,,,,,,,,,,,,,,,,,,,,,,,,,,,,,,,,,
1768973079.631201,1768973079.632209,115.0,0.0,4393.205078,4404.358887,4365.128418,4397.820313,4379.358887,4371.922852,4381.794922,4378.333496,4373.077148,4357.307617,4462.94873,4511.410156,4407.05127,4445.641113,,,,,,,,,,,,,,,,,,,,,,,,,,,,,,,,,,,,,,,,,,,,,,,,,,,,,,,,,,,,,,,,,,,,,,
1768973079.63901,1768973079.639818,116.0,0.0,4395.256348,4404.615234,4366.153809,4394.102539,4378.205078,4373.717773,4384.230957,4373.717773,4365.512695,4354.358887,4460.769043,4508.205078,4401.666504,4442.436035,,,,,,,,,,,,,,,,,,,,,,,,,,,,,,,,,,,,,,,,,,,,,,,,,,,,,,,,,,,,,,,,,,,,,,
1768973079.646818,1768973079.647626,117.0,0.0,4390.641113,4404.487305,4365.384766,4394.230957,4375.897461,4379.615234,4378.333496,4370.256348,4366.666504,4357.692383,4460.769043,4511.922852,4407.692383,4443.077148,,,,,,,,,,,,,,,,,,,,,,,,,,,,,,,,,,,,,,,,,,,,,,,,,,,,,,,,,,,,,,,,,,,,,,
1768973079.654626,1768973079.655335,118.0,0.0,4390.256348,4407.820313,4367.820313,4401.282227,4379.102539,4378.589844,4377.179688,4381.538574,4378.846191,4363.461426,4469.743652,4523.205078,4412.307617,4450.256348,,,,,,,,,,,,,,,,,,,,,,,,,,,,,,,,,,,,,,,,,,,,,,,,,,,,,,,,,,,,,,,,,,,,,,
1768973079.662435,1768973079.663143,119.0,0.0,4393.846191,4410.0,4373.589844,4401.794922,4383.846191,4375.641113,4378.461426,4393.205078,4386.538574,4363.846191,4477.436035,4529.487305,4412.94873,4452.692383,,,,,,,,,,,,,,,,,,,,,,,,,,,,,,,,,,,,,,,,,,,,,,,,,,,,,,,,,,,,,,,,,,,,,,
1768973079.670243,1768973079.670752,120.0,0.0,4393.717773,4402.820313,4374.102539,4395.512695,4381.794922,4372.820313,4375.128418,4382.436035,4379.743652,4361.410156,4476.025879,4523.717773,4413.333496,4447.307617,,,,,,,,,,,,,,,,,,,,,,,,,,,,,,,,,,,,,,,,,,,,,,,,,,,,,,,,,,,,,,,,,,,,,,
1768973079.678052,1768973079.678561,121.0,0.0,4395.641113,4399.743652,4369.615234,4395.769043,4379.615234,4368.461426,4374.102539,4368.077148,4371.282227,4361.666504,4473.974121,4520.641113,4412.179688,4451.282227,,,,,,,,,,,,,,,,,,,,,,,,,,,,,,,,,,,,,,,,,,,,,,,,,,,,,,,,,,,,,,,,,,,,,,
1768973079.68586,1768973079.686269,122.0,0.0,4398.205078,4406.153809,4369.615234,4402.179688,4385.512695,4378.205078,4385.512695,4375.897461,4375.256348,4365.384766,4479.102539,4530.512695,4416.538574,4464.487305,,,,,,,,,,,,,,,,,,,,,,,,,,,,,,,,,,,,,,,,,,,,,,,,,,,,,,,,,,,,,,,,,,,,,,
1768973079.693669,1768973079.694078,123.0,0.0,4391.794922,4404.358887,4367.692383,4399.358887,4388.205078,4392.692383,4394.230957,4381.922852,4379.487305,4365.641113,4479.615234,4528.846191,4420.256348,4460.384766,,,,,,,,,,,,,,,,,,,,,,,,,,,,,,,,,,,,,,,,,,,,,,,,,,,,,,,,,,,,,,,,,,,,,,
1768973079.701477,1768973079.702086,124.0,0.0,4384.615234,4395.769043,4361.794922,4390.641113,4380.512695,4382.692383,4385.384766,4373.461426,4371.410156,4359.102539,4466.025879,4515.512695,4412.436035,4447.179688,,,,,,,,,,,,,,,,,,,,,,,,,,,,,,,,,,,,,,,,,,,,,,,,,,,,,,,,,,,,,,,,,,,,,,
1768973079.709286,1768973079.709894,125.0,0.0,4386.794922,4398.589844,4362.307617,4391.153809,4376.025879,4371.153809,4380.128418,4376.282227,4367.307617,4356.153809,4463.846191,4515.0,4409.102539,4446.410156,,,,,,,,,,,,,,,,,,,,,,,,,,,,,,,,,,,,,,,,,,,,,,,,,,,,,,,,,,,,,,,,,,,,,,
1768973079.717094,1768973079.717603,126.0,0.0,4387.563965,4406.282227,4362.563965,4395.512695,4380.384766,4378.333496,4382.820313,4382.692383,4374.615234,4360.256348,4474.230957,4518.205078,4414.871582,4446.538574,0.776278,0.372511,0.253247,0.283353,0.128105,0.518785,0.417597,0.340081,0.269174,0.119986,0.713043,0.208895,0.204963,0.226069,0.082482,0.320177,0.337617,0.20933,0.174081,0.081243,0.264153,0.113095,0.066052,0.070902,0.039884,0.135092,0.286907,0.142904,0.149078,0.153278,0.219679,0.452825,0.401865,0.139134,0.159511,0.227705,0.590269,0.168768,0.140509,0.163602,0.383509,0.720827,0.170413,0.184345,0.154765,0.403948,0.521231,0.38192,0.13325,0.079149,0.67311,0.692419,0.252088,0.13896,0.120604,0.937324,0.72801,0.460784,0.313165,0.16943,0.38506,0.519668,0.215069,0.195066,0.110454,0.714505,0.229529,0.251592,0.2068,0.126696
1768973079.724903,1768973079.725411,127.0,0.0,4383.717773,4408.974121,4359.615234,4397.436035,4381.410156,4382.563965,4383.717773,4377.820313,4375.512695,4364.230957,4468.717773,4511.922852,4412.94873,4441.922852,,,,,,,,,,,,,,,,,,,,,,,,,,,,,,,,,,,,,,,,,,,,,,,,,,,,,,,,,,,,,,,,,,,,,,
1768973079.732711,1768973079.73302,0.0,0.0,4383.461426,4409.487305,4360.128418,4396.666504,4379.871582,4381.025879,4382.820313,4375.897461,4371.025879,4362.436035,4459.358887,4509.102539,4407.94873,4442.05127,,,,,,,,,,,,,,,,,,,,,,,,,,,,,,,,,,,,,,,,,,,,,,,,,,,,,,,,,,,,,,,,,,,,,,
1768973079.740519,1768973079.740828,1.0,0.0,4382.820313,4406.922852,4359.871582,4393.974121,4380.384766,4383.205078,4383.717773,4378.461426,4372.563965,4361.538574,4464.358887,4510.769043,4409.615234,4442.179688,,,,,,,,,,,,,,,,,,,,,,,,,,,,,,,,,,,,,,,,,,,,,,,,,,,,,,,,,,,,,,,,,,,,,,
1768973079.748328,1768973079.748537,2.0,0.0,4379.358887,4404.743652,4355.128418,4391.538574,4382.692383,4382.307617,4381.922852,4376.922852,4377.94873,4361.538574,4464.358887,4505.256348,4409.743652,4439.102539,,,,,,,,,,,,,,,,,,,,,,,,,,,,,,,,,,,,,,,,,,,,,,,,,,,,,,,,,,,,,,,,,,,,,,
1768973079.756136,1768973079.756345,3.0,0.0,4384.102539,4410.256348,4355.641113,4394.871582,4386.666504,4376.794922,4378.974121,4376.666504,4379.871582,4360.897461,4460.769043,4504.615234,4409.230957,4440.641113,,,,,,,,,,,,,,,,,,,,,,,,,,,,,,,,,,,,,,,,,,,,,,,,,,,,,,,,,,,,,,,,,,,,,,
1768973079.763945,1768973079.764354,4.0,0.0,4392.179688,4414.102539,4364.743652,4399.615234,4387.563965,4375.512695,4381.410156,4380.897461,4377.179688,4358.974121,4466.282227,4513.717773,4412.820313,4445.384766,,,,,,,,,,,,,,,,,,,,,,,,,,,,,,,,,,,,,,,,,,,,,,,,,,,,,,,,,,,,,,,,,,,,,,
1768973079.771753,1768973079.772162,5.0,0.0,4390.641113,4410.769043,4371.538574,4397.179688,4384.230957,4374.743652,4381.922852,4380.897461,4373.717773,4358.077148,4464.743652,4515.256348,4412.436035,4445.128418,,,,,,,,,,,,,,,,,,,,,,,,,,,,,,,,,,,,,,,,,,,,,,,,,,,,,,,,,,,,,,,,,,,,,,
1768973079.779562,1768973079.78007,6.0,0.0,4388.077148,4411.025879,4373.589844,4396.794922,4383.077148,4375.128418,4379.358887,4377.692383,4370.769043,4357.820313,4459.615234,4511.025879,4406.666504,4442.436035,,,,,,,,,,,,,,,,,,,,,,,,,,,,,,,,,,,,,,,,,,,,,,,,,,,,,,,,,,,,,,,,,,,,,,
1768973079.78737,1768973079.787879,7.0,0.0,4392.94873,4413.333496,4372.692383,4400.897461,4382.692383,4375.641113,4379.230957,4378.333496,4373.205078,4355.897461,4460.769043,4511.922852,4404.615234,4442.563965,,,,,,,,,,,,,,,,,,,,,,,,,,,,,,,,,,,,,,,,,,,,,,,,,,,,,,,,,,,,,,,,,,,,,,
1768973079.795179,1768973079.795887,8.0,0.0,4394.871582,4411.410156,4369.615234,4399.487305,4380.384766,4372.820313,4377.563965,4376.922852,4375.384766,4356.282227,4460.769043,4512.94873,4408.077148,4443.461426,,,,,,,,,,,,,,,,,,,,,,,,,,,,,,,,,,,,,,,,,,,,,,,,,,,,,,,,,,,,,,,,,,,,,,
1768973079.802987,1768973079.803695,9.0,0.0,4392.307617,4413.333496,4370.128418,4396.538574,4382.179688,4373.846191,4376.282227,4376.794922,4373.846191,4358.717773,4467.05127,4514.358887,4413.077148,4444.487305,,,,,,,,,,,,,,,,,,,,,,,,,,,,,,,,,,,,,,,,,,,,,,,,,,,,,,,,,,,,,,,,,,,,,,
1768973079.810795,1768973079.811504,10.0,0.0,4387.820313,4415.641113,4371.666504,4396.922852,4382.307617,4378.589844,4382.94873,4387.179688,4376.410156,4358.717773,4475.769043,4517.563965,4409.743652,4446.282227,,,,,,,,,,,,,,,,,,,,,,,,,,,,,,,,,,,,,,,,,,,,,,,,,,,,,,,,,,,,,,,,,,,,,,
1768973079.818604,1768973079.819312,11.0,0.0,4382.179688,4409.615234,4368.077148,4394.358887,4377.179688,4377.692383,4385.256348,4388.333496,4378.205078,4357.820313,4468.333496,4512.692383,4398.333496,4444.358887,,,,,,,,,,,,,,,,,,,,,,,,,,,,,,,,,,,,,,,,,,,,,,,,,,,,,,,,,,,,,,,,,,,,,,
1768973079.826412,1768973079.826921,12.0,0.0,4381.282227,4401.282227,4363.846191,4388.333496,4376.410156,4374.615234,4375.769043,4373.974121,4372.179688,4356.410156,4457.820313,4505.769043,4397.179688,4441.153809,,,,,,,,,,,,,,,,,,,,,,,,,,,,,,,,,,,,,,,,,,,,,,,,,,,,,,,,,,,,,,,,,,,,,,
1768973079.834221,1768973079.834729,13.0,0.0,4385.0,4404.102539,4363.077148,4387.179688,4380.641113,4375.769043,4376.153809,4375.512695,4371.153809,4356.538574,4460.128418,4508.846191,4404.358887,4443.461426,,,,,,,,,,,,,,,,,,,,,,,,,,,,,,,,,,,,,,,,,,,,,,,,,,,,,,,,,,,,,,,,,,,,,,
1768973079.842029,1768973079.842438,14.0,0.0,4384.871582,4407.563965,4364.358887,4391.282227,4381.666504,4377.179688,4383.717773,4389.487305,4375.256348,4358.333496,4463.333496,4513.974121,4401.922852,4442.94873,0.775207,0.398229,0.258017,0.311572,0.121511,0.648605,0.504357,0.387693,0.283676,0.122604,0.626764,0.216862,0.209401,0.240296,0.07437,0.332601,0.356242,0.238327,0.192851,0.081875,0.232454,0.110751,0.068956,0.075483,0.040018,0.20003,0.269217,0.136605,0.177662,0.155454,0.281511,0.35387,0.334512,0.12577,0.159075,0.191005,0.545008,0.163646,0.139044,0.147149,0.432415,0.71777,0.143206,0.164803,0.154677,0.47549,0.560554,0.361182,0.140838,0.071525,0.646006,0.760387,0.301858,0.165809,0.118199,0.996613,0.802896,0.483531,0.352015,0.162494,0.322445,0.529699,0.244543,0.233203,0.111967,0.754522,0.266325,0.282449,0.273591,0.145798
1768973079.849838,1768973079.850246,15.0,0.0,4380.512695,4399.358887,4363.077148,4393.846191,4379.615234,4378.717773,4386.282227,4386.025879,4372.820313,4358.846191,4462.05127,4512.94873,4395.769043,4436.025879,,,,,,,,,,,,,,,,,,,,,,,,,,,,,,,,,,,,,,,,,,,,,,,,,,,,,,,,,,,,,,,,,,,,,,
1768973079.857646,1768973079.857855,16.0,0.0,4380.641113,4393.846191,4361.153809,4392.94873,4382.179688,4382.692383,4389.871582,4379.743652,4376.794922,4359.102539,4461.538574,4514.615234,4397.820313,4433.461426,,,,,,,,,,,,,,,,,,,,,,,,,,,,,,,,,,,,,,,,,,,,,,,,,,,,,,,,,,,,,,,,,,,,,,
1768973079.865455,1768973079.865664,17.0,0.0,4381.025879,4396.282227,4361.794922,4390.256348,4382.179688,4383.333496,4391.666504,4386.025879,4382.436035,4358.589844,4460.897461,4512.563965,4397.820313,4432.94873,,,,,,,,,,,,,,,,,,,,,,,,,,,,,,,,,,,,,,,,,,,,,,,,,,,,,,,,,,,,,,,,,,,,,,
1768973079.873263,1768973079.873572,18.0,0.0,4379.743652,4397.94873,4361.282227,4387.692383,4378.717773,4379.615234,4385.0,4386.794922,4376.794922,4357.05127,4459.230957,4503.717773,4395.384766,4427.05127,,,,,,,,,,,,,,,,,,,,,,,,,,,,,,,,,,,,,,,,,,,,,,,,,,,,,,,,,,,,,,,,,,,,,,
1768973079.881071,1768973079.88138,19.0,0.0,4379.743652,4396.922852,4360.512695,4388.333496,4380.897461,4372.94873,4376.922852,4374.743652,4369.358887,4357.692383,4458.333496,4500.769043,4396.282227,4424.743652,,,,,,,,,,,,,,,,,,,,,,,,,,,,,,,,,,,,,,,,,,,,,,,,,,,,,,,,,,,,,,,,,,,,,,
1768973079.88888,1768973079.889389,20.0,0.0,4381.410156,4394.615234,4362.307617,4389.871582,4379.871582,4368.077148,4373.589844,4368.205078,4368.974121,4357.692383,4458.846191,4503.333496,4396.153809,4428.846191,,,,,,,,,,,,,,,,,,,,,,,,,,,,,,,,,,,,,,,,,,,,,,,,,,,,,,,,,,,,,,,,,,,,,,
1768973079.896688,1768973079.897197,21.0,0.0,4384.230957,4393.205078,4362.94873,4390.641113,4372.692383,4369.358887,4373.717773,4378.974121,4371.025879,4355.512695,4459.487305,4505.128418,4396.153809,4432.307617,,,,,,,,,,,,,,,,,,,,,,,,,,,,,,,,,,,,,,,,,,,,,,,,,,,,,,,,,,,,,,,,,,,,,,
1768973079.904497,1768973079.905105,22.0,0.0,4387.436035,4397.179688,4364.743652,4393.077148,4376.153809,4375.769043,4378.205078,4387.179688,4372.307617,4359.743652,4458.333496,4507.820313,4398.077148,4429.615234,,,,,,,,,,,,,,,,,,,,,,,,,,,,,,,,,,,,,,,,,,,,,,,,,,,,,,,,,,,,,,,,,,,,,,
1768973079.912305,1768973079.912914,23.0,0.0,4392.307617,4398.461426,4371.922852,4397.436035,4388.589844,4381.922852,4385.384766,4384.487305,4377.05127,4364.743652,4463.333496,4513.077148,4398.461426,4427.179688,,,,,,,,,,,,,,,,,,,,,,,,,,,,,,,,,,,,,,,,,,,,,,,,,,,,,,,,,,,,,,,,,,,,,,
1768973079.920114,1768973079.920523,24.0,0.0,4395.128418,4391.794922,4370.897461,4396.025879,4385.641113,4379.487305,4385.128418,4384.358887,4381.922852,4360.641113,4470.256348,4518.461426,4396.666504,4435.128418,,,,,,,,,,,,,,,,,,,,,,,,,,,,,,,,,,,,,,,,,,,,,,,,,,,,,,,,,,,,,,,,,,,,,,
1768973079.927922,1768973079.928331,25.0,0.0,4392.179688,4392.05127,4362.692383,4388.974121,4375.512695,4371.153809,4377.436035,4388.205078,4380.512695,4357.820313,4466.153809,4521.410156,4395.384766,4441.666504,,,,,,,,,,,,,,,,,,,,,,,,,,,,,,,,,,,,,,,,,,,,,,,,,,,,,,,,,,,,,,,,,,,,,,
1768973079.935731,1768973079.936039,26.0,0.0,4388.846191,4397.94873,4367.563965,4387.563965,4377.692383,4371.410156,4374.230957,4386.666504,4375.641113,4360.641113,4465.897461,4518.589844,4399.358887,4438.589844,,,,,,,,,,,,,,,,,,,,,,,,,,,,,,,,,,,,,,,,,,,,,,,,,,,,,,,,,,,,,,,,,,,,,,
1768973079.943539,1768973079.943848,27.0,0.0,4390.897461,4398.974121,4374.487305,4392.307617,4382.179688,4374.615234,4376.666504,4380.0,4373.333496,4364.487305,4473.333496,4516.025879,4404.358887,4440.512695,,,,,,,,,,,,,,,,,,,,,,,,,,,,,,,,,,,,,,,,,,,,,,,,,,,,,,,,,,,,,,,,,,,,,,
1768973079.951347,1768973079.951856,28.0,0.0,4397.820313,4400.769043,4371.922852,4396.666504,4380.641113,4372.692383,4376.025879,4377.563965,4370.897461,4363.846191,4467.179688,4518.077148,4400.384766,4443.589844,,,,,,,,,,,,,,,,,,,,,,,,,,,,,,,,,,,,,,,,,,,,,,,,,,,,,,,,,,,,,,,,,,,,,,
1768973079.959156,1768973079.959665,29.0,0.0,4399.615234,4406.153809,4370.512695,4396.794922,4380.769043,4377.94873,4379.102539,4381.410156,4369.487305,4360.128418,4456.922852,4517.94873,4395.128418,4438.717773,,,,,,,,,,,,,,,,,,,,,,,,,,,,,,,,,,,,,,,,,,,,,,,,,,,,,,,,,,,,,,,,,,,,,,
1768973079.966964,1768973079.967573,30.0,0.0,4394.487305,4406.922852,4368.974121,4395.512695,4386.410156,4385.512695,4385.769043,4383.077148,4375.256348,4361.922852,4462.307617,4517.692383,4401.410156,4439.487305,0.802282,0.420461,0.254682,0.32165,0.117379,0.769618,0.619644,0.427212,0.299652,0.125242,0.579121,0.232892,0.207653,0.237408,0.069068,0.329896,0.37105,0.244664,0.204253,0.084083,0.199164,0.108812,0.066466,0.07562,0.042896,0.273114,0.257938,0.132832,0.204967,0.167352,0.365121,0.286976,0.266968,0.116528,0.164729,0.171109,0.476587,0.158419,0.138523,0.136594,0.478768,0.663484,0.119439,0.150565,0.155329,0.580927,0.585954,0.31786,0.144295,0.064904,0.608494,0.802317,0.358235,0.203485,0.116425,1.027604,0.831743,0.52139,0.373481,0.151818,0.278077,0.531633,0.268401,0.270412,0.118995,0.788455,0.2976,0.3253,0.344921,0.159655
1768973079.974773,1768973079.975381,31.0,0.0,4388.589844,4399.358887,4361.794922,4393.333496,4388.461426,4380.256348,4382.436035,4382.179688,4378.717773,4367.692383,4467.05127,4519.102539,4406.410156,4443.077148,,,,,,,,,,,,,,,,,,,,,,,,,,,,,,,,,,,,,,,,,,,,,,,,,,,,,,,,,,,,,,,,,,,,,,
1768973079.982581,1768973079.98339,32.0,0.0,4382.05127,4389.230957,4356.666504,4387.563965,4383.461426,4378.077148,4378.974121,4388.077148,4380.769043,4367.179688,4460.384766,4518.974121,4397.436035,4432.307617,,,,,,,,,,,,,,,,,,,,,,,,,,,,,,,,,,,,,,,,,,,,,,,,,,,,,,,,,,,,,,,,,,,,,,
1768973079.99039,1768973079.991198,33.0,0.0,4382.307617,4386.666504,4358.974121,4387.563965,4377.820313,4382.94873,4387.179688,4396.153809,4386.666504,4366.410156,4462.05127,4519.102539,4395.256348,4425.512695,,,,,,,,,,,,,,,,,,,,,,,,,,,,,,,,,,,,,,,,,,,,,,,,,,,,,,,,,,,,,,,,,,,,,,
1768973079.998198,1768973079.999106,34.0,0.0,4392.179688,4395.128418,4364.358887,4394.871582,4380.128418,4380.256348,4390.256348,4394.871582,4387.820313,4374.743652,4472.692383,4521.538574,4409.358887,4437.820313,,,,,,,,,,,,,,,,,,,,,,,,,,,,,,,,,,,,,,,,,,,,,,,,,,,,,,,,,,,,,,,,,,,,,,
1768973080.006007,1768973080.006915,35.0,0.0,4394.358887,4399.871582,4364.102539,4397.307617,4385.641113,4376.794922,4382.692383,4390.897461,4382.692383,4378.205078,4478.461426,4522.820313,4417.307617,4447.436035,,,,,,,,,,,,,,,,,,,,,,,,,,,,,,,,,,,,,,,,,,,,,,,,,,,,,,,,,,,,,,,,,,,,,,
1768973080.013815,1768973080.014524,36.0,0.0,4386.666504,4395.256348,4357.820313,4395.256348,4384.358887,4379.615234,4383.077148,4389.615234,4377.94873,4367.179688,4473.846191,4519.487305,4409.871582,4441.666504,,,,,,,,,,,,,,,,,,,,,,,,,,,,,,,,,,,,,,,,,,,,,,,,,,,,,,,,,,,,,,,,,,,,,,
1768973080.021623,1768973080.022332,37.0,0.0,4387.05127,4396.282227,4360.0,4397.692383,4381.282227,4381.922852,4390.256348,4388.846191,4374.102539,4357.307617,4461.666504,4511.025879,4398.333496,4432.05127,,,,,,,,,,,,,,,,,,,,,,,,,,,,,,,,,,,,,,,,,,,,,,,,,,,,,,,,,,,,,,,,,,,,,,
1768973080.029432,1768973080.030041,38.0,0.0,4391.794922,4401.410156,4364.871582,4399.487305,4383.205078,4380.256348,4386.025879,4383.589844,4370.0,4357.94873,4455.256348,4507.05127,4395.128418,4428.717773,,,,,,,,,,,,,,,,,,,,,,,,,,,,,,,,,,,,,,,,,,,,,,,,,,,,,,,,,,,,,,,,,,,,,,
1768973080.03724,1768973080.037849,39.0,0.0,4387.692383,4399.743652,4361.538574,4393.846191,4386.282227,4376.410156,4377.692383,4380.512695,4372.307617,4360.128418,4465.769043,4515.897461,4402.307617,4435.897461,,,,,,,,,,,,,,,,,,,,,,,,,,,,,,,,,,,,,,,,,,,,,,,,,,,,,,,,,,,,,,,,,,,,,,
1768973080.045049,1768973080.045458,40.0,0.0,4387.692383,4396.025879,4361.538574,4392.307617,4382.05127,4373.333496,4375.512695,4384.487305,4375.641113,4359.743652,4474.358887,4526.794922,4405.897461,4441.794922,,,,,,,,,,,,,,,,,,,,,,,,,,,,,,,,,,,,,,,,,,,,,,,,,,,,,,,,,,,,,,,,,,,,,,
1768973080.052857,1768973080.053266,41.0,0.0,4393.077148,4397.692383,4364.615234,4395.256348,4377.94873,4378.846191,4378.846191,4383.717773,4367.179688,4356.282227,4464.358887,4527.307617,4399.743652,4436.922852,,,,,,,,,,,,,,,,,,,,,,,,,,,,,,,,,,,,,,,,,,,,,,,,,,,,,,,,,,,,,,,,,,,,,,
1768973080.060666,1768973080.060975,42.0,0.0,4393.846191,4399.230957,4362.692383,4393.589844,4382.179688,4384.871582,4381.153809,4376.153809,4359.871582,4351.666504,4456.025879,4522.563965,4397.179688,4432.94873,,,,,,,,,,,,,,,,,,,,,,,,,,,,,,,,,,,,,,,,,,,,,,,,,,,,,,,,,,,,,,,,,,,,,,
1768973080.068474,1768973080.068783,43.0,0.0,4393.717773,4396.538574,4363.077148,4390.769043,4383.717773,4375.256348,4376.922852,4374.230957,4365.256348,4353.077148,4459.871582,4523.333496,4400.384766,4434.871582,,,,,,,,,,,,,,,,,,,,,,,,,,,,,,,,,,,,,,,,,,,,,,,,,,,,,,,,,,,,,,,,,,,,,,
1768973080.076283,1768973080.076392,44.0,0.0,4395.641113,4396.410156,4366.794922,4391.666504,4376.282227,4368.717773,4374.743652,4376.282227,4369.743652,4356.025879,4460.384766,4524.743652,4398.589844,4432.563965,,,,,,,,,,,,,,,,,,,,,,,,,,,,,,,,,,,,,,,,,,,,,,,,,,,,,,,,,,,,,,,,,,,,,,
1768973080.084091,1768973080.0842,45.0,0.0,4399.615234,4402.563965,4363.846191,4394.743652,4375.256348,4375.256348,4377.179688,4376.153809,4364.102539,4353.461426,4456.282227,4518.974121,4395.769043,4430.769043,,,,,,,,,,,,,,,,,,,,,,,,,,,,,,,,,,,,,,,,,,,,,,,,,,,,,,,,,,,,,,,,,,,,,,
1768973080.0919,1768973080.092109,46.0,0.0,4399.487305,4403.205078,4360.256348,4395.256348,4384.102539,4378.846191,4380.128418,4377.692383,4362.692383,4351.282227,4456.410156,4514.487305,4397.307617,4435.0,0.876124,0.440235,0.244268,0.313142,0.116819,0.869122,0.723608,0.454325,0.317768,0.129118,0.59982,0.262882,0.201415,0.220039,0.06652,0.322398,0.377058,0.226166,0.204749,0.087087,0.168629,0.10936,0.060338,0.070646,0.048556,0.336868,0.251399,0.129352,0.226058,0.186631,0.446007,0.252585,0.21238,0.115142,0.176236,0.164222,0.407815,0.152,0.13931,0.138188,0.501398,0.575592,0.105272,0.144187,0.157918,0.669508,0.582221,0.270704,0.142994,0.060544,0.559422,0.81114,0.413652,0.244207,0.117003,1.055698,0.803442,0.560863,0.374136,0.142793,0.241333,0.519183,0.282211,0.295687,0.129596,0.813123,0.318934,0.374265,0.406228,0.16686
1768973080.099708,1768973080.099917,47.0,0.0,4392.307617,4393.333496,4359.358887,4391.666504,4385.641113,4378.974121,4383.077148,4381.538574,4370.0,4352.820313,4456.025879,4516.666504,4397.563965,4429.615234,,,,,,,,,,,,,,,,,,,,,,,,,,,,,,,,,,,,,,,,,,,,,,,,,,,,,,,,,,,,,,,,,,,,,,
1768973080.107516,1768973080.107925,48.0,0.0,4388.846191,4388.333496,4355.641113,4390.0,4380.256348,4377.94873,4382.94873,4385.769043,4374.615234,4355.897461,4458.589844,4519.230957,4397.307617,4424.871582,,,,,,,,,,,,,,,,,,,,,,,,,,,,,,,,,,,,,,,,,,,,,,,,,,,,,,,,,,,,,,,,,,,,,,
1768973080.115325,1768973080.115734,49.0,0.0,4395.0,4392.692383,4355.0,4394.871582,4380.384766,4373.846191,4379.871582,4387.820313,4373.974121,4361.153809,4464.358887,4523.333496,4399.230957,4436.410156,,,,,,,,,,,,,,,,,,,,,,,,,,,,,,,,,,,,,,,,,,,,,,,,,,,,,,,,,,,,,,,,,,,,,,
1768973080.123133,1768973080.123442,50.0,0.0,4399.743652,4395.512695,4360.769043,4397.563965,4383.974121,4375.384766,4380.512695,4382.820313,4373.077148,4362.820313,4464.102539,4527.563965,4399.487305,4441.538574,,,,,,,,,,,,,,,,,,,,,,,,,,,,,,,,,,,,,,,,,,,,,,,,,,,,,,,,,,,,,,,,,,,,,,
1768973080.130942,1768973080.131251,51.0,0.0,4396.282227,4396.153809,4361.025879,4394.102539,4385.384766,4385.128418,4384.102539,4378.461426,4371.410156,4356.922852,4460.0,4522.94873,4396.025879,4429.743652,,,,,,,,,,,,,,,,,,,,,,,,,,,,,,,,,,,,,,,,,,,,,,,,,,,,,,,,,,,,,,,,,,,,,,
1768973080.13875,1768973080.138859,52.0,0.0,4394.743652,4397.307617,4357.307617,4395.512695,4386.922852,4387.820313,4384.358887,4382.179688,4366.922852,4353.461426,4459.102539,4517.179688,4394.743652,4426.153809,,,,,,,,,,,,,,,,,,,,,,,,,,,,,,,,,,,,,,,,,,,,,,,,,,,,,,,,,,,,,,,,,,,,,,
1768973080.146559,1768973080.146668,53.0,0.0,4398.717773,4398.333496,4362.179688,4397.94873,4387.820313,4380.384766,4378.974121,4385.384766,4366.538574,4356.025879,4461.025879,4522.05127,4399.230957,4437.692383,,,,,,,,,,,,,,,,,,,,,,,,,,,,,,,,,,,,,,,,,,,,,,,,,,,,,,,,,,,,,,,,,,,,,,
1768973080.154367,1768973080.154576,54.0,0.0,4404.487305,4399.615234,4367.05127,4396.410156,4384.102539,4376.410156,4372.692383,4386.794922,4372.820313,4359.102539,4464.230957,4530.128418,4401.025879,4446.025879,,,,,,,,,,,,,,,,,,,,,,,,,,,,,,,,,,,,,,,,,,,,,,,,,,,,,,,,,,,,,,,,,,,,,,
1768973080.162176,1768973080.162385,55.0,0.0,4404.743652,4397.563965,4364.871582,4398.461426,4381.666504,4380.256348,4378.589844,4389.102539,4374.871582,4357.563965,4463.974121,4531.282227,4396.282227,4445.256348,,,,,,,,,,,,,,,,,,,,,,,,,,,,,,,,,,,,,,,,,,,,,,,,,,,,,,,,,,,,,,,,,,,,,,
1768973080.169984,1768973080.170393,56.0,0.0,4393.974121,4394.358887,4365.0,4400.384766,4386.282227,4387.05127,4388.333496,4390.0,4373.077148,4357.94873,4462.436035,4527.94873,4396.922852,4439.743652,,,,,,,,,,,,,,,,,,,,,,,,,,,,,,,,,,,,,,,,,,,,,,,,,,,,,,,,,,,,,,,,,,,,,,
1768973080.177792,1768973080.178201,57.0,0.0,4384.230957,4395.897461,4364.487305,4395.128418,4390.0,4387.05127,4380.256348,4389.358887,4373.717773,4365.769043,4465.641113,4524.487305,4402.436035,4436.282227,,,,,,,,,,,,,,,,,,,,,,,,,,,,,,,,,,,,,,,,,,,,,,,,,,,,,,,,,,,,,,,,,,,,,,
1768973080.185601,1768973080.18611,58.0,0.0,4388.717773,4396.922852,4358.077148,4391.025879,4387.820313,4387.820313,4372.94873,4386.025879,4372.692383,4367.307617,4466.153809,4522.307617,4400.769043,4436.538574,,,,,,,,,,,,,,,,,,,,,,,,,,,,,,,,,,,,,,,,,,,,,,,,,,,,,,,,,,,,,,,,,,,,,,
1768973080.193409,1768973080.193918,59.0,0.0,4394.743652,4395.384766,4356.282227,4393.589844,4385.0,4388.846191,4381.282227,4386.153809,4371.794922,4359.743652,4460.897461,4519.102539,4395.641113,4432.436035,,,,,,,,,,,,,,,,,,,,,,,,,,,,,,,,,,,,,,,,,,,,,,,,,,,,,,,,,,,,,,,,,,,,,,
1768973080.201218,1768973080.201627,60.0,0.0,4390.256348,4395.512695,4362.05127,4395.384766,4383.077148,4382.436035,4383.974121,4389.871582,4374.358887,4356.410156,4457.820313,4519.871582,4393.461426,4425.384766,,,,,,,,,,,,,,,,,,,,,,,,,,,,,,,,,,,,,,,,,,,,,,,,,,,,,,,,,,,,,,,,,,,,,,
1768973080.209026,1768973080.209435,61.0,0.0,4390.641113,4397.179688,4363.333496,4395.897461,4380.897461,4383.077148,4375.769043,4385.128418,4373.717773,4357.436035,4459.102539,4527.436035,4398.717773,4428.205078,,,,,,,,,,,,,,,,,,,,,,,,,,,,,,,,,,,,,,,,,,,,,,,,,,,,,,,,,,,,,,,,,,,,,,
1768973080.216834,1768973080.217144,62.0,0.0,4397.436035,4397.05127,4360.641113,4397.179688,4381.025879,4390.128418,4372.179688,4379.615234,4370.384766,4357.94873,4465.512695,4531.666504,4406.794922,4438.333496,0.989351,0.457859,0.228288,0.292068,0.118642,0.936594,0.772992,0.467084,0.33378,0.134432,0.694305,0.307873,0.191941,0.195263,0.066024,0.320238,0.368203,0.19025,0.195143,0.089991,0.1444,0.113271,0.054007,0.062338,0.056444,0.375024,0.246436,0.121847,0.239248,0.20735,0.496367,0.233572,0.176894,0.124911,0.18896,0.162595,0.354657,0.148467,0.141005,0.153473,0.487142,0.477032,0.107392,0.145886,0.16136,0.70052,0.539374,0.235177,0.136846,0.058795,0.498618,0.785645,0.454513,0.278801,0.121848,1.107116,0.720543,0.590716,0.354609,0.139196,0.205641,0.484483,0.28061,0.300536,0.1411,0.840246,0.328673,0.413676,0.443232,0.168499
1768973080.224643,1768973080.224952,63.0,0.0,4394.871582,4396.922852,4360.641113,4395.641113,4381.282227,4394.487305,4381.922852,4387.307617,4374.102539,4361.025879,4471.666504,4531.794922,4408.589844,4438.461426,,,,,,,,,,,,,,,,,,,,,,,,,,,,,,,,,,,,,,,,,,,,,,,,,,,,,,,,,,,,,,,,,,,,,,
1768973080.232451,1768973080.232561,64.0,0.0,4386.794922,4398.589844,4359.102539,4395.0,4381.538574,4393.077148,4390.512695,4392.94873,4381.538574,4365.512695,4469.102539,4530.897461,4404.358887,4433.974121,,,,,,,,,,,,,,,,,,,,,,,,,,,,,,,,,,,,,,,,,,,,,,,,,,,,,,,,,,,,,,,,,,,,,,
1768973080.24026,1768973080.240369,65.0,0.0,4387.436035,4402.179688,4355.512695,4396.922852,4381.794922,4383.461426,4380.512695,4388.846191,4381.922852,4365.512695,4461.794922,4529.487305,4403.589844,4437.94873,,,,,,,,,,,,,,,,,,,,,,,,,,,,,,,,,,,,,,,,,,,,,,,,,,,,,,,,,,,,,,,,,,,,,,
1768973080.248068,1768973080.248078,66.0,0.0,4394.230957,4407.179688,4359.102539,4400.384766,4383.717773,4381.794922,4373.461426,4389.358887,4380.641113,4364.871582,4462.563965,4528.589844,4407.307617,4444.230957,,,,,,,,,,,,,,,,,,,,,,,,,,,,,,,,,,,,,,,,,,,,,,,,,,,,,,,,,,,,,,,,,,,,,,
1768973080.255877,1768973080.255886,67.0,0.0,4400.128418,4407.436035,4369.871582,4405.897461,4388.333496,4393.589844,4385.641113,4391.794922,4381.538574,4365.897461,4469.487305,4529.358887,4410.641113,4443.717773,,,,,,,,,,,,,,,,,,,,,,,,,,,,,,,,,,,,,,,,,,,,,,,,,,,,,,,,,,,,,,,,,,,,,,
1768973080.263685,1768973080.263495,68.0,0.0,4402.94873,4401.538574,4372.307617,4407.563965,4392.05127,4396.410156,4391.153809,4393.846191,4383.333496,4368.461426,4476.282227,4531.794922,4413.333496,4443.846191,,,,,,,,,,,,,,,,,,,,,,,,,,,,,,,,,,,,,,,,,,,,,,,,,,,,,,,,,,,,,,,,,,,,,,
1768973080.271494,1768973080.271303,69.0,0.0,4402.05127,4395.512695,4365.128418,4402.179688,4392.307617,4388.205078,4384.102539,4395.256348,4383.717773,4371.922852,4478.717773,4530.641113,4413.589844,4448.333496,,,,,,,,,,,,,,,,,,,,,,,,,,,,,,,,,,,,,,,,,,,,,,,,,,,,,,,,,,,,,,,,,,,,,,
1768973080.279302,1768973080.279012,70.0,0.0,4400.128418,4394.871582,4363.974121,4398.205078,4391.410156,4389.102539,4383.974121,4387.820313,4379.230957,4367.692383,4473.974121,4525.769043,4411.666504,4446.153809,,,,,,,,,,,,,,,,,,,,,,,,,,,,,,,,,,,,,,,,,,,,,,,,,,,,,,,,,,,,,,,,,,,,,,
1768973080.28711,1768973080.28682,71.0,0.0,4397.307617,4395.384766,4369.615234,4399.358887,4389.102539,4390.641113,4383.333496,4380.0,4373.205078,4361.794922,4470.769043,4520.897461,4411.153809,4441.025879,,,,,,,,,,,,,,,,,,,,,,,,,,,,,,,,,,,,,,,,,,,,,,,,,,,,,,,,,,,,,,,,,,,,,,
1768973080.294919,1768973080.294828,72.0,0.0,4396.794922,4392.94873,4370.897461,4398.974121,4387.692383,4387.05127,4377.820313,4381.794922,4373.589844,4365.128418,4472.820313,4524.487305,4412.05127,4442.820313,,,,,,,,,,,,,,,,,,,,,,,,,,,,,,,,,,,,,,,,,,,,,,,,,,,,,,,,,,,,,,,,,,,,,,
1768973080.302727,1768973080.302637,73.0,0.0,4401.025879,4390.384766,4367.563965,4398.974121,4389.615234,4387.563965,4376.025879,4383.205078,4378.717773,4373.077148,4476.666504,4533.461426,4413.333496,4448.077148,,,,,,,,,,,,,,,,,,,,,,,,,,,,,,,,,,,,,,,,,,,,,,,,,,,,,,,,,,,,,,,,,,,,,,
1768973080.310536,1768973080.310545,74.0,0.0,4401.410156,4387.820313,4367.820313,4399.871582,4389.871582,4392.05127,4374.743652,4380.384766,4379.102539,4372.179688,4477.05127,4533.846191,4412.307617,4448.589844,,,,,,,,,,,,,,,,,,,,,,,,,,,,,,,,,,,,,,,,,,,,,,,,,,,,,,,,,,,,,,,,,,,,,,
1768973080.318344,1768973080.318354,75.0,0.0,4398.974121,4388.333496,4369.743652,4399.487305,4388.717773,4392.692383,4377.05127,4385.769043,4377.820313,4365.128418,4475.384766,4531.538574,4411.922852,4448.461426,,,,,,,,,,,,,,,,,,,,,,,,,,,,,,,,,,,,,,,,,,,,,,,,,,,,,,,,,,,,,,,,,,,,,,
1768973080.326153,1768973080.326362,76.0,0.0,4400.512695,4391.538574,4366.410156,4400.128418,4389.358887,4389.743652,4379.358887,4389.615234,4381.025879,4364.102539,4476.025879,4535.897461,4411.410156,4451.538574,,,,,,,,,,,,,,,,,,,,,,,,,,,,,,,,,,,,,,,,,,,,,,,,,,,,,,,,,,,,,,,,,,,,,,
1768973080.333961,1768973080.33417,77.0,0.0,4402.05127,4387.94873,4365.256348,4399.487305,4390.128418,4389.743652,4375.769043,4381.282227,4380.769043,4366.538574,4475.641113,4537.820313,4410.512695,4449.102539,,,,,,,,,,,,,,,,,,,,,,,,,,,,,,,,,,,,,,,,,,,,,,,,,,,,,,,,,,,,,,,,,,,,,,
1768973080.34177,1768973080.341879,78.0,0.0,4399.487305,4381.025879,4370.384766,4396.922852,4388.846191,4394.615234,4378.333496,4380.769043,4375.769043,4366.153809,4474.230957,4534.358887,4411.794922,4444.615234,1.106959,0.467566,0.208063,0.267142,0.120632,0.970348,0.74004,0.464085,0.3408,0.14001,0.832911,0.359334,0.178535,0.170646,0.066561,0.326126,0.340399,0.148466,0.179302,0.09163,0.124856,0.119529,0.051024,0.054437,0.065827,0.381678,0.239261,0.108492,0.246438,0.221858,0.503434,0.21405,0.160089,0.145749,0.196377,0.168984,0.323741,0.15626,0.143248,0.177891,0.441582,0.39175,0.13075,0.153935,0.162751,0.661615,0.463827,0.217334,0.126418,0.059459,0.436253,0.731719,0.469103,0.297873,0.132166,1.181329,0.602604,0.6068,0.32017,0.141626,0.17236,0.425279,0.261765,0.282796,0.151905,0.875213,0.329048,0.425911,0.446631,0.168916
1768973080.349578,1768973080.349687,79.0,0.0,4394.743652,4383.461426,4365.128418,4396.153809,4388.205078,4395.128418,4386.538574,4389.102539,4376.794922,4364.871582,4473.974121,4527.563965,4412.94873,4443.589844,,,,,,,,,,,,,,,,,,,,,,,,,,,,,,,,,,,,,,,,,,,,,,,,,,,,,,,,,,,,,,,,,,,,,,
1768973080.357386,1768973080.357696,80.0,0.0,4388.461426,4385.0,4350.897461,4397.820313,4386.410156,4386.410156,4382.94873,4386.922852,4381.666504,4363.205078,4475.512695,4516.922852,4412.563965,4438.333496,,,,,,,,,,,,,,,,,,,,,,,,,,,,,,,,,,,,,,,,,,,,,,,,,,,,,,,,,,,,,,,,,,,,,,
1768973080.365195,1768973080.365504,81.0,0.0,4385.256348,4380.384766,4349.743652,4395.128418,4382.307617,4381.282227,4375.769043,4380.256348,4381.025879,4361.794922,4472.179688,4515.0,4409.230957,4433.077148,,,,,,,,,,,,,,,,,,,,,,,,,,,,,,,,,,,,,,,,,,,,,,,,,,,,,,,,,,,,,,,,,,,,,,
1768973080.373003,1768973080.373412,82.0,0.0,4393.717773,4385.128418,4361.794922,4393.589844,4379.871582,4385.897461,4377.820313,4382.692383,4378.717773,4362.05127,4466.538574,4521.025879,4405.769043,4436.666504,,,,,,,,,,,,,,,,,,,,,,,,,,,,,,,,,,,,,,,,,,,,,,,,,,,,,,,,,,,,,,,,,,,,,,
1768973080.380812,1768973080.381221,83.0,0.0,4400.512695,4388.589844,4362.94873,4398.333496,4380.897461,4387.692383,4378.717773,4387.436035,4381.153809,4360.641113,4463.846191,4516.282227,4404.230957,4435.769043,,,,,,,,,,,,,,,,,,,,,,,,,,,,,,,,,,,,,,,,,,,,,,,,,,,,,,,,,,,,,,,,,,,,,,
1768973080.38862,1768973080.389229,84.0,0.0,4393.077148,4381.153809,4353.846191,4397.05127,4385.897461,4380.769043,4375.128418,4387.05127,4382.94873,4359.358887,4462.179688,4507.307617,4401.794922,4427.436035,,,,,,,,,,,,,,,,,,,,,,,,,,,,,,,,,,,,,,,,,,,,,,,,,,,,,,,,,,,,,,,,,,,,,,
1768973080.396429,1768973080.397038,85.0,0.0,4385.0,4378.461426,4352.179688,4391.025879,4387.692383,4379.102539,4372.563965,4380.897461,4378.974121,4362.307617,4460.897461,4510.128418,4403.717773,4432.436035,,,,,,,,,,,,,,,,,,,,,,,,,,,,,,,,,,,,,,,,,,,,,,,,,,,,,,,,,,,,,,,,,,,,,,
1768973080.404237,1768973080.404746,86.0,0.0,4386.153809,4381.538574,4356.410156,4391.025879,4385.256348,4383.589844,4372.692383,4372.94873,4373.589844,4363.589844,4460.641113,4511.538574,4409.743652,4438.974121,,,,,,,,,,,,,,,,,,,,,,,,,,,,,,,,,,,,,,,,,,,,,,,,,,,,,,,,,,,,,,,,,,,,,,
1768973080.412046,1768973080.412555,87.0,0.0,4393.974121,4381.153809,4360.641113,4396.025879,4383.589844,4383.846191,4372.94873,4374.871582,4371.410156,4359.743652,4460.256348,4506.282227,4407.05127,4431.153809,,,,,,,,,,,,,,,,,,,,,,,,,,,,,,,,,,,,,,,,,,,,,,,,,,,,,,,,,,,,,,,,,,,,,,
1768973080.419854,1768973080.420563,88.0,0.0,4398.717773,4385.384766,4363.589844,4398.077148,4383.974121,4382.05127,4369.487305,4382.05127,4374.743652,4361.025879,4460.769043,4508.077148,4402.820313,4431.794922,,,,,,,,,,,,,,,,,,,,,,,,,,,,,,,,,,,,,,,,,,,,,,,,,,,,,,,,,,,,,,,,,,,,,,
1768973080.427662,1768973080.428371,89.0,0.0,4390.897461,4389.487305,4358.205078,4396.666504,4386.922852,4379.615234,4365.769043,4382.179688,4377.820313,4364.871582,4462.307617,4513.077148,4408.974121,4443.077148,,,,,,,,,,,,,,,,,,,,,,,,,,,,,,,,,,,,,,,,,,,,,,,,,,,,,,,,,,,,,,,,,,,,,,
1768973080.435471,1768973080.43608,90.0,0.0,4379.230957,4381.153809,4349.615234,4390.641113,4388.333496,4382.820313,4369.102539,4383.846191,4381.282227,4364.615234,4468.461426,4514.230957,4413.974121,4444.358887,,,,,,,,,,,,,,,,,,,,,,,,,,,,,,,,,,,,,,,,,,,,,,,,,,,,,,,,,,,,,,,,,,,,,,
1768973080.443279,1768973080.443888,91.0,0.0,4377.94873,4375.512695,4351.538574,4385.384766,4383.461426,4389.230957,4373.974121,4390.384766,4382.692383,4363.974121,4473.461426,4518.205078,4412.307617,4443.205078,,,,,,,,,,,,,,,,,,,,,,,,,,,,,,,,,,,,,,,,,,,,,,,,,,,,,,,,,,,,,,,,,,,,,,
1768973080.451088,1768973080.451497,92.0,0.0,4382.05127,4380.769043,4357.436035,4385.128418,4379.102539,4386.666504,4369.230957,4385.384766,4376.410156,4362.179688,4466.282227,4517.692383,4408.589844,4442.820313,,,,,,,,,,,,,,,,,,,,,,,,,,,,,,,,,,,,,,,,,,,,,,,,,,,,,,,,,,,,,,,,,,,,,,
1768973080.458896,1768973080.459305,93.0,0.0,4382.563965,4380.769043,4355.512695,4382.179688,4381.538574,4381.410156,4363.974121,4374.615234,4370.512695,4357.307617,4457.692383,4509.871582,4404.358887,4431.153809,,,,,,,,,,,,,,,,,,,,,,,,,,,,,,,,,,,,,,,,,,,,,,,,,,,,,,,,,,,,,,,,,,,,,,
1768973080.466705,1768973080.467014,94.0,0.0,4382.307617,4373.974121,4352.307617,4381.666504,4383.846191,4381.410156,4365.512695,4377.692383,4373.974121,4357.563965,4461.538574,4511.922852,4407.179688,4425.769043,1.183591,0.465975,0.188343,0.247072,0.120978,0.975592,0.630169,0.44448,0.333812,0.14378,0.963341,0.40956,0.16191,0.152077,0.067083,0.331172,0.297005,0.111996,0.16344,0.090733,0.111827,0.125259,0.053078,0.050713,0.075668,0.361806,0.225942,0.090565,0.252333,0.224267,0.474031,0.189875,0.155687,0.173129,0.194793,0.189505,0.313963,0.182266,0.145406,0.202677,0.381506,0.334108,0.175083,0.164323,0.159334,0.571874,0.369699,0.211975,0.113535,0.062071,0.374256,0.657765,0.452223,0.297657,0.146991,1.253626,0.477892,0.607599,0.279759,0.147083,0.144404,0.347124,0.226862,0.248417,0.160858,0.90855,0.330408,0.403551,0.417116,0.172567
1768973080.474513,1768973080.474822,95.0,0.0,4381.410156,4371.282227,4353.333496,4388.077148,4381.666504,4380.256348,4366.538574,4385.128418,4380.769043,4365.0,4465.512695,4519.358887,4413.333496,4433.333496,,,,,,,,,,,,,,,,,,,,,,,,,,,,,,,,,,,,,,,,,,,,,,,,,,,,,,,,,,,,,,,,,,,,,,
1768973080.482322,1768973080.482831,96.0,0.0,4379.871582,4374.871582,4352.307617,4386.666504,4381.025879,4380.641113,4367.563965,4378.333496,4377.179688,4365.0,4460.641113,4517.563965,4409.102539,4431.666504,,,,,,,,,,,,,,,,,,,,,,,,,,,,,,,,,,,,,,,,,,,,,,,,,,,,,,,,,,,,,,,,,,,,,,
1768973080.49013,1768973080.490639,97.0,0.0,4383.077148,4377.179688,4349.230957,4380.384766,4383.461426,4385.897461,4371.282227,4370.769043,4367.563965,4357.05127,4456.410156,4512.563965,4400.384766,4426.282227,,,,,,,,,,,,,,,,,,,,,,,,,,,,,,,,,,,,,,,,,,,,,,,,,,,,,,,,,,,,,,,,,,,,,,
1768973080.497939,1768973080.498547,98.0,0.0,4387.820313,4377.179688,4354.230957,4382.692383,4382.692383,4385.128418,4373.846191,4379.102539,4369.358887,4355.897461,4459.230957,4512.307617,4397.307617,4427.820313,,,,,,,,,,,,,,,,,,,,,,,,,,,,,,,,,,,,,,,,,,,,,,,,,,,,,,,,,,,,,,,,,,,,,,
1768973080.505747,1768973080.506356,99.0,0.0,4382.820313,4373.589844,4357.94873,4385.0,4374.230957,4379.102539,4373.333496,4386.666504,4378.974121,4357.94873,4458.333496,4510.128418,4396.025879,4423.077148,,,,,,,,,,,,,,,,,,,,,,,,,,,,,,,,,,,,,,,,,,,,,,,,,,,,,,,,,,,,,,,,,,,,,,
1768973080.513555,1768973080.514364,100.0,0.0,4376.922852,4372.436035,4350.897461,4378.717773,4370.512695,4377.179688,4370.0,4375.512695,4375.128418,4355.641113,4451.666504,4507.05127,4395.384766,4415.0,,,,,,,,,,,,,,,,,,,,,,,,,,,,,,,,,,,,,,,,,,,,,,,,,,,,,,,,,,,,,,,,,,,,,,
1768973080.521364,1768973080.522172,101.0,0.0,4382.692383,4377.692383,4347.436035,4378.846191,4379.102539,4380.769043,4369.615234,4367.179688,4364.615234,4353.461426,4450.641113,4508.077148,4395.384766,4419.871582,,,,,,,,,,,,,,,,,,,,,,,,,,,,,,,,,,,,,,,,,,,,,,,,,,,,,,,,,,,,,,,,,,,,,,
1768973080.529172,1768973080.530081,102.0,0.0,4386.794922,4378.077148,4354.615234,4387.94873,4384.358887,4385.256348,4375.384766,4377.563965,4373.333496,4359.615234,4458.717773,4513.846191,4397.563965,4428.589844,,,,,,,,,,,,,,,,,,,,,,,,,,,,,,,,,,,,,,,,,,,,,,,,,,,,,,,,,,,,,,,,,,,,,,
1768973080.536981,1768973080.537889,103.0,0.0,4381.282227,4375.0,4358.589844,4389.871582,4380.256348,4384.487305,4378.205078,4387.307617,4386.282227,4365.897461,4461.538574,4521.922852,4402.94873,4428.333496,,,,,,,,,,,,,,,,,,,,,,,,,,,,,,,,,,,,,,,,,,,,,,,,,,,,,,,,,,,,,,,,,,,,,,
1768973080.544789,1768973080.545498,104.0,0.0,4378.461426,4373.717773,4357.94873,4383.333496,4377.94873,4380.128418,4374.230957,4383.974121,4379.230957,4361.794922,4458.589844,4523.077148,4403.846191,4427.820313,,,,,,,,,,,,,,,,,,,,,,,,,,,,,,,,,,,,,,,,,,,,,,,,,,,,,,,,,,,,,,,,,,,,,,
1768973080.552598,1768973080.553306,105.0,0.0,4382.05127,4372.94873,4359.871582,4379.487305,4380.128418,4378.589844,4372.692383,4381.025879,4369.743652,4355.769043,4458.589844,4520.512695,4399.743652,4431.666504,,,,,,,,,,,,,,,,,,,,,,,,,,,,,,,,,,,,,,,,,,,,,,,,,,,,,,,,,,,,,,,,,,,,,,
1768973080.560406,1768973080.561215,106.0,0.0,4381.666504,4376.153809,4355.512695,4382.179688,4381.922852,4381.410156,4375.128418,4382.692383,4372.820313,4357.436035,4458.077148,4523.717773,4401.922852,4430.384766,,,,,,,,,,,,,,,,,,,,,,,,,,,,,,,,,,,,,,,,,,,,,,,,,,,,,,,,,,,,,,,,,,,,,,
1768973080.568215,1768973080.569023,107.0,0.0,4378.333496,4384.102539,4349.487305,4386.538574,4382.820313,4387.05127,4374.358887,4383.333496,4379.743652,4362.94873,4458.589844,4527.94873,4410.0,4427.05127,,,,,,,,,,,,,,,,,,,,,,,,,,,,,,,,,,,,,,,,,,,,,,,,,,,,,,,,,,,,,,,,,,,,,,
1768973080.576023,1768973080.576632,108.0,0.0,4386.410156,4389.615234,4355.897461,4390.384766,4381.922852,4385.897461,4371.153809,4387.05127,4385.897461,4368.077148,4467.94873,4529.871582,4413.333496,4433.974121,,,,,,,,,,,,,,,,,,,,,,,,,,,,,,,,,,,,,,,,,,,,,,,,,,,,,,,,,,,,,,,,,,,,,,
1768973080.583831,1768973080.58444,109.0,0.0,4399.358887,4388.205078,4367.436035,4391.153809,4379.358887,4380.0,4372.05127,4390.384766,4386.025879,4370.256348,4473.461426,4534.615234,4412.436035,4444.743652,,,,,,,,,,,,,,,,,,,,,,,,,,,,,,,,,,,,,,,,,,,,,,,,,,,,,,,,,,,,,,,,,,,,,,
1768973080.59164,1768973080.592149,110.0,0.0,4398.077148,4386.922852,4368.461426,4387.05127,4381.153809,4384.102539,4376.922852,4386.025879,4380.641113,4370.0,4467.307617,4537.94873,4413.461426,4445.769043,1.188628,0.449908,0.173421,0.236497,0.118834,0.950274,0.482068,0.408755,0.312078,0.143324,1.036184,0.450931,0.142912,0.142623,0.067498,0.324244,0.248127,0.087793,0.152292,0.086258,0.10685,0.126976,0.060881,0.052955,0.084254,0.326634,0.204661,0.072529,0.261321,0.213617,0.427657,0.166962,0.157297,0.199692,0.18602,0.229878,0.319627,0.225612,0.147427,0.218998,0.333033,0.306743,0.233767,0.173372,0.150253,0.47267,0.275735,0.20816,0.10135,0.066312,0.328138,0.575454,0.406417,0.282138,0.163188,1.277869,0.376711,0.594927,0.242792,0.150751,0.133729,0.263145,0.180226,0.20841,0.166657,0.931926,0.346344,0.351875,0.364091,0.181336
1768973080.599448,1768973080.599957,111.0,0.0,4384.230957,4381.538574,4358.589844,4382.179688,4382.179688,4390.897461,4378.461426,4383.974121,4381.666504,4367.05127,4462.436035,4534.102539,4411.282227,4438.461426,,,,,,,,,,,,,,,,,,,,,,,,,,,,,,,,,,,,,,,,,,,,,,,,,,,,,,,,,,,,,,,,,,,,,,
1768973080.607257,1768973080.607966,112.0,0.0,4378.461426,4375.512695,4350.512695,4381.794922,4375.256348,4386.538574,4375.128418,4387.05127,4384.358887,4360.769043,4463.846191,4528.846191,4405.641113,4431.794922,,,,,,,,,,,,,,,,,,,,,,,,,,,,,,,,,,,,,,,,,,,,,,,,,,,,,,,,,,,,,,,,,,,,,,
1768973080.615065,1768973080.615774,113.0,0.0,4385.641113,4376.922852,4350.769043,4384.871582,4371.153809,4376.666504,4369.743652,4382.563965,4377.94873,4357.94873,4460.384766,4524.102539,4402.179688,4428.846191,,,,,,,,,,,,,,,,,,,,,,,,,,,,,,,,,,,,,,,,,,,,,,,,,,,,,,,,,,,,,,,,,,,,,,
1768973080.622874,1768973080.623682,114.0,0.0,4388.077148,4381.794922,4355.128418,4383.717773,4375.384766,4375.769043,4368.846191,4371.922852,4369.358887,4358.717773,4454.615234,4519.102539,4399.487305,4428.333496,,,,,,,,,,,,,,,,,,,,,,,,,,,,,,,,,,,,,,,,,,,,,,,,,,,,,,,,,,,,,,,,,,,,,,
1768973080.630682,1768973080.631491,115.0,0.0,4382.436035,4381.153809,4357.692383,4381.025879,4375.769043,4380.512695,4372.307617,4375.384766,4371.282227,4355.897461,4455.897461,4516.922852,4396.538574,4426.538574,,,,,,,,,,,,,,,,,,,,,,,,,,,,,,,,,,,,,,,,,,,,,,,,,,,,,,,,,,,,,,,,,,,,,,
1768973080.638491,1768973080.639099,116.0,0.0,4382.94873,4374.230957,4357.563965,4381.538574,4370.897461,4377.94873,4371.025879,4386.153809,4376.410156,4353.077148,4458.717773,4518.589844,4396.282227,4425.897461,,,,,,,,,,,,,,,,,,,,,,,,,,,,,,,,,,,,,,,,,,,,,,,,,,,,,,,,,,,,,,,,,,,,,,
1768973080.646299,1768973080.646908,117.0,0.0,4390.0,4376.025879,4355.256348,4383.333496,4372.05127,4367.436035,4364.358887,4377.307617,4368.077148,4355.641113,4452.692383,4518.077148,4395.384766,4429.230957,,,,,,,,,,,,,,,,,,,,,,,,,,,,,,,,,,,,,,,,,,,,,,,,,,,,,,,,,,,,,,,,,,,,,,
1768973080.654107,1768973080.654616,118.0,0.0,4390.897461,4382.307617,4357.05127,4384.615234,4376.922852,4366.538574,4361.666504,4359.358887,4355.384766,4354.102539,4443.205078,4514.358887,4391.153809,4427.820313,,,,,,,,,,,,,,,,,,,,,,,,,,,,,,,,,,,,,,,,,,,,,,,,,,,,,,,,,,,,,,,,,,,,,,
1768973080.661916,1768973080.662425,119.0,0.0,4387.179688,4378.333496,4360.0,4383.717773,4375.769043,4378.717773,4366.153809,4364.230957,4360.897461,4350.128418,4444.358887,4512.436035,4391.025879,4423.461426,,,,,,,,,,,,,,,,,,,,,,,,,,,,,,,,,,,,,,,,,,,,,,,,,,,,,,,,,,,,,,,,,,,,,,
1768973080.669724,1768973080.670034,120.0,0.0,4381.666504,4369.743652,4354.230957,4379.871582,4371.666504,4382.307617,4369.487305,4381.025879,4377.05127,4354.871582,4451.794922,4514.487305,4392.692383,4425.0,,,,,,,,,,,,,,,,,,,,,,,,,,,,,,,,,,,,,,,,,,,,,,,,,,,,,,,,,,,,,,,,,,,,,,
1768973080.677533,1768973080.677842,121.0,0.0,4380.769043,4370.769043,4351.794922,4378.717773,4371.153809,4378.589844,4374.871582,4387.94873,4383.974121,4362.692383,4458.589844,4521.153809,4398.717773,4431.410156,,,,,,,,,,,,,,,,,,,,,,,,,,,,,,,,,,,,,,,,,,,,,,,,,,,,,,,,,,,,,,,,,,,,,,
1768973080.685341,1768973080.68575,122.0,0.0,4392.563965,4380.512695,4361.666504,4387.436035,4373.461426,4379.871582,4379.871582,4389.871582,4385.641113,4369.102539,4467.563965,4525.384766,4411.794922,4434.487305,,,,,,,,,,,,,,,,,,,,,,,,,,,,,,,,,,,,,,,,,,,,,,,,,,,,,,,,,,,,,,,,,,,,,,
1768973080.69315,1768973080.693559,123.0,0.0,4401.282227,4386.666504,4365.769043,4396.794922,4373.077148,4382.179688,4377.179688,4390.641113,4385.0,4373.205078,4467.94873,4516.282227,4414.871582,4437.436035,,,,,,,,,,,,,,,,,,,,,,,,,,,,,,,,,,,,,,,,,,,,,,,,,,,,,,,,,,,,,,,,,,,,,,
1768973080.700958,1768973080.701567,124.0,0.0,4398.205078,4389.230957,4361.410156,4397.05127,4373.077148,4382.05127,4369.487305,4386.666504,4377.307617,4367.179688,4459.358887,4506.922852,4405.512695,4441.282227,,,,,,,,,,,,,,,,,,,,,,,,,,,,,,,,,,,,,,,,,,,,,,,,,,,,,,,,,,,,,,,,,,,,,,
1768973080.708767,1768973080.709375,125.0,0.0,4397.05127,4388.717773,4364.230957,4394.871582,4377.05127,4379.487305,4365.897461,4383.333496,4372.692383,4357.307617,4457.692383,4511.282227,4401.538574,4438.974121,,,,,,,,,,,,,,,,,,,,,,,,,,,,,,,,,,,,,,,,,,,,,,,,,,,,,,,,,,,,,,,,,,,,,,
1768973080.716575,1768973080.717284,126.0,0.0,4399.230957,4384.871582,4366.922852,4394.871582,4377.692383,4378.974121,4369.871582,4385.256348,4373.717773,4358.077148,4460.128418,4516.410156,4403.461426,4431.922852,1.121472,0.421063,0.167422,0.236305,0.115849,0.895505,0.344146,0.359627,0.280818,0.137539,1.02803,0.476839,0.124322,0.14293,0.069016,0.300335,0.203947,0.075752,0.148027,0.078467,0.116535,0.121621,0.073022,0.060559,0.08968,0.28792,0.17684,0.058669,0.272974,0.194056,0.387353,0.155982,0.162251,0.217184,0.175349,0.284014,0.334713,0.274611,0.149232,0.222149,0.309377,0.305408,0.292786,0.17822,0.137511,0.402692,0.201098,0.19917,0.093711,0.071802,0.308681,0.495315,0.3422,0.260897,0.176107,1.223441,0.323041,0.569256,0.216917,0.148872,0.149221,0.190486,0.130125,0.174705,0.167821,0.939955,0.38209,0.284881,0.302786,0.193363
1768973080.724383,1768973080.725092,127.0,0.0,4396.922852,4383.333496,4365.0,4395.897461,4375.641113,4380.128418,4373.205078,4387.307617,4375.641113,4360.384766,4459.230957,4515.256348,4400.256348,4430.128418,,,,,,,,,,,,,,,,,,,,,,,,,,,,,,,,,,,,,,,,,,,,,,,,,,,,,,,,,,,,,,,,,,,,,,
1768973080.732192,1768973080.7331,0.0,0.0,4389.743652,4383.205078,4361.410156,4390.256348,4372.307617,4375.512695,4372.820313,4383.974121,4371.025879,4353.974121,4460.256348,4512.563965,4397.307617,4431.538574,,,,,,,,,,,,,,,,,,,,,,,,,,,,,,,,,,,,,,,,,,,,,,,,,,,,,,,,,,,,,,,,,,,,,,
1768973080.74,1768973080.740909,1.0,0.0,4381.025879,4377.692383,4351.794922,4380.641113,4368.333496,4366.666504,4369.102539,4379.230957,4364.487305,4353.461426,4461.025879,4509.230957,4396.666504,4428.974121,,,,,,,,,,,,,,,,,,,,,,,,,,,,,,,,,,,,,,,,,,,,,,,,,,,,,,,,,,,,,,,,,,,,,,
1768973080.747809,1768973080.748617,2.0,0.0,4380.641113,4371.538574,4347.563965,4383.717773,4368.974121,4370.0,4366.922852,4384.230957,4371.153809,4362.436035,4459.615234,4511.794922,4398.461426,4429.102539,,,,,,,,,,,,,,,,,,,,,,,,,,,,,,,,,,,,,,,,,,,,,,,,,,,,,,,,,,,,,,,,,,,,,,
1768973080.755617,1768973080.756426,3.0,0.0,4382.05127,4373.077148,4353.846191,4392.563965,4373.077148,4380.128418,4369.871582,4389.871582,4379.615234,4365.512695,4461.666504,4518.333496,4403.077148,4430.512695,,,,,,,,,,,,,,,,,,,,,,,,,,,,,,,,,,,,,,,,,,,,,,,,,,,,,,,,,,,,,,,,,,,,,,
1768973080.763426,1768973080.764134,4.0,0.0,4377.05127,4373.461426,4353.333496,4389.230957,4375.256348,4380.512695,4372.05127,4384.102539,4376.025879,4360.0,4459.230957,4513.717773,4403.205078,4428.077148,,,,,,,,,,,,,,,,,,,,,,,,,,,,,,,,,,,,,,,,,,,,,,,,,,,,,,,,,,,,,,,,,,,,,,
1768973080.771234,1768973080.771943,5.0,0.0,4377.563965,4372.179688,4346.922852,4383.974121,4376.025879,4380.0,4374.102539,4380.897461,4372.820313,4357.05127,4449.487305,4504.487305,4399.230957,4428.333496,,,,,,,,,,,,,,,,,,,,,,,,,,,,,,,,,,,,,,,,,,,,,,,,,,,,,,,,,,,,,,,,,,,,,,
1768973080.779043,1768973080.779651,6.0,0.0,4382.94873,4373.846191,4348.974121,4387.436035,4376.538574,4380.641113,4370.512695,4382.563965,4370.641113,4357.179688,4445.769043,4506.666504,4398.077148,4430.128418,,,,,,,,,,,,,,,,,,,,,,,,,,,,,,,,,,,,,,,,,,,,,,,,,,,,,,,,,,,,,,,,,,,,,,
1768973080.786851,1768973080.78746,7.0,0.0,4381.538574,4372.94873,4351.794922,4386.794922,4373.589844,4375.384766,4362.563965,4378.974121,4364.487305,4357.436035,4447.179688,4509.615234,4397.820313,4427.179688,,,,,,,,,,,,,,,,,,,,,,,,,,,,,,,,,,,,,,,,,,,,,,,,,,,,,,,,,,,,,,,,,,,,,,
1768973080.79466,1768973080.795468,8.0,0.0,4377.692383,4371.666504,4347.05127,4380.0,4373.846191,4372.05127,4360.897461,4376.538574,4366.282227,4359.102539,4448.461426,4508.205078,4397.820313,4425.641113,,,,,,,,,,,,,,,,,,,,,,,,,,,,,,,,,,,,,,,,,,,,,,,,,,,,,,,,,,,,,,,,,,,,,,
1768973080.802468,1768973080.803277,9.0,0.0,4375.897461,4374.230957,4345.0,4379.102539,4376.153809,4372.563965,4364.615234,4383.077148,4373.974121,4363.846191,4455.128418,4505.897461,4402.179688,4429.615234,,,,,,,,,,,,,,,,,,,,,,,,,,,,,,,,,,,,,,,,,,,,,,,,,,,,,,,,,,,,,,,,,,,,,,
1768973080.810276,1768973080.810985,10.0,0.0,4369.871582,4372.05127,4348.717773,4380.897461,4373.974121,4372.307617,4365.128418,4386.794922,4372.436035,4366.153809,4457.179688,4502.820313,4400.256348,4423.333496,,,,,,,,,,,,,,,,,,,,,,,,,,,,,,,,,,,,,,,,,,,,,,,,,,,,,,,,,,,,,,,,,,,,,,
1768973080.818085,1768973080.818794,11.0,0.0,4366.922852,4366.282227,4351.025879,4378.461426,4372.436035,4371.666504,4365.769043,4386.410156,4370.256348,4362.05127,4452.307617,4505.897461,4391.153809,4414.358887,,,,,,,,,,,,,,,,,,,,,,,,,,,,,,,,,,,,,,,,,,,,,,,,,,,,,,,,,,,,,,,,,,,,,,
1768973080.825893,1768973080.826802,12.0,0.0,4375.384766,4368.205078,4350.0,4376.794922,4374.871582,4376.153809,4368.205078,4387.820313,4372.436035,4359.871582,4452.692383,4511.538574,4392.692383,4423.077148,,,,,,,,,,,,,,,,,,,,,,,,,,,,,,,,,,,,,,,,,,,,,,,,,,,,,,,,,,,,,,,,,,,,,,
1768973080.833702,1768973080.83461,13.0,0.0,4383.461426,4374.487305,4349.743652,4382.179688,4376.922852,4380.769043,4367.692383,4382.692383,4367.563965,4356.794922,4451.153809,4509.102539,4400.128418,4433.589844,,,,,,,,,,,,,,,,,,,,,,,,,,,,,,,,,,,,,,,,,,,,,,,,,,,,,,,,,,,,,,,,,,,,,,
1768973080.84151,1768973080.842319,14.0,0.0,4380.0,4373.205078,4350.641113,4384.615234,4376.666504,4377.820313,4366.282227,4372.820313,4360.0,4348.461426,4442.307617,4506.538574,4397.94873,4427.94873,1.008354,0.383007,0.174248,0.245445,0.115404,0.82255,0.249642,0.305335,0.248697,0.127169,0.948614,0.477965,0.111423,0.154286,0.073523,0.263146,0.169734,0.071297,0.150341,0.069211,0.14265,0.10869,0.087661,0.071134,0.090718,0.252991,0.150193,0.051431,0.281181,0.172704,0.36512,0.164867,0.167416,0.219462,0.167791,0.336671,0.357634,0.312782,0.150717,0.213968,0.308456,0.323695,0.338316,0.177711,0.125893,0.378634,0.156151,0.186039,0.093614,0.077782,0.315996,0.427237,0.275936,0.243693,0.181506,1.096692,0.331825,0.528551,0.206356,0.140332,0.193571,0.148505,0.087375,0.154559,0.162836,0.941945,0.43486,0.22112,0.249918,0.204256
1768973080.849319,1768973080.850127,15.0,0.0,4372.563965,4367.692383,4350.641113,4379.871582,4375.128418,4372.692383,4361.666504,4370.769043,4362.436035,4348.589844,4442.94873,4512.05127,4394.615234,4423.846191,,,,,,,,,,,,,,,,,,,,,,,,,,,,,,,,,,,,,,,,,,,,,,,,,,,,,,,,,,,,,,,,,,,,,,
1768973080.857127,1768973080.857736,16.0,0.0,4373.333496,4364.358887,4350.897461,4379.230957,4373.461426,4379.358887,4360.897461,4381.922852,4370.0,4353.717773,4450.769043,4517.692383,4397.179688,4429.743652,,,,,,,,,,,,,,,,,,,,,,,,,,,,,,,,,,,,,,,,,,,,,,,,,,,,,,,,,,,,,,,,,,,,,,
1768973080.864936,1768973080.865544,17.0,0.0,4374.358887,4364.871582,4353.589844,4382.179688,4372.820313,4391.282227,4373.717773,4387.820313,4370.0,4350.769043,4447.307617,4516.410156,4397.307617,4425.512695,,,,,,,,,,,,,,,,,,,,,,,,,,,,,,,,,,,,,,,,,,,,,,,,,,,,,,,,,,,,,,,,,,,,,,
1768973080.872744,1768973080.873253,18.0,0.0,4374.487305,4367.307617,4356.538574,4381.922852,4374.230957,4384.358887,4374.743652,4381.922852,4368.846191,4351.153809,4446.794922,4509.102539,4396.922852,4418.461426,,,,,,,,,,,,,,,,,,,,,,,,,,,,,,,,,,,,,,,,,,,,,,,,,,,,,,,,,,,,,,,,,,,,,,
1768973080.880552,1768973080.881061,19.0,0.0,4377.563965,4371.538574,4355.128418,4381.025879,4373.205078,4370.641113,4361.538574,4378.589844,4373.717773,4357.692383,4451.410156,4506.153809,4398.205078,4420.769043,,,,,,,,,,,,,,,,,,,,,,,,,,,,,,,,,,,,,,,,,,,,,,,,,,,,,,,,,,,,,,,,,,,,,,
1768973080.888361,1768973080.88907,20.0,0.0,4380.512695,4377.563965,4352.563965,4383.461426,4372.307617,4376.794922,4365.256348,4382.94873,4374.487305,4357.307617,4448.717773,4513.717773,4397.179688,4425.769043,,,,,,,,,,,,,,,,,,,,,,,,,,,,,,,,,,,,,,,,,,,,,,,,,,,,,,,,,,,,,,,,,,,,,,
1768973080.896169,1768973080.896878,21.0,0.0,4380.0,4380.384766,4354.871582,4389.102539,4372.563965,4387.94873,4377.436035,4385.128418,4373.717773,4355.0,4446.410156,4518.461426,4396.153809,4428.205078,,,,,,,,,,,,,,,,,,,,,,,,,,,,,,,,,,,,,,,,,,,,,,,,,,,,,,,,,,,,,,,,,,,,,,
1768973080.903978,1768973080.904786,22.0,0.0,4373.846191,4378.846191,4353.589844,4388.589844,4370.384766,4382.05127,4373.205078,4381.025879,4373.333496,4356.153809,4447.692383,4512.94873,4395.641113,4422.436035,,,,,,,,,,,,,,,,,,,,,,,,,,,,,,,,,,,,,,,,,,,,,,,,,,,,,,,,,,,,,,,,,,,,,,
1768973080.911786,1768973080.912595,23.0,0.0,4369.102539,4381.666504,4347.563965,4381.538574,4368.077148,4377.692383,4367.05127,4380.512695,4371.538574,4356.538574,4451.282227,4511.666504,4396.153809,4417.307617,,,,,,,,,,,,,,,,,,,,,,,,,,,,,,,,,,,,,,,,,,,,,,,,,,,,,,,,,,,,,,,,,,,,,,
1768973080.919595,1768973080.920603,24.0,0.0,4372.05127,4384.871582,4351.538574,4380.128418,4368.846191,4382.436035,4373.846191,4388.205078,4373.205078,4356.282227,4456.922852,4523.589844,4398.589844,4423.589844,,,,,,,,,,,,,,,,,,,,,,,,,,,,,,,,,,,,,,,,,,,,,,,,,,,,,,,,,,,,,,,,,,,,,,
1768973080.927403,1768973080.928412,25.0,0.0,4375.769043,4378.461426,4357.05127,4382.94873,4368.333496,4377.307617,4373.461426,4389.230957,4374.358887,4354.871582,4460.641113,4528.846191,4399.358887,4430.0,,,,,,,,,,,,,,,,,,,,,,,,,,,,,,,,,,,,,,,,,,,,,,,,,,,,,,,,,,,,,,,,,,,,,,
1768973080.935212,1768973080.93632,26.0,0.0,4372.692383,4370.128418,4352.563965,4380.128418,4364.615234,4371.794922,4368.846191,4380.0,4373.589844,4356.282227,4458.589844,4521.153809,4397.307617,4427.307617,,,,,,,,,,,,,,,,,,,,,,,,,,,,,,,,,,,,,,,,,,,,,,,,,,,,,,,,,,,,,,,,,,,,,,
1768973080.94302,1768973080.944128,27.0,0.0,4372.307617,4370.769043,4349.230957,4380.384766,4364.615234,4379.358887,4375.0,4379.615234,4373.205078,4358.077148,4458.333496,4518.846191,4398.846191,4426.282227,,,,,,,,,,,,,,,,,,,,,,,,,,,,,,,,,,,,,,,,,,,,,,,,,,,,,,,,,,,,,,,,,,,,,,
1768973080.950828,1768973080.952137,28.0,0.0,4375.128418,4375.512695,4354.102539,4386.025879,4370.384766,4383.077148,4378.461426,4385.641113,4371.025879,4355.769043,4461.153809,4521.153809,4402.179688,4427.436035,,,,,,,,,,,,,,,,,,,,,,,,,,,,,,,,,,,,,,,,,,,,,,,,,,,,,,,,,,,,,,,,,,,,,,
1768973080.958637,1768973080.959945,29.0,0.0,4372.436035,4374.871582,4357.94873,4384.230957,4371.153809,4373.589844,4371.025879,4387.436035,4373.846191,4356.666504,4459.230957,4516.025879,4399.487305,4420.0,,,,,,,,,,,,,,,,,,,,,,,,,,,,,,,,,,,,,,,,,,,,,,,,,,,,,,,,,,,,,,,,,,,,,,
1768973080.966445,1768973080.967654,30.0,0.0,4370.128418,4372.436035,4356.666504,4380.384766,4370.384766,4371.410156,4366.153809,4386.282227,4381.282227,4360.512695,4457.820313,4511.794922,4395.641113,4412.94873,0.876238,0.340216,0.194719,0.261659,0.120722,0.738309,0.205655,0.258236,0.223014,0.11455,0.827624,0.446087,0.107398,0.177319,0.082262,0.227075,0.146929,0.071452,0.156402,0.06142,0.181992,0.091007,0.102631,0.08167,0.087457,0.227879,0.135694,0.050387,0.277466,0.156603,0.361516,0.190005,0.169666,0.206138,0.164845,0.381302,0.387517,0.328532,0.15477,0.202064,0.319575,0.356925,0.363956,0.174371,0.12092,0.391248,0.145534,0.173743,0.103161,0.083191,0.354762,0.378215,0.222853,0.237,0.177005,0.947523,0.400341,0.469978,0.208698,0.127677,0.276964,0.154565,0.060792,0.148456,0.151426,0.959116,0.495437,0.17389,0.216761,0.20905
1768973080.974254,1768973080.975462,31.0,0.0,4372.179688,4377.94873,4356.666504,4382.820313,4373.717773,4382.05127,4371.538574,4383.717773,4378.589844,4359.102539,4460.769043,4513.461426,4398.461426,4412.179688,,,,,,,,,,,,,,,,,,,,,,,,,,,,,,,,,,,,,,,,,,,,,,,,,,,,,,,,,,,,,,,,,,,,,,
1768973080.982062,1768973080.983071,32.0,0.0,4373.717773,4384.615234,4357.563965,4385.128418,4376.922852,4386.538574,4376.922852,4384.102539,4375.256348,4356.794922,4458.974121,4515.128418,4398.846191,4413.717773,,,,,,,,,,,,,,,,,,,,,,,,,,,,,,,,,,,,,,,,,,,,,,,,,,,,,,,,,,,,,,,,,,,,,,
1768973080.989871,1768973080.990879,33.0,0.0,4371.922852,4383.717773,4355.384766,4383.461426,4376.282227,4381.794922,4374.615234,4385.128418,4379.871582,4359.230957,4450.384766,4514.615234,4395.512695,4414.230957,,,,,,,,,,,,,,,,,,,,,,,,,,,,,,,,,,,,,,,,,,,,,,,,,,,,,,,,,,,,,,,,,,,,,,
1768973080.997679,1768973080.998588,34.0,0.0,4371.538574,4382.436035,4355.128418,4382.307617,4376.922852,4380.512695,4371.922852,4381.666504,4377.436035,4361.666504,4453.077148,4513.974121,4401.794922,4416.153809,,,,,,,,,,,,,,,,,,,,,,,,,,,,,,,,,,,,,,,,,,,,,,,,,,,,,,,,,,,,,,,,,,,,,,
1768973081.005488,1768973081.006396,35.0,0.0,4373.461426,4382.820313,4358.333496,4384.358887,4376.025879,4383.589844,4372.94873,4380.512695,4372.05127,4360.897461,4460.384766,4516.922852,4407.692383,4418.205078,,,,,,,,,,,,,,,,,,,,,,,,,,,,,,,,,,,,,,,,,,,,,,,,,,,,,,,,,,,,,,,,,,,,,,
1768973081.013296,1768973081.014404,36.0,0.0,4377.563965,4381.025879,4359.743652,4384.487305,4371.153809,4381.025879,4373.589844,4384.871582,4375.512695,4356.538574,4451.922852,4521.153809,4399.871582,4415.384766,,,,,,,,,,,,,,,,,,,,,,,,,,,,,,,,,,,,,,,,,,,,,,,,,,,,,,,,,,,,,,,,,,,,,,
1768973081.021104,1768973081.022213,37.0,0.0,4380.641113,4381.794922,4358.846191,4382.307617,4370.641113,4375.897461,4368.461426,4381.794922,4372.94873,4351.794922,4440.384766,4515.897461,4393.717773,4410.897461,,,,,,,,,,,,,,,,,,,,,,,,,,,,,,,,,,,,,,,,,,,,,,,,,,,,,,,,,,,,,,,,,,,,,,
1768973081.028913,1768973081.030121,38.0,0.0,4377.563965,4382.563965,4356.153809,4379.743652,4373.589844,4376.153809,4366.410156,4372.94873,4363.333496,4349.230957,4443.974121,4507.307617,4398.205078,4411.922852,,,,,,,,,,,,,,,,,,,,,,,,,,,,,,,,,,,,,,,,,,,,,,,,,,,,,,,,,,,,,,,,,,,,,,
1768973081.036721,1768973081.03793,39.0,0.0,4373.077148,4381.025879,4355.512695,4381.410156,4373.077148,4377.307617,4370.384766,4374.230957,4362.820313,4349.102539,4450.384766,4510.769043,4399.871582,4416.538574,,,,,,,,,,,,,,,,,,,,,,,,,,,,,,,,,,,,,,,,,,,,,,,,,,,,,,,,,,,,,,,,,,,,,,
1768973081.04453,1768973081.045538,40.0,0.0,4373.717773,4385.769043,4361.025879,4386.025879,4374.230957,4374.743652,4372.307617,4382.179688,4368.205078,4352.179688,4447.692383,4514.358887,4397.436035,4417.179688,,,,,,,,,,,,,,,,,,,,,,,,,,,,,,,,,,,,,,,,,,,,,,,,,,,,,,,,,,,,,,,,,,,,,,
1768973081.052338,1768973081.053347,41.0,0.0,4374.230957,4388.205078,4361.410156,4386.153809,4376.410156,4374.487305,4371.282227,4382.820313,4368.974121,4348.974121,4443.717773,4507.436035,4394.102539,4412.692383,,,,,,,,,,,,,,,,,,,,,,,,,,,,,,,,,,,,,,,,,,,,,,,,,,,,,,,,,,,,,,,,,,,,,,
1768973081.060147,1768973081.061055,42.0,0.0,4372.94873,4383.974121,4354.615234,4384.615234,4375.256348,4382.436035,4373.077148,4377.563965,4366.538574,4340.769043,4442.05127,4505.769043,4388.589844,4410.0,,,,,,,,,,,,,,,,,,,,,,,,,,,,,,,,,,,,,,,,,,,,,,,,,,,,,,,,,,,,,,,,,,,,,,
1768973081.067955,1768973081.068864,43.0,0.0,4376.025879,4384.487305,4355.384766,4387.307617,4376.025879,4387.05127,4374.871582,4379.102539,4369.615234,4344.230957,4445.641113,4513.974121,4393.974121,4414.358887,,,,,,,,,,,,,,,,,,,,,,,,,,,,,,,,,,,,,,,,,,,,,,,,,,,,,,,,,,,,,,,,,,,,,,
1768973081.075763,1768973081.076472,44.0,0.0,4379.358887,4386.153809,4361.153809,4389.615234,4377.820313,4380.128418,4369.871582,4383.846191,4373.589844,4352.820313,4449.102539,4517.563965,4402.692383,4417.436035,,,,,,,,,,,,,,,,,,,,,,,,,,,,,,,,,,,,,,,,,,,,,,,,,,,,,,,,,,,,,,,,,,,,,,
1768973081.083572,1768973081.084281,45.0,0.0,4379.358887,4381.410156,4362.05127,4388.333496,4375.512695,4376.538574,4367.94873,4383.589844,4371.282227,4350.897461,4446.410156,4511.410156,4398.974121,4415.769043,,,,,,,,,,,,,,,,,,,,,,,,,,,,,,,,,,,,,,,,,,,,,,,,,,,,,,,,,,,,,,,,,,,,,,
1768973081.09138,1768973081.092189,46.0,0.0,4379.358887,4380.384766,4361.538574,4387.563965,4376.794922,4378.589844,4372.563965,4379.102539,4370.256348,4350.128418,4447.179688,4512.05127,4400.384766,4420.256348,0.748726,0.302277,0.226933,0.283066,0.132507,0.670768,0.202924,0.230684,0.20517,0.10267,0.70362,0.382824,0.111465,0.209959,0.09455,0.214165,0.1322,0.077573,0.162958,0.057968,0.22545,0.072209,0.115448,0.089579,0.081027,0.212021,0.14157,0.055537,0.257464,0.149836,0.367209,0.218041,0.169411,0.18335,0.163632,0.418028,0.422112,0.322702,0.166763,0.195062,0.336018,0.400897,0.372557,0.174209,0.125878,0.418217,0.170979,0.166628,0.122304,0.086916,0.435816,0.355092,0.191075,0.243042,0.163218,0.844994,0.510623,0.394868,0.2169,0.116076,0.397404,0.215506,0.053068,0.151769,0.135212,1.000741,0.55403,0.146243,0.206064,0.204927
1768973081.099189,1768973081.099998,47.0,0.0,4383.077148,4384.102539,4364.871582,4388.974121,4380.897461,4380.769043,4372.94873,4376.410156,4373.077148,4357.692383,4456.538574,4523.974121,4410.641113,4429.230957,,,,,,,,,,,,,,,,,,,,,,,,,,,,,,,,,,,,,,,,,,,,,,,,,,,,,,,,,,,,,,,,,,,,,,
1768973081.106997,1768973081.108006,48.0,0.0,4388.333496,4382.307617,4367.05127,4391.794922,4375.769043,4380.769043,4368.205078,4380.641113,4374.487305,4360.512695,4463.461426,4527.692383,4412.307617,4432.436035,,,,,,,,,,,,,,,,,,,,,,,,,,,,,,,,,,,,,,,,,,,,,,,,,,,,,,,,,,,,,,,,,,,,,,
1768973081.114806,1768973081.115814,49.0,0.0,4390.769043,4379.487305,4364.102539,4394.102539,4370.256348,4376.282227,4366.666504,4380.0,4373.205078,4356.153809,4459.230957,4522.692383,4410.641113,4431.025879,,,,,,,,,,,,,,,,,,,,,,,,,,,,,,,,,,,,,,,,,,,,,,,,,,,,,,,,,,,,,,,,,,,,,,
1768973081.122614,1768973081.123723,50.0,0.0,4391.410156,4382.436035,4363.717773,4392.05127,4377.05127,4373.461426,4369.230957,4373.974121,4372.436035,4352.179688,4457.05127,4522.94873,4412.692383,4430.769043,,,,,,,,,,,,,,,,,,,,,,,,,,,,,,,,,,,,,,,,,,,,,,,,,,,,,,,,,,,,,,,,,,,,,,
1768973081.130422,1768973081.131531,51.0,0.0,4390.256348,4380.897461,4367.05127,4387.94873,4380.128418,4377.179688,4372.05127,4377.820313,4372.05127,4349.743652,4461.410156,4522.563965,4405.512695,4429.487305,,,,,,,,,,,,,,,,,,,,,,,,,,,,,,,,,,,,,,,,,,,,,,,,,,,,,,,,,,,,,,,,,,,,,,
1768973081.138231,1768973081.13914,52.0,0.0,4389.743652,4374.230957,4366.025879,4387.436035,4374.102539,4380.512695,4374.230957,4383.974121,4373.589844,4349.615234,4458.974121,4517.307617,4397.307617,4427.307617,,,,,,,,,,,,,,,,,,,,,,,,,,,,,,,,,,,,,,,,,,,,,,,,,,,,,,,,,,,,,,,,,,,,,,
1768973081.146039,1768973081.146948,53.0,0.0,4390.769043,4373.077148,4365.128418,4390.897461,4371.794922,4379.487305,4372.94873,4376.410156,4375.0,4352.820313,4453.846191,4518.077148,4403.077148,4429.487305,,,,,,,,,,,,,,,,,,,,,,,,,,,,,,,,,,,,,,,,,,,,,,,,,,,,,,,,,,,,,,,,,,,,,,
1768973081.153848,1768973081.154657,54.0,0.0,4390.0,4375.0,4366.922852,4389.102539,4372.94873,4378.717773,4368.846191,4371.410156,4372.563965,4353.461426,4454.615234,4522.94873,4407.820313,4431.410156,,,,,,,,,,,,,,,,,,,,,,,,,,,,,,,,,,,,,,,,,,,,,,,,,,,,,,,,,,,,,,,,,,,,,,
1768973081.161656,1768973081.162465,55.0,0.0,4385.512695,4372.436035,4362.692383,4385.384766,4372.307617,4380.384766,4369.487305,4382.05127,4374.358887,4353.461426,4459.487305,4521.666504,4405.897461,4430.0,,,,,,,,,,,,,,,,,,,,,,,,,,,,,,,,,,,,,,,,,,,,,,,,,,,,,,,,,,,,,,,,,,,,,,
1768973081.169465,1768973081.170074,56.0,0.0,4388.717773,4374.487305,4360.641113,4388.846191,4375.128418,4382.94873,4374.102539,4383.333496,4379.871582,4352.94873,4459.102539,4518.461426,4403.846191,4428.333496,,,,,,,,,,,,,,,,,,,,,,,,,,,,,,,,,,,,,,,,,,,,,,,,,,,,,,,,,,,,,,,,,,,,,,
1768973081.177273,1768973081.177882,57.0,0.0,4395.256348,4381.666504,4367.94873,4394.615234,4378.461426,4381.025879,4373.461426,4373.461426,4376.922852,4346.922852,4456.794922,4518.333496,4403.461426,4429.102539,,,,,,,,,,,,,,,,,,,,,,,,,,,,,,,,,,,,,,,,,,,,,,,,,,,,,,,,,,,,,,,,,,,,,,
1768973081.185082,1768973081.185591,58.0,0.0,4393.846191,4384.230957,4368.974121,4390.512695,4374.102539,4376.538574,4366.025879,4371.538574,4369.358887,4343.333496,4455.0,4519.487305,4403.077148,4430.769043,,,,,,,,,,,,,,,,,,,,,,,,,,,,,,,,,,,,,,,,,,,,,,,,,,,,,,,,,,,,,,,,,,,,,,
1768973081.19289,1768973081.193399,59.0,0.0,4386.538574,4380.512695,4360.512695,4382.307617,4370.641113,4378.077148,4364.615234,4375.256348,4368.974121,4345.897461,4453.717773,4515.384766,4401.153809,4429.615234,,,,,,,,,,,,,,,,,,,,,,,,,,,,,,,,,,,,,,,,,,,,,,,,,,,,,,,,,,,,,,,,,,,,,,
1768973081.200699,1768973081.201008,60.0,0.0,4378.974121,4374.358887,4356.153809,4380.641113,4372.05127,4382.563965,4370.769043,4379.230957,4372.307617,4345.769043,4453.333496,4511.410156,4397.563965,4426.922852,,,,,,,,,,,,,,,,,,,,,,,,,,,,,,,,,,,,,,,,,,,,,,,,,,,,,,,,,,,,,,,,,,,,,,
1768973081.208507,1768973081.208816,61.0,0.0,4376.538574,4371.666504,4358.333496,4381.666504,4370.512695,4378.333496,4367.692383,4376.153809,4368.974121,4341.410156,4446.153809,4514.487305,4394.102539,4425.128418,,,,,,,,,,,,,,,,,,,,,,,,,,,,,,,,,,,,,,,,,,,,,,,,,,,,,,,,,,,,,,,,,,,,,,
1768973081.216315,1768973081.216525,62.0,0.0,4379.871582,4373.717773,4360.256348,4380.769043,4368.974121,4372.820313,4361.025879,4376.025879,4371.025879,4344.743652,4441.410156,4516.666504,4393.717773,4425.384766,0.643255,0.277288,0.265634,0.305588,0.147826,0.609126,0.229015,0.229289,0.190987,0.094123,0.607586,0.300829,0.120266,0.244449,0.107617,0.236032,0.120692,0.091123,0.167221,0.060187,0.262044,0.05557,0.123479,0.093094,0.073042,0.204123,0.169007,0.068485,0.224263,0.152873,0.367156,0.234302,0.170018,0.160941,0.159927,0.45171,0.455254,0.305513,0.190393,0.197747,0.354059,0.450992,0.374527,0.18256,0.139858,0.44109,0.228165,0.167533,0.147132,0.088234,0.564797,0.358595,0.181564,0.25811,0.14392,0.820528,0.626967,0.312169,0.220403,0.1101,0.542333,0.321372,0.06163,0.157927,0.11737,1.058221,0.599486,0.132738,0.212994,0.191649
1768973081.224124,1768973081.224333,63.0,0.0,4382.820313,4373.974121,4361.666504,4380.641113,4371.666504,4377.179688,4368.717773,4386.153809,4383.333496,4353.461426,4450.769043,4511.922852,4395.641113,4425.897461,,,,,,,,,,,,,,,,,,,,,,,,,,,,,,,,,,,,,,,,,,,,,,,,,,,,,,,,,,,,,,,,,,,,,,
1768973081.231932,1768973081.232342,64.0,0.0,4381.153809,4372.692383,4362.05127,4382.179688,4372.820313,4381.025879,4373.461426,4386.922852,4384.102539,4353.717773,4455.897461,4503.974121,4396.794922,4426.410156,,,,,,,,,,,,,,,,,,,,,,,,,,,,,,,,,,,,,,,,,,,,,,,,,,,,,,,,,,,,,,,,,,,,,,
1768973081.239741,1768973081.24015,65.0,0.0,4377.05127,4373.717773,4358.846191,4380.128418,4372.05127,4377.05127,4366.538574,4374.102539,4373.077148,4346.538574,4445.128418,4498.205078,4393.717773,4425.256348,,,,,,,,,,,,,,,,,,,,,,,,,,,,,,,,,,,,,,,,,,,,,,,,,,,,,,,,,,,,,,,,,,,,,,
1768973081.247549,1768973081.248058,66.0,0.0,4374.743652,4371.666504,4353.717773,4376.282227,4373.205078,4378.333496,4369.615234,4371.666504,4370.384766,4343.461426,4440.769043,4493.846191,4388.077148,4420.0,,,,,,,,,,,,,,,,,,,,,,,,,,,,,,,,,,,,,,,,,,,,,,,,,,,,,,,,,,,,,,,,,,,,,,
1768973081.255358,1768973081.255867,67.0,0.0,4376.794922,4371.538574,4355.0,4377.307617,4372.94873,4380.128418,4370.769043,4377.436035,4373.974121,4348.333496,4445.897461,4491.410156,4388.077148,4418.974121,,,,,,,,,,,,,,,,,,,,,,,,,,,,,,,,,,,,,,,,,,,,,,,,,,,,,,,,,,,,,,,,,,,,,,
1768973081.263166,1768973081.263475,68.0,0.0,4380.384766,4377.307617,4362.179688,4382.05127,4370.897461,4369.615234,4358.461426,4377.692383,4373.846191,4351.282227,4445.641113,4496.410156,4394.615234,4425.897461,,,,,,,,,,,,,,,,,,,,,,,,,,,,,,,,,,,,,,,,,,,,,,,,,,,,,,,,,,,,,,,,,,,,,,
1768973081.270975,1768973081.271284,69.0,0.0,4380.769043,4382.563965,4363.461426,4385.384766,4372.94873,4369.102539,4360.128418,4380.256348,4372.692383,4351.666504,4449.871582,4506.666504,4398.846191,4429.871582,,,,,,,,,,,,,,,,,,,,,,,,,,,,,,,,,,,,,,,,,,,,,,,,,,,,,,,,,,,,,,,,,,,,,,
1768973081.278783,1768973081.278992,70.0,0.0,4381.666504,4384.743652,4361.922852,4383.846191,4376.153809,4381.666504,4372.307617,4383.974121,4373.589844,4354.743652,4458.717773,4511.282227,4396.153809,4427.563965,,,,,,,,,,,,,,,,,,,,,,,,,,,,,,,,,,,,,,,,,,,,,,,,,,,,,,,,,,,,,,,,,,,,,,
1768973081.286591,1768973081.286801,71.0,0.0,4385.512695,4384.743652,4364.615234,4384.230957,4374.871582,4379.487305,4368.461426,4384.230957,4377.436035,4357.563965,4459.102539,4510.384766,4395.641113,4426.666504,,,,,,,,,,,,,,,,,,,,,,,,,,,,,,,,,,,,,,,,,,,,,,,,,,,,,,,,,,,,,,,,,,,,,,
1768973081.2944,1768973081.294809,72.0,0.0,4388.717773,4383.077148,4368.077148,4389.487305,4373.589844,4368.333496,4361.666504,4386.922852,4381.153809,4357.179688,4456.922852,4511.538574,4399.102539,4427.820313,,,,,,,,,,,,,,,,,,,,,,,,,,,,,,,,,,,,,,,,,,,,,,,,,,,,,,,,,,,,,,,,,,,,,,
1768973081.302208,1768973081.302618,73.0,0.0,4383.974121,4379.615234,4368.846191,4388.846191,4371.666504,4365.641113,4364.615234,4388.077148,4378.589844,4355.641113,4460.128418,4515.641113,4398.846191,4430.128418,,,,,,,,,,,,,,,,,,,,,,,,,,,,,,,,,,,,,,,,,,,,,,,,,,,,,,,,,,,,,,,,,,,,,,
1768973081.310017,1768973081.310526,74.0,0.0,4376.922852,4377.05127,4365.897461,4381.666504,4369.871582,4367.563965,4366.282227,4388.461426,4377.436035,4356.538574,4461.666504,4518.974121,4402.692383,4432.94873,,,,,,,,,,,,,,,,,,,,,,,,,,,,,,,,,,,,,,,,,,,,,,,,,,,,,,,,,,,,,,,,,,,,,,
1768973081.317825,1768973081.318334,75.0,0.0,4377.820313,4378.589844,4361.153809,4382.820313,4373.717773,4373.461426,4364.615234,4390.769043,4383.461426,4359.743652,4461.282227,4515.256348,4408.589844,4432.05127,,,,,,,,,,,,,,,,,,,,,,,,,,,,,,,,,,,,,,,,,,,,,,,,,,,,,,,,,,,,,,,,,,,,,,
1768973081.325634,1768973081.326343,76.0,0.0,4382.820313,4382.563965,4360.512695,4389.743652,4375.897461,4375.897461,4363.846191,4389.871582,4382.563965,4358.589844,4460.897461,4510.256348,4401.666504,4427.692383,,,,,,,,,,,,,,,,,,,,,,,,,,,,,,,,,,,,,,,,,,,,,,,,,,,,,,,,,,,,,,,,,,,,,,
1768973081.333442,1768973081.334151,77.0,0.0,4381.538574,4381.282227,4363.077148,4388.205078,4370.641113,4373.077148,4365.128418,4386.282227,4375.384766,4352.563965,4455.0,4510.0,4392.436035,4426.153809,,,,,,,,,,,,,,,,,,,,,,,,,,,,,,,,,,,,,,,,,,,,,,,,,,,,,,,,,,,,,,,,,,,,,,
1768973081.341251,1768973081.342059,78.0,0.0,4376.666504,4378.461426,4362.563965,4382.692383,4370.256348,4374.871582,4367.436035,4385.256348,4373.974121,4351.153809,4450.512695,4507.692383,4397.05127,4427.820313,0.577603,0.268362,0.300725,0.323003,0.160722,0.567939,0.274172,0.253026,0.174677,0.089815,0.554496,0.218892,0.128825,0.269337,0.117686,0.289849,0.112564,0.111024,0.166707,0.06701,0.284798,0.04655,0.125439,0.091852,0.065038,0.199612,0.210296,0.091749,0.186826,0.162753,0.355777,0.228891,0.173605,0.14743,0.151656,0.483758,0.476093,0.286357,0.223252,0.208559,0.371637,0.500701,0.376774,0.199327,0.157513,0.450884,0.307614,0.175076,0.170416,0.08729,0.735734,0.382559,0.189143,0.274759,0.124844,0.852233,0.710402,0.23752,0.211831,0.111931,0.676322,0.446491,0.081854,0.161436,0.102006,1.106683,0.621924,0.127226,0.227567,0.171864
1768973081.349059,1768973081.349868,79.0,0.0,4373.077148,4381.794922,4359.487305,4380.769043,4374.487305,4373.205078,4364.743652,4383.205078,4375.256348,4353.461426,4448.077148,4501.410156,4398.333496,4422.94873,,,,,,,,,,,,,,,,,,,,,,,,,,,,,,,,,,,,,,,,,,,,,,,,,,,,,,,,,,,,,,,,,,,,,,
1768973081.356867,1768973081.357477,80.0,0.0,4369.615234,4382.563965,4358.333496,4382.307617,4372.436035,4365.512695,4358.077148,4379.615234,4372.820313,4349.487305,4442.05127,4497.179688,4387.179688,4411.410156,,,,,,,,,,,,,,,,,,,,,,,,,,,,,,,,,,,,,,,,,,,,,,,,,,,,,,,,,,,,,,,,,,,,,,
1768973081.364676,1768973081.365285,81.0,0.0,4372.179688,4382.563965,4357.05127,4382.179688,4372.820313,4366.666504,4356.922852,4382.179688,4371.922852,4342.94873,4440.769043,4491.025879,4381.538574,4409.230957,,,,,,,,,,,,,,,,,,,,,,,,,,,,,,,,,,,,,,,,,,,,,,,,,,,,,,,,,,,,,,,,,,,,,,
1768973081.372484,1768973081.372994,82.0,0.0,4373.589844,4381.282227,4354.230957,4376.538574,4372.563965,4369.615234,4361.538574,4382.307617,4372.94873,4341.410156,4442.820313,4486.538574,4382.563965,4412.179688,,,,,,,,,,,,,,,,,,,,,,,,,,,,,,,,,,,,,,,,,,,,,,,,,,,,,,,,,,,,,,,,,,,,,,
1768973081.380293,1768973081.380802,83.0,0.0,4362.692383,4372.436035,4351.794922,4366.025879,4363.461426,4365.512695,4362.179688,4377.692383,4370.384766,4339.871582,4436.794922,4491.025879,4378.974121,4406.794922,,,,,,,,,,,,,,,,,,,,,,,,,,,,,,,,,,,,,,,,,,,,,,,,,,,,,,,,,,,,,,,,,,,,,,
1768973081.388101,1768973081.388411,84.0,0.0,4355.0,4366.666504,4351.666504,4361.282227,4361.922852,4370.256348,4363.333496,4381.922852,4369.487305,4339.102539,4432.563965,4497.563965,4376.025879,4403.077148,,,,,,,,,,,,,,,,,,,,,,,,,,,,,,,,,,,,,,,,,,,,,,,,,,,,,,,,,,,,,,,,,,,,,,
1768973081.39591,1768973081.396219,85.0,0.0,4364.615234,4372.436035,4353.846191,4368.846191,4369.358887,4377.692383,4370.512695,4391.794922,4372.179688,4344.230957,4444.487305,4505.512695,4383.974121,4412.05127,,,,,,,,,,,,,,,,,,,,,,,,,,,,,,,,,,,,,,,,,,,,,,,,,,,,,,,,,,,,,,,,,,,,,,
1768973081.403718,1768973081.403928,86.0,0.0,4377.307617,4376.538574,4359.102539,4375.128418,4368.333496,4370.641113,4373.333496,4395.256348,4378.461426,4355.0,4460.128418,4520.384766,4397.820313,4426.025879,,,,,,,,,,,,,,,,,,,,,,,,,,,,,,,,,,,,,,,,,,,,,,,,,,,,,,,,,,,,,,,,,,,,,,
1768973081.411527,1768973081.411736,87.0,0.0,4378.077148,4373.589844,4362.692383,4374.102539,4363.077148,4366.025879,4365.0,4392.563965,4383.846191,4357.563965,4462.179688,4527.692383,4401.666504,4433.846191,,,,,,,,,,,,,,,,,,,,,,,,,,,,,,,,,,,,,,,,,,,,,,,,,,,,,,,,,,,,,,,,,,,,,,
1768973081.419335,1768973081.419744,88.0,0.0,4373.717773,4372.820313,4361.538574,4373.461426,4365.641113,4374.743652,4362.307617,4387.692383,4375.641113,4347.436035,4450.769043,4517.563965,4393.461426,4426.794922,,,,,,,,,,,,,,,,,,,,,,,,,,,,,,,,,,,,,,,,,,,,,,,,,,,,,,,,,,,,,,,,,,,,,,
1768973081.427143,1768973081.427553,89.0,0.0,4373.333496,4373.205078,4359.743652,4374.358887,4370.641113,4376.666504,4369.615234,4382.94873,4366.666504,4342.436035,4441.025879,4510.512695,4389.871582,4417.179688,,,,,,,,,,,,,,,,,,,,,,,,,,,,,,,,,,,,,,,,,,,,,,,,,,,,,,,,,,,,,,,,,,,,,,
1768973081.434952,1768973081.435461,90.0,0.0,4377.692383,4373.589844,4359.487305,4373.589844,4372.05127,4368.205078,4365.641113,4378.333496,4368.461426,4346.922852,4444.615234,4516.410156,4395.256348,4423.205078,,,,,,,,,,,,,,,,,,,,,,,,,,,,,,,,,,,,,,,,,,,,,,,,,,,,,,,,,,,,,,,,,,,,,,
1768973081.44276,1768973081.44327,91.0,0.0,4377.820313,4375.897461,4357.05127,4373.333496,4373.589844,4365.0,4356.410156,4374.615234,4369.358887,4348.589844,4447.820313,4514.871582,4397.692383,4428.717773,,,,,,,,,,,,,,,,,,,,,,,,,,,,,,,,,,,,,,,,,,,,,,,,,,,,,,,,,,,,,,,,,,,,,,
1768973081.450569,1768973081.451278,92.0,0.0,4371.922852,4374.358887,4352.94873,4376.410156,4374.743652,4367.436035,4360.769043,4373.461426,4366.282227,4346.666504,4441.538574,4502.436035,4395.384766,4420.769043,,,,,,,,,,,,,,,,,,,,,,,,,,,,,,,,,,,,,,,,,,,,,,,,,,,,,,,,,,,,,,,,,,,,,,
1768973081.458377,1768973081.459086,93.0,0.0,4374.230957,4372.436035,4352.563965,4379.743652,4375.128418,4371.794922,4369.358887,4376.922852,4369.871582,4349.871582,4446.538574,4502.436035,4395.256348,4420.512695,,,,,,,,,,,,,,,,,,,,,,,,,,,,,,,,,,,,,,,,,,,,,,,,,,,,,,,,,,,,,,,,,,,,,,
1768973081.466186,1768973081.466795,94.0,0.0,4381.153809,4375.769043,4352.94873,4377.179688,4374.615234,4374.102539,4368.333496,4380.641113,4376.538574,4355.384766,4458.205078,4510.512695,4397.563965,4426.922852,0.560654,0.269302,0.322129,0.32926,0.165517,0.53533,0.331529,0.288625,0.153412,0.088946,0.537226,0.153532,0.132809,0.275258,0.121876,0.360282,0.10844,0.132116,0.160356,0.075747,0.292414,0.048348,0.120882,0.086718,0.058235,0.197688,0.250824,0.124621,0.154437,0.175244,0.33365,0.201906,0.179442,0.145026,0.140723,0.50777,0.474875,0.270116,0.256381,0.220778,0.391714,0.537979,0.378894,0.219036,0.17082,0.457556,0.392441,0.185558,0.185387,0.085118,0.936679,0.412601,0.20296,0.286228,0.111547,0.905408,0.744079,0.18337,0.191181,0.120457,0.775614,0.556593,0.109352,0.159578,0.093062,1.125107,0.621897,0.127655,0.238786,0.150128
1768973081.473994,1768973081.474603,95.0,0.0,4380.897461,4379.743652,4352.563965,4374.871582,4374.615234,4373.589844,4366.153809,4379.487305,4376.538574,4356.794922,4459.487305,4510.384766,4400.128418,4427.94873,,,,,,,,,,,,,,,,,,,,,,,,,,,,,,,,,,,,,,,,,,,,,,,,,,,,,,,,,,,,,,,,,,,,,,
1768973081.481803,1768973081.482611,96.0,0.0,4378.974121,4380.256348,4355.0,4378.461426,4376.922852,4373.205078,4371.538574,4378.205078,4377.05127,4356.025879,4458.717773,4510.512695,4402.692383,4428.461426,,,,,,,,,,,,,,,,,,,,,,,,,,,,,,,,,,,,,,,,,,,,,,,,,,,,,,,,,,,,,,,,,,,,,,
1768973081.489611,1768973081.49042,97.0,0.0,4380.0,4381.153809,4359.487305,4382.436035,4377.436035,4376.282227,4375.128418,4381.282227,4378.333496,4354.743652,4458.589844,4508.333496,4400.897461,4426.410156,,,,,,,,,,,,,,,,,,,,,,,,,,,,,,,,,,,,,,,,,,,,,,,,,,,,,,,,,,,,,,,,,,,,,,
1768973081.497419,1768973081.498328,98.0,0.0,4381.538574,4381.025879,4360.384766,4382.307617,4374.871582,4370.897461,4367.307617,4381.410156,4376.410156,4354.871582,4454.871582,4498.846191,4398.333496,4421.666504,,,,,,,,,,,,,,,,,,,,,,,,,,,,,,,,,,,,,,,,,,,,,,,,,,,,,,,,,,,,,,,,,,,,,,
1768973081.505228,1768973081.506137,99.0,0.0,4382.436035,4376.410156,4357.05127,4380.769043,4373.846191,4366.666504,4364.743652,4378.717773,4376.153809,4355.128418,4454.615234,4497.436035,4400.384766,4423.589844,,,,,,,,,,,,,,,,,,,,,,,,,,,,,,,,,,,,,,,,,,,,,,,,,,,,,,,,,,,,,,,,,,,,,,
1768973081.513036,1768973081.514145,100.0,0.0,4380.897461,4372.820313,4356.410156,4375.897461,4373.205078,4377.179688,4374.615234,4380.769043,4378.846191,4355.0,4459.358887,4505.641113,4407.563965,4431.025879,,,,,,,,,,,,,,,,,,,,,,,,,,,,,,,,,,,,,,,,,,,,,,,,,,,,,,,,,,,,,,,,,,,,,,
1768973081.520845,1768973081.521953,101.0,0.0,4376.666504,4372.436035,4354.358887,4370.0,4367.692383,4377.692383,4371.666504,4387.820313,4381.666504,4355.897461,4461.922852,4508.461426,4412.563965,4434.102539,,,,,,,,,,,,,,,,,,,,,,,,,,,,,,,,,,,,,,,,,,,,,,,,,,,,,,,,,,,,,,,,,,,,,,
1768973081.528653,1768973081.529662,102.0,0.0,4373.077148,4370.641113,4349.358887,4370.512695,4366.538574,4363.333496,4358.333496,4386.538574,4379.487305,4356.025879,4457.436035,4502.05127,4406.666504,4431.538574,,,,,,,,,,,,,,,,,,,,,,,,,,,,,,,,,,,,,,,,,,,,,,,,,,,,,,,,,,,,,,,,,,,,,,
1768973081.536462,1768973081.53747,103.0,0.0,4374.358887,4367.692383,4347.307617,4371.538574,4372.307617,4361.922852,4361.282227,4376.025879,4374.487305,4350.641113,4445.769043,4495.128418,4395.512695,4425.897461,,,,,,,,,,,,,,,,,,,,,,,,,,,,,,,,,,,,,,,,,,,,,,,,,,,,,,,,,,,,,,,,,,,,,,
1768973081.54427,1768973081.545079,104.0,0.0,4379.615234,4365.769043,4347.436035,4370.512695,4376.153809,4375.897461,4372.563965,4376.282227,4373.461426,4345.128418,4442.307617,4496.538574,4393.333496,4423.461426,,,,,,,,,,,,,,,,,,,,,,,,,,,,,,,,,,,,,,,,,,,,,,,,,,,,,,,,,,,,,,,,,,,,,,
1768973081.552079,1768973081.552887,105.0,0.0,4384.615234,4369.487305,4349.358887,4373.846191,4377.94873,4379.230957,4371.025879,4382.307617,4373.589844,4351.153809,4454.358887,4505.897461,4404.102539,4430.769043,,,,,,,,,,,,,,,,,,,,,,,,,,,,,,,,,,,,,,,,,,,,,,,,,,,,,,,,,,,,,,,,,,,,,,
1768973081.559887,1768973081.560596,106.0,0.0,4384.615234,4373.461426,4351.538574,4377.94873,4375.512695,4374.487305,4362.436035,4375.384766,4367.307617,4357.563965,4460.384766,4510.769043,4413.077148,4436.794922,,,,,,,,,,,,,,,,,,,,,,,,,,,,,,,,,,,,,,,,,,,,,,,,,,,,,,,,,,,,,,,,,,,,,,
1768973081.567696,1768973081.568404,107.0,0.0,4379.871582,4363.589844,4349.615234,4373.333496,4370.384766,4377.692383,4363.846191,4369.615234,4363.974121,4353.077148,4456.282227,4508.589844,4408.333496,4432.820313,,,,,,,,,,,,,,,,,,,,,,,,,,,,,,,,,,,,,,,,,,,,,,,,,,,,,,,,,,,,,,,,,,,,,,
1768973081.575504,1768973081.576013,108.0,0.0,4378.077148,4351.666504,4346.538574,4364.230957,4368.333496,4378.333496,4366.410156,4379.615234,4371.922852,4349.743652,4456.538574,4509.871582,4402.94873,4427.563965,,,,,,,,,,,,,,,,,,,,,,,,,,,,,,,,,,,,,,,,,,,,,,,,,,,,,,,,,,,,,,,,,,,,,,
1768973081.583312,1768973081.583822,109.0,0.0,4381.538574,4357.563965,4347.692383,4364.871582,4367.563965,4377.820313,4365.384766,4385.384766,4374.487305,4352.692383,4457.179688,4511.153809,4403.461426,4428.717773,,,,,,,,,,,,,,,,,,,,,,,,,,,,,,,,,,,,,,,,,,,,,,,,,,,,,,,,,,,,,,,,,,,,,,
1768973081.591121,1768973081.59153,110.0,0.0,4382.94873,4368.333496,4350.769043,4370.769043,4365.769043,4380.512695,4369.102539,4382.692383,4371.538574,4355.769043,4451.794922,4505.384766,4401.410156,4431.410156,0.595682,0.265043,0.324339,0.320644,0.159673,0.503326,0.390917,0.320665,0.129343,0.088827,0.538949,0.10908,0.129999,0.25865,0.119023,0.433026,0.106806,0.147621,0.148558,0.083338,0.287751,0.059919,0.109693,0.079015,0.053425,0.193047,0.275978,0.160888,0.132379,0.187009,0.302949,0.160012,0.181969,0.148694,0.132047,0.507259,0.450454,0.254417,0.276318,0.226736,0.410917,0.54895,0.373701,0.232453,0.173274,0.48149,0.460488,0.195256,0.189222,0.083003,1.15469,0.434835,0.209757,0.288984,0.107021,0.952334,0.743516,0.158552,0.165776,0.131811,0.833081,0.624423,0.14226,0.153408,0.092336,1.108918,0.607075,0.13987,0.239351,0.130715
1768973081.598929,1768973081.599339,111.0,0.0,4380.769043,4369.871582,4352.05127,4371.410156,4366.282227,4379.487305,4368.846191,4382.820313,4375.128418,4356.282227,4446.153809,4500.128418,4397.05127,4428.974121,,,,,,,,,,,,,,,,,,,,,,,,,,,,,,,,,,,,,,,,,,,,,,,,,,,,,,,,,,,,,,,,,,,,,,
1768973081.606738,1768973081.606947,112.0,0.0,4379.615234,4374.358887,4353.717773,4370.641113,4368.974121,4373.717773,4355.256348,4377.307617,4373.974121,4351.538574,4443.461426,4499.487305,4396.282227,4426.922852,,,,,,,,,,,,,,,,,,,,,,,,,,,,,,,,,,,,,,,,,,,,,,,,,,,,,,,,,,,,,,,,,,,,,,
1768973081.614546,1768973081.614756,113.0,0.0,4382.05127,4381.794922,4356.922852,4374.743652,4371.922852,4377.563965,4358.077148,4374.743652,4370.641113,4347.692383,4443.589844,4501.666504,4396.410156,4427.05127,,,,,,,,,,,,,,,,,,,,,,,,,,,,,,,,,,,,,,,,,,,,,,,,,,,,,,,,,,,,,,,,,,,,,,
1768973081.622355,1768973081.622664,114.0,0.0,4384.487305,4378.974121,4358.461426,4377.820313,4375.256348,4387.307617,4380.256348,4385.256348,4379.487305,4350.897461,4449.743652,4506.794922,4396.282227,4427.94873,,,,,,,,,,,,,,,,,,,,,,,,,,,,,,,,,,,,,,,,,,,,,,,,,,,,,,,,,,,,,,,,,,,,,,
1768973081.630163,1768973081.630472,115.0,0.0,4382.307617,4371.794922,4355.897461,4373.589844,4371.922852,4385.897461,4383.077148,4390.384766,4383.717773,4352.820313,4453.077148,4510.769043,4397.692383,4429.358887,,,,,,,,,,,,,,,,,,,,,,,,,,,,,,,,,,,,,,,,,,,,,,,,,,,,,,,,,,,,,,,,,,,,,,
1768973081.637972,1768973081.638481,116.0,0.0,4376.666504,4370.769043,4355.256348,4368.974121,4365.128418,4382.692383,4371.025879,4383.205078,4374.102539,4349.743652,4448.974121,4509.743652,4397.05127,4428.846191,,,,,,,,,,,,,,,,,,,,,,,,,,,,,,,,,,,,,,,,,,,,,,,,,,,,,,,,,,,,,,,,,,,,,,
1768973081.64578,1768973081.646289,117.0,0.0,4376.922852,4374.615234,4358.077148,4370.256348,4365.897461,4379.871582,4370.256348,4378.205078,4371.025879,4350.641113,4447.307617,4507.307617,4396.538574,4427.179688,,,,,,,,,,,,,,,,,,,,,,,,,,,,,,,,,,,,,,,,,,,,,,,,,,,,,,,,,,,,,,,,,,,,,,
1768973081.653588,1768973081.654198,118.0,0.0,4379.487305,4379.743652,4357.820313,4373.974121,4371.153809,4379.615234,4378.589844,4384.358887,4380.384766,4354.102539,4450.897461,4505.897461,4398.077148,4426.794922,,,,,,,,,,,,,,,,,,,,,,,,,,,,,,,,,,,,,,,,,,,,,,,,,,,,,,,,,,,,,,,,,,,,,,
1768973081.661397,1768973081.662006,119.0,0.0,4379.615234,4382.436035,4355.256348,4373.846191,4372.307617,4384.743652,4381.410156,4388.717773,4382.94873,4353.717773,4449.487305,4508.205078,4397.94873,4427.692383,,,,,,,,,,,,,,,,,,,,,,,,,,,,,,,,,,,,,,,,,,,,,,,,,,,,,,,,,,,,,,,,,,,,,,
1768973081.669205,1768973081.669615,120.0,0.0,4384.871582,4383.846191,4355.512695,4372.563965,4372.05127,4387.436035,4376.410156,4384.743652,4374.102539,4352.692383,4445.128418,4511.153809,4397.436035,4428.461426,,,,,,,,,,,,,,,,,,,,,,,,,,,,,,,,,,,,,,,,,,,,,,,,,,,,,,,,,,,,,,,,,,,,,,
1768973081.677014,1768973081.677423,121.0,0.0,4385.769043,4380.0,4355.256348,4373.717773,4373.461426,4383.589844,4371.025879,4381.922852,4367.94873,4353.717773,4448.717773,4510.512695,4398.205078,4432.436035,,,,,,,,,,,,,,,,,,,,,,,,,,,,,,,,,,,,,,,,,,,,,,,,,,,,,,,,,,,,,,,,,,,,,,
