Timestamp,OriginalTimestamp,EEG.Counter,EEG.Interpolated,EEG.AF3,EEG.F7,EEG.F3,EEG.FC5,EEG.T7,EEG.P7,EEG.O1,EEG.O2,EEG.P8,EEG.T8,EEG.FC6,EEG.F4,EEG.F8,EEG.AF4,POW.AF3.Theta,POW.AF3.Alpha,POW.AF3.BetaL,POW.AF3.BetaH,POW.AF3.Gamma,POW.F7.Theta,POW.F7.Alpha,POW.F7.BetaL,POW.F7.BetaH,POW.F7.Gamma,POW.F3.Theta,POW.F3.Alpha,POW.F3.BetaL,POW.F3.BetaH,POW.F3.Gamma,POW.FC5.Theta,POW.FC5.Alpha,POW.FC5.BetaL,POW.FC5.BetaH,POW.FC5.Gamma,POW.T7.Theta,POW.T7.Alpha,POW.T7.BetaL,POW.T7.BetaH,POW.T7.Gamma,POW.P7.Theta,POW.P7.Alpha,POW.P7.BetaL,POW.P7.BetaH,POW.P7.Gamma,POW.O1.Theta,POW.O1.Alpha,POW.O1.BetaL,POW.O1.BetaH,POW.O1.Gamma,POW.O2.Theta,POW.O2.Alpha,POW.O2.BetaL,POW.O2.BetaH,POW.O2.Gamma,POW.P8.Theta,POW.P8.Alpha,POW.P8.BetaL,POW.P8.BetaH,POW.P8.Gamma,POW.T8.Theta,POW.T8.Alpha,POW.T8.BetaL,POW.T8.BetaH,POW.T8.Gamma,POW.FC6.Theta,POW.FC6.Alpha,POW.FC6.BetaL,POW.FC6.BetaH,POW.FC6.Gamma,POW.F4.Theta,POW.F4.Alpha,POW.F4.BetaL,POW.F4.BetaH,POW.F4.Gamma,POW.F8.Theta,POW.F8.Alpha,POW.F8.BetaL,POW.F8.BetaH,POW.F8.Gamma,POW.AF4.Theta,POW.AF4.Alpha,POW.AF4.BetaL,POW.AF4.BetaH,POW.AF4.Gamma
1768972665.892825,1768972665.893235,121.0,0.0,4378.077148,4367.05127,4366.282227,4384.102539,4362.179688,4364.487305,4372.563965,4385.128418,4359.230957,4344.615234,4477.05127,4537.307617,4418.974121,4456.922852,,,,,,,,,,,,,,,,,,,,,,,,,,,,,,,,,,,,,,,,,,,,,,,,,,,,,,,,,,,,,,,,,,,,,,
1768972665.900633,1768972665.900943,122.0,0.0,4369.615234,4353.974121,4356.794922,4377.820313,4359.230957,4365.0,4370.128418,4381.282227,4357.692383,4344.615234,4474.743652,4531.922852,4410.256348,4446.538574,,,,,,,,,,,,,,,,,,,,,,,,,,,,,,,,,,,,,,,,,,,,,,,,,,,,,,,,,,,,,,,,,,,,,,
1768972665.908441,1768972665.908752,123.0,0.0,4370.128418,4353.589844,4349.487305,4380.641113,4357.436035,4367.692383,4366.282227,4379.871582,4357.563965,4349.358887,4476.410156,4530.897461,4411.282227,4439.358887,,,,,,,,,,,,,,,,,,,,,,,,,,,,,,,,,,,,,,,,,,,,,,,,,,,,,,,,,,,,,,,,,,,,,,
1768972665.91625,1768972665.91636,124.0,0.0,4375.897461,4359.487305,4351.538574,4381.922852,4360.0,4363.077148,4367.179688,4385.0,4358.717773,4344.230957,4477.179688,4533.333496,4415.641113,4443.846191,,,,,,,,,,,,,,,,,,,,,,,,,,,,,,,,,,,,,,,,,,,,,,,,,,,,,,,,,,,,,,,,,,,,,,
1768972665.924058,1768972665.924169,125.0,0.0,4373.589844,4359.487305,4355.641113,4373.846191,4358.333496,4354.871582,4365.384766,4379.615234,4355.641113,4342.563965,4472.692383,4535.384766,4414.230957,4443.333496,,,,,,,,,,,,,,,,,,,,,,,,,,,,,,,,,,,,,,,,,,,,,,,,,,,,,,,,,,,,,,,,,,,,,,
1768972665.931867,1768972665.931877,126.0,0.0,4370.897461,4358.077148,4356.025879,4371.922852,4356.538574,4360.128418,4364.615234,4374.615234,4353.589844,4350.512695,4471.153809,4539.358887,4411.538574,4438.589844,0.274302,0.391638,0.215501,0.26167,0.13161,0.671164,0.415337,0.440621,0.18722,0.069446,0.273338,0.32742,0.113026,0.123862,0.125911,0.292291,0.168867,0.160215,0.115202,0.101214,0.352448,0.271503,0.291138,0.055671,0.088707,0.210147,0.331456,0.168422,0.195232,0.168923,0.338374,0.508352,0.202602,0.106228,0.153362,0.328687,0.302572,0.197248,0.17767,0.236116,0.499692,0.198658,0.157539,0.26203,0.195923,0.246277,0.247324,0.344759,0.20199,0.148049,0.505582,0.367928,0.181117,0.171889,0.107322,0.62253,0.717708,0.247874,0.226425,0.138543,0.465999,0.295181,0.275482,0.186998,0.096099,0.342528,0.69694,0.365204,0.248288,0.152989
1768972665.939675,1768972665.939686,127.0,0.0,4372.05127,4357.563965,4354.230957,4378.717773,4357.179688,4368.974121,4370.384766,4381.153809,4360.256348,4351.153809,4476.153809,4536.922852,4412.692383,4440.897461,,,,,,,,,,,,,,,,,,,,,,,,,,,,,,,,,,,,,,,,,,,,,,,,,,,,,,,,,,,,,,,,,,,,,,
1768972665.947484,1768972665.947694,0.0,0.0,4371.922852,4356.666504,4356.666504,4380.128418,4357.692383,4365.128418,4373.589844,4384.871582,4366.153809,4346.538574,4475.256348,4530.769043,4412.94873,4443.974121,,,,,,,,,,,,,,,,,,,,,,,,,,,,,,,,,,,,,,,,,,,,,,,,,,,,,,,,,,,,,,,,,,,,,,
1768972665.955292,1768972665.955503,1.0,0.0,4373.205078,4356.410156,4358.333496,4375.897461,4360.512695,4358.974121,4365.512695,4375.641113,4354.230957,4343.846191,4463.333496,4528.461426,4408.333496,4444.615234,,,,,,,,,,,,,,,,,,,,,,,,,,,,,,,,,,,,,,,,,,,,,,,,,,,,,,,,,,,,,,,,,,,,,,
1768972665.963101,1768972665.963411,2.0,0.0,4375.0,4356.666504,4355.897461,4373.974121,4363.974121,4362.563965,4357.820313,4365.512695,4340.769043,4342.94873,4457.563965,4529.102539,4405.897461,4444.358887,,,,,,,,,,,,,,,,,,,,,,,,,,,,,,,,,,,,,,,,,,,,,,,,,,,,,,,,,,,,,,,,,,,,,,
1768972665.970909,1768972665.971219,3.0,0.0,4374.487305,4356.666504,4356.153809,4376.153809,4364.615234,4367.94873,4363.846191,4367.563965,4347.563965,4347.05127,4463.589844,4534.615234,4408.205078,4442.563965,,,,,,,,,,,,,,,,,,,,,,,,,,,,,,,,,,,,,,,,,,,,,,,,,,,,,,,,,,,,,,,,,,,,,,
1768972665.978717,1768972665.979228,4.0,0.0,4372.307617,4359.487305,4362.05127,4379.230957,4362.692383,4365.128418,4368.461426,4373.205078,4354.743652,4346.922852,4464.871582,4541.153809,4405.128418,4441.153809,,,,,,,,,,,,,,,,,,,,,,,,,,,,,,,,,,,,,,,,,,,,,,,,,,,,,,,,,,,,,,,,,,,,,,
1768972665.986526,1768972665.987036,5.0,0.0,4370.128418,4361.153809,4361.282227,4377.307617,4359.358887,4358.589844,4361.025879,4373.077148,4345.0,4332.179688,4458.461426,4543.461426,4397.563965,4436.153809,,,,,,,,,,,,,,,,,,,,,,,,,,,,,,,,,,,,,,,,,,,,,,,,,,,,,,,,,,,,,,,,,,,,,,
1768972665.994334,1768972665.994944,6.0,0.0,4372.692383,4357.436035,4349.743652,4372.692383,4358.077148,4358.846191,4358.333496,4372.179688,4341.025879,4322.820313,4457.563965,4545.641113,4394.871582,4430.384766,,,,,,,,,,,,,,,,,,,,,,,,,,,,,,,,,,,,,,,,,,,,,,,,,,,,,,,,,,,,,,,,,,,,,,
1768972666.002143,1768972666.002753,7.0,0.0,4379.615234,4356.282227,4347.820313,4372.563965,4358.846191,4363.717773,4365.256348,4373.461426,4348.333496,4336.538574,4461.282227,4548.846191,4396.282227,4435.0,,,,,,,,,,,,,,,,,,,,,,,,,,,,,,,,,,,,,,,,,,,,,,,,,,,,,,,,,,,,,,,,,,,,,,
1768972666.009951,1768972666.010361,8.0,0.0,4379.743652,4358.205078,4359.615234,4377.94873,4357.179688,4362.05127,4367.563965,4370.512695,4345.256348,4347.820313,4461.538574,4546.282227,4396.922852,4441.025879,,,,,,,,,,,,,,,,,,,,,,,,,,,,,,,,,,,,,,,,,,,,,,,,,,,,,,,,,,,,,,,,,,,,,,
1768972666.01776,1768972666.01817,9.0,0.0,4375.256348,4356.794922,4362.94873,4378.717773,4358.589844,4356.153809,4363.717773,4367.05127,4339.615234,4340.512695,4459.871582,4542.436035,4396.282227,4434.871582,,,,,,,,,,,,,,,,,,,,,,,,,,,,,,,,,,,,,,,,,,,,,,,,,,,,,,,,,,,,,,,,,,,,,,
1768972666.025568,1768972666.025878,10.0,0.0,4373.717773,4356.666504,4357.820313,4373.974121,4365.128418,4360.512695,4363.974121,4369.871582,4345.512695,4336.922852,4459.615234,4541.922852,4396.282227,4427.820313,,,,,,,,,,,,,,,,,,,,,,,,,,,,,,,,,,,,,,,,,,,,,,,,,,,,,,,,,,,,,,,,,,,,,,
1768972666.033377,1768972666.033687,11.0,0.0,4371.025879,4360.256348,4359.358887,4372.563965,4363.589844,4368.717773,4364.743652,4372.05127,4349.743652,4341.922852,4458.461426,4534.743652,4396.666504,4428.077148,,,,,,,,,,,,,,,,,,,,,,,,,,,,,,,,,,,,,,,,,,,,,,,,,,,,,,,,,,,,,,,,,,,,,,
1768972666.041185,1768972666.041296,12.0,0.0,4367.179688,4357.436035,4360.769043,4372.820313,4357.436035,4369.487305,4364.487305,4372.692383,4349.102539,4340.897461,4456.922852,4531.922852,4396.538574,4429.615234,,,,,,,,,,,,,,,,,,,,,,,,,,,,,,,,,,,,,,,,,,,,,,,,,,,,,,,,,,,,,,,,,,,,,,
1768972666.048993,1768972666.049104,13.0,0.0,4369.358887,4355.0,4359.615234,4373.205078,4360.0,4370.128418,4369.102539,4375.769043,4354.102539,4341.410156,4458.846191,4540.512695,4402.179688,4431.410156,,,,,,,,,,,,,,,,,,,,,,,,,,,,,,,,,,,,,,,,,,,,,,,,,,,,,,,,,,,,,,,,,,,,,,
1768972666.056802,1768972666.056813,14.0,0.0,4373.333496,4362.94873,4360.769043,4377.436035,4367.94873,4372.94873,4373.589844,4374.230957,4353.077148,4343.333496,4460.512695,4538.205078,4404.743652,4430.384766,0.294327,0.347581,0.230182,0.272563,0.132048,0.595356,0.306663,0.406015,0.198295,0.0754,0.301648,0.314795,0.111898,0.112822,0.134175,0.314392,0.143123,0.167567,0.105509,0.109539,0.354337,0.260702,0.311281,0.063452,0.084623,0.258271,0.30296,0.171214,0.195943,0.161744,0.375376,0.532282,0.191927,0.101549,0.155507,0.314327,0.344782,0.24997,0.203115,0.244036,0.504394,0.235112,0.196883,0.272567,0.192778,0.211929,0.297755,0.42328,0.194423,0.147634,0.482661,0.423459,0.22535,0.182885,0.114288,0.605581,0.857277,0.292575,0.242714,0.138727,0.447863,0.310453,0.342502,0.188964,0.100274,0.49348,0.683883,0.439538,0.260977,0.146743
1768972666.06461,1768972666.064621,15.0,0.0,4372.820313,4366.025879,4359.230957,4381.153809,4365.897461,4371.282227,4371.538574,4366.922852,4345.512695,4336.025879,4458.461426,4531.794922,4402.307617,4425.897461,,,,,,,,,,,,,,,,,,,,,,,,,,,,,,,,,,,,,,,,,,,,,,,,,,,,,,,,,,,,,,,,,,,,,,
1768972666.072419,1768972666.072629,16.0,0.0,4372.436035,4359.230957,4359.358887,4377.05127,4357.436035,4369.102539,4368.205078,4369.358887,4353.461426,4330.0,4460.897461,4544.230957,4403.461426,4427.179688,,,,,,,,,,,,,,,,,,,,,,,,,,,,,,,,,,,,,,,,,,,,,,,,,,,,,,,,,,,,,,,,,,,,,,
1768972666.080227,1768972666.080438,17.0,0.0,4374.487305,4359.230957,4361.922852,4375.769043,4359.871582,4375.641113,4371.922852,4378.974121,4363.461426,4339.615234,4467.179688,4553.077148,4407.436035,4430.769043,,,,,,,,,,,,,,,,,,,,,,,,,,,,,,,,,,,,,,,,,,,,,,,,,,,,,,,,,,,,,,,,,,,,,,
1768972666.088036,1768972666.088346,18.0,0.0,4373.717773,4366.922852,4360.769043,4381.410156,4364.615234,4376.153809,4374.615234,4377.94873,4360.128418,4350.512695,4471.153809,4545.0,4406.922852,4430.384766,,,,,,,,,,,,,,,,,,,,,,,,,,,,,,,,,,,,,,,,,,,,,,,,,,,,,,,,,,,,,,,,,,,,,,
1768972666.095844,1768972666.096155,19.0,0.0,4371.025879,4371.025879,4360.897461,4382.692383,4359.871582,4370.0,4370.512695,4373.333496,4358.077148,4344.615234,4469.743652,4538.333496,4404.358887,4426.922852,,,,,,,,,,,,,,,,,,,,,,,,,,,,,,,,,,,,,,,,,,,,,,,,,,,,,,,,,,,,,,,,,,,,,,
1768972666.103653,1768972666.104163,20.0,0.0,4375.384766,4372.436035,4362.179688,4380.641113,4355.769043,4367.436035,4367.820313,4374.230957,4362.05127,4341.410156,4467.05127,4538.077148,4406.538574,4429.230957,,,,,,,,,,,,,,,,,,,,,,,,,,,,,,,,,,,,,,,,,,,,,,,,,,,,,,,,,,,,,,,,,,,,,,
1768972666.111461,1768972666.111971,21.0,0.0,4383.205078,4373.589844,4363.205078,4382.692383,4358.077148,4368.589844,4372.692383,4375.769043,4361.153809,4348.846191,4466.025879,4542.94873,4411.153809,4441.666504,,,,,,,,,,,,,,,,,,,,,,,,,,,,,,,,,,,,,,,,,,,,,,,,,,,,,,,,,,,,,,,,,,,,,,
1768972666.119269,1768972666.11968,22.0,0.0,4377.94873,4370.512695,4362.179688,4382.05127,4359.358887,4372.94873,4375.769043,4369.871582,4353.077148,4348.717773,4462.94873,4540.769043,4412.692383,4441.153809,,,,,,,,,,,,,,,,,,,,,,,,,,,,,,,,,,,,,,,,,,,,,,,,,,,,,,,,,,,,,,,,,,,,,,
1768972666.127078,1768972666.127488,23.0,0.0,4371.410156,4365.897461,4358.717773,4378.974121,4356.922852,4373.333496,4370.128418,4365.769043,4351.538574,4339.743652,4459.743652,4535.128418,4410.512695,4427.563965,,,,,,,,,,,,,,,,,,,,,,,,,,,,,,,,,,,,,,,,,,,,,,,,,,,,,,,,,,,,,,,,,,,,,,
1768972666.134886,1768972666.135097,24.0,0.0,4378.717773,4366.153809,4359.871582,4381.025879,4358.717773,4367.436035,4363.077148,4374.230957,4360.256348,4338.589844,4460.769043,4540.769043,4411.025879,4432.563965,,,,,,,,,,,,,,,,,,,,,,,,,,,,,,,,,,,,,,,,,,,,,,,,,,,,,,,,,,,,,,,,,,,,,,
1768972666.142695,1768972666.142905,25.0,0.0,4384.230957,4371.025879,4362.820313,4383.717773,4363.333496,4364.871582,4363.461426,4377.179688,4362.05127,4343.717773,4461.538574,4541.794922,4413.717773,4443.846191,,,,,,,,,,,,,,,,,,,,,,,,,,,,,,,,,,,,,,,,,,,,,,,,,,,,,,,,,,,,,,,,,,,,,,
1768972666.150503,1768972666.150814,26.0,0.0,4380.897461,4374.230957,4359.615234,4383.077148,4364.615234,4371.025879,4375.256348,4371.282227,4355.384766,4346.153809,4461.538574,4533.846191,4411.794922,4436.922852,,,,,,,,,,,,,,,,,,,,,,,,,,,,,,,,,,,,,,,,,,,,,,,,,,,,,,,,,,,,,,,,,,,,,,
1768972666.158312,1768972666.158622,27.0,0.0,4379.358887,4371.025879,4356.410156,4381.282227,4363.333496,4377.307617,4381.794922,4375.512695,4358.333496,4347.692383,4462.05127,4537.179688,4410.512695,4428.846191,,,,,,,,,,,,,,,,,,,,,,,,,,,,,,,,,,,,,,,,,,,,,,,,,,,,,,,,,,,,,,,,,,,,,,
1768972666.16612,1768972666.16663,28.0,0.0,4380.0,4366.922852,4360.0,4377.563965,4361.666504,4376.153809,4375.512695,4383.461426,4365.769043,4346.410156,4463.589844,4546.153809,4409.743652,4434.615234,,,,,,,,,,,,,,,,,,,,,,,,,,,,,,,,,,,,,,,,,,,,,,,,,,,,,,,,,,,,,,,,,,,,,,
1768972666.173929,1768972666.174439,29.0,0.0,4382.563965,4370.0,4361.282227,4375.256348,4359.871582,4367.94873,4369.743652,4377.179688,4361.922852,4345.256348,4469.871582,4547.94873,4411.794922,4442.05127,,,,,,,,,,,,,,,,,,,,,,,,,,,,,,,,,,,,,,,,,,,,,,,,,,,,,,,,,,,,,,,,,,,,,,
1768972666.181737,1768972666.182347,30.0,0.0,4386.666504,4377.820313,4362.05127,4379.358887,4358.589844,4360.769043,4370.512695,4369.230957,4357.820313,4351.410156,4475.0,4546.410156,4416.282227,4444.743652,0.349313,0.311891,0.23074,0.27758,0.129768,0.643735,0.239048,0.353275,0.200124,0.081478,0.379925,0.319294,0.108804,0.104299,0.137,0.350176,0.13977,0.169643,0.094911,0.113323,0.34829,0.23536,0.302619,0.074242,0.079282,0.301952,0.266135,0.179041,0.195854,0.164122,0.42591,0.516231,0.188703,0.105693,0.167379,0.349128,0.357957,0.286441,0.233538,0.248533,0.527669,0.259565,0.225852,0.273872,0.186022,0.216436,0.374677,0.48583,0.186071,0.155886,0.525357,0.44745,0.273457,0.192848,0.122283,0.74804,0.970385,0.344573,0.262076,0.139665,0.459958,0.310821,0.40005,0.184592,0.103883,0.706896,0.646286,0.477151,0.264246,0.136149
1768972666.189545,1768972666.190156,31.0,0.0,4388.974121,4382.563965,4365.897461,4383.205078,4363.846191,4367.436035,4372.692383,4372.307617,4357.94873,4353.077148,4469.102539,4544.615234,4416.025879,4445.384766,,,,,,,,,,,,,,,,,,,,,,,,,,,,,,,,,,,,,,,,,,,,,,,,,,,,,,,,,,,,,,,,,,,,,,
1768972666.197354,1768972666.198164,32.0,0.0,4387.179688,4384.615234,4363.974121,4382.692383,4371.025879,4374.358887,4372.307617,4374.487305,4358.717773,4342.94873,4459.743652,4543.461426,4413.205078,4445.128418,,,,,,,,,,,,,,,,,,,,,,,,,,,,,,,,,,,,,,,,,,,,,,,,,,,,,,,,,,,,,,,,,,,,,,
1768972666.205162,1768972666.205972,33.0,0.0,4382.692383,4385.0,4360.0,4381.794922,4367.820313,4371.666504,4372.94873,4375.128418,4362.692383,4342.692383,4462.94873,4542.05127,4414.871582,4444.102539,,,,,,,,,,,,,,,,,,,,,,,,,,,,,,,,,,,,,,,,,,,,,,,,,,,,,,,,,,,,,,,,,,,,,,
1768972666.212971,1768972666.213681,34.0,0.0,4380.512695,4381.410156,4358.333496,4381.538574,4362.820313,4370.769043,4371.794922,4375.128418,4363.846191,4357.820313,4468.717773,4536.794922,4417.307617,4442.94873,,,,,,,,,,,,,,,,,,,,,,,,,,,,,,,,,,,,,,,,,,,,,,,,,,,,,,,,,,,,,,,,,,,,,,
1768972666.220779,1768972666.221489,35.0,0.0,4382.179688,4379.487305,4356.666504,4380.256348,4364.358887,4371.538574,4371.410156,4370.641113,4355.128418,4356.153809,4467.05127,4532.307617,4416.538574,4444.487305,,,,,,,,,,,,,,,,,,,,,,,,,,,,,,,,,,,,,,,,,,,,,,,,,,,,,,,,,,,,,,,,,,,,,,
1768972666.228588,1768972666.229098,36.0,0.0,4381.538574,4382.307617,4355.897461,4380.512695,4363.846191,4372.563965,4377.05127,4374.487305,4353.717773,4344.615234,4470.128418,4532.820313,4415.0,4445.769043,,,,,,,,,,,,,,,,,,,,,,,,,,,,,,,,,,,,,,,,,,,,,,,,,,,,,,,,,,,,,,,,,,,,,,
1768972666.236396,1768972666.236906,37.0,0.0,4379.871582,4383.461426,4360.256348,4381.794922,4360.0,4374.743652,4380.897461,4386.538574,4361.794922,4347.307617,4474.615234,4535.128418,4417.05127,4443.974121,,,,,,,,,,,,,,,,,,,,,,,,,,,,,,,,,,,,,,,,,,,,,,,,,,,,,,,,,,,,,,,,,,,,,,
1768972666.244204,1768972666.244615,38.0,0.0,4382.05127,4381.794922,4362.307617,4378.974121,4361.794922,4373.589844,4375.897461,4381.153809,4359.230957,4353.974121,4467.820313,4533.846191,4416.538574,4444.871582,,,,,,,,,,,,,,,,,,,,,,,,,,,,,,,,,,,,,,,,,,,,,,,,,,,,,,,,,,,,,,,,,,,,,,
1768972666.252013,1768972666.252423,39.0,0.0,4379.743652,4380.256348,4358.077148,4374.230957,4366.153809,4368.077148,4368.974121,4369.102539,4352.179688,4350.512695,4457.179688,4532.94873,4408.846191,4443.974121,,,,,,,,,,,,,,,,,,,,,,,,,,,,,,,,,,,,,,,,,,,,,,,,,,,,,,,,,,,,,,,,,,,,,,
1768972666.259821,1768972666.260432,40.0,0.0,4374.871582,4381.153809,4357.820313,4377.692383,4365.384766,4368.589844,4371.410156,4377.820313,4355.897461,4346.410156,4456.922852,4534.358887,4402.94873,4435.512695,,,,,,,,,,,,,,,,,,,,,,,,,,,,,,,,,,,,,,,,,,,,,,,,,,,,,,,,,,,,,,,,,,,,,,
1768972666.26763,1768972666.26824,41.0,0.0,4374.102539,4381.794922,4361.922852,4382.436035,4361.410156,4372.692383,4377.307617,4387.179688,4360.641113,4350.384766,4463.974121,4530.897461,4403.974121,4433.205078,,,,,,,,,,,,,,,,,,,,,,,,,,,,,,,,,,,,,,,,,,,,,,,,,,,,,,,,,,,,,,,,,,,,,,
1768972666.275438,1768972666.276148,42.0,0.0,4371.922852,4380.641113,4360.512695,4377.436035,4361.922852,4373.717773,4379.743652,4379.871582,4361.025879,4353.974121,4469.615234,4527.179688,4407.436035,4440.256348,,,,,,,,,,,,,,,,,,,,,,,,,,,,,,,,,,,,,,,,,,,,,,,,,,,,,,,,,,,,,,,,,,,,,,
1768972666.283247,1768972666.283957,43.0,0.0,4372.05127,4382.692383,4358.974121,4374.487305,4367.692383,4375.0,4379.102539,4376.282227,4364.487305,4350.256348,4472.94873,4535.256348,4410.512695,4445.128418,,,,,,,,,,,,,,,,,,,,,,,,,,,,,,,,,,,,,,,,,,,,,,,,,,,,,,,,,,,,,,,,,,,,,,
1768972666.291055,1768972666.291965,44.0,0.0,4380.0,4385.897461,4365.256348,4381.538574,4370.641113,4374.871582,4379.358887,4381.025879,4367.307617,4350.0,4473.974121,4544.487305,4411.794922,4444.487305,,,,,,,,,,,,,,,,,,,,,,,,,,,,,,,,,,,,,,,,,,,,,,,,,,,,,,,,,,,,,,,,,,,,,,
1768972666.298864,1768972666.299774,45.0,0.0,4381.922852,4383.589844,4366.538574,4385.769043,4368.333496,4373.717773,4381.794922,4380.641113,4366.794922,4358.333496,4473.333496,4540.384766,4408.461426,4440.256348,,,,,,,,,,,,,,,,,,,,,,,,,,,,,,,,,,,,,,,,,,,,,,,,,,,,,,,,,,,,,,,,,,,,,,
1768972666.306672,1768972666.307682,46.0,0.0,4373.333496,4374.743652,4360.641113,4379.358887,4366.922852,4373.333496,4382.05127,4376.410156,4365.0,4359.487305,4465.769043,4531.922852,4402.563965,4434.102539,0.436568,0.286213,0.216068,0.269267,0.126175,0.807033,0.208125,0.28917,0.190344,0.087695,0.494547,0.338618,0.104026,0.099554,0.134655,0.397238,0.153124,0.163693,0.085972,0.112333,0.333803,0.201405,0.270694,0.08631,0.073406,0.327814,0.225711,0.185284,0.19626,0.172993,0.469269,0.458652,0.187752,0.115593,0.183339,0.412003,0.333118,0.294834,0.264537,0.247074,0.560291,0.26278,0.236241,0.268159,0.178276,0.241351,0.459119,0.512004,0.180555,0.172418,0.57827,0.424634,0.319228,0.200652,0.129406,0.941826,1.028116,0.411897,0.274326,0.141911,0.500112,0.293851,0.428719,0.177249,0.106258,0.922392,0.584114,0.460484,0.255444,0.123272
1768972666.31448,1768972666.31549,47.0,0.0,4368.461426,4364.102539,4358.077148,4372.692383,4366.025879,4372.179688,4381.922852,4380.0,4361.410156,4352.563965,4459.358887,4528.205078,4399.102539,4428.974121,,,,,,,,,,,,,,,,,,,,,,,,,,,,,,,,,,,,,,,,,,,,,,,,,,,,,,,,,,,,,,,,,,,,,,
1768972666.322289,1768972666.323099,48.0,0.0,4368.333496,4354.871582,4357.05127,4372.563965,4363.846191,4370.769043,4381.538574,4381.538574,4358.717773,4351.794922,4461.538574,4523.589844,4397.436035,4428.846191,,,,,,,,,,,,,,,,,,,,,,,,,,,,,,,,,,,,,,,,,,,,,,,,,,,,,,,,,,,,,,,,,,,,,,
1768972666.330097,1768972666.330907,49.0,0.0,4366.410156,4349.743652,4359.230957,4374.487305,4365.128418,4372.563965,4380.0,4373.846191,4355.0,4350.128418,4459.743652,4519.615234,4396.794922,4427.436035,,,,,,,,,,,,,,,,,,,,,,,,,,,,,,,,,,,,,,,,,,,,,,,,,,,,,,,,,,,,,,,,,,,,,,
1768972666.337906,1768972666.338616,50.0,0.0,4367.05127,4350.384766,4363.717773,4373.461426,4367.436035,4379.358887,4384.743652,4372.94873,4353.589844,4346.153809,4455.769043,4520.769043,4394.487305,4423.333496,,,,,,,,,,,,,,,,,,,,,,,,,,,,,,,,,,,,,,,,,,,,,,,,,,,,,,,,,,,,,,,,,,,,,,
1768972666.345714,1768972666.346424,51.0,0.0,4370.384766,4347.820313,4361.666504,4369.871582,4363.077148,4378.461426,4387.94873,4379.871582,4357.179688,4349.358887,4460.0,4523.333496,4392.692383,4421.922852,,,,,,,,,,,,,,,,,,,,,,,,,,,,,,,,,,,,,,,,,,,,,,,,,,,,,,,,,,,,,,,,,,,,,,
1768972666.353523,1768972666.354433,52.0,0.0,4366.410156,4343.461426,4357.94873,4368.717773,4357.307617,4365.769043,4380.512695,4379.615234,4357.94873,4346.794922,4459.487305,4523.717773,4395.0,4419.743652,,,,,,,,,,,,,,,,,,,,,,,,,,,,,,,,,,,,,,,,,,,,,,,,,,,,,,,,,,,,,,,,,,,,,,
1768972666.361331,1768972666.362241,53.0,0.0,4360.384766,4346.538574,4358.974121,4372.563965,4357.436035,4359.743652,4374.743652,4376.666504,4356.153809,4338.846191,4448.974121,4519.871582,4393.461426,4414.230957,,,,,,,,,,,,,,,,,,,,,,,,,,,,,,,,,,,,,,,,,,,,,,,,,,,,,,,,,,,,,,,,,,,,,,
1768972666.36914,1768972666.37005,54.0,0.0,4361.922852,4352.05127,4359.615234,4374.230957,4359.743652,4367.436035,4379.358887,4379.615234,4358.589844,4345.512695,4450.384766,4517.563965,4391.025879,4418.077148,,,,,,,,,,,,,,,,,,,,,,,,,,,,,,,,,,,,,,,,,,,,,,,,,,,,,,,,,,,,,,,,,,,,,,
1768972666.376948,1768972666.377858,55.0,0.0,4366.282227,4351.794922,4357.436035,4367.820313,4357.692383,4368.589844,4379.615234,4379.358887,4359.230957,4355.256348,4461.922852,4524.871582,4395.641113,4426.922852,,,,,,,,,,,,,,,,,,,,,,,,,,,,,,,,,,,,,,,,,,,,,,,,,,,,,,,,,,,,,,,,,,,,,,
1768972666.384756,1768972666.385467,56.0,0.0,4365.897461,4350.128418,4356.410156,4363.333496,4356.025879,4359.230957,4374.230957,4375.641113,4357.179688,4349.358887,4455.897461,4530.512695,4396.666504,4418.333496,,,,,,,,,,,,,,,,,,,,,,,,,,,,,,,,,,,,,,,,,,,,,,,,,,,,,,,,,,,,,,,,,,,,,,
1768972666.392565,1768972666.393275,57.0,0.0,4363.461426,4350.512695,4356.153809,4364.871582,4357.820313,4361.282227,4373.717773,4374.871582,4358.205078,4341.282227,4445.769043,4526.025879,4388.589844,4405.128418,,,,,,,,,,,,,,,,,,,,,,,,,,,,,,,,,,,,,,,,,,,,,,,,,,,,,,,,,,,,,,,,,,,,,,
1768972666.400373,1768972666.400984,58.0,0.0,4364.487305,4349.743652,4354.487305,4366.410156,4361.666504,4369.487305,4376.794922,4374.615234,4357.820313,4342.179688,4454.102539,4525.641113,4386.410156,4411.025879,,,,,,,,,,,,,,,,,,,,,,,,,,,,,,,,,,,,,,,,,,,,,,,,,,,,,,,,,,,,,,,,,,,,,,
1768972666.408182,1768972666.408792,59.0,0.0,4365.512695,4352.179688,4355.384766,4368.974121,4364.358887,4364.871582,4377.692383,4378.974121,4357.179688,4344.487305,4461.538574,4532.692383,4391.153809,4417.179688,,,,,,,,,,,,,,,,,,,,,,,,,,,,,,,,,,,,,,,,,,,,,,,,,,,,,,,,,,,,,,,,,,,,,,
1768972666.41599,1768972666.416401,60.0,0.0,4366.666504,4357.820313,4360.769043,4373.717773,4363.846191,4361.025879,4377.94873,4378.589844,4358.205078,4342.179688,4453.205078,4533.333496,4390.128418,4412.307617,,,,,,,,,,,,,,,,,,,,,,,,,,,,,,,,,,,,,,,,,,,,,,,,,,,,,,,,,,,,,,,,,,,,,,
1768972666.423799,1768972666.424209,61.0,0.0,4366.538574,4357.307617,4361.025879,4370.512695,4363.589844,4369.871582,4378.589844,4368.461426,4353.333496,4341.282227,4444.871582,4523.461426,4385.769043,4409.615234,,,,,,,,,,,,,,,,,,,,,,,,,,,,,,,,,,,,,,,,,,,,,,,,,,,,,,,,,,,,,,,,,,,,,,
1768972666.431607,1768972666.431918,62.0,0.0,4361.538574,4354.230957,4351.410156,4362.94873,4364.743652,4373.461426,4376.410156,4365.897461,4342.820313,4342.307617,4443.461426,4514.743652,4383.846191,4410.128418,0.542386,0.264815,0.188299,0.245227,0.12227,1.028392,0.202619,0.223047,0.173414,0.094103,0.617886,0.358425,0.09944,0.099286,0.128453,0.44495,0.171947,0.150476,0.081088,0.107326,0.31918,0.167301,0.229066,0.097982,0.067866,0.340697,0.190481,0.185454,0.195926,0.183224,0.495549,0.372551,0.182492,0.126456,0.196652,0.479374,0.279786,0.274021,0.288379,0.238695,0.61088,0.242859,0.226351,0.257661,0.172226,0.268628,0.523541,0.495879,0.180481,0.194499,0.60855,0.361147,0.357919,0.205765,0.133625,1.087632,1.020246,0.496542,0.271275,0.14573,0.558688,0.261352,0.417256,0.170418,0.106237,1.072902,0.500657,0.392854,0.235973,0.111411
1768972666.439416,1768972666.439726,63.0,0.0,4361.153809,4359.871582,4349.358887,4368.846191,4365.384766,4364.230957,4372.307617,4372.179688,4341.794922,4341.025879,4445.512695,4516.282227,4386.922852,4411.538574,,,,,,,,,,,,,,,,,,,,,,,,,,,,,,,,,,,,,,,,,,,,,,,,,,,,,,,,,,,,,,,,,,,,,,
1768972666.447224,1768972666.447335,64.0,0.0,4363.717773,4366.538574,4353.589844,4373.717773,4365.769043,4358.846191,4366.666504,4370.897461,4349.230957,4340.897461,4447.179688,4517.94873,4389.871582,4412.94873,,,,,,,,,,,,,,,,,,,,,,,,,,,,,,,,,,,,,,,,,,,,,,,,,,,,,,,,,,,,,,,,,,,,,,
1768972666.455032,1768972666.455143,65.0,0.0,4360.512695,4365.256348,4348.717773,4367.820313,4365.128418,4360.256348,4364.871582,4366.282227,4350.897461,4342.563965,4443.333496,4512.820313,4385.769043,4411.153809,,,,,,,,,,,,,,,,,,,,,,,,,,,,,,,,,,,,,,,,,,,,,,,,,,,,,,,,,,,,,,,,,,,,,,
1768972666.462841,1768972666.462852,66.0,0.0,4360.769043,4366.282227,4347.563965,4371.153809,4368.333496,4365.769043,4370.512695,4370.0,4349.743652,4340.769043,4441.794922,4514.615234,4381.282227,4412.563965,,,,,,,,,,,,,,,,,,,,,,,,,,,,,,,,,,,,,,,,,,,,,,,,,,,,,,,,,,,,,,,,,,,,,,
1768972666.470649,1768972666.47066,67.0,0.0,4367.94873,4371.794922,4355.512695,4379.487305,4372.179688,4372.94873,4372.436035,4374.102539,4354.102539,4339.102539,4447.307617,4526.282227,4384.230957,4417.05127,,,,,,,,,,,,,,,,,,,,,,,,,,,,,,,,,,,,,,,,,,,,,,,,,,,,,,,,,,,,,,,,,,,,,,
1768972666.478458,1768972666.478669,68.0,0.0,4366.538574,4371.153809,4352.94873,4374.615234,4369.871582,4374.358887,4373.974121,4374.487305,4358.589844,4341.922852,4449.102539,4526.153809,4387.179688,4415.256348,,,,,,,,,,,,,,,,,,,,,,,,,,,,,,,,,,,,,,,,,,,,,,,,,,,,,,,,,,,,,,,,,,,,,,
1768972666.486266,1768972666.486477,69.0,0.0,4362.563965,4368.717773,4346.410156,4370.256348,4367.05127,4371.538574,4377.563965,4376.025879,4355.128418,4343.333496,4443.717773,4518.461426,4383.205078,4410.897461,,,,,,,,,,,,,,,,,,,,,,,,,,,,,,,,,,,,,,,,,,,,,,,,,,,,,,,,,,,,,,,,,,,,,,
1768972666.494075,1768972666.494385,70.0,0.0,4370.256348,4375.641113,4350.384766,4377.563965,4371.153809,4371.666504,4375.641113,4373.717773,4344.358887,4340.384766,4443.717773,4525.0,4381.410156,4411.410156,,,,,,,,,,,,,,,,,,,,,,,,,,,,,,,,,,,,,,,,,,,,,,,,,,,,,,,,,,,,,,,,,,,,,,
1768972666.501883,1768972666.502194,71.0,0.0,4373.974121,4383.589844,4353.717773,4379.615234,4374.871582,4371.794922,4373.974121,4370.512695,4342.05127,4343.717773,4452.436035,4532.436035,4388.589844,4412.179688,,,,,,,,,,,,,,,,,,,,,,,,,,,,,,,,,,,,,,,,,,,,,,,,,,,,,,,,,,,,,,,,,,,,,,
1768972666.509692,1768972666.510202,72.0,0.0,4369.487305,4384.102539,4351.794922,4373.205078,4371.538574,4367.692383,4382.05127,4377.436035,4354.743652,4347.820313,4458.846191,4532.307617,4396.666504,4417.05127,,,,,,,,,,,,,,,,,,,,,,,,,,,,,,,,,,,,,,,,,,,,,,,,,,,,,,,,,,,,,,,,,,,,,,
1768972666.5175,1768972666.51801,73.0,0.0,4371.153809,4383.589844,4350.512695,4371.922852,4371.410156,4367.94873,4381.153809,4378.205078,4357.820313,4342.692383,4459.230957,4529.615234,4397.179688,4425.897461,,,,,,,,,,,,,,,,,,,,,,,,,,,,,,,,,,,,,,,,,,,,,,,,,,,,,,,,,,,,,,,,,,,,,,
1768972666.525308,1768972666.525719,74.0,0.0,4375.384766,4387.820313,4351.794922,4378.717773,4372.94873,4371.538574,4370.256348,4364.230957,4348.461426,4344.102539,4458.717773,4524.487305,4396.282227,4428.717773,,,,,,,,,,,,,,,,,,,,,,,,,,,,,,,,,,,,,,,,,,,,,,,,,,,,,,,,,,,,,,,,,,,,,,
1768972666.533117,1768972666.533527,75.0,0.0,4372.179688,4391.153809,4354.358887,4381.666504,4368.205078,4369.743652,4375.641113,4365.384766,4350.641113,4356.410156,4459.358887,4523.846191,4397.820313,4428.205078,,,,,,,,,,,,,,,,,,,,,,,,,,,,,,,,,,,,,,,,,,,,,,,,,,,,,,,,,,,,,,,,,,,,,,
1768972666.540925,1768972666.541536,76.0,0.0,4368.974121,4386.794922,4354.102539,4374.743652,4364.358887,4365.384766,4383.077148,4377.179688,4357.179688,4358.205078,4459.230957,4527.563965,4397.692383,4430.0,,,,,,,,,,,,,,,,,,,,,,,,,,,,,,,,,,,,,,,,,,,,,,,,,,,,,,,,,,,,,,,,,,,,,,
1768972666.548734,1768972666.549344,77.0,0.0,4371.922852,4382.692383,4352.05127,4371.025879,4366.538574,4361.922852,4373.077148,4376.538574,4354.871582,4350.128418,4457.692383,4527.307617,4397.05127,4431.025879,,,,,,,,,,,,,,,,,,,,,,,,,,,,,,,,,,,,,,,,,,,,,,,,,,,,,,,,,,,,,,,,,,,,,,
1768972666.556542,1768972666.557252,78.0,0.0,4370.897461,4382.820313,4349.871582,4373.461426,4364.615234,4356.922852,4366.794922,4370.769043,4352.307617,4348.717773,4458.974121,4522.563965,4396.025879,4429.487305,0.641127,0.242816,0.151885,0.211402,0.118481,1.242849,0.218331,0.167331,0.157643,0.100373,0.715631,0.361229,0.097819,0.103565,0.120108,0.471941,0.184421,0.133769,0.081606,0.100093,0.29745,0.14079,0.191852,0.108007,0.063657,0.341482,0.166491,0.177743,0.192513,0.190068,0.501888,0.278187,0.168721,0.134761,0.202642,0.52713,0.21563,0.231933,0.29706,0.224805,0.675902,0.210478,0.201275,0.242914,0.169041,0.28318,0.546211,0.446922,0.185424,0.217529,0.607405,0.281351,0.387017,0.21019,0.133955,1.125664,0.958404,0.586175,0.252535,0.150445,0.615423,0.220597,0.369322,0.165536,0.102803,1.103846,0.406278,0.297944,0.211844,0.104433
1768972666.564351,1768972666.565061,79.0,0.0,4366.025879,4382.179688,4348.589844,4373.846191,4360.512695,4355.0,4372.563965,4365.641113,4351.153809,4350.512695,4460.641113,4520.256348,4395.384766,4429.743652,,,,,,,,,,,,,,,,,,,,,,,,,,,,,,,,,,,,,,,,,,,,,,,,,,,,,,,,,,,,,,,,,,,,,,
1768972666.572159,1768972666.572769,80.0,0.0,4365.769043,4380.512695,4349.102539,4371.538574,4364.871582,4361.025879,4372.307617,4367.692383,4352.436035,4351.410156,4461.153809,4526.410156,4397.820313,4429.358887,,,,,,,,,,,,,,,,,,,,,,,,,,,,,,,,,,,,,,,,,,,,,,,,,,,,,,,,,,,,,,,,,,,,,,
1768972666.579968,1768972666.580578,81.0,0.0,4365.897461,4381.282227,4351.282227,4372.692383,4369.102539,4369.230957,4370.128418,4377.179688,4358.333496,4349.230957,4460.897461,4529.487305,4397.692383,4427.692383,,,,,,,,,,,,,,,,,,,,,,,,,,,,,,,,,,,,,,,,,,,,,,,,,,,,,,,,,,,,,,,,,,,,,,
1768972666.587776,1768972666.588286,82.0,0.0,4364.102539,4378.717773,4351.153809,4375.0,4366.025879,4372.436035,4378.589844,4377.436035,4357.307617,4342.820313,4457.307617,4521.922852,4387.692383,4424.743652,,,,,,,,,,,,,,,,,,,,,,,,,,,,,,,,,,,,,,,,,,,,,,,,,,,,,,,,,,,,,,,,,,,,,,
1768972666.595585,1768972666.596095,83.0,0.0,4363.333496,4371.282227,4349.743652,4372.179688,4364.358887,4371.538574,4382.179688,4376.153809,4356.282227,4341.025879,4453.717773,4517.179688,4381.282227,4419.743652,,,,,,,,,,,,,,,,,,,,,,,,,,,,,,,,,,,,,,,,,,,,,,,,,,,,,,,,,,,,,,,,,,,,,,
1768972666.603393,1768972666.604103,84.0,0.0,4364.487305,4371.922852,4348.974121,4367.692383,4366.025879,4370.256348,4375.256348,4382.179688,4364.102539,4341.025879,4455.897461,4519.615234,4389.871582,4420.128418,,,,,,,,,,,,,,,,,,,,,,,,,,,,,,,,,,,,,,,,,,,,,,,,,,,,,,,,,,,,,,,,,,,,,,
1768972666.611201,1768972666.611912,85.0,0.0,4369.230957,4381.025879,4350.769043,4373.077148,4366.025879,4364.615234,4372.436035,4382.05127,4365.512695,4346.538574,4462.820313,4521.538574,4400.512695,4429.743652,,,,,,,,,,,,,,,,,,,,,,,,,,,,,,,,,,,,,,,,,,,,,,,,,,,,,,,,,,,,,,,,,,,,,,
1768972666.61901,1768972666.61962,86.0,0.0,4375.128418,4388.717773,4355.128418,4380.897461,4369.743652,4362.94873,4374.871582,4375.897461,4362.692383,4357.307617,4461.666504,4519.871582,4399.615234,4431.922852,,,,,,,,,,,,,,,,,,,,,,,,,,,,,,,,,,,,,,,,,,,,,,,,,,,,,,,,,,,,,,,,,,,,,,
1768972666.626818,1768972666.627429,87.0,0.0,4373.205078,4389.487305,4354.102539,4377.563965,4372.436035,4367.94873,4374.102539,4373.846191,4362.436035,4351.538574,4451.153809,4511.025879,4392.436035,4417.692383,,,,,,,,,,,,,,,,,,,,,,,,,,,,,,,,,,,,,,,,,,,,,,,,,,,,,,,,,,,,,,,,,,,,,,
1768972666.634627,1768972666.635037,88.0,0.0,4365.128418,4383.589844,4347.94873,4370.0,4365.128418,4364.230957,4369.871582,4370.641113,4358.077148,4339.615234,4444.230957,4505.897461,4387.820313,4412.179688,,,,,,,,,,,,,,,,,,,,,,,,,,,,,,,,,,,,,,,,,,,,,,,,,,,,,,,,,,,,,,,,,,,,,,
1768972666.642435,1768972666.642846,89.0,0.0,4364.743652,4380.256348,4347.820313,4372.05127,4361.025879,4360.256348,4368.717773,4366.410156,4355.256348,4345.128418,4446.922852,4512.692383,4387.563965,4424.487305,,,,,,,,,,,,,,,,,,,,,,,,,,,,,,,,,,,,,,,,,,,,,,,,,,,,,,,,,,,,,,,,,,,,,,
1768972666.650244,1768972666.650554,90.0,0.0,4372.692383,4383.589844,4355.0,4378.461426,4370.769043,4365.897461,4372.05127,4368.717773,4357.692383,4348.589844,4449.487305,4518.077148,4388.589844,4429.487305,,,,,,,,,,,,,,,,,,,,,,,,,,,,,,,,,,,,,,,,,,,,,,,,,,,,,,,,,,,,,,,,,,,,,,
1768972666.658052,1768972666.658363,91.0,0.0,4372.94873,4386.282227,4354.615234,4377.179688,4375.256348,4367.307617,4376.282227,4370.641113,4356.410156,4344.358887,4444.743652,4515.512695,4389.102539,4417.820313,,,,,,,,,,,,,,,,,,,,,,,,,,,,,,,,,,,,,,,,,,,,,,,,,,,,,,,,,,,,,,,,,,,,,,
1768972666.66586,1768972666.666371,92.0,0.0,4364.102539,4380.256348,4346.153809,4367.94873,4365.897461,4361.922852,4375.384766,4371.282227,4358.333496,4347.94873,4449.487305,4515.641113,4389.615234,4414.615234,,,,,,,,,,,,,,,,,,,,,,,,,,,,,,,,,,,,,,,,,,,,,,,,,,,,,,,,,,,,,,,,,,,,,,
1768972666.673669,1768972666.674179,93.0,0.0,4361.538574,4373.717773,4346.922852,4364.743652,4361.794922,4364.230957,4373.589844,4373.205078,4365.512695,4348.333496,4459.102539,4520.256348,4396.282227,4424.615234,,,,,,,,,,,,,,,,,,,,,,,,,,,,,,,,,,,,,,,,,,,,,,,,,,,,,,,,,,,,,,,,,,,,,,
1768972666.681477,1768972666.682088,94.0,0.0,4367.563965,4376.025879,4353.333496,4372.563965,4365.641113,4369.102539,4374.358887,4369.102539,4361.025879,4340.0,4453.974121,4519.102539,4394.102539,4426.153809,0.699262,0.218976,0.113012,0.178427,0.114457,1.410116,0.260167,0.133254,0.149177,0.105319,0.756616,0.335799,0.100995,0.110964,0.111008,0.472817,0.183712,0.117236,0.087106,0.093243,0.277644,0.125033,0.16628,0.115232,0.061442,0.341657,0.155581,0.165445,0.185289,0.191467,0.491839,0.196564,0.149216,0.138605,0.200216,0.540319,0.159454,0.18336,0.286174,0.209386,0.755875,0.184659,0.171603,0.223691,0.168394,0.276988,0.521657,0.385163,0.19092,0.236728,0.577488,0.218501,0.404867,0.216414,0.131731,1.045877,0.879295,0.656336,0.225004,0.154745,0.64529,0.182434,0.302551,0.161373,0.096094,0.99759,0.317004,0.209461,0.190463,0.105412
1768972666.689286,1768972666.689896,95.0,0.0,4368.205078,4382.179688,4353.589844,4376.922852,4366.794922,4364.102539,4374.615234,4363.333496,4353.461426,4337.307617,4441.025879,4513.589844,4382.307617,4420.641113,,,,,,,,,,,,,,,,,,,,,,,,,,,,,,,,,,,,,,,,,,,,,,,,,,,,,,,,,,,,,,,,,,,,,,
1768972666.697094,1768972666.697904,96.0,0.0,4364.871582,4385.256348,4350.384766,4373.205078,4365.512695,4360.512695,4375.512695,4365.128418,4356.666504,4342.563965,4440.384766,4510.128418,4385.384766,4416.410156,,,,,,,,,,,,,,,,,,,,,,,,,,,,,,,,,,,,,,,,,,,,,,,,,,,,,,,,,,,,,,,,,,,,,,
1768972666.704903,1768972666.705713,97.0,0.0,4369.487305,4383.974121,4350.641113,4371.538574,4366.282227,4365.0,4376.025879,4369.230957,4359.358887,4340.512695,4452.94873,4510.897461,4399.358887,4416.922852,,,,,,,,,,,,,,,,,,,,,,,,,,,,,,,,,,,,,,,,,,,,,,,,,,,,,,,,,,,,,,,,,,,,,,
1768972666.712711,1768972666.713621,98.0,0.0,4374.102539,4384.615234,4353.461426,4373.461426,4365.641113,4366.025879,4374.102539,4369.230957,4358.461426,4334.871582,4460.769043,4513.974121,4401.153809,4426.666504,,,,,,,,,,,,,,,,,,,,,,,,,,,,,,,,,,,,,,,,,,,,,,,,,,,,,,,,,,,,,,,,,,,,,,
1768972666.720519,1768972666.72143,99.0,0.0,4368.846191,4384.743652,4350.0,4375.512695,4367.05127,4367.94873,4375.897461,4369.487305,4361.410156,4341.794922,4459.487305,4510.641113,4396.922852,4430.641113,,,,,,,,,,,,,,,,,,,,,,,,,,,,,,,,,,,,,,,,,,,,,,,,,,,,,,,,,,,,,,,,,,,,,,
1768972666.728328,1768972666.729038,100.0,0.0,4363.974121,4379.743652,4344.358887,4371.282227,4368.461426,4372.820313,4381.410156,4375.256348,4365.128418,4349.230957,4455.897461,4506.025879,4398.077148,4419.230957,,,,,,,,,,,,,,,,,,,,,,,,,,,,,,,,,,,,,,,,,,,,,,,,,,,,,,,,,,,,,,,,,,,,,,
1768972666.736136,1768972666.736847,101.0,0.0,4364.358887,4374.743652,4346.282227,4365.0,4359.743652,4365.641113,4376.153809,4376.410156,4364.358887,4342.563965,4458.333496,4508.077148,4396.410156,4417.563965,,,,,,,,,,,,,,,,,,,,,,,,,,,,,,,,,,,,,,,,,,,,,,,,,,,,,,,,,,,,,,,,,,,,,,
1768972666.743945,1768972666.744755,102.0,0.0,4365.256348,4373.077148,4348.589844,4365.512695,4356.410156,4358.077148,4365.0,4368.461426,4358.974121,4337.563965,4460.384766,4514.230957,4395.384766,4429.102539,,,,,,,,,,,,,,,,,,,,,,,,,,,,,,,,,,,,,,,,,,,,,,,,,,,,,,,,,,,,,,,,,,,,,,
1768972666.751753,1768972666.752564,103.0,0.0,4366.794922,4372.179688,4347.563965,4370.641113,4362.307617,4364.487305,4367.94873,4369.102539,4354.743652,4343.205078,4458.974121,4518.846191,4398.589844,4428.077148,,,,,,,,,,,,,,,,,,,,,,,,,,,,,,,,,,,,,,,,,,,,,,,,,,,,,,,,,,,,,,,,,,,,,,
1768972666.759562,1768972666.760272,104.0,0.0,4366.282227,4371.153809,4347.436035,4368.205078,4361.025879,4365.0,4375.256348,4375.641113,4360.0,4347.307617,4462.94873,4517.307617,4399.230957,4425.897461,,,,,,,,,,,,,,,,,,,,,,,,,,,,,,,,,,,,,,,,,,,,,,,,,,,,,,,,,,,,,,,,,,,,,,
1768972666.76737,1768972666.768081,105.0,0.0,4357.563965,4366.666504,4340.641113,4360.256348,4356.153809,4353.461426,4369.358887,4372.05127,4364.358887,4346.410156,4463.333496,4507.436035,4399.102539,4427.94873,,,,,,,,,,,,,,,,,,,,,,,,,,,,,,,,,,,,,,,,,,,,,,,,,,,,,,,,,,,,,,,,,,,,,,
1768972666.775179,1768972666.775789,106.0,0.0,4353.205078,4358.461426,4335.256348,4356.025879,4357.563965,4357.05127,4364.871582,4367.563965,4361.794922,4342.820313,4458.717773,4499.358887,4396.922852,4423.077148,,,,,,,,,,,,,,,,,,,,,,,,,,,,,,,,,,,,,,,,,,,,,,,,,,,,,,,,,,,,,,,,,,,,,,
1768972666.782987,1768972666.783598,107.0,0.0,4365.256348,4358.077148,4344.487305,4361.410156,4357.820313,4369.487305,4371.666504,4369.230957,4363.077148,4339.102539,4458.333496,4504.102539,4396.025879,4429.871582,,,,,,,,,,,,,,,,,,,,,,,,,,,,,,,,,,,,,,,,,,,,,,,,,,,,,,,,,,,,,,,,,,,,,,
1768972666.790795,1768972666.791206,108.0,0.0,4376.153809,4367.820313,4353.333496,4371.794922,4355.256348,4368.846191,4373.846191,4369.230957,4367.179688,4343.461426,4460.512695,4510.769043,4398.333496,4440.256348,,,,,,,,,,,,,,,,,,,,,,,,,,,,,,,,,,,,,,,,,,,,,,,,,,,,,,,,,,,,,,,,,,,,,,
1768972666.798604,1768972666.799015,109.0,0.0,4375.641113,4373.461426,4349.230957,4374.615234,4360.384766,4367.692383,4373.589844,4372.05127,4371.025879,4349.102539,4459.871582,4507.179688,4400.641113,4431.410156,,,,,,,,,,,,,,,,,,,,,,,,,,,,,,,,,,,,,,,,,,,,,,,,,,,,,,,,,,,,,,,,,,,,,,
1768972666.806412,1768972666.806923,110.0,0.0,4371.794922,4372.820313,4345.512695,4373.461426,4364.358887,4375.512695,4382.820313,4376.922852,4372.692383,4345.769043,4458.589844,4504.358887,4401.794922,4425.256348,0.691314,0.195848,0.077246,0.153771,0.109471,1.52579,0.330236,0.126318,0.148433,0.107424,0.720573,0.283348,0.107373,0.118034,0.102112,0.442271,0.170108,0.102993,0.094994,0.089545,0.265715,0.119475,0.15025,0.118806,0.061385,0.347605,0.155329,0.152989,0.17677,0.187669,0.472094,0.142738,0.130298,0.137558,0.191262,0.513873,0.127498,0.143286,0.256548,0.1972,0.82181,0.181109,0.150299,0.199873,0.168819,0.255335,0.460662,0.3281,0.191849,0.248693,0.538889,0.196119,0.409699,0.22513,0.129556,0.876322,0.823382,0.681086,0.199016,0.157427,0.633279,0.155802,0.23866,0.155545,0.087591,0.786804,0.248598,0.150293,0.17652,0.114665
1768972666.814221,1768972666.814731,111.0,0.0,4368.333496,4369.487305,4346.025879,4374.230957,4361.666504,4378.333496,4383.846191,4370.897461,4367.307617,4346.666504,4458.589844,4512.179688,4401.282227,4430.384766,,,,,,,,,,,,,,,,,,,,,,,,,,,,,,,,,,,,,,,,,,,,,,,,,,,,,,,,,,,,,,,,,,,,,,
1768972666.822029,1768972666.82234,112.0,0.0,4370.641113,4370.897461,4347.820313,4373.589844,4357.307617,4370.0,4373.974121,4365.0,4367.179688,4350.256348,4464.871582,4518.333496,4400.897461,4431.794922,,,,,,,,,,,,,,,,,,,,,,,,,,,,,,,,,,,,,,,,,,,,,,,,,,,,,,,,,,,,,,,,,,,,,,
1768972666.829838,1768972666.830149,113.0,0.0,4378.461426,4376.410156,4353.846191,4376.025879,4354.615234,4366.410156,4376.153809,4369.230957,4372.179688,4345.0,4473.333496,4514.102539,4404.230957,4437.307617,,,,,,,,,,,,,,,,,,,,,,,,,,,,,,,,,,,,,,,,,,,,,,,,,,,,,,,,,,,,,,,,,,,,,,
1768972666.837646,1768972666.837857,114.0,0.0,4382.94873,4378.077148,4357.436035,4381.025879,4358.333496,4371.025879,4380.384766,4370.769043,4371.538574,4345.512695,4466.922852,4516.282227,4402.94873,4442.307617,,,,,,,,,,,,,,,,,,,,,,,,,,,,,,,,,,,,,,,,,,,,,,,,,,,,,,,,,,,,,,,,,,,,,,
1768972666.845455,1768972666.845666,115.0,0.0,4383.461426,4378.333496,4355.384766,4382.179688,4360.384766,4372.563965,4373.846191,4364.743652,4369.487305,4356.025879,4457.94873,4522.307617,4394.871582,4433.205078,,,,,,,,,,,,,,,,,,,,,,,,,,,,,,,,,,,,,,,,,,,,,,,,,,,,,,,,,,,,,,,,,,,,,,
1768972666.853263,1768972666.853274,116.0,0.0,4379.487305,4382.307617,4351.922852,4381.282227,4357.307617,4371.153809,4373.333496,4367.563965,4372.94873,4358.333496,4466.410156,4517.307617,4400.256348,4427.436035,,,,,,,,,,,,,,,,,,,,,,,,,,,,,,,,,,,,,,,,,,,,,,,,,,,,,,,,,,,,,,,,,,,,,,
1768972666.861071,1768972666.861083,117.0,0.0,4373.974121,4380.897461,4350.0,4380.897461,4358.589844,4369.871582,4376.794922,4376.666504,4377.94873,4353.974121,4476.794922,4513.461426,4411.666504,4432.307617,,,,,,,,,,,,,,,,,,,,,,,,,,,,,,,,,,,,,,,,,,,,,,,,,,,,,,,,,,,,,,,,,,,,,,
1768972666.86888,1768972666.868791,118.0,0.0,4374.358887,4374.743652,4351.794922,4378.333496,4362.436035,4372.94873,4373.333496,4378.846191,4380.897461,4353.589844,4475.769043,4518.846191,4408.205078,4438.077148,,,,,,,,,,,,,,,,,,,,,,,,,,,,,,,,,,,,,,,,,,,,,,,,,,,,,,,,,,,,,,,,,,,,,,
1768972666.876688,1768972666.8766,119.0,0.0,4376.025879,4376.666504,4352.05127,4382.307617,4363.333496,4375.897461,4375.512695,4375.641113,4377.307617,4352.179688,4468.205078,4515.769043,4403.077148,4436.922852,,,,,,,,,,,,,,,,,,,,,,,,,,,,,,,,,,,,,,,,,,,,,,,,,,,,,,,,,,,,,,,,,,,,,,
1768972666.884497,1768972666.884608,120.0,0.0,4375.128418,4380.384766,4351.410156,4388.974121,4365.897461,4375.0,4382.820313,4369.743652,4370.0,4352.05127,4461.282227,4506.282227,4408.461426,4433.974121,,,,,,,,,,,,,,,,,,,,,,,,,,,,,,,,,,,,,,,,,,,,,,,,,,,,,,,,,,,,,,,,,,,,,,
1768972666.892305,1768972666.892416,121.0,0.0,4378.077148,4377.05127,4355.641113,4385.128418,4369.230957,4371.282227,4379.230957,4370.256348,4372.307617,4352.436035,4460.641113,4513.205078,4408.589844,4436.538574,,,,,,,,,,,,,,,,,,,,,,,,,,,,,,,,,,,,,,,,,,,,,,,,,,,,,,,,,,,,,,,,,,,,,,
1768972666.900114,1768972666.900325,122.0,0.0,4376.538574,4372.436035,4353.974121,4380.0,4364.871582,4369.230957,4373.461426,4374.358887,4374.487305,4351.153809,4462.692383,4521.922852,4400.897461,4437.05127,,,,,,,,,,,,,,,,,,,,,,,,,,,,,,,,,,,,,,,,,,,,,,,,,,,,,,,,,,,,,,,,,,,,,,
1768972666.907922,1768972666.908133,123.0,0.0,4367.94873,4370.128418,4341.666504,4378.846191,4362.179688,4372.05127,4373.717773,4372.692383,4368.461426,4351.794922,4460.256348,4515.0,4397.692383,4427.436035,,,,,,,,,,,,,,,,,,,,,,,,,,,,,,,,,,,,,,,,,,,,,,,,,,,,,,,,,,,,,,,,,,,,,,
1768972666.915731,1768972666.916141,124.0,0.0,4367.436035,4368.846191,4339.487305,4375.769043,4364.487305,4373.846191,4374.230957,4368.717773,4364.102539,4343.846191,4456.282227,4510.769043,4397.05127,4423.974121,,,,,,,,,,,,,,,,,,,,,,,,,,,,,,,,,,,,,,,,,,,,,,,,,,,,,,,,,,,,,,,,,,,,,,
1768972666.923539,1768972666.92395,125.0,0.0,4373.974121,4370.0,4349.743652,4377.94873,4362.692383,4369.358887,4374.102539,4367.820313,4366.282227,4342.563965,4462.307617,4518.846191,4401.538574,4435.641113,,,,,,,,,,,,,,,,,,,,,,,,,,,,,,,,,,,,,,,,,,,,,,,,,,,,,,,,,,,,,,,,,,,,,,
1768972666.931347,1768972666.931658,126.0,0.0,4375.256348,4370.769043,4353.717773,4382.436035,4363.846191,4367.94873,4373.589844,4369.743652,4371.922852,4356.025879,4468.974121,4524.487305,4407.307617,4442.692383,0.613631,0.179852,0.049551,0.140142,0.103432,1.618022,0.422544,0.140814,0.151631,0.105509,0.613732,0.216393,0.111485,0.121228,0.094095,0.391121,0.148508,0.092118,0.101476,0.090958,0.270766,0.120155,0.13712,0.117676,0.063244,0.363268,0.165416,0.147345,0.171114,0.179881,0.443271,0.121659,0.118386,0.132558,0.178902,0.449765,0.124883,0.12003,0.21482,0.19133,0.835511,0.20557,0.148112,0.173303,0.16863,0.227247,0.386522,0.286572,0.185576,0.252539,0.517069,0.215465,0.398071,0.235684,0.129714,0.680244,0.816144,0.645719,0.182052,0.157934,0.579652,0.144813,0.192933,0.148281,0.079726,0.546873,0.210891,0.126927,0.170339,0.130307
1768972666.939156,1768972666.939467,127.0,0.0,4370.512695,4365.641113,4347.692383,4378.589844,4368.717773,4369.615234,4371.666504,4371.538574,4372.563965,4359.871582,4464.615234,4519.743652,4406.922852,4442.692383,,,,,,,,,,,,,,,,,,,,,,,,,,,,,,,,,,,,,,,,,,,,,,,,,,,,,,,,,,,,,,,,,,,,,,
1768972666.946964,1768972666.947475,0.0,0.0,4368.461426,4366.025879,4342.436035,4372.692383,4366.666504,4368.205078,4374.487305,4371.794922,4369.230957,4352.436035,4460.897461,4515.512695,4403.846191,4443.717773,,,,,,,,,,,,,,,,,,,,,,,,,,,,,,,,,,,,,,,,,,,,,,,,,,,,,,,,,,,,,,,,,,,,,,
1768972666.954773,1768972666.955283,1.0,0.0,4373.461426,4372.692383,4347.563965,4375.128418,4360.256348,4370.512695,4379.615234,4372.94873,4372.820313,4351.282227,4466.922852,4515.769043,4401.666504,4441.025879,,,,,,,,,,,,,,,,,,,,,,,,,,,,,,,,,,,,,,,,,,,,,,,,,,,,,,,,,,,,,,,,,,,,,,
1768972666.962581,1768972666.962992,2.0,0.0,4375.384766,4368.846191,4351.153809,4379.102539,4361.538574,4375.512695,4376.922852,4375.128418,4372.94873,4350.0,4466.410156,4512.563965,4398.717773,4434.615234,,,,,,,,,,,,,,,,,,,,,,,,,,,,,,,,,,,,,,,,,,,,,,,,,,,,,,,,,,,,,,,,,,,,,,
1768972666.97039,1768972666.9708,3.0,0.0,4370.641113,4358.717773,4346.922852,4376.025879,4363.717773,4374.487305,4371.538574,4373.974121,4362.692383,4344.358887,4457.94873,4507.563965,4394.615234,4431.025879,,,,,,,,,,,,,,,,,,,,,,,,,,,,,,,,,,,,,,,,,,,,,,,,,,,,,,,,,,,,,,,,,,,,,,
1768972666.978198,1768972666.978409,4.0,0.0,4367.179688,4357.05127,4346.025879,4373.205078,4362.436035,4372.179688,4373.461426,4372.94873,4361.666504,4342.820313,4458.461426,4508.333496,4396.282227,4431.538574,,,,,,,,,,,,,,,,,,,,,,,,,,,,,,,,,,,,,,,,,,,,,,,,,,,,,,,,,,,,,,,,,,,,,,
1768972666.986007,1768972666.986218,5.0,0.0,4366.666504,4359.230957,4347.692383,4376.153809,4363.077148,4371.410156,4376.025879,4370.256348,4365.897461,4341.538574,4461.794922,4504.615234,4399.102539,4427.820313,,,,,,,,,,,,,,,,,,,,,,,,,,,,,,,,,,,,,,,,,,,,,,,,,,,,,,,,,,,,,,,,,,,,,,
1768972666.993815,1768972666.993926,6.0,0.0,4366.538574,4358.333496,4344.487305,4377.436035,4362.05127,4368.589844,4373.333496,4364.743652,4361.153809,4342.05127,4459.102539,4498.589844,4396.025879,4425.384766,,,,,,,,,,,,,,,,,,,,,,,,,,,,,,,,,,,,,,,,,,,,,,,,,,,,,,,,,,,,,,,,,,,,,,
1768972667.001624,1768972667.001735,7.0,0.0,4366.922852,4362.563965,4342.307617,4372.179688,4363.333496,4365.512695,4372.820313,4365.384766,4360.256348,4341.922852,4457.307617,4503.461426,4395.0,4428.333496,,,,,,,,,,,,,,,,,,,,,,,,,,,,,,,,,,,,,,,,,,,,,,,,,,,,,,,,,,,,,,,,,,,,,,
1768972667.009432,1768972667.009743,8.0,0.0,4368.205078,4367.692383,4345.384766,4371.538574,4366.794922,4363.461426,4375.384766,4368.589844,4362.820313,4337.436035,4460.384766,4510.897461,4397.307617,4431.282227,,,,,,,,,,,,,,,,,,,,,,,,,,,,,,,,,,,,,,,,,,,,,,,,,,,,,,,,,,,,,,,,,,,,,,
1768972667.01724,1768972667.017551,9.0,0.0,4372.05127,4361.410156,4345.0,4373.717773,4362.307617,4361.538574,4373.846191,4365.0,4357.179688,4341.794922,4460.512695,4510.641113,4396.153809,4430.384766,,,,,,,,,,,,,,,,,,,,,,,,,,,,,,,,,,,,,,,,,,,,,,,,,,,,,,,,,,,,,,,,,,,,,,
1768972667.025049,1768972667.02546,10.0,0.0,4373.974121,4352.94873,4344.871582,4371.025879,4359.615234,4364.358887,4370.897461,4362.692383,4356.410156,4352.05127,4459.358887,4510.128418,4400.512695,4431.025879,,,,,,,,,,,,,,,,,,,,,,,,,,,,,,,,,,,,,,,,,,,,,,,,,,,,,,,,,,,,,,,,,,,,,,
1768972667.032857,1768972667.033268,11.0,0.0,4372.820313,4357.05127,4348.846191,4371.538574,4366.922852,4368.333496,4372.820313,4370.897461,4366.922852,4351.538574,4468.461426,4519.102539,4412.307617,4437.05127,,,,,,,,,,,,,,,,,,,,,,,,,,,,,,,,,,,,,,,,,,,,,,,,,,,,,,,,,,,,,,,,,,,,,,
1768972667.040666,1768972667.040877,12.0,0.0,4373.846191,4363.974121,4350.384766,4373.974121,4366.153809,4368.717773,4377.820313,4376.153809,4368.461426,4346.922852,4475.128418,4525.897461,4411.153809,4444.743652,,,,,,,,,,,,,,,,,,,,,,,,,,,,,,,,,,,,,,,,,,,,,,,,,,,,,,,,,,,,,,,,,,,,,,
1768972667.048474,1768972667.048685,13.0,0.0,4374.487305,4359.230957,4349.487305,4373.461426,4360.128418,4362.692383,4371.922852,4373.589844,4362.307617,4346.666504,4466.282227,4519.743652,4402.179688,4443.077148,,,,,,,,,,,,,,,,,,,,,,,,,,,,,,,,,,,,,,,,,,,,,,,,,,,,,,,,,,,,,,,,,,,,,,
1768972667.056283,1768972667.056394,14.0,0.0,4371.025879,4353.205078,4348.205078,4375.256348,4365.256348,4362.05127,4364.743652,4371.025879,4362.179688,4344.615234,4458.846191,4513.717773,4406.282227,4435.128418,0.491282,0.176063,0.032758,0.136838,0.097591,1.694671,0.524744,0.164076,0.154223,0.099934,0.46563,0.152324,0.10885,0.11987,0.087765,0.33402,0.126567,0.083996,0.103807,0.09814,0.29826,0.124576,0.120992,0.111805,0.066701,0.382985,0.186955,0.15564,0.171189,0.169971,0.406863,0.129753,0.117295,0.125077,0.16631,0.366297,0.143446,0.114843,0.171474,0.191167,0.783079,0.248573,0.168521,0.147753,0.166443,0.204849,0.32249,0.25918,0.173406,0.249207,0.535106,0.25837,0.367391,0.246374,0.133641,0.509033,0.851063,0.55616,0.175942,0.156637,0.502918,0.148679,0.169672,0.143251,0.075156,0.358536,0.201511,0.131137,0.168068,0.149995
1768972667.064091,1768972667.064202,15.0,0.0,4373.205078,4363.333496,4348.205078,4378.589844,4368.205078,4368.333496,4370.641113,4369.615234,4363.589844,4343.717773,4462.94873,4515.512695,4414.230957,4435.512695,,,,,,,,,,,,,,,,,,,,,,,,,,,,,,,,,,,,,,,,,,,,,,,,,,,,,,,,,,,,,,,,,,,,,,
1768972667.0719,1768972667.07221,16.0,0.0,4380.256348,4373.077148,4350.641113,4377.05127,4361.538574,4363.205078,4371.666504,4366.794922,4357.563965,4343.589844,4463.333496,4518.333496,4412.692383,4443.589844,,,,,,,,,,,,,,,,,,,,,,,,,,,,,,,,,,,,,,,,,,,,,,,,,,,,,,,,,,,,,,,,,,,,,,
1768972667.079708,1768972667.080019,17.0,0.0,4379.102539,4364.230957,4351.538574,4374.102539,4362.563965,4357.307617,4364.743652,4365.897461,4355.641113,4343.717773,4458.333496,4518.974121,4408.205078,4446.153809,,,,,,,,,,,,,,,,,,,,,,,,,,,,,,,,,,,,,,,,,,,,,,,,,,,,,,,,,,,,,,,,,,,,,,
1768972667.087516,1768972667.087927,18.0,0.0,4371.025879,4356.153809,4348.333496,4373.205078,4366.282227,4364.102539,4367.563965,4372.563965,4365.769043,4347.307617,4459.871582,4519.230957,4407.94873,4441.282227,,,,,,,,,,,,,,,,,,,,,,,,,,,,,,,,,,,,,,,,,,,,,,,,,,,,,,,,,,,,,,,,,,,,,,
1768972667.095325,1768972667.095736,19.0,0.0,4371.410156,4356.922852,4345.641113,4373.333496,4361.410156,4366.025879,4374.743652,4377.307617,4369.102539,4348.717773,4463.589844,4517.820313,4411.282227,4439.230957,,,,,,,,,,,,,,,,,,,,,,,,,,,,,,,,,,,,,,,,,,,,,,,,,,,,,,,,,,,,,,,,,,,,,,
1768972667.103133,1768972667.103744,20.0,0.0,4378.333496,4356.922852,4348.333496,4376.153809,4359.102539,4361.794922,4372.692383,4369.743652,4363.077148,4345.897461,4464.102539,4515.0,4413.333496,4442.05127,,,,,,,,,,,,,,,,,,,,,,,,,,,,,,,,,,,,,,,,,,,,,,,,,,,,,,,,,,,,,,,,,,,,,,
1768972667.110942,1768972667.111552,21.0,0.0,4380.512695,4361.922852,4352.563965,4379.615234,4362.563965,4365.256348,4369.743652,4362.563965,4362.179688,4346.153809,4463.846191,4514.102539,4411.282227,4443.974121,,,,,,,,,,,,,,,,,,,,,,,,,,,,,,,,,,,,,,,,,,,,,,,,,,,,,,,,,,,,,,,,,,,,,,
1768972667.11875,1768972667.119461,22.0,0.0,4381.025879,4367.179688,4353.461426,4382.563965,4360.769043,4368.974121,4373.846191,4371.410156,4365.512695,4351.153809,4463.846191,4516.410156,4410.256348,4445.512695,,,,,,,,,,,,,,,,,,,,,,,,,,,,,,,,,,,,,,,,,,,,,,,,,,,,,,,,,,,,,,,,,,,,,,
1768972667.126559,1768972667.127269,23.0,0.0,4379.102539,4360.0,4348.461426,4380.769043,4356.794922,4364.871582,4373.589844,4376.282227,4368.974121,4351.538574,4464.871582,4522.436035,4411.538574,4444.230957,,,,,,,,,,,,,,,,,,,,,,,,,,,,,,,,,,,,,,,,,,,,,,,,,,,,,,,,,,,,,,,,,,,,,,
1768972667.134367,1768972667.135277,24.0,0.0,4375.641113,4354.102539,4344.358887,4374.743652,4359.102539,4360.0,4366.666504,4363.846191,4367.307617,4343.333496,4462.820313,4522.436035,4408.717773,4442.179688,,,,,,,,,,,,,,,,,,,,,,,,,,,,,,,,,,,,,,,,,,,,,,,,,,,,,,,,,,,,,,,,,,,,,,
1768972667.142175,1768972667.143086,25.0,0.0,4376.025879,4360.512695,4347.692383,4374.615234,4362.307617,4358.846191,4366.538574,4360.512695,4363.461426,4338.974121,4457.820313,4514.230957,4398.461426,4441.410156,,,,,,,,,,,,,,,,,,,,,,,,,,,,,,,,,,,,,,,,,,,,,,,,,,,,,,,,,,,,,,,,,,,,,,
1768972667.149984,1768972667.150794,26.0,0.0,4378.717773,4365.512695,4357.563965,4381.922852,4365.512695,4364.358887,4377.94873,4372.94873,4368.974121,4349.615234,4462.307617,4519.230957,4394.743652,4441.666504,,,,,,,,,,,,,,,,,,,,,,,,,,,,,,,,,,,,,,,,,,,,,,,,,,,,,,,,,,,,,,,,,,,,,,
1768972667.157792,1768972667.158603,27.0,0.0,4383.077148,4364.743652,4364.487305,4384.743652,4370.512695,4373.333496,4385.512695,4380.384766,4378.205078,4360.256348,4474.230957,4534.230957,4407.692383,4443.717773,,,,,,,,,,,,,,,,,,,,,,,,,,,,,,,,,,,,,,,,,,,,,,,,,,,,,,,,,,,,,,,,,,,,,,
1768972667.165601,1768972667.166211,28.0,0.0,4387.436035,4364.358887,4359.102539,4379.487305,4370.384766,4373.333496,4380.128418,4375.256348,4374.615234,4357.94873,4478.077148,4533.974121,4416.410156,4447.692383,,,,,,,,,,,,,,,,,,,,,,,,,,,,,,,,,,,,,,,,,,,,,,,,,,,,,,,,,,,,,,,,,,,,,,
1768972667.173409,1768972667.17402,29.0,0.0,4389.487305,4370.512695,4354.743652,4379.102539,4366.538574,4366.153809,4374.743652,4370.897461,4369.358887,4354.743652,4474.487305,4529.230957,4412.179688,4450.128418,,,,,,,,,,,,,,,,,,,,,,,,,,,,,,,,,,,,,,,,,,,,,,,,,,,,,,,,,,,,,,,,,,,,,,
1768972667.181218,1768972667.181728,30.0,0.0,4393.205078,4381.153809,4359.871582,4385.256348,4370.512695,4364.487305,4374.230957,4369.230957,4370.897461,4355.512695,4474.358887,4529.102539,4412.179688,4448.205078,0.368512,0.186527,0.026345,0.143057,0.093463,1.764854,0.620542,0.186306,0.154337,0.092683,0.327153,0.106623,0.098499,0.117183,0.084226,0.295154,0.11352,0.077693,0.102945,0.109735,0.343812,0.129567,0.101728,0.102568,0.071403,0.395499,0.220049,0.182564,0.176218,0.159902,0.365078,0.157477,0.127087,0.116733,0.156013,0.286445,0.171675,0.124783,0.136481,0.192322,0.674366,0.292857,0.208129,0.127542,0.161248,0.194405,0.283409,0.237925,0.160908,0.239915,0.596321,0.301231,0.320547,0.257291,0.141937,0.394589,0.897065,0.436342,0.176829,0.155546,0.430194,0.163155,0.165449,0.147068,0.075911,0.266795,0.211301,0.146732,0.167563,0.171967
1768972667.189026,1768972667.189537,31.0,0.0,4394.230957,4382.307617,4362.94873,4385.897461,4376.666504,4366.410156,4374.358887,4369.230957,4368.846191,4354.871582,4476.153809,4522.820313,4413.846191,4445.384766,,,,,,,,,,,,,,,,,,,,,,,,,,,,,,,,,,,,,,,,,,,,,,,,,,,,,,,,,,,,,,,,,,,,,,
1768972667.196834,1768972667.197146,32.0,0.0,4385.256348,4374.871582,4356.666504,4382.820313,4373.846191,4364.743652,4374.358887,4372.307617,4367.179688,4354.487305,4472.820313,4517.05127,4411.794922,4445.384766,,,,,,,,,,,,,,,,,,,,,,,,,,,,,,,,,,,,,,,,,,,,,,,,,,,,,,,,,,,,,,,,,,,,,,
1768972667.204643,1768972667.204954,33.0,0.0,4376.794922,4369.230957,4351.538574,4380.0,4365.256348,4364.743652,4373.974121,4372.05127,4371.025879,4355.256348,4469.871582,4521.282227,4408.589844,4445.128418,,,,,,,,,,,,,,,,,,,,,,,,,,,,,,,,,,,,,,,,,,,,,,,,,,,,,,,,,,,,,,,,,,,,,,
1768972667.212451,1768972667.212862,34.0,0.0,4380.0,4366.025879,4353.589844,4377.563965,4361.153809,4367.820313,4373.205078,4371.922852,4371.153809,4353.333496,4471.538574,4526.666504,4406.282227,4444.487305,,,,,,,,,,,,,,,,,,,,,,,,,,,,,,,,,,,,,,,,,,,,,,,,,,,,,,,,,,,,,,,,,,,,,,
1768972667.22026,1768972667.220671,35.0,0.0,4383.205078,4367.05127,4352.179688,4376.153809,4364.871582,4366.538574,4372.307617,4371.794922,4366.666504,4350.384766,4473.333496,4523.205078,4405.769043,4444.358887,,,,,,,,,,,,,,,,,,,,,,,,,,,,,,,,,,,,,,,,,,,,,,,,,,,,,,,,,,,,,,,,,,,,,,
1768972667.228068,1768972667.228679,36.0,0.0,4378.974121,4370.0,4347.692383,4376.282227,4365.897461,4364.743652,4371.282227,4372.179688,4366.410156,4358.589844,4469.230957,4517.307617,4406.922852,4443.974121,,,,,,,,,,,,,,,,,,,,,,,,,,,,,,,,,,,,,,,,,,,,,,,,,,,,,,,,,,,,,,,,,,,,,,
1768972667.235877,1768972667.236487,37.0,0.0,4372.94873,4366.922852,4343.974121,4371.794922,4361.666504,4360.0,4364.102539,4370.641113,4367.179688,4361.922852,4462.563965,4515.384766,4404.358887,4442.179688,,,,,,,,,,,,,,,,,,,,,,,,,,,,,,,,,,,,,,,,,,,,,,,,,,,,,,,,,,,,,,,,,,,,,,
1768972667.243685,1768972667.244196,38.0,0.0,4371.410156,4366.410156,4345.256348,4371.794922,4361.922852,4354.102539,4358.205078,4366.538574,4363.461426,4347.05127,4460.256348,4514.743652,4403.333496,4441.538574,,,,,,,,,,,,,,,,,,,,,,,,,,,,,,,,,,,,,,,,,,,,,,,,,,,,,,,,,,,,,,,,,,,,,,
1768972667.251494,1768972667.252004,39.0,0.0,4377.05127,4374.358887,4354.102539,4379.743652,4367.05127,4360.384766,4369.871582,4365.641113,4360.641113,4343.205078,4462.436035,4517.307617,4406.794922,4444.358887,,,,,,,,,,,,,,,,,,,,,,,,,,,,,,,,,,,,,,,,,,,,,,,,,,,,,,,,,,,,,,,,,,,,,,
1768972667.259302,1768972667.259613,40.0,0.0,4383.333496,4380.128418,4357.563965,4381.922852,4368.717773,4368.077148,4380.641113,4371.153809,4365.128418,4358.589844,4463.974121,4520.897461,4404.487305,4445.769043,,,,,,,,,,,,,,,,,,,,,,,,,,,,,,,,,,,,,,,,,,,,,,,,,,,,,,,,,,,,,,,,,,,,,,
1768972667.26711,1768972667.267422,41.0,0.0,4384.615234,4380.128418,4354.615234,4377.563965,4370.256348,4364.615234,4374.743652,4374.487305,4369.743652,4361.410156,4463.077148,4518.589844,4399.615234,4445.384766,,,,,,,,,,,,,,,,,,,,,,,,,,,,,,,,,,,,,,,,,,,,,,,,,,,,,,,,,,,,,,,,,,,,,,
1768972667.274919,1768972667.27533,42.0,0.0,4381.410156,4380.897461,4355.128418,4376.538574,4372.563965,4361.282227,4368.461426,4370.256348,4364.102539,4350.256348,4460.256348,4512.563965,4399.487305,4443.077148,,,,,,,,,,,,,,,,,,,,,,,,,,,,,,,,,,,,,,,,,,,,,,,,,,,,,,,,,,,,,,,,,,,,,,
1768972667.282727,1768972667.283138,43.0,0.0,4379.487305,4381.922852,4356.538574,4376.538574,4371.666504,4365.256348,4374.487305,4374.487305,4363.205078,4351.153809,4459.358887,4515.769043,4400.769043,4439.487305,,,,,,,,,,,,,,,,,,,,,,,,,,,,,,,,,,,,,,,,,,,,,,,,,,,,,,,,,,,,,,,,,,,,,,
1768972667.290536,1768972667.291147,44.0,0.0,4382.563965,4383.974121,4356.666504,4377.436035,4373.717773,4368.589844,4379.102539,4382.436035,4373.589844,4360.897461,4467.692383,4526.794922,4402.820313,4447.179688,,,,,,,,,,,,,,,,,,,,,,,,,,,,,,,,,,,,,,,,,,,,,,,,,,,,,,,,,,,,,,,,,,,,,,
1768972667.298344,1768972667.298955,45.0,0.0,4382.563965,4387.307617,4359.615234,4379.102539,4374.358887,4364.743652,4374.102539,4378.846191,4375.0,4361.410156,4475.384766,4530.256348,4404.871582,4455.769043,,,,,,,,,,,,,,,,,,,,,,,,,,,,,,,,,,,,,,,,,,,,,,,,,,,,,,,,,,,,,,,,,,,,,,
1768972667.306153,1768972667.306863,46.0,0.0,4380.256348,4387.436035,4360.512695,4379.230957,4370.128418,4362.820313,4371.282227,4367.692383,4363.846191,4355.897461,4468.717773,4525.0,4404.102539,4449.358887,0.287719,0.207092,0.027964,0.158339,0.091744,1.810309,0.68883,0.201607,0.154169,0.08743,0.234925,0.08473,0.081776,0.117578,0.083951,0.295805,0.113658,0.071855,0.102262,0.12238,0.393806,0.13201,0.082792,0.091155,0.076849,0.390406,0.259039,0.225542,0.181586,0.150967,0.323376,0.194134,0.144403,0.108047,0.149229,0.228352,0.200819,0.145511,0.115162,0.189879,0.540556,0.320812,0.256583,0.115623,0.152984,0.192984,0.271003,0.216055,0.153564,0.225346,0.67492,0.3312,0.268571,0.268328,0.153753,0.344972,0.926079,0.320402,0.176519,0.156822,0.37887,0.178815,0.171603,0.163372,0.082544,0.26432,0.228001,0.159935,0.168645,0.194088
1768972667.313961,1768972667.314672,47.0,0.0,4380.769043,4386.153809,4356.282227,4379.230957,4370.0,4367.563965,4374.615234,4368.974121,4364.230957,4356.538574,4460.128418,4522.692383,4398.461426,4442.05127,,,,,,,,,,,,,,,,,,,,,,,,,,,,,,,,,,,,,,,,,,,,,,,,,,,,,,,,,,,,,,,,,,,,,,
1768972667.32177,1768972667.32268,48.0,0.0,4381.410156,4388.333496,4355.128418,4381.025879,4373.461426,4367.179688,4373.333496,4377.05127,4374.487305,4354.230957,4459.615234,4525.384766,4396.153809,4443.205078,,,,,,,,,,,,,,,,,,,,,,,,,,,,,,,,,,,,,,,,,,,,,,,,,,,,,,,,,,,,,,,,,,,,,,
1768972667.329578,1768972667.330488,49.0,0.0,4382.94873,4389.487305,4357.307617,4381.538574,4373.589844,4362.94873,4370.512695,4375.0,4372.692383,4346.282227,4463.846191,4526.794922,4400.512695,4442.692383,,,,,,,,,,,,,,,,,,,,,,,,,,,,,,,,,,,,,,,,,,,,,,,,,,,,,,,,,,,,,,,,,,,,,,
1768972667.337386,1768972667.338197,50.0,0.0,4384.487305,4385.897461,4354.487305,4379.487305,4370.641113,4366.666504,4371.666504,4370.512695,4366.794922,4353.974121,4471.538574,4530.512695,4404.871582,4443.205078,,,,,,,,,,,,,,,,,,,,,,,,,,,,,,,,,,,,,,,,,,,,,,,,,,,,,,,,,,,,,,,,,,,,,,
1768972667.345195,1768972667.346005,51.0,0.0,4381.538574,4386.922852,4349.615234,4377.179688,4370.0,4367.05127,4368.589844,4369.102539,4367.436035,4364.230957,4472.94873,4533.205078,4405.128418,4446.410156,,,,,,,,,,,,,,,,,,,,,,,,,,,,,,,,,,,,,,,,,,,,,,,,,,,,,,,,,,,,,,,,,,,,,,
1768972667.353003,1768972667.353614,52.0,0.0,4371.794922,4381.922852,4350.128418,4375.384766,4368.461426,4361.794922,4362.692383,4372.05127,4368.077148,4353.205078,4461.538574,4523.589844,4395.769043,4434.871582,,,,,,,,,,,,,,,,,,,,,,,,,,,,,,,,,,,,,,,,,,,,,,,,,,,,,,,,,,,,,,,,,,,,,,
1768972667.360812,1768972667.361423,53.0,0.0,4364.102539,4366.410156,4348.846191,4367.307617,4365.384766,4365.897461,4365.897461,4376.410156,4369.102539,4342.436035,4452.179688,4509.615234,4382.94873,4419.487305,,,,,,,,,,,,,,,,,,,,,,,,,,,,,,,,,,,,,,,,,,,,,,,,,,,,,,,,,,,,,,,,,,,,,,
1768972667.36862,1768972667.369131,54.0,0.0,4370.0,4362.05127,4347.307617,4362.563965,4365.769043,4372.563965,4372.820313,4377.179688,4374.487305,4353.589844,4457.307617,4513.333496,4389.615234,4426.794922,,,,,,,,,,,,,,,,,,,,,,,,,,,,,,,,,,,,,,,,,,,,,,,,,,,,,,,,,,,,,,,,,,,,,,
1768972667.376429,1768972667.37694,55.0,0.0,4381.153809,4373.589844,4354.743652,4372.05127,4369.615234,4373.205078,4374.358887,4377.820313,4376.922852,4361.922852,4472.692383,4531.282227,4411.794922,4447.307617,,,,,,,,,,,,,,,,,,,,,,,,,,,,,,,,,,,,,,,,,,,,,,,,,,,,,,,,,,,,,,,,,,,,,,
1768972667.384237,1768972667.384548,56.0,0.0,4386.025879,4378.461426,4358.717773,4380.769043,4370.641113,4368.717773,4371.666504,4380.384766,4374.230957,4357.05127,4478.333496,4535.897461,4416.538574,4452.179688,,,,,,,,,,,,,,,,,,,,,,,,,,,,,,,,,,,,,,,,,,,,,,,,,,,,,,,,,,,,,,,,,,,,,,
1768972667.392046,1768972667.392357,57.0,0.0,4381.153809,4372.692383,4352.692383,4375.769043,4367.820313,4363.461426,4371.410156,4379.615234,4372.307617,4358.589844,4466.153809,4528.077148,4403.077148,4439.230957,,,,,,,,,,,,,,,,,,,,,,,,,,,,,,,,,,,,,,,,,,,,,,,,,,,,,,,,,,,,,,,,,,,,,,
1768972667.399854,1768972667.400065,58.0,0.0,4373.974121,4370.641113,4348.846191,4370.641113,4369.743652,4367.307617,4372.692383,4371.922852,4366.282227,4356.153809,4455.128418,4525.128418,4400.512695,4434.102539,,,,,,,,,,,,,,,,,,,,,,,,,,,,,,,,,,,,,,,,,,,,,,,,,,,,,,,,,,,,,,,,,,,,,,
1768972667.407663,1768972667.407874,59.0,0.0,4375.769043,4371.410156,4353.717773,4373.333496,4374.487305,4373.205078,4372.563965,4375.897461,4366.410156,4348.205078,4464.871582,4531.794922,4410.512695,4443.077148,,,,,,,,,,,,,,,,,,,,,,,,,,,,,,,,,,,,,,,,,,,,,,,,,,,,,,,,,,,,,,,,,,,,,,
1768972667.415471,1768972667.415882,60.0,0.0,4379.615234,4369.487305,4356.666504,4374.102539,4374.102539,4366.794922,4372.692383,4387.563965,4374.102539,4355.0,4478.461426,4540.641113,4415.897461,4448.589844,,,,,,,,,,,,,,,,,,,,,,,,,,,,,,,,,,,,,,,,,,,,,,,,,,,,,,,,,,,,,,,,,,,,,,
1768972667.423279,1768972667.42369,61.0,0.0,4373.974121,4362.94873,4350.641113,4371.794922,4372.94873,4363.461426,4372.692383,4379.102539,4370.897461,4365.897461,4473.077148,4536.282227,4411.794922,4441.666504,,,,,,,,,,,,,,,,,,,,,,,,,,,,,,,,,,,,,,,,,,,,,,,,,,,,,,,,,,,,,,,,,,,,,,
1768972667.431088,1768972667.431599,62.0,0.0,4368.717773,4357.436035,4343.846191,4369.230957,4373.077148,4366.666504,4370.897461,4363.974121,4361.025879,4359.230957,4459.102539,4526.410156,4404.743652,4434.487305,0.265219,0.231072,0.036565,0.180178,0.092245,1.796736,0.713462,0.208229,0.156523,0.088499,0.204525,0.084568,0.063416,0.123519,0.087262,0.338615,0.124383,0.066139,0.104637,0.1318,0.429744,0.131864,0.067944,0.07944,0.082357,0.362269,0.292929,0.273438,0.182855,0.143175,0.28372,0.22645,0.161972,0.099114,0.145751,0.194797,0.223133,0.171015,0.107912,0.182115,0.416113,0.322256,0.300605,0.111027,0.143073,0.190386,0.274529,0.196332,0.153057,0.206771,0.729803,0.346214,0.223884,0.275968,0.166342,0.347614,0.92579,0.235317,0.169381,0.16112,0.357919,0.187969,0.183738,0.188766,0.093514,0.313776,0.245662,0.168914,0.170663,0.212766
1768972667.438896,1768972667.439407,63.0,0.0,4370.641113,4362.307617,4345.641113,4368.846191,4371.153809,4359.358887,4369.871582,4369.743652,4362.05127,4350.897461,4456.922852,4527.94873,4400.641113,4432.436035,,,,,,,,,,,,,,,,,,,,,,,,,,,,,,,,,,,,,,,,,,,,,,,,,,,,,,,,,,,,,,,,,,,,,,
1768972667.446705,1768972667.447016,64.0,0.0,4367.820313,4365.641113,4350.641113,4372.05127,4370.256348,4358.589844,4372.563965,4378.717773,4366.794922,4352.692383,4463.461426,4532.94873,4398.205078,4431.025879,,,,,,,,,,,,,,,,,,,,,,,,,,,,,,,,,,,,,,,,,,,,,,,,,,,,,,,,,,,,,,,,,,,,,,
1768972667.454513,1768972667.454824,65.0,0.0,4365.0,4356.794922,4350.512695,4372.05127,4371.282227,4369.871582,4373.333496,4376.538574,4365.256348,4352.179688,4463.333496,4534.743652,4401.922852,4429.871582,,,,,,,,,,,,,,,,,,,,,,,,,,,,,,,,,,,,,,,,,,,,,,,,,,,,,,,,,,,,,,,,,,,,,,
1768972667.462322,1768972667.462533,66.0,0.0,4374.743652,4357.563965,4349.487305,4372.94873,4370.512695,4365.512695,4369.487305,4376.794922,4364.230957,4354.230957,4461.922852,4540.897461,4411.153809,4432.692383,,,,,,,,,,,,,,,,,,,,,,,,,,,,,,,,,,,,,,,,,,,,,,,,,,,,,,,,,,,,,,,,,,,,,,
1768972667.47013,1768972667.470341,67.0,0.0,4382.05127,4368.461426,4354.102539,4376.410156,4369.487305,4353.846191,4369.615234,4380.897461,4365.769043,4358.205078,4469.743652,4551.025879,4413.461426,4441.282227,,,,,,,,,,,,,,,,,,,,,,,,,,,,,,,,,,,,,,,,,,,,,,,,,,,,,,,,,,,,,,,,,,,,,,
1768972667.477939,1768972667.478349,68.0,0.0,4376.153809,4362.563965,4362.05127,4376.282227,4369.487305,4360.897461,4373.846191,4383.461426,4370.384766,4355.641113,4473.077148,4554.743652,4403.333496,4441.794922,,,,,,,,,,,,,,,,,,,,,,,,,,,,,,,,,,,,,,,,,,,,,,,,,,,,,,,,,,,,,,,,,,,,,,
1768972667.485747,1768972667.486158,69.0,0.0,4368.974121,4357.307617,4362.436035,4376.410156,4368.974121,4369.743652,4374.871582,4380.769043,4369.487305,4349.487305,4464.358887,4546.410156,4395.641113,4430.641113,,,,,,,,,,,,,,,,,,,,,,,,,,,,,,,,,,,,,,,,,,,,,,,,,,,,,,,,,,,,,,,,,,,,,,
1768972667.493555,1768972667.494066,70.0,0.0,4371.282227,4367.94873,4353.846191,4380.769043,4366.666504,4361.282227,4369.743652,4374.487305,4360.512695,4345.641113,4457.436035,4536.282227,4396.410156,4425.641113,,,,,,,,,,,,,,,,,,,,,,,,,,,,,,,,,,,,,,,,,,,,,,,,,,,,,,,,,,,,,,,,,,,,,,
1768972667.501364,1768972667.501875,71.0,0.0,4378.589844,4367.563965,4348.205078,4379.743652,4364.743652,4356.538574,4367.179688,4375.641113,4359.230957,4346.538574,4459.487305,4534.230957,4396.025879,4430.512695,,,,,,,,,,,,,,,,,,,,,,,,,,,,,,,,,,,,,,,,,,,,,,,,,,,,,,,,,,,,,,,,,,,,,,
1768972667.509172,1768972667.509883,72.0,0.0,4380.128418,4356.153809,4347.94873,4373.333496,4365.512695,4362.05127,4368.205078,4376.282227,4363.589844,4343.846191,4458.589844,4532.179688,4394.871582,4430.128418,,,,,,,,,,,,,,,,,,,,,,,,,,,,,,,,,,,,,,,,,,,,,,,,,,,,,,,,,,,,,,,,,,,,,,
1768972667.516981,1768972667.517691,73.0,0.0,4375.512695,4355.128418,4347.692383,4375.0,4369.230957,4364.487305,4368.461426,4373.717773,4365.384766,4344.358887,4456.025879,4528.205078,4395.641113,4425.641113,,,,,,,,,,,,,,,,,,,,,,,,,,,,,,,,,,,,,,,,,,,,,,,,,,,,,,,,,,,,,,,,,,,,,,
1768972667.524789,1768972667.5256,74.0,0.0,4371.025879,4359.358887,4348.205078,4380.128418,4368.589844,4365.641113,4370.0,4376.794922,4367.179688,4351.794922,4458.461426,4529.102539,4392.307617,4426.282227,,,,,,,,,,,,,,,,,,,,,,,,,,,,,,,,,,,,,,,,,,,,,,,,,,,,,,,,,,,,,,,,,,,,,,
1768972667.532598,1768972667.533408,75.0,0.0,4373.333496,4363.077148,4350.769043,4380.384766,4366.025879,4368.333496,4370.641113,4379.487305,4366.282227,4347.436035,4457.94873,4530.0,4389.743652,4426.410156,,,,,,,,,,,,,,,,,,,,,,,,,,,,,,,,,,,,,,,,,,,,,,,,,,,,,,,,,,,,,,,,,,,,,,
1768972667.540406,1768972667.541017,76.0,0.0,4380.128418,4371.025879,4352.563965,4380.0,4370.256348,4369.102539,4370.897461,4375.0,4366.410156,4340.641113,4456.538574,4523.974121,4392.307617,4426.794922,,,,,,,,,,,,,,,,,,,,,,,,,,,,,,,,,,,,,,,,,,,,,,,,,,,,,,,,,,,,,,,,,,,,,,
1768972667.548215,1768972667.548825,77.0,0.0,4382.307617,4370.0,4354.743652,4380.512695,4366.794922,4371.410156,4373.589844,4374.230957,4370.641113,4351.153809,4458.461426,4521.922852,4391.153809,4429.230957,,,,,,,,,,,,,,,,,,,,,,,,,,,,,,,,,,,,,,,,,,,,,,,,,,,,,,,,,,,,,,,,,,,,,,
1768972667.556023,1768972667.556534,78.0,0.0,4380.256348,4365.641113,4356.794922,4380.769043,4360.0,4373.461426,4372.436035,4374.102539,4368.589844,4355.641113,4457.692383,4523.717773,4388.717773,4432.05127,0.290045,0.255518,0.05297,0.203853,0.094302,1.686405,0.693592,0.208746,0.161855,0.098349,0.222577,0.10185,0.048134,0.134016,0.093772,0.404998,0.139025,0.064247,0.110124,0.134529,0.438131,0.134468,0.059326,0.069214,0.087121,0.31388,0.308884,0.311162,0.178024,0.135808,0.248887,0.242418,0.173492,0.091797,0.144676,0.178176,0.235163,0.196042,0.110756,0.170845,0.32922,0.300166,0.328,0.109916,0.134009,0.179862,0.28328,0.18866,0.158202,0.188895,0.737434,0.353179,0.192926,0.277097,0.176603,0.385963,0.90272,0.189785,0.15904,0.167055,0.361764,0.191644,0.200652,0.215695,0.10619,0.367853,0.269704,0.175322,0.174036,0.223681
1768972667.563831,1768972667.564342,79.0,0.0,4377.563965,4368.333496,4355.512695,4382.436035,4366.025879,4373.205078,4368.589844,4371.282227,4364.615234,4343.589844,4453.589844,4519.487305,4389.743652,4430.128418,,,,,,,,,,,,,,,,,,,,,,,,,,,,,,,,,,,,,,,,,,,,,,,,,,,,,,,,,,,,,,,,,,,,,,
1768972667.57164,1768972667.571951,80.0,0.0,4371.282227,4365.897461,4352.179688,4380.897461,4369.615234,4374.358887,4371.794922,4374.230957,4368.846191,4340.384766,4447.563965,4517.563965,4384.102539,4420.769043,,,,,,,,,,,,,,,,,,,,,,,,,,,,,,,,,,,,,,,,,,,,,,,,,,,,,,,,,,,,,,,,,,,,,,
1768972667.579448,1768972667.579759,81.0,0.0,4365.897461,4360.0,4350.641113,4373.333496,4363.205078,4374.102539,4377.94873,4376.666504,4371.025879,4347.307617,4446.410156,4521.410156,4378.589844,4417.436035,,,,,,,,,,,,,,,,,,,,,,,,,,,,,,,,,,,,,,,,,,,,,,,,,,,,,,,,,,,,,,,,,,,,,,
1768972667.587257,1768972667.587468,82.0,0.0,4368.461426,4364.487305,4352.94873,4373.717773,4360.641113,4372.179688,4375.0,4373.333496,4371.153809,4351.282227,4453.846191,4523.461426,4385.512695,4425.512695,,,,,,,,,,,,,,,,,,,,,,,,,,,,,,,,,,,,,,,,,,,,,,,,,,,,,,,,,,,,,,,,,,,,,,
1768972667.595065,1768972667.595276,83.0,0.0,4370.128418,4371.794922,4358.717773,4380.769043,4363.333496,4371.538574,4371.410156,4371.666504,4374.871582,4352.307617,4459.743652,4522.563965,4391.410156,4429.487305,,,,,,,,,,,,,,,,,,,,,,,,,,,,,,,,,,,,,,,,,,,,,,,,,,,,,,,,,,,,,,,,,,,,,,
1768972667.602874,1768972667.603285,84.0,0.0,4368.077148,4371.922852,4363.333496,4382.692383,4363.846191,4373.461426,4374.615234,4372.436035,4374.615234,4352.820313,4457.820313,4518.974121,4388.589844,4424.871582,,,,,,,,,,,,,,,,,,,,,,,,,,,,,,,,,,,,,,,,,,,,,,,,,,,,,,,,,,,,,,,,,,,,,,
1768972667.610682,1768972667.611093,85.0,0.0,4371.282227,4373.846191,4361.794922,4381.666504,4366.153809,4373.461426,4375.256348,4373.461426,4371.922852,4354.358887,4457.692383,4515.512695,4387.94873,4425.512695,,,,,,,,,,,,,,,,,,,,,,,,,,,,,,,,,,,,,,,,,,,,,,,,,,,,,,,,,,,,,,,,,,,,,,
1768972667.618491,1768972667.619001,86.0,0.0,4374.743652,4376.666504,4358.333496,4381.410156,4365.512695,4367.563965,4373.205078,4373.461426,4374.487305,4355.641113,4461.025879,4517.94873,4392.436035,4431.282227,,,,,,,,,,,,,,,,,,,,,,,,,,,,,,,,,,,,,,,,,,,,,,,,,,,,,,,,,,,,,,,,,,,,,,
1768972667.626299,1768972667.62681,87.0,0.0,4371.538574,4375.128418,4356.282227,4379.871582,4362.307617,4362.692383,4373.846191,4370.384766,4375.512695,4357.05127,4460.256348,4520.769043,4396.282227,4431.922852,,,,,,,,,,,,,,,,,,,,,,,,,,,,,,,,,,,,,,,,,,,,,,,,,,,,,,,,,,,,,,,,,,,,,,
1768972667.634107,1768972667.634818,88.0,0.0,4372.05127,4379.871582,4357.436035,4381.025879,4365.641113,4366.538574,4375.512695,4370.897461,4372.94873,4358.333496,4463.589844,4520.384766,4397.179688,4429.743652,,,,,,,,,,,,,,,,,,,,,,,,,,,,,,,,,,,,,,,,,,,,,,,,,,,,,,,,,,,,,,,,,,,,,,
1768972667.641916,1768972667.642627,89.0,0.0,4379.487305,4387.307617,4361.666504,4386.794922,4370.256348,4369.743652,4373.717773,4376.922852,4376.922852,4354.487305,4473.461426,4526.410156,4397.307617,4433.717773,,,,,,,,,,,,,,,,,,,,,,,,,,,,,,,,,,,,,,,,,,,,,,,,,,,,,,,,,,,,,,,,,,,,,,
1768972667.649724,1768972667.650335,90.0,0.0,4382.692383,4388.461426,4362.179688,4389.871582,4372.820313,4368.589844,4374.230957,4379.102539,4382.563965,4354.615234,4479.102539,4532.820313,4399.871582,4442.307617,,,,,,,,,,,,,,,,,,,,,,,,,,,,,,,,,,,,,,,,,,,,,,,,,,,,,,,,,,,,,,,,,,,,,,
1768972667.657533,1768972667.658144,91.0,0.0,4381.666504,4390.256348,4360.0,4390.256348,4371.538574,4371.410156,4374.871582,4372.820313,4377.307617,4360.769043,4471.410156,4528.461426,4400.256348,4442.307617,,,,,,,,,,,,,,,,,,,,,,,,,,,,,,,,,,,,,,,,,,,,,,,,,,,,,,,,,,,,,,,,,,,,,,
1768972667.665341,1768972667.665752,92.0,0.0,4384.230957,4396.025879,4359.871582,4389.358887,4365.384766,4368.205078,4365.512695,4369.102539,4371.025879,4360.0,4461.538574,4522.307617,4396.025879,4435.769043,,,,,,,,,,,,,,,,,,,,,,,,,,,,,,,,,,,,,,,,,,,,,,,,,,,,,,,,,,,,,,,,,,,,,,
1768972667.673149,1768972667.673561,93.0,0.0,4382.94873,4394.743652,4362.307617,4388.846191,4363.974121,4363.333496,4361.922852,4371.153809,4373.077148,4356.153809,4465.769043,4523.077148,4395.256348,4432.05127,,,,,,,,,,,,,,,,,,,,,,,,,,,,,,,,,,,,,,,,,,,,,,,,,,,,,,,,,,,,,,,,,,,,,,
1768972667.680958,1768972667.681469,94.0,0.0,4374.743652,4389.230957,4363.974121,4392.820313,4371.025879,4368.077148,4369.487305,4369.871582,4374.743652,4356.922852,4473.589844,4525.512695,4398.589844,4429.102539,0.334947,0.282858,0.080022,0.225505,0.097306,1.498003,0.64435,0.212789,0.168323,0.116255,0.265677,0.138243,0.040097,0.144772,0.101999,0.465099,0.150818,0.072325,0.11595,0.129504,0.420039,0.147561,0.056399,0.061318,0.090131,0.261402,0.300678,0.325823,0.168072,0.128898,0.223575,0.240305,0.17499,0.08958,0.145059,0.161546,0.239294,0.2142,0.12042,0.160551,0.287322,0.267364,0.329717,0.110593,0.128347,0.162352,0.290987,0.196222,0.16702,0.178079,0.689613,0.360664,0.177668,0.275911,0.183536,0.444364,0.86306,0.181096,0.159046,0.172133,0.372928,0.195703,0.221532,0.240626,0.118803,0.394486,0.308047,0.18024,0.18286,0.224607
1768972667.688766,1768972667.689277,95.0,0.0,4376.153809,4388.589844,4363.589844,4394.615234,4374.743652,4370.0,4370.897461,4370.769043,4372.820313,4360.384766,4477.05127,4528.717773,4400.384766,4434.871582,,,,,,,,,,,,,,,,,,,,,,,,,,,,,,,,,,,,,,,,,,,,,,,,,,,,,,,,,,,,,,,,,,,,,,
1768972667.696575,1768972667.697286,96.0,0.0,4383.077148,4385.128418,4361.794922,4388.589844,4367.563965,4363.974121,4365.256348,4371.922852,4370.384766,4358.717773,4471.666504,4526.922852,4398.846191,4440.384766,,,,,,,,,,,,,,,,,,,,,,,,,,,,,,,,,,,,,,,,,,,,,,,,,,,,,,,,,,,,,,,,,,,,,,
1768972667.704383,1768972667.705094,97.0,0.0,4380.384766,4377.692383,4359.358887,4384.615234,4362.436035,4362.179688,4364.743652,4365.641113,4367.94873,4355.769043,4462.692383,4519.743652,4397.436035,4430.897461,,,,,,,,,,,,,,,,,,,,,,,,,,,,,,,,,,,,,,,,,,,,,,,,,,,,,,,,,,,,,,,,,,,,,,
1768972667.712192,1768972667.712803,98.0,0.0,4381.538574,4383.589844,4364.615234,4388.333496,4367.179688,4365.769043,4366.666504,4364.230957,4366.666504,4357.692383,4466.922852,4523.846191,4398.077148,4430.769043,,,,,,,,,,,,,,,,,,,,,,,,,,,,,,,,,,,,,,,,,,,,,,,,,,,,,,,,,,,,,,,,,,,,,,
1768972667.72,1768972667.720611,99.0,0.0,4392.05127,4392.179688,4370.641113,4391.538574,4371.282227,4367.307617,4365.384766,4369.102539,4366.410156,4352.692383,4475.128418,4532.179688,4398.974121,4442.563965,,,,,,,,,,,,,,,,,,,,,,,,,,,,,,,,,,,,,,,,,,,,,,,,,,,,,,,,,,,,,,,,,,,,,,
1768972667.727809,1768972667.72822,100.0,0.0,4387.179688,4384.615234,4365.384766,4387.94873,4370.0,4366.794922,4365.769043,4368.333496,4367.94873,4344.230957,4466.794922,4527.05127,4397.692383,4439.230957,,,,,,,,,,,,,,,,,,,,,,,,,,,,,,,,,,,,,,,,,,,,,,,,,,,,,,,,,,,,,,,,,,,,,,
1768972667.735617,1768972667.736028,101.0,0.0,4372.692383,4375.769043,4361.153809,4381.794922,4367.94873,4366.666504,4369.358887,4369.102539,4373.846191,4350.512695,4459.743652,4523.461426,4396.538574,4433.077148,,,,,,,,,,,,,,,,,,,,,,,,,,,,,,,,,,,,,,,,,,,,,,,,,,,,,,,,,,,,,,,,,,,,,,
1768972667.743425,1768972667.743737,102.0,0.0,4374.230957,4378.077148,4364.102539,4380.384766,4371.282227,4373.077148,4373.205078,4376.410156,4376.666504,4361.153809,4467.179688,4527.179688,4397.436035,4438.846191,,,,,,,,,,,,,,,,,,,,,,,,,,,,,,,,,,,,,,,,,,,,,,,,,,,,,,,,,,,,,,,,,,,,,,
1768972667.751234,1768972667.751545,103.0,0.0,4383.974121,4381.666504,4367.179688,4383.846191,4373.077148,4378.461426,4371.666504,4375.769043,4371.538574,4355.897461,4462.94873,4524.358887,4396.794922,4435.512695,,,,,,,,,,,,,,,,,,,,,,,,,,,,,,,,,,,,,,,,,,,,,,,,,,,,,,,,,,,,,,,,,,,,,,
1768972667.759042,1768972667.759154,104.0,0.0,4381.538574,4380.897461,4366.794922,4382.436035,4369.358887,4374.358887,4368.846191,4375.384766,4371.153809,4350.897461,4456.410156,4521.025879,4396.922852,4427.179688,,,,,,,,,,,,,,,,,,,,,,,,,,,,,,,,,,,,,,,,,,,,,,,,,,,,,,,,,,,,,,,,,,,,,,
1768972667.766851,1768972667.766962,105.0,0.0,4370.384766,4381.666504,4363.333496,4379.230957,4368.077148,4368.974121,4370.256348,4377.563965,4373.077148,4357.179688,4469.615234,4521.794922,4401.282227,4434.358887,,,,,,,,,,,,,,,,,,,,,,,,,,,,,,,,,,,,,,,,,,,,,,,,,,,,,,,,,,,,,,,,,,,,,,
1768972667.774659,1768972667.774671,106.0,0.0,4371.025879,4385.0,4360.897461,4382.05127,4368.333496,4368.717773,4371.410156,4373.974121,4367.692383,4357.692383,4475.0,4521.922852,4402.563965,4444.487305,,,,,,,,,,,,,,,,,,,,,,,,,,,,,,,,,,,,,,,,,,,,,,,,,,,,,,,,,,,,,,,,,,,,,,
1768972667.782468,1768972667.782479,107.0,0.0,4380.0,4386.794922,4361.282227,4383.077148,4369.615234,4370.384766,4370.128418,4375.512695,4368.077148,4355.0,4464.358887,4519.102539,4398.589844,4440.384766,,,,,,,,,,,,,,,,,,,,,,,,,,,,,,,,,,,,,,,,,,,,,,,,,,,,,,,,,,,,,,,,,,,,,,
1768972667.790276,1768972667.790488,108.0,0.0,4384.743652,4385.897461,4360.897461,4380.769043,4372.820313,4369.230957,4363.077148,4379.487305,4373.717773,4356.410156,4461.410156,4513.974121,4396.538574,4428.846191,,,,,,,,,,,,,,,,,,,,,,,,,,,,,,,,,,,,,,,,,,,,,,,,,,,,,,,,,,,,,,,,,,,,,,
1768972667.798085,1768972667.798296,109.0,0.0,4378.461426,4381.282227,4356.025879,4378.974121,4372.692383,4365.641113,4356.538574,4377.436035,4369.358887,4356.282227,4463.717773,4512.94873,4396.922852,4427.307617,,,,,,,,,,,,,,,,,,,,,,,,,,,,,,,,,,,,,,,,,,,,,,,,,,,,,,,,,,,,,,,,,,,,,,
1768972667.805893,1768972667.806204,110.0,0.0,4372.820313,4380.641113,4352.307617,4374.358887,4368.461426,4365.641113,4360.512695,4379.743652,4367.179688,4356.666504,4464.743652,4519.487305,4394.358887,4438.333496,0.376033,0.316474,0.120348,0.243186,0.100549,1.276689,0.587772,0.230286,0.172334,0.138805,0.310833,0.194713,0.045124,0.15051,0.109743,0.496819,0.154409,0.093831,0.118102,0.118545,0.387124,0.17585,0.05671,0.055398,0.090538,0.228321,0.271448,0.310578,0.156423,0.123983,0.216862,0.226814,0.164564,0.094314,0.145626,0.136771,0.240235,0.220529,0.134567,0.155705,0.297321,0.235092,0.303559,0.113057,0.127058,0.153621,0.293265,0.212436,0.177844,0.178798,0.606005,0.37159,0.174276,0.281127,0.188563,0.520643,0.811269,0.202424,0.18196,0.174174,0.379331,0.205854,0.246152,0.26619,0.130571,0.385464,0.361842,0.186914,0.201803,0.216755
1768972667.813702,1768972667.814013,111.0,0.0,4378.589844,4383.461426,4355.512695,4371.794922,4367.307617,4370.897461,4365.0,4383.717773,4374.358887,4358.589844,4471.410156,4522.820313,4396.410156,4447.179688,,,,,,,,,,,,,,,,,,,,,,,,,,,,,,,,,,,,,,,,,,,,,,,,,,,,,,,,,,,,,,,,,,,,,,
1768972667.82151,1768972667.822021,112.0,0.0,4379.230957,4380.256348,4358.974121,4376.410156,4370.512695,4372.05127,4363.974121,4377.307617,4372.820313,4353.846191,4469.615234,4513.846191,4399.102539,4437.820313,,,,,,,,,,,,,,,,,,,,,,,,,,,,,,,,,,,,,,,,,,,,,,,,,,,,,,,,,,,,,,,,,,,,,,
1768972667.829318,1768972667.82983,113.0,0.0,4372.820313,4375.641113,4359.358887,4377.563965,4371.922852,4370.256348,4367.820313,4372.05127,4365.769043,4350.897461,4458.461426,4508.077148,4391.025879,4425.897461,,,,,,,,,,,,,,,,,,,,,,,,,,,,,,,,,,,,,,,,,,,,,,,,,,,,,,,,,,,,,,,,,,,,,,
1768972667.837127,1768972667.837738,114.0,0.0,4376.025879,4378.077148,4363.461426,4373.717773,4372.563965,4370.128418,4371.922852,4377.563965,4371.410156,4361.153809,4464.871582,4520.0,4390.769043,4435.256348,,,,,,,,,,,,,,,,,,,,,,,,,,,,,,,,,,,,,,,,,,,,,,,,,,,,,,,,,,,,,,,,,,,,,,
1768972667.844935,1768972667.845546,115.0,0.0,4383.846191,4381.538574,4370.641113,4377.436035,4372.563965,4371.794922,4370.384766,4380.769043,4378.974121,4368.846191,4479.871582,4532.820313,4406.666504,4449.615234,,,,,,,,,,,,,,,,,,,,,,,,,,,,,,,,,,,,,,,,,,,,,,,,,,,,,,,,,,,,,,,,,,,,,,
1768972667.852744,1768972667.853155,116.0,0.0,4381.410156,4376.666504,4373.333496,4382.692383,4370.769043,4374.743652,4369.743652,4380.384766,4376.410156,4362.820313,4478.974121,4532.179688,4410.128418,4448.717773,,,,,,,,,,,,,,,,,,,,,,,,,,,,,,,,,,,,,,,,,,,,,,,,,,,,,,,,,,,,,,,,,,,,,,
1768972667.860552,1768972667.860963,117.0,0.0,4379.358887,4374.743652,4369.871582,4378.077148,4370.769043,4374.871582,4370.256348,4381.025879,4372.307617,4355.897461,4468.846191,4524.358887,4396.410156,4443.717773,,,,,,,,,,,,,,,,,,,,,,,,,,,,,,,,,,,,,,,,,,,,,,,,,,,,,,,,,,,,,,,,,,,,,,
1768972667.868361,1768972667.868872,118.0,0.0,4380.384766,4379.871582,4364.230957,4370.769043,4370.769043,4369.230957,4369.615234,4379.230957,4372.94873,4357.692383,4466.666504,4521.282227,4391.666504,4443.333496,,,,,,,,,,,,,,,,,,,,,,,,,,,,,,,,,,,,,,,,,,,,,,,,,,,,,,,,,,,,,,,,,,,,,,
1768972667.876169,1768972667.87668,119.0,0.0,4376.666504,4381.538574,4362.436035,4374.358887,4368.333496,4366.666504,4370.769043,4382.436035,4374.871582,4357.436035,4474.743652,4524.358887,4396.794922,4440.897461,,,,,,,,,,,,,,,,,,,,,,,,,,,,,,,,,,,,,,,,,,,,,,,,,,,,,,,,,,,,,,,,,,,,,,
1768972667.883978,1768972667.884688,120.0,0.0,4378.333496,4381.538574,4365.128418,4378.205078,4367.179688,4367.436035,4368.461426,4383.077148,4371.538574,4350.512695,4472.436035,4523.589844,4395.256348,4434.358887,,,,,,,,,,,,,,,,,,,,,,,,,,,,,,,,,,,,,,,,,,,,,,,,,,,,,,,,,,,,,,,,,,,,,,
1768972667.891786,1768972667.892497,121.0,0.0,4381.410156,4381.282227,4364.102539,4375.0,4372.436035,4362.94873,4363.461426,4375.384766,4367.05127,4351.794922,4463.205078,4519.102539,4391.922852,4432.307617,,,,,,,,,,,,,,,,,,,,,,,,,,,,,,,,,,,,,,,,,,,,,,,,,,,,,,,,,,,,,,,,,,,,,,
1768972667.899594,1768972667.900205,122.0,0.0,4381.666504,4380.769043,4361.282227,4375.769043,4379.615234,4364.102539,4364.358887,4370.256348,4364.487305,4360.641113,4466.666504,4520.769043,4398.846191,4440.0,,,,,,,,,,,,,,,,,,,,,,,,,,,,,,,,,,,,,,,,,,,,,,,,,,,,,,,,,,,,,,,,,,,,,,
1768972667.907403,1768972667.908014,123.0,0.0,4383.589844,4380.769043,4364.743652,4381.666504,4379.230957,4372.94873,4367.436035,4372.94873,4362.820313,4360.0,4476.922852,4525.0,4406.922852,4447.307617,,,,,,,,,,,,,,,,,,,,,,,,,,,,,,,,,,,,,,,,,,,,,,,,,,,,,,,,,,,,,,,,,,,,,,
1768972667.915211,1768972667.915623,124.0,0.0,4384.102539,4380.641113,4368.846191,4382.307617,4375.897461,4374.743652,4366.666504,4380.0,4368.717773,4359.487305,4475.256348,4526.153809,4401.025879,4443.461426,,,,,,,,,,,,,,,,,,,,,,,,,,,,,,,,,,,,,,,,,,,,,,,,,,,,,,,,,,,,,,,,,,,,,,
1768972667.92302,1768972667.923431,125.0,0.0,4382.05127,4379.487305,4368.589844,4380.256348,4374.615234,4370.769043,4365.512695,4380.0,4373.974121,4358.461426,4466.153809,4523.846191,4395.512695,4439.487305,,,,,,,,,,,,,,,,,,,,,,,,,,,,,,,,,,,,,,,,,,,,,,,,,,,,,,,,,,,,,,,,,,,,,,
1768972667.930828,1768972667.93114,126.0,0.0,4379.871582,4379.102539,4369.743652,4381.794922,4375.384766,4372.692383,4369.871582,4376.153809,4370.641113,4343.717773,4465.384766,4518.077148,4397.94873,4435.384766,0.399499,0.35337,0.17288,0.257099,0.1037,1.076816,0.543214,0.265097,0.171818,0.161205,0.338718,0.261216,0.066099,0.14824,0.114953,0.491332,0.14962,0.126429,0.113807,0.105481,0.3557,0.215224,0.057336,0.050418,0.088222,0.231189,0.229863,0.26686,0.146259,0.122508,0.226405,0.210047,0.143475,0.104599,0.144547,0.10557,0.242258,0.212461,0.149753,0.15751,0.336392,0.2085,0.255382,0.116609,0.128661,0.163151,0.284543,0.227254,0.18927,0.190917,0.528798,0.379916,0.177601,0.300326,0.194469,0.616896,0.745571,0.24604,0.229822,0.17274,0.390184,0.222449,0.272408,0.296178,0.140904,0.348047,0.4203,0.198493,0.231675,0.204632
1768972667.938637,1768972667.938948,127.0,0.0,4377.820313,4381.153809,4373.205078,4382.820313,4377.692383,4378.077148,4377.94873,4381.282227,4369.102539,4344.487305,4470.769043,4516.025879,4390.641113,4425.256348,,,,,,,,,,,,,,,,,,,,,,,,,,,,,,,,,,,,,,,,,,,,,,,,,,,,,,,,,,,,,,,,,,,,,,
1768972667.946445,1768972667.946956,0.0,0.0,4384.102539,4385.256348,4375.641113,4387.05127,4380.512695,4379.358887,4381.666504,4391.666504,4375.769043,4365.128418,4475.128418,4524.743652,4387.563965,4429.358887,,,,,,,,,,,,,,,,,,,,,,,,,,,,,,,,,,,,,,,,,,,,,,,,,,,,,,,,,,,,,,,,,,,,,,
1768972667.954254,1768972667.954765,1.0,0.0,4391.538574,4390.641113,4377.307617,4390.769043,4380.769043,4380.384766,4381.666504,4388.205078,4374.743652,4364.102539,4475.128418,4532.179688,4399.358887,4444.487305,,,,,,,,,,,,,,,,,,,,,,,,,,,,,,,,,,,,,,,,,,,,,,,,,,,,,,,,,,,,,,,,,,,,,,
1768972667.962062,1768972667.962473,2.0,0.0,4382.820313,4392.179688,4372.563965,4385.0,4377.692383,4381.922852,4378.846191,4372.692383,4363.974121,4348.589844,4472.307617,4525.256348,4401.666504,4444.230957,,,,,,,,,,,,,,,,,,,,,,,,,,,,,,,,,,,,,,,,,,,,,,,,,,,,,,,,,,,,,,,,,,,,,,
1768972667.96987,1768972667.970282,3.0,0.0,4372.436035,4388.077148,4363.974121,4377.307617,4374.871582,4372.563965,4367.05127,4368.205078,4362.436035,4352.820313,4471.153809,4514.102539,4400.384766,4437.692383,,,,,,,,,,,,,,,,,,,,,,,,,,,,,,,,,,,,,,,,,,,,,,,,,,,,,,,,,,,,,,,,,,,,,,
1768972667.977679,1768972667.97789,4.0,0.0,4378.205078,4390.769043,4364.743652,4377.563965,4373.461426,4358.717773,4356.025879,4377.436035,4373.461426,4365.769043,4473.077148,4517.692383,4411.410156,4442.692383,,,,,,,,,,,,,,,,,,,,,,,,,,,,,,,,,,,,,,,,,,,,,,,,,,,,,,,,,,,,,,,,,,,,,,
1768972667.985487,1768972667.985699,5.0,0.0,4385.897461,4402.307617,4373.846191,4386.282227,4377.692383,4367.692383,4364.102539,4382.05127,4379.871582,4367.692383,4479.487305,4530.128418,4416.282227,4448.974121,,,,,,,,,,,,,,,,,,,,,,,,,,,,,,,,,,,,,,,,,,,,,,,,,,,,,,,,,,,,,,,,,,,,,,
1768972667.993296,1768972667.993407,6.0,0.0,4386.922852,4407.820313,4378.077148,4389.871582,4381.922852,4381.282227,4377.179688,4378.461426,4375.0,4361.794922,4477.05127,4529.743652,4410.0,4445.0,,,,,,,,,,,,,,,,,,,,,,,,,,,,,,,,,,,,,,,,,,,,,,,,,,,,,,,,,,,,,,,,,,,,,,
1768972668.001104,1768972668.001216,7.0,0.0,4388.333496,4407.692383,4378.205078,4387.179688,4374.487305,4374.743652,4375.512695,4379.358887,4375.769043,4360.384766,4472.820313,4519.871582,4410.897461,4441.153809,,,,,,,,,,,,,,,,,,,,,,,,,,,,,,,,,,,,,,,,,,,,,,,,,,,,,,,,,,,,,,,,,,,,,,
1768972668.008913,1768972668.009224,8.0,0.0,4391.922852,4409.871582,4378.461426,4388.974121,4370.256348,4370.128418,4372.94873,4382.179688,4380.0,4370.256348,4484.230957,4522.436035,4415.641113,4450.128418,,,,,,,,,,,,,,,,,,,,,,,,,,,,,,,,,,,,,,,,,,,,,,,,,,,,,,,,,,,,,,,,,,,,,,
1768972668.016721,1768972668.017032,9.0,0.0,4389.102539,4405.0,4375.512695,4389.487305,4378.846191,4374.871582,4376.922852,4380.384766,4375.512695,4371.538574,4492.563965,4533.461426,4416.666504,4460.769043,,,,,,,,,,,,,,,,,,,,,,,,,,,,,,,,,,,,,,,,,,,,,,,,,,,,,,,,,,,,,,,,,,,,,,
1768972668.02453,1768972668.024941,10.0,0.0,4382.307617,4395.384766,4373.205078,4382.179688,4382.179688,4376.153809,4378.717773,4377.563965,4373.717773,4357.05127,4483.077148,4534.743652,4415.128418,4457.179688,,,,,,,,,,,,,,,,,,,,,,,,,,,,,,,,,,,,,,,,,,,,,,,,,,,,,,,,,,,,,,,,,,,,,,
1768972668.032338,1768972668.032749,11.0,0.0,4386.025879,4399.487305,4377.820313,4382.692383,4377.179688,4377.820313,4380.512695,4382.692383,4380.897461,4355.769043,4478.717773,4537.692383,4414.230957,4450.897461,,,,,,,,,,,,,,,,,,,,,,,,,,,,,,,,,,,,,,,,,,,,,,,,,,,,,,,,,,,,,,,,,,,,,,
1768972668.040146,1768972668.040757,12.0,0.0,4393.846191,4404.487305,4379.743652,4388.589844,4378.205078,4382.563965,4383.974121,4391.282227,4384.743652,4369.102539,4492.307617,4551.666504,4415.897461,4456.666504,,,,,,,,,,,,,,,,,,,,,,,,,,,,,,,,,,,,,,,,,,,,,,,,,,,,,,,,,,,,,,,,,,,,,,
1768972668.047955,1768972668.048566,13.0,0.0,4389.230957,4397.05127,4373.589844,4383.717773,4379.615234,4379.743652,4382.179688,4390.512695,4380.512695,4369.230957,4494.102539,4556.025879,4413.589844,4462.179688,,,,,,,,,,,,,,,,,,,,,,,,,,,,,,,,,,,,,,,,,,,,,,,,,,,,,,,,,,,,,,,,,,,,,,
1768972668.055763,1768972668.056274,14.0,0.0,4384.487305,4394.230957,4372.692383,4379.871582,4375.128418,4375.512695,4379.487305,4385.769043,4380.128418,4362.820313,4481.538574,4551.025879,4411.794922,4456.922852,0.408,0.386458,0.230892,0.268678,0.107839,0.938952,0.516847,0.312241,0.167885,0.178878,0.344433,0.322121,0.100961,0.138894,0.116536,0.458671,0.13921,0.161566,0.103909,0.094355,0.329849,0.254749,0.056533,0.046061,0.084207,0.276735,0.188626,0.205995,0.138464,0.124661,0.244823,0.197503,0.116176,0.116386,0.140164,0.077388,0.245326,0.191649,0.161534,0.162986,0.392649,0.188807,0.198457,0.120021,0.130558,0.204512,0.260454,0.233244,0.200174,0.209528,0.50904,0.373765,0.184595,0.334609,0.204007,0.738416,0.668301,0.302587,0.291317,0.169128,0.419392,0.239849,0.296539,0.329639,0.149023,0.301772,0.466721,0.216465,0.268664,0.195234
1768972668.063572,1768972668.064083,15.0,0.0,4387.94873,4395.897461,4379.615234,4383.461426,4372.179688,4373.589844,4380.384766,4385.641113,4384.102539,4365.0,4476.794922,4551.282227,4414.230957,4449.358887,,,,,,,,,,,,,,,,,,,,,,,,,,,,,,,,,,,,,,,,,,,,,,,,,,,,,,,,,,,,,,,,,,,,,,
1768972668.07138,1768972668.072091,16.0,0.0,4384.743652,4387.05127,4376.538574,4380.0,4370.0,4370.0,4378.333496,4383.205078,4377.692383,4360.512695,4474.871582,4548.974121,4408.717773,4442.563965,,,,,,,,,,,,,,,,,,,,,,,,,,,,,,,,,,,,,,,,,,,,,,,,,,,,,,,,,,,,,,,,,,,,,,
1768972668.079189,1768972668.0799,17.0,0.0,4376.282227,4376.794922,4367.436035,4371.282227,4366.922852,4371.922852,4377.179688,4382.05127,4372.563965,4352.05127,4472.563965,4544.615234,4401.282227,4440.769043,,,,,,,,,,,,,,,,,,,,,,,,,,,,,,,,,,,,,,,,,,,,,,,,,,,,,,,,,,,,,,,,,,,,,,
1768972668.086997,1768972668.087608,18.0,0.0,4381.922852,4383.461426,4370.512695,4374.743652,4368.589844,4380.384766,4383.717773,4390.897461,4386.282227,4362.05127,4479.743652,4550.0,4406.538574,4449.615234,,,,,,,,,,,,,,,,,,,,,,,,,,,,,,,,,,,,,,,,,,,,,,,,,,,,,,,,,,,,,,,,,,,,,,
1768972668.094806,1768972668.095417,19.0,0.0,4391.410156,4400.769043,4378.846191,4388.077148,4372.436035,4379.871582,4384.102539,4396.538574,4397.563965,4374.615234,4490.0,4560.897461,4419.102539,4458.846191,,,,,,,,,,,,,,,,,,,,,,,,,,,,,,,,,,,,,,,,,,,,,,,,,,,,,,,,,,,,,,,,,,,,,,
1768972668.102614,1768972668.103025,20.0,0.0,4394.743652,4410.384766,4379.230957,4395.897461,4379.230957,4372.05127,4376.025879,4391.282227,4388.717773,4367.692383,4494.230957,4560.769043,4422.94873,4460.256348,,,,,,,,,,,,,,,,,,,,,,,,,,,,,,,,,,,,,,,,,,,,,,,,,,,,,,,,,,,,,,,,,,,,,,
1768972668.110422,1768972668.110834,21.0,0.0,4395.0,4408.589844,4378.846191,4394.871582,4385.384766,4374.102539,4373.461426,4386.538574,4380.384766,4359.871582,4490.256348,4551.922852,4416.666504,4455.769043,,,,,,,,,,,,,,,,,,,,,,,,,,,,,,,,,,,,,,,,,,,,,,,,,,,,,,,,,,,,,,,,,,,,,,
1768972668.118231,1768972668.118542,22.0,0.0,4394.487305,4404.487305,4379.230957,4392.436035,4382.436035,4377.692383,4375.384766,4383.717773,4381.025879,4363.974121,4482.05127,4548.717773,4410.641113,4454.487305,,,,,,,,,,,,,,,,,,,,,,,,,,,,,,,,,,,,,,,,,,,,,,,,,,,,,,,,,,,,,,,,,,,,,,
1768972668.126039,1768972668.126351,23.0,0.0,4394.102539,4405.256348,4378.333496,4391.922852,4378.077148,4374.487305,4376.153809,4379.615234,4376.794922,4365.512695,4477.307617,4552.436035,4412.179688,4460.641113,,,,,,,,,,,,,,,,,,,,,,,,,,,,,,,,,,,,,,,,,,,,,,,,,,,,,,,,,,,,,,,,,,,,,,
1768972668.133848,1768972668.134359,24.0,0.0,4394.487305,4407.692383,4380.512695,4392.820313,4377.94873,4370.641113,4373.974121,4378.077148,4371.794922,4357.692383,4477.563965,4554.358887,4414.871582,4458.846191,,,,,,,,,,,,,,,,,,,,,,,,,,,,,,,,,,,,,,,,,,,,,,,,,,,,,,,,,,,,,,,,,,,,,,
1768972668.141656,1768972668.142167,25.0,0.0,4396.153809,4405.384766,4380.0,4392.692383,4378.717773,4368.589844,4367.820313,4374.871582,4371.282227,4352.692383,4475.128418,4549.358887,4414.615234,4447.436035,,,,,,,,,,,,,,,,,,,,,,,,,,,,,,,,,,,,,,,,,,,,,,,,,,,,,,,,,,,,,,,,,,,,,,
1768972668.149464,1768972668.150076,26.0,0.0,4396.538574,4402.563965,4373.846191,4389.230957,4377.563965,4371.153809,4367.05127,4368.974121,4367.820313,4356.922852,4472.692383,4547.05127,4411.922852,4448.974121,,,,,,,,,,,,,,,,,,,,,,,,,,,,,,,,,,,,,,,,,,,,,,,,,,,,,,,,,,,,,,,,,,,,,,
1768972668.157273,1768972668.157884,27.0,0.0,4393.974121,4405.256348,4372.307617,4387.94873,4374.487305,4375.769043,4373.205078,4373.846191,4369.487305,4357.563965,4474.871582,4551.025879,4406.410156,4459.358887,,,,,,,,,,,,,,,,,,,,,,,,,,,,,,,,,,,,,,,,,,,,,,,,,,,,,,,,,,,,,,,,,,,,,,
1768972668.165081,1768972668.165493,28.0,0.0,4393.717773,4405.256348,4373.846191,4390.384766,4374.615234,4372.563965,4372.179688,4381.153809,4377.307617,4351.666504,4475.128418,4550.384766,4407.179688,4452.436035,,,,,,,,,,,,,,,,,,,,,,,,,,,,,,,,,,,,,,,,,,,,,,,,,,,,,,,,,,,,,,,,,,,,,,
1768972668.17289,1768972668.173301,29.0,0.0,4393.974121,4396.666504,4375.0,4388.077148,4379.358887,4365.512695,4368.589844,4377.436035,4377.436035,4354.230957,4473.077148,4548.205078,4411.153809,4441.153809,,,,,,,,,,,,,,,,,,,,,,,,,,,,,,,,,,,,,,,,,,,,,,,,,,,,,,,,,,,,,,,,,,,,,,
1768972668.180698,1768972668.18101,30.0,0.0,4390.769043,4388.717773,4377.05127,4384.230957,4377.692383,4368.846191,4372.436035,4372.436035,4371.410156,4361.153809,4473.846191,4547.05127,4407.94873,4444.615234,0.411157,0.405326,0.283093,0.279111,0.114516,0.841211,0.50133,0.354449,0.163332,0.187893,0.327981,0.36487,0.143476,0.125838,0.114489,0.416393,0.126347,0.188773,0.092018,0.087709,0.311035,0.280816,0.053611,0.043362,0.080176,0.348449,0.163864,0.142633,0.130843,0.129099,0.259663,0.199767,0.089688,0.125669,0.131692,0.062417,0.24625,0.165077,0.166439,0.16729,0.432946,0.174916,0.147423,0.121723,0.13089,0.263133,0.22042,0.228941,0.210601,0.228636,0.561188,0.344705,0.195189,0.376517,0.218481,0.881378,0.584035,0.35895,0.347388,0.165887,0.465747,0.249644,0.315539,0.359516,0.15428,0.269444,0.486139,0.241175,0.307651,0.195493
1768972668.188507,1768972668.188818,31.0,0.0,4388.974121,4386.538574,4375.897461,4382.436035,4369.871582,4374.743652,4375.256348,4377.820313,4374.487305,4358.205078,4473.333496,4541.410156,4403.589844,4447.307617,,,,,,,,,,,,,,,,,,,,,,,,,,,,,,,,,,,,,,,,,,,,,,,,,,,,,,,,,,,,,,,,,,,,,,
1768972668.196315,1768972668.196827,32.0,0.0,4393.846191,4387.307617,4372.05127,4380.256348,4368.846191,4367.820313,4372.179688,4383.589844,4377.436035,4354.743652,4471.922852,4539.230957,4400.641113,4443.846191,,,,,,,,,,,,,,,,,,,,,,,,,,,,,,,,,,,,,,,,,,,,,,,,,,,,,,,,,,,,,,,,,,,,,,
1768972668.204124,1768972668.204635,33.0,0.0,4396.794922,4392.05127,4370.256348,4382.94873,4372.179688,4359.615234,4367.94873,4376.025879,4372.94873,4357.307617,4472.94873,4545.128418,4401.666504,4443.717773,,,,,,,,,,,,,,,,,,,,,,,,,,,,,,,,,,,,,,,,,,,,,,,,,,,,,,,,,,,,,,,,,,,,,,
1768972668.211932,1768972668.212543,34.0,0.0,4395.641113,4394.230957,4372.436035,4386.282227,4375.641113,4364.743652,4366.538574,4368.589844,4369.487305,4356.922852,4475.128418,4546.410156,4409.358887,4445.256348,,,,,,,,,,,,,,,,,,,,,,,,,,,,,,,,,,,,,,,,,,,,,,,,,,,,,,,,,,,,,,,,,,,,,,
1768972668.219741,1768972668.220352,35.0,0.0,4393.846191,4393.589844,4378.589844,4385.897461,4379.487305,4374.358887,4371.410156,4376.153809,4371.025879,4356.666504,4475.769043,4546.153809,4414.230957,4446.025879,,,,,,,,,,,,,,,,,,,,,,,,,,,,,,,,,,,,,,,,,,,,,,,,,,,,,,,,,,,,,,,,,,,,,,
1768972668.227549,1768972668.22836,36.0,0.0,4392.692383,4394.743652,4381.282227,4386.153809,4379.358887,4372.307617,4373.846191,4381.410156,4375.641113,4361.025879,4476.282227,4546.922852,4410.769043,4444.487305,,,,,,,,,,,,,,,,,,,,,,,,,,,,,,,,,,,,,,,,,,,,,,,,,,,,,,,,,,,,,,,,,,,,,,
1768972668.235357,1768972668.236168,37.0,0.0,4395.641113,4392.563965,4373.846191,4384.743652,4376.538574,4366.282227,4369.230957,4375.897461,4376.282227,4357.307617,4476.538574,4546.025879,4411.025879,4444.615234,,,,,,,,,,,,,,,,,,,,,,,,,,,,,,,,,,,,,,,,,,,,,,,,,,,,,,,,,,,,,,,,,,,,,,
1768972668.243166,1768972668.244077,38.0,0.0,4392.307617,4387.94873,4365.641113,4380.641113,4373.846191,4369.871582,4368.846191,4373.205078,4373.077148,4351.153809,4476.282227,4546.282227,4413.333496,4446.538574,,,,,,,,,,,,,,,,,,,,,,,,,,,,,,,,,,,,,,,,,,,,,,,,,,,,,,,,,,,,,,,,,,,,,,
1768972668.250974,1768972668.251885,39.0,0.0,4384.487305,4385.512695,4367.563965,4380.641113,4372.563965,4371.794922,4373.205078,4374.358887,4371.410156,4355.512695,4475.256348,4545.0,4411.794922,4443.589844,,,,,,,,,,,,,,,,,,,,,,,,,,,,,,,,,,,,,,,,,,,,,,,,,,,,,,,,,,,,,,,,,,,,,,
1768972668.258783,1768972668.259893,40.0,0.0,4390.0,4379.230957,4371.922852,4382.820313,4370.769043,4368.461426,4374.358887,4375.769043,4373.333496,4360.384766,4474.615234,4539.487305,4411.025879,4441.538574,,,,,,,,,,,,,,,,,,,,,,,,,,,,,,,,,,,,,,,,,,,,,,,,,,,,,,,,,,,,,,,,,,,,,,
1768972668.266591,1768972668.267702,41.0,0.0,4395.256348,4372.05127,4372.692383,4384.102539,4371.538574,4370.641113,4372.692383,4380.256348,4378.974121,4358.077148,4474.487305,4539.871582,4410.641113,4445.641113,,,,,,,,,,,,,,,,,,,,,,,,,,,,,,,,,,,,,,,,,,,,,,,,,,,,,,,,,,,,,,,,,,,,,,
1768972668.2744,1768972668.27541,42.0,0.0,4388.974121,4373.717773,4373.589844,4385.384766,4373.589844,4376.282227,4372.179688,4377.94873,4380.128418,4357.05127,4474.230957,4540.384766,4410.897461,4446.794922,,,,,,,,,,,,,,,,,,,,,,,,,,,,,,,,,,,,,,,,,,,,,,,,,,,,,,,,,,,,,,,,,,,,,,
1768972668.282208,1768972668.283219,43.0,0.0,4386.153809,4374.871582,4373.077148,4383.589844,4372.307617,4379.358887,4374.102539,4370.641113,4376.025879,4358.461426,4474.230957,4531.282227,4410.641113,4440.256348,,,,,,,,,,,,,,,,,,,,,,,,,,,,,,,,,,,,,,,,,,,,,,,,,,,,,,,,,,,,,,,,,,,,,,
1768972668.290017,1768972668.290828,44.0,0.0,4388.974121,4370.384766,4371.922852,4381.538574,4370.384766,4380.256348,4375.897461,4375.384766,4379.358887,4357.692383,4475.384766,4531.282227,4409.743652,4442.94873,,,,,,,,,,,,,,,,,,,,,,,,,,,,,,,,,,,,,,,,,,,,,,,,,,,,,,,,,,,,,,,,,,,,,,
1768972668.297825,1768972668.298636,45.0,0.0,4388.333496,4374.743652,4374.487305,4385.256348,4370.641113,4377.692383,4371.794922,4377.94873,4385.512695,4357.820313,4476.666504,4539.102539,4411.666504,4451.538574,,,,,,,,,,,,,,,,,,,,,,,,,,,,,,,,,,,,,,,,,,,,,,,,,,,,,,,,,,,,,,,,,,,,,,
1768972668.305633,1768972668.306345,46.0,0.0,4388.461426,4384.230957,4379.230957,4389.358887,4372.820313,4373.717773,4368.333496,4368.846191,4380.128418,4358.077148,4476.153809,4535.897461,4414.230957,4449.615234,0.418482,0.400472,0.31805,0.287603,0.124516,0.765039,0.493601,0.373131,0.162103,0.186428,0.298638,0.385207,0.18624,0.113605,0.10949,0.385862,0.116617,0.200182,0.082865,0.08594,0.286066,0.28366,0.049991,0.044024,0.077633,0.419676,0.169729,0.090797,0.123331,0.133459,0.261701,0.227437,0.074243,0.132413,0.119744,0.070364,0.240038,0.14245,0.164781,0.16698,0.452581,0.167129,0.113355,0.121881,0.129466,0.325102,0.172373,0.2187,0.219547,0.245019,0.657016,0.296255,0.213557,0.413016,0.237006,1.023736,0.497235,0.402882,0.38111,0.166384,0.511881,0.250226,0.331985,0.375916,0.156705,0.26737,0.471993,0.272767,0.343748,0.208868
1768972668.313442,1768972668.314153,47.0,0.0,4391.538574,4384.871582,4380.769043,4389.615234,4372.820313,4374.487305,4372.05127,4372.94873,4381.153809,4359.358887,4478.333496,4534.615234,4414.102539,4450.384766,,,,,,,,,,,,,,,,,,,,,,,,,,,,,,,,,,,,,,,,,,,,,,,,,,,,,,,,,,,,,,,,,,,,,,
1768972668.32125,1768972668.321762,48.0,0.0,4390.384766,4381.666504,4380.512695,4388.333496,4370.897461,4375.897461,4373.205078,4382.563965,4389.102539,4362.436035,4482.820313,4541.538574,4418.717773,4458.205078,,,,,,,,,,,,,,,,,,,,,,,,,,,,,,,,,,,,,,,,,,,,,,,,,,,,,,,,,,,,,,,,,,,,,,
1768972668.329059,1768972668.32957,49.0,0.0,4390.0,4385.512695,4378.333496,4388.077148,4372.05127,4376.153809,4371.666504,4374.102539,4382.94873,4363.333496,4483.333496,4537.563965,4426.666504,4458.717773,,,,,,,,,,,,,,,,,,,,,,,,,,,,,,,,,,,,,,,,,,,,,,,,,,,,,,,,,,,,,,,,,,,,,,
1768972668.336867,1768972668.337279,50.0,0.0,4395.256348,4390.256348,4376.153809,4390.256348,4375.0,4375.384766,4370.128418,4369.615234,4380.384766,4369.102539,4481.794922,4530.128418,4428.589844,4458.589844,,,,,,,,,,,,,,,,,,,,,,,,,,,,,,,,,,,,,,,,,,,,,,,,,,,,,,,,,,,,,,,,,,,,,,
1768972668.344676,1768972668.345087,51.0,0.0,4394.615234,4387.179688,4371.922852,4388.717773,4373.077148,4371.153809,4365.512695,4375.897461,4388.333496,4366.538574,4479.743652,4531.794922,4423.846191,4459.743652,,,,,,,,,,,,,,,,,,,,,,,,,,,,,,,,,,,,,,,,,,,,,,,,,,,,,,,,,,,,,,,,,,,,,,
1768972668.352484,1768972668.353095,52.0,0.0,4386.025879,4384.871582,4369.487305,4385.384766,4370.897461,4374.871582,4367.692383,4372.563965,4383.589844,4347.820313,4476.153809,4526.794922,4417.05127,4447.94873,,,,,,,,,,,,,,,,,,,,,,,,,,,,,,,,,,,,,,,,,,,,,,,,,,,,,,,,,,,,,,,,,,,,,,
1768972668.360293,1768972668.360904,53.0,0.0,4387.94873,4388.461426,4375.384766,4392.179688,4378.846191,4384.487305,4375.512695,4363.717773,4371.282227,4349.230957,4471.282227,4520.641113,4411.153809,4437.179688,,,,,,,,,,,,,,,,,,,,,,,,,,,,,,,,,,,,,,,,,,,,,,,,,,,,,,,,,,,,,,,,,,,,,,
1768972668.368101,1768972668.368612,54.0,0.0,4398.846191,4388.846191,4379.871582,4396.538574,4382.179688,4380.256348,4372.692383,4365.128418,4376.410156,4370.256348,4475.384766,4530.769043,4416.153809,4449.487305,,,,,,,,,,,,,,,,,,,,,,,,,,,,,,,,,,,,,,,,,,,,,,,,,,,,,,,,,,,,,,,,,,,,,,
1768972668.375909,1768972668.376421,55.0,0.0,4400.512695,4383.333496,4379.487305,4391.282227,4373.589844,4371.282227,4367.307617,4372.436035,4387.436035,4368.846191,4484.230957,4544.358887,4427.436035,4461.794922,,,,,,,,,,,,,,,,,,,,,,,,,,,,,,,,,,,,,,,,,,,,,,,,,,,,,,,,,,,,,,,,,,,,,,
1768972668.383718,1768972668.384029,56.0,0.0,4396.922852,4381.538574,4376.666504,4391.153809,4371.410156,4375.0,4370.512695,4370.641113,4384.871582,4358.333496,4479.487305,4541.410156,4425.384766,4456.153809,,,,,,,,,,,,,,,,,,,,,,,,,,,,,,,,,,,,,,,,,,,,,,,,,,,,,,,,,,,,,,,,,,,,,,
1768972668.391526,1768972668.391838,57.0,0.0,4396.410156,4385.0,4373.205078,4393.974121,4380.128418,4379.871582,4371.666504,4366.153809,4379.743652,4363.461426,4477.05127,4537.94873,4417.179688,4451.538574,,,,,,,,,,,,,,,,,,,,,,,,,,,,,,,,,,,,,,,,,,,,,,,,,,,,,,,,,,,,,,,,,,,,,,
1768972668.399335,1768972668.399546,58.0,0.0,4399.487305,4383.205078,4375.641113,4393.205078,4381.666504,4376.410156,4372.563965,4369.230957,4381.666504,4364.487305,4486.025879,4549.487305,4422.692383,4458.974121,,,,,,,,,,,,,,,,,,,,,,,,,,,,,,,,,,,,,,,,,,,,,,,,,,,,,,,,,,,,,,,,,,,,,,
1768972668.407143,1768972668.407355,59.0,0.0,4404.615234,4379.230957,4381.922852,4394.230957,4373.461426,4374.358887,4373.077148,4372.563965,4386.153809,4356.025879,4485.769043,4553.461426,4426.666504,4463.461426,,,,,,,,,,,,,,,,,,,,,,,,,,,,,,,,,,,,,,,,,,,,,,,,,,,,,,,,,,,,,,,,,,,,,,
1768972668.414952,1768972668.415363,60.0,0.0,4404.487305,4379.743652,4379.615234,4393.846191,4371.538574,4378.846191,4373.333496,4371.794922,4387.05127,4356.666504,4481.410156,4541.410156,4420.0,4457.692383,,,,,,,,,,,,,,,,,,,,,,,,,,,,,,,,,,,,,,,,,,,,,,,,,,,,,,,,,,,,,,,,,,,,,,
1768972668.42276,1768972668.423172,61.0,0.0,4402.05127,4382.307617,4373.974121,4392.307617,4378.717773,4385.0,4380.128418,4376.025879,4388.077148,4363.333496,4488.846191,4534.487305,4422.692383,4455.769043,,,,,,,,,,,,,,,,,,,,,,,,,,,,,,,,,,,,,,,,,,,,,,,,,,,,,,,,,,,,,,,,,,,,,,
1768972668.430569,1768972668.43108,62.0,0.0,4402.179688,4380.641113,4377.692383,4393.333496,4379.358887,4378.589844,4379.487305,4381.410156,4390.256348,4363.077148,4490.384766,4539.230957,4428.205078,4462.179688,0.427325,0.372082,0.326641,0.292431,0.136846,0.722164,0.508165,0.359162,0.170113,0.175863,0.266178,0.388972,0.220169,0.106186,0.102999,0.383166,0.11853,0.193672,0.081336,0.087772,0.253282,0.265071,0.050138,0.049714,0.077015,0.463939,0.209218,0.059575,0.118069,0.136157,0.253028,0.282863,0.079245,0.139504,0.106413,0.107497,0.224675,0.132492,0.159716,0.161967,0.453432,0.168671,0.100434,0.1221,0.127787,0.375031,0.128416,0.20759,0.22519,0.258703,0.739387,0.243713,0.239247,0.431571,0.256129,1.13782,0.421951,0.423761,0.3845,0.172245,0.536197,0.247603,0.347894,0.371823,0.156866,0.296022,0.43427,0.307376,0.373586,0.232768
1768972668.438377,1768972668.438888,63.0,0.0,4400.128418,4374.102539,4381.153809,4389.743652,4373.717773,4368.846191,4368.461426,4375.384766,4384.358887,4356.666504,4477.563965,4536.922852,4417.436035,4456.922852,,,,,,,,,,,,,,,,,,,,,,,,,,,,,,,,,,,,,,,,,,,,,,,,,,,,,,,,,,,,,,,,,,,,,,
1768972668.446185,1768972668.446897,64.0,0.0,4396.666504,4368.717773,4378.846191,4384.487305,4374.358887,4373.205078,4370.0,4367.436035,4378.077148,4356.666504,4475.384766,4529.871582,4411.025879,4447.179688,,,,,,,,,,,,,,,,,,,,,,,,,,,,,,,,,,,,,,,,,,,,,,,,,,,,,,,,,,,,,,,,,,,,,,
1768972668.453994,1768972668.454705,65.0,0.0,4398.589844,4368.717773,4378.974121,4388.461426,4376.922852,4380.0,4380.897461,4370.384766,4380.0,4356.153809,4484.615234,4535.641113,4421.025879,4454.743652,,,,,,,,,,,,,,,,,,,,,,,,,,,,,,,,,,,,,,,,,,,,,,,,,,,,,,,,,,,,,,,,,,,,,,
1768972668.461802,1768972668.462414,66.0,0.0,4401.282227,4370.897461,4381.153809,4390.769043,4374.358887,4377.179688,4380.769043,4375.769043,4381.922852,4350.512695,4482.692383,4538.077148,4422.307617,4458.333496,,,,,,,,,,,,,,,,,,,,,,,,,,,,,,,,,,,,,,,,,,,,,,,,,,,,,,,,,,,,,,,,,,,,,,
1768972668.469611,1768972668.470222,67.0,0.0,4399.358887,4369.102539,4379.871582,4386.666504,4372.692383,4375.128418,4377.563965,4373.717773,4381.282227,4354.871582,4476.153809,4534.743652,4418.589844,4447.563965,,,,,,,,,,,,,,,,,,,,,,,,,,,,,,,,,,,,,,,,,,,,,,,,,,,,,,,,,,,,,,,,,,,,,,
1768972668.477419,1768972668.477931,68.0,0.0,4397.94873,4365.0,4378.974121,4386.794922,4372.692383,4378.589844,4381.922852,4374.871582,4386.282227,4363.205078,4482.179688,4541.538574,4426.410156,4450.897461,,,,,,,,,,,,,,,,,,,,,,,,,,,,,,,,,,,,,,,,,,,,,,,,,,,,,,,,,,,,,,,,,,,,,,
1768972668.485228,1768972668.485739,69.0,0.0,4396.794922,4365.0,4380.641113,4388.589844,4372.94873,4377.179688,4381.153809,4377.692383,4385.128418,4359.615234,4486.410156,4542.94873,4425.512695,4460.641113,,,,,,,,,,,,,,,,,,,,,,,,,,,,,,,,,,,,,,,,,,,,,,,,,,,,,,,,,,,,,,,,,,,,,,
1768972668.493036,1768972668.493448,70.0,0.0,4397.436035,4368.846191,4380.641113,4388.589844,4373.077148,4373.461426,4373.717773,4371.153809,4374.871582,4355.641113,4477.820313,4534.615234,4412.05127,4451.666504,,,,,,,,,,,,,,,,,,,,,,,,,,,,,,,,,,,,,,,,,,,,,,,,,,,,,,,,,,,,,,,,,,,,,,
1768972668.500845,1768972668.501256,71.0,0.0,4399.230957,4371.922852,4381.282227,4388.846191,4373.717773,4371.666504,4370.256348,4365.641113,4375.384766,4357.307617,4472.436035,4538.333496,4411.282227,4441.153809,,,,,,,,,,,,,,,,,,,,,,,,,,,,,,,,,,,,,,,,,,,,,,,,,,,,,,,,,,,,,,,,,,,,,,
1768972668.508653,1768972668.509264,72.0,0.0,4400.256348,4373.717773,4380.256348,4390.384766,4375.897461,4372.307617,4374.230957,4369.743652,4381.794922,4356.794922,4477.179688,4545.641113,4421.666504,4444.743652,,,,,,,,,,,,,,,,,,,,,,,,,,,,,,,,,,,,,,,,,,,,,,,,,,,,,,,,,,,,,,,,,,,,,,
1768972668.516461,1768972668.517073,73.0,0.0,4395.512695,4375.0,4376.538574,4387.307617,4374.102539,4375.128418,4374.615234,4376.538574,4382.307617,4359.871582,4483.717773,4547.179688,4424.615234,4451.025879,,,,,,,,,,,,,,,,,,,,,,,,,,,,,,,,,,,,,,,,,,,,,,,,,,,,,,,,,,,,,,,,,,,,,,
1768972668.52427,1768972668.524781,74.0,0.0,4389.102539,4373.974121,4374.871582,4381.153809,4367.563965,4375.897461,4372.436035,4376.922852,4381.794922,4366.153809,4485.641113,4547.94873,4418.846191,4451.153809,,,,,,,,,,,,,,,,,,,,,,,,,,,,,,,,,,,,,,,,,,,,,,,,,,,,,,,,,,,,,,,,,,,,,,
1768972668.532078,1768972668.53259,75.0,0.0,4392.692383,4370.897461,4376.538574,4380.641113,4368.077148,4378.717773,4377.179688,4373.589844,4381.410156,4362.94873,4480.256348,4542.05127,4414.871582,4445.769043,,,,,,,,,,,,,,,,,,,,,,,,,,,,,,,,,,,,,,,,,,,,,,,,,,,,,,,,,,,,,,,,,,,,,,
1768972668.539887,1768972668.540598,76.0,0.0,4395.0,4372.179688,4378.205078,4382.307617,4373.461426,4380.384766,4379.615234,4378.077148,4379.743652,4360.512695,4474.102539,4536.153809,4413.974121,4444.615234,,,,,,,,,,,,,,,,,,,,,,,,,,,,,,,,,,,,,,,,,,,,,,,,,,,,,,,,,,,,,,,,,,,,,,
1768972668.547695,1768972668.548406,77.0,0.0,4390.897461,4374.615234,4376.666504,4381.410156,4373.589844,4379.487305,4378.205078,4384.487305,4380.512695,4364.487305,4477.94873,4540.897461,4413.717773,4450.641113,,,,,,,,,,,,,,,,,,,,,,,,,,,,,,,,,,,,,,,,,,,,,,,,,,,,,,,,,,,,,,,,,,,,,,
1768972668.555504,1768972668.556315,78.0,0.0,4387.436035,4365.769043,4373.974121,4380.384766,4373.333496,4381.794922,4379.487305,4383.461426,4383.974121,4363.333496,4488.717773,4545.128418,4418.717773,4455.128418,0.432505,0.331007,0.305685,0.28995,0.148655,0.747149,0.571073,0.316779,0.190593,0.160169,0.236978,0.386001,0.236495,0.105744,0.096783,0.412633,0.138716,0.172476,0.089927,0.091024,0.213467,0.238167,0.057658,0.060892,0.077602,0.467602,0.271131,0.050833,0.118548,0.137322,0.243033,0.356596,0.107006,0.149581,0.09433,0.174283,0.2025,0.139726,0.155648,0.155297,0.454376,0.183279,0.10738,0.125128,0.128293,0.402748,0.099174,0.198722,0.226102,0.271319,0.763815,0.205147,0.271615,0.425137,0.270231,1.203598,0.372185,0.416346,0.360424,0.182521,0.526327,0.253606,0.363208,0.347481,0.155636,0.354998,0.392077,0.337777,0.39413,0.259611
1768972668.563312,1768972668.564123,79.0,0.0,4385.256348,4355.897461,4372.563965,4379.743652,4372.307617,4382.307617,4378.461426,4377.179688,4380.384766,4360.641113,4486.410156,4537.692383,4424.230957,4455.128418,,,,,,,,,,,,,,,,,,,,,,,,,,,,,,,,,,,,,,,,,,,,,,,,,,,,,,,,,,,,,,,,,,,,,,
1768972668.571121,1768972668.571732,80.0,0.0,4387.820313,4361.410156,4376.666504,4380.128418,4366.410156,4375.128418,4372.820313,4373.333496,4375.256348,4365.256348,4478.974121,4531.153809,4421.025879,4456.922852,,,,,,,,,,,,,,,,,,,,,,,,,,,,,,,,,,,,,,,,,,,,,,,,,,,,,,,,,,,,,,,,,,,,,,
1768972668.578929,1768972668.57954,81.0,0.0,4397.307617,4369.230957,4381.922852,4383.846191,4365.384766,4369.487305,4370.897461,4376.282227,4378.846191,4363.461426,4483.717773,4536.025879,4419.358887,4458.717773,,,,,,,,,,,,,,,,,,,,,,,,,,,,,,,,,,,,,,,,,,,,,,,,,,,,,,,,,,,,,,,,,,,,,,
1768972668.586737,1768972668.587249,82.0,0.0,4397.94873,4363.717773,4380.0,4385.384766,4370.769043,4375.769043,4374.358887,4381.666504,4381.922852,4354.615234,4485.128418,4537.563965,4419.743652,4453.846191,,,,,,,,,,,,,,,,,,,,,,,,,,,,,,,,,,,,,,,,,,,,,,,,,,,,,,,,,,,,,,,,,,,,,,
1768972668.594546,1768972668.595057,83.0,0.0,4388.974121,4354.102539,4376.538574,4380.769043,4369.358887,4379.487305,4374.358887,4377.94873,4376.282227,4357.05127,4475.769043,4532.307617,4415.0,4447.563965,,,,,,,,,,,,,,,,,,,,,,,,,,,,,,,,,,,,,,,,,,,,,,,,,,,,,,,,,,,,,,,,,,,,,,
1768972668.602354,1768972668.603066,84.0,0.0,4389.102539,4355.897461,4376.538574,4378.717773,4365.641113,4373.846191,4369.615234,4368.974121,4374.230957,4366.025879,4475.256348,4528.717773,4415.128418,4447.436035,,,,,,,,,,,,,,,,,,,,,,,,,,,,,,,,,,,,,,,,,,,,,,,,,,,,,,,,,,,,,,,,,,,,,,
1768972668.610163,1768972668.610874,85.0,0.0,4389.102539,4356.410156,4376.538574,4380.512695,4369.743652,4368.974121,4367.05127,4372.05127,4382.563965,4365.384766,4479.102539,4526.410156,4419.102539,4446.922852,,,,,,,,,,,,,,,,,,,,,,,,,,,,,,,,,,,,,,,,,,,,,,,,,,,,,,,,,,,,,,,,,,,,,,
1768972668.617971,1768972668.618782,86.0,0.0,4386.282227,4348.589844,4376.666504,4379.615234,4372.820313,4370.897461,4370.641113,4376.282227,4382.05127,4359.871582,4474.871582,4527.563965,4413.717773,4444.358887,,,,,,,,,,,,,,,,,,,,,,,,,,,,,,,,,,,,,,,,,,,,,,,,,,,,,,,,,,,,,,,,,,,,,,
1768972668.62578,1768972668.626591,87.0,0.0,4389.230957,4345.384766,4378.589844,4380.384766,4370.256348,4379.102539,4373.333496,4372.563965,4374.487305,4357.94873,4475.512695,4531.666504,4409.358887,4444.871582,,,,,,,,,,,,,,,,,,,,,,,,,,,,,,,,,,,,,,,,,,,,,,,,,,,,,,,,,,,,,,,,,,,,,,
1768972668.633588,1768972668.634599,88.0,0.0,4388.205078,4347.05127,4376.538574,4381.666504,4368.205078,4380.128418,4372.05127,4374.358887,4372.820313,4356.025879,4477.05127,4530.641113,4412.820313,4444.230957,,,,,,,,,,,,,,,,,,,,,,,,,,,,,,,,,,,,,,,,,,,,,,,,,,,,,,,,,,,,,,,,,,,,,,
1768972668.641396,1768972668.642407,89.0,0.0,4383.717773,4345.641113,4369.743652,4375.512695,4367.692383,4373.205078,4372.05127,4376.025879,4372.692383,4352.820313,4472.436035,4526.025879,4411.666504,4442.179688,,,,,,,,,,,,,,,,,,,,,,,,,,,,,,,,,,,,,,,,,,,,,,,,,,,,,,,,,,,,,,,,,,,,,,
1768972668.649205,1768972668.650116,90.0,0.0,4385.897461,4346.025879,4369.743652,4373.077148,4369.615234,4377.179688,4374.871582,4370.769043,4372.563965,4354.487305,4473.589844,4526.153809,4405.897461,4442.563965,,,,,,,,,,,,,,,,,,,,,,,,,,,,,,,,,,,,,,,,,,,,,,,,,,,,,,,,,,,,,,,,,,,,,,
1768972668.657013,1768972668.657924,91.0,0.0,4390.256348,4350.769043,4374.871582,4379.615234,4374.102539,4385.0,4374.230957,4368.333496,4372.307617,4355.769043,4476.282227,4530.128418,4401.538574,4442.563965,,,,,,,,,,,,,,,,,,,,,,,,,,,,,,,,,,,,,,,,,,,,,,,,,,,,,,,,,,,,,,,,,,,,,,
1768972668.664822,1768972668.665533,92.0,0.0,4391.922852,4352.94873,4372.436035,4381.922852,4371.666504,4379.615234,4368.205078,4369.487305,4370.641113,4352.307617,4470.641113,4530.769043,4400.769043,4441.153809,,,,,,,,,,,,,,,,,,,,,,,,,,,,,,,,,,,,,,,,,,,,,,,,,,,,,,,,,,,,,,,,,,,,,,
1768972668.67263,1768972668.673342,93.0,0.0,4395.384766,4353.717773,4370.641113,4380.0,4365.512695,4374.487305,4370.128418,4369.487305,4370.641113,4352.436035,4466.922852,4527.94873,4405.897461,4441.794922,,,,,,,,,,,,,,,,,,,,,,,,,,,,,,,,,,,,,,,,,,,,,,,,,,,,,,,,,,,,,,,,,,,,,,
1768972668.680439,1768972668.68105,94.0,0.0,4397.692383,4355.384766,4374.743652,4381.025879,4370.128418,4376.794922,4378.717773,4372.692383,4375.0,4360.641113,4473.333496,4529.871582,4411.153809,4444.487305,0.428111,0.291366,0.260107,0.277107,0.15672,0.866857,0.696638,0.26035,0.220237,0.14395,0.212704,0.383546,0.231076,0.112054,0.091957,0.468077,0.177234,0.143277,0.106467,0.093534,0.182459,0.220616,0.073193,0.075577,0.078607,0.429883,0.335029,0.05877,0.127084,0.138216,0.24051,0.428197,0.147949,0.16237,0.08604,0.26354,0.182811,0.162833,0.156153,0.151519,0.453127,0.211356,0.130532,0.132977,0.133269,0.405216,0.089911,0.192171,0.223492,0.284457,0.724337,0.193042,0.308817,0.39425,0.2735,1.217208,0.35305,0.387507,0.319474,0.194468,0.494573,0.278269,0.375931,0.311488,0.153756,0.423998,0.363997,0.358503,0.400556,0.281126
1768972668.688247,1768972668.688859,95.0,0.0,4396.410156,4350.384766,4375.641113,4381.025879,4376.025879,4373.205078,4376.794922,4376.410156,4380.641113,4361.153809,4478.461426,4538.077148,4412.563965,4445.256348,,,,,,,,,,,,,,,,,,,,,,,,,,,,,,,,,,,,,,,,,,,,,,,,,,,,,,,,,,,,,,,,,,,,,,
1768972668.696056,1768972668.696467,96.0,0.0,4395.769043,4346.922852,4374.743652,4380.0,4373.846191,4371.410156,4370.128418,4376.538574,4377.94873,4347.563965,4475.128418,4539.743652,4411.410156,4444.358887,,,,,,,,,,,,,,,,,,,,,,,,,,,,,,,,,,,,,,,,,,,,,,,,,,,,,,,,,,,,,,,,,,,,,,
1768972668.703864,1768972668.704276,97.0,0.0,4396.282227,4348.077148,4375.384766,4383.205078,4370.897461,4378.461426,4374.358887,4380.384766,4374.871582,4347.307617,4474.358887,4532.94873,4413.333496,4443.717773,,,,,,,,,,,,,,,,,,,,,,,,,,,,,,,,,,,,,,,,,,,,,,,,,,,,,,,,,,,,,,,,,,,,,,
1768972668.711672,1768972668.711984,98.0,0.0,4397.436035,4344.743652,4374.230957,4383.717773,4366.282227,4379.487305,4375.641113,4383.589844,4375.769043,4362.692383,4477.692383,4528.974121,4415.897461,4442.307617,,,,,,,,,,,,,,,,,,,,,,,,,,,,,,,,,,,,,,,,,,,,,,,,,,,,,,,,,,,,,,,,,,,,,,
1768972668.719481,1768972668.719793,99.0,0.0,4398.974121,4343.846191,4373.205078,4381.922852,4363.461426,4376.922852,4367.563965,4381.922852,4377.179688,4362.820313,4477.05127,4529.743652,4412.436035,4441.538574,,,,,,,,,,,,,,,,,,,,,,,,,,,,,,,,,,,,,,,,,,,,,,,,,,,,,,,,,,,,,,,,,,,,,,
1768972668.727289,1768972668.727401,100.0,0.0,4399.102539,4350.512695,4372.436035,4382.692383,4369.615234,4378.974121,4366.794922,4379.487305,4375.384766,4353.974121,4475.256348,4529.487305,4408.077148,4443.461426,,,,,,,,,,,,,,,,,,,,,,,,,,,,,,,,,,,,,,,,,,,,,,,,,,,,,,,,,,,,,,,,,,,,,,
1768972668.735098,1768972668.73521,101.0,0.0,4397.05127,4351.922852,4367.05127,4383.333496,4372.94873,4379.487305,4371.538574,4378.205078,4374.230957,4357.692383,4474.743652,4528.333496,4409.358887,4443.974121,,,,,,,,,,,,,,,,,,,,,,,,,,,,,,,,,,,,,,,,,,,,,,,,,,,,,,,,,,,,,,,,,,,,,,
1768972668.742906,1768972668.743118,102.0,0.0,4395.128418,4348.461426,4365.641113,4384.102539,4368.077148,4375.641113,4372.692383,4381.153809,4379.230957,4360.384766,4476.410156,4530.512695,4413.333496,4445.256348,,,,,,,,,,,,,,,,,,,,,,,,,,,,,,,,,,,,,,,,,,,,,,,,,,,,,,,,,,,,,,,,,,,,,,
1768972668.750715,1768972668.750927,103.0,0.0,4398.461426,4351.282227,4372.692383,4383.974121,4369.102539,4373.461426,4370.512695,4381.538574,4379.358887,4355.641113,4478.205078,4534.871582,4413.205078,4454.230957,,,,,,,,,,,,,,,,,,,,,,,,,,,,,,,,,,,,,,,,,,,,,,,,,,,,,,,,,,,,,,,,,,,,,,
1768972668.758523,1768972668.758935,104.0,0.0,4402.820313,4357.692383,4373.589844,4382.94873,4373.846191,4373.589844,4364.230957,4378.846191,4373.846191,4357.436035,4477.563965,4537.307617,4413.077148,4460.897461,,,,,,,,,,,,,,,,,,,,,,,,,,,,,,,,,,,,,,,,,,,,,,,,,,,,,,,,,,,,,,,,,,,,,,
1768972668.766332,1768972668.766743,105.0,0.0,4398.461426,4358.205078,4364.615234,4382.436035,4372.563965,4373.461426,4363.717773,4378.846191,4372.436035,4358.846191,4477.692383,4535.384766,4414.230957,4455.384766,,,,,,,,,,,,,,,,,,,,,,,,,,,,,,,,,,,,,,,,,,,,,,,,,,,,,,,,,,,,,,,,,,,,,,
1768972668.77414,1768972668.774452,106.0,0.0,4387.94873,4351.282227,4357.05127,4379.102539,4368.846191,4372.179688,4369.102539,4377.820313,4373.333496,4353.974121,4473.974121,4529.102539,4405.769043,4443.717773,,,,,,,,,,,,,,,,,,,,,,,,,,,,,,,,,,,,,,,,,,,,,,,,,,,,,,,,,,,,,,,,,,,,,,
1768972668.781948,1768972668.78226,107.0,0.0,4385.769043,4345.769043,4358.589844,4376.153809,4367.692383,4372.307617,4369.615234,4379.230957,4374.230957,4351.666504,4468.846191,4526.282227,4396.666504,4439.230957,,,,,,,,,,,,,,,,,,,,,,,,,,,,,,,,,,,,,,,,,,,,,,,,,,,,,,,,,,,,,,,,,,,,,,
1768972668.789757,1768972668.789869,108.0,0.0,4398.461426,4352.563965,4370.256348,4383.333496,4372.05127,4378.846191,4372.692383,4388.333496,4381.538574,4359.871582,4479.358887,4536.922852,4409.102539,4449.358887,,,,,,,,,,,,,,,,,,,,,,,,,,,,,,,,,,,,,,,,,,,,,,,,,,,,,,,,,,,,,,,,,,,,,,
1768972668.797565,1768972668.797677,109.0,0.0,4409.615234,4358.974121,4375.512695,4389.487305,4375.641113,4387.05127,4380.512695,4391.282227,4386.153809,4368.846191,4492.820313,4548.333496,4430.512695,4462.307617,,,,,,,,,,,,,,,,,,,,,,,,,,,,,,,,,,,,,,,,,,,,,,,,,,,,,,,,,,,,,,,,,,,,,,
1768972668.805374,1768972668.805586,110.0,0.0,4406.538574,4356.282227,4367.05127,4385.897461,4372.94873,4382.179688,4375.0,4380.897461,4375.769043,4360.512695,4484.871582,4543.333496,4428.846191,4461.794922,0.403811,0.262384,0.200369,0.254229,0.158517,1.056636,0.867532,0.206308,0.25025,0.130718,0.188381,0.380955,0.206268,0.122893,0.088542,0.520033,0.226254,0.11355,0.125043,0.093757,0.167408,0.219943,0.093682,0.08993,0.079853,0.365929,0.37741,0.074004,0.14143,0.140527,0.249657,0.47246,0.185635,0.174279,0.083011,0.361074,0.173695,0.192942,0.161258,0.153496,0.453709,0.246027,0.16124,0.144894,0.142735,0.384477,0.098303,0.18472,0.220009,0.29742,0.626693,0.206579,0.341497,0.346882,0.263507,1.173038,0.361104,0.351403,0.273109,0.204933,0.435827,0.320809,0.377831,0.277567,0.151842,0.485447,0.357405,0.363582,0.388765,0.292691
1768972668.813182,1768972668.813394,111.0,0.0,4402.563965,4357.307617,4366.794922,4386.538574,4371.282227,4373.205078,4364.102539,4377.692383,4370.128418,4350.384766,4473.589844,4536.282227,4412.94873,4457.820313,,,,,,,,,,,,,,,,,,,,,,,,,,,,,,,,,,,,,,,,,,,,,,,,,,,,,,,,,,,,,,,,,,,,,,
