Timestamp,OriginalTimestamp,EEG.Counter,EEG.Interpolated,EEG.AF3,EEG.F7,EEG.F3,EEG.FC5,EEG.T7,EEG.P7,EEG.O1,EEG.O2,EEG.P8,EEG.T8,EEG.FC6,EEG.F4,EEG.F8,EEG.AF4,POW.AF3.Theta,POW.AF3.Alpha,POW.AF3.BetaL,POW.AF3.BetaH,POW.AF3.Gamma,POW.F7.Theta,POW.F7.Alpha,POW.F7.BetaL,POW.F7.BetaH,POW.F7.Gamma,POW.F3.Theta,POW.F3.Alpha,POW.F3.BetaL,POW.F3.BetaH,POW.F3.Gamma,POW.FC5.Theta,POW.FC5.Alpha,POW.FC5.BetaL,POW.FC5.BetaH,POW.FC5.Gamma,POW.T7.Theta,POW.T7.Alpha,POW.T7.BetaL,POW.T7.BetaH,POW.T7.Gamma,POW.P7.Theta,POW.P7.Alpha,POW.P7.BetaL,POW.P7.BetaH,POW.P7.Gamma,POW.O1.Theta,POW.O1.Alpha,POW.O1.BetaL,POW.O1.BetaH,POW.O1.Gamma,POW.O2.Theta,POW.O2.Alpha,POW.O2.BetaL,POW.O2.BetaH,POW.O2.Gamma,POW.P8.Theta,POW.P8.Alpha,POW.P8.BetaL,POW.P8.BetaH,POW.P8.Gamma,POW.T8.Theta,POW.T8.Alpha,POW.T8.BetaL,POW.T8.BetaH,POW.T8.Gamma,POW.FC6.Theta,POW.FC6.Alpha,POW.FC6.BetaL,POW.FC6.BetaH,POW.FC6.Gamma,POW.F4.Theta,POW.F4.Alpha,POW.F4.BetaL,POW.F4.BetaH,POW.F4.Gamma,POW.F8.Theta,POW.F8.Alpha,POW.F8.BetaL,POW.F8.BetaH,POW.F8.Gamma,POW.AF4.Theta,POW.AF4.Alpha,POW.AF4.BetaL,POW.AF4.BetaH,POW.AF4.Gamma
1768920139.233749,1768920139.234285,99.0,0.0,4357.563965,4344.230957,4351.794922,4362.179688,4334.230957,4328.333496,4342.05127,4346.922852,4331.794922,4315.512695,4505.897461,4537.436035,4408.974121,4460.384766,,,,,,,,,,,,,,,,,,,,,,,,,,,,,,,,,,,,,,,,,,,,,,,,,,,,,,,,,,,,,,,,,,,,,,
1768920139.241557,1768920139.241894,100.0,0.0,4347.307617,4334.358887,4343.205078,4355.256348,4326.410156,4338.589844,4350.641113,4344.615234,4330.769043,4314.102539,4503.717773,4534.871582,4399.615234,4454.871582,,,,,,,,,,,,,,,,,,,,,,,,,,,,,,,,,,,,,,,,,,,,,,,,,,,,,,,,,,,,,,,,,,,,,,
1768920139.249366,1768920139.249702,101.0,0.0,4349.358887,4331.922852,4342.179688,4354.358887,4323.846191,4342.692383,4347.436035,4342.436035,4338.205078,4323.077148,4511.666504,4542.436035,4402.05127,4452.05127,,,,,,,,,,,,,,,,,,,,,,,,,,,,,,,,,,,,,,,,,,,,,,,,,,,,,,,,,,,,,,,,,,,,,,
1768920139.257175,1768920139.257611,102.0,0.0,4359.743652,4347.563965,4352.820313,4364.102539,4330.256348,4331.282227,4338.205078,4346.282227,4342.307617,4329.230957,4524.230957,4552.820313,4424.487305,4466.922852,,,,,,,,,,,,,,,,,,,,,,,,,,,,,,,,,,,,,,,,,,,,,,,,,,,,,,,,,,,,,,,,,,,,,,
1768920139.264983,1768920139.265419,103.0,0.0,4368.205078,4355.897461,4360.0,4375.0,4332.820313,4327.179688,4335.512695,4344.487305,4335.384766,4327.563965,4523.717773,4549.615234,4430.256348,4478.205078,,,,,,,,,,,,,,,,,,,,,,,,,,,,,,,,,,,,,,,,,,,,,,,,,,,,,,,,,,,,,,,,,,,,,,
1768920139.272792,1768920139.273027,104.0,0.0,4366.410156,4348.589844,4357.307617,4375.128418,4331.410156,4333.333496,4335.769043,4341.025879,4331.153809,4326.538574,4510.256348,4539.230957,4416.282227,4466.410156,,,,,,,,,,,,,,,,,,,,,,,,,,,,,,,,,,,,,,,,,,,,,,,,,,,,,,,,,,,,,,,,,,,,,,
1768920139.2806,1768920139.280836,105.0,0.0,4357.692383,4341.410156,4349.871582,4367.05127,4327.94873,4329.102539,4336.666504,4345.641113,4331.538574,4324.102539,4504.358887,4532.436035,4411.282227,4451.025879,,,,,,,,,,,,,,,,,,,,,,,,,,,,,,,,,,,,,,,,,,,,,,,,,,,,,,,,,,,,,,,,,,,,,,
1768920139.288409,1768920139.288544,106.0,0.0,4353.846191,4339.487305,4343.717773,4362.820313,4324.487305,4320.769043,4339.102539,4343.846191,4329.743652,4315.384766,4506.025879,4531.922852,4407.563965,4447.820313,,,,,,,,,,,,,,,,,,,,,,,,,,,,,,,,,,,,,,,,,,,,,,,,,,,,,,,,,,,,,,,,,,,,,,
1768920139.296217,1768920139.296352,107.0,0.0,4356.153809,4340.128418,4343.717773,4366.666504,4327.692383,4327.820313,4338.333496,4339.615234,4327.179688,4310.512695,4503.589844,4532.563965,4398.333496,4447.436035,,,,,,,,,,,,,,,,,,,,,,,,,,,,,,,,,,,,,,,,,,,,,,,,,,,,,,,,,,,,,,,,,,,,,,
1768920139.304026,1768920139.30436,108.0,0.0,4352.692383,4340.897461,4344.615234,4368.974121,4336.153809,4336.922852,4337.94873,4344.358887,4325.641113,4310.384766,4503.461426,4529.230957,4397.692383,4445.769043,,,,,,,,,,,,,,,,,,,,,,,,,,,,,,,,,,,,,,,,,,,,,,,,,,,,,,,,,,,,,,,,,,,,,,
1768920139.311834,1768920139.312169,109.0,0.0,4344.743652,4341.666504,4343.077148,4366.666504,4336.538574,4331.025879,4338.846191,4343.846191,4325.641113,4308.717773,4505.641113,4527.94873,4406.025879,4449.358887,,,,,,,,,,,,,,,,,,,,,,,,,,,,,,,,,,,,,,,,,,,,,,,,,,,,,,,,,,,,,,,,,,,,,,
1768920139.319643,1768920139.320077,110.0,0.0,4341.922852,4342.692383,4341.666504,4363.846191,4326.538574,4326.153809,4338.077148,4342.05127,4327.179688,4313.589844,4505.384766,4528.717773,4408.589844,4451.666504,,,,,,,,,,,,,,,,,,,,,,,,,,,,,,,,,,,,,,,,,,,,,,,,,,,,,,,,,,,,,,,,,,,,,,
1768920139.327451,1768920139.327886,111.0,0.0,4336.410156,4340.256348,4342.563965,4360.769043,4322.820313,4330.769043,4339.615234,4351.666504,4332.436035,4318.205078,4506.922852,4530.0,4404.102539,4445.641113,,,,,,,,,,,,,,,,,,,,,,,,,,,,,,,,,,,,,,,,,,,,,,,,,,,,,,,,,,,,,,,,,,,,,,
1768920139.33526,1768920139.335894,112.0,0.0,4327.692383,4338.205078,4342.563965,4358.589844,4329.615234,4332.692383,4341.794922,4356.538574,4338.717773,4315.128418,4503.717773,4530.641113,4396.153809,4434.871582,0.413062,1.040792,0.160095,0.262435,0.127077,0.222732,0.975001,0.201378,0.136564,0.097941,1.429873,0.86606,0.223236,0.213547,0.178294,0.58368,0.816626,0.144703,0.163581,0.10664,0.128013,0.358955,0.165428,0.082485,0.064594,0.176825,0.263053,0.172994,0.162829,0.235324,0.413957,0.865774,0.258126,0.255639,0.377626,0.192893,0.384437,0.200467,0.196329,0.118927,0.233753,0.459625,0.204868,0.098475,0.121678,0.514952,0.413115,0.174271,0.190456,0.146402,1.381437,0.355073,0.237721,0.337761,0.158155,2.18088,0.327204,0.338759,0.454505,0.280639,1.265725,0.307787,0.298059,0.284003,0.151553,1.760275,0.464502,0.233397,0.523407,0.151321
1768920139.343068,1768920139.343702,113.0,0.0,4327.692383,4338.333496,4343.846191,4361.666504,4333.205078,4333.461426,4343.205078,4351.153809,4340.0,4317.436035,4492.820313,4530.641113,4393.717773,4430.0,,,,,,,,,,,,,,,,,,,,,,,,,,,,,,,,,,,,,,,,,,,,,,,,,,,,,,,,,,,,,,,,,,,,,,
1768920139.350877,1768920139.351411,114.0,0.0,4328.974121,4335.641113,4343.974121,4364.871582,4330.256348,4335.128418,4343.333496,4345.512695,4331.153809,4319.743652,4492.307617,4531.410156,4398.077148,4433.333496,,,,,,,,,,,,,,,,,,,,,,,,,,,,,,,,,,,,,,,,,,,,,,,,,,,,,,,,,,,,,,,,,,,,,,
1768920139.358685,1768920139.359219,115.0,0.0,4327.179688,4335.0,4338.974121,4360.128418,4331.025879,4333.205078,4338.974121,4341.025879,4323.205078,4314.102539,4500.256348,4530.128418,4399.871582,4439.615234,,,,,,,,,,,,,,,,,,,,,,,,,,,,,,,,,,,,,,,,,,,,,,,,,,,,,,,,,,,,,,,,,,,,,,
1768920139.366494,1768920139.367227,116.0,0.0,4330.384766,4336.282227,4337.820313,4358.205078,4333.461426,4336.282227,4337.179688,4345.641113,4335.0,4315.384766,4501.282227,4529.871582,4400.256348,4446.410156,,,,,,,,,,,,,,,,,,,,,,,,,,,,,,,,,,,,,,,,,,,,,,,,,,,,,,,,,,,,,,,,,,,,,,
1768920139.374302,1768920139.375036,117.0,0.0,4333.974121,4330.897461,4343.974121,4360.897461,4330.641113,4337.94873,4343.077148,4352.820313,4340.769043,4318.846191,4493.717773,4529.615234,4397.692383,4443.717773,,,,,,,,,,,,,,,,,,,,,,,,,,,,,,,,,,,,,,,,,,,,,,,,,,,,,,,,,,,,,,,,,,,,,,
1768920139.382111,1768920139.382745,118.0,0.0,4330.641113,4323.589844,4343.077148,4356.153809,4327.563965,4331.666504,4344.102539,4347.94873,4328.974121,4311.538574,4490.769043,4528.205078,4391.922852,4435.512695,,,,,,,,,,,,,,,,,,,,,,,,,,,,,,,,,,,,,,,,,,,,,,,,,,,,,,,,,,,,,,,,,,,,,,
1768920139.389919,1768920139.390553,119.0,0.0,4326.153809,4321.922852,4332.692383,4349.230957,4327.692383,4330.897461,4339.358887,4345.641113,4330.769043,4308.077148,4499.102539,4522.94873,4393.717773,4433.077148,,,,,,,,,,,,,,,,,,,,,,,,,,,,,,,,,,,,,,,,,,,,,,,,,,,,,,,,,,,,,,,,,,,,,,
1768920139.397728,1768920139.398162,120.0,0.0,4328.974121,4325.128418,4329.743652,4349.230957,4327.05127,4337.307617,4341.025879,4348.846191,4337.563965,4312.94873,4503.205078,4521.666504,4400.256348,4433.205078,,,,,,,,,,,,,,,,,,,,,,,,,,,,,,,,,,,,,,,,,,,,,,,,,,,,,,,,,,,,,,,,,,,,,,
1768920139.405537,1768920139.40597,121.0,0.0,4332.307617,4328.717773,4337.307617,4353.333496,4326.794922,4339.102539,4344.871582,4344.743652,4328.717773,4314.487305,4495.256348,4524.487305,4396.025879,4427.563965,,,,,,,,,,,,,,,,,,,,,,,,,,,,,,,,,,,,,,,,,,,,,,,,,,,,,,,,,,,,,,,,,,,,,,
1768920139.413345,1768920139.413879,122.0,0.0,4327.05127,4328.461426,4335.128418,4353.461426,4327.05127,4335.0,4342.307617,4339.743652,4322.436035,4306.794922,4488.846191,4518.974121,4386.538574,4421.282227,,,,,,,,,,,,,,,,,,,,,,,,,,,,,,,,,,,,,,,,,,,,,,,,,,,,,,,,,,,,,,,,,,,,,,
1768920139.421153,1768920139.421687,123.0,0.0,4323.589844,4331.282227,4330.256348,4353.205078,4329.871582,4334.358887,4340.897461,4343.077148,4328.846191,4298.461426,4492.179688,4514.230957,4389.615234,4424.230957,,,,,,,,,,,,,,,,,,,,,,,,,,,,,,,,,,,,,,,,,,,,,,,,,,,,,,,,,,,,,,,,,,,,,,
1768920139.428962,1768920139.429696,124.0,0.0,4327.94873,4338.333496,4336.794922,4357.179688,4334.743652,4337.307617,4341.538574,4344.871582,4325.512695,4299.743652,4493.333496,4516.538574,4397.436035,4427.94873,,,,,,,,,,,,,,,,,,,,,,,,,,,,,,,,,,,,,,,,,,,,,,,,,,,,,,,,,,,,,,,,,,,,,,
1768920139.436771,1768920139.437505,125.0,0.0,4324.743652,4337.179688,4339.871582,4357.179688,4332.820313,4334.230957,4336.410156,4341.410156,4315.128418,4299.487305,4490.256348,4511.922852,4393.717773,4423.846191,,,,,,,,,,,,,,,,,,,,,,,,,,,,,,,,,,,,,,,,,,,,,,,,,,,,,,,,,,,,,,,,,,,,,,
1768920139.444579,1768920139.445213,126.0,0.0,4318.333496,4331.666504,4335.0,4353.846191,4329.615234,4329.871582,4333.974121,4340.897461,4317.94873,4296.282227,4489.102539,4505.769043,4383.333496,4421.025879,,,,,,,,,,,,,,,,,,,,,,,,,,,,,,,,,,,,,,,,,,,,,,,,,,,,,,,,,,,,,,,,,,,,,,
1768920139.452387,1768920139.453021,127.0,0.0,4318.589844,4330.256348,4333.205078,4351.282227,4331.794922,4331.410156,4340.384766,4344.358887,4325.256348,4302.563965,4489.358887,4513.974121,4379.743652,4424.615234,,,,,,,,,,,,,,,,,,,,,,,,,,,,,,,,,,,,,,,,,,,,,,,,,,,,,,,,,,,,,,,,,,,,,,
1768920139.460196,1768920139.46063,0.0,0.0,4312.436035,4326.282227,4330.512695,4345.769043,4329.102539,4330.769043,4342.820313,4350.769043,4329.487305,4312.05127,4492.94873,4523.205078,4384.102539,4424.871582,0.459309,1.20376,0.209271,0.275836,0.123092,0.261096,1.163644,0.216267,0.139995,0.104332,1.370976,0.968927,0.32116,0.231586,0.176388,0.524972,0.937907,0.135015,0.167461,0.104805,0.154328,0.392413,0.220012,0.106352,0.06931,0.199577,0.246063,0.178367,0.160454,0.262987,0.41848,0.797668,0.275541,0.261703,0.394376,0.206246,0.358791,0.193716,0.196438,0.119404,0.239163,0.445625,0.202881,0.093791,0.11999,0.514497,0.449023,0.185813,0.181472,0.139215,1.450995,0.442776,0.265725,0.383201,0.164878,2.448752,0.384455,0.399001,0.490937,0.278156,1.226086,0.362811,0.26026,0.292403,0.148148,2.072301,0.575669,0.266197,0.586227,0.142997
1768920139.468005,1768920139.468438,1.0,0.0,4305.641113,4318.205078,4322.692383,4338.205078,4322.692383,4323.589844,4335.256348,4350.128418,4332.05127,4314.230957,4493.461426,4519.871582,4389.102539,4419.615234,,,,,,,,,,,,,,,,,,,,,,,,,,,,,,,,,,,,,,,,,,,,,,,,,,,,,,,,,,,,,,,,,,,,,,
1768920139.475813,1768920139.476147,2.0,0.0,4314.615234,4316.794922,4322.692383,4338.077148,4323.333496,4323.717773,4332.179688,4344.615234,4332.94873,4314.871582,4493.205078,4517.94873,4390.512695,4421.025879,,,,,,,,,,,,,,,,,,,,,,,,,,,,,,,,,,,,,,,,,,,,,,,,,,,,,,,,,,,,,,,,,,,,,,
1768920139.483622,1768920139.483955,3.0,0.0,4322.436035,4318.717773,4328.461426,4339.871582,4325.641113,4331.282227,4338.461426,4342.692383,4326.794922,4310.897461,4493.461426,4517.436035,4385.384766,4428.333496,,,,,,,,,,,,,,,,,,,,,,,,,,,,,,,,,,,,,,,,,,,,,,,,,,,,,,,,,,,,,,,,,,,,,,
1768920139.49143,1768920139.491963,4.0,0.0,4321.794922,4319.487305,4326.538574,4338.205078,4325.0,4332.436035,4341.025879,4346.282227,4325.256348,4309.615234,4493.461426,4509.743652,4383.333496,4428.077148,,,,,,,,,,,,,,,,,,,,,,,,,,,,,,,,,,,,,,,,,,,,,,,,,,,,,,,,,,,,,,,,,,,,,,
1768920139.499239,1768920139.499771,5.0,0.0,4326.922852,4321.282227,4322.563965,4339.487305,4328.846191,4329.230957,4342.05127,4349.487305,4333.717773,4319.358887,4495.384766,4504.487305,4391.025879,4427.179688,,,,,,,,,,,,,,,,,,,,,,,,,,,,,,,,,,,,,,,,,,,,,,,,,,,,,,,,,,,,,,,,,,,,,,
1768920139.507047,1768920139.50768,6.0,0.0,4335.384766,4323.717773,4327.436035,4341.538574,4332.94873,4332.563965,4348.461426,4343.846191,4332.179688,4320.0,4496.025879,4510.512695,4394.358887,4430.897461,,,,,,,,,,,,,,,,,,,,,,,,,,,,,,,,,,,,,,,,,,,,,,,,,,,,,,,,,,,,,,,,,,,,,,
1768920139.514856,1768920139.515488,7.0,0.0,4341.410156,4327.820313,4340.512695,4343.717773,4332.820313,4333.205078,4349.102539,4336.025879,4322.94873,4312.179688,4493.205078,4518.077148,4388.077148,4430.0,,,,,,,,,,,,,,,,,,,,,,,,,,,,,,,,,,,,,,,,,,,,,,,,,,,,,,,,,,,,,,,,,,,,,,
1768920139.522664,1768920139.523496,8.0,0.0,4342.820313,4329.102539,4345.641113,4348.333496,4331.922852,4326.025879,4341.538574,4336.025879,4319.358887,4307.94873,4488.846191,4514.871582,4385.0,4424.230957,,,,,,,,,,,,,,,,,,,,,,,,,,,,,,,,,,,,,,,,,,,,,,,,,,,,,,,,,,,,,,,,,,,,,,
1768920139.530473,1768920139.531305,9.0,0.0,4340.769043,4329.102539,4341.282227,4350.897461,4332.307617,4329.102539,4341.025879,4342.307617,4323.333496,4307.692383,4493.461426,4516.794922,4390.384766,4427.94873,,,,,,,,,,,,,,,,,,,,,,,,,,,,,,,,,,,,,,,,,,,,,,,,,,,,,,,,,,,,,,,,,,,,,,
1768920139.538281,1768920139.539213,10.0,0.0,4340.0,4327.563965,4340.769043,4352.820313,4333.589844,4335.641113,4345.384766,4348.717773,4331.922852,4315.641113,4504.743652,4530.641113,4394.743652,4435.769043,,,,,,,,,,,,,,,,,,,,,,,,,,,,,,,,,,,,,,,,,,,,,,,,,,,,,,,,,,,,,,,,,,,,,,
1768920139.54609,1768920139.547022,11.0,0.0,4340.641113,4325.256348,4343.846191,4353.077148,4333.333496,4330.512695,4345.256348,4351.153809,4335.769043,4326.153809,4508.461426,4535.0,4397.05127,4433.205078,,,,,,,,,,,,,,,,,,,,,,,,,,,,,,,,,,,,,,,,,,,,,,,,,,,,,,,,,,,,,,,,,,,,,,
1768920139.553898,1768920139.55503,12.0,0.0,4341.410156,4326.282227,4343.846191,4346.666504,4328.589844,4327.436035,4342.94873,4347.692383,4333.077148,4328.589844,4507.307617,4526.794922,4399.615234,4433.846191,,,,,,,,,,,,,,,,,,,,,,,,,,,,,,,,,,,,,,,,,,,,,,,,,,,,,,,,,,,,,,,,,,,,,,
1768920139.561707,1768920139.562838,13.0,0.0,4341.538574,4329.358887,4342.05127,4342.94873,4324.487305,4324.615234,4338.717773,4346.153809,4331.922852,4323.974121,4508.461426,4521.922852,4398.589844,4436.666504,,,,,,,,,,,,,,,,,,,,,,,,,,,,,,,,,,,,,,,,,,,,,,,,,,,,,,,,,,,,,,,,,,,,,,
1768920139.569515,1768920139.570547,14.0,0.0,4342.820313,4332.692383,4340.384766,4349.358887,4325.641113,4320.384766,4335.0,4347.94873,4331.666504,4320.128418,4506.410156,4521.025879,4396.153809,4434.743652,,,,,,,,,,,,,,,,,,,,,,,,,,,,,,,,,,,,,,,,,,,,,,,,,,,,,,,,,,,,,,,,,,,,,,
1768920139.577324,1768920139.578355,15.0,0.0,4345.512695,4336.282227,4339.230957,4353.974121,4328.589844,4324.102539,4335.512695,4342.563965,4326.922852,4318.974121,4502.94873,4518.589844,4396.282227,4435.769043,,,,,,,,,,,,,,,,,,,,,,,,,,,,,,,,,,,,,,,,,,,,,,,,,,,,,,,,,,,,,,,,,,,,,,
1768920139.585132,1768920139.585964,16.0,0.0,4348.077148,4337.563965,4339.743652,4352.05127,4329.230957,4326.538574,4337.94873,4336.025879,4324.358887,4314.102539,4505.897461,4522.179688,4398.589844,4435.384766,0.580357,1.276389,0.268587,0.281029,0.115971,0.294482,1.257527,0.235852,0.14603,0.110414,1.244751,1.031141,0.414439,0.243467,0.168661,0.465836,1.010409,0.129573,0.17211,0.097925,0.207462,0.396154,0.26169,0.130988,0.074857,0.219346,0.21728,0.181555,0.17747,0.273552,0.395112,0.670551,0.276957,0.265704,0.381403,0.21674,0.335086,0.174234,0.191038,0.120026,0.251677,0.426014,0.20325,0.090423,0.122801,0.501124,0.467922,0.189763,0.163778,0.131278,1.438739,0.533843,0.292742,0.402257,0.167425,2.592722,0.454985,0.448111,0.504401,0.267726,1.100482,0.396469,0.222174,0.295967,0.146024,2.528925,0.691994,0.313909,0.620235,0.134482
1768920139.592941,1768920139.593772,17.0,0.0,4349.615234,4336.538574,4340.128418,4353.846191,4332.436035,4324.230957,4339.487305,4336.794922,4323.077148,4309.487305,4506.922852,4526.666504,4396.922852,4433.717773,,,,,,,,,,,,,,,,,,,,,,,,,,,,,,,,,,,,,,,,,,,,,,,,,,,,,,,,,,,,,,,,,,,,,,
1768920139.600749,1768920139.601481,18.0,0.0,4351.794922,4340.897461,4341.025879,4359.102539,4341.282227,4325.897461,4338.333496,4338.846191,4321.410156,4319.102539,4505.256348,4526.666504,4396.025879,4439.743652,,,,,,,,,,,,,,,,,,,,,,,,,,,,,,,,,,,,,,,,,,,,,,,,,,,,,,,,,,,,,,,,,,,,,,
1768920139.608558,1768920139.609289,19.0,0.0,4354.487305,4340.769043,4343.589844,4358.077148,4342.563965,4326.410156,4337.179688,4338.846191,4325.0,4325.769043,4506.922852,4530.256348,4402.307617,4450.384766,,,,,,,,,,,,,,,,,,,,,,,,,,,,,,,,,,,,,,,,,,,,,,,,,,,,,,,,,,,,,,,,,,,,,,
1768920139.616367,1768920139.616898,20.0,0.0,4351.538574,4332.820313,4342.94873,4351.922852,4332.05127,4325.128418,4341.666504,4343.461426,4328.974121,4316.153809,4507.563965,4533.846191,4407.436035,4451.282227,,,,,,,,,,,,,,,,,,,,,,,,,,,,,,,,,,,,,,,,,,,,,,,,,,,,,,,,,,,,,,,,,,,,,,
1768920139.624175,1768920139.624707,21.0,0.0,4347.692383,4332.179688,4337.94873,4350.641113,4328.205078,4325.512695,4345.512695,4347.179688,4328.205078,4317.05127,4507.307617,4530.641113,4405.128418,4449.871582,,,,,,,,,,,,,,,,,,,,,,,,,,,,,,,,,,,,,,,,,,,,,,,,,,,,,,,,,,,,,,,,,,,,,,
1768920139.631983,1768920139.632615,22.0,0.0,4348.333496,4334.102539,4337.563965,4352.563965,4331.538574,4327.820313,4342.179688,4342.692383,4326.410156,4323.205078,4507.563965,4524.615234,4400.769043,4448.974121,,,,,,,,,,,,,,,,,,,,,,,,,,,,,,,,,,,,,,,,,,,,,,,,,,,,,,,,,,,,,,,,,,,,,,
1768920139.639792,1768920139.640423,23.0,0.0,4347.94873,4332.307617,4341.153809,4351.922852,4328.974121,4331.794922,4343.205078,4343.205078,4327.179688,4314.102539,4503.846191,4524.615234,4397.436035,4445.641113,,,,,,,,,,,,,,,,,,,,,,,,,,,,,,,,,,,,,,,,,,,,,,,,,,,,,,,,,,,,,,,,,,,,,,
1768920139.647601,1768920139.648032,24.0,0.0,4346.794922,4332.820313,4342.179688,4350.769043,4326.794922,4331.794922,4346.538574,4345.256348,4329.743652,4316.153809,4503.846191,4530.512695,4398.974121,4450.512695,,,,,,,,,,,,,,,,,,,,,,,,,,,,,,,,,,,,,,,,,,,,,,,,,,,,,,,,,,,,,,,,,,,,,,
1768920139.655409,1768920139.65584,25.0,0.0,4348.205078,4334.358887,4342.436035,4351.666504,4330.512695,4325.0,4336.922852,4336.025879,4323.077148,4324.102539,4505.641113,4534.743652,4403.205078,4457.307617,,,,,,,,,,,,,,,,,,,,,,,,,,,,,,,,,,,,,,,,,,,,,,,,,,,,,,,,,,,,,,,,,,,,,,
1768920139.663217,1768920139.663549,26.0,0.0,4347.563965,4332.820313,4342.692383,4352.436035,4334.487305,4322.563965,4329.871582,4329.743652,4313.846191,4313.333496,4498.589844,4531.922852,4399.871582,4453.333496,,,,,,,,,,,,,,,,,,,,,,,,,,,,,,,,,,,,,,,,,,,,,,,,,,,,,,,,,,,,,,,,,,,,,,
1768920139.671026,1768920139.671357,27.0,0.0,4346.410156,4332.436035,4341.922852,4351.922852,4336.794922,4328.333496,4338.461426,4336.538574,4316.666504,4307.05127,4490.256348,4524.358887,4393.461426,4450.0,,,,,,,,,,,,,,,,,,,,,,,,,,,,,,,,,,,,,,,,,,,,,,,,,,,,,,,,,,,,,,,,,,,,,,
1768920139.678835,1768920139.678965,28.0,0.0,4344.743652,4328.333496,4341.025879,4348.974121,4331.794922,4329.102539,4337.05127,4340.769043,4320.128418,4311.666504,4488.717773,4520.512695,4394.230957,4449.871582,,,,,,,,,,,,,,,,,,,,,,,,,,,,,,,,,,,,,,,,,,,,,,,,,,,,,,,,,,,,,,,,,,,,,,
1768920139.686643,1768920139.686774,29.0,0.0,4342.179688,4323.717773,4340.0,4344.871582,4324.871582,4324.487305,4326.538574,4338.333496,4317.179688,4312.692383,4494.487305,4524.358887,4397.820313,4448.589844,,,,,,,,,,,,,,,,,,,,,,,,,,,,,,,,,,,,,,,,,,,,,,,,,,,,,,,,,,,,,,,,,,,,,,
1768920139.694452,1768920139.694682,30.0,0.0,4345.512695,4328.589844,4333.589844,4344.358887,4326.025879,4324.487305,4329.230957,4337.94873,4321.410156,4317.436035,4505.256348,4528.717773,4402.05127,4452.436035,,,,,,,,,,,,,,,,,,,,,,,,,,,,,,,,,,,,,,,,,,,,,,,,,,,,,,,,,,,,,,,,,,,,,,
1768920139.70226,1768920139.70249,31.0,0.0,4347.692383,4329.102539,4326.666504,4339.230957,4325.384766,4324.615234,4335.641113,4339.487305,4326.922852,4324.743652,4508.846191,4528.333496,4403.077148,4455.256348,,,,,,,,,,,,,,,,,,,,,,,,,,,,,,,,,,,,,,,,,,,,,,,,,,,,,,,,,,,,,,,,,,,,,,
1768920139.710069,1768920139.710499,32.0,0.0,4343.589844,4324.871582,4331.025879,4335.256348,4321.922852,4327.179688,4338.077148,4344.871582,4327.307617,4327.436035,4505.897461,4528.589844,4401.410156,4451.794922,0.787242,1.260504,0.326299,0.272949,0.109078,0.320643,1.232355,0.253867,0.155107,0.116347,1.082359,1.041972,0.47881,0.244796,0.156767,0.428197,1.026676,0.134526,0.178351,0.089019,0.285092,0.364361,0.278604,0.15039,0.080612,0.241287,0.180738,0.179867,0.201624,0.26468,0.36076,0.51741,0.264908,0.259749,0.341652,0.220047,0.317718,0.151638,0.178656,0.121261,0.283451,0.413519,0.215231,0.08974,0.130347,0.481161,0.465205,0.197786,0.140911,0.123054,1.341561,0.58959,0.316381,0.395494,0.16577,2.567944,0.506705,0.475027,0.484746,0.250192,0.90836,0.396241,0.205183,0.305687,0.146722,3.091951,0.780876,0.355878,0.62836,0.127495
1768920139.717877,1768920139.718307,33.0,0.0,4342.692383,4329.230957,4341.794922,4344.615234,4328.077148,4337.563965,4345.0,4354.230957,4336.794922,4329.358887,4511.666504,4537.94873,4408.589844,4453.205078,,,,,,,,,,,,,,,,,,,,,,,,,,,,,,,,,,,,,,,,,,,,,,,,,,,,,,,,,,,,,,,,,,,,,,
1768920139.725686,1768920139.726215,34.0,0.0,4345.512695,4336.153809,4344.102539,4351.153809,4333.846191,4338.205078,4344.102539,4351.922852,4341.282227,4328.846191,4515.641113,4541.282227,4416.666504,4457.179688,,,,,,,,,,,,,,,,,,,,,,,,,,,,,,,,,,,,,,,,,,,,,,,,,,,,,,,,,,,,,,,,,,,,,,
1768920139.733494,1768920139.734024,35.0,0.0,4348.717773,4338.846191,4340.769043,4345.897461,4329.743652,4327.563965,4336.410156,4342.05127,4330.128418,4325.769043,4508.205078,4533.333496,4409.871582,4453.974121,,,,,,,,,,,,,,,,,,,,,,,,,,,,,,,,,,,,,,,,,,,,,,,,,,,,,,,,,,,,,,,,,,,,,,
1768920139.741303,1768920139.742032,36.0,0.0,4351.666504,4341.410156,4343.333496,4348.461426,4326.282227,4329.230957,4341.922852,4345.512695,4329.615234,4327.820313,4507.05127,4534.487305,4402.307617,4453.333496,,,,,,,,,,,,,,,,,,,,,,,,,,,,,,,,,,,,,,,,,,,,,,,,,,,,,,,,,,,,,,,,,,,,,,
1768920139.749111,1768920139.749841,37.0,0.0,4349.871582,4343.077148,4346.410156,4356.025879,4328.205078,4336.153809,4345.512695,4350.384766,4337.05127,4326.153809,4508.461426,4540.641113,4404.871582,4455.128418,,,,,,,,,,,,,,,,,,,,,,,,,,,,,,,,,,,,,,,,,,,,,,,,,,,,,,,,,,,,,,,,,,,,,,
1768920139.75692,1768920139.757549,38.0,0.0,4344.743652,4337.05127,4343.589844,4349.615234,4326.794922,4328.974121,4335.384766,4338.717773,4326.794922,4316.153809,4501.794922,4533.333496,4401.538574,4455.128418,,,,,,,,,,,,,,,,,,,,,,,,,,,,,,,,,,,,,,,,,,,,,,,,,,,,,,,,,,,,,,,,,,,,,,
1768920139.764728,1768920139.765357,39.0,0.0,4346.282227,4335.641113,4340.897461,4347.436035,4324.743652,4322.436035,4333.974121,4331.794922,4316.410156,4312.563965,4501.025879,4528.717773,4394.743652,4459.743652,,,,,,,,,,,,,,,,,,,,,,,,,,,,,,,,,,,,,,,,,,,,,,,,,,,,,,,,,,,,,,,,,,,,,,
1768920139.772537,1768920139.772966,40.0,0.0,4353.205078,4341.666504,4342.05127,4357.307617,4325.641113,4324.358887,4335.641113,4343.461426,4322.820313,4318.974121,4508.077148,4539.615234,4398.333496,4461.153809,,,,,,,,,,,,,,,,,,,,,,,,,,,,,,,,,,,,,,,,,,,,,,,,,,,,,,,,,,,,,,,,,,,,,,
1768920139.780345,1768920139.780774,41.0,0.0,4354.102539,4344.871582,4343.974121,4360.128418,4326.922852,4326.794922,4327.94873,4348.333496,4327.820313,4321.538574,4507.94873,4545.384766,4406.153809,4460.897461,,,,,,,,,,,,,,,,,,,,,,,,,,,,,,,,,,,,,,,,,,,,,,,,,,,,,,,,,,,,,,,,,,,,,,
1768920139.788154,1768920139.788483,42.0,0.0,4349.615234,4342.05127,4344.230957,4360.384766,4329.743652,4331.282227,4331.025879,4344.358887,4326.153809,4317.692383,4511.410156,4543.333496,4410.128418,4461.794922,,,,,,,,,,,,,,,,,,,,,,,,,,,,,,,,,,,,,,,,,,,,,,,,,,,,,,,,,,,,,,,,,,,,,,
1768920139.795962,1768920139.796291,43.0,0.0,4347.436035,4337.05127,4343.461426,4363.333496,4331.153809,4331.538574,4342.820313,4344.487305,4326.922852,4322.563965,4517.05127,4544.615234,4411.410156,4460.0,,,,,,,,,,,,,,,,,,,,,,,,,,,,,,,,,,,,,,,,,,,,,,,,,,,,,,,,,,,,,,,,,,,,,,
1768920139.803771,1768920139.8039,44.0,0.0,4348.461426,4332.94873,4342.820313,4359.615234,4327.563965,4328.077148,4343.461426,4345.0,4329.487305,4332.436035,4512.563965,4544.102539,4413.333496,4461.410156,,,,,,,,,,,,,,,,,,,,,,,,,,,,,,,,,,,,,,,,,,,,,,,,,,,,,,,,,,,,,,,,,,,,,,
1768920139.811579,1768920139.811708,45.0,0.0,4347.820313,4329.230957,4341.922852,4354.230957,4325.641113,4327.179688,4339.743652,4346.153809,4331.282227,4331.025879,4515.512695,4545.769043,4414.358887,4463.974121,,,,,,,,,,,,,,,,,,,,,,,,,,,,,,,,,,,,,,,,,,,,,,,,,,,,,,,,,,,,,,,,,,,,,,
1768920139.819388,1768920139.819617,46.0,0.0,4343.974121,4326.794922,4341.666504,4354.230957,4327.05127,4326.282227,4335.384766,4346.922852,4329.743652,4327.307617,4524.358887,4550.0,4417.307617,4462.820313,,,,,,,,,,,,,,,,,,,,,,,,,,,,,,,,,,,,,,,,,,,,,,,,,,,,,,,,,,,,,,,,,,,,,,
1768920139.827196,1768920139.827426,47.0,0.0,4342.692383,4320.512695,4339.615234,4348.717773,4326.025879,4328.461426,4330.897461,4345.641113,4326.025879,4326.282227,4516.538574,4546.410156,4417.05127,4457.563965,,,,,,,,,,,,,,,,,,,,,,,,,,,,,,,,,,,,,,,,,,,,,,,,,,,,,,,,,,,,,,,,,,,,,,
1768920139.835005,1768920139.835434,48.0,0.0,4340.641113,4315.128418,4332.05127,4341.410156,4325.897461,4334.743652,4338.717773,4347.436035,4328.333496,4321.025879,4504.102539,4535.897461,4405.512695,4450.0,1.062493,1.192218,0.36995,0.252353,0.105057,0.339049,1.10283,0.271447,0.167209,0.121058,0.914812,1.008703,0.500844,0.235889,0.142739,0.426815,0.995148,0.156691,0.185279,0.080997,0.366178,0.305134,0.269942,0.15892,0.085857,0.265537,0.144391,0.172388,0.218302,0.240902,0.328825,0.374155,0.24435,0.240624,0.284702,0.21397,0.304306,0.136504,0.161054,0.122523,0.335467,0.415305,0.241701,0.092952,0.141549,0.471112,0.455001,0.223959,0.120791,0.115604,1.174311,0.584833,0.332934,0.371725,0.161242,2.37587,0.523121,0.480916,0.434822,0.22805,0.696725,0.365047,0.219238,0.327373,0.150744,3.632052,0.821168,0.370919,0.622118,0.122763
1768920139.842813,1768920139.843242,49.0,0.0,4335.0,4319.743652,4325.641113,4343.717773,4328.846191,4336.538574,4344.871582,4347.05127,4329.230957,4318.077148,4501.794922,4524.102539,4396.282227,4438.333496,,,,,,,,,,,,,,,,,,,,,,,,,,,,,,,,,,,,,,,,,,,,,,,,,,,,,,,,,,,,,,,,,,,,,,
1768920139.850622,1768920139.851151,50.0,0.0,4337.307617,4326.153809,4328.461426,4346.666504,4330.0,4331.025879,4335.769043,4338.589844,4316.410156,4318.461426,4497.692383,4515.897461,4395.384766,4433.589844,,,,,,,,,,,,,,,,,,,,,,,,,,,,,,,,,,,,,,,,,,,,,,,,,,,,,,,,,,,,,,,,,,,,,,
1768920139.858431,1768920139.858959,51.0,0.0,4342.05127,4325.897461,4332.94873,4346.153809,4326.282227,4327.436035,4331.282227,4335.256348,4309.230957,4312.820313,4492.820313,4515.256348,4391.794922,4434.358887,,,,,,,,,,,,,,,,,,,,,,,,,,,,,,,,,,,,,,,,,,,,,,,,,,,,,,,,,,,,,,,,,,,,,,
1768920139.866239,1768920139.866567,52.0,0.0,4338.717773,4324.358887,4334.487305,4347.436035,4324.743652,4325.641113,4334.487305,4339.871582,4315.256348,4308.077148,4494.871582,4516.153809,4388.974121,4431.153809,,,,,,,,,,,,,,,,,,,,,,,,,,,,,,,,,,,,,,,,,,,,,,,,,,,,,,,,,,,,,,,,,,,,,,
1768920139.874047,1768920139.874376,53.0,0.0,4338.205078,4327.307617,4333.077148,4347.94873,4328.205078,4327.179688,4336.410156,4340.128418,4317.692383,4311.153809,4491.794922,4515.0,4392.179688,4435.897461,,,,,,,,,,,,,,,,,,,,,,,,,,,,,,,,,,,,,,,,,,,,,,,,,,,,,,,,,,,,,,,,,,,,,,
1768920139.881856,1768920139.882084,54.0,0.0,4342.94873,4326.153809,4329.615234,4346.666504,4328.974121,4334.743652,4340.641113,4341.282227,4317.05127,4312.94873,4490.769043,4518.717773,4391.025879,4440.0,,,,,,,,,,,,,,,,,,,,,,,,,,,,,,,,,,,,,,,,,,,,,,,,,,,,,,,,,,,,,,,,,,,,,,
1768920139.889665,1768920139.889892,55.0,0.0,4344.871582,4324.487305,4332.307617,4346.025879,4326.025879,4335.897461,4344.743652,4347.05127,4322.563965,4316.282227,4499.871582,4528.077148,4390.641113,4438.077148,,,,,,,,,,,,,,,,,,,,,,,,,,,,,,,,,,,,,,,,,,,,,,,,,,,,,,,,,,,,,,,,,,,,,,
1768920139.897473,1768920139.8979,56.0,0.0,4348.974121,4327.179688,4340.512695,4345.897461,4325.128418,4328.717773,4340.384766,4351.025879,4332.05127,4325.0,4508.077148,4541.538574,4404.743652,4442.436035,,,,,,,,,,,,,,,,,,,,,,,,,,,,,,,,,,,,,,,,,,,,,,,,,,,,,,,,,,,,,,,,,,,,,,
1768920139.905282,1768920139.905709,57.0,0.0,4352.436035,4327.692383,4345.0,4346.922852,4327.820313,4327.820313,4339.615234,4355.0,4337.05127,4328.077148,4517.94873,4549.230957,4413.205078,4451.153809,,,,,,,,,,,,,,,,,,,,,,,,,,,,,,,,,,,,,,,,,,,,,,,,,,,,,,,,,,,,,,,,,,,,,,
1768920139.91309,1768920139.913617,58.0,0.0,4345.641113,4326.410156,4343.846191,4348.205078,4329.743652,4336.794922,4352.179688,4354.230957,4333.589844,4327.820313,4522.820313,4542.820313,4406.666504,4453.333496,,,,,,,,,,,,,,,,,,,,,,,,,,,,,,,,,,,,,,,,,,,,,,,,,,,,,,,,,,,,,,,,,,,,,,
1768920139.920899,1768920139.921426,59.0,0.0,4339.358887,4326.282227,4337.179688,4344.102539,4327.307617,4337.436035,4351.410156,4346.282227,4329.487305,4328.461426,4515.384766,4535.769043,4405.769043,4454.230957,,,,,,,,,,,,,,,,,,,,,,,,,,,,,,,,,,,,,,,,,,,,,,,,,,,,,,,,,,,,,,,,,,,,,,
1768920139.928707,1768920139.929434,60.0,0.0,4343.717773,4326.922852,4329.358887,4338.461426,4322.820313,4325.256348,4327.692383,4341.153809,4332.179688,4325.897461,4513.461426,4540.128418,4412.05127,4459.230957,,,,,,,,,,,,,,,,,,,,,,,,,,,,,,,,,,,,,,,,,,,,,,,,,,,,,,,,,,,,,,,,,,,,,,
1768920139.936516,1768920139.937242,61.0,0.0,4343.974121,4326.025879,4326.282227,4337.692383,4323.333496,4322.05127,4320.897461,4342.307617,4331.538574,4323.846191,4524.743652,4547.307617,4414.743652,4461.794922,,,,,,,,,,,,,,,,,,,,,,,,,,,,,,,,,,,,,,,,,,,,,,,,,,,,,,,,,,,,,,,,,,,,,,
1768920139.944324,1768920139.945151,62.0,0.0,4333.974121,4323.333496,4326.666504,4338.205078,4329.230957,4331.538574,4339.230957,4342.820313,4325.512695,4326.794922,4524.102539,4549.615234,4415.512695,4462.05127,,,,,,,,,,,,,,,,,,,,,,,,,,,,,,,,,,,,,,,,,,,,,,,,,,,,,,,,,,,,,,,,,,,,,,
1768920139.952133,1768920139.952959,63.0,0.0,4331.025879,4322.436035,4328.846191,4340.641113,4331.410156,4334.230957,4344.487305,4339.487305,4325.0,4327.94873,4510.0,4544.102539,4412.179688,4458.589844,,,,,,,,,,,,,,,,,,,,,,,,,,,,,,,,,,,,,,,,,,,,,,,,,,,,,,,,,,,,,,,,,,,,,,
1768920139.959941,1768920139.960568,64.0,0.0,4343.846191,4330.897461,4338.077148,4346.282227,4333.077148,4330.512695,4337.820313,4339.358887,4327.94873,4321.410156,4507.94873,4537.179688,4404.871582,4457.05127,1.351012,1.119914,0.389368,0.224688,0.104333,0.366194,0.918221,0.292193,0.18001,0.122524,0.784121,0.954802,0.48038,0.220329,0.128821,0.475511,0.937667,0.197026,0.190329,0.075699,0.423937,0.238137,0.249313,0.156023,0.09001,0.28631,0.118068,0.158081,0.219826,0.210783,0.308178,0.271752,0.217581,0.212262,0.223414,0.201969,0.29352,0.138901,0.143594,0.123454,0.398985,0.432291,0.282349,0.100156,0.154189,0.48281,0.459868,0.27728,0.112286,0.110565,0.978698,0.530581,0.341718,0.342581,0.155635,2.060517,0.518202,0.472268,0.370395,0.205442,0.518977,0.324128,0.256522,0.357516,0.157697,3.970174,0.806976,0.345086,0.612829,0.119576
1768920139.96775,1768920139.968376,65.0,0.0,4354.358887,4342.307617,4349.743652,4353.717773,4336.922852,4334.743652,4340.256348,4344.358887,4329.615234,4316.666504,4510.384766,4534.871582,4407.179688,4460.0,,,,,,,,,,,,,,,,,,,,,,,,,,,,,,,,,,,,,,,,,,,,,,,,,,,,,,,,,,,,,,,,,,,,,,
1768920139.975558,1768920139.976085,66.0,0.0,4347.820313,4345.641113,4352.436035,4361.153809,4336.666504,4341.538574,4344.102539,4342.94873,4329.358887,4318.717773,4508.461426,4535.897461,4415.256348,4460.256348,,,,,,,,,,,,,,,,,,,,,,,,,,,,,,,,,,,,,,,,,,,,,,,,,,,,,,,,,,,,,,,,,,,,,,
1768920139.983367,1768920139.983893,67.0,0.0,4338.333496,4343.077148,4346.666504,4359.615234,4331.153809,4340.641113,4343.077148,4339.743652,4327.179688,4318.333496,4507.692383,4537.94873,4414.102539,4457.820313,,,,,,,,,,,,,,,,,,,,,,,,,,,,,,,,,,,,,,,,,,,,,,,,,,,,,,,,,,,,,,,,,,,,,,
1768920139.991175,1768920139.991502,68.0,0.0,4335.128418,4334.743652,4340.256348,4347.563965,4325.384766,4340.256348,4342.692383,4346.025879,4326.666504,4312.179688,4507.05127,4537.692383,4404.743652,4450.641113,,,,,,,,,,,,,,,,,,,,,,,,,,,,,,,,,,,,,,,,,,,,,,,,,,,,,,,,,,,,,,,,,,,,,,
1768920139.998984,1768920139.99931,69.0,0.0,4333.461426,4325.641113,4339.487305,4340.384766,4322.94873,4338.846191,4342.563965,4347.307617,4325.512695,4305.769043,4505.641113,4532.820313,4396.025879,4443.717773,,,,,,,,,,,,,,,,,,,,,,,,,,,,,,,,,,,,,,,,,,,,,,,,,,,,,,,,,,,,,,,,,,,,,,
1768920140.006792,1768920140.007019,70.0,0.0,4337.692383,4326.025879,4344.871582,4344.871582,4323.589844,4333.846191,4341.538574,4341.666504,4328.461426,4308.974121,4504.871582,4534.358887,4397.820313,4448.589844,,,,,,,,,,,,,,,,,,,,,,,,,,,,,,,,,,,,,,,,,,,,,,,,,,,,,,,,,,,,,,,,,,,,,,
1768920140.014601,1768920140.014827,71.0,0.0,4346.922852,4331.922852,4351.025879,4349.743652,4327.436035,4336.794922,4348.077148,4347.820313,4338.846191,4323.589844,4512.563965,4546.794922,4413.846191,4460.512695,,,,,,,,,,,,,,,,,,,,,,,,,,,,,,,,,,,,,,,,,,,,,,,,,,,,,,,,,,,,,,,,,,,,,,
1768920140.022409,1768920140.022836,72.0,0.0,4350.641113,4331.922852,4354.102539,4350.256348,4330.0,4341.025879,4350.641113,4352.179688,4342.692383,4335.256348,4522.820313,4552.307617,4428.333496,4461.922852,,,,,,,,,,,,,,,,,,,,,,,,,,,,,,,,,,,,,,,,,,,,,,,,,,,,,,,,,,,,,,,,,,,,,,
1768920140.030218,1768920140.030644,73.0,0.0,4350.0,4333.846191,4358.077148,4354.487305,4327.692383,4336.538574,4343.589844,4346.538574,4341.153809,4335.0,4527.05127,4552.436035,4427.94873,4461.282227,,,,,,,,,,,,,,,,,,,,,,,,,,,,,,,,,,,,,,,,,,,,,,,,,,,,,,,,,,,,,,,,,,,,,,
1768920140.038026,1768920140.038552,74.0,0.0,4350.512695,4340.512695,4360.0,4359.487305,4331.538574,4335.384766,4346.153809,4352.94873,4344.871582,4330.256348,4526.153809,4557.436035,4422.436035,4466.282227,,,,,,,,,,,,,,,,,,,,,,,,,,,,,,,,,,,,,,,,,,,,,,,,,,,,,,,,,,,,,,,,,,,,,,
1768920140.045835,1768920140.046361,75.0,0.0,4348.974121,4341.538574,4349.871582,4357.307617,4338.205078,4344.615234,4353.974121,4360.256348,4344.358887,4329.487305,4520.384766,4552.179688,4417.820313,4461.538574,,,,,,,,,,,,,,,,,,,,,,,,,,,,,,,,,,,,,,,,,,,,,,,,,,,,,,,,,,,,,,,,,,,,,,
1768920140.053643,1768920140.054369,76.0,0.0,4347.307617,4338.077148,4339.487305,4354.871582,4336.153809,4340.384766,4346.794922,4347.692383,4334.230957,4326.410156,4510.769043,4534.743652,4409.743652,4451.025879,,,,,,,,,,,,,,,,,,,,,,,,,,,,,,,,,,,,,,,,,,,,,,,,,,,,,,,,,,,,,,,,,,,,,,
1768920140.061452,1768920140.062177,77.0,0.0,4348.333496,4339.102539,4342.436035,4357.307617,4332.820313,4328.205078,4336.153809,4338.974121,4325.256348,4320.897461,4506.666504,4525.256348,4403.846191,4448.846191,,,,,,,,,,,,,,,,,,,,,,,,,,,,,,,,,,,,,,,,,,,,,,,,,,,,,,,,,,,,,,,,,,,,,,
1768920140.06926,1768920140.069886,78.0,0.0,4350.128418,4341.025879,4347.05127,4357.179688,4333.717773,4334.743652,4342.307617,4342.820313,4325.384766,4315.769043,4508.974121,4531.025879,4409.487305,4454.102539,,,,,,,,,,,,,,,,,,,,,,,,,,,,,,,,,,,,,,,,,,,,,,,,,,,,,,,,,,,,,,,,,,,,,,
1768920140.077069,1768920140.077694,79.0,0.0,4346.922852,4339.743652,4345.0,4353.846191,4331.153809,4339.358887,4345.769043,4339.230957,4327.692383,4313.461426,4507.307617,4533.974121,4415.128418,4453.333496,,,,,,,,,,,,,,,,,,,,,,,,,,,,,,,,,,,,,,,,,,,,,,,,,,,,,,,,,,,,,,,,,,,,,,
1768920140.084878,1768920140.085702,80.0,0.0,4339.743652,4336.538574,4341.794922,4351.794922,4326.538574,4327.179688,4337.94873,4335.384766,4325.512695,4316.922852,4505.384766,4531.025879,4410.897461,4448.333496,1.583278,1.073198,0.380961,0.196108,0.105079,0.429959,0.739671,0.318433,0.188526,0.11887,0.707945,0.899022,0.43429,0.202381,0.11718,0.580397,0.873045,0.250325,0.190031,0.073561,0.4352,0.183675,0.236111,0.145924,0.092504,0.297891,0.110209,0.138335,0.208097,0.182293,0.297899,0.230474,0.186468,0.184379,0.170312,0.190192,0.292847,0.161319,0.131612,0.124506,0.464876,0.470566,0.332602,0.109609,0.165814,0.518899,0.504346,0.352824,0.119808,0.109256,0.81142,0.480582,0.348372,0.31617,0.150257,1.711009,0.528959,0.46268,0.313737,0.186126,0.410279,0.307868,0.298755,0.383515,0.166444,3.945361,0.745775,0.284329,0.602429,0.116117
1768920140.092686,1768920140.093511,81.0,0.0,4338.846191,4332.436035,4340.512695,4350.897461,4327.820313,4326.282227,4337.179688,4339.871582,4323.461426,4318.461426,4507.307617,4532.692383,4409.358887,4449.615234,,,,,,,,,,,,,,,,,,,,,,,,,,,,,,,,,,,,,,,,,,,,,,,,,,,,,,,,,,,,,,,,,,,,,,
1768920140.100495,1768920140.101419,82.0,0.0,4344.871582,4333.077148,4342.563965,4352.436035,4327.692383,4340.256348,4342.179688,4340.512695,4329.358887,4318.333496,4508.077148,4533.461426,4413.589844,4453.077148,,,,,,,,,,,,,,,,,,,,,,,,,,,,,,,,,,,,,,,,,,,,,,,,,,,,,,,,,,,,,,,,,,,,,,
1768920140.108303,1768920140.109227,83.0,0.0,4348.205078,4333.333496,4343.846191,4351.282227,4325.128418,4337.05127,4344.871582,4340.897461,4334.102539,4321.282227,4507.94873,4529.230957,4412.307617,4453.974121,,,,,,,,,,,,,,,,,,,,,,,,,,,,,,,,,,,,,,,,,,,,,,,,,,,,,,,,,,,,,,,,,,,,,,
1768920140.116112,1768920140.117236,84.0,0.0,4349.743652,4328.333496,4342.05127,4345.512695,4325.384766,4325.897461,4341.666504,4346.538574,4331.794922,4323.846191,4507.692383,4532.179688,4408.717773,4455.384766,,,,,,,,,,,,,,,,,,,,,,,,,,,,,,,,,,,,,,,,,,,,,,,,,,,,,,,,,,,,,,,,,,,,,,
1768920140.12392,1768920140.125044,85.0,0.0,4348.974121,4329.615234,4341.922852,4346.794922,4326.922852,4331.153809,4338.461426,4344.871582,4331.025879,4322.307617,4508.461426,4539.487305,4410.769043,4462.05127,,,,,,,,,,,,,,,,,,,,,,,,,,,,,,,,,,,,,,,,,,,,,,,,,,,,,,,,,,,,,,,,,,,,,,
1768920140.131729,1768920140.132753,86.0,0.0,4343.717773,4333.333496,4342.436035,4350.641113,4326.794922,4336.153809,4334.102539,4337.307617,4329.871582,4318.333496,4510.0,4534.871582,4413.461426,4461.153809,,,,,,,,,,,,,,,,,,,,,,,,,,,,,,,,,,,,,,,,,,,,,,,,,,,,,,,,,,,,,,,,,,,,,,
1768920140.139537,1768920140.140561,87.0,0.0,4341.410156,4328.205078,4341.025879,4348.333496,4325.128418,4327.563965,4328.974121,4337.692383,4326.025879,4318.461426,4508.077148,4531.282227,4412.820313,4456.410156,,,,,,,,,,,,,,,,,,,,,,,,,,,,,,,,,,,,,,,,,,,,,,,,,,,,,,,,,,,,,,,,,,,,,,
1768920140.147346,1768920140.14817,88.0,0.0,4346.794922,4326.282227,4345.256348,4349.871582,4323.974121,4322.820313,4330.641113,4341.410156,4328.974121,4318.846191,4510.256348,4541.538574,4415.384766,4461.666504,,,,,,,,,,,,,,,,,,,,,,,,,,,,,,,,,,,,,,,,,,,,,,,,,,,,,,,,,,,,,,,,,,,,,,
1768920140.155154,1768920140.155978,89.0,0.0,4352.436035,4330.641113,4351.922852,4354.871582,4322.94873,4329.743652,4336.666504,4340.897461,4335.0,4320.0,4517.436035,4549.743652,4418.077148,4468.333496,,,,,,,,,,,,,,,,,,,,,,,,,,,,,,,,,,,,,,,,,,,,,,,,,,,,,,,,,,,,,,,,,,,,,,
1768920140.162963,1768920140.163687,90.0,0.0,4351.794922,4328.461426,4349.487305,4350.512695,4322.436035,4327.820313,4335.641113,4340.0,4336.282227,4321.410156,4515.512695,4547.307617,4415.897461,4467.820313,,,,,,,,,,,,,,,,,,,,,,,,,,,,,,,,,,,,,,,,,,,,,,,,,,,,,,,,,,,,,,,,,,,,,,
1768920140.170771,1768920140.171495,91.0,0.0,4348.333496,4326.153809,4342.563965,4345.384766,4325.384766,4325.256348,4333.461426,4338.205078,4331.922852,4316.666504,4507.05127,4537.179688,4412.307617,4460.384766,,,,,,,,,,,,,,,,,,,,,,,,,,,,,,,,,,,,,,,,,,,,,,,,,,,,,,,,,,,,,,,,,,,,,,
1768920140.17858,1768920140.179104,92.0,0.0,4347.05127,4329.615234,4340.769043,4348.589844,4328.205078,4340.897461,4346.282227,4340.0,4332.436035,4314.615234,4505.769043,4531.794922,4407.692383,4455.0,,,,,,,,,,,,,,,,,,,,,,,,,,,,,,,,,,,,,,,,,,,,,,,,,,,,,,,,,,,,,,,,,,,,,,
1768920140.186388,1768920140.186912,93.0,0.0,4345.769043,4329.615234,4342.94873,4349.743652,4327.307617,4346.282227,4351.794922,4346.922852,4338.846191,4317.563965,4510.512695,4537.820313,4401.794922,4449.743652,,,,,,,,,,,,,,,,,,,,,,,,,,,,,,,,,,,,,,,,,,,,,,,,,,,,,,,,,,,,,,,,,,,,,,
1768920140.194197,1768920140.194621,94.0,0.0,4343.846191,4328.589844,4341.282227,4348.077148,4326.538574,4328.205078,4332.05127,4344.487305,4335.897461,4313.205078,4505.256348,4536.410156,4399.743652,4442.563965,,,,,,,,,,,,,,,,,,,,,,,,,,,,,,,,,,,,,,,,,,,,,,,,,,,,,,,,,,,,,,,,,,,,,,
1768920140.202005,1768920140.202429,95.0,0.0,4338.974121,4327.307617,4337.179688,4349.871582,4327.05127,4320.384766,4321.153809,4336.666504,4324.615234,4308.589844,4496.153809,4526.153809,4399.102539,4441.153809,,,,,,,,,,,,,,,,,,,,,,,,,,,,,,,,,,,,,,,,,,,,,,,,,,,,,,,,,,,,,,,,,,,,,,
1768920140.209814,1768920140.210038,96.0,0.0,4334.871582,4324.743652,4338.589844,4348.077148,4325.256348,4329.358887,4332.563965,4337.436035,4321.794922,4311.025879,4500.897461,4522.692383,4397.05127,4445.512695,1.706622,1.049324,0.349416,0.170979,0.104991,0.553091,0.614194,0.348028,0.188794,0.109745,0.68355,0.850377,0.389033,0.188217,0.109206,0.738958,0.818868,0.306028,0.183733,0.073802,0.397505,0.15638,0.242865,0.134771,0.09259,0.293293,0.123572,0.117327,0.190219,0.160797,0.293052,0.254573,0.157645,0.16738,0.135485,0.181463,0.315441,0.20192,0.126792,0.126415,0.520824,0.541599,0.388196,0.118332,0.174085,0.569464,0.606609,0.43546,0.140963,0.111576,0.720221,0.506827,0.35463,0.293927,0.145477,1.419067,0.596507,0.463148,0.281178,0.171132,0.378191,0.357565,0.327966,0.392327,0.174889,3.543299,0.657257,0.208407,0.581748,0.11057
1768920140.217622,1768920140.217846,97.0,0.0,4334.871582,4322.94873,4341.666504,4341.538574,4323.846191,4329.230957,4337.820313,4337.820313,4324.487305,4305.512695,4500.512695,4521.666504,4395.641113,4440.897461,,,,,,,,,,,,,,,,,,,,,,,,,,,,,,,,,,,,,,,,,,,,,,,,,,,,,,,,,,,,,,,,,,,,,,
1768920140.225431,1768920140.225755,98.0,0.0,4338.205078,4321.794922,4342.05127,4343.077148,4324.871582,4322.820313,4326.153809,4334.487305,4322.692383,4299.743652,4491.794922,4519.871582,4395.256348,4431.410156,,,,,,,,,,,,,,,,,,,,,,,,,,,,,,,,,,,,,,,,,,,,,,,,,,,,,,,,,,,,,,,,,,,,,,
1768920140.233239,1768920140.233563,99.0,0.0,4340.128418,4321.794922,4341.025879,4349.615234,4325.128418,4323.461426,4319.743652,4337.820313,4324.615234,4309.871582,4498.205078,4525.384766,4395.641113,4435.769043,,,,,,,,,,,,,,,,,,,,,,,,,,,,,,,,,,,,,,,,,,,,,,,,,,,,,,,,,,,,,,,,,,,,,,
1768920140.241048,1768920140.241571,100.0,0.0,4341.794922,4324.871582,4341.538574,4350.0,4323.333496,4327.436035,4326.025879,4339.871582,4328.589844,4314.230957,4505.128418,4529.871582,4397.692383,4443.846191,,,,,,,,,,,,,,,,,,,,,,,,,,,,,,,,,,,,,,,,,,,,,,,,,,,,,,,,,,,,,,,,,,,,,,
1768920140.248856,1768920140.24938,101.0,0.0,4346.666504,4328.077148,4343.461426,4349.743652,4324.743652,4327.05127,4328.205078,4334.615234,4324.615234,4306.538574,4496.666504,4526.538574,4395.641113,4442.820313,,,,,,,,,,,,,,,,,,,,,,,,,,,,,,,,,,,,,,,,,,,,,,,,,,,,,,,,,,,,,,,,,,,,,,
1768920140.256665,1768920140.257288,102.0,0.0,4349.102539,4329.102539,4351.282227,4353.205078,4326.282227,4326.153809,4325.897461,4334.102539,4321.922852,4306.282227,4497.307617,4528.077148,4395.256348,4447.563965,,,,,,,,,,,,,,,,,,,,,,,,,,,,,,,,,,,,,,,,,,,,,,,,,,,,,,,,,,,,,,,,,,,,,,
1768920140.264473,1768920140.265097,103.0,0.0,4350.384766,4333.333496,4360.384766,4361.153809,4326.025879,4331.025879,4333.205078,4337.94873,4325.769043,4311.794922,4510.384766,4538.846191,4404.487305,4460.384766,,,,,,,,,,,,,,,,,,,,,,,,,,,,,,,,,,,,,,,,,,,,,,,,,,,,,,,,,,,,,,,,,,,,,,
1768920140.272282,1768920140.272705,104.0,0.0,4355.384766,4341.025879,4362.05127,4367.307617,4326.666504,4329.871582,4335.256348,4337.692383,4329.230957,4310.897461,4516.025879,4547.307617,4414.615234,4464.230957,,,,,,,,,,,,,,,,,,,,,,,,,,,,,,,,,,,,,,,,,,,,,,,,,,,,,,,,,,,,,,,,,,,,,,
1768920140.28009,1768920140.280513,105.0,0.0,4354.871582,4343.205078,4358.461426,4362.563965,4326.153809,4324.102539,4330.897461,4339.102539,4327.820313,4312.05127,4515.256348,4547.692383,4419.230957,4458.974121,,,,,,,,,,,,,,,,,,,,,,,,,,,,,,,,,,,,,,,,,,,,,,,,,,,,,,,,,,,,,,,,,,,,,,
1768920140.287899,1768920140.288222,106.0,0.0,4350.641113,4338.717773,4357.05127,4358.974121,4325.641113,4330.897461,4339.102539,4342.94873,4328.077148,4321.025879,4518.589844,4541.922852,4417.820313,4460.0,,,,,,,,,,,,,,,,,,,,,,,,,,,,,,,,,,,,,,,,,,,,,,,,,,,,,,,,,,,,,,,,,,,,,,
1768920140.295708,1768920140.29603,107.0,0.0,4354.871582,4342.94873,4359.615234,4366.153809,4328.077148,4336.282227,4340.641113,4339.487305,4330.256348,4324.743652,4518.846191,4538.077148,4413.461426,4469.487305,,,,,,,,,,,,,,,,,,,,,,,,,,,,,,,,,,,,,,,,,,,,,,,,,,,,,,,,,,,,,,,,,,,,,,
1768920140.303516,1768920140.304038,108.0,0.0,4358.205078,4352.94873,4360.384766,4367.94873,4328.717773,4327.820313,4329.487305,4333.333496,4327.820313,4321.025879,4513.974121,4538.461426,4418.333496,4472.563965,,,,,,,,,,,,,,,,,,,,,,,,,,,,,,,,,,,,,,,,,,,,,,,,,,,,,,,,,,,,,,,,,,,,,,
1768920140.311324,1768920140.311847,109.0,0.0,4348.205078,4344.743652,4357.692383,4362.05127,4325.384766,4324.743652,4329.230957,4337.94873,4327.692383,4319.358887,4516.410156,4537.307617,4423.974121,4466.666504,,,,,,,,,,,,,,,,,,,,,,,,,,,,,,,,,,,,,,,,,,,,,,,,,,,,,,,,,,,,,,,,,,,,,,
1768920140.319133,1768920140.319755,110.0,0.0,4342.820313,4337.436035,4356.794922,4364.615234,4328.974121,4327.436035,4330.384766,4341.282227,4330.512695,4315.641113,4522.692383,4536.025879,4416.922852,4462.692383,,,,,,,,,,,,,,,,,,,,,,,,,,,,,,,,,,,,,,,,,,,,,,,,,,,,,,,,,,,,,,,,,,,,,,
1768920140.326942,1768920140.327563,111.0,0.0,4353.205078,4353.333496,4357.179688,4370.512695,4333.717773,4323.077148,4319.615234,4331.282227,4326.282227,4309.743652,4515.128418,4537.179688,4408.717773,4464.358887,,,,,,,,,,,,,,,,,,,,,,,,,,,,,,,,,,,,,,,,,,,,,,,,,,,,,,,,,,,,,,,,,,,,,,
1768920140.33475,1768920140.335172,112.0,0.0,4360.128418,4362.307617,4356.153809,4369.871582,4330.897461,4322.179688,4320.128418,4327.05127,4322.563965,4310.641113,4504.358887,4538.205078,4410.512695,4469.102539,1.70368,1.021144,0.311297,0.152589,0.102757,0.729866,0.554191,0.377942,0.18175,0.096634,0.70256,0.809123,0.368852,0.185965,0.104312,0.926358,0.778073,0.355702,0.175022,0.074857,0.322426,0.157377,0.270358,0.127132,0.089517,0.269693,0.151849,0.10352,0.172673,0.148815,0.286141,0.32573,0.141914,0.165286,0.124779,0.17849,0.370748,0.254386,0.12656,0.129714,0.559177,0.657206,0.44232,0.122828,0.177092,0.60727,0.774224,0.508994,0.167574,0.115863,0.727937,0.676664,0.360234,0.273638,0.141053,1.279562,0.768481,0.479561,0.277408,0.159875,0.417527,0.509105,0.339778,0.381205,0.180401,2.944006,0.586144,0.144939,0.538475,0.102511
1768920140.342559,1768920140.34298,113.0,0.0,4355.512695,4351.410156,4357.307617,4369.615234,4330.384766,4326.025879,4329.615234,4332.179688,4325.384766,4312.820313,4509.615234,4535.641113,4413.846191,4470.769043,,,,,,,,,,,,,,,,,,,,,,,,,,,,,,,,,,,,,,,,,,,,,,,,,,,,,,,,,,,,,,,,,,,,,,
1768920140.350367,1768920140.350689,114.0,0.0,4347.563965,4344.487305,4356.153809,4367.820313,4330.384766,4324.102539,4326.666504,4333.846191,4325.897461,4308.846191,4510.769043,4531.666504,4411.025879,4462.94873,,,,,,,,,,,,,,,,,,,,,,,,,,,,,,,,,,,,,,,,,,,,,,,,,,,,,,,,,,,,,,,,,,,,,,
1768920140.358176,1768920140.358497,115.0,0.0,4340.512695,4341.153809,4349.102539,4360.897461,4328.333496,4326.025879,4327.307617,4336.538574,4330.0,4310.128418,4505.256348,4534.487305,4405.641113,4456.538574,,,,,,,,,,,,,,,,,,,,,,,,,,,,,,,,,,,,,,,,,,,,,,,,,,,,,,,,,,,,,,,,,,,,,,
1768920140.365984,1768920140.366506,116.0,0.0,4342.05127,4333.846191,4349.743652,4356.025879,4330.0,4332.05127,4338.461426,4342.307617,4335.641113,4315.256348,4508.589844,4540.384766,4403.974121,4462.436035,,,,,,,,,,,,,,,,,,,,,,,,,,,,,,,,,,,,,,,,,,,,,,,,,,,,,,,,,,,,,,,,,,,,,,
1768920140.373793,1768920140.374315,117.0,0.0,4343.717773,4333.846191,4353.589844,4357.307617,4330.256348,4327.94873,4338.077148,4340.0,4330.769043,4314.358887,4508.077148,4537.05127,4400.384766,4460.128418,,,,,,,,,,,,,,,,,,,,,,,,,,,,,,,,,,,,,,,,,,,,,,,,,,,,,,,,,,,,,,,,,,,,,,
1768920140.381601,1768920140.382023,118.0,0.0,4336.025879,4337.692383,4345.641113,4358.589844,4325.512695,4319.358887,4326.025879,4330.641113,4323.717773,4309.487305,4495.512695,4526.410156,4390.128418,4444.871582,,,,,,,,,,,,,,,,,,,,,,,,,,,,,,,,,,,,,,,,,,,,,,,,,,,,,,,,,,,,,,,,,,,,,,
1768920140.38941,1768920140.389832,119.0,0.0,4334.230957,4332.436035,4339.230957,4357.05127,4324.358887,4320.769043,4322.436035,4329.230957,4323.974121,4306.666504,4488.974121,4520.384766,4388.461426,4441.922852,,,,,,,,,,,,,,,,,,,,,,,,,,,,,,,,,,,,,,,,,,,,,,,,,,,,,,,,,,,,,,,,,,,,,,
1768920140.397218,1768920140.39744,120.0,0.0,4340.641113,4327.179688,4345.897461,4355.384766,4327.05127,4325.256348,4325.769043,4333.846191,4324.615234,4308.077148,4497.692383,4520.0,4396.794922,4448.974121,,,,,,,,,,,,,,,,,,,,,,,,,,,,,,,,,,,,,,,,,,,,,,,,,,,,,,,,,,,,,,,,,,,,,,
1768920140.405027,1768920140.405249,121.0,0.0,4345.128418,4333.461426,4352.692383,4357.05127,4325.256348,4323.974121,4327.436035,4332.05127,4324.743652,4310.256348,4502.692383,4522.94873,4398.333496,4449.102539,,,,,,,,,,,,,,,,,,,,,,,,,,,,,,,,,,,,,,,,,,,,,,,,,,,,,,,,,,,,,,,,,,,,,,
1768920140.412835,1768920140.412957,122.0,0.0,4351.538574,4342.820313,4355.769043,4365.641113,4329.358887,4327.563965,4333.717773,4329.358887,4325.512695,4307.563965,4503.589844,4530.0,4397.179688,4449.743652,,,,,,,,,,,,,,,,,,,,,,,,,,,,,,,,,,,,,,,,,,,,,,,,,,,,,,,,,,,,,,,,,,,,,,
1768920140.420644,1768920140.420766,123.0,0.0,4355.512695,4345.128418,4359.615234,4371.282227,4334.871582,4333.461426,4335.128418,4335.512695,4325.128418,4304.487305,4504.615234,4535.641113,4399.615234,4460.0,,,,,,,,,,,,,,,,,,,,,,,,,,,,,,,,,,,,,,,,,,,,,,,,,,,,,,,,,,,,,,,,,,,,,,
1768920140.428452,1768920140.428774,124.0,0.0,4349.358887,4337.94873,4358.205078,4364.871582,4328.717773,4321.538574,4325.256348,4340.384766,4326.922852,4306.666504,4499.871582,4536.794922,4399.102539,4463.974121,,,,,,,,,,,,,,,,,,,,,,,,,,,,,,,,,,,,,,,,,,,,,,,,,,,,,,,,,,,,,,,,,,,,,,
1768920140.436261,1768920140.436582,125.0,0.0,4347.179688,4331.922852,4354.743652,4359.487305,4323.461426,4314.871582,4321.153809,4336.282227,4328.205078,4307.692383,4498.461426,4532.436035,4394.102539,4458.077148,,,,,,,,,,,,,,,,,,,,,,,,,,,,,,,,,,,,,,,,,,,,,,,,,,,,,,,,,,,,,,,,,,,,,,
1768920140.444069,1768920140.444491,126.0,0.0,4352.820313,4335.512695,4354.358887,4361.666504,4327.692383,4327.179688,4328.974121,4333.589844,4325.897461,4304.102539,4504.871582,4532.94873,4396.922852,4458.589844,,,,,,,,,,,,,,,,,,,,,,,,,,,,,,,,,,,,,,,,,,,,,,,,,,,,,,,,,,,,,,,,,,,,,,
1768920140.451878,1768920140.452299,127.0,0.0,4356.153809,4341.025879,4355.0,4361.666504,4330.128418,4331.025879,4335.128418,4335.641113,4325.641113,4308.589844,4507.436035,4544.615234,4409.358887,4469.358887,,,,,,,,,,,,,,,,,,,,,,,,,,,,,,,,,,,,,,,,,,,,,,,,,,,,,,,,,,,,,,,,,,,,,,
1768920140.459686,1768920140.460307,0.0,0.0,4358.846191,4342.05127,4357.307617,4357.05127,4326.410156,4329.487305,4333.333496,4339.615234,4332.307617,4318.333496,4508.461426,4552.05127,4414.487305,4478.717773,1.590969,0.961242,0.286147,0.145037,0.098861,0.924636,0.542216,0.403761,0.172817,0.082524,0.761102,0.771869,0.384142,0.20243,0.100309,1.11045,0.744306,0.393831,0.170092,0.075511,0.235104,0.177409,0.306639,0.123626,0.083032,0.235239,0.18168,0.105518,0.158601,0.147671,0.280766,0.410157,0.150059,0.174523,0.13965,0.185116,0.452748,0.310701,0.125612,0.134068,0.584257,0.813438,0.489296,0.120377,0.174074,0.617466,0.996977,0.564405,0.189232,0.119566,0.836204,1.011502,0.362603,0.252926,0.136494,1.329274,1.073289,0.512412,0.296607,0.151975,0.514876,0.769786,0.34366,0.359732,0.1806,2.391366,0.582719,0.113888,0.46878,0.093368
1768920140.467495,1768920140.468116,1.0,0.0,4359.230957,4338.077148,4357.436035,4356.282227,4325.769043,4332.436035,4331.153809,4339.230957,4335.512695,4316.282227,4511.538574,4544.871582,4405.897461,4476.666504,,,,,,,,,,,,,,,,,,,,,,,,,,,,,,,,,,,,,,,,,,,,,,,,,,,,,,,,,,,,,,,,,,,,,,
1768920140.475303,1768920140.475824,2.0,0.0,4351.922852,4332.563965,4350.384766,4359.102539,4327.94873,4322.436035,4324.230957,4328.461426,4324.743652,4307.307617,4501.153809,4531.153809,4396.794922,4464.743652,,,,,,,,,,,,,,,,,,,,,,,,,,,,,,,,,,,,,,,,,,,,,,,,,,,,,,,,,,,,,,,,,,,,,,
1768920140.483112,1768920140.483632,3.0,0.0,4345.512695,4333.589844,4345.512695,4358.205078,4328.717773,4312.820313,4311.538574,4322.692383,4317.94873,4306.794922,4488.974121,4523.333496,4397.05127,4456.410156,,,,,,,,,,,,,,,,,,,,,,,,,,,,,,,,,,,,,,,,,,,,,,,,,,,,,,,,,,,,,,,,,,,,,,
1768920140.49092,1768920140.491641,4.0,0.0,4350.256348,4340.769043,4348.461426,4356.666504,4330.897461,4324.102539,4310.0,4328.846191,4323.333496,4311.410156,4496.922852,4526.922852,4403.461426,4465.256348,,,,,,,,,,,,,,,,,,,,,,,,,,,,,,,,,,,,,,,,,,,,,,,,,,,,,,,,,,,,,,,,,,,,,,
1768920140.498729,1768920140.499449,5.0,0.0,4357.307617,4344.615234,4351.922852,4360.512695,4335.128418,4330.512695,4324.102539,4329.743652,4324.358887,4311.410156,4509.102539,4533.717773,4410.512695,4472.436035,,,,,,,,,,,,,,,,,,,,,,,,,,,,,,,,,,,,,,,,,,,,,,,,,,,,,,,,,,,,,,,,,,,,,,
1768920140.506538,1768920140.507357,6.0,0.0,4354.615234,4344.871582,4355.0,4364.615234,4335.384766,4323.205078,4327.563965,4327.307617,4321.025879,4310.128418,4508.205078,4534.871582,4411.794922,4463.846191,,,,,,,,,,,,,,,,,,,,,,,,,,,,,,,,,,,,,,,,,,,,,,,,,,,,,,,,,,,,,,,,,,,,,,
1768920140.514346,1768920140.515166,7.0,0.0,4347.820313,4347.692383,4356.153809,4362.563965,4331.282227,4322.692383,4318.589844,4330.256348,4323.333496,4309.358887,4502.692383,4533.461426,4408.717773,4462.94873,,,,,,,,,,,,,,,,,,,,,,,,,,,,,,,,,,,,,,,,,,,,,,,,,,,,,,,,,,,,,,,,,,,,,,
1768920140.522154,1768920140.522775,8.0,0.0,4350.384766,4347.179688,4352.820313,4357.692383,4331.153809,4326.794922,4320.769043,4333.974121,4326.410156,4311.025879,4506.282227,4536.025879,4409.743652,4472.436035,,,,,,,,,,,,,,,,,,,,,,,,,,,,,,,,,,,,,,,,,,,,,,,,,,,,,,,,,,,,,,,,,,,,,,
1768920140.529963,1768920140.530583,9.0,0.0,4354.487305,4343.846191,4353.077148,4355.769043,4331.922852,4328.461426,4328.333496,4335.641113,4327.05127,4315.128418,4510.256348,4536.794922,4413.589844,4468.077148,,,,,,,,,,,,,,,,,,,,,,,,,,,,,,,,,,,,,,,,,,,,,,,,,,,,,,,,,,,,,,,,,,,,,,
1768920140.537772,1768920140.538292,10.0,0.0,4350.897461,4344.871582,4357.692383,4358.205078,4329.358887,4327.563965,4327.436035,4332.307617,4325.897461,4313.461426,4508.333496,4536.538574,4412.563965,4457.820313,,,,,,,,,,,,,,,,,,,,,,,,,,,,,,,,,,,,,,,,,,,,,,,,,,,,,,,,,,,,,,,,,,,,,,
1768920140.54558,1768920140.5461,11.0,0.0,4349.102539,4346.794922,4359.102539,4360.641113,4327.820313,4325.384766,4323.461426,4329.230957,4322.307617,4308.461426,4505.384766,4539.743652,4405.256348,4459.358887,,,,,,,,,,,,,,,,,,,,,,,,,,,,,,,,,,,,,,,,,,,,,,,,,,,,,,,,,,,,,,,,,,,,,,
1768920140.553388,1768920140.554108,12.0,0.0,4348.974121,4344.615234,4356.025879,4358.333496,4328.589844,4324.615234,4324.615234,4334.743652,4327.05127,4309.871582,4507.436035,4538.333496,4402.179688,4461.538574,,,,,,,,,,,,,,,,,,,,,,,,,,,,,,,,,,,,,,,,,,,,,,,,,,,,,,,,,,,,,,,,,,,,,,
1768920140.561197,1768920140.561917,13.0,0.0,4342.563965,4339.743652,4351.153809,4357.563965,4326.410156,4324.487305,4327.692383,4337.436035,4330.256348,4313.077148,4510.0,4529.743652,4405.256348,4458.589844,,,,,,,,,,,,,,,,,,,,,,,,,,,,,,,,,,,,,,,,,,,,,,,,,,,,,,,,,,,,,,,,,,,,,,
1768920140.569006,1768920140.569626,14.0,0.0,4338.974121,4337.563965,4350.128418,4357.692383,4325.897461,4324.615234,4328.461426,4331.666504,4318.333496,4306.794922,4507.05127,4526.282227,4402.05127,4457.692383,,,,,,,,,,,,,,,,,,,,,,,,,,,,,,,,,,,,,,,,,,,,,,,,,,,,,,,,,,,,,,,,,,,,,,
1768920140.576814,1768920140.577434,15.0,0.0,4343.589844,4339.358887,4354.102539,4352.436035,4328.077148,4325.128418,4326.282227,4330.256348,4314.743652,4306.410156,4505.897461,4533.589844,4401.922852,4456.794922,,,,,,,,,,,,,,,,,,,,,,,,,,,,,,,,,,,,,,,,,,,,,,,,,,,,,,,,,,,,,,,,,,,,,,
1768920140.584623,1768920140.585043,16.0,0.0,4350.128418,4342.05127,4356.794922,4352.820313,4327.05127,4329.871582,4327.820313,4337.94873,4326.538574,4318.589844,4510.256348,4541.794922,4407.692383,4460.897461,1.429869,0.856242,0.284106,0.151436,0.095626,1.096015,0.546617,0.419714,0.169072,0.07183,0.870269,0.726728,0.426029,0.237744,0.095292,1.262236,0.70358,0.414943,0.173243,0.075733,0.161867,0.202213,0.333668,0.120874,0.073724,0.199816,0.201094,0.127583,0.148127,0.158182,0.278406,0.479276,0.186698,0.187724,0.176389,0.202893,0.537935,0.36159,0.120204,0.138381,0.60275,0.98062,0.525778,0.110971,0.165634,0.613121,1.23685,0.601899,0.198549,0.120446,1.032097,1.44472,0.35789,0.233222,0.131856,1.548107,1.476544,0.552782,0.326544,0.147206,0.686786,1.087193,0.353933,0.343512,0.174077,2.117585,0.664824,0.118613,0.383265,0.0862
1768920140.592431,1768920140.592851,17.0,0.0,4352.820313,4342.563965,4356.666504,4362.820313,4324.487305,4330.897461,4327.307617,4343.717773,4328.846191,4320.897461,4510.384766,4543.717773,4407.94873,4469.230957,,,,,,,,,,,,,,,,,,,,,,,,,,,,,,,,,,,,,,,,,,,,,,,,,,,,,,,,,,,,,,,,,,,,,,
1768920140.60024,1768920140.60056,18.0,0.0,4351.922852,4341.666504,4359.358887,4366.666504,4326.794922,4326.666504,4318.846191,4338.461426,4322.307617,4314.487305,4508.205078,4543.077148,4407.05127,4469.743652,,,,,,,,,,,,,,,,,,,,,,,,,,,,,,,,,,,,,,,,,,,,,,,,,,,,,,,,,,,,,,,,,,,,,,
1768920140.608048,1768920140.608368,19.0,0.0,4353.717773,4346.282227,4359.743652,4365.641113,4332.436035,4323.974121,4320.641113,4331.410156,4322.307617,4313.974121,4509.102539,4540.769043,4405.897461,4467.307617,,,,,,,,,,,,,,,,,,,,,,,,,,,,,,,,,,,,,,,,,,,,,,,,,,,,,,,,,,,,,,,,,,,,,,
1768920140.615857,1768920140.615976,20.0,0.0,4358.461426,4351.922852,4357.94873,4367.94873,4331.538574,4322.05127,4327.179688,4331.153809,4324.358887,4316.153809,4507.692383,4536.282227,4401.410156,4469.102539,,,,,,,,,,,,,,,,,,,,,,,,,,,,,,,,,,,,,,,,,,,,,,,,,,,,,,,,,,,,,,,,,,,,,,
1768920140.623665,1768920140.623784,21.0,0.0,4358.846191,4349.871582,4361.025879,4367.179688,4326.282227,4321.025879,4321.410156,4332.05127,4323.077148,4315.512695,4510.384766,4539.615234,4404.230957,4473.333496,,,,,,,,,,,,,,,,,,,,,,,,,,,,,,,,,,,,,,,,,,,,,,,,,,,,,,,,,,,,,,,,,,,,,,
1768920140.631474,1768920140.631693,22.0,0.0,4362.05127,4347.692383,4365.897461,4364.230957,4323.717773,4324.871582,4319.102539,4332.05127,4326.025879,4317.94873,4522.692383,4553.589844,4415.0,4481.282227,,,,,,,,,,,,,,,,,,,,,,,,,,,,,,,,,,,,,,,,,,,,,,,,,,,,,,,,,,,,,,,,,,,,,,
1768920140.639282,1768920140.639501,23.0,0.0,4367.692383,4353.846191,4366.922852,4368.077148,4328.333496,4327.436035,4328.461426,4336.666504,4328.974121,4323.846191,4527.436035,4561.282227,4416.666504,4483.846191,,,,,,,,,,,,,,,,,,,,,,,,,,,,,,,,,,,,,,,,,,,,,,,,,,,,,,,,,,,,,,,,,,,,,,
1768920140.647091,1768920140.647509,24.0,0.0,4366.025879,4360.769043,4367.94873,4374.743652,4333.077148,4324.102539,4329.230957,4338.461426,4325.512695,4323.461426,4520.512695,4555.128418,4410.897461,4479.358887,,,,,,,,,,,,,,,,,,,,,,,,,,,,,,,,,,,,,,,,,,,,,,,,,,,,,,,,,,,,,,,,,,,,,,
1768920140.654899,1768920140.655318,25.0,0.0,4364.615234,4360.0,4367.692383,4376.538574,4331.410156,4325.512695,4325.128418,4336.666504,4323.589844,4321.282227,4520.0,4551.922852,4417.179688,4477.563965,,,,,,,,,,,,,,,,,,,,,,,,,,,,,,,,,,,,,,,,,,,,,,,,,,,,,,,,,,,,,,,,,,,,,,
1768920140.662708,1768920140.663226,26.0,0.0,4368.589844,4360.512695,4365.128418,4374.743652,4331.153809,4330.384766,4328.461426,4339.230957,4327.692383,4323.974121,4526.538574,4553.717773,4427.563965,4479.358887,,,,,,,,,,,,,,,,,,,,,,,,,,,,,,,,,,,,,,,,,,,,,,,,,,,,,,,,,,,,,,,,,,,,,,
1768920140.670516,1768920140.671035,27.0,0.0,4369.487305,4364.230957,4367.563965,4373.461426,4332.692383,4325.769043,4328.077148,4338.205078,4326.538574,4324.871582,4526.410156,4553.461426,4425.512695,4482.692383,,,,,,,,,,,,,,,,,,,,,,,,,,,,,,,,,,,,,,,,,,,,,,,,,,,,,,,,,,,,,,,,,,,,,,
1768920140.678325,1768920140.678643,28.0,0.0,4372.94873,4362.692383,4372.94873,4375.256348,4332.307617,4322.94873,4324.358887,4335.769043,4322.692383,4321.153809,4523.077148,4550.384766,4417.94873,4485.512695,,,,,,,,,,,,,,,,,,,,,,,,,,,,,,,,,,,,,,,,,,,,,,,,,,,,,,,,,,,,,,,,,,,,,,
1768920140.686133,1768920140.686451,29.0,0.0,4378.846191,4361.794922,4375.256348,4377.692383,4332.94873,4329.871582,4324.743652,4337.94873,4327.05127,4321.794922,4524.230957,4547.179688,4418.846191,4482.05127,,,,,,,,,,,,,,,,,,,,,,,,,,,,,,,,,,,,,,,,,,,,,,,,,,,,,,,,,,,,,,,,,,,,,,
1768920140.693942,1768920140.69436,30.0,0.0,4373.589844,4365.512695,4371.153809,4378.077148,4332.436035,4330.641113,4328.077148,4335.128418,4332.05127,4324.358887,4524.871582,4546.282227,4418.205078,4478.589844,,,,,,,,,,,,,,,,,,,,,,,,,,,,,,,,,,,,,,,,,,,,,,,,,,,,,,,,,,,,,,,,,,,,,,
1768920140.70175,1768920140.702168,31.0,0.0,4364.743652,4359.615234,4361.153809,4372.307617,4327.307617,4322.179688,4326.666504,4326.282227,4324.358887,4314.871582,4517.307617,4539.358887,4412.436035,4478.461426,,,,,,,,,,,,,,,,,,,,,,,,,,,,,,,,,,,,,,,,,,,,,,,,,,,,,,,,,,,,,,,,,,,,,,
1768920140.709559,1768920140.709976,32.0,0.0,4361.538574,4344.743652,4353.846191,4362.94873,4324.102539,4319.743652,4318.461426,4324.871582,4314.743652,4301.538574,4507.820313,4527.94873,4407.307617,4467.179688,1.282435,0.722936,0.303282,0.172011,0.095294,1.22281,0.551371,0.421496,0.175108,0.068844,1.022189,0.667705,0.470326,0.283998,0.089176,1.344965,0.651393,0.417037,0.182981,0.076176,0.118355,0.220456,0.337689,0.114832,0.063108,0.171672,0.206155,0.164036,0.141426,0.179165,0.277974,0.522371,0.244394,0.199442,0.224812,0.227986,0.594668,0.398716,0.111093,0.14124,0.614483,1.110535,0.547198,0.098512,0.153308,0.61086,1.436213,0.621591,0.194863,0.117799,1.284784,1.851756,0.342454,0.222502,0.128275,1.857975,1.890076,0.586232,0.358335,0.144875,0.969004,1.373642,0.37874,0.346622,0.162214,2.239219,0.814402,0.148561,0.304124,0.084983
1768920140.717368,1768920140.717785,33.0,0.0,4356.153809,4338.333496,4353.717773,4359.871582,4327.05127,4331.282227,4323.846191,4332.820313,4315.641113,4301.282227,4503.205078,4523.461426,4398.205078,4453.077148,,,,,,,,,,,,,,,,,,,,,,,,,,,,,,,,,,,,,,,,,,,,,,,,,,,,,,,,,,,,,,,,,,,,,,
1768920140.725176,1768920140.725493,34.0,0.0,4358.205078,4343.717773,4360.512695,4366.410156,4334.102539,4343.461426,4342.436035,4338.846191,4325.769043,4315.256348,4510.0,4532.05127,4398.205078,4462.563965,,,,,,,,,,,,,,,,,,,,,,,,,,,,,,,,,,,,,,,,,,,,,,,,,,,,,,,,,,,,,,,,,,,,,,
1768920140.732984,1768920140.733302,35.0,0.0,4367.820313,4354.102539,4369.743652,4374.743652,4340.512695,4338.333496,4340.769043,4341.794922,4335.897461,4330.897461,4523.974121,4546.538574,4418.077148,4482.307617,,,,,,,,,,,,,,,,,,,,,,,,,,,,,,,,,,,,,,,,,,,,,,,,,,,,,,,,,,,,,,,,,,,,,,
1768920140.740793,1768920140.740911,36.0,0.0,4368.589844,4360.256348,4370.641113,4375.128418,4339.102539,4327.05127,4322.563965,4342.692383,4334.230957,4332.179688,4527.436035,4552.307617,4433.461426,4484.358887,,,,,,,,,,,,,,,,,,,,,,,,,,,,,,,,,,,,,,,,,,,,,,,,,,,,,,,,,,,,,,,,,,,,,,
1768920140.748602,1768920140.748719,37.0,0.0,4366.410156,4356.666504,4364.615234,4372.563965,4339.102539,4331.794922,4322.94873,4338.461426,4328.205078,4325.256348,4524.743652,4549.358887,4426.025879,4476.794922,,,,,,,,,,,,,,,,,,,,,,,,,,,,,,,,,,,,,,,,,,,,,,,,,,,,,,,,,,,,,,,,,,,,,,
1768920140.75641,1768920140.756428,38.0,0.0,4369.102539,4352.692383,4366.025879,4374.871582,4342.436035,4340.384766,4334.358887,4335.0,4327.692383,4324.358887,4522.563965,4547.179688,4413.333496,4473.205078,,,,,,,,,,,,,,,,,,,,,,,,,,,,,,,,,,,,,,,,,,,,,,,,,,,,,,,,,,,,,,,,,,,,,,
1768920140.764218,1768920140.764236,39.0,0.0,4365.512695,4354.358887,4368.717773,4374.871582,4337.563965,4333.461426,4331.922852,4335.512695,4326.153809,4318.077148,4513.974121,4544.871582,4411.794922,4467.692383,,,,,,,,,,,,,,,,,,,,,,,,,,,,,,,,,,,,,,,,,,,,,,,,,,,,,,,,,,,,,,,,,,,,,,
1768920140.772027,1768920140.772245,40.0,0.0,4357.94873,4352.436035,4363.717773,4367.307617,4336.282227,4331.025879,4329.230957,4337.820313,4324.871582,4311.153809,4510.0,4536.538574,4412.436035,4463.589844,,,,,,,,,,,,,,,,,,,,,,,,,,,,,,,,,,,,,,,,,,,,,,,,,,,,,,,,,,,,,,,,,,,,,,
1768920140.779836,1768920140.780053,41.0,0.0,4357.692383,4348.461426,4364.230957,4363.717773,4342.563965,4340.512695,4341.666504,4340.512695,4331.666504,4321.025879,4521.025879,4538.077148,4412.436035,4472.692383,,,,,,,,,,,,,,,,,,,,,,,,,,,,,,,,,,,,,,,,,,,,,,,,,,,,,,,,,,,,,,,,,,,,,,
1768920140.787644,1768920140.787761,42.0,0.0,4360.256348,4349.102539,4367.307617,4367.820313,4343.205078,4342.307617,4346.794922,4341.282227,4335.897461,4332.820313,4526.922852,4543.205078,4417.05127,4479.743652,,,,,,,,,,,,,,,,,,,,,,,,,,,,,,,,,,,,,,,,,,,,,,,,,,,,,,,,,,,,,,,,,,,,,,
1768920140.795453,1768920140.79557,43.0,0.0,4355.897461,4347.436035,4359.871582,4364.743652,4339.102539,4336.153809,4329.487305,4339.358887,4329.230957,4328.077148,4520.769043,4539.871582,4417.820313,4474.871582,,,,,,,,,,,,,,,,,,,,,,,,,,,,,,,,,,,,,,,,,,,,,,,,,,,,,,,,,,,,,,,,,,,,,,
1768920140.803261,1768920140.803178,44.0,0.0,4351.666504,4343.205078,4355.256348,4358.846191,4339.615234,4333.333496,4321.794922,4338.846191,4327.05127,4322.436035,4519.871582,4538.974121,4410.897461,4474.615234,,,,,,,,,,,,,,,,,,,,,,,,,,,,,,,,,,,,,,,,,,,,,,,,,,,,,,,,,,,,,,,,,,,,,,
1768920140.81107,1768920140.810986,45.0,0.0,4355.128418,4343.974121,4362.692383,4361.538574,4341.794922,4337.05127,4340.128418,4337.179688,4328.846191,4324.743652,4522.307617,4539.102539,4410.769043,4476.666504,,,,,,,,,,,,,,,,,,,,,,,,,,,,,,,,,,,,,,,,,,,,,,,,,,,,,,,,,,,,,,,,,,,,,,
1768920140.818878,1768920140.818695,46.0,0.0,4357.179688,4344.230957,4365.512695,4365.0,4340.256348,4339.230957,4342.179688,4330.0,4325.641113,4325.897461,4520.384766,4537.179688,4416.025879,4474.487305,,,,,,,,,,,,,,,,,,,,,,,,,,,,,,,,,,,,,,,,,,,,,,,,,,,,,,,,,,,,,,,,,,,,,,
1768920140.826687,1768920140.826503,47.0,0.0,4356.922852,4341.538574,4361.666504,4363.589844,4335.641113,4332.692383,4321.153809,4327.179688,4324.743652,4324.230957,4520.769043,4540.512695,4415.256348,4475.256348,,,,,,,,,,,,,,,,,,,,,,,,,,,,,,,,,,,,,,,,,,,,,,,,,,,,,,,,,,,,,,,,,,,,,,
1768920140.834495,1768920140.834511,48.0,0.0,4363.589844,4343.461426,4364.358887,4367.436035,4333.846191,4327.563965,4318.717773,4335.256348,4328.589844,4318.461426,4523.333496,4545.0,4413.461426,4478.333496,1.196124,0.597342,0.330849,0.201743,0.098563,1.293036,0.558118,0.406379,0.189686,0.075332,1.170667,0.603487,0.491878,0.325855,0.083275,1.329153,0.596742,0.401877,0.192656,0.077379,0.105548,0.225618,0.316227,0.103559,0.053367,0.157309,0.198239,0.203134,0.14122,0.206399,0.284759,0.543565,0.307264,0.209834,0.271791,0.255795,0.598154,0.417088,0.102319,0.141609,0.613662,1.155937,0.547462,0.088135,0.139279,0.616538,1.534993,0.620121,0.181476,0.112705,1.523421,2.106197,0.314787,0.226724,0.127446,2.128799,2.208451,0.601071,0.388525,0.143378,1.353229,1.543496,0.415454,0.369891,0.148457,2.678714,0.978431,0.185948,0.249922,0.093054
1768920140.842304,1768920140.84232,49.0,0.0,4367.179688,4344.358887,4365.897461,4371.153809,4335.641113,4332.436035,4329.615234,4341.922852,4328.333496,4317.179688,4521.282227,4538.205078,4413.205078,4474.487305,,,,,,,,,,,,,,,,,,,,,,,,,,,,,,,,,,,,,,,,,,,,,,,,,,,,,,,,,,,,,,,,,,,,,,
1768920140.850112,1768920140.850228,50.0,0.0,4358.846191,4341.025879,4357.05127,4361.538574,4336.153809,4333.461426,4328.333496,4337.563965,4325.384766,4325.769043,4518.461426,4532.436035,4412.307617,4470.769043,,,,,,,,,,,,,,,,,,,,,,,,,,,,,,,,,,,,,,,,,,,,,,,,,,,,,,,,,,,,,,,,,,,,,,
1768920140.857921,1768920140.858036,51.0,0.0,4352.436035,4339.615234,4351.794922,4355.512695,4336.025879,4331.410156,4328.077148,4333.974121,4327.05127,4326.153809,4516.922852,4533.461426,4412.307617,4471.025879,,,,,,,,,,,,,,,,,,,,,,,,,,,,,,,,,,,,,,,,,,,,,,,,,,,,,,,,,,,,,,,,,,,,,,
1768920140.865729,1768920140.866045,52.0,0.0,4353.205078,4339.615234,4357.436035,4362.436035,4339.871582,4334.871582,4331.794922,4338.589844,4328.205078,4316.410156,4511.410156,4532.179688,4407.05127,4465.256348,,,,,,,,,,,,,,,,,,,,,,,,,,,,,,,,,,,,,,,,,,,,,,,,,,,,,,,,,,,,,,,,,,,,,,
1768920140.873538,1768920140.873853,53.0,0.0,4356.922852,4342.179688,4361.922852,4369.230957,4343.846191,4331.794922,4327.94873,4337.94873,4321.538574,4311.666504,4506.025879,4528.717773,4398.974121,4457.820313,,,,,,,,,,,,,,,,,,,,,,,,,,,,,,,,,,,,,,,,,,,,,,,,,,,,,,,,,,,,,,,,,,,,,,
1768920140.881346,1768920140.881561,54.0,0.0,4358.846191,4347.820313,4360.512695,4368.846191,4342.94873,4329.615234,4325.128418,4331.282227,4318.461426,4310.0,4506.153809,4525.897461,4395.256348,4455.128418,,,,,,,,,,,,,,,,,,,,,,,,,,,,,,,,,,,,,,,,,,,,,,,,,,,,,,,,,,,,,,,,,,,,,,
1768920140.889155,1768920140.88937,55.0,0.0,4356.410156,4347.820313,4356.153809,4365.769043,4339.230957,4334.743652,4325.512695,4330.384766,4324.102539,4308.846191,4506.538574,4529.102539,4396.025879,4455.512695,,,,,,,,,,,,,,,,,,,,,,,,,,,,,,,,,,,,,,,,,,,,,,,,,,,,,,,,,,,,,,,,,,,,,,
1768920140.896963,1768920140.897378,56.0,0.0,4354.487305,4344.102539,4353.333496,4361.025879,4337.307617,4333.333496,4324.487305,4337.436035,4328.461426,4313.589844,4508.589844,4535.512695,4402.307617,4458.077148,,,,,,,,,,,,,,,,,,,,,,,,,,,,,,,,,,,,,,,,,,,,,,,,,,,,,,,,,,,,,,,,,,,,,,
1768920140.904772,1768920140.905186,57.0,0.0,4353.077148,4344.871582,4351.794922,4356.666504,4334.230957,4330.128418,4326.025879,4341.410156,4328.717773,4313.974121,4511.794922,4533.333496,4405.384766,4460.641113,,,,,,,,,,,,,,,,,,,,,,,,,,,,,,,,,,,,,,,,,,,,,,,,,,,,,,,,,,,,,,,,,,,,,,
1768920140.91258,1768920140.912995,58.0,0.0,4351.025879,4345.769043,4350.128418,4357.820313,4333.717773,4331.666504,4324.871582,4334.871582,4325.769043,4307.05127,4509.102539,4519.743652,4398.717773,4458.333496,,,,,,,,,,,,,,,,,,,,,,,,,,,,,,,,,,,,,,,,,,,,,,,,,,,,,,,,,,,,,,,,,,,,,,
1768920140.920389,1768920140.920803,59.0,0.0,4350.897461,4346.666504,4350.0,4361.153809,4338.717773,4332.179688,4324.487305,4333.846191,4323.846191,4308.333496,4507.179688,4518.077148,4396.794922,4456.922852,,,,,,,,,,,,,,,,,,,,,,,,,,,,,,,,,,,,,,,,,,,,,,,,,,,,,,,,,,,,,,,,,,,,,,
1768920140.928198,1768920140.928412,60.0,0.0,4351.922852,4348.717773,4351.153809,4361.538574,4335.769043,4335.512695,4330.769043,4341.922852,4326.153809,4317.307617,4508.717773,4534.102539,4401.538574,4460.128418,,,,,,,,,,,,,,,,,,,,,,,,,,,,,,,,,,,,,,,,,,,,,,,,,,,,,,,,,,,,,,,,,,,,,,
1768920140.936006,1768920140.93622,61.0,0.0,4350.512695,4346.153809,4352.307617,4358.589844,4330.769043,4342.436035,4333.461426,4339.358887,4328.589844,4316.025879,4507.436035,4536.282227,4402.692383,4460.256348,,,,,,,,,,,,,,,,,,,,,,,,,,,,,,,,,,,,,,,,,,,,,,,,,,,,,,,,,,,,,,,,,,,,,,
1768920140.943814,1768920140.943929,62.0,0.0,4348.077148,4340.897461,4351.410156,4354.615234,4333.974121,4340.0,4327.94873,4328.846191,4325.128418,4308.846191,4506.025879,4523.589844,4407.05127,4453.589844,,,,,,,,,,,,,,,,,,,,,,,,,,,,,,,,,,,,,,,,,,,,,,,,,,,,,,,,,,,,,,,,,,,,,,
1768920140.951623,1768920140.951737,63.0,0.0,4343.461426,4340.384766,4349.615234,4353.461426,4333.461426,4333.077148,4325.384766,4332.563965,4324.615234,4311.282227,4511.153809,4524.230957,4412.692383,4450.384766,,,,,,,,,,,,,,,,,,,,,,,,,,,,,,,,,,,,,,,,,,,,,,,,,,,,,,,,,,,,,,,,,,,,,,
1768920140.959432,1768920140.959745,64.0,0.0,4343.717773,4341.025879,4351.025879,4354.358887,4333.974121,4332.563965,4324.871582,4339.102539,4328.974121,4317.05127,4513.589844,4533.461426,4412.436035,4459.102539,1.191476,0.503639,0.354529,0.232611,0.10395,1.316363,0.571842,0.379891,0.207741,0.089799,1.27792,0.545143,0.480971,0.348226,0.078706,1.216154,0.547448,0.375976,0.195178,0.079408,0.114085,0.216105,0.277005,0.088466,0.046421,0.155314,0.18214,0.232886,0.150345,0.232561,0.298867,0.557099,0.357483,0.222908,0.3062,0.276909,0.546226,0.419185,0.098936,0.139169,0.590577,1.094142,0.52282,0.085406,0.126376,0.633045,1.496695,0.597079,0.167251,0.107587,1.696825,2.134141,0.279844,0.247361,0.130494,2.275154,2.351621,0.598996,0.419306,0.141137,1.787754,1.547849,0.454635,0.402182,0.13743,3.224729,1.086302,0.218563,0.229339,0.111487
1768920140.96724,1768920140.967554,65.0,0.0,4351.153809,4341.282227,4356.666504,4358.205078,4338.589844,4335.0,4325.512695,4339.743652,4330.641113,4317.05127,4511.794922,4534.871582,4412.94873,4464.487305,,,,,,,,,,,,,,,,,,,,,,,,,,,,,,,,,,,,,,,,,,,,,,,,,,,,,,,,,,,,,,,,,,,,,,
1768920140.975049,1768920140.975462,66.0,0.0,4353.077148,4343.974121,4362.179688,4359.743652,4337.820313,4341.794922,4332.692383,4344.871582,4329.615234,4315.641113,4509.230957,4536.153809,4404.743652,4458.077148,,,,,,,,,,,,,,,,,,,,,,,,,,,,,,,,,,,,,,,,,,,,,,,,,,,,,,,,,,,,,,,,,,,,,,
1768920140.982857,1768920140.983271,67.0,0.0,4350.512695,4343.717773,4360.897461,4356.794922,4336.025879,4342.436035,4335.128418,4343.333496,4325.769043,4310.897461,4508.589844,4535.512695,4396.282227,4456.153809,,,,,,,,,,,,,,,,,,,,,,,,,,,,,,,,,,,,,,,,,,,,,,,,,,,,,,,,,,,,,,,,,,,,,,
1768920140.990666,1768920140.990879,68.0,0.0,4349.743652,4341.153809,4355.641113,4355.769043,4337.307617,4334.743652,4328.717773,4333.589844,4324.358887,4307.563965,4510.0,4529.487305,4406.153809,4460.641113,,,,,,,,,,,,,,,,,,,,,,,,,,,,,,,,,,,,,,,,,,,,,,,,,,,,,,,,,,,,,,,,,,,,,,
1768920140.998474,1768920140.998687,69.0,0.0,4347.05127,4341.666504,4353.589844,4356.666504,4333.461426,4333.461426,4325.256348,4333.077148,4325.512695,4317.563965,4510.256348,4533.461426,4415.0,4458.589844,,,,,,,,,,,,,,,,,,,,,,,,,,,,,,,,,,,,,,,,,,,,,,,,,,,,,,,,,,,,,,,,,,,,,,
1768920141.006283,1768920141.006396,70.0,0.0,4347.436035,4346.538574,4360.0,4358.974121,4333.461426,4334.102539,4323.846191,4338.461426,4326.922852,4328.461426,4515.256348,4541.025879,4411.922852,4459.358887,,,,,,,,,,,,,,,,,,,,,,,,,,,,,,,,,,,,,,,,,,,,,,,,,,,,,,,,,,,,,,,,,,,,,,
1768920141.014091,1768920141.014204,71.0,0.0,4351.922852,4351.410156,4363.846191,4360.897461,4338.717773,4328.333496,4321.282227,4336.538574,4327.692383,4323.717773,4521.922852,4536.922852,4413.461426,4467.436035,,,,,,,,,,,,,,,,,,,,,,,,,,,,,,,,,,,,,,,,,,,,,,,,,,,,,,,,,,,,,,,,,,,,,,
1768920141.0219,1768920141.022212,72.0,0.0,4352.05127,4351.794922,4358.846191,4360.256348,4340.128418,4329.230957,4327.179688,4335.512695,4327.179688,4321.282227,4524.102539,4537.307617,4418.589844,4470.256348,,,,,,,,,,,,,,,,,,,,,,,,,,,,,,,,,,,,,,,,,,,,,,,,,,,,,,,,,,,,,,,,,,,,,,
1768920141.029708,1768920141.030021,73.0,0.0,4351.410156,4347.692383,4357.05127,4358.205078,4340.256348,4337.179688,4327.307617,4341.922852,4327.820313,4325.641113,4523.974121,4543.846191,4416.794922,4470.641113,,,,,,,,,,,,,,,,,,,,,,,,,,,,,,,,,,,,,,,,,,,,,,,,,,,,,,,,,,,,,,,,,,,,,,
1768920141.037517,1768920141.037929,74.0,0.0,4350.641113,4347.307617,4355.128418,4357.563965,4336.794922,4331.538574,4313.846191,4339.871582,4328.717773,4320.769043,4521.282227,4537.179688,4414.102539,4468.974121,,,,,,,,,,,,,,,,,,,,,,,,,,,,,,,,,,,,,,,,,,,,,,,,,,,,,,,,,,,,,,,,,,,,,,
1768920141.045325,1768920141.045737,75.0,0.0,4346.282227,4351.922852,4350.128418,4361.410156,4334.358887,4321.794922,4314.487305,4331.538574,4326.922852,4318.589844,4519.230957,4528.846191,4414.230957,4462.94873,,,,,,,,,,,,,,,,,,,,,,,,,,,,,,,,,,,,,,,,,,,,,,,,,,,,,,,,,,,,,,,,,,,,,,
1768920141.053134,1768920141.053746,76.0,0.0,4347.436035,4351.282227,4352.820313,4362.692383,4339.743652,4328.333496,4326.153809,4333.077148,4326.410156,4325.0,4520.256348,4533.974121,4415.769043,4467.307617,,,,,,,,,,,,,,,,,,,,,,,,,,,,,,,,,,,,,,,,,,,,,,,,,,,,,,,,,,,,,,,,,,,,,,
1768920141.060942,1768920141.061554,77.0,0.0,4352.820313,4347.05127,4358.846191,4358.974121,4343.974121,4337.692383,4330.641113,4341.666504,4332.179688,4322.94873,4523.974121,4540.256348,4416.153809,4476.153809,,,,,,,,,,,,,,,,,,,,,,,,,,,,,,,,,,,,,,,,,,,,,,,,,,,,,,,,,,,,,,,,,,,,,,
1768920141.068751,1768920141.069462,78.0,0.0,4350.641113,4348.205078,4353.077148,4356.922852,4341.282227,4341.282227,4336.794922,4343.333496,4334.487305,4314.743652,4522.436035,4537.436035,4413.461426,4467.692383,,,,,,,,,,,,,,,,,,,,,,,,,,,,,,,,,,,,,,,,,,,,,,,,,,,,,,,,,,,,,,,,,,,,,,
1768920141.076559,1768920141.077271,79.0,0.0,4342.563965,4348.461426,4343.077148,4358.974121,4337.563965,4341.538574,4339.358887,4340.256348,4328.974121,4316.666504,4516.282227,4528.461426,4412.692383,4456.410156,,,,,,,,,,,,,,,,,,,,,,,,,,,,,,,,,,,,,,,,,,,,,,,,,,,,,,,,,,,,,,,,,,,,,,
1768920141.084368,1768920141.085279,80.0,0.0,4339.487305,4341.025879,4339.230957,4358.461426,4336.538574,4339.871582,4330.0,4338.333496,4325.0,4320.769043,4510.256348,4522.563965,4411.922852,4458.589844,1.270204,0.446536,0.371635,0.256542,0.108624,1.315624,0.596308,0.354804,0.2231,0.107976,1.31261,0.495216,0.442931,0.344304,0.075513,1.044848,0.507413,0.350243,0.187369,0.081658,0.13263,0.19645,0.234265,0.073676,0.043225,0.16213,0.162403,0.245234,0.167888,0.250258,0.316068,0.570026,0.383303,0.242811,0.324486,0.283687,0.458923,0.41363,0.104836,0.134319,0.538859,0.938422,0.474528,0.095011,0.117029,0.659973,1.323017,0.558461,0.165631,0.105231,1.783262,1.932601,0.24609,0.281964,0.136076,2.266063,2.285916,0.591309,0.452664,0.136772,2.191689,1.39533,0.48844,0.429939,0.132959,3.663106,1.078709,0.245443,0.242335,0.137669
1768920141.092176,1768920141.093088,81.0,0.0,4341.282227,4341.153809,4339.230957,4356.025879,4337.307617,4335.769043,4325.641113,4337.05127,4325.897461,4314.743652,4507.563965,4525.769043,4410.384766,4460.0,,,,,,,,,,,,,,,,,,,,,,,,,,,,,,,,,,,,,,,,,,,,,,,,,,,,,,,,,,,,,,,,,,,,,,
1768920141.099985,1768920141.100797,82.0,0.0,4346.922852,4349.615234,4345.0,4360.641113,4339.743652,4332.436035,4328.717773,4338.077148,4330.512695,4311.794922,4505.897461,4529.743652,4410.897461,4456.538574,,,,,,,,,,,,,,,,,,,,,,,,,,,,,,,,,,,,,,,,,,,,,,,,,,,,,,,,,,,,,,,,,,,,,,
1768920141.107793,1768920141.108605,83.0,0.0,4352.820313,4347.05127,4349.871582,4363.461426,4337.94873,4336.153809,4331.794922,4343.589844,4333.717773,4320.641113,4511.538574,4530.0,4412.692383,4459.615234,,,,,,,,,,,,,,,,,,,,,,,,,,,,,,,,,,,,,,,,,,,,,,,,,,,,,,,,,,,,,,,,,,,,,,
1768920141.115602,1768920141.116214,84.0,0.0,4355.256348,4343.974121,4349.743652,4361.153809,4334.871582,4335.256348,4333.589844,4346.538574,4336.282227,4328.333496,4520.256348,4534.743652,4413.333496,4463.974121,,,,,,,,,,,,,,,,,,,,,,,,,,,,,,,,,,,,,,,,,,,,,,,,,,,,,,,,,,,,,,,,,,,,,,
1768920141.12341,1768920141.124022,85.0,0.0,4356.794922,4353.077148,4351.794922,4363.077148,4335.512695,4328.974121,4329.871582,4344.615234,4338.461426,4324.871582,4517.179688,4537.563965,4413.333496,4465.769043,,,,,,,,,,,,,,,,,,,,,,,,,,,,,,,,,,,,,,,,,,,,,,,,,,,,,,,,,,,,,,,,,,,,,,
1768920141.131219,1768920141.131731,86.0,0.0,4357.94873,4354.615234,4356.153809,4364.871582,4333.589844,4334.743652,4330.897461,4345.512695,4336.282227,4322.436035,4512.692383,4535.0,4413.333496,4472.692383,,,,,,,,,,,,,,,,,,,,,,,,,,,,,,,,,,,,,,,,,,,,,,,,,,,,,,,,,,,,,,,,,,,,,,
1768920141.139027,1768920141.139539,87.0,0.0,4353.846191,4343.974121,4358.974121,4361.922852,4333.461426,4345.512695,4338.974121,4347.436035,4334.615234,4324.487305,4514.871582,4537.307617,4411.666504,4472.94873,,,,,,,,,,,,,,,,,,,,,,,,,,,,,,,,,,,,,,,,,,,,,,,,,,,,,,,,,,,,,,,,,,,,,,
1768920141.146836,1768920141.147148,88.0,0.0,4353.974121,4345.384766,4359.871582,4361.666504,4337.692383,4340.769043,4340.256348,4343.974121,4333.461426,4322.94873,4514.615234,4540.769043,4410.384766,4466.794922,,,,,,,,,,,,,,,,,,,,,,,,,,,,,,,,,,,,,,,,,,,,,,,,,,,,,,,,,,,,,,,,,,,,,,
1768920141.154644,1768920141.154956,89.0,0.0,4362.94873,4353.077148,4358.333496,4365.641113,4335.641113,4336.282227,4340.384766,4344.230957,4332.94873,4322.820313,4518.077148,4543.974121,4411.922852,4471.025879,,,,,,,,,,,,,,,,,,,,,,,,,,,,,,,,,,,,,,,,,,,,,,,,,,,,,,,,,,,,,,,,,,,,,,
1768920141.162453,1768920141.162864,90.0,0.0,4362.307617,4352.179688,4357.94873,4366.410156,4333.717773,4339.102539,4343.077148,4351.153809,4338.717773,4325.769043,4526.410156,4547.820313,4416.153809,4473.974121,,,,,,,,,,,,,,,,,,,,,,,,,,,,,,,,,,,,,,,,,,,,,,,,,,,,,,,,,,,,,,,,,,,,,,
1768920141.170262,1768920141.170673,91.0,0.0,4355.641113,4349.615234,4363.077148,4365.897461,4337.307617,4331.922852,4337.436035,4348.205078,4340.512695,4327.692383,4523.717773,4540.384766,4415.897461,4467.563965,,,,,,,,,,,,,,,,,,,,,,,,,,,,,,,,,,,,,,,,,,,,,,,,,,,,,,,,,,,,,,,,,,,,,,
1768920141.17807,1768920141.178681,92.0,0.0,4357.563965,4347.692383,4365.897461,4368.333496,4337.94873,4333.589844,4340.897461,4347.563965,4338.333496,4326.922852,4520.128418,4534.615234,4414.102539,4466.794922,,,,,,,,,,,,,,,,,,,,,,,,,,,,,,,,,,,,,,,,,,,,,,,,,,,,,,,,,,,,,,,,,,,,,,
1768920141.185879,1768920141.18649,93.0,0.0,4357.179688,4344.743652,4362.05127,4365.769043,4333.589844,4343.077148,4352.820313,4357.307617,4342.179688,4325.256348,4519.871582,4542.307617,4412.436035,4469.871582,,,,,,,,,,,,,,,,,,,,,,,,,,,,,,,,,,,,,,,,,,,,,,,,,,,,,,,,,,,,,,,,,,,,,,
1768920141.193687,1768920141.194198,94.0,0.0,4351.410156,4341.922852,4355.897461,4360.256348,4332.307617,4333.846191,4342.436035,4350.897461,4337.820313,4323.974121,4510.897461,4541.538574,4407.05127,4463.974121,,,,,,,,,,,,,,,,,,,,,,,,,,,,,,,,,,,,,,,,,,,,,,,,,,,,,,,,,,,,,,,,,,,,,,
1768920141.201496,1768920141.202006,95.0,0.0,4352.307617,4340.897461,4352.179688,4360.897461,4335.128418,4324.358887,4326.666504,4334.871582,4324.871582,4323.589844,4504.358887,4527.94873,4404.615234,4458.333496,,,,,,,,,,,,,,,,,,,,,,,,,,,,,,,,,,,,,,,,,,,,,,,,,,,,,,,,,,,,,,,,,,,,,,
1768920141.209304,1768920141.209615,96.0,0.0,4357.692383,4343.333496,4352.05127,4364.871582,4338.205078,4329.102539,4335.769043,4337.563965,4328.077148,4323.333496,4508.461426,4527.05127,4410.641113,4461.666504,1.391086,0.419793,0.38433,0.268255,0.10972,1.302152,0.630882,0.339814,0.231471,0.124101,1.253867,0.459141,0.390626,0.319297,0.073253,0.856786,0.476428,0.333067,0.173286,0.083384,0.154904,0.173416,0.199741,0.063813,0.043307,0.172223,0.140552,0.238843,0.189558,0.255013,0.329056,0.572917,0.38068,0.270579,0.330043,0.270079,0.363047,0.406468,0.120621,0.128175,0.456596,0.729243,0.406605,0.116946,0.112292,0.688453,1.060568,0.512875,0.185918,0.108235,1.777756,1.583285,0.219278,0.323985,0.141064,2.123044,2.049685,0.585816,0.486073,0.131221,2.46419,1.154914,0.511248,0.444378,0.135736,3.86677,0.962695,0.268719,0.280765,0.165485
1768920141.217113,1768920141.217423,97.0,0.0,4358.461426,4346.794922,4351.666504,4368.077148,4335.897461,4333.077148,4346.794922,4345.769043,4339.615234,4327.05127,4512.436035,4536.922852,4416.153809,4465.384766,,,,,,,,,,,,,,,,,,,,,,,,,,,,,,,,,,,,,,,,,,,,,,,,,,,,,,,,,,,,,,,,,,,,,,
1768920141.224921,1768920141.225331,98.0,0.0,4353.717773,4345.128418,4350.128418,4367.307617,4329.102539,4332.179688,4340.641113,4339.102539,4335.384766,4329.871582,4507.692383,4538.589844,4409.358887,4465.0,,,,,,,,,,,,,,,,,,,,,,,,,,,,,,,,,,,,,,,,,,,,,,,,,,,,,,,,,,,,,,,,,,,,,,
1768920141.23273,1768920141.23314,99.0,0.0,4352.307617,4341.282227,4349.615234,4363.589844,4332.94873,4336.410156,4339.871582,4338.589844,4328.461426,4329.230957,4509.743652,4535.384766,4404.102539,4467.436035,,,,,,,,,,,,,,,,,,,,,,,,,,,,,,,,,,,,,,,,,,,,,,,,,,,,,,,,,,,,,,,,,,,,,,
1768920141.240538,1768920141.241148,100.0,0.0,4358.846191,4343.974121,4352.05127,4363.333496,4342.179688,4341.025879,4345.641113,4347.563965,4334.358887,4331.153809,4521.410156,4535.384766,4412.692383,4473.333496,,,,,,,,,,,,,,,,,,,,,,,,,,,,,,,,,,,,,,,,,,,,,,,,,,,,,,,,,,,,,,,,,,,,,,
1768920141.248347,1768920141.248956,101.0,0.0,4361.025879,4346.153809,4353.717773,4366.922852,4339.871582,4339.358887,4344.230957,4347.563965,4337.05127,4332.436035,4520.512695,4537.307617,4416.410156,4474.230957,,,,,,,,,,,,,,,,,,,,,,,,,,,,,,,,,,,,,,,,,,,,,,,,,,,,,,,,,,,,,,,,,,,,,,
1768920141.256155,1768920141.256865,102.0,0.0,4356.410156,4343.333496,4352.94873,4365.897461,4335.384766,4335.0,4344.102539,4344.743652,4332.307617,4327.563965,4507.563965,4533.589844,4407.307617,4467.563965,,,,,,,,,,,,,,,,,,,,,,,,,,,,,,,,,,,,,,,,,,,,,,,,,,,,,,,,,,,,,,,,,,,,,,
1768920141.263964,1768920141.264673,103.0,0.0,4358.589844,4345.128418,4354.871582,4364.487305,4337.563965,4336.282227,4346.666504,4347.692383,4336.025879,4323.846191,4507.179688,4529.487305,4405.897461,4464.102539,,,,,,,,,,,,,,,,,,,,,,,,,,,,,,,,,,,,,,,,,,,,,,,,,,,,,,,,,,,,,,,,,,,,,,
1768920141.271772,1768920141.272681,104.0,0.0,4363.846191,4348.461426,4358.333496,4367.307617,4339.743652,4341.410156,4345.512695,4351.666504,4343.846191,4325.128418,4514.230957,4533.205078,4411.794922,4466.666504,,,,,,,,,,,,,,,,,,,,,,,,,,,,,,,,,,,,,,,,,,,,,,,,,,,,,,,,,,,,,,,,,,,,,,
1768920141.279581,1768920141.28049,105.0,0.0,4364.230957,4345.256348,4357.179688,4366.538574,4337.05127,4339.871582,4342.307617,4348.589844,4339.871582,4325.0,4511.410156,4532.436035,4408.077148,4468.717773,,,,,,,,,,,,,,,,,,,,,,,,,,,,,,,,,,,,,,,,,,,,,,,,,,,,,,,,,,,,,,,,,,,,,,
1768920141.287389,1768920141.288198,106.0,0.0,4361.153809,4343.205078,4354.102539,4364.358887,4338.077148,4340.256348,4341.538574,4345.384766,4333.589844,4321.410156,4510.0,4530.384766,4409.102539,4465.769043,,,,,,,,,,,,,,,,,,,,,,,,,,,,,,,,,,,,,,,,,,,,,,,,,,,,,,,,,,,,,,,,,,,,,,
1768920141.295198,1768920141.296007,107.0,0.0,4353.974121,4344.102539,4352.436035,4363.717773,4341.153809,4342.820313,4346.410156,4345.512695,4335.512695,4320.897461,4510.0,4531.666504,4412.563965,4458.717773,,,,,,,,,,,,,,,,,,,,,,,,,,,,,,,,,,,,,,,,,,,,,,,,,,,,,,,,,,,,,,,,,,,,,,
1768920141.303006,1768920141.303615,108.0,0.0,4347.820313,4339.358887,4347.05127,4358.461426,4332.436035,4335.512695,4342.94873,4346.410156,4336.922852,4326.153809,4506.282227,4528.205078,4405.256348,4455.897461,,,,,,,,,,,,,,,,,,,,,,,,,,,,,,,,,,,,,,,,,,,,,,,,,,,,,,,,,,,,,,,,,,,,,,
1768920141.310815,1768920141.311424,109.0,0.0,4348.717773,4334.487305,4344.487305,4356.025879,4326.410156,4331.025879,4327.05127,4347.05127,4336.538574,4330.0,4511.922852,4526.666504,4404.358887,4457.436035,,,,,,,,,,,,,,,,,,,,,,,,,,,,,,,,,,,,,,,,,,,,,,,,,,,,,,,,,,,,,,,,,,,,,,
1768920141.318623,1768920141.319132,110.0,0.0,4353.846191,4339.230957,4349.230957,4362.820313,4335.897461,4340.256348,4331.025879,4345.256348,4335.769043,4328.333496,4517.179688,4528.333496,4413.461426,4458.077148,,,,,,,,,,,,,,,,,,,,,,,,,,,,,,,,,,,,,,,,,,,,,,,,,,,,,,,,,,,,,,,,,,,,,,
1768920141.326432,1768920141.326941,111.0,0.0,4359.102539,4345.769043,4351.666504,4368.205078,4345.128418,4348.846191,4350.897461,4343.974121,4337.692383,4331.282227,4511.025879,4528.461426,4414.871582,4462.179688,,,,,,,,,,,,,,,,,,,,,,,,,,,,,,,,,,,,,,,,,,,,,,,,,,,,,,,,,,,,,,,,,,,,,,
1768920141.33424,1768920141.334549,112.0,0.0,4361.922852,4345.384766,4350.0,4367.179688,4342.692383,4343.589844,4341.666504,4345.641113,4343.077148,4337.692383,4512.820313,4530.384766,4415.384766,4466.794922,1.490316,0.407912,0.392823,0.267927,0.105631,1.267911,0.667731,0.334735,0.232507,0.133093,1.121716,0.441437,0.338987,0.288164,0.071326,0.682019,0.450262,0.325562,0.162127,0.083675,0.176444,0.153566,0.178582,0.06166,0.045416,0.185926,0.118831,0.220141,0.210078,0.246844,0.334777,0.554512,0.355654,0.304355,0.328785,0.239593,0.281501,0.397383,0.143938,0.122415,0.357111,0.516637,0.326683,0.14715,0.111325,0.708254,0.779183,0.470332,0.228288,0.117803,1.690235,1.205693,0.200529,0.365984,0.141698,1.905487,1.724434,0.580183,0.51342,0.127979,2.525469,0.91632,0.522656,0.44712,0.143216,3.793949,0.783641,0.287243,0.331475,0.187755
1768920141.342049,1768920141.342358,113.0,0.0,4359.871582,4340.897461,4349.358887,4364.743652,4339.358887,4332.692383,4320.0,4348.589844,4343.205078,4340.0,4523.589844,4531.922852,4420.0,4466.410156,,,,,,,,,,,,,,,,,,,,,,,,,,,,,,,,,,,,,,,,,,,,,,,,,,,,,,,,,,,,,,,,,,,,,,
1768920141.349857,1768920141.350066,114.0,0.0,4356.666504,4341.794922,4349.871582,4363.974121,4339.743652,4333.333496,4327.692383,4349.487305,4341.025879,4341.025879,4523.846191,4532.05127,4419.358887,4468.461426,,,,,,,,,,,,,,,,,,,,,,,,,,,,,,,,,,,,,,,,,,,,,,,,,,,,,,,,,,,,,,,,,,,,,,
1768920141.357666,1768920141.357874,115.0,0.0,4355.769043,4344.230957,4349.871582,4365.128418,4339.615234,4339.358887,4340.0,4350.128418,4344.358887,4338.589844,4520.512695,4533.461426,4416.666504,4473.077148,,,,,,,,,,,,,,,,,,,,,,,,,,,,,,,,,,,,,,,,,,,,,,,,,,,,,,,,,,,,,,,,,,,,,,
1768920141.365474,1768920141.365883,116.0,0.0,4354.743652,4340.0,4352.307617,4363.589844,4336.666504,4337.05127,4333.717773,4351.922852,4340.384766,4331.922852,4523.461426,4531.282227,4416.410156,4471.153809,,,,,,,,,,,,,,,,,,,,,,,,,,,,,,,,,,,,,,,,,,,,,,,,,,,,,,,,,,,,,,,,,,,,,,
1768920141.373283,1768920141.373691,117.0,0.0,4357.05127,4340.128418,4354.615234,4360.641113,4332.307617,4334.358887,4332.307617,4349.743652,4330.256348,4329.358887,4525.256348,4529.743652,4416.025879,4469.871582,,,,,,,,,,,,,,,,,,,,,,,,,,,,,,,,,,,,,,,,,,,,,,,,,,,,,,,,,,,,,,,,,,,,,,
1768920141.381091,1768920141.381599,118.0,0.0,4362.563965,4345.769043,4351.922852,4360.128418,4333.077148,4337.05127,4336.922852,4345.128418,4331.025879,4325.0,4517.692383,4533.333496,4413.333496,4471.666504,,,,,,,,,,,,,,,,,,,,,,,,,,,,,,,,,,,,,,,,,,,,,,,,,,,,,,,,,,,,,,,,,,,,,,
1768920141.3889,1768920141.389408,119.0,0.0,4357.563965,4337.820313,4347.436035,4359.871582,4335.128418,4335.256348,4334.615234,4343.333496,4334.102539,4321.666504,4507.820313,4525.897461,4405.769043,4464.358887,,,,,,,,,,,,,,,,,,,,,,,,,,,,,,,,,,,,,,,,,,,,,,,,,,,,,,,,,,,,,,,,,,,,,,
1768920141.396709,1768920141.397416,120.0,0.0,4347.820313,4327.179688,4348.461426,4356.666504,4334.743652,4331.666504,4334.230957,4346.922852,4332.563965,4326.922852,4506.794922,4517.94873,4398.974121,4455.0,,,,,,,,,,,,,,,,,,,,,,,,,,,,,,,,,,,,,,,,,,,,,,,,,,,,,,,,,,,,,,,,,,,,,,
1768920141.404517,1768920141.405225,121.0,0.0,4353.461426,4332.820313,4352.820313,4356.538574,4335.769043,4331.410156,4336.025879,4352.692383,4335.769043,4329.871582,4510.641113,4524.615234,4402.05127,4459.102539,,,,,,,,,,,,,,,,,,,,,,,,,,,,,,,,,,,,,,,,,,,,,,,,,,,,,,,,,,,,,,,,,,,,,,
1768920141.412326,1768920141.412933,122.0,0.0,4366.666504,4343.461426,4353.077148,4359.615234,4334.487305,4326.922852,4328.974121,4344.358887,4333.461426,4324.487305,4508.589844,4524.743652,4404.615234,4467.436035,,,,,,,,,,,,,,,,,,,,,,,,,,,,,,,,,,,,,,,,,,,,,,,,,,,,,,,,,,,,,,,,,,,,,,
1768920141.420134,1768920141.420741,123.0,0.0,4369.230957,4346.794922,4349.615234,4359.615234,4331.410156,4325.897461,4322.179688,4331.922852,4325.0,4321.282227,4504.487305,4517.307617,4400.384766,4467.05127,,,,,,,,,,,,,,,,,,,,,,,,,,,,,,,,,,,,,,,,,,,,,,,,,,,,,,,,,,,,,,,,,,,,,,
1768920141.427943,1768920141.428749,124.0,0.0,4366.282227,4345.641113,4350.769043,4362.436035,4334.871582,4337.820313,4330.256348,4341.538574,4333.205078,4324.487305,4507.179688,4519.743652,4402.820313,4466.666504,,,,,,,,,,,,,,,,,,,,,,,,,,,,,,,,,,,,,,,,,,,,,,,,,,,,,,,,,,,,,,,,,,,,,,
1768920141.435751,1768920141.436558,125.0,0.0,4366.666504,4344.358887,4357.692383,4368.846191,4338.333496,4345.256348,4337.179688,4353.589844,4346.666504,4330.897461,4515.897461,4529.358887,4417.436035,4476.794922,,,,,,,,,,,,,,,,,,,,,,,,,,,,,,,,,,,,,,,,,,,,,,,,,,,,,,,,,,,,,,,,,,,,,,
1768920141.44356,1768920141.444466,126.0,0.0,4371.153809,4352.179688,4362.179688,4373.461426,4337.05127,4340.897461,4335.0,4346.666504,4344.743652,4340.512695,4525.256348,4539.487305,4425.256348,4484.358887,,,,,,,,,,,,,,,,,,,,,,,,,,,,,,,,,,,,,,,,,,,,,,,,,,,,,,,,,,,,,,,,,,,,,,
1768920141.451368,1768920141.452275,127.0,0.0,4369.871582,4360.512695,4360.897461,4376.025879,4340.128418,4333.077148,4338.333496,4345.256348,4339.871582,4339.230957,4524.358887,4541.282227,4418.205078,4477.563965,,,,,,,,,,,,,,,,,,,,,,,,,,,,,,,,,,,,,,,,,,,,,,,,,,,,,,,,,,,,,,,,,,,,,,
1768920141.459177,1768920141.460183,0.0,0.0,4359.358887,4350.641113,4356.282227,4373.077148,4344.102539,4330.384766,4340.512695,4350.897461,4339.102539,4327.820313,4513.205078,4527.94873,4410.256348,4469.230957,1.508908,0.391176,0.399214,0.26056,0.096885,1.195108,0.69291,0.333989,0.228199,0.132961,0.976995,0.43499,0.301424,0.265927,0.06935,0.545363,0.422518,0.323931,0.160907,0.081676,0.194713,0.141602,0.168618,0.066658,0.048627,0.209127,0.101913,0.199446,0.22478,0.229986,0.335739,0.511304,0.321937,0.338288,0.326181,0.204912,0.226585,0.383496,0.170428,0.118751,0.262283,0.341014,0.247206,0.179828,0.111928,0.713971,0.544256,0.436336,0.282439,0.132555,1.540819,0.900571,0.18867,0.401746,0.135763,1.671872,1.393659,0.565663,0.526459,0.130243,2.348588,0.7426,0.521693,0.444434,0.150991,3.458587,0.602932,0.29838,0.380513,0.199148
1768920141.466985,1768920141.467991,1.0,0.0,4355.256348,4340.0,4350.897461,4364.358887,4339.230957,4337.05127,4336.410156,4344.615234,4333.205078,4321.538574,4505.384766,4513.717773,4404.358887,4465.897461,,,,,,,,,,,,,,,,,,,,,,,,,,,,,,,,,,,,,,,,,,,,,,,,,,,,,,,,,,,,,,,,,,,,,,
1768920141.474794,1768920141.4757,2.0,0.0,4361.025879,4342.692383,4348.717773,4358.205078,4331.410156,4343.974121,4336.282227,4340.641113,4327.692383,4319.743652,4505.0,4515.897461,4397.179688,4462.05127,,,,,,,,,,,,,,,,,,,,,,,,,,,,,,,,,,,,,,,,,,,,,,,,,,,,,,,,,,,,,,,,,,,,,,
1768920141.482602,1768920141.483508,3.0,0.0,4362.05127,4342.820313,4349.871582,4356.922852,4333.717773,4339.615234,4339.871582,4346.922852,4331.666504,4322.05127,4506.794922,4522.563965,4395.769043,4460.512695,,,,,,,,,,,,,,,,,,,,,,,,,,,,,,,,,,,,,,,,,,,,,,,,,,,,,,,,,,,,,,,,,,,,,,
1768920141.490411,1768920141.491117,4.0,0.0,4358.461426,4340.769043,4351.794922,4356.538574,4339.358887,4334.102539,4341.410156,4348.333496,4337.94873,4324.615234,4507.307617,4520.641113,4399.102539,4463.717773,,,,,,,,,,,,,,,,,,,,,,,,,,,,,,,,,,,,,,,,,,,,,,,,,,,,,,,,,,,,,,,,,,,,,,
1768920141.498219,1768920141.498925,5.0,0.0,4358.333496,4341.538574,4349.358887,4355.512695,4336.025879,4338.846191,4343.205078,4346.922852,4338.333496,4322.436035,4507.820313,4520.512695,4397.307617,4465.641113,,,,,,,,,,,,,,,,,,,,,,,,,,,,,,,,,,,,,,,,,,,,,,,,,,,,,,,,,,,,,,,,,,,,,,
1768920141.506028,1768920141.506634,6.0,0.0,4356.025879,4335.512695,4342.820313,4356.153809,4331.410156,4340.769043,4343.974121,4347.436035,4333.077148,4318.461426,4507.436035,4524.615234,4394.487305,4462.692383,,,,,,,,,,,,,,,,,,,,,,,,,,,,,,,,,,,,,,,,,,,,,,,,,,,,,,,,,,,,,,,,,,,,,,
1768920141.513836,1768920141.514442,7.0,0.0,4351.282227,4330.128418,4342.307617,4358.974121,4331.666504,4337.692383,4342.563965,4347.179688,4328.717773,4320.897461,4505.128418,4523.077148,4396.153809,4458.461426,,,,,,,,,,,,,,,,,,,,,,,,,,,,,,,,,,,,,,,,,,,,,,,,,,,,,,,,,,,,,,,,,,,,,,
1768920141.521645,1768920141.522051,8.0,0.0,4352.436035,4335.769043,4349.871582,4359.487305,4328.461426,4337.436035,4344.230957,4348.846191,4330.384766,4324.487305,4504.743652,4516.282227,4396.666504,4456.410156,,,,,,,,,,,,,,,,,,,,,,,,,,,,,,,,,,,,,,,,,,,,,,,,,,,,,,,,,,,,,,,,,,,,,,
1768920141.529453,1768920141.52986,9.0,0.0,4354.871582,4334.743652,4352.436035,4356.922852,4323.717773,4337.179688,4344.230957,4351.025879,4335.0,4317.820313,4504.871582,4515.897461,4395.384766,4455.128418,,,,,,,,,,,,,,,,,,,,,,,,,,,,,,,,,,,,,,,,,,,,,,,,,,,,,,,,,,,,,,,,,,,,,,
1768920141.537262,1768920141.537568,10.0,0.0,4354.358887,4328.846191,4352.179688,4359.615234,4327.307617,4339.871582,4350.0,4352.563965,4339.487305,4311.538574,4505.0,4525.0,4395.128418,4456.922852,,,,,,,,,,,,,,,,,,,,,,,,,,,,,,,,,,,,,,,,,,,,,,,,,,,,,,,,,,,,,,,,,,,,,,
1768920141.54507,1768920141.545376,11.0,0.0,4353.205078,4333.205078,4353.461426,4363.333496,4332.436035,4341.538574,4357.436035,4352.05127,4339.230957,4316.538574,4505.769043,4530.384766,4397.307617,4461.282227,,,,,,,,,,,,,,,,,,,,,,,,,,,,,,,,,,,,,,,,,,,,,,,,,,,,,,,,,,,,,,,,,,,,,,
1768920141.552879,1768920141.553384,12.0,0.0,4354.102539,4337.820313,4350.769043,4359.615234,4330.769043,4334.230957,4345.641113,4345.897461,4335.512695,4320.641113,4507.692383,4526.538574,4400.641113,4463.205078,,,,,,,,,,,,,,,,,,,,,,,,,,,,,,,,,,,,,,,,,,,,,,,,,,,,,,,,,,,,,,,,,,,,,,
1768920141.560687,1768920141.561193,13.0,0.0,4357.179688,4334.871582,4348.461426,4356.922852,4326.794922,4329.487305,4334.615234,4341.794922,4333.077148,4312.436035,4507.05127,4522.05127,4399.615234,4460.256348,,,,,,,,,,,,,,,,,,,,,,,,,,,,,,,,,,,,,,,,,,,,,,,,,,,,,,,,,,,,,,,,,,,,,,
1768920141.568496,1768920141.569101,14.0,0.0,4358.205078,4333.974121,4352.94873,4357.820313,4327.820313,4332.05127,4345.0,4345.769043,4332.692383,4308.461426,4505.769043,4527.563965,4395.512695,4460.0,,,,,,,,,,,,,,,,,,,,,,,,,,,,,,,,,,,,,,,,,,,,,,,,,,,,,,,,,,,,,,,,,,,,,,
1768920141.576304,1768920141.57691,15.0,0.0,4356.410156,4337.563965,4360.384766,4358.589844,4332.820313,4333.205078,4349.743652,4350.641113,4335.256348,4322.820313,4507.692383,4533.717773,4401.666504,4466.922852,,,,,,,,,,,,,,,,,,,,,,,,,,,,,,,,,,,,,,,,,,,,,,,,,,,,,,,,,,,,,,,,,,,,,,
1768920141.584113,1768920141.584918,16.0,0.0,4356.538574,4340.897461,4365.512695,4361.666504,4334.743652,4335.0,4340.256348,4345.769043,4335.512695,4328.589844,4509.615234,4529.615234,4410.641113,4471.025879,1.416588,0.36804,0.402011,0.252344,0.085951,1.063662,0.692506,0.326622,0.220234,0.125379,0.873627,0.428123,0.279721,0.257879,0.067496,0.440897,0.388669,0.316549,0.169339,0.077167,0.204099,0.138958,0.162824,0.075616,0.052408,0.24363,0.095324,0.183549,0.231531,0.210111,0.331591,0.448359,0.292792,0.362557,0.325779,0.178365,0.197222,0.361909,0.194526,0.118453,0.189401,0.220355,0.181749,0.208078,0.111936,0.700933,0.399344,0.405771,0.329923,0.14829,1.346768,0.716597,0.181747,0.423426,0.124245,1.452115,1.115388,0.534345,0.514963,0.138821,1.965146,0.65157,0.50128,0.436691,0.155241,2.915422,0.492966,0.299104,0.412773,0.198242
1768920141.591921,1768920141.592726,17.0,0.0,4358.717773,4341.153809,4363.333496,4361.666504,4330.0,4337.179688,4338.974121,4340.512695,4331.025879,4317.05127,4511.922852,4527.94873,4406.410156,4472.563965,,,,,,,,,,,,,,,,,,,,,,,,,,,,,,,,,,,,,,,,,,,,,,,,,,,,,,,,,,,,,,,,,,,,,,
1768920141.59973,1768920141.600435,18.0,0.0,4356.794922,4337.436035,4358.589844,4356.153809,4326.153809,4335.897461,4342.307617,4345.512695,4331.282227,4315.897461,4515.769043,4532.692383,4403.205078,4470.897461,,,,,,,,,,,,,,,,,,,,,,,,,,,,,,,,,,,,,,,,,,,,,,,,,,,,,,,,,,,,,,,,,,,,,,
1768920141.607539,1768920141.608243,19.0,0.0,4353.846191,4337.563965,4358.589844,4355.512695,4328.205078,4332.179688,4339.743652,4348.717773,4334.358887,4320.256348,4519.102539,4534.358887,4410.512695,4465.256348,,,,,,,,,,,,,,,,,,,,,,,,,,,,,,,,,,,,,,,,,,,,,,,,,,,,,,,,,,,,,,,,,,,,,,
1768920141.615347,1768920141.615851,20.0,0.0,4354.230957,4340.641113,4358.205078,4358.333496,4330.897461,4328.333496,4338.077148,4339.615234,4327.820313,4314.615234,4519.743652,4532.692383,4413.461426,4465.128418,,,,,,,,,,,,,,,,,,,,,,,,,,,,,,,,,,,,,,,,,,,,,,,,,,,,,,,,,,,,,,,,,,,,,,
1768920141.623155,1768920141.623659,21.0,0.0,4353.846191,4340.256348,4355.0,4356.538574,4330.512695,4331.538574,4342.179688,4337.94873,4325.384766,4316.282227,4522.436035,4536.410156,4412.307617,4472.179688,,,,,,,,,,,,,,,,,,,,,,,,,,,,,,,,,,,,,,,,,,,,,,,,,,,,,,,,,,,,,,,,,,,,,,
1768920141.630964,1768920141.631568,22.0,0.0,4352.563965,4339.487305,4354.615234,4357.307617,4329.230957,4342.179688,4348.717773,4349.102539,4336.410156,4324.230957,4523.461426,4537.05127,4414.743652,4475.128418,,,,,,,,,,,,,,,,,,,,,,,,,,,,,,,,,,,,,,,,,,,,,,,,,,,,,,,,,,,,,,,,,,,,,,
1768920141.638773,1768920141.639376,23.0,0.0,4351.922852,4342.179688,4352.307617,4359.358887,4330.769043,4342.179688,4348.077148,4347.179688,4334.230957,4316.410156,4513.077148,4527.179688,4412.94873,4467.436035,,,,,,,,,,,,,,,,,,,,,,,,,,,,,,,,,,,,,,,,,,,,,,,,,,,,,,,,,,,,,,,,,,,,,,
1768920141.646581,1768920141.647384,24.0,0.0,4350.897461,4343.974121,4349.615234,4356.922852,4333.717773,4331.538574,4338.974121,4337.05127,4321.410156,4306.410156,4506.410156,4521.538574,4408.974121,4462.563965,,,,,,,,,,,,,,,,,,,,,,,,,,,,,,,,,,,,,,,,,,,,,,,,,,,,,,,,,,,,,,,,,,,,,,
1768920141.65439,1768920141.655193,25.0,0.0,4350.769043,4344.487305,4352.307617,4358.717773,4337.820313,4333.461426,4341.282227,4342.05127,4328.205078,4315.384766,4513.205078,4527.820313,4410.0,4465.641113,,,,,,,,,,,,,,,,,,,,,,,,,,,,,,,,,,,,,,,,,,,,,,,,,,,,,,,,,,,,,,,,,,,,,,
1768920141.662198,1768920141.662901,26.0,0.0,4349.102539,4344.615234,4351.538574,4362.820313,4340.384766,4343.974121,4355.256348,4349.487305,4339.871582,4324.230957,4515.384766,4531.410156,4412.307617,4467.05127,,,,,,,,,,,,,,,,,,,,,,,,,,,,,,,,,,,,,,,,,,,,,,,,,,,,,,,,,,,,,,,,,,,,,,
1768920141.670007,1768920141.67071,27.0,0.0,4349.230957,4344.102539,4348.333496,4362.820313,4340.512695,4345.512695,4352.94873,4344.743652,4335.128418,4319.102539,4507.179688,4523.589844,4412.179688,4461.282227,,,,,,,,,,,,,,,,,,,,,,,,,,,,,,,,,,,,,,,,,,,,,,,,,,,,,,,,,,,,,,,,,,,,,,
1768920141.677815,1768920141.678418,28.0,0.0,4352.307617,4343.846191,4351.282227,4362.94873,4340.641113,4339.743652,4341.538574,4342.179688,4331.282227,4315.641113,4506.922852,4521.153809,4410.512695,4455.512695,,,,,,,,,,,,,,,,,,,,,,,,,,,,,,,,,,,,,,,,,,,,,,,,,,,,,,,,,,,,,,,,,,,,,,
1768920141.685624,1768920141.686227,29.0,0.0,4348.846191,4341.666504,4350.256348,4360.128418,4339.102539,4334.487305,4341.282227,4346.538574,4332.307617,4316.025879,4509.615234,4523.205078,4409.358887,4455.641113,,,,,,,,,,,,,,,,,,,,,,,,,,,,,,,,,,,,,,,,,,,,,,,,,,,,,,,,,,,,,,,,,,,,,,
1768920141.693432,1768920141.694135,30.0,0.0,4345.897461,4341.282227,4348.589844,4356.666504,4335.897461,4332.05127,4340.897461,4345.0,4328.974121,4315.641113,4506.794922,4523.205078,4409.615234,4460.0,,,,,,,,,,,,,,,,,,,,,,,,,,,,,,,,,,,,,,,,,,,,,,,,,,,,,,,,,,,,,,,,,,,,,,
1768920141.701241,1768920141.701944,31.0,0.0,4357.05127,4348.461426,4357.436035,4363.974121,4337.307617,4334.871582,4340.256348,4342.307617,4331.282227,4319.487305,4513.461426,4533.077148,4417.05127,4471.794922,,,,,,,,,,,,,,,,,,,,,,,,,,,,,,,,,,,,,,,,,,,,,,,,,,,,,,,,,,,,,,,,,,,,,,
1768920141.709049,1768920141.709553,32.0,0.0,4364.487305,4350.897461,4362.820313,4367.179688,4341.282227,4341.666504,4346.666504,4348.077148,4339.102539,4325.897461,4524.358887,4544.358887,4424.487305,4478.846191,1.233133,0.341584,0.393992,0.24731,0.076064,0.878106,0.657369,0.303437,0.209141,0.114899,0.848277,0.409921,0.265202,0.258875,0.066183,0.352737,0.351026,0.292788,0.181229,0.070573,0.200358,0.143198,0.154984,0.085393,0.056845,0.287618,0.103097,0.174397,0.232925,0.192213,0.321297,0.381914,0.275671,0.369912,0.328926,0.166992,0.18673,0.329608,0.210793,0.121867,0.150098,0.152802,0.139012,0.227029,0.110114,0.664751,0.351859,0.370201,0.353706,0.159895,1.135841,0.646112,0.180627,0.424643,0.11089,1.254099,0.902699,0.483458,0.476213,0.15207,1.476617,0.623223,0.45866,0.41887,0.153925,2.269945,0.488093,0.288283,0.415673,0.187143
1768920141.716858,1768920141.717361,33.0,0.0,4356.666504,4345.641113,4355.769043,4359.871582,4337.94873,4340.769043,4347.692383,4352.436035,4339.358887,4327.307617,4523.974121,4538.205078,4423.205078,4476.025879,,,,,,,,,,,,,,,,,,,,,,,,,,,,,,,,,,,,,,,,,,,,,,,,,,,,,,,,,,,,,,,,,,,,,,
1768920141.724666,1768920141.72507,34.0,0.0,4354.358887,4346.666504,4354.230957,4360.256348,4336.282227,4338.974121,4342.05127,4346.922852,4333.846191,4325.384766,4520.641113,4529.358887,4418.589844,4473.846191,,,,,,,,,,,,,,,,,,,,,,,,,,,,,,,,,,,,,,,,,,,,,,,,,,,,,,,,,,,,,,,,,,,,,,
1768920141.732475,1768920141.732878,35.0,0.0,4357.94873,4348.589844,4358.974121,4363.717773,4342.436035,4341.282227,4342.307617,4342.05127,4329.615234,4321.025879,4519.102539,4531.922852,4415.256348,4471.025879,,,,,,,,,,,,,,,,,,,,,,,,,,,,,,,,,,,,,,,,,,,,,,,,,,,,,,,,,,,,,,,,,,,,,,
1768920141.740283,1768920141.740486,36.0,0.0,4356.025879,4344.871582,4359.487305,4363.589844,4343.589844,4336.538574,4340.641113,4345.128418,4331.153809,4317.94873,4516.153809,4533.846191,4412.563965,4466.410156,,,,,,,,,,,,,,,,,,,,,,,,,,,,,,,,,,,,,,,,,,,,,,,,,,,,,,,,,,,,,,,,,,,,,,
1768920141.748092,1768920141.748294,37.0,0.0,4357.05127,4347.94873,4358.077148,4367.94873,4338.589844,4331.666504,4335.0,4349.487305,4337.563965,4327.179688,4516.666504,4533.974121,4412.307617,4469.871582,,,,,,,,,,,,,,,,,,,,,,,,,,,,,,,,,,,,,,,,,,,,,,,,,,,,,,,,,,,,,,,,,,,,,,
1768920141.7559,1768920141.756203,38.0,0.0,4357.563965,4352.820313,4357.692383,4368.589844,4337.179688,4336.025879,4331.538574,4347.563965,4336.153809,4329.871582,4514.230957,4529.743652,4412.05127,4469.487305,,,,,,,,,,,,,,,,,,,,,,,,,,,,,,,,,,,,,,,,,,,,,,,,,,,,,,,,,,,,,,,,,,,,,,
1768920141.763709,1768920141.764011,39.0,0.0,4353.589844,4350.769043,4357.563965,4363.205078,4337.820313,4336.666504,4327.307617,4342.179688,4330.769043,4320.641113,4509.230957,4525.769043,4408.717773,4462.820313,,,,,,,,,,,,,,,,,,,,,,,,,,,,,,,,,,,,,,,,,,,,,,,,,,,,,,,,,,,,,,,,,,,,,,
1768920141.771517,1768920141.772019,40.0,0.0,4357.563965,4351.410156,4357.436035,4363.205078,4337.563965,4330.256348,4328.461426,4340.769043,4332.820313,4323.846191,4512.692383,4532.436035,4411.794922,4470.0,,,,,,,,,,,,,,,,,,,,,,,,,,,,,,,,,,,,,,,,,,,,,,,,,,,,,,,,,,,,,,,,,,,,,,
1768920141.779326,1768920141.779828,41.0,0.0,4357.820313,4352.563965,4355.128418,4361.538574,4340.641113,4331.538574,4334.230957,4343.846191,4335.512695,4329.871582,4514.230957,4533.846191,4415.256348,4474.743652,,,,,,,,,,,,,,,,,,,,,,,,,,,,,,,,,,,,,,,,,,,,,,,,,,,,,,,,,,,,,,,,,,,,,,
1768920141.787135,1768920141.787736,42.0,0.0,4345.512695,4346.025879,4351.153809,4356.282227,4339.615234,4339.230957,4334.871582,4341.666504,4333.333496,4323.846191,4507.05127,4523.333496,4410.384766,4462.94873,,,,,,,,,,,,,,,,,,,,,,,,,,,,,,,,,,,,,,,,,,,,,,,,,,,,,,,,,,,,,,,,,,,,,,
1768920141.794943,1768920141.795545,43.0,0.0,4344.871582,4343.846191,4355.128418,4358.333496,4332.179688,4341.282227,4336.666504,4338.205078,4332.94873,4321.282227,4507.05127,4520.128418,4409.230957,4460.256348,,,,,,,,,,,,,,,,,,,,,,,,,,,,,,,,,,,,,,,,,,,,,,,,,,,,,,,,,,,,,,,,,,,,,,
1768920141.802751,1768920141.803153,44.0,0.0,4354.871582,4347.179688,4359.230957,4360.256348,4331.153809,4337.307617,4337.94873,4345.641113,4340.384766,4327.05127,4512.307617,4527.94873,4413.333496,4470.641113,,,,,,,,,,,,,,,,,,,,,,,,,,,,,,,,,,,,,,,,,,,,,,,,,,,,,,,,,,,,,,,,,,,,,,
1768920141.81056,1768920141.810961,45.0,0.0,4354.615234,4344.743652,4350.641113,4357.307617,4334.615234,4332.307617,4330.384766,4350.128418,4341.153809,4323.461426,4507.692383,4528.333496,4412.820313,4465.897461,,,,,,,,,,,,,,,,,,,,,,,,,,,,,,,,,,,,,,,,,,,,,,,,,,,,,,,,,,,,,,,,,,,,,,
1768920141.818369,1768920141.81867,46.0,0.0,4351.666504,4342.563965,4344.871582,4355.897461,4334.615234,4328.846191,4326.538574,4341.153809,4331.153809,4317.436035,4505.769043,4523.974121,4409.358887,4457.436035,,,,,,,,,,,,,,,,,,,,,,,,,,,,,,,,,,,,,,,,,,,,,,,,,,,,,,,,,,,,,,,,,,,,,,
1768920141.826177,1768920141.826478,47.0,0.0,4355.128418,4345.384766,4350.128418,4356.794922,4331.025879,4323.205078,4326.794922,4338.333496,4326.282227,4322.94873,4509.615234,4526.410156,4410.641113,4462.307617,,,,,,,,,,,,,,,,,,,,,,,,,,,,,,,,,,,,,,,,,,,,,,,,,,,,,,,,,,,,,,,,,,,,,,
1768920141.833985,1768920141.834486,48.0,0.0,4357.436035,4345.512695,4353.717773,4358.333496,4329.487305,4327.563965,4327.179688,4345.256348,4333.589844,4328.333496,4508.589844,4530.641113,4413.077148,4462.563965,1.012355,0.317576,0.369971,0.245203,0.070039,0.694623,0.594587,0.26226,0.194871,0.107026,0.901341,0.380792,0.247186,0.258015,0.065223,0.282485,0.322313,0.251447,0.187696,0.062781,0.185481,0.149762,0.141454,0.09421,0.062372,0.330788,0.125006,0.168067,0.234416,0.179594,0.307446,0.333046,0.267379,0.358074,0.334736,0.171031,0.188111,0.286175,0.216508,0.128725,0.144127,0.129375,0.117734,0.237486,0.106988,0.612016,0.383312,0.324629,0.347159,0.163877,0.945203,0.654814,0.185943,0.404964,0.100288,1.073515,0.741993,0.416065,0.419966,0.166227,1.014523,0.632546,0.39843,0.385968,0.147335,1.650272,0.575554,0.269585,0.385958,0.169928
1768920141.841794,1768920141.842295,49.0,0.0,4356.538574,4344.102539,4352.436035,4358.717773,4329.230957,4337.692383,4331.153809,4343.205078,4334.615234,4323.333496,4506.025879,4528.333496,4411.410156,4457.436035,,,,,,,,,,,,,,,,,,,,,,,,,,,,,,,,,,,,,,,,,,,,,,,,,,,,,,,,,,,,,,,,,,,,,,
1768920141.849603,1768920141.850003,50.0,0.0,4355.641113,4348.333496,4355.512695,4357.307617,4329.102539,4330.512695,4329.102539,4338.846191,4328.846191,4318.589844,4507.436035,4520.641113,4410.641113,4462.307617,,,,,,,,,,,,,,,,,,,,,,,,,,,,,,,,,,,,,,,,,,,,,,,,,,,,,,,,,,,,,,,,,,,,,,
1768920141.857411,1768920141.857811,51.0,0.0,4356.922852,4355.256348,4357.307617,4357.94873,4333.461426,4322.692383,4320.256348,4342.692383,4334.743652,4323.589844,4510.512695,4522.692383,4412.436035,4469.615234,,,,,,,,,,,,,,,,,,,,,,,,,,,,,,,,,,,,,,,,,,,,,,,,,,,,,,,,,,,,,,,,,,,,,,
1768920141.86522,1768920141.86542,52.0,0.0,4355.0,4352.307617,4351.922852,4358.205078,4333.846191,4329.102539,4321.025879,4344.358887,4341.153809,4324.743652,4508.461426,4527.179688,4408.974121,4464.615234,,,,,,,,,,,,,,,,,,,,,,,,,,,,,,,,,,,,,,,,,,,,,,,,,,,,,,,,,,,,,,,,,,,,,,
1768920141.873028,1768920141.873229,53.0,0.0,4347.820313,4346.410156,4348.461426,4355.641113,4330.897461,4332.05127,4327.179688,4343.717773,4337.05127,4319.615234,4507.563965,4523.717773,4402.692383,4457.436035,,,,,,,,,,,,,,,,,,,,,,,,,,,,,,,,,,,,,,,,,,,,,,,,,,,,,,,,,,,,,,,,,,,,,,
1768920141.880837,1768920141.880937,54.0,0.0,4346.538574,4349.102539,4350.128418,4359.230957,4335.769043,4329.487305,4328.589844,4345.641113,4335.897461,4322.05127,4509.230957,4521.153809,4402.820313,4458.589844,,,,,,,,,,,,,,,,,,,,,,,,,,,,,,,,,,,,,,,,,,,,,,,,,,,,,,,,,,,,,,,,,,,,,,
1768920141.888645,1768920141.888746,55.0,0.0,4352.05127,4351.538574,4355.769043,4362.179688,4340.384766,4330.256348,4326.794922,4343.589844,4336.794922,4324.358887,4507.05127,4524.487305,4399.487305,4455.128418,,,,,,,,,,,,,,,,,,,,,,,,,,,,,,,,,,,,,,,,,,,,,,,,,,,,,,,,,,,,,,,,,,,,,,
1768920141.896454,1768920141.896754,56.0,0.0,4354.871582,4349.487305,4360.384766,4359.871582,4336.282227,4331.922852,4324.871582,4340.0,4331.794922,4314.871582,4504.102539,4527.820313,4394.487305,4453.333496,,,,,,,,,,,,,,,,,,,,,,,,,,,,,,,,,,,,,,,,,,,,,,,,,,,,,,,,,,,,,,,,,,,,,,
1768920141.904262,1768920141.904563,57.0,0.0,4354.358887,4347.820313,4361.025879,4360.0,4335.512695,4336.666504,4329.743652,4340.256348,4330.0,4313.461426,4508.077148,4528.846191,4403.589844,4460.256348,,,,,,,,,,,,,,,,,,,,,,,,,,,,,,,,,,,,,,,,,,,,,,,,,,,,,,,,,,,,,,,,,,,,,,
1768920141.912071,1768920141.912271,58.0,0.0,4350.641113,4344.871582,4355.384766,4360.384766,4339.871582,4344.615234,4336.666504,4343.717773,4338.077148,4326.153809,4508.717773,4526.410156,4410.641113,4462.179688,,,,,,,,,,,,,,,,,,,,,,,,,,,,,,,,,,,,,,,,,,,,,,,,,,,,,,,,,,,,,,,,,,,,,,
1768920141.919879,1768920141.92008,59.0,0.0,4345.384766,4339.102539,4350.0,4355.512695,4336.922852,4340.769043,4331.666504,4348.333496,4343.974121,4329.358887,4506.794922,4525.128418,4403.205078,4457.563965,,,,,,,,,,,,,,,,,,,,,,,,,,,,,,,,,,,,,,,,,,,,,,,,,,,,,,,,,,,,,,,,,,,,,,
1768920141.927688,1768920141.927688,60.0,0.0,4349.230957,4338.077148,4354.230957,4351.538574,4331.410156,4330.384766,4324.743652,4349.487305,4346.153809,4326.153809,4515.0,4534.487305,4402.563965,4461.538574,,,,,,,,,,,,,,,,,,,,,,,,,,,,,,,,,,,,,,,,,,,,,,,,,,,,,,,,,,,,,,,,,,,,,,
1768920141.935496,1768920141.935496,61.0,0.0,4355.128418,4340.256348,4358.077148,4351.410156,4328.589844,4327.820313,4325.128418,4346.410156,4343.846191,4327.820313,4517.692383,4538.717773,4407.563965,4468.333496,,,,,,,,,,,,,,,,,,,,,,,,,,,,,,,,,,,,,,,,,,,,,,,,,,,,,,,,,,,,,,,,,,,,,,
1768920141.943305,1768920141.943205,62.0,0.0,4355.384766,4341.282227,4358.717773,4353.077148,4328.205078,4332.436035,4326.410156,4343.205078,4337.307617,4324.358887,4508.077148,4531.410156,4401.410156,4465.384766,,,,,,,,,,,,,,,,,,,,,,,,,,,,,,,,,,,,,,,,,,,,,,,,,,,,,,,,,,,,,,,,,,,,,,
1768920141.951113,1768920141.951013,63.0,0.0,4354.743652,4342.94873,4360.512695,4357.05127,4330.512695,4336.025879,4325.256348,4336.666504,4330.897461,4318.717773,4505.641113,4532.307617,4396.282227,4462.563965,,,,,,,,,,,,,,,,,,,,,,,,,,,,,,,,,,,,,,,,,,,,,,,,,,,,,,,,,,,,,,,,,,,,,,
1768920141.958922,1768920141.959021,64.0,0.0,4352.307617,4343.077148,4358.077148,4358.461426,4332.820313,4331.922852,4323.589844,4334.102539,4329.615234,4319.487305,4510.897461,4534.230957,4403.205078,4463.589844,0.810653,0.298306,0.330788,0.242811,0.06952,0.565178,0.518895,0.209867,0.17811,0.105296,0.997101,0.347662,0.219569,0.247143,0.063847,0.23254,0.317038,0.202236,0.182894,0.054969,0.169827,0.155933,0.12212,0.101907,0.068923,0.366905,0.152065,0.159199,0.241214,0.172964,0.298964,0.308946,0.260836,0.331127,0.340674,0.184805,0.19486,0.234276,0.211219,0.138366,0.160402,0.140543,0.110145,0.243365,0.104881,0.548203,0.461283,0.271901,0.315195,0.160545,0.792852,0.706776,0.19737,0.369023,0.095548,0.914233,0.621634,0.343486,0.362398,0.176866,0.676643,0.667391,0.336122,0.337117,0.137359,1.159279,0.713226,0.253276,0.3324,0.151088
1768920141.96673,1768920141.96683,65.0,0.0,4353.846191,4346.025879,4354.487305,4357.820313,4331.922852,4331.282227,4324.615234,4340.256348,4333.846191,4319.102539,4512.05127,4530.769043,4406.153809,4465.0,,,,,,,,,,,,,,,,,,,,,,,,,,,,,,,,,,,,,,,,,,,,,,,,,,,,,,,,,,,,,,,,,,,,,,
1768920141.974539,1768920141.974738,66.0,0.0,4356.666504,4345.0,4352.436035,4356.922852,4331.282227,4336.666504,4325.256348,4341.410156,4332.307617,4313.205078,4505.512695,4529.230957,4396.153809,4459.358887,,,,,,,,,,,,,,,,,,,,,,,,,,,,,,,,,,,,,,,,,,,,,,,,,,,,,,,,,,,,,,,,,,,,,,
1768920141.982347,1768920141.982546,67.0,0.0,4347.05127,4333.717773,4346.794922,4353.589844,4332.692383,4339.871582,4324.230957,4337.94873,4326.025879,4310.0,4498.589844,4522.692383,4386.666504,4442.820313,,,,,,,,,,,,,,,,,,,,,,,,,,,,,,,,,,,,,,,,,,,,,,,,,,,,,,,,,,,,,,,,,,,,,,
1768920141.990156,1768920141.990555,68.0,0.0,4334.615234,4329.487305,4341.666504,4351.922852,4331.538574,4333.589844,4323.589844,4341.282227,4329.615234,4309.871582,4500.641113,4514.615234,4388.589844,4437.820313,,,,,,,,,,,,,,,,,,,,,,,,,,,,,,,,,,,,,,,,,,,,,,,,,,,,,,,,,,,,,,,,,,,,,,
1768920141.997965,1768920141.998363,69.0,0.0,4340.256348,4337.94873,4351.025879,4354.358887,4328.974121,4325.769043,4323.589844,4345.0,4337.563965,4312.436035,4508.333496,4522.307617,4394.743652,4453.717773,,,,,,,,,,,,,,,,,,,,,,,,,,,,,,,,,,,,,,,,,,,,,,,,,,,,,,,,,,,,,,,,,,,,,,
1768920142.005773,1768920142.006271,70.0,0.0,4352.563965,4343.205078,4360.512695,4358.077148,4330.769043,4330.128418,4321.538574,4342.436035,4334.358887,4317.307617,4510.897461,4531.410156,4402.307617,4467.692383,,,,,,,,,,,,,,,,,,,,,,,,,,,,,,,,,,,,,,,,,,,,,,,,,,,,,,,,,,,,,,,,,,,,,,
1768920142.013581,1768920142.01408,71.0,0.0,4351.282227,4339.487305,4351.282227,4356.922852,4333.205078,4331.410156,4314.102539,4348.077148,4331.025879,4319.102539,4508.077148,4527.179688,4410.897461,4466.666504,,,,,,,,,,,,,,,,,,,,,,,,,,,,,,,,,,,,,,,,,,,,,,,,,,,,,,,,,,,,,,,,,,,,,,
1768920142.02139,1768920142.022088,72.0,0.0,4345.769043,4338.077148,4340.769043,4353.717773,4327.820313,4325.384766,4312.563965,4359.615234,4339.871582,4320.256348,4508.846191,4527.563965,4414.102539,4464.230957,,,,,,,,,,,,,,,,,,,,,,,,,,,,,,,,,,,,,,,,,,,,,,,,,,,,,,,,,,,,,,,,,,,,,,
1768920142.029199,1768920142.029897,73.0,0.0,4347.563965,4340.0,4346.410156,4356.410156,4323.589844,4328.717773,4321.410156,4357.05127,4342.436035,4323.589844,4517.307617,4535.0,4411.794922,4468.846191,,,,,,,,,,,,,,,,,,,,,,,,,,,,,,,,,,,,,,,,,,,,,,,,,,,,,,,,,,,,,,,,,,,,,,
1768920142.037007,1768920142.037805,74.0,0.0,4352.820313,4341.153809,4355.769043,4359.743652,4330.256348,4336.282227,4321.794922,4350.897461,4336.025879,4327.563965,4523.846191,4538.333496,4412.94873,4472.820313,,,,,,,,,,,,,,,,,,,,,,,,,,,,,,,,,,,,,,,,,,,,,,,,,,,,,,,,,,,,,,,,,,,,,,
1768920142.044815,1768920142.045614,75.0,0.0,4352.436035,4336.794922,4353.974121,4358.461426,4334.230957,4330.769043,4310.769043,4353.205078,4335.0,4324.871582,4521.538574,4538.846191,4413.846191,4468.205078,,,,,,,,,,,,,,,,,,,,,,,,,,,,,,,,,,,,,,,,,,,,,,,,,,,,,,,,,,,,,,,,,,,,,,
1768920142.052624,1768920142.053222,76.0,0.0,4346.153809,4332.692383,4347.820313,4358.205078,4333.333496,4325.641113,4312.307617,4356.282227,4334.358887,4317.05127,4518.205078,4535.512695,4410.769043,4459.358887,,,,,,,,,,,,,,,,,,,,,,,,,,,,,,,,,,,,,,,,,,,,,,,,,,,,,,,,,,,,,,,,,,,,,,
1768920142.060433,1768920142.061031,77.0,0.0,4345.0,4338.589844,4346.410156,4360.641113,4331.922852,4331.025879,4325.897461,4357.179688,4330.128418,4316.153809,4519.230957,4531.153809,4412.307617,4461.153809,,,,,,,,,,,,,,,,,,,,,,,,,,,,,,,,,,,,,,,,,,,,,,,,,,,,,,,,,,,,,,,,,,,,,,
1768920142.068241,1768920142.068739,78.0,0.0,4346.666504,4339.487305,4345.0,4357.820313,4331.153809,4332.05127,4324.743652,4356.410156,4330.512695,4318.717773,4515.641113,4532.436035,4410.641113,4465.641113,,,,,,,,,,,,,,,,,,,,,,,,,,,,,,,,,,,,,,,,,,,,,,,,,,,,,,,,,,,,,,,,,,,,,,
1768920142.07605,1768920142.076548,79.0,0.0,4347.820313,4331.794922,4343.077148,4353.589844,4327.692383,4324.871582,4312.179688,4354.102539,4331.153809,4314.487305,4508.974121,4532.307617,4402.307617,4462.563965,,,,,,,,,,,,,,,,,,,,,,,,,,,,,,,,,,,,,,,,,,,,,,,,,,,,,,,,,,,,,,,,,,,,,,
1768920142.083858,1768920142.084556,80.0,0.0,4350.256348,4332.436035,4341.282227,4355.769043,4325.641113,4320.128418,4306.794922,4354.871582,4323.717773,4308.717773,4506.922852,4526.666504,4399.871582,4459.358887,0.661817,0.283027,0.285496,0.236511,0.074711,0.513383,0.448963,0.159198,0.160929,0.109444,1.082287,0.318852,0.187518,0.227341,0.061725,0.207571,0.341308,0.160698,0.167372,0.048212,0.16452,0.162325,0.101679,0.108464,0.075565,0.390688,0.171717,0.146501,0.254457,0.171156,0.304997,0.301319,0.24945,0.297706,0.343009,0.199865,0.201754,0.181885,0.197398,0.149156,0.180553,0.176706,0.109171,0.249769,0.106118,0.478204,0.547937,0.222562,0.273582,0.153912,0.689955,0.776666,0.212296,0.325191,0.096859,0.782152,0.541592,0.28213,0.318284,0.181226,0.502955,0.721859,0.291442,0.278419,0.126485,0.854428,0.849728,0.254683,0.271359,0.134761
1768920142.091667,1768920142.092365,81.0,0.0,4348.717773,4334.487305,4342.692383,4354.230957,4327.692383,4325.384766,4312.436035,4363.077148,4325.641113,4310.769043,4508.589844,4531.794922,4403.846191,4459.358887,,,,,,,,,,,,,,,,,,,,,,,,,,,,,,,,,,,,,,,,,,,,,,,,,,,,,,,,,,,,,,,,,,,,,,
1768920142.099475,1768920142.100273,82.0,0.0,4345.256348,4327.692383,4344.615234,4346.538574,4325.897461,4328.205078,4314.230957,4370.128418,4331.922852,4312.307617,4512.179688,4542.563965,4402.692383,4461.282227,,,,,,,,,,,,,,,,,,,,,,,,,,,,,,,,,,,,,,,,,,,,,,,,,,,,,,,,,,,,,,,,,,,,,,
1768920142.107284,1768920142.108082,83.0,0.0,4342.563965,4321.410156,4335.641113,4340.897461,4321.922852,4323.846191,4311.153809,4368.077148,4328.205078,4307.94873,4508.205078,4531.025879,4391.282227,4456.794922,,,,,,,,,,,,,,,,,,,,,,,,,,,,,,,,,,,,,,,,,,,,,,,,,,,,,,,,,,,,,,,,,,,,,,
1768920142.115092,1768920142.11569,84.0,0.0,4337.692383,4320.384766,4326.025879,4340.128418,4324.743652,4328.974121,4320.128418,4366.282227,4331.666504,4307.692383,4500.641113,4517.692383,4384.358887,4449.487305,,,,,,,,,,,,,,,,,,,,,,,,,,,,,,,,,,,,,,,,,,,,,,,,,,,,,,,,,,,,,,,,,,,,,,
1768920142.122901,1768920142.123498,85.0,0.0,4339.615234,4323.974121,4338.461426,4347.692383,4332.179688,4336.282227,4331.794922,4371.922852,4347.179688,4319.871582,4512.820313,4537.179688,4399.358887,4460.512695,,,,,,,,,,,,,,,,,,,,,,,,,,,,,,,,,,,,,,,,,,,,,,,,,,,,,,,,,,,,,,,,,,,,,,
1768920142.130709,1768920142.131207,86.0,0.0,4352.436035,4334.487305,4358.846191,4357.563965,4332.94873,4331.666504,4324.615234,4373.974121,4353.974121,4331.282227,4534.871582,4559.102539,4422.820313,4481.410156,,,,,,,,,,,,,,,,,,,,,,,,,,,,,,,,,,,,,,,,,,,,,,,,,,,,,,,,,,,,,,,,,,,,,,
1768920142.138518,1768920142.139015,87.0,0.0,4354.871582,4338.589844,4356.410156,4358.205078,4329.102539,4325.128418,4311.282227,4363.461426,4343.974121,4329.487305,4531.153809,4546.153809,4422.94873,4480.128418,,,,,,,,,,,,,,,,,,,,,,,,,,,,,,,,,,,,,,,,,,,,,,,,,,,,,,,,,,,,,,,,,,,,,,
1768920142.146326,1768920142.147023,88.0,0.0,4345.769043,4332.05127,4342.436035,4355.641113,4331.025879,4327.820313,4314.615234,4358.333496,4337.05127,4324.102539,4509.871582,4527.179688,4405.256348,4462.563965,,,,,,,,,,,,,,,,,,,,,,,,,,,,,,,,,,,,,,,,,,,,,,,,,,,,,,,,,,,,,,,,,,,,,,
1768920142.154135,1768920142.154832,89.0,0.0,4344.743652,4328.333496,4341.666504,4359.358887,4332.307617,4331.025879,4323.589844,4363.333496,4339.743652,4318.461426,4505.769043,4530.0,4400.769043,4458.205078,,,,,,,,,,,,,,,,,,,,,,,,,,,,,,,,,,,,,,,,,,,,,,,,,,,,,,,,,,,,,,,,,,,,,,
1768920142.161943,1768920142.16274,90.0,0.0,4344.871582,4325.128418,4345.384766,4358.846191,4329.743652,4326.922852,4317.94873,4360.641113,4337.436035,4312.436035,4511.025879,4533.717773,4403.974121,4461.282227,,,,,,,,,,,,,,,,,,,,,,,,,,,,,,,,,,,,,,,,,,,,,,,,,,,,,,,,,,,,,,,,,,,,,,
1768920142.169752,1768920142.170548,91.0,0.0,4342.563965,4322.820313,4342.563965,4354.871582,4327.179688,4322.436035,4306.282227,4357.820313,4333.589844,4318.077148,4509.358887,4531.794922,4402.563965,4466.025879,,,,,,,,,,,,,,,,,,,,,,,,,,,,,,,,,,,,,,,,,,,,,,,,,,,,,,,,,,,,,,,,,,,,,,
