Timestamp,OriginalTimestamp,EEG.Counter,EEG.Interpolated,EEG.AF3,EEG.F7,EEG.F3,EEG.FC5,EEG.T7,EEG.P7,EEG.O1,EEG.O2,EEG.P8,EEG.T8,EEG.FC6,EEG.F4,EEG.F8,EEG.AF4,POW.AF3.Theta,POW.AF3.Alpha,POW.AF3.BetaL,POW.AF3.BetaH,POW.AF3.Gamma,POW.F7.Theta,POW.F7.Alpha,POW.F7.BetaL,POW.F7.BetaH,POW.F7.Gamma,POW.F3.Theta,POW.F3.Alpha,POW.F3.BetaL,POW.F3.BetaH,POW.F3.Gamma,POW.FC5.Theta,POW.FC5.Alpha,POW.FC5.BetaL,POW.FC5.BetaH,POW.FC5.Gamma,POW.T7.Theta,POW.T7.Alpha,POW.T7.BetaL,POW.T7.BetaH,POW.T7.Gamma,POW.P7.Theta,POW.P7.Alpha,POW.P7.BetaL,POW.P7.BetaH,POW.P7.Gamma,POW.O1.Theta,POW.O1.Alpha,POW.O1.BetaL,POW.O1.BetaH,POW.O1.Gamma,POW.O2.Theta,POW.O2.Alpha,POW.O2.BetaL,POW.O2.BetaH,POW.O2.Gamma,POW.P8.Theta,POW.P8.Alpha,POW.P8.BetaL,POW.P8.BetaH,POW.P8.Gamma,POW.T8.Theta,POW.T8.Alpha,POW.T8.BetaL,POW.T8.BetaH,POW.T8.Gamma,POW.FC6.Theta,POW.FC6.Alpha,POW.FC6.BetaL,POW.FC6.BetaH,POW.FC6.Gamma,POW.F4.Theta,POW.F4.Alpha,POW.F4.BetaL,POW.F4.BetaH,POW.F4.Gamma,POW.F8.Theta,POW.F8.Alpha,POW.F8.BetaL,POW.F8.BetaH,POW.F8.Gamma,POW.AF4.Theta,POW.AF4.Alpha,POW.AF4.BetaL,POW.AF4.BetaH,POW.AF4.Gamma
1769161648.745696,1769161648.745996,113.0,0.0,4309.230957,4287.05127,4344.102539,4315.0,4296.666504,4273.589844,4233.205078,4284.230957,4297.307617,4278.205078,4574.871582,4529.487305,4425.641113,4495.384766,,,,,,,,,,,,,,,,,,,,,,,,,,,,,,,,,,,,,,,,,,,,,,,,,,,,,,,,,,,,,,,,,,,,,,
1769161648.753504,1769161648.753904,114.0,0.0,4308.205078,4283.205078,4341.153809,4311.025879,4296.794922,4272.94873,4232.05127,4279.743652,4290.128418,4266.666504,4565.512695,4518.205078,4417.05127,4488.974121,,,,,,,,,,,,,,,,,,,,,,,,,,,,,,,,,,,,,,,,,,,,,,,,,,,,,,,,,,,,,,,,,,,,,,
1769161648.761313,1769161648.761713,115.0,0.0,4306.794922,4281.794922,4340.384766,4311.153809,4297.179688,4276.025879,4229.871582,4282.820313,4280.897461,4261.025879,4568.205078,4520.256348,4418.333496,4492.563965,,,,,,,,,,,,,,,,,,,,,,,,,,,,,,,,,,,,,,,,,,,,,,,,,,,,,,,,,,,,,,,,,,,,,,
1769161648.769121,1769161648.769321,116.0,0.0,4304.871582,4280.769043,4343.974121,4309.487305,4296.410156,4277.563965,4230.256348,4285.512695,4283.846191,4263.333496,4570.384766,4524.615234,4420.769043,4492.436035,,,,,,,,,,,,,,,,,,,,,,,,,,,,,,,,,,,,,,,,,,,,,,,,,,,,,,,,,,,,,,,,,,,,,,
1769161648.77693,1769161648.77713,117.0,0.0,4304.487305,4278.589844,4345.512695,4307.563965,4296.794922,4275.384766,4233.461426,4283.846191,4289.358887,4265.128418,4565.641113,4522.94873,4417.94873,4495.384766,,,,,,,,,,,,,,,,,,,,,,,,,,,,,,,,,,,,,,,,,,,,,,,,,,,,,,,,,,,,,,,,,,,,,,
1769161648.784738,1769161648.784838,118.0,0.0,4307.94873,4278.589844,4346.922852,4310.256348,4296.025879,4267.94873,4229.358887,4280.769043,4290.128418,4266.282227,4566.922852,4522.94873,4421.282227,4497.179688,,,,,,,,,,,,,,,,,,,,,,,,,,,,,,,,,,,,,,,,,,,,,,,,,,,,,,,,,,,,,,,,,,,,,,
1769161648.792546,1769161648.792647,119.0,0.0,4307.307617,4280.897461,4352.692383,4311.282227,4295.384766,4266.410156,4225.384766,4277.94873,4290.128418,4268.846191,4570.769043,4521.282227,4428.461426,4492.692383,,,,,,,,,,,,,,,,,,,,,,,,,,,,,,,,,,,,,,,,,,,,,,,,,,,,,,,,,,,,,,,,,,,,,,
1769161648.800355,1769161648.800655,120.0,0.0,4304.615234,4281.410156,4358.974121,4311.538574,4295.769043,4272.05127,4230.128418,4280.128418,4291.153809,4272.820313,4571.922852,4523.461426,4428.846191,4497.94873,,,,,,,,,,,,,,,,,,,,,,,,,,,,,,,,,,,,,,,,,,,,,,,,,,,,,,,,,,,,,,,,,,,,,,
1769161648.808163,1769161648.808463,121.0,0.0,4303.589844,4280.512695,4362.05127,4311.666504,4295.256348,4274.230957,4231.922852,4283.333496,4293.589844,4276.666504,4576.922852,4531.153809,4429.615234,4510.0,,,,,,,,,,,,,,,,,,,,,,,,,,,,,,,,,,,,,,,,,,,,,,,,,,,,,,,,,,,,,,,,,,,,,,
1769161648.815972,1769161648.816172,122.0,0.0,4301.538574,4279.615234,4360.769043,4308.077148,4295.512695,4275.897461,4230.512695,4281.666504,4296.410156,4275.256348,4577.563965,4529.743652,4432.179688,4509.102539,,,,,,,,,,,,,,,,,,,,,,,,,,,,,,,,,,,,,,,,,,,,,,,,,,,,,,,,,,,,,,,,,,,,,,
1769161648.82378,1769161648.82398,123.0,0.0,4306.666504,4280.0,4361.666504,4308.333496,4296.794922,4276.410156,4231.666504,4280.769043,4296.282227,4275.641113,4573.846191,4522.563965,4431.794922,4504.102539,,,,,,,,,,,,,,,,,,,,,,,,,,,,,,,,,,,,,,,,,,,,,,,,,,,,,,,,,,,,,,,,,,,,,,
1769161648.831589,1769161648.831589,124.0,0.0,4312.94873,4280.897461,4368.333496,4312.820313,4296.666504,4271.666504,4231.282227,4282.436035,4296.153809,4279.358887,4576.153809,4523.846191,4431.282227,4502.179688,,,,,,,,,,,,,,,,,,,,,,,,,,,,,,,,,,,,,,,,,,,,,,,,,,,,,,,,,,,,,,,,,,,,,,
1769161648.839397,1769161648.839397,125.0,0.0,4305.128418,4277.94873,4373.205078,4312.692383,4295.769043,4270.641113,4229.615234,4282.692383,4296.538574,4274.102539,4577.563965,4526.794922,4428.077148,4495.897461,,,,,,,,,,,,,,,,,,,,,,,,,,,,,,,,,,,,,,,,,,,,,,,,,,,,,,,,,,,,,,,,,,,,,,
1769161648.847206,1769161648.847306,126.0,0.0,4294.871582,4273.077148,4370.256348,4309.102539,4294.102539,4277.820313,4232.307617,4282.820313,4294.358887,4263.974121,4569.743652,4521.410156,4419.871582,4492.179688,0.966066,0.342814,0.359249,0.183578,0.123188,0.743558,0.237265,0.436858,0.139576,0.145202,0.676267,0.251513,0.252636,0.14022,0.111793,0.384165,0.316662,0.14548,0.128555,0.08345,0.372142,0.202896,0.102504,0.086008,0.043199,0.37884,0.287781,0.085608,0.125418,0.125211,0.129638,0.553798,0.216999,0.16588,0.329773,0.454748,0.082927,0.067907,0.075978,0.07818,0.249459,0.105406,0.17975,0.133442,0.101111,0.327445,0.162331,0.200342,0.186845,0.234755,0.886885,0.292473,0.236121,0.245075,0.283476,1.306689,0.453921,0.283151,0.222852,0.258159,0.677409,0.198769,0.180379,0.271117,0.296178,0.700725,0.57379,0.158627,0.315887,0.361241
1769161648.855014,1769161648.855114,127.0,0.0,4302.94873,4274.358887,4370.641113,4308.974121,4291.666504,4281.025879,4233.205078,4283.589844,4292.820313,4262.94873,4565.897461,4518.077148,4414.743652,4493.589844,,,,,,,,,,,,,,,,,,,,,,,,,,,,,,,,,,,,,,,,,,,,,,,,,,,,,,,,,,,,,,,,,,,,,,
1769161648.862822,1769161648.863123,0.0,0.0,4314.615234,4281.666504,4380.512695,4314.871582,4294.230957,4276.282227,4229.743652,4282.820313,4294.102539,4267.820313,4569.743652,4521.153809,4416.538574,4492.94873,,,,,,,,,,,,,,,,,,,,,,,,,,,,,,,,,,,,,,,,,,,,,,,,,,,,,,,,,,,,,,,,,,,,,,
1769161648.870631,1769161648.870931,1.0,0.0,4312.179688,4282.692383,4388.846191,4321.794922,4298.589844,4275.256348,4230.512695,4282.05127,4295.641113,4267.436035,4568.717773,4520.256348,4416.282227,4490.512695,,,,,,,,,,,,,,,,,,,,,,,,,,,,,,,,,,,,,,,,,,,,,,,,,,,,,,,,,,,,,,,,,,,,,,
1769161648.878439,1769161648.87864,2.0,0.0,4309.102539,4278.077148,4389.102539,4320.897461,4295.256348,4275.512695,4232.179688,4282.94873,4294.487305,4265.512695,4566.922852,4517.820313,4414.487305,4490.0,,,,,,,,,,,,,,,,,,,,,,,,,,,,,,,,,,,,,,,,,,,,,,,,,,,,,,,,,,,,,,,,,,,,,,
1769161648.886248,1769161648.886448,3.0,0.0,4309.743652,4277.94873,4387.94873,4312.563965,4290.769043,4272.820313,4228.974121,4281.794922,4292.05127,4266.282227,4567.820313,4518.589844,4416.922852,4490.769043,,,,,,,,,,,,,,,,,,,,,,,,,,,,,,,,,,,,,,,,,,,,,,,,,,,,,,,,,,,,,,,,,,,,,,
1769161648.894056,1769161648.894456,4.0,0.0,4307.179688,4276.410156,4390.641113,4308.077148,4290.512695,4271.410156,4227.94873,4278.974121,4289.230957,4265.769043,4567.692383,4521.794922,4418.589844,4490.641113,,,,,,,,,,,,,,,,,,,,,,,,,,,,,,,,,,,,,,,,,,,,,,,,,,,,,,,,,,,,,,,,,,,,,,
1769161648.901865,1769161648.902265,5.0,0.0,4308.333496,4273.846191,4397.436035,4312.436035,4290.641113,4274.230957,4232.436035,4278.717773,4290.128418,4264.743652,4567.563965,4522.436035,4414.615234,4490.128418,,,,,,,,,,,,,,,,,,,,,,,,,,,,,,,,,,,,,,,,,,,,,,,,,,,,,,,,,,,,,,,,,,,,,,
1769161648.909673,1769161648.909973,6.0,0.0,4316.282227,4282.307617,4406.025879,4318.974121,4292.436035,4277.05127,4235.0,4281.922852,4291.538574,4266.025879,4569.358887,4522.436035,4414.102539,4490.769043,,,,,,,,,,,,,,,,,,,,,,,,,,,,,,,,,,,,,,,,,,,,,,,,,,,,,,,,,,,,,,,,,,,,,,
1769161648.917482,1769161648.917782,7.0,0.0,4316.282227,4288.077148,4405.641113,4321.410156,4295.512695,4277.179688,4233.077148,4282.179688,4286.538574,4266.922852,4569.487305,4522.563965,4416.410156,4489.487305,,,,,,,,,,,,,,,,,,,,,,,,,,,,,,,,,,,,,,,,,,,,,,,,,,,,,,,,,,,,,,,,,,,,,,
1769161648.92529,1769161648.92579,8.0,0.0,4307.563965,4280.769043,4398.333496,4319.102539,4294.487305,4275.384766,4231.794922,4279.743652,4283.461426,4264.358887,4565.0,4519.743652,4414.743652,4486.922852,,,,,,,,,,,,,,,,,,,,,,,,,,,,,,,,,,,,,,,,,,,,,,,,,,,,,,,,,,,,,,,,,,,,,,
1769161648.933099,1769161648.933598,9.0,0.0,4306.153809,4276.538574,4404.230957,4318.589844,4292.179688,4271.538574,4231.794922,4279.102539,4289.230957,4263.589844,4563.717773,4519.487305,4413.205078,4488.077148,,,,,,,,,,,,,,,,,,,,,,,,,,,,,,,,,,,,,,,,,,,,,,,,,,,,,,,,,,,,,,,,,,,,,,
1769161648.940907,1769161648.941507,10.0,0.0,4309.615234,4282.436035,4413.333496,4319.615234,4294.358887,4275.256348,4232.436035,4280.128418,4295.256348,4264.230957,4566.794922,4524.487305,4415.769043,4491.538574,,,,,,,,,,,,,,,,,,,,,,,,,,,,,,,,,,,,,,,,,,,,,,,,,,,,,,,,,,,,,,,,,,,,,,
1769161648.948716,1769161648.949315,11.0,0.0,4313.077148,4287.05127,4412.307617,4318.717773,4293.974121,4277.436035,4231.794922,4279.871582,4292.436035,4264.230957,4569.230957,4525.0,4421.922852,4497.820313,,,,,,,,,,,,,,,,,,,,,,,,,,,,,,,,,,,,,,,,,,,,,,,,,,,,,,,,,,,,,,,,,,,,,,
1769161648.956524,1769161648.957323,12.0,0.0,4318.589844,4288.461426,4417.436035,4320.897461,4288.846191,4269.230957,4227.563965,4278.974121,4289.743652,4268.205078,4571.025879,4522.307617,4428.461426,4503.461426,,,,,,,,,,,,,,,,,,,,,,,,,,,,,,,,,,,,,,,,,,,,,,,,,,,,,,,,,,,,,,,,,,,,,,
1769161648.964332,1769161648.965132,13.0,0.0,4321.025879,4291.282227,4429.615234,4324.487305,4286.922852,4265.641113,4226.410156,4280.128418,4292.94873,4276.410156,4577.179688,4530.641113,4431.025879,4505.897461,,,,,,,,,,,,,,,,,,,,,,,,,,,,,,,,,,,,,,,,,,,,,,,,,,,,,,,,,,,,,,,,,,,,,,
1769161648.972141,1769161648.97304,14.0,0.0,4319.102539,4294.743652,4429.743652,4326.538574,4287.307617,4273.205078,4230.384766,4282.307617,4296.025879,4279.487305,4583.333496,4540.897461,4431.153809,4506.538574,1.030883,0.429071,0.42061,0.157875,0.119087,0.755141,0.256789,0.421629,0.131198,0.13024,0.76266,0.323227,0.258763,0.145554,0.094521,0.33603,0.376861,0.148573,0.126545,0.069348,0.424766,0.195442,0.093727,0.093911,0.040218,0.354168,0.432823,0.06795,0.122001,0.112372,0.147332,0.552181,0.223095,0.143019,0.263105,0.361472,0.085454,0.055739,0.074241,0.064419,0.246582,0.125024,0.182434,0.116549,0.089657,0.283676,0.133849,0.163192,0.150606,0.199362,0.81545,0.366507,0.252685,0.230236,0.256202,1.280936,0.558714,0.353804,0.228516,0.240201,0.68549,0.260497,0.178791,0.256814,0.270649,0.76927,0.717069,0.157877,0.288239,0.322419
1769161648.979949,1769161648.980849,15.0,0.0,4317.94873,4296.153809,4423.333496,4325.256348,4284.358887,4276.282227,4232.820313,4281.282227,4295.641113,4274.230957,4580.512695,4533.717773,4430.512695,4502.692383,,,,,,,,,,,,,,,,,,,,,,,,,,,,,,,,,,,,,,,,,,,,,,,,,,,,,,,,,,,,,,,,,,,,,,
1769161648.987758,1769161648.988457,16.0,0.0,4313.461426,4290.769043,4422.820313,4317.692383,4279.230957,4271.666504,4232.436035,4279.743652,4293.205078,4266.538574,4571.794922,4521.666504,4428.974121,4495.384766,,,,,,,,,,,,,,,,,,,,,,,,,,,,,,,,,,,,,,,,,,,,,,,,,,,,,,,,,,,,,,,,,,,,,,
1769161648.995566,1769161648.996266,17.0,0.0,4309.615234,4287.692383,4426.025879,4312.692383,4278.717773,4272.436035,4230.769043,4278.717773,4293.205078,4263.717773,4568.589844,4523.077148,4426.538574,4493.205078,,,,,,,,,,,,,,,,,,,,,,,,,,,,,,,,,,,,,,,,,,,,,,,,,,,,,,,,,,,,,,,,,,,,,,
1769161649.003375,1769161649.003974,18.0,0.0,4310.256348,4287.307617,4429.102539,4314.871582,4281.410156,4278.974121,4234.487305,4276.922852,4293.974121,4263.461426,4569.871582,4525.128418,4420.256348,4493.461426,,,,,,,,,,,,,,,,,,,,,,,,,,,,,,,,,,,,,,,,,,,,,,,,,,,,,,,,,,,,,,,,,,,,,,
1769161649.011183,1769161649.011783,19.0,0.0,4309.871582,4282.94873,4426.025879,4316.153809,4282.307617,4285.384766,4242.179688,4281.666504,4293.205078,4262.307617,4564.487305,4519.487305,4414.230957,4489.743652,,,,,,,,,,,,,,,,,,,,,,,,,,,,,,,,,,,,,,,,,,,,,,,,,,,,,,,,,,,,,,,,,,,,,,
1769161649.018992,1769161649.019391,20.0,0.0,4315.897461,4288.333496,4425.641113,4320.128418,4281.922852,4278.077148,4238.333496,4288.333496,4293.974121,4270.128418,4569.615234,4526.538574,4422.307617,4496.794922,,,,,,,,,,,,,,,,,,,,,,,,,,,,,,,,,,,,,,,,,,,,,,,,,,,,,,,,,,,,,,,,,,,,,,
1769161649.0268,1769161649.0272,21.0,0.0,4328.717773,4300.641113,4438.717773,4328.205078,4280.769043,4267.563965,4228.461426,4284.487305,4295.256348,4281.794922,4585.0,4541.666504,4434.871582,4509.487305,,,,,,,,,,,,,,,,,,,,,,,,,,,,,,,,,,,,,,,,,,,,,,,,,,,,,,,,,,,,,,,,,,,,,,
1769161649.034608,1769161649.034908,22.0,0.0,4328.846191,4296.538574,4442.820313,4325.641113,4276.410156,4272.820313,4233.589844,4279.743652,4289.230957,4274.102539,4580.0,4541.794922,4427.692383,4507.692383,,,,,,,,,,,,,,,,,,,,,,,,,,,,,,,,,,,,,,,,,,,,,,,,,,,,,,,,,,,,,,,,,,,,,,
1769161649.042417,1769161649.042717,23.0,0.0,4321.666504,4287.563965,4433.974121,4320.0,4274.102539,4274.230957,4238.589844,4282.307617,4284.487305,4262.05127,4570.641113,4536.410156,4420.128418,4503.589844,,,,,,,,,,,,,,,,,,,,,,,,,,,,,,,,,,,,,,,,,,,,,,,,,,,,,,,,,,,,,,,,,,,,,,
1769161649.050225,1769161649.050725,24.0,0.0,4327.820313,4294.615234,4433.589844,4325.897461,4280.384766,4264.615234,4225.769043,4281.410156,4292.179688,4272.436035,4584.230957,4541.153809,4433.717773,4510.0,,,,,,,,,,,,,,,,,,,,,,,,,,,,,,,,,,,,,,,,,,,,,,,,,,,,,,,,,,,,,,,,,,,,,,
1769161649.058034,1769161649.058533,25.0,0.0,4333.333496,4299.871582,4435.128418,4327.179688,4282.307617,4259.358887,4215.0,4276.922852,4296.153809,4283.589844,4592.05127,4541.922852,4440.897461,4513.077148,,,,,,,,,,,,,,,,,,,,,,,,,,,,,,,,,,,,,,,,,,,,,,,,,,,,,,,,,,,,,,,,,,,,,,
1769161649.065842,1769161649.066442,26.0,0.0,4325.384766,4293.974121,4420.384766,4318.717773,4277.307617,4266.538574,4222.820313,4277.179688,4290.512695,4278.077148,4581.410156,4535.256348,4427.563965,4504.615234,,,,,,,,,,,,,,,,,,,,,,,,,,,,,,,,,,,,,,,,,,,,,,,,,,,,,,,,,,,,,,,,,,,,,,
1769161649.073651,1769161649.07425,27.0,0.0,4321.538574,4291.666504,4410.0,4318.333496,4276.153809,4274.871582,4231.794922,4280.384766,4291.025879,4273.589844,4578.974121,4537.820313,4424.871582,4502.179688,,,,,,,,,,,,,,,,,,,,,,,,,,,,,,,,,,,,,,,,,,,,,,,,,,,,,,,,,,,,,,,,,,,,,,
1769161649.081459,1769161649.081859,28.0,0.0,4325.512695,4290.384766,4414.358887,4320.128418,4271.153809,4271.666504,4230.0,4279.615234,4289.230957,4270.384766,4578.077148,4537.179688,4431.410156,4509.102539,,,,,,,,,,,,,,,,,,,,,,,,,,,,,,,,,,,,,,,,,,,,,,,,,,,,,,,,,,,,,,,,,,,,,,
1769161649.089268,1769161649.089667,29.0,0.0,4326.538574,4287.307617,4409.615234,4313.589844,4263.846191,4263.589844,4226.666504,4273.461426,4277.820313,4261.922852,4568.077148,4524.615234,4424.358887,4505.384766,,,,,,,,,,,,,,,,,,,,,,,,,,,,,,,,,,,,,,,,,,,,,,,,,,,,,,,,,,,,,,,,,,,,,,
1769161649.097076,1769161649.097376,30.0,0.0,4323.717773,4289.743652,4396.282227,4312.820313,4267.179688,4268.461426,4230.512695,4273.461426,4279.871582,4261.282227,4567.820313,4518.077148,4420.641113,4493.846191,1.090878,0.477676,0.433665,0.141633,0.117328,0.75915,0.257112,0.373227,0.129234,0.112752,0.794822,0.367741,0.252503,0.145026,0.081134,0.32242,0.40655,0.144561,0.130848,0.060634,0.481518,0.19796,0.084808,0.10274,0.038191,0.349656,0.585315,0.059433,0.125925,0.107977,0.166883,0.545761,0.225458,0.124376,0.200196,0.269435,0.084016,0.053498,0.073095,0.054027,0.259075,0.155774,0.194574,0.1055,0.079446,0.26512,0.138744,0.145933,0.117995,0.166049,0.689324,0.428908,0.265008,0.216065,0.221362,1.146999,0.635364,0.398803,0.231296,0.219658,0.680138,0.346597,0.177021,0.245153,0.244803,0.798125,0.825124,0.158847,0.270952,0.271699
1769161649.104885,1769161649.105184,31.0,0.0,4320.256348,4295.641113,4389.358887,4318.846191,4270.769043,4278.077148,4235.128418,4279.487305,4290.897461,4266.025879,4572.692383,4521.410156,4425.384766,4495.641113,,,,,,,,,,,,,,,,,,,,,,,,,,,,,,,,,,,,,,,,,,,,,,,,,,,,,,,,,,,,,,,,,,,,,,
1769161649.112693,1769161649.113193,32.0,0.0,4320.384766,4293.589844,4389.871582,4319.487305,4266.922852,4269.743652,4231.794922,4279.102539,4292.05127,4264.615234,4571.282227,4527.692383,4424.615234,4506.410156,,,,,,,,,,,,,,,,,,,,,,,,,,,,,,,,,,,,,,,,,,,,,,,,,,,,,,,,,,,,,,,,,,,,,,
1769161649.120501,1769161649.121001,33.0,0.0,4323.846191,4285.641113,4389.230957,4316.410156,4266.025879,4267.179688,4231.410156,4277.05127,4288.077148,4264.102539,4570.512695,4535.897461,4425.512695,4508.846191,,,,,,,,,,,,,,,,,,,,,,,,,,,,,,,,,,,,,,,,,,,,,,,,,,,,,,,,,,,,,,,,,,,,,,
1769161649.12831,1769161649.128909,34.0,0.0,4318.589844,4279.871582,4382.436035,4314.230957,4267.820313,4276.922852,4236.153809,4279.743652,4286.922852,4267.820313,4572.94873,4536.153809,4428.333496,4504.871582,,,,,,,,,,,,,,,,,,,,,,,,,,,,,,,,,,,,,,,,,,,,,,,,,,,,,,,,,,,,,,,,,,,,,,
1769161649.136118,1769161649.136718,35.0,0.0,4313.077148,4280.897461,4371.282227,4310.384766,4267.179688,4272.436035,4231.538574,4278.589844,4286.538574,4269.615234,4573.717773,4525.128418,4422.94873,4498.717773,,,,,,,,,,,,,,,,,,,,,,,,,,,,,,,,,,,,,,,,,,,,,,,,,,,,,,,,,,,,,,,,,,,,,,
1769161649.143927,1769161649.144726,36.0,0.0,4317.05127,4283.589844,4361.025879,4310.0,4266.025879,4262.692383,4225.128418,4274.358887,4285.384766,4268.974121,4571.538574,4522.692383,4417.94873,4488.974121,,,,,,,,,,,,,,,,,,,,,,,,,,,,,,,,,,,,,,,,,,,,,,,,,,,,,,,,,,,,,,,,,,,,,,
1769161649.151735,1769161649.152535,37.0,0.0,4316.410156,4282.94873,4358.717773,4315.897461,4263.461426,4262.94873,4228.461426,4274.230957,4281.922852,4268.974121,4570.897461,4532.692383,4422.820313,4488.974121,,,,,,,,,,,,,,,,,,,,,,,,,,,,,,,,,,,,,,,,,,,,,,,,,,,,,,,,,,,,,,,,,,,,,,
1769161649.159544,1769161649.160243,38.0,0.0,4309.743652,4281.025879,4359.487305,4320.0,4262.436035,4265.128418,4230.897461,4274.358887,4277.05127,4269.230957,4578.077148,4537.05127,4427.820313,4498.461426,,,,,,,,,,,,,,,,,,,,,,,,,,,,,,,,,,,,,,,,,,,,,,,,,,,,,,,,,,,,,,,,,,,,,,
1769161649.167352,1769161649.168052,39.0,0.0,4314.102539,4280.512695,4357.94873,4320.641113,4264.230957,4263.461426,4229.230957,4275.897461,4277.179688,4268.589844,4582.05127,4535.256348,4426.538574,4498.974121,,,,,,,,,,,,,,,,,,,,,,,,,,,,,,,,,,,,,,,,,,,,,,,,,,,,,,,,,,,,,,,,,,,,,,
1769161649.175161,1769161649.17566,40.0,0.0,4321.538574,4282.436035,4356.153809,4323.077148,4264.487305,4266.282227,4232.307617,4280.256348,4280.0,4269.487305,4575.641113,4533.077148,4421.153809,4493.461426,,,,,,,,,,,,,,,,,,,,,,,,,,,,,,,,,,,,,,,,,,,,,,,,,,,,,,,,,,,,,,,,,,,,,,
1769161649.182969,1769161649.183469,41.0,0.0,4315.256348,4284.102539,4347.436035,4323.846191,4264.487305,4270.256348,4233.589844,4280.384766,4279.102539,4268.974121,4570.384766,4528.461426,4418.205078,4492.820313,,,,,,,,,,,,,,,,,,,,,,,,,,,,,,,,,,,,,,,,,,,,,,,,,,,,,,,,,,,,,,,,,,,,,,
1769161649.190777,1769161649.191177,42.0,0.0,4303.717773,4281.666504,4329.102539,4319.871582,4262.563965,4272.436035,4232.94873,4276.538574,4276.153809,4264.871582,4571.282227,4522.436035,4418.589844,4493.717773,,,,,,,,,,,,,,,,,,,,,,,,,,,,,,,,,,,,,,,,,,,,,,,,,,,,,,,,,,,,,,,,,,,,,,
1769161649.198586,1769161649.198986,43.0,0.0,4302.820313,4279.102539,4322.692383,4320.897461,4261.153809,4276.025879,4235.769043,4276.538574,4274.743652,4264.871582,4571.794922,4521.538574,4419.743652,4493.205078,,,,,,,,,,,,,,,,,,,,,,,,,,,,,,,,,,,,,,,,,,,,,,,,,,,,,,,,,,,,,,,,,,,,,,
1769161649.206394,1769161649.206594,44.0,0.0,4307.820313,4280.256348,4327.820313,4325.769043,4260.256348,4275.769043,4235.256348,4279.487305,4277.05127,4269.102539,4572.179688,4525.769043,4418.589844,4494.487305,,,,,,,,,,,,,,,,,,,,,,,,,,,,,,,,,,,,,,,,,,,,,,,,,,,,,,,,,,,,,,,,,,,,,,
1769161649.214203,1769161649.214403,45.0,0.0,4302.307617,4280.512695,4319.871582,4322.307617,4255.897461,4277.179688,4235.256348,4279.871582,4277.179688,4268.077148,4571.538574,4525.128418,4414.487305,4492.436035,,,,,,,,,,,,,,,,,,,,,,,,,,,,,,,,,,,,,,,,,,,,,,,,,,,,,,,,,,,,,,,,,,,,,,
1769161649.222011,1769161649.222111,46.0,0.0,4296.666504,4278.205078,4306.538574,4317.179688,4250.769043,4280.128418,4235.769043,4278.205078,4276.282227,4262.820313,4567.307617,4520.0,4412.307617,4487.436035,1.161416,0.470896,0.393576,0.132414,0.116693,0.756622,0.236201,0.311816,0.133386,0.094364,0.790716,0.367376,0.236558,0.140037,0.074735,0.358349,0.39312,0.133518,0.138782,0.056271,0.546325,0.216654,0.081831,0.112026,0.036741,0.360929,0.707907,0.056721,0.135201,0.110218,0.173765,0.53616,0.212976,0.107865,0.149935,0.184759,0.084054,0.0583,0.072704,0.050076,0.297767,0.187125,0.20902,0.098255,0.073404,0.290813,0.165665,0.145633,0.094958,0.138022,0.563737,0.460046,0.27549,0.204368,0.186048,0.968054,0.656399,0.405588,0.23359,0.203338,0.685686,0.44448,0.182484,0.23396,0.22037,0.794088,0.86458,0.172854,0.264949,0.218918
1769161649.22982,1769161649.22992,47.0,0.0,4306.282227,4280.769043,4304.358887,4322.05127,4248.846191,4276.410156,4230.641113,4277.179688,4276.922852,4263.333496,4566.922852,4518.077148,4412.05127,4487.94873,,,,,,,,,,,,,,,,,,,,,,,,,,,,,,,,,,,,,,,,,,,,,,,,,,,,,,,,,,,,,,,,,,,,,,
1769161649.237628,1769161649.237928,48.0,0.0,4314.230957,4284.615234,4300.769043,4325.256348,4248.589844,4270.769043,4227.692383,4277.307617,4276.666504,4270.769043,4571.410156,4521.410156,4414.358887,4491.538574,,,,,,,,,,,,,,,,,,,,,,,,,,,,,,,,,,,,,,,,,,,,,,,,,,,,,,,,,,,,,,,,,,,,,,
1769161649.245437,1769161649.245736,49.0,0.0,4310.128418,4282.820313,4290.641113,4320.897461,4248.205078,4272.307617,4231.410156,4277.307617,4277.05127,4273.205078,4571.282227,4523.974121,4422.179688,4492.820313,,,,,,,,,,,,,,,,,,,,,,,,,,,,,,,,,,,,,,,,,,,,,,,,,,,,,,,,,,,,,,,,,,,,,,
1769161649.253245,1769161649.253645,50.0,0.0,4308.205078,4281.153809,4289.743652,4321.282227,4246.666504,4273.974121,4232.179688,4275.641113,4279.871582,4272.436035,4570.0,4523.333496,4429.487305,4493.846191,,,,,,,,,,,,,,,,,,,,,,,,,,,,,,,,,,,,,,,,,,,,,,,,,,,,,,,,,,,,,,,,,,,,,,
1769161649.261053,1769161649.261453,51.0,0.0,4309.102539,4282.179688,4291.025879,4322.563965,4241.025879,4268.461426,4229.871582,4274.615234,4280.256348,4273.974121,4572.05127,4523.974121,4425.256348,4494.743652,,,,,,,,,,,,,,,,,,,,,,,,,,,,,,,,,,,,,,,,,,,,,,,,,,,,,,,,,,,,,,,,,,,,,,
1769161649.268862,1769161649.269461,52.0,0.0,4306.666504,4280.641113,4285.512695,4320.128418,4236.282227,4271.153809,4231.666504,4276.282227,4278.205078,4270.769043,4571.025879,4524.358887,4414.102539,4493.077148,,,,,,,,,,,,,,,,,,,,,,,,,,,,,,,,,,,,,,,,,,,,,,,,,,,,,,,,,,,,,,,,,,,,,,
1769161649.27667,1769161649.27727,53.0,0.0,4308.333496,4279.871582,4276.794922,4318.589844,4235.897461,4279.102539,4235.0,4278.333496,4278.333496,4266.794922,4567.563965,4522.307617,4410.769043,4493.589844,,,,,,,,,,,,,,,,,,,,,,,,,,,,,,,,,,,,,,,,,,,,,,,,,,,,,,,,,,,,,,,,,,,,,,
1769161649.284479,1769161649.284978,54.0,0.0,4310.384766,4282.820313,4267.692383,4319.102539,4236.025879,4278.333496,4239.358887,4277.05127,4279.487305,4269.743652,4570.128418,4520.641113,4418.205078,4497.307617,,,,,,,,,,,,,,,,,,,,,,,,,,,,,,,,,,,,,,,,,,,,,,,,,,,,,,,,,,,,,,,,,,,,,,
1769161649.292287,1769161649.292787,55.0,0.0,4308.461426,4284.358887,4264.358887,4318.205078,4235.641113,4275.769043,4244.102539,4276.282227,4278.205078,4274.615234,4573.974121,4522.94873,4427.307617,4497.94873,,,,,,,,,,,,,,,,,,,,,,,,,,,,,,,,,,,,,,,,,,,,,,,,,,,,,,,,,,,,,,,,,,,,,,
1769161649.300096,1769161649.300795,56.0,0.0,4307.05127,4282.179688,4262.05127,4317.94873,4233.077148,4279.102539,4243.589844,4278.461426,4277.307617,4272.94873,4573.589844,4525.769043,4427.692383,4492.436035,,,,,,,,,,,,,,,,,,,,,,,,,,,,,,,,,,,,,,,,,,,,,,,,,,,,,,,,,,,,,,,,,,,,,,
1769161649.307904,1769161649.308604,57.0,0.0,4306.794922,4281.538574,4254.871582,4320.128418,4231.922852,4274.615234,4235.512695,4276.666504,4279.102539,4271.153809,4573.461426,4526.282227,4420.0,4492.179688,,,,,,,,,,,,,,,,,,,,,,,,,,,,,,,,,,,,,,,,,,,,,,,,,,,,,,,,,,,,,,,,,,,,,,
1769161649.315713,1769161649.316512,58.0,0.0,4306.153809,4282.05127,4246.922852,4317.94873,4231.538574,4266.025879,4230.384766,4272.563965,4278.846191,4274.615234,4572.692383,4528.333496,4416.922852,4499.743652,,,,,,,,,,,,,,,,,,,,,,,,,,,,,,,,,,,,,,,,,,,,,,,,,,,,,,,,,,,,,,,,,,,,,,
1769161649.323521,1769161649.32432,59.0,0.0,4308.589844,4280.128418,4244.615234,4313.077148,4229.230957,4272.563965,4235.512695,4273.974121,4277.436035,4278.077148,4575.0,4533.846191,4424.102539,4503.717773,,,,,,,,,,,,,,,,,,,,,,,,,,,,,,,,,,,,,,,,,,,,,,,,,,,,,,,,,,,,,,,,,,,,,,
1769161649.33133,1769161649.332329,60.0,0.0,4311.922852,4278.717773,4244.102539,4311.666504,4228.461426,4278.333496,4235.769043,4279.230957,4283.974121,4280.512695,4582.94873,4540.128418,4429.358887,4505.512695,,,,,,,,,,,,,,,,,,,,,,,,,,,,,,,,,,,,,,,,,,,,,,,,,,,,,,,,,,,,,,,,,,,,,,
1769161649.339138,1769161649.340137,61.0,0.0,4308.333496,4279.102539,4238.205078,4311.794922,4231.282227,4275.641113,4233.461426,4279.358887,4289.871582,4279.102539,4584.743652,4539.358887,4426.922852,4506.282227,,,,,,,,,,,,,,,,,,,,,,,,,,,,,,,,,,,,,,,,,,,,,,,,,,,,,,,,,,,,,,,,,,,,,,
1769161649.346947,1769161649.348045,62.0,0.0,4304.230957,4278.205078,4230.769043,4309.230957,4232.820313,4279.743652,4240.256348,4278.974121,4290.128418,4278.205078,4579.230957,4535.897461,4424.743652,4503.205078,1.234736,0.412845,0.32004,0.128416,0.117826,0.737429,0.201151,0.258032,0.141837,0.078817,0.731519,0.324252,0.220141,0.134446,0.07706,0.43414,0.344859,0.119981,0.147959,0.054504,0.608523,0.249276,0.087935,0.120021,0.035754,0.375509,0.770463,0.057567,0.145361,0.115231,0.171421,0.526302,0.186425,0.092858,0.115413,0.120119,0.090167,0.065704,0.073646,0.053197,0.357018,0.206978,0.220583,0.093809,0.073954,0.351281,0.207768,0.160995,0.087123,0.118299,0.480173,0.463999,0.291431,0.194159,0.157905,0.811199,0.623626,0.383774,0.236898,0.195351,0.712846,0.543015,0.205024,0.218907,0.199048,0.781896,0.827396,0.215919,0.266413,0.174468
1769161649.354755,1769161649.355854,63.0,0.0,4310.128418,4279.102539,4230.384766,4312.692383,4232.179688,4282.94873,4239.615234,4281.153809,4290.384766,4279.871582,4579.743652,4538.717773,4426.666504,4502.05127,,,,,,,,,,,,,,,,,,,,,,,,,,,,,,,,,,,,,,,,,,,,,,,,,,,,,,,,,,,,,,,,,,,,,,
1769161649.362563,1769161649.363462,64.0,0.0,4318.205078,4282.563965,4232.05127,4320.769043,4232.436035,4272.179688,4231.282227,4278.333496,4286.410156,4278.461426,4584.102539,4534.871582,4429.102539,4506.794922,,,,,,,,,,,,,,,,,,,,,,,,,,,,,,,,,,,,,,,,,,,,,,,,,,,,,,,,,,,,,,,,,,,,,,
1769161649.370372,1769161649.371271,65.0,0.0,4316.282227,4281.153809,4222.436035,4317.563965,4231.025879,4267.05127,4237.05127,4273.974121,4278.077148,4276.666504,4578.974121,4529.230957,4427.05127,4507.436035,,,,,,,,,,,,,,,,,,,,,,,,,,,,,,,,,,,,,,,,,,,,,,,,,,,,,,,,,,,,,,,,,,,,,,
1769161649.37818,1769161649.378979,66.0,0.0,4312.436035,4279.871582,4215.512695,4310.641113,4229.102539,4274.871582,4246.410156,4275.384766,4278.333496,4274.615234,4572.820313,4532.820313,4420.256348,4502.436035,,,,,,,,,,,,,,,,,,,,,,,,,,,,,,,,,,,,,,,,,,,,,,,,,,,,,,,,,,,,,,,,,,,,,,
1769161649.385989,1769161649.386788,67.0,0.0,4308.974121,4280.256348,4217.563965,4310.641113,4230.641113,4278.717773,4242.820313,4278.205078,4282.94873,4268.461426,4572.692383,4531.922852,4414.615234,4497.94873,,,,,,,,,,,,,,,,,,,,,,,,,,,,,,,,,,,,,,,,,,,,,,,,,,,,,,,,,,,,,,,,,,,,,,
1769161649.393797,1769161649.394397,68.0,0.0,4302.563965,4274.743652,4211.666504,4311.922852,4232.563965,4278.461426,4241.794922,4277.820313,4280.256348,4266.153809,4570.0,4522.94873,4413.077148,4492.692383,,,,,,,,,,,,,,,,,,,,,,,,,,,,,,,,,,,,,,,,,,,,,,,,,,,,,,,,,,,,,,,,,,,,,,
1769161649.401606,1769161649.402205,69.0,0.0,4305.256348,4271.794922,4202.05127,4309.487305,4230.512695,4279.487305,4247.94873,4279.230957,4278.205078,4271.538574,4566.538574,4520.769043,4411.282227,4490.641113,,,,,,,,,,,,,,,,,,,,,,,,,,,,,,,,,,,,,,,,,,,,,,,,,,,,,,,,,,,,,,,,,,,,,,
1769161649.409414,1769161649.409914,70.0,0.0,4310.641113,4277.692383,4200.769043,4310.0,4228.846191,4280.512695,4248.333496,4281.538574,4280.256348,4274.358887,4570.128418,4525.769043,4410.384766,4492.179688,,,,,,,,,,,,,,,,,,,,,,,,,,,,,,,,,,,,,,,,,,,,,,,,,,,,,,,,,,,,,,,,,,,,,,
1769161649.417223,1769161649.417722,71.0,0.0,4309.358887,4280.641113,4202.692383,4315.128418,4231.538574,4280.641113,4247.307617,4279.230957,4279.871582,4272.692383,4573.974121,4532.436035,4413.333496,4493.333496,,,,,,,,,,,,,,,,,,,,,,,,,,,,,,,,,,,,,,,,,,,,,,,,,,,,,,,,,,,,,,,,,,,,,,
1769161649.425031,1769161649.425331,72.0,0.0,4312.692383,4277.692383,4201.153809,4319.615234,4232.94873,4278.717773,4246.794922,4278.461426,4278.974121,4273.205078,4572.307617,4536.153809,4414.358887,4494.102539,,,,,,,,,,,,,,,,,,,,,,,,,,,,,,,,,,,,,,,,,,,,,,,,,,,,,,,,,,,,,,,,,,,,,,
1769161649.43284,1769161649.433139,73.0,0.0,4320.897461,4279.743652,4197.307617,4321.794922,4231.410156,4272.563965,4242.820313,4279.358887,4280.769043,4274.871582,4572.94873,4532.692383,4414.358887,4493.717773,,,,,,,,,,,,,,,,,,,,,,,,,,,,,,,,,,,,,,,,,,,,,,,,,,,,,,,,,,,,,,,,,,,,,,
1769161649.440648,1769161649.440848,74.0,0.0,4319.871582,4282.436035,4193.461426,4321.410156,4231.922852,4271.922852,4242.05127,4276.922852,4281.794922,4275.128418,4574.358887,4533.333496,4415.897461,4492.436035,,,,,,,,,,,,,,,,,,,,,,,,,,,,,,,,,,,,,,,,,,,,,,,,,,,,,,,,,,,,,,,,,,,,,,
1769161649.448456,1769161649.448656,75.0,0.0,4312.563965,4277.692383,4190.897461,4316.538574,4232.05127,4279.871582,4247.94873,4274.871582,4278.589844,4267.692383,4571.153809,4537.563965,4415.384766,4491.538574,,,,,,,,,,,,,,,,,,,,,,,,,,,,,,,,,,,,,,,,,,,,,,,,,,,,,,,,,,,,,,,,,,,,,,
1769161649.456265,1769161649.456664,76.0,0.0,4309.487305,4273.846191,4188.717773,4311.922852,4230.384766,4280.128418,4246.410156,4277.436035,4278.077148,4262.692383,4573.589844,4538.589844,4413.077148,4493.205078,,,,,,,,,,,,,,,,,,,,,,,,,,,,,,,,,,,,,,,,,,,,,,,,,,,,,,,,,,,,,,,,,,,,,,
1769161649.464073,1769161649.464473,77.0,0.0,4310.128418,4277.692383,4186.025879,4313.589844,4233.205078,4279.743652,4244.102539,4281.025879,4281.025879,4271.922852,4582.179688,4540.769043,4415.256348,4493.846191,,,,,,,,,,,,,,,,,,,,,,,,,,,,,,,,,,,,,,,,,,,,,,,,,,,,,,,,,,,,,,,,,,,,,,
1769161649.471882,1769161649.472381,78.0,0.0,4311.538574,4280.256348,4181.794922,4312.436035,4235.897461,4288.717773,4255.384766,4281.282227,4281.025879,4273.974121,4579.487305,4536.282227,4414.102539,4491.025879,1.280643,0.327277,0.247566,0.129189,0.1215,0.686071,0.16176,0.224181,0.152489,0.069646,0.655997,0.257857,0.214303,0.133294,0.087741,0.524689,0.28186,0.1114,0.157572,0.054271,0.659277,0.281373,0.100141,0.124689,0.035215,0.380535,0.767312,0.059641,0.151827,0.120462,0.153255,0.518234,0.149476,0.080084,0.096164,0.080693,0.10195,0.07168,0.076233,0.060814,0.424749,0.210058,0.225414,0.092316,0.080408,0.420827,0.26428,0.189359,0.097276,0.108565,0.449869,0.459292,0.316733,0.183494,0.141811,0.70978,0.561212,0.353193,0.242984,0.194861,0.75254,0.627271,0.246967,0.198416,0.182255,0.77065,0.732012,0.296139,0.270224,0.145081
1769161649.47969,1769161649.48019,79.0,0.0,4312.05127,4277.179688,4180.256348,4310.641113,4232.692383,4289.743652,4257.820313,4279.487305,4283.974121,4267.94873,4571.410156,4530.384766,4410.256348,4489.487305,,,,,,,,,,,,,,,,,,,,,,,,,,,,,,,,,,,,,,,,,,,,,,,,,,,,,,,,,,,,,,,,,,,,,,
1769161649.487499,1769161649.487798,80.0,0.0,4313.846191,4278.205078,4185.769043,4317.05127,4231.666504,4280.0,4243.717773,4279.230957,4293.717773,4276.666504,4578.205078,4536.794922,4420.128418,4492.692383,,,,,,,,,,,,,,,,,,,,,,,,,,,,,,,,,,,,,,,,,,,,,,,,,,,,,,,,,,,,,,,,,,,,,,
1769161649.495307,1769161649.495607,81.0,0.0,4313.717773,4280.512695,4182.307617,4317.307617,4234.615234,4278.846191,4242.436035,4280.512695,4294.102539,4281.922852,4586.794922,4541.794922,4427.179688,4494.102539,,,,,,,,,,,,,,,,,,,,,,,,,,,,,,,,,,,,,,,,,,,,,,,,,,,,,,,,,,,,,,,,,,,,,,
1769161649.503116,1769161649.503315,82.0,0.0,4308.333496,4278.333496,4169.358887,4309.743652,4232.820313,4282.05127,4253.974121,4279.743652,4285.897461,4272.179688,4584.487305,4538.846191,4418.974121,4492.179688,,,,,,,,,,,,,,,,,,,,,,,,,,,,,,,,,,,,,,,,,,,,,,,,,,,,,,,,,,,,,,,,,,,,,,
1769161649.510924,1769161649.511124,83.0,0.0,4306.282227,4277.05127,4164.358887,4309.743652,4229.871582,4278.846191,4253.974121,4277.692383,4288.333496,4272.563965,4577.563965,4537.94873,4415.128418,4491.282227,,,,,,,,,,,,,,,,,,,,,,,,,,,,,,,,,,,,,,,,,,,,,,,,,,,,,,,,,,,,,,,,,,,,,,
1769161649.518732,1769161649.519132,84.0,0.0,4303.205078,4278.333496,4162.179688,4312.820313,4233.333496,4279.358887,4250.256348,4278.077148,4293.077148,4280.512695,4573.589844,4534.230957,4416.282227,4490.384766,,,,,,,,,,,,,,,,,,,,,,,,,,,,,,,,,,,,,,,,,,,,,,,,,,,,,,,,,,,,,,,,,,,,,,
1769161649.526541,1769161649.52694,85.0,0.0,4296.794922,4281.282227,4155.769043,4311.153809,4235.256348,4277.307617,4251.794922,4274.230957,4291.666504,4279.358887,4577.94873,4532.436035,4415.256348,4491.538574,,,,,,,,,,,,,,,,,,,,,,,,,,,,,,,,,,,,,,,,,,,,,,,,,,,,,,,,,,,,,,,,,,,,,,
1769161649.534349,1769161649.534849,86.0,0.0,4298.589844,4281.794922,4153.846191,4311.153809,4232.179688,4269.102539,4249.871582,4267.436035,4291.538574,4274.102539,4581.922852,4534.358887,4416.538574,4493.333496,,,,,,,,,,,,,,,,,,,,,,,,,,,,,,,,,,,,,,,,,,,,,,,,,,,,,,,,,,,,,,,,,,,,,,
1769161649.542158,1769161649.542657,87.0,0.0,4305.641113,4279.230957,4155.0,4312.179688,4233.461426,4271.666504,4248.077148,4265.384766,4287.563965,4268.589844,4573.333496,4526.794922,4415.128418,4490.0,,,,,,,,,,,,,,,,,,,,,,,,,,,,,,,,,,,,,,,,,,,,,,,,,,,,,,,,,,,,,,,,,,,,,,
1769161649.549966,1769161649.550266,88.0,0.0,4310.128418,4286.153809,4153.589844,4311.666504,4236.282227,4279.230957,4247.179688,4265.512695,4281.153809,4266.282227,4567.179688,4519.358887,4409.487305,4486.922852,,,,,,,,,,,,,,,,,,,,,,,,,,,,,,,,,,,,,,,,,,,,,,,,,,,,,,,,,,,,,,,,,,,,,,
1769161649.557775,1769161649.558074,89.0,0.0,4311.410156,4293.974121,4153.077148,4312.820313,4234.487305,4278.846191,4248.205078,4263.974121,4278.846191,4265.256348,4570.897461,4522.563965,4411.922852,4483.077148,,,,,,,,,,,,,,,,,,,,,,,,,,,,,,,,,,,,,,,,,,,,,,,,,,,,,,,,,,,,,,,,,,,,,,
1769161649.565583,1769161649.565783,90.0,0.0,4304.487305,4286.794922,4150.512695,4311.153809,4236.282227,4277.820313,4251.282227,4265.512695,4278.461426,4263.333496,4569.743652,4522.179688,4413.717773,4477.179688,,,,,,,,,,,,,,,,,,,,,,,,,,,,,,,,,,,,,,,,,,,,,,,,,,,,,,,,,,,,,,,,,,,,,,
1769161649.573392,1769161649.573591,91.0,0.0,4298.717773,4284.615234,4149.358887,4310.256348,4244.743652,4278.077148,4248.589844,4268.974121,4280.512695,4270.897461,4569.358887,4522.307617,4412.692383,4481.538574,,,,,,,,,,,,,,,,,,,,,,,,,,,,,,,,,,,,,,,,,,,,,,,,,,,,,,,,,,,,,,,,,,,,,,
1769161649.5812,1769161649.5816,92.0,0.0,4305.512695,4292.307617,4151.025879,4311.538574,4248.589844,4276.025879,4245.641113,4266.538574,4284.230957,4281.025879,4572.563965,4528.974121,4416.410156,4492.05127,,,,,,,,,,,,,,,,,,,,,,,,,,,,,,,,,,,,,,,,,,,,,,,,,,,,,,,,,,,,,,,,,,,,,,
1769161649.589008,1769161649.589408,93.0,0.0,4308.589844,4288.717773,4146.922852,4311.410156,4246.282227,4279.230957,4253.717773,4261.410156,4281.410156,4273.974121,4569.871582,4528.589844,4415.256348,4492.307617,,,,,,,,,,,,,,,,,,,,,,,,,,,,,,,,,,,,,,,,,,,,,,,,,,,,,,,,,,,,,,,,,,,,,,
1769161649.596817,1769161649.597117,94.0,0.0,4304.615234,4285.641113,4141.538574,4313.717773,4247.563965,4280.512695,4254.230957,4261.025879,4278.589844,4264.871582,4569.358887,4525.769043,4413.333496,4490.897461,1.261941,0.247137,0.20715,0.133543,0.127638,0.592921,0.128128,0.210729,0.161797,0.067697,0.593446,0.195825,0.225957,0.140297,0.104117,0.598484,0.227402,0.116647,0.166863,0.05544,0.685369,0.296001,0.111247,0.124352,0.034793,0.366415,0.715598,0.063914,0.150831,0.125958,0.133152,0.513764,0.108741,0.070497,0.090348,0.066783,0.113679,0.073369,0.07928,0.068309,0.483675,0.197457,0.222994,0.09445,0.088926,0.46959,0.331809,0.222437,0.122075,0.10793,0.4581,0.462759,0.346354,0.170354,0.137272,0.654525,0.501415,0.330216,0.25265,0.196641,0.783889,0.682081,0.299984,0.175892,0.170701,0.763811,0.610865,0.40632,0.272019,0.130738
1769161649.604625,1769161649.604925,95.0,0.0,4306.282227,4291.666504,4140.641113,4315.769043,4250.897461,4273.461426,4243.589844,4263.333496,4282.820313,4267.436035,4571.666504,4524.615234,4415.256348,4492.820313,,,,,,,,,,,,,,,,,,,,,,,,,,,,,,,,,,,,,,,,,,,,,,,,,,,,,,,,,,,,,,,,,,,,,,
1769161649.612434,1769161649.612534,96.0,0.0,4310.256348,4290.769043,4143.717773,4315.128418,4250.0,4273.846191,4250.256348,4263.974121,4284.102539,4268.077148,4569.230957,4523.205078,4411.538574,4490.128418,,,,,,,,,,,,,,,,,,,,,,,,,,,,,,,,,,,,,,,,,,,,,,,,,,,,,,,,,,,,,,,,,,,,,,
1769161649.620242,1769161649.620342,97.0,0.0,4310.769043,4288.077148,4149.230957,4318.589844,4249.358887,4281.666504,4261.794922,4263.974121,4280.897461,4266.666504,4569.871582,4530.641113,4413.846191,4488.974121,,,,,,,,,,,,,,,,,,,,,,,,,,,,,,,,,,,,,,,,,,,,,,,,,,,,,,,,,,,,,,,,,,,,,,
1769161649.628051,1769161649.628051,98.0,0.0,4312.05127,4290.512695,4152.94873,4322.307617,4252.179688,4277.820313,4252.820313,4264.102539,4285.128418,4269.615234,4575.128418,4541.410156,4426.153809,4493.589844,,,,,,,,,,,,,,,,,,,,,,,,,,,,,,,,,,,,,,,,,,,,,,,,,,,,,,,,,,,,,,,,,,,,,,
1769161649.635859,1769161649.635859,99.0,0.0,4312.820313,4288.846191,4151.794922,4319.871582,4252.05127,4268.077148,4246.410156,4261.922852,4292.05127,4268.846191,4574.871582,4536.922852,4426.282227,4495.384766,,,,,,,,,,,,,,,,,,,,,,,,,,,,,,,,,,,,,,,,,,,,,,,,,,,,,,,,,,,,,,,,,,,,,,
1769161649.643668,1769161649.643867,100.0,0.0,4309.615234,4286.153809,4152.05127,4320.0,4250.512695,4273.846191,4257.94873,4260.256348,4287.179688,4264.487305,4570.512695,4522.94873,4414.743652,4493.333496,,,,,,,,,,,,,,,,,,,,,,,,,,,,,,,,,,,,,,,,,,,,,,,,,,,,,,,,,,,,,,,,,,,,,,
1769161649.651476,1769161649.651676,101.0,0.0,4305.769043,4290.256348,4154.487305,4324.358887,4256.025879,4282.179688,4263.846191,4262.436035,4278.077148,4263.333496,4566.666504,4522.820313,4411.025879,4491.153809,,,,,,,,,,,,,,,,,,,,,,,,,,,,,,,,,,,,,,,,,,,,,,,,,,,,,,,,,,,,,,,,,,,,,,
1769161649.659284,1769161649.659584,102.0,0.0,4308.461426,4293.205078,4156.922852,4326.410156,4261.153809,4275.641113,4256.282227,4262.692383,4281.666504,4264.102539,4568.461426,4534.871582,4415.384766,4493.205078,,,,,,,,,,,,,,,,,,,,,,,,,,,,,,,,,,,,,,,,,,,,,,,,,,,,,,,,,,,,,,,,,,,,,,
1769161649.667093,1769161649.667393,103.0,0.0,4313.333496,4288.846191,4158.333496,4323.589844,4260.512695,4270.512695,4254.358887,4258.589844,4287.436035,4266.666504,4571.922852,4538.077148,4416.282227,4493.333496,,,,,,,,,,,,,,,,,,,,,,,,,,,,,,,,,,,,,,,,,,,,,,,,,,,,,,,,,,,,,,,,,,,,,,
1769161649.674901,1769161649.675401,104.0,0.0,4303.205078,4279.102539,4147.692383,4312.692383,4257.436035,4281.538574,4263.589844,4258.589844,4280.384766,4265.0,4560.641113,4523.077148,4403.077148,4475.769043,,,,,,,,,,,,,,,,,,,,,,,,,,,,,,,,,,,,,,,,,,,,,,,,,,,,,,,,,,,,,,,,,,,,,,
1769161649.68271,1769161649.683209,105.0,0.0,4293.589844,4274.871582,4139.487305,4307.179688,4253.717773,4283.589844,4266.538574,4260.384766,4276.538574,4263.589844,4550.769043,4515.512695,4396.153809,4462.05127,,,,,,,,,,,,,,,,,,,,,,,,,,,,,,,,,,,,,,,,,,,,,,,,,,,,,,,,,,,,,,,,,,,,,,
1769161649.690518,1769161649.690918,106.0,0.0,4303.333496,4283.333496,4149.743652,4317.94873,4249.358887,4267.94873,4260.0,4261.666504,4285.641113,4272.563965,4565.769043,4530.641113,4411.025879,4479.358887,,,,,,,,,,,,,,,,,,,,,,,,,,,,,,,,,,,,,,,,,,,,,,,,,,,,,,,,,,,,,,,,,,,,,,
1769161649.698327,1769161649.698726,107.0,0.0,4309.615234,4290.384766,4158.461426,4326.410156,4249.358887,4264.871582,4258.974121,4259.871582,4291.922852,4280.897461,4577.94873,4538.077148,4420.897461,4493.717773,,,,,,,,,,,,,,,,,,,,,,,,,,,,,,,,,,,,,,,,,,,,,,,,,,,,,,,,,,,,,,,,,,,,,,
1769161649.706135,1769161649.706734,108.0,0.0,4301.922852,4288.333496,4150.897461,4321.666504,4255.897461,4277.05127,4264.615234,4254.230957,4285.128418,4276.538574,4568.461426,4527.307617,4412.307617,4479.615234,,,,,,,,,,,,,,,,,,,,,,,,,,,,,,,,,,,,,,,,,,,,,,,,,,,,,,,,,,,,,,,,,,,,,,
1769161649.713944,1769161649.714543,109.0,0.0,4300.769043,4288.077148,4147.307617,4317.307617,4261.538574,4280.256348,4263.974121,4253.589844,4277.820313,4270.384766,4563.846191,4517.307617,4408.717773,4469.743652,,,,,,,,,,,,,,,,,,,,,,,,,,,,,,,,,,,,,,,,,,,,,,,,,,,,,,,,,,,,,,,,,,,,,,
1769161649.721752,1769161649.722251,110.0,0.0,4308.846191,4295.0,4156.282227,4323.974121,4262.307617,4274.871582,4258.589844,4260.0,4287.179688,4275.256348,4571.666504,4523.461426,4413.846191,4482.94873,1.159438,0.199113,0.213234,0.139812,0.134827,0.461648,0.107594,0.209719,0.166148,0.070845,0.53773,0.160666,0.253194,0.15501,0.12161,0.633813,0.193964,0.141179,0.174406,0.057694,0.675173,0.281907,0.113763,0.118239,0.034213,0.332684,0.643767,0.076285,0.142084,0.133036,0.114174,0.511935,0.071854,0.065288,0.094912,0.069259,0.118849,0.070397,0.080601,0.071436,0.516814,0.173876,0.214666,0.09927,0.094882,0.478822,0.399671,0.246163,0.15268,0.113181,0.481781,0.479777,0.367463,0.155035,0.139472,0.634273,0.47454,0.3196,0.263782,0.193887,0.789312,0.696341,0.348196,0.159251,0.163689,0.756934,0.498025,0.518367,0.267793,0.12539
1769161649.729561,1769161649.73006,111.0,0.0,4311.538574,4297.179688,4158.589844,4327.94873,4261.666504,4277.436035,4261.410156,4264.102539,4296.410156,4280.512695,4574.230957,4535.128418,4413.974121,4493.205078,,,,,,,,,,,,,,,,,,,,,,,,,,,,,,,,,,,,,,,,,,,,,,,,,,,,,,,,,,,,,,,,,,,,,,
1769161649.737369,1769161649.737669,112.0,0.0,4308.205078,4291.410156,4152.692383,4321.025879,4263.077148,4279.615234,4266.410156,4259.102539,4286.538574,4277.05127,4570.769043,4533.846191,4411.794922,4486.794922,,,,,,,,,,,,,,,,,,,,,,,,,,,,,,,,,,,,,,,,,,,,,,,,,,,,,,,,,,,,,,,,,,,,,,
1769161649.745177,1769161649.745477,113.0,0.0,4304.871582,4287.692383,4151.025879,4317.94873,4262.179688,4275.256348,4264.615234,4253.846191,4276.666504,4273.589844,4567.820313,4526.025879,4411.922852,4478.461426,,,,,,,,,,,,,,,,,,,,,,,,,,,,,,,,,,,,,,,,,,,,,,,,,,,,,,,,,,,,,,,,,,,,,,
1769161649.752986,1769161649.753186,114.0,0.0,4307.179688,4286.794922,4155.512695,4323.717773,4259.102539,4272.820313,4260.128418,4251.025879,4280.128418,4273.077148,4568.589844,4523.974121,4412.692383,4475.128418,,,,,,,,,,,,,,,,,,,,,,,,,,,,,,,,,,,,,,,,,,,,,,,,,,,,,,,,,,,,,,,,,,,,,,
1769161649.760795,1769161649.760994,115.0,0.0,4311.410156,4292.179688,4158.846191,4325.128418,4258.717773,4271.794922,4259.230957,4248.717773,4280.0,4270.0,4570.641113,4525.512695,4412.563965,4475.641113,,,,,,,,,,,,,,,,,,,,,,,,,,,,,,,,,,,,,,,,,,,,,,,,,,,,,,,,,,,,,,,,,,,,,,
1769161649.768603,1769161649.768603,116.0,0.0,4308.589844,4291.794922,4156.282227,4318.205078,4259.487305,4276.025879,4264.230957,4249.487305,4271.153809,4261.025879,4567.94873,4523.846191,4409.871582,4478.077148,,,,,,,,,,,,,,,,,,,,,,,,,,,,,,,,,,,,,,,,,,,,,,,,,,,,,,,,,,,,,,,,,,,,,,
1769161649.776411,1769161649.776411,117.0,0.0,4304.743652,4282.563965,4153.077148,4315.512695,4261.282227,4280.0,4266.922852,4250.641113,4272.820313,4261.282227,4566.794922,4525.384766,4410.384766,4486.410156,,,,,,,,,,,,,,,,,,,,,,,,,,,,,,,,,,,,,,,,,,,,,,,,,,,,,,,,,,,,,,,,,,,,,,
1769161649.78422,1769161649.784319,118.0,0.0,4304.487305,4286.410156,4158.974121,4318.974121,4262.436035,4273.717773,4262.563965,4250.512695,4281.538574,4273.333496,4571.666504,4529.615234,4415.384766,4491.025879,,,,,,,,,,,,,,,,,,,,,,,,,,,,,,,,,,,,,,,,,,,,,,,,,,,,,,,,,,,,,,,,,,,,,,
1769161649.792028,1769161649.792128,119.0,0.0,4302.563965,4292.05127,4167.436035,4319.615234,4262.179688,4273.974121,4261.025879,4249.871582,4281.922852,4274.230957,4571.666504,4527.05127,4414.743652,4480.512695,,,,,,,,,,,,,,,,,,,,,,,,,,,,,,,,,,,,,,,,,,,,,,,,,,,,,,,,,,,,,,,,,,,,,,
1769161649.799837,1769161649.799737,120.0,0.0,4303.333496,4283.333496,4166.922852,4320.512695,4261.666504,4278.461426,4264.487305,4251.538574,4277.307617,4267.436035,4567.692383,4524.487305,4411.025879,4477.179688,,,,,,,,,,,,,,,,,,,,,,,,,,,,,,,,,,,,,,,,,,,,,,,,,,,,,,,,,,,,,,,,,,,,,,
1769161649.807645,1769161649.807545,121.0,0.0,4310.897461,4283.205078,4165.769043,4319.102539,4262.179688,4268.717773,4261.410156,4252.563965,4278.205078,4274.230957,4570.641113,4526.025879,4417.179688,4490.512695,,,,,,,,,,,,,,,,,,,,,,,,,,,,,,,,,,,,,,,,,,,,,,,,,,,,,,,,,,,,,,,,,,,,,,
1769161649.815454,1769161649.815254,122.0,0.0,4307.94873,4292.563965,4169.102539,4313.205078,4263.205078,4260.256348,4258.333496,4251.666504,4282.94873,4284.102539,4574.615234,4526.794922,4422.179688,4491.282227,,,,,,,,,,,,,,,,,,,,,,,,,,,,,,,,,,,,,,,,,,,,,,,,,,,,,,,,,,,,,,,,,,,,,,
1769161649.823262,1769161649.823062,123.0,0.0,4297.436035,4288.333496,4168.461426,4313.717773,4263.333496,4266.922852,4264.102539,4251.410156,4278.077148,4277.05127,4570.384766,4523.333496,4415.384766,4481.282227,,,,,,,,,,,,,,,,,,,,,,,,,,,,,,,,,,,,,,,,,,,,,,,,,,,,,,,,,,,,,,,,,,,,,,
1769161649.831071,1769161649.830671,124.0,0.0,4300.384766,4282.436035,4168.717773,4319.358887,4262.563965,4268.461426,4267.436035,4250.128418,4267.563965,4267.307617,4565.0,4521.538574,4411.922852,4485.769043,,,,,,,,,,,,,,,,,,,,,,,,,,,,,,,,,,,,,,,,,,,,,,,,,,,,,,,,,,,,,,,,,,,,,,
1769161649.838879,1769161649.838479,125.0,0.0,4306.410156,4283.461426,4170.897461,4315.897461,4260.769043,4263.205078,4264.230957,4250.256348,4264.230957,4266.153809,4566.282227,4522.94873,4414.487305,4491.922852,,,,,,,,,,,,,,,,,,,,,,,,,,,,,,,,,,,,,,,,,,,,,,,,,,,,,,,,,,,,,,,,,,,,,,
1769161649.846687,1769161649.846387,126.0,0.0,4303.846191,4282.436035,4172.94873,4309.871582,4260.769043,4268.205078,4264.743652,4250.384766,4265.512695,4264.230957,4568.461426,4523.846191,4412.307617,4488.974121,0.979606,0.191301,0.258842,0.146693,0.140904,0.322496,0.100077,0.212036,0.163056,0.0759,0.537251,0.161098,0.286236,0.172453,0.135371,0.628722,0.181786,0.181213,0.177965,0.060338,0.639513,0.240681,0.105063,0.107401,0.033395,0.286413,0.578754,0.099528,0.129509,0.142091,0.106452,0.508486,0.046332,0.066282,0.105847,0.079862,0.114263,0.064968,0.079151,0.068634,0.529853,0.152275,0.202327,0.105778,0.095773,0.455296,0.454618,0.251687,0.180267,0.119593,0.510821,0.500775,0.367008,0.140703,0.142749,0.62827,0.491457,0.315245,0.273113,0.182698,0.770636,0.665929,0.378199,0.156292,0.159279,0.753141,0.412736,0.595816,0.257317,0.121936
1769161649.854496,1769161649.854196,127.0,0.0,4301.794922,4283.461426,4176.025879,4311.794922,4262.563965,4274.358887,4270.128418,4250.641113,4265.897461,4262.692383,4566.666504,4526.922852,4409.871582,4490.641113,,,,,,,,,,,,,,,,,,,,,,,,,,,,,,,,,,,,,,,,,,,,,,,,,,,,,,,,,,,,,,,,,,,,,,
1769161649.862304,1769161649.862204,0.0,0.0,4299.743652,4282.05127,4176.922852,4312.692383,4263.333496,4275.512695,4277.563965,4254.102539,4265.769043,4263.077148,4565.641113,4526.282227,4411.282227,4490.384766,,,,,,,,,,,,,,,,,,,,,,,,,,,,,,,,,,,,,,,,,,,,,,,,,,,,,,,,,,,,,,,,,,,,,,
1769161649.870113,1769161649.870013,1.0,0.0,4296.153809,4276.666504,4175.128418,4309.358887,4263.333496,4278.846191,4277.563965,4257.436035,4266.153809,4261.538574,4567.94873,4522.179688,4410.769043,4486.153809,,,,,,,,,,,,,,,,,,,,,,,,,,,,,,,,,,,,,,,,,,,,,,,,,,,,,,,,,,,,,,,,,,,,,,
1769161649.877921,1769161649.877921,2.0,0.0,4301.153809,4282.563965,4181.794922,4312.692383,4266.025879,4278.461426,4268.077148,4258.717773,4272.820313,4266.282227,4571.410156,4529.102539,4413.205078,4490.512695,,,,,,,,,,,,,,,,,,,,,,,,,,,,,,,,,,,,,,,,,,,,,,,,,,,,,,,,,,,,,,,,,,,,,,
1769161649.88573,1769161649.885729,3.0,0.0,4309.487305,4289.487305,4194.871582,4317.436035,4268.205078,4274.102539,4269.487305,4259.743652,4276.282227,4274.230957,4573.205078,4538.717773,4417.563965,4494.871582,,,,,,,,,,,,,,,,,,,,,,,,,,,,,,,,,,,,,,,,,,,,,,,,,,,,,,,,,,,,,,,,,,,,,,
1769161649.893538,1769161649.893738,4.0,0.0,4304.615234,4285.128418,4195.384766,4314.358887,4266.025879,4273.461426,4276.153809,4258.333496,4267.692383,4270.641113,4571.922852,4535.512695,4414.743652,4492.307617,,,,,,,,,,,,,,,,,,,,,,,,,,,,,,,,,,,,,,,,,,,,,,,,,,,,,,,,,,,,,,,,,,,,,,
1769161649.901347,1769161649.901546,5.0,0.0,4295.128418,4284.743652,4185.769043,4308.974121,4267.307617,4276.794922,4273.974121,4257.05127,4266.922852,4264.615234,4570.384766,4530.641113,4411.025879,4491.282227,,,,,,,,,,,,,,,,,,,,,,,,,,,,,,,,,,,,,,,,,,,,,,,,,,,,,,,,,,,,,,,,,,,,,,
1769161649.909155,1769161649.909454,6.0,0.0,4294.871582,4288.589844,4186.282227,4309.230957,4273.846191,4275.0,4275.384766,4261.025879,4279.487305,4273.461426,4571.153809,4534.487305,4413.717773,4492.05127,,,,,,,,,,,,,,,,,,,,,,,,,,,,,,,,,,,,,,,,,,,,,,,,,,,,,,,,,,,,,,,,,,,,,,
1769161649.916963,1769161649.917263,7.0,0.0,4298.205078,4285.0,4196.794922,4311.025879,4275.128418,4271.538574,4279.743652,4264.102539,4281.025879,4278.333496,4571.282227,4537.820313,4415.384766,4491.666504,,,,,,,,,,,,,,,,,,,,,,,,,,,,,,,,,,,,,,,,,,,,,,,,,,,,,,,,,,,,,,,,,,,,,,
1769161649.924772,1769161649.925271,8.0,0.0,4297.563965,4279.871582,4202.563965,4309.102539,4267.820313,4275.641113,4282.307617,4262.563965,4275.384766,4267.692383,4569.615234,4538.205078,4412.563965,4491.025879,,,,,,,,,,,,,,,,,,,,,,,,,,,,,,,,,,,,,,,,,,,,,,,,,,,,,,,,,,,,,,,,,,,,,,
1769161649.93258,1769161649.93308,9.0,0.0,4293.717773,4280.256348,4199.230957,4307.692383,4264.358887,4280.769043,4287.563965,4262.692383,4278.077148,4266.282227,4569.615234,4539.230957,4411.666504,4491.922852,,,,,,,,,,,,,,,,,,,,,,,,,,,,,,,,,,,,,,,,,,,,,,,,,,,,,,,,,,,,,,,,,,,,,,
1769161649.940389,1769161649.940788,10.0,0.0,4292.692383,4281.282227,4199.615234,4308.717773,4270.0,4274.487305,4288.846191,4265.897461,4280.384766,4273.846191,4570.384766,4539.358887,4413.717773,4492.179688,,,,,,,,,,,,,,,,,,,,,,,,,,,,,,,,,,,,,,,,,,,,,,,,,,,,,,,,,,,,,,,,,,,,,,
1769161649.948197,1769161649.948597,11.0,0.0,4295.641113,4281.153809,4207.179688,4310.256348,4271.410156,4265.384766,4282.436035,4266.922852,4279.871582,4271.025879,4570.0,4539.230957,4414.358887,4490.0,,,,,,,,,,,,,,,,,,,,,,,,,,,,,,,,,,,,,,,,,,,,,,,,,,,,,,,,,,,,,,,,,,,,,,
1769161649.956006,1769161649.956205,12.0,0.0,4299.102539,4282.436035,4215.512695,4312.692383,4267.436035,4265.256348,4280.897461,4262.05127,4275.512695,4265.897461,4568.974121,4538.717773,4412.179688,4490.384766,,,,,,,,,,,,,,,,,,,,,,,,,,,,,,,,,,,,,,,,,,,,,,,,,,,,,,,,,,,,,,,,,,,,,,
1769161649.963814,1769161649.964014,13.0,0.0,4297.179688,4282.94873,4218.077148,4312.692383,4265.769043,4267.94873,4284.230957,4258.205078,4266.794922,4265.641113,4570.512695,4539.487305,4411.538574,4492.94873,,,,,,,,,,,,,,,,,,,,,,,,,,,,,,,,,,,,,,,,,,,,,,,,,,,,,,,,,,,,,,,,,,,,,,
1769161649.971623,1769161649.971722,14.0,0.0,4294.358887,4282.563965,4215.384766,4310.641113,4267.307617,4270.641113,4290.128418,4261.666504,4265.256348,4265.512695,4570.512695,4539.615234,4411.410156,4491.538574,0.766589,0.210073,0.319806,0.152527,0.144487,0.215136,0.098787,0.211672,0.151795,0.080808,0.53895,0.18507,0.314225,0.185762,0.142634,0.593068,0.180691,0.224679,0.175645,0.063114,0.595675,0.184708,0.090514,0.094846,0.032535,0.242881,0.53045,0.131361,0.118741,0.152468,0.110972,0.496578,0.035104,0.07355,0.120467,0.097798,0.101505,0.060962,0.075833,0.061179,0.536178,0.145772,0.188417,0.112925,0.092862,0.422286,0.489871,0.240067,0.199012,0.123702,0.549648,0.508124,0.338306,0.129893,0.144855,0.656434,0.529498,0.304083,0.27837,0.167262,0.74368,0.600103,0.383746,0.168644,0.156632,0.754041,0.355839,0.613291,0.245617,0.11868
1769161649.979431,1769161649.979531,15.0,0.0,4293.717773,4279.487305,4216.794922,4308.333496,4268.589844,4273.077148,4294.615234,4265.384766,4267.820313,4263.461426,4565.0,4536.666504,4407.05127,4489.743652,,,,,,,,,,,,,,,,,,,,,,,,,,,,,,,,,,,,,,,,,,,,,,,,,,,,,,,,,,,,,,,,,,,,,,
1769161649.987239,1769161649.987539,16.0,0.0,4294.230957,4276.922852,4225.769043,4309.743652,4271.025879,4269.743652,4290.897461,4263.461426,4265.897461,4265.897461,4563.461426,4536.410156,4405.897461,4492.563965,,,,,,,,,,,,,,,,,,,,,,,,,,,,,,,,,,,,,,,,,,,,,,,,,,,,,,,,,,,,,,,,,,,,,,
1769161649.995048,1769161649.995347,17.0,0.0,4297.436035,4281.666504,4233.589844,4313.846191,4271.538574,4263.205078,4287.94873,4262.307617,4269.230957,4270.897461,4571.410156,4540.512695,4411.282227,4495.769043,,,,,,,,,,,,,,,,,,,,,,,,,,,,,,,,,,,,,,,,,,,,,,,,,,,,,,,,,,,,,,,,,,,,,,
1769161650.002856,1769161650.003056,18.0,0.0,4298.077148,4280.0,4234.358887,4310.0,4268.205078,4266.410156,4292.820313,4265.128418,4277.692383,4272.05127,4574.230957,4541.025879,4413.589844,4494.358887,,,,,,,,,,,,,,,,,,,,,,,,,,,,,,,,,,,,,,,,,,,,,,,,,,,,,,,,,,,,,,,,,,,,,,
1769161650.010665,1769161650.010864,19.0,0.0,4293.461426,4268.717773,4230.512695,4302.436035,4265.897461,4272.692383,4294.871582,4264.358887,4274.487305,4267.179688,4566.410156,4533.717773,4410.641113,4490.128418,,,,,,,,,,,,,,,,,,,,,,,,,,,,,,,,,,,,,,,,,,,,,,,,,,,,,,,,,,,,,,,,,,,,,,
1769161650.018473,1769161650.018873,20.0,0.0,4292.179688,4269.487305,4232.05127,4303.205078,4263.974121,4272.820313,4295.769043,4262.179688,4266.922852,4263.717773,4564.230957,4531.025879,4409.230957,4487.820313,,,,,,,,,,,,,,,,,,,,,,,,,,,,,,,,,,,,,,,,,,,,,,,,,,,,,,,,,,,,,,,,,,,,,,
1769161650.026282,1769161650.026681,21.0,0.0,4295.128418,4279.615234,4241.538574,4308.846191,4266.666504,4274.871582,4297.307617,4265.0,4273.333496,4270.641113,4571.794922,4539.102539,4412.563965,4490.769043,,,,,,,,,,,,,,,,,,,,,,,,,,,,,,,,,,,,,,,,,,,,,,,,,,,,,,,,,,,,,,,,,,,,,,
1769161650.03409,1769161650.03439,22.0,0.0,4296.282227,4281.282227,4248.846191,4311.538574,4274.743652,4276.282227,4295.0,4269.102539,4280.897461,4278.333496,4575.769043,4545.0,4418.205078,4493.974121,,,,,,,,,,,,,,,,,,,,,,,,,,,,,,,,,,,,,,,,,,,,,,,,,,,,,,,,,,,,,,,,,,,,,,
1769161650.041899,1769161650.042198,23.0,0.0,4292.563965,4277.307617,4247.563965,4310.769043,4277.179688,4277.05127,4296.025879,4266.538574,4270.0,4270.384766,4571.410156,4539.358887,4415.769043,4491.410156,,,,,,,,,,,,,,,,,,,,,,,,,,,,,,,,,,,,,,,,,,,,,,,,,,,,,,,,,,,,,,,,,,,,,,
1769161650.049707,1769161650.050206,24.0,0.0,4289.358887,4275.897461,4244.615234,4307.179688,4272.820313,4277.820313,4297.436035,4262.179688,4260.512695,4263.077148,4568.077148,4534.743652,4407.94873,4488.846191,,,,,,,,,,,,,,,,,,,,,,,,,,,,,,,,,,,,,,,,,,,,,,,,,,,,,,,,,,,,,,,,,,,,,,
1769161650.057516,1769161650.058015,25.0,0.0,4292.05127,4275.256348,4247.692383,4304.615234,4272.307617,4271.025879,4294.487305,4268.461426,4270.897461,4272.563965,4571.666504,4537.94873,4408.846191,4490.256348,,,,,,,,,,,,,,,,,,,,,,,,,,,,,,,,,,,,,,,,,,,,,,,,,,,,,,,,,,,,,,,,,,,,,,
1769161650.065324,1769161650.065923,26.0,0.0,4296.410156,4276.153809,4255.0,4307.179688,4279.102539,4262.179688,4292.692383,4276.025879,4280.897461,4276.410156,4573.077148,4539.102539,4414.102539,4487.436035,,,,,,,,,,,,,,,,,,,,,,,,,,,,,,,,,,,,,,,,,,,,,,,,,,,,,,,,,,,,,,,,,,,,,,
1769161650.073132,1769161650.073731,27.0,0.0,4293.846191,4276.410156,4262.05127,4309.230957,4282.436035,4264.487305,4295.897461,4271.538574,4274.743652,4264.743652,4570.512695,4536.410156,4413.077148,4483.974121,,,,,,,,,,,,,,,,,,,,,,,,,,,,,,,,,,,,,,,,,,,,,,,,,,,,,,,,,,,,,,,,,,,,,,
1769161650.080941,1769161650.08174,28.0,0.0,4291.666504,4273.333496,4262.820313,4308.205078,4279.358887,4268.589844,4297.563965,4265.128418,4267.692383,4262.436035,4570.769043,4531.025879,4410.641113,4489.102539,,,,,,,,,,,,,,,,,,,,,,,,,,,,,,,,,,,,,,,,,,,,,,,,,,,,,,,,,,,,,,,,,,,,,,
1769161650.088749,1769161650.089548,29.0,0.0,4295.0,4275.0,4263.205078,4308.077148,4277.563965,4262.94873,4296.282227,4266.410156,4267.820313,4268.205078,4572.436035,4525.897461,4412.563965,4492.692383,,,,,,,,,,,,,,,,,,,,,,,,,,,,,,,,,,,,,,,,,,,,,,,,,,,,,,,,,,,,,,,,,,,,,,
1769161650.096558,1769161650.097457,30.0,0.0,4294.358887,4278.461426,4272.179688,4309.230957,4279.743652,4263.333496,4296.025879,4266.922852,4266.025879,4264.871582,4568.589844,4527.436035,4413.974121,4486.666504,0.573095,0.231985,0.36667,0.155452,0.145689,0.165354,0.098198,0.204781,0.13437,0.085246,0.56715,0.212996,0.329518,0.188611,0.143977,0.540688,0.17919,0.254681,0.166579,0.066642,0.559444,0.128659,0.080582,0.084226,0.031743,0.217263,0.48959,0.168545,0.113734,0.163031,0.130488,0.469983,0.036718,0.084322,0.137637,0.129319,0.086548,0.061345,0.072828,0.051825,0.546674,0.159909,0.176038,0.118956,0.090715,0.397823,0.50809,0.220182,0.207143,0.125541,0.596416,0.486024,0.28612,0.122295,0.146822,0.714099,0.553806,0.275749,0.277017,0.156848,0.716195,0.51256,0.366902,0.188966,0.155921,0.749941,0.315136,0.569619,0.238342,0.120359
1769161650.104366,1769161650.105265,31.0,0.0,4291.025879,4278.077148,4278.461426,4309.743652,4279.358887,4266.153809,4296.025879,4265.0,4263.205078,4262.307617,4565.641113,4535.769043,4412.05127,4484.358887,,,,,,,,,,,,,,,,,,,,,,,,,,,,,,,,,,,,,,,,,,,,,,,,,,,,,,,,,,,,,,,,,,,,,,
1769161650.112175,1769161650.112874,32.0,0.0,4290.512695,4276.410156,4281.025879,4308.717773,4275.897461,4263.461426,4301.794922,4267.307617,4261.794922,4263.974121,4567.179688,4537.94873,4411.025879,4488.717773,,,,,,,,,,,,,,,,,,,,,,,,,,,,,,,,,,,,,,,,,,,,,,,,,,,,,,,,,,,,,,,,,,,,,,
1769161650.119983,1769161650.120682,33.0,0.0,4288.974121,4276.794922,4287.179688,4307.436035,4276.025879,4267.436035,4310.641113,4266.153809,4263.077148,4262.05127,4565.0,4528.205078,4412.05127,4488.205078,,,,,,,,,,,,,,,,,,,,,,,,,,,,,,,,,,,,,,,,,,,,,,,,,,,,,,,,,,,,,,,,,,,,,,
1769161650.127792,1769161650.128391,34.0,0.0,4288.205078,4277.94873,4290.384766,4308.974121,4279.487305,4274.487305,4312.307617,4264.358887,4263.717773,4261.282227,4562.94873,4523.333496,4412.307617,4486.153809,,,,,,,,,,,,,,,,,,,,,,,,,,,,,,,,,,,,,,,,,,,,,,,,,,,,,,,,,,,,,,,,,,,,,,
1769161650.1356,1769161650.136199,35.0,0.0,4291.153809,4277.563965,4293.461426,4310.769043,4281.153809,4273.333496,4309.615234,4269.871582,4265.512695,4264.102539,4567.820313,4532.307617,4412.179688,4488.717773,,,,,,,,,,,,,,,,,,,,,,,,,,,,,,,,,,,,,,,,,,,,,,,,,,,,,,,,,,,,,,,,,,,,,,
1769161650.143408,1769161650.143808,36.0,0.0,4298.589844,4283.205078,4307.307617,4311.282227,4281.666504,4267.820313,4309.358887,4269.871582,4270.897461,4267.179688,4572.307617,4541.794922,4414.743652,4492.179688,,,,,,,,,,,,,,,,,,,,,,,,,,,,,,,,,,,,,,,,,,,,,,,,,,,,,,,,,,,,,,,,,,,,,,
1769161650.151217,1769161650.151616,37.0,0.0,4300.384766,4287.820313,4317.307617,4311.794922,4281.538574,4266.025879,4310.512695,4264.743652,4271.282227,4267.179688,4570.641113,4536.153809,4416.153809,4494.743652,,,,,,,,,,,,,,,,,,,,,,,,,,,,,,,,,,,,,,,,,,,,,,,,,,,,,,,,,,,,,,,,,,,,,,
1769161650.159025,1769161650.159325,38.0,0.0,4286.666504,4277.436035,4311.538574,4308.461426,4277.05127,4266.666504,4309.487305,4273.077148,4266.794922,4264.615234,4567.94873,4525.384766,4413.333496,4493.589844,,,,,,,,,,,,,,,,,,,,,,,,,,,,,,,,,,,,,,,,,,,,,,,,,,,,,,,,,,,,,,,,,,,,,,
1769161650.166834,1769161650.167133,39.0,0.0,4277.692383,4269.615234,4310.128418,4304.102539,4273.846191,4265.128418,4304.230957,4281.282227,4264.615234,4263.974121,4567.563965,4524.871582,4410.897461,4484.102539,,,,,,,,,,,,,,,,,,,,,,,,,,,,,,,,,,,,,,,,,,,,,,,,,,,,,,,,,,,,,,,,,,,,,,
1769161650.174642,1769161650.175141,40.0,0.0,4286.538574,4277.307617,4322.692383,4306.282227,4277.179688,4262.307617,4301.410156,4273.205078,4263.717773,4264.230957,4568.077148,4525.897461,4410.897461,4478.974121,,,,,,,,,,,,,,,,,,,,,,,,,,,,,,,,,,,,,,,,,,,,,,,,,,,,,,,,,,,,,,,,,,,,,,
1769161650.182451,1769161650.18295,41.0,0.0,4290.0,4281.538574,4335.897461,4311.410156,4280.641113,4264.871582,4306.794922,4271.538574,4262.692383,4262.436035,4568.333496,4523.974121,4412.05127,4489.230957,,,,,,,,,,,,,,,,,,,,,,,,,,,,,,,,,,,,,,,,,,,,,,,,,,,,,,,,,,,,,,,,,,,,,,
1769161650.190259,1769161650.190858,42.0,0.0,4281.025879,4279.358887,4339.487305,4312.307617,4280.384766,4270.0,4311.794922,4280.384766,4263.717773,4261.025879,4564.743652,4529.358887,4411.410156,4492.563965,,,,,,,,,,,,,,,,,,,,,,,,,,,,,,,,,,,,,,,,,,,,,,,,,,,,,,,,,,,,,,,,,,,,,,
1769161650.198068,1769161650.198667,43.0,0.0,4277.692383,4276.410156,4338.077148,4310.0,4279.230957,4268.205078,4311.922852,4280.769043,4265.512695,4263.974121,4560.897461,4535.512695,4408.461426,4478.846191,,,,,,,,,,,,,,,,,,,,,,,,,,,,,,,,,,,,,,,,,,,,,,,,,,,,,,,,,,,,,,,,,,,,,,
1769161650.205876,1769161650.206275,44.0,0.0,4278.846191,4267.179688,4341.666504,4306.025879,4277.307617,4265.128418,4310.769043,4277.436035,4265.256348,4265.641113,4558.205078,4529.615234,4402.307617,4472.179688,,,,,,,,,,,,,,,,,,,,,,,,,,,,,,,,,,,,,,,,,,,,,,,,,,,,,,,,,,,,,,,,,,,,,,
1769161650.213685,1769161650.214084,45.0,0.0,4277.563965,4265.641113,4348.333496,4304.743652,4274.743652,4267.692383,4312.692383,4277.307617,4264.358887,4262.307617,4555.512695,4523.077148,4400.256348,4475.256348,,,,,,,,,,,,,,,,,,,,,,,,,,,,,,,,,,,,,,,,,,,,,,,,,,,,,,,,,,,,,,,,,,,,,,
1769161650.221493,1769161650.221792,46.0,0.0,4280.512695,4278.077148,4356.025879,4310.256348,4277.05127,4268.077148,4313.205078,4273.717773,4263.077148,4262.94873,4560.769043,4528.589844,4409.615234,4477.307617,0.439838,0.238524,0.38117,0.15493,0.146022,0.163216,0.09923,0.192708,0.115278,0.090078,0.578644,0.227068,0.330176,0.178276,0.142743,0.479341,0.172931,0.261262,0.152482,0.071906,0.529363,0.085381,0.084903,0.078054,0.031206,0.217903,0.440961,0.206404,0.11528,0.172445,0.158394,0.424066,0.046594,0.094174,0.155834,0.174137,0.074672,0.067265,0.071774,0.043446,0.572569,0.195889,0.169485,0.1223,0.094894,0.388213,0.521342,0.202162,0.206122,0.127855,0.636085,0.431359,0.223792,0.115303,0.150218,0.786821,0.533965,0.230065,0.266349,0.159099,0.681492,0.421766,0.334404,0.204593,0.156691,0.73716,0.281449,0.485025,0.235952,0.132894
1769161650.229302,1769161650.229601,47.0,0.0,4284.230957,4282.563965,4362.692383,4313.589844,4280.641113,4264.230957,4310.256348,4272.820313,4264.102539,4264.871582,4567.05127,4536.153809,4415.256348,4485.128418,,,,,,,,,,,,,,,,,,,,,,,,,,,,,,,,,,,,,,,,,,,,,,,,,,,,,,,,,,,,,,,,,,,,,,
1769161650.23711,1769161650.237609,48.0,0.0,4285.769043,4276.922852,4366.153809,4310.512695,4275.128418,4266.538574,4310.641113,4272.179688,4262.307617,4257.307617,4562.692383,4535.256348,4407.436035,4490.0,,,,,,,,,,,,,,,,,,,,,,,,,,,,,,,,,,,,,,,,,,,,,,,,,,,,,,,,,,,,,,,,,,,,,,
1769161650.244918,1769161650.245417,49.0,0.0,4290.0,4278.205078,4372.94873,4310.0,4270.256348,4262.692383,4311.666504,4266.025879,4257.692383,4253.846191,4561.153809,4534.871582,4405.256348,4488.461426,,,,,,,,,,,,,,,,,,,,,,,,,,,,,,,,,,,,,,,,,,,,,,,,,,,,,,,,,,,,,,,,,,,,,,
1769161650.252727,1769161650.253326,50.0,0.0,4297.563965,4282.563965,4382.307617,4313.589844,4273.589844,4251.153809,4308.589844,4266.666504,4259.743652,4262.563965,4569.230957,4538.461426,4413.461426,4490.256348,,,,,,,,,,,,,,,,,,,,,,,,,,,,,,,,,,,,,,,,,,,,,,,,,,,,,,,,,,,,,,,,,,,,,,
1769161650.260535,1769161650.261134,51.0,0.0,4295.641113,4278.589844,4381.538574,4311.794922,4273.205078,4252.563965,4306.025879,4270.256348,4263.333496,4264.743652,4568.717773,4533.717773,4414.230957,4487.05127,,,,,,,,,,,,,,,,,,,,,,,,,,,,,,,,,,,,,,,,,,,,,,,,,,,,,,,,,,,,,,,,,,,,,,
1769161650.268344,1769161650.269142,52.0,0.0,4285.128418,4274.743652,4380.0,4309.487305,4267.820313,4262.692383,4313.846191,4272.05127,4262.05127,4259.230957,4564.871582,4528.077148,4409.102539,4481.282227,,,,,,,,,,,,,,,,,,,,,,,,,,,,,,,,,,,,,,,,,,,,,,,,,,,,,,,,,,,,,,,,,,,,,,
1769161650.276152,1769161650.276951,53.0,0.0,4286.794922,4281.282227,4391.282227,4314.487305,4271.153809,4265.384766,4321.025879,4275.384766,4260.769043,4261.410156,4569.358887,4536.666504,4410.897461,4487.94873,,,,,,,,,,,,,,,,,,,,,,,,,,,,,,,,,,,,,,,,,,,,,,,,,,,,,,,,,,,,,,,,,,,,,,
1769161650.283961,1769161650.284859,54.0,0.0,4299.487305,4287.436035,4400.897461,4318.205078,4274.615234,4263.333496,4315.769043,4273.333496,4263.461426,4267.05127,4573.717773,4540.769043,4417.05127,4495.769043,,,,,,,,,,,,,,,,,,,,,,,,,,,,,,,,,,,,,,,,,,,,,,,,,,,,,,,,,,,,,,,,,,,,,,
1769161650.291769,1769161650.292668,55.0,0.0,4297.307617,4279.871582,4398.717773,4311.794922,4267.94873,4262.94873,4309.487305,4265.512695,4263.974121,4264.487305,4570.128418,4527.820313,4415.128418,4486.410156,,,,,,,,,,,,,,,,,,,,,,,,,,,,,,,,,,,,,,,,,,,,,,,,,,,,,,,,,,,,,,,,,,,,,,
1769161650.299578,1769161650.300376,56.0,0.0,4283.205078,4269.230957,4394.102539,4303.461426,4264.871582,4263.589844,4312.563965,4265.0,4255.256348,4254.871582,4557.94873,4518.077148,4402.820313,4472.820313,,,,,,,,,,,,,,,,,,,,,,,,,,,,,,,,,,,,,,,,,,,,,,,,,,,,,,,,,,,,,,,,,,,,,,
1769161650.307386,1769161650.308185,57.0,0.0,4283.077148,4275.897461,4401.153809,4306.794922,4267.692383,4264.358887,4314.615234,4265.512695,4251.410156,4252.307617,4552.820313,4522.179688,4399.743652,4478.461426,,,,,,,,,,,,,,,,,,,,,,,,,,,,,,,,,,,,,,,,,,,,,,,,,,,,,,,,,,,,,,,,,,,,,,
1769161650.315194,1769161650.315893,58.0,0.0,4288.333496,4281.794922,4413.589844,4313.205078,4266.922852,4263.333496,4310.769043,4262.563965,4258.846191,4260.384766,4564.102539,4525.384766,4406.025879,4492.179688,,,,,,,,,,,,,,,,,,,,,,,,,,,,,,,,,,,,,,,,,,,,,,,,,,,,,,,,,,,,,,,,,,,,,,
1769161650.323003,1769161650.323702,59.0,0.0,4280.384766,4272.179688,4413.589844,4308.333496,4269.230957,4264.743652,4315.384766,4269.487305,4263.974121,4261.153809,4569.230957,4525.384766,4405.256348,4488.333496,,,,,,,,,,,,,,,,,,,,,,,,,,,,,,,,,,,,,,,,,,,,,,,,,,,,,,,,,,,,,,,,,,,,,,
1769161650.330811,1769161650.33131,60.0,0.0,4273.717773,4268.846191,4411.794922,4302.05127,4277.05127,4272.820313,4325.384766,4279.358887,4268.077148,4259.230957,4563.589844,4531.410156,4402.94873,4480.0,,,,,,,,,,,,,,,,,,,,,,,,,,,,,,,,,,,,,,,,,,,,,,,,,,,,,,,,,,,,,,,,,,,,,,
1769161650.33862,1769161650.339119,61.0,0.0,4282.94873,4279.230957,4427.179688,4308.077148,4277.94873,4274.102539,4321.153809,4281.538574,4277.94873,4272.692383,4574.102539,4541.794922,4413.974121,4496.282227,,,,,,,,,,,,,,,,,,,,,,,,,,,,,,,,,,,,,,,,,,,,,,,,,,,,,,,,,,,,,,,,,,,,,,
1769161650.346428,1769161650.346827,62.0,0.0,4295.128418,4282.94873,4441.025879,4315.641113,4267.307617,4265.0,4309.743652,4280.0,4277.692383,4281.282227,4588.205078,4546.025879,4424.230957,4510.512695,0.363864,0.22596,0.360605,0.150409,0.147191,0.194671,0.104957,0.179397,0.099201,0.096824,0.565055,0.220691,0.318756,0.156339,0.143392,0.418707,0.164961,0.243787,0.136597,0.079199,0.500265,0.059442,0.105925,0.076911,0.031426,0.245148,0.380383,0.23975,0.120976,0.179527,0.194176,0.36094,0.059693,0.099056,0.171865,0.226874,0.068236,0.077293,0.072547,0.038224,0.611904,0.2505,0.174045,0.12148,0.109053,0.386963,0.541485,0.193241,0.198574,0.13382,0.64853,0.356569,0.165988,0.106306,0.155574,0.836018,0.463675,0.176277,0.246475,0.175743,0.633838,0.343987,0.296853,0.205211,0.157726,0.711135,0.255614,0.388802,0.234215,0.158092
1769161650.354237,1769161650.354636,63.0,0.0,4291.666504,4274.102539,4431.666504,4310.256348,4265.0,4260.256348,4311.153809,4277.179688,4264.487305,4266.538574,4577.820313,4538.461426,4415.128418,4496.410156,,,,,,,,,,,,,,,,,,,,,,,,,,,,,,,,,,,,,,,,,,,,,,,,,,,,,,,,,,,,,,,,,,,,,,
1769161650.362045,1769161650.362244,64.0,0.0,4284.102539,4273.077148,4426.666504,4304.871582,4271.153809,4269.230957,4325.384766,4275.897461,4260.128418,4256.025879,4565.769043,4531.922852,4402.307617,4483.974121,,,,,,,,,,,,,,,,,,,,,,,,,,,,,,,,,,,,,,,,,,,,,,,,,,,,,,,,,,,,,,,,,,,,,,
1769161650.369854,1769161650.370053,65.0,0.0,4285.256348,4278.461426,4438.974121,4312.436035,4269.358887,4275.897461,4328.974121,4276.282227,4264.871582,4261.282227,4570.769043,4536.410156,4405.512695,4489.743652,,,,,,,,,,,,,,,,,,,,,,,,,,,,,,,,,,,,,,,,,,,,,,,,,,,,,,,,,,,,,,,,,,,,,,
1769161650.377662,1769161650.377961,66.0,0.0,4293.846191,4280.641113,4446.153809,4319.871582,4266.666504,4268.717773,4315.641113,4273.333496,4266.282227,4265.128418,4574.615234,4542.179688,4415.769043,4495.512695,,,,,,,,,,,,,,,,,,,,,,,,,,,,,,,,,,,,,,,,,,,,,,,,,,,,,,,,,,,,,,,,,,,,,,
1769161650.385471,1769161650.38577,67.0,0.0,4297.820313,4280.256348,4444.615234,4315.384766,4272.94873,4262.563965,4311.410156,4266.666504,4262.179688,4260.512695,4568.589844,4536.153809,4412.436035,4493.589844,,,,,,,,,,,,,,,,,,,,,,,,,,,,,,,,,,,,,,,,,,,,,,,,,,,,,,,,,,,,,,,,,,,,,,
1769161650.393279,1769161650.393778,68.0,0.0,4294.743652,4280.256348,4449.487305,4310.897461,4276.538574,4266.025879,4323.077148,4265.128418,4259.358887,4255.256348,4566.153809,4530.384766,4404.487305,4492.307617,,,,,,,,,,,,,,,,,,,,,,,,,,,,,,,,,,,,,,,,,,,,,,,,,,,,,,,,,,,,,,,,,,,,,,
1769161650.401087,1769161650.401586,69.0,0.0,4292.436035,4280.512695,4459.102539,4311.666504,4272.307617,4268.333496,4326.794922,4266.538574,4258.205078,4255.897461,4567.94873,4532.820313,4404.487305,4486.153809,,,,,,,,,,,,,,,,,,,,,,,,,,,,,,,,,,,,,,,,,,,,,,,,,,,,,,,,,,,,,,,,,,,,,,
1769161650.408896,1769161650.409295,70.0,0.0,4293.846191,4278.205078,4460.128418,4312.05127,4272.05127,4265.384766,4321.282227,4265.0,4251.666504,4258.205078,4567.307617,4528.717773,4402.307617,4480.897461,,,,,,,,,,,,,,,,,,,,,,,,,,,,,,,,,,,,,,,,,,,,,,,,,,,,,,,,,,,,,,,,,,,,,,
1769161650.416704,1769161650.417103,71.0,0.0,4295.897461,4280.256348,4461.153809,4318.589844,4276.410156,4262.94873,4321.410156,4264.358887,4248.077148,4257.94873,4567.563965,4522.563965,4403.974121,4489.102539,,,,,,,,,,,,,,,,,,,,,,,,,,,,,,,,,,,,,,,,,,,,,,,,,,,,,,,,,,,,,,,,,,,,,,
1769161650.424513,1769161650.424712,72.0,0.0,4290.641113,4279.743652,4467.94873,4321.025879,4277.692383,4263.717773,4321.538574,4266.410156,4255.512695,4256.538574,4563.974121,4521.538574,4406.666504,4487.94873,,,,,,,,,,,,,,,,,,,,,,,,,,,,,,,,,,,,,,,,,,,,,,,,,,,,,,,,,,,,,,,,,,,,,,
1769161650.432321,1769161650.43252,73.0,0.0,4285.512695,4273.333496,4473.717773,4314.230957,4275.384766,4264.871582,4318.846191,4266.410156,4262.692383,4259.102539,4559.871582,4525.512695,4401.538574,4476.282227,,,,,,,,,,,,,,,,,,,,,,,,,,,,,,,,,,,,,,,,,,,,,,,,,,,,,,,,,,,,,,,,,,,,,,
1769161650.44013,1769161650.440229,74.0,0.0,4288.589844,4273.589844,4477.05127,4315.512695,4274.487305,4263.974121,4322.05127,4267.820313,4263.077148,4261.794922,4565.384766,4529.230957,4403.077148,4478.333496,,,,,,,,,,,,,,,,,,,,,,,,,,,,,,,,,,,,,,,,,,,,,,,,,,,,,,,,,,,,,,,,,,,,,,
1769161650.447938,1769161650.448037,75.0,0.0,4290.384766,4275.769043,4478.589844,4318.333496,4276.922852,4265.128418,4329.102539,4276.666504,4263.974121,4258.461426,4571.794922,4530.769043,4409.615234,4483.846191,,,,,,,,,,,,,,,,,,,,,,,,,,,,,,,,,,,,,,,,,,,,,,,,,,,,,,,,,,,,,,,,,,,,,,
1769161650.455747,1769161650.456046,76.0,0.0,4285.769043,4269.871582,4477.307617,4311.666504,4278.589844,4269.102539,4330.769043,4279.871582,4262.94873,4255.384766,4567.563965,4530.256348,4407.179688,4477.692383,,,,,,,,,,,,,,,,,,,,,,,,,,,,,,,,,,,,,,,,,,,,,,,,,,,,,,,,,,,,,,,,,,,,,,
1769161650.463555,1769161650.463854,77.0,0.0,4282.436035,4265.641113,4476.794922,4310.512695,4279.102539,4265.512695,4325.512695,4270.128418,4258.461426,4258.077148,4564.871582,4528.717773,4401.410156,4475.769043,,,,,,,,,,,,,,,,,,,,,,,,,,,,,,,,,,,,,,,,,,,,,,,,,,,,,,,,,,,,,,,,,,,,,,
1769161650.471363,1769161650.471762,78.0,0.0,4280.0,4267.820313,4482.820313,4314.230957,4279.230957,4261.794922,4327.307617,4268.974121,4258.846191,4262.563965,4565.512695,4526.538574,4399.615234,4479.230957,0.338128,0.202563,0.312785,0.142863,0.150306,0.227015,0.116273,0.168497,0.089844,0.106559,0.536575,0.197721,0.29835,0.128932,0.149681,0.353274,0.156568,0.209638,0.122642,0.087568,0.469063,0.049316,0.136748,0.079652,0.032982,0.292617,0.320609,0.263386,0.127499,0.183125,0.228636,0.290533,0.073337,0.097499,0.181711,0.28393,0.06732,0.088544,0.07378,0.037434,0.649802,0.313089,0.194087,0.115664,0.132225,0.377553,0.57013,0.193547,0.186088,0.144845,0.615129,0.284795,0.121941,0.094096,0.161133,0.835358,0.364579,0.128107,0.221239,0.201476,0.568127,0.287857,0.260563,0.186893,0.157712,0.682415,0.246525,0.302888,0.228395,0.191587
1769161650.479172,1769161650.479571,79.0,0.0,4276.794922,4266.025879,4489.230957,4310.128418,4278.717773,4268.333496,4335.384766,4278.205078,4263.333496,4260.769043,4559.358887,4522.563965,4397.179688,4475.641113,,,,,,,,,,,,,,,,,,,,,,,,,,,,,,,,,,,,,,,,,,,,,,,,,,,,,,,,,,,,,,,,,,,,,,
1769161650.48698,1769161650.487579,80.0,0.0,4279.487305,4264.871582,4490.128418,4308.461426,4279.230957,4271.153809,4332.820313,4280.512695,4263.589844,4256.666504,4556.410156,4522.563965,4394.487305,4473.205078,,,,,,,,,,,,,,,,,,,,,,,,,,,,,,,,,,,,,,,,,,,,,,,,,,,,,,,,,,,,,,,,,,,,,,
1769161650.494789,1769161650.495388,81.0,0.0,4279.358887,4268.461426,4490.256348,4312.436035,4282.179688,4264.358887,4325.128418,4276.410156,4260.769043,4258.717773,4558.589844,4523.974121,4391.538574,4473.846191,,,,,,,,,,,,,,,,,,,,,,,,,,,,,,,,,,,,,,,,,,,,,,,,,,,,,,,,,,,,,,,,,,,,,,
1769161650.502597,1769161650.503096,82.0,0.0,4269.615234,4267.94873,4490.769043,4312.307617,4282.05127,4262.307617,4323.974121,4272.436035,4258.974121,4261.410156,4555.769043,4520.897461,4386.922852,4474.102539,,,,,,,,,,,,,,,,,,,,,,,,,,,,,,,,,,,,,,,,,,,,,,,,,,,,,,,,,,,,,,,,,,,,,,
1769161650.510406,1769161650.510905,83.0,0.0,4265.128418,4264.615234,4490.769043,4311.282227,4278.077148,4266.538574,4326.153809,4268.974121,4256.922852,4256.794922,4553.077148,4511.153809,4388.077148,4476.153809,,,,,,,,,,,,,,,,,,,,,,,,,,,,,,,,,,,,,,,,,,,,,,,,,,,,,,,,,,,,,,,,,,,,,,
1769161650.518214,1769161650.518513,84.0,0.0,4265.256348,4263.974121,4492.05127,4310.897461,4276.025879,4267.563965,4332.692383,4272.05127,4256.282227,4250.0,4554.743652,4505.512695,4388.333496,4475.897461,,,,,,,,,,,,,,,,,,,,,,,,,,,,,,,,,,,,,,,,,,,,,,,,,,,,,,,,,,,,,,,,,,,,,,
1769161650.526023,1769161650.526322,85.0,0.0,4264.615234,4265.384766,4497.692383,4311.282227,4277.94873,4266.794922,4337.820313,4278.333496,4258.333496,4251.538574,4555.897461,4514.487305,4387.436035,4475.0,,,,,,,,,,,,,,,,,,,,,,,,,,,,,,,,,,,,,,,,,,,,,,,,,,,,,,,,,,,,,,,,,,,,,,
1769161650.533831,1769161650.53403,86.0,0.0,4269.743652,4267.179688,4505.384766,4312.436035,4279.871582,4266.666504,4331.538574,4275.641113,4259.358887,4256.666504,4555.384766,4519.230957,4393.589844,4477.05127,,,,,,,,,,,,,,,,,,,,,,,,,,,,,,,,,,,,,,,,,,,,,,,,,,,,,,,,,,,,,,,,,,,,,,
1769161650.541639,1769161650.541839,87.0,0.0,4274.487305,4267.436035,4509.230957,4312.692383,4278.846191,4265.897461,4326.794922,4273.333496,4258.846191,4261.922852,4557.05127,4516.282227,4398.333496,4477.692383,,,,,,,,,,,,,,,,,,,,,,,,,,,,,,,,,,,,,,,,,,,,,,,,,,,,,,,,,,,,,,,,,,,,,,
1769161650.549448,1769161650.549847,88.0,0.0,4266.922852,4265.897461,4509.102539,4312.820313,4277.307617,4266.794922,4334.871582,4277.94873,4259.358887,4263.846191,4556.538574,4518.589844,4392.436035,4474.615234,,,,,,,,,,,,,,,,,,,,,,,,,,,,,,,,,,,,,,,,,,,,,,,,,,,,,,,,,,,,,,,,,,,,,,
1769161650.557256,1769161650.557655,89.0,0.0,4262.179688,4265.641113,4507.436035,4316.282227,4277.94873,4266.538574,4336.410156,4280.256348,4259.487305,4259.871582,4555.897461,4522.94873,4386.922852,4473.205078,,,,,,,,,,,,,,,,,,,,,,,,,,,,,,,,,,,,,,,,,,,,,,,,,,,,,,,,,,,,,,,,,,,,,,
1769161650.565065,1769161650.565364,90.0,0.0,4271.922852,4266.922852,4508.077148,4320.641113,4280.128418,4264.487305,4327.94873,4278.077148,4257.94873,4258.717773,4562.179688,4522.563965,4393.205078,4476.282227,,,,,,,,,,,,,,,,,,,,,,,,,,,,,,,,,,,,,,,,,,,,,,,,,,,,,,,,,,,,,,,,,,,,,,
1769161650.572873,1769161650.573172,91.0,0.0,4278.846191,4267.94873,4514.487305,4322.05127,4280.641113,4263.717773,4324.487305,4277.436035,4260.512695,4264.102539,4570.256348,4522.820313,4398.461426,4478.974121,,,,,,,,,,,,,,,,,,,,,,,,,,,,,,,,,,,,,,,,,,,,,,,,,,,,,,,,,,,,,,,,,,,,,,
1769161650.580682,1769161650.581181,92.0,0.0,4278.205078,4267.692383,4521.794922,4320.512695,4278.077148,4267.692383,4327.563965,4277.94873,4259.230957,4263.333496,4567.307617,4524.102539,4395.512695,4478.461426,,,,,,,,,,,,,,,,,,,,,,,,,,,,,,,,,,,,,,,,,,,,,,,,,,,,,,,,,,,,,,,,,,,,,,
1769161650.58849,1769161650.588989,93.0,0.0,4278.846191,4266.153809,4523.846191,4320.512695,4276.153809,4269.230957,4331.410156,4277.563965,4251.794922,4258.205078,4558.974121,4523.077148,4394.358887,4477.563965,,,,,,,,,,,,,,,,,,,,,,,,,,,,,,,,,,,,,,,,,,,,,,,,,,,,,,,,,,,,,,,,,,,,,,
1769161650.596299,1769161650.596897,94.0,0.0,4277.820313,4264.871582,4522.179688,4318.717773,4277.563965,4268.589844,4333.205078,4278.205078,4252.820313,4259.615234,4561.153809,4523.717773,4397.05127,4476.282227,0.343057,0.184969,0.250841,0.133662,0.156246,0.247434,0.131599,0.160975,0.08916,0.119663,0.478055,0.167729,0.269342,0.104174,0.163231,0.279792,0.146636,0.169587,0.112174,0.095575,0.432633,0.05052,0.165847,0.085098,0.0366,0.35281,0.278636,0.272697,0.132271,0.182424,0.260891,0.228829,0.08813,0.09163,0.183074,0.343891,0.071354,0.100184,0.074493,0.041368,0.665581,0.369834,0.230769,0.107368,0.158671,0.355021,0.597574,0.200184,0.169904,0.159916,0.531407,0.241992,0.095481,0.081501,0.164645,0.770828,0.279461,0.095937,0.199113,0.22663,0.481315,0.254611,0.228156,0.154929,0.15645,0.649089,0.260267,0.238154,0.218057,0.22546
1769161650.604107,1769161650.604706,95.0,0.0,4273.846191,4266.410156,4519.871582,4314.102539,4280.256348,4268.461426,4333.333496,4279.358887,4260.0,4263.205078,4566.025879,4523.717773,4397.563965,4473.974121,,,,,,,,,,,,,,,,,,,,,,,,,,,,,,,,,,,,,,,,,,,,,,,,,,,,,,,,,,,,,,,,,,,,,,
1769161650.611915,1769161650.612315,96.0,0.0,4275.769043,4266.666504,4520.128418,4315.641113,4280.512695,4267.692383,4332.307617,4280.769043,4258.717773,4261.794922,4566.282227,4526.410156,4399.358887,4482.436035,,,,,,,,,,,,,,,,,,,,,,,,,,,,,,,,,,,,,,,,,,,,,,,,,,,,,,,,,,,,,,,,,,,,,,
1769161650.619724,1769161650.620123,97.0,0.0,4282.563965,4263.333496,4523.589844,4323.333496,4279.615234,4269.615234,4332.692383,4280.641113,4253.461426,4259.871582,4567.05127,4532.820313,4399.615234,4490.128418,,,,,,,,,,,,,,,,,,,,,,,,,,,,,,,,,,,,,,,,,,,,,,,,,,,,,,,,,,,,,,,,,,,,,,
1769161650.627533,1769161650.627832,98.0,0.0,4282.307617,4269.615234,4525.512695,4326.410156,4280.769043,4271.025879,4331.794922,4281.153809,4257.692383,4260.769043,4568.461426,4536.538574,4396.153809,4483.589844,,,,,,,,,,,,,,,,,,,,,,,,,,,,,,,,,,,,,,,,,,,,,,,,,,,,,,,,,,,,,,,,,,,,,,
1769161650.635341,1769161650.63564,99.0,0.0,4282.820313,4278.333496,4524.230957,4325.512695,4281.794922,4271.410156,4332.94873,4284.358887,4264.487305,4263.846191,4571.794922,4537.692383,4403.717773,4482.436035,,,,,,,,,,,,,,,,,,,,,,,,,,,,,,,,,,,,,,,,,,,,,,,,,,,,,,,,,,,,,,,,,,,,,,
1769161650.64315,1769161650.643648,100.0,0.0,4282.563965,4271.282227,4523.461426,4325.384766,4281.538574,4277.179688,4340.769043,4283.461426,4262.307617,4264.487305,4572.94873,4534.487305,4410.384766,4487.820313,,,,,,,,,,,,,,,,,,,,,,,,,,,,,,,,,,,,,,,,,,,,,,,,,,,,,,,,,,,,,,,,,,,,,,
1769161650.650958,1769161650.651457,101.0,0.0,4280.384766,4266.666504,4523.589844,4323.077148,4282.436035,4279.230957,4338.974121,4281.666504,4259.102539,4263.205078,4569.615234,4535.384766,4403.461426,4485.897461,,,,,,,,,,,,,,,,,,,,,,,,,,,,,,,,,,,,,,,,,,,,,,,,,,,,,,,,,,,,,,,,,,,,,,
1769161650.658766,1769161650.659365,102.0,0.0,4284.102539,4271.922852,4525.256348,4321.410156,4281.922852,4269.487305,4325.769043,4281.922852,4261.025879,4262.820313,4568.205078,4535.384766,4397.820313,4479.487305,,,,,,,,,,,,,,,,,,,,,,,,,,,,,,,,,,,,,,,,,,,,,,,,,,,,,,,,,,,,,,,,,,,,,,
1769161650.666575,1769161650.667173,103.0,0.0,4283.974121,4269.487305,4526.153809,4323.974121,4280.512695,4258.461426,4320.384766,4281.153809,4261.666504,4262.563965,4571.410156,4527.05127,4403.589844,4476.666504,,,,,,,,,,,,,,,,,,,,,,,,,,,,,,,,,,,,,,,,,,,,,,,,,,,,,,,,,,,,,,,,,,,,,,
1769161650.674383,1769161650.675182,104.0,0.0,4278.974121,4267.563965,4525.512695,4325.641113,4284.743652,4262.563965,4323.333496,4285.641113,4261.410156,4263.461426,4573.846191,4528.846191,4409.358887,4480.641113,,,,,,,,,,,,,,,,,,,,,,,,,,,,,,,,,,,,,,,,,,,,,,,,,,,,,,,,,,,,,,,,,,,,,,
1769161650.682192,1769161650.68299,105.0,0.0,4280.128418,4272.179688,4525.384766,4325.641113,4287.94873,4275.256348,4328.974121,4293.717773,4264.102539,4265.769043,4572.436035,4537.94873,4406.153809,4486.538574,,,,,,,,,,,,,,,,,,,,,,,,,,,,,,,,,,,,,,,,,,,,,,,,,,,,,,,,,,,,,,,,,,,,,,
1769161650.69,1769161650.690699,106.0,0.0,4281.794922,4266.410156,4525.769043,4322.692383,4282.692383,4276.666504,4336.025879,4289.615234,4262.820313,4264.615234,4568.461426,4529.871582,4399.487305,4481.025879,,,,,,,,,,,,,,,,,,,,,,,,,,,,,,,,,,,,,,,,,,,,,,,,,,,,,,,,,,,,,,,,,,,,,,
1769161650.697809,1769161650.698507,107.0,0.0,4277.820313,4262.563965,4525.897461,4320.384766,4277.820313,4265.128418,4333.846191,4278.205078,4261.282227,4261.794922,4566.538574,4519.871582,4395.769043,4472.820313,,,,,,,,,,,,,,,,,,,,,,,,,,,,,,,,,,,,,,,,,,,,,,,,,,,,,,,,,,,,,,,,,,,,,,
1769161650.705617,1769161650.706515,108.0,0.0,4278.077148,4269.358887,4525.512695,4321.282227,4278.846191,4263.461426,4326.538574,4279.487305,4259.487305,4260.256348,4568.846191,4525.897461,4397.05127,4478.589844,,,,,,,,,,,,,,,,,,,,,,,,,,,,,,,,,,,,,,,,,,,,,,,,,,,,,,,,,,,,,,,,,,,,,,
1769161650.713426,1769161650.714324,109.0,0.0,4278.717773,4266.538574,4524.743652,4319.871582,4276.922852,4276.153809,4336.282227,4288.589844,4252.563965,4258.333496,4566.922852,4527.692383,4395.384766,4477.05127,,,,,,,,,,,,,,,,,,,,,,,,,,,,,,,,,,,,,,,,,,,,,,,,,,,,,,,,,,,,,,,,,,,,,,
1769161650.721234,1769161650.722032,110.0,0.0,4274.358887,4260.641113,4524.615234,4316.282227,4275.128418,4279.102539,4345.512695,4292.820313,4253.461426,4258.717773,4565.128418,4526.794922,4392.05127,4471.410156,0.379171,0.187432,0.188417,0.125269,0.165602,0.260395,0.146864,0.154691,0.096319,0.135135,0.429734,0.139947,0.233417,0.088462,0.182768,0.212658,0.132301,0.13251,0.104492,0.102317,0.385811,0.057775,0.181926,0.09209,0.042619,0.408223,0.264656,0.266508,0.135547,0.177306,0.279896,0.190973,0.10632,0.08665,0.17738,0.404594,0.08381,0.113796,0.074765,0.049554,0.648984,0.411489,0.277541,0.102834,0.179995,0.316245,0.605305,0.209459,0.151565,0.175993,0.413935,0.244555,0.086296,0.073365,0.165178,0.657797,0.249245,0.082534,0.188891,0.242108,0.38137,0.243811,0.198702,0.121422,0.15527,0.612475,0.295283,0.193725,0.206817,0.253064
1769161650.729042,1769161650.729841,111.0,0.0,4276.282227,4264.102539,4524.487305,4318.461426,4277.307617,4267.820313,4333.461426,4290.512695,4262.563965,4263.461426,4570.641113,4535.128418,4396.922852,4482.563965,,,,,,,,,,,,,,,,,,,,,,,,,,,,,,,,,,,,,,,,,,,,,,,,,,,,,,,,,,,,,,,,,,,,,,
1769161650.736851,1769161650.737449,112.0,0.0,4279.743652,4265.897461,4526.410156,4320.128418,4275.512695,4262.692383,4323.205078,4288.461426,4262.05127,4263.974121,4572.820313,4538.589844,4401.153809,4488.589844,,,,,,,,,,,,,,,,,,,,,,,,,,,,,,,,,,,,,,,,,,,,,,,,,,,,,,,,,,,,,,,,,,,,,,
1769161650.744659,1769161650.745258,113.0,0.0,4281.922852,4264.871582,4533.205078,4318.077148,4272.307617,4267.692383,4329.102539,4291.794922,4258.333496,4262.05127,4572.05127,4537.820313,4402.179688,4485.384766,,,,,,,,,,,,,,,,,,,,,,,,,,,,,,,,,,,,,,,,,,,,,,,,,,,,,,,,,,,,,,,,,,,,,,
1769161650.752468,1769161650.752966,114.0,0.0,4284.743652,4265.641113,4539.102539,4322.05127,4273.974121,4265.769043,4328.717773,4292.94873,4260.769043,4264.615234,4573.333496,4539.230957,4405.897461,4488.589844,,,,,,,,,,,,,,,,,,,,,,,,,,,,,,,,,,,,,,,,,,,,,,,,,,,,,,,,,,,,,,,,,,,,,,
1769161650.760276,1769161650.760775,115.0,0.0,4288.205078,4267.563965,4538.846191,4326.922852,4276.794922,4259.230957,4323.589844,4289.871582,4261.025879,4267.436035,4571.922852,4540.128418,4411.025879,4488.974121,,,,,,,,,,,,,,,,,,,,,,,,,,,,,,,,,,,,,,,,,,,,,,,,,,,,,,,,,,,,,,,,,,,,,,
1769161650.768085,1769161650.768783,116.0,0.0,4291.282227,4270.384766,4539.102539,4326.025879,4277.692383,4268.077148,4331.025879,4292.179688,4260.641113,4268.077148,4575.641113,4540.0,4412.436035,4484.358887,,,,,,,,,,,,,,,,,,,,,,,,,,,,,,,,,,,,,,,,,,,,,,,,,,,,,,,,,,,,,,,,,,,,,,
1769161650.775893,1769161650.776592,117.0,0.0,4290.384766,4272.820313,4540.256348,4326.153809,4279.487305,4274.743652,4334.230957,4293.717773,4263.205078,4267.820313,4582.307617,4541.538574,4412.179688,4487.05127,,,,,,,,,,,,,,,,,,,,,,,,,,,,,,,,,,,,,,,,,,,,,,,,,,,,,,,,,,,,,,,,,,,,,,
1769161650.783702,1769161650.7845,118.0,0.0,4290.641113,4276.538574,4542.436035,4327.692383,4282.05127,4265.0,4325.128418,4289.102539,4263.077148,4267.307617,4578.333496,4541.282227,4412.563965,4490.512695,,,,,,,,,,,,,,,,,,,,,,,,,,,,,,,,,,,,,,,,,,,,,,,,,,,,,,,,,,,,,,,,,,,,,,
1769161650.79151,1769161650.792308,119.0,0.0,4294.358887,4280.897461,4545.897461,4327.94873,4280.512695,4266.153809,4328.717773,4289.871582,4260.897461,4265.897461,4569.615234,4541.538574,4411.025879,4488.717773,,,,,,,,,,,,,,,,,,,,,,,,,,,,,,,,,,,,,,,,,,,,,,,,,,,,,,,,,,,,,,,,,,,,,,
1769161650.799318,1769161650.800317,120.0,0.0,4295.384766,4278.846191,4543.333496,4326.922852,4279.743652,4277.692383,4337.820313,4295.897461,4260.384766,4264.615234,4571.794922,4544.230957,4411.538574,4491.794922,,,,,,,,,,,,,,,,,,,,,,,,,,,,,,,,,,,,,,,,,,,,,,,,,,,,,,,,,,,,,,,,,,,,,,
1769161650.807127,1769161650.808125,121.0,0.0,4292.179688,4275.256348,4541.410156,4327.94873,4285.897461,4276.153809,4330.769043,4295.384766,4262.307617,4266.538574,4577.820313,4543.974121,4413.205078,4488.717773,,,,,,,,,,,,,,,,,,,,,,,,,,,,,,,,,,,,,,,,,,,,,,,,,,,,,,,,,,,,,,,,,,,,,,
1769161650.814935,1769161650.815834,122.0,0.0,4290.512695,4277.563965,4545.384766,4329.743652,4289.487305,4271.153809,4328.077148,4292.179688,4263.077148,4265.897461,4575.384766,4539.358887,4406.025879,4476.410156,,,,,,,,,,,,,,,,,,,,,,,,,,,,,,,,,,,,,,,,,,,,,,,,,,,,,,,,,,,,,,,,,,,,,,
1769161650.822744,1769161650.823642,123.0,0.0,4292.436035,4278.974121,4545.0,4330.769043,4283.717773,4278.974121,4341.025879,4293.589844,4262.307617,4261.282227,4569.102539,4537.307617,4397.307617,4472.307617,,,,,,,,,,,,,,,,,,,,,,,,,,,,,,,,,,,,,,,,,,,,,,,,,,,,,,,,,,,,,,,,,,,,,,
1769161650.830552,1769161650.83165,124.0,0.0,4294.358887,4276.410156,4540.897461,4328.077148,4279.743652,4282.692383,4340.512695,4296.410156,4261.538574,4263.205078,4570.256348,4540.512695,4401.153809,4475.0,,,,,,,,,,,,,,,,,,,,,,,,,,,,,,,,,,,,,,,,,,,,,,,,,,,,,,,,,,,,,,,,,,,,,,
1769161650.838361,1769161650.839459,125.0,0.0,4295.769043,4277.563965,4542.307617,4325.256348,4282.692383,4271.025879,4326.922852,4297.179688,4263.589844,4270.0,4577.692383,4541.666504,4410.641113,4476.538574,,,,,,,,,,,,,,,,,,,,,,,,,,,,,,,,,,,,,,,,,,,,,,,,,,,,,,,,,,,,,,,,,,,,,,
1769161650.846169,1769161650.847367,126.0,0.0,4297.307617,4281.153809,4543.077148,4331.025879,4286.922852,4264.615234,4322.820313,4295.384766,4265.128418,4269.871582,4581.538574,4540.384766,4412.563965,4476.153809,0.449297,0.213853,0.134681,0.121673,0.177428,0.273136,0.158253,0.145716,0.108081,0.150137,0.373157,0.11832,0.190538,0.085225,0.203393,0.16893,0.111814,0.104068,0.098369,0.107288,0.327899,0.065263,0.179722,0.098263,0.050293,0.447344,0.275771,0.24623,0.138264,0.168356,0.273815,0.181002,0.129521,0.088221,0.16943,0.469872,0.110043,0.130824,0.075462,0.061013,0.608481,0.434112,0.320185,0.108729,0.189011,0.271342,0.579102,0.219232,0.133143,0.189099,0.295151,0.292101,0.089085,0.073764,0.163463,0.535705,0.293937,0.083162,0.193764,0.242928,0.280482,0.254413,0.170048,0.098365,0.155557,0.561566,0.343442,0.16009,0.198381,0.271183
1769161650.853978,1769161650.855176,127.0,0.0,4298.077148,4280.897461,4541.153809,4333.974121,4288.589844,4272.563965,4329.230957,4295.512695,4263.077148,4266.153809,4580.256348,4540.641113,4411.282227,4476.025879,,,,,,,,,,,,,,,,,,,,,,,,,,,,,,,,,,,,,,,,,,,,,,,,,,,,,,,,,,,,,,,,,,,,,,
1769161650.861786,1769161650.862784,0.0,0.0,4295.769043,4278.461426,4541.922852,4327.820313,4287.563965,4277.05127,4333.717773,4303.974121,4261.922852,4266.538574,4580.897461,4540.769043,4412.307617,4476.153809,,,,,,,,,,,,,,,,,,,,,,,,,,,,,,,,,,,,,,,,,,,,,,,,,,,,,,,,,,,,,,,,,,,,,,
1769161650.869594,1769161650.870593,1.0,0.0,4293.461426,4279.743652,4541.666504,4325.384766,4285.128418,4274.102539,4333.205078,4310.641113,4263.717773,4266.922852,4581.794922,4540.512695,4413.974121,4476.922852,,,,,,,,,,,,,,,,,,,,,,,,,,,,,,,,,,,,,,,,,,,,,,,,,,,,,,,,,,,,,,,,,,,,,,
1769161650.877403,1769161650.878301,2.0,0.0,4295.769043,4282.692383,4539.102539,4324.871582,4286.666504,4275.512695,4331.538574,4305.0,4263.974121,4265.897461,4580.0,4541.410156,4413.846191,4477.05127,,,,,,,,,,,,,,,,,,,,,,,,,,,,,,,,,,,,,,,,,,,,,,,,,,,,,,,,,,,,,,,,,,,,,,
1769161650.885211,1769161650.88611,3.0,0.0,4297.179688,4280.641113,4537.820313,4321.410156,4287.307617,4275.769043,4329.743652,4296.025879,4261.538574,4265.128418,4578.717773,4541.410156,4410.897461,4475.0,,,,,,,,,,,,,,,,,,,,,,,,,,,,,,,,,,,,,,,,,,,,,,,,,,,,,,,,,,,,,,,,,,,,,,
1769161650.89302,1769161650.893718,4.0,0.0,4297.436035,4279.487305,4540.512695,4321.410156,4283.589844,4273.717773,4327.436035,4295.897461,4263.205078,4265.769043,4581.282227,4539.358887,4410.128418,4474.871582,,,,,,,,,,,,,,,,,,,,,,,,,,,,,,,,,,,,,,,,,,,,,,,,,,,,,,,,,,,,,,,,,,,,,,
1769161650.900828,1769161650.901527,5.0,0.0,4295.384766,4281.794922,4538.974121,4320.0,4281.025879,4273.717773,4327.692383,4299.102539,4265.641113,4266.922852,4578.717773,4540.0,4412.436035,4472.692383,,,,,,,,,,,,,,,,,,,,,,,,,,,,,,,,,,,,,,,,,,,,,,,,,,,,,,,,,,,,,,,,,,,,,,
1769161650.908637,1769161650.909435,6.0,0.0,4293.461426,4281.153809,4527.820313,4313.077148,4280.384766,4270.641113,4329.487305,4297.563965,4263.974121,4265.641113,4576.153809,4541.025879,4411.794922,4465.128418,,,,,,,,,,,,,,,,,,,,,,,,,,,,,,,,,,,,,,,,,,,,,,,,,,,,,,,,,,,,,,,,,,,,,,
1769161650.916445,1769161650.917244,7.0,0.0,4300.641113,4280.384766,4522.820313,4316.410156,4281.025879,4267.307617,4327.307617,4294.230957,4264.358887,4265.0,4576.410156,4540.128418,4410.641113,4464.230957,,,,,,,,,,,,,,,,,,,,,,,,,,,,,,,,,,,,,,,,,,,,,,,,,,,,,,,,,,,,,,,,,,,,,,
1769161650.924254,1769161650.924852,8.0,0.0,4305.256348,4281.922852,4526.538574,4321.538574,4281.153809,4274.230957,4327.563965,4293.974121,4265.769043,4264.102539,4573.077148,4540.512695,4413.205078,4471.025879,,,,,,,,,,,,,,,,,,,,,,,,,,,,,,,,,,,,,,,,,,,,,,,,,,,,,,,,,,,,,,,,,,,,,,
1769161650.932062,1769161650.932661,9.0,0.0,4299.487305,4283.333496,4526.666504,4316.922852,4281.794922,4280.384766,4332.94873,4294.743652,4266.410156,4263.077148,4573.717773,4541.153809,4417.05127,4474.615234,,,,,,,,,,,,,,,,,,,,,,,,,,,,,,,,,,,,,,,,,,,,,,,,,,,,,,,,,,,,,,,,,,,,,,
1769161650.93987,1769161650.940369,10.0,0.0,4294.230957,4281.794922,4521.794922,4311.794922,4281.410156,4275.0,4336.282227,4296.922852,4270.769043,4269.230957,4580.769043,4540.897461,4417.05127,4474.358887,,,,,,,,,,,,,,,,,,,,,,,,,,,,,,,,,,,,,,,,,,,,,,,,,,,,,,,,,,,,,,,,,,,,,,
1769161650.947679,1769161650.948178,11.0,0.0,4294.358887,4279.615234,4519.871582,4311.153809,4281.153809,4274.487305,4333.461426,4299.102539,4276.666504,4276.794922,4581.538574,4543.077148,4416.025879,4474.102539,,,,,,,,,,,,,,,,,,,,,,,,,,,,,,,,,,,,,,,,,,,,,,,,,,,,,,,,,,,,,,,,,,,,,,
1769161650.955487,1769161650.955786,12.0,0.0,4303.717773,4285.897461,4522.179688,4316.153809,4285.256348,4275.512695,4328.461426,4296.922852,4276.025879,4275.641113,4581.410156,4546.794922,4418.077148,4476.282227,,,,,,,,,,,,,,,,,,,,,,,,,,,,,,,,,,,,,,,,,,,,,,,,,,,,,,,,,,,,,,,,,,,,,,
1769161650.963296,1769161650.963595,13.0,0.0,4310.384766,4292.307617,4519.871582,4319.230957,4286.794922,4269.615234,4325.128418,4293.461426,4272.307617,4269.615234,4584.102539,4544.487305,4418.717773,4476.922852,,,,,,,,,,,,,,,,,,,,,,,,,,,,,,,,,,,,,,,,,,,,,,,,,,,,,,,,,,,,,,,,,,,,,,
1769161650.971104,1769161650.971303,14.0,0.0,4299.743652,4285.128418,4510.128418,4311.666504,4283.077148,4269.230957,4325.128418,4294.230957,4274.615234,4265.769043,4577.05127,4539.615234,4413.461426,4469.102539,0.578596,0.254382,0.093452,0.126538,0.188689,0.300939,0.161717,0.129863,0.119695,0.161186,0.336356,0.10375,0.145402,0.093943,0.217749,0.163232,0.087436,0.086138,0.093073,0.110013,0.276282,0.069083,0.159992,0.100704,0.057941,0.459381,0.293833,0.216159,0.14179,0.158158,0.254994,0.192835,0.155158,0.100594,0.16563,0.530619,0.151357,0.149652,0.077616,0.074278,0.553277,0.439151,0.342251,0.12723,0.182685,0.230646,0.516153,0.228246,0.116768,0.195383,0.212901,0.369243,0.096005,0.083677,0.160916,0.448689,0.402804,0.090969,0.209178,0.229584,0.219956,0.288623,0.142967,0.090798,0.157828,0.524227,0.394448,0.128249,0.193981,0.279771
1769161650.978913,1769161650.979112,15.0,0.0,4288.077148,4275.512695,4504.230957,4305.641113,4281.282227,4276.410156,4327.05127,4296.282227,4279.358887,4263.974121,4567.307617,4536.666504,4406.410156,4457.436035,,,,,,,,,,,,,,,,,,,,,,,,,,,,,,,,,,,,,,,,,,,,,,,,,,,,,,,,,,,,,,,,,,,,,,
1769161650.986721,1769161650.98712,16.0,0.0,4293.461426,4276.282227,4506.922852,4309.615234,4281.922852,4277.563965,4326.538574,4296.794922,4279.102539,4267.94873,4569.615234,4538.846191,4406.410156,4460.769043,,,,,,,,,,,,,,,,,,,,,,,,,,,,,,,,,,,,,,,,,,,,,,,,,,,,,,,,,,,,,,,,,,,,,,
1769161650.99453,1769161650.994928,17.0,0.0,4299.102539,4278.589844,4506.153809,4311.025879,4278.846191,4273.717773,4327.692383,4297.179688,4276.025879,4274.230957,4578.461426,4548.077148,4413.846191,4472.820313,,,,,,,,,,,,,,,,,,,,,,,,,,,,,,,,,,,,,,,,,,,,,,,,,,,,,,,,,,,,,,,,,,,,,,
1769161651.002338,1769161651.002837,18.0,0.0,4296.666504,4280.512695,4504.102539,4310.512695,4277.94873,4274.102539,4328.333496,4296.410156,4278.077148,4279.230957,4585.641113,4555.897461,4419.871582,4478.974121,,,,,,,,,,,,,,,,,,,,,,,,,,,,,,,,,,,,,,,,,,,,,,,,,,,,,,,,,,,,,,,,,,,,,,
1769161651.010147,1769161651.010645,19.0,0.0,4299.615234,4286.410156,4508.077148,4316.922852,4285.512695,4277.05127,4326.794922,4295.641113,4278.589844,4278.333496,4583.974121,4551.794922,4415.769043,4473.974121,,,,,,,,,,,,,,,,,,,,,,,,,,,,,,,,,,,,,,,,,,,,,,,,,,,,,,,,,,,,,,,,,,,,,,
1769161651.017955,1769161651.018653,20.0,0.0,4304.615234,4287.94873,4504.871582,4321.153809,4290.512695,4281.666504,4330.769043,4295.769043,4270.0,4268.205078,4573.846191,4541.794922,4409.358887,4462.179688,,,,,,,,,,,,,,,,,,,,,,,,,,,,,,,,,,,,,,,,,,,,,,,,,,,,,,,,,,,,,,,,,,,,,,
1769161651.025763,1769161651.026462,21.0,0.0,4303.077148,4285.897461,4494.871582,4320.384766,4286.538574,4279.102539,4333.717773,4293.974121,4262.820313,4262.179688,4568.717773,4538.717773,4411.922852,4463.974121,,,,,,,,,,,,,,,,,,,,,,,,,,,,,,,,,,,,,,,,,,,,,,,,,,,,,,,,,,,,,,,,,,,,,,
1769161651.033572,1769161651.03417,22.0,0.0,4296.410156,4286.794922,4491.025879,4322.436035,4283.333496,4273.846191,4329.615234,4292.307617,4264.230957,4264.230957,4574.102539,4542.179688,4411.025879,4475.128418,,,,,,,,,,,,,,,,,,,,,,,,,,,,,,,,,,,,,,,,,,,,,,,,,,,,,,,,,,,,,,,,,,,,,,
1769161651.04138,1769161651.041979,23.0,0.0,4293.205078,4290.384766,4492.307617,4324.871582,4286.153809,4279.358887,4328.205078,4294.102539,4267.94873,4264.871582,4576.025879,4542.563965,4406.282227,4475.512695,,,,,,,,,,,,,,,,,,,,,,,,,,,,,,,,,,,,,,,,,,,,,,,,,,,,,,,,,,,,,,,,,,,,,,
1769161651.049189,1769161651.049987,24.0,0.0,4297.820313,4290.641113,4492.05127,4326.153809,4288.717773,4283.974121,4333.974121,4294.615234,4264.871582,4260.769043,4571.153809,4538.333496,4407.436035,4470.897461,,,,,,,,,,,,,,,,,,,,,,,,,,,,,,,,,,,,,,,,,,,,,,,,,,,,,,,,,,,,,,,,,,,,,,
1769161651.056997,1769161651.057796,25.0,0.0,4307.563965,4288.974121,4493.205078,4330.769043,4289.102539,4282.05127,4333.974121,4294.743652,4265.0,4262.179688,4573.974121,4542.436035,4413.461426,4473.717773,,,,,,,,,,,,,,,,,,,,,,,,,,,,,,,,,,,,,,,,,,,,,,,,,,,,,,,,,,,,,,,,,,,,,,
1769161651.064806,1769161651.065504,26.0,0.0,4312.820313,4290.128418,4493.974121,4332.179688,4289.230957,4282.563965,4328.589844,4296.153809,4271.282227,4266.410156,4582.94873,4554.743652,4416.922852,4478.077148,,,,,,,,,,,,,,,,,,,,,,,,,,,,,,,,,,,,,,,,,,,,,,,,,,,,,,,,,,,,,,,,,,,,,,
1769161651.072614,1769161651.073313,27.0,0.0,4307.94873,4291.025879,4490.128418,4329.102539,4289.358887,4282.820313,4327.05127,4295.512695,4270.641113,4266.538574,4581.153809,4552.563965,4416.282227,4476.666504,,,,,,,,,,,,,,,,,,,,,,,,,,,,,,,,,,,,,,,,,,,,,,,,,,,,,,,,,,,,,,,,,,,,,,
1769161651.080423,1769161651.080921,28.0,0.0,4305.256348,4290.256348,4491.153809,4331.538574,4288.846191,4279.743652,4328.846191,4295.256348,4268.333496,4265.128418,4575.769043,4541.282227,4413.461426,4470.128418,,,,,,,,,,,,,,,,,,,,,,,,,,,,,,,,,,,,,,,,,,,,,,,,,,,,,,,,,,,,,,,,,,,,,,
1769161651.088231,1769161651.08873,29.0,0.0,4307.563965,4288.717773,4489.871582,4336.922852,4285.769043,4280.897461,4329.743652,4296.794922,4271.794922,4263.589844,4577.820313,4543.205078,4411.282227,4465.256348,,,,,,,,,,,,,,,,,,,,,,,,,,,,,,,,,,,,,,,,,,,,,,,,,,,,,,,,,,,,,,,,,,,,,,
1769161651.09604,1769161651.096438,30.0,0.0,4304.358887,4290.512695,4480.0,4338.205078,4285.256348,4281.282227,4325.897461,4295.769043,4271.410156,4268.461426,4582.436035,4555.0,4413.974121,4473.461426,0.760368,0.291857,0.064746,0.13954,0.194926,0.347402,0.156592,0.106746,0.126095,0.165426,0.289514,0.096317,0.104221,0.109722,0.219193,0.197568,0.065985,0.07773,0.08867,0.109934,0.242525,0.068935,0.129882,0.097827,0.063691,0.442268,0.300975,0.182405,0.146813,0.151622,0.206881,0.217008,0.181536,0.124399,0.171405,0.572709,0.200982,0.165789,0.081624,0.087589,0.501234,0.429274,0.331928,0.15421,0.163084,0.201654,0.42984,0.235594,0.104653,0.192231,0.18749,0.450641,0.101044,0.099939,0.158432,0.431563,0.538031,0.100303,0.225579,0.206837,0.217813,0.346276,0.121714,0.095319,0.161459,0.516116,0.434516,0.096307,0.191862,0.280314
1769161651.103848,1769161651.104247,31.0,0.0,4302.563965,4290.256348,4475.128418,4337.563965,4287.179688,4277.692383,4326.153809,4294.358887,4265.0,4272.436035,4581.410156,4554.871582,4415.897461,4478.846191,,,,,,,,,,,,,,,,,,,,,,,,,,,,,,,,,,,,,,,,,,,,,,,,,,,,,,,,,,,,,,,,,,,,,,
1769161651.111657,1769161651.112255,32.0,0.0,4302.692383,4282.94873,4471.538574,4335.128418,4285.384766,4277.820313,4332.05127,4294.871582,4264.102539,4266.922852,4573.717773,4540.641113,4411.538574,4465.897461,,,,,,,,,,,,,,,,,,,,,,,,,,,,,,,,,,,,,,,,,,,,,,,,,,,,,,,,,,,,,,,,,,,,,,
1769161651.119465,1769161651.120063,33.0,0.0,4299.102539,4281.922852,4466.794922,4332.692383,4282.05127,4277.307617,4330.641113,4294.743652,4267.563965,4265.512695,4570.0,4535.897461,4409.615234,4454.230957,,,,,,,,,,,,,,,,,,,,,,,,,,,,,,,,,,,,,,,,,,,,,,,,,,,,,,,,,,,,,,,,,,,,,,
1769161651.127273,1769161651.127772,34.0,0.0,4299.871582,4289.487305,4471.410156,4337.307617,4282.179688,4273.846191,4325.256348,4295.256348,4267.94873,4273.846191,4578.846191,4547.179688,4413.205078,4465.128418,,,,,,,,,,,,,,,,,,,,,,,,,,,,,,,,,,,,,,,,,,,,,,,,,,,,,,,,,,,,,,,,,,,,,,
1769161651.135082,1769161651.13558,35.0,0.0,4305.512695,4291.538574,4473.974121,4341.153809,4284.615234,4275.0,4326.538574,4294.743652,4265.512695,4272.820313,4583.333496,4550.384766,4415.384766,4477.05127,,,,,,,,,,,,,,,,,,,,,,,,,,,,,,,,,,,,,,,,,,,,,,,,,,,,,,,,,,,,,,,,,,,,,,
1769161651.14289,1769161651.143189,36.0,0.0,4305.128418,4289.230957,4463.461426,4339.230957,4287.820313,4278.974121,4328.589844,4290.641113,4261.410156,4262.05127,4573.974121,4539.358887,4412.563965,4468.333496,,,,,,,,,,,,,,,,,,,,,,,,,,,,,,,,,,,,,,,,,,,,,,,,,,,,,,,,,,,,,,,,,,,,,,
1769161651.150699,1769161651.150997,37.0,0.0,4300.128418,4287.05127,4458.974121,4337.05127,4289.487305,4281.153809,4326.794922,4290.641113,4260.897461,4261.410156,4566.538574,4533.846191,4409.487305,4457.05127,,,,,,,,,,,,,,,,,,,,,,,,,,,,,,,,,,,,,,,,,,,,,,,,,,,,,,,,,,,,,,,,,,,,,,
1769161651.158507,1769161651.158706,38.0,0.0,4296.666504,4281.025879,4461.666504,4336.025879,4282.436035,4276.666504,4325.769043,4292.94873,4261.538574,4264.615234,4569.487305,4536.025879,4410.128418,4459.871582,,,,,,,,,,,,,,,,,,,,,,,,,,,,,,,,,,,,,,,,,,,,,,,,,,,,,,,,,,,,,,,,,,,,,,
1769161651.166316,1769161651.166514,39.0,0.0,4295.384766,4280.512695,4459.743652,4335.512695,4279.102539,4269.230957,4324.230957,4289.230957,4261.410156,4264.102539,4571.794922,4536.410156,4412.05127,4463.974121,,,,,,,,,,,,,,,,,,,,,,,,,,,,,,,,,,,,,,,,,,,,,,,,,,,,,,,,,,,,,,,,,,,,,,
1769161651.174124,1769161651.174523,40.0,0.0,4294.871582,4283.974121,4457.820313,4334.743652,4284.358887,4271.794922,4324.871582,4286.666504,4260.897461,4264.230957,4568.077148,4536.410156,4408.461426,4459.615234,,,,,,,,,,,,,,,,,,,,,,,,,,,,,,,,,,,,,,,,,,,,,,,,,,,,,,,,,,,,,,,,,,,,,,
1769161651.181933,1769161651.182331,41.0,0.0,4292.820313,4278.589844,4454.358887,4334.230957,4283.974121,4275.641113,4329.615234,4290.0,4260.769043,4265.897461,4566.538574,4534.871582,4405.128418,4457.94873,,,,,,,,,,,,,,,,,,,,,,,,,,,,,,,,,,,,,,,,,,,,,,,,,,,,,,,,,,,,,,,,,,,,,,
1769161651.189741,1769161651.190239,42.0,0.0,4291.922852,4277.563965,4450.641113,4337.05127,4281.153809,4268.461426,4327.563965,4291.153809,4262.307617,4266.153809,4571.282227,4534.871582,4409.743652,4463.461426,,,,,,,,,,,,,,,,,,,,,,,,,,,,,,,,,,,,,,,,,,,,,,,,,,,,,,,,,,,,,,,,,,,,,,
1769161651.197549,1769161651.198048,43.0,0.0,4299.358887,4288.205078,4448.461426,4341.666504,4285.384766,4264.230957,4321.025879,4290.384766,4264.102539,4265.769043,4574.102539,4539.615234,4414.102539,4465.769043,,,,,,,,,,,,,,,,,,,,,,,,,,,,,,,,,,,,,,,,,,,,,,,,,,,,,,,,,,,,,,,,,,,,,,
1769161651.205358,1769161651.206056,44.0,0.0,4306.794922,4292.307617,4449.487305,4342.307617,4290.128418,4267.05127,4322.05127,4293.205078,4264.358887,4266.025879,4572.563965,4539.871582,4412.05127,4461.666504,,,,,,,,,,,,,,,,,,,,,,,,,,,,,,,,,,,,,,,,,,,,,,,,,,,,,,,,,,,,,,,,,,,,,,
1769161651.213166,1769161651.213865,45.0,0.0,4303.974121,4288.333496,4453.589844,4339.871582,4287.307617,4267.820313,4327.436035,4294.743652,4265.0,4265.897461,4571.666504,4536.410156,4411.025879,4458.333496,,,,,,,,,,,,,,,,,,,,,,,,,,,,,,,,,,,,,,,,,,,,,,,,,,,,,,,,,,,,,,,,,,,,,,
1769161651.220975,1769161651.221773,46.0,0.0,4300.641113,4287.94873,4452.692383,4340.641113,4285.897461,4271.153809,4327.307617,4292.820313,4266.538574,4264.743652,4571.538574,4538.333496,4412.436035,4459.743652,0.977379,0.311102,0.047174,0.156313,0.19246,0.414934,0.144779,0.082045,0.124081,0.161338,0.298453,0.095101,0.07704,0.125661,0.205137,0.274547,0.054341,0.077027,0.085197,0.106782,0.232421,0.067369,0.09967,0.090629,0.066284,0.401848,0.28992,0.15344,0.153599,0.15334,0.160032,0.24535,0.205547,0.155589,0.187549,0.583941,0.247125,0.174705,0.086799,0.099298,0.453454,0.406818,0.288945,0.180576,0.136194,0.18254,0.342191,0.238211,0.09844,0.179017,0.213419,0.511698,0.10259,0.118158,0.156117,0.49159,0.652832,0.105752,0.23452,0.18106,0.281416,0.41958,0.111432,0.104171,0.164745,0.558813,0.452127,0.074152,0.190145,0.274494
1769161651.228783,1769161651.229581,47.0,0.0,4304.615234,4293.077148,4446.666504,4343.205078,4289.615234,4277.05127,4326.666504,4293.077148,4266.666504,4263.589844,4571.410156,4540.769043,4412.307617,4461.666504,,,,,,,,,,,,,,,,,,,,,,,,,,,,,,,,,,,,,,,,,,,,,,,,,,,,,,,,,,,,,,,,,,,,,,
1769161651.236592,1769161651.23759,48.0,0.0,4304.230957,4291.922852,4445.128418,4341.794922,4287.05127,4276.794922,4327.179688,4293.717773,4266.410156,4263.077148,4572.436035,4538.333496,4412.307617,4462.05127,,,,,,,,,,,,,,,,,,,,,,,,,,,,,,,,,,,,,,,,,,,,,,,,,,,,,,,,,,,,,,,,,,,,,,
1769161651.2444,1769161651.245398,49.0,0.0,4301.794922,4284.743652,4446.153809,4337.563965,4282.179688,4273.846191,4323.461426,4292.563965,4265.128418,4262.563965,4572.05127,4536.922852,4413.717773,4461.025879,,,,,,,,,,,,,,,,,,,,,,,,,,,,,,,,,,,,,,,,,,,,,,,,,,,,,,,,,,,,,,,,,,,,,,
1769161651.252209,1769161651.253107,50.0,0.0,4305.641113,4284.102539,4443.077148,4337.436035,4284.615234,4271.922852,4321.922852,4291.922852,4263.717773,4262.179688,4567.94873,4537.692383,4410.0,4459.358887,,,,,,,,,,,,,,,,,,,,,,,,,,,,,,,,,,,,,,,,,,,,,,,,,,,,,,,,,,,,,,,,,,,,,,
1769161651.260017,1769161651.260915,51.0,0.0,4302.94873,4288.974121,4442.307617,4342.563965,4289.230957,4268.589844,4325.128418,4293.333496,4267.436035,4263.461426,4568.974121,4540.0,4405.256348,4458.589844,,,,,,,,,,,,,,,,,,,,,,,,,,,,,,,,,,,,,,,,,,,,,,,,,,,,,,,,,,,,,,,,,,,,,,
1769161651.267825,1769161651.268524,52.0,0.0,4296.282227,4287.563965,4442.05127,4343.589844,4288.077148,4267.563965,4326.025879,4295.384766,4272.94873,4265.769043,4576.282227,4540.512695,4407.94873,4459.487305,,,,,,,,,,,,,,,,,,,,,,,,,,,,,,,,,,,,,,,,,,,,,,,,,,,,,,,,,,,,,,,,,,,,,,
1769161651.275634,1769161651.276332,53.0,0.0,4303.974121,4285.641113,4441.410156,4342.179688,4287.692383,4270.512695,4324.743652,4295.641113,4275.512695,4268.717773,4577.820313,4539.487305,4412.436035,4466.794922,,,,,,,,,,,,,,,,,,,,,,,,,,,,,,,,,,,,,,,,,,,,,,,,,,,,,,,,,,,,,,,,,,,,,,
1769161651.283442,1769161651.284041,54.0,0.0,4315.384766,4292.179688,4445.512695,4349.102539,4292.94873,4271.794922,4322.820313,4294.871582,4276.538574,4273.461426,4577.436035,4546.153809,4418.589844,4475.512695,,,,,,,,,,,,,,,,,,,,,,,,,,,,,,,,,,,,,,,,,,,,,,,,,,,,,,,,,,,,,,,,,,,,,,
1769161651.291251,1769161651.291849,55.0,0.0,4314.102539,4297.05127,4446.922852,4354.358887,4294.358887,4272.820313,4321.025879,4296.666504,4278.333496,4280.256348,4583.717773,4556.538574,4428.846191,4477.563965,,,,,,,,,,,,,,,,,,,,,,,,,,,,,,,,,,,,,,,,,,,,,,,,,,,,,,,,,,,,,,,,,,,,,,
1769161651.299059,1769161651.299458,56.0,0.0,4310.128418,4294.615234,4444.743652,4350.897461,4290.897461,4276.153809,4321.410156,4297.94873,4278.077148,4278.333496,4589.102539,4556.538574,4428.461426,4476.538574,,,,,,,,,,,,,,,,,,,,,,,,,,,,,,,,,,,,,,,,,,,,,,,,,,,,,,,,,,,,,,,,,,,,,,
1769161651.306868,1769161651.307266,57.0,0.0,4311.282227,4292.94873,4445.128418,4348.717773,4287.563965,4277.692383,4324.743652,4296.282227,4275.512695,4266.666504,4583.205078,4551.922852,4415.512695,4471.153809,,,,,,,,,,,,,,,,,,,,,,,,,,,,,,,,,,,,,,,,,,,,,,,,,,,,,,,,,,,,,,,,,,,,,,
1769161651.314676,1769161651.315175,58.0,0.0,4313.461426,4293.205078,4444.615234,4350.512695,4286.794922,4276.153809,4325.897461,4295.384766,4276.025879,4263.589844,4575.128418,4551.794922,4412.05127,4462.692383,,,,,,,,,,,,,,,,,,,,,,,,,,,,,,,,,,,,,,,,,,,,,,,,,,,,,,,,,,,,,,,,,,,,,,
1769161651.322485,1769161651.322983,59.0,0.0,4313.077148,4293.205078,4442.692383,4350.512695,4290.512695,4277.307617,4324.230957,4296.153809,4274.487305,4268.333496,4573.717773,4551.538574,4416.025879,4458.333496,,,,,,,,,,,,,,,,,,,,,,,,,,,,,,,,,,,,,,,,,,,,,,,,,,,,,,,,,,,,,,,,,,,,,,
1769161651.330293,1769161651.330592,60.0,0.0,4308.077148,4293.461426,4443.333496,4348.846191,4292.307617,4279.230957,4324.615234,4295.769043,4269.102539,4268.333496,4577.179688,4551.922852,4415.256348,4460.384766,,,,,,,,,,,,,,,,,,,,,,,,,,,,,,,,,,,,,,,,,,,,,,,,,,,,,,,,,,,,,,,,,,,,,,
1769161651.338102,1769161651.3384,61.0,0.0,4305.897461,4295.256348,4439.487305,4348.717773,4289.871582,4278.205078,4320.641113,4294.230957,4267.179688,4271.410156,4581.794922,4553.974121,4420.384766,4466.410156,,,,,,,,,,,,,,,,,,,,,,,,,,,,,,,,,,,,,,,,,,,,,,,,,,,,,,,,,,,,,,,,,,,,,,
1769161651.34591,1769161651.346109,62.0,0.0,4308.717773,4293.077148,4429.615234,4349.487305,4287.94873,4277.563965,4318.717773,4294.487305,4268.717773,4276.922852,4582.179688,4553.333496,4427.179688,4468.205078,1.16608,0.302082,0.039719,0.17193,0.180651,0.490193,0.131963,0.064447,0.114504,0.149095,0.332339,0.099645,0.067387,0.136853,0.178174,0.394038,0.057028,0.081648,0.082163,0.100726,0.255216,0.067334,0.077214,0.081897,0.065381,0.355457,0.264246,0.13252,0.160527,0.16373,0.102225,0.272765,0.223539,0.185641,0.208322,0.553008,0.276835,0.173254,0.091137,0.107734,0.416023,0.377135,0.225425,0.195472,0.109159,0.171514,0.274019,0.231221,0.099264,0.157673,0.268074,0.534753,0.101863,0.135719,0.153241,0.598342,0.709208,0.107563,0.231975,0.157925,0.375268,0.491143,0.114621,0.111092,0.164867,0.622056,0.439357,0.073923,0.189712,0.264073
1769161651.353718,1769161651.353917,63.0,0.0,4308.333496,4289.487305,4426.153809,4350.256348,4287.179688,4280.897461,4325.512695,4295.897461,4267.307617,4271.025879,4578.974121,4553.077148,4423.077148,4463.846191,,,,,,,,,,,,,,,,,,,,,,,,,,,,,,,,,,,,,,,,,,,,,,,,,,,,,,,,,,,,,,,,,,,,,,
1769161651.361527,1769161651.361925,64.0,0.0,4306.922852,4290.128418,4428.717773,4350.641113,4286.794922,4282.563965,4323.333496,4293.461426,4263.461426,4261.922852,4571.794922,4554.102539,4412.563965,4459.358887,,,,,,,,,,,,,,,,,,,,,,,,,,,,,,,,,,,,,,,,,,,,,,,,,,,,,,,,,,,,,,,,,,,,,,
1769161651.369335,1769161651.369734,65.0,0.0,4310.769043,4292.563965,4432.820313,4350.0,4286.153809,4274.743652,4309.230957,4288.974121,4262.692383,4263.974121,4567.820313,4552.563965,4409.230957,4457.692383,,,,,,,,,,,,,,,,,,,,,,,,,,,,,,,,,,,,,,,,,,,,,,,,,,,,,,,,,,,,,,,,,,,,,,
1769161651.377144,1769161651.377642,66.0,0.0,4313.589844,4295.0,4435.769043,4351.282227,4284.102539,4268.846191,4306.153809,4290.897461,4268.077148,4275.0,4577.307617,4552.820313,4419.230957,4464.487305,,,,,,,,,,,,,,,,,,,,,,,,,,,,,,,,,,,,,,,,,,,,,,,,,,,,,,,,,,,,,,,,,,,,,,
1769161651.384952,1769161651.385451,67.0,0.0,4311.794922,4297.563965,4432.820313,4356.282227,4282.436035,4269.230957,4313.077148,4293.974121,4272.563965,4278.205078,4587.436035,4556.410156,4429.615234,4477.05127,,,,,,,,,,,,,,,,,,,,,,,,,,,,,,,,,,,,,,,,,,,,,,,,,,,,,,,,,,,,,,,,,,,,,,
1769161651.392761,1769161651.393459,68.0,0.0,4310.128418,4295.512695,4427.692383,4356.922852,4282.692383,4267.820313,4309.615234,4290.897461,4267.563965,4270.128418,4584.230957,4556.666504,4425.512695,4478.077148,,,,,,,,,,,,,,,,,,,,,,,,,,,,,,,,,,,,,,,,,,,,,,,,,,,,,,,,,,,,,,,,,,,,,,
1769161651.400569,1769161651.401267,69.0,0.0,4308.077148,4289.487305,4426.538574,4349.487305,4282.307617,4270.641113,4307.563965,4291.794922,4262.179688,4267.436035,4577.307617,4553.589844,4413.333496,4469.871582,,,,,,,,,,,,,,,,,,,,,,,,,,,,,,,,,,,,,,,,,,,,,,,,,,,,,,,,,,,,,,,,,,,,,,
1769161651.408378,1769161651.409176,70.0,0.0,4308.077148,4290.0,4428.077148,4348.717773,4285.384766,4279.487305,4319.358887,4297.820313,4270.0,4273.589844,4581.666504,4556.794922,4416.666504,4473.205078,,,,,,,,,,,,,,,,,,,,,,,,,,,,,,,,,,,,,,,,,,,,,,,,,,,,,,,,,,,,,,,,,,,,,,
1769161651.416186,1769161651.416984,71.0,0.0,4312.436035,4294.358887,4429.487305,4355.512695,4287.307617,4281.666504,4328.205078,4298.205078,4276.282227,4272.94873,4587.179688,4561.666504,4426.922852,4478.717773,,,,,,,,,,,,,,,,,,,,,,,,,,,,,,,,,,,,,,,,,,,,,,,,,,,,,,,,,,,,,,,,,,,,,,
1769161651.423994,1769161651.424992,72.0,0.0,4313.589844,4292.179688,4428.974121,4354.743652,4281.666504,4276.666504,4321.538574,4295.384766,4272.563965,4268.974121,4584.487305,4558.333496,4421.922852,4475.128418,,,,,,,,,,,,,,,,,,,,,,,,,,,,,,,,,,,,,,,,,,,,,,,,,,,,,,,,,,,,,,,,,,,,,,
1769161651.431803,1769161651.432801,73.0,0.0,4309.487305,4289.230957,4425.641113,4352.436035,4281.282227,4275.641113,4311.666504,4295.256348,4272.05127,4273.333496,4582.692383,4552.820313,4416.025879,4472.307617,,,,,,,,,,,,,,,,,,,,,,,,,,,,,,,,,,,,,,,,,,,,,,,,,,,,,,,,,,,,,,,,,,,,,,
1769161651.439611,1769161651.440509,74.0,0.0,4310.256348,4293.846191,4423.461426,4357.05127,4288.333496,4276.282227,4313.461426,4296.025879,4276.410156,4275.897461,4583.974121,4556.410156,4423.974121,4474.358887,,,,,,,,,,,,,,,,,,,,,,,,,,,,,,,,,,,,,,,,,,,,,,,,,,,,,,,,,,,,,,,,,,,,,,
1769161651.44742,1769161651.448318,75.0,0.0,4318.461426,4297.820313,4422.436035,4359.230957,4287.820313,4276.153809,4314.230957,4296.282227,4278.205078,4269.615234,4584.871582,4561.410156,4430.0,4477.436035,,,,,,,,,,,,,,,,,,,,,,,,,,,,,,,,,,,,,,,,,,,,,,,,,,,,,,,,,,,,,,,,,,,,,,
1769161651.455228,1769161651.455926,76.0,0.0,4324.358887,4295.256348,4421.666504,4358.333496,4285.0,4275.384766,4308.717773,4296.410156,4275.897461,4267.436035,4585.128418,4558.974121,4425.128418,4478.077148,,,,,,,,,,,,,,,,,,,,,,,,,,,,,,,,,,,,,,,,,,,,,,,,,,,,,,,,,,,,,,,,,,,,,,
1769161651.463037,1769161651.463735,77.0,0.0,4320.256348,4294.615234,4420.256348,4358.589844,4288.461426,4275.769043,4310.0,4296.153809,4273.846191,4274.102539,4586.025879,4556.538574,4424.615234,4476.153809,,,,,,,,,,,,,,,,,,,,,,,,,,,,,,,,,,,,,,,,,,,,,,,,,,,,,,,,,,,,,,,,,,,,,,
1769161651.470845,1769161651.471443,78.0,0.0,4313.461426,4296.410156,4414.615234,4356.025879,4288.974121,4275.256348,4313.333496,4296.794922,4275.384766,4279.230957,4587.692383,4557.436035,4429.615234,4475.769043,1.272611,0.265098,0.043104,0.183703,0.1621,0.554999,0.122429,0.059986,0.101893,0.13098,0.432845,0.105734,0.074483,0.141152,0.144754,0.545511,0.072041,0.087423,0.079168,0.092368,0.293395,0.070663,0.065521,0.074421,0.061727,0.319976,0.233126,0.118719,0.165637,0.177942,0.067933,0.29288,0.22804,0.205692,0.224187,0.485394,0.281103,0.161384,0.09198,0.111264,0.387488,0.344453,0.159722,0.191384,0.087169,0.16695,0.235816,0.212988,0.107516,0.132082,0.319976,0.514791,0.101843,0.151524,0.148816,0.702302,0.691465,0.109621,0.218276,0.141344,0.464827,0.540595,0.129572,0.114344,0.159023,0.690898,0.400641,0.097179,0.192647,0.250735
1769161651.478654,1769161651.479252,79.0,0.0,4311.666504,4295.641113,4409.871582,4354.102539,4286.794922,4273.077148,4309.871582,4297.436035,4277.563965,4275.641113,4588.461426,4557.179688,4428.333496,4477.692383,,,,,,,,,,,,,,,,,,,,,,,,,,,,,,,,,,,,,,,,,,,,,,,,,,,,,,,,,,,,,,,,,,,,,,
1769161651.486462,1769161651.486861,80.0,0.0,4311.282227,4294.358887,4411.282227,4354.615234,4287.307617,4275.769043,4313.717773,4297.692383,4277.692383,4272.307617,4587.692383,4557.179688,4425.641113,4478.461426,,,,,,,,,,,,,,,,,,,,,,,,,,,,,,,,,,,,,,,,,,,,,,,,,,,,,,,,,,,,,,,,,,,,,,
1769161651.494271,1769161651.494669,81.0,0.0,4309.487305,4294.230957,4412.179688,4351.153809,4287.179688,4279.230957,4319.871582,4297.94873,4276.922852,4274.743652,4586.666504,4558.589844,4425.256348,4477.436035,,,,,,,,,,,,,,,,,,,,,,,,,,,,,,,,,,,,,,,,,,,,,,,,,,,,,,,,,,,,,,,,,,,,,,
1769161651.502079,1769161651.502378,82.0,0.0,4306.794922,4292.692383,4407.179688,4346.025879,4286.282227,4277.692383,4315.384766,4296.922852,4277.436035,4277.307617,4585.641113,4556.410156,4425.897461,4475.897461,,,,,,,,,,,,,,,,,,,,,,,,,,,,,,,,,,,,,,,,,,,,,,,,,,,,,,,,,,,,,,,,,,,,,,
1769161651.509888,1769161651.510186,83.0,0.0,4308.974121,4293.846191,4406.153809,4351.025879,4287.436035,4277.820313,4315.256348,4296.666504,4278.717773,4279.487305,4584.230957,4553.461426,4425.641113,4474.102539,,,,,,,,,,,,,,,,,,,,,,,,,,,,,,,,,,,,,,,,,,,,,,,,,,,,,,,,,,,,,,,,,,,,,,
1769161651.517696,1769161651.518194,84.0,0.0,4315.641113,4296.922852,4410.0,4359.230957,4289.743652,4280.512695,4319.871582,4297.179688,4280.384766,4276.922852,4584.487305,4554.615234,4425.384766,4474.102539,,,,,,,,,,,,,,,,,,,,,,,,,,,,,,,,,,,,,,,,,,,,,,,,,,,,,,,,,,,,,,,,,,,,,,
1769161651.525504,1769161651.526003,85.0,0.0,4313.846191,4296.922852,4405.0,4351.794922,4290.641113,4279.743652,4314.358887,4295.769043,4278.077148,4269.102539,4585.0,4553.333496,4426.666504,4475.897461,,,,,,,,,,,,,,,,,,,,,,,,,,,,,,,,,,,,,,,,,,,,,,,,,,,,,,,,,,,,,,,,,,,,,,
1769161651.533313,1769161651.533711,86.0,0.0,4306.794922,4293.589844,4398.974121,4340.256348,4289.743652,4276.922852,4308.205078,4294.615234,4273.974121,4268.974121,4586.153809,4551.538574,4427.94873,4475.512695,,,,,,,,,,,,,,,,,,,,,,,,,,,,,,,,,,,,,,,,,,,,,,,,,,,,,,,,,,,,,,,,,,,,,,
1769161651.541121,1769161651.54152,87.0,0.0,4315.128418,4295.0,4407.05127,4345.512695,4289.102539,4275.0,4310.512695,4294.743652,4276.794922,4278.205078,4592.05127,4555.769043,4429.871582,4474.743652,,,,,,,,,,,,,,,,,,,,,,,,,,,,,,,,,,,,,,,,,,,,,,,,,,,,,,,,,,,,,,,,,,,,,,
1769161651.54893,1769161651.549128,88.0,0.0,4329.102539,4303.461426,4415.384766,4356.794922,4290.769043,4272.179688,4310.128418,4296.025879,4281.410156,4283.077148,4598.461426,4556.922852,4434.230957,4482.820313,,,,,,,,,,,,,,,,,,,,,,,,,,,,,,,,,,,,,,,,,,,,,,,,,,,,,,,,,,,,,,,,,,,,,,
1769161651.556738,1769161651.556937,89.0,0.0,4327.179688,4303.717773,4409.871582,4354.743652,4292.94873,4276.153809,4310.897461,4297.179688,4280.256348,4280.897461,4598.205078,4554.230957,4433.077148,4489.487305,,,,,,,,,,,,,,,,,,,,,,,,,,,,,,,,,,,,,,,,,,,,,,,,,,,,,,,,,,,,,,,,,,,,,,
1769161651.564547,1769161651.564645,90.0,0.0,4322.820313,4299.743652,4409.230957,4352.05127,4292.820313,4280.769043,4315.641113,4297.05127,4280.512695,4282.179688,4596.794922,4560.641113,4432.692383,4489.487305,,,,,,,,,,,,,,,,,,,,,,,,,,,,,,,,,,,,,,,,,,,,,,,,,,,,,,,,,,,,,,,,,,,,,,
1769161651.572355,1769161651.572454,91.0,0.0,4327.94873,4301.153809,4415.769043,4356.025879,4292.05127,4271.794922,4311.153809,4295.384766,4282.692383,4283.974121,4598.589844,4565.641113,4438.974121,4491.794922,,,,,,,,,,,,,,,,,,,,,,,,,,,,,,,,,,,,,,,,,,,,,,,,,,,,,,,,,,,,,,,,,,,,,,
1769161651.580164,1769161651.580462,92.0,0.0,4328.077148,4302.179688,4411.794922,4352.94873,4290.128418,4264.615234,4304.102539,4294.230957,4282.307617,4280.769043,4597.692383,4557.563965,4438.333496,4489.487305,,,,,,,,,,,,,,,,,,,,,,,,,,,,,,,,,,,,,,,,,,,,,,,,,,,,,,,,,,,,,,,,,,,,,,
1769161651.587972,1769161651.58827,93.0,0.0,4319.743652,4297.179688,4404.615234,4350.0,4290.256348,4272.820313,4307.692383,4299.102539,4281.282227,4279.102539,4590.897461,4551.666504,4429.615234,4477.692383,,,,,,,,,,,,,,,,,,,,,,,,,,,,,,,,,,,,,,,,,,,,,,,,,,,,,,,,,,,,,,,,,,,,,,
1769161651.59578,1769161651.596179,94.0,0.0,4316.666504,4296.025879,4404.615234,4353.461426,4293.205078,4277.563965,4312.820313,4305.256348,4281.282227,4279.230957,4586.282227,4557.94873,4426.666504,4474.487305,1.264897,0.212439,0.061877,0.191999,0.141704,0.595224,0.121228,0.070578,0.091972,0.110944,0.513633,0.111215,0.093937,0.140329,0.112483,0.70353,0.093657,0.091596,0.076259,0.08281,0.344934,0.0766,0.063704,0.069668,0.057093,0.303857,0.209086,0.110062,0.167652,0.188085,0.042818,0.298951,0.215063,0.210411,0.226954,0.395305,0.260343,0.142575,0.087401,0.10871,0.376388,0.311791,0.109434,0.168418,0.072058,0.168198,0.22407,0.18819,0.123309,0.107149,0.350521,0.460266,0.106917,0.166451,0.142892,0.760657,0.610426,0.116412,0.198278,0.133146,0.515812,0.550244,0.152783,0.117474,0.146513,0.728615,0.352693,0.137063,0.201517,0.236319
1769161651.603589,1769161651.603987,95.0,0.0,4325.384766,4301.794922,4406.410156,4355.0,4294.743652,4272.94873,4309.871582,4301.282227,4279.743652,4279.615234,4588.461426,4561.922852,4429.615234,4487.05127,,,,,,,,,,,,,,,,,,,,,,,,,,,,,,,,,,,,,,,,,,,,,,,,,,,,,,,,,,,,,,,,,,,,,,
1769161651.611397,1769161651.611996,96.0,0.0,4330.769043,4301.153809,4405.0,4348.717773,4291.922852,4273.974121,4310.128418,4293.589844,4277.179688,4278.846191,4588.974121,4556.922852,4430.769043,4490.641113,,,,,,,,,,,,,,,,,,,,,,,,,,,,,,,,,,,,,,,,,,,,,,,,,,,,,,,,,,,,,,,,,,,,,,
1769161651.619206,1769161651.619804,97.0,0.0,4319.871582,4294.871582,4400.769043,4344.358887,4289.487305,4277.307617,4312.307617,4297.307617,4277.820313,4278.461426,4585.384766,4554.358887,4428.205078,4480.384766,,,,,,,,,,,,,,,,,,,,,,,,,,,,,,,,,,,,,,,,,,,,,,,,,,,,,,,,,,,,,,,,,,,,,,
1769161651.627014,1769161651.627712,98.0,0.0,4305.897461,4287.820313,4396.025879,4342.692383,4290.128418,4277.563965,4312.05127,4303.846191,4281.538574,4275.256348,4580.641113,4552.692383,4418.846191,4472.307617,,,,,,,,,,,,,,,,,,,,,,,,,,,,,,,,,,,,,,,,,,,,,,,,,,,,,,,,,,,,,,,,,,,,,,
1769161651.634823,1769161651.635521,99.0,0.0,4303.461426,4286.410156,4393.461426,4337.692383,4288.846191,4277.820313,4314.487305,4301.666504,4286.794922,4276.666504,4580.769043,4551.282227,4417.436035,4474.743652,,,,,,,,,,,,,,,,,,,,,,,,,,,,,,,,,,,,,,,,,,,,,,,,,,,,,,,,,,,,,,,,,,,,,,
1769161651.642631,1769161651.643129,100.0,0.0,4312.563965,4293.974121,4400.512695,4342.179688,4286.282227,4274.230957,4314.102539,4302.94873,4295.0,4292.436035,4595.512695,4561.025879,4438.205078,4492.307617,,,,,,,,,,,,,,,,,,,,,,,,,,,,,,,,,,,,,,,,,,,,,,,,,,,,,,,,,,,,,,,,,,,,,,
1769161651.65044,1769161651.650938,101.0,0.0,4321.922852,4301.153809,4409.230957,4355.256348,4287.94873,4272.563965,4306.794922,4305.128418,4298.333496,4297.820313,4603.846191,4570.641113,4448.974121,4506.025879,,,,,,,,,,,,,,,,,,,,,,,,,,,,,,,,,,,,,,,,,,,,,,,,,,,,,,,,,,,,,,,,,,,,,,
1769161651.658248,1769161651.658646,102.0,0.0,4322.307617,4300.384766,4408.846191,4358.461426,4290.512695,4275.769043,4305.256348,4300.769043,4293.717773,4283.333496,4590.128418,4565.128418,4433.589844,4498.077148,,,,,,,,,,,,,,,,,,,,,,,,,,,,,,,,,,,,,,,,,,,,,,,,,,,,,,,,,,,,,,,,,,,,,,
1769161651.666057,1769161651.666455,103.0,0.0,4321.666504,4295.769043,4403.974121,4352.05127,4291.153809,4276.153809,4312.307617,4302.94873,4292.820313,4280.256348,4585.897461,4561.794922,4422.820313,4488.205078,,,,,,,,,,,,,,,,,,,,,,,,,,,,,,,,,,,,,,,,,,,,,,,,,,,,,,,,,,,,,,,,,,,,,,
1769161651.673865,1769161651.674063,104.0,0.0,4321.666504,4298.333496,4403.589844,4348.333496,4291.922852,4273.717773,4312.179688,4307.94873,4294.743652,4289.230957,4599.743652,4569.871582,4429.743652,4492.94873,,,,,,,,,,,,,,,,,,,,,,,,,,,,,,,,,,,,,,,,,,,,,,,,,,,,,,,,,,,,,,,,,,,,,,
1769161651.681673,1769161651.681872,105.0,0.0,4317.179688,4297.179688,4404.358887,4345.256348,4287.692383,4273.589844,4307.563965,4299.230957,4287.94873,4284.743652,4596.666504,4571.666504,4431.922852,4496.922852,,,,,,,,,,,,,,,,,,,,,,,,,,,,,,,,,,,,,,,,,,,,,,,,,,,,,,,,,,,,,,,,,,,,,,
