Timestamp,OriginalTimestamp,EEG.Counter,EEG.Interpolated,EEG.AF3,EEG.F7,EEG.F3,EEG.FC5,EEG.T7,EEG.P7,EEG.O1,EEG.O2,EEG.P8,EEG.T8,EEG.FC6,EEG.F4,EEG.F8,EEG.AF4,POW.AF3.Theta,POW.AF3.Alpha,POW.AF3.BetaL,POW.AF3.BetaH,POW.AF3.Gamma,POW.F7.Theta,POW.F7.Alpha,POW.F7.BetaL,POW.F7.BetaH,POW.F7.Gamma,POW.F3.Theta,POW.F3.Alpha,POW.F3.BetaL,POW.F3.BetaH,POW.F3.Gamma,POW.FC5.Theta,POW.FC5.Alpha,POW.FC5.BetaL,POW.FC5.BetaH,POW.FC5.Gamma,POW.T7.Theta,POW.T7.Alpha,POW.T7.BetaL,POW.T7.BetaH,POW.T7.Gamma,POW.P7.Theta,POW.P7.Alpha,POW.P7.BetaL,POW.P7.BetaH,POW.P7.Gamma,POW.O1.Theta,POW.O1.Alpha,POW.O1.BetaL,POW.O1.BetaH,POW.O1.Gamma,POW.O2.Theta,POW.O2.Alpha,POW.O2.BetaL,POW.O2.BetaH,POW.O2.Gamma,POW.P8.Theta,POW.P8.Alpha,POW.P8.BetaL,POW.P8.BetaH,POW.P8.Gamma,POW.T8.Theta,POW.T8.Alpha,POW.T8.BetaL,POW.T8.BetaH,POW.T8.Gamma,POW.FC6.Theta,POW.FC6.Alpha,POW.FC6.BetaL,POW.FC6.BetaH,POW.FC6.Gamma,POW.F4.Theta,POW.F4.Alpha,POW.F4.BetaL,POW.F4.BetaH,POW.F4.Gamma,POW.F8.Theta,POW.F8.Alpha,POW.F8.BetaL,POW.F8.BetaH,POW.F8.Gamma,POW.AF4.Theta,POW.AF4.Alpha,POW.AF4.BetaL,POW.AF4.BetaH,POW.AF4.Gamma
1769161713.649508,1769161713.650008,105.0,0.0,4337.179688,4289.487305,4399.615234,4338.333496,4274.358887,4254.743652,4271.025879,4270.256348,4261.025879,4262.692383,4568.461426,4539.102539,4412.563965,4507.692383,,,,,,,,,,,,,,,,,,,,,,,,,,,,,,,,,,,,,,,,,,,,,,,,,,,,,,,,,,,,,,,,,,,,,,
1769161713.657317,1769161713.657716,106.0,0.0,4327.94873,4287.820313,4390.256348,4336.153809,4275.384766,4263.974121,4279.230957,4268.461426,4258.974121,4263.589844,4569.743652,4537.94873,4406.922852,4497.179688,,,,,,,,,,,,,,,,,,,,,,,,,,,,,,,,,,,,,,,,,,,,,,,,,,,,,,,,,,,,,,,,,,,,,,
1769161713.665125,1769161713.665525,107.0,0.0,4326.153809,4285.384766,4385.256348,4340.0,4274.743652,4259.871582,4273.333496,4264.358887,4256.282227,4261.538574,4567.820313,4535.897461,4406.794922,4497.05127,,,,,,,,,,,,,,,,,,,,,,,,,,,,,,,,,,,,,,,,,,,,,,,,,,,,,,,,,,,,,,,,,,,,,,
1769161713.672933,1769161713.673533,108.0,0.0,4328.717773,4290.128418,4392.05127,4342.820313,4276.153809,4251.666504,4270.897461,4272.05127,4258.974121,4264.615234,4571.922852,4540.256348,4414.230957,4505.128418,,,,,,,,,,,,,,,,,,,,,,,,,,,,,,,,,,,,,,,,,,,,,,,,,,,,,,,,,,,,,,,,,,,,,,
1769161713.680742,1769161713.681341,109.0,0.0,4323.333496,4286.410156,4393.461426,4338.717773,4276.025879,4254.358887,4275.897461,4276.538574,4262.692383,4267.179688,4575.0,4542.05127,4415.769043,4498.205078,,,,,,,,,,,,,,,,,,,,,,,,,,,,,,,,,,,,,,,,,,,,,,,,,,,,,,,,,,,,,,,,,,,,,,
1769161713.68855,1769161713.68925,110.0,0.0,4312.179688,4279.487305,4386.282227,4334.615234,4274.358887,4260.128418,4274.487305,4272.05127,4261.794922,4262.563965,4569.615234,4536.666504,4411.025879,4486.282227,2.142982,0.60864,0.494204,0.283573,0.173456,0.630889,0.563739,0.355989,0.165034,0.205154,0.319929,0.499276,0.313121,0.184936,0.161627,0.732436,0.42172,0.275522,0.065284,0.071997,0.239707,0.187939,0.116466,0.063882,0.04953,0.209391,0.179315,0.066284,0.105358,0.151418,0.1202,0.142414,0.112905,0.169434,0.192563,0.121356,0.084529,0.065509,0.091402,0.079987,0.350222,0.22391,0.227609,0.12456,0.188083,0.34767,0.235098,0.133215,0.132501,0.273408,0.652812,0.450715,0.176187,0.111535,0.164232,0.30789,0.387233,0.201997,0.145685,0.18011,1.273462,0.799523,0.286276,0.109815,0.222434,3.520525,1.392202,0.548057,0.279207,0.255541
1769161713.696359,1769161713.697058,111.0,0.0,4310.897461,4282.307617,4386.410156,4338.333496,4277.307617,4263.077148,4273.974121,4273.717773,4262.307617,4264.230957,4572.05127,4536.282227,4413.333496,4488.846191,,,,,,,,,,,,,,,,,,,,,,,,,,,,,,,,,,,,,,,,,,,,,,,,,,,,,,,,,,,,,,,,,,,,,,
1769161713.704167,1769161713.705066,112.0,0.0,4312.94873,4283.589844,4385.769043,4339.487305,4280.0,4262.692383,4280.384766,4279.743652,4268.461426,4274.615234,4582.307617,4540.0,4423.205078,4494.102539,,,,,,,,,,,,,,,,,,,,,,,,,,,,,,,,,,,,,,,,,,,,,,,,,,,,,,,,,,,,,,,,,,,,,,
1769161713.711976,1769161713.712875,113.0,0.0,4303.717773,4278.461426,4375.769043,4331.538574,4279.358887,4262.820313,4281.410156,4283.717773,4275.0,4279.615234,4585.897461,4540.384766,4425.512695,4491.666504,,,,,,,,,,,,,,,,,,,,,,,,,,,,,,,,,,,,,,,,,,,,,,,,,,,,,,,,,,,,,,,,,,,,,,
1769161713.719784,1769161713.720583,114.0,0.0,4294.487305,4278.717773,4370.897461,4326.666504,4280.256348,4262.307617,4277.179688,4286.538574,4280.512695,4277.820313,4585.0,4540.897461,4417.820313,4489.102539,,,,,,,,,,,,,,,,,,,,,,,,,,,,,,,,,,,,,,,,,,,,,,,,,,,,,,,,,,,,,,,,,,,,,,
1769161713.727593,1769161713.728392,115.0,0.0,4294.487305,4280.641113,4371.666504,4327.436035,4278.589844,4262.820313,4278.717773,4283.461426,4276.153809,4277.05127,4579.743652,4540.641113,4411.666504,4478.077148,,,,,,,,,,,,,,,,,,,,,,,,,,,,,,,,,,,,,,,,,,,,,,,,,,,,,,,,,,,,,,,,,,,,,,
1769161713.735401,1769161713.7364,116.0,0.0,4293.077148,4277.436035,4365.897461,4323.333496,4277.307617,4265.256348,4281.538574,4278.461426,4268.333496,4276.794922,4572.820313,4537.05127,4412.692383,4471.922852,,,,,,,,,,,,,,,,,,,,,,,,,,,,,,,,,,,,,,,,,,,,,,,,,,,,,,,,,,,,,,,,,,,,,,
1769161713.743209,1769161713.744208,117.0,0.0,4291.025879,4276.282227,4363.461426,4323.846191,4280.0,4264.102539,4277.179688,4279.358887,4272.94873,4279.230957,4573.846191,4536.538574,4414.487305,4482.692383,,,,,,,,,,,,,,,,,,,,,,,,,,,,,,,,,,,,,,,,,,,,,,,,,,,,,,,,,,,,,,,,,,,,,,
1769161713.751018,1769161713.752017,118.0,0.0,4296.538574,4278.461426,4370.0,4330.897461,4279.358887,4262.94873,4273.205078,4279.615234,4276.282227,4278.205078,4577.05127,4540.897461,4413.846191,4489.102539,,,,,,,,,,,,,,,,,,,,,,,,,,,,,,,,,,,,,,,,,,,,,,,,,,,,,,,,,,,,,,,,,,,,,,
1769161713.758826,1769161713.759825,119.0,0.0,4297.179688,4275.512695,4374.743652,4328.589844,4275.384766,4266.025879,4278.846191,4278.717773,4266.666504,4268.077148,4573.846191,4542.307617,4412.563965,4481.282227,,,,,,,,,,,,,,,,,,,,,,,,,,,,,,,,,,,,,,,,,,,,,,,,,,,,,,,,,,,,,,,,,,,,,,
1769161713.766635,1769161713.767434,120.0,0.0,4293.717773,4274.615234,4374.102539,4326.922852,4276.153809,4267.179688,4282.307617,4280.641113,4264.102539,4268.461426,4571.922852,4541.025879,4412.179688,4476.922852,,,,,,,,,,,,,,,,,,,,,,,,,,,,,,,,,,,,,,,,,,,,,,,,,,,,,,,,,,,,,,,,,,,,,,
1769161713.774443,1769161713.775242,121.0,0.0,4301.666504,4284.871582,4373.846191,4337.307617,4278.974121,4262.307617,4276.666504,4279.743652,4271.025879,4278.077148,4574.871582,4540.769043,4414.743652,4481.538574,,,,,,,,,,,,,,,,,,,,,,,,,,,,,,,,,,,,,,,,,,,,,,,,,,,,,,,,,,,,,,,,,,,,,,
1769161713.782252,1769161713.782951,122.0,0.0,4310.128418,4289.358887,4374.102539,4340.769043,4277.692383,4262.179688,4277.179688,4278.846191,4268.461426,4273.974121,4573.461426,4542.179688,4414.487305,4480.769043,,,,,,,,,,,,,,,,,,,,,,,,,,,,,,,,,,,,,,,,,,,,,,,,,,,,,,,,,,,,,,,,,,,,,,
1769161713.79006,1769161713.790759,123.0,0.0,4303.333496,4282.05127,4373.717773,4333.461426,4275.0,4265.897461,4282.179688,4282.436035,4264.358887,4264.102539,4571.153809,4548.717773,4411.922852,4476.794922,,,,,,,,,,,,,,,,,,,,,,,,,,,,,,,,,,,,,,,,,,,,,,,,,,,,,,,,,,,,,,,,,,,,,,
1769161713.797869,1769161713.798768,124.0,0.0,4293.077148,4278.974121,4374.487305,4332.94873,4271.282227,4264.102539,4278.717773,4284.230957,4266.282227,4265.512695,4572.179688,4553.589844,4411.794922,4477.307617,,,,,,,,,,,,,,,,,,,,,,,,,,,,,,,,,,,,,,,,,,,,,,,,,,,,,,,,,,,,,,,,,,,,,,
1769161713.805677,1769161713.806576,125.0,0.0,4297.307617,4282.820313,4374.102539,4337.436035,4268.589844,4260.256348,4274.487305,4281.410156,4265.641113,4268.205078,4570.897461,4548.333496,4410.0,4477.436035,,,,,,,,,,,,,,,,,,,,,,,,,,,,,,,,,,,,,,,,,,,,,,,,,,,,,,,,,,,,,,,,,,,,,,
1769161713.813486,1769161713.814285,126.0,0.0,4308.205078,4282.436035,4375.769043,4338.589844,4272.94873,4261.410156,4278.846191,4280.512695,4264.615234,4266.410156,4567.94873,4544.615234,4407.307617,4477.05127,1.67208,0.696435,0.422129,0.288485,0.188302,0.582021,0.614847,0.38123,0.164585,0.213025,0.371488,0.624325,0.302283,0.21386,0.149124,0.805965,0.432672,0.262529,0.075239,0.073922,0.172429,0.166964,0.120289,0.068663,0.043084,0.188786,0.186914,0.087624,0.126473,0.139009,0.13293,0.168344,0.133185,0.194948,0.180938,0.127803,0.107493,0.096194,0.081464,0.077219,0.3107,0.168702,0.296521,0.115422,0.177809,0.281961,0.259731,0.158071,0.13281,0.26596,0.617652,0.414339,0.168463,0.138905,0.152923,0.325568,0.388432,0.212456,0.173942,0.154661,1.222978,0.942184,0.272319,0.116756,0.212889,2.523375,1.476303,0.523515,0.334676,0.215022
1769161713.821294,1769161713.822093,127.0,0.0,4313.846191,4281.538574,4379.230957,4340.384766,4275.897461,4262.692383,4276.666504,4280.769043,4263.717773,4266.666504,4567.94873,4546.666504,4404.487305,4476.410156,,,,,,,,,,,,,,,,,,,,,,,,,,,,,,,,,,,,,,,,,,,,,,,,,,,,,,,,,,,,,,,,,,,,,,
1769161713.829103,1769161713.829702,0.0,0.0,4311.282227,4283.974121,4377.436035,4341.153809,4273.589844,4262.05127,4268.333496,4278.205078,4261.666504,4266.282227,4568.205078,4546.282227,4403.974121,4477.563965,,,,,,,,,,,,,,,,,,,,,,,,,,,,,,,,,,,,,,,,,,,,,,,,,,,,,,,,,,,,,,,,,,,,,,
1769161713.836911,1769161713.83751,1.0,0.0,4304.871582,4283.077148,4372.179688,4335.641113,4272.94873,4262.436035,4272.05127,4276.922852,4260.769043,4264.102539,4564.487305,4544.102539,4408.461426,4477.94873,,,,,,,,,,,,,,,,,,,,,,,,,,,,,,,,,,,,,,,,,,,,,,,,,,,,,,,,,,,,,,,,,,,,,,
1769161713.84472,1769161713.845219,2.0,0.0,4307.563965,4281.282227,4373.461426,4333.846191,4272.94873,4262.563965,4277.692383,4278.333496,4259.358887,4262.94873,4561.025879,4548.717773,4410.641113,4478.205078,,,,,,,,,,,,,,,,,,,,,,,,,,,,,,,,,,,,,,,,,,,,,,,,,,,,,,,,,,,,,,,,,,,,,,
1769161713.852528,1769161713.853027,3.0,0.0,4313.077148,4281.410156,4377.820313,4337.563965,4270.769043,4262.94873,4275.128418,4278.974121,4256.538574,4262.94873,4559.743652,4551.794922,4405.256348,4477.179688,,,,,,,,,,,,,,,,,,,,,,,,,,,,,,,,,,,,,,,,,,,,,,,,,,,,,,,,,,,,,,,,,,,,,,
1769161713.860336,1769161713.861035,4.0,0.0,4305.641113,4278.846191,4371.025879,4333.717773,4271.410156,4263.974121,4275.256348,4282.179688,4256.025879,4262.692383,4555.128418,4544.871582,4397.563965,4470.256348,,,,,,,,,,,,,,,,,,,,,,,,,,,,,,,,,,,,,,,,,,,,,,,,,,,,,,,,,,,,,,,,,,,,,,
1769161713.868145,1769161713.868844,5.0,0.0,4294.871582,4275.256348,4365.256348,4330.0,4277.820313,4264.230957,4277.94873,4288.974121,4259.358887,4260.769043,4553.717773,4543.846191,4393.077148,4466.410156,,,,,,,,,,,,,,,,,,,,,,,,,,,,,,,,,,,,,,,,,,,,,,,,,,,,,,,,,,,,,,,,,,,,,,
1769161713.875953,1769161713.876752,6.0,0.0,4294.102539,4275.0,4372.820313,4334.230957,4277.179688,4263.333496,4278.205078,4296.282227,4265.769043,4264.871582,4563.205078,4553.461426,4398.717773,4472.563965,,,,,,,,,,,,,,,,,,,,,,,,,,,,,,,,,,,,,,,,,,,,,,,,,,,,,,,,,,,,,,,,,,,,,,
1769161713.883762,1769161713.884561,7.0,0.0,4299.743652,4276.153809,4378.461426,4332.94873,4269.230957,4264.743652,4279.615234,4295.256348,4268.846191,4271.922852,4573.333496,4559.615234,4409.615234,4478.205078,,,,,,,,,,,,,,,,,,,,,,,,,,,,,,,,,,,,,,,,,,,,,,,,,,,,,,,,,,,,,,,,,,,,,,
1769161713.89157,1769161713.892569,8.0,0.0,4305.897461,4278.717773,4373.333496,4331.282227,4264.358887,4262.563965,4273.974121,4285.512695,4264.615234,4270.384766,4573.077148,4557.307617,4408.717773,4476.794922,,,,,,,,,,,,,,,,,,,,,,,,,,,,,,,,,,,,,,,,,,,,,,,,,,,,,,,,,,,,,,,,,,,,,,
1769161713.899379,1769161713.900377,9.0,0.0,4305.512695,4281.282227,4367.307617,4333.461426,4266.666504,4257.820313,4262.563965,4283.461426,4261.922852,4264.871582,4568.077148,4553.077148,4401.410156,4475.769043,,,,,,,,,,,,,,,,,,,,,,,,,,,,,,,,,,,,,,,,,,,,,,,,,,,,,,,,,,,,,,,,,,,,,,
1769161713.907187,1769161713.908286,10.0,0.0,4297.692383,4278.589844,4361.538574,4329.743652,4270.128418,4259.743652,4267.436035,4286.666504,4264.358887,4265.641113,4567.436035,4552.307617,4406.922852,4476.666504,,,,,,,,,,,,,,,,,,,,,,,,,,,,,,,,,,,,,,,,,,,,,,,,,,,,,,,,,,,,,,,,,,,,,,
1769161713.914996,1769161713.916094,11.0,0.0,4295.512695,4276.794922,4355.128418,4327.692383,4269.743652,4263.077148,4276.025879,4285.769043,4265.384766,4272.436035,4571.025879,4555.128418,4413.461426,4476.025879,,,,,,,,,,,,,,,,,,,,,,,,,,,,,,,,,,,,,,,,,,,,,,,,,,,,,,,,,,,,,,,,,,,,,,
1769161713.922804,1769161713.923703,12.0,0.0,4296.922852,4280.128418,4360.0,4332.179688,4273.077148,4262.692383,4275.512695,4288.205078,4265.0,4275.384766,4573.974121,4558.461426,4412.307617,4477.436035,,,,,,,,,,,,,,,,,,,,,,,,,,,,,,,,,,,,,,,,,,,,,,,,,,,,,,,,,,,,,,,,,,,,,,
1769161713.930612,1769161713.931511,13.0,0.0,4296.538574,4283.077148,4366.282227,4333.589844,4278.333496,4263.589844,4275.769043,4291.153809,4264.871582,4269.615234,4573.461426,4557.820313,4412.179688,4479.487305,,,,,,,,,,,,,,,,,,,,,,,,,,,,,,,,,,,,,,,,,,,,,,,,,,,,,,,,,,,,,,,,,,,,,,
1769161713.938421,1769161713.93942,14.0,0.0,4300.512695,4281.538574,4362.563965,4335.512695,4279.615234,4266.794922,4277.94873,4283.589844,4262.563965,4263.077148,4571.410156,4555.641113,4414.102539,4478.077148,1.352582,0.803903,0.357605,0.276144,0.206069,0.576101,0.683073,0.411016,0.151651,0.210584,0.493207,0.727638,0.272377,0.240838,0.133394,0.847829,0.443272,0.237627,0.090238,0.080216,0.132168,0.145823,0.120855,0.076348,0.037562,0.168372,0.178709,0.107061,0.145311,0.123737,0.156969,0.185282,0.147204,0.211089,0.164975,0.174492,0.148493,0.137288,0.068151,0.072052,0.307533,0.140716,0.372457,0.103423,0.155108,0.266989,0.311273,0.197721,0.133354,0.241169,0.641312,0.410143,0.152997,0.178837,0.139941,0.406832,0.40158,0.213208,0.213803,0.129287,1.17359,1.092712,0.254955,0.131553,0.199791,1.871918,1.57186,0.501572,0.392565,0.179419
1769161713.946229,1769161713.947228,15.0,0.0,4304.615234,4282.692383,4362.307617,4338.589844,4278.974121,4265.384766,4277.563965,4278.461426,4263.077148,4264.615234,4571.538574,4555.897461,4414.358887,4476.666504,,,,,,,,,,,,,,,,,,,,,,,,,,,,,,,,,,,,,,,,,,,,,,,,,,,,,,,,,,,,,,,,,,,,,,
1769161713.954038,1769161713.954837,16.0,0.0,4303.077148,4286.922852,4366.922852,4335.384766,4278.333496,4263.333496,4278.461426,4281.282227,4263.846191,4266.410156,4571.922852,4560.641113,4412.94873,4481.410156,,,,,,,,,,,,,,,,,,,,,,,,,,,,,,,,,,,,,,,,,,,,,,,,,,,,,,,,,,,,,,,,,,,,,,
1769161713.961846,1769161713.962645,17.0,0.0,4301.410156,4288.077148,4366.282227,4332.307617,4278.205078,4263.974121,4276.410156,4279.615234,4261.538574,4265.256348,4574.743652,4567.05127,4415.0,4488.717773,,,,,,,,,,,,,,,,,,,,,,,,,,,,,,,,,,,,,,,,,,,,,,,,,,,,,,,,,,,,,,,,,,,,,,
1769161713.969655,1769161713.970354,18.0,0.0,4307.05127,4290.128418,4368.846191,4338.205078,4279.230957,4262.563965,4271.922852,4281.025879,4266.410156,4273.589844,4582.05127,4571.282227,4418.205078,4492.820313,,,,,,,,,,,,,,,,,,,,,,,,,,,,,,,,,,,,,,,,,,,,,,,,,,,,,,,,,,,,,,,,,,,,,,
1769161713.977463,1769161713.978162,19.0,0.0,4312.05127,4291.025879,4373.846191,4342.05127,4281.794922,4261.282227,4273.589844,4283.846191,4272.179688,4281.282227,4581.410156,4568.077148,4416.410156,4492.94873,,,,,,,,,,,,,,,,,,,,,,,,,,,,,,,,,,,,,,,,,,,,,,,,,,,,,,,,,,,,,,,,,,,,,,
1769161713.985272,1769161713.985771,20.0,0.0,4306.025879,4284.871582,4365.897461,4334.743652,4279.102539,4262.820313,4275.769043,4279.230957,4266.025879,4273.589844,4572.436035,4558.461426,4412.94873,4484.102539,,,,,,,,,,,,,,,,,,,,,,,,,,,,,,,,,,,,,,,,,,,,,,,,,,,,,,,,,,,,,,,,,,,,,,
1769161713.99308,1769161713.993579,21.0,0.0,4300.0,4279.102539,4357.05127,4329.102539,4276.538574,4263.461426,4274.230957,4277.563965,4260.384766,4265.769043,4569.358887,4554.615234,4408.205078,4473.717773,,,,,,,,,,,,,,,,,,,,,,,,,,,,,,,,,,,,,,,,,,,,,,,,,,,,,,,,,,,,,,,,,,,,,,
1769161714.000888,1769161714.001488,22.0,0.0,4306.538574,4282.179688,4365.512695,4336.025879,4277.820313,4262.436035,4278.974121,4280.769043,4263.846191,4268.461426,4571.410156,4558.205078,4405.256348,4481.025879,,,,,,,,,,,,,,,,,,,,,,,,,,,,,,,,,,,,,,,,,,,,,,,,,,,,,,,,,,,,,,,,,,,,,,
1769161714.008697,1769161714.009296,23.0,0.0,4313.333496,4284.487305,4374.743652,4341.794922,4277.179688,4262.94873,4281.153809,4278.717773,4263.461426,4267.05127,4568.717773,4556.666504,4408.846191,4490.769043,,,,,,,,,,,,,,,,,,,,,,,,,,,,,,,,,,,,,,,,,,,,,,,,,,,,,,,,,,,,,,,,,,,,,,
1769161714.016505,1769161714.016905,24.0,0.0,4310.384766,4282.94873,4368.846191,4339.871582,4276.666504,4262.692383,4268.846191,4274.102539,4259.358887,4261.922852,4567.820313,4551.538574,4410.769043,4482.94873,,,,,,,,,,,,,,,,,,,,,,,,,,,,,,,,,,,,,,,,,,,,,,,,,,,,,,,,,,,,,,,,,,,,,,
1769161714.024314,1769161714.024713,25.0,0.0,4304.871582,4282.436035,4358.461426,4338.717773,4278.077148,4261.922852,4261.922852,4273.974121,4262.179688,4263.461426,4568.717773,4548.717773,4401.282227,4475.512695,,,,,,,,,,,,,,,,,,,,,,,,,,,,,,,,,,,,,,,,,,,,,,,,,,,,,,,,,,,,,,,,,,,,,,
1769161714.032122,1769161714.032422,26.0,0.0,4303.974121,4281.666504,4355.897461,4338.205078,4276.922852,4264.102539,4273.717773,4275.512695,4262.692383,4265.769043,4565.0,4542.820313,4395.0,4477.179688,,,,,,,,,,,,,,,,,,,,,,,,,,,,,,,,,,,,,,,,,,,,,,,,,,,,,,,,,,,,,,,,,,,,,,
1769161714.039931,1769161714.04023,27.0,0.0,4304.871582,4285.0,4355.512695,4333.077148,4275.128418,4264.743652,4281.666504,4277.436035,4258.717773,4266.922852,4565.897461,4537.307617,4399.102539,4476.025879,,,,,,,,,,,,,,,,,,,,,,,,,,,,,,,,,,,,,,,,,,,,,,,,,,,,,,,,,,,,,,,,,,,,,,
1769161714.047739,1769161714.047839,28.0,0.0,4297.563965,4286.922852,4351.666504,4329.615234,4276.538574,4263.589844,4272.307617,4278.717773,4259.230957,4267.820313,4570.641113,4539.230957,4398.974121,4476.794922,,,,,,,,,,,,,,,,,,,,,,,,,,,,,,,,,,,,,,,,,,,,,,,,,,,,,,,,,,,,,,,,,,,,,,
1769161714.055548,1769161714.055647,29.0,0.0,4294.230957,4282.820313,4351.025879,4330.256348,4276.794922,4265.256348,4262.307617,4276.666504,4262.179688,4269.743652,4569.615234,4540.512695,4399.743652,4486.538574,,,,,,,,,,,,,,,,,,,,,,,,,,,,,,,,,,,,,,,,,,,,,,,,,,,,,,,,,,,,,,,,,,,,,,
1769161714.063356,1769161714.063356,30.0,0.0,4305.128418,4281.666504,4354.487305,4330.769043,4274.743652,4266.538574,4267.179688,4277.05127,4262.179688,4270.769043,4568.974121,4539.102539,4406.025879,4490.128418,1.392829,0.901441,0.321339,0.254744,0.22635,0.608175,0.745762,0.442881,0.131329,0.200216,0.714498,0.783509,0.238313,0.262204,0.117633,0.86985,0.450429,0.208798,0.110282,0.090204,0.130648,0.120987,0.116896,0.085424,0.033731,0.158451,0.156524,0.118789,0.155687,0.109545,0.204603,0.19185,0.153179,0.211499,0.148816,0.2798,0.196378,0.182176,0.055682,0.067631,0.361315,0.130778,0.446834,0.092654,0.127421,0.315854,0.370682,0.254702,0.132033,0.206126,0.716038,0.434353,0.135481,0.223634,0.129474,0.541124,0.418332,0.207928,0.263096,0.110124,1.114396,1.216363,0.238249,0.150348,0.1839,1.874787,1.664881,0.494215,0.442053,0.159134
1769161714.071164,1769161714.071164,31.0,0.0,4304.615234,4281.538574,4351.410156,4326.538574,4275.256348,4266.538574,4277.820313,4280.0,4263.077148,4268.077148,4572.179688,4541.025879,4408.717773,4486.153809,,,,,,,,,,,,,,,,,,,,,,,,,,,,,,,,,,,,,,,,,,,,,,,,,,,,,,,,,,,,,,,,,,,,,,
1769161714.078973,1769161714.079172,32.0,0.0,4295.256348,4279.102539,4346.666504,4327.307617,4278.077148,4266.025879,4278.077148,4276.922852,4264.871582,4269.871582,4571.922852,4542.94873,4409.102539,4488.717773,,,,,,,,,,,,,,,,,,,,,,,,,,,,,,,,,,,,,,,,,,,,,,,,,,,,,,,,,,,,,,,,,,,,,,
1769161714.086781,1769161714.086981,33.0,0.0,4302.307617,4283.333496,4346.922852,4332.563965,4278.846191,4262.436035,4269.102539,4275.256348,4263.717773,4278.717773,4571.410156,4542.820313,4411.794922,4492.05127,,,,,,,,,,,,,,,,,,,,,,,,,,,,,,,,,,,,,,,,,,,,,,,,,,,,,,,,,,,,,,,,,,,,,,
1769161714.09459,1769161714.094889,34.0,0.0,4306.410156,4290.641113,4348.846191,4330.769043,4277.179688,4260.512695,4263.077148,4275.256348,4263.974121,4278.974121,4573.846191,4541.666504,4410.897461,4483.974121,,,,,,,,,,,,,,,,,,,,,,,,,,,,,,,,,,,,,,,,,,,,,,,,,,,,,,,,,,,,,,,,,,,,,,
1769161714.102398,1769161714.102698,35.0,0.0,4297.307617,4286.794922,4349.615234,4328.205078,4274.743652,4262.94873,4267.179688,4269.102539,4263.589844,4266.794922,4572.05127,4537.563965,4405.769043,4476.794922,,,,,,,,,,,,,,,,,,,,,,,,,,,,,,,,,,,,,,,,,,,,,,,,,,,,,,,,,,,,,,,,,,,,,,
1769161714.110207,1769161714.110706,36.0,0.0,4300.512695,4279.871582,4347.563965,4327.179688,4272.692383,4264.871582,4276.794922,4269.102539,4260.897461,4262.05127,4569.230957,4535.512695,4400.256348,4484.743652,,,,,,,,,,,,,,,,,,,,,,,,,,,,,,,,,,,,,,,,,,,,,,,,,,,,,,,,,,,,,,,,,,,,,,
1769161714.118015,1769161714.118514,37.0,0.0,4311.025879,4283.846191,4348.077148,4325.897461,4274.102539,4265.769043,4278.333496,4274.743652,4262.820313,4267.820313,4571.666504,4538.846191,4398.461426,4493.974121,,,,,,,,,,,,,,,,,,,,,,,,,,,,,,,,,,,,,,,,,,,,,,,,,,,,,,,,,,,,,,,,,,,,,,
1769161714.125824,1769161714.126223,38.0,0.0,4311.025879,4290.641113,4355.128418,4332.436035,4277.820313,4267.436035,4272.94873,4270.384766,4266.666504,4274.358887,4573.974121,4541.025879,4406.794922,4494.487305,,,,,,,,,,,,,,,,,,,,,,,,,,,,,,,,,,,,,,,,,,,,,,,,,,,,,,,,,,,,,,,,,,,,,,
1769161714.133632,1769161714.134031,39.0,0.0,4308.846191,4290.128418,4354.743652,4336.922852,4278.717773,4267.820313,4273.846191,4266.922852,4266.282227,4277.94873,4571.794922,4538.589844,4413.589844,4491.025879,,,,,,,,,,,,,,,,,,,,,,,,,,,,,,,,,,,,,,,,,,,,,,,,,,,,,,,,,,,,,,,,,,,,,,
1769161714.141441,1769161714.14204,40.0,0.0,4307.436035,4288.205078,4348.846191,4329.102539,4275.897461,4267.307617,4280.128418,4273.846191,4265.897461,4278.205078,4569.102539,4537.179688,4407.563965,4489.615234,,,,,,,,,,,,,,,,,,,,,,,,,,,,,,,,,,,,,,,,,,,,,,,,,,,,,,,,,,,,,,,,,,,,,,
1769161714.149249,1769161714.149848,41.0,0.0,4305.512695,4288.846191,4349.102539,4324.358887,4274.487305,4267.94873,4278.717773,4276.666504,4266.282227,4278.717773,4567.692383,4537.436035,4401.794922,4491.025879,,,,,,,,,,,,,,,,,,,,,,,,,,,,,,,,,,,,,,,,,,,,,,,,,,,,,,,,,,,,,,,,,,,,,,
1769161714.157057,1769161714.157557,42.0,0.0,4307.94873,4286.666504,4347.563965,4328.974121,4274.487305,4265.641113,4267.307617,4272.820313,4265.641113,4278.717773,4568.461426,4537.563965,4406.410156,4493.974121,,,,,,,,,,,,,,,,,,,,,,,,,,,,,,,,,,,,,,,,,,,,,,,,,,,,,,,,,,,,,,,,,,,,,,
1769161714.164866,1769161714.165365,43.0,0.0,4312.436035,4285.512695,4342.563965,4329.230957,4273.717773,4261.922852,4262.436035,4274.615234,4266.538574,4278.589844,4572.307617,4537.436035,4411.922852,4494.358887,,,,,,,,,,,,,,,,,,,,,,,,,,,,,,,,,,,,,,,,,,,,,,,,,,,,,,,,,,,,,,,,,,,,,,
1769161714.172674,1769161714.172974,44.0,0.0,4313.461426,4289.102539,4346.025879,4328.589844,4274.871582,4265.641113,4273.589844,4277.820313,4268.589844,4279.230957,4572.179688,4536.538574,4412.436035,4491.666504,,,,,,,,,,,,,,,,,,,,,,,,,,,,,,,,,,,,,,,,,,,,,,,,,,,,,,,,,,,,,,,,,,,,,,
1769161714.180483,1769161714.180782,45.0,0.0,4314.230957,4291.025879,4353.205078,4333.333496,4276.153809,4270.384766,4277.94873,4277.436035,4266.666504,4278.077148,4572.05127,4538.077148,4411.666504,4492.563965,,,,,,,,,,,,,,,,,,,,,,,,,,,,,,,,,,,,,,,,,,,,,,,,,,,,,,,,,,,,,,,,,,,,,,
1769161714.188291,1769161714.188491,46.0,0.0,4313.205078,4288.846191,4350.256348,4336.666504,4272.820313,4268.333496,4267.563965,4274.743652,4263.846191,4276.794922,4577.94873,4540.641113,4413.077148,4495.256348,1.86235,0.950793,0.32786,0.234538,0.246881,0.66021,0.775723,0.467966,0.111852,0.185236,1.003431,0.777786,0.214198,0.276656,0.105065,0.878893,0.44851,0.185774,0.132046,0.101898,0.168275,0.09615,0.109056,0.093303,0.031928,0.165028,0.125962,0.118822,0.153196,0.097864,0.274452,0.18985,0.153721,0.195033,0.13523,0.443142,0.239759,0.224017,0.049608,0.066321,0.48061,0.131781,0.508432,0.086761,0.103078,0.433963,0.416522,0.325085,0.129339,0.171094,0.826761,0.471864,0.121603,0.264727,0.123159,0.701437,0.426783,0.200201,0.313247,0.099183,1.054747,1.276984,0.228254,0.169549,0.166122,2.530409,1.722263,0.509329,0.471933,0.155252
1769161714.1961,1769161714.196299,47.0,0.0,4307.820313,4286.794922,4345.0,4333.461426,4270.512695,4264.358887,4268.589844,4273.717773,4267.179688,4278.846191,4580.641113,4540.897461,4414.487305,4495.256348,,,,,,,,,,,,,,,,,,,,,,,,,,,,,,,,,,,,,,,,,,,,,,,,,,,,,,,,,,,,,,,,,,,,,,
1769161714.203908,1769161714.204307,48.0,0.0,4305.384766,4288.461426,4342.563965,4331.538574,4275.384766,4266.153809,4278.974121,4277.563965,4270.769043,4280.897461,4578.205078,4539.358887,4415.128418,4494.743652,,,,,,,,,,,,,,,,,,,,,,,,,,,,,,,,,,,,,,,,,,,,,,,,,,,,,,,,,,,,,,,,,,,,,,
1769161714.211717,1769161714.212116,49.0,0.0,4307.05127,4289.615234,4341.794922,4332.820313,4278.461426,4271.794922,4280.0,4280.512695,4267.820313,4279.358887,4580.128418,4539.487305,4415.512695,4494.358887,,,,,,,,,,,,,,,,,,,,,,,,,,,,,,,,,,,,,,,,,,,,,,,,,,,,,,,,,,,,,,,,,,,,,,
1769161714.219525,1769161714.219824,50.0,0.0,4305.512695,4284.615234,4342.05127,4329.743652,4275.512695,4271.153809,4279.102539,4278.205078,4264.358887,4277.436035,4580.769043,4539.871582,4415.769043,4494.487305,,,,,,,,,,,,,,,,,,,,,,,,,,,,,,,,,,,,,,,,,,,,,,,,,,,,,,,,,,,,,,,,,,,,,,
1769161714.227333,1769161714.227633,51.0,0.0,4303.077148,4281.666504,4340.384766,4325.897461,4274.743652,4265.512695,4278.589844,4274.871582,4270.0,4278.589844,4574.615234,4538.846191,4417.563965,4494.358887,,,,,,,,,,,,,,,,,,,,,,,,,,,,,,,,,,,,,,,,,,,,,,,,,,,,,,,,,,,,,,,,,,,,,,
1769161714.235142,1769161714.235241,52.0,0.0,4302.563965,4282.94873,4337.692383,4326.410156,4274.743652,4265.0,4275.512695,4276.922852,4273.333496,4278.846191,4570.512695,4538.589844,4416.025879,4491.922852,,,,,,,,,,,,,,,,,,,,,,,,,,,,,,,,,,,,,,,,,,,,,,,,,,,,,,,,,,,,,,,,,,,,,,
1769161714.24295,1769161714.24305,53.0,0.0,4304.615234,4282.307617,4338.077148,4326.794922,4272.820313,4267.436035,4277.179688,4278.077148,4267.436035,4275.897461,4574.871582,4537.94873,4412.820313,4494.230957,,,,,,,,,,,,,,,,,,,,,,,,,,,,,,,,,,,,,,,,,,,,,,,,,,,,,,,,,,,,,,,,,,,,,,
1769161714.250759,1769161714.250758,54.0,0.0,4309.871582,4283.077148,4342.563965,4328.077148,4274.487305,4268.589844,4278.846191,4275.769043,4266.666504,4276.410156,4580.0,4539.487305,4416.153809,4505.128418,,,,,,,,,,,,,,,,,,,,,,,,,,,,,,,,,,,,,,,,,,,,,,,,,,,,,,,,,,,,,,,,,,,,,,
1769161714.258567,1769161714.258567,55.0,0.0,4312.05127,4284.743652,4344.230957,4330.128418,4277.179688,4269.102539,4275.897461,4277.05127,4271.282227,4278.846191,4576.794922,4544.230957,4416.025879,4506.410156,,,,,,,,,,,,,,,,,,,,,,,,,,,,,,,,,,,,,,,,,,,,,,,,,,,,,,,,,,,,,,,,,,,,,,
1769161714.266376,1769161714.266575,56.0,0.0,4308.589844,4281.794922,4340.384766,4328.205078,4273.461426,4267.820313,4275.897461,4277.820313,4268.846191,4277.307617,4571.538574,4543.077148,4408.974121,4500.256348,,,,,,,,,,,,,,,,,,,,,,,,,,,,,,,,,,,,,,,,,,,,,,,,,,,,,,,,,,,,,,,,,,,,,,
1769161714.274184,1769161714.274384,57.0,0.0,4307.94873,4279.102539,4338.077148,4326.153809,4272.820313,4267.94873,4277.94873,4275.256348,4262.307617,4274.743652,4574.230957,4537.05127,4408.589844,4502.94873,,,,,,,,,,,,,,,,,,,,,,,,,,,,,,,,,,,,,,,,,,,,,,,,,,,,,,,,,,,,,,,,,,,,,,
1769161714.281993,1769161714.282292,58.0,0.0,4310.256348,4280.0,4340.256348,4327.563965,4278.846191,4270.384766,4277.179688,4275.897461,4263.461426,4275.512695,4574.230957,4537.307617,4412.820313,4507.94873,,,,,,,,,,,,,,,,,,,,,,,,,,,,,,,,,,,,,,,,,,,,,,,,,,,,,,,,,,,,,,,,,,,,,,
1769161714.289801,1769161714.2901,59.0,0.0,4308.589844,4280.641113,4342.692383,4328.717773,4278.333496,4266.153809,4275.512695,4278.717773,4265.384766,4275.769043,4573.205078,4542.05127,4411.922852,4506.666504,,,,,,,,,,,,,,,,,,,,,,,,,,,,,,,,,,,,,,,,,,,,,,,,,,,,,,,,,,,,,,,,,,,,,,
1769161714.29761,1769161714.298109,60.0,0.0,4309.487305,4281.410156,4343.461426,4328.461426,4273.077148,4260.0,4276.794922,4278.077148,4263.717773,4276.410156,4579.743652,4541.282227,4411.410156,4501.025879,,,,,,,,,,,,,,,,,,,,,,,,,,,,,,,,,,,,,,,,,,,,,,,,,,,,,,,,,,,,,,,,,,,,,,
1769161714.305418,1769161714.305917,61.0,0.0,4311.538574,4279.871582,4341.410156,4326.666504,4275.128418,4264.487305,4278.461426,4278.333496,4267.94873,4279.615234,4580.769043,4539.102539,4411.282227,4494.230957,,,,,,,,,,,,,,,,,,,,,,,,,,,,,,,,,,,,,,,,,,,,,,,,,,,,,,,,,,,,,,,,,,,,,,
1769161714.313227,1769161714.313825,62.0,0.0,4304.487305,4275.512695,4334.102539,4325.128418,4279.102539,4268.974121,4278.461426,4280.128418,4272.436035,4276.025879,4571.794922,4540.641113,4406.282227,4491.410156,2.63575,0.924732,0.367993,0.220789,0.263605,0.712086,0.755945,0.471617,0.099454,0.168369,1.320494,0.71361,0.206503,0.285961,0.098097,0.894924,0.434453,0.174112,0.149714,0.113077,0.231577,0.079253,0.097863,0.097645,0.03196,0.186528,0.094508,0.10698,0.137433,0.087828,0.361374,0.181365,0.153836,0.167022,0.126901,0.639009,0.269055,0.253986,0.053334,0.068365,0.657495,0.139394,0.540763,0.086245,0.087425,0.604572,0.437521,0.393473,0.12716,0.14474,0.955403,0.507478,0.111969,0.293395,0.119208,0.854122,0.423055,0.190222,0.352893,0.094179,1.016696,1.25584,0.224117,0.18599,0.147541,3.485043,1.709849,0.536066,0.475466,0.160853
1769161714.321035,1769161714.321634,63.0,0.0,4297.692383,4274.230957,4326.922852,4326.282227,4276.922852,4269.102539,4278.717773,4279.102539,4268.974121,4268.077148,4566.794922,4535.641113,4398.205078,4491.538574,,,,,,,,,,,,,,,,,,,,,,,,,,,,,,,,,,,,,,,,,,,,,,,,,,,,,,,,,,,,,,,,,,,,,,
1769161714.328843,1769161714.329642,64.0,0.0,4300.641113,4273.974121,4330.256348,4327.563965,4273.461426,4269.102539,4280.384766,4277.692383,4265.897461,4265.769043,4566.410156,4525.256348,4393.461426,4486.025879,,,,,,,,,,,,,,,,,,,,,,,,,,,,,,,,,,,,,,,,,,,,,,,,,,,,,,,,,,,,,,,,,,,,,,
1769161714.336652,1769161714.337451,65.0,0.0,4305.641113,4274.230957,4334.743652,4326.025879,4273.205078,4267.692383,4279.358887,4278.846191,4269.615234,4266.794922,4564.358887,4521.153809,4395.769043,4483.205078,,,,,,,,,,,,,,,,,,,,,,,,,,,,,,,,,,,,,,,,,,,,,,,,,,,,,,,,,,,,,,,,,,,,,,
1769161714.34446,1769161714.345159,66.0,0.0,4303.461426,4274.871582,4330.384766,4323.717773,4276.794922,4270.128418,4278.461426,4279.871582,4269.615234,4266.153809,4563.461426,4525.128418,4397.436035,4481.410156,,,,,,,,,,,,,,,,,,,,,,,,,,,,,,,,,,,,,,,,,,,,,,,,,,,,,,,,,,,,,,,,,,,,,,
1769161714.352269,1769161714.352968,67.0,0.0,4297.05127,4272.563965,4328.333496,4323.974121,4275.128418,4273.077148,4279.871582,4279.230957,4266.153809,4264.487305,4564.615234,4530.0,4392.179688,4475.384766,,,,,,,,,,,,,,,,,,,,,,,,,,,,,,,,,,,,,,,,,,,,,,,,,,,,,,,,,,,,,,,,,,,,,,
1769161714.360077,1769161714.360576,68.0,0.0,4293.846191,4270.769043,4331.794922,4324.615234,4267.692383,4268.974121,4279.358887,4278.717773,4265.897461,4265.384766,4567.692383,4532.05127,4390.897461,4479.743652,,,,,,,,,,,,,,,,,,,,,,,,,,,,,,,,,,,,,,,,,,,,,,,,,,,,,,,,,,,,,,,,,,,,,,
1769161714.367886,1769161714.368385,69.0,0.0,4298.589844,4275.128418,4333.974121,4326.794922,4270.256348,4263.589844,4277.179688,4278.461426,4265.769043,4267.179688,4570.512695,4533.974121,4403.846191,4490.641113,,,,,,,,,,,,,,,,,,,,,,,,,,,,,,,,,,,,,,,,,,,,,,,,,,,,,,,,,,,,,,,,,,,,,,
1769161714.375694,1769161714.376093,70.0,0.0,4309.102539,4280.769043,4338.205078,4333.461426,4278.589844,4270.384766,4280.897461,4277.436035,4265.128418,4266.282227,4570.641113,4536.538574,4411.666504,4491.666504,,,,,,,,,,,,,,,,,,,,,,,,,,,,,,,,,,,,,,,,,,,,,,,,,,,,,,,,,,,,,,,,,,,,,,
1769161714.383503,1769161714.383902,71.0,0.0,4310.512695,4279.615234,4342.179688,4335.128418,4277.94873,4283.717773,4286.666504,4277.692383,4264.102539,4262.179688,4569.743652,4535.641113,4406.153809,4488.461426,,,,,,,,,,,,,,,,,,,,,,,,,,,,,,,,,,,,,,,,,,,,,,,,,,,,,,,,,,,,,,,,,,,,,,
1769161714.391311,1769161714.39191,72.0,0.0,4307.179688,4278.077148,4339.871582,4328.717773,4275.384766,4279.743652,4282.563965,4279.743652,4267.179688,4264.102539,4571.153809,4536.025879,4405.897461,4494.102539,,,,,,,,,,,,,,,,,,,,,,,,,,,,,,,,,,,,,,,,,,,,,,,,,,,,,,,,,,,,,,,,,,,,,,
1769161714.39912,1769161714.399718,73.0,0.0,4307.179688,4280.256348,4335.384766,4326.922852,4279.358887,4266.922852,4275.0,4279.871582,4272.692383,4272.05127,4576.025879,4544.102539,4413.717773,4496.025879,,,,,,,,,,,,,,,,,,,,,,,,,,,,,,,,,,,,,,,,,,,,,,,,,,,,,,,,,,,,,,,,,,,,,,
1769161714.406928,1769161714.407627,74.0,0.0,4305.769043,4279.487305,4333.974121,4327.05127,4280.384766,4268.974121,4276.410156,4277.436035,4274.487305,4275.641113,4579.358887,4547.820313,4415.641113,4492.179688,,,,,,,,,,,,,,,,,,,,,,,,,,,,,,,,,,,,,,,,,,,,,,,,,,,,,,,,,,,,,,,,,,,,,,
1769161714.414736,1769161714.415435,75.0,0.0,4306.282227,4277.179688,4336.025879,4325.0,4278.205078,4277.307617,4281.282227,4278.077148,4276.153809,4278.205078,4582.179688,4546.794922,4413.077148,4501.025879,,,,,,,,,,,,,,,,,,,,,,,,,,,,,,,,,,,,,,,,,,,,,,,,,,,,,,,,,,,,,,,,,,,,,,
1769161714.422545,1769161714.423443,76.0,0.0,4309.871582,4278.974121,4338.461426,4330.0,4275.256348,4276.282227,4280.384766,4281.282227,4279.743652,4280.128418,4581.025879,4548.333496,4412.563965,4505.769043,,,,,,,,,,,,,,,,,,,,,,,,,,,,,,,,,,,,,,,,,,,,,,,,,,,,,,,,,,,,,,,,,,,,,,
1769161714.430353,1769161714.431252,77.0,0.0,4303.333496,4279.871582,4336.410156,4333.333496,4269.487305,4276.153809,4280.897461,4281.282227,4278.589844,4276.025879,4573.205078,4542.436035,4411.153809,4494.102539,,,,,,,,,,,,,,,,,,,,,,,,,,,,,,,,,,,,,,,,,,,,,,,,,,,,,,,,,,,,,,,,,,,,,,
1769161714.438162,1769161714.43896,78.0,0.0,4295.128418,4277.820313,4335.128418,4330.769043,4268.461426,4277.692383,4282.94873,4279.615234,4277.820313,4274.487305,4573.846191,4538.461426,4411.666504,4493.333496,3.445033,0.817159,0.411949,0.213589,0.272423,0.747298,0.681375,0.440067,0.096477,0.151171,1.578724,0.60843,0.210141,0.291979,0.097109,0.92754,0.406089,0.17141,0.158059,0.121555,0.296021,0.076089,0.084832,0.097505,0.033122,0.206819,0.069251,0.088282,0.112531,0.077951,0.437687,0.170321,0.159318,0.137089,0.127604,0.817717,0.279691,0.265379,0.066031,0.071791,0.845879,0.153196,0.531623,0.088562,0.080834,0.791132,0.433607,0.44051,0.128484,0.130086,1.076112,0.535808,0.107345,0.302756,0.113991,0.968151,0.41393,0.177004,0.371575,0.090866,1.021484,1.157962,0.217607,0.197505,0.129648,4.29029,1.607376,0.549997,0.453461,0.167199
1769161714.44597,1769161714.446769,79.0,0.0,4305.512695,4279.358887,4341.922852,4335.769043,4273.974121,4275.897461,4282.307617,4278.974121,4279.615234,4278.205078,4585.128418,4548.717773,4413.846191,4507.436035,,,,,,,,,,,,,,,,,,,,,,,,,,,,,,,,,,,,,,,,,,,,,,,,,,,,,,,,,,,,,,,,,,,,,,
1769161714.453779,1769161714.454377,80.0,0.0,4316.025879,4281.922852,4347.692383,4341.025879,4278.461426,4277.820313,4285.512695,4282.692383,4275.512695,4275.512695,4586.538574,4557.436035,4413.461426,4508.205078,,,,,,,,,,,,,,,,,,,,,,,,,,,,,,,,,,,,,,,,,,,,,,,,,,,,,,,,,,,,,,,,,,,,,,
1769161714.461587,1769161714.462186,81.0,0.0,4311.922852,4285.512695,4346.282227,4339.102539,4278.974121,4279.230957,4284.487305,4290.897461,4276.922852,4276.410156,4585.0,4556.922852,4413.717773,4505.384766,,,,,,,,,,,,,,,,,,,,,,,,,,,,,,,,,,,,,,,,,,,,,,,,,,,,,,,,,,,,,,,,,,,,,,
1769161714.469396,1769161714.470094,82.0,0.0,4308.461426,4288.589844,4342.436035,4336.794922,4277.563965,4275.512695,4280.769043,4291.794922,4282.692383,4280.512695,4587.436035,4552.820313,4414.230957,4507.94873,,,,,,,,,,,,,,,,,,,,,,,,,,,,,,,,,,,,,,,,,,,,,,,,,,,,,,,,,,,,,,,,,,,,,,
1769161714.477204,1769161714.477903,83.0,0.0,4307.05127,4285.641113,4340.0,4334.743652,4275.384766,4277.436035,4284.102539,4281.538574,4275.641113,4271.153809,4577.692383,4541.538574,4411.666504,4498.077148,,,,,,,,,,,,,,,,,,,,,,,,,,,,,,,,,,,,,,,,,,,,,,,,,,,,,,,,,,,,,,,,,,,,,,
1769161714.485012,1769161714.485911,84.0,0.0,4308.333496,4281.282227,4342.563965,4331.410156,4274.615234,4277.692383,4284.743652,4275.897461,4270.128418,4263.717773,4571.025879,4537.307617,4408.717773,4489.102539,,,,,,,,,,,,,,,,,,,,,,,,,,,,,,,,,,,,,,,,,,,,,,,,,,,,,,,,,,,,,,,,,,,,,,
1769161714.492821,1769161714.493719,85.0,0.0,4311.410156,4282.179688,4344.230957,4330.128418,4275.256348,4273.077148,4283.333496,4282.820313,4277.179688,4269.615234,4577.820313,4544.743652,4411.282227,4492.563965,,,,,,,,,,,,,,,,,,,,,,,,,,,,,,,,,,,,,,,,,,,,,,,,,,,,,,,,,,,,,,,,,,,,,,
1769161714.500629,1769161714.501628,86.0,0.0,4303.846191,4281.538574,4339.487305,4327.05127,4274.358887,4277.179688,4290.128418,4287.820313,4278.974121,4267.820313,4578.974121,4544.358887,4412.820313,4494.358887,,,,,,,,,,,,,,,,,,,,,,,,,,,,,,,,,,,,,,,,,,,,,,,,,,,,,,,,,,,,,,,,,,,,,,
1769161714.508438,1769161714.509436,87.0,0.0,4295.0,4278.846191,4336.153809,4325.0,4277.436035,4282.692383,4292.820313,4287.179688,4277.05127,4262.179688,4575.512695,4540.0,4410.512695,4490.769043,,,,,,,,,,,,,,,,,,,,,,,,,,,,,,,,,,,,,,,,,,,,,,,,,,,,,,,,,,,,,,,,,,,,,,
1769161714.516246,1769161714.517045,88.0,0.0,4299.102539,4279.230957,4338.077148,4325.512695,4279.487305,4274.871582,4284.358887,4289.615234,4283.461426,4270.641113,4577.563965,4541.666504,4409.358887,4488.333496,,,,,,,,,,,,,,,,,,,,,,,,,,,,,,,,,,,,,,,,,,,,,,,,,,,,,,,,,,,,,,,,,,,,,,
1769161714.524055,1769161714.524853,89.0,0.0,4307.563965,4281.025879,4339.615234,4325.641113,4275.0,4270.256348,4282.307617,4293.077148,4285.769043,4279.615234,4580.128418,4545.256348,4411.794922,4494.743652,,,,,,,,,,,,,,,,,,,,,,,,,,,,,,,,,,,,,,,,,,,,,,,,,,,,,,,,,,,,,,,,,,,,,,
1769161714.531863,1769161714.532562,90.0,0.0,4310.0,4287.05127,4342.179688,4329.487305,4274.358887,4273.717773,4284.102539,4290.769043,4281.282227,4278.974121,4584.743652,4550.769043,4419.487305,4507.692383,,,,,,,,,,,,,,,,,,,,,,,,,,,,,,,,,,,,,,,,,,,,,,,,,,,,,,,,,,,,,,,,,,,,,,
1769161714.539672,1769161714.54037,91.0,0.0,4311.538574,4295.128418,4348.717773,4337.820313,4278.974121,4268.846191,4280.128418,4284.358887,4280.256348,4278.205078,4591.153809,4557.563965,4427.307617,4511.922852,,,,,,,,,,,,,,,,,,,,,,,,,,,,,,,,,,,,,,,,,,,,,,,,,,,,,,,,,,,,,,,,,,,,,,
1769161714.54748,1769161714.547979,92.0,0.0,4316.025879,4295.512695,4351.282227,4337.307617,4278.077148,4265.256348,4279.230957,4280.384766,4280.256348,4276.922852,4591.922852,4558.846191,4429.230957,4509.743652,,,,,,,,,,,,,,,,,,,,,,,,,,,,,,,,,,,,,,,,,,,,,,,,,,,,,,,,,,,,,,,,,,,,,,
1769161714.555288,1769161714.555787,93.0,0.0,4315.897461,4285.0,4346.282227,4330.128418,4276.538574,4275.897461,4286.538574,4280.897461,4278.461426,4271.282227,4590.897461,4555.897461,4427.563965,4510.256348,,,,,,,,,,,,,,,,,,,,,,,,,,,,,,,,,,,,,,,,,,,,,,,,,,,,,,,,,,,,,,,,,,,,,,
1769161714.563097,1769161714.563496,94.0,0.0,4309.615234,4280.384766,4340.769043,4329.230957,4276.538574,4282.436035,4290.384766,4282.179688,4277.436035,4267.05127,4588.846191,4555.128418,4427.307617,4508.589844,3.993181,0.648906,0.427791,0.210437,0.270408,0.74841,0.559379,0.37105,0.100781,0.133899,1.711047,0.487418,0.213863,0.295773,0.099889,0.958709,0.361263,0.170727,0.155566,0.125151,0.337719,0.084861,0.071966,0.093539,0.03467,0.214317,0.054113,0.070388,0.085373,0.068199,0.482632,0.160939,0.172479,0.113021,0.140043,0.925402,0.272212,0.255527,0.082433,0.073788,0.988783,0.172693,0.478528,0.089954,0.079439,0.94177,0.412348,0.452442,0.134543,0.123853,1.15954,0.554966,0.107451,0.291405,0.104799,1.025368,0.407847,0.159544,0.364375,0.085693,1.067554,1.005935,0.20281,0.203792,0.114423,4.561253,1.422273,0.532731,0.41459,0.168789
1769161714.570905,1769161714.571304,95.0,0.0,4307.05127,4287.179688,4339.871582,4330.897461,4271.922852,4273.846191,4285.0,4280.0,4277.307617,4273.077148,4587.436035,4555.769043,4428.717773,4512.307617,,,,,,,,,,,,,,,,,,,,,,,,,,,,,,,,,,,,,,,,,,,,,,,,,,,,,,,,,,,,,,,,,,,,,,
1769161714.578714,1769161714.578913,96.0,0.0,4312.692383,4287.563965,4342.436035,4328.974121,4270.512695,4265.512695,4283.333496,4278.846191,4281.025879,4278.846191,4590.512695,4557.307617,4430.128418,4518.589844,,,,,,,,,,,,,,,,,,,,,,,,,,,,,,,,,,,,,,,,,,,,,,,,,,,,,,,,,,,,,,,,,,,,,,
1769161714.586522,1769161714.586721,97.0,0.0,4312.94873,4279.358887,4342.820313,4326.538574,4272.05127,4265.384766,4288.589844,4279.743652,4278.846191,4272.179688,4589.102539,4558.205078,4428.077148,4513.333496,,,,,,,,,,,,,,,,,,,,,,,,,,,,,,,,,,,,,,,,,,,,,,,,,,,,,,,,,,,,,,,,,,,,,,
1769161714.594331,1769161714.59443,98.0,0.0,4308.461426,4277.05127,4338.717773,4325.512695,4267.563965,4267.820313,4285.384766,4278.461426,4267.820313,4261.666504,4584.230957,4553.717773,4423.589844,4505.512695,,,,,,,,,,,,,,,,,,,,,,,,,,,,,,,,,,,,,,,,,,,,,,,,,,,,,,,,,,,,,,,,,,,,,,
1769161714.602139,1769161714.602238,99.0,0.0,4310.0,4281.538574,4337.820313,4326.538574,4262.820313,4265.256348,4277.179688,4278.205078,4266.922852,4263.205078,4585.128418,4553.077148,4426.025879,4508.974121,,,,,,,,,,,,,,,,,,,,,,,,,,,,,,,,,,,,,,,,,,,,,,,,,,,,,,,,,,,,,,,,,,,,,,
1769161714.609948,1769161714.610247,100.0,0.0,4311.922852,4281.538574,4342.05127,4328.333496,4264.230957,4262.692383,4278.846191,4280.897461,4275.512695,4271.794922,4588.077148,4563.077148,4428.846191,4513.974121,,,,,,,,,,,,,,,,,,,,,,,,,,,,,,,,,,,,,,,,,,,,,,,,,,,,,,,,,,,,,,,,,,,,,,
1769161714.617756,1769161714.618055,101.0,0.0,4311.025879,4281.025879,4340.641113,4328.333496,4266.538574,4267.820313,4282.05127,4281.153809,4278.205078,4273.461426,4587.692383,4567.307617,4426.282227,4511.538574,,,,,,,,,,,,,,,,,,,,,,,,,,,,,,,,,,,,,,,,,,,,,,,,,,,,,,,,,,,,,,,,,,,,,,
1769161714.625564,1769161714.625963,102.0,0.0,4309.615234,4284.487305,4334.615234,4326.538574,4266.153809,4268.974121,4278.846191,4279.871582,4277.179688,4273.077148,4587.436035,4559.230957,4428.461426,4507.179688,,,,,,,,,,,,,,,,,,,,,,,,,,,,,,,,,,,,,,,,,,,,,,,,,,,,,,,,,,,,,,,,,,,,,,
1769161714.633373,1769161714.633772,103.0,0.0,4307.179688,4286.538574,4334.743652,4327.436035,4266.538574,4263.846191,4279.102539,4282.179688,4278.589844,4272.436035,4585.641113,4553.589844,4427.692383,4507.436035,,,,,,,,,,,,,,,,,,,,,,,,,,,,,,,,,,,,,,,,,,,,,,,,,,,,,,,,,,,,,,,,,,,,,,
1769161714.641181,1769161714.641381,104.0,0.0,4309.487305,4283.589844,4339.743652,4326.666504,4265.897461,4264.615234,4282.820313,4283.205078,4274.743652,4268.717773,4580.0,4557.05127,4416.538574,4508.974121,,,,,,,,,,,,,,,,,,,,,,,,,,,,,,,,,,,,,,,,,,,,,,,,,,,,,,,,,,,,,,,,,,,,,,
1769161714.64899,1769161714.649189,105.0,0.0,4310.128418,4280.0,4341.538574,4323.846191,4264.487305,4267.692383,4281.666504,4280.0,4272.179688,4269.358887,4580.512695,4563.077148,4417.05127,4509.102539,,,,,,,,,,,,,,,,,,,,,,,,,,,,,,,,,,,,,,,,,,,,,,,,,,,,,,,,,,,,,,,,,,,,,,
1769161714.656798,1769161714.656898,106.0,0.0,4300.256348,4280.769043,4339.230957,4324.102539,4265.128418,4265.384766,4279.487305,4280.384766,4277.307617,4275.769043,4586.282227,4566.410156,4426.153809,4507.307617,,,,,,,,,,,,,,,,,,,,,,,,,,,,,,,,,,,,,,,,,,,,,,,,,,,,,,,,,,,,,,,,,,,,,,
1769161714.664607,1769161714.664706,107.0,0.0,4294.871582,4280.384766,4334.230957,4325.769043,4266.922852,4266.025879,4283.589844,4282.94873,4272.307617,4273.589844,4578.846191,4561.282227,4415.769043,4499.230957,,,,,,,,,,,,,,,,,,,,,,,,,,,,,,,,,,,,,,,,,,,,,,,,,,,,,,,,,,,,,,,,,,,,,,
1769161714.672415,1769161714.672714,108.0,0.0,4301.922852,4278.461426,4332.692383,4324.358887,4265.384766,4268.333496,4283.846191,4280.0,4260.769043,4263.205078,4566.153809,4551.666504,4401.794922,4488.974121,,,,,,,,,,,,,,,,,,,,,,,,,,,,,,,,,,,,,,,,,,,,,,,,,,,,,,,,,,,,,,,,,,,,,,
1769161714.680224,1769161714.680523,109.0,0.0,4305.769043,4278.717773,4337.692383,4320.256348,4262.692383,4265.128418,4278.589844,4276.025879,4259.102539,4261.282227,4567.820313,4556.282227,4407.307617,4489.743652,,,,,,,,,,,,,,,,,,,,,,,,,,,,,,,,,,,,,,,,,,,,,,,,,,,,,,,,,,,,,,,,,,,,,,
1769161714.688032,1769161714.688431,110.0,0.0,4303.205078,4279.487305,4341.025879,4319.102539,4263.205078,4263.717773,4280.0,4276.666504,4263.205078,4263.717773,4574.230957,4570.897461,4414.358887,4499.743652,4.104272,0.464144,0.401946,0.20858,0.25735,0.706022,0.413632,0.279414,0.107194,0.116005,1.688981,0.378259,0.20915,0.296038,0.102968,0.960516,0.306452,0.166711,0.144696,0.122392,0.345459,0.098813,0.061822,0.087678,0.036459,0.20216,0.048567,0.059951,0.063813,0.060675,0.482074,0.154825,0.190574,0.09839,0.162383,0.929954,0.248818,0.22673,0.095807,0.072628,1.033146,0.193046,0.389024,0.086946,0.078412,1.011632,0.381539,0.425671,0.14477,0.119802,1.178329,0.562453,0.113506,0.265298,0.091638,1.030058,0.407105,0.142255,0.335803,0.077187,1.141206,0.8354,0.183273,0.205413,0.103583,4.262505,1.182749,0.481996,0.370947,0.16447
1769161714.69584,1769161714.69624,111.0,0.0,4300.897461,4279.871582,4338.461426,4320.769043,4265.128418,4266.282227,4282.692383,4277.820313,4261.025879,4263.461426,4572.563965,4570.641113,4411.410156,4507.179688,,,,,,,,,,,,,,,,,,,,,,,,,,,,,,,,,,,,,,,,,,,,,,,,,,,,,,,,,,,,,,,,,,,,,,
1769161714.703649,1769161714.704248,112.0,0.0,4298.333496,4280.0,4337.307617,4321.538574,4267.307617,4267.563965,4278.589844,4278.974121,4260.384766,4269.358887,4571.025879,4558.717773,4412.05127,4506.410156,,,,,,,,,,,,,,,,,,,,,,,,,,,,,,,,,,,,,,,,,,,,,,,,,,,,,,,,,,,,,,,,,,,,,,
1769161714.711457,1769161714.712056,113.0,0.0,4299.871582,4278.589844,4340.0,4323.333496,4266.922852,4266.666504,4277.563965,4280.769043,4267.563965,4274.230957,4573.846191,4559.743652,4412.563965,4504.102539,,,,,,,,,,,,,,,,,,,,,,,,,,,,,,,,,,,,,,,,,,,,,,,,,,,,,,,,,,,,,,,,,,,,,,
1769161714.719266,1769161714.719765,114.0,0.0,4304.743652,4277.94873,4341.025879,4326.025879,4265.897461,4266.282227,4282.692383,4280.512695,4268.846191,4269.230957,4577.94873,4572.563965,4412.05127,4505.384766,,,,,,,,,,,,,,,,,,,,,,,,,,,,,,,,,,,,,,,,,,,,,,,,,,,,,,,,,,,,,,,,,,,,,,
1769161714.727074,1769161714.727573,115.0,0.0,4304.743652,4281.025879,4339.871582,4326.282227,4269.615234,4266.922852,4283.333496,4280.256348,4264.102539,4269.230957,4581.410156,4572.436035,4419.615234,4509.871582,,,,,,,,,,,,,,,,,,,,,,,,,,,,,,,,,,,,,,,,,,,,,,,,,,,,,,,,,,,,,,,,,,,,,,
1769161714.734883,1769161714.735182,116.0,0.0,4304.102539,4282.820313,4340.0,4326.153809,4271.282227,4267.563965,4278.846191,4280.641113,4268.205078,4278.974121,4579.615234,4559.743652,4425.384766,4509.487305,,,,,,,,,,,,,,,,,,,,,,,,,,,,,,,,,,,,,,,,,,,,,,,,,,,,,,,,,,,,,,,,,,,,,,
1769161714.742691,1769161714.74299,117.0,0.0,4300.384766,4281.410156,4340.897461,4326.410156,4272.05127,4267.436035,4279.102539,4280.384766,4275.128418,4277.563965,4572.94873,4551.538574,4417.692383,4498.333496,,,,,,,,,,,,,,,,,,,,,,,,,,,,,,,,,,,,,,,,,,,,,,,,,,,,,,,,,,,,,,,,,,,,,,
1769161714.7505,1769161714.750699,118.0,0.0,4294.230957,4284.871582,4340.0,4325.641113,4274.358887,4265.384766,4282.179688,4280.384766,4269.102539,4269.871582,4567.820313,4551.794922,4406.794922,4486.794922,,,,,,,,,,,,,,,,,,,,,,,,,,,,,,,,,,,,,,,,,,,,,,,,,,,,,,,,,,,,,,,,,,,,,,
1769161714.758308,1769161714.758507,119.0,0.0,4296.538574,4292.94873,4339.871582,4324.487305,4274.230957,4266.666504,4281.538574,4280.384766,4261.282227,4272.94873,4570.512695,4555.0,4412.436035,4493.974121,,,,,,,,,,,,,,,,,,,,,,,,,,,,,,,,,,,,,,,,,,,,,,,,,,,,,,,,,,,,,,,,,,,,,,
1769161714.766117,1769161714.766116,120.0,0.0,4307.179688,4296.410156,4343.333496,4326.666504,4273.717773,4270.897461,4278.846191,4280.384766,4264.487305,4278.333496,4579.743652,4557.05127,4426.666504,4508.333496,,,,,,,,,,,,,,,,,,,,,,,,,,,,,,,,,,,,,,,,,,,,,,,,,,,,,,,,,,,,,,,,,,,,,,
1769161714.773925,1769161714.773924,121.0,0.0,4312.05127,4294.615234,4344.743652,4328.077148,4272.692383,4269.743652,4280.384766,4280.384766,4266.410156,4281.410156,4585.897461,4556.794922,4427.692383,4511.666504,,,,,,,,,,,,,,,,,,,,,,,,,,,,,,,,,,,,,,,,,,,,,,,,,,,,,,,,,,,,,,,,,,,,,,
1769161714.781734,1769161714.781633,122.0,0.0,4303.974121,4289.615234,4340.384766,4325.256348,4268.846191,4267.692383,4283.333496,4280.384766,4264.487305,4278.461426,4580.256348,4553.974121,4417.94873,4503.461426,,,,,,,,,,,,,,,,,,,,,,,,,,,,,,,,,,,,,,,,,,,,,,,,,,,,,,,,,,,,,,,,,,,,,,
1769161714.789542,1769161714.789441,123.0,0.0,4294.871582,4286.538574,4338.846191,4323.846191,4267.94873,4269.871582,4281.410156,4280.512695,4265.256348,4269.102539,4570.769043,4550.256348,4412.179688,4495.641113,,,,,,,,,,,,,,,,,,,,,,,,,,,,,,,,,,,,,,,,,,,,,,,,,,,,,,,,,,,,,,,,,,,,,,
1769161714.797351,1769161714.79745,124.0,0.0,4298.717773,4290.384766,4340.897461,4325.0,4269.743652,4267.692383,4277.307617,4280.384766,4266.025879,4268.333496,4572.563965,4551.538574,4413.333496,4500.128418,,,,,,,,,,,,,,,,,,,,,,,,,,,,,,,,,,,,,,,,,,,,,,,,,,,,,,,,,,,,,,,,,,,,,,
1769161714.805159,1769161714.805258,125.0,0.0,4308.461426,4292.307617,4341.922852,4325.256348,4265.128418,4261.538574,4277.94873,4279.871582,4265.0,4274.102539,4581.410156,4555.512695,4416.538574,4507.820313,,,,,,,,,,,,,,,,,,,,,,,,,,,,,,,,,,,,,,,,,,,,,,,,,,,,,,,,,,,,,,,,,,,,,,
1769161714.812967,1769161714.813166,126.0,0.0,4311.538574,4291.538574,4345.897461,4325.512695,4266.538574,4260.641113,4281.153809,4280.384766,4266.153809,4275.769043,4583.974121,4557.307617,4423.846191,4509.615234,3.744316,0.309009,0.344497,0.206313,0.236484,0.6227,0.278797,0.193209,0.111394,0.097679,1.516373,0.301768,0.195399,0.29074,0.104071,0.902232,0.257592,0.158509,0.130703,0.113381,0.321991,0.110111,0.057323,0.081992,0.038708,0.175252,0.04823,0.059206,0.05403,0.058401,0.438355,0.151948,0.207145,0.092097,0.187669,0.833921,0.216879,0.187892,0.102543,0.068892,0.960226,0.214806,0.283715,0.079286,0.075766,0.992182,0.353742,0.371759,0.158996,0.113929,1.128227,0.555177,0.126993,0.235237,0.077331,1.019438,0.405514,0.132844,0.298776,0.067331,1.220081,0.677247,0.16862,0.203485,0.097519,3.578888,0.935229,0.414175,0.333015,0.156123
1769161714.820776,1769161714.820975,127.0,0.0,4310.128418,4293.717773,4346.153809,4326.666504,4273.077148,4261.794922,4280.384766,4280.512695,4265.897461,4276.794922,4583.589844,4556.282227,4430.0,4512.820313,,,,,,,,,,,,,,,,,,,,,,,,,,,,,,,,,,,,,,,,,,,,,,,,,,,,,,,,,,,,,,,,,,,,,,
1769161714.828584,1769161714.828983,0.0,0.0,4310.512695,4295.384766,4341.538574,4327.692383,4269.358887,4261.282227,4277.820313,4278.461426,4265.384766,4280.769043,4587.179688,4556.025879,4428.205078,4519.358887,,,,,,,,,,,,,,,,,,,,,,,,,,,,,,,,,,,,,,,,,,,,,,,,,,,,,,,,,,,,,,,,,,,,,,
1769161714.836393,1769161714.836792,1.0,0.0,4310.256348,4294.487305,4346.282227,4328.589844,4266.025879,4263.461426,4282.307617,4277.563965,4272.05127,4280.384766,4591.025879,4557.563965,4428.461426,4520.0,,,,,,,,,,,,,,,,,,,,,,,,,,,,,,,,,,,,,,,,,,,,,,,,,,,,,,,,,,,,,,,,,,,,,,
1769161714.844201,1769161714.8445,2.0,0.0,4308.846191,4293.461426,4352.436035,4328.333496,4268.589844,4265.897461,4292.436035,4284.358887,4279.615234,4278.589844,4592.436035,4558.077148,4428.461426,4514.358887,,,,,,,,,,,,,,,,,,,,,,,,,,,,,,,,,,,,,,,,,,,,,,,,,,,,,,,,,,,,,,,,,,,,,,
1769161714.85201,1769161714.852309,3.0,0.0,4309.615234,4292.692383,4346.410156,4327.563965,4267.563965,4266.794922,4296.153809,4289.230957,4277.692383,4278.846191,4587.692383,4555.897461,4420.769043,4509.743652,,,,,,,,,,,,,,,,,,,,,,,,,,,,,,,,,,,,,,,,,,,,,,,,,,,,,,,,,,,,,,,,,,,,,,
1769161714.859818,1769161714.860317,4.0,0.0,4314.871582,4295.256348,4342.436035,4328.461426,4267.563965,4265.641113,4291.025879,4283.717773,4272.820313,4278.333496,4584.615234,4554.871582,4419.615234,4515.128418,,,,,,,,,,,,,,,,,,,,,,,,,,,,,,,,,,,,,,,,,,,,,,,,,,,,,,,,,,,,,,,,,,,,,,
1769161714.867627,1769161714.868125,5.0,0.0,4316.538574,4296.153809,4345.0,4326.794922,4271.666504,4264.743652,4289.487305,4281.794922,4274.871582,4279.358887,4590.256348,4557.05127,4428.717773,4524.743652,,,,,,,,,,,,,,,,,,,,,,,,,,,,,,,,,,,,,,,,,,,,,,,,,,,,,,,,,,,,,,,,,,,,,,
1769161714.875435,1769161714.876034,6.0,0.0,4303.974121,4284.358887,4340.384766,4320.512695,4269.102539,4266.794922,4294.487305,4285.641113,4278.205078,4279.102539,4592.307617,4553.205078,4425.512695,4518.974121,,,,,,,,,,,,,,,,,,,,,,,,,,,,,,,,,,,,,,,,,,,,,,,,,,,,,,,,,,,,,,,,,,,,,,
1769161714.883243,1769161714.883842,7.0,0.0,4292.179688,4275.384766,4335.0,4316.666504,4265.0,4267.307617,4294.102539,4282.307617,4275.641113,4276.922852,4585.128418,4542.436035,4411.538574,4507.05127,,,,,,,,,,,,,,,,,,,,,,,,,,,,,,,,,,,,,,,,,,,,,,,,,,,,,,,,,,,,,,,,,,,,,,
1769161714.891052,1769161714.89185,8.0,0.0,4298.205078,4285.769043,4339.487305,4320.641113,4269.487305,4264.230957,4290.897461,4280.384766,4273.461426,4276.922852,4583.205078,4537.563965,4410.897461,4505.256348,,,,,,,,,,,,,,,,,,,,,,,,,,,,,,,,,,,,,,,,,,,,,,,,,,,,,,,,,,,,,,,,,,,,,,
1769161714.89886,1769161714.899659,9.0,0.0,4306.153809,4293.717773,4343.589844,4323.717773,4273.333496,4261.666504,4288.461426,4285.256348,4273.717773,4277.94873,4586.922852,4540.897461,4416.666504,4508.717773,,,,,,,,,,,,,,,,,,,,,,,,,,,,,,,,,,,,,,,,,,,,,,,,,,,,,,,,,,,,,,,,,,,,,,
1769161714.906669,1769161714.907367,10.0,0.0,4298.205078,4285.128418,4338.974121,4322.179688,4272.05127,4262.307617,4285.256348,4284.615234,4276.153809,4275.512695,4585.0,4540.897461,4411.025879,4510.128418,,,,,,,,,,,,,,,,,,,,,,,,,,,,,,,,,,,,,,,,,,,,,,,,,,,,,,,,,,,,,,,,,,,,,,
1769161714.914477,1769161714.915176,11.0,0.0,4292.307617,4278.205078,4336.922852,4323.333496,4270.0,4265.0,4288.461426,4281.282227,4274.615234,4272.436035,4582.820313,4539.230957,4404.230957,4504.358887,,,,,,,,,,,,,,,,,,,,,,,,,,,,,,,,,,,,,,,,,,,,,,,,,,,,,,,,,,,,,,,,,,,,,,
1769161714.922286,1769161714.922784,12.0,0.0,4301.025879,4282.692383,4342.05127,4326.025879,4269.358887,4266.025879,4293.077148,4281.282227,4268.589844,4275.0,4585.128418,4545.128418,4412.820313,4503.589844,,,,,,,,,,,,,,,,,,,,,,,,,,,,,,,,,,,,,,,,,,,,,,,,,,,,,,,,,,,,,,,,,,,,,,
1769161714.930094,1769161714.930593,13.0,0.0,4304.358887,4284.743652,4343.589844,4324.102539,4267.179688,4264.230957,4291.282227,4281.153809,4267.563965,4278.717773,4587.692383,4554.102539,4426.282227,4517.179688,,,,,,,,,,,,,,,,,,,,,,,,,,,,,,,,,,,,,,,,,,,,,,,,,,,,,,,,,,,,,,,,,,,,,,
1769161714.937903,1769161714.938301,14.0,0.0,4296.794922,4282.179688,4341.025879,4320.769043,4265.0,4262.820313,4291.410156,4282.820313,4275.256348,4279.102539,4589.487305,4556.153809,4426.538574,4521.410156,2.998782,0.213911,0.283838,0.203341,0.213437,0.5079,0.187618,0.139818,0.112164,0.080964,1.247858,0.265154,0.179504,0.278039,0.102993,0.77669,0.232916,0.149349,0.118799,0.099973,0.277099,0.115815,0.05971,0.077714,0.041539,0.141081,0.048273,0.066547,0.057776,0.06353,0.357593,0.150027,0.21567,0.089829,0.206318,0.66937,0.18307,0.149575,0.102304,0.06425,0.784712,0.240568,0.187311,0.070206,0.072797,0.899988,0.340401,0.308411,0.178046,0.106722,1.027371,0.531724,0.146581,0.211309,0.066304,1.034117,0.396615,0.137873,0.267778,0.061763,1.283207,0.548067,0.167299,0.198592,0.096373,2.773958,0.721606,0.356688,0.306542,0.148109
1769161714.945711,1769161714.94611,15.0,0.0,4293.205078,4284.743652,4340.897461,4321.538574,4269.358887,4263.461426,4295.769043,4287.307617,4279.102539,4277.563965,4588.461426,4548.974121,4418.333496,4510.384766,,,,,,,,,,,,,,,,,,,,,,,,,,,,,,,,,,,,,,,,,,,,,,,,,,,,,,,,,,,,,,,,,,,,,,
1769161714.953519,1769161714.953718,16.0,0.0,4298.974121,4290.384766,4342.307617,4324.743652,4272.94873,4262.94873,4295.641113,4289.102539,4276.666504,4277.307617,4587.563965,4541.410156,4416.666504,4512.692383,,,,,,,,,,,,,,,,,,,,,,,,,,,,,,,,,,,,,,,,,,,,,,,,,,,,,,,,,,,,,,,,,,,,,,
1769161714.961328,1769161714.961527,17.0,0.0,4302.05127,4292.692383,4342.436035,4326.282227,4267.692383,4260.769043,4292.563965,4286.153809,4273.589844,4277.820313,4588.077148,4540.0,4418.205078,4519.230957,,,,,,,,,,,,,,,,,,,,,,,,,,,,,,,,,,,,,,,,,,,,,,,,,,,,,,,,,,,,,,,,,,,,,,
1769161714.969136,1769161714.969235,18.0,0.0,4298.461426,4287.692383,4341.410156,4322.563965,4262.94873,4261.666504,4295.0,4280.128418,4267.436035,4273.205078,4586.666504,4539.358887,4414.743652,4511.025879,,,,,,,,,,,,,,,,,,,,,,,,,,,,,,,,,,,,,,,,,,,,,,,,,,,,,,,,,,,,,,,,,,,,,,
1769161714.976945,1769161714.977044,19.0,0.0,4294.487305,4280.128418,4338.846191,4319.743652,4266.153809,4263.846191,4296.666504,4278.974121,4262.692383,4268.205078,4586.025879,4538.461426,4415.0,4504.743652,,,,,,,,,,,,,,,,,,,,,,,,,,,,,,,,,,,,,,,,,,,,,,,,,,,,,,,,,,,,,,,,,,,,,,
1769161714.984753,1769161714.985052,20.0,0.0,4296.282227,4282.179688,4339.615234,4322.563965,4267.436035,4255.897461,4286.153809,4281.922852,4266.153809,4268.333496,4588.077148,4541.025879,4416.410156,4511.025879,,,,,,,,,,,,,,,,,,,,,,,,,,,,,,,,,,,,,,,,,,,,,,,,,,,,,,,,,,,,,,,,,,,,,,
1769161714.992562,1769161714.992861,21.0,0.0,4304.487305,4290.641113,4343.846191,4323.589844,4264.102539,4246.153809,4278.077148,4278.461426,4264.102539,4268.077148,4586.282227,4540.897461,4416.538574,4513.589844,,,,,,,,,,,,,,,,,,,,,,,,,,,,,,,,,,,,,,,,,,,,,,,,,,,,,,,,,,,,,,,,,,,,,,
1769161715.00037,1769161715.000769,22.0,0.0,4307.94873,4288.461426,4343.974121,4322.05127,4267.179688,4252.307617,4282.820313,4279.230957,4262.436035,4270.384766,4586.794922,4538.846191,4422.179688,4513.077148,,,,,,,,,,,,,,,,,,,,,,,,,,,,,,,,,,,,,,,,,,,,,,,,,,,,,,,,,,,,,,,,,,,,,,
1769161715.008179,1769161715.008577,23.0,0.0,4305.0,4280.769043,4340.897461,4322.179688,4273.974121,4262.05127,4285.384766,4289.743652,4271.666504,4277.94873,4595.128418,4546.282227,4429.102539,4516.282227,,,,,,,,,,,,,,,,,,,,,,,,,,,,,,,,,,,,,,,,,,,,,,,,,,,,,,,,,,,,,,,,,,,,,,
1769161715.015987,1769161715.016586,24.0,0.0,4308.333496,4286.282227,4342.436035,4326.666504,4279.102539,4261.794922,4285.512695,4293.846191,4281.282227,4281.794922,4597.179688,4552.820313,4428.589844,4516.538574,,,,,,,,,,,,,,,,,,,,,,,,,,,,,,,,,,,,,,,,,,,,,,,,,,,,,,,,,,,,,,,,,,,,,,
1769161715.023795,1769161715.024394,25.0,0.0,4310.769043,4291.410156,4344.871582,4327.436035,4280.0,4261.410156,4291.922852,4290.0,4280.384766,4276.538574,4589.358887,4545.641113,4421.153809,4512.436035,,,,,,,,,,,,,,,,,,,,,,,,,,,,,,,,,,,,,,,,,,,,,,,,,,,,,,,,,,,,,,,,,,,,,,
1769161715.031604,1769161715.032302,26.0,0.0,4299.615234,4279.358887,4339.102539,4315.256348,4274.871582,4263.077148,4296.410156,4287.94873,4272.05127,4268.205078,4585.0,4537.692383,4413.974121,4508.333496,,,,,,,,,,,,,,,,,,,,,,,,,,,,,,,,,,,,,,,,,,,,,,,,,,,,,,,,,,,,,,,,,,,,,,
1769161715.039412,1769161715.040111,27.0,0.0,4289.487305,4268.717773,4331.282227,4306.153809,4268.333496,4261.153809,4292.94873,4290.897461,4270.769043,4265.128418,4587.05127,4539.743652,4410.512695,4507.94873,,,,,,,,,,,,,,,,,,,,,,,,,,,,,,,,,,,,,,,,,,,,,,,,,,,,,,,,,,,,,,,,,,,,,,
1769161715.047221,1769161715.04772,28.0,0.0,4292.820313,4273.974121,4332.94873,4309.230957,4264.871582,4261.025879,4290.769043,4291.153809,4272.436035,4266.666504,4586.922852,4542.307617,4413.974121,4507.94873,,,,,,,,,,,,,,,,,,,,,,,,,,,,,,,,,,,,,,,,,,,,,,,,,,,,,,,,,,,,,,,,,,,,,,
1769161715.055029,1769161715.055528,29.0,0.0,4295.769043,4279.871582,4338.461426,4313.461426,4268.205078,4264.102539,4292.94873,4284.487305,4267.94873,4265.256348,4584.871582,4538.589844,4414.102539,4505.512695,,,,,,,,,,,,,,,,,,,,,,,,,,,,,,,,,,,,,,,,,,,,,,,,,,,,,,,,,,,,,,,,,,,,,,
1769161715.062838,1769161715.063436,30.0,0.0,4295.769043,4278.974121,4338.974121,4316.410156,4270.897461,4263.333496,4293.717773,4278.717773,4268.077148,4263.974121,4584.487305,4536.153809,4410.769043,4504.871582,2.103117,0.180042,0.244262,0.201708,0.193793,0.382143,0.153095,0.129677,0.111004,0.069058,0.945947,0.257619,0.16559,0.256348,0.100246,0.608103,0.240773,0.142837,0.110803,0.084748,0.235083,0.11793,0.067595,0.075096,0.044629,0.109802,0.046786,0.077622,0.07197,0.075196,0.260031,0.149406,0.211944,0.087445,0.21058,0.485744,0.151982,0.11921,0.09716,0.06005,0.557193,0.275192,0.117044,0.063697,0.071702,0.767264,0.347608,0.247839,0.201556,0.100789,0.903529,0.495903,0.166868,0.1992,0.062575,1.077521,0.374917,0.15878,0.251622,0.066769,1.331493,0.456275,0.179164,0.192525,0.101144,2.13319,0.569413,0.331975,0.294251,0.145694
1769161715.070646,1769161715.071245,31.0,0.0,4295.769043,4279.487305,4336.794922,4320.641113,4267.563965,4260.512695,4291.153809,4282.179688,4277.307617,4272.05127,4587.05127,4538.974121,4413.846191,4507.94873,,,,,,,,,,,,,,,,,,,,,,,,,,,,,,,,,,,,,,,,,,,,,,,,,,,,,,,,,,,,,,,,,,,,,,
1769161715.078455,1769161715.079253,32.0,0.0,4294.230957,4280.512695,4336.794922,4320.897461,4268.333496,4262.05127,4291.538574,4293.205078,4281.025879,4280.0,4590.641113,4542.820313,4417.179688,4511.282227,,,,,,,,,,,,,,,,,,,,,,,,,,,,,,,,,,,,,,,,,,,,,,,,,,,,,,,,,,,,,,,,,,,,,,
1769161715.086263,1769161715.087061,33.0,0.0,4297.692383,4281.025879,4340.0,4321.153809,4273.974121,4265.128418,4297.563965,4295.128418,4278.846191,4274.871582,4590.641113,4541.922852,4415.769043,4508.461426,,,,,,,,,,,,,,,,,,,,,,,,,,,,,,,,,,,,,,,,,,,,,,,,,,,,,,,,,,,,,,,,,,,,,,
1769161715.094072,1769161715.09477,34.0,0.0,4306.666504,4282.436035,4340.641113,4325.769043,4272.94873,4261.282227,4292.179688,4285.128418,4281.025879,4267.179688,4586.922852,4538.077148,4412.563965,4505.641113,,,,,,,,,,,,,,,,,,,,,,,,,,,,,,,,,,,,,,,,,,,,,,,,,,,,,,,,,,,,,,,,,,,,,,
1769161715.10188,1769161715.102578,35.0,0.0,4307.436035,4280.641113,4338.846191,4326.922852,4269.102539,4257.94873,4283.461426,4282.179688,4277.307617,4268.333496,4586.794922,4535.384766,4414.487305,4505.512695,,,,,,,,,,,,,,,,,,,,,,,,,,,,,,,,,,,,,,,,,,,,,,,,,,,,,,,,,,,,,,,,,,,,,,
1769161715.109688,1769161715.110187,36.0,0.0,4302.94873,4280.641113,4340.769043,4326.153809,4273.077148,4262.820313,4288.717773,4292.820313,4277.692383,4275.512695,4595.769043,4539.102539,4422.436035,4508.589844,,,,,,,,,,,,,,,,,,,,,,,,,,,,,,,,,,,,,,,,,,,,,,,,,,,,,,,,,,,,,,,,,,,,,,
1769161715.117497,1769161715.117996,37.0,0.0,4305.128418,4286.153809,4344.358887,4327.307617,4276.410156,4266.410156,4293.461426,4298.077148,4289.230957,4281.410156,4603.461426,4544.487305,4430.256348,4513.589844,,,,,,,,,,,,,,,,,,,,,,,,,,,,,,,,,,,,,,,,,,,,,,,,,,,,,,,,,,,,,,,,,,,,,,
1769161715.125305,1769161715.125704,38.0,0.0,4307.692383,4286.153809,4342.94873,4327.563965,4275.512695,4262.94873,4289.358887,4292.820313,4288.205078,4276.538574,4597.94873,4542.94873,4428.205078,4513.333496,,,,,,,,,,,,,,,,,,,,,,,,,,,,,,,,,,,,,,,,,,,,,,,,,,,,,,,,,,,,,,,,,,,,,,
1769161715.133114,1769161715.133513,39.0,0.0,4304.871582,4279.615234,4340.256348,4325.128418,4274.102539,4260.897461,4290.128418,4292.179688,4276.794922,4266.922852,4587.05127,4537.820313,4416.025879,4508.205078,,,,,,,,,,,,,,,,,,,,,,,,,,,,,,,,,,,,,,,,,,,,,,,,,,,,,,,,,,,,,,,,,,,,,,
1769161715.140922,1769161715.141121,40.0,0.0,4302.307617,4276.282227,4338.974121,4321.025879,4272.692383,4264.615234,4298.205078,4296.538574,4280.512695,4270.256348,4584.230957,4536.922852,4407.94873,4502.820313,,,,,,,,,,,,,,,,,,,,,,,,,,,,,,,,,,,,,,,,,,,,,,,,,,,,,,,,,,,,,,,,,,,,,,
1769161715.148731,1769161715.14893,41.0,0.0,4302.820313,4279.358887,4338.717773,4320.512695,4272.820313,4268.846191,4297.94873,4298.461426,4293.974121,4280.384766,4592.307617,4542.436035,4416.666504,4506.025879,,,,,,,,,,,,,,,,,,,,,,,,,,,,,,,,,,,,,,,,,,,,,,,,,,,,,,,,,,,,,,,,,,,,,,
1769161715.156539,1769161715.156638,42.0,0.0,4307.307617,4284.358887,4343.974121,4323.974121,4270.128418,4265.897461,4292.692383,4296.410156,4292.179688,4281.282227,4600.128418,4550.769043,4432.307617,4519.230957,,,,,,,,,,,,,,,,,,,,,,,,,,,,,,,,,,,,,,,,,,,,,,,,,,,,,,,,,,,,,,,,,,,,,,
1769161715.164348,1769161715.164447,43.0,0.0,4308.846191,4283.461426,4350.256348,4322.94873,4264.615234,4261.538574,4293.974121,4295.0,4285.641113,4279.358887,4600.897461,4555.512695,4433.333496,4525.641113,,,,,,,,,,,,,,,,,,,,,,,,,,,,,,,,,,,,,,,,,,,,,,,,,,,,,,,,,,,,,,,,,,,,,,
1769161715.172156,1769161715.172055,44.0,0.0,4307.307617,4278.717773,4350.769043,4321.922852,4265.128418,4263.589844,4295.128418,4298.077148,4292.94873,4285.128418,4600.512695,4555.384766,4428.461426,4520.897461,,,,,,,,,,,,,,,,,,,,,,,,,,,,,,,,,,,,,,,,,,,,,,,,,,,,,,,,,,,,,,,,,,,,,,
1769161715.179964,1769161715.179864,45.0,0.0,4310.0,4283.077148,4348.589844,4326.666504,4267.436035,4263.974121,4289.487305,4297.94873,4297.179688,4285.384766,4602.94873,4553.717773,4432.436035,4522.436035,,,,,,,,,,,,,,,,,,,,,,,,,,,,,,,,,,,,,,,,,,,,,,,,,,,,,,,,,,,,,,,,,,,,,,
1769161715.187773,1769161715.187572,46.0,0.0,4314.743652,4290.384766,4349.871582,4328.205078,4265.897461,4258.846191,4287.692383,4292.307617,4285.897461,4276.538574,4602.563965,4552.94873,4434.230957,4527.436035,1.319382,0.184472,0.233615,0.205067,0.180564,0.27788,0.161496,0.150917,0.109477,0.064,0.668133,0.259464,0.154215,0.226566,0.09666,0.443583,0.269998,0.13897,0.105433,0.069834,0.209661,0.120358,0.077348,0.074127,0.047339,0.086622,0.045646,0.088586,0.090962,0.089432,0.175263,0.154377,0.197221,0.082138,0.19808,0.330975,0.126916,0.100855,0.090693,0.056907,0.341175,0.321519,0.079582,0.063431,0.07413,0.632731,0.372207,0.195051,0.226152,0.098279,0.794055,0.454175,0.180444,0.199114,0.068096,1.135749,0.34512,0.194817,0.249598,0.085566,1.371217,0.400893,0.195603,0.189982,0.113887,1.802111,0.488779,0.343001,0.298039,0.152889
1769161715.195581,1769161715.195381,47.0,0.0,4314.230957,4293.846191,4355.128418,4326.666504,4265.0,4257.692383,4292.05127,4292.94873,4279.358887,4274.743652,4600.641113,4553.589844,4430.0,4527.179688,,,,,,,,,,,,,,,,,,,,,,,,,,,,,,,,,,,,,,,,,,,,,,,,,,,,,,,,,,,,,,,,,,,,,,
1769161715.20339,1769161715.203389,48.0,0.0,4312.179688,4294.871582,4352.563965,4328.333496,4266.666504,4260.769043,4290.256348,4295.256348,4285.0,4279.358887,4602.307617,4550.384766,4428.333496,4523.205078,,,,,,,,,,,,,,,,,,,,,,,,,,,,,,,,,,,,,,,,,,,,,,,,,,,,,,,,,,,,,,,,,,,,,,
1769161715.211198,1769161715.211197,49.0,0.0,4309.102539,4287.179688,4343.205078,4327.820313,4265.384766,4259.230957,4284.871582,4287.436035,4284.230957,4274.871582,4598.717773,4541.410156,4426.922852,4513.205078,,,,,,,,,,,,,,,,,,,,,,,,,,,,,,,,,,,,,,,,,,,,,,,,,,,,,,,,,,,,,,,,,,,,,,
1769161715.219007,1769161715.219106,50.0,0.0,4302.94873,4277.179688,4336.922852,4321.025879,4261.538574,4256.922852,4285.769043,4282.307617,4276.538574,4265.512695,4590.256348,4536.666504,4421.282227,4510.384766,,,,,,,,,,,,,,,,,,,,,,,,,,,,,,,,,,,,,,,,,,,,,,,,,,,,,,,,,,,,,,,,,,,,,,
1769161715.226815,1769161715.226914,51.0,0.0,4301.153809,4276.794922,4336.153809,4317.436035,4260.641113,4261.794922,4288.461426,4286.410156,4276.153809,4264.615234,4586.410156,4537.692383,4414.871582,4514.358887,,,,,,,,,,,,,,,,,,,,,,,,,,,,,,,,,,,,,,,,,,,,,,,,,,,,,,,,,,,,,,,,,,,,,,
1769161715.234624,1769161715.234922,52.0,0.0,4303.717773,4279.102539,4335.384766,4321.025879,4263.717773,4265.897461,4288.461426,4286.153809,4279.102539,4265.256348,4587.179688,4536.025879,4415.769043,4510.512695,,,,,,,,,,,,,,,,,,,,,,,,,,,,,,,,,,,,,,,,,,,,,,,,,,,,,,,,,,,,,,,,,,,,,,
1769161715.242432,1769161715.242731,53.0,0.0,4304.102539,4282.179688,4334.615234,4325.0,4265.769043,4263.333496,4285.512695,4279.615234,4278.205078,4262.94873,4590.897461,4536.282227,4424.102539,4513.717773,,,,,,,,,,,,,,,,,,,,,,,,,,,,,,,,,,,,,,,,,,,,,,,,,,,,,,,,,,,,,,,,,,,,,,
1769161715.250241,1769161715.250439,54.0,0.0,4303.974121,4289.102539,4339.487305,4326.538574,4266.538574,4261.282227,4283.461426,4278.333496,4277.563965,4263.974121,4593.589844,4540.897461,4426.153809,4520.641113,,,,,,,,,,,,,,,,,,,,,,,,,,,,,,,,,,,,,,,,,,,,,,,,,,,,,,,,,,,,,,,,,,,,,,
1769161715.258049,1769161715.258248,55.0,0.0,4309.615234,4289.871582,4343.205078,4326.153809,4267.820313,4263.461426,4287.94873,4280.128418,4278.461426,4266.410156,4590.384766,4541.025879,4420.384766,4515.769043,,,,,,,,,,,,,,,,,,,,,,,,,,,,,,,,,,,,,,,,,,,,,,,,,,,,,,,,,,,,,,,,,,,,,,
1769161715.265858,1769161715.266256,56.0,0.0,4308.846191,4282.94873,4334.743652,4321.410156,4267.307617,4264.743652,4293.589844,4283.717773,4278.974121,4266.922852,4586.538574,4538.077148,4421.025879,4509.743652,,,,,,,,,,,,,,,,,,,,,,,,,,,,,,,,,,,,,,,,,,,,,,,,,,,,,,,,,,,,,,,,,,,,,,
1769161715.273666,1769161715.274065,57.0,0.0,4298.205078,4280.0,4323.589844,4316.666504,4265.897461,4265.256348,4295.128418,4291.282227,4279.230957,4271.282227,4592.179688,4537.692383,4427.692383,4512.563965,,,,,,,,,,,,,,,,,,,,,,,,,,,,,,,,,,,,,,,,,,,,,,,,,,,,,,,,,,,,,,,,,,,,,,
1769161715.281474,1769161715.281973,58.0,0.0,4300.0,4281.922852,4330.641113,4321.025879,4265.769043,4265.641113,4291.666504,4289.230957,4279.358887,4277.05127,4600.512695,4539.487305,4429.615234,4515.512695,,,,,,,,,,,,,,,,,,,,,,,,,,,,,,,,,,,,,,,,,,,,,,,,,,,,,,,,,,,,,,,,,,,,,,
1769161715.289283,1769161715.289781,59.0,0.0,4309.871582,4283.333496,4340.641113,4323.846191,4265.897461,4262.436035,4285.384766,4282.563965,4279.743652,4277.94873,4602.05127,4541.282227,4430.0,4522.05127,,,,,,,,,,,,,,,,,,,,,,,,,,,,,,,,,,,,,,,,,,,,,,,,,,,,,,,,,,,,,,,,,,,,,,
1769161715.297091,1769161715.29739,60.0,0.0,4302.179688,4278.461426,4330.0,4315.512695,4266.410156,4260.512695,4287.94873,4285.897461,4279.743652,4278.589844,4601.025879,4542.563965,4430.641113,4522.94873,,,,,,,,,,,,,,,,,,,,,,,,,,,,,,,,,,,,,,,,,,,,,,,,,,,,,,,,,,,,,,,,,,,,,,
1769161715.3049,1769161715.305198,61.0,0.0,4286.153809,4271.666504,4317.692383,4308.589844,4266.410156,4263.974121,4297.05127,4290.512695,4279.230957,4277.820313,4598.461426,4540.128418,4426.794922,4511.666504,,,,,,,,,,,,,,,,,,,,,,,,,,,,,,,,,,,,,,,,,,,,,,,,,,,,,,,,,,,,,,,,,,,,,,
1769161715.312708,1769161715.312907,62.0,0.0,4286.410156,4268.974121,4320.128418,4310.384766,4265.384766,4265.128418,4296.025879,4286.538574,4279.871582,4270.897461,4591.794922,4536.282227,4417.820313,4505.897461,0.81307,0.198563,0.245271,0.216169,0.173917,0.218295,0.18687,0.182038,0.11028,0.066865,0.459313,0.254881,0.143974,0.191352,0.093093,0.317924,0.302624,0.136844,0.100646,0.056895,0.210573,0.128347,0.085513,0.075004,0.049174,0.078633,0.04865,0.096822,0.109038,0.101044,0.121817,0.170066,0.176834,0.074726,0.173025,0.228532,0.111901,0.097179,0.086395,0.055304,0.187567,0.376687,0.076941,0.07137,0.080583,0.514314,0.406138,0.153866,0.246543,0.099611,0.711436,0.412907,0.182559,0.205251,0.081432,1.166502,0.321208,0.246725,0.252231,0.115831,1.400139,0.376373,0.207963,0.195855,0.135129,1.730655,0.463271,0.374903,0.314135,0.169239
1769161715.320517,1769161715.320715,63.0,0.0,4296.794922,4268.077148,4326.922852,4312.436035,4264.487305,4262.563965,4290.641113,4286.153809,4280.0,4263.717773,4585.512695,4537.05127,4410.384766,4505.769043,,,,,,,,,,,,,,,,,,,,,,,,,,,,,,,,,,,,,,,,,,,,,,,,,,,,,,,,,,,,,,,,,,,,,,
1769161715.328325,1769161715.328724,64.0,0.0,4296.153809,4266.025879,4327.94873,4312.179688,4264.743652,4262.94873,4292.820313,4290.256348,4277.563965,4263.846191,4585.769043,4538.846191,4409.487305,4506.025879,,,,,,,,,,,,,,,,,,,,,,,,,,,,,,,,,,,,,,,,,,,,,,,,,,,,,,,,,,,,,,,,,,,,,,
1769161715.336134,1769161715.336532,65.0,0.0,4280.641113,4265.384766,4323.333496,4310.641113,4264.487305,4265.256348,4294.102539,4285.897461,4276.410156,4263.846191,4588.589844,4536.922852,4412.05127,4508.589844,,,,,,,,,,,,,,,,,,,,,,,,,,,,,,,,,,,,,,,,,,,,,,,,,,,,,,,,,,,,,,,,,,,,,,
1769161715.343942,1769161715.344441,66.0,0.0,4275.512695,4268.077148,4320.256348,4306.922852,4263.589844,4265.128418,4292.820313,4279.871582,4277.307617,4261.282227,4588.333496,4535.641113,4412.94873,4509.487305,,,,,,,,,,,,,,,,,,,,,,,,,,,,,,,,,,,,,,,,,,,,,,,,,,,,,,,,,,,,,,,,,,,,,,
1769161715.35175,1769161715.352249,67.0,0.0,4293.717773,4273.974121,4326.666504,4311.922852,4264.230957,4264.743652,4295.0,4281.153809,4276.410156,4262.692383,4586.153809,4537.692383,4411.538574,4507.05127,,,,,,,,,,,,,,,,,,,,,,,,,,,,,,,,,,,,,,,,,,,,,,,,,,,,,,,,,,,,,,,,,,,,,,
1769161715.359559,1769161715.359858,68.0,0.0,4305.0,4277.820313,4335.897461,4320.512695,4266.025879,4265.641113,4294.615234,4282.692383,4272.820313,4263.717773,4584.102539,4538.717773,4410.0,4503.974121,,,,,,,,,,,,,,,,,,,,,,,,,,,,,,,,,,,,,,,,,,,,,,,,,,,,,,,,,,,,,,,,,,,,,,
1769161715.367367,1769161715.367666,69.0,0.0,4299.615234,4278.077148,4336.153809,4317.692383,4265.512695,4263.717773,4293.077148,4279.615234,4271.410156,4262.94873,4585.0,4539.615234,4412.820313,4506.538574,,,,,,,,,,,,,,,,,,,,,,,,,,,,,,,,,,,,,,,,,,,,,,,,,,,,,,,,,,,,,,,,,,,,,,
1769161715.375176,1769161715.375375,70.0,0.0,4294.743652,4275.0,4328.846191,4313.461426,4263.461426,4265.128418,4293.589844,4278.333496,4273.974121,4262.692383,4588.077148,4541.538574,4416.025879,4511.153809,,,,,,,,,,,,,,,,,,,,,,,,,,,,,,,,,,,,,,,,,,,,,,,,,,,,,,,,,,,,,,,,,,,,,,
1769161715.382984,1769161715.383183,71.0,0.0,4292.436035,4273.846191,4323.717773,4319.102539,4267.692383,4269.743652,4294.102539,4279.358887,4273.846191,4263.461426,4586.794922,4539.230957,4418.333496,4509.102539,,,,,,,,,,,,,,,,,,,,,,,,,,,,,,,,,,,,,,,,,,,,,,,,,,,,,,,,,,,,,,,,,,,,,,
1769161715.390793,1769161715.391191,72.0,0.0,4298.077148,4278.974121,4329.102539,4325.128418,4272.05127,4268.717773,4293.333496,4280.384766,4272.94873,4262.94873,4584.230957,4537.05127,4422.436035,4504.358887,,,,,,,,,,,,,,,,,,,,,,,,,,,,,,,,,,,,,,,,,,,,,,,,,,,,,,,,,,,,,,,,,,,,,,
1769161715.398601,1769161715.399,73.0,0.0,4306.153809,4282.436035,4335.0,4326.282227,4269.615234,4265.256348,4294.487305,4286.025879,4277.692383,4264.230957,4590.128418,4540.897461,4427.436035,4509.615234,,,,,,,,,,,,,,,,,,,,,,,,,,,,,,,,,,,,,,,,,,,,,,,,,,,,,,,,,,,,,,,,,,,,,,
1769161715.40641,1769161715.406908,74.0,0.0,4297.436035,4278.461426,4330.0,4325.0,4266.794922,4265.0,4296.025879,4292.307617,4284.358887,4273.846191,4595.512695,4543.589844,4428.461426,4514.615234,,,,,,,,,,,,,,,,,,,,,,,,,,,,,,,,,,,,,,,,,,,,,,,,,,,,,,,,,,,,,,,,,,,,,,
1769161715.414218,1769161715.414717,75.0,0.0,4289.487305,4276.538574,4320.769043,4318.205078,4265.769043,4264.871582,4294.871582,4292.05127,4283.205078,4276.410156,4590.128418,4538.846191,4421.025879,4507.820313,,,,,,,,,,,,,,,,,,,,,,,,,,,,,,,,,,,,,,,,,,,,,,,,,,,,,,,,,,,,,,,,,,,,,,
1769161715.422027,1769161715.422725,76.0,0.0,4303.589844,4281.666504,4321.025879,4314.871582,4266.538574,4263.333496,4293.333496,4287.563965,4279.102539,4270.512695,4586.153809,4536.153809,4418.717773,4507.820313,,,,,,,,,,,,,,,,,,,,,,,,,,,,,,,,,,,,,,,,,,,,,,,,,,,,,,,,,,,,,,,,,,,,,,
1769161715.429835,1769161715.430533,77.0,0.0,4312.05127,4284.487305,4326.538574,4319.743652,4268.974121,4262.820313,4293.589844,4283.974121,4279.615234,4272.563965,4589.871582,4539.743652,4425.128418,4521.025879,,,,,,,,,,,,,,,,,,,,,,,,,,,,,,,,,,,,,,,,,,,,,,,,,,,,,,,,,,,,,,,,,,,,,,
1769161715.437643,1769161715.438442,78.0,0.0,4299.358887,4281.282227,4325.897461,4323.205078,4268.717773,4262.436035,4294.871582,4282.436035,4279.230957,4274.230957,4588.974121,4541.282227,4424.358887,4520.897461,0.594417,0.210187,0.265785,0.23274,0.172107,0.2134,0.211749,0.208682,0.116956,0.077371,0.320207,0.24077,0.134656,0.155106,0.090117,0.246523,0.326974,0.134616,0.096059,0.047172,0.224815,0.146127,0.09049,0.078112,0.050115,0.084297,0.059665,0.101036,0.120892,0.106042,0.1052,0.202453,0.156381,0.068036,0.143858,0.17982,0.109925,0.108142,0.085802,0.05648,0.122676,0.426619,0.105851,0.086391,0.090772,0.424233,0.440781,0.130293,0.25931,0.10427,0.656403,0.379157,0.176426,0.211965,0.098453,1.139144,0.322091,0.313517,0.248818,0.149703,1.408534,0.377747,0.216989,0.215274,0.162275,1.746693,0.467955,0.412213,0.335469,0.189797
1769161715.445452,1769161715.44625,79.0,0.0,4292.563965,4277.94873,4320.512695,4319.743652,4266.794922,4263.077148,4294.743652,4280.512695,4275.384766,4266.282227,4584.871582,4538.589844,4416.538574,4509.358887,,,,,,,,,,,,,,,,,,,,,,,,,,,,,,,,,,,,,,,,,,,,,,,,,,,,,,,,,,,,,,,,,,,,,,
1769161715.45326,1769161715.453859,80.0,0.0,4296.282227,4275.897461,4316.666504,4314.230957,4267.563965,4265.128418,4292.94873,4278.333496,4273.589844,4262.179688,4584.230957,4536.282227,4414.871582,4506.410156,,,,,,,,,,,,,,,,,,,,,,,,,,,,,,,,,,,,,,,,,,,,,,,,,,,,,,,,,,,,,,,,,,,,,,
1769161715.461069,1769161715.461667,81.0,0.0,4294.358887,4275.769043,4318.205078,4313.974121,4266.282227,4263.589844,4292.692383,4276.666504,4275.128418,4263.717773,4582.563965,4536.538574,4412.307617,4502.436035,,,,,,,,,,,,,,,,,,,,,,,,,,,,,,,,,,,,,,,,,,,,,,,,,,,,,,,,,,,,,,,,,,,,,,
1769161715.468877,1769161715.469376,82.0,0.0,4292.563965,4277.307617,4321.410156,4319.487305,4267.563965,4260.641113,4294.102539,4277.05127,4275.384766,4262.692383,4583.077148,4539.487305,4409.358887,4498.974121,,,,,,,,,,,,,,,,,,,,,,,,,,,,,,,,,,,,,,,,,,,,,,,,,,,,,,,,,,,,,,,,,,,,,,
1769161715.476686,1769161715.477184,83.0,0.0,4301.025879,4279.487305,4323.974121,4323.589844,4271.666504,4260.897461,4293.974121,4282.94873,4275.897461,4263.205078,4586.410156,4542.05127,4420.769043,4507.05127,,,,,,,,,,,,,,,,,,,,,,,,,,,,,,,,,,,,,,,,,,,,,,,,,,,,,,,,,,,,,,,,,,,,,,
1769161715.484494,1769161715.485192,84.0,0.0,4305.512695,4278.333496,4323.717773,4320.384766,4267.820313,4264.230957,4293.461426,4287.179688,4278.333496,4266.153809,4587.563965,4541.922852,4426.922852,4512.692383,,,,,,,,,,,,,,,,,,,,,,,,,,,,,,,,,,,,,,,,,,,,,,,,,,,,,,,,,,,,,,,,,,,,,,
1769161715.492303,1769161715.493001,85.0,0.0,4297.692383,4275.384766,4319.871582,4314.358887,4263.846191,4265.641113,4295.384766,4285.512695,4278.333496,4268.589844,4588.077148,4540.384766,4417.307617,4507.820313,,,,,,,,,,,,,,,,,,,,,,,,,,,,,,,,,,,,,,,,,,,,,,,,,,,,,,,,,,,,,,,,,,,,,,
1769161715.500111,1769161715.500709,86.0,0.0,4291.922852,4275.769043,4318.717773,4312.179688,4266.410156,4261.153809,4295.256348,4285.641113,4276.922852,4268.589844,4588.205078,4539.615234,4417.563965,4505.128418,,,,,,,,,,,,,,,,,,,,,,,,,,,,,,,,,,,,,,,,,,,,,,,,,,,,,,,,,,,,,,,,,,,,,,
1769161715.507919,1769161715.508518,87.0,0.0,4293.077148,4276.666504,4319.230957,4315.384766,4267.05127,4257.307617,4293.205078,4289.487305,4277.692383,4264.871582,4587.94873,4540.0,4425.128418,4511.410156,,,,,,,,,,,,,,,,,,,,,,,,,,,,,,,,,,,,,,,,,,,,,,,,,,,,,,,,,,,,,,,,,,,,,,
1769161715.515728,1769161715.516126,88.0,0.0,4294.871582,4275.256348,4319.743652,4319.871582,4265.384766,4259.871582,4293.077148,4292.436035,4278.846191,4263.589844,4589.102539,4540.256348,4422.94873,4521.025879,,,,,,,,,,,,,,,,,,,,,,,,,,,,,,,,,,,,,,,,,,,,,,,,,,,,,,,,,,,,,,,,,,,,,,
1769161715.523536,1769161715.523935,89.0,0.0,4295.384766,4276.666504,4321.282227,4318.461426,4265.256348,4264.615234,4294.230957,4294.230957,4278.205078,4264.871582,4589.615234,4541.410156,4421.153809,4522.436035,,,,,,,,,,,,,,,,,,,,,,,,,,,,,,,,,,,,,,,,,,,,,,,,,,,,,,,,,,,,,,,,,,,,,,
1769161715.531345,1769161715.531843,90.0,0.0,4293.974121,4273.846191,4322.307617,4313.077148,4263.846191,4265.384766,4296.538574,4290.897461,4276.922852,4263.333496,4587.307617,4540.769043,4421.282227,4510.384766,,,,,,,,,,,,,,,,,,,,,,,,,,,,,,,,,,,,,,,,,,,,,,,,,,,,,,,,,,,,,,,,,,,,,,
1769161715.539153,1769161715.539652,91.0,0.0,4291.922852,4267.436035,4319.102539,4308.589844,4263.846191,4261.666504,4294.358887,4281.666504,4276.538574,4261.282227,4586.538574,4538.077148,4414.358887,4505.256348,,,,,,,,,,,,,,,,,,,,,,,,,,,,,,,,,,,,,,,,,,,,,,,,,,,,,,,,,,,,,,,,,,,,,,
1769161715.546962,1769161715.54726,92.0,0.0,4295.256348,4267.179688,4313.846191,4309.358887,4265.384766,4259.743652,4287.436035,4277.692383,4275.0,4261.410156,4587.94873,4536.538574,4412.307617,4513.589844,,,,,,,,,,,,,,,,,,,,,,,,,,,,,,,,,,,,,,,,,,,,,,,,,,,,,,,,,,,,,,,,,,,,,,
1769161715.55477,1769161715.555069,93.0,0.0,4296.538574,4268.717773,4310.0,4310.512695,4263.333496,4262.436035,4288.717773,4279.871582,4271.282227,4261.410156,4585.897461,4537.307617,4415.384766,4515.641113,,,,,,,,,,,,,,,,,,,,,,,,,,,,,,,,,,,,,,,,,,,,,,,,,,,,,,,,,,,,,,,,,,,,,,
1769161715.562579,1769161715.562777,94.0,0.0,4295.0,4268.974121,4312.307617,4310.256348,4262.179688,4263.717773,4295.769043,4281.025879,4272.692383,4260.512695,4582.179688,4536.538574,4412.563965,4508.461426,0.561263,0.226093,0.279934,0.24753,0.174359,0.259522,0.234818,0.224795,0.132472,0.093199,0.257524,0.225623,0.126178,0.123346,0.089026,0.226584,0.339423,0.130149,0.09318,0.041748,0.244685,0.174046,0.093141,0.083163,0.050366,0.100146,0.080565,0.100998,0.123502,0.103164,0.119356,0.253098,0.138863,0.064973,0.119158,0.175976,0.118762,0.129922,0.088159,0.061878,0.141225,0.452772,0.158826,0.104605,0.103627,0.366132,0.469989,0.129433,0.262656,0.11065,0.610648,0.359742,0.166975,0.217227,0.114102,1.043826,0.358659,0.385718,0.234563,0.177177,1.376552,0.408512,0.226551,0.249505,0.189402,1.668966,0.478575,0.434782,0.35463,0.20785
1769161715.570387,1769161715.570586,95.0,0.0,4300.128418,4274.358887,4320.769043,4314.358887,4264.102539,4261.922852,4295.897461,4282.692383,4278.589844,4261.153809,4582.94873,4535.512695,4412.820313,4506.410156,,,,,,,,,,,,,,,,,,,,,,,,,,,,,,,,,,,,,,,,,,,,,,,,,,,,,,,,,,,,,,,,,,,,,,
1769161715.578195,1769161715.578194,96.0,0.0,4303.461426,4280.512695,4323.205078,4319.615234,4264.358887,4261.538574,4292.563965,4284.358887,4280.512695,4263.333496,4587.436035,4538.205078,4418.333496,4512.436035,,,,,,,,,,,,,,,,,,,,,,,,,,,,,,,,,,,,,,,,,,,,,,,,,,,,,,,,,,,,,,,,,,,,,,
1769161715.586004,1769161715.586003,97.0,0.0,4298.589844,4281.282227,4318.589844,4318.974121,4263.333496,4262.05127,4293.589844,4282.05127,4272.436035,4263.333496,4589.230957,4539.358887,4418.077148,4517.94873,,,,,,,,,,,,,,,,,,,,,,,,,,,,,,,,,,,,,,,,,,,,,,,,,,,,,,,,,,,,,,,,,,,,,,
1769161715.593812,1769161715.593711,98.0,0.0,4295.641113,4280.897461,4319.743652,4314.102539,4262.563965,4262.179688,4294.487305,4278.846191,4266.153809,4260.512695,4586.922852,4537.436035,4416.666504,4522.179688,,,,,,,,,,,,,,,,,,,,,,,,,,,,,,,,,,,,,,,,,,,,,,,,,,,,,,,,,,,,,,,,,,,,,,
1769161715.601621,1769161715.60152,99.0,0.0,4296.794922,4279.102539,4322.692383,4311.922852,4259.615234,4265.0,4294.102539,4281.025879,4268.974121,4259.102539,4584.230957,4539.230957,4417.307617,4523.717773,,,,,,,,,,,,,,,,,,,,,,,,,,,,,,,,,,,,,,,,,,,,,,,,,,,,,,,,,,,,,,,,,,,,,,
1769161715.609429,1769161715.609528,100.0,0.0,4295.0,4276.025879,4315.512695,4312.307617,4256.666504,4267.179688,4294.871582,4283.077148,4269.358887,4260.769043,4584.487305,4539.871582,4414.230957,4519.871582,,,,,,,,,,,,,,,,,,,,,,,,,,,,,,,,,,,,,,,,,,,,,,,,,,,,,,,,,,,,,,,,,,,,,,
1769161715.617238,1769161715.617337,101.0,0.0,4295.384766,4276.922852,4309.487305,4312.436035,4257.94873,4265.897461,4294.230957,4280.0,4266.410156,4261.666504,4585.384766,4537.05127,4410.641113,4520.128418,,,,,,,,,,,,,,,,,,,,,,,,,,,,,,,,,,,,,,,,,,,,,,,,,,,,,,,,,,,,,,,,,,,,,,
1769161715.625046,1769161715.625245,102.0,0.0,4296.538574,4277.05127,4315.897461,4311.794922,4261.025879,4262.94873,4291.410156,4282.436035,4270.128418,4261.153809,4584.743652,4542.692383,4411.922852,4522.692383,,,,,,,,,,,,,,,,,,,,,,,,,,,,,,,,,,,,,,,,,,,,,,,,,,,,,,,,,,,,,,,,,,,,,,
1769161715.632855,1769161715.633053,103.0,0.0,4295.512695,4277.307617,4322.05127,4310.512695,4263.077148,4261.794922,4290.128418,4290.512695,4277.05127,4261.794922,4584.871582,4554.102539,4415.769043,4519.871582,,,,,,,,,,,,,,,,,,,,,,,,,,,,,,,,,,,,,,,,,,,,,,,,,,,,,,,,,,,,,,,,,,,,,,
1769161715.640663,1769161715.641062,104.0,0.0,4299.743652,4280.512695,4317.820313,4312.94873,4263.589844,4267.692383,4293.461426,4292.307617,4278.846191,4263.717773,4586.410156,4555.769043,4418.589844,4519.487305,,,,,,,,,,,,,,,,,,,,,,,,,,,,,,,,,,,,,,,,,,,,,,,,,,,,,,,,,,,,,,,,,,,,,,
1769161715.648471,1769161715.64887,105.0,0.0,4301.153809,4281.153809,4310.641113,4314.615234,4262.692383,4276.153809,4296.410156,4292.692383,4278.589844,4263.077148,4585.384766,4550.384766,4416.282227,4518.717773,,,,,,,,,,,,,,,,,,,,,,,,,,,,,,,,,,,,,,,,,,,,,,,,,,,,,,,,,,,,,,,,,,,,,,
1769161715.65628,1769161715.656678,106.0,0.0,4291.922852,4277.05127,4309.358887,4310.641113,4260.769043,4275.0,4295.384766,4294.230957,4276.794922,4260.384766,4581.666504,4549.102539,4408.974121,4510.897461,,,,,,,,,,,,,,,,,,,,,,,,,,,,,,,,,,,,,,,,,,,,,,,,,,,,,,,,,,,,,,,,,,,,,,
1769161715.664088,1769161715.664487,107.0,0.0,4293.846191,4276.922852,4316.282227,4311.922852,4261.922852,4267.436035,4295.256348,4293.205078,4277.05127,4262.820313,4583.589844,4553.077148,4414.102539,4512.179688,,,,,,,,,,,,,,,,,,,,,,,,,,,,,,,,,,,,,,,,,,,,,,,,,,,,,,,,,,,,,,,,,,,,,,
1769161715.671897,1769161715.672195,108.0,0.0,4306.666504,4281.922852,4322.436035,4316.794922,4264.230957,4262.563965,4295.897461,4293.205078,4282.436035,4269.230957,4588.717773,4557.692383,4425.384766,4522.563965,,,,,,,,,,,,,,,,,,,,,,,,,,,,,,,,,,,,,,,,,,,,,,,,,,,,,,,,,,,,,,,,,,,,,,
1769161715.679705,1769161715.680004,109.0,0.0,4302.94873,4282.563965,4317.05127,4313.461426,4261.025879,4264.102539,4295.641113,4293.461426,4282.94873,4269.743652,4588.717773,4556.794922,4422.436035,4521.410156,,,,,,,,,,,,,,,,,,,,,,,,,,,,,,,,,,,,,,,,,,,,,,,,,,,,,,,,,,,,,,,,,,,,,,
1769161715.687514,1769161715.687712,110.0,0.0,4294.102539,4281.025879,4313.077148,4309.102539,4258.333496,4269.487305,4295.641113,4290.384766,4279.743652,4266.025879,4587.179688,4551.666504,4419.230957,4516.410156,0.604456,0.257606,0.279407,0.255076,0.183424,0.340223,0.260094,0.230165,0.157068,0.11049,0.255325,0.219514,0.118776,0.102098,0.093094,0.25036,0.343008,0.122295,0.094155,0.042001,0.258138,0.205382,0.094255,0.088937,0.050097,0.119507,0.10865,0.096561,0.116583,0.09404,0.151281,0.313038,0.124095,0.066884,0.103746,0.207676,0.139269,0.156433,0.092135,0.071874,0.211061,0.44272,0.224547,0.120989,0.11701,0.345482,0.497245,0.151215,0.256218,0.116107,0.560813,0.361561,0.156808,0.221652,0.124173,0.908966,0.423828,0.446966,0.210768,0.189787,1.297518,0.47791,0.239384,0.292798,0.209435,1.446356,0.484741,0.433784,0.365587,0.217407
1769161715.695322,1769161715.695521,111.0,0.0,4300.384766,4280.128418,4318.333496,4311.410156,4260.897461,4269.102539,4295.641113,4287.692383,4279.743652,4266.153809,4588.846191,4551.025879,4427.05127,4520.897461,,,,,,,,,,,,,,,,,,,,,,,,,,,,,,,,,,,,,,,,,,,,,,,,,,,,,,,,,,,,,,,,,,,,,,
1769161715.703131,1769161715.70313,112.0,0.0,4305.0,4280.769043,4321.794922,4311.538574,4260.128418,4265.769043,4294.743652,4288.205078,4279.487305,4266.922852,4589.487305,4555.384766,4428.461426,4525.128418,,,,,,,,,,,,,,,,,,,,,,,,,,,,,,,,,,,,,,,,,,,,,,,,,,,,,,,,,,,,,,,,,,,,,,
1769161715.710939,1769161715.710938,113.0,0.0,4304.615234,4284.871582,4321.410156,4309.230957,4257.179688,4269.358887,4296.410156,4288.077148,4278.077148,4266.282227,4587.94873,4558.589844,4424.358887,4525.256348,,,,,,,,,,,,,,,,,,,,,,,,,,,,,,,,,,,,,,,,,,,,,,,,,,,,,,,,,,,,,,,,,,,,,,
1769161715.718748,1769161715.718647,114.0,0.0,4305.0,4283.717773,4322.05127,4308.974121,4258.461426,4270.0,4296.153809,4286.922852,4278.589844,4267.307617,4588.717773,4558.333496,4428.717773,4524.487305,,,,,,,,,,,,,,,,,,,,,,,,,,,,,,,,,,,,,,,,,,,,,,,,,,,,,,,,,,,,,,,,,,,,,,
1769161715.726556,1769161715.726455,115.0,0.0,4301.666504,4277.563965,4321.922852,4308.077148,4260.641113,4262.820313,4291.282227,4290.128418,4278.717773,4267.94873,4588.974121,4556.666504,4427.692383,4523.717773,,,,,,,,,,,,,,,,,,,,,,,,,,,,,,,,,,,,,,,,,,,,,,,,,,,,,,,,,,,,,,,,,,,,,,
1769161715.734365,1769161715.734463,116.0,0.0,4298.333496,4276.538574,4320.897461,4304.615234,4259.487305,4262.307617,4293.205078,4293.717773,4279.615234,4265.256348,4586.282227,4554.487305,4415.769043,4520.128418,,,,,,,,,,,,,,,,,,,,,,,,,,,,,,,,,,,,,,,,,,,,,,,,,,,,,,,,,,,,,,,,,,,,,,
1769161715.742173,1769161715.742272,117.0,0.0,4303.846191,4277.94873,4321.922852,4299.871582,4256.025879,4267.307617,4299.487305,4288.589844,4276.922852,4261.666504,4585.128418,4552.05127,4410.128418,4510.384766,,,,,,,,,,,,,,,,,,,,,,,,,,,,,,,,,,,,,,,,,,,,,,,,,,,,,,,,,,,,,,,,,,,,,,
1769161715.749982,1769161715.75018,118.0,0.0,4306.538574,4279.615234,4320.384766,4297.307617,4254.743652,4265.641113,4295.384766,4278.717773,4269.358887,4261.282227,4584.487305,4552.307617,4414.358887,4507.307617,,,,,,,,,,,,,,,,,,,,,,,,,,,,,,,,,,,,,,,,,,,,,,,,,,,,,,,,,,,,,,,,,,,,,,
1769161715.75779,1769161715.757989,119.0,0.0,4299.743652,4278.974121,4316.025879,4297.05127,4259.487305,4263.461426,4287.94873,4279.487305,4268.974121,4262.94873,4582.563965,4550.641113,4414.871582,4511.538574,,,,,,,,,,,,,,,,,,,,,,,,,,,,,,,,,,,,,,,,,,,,,,,,,,,,,,,,,,,,,,,,,,,,,,
1769161715.765598,1769161715.765597,120.0,0.0,4290.769043,4271.666504,4311.153809,4292.692383,4262.436035,4265.384766,4290.256348,4289.230957,4276.794922,4264.487305,4581.153809,4546.410156,4409.102539,4510.256348,,,,,,,,,,,,,,,,,,,,,,,,,,,,,,,,,,,,,,,,,,,,,,,,,,,,,,,,,,,,,,,,,,,,,,
1769161715.773407,1769161715.773406,121.0,0.0,4290.769043,4269.358887,4309.102539,4289.230957,4261.410156,4265.897461,4295.897461,4295.512695,4281.794922,4270.256348,4584.487305,4548.461426,4414.358887,4512.05127,,,,,,,,,,,,,,,,,,,,,,,,,,,,,,,,,,,,,,,,,,,,,,,,,,,,,,,,,,,,,,,,,,,,,,
1769161715.781215,1769161715.781114,122.0,0.0,4301.922852,4277.692383,4312.563965,4292.436035,4261.282227,4264.615234,4295.512695,4295.0,4282.05127,4278.333496,4590.128418,4554.230957,4427.436035,4520.384766,,,,,,,,,,,,,,,,,,,,,,,,,,,,,,,,,,,,,,,,,,,,,,,,,,,,,,,,,,,,,,,,,,,,,,
1769161715.789024,1769161715.788923,123.0,0.0,4310.384766,4285.897461,4320.0,4295.0,4262.179688,4266.153809,4293.461426,4292.692383,4281.794922,4281.025879,4595.641113,4555.384766,4432.436035,4526.025879,,,,,,,,,,,,,,,,,,,,,,,,,,,,,,,,,,,,,,,,,,,,,,,,,,,,,,,,,,,,,,,,,,,,,,
1769161715.796832,1769161715.796931,124.0,0.0,4308.333496,4288.461426,4323.974121,4293.846191,4263.846191,4265.0,4293.846191,4292.692383,4282.820313,4276.410156,4601.025879,4556.794922,4430.897461,4530.128418,,,,,,,,,,,,,,,,,,,,,,,,,,,,,,,,,,,,,,,,,,,,,,,,,,,,,,,,,,,,,,,,,,,,,,
1769161715.804641,1769161715.804739,125.0,0.0,4301.410156,4285.0,4320.384766,4292.179688,4265.128418,4262.436035,4295.128418,4293.461426,4281.025879,4267.179688,4596.410156,4556.025879,4429.871582,4529.487305,,,,,,,,,,,,,,,,,,,,,,,,,,,,,,,,,,,,,,,,,,,,,,,,,,,,,,,,,,,,,,,,,,,,,,
1769161715.812449,1769161715.812648,126.0,0.0,4300.128418,4280.256348,4318.333496,4292.563965,4263.974121,4269.102539,4296.538574,4293.333496,4280.0,4263.974121,4586.666504,4553.846191,4429.487305,4524.743652,0.663611,0.307082,0.265735,0.251555,0.201718,0.442231,0.291199,0.231507,0.186352,0.124003,0.316527,0.230809,0.114933,0.093862,0.104839,0.312772,0.343537,0.114501,0.099912,0.048424,0.258048,0.229046,0.09427,0.093507,0.049217,0.13549,0.137514,0.088097,0.103236,0.082375,0.189089,0.364088,0.110334,0.07279,0.097075,0.265617,0.181335,0.181736,0.096801,0.084864,0.297573,0.399073,0.288297,0.130449,0.127931,0.365733,0.532442,0.188821,0.240009,0.117794,0.498084,0.391119,0.14674,0.225392,0.126019,0.780082,0.498259,0.479361,0.180433,0.183628,1.174707,0.592283,0.253508,0.33291,0.216983,1.149097,0.503824,0.415374,0.364109,0.216323
1769161715.820258,1769161715.820456,127.0,0.0,4311.025879,4283.717773,4324.487305,4295.384766,4266.922852,4273.846191,4295.641113,4294.102539,4284.487305,4274.230957,4591.153809,4561.922852,4429.871582,4531.410156,,,,,,,,,,,,,,,,,,,,,,,,,,,,,,,,,,,,,,,,,,,,,,,,,,,,,,,,,,,,,,,,,,,,,,
1769161715.828066,1769161715.828464,0.0,0.0,4312.436035,4287.05127,4326.282227,4294.487305,4270.897461,4266.410156,4293.461426,4295.897461,4287.179688,4279.743652,4601.410156,4567.692383,4431.538574,4541.794922,,,,,,,,,,,,,,,,,,,,,,,,,,,,,,,,,,,,,,,,,,,,,,,,,,,,,,,,,,,,,,,,,,,,,,
1769161715.835874,1769161715.836273,1.0,0.0,4296.410156,4279.102539,4321.666504,4291.282227,4267.307617,4264.743652,4298.077148,4296.410156,4279.743652,4267.05127,4593.846191,4559.615234,4427.436035,4537.05127,,,,,,,,,,,,,,,,,,,,,,,,,,,,,,,,,,,,,,,,,,,,,,,,,,,,,,,,,,,,,,,,,,,,,,
1769161715.843683,1769161715.844181,2.0,0.0,4295.256348,4280.256348,4322.563965,4293.589844,4263.461426,4267.820313,4302.05127,4294.230957,4275.384766,4262.307617,4585.769043,4559.487305,4421.794922,4533.333496,,,,,,,,,,,,,,,,,,,,,,,,,,,,,,,,,,,,,,,,,,,,,,,,,,,,,,,,,,,,,,,,,,,,,,
1769161715.851491,1769161715.85199,3.0,0.0,4308.974121,4292.307617,4328.589844,4298.846191,4266.410156,4266.410156,4297.692383,4295.0,4284.487305,4275.0,4594.615234,4570.897461,4420.769043,4539.615234,,,,,,,,,,,,,,,,,,,,,,,,,,,,,,,,,,,,,,,,,,,,,,,,,,,,,,,,,,,,,,,,,,,,,,
1769161715.8593,1769161715.859598,4.0,0.0,4305.384766,4290.384766,4330.256348,4296.794922,4267.820313,4270.384766,4295.512695,4297.94873,4287.307617,4276.794922,4595.512695,4571.922852,4417.563965,4536.538574,,,,,,,,,,,,,,,,,,,,,,,,,,,,,,,,,,,,,,,,,,,,,,,,,,,,,,,,,,,,,,,,,,,,,,
1769161715.867108,1769161715.867407,5.0,0.0,4298.846191,4280.256348,4327.94873,4296.666504,4265.769043,4272.307617,4296.922852,4297.179688,4280.641113,4265.384766,4586.153809,4568.717773,4412.05127,4526.666504,,,,,,,,,,,,,,,,,,,,,,,,,,,,,,,,,,,,,,,,,,,,,,,,,,,,,,,,,,,,,,,,,,,,,,
1769161715.874917,1769161715.875115,6.0,0.0,4306.410156,4281.025879,4326.666504,4302.307617,4264.743652,4265.128418,4294.743652,4294.743652,4278.974121,4262.820313,4585.256348,4572.307617,4410.769043,4524.487305,,,,,,,,,,,,,,,,,,,,,,,,,,,,,,,,,,,,,,,,,,,,,,,,,,,,,,,,,,,,,,,,,,,,,,
1769161715.882725,1769161715.882924,7.0,0.0,4306.282227,4283.717773,4327.05127,4300.769043,4264.102539,4262.179688,4292.307617,4294.615234,4278.461426,4266.025879,4587.820313,4572.307617,4413.461426,4525.128418,,,,,,,,,,,,,,,,,,,,,,,,,,,,,,,,,,,,,,,,,,,,,,,,,,,,,,,,,,,,,,,,,,,,,,
1769161715.890534,1769161715.890532,8.0,0.0,4296.410156,4278.974121,4326.025879,4293.589844,4263.077148,4263.846191,4292.436035,4294.230957,4274.230957,4263.333496,4584.871582,4569.230957,4411.922852,4520.641113,,,,,,,,,,,,,,,,,,,,,,,,,,,,,,,,,,,,,,,,,,,,,,,,,,,,,,,,,,,,,,,,,,,,,,
1769161715.898342,1769161715.898341,9.0,0.0,4295.0,4277.179688,4324.487305,4296.922852,4261.794922,4262.94873,4288.333496,4291.922852,4271.410156,4263.077148,4581.666504,4569.615234,4405.897461,4519.871582,,,,,,,,,,,,,,,,,,,,,,,,,,,,,,,,,,,,,,,,,,,,,,,,,,,,,,,,,,,,,,,,,,,,,,
1769161715.90615,1769161715.906049,10.0,0.0,4297.179688,4280.641113,4325.641113,4304.871582,4261.666504,4263.589844,4285.769043,4294.230957,4269.871582,4267.179688,4584.487305,4572.94873,4404.102539,4524.102539,,,,,,,,,,,,,,,,,,,,,,,,,,,,,,,,,,,,,,,,,,,,,,,,,,,,,,,,,,,,,,,,,,,,,,
1769161715.913959,1769161715.913858,11.0,0.0,4295.128418,4277.436035,4326.538574,4301.538574,4260.897461,4265.256348,4293.077148,4295.384766,4264.487305,4264.230957,4584.102539,4573.333496,4403.333496,4519.102539,,,,,,,,,,,,,,,,,,,,,,,,,,,,,,,,,,,,,,,,,,,,,,,,,,,,,,,,,,,,,,,,,,,,,,
1769161715.921767,1769161715.921866,12.0,0.0,4294.615234,4273.974121,4324.615234,4299.487305,4259.871582,4263.974121,4290.641113,4287.05127,4264.743652,4259.615234,4575.384766,4569.743652,4402.307617,4509.615234,,,,,,,,,,,,,,,,,,,,,,,,,,,,,,,,,,,,,,,,,,,,,,,,,,,,,,,,,,,,,,,,,,,,,,
1769161715.929576,1769161715.929674,13.0,0.0,4296.410156,4277.692383,4324.871582,4305.128418,4259.615234,4262.820313,4279.871582,4282.436035,4266.410156,4261.922852,4571.153809,4569.102539,4405.769043,4508.333496,,,,,,,,,,,,,,,,,,,,,,,,,,,,,,,,,,,,,,,,,,,,,,,,,,,,,,,,,,,,,,,,,,,,,,
1769161715.937384,1769161715.937583,14.0,0.0,4295.769043,4278.205078,4320.897461,4301.410156,4258.205078,4261.538574,4285.641113,4286.666504,4262.307617,4263.205078,4572.179688,4569.102539,4405.512695,4507.436035,0.712884,0.363802,0.244256,0.235748,0.228864,0.548239,0.327375,0.233992,0.211878,0.129296,0.409343,0.259504,0.11514,0.097423,0.124188,0.401474,0.345265,0.110658,0.108665,0.059698,0.243091,0.234536,0.092228,0.094639,0.047313,0.144232,0.157815,0.076654,0.089119,0.071971,0.216387,0.385098,0.095326,0.079335,0.094641,0.344836,0.251942,0.20246,0.102285,0.09701,0.375756,0.336956,0.333928,0.130371,0.133398,0.424685,0.581389,0.228547,0.215308,0.114238,0.425571,0.445797,0.135065,0.226849,0.119377,0.69051,0.553533,0.468917,0.148565,0.161766,1.031628,0.73715,0.260133,0.35683,0.211134,0.863985,0.550637,0.385931,0.349522,0.20733
1769161715.945193,1769161715.945391,15.0,0.0,4292.307617,4269.615234,4311.282227,4292.307617,4257.692383,4262.05127,4297.05127,4287.436035,4263.461426,4259.230957,4569.743652,4566.410156,4399.102539,4505.0,,,,,,,,,,,,,,,,,,,,,,,,,,,,,,,,,,,,,,,,,,,,,,,,,,,,,,,,,,,,,,,,,,,,,,
1769161715.953001,1769161715.953399,16.0,0.0,4294.230957,4268.974121,4314.615234,4297.94873,4261.282227,4264.743652,4293.077148,4288.589844,4272.436035,4259.743652,4574.871582,4576.025879,4403.333496,4515.128418,,,,,,,,,,,,,,,,,,,,,,,,,,,,,,,,,,,,,,,,,,,,,,,,,,,,,,,,,,,,,,,,,,,,,,
1769161715.96081,1769161715.961208,17.0,0.0,4298.846191,4276.153809,4324.358887,4305.897461,4263.974121,4265.128418,4289.230957,4295.0,4274.230957,4263.717773,4582.820313,4586.538574,4411.025879,4526.025879,,,,,,,,,,,,,,,,,,,,,,,,,,,,,,,,,,,,,,,,,,,,,,,,,,,,,,,,,,,,,,,,,,,,,,
1769161715.968618,1769161715.968916,18.0,0.0,4290.641113,4271.410156,4316.794922,4297.94873,4262.179688,4264.615234,4295.641113,4295.384766,4267.563965,4261.922852,4572.94873,4575.256348,4400.512695,4513.974121,,,,,,,,,,,,,,,,,,,,,,,,,,,,,,,,,,,,,,,,,,,,,,,,,,,,,,,,,,,,,,,,,,,,,,
1769161715.976426,1769161715.976725,19.0,0.0,4282.179688,4264.358887,4305.897461,4291.666504,4260.769043,4265.384766,4296.025879,4292.436035,4271.282227,4261.282227,4567.436035,4565.897461,4394.487305,4502.307617,,,,,,,,,,,,,,,,,,,,,,,,,,,,,,,,,,,,,,,,,,,,,,,,,,,,,,,,,,,,,,,,,,,,,,
1769161715.984235,1769161715.984334,20.0,0.0,4286.410156,4264.102539,4308.717773,4293.077148,4262.692383,4267.179688,4294.871582,4295.512695,4280.769043,4268.333496,4581.794922,4582.05127,4408.589844,4513.077148,,,,,,,,,,,,,,,,,,,,,,,,,,,,,,,,,,,,,,,,,,,,,,,,,,,,,,,,,,,,,,,,,,,,,,
1769161715.992043,1769161715.992142,21.0,0.0,4288.974121,4264.487305,4312.436035,4293.333496,4265.128418,4268.589844,4296.282227,4296.538574,4279.230957,4272.307617,4588.333496,4598.717773,4414.615234,4521.922852,,,,,,,,,,,,,,,,,,,,,,,,,,,,,,,,,,,,,,,,,,,,,,,,,,,,,,,,,,,,,,,,,,,,,,
1769161715.999852,1769161716.00005,22.0,0.0,4292.692383,4271.153809,4315.0,4300.641113,4265.0,4266.538574,4293.974121,4294.871582,4276.282227,4272.563965,4582.94873,4600.384766,4409.615234,4520.256348,,,,,,,,,,,,,,,,,,,,,,,,,,,,,,,,,,,,,,,,,,,,,,,,,,,,,,,,,,,,,,,,,,,,,,
1769161716.00766,1769161716.007859,23.0,0.0,4309.871582,4281.922852,4323.077148,4310.384766,4263.846191,4262.692383,4291.538574,4293.077148,4280.0,4275.0,4582.563965,4600.384766,4412.692383,4522.436035,,,,,,,,,,,,,,,,,,,,,,,,,,,,,,,,,,,,,,,,,,,,,,,,,,,,,,,,,,,,,,,,,,,,,,
1769161716.015469,1769161716.015867,24.0,0.0,4312.179688,4280.897461,4322.94873,4305.641113,4263.205078,4262.692383,4292.179688,4289.358887,4277.05127,4270.897461,4581.794922,4600.256348,4416.410156,4524.487305,,,,,,,,,,,,,,,,,,,,,,,,,,,,,,,,,,,,,,,,,,,,,,,,,,,,,,,,,,,,,,,,,,,,,,
1769161716.023277,1769161716.023675,25.0,0.0,4297.436035,4273.974121,4315.641113,4300.897461,4263.333496,4266.666504,4294.871582,4288.333496,4272.307617,4264.487305,4579.487305,4601.538574,4412.436035,4521.025879,,,,,,,,,,,,,,,,,,,,,,,,,,,,,,,,,,,,,,,,,,,,,,,,,,,,,,,,,,,,,,,,,,,,,,
1769161716.031086,1769161716.031584,26.0,0.0,4304.102539,4276.153809,4320.128418,4307.820313,4264.871582,4267.436035,4295.769043,4288.974121,4277.563965,4266.922852,4582.94873,4606.538574,4411.922852,4521.666504,,,,,,,,,,,,,,,,,,,,,,,,,,,,,,,,,,,,,,,,,,,,,,,,,,,,,,,,,,,,,,,,,,,,,,
1769161716.038894,1769161716.039392,27.0,0.0,4311.410156,4277.179688,4325.897461,4305.897461,4262.05127,4263.589844,4292.692383,4286.153809,4276.025879,4268.717773,4581.666504,4605.641113,4412.563965,4525.512695,,,,,,,,,,,,,,,,,,,,,,,,,,,,,,,,,,,,,,,,,,,,,,,,,,,,,,,,,,,,,,,,,,,,,,
1769161716.046703,1769161716.047401,28.0,0.0,4300.256348,4273.461426,4320.512695,4298.333496,4257.94873,4263.205078,4293.717773,4288.333496,4266.794922,4263.461426,4573.333496,4601.666504,4409.615234,4524.487305,,,,,,,,,,,,,,,,,,,,,,,,,,,,,,,,,,,,,,,,,,,,,,,,,,,,,,,,,,,,,,,,,,,,,,
1769161716.054511,1769161716.055209,29.0,0.0,4297.692383,4274.358887,4317.94873,4303.333496,4261.025879,4265.256348,4295.512695,4291.922852,4268.846191,4263.846191,4571.153809,4602.820313,4407.05127,4515.0,,,,,,,,,,,,,,,,,,,,,,,,,,,,,,,,,,,,,,,,,,,,,,,,,,,,,,,,,,,,,,,,,,,,,,
1769161716.062319,1769161716.062918,30.0,0.0,4299.615234,4277.692383,4317.692383,4311.025879,4265.897461,4265.512695,4288.077148,4288.205078,4276.025879,4266.794922,4573.589844,4595.769043,4401.794922,4506.025879,0.733458,0.408311,0.222421,0.212066,0.261467,0.643622,0.362878,0.239382,0.225388,0.125112,0.504332,0.298153,0.118339,0.109059,0.147657,0.507066,0.344817,0.111925,0.116905,0.072973,0.218771,0.2178,0.087384,0.091178,0.04414,0.145576,0.161975,0.063741,0.079922,0.064915,0.226684,0.36339,0.079098,0.083052,0.091579,0.437399,0.342208,0.219702,0.110401,0.103939,0.435135,0.273409,0.35063,0.122345,0.13141,0.501198,0.632444,0.256634,0.186117,0.106376,0.362601,0.505875,0.121078,0.222748,0.106626,0.653423,0.563167,0.414949,0.119771,0.132424,0.906381,0.880324,0.252014,0.356346,0.195506,0.665714,0.623147,0.349651,0.324076,0.195473
1769161716.070128,1769161716.070726,31.0,0.0,4294.230957,4278.333496,4312.820313,4310.769043,4264.487305,4264.615234,4282.179688,4287.692383,4273.461426,4263.846191,4574.615234,4584.102539,4400.897461,4511.410156,,,,,,,,,,,,,,,,,,,,,,,,,,,,,,,,,,,,,,,,,,,,,,,,,,,,,,,,,,,,,,,,,,,,,,
1769161716.077936,1769161716.078335,32.0,0.0,4299.358887,4280.256348,4316.153809,4308.461426,4263.717773,4263.205078,4285.897461,4294.358887,4271.794922,4267.307617,4581.538574,4590.128418,4415.897461,4524.743652,,,,,,,,,,,,,,,,,,,,,,,,,,,,,,,,,,,,,,,,,,,,,,,,,,,,,,,,,,,,,,,,,,,,,,
1769161716.085745,1769161716.086143,33.0,0.0,4308.205078,4283.846191,4325.641113,4311.025879,4266.025879,4264.487305,4290.384766,4296.025879,4277.436035,4275.384766,4590.0,4599.358887,4426.410156,4531.153809,,,,,,,,,,,,,,,,,,,,,,,,,,,,,,,,,,,,,,,,,,,,,,,,,,,,,,,,,,,,,,,,,,,,,,
1769161716.093553,1769161716.093852,34.0,0.0,4305.512695,4282.436035,4321.794922,4314.230957,4264.743652,4269.743652,4292.94873,4293.333496,4277.307617,4270.641113,4584.487305,4588.589844,4415.641113,4523.846191,,,,,,,,,,,,,,,,,,,,,,,,,,,,,,,,,,,,,,,,,,,,,,,,,,,,,,,,,,,,,,,,,,,,,,
1769161716.101362,1769161716.10166,35.0,0.0,4303.846191,4280.641113,4312.820313,4312.94873,4263.333496,4276.922852,4294.358887,4294.487305,4274.358887,4262.820313,4576.666504,4576.025879,4407.820313,4508.589844,,,,,,,,,,,,,,,,,,,,,,,,,,,,,,,,,,,,,,,,,,,,,,,,,,,,,,,,,,,,,,,,,,,,,,
1769161716.10917,1769161716.109668,36.0,0.0,4302.179688,4281.282227,4311.666504,4309.102539,4264.358887,4276.922852,4291.666504,4295.641113,4277.307617,4267.307617,4580.128418,4581.282227,4413.974121,4506.153809,,,,,,,,,,,,,,,,,,,,,,,,,,,,,,,,,,,,,,,,,,,,,,,,,,,,,,,,,,,,,,,,,,,,,,
1769161716.116979,1769161716.117477,37.0,0.0,4297.436035,4280.256348,4310.769043,4309.230957,4264.230957,4270.641113,4289.743652,4295.0,4280.256348,4271.025879,4584.615234,4583.461426,4416.410156,4516.153809,,,,,,,,,,,,,,,,,,,,,,,,,,,,,,,,,,,,,,,,,,,,,,,,,,,,,,,,,,,,,,,,,,,,,,
1769161716.124787,1769161716.125185,38.0,0.0,4296.794922,4277.94873,4310.769043,4310.256348,4262.179688,4265.897461,4292.94873,4293.846191,4277.436035,4265.641113,4580.256348,4575.256348,4412.94873,4514.487305,,,,,,,,,,,,,,,,,,,,,,,,,,,,,,,,,,,,,,,,,,,,,,,,,,,,,,,,,,,,,,,,,,,,,,
1769161716.132595,1769161716.132994,39.0,0.0,4296.025879,4277.692383,4312.820313,4307.692383,4261.794922,4265.769043,4294.743652,4292.05127,4275.0,4263.974121,4573.589844,4570.0,4411.410156,4505.512695,,,,,,,,,,,,,,,,,,,,,,,,,,,,,,,,,,,,,,,,,,,,,,,,,,,,,,,,,,,,,,,,,,,,,,
1769161716.140404,1769161716.141002,40.0,0.0,4293.846191,4278.205078,4311.538574,4307.179688,4264.102539,4271.282227,4293.205078,4293.717773,4280.0,4266.282227,4571.153809,4574.102539,4412.05127,4506.922852,,,,,,,,,,,,,,,,,,,,,,,,,,,,,,,,,,,,,,,,,,,,,,,,,,,,,,,,,,,,,,,,,,,,,,
1769161716.148212,1769161716.14881,41.0,0.0,4294.102539,4278.077148,4310.0,4309.871582,4264.487305,4273.717773,4292.94873,4296.025879,4280.256348,4265.256348,4571.538574,4578.333496,4412.820313,4509.743652,,,,,,,,,,,,,,,,,,,,,,,,,,,,,,,,,,,,,,,,,,,,,,,,,,,,,,,,,,,,,,,,,,,,,,
1769161716.156021,1769161716.156719,42.0,0.0,4293.974121,4277.692383,4311.794922,4309.743652,4262.05127,4268.717773,4293.461426,4291.538574,4268.974121,4261.922852,4570.641113,4574.743652,4410.256348,4506.410156,,,,,,,,,,,,,,,,,,,,,,,,,,,,,,,,,,,,,,,,,,,,,,,,,,,,,,,,,,,,,,,,,,,,,,
1769161716.163829,1769161716.164527,43.0,0.0,4292.563965,4276.922852,4311.025879,4307.436035,4260.256348,4264.358887,4290.641113,4288.077148,4264.102539,4261.794922,4567.94873,4573.333496,4406.794922,4505.256348,,,,,,,,,,,,,,,,,,,,,,,,,,,,,,,,,,,,,,,,,,,,,,,,,,,,,,,,,,,,,,,,,,,,,,
1769161716.171638,1769161716.172136,44.0,0.0,4296.282227,4278.461426,4311.153809,4308.461426,4263.333496,4266.666504,4291.410156,4293.077148,4274.230957,4264.615234,4573.717773,4582.179688,4410.0,4513.077148,,,,,,,,,,,,,,,,,,,,,,,,,,,,,,,,,,,,,,,,,,,,,,,,,,,,,,,,,,,,,,,,,,,,,,
1769161716.179446,1769161716.179944,45.0,0.0,4303.205078,4279.743652,4316.282227,4311.410156,4266.666504,4269.102539,4294.230957,4295.128418,4281.922852,4268.974121,4584.358887,4593.589844,4416.153809,4521.794922,,,,,,,,,,,,,,,,,,,,,,,,,,,,,,,,,,,,,,,,,,,,,,,,,,,,,,,,,,,,,,,,,,,,,,
1769161716.187255,1769161716.187853,46.0,0.0,4305.256348,4278.589844,4320.0,4311.153809,4264.743652,4264.615234,4289.102539,4290.641113,4276.538574,4268.846191,4586.025879,4592.692383,4414.358887,4521.025879,0.716408,0.421371,0.209853,0.188527,0.293492,0.717678,0.387279,0.248841,0.223189,0.114306,0.573642,0.330462,0.12319,0.124699,0.169347,0.609802,0.333727,0.11723,0.121857,0.085162,0.199209,0.182717,0.078941,0.08309,0.03992,0.14261,0.148223,0.051619,0.079,0.061054,0.215134,0.302147,0.063854,0.081716,0.086182,0.524448,0.43109,0.234432,0.121696,0.102862,0.472887,0.223242,0.336787,0.110901,0.122194,0.561906,0.667393,0.267277,0.157981,0.097449,0.320668,0.545294,0.106011,0.211037,0.092732,0.660174,0.520189,0.33232,0.098656,0.105883,0.831982,0.993103,0.229182,0.331058,0.176403,0.598407,0.708953,0.310666,0.295861,0.186286
1769161716.195063,1769161716.195661,47.0,0.0,4305.128418,4283.846191,4320.769043,4311.153809,4261.794922,4261.794922,4285.384766,4290.512695,4271.282227,4264.615234,4582.179688,4586.025879,4412.307617,4518.077148,,,,,,,,,,,,,,,,,,,,,,,,,,,,,,,,,,,,,,,,,,,,,,,,,,,,,,,,,,,,,,,,,,,,,,
1769161716.202872,1769161716.203669,48.0,0.0,4309.358887,4293.589844,4320.0,4316.794922,4263.589844,4267.820313,4290.256348,4293.974121,4274.102539,4268.077148,4582.436035,4585.769043,4421.153809,4523.333496,,,,,,,,,,,,,,,,,,,,,,,,,,,,,,,,,,,,,,,,,,,,,,,,,,,,,,,,,,,,,,,,,,,,,,
1769161716.21068,1769161716.211478,49.0,0.0,4311.282227,4293.205078,4319.358887,4324.615234,4266.153809,4272.179688,4292.820313,4295.128418,4280.0,4273.717773,4587.307617,4581.794922,4425.769043,4525.897461,,,,,,,,,,,,,,,,,,,,,,,,,,,,,,,,,,,,,,,,,,,,,,,,,,,,,,,,,,,,,,,,,,,,,,
1769161716.218489,1769161716.219286,50.0,0.0,4307.179688,4286.282227,4320.769043,4326.153809,4263.846191,4265.641113,4288.461426,4295.256348,4280.256348,4268.461426,4583.974121,4573.077148,4415.769043,4520.128418,,,,,,,,,,,,,,,,,,,,,,,,,,,,,,,,,,,,,,,,,,,,,,,,,,,,,,,,,,,,,,,,,,,,,,
1769161716.226297,1769161716.227095,51.0,0.0,4307.307617,4289.230957,4323.333496,4322.563965,4261.282227,4263.974121,4286.666504,4293.077148,4275.512695,4260.128418,4574.615234,4569.230957,4408.717773,4518.077148,,,,,,,,,,,,,,,,,,,,,,,,,,,,,,,,,,,,,,,,,,,,,,,,,,,,,,,,,,,,,,,,,,,,,,
1769161716.234105,1769161716.234703,52.0,0.0,4310.384766,4293.717773,4323.461426,4321.025879,4264.871582,4269.871582,4288.205078,4291.025879,4275.512695,4263.077148,4575.384766,4571.410156,4414.615234,4521.922852,,,,,,,,,,,,,,,,,,,,,,,,,,,,,,,,,,,,,,,,,,,,,,,,,,,,,,,,,,,,,,,,,,,,,,
1769161716.241914,1769161716.242512,53.0,0.0,4304.871582,4285.128418,4318.077148,4320.641113,4267.05127,4269.615234,4291.794922,4292.692383,4278.589844,4266.922852,4581.922852,4569.871582,4414.358887,4523.717773,,,,,,,,,,,,,,,,,,,,,,,,,,,,,,,,,,,,,,,,,,,,,,,,,,,,,,,,,,,,,,,,,,,,,,
1769161716.249722,1769161716.25022,54.0,0.0,4300.769043,4280.0,4314.102539,4320.897461,4266.153809,4267.563965,4291.794922,4293.461426,4278.974121,4263.974121,4581.538574,4567.563965,4413.077148,4523.333496,,,,,,,,,,,,,,,,,,,,,,,,,,,,,,,,,,,,,,,,,,,,,,,,,,,,,,,,,,,,,,,,,,,,,,
1769161716.257531,1769161716.258029,55.0,0.0,4308.461426,4288.974121,4321.538574,4322.820313,4268.589844,4266.538574,4284.230957,4292.820313,4278.974121,4265.256348,4582.179688,4570.897461,4425.641113,4526.538574,,,,,,,,,,,,,,,,,,,,,,,,,,,,,,,,,,,,,,,,,,,,,,,,,,,,,,,,,,,,,,,,,,,,,,
1769161716.265339,1769161716.266037,56.0,0.0,4315.0,4290.128418,4327.179688,4323.205078,4270.0,4265.769043,4283.589844,4292.307617,4278.717773,4266.922852,4586.922852,4568.333496,4428.205078,4523.589844,,,,,,,,,,,,,,,,,,,,,,,,,,,,,,,,,,,,,,,,,,,,,,,,,,,,,,,,,,,,,,,,,,,,,,
1769161716.273148,1769161716.273845,57.0,0.0,4307.307617,4281.538574,4321.025879,4321.794922,4267.563965,4273.461426,4292.692383,4291.666504,4278.333496,4263.974121,4581.410156,4557.820313,4412.820313,4511.410156,,,,,,,,,,,,,,,,,,,,,,,,,,,,,,,,,,,,,,,,,,,,,,,,,,,,,,,,,,,,,,,,,,,,,,
1769161716.280956,1769161716.281554,58.0,0.0,4300.384766,4283.333496,4316.666504,4323.205078,4266.538574,4276.410156,4297.179688,4292.692383,4278.589844,4262.820313,4572.820313,4554.230957,4406.410156,4505.0,,,,,,,,,,,,,,,,,,,,,,,,,,,,,,,,,,,,,,,,,,,,,,,,,,,,,,,,,,,,,,,,,,,,,,
1769161716.288765,1769161716.289362,59.0,0.0,4305.384766,4288.974121,4316.282227,4323.589844,4266.922852,4267.692383,4293.205078,4294.743652,4279.871582,4265.512695,4573.205078,4557.179688,4415.0,4508.461426,,,,,,,,,,,,,,,,,,,,,,,,,,,,,,,,,,,,,,,,,,,,,,,,,,,,,,,,,,,,,,,,,,,,,,
1769161716.296573,1769161716.296971,60.0,0.0,4305.641113,4285.128418,4312.179688,4321.794922,4269.230957,4266.025879,4291.410156,4294.871582,4280.256348,4267.05127,4573.333496,4554.871582,4416.282227,4509.230957,,,,,,,,,,,,,,,,,,,,,,,,,,,,,,,,,,,,,,,,,,,,,,,,,,,,,,,,,,,,,,,,,,,,,,
1769161716.304381,1769161716.30478,61.0,0.0,4294.487305,4280.0,4309.102539,4320.0,4271.282227,4275.384766,4294.743652,4294.358887,4280.128418,4265.641113,4571.666504,4550.769043,4408.974121,4503.077148,,,,,,,,,,,,,,,,,,,,,,,,,,,,,,,,,,,,,,,,,,,,,,,,,,,,,,,,,,,,,,,,,,,,,,
1769161716.31219,1769161716.312488,62.0,0.0,4290.256348,4277.94873,4309.615234,4315.512695,4267.563965,4277.563965,4296.282227,4294.871582,4279.871582,4266.666504,4575.0,4552.179688,4415.0,4502.563965,0.665308,0.396571,0.21577,0.17103,0.317676,0.762639,0.39054,0.258514,0.207263,0.102498,0.610951,0.342626,0.127276,0.141016,0.183095,0.698565,0.307225,0.123568,0.122636,0.09421,0.189546,0.138026,0.066843,0.071664,0.035451,0.141274,0.121032,0.04275,0.086368,0.058882,0.197841,0.219662,0.051981,0.07526,0.080259,0.589668,0.494361,0.245307,0.13422,0.093837,0.505821,0.191637,0.298921,0.100949,0.108752,0.579016,0.665529,0.26213,0.135588,0.09152,0.312008,0.548803,0.092105,0.193809,0.083597,0.714375,0.438707,0.244154,0.089856,0.091225,0.822752,1.052309,0.199915,0.288957,0.160703,0.688747,0.787106,0.274392,0.276946,0.183201
1769161716.319998,1769161716.320297,63.0,0.0,4302.820313,4277.307617,4310.384766,4314.743652,4264.358887,4268.974121,4295.384766,4296.153809,4279.743652,4270.0,4585.0,4555.641113,4425.0,4511.410156,,,,,,,,,,,,,,,,,,,,,,,,,,,,,,,,,,,,,,,,,,,,,,,,,,,,,,,,,,,,,,,,,,,,,,
1769161716.327807,1769161716.328305,64.0,0.0,4310.769043,4279.615234,4314.102539,4320.128418,4266.538574,4266.794922,4294.487305,4297.179688,4280.0,4268.846191,4585.256348,4558.974121,4418.589844,4515.0,,,,,,,,,,,,,,,,,,,,,,,,,,,,,,,,,,,,,,,,,,,,,,,,,,,,,,,,,,,,,,,,,,,,,,
1769161716.335615,1769161716.336113,65.0,0.0,4307.436035,4280.384766,4316.410156,4323.974121,4266.538574,4272.436035,4294.487305,4296.025879,4279.487305,4263.589844,4574.230957,4555.897461,4407.307617,4507.179688,,,,,,,,,,,,,,,,,,,,,,,,,,,,,,,,,,,,,,,,,,,,,,,,,,,,,,,,,,,,,,,,,,,,,,
1769161716.343424,1769161716.344022,66.0,0.0,4309.743652,4280.769043,4315.128418,4325.769043,4268.205078,4273.846191,4292.179688,4295.641113,4278.974121,4264.871582,4569.358887,4545.0,4408.461426,4503.461426,,,,,,,,,,,,,,,,,,,,,,,,,,,,,,,,,,,,,,,,,,,,,,,,,,,,,,,,,,,,,,,,,,,,,,
1769161716.351232,1769161716.35183,67.0,0.0,4309.487305,4281.282227,4310.897461,4325.0,4271.410156,4273.461426,4291.666504,4295.769043,4279.230957,4269.358887,4571.282227,4541.538574,4412.820313,4508.333496,,,,,,,,,,,,,,,,,,,,,,,,,,,,,,,,,,,,,,,,,,,,,,,,,,,,,,,,,,,,,,,,,,,,,,
1769161716.359041,1769161716.359838,68.0,0.0,4301.538574,4278.461426,4307.820313,4322.820313,4267.692383,4275.641113,4291.025879,4294.230957,4278.333496,4267.820313,4573.333496,4548.205078,4412.436035,4511.153809,,,,,,,,,,,,,,,,,,,,,,,,,,,,,,,,,,,,,,,,,,,,,,,,,,,,,,,,,,,,,,,,,,,,,,
1769161716.366849,1769161716.367647,69.0,0.0,4300.769043,4279.102539,4313.846191,4326.282227,4265.0,4271.282227,4289.230957,4292.692383,4276.025879,4264.230957,4573.461426,4552.436035,4413.077148,4509.102539,,,,,,,,,,,,,,,,,,,,,,,,,,,,,,,,,,,,,,,,,,,,,,,,,,,,,,,,,,,,,,,,,,,,,,
1769161716.374658,1769161716.375355,70.0,0.0,4309.230957,4287.692383,4321.666504,4330.512695,4267.307617,4263.077148,4291.025879,4291.794922,4276.025879,4263.461426,4572.307617,4546.794922,4412.179688,4506.410156,,,,,,,,,,,,,,,,,,,,,,,,,,,,,,,,,,,,,,,,,,,,,,,,,,,,,,,,,,,,,,,,,,,,,,
1769161716.382466,1769161716.383164,71.0,0.0,4313.589844,4290.897461,4324.230957,4328.717773,4267.692383,4267.307617,4290.897461,4292.563965,4278.846191,4265.128418,4572.307617,4541.410156,4411.922852,4506.153809,,,,,,,,,,,,,,,,,,,,,,,,,,,,,,,,,,,,,,,,,,,,,,,,,,,,,,,,,,,,,,,,,,,,,,
1769161716.390274,1769161716.391172,72.0,0.0,4310.769043,4282.820313,4321.282227,4325.128418,4266.666504,4274.102539,4287.05127,4295.897461,4279.743652,4265.256348,4572.820313,4539.102539,4410.512695,4506.282227,,,,,,,,,,,,,,,,,,,,,,,,,,,,,,,,,,,,,,,,,,,,,,,,,,,,,,,,,,,,,,,,,,,,,,
1769161716.398083,1769161716.39898,73.0,0.0,4302.820313,4275.769043,4314.230957,4319.871582,4267.307617,4274.615234,4290.0,4298.205078,4278.333496,4262.179688,4571.794922,4537.436035,4407.436035,4503.077148,,,,,,,,,,,,,,,,,,,,,,,,,,,,,,,,,,,,,,,,,,,,,,,,,,,,,,,,,,,,,,,,,,,,,,
1769161716.405891,1769161716.406889,74.0,0.0,4299.102539,4276.922852,4310.769043,4319.358887,4267.307617,4278.077148,4296.153809,4297.563965,4280.128418,4268.846191,4578.333496,4546.282227,4418.589844,4506.922852,,,,,,,,,,,,,,,,,,,,,,,,,,,,,,,,,,,,,,,,,,,,,,,,,,,,,,,,,,,,,,,,,,,,,,
1769161716.4137,1769161716.414697,75.0,0.0,4307.436035,4281.666504,4317.307617,4326.025879,4267.179688,4278.205078,4295.384766,4297.179688,4282.179688,4278.846191,4586.922852,4554.230957,4428.333496,4516.922852,,,,,,,,,,,,,,,,,,,,,,,,,,,,,,,,,,,,,,,,,,,,,,,,,,,,,,,,,,,,,,,,,,,,,,
1769161716.421508,1769161716.422705,76.0,0.0,4306.794922,4277.436035,4320.128418,4325.0,4264.487305,4268.717773,4293.205078,4297.179688,4279.743652,4271.025879,4578.974121,4544.871582,4417.436035,4515.384766,,,,,,,,,,,,,,,,,,,,,,,,,,,,,,,,,,,,,,,,,,,,,,,,,,,,,,,,,,,,,,,,,,,,,,
1769161716.429317,1769161716.430514,77.0,0.0,4295.128418,4272.563965,4312.05127,4316.538574,4264.102539,4263.589844,4291.153809,4294.871582,4276.410156,4260.897461,4567.820313,4535.512695,4407.05127,4506.153809,,,,,,,,,,,,,,,,,,,,,,,,,,,,,,,,,,,,,,,,,,,,,,,,,,,,,,,,,,,,,,,,,,,,,,
1769161716.437125,1769161716.438222,78.0,0.0,4297.94873,4281.666504,4310.641113,4317.436035,4270.897461,4271.410156,4290.256348,4293.333496,4274.487305,4266.410156,4571.410156,4541.794922,4413.077148,4507.436035,0.607098,0.347357,0.244717,0.161237,0.327802,0.775727,0.369701,0.261773,0.183659,0.094891,0.622734,0.330478,0.128078,0.155775,0.184942,0.754123,0.26676,0.128375,0.11997,0.099342,0.194707,0.095337,0.05287,0.059022,0.031855,0.147341,0.089705,0.038055,0.099473,0.057339,0.190853,0.140673,0.04488,0.065852,0.07658,0.618414,0.514559,0.248227,0.144321,0.079853,0.553198,0.17778,0.248817,0.095472,0.096365,0.548152,0.617295,0.246732,0.120821,0.091362,0.342591,0.522807,0.080633,0.176796,0.083216,0.878405,0.342579,0.17343,0.096483,0.092901,0.871848,1.048246,0.174903,0.243857,0.152934,0.937673,0.830546,0.243099,0.278087,0.185573
1769161716.444934,1769161716.446031,79.0,0.0,4306.794922,4288.589844,4310.641113,4320.897461,4276.025879,4276.025879,4293.974121,4294.102539,4273.461426,4269.358887,4576.410156,4544.743652,4418.077148,4511.922852,,,,,,,,,,,,,,,,,,,,,,,,,,,,,,,,,,,,,,,,,,,,,,,,,,,,,,,,,,,,,,,,,,,,,,
1769161716.452742,1769161716.45364,80.0,0.0,4299.487305,4281.025879,4301.025879,4313.461426,4274.871582,4274.358887,4295.641113,4294.102539,4274.102539,4264.871582,4571.153809,4537.179688,4412.94873,4505.641113,,,,,,,,,,,,,,,,,,,,,,,,,,,,,,,,,,,,,,,,,,,,,,,,,,,,,,,,,,,,,,,,,,,,,,
1769161716.46055,1769161716.461448,81.0,0.0,4293.205078,4276.153809,4296.794922,4310.384766,4274.743652,4275.897461,4294.487305,4292.436035,4276.153809,4267.820313,4568.589844,4536.025879,4410.897461,4503.205078,,,,,,,,,,,,,,,,,,,,,,,,,,,,,,,,,,,,,,,,,,,,,,,,,,,,,,,,,,,,,,,,,,,,,,
1769161716.468359,1769161716.469356,82.0,0.0,4303.077148,4281.794922,4309.615234,4322.94873,4276.282227,4271.922852,4289.615234,4292.307617,4277.179688,4274.743652,4578.205078,4547.692383,4414.615234,4512.307617,,,,,,,,,,,,,,,,,,,,,,,,,,,,,,,,,,,,,,,,,,,,,,,,,,,,,,,,,,,,,,,,,,,,,,
1769161716.476167,1769161716.477165,83.0,0.0,4305.897461,4284.743652,4313.333496,4328.974121,4275.512695,4264.487305,4281.153809,4292.692383,4277.563965,4274.871582,4584.487305,4558.846191,4416.538574,4515.0,,,,,,,,,,,,,,,,,,,,,,,,,,,,,,,,,,,,,,,,,,,,,,,,,,,,,,,,,,,,,,,,,,,,,,
1769161716.483976,1769161716.484773,84.0,0.0,4295.641113,4280.256348,4298.717773,4319.230957,4275.0,4269.871582,4280.641113,4292.692383,4279.102539,4268.205078,4577.05127,4550.641113,4413.717773,4505.897461,,,,,,,,,,,,,,,,,,,,,,,,,,,,,,,,,,,,,,,,,,,,,,,,,,,,,,,,,,,,,,,,,,,,,,
1769161716.491784,1769161716.492582,85.0,0.0,4296.025879,4277.94873,4294.230957,4317.820313,4274.743652,4280.384766,4286.410156,4291.282227,4277.94873,4263.717773,4569.230957,4537.94873,4412.307617,4501.666504,,,,,,,,,,,,,,,,,,,,,,,,,,,,,,,,,,,,,,,,,,,,,,,,,,,,,,,,,,,,,,,,,,,,,,
1769161716.499593,1769161716.50029,86.0,0.0,4307.692383,4283.846191,4307.692383,4326.666504,4274.230957,4280.641113,4286.794922,4289.230957,4274.102539,4265.256348,4568.333496,4537.436035,4409.230957,4504.487305,,,,,,,,,,,,,,,,,,,,,,,,,,,,,,,,,,,,,,,,,,,,,,,,,,,,,,,,,,,,,,,,,,,,,,
1769161716.507401,1769161716.508099,87.0,0.0,4313.461426,4288.717773,4315.256348,4328.974121,4272.692383,4277.436035,4287.692383,4288.461426,4273.333496,4263.077148,4567.94873,4542.307617,4404.743652,4503.974121,,,,,,,,,,,,,,,,,,,,,,,,,,,,,,,,,,,,,,,,,,,,,,,,,,,,,,,,,,,,,,,,,,,,,,
1769161716.51521,1769161716.516107,88.0,0.0,4305.256348,4282.820313,4304.487305,4324.615234,4269.871582,4279.487305,4294.487305,4291.410156,4277.179688,4262.307617,4570.384766,4547.05127,4410.769043,4505.897461,,,,,,,,,,,,,,,,,,,,,,,,,,,,,,,,,,,,,,,,,,,,,,,,,,,,,,,,,,,,,,,,,,,,,,
1769161716.523018,1769161716.523916,89.0,0.0,4295.0,4278.077148,4294.487305,4318.974121,4267.436035,4279.358887,4294.230957,4293.333496,4280.641113,4270.512695,4573.846191,4546.538574,4417.05127,4510.0,,,,,,,,,,,,,,,,,,,,,,,,,,,,,,,,,,,,,,,,,,,,,,,,,,,,,,,,,,,,,,,,,,,,,,
1769161716.530826,1769161716.531824,90.0,0.0,4298.974121,4279.871582,4300.0,4319.615234,4265.256348,4271.025879,4286.538574,4288.589844,4276.922852,4272.05127,4572.692383,4540.128418,4413.461426,4508.589844,,,,,,,,,,,,,,,,,,,,,,,,,,,,,,,,,,,,,,,,,,,,,,,,,,,,,,,,,,,,,,,,,,,,,,
1769161716.538635,1769161716.539632,91.0,0.0,4310.0,4282.820313,4306.153809,4324.871582,4263.589844,4265.384766,4285.128418,4283.846191,4268.974121,4263.974121,4571.538574,4537.563965,4411.666504,4507.436035,,,,,,,,,,,,,,,,,,,,,,,,,,,,,,,,,,,,,,,,,,,,,,,,,,,,,,,,,,,,,,,,,,,,,,
1769161716.546443,1769161716.547641,92.0,0.0,4303.974121,4277.307617,4298.974121,4319.358887,4264.615234,4274.358887,4292.692383,4286.410156,4265.897461,4262.05127,4571.410156,4541.025879,4410.897461,4507.436035,,,,,,,,,,,,,,,,,,,,,,,,,,,,,,,,,,,,,,,,,,,,,,,,,,,,,,,,,,,,,,,,,,,,,,
1769161716.554252,1769161716.555449,93.0,0.0,4290.0,4267.179688,4290.0,4306.153809,4264.743652,4283.077148,4298.974121,4290.128418,4266.666504,4264.871582,4569.102539,4541.922852,4404.615234,4502.692383,,,,,,,,,,,,,,,,,,,,,,,,,,,,,,,,,,,,,,,,,,,,,,,,,,,,,,,,,,,,,,,,,,,,,,
1769161716.56206,1769161716.563357,94.0,0.0,4291.282227,4269.743652,4293.077148,4311.153809,4261.794922,4272.307617,4290.512695,4288.333496,4266.538574,4264.743652,4567.692383,4539.487305,4402.692383,4500.128418,0.576,0.298727,0.297198,0.15756,0.321875,0.762188,0.332249,0.256546,0.15936,0.094143,0.634777,0.298939,0.125264,0.168473,0.174878,0.772732,0.221248,0.132394,0.115294,0.100945,0.207424,0.062874,0.039753,0.047478,0.030025,0.160846,0.06324,0.036811,0.115251,0.057078,0.206008,0.083918,0.042822,0.057073,0.077023,0.60733,0.489667,0.238895,0.148319,0.065441,0.620176,0.175203,0.197996,0.094097,0.090164,0.485684,0.530175,0.226209,0.112563,0.097298,0.409939,0.490247,0.07679,0.167646,0.091944,1.171985,0.256178,0.13696,0.118661,0.109277,0.94815,0.984459,0.162981,0.210363,0.15447,1.313933,0.822248,0.220978,0.304042,0.190114
1769161716.569869,1769161716.571166,95.0,0.0,4296.666504,4277.820313,4296.282227,4320.641113,4261.282227,4262.307617,4279.615234,4286.922852,4264.487305,4263.846191,4569.358887,4539.102539,4408.461426,4504.487305,,,,,,,,,,,,,,,,,,,,,,,,,,,,,,,,,,,,,,,,,,,,,,,,,,,,,,,,,,,,,,,,,,,,,,
