Timestamp,OriginalTimestamp,EEG.Counter,EEG.Interpolated,EEG.AF3,EEG.F7,EEG.F3,EEG.FC5,EEG.T7,EEG.P7,EEG.O1,EEG.O2,EEG.P8,EEG.T8,EEG.FC6,EEG.F4,EEG.F8,EEG.AF4,POW.AF3.Theta,POW.AF3.Alpha,POW.AF3.BetaL,POW.AF3.BetaH,POW.AF3.Gamma,POW.F7.Theta,POW.F7.Alpha,POW.F7.BetaL,POW.F7.BetaH,POW.F7.Gamma,POW.F3.Theta,POW.F3.Alpha,POW.F3.BetaL,POW.F3.BetaH,POW.F3.Gamma,POW.FC5.Theta,POW.FC5.Alpha,POW.FC5.BetaL,POW.FC5.BetaH,POW.FC5.Gamma,POW.T7.Theta,POW.T7.Alpha,POW.T7.BetaL,POW.T7.BetaH,POW.T7.Gamma,POW.P7.Theta,POW.P7.Alpha,POW.P7.BetaL,POW.P7.BetaH,POW.P7.Gamma,POW.O1.Theta,POW.O1.Alpha,POW.O1.BetaL,POW.O1.BetaH,POW.O1.Gamma,POW.O2.Theta,POW.O2.Alpha,POW.O2.BetaL,POW.O2.BetaH,POW.O2.Gamma,POW.P8.Theta,POW.P8.Alpha,POW.P8.BetaL,POW.P8.BetaH,POW.P8.Gamma,POW.T8.Theta,POW.T8.Alpha,POW.T8.BetaL,POW.T8.BetaH,POW.T8.Gamma,POW.FC6.Theta,POW.FC6.Alpha,POW.FC6.BetaL,POW.FC6.BetaH,POW.FC6.Gamma,POW.F4.Theta,POW.F4.Alpha,POW.F4.BetaL,POW.F4.BetaH,POW.F4.Gamma,POW.F8.Theta,POW.F8.Alpha,POW.F8.BetaL,POW.F8.BetaH,POW.F8.Gamma,POW.AF4.Theta,POW.AF4.Alpha,POW.AF4.BetaL,POW.AF4.BetaH,POW.AF4.Gamma
1768973135.648847,1768973135.650008,121.0,0.0,4376.922852,4368.717773,4347.563965,4383.333496,4377.94873,4376.282227,4381.282227,4377.436035,4372.94873,4357.05127,4444.358887,4509.102539,4378.717773,4412.94873,,,,,,,,,,,,,,,,,,,,,,,,,,,,,,,,,,,,,,,,,,,,,,,,,,,,,,,,,,,,,,,,,,,,,,
1768973135.656655,1768973135.657716,122.0,0.0,4374.871582,4367.94873,4347.05127,4380.256348,4376.153809,4375.641113,4381.410156,4381.538574,4374.102539,4355.769043,4444.102539,4512.692383,4381.538574,4414.230957,,,,,,,,,,,,,,,,,,,,,,,,,,,,,,,,,,,,,,,,,,,,,,,,,,,,,,,,,,,,,,,,,,,,,,
1768973135.664464,1768973135.665525,123.0,0.0,4380.641113,4373.333496,4351.666504,4381.153809,4381.153809,4382.307617,4384.487305,4379.871582,4371.153809,4358.077148,4444.871582,4515.641113,4384.743652,4418.205078,,,,,,,,,,,,,,,,,,,,,,,,,,,,,,,,,,,,,,,,,,,,,,,,,,,,,,,,,,,,,,,,,,,,,,
1768973135.672272,1768973135.673333,124.0,0.0,4376.922852,4372.692383,4350.641113,4379.743652,4382.05127,4388.846191,4391.538574,4378.974121,4371.025879,4357.820313,4443.974121,4509.871582,4381.666504,4416.153809,,,,,,,,,,,,,,,,,,,,,,,,,,,,,,,,,,,,,,,,,,,,,,,,,,,,,,,,,,,,,,,,,,,,,,
1768973135.680081,1768973135.681142,125.0,0.0,4367.563965,4368.333496,4343.077148,4376.153809,4376.025879,4384.487305,4388.461426,4381.666504,4371.794922,4354.487305,4440.897461,4501.794922,4376.794922,4410.769043,,,,,,,,,,,,,,,,,,,,,,,,,,,,,,,,,,,,,,,,,,,,,,,,,,,,,,,,,,,,,,,,,,,,,,
1768973135.687889,1768973135.68885,126.0,0.0,4369.615234,4376.153809,4343.333496,4379.615234,4372.820313,4380.384766,4378.077148,4378.846191,4368.461426,4357.436035,4441.153809,4503.717773,4377.563965,4411.666504,1.490301,0.334369,0.117306,0.231287,0.092025,1.461527,0.197071,0.120762,0.164792,0.12128,0.512935,0.224165,0.216605,0.096826,0.053377,0.226211,0.062566,0.105471,0.085637,0.055057,0.064289,0.202689,0.128517,0.079177,0.062888,0.187989,0.526255,0.182485,0.268179,0.169296,0.2175,0.257702,0.208721,0.318749,0.163963,0.221235,0.150379,0.232959,0.181637,0.198484,0.218113,0.211313,0.526275,0.178741,0.17894,0.351995,0.257714,0.278816,0.142709,0.126592,0.310755,0.288814,0.320542,0.166228,0.151842,0.567796,0.630074,0.493158,0.218602,0.182179,0.706322,0.494948,0.289037,0.259901,0.236518,0.798162,0.590501,0.325397,0.211202,0.142297
1768973135.695698,1768973135.696659,127.0,0.0,4374.871582,4384.102539,4347.94873,4380.256348,4373.589844,4380.384766,4372.563965,4369.871582,4363.717773,4359.358887,4442.820313,4505.128418,4379.871582,4414.743652,,,,,,,,,,,,,,,,,,,,,,,,,,,,,,,,,,,,,,,,,,,,,,,,,,,,,,,,,,,,,,,,,,,,,,
1768973135.703506,1768973135.704267,0.0,0.0,4374.743652,4379.102539,4346.025879,4373.974121,4373.717773,4378.846191,4375.128418,4370.512695,4366.538574,4352.820313,4442.94873,4504.743652,4377.563965,4414.102539,,,,,,,,,,,,,,,,,,,,,,,,,,,,,,,,,,,,,,,,,,,,,,,,,,,,,,,,,,,,,,,,,,,,,,
1768973135.711314,1768973135.712076,1.0,0.0,4371.666504,4370.512695,4342.820313,4371.922852,4372.05127,4378.333496,4381.794922,4379.871582,4373.589844,4348.077148,4443.846191,4507.94873,4375.0,4412.94873,,,,,,,,,,,,,,,,,,,,,,,,,,,,,,,,,,,,,,,,,,,,,,,,,,,,,,,,,,,,,,,,,,,,,,
1768973135.719123,1768973135.719784,2.0,0.0,4368.974121,4372.94873,4344.871582,4374.487305,4370.384766,4381.794922,4381.410156,4373.717773,4367.307617,4346.282227,4441.666504,4505.128418,4377.307617,4413.205078,,,,,,,,,,,,,,,,,,,,,,,,,,,,,,,,,,,,,,,,,,,,,,,,,,,,,,,,,,,,,,,,,,,,,,
1768973135.726931,1768973135.727593,3.0,0.0,4369.230957,4380.897461,4349.615234,4376.538574,4371.666504,4380.256348,4372.307617,4361.153809,4359.230957,4346.282227,4440.128418,4502.179688,4380.512695,4415.256348,,,,,,,,,,,,,,,,,,,,,,,,,,,,,,,,,,,,,,,,,,,,,,,,,,,,,,,,,,,,,,,,,,,,,,
1768973135.73474,1768973135.735601,4.0,0.0,4371.025879,4382.436035,4348.589844,4379.615234,4372.563965,4372.94873,4368.333496,4364.102539,4367.179688,4351.922852,4443.589844,4506.025879,4382.307617,4416.538574,,,,,,,,,,,,,,,,,,,,,,,,,,,,,,,,,,,,,,,,,,,,,,,,,,,,,,,,,,,,,,,,,,,,,,
1768973135.742548,1768973135.743409,5.0,0.0,4369.487305,4377.436035,4344.102539,4378.461426,4372.307617,4371.794922,4374.743652,4373.077148,4372.94873,4353.333496,4443.846191,4503.461426,4382.307617,4414.102539,,,,,,,,,,,,,,,,,,,,,,,,,,,,,,,,,,,,,,,,,,,,,,,,,,,,,,,,,,,,,,,,,,,,,,
1768973135.750357,1768973135.751118,6.0,0.0,4366.666504,4375.256348,4343.205078,4373.461426,4370.897461,4375.128418,4378.077148,4368.974121,4366.282227,4348.974121,4441.282227,4498.974121,4379.743652,4412.307617,,,,,,,,,,,,,,,,,,,,,,,,,,,,,,,,,,,,,,,,,,,,,,,,,,,,,,,,,,,,,,,,,,,,,,
1768973135.758165,1768973135.758926,7.0,0.0,4373.077148,4382.436035,4347.563965,4375.641113,4370.769043,4376.153809,4373.717773,4362.94873,4364.615234,4347.436035,4443.077148,4502.94873,4381.922852,4416.025879,,,,,,,,,,,,,,,,,,,,,,,,,,,,,,,,,,,,,,,,,,,,,,,,,,,,,,,,,,,,,,,,,,,,,,
1768973135.765973,1768973135.766535,8.0,0.0,4379.487305,4389.871582,4351.794922,4381.153809,4373.461426,4376.282227,4372.692383,4371.922852,4371.666504,4348.974121,4445.769043,4507.05127,4390.0,4419.871582,,,,,,,,,,,,,,,,,,,,,,,,,,,,,,,,,,,,,,,,,,,,,,,,,,,,,,,,,,,,,,,,,,,,,,
1768973135.773782,1768973135.774344,9.0,0.0,4377.05127,4389.743652,4351.025879,4381.666504,4374.487305,4379.358887,4374.487305,4376.153809,4373.461426,4351.794922,4443.974121,4506.922852,4391.153809,4420.128418,,,,,,,,,,,,,,,,,,,,,,,,,,,,,,,,,,,,,,,,,,,,,,,,,,,,,,,,,,,,,,,,,,,,,,
1768973135.78159,1768973135.782052,10.0,0.0,4377.692383,4388.461426,4352.820313,4380.512695,4373.333496,4379.743652,4373.846191,4371.025879,4372.820313,4354.102539,4443.461426,4510.256348,4388.846191,4422.94873,,,,,,,,,,,,,,,,,,,,,,,,,,,,,,,,,,,,,,,,,,,,,,,,,,,,,,,,,,,,,,,,,,,,,,
1768973135.789399,1768973135.789861,11.0,0.0,4382.94873,4391.666504,4354.871582,4380.384766,4372.563965,4375.641113,4372.563965,4371.025879,4373.077148,4352.307617,4447.436035,4515.769043,4394.358887,4428.205078,,,,,,,,,,,,,,,,,,,,,,,,,,,,,,,,,,,,,,,,,,,,,,,,,,,,,,,,,,,,,,,,,,,,,,
1768973135.797207,1768973135.797869,12.0,0.0,4383.077148,4389.358887,4353.205078,4380.641113,4372.436035,4374.102539,4372.820313,4372.05127,4373.077148,4351.794922,4449.487305,4514.487305,4393.333496,4429.102539,,,,,,,,,,,,,,,,,,,,,,,,,,,,,,,,,,,,,,,,,,,,,,,,,,,,,,,,,,,,,,,,,,,,,,
1768973135.805016,1768973135.805677,13.0,0.0,4381.282227,4379.102539,4353.333496,4382.179688,4372.692383,4376.025879,4372.05127,4367.692383,4372.307617,4355.128418,4451.410156,4510.256348,4387.307617,4426.538574,,,,,,,,,,,,,,,,,,,,,,,,,,,,,,,,,,,,,,,,,,,,,,,,,,,,,,,,,,,,,,,,,,,,,,
1768973135.812824,1768973135.813586,14.0,0.0,4382.820313,4375.0,4353.846191,4384.615234,4374.871582,4377.563965,4371.153809,4369.358887,4371.666504,4355.128418,4456.282227,4513.461426,4394.102539,4427.307617,1.31396,0.318686,0.14394,0.230513,0.093117,1.473542,0.178868,0.135562,0.14795,0.114668,0.604122,0.24394,0.22893,0.090715,0.043769,0.24573,0.087937,0.12122,0.086952,0.050971,0.067714,0.210249,0.13852,0.087413,0.05798,0.209846,0.529292,0.194704,0.240512,0.138306,0.284594,0.248365,0.203449,0.264613,0.150687,0.230422,0.147286,0.23374,0.164998,0.184921,0.197876,0.210767,0.528168,0.169481,0.155364,0.268853,0.268632,0.316264,0.151896,0.11356,0.292939,0.301455,0.335982,0.168779,0.145344,0.481411,0.613344,0.537256,0.239865,0.144422,0.658601,0.491174,0.33677,0.276881,0.211656,0.682784,0.638653,0.362875,0.217341,0.123598
1768973135.820633,1768973135.821394,15.0,0.0,4385.384766,4379.615234,4353.205078,4386.025879,4379.615234,4381.538574,4376.538574,4376.538574,4373.205078,4355.897461,4458.717773,4519.487305,4397.179688,4426.794922,,,,,,,,,,,,,,,,,,,,,,,,,,,,,,,,,,,,,,,,,,,,,,,,,,,,,,,,,,,,,,,,,,,,,,
1768973135.828441,1768973135.829402,16.0,0.0,4389.487305,4382.179688,4356.666504,4387.179688,4382.820313,4383.717773,4380.641113,4375.384766,4375.256348,4359.871582,4456.922852,4516.922852,4388.974121,4424.743652,,,,,,,,,,,,,,,,,,,,,,,,,,,,,,,,,,,,,,,,,,,,,,,,,,,,,,,,,,,,,,,,,,,,,,
1768973135.836249,1768973135.837211,17.0,0.0,4392.179688,4380.769043,4360.256348,4387.94873,4380.128418,4377.563965,4376.666504,4371.410156,4373.846191,4357.94873,4457.436035,4513.974121,4390.641113,4425.512695,,,,,,,,,,,,,,,,,,,,,,,,,,,,,,,,,,,,,,,,,,,,,,,,,,,,,,,,,,,,,,,,,,,,,,
1768973135.844058,1768973135.845119,18.0,0.0,4388.717773,4380.128418,4360.0,4386.282227,4374.487305,4371.538574,4371.922852,4375.769043,4371.538574,4350.512695,4459.102539,4518.589844,4396.538574,4427.820313,,,,,,,,,,,,,,,,,,,,,,,,,,,,,,,,,,,,,,,,,,,,,,,,,,,,,,,,,,,,,,,,,,,,,,
1768973135.851866,1768973135.852927,19.0,0.0,4382.820313,4381.410156,4363.333496,4384.743652,4372.436035,4372.563965,4371.794922,4381.025879,4373.846191,4350.897461,4456.538574,4522.820313,4392.94873,4428.589844,,,,,,,,,,,,,,,,,,,,,,,,,,,,,,,,,,,,,,,,,,,,,,,,,,,,,,,,,,,,,,,,,,,,,,
1768973135.859675,1768973135.860636,20.0,0.0,4384.358887,4380.641113,4362.94873,4386.410156,4373.205078,4375.769043,4377.307617,4377.692383,4374.615234,4355.0,4457.436035,4519.358887,4389.487305,4428.717773,,,,,,,,,,,,,,,,,,,,,,,,,,,,,,,,,,,,,,,,,,,,,,,,,,,,,,,,,,,,,,,,,,,,,,
1768973135.867483,1768973135.868444,21.0,0.0,4389.615234,4379.487305,4358.846191,4388.077148,4374.487305,4376.666504,4378.974121,4371.794922,4370.769043,4348.846191,4458.077148,4513.205078,4386.666504,4427.563965,,,,,,,,,,,,,,,,,,,,,,,,,,,,,,,,,,,,,,,,,,,,,,,,,,,,,,,,,,,,,,,,,,,,,,
1768973135.875292,1768973135.876153,22.0,0.0,4387.179688,4378.461426,4361.410156,4386.025879,4372.94873,4372.436035,4375.512695,4373.974121,4370.384766,4345.512695,4452.179688,4512.563965,4385.897461,4424.743652,,,,,,,,,,,,,,,,,,,,,,,,,,,,,,,,,,,,,,,,,,,,,,,,,,,,,,,,,,,,,,,,,,,,,,
1768973135.8831,1768973135.883961,23.0,0.0,4382.563965,4376.025879,4362.05127,4383.589844,4371.538574,4371.666504,4376.410156,4378.589844,4373.974121,4354.487305,4451.025879,4515.128418,4390.512695,4425.769043,,,,,,,,,,,,,,,,,,,,,,,,,,,,,,,,,,,,,,,,,,,,,,,,,,,,,,,,,,,,,,,,,,,,,,
1768973135.890909,1768973135.89157,24.0,0.0,4382.820313,4377.307617,4359.615234,4386.538574,4375.769043,4379.743652,4382.563965,4376.794922,4374.102539,4358.461426,4455.641113,4516.538574,4393.205078,4426.922852,,,,,,,,,,,,,,,,,,,,,,,,,,,,,,,,,,,,,,,,,,,,,,,,,,,,,,,,,,,,,,,,,,,,,,
1768973135.898717,1768973135.899379,25.0,0.0,4384.102539,4378.077148,4361.153809,4391.282227,4378.974121,4381.153809,4384.358887,4375.384766,4370.897461,4352.436035,4453.974121,4515.769043,4391.666504,4424.102539,,,,,,,,,,,,,,,,,,,,,,,,,,,,,,,,,,,,,,,,,,,,,,,,,,,,,,,,,,,,,,,,,,,,,,
1768973135.906525,1768973135.907287,26.0,0.0,4388.333496,4375.641113,4361.794922,4391.538574,4375.641113,4374.102539,4381.538574,4377.692383,4369.487305,4348.974121,4445.512695,4514.230957,4390.0,4422.820313,,,,,,,,,,,,,,,,,,,,,,,,,,,,,,,,,,,,,,,,,,,,,,,,,,,,,,,,,,,,,,,,,,,,,,
1768973135.914334,1768973135.915095,27.0,0.0,4391.922852,4375.256348,4358.974121,4389.358887,4372.94873,4377.307617,4380.641113,4378.846191,4373.205078,4351.538574,4447.179688,4514.230957,4387.436035,4425.384766,,,,,,,,,,,,,,,,,,,,,,,,,,,,,,,,,,,,,,,,,,,,,,,,,,,,,,,,,,,,,,,,,,,,,,
1768973135.922142,1768973135.923104,28.0,0.0,4389.871582,4375.641113,4358.974121,4388.589844,4372.820313,4380.256348,4380.384766,4376.282227,4373.461426,4350.769043,4454.358887,4518.717773,4388.717773,4428.974121,,,,,,,,,,,,,,,,,,,,,,,,,,,,,,,,,,,,,,,,,,,,,,,,,,,,,,,,,,,,,,,,,,,,,,
1768973135.929951,1768973135.930912,29.0,0.0,4390.256348,4375.128418,4359.871582,4387.179688,4374.230957,4375.0,4379.871582,4370.128418,4363.333496,4345.128418,4449.102539,4520.128418,4390.128418,4426.282227,,,,,,,,,,,,,,,,,,,,,,,,,,,,,,,,,,,,,,,,,,,,,,,,,,,,,,,,,,,,,,,,,,,,,,
1768973135.937759,1768973135.93882,30.0,0.0,4390.897461,4377.307617,4359.102539,4385.256348,4375.384766,4375.769043,4379.743652,4369.871582,4357.94873,4345.641113,4444.487305,4517.436035,4387.692383,4420.256348,1.100538,0.321757,0.172452,0.244831,0.09683,1.469937,0.196062,0.173268,0.136408,0.11207,0.721524,0.285584,0.223569,0.091364,0.039298,0.282571,0.134813,0.13313,0.092329,0.049809,0.08688,0.203472,0.137797,0.091514,0.054968,0.233569,0.510129,0.21388,0.205034,0.116259,0.370033,0.251377,0.209624,0.205571,0.141586,0.241484,0.153313,0.225163,0.14709,0.169967,0.200957,0.208341,0.490692,0.164159,0.13589,0.229857,0.256708,0.340065,0.158402,0.104718,0.336421,0.308942,0.327917,0.175021,0.155529,0.495342,0.58954,0.546415,0.262463,0.1218,0.727797,0.461723,0.36443,0.294675,0.1935,0.704983,0.680727,0.377097,0.243185,0.121559
1768973135.945568,1768973135.946629,31.0,0.0,4390.897461,4381.538574,4361.410156,4387.307617,4376.410156,4382.436035,4383.461426,4378.717773,4370.384766,4356.794922,4453.589844,4522.692383,4392.05127,4421.666504,,,,,,,,,,,,,,,,,,,,,,,,,,,,,,,,,,,,,,,,,,,,,,,,,,,,,,,,,,,,,,,,,,,,,,
1768973135.953376,1768973135.954238,32.0,0.0,4396.153809,4381.153809,4362.820313,4390.384766,4376.410156,4385.0,4388.461426,4386.025879,4381.410156,4359.871582,4461.282227,4529.615234,4397.436035,4430.0,,,,,,,,,,,,,,,,,,,,,,,,,,,,,,,,,,,,,,,,,,,,,,,,,,,,,,,,,,,,,,,,,,,,,,
1768973135.961185,1768973135.962046,33.0,0.0,4397.94873,4378.974121,4360.512695,4388.461426,4374.230957,4383.717773,4388.077148,4382.05127,4377.307617,4354.615234,4458.717773,4527.820313,4395.512695,4433.589844,,,,,,,,,,,,,,,,,,,,,,,,,,,,,,,,,,,,,,,,,,,,,,,,,,,,,,,,,,,,,,,,,,,,,,
1768973135.968993,1768973135.969755,34.0,0.0,4392.692383,4377.563965,4360.256348,4385.128418,4375.128418,4378.461426,4381.153809,4374.615234,4375.641113,4358.974121,4458.333496,4526.794922,4396.153809,4431.282227,,,,,,,,,,,,,,,,,,,,,,,,,,,,,,,,,,,,,,,,,,,,,,,,,,,,,,,,,,,,,,,,,,,,,,
1768973135.976802,1768973135.977563,35.0,0.0,4389.743652,4379.615234,4360.512695,4383.974121,4377.436035,4371.794922,4372.94873,4377.436035,4381.922852,4363.461426,4460.384766,4530.897461,4397.563965,4429.871582,,,,,,,,,,,,,,,,,,,,,,,,,,,,,,,,,,,,,,,,,,,,,,,,,,,,,,,,,,,,,,,,,,,,,,
1768973135.98461,1768973135.985571,36.0,0.0,4385.384766,4382.94873,4359.743652,4382.94873,4374.358887,4372.179688,4373.077148,4382.820313,4382.692383,4358.846191,4459.102539,4530.128418,4393.717773,4429.230957,,,,,,,,,,,,,,,,,,,,,,,,,,,,,,,,,,,,,,,,,,,,,,,,,,,,,,,,,,,,,,,,,,,,,,
1768973135.992418,1768973135.99338,37.0,0.0,4384.487305,4381.025879,4360.256348,4383.846191,4375.128418,4377.307617,4379.230957,4375.897461,4379.230957,4355.256348,4458.589844,4522.820313,4391.410156,4428.205078,,,,,,,,,,,,,,,,,,,,,,,,,,,,,,,,,,,,,,,,,,,,,,,,,,,,,,,,,,,,,,,,,,,,,,
1768973136.000227,1768973136.001288,38.0,0.0,4393.077148,4380.256348,4361.538574,4386.922852,4378.974121,4378.717773,4383.205078,4368.205078,4378.974121,4356.025879,4457.820313,4522.307617,4394.743652,4429.230957,,,,,,,,,,,,,,,,,,,,,,,,,,,,,,,,,,,,,,,,,,,,,,,,,,,,,,,,,,,,,,,,,,,,,,
1768973136.008035,1768973136.009096,39.0,0.0,4391.410156,4378.461426,4361.153809,4386.922852,4375.769043,4376.922852,4380.897461,4375.769043,4380.128418,4357.692383,4457.820313,4532.307617,4396.153809,4428.589844,,,,,,,,,,,,,,,,,,,,,,,,,,,,,,,,,,,,,,,,,,,,,,,,,,,,,,,,,,,,,,,,,,,,,,
1768973136.015844,1768973136.017105,40.0,0.0,4380.897461,4370.769043,4360.512695,4382.692383,4374.102539,4377.179688,4377.05127,4381.794922,4379.743652,4359.743652,4459.358887,4537.05127,4394.871582,4427.692383,,,,,,,,,,,,,,,,,,,,,,,,,,,,,,,,,,,,,,,,,,,,,,,,,,,,,,,,,,,,,,,,,,,,,,
1768973136.023652,1768973136.024913,41.0,0.0,4381.794922,4371.922852,4361.025879,4383.717773,4377.820313,4380.128418,4378.717773,4379.743652,4378.461426,4363.717773,4464.230957,4533.461426,4397.563965,4433.589844,,,,,,,,,,,,,,,,,,,,,,,,,,,,,,,,,,,,,,,,,,,,,,,,,,,,,,,,,,,,,,,,,,,,,,
1768973136.031461,1768973136.032821,42.0,0.0,4388.333496,4381.025879,4362.820313,4388.589844,4378.461426,4382.563965,4384.358887,4382.820313,4382.05127,4367.05127,4469.102539,4535.512695,4401.410156,4441.153809,,,,,,,,,,,,,,,,,,,,,,,,,,,,,,,,,,,,,,,,,,,,,,,,,,,,,,,,,,,,,,,,,,,,,,
1768973136.039269,1768973136.04063,43.0,0.0,4389.743652,4381.282227,4364.615234,4388.077148,4376.410156,4383.717773,4385.897461,4387.307617,4387.563965,4364.871582,4467.436035,4538.461426,4399.358887,4443.461426,,,,,,,,,,,,,,,,,,,,,,,,,,,,,,,,,,,,,,,,,,,,,,,,,,,,,,,,,,,,,,,,,,,,,,
1768973136.047078,1768973136.048538,44.0,0.0,4395.384766,4379.358887,4363.846191,4388.589844,4375.384766,4384.487305,4382.563965,4385.128418,4385.128418,4363.717773,4463.846191,4533.333496,4396.410156,4441.025879,,,,,,,,,,,,,,,,,,,,,,,,,,,,,,,,,,,,,,,,,,,,,,,,,,,,,,,,,,,,,,,,,,,,,,
1768973136.054886,1768973136.056347,45.0,0.0,4397.94873,4382.307617,4365.512695,4388.846191,4375.641113,4378.589844,4378.717773,4379.615234,4379.358887,4365.256348,4462.692383,4525.256348,4397.692383,4436.794922,,,,,,,,,,,,,,,,,,,,,,,,,,,,,,,,,,,,,,,,,,,,,,,,,,,,,,,,,,,,,,,,,,,,,,
1768973136.062694,1768973136.064055,46.0,0.0,4390.128418,4378.974121,4368.205078,4382.94873,4376.282227,4372.692383,4379.487305,4376.794922,4375.769043,4361.410156,4458.974121,4522.307617,4397.307617,4433.589844,0.903649,0.356651,0.200233,0.266125,0.103882,1.449106,0.247915,0.232844,0.130524,0.114381,0.838691,0.346764,0.206335,0.099439,0.038338,0.346906,0.198298,0.13844,0.101438,0.050797,0.128761,0.184797,0.127682,0.091223,0.053971,0.256903,0.49496,0.232707,0.169806,0.108102,0.460263,0.275256,0.231009,0.157643,0.140664,0.249728,0.172292,0.212067,0.133388,0.15617,0.21359,0.207805,0.428289,0.161681,0.123372,0.241195,0.22412,0.348421,0.160778,0.100491,0.425037,0.301034,0.297031,0.183003,0.177049,0.581002,0.56066,0.52664,0.276595,0.112252,0.873044,0.407572,0.368771,0.306771,0.183695,0.785463,0.701929,0.365037,0.273934,0.138353
1768973136.070503,1768973136.071864,47.0,0.0,4387.692383,4372.436035,4365.641113,4381.025879,4374.615234,4377.692383,4384.871582,4381.153809,4378.333496,4358.205078,4457.179688,4525.769043,4396.922852,4430.769043,,,,,,,,,,,,,,,,,,,,,,,,,,,,,,,,,,,,,,,,,,,,,,,,,,,,,,,,,,,,,,,,,,,,,,
1768973136.078311,1768973136.079472,48.0,0.0,4392.05127,4372.563965,4361.538574,4387.692383,4372.307617,4377.436035,4380.0,4382.820313,4385.0,4363.205078,4460.384766,4528.717773,4398.717773,4427.563965,,,,,,,,,,,,,,,,,,,,,,,,,,,,,,,,,,,,,,,,,,,,,,,,,,,,,,,,,,,,,,,,,,,,,,
1768973136.08612,1768973136.087281,49.0,0.0,4389.871582,4369.615234,4362.05127,4389.230957,4373.461426,4371.666504,4371.666504,4378.846191,4383.846191,4362.05127,4460.384766,4528.205078,4397.563965,4431.794922,,,,,,,,,,,,,,,,,,,,,,,,,,,,,,,,,,,,,,,,,,,,,,,,,,,,,,,,,,,,,,,,,,,,,,
1768973136.093928,1768973136.094989,50.0,0.0,4385.769043,4366.922852,4363.205078,4386.794922,4375.256348,4376.538574,4380.256348,4380.897461,4380.769043,4358.589844,4460.256348,4531.153809,4397.692383,4443.461426,,,,,,,,,,,,,,,,,,,,,,,,,,,,,,,,,,,,,,,,,,,,,,,,,,,,,,,,,,,,,,,,,,,,,,
1768973136.101737,1768973136.102798,51.0,0.0,4388.846191,4374.615234,4361.922852,4387.692383,4379.358887,4380.769043,4386.153809,4381.538574,4382.692383,4363.717773,4461.666504,4532.820313,4399.102539,4444.487305,,,,,,,,,,,,,,,,,,,,,,,,,,,,,,,,,,,,,,,,,,,,,,,,,,,,,,,,,,,,,,,,,,,,,,
1768973136.109545,1768973136.110406,52.0,0.0,4392.563965,4383.846191,4361.922852,4388.846191,4382.820313,4372.436035,4374.102539,4374.358887,4377.820313,4362.05127,4459.102539,4528.846191,4397.307617,4440.769043,,,,,,,,,,,,,,,,,,,,,,,,,,,,,,,,,,,,,,,,,,,,,,,,,,,,,,,,,,,,,,,,,,,,,,
1768973136.117354,1768973136.118215,53.0,0.0,4391.153809,4386.410156,4364.358887,4391.410156,4379.230957,4368.205078,4372.05127,4375.769043,4372.563965,4355.256348,4458.589844,4528.589844,4398.461426,4442.94873,,,,,,,,,,,,,,,,,,,,,,,,,,,,,,,,,,,,,,,,,,,,,,,,,,,,,,,,,,,,,,,,,,,,,,
1768973136.125162,1768973136.126123,54.0,0.0,4389.743652,4384.487305,4365.641113,4391.153809,4373.333496,4375.384766,4382.820313,4380.512695,4377.94873,4355.897461,4461.282227,4528.717773,4398.846191,4443.333496,,,,,,,,,,,,,,,,,,,,,,,,,,,,,,,,,,,,,,,,,,,,,,,,,,,,,,,,,,,,,,,,,,,,,,
1768973136.13297,1768973136.133932,55.0,0.0,4389.230957,4382.436035,4361.538574,4388.077148,4374.743652,4379.743652,4383.461426,4378.205078,4382.820313,4360.0,4461.666504,4530.128418,4397.436035,4442.307617,,,,,,,,,,,,,,,,,,,,,,,,,,,,,,,,,,,,,,,,,,,,,,,,,,,,,,,,,,,,,,,,,,,,,,
1768973136.140779,1768973136.14194,56.0,0.0,4384.102539,4379.743652,4359.230957,4387.820313,4379.487305,4380.0,4380.897461,4382.307617,4384.871582,4363.205078,4462.307617,4536.794922,4396.794922,4440.384766,,,,,,,,,,,,,,,,,,,,,,,,,,,,,,,,,,,,,,,,,,,,,,,,,,,,,,,,,,,,,,,,,,,,,,
1768973136.148587,1768973136.149748,57.0,0.0,4373.333496,4374.230957,4355.128418,4384.743652,4377.307617,4381.538574,4387.179688,4389.743652,4384.102539,4361.153809,4459.615234,4533.589844,4392.436035,4430.641113,,,,,,,,,,,,,,,,,,,,,,,,,,,,,,,,,,,,,,,,,,,,,,,,,,,,,,,,,,,,,,,,,,,,,,
1768973136.156396,1768973136.157457,58.0,0.0,4368.589844,4368.461426,4345.641113,4378.974121,4374.102539,4385.641113,4394.102539,4387.307617,4384.358887,4359.102539,4456.153809,4523.974121,4387.179688,4423.846191,,,,,,,,,,,,,,,,,,,,,,,,,,,,,,,,,,,,,,,,,,,,,,,,,,,,,,,,,,,,,,,,,,,,,,
1768973136.164204,1768973136.165265,59.0,0.0,4377.05127,4368.333496,4350.128418,4383.846191,4376.538574,4387.436035,4397.820313,4388.077148,4394.102539,4368.974121,4467.436035,4532.307617,4397.94873,4434.102539,,,,,,,,,,,,,,,,,,,,,,,,,,,,,,,,,,,,,,,,,,,,,,,,,,,,,,,,,,,,,,,,,,,,,,
1768973136.172013,1768973136.172874,60.0,0.0,4386.410156,4373.846191,4364.230957,4394.230957,4375.897461,4383.077148,4394.102539,4395.769043,4401.666504,4379.102539,4479.358887,4541.666504,4412.05127,4443.974121,,,,,,,,,,,,,,,,,,,,,,,,,,,,,,,,,,,,,,,,,,,,,,,,,,,,,,,,,,,,,,,,,,,,,,
1768973136.179821,1768973136.180682,61.0,0.0,4385.512695,4378.846191,4362.820313,4394.230957,4371.282227,4375.769043,4380.256348,4394.743652,4395.256348,4374.615234,4475.641113,4530.512695,4409.230957,4441.025879,,,,,,,,,,,,,,,,,,,,,,,,,,,,,,,,,,,,,,,,,,,,,,,,,,,,,,,,,,,,,,,,,,,,,,
1768973136.18763,1768973136.188391,62.0,0.0,4385.128418,4383.846191,4358.205078,4389.743652,4372.820313,4369.487305,4373.846191,4386.666504,4387.436035,4367.94873,4472.692383,4525.256348,4401.282227,4441.282227,0.794003,0.414368,0.223659,0.284324,0.11316,1.41781,0.317584,0.303521,0.129568,0.119976,0.928983,0.415208,0.187226,0.112238,0.038963,0.434822,0.264589,0.135007,0.112523,0.052279,0.189612,0.160136,0.112555,0.087378,0.054231,0.277896,0.503411,0.241537,0.141865,0.112723,0.540119,0.321696,0.260941,0.132339,0.148324,0.254442,0.203621,0.200767,0.125634,0.146263,0.22141,0.213985,0.362252,0.158291,0.117645,0.286837,0.183061,0.347151,0.158467,0.099132,0.528788,0.274241,0.253309,0.187975,0.199069,0.685565,0.527907,0.495828,0.275261,0.109483,1.034128,0.337286,0.354725,0.307411,0.179633,0.879279,0.685327,0.335591,0.293925,0.166774
1768973136.195438,1768973136.196199,63.0,0.0,4392.307617,4387.436035,4364.871582,4390.512695,4380.0,4371.666504,4380.256348,4379.871582,4383.846191,4370.384766,4472.563965,4533.717773,4401.282227,4442.179688,,,,,,,,,,,,,,,,,,,,,,,,,,,,,,,,,,,,,,,,,,,,,,,,,,,,,,,,,,,,,,,,,,,,,,
1768973136.203246,1768973136.204208,64.0,0.0,4390.0,4384.358887,4361.025879,4388.974121,4379.102539,4381.410156,4384.230957,4378.717773,4382.179688,4366.538574,4463.717773,4529.230957,4396.922852,4431.410156,,,,,,,,,,,,,,,,,,,,,,,,,,,,,,,,,,,,,,,,,,,,,,,,,,,,,,,,,,,,,,,,,,,,,,
1768973136.211055,1768973136.212016,65.0,0.0,4377.94873,4379.230957,4351.025879,4382.05127,4375.641113,4381.282227,4382.692383,4383.077148,4382.692383,4352.820313,4457.94873,4517.179688,4389.871582,4422.94873,,,,,,,,,,,,,,,,,,,,,,,,,,,,,,,,,,,,,,,,,,,,,,,,,,,,,,,,,,,,,,,,,,,,,,
1768973136.218863,1768973136.219924,66.0,0.0,4376.153809,4380.512695,4356.538574,4381.922852,4378.077148,4373.717773,4382.94873,4382.179688,4381.282227,4352.179688,4461.666504,4516.922852,4394.230957,4427.563965,,,,,,,,,,,,,,,,,,,,,,,,,,,,,,,,,,,,,,,,,,,,,,,,,,,,,,,,,,,,,,,,,,,,,,
1768973136.226672,1768973136.227733,67.0,0.0,4383.333496,4384.615234,4360.256348,4388.717773,4378.717773,4371.922852,4379.230957,4376.282227,4378.205078,4364.230957,4460.897461,4517.820313,4395.897461,4430.256348,,,,,,,,,,,,,,,,,,,,,,,,,,,,,,,,,,,,,,,,,,,,,,,,,,,,,,,,,,,,,,,,,,,,,,
1768973136.23448,1768973136.235641,68.0,0.0,4384.358887,4382.692383,4352.692383,4389.230957,4372.563965,4371.922852,4372.692383,4374.615234,4376.922852,4363.974121,4456.794922,4511.666504,4387.179688,4426.282227,,,,,,,,,,,,,,,,,,,,,,,,,,,,,,,,,,,,,,,,,,,,,,,,,,,,,,,,,,,,,,,,,,,,,,
1768973136.242289,1768973136.24345,69.0,0.0,4377.563965,4375.769043,4350.256348,4382.820313,4371.410156,4372.179688,4376.153809,4380.512695,4377.94873,4351.538574,4456.025879,4511.153809,4383.205078,4423.205078,,,,,,,,,,,,,,,,,,,,,,,,,,,,,,,,,,,,,,,,,,,,,,,,,,,,,,,,,,,,,,,,,,,,,,
1768973136.250097,1768973136.251158,70.0,0.0,4372.820313,4373.846191,4351.410156,4380.512695,4376.410156,4374.230957,4380.384766,4381.794922,4376.666504,4352.179688,4458.589844,4515.0,4388.461426,4425.128418,,,,,,,,,,,,,,,,,,,,,,,,,,,,,,,,,,,,,,,,,,,,,,,,,,,,,,,,,,,,,,,,,,,,,,
1768973136.257906,1768973136.258967,71.0,0.0,4375.0,4379.871582,4351.666504,4387.307617,4375.769043,4373.205078,4375.256348,4374.487305,4368.717773,4361.922852,4459.615234,4516.410156,4394.230957,4431.153809,,,,,,,,,,,,,,,,,,,,,,,,,,,,,,,,,,,,,,,,,,,,,,,,,,,,,,,,,,,,,,,,,,,,,,
1768973136.265714,1768973136.266575,72.0,0.0,4381.025879,4385.641113,4359.358887,4392.692383,4372.692383,4372.05127,4373.333496,4373.717773,4365.769043,4360.769043,4459.230957,4520.384766,4396.025879,4431.410156,,,,,,,,,,,,,,,,,,,,,,,,,,,,,,,,,,,,,,,,,,,,,,,,,,,,,,,,,,,,,,,,,,,,,,
1768973136.273522,1768973136.274384,73.0,0.0,4381.538574,4380.769043,4362.436035,4389.487305,4376.025879,4377.692383,4380.512695,4381.282227,4372.94873,4354.358887,4458.205078,4520.641113,4390.769043,4426.025879,,,,,,,,,,,,,,,,,,,,,,,,,,,,,,,,,,,,,,,,,,,,,,,,,,,,,,,,,,,,,,,,,,,,,,
1768973136.281331,1768973136.282092,74.0,0.0,4379.487305,4373.077148,4357.692383,4386.666504,4379.230957,4382.05127,4385.384766,4385.512695,4377.05127,4351.794922,4457.05127,4519.743652,4383.717773,4427.179688,,,,,,,,,,,,,,,,,,,,,,,,,,,,,,,,,,,,,,,,,,,,,,,,,,,,,,,,,,,,,,,,,,,,,,
1768973136.289139,1768973136.289901,75.0,0.0,4382.94873,4373.846191,4357.307617,4389.230957,4375.256348,4377.436035,4382.563965,4385.384766,4376.538574,4354.358887,4459.615234,4525.384766,4390.512695,4430.256348,,,,,,,,,,,,,,,,,,,,,,,,,,,,,,,,,,,,,,,,,,,,,,,,,,,,,,,,,,,,,,,,,,,,,,
1768973136.296948,1768973136.297509,76.0,0.0,4382.307617,4374.102539,4356.666504,4386.538574,4371.538574,4371.538574,4376.153809,4382.94873,4373.461426,4352.563965,4456.922852,4521.410156,4393.717773,4422.692383,,,,,,,,,,,,,,,,,,,,,,,,,,,,,,,,,,,,,,,,,,,,,,,,,,,,,,,,,,,,,,,,,,,,,,
1768973136.304756,1768973136.305318,77.0,0.0,4374.743652,4367.179688,4354.102539,4381.410156,4374.615234,4372.692383,4377.820313,4378.333496,4367.179688,4346.538574,4449.230957,4512.692383,4382.563965,4417.179688,,,,,,,,,,,,,,,,,,,,,,,,,,,,,,,,,,,,,,,,,,,,,,,,,,,,,,,,,,,,,,,,,,,,,,
1768973136.312564,1768973136.313026,78.0,0.0,4371.922852,4367.05127,4355.0,4380.512695,4375.0,4377.563965,4383.205078,4379.487305,4368.589844,4346.410156,4451.282227,4517.179688,4379.487305,4423.974121,0.801593,0.466474,0.237427,0.292023,0.12179,1.377122,0.381762,0.369228,0.131412,0.125507,0.9603,0.467237,0.17254,0.124125,0.040041,0.531006,0.313973,0.123089,0.122732,0.052584,0.256221,0.135143,0.097475,0.081267,0.054609,0.29408,0.538169,0.235357,0.124892,0.123508,0.589181,0.383783,0.288048,0.130608,0.160133,0.252042,0.240975,0.194593,0.121993,0.142358,0.222767,0.22684,0.307237,0.15081,0.116672,0.343428,0.147589,0.342852,0.152187,0.098537,0.625795,0.231717,0.209594,0.186345,0.211063,0.767049,0.489297,0.469596,0.259014,0.108155,1.13582,0.262993,0.328606,0.294623,0.176132,0.944769,0.622805,0.307535,0.295587,0.19373
1768973136.320373,1768973136.320835,79.0,0.0,4378.589844,4377.692383,4357.692383,4382.05127,4372.692383,4378.717773,4378.461426,4385.0,4376.666504,4353.717773,4460.384766,4523.717773,4390.512695,4429.487305,,,,,,,,,,,,,,,,,,,,,,,,,,,,,,,,,,,,,,,,,,,,,,,,,,,,,,,,,,,,,,,,,,,,,,
1768973136.328181,1768973136.328843,80.0,0.0,4380.897461,4380.641113,4358.205078,4382.820313,4373.461426,4376.410156,4372.307617,4386.666504,4374.230957,4357.563965,4457.563965,4518.205078,4391.922852,4427.179688,,,,,,,,,,,,,,,,,,,,,,,,,,,,,,,,,,,,,,,,,,,,,,,,,,,,,,,,,,,,,,,,,,,,,,
1768973136.33599,1768973136.336652,81.0,0.0,4374.230957,4372.179688,4355.256348,4379.487305,4373.205078,4373.589844,4372.307617,4381.410156,4364.743652,4349.615234,4447.05127,4514.743652,4385.128418,4426.922852,,,,,,,,,,,,,,,,,,,,,,,,,,,,,,,,,,,,,,,,,,,,,,,,,,,,,,,,,,,,,,,,,,,,,,
1768973136.343798,1768973136.34456,82.0,0.0,4371.025879,4366.025879,4350.897461,4376.794922,4370.769043,4372.563965,4369.487305,4374.102539,4363.589844,4343.974121,4444.358887,4514.230957,4388.205078,4428.589844,,,,,,,,,,,,,,,,,,,,,,,,,,,,,,,,,,,,,,,,,,,,,,,,,,,,,,,,,,,,,,,,,,,,,,
1768973136.351607,1768973136.352368,83.0,0.0,4373.205078,4366.794922,4350.641113,4382.692383,4372.179688,4375.256348,4369.487305,4373.717773,4365.897461,4345.384766,4445.641113,4506.538574,4389.871582,4422.692383,,,,,,,,,,,,,,,,,,,,,,,,,,,,,,,,,,,,,,,,,,,,,,,,,,,,,,,,,,,,,,,,,,,,,,
1768973136.359415,1768973136.359977,84.0,0.0,4375.897461,4368.333496,4354.102539,4386.025879,4372.436035,4377.820313,4375.384766,4375.897461,4361.538574,4342.05127,4442.692383,4501.025879,4383.205078,4417.179688,,,,,,,,,,,,,,,,,,,,,,,,,,,,,,,,,,,,,,,,,,,,,,,,,,,,,,,,,,,,,,,,,,,,,,
1768973136.367224,1768973136.367786,85.0,0.0,4378.589844,4367.820313,4352.94873,4380.897461,4368.333496,4375.897461,4373.333496,4377.307617,4360.769043,4340.641113,4440.0,4507.307617,4383.077148,4423.205078,,,,,,,,,,,,,,,,,,,,,,,,,,,,,,,,,,,,,,,,,,,,,,,,,,,,,,,,,,,,,,,,,,,,,,
1768973136.375032,1768973136.375494,86.0,0.0,4382.05127,4369.358887,4351.153809,4383.974121,4368.717773,4375.897461,4372.692383,4379.871582,4367.94873,4348.333496,4451.153809,4519.230957,4393.333496,4429.871582,,,,,,,,,,,,,,,,,,,,,,,,,,,,,,,,,,,,,,,,,,,,,,,,,,,,,,,,,,,,,,,,,,,,,,
1768973136.382841,1768973136.383302,87.0,0.0,4382.05127,4371.282227,4353.846191,4392.94873,4372.436035,4382.563965,4381.282227,4378.333496,4369.487305,4351.282227,4459.871582,4521.794922,4395.512695,4425.0,,,,,,,,,,,,,,,,,,,,,,,,,,,,,,,,,,,,,,,,,,,,,,,,,,,,,,,,,,,,,,,,,,,,,,
1768973136.390649,1768973136.391311,88.0,0.0,4381.922852,4371.538574,4352.563965,4391.153809,4375.641113,4383.717773,4380.769043,4375.0,4363.333496,4347.05127,4449.487305,4513.461426,4388.205078,4424.487305,,,,,,,,,,,,,,,,,,,,,,,,,,,,,,,,,,,,,,,,,,,,,,,,,,,,,,,,,,,,,,,,,,,,,,
1768973136.398457,1768973136.399119,89.0,0.0,4383.846191,4371.922852,4348.974121,4384.615234,4376.282227,4380.384766,4372.05127,4379.358887,4365.769043,4346.922852,4445.384766,4508.333496,4388.205078,4430.256348,,,,,,,,,,,,,,,,,,,,,,,,,,,,,,,,,,,,,,,,,,,,,,,,,,,,,,,,,,,,,,,,,,,,,,
1768973136.406266,1768973136.407028,90.0,0.0,4384.102539,4372.179688,4355.0,4386.922852,4374.358887,4383.333496,4375.769043,4384.487305,4376.025879,4350.512695,4457.820313,4516.282227,4396.666504,4429.358887,,,,,,,,,,,,,,,,,,,,,,,,,,,,,,,,,,,,,,,,,,,,,,,,,,,,,,,,,,,,,,,,,,,,,,
1768973136.414074,1768973136.414836,91.0,0.0,4383.846191,4372.05127,4358.333496,4390.0,4376.153809,4384.743652,4385.0,4383.333496,4376.410156,4353.846191,4463.974121,4524.230957,4404.615234,4432.179688,,,,,,,,,,,,,,,,,,,,,,,,,,,,,,,,,,,,,,,,,,,,,,,,,,,,,,,,,,,,,,,,,,,,,,
1768973136.421883,1768973136.422844,92.0,0.0,4383.205078,4371.794922,4352.436035,4388.077148,4377.692383,4377.94873,4380.897461,4381.922852,4373.333496,4355.641113,4461.794922,4524.615234,4409.358887,4443.974121,,,,,,,,,,,,,,,,,,,,,,,,,,,,,,,,,,,,,,,,,,,,,,,,,,,,,,,,,,,,,,,,,,,,,,
1768973136.429691,1768973136.430653,93.0,0.0,4385.256348,4371.025879,4356.153809,4386.922852,4373.205078,4372.436035,4376.153809,4381.666504,4375.512695,4355.256348,4463.589844,4524.615234,4412.307617,4447.820313,,,,,,,,,,,,,,,,,,,,,,,,,,,,,,,,,,,,,,,,,,,,,,,,,,,,,,,,,,,,,,,,,,,,,,
1768973136.4375,1768973136.438361,94.0,0.0,4389.743652,4368.717773,4364.615234,4387.94873,4371.922852,4372.820313,4382.307617,4381.410156,4375.641113,4352.692383,4463.589844,4524.102539,4406.794922,4439.615234,0.869866,0.486904,0.24123,0.287461,0.127098,1.289898,0.422024,0.422979,0.133269,0.127948,0.920678,0.483166,0.1652,0.130034,0.041694,0.595283,0.331724,0.106038,0.1294,0.051104,0.308884,0.113691,0.086004,0.074554,0.0543,0.306824,0.583727,0.217149,0.120252,0.132702,0.601382,0.447034,0.302575,0.146336,0.170117,0.248084,0.27745,0.195812,0.118932,0.144678,0.231842,0.242937,0.269943,0.139456,0.118035,0.396211,0.129264,0.340211,0.142885,0.09846,0.707298,0.184976,0.179302,0.176847,0.207392,0.805411,0.444944,0.452548,0.232656,0.106997,1.136118,0.197352,0.297091,0.270556,0.168672,0.941709,0.518894,0.30261,0.277719,0.206999
1768973136.445308,1768973136.44617,95.0,0.0,4390.0,4369.358887,4361.153809,4390.128418,4375.641113,4371.410156,4380.384766,4380.769043,4372.563965,4346.282227,4459.102539,4521.922852,4397.307617,4435.512695,,,,,,,,,,,,,,,,,,,,,,,,,,,,,,,,,,,,,,,,,,,,,,,,,,,,,,,,,,,,,,,,,,,,,,
1768973136.453117,1768973136.454178,96.0,0.0,4384.358887,4372.563965,4355.128418,4389.871582,4374.487305,4370.641113,4370.384766,4376.282227,4370.256348,4340.897461,4457.05127,4520.256348,4399.487305,4440.384766,,,,,,,,,,,,,,,,,,,,,,,,,,,,,,,,,,,,,,,,,,,,,,,,,,,,,,,,,,,,,,,,,,,,,,
1768973136.460925,1768973136.461986,97.0,0.0,4383.205078,4370.512695,4355.769043,4386.666504,4371.922852,4378.717773,4376.282227,4379.358887,4375.512695,4350.128418,4465.384766,4524.102539,4410.769043,4446.282227,,,,,,,,,,,,,,,,,,,,,,,,,,,,,,,,,,,,,,,,,,,,,,,,,,,,,,,,,,,,,,,,,,,,,,
1768973136.468733,1768973136.469695,98.0,0.0,4390.769043,4366.538574,4360.512695,4384.487305,4373.461426,4381.538574,4383.589844,4388.717773,4382.436035,4361.794922,4473.846191,4533.717773,4415.641113,4446.410156,,,,,,,,,,,,,,,,,,,,,,,,,,,,,,,,,,,,,,,,,,,,,,,,,,,,,,,,,,,,,,,,,,,,,,
1768973136.476542,1768973136.477503,99.0,0.0,4399.358887,4372.820313,4365.0,4389.871582,4373.974121,4376.538574,4374.615234,4383.205078,4377.307617,4359.743652,4469.102539,4537.179688,4412.307617,4443.333496,,,,,,,,,,,,,,,,,,,,,,,,,,,,,,,,,,,,,,,,,,,,,,,,,,,,,,,,,,,,,,,,,,,,,,
1768973136.48435,1768973136.485112,100.0,0.0,4396.666504,4381.538574,4363.205078,4394.743652,4374.358887,4378.205078,4371.666504,4372.179688,4366.794922,4356.282227,4460.897461,4530.128418,4411.153809,4444.487305,,,,,,,,,,,,,,,,,,,,,,,,,,,,,,,,,,,,,,,,,,,,,,,,,,,,,,,,,,,,,,,,,,,,,,
1768973136.492159,1768973136.49292,101.0,0.0,4388.333496,4376.538574,4360.0,4391.410156,4378.333496,4385.128418,4381.025879,4374.358887,4369.615234,4357.692383,4461.538574,4527.05127,4412.692383,4445.897461,,,,,,,,,,,,,,,,,,,,,,,,,,,,,,,,,,,,,,,,,,,,,,,,,,,,,,,,,,,,,,,,,,,,,,
1768973136.499967,1768973136.500629,102.0,0.0,4390.384766,4370.512695,4361.410156,4385.384766,4377.563965,4381.282227,4380.0,4373.974121,4374.615234,4356.794922,4463.846191,4530.0,4411.538574,4444.743652,,,,,,,,,,,,,,,,,,,,,,,,,,,,,,,,,,,,,,,,,,,,,,,,,,,,,,,,,,,,,,,,,,,,,,
1768973136.507776,1768973136.508437,103.0,0.0,4395.512695,4377.436035,4362.436035,4386.153809,4372.94873,4371.666504,4367.820313,4367.179688,4371.794922,4356.666504,4462.05127,4528.717773,4408.974121,4444.102539,,,,,,,,,,,,,,,,,,,,,,,,,,,,,,,,,,,,,,,,,,,,,,,,,,,,,,,,,,,,,,,,,,,,,,
1768973136.515584,1768973136.516046,104.0,0.0,4394.743652,4387.820313,4363.077148,4394.743652,4377.692383,4374.615234,4369.102539,4371.538574,4374.487305,4356.538574,4460.769043,4521.794922,4405.512695,4445.0,,,,,,,,,,,,,,,,,,,,,,,,,,,,,,,,,,,,,,,,,,,,,,,,,,,,,,,,,,,,,,,,,,,,,,
1768973136.523393,1768973136.523855,105.0,0.0,4394.615234,4385.769043,4365.512695,4397.179688,4382.563965,4380.128418,4378.846191,4376.538574,4376.282227,4350.897461,4457.563965,4513.974121,4403.077148,4441.282227,,,,,,,,,,,,,,,,,,,,,,,,,,,,,,,,,,,,,,,,,,,,,,,,,,,,,,,,,,,,,,,,,,,,,,
1768973136.531201,1768973136.531763,106.0,0.0,4397.436035,4377.307617,4366.153809,4393.077148,4375.897461,4376.794922,4377.436035,4371.410156,4372.05127,4352.307617,4461.538574,4517.307617,4406.025879,4443.974121,,,,,,,,,,,,,,,,,,,,,,,,,,,,,,,,,,,,,,,,,,,,,,,,,,,,,,,,,,,,,,,,,,,,,,
1768973136.539009,1768973136.539571,107.0,0.0,4398.589844,4375.128418,4364.358887,4393.205078,4374.230957,4374.743652,4374.487305,4371.153809,4373.846191,4362.307617,4475.384766,4532.436035,4414.487305,4458.589844,,,,,,,,,,,,,,,,,,,,,,,,,,,,,,,,,,,,,,,,,,,,,,,,,,,,,,,,,,,,,,,,,,,,,,
1768973136.546818,1768973136.54758,108.0,0.0,4395.641113,4374.230957,4365.0,4396.282227,4380.512695,4381.410156,4382.820313,4378.461426,4379.358887,4362.179688,4475.512695,4535.256348,4416.025879,4456.794922,,,,,,,,,,,,,,,,,,,,,,,,,,,,,,,,,,,,,,,,,,,,,,,,,,,,,,,,,,,,,,,,,,,,,,
1768973136.554626,1768973136.555388,109.0,0.0,4391.922852,4371.666504,4366.538574,4393.077148,4380.256348,4382.94873,4386.410156,4379.358887,4375.512695,4355.256348,4461.538574,4520.256348,4407.692383,4437.692383,,,,,,,,,,,,,,,,,,,,,,,,,,,,,,,,,,,,,,,,,,,,,,,,,,,,,,,,,,,,,,,,,,,,,,
1768973136.562435,1768973136.563097,110.0,0.0,4388.589844,4370.769043,4364.102539,4389.871582,4376.922852,4375.128418,4379.102539,4376.153809,4371.025879,4356.025879,4457.436035,4518.333496,4404.871582,4433.974121,0.927752,0.471772,0.240547,0.273783,0.12773,1.127282,0.432308,0.470532,0.13326,0.126083,0.816575,0.455991,0.165009,0.128281,0.044298,0.602944,0.3158,0.090073,0.131444,0.048732,0.33001,0.097532,0.079563,0.068827,0.053218,0.315525,0.617218,0.198155,0.126828,0.135443,0.586535,0.497209,0.303257,0.170696,0.174381,0.255894,0.310117,0.204854,0.115381,0.151138,0.269188,0.260442,0.250414,0.129366,0.120111,0.438876,0.134577,0.342625,0.130925,0.100868,0.770976,0.153101,0.17318,0.160834,0.188492,0.799799,0.397182,0.439366,0.203245,0.107505,1.036074,0.154311,0.268213,0.240292,0.15588,0.857749,0.397506,0.340149,0.245694,0.200509
1768973136.570243,1768973136.570905,111.0,0.0,4384.487305,4369.230957,4357.94873,4389.230957,4377.820313,4371.410156,4373.589844,4379.358887,4375.256348,4358.461426,4463.461426,4526.410156,4410.384766,4444.743652,,,,,,,,,,,,,,,,,,,,,,,,,,,,,,,,,,,,,,,,,,,,,,,,,,,,,,,,,,,,,,,,,,,,,,
1768973136.578052,1768973136.578514,112.0,0.0,4385.0,4368.461426,4357.307617,4385.384766,4378.077148,4374.102539,4371.794922,4379.230957,4379.102539,4358.717773,4462.05127,4526.153809,4410.128418,4446.794922,,,,,,,,,,,,,,,,,,,,,,,,,,,,,,,,,,,,,,,,,,,,,,,,,,,,,,,,,,,,,,,,,,,,,,
1768973136.58586,1768973136.586322,113.0,0.0,4391.922852,4373.205078,4363.077148,4385.384766,4378.974121,4380.897461,4377.307617,4378.717773,4380.641113,4361.153809,4459.230957,4524.230957,4406.410156,4442.436035,,,,,,,,,,,,,,,,,,,,,,,,,,,,,,,,,,,,,,,,,,,,,,,,,,,,,,,,,,,,,,,,,,,,,,
1768973136.593669,1768973136.59423,114.0,0.0,4392.307617,4373.846191,4365.128418,4388.589844,4377.820313,4383.846191,4383.461426,4385.0,4381.153809,4356.282227,4461.282227,4523.846191,4403.461426,4441.538574,,,,,,,,,,,,,,,,,,,,,,,,,,,,,,,,,,,,,,,,,,,,,,,,,,,,,,,,,,,,,,,,,,,,,,
1768973136.601477,1768973136.602039,115.0,0.0,4386.666504,4371.153809,4362.179688,4386.538574,4374.358887,4378.846191,4376.282227,4380.769043,4375.769043,4352.05127,4461.025879,4520.384766,4402.94873,4442.436035,,,,,,,,,,,,,,,,,,,,,,,,,,,,,,,,,,,,,,,,,,,,,,,,,,,,,,,,,,,,,,,,,,,,,,
1768973136.609285,1768973136.610047,116.0,0.0,4389.615234,4380.0,4362.820313,4386.410156,4377.563965,4377.563965,4373.717773,4373.205078,4371.282227,4358.333496,4460.897461,4523.974121,4410.256348,4445.769043,,,,,,,,,,,,,,,,,,,,,,,,,,,,,,,,,,,,,,,,,,,,,,,,,,,,,,,,,,,,,,,,,,,,,,
1768973136.617094,1768973136.617856,117.0,0.0,4393.461426,4383.205078,4363.333496,4390.897461,4381.538574,4382.563965,4382.05127,4377.94873,4377.436035,4360.512695,4461.922852,4526.666504,4411.538574,4446.282227,,,,,,,,,,,,,,,,,,,,,,,,,,,,,,,,,,,,,,,,,,,,,,,,,,,,,,,,,,,,,,,,,,,,,,
1768973136.624902,1768973136.625564,118.0,0.0,4390.512695,4375.128418,4360.641113,4389.615234,4381.410156,4382.94873,4382.179688,4382.05127,4382.563965,4355.769043,4460.641113,4516.410156,4402.05127,4441.922852,,,,,,,,,,,,,,,,,,,,,,,,,,,,,,,,,,,,,,,,,,,,,,,,,,,,,,,,,,,,,,,,,,,,,,
1768973136.632711,1768973136.633373,119.0,0.0,4387.820313,4375.384766,4362.563965,4387.94873,4379.871582,4380.256348,4380.0,4382.692383,4380.769043,4359.743652,4459.487305,4513.077148,4402.692383,4440.769043,,,,,,,,,,,,,,,,,,,,,,,,,,,,,,,,,,,,,,,,,,,,,,,,,,,,,,,,,,,,,,,,,,,,,,
1768973136.640519,1768973136.641381,120.0,0.0,4384.871582,4379.102539,4364.358887,4387.820313,4379.871582,4379.871582,4383.717773,4389.743652,4382.179688,4362.179688,4461.025879,4523.846191,4411.410156,4443.205078,,,,,,,,,,,,,,,,,,,,,,,,,,,,,,,,,,,,,,,,,,,,,,,,,,,,,,,,,,,,,,,,,,,,,,
1768973136.648328,1768973136.649189,121.0,0.0,4382.692383,4375.128418,4358.205078,4380.897461,4381.410156,4380.641113,4384.102539,4389.230957,4381.538574,4352.179688,4461.922852,4528.077148,4407.05127,4444.743652,,,,,,,,,,,,,,,,,,,,,,,,,,,,,,,,,,,,,,,,,,,,,,,,,,,,,,,,,,,,,,,,,,,,,,
1768973136.656136,1768973136.657098,122.0,0.0,4382.94873,4372.436035,4354.102539,4376.410156,4379.743652,4383.461426,4382.05127,4379.487305,4373.461426,4350.641113,4455.769043,4522.307617,4397.179688,4439.615234,,,,,,,,,,,,,,,,,,,,,,,,,,,,,,,,,,,,,,,,,,,,,,,,,,,,,,,,,,,,,,,,,,,,,,
1768973136.663945,1768973136.664906,123.0,0.0,4380.256348,4375.0,4358.333496,4380.512695,4377.820313,4385.0,4383.717773,4381.538574,4370.769043,4358.205078,4451.666504,4523.717773,4397.436035,4433.077148,,,,,,,,,,,,,,,,,,,,,,,,,,,,,,,,,,,,,,,,,,,,,,,,,,,,,,,,,,,,,,,,,,,,,,
1768973136.671753,1768973136.672515,124.0,0.0,4373.205078,4374.102539,4356.153809,4380.512695,4376.666504,4381.282227,4378.846191,4385.769043,4377.436035,4356.922852,4451.922852,4527.05127,4398.717773,4429.230957,,,,,,,,,,,,,,,,,,,,,,,,,,,,,,,,,,,,,,,,,,,,,,,,,,,,,,,,,,,,,,,,,,,,,,
1768973136.679562,1768973136.680323,125.0,0.0,4369.615234,4371.282227,4349.102539,4378.589844,4375.256348,4378.974121,4371.282227,4380.897461,4378.333496,4353.205078,4452.436035,4520.897461,4399.487305,4431.153809,,,,,,,,,,,,,,,,,,,,,,,,,,,,,,,,,,,,,,,,,,,,,,,,,,,,,,,,,,,,,,,,,,,,,,
1768973136.68737,1768973136.688032,126.0,0.0,4376.282227,4368.205078,4351.025879,4381.410156,4373.717773,4378.717773,4374.358887,4379.871582,4377.94873,4357.436035,4457.05127,4521.922852,4403.974121,4441.282227,0.914297,0.43148,0.243073,0.256128,0.124588,0.902083,0.416178,0.522487,0.130523,0.120364,0.67351,0.394385,0.170079,0.121109,0.048277,0.539546,0.277649,0.080855,0.129047,0.047501,0.312385,0.086068,0.076965,0.064612,0.051772,0.314723,0.620498,0.189528,0.140221,0.13105,0.5613,0.524232,0.293944,0.193881,0.173229,0.288109,0.337448,0.218636,0.11213,0.158057,0.347016,0.279229,0.243421,0.126767,0.122049,0.471698,0.16288,0.352357,0.118725,0.107845,0.818227,0.151458,0.193485,0.142713,0.160864,0.77849,0.350735,0.418655,0.179462,0.111473,0.87196,0.137955,0.251319,0.212604,0.140395,0.711307,0.286669,0.426488,0.209441,0.17738
1768973136.695178,1768973136.69584,127.0,0.0,4384.615234,4367.436035,4356.025879,4382.692383,4376.922852,4377.820313,4381.025879,4385.128418,4382.179688,4361.538574,4457.563965,4526.410156,4405.769043,4441.794922,,,,,,,,,,,,,,,,,,,,,,,,,,,,,,,,,,,,,,,,,,,,,,,,,,,,,,,,,,,,,,,,,,,,,,
1768973136.702987,1768973136.703449,0.0,0.0,4388.205078,4371.922852,4356.666504,4382.307617,4380.256348,4378.205078,4381.282227,4388.077148,4378.205078,4355.897461,4451.025879,4519.487305,4399.615234,4430.0,,,,,,,,,,,,,,,,,,,,,,,,,,,,,,,,,,,,,,,,,,,,,,,,,,,,,,,,,,,,,,,,,,,,,,
1768973136.710795,1768973136.711257,1.0,0.0,4387.563965,4373.077148,4357.05127,4385.128418,4380.769043,4382.179688,4379.871582,4385.512695,4371.794922,4348.717773,4451.922852,4515.512695,4396.282227,4428.461426,,,,,,,,,,,,,,,,,,,,,,,,,,,,,,,,,,,,,,,,,,,,,,,,,,,,,,,,,,,,,,,,,,,,,,
1768973136.718604,1768973136.718966,2.0,0.0,4382.436035,4370.641113,4358.461426,4388.846191,4382.692383,4383.333496,4382.436035,4385.384766,4376.025879,4354.102539,4460.256348,4525.512695,4406.666504,4441.538574,,,,,,,,,,,,,,,,,,,,,,,,,,,,,,,,,,,,,,,,,,,,,,,,,,,,,,,,,,,,,,,,,,,,,,
1768973136.726412,1768973136.726774,3.0,0.0,4380.512695,4374.102539,4360.384766,4390.769043,4382.179688,4377.94873,4383.333496,4388.077148,4381.153809,4362.692383,4460.256348,4527.563965,4415.256348,4447.179688,,,,,,,,,,,,,,,,,,,,,,,,,,,,,,,,,,,,,,,,,,,,,,,,,,,,,,,,,,,,,,,,,,,,,,
1768973136.734221,1768973136.734783,4.0,0.0,4386.538574,4380.897461,4363.333496,4390.0,4381.025879,4377.307617,4382.820313,4385.0,4373.461426,4357.05127,4456.153809,4515.512695,4412.307617,4437.563965,,,,,,,,,,,,,,,,,,,,,,,,,,,,,,,,,,,,,,,,,,,,,,,,,,,,,,,,,,,,,,,,,,,,,,
1768973136.742029,1768973136.742591,5.0,0.0,4391.538574,4381.025879,4361.538574,4387.307617,4380.384766,4379.102539,4383.205078,4376.922852,4366.282227,4349.615234,4458.846191,4516.922852,4409.615234,4433.846191,,,,,,,,,,,,,,,,,,,,,,,,,,,,,,,,,,,,,,,,,,,,,,,,,,,,,,,,,,,,,,,,,,,,,,
1768973136.749838,1768973136.750499,6.0,0.0,4389.871582,4378.589844,4357.307617,4387.307617,4376.153809,4375.128418,4379.871582,4374.743652,4368.205078,4351.794922,4461.153809,4532.94873,4411.410156,4442.436035,,,,,,,,,,,,,,,,,,,,,,,,,,,,,,,,,,,,,,,,,,,,,,,,,,,,,,,,,,,,,,,,,,,,,,
1768973136.757646,1768973136.758308,7.0,0.0,4387.307617,4380.384766,4357.692383,4390.641113,4375.897461,4373.846191,4379.615234,4382.307617,4374.615234,4355.641113,4461.666504,4539.230957,4413.846191,4451.282227,,,,,,,,,,,,,,,,,,,,,,,,,,,,,,,,,,,,,,,,,,,,,,,,,,,,,,,,,,,,,,,,,,,,,,
1768973136.765454,1768973136.766316,8.0,0.0,4386.922852,4383.333496,4360.256348,4392.563965,4380.512695,4380.0,4384.871582,4386.282227,4375.384766,4355.769043,4462.179688,4531.282227,4414.871582,4450.256348,,,,,,,,,,,,,,,,,,,,,,,,,,,,,,,,,,,,,,,,,,,,,,,,,,,,,,,,,,,,,,,,,,,,,,
1768973136.773263,1768973136.774124,9.0,0.0,4389.230957,4387.179688,4363.461426,4390.769043,4382.563965,4382.94873,4385.256348,4381.282227,4366.410156,4354.487305,4458.589844,4521.922852,4413.077148,4444.230957,,,,,,,,,,,,,,,,,,,,,,,,,,,,,,,,,,,,,,,,,,,,,,,,,,,,,,,,,,,,,,,,,,,,,,
1768973136.781071,1768973136.781833,10.0,0.0,4388.589844,4387.692383,4364.102539,4388.333496,4379.358887,4379.743652,4382.436035,4381.794922,4366.794922,4354.230957,4459.487305,4523.333496,4411.666504,4448.333496,,,,,,,,,,,,,,,,,,,,,,,,,,,,,,,,,,,,,,,,,,,,,,,,,,,,,,,,,,,,,,,,,,,,,,
1768973136.78888,1768973136.789641,11.0,0.0,4382.307617,4381.410156,4362.692383,4387.307617,4377.05127,4375.0,4381.282227,4387.820313,4376.025879,4358.077148,4467.436035,4533.846191,4416.410156,4458.461426,,,,,,,,,,,,,,,,,,,,,,,,,,,,,,,,,,,,,,,,,,,,,,,,,,,,,,,,,,,,,,,,,,,,,,
1768973136.796688,1768973136.79765,12.0,0.0,4381.666504,4371.025879,4363.205078,4382.692383,4375.769043,4370.897461,4376.153809,4384.358887,4371.538574,4356.538574,4469.102539,4535.512695,4418.846191,4456.153809,,,,,,,,,,,,,,,,,,,,,,,,,,,,,,,,,,,,,,,,,,,,,,,,,,,,,,,,,,,,,,,,,,,,,,
1768973136.804497,1768973136.805458,13.0,0.0,4380.384766,4361.282227,4362.05127,4375.769043,4373.717773,4375.256348,4372.820313,4375.0,4358.717773,4344.230957,4455.0,4514.743652,4406.282227,4435.384766,,,,,,,,,,,,,,,,,,,,,,,,,,,,,,,,,,,,,,,,,,,,,,,,,,,,,,,,,,,,,,,,,,,,,,
1768973136.812305,1768973136.813167,14.0,0.0,4375.512695,4358.846191,4355.641113,4375.256348,4371.282227,4378.461426,4377.05127,4375.512695,4362.05127,4339.743652,4447.436035,4503.205078,4396.025879,4427.436035,0.815785,0.388951,0.254434,0.239018,0.119918,0.672116,0.389434,0.581001,0.125556,0.112642,0.522065,0.318144,0.177468,0.113032,0.053864,0.421427,0.237521,0.080803,0.12344,0.0495,0.261869,0.078975,0.075531,0.061457,0.050688,0.301926,0.590798,0.195972,0.153702,0.122665,0.53993,0.525267,0.282064,0.208285,0.170742,0.350832,0.357109,0.232197,0.110793,0.161729,0.457281,0.299098,0.241868,0.134525,0.123359,0.49202,0.204584,0.368771,0.110588,0.119507,0.847522,0.181057,0.231758,0.130502,0.134683,0.770602,0.316016,0.38265,0.16975,0.120224,0.689179,0.142147,0.251262,0.19634,0.127786,0.540729,0.208457,0.543225,0.181073,0.149022
1768973136.820113,1768973136.820975,15.0,0.0,4386.153809,4366.538574,4356.794922,4383.333496,4370.256348,4375.512695,4383.974121,4387.563965,4378.333496,4356.538574,4465.769043,4523.717773,4412.563965,4450.128418,,,,,,,,,,,,,,,,,,,,,,,,,,,,,,,,,,,,,,,,,,,,,,,,,,,,,,,,,,,,,,,,,,,,,,
1768973136.827922,1768973136.828983,16.0,0.0,4396.538574,4372.94873,4366.794922,4385.0,4372.94873,4376.794922,4385.128418,4398.077148,4385.512695,4370.897461,4482.436035,4540.0,4430.769043,4466.666504,,,,,,,,,,,,,,,,,,,,,,,,,,,,,,,,,,,,,,,,,,,,,,,,,,,,,,,,,,,,,,,,,,,,,,
1768973136.83573,1768973136.836792,17.0,0.0,4386.794922,4372.179688,4368.717773,4378.717773,4373.333496,4378.717773,4380.641113,4391.922852,4375.384766,4361.025879,4471.538574,4532.307617,4419.615234,4455.128418,,,,,,,,,,,,,,,,,,,,,,,,,,,,,,,,,,,,,,,,,,,,,,,,,,,,,,,,,,,,,,,,,,,,,,
1768973136.843539,1768973136.8445,18.0,0.0,4379.487305,4369.743652,4363.717773,4376.025879,4369.358887,4373.589844,4378.589844,4381.794922,4363.461426,4348.717773,4458.717773,4526.922852,4408.077148,4445.384766,,,,,,,,,,,,,,,,,,,,,,,,,,,,,,,,,,,,,,,,,,,,,,,,,,,,,,,,,,,,,,,,,,,,,,
1768973136.851347,1768973136.852309,19.0,0.0,4381.666504,4367.692383,4362.94873,4376.282227,4369.102539,4371.410156,4381.025879,4387.820313,4371.538574,4353.717773,4464.871582,4532.820313,4413.717773,4449.615234,,,,,,,,,,,,,,,,,,,,,,,,,,,,,,,,,,,,,,,,,,,,,,,,,,,,,,,,,,,,,,,,,,,,,,
1768973136.859156,1768973136.860317,20.0,0.0,4373.461426,4366.153809,4361.666504,4375.0,4371.153809,4375.897461,4380.256348,4390.769043,4377.94873,4353.461426,4465.512695,4527.307617,4406.282227,4440.256348,,,,,,,,,,,,,,,,,,,,,,,,,,,,,,,,,,,,,,,,,,,,,,,,,,,,,,,,,,,,,,,,,,,,,,
1768973136.866964,1768973136.868125,21.0,0.0,4366.025879,4365.384766,4353.333496,4373.205078,4368.205078,4372.179688,4370.512695,4379.487305,4367.05127,4343.846191,4455.384766,4518.077148,4396.666504,4429.743652,,,,,,,,,,,,,,,,,,,,,,,,,,,,,,,,,,,,,,,,,,,,,,,,,,,,,,,,,,,,,,,,,,,,,,
1768973136.874772,1768973136.875834,22.0,0.0,4375.897461,4367.05127,4348.589844,4374.615234,4365.512695,4365.897461,4365.897461,4377.94873,4366.025879,4348.333496,4456.410156,4520.641113,4408.333496,4441.282227,,,,,,,,,,,,,,,,,,,,,,,,,,,,,,,,,,,,,,,,,,,,,,,,,,,,,,,,,,,,,,,,,,,,,,
1768973136.882581,1768973136.883642,23.0,0.0,4382.820313,4370.128418,4352.179688,4379.487305,4368.589844,4368.589844,4370.128418,4380.897461,4370.256348,4359.487305,4464.487305,4521.410156,4420.384766,4452.692383,,,,,,,,,,,,,,,,,,,,,,,,,,,,,,,,,,,,,,,,,,,,,,,,,,,,,,,,,,,,,,,,,,,,,,
1768973136.890389,1768973136.891251,24.0,0.0,4376.410156,4367.436035,4352.563965,4381.794922,4369.871582,4374.358887,4374.102539,4375.769043,4360.897461,4357.05127,4464.743652,4514.871582,4416.922852,4446.153809,,,,,,,,,,,,,,,,,,,,,,,,,,,,,,,,,,,,,,,,,,,,,,,,,,,,,,,,,,,,,,,,,,,,,,
1768973136.898198,1768973136.89906,25.0,0.0,4373.589844,4365.512695,4353.333496,4380.641113,4372.94873,4375.769043,4376.794922,4378.589844,4361.153809,4355.897461,4461.922852,4514.102539,4413.589844,4441.794922,,,,,,,,,,,,,,,,,,,,,,,,,,,,,,,,,,,,,,,,,,,,,,,,,,,,,,,,,,,,,,,,,,,,,,
1768973136.906006,1768973136.906768,26.0,0.0,4379.615234,4371.794922,4360.512695,4381.666504,4378.846191,4373.077148,4375.384766,4385.641113,4373.717773,4360.128418,4463.589844,4521.794922,4416.922852,4452.436035,,,,,,,,,,,,,,,,,,,,,,,,,,,,,,,,,,,,,,,,,,,,,,,,,,,,,,,,,,,,,,,,,,,,,,
1768973136.913815,1768973136.914577,27.0,0.0,4383.589844,4374.487305,4365.769043,4385.641113,4376.153809,4370.641113,4373.461426,4382.563965,4371.410156,4353.461426,4467.179688,4521.922852,4419.358887,4457.436035,,,,,,,,,,,,,,,,,,,,,,,,,,,,,,,,,,,,,,,,,,,,,,,,,,,,,,,,,,,,,,,,,,,,,,
1768973136.921623,1768973136.922585,28.0,0.0,4386.282227,4372.05127,4363.333496,4382.179688,4372.307617,4366.794922,4371.666504,4382.05127,4365.897461,4349.487305,4466.282227,4518.974121,4418.974121,4449.615234,,,,,,,,,,,,,,,,,,,,,,,,,,,,,,,,,,,,,,,,,,,,,,,,,,,,,,,,,,,,,,,,,,,,,,
1768973136.929432,1768973136.930393,29.0,0.0,4387.692383,4373.717773,4361.794922,4375.512695,4373.461426,4364.743652,4372.563965,4387.436035,4371.666504,4358.205078,4461.922852,4521.282227,4413.205078,4444.102539,,,,,,,,,,,,,,,,,,,,,,,,,,,,,,,,,,,,,,,,,,,,,,,,,,,,,,,,,,,,,,,,,,,,,,
1768973136.93724,1768973136.938302,30.0,0.0,4383.974121,4372.436035,4362.179688,4376.282227,4372.563965,4370.769043,4377.179688,4385.128418,4373.205078,4360.384766,4461.153809,4521.794922,4409.487305,4445.256348,0.657354,0.362161,0.27317,0.224759,0.116352,0.484122,0.36693,0.633379,0.120285,0.105742,0.391409,0.250928,0.183291,0.108132,0.060934,0.28627,0.213764,0.08949,0.11634,0.055558,0.1944,0.075928,0.073436,0.058436,0.050557,0.276825,0.539271,0.21428,0.161779,0.114601,0.523407,0.503541,0.272607,0.21095,0.171273,0.436938,0.364129,0.240448,0.113271,0.160232,0.573959,0.314616,0.238457,0.151257,0.124182,0.490804,0.243551,0.388279,0.111287,0.134248,0.852011,0.227841,0.274393,0.132162,0.119202,0.779302,0.29853,0.33407,0.17903,0.134975,0.525918,0.153455,0.268032,0.197091,0.123503,0.382852,0.167767,0.651696,0.169784,0.13015
1768973136.945048,1768973136.94611,31.0,0.0,4381.794922,4367.563965,4358.589844,4380.128418,4371.922852,4376.153809,4377.820313,4380.897461,4365.897461,4355.0,4461.794922,4517.436035,4412.692383,4444.871582,,,,,,,,,,,,,,,,,,,,,,,,,,,,,,,,,,,,,,,,,,,,,,,,,,,,,,,,,,,,,,,,,,,,,,
1768973136.952857,1768973136.954118,32.0,0.0,4382.179688,4368.077148,4356.025879,4377.94873,4373.589844,4372.820313,4374.615234,4386.153809,4364.487305,4356.794922,4460.512695,4518.461426,4416.282227,4439.871582,,,,,,,,,,,,,,,,,,,,,,,,,,,,,,,,,,,,,,,,,,,,,,,,,,,,,,,,,,,,,,,,,,,,,,
1768973136.960665,1768973136.961927,33.0,0.0,4375.769043,4368.077148,4356.282227,4374.743652,4371.538574,4370.128418,4373.077148,4392.692383,4371.538574,4357.436035,4459.358887,4520.641113,4412.307617,4432.307617,,,,,,,,,,,,,,,,,,,,,,,,,,,,,,,,,,,,,,,,,,,,,,,,,,,,,,,,,,,,,,,,,,,,,,
1768973136.968474,1768973136.969835,34.0,0.0,4368.717773,4364.871582,4352.94873,4373.077148,4367.05127,4374.871582,4373.589844,4388.974121,4368.205078,4351.538574,4458.974121,4513.846191,4403.589844,4426.410156,,,,,,,,,,,,,,,,,,,,,,,,,,,,,,,,,,,,,,,,,,,,,,,,,,,,,,,,,,,,,,,,,,,,,,
1768973136.976282,1768973136.977644,35.0,0.0,4370.769043,4367.436035,4345.641113,4370.384766,4364.871582,4372.692383,4370.384766,4379.615234,4355.128418,4350.384766,4458.333496,4507.94873,4406.025879,4428.717773,,,,,,,,,,,,,,,,,,,,,,,,,,,,,,,,,,,,,,,,,,,,,,,,,,,,,,,,,,,,,,,,,,,,,,
1768973136.984091,1768973136.985652,36.0,0.0,4373.205078,4370.769043,4345.769043,4370.769043,4363.974121,4367.94873,4370.512695,4382.05127,4359.487305,4352.05127,4458.077148,4511.538574,4413.461426,4429.615234,,,,,,,,,,,,,,,,,,,,,,,,,,,,,,,,,,,,,,,,,,,,,,,,,,,,,,,,,,,,,,,,,,,,,,
1768973136.991899,1768973136.99346,37.0,0.0,4372.307617,4367.692383,4349.102539,4373.333496,4366.282227,4373.974121,4374.102539,4388.077148,4375.512695,4353.589844,4459.358887,4513.205078,4410.641113,4426.538574,,,,,,,,,,,,,,,,,,,,,,,,,,,,,,,,,,,,,,,,,,,,,,,,,,,,,,,,,,,,,,,,,,,,,,
1768973136.999708,1768973137.001169,38.0,0.0,4377.94873,4366.282227,4347.307617,4375.256348,4368.333496,4377.436035,4372.692383,4383.461426,4374.743652,4354.358887,4459.358887,4508.077148,4405.256348,4426.666504,,,,,,,,,,,,,,,,,,,,,,,,,,,,,,,,,,,,,,,,,,,,,,,,,,,,,,,,,,,,,,,,,,,,,,
1768973137.007516,1768973137.008977,39.0,0.0,4381.666504,4369.102539,4346.025879,4376.153809,4368.589844,4379.102539,4376.666504,4382.307617,4366.922852,4345.128418,4457.94873,4510.0,4409.615234,4426.282227,,,,,,,,,,,,,,,,,,,,,,,,,,,,,,,,,,,,,,,,,,,,,,,,,,,,,,,,,,,,,,,,,,,,,,
1768973137.015324,1768973137.016586,40.0,0.0,4373.333496,4370.256348,4346.794922,4374.102539,4370.384766,4384.615234,4382.563965,4386.666504,4369.871582,4338.461426,4457.692383,4516.794922,4411.922852,4425.0,,,,,,,,,,,,,,,,,,,,,,,,,,,,,,,,,,,,,,,,,,,,,,,,,,,,,,,,,,,,,,,,,,,,,,
1768973137.023133,1768973137.024394,41.0,0.0,4368.717773,4367.94873,4353.333496,4373.846191,4369.102539,4385.256348,4381.410156,4386.410156,4372.436035,4350.769043,4458.717773,4519.743652,4404.743652,4426.282227,,,,,,,,,,,,,,,,,,,,,,,,,,,,,,,,,,,,,,,,,,,,,,,,,,,,,,,,,,,,,,,,,,,,,,
1768973137.030941,1768973137.032103,42.0,0.0,4372.820313,4367.179688,4359.102539,4374.615234,4366.794922,4380.384766,4381.282227,4385.512695,4369.871582,4363.461426,4460.512695,4522.820313,4405.769043,4427.563965,,,,,,,,,,,,,,,,,,,,,,,,,,,,,,,,,,,,,,,,,,,,,,,,,,,,,,,,,,,,,,,,,,,,,,
1768973137.03875,1768973137.039911,43.0,0.0,4371.025879,4365.384766,4353.717773,4373.461426,4368.333496,4381.794922,4381.538574,4385.256348,4371.538574,4358.974121,4461.282227,4522.94873,4411.538574,4427.692383,,,,,,,,,,,,,,,,,,,,,,,,,,,,,,,,,,,,,,,,,,,,,,,,,,,,,,,,,,,,,,,,,,,,,,
1768973137.046558,1768973137.04752,44.0,0.0,4361.794922,4360.512695,4346.153809,4373.333496,4370.384766,4382.563965,4375.384766,4386.153809,4376.282227,4353.846191,4460.512695,4522.94873,4407.436035,4427.563965,,,,,,,,,,,,,,,,,,,,,,,,,,,,,,,,,,,,,,,,,,,,,,,,,,,,,,,,,,,,,,,,,,,,,,
1768973137.054367,1768973137.055328,45.0,0.0,4359.358887,4359.487305,4346.666504,4373.205078,4368.333496,4374.743652,4371.410156,4387.563965,4375.128418,4358.589844,4459.743652,4524.487305,4404.230957,4426.794922,,,,,,,,,,,,,,,,,,,,,,,,,,,,,,,,,,,,,,,,,,,,,,,,,,,,,,,,,,,,,,,,,,,,,,
1768973137.062175,1768973137.063237,46.0,0.0,4369.615234,4362.436035,4350.384766,4374.102539,4365.384766,4371.666504,4372.05127,4381.282227,4369.487305,4356.153809,4457.820313,4521.410156,4403.077148,4426.666504,0.493432,0.361268,0.290603,0.214356,0.115606,0.406992,0.364022,0.659627,0.117361,0.10207,0.30233,0.208467,0.185623,0.107817,0.068815,0.189951,0.215416,0.102867,0.10908,0.064575,0.13019,0.077071,0.071453,0.054999,0.051401,0.240634,0.479972,0.23525,0.16251,0.109713,0.500584,0.467107,0.263797,0.20296,0.176489,0.52634,0.352141,0.240363,0.120577,0.154823,0.665679,0.316697,0.225591,0.172175,0.126481,0.463232,0.266455,0.405769,0.124368,0.150305,0.824064,0.271535,0.308108,0.150759,0.119684,0.787397,0.299928,0.284646,0.206644,0.158024,0.4123,0.161124,0.296509,0.215042,0.130644,0.273261,0.156092,0.712534,0.178754,0.133029
1768973137.069984,1768973137.071045,47.0,0.0,4377.820313,4363.589844,4350.897461,4379.487305,4366.922852,4374.102539,4372.307617,4374.487305,4364.102539,4347.05127,4456.538574,4518.077148,4399.871582,4429.230957,,,,,,,,,,,,,,,,,,,,,,,,,,,,,,,,,,,,,,,,,,,,,,,,,,,,,,,,,,,,,,,,,,,,,,
1768973137.077792,1768973137.078654,48.0,0.0,4375.128418,4363.717773,4350.769043,4380.512695,4364.871582,4373.717773,4373.589844,4378.461426,4366.922852,4346.666504,4458.589844,4522.05127,4403.333496,4430.897461,,,,,,,,,,,,,,,,,,,,,,,,,,,,,,,,,,,,,,,,,,,,,,,,,,,,,,,,,,,,,,,,,,,,,,
1768973137.085601,1768973137.086462,49.0,0.0,4370.769043,4366.025879,4350.641113,4374.743652,4358.717773,4372.436035,4372.94873,4385.769043,4376.153809,4358.333496,4462.692383,4528.333496,4413.461426,4431.922852,,,,,,,,,,,,,,,,,,,,,,,,,,,,,,,,,,,,,,,,,,,,,,,,,,,,,,,,,,,,,,,,,,,,,,
1768973137.093409,1768973137.094171,50.0,0.0,4369.487305,4365.128418,4349.871582,4372.179688,4359.743652,4374.230957,4373.461426,4388.974121,4378.974121,4362.179688,4464.102539,4530.0,4416.410156,4432.820313,,,,,,,,,,,,,,,,,,,,,,,,,,,,,,,,,,,,,,,,,,,,,,,,,,,,,,,,,,,,,,,,,,,,,,
1768973137.101217,1768973137.101979,51.0,0.0,4371.410156,4364.102539,4351.666504,4373.205078,4366.025879,4381.666504,4383.205078,4388.077148,4373.461426,4348.846191,4461.666504,4528.333496,4409.615234,4430.0,,,,,,,,,,,,,,,,,,,,,,,,,,,,,,,,,,,,,,,,,,,,,,,,,,,,,,,,,,,,,,,,,,,,,,
1768973137.109026,1768973137.109988,52.0,0.0,4377.436035,4364.871582,4356.794922,4374.743652,4366.282227,4381.282227,4383.974121,4385.769043,4370.384766,4348.461426,4458.077148,4524.487305,4405.256348,4426.025879,,,,,,,,,,,,,,,,,,,,,,,,,,,,,,,,,,,,,,,,,,,,,,,,,,,,,,,,,,,,,,,,,,,,,,
1768973137.116834,1768973137.117796,53.0,0.0,4382.436035,4365.256348,4358.333496,4378.846191,4366.282227,4372.436035,4370.256348,4381.025879,4372.820313,4362.05127,4454.487305,4520.256348,4405.256348,4426.794922,,,,,,,,,,,,,,,,,,,,,,,,,,,,,,,,,,,,,,,,,,,,,,,,,,,,,,,,,,,,,,,,,,,,,,
1768973137.124643,1768973137.125704,54.0,0.0,4380.897461,4365.897461,4353.974121,4381.410156,4372.94873,4373.205078,4369.871582,4373.589844,4369.230957,4360.897461,4455.128418,4516.922852,4401.794922,4428.077148,,,,,,,,,,,,,,,,,,,,,,,,,,,,,,,,,,,,,,,,,,,,,,,,,,,,,,,,,,,,,,,,,,,,,,
1768973137.132451,1768973137.133513,55.0,0.0,4375.128418,4364.487305,4352.820313,4379.871582,4373.589844,4385.0,4383.077148,4374.487305,4368.461426,4350.769043,4457.563965,4516.794922,4399.871582,4425.256348,,,,,,,,,,,,,,,,,,,,,,,,,,,,,,,,,,,,,,,,,,,,,,,,,,,,,,,,,,,,,,,,,,,,,,
1768973137.14026,1768973137.141521,56.0,0.0,4371.666504,4360.384766,4354.230957,4379.102539,4367.692383,4383.974121,4380.512695,4382.436035,4375.641113,4353.717773,4459.358887,4522.179688,4408.077148,4431.025879,,,,,,,,,,,,,,,,,,,,,,,,,,,,,,,,,,,,,,,,,,,,,,,,,,,,,,,,,,,,,,,,,,,,,,
1768973137.148068,1768973137.149329,57.0,0.0,4378.077148,4361.025879,4357.436035,4382.436035,4366.025879,4372.179688,4369.871582,4383.974121,4377.94873,4360.384766,4460.769043,4529.358887,4416.282227,4442.820313,,,,,,,,,,,,,,,,,,,,,,,,,,,,,,,,,,,,,,,,,,,,,,,,,,,,,,,,,,,,,,,,,,,,,,
1768973137.155877,1768973137.157238,58.0,0.0,4384.871582,4366.025879,4363.205078,4385.897461,4369.358887,4375.384766,4374.102539,4383.846191,4376.794922,4358.717773,4460.769043,4532.307617,4411.922852,4445.641113,,,,,,,,,,,,,,,,,,,,,,,,,,,,,,,,,,,,,,,,,,,,,,,,,,,,,,,,,,,,,,,,,,,,,,
1768973137.163685,1768973137.165046,59.0,0.0,4384.615234,4367.563965,4363.333496,4383.846191,4373.461426,4384.871582,4382.307617,4386.666504,4377.820313,4356.538574,4460.512695,4532.563965,4409.102539,4443.974121,,,,,,,,,,,,,,,,,,,,,,,,,,,,,,,,,,,,,,,,,,,,,,,,,,,,,,,,,,,,,,,,,,,,,,
1768973137.171493,1768973137.173055,60.0,0.0,4382.05127,4365.769043,4354.615234,4382.05127,4374.102539,4383.589844,4382.820313,4385.0,4377.820313,4355.512695,4459.358887,4527.307617,4411.666504,4439.615234,,,,,,,,,,,,,,,,,,,,,,,,,,,,,,,,,,,,,,,,,,,,,,,,,,,,,,,,,,,,,,,,,,,,,,
1768973137.179302,1768973137.180863,61.0,0.0,4375.0,4362.820313,4348.333496,4379.230957,4367.94873,4380.128418,4383.205078,4381.282227,4374.871582,4355.769043,4457.307617,4517.179688,4411.794922,4429.871582,,,,,,,,,,,,,,,,,,,,,,,,,,,,,,,,,,,,,,,,,,,,,,,,,,,,,,,,,,,,,,,,,,,,,,
1768973137.18711,1768973137.188572,62.0,0.0,4369.102539,4361.282227,4347.94873,4372.563965,4360.384766,4376.153809,4379.615234,4379.358887,4374.102539,4350.384766,4456.282227,4516.025879,4409.615234,4429.358887,0.374579,0.381862,0.296663,0.209196,0.117395,0.427023,0.386278,0.643877,0.11925,0.101815,0.256292,0.197926,0.184181,0.110088,0.076238,0.170731,0.235555,0.114558,0.102259,0.073874,0.089835,0.08182,0.071474,0.051057,0.052411,0.201144,0.419578,0.247066,0.157884,0.10833,0.457294,0.425424,0.249719,0.189113,0.184037,0.591342,0.320937,0.235302,0.132306,0.149324,0.703061,0.300842,0.200716,0.192488,0.134178,0.408026,0.264638,0.411769,0.149406,0.167034,0.758137,0.296904,0.322238,0.181593,0.135931,0.767821,0.323282,0.244373,0.245095,0.191858,0.357319,0.160272,0.325113,0.244441,0.14993,0.226983,0.163854,0.706425,0.205942,0.163171
1768973137.194919,1768973137.19638,63.0,0.0,4372.307617,4367.179688,4350.641113,4372.692383,4361.025879,4372.94873,4374.487305,4380.0,4376.922852,4348.717773,4459.871582,4527.436035,4410.641113,4440.769043,,,,,,,,,,,,,,,,,,,,,,,,,,,,,,,,,,,,,,,,,,,,,,,,,,,,,,,,,,,,,,,,,,,,,,
1768973137.202727,1768973137.203989,64.0,0.0,4375.128418,4375.0,4356.538574,4381.666504,4371.025879,4380.512695,4381.410156,4385.0,4383.461426,4361.025879,4463.589844,4533.717773,4415.769043,4446.282227,,,,,,,,,,,,,,,,,,,,,,,,,,,,,,,,,,,,,,,,,,,,,,,,,,,,,,,,,,,,,,,,,,,,,,
1768973137.210536,1768973137.211797,65.0,0.0,4372.307617,4373.974121,4360.128418,4383.077148,4376.025879,4386.922852,4382.563965,4380.769043,4381.922852,4364.615234,4461.153809,4527.94873,4415.769043,4441.538574,,,,,,,,,,,,,,,,,,,,,,,,,,,,,,,,,,,,,,,,,,,,,,,,,,,,,,,,,,,,,,,,,,,,,,
1768973137.218344,1768973137.219506,66.0,0.0,4371.666504,4370.512695,4358.717773,4377.820313,4372.692383,4376.794922,4370.384766,4370.769043,4370.256348,4352.94873,4456.153809,4525.641113,4411.025879,4437.436035,,,,,,,,,,,,,,,,,,,,,,,,,,,,,,,,,,,,,,,,,,,,,,,,,,,,,,,,,,,,,,,,,,,,,,
1768973137.226153,1768973137.227314,67.0,0.0,4376.922852,4373.461426,4358.077148,4380.0,4372.436035,4370.641113,4372.436035,4378.717773,4373.717773,4352.563965,4460.0,4535.384766,4410.384766,4440.0,,,,,,,,,,,,,,,,,,,,,,,,,,,,,,,,,,,,,,,,,,,,,,,,,,,,,,,,,,,,,,,,,,,,,,
1768973137.233961,1768973137.234923,68.0,0.0,4380.769043,4374.871582,4359.358887,4383.589844,4375.0,4377.307617,4381.410156,4389.358887,4385.256348,4361.922852,4468.205078,4539.871582,4413.589844,4445.641113,,,,,,,,,,,,,,,,,,,,,,,,,,,,,,,,,,,,,,,,,,,,,,,,,,,,,,,,,,,,,,,,,,,,,,
1768973137.241769,1768973137.242731,69.0,0.0,4381.922852,4374.743652,4359.487305,4381.794922,4374.358887,4379.102539,4376.282227,4380.897461,4382.307617,4361.025879,4468.461426,4535.384766,4415.128418,4446.410156,,,,,,,,,,,,,,,,,,,,,,,,,,,,,,,,,,,,,,,,,,,,,,,,,,,,,,,,,,,,,,,,,,,,,,
1768973137.249578,1768973137.25044,70.0,0.0,4386.794922,4379.230957,4361.794922,4380.897461,4371.666504,4375.256348,4369.487305,4375.0,4373.333496,4357.179688,4464.358887,4540.641113,4414.743652,4444.615234,,,,,,,,,,,,,,,,,,,,,,,,,,,,,,,,,,,,,,,,,,,,,,,,,,,,,,,,,,,,,,,,,,,,,,
1768973137.257386,1768973137.258248,71.0,0.0,4389.358887,4382.94873,4366.025879,4382.820313,4368.846191,4371.922852,4373.077148,4381.922852,4371.282227,4354.230957,4462.692383,4548.717773,4413.205078,4446.153809,,,,,,,,,,,,,,,,,,,,,,,,,,,,,,,,,,,,,,,,,,,,,,,,,,,,,,,,,,,,,,,,,,,,,,
1768973137.265195,1768973137.266256,72.0,0.0,4383.205078,4380.769043,4364.743652,4380.897461,4366.538574,4372.05127,4376.538574,4382.692383,4371.410156,4348.974121,4462.563965,4544.487305,4408.846191,4447.05127,,,,,,,,,,,,,,,,,,,,,,,,,,,,,,,,,,,,,,,,,,,,,,,,,,,,,,,,,,,,,,,,,,,,,,
1768973137.273003,1768973137.274065,73.0,0.0,4380.769043,4383.077148,4360.769043,4381.025879,4369.743652,4377.692383,4377.307617,4377.307617,4371.922852,4352.820313,4463.846191,4543.461426,4410.0,4445.897461,,,,,,,,,,,,,,,,,,,,,,,,,,,,,,,,,,,,,,,,,,,,,,,,,,,,,,,,,,,,,,,,,,,,,,
1768973137.280812,1768973137.281773,74.0,0.0,4386.153809,4390.256348,4362.563965,4385.897461,4372.307617,4381.282227,4380.0,4379.487305,4378.205078,4357.692383,4464.487305,4550.897461,4412.179688,4444.871582,,,,,,,,,,,,,,,,,,,,,,,,,,,,,,,,,,,,,,,,,,,,,,,,,,,,,,,,,,,,,,,,,,,,,,
1768973137.28862,1768973137.289582,75.0,0.0,4387.563965,4392.436035,4369.358887,4385.641113,4368.461426,4375.256348,4377.436035,4383.974121,4383.333496,4353.205078,4460.384766,4549.102539,4406.025879,4443.461426,,,,,,,,,,,,,,,,,,,,,,,,,,,,,,,,,,,,,,,,,,,,,,,,,,,,,,,,,,,,,,,,,,,,,,
1768973137.296429,1768973137.29719,76.0,0.0,4388.077148,4391.794922,4370.641113,4381.153809,4366.153809,4372.692383,4373.974121,4380.128418,4379.358887,4349.487305,4457.820313,4539.743652,4403.717773,4443.589844,,,,,,,,,,,,,,,,,,,,,,,,,,,,,,,,,,,,,,,,,,,,,,,,,,,,,,,,,,,,,,,,,,,,,,
1768973137.304237,1768973137.304999,77.0,0.0,4387.563965,4388.461426,4363.717773,4378.846191,4367.820313,4377.307617,4377.307617,4374.743652,4372.05127,4351.922852,4459.743652,4537.692383,4410.512695,4443.205078,,,,,,,,,,,,,,,,,,,,,,,,,,,,,,,,,,,,,,,,,,,,,,,,,,,,,,,,,,,,,,,,,,,,,,
1768973137.312045,1768973137.312707,78.0,0.0,4385.256348,4386.922852,4361.794922,4383.205078,4370.769043,4376.025879,4379.871582,4377.563965,4370.897461,4353.461426,4461.410156,4545.128418,4412.436035,4443.461426,0.327314,0.41153,0.286819,0.211697,0.120445,0.523286,0.426268,0.58528,0.127058,0.102701,0.238494,0.217336,0.179577,0.112461,0.081799,0.232978,0.257238,0.119906,0.096623,0.080259,0.085296,0.090762,0.074603,0.047316,0.052389,0.170766,0.360662,0.242832,0.151219,0.108634,0.39267,0.387585,0.227735,0.173815,0.188474,0.614088,0.279148,0.234907,0.145732,0.147421,0.673159,0.272834,0.171152,0.209997,0.1504,0.331365,0.239385,0.401414,0.182903,0.184363,0.655865,0.29879,0.313423,0.213885,0.161804,0.703302,0.36561,0.222166,0.283185,0.23497,0.347146,0.157541,0.343135,0.276083,0.178301,0.241294,0.179065,0.641679,0.244612,0.215526
1768973137.319854,1768973137.320516,79.0,0.0,4391.538574,4391.922852,4371.025879,4387.820313,4371.794922,4373.077148,4380.128418,4384.358887,4377.820313,4356.538574,4466.410156,4555.128418,4411.794922,4450.0,,,,,,,,,,,,,,,,,,,,,,,,,,,,,,,,,,,,,,,,,,,,,,,,,,,,,,,,,,,,,,,,,,,,,,
1768973137.327662,1768973137.328524,80.0,0.0,4394.358887,4393.974121,4374.615234,4383.846191,4369.615234,4373.717773,4377.563965,4385.384766,4381.025879,4356.666504,4466.538574,4554.230957,4414.230957,4451.282227,,,,,,,,,,,,,,,,,,,,,,,,,,,,,,,,,,,,,,,,,,,,,,,,,,,,,,,,,,,,,,,,,,,,,,
1768973137.335471,1768973137.336333,81.0,0.0,4387.820313,4392.436035,4367.94873,4378.205078,4369.487305,4371.410156,4370.769043,4379.102539,4374.871582,4355.897461,4459.871582,4545.512695,4412.563965,4444.230957,,,,,,,,,,,,,,,,,,,,,,,,,,,,,,,,,,,,,,,,,,,,,,,,,,,,,,,,,,,,,,,,,,,,,,
1768973137.343279,1768973137.344241,82.0,0.0,4388.205078,4393.974121,4367.179688,4382.307617,4370.128418,4370.641113,4372.436035,4379.743652,4374.102539,4355.512695,4464.871582,4545.897461,4412.692383,4450.512695,,,,,,,,,,,,,,,,,,,,,,,,,,,,,,,,,,,,,,,,,,,,,,,,,,,,,,,,,,,,,,,,,,,,,,
1768973137.351088,1768973137.352049,83.0,0.0,4396.538574,4393.077148,4369.743652,4388.077148,4371.922852,4378.974121,4386.282227,4388.461426,4381.794922,4352.179688,4473.846191,4552.820313,4416.410156,4458.461426,,,,,,,,,,,,,,,,,,,,,,,,,,,,,,,,,,,,,,,,,,,,,,,,,,,,,,,,,,,,,,,,,,,,,,
1768973137.358896,1768973137.360058,84.0,0.0,4397.820313,4393.717773,4369.102539,4387.820313,4377.307617,4384.230957,4387.820313,4388.974121,4382.692383,4353.333496,4468.077148,4551.794922,4412.692383,4447.179688,,,,,,,,,,,,,,,,,,,,,,,,,,,,,,,,,,,,,,,,,,,,,,,,,,,,,,,,,,,,,,,,,,,,,,
1768973137.366705,1768973137.367866,85.0,0.0,4392.05127,4403.589844,4370.512695,4388.589844,4379.871582,4378.205078,4376.153809,4381.922852,4379.615234,4359.358887,4459.615234,4548.205078,4410.769043,4439.230957,,,,,,,,,,,,,,,,,,,,,,,,,,,,,,,,,,,,,,,,,,,,,,,,,,,,,,,,,,,,,,,,,,,,,,
1768973137.374513,1768973137.375575,86.0,0.0,4390.0,4406.922852,4368.717773,4390.0,4377.179688,4377.436035,4378.846191,4386.282227,4385.0,4360.384766,4463.205078,4547.820313,4411.922852,4446.922852,,,,,,,,,,,,,,,,,,,,,,,,,,,,,,,,,,,,,,,,,,,,,,,,,,,,,,,,,,,,,,,,,,,,,,
1768973137.382321,1768973137.383383,87.0,0.0,4387.05127,4397.05127,4361.410156,4387.179688,4378.205078,4384.358887,4387.179688,4395.0,4387.307617,4358.205078,4469.358887,4545.897461,4410.769043,4447.692383,,,,,,,,,,,,,,,,,,,,,,,,,,,,,,,,,,,,,,,,,,,,,,,,,,,,,,,,,,,,,,,,,,,,,,
1768973137.39013,1768973137.391192,88.0,0.0,4382.05127,4389.230957,4360.769043,4387.692383,4380.897461,4385.0,4383.205078,4393.205078,4382.94873,4363.717773,4474.102539,4548.846191,4419.743652,4444.615234,,,,,,,,,,,,,,,,,,,,,,,,,,,,,,,,,,,,,,,,,,,,,,,,,,,,,,,,,,,,,,,,,,,,,,
1768973137.397938,1768973137.399,89.0,0.0,4384.230957,4390.0,4365.641113,4391.922852,4379.358887,4379.743652,4379.615234,4390.512695,4385.0,4366.922852,4478.205078,4551.410156,4427.820313,4448.717773,,,,,,,,,,,,,,,,,,,,,,,,,,,,,,,,,,,,,,,,,,,,,,,,,,,,,,,,,,,,,,,,,,,,,,
1768973137.405747,1768973137.406709,90.0,0.0,4391.025879,4394.358887,4370.769043,4393.461426,4380.641113,4381.025879,4382.692383,4393.205078,4385.128418,4361.282227,4471.282227,4546.153809,4418.589844,4446.410156,,,,,,,,,,,,,,,,,,,,,,,,,,,,,,,,,,,,,,,,,,,,,,,,,,,,,,,,,,,,,,,,,,,,,,
1768973137.413555,1768973137.414517,91.0,0.0,4392.563965,4398.974121,4375.769043,4394.743652,4385.769043,4387.05127,4384.230957,4393.333496,4381.538574,4356.666504,4461.153809,4543.717773,4410.512695,4442.692383,,,,,,,,,,,,,,,,,,,,,,,,,,,,,,,,,,,,,,,,,,,,,,,,,,,,,,,,,,,,,,,,,,,,,,
1768973137.421363,1768973137.422126,92.0,0.0,4388.589844,4398.205078,4373.717773,4394.871582,4383.589844,4388.333496,4386.538574,4391.794922,4383.205078,4355.641113,4458.846191,4545.384766,4412.692383,4444.358887,,,,,,,,,,,,,,,,,,,,,,,,,,,,,,,,,,,,,,,,,,,,,,,,,,,,,,,,,,,,,,,,,,,,,,
1768973137.429172,1768973137.429934,93.0,0.0,4387.436035,4392.820313,4369.743652,4391.025879,4379.487305,4387.692383,4391.922852,4391.282227,4385.128418,4358.589844,4461.282227,4546.922852,4414.871582,4445.641113,,,,,,,,,,,,,,,,,,,,,,,,,,,,,,,,,,,,,,,,,,,,,,,,,,,,,,,,,,,,,,,,,,,,,,
1768973137.43698,1768973137.437842,94.0,0.0,4390.128418,4390.256348,4371.794922,4388.461426,4380.384766,4386.794922,4389.871582,4386.538574,4381.025879,4358.077148,4461.666504,4547.05127,4414.358887,4444.230957,0.346456,0.43974,0.27,0.223885,0.122783,0.647144,0.467063,0.50045,0.139803,0.100951,0.236249,0.262526,0.175546,0.115432,0.084111,0.345515,0.265768,0.120559,0.093699,0.081362,0.113048,0.106694,0.08044,0.046311,0.050798,0.157974,0.3036,0.224257,0.145502,0.109388,0.319004,0.36131,0.202215,0.159911,0.185892,0.588182,0.239275,0.246965,0.157495,0.150521,0.586753,0.242724,0.145912,0.224652,0.174997,0.247238,0.200852,0.376027,0.219526,0.202834,0.526645,0.279094,0.286828,0.236158,0.187612,0.602245,0.421113,0.223248,0.311874,0.279736,0.359727,0.158149,0.345593,0.301351,0.208734,0.299216,0.197922,0.553367,0.286812,0.275365
1768973137.444789,1768973137.445651,95.0,0.0,4388.205078,4390.128418,4369.871582,4386.282227,4378.461426,4384.102539,4383.589844,4384.615234,4381.794922,4352.05127,4457.563965,4541.538574,4408.461426,4441.538574,,,,,,,,,,,,,,,,,,,,,,,,,,,,,,,,,,,,,,,,,,,,,,,,,,,,,,,,,,,,,,,,,,,,,,
1768973137.452597,1768973137.453659,96.0,0.0,4384.230957,4390.641113,4363.717773,4385.512695,4374.230957,4384.871582,4386.153809,4391.410156,4386.153809,4352.05127,4456.538574,4535.128418,4403.589844,4437.307617,,,,,,,,,,,,,,,,,,,,,,,,,,,,,,,,,,,,,,,,,,,,,,,,,,,,,,,,,,,,,,,,,,,,,,
1768973137.460406,1768973137.461468,97.0,0.0,4390.128418,4394.487305,4368.461426,4391.538574,4377.94873,4387.179688,4390.897461,4395.641113,4388.589844,4362.179688,4465.384766,4543.589844,4416.794922,4443.461426,,,,,,,,,,,,,,,,,,,,,,,,,,,,,,,,,,,,,,,,,,,,,,,,,,,,,,,,,,,,,,,,,,,,,,
1768973137.468214,1768973137.469376,98.0,0.0,4397.307617,4400.769043,4376.922852,4398.846191,4380.641113,4386.282227,4388.205078,4396.025879,4392.94873,4364.358887,4477.692383,4559.230957,4432.05127,4456.666504,,,,,,,,,,,,,,,,,,,,,,,,,,,,,,,,,,,,,,,,,,,,,,,,,,,,,,,,,,,,,,,,,,,,,,
1768973137.476023,1768973137.477184,99.0,0.0,4391.282227,4400.512695,4372.179688,4395.128418,4373.717773,4383.589844,4382.692383,4392.692383,4386.025879,4358.077148,4474.743652,4558.461426,4427.307617,4453.077148,,,,,,,,,,,,,,,,,,,,,,,,,,,,,,,,,,,,,,,,,,,,,,,,,,,,,,,,,,,,,,,,,,,,,,
1768973137.483831,1768973137.485193,100.0,0.0,4386.282227,4398.974121,4364.230957,4389.743652,4371.538574,4379.230957,4379.358887,4385.384766,4375.0,4360.512695,4463.846191,4547.436035,4417.05127,4442.179688,,,,,,,,,,,,,,,,,,,,,,,,,,,,,,,,,,,,,,,,,,,,,,,,,,,,,,,,,,,,,,,,,,,,,,
1768973137.49164,1768973137.493001,101.0,0.0,4390.384766,4401.153809,4364.102539,4392.692383,4378.589844,4377.436035,4380.0,4384.358887,4378.461426,4361.666504,4462.94873,4544.358887,4414.358887,4442.820313,,,,,,,,,,,,,,,,,,,,,,,,,,,,,,,,,,,,,,,,,,,,,,,,,,,,,,,,,,,,,,,,,,,,,,
1768973137.499448,1768973137.50071,102.0,0.0,4391.153809,4400.769043,4365.641113,4393.077148,4380.512695,4380.384766,4382.820313,4386.922852,4379.615234,4354.358887,4465.0,4548.205078,4413.077148,4443.461426,,,,,,,,,,,,,,,,,,,,,,,,,,,,,,,,,,,,,,,,,,,,,,,,,,,,,,,,,,,,,,,,,,,,,,
1768973137.507256,1768973137.508518,103.0,0.0,4387.307617,4395.897461,4366.794922,4389.102539,4376.153809,4380.897461,4383.205078,4385.641113,4371.794922,4353.205078,4461.794922,4548.589844,4411.666504,4437.94873,,,,,,,,,,,,,,,,,,,,,,,,,,,,,,,,,,,,,,,,,,,,,,,,,,,,,,,,,,,,,,,,,,,,,,
1768973137.515065,1768973137.516526,104.0,0.0,4383.974121,4390.256348,4366.794922,4388.461426,4375.897461,4376.922852,4378.205078,4386.794922,4374.743652,4357.307617,4461.025879,4543.461426,4412.436035,4435.769043,,,,,,,,,,,,,,,,,,,,,,,,,,,,,,,,,,,,,,,,,,,,,,,,,,,,,,,,,,,,,,,,,,,,,,
1768973137.522873,1768973137.524335,105.0,0.0,4381.538574,4388.974121,4364.358887,4391.410156,4380.512695,4379.871582,4382.05127,4392.563965,4383.974121,4356.025879,4463.077148,4540.0,4413.077148,4433.846191,,,,,,,,,,,,,,,,,,,,,,,,,,,,,,,,,,,,,,,,,,,,,,,,,,,,,,,,,,,,,,,,,,,,,,
1768973137.530682,1768973137.532243,106.0,0.0,4381.282227,4389.102539,4363.974121,4391.282227,4382.179688,4386.922852,4392.563965,4393.589844,4381.025879,4354.230957,4461.794922,4536.153809,4411.922852,4429.102539,,,,,,,,,,,,,,,,,,,,,,,,,,,,,,,,,,,,,,,,,,,,,,,,,,,,,,,,,,,,,,,,,,,,,,
1768973137.53849,1768973137.540052,107.0,0.0,4385.256348,4387.692383,4365.128418,4388.205078,4381.410156,4385.128418,4389.743652,4390.897461,4377.820313,4354.487305,4460.512695,4534.230957,4409.743652,4433.461426,,,,,,,,,,,,,,,,,,,,,,,,,,,,,,,,,,,,,,,,,,,,,,,,,,,,,,,,,,,,,,,,,,,,,,
1768973137.546299,1768973137.54806,108.0,0.0,4388.461426,4383.974121,4366.410156,4388.077148,4381.282227,4380.128418,4381.794922,4390.384766,4382.05127,4355.128418,4461.025879,4537.05127,4408.974121,4441.666504,,,,,,,,,,,,,,,,,,,,,,,,,,,,,,,,,,,,,,,,,,,,,,,,,,,,,,,,,,,,,,,,,,,,,,
1768973137.554107,1768973137.555868,109.0,0.0,4385.384766,4380.512695,4366.922852,4388.333496,4380.769043,4380.897461,4382.05127,4392.820313,4385.0,4358.205078,4460.897461,4538.461426,4411.922852,4445.128418,,,,,,,,,,,,,,,,,,,,,,,,,,,,,,,,,,,,,,,,,,,,,,,,,,,,,,,,,,,,,,,,,,,,,,
1768973137.561916,1768973137.563677,110.0,0.0,4380.384766,4381.025879,4363.461426,4387.179688,4380.256348,4381.922852,4383.846191,4394.230957,4382.692383,4358.974121,4463.077148,4535.641113,4413.589844,4444.230957,0.408741,0.4662,0.260859,0.246454,0.123129,0.738548,0.495857,0.412649,0.15482,0.093755,0.242055,0.326255,0.178664,0.122841,0.082669,0.461755,0.256441,0.121707,0.094891,0.077107,0.16087,0.133085,0.086889,0.050997,0.048374,0.164178,0.249809,0.199165,0.140163,0.11168,0.248104,0.345797,0.181555,0.147839,0.17707,0.520531,0.20842,0.273647,0.166569,0.157374,0.468046,0.216781,0.131784,0.237826,0.203652,0.172222,0.163206,0.342436,0.253632,0.222903,0.383841,0.244658,0.254391,0.242506,0.205121,0.488693,0.478425,0.24854,0.328888,0.315607,0.366398,0.164413,0.337656,0.315949,0.233267,0.37652,0.222922,0.482783,0.326352,0.325413
1768973137.569724,1768973137.571485,111.0,0.0,4379.743652,4381.666504,4360.0,4382.820313,4379.230957,4377.563965,4381.282227,4389.102539,4375.769043,4350.384766,4459.358887,4525.256348,4405.384766,4435.897461,,,,,,,,,,,,,,,,,,,,,,,,,,,,,,,,,,,,,,,,,,,,,,,,,,,,,,,,,,,,,,,,,,,,,,
1768973137.577532,1768973137.579094,112.0,0.0,4380.256348,4379.743652,4360.256348,4378.589844,4377.692383,4373.461426,4377.436035,4387.820313,4372.563965,4345.256348,4451.282227,4515.256348,4396.153809,4427.05127,,,,,,,,,,,,,,,,,,,,,,,,,,,,,,,,,,,,,,,,,,,,,,,,,,,,,,,,,,,,,,,,,,,,,,
1768973137.585341,1768973137.586902,113.0,0.0,4381.410156,4379.871582,4362.05127,4383.717773,4380.128418,4381.025879,4382.820313,4393.333496,4374.871582,4350.512695,4452.179688,4519.871582,4397.692383,4428.846191,,,,,,,,,,,,,,,,,,,,,,,,,,,,,,,,,,,,,,,,,,,,,,,,,,,,,,,,,,,,,,,,,,,,,,
1768973137.593149,1768973137.594611,114.0,0.0,4384.102539,4385.128418,4364.102539,4391.538574,4383.461426,4389.615234,4390.128418,4390.769043,4374.743652,4352.436035,4461.025879,4526.666504,4401.922852,4434.871582,,,,,,,,,,,,,,,,,,,,,,,,,,,,,,,,,,,,,,,,,,,,,,,,,,,,,,,,,,,,,,,,,,,,,,
1768973137.600958,1768973137.602419,115.0,0.0,4383.717773,4384.230957,4360.897461,4389.102539,4382.94873,4381.922852,4381.794922,4382.692383,4370.256348,4349.615234,4462.307617,4522.692383,4399.102539,4430.897461,,,,,,,,,,,,,,,,,,,,,,,,,,,,,,,,,,,,,,,,,,,,,,,,,,,,,,,,,,,,,,,,,,,,,,
1768973137.608766,1768973137.610028,116.0,0.0,4379.615234,4375.256348,4356.794922,4381.538574,4381.282227,4372.436035,4370.128418,4381.538574,4368.974121,4353.077148,4452.179688,4517.05127,4394.743652,4423.077148,,,,,,,,,,,,,,,,,,,,,,,,,,,,,,,,,,,,,,,,,,,,,,,,,,,,,,,,,,,,,,,,,,,,,,
1768973137.616575,1768973137.617836,117.0,0.0,4379.487305,4373.717773,4360.769043,4382.563965,4381.282227,4378.974121,4374.230957,4384.743652,4372.94873,4352.692383,4451.153809,4519.487305,4396.282227,4425.384766,,,,,,,,,,,,,,,,,,,,,,,,,,,,,,,,,,,,,,,,,,,,,,,,,,,,,,,,,,,,,,,,,,,,,,
1768973137.624383,1768973137.625545,118.0,0.0,4385.769043,4379.230957,4362.692383,4384.230957,4379.102539,4382.820313,4376.666504,4385.256348,4374.102539,4342.436035,4458.333496,4523.461426,4398.846191,4430.641113,,,,,,,,,,,,,,,,,,,,,,,,,,,,,,,,,,,,,,,,,,,,,,,,,,,,,,,,,,,,,,,,,,,,,,
1768973137.632192,1768973137.633353,119.0,0.0,4383.461426,4375.897461,4353.974121,4379.487305,4377.820313,4373.717773,4370.128418,4383.077148,4370.769043,4340.256348,4450.897461,4520.128418,4396.666504,4426.922852,,,,,,,,,,,,,,,,,,,,,,,,,,,,,,,,,,,,,,,,,,,,,,,,,,,,,,,,,,,,,,,,,,,,,,
1768973137.64,1768973137.640962,120.0,0.0,4373.077148,4370.512695,4350.384766,4378.974121,4378.077148,4374.871582,4373.974121,4380.256348,4370.128418,4349.871582,4445.769043,4514.230957,4395.897461,4422.563965,,,,,,,,,,,,,,,,,,,,,,,,,,,,,,,,,,,,,,,,,,,,,,,,,,,,,,,,,,,,,,,,,,,,,,
1768973137.647808,1768973137.64877,121.0,0.0,4374.102539,4375.897461,4357.692383,4382.692383,4377.05127,4383.461426,4380.769043,4381.410156,4374.487305,4353.589844,4454.871582,4514.743652,4396.666504,4426.410156,,,,,,,,,,,,,,,,,,,,,,,,,,,,,,,,,,,,,,,,,,,,,,,,,,,,,,,,,,,,,,,,,,,,,,
1768973137.655617,1768973137.656679,122.0,0.0,4382.692383,4385.512695,4362.179688,4383.077148,4376.153809,4383.589844,4381.922852,4383.589844,4373.974121,4345.128418,4453.461426,4514.102539,4395.128418,4430.0,,,,,,,,,,,,,,,,,,,,,,,,,,,,,,,,,,,,,,,,,,,,,,,,,,,,,,,,,,,,,,,,,,,,,,
1768973137.663425,1768973137.664487,123.0,0.0,4382.820313,4388.333496,4363.589844,4382.820313,4375.641113,4385.128418,4385.128418,4381.410156,4369.871582,4340.512695,4445.512695,4505.384766,4395.384766,4429.102539,,,,,,,,,,,,,,,,,,,,,,,,,,,,,,,,,,,,,,,,,,,,,,,,,,,,,,,,,,,,,,,,,,,,,,
1768973137.671234,1768973137.672495,124.0,0.0,4381.794922,4385.128418,4364.743652,4382.436035,4373.717773,4389.615234,4385.512695,4384.743652,4374.871582,4346.025879,4455.0,4507.179688,4398.077148,4429.358887,,,,,,,,,,,,,,,,,,,,,,,,,,,,,,,,,,,,,,,,,,,,,,,,,,,,,,,,,,,,,,,,,,,,,,
1768973137.679042,1768973137.680304,125.0,0.0,4381.922852,4384.743652,4361.025879,4380.897461,4372.179688,4388.205078,4385.256348,4391.410156,4382.94873,4349.871582,4463.333496,4517.436035,4397.563965,4429.230957,,,,,,,,,,,,,,,,,,,,,,,,,,,,,,,,,,,,,,,,,,,,,,,,,,,,,,,,,,,,,,,,,,,,,,
1768973137.686851,1768973137.688212,126.0,0.0,4376.666504,4392.563965,4360.0,4380.384766,4373.589844,4384.743652,4385.641113,4388.205078,4376.922852,4349.230957,4460.128418,4516.153809,4401.666504,4428.205078,0.488216,0.488756,0.265782,0.275681,0.121436,0.779781,0.504172,0.339097,0.169677,0.081322,0.24844,0.39292,0.192159,0.138474,0.078705,0.541702,0.234513,0.126389,0.100496,0.069674,0.215606,0.169937,0.090844,0.062243,0.046652,0.188579,0.203814,0.17634,0.132727,0.118119,0.193742,0.337333,0.172684,0.136518,0.167734,0.429066,0.18945,0.308305,0.173307,0.165073,0.351448,0.199561,0.129208,0.250217,0.228869,0.122303,0.139935,0.308539,0.278786,0.242718,0.259536,0.205524,0.232103,0.23472,0.210214,0.40793,0.518743,0.292786,0.336341,0.333885,0.370251,0.172343,0.334734,0.320129,0.246293,0.442958,0.248149,0.453766,0.356812,0.352253
1768973137.694659,1768973137.696021,127.0,0.0,4377.94873,4398.589844,4364.102539,4382.05127,4376.666504,4387.179688,4383.461426,4380.512695,4365.384766,4353.333496,4459.358887,4512.307617,4404.743652,4429.487305,,,,,,,,,,,,,,,,,,,,,,,,,,,,,,,,,,,,,,,,,,,,,,,,,,,,,,,,,,,,,,,,,,,,,,
1768973137.702468,1768973137.703629,0.0,0.0,4386.794922,4397.563965,4363.333496,4384.102539,4378.461426,4384.102539,4375.897461,4379.871582,4366.794922,4352.563965,4458.589844,4514.487305,4400.641113,4429.871582,,,,,,,,,,,,,,,,,,,,,,,,,,,,,,,,,,,,,,,,,,,,,,,,,,,,,,,,,,,,,,,,,,,,,,
1768973137.710276,1768973137.711438,1.0,0.0,4389.230957,4397.94873,4360.384766,4388.974121,4380.0,4376.922852,4369.615234,4384.102539,4373.589844,4343.974121,4458.589844,4516.282227,4405.128418,4430.897461,,,,,,,,,,,,,,,,,,,,,,,,,,,,,,,,,,,,,,,,,,,,,,,,,,,,,,,,,,,,,,,,,,,,,,
1768973137.718084,1768973137.719146,2.0,0.0,4384.230957,4398.974121,4361.922852,4390.641113,4380.0,4381.282227,4376.666504,4386.794922,4374.230957,4349.102539,4461.410156,4516.538574,4413.205078,4430.256348,,,,,,,,,,,,,,,,,,,,,,,,,,,,,,,,,,,,,,,,,,,,,,,,,,,,,,,,,,,,,,,,,,,,,,
1768973137.725893,1768973137.726955,3.0,0.0,4382.179688,4392.94873,4362.563965,4382.563965,4376.666504,4386.922852,4384.743652,4388.333496,4373.205078,4360.512695,4461.153809,4522.94873,4410.769043,4427.692383,,,,,,,,,,,,,,,,,,,,,,,,,,,,,,,,,,,,,,,,,,,,,,,,,,,,,,,,,,,,,,,,,,,,,,
1768973137.733701,1768973137.734963,4.0,0.0,4387.179688,4391.025879,4360.256348,4381.922852,4374.871582,4382.563965,4378.846191,4386.794922,4373.846191,4359.487305,4461.922852,4528.333496,4411.538574,4431.666504,,,,,,,,,,,,,,,,,,,,,,,,,,,,,,,,,,,,,,,,,,,,,,,,,,,,,,,,,,,,,,,,,,,,,,
1768973137.74151,1768973137.742771,5.0,0.0,4388.974121,4397.820313,4359.102539,4390.641113,4377.436035,4377.05127,4372.179688,4381.410156,4371.922852,4353.077148,4461.538574,4521.153809,4413.333496,4435.256348,,,,,,,,,,,,,,,,,,,,,,,,,,,,,,,,,,,,,,,,,,,,,,,,,,,,,,,,,,,,,,,,,,,,,,
1768973137.749318,1768973137.75048,6.0,0.0,4385.128418,4400.512695,4360.897461,4393.077148,4377.179688,4378.205078,4376.794922,4382.05127,4372.563965,4352.563965,4458.717773,4516.410156,4405.641113,4431.410156,,,,,,,,,,,,,,,,,,,,,,,,,,,,,,,,,,,,,,,,,,,,,,,,,,,,,,,,,,,,,,,,,,,,,,
1768973137.757127,1768973137.758288,7.0,0.0,4381.410156,4396.410156,4361.666504,4386.153809,4372.436035,4380.384766,4380.512695,4388.461426,4378.205078,4353.461426,4459.358887,4519.230957,4404.615234,4428.205078,,,,,,,,,,,,,,,,,,,,,,,,,,,,,,,,,,,,,,,,,,,,,,,,,,,,,,,,,,,,,,,,,,,,,,
1768973137.764935,1768973137.765897,8.0,0.0,4380.512695,4392.563965,4359.230957,4381.153809,4371.282227,4377.563965,4374.102539,4389.358887,4378.077148,4355.512695,4460.128418,4516.282227,4411.666504,4428.461426,,,,,,,,,,,,,,,,,,,,,,,,,,,,,,,,,,,,,,,,,,,,,,,,,,,,,,,,,,,,,,,,,,,,,,
1768973137.772744,1768973137.773706,9.0,0.0,4384.358887,4392.94873,4360.256348,4387.307617,4376.922852,4382.563965,4378.461426,4387.436035,4375.641113,4356.922852,4460.769043,4513.205078,4412.307617,4433.077148,,,,,,,,,,,,,,,,,,,,,,,,,,,,,,,,,,,,,,,,,,,,,,,,,,,,,,,,,,,,,,,,,,,,,,
1768973137.780552,1768973137.781414,10.0,0.0,4391.282227,4395.256348,4362.692383,4391.666504,4380.256348,4394.871582,4390.897461,4392.563965,4379.743652,4353.974121,4469.358887,4522.94873,4411.666504,4441.922852,,,,,,,,,,,,,,,,,,,,,,,,,,,,,,,,,,,,,,,,,,,,,,,,,,,,,,,,,,,,,,,,,,,,,,
1768973137.78836,1768973137.789223,11.0,0.0,4389.487305,4395.769043,4358.461426,4386.794922,4377.94873,4390.641113,4385.641113,4396.410156,4386.410156,4355.897461,4475.256348,4528.717773,4413.717773,4445.897461,,,,,,,,,,,,,,,,,,,,,,,,,,,,,,,,,,,,,,,,,,,,,,,,,,,,,,,,,,,,,,,,,,,,,,
1768973137.796169,1768973137.796831,12.0,0.0,4384.615234,4396.538574,4356.410156,4387.563965,4378.846191,4380.769043,4376.025879,4388.717773,4382.05127,4360.256348,4465.512695,4520.128418,4413.589844,4440.512695,,,,,,,,,,,,,,,,,,,,,,,,,,,,,,,,,,,,,,,,,,,,,,,,,,,,,,,,,,,,,,,,,,,,,,
1768973137.803977,1768973137.80464,13.0,0.0,4393.333496,4399.230957,4365.256348,4395.128418,4382.436035,4387.563965,4382.436035,4385.897461,4374.358887,4350.769043,4459.358887,4520.769043,4411.922852,4440.769043,,,,,,,,,,,,,,,,,,,,,,,,,,,,,,,,,,,,,,,,,,,,,,,,,,,,,,,,,,,,,,,,,,,,,,
1768973137.811786,1768973137.812348,14.0,0.0,4397.94873,4399.487305,4367.94873,4392.307617,4377.563965,4389.230957,4386.025879,4390.641113,4376.410156,4339.487305,4465.256348,4528.846191,4411.025879,4444.358887,0.553741,0.502274,0.279198,0.302418,0.118427,0.756995,0.483392,0.287549,0.183507,0.066785,0.257155,0.444189,0.213769,0.161874,0.074504,0.556366,0.209113,0.135079,0.109041,0.062426,0.268847,0.209741,0.090237,0.077897,0.047048,0.228123,0.170449,0.162451,0.121008,0.129748,0.163272,0.331329,0.177747,0.124572,0.1643,0.334871,0.178459,0.337471,0.177831,0.170468,0.258109,0.192127,0.134333,0.259679,0.243069,0.101111,0.136951,0.279356,0.289119,0.257484,0.173355,0.175291,0.232013,0.218894,0.203047,0.391515,0.52732,0.34348,0.337454,0.330959,0.356891,0.177068,0.350874,0.315522,0.245571,0.477068,0.271342,0.465533,0.370605,0.349691
1768973137.819594,1768973137.820157,15.0,0.0,4390.384766,4397.563965,4361.282227,4387.94873,4370.512695,4379.615234,4377.563965,4387.820313,4379.615234,4348.461426,4464.743652,4525.512695,4408.589844,4439.358887,,,,,,,,,,,,,,,,,,,,,,,,,,,,,,,,,,,,,,,,,,,,,,,,,,,,,,,,,,,,,,,,,,,,,,
1768973137.827403,1768973137.827765,16.0,0.0,4387.94873,4399.487305,4362.94873,4392.94873,4373.974121,4380.641113,4379.358887,4384.615234,4377.820313,4361.666504,4459.487305,4519.102539,4406.538574,4432.692383,,,,,,,,,,,,,,,,,,,,,,,,,,,,,,,,,,,,,,,,,,,,,,,,,,,,,,,,,,,,,,,,,,,,,,
1768973137.835211,1768973137.835574,17.0,0.0,4385.256348,4400.641113,4365.897461,4389.871582,4380.128418,4383.974121,4384.102539,4386.794922,4373.461426,4354.230957,4459.487305,4516.153809,4401.922852,4428.077148,,,,,,,,,,,,,,,,,,,,,,,,,,,,,,,,,,,,,,,,,,,,,,,,,,,,,,,,,,,,,,,,,,,,,,
1768973137.84302,1768973137.843282,18.0,0.0,4383.589844,4402.307617,4361.794922,4384.615234,4378.461426,4381.282227,4380.256348,4386.282227,4372.820313,4346.666504,4461.538574,4515.641113,4400.256348,4430.128418,,,,,,,,,,,,,,,,,,,,,,,,,,,,,,,,,,,,,,,,,,,,,,,,,,,,,,,,,,,,,,,,,,,,,,
1768973137.850828,1768973137.851091,19.0,0.0,4392.563965,4410.512695,4362.05127,4390.897461,4377.820313,4381.922852,4380.0,4383.717773,4373.717773,4355.256348,4462.692383,4518.717773,4407.05127,4439.487305,,,,,,,,,,,,,,,,,,,,,,,,,,,,,,,,,,,,,,,,,,,,,,,,,,,,,,,,,,,,,,,,,,,,,,
1768973137.858637,1768973137.859099,20.0,0.0,4396.794922,4411.282227,4366.794922,4394.871582,4380.769043,4381.794922,4376.922852,4382.692383,4372.94873,4359.615234,4462.436035,4521.025879,4413.717773,4443.205078,,,,,,,,,,,,,,,,,,,,,,,,,,,,,,,,,,,,,,,,,,,,,,,,,,,,,,,,,,,,,,,,,,,,,,
1768973137.866445,1768973137.866907,21.0,0.0,4388.974121,4405.641113,4364.358887,4389.615234,4377.820313,4381.153809,4376.666504,4385.769043,4375.641113,4353.589844,4461.025879,4521.922852,4412.05127,4435.128418,,,,,,,,,,,,,,,,,,,,,,,,,,,,,,,,,,,,,,,,,,,,,,,,,,,,,,,,,,,,,,,,,,,,,,
1768973137.874253,1768973137.874816,22.0,0.0,4385.897461,4407.436035,4361.282227,4385.769043,4372.436035,4383.077148,4381.922852,4390.897461,4381.025879,4355.128418,4462.436035,4523.205078,4409.358887,4428.461426,,,,,,,,,,,,,,,,,,,,,,,,,,,,,,,,,,,,,,,,,,,,,,,,,,,,,,,,,,,,,,,,,,,,,,
1768973137.882062,1768973137.882624,23.0,0.0,4385.384766,4406.922852,4363.077148,4385.384766,4371.538574,4380.384766,4379.871582,4387.692383,4378.974121,4356.666504,4461.666504,4522.94873,4409.358887,4433.846191,,,,,,,,,,,,,,,,,,,,,,,,,,,,,,,,,,,,,,,,,,,,,,,,,,,,,,,,,,,,,,,,,,,,,,
1768973137.88987,1768973137.890632,24.0,0.0,4385.0,4401.538574,4362.94873,4387.307617,4373.589844,4375.384766,4378.846191,4381.922852,4372.563965,4350.384766,4463.717773,4526.410156,4410.769043,4441.410156,,,,,,,,,,,,,,,,,,,,,,,,,,,,,,,,,,,,,,,,,,,,,,,,,,,,,,,,,,,,,,,,,,,,,,
1768973137.897679,1768973137.898441,25.0,0.0,4391.538574,4406.282227,4364.358887,4391.282227,4375.128418,4377.820313,4382.307617,4387.307617,4377.563965,4358.205078,4474.358887,4532.563965,4415.0,4445.0,,,,,,,,,,,,,,,,,,,,,,,,,,,,,,,,,,,,,,,,,,,,,,,,,,,,,,,,,,,,,,,,,,,,,,
1768973137.905487,1768973137.906149,26.0,0.0,4396.666504,4412.563965,4370.256348,4392.563965,4374.871582,4383.333496,4381.922852,4390.641113,4382.820313,4368.974121,4475.897461,4530.641113,4415.256348,4442.820313,,,,,,,,,,,,,,,,,,,,,,,,,,,,,,,,,,,,,,,,,,,,,,,,,,,,,,,,,,,,,,,,,,,,,,
1768973137.913296,1768973137.913958,27.0,0.0,4397.94873,4410.512695,4372.820313,4392.820313,4374.743652,4380.897461,4379.871582,4387.820313,4381.153809,4362.05127,4466.666504,4525.128418,4413.589844,4440.897461,,,,,,,,,,,,,,,,,,,,,,,,,,,,,,,,,,,,,,,,,,,,,,,,,,,,,,,,,,,,,,,,,,,,,,
1768973137.921104,1768973137.921966,28.0,0.0,4399.102539,4406.794922,4369.743652,4396.410156,4376.794922,4379.871582,4384.487305,4390.769043,4383.077148,4357.05127,4465.641113,4527.179688,4412.94873,4444.743652,,,,,,,,,,,,,,,,,,,,,,,,,,,,,,,,,,,,,,,,,,,,,,,,,,,,,,,,,,,,,,,,,,,,,,
1768973137.928912,1768973137.929775,29.0,0.0,4394.358887,4400.256348,4366.666504,4393.717773,4377.94873,4385.512695,4384.230957,4391.025879,4382.179688,4359.871582,4466.794922,4527.820313,4407.563965,4441.666504,,,,,,,,,,,,,,,,,,,,,,,,,,,,,,,,,,,,,,,,,,,,,,,,,,,,,,,,,,,,,,,,,,,,,,
1768973137.936721,1768973137.937683,30.0,0.0,4390.512695,4399.743652,4366.025879,4386.410156,4374.102539,4380.256348,4376.794922,4384.615234,4377.94873,4357.179688,4461.794922,4520.0,4405.256348,4432.179688,0.580984,0.493671,0.287325,0.315794,0.114931,0.689574,0.437788,0.250548,0.195464,0.054447,0.258753,0.460683,0.233196,0.186806,0.072248,0.501096,0.186406,0.145221,0.117696,0.058515,0.315183,0.241124,0.085004,0.093414,0.049763,0.276546,0.152092,0.159747,0.105105,0.14502,0.159184,0.325585,0.193738,0.11162,0.169986,0.26026,0.167023,0.349006,0.180092,0.171236,0.196005,0.193245,0.143019,0.26214,0.242231,0.09994,0.148617,0.257088,0.283102,0.262072,0.133886,0.160612,0.2576,0.201957,0.188193,0.448593,0.498183,0.38479,0.334486,0.30971,0.336334,0.172395,0.390467,0.303678,0.232458,0.461955,0.289563,0.495819,0.36219,0.320868
1768973137.944529,1768973137.945491,31.0,0.0,4397.307617,4410.897461,4369.230957,4388.589844,4374.102539,4371.025879,4375.384766,4384.615234,4381.666504,4354.615234,4463.461426,4517.307617,4413.077148,4435.128418,,,,,,,,,,,,,,,,,,,,,,,,,,,,,,,,,,,,,,,,,,,,,,,,,,,,,,,,,,,,,,,,,,,,,,
1768973137.952338,1768973137.9535,32.0,0.0,4398.589844,4408.974121,4369.615234,4391.410156,4377.307617,4377.563965,4380.384766,4391.922852,4385.0,4356.538574,4465.256348,4517.94873,4413.077148,4439.615234,,,,,,,,,,,,,,,,,,,,,,,,,,,,,,,,,,,,,,,,,,,,,,,,,,,,,,,,,,,,,,,,,,,,,,
1768973137.960146,1768973137.961308,33.0,0.0,4387.179688,4395.0,4361.025879,4383.077148,4377.05127,4382.307617,4381.538574,4392.820313,4380.512695,4352.820313,4458.461426,4507.05127,4399.358887,4427.05127,,,,,,,,,,,,,,,,,,,,,,,,,,,,,,,,,,,,,,,,,,,,,,,,,,,,,,,,,,,,,,,,,,,,,,
1768973137.967955,1768973137.969017,34.0,0.0,4384.487305,4393.846191,4357.692383,4378.846191,4374.230957,4375.0,4378.589844,4386.153809,4379.358887,4350.641113,4457.05127,4500.897461,4393.461426,4419.615234,,,,,,,,,,,,,,,,,,,,,,,,,,,,,,,,,,,,,,,,,,,,,,,,,,,,,,,,,,,,,,,,,,,,,,
1768973137.975763,1768973137.976825,35.0,0.0,4396.025879,4398.846191,4363.333496,4385.512695,4374.230957,4376.153809,4379.487305,4382.692383,4382.94873,4355.641113,4460.384766,4511.922852,4400.512695,4426.794922,,,,,,,,,,,,,,,,,,,,,,,,,,,,,,,,,,,,,,,,,,,,,,,,,,,,,,,,,,,,,,,,,,,,,,
1768973137.983571,1768973137.984833,36.0,0.0,4399.102539,4396.025879,4363.589844,4387.179688,4375.897461,4380.128418,4382.179688,4386.282227,4384.102539,4360.256348,4461.666504,4520.256348,4407.307617,4431.794922,,,,,,,,,,,,,,,,,,,,,,,,,,,,,,,,,,,,,,,,,,,,,,,,,,,,,,,,,,,,,,,,,,,,,,
1768973137.99138,1768973137.992642,37.0,0.0,4388.974121,4393.205078,4359.743652,4383.461426,4375.769043,4376.282227,4383.589844,4390.384766,4387.05127,4356.666504,4463.717773,4517.94873,4404.230957,4431.153809,,,,,,,,,,,,,,,,,,,,,,,,,,,,,,,,,,,,,,,,,,,,,,,,,,,,,,,,,,,,,,,,,,,,,,
1768973137.999188,1768973138.00035,38.0,0.0,4386.666504,4395.0,4362.307617,4385.641113,4377.436035,4376.922852,4386.538574,4393.717773,4392.436035,4352.692383,4465.128418,4520.128418,4400.512695,4431.922852,,,,,,,,,,,,,,,,,,,,,,,,,,,,,,,,,,,,,,,,,,,,,,,,,,,,,,,,,,,,,,,,,,,,,,
1768973138.006997,1768973138.008159,39.0,0.0,4393.589844,4398.974121,4367.05127,4386.922852,4378.974121,4378.717773,4384.743652,4394.102539,4389.871582,4358.461426,4464.743652,4523.461426,4409.358887,4432.179688,,,,,,,,,,,,,,,,,,,,,,,,,,,,,,,,,,,,,,,,,,,,,,,,,,,,,,,,,,,,,,,,,,,,,,
1768973138.014805,1768973138.015767,40.0,0.0,4391.282227,4397.94873,4365.256348,4382.05127,4374.743652,4377.05127,4379.358887,4388.974121,4384.615234,4361.410156,4463.717773,4519.358887,4415.512695,4431.410156,,,,,,,,,,,,,,,,,,,,,,,,,,,,,,,,,,,,,,,,,,,,,,,,,,,,,,,,,,,,,,,,,,,,,,
1768973138.022614,1768973138.023576,41.0,0.0,4381.538574,4389.230957,4361.025879,4379.230957,4372.179688,4379.230957,4380.128418,4386.794922,4380.512695,4353.974121,4459.230957,4511.922852,4405.384766,4427.94873,,,,,,,,,,,,,,,,,,,,,,,,,,,,,,,,,,,,,,,,,,,,,,,,,,,,,,,,,,,,,,,,,,,,,,
1768973138.030422,1768973138.031284,42.0,0.0,4378.333496,4384.487305,4356.922852,4379.871582,4373.974121,4378.589844,4380.0,4385.641113,4374.102539,4350.897461,4455.769043,4510.641113,4400.641113,4425.256348,,,,,,,,,,,,,,,,,,,,,,,,,,,,,,,,,,,,,,,,,,,,,,,,,,,,,,,,,,,,,,,,,,,,,,
1768973138.038231,1768973138.039093,43.0,0.0,4383.333496,4392.692383,4355.128418,4380.384766,4376.410156,4370.256348,4373.333496,4382.563965,4374.615234,4355.384766,4458.717773,4513.974121,4406.410156,4428.717773,,,,,,,,,,,,,,,,,,,,,,,,,,,,,,,,,,,,,,,,,,,,,,,,,,,,,,,,,,,,,,,,,,,,,,
1768973138.046039,1768973138.046701,44.0,0.0,4388.589844,4398.717773,4360.769043,4382.05127,4378.846191,4370.897461,4375.897461,4387.05127,4381.538574,4355.769043,4461.025879,4515.897461,4405.769043,4430.641113,,,,,,,,,,,,,,,,,,,,,,,,,,,,,,,,,,,,,,,,,,,,,,,,,,,,,,,,,,,,,,,,,,,,,,
1768973138.053847,1768973138.05451,45.0,0.0,4391.153809,4392.436035,4367.820313,4385.256348,4381.666504,4380.769043,4381.922852,4391.410156,4384.615234,4358.589844,4461.794922,4519.615234,4408.077148,4429.871582,,,,,,,,,,,,,,,,,,,,,,,,,,,,,,,,,,,,,,,,,,,,,,,,,,,,,,,,,,,,,,,,,,,,,,
1768973138.061656,1768973138.062418,46.0,0.0,4387.05127,4387.692383,4365.0,4385.0,4380.641113,4382.307617,4376.666504,4386.538574,4380.384766,4361.153809,4463.589844,4524.102539,4412.179688,4431.794922,0.557209,0.455719,0.278149,0.309329,0.111785,0.611394,0.388318,0.215444,0.20506,0.047465,0.252867,0.43407,0.239811,0.204,0.072926,0.393718,0.168685,0.152063,0.123224,0.059738,0.349508,0.253728,0.078013,0.103924,0.053695,0.322493,0.147988,0.166932,0.08783,0.160412,0.174496,0.319651,0.21449,0.099404,0.182972,0.215725,0.150792,0.336151,0.17927,0.166429,0.160402,0.202714,0.151598,0.253688,0.227605,0.10934,0.161906,0.239749,0.263961,0.254525,0.130828,0.16211,0.301943,0.188483,0.172464,0.553762,0.439214,0.404748,0.326897,0.278171,0.312319,0.156203,0.4449,0.284403,0.210942,0.401189,0.305847,0.517686,0.331411,0.276591
1768973138.069464,1768973138.070227,47.0,0.0,4380.384766,4390.128418,4359.871582,4381.666504,4375.256348,4374.743652,4370.769043,4383.589844,4374.871582,4354.487305,4460.128418,4520.256348,4406.025879,4427.436035,,,,,,,,,,,,,,,,,,,,,,,,,,,,,,,,,,,,,,,,,,,,,,,,,,,,,,,,,,,,,,,,,,,,,,
1768973138.077273,1768973138.078235,48.0,0.0,4381.922852,4388.461426,4364.871582,4380.128418,4371.666504,4370.897461,4373.589844,4386.153809,4374.487305,4351.410156,4457.05127,4516.794922,4403.717773,4419.230957,,,,,,,,,,,,,,,,,,,,,,,,,,,,,,,,,,,,,,,,,,,,,,,,,,,,,,,,,,,,,,,,,,,,,,
1768973138.085081,1768973138.086043,49.0,0.0,4382.307617,4379.743652,4365.769043,4379.487305,4373.461426,4378.974121,4377.94873,4388.717773,4379.871582,4356.025879,4461.538574,4522.94873,4407.307617,4421.794922,,,,,,,,,,,,,,,,,,,,,,,,,,,,,,,,,,,,,,,,,,,,,,,,,,,,,,,,,,,,,,,,,,,,,,
1768973138.09289,1768973138.093952,50.0,0.0,4374.871582,4371.410156,4357.563965,4373.846191,4374.743652,4382.05127,4381.538574,4391.922852,4381.025879,4353.333496,4460.384766,4523.974121,4400.0,4426.666504,,,,,,,,,,,,,,,,,,,,,,,,,,,,,,,,,,,,,,,,,,,,,,,,,,,,,,,,,,,,,,,,,,,,,,
1768973138.100698,1768973138.10176,51.0,0.0,4374.230957,4368.461426,4355.256348,4368.077148,4370.256348,4374.743652,4380.256348,4392.692383,4378.717773,4343.077148,4452.307617,4515.769043,4391.666504,4422.179688,,,,,,,,,,,,,,,,,,,,,,,,,,,,,,,,,,,,,,,,,,,,,,,,,,,,,,,,,,,,,,,,,,,,,,
1768973138.108507,1768973138.109369,52.0,0.0,4382.179688,4375.0,4361.025879,4373.077148,4369.358887,4369.487305,4372.436035,4392.05127,4383.205078,4348.589844,4454.615234,4518.077148,4401.153809,4422.179688,,,,,,,,,,,,,,,,,,,,,,,,,,,,,,,,,,,,,,,,,,,,,,,,,,,,,,,,,,,,,,,,,,,,,,
1768973138.116315,1768973138.117177,53.0,0.0,4384.230957,4383.974121,4362.820313,4382.05127,4374.358887,4371.538574,4373.461426,4388.589844,4383.974121,4360.769043,4461.922852,4525.897461,4412.307617,4429.743652,,,,,,,,,,,,,,,,,,,,,,,,,,,,,,,,,,,,,,,,,,,,,,,,,,,,,,,,,,,,,,,,,,,,,,
1768973138.124123,1768973138.125086,54.0,0.0,4381.538574,4382.307617,4359.871582,4382.94873,4375.256348,4375.256348,4380.769043,4385.384766,4378.333496,4360.512695,4460.897461,4524.871582,4409.871582,4431.794922,,,,,,,,,,,,,,,,,,,,,,,,,,,,,,,,,,,,,,,,,,,,,,,,,,,,,,,,,,,,,,,,,,,,,,
1768973138.131932,1768973138.132894,55.0,0.0,4382.563965,4374.358887,4359.230957,4378.974121,4373.077148,4372.563965,4376.794922,4387.307617,4379.615234,4355.641113,4457.94873,4518.205078,4401.794922,4428.717773,,,,,,,,,,,,,,,,,,,,,,,,,,,,,,,,,,,,,,,,,,,,,,,,,,,,,,,,,,,,,,,,,,,,,,
1768973138.13974,1768973138.140902,56.0,0.0,4382.563965,4372.179688,4361.153809,4380.769043,4374.230957,4369.230957,4369.102539,4387.692383,4383.717773,4356.410156,4459.230957,4513.589844,4402.307617,4427.94873,,,,,,,,,,,,,,,,,,,,,,,,,,,,,,,,,,,,,,,,,,,,,,,,,,,,,,,,,,,,,,,,,,,,,,
1768973138.147549,1768973138.148711,57.0,0.0,4381.153809,4372.94873,4359.871582,4383.461426,4374.871582,4371.282227,4370.256348,4380.769043,4377.820313,4356.282227,4457.94873,4509.615234,4404.615234,4427.820313,,,,,,,,,,,,,,,,,,,,,,,,,,,,,,,,,,,,,,,,,,,,,,,,,,,,,,,,,,,,,,,,,,,,,,
1768973138.155357,1768973138.156419,58.0,0.0,4380.0,4371.410156,4359.487305,4381.794922,4375.384766,4373.205078,4373.846191,4379.743652,4371.025879,4353.333496,4456.794922,4506.538574,4400.769043,4427.179688,,,,,,,,,,,,,,,,,,,,,,,,,,,,,,,,,,,,,,,,,,,,,,,,,,,,,,,,,,,,,,,,,,,,,,
1768973138.163166,1768973138.164228,59.0,0.0,4380.769043,4372.820313,4364.230957,4385.256348,4379.615234,4371.666504,4375.256348,4387.436035,4378.077148,4357.05127,4460.512695,4511.282227,4405.128418,4428.333496,,,,,,,,,,,,,,,,,,,,,,,,,,,,,,,,,,,,,,,,,,,,,,,,,,,,,,,,,,,,,,,,,,,,,,
1768973138.170974,1768973138.171836,60.0,0.0,4380.128418,4374.487305,4365.641113,4387.05127,4383.077148,4375.384766,4378.717773,4387.94873,4382.179688,4359.743652,4460.384766,4518.461426,4412.94873,4429.615234,,,,,,,,,,,,,,,,,,,,,,,,,,,,,,,,,,,,,,,,,,,,,,,,,,,,,,,,,,,,,,,,,,,,,,
1768973138.178783,1768973138.179645,61.0,0.0,4374.230957,4372.94873,4360.641113,4381.153809,4379.615234,4379.743652,4378.461426,4383.077148,4373.974121,4357.179688,4458.974121,4516.922852,4407.436035,4426.922852,,,,,,,,,,,,,,,,,,,,,,,,,,,,,,,,,,,,,,,,,,,,,,,,,,,,,,,,,,,,,,,,,,,,,,
1768973138.186591,1768973138.187553,62.0,0.0,4370.769043,4372.05127,4355.897461,4378.205078,4375.641113,4375.384766,4373.974121,4382.820313,4371.282227,4356.153809,4457.94873,4510.897461,4397.307617,4421.025879,0.486699,0.39364,0.253643,0.284773,0.110608,0.577224,0.352672,0.176202,0.211922,0.047209,0.238543,0.372137,0.228624,0.205394,0.076155,0.268296,0.154841,0.15358,0.12344,0.066174,0.366954,0.243235,0.074531,0.10628,0.057091,0.354973,0.154616,0.179256,0.073757,0.172228,0.197302,0.315781,0.233421,0.090838,0.197883,0.201511,0.132939,0.300139,0.174122,0.156449,0.145408,0.220424,0.157342,0.233118,0.204316,0.12717,0.16449,0.222911,0.237613,0.237616,0.145525,0.17877,0.34778,0.178487,0.160977,0.654888,0.376327,0.398934,0.310845,0.245455,0.306415,0.133699,0.495429,0.257508,0.185819,0.312947,0.327824,0.515725,0.284465,0.231017
1768973138.194399,1768973138.195362,63.0,0.0,4372.436035,4374.230957,4352.563965,4380.256348,4376.922852,4372.436035,4372.05127,4382.05127,4375.384766,4354.358887,4449.487305,4508.205078,4398.974121,4417.05127,,,,,,,,,,,,,,,,,,,,,,,,,,,,,,,,,,,,,,,,,,,,,,,,,,,,,,,,,,,,,,,,,,,,,,
1768973138.202208,1768973138.20297,64.0,0.0,4373.077148,4371.922852,4354.230957,4380.0,4378.461426,4370.128418,4371.410156,4378.846191,4373.717773,4350.512695,4447.820313,4507.05127,4404.230957,4418.717773,,,,,,,,,,,,,,,,,,,,,,,,,,,,,,,,,,,,,,,,,,,,,,,,,,,,,,,,,,,,,,,,,,,,,,
1768973138.210016,1768973138.210779,65.0,0.0,4370.641113,4366.538574,4359.102539,4378.077148,4375.384766,4371.410156,4375.384766,4383.077148,4371.538574,4348.717773,4454.230957,4508.077148,4400.897461,4418.589844,,,,,,,,,,,,,,,,,,,,,,,,,,,,,,,,,,,,,,,,,,,,,,,,,,,,,,,,,,,,,,,,,,,,,,
1768973138.217825,1768973138.218487,66.0,0.0,4373.461426,4367.820313,4360.769043,4381.538574,4371.666504,4376.794922,4381.282227,4388.717773,4373.846191,4349.615234,4450.641113,4511.025879,4399.487305,4418.589844,,,,,,,,,,,,,,,,,,,,,,,,,,,,,,,,,,,,,,,,,,,,,,,,,,,,,,,,,,,,,,,,,,,,,,
1768973138.225633,1768973138.226296,67.0,0.0,4380.128418,4374.358887,4364.102539,4386.794922,4373.333496,4375.128418,4379.102539,4383.717773,4373.717773,4348.077148,4451.025879,4511.410156,4405.384766,4424.102539,,,,,,,,,,,,,,,,,,,,,,,,,,,,,,,,,,,,,,,,,,,,,,,,,,,,,,,,,,,,,,,,,,,,,,
1768973138.233442,1768973138.233904,68.0,0.0,4381.794922,4377.820313,4365.641113,4388.077148,4377.179688,4371.794922,4373.589844,4379.230957,4370.512695,4344.743652,4456.794922,4509.743652,4404.358887,4422.05127,,,,,,,,,,,,,,,,,,,,,,,,,,,,,,,,,,,,,,,,,,,,,,,,,,,,,,,,,,,,,,,,,,,,,,
1768973138.24125,1768973138.241713,69.0,0.0,4379.743652,4377.307617,4358.461426,4386.794922,4377.563965,4368.077148,4369.102539,4379.615234,4368.846191,4346.922852,4449.487305,4508.205078,4396.282227,4414.871582,,,,,,,,,,,,,,,,,,,,,,,,,,,,,,,,,,,,,,,,,,,,,,,,,,,,,,,,,,,,,,,,,,,,,,
1768973138.249059,1768973138.249421,70.0,0.0,4380.641113,4378.846191,4356.025879,4387.692383,4374.358887,4363.717773,4365.128418,4381.666504,4372.307617,4351.794922,4448.846191,4509.230957,4402.436035,4420.897461,,,,,,,,,,,,,,,,,,,,,,,,,,,,,,,,,,,,,,,,,,,,,,,,,,,,,,,,,,,,,,,,,,,,,,
1768973138.256867,1768973138.25723,71.0,0.0,4383.205078,4381.025879,4363.589844,4388.205078,4371.666504,4368.717773,4367.307617,4380.128418,4368.974121,4345.0,4457.692383,4508.846191,4410.769043,4429.487305,,,,,,,,,,,,,,,,,,,,,,,,,,,,,,,,,,,,,,,,,,,,,,,,,,,,,,,,,,,,,,,,,,,,,,
1768973138.264676,1768973138.265238,72.0,0.0,4380.0,4377.563965,4363.077148,4386.538574,4372.94873,4377.563965,4373.717773,4381.153809,4366.410156,4337.307617,4449.871582,4508.077148,4399.743652,4420.512695,,,,,,,,,,,,,,,,,,,,,,,,,,,,,,,,,,,,,,,,,,,,,,,,,,,,,,,,,,,,,,,,,,,,,,
1768973138.272484,1768973138.273047,73.0,0.0,4376.025879,4376.153809,4353.589844,4387.436035,4375.0,4376.794922,4373.205078,4387.05127,4373.717773,4346.153809,4441.794922,4508.717773,4393.333496,4411.922852,,,,,,,,,,,,,,,,,,,,,,,,,,,,,,,,,,,,,,,,,,,,,,,,,,,,,,,,,,,,,,,,,,,,,,
1768973138.280292,1768973138.280955,74.0,0.0,4379.615234,4383.717773,4354.743652,4386.922852,4374.358887,4376.025879,4370.512695,4381.666504,4368.205078,4354.871582,4449.615234,4508.205078,4404.102539,4419.358887,,,,,,,,,,,,,,,,,,,,,,,,,,,,,,,,,,,,,,,,,,,,,,,,,,,,,,,,,,,,,,,,,,,,,,
1768973138.288101,1768973138.288763,75.0,0.0,4385.641113,4391.666504,4364.102539,4388.846191,4375.128418,4382.436035,4373.077148,4373.333496,4357.05127,4352.436035,4453.974121,4509.487305,4407.692383,4426.538574,,,,,,,,,,,,,,,,,,,,,,,,,,,,,,,,,,,,,,,,,,,,,,,,,,,,,,,,,,,,,,,,,,,,,,
1768973138.295909,1768973138.296772,76.0,0.0,4385.0,4393.461426,4365.641113,4395.256348,4378.333496,4383.333496,4374.615234,4379.743652,4366.025879,4352.307617,4456.410156,4515.512695,4403.846191,4430.256348,,,,,,,,,,,,,,,,,,,,,,,,,,,,,,,,,,,,,,,,,,,,,,,,,,,,,,,,,,,,,,,,,,,,,,
1768973138.303718,1768973138.30458,77.0,0.0,4383.205078,4393.974121,4361.922852,4394.230957,4377.94873,4381.282227,4375.256348,4387.820313,4375.128418,4358.589844,4461.153809,4515.769043,4408.589844,4432.436035,,,,,,,,,,,,,,,,,,,,,,,,,,,,,,,,,,,,,,,,,,,,,,,,,,,,,,,,,,,,,,,,,,,,,,
1768973138.311526,1768973138.312289,78.0,0.0,4387.05127,4390.256348,4360.384766,4388.846191,4376.666504,4382.179688,4375.512695,4385.641113,4372.179688,4363.589844,4461.153809,4511.666504,4414.358887,4428.974121,0.390235,0.322141,0.226329,0.250876,0.113827,0.609008,0.336325,0.137231,0.216358,0.053681,0.219796,0.294978,0.205488,0.190565,0.080992,0.161593,0.14508,0.153316,0.119014,0.07643,0.363583,0.213854,0.078346,0.100793,0.058498,0.365132,0.166707,0.190809,0.066616,0.178314,0.21661,0.318376,0.246196,0.088065,0.208261,0.205237,0.121019,0.24966,0.16605,0.142587,0.144824,0.244772,0.160092,0.204566,0.178873,0.157126,0.152087,0.206827,0.210879,0.218392,0.167166,0.20821,0.377074,0.170746,0.155115,0.715894,0.339326,0.374368,0.285033,0.217983,0.330253,0.115977,0.524171,0.227045,0.16265,0.22494,0.363669,0.493478,0.235054,0.195629
1768973138.319335,1768973138.320097,79.0,0.0,4390.384766,4387.436035,4362.05127,4392.563965,4379.871582,4384.871582,4376.025879,4386.025879,4378.974121,4365.512695,4463.846191,4516.025879,4414.358887,4429.358887,,,,,,,,,,,,,,,,,,,,,,,,,,,,,,,,,,,,,,,,,,,,,,,,,,,,,,,,,,,,,,,,,,,,,,
1768973138.327143,1768973138.328105,80.0,0.0,4391.153809,4392.692383,4364.358887,4398.974121,4381.282227,4385.897461,4377.179688,4388.974121,4386.153809,4362.820313,4466.666504,4522.307617,4414.358887,4440.897461,,,,,,,,,,,,,,,,,,,,,,,,,,,,,,,,,,,,,,,,,,,,,,,,,,,,,,,,,,,,,,,,,,,,,,
1768973138.334952,1768973138.335914,81.0,0.0,4389.358887,4394.487305,4365.641113,4395.0,4377.436035,4380.769043,4374.615234,4386.025879,4380.256348,4362.94873,4463.077148,4522.179688,4414.871582,4445.384766,,,,,,,,,,,,,,,,,,,,,,,,,,,,,,,,,,,,,,,,,,,,,,,,,,,,,,,,,,,,,,,,,,,,,,
1768973138.34276,1768973138.343722,82.0,0.0,4383.974121,4382.94873,4366.922852,4388.077148,4375.384766,4380.128418,4374.358887,4383.717773,4378.333496,4365.641113,4459.615234,4519.487305,4412.179688,4432.820313,,,,,,,,,,,,,,,,,,,,,,,,,,,,,,,,,,,,,,,,,,,,,,,,,,,,,,,,,,,,,,,,,,,,,,
1768973138.350568,1768973138.351531,83.0,0.0,4380.641113,4373.333496,4366.025879,4387.563965,4373.846191,4379.871582,4375.641113,4382.179688,4376.666504,4360.256348,4456.282227,4517.436035,4409.487305,4423.846191,,,,,,,,,,,,,,,,,,,,,,,,,,,,,,,,,,,,,,,,,,,,,,,,,,,,,,,,,,,,,,,,,,,,,,
1768973138.358377,1768973138.359139,84.0,0.0,4382.94873,4376.922852,4363.333496,4387.05127,4371.153809,4372.692383,4372.307617,4379.358887,4372.05127,4354.102539,4457.05127,4519.358887,4410.641113,4432.307617,,,,,,,,,,,,,,,,,,,,,,,,,,,,,,,,,,,,,,,,,,,,,,,,,,,,,,,,,,,,,,,,,,,,,,
1768973138.366185,1768973138.366948,85.0,0.0,4382.692383,4381.538574,4364.102539,4384.230957,4373.333496,4370.512695,4368.717773,4380.641113,4374.358887,4357.563965,4463.205078,4525.128418,4413.974121,4442.436035,,,,,,,,,,,,,,,,,,,,,,,,,,,,,,,,,,,,,,,,,,,,,,,,,,,,,,,,,,,,,,,,,,,,,,
1768973138.373994,1768973138.374656,86.0,0.0,4383.205078,4381.410156,4367.563965,4386.538574,4376.410156,4377.05127,4373.717773,4383.974121,4381.153809,4362.307617,4466.666504,4532.563965,4413.205078,4440.256348,,,,,,,,,,,,,,,,,,,,,,,,,,,,,,,,,,,,,,,,,,,,,,,,,,,,,,,,,,,,,,,,,,,,,,
1768973138.381802,1768973138.382465,87.0,0.0,4392.05127,4387.563965,4370.897461,4394.615234,4379.102539,4380.384766,4378.974121,4383.333496,4382.563965,4363.333496,4468.717773,4534.102539,4412.692383,4436.794922,,,,,,,,,,,,,,,,,,,,,,,,,,,,,,,,,,,,,,,,,,,,,,,,,,,,,,,,,,,,,,,,,,,,,,
1768973138.389611,1768973138.390473,88.0,0.0,4396.794922,4397.820313,4372.692383,4398.461426,4382.820313,4380.384766,4378.974121,4380.641113,4379.871582,4366.666504,4474.358887,4532.692383,4417.436035,4442.436035,,,,,,,,,,,,,,,,,,,,,,,,,,,,,,,,,,,,,,,,,,,,,,,,,,,,,,,,,,,,,,,,,,,,,,
1768973138.397419,1768973138.398281,89.0,0.0,4390.512695,4396.922852,4369.615234,4396.538574,4381.922852,4382.436035,4382.94873,4382.692383,4381.538574,4367.307617,4476.025879,4531.794922,4419.358887,4446.282227,,,,,,,,,,,,,,,,,,,,,,,,,,,,,,,,,,,,,,,,,,,,,,,,,,,,,,,,,,,,,,,,,,,,,,
1768973138.405228,1768973138.40599,90.0,0.0,4385.384766,4384.871582,4365.512695,4391.538574,4376.538574,4378.077148,4379.743652,4388.846191,4384.743652,4361.922852,4474.487305,4530.897461,4418.717773,4441.410156,,,,,,,,,,,,,,,,,,,,,,,,,,,,,,,,,,,,,,,,,,,,,,,,,,,,,,,,,,,,,,,,,,,,,,
1768973138.413036,1768973138.413798,91.0,0.0,4386.282227,4378.846191,4364.743652,4388.333496,4377.179688,4374.487305,4372.307617,4391.025879,4383.077148,4361.025879,4472.94873,4530.128418,4419.615234,4442.436035,,,,,,,,,,,,,,,,,,,,,,,,,,,,,,,,,,,,,,,,,,,,,,,,,,,,,,,,,,,,,,,,,,,,,,
1768973138.420844,1768973138.421407,92.0,0.0,4392.05127,4383.077148,4366.922852,4390.769043,4378.589844,4381.410156,4377.94873,4383.846191,4377.692383,4363.846191,4468.205078,4526.153809,4417.05127,4445.256348,,,,,,,,,,,,,,,,,,,,,,,,,,,,,,,,,,,,,,,,,,,,,,,,,,,,,,,,,,,,,,,,,,,,,,
1768973138.428653,1768973138.429215,93.0,0.0,4395.0,4382.820313,4370.256348,4390.769043,4373.717773,4382.563965,4384.102539,4379.743652,4377.179688,4360.641113,4462.436035,4524.358887,4411.666504,4437.563965,,,,,,,,,,,,,,,,,,,,,,,,,,,,,,,,,,,,,,,,,,,,,,,,,,,,,,,,,,,,,,,,,,,,,,
1768973138.436461,1768973138.436924,94.0,0.0,4391.794922,4373.974121,4373.333496,4390.128418,4374.615234,4376.538574,4378.461426,4385.769043,4386.025879,4356.922852,4462.179688,4527.563965,4411.794922,4434.487305,0.29337,0.260343,0.211712,0.217295,0.122625,0.68467,0.329104,0.108121,0.219867,0.065876,0.199414,0.224006,0.180847,0.165489,0.0862,0.093321,0.141423,0.156743,0.11184,0.087837,0.338337,0.175982,0.089988,0.090339,0.057427,0.350437,0.181074,0.196843,0.067994,0.178609,0.225304,0.325851,0.24926,0.09202,0.209289,0.21378,0.119013,0.195762,0.158419,0.126846,0.154183,0.271171,0.158762,0.175044,0.156523,0.197416,0.127866,0.196025,0.189347,0.204104,0.188208,0.2457,0.377335,0.163334,0.152368,0.726635,0.348998,0.346122,0.254547,0.197108,0.386464,0.113863,0.519518,0.200304,0.146514,0.163074,0.415551,0.459669,0.195394,0.174534
1768973138.44427,1768973138.444732,95.0,0.0,4394.102539,4371.922852,4376.794922,4395.897461,4379.743652,4377.692383,4373.974121,4389.358887,4390.384766,4358.974121,4468.974121,4530.128418,4414.230957,4441.666504,,,,,,,,,,,,,,,,,,,,,,,,,,,,,,,,,,,,,,,,,,,,,,,,,,,,,,,,,,,,,,,,,,,,,,
1768973138.452078,1768973138.452741,96.0,0.0,4396.666504,4374.871582,4372.563965,4395.128418,4376.410156,4378.589844,4373.974121,4384.743652,4383.846191,4363.589844,4470.897461,4526.153809,4413.077148,4444.743652,,,,,,,,,,,,,,,,,,,,,,,,,,,,,,,,,,,,,,,,,,,,,,,,,,,,,,,,,,,,,,,,,,,,,,
1768973138.459887,1768973138.460549,97.0,0.0,4388.589844,4372.692383,4365.641113,4387.436035,4371.794922,4372.94873,4374.102539,4380.256348,4378.717773,4363.846191,4462.05127,4520.641113,4412.05127,4441.025879,,,,,,,,,,,,,,,,,,,,,,,,,,,,,,,,,,,,,,,,,,,,,,,,,,,,,,,,,,,,,,,,,,,,,,
1768973138.467695,1768973138.468458,98.0,0.0,4384.487305,4371.025879,4368.589844,4388.205078,4374.358887,4373.846191,4381.025879,4383.717773,4380.0,4359.743652,4462.179688,4525.0,4412.05127,4439.615234,,,,,,,,,,,,,,,,,,,,,,,,,,,,,,,,,,,,,,,,,,,,,,,,,,,,,,,,,,,,,,,,,,,,,,
1768973138.475503,1768973138.476266,99.0,0.0,4388.333496,4370.641113,4371.282227,4391.153809,4373.717773,4375.256348,4380.641113,4390.256348,4383.333496,4359.871582,4473.589844,4531.794922,4412.563965,4440.641113,,,,,,,,,,,,,,,,,,,,,,,,,,,,,,,,,,,,,,,,,,,,,,,,,,,,,,,,,,,,,,,,,,,,,,
1768973138.483312,1768973138.484274,100.0,0.0,4388.077148,4370.769043,4365.769043,4384.615234,4370.897461,4371.025879,4370.512695,4390.256348,4384.743652,4365.641113,4476.025879,4530.128418,4413.717773,4445.128418,,,,,,,,,,,,,,,,,,,,,,,,,,,,,,,,,,,,,,,,,,,,,,,,,,,,,,,,,,,,,,,,,,,,,,
1768973138.49112,1768973138.492083,101.0,0.0,4383.974121,4373.077148,4364.743652,4380.897461,4374.743652,4377.05127,4375.641113,4387.820313,4383.846191,4362.692383,4470.512695,4524.871582,4413.589844,4441.538574,,,,,,,,,,,,,,,,,,,,,,,,,,,,,,,,,,,,,,,,,,,,,,,,,,,,,,,,,,,,,,,,,,,,,,
1768973138.498929,1768973138.499991,102.0,0.0,4378.461426,4371.410156,4366.410156,4385.0,4377.307617,4387.307617,4384.615234,4389.102539,4384.615234,4353.974121,4469.743652,4525.641113,4413.333496,4429.230957,,,,,,,,,,,,,,,,,,,,,,,,,,,,,,,,,,,,,,,,,,,,,,,,,,,,,,,,,,,,,,,,,,,,,,
1768973138.506737,1768973138.507799,103.0,0.0,4375.769043,4369.230957,4365.384766,4384.615234,4375.0,4385.512695,4380.0,4387.94873,4387.05127,4359.358887,4471.282227,4533.461426,4414.358887,4435.641113,,,,,,,,,,,,,,,,,,,,,,,,,,,,,,,,,,,,,,,,,,,,,,,,,,,,,,,,,,,,,,,,,,,,,,
1768973138.514546,1768973138.515808,104.0,0.0,4381.025879,4371.922852,4365.769043,4381.025879,4373.461426,4380.769043,4380.641113,4386.922852,4387.436035,4367.05127,4473.461426,4534.871582,4414.871582,4444.230957,,,,,,,,,,,,,,,,,,,,,,,,,,,,,,,,,,,,,,,,,,,,,,,,,,,,,,,,,,,,,,,,,,,,,,
1768973138.522354,1768973138.523616,105.0,0.0,4383.846191,4373.589844,4361.410156,4380.128418,4373.333496,4380.384766,4384.230957,4391.794922,4387.820313,4363.077148,4474.358887,4526.922852,4411.538574,4432.307617,,,,,,,,,,,,,,,,,,,,,,,,,,,,,,,,,,,,,,,,,,,,,,,,,,,,,,,,,,,,,,,,,,,,,,
1768973138.530162,1768973138.531325,106.0,0.0,4381.666504,4372.05127,4359.358887,4381.794922,4375.384766,4380.128418,4377.307617,4391.666504,4385.769043,4358.846191,4474.615234,4524.615234,4411.025879,4427.692383,,,,,,,,,,,,,,,,,,,,,,,,,,,,,,,,,,,,,,,,,,,,,,,,,,,,,,,,,,,,,,,,,,,,,,
1768973138.537971,1768973138.539133,107.0,0.0,4382.94873,4372.05127,4363.717773,4386.025879,4379.102539,4380.128418,4372.05127,4381.922852,4375.641113,4358.461426,4470.769043,4527.563965,4410.897461,4434.615234,,,,,,,,,,,,,,,,,,,,,,,,,,,,,,,,,,,,,,,,,,,,,,,,,,,,,,,,,,,,,,,,,,,,,,
1768973138.545779,1768973138.546742,108.0,0.0,4386.794922,4373.205078,4362.820313,4387.692383,4377.563965,4380.128418,4375.512695,4376.538574,4369.871582,4356.025879,4462.563965,4526.025879,4405.128418,4430.641113,,,,,,,,,,,,,,,,,,,,,,,,,,,,,,,,,,,,,,,,,,,,,,,,,,,,,,,,,,,,,,,,,,,,,,
1768973138.553588,1768973138.55455,109.0,0.0,4388.461426,4373.846191,4362.05127,4386.666504,4376.025879,4377.179688,4373.205078,4379.102539,4374.615234,4354.871582,4461.410156,4521.410156,4405.0,4426.153809,,,,,,,,,,,,,,,,,,,,,,,,,,,,,,,,,,,,,,,,,,,,,,,,,,,,,,,,,,,,,,,,,,,,,,
1768973138.561396,1768973138.562259,110.0,0.0,4388.974121,4373.846191,4365.384766,4387.307617,4378.461426,4373.333496,4370.897461,4381.410156,4377.179688,4358.974121,4463.717773,4521.794922,4409.230957,4430.512695,0.215557,0.220539,0.217665,0.189837,0.135415,0.74731,0.318593,0.096862,0.223598,0.081749,0.180825,0.172161,0.163487,0.13914,0.090817,0.062966,0.146099,0.167874,0.103944,0.097385,0.295489,0.142877,0.106195,0.078469,0.054467,0.318084,0.197722,0.19374,0.076495,0.174228,0.220673,0.332501,0.239712,0.10221,0.199288,0.213392,0.125492,0.14746,0.154379,0.111315,0.17053,0.2918,0.15403,0.151116,0.139803,0.25142,0.099683,0.193569,0.174183,0.197781,0.205418,0.282639,0.350222,0.155124,0.148894,0.692458,0.4016,0.328341,0.228524,0.180054,0.446051,0.129192,0.481116,0.183872,0.140261,0.144102,0.473671,0.421561,0.171408,0.165711
1768973138.569205,1768973138.570067,111.0,0.0,4387.307617,4375.0,4363.205078,4388.205078,4379.102539,4377.307617,4378.461426,4383.974121,4376.410156,4358.333496,4460.384766,4522.94873,4405.128418,4430.384766,,,,,,,,,,,,,,,,,,,,,,,,,,,,,,,,,,,,,,,,,,,,,,,,,,,,,,,,,,,,,,,,,,,,,,
