Timestamp,OriginalTimestamp,EEG.Counter,EEG.Interpolated,EEG.AF3,EEG.F7,EEG.F3,EEG.FC5,EEG.T7,EEG.P7,EEG.O1,EEG.O2,EEG.P8,EEG.T8,EEG.FC6,EEG.F4,EEG.F8,EEG.AF4,POW.AF3.Theta,POW.AF3.Alpha,POW.AF3.BetaL,POW.AF3.BetaH,POW.AF3.Gamma,POW.F7.Theta,POW.F7.Alpha,POW.F7.BetaL,POW.F7.BetaH,POW.F7.Gamma,POW.F3.Theta,POW.F3.Alpha,POW.F3.BetaL,POW.F3.BetaH,POW.F3.Gamma,POW.FC5.Theta,POW.FC5.Alpha,POW.FC5.BetaL,POW.FC5.BetaH,POW.FC5.Gamma,POW.T7.Theta,POW.T7.Alpha,POW.T7.BetaL,POW.T7.BetaH,POW.T7.Gamma,POW.P7.Theta,POW.P7.Alpha,POW.P7.BetaL,POW.P7.BetaH,POW.P7.Gamma,POW.O1.Theta,POW.O1.Alpha,POW.O1.BetaL,POW.O1.BetaH,POW.O1.Gamma,POW.O2.Theta,POW.O2.Alpha,POW.O2.BetaL,POW.O2.BetaH,POW.O2.Gamma,POW.P8.Theta,POW.P8.Alpha,POW.P8.BetaL,POW.P8.BetaH,POW.P8.Gamma,POW.T8.Theta,POW.T8.Alpha,POW.T8.BetaL,POW.T8.BetaH,POW.T8.Gamma,POW.FC6.Theta,POW.FC6.Alpha,POW.FC6.BetaL,POW.FC6.BetaH,POW.FC6.Gamma,POW.F4.Theta,POW.F4.Alpha,POW.F4.BetaL,POW.F4.BetaH,POW.F4.Gamma,POW.F8.Theta,POW.F8.Alpha,POW.F8.BetaL,POW.F8.BetaH,POW.F8.Gamma,POW.AF4.Theta,POW.AF4.Alpha,POW.AF4.BetaL,POW.AF4.BetaH,POW.AF4.Gamma
1769161669.703564,1769161669.704167,109.0,0.0,4295.641113,4279.358887,4342.563965,4248.974121,4262.563965,4271.666504,4270.512695,4280.641113,4278.333496,4280.641113,4588.077148,4557.692383,4431.153809,4524.487305,,,,,,,,,,,,,,,,,,,,,,,,,,,,,,,,,,,,,,,,,,,,,,,,,,,,,,,,,,,,,,,,,,,,,,
1769161669.711373,1769161669.711875,110.0,0.0,4296.666504,4278.717773,4344.230957,4247.94873,4265.384766,4274.615234,4277.179688,4285.512695,4282.05127,4280.897461,4586.410156,4553.205078,4428.846191,4524.487305,0.773585,0.97683,0.376587,0.097323,0.150775,0.930402,0.628013,0.290277,0.108313,0.105175,0.247122,0.334861,0.177436,0.109575,0.084559,0.179379,0.334696,0.165904,0.093765,0.065574,0.325184,0.070442,0.083841,0.115879,0.063455,0.432433,0.579004,0.097776,0.082849,0.11112,0.15906,0.397027,0.124233,0.05922,0.092378,0.567811,0.270811,0.168475,0.056748,0.095485,0.166291,0.153738,0.179299,0.082483,0.088068,0.263143,0.127234,0.165041,0.046904,0.070913,0.510552,0.336545,0.413185,0.086635,0.13474,0.416475,0.292753,0.270675,0.089584,0.165817,1.05804,0.488005,0.453949,0.15085,0.211084,0.672155,0.563265,0.40118,0.17023,0.223443
1769161669.719181,1769161669.719684,111.0,0.0,4294.358887,4271.794922,4342.179688,4244.358887,4262.436035,4281.666504,4278.846191,4281.538574,4277.94873,4270.641113,4574.487305,4547.94873,4422.307617,4524.230957,,,,,,,,,,,,,,,,,,,,,,,,,,,,,,,,,,,,,,,,,,,,,,,,,,,,,,,,,,,,,,,,,,,,,,
1769161669.72699,1769161669.727293,112.0,0.0,4294.230957,4271.666504,4348.205078,4244.871582,4260.897461,4280.897461,4271.282227,4276.666504,4275.0,4268.589844,4574.871582,4550.641113,4421.794922,4523.717773,,,,,,,,,,,,,,,,,,,,,,,,,,,,,,,,,,,,,,,,,,,,,,,,,,,,,,,,,,,,,,,,,,,,,,
1769161669.734798,1769161669.735101,113.0,0.0,4297.692383,4280.128418,4358.589844,4249.871582,4263.974121,4266.922852,4260.128418,4278.846191,4278.205078,4280.512695,4586.666504,4556.922852,4431.153809,4525.384766,,,,,,,,,,,,,,,,,,,,,,,,,,,,,,,,,,,,,,,,,,,,,,,,,,,,,,,,,,,,,,,,,,,,,,
1769161669.742607,1769161669.743009,114.0,0.0,4297.563965,4281.794922,4359.358887,4251.153809,4263.846191,4264.615234,4260.769043,4280.384766,4278.461426,4282.436035,4586.025879,4554.615234,4432.692383,4524.743652,,,,,,,,,,,,,,,,,,,,,,,,,,,,,,,,,,,,,,,,,,,,,,,,,,,,,,,,,,,,,,,,,,,,,,
1769161669.750415,1769161669.750818,115.0,0.0,4294.102539,4275.897461,4358.333496,4246.538574,4260.769043,4276.794922,4269.615234,4277.179688,4274.871582,4275.641113,4580.641113,4548.974121,4428.461426,4522.820313,,,,,,,,,,,,,,,,,,,,,,,,,,,,,,,,,,,,,,,,,,,,,,,,,,,,,,,,,,,,,,,,,,,,,,
1769161669.758223,1769161669.758826,116.0,0.0,4295.128418,4277.820313,4366.025879,4246.538574,4263.077148,4282.692383,4272.307617,4281.538574,4275.769043,4276.538574,4585.641113,4552.436035,4431.410156,4524.358887,,,,,,,,,,,,,,,,,,,,,,,,,,,,,,,,,,,,,,,,,,,,,,,,,,,,,,,,,,,,,,,,,,,,,,
1769161669.766032,1769161669.766635,117.0,0.0,4296.922852,4278.205078,4371.794922,4250.128418,4265.769043,4280.769043,4268.589844,4290.256348,4278.589844,4280.0,4590.384766,4557.692383,4434.743652,4526.153809,,,,,,,,,,,,,,,,,,,,,,,,,,,,,,,,,,,,,,,,,,,,,,,,,,,,,,,,,,,,,,,,,,,,,,
1769161669.77384,1769161669.774343,118.0,0.0,4291.025879,4269.615234,4372.05127,4248.717773,4262.307617,4278.589844,4263.205078,4291.666504,4279.487305,4279.743652,4585.384766,4552.436035,4431.410156,4524.871582,,,,,,,,,,,,,,,,,,,,,,,,,,,,,,,,,,,,,,,,,,,,,,,,,,,,,,,,,,,,,,,,,,,,,,
1769161669.781649,1769161669.782152,119.0,0.0,4283.461426,4264.871582,4371.666504,4244.102539,4261.153809,4278.333496,4266.025879,4291.922852,4277.05127,4275.384766,4574.358887,4541.410156,4421.282227,4517.94873,,,,,,,,,,,,,,,,,,,,,,,,,,,,,,,,,,,,,,,,,,,,,,,,,,,,,,,,,,,,,,,,,,,,,,
1769161669.789457,1769161669.78976,120.0,0.0,4281.153809,4265.512695,4372.307617,4238.333496,4260.128418,4278.846191,4268.717773,4295.512695,4268.846191,4266.922852,4568.717773,4536.922852,4417.820313,4514.102539,,,,,,,,,,,,,,,,,,,,,,,,,,,,,,,,,,,,,,,,,,,,,,,,,,,,,,,,,,,,,,,,,,,,,,
1769161669.797266,1769161669.797569,121.0,0.0,4282.820313,4265.128418,4374.102539,4231.922852,4252.307617,4275.0,4262.563965,4295.256348,4263.077148,4263.205078,4576.153809,4543.717773,4424.358887,4520.0,,,,,,,,,,,,,,,,,,,,,,,,,,,,,,,,,,,,,,,,,,,,,,,,,,,,,,,,,,,,,,,,,,,,,,
1769161669.805074,1769161669.805477,122.0,0.0,4288.974121,4263.589844,4377.94873,4229.743652,4248.205078,4268.974121,4261.410156,4294.102539,4264.615234,4265.897461,4583.077148,4554.871582,4426.794922,4523.846191,,,,,,,,,,,,,,,,,,,,,,,,,,,,,,,,,,,,,,,,,,,,,,,,,,,,,,,,,,,,,,,,,,,,,,
1769161669.812883,1769161669.813285,123.0,0.0,4294.871582,4266.282227,4386.410156,4231.666504,4252.307617,4267.94873,4263.717773,4300.0,4266.025879,4267.692383,4578.589844,4554.615234,4420.0,4521.538574,,,,,,,,,,,,,,,,,,,,,,,,,,,,,,,,,,,,,,,,,,,,,,,,,,,,,,,,,,,,,,,,,,,,,,
1769161669.820691,1769161669.821294,124.0,0.0,4288.846191,4266.025879,4393.077148,4230.897461,4252.436035,4273.333496,4265.384766,4303.077148,4263.461426,4265.256348,4571.410156,4541.410156,4412.94873,4520.769043,,,,,,,,,,,,,,,,,,,,,,,,,,,,,,,,,,,,,,,,,,,,,,,,,,,,,,,,,,,,,,,,,,,,,,
1769161669.828499,1769161669.829102,125.0,0.0,4281.025879,4262.94873,4394.743652,4230.128418,4251.794922,4277.179688,4271.666504,4298.717773,4262.179688,4262.179688,4570.384766,4537.820313,4413.077148,4523.589844,,,,,,,,,,,,,,,,,,,,,,,,,,,,,,,,,,,,,,,,,,,,,,,,,,,,,,,,,,,,,,,,,,,,,,
1769161669.836308,1769161669.83701,126.0,0.0,4286.153809,4265.0,4395.641113,4232.820313,4257.179688,4270.897461,4271.538574,4295.512695,4262.307617,4263.333496,4573.846191,4547.436035,4414.743652,4524.871582,0.813665,0.955346,0.426544,0.099295,0.148368,0.961344,0.660842,0.382864,0.120342,0.116189,0.231144,0.357659,0.188862,0.123248,0.08742,0.210567,0.397091,0.209241,0.100137,0.072588,0.325955,0.079806,0.104458,0.116233,0.06657,0.425148,0.473936,0.083889,0.072976,0.102236,0.13715,0.360444,0.123864,0.073877,0.090666,0.540715,0.278571,0.156591,0.060325,0.096717,0.214734,0.202821,0.172181,0.085099,0.086878,0.266813,0.128986,0.153609,0.042811,0.077059,0.612327,0.406329,0.41118,0.089456,0.132145,0.522957,0.356372,0.267966,0.093079,0.164103,1.128995,0.585216,0.445146,0.142321,0.195862,0.765182,0.547654,0.3451,0.185679,0.206832
1769161669.844117,1769161669.844819,127.0,0.0,4294.230957,4267.436035,4402.307617,4230.256348,4259.358887,4263.205078,4258.077148,4294.102539,4264.102539,4270.769043,4576.410156,4546.666504,4414.743652,4525.384766,,,,,,,,,,,,,,,,,,,,,,,,,,,,,,,,,,,,,,,,,,,,,,,,,,,,,,,,,,,,,,,,,,,,,,
1769161669.851925,1769161669.852827,0.0,0.0,4290.128418,4267.05127,4410.0,4222.05127,4258.205078,4266.922852,4254.743652,4293.589844,4266.922852,4273.846191,4574.871582,4540.0,4413.333496,4525.641113,,,,,,,,,,,,,,,,,,,,,,,,,,,,,,,,,,,,,,,,,,,,,,,,,,,,,,,,,,,,,,,,,,,,,,
1769161669.859733,1769161669.860636,1.0,0.0,4282.179688,4268.077148,4412.436035,4220.128418,4260.897461,4275.769043,4261.794922,4291.666504,4264.871582,4267.692383,4572.563965,4537.179688,4413.077148,4520.512695,,,,,,,,,,,,,,,,,,,,,,,,,,,,,,,,,,,,,,,,,,,,,,,,,,,,,,,,,,,,,,,,,,,,,,
1769161669.867542,1769161669.868344,2.0,0.0,4279.230957,4268.333496,4411.666504,4220.897461,4262.436035,4278.846191,4264.743652,4289.871582,4261.666504,4262.436035,4569.230957,4529.615234,4412.436035,4510.769043,,,,,,,,,,,,,,,,,,,,,,,,,,,,,,,,,,,,,,,,,,,,,,,,,,,,,,,,,,,,,,,,,,,,,,
1769161669.87535,1769161669.876153,3.0,0.0,4278.974121,4265.256348,4408.589844,4215.641113,4258.974121,4280.128418,4268.205078,4289.615234,4262.307617,4263.589844,4564.615234,4522.179688,4411.282227,4506.025879,,,,,,,,,,,,,,,,,,,,,,,,,,,,,,,,,,,,,,,,,,,,,,,,,,,,,,,,,,,,,,,,,,,,,,
1769161669.883159,1769161669.883761,4.0,0.0,4278.333496,4263.846191,4413.077148,4214.102539,4257.307617,4279.358887,4268.846191,4288.205078,4263.846191,4264.743652,4563.205078,4523.461426,4412.563965,4508.077148,,,,,,,,,,,,,,,,,,,,,,,,,,,,,,,,,,,,,,,,,,,,,,,,,,,,,,,,,,,,,,,,,,,,,,
1769161669.890967,1769161669.89157,5.0,0.0,4278.846191,4266.153809,4423.461426,4217.94873,4260.0,4277.05127,4262.94873,4282.307617,4263.205078,4262.179688,4564.743652,4523.205078,4412.820313,4506.538574,,,,,,,,,,,,,,,,,,,,,,,,,,,,,,,,,,,,,,,,,,,,,,,,,,,,,,,,,,,,,,,,,,,,,,
1769161669.898776,1769161669.899278,6.0,0.0,4280.128418,4272.563965,4427.307617,4217.820313,4262.05127,4277.563965,4262.820313,4278.846191,4264.102539,4262.692383,4564.230957,4519.871582,4412.179688,4503.205078,,,,,,,,,,,,,,,,,,,,,,,,,,,,,,,,,,,,,,,,,,,,,,,,,,,,,,,,,,,,,,,,,,,,,,
1769161669.906584,1769161669.907087,7.0,0.0,4279.358887,4278.974121,4429.615234,4217.05127,4262.820313,4277.179688,4268.077148,4281.025879,4265.256348,4263.846191,4565.384766,4523.333496,4411.666504,4506.794922,,,,,,,,,,,,,,,,,,,,,,,,,,,,,,,,,,,,,,,,,,,,,,,,,,,,,,,,,,,,,,,,,,,,,,
1769161669.914393,1769161669.914695,8.0,0.0,4280.0,4280.0,4439.230957,4218.077148,4264.615234,4277.307617,4267.307617,4281.025879,4263.461426,4262.563965,4570.128418,4525.512695,4413.077148,4511.666504,,,,,,,,,,,,,,,,,,,,,,,,,,,,,,,,,,,,,,,,,,,,,,,,,,,,,,,,,,,,,,,,,,,,,,
1769161669.922201,1769161669.922504,9.0,0.0,4289.487305,4279.487305,4447.563965,4219.615234,4265.769043,4280.128418,4266.282227,4280.128418,4263.589844,4264.102539,4570.769043,4524.358887,4413.846191,4510.641113,,,,,,,,,,,,,,,,,,,,,,,,,,,,,,,,,,,,,,,,,,,,,,,,,,,,,,,,,,,,,,,,,,,,,,
1769161669.930009,1769161669.930412,10.0,0.0,4294.743652,4280.769043,4444.230957,4219.871582,4264.487305,4279.743652,4267.692383,4280.769043,4266.666504,4266.794922,4571.153809,4529.743652,4413.333496,4508.205078,,,,,,,,,,,,,,,,,,,,,,,,,,,,,,,,,,,,,,,,,,,,,,,,,,,,,,,,,,,,,,,,,,,,,,
1769161669.937818,1769161669.938221,11.0,0.0,4287.820313,4278.205078,4446.282227,4217.94873,4263.077148,4278.333496,4267.436035,4281.282227,4267.692383,4267.820313,4572.307617,4538.846191,4418.974121,4513.589844,,,,,,,,,,,,,,,,,,,,,,,,,,,,,,,,,,,,,,,,,,,,,,,,,,,,,,,,,,,,,,,,,,,,,,
1769161669.945626,1769161669.946229,12.0,0.0,4286.025879,4275.897461,4454.871582,4215.384766,4263.974121,4279.615234,4267.179688,4282.307617,4265.897461,4272.179688,4573.589844,4541.153809,4427.436035,4521.666504,,,,,,,,,,,,,,,,,,,,,,,,,,,,,,,,,,,,,,,,,,,,,,,,,,,,,,,,,,,,,,,,,,,,,,
1769161669.953435,1769161669.954037,13.0,0.0,4293.717773,4282.820313,4460.769043,4219.230957,4263.974121,4277.563965,4266.153809,4280.384766,4266.282227,4278.717773,4577.05127,4537.692383,4430.0,4523.333496,,,,,,,,,,,,,,,,,,,,,,,,,,,,,,,,,,,,,,,,,,,,,,,,,,,,,,,,,,,,,,,,,,,,,,
1769161669.961243,1769161669.961946,14.0,0.0,4299.743652,4288.205078,4469.487305,4224.743652,4262.692383,4275.384766,4263.461426,4277.307617,4268.077148,4277.307617,4578.077148,4537.94873,4429.615234,4524.358887,0.869088,0.87394,0.460772,0.110793,0.147103,0.962893,0.67108,0.460046,0.139464,0.131691,0.269881,0.350086,0.197314,0.141382,0.090642,0.264764,0.44261,0.262825,0.112143,0.081504,0.303564,0.090974,0.130055,0.111964,0.069329,0.405565,0.376824,0.080948,0.071332,0.094976,0.11608,0.339769,0.1396,0.092848,0.094313,0.492563,0.287955,0.14238,0.062108,0.097767,0.291143,0.263594,0.170143,0.091451,0.094435,0.265983,0.133504,0.147992,0.039056,0.090034,0.714898,0.492944,0.385175,0.096995,0.133819,0.644286,0.435133,0.25059,0.103369,0.170591,1.171691,0.703447,0.426266,0.143468,0.182793,0.864075,0.53835,0.299551,0.208465,0.18867
1769161669.969052,1769161669.969754,15.0,0.0,4295.384766,4283.717773,4477.94873,4222.820313,4263.717773,4279.230957,4264.743652,4276.922852,4265.128418,4269.230957,4573.077148,4539.230957,4429.230957,4526.410156,,,,,,,,,,,,,,,,,,,,,,,,,,,,,,,,,,,,,,,,,,,,,,,,,,,,,,,,,,,,,,,,,,,,,,
1769161669.97686,1769161669.977363,16.0,0.0,4283.974121,4277.307617,4475.641113,4218.333496,4265.512695,4281.666504,4268.205078,4277.94873,4262.436035,4265.0,4570.0,4535.256348,4424.230957,4523.333496,,,,,,,,,,,,,,,,,,,,,,,,,,,,,,,,,,,,,,,,,,,,,,,,,,,,,,,,,,,,,,,,,,,,,,
1769161669.984669,1769161669.985171,17.0,0.0,4280.128418,4277.307617,4474.102539,4215.641113,4264.615234,4280.769043,4268.205078,4278.717773,4266.666504,4267.94873,4576.410156,4536.794922,4424.358887,4524.487305,,,,,,,,,,,,,,,,,,,,,,,,,,,,,,,,,,,,,,,,,,,,,,,,,,,,,,,,,,,,,,,,,,,,,,
1769161669.992477,1769161669.99288,18.0,0.0,4286.666504,4279.615234,4486.538574,4214.615234,4263.717773,4281.410156,4268.077148,4280.641113,4270.897461,4272.94873,4585.897461,4545.384766,4433.461426,4537.307617,,,,,,,,,,,,,,,,,,,,,,,,,,,,,,,,,,,,,,,,,,,,,,,,,,,,,,,,,,,,,,,,,,,,,,
1769161670.000286,1769161670.000688,19.0,0.0,4292.436035,4279.487305,4495.512695,4214.615234,4263.846191,4281.153809,4270.384766,4282.563965,4273.205078,4278.589844,4589.230957,4546.666504,4435.128418,4539.358887,,,,,,,,,,,,,,,,,,,,,,,,,,,,,,,,,,,,,,,,,,,,,,,,,,,,,,,,,,,,,,,,,,,,,,
1769161670.008094,1769161670.008696,20.0,0.0,4285.512695,4279.358887,4492.05127,4216.153809,4264.102539,4280.641113,4276.538574,4280.897461,4273.846191,4276.538574,4582.436035,4539.615234,4428.461426,4525.641113,,,,,,,,,,,,,,,,,,,,,,,,,,,,,,,,,,,,,,,,,,,,,,,,,,,,,,,,,,,,,,,,,,,,,,
1769161670.015902,1769161670.016505,21.0,0.0,4280.512695,4279.358887,4495.641113,4217.94873,4264.615234,4282.307617,4278.846191,4279.487305,4273.717773,4268.461426,4578.205078,4537.436035,4427.307617,4519.358887,,,,,,,,,,,,,,,,,,,,,,,,,,,,,,,,,,,,,,,,,,,,,,,,,,,,,,,,,,,,,,,,,,,,,,
1769161670.023711,1769161670.024413,22.0,0.0,4286.794922,4281.025879,4505.897461,4219.102539,4265.128418,4280.512695,4270.128418,4279.230957,4274.871582,4269.102539,4584.487305,4541.666504,4432.05127,4524.615234,,,,,,,,,,,,,,,,,,,,,,,,,,,,,,,,,,,,,,,,,,,,,,,,,,,,,,,,,,,,,,,,,,,,,,
1769161670.031519,1769161670.032222,23.0,0.0,4290.897461,4282.563965,4508.974121,4220.128418,4265.512695,4277.436035,4263.974121,4279.358887,4272.563965,4273.974121,4586.282227,4543.333496,4431.538574,4525.512695,,,,,,,,,,,,,,,,,,,,,,,,,,,,,,,,,,,,,,,,,,,,,,,,,,,,,,,,,,,,,,,,,,,,,,
1769161670.039328,1769161670.04023,24.0,0.0,4284.358887,4281.922852,4506.153809,4218.461426,4265.512695,4279.102539,4267.05127,4280.512695,4266.282227,4268.589844,4579.743652,4540.384766,4427.436035,4523.333496,,,,,,,,,,,,,,,,,,,,,,,,,,,,,,,,,,,,,,,,,,,,,,,,,,,,,,,,,,,,,,,,,,,,,,
1769161670.047136,1769161670.048038,25.0,0.0,4277.692383,4281.153809,4508.077148,4217.563965,4262.94873,4279.102539,4266.153809,4280.0,4263.717773,4262.94873,4576.794922,4538.589844,4426.794922,4522.563965,,,,,,,,,,,,,,,,,,,,,,,,,,,,,,,,,,,,,,,,,,,,,,,,,,,,,,,,,,,,,,,,,,,,,,
1769161670.054945,1769161670.055947,26.0,0.0,4279.487305,4279.487305,4508.846191,4216.666504,4260.128418,4275.0,4261.538574,4278.589844,4265.0,4270.256348,4581.410156,4538.333496,4428.846191,4519.358887,,,,,,,,,,,,,,,,,,,,,,,,,,,,,,,,,,,,,,,,,,,,,,,,,,,,,,,,,,,,,,,,,,,,,,
1769161670.062753,1769161670.063755,27.0,0.0,4279.102539,4277.94873,4508.589844,4215.0,4261.153809,4276.282227,4266.282227,4280.897461,4266.666504,4277.94873,4584.615234,4540.769043,4429.102539,4520.769043,,,,,,,,,,,,,,,,,,,,,,,,,,,,,,,,,,,,,,,,,,,,,,,,,,,,,,,,,,,,,,,,,,,,,,
1769161670.070562,1769161670.071364,28.0,0.0,4277.692383,4278.205078,4514.743652,4214.102539,4263.333496,4280.0,4270.128418,4282.94873,4272.692383,4277.692383,4586.282227,4544.487305,4427.94873,4530.641113,,,,,,,,,,,,,,,,,,,,,,,,,,,,,,,,,,,,,,,,,,,,,,,,,,,,,,,,,,,,,,,,,,,,,,
1769161670.07837,1769161670.079172,29.0,0.0,4280.641113,4279.358887,4522.307617,4217.436035,4263.205078,4277.436035,4264.615234,4280.897461,4276.794922,4278.205078,4586.666504,4543.974121,4431.794922,4535.128418,,,,,,,,,,,,,,,,,,,,,,,,,,,,,,,,,,,,,,,,,,,,,,,,,,,,,,,,,,,,,,,,,,,,,,
1769161670.086178,1769161670.086881,30.0,0.0,4282.307617,4281.922852,4526.153809,4225.769043,4263.077148,4274.743652,4263.846191,4280.0,4277.179688,4280.0,4584.871582,4539.358887,4433.333496,4526.794922,0.903603,0.761739,0.45866,0.12881,0.144934,0.931935,0.663894,0.494821,0.160792,0.145165,0.331186,0.322517,0.203922,0.160729,0.09273,0.350871,0.455949,0.305059,0.127347,0.08938,0.266979,0.105205,0.151387,0.103402,0.070382,0.387842,0.313453,0.084531,0.079271,0.091247,0.106573,0.333369,0.158437,0.112974,0.099542,0.450195,0.30431,0.129997,0.062386,0.101728,0.382845,0.313862,0.172363,0.101211,0.109253,0.261598,0.145042,0.151238,0.037686,0.111113,0.79937,0.569937,0.341774,0.110041,0.142352,0.777532,0.519732,0.218942,0.11854,0.184595,1.190197,0.803789,0.396785,0.154296,0.172216,0.954187,0.538819,0.264354,0.228414,0.167911
1769161670.093987,1769161670.094689,31.0,0.0,4280.512695,4283.333496,4524.487305,4228.205078,4265.0,4282.563965,4275.512695,4282.436035,4279.743652,4279.871582,4582.820313,4535.512695,4431.538574,4520.897461,,,,,,,,,,,,,,,,,,,,,,,,,,,,,,,,,,,,,,,,,,,,,,,,,,,,,,,,,,,,,,,,,,,,,,
1769161670.101795,1769161670.102298,32.0,0.0,4281.666504,4280.769043,4524.102539,4225.256348,4266.666504,4282.820313,4279.615234,4281.153809,4279.487305,4277.436035,4583.077148,4539.487305,4436.538574,4529.743652,,,,,,,,,,,,,,,,,,,,,,,,,,,,,,,,,,,,,,,,,,,,,,,,,,,,,,,,,,,,,,,,,,,,,,
1769161670.109604,1769161670.110106,33.0,0.0,4292.692383,4279.102539,4533.974121,4227.179688,4265.256348,4269.615234,4266.282227,4279.358887,4278.846191,4280.641113,4590.128418,4550.0,4445.641113,4543.846191,,,,,,,,,,,,,,,,,,,,,,,,,,,,,,,,,,,,,,,,,,,,,,,,,,,,,,,,,,,,,,,,,,,,,,
1769161670.117412,1769161670.117815,34.0,0.0,4298.205078,4280.897461,4541.794922,4227.692383,4262.692383,4268.461426,4260.128418,4281.666504,4281.922852,4283.205078,4594.102539,4554.358887,4447.94873,4543.461426,,,,,,,,,,,,,,,,,,,,,,,,,,,,,,,,,,,,,,,,,,,,,,,,,,,,,,,,,,,,,,,,,,,,,,
1769161670.125221,1769161670.125623,35.0,0.0,4287.179688,4280.512695,4537.05127,4219.230957,4261.922852,4278.333496,4266.794922,4282.94873,4279.230957,4280.0,4585.384766,4541.025879,4440.0,4525.512695,,,,,,,,,,,,,,,,,,,,,,,,,,,,,,,,,,,,,,,,,,,,,,,,,,,,,,,,,,,,,,,,,,,,,,
1769161670.133029,1769161670.133232,36.0,0.0,4277.05127,4278.974121,4532.820313,4214.615234,4263.333496,4278.717773,4266.538574,4280.512695,4270.256348,4278.333496,4578.589844,4523.974121,4431.666504,4515.0,,,,,,,,,,,,,,,,,,,,,,,,,,,,,,,,,,,,,,,,,,,,,,,,,,,,,,,,,,,,,,,,,,,,,,
1769161670.140838,1769161670.14104,37.0,0.0,4279.487305,4280.384766,4537.05127,4220.641113,4263.974121,4271.922852,4263.333496,4279.358887,4266.794922,4275.769043,4581.153809,4524.615234,4429.102539,4522.179688,,,,,,,,,,,,,,,,,,,,,,,,,,,,,,,,,,,,,,,,,,,,,,,,,,,,,,,,,,,,,,,,,,,,,,
1769161670.148646,1769161670.148949,38.0,0.0,4279.102539,4280.897461,4540.256348,4225.641113,4263.205078,4270.256348,4267.179688,4279.871582,4266.410156,4265.769043,4575.769043,4532.179688,4428.077148,4526.538574,,,,,,,,,,,,,,,,,,,,,,,,,,,,,,,,,,,,,,,,,,,,,,,,,,,,,,,,,,,,,,,,,,,,,,
1769161670.156454,1769161670.156757,39.0,0.0,4277.05127,4281.153809,4543.205078,4229.102539,4261.922852,4267.436035,4266.794922,4279.230957,4262.820313,4260.641113,4569.358887,4534.102539,4426.410156,4523.205078,,,,,,,,,,,,,,,,,,,,,,,,,,,,,,,,,,,,,,,,,,,,,,,,,,,,,,,,,,,,,,,,,,,,,,
1769161670.164263,1769161670.164765,40.0,0.0,4284.743652,4282.05127,4549.230957,4225.897461,4261.922852,4264.615234,4261.794922,4279.358887,4261.538574,4264.743652,4577.307617,4536.153809,4428.077148,4523.846191,,,,,,,,,,,,,,,,,,,,,,,,,,,,,,,,,,,,,,,,,,,,,,,,,,,,,,,,,,,,,,,,,,,,,,
1769161670.172071,1769161670.172574,41.0,0.0,4287.94873,4280.256348,4552.692383,4218.333496,4263.077148,4268.461426,4263.974121,4281.410156,4265.0,4267.307617,4583.205078,4541.153809,4431.410156,4527.05127,,,,,,,,,,,,,,,,,,,,,,,,,,,,,,,,,,,,,,,,,,,,,,,,,,,,,,,,,,,,,,,,,,,,,,
1769161670.17988,1769161670.180282,42.0,0.0,4281.794922,4279.358887,4555.641113,4221.025879,4264.487305,4271.025879,4265.128418,4281.025879,4266.282227,4271.153809,4581.025879,4539.230957,4430.128418,4524.102539,,,,,,,,,,,,,,,,,,,,,,,,,,,,,,,,,,,,,,,,,,,,,,,,,,,,,,,,,,,,,,,,,,,,,,
1769161670.187688,1769161670.188091,43.0,0.0,4278.846191,4279.743652,4560.0,4228.461426,4268.333496,4275.384766,4261.922852,4279.615234,4267.563965,4278.589844,4582.436035,4530.384766,4427.307617,4520.128418,,,,,,,,,,,,,,,,,,,,,,,,,,,,,,,,,,,,,,,,,,,,,,,,,,,,,,,,,,,,,,,,,,,,,,
1769161670.195497,1769161670.1957,44.0,0.0,4280.512695,4279.871582,4565.512695,4230.128418,4272.307617,4279.615234,4270.256348,4284.615234,4273.461426,4280.128418,4586.153809,4532.820313,4431.794922,4522.307617,,,,,,,,,,,,,,,,,,,,,,,,,,,,,,,,,,,,,,,,,,,,,,,,,,,,,,,,,,,,,,,,,,,,,,
1769161670.203305,1769161670.203508,45.0,0.0,4282.05127,4283.589844,4568.846191,4230.128418,4273.846191,4280.641113,4280.128418,4294.230957,4280.512695,4279.743652,4587.307617,4541.538574,4438.846191,4527.179688,,,,,,,,,,,,,,,,,,,,,,,,,,,,,,,,,,,,,,,,,,,,,,,,,,,,,,,,,,,,,,,,,,,,,,
1769161670.211114,1769161670.211416,46.0,0.0,4281.153809,4285.769043,4571.025879,4231.666504,4272.307617,4280.128418,4274.102539,4292.05127,4278.589844,4279.615234,4582.563965,4541.153809,4434.615234,4523.974121,0.890186,0.655272,0.41241,0.150069,0.142156,0.88314,0.642182,0.474266,0.178414,0.151557,0.427761,0.278261,0.196209,0.174972,0.094108,0.456046,0.433662,0.323417,0.141003,0.094054,0.232746,0.122303,0.162089,0.092012,0.069114,0.375513,0.28899,0.087276,0.096558,0.091736,0.106368,0.328851,0.164998,0.132507,0.104744,0.438713,0.327097,0.120084,0.061813,0.109049,0.467091,0.335288,0.175301,0.111246,0.125921,0.254893,0.167988,0.162956,0.040719,0.137528,0.847803,0.607115,0.293211,0.127446,0.157227,0.919566,0.595831,0.177765,0.134989,0.202804,1.198281,0.842903,0.356416,0.170241,0.164239,1.044703,0.549756,0.23192,0.235841,0.145429
1769161670.218922,1769161670.219225,47.0,0.0,4277.820313,4280.512695,4576.922852,4230.769043,4268.205078,4277.307617,4262.820313,4281.410156,4267.94873,4274.358887,4571.025879,4535.641113,4425.128418,4516.410156,,,,,,,,,,,,,,,,,,,,,,,,,,,,,,,,,,,,,,,,,,,,,,,,,,,,,,,,,,,,,,,,,,,,,,
1769161670.22673,1769161670.227233,48.0,0.0,4275.897461,4276.666504,4582.820313,4229.871582,4264.358887,4274.743652,4264.871582,4282.179688,4265.0,4272.307617,4568.717773,4536.282227,4426.538574,4519.230957,,,,,,,,,,,,,,,,,,,,,,,,,,,,,,,,,,,,,,,,,,,,,,,,,,,,,,,,,,,,,,,,,,,,,,
1769161670.234539,1769161670.235041,49.0,0.0,4278.077148,4279.358887,4584.358887,4229.615234,4263.846191,4276.153809,4274.358887,4288.717773,4268.077148,4276.922852,4578.589844,4539.871582,4431.282227,4524.358887,,,,,,,,,,,,,,,,,,,,,,,,,,,,,,,,,,,,,,,,,,,,,,,,,,,,,,,,,,,,,,,,,,,,,,
1769161670.242347,1769161670.24295,50.0,0.0,4277.436035,4279.358887,4584.615234,4229.743652,4265.512695,4279.743652,4275.128418,4290.128418,4267.94873,4279.102539,4582.94873,4539.102539,4429.102539,4521.922852,,,,,,,,,,,,,,,,,,,,,,,,,,,,,,,,,,,,,,,,,,,,,,,,,,,,,,,,,,,,,,,,,,,,,,
1769161670.250156,1769161670.250758,51.0,0.0,4271.538574,4276.410156,4585.256348,4233.333496,4266.025879,4276.410156,4265.256348,4292.05127,4271.538574,4278.205078,4584.743652,4537.820313,4427.307617,4520.769043,,,,,,,,,,,,,,,,,,,,,,,,,,,,,,,,,,,,,,,,,,,,,,,,,,,,,,,,,,,,,,,,,,,,,,
1769161670.257964,1769161670.258766,52.0,0.0,4266.794922,4278.974121,4588.846191,4235.128418,4266.922852,4272.436035,4261.794922,4295.0,4280.128418,4280.128418,4587.05127,4539.871582,4429.871582,4524.230957,,,,,,,,,,,,,,,,,,,,,,,,,,,,,,,,,,,,,,,,,,,,,,,,,,,,,,,,,,,,,,,,,,,,,,
1769161670.265773,1769161670.266575,53.0,0.0,4267.563965,4280.128418,4597.179688,4234.230957,4267.05127,4276.794922,4274.358887,4294.871582,4279.102539,4276.153809,4578.846191,4542.563965,4429.230957,4520.897461,,,,,,,,,,,,,,,,,,,,,,,,,,,,,,,,,,,,,,,,,,,,,,,,,,,,,,,,,,,,,,,,,,,,,,
1769161670.273581,1769161670.274283,54.0,0.0,4271.153809,4273.589844,4602.94873,4233.589844,4266.666504,4281.538574,4282.179688,4294.102539,4271.922852,4265.897461,4569.102539,4541.025879,4420.641113,4510.769043,,,,,,,,,,,,,,,,,,,,,,,,,,,,,,,,,,,,,,,,,,,,,,,,,,,,,,,,,,,,,,,,,,,,,,
1769161670.28139,1769161670.282092,55.0,0.0,4275.128418,4270.128418,4603.717773,4234.871582,4265.641113,4278.717773,4276.794922,4293.717773,4275.0,4268.077148,4571.794922,4539.487305,4415.0,4507.179688,,,,,,,,,,,,,,,,,,,,,,,,,,,,,,,,,,,,,,,,,,,,,,,,,,,,,,,,,,,,,,,,,,,,,,
1769161670.289198,1769161670.289701,56.0,0.0,4276.153809,4274.358887,4606.666504,4234.487305,4265.769043,4276.025879,4275.0,4291.922852,4278.205078,4277.307617,4574.230957,4540.769043,4414.871582,4510.128418,,,,,,,,,,,,,,,,,,,,,,,,,,,,,,,,,,,,,,,,,,,,,,,,,,,,,,,,,,,,,,,,,,,,,,
1769161670.297007,1769161670.297509,57.0,0.0,4270.641113,4275.128418,4611.025879,4232.692383,4266.794922,4279.102539,4276.025879,4292.307617,4274.871582,4275.897461,4570.256348,4540.256348,4411.025879,4508.974121,,,,,,,,,,,,,,,,,,,,,,,,,,,,,,,,,,,,,,,,,,,,,,,,,,,,,,,,,,,,,,,,,,,,,,
1769161670.304815,1769161670.305218,58.0,0.0,4270.0,4274.358887,4617.307617,4237.563965,4264.358887,4279.358887,4275.512695,4292.820313,4275.641113,4273.717773,4575.128418,4539.871582,4417.436035,4507.94873,,,,,,,,,,,,,,,,,,,,,,,,,,,,,,,,,,,,,,,,,,,,,,,,,,,,,,,,,,,,,,,,,,,,,,
1769161670.312624,1769161670.313026,59.0,0.0,4279.871582,4277.94873,4627.436035,4247.436035,4261.922852,4275.0,4275.384766,4289.487305,4278.205078,4279.871582,4585.384766,4540.512695,4427.563965,4512.692383,,,,,,,,,,,,,,,,,,,,,,,,,,,,,,,,,,,,,,,,,,,,,,,,,,,,,,,,,,,,,,,,,,,,,,
1769161670.320432,1769161670.320635,60.0,0.0,4282.307617,4279.230957,4633.333496,4250.769043,4263.205078,4272.94873,4269.871582,4289.615234,4279.102539,4280.0,4583.333496,4541.410156,4419.102539,4512.563965,,,,,,,,,,,,,,,,,,,,,,,,,,,,,,,,,,,,,,,,,,,,,,,,,,,,,,,,,,,,,,,,,,,,,,
1769161670.328241,1769161670.328443,61.0,0.0,4278.846191,4276.922852,4630.897461,4247.563965,4264.230957,4276.025879,4266.153809,4291.666504,4274.487305,4273.846191,4573.205078,4544.102539,4409.230957,4506.666504,,,,,,,,,,,,,,,,,,,,,,,,,,,,,,,,,,,,,,,,,,,,,,,,,,,,,,,,,,,,,,,,,,,,,,
1769161670.336049,1769161670.336152,62.0,0.0,4277.94873,4276.794922,4630.256348,4247.692383,4262.179688,4275.897461,4272.436035,4286.922852,4268.077148,4275.769043,4571.666504,4544.871582,4415.512695,4505.769043,0.857807,0.587067,0.332733,0.170405,0.141565,0.838997,0.611058,0.405481,0.18773,0.148465,0.466492,0.239962,0.182438,0.178428,0.096136,0.568824,0.387273,0.318638,0.148286,0.094557,0.216981,0.140743,0.160013,0.079814,0.065387,0.365269,0.289053,0.084899,0.120443,0.095643,0.115389,0.314475,0.15438,0.15083,0.110821,0.484657,0.347457,0.110364,0.061142,0.116851,0.524136,0.32967,0.176216,0.117051,0.13752,0.249515,0.205558,0.177438,0.04991,0.162853,0.849911,0.590027,0.252902,0.14621,0.174568,1.06271,0.651406,0.135544,0.150179,0.219348,1.204882,0.80081,0.309235,0.184569,0.158668,1.151502,0.567761,0.198337,0.226739,0.125086
1769161670.343857,1769161670.34396,63.0,0.0,4275.769043,4277.563965,4636.538574,4250.128418,4259.615234,4272.94873,4276.410156,4284.615234,4269.743652,4277.179688,4574.615234,4540.512695,4416.282227,4508.461426,,,,,,,,,,,,,,,,,,,,,,,,,,,,,,,,,,,,,,,,,,,,,,,,,,,,,,,,,,,,,,,,,,,,,,
1769161670.351666,1769161670.351968,64.0,0.0,4277.307617,4276.538574,4641.153809,4247.820313,4258.461426,4273.717773,4275.128418,4290.0,4271.410156,4271.410156,4571.410156,4537.820313,4412.563965,4508.333496,,,,,,,,,,,,,,,,,,,,,,,,,,,,,,,,,,,,,,,,,,,,,,,,,,,,,,,,,,,,,,,,,,,,,,
1769161670.359474,1769161670.359777,65.0,0.0,4281.282227,4276.153809,4644.102539,4247.563965,4259.487305,4272.563965,4274.487305,4291.410156,4268.205078,4272.307617,4574.102539,4540.512695,4422.820313,4509.743652,,,,,,,,,,,,,,,,,,,,,,,,,,,,,,,,,,,,,,,,,,,,,,,,,,,,,,,,,,,,,,,,,,,,,,
1769161670.367283,1769161670.367685,66.0,0.0,4282.436035,4275.256348,4653.205078,4254.358887,4263.077148,4266.794922,4269.487305,4285.641113,4272.179688,4279.358887,4581.025879,4542.307617,4427.436035,4511.538574,,,,,,,,,,,,,,,,,,,,,,,,,,,,,,,,,,,,,,,,,,,,,,,,,,,,,,,,,,,,,,,,,,,,,,
1769161670.375091,1769161670.375494,67.0,0.0,4284.487305,4275.128418,4660.897461,4259.358887,4263.846191,4264.487305,4264.615234,4281.794922,4273.589844,4274.230957,4577.307617,4542.179688,4416.282227,4509.743652,,,,,,,,,,,,,,,,,,,,,,,,,,,,,,,,,,,,,,,,,,,,,,,,,,,,,,,,,,,,,,,,,,,,,,
1769161670.3829,1769161670.383102,68.0,0.0,4283.717773,4278.333496,4659.743652,4256.410156,4260.897461,4265.769043,4265.256348,4279.487305,4264.358887,4262.94873,4569.487305,4540.128418,4410.512695,4507.05127,,,,,,,,,,,,,,,,,,,,,,,,,,,,,,,,,,,,,,,,,,,,,,,,,,,,,,,,,,,,,,,,,,,,,,
1769161670.390708,1769161670.390911,69.0,0.0,4280.0,4280.641113,4659.487305,4252.179688,4262.05127,4267.307617,4265.384766,4278.333496,4265.641113,4266.410156,4569.743652,4538.077148,4414.871582,4504.615234,,,,,,,,,,,,,,,,,,,,,,,,,,,,,,,,,,,,,,,,,,,,,,,,,,,,,,,,,,,,,,,,,,,,,,
1769161670.398517,1769161670.398619,70.0,0.0,4274.487305,4276.538574,4662.563965,4251.153809,4260.769043,4270.769043,4267.307617,4280.384766,4273.974121,4271.410156,4571.410156,4540.0,4414.487305,4503.461426,,,,,,,,,,,,,,,,,,,,,,,,,,,,,,,,,,,,,,,,,,,,,,,,,,,,,,,,,,,,,,,,,,,,,,
1769161670.406325,1769161670.406428,71.0,0.0,4266.538574,4272.436035,4662.307617,4254.871582,4253.974121,4267.179688,4267.179688,4279.102539,4269.743652,4266.538574,4568.717773,4536.025879,4411.025879,4502.436035,,,,,,,,,,,,,,,,,,,,,,,,,,,,,,,,,,,,,,,,,,,,,,,,,,,,,,,,,,,,,,,,,,,,,,
1769161670.414133,1769161670.414436,72.0,0.0,4263.589844,4275.256348,4661.666504,4258.974121,4254.487305,4264.871582,4264.230957,4277.307617,4263.461426,4263.589844,4568.077148,4527.307617,4413.589844,4501.794922,,,,,,,,,,,,,,,,,,,,,,,,,,,,,,,,,,,,,,,,,,,,,,,,,,,,,,,,,,,,,,,,,,,,,,
1769161670.421942,1769161670.422244,73.0,0.0,4266.666504,4276.410156,4662.563965,4253.077148,4258.461426,4275.0,4267.307617,4277.692383,4265.128418,4264.102539,4568.461426,4527.179688,4412.563965,4503.205078,,,,,,,,,,,,,,,,,,,,,,,,,,,,,,,,,,,,,,,,,,,,,,,,,,,,,,,,,,,,,,,,,,,,,,
1769161670.42975,1769161670.430153,74.0,0.0,4263.846191,4275.384766,4666.025879,4248.333496,4257.307617,4272.563965,4266.922852,4279.743652,4273.974121,4269.743652,4571.538574,4535.256348,4413.974121,4505.128418,,,,,,,,,,,,,,,,,,,,,,,,,,,,,,,,,,,,,,,,,,,,,,,,,,,,,,,,,,,,,,,,,,,,,,
1769161670.437559,1769161670.437961,75.0,0.0,4263.717773,4280.128418,4676.410156,4257.436035,4258.461426,4262.436035,4266.922852,4282.436035,4281.666504,4280.128418,4580.0,4540.128418,4425.384766,4506.794922,,,,,,,,,,,,,,,,,,,,,,,,,,,,,,,,,,,,,,,,,,,,,,,,,,,,,,,,,,,,,,,,,,,,,,
1769161670.445367,1769161670.445969,76.0,0.0,4273.846191,4285.641113,4685.384766,4264.615234,4264.615234,4270.128418,4275.897461,4282.692383,4279.615234,4283.205078,4584.102539,4540.0,4432.692383,4507.94873,,,,,,,,,,,,,,,,,,,,,,,,,,,,,,,,,,,,,,,,,,,,,,,,,,,,,,,,,,,,,,,,,,,,,,
1769161670.453176,1769161670.453778,77.0,0.0,4282.692383,4286.282227,4690.641113,4262.94873,4266.666504,4275.769043,4275.128418,4281.794922,4278.461426,4279.102539,4582.692383,4540.0,4430.897461,4512.94873,,,,,,,,,,,,,,,,,,,,,,,,,,,,,,,,,,,,,,,,,,,,,,,,,,,,,,,,,,,,,,,,,,,,,,
1769161670.460984,1769161670.461486,78.0,0.0,4282.94873,4284.230957,4695.897461,4263.077148,4265.512695,4264.871582,4262.94873,4280.897461,4280.897461,4280.641113,4581.666504,4539.230957,4429.871582,4517.436035,0.809992,0.562966,0.243841,0.185569,0.145778,0.809902,0.571864,0.311182,0.186636,0.136174,0.604366,0.210454,0.159994,0.169438,0.099852,0.66017,0.335607,0.301729,0.148153,0.091206,0.224614,0.158431,0.147253,0.068662,0.059342,0.353614,0.29539,0.078366,0.146125,0.10096,0.125134,0.288144,0.131417,0.168048,0.119843,0.581596,0.352811,0.098905,0.06086,0.12051,0.541161,0.319354,0.175651,0.116329,0.138911,0.251172,0.259987,0.188972,0.067213,0.179717,0.811828,0.524805,0.234064,0.164736,0.189001,1.192832,0.676313,0.102376,0.168603,0.228378,1.220418,0.691118,0.263969,0.192545,0.154204,1.287689,0.58405,0.166743,0.207685,0.113022
1769161670.468793,1769161670.469295,79.0,0.0,4271.794922,4280.128418,4696.794922,4263.205078,4262.179688,4258.974121,4260.0,4279.102539,4273.205078,4279.487305,4578.717773,4537.307617,4430.256348,4513.974121,,,,,,,,,,,,,,,,,,,,,,,,,,,,,,,,,,,,,,,,,,,,,,,,,,,,,,,,,,,,,,,,,,,,,,
1769161670.476601,1769161670.477303,80.0,0.0,4264.358887,4273.589844,4697.436035,4259.102539,4256.538574,4260.769043,4263.589844,4277.436035,4265.256348,4269.743652,4572.179688,4533.974121,4427.436035,4508.333496,,,,,,,,,,,,,,,,,,,,,,,,,,,,,,,,,,,,,,,,,,,,,,,,,,,,,,,,,,,,,,,,,,,,,,
1769161670.484409,1769161670.485112,81.0,0.0,4270.641113,4272.820313,4702.563965,4257.820313,4256.922852,4262.05127,4264.487305,4277.692383,4268.333496,4265.384766,4569.487305,4530.256348,4420.769043,4506.794922,,,,,,,,,,,,,,,,,,,,,,,,,,,,,,,,,,,,,,,,,,,,,,,,,,,,,,,,,,,,,,,,,,,,,,
1769161670.492218,1769161670.49282,82.0,0.0,4273.717773,4274.743652,4707.94873,4259.615234,4261.282227,4263.333496,4263.717773,4276.794922,4270.384766,4265.769043,4569.487305,4531.666504,4412.820313,4507.820313,,,,,,,,,,,,,,,,,,,,,,,,,,,,,,,,,,,,,,,,,,,,,,,,,,,,,,,,,,,,,,,,,,,,,,
1769161670.500026,1769161670.500629,83.0,0.0,4266.538574,4270.897461,4711.282227,4260.384766,4263.077148,4262.820313,4263.077148,4274.871582,4266.282227,4264.615234,4563.846191,4534.102539,4411.282227,4504.743652,,,,,,,,,,,,,,,,,,,,,,,,,,,,,,,,,,,,,,,,,,,,,,,,,,,,,,,,,,,,,,,,,,,,,,
1769161670.507835,1769161670.508237,84.0,0.0,4260.256348,4265.769043,4710.0,4262.307617,4259.615234,4267.436035,4265.512695,4275.256348,4263.589844,4262.94873,4558.205078,4531.025879,4411.153809,4496.153809,,,,,,,,,,,,,,,,,,,,,,,,,,,,,,,,,,,,,,,,,,,,,,,,,,,,,,,,,,,,,,,,,,,,,,
1769161670.515643,1769161670.516046,85.0,0.0,4257.692383,4261.922852,4706.410156,4263.717773,4258.205078,4272.436035,4267.307617,4277.436035,4264.358887,4262.307617,4555.384766,4522.820313,4404.487305,4489.615234,,,,,,,,,,,,,,,,,,,,,,,,,,,,,,,,,,,,,,,,,,,,,,,,,,,,,,,,,,,,,,,,,,,,,,
1769161670.523452,1769161670.523754,86.0,0.0,4257.820313,4261.922852,4710.897461,4263.974121,4262.692383,4265.512695,4262.820313,4276.282227,4264.102539,4262.307617,4555.769043,4520.384766,4401.538574,4488.846191,,,,,,,,,,,,,,,,,,,,,,,,,,,,,,,,,,,,,,,,,,,,,,,,,,,,,,,,,,,,,,,,,,,,,,
1769161670.53126,1769161670.531563,87.0,0.0,4262.692383,4267.94873,4719.615234,4267.94873,4265.128418,4260.256348,4262.307617,4273.717773,4260.512695,4262.307617,4561.282227,4528.717773,4407.94873,4491.025879,,,,,,,,,,,,,,,,,,,,,,,,,,,,,,,,,,,,,,,,,,,,,,,,,,,,,,,,,,,,,,,,,,,,,,
1769161670.539069,1769161670.539571,88.0,0.0,4266.410156,4273.846191,4722.05127,4273.717773,4262.820313,4265.0,4266.666504,4276.025879,4262.820313,4262.820313,4567.692383,4535.641113,4413.333496,4496.922852,,,,,,,,,,,,,,,,,,,,,,,,,,,,,,,,,,,,,,,,,,,,,,,,,,,,,,,,,,,,,,,,,,,,,,
1769161670.546877,1769161670.547379,89.0,0.0,4265.769043,4273.589844,4719.615234,4277.05127,4261.922852,4265.384766,4264.743652,4280.128418,4273.974121,4267.563965,4570.769043,4536.282227,4414.615234,4507.307617,,,,,,,,,,,,,,,,,,,,,,,,,,,,,,,,,,,,,,,,,,,,,,,,,,,,,,,,,,,,,,,,,,,,,,
1769161670.554685,1769161670.555288,90.0,0.0,4263.333496,4274.358887,4717.563965,4276.666504,4264.615234,4263.974121,4262.94873,4280.0,4273.717773,4272.692383,4571.410156,4536.153809,4414.615234,4508.717773,,,,,,,,,,,,,,,,,,,,,,,,,,,,,,,,,,,,,,,,,,,,,,,,,,,,,,,,,,,,,,,,,,,,,,
1769161670.562494,1769161670.563096,91.0,0.0,4262.179688,4278.589844,4723.461426,4279.230957,4265.0,4267.307617,4267.563965,4280.384766,4268.077148,4271.794922,4572.307617,4536.666504,4413.846191,4501.794922,,,,,,,,,,,,,,,,,,,,,,,,,,,,,,,,,,,,,,,,,,,,,,,,,,,,,,,,,,,,,,,,,,,,,,
1769161670.570302,1769161670.571104,92.0,0.0,4263.461426,4275.384766,4734.102539,4286.025879,4262.436035,4265.897461,4267.436035,4283.717773,4274.743652,4273.333496,4573.846191,4537.94873,4416.153809,4503.205078,,,,,,,,,,,,,,,,,,,,,,,,,,,,,,,,,,,,,,,,,,,,,,,,,,,,,,,,,,,,,,,,,,,,,,
1769161670.578111,1769161670.578913,93.0,0.0,4263.205078,4267.94873,4738.461426,4287.94873,4261.153809,4262.179688,4261.538574,4282.179688,4274.358887,4275.256348,4573.589844,4538.461426,4419.615234,4506.922852,,,,,,,,,,,,,,,,,,,,,,,,,,,,,,,,,,,,,,,,,,,,,,,,,,,,,,,,,,,,,,,,,,,,,,
1769161670.585919,1769161670.586621,94.0,0.0,4261.922852,4267.307617,4735.512695,4285.0,4259.615234,4263.589844,4262.820313,4278.205078,4261.794922,4267.94873,4570.0,4536.410156,4416.153809,4500.0,0.79158,0.572278,0.17186,0.193585,0.155075,0.790596,0.520234,0.220209,0.176743,0.117275,0.481878,0.202272,0.139972,0.152995,0.104995,0.708685,0.293386,0.283889,0.144341,0.085278,0.245626,0.173941,0.128704,0.060044,0.051513,0.334851,0.296804,0.072836,0.167335,0.105381,0.131085,0.260668,0.109829,0.183441,0.133447,0.707871,0.333801,0.086607,0.061315,0.116403,0.526973,0.33757,0.176608,0.111317,0.129019,0.268518,0.335874,0.195444,0.094041,0.183455,0.74561,0.445387,0.248389,0.185574,0.196364,1.289018,0.668088,0.084675,0.197156,0.226533,1.236834,0.569441,0.236932,0.195454,0.149464,1.437773,0.600552,0.147524,0.191168,0.11394
1769161670.593728,1769161670.59443,95.0,0.0,4262.307617,4269.487305,4734.358887,4287.436035,4257.307617,4265.769043,4267.692383,4279.230957,4260.384766,4261.282227,4567.563965,4534.230957,4409.871582,4489.871582,,,,,,,,,,,,,,,,,,,,,,,,,,,,,,,,,,,,,,,,,,,,,,,,,,,,,,,,,,,,,,,,,,,,,,
1769161670.601536,1769161670.602438,96.0,0.0,4262.179688,4266.794922,4741.153809,4293.717773,4259.871582,4264.743652,4267.820313,4280.384766,4268.461426,4265.769043,4571.025879,4537.179688,4412.94873,4493.974121,,,,,,,,,,,,,,,,,,,,,,,,,,,,,,,,,,,,,,,,,,,,,,,,,,,,,,,,,,,,,,,,,,,,,,
1769161670.609345,1769161670.610246,97.0,0.0,4261.538574,4264.871582,4748.205078,4294.871582,4263.717773,4266.794922,4266.666504,4279.358887,4268.333496,4269.615234,4574.358887,4539.487305,4418.589844,4502.05127,,,,,,,,,,,,,,,,,,,,,,,,,,,,,,,,,,,,,,,,,,,,,,,,,,,,,,,,,,,,,,,,,,,,,,
1769161670.617153,1769161670.618155,98.0,0.0,4258.717773,4265.128418,4749.487305,4293.077148,4258.589844,4269.871582,4267.436035,4278.205078,4261.666504,4263.333496,4571.025879,4537.820313,4414.615234,4497.179688,,,,,,,,,,,,,,,,,,,,,,,,,,,,,,,,,,,,,,,,,,,,,,,,,,,,,,,,,,,,,,,,,,,,,,
1769161670.624962,1769161670.625963,99.0,0.0,4259.743652,4265.128418,4751.153809,4297.179688,4254.358887,4268.461426,4267.307617,4279.358887,4265.512695,4263.974121,4572.05127,4540.641113,4413.974121,4497.05127,,,,,,,,,,,,,,,,,,,,,,,,,,,,,,,,,,,,,,,,,,,,,,,,,,,,,,,,,,,,,,,,,,,,,,
1769161670.63277,1769161670.633572,100.0,0.0,4264.230957,4267.820313,4753.974121,4299.487305,4260.128418,4268.846191,4266.922852,4282.179688,4274.487305,4273.589844,4575.769043,4542.820313,4416.538574,4504.871582,,,,,,,,,,,,,,,,,,,,,,,,,,,,,,,,,,,,,,,,,,,,,,,,,,,,,,,,,,,,,,,,,,,,,,
1769161670.640578,1769161670.64138,101.0,0.0,4263.974121,4271.410156,4755.128418,4299.230957,4264.102539,4271.794922,4266.282227,4282.436035,4272.307617,4273.333496,4573.333496,4538.077148,4413.717773,4505.897461,,,,,,,,,,,,,,,,,,,,,,,,,,,,,,,,,,,,,,,,,,,,,,,,,,,,,,,,,,,,,,,,,,,,,,
1769161670.648387,1769161670.649089,102.0,0.0,4267.692383,4275.641113,4762.692383,4308.461426,4263.077148,4267.307617,4262.436035,4281.153809,4269.358887,4269.871582,4576.282227,4543.589844,4418.717773,4506.153809,,,,,,,,,,,,,,,,,,,,,,,,,,,,,,,,,,,,,,,,,,,,,,,,,,,,,,,,,,,,,,,,,,,,,,
1769161670.656195,1769161670.656897,103.0,0.0,4280.512695,4281.410156,4773.333496,4318.717773,4265.769043,4260.641113,4260.256348,4281.922852,4277.563965,4275.128418,4583.205078,4555.512695,4428.205078,4511.153809,,,,,,,,,,,,,,,,,,,,,,,,,,,,,,,,,,,,,,,,,,,,,,,,,,,,,,,,,,,,,,,,,,,,,,
1769161670.664004,1769161670.664506,104.0,0.0,4279.230957,4280.897461,4772.05127,4315.128418,4267.179688,4264.743652,4264.358887,4282.436035,4278.589844,4274.743652,4579.487305,4551.410156,4422.179688,4511.922852,,,,,,,,,,,,,,,,,,,,,,,,,,,,,,,,,,,,,,,,,,,,,,,,,,,,,,,,,,,,,,,,,,,,,,
1769161670.671812,1769161670.672314,105.0,0.0,4265.128418,4272.179688,4758.589844,4308.589844,4262.307617,4269.358887,4266.025879,4279.743652,4269.487305,4264.615234,4569.487305,4535.897461,4411.410156,4504.615234,,,,,,,,,,,,,,,,,,,,,,,,,,,,,,,,,,,,,,,,,,,,,,,,,,,,,,,,,,,,,,,,,,,,,,
1769161670.679621,1769161670.680223,106.0,0.0,4261.410156,4266.025879,4747.820313,4309.230957,4263.077148,4267.436035,4263.589844,4278.077148,4265.0,4261.025879,4561.922852,4526.025879,4410.641113,4495.384766,,,,,,,,,,,,,,,,,,,,,,,,,,,,,,,,,,,,,,,,,,,,,,,,,,,,,,,,,,,,,,,,,,,,,,
1769161670.687429,1769161670.688031,107.0,0.0,4257.179688,4264.358887,4752.563965,4308.589844,4263.077148,4268.974121,4265.384766,4277.820313,4263.589844,4262.307617,4554.487305,4521.282227,4409.487305,4489.358887,,,,,,,,,,,,,,,,,,,,,,,,,,,,,,,,,,,,,,,,,,,,,,,,,,,,,,,,,,,,,,,,,,,,,,
1769161670.695238,1769161670.69564,108.0,0.0,4247.307617,4262.692383,4763.333496,4304.871582,4252.307617,4269.615234,4267.436035,4276.025879,4261.794922,4261.794922,4555.0,4525.512695,4407.563965,4491.538574,,,,,,,,,,,,,,,,,,,,,,,,,,,,,,,,,,,,,,,,,,,,,,,,,,,,,,,,,,,,,,,,,,,,,,
1769161670.703046,1769161670.703448,109.0,0.0,4251.538574,4264.487305,4763.205078,4304.615234,4250.641113,4262.692383,4261.666504,4276.922852,4263.589844,4264.487305,4565.256348,4534.743652,4412.179688,4495.128418,,,,,,,,,,,,,,,,,,,,,,,,,,,,,,,,,,,,,,,,,,,,,,,,,,,,,,,,,,,,,,,,,,,,,,
1769161670.710854,1769161670.711157,110.0,0.0,4262.307617,4266.794922,4761.025879,4308.205078,4258.333496,4258.974121,4257.436035,4277.436035,4263.717773,4265.512695,4568.077148,4530.256348,4414.358887,4493.717773,0.786579,0.601455,0.132743,0.196437,0.166451,0.76275,0.456115,0.149284,0.162335,0.095573,0.606173,0.213397,0.121958,0.13725,0.109391,0.69798,0.267243,0.270368,0.142957,0.07855,0.260567,0.187142,0.110768,0.054707,0.042922,0.305077,0.290578,0.07253,0.178123,0.107964,0.126859,0.246476,0.103233,0.195396,0.150837,0.81863,0.292084,0.076489,0.062694,0.104065,0.498606,0.405765,0.181549,0.10841,0.1117,0.307555,0.442023,0.201478,0.128972,0.174553,0.665308,0.393418,0.295041,0.212228,0.1945,1.322798,0.637597,0.081825,0.237986,0.213787,1.236291,0.504815,0.233865,0.198446,0.143934,1.55544,0.625044,0.143894,0.187339,0.127098
1769161670.718663,1769161670.718965,111.0,0.0,4262.563965,4266.410156,4765.641113,4312.179688,4255.512695,4261.922852,4260.769043,4274.358887,4262.05127,4263.205078,4562.563965,4520.512695,4412.692383,4492.179688,,,,,,,,,,,,,,,,,,,,,,,,,,,,,,,,,,,,,,,,,,,,,,,,,,,,,,,,,,,,,,,,,,,,,,
1769161670.726471,1769161670.726574,112.0,0.0,4259.615234,4270.512695,4767.94873,4311.282227,4249.230957,4263.461426,4263.974121,4272.94873,4262.307617,4264.871582,4563.333496,4522.563965,4411.282227,4490.384766,,,,,,,,,,,,,,,,,,,,,,,,,,,,,,,,,,,,,,,,,,,,,,,,,,,,,,,,,,,,,,,,,,,,,,
1769161670.73428,1769161670.734382,113.0,0.0,4264.230957,4276.025879,4769.230957,4310.512695,4251.282227,4263.077148,4261.794922,4273.974121,4264.358887,4269.102539,4569.230957,4532.820313,4413.205078,4492.05127,,,,,,,,,,,,,,,,,,,,,,,,,,,,,,,,,,,,,,,,,,,,,,,,,,,,,,,,,,,,,,,,,,,,,,
1769161670.742088,1769161670.742291,114.0,0.0,4262.436035,4272.94873,4772.94873,4313.974121,4252.563965,4261.922852,4257.820313,4275.0,4265.256348,4268.077148,4568.846191,4534.743652,4415.512695,4495.256348,,,,,,,,,,,,,,,,,,,,,,,,,,,,,,,,,,,,,,,,,,,,,,,,,,,,,,,,,,,,,,,,,,,,,,
1769161670.749897,1769161670.750099,115.0,0.0,4252.436035,4263.077148,4768.846191,4312.307617,4248.461426,4265.897461,4262.563965,4276.794922,4265.0,4262.563965,4563.846191,4527.436035,4413.333496,4491.666504,,,,,,,,,,,,,,,,,,,,,,,,,,,,,,,,,,,,,,,,,,,,,,,,,,,,,,,,,,,,,,,,,,,,,,
1769161670.757705,1769161670.758107,116.0,0.0,4252.94873,4261.410156,4764.743652,4309.230957,4247.94873,4271.922852,4272.307617,4272.307617,4261.794922,4259.487305,4562.307617,4527.307617,4409.615234,4490.769043,,,,,,,,,,,,,,,,,,,,,,,,,,,,,,,,,,,,,,,,,,,,,,,,,,,,,,,,,,,,,,,,,,,,,,
1769161670.765514,1769161670.765916,117.0,0.0,4263.589844,4274.358887,4774.358887,4316.153809,4250.0,4268.461426,4263.974121,4267.05127,4262.820313,4264.871582,4566.922852,4535.641113,4414.871582,4499.743652,,,,,,,,,,,,,,,,,,,,,,,,,,,,,,,,,,,,,,,,,,,,,,,,,,,,,,,,,,,,,,,,,,,,,,
1769161670.773322,1769161670.773824,118.0,0.0,4265.0,4280.128418,4782.94873,4325.256348,4251.410156,4261.538574,4247.820313,4273.333496,4274.230957,4275.128418,4572.179688,4538.974121,4425.384766,4504.230957,,,,,,,,,,,,,,,,,,,,,,,,,,,,,,,,,,,,,,,,,,,,,,,,,,,,,,,,,,,,,,,,,,,,,,
1769161670.781131,1769161670.781633,119.0,0.0,4259.743652,4269.230957,4778.589844,4325.769043,4251.794922,4263.589844,4254.230957,4280.256348,4281.153809,4278.205078,4571.025879,4536.153809,4423.974121,4499.871582,,,,,,,,,,,,,,,,,,,,,,,,,,,,,,,,,,,,,,,,,,,,,,,,,,,,,,,,,,,,,,,,,,,,,,
1769161670.788939,1769161670.789641,120.0,0.0,4261.282227,4266.025879,4776.538574,4326.153809,4252.05127,4267.94873,4266.794922,4278.461426,4274.487305,4275.769043,4569.358887,4538.461426,4417.563965,4499.871582,,,,,,,,,,,,,,,,,,,,,,,,,,,,,,,,,,,,,,,,,,,,,,,,,,,,,,,,,,,,,,,,,,,,,,
1769161670.796748,1769161670.797449,121.0,0.0,4263.589844,4276.666504,4783.077148,4328.205078,4252.820313,4265.128418,4259.487305,4277.692383,4270.641113,4274.743652,4573.333496,4543.077148,4423.717773,4506.538574,,,,,,,,,,,,,,,,,,,,,,,,,,,,,,,,,,,,,,,,,,,,,,,,,,,,,,,,,,,,,,,,,,,,,,
1769161670.804556,1769161670.805158,122.0,0.0,4262.692383,4277.436035,4785.128418,4328.077148,4249.230957,4265.0,4257.436035,4279.615234,4275.256348,4270.384766,4575.641113,4542.692383,4426.794922,4506.282227,,,,,,,,,,,,,,,,,,,,,,,,,,,,,,,,,,,,,,,,,,,,,,,,,,,,,,,,,,,,,,,,,,,,,,
1769161670.812364,1769161670.812966,123.0,0.0,4262.563965,4271.282227,4783.846191,4329.487305,4248.846191,4271.794922,4271.538574,4278.974121,4274.743652,4266.153809,4571.794922,4540.256348,4417.179688,4500.256348,,,,,,,,,,,,,,,,,,,,,,,,,,,,,,,,,,,,,,,,,,,,,,,,,,,,,,,,,,,,,,,,,,,,,,
1769161670.820173,1769161670.820575,124.0,0.0,4261.410156,4275.128418,4784.230957,4333.461426,4256.025879,4275.641113,4272.692383,4279.487305,4268.461426,4268.077148,4569.102539,4539.358887,4412.563965,4501.025879,,,,,,,,,,,,,,,,,,,,,,,,,,,,,,,,,,,,,,,,,,,,,,,,,,,,,,,,,,,,,,,,,,,,,,
1769161670.827981,1769161670.828383,125.0,0.0,4261.922852,4278.461426,4782.94873,4336.282227,4258.333496,4271.922852,4263.974121,4279.871582,4266.025879,4265.512695,4568.846191,4538.589844,4413.974121,4503.461426,,,,,,,,,,,,,,,,,,,,,,,,,,,,,,,,,,,,,,,,,,,,,,,,,,,,,,,,,,,,,,,,,,,,,,
1769161670.83579,1769161670.836092,126.0,0.0,4263.461426,4279.230957,4786.538574,4340.0,4252.692383,4266.794922,4264.615234,4278.461426,4267.820313,4263.333496,4568.974121,4537.307617,4412.820313,4502.94873,0.810658,0.637095,0.12822,0.198407,0.174422,0.712861,0.396382,0.103753,0.147786,0.074908,0.381218,0.240927,0.117587,0.12882,0.11015,0.61914,0.252829,0.261187,0.147888,0.072624,0.256214,0.198543,0.098562,0.052837,0.035065,0.270177,0.279772,0.079373,0.175399,0.109279,0.117168,0.251823,0.117234,0.201141,0.168345,0.868291,0.237124,0.071275,0.06487,0.086766,0.475247,0.519005,0.189173,0.113415,0.094062,0.365112,0.579559,0.212576,0.165532,0.157952,0.580444,0.393095,0.35764,0.243571,0.183197,1.253989,0.589509,0.088684,0.283969,0.192539,1.206034,0.535571,0.246177,0.204354,0.137618,1.575833,0.658622,0.153914,0.198215,0.145988
1769161670.843598,1769161670.8439,127.0,0.0,4263.461426,4279.358887,4795.769043,4341.025879,4250.384766,4263.846191,4267.436035,4278.717773,4268.077148,4269.615234,4571.153809,4539.230957,4414.615234,4505.384766,,,,,,,,,,,,,,,,,,,,,,,,,,,,,,,,,,,,,,,,,,,,,,,,,,,,,,,,,,,,,,,,,,,,,,
1769161670.851407,1769161670.851509,0.0,0.0,4264.487305,4271.025879,4794.615234,4337.05127,4252.307617,4266.538574,4271.538574,4280.256348,4267.307617,4269.358887,4571.282227,4541.922852,4414.871582,4504.102539,,,,,,,,,,,,,,,,,,,,,,,,,,,,,,,,,,,,,,,,,,,,,,,,,,,,,,,,,,,,,,,,,,,,,,
1769161670.859215,1769161670.859318,1.0,0.0,4263.333496,4263.461426,4787.563965,4336.410156,4251.153809,4273.717773,4279.230957,4279.871582,4268.333496,4263.589844,4566.153809,4538.333496,4411.922852,4496.410156,,,,,,,,,,,,,,,,,,,,,,,,,,,,,,,,,,,,,,,,,,,,,,,,,,,,,,,,,,,,,,,,,,,,,,
1769161670.867024,1769161670.867026,2.0,0.0,4260.769043,4270.256348,4792.179688,4339.358887,4250.897461,4270.897461,4273.717773,4277.563965,4270.897461,4270.128418,4569.871582,4538.205078,4420.256348,4499.615234,,,,,,,,,,,,,,,,,,,,,,,,,,,,,,,,,,,,,,,,,,,,,,,,,,,,,,,,,,,,,,,,,,,,,,
1769161670.874832,1769161670.874835,3.0,0.0,4269.871582,4280.384766,4798.589844,4342.692383,4253.205078,4259.358887,4259.358887,4278.974121,4277.94873,4280.897461,4581.666504,4547.94873,4433.077148,4510.384766,,,,,,,,,,,,,,,,,,,,,,,,,,,,,,,,,,,,,,,,,,,,,,,,,,,,,,,,,,,,,,,,,,,,,,
1769161670.88264,1769161670.882843,4.0,0.0,4277.436035,4278.846191,4797.94873,4347.179688,4252.692383,4263.974121,4258.846191,4281.282227,4279.102539,4277.692383,4579.358887,4551.025879,4427.436035,4509.871582,,,,,,,,,,,,,,,,,,,,,,,,,,,,,,,,,,,,,,,,,,,,,,,,,,,,,,,,,,,,,,,,,,,,,,
1769161670.890449,1769161670.890651,5.0,0.0,4270.769043,4275.384766,4805.128418,4350.0,4252.563965,4274.230957,4264.358887,4278.974121,4270.769043,4267.820313,4569.615234,4540.769043,4414.102539,4506.410156,,,,,,,,,,,,,,,,,,,,,,,,,,,,,,,,,,,,,,,,,,,,,,,,,,,,,,,,,,,,,,,,,,,,,,
1769161670.898257,1769161670.89836,6.0,0.0,4271.153809,4277.820313,4814.487305,4351.538574,4251.922852,4269.102539,4261.410156,4277.692383,4265.641113,4264.743652,4570.256348,4535.512695,4415.0,4507.94873,,,,,,,,,,,,,,,,,,,,,,,,,,,,,,,,,,,,,,,,,,,,,,,,,,,,,,,,,,,,,,,,,,,,,,
1769161670.906066,1769161670.906168,7.0,0.0,4282.307617,4281.282227,4812.436035,4356.153809,4251.410156,4265.384766,4257.820313,4278.974121,4269.102539,4266.794922,4573.717773,4545.128418,4421.922852,4511.282227,,,,,,,,,,,,,,,,,,,,,,,,,,,,,,,,,,,,,,,,,,,,,,,,,,,,,,,,,,,,,,,,,,,,,,
1769161670.913874,1769161670.913777,8.0,0.0,4281.025879,4280.128418,4810.641113,4359.230957,4251.410156,4272.820313,4260.512695,4279.230957,4274.871582,4267.692383,4572.692383,4550.384766,4418.333496,4514.615234,,,,,,,,,,,,,,,,,,,,,,,,,,,,,,,,,,,,,,,,,,,,,,,,,,,,,,,,,,,,,,,,,,,,,,
1769161670.921683,1769161670.921585,9.0,0.0,4276.025879,4278.333496,4814.487305,4356.025879,4250.512695,4271.922852,4264.743652,4278.205078,4277.307617,4264.615234,4571.794922,4544.102539,4411.410156,4511.666504,,,,,,,,,,,,,,,,,,,,,,,,,,,,,,,,,,,,,,,,,,,,,,,,,,,,,,,,,,,,,,,,,,,,,,
1769161670.929491,1769161670.929294,10.0,0.0,4277.692383,4280.128418,4813.974121,4355.384766,4252.179688,4267.05127,4266.794922,4279.487305,4275.512695,4262.436035,4570.128418,4538.077148,4411.794922,4505.128418,,,,,,,,,,,,,,,,,,,,,,,,,,,,,,,,,,,,,,,,,,,,,,,,,,,,,,,,,,,,,,,,,,,,,,
1769161670.9373,1769161670.937102,11.0,0.0,4267.692383,4273.974121,4807.179688,4356.282227,4260.769043,4272.94873,4266.025879,4283.717773,4275.128418,4264.358887,4569.615234,4537.436035,4412.436035,4504.358887,,,,,,,,,,,,,,,,,,,,,,,,,,,,,,,,,,,,,,,,,,,,,,,,,,,,,,,,,,,,,,,,,,,,,,
1769161670.945108,1769161670.945111,12.0,0.0,4262.692383,4263.589844,4805.256348,4353.205078,4263.717773,4277.94873,4265.256348,4288.589844,4279.102539,4267.820313,4572.436035,4543.846191,4411.538574,4508.333496,,,,,,,,,,,,,,,,,,,,,,,,,,,,,,,,,,,,,,,,,,,,,,,,,,,,,,,,,,,,,,,,,,,,,,
1769161670.952917,1769161670.952919,13.0,0.0,4274.358887,4264.871582,4810.128418,4354.102539,4253.461426,4277.179688,4272.307617,4290.512695,4279.871582,4267.05127,4572.94873,4551.922852,4412.563965,4512.436035,,,,,,,,,,,,,,,,,,,,,,,,,,,,,,,,,,,,,,,,,,,,,,,,,,,,,,,,,,,,,,,,,,,,,,
1769161670.960725,1769161670.960827,14.0,0.0,4274.743652,4271.922852,4811.153809,4357.05127,4245.256348,4278.077148,4279.871582,4287.692383,4277.05127,4265.256348,4572.436035,4552.692383,4416.282227,4510.897461,0.819705,0.672204,0.154882,0.204455,0.174091,0.63156,0.36538,0.082609,0.136053,0.058676,0.483452,0.272909,0.126051,0.131895,0.106385,0.513807,0.244537,0.25266,0.158183,0.068591,0.224867,0.208445,0.093832,0.054126,0.029818,0.233856,0.268618,0.093364,0.161137,0.110057,0.102495,0.269224,0.147615,0.198636,0.18115,0.834815,0.186173,0.070922,0.066897,0.069564,0.464077,0.652915,0.195768,0.127544,0.083327,0.424533,0.735526,0.230795,0.193901,0.140089,0.519827,0.453911,0.415425,0.274654,0.164437,1.092149,0.538839,0.099772,0.323564,0.167236,1.149951,0.656018,0.261412,0.212537,0.131477,1.467478,0.705089,0.173725,0.216888,0.161997
1769161670.968533,1769161670.968636,15.0,0.0,4268.589844,4274.358887,4809.102539,4359.487305,4252.820313,4273.589844,4273.205078,4282.94873,4277.563965,4270.128418,4574.871582,4547.820313,4422.179688,4506.922852,,,,,,,,,,,,,,,,,,,,,,,,,,,,,,,,,,,,,,,,,,,,,,,,,,,,,,,,,,,,,,,,,,,,,,
1769161670.976342,1769161670.976644,16.0,0.0,4275.769043,4277.307617,4812.692383,4363.717773,4263.589844,4264.230957,4261.794922,4280.512695,4278.205078,4277.820313,4581.153809,4550.512695,4427.563965,4513.589844,,,,,,,,,,,,,,,,,,,,,,,,,,,,,,,,,,,,,,,,,,,,,,,,,,,,,,,,,,,,,,,,,,,,,,
1769161670.98415,1769161670.984453,17.0,0.0,4282.307617,4280.256348,4817.563965,4367.820313,4260.512695,4261.282227,4263.077148,4284.230957,4278.974121,4280.512695,4586.282227,4558.333496,4430.384766,4525.769043,,,,,,,,,,,,,,,,,,,,,,,,,,,,,,,,,,,,,,,,,,,,,,,,,,,,,,,,,,,,,,,,,,,,,,
1769161670.991959,1769161670.992361,18.0,0.0,4276.538574,4280.128418,4815.384766,4366.922852,4250.512695,4264.871582,4268.846191,4290.384766,4279.102539,4274.743652,4581.282227,4551.282227,4424.102539,4521.410156,,,,,,,,,,,,,,,,,,,,,,,,,,,,,,,,,,,,,,,,,,,,,,,,,,,,,,,,,,,,,,,,,,,,,,
1769161670.999767,1769161671.000169,19.0,0.0,4273.461426,4281.538574,4812.179688,4366.025879,4250.384766,4266.538574,4269.487305,4290.512695,4277.820313,4268.077148,4571.922852,4539.358887,4413.077148,4506.025879,,,,,,,,,,,,,,,,,,,,,,,,,,,,,,,,,,,,,,,,,,,,,,,,,,,,,,,,,,,,,,,,,,,,,,
1769161671.007576,1769161671.008178,20.0,0.0,4275.641113,4281.794922,4814.487305,4370.0,4260.641113,4265.641113,4273.461426,4288.205078,4277.820313,4271.410156,4569.871582,4542.94873,4410.0,4505.897461,,,,,,,,,,,,,,,,,,,,,,,,,,,,,,,,,,,,,,,,,,,,,,,,,,,,,,,,,,,,,,,,,,,,,,
1769161671.015384,1769161671.015986,21.0,0.0,4278.589844,4279.102539,4818.717773,4371.410156,4261.666504,4267.307617,4278.461426,4290.256348,4280.769043,4277.563965,4574.230957,4553.974121,4414.871582,4516.538574,,,,,,,,,,,,,,,,,,,,,,,,,,,,,,,,,,,,,,,,,,,,,,,,,,,,,,,,,,,,,,,,,,,,,,
1769161671.023193,1769161671.023695,22.0,0.0,4277.820313,4276.025879,4816.153809,4368.205078,4251.538574,4271.794922,4277.94873,4294.743652,4280.769043,4274.743652,4574.487305,4554.102539,4413.461426,4513.846191,,,,,,,,,,,,,,,,,,,,,,,,,,,,,,,,,,,,,,,,,,,,,,,,,,,,,,,,,,,,,,,,,,,,,,
1769161671.031001,1769161671.031503,23.0,0.0,4272.436035,4274.358887,4810.0,4366.538574,4251.666504,4275.897461,4279.230957,4295.641113,4278.205078,4272.692383,4570.897461,4548.717773,4409.487305,4507.436035,,,,,,,,,,,,,,,,,,,,,,,,,,,,,,,,,,,,,,,,,,,,,,,,,,,,,,,,,,,,,,,,,,,,,,
1769161671.038809,1769161671.039112,24.0,0.0,4274.487305,4277.94873,4816.153809,4372.820313,4264.743652,4276.922852,4282.307617,4295.641113,4284.487305,4277.820313,4577.05127,4552.94873,4418.974121,4516.025879,,,,,,,,,,,,,,,,,,,,,,,,,,,,,,,,,,,,,,,,,,,,,,,,,,,,,,,,,,,,,,,,,,,,,,
1769161671.046618,1769161671.04692,25.0,0.0,4282.179688,4282.179688,4829.615234,4378.333496,4266.282227,4272.820313,4282.05127,4294.358887,4294.102539,4281.794922,4589.230957,4564.230957,4431.282227,4527.179688,,,,,,,,,,,,,,,,,,,,,,,,,,,,,,,,,,,,,,,,,,,,,,,,,,,,,,,,,,,,,,,,,,,,,,
1769161671.054426,1769161671.054629,26.0,0.0,4280.769043,4277.179688,4828.846191,4375.128418,4253.205078,4268.717773,4281.025879,4295.512695,4288.974121,4280.897461,4592.05127,4567.820313,4431.153809,4528.205078,,,,,,,,,,,,,,,,,,,,,,,,,,,,,,,,,,,,,,,,,,,,,,,,,,,,,,,,,,,,,,,,,,,,,,
1769161671.062235,1769161671.062437,27.0,0.0,4271.153809,4267.563965,4817.179688,4371.666504,4248.846191,4267.692383,4281.282227,4296.666504,4278.974121,4273.846191,4581.794922,4554.487305,4421.538574,4521.922852,,,,,,,,,,,,,,,,,,,,,,,,,,,,,,,,,,,,,,,,,,,,,,,,,,,,,,,,,,,,,,,,,,,,,,
1769161671.070043,1769161671.070445,28.0,0.0,4265.0,4263.461426,4810.641113,4370.897461,4250.512695,4263.077148,4278.846191,4287.436035,4274.743652,4264.358887,4570.0,4538.717773,4411.666504,4510.384766,,,,,,,,,,,,,,,,,,,,,,,,,,,,,,,,,,,,,,,,,,,,,,,,,,,,,,,,,,,,,,,,,,,,,,
1769161671.077852,1769161671.078254,29.0,0.0,4263.205078,4263.974121,4810.384766,4370.769043,4245.384766,4258.589844,4273.461426,4276.922852,4270.641113,4261.538574,4566.025879,4537.05127,4406.922852,4503.846191,,,,,,,,,,,,,,,,,,,,,,,,,,,,,,,,,,,,,,,,,,,,,,,,,,,,,,,,,,,,,,,,,,,,,,
1769161671.08566,1769161671.086162,30.0,0.0,4263.333496,4263.974121,4811.794922,4371.538574,4242.307617,4261.410156,4266.794922,4278.205078,4267.94873,4264.230957,4567.179688,4539.871582,4403.205078,4507.820313,0.817955,0.706032,0.201554,0.21698,0.1645,0.53196,0.390274,0.079685,0.128843,0.050363,0.347794,0.299985,0.152422,0.14654,0.100649,0.416368,0.242032,0.241093,0.16946,0.066925,0.185444,0.217852,0.094504,0.057651,0.029051,0.200005,0.258744,0.113096,0.141631,0.110835,0.095128,0.284101,0.182305,0.188464,0.186828,0.72711,0.152074,0.073654,0.067338,0.05636,0.469424,0.773892,0.199301,0.146366,0.083642,0.472802,0.885225,0.257443,0.206162,0.126005,0.516368,0.564937,0.451501,0.297631,0.142337,0.897771,0.50232,0.110831,0.346851,0.143996,1.089272,0.830176,0.268572,0.218241,0.12735,1.265235,0.771403,0.197484,0.231632,0.168766
1769161671.093469,1769161671.093971,31.0,0.0,4264.358887,4262.692383,4813.333496,4372.563965,4243.974121,4262.820313,4263.333496,4280.769043,4269.102539,4263.205078,4564.487305,4536.922852,4399.102539,4507.94873,,,,,,,,,,,,,,,,,,,,,,,,,,,,,,,,,,,,,,,,,,,,,,,,,,,,,,,,,,,,,,,,,,,,,,
1769161671.101277,1769161671.101579,32.0,0.0,4262.307617,4261.794922,4811.922852,4374.358887,4243.846191,4260.384766,4270.641113,4278.333496,4266.666504,4260.256348,4557.692383,4533.717773,4395.512695,4501.538574,,,,,,,,,,,,,,,,,,,,,,,,,,,,,,,,,,,,,,,,,,,,,,,,,,,,,,,,,,,,,,,,,,,,,,
1769161671.109085,1769161671.109388,33.0,0.0,4259.487305,4262.820313,4810.0,4379.102539,4245.256348,4261.666504,4278.077148,4278.974121,4262.563965,4260.256348,4555.897461,4537.179688,4392.179688,4500.897461,,,,,,,,,,,,,,,,,,,,,,,,,,,,,,,,,,,,,,,,,,,,,,,,,,,,,,,,,,,,,,,,,,,,,,
1769161671.116894,1769161671.117096,34.0,0.0,4260.641113,4265.512695,4811.410156,4382.05127,4250.384766,4263.077148,4271.538574,4280.256348,4263.461426,4260.897461,4557.820313,4541.282227,4391.794922,4505.512695,,,,,,,,,,,,,,,,,,,,,,,,,,,,,,,,,,,,,,,,,,,,,,,,,,,,,,,,,,,,,,,,,,,,,,
1769161671.124702,1769161671.124905,35.0,0.0,4263.333496,4266.922852,4812.307617,4383.589844,4251.410156,4262.563965,4265.384766,4278.461426,4265.0,4259.871582,4560.769043,4539.102539,4398.461426,4507.179688,,,,,,,,,,,,,,,,,,,,,,,,,,,,,,,,,,,,,,,,,,,,,,,,,,,,,,,,,,,,,,,,,,,,,,
1769161671.132511,1769161671.132513,36.0,0.0,4263.717773,4266.666504,4811.025879,4388.589844,4250.256348,4262.179688,4269.615234,4278.974121,4264.871582,4259.358887,4565.769043,4536.922852,4405.256348,4509.230957,,,,,,,,,,,,,,,,,,,,,,,,,,,,,,,,,,,,,,,,,,,,,,,,,,,,,,,,,,,,,,,,,,,,,,
1769161671.140319,1769161671.140322,37.0,0.0,4265.128418,4266.410156,4812.563965,4393.461426,4250.769043,4262.179688,4270.256348,4280.512695,4266.794922,4262.05127,4570.897461,4541.666504,4406.282227,4513.974121,,,,,,,,,,,,,,,,,,,,,,,,,,,,,,,,,,,,,,,,,,,,,,,,,,,,,,,,,,,,,,,,,,,,,,
1769161671.148128,1769161671.14823,38.0,0.0,4264.743652,4266.922852,4812.94873,4395.256348,4250.897461,4263.974121,4264.230957,4279.615234,4266.666504,4263.461426,4572.307617,4544.615234,4402.94873,4512.820313,,,,,,,,,,,,,,,,,,,,,,,,,,,,,,,,,,,,,,,,,,,,,,,,,,,,,,,,,,,,,,,,,,,,,,
1769161671.155936,1769161671.156039,39.0,0.0,4263.974121,4268.333496,4807.563965,4395.769043,4250.512695,4265.0,4262.820313,4277.179688,4264.102539,4262.436035,4567.94873,4540.0,4403.333496,4507.94873,,,,,,,,,,,,,,,,,,,,,,,,,,,,,,,,,,,,,,,,,,,,,,,,,,,,,,,,,,,,,,,,,,,,,,
1769161671.163745,1769161671.164047,40.0,0.0,4263.589844,4267.05127,4804.743652,4395.769043,4250.512695,4264.102539,4265.641113,4277.436035,4264.230957,4262.94873,4563.974121,4537.05127,4408.333496,4507.692383,,,,,,,,,,,,,,,,,,,,,,,,,,,,,,,,,,,,,,,,,,,,,,,,,,,,,,,,,,,,,,,,,,,,,,
1769161671.171553,1769161671.171855,41.0,0.0,4263.461426,4266.410156,4810.256348,4400.769043,4250.512695,4266.025879,4267.436035,4282.436035,4268.974121,4263.461426,4566.282227,4541.410156,4410.512695,4510.384766,,,,,,,,,,,,,,,,,,,,,,,,,,,,,,,,,,,,,,,,,,,,,,,,,,,,,,,,,,,,,,,,,,,,,,
1769161671.179361,1769161671.179764,42.0,0.0,4269.615234,4271.538574,4814.358887,4408.717773,4250.512695,4264.487305,4265.256348,4280.641113,4267.05127,4263.461426,4568.333496,4543.461426,4406.282227,4510.641113,,,,,,,,,,,,,,,,,,,,,,,,,,,,,,,,,,,,,,,,,,,,,,,,,,,,,,,,,,,,,,,,,,,,,,
1769161671.18717,1769161671.187572,43.0,0.0,4273.974121,4275.897461,4812.820313,4412.563965,4250.512695,4262.05127,4262.563965,4276.794922,4264.487305,4262.563965,4562.692383,4538.974121,4401.666504,4508.974121,,,,,,,,,,,,,,,,,,,,,,,,,,,,,,,,,,,,,,,,,,,,,,,,,,,,,,,,,,,,,,,,,,,,,,
1769161671.194979,1769161671.19558,44.0,0.0,4265.128418,4272.563965,4810.641113,4410.769043,4250.512695,4271.282227,4273.974121,4286.794922,4272.05127,4261.922852,4560.384766,4535.384766,4397.563965,4506.153809,,,,,,,,,,,,,,,,,,,,,,,,,,,,,,,,,,,,,,,,,,,,,,,,,,,,,,,,,,,,,,,,,,,,,,
1769161671.202787,1769161671.203389,45.0,0.0,4258.589844,4271.538574,4809.102539,4410.897461,4250.512695,4275.256348,4284.358887,4292.692383,4273.717773,4261.922852,4565.384766,4537.05127,4397.820313,4502.94873,,,,,,,,,,,,,,,,,,,,,,,,,,,,,,,,,,,,,,,,,,,,,,,,,,,,,,,,,,,,,,,,,,,,,,
1769161671.210595,1769161671.211097,46.0,0.0,4269.743652,4278.333496,4810.641113,4420.769043,4250.512695,4265.128418,4268.717773,4280.512695,4264.230957,4262.94873,4568.846191,4538.333496,4406.538574,4507.179688,0.784587,0.740879,0.262162,0.233047,0.149849,0.429712,0.482681,0.09234,0.126673,0.052616,0.455748,0.318656,0.1917,0.16799,0.0975,0.367835,0.248828,0.225607,0.175002,0.067108,0.154732,0.227004,0.096368,0.062236,0.034521,0.172996,0.250821,0.136126,0.12383,0.112158,0.10656,0.28829,0.208707,0.175045,0.187086,0.580251,0.137174,0.076573,0.065262,0.04839,0.486337,0.85096,0.20066,0.162118,0.094162,0.497343,0.996742,0.291223,0.199689,0.117897,0.577841,0.692935,0.46094,0.305693,0.121867,0.748538,0.485293,0.125488,0.349371,0.129375,1.028247,1.004395,0.27007,0.21644,0.127228,1.031556,0.856098,0.224645,0.232542,0.165226
1769161671.218404,1769161671.218906,47.0,0.0,4279.743652,4275.384766,4813.077148,4426.538574,4250.512695,4261.794922,4257.563965,4275.256348,4266.025879,4264.743652,4567.820313,4539.102539,4412.307617,4516.410156,,,,,,,,,,,,,,,,,,,,,,,,,,,,,,,,,,,,,,,,,,,,,,,,,,,,,,,,,,,,,,,,,,,,,,
1769161671.226212,1769161671.226514,48.0,0.0,4277.820313,4266.153809,4811.922852,4420.512695,4250.512695,4269.358887,4270.0,4282.820313,4276.410156,4264.358887,4569.358887,4546.410156,4411.922852,4522.436035,,,,,,,,,,,,,,,,,,,,,,,,,,,,,,,,,,,,,,,,,,,,,,,,,,,,,,,,,,,,,,,,,,,,,,
1769161671.234021,1769161671.234323,49.0,0.0,4276.666504,4270.128418,4811.282227,4420.384766,4250.512695,4268.077148,4272.692383,4282.94873,4278.589844,4267.94873,4578.077148,4555.128418,4414.615234,4524.487305,,,,,,,,,,,,,,,,,,,,,,,,,,,,,,,,,,,,,,,,,,,,,,,,,,,,,,,,,,,,,,,,,,,,,,
1769161671.241829,1769161671.242031,50.0,0.0,4279.102539,4278.333496,4811.410156,4429.871582,4250.512695,4260.897461,4260.512695,4280.128418,4278.589844,4274.102539,4582.05127,4555.256348,4417.436035,4524.358887,,,,,,,,,,,,,,,,,,,,,,,,,,,,,,,,,,,,,,,,,,,,,,,,,,,,,,,,,,,,,,,,,,,,,,
1769161671.249638,1769161671.24984,51.0,0.0,4278.589844,4275.384766,4808.717773,4429.102539,4250.512695,4261.538574,4261.666504,4282.179688,4280.0,4270.897461,4574.102539,4550.512695,4415.128418,4523.077148,,,,,,,,,,,,,,,,,,,,,,,,,,,,,,,,,,,,,,,,,,,,,,,,,,,,,,,,,,,,,,,,,,,,,,
1769161671.257446,1769161671.257448,52.0,0.0,4276.538574,4271.025879,4809.102539,4423.974121,4250.512695,4263.461426,4265.256348,4281.025879,4276.922852,4262.820313,4568.333496,4549.487305,4410.897461,4522.179688,,,,,,,,,,,,,,,,,,,,,,,,,,,,,,,,,,,,,,,,,,,,,,,,,,,,,,,,,,,,,,,,,,,,,,
1769161671.265255,1769161671.265257,53.0,0.0,4279.743652,4273.333496,4812.307617,4429.358887,4250.512695,4264.102539,4264.230957,4282.820313,4277.820313,4263.333496,4572.05127,4551.666504,4411.153809,4522.436035,,,,,,,,,,,,,,,,,,,,,,,,,,,,,,,,,,,,,,,,,,,,,,,,,,,,,,,,,,,,,,,,,,,,,,
1769161671.273063,1769161671.273165,54.0,0.0,4282.563965,4273.974121,4811.410156,4434.487305,4250.512695,4266.153809,4271.282227,4290.256348,4281.794922,4266.922852,4573.846191,4555.128418,4413.589844,4523.333496,,,,,,,,,,,,,,,,,,,,,,,,,,,,,,,,,,,,,,,,,,,,,,,,,,,,,,,,,,,,,,,,,,,,,,
1769161671.280872,1769161671.280974,55.0,0.0,4280.256348,4275.256348,4811.922852,4437.692383,4250.769043,4267.307617,4272.436035,4293.333496,4283.333496,4266.666504,4572.94873,4556.666504,4413.589844,4525.897461,,,,,,,,,,,,,,,,,,,,,,,,,,,,,,,,,,,,,,,,,,,,,,,,,,,,,,,,,,,,,,,,,,,,,,
1769161671.28868,1769161671.288982,56.0,0.0,4276.794922,4275.0,4812.05127,4436.794922,4250.512695,4264.615234,4263.974121,4287.820313,4282.307617,4265.641113,4571.666504,4550.0,4410.769043,4520.897461,,,,,,,,,,,,,,,,,,,,,,,,,,,,,,,,,,,,,,,,,,,,,,,,,,,,,,,,,,,,,,,,,,,,,,
1769161671.296488,1769161671.29679,57.0,0.0,4277.436035,4268.461426,4804.487305,4434.871582,4250.128418,4262.563965,4263.974121,4281.282227,4276.410156,4262.436035,4566.666504,4540.256348,4408.846191,4506.666504,,,,,,,,,,,,,,,,,,,,,,,,,,,,,,,,,,,,,,,,,,,,,,,,,,,,,,,,,,,,,,,,,,,,,,
1769161671.304297,1769161671.304499,58.0,0.0,4279.743652,4265.384766,4797.692383,4440.384766,4251.025879,4263.333496,4266.282227,4278.846191,4271.410156,4259.871582,4565.769043,4536.153809,4410.256348,4507.307617,,,,,,,,,,,,,,,,,,,,,,,,,,,,,,,,,,,,,,,,,,,,,,,,,,,,,,,,,,,,,,,,,,,,,,
1769161671.312105,1769161671.312307,59.0,0.0,4277.692383,4268.846191,4797.820313,4443.205078,4250.128418,4263.846191,4262.563965,4279.102539,4274.871582,4260.897461,4568.333496,4541.153809,4411.794922,4517.563965,,,,,,,,,,,,,,,,,,,,,,,,,,,,,,,,,,,,,,,,,,,,,,,,,,,,,,,,,,,,,,,,,,,,,,
1769161671.319914,1769161671.319916,60.0,0.0,4275.897461,4270.641113,4796.282227,4436.153809,4247.436035,4265.0,4263.333496,4277.820313,4278.846191,4262.179688,4567.692383,4548.846191,4412.05127,4516.666504,,,,,,,,,,,,,,,,,,,,,,,,,,,,,,,,,,,,,,,,,,,,,,,,,,,,,,,,,,,,,,,,,,,,,,
1769161671.327722,1769161671.327725,61.0,0.0,4277.820313,4273.205078,4795.128418,4435.512695,4248.717773,4262.692383,4267.436035,4280.0,4278.717773,4264.615234,4569.743652,4553.461426,4413.974121,4516.410156,,,,,,,,,,,,,,,,,,,,,,,,,,,,,,,,,,,,,,,,,,,,,,,,,,,,,,,,,,,,,,,,,,,,,,
1769161671.335531,1769161671.335433,62.0,0.0,4279.358887,4279.487305,4798.589844,4446.794922,4252.05127,4260.0,4265.0,4284.358887,4279.230957,4266.282227,4573.333496,4555.897461,4415.769043,4525.128418,0.722664,0.774527,0.332439,0.246041,0.136692,0.35555,0.624174,0.123255,0.130554,0.065267,0.490382,0.324342,0.243153,0.190452,0.100723,0.389637,0.267393,0.21397,0.171077,0.067783,0.151521,0.235097,0.096642,0.067259,0.047986,0.155037,0.249133,0.160756,0.11236,0.11423,0.15051,0.292212,0.220489,0.164535,0.186176,0.438154,0.140891,0.078976,0.061648,0.044713,0.515622,0.872705,0.20361,0.168619,0.109486,0.507168,1.047104,0.329078,0.179265,0.115169,0.68438,0.81118,0.456112,0.296531,0.107377,0.699142,0.492983,0.156737,0.334185,0.128637,0.972145,1.147597,0.281115,0.20648,0.132127,0.828727,0.946856,0.262246,0.217494,0.15662
1769161671.343339,1769161671.343242,63.0,0.0,4279.230957,4280.897461,4798.333496,4449.487305,4252.94873,4261.666504,4265.0,4283.589844,4280.641113,4265.384766,4573.974121,4557.563965,4415.0,4527.436035,,,,,,,,,,,,,,,,,,,,,,,,,,,,,,,,,,,,,,,,,,,,,,,,,,,,,,,,,,,,,,,,,,,,,,
1769161671.351148,1769161671.35125,64.0,0.0,4277.563965,4272.05127,4794.743652,4445.512695,4252.563965,4264.743652,4275.128418,4283.974121,4280.0,4264.615234,4572.820313,4555.897461,4413.333496,4524.358887,,,,,,,,,,,,,,,,,,,,,,,,,,,,,,,,,,,,,,,,,,,,,,,,,,,,,,,,,,,,,,,,,,,,,,
1769161671.358956,1769161671.359058,65.0,0.0,4274.743652,4265.512695,4793.974121,4444.743652,4251.025879,4265.128418,4280.384766,4287.820313,4278.333496,4264.743652,4572.94873,4551.922852,4411.153809,4525.641113,,,,,,,,,,,,,,,,,,,,,,,,,,,,,,,,,,,,,,,,,,,,,,,,,,,,,,,,,,,,,,,,,,,,,,
1769161671.366764,1769161671.366967,66.0,0.0,4276.153809,4269.871582,4796.922852,4443.846191,4249.102539,4263.333496,4268.589844,4289.358887,4278.333496,4265.769043,4576.794922,4554.358887,4411.410156,4525.0,,,,,,,,,,,,,,,,,,,,,,,,,,,,,,,,,,,,,,,,,,,,,,,,,,,,,,,,,,,,,,,,,,,,,,
1769161671.374573,1769161671.374775,67.0,0.0,4281.153809,4277.307617,4796.153809,4449.615234,4250.897461,4262.307617,4259.871582,4289.102539,4280.769043,4267.820313,4582.05127,4557.692383,4415.128418,4524.871582,,,,,,,,,,,,,,,,,,,,,,,,,,,,,,,,,,,,,,,,,,,,,,,,,,,,,,,,,,,,,,,,,,,,,,
1769161671.382381,1769161671.382783,68.0,0.0,4280.769043,4279.230957,4788.333496,4458.333496,4253.077148,4263.077148,4267.820313,4289.743652,4280.512695,4267.820313,4582.692383,4555.128418,4419.487305,4528.974121,,,,,,,,,,,,,,,,,,,,,,,,,,,,,,,,,,,,,,,,,,,,,,,,,,,,,,,,,,,,,,,,,,,,,,
1769161671.39019,1769161671.390592,69.0,0.0,4276.922852,4278.333496,4784.102539,4459.871582,4252.820313,4264.358887,4276.410156,4287.94873,4277.436035,4266.025879,4579.743652,4552.820313,4420.256348,4527.94873,,,,,,,,,,,,,,,,,,,,,,,,,,,,,,,,,,,,,,,,,,,,,,,,,,,,,,,,,,,,,,,,,,,,,,
1769161671.397998,1769161671.3984,70.0,0.0,4277.307617,4279.230957,4786.538574,4458.589844,4252.436035,4263.589844,4275.897461,4287.563965,4278.077148,4266.666504,4580.641113,4554.487305,4417.05127,4524.102539,,,,,,,,,,,,,,,,,,,,,,,,,,,,,,,,,,,,,,,,,,,,,,,,,,,,,,,,,,,,,,,,,,,,,,
1769161671.405807,1769161671.406209,71.0,0.0,4279.871582,4279.871582,4784.743652,4458.077148,4251.922852,4262.436035,4276.153809,4291.410156,4279.358887,4266.794922,4578.205078,4553.589844,4413.717773,4524.358887,,,,,,,,,,,,,,,,,,,,,,,,,,,,,,,,,,,,,,,,,,,,,,,,,,,,,,,,,,,,,,,,,,,,,,
1769161671.413615,1769161671.413817,72.0,0.0,4278.974121,4280.128418,4780.769043,4457.94873,4250.897461,4263.974121,4277.820313,4291.922852,4276.538574,4262.307617,4572.436035,4550.897461,4412.820313,4525.0,,,,,,,,,,,,,,,,,,,,,,,,,,,,,,,,,,,,,,,,,,,,,,,,,,,,,,,,,,,,,,,,,,,,,,
1769161671.421424,1769161671.421626,73.0,0.0,4279.871582,4278.333496,4784.102539,4459.615234,4251.025879,4263.205078,4277.692383,4292.307617,4275.769043,4264.358887,4576.153809,4553.461426,4413.205078,4523.077148,,,,,,,,,,,,,,,,,,,,,,,,,,,,,,,,,,,,,,,,,,,,,,,,,,,,,,,,,,,,,,,,,,,,,,
1769161671.429232,1769161671.429334,74.0,0.0,4275.769043,4273.205078,4783.205078,4454.230957,4251.153809,4261.410156,4279.487305,4295.641113,4280.0,4272.692383,4582.94873,4557.179688,4411.666504,4522.692383,,,,,,,,,,,,,,,,,,,,,,,,,,,,,,,,,,,,,,,,,,,,,,,,,,,,,,,,,,,,,,,,,,,,,,
1769161671.43704,1769161671.437143,75.0,0.0,4267.05127,4271.794922,4777.05127,4445.384766,4250.897461,4263.717773,4279.230957,4297.436035,4282.94873,4277.94873,4582.563965,4557.692383,4412.436035,4523.077148,,,,,,,,,,,,,,,,,,,,,,,,,,,,,,,,,,,,,,,,,,,,,,,,,,,,,,,,,,,,,,,,,,,,,,
1769161671.444849,1769161671.444751,76.0,0.0,4271.025879,4276.282227,4780.0,4453.589844,4250.769043,4262.436035,4273.333496,4295.384766,4281.538574,4274.102539,4579.615234,4556.153809,4414.743652,4522.436035,,,,,,,,,,,,,,,,,,,,,,,,,,,,,,,,,,,,,,,,,,,,,,,,,,,,,,,,,,,,,,,,,,,,,,
1769161671.452657,1769161671.45256,77.0,0.0,4278.333496,4277.820313,4780.128418,4458.589844,4250.641113,4258.461426,4274.743652,4293.333496,4279.102539,4268.333496,4577.05127,4555.128418,4408.974121,4521.282227,,,,,,,,,,,,,,,,,,,,,,,,,,,,,,,,,,,,,,,,,,,,,,,,,,,,,,,,,,,,,,,,,,,,,,
1769161671.460466,1769161671.460268,78.0,0.0,4273.461426,4274.615234,4772.563965,4448.333496,4251.025879,4260.512695,4279.487305,4293.077148,4278.717773,4268.974121,4576.282227,4555.769043,4405.384766,4521.922852,0.637035,0.793662,0.402582,0.250262,0.130066,0.320843,0.76597,0.169781,0.139773,0.084842,0.554963,0.319616,0.302005,0.209085,0.110948,0.414227,0.292234,0.212287,0.157461,0.067646,0.172533,0.241957,0.094894,0.072216,0.069486,0.148545,0.259725,0.186064,0.107138,0.116712,0.228657,0.314616,0.221088,0.161459,0.188694,0.34884,0.157292,0.084099,0.058807,0.044041,0.559415,0.846335,0.211888,0.165079,0.122819,0.520597,1.027779,0.364111,0.154022,0.115471,0.797514,0.906711,0.455455,0.273302,0.101066,0.749863,0.530293,0.211414,0.309015,0.142624,0.928341,1.261108,0.316799,0.192303,0.140794,0.694683,1.02567,0.312127,0.193021,0.150525
1769161671.468274,1769161671.468077,79.0,0.0,4272.307617,4273.461426,4775.384766,4449.358887,4252.820313,4264.230957,4274.487305,4292.563965,4280.128418,4271.538574,4581.025879,4556.794922,4410.128418,4523.461426,,,,,,,,,,,,,,,,,,,,,,,,,,,,,,,,,,,,,,,,,,,,,,,,,,,,,,,,,,,,,,,,,,,,,,
1769161671.476083,1769161671.476085,80.0,0.0,4279.615234,4273.205078,4780.384766,4460.0,4252.692383,4262.436035,4269.102539,4292.692383,4279.743652,4268.077148,4580.897461,4556.666504,4410.512695,4518.717773,,,,,,,,,,,,,,,,,,,,,,,,,,,,,,,,,,,,,,,,,,,,,,,,,,,,,,,,,,,,,,,,,,,,,,
1769161671.483891,1769161671.483893,81.0,0.0,4277.820313,4273.461426,4773.974121,4459.615234,4251.794922,4258.205078,4270.384766,4291.025879,4272.94873,4262.563965,4570.384766,4554.358887,4404.743652,4513.846191,,,,,,,,,,,,,,,,,,,,,,,,,,,,,,,,,,,,,,,,,,,,,,,,,,,,,,,,,,,,,,,,,,,,,,
1769161671.4917,1769161671.491802,82.0,0.0,4275.256348,4277.179688,4771.794922,4457.436035,4255.0,4258.461426,4272.820313,4290.384766,4271.410156,4264.230957,4571.410156,4553.717773,4408.333496,4519.871582,,,,,,,,,,,,,,,,,,,,,,,,,,,,,,,,,,,,,,,,,,,,,,,,,,,,,,,,,,,,,,,,,,,,,,
1769161671.499508,1769161671.49961,83.0,0.0,4281.666504,4281.410156,4780.897461,4462.05127,4260.128418,4262.563965,4277.05127,4294.358887,4276.153809,4266.282227,4581.153809,4557.563965,4415.128418,4529.871582,,,,,,,,,,,,,,,,,,,,,,,,,,,,,,,,,,,,,,,,,,,,,,,,,,,,,,,,,,,,,,,,,,,,,,
1769161671.507316,1769161671.507219,84.0,0.0,4282.692383,4280.769043,4780.128418,4462.563965,4260.0,4264.230957,4278.974121,4293.589844,4271.282227,4263.589844,4576.794922,4558.077148,4408.846191,4529.871582,,,,,,,,,,,,,,,,,,,,,,,,,,,,,,,,,,,,,,,,,,,,,,,,,,,,,,,,,,,,,,,,,,,,,,
1769161671.515125,1769161671.515027,85.0,0.0,4280.384766,4277.563965,4770.512695,4459.871582,4256.794922,4263.974121,4279.358887,4289.487305,4265.641113,4262.179688,4567.307617,4553.077148,4403.333496,4521.922852,,,,,,,,,,,,,,,,,,,,,,,,,,,,,,,,,,,,,,,,,,,,,,,,,,,,,,,,,,,,,,,,,,,,,,
1769161671.522933,1769161671.522736,86.0,0.0,4280.256348,4276.922852,4770.641113,4459.358887,4258.589844,4262.820313,4280.512695,4291.282227,4272.692383,4263.333496,4572.94873,4552.436035,4409.871582,4523.461426,,,,,,,,,,,,,,,,,,,,,,,,,,,,,,,,,,,,,,,,,,,,,,,,,,,,,,,,,,,,,,,,,,,,,,
1769161671.530742,1769161671.530544,87.0,0.0,4281.538574,4278.974121,4774.487305,4460.641113,4260.0,4254.615234,4270.769043,4288.333496,4277.307617,4265.0,4583.333496,4556.666504,4416.410156,4534.615234,,,,,,,,,,,,,,,,,,,,,,,,,,,,,,,,,,,,,,,,,,,,,,,,,,,,,,,,,,,,,,,,,,,,,,
1769161671.53855,1769161671.538553,88.0,0.0,4286.410156,4281.153809,4770.897461,4462.820313,4257.820313,4245.384766,4261.410156,4278.974121,4271.922852,4263.461426,4582.563965,4554.743652,4415.384766,4540.0,,,,,,,,,,,,,,,,,,,,,,,,,,,,,,,,,,,,,,,,,,,,,,,,,,,,,,,,,,,,,,,,,,,,,,
1769161671.546359,1769161671.546361,89.0,0.0,4289.487305,4281.153809,4767.307617,4463.077148,4259.230957,4248.461426,4272.307617,4279.230957,4272.563965,4264.743652,4579.487305,4551.153809,4414.102539,4535.128418,,,,,,,,,,,,,,,,,,,,,,,,,,,,,,,,,,,,,,,,,,,,,,,,,,,,,,,,,,,,,,,,,,,,,,
1769161671.554167,1769161671.554269,90.0,0.0,4284.358887,4281.025879,4766.410156,4462.179688,4262.307617,4254.358887,4275.384766,4285.0,4279.358887,4269.871582,4583.077148,4552.94873,4415.897461,4528.333496,,,,,,,,,,,,,,,,,,,,,,,,,,,,,,,,,,,,,,,,,,,,,,,,,,,,,,,,,,,,,,,,,,,,,,
1769161671.561976,1769161671.562078,91.0,0.0,4278.589844,4280.384766,4763.461426,4461.794922,4260.0,4252.05127,4265.769043,4281.666504,4280.0,4269.102539,4583.846191,4554.230957,4414.102539,4526.922852,,,,,,,,,,,,,,,,,,,,,,,,,,,,,,,,,,,,,,,,,,,,,,,,,,,,,,,,,,,,,,,,,,,,,,
1769161671.569784,1769161671.570086,92.0,0.0,4279.615234,4282.307617,4763.589844,4462.307617,4257.692383,4249.358887,4271.153809,4277.94873,4275.769043,4263.589844,4579.743652,4554.871582,4414.102539,4530.384766,,,,,,,,,,,,,,,,,,,,,,,,,,,,,,,,,,,,,,,,,,,,,,,,,,,,,,,,,,,,,,,,,,,,,,
1769161671.577592,1769161671.577894,93.0,0.0,4279.871582,4277.692383,4765.641113,4461.153809,4261.538574,4257.307617,4281.794922,4284.743652,4274.230957,4262.05127,4577.436035,4550.769043,4416.025879,4530.769043,,,,,,,,,,,,,,,,,,,,,,,,,,,,,,,,,,,,,,,,,,,,,,,,,,,,,,,,,,,,,,,,,,,,,,
1769161671.585401,1769161671.585803,94.0,0.0,4274.871582,4266.794922,4756.666504,4458.974121,4263.717773,4265.128418,4279.102539,4291.794922,4277.436035,4261.025879,4571.794922,4542.94873,4411.025879,4522.563965,0.548245,0.782117,0.456889,0.243583,0.13106,0.332239,0.852034,0.223704,0.151964,0.105462,0.606204,0.30333,0.354028,0.219304,0.124758,0.485258,0.311876,0.2201,0.137851,0.066734,0.210526,0.247229,0.090975,0.076394,0.095747,0.156846,0.285637,0.20987,0.104434,0.118551,0.324974,0.362433,0.220111,0.165495,0.197265,0.335282,0.181586,0.098782,0.05936,0.045906,0.612742,0.786267,0.226708,0.155394,0.129173,0.554849,0.946587,0.390259,0.132896,0.115961,0.877071,0.974254,0.472445,0.24261,0.102276,0.851959,0.597704,0.282909,0.282654,0.166199,0.892142,1.355479,0.382568,0.17884,0.149714,0.625819,1.075636,0.366646,0.169715,0.151807
1769161671.593209,1769161671.593611,95.0,0.0,4274.358887,4267.94873,4748.589844,4459.615234,4261.538574,4257.692383,4277.436035,4294.230957,4280.641113,4263.461426,4568.077148,4545.256348,4409.102539,4517.820313,,,,,,,,,,,,,,,,,,,,,,,,,,,,,,,,,,,,,,,,,,,,,,,,,,,,,,,,,,,,,,,,,,,,,,
1769161671.601018,1769161671.60162,96.0,0.0,4278.461426,4277.307617,4758.717773,4460.641113,4258.333496,4246.666504,4280.769043,4292.94873,4283.333496,4270.769043,4580.0,4556.025879,4421.666504,4529.230957,,,,,,,,,,,,,,,,,,,,,,,,,,,,,,,,,,,,,,,,,,,,,,,,,,,,,,,,,,,,,,,,,,,,,,
1769161671.608826,1769161671.609428,97.0,0.0,4281.410156,4278.589844,4761.794922,4460.769043,4256.922852,4248.461426,4277.436035,4286.410156,4278.205078,4271.153809,4584.358887,4557.05127,4427.563965,4537.179688,,,,,,,,,,,,,,,,,,,,,,,,,,,,,,,,,,,,,,,,,,,,,,,,,,,,,,,,,,,,,,,,,,,,,,
1769161671.616635,1769161671.617137,98.0,0.0,4279.743652,4276.153809,4744.487305,4462.436035,4259.743652,4256.025879,4275.0,4283.589844,4268.974121,4263.974121,4573.205078,4546.282227,4415.384766,4529.102539,,,,,,,,,,,,,,,,,,,,,,,,,,,,,,,,,,,,,,,,,,,,,,,,,,,,,,,,,,,,,,,,,,,,,,
1769161671.624443,1769161671.624945,99.0,0.0,4277.179688,4278.717773,4736.282227,4462.563965,4262.563965,4259.358887,4280.256348,4287.820313,4271.538574,4262.179688,4575.384766,4543.589844,4411.153809,4524.358887,,,,,,,,,,,,,,,,,,,,,,,,,,,,,,,,,,,,,,,,,,,,,,,,,,,,,,,,,,,,,,,,,,,,,,
1769161671.632252,1769161671.632554,100.0,0.0,4276.922852,4280.384766,4743.717773,4461.794922,4261.922852,4258.846191,4280.512695,4285.897461,4273.333496,4263.333496,4582.820313,4545.512695,4417.05127,4527.94873,,,,,,,,,,,,,,,,,,,,,,,,,,,,,,,,,,,,,,,,,,,,,,,,,,,,,,,,,,,,,,,,,,,,,,
1769161671.64006,1769161671.640362,101.0,0.0,4278.717773,4278.974121,4743.589844,4466.666504,4259.615234,4256.025879,4277.179688,4277.820313,4264.743652,4260.897461,4574.102539,4541.410156,4413.333496,4523.205078,,,,,,,,,,,,,,,,,,,,,,,,,,,,,,,,,,,,,,,,,,,,,,,,,,,,,,,,,,,,,,,,,,,,,,
1769161671.647869,1769161671.648071,102.0,0.0,4283.846191,4279.743652,4741.922852,4473.974121,4262.820313,4252.820313,4279.230957,4280.256348,4267.820313,4263.461426,4572.436035,4544.102539,4414.230957,4522.692383,,,,,,,,,,,,,,,,,,,,,,,,,,,,,,,,,,,,,,,,,,,,,,,,,,,,,,,,,,,,,,,,,,,,,,
1769161671.655677,1769161671.655879,103.0,0.0,4290.256348,4285.0,4747.436035,4475.897461,4265.256348,4247.692383,4275.512695,4287.05127,4281.538574,4272.563965,4588.974121,4556.153809,4428.205078,4537.94873,,,,,,,,,,,,,,,,,,,,,,,,,,,,,,,,,,,,,,,,,,,,,,,,,,,,,,,,,,,,,,,,,,,,,,
1769161671.663486,1769161671.663488,104.0,0.0,4291.282227,4290.0,4746.025879,4475.512695,4264.230957,4243.077148,4266.794922,4290.897461,4281.538574,4280.769043,4595.769043,4560.0,4433.846191,4544.230957,,,,,,,,,,,,,,,,,,,,,,,,,,,,,,,,,,,,,,,,,,,,,,,,,,,,,,,,,,,,,,,,,,,,,,
1769161671.671294,1769161671.671296,105.0,0.0,4291.153809,4289.743652,4743.077148,4477.179688,4268.205078,4245.641113,4270.769043,4292.179688,4276.153809,4280.0,4590.512695,4555.897461,4430.0,4539.615234,,,,,,,,,,,,,,,,,,,,,,,,,,,,,,,,,,,,,,,,,,,,,,,,,,,,,,,,,,,,,,,,,,,,,,
1769161671.679103,1769161671.679205,106.0,0.0,4293.077148,4287.563965,4743.205078,4476.794922,4271.410156,4250.769043,4279.487305,4285.512695,4277.820313,4269.871582,4586.025879,4556.666504,4425.641113,4538.846191,,,,,,,,,,,,,,,,,,,,,,,,,,,,,,,,,,,,,,,,,,,,,,,,,,,,,,,,,,,,,,,,,,,,,,
1769161671.686911,1769161671.687013,107.0,0.0,4287.05127,4283.717773,4738.205078,4474.358887,4267.94873,4250.512695,4278.333496,4277.692383,4277.179688,4261.025879,4581.025879,4553.846191,4417.436035,4535.0,,,,,,,,,,,,,,,,,,,,,,,,,,,,,,,,,,,,,,,,,,,,,,,,,,,,,,,,,,,,,,,,,,,,,,
1769161671.694719,1769161671.695021,108.0,0.0,4281.538574,4280.512695,4734.230957,4475.769043,4266.025879,4250.128418,4276.538574,4279.358887,4275.512695,4262.820313,4581.538574,4551.922852,4417.563965,4533.461426,,,,,,,,,,,,,,,,,,,,,,,,,,,,,,,,,,,,,,,,,,,,,,,,,,,,,,,,,,,,,,,,,,,,,,
1769161671.702528,1769161671.70283,109.0,0.0,4280.512695,4279.230957,4730.897461,4471.153809,4267.94873,4256.410156,4279.615234,4285.641113,4277.94873,4268.461426,4586.666504,4554.743652,4429.358887,4538.205078,,,,,,,,,,,,,,,,,,,,,,,,,,,,,,,,,,,,,,,,,,,,,,,,,,,,,,,,,,,,,,,,,,,,,,
1769161671.710336,1769161671.710738,110.0,0.0,4269.871582,4276.922852,4721.282227,4460.512695,4266.538574,4262.94873,4280.641113,4288.077148,4279.487305,4266.538574,4584.358887,4546.025879,4426.025879,4532.05127,0.479826,0.728845,0.480283,0.227998,0.136387,0.388568,0.848318,0.27329,0.164145,0.120991,0.584201,0.279407,0.389119,0.218922,0.136458,0.478633,0.319836,0.230448,0.117702,0.067055,0.246163,0.250133,0.085016,0.078918,0.120463,0.17457,0.319776,0.230081,0.100784,0.118347,0.418996,0.422733,0.229961,0.173052,0.211565,0.387284,0.20831,0.128746,0.064482,0.050573,0.669532,0.706455,0.238026,0.144721,0.127019,0.610506,0.822883,0.396027,0.119924,0.114429,0.903901,1.012498,0.50334,0.211538,0.108553,0.938095,0.686481,0.352026,0.261604,0.190032,0.862137,1.432096,0.464311,0.170446,0.154915,0.60762,1.088284,0.40984,0.156599,0.160211
1769161671.718145,1769161671.718546,111.0,0.0,4268.846191,4276.666504,4716.922852,4463.846191,4268.846191,4264.487305,4280.512695,4288.205078,4278.717773,4264.230957,4579.358887,4537.436035,4416.153809,4523.974121,,,,,,,,,,,,,,,,,,,,,,,,,,,,,,,,,,,,,,,,,,,,,,,,,,,,,,,,,,,,,,,,,,,,,,
1769161671.725953,1769161671.726555,112.0,0.0,4285.512695,4281.410156,4723.846191,4475.769043,4272.820313,4264.102539,4280.256348,4288.205078,4278.974121,4267.05127,4582.179688,4545.897461,4424.102539,4533.717773,,,,,,,,,,,,,,,,,,,,,,,,,,,,,,,,,,,,,,,,,,,,,,,,,,,,,,,,,,,,,,,,,,,,,,
1769161671.733762,1769161671.734363,113.0,0.0,4289.102539,4283.077148,4726.025879,4476.410156,4269.358887,4259.487305,4278.846191,4284.102539,4279.743652,4267.94873,4584.230957,4550.897461,4429.102539,4542.563965,,,,,,,,,,,,,,,,,,,,,,,,,,,,,,,,,,,,,,,,,,,,,,,,,,,,,,,,,,,,,,,,,,,,,,
1769161671.74157,1769161671.742271,114.0,0.0,4278.717773,4280.897461,4720.641113,4473.717773,4266.282227,4251.282227,4275.641113,4280.0,4280.256348,4266.153809,4580.641113,4541.794922,4420.0,4537.436035,,,,,,,,,,,,,,,,,,,,,,,,,,,,,,,,,,,,,,,,,,,,,,,,,,,,,,,,,,,,,,,,,,,,,,
1769161671.749379,1769161671.75008,115.0,0.0,4277.436035,4280.256348,4714.615234,4471.666504,4266.794922,4249.743652,4275.0,4282.436035,4278.974121,4265.897461,4581.666504,4539.358887,4419.743652,4535.512695,,,,,,,,,,,,,,,,,,,,,,,,,,,,,,,,,,,,,,,,,,,,,,,,,,,,,,,,,,,,,,,,,,,,,,
1769161671.757187,1769161671.758088,116.0,0.0,4279.102539,4277.820313,4710.641113,4462.94873,4266.538574,4253.205078,4278.974121,4283.974121,4277.05127,4266.153809,4584.230957,4544.615234,4427.179688,4539.102539,,,,,,,,,,,,,,,,,,,,,,,,,,,,,,,,,,,,,,,,,,,,,,,,,,,,,,,,,,,,,,,,,,,,,,
1769161671.764995,1769161671.765897,117.0,0.0,4278.846191,4276.282227,4710.641113,4458.589844,4265.512695,4249.615234,4278.846191,4279.743652,4277.307617,4264.102539,4583.974121,4543.974121,4423.333496,4539.487305,,,,,,,,,,,,,,,,,,,,,,,,,,,,,,,,,,,,,,,,,,,,,,,,,,,,,,,,,,,,,,,,,,,,,,
1769161671.772804,1769161671.773605,118.0,0.0,4279.743652,4276.025879,4710.256348,4461.922852,4267.05127,4248.717773,4276.153809,4278.717773,4277.820313,4262.820313,4580.128418,4540.641113,4415.256348,4536.922852,,,,,,,,,,,,,,,,,,,,,,,,,,,,,,,,,,,,,,,,,,,,,,,,,,,,,,,,,,,,,,,,,,,,,,
1769161671.780612,1769161671.781414,119.0,0.0,4276.025879,4269.102539,4704.615234,4458.717773,4267.436035,4255.128418,4279.487305,4281.410156,4276.025879,4262.563965,4573.974121,4539.743652,4412.436035,4529.743652,,,,,,,,,,,,,,,,,,,,,,,,,,,,,,,,,,,,,,,,,,,,,,,,,,,,,,,,,,,,,,,,,,,,,,
1769161671.788421,1769161671.789022,120.0,0.0,4274.871582,4262.563965,4701.794922,4455.897461,4266.282227,4256.666504,4283.333496,4283.333496,4273.589844,4260.641113,4570.512695,4537.307617,4411.153809,4522.94873,,,,,,,,,,,,,,,,,,,,,,,,,,,,,,,,,,,,,,,,,,,,,,,,,,,,,,,,,,,,,,,,,,,,,,
1769161671.796229,1769161671.796831,121.0,0.0,4278.333496,4271.282227,4705.128418,4461.922852,4267.05127,4247.820313,4280.256348,4281.282227,4272.692383,4262.94873,4571.410156,4535.0,4413.717773,4525.769043,,,,,,,,,,,,,,,,,,,,,,,,,,,,,,,,,,,,,,,,,,,,,,,,,,,,,,,,,,,,,,,,,,,,,,
1769161671.804038,1769161671.804739,122.0,0.0,4278.461426,4280.384766,4703.717773,4463.846191,4267.307617,4246.922852,4279.358887,4278.846191,4272.307617,4263.717773,4573.333496,4536.922852,4412.05127,4529.615234,,,,,,,,,,,,,,,,,,,,,,,,,,,,,,,,,,,,,,,,,,,,,,,,,,,,,,,,,,,,,,,,,,,,,,
1769161671.811846,1769161671.812547,123.0,0.0,4275.897461,4273.846191,4700.641113,4460.128418,4265.641113,4259.230957,4283.205078,4278.717773,4267.436035,4253.974121,4567.820313,4538.589844,4397.436035,4521.282227,,,,,,,,,,,,,,,,,,,,,,,,,,,,,,,,,,,,,,,,,,,,,,,,,,,,,,,,,,,,,,,,,,,,,,
1769161671.819655,1769161671.820156,124.0,0.0,4277.05127,4272.05127,4704.358887,4460.128418,4263.717773,4257.820313,4282.436035,4279.230957,4264.871582,4252.307617,4563.974121,4540.384766,4395.0,4516.282227,,,,,,,,,,,,,,,,,,,,,,,,,,,,,,,,,,,,,,,,,,,,,,,,,,,,,,,,,,,,,,,,,,,,,,
1769161671.827463,1769161671.827965,125.0,0.0,4278.589844,4279.102539,4706.538574,4461.282227,4263.333496,4246.794922,4278.205078,4278.589844,4272.307617,4263.333496,4571.922852,4544.102539,4411.538574,4529.230957,,,,,,,,,,,,,,,,,,,,,,,,,,,,,,,,,,,,,,,,,,,,,,,,,,,,,,,,,,,,,,,,,,,,,,
1769161671.835271,1769161671.835673,126.0,0.0,4278.077148,4280.0,4702.05127,4462.05127,4264.358887,4253.077148,4277.94873,4279.230957,4279.871582,4265.641113,4582.436035,4544.871582,4419.743652,4540.769043,0.453987,0.63879,0.464222,0.207865,0.141039,0.477076,0.75812,0.308019,0.174389,0.127265,0.537246,0.246592,0.396089,0.208674,0.141919,0.505814,0.317751,0.232663,0.101182,0.071244,0.269355,0.247606,0.077071,0.078601,0.136389,0.193881,0.347842,0.244,0.09604,0.115635,0.489909,0.469759,0.25655,0.180704,0.228643,0.47283,0.231766,0.175341,0.072463,0.058085,0.718486,0.616079,0.233106,0.136498,0.118303,0.674969,0.679683,0.371432,0.115283,0.109637,0.882456,1.019507,0.527663,0.186374,0.11728,0.956596,0.775406,0.395722,0.24863,0.204107,0.83575,1.474566,0.530576,0.170069,0.153968,0.615546,1.065261,0.424985,0.156878,0.171592
1769161671.84308,1769161671.843482,127.0,0.0,4286.538574,4282.692383,4703.333496,4467.692383,4266.153809,4261.794922,4279.102539,4279.615234,4278.333496,4261.410156,4584.230957,4542.94873,4420.128418,4537.820313,,,,,,,,,,,,,,,,,,,,,,,,,,,,,,,,,,,,,,,,,,,,,,,,,,,,,,,,,,,,,,,,,,,,,,
1769161671.850888,1769161671.85109,0.0,0.0,4299.487305,4289.230957,4710.128418,4474.743652,4267.436035,4253.461426,4278.205078,4278.205078,4276.410156,4264.487305,4584.230957,4546.153809,4427.179688,4536.025879,,,,,,,,,,,,,,,,,,,,,,,,,,,,,,,,,,,,,,,,,,,,,,,,,,,,,,,,,,,,,,,,,,,,,,
1769161671.858697,1769161671.858899,1.0,0.0,4296.410156,4285.512695,4705.512695,4471.153809,4265.769043,4248.589844,4278.717773,4279.358887,4278.589844,4267.692383,4587.692383,4552.307617,4430.128418,4541.153809,,,,,,,,,,,,,,,,,,,,,,,,,,,,,,,,,,,,,,,,,,,,,,,,,,,,,,,,,,,,,,,,,,,,,,
1769161671.866505,1769161671.866607,2.0,0.0,4284.358887,4278.974121,4693.205078,4462.692383,4266.153809,4251.538574,4279.743652,4280.384766,4280.384766,4266.922852,4588.974121,4555.897461,4426.922852,4542.307617,,,,,,,,,,,,,,,,,,,,,,,,,,,,,,,,,,,,,,,,,,,,,,,,,,,,,,,,,,,,,,,,,,,,,,
1769161671.874314,1769161671.874416,3.0,0.0,4280.256348,4278.461426,4689.102539,4458.974121,4271.410156,4250.0,4282.179688,4279.487305,4281.282227,4266.153809,4588.333496,4553.589844,4428.205078,4540.512695,,,,,,,,,,,,,,,,,,,,,,,,,,,,,,,,,,,,,,,,,,,,,,,,,,,,,,,,,,,,,,,,,,,,,,
1769161671.882122,1769161671.882424,4.0,0.0,4281.153809,4278.333496,4692.05127,4460.128418,4270.897461,4256.538574,4288.461426,4280.0,4279.743652,4263.846191,4583.846191,4543.589844,4426.922852,4537.563965,,,,,,,,,,,,,,,,,,,,,,,,,,,,,,,,,,,,,,,,,,,,,,,,,,,,,,,,,,,,,,,,,,,,,,
1769161671.889931,1769161671.890232,5.0,0.0,4285.641113,4281.666504,4694.743652,4467.179688,4266.153809,4263.589844,4288.461426,4281.282227,4279.487305,4264.102539,4579.102539,4538.333496,4421.153809,4532.94873,,,,,,,,,,,,,,,,,,,,,,,,,,,,,,,,,,,,,,,,,,,,,,,,,,,,,,,,,,,,,,,,,,,,,,
1769161671.897739,1769161671.898141,6.0,0.0,4294.487305,4283.205078,4695.384766,4473.589844,4269.358887,4262.436035,4282.179688,4281.025879,4280.641113,4264.358887,4578.846191,4544.615234,4413.974121,4533.589844,,,,,,,,,,,,,,,,,,,,,,,,,,,,,,,,,,,,,,,,,,,,,,,,,,,,,,,,,,,,,,,,,,,,,,
1769161671.905548,1769161671.905949,7.0,0.0,4295.897461,4280.128418,4697.179688,4473.333496,4272.307617,4262.563965,4280.769043,4279.487305,4277.692383,4263.717773,4580.897461,4551.153809,4416.282227,4537.820313,,,,,,,,,,,,,,,,,,,,,,,,,,,,,,,,,,,,,,,,,,,,,,,,,,,,,,,,,,,,,,,,,,,,,,
1769161671.913356,1769161671.913957,8.0,0.0,4293.461426,4285.512695,4696.282227,4468.846191,4265.897461,4257.692383,4283.333496,4280.0,4277.94873,4266.410156,4584.615234,4553.461426,4427.05127,4542.692383,,,,,,,,,,,,,,,,,,,,,,,,,,,,,,,,,,,,,,,,,,,,,,,,,,,,,,,,,,,,,,,,,,,,,,
1769161671.921164,1769161671.921766,9.0,0.0,4294.743652,4289.358887,4687.05127,4462.820313,4264.102539,4249.615234,4280.256348,4279.358887,4280.897461,4267.820313,4585.897461,4548.333496,4425.897461,4540.256348,,,,,,,,,,,,,,,,,,,,,,,,,,,,,,,,,,,,,,,,,,,,,,,,,,,,,,,,,,,,,,,,,,,,,,
1769161671.928973,1769161671.929474,10.0,0.0,4294.487305,4281.922852,4680.384766,4457.563965,4267.307617,4255.128418,4280.256348,4276.666504,4277.692383,4264.102539,4581.153809,4540.0,4414.358887,4529.102539,,,,,,,,,,,,,,,,,,,,,,,,,,,,,,,,,,,,,,,,,,,,,,,,,,,,,,,,,,,,,,,,,,,,,,
1769161671.936781,1769161671.937283,11.0,0.0,4292.436035,4278.589844,4686.282227,4458.846191,4264.743652,4261.922852,4284.743652,4276.794922,4275.128418,4261.153809,4577.692383,4543.333496,4411.666504,4526.153809,,,,,,,,,,,,,,,,,,,,,,,,,,,,,,,,,,,,,,,,,,,,,,,,,,,,,,,,,,,,,,,,,,,,,,
1769161671.94459,1769161671.945291,12.0,0.0,4294.487305,4283.077148,4689.487305,4462.307617,4264.358887,4258.717773,4284.358887,4278.974121,4278.846191,4263.974121,4580.769043,4553.205078,4419.230957,4534.615234,,,,,,,,,,,,,,,,,,,,,,,,,,,,,,,,,,,,,,,,,,,,,,,,,,,,,,,,,,,,,,,,,,,,,,
1769161671.952398,1769161671.9531,13.0,0.0,4295.0,4280.641113,4679.743652,4459.358887,4267.820313,4256.538574,4284.102539,4280.128418,4282.692383,4269.743652,4584.871582,4555.0,4425.512695,4539.230957,,,,,,,,,,,,,,,,,,,,,,,,,,,,,,,,,,,,,,,,,,,,,,,,,,,,,,,,,,,,,,,,,,,,,,
1769161671.960207,1769161671.961008,14.0,0.0,4291.410156,4278.077148,4671.410156,4456.538574,4265.128418,4255.128418,4287.05127,4284.230957,4284.230957,4272.179688,4584.487305,4552.692383,4425.128418,4535.128418,0.471041,0.531068,0.413349,0.188193,0.141185,0.573518,0.614012,0.321184,0.182129,0.123818,0.468018,0.211039,0.381582,0.191439,0.140682,0.496109,0.312244,0.224564,0.089841,0.080362,0.276083,0.235818,0.069078,0.074664,0.138372,0.209454,0.361148,0.249858,0.092905,0.111316,0.520571,0.481418,0.294704,0.186327,0.24333,0.552145,0.247272,0.234887,0.081122,0.067565,0.74393,0.520402,0.209815,0.131445,0.107294,0.719591,0.541698,0.321532,0.118897,0.101812,0.831377,0.990232,0.520082,0.171591,0.126809,0.891408,0.838336,0.399833,0.243304,0.202637,0.798862,1.452443,0.550155,0.178266,0.147388,0.635594,1.013065,0.404584,0.167508,0.18107
1769161671.968015,1769161671.968816,15.0,0.0,4291.153809,4285.128418,4672.307617,4458.333496,4263.589844,4251.153809,4289.743652,4290.641113,4290.897461,4276.794922,4586.666504,4553.333496,4425.384766,4535.769043,,,,,,,,,,,,,,,,,,,,,,,,,,,,,,,,,,,,,,,,,,,,,,,,,,,,,,,,,,,,,,,,,,,,,,
1769161671.975824,1769161671.976825,16.0,0.0,4296.282227,4288.974121,4676.282227,4460.897461,4269.102539,4251.666504,4289.615234,4289.487305,4296.922852,4282.820313,4593.461426,4557.563965,4431.538574,4542.179688,,,,,,,,,,,,,,,,,,,,,,,,,,,,,,,,,,,,,,,,,,,,,,,,,,,,,,,,,,,,,,,,,,,,,,
1769161671.983632,1769161671.984633,17.0,0.0,4297.563965,4283.846191,4677.179688,4460.384766,4270.128418,4251.410156,4285.897461,4281.153809,4290.769043,4274.871582,4590.256348,4555.897461,4428.461426,4540.0,,,,,,,,,,,,,,,,,,,,,,,,,,,,,,,,,,,,,,,,,,,,,,,,,,,,,,,,,,,,,,,,,,,,,,
1769161671.99144,1769161671.992342,18.0,0.0,4295.384766,4279.230957,4672.820313,4458.461426,4265.641113,4249.358887,4285.641113,4277.820313,4279.615234,4262.692383,4577.692383,4544.743652,4413.589844,4528.589844,,,,,,,,,,,,,,,,,,,,,,,,,,,,,,,,,,,,,,,,,,,,,,,,,,,,,,,,,,,,,,,,,,,,,,
1769161671.999249,1769161672.00015,19.0,0.0,4294.102539,4280.256348,4667.179688,4458.974121,4265.256348,4255.256348,4289.615234,4279.615234,4278.077148,4262.436035,4574.871582,4538.205078,4411.153809,4520.641113,,,,,,,,,,,,,,,,,,,,,,,,,,,,,,,,,,,,,,,,,,,,,,,,,,,,,,,,,,,,,,,,,,,,,,
1769161672.007057,1769161672.008158,20.0,0.0,4291.410156,4282.563965,4663.974121,4460.512695,4267.05127,4260.897461,4290.384766,4280.897461,4286.666504,4268.589844,4580.0,4539.358887,4421.922852,4522.436035,,,,,,,,,,,,,,,,,,,,,,,,,,,,,,,,,,,,,,,,,,,,,,,,,,,,,,,,,,,,,,,,,,,,,,
1769161672.014866,1769161672.015967,21.0,0.0,4290.897461,4282.692383,4662.05127,4459.102539,4267.179688,4260.641113,4291.794922,4283.205078,4292.94873,4273.461426,4582.563965,4541.410156,4427.563965,4523.589844,,,,,,,,,,,,,,,,,,,,,,,,,,,,,,,,,,,,,,,,,,,,,,,,,,,,,,,,,,,,,,,,,,,,,,
1769161672.022674,1769161672.023675,22.0,0.0,4293.974121,4280.256348,4660.769043,4456.282227,4267.179688,4262.179688,4293.846191,4285.512695,4288.717773,4275.512695,4583.846191,4547.563965,4427.307617,4521.922852,,,,,,,,,,,,,,,,,,,,,,,,,,,,,,,,,,,,,,,,,,,,,,,,,,,,,,,,,,,,,,,,,,,,,,
1769161672.030483,1769161672.031484,23.0,0.0,4296.538574,4281.922852,4663.589844,4458.077148,4266.282227,4263.333496,4286.922852,4283.205078,4282.307617,4274.487305,4586.410156,4555.897461,4427.94873,4523.846191,,,,,,,,,,,,,,,,,,,,,,,,,,,,,,,,,,,,,,,,,,,,,,,,,,,,,,,,,,,,,,,,,,,,,,
1769161672.038291,1769161672.039092,24.0,0.0,4296.794922,4286.410156,4665.256348,4460.128418,4269.102539,4260.128418,4278.589844,4278.974121,4281.666504,4276.922852,4586.410156,4554.871582,4429.230957,4525.256348,,,,,,,,,,,,,,,,,,,,,,,,,,,,,,,,,,,,,,,,,,,,,,,,,,,,,,,,,,,,,,,,,,,,,,
1769161672.0461,1769161672.046901,25.0,0.0,4292.436035,4282.436035,4656.410156,4453.205078,4273.461426,4257.307617,4278.589844,4278.205078,4281.666504,4280.384766,4584.615234,4549.358887,4428.846191,4521.282227,,,,,,,,,,,,,,,,,,,,,,,,,,,,,,,,,,,,,,,,,,,,,,,,,,,,,,,,,,,,,,,,,,,,,,
1769161672.053908,1769161672.054609,26.0,0.0,4288.974121,4277.436035,4646.794922,4445.256348,4269.230957,4258.717773,4281.282227,4280.512695,4283.589844,4276.282227,4583.589844,4549.615234,4427.436035,4517.436035,,,,,,,,,,,,,,,,,,,,,,,,,,,,,,,,,,,,,,,,,,,,,,,,,,,,,,,,,,,,,,,,,,,,,,
1769161672.061716,1769161672.062418,27.0,0.0,4293.717773,4280.128418,4648.717773,4447.820313,4264.230957,4260.769043,4283.205078,4282.94873,4290.384766,4278.333496,4585.384766,4553.846191,4431.282227,4521.025879,,,,,,,,,,,,,,,,,,,,,,,,,,,,,,,,,,,,,,,,,,,,,,,,,,,,,,,,,,,,,,,,,,,,,,
1769161672.069525,1769161672.070426,28.0,0.0,4297.436035,4282.179688,4651.282227,4454.358887,4268.974121,4263.333496,4284.871582,4281.666504,4287.307617,4281.538574,4586.538574,4555.384766,4433.461426,4525.897461,,,,,,,,,,,,,,,,,,,,,,,,,,,,,,,,,,,,,,,,,,,,,,,,,,,,,,,,,,,,,,,,,,,,,,
1769161672.077333,1769161672.078234,29.0,0.0,4292.94873,4280.641113,4647.05127,4456.538574,4273.205078,4263.589844,4280.384766,4277.94873,4277.436035,4272.563965,4581.922852,4551.282227,4428.589844,4524.615234,,,,,,,,,,,,,,,,,,,,,,,,,,,,,,,,,,,,,,,,,,,,,,,,,,,,,,,,,,,,,,,,,,,,,,
1769161672.085142,1769161672.086143,30.0,0.0,4291.410156,4281.282227,4646.538574,4458.461426,4274.743652,4262.692383,4280.256348,4278.589844,4277.563965,4266.410156,4579.743652,4547.179688,4426.025879,4517.179688,0.517349,0.435074,0.346785,0.175122,0.136678,0.648921,0.463181,0.311855,0.187723,0.113861,0.393234,0.179337,0.353869,0.17214,0.136096,0.546366,0.310371,0.207953,0.086197,0.092905,0.267082,0.211924,0.061858,0.067483,0.125677,0.220756,0.363472,0.253185,0.095787,0.107301,0.504757,0.453047,0.331115,0.188556,0.249433,0.599361,0.252677,0.297867,0.08896,0.076872,0.727238,0.425277,0.174991,0.12798,0.098216,0.717966,0.427141,0.26145,0.131275,0.092655,0.774756,0.926409,0.46948,0.167931,0.136364,0.774935,0.858299,0.368174,0.242865,0.186246,0.744869,1.346249,0.511798,0.19411,0.139124,0.662969,0.948042,0.361189,0.182474,0.186467
1769161672.09295,1769161672.093951,31.0,0.0,4292.820313,4281.794922,4647.692383,4454.743652,4277.692383,4265.769043,4289.743652,4281.794922,4279.358887,4267.563965,4577.436035,4542.179688,4422.820313,4509.102539,,,,,,,,,,,,,,,,,,,,,,,,,,,,,,,,,,,,,,,,,,,,,,,,,,,,,,,,,,,,,,,,,,,,,,
1769161672.100759,1769161672.10196,32.0,0.0,4291.666504,4281.025879,4643.846191,4448.589844,4276.025879,4268.974121,4290.256348,4282.820313,4277.307617,4266.410156,4571.025879,4538.846191,4412.820313,4505.769043,,,,,,,,,,,,,,,,,,,,,,,,,,,,,,,,,,,,,,,,,,,,,,,,,,,,,,,,,,,,,,,,,,,,,,
1769161672.108567,1769161672.109768,33.0,0.0,4293.589844,4282.05127,4642.692383,4448.974121,4275.0,4266.410156,4280.384766,4278.974121,4279.487305,4267.307617,4572.179688,4545.0,4412.692383,4509.102539,,,,,,,,,,,,,,,,,,,,,,,,,,,,,,,,,,,,,,,,,,,,,,,,,,,,,,,,,,,,,,,,,,,,,,
1769161672.116376,1769161672.117676,34.0,0.0,4293.333496,4281.410156,4641.538574,4447.179688,4273.974121,4263.333496,4282.436035,4278.717773,4280.0,4273.205078,4580.384766,4551.282227,4423.974121,4515.384766,,,,,,,,,,,,,,,,,,,,,,,,,,,,,,,,,,,,,,,,,,,,,,,,,,,,,,,,,,,,,,,,,,,,,,
1769161672.124184,1769161672.125485,35.0,0.0,4288.205078,4279.871582,4635.256348,4443.974121,4269.487305,4266.025879,4293.717773,4286.025879,4281.282227,4275.641113,4584.230957,4551.794922,4426.666504,4520.897461,,,,,,,,,,,,,,,,,,,,,,,,,,,,,,,,,,,,,,,,,,,,,,,,,,,,,,,,,,,,,,,,,,,,,,
1769161672.131993,1769161672.133493,36.0,0.0,4288.974121,4284.871582,4631.410156,4447.05127,4271.666504,4266.922852,4288.846191,4288.333496,4289.743652,4277.05127,4586.153809,4553.461426,4425.384766,4524.743652,,,,,,,,,,,,,,,,,,,,,,,,,,,,,,,,,,,,,,,,,,,,,,,,,,,,,,,,,,,,,,,,,,,,,,
1769161672.139801,1769161672.141301,37.0,0.0,4297.307617,4288.077148,4632.820313,4448.846191,4276.538574,4263.461426,4278.974121,4281.282227,4290.0,4279.871582,4588.717773,4554.358887,4427.94873,4523.589844,,,,,,,,,,,,,,,,,,,,,,,,,,,,,,,,,,,,,,,,,,,,,,,,,,,,,,,,,,,,,,,,,,,,,,
1769161672.14761,1769161672.14901,38.0,0.0,4297.563965,4283.717773,4633.717773,4445.384766,4273.589844,4262.692383,4280.641113,4276.538574,4279.871582,4278.333496,4585.897461,4550.769043,4427.307617,4520.641113,,,,,,,,,,,,,,,,,,,,,,,,,,,,,,,,,,,,,,,,,,,,,,,,,,,,,,,,,,,,,,,,,,,,,,
1769161672.155418,1769161672.156818,39.0,0.0,4293.717773,4282.692383,4633.589844,4444.871582,4272.820313,4263.717773,4282.820313,4281.922852,4281.666504,4277.820313,4584.871582,4552.436035,4426.282227,4521.794922,,,,,,,,,,,,,,,,,,,,,,,,,,,,,,,,,,,,,,,,,,,,,,,,,,,,,,,,,,,,,,,,,,,,,,
1769161672.163226,1769161672.164427,40.0,0.0,4303.205078,4287.820313,4632.436035,4447.179688,4277.307617,4263.461426,4282.436035,4288.205078,4288.077148,4279.743652,4588.333496,4558.333496,4428.461426,4525.512695,,,,,,,,,,,,,,,,,,,,,,,,,,,,,,,,,,,,,,,,,,,,,,,,,,,,,,,,,,,,,,,,,,,,,,
1769161672.171035,1769161672.172236,41.0,0.0,4309.743652,4291.538574,4631.282227,4453.974121,4277.820313,4268.461426,4282.692383,4286.794922,4284.358887,4278.589844,4586.794922,4556.922852,4428.974121,4527.692383,,,,,,,,,,,,,,,,,,,,,,,,,,,,,,,,,,,,,,,,,,,,,,,,,,,,,,,,,,,,,,,,,,,,,,
1769161672.178843,1769161672.179944,42.0,0.0,4299.487305,4293.461426,4632.692383,4457.436035,4277.307617,4272.05127,4281.794922,4284.102539,4282.179688,4276.282227,4584.487305,4553.077148,4427.820313,4524.102539,,,,,,,,,,,,,,,,,,,,,,,,,,,,,,,,,,,,,,,,,,,,,,,,,,,,,,,,,,,,,,,,,,,,,,
1769161672.186652,1769161672.187753,43.0,0.0,4299.102539,4295.0,4631.538574,4448.333496,4277.692383,4266.666504,4279.743652,4285.384766,4283.589844,4277.94873,4586.410156,4554.871582,4428.974121,4524.743652,,,,,,,,,,,,,,,,,,,,,,,,,,,,,,,,,,,,,,,,,,,,,,,,,,,,,,,,,,,,,,,,,,,,,,
1769161672.19446,1769161672.195361,44.0,0.0,4312.563965,4293.333496,4627.307617,4442.307617,4276.666504,4262.05127,4280.0,4287.820313,4282.692383,4281.025879,4589.102539,4556.922852,4430.769043,4531.025879,,,,,,,,,,,,,,,,,,,,,,,,,,,,,,,,,,,,,,,,,,,,,,,,,,,,,,,,,,,,,,,,,,,,,,
1769161672.202269,1769161672.20317,45.0,0.0,4302.05127,4290.897461,4622.692383,4444.358887,4278.077148,4262.436035,4280.256348,4287.307617,4280.384766,4278.846191,4586.282227,4552.436035,4428.589844,4526.538574,,,,,,,,,,,,,,,,,,,,,,,,,,,,,,,,,,,,,,,,,,,,,,,,,,,,,,,,,,,,,,,,,,,,,,
1769161672.210077,1769161672.211078,46.0,0.0,4287.820313,4291.666504,4621.538574,4442.94873,4277.692383,4263.974121,4280.384766,4286.794922,4278.461426,4275.641113,4583.333496,4549.230957,4428.974121,4519.230957,0.566185,0.372408,0.290528,0.174925,0.129845,0.690326,0.347189,0.285454,0.1914,0.102492,0.35565,0.157167,0.326156,0.157554,0.132532,0.608936,0.318331,0.191635,0.094437,0.104863,0.247662,0.176634,0.054431,0.058523,0.102544,0.226137,0.36648,0.263449,0.108547,0.105902,0.446137,0.398816,0.351093,0.186392,0.242677,0.59954,0.247891,0.350762,0.096054,0.083286,0.676578,0.345084,0.140426,0.125046,0.093122,0.660989,0.347039,0.209834,0.153348,0.084438,0.733347,0.842944,0.38575,0.173473,0.145515,0.653677,0.829524,0.316652,0.246944,0.161104,0.690476,1.175846,0.430852,0.21688,0.135317,0.699349,0.886054,0.316789,0.196967,0.189819
1769161672.217886,1769161672.218886,47.0,0.0,4305.128418,4295.512695,4623.077148,4442.307617,4278.077148,4266.922852,4281.794922,4287.94873,4283.974121,4281.538574,4591.153809,4554.102539,4440.641113,4528.205078,,,,,,,,,,,,,,,,,,,,,,,,,,,,,,,,,,,,,,,,,,,,,,,,,,,,,,,,,,,,,,,,,,,,,,
1769161672.225694,1769161672.226495,48.0,0.0,4309.358887,4293.077148,4620.128418,4445.256348,4284.358887,4268.205078,4283.333496,4292.05127,4293.205078,4287.179688,4594.871582,4557.563965,4442.820313,4533.077148,,,,,,,,,,,,,,,,,,,,,,,,,,,,,,,,,,,,,,,,,,,,,,,,,,,,,,,,,,,,,,,,,,,,,,
1769161672.233503,1769161672.234304,49.0,0.0,4288.974121,4285.512695,4613.589844,4442.820313,4285.128418,4263.717773,4280.0,4292.563965,4291.922852,4282.307617,4589.102539,4552.94873,4432.307617,4522.179688,,,,,,,,,,,,,,,,,,,,,,,,,,,,,,,,,,,,,,,,,,,,,,,,,,,,,,,,,,,,,,,,,,,,,,
1769161672.241311,1769161672.242012,50.0,0.0,4295.512695,4289.230957,4614.230957,4441.666504,4278.461426,4260.0,4272.820313,4288.333496,4288.589844,4282.820313,4593.846191,4554.487305,4435.512695,4527.179688,,,,,,,,,,,,,,,,,,,,,,,,,,,,,,,,,,,,,,,,,,,,,,,,,,,,,,,,,,,,,,,,,,,,,,
1769161672.249119,1769161672.249821,51.0,0.0,4317.94873,4297.179688,4620.384766,4446.025879,4280.769043,4258.717773,4273.205078,4289.615234,4297.820313,4292.692383,4606.282227,4563.717773,4450.384766,4546.282227,,,,,,,,,,,,,,,,,,,,,,,,,,,,,,,,,,,,,,,,,,,,,,,,,,,,,,,,,,,,,,,,,,,,,,
1769161672.256928,1769161672.257829,52.0,0.0,4312.820313,4294.102539,4616.794922,4446.025879,4288.974121,4265.512695,4281.922852,4293.205078,4297.563965,4289.615234,4600.256348,4563.077148,4447.307617,4542.563965,,,,,,,,,,,,,,,,,,,,,,,,,,,,,,,,,,,,,,,,,,,,,,,,,,,,,,,,,,,,,,,,,,,,,,
1769161672.264736,1769161672.265637,53.0,0.0,4306.282227,4293.461426,4607.563965,4443.589844,4290.128418,4275.512695,4285.256348,4287.94873,4282.692383,4274.230957,4585.384766,4551.666504,4430.897461,4525.128418,,,,,,,,,,,,,,,,,,,,,,,,,,,,,,,,,,,,,,,,,,,,,,,,,,,,,,,,,,,,,,,,,,,,,,
1769161672.272545,1769161672.273546,54.0,0.0,4311.538574,4292.436035,4605.128418,4442.692383,4287.94873,4270.769043,4280.0,4280.897461,4281.153809,4271.794922,4585.641113,4549.102539,4428.205078,4523.205078,,,,,,,,,,,,,,,,,,,,,,,,,,,,,,,,,,,,,,,,,,,,,,,,,,,,,,,,,,,,,,,,,,,,,,
1769161672.280353,1769161672.281354,55.0,0.0,4302.436035,4281.410156,4607.692383,4441.922852,4287.307617,4262.307617,4277.436035,4280.897461,4287.692383,4276.666504,4589.358887,4554.743652,4431.410156,4526.282227,,,,,,,,,,,,,,,,,,,,,,,,,,,,,,,,,,,,,,,,,,,,,,,,,,,,,,,,,,,,,,,,,,,,,,
1769161672.288162,1769161672.289362,56.0,0.0,4299.615234,4282.05127,4608.589844,4441.794922,4286.666504,4264.743652,4278.717773,4281.538574,4284.102539,4275.512695,4585.0,4554.743652,4425.897461,4522.05127,,,,,,,,,,,,,,,,,,,,,,,,,,,,,,,,,,,,,,,,,,,,,,,,,,,,,,,,,,,,,,,,,,,,,,
1769161672.29597,1769161672.297171,57.0,0.0,4317.94873,4297.820313,4608.846191,4443.077148,4289.487305,4268.589844,4279.743652,4281.666504,4280.0,4276.666504,4584.743652,4552.94873,4428.974121,4528.589844,,,,,,,,,,,,,,,,,,,,,,,,,,,,,,,,,,,,,,,,,,,,,,,,,,,,,,,,,,,,,,,,,,,,,,
1769161672.303779,1769161672.305079,58.0,0.0,4328.974121,4300.641113,4611.282227,4443.974121,4291.922852,4267.307617,4280.897461,4282.94873,4283.077148,4281.025879,4591.153809,4556.025879,4440.512695,4545.641113,,,,,,,,,,,,,,,,,,,,,,,,,,,,,,,,,,,,,,,,,,,,,,,,,,,,,,,,,,,,,,,,,,,,,,
1769161672.311587,1769161672.312887,59.0,0.0,4323.846191,4294.871582,4610.384766,4445.769043,4290.897461,4268.333496,4280.256348,4281.538574,4282.820313,4277.563965,4589.743652,4555.897461,4435.256348,4541.153809,,,,,,,,,,,,,,,,,,,,,,,,,,,,,,,,,,,,,,,,,,,,,,,,,,,,,,,,,,,,,,,,,,,,,,
1769161672.319395,1769161672.320896,60.0,0.0,4322.436035,4302.05127,4610.384766,4447.820313,4294.871582,4271.666504,4277.307617,4279.743652,4280.897461,4273.846191,4585.0,4553.333496,4426.538574,4528.461426,,,,,,,,,,,,,,,,,,,,,,,,,,,,,,,,,,,,,,,,,,,,,,,,,,,,,,,,,,,,,,,,,,,,,,
1769161672.327204,1769161672.328704,61.0,0.0,4321.410156,4306.794922,4610.512695,4446.410156,4298.589844,4272.692383,4279.615234,4282.179688,4282.820313,4280.256348,4588.589844,4554.358887,4434.487305,4533.333496,,,,,,,,,,,,,,,,,,,,,,,,,,,,,,,,,,,,,,,,,,,,,,,,,,,,,,,,,,,,,,,,,,,,,,
1769161672.335012,1769161672.336413,62.0,0.0,4310.0,4298.333496,4603.589844,4443.717773,4294.358887,4277.05127,4286.410156,4283.846191,4280.897461,4278.717773,4588.077148,4553.333496,4435.641113,4532.436035,0.593739,0.346964,0.26159,0.19067,0.123207,0.695418,0.282921,0.249896,0.192507,0.094129,0.338752,0.148104,0.305638,0.154079,0.13228,0.685701,0.335278,0.179327,0.119212,0.112032,0.224243,0.135459,0.046406,0.050038,0.076475,0.232025,0.377816,0.283491,0.130807,0.108215,0.366573,0.341709,0.345508,0.179434,0.222997,0.551589,0.23318,0.380685,0.10389,0.085067,0.606636,0.289914,0.114679,0.12493,0.091808,0.560058,0.30499,0.179864,0.183685,0.078877,0.712442,0.761737,0.293837,0.184667,0.153091,0.566213,0.763334,0.26348,0.256297,0.135778,0.657421,0.99499,0.336399,0.24626,0.140725,0.736384,0.834255,0.290451,0.208141,0.194302
1769161672.342821,1769161672.344221,63.0,0.0,4306.025879,4293.333496,4599.102539,4442.94873,4292.436035,4278.589844,4287.692383,4281.538574,4278.846191,4267.692383,4582.436035,4551.153809,4426.922852,4523.333496,,,,,,,,,,,,,,,,,,,,,,,,,,,,,,,,,,,,,,,,,,,,,,,,,,,,,,,,,,,,,,,,,,,,,,
1769161672.350629,1769161672.35183,64.0,0.0,4316.794922,4296.025879,4603.077148,4442.563965,4296.538574,4270.897461,4277.692383,4278.589844,4279.487305,4269.487305,4583.461426,4553.717773,4427.820313,4527.436035,,,,,,,,,,,,,,,,,,,,,,,,,,,,,,,,,,,,,,,,,,,,,,,,,,,,,,,,,,,,,,,,,,,,,,
1769161672.358438,1769161672.359638,65.0,0.0,4321.282227,4297.692383,4603.205078,4443.974121,4293.974121,4261.410156,4265.512695,4277.692383,4280.384766,4280.384766,4585.0,4553.974121,4429.615234,4530.0,,,,,,,,,,,,,,,,,,,,,,,,,,,,,,,,,,,,,,,,,,,,,,,,,,,,,,,,,,,,,,,,,,,,,,
1769161672.366246,1769161672.367347,66.0,0.0,4311.538574,4292.05127,4593.589844,4443.461426,4288.846191,4263.846191,4266.794922,4281.025879,4281.410156,4280.512695,4583.717773,4553.205078,4427.563965,4522.820313,,,,,,,,,,,,,,,,,,,,,,,,,,,,,,,,,,,,,,,,,,,,,,,,,,,,,,,,,,,,,,,,,,,,,,
1769161672.374055,1769161672.375155,67.0,0.0,4304.102539,4285.128418,4585.512695,4435.128418,4288.333496,4270.512695,4276.922852,4281.025879,4280.641113,4273.974121,4584.358887,4551.922852,4428.589844,4522.436035,,,,,,,,,,,,,,,,,,,,,,,,,,,,,,,,,,,,,,,,,,,,,,,,,,,,,,,,,,,,,,,,,,,,,,
1769161672.381863,1769161672.382764,68.0,0.0,4303.717773,4279.743652,4586.410156,4426.538574,4283.846191,4267.820313,4278.589844,4277.94873,4281.153809,4272.820313,4581.282227,4544.871582,4426.410156,4518.077148,,,,,,,,,,,,,,,,,,,,,,,,,,,,,,,,,,,,,,,,,,,,,,,,,,,,,,,,,,,,,,,,,,,,,,
1769161672.389671,1769161672.390572,69.0,0.0,4307.94873,4280.128418,4591.538574,4432.94873,4279.230957,4265.897461,4275.897461,4284.358887,4289.358887,4274.358887,4579.871582,4541.282227,4423.717773,4511.410156,,,,,,,,,,,,,,,,,,,,,,,,,,,,,,,,,,,,,,,,,,,,,,,,,,,,,,,,,,,,,,,,,,,,,,
1769161672.39748,1769161672.398281,70.0,0.0,4312.179688,4287.307617,4590.641113,4444.230957,4283.589844,4270.128418,4278.077148,4289.102539,4294.230957,4278.974121,4585.769043,4544.102539,4427.307617,4517.05127,,,,,,,,,,,,,,,,,,,,,,,,,,,,,,,,,,,,,,,,,,,,,,,,,,,,,,,,,,,,,,,,,,,,,,
1769161672.405288,1769161672.406089,71.0,0.0,4304.230957,4291.538574,4581.666504,4441.794922,4288.846191,4275.0,4279.743652,4280.384766,4284.743652,4278.974121,4583.846191,4540.512695,4427.307617,4515.897461,,,,,,,,,,,,,,,,,,,,,,,,,,,,,,,,,,,,,,,,,,,,,,,,,,,,,,,,,,,,,,,,,,,,,,
1769161672.413097,1769161672.414098,72.0,0.0,4296.538574,4288.461426,4578.846191,4434.358887,4287.820313,4274.871582,4280.0,4277.179688,4277.563965,4269.230957,4572.820313,4535.512695,4417.94873,4504.871582,,,,,,,,,,,,,,,,,,,,,,,,,,,,,,,,,,,,,,,,,,,,,,,,,,,,,,,,,,,,,,,,,,,,,,
1769161672.420905,1769161672.421906,73.0,0.0,4300.384766,4285.0,4583.974121,4431.922852,4284.871582,4268.461426,4280.641113,4283.461426,4282.179688,4268.333496,4570.384766,4537.692383,4411.538574,4504.487305,,,,,,,,,,,,,,,,,,,,,,,,,,,,,,,,,,,,,,,,,,,,,,,,,,,,,,,,,,,,,,,,,,,,,,
1769161672.428714,1769161672.429615,74.0,0.0,4296.282227,4281.922852,4582.436035,4428.717773,4283.333496,4265.769043,4277.307617,4281.025879,4282.307617,4272.563965,4573.846191,4537.436035,4412.94873,4508.461426,,,,,,,,,,,,,,,,,,,,,,,,,,,,,,,,,,,,,,,,,,,,,,,,,,,,,,,,,,,,,,,,,,,,,,
1769161672.436522,1769161672.437423,75.0,0.0,4287.05127,4280.256348,4573.461426,4426.025879,4282.692383,4272.563965,4276.410156,4276.666504,4279.358887,4266.666504,4570.384766,4534.615234,4411.153809,4503.077148,,,,,,,,,,,,,,,,,,,,,,,,,,,,,,,,,,,,,,,,,,,,,,,,,,,,,,,,,,,,,,,,,,,,,,
1769161672.444331,1769161672.445431,76.0,0.0,4291.666504,4284.102539,4568.974121,4426.666504,4281.666504,4280.128418,4280.128418,4283.717773,4284.487305,4263.717773,4566.666504,4536.410156,4407.820313,4500.641113,,,,,,,,,,,,,,,,,,,,,,,,,,,,,,,,,,,,,,,,,,,,,,,,,,,,,,,,,,,,,,,,,,,,,,
1769161672.452139,1769161672.45324,77.0,0.0,4298.717773,4290.512695,4569.230957,4425.769043,4279.871582,4279.358887,4281.025879,4290.256348,4294.230957,4273.589844,4571.410156,4537.820313,4411.666504,4505.384766,,,,,,,,,,,,,,,,,,,,,,,,,,,,,,,,,,,,,,,,,,,,,,,,,,,,,,,,,,,,,,,,,,,,,,
1769161672.459947,1769161672.460948,78.0,0.0,4295.641113,4289.230957,4569.230957,4423.846191,4279.615234,4277.436035,4278.846191,4288.846191,4293.717773,4277.05127,4574.358887,4537.05127,4417.692383,4508.589844,0.59404,0.347494,0.262428,0.219554,0.120097,0.668231,0.26143,0.215144,0.190261,0.090691,0.339503,0.150226,0.294294,0.163509,0.134184,0.752635,0.355366,0.177194,0.160544,0.111675,0.202538,0.09719,0.03897,0.04426,0.055008,0.238691,0.396143,0.310024,0.158998,0.113019,0.287412,0.300026,0.314728,0.168127,0.194257,0.469398,0.209787,0.379291,0.11336,0.082404,0.538393,0.259734,0.100413,0.131516,0.093127,0.441152,0.300615,0.173445,0.216623,0.076865,0.699181,0.701612,0.215822,0.198281,0.157267,0.519449,0.683947,0.222241,0.270243,0.116964,0.656572,0.862382,0.252691,0.281797,0.156007,0.753296,0.790598,0.288736,0.217335,0.201074
1769161672.467756,1769161672.468757,79.0,0.0,4292.94873,4284.743652,4569.358887,4424.230957,4278.461426,4276.282227,4277.94873,4282.563965,4283.461426,4272.563965,4570.897461,4537.307617,4418.717773,4507.820313,,,,,,,,,,,,,,,,,,,,,,,,,,,,,,,,,,,,,,,,,,,,,,,,,,,,,,,,,,,,,,,,,,,,,,
1769161672.475564,1769161672.476765,80.0,0.0,4294.358887,4282.692383,4570.769043,4427.179688,4277.692383,4270.256348,4278.333496,4278.974121,4282.692383,4275.256348,4574.743652,4540.256348,4423.333496,4507.307617,,,,,,,,,,,,,,,,,,,,,,,,,,,,,,,,,,,,,,,,,,,,,,,,,,,,,,,,,,,,,,,,,,,,,,
1769161672.483373,1769161672.484573,81.0,0.0,4299.102539,4281.282227,4570.256348,4425.897461,4279.615234,4265.384766,4277.94873,4285.0,4292.563965,4277.692383,4581.025879,4542.307617,4428.974121,4510.512695,,,,,,,,,,,,,,,,,,,,,,,,,,,,,,,,,,,,,,,,,,,,,,,,,,,,,,,,,,,,,,,,,,,,,,
1769161672.491181,1769161672.492482,82.0,0.0,4302.820313,4281.153809,4567.307617,4419.487305,4278.589844,4268.205078,4277.820313,4291.282227,4295.128418,4275.256348,4575.256348,4541.922852,4421.922852,4510.256348,,,,,,,,,,,,,,,,,,,,,,,,,,,,,,,,,,,,,,,,,,,,,,,,,,,,,,,,,,,,,,,,,,,,,,
1769161672.49899,1769161672.50029,83.0,0.0,4295.128418,4281.538574,4566.410156,4420.641113,4276.666504,4273.205078,4278.974121,4290.0,4292.436035,4274.358887,4568.717773,4537.94873,4415.0,4508.205078,,,,,,,,,,,,,,,,,,,,,,,,,,,,,,,,,,,,,,,,,,,,,,,,,,,,,,,,,,,,,,,,,,,,,,
1769161672.506798,1769161672.508298,84.0,0.0,4293.974121,4282.563965,4570.384766,4427.307617,4279.102539,4276.282227,4280.0,4285.769043,4295.0,4277.94873,4575.769043,4537.563965,4423.077148,4513.974121,,,,,,,,,,,,,,,,,,,,,,,,,,,,,,,,,,,,,,,,,,,,,,,,,,,,,,,,,,,,,,,,,,,,,,
1769161672.514607,1769161672.516107,85.0,0.0,4309.615234,4285.641113,4573.077148,4426.794922,4281.922852,4277.307617,4278.974121,4282.179688,4296.538574,4281.538574,4584.871582,4546.666504,4431.282227,4523.077148,,,,,,,,,,,,,,,,,,,,,,,,,,,,,,,,,,,,,,,,,,,,,,,,,,,,,,,,,,,,,,,,,,,,,,
1769161672.522415,1769161672.523815,86.0,0.0,4315.0,4289.358887,4572.307617,4426.025879,4281.025879,4277.436035,4277.692383,4282.05127,4294.487305,4280.512695,4584.487305,4548.974121,4427.820313,4522.692383,,,,,,,,,,,,,,,,,,,,,,,,,,,,,,,,,,,,,,,,,,,,,,,,,,,,,,,,,,,,,,,,,,,,,,
1769161672.530223,1769161672.531624,87.0,0.0,4307.05127,4289.615234,4571.922852,4428.846191,4277.05127,4276.794922,4278.205078,4283.846191,4294.743652,4278.333496,4584.102539,4541.794922,4425.769043,4518.846191,,,,,,,,,,,,,,,,,,,,,,,,,,,,,,,,,,,,,,,,,,,,,,,,,,,,,,,,,,,,,,,,,,,,,,
1769161672.538032,1769161672.539233,88.0,0.0,4308.974121,4284.487305,4567.94873,4420.384766,4276.922852,4276.025879,4280.0,4284.615234,4296.666504,4278.333496,4587.820313,4542.436035,4428.974121,4523.205078,,,,,,,,,,,,,,,,,,,,,,,,,,,,,,,,,,,,,,,,,,,,,,,,,,,,,,,,,,,,,,,,,,,,,,
1769161672.545841,1769161672.547041,89.0,0.0,4310.897461,4280.897461,4565.0,4414.743652,4281.153809,4274.487305,4279.102539,4283.846191,4296.794922,4277.563965,4585.128418,4546.666504,4423.846191,4524.230957,,,,,,,,,,,,,,,,,,,,,,,,,,,,,,,,,,,,,,,,,,,,,,,,,,,,,,,,,,,,,,,,,,,,,,
1769161672.553649,1769161672.55475,90.0,0.0,4299.358887,4276.794922,4564.230957,4421.538574,4277.307617,4276.410156,4277.563965,4283.846191,4289.102539,4270.641113,4573.589844,4541.666504,4413.077148,4513.974121,,,,,,,,,,,,,,,,,,,,,,,,,,,,,,,,,,,,,,,,,,,,,,,,,,,,,,,,,,,,,,,,,,,,,,
1769161672.561458,1769161672.562558,91.0,0.0,4295.256348,4273.333496,4557.820313,4419.358887,4270.0,4277.563965,4279.358887,4283.077148,4283.205078,4260.128418,4567.94873,4535.769043,4410.769043,4504.487305,,,,,,,,,,,,,,,,,,,,,,,,,,,,,,,,,,,,,,,,,,,,,,,,,,,,,,,,,,,,,,,,,,,,,,
1769161672.569266,1769161672.570167,92.0,0.0,4297.94873,4277.436035,4554.230957,4411.922852,4274.358887,4269.615234,4279.358887,4281.538574,4288.077148,4264.487305,4570.769043,4539.230957,4413.846191,4506.538574,,,,,,,,,,,,,,,,,,,,,,,,,,,,,,,,,,,,,,,,,,,,,,,,,,,,,,,,,,,,,,,,,,,,,,
1769161672.577074,1769161672.577975,93.0,0.0,4293.589844,4282.436035,4554.102539,4413.974121,4275.384766,4265.641113,4276.666504,4280.641113,4289.358887,4279.230957,4569.358887,4536.922852,4413.461426,4512.307617,,,,,,,,,,,,,,,,,,,,,,,,,,,,,,,,,,,,,,,,,,,,,,,,,,,,,,,,,,,,,,,,,,,,,,
1769161672.584883,1769161672.585684,94.0,0.0,4293.589844,4277.94873,4542.94873,4411.922852,4267.307617,4272.436035,4277.563965,4278.974121,4282.307617,4277.820313,4565.0,4527.436035,4412.563965,4508.077148,0.565473,0.355989,0.290048,0.256879,0.125185,0.619769,0.26271,0.18938,0.185251,0.09195,0.346879,0.160236,0.291987,0.181447,0.134562,0.763327,0.370409,0.18747,0.210536,0.103904,0.182696,0.070086,0.035052,0.042462,0.042725,0.248592,0.410674,0.3361,0.188036,0.117858,0.226598,0.277703,0.269951,0.155631,0.162761,0.380556,0.181747,0.346162,0.123332,0.077019,0.48872,0.252512,0.095747,0.146385,0.096257,0.33513,0.331599,0.184896,0.243372,0.078871,0.676868,0.67574,0.164887,0.210205,0.156439,0.495415,0.619753,0.198794,0.285633,0.106965,0.690729,0.815347,0.194974,0.319127,0.177289,0.733293,0.753706,0.306681,0.229793,0.20911
1769161672.592691,1769161672.593492,95.0,0.0,4296.538574,4273.205078,4535.897461,4402.179688,4268.717773,4273.333496,4279.102539,4277.307617,4279.230957,4263.846191,4565.641113,4526.410156,4411.410156,4502.692383,,,,,,,,,,,,,,,,,,,,,,,,,,,,,,,,,,,,,,,,,,,,,,,,,,,,,,,,,,,,,,,,,,,,,,
1769161672.6005,1769161672.6015,96.0,0.0,4295.0,4277.820313,4546.538574,4406.025879,4277.436035,4266.794922,4275.128418,4276.538574,4280.769043,4261.922852,4568.333496,4534.358887,4414.487305,4505.897461,,,,,,,,,,,,,,,,,,,,,,,,,,,,,,,,,,,,,,,,,,,,,,,,,,,,,,,,,,,,,,,,,,,,,,
1769161672.608308,1769161672.609309,97.0,0.0,4298.461426,4280.256348,4548.589844,4414.358887,4278.077148,4265.897461,4275.769043,4277.692383,4285.256348,4269.743652,4572.05127,4538.974121,4425.256348,4509.102539,,,,,,,,,,,,,,,,,,,,,,,,,,,,,,,,,,,,,,,,,,,,,,,,,,,,,,,,,,,,,,,,,,,,,,
1769161672.616117,1769161672.617217,98.0,0.0,4302.563965,4276.666504,4538.205078,4410.128418,4270.641113,4267.307617,4276.410156,4280.128418,4290.0,4267.05127,4580.641113,4537.563965,4433.205078,4514.487305,,,,,,,,,,,,,,,,,,,,,,,,,,,,,,,,,,,,,,,,,,,,,,,,,,,,,,,,,,,,,,,,,,,,,,
1769161672.623925,1769161672.625026,99.0,0.0,4297.692383,4276.922852,4538.717773,4407.307617,4266.410156,4264.358887,4268.589844,4280.0,4289.102539,4260.256348,4586.025879,4536.794922,4434.487305,4521.025879,,,,,,,,,,,,,,,,,,,,,,,,,,,,,,,,,,,,,,,,,,,,,,,,,,,,,,,,,,,,,,,,,,,,,,
