title:mouse_2, start timestamp:1768210628.210821, stop timestamp:1768210658.882329, headset type:EPOCX, headset serial:E5020E3B, headset firmware:730, channels:156, sampling rate:eeg_128;pm_0.1;pow_8, samples:3929      , version:2.2, 
Timestamp,OriginalTimestamp,EEG.Counter,EEG.Interpolated,EEG.AF3,EEG.F7,EEG.F3,EEG.FC5,EEG.T7,EEG.P7,EEG.O1,EEG.O2,EEG.P8,EEG.T8,EEG.FC6,EEG.F4,EEG.F8,EEG.AF4,EEG.RawCq,EEG.Battery,EEG.BatteryPercent,MarkerIndex,MarkerType,MarkerValueInt,EEG.MarkerHardware,CQ.AF3,CQ.F7,CQ.F3,CQ.FC5,CQ.T7,CQ.P7,CQ.O1,CQ.O2,CQ.P8,CQ.T8,CQ.FC6,CQ.F4,CQ.F8,CQ.AF4,CQ.Overall,EQ.SampleRateQuality,EQ.OVERALL,EQ.AF3,EQ.F7,EQ.F3,EQ.FC5,EQ.T7,EQ.P7,EQ.O1,EQ.O2,EQ.P8,EQ.T8,EQ.FC6,EQ.F4,EQ.F8,EQ.AF4,PM.Attention.IsActive,PM.Attention.Scaled,PM.Attention.Raw,PM.Attention.Min,PM.Attention.Max,PM.Engagement.IsActive,PM.Engagement.Scaled,PM.Engagement.Raw,PM.Engagement.Min,PM.Engagement.Max,PM.Excitement.IsActive,PM.Excitement.Scaled,PM.Excitement.Raw,PM.Excitement.Min,PM.Excitement.Max,PM.LongTermExcitement,PM.Stress.IsActive,PM.Stress.Scaled,PM.Stress.Raw,PM.Stress.Min,PM.Stress.Max,PM.Relaxation.IsActive,PM.Relaxation.Scaled,PM.Relaxation.Raw,PM.Relaxation.Min,PM.Relaxation.Max,PM.Interest.IsActive,PM.Interest.Scaled,PM.Interest.Raw,PM.Interest.Min,PM.Interest.Max,POW.AF3.Theta,POW.AF3.Alpha,POW.AF3.BetaL,POW.AF3.BetaH,POW.AF3.Gamma,POW.F7.Theta,POW.F7.Alpha,POW.F7.BetaL,POW.F7.BetaH,POW.F7.Gamma,POW.F3.Theta,POW.F3.Alpha,POW.F3.BetaL,POW.F3.BetaH,POW.F3.Gamma,POW.FC5.Theta,POW.FC5.Alpha,POW.FC5.BetaL,POW.FC5.BetaH,POW.FC5.Gamma,POW.T7.Theta,POW.T7.Alpha,POW.T7.BetaL,POW.T7.BetaH,POW.T7.Gamma,POW.P7.Theta,POW.P7.Alpha,POW.P7.BetaL,POW.P7.BetaH,POW.P7.Gamma,POW.O1.Theta,POW.O1.Alpha,POW.O1.BetaL,POW.O1.BetaH,POW.O1.Gamma,POW.O2.Theta,POW.O2.Alpha,POW.O2.BetaL,POW.O2.BetaH,POW.O2.Gamma,POW.P8.Theta,POW.P8.Alpha,POW.P8.BetaL,POW.P8.BetaH,POW.P8.Gamma,POW.T8.Theta,POW.T8.Alpha,POW.T8.BetaL,POW.T8.BetaH,POW.T8.Gamma,POW.FC6.Theta,POW.FC6.Alpha,POW.FC6.BetaL,POW.FC6.BetaH,POW.FC6.Gamma,POW.F4.Theta,POW.F4.Alpha,POW.F4.BetaL,POW.F4.BetaH,POW.F4.Gamma,POW.F8.Theta,POW.F8.Alpha,POW.F8.BetaL,POW.F8.BetaH,POW.F8.Gamma,POW.AF4.Theta,POW.AF4.Alpha,POW.AF4.BetaL,POW.AF4.BetaH,POW.AF4.Gamma
1768210628.210821,1768210628.210933,45.000000,0.000000,4348.717773,4329.615234,4342.436035,4353.077148,4313.846191,4322.692383,4318.589844,4325.384766,4312.179688,4313.333496,4532.692383,4497.179688,4411.666504,4464.615234,0.000000,4.000000,81.000000,,,,0.000000,4.000000,4.000000,4.000000,4.000000,4.000000,4.000000,4.000000,4.000000,4.000000,4.000000,4.000000,4.000000,4.000000,4.000000,100.000000,,,,,,,,,,,,,,,,,,,,,,,,,,,,,,,,,,,,,,,,,,,,,,,,,,,,,,,,,,,,,,,,,,,,,,,,,,,,,,,,,,,,,,,,,,,,,,,,,,,,,,,,,,,,,,,,,,,,,
1768210628.218629,1768210628.218842,46.000000,0.000000,4349.743652,4325.641113,4340.897461,4356.410156,4316.538574,4322.948730,4317.307617,4326.282227,4317.436035,4314.871582,4537.692383,4497.051270,4411.282227,4468.846191,0.000000,4.000000,81.000000,,,,0.000000,4.000000,4.000000,4.000000,4.000000,4.000000,4.000000,4.000000,4.000000,4.000000,4.000000,4.000000,4.000000,4.000000,4.000000,100.000000,,,,,,,,,,,,,,,,,,,,,,,,,,,,,,,,,,,,,,,,,,,,,,,,,,,,,,,,,,,,,,,,,,,,,,,,,,,,,,,,,,,,,,,,,,,,,,,,,,,,,,,,,,,,,,,,,,,,,
1768210628.226438,1768210628.226650,47.000000,0.000000,4350.769043,4326.922852,4343.077148,4358.333496,4319.230957,4320.769043,4309.871582,4327.436035,4319.743652,4308.077148,4538.846191,4503.077148,4412.051270,4469.615234,0.000000,4.000000,81.000000,,,,0.000000,4.000000,4.000000,4.000000,4.000000,4.000000,4.000000,4.000000,4.000000,4.000000,4.000000,4.000000,4.000000,4.000000,4.000000,100.000000,,,,,,,,,,,,,,,,,,,,,,,,,,,,,,,,,,,,,,,,,,,,,,,,,,,,,,,,,,,,,,,,,,,,,,,,,,,,,,,,,,,,,,,,,,,,,,,,,,,,,,,,,,,,,,,,,,,,,
1768210628.234246,1768210628.234259,48.000000,0.000000,4351.025879,4325.641113,4342.051270,4351.410156,4312.179688,4321.922852,4314.615234,4332.692383,4321.666504,4308.461426,4537.436035,4506.025879,4412.948730,4471.922852,0.000000,4.000000,81.000000,,,,0.000000,4.000000,4.000000,4.000000,4.000000,4.000000,4.000000,4.000000,4.000000,4.000000,4.000000,4.000000,4.000000,4.000000,4.000000,100.000000,,,,,,,,,,,,,,,,,,,,,,,,,,,,,,,,,,,,,,,,,,,,,,,,,,,,,,,,,,,,,,,,,,,,,,,,,,,,,,,,,,,,,,,,,,,,,,,,,,,,,,,,,,,,,,,,,,,,,
1768210628.242055,1768210628.242067,49.000000,0.000000,4351.282227,4321.666504,4340.384766,4348.205078,4310.512695,4320.641113,4322.179688,4330.512695,4323.589844,4322.051270,4536.538574,4502.563965,4413.589844,4477.563965,0.000000,4.000000,81.000000,,,,0.000000,4.000000,4.000000,4.000000,4.000000,4.000000,4.000000,4.000000,4.000000,4.000000,4.000000,4.000000,4.000000,4.000000,4.000000,100.000000,,,,,,,,,,,,,,,,,,,,,,,,,,,,,,,,,,,,,,,,,,,,,,,,,,,,,,,,,,,,,,,,,,,,,,,,,,,,,,,,,,,,,,,,,,,,,,,,,,,,,,,,,,,,,,,,,,,,,
1768210628.249863,1768210628.249975,50.000000,0.000000,4350.128418,4323.974121,4342.820313,4352.307617,4316.410156,4320.128418,4319.230957,4325.256348,4322.179688,4323.974121,4537.692383,4498.717773,4412.948730,4477.051270,0.000000,4.000000,81.000000,,,,0.000000,4.000000,4.000000,4.000000,4.000000,4.000000,4.000000,4.000000,4.000000,4.000000,4.000000,4.000000,4.000000,4.000000,4.000000,100.000000,,,,,,,,,,,,,,,,,,,,,,,,,,,,,,,,,,,,,,,,,,,,,,,,,,,,,,,,,,,,,,,,,,,,,,,,,,,,,,,,,,,,,,,,,,,,,,,,,,,,,,,,,,,,,,,,,,,,,
1768210628.257671,1768210628.257784,51.000000,0.000000,4347.436035,4323.974121,4342.948730,4350.384766,4315.000000,4322.307617,4318.077148,4329.358887,4323.589844,4310.897461,4541.282227,4496.282227,4411.153809,4475.641113,0.000000,4.000000,81.000000,,,,0.000000,4.000000,4.000000,4.000000,4.000000,4.000000,4.000000,4.000000,4.000000,4.000000,4.000000,4.000000,4.000000,4.000000,4.000000,100.000000,,,,,,,,,,,,,,,,,,,,,,,,,,,,,,,,,,,,,,,,,,,,,,,,,,,,,,,,,,,,,,,,,,,,,,,,,,,,,,,,,,,,,,,,,,,,,,,,,,,,,,,,,,,,,,,,,,,,,
1768210628.265480,1768210628.265792,52.000000,0.000000,4345.512695,4314.358887,4339.871582,4347.179688,4311.153809,4321.153809,4318.974121,4332.948730,4327.051270,4314.358887,4539.102539,4496.282227,4415.384766,4476.538574,0.000000,4.000000,81.000000,,,,0.000000,4.000000,4.000000,4.000000,4.000000,4.000000,4.000000,4.000000,4.000000,4.000000,4.000000,4.000000,4.000000,4.000000,4.000000,100.000000,,,,,,,,,,,,,,,,,,,,,,,,,,,,,,,,,,,,,,,,,,,,,,,,,,,,,,,,,,,,,,,,,,,,,,,,,,,,,,,,,,,,,,,,,,,,,,,,,,,,,,,,,,,,,,,,,,,,,
1768210628.273288,1768210628.273600,53.000000,0.000000,4346.666504,4307.948730,4344.615234,4349.615234,4312.563965,4318.589844,4315.897461,4327.436035,4320.897461,4319.743652,4529.102539,4494.743652,4411.794922,4473.846191,0.000000,4.000000,81.000000,,,,0.000000,4.000000,4.000000,4.000000,4.000000,4.000000,4.000000,4.000000,4.000000,4.000000,4.000000,4.000000,4.000000,4.000000,4.000000,100.000000,,,,,,,,,,,,,,,,,,,,,,,,,,,,,,,,,,,,,,,,,,,,,,,,,,,,,,,,,,,,,,,,,,,,,,,,,,,,,,,,,,,,,,,,,,,,,,,,,,,,,,,,,,,,,,,,,,,,,
1768210628.281097,1768210628.281509,54.000000,0.000000,4348.974121,4314.358887,4348.717773,4351.153809,4317.051270,4320.897461,4315.641113,4322.692383,4307.179688,4302.179688,4520.512695,4489.358887,4396.922852,4473.205078,0.000000,4.000000,81.000000,,,,0.000000,4.000000,4.000000,4.000000,4.000000,4.000000,4.000000,4.000000,4.000000,4.000000,4.000000,4.000000,4.000000,4.000000,4.000000,100.000000,,,,,,,,,,,,,,,,,,,,,,,,,,,,,,,,,,,,,,,,,,,,,,,,0.210798,0.286320,0.070208,0.095552,0.070497,4.869921,1.885054,0.287964,0.364924,0.099123,0.195992,0.130298,0.056720,0.095567,0.102669,0.259113,0.179017,0.126462,0.287456,0.065981,0.165553,0.182397,0.128046,0.138423,0.051557,0.463466,0.271896,0.142601,0.103991,0.085036,0.242873,0.231197,0.383843,0.263300,0.172214,0.331753,0.204575,0.497820,0.290238,0.318060,0.384119,0.185279,0.163840,0.265837,0.117646,0.368106,0.285811,0.406440,1.467803,0.672346,0.587580,0.956803,0.393973,0.476808,0.137140,0.260072,0.642839,0.347766,0.132168,0.124437,0.398758,0.756180,0.322071,0.257812,0.345642,0.315456,0.685309,0.273457,0.158505,0.066039
1768210628.288905,1768210628.289317,55.000000,0.000000,4351.025879,4320.897461,4345.384766,4352.948730,4320.256348,4325.256348,4322.948730,4324.230957,4309.102539,4297.179688,4521.538574,4493.589844,4401.666504,4475.897461,0.000000,4.000000,81.000000,,,,0.000000,4.000000,4.000000,4.000000,4.000000,4.000000,4.000000,4.000000,4.000000,4.000000,4.000000,4.000000,4.000000,4.000000,4.000000,100.000000,,,,,,,,,,,,,,,,,,,,,,,,,,,,,,,,,,,,,,,,,,,,,,,,,,,,,,,,,,,,,,,,,,,,,,,,,,,,,,,,,,,,,,,,,,,,,,,,,,,,,,,,,,,,,,,,,,,,,
1768210628.296714,1768210628.297025,56.000000,0.000000,4352.051270,4315.128418,4345.128418,4355.128418,4316.025879,4321.538574,4322.563965,4327.051270,4322.051270,4319.102539,4528.205078,4501.922852,4419.230957,4477.563965,0.000000,4.000000,81.000000,,,,0.000000,4.000000,4.000000,4.000000,4.000000,4.000000,4.000000,4.000000,4.000000,4.000000,4.000000,4.000000,4.000000,4.000000,4.000000,100.000000,,,,,,,,,,,,,,,,,,,,,,,,,,,,,,,,,,,,,,,,,,,,,,,,,,,,,,,,,,,,,,,,,,,,,,,,,,,,,,,,,,,,,,,,,,,,,,,,,,,,,,,,,,,,,,,,,,,,,
1768210628.304522,1768210628.304834,57.000000,0.000000,4350.897461,4308.461426,4345.000000,4349.615234,4310.897461,4312.692383,4312.948730,4327.436035,4318.589844,4320.512695,4527.820313,4500.769043,4412.563965,4470.128418,0.000000,4.000000,81.000000,,,,0.000000,4.000000,4.000000,4.000000,4.000000,4.000000,4.000000,4.000000,4.000000,4.000000,4.000000,4.000000,4.000000,4.000000,4.000000,100.000000,,,,,,,,,,,,,,,,,,,,,,,,,,,,,,,,,,,,,,,,,,,,,,,,,,,,,,,,,,,,,,,,,,,,,,,,,,,,,,,,,,,,,,,,,,,,,,,,,,,,,,,,,,,,,,,,,,,,,
1768210628.312330,1768210628.312542,58.000000,0.000000,4346.922852,4310.641113,4339.358887,4342.820313,4312.051270,4311.282227,4308.589844,4324.358887,4307.692383,4297.179688,4518.589844,4491.153809,4395.512695,4459.487305,0.000000,4.000000,81.000000,,,,0.000000,4.000000,4.000000,4.000000,4.000000,4.000000,4.000000,4.000000,4.000000,4.000000,4.000000,4.000000,4.000000,4.000000,4.000000,100.000000,,,,,,,,,,,,,,,,,,,,,,,,,,,,,,,,,,,,,,,,,,,,,,,,,,,,,,,,,,,,,,,,,,,,,,,,,,,,,,,,,,,,,,,,,,,,,,,,,,,,,,,,,,,,,,,,,,,,,
1768210628.320139,1768210628.320350,59.000000,0.000000,4342.948730,4311.794922,4334.743652,4342.692383,4313.205078,4317.051270,4315.512695,4323.205078,4312.820313,4293.077148,4515.256348,4486.794922,4395.641113,4455.897461,0.000000,4.000000,81.000000,,,,0.000000,4.000000,4.000000,4.000000,4.000000,4.000000,4.000000,4.000000,4.000000,4.000000,4.000000,4.000000,4.000000,4.000000,4.000000,100.000000,,,,,,,,,,,,,,,,,,,,,,,,,,,,,,,,,,,,,,,,,,,,,,,,,,,,,,,,,,,,,,,,,,,,,,,,,,,,,,,,,,,,,,,,,,,,,,,,,,,,,,,,,,,,,,,,,,,,,
1768210628.327947,1768210628.327959,60.000000,0.000000,4344.102539,4305.384766,4335.384766,4344.871582,4310.000000,4321.410156,4322.307617,4329.615234,4320.128418,4303.589844,4520.641113,4492.436035,4398.974121,4460.128418,0.000000,4.000000,81.000000,,,,0.000000,4.000000,4.000000,4.000000,4.000000,4.000000,4.000000,4.000000,4.000000,4.000000,4.000000,4.000000,4.000000,4.000000,4.000000,100.000000,,,,,,,,,,,,,,,,,,,,,,,,,,,,,,,,,,,,,,,,,,,,,,,,,,,,,,,,,,,,,,,,,,,,,,,,,,,,,,,,,,,,,,,,,,,,,,,,,,,,,,,,,,,,,,,,,,,,,
1768210628.335756,1768210628.335767,61.000000,0.000000,4345.000000,4302.436035,4336.025879,4344.102539,4309.230957,4318.846191,4312.307617,4329.358887,4313.205078,4307.563965,4522.820313,4493.717773,4399.358887,4466.410156,0.000000,4.000000,81.000000,,,,0.000000,4.000000,4.000000,4.000000,4.000000,4.000000,4.000000,4.000000,4.000000,4.000000,4.000000,4.000000,4.000000,4.000000,4.000000,100.000000,,,,,,,,,,,,,,,,,,,,,,,,,,,,,,,,,,,,,,,,,,,,,,,,,,,,,,,,,,,,,,,,,,,,,,,,,,,,,,,,,,,,,,,,,,,,,,,,,,,,,,,,,,,,,,,,,,,,,
1768210628.343564,1768210628.343475,62.000000,0.000000,4341.410156,4304.358887,4333.589844,4341.666504,4311.538574,4318.717773,4304.230957,4320.128418,4308.717773,4308.717773,4523.077148,4492.436035,4404.358887,4466.025879,0.000000,4.000000,81.000000,,,,0.000000,4.000000,4.000000,4.000000,4.000000,4.000000,4.000000,4.000000,4.000000,4.000000,4.000000,4.000000,4.000000,4.000000,4.000000,100.000000,,,,,,,,,,,,,,,,,,,,,,,,,,,,,,,,,,,,,,,,,,,,,,,,,,,,,,,,,,,,,,,,,,,,,,,,,,,,,,,,,,,,,,,,,,,,,,,,,,,,,,,,,,,,,,,,,,,,,
1768210628.351373,1768210628.351283,63.000000,0.000000,4341.025879,4305.128418,4330.384766,4340.384766,4312.563965,4326.153809,4317.051270,4319.871582,4312.692383,4309.487305,4524.743652,4491.794922,4401.410156,4459.358887,0.000000,4.000000,81.000000,,,,0.000000,4.000000,4.000000,4.000000,4.000000,4.000000,4.000000,4.000000,4.000000,4.000000,4.000000,4.000000,4.000000,4.000000,4.000000,100.000000,,,,,,,,,,,,,,,,,,,,,,,,,,,,,,,,,,,,,,,,,,,,,,,,,,,,,,,,,,,,,,,,,,,,,,,,,,,,,,,,,,,,,,,,,,,,,,,,,,,,,,,,,,,,,,,,,,,,,
1768210628.359181,1768210628.358892,64.000000,0.000000,4344.615234,4303.717773,4331.410156,4342.436035,4312.051270,4324.615234,4322.563965,4326.025879,4310.384766,4312.051270,4522.307617,4489.358887,4396.025879,4455.641113,2997.000000,4.000000,81.000000,,,,0.000000,4.000000,4.000000,4.000000,4.000000,4.000000,4.000000,4.000000,4.000000,4.000000,4.000000,4.000000,4.000000,4.000000,4.000000,100.000000,,,,,,,,,,,,,,,,,,,,,,,,,,,,,,,,,,,,,,,,,,,,,,,,,,,,,,,,,,,,,,,,,,,,,,,,,,,,,,,,,,,,,,,,,,,,,,,,,,,,,,,,,,,,,,,,,,,,,
1768210628.366989,1768210628.366700,65.000000,0.000000,4345.000000,4298.846191,4336.025879,4344.230957,4310.128418,4313.205078,4311.666504,4327.051270,4311.153809,4315.000000,4521.666504,4490.256348,4406.153809,4461.666504,4066.000000,4.000000,81.000000,,,,0.000000,4.000000,4.000000,4.000000,4.000000,4.000000,4.000000,4.000000,4.000000,4.000000,4.000000,4.000000,4.000000,4.000000,4.000000,100.000000,,,,,,,,,,,,,,,,,,,,,,,,,,,,,,,,,,,,,,,,,,,,,,,,,,,,,,,,,,,,,,,,,,,,,,,,,,,,,,,,,,,,,,,,,,,,,,,,,,,,,,,,,,,,,,,,,,,,,
1768210628.374798,1768210628.374408,66.000000,0.000000,4339.615234,4294.487305,4336.025879,4340.897461,4308.974121,4310.512695,4310.384766,4326.025879,4315.000000,4305.641113,4525.512695,4492.307617,4411.538574,4466.666504,2515.000000,4.000000,81.000000,,,,0.000000,4.000000,4.000000,4.000000,4.000000,4.000000,4.000000,4.000000,4.000000,4.000000,4.000000,4.000000,4.000000,4.000000,4.000000,100.000000,,,,,,,,,,,,,,,,,,,,,,,,,,,,,,,,,,,,,,,,,,,,,,,,,,,,,,,,,,,,,,,,,,,,,,,,,,,,,,,,,,,,,,,,,,,,,,,,,,,,,,,,,,,,,,,,,,,,,
1768210628.382606,1768210628.382217,67.000000,0.000000,4336.282227,4294.615234,4333.717773,4338.205078,4310.000000,4312.820313,4313.461426,4326.153809,4314.102539,4295.000000,4525.384766,4492.307617,4398.333496,4464.871582,3916.000000,4.000000,81.000000,,,,0.000000,4.000000,4.000000,4.000000,4.000000,4.000000,4.000000,4.000000,4.000000,4.000000,4.000000,4.000000,4.000000,4.000000,4.000000,100.000000,,,,,,,,,,,,,,,,,,,,,,,,,,,,,,,,,,,,,,,,,,,,,,,,,,,,,,,,,,,,,,,,,,,,,,,,,,,,,,,,,,,,,,,,,,,,,,,,,,,,,,,,,,,,,,,,,,,,,
1768210628.390415,1768210628.390225,68.000000,0.000000,4342.436035,4296.282227,4335.769043,4341.410156,4311.025879,4310.641113,4308.846191,4327.051270,4316.410156,4305.512695,4525.256348,4491.666504,4395.128418,4462.436035,3869.000000,4.000000,81.000000,,,,0.000000,4.000000,4.000000,4.000000,4.000000,4.000000,4.000000,4.000000,4.000000,4.000000,4.000000,4.000000,4.000000,4.000000,4.000000,100.000000,,,,,,,,,,,,,,,,,,,,,,,,,,,,,,,,,,,,,,,,,,,,,,,,,,,,,,,,,,,,,,,,,,,,,,,,,,,,,,,,,,,,,,,,,,,,,,,,,,,,,,,,,,,,,,,,,,,,,
1768210628.398223,1768210628.398033,69.000000,0.000000,4349.871582,4296.153809,4337.692383,4345.256348,4310.641113,4311.538574,4307.179688,4329.102539,4317.692383,4315.512695,4525.384766,4490.512695,4402.051270,4460.384766,3284.000000,4.000000,81.000000,,,,0.000000,4.000000,4.000000,4.000000,4.000000,4.000000,4.000000,4.000000,4.000000,4.000000,4.000000,4.000000,4.000000,4.000000,4.000000,100.000000,,,,,,,,,,,,,,,,,,,,,,,,,,,,,,,,,,,,,,,,,,,,,,,,,,,,,,,,,,,,,,,,,,,,,,,,,,,,,,,,,,,,,,,,,,,,,,,,,,,,,,,,,,,,,,,,,,,,,
1768210628.406031,1768210628.405942,70.000000,0.000000,4346.410156,4296.666504,4335.897461,4344.102539,4311.410156,4317.436035,4308.974121,4327.436035,4311.922852,4310.256348,4520.000000,4488.461426,4397.948730,4459.615234,3884.000000,4.000000,81.000000,,,,0.000000,4.000000,4.000000,4.000000,4.000000,4.000000,4.000000,4.000000,4.000000,4.000000,4.000000,4.000000,4.000000,4.000000,4.000000,100.000000,,,,,,,,,,,,,,,,,,,,,,,,,,,,,,,,,,,,,,,,,,,,,,,,0.172025,0.251521,0.062710,0.114085,0.073539,4.886526,1.778140,0.277291,0.361168,0.107549,0.173653,0.127046,0.057622,0.088962,0.098561,0.277433,0.168874,0.118619,0.293889,0.069234,0.161601,0.153741,0.119189,0.136341,0.053769,0.443710,0.274318,0.141266,0.109484,0.078898,0.227644,0.238823,0.344753,0.256476,0.170780,0.284399,0.228289,0.485145,0.290479,0.293213,0.433808,0.194637,0.155420,0.235608,0.106657,0.365467,0.384047,0.493725,1.430874,0.702773,0.606859,0.979105,0.437156,0.453289,0.150913,0.258494,0.748157,0.346060,0.133852,0.125453,0.342626,0.847708,0.348374,0.237475,0.324392,0.288129,0.688520,0.286685,0.164733,0.068381
1768210628.413840,1768210628.413750,71.000000,0.000000,4341.666504,4298.717773,4335.769043,4343.077148,4312.179688,4322.051270,4309.615234,4323.333496,4309.358887,4309.102539,4519.487305,4490.000000,4400.384766,4462.179688,3919.000000,4.000000,81.000000,,,,0.000000,4.000000,4.000000,4.000000,4.000000,4.000000,4.000000,4.000000,4.000000,4.000000,4.000000,4.000000,4.000000,4.000000,4.000000,100.000000,,,,,,,,,,,,,,,,,,,,,,,,,,,,,,,,,,,,,,,,,,,,,,,,,,,,,,,,,,,,,,,,,,,,,,,,,,,,,,,,,,,,,,,,,,,,,,,,,,,,,,,,,,,,,,,,,,,,,
1768210628.421648,1768210628.421758,72.000000,0.000000,4344.358887,4298.974121,4338.846191,4344.487305,4311.666504,4324.358887,4311.666504,4323.846191,4314.358887,4314.871582,4525.769043,4492.179688,4414.487305,4463.333496,3964.000000,4.000000,81.000000,,,,0.000000,4.000000,4.000000,4.000000,4.000000,4.000000,4.000000,4.000000,4.000000,4.000000,4.000000,4.000000,4.000000,4.000000,4.000000,100.000000,,,,,,,,,,,,,,,,,,,,,,,,,,,,,,,,,,,,,,,,,,,,,,,,,,,,,,,,,,,,,,,,,,,,,,,,,,,,,,,,,,,,,,,,,,,,,,,,,,,,,,,,,,,,,,,,,,,,,
1768210628.429457,1768210628.429567,73.000000,0.000000,4345.769043,4295.256348,4340.256348,4343.461426,4312.436035,4321.922852,4311.922852,4326.666504,4313.333496,4313.205078,4526.025879,4490.384766,4408.717773,4462.692383,4053.000000,4.000000,81.000000,,,,0.000000,4.000000,4.000000,4.000000,4.000000,4.000000,4.000000,4.000000,4.000000,4.000000,4.000000,4.000000,4.000000,4.000000,4.000000,100.000000,,,,,,,,,,,,,,,,,,,,,,,,,,,,,,,,,,,,,,,,,,,,,,,,,,,,,,,,,,,,,,,,,,,,,,,,,,,,,,,,,,,,,,,,,,,,,,,,,,,,,,,,,,,,,,,,,,,,,
1768210628.437265,1768210628.437275,74.000000,0.000000,4348.077148,4295.512695,4342.820313,4343.205078,4314.230957,4319.230957,4310.769043,4327.307617,4309.487305,4304.487305,4523.205078,4491.538574,4393.846191,4465.512695,3931.000000,4.000000,81.000000,,,,0.000000,4.000000,4.000000,4.000000,4.000000,4.000000,4.000000,4.000000,4.000000,4.000000,4.000000,4.000000,4.000000,4.000000,4.000000,100.000000,,,,,,,,,,,,,,,,,,,,,,,,,,,,,,,,,,,,,,,,,,,,,,,,,,,,,,,,,,,,,,,,,,,,,,,,,,,,,,,,,,,,,,,,,,,,,,,,,,,,,,,,,,,,,,,,,,,,,
1768210628.445074,1768210628.445083,75.000000,0.000000,4352.692383,4303.461426,4343.974121,4344.871582,4314.487305,4320.384766,4311.538574,4321.922852,4307.692383,4293.333496,4522.692383,4487.307617,4399.615234,4466.666504,4053.000000,4.000000,81.000000,,,,0.000000,4.000000,4.000000,4.000000,4.000000,4.000000,4.000000,4.000000,4.000000,4.000000,4.000000,4.000000,4.000000,4.000000,4.000000,100.000000,,,,,,,,,,,,,,,,,,,,,,,,,,,,,,,,,,,,,,,,,,,,,,,,,,,,,,,,,,,,,,,,,,,,,,,,,,,,,,,,,,,,,,,,,,,,,,,,,,,,,,,,,,,,,,,,,,,,,
1768210628.452882,1768210628.453091,76.000000,0.000000,4347.307617,4302.436035,4336.410156,4340.512695,4311.538574,4317.307617,4308.846191,4321.794922,4307.563965,4292.820313,4521.153809,4478.717773,4405.256348,4458.974121,4976.000000,4.000000,81.000000,,,,0.000000,4.000000,4.000000,4.000000,4.000000,4.000000,4.000000,4.000000,4.000000,4.000000,4.000000,4.000000,4.000000,4.000000,4.000000,100.000000,,,,,,,,,,,,,,,,,,,,,,,,,,,,,,,,,,,,,,,,,,,,,,,,,,,,,,,,,,,,,,,,,,,,,,,,,,,,,,,,,,,,,,,,,,,,,,,,,,,,,,,,,,,,,,,,,,,,,
1768210628.460691,1768210628.460899,77.000000,0.000000,4339.358887,4291.538574,4331.282227,4335.256348,4307.948730,4314.230957,4309.871582,4332.307617,4318.333496,4307.563965,4518.974121,4481.666504,4396.153809,4454.615234,3864.000000,4.000000,81.000000,,,,0.000000,4.000000,4.000000,4.000000,4.000000,4.000000,4.000000,4.000000,4.000000,4.000000,4.000000,4.000000,4.000000,4.000000,4.000000,100.000000,,,,,,,,,,,,,,,,,,,,,,,,,,,,,,,,,,,,,,,,,,,,,,,,,,,,,,,,,,,,,,,,,,,,,,,,,,,,,,,,,,,,,,,,,,,,,,,,,,,,,,,,,,,,,,,,,,,,,
1768210628.468499,1768210628.468808,78.000000,0.000000,4342.563965,4291.794922,4335.641113,4339.871582,4308.717773,4319.871582,4322.436035,4332.179688,4321.410156,4319.102539,4523.846191,4491.794922,4397.436035,4461.410156,3931.000000,4.000000,81.000000,,,,0.000000,4.000000,4.000000,4.000000,4.000000,4.000000,4.000000,4.000000,4.000000,4.000000,4.000000,4.000000,4.000000,4.000000,4.000000,100.000000,,,,,,,,,,,,,,,,,,,,,,,,,,,,,,,,,,,,,,,,,,,,,,,,,,,,,,,,,,,,,,,,,,,,,,,,,,,,,,,,,,,,,,,,,,,,,,,,,,,,,,,,,,,,,,,,,,,,,
1768210628.476308,1768210628.476616,79.000000,0.000000,4349.615234,4299.871582,4338.846191,4346.410156,4311.410156,4321.282227,4327.179688,4321.282227,4312.948730,4322.692383,4535.000000,4496.922852,4412.179688,4471.794922,4053.000000,4.000000,81.000000,,,,0.000000,4.000000,4.000000,4.000000,4.000000,4.000000,4.000000,4.000000,4.000000,4.000000,4.000000,4.000000,4.000000,4.000000,4.000000,100.000000,,,,,,,,,,,,,,,,,,,,,,,,,,,,,,,,,,,,,,,,,,,,,,,,,,,,,,,,,,,,,,,,,,,,,,,,,,,,,,,,,,,,,,,,,,,,,,,,,,,,,,,,,,,,,,,,,,,,,
1768210628.484116,1768210628.484524,80.000000,0.000000,4350.256348,4297.820313,4337.436035,4347.692383,4311.538574,4311.153809,4311.410156,4321.153809,4314.230957,4321.410156,4538.846191,4496.794922,4416.922852,4479.615234,4976.000000,4.000000,81.000000,,,,0.000000,4.000000,4.000000,4.000000,4.000000,4.000000,4.000000,4.000000,4.000000,4.000000,4.000000,4.000000,4.000000,4.000000,4.000000,100.000000,,,,,,,,,,,,,,,,,,,,,,,,,,,,,,,,,,,,,,,,,,,,,,,,,,,,,,,,,,,,,,,,,,,,,,,,,,,,,,,,,,,,,,,,,,,,,,,,,,,,,,,,,,,,,,,,,,,,,
1768210628.491924,1768210628.492333,81.000000,0.000000,4347.948730,4297.051270,4338.333496,4349.102539,4311.025879,4305.512695,4298.333496,4323.717773,4316.025879,4315.512695,4531.153809,4494.230957,4406.666504,4475.897461,3864.000000,4.000000,81.000000,,,,0.000000,4.000000,4.000000,4.000000,4.000000,4.000000,4.000000,4.000000,4.000000,4.000000,4.000000,4.000000,4.000000,4.000000,4.000000,100.000000,,,,,,,,,,,,,,,,,,,,,,,,,,,,,,,,,,,,,,,,,,,,,,,,,,,,,,,,,,,,,,,,,,,,,,,,,,,,,,,,,,,,,,,,,,,,,,,,,,,,,,,,,,,,,,,,,,,,,
1768210628.499733,1768210628.500041,82.000000,0.000000,4348.717773,4302.436035,4341.025879,4349.743652,4310.384766,4311.153809,4305.384766,4320.769043,4310.641113,4308.461426,4526.025879,4489.871582,4397.692383,4464.487305,3931.000000,4.000000,81.000000,,,,0.000000,4.000000,4.000000,4.000000,4.000000,4.000000,4.000000,4.000000,4.000000,4.000000,4.000000,4.000000,4.000000,4.000000,4.000000,100.000000,,,,,,,,,,,,,,,,,,,,,,,,,,,,,,,,,,,,,,,,,,,,,,,,,,,,,,,,,,,,,,,,,,,,,,,,,,,,,,,,,,,,,,,,,,,,,,,,,,,,,,,,,,,,,,,,,,,,,
1768210628.507541,1768210628.507849,83.000000,0.000000,4348.717773,4299.230957,4340.897461,4348.717773,4310.256348,4313.846191,4313.077148,4324.615234,4312.436035,4306.922852,4526.025879,4491.025879,4394.871582,4462.179688,4053.000000,4.000000,81.000000,,,,0.000000,4.000000,4.000000,4.000000,4.000000,4.000000,4.000000,4.000000,4.000000,4.000000,4.000000,4.000000,4.000000,4.000000,4.000000,100.000000,,,,,,,,,,,,,,,,,,,,,,,,,,,,,,,,,,,,,,,,,,,,,,,,,,,,,,,,,,,,,,,,,,,,,,,,,,,,,,,,,,,,,,,,,,,,,,,,,,,,,,,,,,,,,,,,,,,,,
1768210628.515350,1768210628.515858,84.000000,0.000000,4346.410156,4294.358887,4338.717773,4347.948730,4312.563965,4313.205078,4310.512695,4328.333496,4316.282227,4312.692383,4529.615234,4500.128418,4398.589844,4472.563965,4976.000000,4.000000,81.000000,,,,0.000000,4.000000,4.000000,4.000000,4.000000,4.000000,4.000000,4.000000,4.000000,4.000000,4.000000,4.000000,4.000000,4.000000,4.000000,100.000000,,,,,,,,,,,,,,,,,,,,,,,,,,,,,,,,,,,,,,,,,,,,,,,,,,,,,,,,,,,,,,,,,,,,,,,,,,,,,,,,,,,,,,,,,,,,,,,,,,,,,,,,,,,,,,,,,,,,,
1768210628.523158,1768210628.523666,85.000000,0.000000,4347.307617,4294.871582,4338.077148,4345.000000,4311.538574,4316.922852,4309.487305,4325.384766,4312.051270,4315.128418,4538.846191,4504.615234,4403.205078,4480.256348,3864.000000,4.000000,81.000000,,,,0.000000,4.000000,4.000000,4.000000,4.000000,4.000000,4.000000,4.000000,4.000000,4.000000,4.000000,4.000000,4.000000,4.000000,4.000000,100.000000,,,,,,,,,,,,,,,,,,,,,,,,,,,,,,,,,,,,,,,,,,,,,,,,,,,,,,,,,,,,,,,,,,,,,,,,,,,,,,,,,,,,,,,,,,,,,,,,,,,,,,,,,,,,,,,,,,,,,
1768210628.530966,1768210628.531375,86.000000,0.000000,4348.205078,4294.487305,4340.512695,4345.128418,4308.077148,4320.256348,4312.307617,4324.743652,4311.538574,4314.743652,4536.794922,4500.000000,4400.641113,4471.794922,3931.000000,4.000000,81.000000,,,,0.000000,4.000000,4.000000,4.000000,4.000000,4.000000,4.000000,4.000000,4.000000,4.000000,4.000000,4.000000,4.000000,4.000000,4.000000,100.000000,1.000000,25.000000,1.000000,4.000000,1.000000,4.000000,1.000000,4.000000,4.000000,4.000000,4.000000,4.000000,4.000000,4.000000,4.000000,4.000000,,,,,,,,,,,,,,,,,,,,,,,,,,,,,,,,0.140450,0.205275,0.058050,0.138823,0.076866,4.715787,1.608313,0.255622,0.356240,0.119621,0.173384,0.119398,0.061090,0.082929,0.095358,0.300508,0.153550,0.111067,0.286193,0.070161,0.148043,0.128187,0.112116,0.132723,0.058351,0.396986,0.262362,0.144768,0.108518,0.070262,0.218188,0.247006,0.292532,0.249166,0.169736,0.272853,0.284029,0.447384,0.285637,0.269961,0.518849,0.219615,0.150904,0.202723,0.100335,0.366993,0.549981,0.612107,1.379775,0.734021,0.634625,0.977562,0.451865,0.423051,0.164824,0.266504,0.815837,0.325154,0.141675,0.123587,0.297345,0.913728,0.353583,0.227374,0.294930,0.284792,0.654495,0.282880,0.177010,0.072361
1768210628.538775,1768210628.539183,87.000000,0.000000,4345.769043,4294.102539,4338.717773,4352.307617,4311.153809,4321.153809,4313.077148,4324.871582,4313.077148,4311.410156,4523.974121,4490.512695,4395.384766,4458.846191,4053.000000,4.000000,81.000000,,,,0.000000,4.000000,4.000000,4.000000,4.000000,4.000000,4.000000,4.000000,4.000000,4.000000,4.000000,4.000000,4.000000,4.000000,4.000000,100.000000,,,,,,,,,,,,,,,,,,,,,,,,,,,,,,,,,,,,,,,,,,,,,,,,,,,,,,,,,,,,,,,,,,,,,,,,,,,,,,,,,,,,,,,,,,,,,,,,,,,,,,,,,,,,,,,,,,,,,
1768210628.546583,1768210628.546791,88.000000,0.000000,4344.230957,4294.230957,4335.000000,4353.077148,4311.153809,4321.538574,4312.436035,4326.025879,4310.512695,4299.230957,4522.179688,4490.512695,4391.025879,4457.692383,4976.000000,4.000000,81.000000,,,,0.000000,4.000000,4.000000,4.000000,4.000000,4.000000,4.000000,4.000000,4.000000,4.000000,4.000000,4.000000,4.000000,4.000000,4.000000,100.000000,,,,,,,,,,,,,,,,,,,,,,,,,,,,,,,,,,,,,,,,,,,,,,,,,,,,,,,,,,,,,,,,,,,,,,,,,,,,,,,,,,,,,,,,,,,,,,,,,,,,,,,,,,,,,,,,,,,,,
1768210628.554392,1768210628.554599,89.000000,0.000000,4344.230957,4289.743652,4336.153809,4344.230957,4303.205078,4317.692383,4311.410156,4331.153809,4311.794922,4295.256348,4524.487305,4499.615234,4390.641113,4467.692383,3864.000000,4.000000,81.000000,,,,0.000000,4.000000,4.000000,4.000000,4.000000,4.000000,4.000000,4.000000,4.000000,4.000000,4.000000,4.000000,4.000000,4.000000,4.000000,100.000000,,,,,,,,,,,,,,,,,,,,,,,,,,,,,,,,,,,,,,,,,,,,,,,,,,,,,,,,,,,,,,,,,,,,,,,,,,,,,,,,,,,,,,,,,,,,,,,,,,,,,,,,,,,,,,,,,,,,,
1768210628.562200,1768210628.562308,90.000000,0.000000,4345.512695,4288.974121,4338.077148,4341.922852,4304.615234,4318.846191,4312.436035,4325.512695,4310.512695,4314.102539,4521.666504,4501.794922,4396.666504,4471.282227,3931.000000,4.000000,81.000000,,,,0.000000,4.000000,4.000000,4.000000,4.000000,4.000000,4.000000,4.000000,4.000000,4.000000,4.000000,4.000000,4.000000,4.000000,4.000000,100.000000,,,,,,,,,,,,,,,,,,,,,,,,,,,,,,,,,,,,,,,,,,,,,,,,,,,,,,,,,,,,,,,,,,,,,,,,,,,,,,,,,,,,,,,,,,,,,,,,,,,,,,,,,,,,,,,,,,,,,
1768210628.570009,1768210628.570116,91.000000,0.000000,4347.948730,4296.025879,4336.025879,4345.512695,4312.692383,4327.051270,4312.563965,4313.974121,4308.461426,4320.769043,4521.666504,4494.102539,4397.436035,4461.922852,4053.000000,4.000000,81.000000,,,,0.000000,4.000000,4.000000,4.000000,4.000000,4.000000,4.000000,4.000000,4.000000,4.000000,4.000000,4.000000,4.000000,4.000000,4.000000,100.000000,,,,,,,,,,,,,,,,,,,,,,,,,,,,,,,,,,,,,,,,,,,,,,,,,,,,,,,,,,,,,,,,,,,,,,,,,,,,,,,,,,,,,,,,,,,,,,,,,,,,,,,,,,,,,,,,,,,,,
1768210628.577817,1768210628.578124,92.000000,0.000000,4345.769043,4305.641113,4333.205078,4345.000000,4311.794922,4327.436035,4311.153809,4318.589844,4316.282227,4308.077148,4521.538574,4489.358887,4391.153809,4455.384766,4976.000000,4.000000,81.000000,,,,0.000000,4.000000,4.000000,4.000000,4.000000,4.000000,4.000000,4.000000,4.000000,4.000000,4.000000,4.000000,4.000000,4.000000,4.000000,100.000000,,,,,,,,,,,,,,,,,,,,,,,,,,,,,,,,,,,,,,,,,,,,,,,,,,,,,,,,,,,,,,,,,,,,,,,,,,,,,,,,,,,,,,,,,,,,,,,,,,,,,,,,,,,,,,,,,,,,,
1768210628.585626,1768210628.585933,93.000000,0.000000,4345.128418,4316.666504,4333.077148,4345.128418,4308.974121,4322.307617,4315.641113,4325.897461,4321.410156,4311.153809,4520.000000,4491.794922,4392.436035,4458.333496,3864.000000,4.000000,81.000000,,,,0.000000,4.000000,4.000000,4.000000,4.000000,4.000000,4.000000,4.000000,4.000000,4.000000,4.000000,4.000000,4.000000,4.000000,4.000000,100.000000,,,,,,,,,,,,,,,,,,,,,,,,,,,,,,,,,,,,,,,,,,,,,,,,,,,,,,,,,,,,,,,,,,,,,,,,,,,,,,,,,,,,,,,,,,,,,,,,,,,,,,,,,,,,,,,,,,,,,
1768210628.593434,1768210628.593841,94.000000,0.000000,4348.333496,4330.512695,4337.563965,4349.358887,4311.153809,4323.974121,4317.948730,4321.282227,4313.461426,4308.846191,4523.974121,4494.743652,4399.230957,4464.358887,3931.000000,4.000000,81.000000,,,,0.000000,4.000000,4.000000,4.000000,4.000000,4.000000,4.000000,4.000000,4.000000,4.000000,4.000000,4.000000,4.000000,4.000000,4.000000,100.000000,,,,,,,,,,,,,,,,,,,,,,,,,,,,,,,,,,,,,,,,,,,,,,,,,,,,,,,,,,,,,,,,,,,,,,,,,,,,,,,,,,,,,,,,,,,,,,,,,,,,,,,,,,,,,,,,,,,,,
1768210628.601242,1768210628.601649,95.000000,0.000000,4344.487305,4343.717773,4340.897461,4351.025879,4310.641113,4325.897461,4311.666504,4321.538574,4308.077148,4292.563965,4525.256348,4492.563965,4394.743652,4464.487305,4053.000000,4.000000,81.000000,,,,0.000000,4.000000,4.000000,4.000000,4.000000,4.000000,4.000000,4.000000,4.000000,4.000000,4.000000,4.000000,4.000000,4.000000,4.000000,100.000000,,,,,,,,,,,,,,,,,,,,,,,,,,,,,,,,,,,,,,,,,,,,,,,,,,,,,,,,,,,,,,,,,,,,,,,,,,,,,,,,,,,,,,,,,,,,,,,,,,,,,,,,,,,,,,,,,,,,,
1768210628.609051,1768210628.609658,96.000000,0.000000,4340.512695,4352.307617,4337.307617,4349.102539,4309.230957,4324.487305,4309.230957,4321.794922,4312.436035,4297.051270,4519.102539,4484.358887,4386.666504,4458.717773,4976.000000,4.000000,81.000000,,,,0.000000,4.000000,4.000000,4.000000,4.000000,4.000000,4.000000,4.000000,4.000000,4.000000,4.000000,4.000000,4.000000,4.000000,4.000000,100.000000,,,,,,,,,,,,,,,,,,,,,,,,,,,,,,,,,,,,,,,,,,,,,,,,,,,,,,,,,,,,,,,,,,,,,,,,,,,,,,,,,,,,,,,,,,,,,,,,,,,,,,,,,,,,,,,,,,,,,
1768210628.616859,1768210628.617466,97.000000,0.000000,4341.282227,4358.333496,4332.692383,4349.230957,4310.769043,4328.333496,4312.051270,4312.948730,4311.794922,4310.897461,4517.692383,4480.512695,4387.563965,4451.666504,3864.000000,4.000000,81.000000,,,,0.000000,4.000000,4.000000,4.000000,4.000000,4.000000,4.000000,4.000000,4.000000,4.000000,4.000000,4.000000,4.000000,4.000000,4.000000,100.000000,,,,,,,,,,,,,,,,,,,,,,,,,,,,,,,,,,,,,,,,,,,,,,,,,,,,,,,,,,,,,,,,,,,,,,,,,,,,,,,,,,,,,,,,,,,,,,,,,,,,,,,,,,,,,,,,,,,,,
1768210628.624668,1768210628.625374,98.000000,0.000000,4342.179688,4359.871582,4334.102539,4350.897461,4310.000000,4329.871582,4309.615234,4314.102539,4307.436035,4305.641113,4522.436035,4485.512695,4395.384766,4457.692383,3931.000000,4.000000,81.000000,,,,0.000000,4.000000,4.000000,4.000000,4.000000,4.000000,4.000000,4.000000,4.000000,4.000000,4.000000,4.000000,4.000000,4.000000,4.000000,100.000000,,,,,,,,,,,,,,,,,,,,,,,,,,,,,,,,,,,,,,,,,,,,,,,,,,,,,,,,,,,,,,,,,,,,,,,,,,,,,,,,,,,,,,,,,,,,,,,,,,,,,,,,,,,,,,,,,,,,,
1768210628.632476,1768210628.633183,99.000000,0.000000,4343.205078,4360.000000,4336.153809,4349.871582,4308.589844,4328.589844,4305.256348,4319.615234,4309.358887,4297.820313,4524.743652,4487.563965,4400.641113,4472.692383,4053.000000,4.000000,81.000000,,,,0.000000,4.000000,4.000000,4.000000,4.000000,4.000000,4.000000,4.000000,4.000000,4.000000,4.000000,4.000000,4.000000,4.000000,4.000000,100.000000,,,,,,,,,,,,,,,,,,,,,,,,,,,,,,,,,,,,,,,,,,,,,,,,,,,,,,,,,,,,,,,,,,,,,,,,,,,,,,,,,,,,,,,,,,,,,,,,,,,,,,,,,,,,,,,,,,,,,
1768210628.640284,1768210628.640791,100.000000,0.000000,4346.538574,4363.717773,4337.948730,4349.615234,4312.692383,4335.128418,4306.410156,4316.282227,4309.615234,4297.436035,4522.692383,4487.563965,4394.615234,4471.794922,4976.000000,4.000000,81.000000,,,,0.000000,4.000000,4.000000,4.000000,4.000000,4.000000,4.000000,4.000000,4.000000,4.000000,4.000000,4.000000,4.000000,4.000000,4.000000,100.000000,,,,,,,,,,,,,,,,,,,,,,,,,,,,,,,,,,,,,,,,,,,,,,,,,,,,,,,,,,,,,,,,,,,,,,,,,,,,,,,,,,,,,,,,,,,,,,,,,,,,,,,,,,,,,,,,,,,,,
1768210628.648093,1768210628.648599,101.000000,0.000000,4351.922852,4366.282227,4341.282227,4353.461426,4317.563965,4338.205078,4309.615234,4317.948730,4308.205078,4293.846191,4523.077148,4492.692383,4390.128418,4465.256348,3864.000000,4.000000,81.000000,,,,0.000000,4.000000,4.000000,4.000000,4.000000,4.000000,4.000000,4.000000,4.000000,4.000000,4.000000,4.000000,4.000000,4.000000,4.000000,100.000000,,,,,,,,,,,,,,,,,,,,,,,,,,,,,,,,,,,,,,,,,,,,,,,,,,,,,,,,,,,,,,,,,,,,,,,,,,,,,,,,,,,,,,,,,,,,,,,,,,,,,,,,,,,,,,,,,,,,,
1768210628.655901,1768210628.656507,102.000000,0.000000,4353.974121,4360.256348,4343.205078,4355.000000,4315.641113,4330.128418,4313.077148,4320.128418,4308.846191,4291.794922,4522.179688,4493.717773,4394.358887,4472.820313,3931.000000,4.000000,81.000000,,,,0.000000,4.000000,4.000000,4.000000,4.000000,4.000000,4.000000,4.000000,4.000000,4.000000,4.000000,4.000000,4.000000,4.000000,4.000000,100.000000,,,,,,,,,,,,,,,,,,,,,,,,,,,,,,,,,,,,,,,,,,,,,,,,0.117832,0.160352,0.057004,0.161116,0.079679,4.417573,1.426540,0.228016,0.350385,0.132779,0.198474,0.112850,0.066978,0.075268,0.093399,0.312832,0.136341,0.106104,0.264635,0.068831,0.134021,0.114654,0.113651,0.130631,0.064484,0.337595,0.244650,0.158970,0.101100,0.061689,0.220601,0.249491,0.245786,0.237743,0.171658,0.289879,0.351748,0.389079,0.274717,0.249752,0.624136,0.254780,0.151093,0.177216,0.100860,0.379171,0.754149,0.715772,1.323415,0.762509,0.667048,0.964939,0.431778,0.393467,0.173954,0.284010,0.837832,0.299906,0.157291,0.118818,0.267398,0.946155,0.333007,0.223932,0.264536,0.298241,0.602522,0.263732,0.189033,0.076233
1768210628.663710,1768210628.664316,103.000000,0.000000,4351.666504,4354.102539,4342.692383,4349.871582,4310.000000,4324.871582,4308.461426,4313.077148,4307.179688,4298.077148,4522.307617,4490.512695,4397.820313,4478.846191,4053.000000,4.000000,81.000000,,,,0.000000,4.000000,4.000000,4.000000,4.000000,4.000000,4.000000,4.000000,4.000000,4.000000,4.000000,4.000000,4.000000,4.000000,4.000000,100.000000,,,,,,,,,,,,,,,,,,,,,,,,,,,,,,,,,,,,,,,,,,,,,,,,,,,,,,,,,,,,,,,,,,,,,,,,,,,,,,,,,,,,,,,,,,,,,,,,,,,,,,,,,,,,,,,,,,,,,
1768210628.671518,1768210628.672024,104.000000,0.000000,4349.871582,4355.256348,4341.025879,4348.333496,4308.974121,4330.384766,4305.384766,4310.641113,4306.410156,4307.179688,4529.230957,4491.282227,4400.256348,4474.487305,4976.000000,4.000000,81.000000,,,,0.000000,4.000000,4.000000,4.000000,4.000000,4.000000,4.000000,4.000000,4.000000,4.000000,4.000000,4.000000,4.000000,4.000000,4.000000,100.000000,,,,,,,,,,,,,,,,,,,,,,,,,,,,,,,,,,,,,,,,,,,,,,,,,,,,,,,,,,,,,,,,,,,,,,,,,,,,,,,,,,,,,,,,,,,,,,,,,,,,,,,,,,,,,,,,,,,,,
1768210628.679327,1768210628.679832,105.000000,0.000000,4352.436035,4350.128418,4341.410156,4352.307617,4310.512695,4331.153809,4310.128418,4316.794922,4309.615234,4308.333496,4528.717773,4491.666504,4402.051270,4474.358887,3864.000000,4.000000,81.000000,,,,0.000000,4.000000,4.000000,4.000000,4.000000,4.000000,4.000000,4.000000,4.000000,4.000000,4.000000,4.000000,4.000000,4.000000,4.000000,100.000000,,,,,,,,,,,,,,,,,,,,,,,,,,,,,,,,,,,,,,,,,,,,,,,,,,,,,,,,,,,,,,,,,,,,,,,,,,,,,,,,,,,,,,,,,,,,,,,,,,,,,,,,,,,,,,,,,,,,,
1768210628.687135,1768210628.687541,106.000000,0.000000,4350.769043,4342.307617,4343.333496,4353.333496,4308.974121,4324.487305,4310.000000,4324.487305,4311.794922,4303.333496,4522.179688,4490.000000,4396.666504,4474.871582,3931.000000,4.000000,81.000000,,,,0.000000,4.000000,4.000000,4.000000,4.000000,4.000000,4.000000,4.000000,4.000000,4.000000,4.000000,4.000000,4.000000,4.000000,4.000000,100.000000,,,,,,,,,,,,,,,,,,,,,,,,,,,,,,,,,,,,,,,,,,,,,,,,,,,,,,,,,,,,,,,,,,,,,,,,,,,,,,,,,,,,,,,,,,,,,,,,,,,,,,,,,,,,,,,,,,,,,
1768210628.694944,1768210628.695349,107.000000,0.000000,4347.692383,4342.563965,4343.077148,4349.358887,4307.692383,4322.179688,4308.717773,4326.025879,4312.179688,4304.487305,4525.000000,4490.128418,4393.205078,4471.282227,4053.000000,4.000000,81.000000,,,,0.000000,4.000000,4.000000,4.000000,4.000000,4.000000,4.000000,4.000000,4.000000,4.000000,4.000000,4.000000,4.000000,4.000000,4.000000,100.000000,,,,,,,,,,,,,,,,,,,,,,,,,,,,,,,,,,,,,,,,,,,,,,,,,,,,,,,,,,,,,,,,,,,,,,,,,,,,,,,,,,,,,,,,,,,,,,,,,,,,,,,,,,,,,,,,,,,,,
1768210628.702752,1768210628.702957,108.000000,0.000000,4350.769043,4342.948730,4341.922852,4347.563965,4308.077148,4326.025879,4313.077148,4316.538574,4311.410156,4305.897461,4528.461426,4492.436035,4402.948730,4475.769043,4976.000000,4.000000,81.000000,,,,0.000000,4.000000,4.000000,4.000000,4.000000,4.000000,4.000000,4.000000,4.000000,4.000000,4.000000,4.000000,4.000000,4.000000,4.000000,100.000000,,,,,,,,,,,,,,,,,,,,,,,,,,,,,,,,,,,,,,,,,,,,,,,,,,,,,,,,,,,,,,,,,,,,,,,,,,,,,,,,,,,,,,,,,,,,,,,,,,,,,,,,,,,,,,,,,,,,,
1768210628.710560,1768210628.710765,109.000000,0.000000,4350.897461,4340.512695,4343.589844,4350.641113,4306.794922,4329.358887,4311.538574,4310.000000,4309.743652,4302.692383,4524.615234,4491.410156,4407.436035,4476.666504,3864.000000,4.000000,81.000000,,,,0.000000,4.000000,4.000000,4.000000,4.000000,4.000000,4.000000,4.000000,4.000000,4.000000,4.000000,4.000000,4.000000,4.000000,4.000000,100.000000,,,,,,,,,,,,,,,,,,,,,,,,,,,,,,,,,,,,,,,,,,,,,,,,,,,,,,,,,,,,,,,,,,,,,,,,,,,,,,,,,,,,,,,,,,,,,,,,,,,,,,,,,,,,,,,,,,,,,
1768210628.718369,1768210628.718674,110.000000,0.000000,4346.922852,4337.307617,4342.563965,4354.230957,4306.538574,4326.794922,4305.769043,4311.922852,4308.461426,4294.615234,4522.948730,4489.102539,4398.205078,4463.846191,3931.000000,4.000000,81.000000,,,,0.000000,4.000000,4.000000,4.000000,4.000000,4.000000,4.000000,4.000000,4.000000,4.000000,4.000000,4.000000,4.000000,4.000000,4.000000,100.000000,,,,,,,,,,,,,,,,,,,,,,,,,,,,,,,,,,,,,,,,,,,,,,,,,,,,,,,,,,,,,,,,,,,,,,,,,,,,,,,,,,,,,,,,,,,,,,,,,,,,,,,,,,,,,,,,,,,,,
1768210628.726177,1768210628.726483,111.000000,0.000000,4345.769043,4333.717773,4338.589844,4354.871582,4309.230957,4325.512695,4309.102539,4311.282227,4309.487305,4289.487305,4523.589844,4489.230957,4395.128418,4456.282227,4053.000000,4.000000,81.000000,,,,0.000000,4.000000,4.000000,4.000000,4.000000,4.000000,4.000000,4.000000,4.000000,4.000000,4.000000,4.000000,4.000000,4.000000,4.000000,100.000000,,,,,,,,,,,,,,,,,,,,,,,,,,,,,,,,,,,,,,,,,,,,,,,,,,,,,,,,,,,,,,,,,,,,,,,,,,,,,,,,,,,,,,,,,,,,,,,,,,,,,,,,,,,,,,,,,,,,,
1768210628.733986,1768210628.734091,112.000000,0.000000,4349.487305,4333.846191,4343.846191,4357.307617,4310.256348,4328.333496,4312.948730,4315.128418,4315.000000,4300.512695,4524.230957,4490.641113,4405.641113,4465.897461,4976.000000,4.000000,81.000000,,,,0.000000,4.000000,4.000000,4.000000,4.000000,4.000000,4.000000,4.000000,4.000000,4.000000,4.000000,4.000000,4.000000,4.000000,4.000000,100.000000,,,,,,,,,,,,,,,,,,,,,,,,,,,,,,,,,,,,,,,,,,,,,,,,,,,,,,,,,,,,,,,,,,,,,,,,,,,,,,,,,,,,,,,,,,,,,,,,,,,,,,,,,,,,,,,,,,,,,
1768210628.741794,1768210628.741899,113.000000,0.000000,4353.077148,4335.897461,4349.487305,4360.384766,4307.563965,4327.948730,4310.000000,4324.487305,4317.692383,4314.743652,4526.282227,4492.692383,4411.025879,4477.820313,3864.000000,4.000000,81.000000,,,,0.000000,4.000000,4.000000,4.000000,4.000000,4.000000,4.000000,4.000000,4.000000,4.000000,4.000000,4.000000,4.000000,4.000000,4.000000,100.000000,,,,,,,,,,,,,,,,,,,,,,,,,,,,,,,,,,,,,,,,,,,,,,,,,,,,,,,,,,,,,,,,,,,,,,,,,,,,,,,,,,,,,,,,,,,,,,,,,,,,,,,,,,,,,,,,,,,,,
1768210628.749602,1768210628.749608,114.000000,0.000000,4351.153809,4328.461426,4343.077148,4357.051270,4306.025879,4324.487305,4308.205078,4320.256348,4312.563965,4310.256348,4524.871582,4489.615234,4403.461426,4477.820313,3931.000000,4.000000,81.000000,,,,0.000000,4.000000,4.000000,4.000000,4.000000,4.000000,4.000000,4.000000,4.000000,4.000000,4.000000,4.000000,4.000000,4.000000,4.000000,100.000000,,,,,,,,,,,,,,,,,,,,,,,,,,,,,,,,,,,,,,,,,,,,,,,,,,,,,,,,,,,,,,,,,,,,,,,,,,,,,,,,,,,,,,,,,,,,,,,,,,,,,,,,,,,,,,,,,,,,,
1768210628.757411,1768210628.757416,115.000000,0.000000,4346.410156,4319.871582,4338.846191,4354.615234,4306.025879,4327.179688,4309.871582,4310.512695,4309.102539,4304.487305,4523.205078,4486.025879,4399.487305,4469.358887,4053.000000,4.000000,81.000000,,,,0.000000,4.000000,4.000000,4.000000,4.000000,4.000000,4.000000,4.000000,4.000000,4.000000,4.000000,4.000000,4.000000,4.000000,4.000000,100.000000,,,,,,,,,,,,,,,,,,,,,,,,,,,,,,,,,,,,,,,,,,,,,,,,,,,,,,,,,,,,,,,,,,,,,,,,,,,,,,,,,,,,,,,,,,,,,,,,,,,,,,,,,,,,,,,,,,,,,
1768210628.765219,1768210628.765024,116.000000,0.000000,4345.897461,4325.256348,4344.743652,4356.025879,4308.333496,4332.179688,4312.436035,4310.128418,4311.410156,4308.974121,4525.000000,4487.948730,4402.948730,4467.179688,4976.000000,4.000000,81.000000,,,,0.000000,4.000000,4.000000,4.000000,4.000000,4.000000,4.000000,4.000000,4.000000,4.000000,4.000000,4.000000,4.000000,4.000000,4.000000,100.000000,,,,,,,,,,,,,,,,,,,,,,,,,,,,,,,,,,,,,,,,,,,,,,,,,,,,,,,,,,,,,,,,,,,,,,,,,,,,,,,,,,,,,,,,,,,,,,,,,,,,,,,,,,,,,,,,,,,,,
1768210628.773028,1768210628.772832,117.000000,0.000000,4347.948730,4329.615234,4346.153809,4353.846191,4308.974121,4329.358887,4311.794922,4316.025879,4310.897461,4300.384766,4522.563965,4490.512695,4401.410156,4474.230957,3864.000000,4.000000,81.000000,,,,0.000000,4.000000,4.000000,4.000000,4.000000,4.000000,4.000000,4.000000,4.000000,4.000000,4.000000,4.000000,4.000000,4.000000,4.000000,100.000000,,,,,,,,,,,,,,,,,,,,,,,,,,,,,,,,,,,,,,,,,,,,,,,,,,,,,,,,,,,,,,,,,,,,,,,,,,,,,,,,,,,,,,,,,,,,,,,,,,,,,,,,,,,,,,,,,,,,,
1768210628.780836,1768210628.780541,118.000000,0.000000,4347.051270,4319.871582,4341.666504,4350.512695,4305.128418,4323.974121,4310.000000,4321.666504,4308.846191,4294.615234,4518.717773,4490.384766,4396.282227,4477.948730,3931.000000,4.000000,81.000000,,,,0.000000,4.000000,4.000000,4.000000,4.000000,4.000000,4.000000,4.000000,4.000000,4.000000,4.000000,4.000000,4.000000,4.000000,4.000000,100.000000,,,,,,,,,,,,,,,,,,,,,,,,,,,,,,,,,,,,,,,,,,,,,,,,0.103556,0.124419,0.059772,0.173742,0.081206,4.130143,1.273691,0.204132,0.339319,0.143203,0.240981,0.112091,0.074859,0.065910,0.091911,0.305557,0.121658,0.106115,0.233266,0.066122,0.128278,0.113474,0.125417,0.130396,0.070313,0.282714,0.232689,0.186513,0.090576,0.056620,0.234680,0.242962,0.216677,0.219677,0.179179,0.315602,0.409938,0.321018,0.256992,0.231377,0.723086,0.292556,0.155058,0.162833,0.107843,0.396268,0.944897,0.776758,1.262302,0.777800,0.686128,0.940961,0.380753,0.369292,0.175310,0.301881,0.817975,0.282917,0.181226,0.112374,0.254325,0.935204,0.292027,0.226114,0.242097,0.317123,0.553091,0.235796,0.198497,0.080379
1768210628.788645,1768210628.788349,119.000000,0.000000,4347.692383,4309.487305,4342.692383,4350.000000,4303.974121,4323.333496,4310.512695,4317.820313,4308.717773,4308.205078,4521.153809,4489.743652,4397.051270,4473.717773,4053.000000,4.000000,81.000000,,,,0.000000,4.000000,4.000000,4.000000,4.000000,4.000000,4.000000,4.000000,4.000000,4.000000,4.000000,4.000000,4.000000,4.000000,4.000000,100.000000,,,,,,,,,,,,,,,,,,,,,,,,,,,,,,,,,,,,,,,,,,,,,,,,,,,,,,,,,,,,,,,,,,,,,,,,,,,,,,,,,,,,,,,,,,,,,,,,,,,,,,,,,,,,,,,,,,,,,
1768210628.796453,1768210628.796357,120.000000,0.000000,4347.051270,4311.410156,4343.846191,4348.974121,4308.333496,4323.974121,4309.358887,4309.871582,4307.948730,4306.666504,4523.205078,4488.974121,4397.820313,4472.692383,4976.000000,4.000000,81.000000,,,,0.000000,4.000000,4.000000,4.000000,4.000000,4.000000,4.000000,4.000000,4.000000,4.000000,4.000000,4.000000,4.000000,4.000000,4.000000,100.000000,,,,,,,,,,,,,,,,,,,,,,,,,,,,,,,,,,,,,,,,,,,,,,,,,,,,,,,,,,,,,,,,,,,,,,,,,,,,,,,,,,,,,,,,,,,,,,,,,,,,,,,,,,,,,,,,,,,,,
1768210628.804262,1768210628.804166,121.000000,0.000000,4346.538574,4320.897461,4342.051270,4349.487305,4311.410156,4323.589844,4307.948730,4313.974121,4309.871582,4296.538574,4521.410156,4488.333496,4395.256348,4474.615234,3864.000000,4.000000,81.000000,,,,0.000000,4.000000,4.000000,4.000000,4.000000,4.000000,4.000000,4.000000,4.000000,4.000000,4.000000,4.000000,4.000000,4.000000,4.000000,100.000000,,,,,,,,,,,,,,,,,,,,,,,,,,,,,,,,,,,,,,,,,,,,,,,,,,,,,,,,,,,,,,,,,,,,,,,,,,,,,,,,,,,,,,,,,,,,,,,,,,,,,,,,,,,,,,,,,,,,,
1768210628.812070,1768210628.812074,122.000000,0.000000,4350.384766,4323.846191,4344.615234,4355.256348,4310.769043,4325.512695,4314.487305,4323.205078,4311.922852,4305.769043,4522.051270,4491.025879,4393.717773,4472.820313,3931.000000,4.000000,81.000000,,,,0.000000,4.000000,4.000000,4.000000,4.000000,4.000000,4.000000,4.000000,4.000000,4.000000,4.000000,4.000000,4.000000,4.000000,4.000000,100.000000,,,,,,,,,,,,,,,,,,,,,,,,,,,,,,,,,,,,,,,,,,,,,,,,,,,,,,,,,,,,,,,,,,,,,,,,,,,,,,,,,,,,,,,,,,,,,,,,,,,,,,,,,,,,,,,,,,,,,
1768210628.819878,1768210628.819882,123.000000,0.000000,4349.102539,4319.102539,4347.051270,4355.512695,4311.410156,4328.589844,4318.589844,4318.974121,4311.666504,4317.051270,4523.846191,4492.307617,4397.563965,4474.487305,4053.000000,4.000000,81.000000,,,,0.000000,4.000000,4.000000,4.000000,4.000000,4.000000,4.000000,4.000000,4.000000,4.000000,4.000000,4.000000,4.000000,4.000000,4.000000,100.000000,,,,,,,,,,,,,,,,,,,,,,,,,,,,,,,,,,,,,,,,,,,,,,,,,,,,,,,,,,,,,,,,,,,,,,,,,,,,,,,,,,,,,,,,,,,,,,,,,,,,,,,,,,,,,,,,,,,,,
1768210628.827687,1768210628.827891,124.000000,0.000000,4341.794922,4313.589844,4342.307617,4347.820313,4310.384766,4326.153809,4310.641113,4313.077148,4310.256348,4309.358887,4521.922852,4491.282227,4396.153809,4475.384766,4976.000000,4.000000,81.000000,,,,0.000000,4.000000,4.000000,4.000000,4.000000,4.000000,4.000000,4.000000,4.000000,4.000000,4.000000,4.000000,4.000000,4.000000,4.000000,100.000000,,,,,,,,,,,,,,,,,,,,,,,,,,,,,,,,,,,,,,,,,,,,,,,,,,,,,,,,,,,,,,,,,,,,,,,,,,,,,,,,,,,,,,,,,,,,,,,,,,,,,,,,,,,,,,,,,,,,,
1768210628.835495,1768210628.835699,125.000000,0.000000,4340.256348,4310.384766,4336.410156,4340.897461,4308.077148,4318.333496,4305.256348,4313.717773,4306.538574,4299.743652,4520.256348,4490.512695,4387.307617,4468.846191,3864.000000,4.000000,81.000000,,,,0.000000,4.000000,4.000000,4.000000,4.000000,4.000000,4.000000,4.000000,4.000000,4.000000,4.000000,4.000000,4.000000,4.000000,4.000000,100.000000,,,,,,,,,,,,,,,,,,,,,,,,,,,,,,,,,,,,,,,,,,,,,,,,,,,,,,,,,,,,,,,,,,,,,,,,,,,,,,,,,,,,,,,,,,,,,,,,,,,,,,,,,,,,,,,,,,,,,
1768210628.843304,1768210628.843407,126.000000,0.000000,4345.256348,4315.000000,4337.179688,4342.692383,4308.333496,4318.205078,4308.717773,4310.769043,4303.077148,4302.307617,4523.077148,4490.769043,4391.410156,4470.000000,3931.000000,4.000000,81.000000,,,,0.000000,4.000000,4.000000,4.000000,4.000000,4.000000,4.000000,4.000000,4.000000,4.000000,4.000000,4.000000,4.000000,4.000000,4.000000,100.000000,,,,,,,,,,,,,,,,,,,,,,,,,,,,,,,,,,,,,,,,,,,,,,,,,,,,,,,,,,,,,,,,,,,,,,,,,,,,,,,,,,,,,,,,,,,,,,,,,,,,,,,,,,,,,,,,,,,,,
1768210628.851112,1768210628.851215,127.000000,0.000000,4351.282227,4330.384766,4346.922852,4353.589844,4311.282227,4325.769043,4310.512695,4310.384766,4306.538574,4314.358887,4526.410156,4493.717773,4408.974121,4485.256348,81.000000,4.000000,81.000000,,,,0.000000,4.000000,4.000000,4.000000,4.000000,4.000000,4.000000,4.000000,4.000000,4.000000,4.000000,4.000000,4.000000,4.000000,4.000000,100.000000,,,,,,,,,,,,,,,,,,,,,,,,,,,,,,,,,,,,,,,,,,,,,,,,,,,,,,,,,,,,,,,,,,,,,,,,,,,,,,,,,,,,,,,,,,,,,,,,,,,,,,,,,,,,,,,,,,,,,
1768210628.858920,1768210628.859223,0.000000,0.000000,4354.230957,4339.102539,4352.179688,4362.692383,4313.717773,4326.666504,4309.743652,4316.922852,4310.769043,4314.743652,4526.410156,4495.641113,4410.512695,4487.563965,2997.000000,4.000000,81.000000,,,,0.000000,4.000000,4.000000,4.000000,4.000000,4.000000,4.000000,4.000000,4.000000,4.000000,4.000000,4.000000,4.000000,4.000000,4.000000,100.000000,,,,,,,,,,,,,,,,,,,,,,,,,,,,,,,,,,,,,,,,,,,,,,,,,,,,,,,,,,,,,,,,,,,,,,,,,,,,,,,,,,,,,,,,,,,,,,,,,,,,,,,,,,,,,,,,,,,,,
1768210628.866729,1768210628.867032,1.000000,0.000000,4348.205078,4330.769043,4344.102539,4358.461426,4313.333496,4325.000000,4312.051270,4320.641113,4310.641113,4303.461426,4523.333496,4492.692383,4403.077148,4478.333496,4066.000000,4.000000,81.000000,,,,0.000000,4.000000,4.000000,4.000000,4.000000,4.000000,4.000000,4.000000,4.000000,4.000000,4.000000,4.000000,4.000000,4.000000,4.000000,100.000000,,,,,,,,,,,,,,,,,,,,,,,,,,,,,,,,,,,,,,,,,,,,,,,,,,,,,,,,,,,,,,,,,,,,,,,,,,,,,,,,,,,,,,,,,,,,,,,,,,,,,,,,,,,,,,,,,,,,,
1768210628.874537,1768210628.874740,2.000000,0.000000,4344.358887,4324.743652,4338.461426,4351.025879,4311.666504,4326.282227,4313.846191,4319.871582,4310.256348,4304.230957,4523.333496,4489.871582,4407.948730,4480.384766,2515.000000,4.000000,81.000000,,,,0.000000,4.000000,4.000000,4.000000,4.000000,4.000000,4.000000,4.000000,4.000000,4.000000,4.000000,4.000000,4.000000,4.000000,4.000000,100.000000,,,,,,,,,,,,,,,,,,,,,,,,,,,,,,,,,,,,,,,,,,,,,,,,,,,,,,,,,,,,,,,,,,,,,,,,,,,,,,,,,,,,,,,,,,,,,,,,,,,,,,,,,,,,,,,,,,,,,
1768210628.882346,1768210628.882548,3.000000,0.000000,4350.641113,4328.461426,4342.948730,4352.820313,4311.922852,4320.512695,4312.179688,4317.307617,4308.589844,4304.358887,4525.897461,4492.179688,4410.128418,4485.512695,3914.000000,4.000000,81.000000,,,,0.000000,4.000000,4.000000,4.000000,4.000000,4.000000,4.000000,4.000000,4.000000,4.000000,4.000000,4.000000,4.000000,4.000000,4.000000,100.000000,,,,,,,,,,,,,,,,,,,,,,,,,,,,,,,,,,,,,,,,,,,,,,,,,,,,,,,,,,,,,,,,,,,,,,,,,,,,,,,,,,,,,,,,,,,,,,,,,,,,,,,,,,,,,,,,,,,,,
1768210628.890154,1768210628.890157,4.000000,0.000000,4350.000000,4327.179688,4343.974121,4353.077148,4312.563965,4312.307617,4310.256348,4311.153809,4306.922852,4296.666504,4523.717773,4492.820313,4401.153809,4480.512695,3869.000000,4.000000,81.000000,,,,0.000000,4.000000,4.000000,4.000000,4.000000,4.000000,4.000000,4.000000,4.000000,4.000000,4.000000,4.000000,4.000000,4.000000,4.000000,100.000000,,,,,,,,,,,,,,,,,,,,,,,,,,,,,,,,,,,,,,,,,,,,,,,,,,,,,,,,,,,,,,,,,,,,,,,,,,,,,,,,,,,,,,,,,,,,,,,,,,,,,,,,,,,,,,,,,,,,,
1768210628.897963,1768210628.897965,5.000000,0.000000,4341.538574,4322.436035,4340.128418,4350.000000,4311.282227,4315.000000,4310.256348,4313.077148,4310.000000,4301.282227,4520.769043,4488.589844,4394.743652,4471.922852,3284.000000,4.000000,81.000000,,,,0.000000,4.000000,4.000000,4.000000,4.000000,4.000000,4.000000,4.000000,4.000000,4.000000,4.000000,4.000000,4.000000,4.000000,4.000000,100.000000,,,,,,,,,,,,,,,,,,,,,,,,,,,,,,,,,,,,,,,,,,,,,,,,,,,,,,,,,,,,,,,,,,,,,,,,,,,,,,,,,,,,,,,,,,,,,,,,,,,,,,,,,,,,,,,,,,,,,
1768210628.905771,1768210628.905673,6.000000,0.000000,4341.025879,4323.077148,4338.461426,4349.871582,4310.384766,4321.538574,4311.282227,4321.282227,4312.563965,4315.000000,4521.666504,4488.077148,4395.512695,4474.615234,3872.000000,4.000000,81.000000,,,,0.000000,4.000000,4.000000,4.000000,4.000000,4.000000,4.000000,4.000000,4.000000,4.000000,4.000000,4.000000,4.000000,4.000000,4.000000,100.000000,,,,,,,,,,,,,,,,,,,,,,,,,,,,,,,,,,,,,,,,,,,,,,,,0.096847,0.099124,0.065186,0.173326,0.080850,4.008562,1.163767,0.186730,0.317632,0.147610,0.287978,0.119327,0.083533,0.056890,0.089400,0.279060,0.114313,0.109641,0.198017,0.063334,0.133103,0.117567,0.141707,0.129301,0.073799,0.246657,0.234660,0.221483,0.081800,0.057519,0.253352,0.228455,0.204741,0.196359,0.192353,0.326942,0.435346,0.255803,0.233144,0.212836,0.781347,0.322587,0.160015,0.156025,0.118877,0.407525,1.071381,0.789887,1.192357,0.766573,0.691730,0.890924,0.310513,0.350784,0.168250,0.314092,0.762089,0.277208,0.211250,0.105936,0.259820,0.872464,0.242460,0.235014,0.233268,0.346144,0.513402,0.205320,0.207162,0.088754
1768210628.913580,1768210628.913482,7.000000,0.000000,4343.333496,4321.538574,4338.461426,4346.666504,4310.512695,4321.410156,4310.897461,4322.948730,4308.846191,4309.487305,4522.307617,4493.717773,4398.077148,4483.846191,3912.000000,4.000000,81.000000,,,,0.000000,4.000000,4.000000,4.000000,4.000000,4.000000,4.000000,4.000000,4.000000,4.000000,4.000000,4.000000,4.000000,4.000000,4.000000,100.000000,,,,,,,,,,,,,,,,,,,,,,,,,,,,,,,,,,,,,,,,,,,,,,,,,,,,,,,,,,,,,,,,,,,,,,,,,,,,,,,,,,,,,,,,,,,,,,,,,,,,,,,,,,,,,,,,,,,,,
1768210628.921388,1768210628.921490,8.000000,0.000000,4341.025879,4316.666504,4340.256348,4340.897461,4309.743652,4318.717773,4311.794922,4325.641113,4308.974121,4298.589844,4523.717773,4497.307617,4403.461426,4483.589844,3964.000000,4.000000,81.000000,,,,0.000000,4.000000,4.000000,4.000000,4.000000,4.000000,4.000000,4.000000,4.000000,4.000000,4.000000,4.000000,4.000000,4.000000,4.000000,100.000000,,,,,,,,,,,,,,,,,,,,,,,,,,,,,,,,,,,,,,,,,,,,,,,,,,,,,,,,,,,,,,,,,,,,,,,,,,,,,,,,,,,,,,,,,,,,,,,,,,,,,,,,,,,,,,,,,,,,,
1768210628.929196,1768210628.929298,9.000000,0.000000,4343.589844,4321.794922,4342.051270,4346.153809,4309.871582,4320.128418,4312.948730,4323.461426,4311.538574,4302.307617,4525.897461,4495.000000,4410.512695,4474.871582,4046.000000,4.000000,81.000000,,,,0.000000,4.000000,4.000000,4.000000,4.000000,4.000000,4.000000,4.000000,4.000000,4.000000,4.000000,4.000000,4.000000,4.000000,4.000000,100.000000,,,,,,,,,,,,,,,,,,,,,,,,,,,,,,,,,,,,,,,,,,,,,,,,,,,,,,,,,,,,,,,,,,,,,,,,,,,,,,,,,,,,,,,,,,,,,,,,,,,,,,,,,,,,,,,,,,,,,
1768210628.937005,1768210628.937007,10.000000,0.000000,4349.230957,4329.487305,4342.307617,4354.230957,4311.282227,4322.436035,4310.000000,4309.358887,4303.461426,4301.922852,4523.974121,4490.769043,4408.205078,4473.846191,3931.000000,4.000000,81.000000,,,,0.000000,4.000000,4.000000,4.000000,4.000000,4.000000,4.000000,4.000000,4.000000,4.000000,4.000000,4.000000,4.000000,4.000000,4.000000,100.000000,,,,,,,,,,,,,,,,,,,,,,,,,,,,,,,,,,,,,,,,,,,,,,,,,,,,,,,,,,,,,,,,,,,,,,,,,,,,,,,,,,,,,,,,,,,,,,,,,,,,,,,,,,,,,,,,,,,,,
1768210628.944813,1768210628.944815,11.000000,0.000000,4346.666504,4322.820313,4339.615234,4348.333496,4311.538574,4318.589844,4305.000000,4304.358887,4301.922852,4301.153809,4520.641113,4489.358887,4399.871582,4477.307617,4051.000000,4.000000,81.000000,,,,0.000000,4.000000,4.000000,4.000000,4.000000,4.000000,4.000000,4.000000,4.000000,4.000000,4.000000,4.000000,4.000000,4.000000,4.000000,100.000000,,,,,,,,,,,,,,,,,,,,,,,,,,,,,,,,,,,,,,,,,,,,,,,,,,,,,,,,,,,,,,,,,,,,,,,,,,,,,,,,,,,,,,,,,,,,,,,,,,,,,,,,,,,,,,,,,,,,,
1768210628.952622,1768210628.952423,12.000000,0.000000,4339.230957,4311.666504,4335.256348,4341.538574,4309.743652,4315.512695,4305.512695,4313.077148,4310.769043,4310.384766,4523.589844,4492.563965,4403.846191,4475.000000,4974.000000,4.000000,81.000000,,,,0.000000,4.000000,4.000000,4.000000,4.000000,4.000000,4.000000,4.000000,4.000000,4.000000,4.000000,4.000000,4.000000,4.000000,4.000000,100.000000,,,,,,,,,,,,,,,,,,,,,,,,,,,,,,,,,,,,,,,,,,,,,,,,,,,,,,,,,,,,,,,,,,,,,,,,,,,,,,,,,,,,,,,,,,,,,,,,,,,,,,,,,,,,,,,,,,,,,
1768210628.960430,1768210628.960231,13.000000,0.000000,4338.333496,4309.487305,4335.897461,4343.333496,4308.717773,4321.794922,4310.641113,4315.384766,4305.128418,4312.692383,4526.666504,4493.589844,4410.512695,4476.538574,3864.000000,4.000000,81.000000,,,,0.000000,4.000000,4.000000,4.000000,4.000000,4.000000,4.000000,4.000000,4.000000,4.000000,4.000000,4.000000,4.000000,4.000000,4.000000,100.000000,,,,,,,,,,,,,,,,,,,,,,,,,,,,,,,,,,,,,,,,,,,,,,,,,,,,,,,,,,,,,,,,,,,,,,,,,,,,,,,,,,,,,,,,,,,,,,,,,,,,,,,,,,,,,,,,,,,,,
1768210628.968238,1768210628.967940,14.000000,0.000000,4339.487305,4311.282227,4338.717773,4343.717773,4310.000000,4327.307617,4311.666504,4308.205078,4290.641113,4300.000000,4521.282227,4486.794922,4400.512695,4479.102539,3931.000000,4.000000,81.000000,,,,0.000000,4.000000,4.000000,4.000000,4.000000,4.000000,4.000000,4.000000,4.000000,4.000000,4.000000,4.000000,4.000000,4.000000,4.000000,100.000000,,,,,,,,,,,,,,,,,,,,,,,,,,,,,,,,,,,,,,,,,,,,,,,,,,,,,,,,,,,,,,,,,,,,,,,,,,,,,,,,,,,,,,,,,,,,,,,,,,,,,,,,,,,,,,,,,,,,,
1768210628.976047,1768210628.975748,15.000000,0.000000,4336.410156,4307.051270,4337.179688,4342.563965,4310.641113,4325.000000,4309.487305,4310.000000,4295.384766,4291.025879,4517.436035,4483.205078,4391.538574,4472.948730,4051.000000,4.000000,81.000000,,,,0.000000,4.000000,4.000000,4.000000,4.000000,4.000000,4.000000,4.000000,4.000000,4.000000,4.000000,4.000000,4.000000,4.000000,4.000000,100.000000,,,,,,,,,,,,,,,,,,,,,,,,,,,,,,,,,,,,,,,,,,,,,,,,,,,,,,,,,,,,,,,,,,,,,,,,,,,,,,,,,,,,,,,,,,,,,,,,,,,,,,,,,,,,,,,,,,,,,
1768210628.983855,1768210628.983756,16.000000,0.000000,4337.179688,4299.871582,4336.922852,4348.205078,4310.769043,4324.102539,4310.512695,4319.615234,4309.615234,4292.820313,4520.641113,4486.538574,4398.333496,4469.871582,0.000000,4.000000,81.000000,,,,0.000000,4.000000,4.000000,4.000000,4.000000,4.000000,4.000000,4.000000,4.000000,4.000000,4.000000,4.000000,4.000000,4.000000,4.000000,100.000000,,,,,,,,,,,,,,,,,,,,,,,,,,,,,,,,,,,,,,,,,,,,,,,,,,,,,,,,,,,,,,,,,,,,,,,,,,,,,,,,,,,,,,,,,,,,,,,,,,,,,,,,,,,,,,,,,,,,,
1768210628.991664,1768210628.991565,17.000000,0.000000,4340.256348,4298.717773,4338.333496,4351.922852,4309.871582,4327.563965,4314.358887,4320.769043,4310.384766,4301.282227,4520.769043,4487.051270,4401.153809,4472.692383,0.000000,4.000000,81.000000,,,,0.000000,4.000000,4.000000,4.000000,4.000000,4.000000,4.000000,4.000000,4.000000,4.000000,4.000000,4.000000,4.000000,4.000000,4.000000,100.000000,,,,,,,,,,,,,,,,,,,,,,,,,,,,,,,,,,,,,,,,,,,,,,,,,,,,,,,,,,,,,,,,,,,,,,,,,,,,,,,,,,,,,,,,,,,,,,,,,,,,,,,,,,,,,,,,,,,,,
1768210628.999472,1768210628.999473,18.000000,0.000000,4339.487305,4304.743652,4338.077148,4349.230957,4310.897461,4324.743652,4312.307617,4310.641113,4307.563965,4312.179688,4518.846191,4485.512695,4395.256348,4469.487305,0.000000,4.000000,81.000000,,,,0.000000,4.000000,4.000000,4.000000,4.000000,4.000000,4.000000,4.000000,4.000000,4.000000,4.000000,4.000000,4.000000,4.000000,4.000000,100.000000,,,,,,,,,,,,,,,,,,,,,,,,,,,,,,,,,,,,,,,,,,,,,,,,,,,,,,,,,,,,,,,,,,,,,,,,,,,,,,,,,,,,,,,,,,,,,,,,,,,,,,,,,,,,,,,,,,,,,
1768210629.007281,1768210629.007281,19.000000,0.000000,4338.461426,4311.282227,4340.512695,4351.538574,4315.769043,4317.692383,4306.153809,4306.538574,4309.102539,4304.743652,4523.461426,4490.000000,4401.410156,4468.205078,0.000000,4.000000,81.000000,,,,0.000000,4.000000,4.000000,4.000000,4.000000,4.000000,4.000000,4.000000,4.000000,4.000000,4.000000,4.000000,4.000000,4.000000,4.000000,100.000000,,,,,,,,,,,,,,,,,,,,,,,,,,,,,,,,,,,,,,,,,,,,,,,,,,,,,,,,,,,,,,,,,,,,,,,,,,,,,,,,,,,,,,,,,,,,,,,,,,,,,,,,,,,,,,,,,,,,,
1768210629.015089,1768210629.015290,20.000000,0.000000,4342.948730,4309.743652,4343.333496,4355.384766,4315.512695,4317.563965,4306.666504,4317.051270,4309.358887,4291.794922,4527.179688,4493.589844,4411.922852,4472.820313,0.000000,4.000000,81.000000,,,,0.000000,4.000000,4.000000,4.000000,4.000000,4.000000,4.000000,4.000000,4.000000,4.000000,4.000000,4.000000,4.000000,4.000000,4.000000,100.000000,,,,,,,,,,,,,,,,,,,,,,,,,,,,,,,,,,,,,,,,,,,,,,,,,,,,,,,,,,,,,,,,,,,,,,,,,,,,,,,,,,,,,,,,,,,,,,,,,,,,,,,,,,,,,,,,,,,,,
1768210629.022898,1768210629.023098,21.000000,0.000000,4346.666504,4304.615234,4342.307617,4354.487305,4308.974121,4320.641113,4310.000000,4319.487305,4305.769043,4300.641113,4524.230957,4490.384766,4407.179688,4473.846191,0.000000,4.000000,81.000000,,,,0.000000,4.000000,4.000000,4.000000,4.000000,4.000000,4.000000,4.000000,4.000000,4.000000,4.000000,4.000000,4.000000,4.000000,4.000000,100.000000,,,,,,,,,,,,,,,,,,,,,,,,,,,,,,,,,,,,,,,,,,,,,,,,,,,,,,,,,,,,,,,,,,,,,,,,,,,,,,,,,,,,,,,,,,,,,,,,,,,,,,,,,,,,,,,,,,,,,
1768210629.030706,1768210629.031006,22.000000,0.000000,4345.512695,4305.512695,4341.666504,4354.871582,4309.487305,4323.461426,4311.025879,4312.307617,4304.615234,4315.128418,4524.102539,4489.487305,4404.615234,4472.692383,0.000000,4.000000,81.000000,,,,0.000000,4.000000,4.000000,4.000000,4.000000,4.000000,4.000000,4.000000,4.000000,4.000000,4.000000,4.000000,4.000000,4.000000,4.000000,100.000000,1.000000,50.000000,4.000000,4.000000,1.000000,4.000000,1.000000,4.000000,4.000000,4.000000,4.000000,4.000000,4.000000,4.000000,4.000000,4.000000,,,,,,,,,,,,,,,,,,,,,,,,,,,,,,,,0.101089,0.082885,0.072601,0.161023,0.078351,4.149648,1.085104,0.174805,0.284630,0.144982,0.324566,0.132129,0.091024,0.050853,0.084747,0.239081,0.118215,0.115033,0.164730,0.061196,0.144774,0.117367,0.154332,0.123486,0.073650,0.233175,0.252396,0.251706,0.078545,0.064545,0.265219,0.209479,0.198163,0.173980,0.207522,0.307806,0.413311,0.204617,0.209251,0.193954,0.772705,0.334201,0.163973,0.149930,0.130309,0.402443,1.106988,0.764772,1.112321,0.721826,0.682321,0.797241,0.235986,0.333141,0.154525,0.320886,0.675335,0.275180,0.241174,0.100667,0.287148,0.757009,0.199137,0.249415,0.238852,0.404116,0.482759,0.174346,0.217538,0.107017
1768210629.038514,1768210629.038815,23.000000,0.000000,4344.743652,4311.025879,4341.153809,4356.666504,4314.743652,4325.000000,4311.794922,4316.153809,4308.846191,4310.000000,4524.743652,4490.897461,4408.077148,4469.358887,0.000000,4.000000,81.000000,,,,0.000000,4.000000,4.000000,4.000000,4.000000,4.000000,4.000000,4.000000,4.000000,4.000000,4.000000,4.000000,4.000000,4.000000,4.000000,100.000000,,,,,,,,,,,,,,,,,,,,,,,,,,,,,,,,,,,,,,,,,,,,,,,,,,,,,,,,,,,,,,,,,,,,,,,,,,,,,,,,,,,,,,,,,,,,,,,,,,,,,,,,,,,,,,,,,,,,,
1768210629.046323,1768210629.046823,24.000000,0.000000,4346.410156,4311.666504,4341.538574,4355.897461,4311.666504,4320.384766,4312.179688,4322.051270,4310.000000,4299.743652,4522.436035,4491.922852,4403.077148,4466.666504,0.000000,4.000000,81.000000,,,,0.000000,4.000000,4.000000,4.000000,4.000000,4.000000,4.000000,4.000000,4.000000,4.000000,4.000000,4.000000,4.000000,4.000000,4.000000,100.000000,,,,,,,,,,,,,,,,,,,,,,,,,,,,,,,,,,,,,,,,,,,,,,,,,,,,,,,,,,,,,,,,,,,,,,,,,,,,,,,,,,,,,,,,,,,,,,,,,,,,,,,,,,,,,,,,,,,,,
1768210629.054131,1768210629.054632,25.000000,0.000000,4348.846191,4309.743652,4346.538574,4358.077148,4310.256348,4318.333496,4310.512695,4316.410156,4305.512695,4306.922852,4522.692383,4493.717773,4402.563965,4473.461426,0.000000,4.000000,81.000000,,,,0.000000,4.000000,4.000000,4.000000,4.000000,4.000000,4.000000,4.000000,4.000000,4.000000,4.000000,4.000000,4.000000,4.000000,4.000000,100.000000,,,,,,,,,,,,,,,,,,,,,,,,,,,,,,,,,,,,,,,,,,,,,,,,,,,,,,,,,,,,,,,,,,,,,,,,,,,,,,,,,,,,,,,,,,,,,,,,,,,,,,,,,,,,,,,,,,,,,
1768210629.061940,1768210629.062340,26.000000,0.000000,4345.000000,4313.077148,4348.461426,4359.102539,4312.820313,4321.153809,4308.974121,4306.922852,4297.436035,4309.358887,4519.358887,4492.051270,4409.871582,4477.051270,0.000000,4.000000,81.000000,,,,0.000000,4.000000,4.000000,4.000000,4.000000,4.000000,4.000000,4.000000,4.000000,4.000000,4.000000,4.000000,4.000000,4.000000,4.000000,100.000000,,,,,,,,,,,,,,,,,,,,,,,,,,,,,,,,,,,,,,,,,,,,,,,,,,,,,,,,,,,,,,,,,,,,,,,,,,,,,,,,,,,,,,,,,,,,,,,,,,,,,,,,,,,,,,,,,,,,,
1768210629.069748,1768210629.070148,27.000000,0.000000,4339.230957,4311.153809,4342.820313,4352.820313,4311.922852,4320.256348,4309.102539,4306.410156,4295.000000,4292.820313,4507.307617,4486.025879,4401.153809,4463.077148,0.000000,4.000000,81.000000,,,,0.000000,4.000000,4.000000,4.000000,4.000000,4.000000,4.000000,4.000000,4.000000,4.000000,4.000000,4.000000,4.000000,4.000000,4.000000,100.000000,,,,,,,,,,,,,,,,,,,,,,,,,,,,,,,,,,,,,,,,,,,,,,,,,,,,,,,,,,,,,,,,,,,,,,,,,,,,,,,,,,,,,,,,,,,,,,,,,,,,,,,,,,,,,,,,,,,,,
1768210629.077556,1768210629.077756,28.000000,0.000000,4341.025879,4304.871582,4340.256348,4348.205078,4316.666504,4319.102539,4311.410156,4309.358887,4299.871582,4295.512695,4506.153809,4485.897461,4390.897461,4456.282227,0.000000,4.000000,81.000000,,,,0.000000,4.000000,4.000000,4.000000,4.000000,4.000000,4.000000,4.000000,4.000000,4.000000,4.000000,4.000000,4.000000,4.000000,4.000000,100.000000,,,,,,,,,,,,,,,,,,,,,,,,,,,,,,,,,,,,,,,,,,,,,,,,,,,,,,,,,,,,,,,,,,,,,,,,,,,,,,,,,,,,,,,,,,,,,,,,,,,,,,,,,,,,,,,,,,,,,
1768210629.085365,1768210629.085565,29.000000,0.000000,4347.307617,4304.743652,4343.589844,4351.153809,4322.051270,4321.922852,4311.025879,4312.948730,4298.974121,4308.461426,4518.974121,4491.153809,4404.743652,4468.717773,0.000000,4.000000,81.000000,,,,0.000000,4.000000,4.000000,4.000000,4.000000,4.000000,4.000000,4.000000,4.000000,4.000000,4.000000,4.000000,4.000000,4.000000,4.000000,100.000000,,,,,,,,,,,,,,,,,,,,,,,,,,,,,,,,,,,,,,,,,,,,,,,,,,,,,,,,,,,,,,,,,,,,,,,,,,,,,,,,,,,,,,,,,,,,,,,,,,,,,,,,,,,,,,,,,,,,,
1768210629.093173,1768210629.093273,30.000000,0.000000,4348.461426,4305.512695,4344.102539,4353.461426,4316.153809,4320.000000,4304.615234,4312.948730,4295.641113,4300.256348,4519.102539,4491.922852,4413.205078,4475.256348,0.000000,4.000000,81.000000,,,,0.000000,4.000000,4.000000,4.000000,4.000000,4.000000,4.000000,4.000000,4.000000,4.000000,4.000000,4.000000,4.000000,4.000000,4.000000,100.000000,,,,,,,,,,,,,,,,,,,,,,,,,,,,,,,,,,,,,,,,,,,,,,,,,,,,,,,,,,,,,,,,,,,,,,,,,,,,,,,,,,,,,,,,,,,,,,,,,,,,,,,,,,,,,,,,,,,,,
1768210629.100982,1768210629.101081,31.000000,0.000000,4343.077148,4297.820313,4339.102539,4347.820313,4309.615234,4320.641113,4303.461426,4308.205078,4299.743652,4291.538574,4505.256348,4487.436035,4398.974121,4463.205078,0.000000,4.000000,81.000000,,,,0.000000,4.000000,4.000000,4.000000,4.000000,4.000000,4.000000,4.000000,4.000000,4.000000,4.000000,4.000000,4.000000,4.000000,4.000000,100.000000,,,,,,,,,,,,,,,,,,,,,,,,,,,,,,,,,,,,,,,,,,,,,,,,,,,,,,,,,,,,,,,,,,,,,,,,,,,,,,,,,,,,,,,,,,,,,,,,,,,,,,,,,,,,,,,,,,,,,
1768210629.108790,1768210629.108690,32.000000,0.000000,4340.641113,4291.025879,4337.948730,4342.179688,4311.538574,4326.794922,4310.641113,4314.487305,4306.922852,4302.436035,4502.692383,4486.410156,4386.538574,4455.512695,0.000000,4.000000,81.000000,,,,0.000000,4.000000,4.000000,4.000000,4.000000,4.000000,4.000000,4.000000,4.000000,4.000000,4.000000,4.000000,4.000000,4.000000,4.000000,100.000000,,,,,,,,,,,,,,,,,,,,,,,,,,,,,,,,,,,,,,,,,,,,,,,,,,,,,,,,,,,,,,,,,,,,,,,,,,,,,,,,,,,,,,,,,,,,,,,,,,,,,,,,,,,,,,,,,,,,,
1768210629.116599,1768210629.116498,33.000000,0.000000,4345.769043,4296.538574,4345.769043,4346.282227,4310.512695,4324.871582,4313.974121,4327.692383,4310.256348,4312.563965,4517.563965,4497.051270,4393.717773,4469.871582,0.000000,4.000000,81.000000,,,,0.000000,4.000000,4.000000,4.000000,4.000000,4.000000,4.000000,4.000000,4.000000,4.000000,4.000000,4.000000,4.000000,4.000000,4.000000,100.000000,,,,,,,,,,,,,,,,,,,,,,,,,,,,,,,,,,,,,,,,,,,,,,,,,,,,,,,,,,,,,,,,,,,,,,,,,,,,,,,,,,,,,,,,,,,,,,,,,,,,,,,,,,,,,,,,,,,,,
1768210629.124407,1768210629.124406,34.000000,0.000000,4352.948730,4304.615234,4350.384766,4354.871582,4307.179688,4321.922852,4311.153809,4329.230957,4311.153809,4310.512695,4531.025879,4503.333496,4409.743652,4482.948730,0.000000,4.000000,81.000000,,,,0.000000,4.000000,4.000000,4.000000,4.000000,4.000000,4.000000,4.000000,4.000000,4.000000,4.000000,4.000000,4.000000,4.000000,4.000000,100.000000,,,,,,,,,,,,,,,,,,,,,,,,,,,,,,,,,,,,,,,,,,,,,,,,,,,,,,,,,,,,,,,,,,,,,,,,,,,,,,,,,,,,,,,,,,,,,,,,,,,,,,,,,,,,,,,,,,,,,
1768210629.132215,1768210629.132215,35.000000,0.000000,4354.358887,4309.871582,4346.794922,4358.974121,4311.025879,4324.487305,4309.487305,4320.128418,4311.025879,4311.282227,4528.589844,4502.051270,4416.025879,4479.358887,0.000000,4.000000,81.000000,,,,0.000000,4.000000,4.000000,4.000000,4.000000,4.000000,4.000000,4.000000,4.000000,4.000000,4.000000,4.000000,4.000000,4.000000,4.000000,100.000000,,,,,,,,,,,,,,,,,,,,,,,,,,,,,,,,,,,,,,,,,,,,,,,,,,,,,,,,,,,,,,,,,,,,,,,,,,,,,,,,,,,,,,,,,,,,,,,,,,,,,,,,,,,,,,,,,,,,,
1768210629.140024,1768210629.140223,36.000000,0.000000,4349.487305,4308.717773,4345.897461,4354.102539,4311.410156,4326.666504,4314.102539,4322.563965,4309.871582,4306.410156,4521.794922,4503.589844,4410.512695,4468.974121,0.000000,4.000000,81.000000,,,,0.000000,4.000000,4.000000,4.000000,4.000000,4.000000,4.000000,4.000000,4.000000,4.000000,4.000000,4.000000,4.000000,4.000000,4.000000,100.000000,,,,,,,,,,,,,,,,,,,,,,,,,,,,,,,,,,,,,,,,,,,,,,,,,,,,,,,,,,,,,,,,,,,,,,,,,,,,,,,,,,,,,,,,,,,,,,,,,,,,,,,,,,,,,,,,,,,,,
1768210629.147832,1768210629.148031,37.000000,0.000000,4343.589844,4299.615234,4345.512695,4345.128418,4305.000000,4325.384766,4311.922852,4327.692383,4304.615234,4297.179688,4522.051270,4500.897461,4400.512695,4465.512695,0.000000,4.000000,81.000000,,,,0.000000,4.000000,4.000000,4.000000,4.000000,4.000000,4.000000,4.000000,4.000000,4.000000,4.000000,4.000000,4.000000,4.000000,4.000000,100.000000,,,,,,,,,,,,,,,,,,,,,,,,,,,,,,,,,,,,,,,,,,,,,,,,,,,,,,,,,,,,,,,,,,,,,,,,,,,,,,,,,,,,,,,,,,,,,,,,,,,,,,,,,,,,,,,,,,,,,
1768210629.155641,1768210629.155740,38.000000,0.000000,4340.256348,4293.717773,4341.538574,4341.666504,4304.743652,4322.948730,4298.333496,4316.666504,4296.153809,4299.615234,4518.974121,4491.538574,4401.282227,4469.487305,0.000000,4.000000,81.000000,,,,0.000000,4.000000,4.000000,4.000000,4.000000,4.000000,4.000000,4.000000,4.000000,4.000000,4.000000,4.000000,4.000000,4.000000,4.000000,100.000000,,,,,,,,,,,,,,,,,,,,,,,,,,,,,,,,,,,,,,,,,,,,,,,,0.117828,0.075333,0.082275,0.141862,0.074224,4.558408,1.015953,0.168786,0.248297,0.137541,0.338057,0.143877,0.095862,0.049870,0.078524,0.197508,0.133431,0.122453,0.139571,0.060012,0.155203,0.106601,0.157536,0.111014,0.069782,0.235185,0.278827,0.264737,0.083069,0.075373,0.260778,0.190670,0.183439,0.158920,0.217931,0.257606,0.346016,0.170214,0.196098,0.175986,0.694879,0.318167,0.162947,0.140480,0.138023,0.373976,1.046668,0.711176,1.024709,0.647065,0.667326,0.653777,0.167408,0.310915,0.137313,0.326609,0.563117,0.262865,0.262327,0.096714,0.334332,0.603292,0.171925,0.263437,0.255493,0.508302,0.458602,0.145091,0.230491,0.138576
1768210629.163449,1768210629.163548,39.000000,0.000000,4342.563965,4293.461426,4341.410156,4343.461426,4306.666504,4324.743652,4296.538574,4306.794922,4293.077148,4304.102539,4508.717773,4490.641113,4404.358887,4469.102539,0.000000,4.000000,81.000000,,,,0.000000,4.000000,4.000000,4.000000,4.000000,4.000000,4.000000,4.000000,4.000000,4.000000,4.000000,4.000000,4.000000,4.000000,4.000000,100.000000,,,,,,,,,,,,,,,,,,,,,,,,,,,,,,,,,,,,,,,,,,,,,,,,,,,,,,,,,,,,,,,,,,,,,,,,,,,,,,,,,,,,,,,,,,,,,,,,,,,,,,,,,,,,,,,,,,,,,
1768210629.171258,1768210629.171156,40.000000,0.000000,4344.487305,4293.589844,4341.922852,4342.948730,4304.358887,4326.794922,4304.358887,4310.512695,4294.102539,4298.589844,4505.641113,4493.461426,4397.692383,4461.153809,0.000000,4.000000,81.000000,,,,0.000000,4.000000,4.000000,4.000000,4.000000,4.000000,4.000000,4.000000,4.000000,4.000000,4.000000,4.000000,4.000000,4.000000,4.000000,100.000000,,,,,,,,,,,,,,,,,,,,,,,,,,,,,,,,,,,,,,,,,,,,,,,,,,,,,,,,,,,,,,,,,,,,,,,,,,,,,,,,,,,,,,,,,,,,,,,,,,,,,,,,,,,,,,,,,,,,,
1768210629.179066,1768210629.178964,41.000000,0.000000,4342.307617,4293.717773,4338.717773,4342.436035,4305.000000,4325.384766,4300.256348,4317.051270,4295.384766,4292.820313,4508.461426,4490.000000,4395.256348,4458.333496,0.000000,4.000000,81.000000,,,,0.000000,4.000000,4.000000,4.000000,4.000000,4.000000,4.000000,4.000000,4.000000,4.000000,4.000000,4.000000,4.000000,4.000000,4.000000,100.000000,,,,,,,,,,,,,,,,,,,,,,,,,,,,,,,,,,,,,,,,,,,,,,,,,,,,,,,,,,,,,,,,,,,,,,,,,,,,,,,,,,,,,,,,,,,,,,,,,,,,,,,,,,,,,,,,,,,,,
1768210629.186875,1768210629.186873,42.000000,0.000000,4341.025879,4293.974121,4340.641113,4344.358887,4306.538574,4326.025879,4298.846191,4314.487305,4295.512695,4297.948730,4509.871582,4491.538574,4398.589844,4468.974121,0.000000,4.000000,81.000000,,,,0.000000,4.000000,4.000000,4.000000,4.000000,4.000000,4.000000,4.000000,4.000000,4.000000,4.000000,4.000000,4.000000,4.000000,4.000000,100.000000,,,,,,,,,,,,,,,,,,,,,,,,,,,,,,,,,,,,,,,,,,,,,,,,,,,,,,,,,,,,,,,,,,,,,,,,,,,,,,,,,,,,,,,,,,,,,,,,,,,,,,,,,,,,,,,,,,,,,
1768210629.194683,1768210629.194681,43.000000,0.000000,4340.128418,4294.230957,4342.563965,4343.589844,4306.025879,4327.692383,4305.128418,4310.256348,4294.102539,4296.666504,4514.743652,4494.230957,4398.077148,4472.692383,0.000000,4.000000,81.000000,,,,0.000000,4.000000,4.000000,4.000000,4.000000,4.000000,4.000000,4.000000,4.000000,4.000000,4.000000,4.000000,4.000000,4.000000,4.000000,100.000000,,,,,,,,,,,,,,,,,,,,,,,,,,,,,,,,,,,,,,,,,,,,,,,,,,,,,,,,,,,,,,,,,,,,,,,,,,,,,,,,,,,,,,,,,,,,,,,,,,,,,,,,,,,,,,,,,,,,,
1768210629.202491,1768210629.202689,44.000000,0.000000,4338.974121,4295.000000,4340.769043,4342.692383,4302.948730,4325.897461,4302.692383,4313.461426,4298.205078,4293.717773,4518.461426,4491.410156,4395.769043,4466.410156,0.000000,4.000000,81.000000,,,,0.000000,4.000000,4.000000,4.000000,4.000000,4.000000,4.000000,4.000000,4.000000,4.000000,4.000000,4.000000,4.000000,4.000000,4.000000,100.000000,,,,,,,,,,,,,,,,,,,,,,,,,,,,,,,,,,,,,,,,,,,,,,,,,,,,,,,,,,,,,,,,,,,,,,,,,,,,,,,,,,,,,,,,,,,,,,,,,,,,,,,,,,,,,,,,,,,,,
1768210629.210300,1768210629.210498,45.000000,0.000000,4340.128418,4288.846191,4341.025879,4343.205078,4296.538574,4326.538574,4302.692383,4317.179688,4301.538574,4302.307617,4511.922852,4491.794922,4396.153809,4466.538574,0.000000,4.000000,81.000000,,,,0.000000,4.000000,4.000000,4.000000,4.000000,4.000000,4.000000,4.000000,4.000000,4.000000,4.000000,4.000000,4.000000,4.000000,4.000000,100.000000,,,,,,,,,,,,,,,,,,,,,,,,,,,,,,,,,,,,,,,,,,,,,,,,,,,,,,,,,,,,,,,,,,,,,,,,,,,,,,,,,,,,,,,,,,,,,,,,,,,,,,,,,,,,,,,,,,,,,
1768210629.218108,1768210629.218406,46.000000,0.000000,4343.205078,4285.000000,4341.538574,4341.538574,4296.794922,4327.820313,4306.538574,4314.487305,4296.922852,4307.563965,4507.436035,4496.666504,4397.051270,4473.846191,0.000000,4.000000,81.000000,,,,0.000000,4.000000,4.000000,4.000000,4.000000,4.000000,4.000000,4.000000,4.000000,4.000000,4.000000,4.000000,4.000000,4.000000,4.000000,100.000000,,,,,,,,,,,,,,,,,,,,,,,,,,,,,,,,,,,,,,,,,,,,,,,,,,,,,,,,,,,,,,,,,,,,,,,,,,,,,,,,,,,,,,,,,,,,,,,,,,,,,,,,,,,,,,,,,,,,,
1768210629.225917,1768210629.226215,47.000000,0.000000,4345.256348,4297.051270,4341.025879,4341.025879,4305.641113,4320.512695,4297.436035,4308.589844,4293.974121,4304.743652,4509.358887,4499.743652,4401.538574,4477.179688,0.000000,4.000000,81.000000,,,,0.000000,4.000000,4.000000,4.000000,4.000000,4.000000,4.000000,4.000000,4.000000,4.000000,4.000000,4.000000,4.000000,4.000000,4.000000,100.000000,,,,,,,,,,,,,,,,,,,,,,,,,,,,,,,,,,,,,,,,,,,,,,,,,,,,,,,,,,,,,,,,,,,,,,,,,,,,,,,,,,,,,,,,,,,,,,,,,,,,,,,,,,,,,,,,,,,,,
1768210629.233725,1768210629.234223,48.000000,0.000000,4343.077148,4310.769043,4339.615234,4341.922852,4306.538574,4320.000000,4295.897461,4312.051270,4295.897461,4299.871582,4509.102539,4495.512695,4400.897461,4473.846191,0.000000,4.000000,81.000000,,,,0.000000,4.000000,4.000000,4.000000,4.000000,4.000000,4.000000,4.000000,4.000000,4.000000,4.000000,4.000000,4.000000,4.000000,4.000000,100.000000,,,,,,,,,,,,,,,,,,,,,,,,,,,,,,,,,,,,,,,,,,,,,,,,,,,,,,,,,,,,,,,,,,,,,,,,,,,,,,,,,,,,,,,,,,,,,,,,,,,,,,,,,,,,,,,,,,,,,
1768210629.241533,1768210629.242031,49.000000,0.000000,4337.948730,4318.333496,4336.538574,4341.922852,4301.922852,4326.282227,4311.922852,4321.153809,4299.487305,4298.589844,4512.179688,4490.384766,4394.102539,4473.205078,0.000000,4.000000,81.000000,,,,0.000000,4.000000,4.000000,4.000000,4.000000,4.000000,4.000000,4.000000,4.000000,4.000000,4.000000,4.000000,4.000000,4.000000,4.000000,100.000000,,,,,,,,,,,,,,,,,,,,,,,,,,,,,,,,,,,,,,,,,,,,,,,,,,,,,,,,,,,,,,,,,,,,,,,,,,,,,,,,,,,,,,,,,,,,,,,,,,,,,,,,,,,,,,,,,,,,,
1768210629.249342,1768210629.249740,50.000000,0.000000,4337.436035,4329.358887,4336.410156,4342.692383,4304.743652,4321.025879,4310.641113,4323.717773,4304.102539,4294.743652,4521.282227,4491.794922,4400.512695,4473.077148,0.000000,4.000000,81.000000,,,,0.000000,4.000000,4.000000,4.000000,4.000000,4.000000,4.000000,4.000000,4.000000,4.000000,4.000000,4.000000,4.000000,4.000000,4.000000,100.000000,,,,,,,,,,,,,,,,,,,,,,,,,,,,,,,,,,,,,,,,,,,,,,,,,,,,,,,,,,,,,,,,,,,,,,,,,,,,,,,,,,,,,,,,,,,,,,,,,,,,,,,,,,,,,,,,,,,,,
1768210629.257150,1768210629.257548,51.000000,0.000000,4344.615234,4342.307617,4338.846191,4343.077148,4308.333496,4315.384766,4297.948730,4315.641113,4301.538574,4291.666504,4524.230957,4497.307617,4412.051270,4475.128418,0.000000,4.000000,81.000000,,,,0.000000,4.000000,4.000000,4.000000,4.000000,4.000000,4.000000,4.000000,4.000000,4.000000,4.000000,4.000000,4.000000,4.000000,4.000000,100.000000,,,,,,,,,,,,,,,,,,,,,,,,,,,,,,,,,,,,,,,,,,,,,,,,,,,,,,,,,,,,,,,,,,,,,,,,,,,,,,,,,,,,,,,,,,,,,,,,,,,,,,,,,,,,,,,,,,,,,
1768210629.264959,1768210629.265156,52.000000,0.000000,4346.282227,4350.000000,4339.743652,4341.153809,4310.256348,4320.512695,4301.666504,4307.179688,4293.461426,4299.230957,4517.692383,4490.256348,4410.384766,4478.717773,0.000000,4.000000,81.000000,,,,0.000000,4.000000,4.000000,4.000000,4.000000,4.000000,4.000000,4.000000,4.000000,4.000000,4.000000,4.000000,4.000000,4.000000,4.000000,100.000000,,,,,,,,,,,,,,,,,,,,,,,,,,,,,,,,,,,,,,,,,,,,,,,,,,,,,,,,,,,,,,,,,,,,,,,,,,,,,,,,,,,,,,,,,,,,,,,,,,,,,,,,,,,,,,,,,,,,,
1768210629.272767,1768210629.272965,53.000000,0.000000,4341.025879,4352.563965,4338.974121,4341.794922,4311.282227,4321.794922,4303.974121,4311.410156,4297.179688,4306.153809,4509.743652,4475.641113,4400.256348,4470.000000,0.000000,4.000000,81.000000,,,,0.000000,4.000000,4.000000,4.000000,4.000000,4.000000,4.000000,4.000000,4.000000,4.000000,4.000000,4.000000,4.000000,4.000000,4.000000,100.000000,,,,,,,,,,,,,,,,,,,,,,,,,,,,,,,,,,,,,,,,,,,,,,,,,,,,,,,,,,,,,,,,,,,,,,,,,,,,,,,,,,,,,,,,,,,,,,,,,,,,,,,,,,,,,,,,,,,,,
1768210629.280576,1768210629.280673,54.000000,0.000000,4340.128418,4353.205078,4335.256348,4343.589844,4309.487305,4320.897461,4301.410156,4318.205078,4307.692383,4303.589844,4506.538574,4477.179688,4399.102539,4463.077148,0.000000,4.000000,81.000000,,,,0.000000,4.000000,4.000000,4.000000,4.000000,4.000000,4.000000,4.000000,4.000000,4.000000,4.000000,4.000000,4.000000,4.000000,4.000000,100.000000,,,,,,,,,,,,,,,,,,,,,,,,,,,,,,,,,,,,,,,,,,,,,,,,0.144984,0.078405,0.094792,0.122703,0.069694,5.151050,0.947668,0.170745,0.221162,0.130517,0.323978,0.147912,0.097807,0.054451,0.072696,0.170504,0.156242,0.134995,0.127567,0.060596,0.158588,0.086873,0.150550,0.093537,0.063425,0.242039,0.300872,0.254629,0.095327,0.086405,0.236796,0.173836,0.155666,0.152251,0.217077,0.191978,0.258379,0.149857,0.203733,0.161027,0.570135,0.280984,0.153947,0.129966,0.139230,0.324040,0.917019,0.641440,0.941181,0.557031,0.645618,0.486345,0.109061,0.282560,0.119887,0.332839,0.439975,0.231185,0.267251,0.093460,0.399308,0.448064,0.167024,0.269821,0.277875,0.644805,0.441840,0.117893,0.244048,0.181606
1768210629.288384,1768210629.288481,55.000000,0.000000,4340.897461,4353.461426,4331.794922,4341.410156,4309.102539,4326.282227,4307.820313,4322.307617,4310.512695,4304.487305,4514.743652,4490.769043,4408.589844,4471.153809,0.000000,4.000000,81.000000,,,,0.000000,4.000000,4.000000,4.000000,4.000000,4.000000,4.000000,4.000000,4.000000,4.000000,4.000000,4.000000,4.000000,4.000000,4.000000,100.000000,,,,,,,,,,,,,,,,,,,,,,,,,,,,,,,,,,,,,,,,,,,,,,,,,,,,,,,,,,,,,,,,,,,,,,,,,,,,,,,,,,,,,,,,,,,,,,,,,,,,,,,,,,,,,,,,,,,,,
1768210629.296193,1768210629.296089,56.000000,0.000000,4341.282227,4355.512695,4336.282227,4341.410156,4310.769043,4324.743652,4305.256348,4323.717773,4307.820313,4307.051270,4523.461426,4493.974121,4414.743652,4479.230957,0.000000,4.000000,81.000000,,,,0.000000,4.000000,4.000000,4.000000,4.000000,4.000000,4.000000,4.000000,4.000000,4.000000,4.000000,4.000000,4.000000,4.000000,4.000000,100.000000,,,,,,,,,,,,,,,,,,,,,,,,,,,,,,,,,,,,,,,,,,,,,,,,,,,,,,,,,,,,,,,,,,,,,,,,,,,,,,,,,,,,,,,,,,,,,,,,,,,,,,,,,,,,,,,,,,,,,
1768210629.304001,1768210629.303898,57.000000,0.000000,4343.974121,4358.717773,4340.897461,4344.487305,4311.666504,4319.358887,4294.358887,4317.179688,4306.794922,4293.333496,4522.179688,4484.487305,4413.846191,4475.769043,0.000000,4.000000,81.000000,,,,0.000000,4.000000,4.000000,4.000000,4.000000,4.000000,4.000000,4.000000,4.000000,4.000000,4.000000,4.000000,4.000000,4.000000,4.000000,100.000000,,,,,,,,,,,,,,,,,,,,,,,,,,,,,,,,,,,,,,,,,,,,,,,,,,,,,,,,,,,,,,,,,,,,,,,,,,,,,,,,,,,,,,,,,,,,,,,,,,,,,,,,,,,,,,,,,,,,,
1768210629.311809,1768210629.311606,58.000000,0.000000,4345.897461,4356.410156,4339.230957,4344.743652,4309.102539,4325.128418,4304.615234,4313.205078,4310.384766,4287.820313,4522.179688,4480.384766,4409.871582,4472.051270,0.000000,4.000000,81.000000,,,,0.000000,4.000000,4.000000,4.000000,4.000000,4.000000,4.000000,4.000000,4.000000,4.000000,4.000000,4.000000,4.000000,4.000000,4.000000,100.000000,,,,,,,,,,,,,,,,,,,,,,,,,,,,,,,,,,,,,,,,,,,,,,,,,,,,,,,,,,,,,,,,,,,,,,,,,,,,,,,,,,,,,,,,,,,,,,,,,,,,,,,,,,,,,,,,,,,,,
1768210629.319618,1768210629.319414,59.000000,0.000000,4343.077148,4348.589844,4337.179688,4343.846191,4305.384766,4326.538574,4314.743652,4315.641113,4307.948730,4301.153809,4520.897461,4487.179688,4405.769043,4471.153809,0.000000,4.000000,81.000000,,,,0.000000,4.000000,4.000000,4.000000,4.000000,4.000000,4.000000,4.000000,4.000000,4.000000,4.000000,4.000000,4.000000,4.000000,4.000000,100.000000,,,,,,,,,,,,,,,,,,,,,,,,,,,,,,,,,,,,,,,,,,,,,,,,,,,,,,,,,,,,,,,,,,,,,,,,,,,,,,,,,,,,,,,,,,,,,,,,,,,,,,,,,,,,,,,,,,,,,
1768210629.327426,1768210629.327423,60.000000,0.000000,4340.000000,4343.717773,4337.820313,4343.846191,4303.717773,4318.589844,4302.436035,4315.128418,4297.051270,4302.948730,4513.333496,4489.743652,4405.000000,4469.615234,0.000000,4.000000,81.000000,,,,0.000000,4.000000,4.000000,4.000000,4.000000,4.000000,4.000000,4.000000,4.000000,4.000000,4.000000,4.000000,4.000000,4.000000,4.000000,100.000000,,,,,,,,,,,,,,,,,,,,,,,,,,,,,,,,,,,,,,,,,,,,,,,,,,,,,,,,,,,,,,,,,,,,,,,,,,,,,,,,,,,,,,,,,,,,,,,,,,,,,,,,,,,,,,,,,,,,,
1768210629.335235,1768210629.335231,61.000000,0.000000,4340.769043,4343.974121,4337.179688,4342.563965,4304.871582,4319.871582,4297.948730,4309.230957,4295.641113,4299.102539,4507.051270,4480.000000,4406.538574,4465.384766,0.000000,4.000000,81.000000,,,,0.000000,4.000000,4.000000,4.000000,4.000000,4.000000,4.000000,4.000000,4.000000,4.000000,4.000000,4.000000,4.000000,4.000000,4.000000,100.000000,,,,,,,,,,,,,,,,,,,,,,,,,,,,,,,,,,,,,,,,,,,,,,,,,,,,,,,,,,,,,,,,,,,,,,,,,,,,,,,,,,,,,,,,,,,,,,,,,,,,,,,,,,,,,,,,,,,,,
1768210629.343043,1768210629.343140,62.000000,0.000000,4342.436035,4343.205078,4335.512695,4342.179688,4305.769043,4326.794922,4306.410156,4310.384766,4304.615234,4291.153809,4507.563965,4473.205078,4406.410156,4462.051270,0.000000,4.000000,81.000000,,,,0.000000,4.000000,4.000000,4.000000,4.000000,4.000000,4.000000,4.000000,4.000000,4.000000,4.000000,4.000000,4.000000,4.000000,4.000000,100.000000,,,,,,,,,,,,,,,,,,,,,,,,,,,,,,,,,,,,,,,,,,,,,,,,,,,,,,,,,,,,,,,,,,,,,,,,,,,,,,,,,,,,,,,,,,,,,,,,,,,,,,,,,,,,,,,,,,,,,
1768210629.350851,1768210629.350948,63.000000,0.000000,4341.794922,4335.769043,4336.794922,4342.820313,4300.897461,4324.615234,4308.333496,4316.153809,4306.922852,4279.358887,4514.615234,4483.333496,4404.615234,4469.358887,0.000000,4.000000,81.000000,,,,0.000000,4.000000,4.000000,4.000000,4.000000,4.000000,4.000000,4.000000,4.000000,4.000000,4.000000,4.000000,4.000000,4.000000,4.000000,100.000000,,,,,,,,,,,,,,,,,,,,,,,,,,,,,,,,,,,,,,,,,,,,,,,,,,,,,,,,,,,,,,,,,,,,,,,,,,,,,,,,,,,,,,,,,,,,,,,,,,,,,,,,,,,,,,,,,,,,,
1768210629.358660,1768210629.358557,64.000000,0.000000,4339.615234,4327.436035,4339.102539,4341.794922,4298.461426,4320.897461,4309.743652,4321.153809,4306.922852,4288.846191,4521.922852,4493.333496,4406.153809,4480.897461,2999.000000,4.000000,81.000000,,,,0.000000,4.000000,4.000000,4.000000,4.000000,4.000000,4.000000,4.000000,4.000000,4.000000,4.000000,4.000000,4.000000,4.000000,4.000000,100.000000,,,,,,,,,,,,,,,,,,,,,,,,,,,,,,,,,,,,,,,,,,,,,,,,,,,,,,,,,,,,,,,,,,,,,,,,,,,,,,,,,,,,,,,,,,,,,,,,,,,,,,,,,,,,,,,,,,,,,
1768210629.366468,1768210629.366365,65.000000,0.000000,4340.256348,4326.025879,4337.179688,4340.897461,4301.794922,4320.000000,4310.256348,4327.051270,4312.307617,4307.820313,4521.666504,4490.512695,4410.384766,4477.051270,4066.000000,4.000000,81.000000,,,,0.000000,4.000000,4.000000,4.000000,4.000000,4.000000,4.000000,4.000000,4.000000,4.000000,4.000000,4.000000,4.000000,4.000000,4.000000,100.000000,,,,,,,,,,,,,,,,,,,,,,,,,,,,,,,,,,,,,,,,,,,,,,,,,,,,,,,,,,,,,,,,,,,,,,,,,,,,,,,,,,,,,,,,,,,,,,,,,,,,,,,,,,,,,,,,,,,,,
1768210629.374277,1768210629.374073,66.000000,0.000000,4342.307617,4328.077148,4335.512695,4342.436035,4303.461426,4318.974121,4303.717773,4322.692383,4311.794922,4307.692383,4518.974121,4485.769043,4414.743652,4468.077148,2515.000000,4.000000,81.000000,,,,0.000000,4.000000,4.000000,4.000000,4.000000,4.000000,4.000000,4.000000,4.000000,4.000000,4.000000,4.000000,4.000000,4.000000,4.000000,100.000000,,,,,,,,,,,,,,,,,,,,,,,,,,,,,,,,,,,,,,,,,,,,,,,,,,,,,,,,,,,,,,,,,,,,,,,,,,,,,,,,,,,,,,,,,,,,,,,,,,,,,,,,,,,,,,,,,,,,,
1768210629.382085,1768210629.381881,67.000000,0.000000,4344.358887,4324.358887,4340.897461,4347.051270,4301.538574,4321.025879,4306.666504,4319.358887,4309.871582,4301.922852,4522.307617,4488.846191,4414.615234,4471.922852,3914.000000,4.000000,81.000000,,,,0.000000,4.000000,4.000000,4.000000,4.000000,4.000000,4.000000,4.000000,4.000000,4.000000,4.000000,4.000000,4.000000,4.000000,4.000000,100.000000,,,,,,,,,,,,,,,,,,,,,,,,,,,,,,,,,,,,,,,,,,,,,,,,,,,,,,,,,,,,,,,,,,,,,,,,,,,,,,,,,,,,,,,,,,,,,,,,,,,,,,,,,,,,,,,,,,,,,
1768210629.389894,1768210629.389890,68.000000,0.000000,4346.025879,4322.820313,4344.871582,4351.282227,4302.307617,4322.051270,4314.743652,4327.563965,4313.461426,4300.000000,4526.153809,4494.743652,4410.384766,4478.846191,3869.000000,4.000000,81.000000,,,,0.000000,4.000000,4.000000,4.000000,4.000000,4.000000,4.000000,4.000000,4.000000,4.000000,4.000000,4.000000,4.000000,4.000000,4.000000,100.000000,,,,,,,,,,,,,,,,,,,,,,,,,,,,,,,,,,,,,,,,,,,,,,,,,,,,,,,,,,,,,,,,,,,,,,,,,,,,,,,,,,,,,,,,,,,,,,,,,,,,,,,,,,,,,,,,,,,,,
1768210629.397702,1768210629.397698,69.000000,0.000000,4344.230957,4326.410156,4340.384766,4351.282227,4306.538574,4320.384766,4307.307617,4323.333496,4310.512695,4294.358887,4522.948730,4492.179688,4406.410156,4474.487305,3284.000000,4.000000,81.000000,,,,0.000000,4.000000,4.000000,4.000000,4.000000,4.000000,4.000000,4.000000,4.000000,4.000000,4.000000,4.000000,4.000000,4.000000,4.000000,100.000000,,,,,,,,,,,,,,,,,,,,,,,,,,,,,,,,,,,,,,,,,,,,,,,,,,,,,,,,,,,,,,,,,,,,,,,,,,,,,,,,,,,,,,,,,,,,,,,,,,,,,,,,,,,,,,,,,,,,,
1768210629.405511,1768210629.405606,70.000000,0.000000,4344.615234,4328.077148,4338.461426,4352.179688,4310.256348,4323.461426,4302.563965,4311.794922,4306.794922,4302.436035,4519.743652,4485.256348,4404.615234,4467.692383,3879.000000,4.000000,81.000000,,,,0.000000,4.000000,4.000000,4.000000,4.000000,4.000000,4.000000,4.000000,4.000000,4.000000,4.000000,4.000000,4.000000,4.000000,4.000000,100.000000,,,,,,,,,,,,,,,,,,,,,,,,,,,,,,,,,,,,,,,,,,,,,,,,0.174918,0.092565,0.109193,0.109110,0.066428,5.798592,0.903998,0.186044,0.211639,0.128664,0.287374,0.141183,0.097947,0.063032,0.069405,0.174550,0.180280,0.155130,0.129810,0.063783,0.156552,0.065349,0.135148,0.075271,0.056535,0.245086,0.305961,0.223760,0.112277,0.094217,0.199228,0.157532,0.123888,0.150156,0.203267,0.134738,0.189665,0.141263,0.233472,0.152272,0.439716,0.247964,0.138772,0.123353,0.133766,0.261908,0.764375,0.564241,0.874206,0.471697,0.622956,0.344925,0.067286,0.251649,0.106020,0.334324,0.330841,0.185909,0.254044,0.090173,0.468182,0.333690,0.185575,0.265114,0.300025,0.774311,0.433172,0.093752,0.253188,0.230024
1768210629.413319,1768210629.413415,71.000000,0.000000,4347.436035,4328.333496,4342.948730,4356.538574,4312.820313,4326.666504,4311.282227,4315.000000,4308.589844,4313.974121,4521.666504,4485.384766,4405.641113,4471.153809,3911.000000,4.000000,81.000000,,,,0.000000,4.000000,4.000000,4.000000,4.000000,4.000000,4.000000,4.000000,4.000000,4.000000,4.000000,4.000000,4.000000,4.000000,4.000000,100.000000,,,,,,,,,,,,,,,,,,,,,,,,,,,,,,,,,,,,,,,,,,,,,,,,,,,,,,,,,,,,,,,,,,,,,,,,,,,,,,,,,,,,,,,,,,,,,,,,,,,,,,,,,,,,,,,,,,,,,
1768210629.421127,1768210629.421423,72.000000,0.000000,4343.717773,4324.871582,4344.487305,4358.589844,4310.641113,4324.487305,4310.769043,4317.948730,4307.563965,4304.871582,4526.282227,4490.128418,4407.307617,4478.461426,3964.000000,4.000000,81.000000,,,,0.000000,4.000000,4.000000,4.000000,4.000000,4.000000,4.000000,4.000000,4.000000,4.000000,4.000000,4.000000,4.000000,4.000000,4.000000,100.000000,,,,,,,,,,,,,,,,,,,,,,,,,,,,,,,,,,,,,,,,,,,,,,,,,,,,,,,,,,,,,,,,,,,,,,,,,,,,,,,,,,,,,,,,,,,,,,,,,,,,,,,,,,,,,,,,,,,,,
1768210629.428936,1768210629.429231,73.000000,0.000000,4339.615234,4318.974121,4341.025879,4354.871582,4308.846191,4323.205078,4304.230957,4310.641113,4304.743652,4293.333496,4526.153809,4492.563965,4408.461426,4477.820313,4056.000000,4.000000,81.000000,,,,0.000000,4.000000,4.000000,4.000000,4.000000,4.000000,4.000000,4.000000,4.000000,4.000000,4.000000,4.000000,4.000000,4.000000,4.000000,100.000000,,,,,,,,,,,,,,,,,,,,,,,,,,,,,,,,,,,,,,,,,,,,,,,,,,,,,,,,,,,,,,,,,,,,,,,,,,,,,,,,,,,,,,,,,,,,,,,,,,,,,,,,,,,,,,,,,,,,,
1768210629.436744,1768210629.436940,74.000000,0.000000,4342.179688,4316.538574,4340.256348,4351.794922,4311.794922,4328.077148,4308.589844,4314.743652,4308.205078,4296.538574,4518.205078,4491.153809,4408.974121,4468.974121,3931.000000,4.000000,81.000000,,,,0.000000,4.000000,4.000000,4.000000,4.000000,4.000000,4.000000,4.000000,4.000000,4.000000,4.000000,4.000000,4.000000,4.000000,4.000000,100.000000,,,,,,,,,,,,,,,,,,,,,,,,,,,,,,,,,,,,,,,,,,,,,,,,,,,,,,,,,,,,,,,,,,,,,,,,,,,,,,,,,,,,,,,,,,,,,,,,,,,,,,,,,,,,,,,,,,,,,
1768210629.444553,1768210629.444748,75.000000,0.000000,4344.615234,4319.615234,4341.666504,4354.230957,4313.717773,4331.410156,4312.563965,4322.436035,4309.615234,4307.692383,4509.230957,4484.871582,4406.666504,4459.615234,4046.000000,4.000000,81.000000,,,,0.000000,4.000000,4.000000,4.000000,4.000000,4.000000,4.000000,4.000000,4.000000,4.000000,4.000000,4.000000,4.000000,4.000000,4.000000,100.000000,,,,,,,,,,,,,,,,,,,,,,,,,,,,,,,,,,,,,,,,,,,,,,,,,,,,,,,,,,,,,,,,,,,,,,,,,,,,,,,,,,,,,,,,,,,,,,,,,,,,,,,,,,,,,,,,,,,,,
1768210629.452361,1768210629.452356,76.000000,0.000000,4345.000000,4321.666504,4341.025879,4358.846191,4312.692383,4328.589844,4312.307617,4318.717773,4304.615234,4306.922852,4506.666504,4480.641113,4403.077148,4459.871582,4973.000000,4.000000,81.000000,,,,0.000000,4.000000,4.000000,4.000000,4.000000,4.000000,4.000000,4.000000,4.000000,4.000000,4.000000,4.000000,4.000000,4.000000,4.000000,100.000000,,,,,,,,,,,,,,,,,,,,,,,,,,,,,,,,,,,,,,,,,,,,,,,,,,,,,,,,,,,,,,,,,,,,,,,,,,,,,,,,,,,,,,,,,,,,,,,,,,,,,,,,,,,,,,,,,,,,,
1768210629.460169,1768210629.460165,77.000000,0.000000,4344.871582,4319.487305,4340.128418,4356.538574,4310.897461,4326.282227,4312.179688,4321.025879,4305.769043,4297.051270,4510.641113,4486.922852,4400.384766,4463.205078,3862.000000,4.000000,81.000000,,,,0.000000,4.000000,4.000000,4.000000,4.000000,4.000000,4.000000,4.000000,4.000000,4.000000,4.000000,4.000000,4.000000,4.000000,4.000000,100.000000,,,,,,,,,,,,,,,,,,,,,,,,,,,,,,,,,,,,,,,,,,,,,,,,,,,,,,,,,,,,,,,,,,,,,,,,,,,,,,,,,,,,,,,,,,,,,,,,,,,,,,,,,,,,,,,,,,,,,
1768210629.467978,1768210629.467873,78.000000,0.000000,4341.538574,4321.025879,4339.743652,4352.692383,4311.153809,4328.589844,4309.487305,4327.436035,4310.897461,4292.563965,4509.615234,4494.102539,4397.948730,4461.666504,3931.000000,4.000000,81.000000,,,,0.000000,4.000000,4.000000,4.000000,4.000000,4.000000,4.000000,4.000000,4.000000,4.000000,4.000000,4.000000,4.000000,4.000000,4.000000,100.000000,,,,,,,,,,,,,,,,,,,,,,,,,,,,,,,,,,,,,,,,,,,,,,,,,,,,,,,,,,,,,,,,,,,,,,,,,,,,,,,,,,,,,,,,,,,,,,,,,,,,,,,,,,,,,,,,,,,,,
1768210629.475786,1768210629.475681,79.000000,0.000000,4340.769043,4326.410156,4339.487305,4353.974121,4311.025879,4329.358887,4312.051270,4321.794922,4307.051270,4289.615234,4503.333496,4489.102539,4395.000000,4458.717773,4046.000000,4.000000,81.000000,,,,0.000000,4.000000,4.000000,4.000000,4.000000,4.000000,4.000000,4.000000,4.000000,4.000000,4.000000,4.000000,4.000000,4.000000,4.000000,100.000000,,,,,,,,,,,,,,,,,,,,,,,,,,,,,,,,,,,,,,,,,,,,,,,,,,,,,,,,,,,,,,,,,,,,,,,,,,,,,,,,,,,,,,,,,,,,,,,,,,,,,,,,,,,,,,,,,,,,,
1768210629.483595,1768210629.483290,80.000000,0.000000,4346.153809,4327.692383,4341.922852,4354.615234,4311.666504,4326.922852,4316.666504,4319.102539,4304.358887,4294.487305,4511.794922,4485.512695,4397.051270,4461.282227,4973.000000,4.000000,81.000000,,,,0.000000,4.000000,4.000000,4.000000,4.000000,4.000000,4.000000,4.000000,4.000000,4.000000,4.000000,4.000000,4.000000,4.000000,4.000000,100.000000,,,,,,,,,,,,,,,,,,,,,,,,,,,,,,,,,,,,,,,,,,,,,,,,,,,,,,,,,,,,,,,,,,,,,,,,,,,,,,,,,,,,,,,,,,,,,,,,,,,,,,,,,,,,,,,,,,,,,
1768210629.491403,1768210629.491098,81.000000,0.000000,4344.743652,4324.743652,4343.205078,4348.974121,4310.769043,4325.769043,4311.922852,4323.077148,4309.743652,4303.589844,4524.615234,4491.666504,4402.051270,4466.282227,3862.000000,4.000000,81.000000,,,,0.000000,4.000000,4.000000,4.000000,4.000000,4.000000,4.000000,4.000000,4.000000,4.000000,4.000000,4.000000,4.000000,4.000000,4.000000,100.000000,,,,,,,,,,,,,,,,,,,,,,,,,,,,,,,,,,,,,,,,,,,,,,,,,,,,,,,,,,,,,,,,,,,,,,,,,,,,,,,,,,,,,,,,,,,,,,,,,,,,,,,,,,,,,,,,,,,,,
1768210629.499212,1768210629.498806,82.000000,0.000000,4340.512695,4322.563965,4337.820313,4343.205078,4306.922852,4321.538574,4307.179688,4316.282227,4307.179688,4302.051270,4518.077148,4489.615234,4405.384766,4466.282227,3931.000000,4.000000,81.000000,,,,0.000000,4.000000,4.000000,4.000000,4.000000,4.000000,4.000000,4.000000,4.000000,4.000000,4.000000,4.000000,4.000000,4.000000,4.000000,100.000000,,,,,,,,,,,,,,,,,,,,,,,,,,,,,,,,,,,,,,,,,,,,,,,,,,,,,,,,,,,,,,,,,,,,,,,,,,,,,,,,,,,,,,,,,,,,,,,,,,,,,,,,,,,,,,,,,,,,,
1768210629.507020,1768210629.506614,83.000000,0.000000,4340.897461,4322.179688,4334.230957,4342.051270,4307.179688,4317.820313,4310.000000,4308.717773,4300.897461,4296.153809,4507.179688,4478.077148,4404.102539,4461.666504,4046.000000,4.000000,81.000000,,,,0.000000,4.000000,4.000000,4.000000,4.000000,4.000000,4.000000,4.000000,4.000000,4.000000,4.000000,4.000000,4.000000,4.000000,4.000000,100.000000,,,,,,,,,,,,,,,,,,,,,,,,,,,,,,,,,,,,,,,,,,,,,,,,,,,,,,,,,,,,,,,,,,,,,,,,,,,,,,,,,,,,,,,,,,,,,,,,,,,,,,,,,,,,,,,,,,,,,
1768210629.514829,1768210629.514622,84.000000,0.000000,4339.487305,4321.410156,4335.512695,4343.461426,4309.102539,4321.538574,4311.666504,4316.922852,4304.615234,4293.205078,4507.820313,4478.077148,4398.846191,4457.563965,4973.000000,4.000000,81.000000,,,,0.000000,4.000000,4.000000,4.000000,4.000000,4.000000,4.000000,4.000000,4.000000,4.000000,4.000000,4.000000,4.000000,4.000000,4.000000,100.000000,,,,,,,,,,,,,,,,,,,,,,,,,,,,,,,,,,,,,,,,,,,,,,,,,,,,,,,,,,,,,,,,,,,,,,,,,,,,,,,,,,,,,,,,,,,,,,,,,,,,,,,,,,,,,,,,,,,,,
1768210629.522637,1768210629.522431,85.000000,0.000000,4337.692383,4321.922852,4336.538574,4346.794922,4307.179688,4321.538574,4310.897461,4323.846191,4306.666504,4289.871582,4509.743652,4491.282227,4400.000000,4461.666504,3862.000000,4.000000,81.000000,,,,0.000000,4.000000,4.000000,4.000000,4.000000,4.000000,4.000000,4.000000,4.000000,4.000000,4.000000,4.000000,4.000000,4.000000,4.000000,100.000000,,,,,,,,,,,,,,,,,,,,,,,,,,,,,,,,,,,,,,,,,,,,,,,,,,,,,,,,,,,,,,,,,,,,,,,,,,,,,,,,,,,,,,,,,,,,,,,,,,,,,,,,,,,,,,,,,,,,,
1768210629.530445,1768210629.530339,86.000000,0.000000,4338.333496,4324.358887,4338.589844,4351.794922,4307.436035,4314.743652,4310.384766,4320.769043,4306.153809,4296.025879,4516.282227,4495.897461,4406.282227,4467.307617,3931.000000,4.000000,81.000000,,,,0.000000,4.000000,4.000000,4.000000,4.000000,4.000000,4.000000,4.000000,4.000000,4.000000,4.000000,4.000000,4.000000,4.000000,4.000000,100.000000,1.000000,25.000000,1.000000,4.000000,1.000000,4.000000,1.000000,4.000000,4.000000,4.000000,4.000000,4.000000,4.000000,4.000000,4.000000,4.000000,,,,,,,,,,,,,,,,,,,,,,,,,,,,,,,,0.198618,0.115506,0.122271,0.103434,0.065605,6.381005,0.903229,0.220668,0.220950,0.133399,0.237322,0.125749,0.097767,0.072166,0.069257,0.213701,0.198205,0.181606,0.141759,0.069581,0.159503,0.049571,0.116065,0.061231,0.051081,0.240566,0.287959,0.180504,0.128873,0.096994,0.156611,0.141641,0.100269,0.146574,0.180885,0.105109,0.174127,0.145039,0.277115,0.152795,0.336587,0.247301,0.124441,0.124407,0.124221,0.201964,0.631001,0.484827,0.824897,0.407161,0.584876,0.270890,0.047094,0.226759,0.099178,0.322094,0.261231,0.138935,0.226448,0.087639,0.517258,0.283185,0.221694,0.253294,0.316025,0.841283,0.431518,0.074884,0.252645,0.275694
1768210629.538254,1768210629.538148,87.000000,0.000000,4336.410156,4324.743652,4340.641113,4350.128418,4311.922852,4316.666504,4311.410156,4322.820313,4310.641113,4302.307617,4523.077148,4488.846191,4403.717773,4460.512695,4046.000000,4.000000,81.000000,,,,0.000000,4.000000,4.000000,4.000000,4.000000,4.000000,4.000000,4.000000,4.000000,4.000000,4.000000,4.000000,4.000000,4.000000,4.000000,100.000000,,,,,,,,,,,,,,,,,,,,,,,,,,,,,,,,,,,,,,,,,,,,,,,,,,,,,,,,,,,,,,,,,,,,,,,,,,,,,,,,,,,,,,,,,,,,,,,,,,,,,,,,,,,,,,,,,,,,,
1768210629.546062,1768210629.546156,88.000000,0.000000,4336.538574,4321.666504,4339.871582,4343.974121,4309.487305,4324.358887,4315.769043,4326.538574,4311.666504,4290.769043,4512.051270,4485.769043,4400.641113,4452.307617,4973.000000,4.000000,81.000000,,,,0.000000,4.000000,4.000000,4.000000,4.000000,4.000000,4.000000,4.000000,4.000000,4.000000,4.000000,4.000000,4.000000,4.000000,4.000000,100.000000,,,,,,,,,,,,,,,,,,,,,,,,,,,,,,,,,,,,,,,,,,,,,,,,,,,,,,,,,,,,,,,,,,,,,,,,,,,,,,,,,,,,,,,,,,,,,,,,,,,,,,,,,,,,,,,,,,,,,
1768210629.553871,1768210629.553964,89.000000,0.000000,4341.666504,4318.974121,4338.717773,4345.769043,4303.205078,4322.820313,4315.256348,4324.743652,4310.256348,4291.794922,4504.871582,4488.717773,4406.794922,4455.512695,3862.000000,4.000000,81.000000,,,,0.000000,4.000000,4.000000,4.000000,4.000000,4.000000,4.000000,4.000000,4.000000,4.000000,4.000000,4.000000,4.000000,4.000000,4.000000,100.000000,,,,,,,,,,,,,,,,,,,,,,,,,,,,,,,,,,,,,,,,,,,,,,,,,,,,,,,,,,,,,,,,,,,,,,,,,,,,,,,,,,,,,,,,,,,,,,,,,,,,,,,,,,,,,,,,,,,,,
1768210629.561679,1768210629.561673,90.000000,0.000000,4340.128418,4322.307617,4338.333496,4350.384766,4305.641113,4312.563965,4308.717773,4325.256348,4312.307617,4305.000000,4518.846191,4490.769043,4409.871582,4464.358887,3931.000000,4.000000,81.000000,,,,0.000000,4.000000,4.000000,4.000000,4.000000,4.000000,4.000000,4.000000,4.000000,4.000000,4.000000,4.000000,4.000000,4.000000,4.000000,100.000000,,,,,,,,,,,,,,,,,,,,,,,,,,,,,,,,,,,,,,,,,,,,,,,,,,,,,,,,,,,,,,,,,,,,,,,,,,,,,,,,,,,,,,,,,,,,,,,,,,,,,,,,,,,,,,,,,,,,,
1768210629.569487,1768210629.569481,91.000000,0.000000,4338.205078,4325.384766,4337.948730,4350.000000,4310.000000,4311.025879,4309.743652,4325.512695,4311.794922,4299.358887,4527.051270,4492.436035,4409.743652,4468.846191,4046.000000,4.000000,81.000000,,,,0.000000,4.000000,4.000000,4.000000,4.000000,4.000000,4.000000,4.000000,4.000000,4.000000,4.000000,4.000000,4.000000,4.000000,4.000000,100.000000,,,,,,,,,,,,,,,,,,,,,,,,,,,,,,,,,,,,,,,,,,,,,,,,,,,,,,,,,,,,,,,,,,,,,,,,,,,,,,,,,,,,,,,,,,,,,,,,,,,,,,,,,,,,,,,,,,,,,
1768210629.577296,1768210629.577489,92.000000,0.000000,4350.000000,4325.512695,4340.769043,4354.230957,4309.358887,4319.102539,4310.769043,4315.256348,4310.256348,4296.410156,4521.153809,4491.922852,4413.077148,4468.461426,4973.000000,4.000000,81.000000,,,,0.000000,4.000000,4.000000,4.000000,4.000000,4.000000,4.000000,4.000000,4.000000,4.000000,4.000000,4.000000,4.000000,4.000000,4.000000,100.000000,,,,,,,,,,,,,,,,,,,,,,,,,,,,,,,,,,,,,,,,,,,,,,,,,,,,,,,,,,,,,,,,,,,,,,,,,,,,,,,,,,,,,,,,,,,,,,,,,,,,,,,,,,,,,,,,,,,,,
1768210629.585104,1768210629.585298,93.000000,0.000000,4353.461426,4325.769043,4344.230957,4361.666504,4309.487305,4319.743652,4304.230957,4306.922852,4310.641113,4310.384766,4520.128418,4486.153809,4407.692383,4461.153809,3862.000000,4.000000,81.000000,,,,0.000000,4.000000,4.000000,4.000000,4.000000,4.000000,4.000000,4.000000,4.000000,4.000000,4.000000,4.000000,4.000000,4.000000,4.000000,100.000000,,,,,,,,,,,,,,,,,,,,,,,,,,,,,,,,,,,,,,,,,,,,,,,,,,,,,,,,,,,,,,,,,,,,,,,,,,,,,,,,,,,,,,,,,,,,,,,,,,,,,,,,,,,,,,,,,,,,,
1768210629.592913,1768210629.593206,94.000000,0.000000,4338.717773,4321.282227,4342.051270,4359.358887,4310.384766,4312.563965,4304.743652,4317.692383,4310.256348,4309.743652,4521.794922,4487.051270,4401.794922,4456.282227,3931.000000,4.000000,81.000000,,,,0.000000,4.000000,4.000000,4.000000,4.000000,4.000000,4.000000,4.000000,4.000000,4.000000,4.000000,4.000000,4.000000,4.000000,4.000000,100.000000,,,,,,,,,,,,,,,,,,,,,,,,,,,,,,,,,,,,,,,,,,,,,,,,,,,,,,,,,,,,,,,,,,,,,,,,,,,,,,,,,,,,,,,,,,,,,,,,,,,,,,,,,,,,,,,,,,,,,
1768210629.600721,1768210629.601014,95.000000,0.000000,4332.436035,4313.717773,4336.410156,4351.410156,4307.563965,4307.820313,4309.487305,4327.436035,4307.307617,4294.358887,4513.717773,4490.897461,4405.512695,4461.666504,4046.000000,4.000000,81.000000,,,,0.000000,4.000000,4.000000,4.000000,4.000000,4.000000,4.000000,4.000000,4.000000,4.000000,4.000000,4.000000,4.000000,4.000000,4.000000,100.000000,,,,,,,,,,,,,,,,,,,,,,,,,,,,,,,,,,,,,,,,,,,,,,,,,,,,,,,,,,,,,,,,,,,,,,,,,,,,,,,,,,,,,,,,,,,,,,,,,,,,,,,,,,,,,,,,,,,,,
1768210629.608530,1768210629.609023,96.000000,0.000000,4337.820313,4310.769043,4333.846191,4348.717773,4306.538574,4312.948730,4309.230957,4318.717773,4303.846191,4293.846191,4504.230957,4483.974121,4402.692383,4463.461426,4973.000000,4.000000,81.000000,,,,0.000000,4.000000,4.000000,4.000000,4.000000,4.000000,4.000000,4.000000,4.000000,4.000000,4.000000,4.000000,4.000000,4.000000,4.000000,100.000000,,,,,,,,,,,,,,,,,,,,,,,,,,,,,,,,,,,,,,,,,,,,,,,,,,,,,,,,,,,,,,,,,,,,,,,,,,,,,,,,,,,,,,,,,,,,,,,,,,,,,,,,,,,,,,,,,,,,,
1768210629.616338,1768210629.616831,97.000000,0.000000,4337.563965,4313.077148,4335.641113,4347.948730,4310.641113,4323.333496,4312.051270,4315.256348,4304.487305,4297.948730,4505.000000,4474.871582,4394.487305,4454.230957,3862.000000,4.000000,81.000000,,,,0.000000,4.000000,4.000000,4.000000,4.000000,4.000000,4.000000,4.000000,4.000000,4.000000,4.000000,4.000000,4.000000,4.000000,4.000000,100.000000,,,,,,,,,,,,,,,,,,,,,,,,,,,,,,,,,,,,,,,,,,,,,,,,,,,,,,,,,,,,,,,,,,,,,,,,,,,,,,,,,,,,,,,,,,,,,,,,,,,,,,,,,,,,,,,,,,,,,
1768210629.624147,1768210629.624539,98.000000,0.000000,4338.205078,4313.077148,4336.666504,4350.384766,4312.436035,4323.846191,4312.820313,4320.769043,4305.641113,4293.077148,4508.205078,4476.922852,4396.922852,4450.897461,3931.000000,4.000000,81.000000,,,,0.000000,4.000000,4.000000,4.000000,4.000000,4.000000,4.000000,4.000000,4.000000,4.000000,4.000000,4.000000,4.000000,4.000000,4.000000,100.000000,,,,,,,,,,,,,,,,,,,,,,,,,,,,,,,,,,,,,,,,,,,,,,,,,,,,,,,,,,,,,,,,,,,,,,,,,,,,,,,,,,,,,,,,,,,,,,,,,,,,,,,,,,,,,,,,,,,,,
1768210629.631955,1768210629.632348,99.000000,0.000000,4343.461426,4312.436035,4336.410156,4354.743652,4311.538574,4316.282227,4307.179688,4315.128418,4298.846191,4291.666504,4509.102539,4484.871582,4403.589844,4460.384766,4046.000000,4.000000,81.000000,,,,0.000000,4.000000,4.000000,4.000000,4.000000,4.000000,4.000000,4.000000,4.000000,4.000000,4.000000,4.000000,4.000000,4.000000,4.000000,100.000000,,,,,,,,,,,,,,,,,,,,,,,,,,,,,,,,,,,,,,,,,,,,,,,,,,,,,,,,,,,,,,,,,,,,,,,,,,,,,,,,,,,,,,,,,,,,,,,,,,,,,,,,,,,,,,,,,,,,,
1768210629.639763,1768210629.640056,100.000000,0.000000,4341.666504,4313.205078,4339.615234,4352.051270,4311.153809,4315.769043,4308.589844,4309.743652,4292.948730,4297.051270,4509.358887,4490.000000,4402.692383,4466.025879,4973.000000,4.000000,81.000000,,,,0.000000,4.000000,4.000000,4.000000,4.000000,4.000000,4.000000,4.000000,4.000000,4.000000,4.000000,4.000000,4.000000,4.000000,4.000000,100.000000,,,,,,,,,,,,,,,,,,,,,,,,,,,,,,,,,,,,,,,,,,,,,,,,,,,,,,,,,,,,,,,,,,,,,,,,,,,,,,,,,,,,,,,,,,,,,,,,,,,,,,,,,,,,,,,,,,,,,
1768210629.647572,1768210629.647864,101.000000,0.000000,4339.230957,4312.820313,4341.922852,4351.282227,4311.153809,4322.692383,4313.846191,4318.461426,4298.461426,4296.153809,4507.436035,4490.641113,4402.307617,4465.512695,3862.000000,4.000000,81.000000,,,,0.000000,4.000000,4.000000,4.000000,4.000000,4.000000,4.000000,4.000000,4.000000,4.000000,4.000000,4.000000,4.000000,4.000000,4.000000,100.000000,,,,,,,,,,,,,,,,,,,,,,,,,,,,,,,,,,,,,,,,,,,,,,,,,,,,,,,,,,,,,,,,,,,,,,,,,,,,,,,,,,,,,,,,,,,,,,,,,,,,,,,,,,,,,,,,,,,,,
1768210629.655380,1768210629.655572,102.000000,0.000000,4347.948730,4311.538574,4342.179688,4361.025879,4311.282227,4323.589844,4309.615234,4326.538574,4308.461426,4292.051270,4511.282227,4489.615234,4407.820313,4470.512695,3931.000000,4.000000,81.000000,,,,0.000000,4.000000,4.000000,4.000000,4.000000,4.000000,4.000000,4.000000,4.000000,4.000000,4.000000,4.000000,4.000000,4.000000,4.000000,100.000000,,,,,,,,,,,,,,,,,,,,,,,,,,,,,,,,,,,,,,,,,,,,,,,,0.209933,0.142550,0.129539,0.104851,0.066989,6.808963,0.935136,0.273909,0.242453,0.141945,0.183619,0.106999,0.097930,0.078872,0.071008,0.276182,0.203913,0.208920,0.156160,0.076664,0.182824,0.043722,0.097411,0.053762,0.048255,0.231109,0.249313,0.135712,0.139833,0.095260,0.119558,0.126476,0.091978,0.137166,0.159021,0.110155,0.225178,0.164743,0.318961,0.162926,0.282968,0.295749,0.120389,0.132672,0.114706,0.155579,0.541530,0.406625,0.784955,0.368948,0.534040,0.280723,0.048175,0.220198,0.101032,0.294742,0.246622,0.104292,0.192181,0.089078,0.531479,0.293309,0.265304,0.243449,0.322232,0.819532,0.434384,0.064650,0.240774,0.311295
1768210629.663189,1768210629.663381,103.000000,0.000000,4353.846191,4313.846191,4343.974121,4366.666504,4312.307617,4322.692383,4307.179688,4327.307617,4312.820313,4300.897461,4524.871582,4494.102539,4414.615234,4476.538574,4046.000000,4.000000,81.000000,,,,0.000000,4.000000,4.000000,4.000000,4.000000,4.000000,4.000000,4.000000,4.000000,4.000000,4.000000,4.000000,4.000000,4.000000,4.000000,100.000000,,,,,,,,,,,,,,,,,,,,,,,,,,,,,,,,,,,,,,,,,,,,,,,,,,,,,,,,,,,,,,,,,,,,,,,,,,,,,,,,,,,,,,,,,,,,,,,,,,,,,,,,,,,,,,,,,,,,,
1768210629.670997,1768210629.670989,104.000000,0.000000,4348.461426,4316.282227,4343.461426,4360.384766,4312.436035,4326.153809,4313.974121,4328.589844,4312.307617,4311.538574,4532.179688,4497.436035,4420.512695,4478.333496,4973.000000,4.000000,81.000000,,,,0.000000,4.000000,4.000000,4.000000,4.000000,4.000000,4.000000,4.000000,4.000000,4.000000,4.000000,4.000000,4.000000,4.000000,4.000000,100.000000,,,,,,,,,,,,,,,,,,,,,,,,,,,,,,,,,,,,,,,,,,,,,,,,,,,,,,,,,,,,,,,,,,,,,,,,,,,,,,,,,,,,,,,,,,,,,,,,,,,,,,,,,,,,,,,,,,,,,
1768210629.678805,1768210629.678797,105.000000,0.000000,4344.358887,4313.717773,4340.641113,4356.282227,4311.410156,4323.205078,4312.179688,4325.256348,4312.692383,4311.410156,4527.179688,4492.692383,4418.974121,4473.974121,3862.000000,4.000000,81.000000,,,,0.000000,4.000000,4.000000,4.000000,4.000000,4.000000,4.000000,4.000000,4.000000,4.000000,4.000000,4.000000,4.000000,4.000000,4.000000,100.000000,,,,,,,,,,,,,,,,,,,,,,,,,,,,,,,,,,,,,,,,,,,,,,,,,,,,,,,,,,,,,,,,,,,,,,,,,,,,,,,,,,,,,,,,,,,,,,,,,,,,,,,,,,,,,,,,,,,,,
1768210629.686614,1768210629.686506,106.000000,0.000000,4346.282227,4316.538574,4340.256348,4360.769043,4316.025879,4315.897461,4302.563965,4315.384766,4307.692383,4305.641113,4521.153809,4488.846191,4409.487305,4466.538574,3931.000000,4.000000,81.000000,,,,0.000000,4.000000,4.000000,4.000000,4.000000,4.000000,4.000000,4.000000,4.000000,4.000000,4.000000,4.000000,4.000000,4.000000,4.000000,100.000000,,,,,,,,,,,,,,,,,,,,,,,,,,,,,,,,,,,,,,,,,,,,,,,,,,,,,,,,,,,,,,,,,,,,,,,,,,,,,,,,,,,,,,,,,,,,,,,,,,,,,,,,,,,,,,,,,,,,,
1768210629.694422,1768210629.694314,107.000000,0.000000,4345.000000,4322.563965,4341.922852,4365.641113,4322.820313,4316.666504,4303.717773,4308.333496,4300.128418,4306.922852,4519.615234,4489.743652,4405.641113,4467.948730,4046.000000,4.000000,81.000000,,,,0.000000,4.000000,4.000000,4.000000,4.000000,4.000000,4.000000,4.000000,4.000000,4.000000,4.000000,4.000000,4.000000,4.000000,4.000000,100.000000,,,,,,,,,,,,,,,,,,,,,,,,,,,,,,,,,,,,,,,,,,,,,,,,,,,,,,,,,,,,,,,,,,,,,,,,,,,,,,,,,,,,,,,,,,,,,,,,,,,,,,,,,,,,,,,,,,,,,
1768210629.702231,1768210629.701922,108.000000,0.000000,4343.717773,4317.820313,4342.563965,4362.307617,4320.769043,4324.871582,4312.563965,4312.436035,4303.974121,4309.102539,4521.922852,4491.282227,4412.307617,4477.179688,4973.000000,4.000000,81.000000,,,,0.000000,4.000000,4.000000,4.000000,4.000000,4.000000,4.000000,4.000000,4.000000,4.000000,4.000000,4.000000,4.000000,4.000000,4.000000,100.000000,,,,,,,,,,,,,,,,,,,,,,,,,,,,,,,,,,,,,,,,,,,,,,,,,,,,,,,,,,,,,,,,,,,,,,,,,,,,,,,,,,,,,,,,,,,,,,,,,,,,,,,,,,,,,,,,,,,,,
1768210629.710039,1768210629.709730,109.000000,0.000000,4347.307617,4310.769043,4341.794922,4356.666504,4318.333496,4328.205078,4314.871582,4323.974121,4313.461426,4304.743652,4525.897461,4493.717773,4418.333496,4477.692383,3862.000000,4.000000,81.000000,,,,0.000000,4.000000,4.000000,4.000000,4.000000,4.000000,4.000000,4.000000,4.000000,4.000000,4.000000,4.000000,4.000000,4.000000,4.000000,100.000000,,,,,,,,,,,,,,,,,,,,,,,,,,,,,,,,,,,,,,,,,,,,,,,,,,,,,,,,,,,,,,,,,,,,,,,,,,,,,,,,,,,,,,,,,,,,,,,,,,,,,,,,,,,,,,,,,,,,,
1768210629.717848,1768210629.717639,110.000000,0.000000,4346.282227,4313.461426,4340.000000,4357.692383,4320.128418,4325.000000,4311.666504,4327.948730,4313.846191,4305.641113,4519.743652,4498.461426,4416.410156,4473.077148,3931.000000,4.000000,81.000000,,,,0.000000,4.000000,4.000000,4.000000,4.000000,4.000000,4.000000,4.000000,4.000000,4.000000,4.000000,4.000000,4.000000,4.000000,4.000000,100.000000,,,,,,,,,,,,,,,,,,,,,,,,,,,,,,,,,,,,,,,,,,,,,,,,,,,,,,,,,,,,,,,,,,,,,,,,,,,,,,,,,,,,,,,,,,,,,,,,,,,,,,,,,,,,,,,,,,,,,
1768210629.725656,1768210629.725447,111.000000,0.000000,4338.974121,4313.461426,4337.692383,4354.487305,4314.358887,4324.615234,4311.666504,4325.769043,4309.743652,4308.974121,4508.461426,4494.871582,4403.077148,4470.641113,4046.000000,4.000000,81.000000,,,,0.000000,4.000000,4.000000,4.000000,4.000000,4.000000,4.000000,4.000000,4.000000,4.000000,4.000000,4.000000,4.000000,4.000000,4.000000,100.000000,,,,,,,,,,,,,,,,,,,,,,,,,,,,,,,,,,,,,,,,,,,,,,,,,,,,,,,,,,,,,,,,,,,,,,,,,,,,,,,,,,,,,,,,,,,,,,,,,,,,,,,,,,,,,,,,,,,,,
1768210629.733465,1768210629.733455,112.000000,0.000000,4339.358887,4306.410156,4340.128418,4349.615234,4306.538574,4327.051270,4316.153809,4330.000000,4313.717773,4312.307617,4509.615234,4492.563965,4396.922852,4470.512695,4973.000000,4.000000,81.000000,,,,0.000000,4.000000,4.000000,4.000000,4.000000,4.000000,4.000000,4.000000,4.000000,4.000000,4.000000,4.000000,4.000000,4.000000,4.000000,100.000000,,,,,,,,,,,,,,,,,,,,,,,,,,,,,,,,,,,,,,,,,,,,,,,,,,,,,,,,,,,,,,,,,,,,,,,,,,,,,,,,,,,,,,,,,,,,,,,,,,,,,,,,,,,,,,,,,,,,,
1768210629.741273,1768210629.741264,113.000000,0.000000,4350.769043,4311.153809,4345.384766,4357.179688,4309.358887,4326.666504,4316.538574,4333.077148,4322.307617,4318.846191,4525.641113,4501.922852,4418.846191,4476.666504,3862.000000,4.000000,81.000000,,,,0.000000,4.000000,4.000000,4.000000,4.000000,4.000000,4.000000,4.000000,4.000000,4.000000,4.000000,4.000000,4.000000,4.000000,4.000000,100.000000,,,,,,,,,,,,,,,,,,,,,,,,,,,,,,,,,,,,,,,,,,,,,,,,,,,,,,,,,,,,,,,,,,,,,,,,,,,,,,,,,,,,,,,,,,,,,,,,,,,,,,,,,,,,,,,,,,,,,
1768210629.749081,1768210629.749172,114.000000,0.000000,4355.384766,4319.102539,4345.512695,4363.333496,4312.179688,4321.153809,4310.256348,4329.743652,4321.282227,4318.589844,4531.538574,4503.077148,4431.410156,4480.769043,3931.000000,4.000000,81.000000,,,,0.000000,4.000000,4.000000,4.000000,4.000000,4.000000,4.000000,4.000000,4.000000,4.000000,4.000000,4.000000,4.000000,4.000000,4.000000,100.000000,,,,,,,,,,,,,,,,,,,,,,,,,,,,,,,,,,,,,,,,,,,,,,,,,,,,,,,,,,,,,,,,,,,,,,,,,,,,,,,,,,,,,,,,,,,,,,,,,,,,,,,,,,,,,,,,,,,,,
1768210629.756890,1768210629.756981,115.000000,0.000000,4349.487305,4315.384766,4341.666504,4358.846191,4310.128418,4319.615234,4308.461426,4322.307617,4311.794922,4308.589844,4519.102539,4491.282227,4412.820313,4476.922852,4046.000000,4.000000,81.000000,,,,0.000000,4.000000,4.000000,4.000000,4.000000,4.000000,4.000000,4.000000,4.000000,4.000000,4.000000,4.000000,4.000000,4.000000,4.000000,100.000000,,,,,,,,,,,,,,,,,,,,,,,,,,,,,,,,,,,,,,,,,,,,,,,,,,,,,,,,,,,,,,,,,,,,,,,,,,,,,,,,,,,,,,,,,,,,,,,,,,,,,,,,,,,,,,,,,,,,,
1768210629.764698,1768210629.764589,116.000000,0.000000,4343.846191,4309.615234,4340.128418,4352.436035,4309.871582,4323.589844,4312.563965,4313.333496,4308.461426,4307.820313,4512.436035,4488.974121,4405.000000,4473.974121,4973.000000,4.000000,81.000000,,,,0.000000,4.000000,4.000000,4.000000,4.000000,4.000000,4.000000,4.000000,4.000000,4.000000,4.000000,4.000000,4.000000,4.000000,4.000000,100.000000,,,,,,,,,,,,,,,,,,,,,,,,,,,,,,,,,,,,,,,,,,,,,,,,,,,,,,,,,,,,,,,,,,,,,,,,,,,,,,,,,,,,,,,,,,,,,,,,,,,,,,,,,,,,,,,,,,,,,
1768210629.772507,1768210629.772397,117.000000,0.000000,4341.153809,4309.102539,4339.358887,4348.717773,4308.461426,4323.333496,4310.256348,4312.179688,4308.461426,4309.487305,4515.384766,4495.000000,4416.666504,4475.256348,3862.000000,4.000000,81.000000,,,,0.000000,4.000000,4.000000,4.000000,4.000000,4.000000,4.000000,4.000000,4.000000,4.000000,4.000000,4.000000,4.000000,4.000000,4.000000,100.000000,,,,,,,,,,,,,,,,,,,,,,,,,,,,,,,,,,,,,,,,,,,,,,,,,,,,,,,,,,,,,,,,,,,,,,,,,,,,,,,,,,,,,,,,,,,,,,,,,,,,,,,,,,,,,,,,,,,,,
1768210629.780315,1768210629.780305,118.000000,0.000000,4341.538574,4308.846191,4338.846191,4352.307617,4308.205078,4326.025879,4309.358887,4320.384766,4305.256348,4301.410156,4518.461426,4494.615234,4417.692383,4476.666504,3931.000000,4.000000,81.000000,,,,0.000000,4.000000,4.000000,4.000000,4.000000,4.000000,4.000000,4.000000,4.000000,4.000000,4.000000,4.000000,4.000000,4.000000,4.000000,100.000000,,,,,,,,,,,,,,,,,,,,,,,,,,,,,,,,,,,,,,,,,,,,,,,,0.207793,0.168772,0.127604,0.110771,0.069002,7.052408,0.961295,0.336265,0.264206,0.148619,0.135976,0.091444,0.097474,0.081034,0.072417,0.345415,0.195232,0.228248,0.165215,0.082546,0.236348,0.047576,0.081530,0.051814,0.048166,0.221791,0.200028,0.098517,0.141041,0.091415,0.092794,0.113133,0.098243,0.122224,0.146873,0.142913,0.328558,0.204019,0.344101,0.179517,0.278205,0.383204,0.132008,0.144472,0.108511,0.135481,0.495602,0.333154,0.747190,0.350533,0.484360,0.354233,0.064542,0.241475,0.111320,0.257959,0.281673,0.089277,0.160837,0.099052,0.515429,0.333371,0.304780,0.243400,0.318346,0.715572,0.437893,0.065196,0.220643,0.332685
1768210629.788123,1768210629.788114,119.000000,0.000000,4343.333496,4308.333496,4341.922852,4357.179688,4313.461426,4328.846191,4311.666504,4324.615234,4306.538574,4303.205078,4521.282227,4493.333496,4413.461426,4475.769043,4046.000000,4.000000,81.000000,,,,0.000000,4.000000,4.000000,4.000000,4.000000,4.000000,4.000000,4.000000,4.000000,4.000000,4.000000,4.000000,4.000000,4.000000,4.000000,100.000000,,,,,,,,,,,,,,,,,,,,,,,,,,,,,,,,,,,,,,,,,,,,,,,,,,,,,,,,,,,,,,,,,,,,,,,,,,,,,,,,,,,,,,,,,,,,,,,,,,,,,,,,,,,,,,,,,,,,,
1768210629.795932,1768210629.796122,120.000000,0.000000,4340.384766,4310.641113,4340.897461,4353.974121,4318.717773,4327.051270,4308.077148,4325.384766,4310.000000,4311.794922,4521.025879,4492.692383,4415.000000,4475.512695,4973.000000,4.000000,81.000000,,,,0.000000,4.000000,4.000000,4.000000,4.000000,4.000000,4.000000,4.000000,4.000000,4.000000,4.000000,4.000000,4.000000,4.000000,4.000000,100.000000,,,,,,,,,,,,,,,,,,,,,,,,,,,,,,,,,,,,,,,,,,,,,,,,,,,,,,,,,,,,,,,,,,,,,,,,,,,,,,,,,,,,,,,,,,,,,,,,,,,,,,,,,,,,,,,,,,,,,
1768210629.803740,1768210629.803930,121.000000,0.000000,4339.615234,4310.641113,4337.820313,4352.436035,4320.384766,4331.922852,4308.974121,4325.512695,4309.615234,4307.692383,4519.358887,4491.410156,4413.333496,4474.230957,3862.000000,4.000000,81.000000,,,,0.000000,4.000000,4.000000,4.000000,4.000000,4.000000,4.000000,4.000000,4.000000,4.000000,4.000000,4.000000,4.000000,4.000000,4.000000,100.000000,,,,,,,,,,,,,,,,,,,,,,,,,,,,,,,,,,,,,,,,,,,,,,,,,,,,,,,,,,,,,,,,,,,,,,,,,,,,,,,,,,,,,,,,,,,,,,,,,,,,,,,,,,,,,,,,,,,,,
1768210629.811549,1768210629.811838,122.000000,0.000000,4342.307617,4310.512695,4339.487305,4356.666504,4317.436035,4335.384766,4314.615234,4317.563965,4309.358887,4297.179688,4521.025879,4492.563965,4411.410156,4472.307617,3931.000000,4.000000,81.000000,,,,0.000000,4.000000,4.000000,4.000000,4.000000,4.000000,4.000000,4.000000,4.000000,4.000000,4.000000,4.000000,4.000000,4.000000,4.000000,100.000000,,,,,,,,,,,,,,,,,,,,,,,,,,,,,,,,,,,,,,,,,,,,,,,,,,,,,,,,,,,,,,,,,,,,,,,,,,,,,,,,,,,,,,,,,,,,,,,,,,,,,,,,,,,,,,,,,,,,,
1768210629.819357,1768210629.819647,123.000000,0.000000,4340.256348,4310.384766,4340.641113,4356.538574,4312.948730,4328.974121,4310.128418,4313.846191,4310.384766,4296.794922,4517.820313,4493.717773,4411.410156,4474.358887,4046.000000,4.000000,81.000000,,,,0.000000,4.000000,4.000000,4.000000,4.000000,4.000000,4.000000,4.000000,4.000000,4.000000,4.000000,4.000000,4.000000,4.000000,4.000000,100.000000,,,,,,,,,,,,,,,,,,,,,,,,,,,,,,,,,,,,,,,,,,,,,,,,,,,,,,,,,,,,,,,,,,,,,,,,,,,,,,,,,,,,,,,,,,,,,,,,,,,,,,,,,,,,,,,,,,,,,
1768210629.827166,1768210629.827255,124.000000,0.000000,4339.358887,4303.589844,4339.102539,4353.077148,4311.410156,4331.666504,4306.794922,4324.743652,4311.410156,4305.641113,4509.102539,4493.589844,4407.948730,4475.897461,4973.000000,4.000000,81.000000,,,,0.000000,4.000000,4.000000,4.000000,4.000000,4.000000,4.000000,4.000000,4.000000,4.000000,4.000000,4.000000,4.000000,4.000000,4.000000,100.000000,,,,,,,,,,,,,,,,,,,,,,,,,,,,,,,,,,,,,,,,,,,,,,,,,,,,,,,,,,,,,,,,,,,,,,,,,,,,,,,,,,,,,,,,,,,,,,,,,,,,,,,,,,,,,,,,,,,,,
1768210629.834974,1768210629.835063,125.000000,0.000000,4340.256348,4294.743652,4338.974121,4349.358887,4312.179688,4340.000000,4316.794922,4330.256348,4312.307617,4312.179688,4514.487305,4492.820313,4410.384766,4473.333496,3862.000000,4.000000,81.000000,,,,0.000000,4.000000,4.000000,4.000000,4.000000,4.000000,4.000000,4.000000,4.000000,4.000000,4.000000,4.000000,4.000000,4.000000,4.000000,100.000000,,,,,,,,,,,,,,,,,,,,,,,,,,,,,,,,,,,,,,,,,,,,,,,,,,,,,,,,,,,,,,,,,,,,,,,,,,,,,,,,,,,,,,,,,,,,,,,,,,,,,,,,,,,,,,,,,,,,,
1768210629.842783,1768210629.842772,126.000000,0.000000,4336.153809,4293.589844,4339.615234,4348.205078,4311.153809,4333.846191,4318.589844,4325.769043,4311.794922,4310.641113,4522.563965,4491.922852,4416.025879,4474.102539,3931.000000,4.000000,81.000000,,,,0.000000,4.000000,4.000000,4.000000,4.000000,4.000000,4.000000,4.000000,4.000000,4.000000,4.000000,4.000000,4.000000,4.000000,4.000000,100.000000,,,,,,,,,,,,,,,,,,,,,,,,,,,,,,,,,,,,,,,,,,,,,,,,,,,,,,,,,,,,,,,,,,,,,,,,,,,,,,,,,,,,,,,,,,,,,,,,,,,,,,,,,,,,,,,,,,,,,
1768210629.850591,1768210629.850580,127.000000,0.000000,4333.846191,4302.820313,4335.897461,4349.102539,4308.589844,4326.410156,4307.436035,4325.128418,4311.282227,4309.615234,4515.512695,4490.512695,4409.743652,4475.897461,81.000000,4.000000,81.000000,,,,0.000000,4.000000,4.000000,4.000000,4.000000,4.000000,4.000000,4.000000,4.000000,4.000000,4.000000,4.000000,4.000000,4.000000,4.000000,100.000000,,,,,,,,,,,,,,,,,,,,,,,,,,,,,,,,,,,,,,,,,,,,,,,,,,,,,,,,,,,,,,,,,,,,,,,,,,,,,,,,,,,,,,,,,,,,,,,,,,,,,,,,,,,,,,,,,,,,,
