Timestamp,OriginalTimestamp,EEG.Counter,EEG.Interpolated,EEG.AF3,EEG.F7,EEG.F3,EEG.FC5,EEG.T7,EEG.P7,EEG.O1,EEG.O2,EEG.P8,EEG.T8,EEG.FC6,EEG.F4,EEG.F8,EEG.AF4,POW.AF3.Theta,POW.AF3.Alpha,POW.AF3.BetaL,POW.AF3.BetaH,POW.AF3.Gamma,POW.F7.Theta,POW.F7.Alpha,POW.F7.BetaL,POW.F7.BetaH,POW.F7.Gamma,POW.F3.Theta,POW.F3.Alpha,POW.F3.BetaL,POW.F3.BetaH,POW.F3.Gamma,POW.FC5.Theta,POW.FC5.Alpha,POW.FC5.BetaL,POW.FC5.BetaH,POW.FC5.Gamma,POW.T7.Theta,POW.T7.Alpha,POW.T7.BetaL,POW.T7.BetaH,POW.T7.Gamma,POW.P7.Theta,POW.P7.Alpha,POW.P7.BetaL,POW.P7.BetaH,POW.P7.Gamma,POW.O1.Theta,POW.O1.Alpha,POW.O1.BetaL,POW.O1.BetaH,POW.O1.Gamma,POW.O2.Theta,POW.O2.Alpha,POW.O2.BetaL,POW.O2.BetaH,POW.O2.Gamma,POW.P8.Theta,POW.P8.Alpha,POW.P8.BetaL,POW.P8.BetaH,POW.P8.Gamma,POW.T8.Theta,POW.T8.Alpha,POW.T8.BetaL,POW.T8.BetaH,POW.T8.Gamma,POW.FC6.Theta,POW.FC6.Alpha,POW.FC6.BetaL,POW.FC6.BetaH,POW.FC6.Gamma,POW.F4.Theta,POW.F4.Alpha,POW.F4.BetaL,POW.F4.BetaH,POW.F4.Gamma,POW.F8.Theta,POW.F8.Alpha,POW.F8.BetaL,POW.F8.BetaH,POW.F8.Gamma,POW.AF4.Theta,POW.AF4.Alpha,POW.AF4.BetaL,POW.AF4.BetaH,POW.AF4.Gamma
1768973161.166913,1768973161.168012,61.0,0.0,4378.077148,4385.512695,4362.820313,4382.692383,4373.846191,4377.820313,4373.333496,4384.487305,4370.641113,4349.615234,4445.128418,4530.128418,4388.077148,4410.0,,,,,,,,,,,,,,,,,,,,,,,,,,,,,,,,,,,,,,,,,,,,,,,,,,,,,,,,,,,,,,,,,,,,,,
1768973161.174721,1768973161.175721,62.0,0.0,4379.102539,4385.769043,4362.179688,4384.743652,4374.230957,4377.436035,4374.743652,4379.487305,4364.743652,4347.05127,4444.230957,4530.769043,4387.436035,4407.179688,0.423122,0.314014,0.202773,0.357011,0.301495,2.210167,0.633351,0.812185,0.217493,0.102087,0.324864,0.146914,0.114528,0.119701,0.171022,0.165332,0.156549,0.185859,0.111496,0.072971,0.269242,0.098769,0.09554,0.05042,0.052106,0.073694,0.202283,0.060373,0.088738,0.223097,0.343021,0.325879,0.104903,0.100698,0.246873,0.563918,0.20499,0.089947,0.131959,0.135892,0.48516,0.181042,0.27074,0.114369,0.166523,0.287645,0.264037,0.272525,0.111716,0.100451,1.174912,0.498068,0.397386,0.189632,0.196456,0.678185,0.644751,0.372691,0.387086,0.175749,0.70951,0.316291,0.165101,0.199406,0.119405,1.265547,0.407991,0.444947,0.285986,0.169185
1768973161.18253,1768973161.183529,63.0,0.0,4378.974121,4382.692383,4362.692383,4384.871582,4373.589844,4373.333496,4372.436035,4381.282227,4368.589844,4348.717773,4447.820313,4529.615234,4387.94873,4410.769043,,,,,,,,,,,,,,,,,,,,,,,,,,,,,,,,,,,,,,,,,,,,,,,,,,,,,,,,,,,,,,,,,,,,,,
1768973161.190338,1768973161.191138,64.0,0.0,4373.846191,4375.384766,4361.794922,4385.256348,4371.538574,4367.436035,4365.256348,4385.128418,4375.641113,4349.615234,4444.102539,4521.538574,4382.05127,4404.871582,,,,,,,,,,,,,,,,,,,,,,,,,,,,,,,,,,,,,,,,,,,,,,,,,,,,,,,,,,,,,,,,,,,,,,
1768973161.198146,1768973161.198946,65.0,0.0,4371.666504,4379.871582,4361.153809,4388.589844,4373.077148,4368.589844,4364.615234,4379.230957,4367.820313,4348.333496,4442.563965,4520.769043,4379.871582,4400.0,,,,,,,,,,,,,,,,,,,,,,,,,,,,,,,,,,,,,,,,,,,,,,,,,,,,,,,,,,,,,,,,,,,,,,
1768973161.205955,1768973161.206655,66.0,0.0,4376.666504,4384.230957,4361.025879,4385.0,4374.487305,4372.820313,4372.05127,4376.538574,4362.05127,4346.794922,4442.94873,4527.05127,4383.333496,4403.974121,,,,,,,,,,,,,,,,,,,,,,,,,,,,,,,,,,,,,,,,,,,,,,,,,,,,,,,,,,,,,,,,,,,,,,
1768973161.213763,1768973161.214463,67.0,0.0,4373.846191,4377.820313,4362.179688,4378.333496,4370.897461,4372.820313,4376.538574,4387.94873,4375.128418,4346.025879,4446.025879,4531.666504,4384.230957,4408.077148,,,,,,,,,,,,,,,,,,,,,,,,,,,,,,,,,,,,,,,,,,,,,,,,,,,,,,,,,,,,,,,,,,,,,,
1768973161.221572,1768973161.222472,68.0,0.0,4368.717773,4375.512695,4361.794922,4380.256348,4367.179688,4375.256348,4375.384766,4396.538574,4380.641113,4349.487305,4455.769043,4536.410156,4382.307617,4407.563965,,,,,,,,,,,,,,,,,,,,,,,,,,,,,,,,,,,,,,,,,,,,,,,,,,,,,,,,,,,,,,,,,,,,,,
1768973161.22938,1768973161.23028,69.0,0.0,4376.922852,4381.922852,4358.077148,4382.94873,4370.128418,4373.717773,4371.153809,4387.94873,4374.230957,4354.871582,4456.282227,4536.282227,4385.897461,4406.410156,,,,,,,,,,,,,,,,,,,,,,,,,,,,,,,,,,,,,,,,,,,,,,,,,,,,,,,,,,,,,,,,,,,,,,
1768973161.237189,1768973161.238188,70.0,0.0,4382.179688,4381.282227,4357.436035,4381.538574,4373.205078,4372.179688,4370.256348,4380.384766,4369.615234,4352.307617,4446.282227,4530.128418,4388.461426,4402.692383,,,,,,,,,,,,,,,,,,,,,,,,,,,,,,,,,,,,,,,,,,,,,,,,,,,,,,,,,,,,,,,,,,,,,,
1768973161.244997,1768973161.245997,71.0,0.0,4376.410156,4376.922852,4356.538574,4381.794922,4371.666504,4376.666504,4374.230957,4385.641113,4370.128418,4350.128418,4450.641113,4530.128418,4389.230957,4403.205078,,,,,,,,,,,,,,,,,,,,,,,,,,,,,,,,,,,,,,,,,,,,,,,,,,,,,,,,,,,,,,,,,,,,,,
1768973161.252806,1768973161.253605,72.0,0.0,4371.666504,4379.102539,4349.871582,4383.077148,4370.256348,4374.871582,4373.333496,4389.487305,4375.769043,4354.358887,4460.897461,4539.102539,4391.666504,4407.563965,,,,,,,,,,,,,,,,,,,,,,,,,,,,,,,,,,,,,,,,,,,,,,,,,,,,,,,,,,,,,,,,,,,,,,
1768973161.260614,1768973161.261414,73.0,0.0,4372.94873,4379.102539,4346.410156,4381.282227,4368.589844,4366.153809,4369.358887,4387.179688,4376.410156,4353.717773,4458.333496,4542.563965,4392.307617,4409.358887,,,,,,,,,,,,,,,,,,,,,,,,,,,,,,,,,,,,,,,,,,,,,,,,,,,,,,,,,,,,,,,,,,,,,,
1768973161.268422,1768973161.269322,74.0,0.0,4373.461426,4377.563965,4350.641113,4378.461426,4365.769043,4368.589844,4371.538574,4387.05127,4369.487305,4347.692383,4454.743652,4538.333496,4393.589844,4411.794922,,,,,,,,,,,,,,,,,,,,,,,,,,,,,,,,,,,,,,,,,,,,,,,,,,,,,,,,,,,,,,,,,,,,,,
1768973161.276231,1768973161.277131,75.0,0.0,4373.077148,4379.743652,4354.102539,4380.0,4365.256348,4375.641113,4375.512695,4386.025879,4368.333496,4350.512695,4458.589844,4536.025879,4397.436035,4413.846191,,,,,,,,,,,,,,,,,,,,,,,,,,,,,,,,,,,,,,,,,,,,,,,,,,,,,,,,,,,,,,,,,,,,,,
1768973161.284039,1768973161.285139,76.0,0.0,4376.025879,4382.436035,4352.436035,4381.410156,4370.769043,4373.461426,4372.179688,4382.94873,4372.820313,4358.461426,4460.769043,4537.820313,4399.487305,4412.94873,,,,,,,,,,,,,,,,,,,,,,,,,,,,,,,,,,,,,,,,,,,,,,,,,,,,,,,,,,,,,,,,,,,,,,
1768973161.291848,1768973161.292947,77.0,0.0,4375.897461,4381.153809,4347.307617,4375.641113,4372.563965,4372.820313,4369.102539,4386.153809,4372.05127,4353.717773,4455.0,4530.641113,4397.94873,4411.794922,,,,,,,,,,,,,,,,,,,,,,,,,,,,,,,,,,,,,,,,,,,,,,,,,,,,,,,,,,,,,,,,,,,,,,
1768973161.299656,1768973161.300856,78.0,0.0,4364.615234,4371.666504,4342.436035,4366.282227,4367.692383,4375.128418,4369.615234,4387.307617,4370.128418,4343.077148,4445.512695,4513.333496,4390.641113,4406.282227,0.384097,0.294215,0.158559,0.387441,0.309676,2.074105,0.633703,0.703417,0.252425,0.100915,0.339376,0.131179,0.114773,0.12679,0.179193,0.221743,0.164737,0.150072,0.095405,0.085432,0.292177,0.102938,0.110301,0.048994,0.05493,0.064669,0.181165,0.058695,0.101146,0.224695,0.272472,0.281731,0.095304,0.114376,0.240592,0.522871,0.171534,0.092383,0.156059,0.142472,0.492382,0.167594,0.276739,0.138555,0.187474,0.305741,0.257154,0.288054,0.135527,0.105737,1.135708,0.413626,0.409991,0.233811,0.205416,0.601304,0.56659,0.423352,0.417867,0.184862,0.700111,0.251765,0.177982,0.241227,0.131106,1.083102,0.338315,0.445956,0.344493,0.18072
1768973161.307465,1768973161.308664,79.0,0.0,4356.025879,4362.692383,4342.563965,4364.102539,4366.922852,4373.461426,4369.487305,4381.282227,4369.615234,4341.538574,4441.922852,4507.436035,4382.563965,4398.461426,,,,,,,,,,,,,,,,,,,,,,,,,,,,,,,,,,,,,,,,,,,,,,,,,,,,,,,,,,,,,,,,,,,,,,
1768973161.315273,1768973161.316273,80.0,0.0,4363.205078,4366.666504,4345.128418,4370.128418,4370.128418,4371.666504,4371.025879,4378.333496,4362.820313,4345.384766,4444.102539,4512.563965,4380.897461,4396.922852,,,,,,,,,,,,,,,,,,,,,,,,,,,,,,,,,,,,,,,,,,,,,,,,,,,,,,,,,,,,,,,,,,,,,,
1768973161.323082,1768973161.324081,81.0,0.0,4366.922852,4369.871582,4343.717773,4372.820313,4367.179688,4368.461426,4367.820313,4380.512695,4357.563965,4345.384766,4444.230957,4514.102539,4382.179688,4397.05127,,,,,,,,,,,,,,,,,,,,,,,,,,,,,,,,,,,,,,,,,,,,,,,,,,,,,,,,,,,,,,,,,,,,,,
1768973161.33089,1768973161.33179,82.0,0.0,4361.538574,4365.0,4340.0,4370.641113,4364.230957,4365.512695,4362.179688,4383.077148,4361.153809,4342.563965,4443.717773,4514.230957,4383.846191,4396.410156,,,,,,,,,,,,,,,,,,,,,,,,,,,,,,,,,,,,,,,,,,,,,,,,,,,,,,,,,,,,,,,,,,,,,,
1768973161.338699,1768973161.339598,83.0,0.0,4362.692383,4361.153809,4340.769043,4370.128418,4367.563965,4368.461426,4367.05127,4382.179688,4363.077148,4341.025879,4443.846191,4514.615234,4387.05127,4400.0,,,,,,,,,,,,,,,,,,,,,,,,,,,,,,,,,,,,,,,,,,,,,,,,,,,,,,,,,,,,,,,,,,,,,,
1768973161.346507,1768973161.347207,84.0,0.0,4365.128418,4359.743652,4345.512695,4372.179688,4370.512695,4371.282227,4372.179688,4377.05127,4359.743652,4340.256348,4442.436035,4514.102539,4385.0,4402.05127,,,,,,,,,,,,,,,,,,,,,,,,,,,,,,,,,,,,,,,,,,,,,,,,,,,,,,,,,,,,,,,,,,,,,,
1768973161.354315,1768973161.355015,85.0,0.0,4367.179688,4361.153809,4349.102539,4373.205078,4370.0,4367.436035,4367.307617,4375.256348,4361.922852,4344.615234,4443.589844,4522.05127,4385.384766,4400.128418,,,,,,,,,,,,,,,,,,,,,,,,,,,,,,,,,,,,,,,,,,,,,,,,,,,,,,,,,,,,,,,,,,,,,,
1768973161.362124,1768973161.362724,86.0,0.0,4371.282227,4363.974121,4349.358887,4373.205078,4367.94873,4364.358887,4364.487305,4378.717773,4366.666504,4347.436035,4446.282227,4529.615234,4390.256348,4402.179688,,,,,,,,,,,,,,,,,,,,,,,,,,,,,,,,,,,,,,,,,,,,,,,,,,,,,,,,,,,,,,,,,,,,,,
1768973161.369932,1768973161.370532,87.0,0.0,4369.102539,4363.205078,4345.641113,4369.615234,4366.538574,4369.102539,4369.871582,4378.589844,4366.794922,4343.589844,4444.871582,4521.410156,4388.589844,4406.282227,,,,,,,,,,,,,,,,,,,,,,,,,,,,,,,,,,,,,,,,,,,,,,,,,,,,,,,,,,,,,,,,,,,,,,
1768973161.377741,1768973161.378141,88.0,0.0,4368.589844,4363.205078,4349.102539,4368.717773,4367.820313,4371.666504,4371.410156,4379.615234,4372.307617,4344.487305,4446.153809,4520.641113,4388.589844,4410.0,,,,,,,,,,,,,,,,,,,,,,,,,,,,,,,,,,,,,,,,,,,,,,,,,,,,,,,,,,,,,,,,,,,,,,
1768973161.385549,1768973161.385949,89.0,0.0,4376.153809,4366.410156,4359.615234,4377.692383,4367.563965,4371.282227,4372.563965,4386.666504,4377.05127,4347.563965,4449.743652,4531.025879,4392.436035,4412.563965,,,,,,,,,,,,,,,,,,,,,,,,,,,,,,,,,,,,,,,,,,,,,,,,,,,,,,,,,,,,,,,,,,,,,,
1768973161.393358,1768973161.393658,90.0,0.0,4377.436035,4367.05127,4359.615234,4382.563965,4366.282227,4372.307617,4375.0,4385.384766,4368.974121,4342.179688,4446.410156,4525.512695,4387.692383,4409.615234,,,,,,,,,,,,,,,,,,,,,,,,,,,,,,,,,,,,,,,,,,,,,,,,,,,,,,,,,,,,,,,,,,,,,,
1768973161.401166,1768973161.401466,91.0,0.0,4370.256348,4372.179688,4350.384766,4376.666504,4367.692383,4368.333496,4367.05127,4375.897461,4362.436035,4340.128418,4442.94873,4510.256348,4386.153809,4403.589844,,,,,,,,,,,,,,,,,,,,,,,,,,,,,,,,,,,,,,,,,,,,,,,,,,,,,,,,,,,,,,,,,,,,,,
1768973161.408975,1768973161.409475,92.0,0.0,4366.025879,4373.589844,4346.153809,4371.922852,4367.94873,4364.743652,4362.05127,4376.410156,4364.230957,4343.589844,4443.717773,4505.769043,4387.94873,4397.820313,,,,,,,,,,,,,,,,,,,,,,,,,,,,,,,,,,,,,,,,,,,,,,,,,,,,,,,,,,,,,,,,,,,,,,
1768973161.416783,1768973161.417283,93.0,0.0,4366.538574,4364.230957,4347.05127,4373.974121,4365.769043,4370.512695,4372.692383,4384.230957,4365.897461,4341.666504,4444.230957,4510.128418,4382.436035,4400.0,,,,,,,,,,,,,,,,,,,,,,,,,,,,,,,,,,,,,,,,,,,,,,,,,,,,,,,,,,,,,,,,,,,,,,
1768973161.424591,1768973161.425191,94.0,0.0,4366.794922,4362.307617,4347.05127,4375.384766,4367.563965,4378.333496,4381.922852,4383.589844,4365.256348,4344.615234,4445.128418,4513.461426,4380.128418,4404.871582,0.380556,0.289058,0.115944,0.409865,0.297746,1.816909,0.63222,0.562791,0.294065,0.096604,0.339414,0.121993,0.11663,0.139814,0.173149,0.287438,0.16801,0.114709,0.089518,0.096088,0.333475,0.110513,0.126479,0.046257,0.059484,0.062688,0.177426,0.057821,0.115634,0.222262,0.203579,0.228737,0.087283,0.141569,0.22725,0.466953,0.133845,0.098016,0.190109,0.146854,0.456691,0.150869,0.265661,0.167848,0.200503,0.301219,0.242505,0.29576,0.161664,0.110727,1.029403,0.353134,0.409302,0.289705,0.206665,0.511596,0.536786,0.451169,0.453339,0.193618,0.659973,0.229791,0.199813,0.29045,0.149039,0.863583,0.312486,0.431412,0.405925,0.19745
1768973161.4324,1768973161.433,95.0,0.0,4363.077148,4366.153809,4345.641113,4368.589844,4365.897461,4372.94873,4374.871582,4378.589844,4367.94873,4350.384766,4444.487305,4513.461426,4381.666504,4398.846191,,,,,,,,,,,,,,,,,,,,,,,,,,,,,,,,,,,,,,,,,,,,,,,,,,,,,,,,,,,,,,,,,,,,,,
1768973161.440208,1768973161.441008,96.0,0.0,4361.025879,4366.794922,4345.384766,4363.205078,4361.282227,4364.358887,4368.205078,4383.846191,4374.871582,4349.487305,4445.769043,4515.0,4383.077148,4398.333496,,,,,,,,,,,,,,,,,,,,,,,,,,,,,,,,,,,,,,,,,,,,,,,,,,,,,,,,,,,,,,,,,,,,,,
1768973161.448017,1768973161.448817,97.0,0.0,4369.487305,4369.615234,4347.179688,4369.615234,4364.871582,4369.358887,4374.871582,4392.179688,4378.205078,4355.0,4455.0,4525.512695,4391.153809,4412.94873,,,,,,,,,,,,,,,,,,,,,,,,,,,,,,,,,,,,,,,,,,,,,,,,,,,,,,,,,,,,,,,,,,,,,,
1768973161.455825,1768973161.456725,98.0,0.0,4375.0,4372.436035,4347.692383,4375.128418,4365.769043,4373.205078,4376.153809,4388.077148,4374.358887,4364.230957,4464.230957,4533.461426,4400.256348,4419.230957,,,,,,,,,,,,,,,,,,,,,,,,,,,,,,,,,,,,,,,,,,,,,,,,,,,,,,,,,,,,,,,,,,,,,,
1768973161.463634,1768973161.464533,99.0,0.0,4368.717773,4368.333496,4346.025879,4370.769043,4360.512695,4366.538574,4370.128418,4380.0,4372.05127,4359.487305,4458.205078,4529.615234,4396.538574,4413.589844,,,,,,,,,,,,,,,,,,,,,,,,,,,,,,,,,,,,,,,,,,,,,,,,,,,,,,,,,,,,,,,,,,,,,,
1768973161.471442,1768973161.472542,100.0,0.0,4365.128418,4366.025879,4345.769043,4368.589844,4362.05127,4365.897461,4370.641113,4380.769043,4373.717773,4352.820313,4447.179688,4527.94873,4389.102539,4410.256348,,,,,,,,,,,,,,,,,,,,,,,,,,,,,,,,,,,,,,,,,,,,,,,,,,,,,,,,,,,,,,,,,,,,,,
1768973161.479251,1768973161.48035,101.0,0.0,4368.589844,4369.871582,4347.94873,4372.05127,4365.512695,4369.487305,4372.692383,4385.0,4372.05127,4356.538574,4446.025879,4529.743652,4388.589844,4408.333496,,,,,,,,,,,,,,,,,,,,,,,,,,,,,,,,,,,,,,,,,,,,,,,,,,,,,,,,,,,,,,,,,,,,,,
1768973161.487059,1768973161.488258,102.0,0.0,4368.589844,4365.897461,4349.487305,4372.563965,4363.589844,4366.794922,4372.179688,4384.871582,4373.717773,4357.94873,4447.94873,4525.641113,4389.358887,4405.384766,,,,,,,,,,,,,,,,,,,,,,,,,,,,,,,,,,,,,,,,,,,,,,,,,,,,,,,,,,,,,,,,,,,,,,
1768973161.494867,1768973161.496067,103.0,0.0,4365.256348,4357.563965,4347.94873,4371.025879,4364.871582,4368.589844,4373.461426,4384.487305,4378.846191,4354.487305,4445.769043,4520.384766,4385.897461,4405.897461,,,,,,,,,,,,,,,,,,,,,,,,,,,,,,,,,,,,,,,,,,,,,,,,,,,,,,,,,,,,,,,,,,,,,,
1768973161.502676,1768973161.503875,104.0,0.0,4365.256348,4356.538574,4344.230957,4369.102539,4367.179688,4371.153809,4370.0,4384.230957,4373.461426,4352.436035,4443.461426,4519.743652,4381.666504,4405.512695,,,,,,,,,,,,,,,,,,,,,,,,,,,,,,,,,,,,,,,,,,,,,,,,,,,,,,,,,,,,,,,,,,,,,,
1768973161.510484,1768973161.511684,105.0,0.0,4367.05127,4358.589844,4345.641113,4368.205078,4365.512695,4369.102539,4369.230957,4382.179688,4363.589844,4349.230957,4444.743652,4518.974121,4380.769043,4402.307617,,,,,,,,,,,,,,,,,,,,,,,,,,,,,,,,,,,,,,,,,,,,,,,,,,,,,,,,,,,,,,,,,,,,,,
1768973161.518293,1768973161.519392,106.0,0.0,4369.743652,4356.282227,4353.461426,4372.05127,4367.820313,4372.692383,4379.102539,4383.717773,4364.358887,4347.94873,4443.846191,4517.563965,4378.974121,4400.897461,,,,,,,,,,,,,,,,,,,,,,,,,,,,,,,,,,,,,,,,,,,,,,,,,,,,,,,,,,,,,,,,,,,,,,
1768973161.526101,1768973161.527201,107.0,0.0,4374.102539,4358.077148,4358.333496,4374.615234,4371.410156,4373.333496,4380.0,4382.94873,4368.205078,4350.897461,4441.410156,4517.692383,4377.820313,4401.025879,,,,,,,,,,,,,,,,,,,,,,,,,,,,,,,,,,,,,,,,,,,,,,,,,,,,,,,,,,,,,,,,,,,,,,
1768973161.53391,1768973161.534809,108.0,0.0,4375.256348,4362.179688,4359.487305,4373.717773,4369.230957,4364.102539,4369.871582,4377.307617,4364.230957,4348.717773,4443.333496,4518.717773,4379.871582,4403.846191,,,,,,,,,,,,,,,,,,,,,,,,,,,,,,,,,,,,,,,,,,,,,,,,,,,,,,,,,,,,,,,,,,,,,,
1768973161.541718,1768973161.542618,109.0,0.0,4372.436035,4360.769043,4358.077148,4370.641113,4367.692383,4362.692383,4370.256348,4377.94873,4361.153809,4344.487305,4443.717773,4521.153809,4379.871582,4408.846191,,,,,,,,,,,,,,,,,,,,,,,,,,,,,,,,,,,,,,,,,,,,,,,,,,,,,,,,,,,,,,,,,,,,,,
1768973161.549527,1768973161.550526,110.0,0.0,4372.436035,4361.282227,4355.256348,4368.333496,4370.512695,4373.974121,4378.846191,4386.410156,4369.102539,4349.871582,4444.615234,4523.333496,4380.897461,4412.436035,0.416164,0.294807,0.085087,0.416063,0.268967,1.487252,0.626763,0.430269,0.32769,0.091895,0.32111,0.115705,0.115544,0.151017,0.154595,0.341553,0.166527,0.085028,0.089785,0.103207,0.37146,0.116936,0.141885,0.042446,0.06562,0.064313,0.186982,0.057232,0.127535,0.215363,0.151023,0.176818,0.081104,0.173835,0.208985,0.40316,0.102236,0.10326,0.228959,0.149002,0.389417,0.137227,0.242005,0.194434,0.203049,0.270572,0.224382,0.293811,0.185833,0.115829,0.881855,0.340208,0.39765,0.346921,0.204132,0.439247,0.591239,0.453133,0.485589,0.199576,0.609774,0.255339,0.227736,0.335296,0.17058,0.698888,0.348058,0.40345,0.453962,0.214423
1768973161.557335,1768973161.558335,111.0,0.0,4372.05127,4361.922852,4356.922852,4369.743652,4372.307617,4380.0,4382.94873,4389.230957,4375.0,4352.820313,4444.487305,4523.717773,4383.717773,4412.436035,,,,,,,,,,,,,,,,,,,,,,,,,,,,,,,,,,,,,,,,,,,,,,,,,,,,,,,,,,,,,,,,,,,,,,
1768973161.565143,1768973161.565943,112.0,0.0,4371.538574,4359.615234,4356.666504,4371.922852,4370.384766,4374.743652,4382.436035,4385.769043,4370.128418,4346.922852,4443.205078,4526.153809,4385.512695,4411.666504,,,,,,,,,,,,,,,,,,,,,,,,,,,,,,,,,,,,,,,,,,,,,,,,,,,,,,,,,,,,,,,,,,,,,,
1768973161.572952,1768973161.573752,113.0,0.0,4375.897461,4363.077148,4352.436035,4374.358887,4368.974121,4370.897461,4377.94873,4386.282227,4369.871582,4350.128418,4449.487305,4528.589844,4386.794922,4413.846191,,,,,,,,,,,,,,,,,,,,,,,,,,,,,,,,,,,,,,,,,,,,,,,,,,,,,,,,,,,,,,,,,,,,,,
1768973161.58076,1768973161.58146,114.0,0.0,4376.922852,4368.589844,4353.974121,4380.769043,4370.897461,4374.102539,4373.461426,4388.846191,4376.282227,4360.256348,4457.307617,4528.333496,4390.256348,4414.230957,,,,,,,,,,,,,,,,,,,,,,,,,,,,,,,,,,,,,,,,,,,,,,,,,,,,,,,,,,,,,,,,,,,,,,
1768973161.588569,1768973161.589269,115.0,0.0,4374.487305,4365.512695,4356.538574,4381.922852,4373.077148,4376.153809,4373.461426,4389.230957,4374.102539,4357.436035,4452.563965,4526.282227,4390.256348,4414.743652,,,,,,,,,,,,,,,,,,,,,,,,,,,,,,,,,,,,,,,,,,,,,,,,,,,,,,,,,,,,,,,,,,,,,,
1768973161.596377,1768973161.596877,116.0,0.0,4377.94873,4363.717773,4351.282227,4374.743652,4371.282227,4371.794922,4372.820313,4382.179688,4363.589844,4348.205078,4443.205078,4519.487305,4382.820313,4412.692383,,,,,,,,,,,,,,,,,,,,,,,,,,,,,,,,,,,,,,,,,,,,,,,,,,,,,,,,,,,,,,,,,,,,,,
1768973161.604185,1768973161.604686,117.0,0.0,4378.974121,4370.769043,4347.05127,4373.589844,4368.205078,4366.282227,4371.282227,4379.230957,4365.256348,4350.512695,4442.820313,4515.512695,4382.307617,4408.077148,,,,,,,,,,,,,,,,,,,,,,,,,,,,,,,,,,,,,,,,,,,,,,,,,,,,,,,,,,,,,,,,,,,,,,
1768973161.611994,1768973161.612394,118.0,0.0,4372.563965,4373.974121,4349.615234,4377.179688,4367.563965,4367.820313,4369.871582,4386.282227,4374.102539,4355.641113,4447.05127,4518.205078,4393.717773,4409.871582,,,,,,,,,,,,,,,,,,,,,,,,,,,,,,,,,,,,,,,,,,,,,,,,,,,,,,,,,,,,,,,,,,,,,,
1768973161.619802,1768973161.620203,119.0,0.0,4372.820313,4372.436035,4350.128418,4374.743652,4366.153809,4373.205078,4366.282227,4384.358887,4370.897461,4353.589844,4448.333496,4515.641113,4395.256348,4412.563965,,,,,,,,,,,,,,,,,,,,,,,,,,,,,,,,,,,,,,,,,,,,,,,,,,,,,,,,,,,,,,,,,,,,,,
1768973161.627611,1768973161.628211,120.0,0.0,4374.487305,4370.769043,4347.820313,4374.743652,4366.153809,4372.94873,4364.358887,4376.410156,4365.512695,4354.615234,4446.794922,4509.871582,4387.820313,4405.897461,,,,,,,,,,,,,,,,,,,,,,,,,,,,,,,,,,,,,,,,,,,,,,,,,,,,,,,,,,,,,,,,,,,,,,
1768973161.635419,1768973161.63602,121.0,0.0,4365.641113,4372.307617,4345.384766,4379.230957,4370.256348,4375.0,4372.307617,4378.717773,4368.205078,4360.512695,4449.487305,4511.153809,4391.025879,4399.743652,,,,,,,,,,,,,,,,,,,,,,,,,,,,,,,,,,,,,,,,,,,,,,,,,,,,,,,,,,,,,,,,,,,,,,
1768973161.643228,1768973161.643928,122.0,0.0,4362.692383,4377.820313,4343.461426,4379.615234,4372.563965,4382.94873,4382.179688,4385.384766,4370.641113,4360.256348,4456.025879,4515.769043,4399.230957,4403.333496,,,,,,,,,,,,,,,,,,,,,,,,,,,,,,,,,,,,,,,,,,,,,,,,,,,,,,,,,,,,,,,,,,,,,,
1768973161.651036,1768973161.651736,123.0,0.0,4373.333496,4385.256348,4347.307617,4381.282227,4373.589844,4384.358887,4382.436035,4385.769043,4372.436035,4360.384766,4459.230957,4513.974121,4396.922852,4406.025879,,,,,,,,,,,,,,,,,,,,,,,,,,,,,,,,,,,,,,,,,,,,,,,,,,,,,,,,,,,,,,,,,,,,,,
1768973161.658845,1768973161.659345,124.0,0.0,4378.589844,4385.128418,4352.436035,4384.487305,4375.512695,4382.820313,4380.256348,4388.589844,4380.384766,4365.0,4455.897461,4512.436035,4389.230957,4404.871582,,,,,,,,,,,,,,,,,,,,,,,,,,,,,,,,,,,,,,,,,,,,,,,,,,,,,,,,,,,,,,,,,,,,,,
1768973161.666653,1768973161.667153,125.0,0.0,4371.794922,4377.563965,4351.410156,4379.102539,4373.461426,4385.641113,4380.256348,4391.410156,4385.256348,4362.563965,4451.538574,4512.436035,4387.307617,4405.641113,,,,,,,,,,,,,,,,,,,,,,,,,,,,,,,,,,,,,,,,,,,,,,,,,,,,,,,,,,,,,,,,,,,,,,
1768973161.674461,1768973161.674862,126.0,0.0,4366.282227,4374.615234,4345.512695,4372.436035,4371.538574,4380.256348,4374.743652,4382.94873,4377.179688,4356.410156,4452.94873,4505.384766,4391.153809,4408.461426,0.48645,0.313572,0.071006,0.400776,0.231213,1.141883,0.61859,0.335378,0.342378,0.089597,0.303989,0.111545,0.111169,0.154141,0.129173,0.363409,0.161695,0.067537,0.091389,0.10605,0.388021,0.118145,0.153857,0.038629,0.07202,0.067951,0.201034,0.058144,0.13283,0.202935,0.118783,0.13259,0.077502,0.20083,0.187855,0.339284,0.0832,0.104793,0.263547,0.1501,0.317212,0.135351,0.214707,0.210703,0.196713,0.233928,0.211148,0.280798,0.202714,0.121162,0.753566,0.377786,0.378059,0.39202,0.202733,0.414167,0.750147,0.43532,0.503503,0.201342,0.57753,0.328776,0.254299,0.362395,0.190236,0.646809,0.442519,0.367196,0.473585,0.225083
1768973161.68227,1768973161.68267,127.0,0.0,4366.153809,4375.128418,4341.153809,4374.230957,4373.717773,4373.077148,4369.615234,4377.436035,4372.563965,4356.794922,4458.589844,4500.769043,4395.897461,4409.230957,,,,,,,,,,,,,,,,,,,,,,,,,,,,,,,,,,,,,,,,,,,,,,,,,,,,,,,,,,,,,,,,,,,,,,
1768973161.690078,1768973161.690679,0.0,0.0,4368.974121,4375.128418,4342.05127,4377.692383,4372.307617,4377.05127,4371.794922,4381.794922,4378.077148,4362.820313,4462.436035,4510.128418,4399.102539,4412.94873,,,,,,,,,,,,,,,,,,,,,,,,,,,,,,,,,,,,,,,,,,,,,,,,,,,,,,,,,,,,,,,,,,,,,,
1768973161.697887,1768973161.698487,1.0,0.0,4378.077148,4378.461426,4351.538574,4380.0,4368.461426,4377.563965,4373.461426,4381.282227,4379.743652,4365.769043,4461.922852,4521.666504,4401.666504,4421.538574,,,,,,,,,,,,,,,,,,,,,,,,,,,,,,,,,,,,,,,,,,,,,,,,,,,,,,,,,,,,,,,,,,,,,,
1768973161.705695,1768973161.706196,2.0,0.0,4384.230957,4387.179688,4358.077148,4384.615234,4370.0,4373.717773,4373.461426,4378.974121,4377.436035,4361.666504,4460.641113,4520.0,4398.333496,4421.538574,,,,,,,,,,,,,,,,,,,,,,,,,,,,,,,,,,,,,,,,,,,,,,,,,,,,,,,,,,,,,,,,,,,,,,
1768973161.713504,1768973161.714004,3.0,0.0,4379.743652,4390.769043,4352.179688,4385.769043,4372.563965,4376.922852,4373.461426,4381.922852,4379.871582,4356.153809,4459.487305,4515.128418,4391.794922,4414.871582,,,,,,,,,,,,,,,,,,,,,,,,,,,,,,,,,,,,,,,,,,,,,,,,,,,,,,,,,,,,,,,,,,,,,,
1768973161.721312,1768973161.721613,4.0,0.0,4377.307617,4387.563965,4350.128418,4385.128418,4373.461426,4379.743652,4373.077148,4378.846191,4378.077148,4355.641113,4458.077148,4518.717773,4393.205078,4412.94873,,,,,,,,,,,,,,,,,,,,,,,,,,,,,,,,,,,,,,,,,,,,,,,,,,,,,,,,,,,,,,,,,,,,,,
1768973161.729121,1768973161.729421,5.0,0.0,4381.666504,4382.436035,4354.487305,4385.384766,4372.94873,4378.077148,4376.282227,4375.384766,4369.871582,4356.025879,4457.94873,4520.384766,4397.692383,4415.128418,,,,,,,,,,,,,,,,,,,,,,,,,,,,,,,,,,,,,,,,,,,,,,,,,,,,,,,,,,,,,,,,,,,,,,
1768973161.736929,1768973161.73713,6.0,0.0,4381.153809,4375.641113,4358.589844,4382.179688,4369.358887,4379.871582,4380.384766,4379.230957,4370.128418,4357.307617,4460.384766,4515.897461,4399.230957,4417.692383,,,,,,,,,,,,,,,,,,,,,,,,,,,,,,,,,,,,,,,,,,,,,,,,,,,,,,,,,,,,,,,,,,,,,,
1768973161.744738,1768973161.744938,7.0,0.0,4376.025879,4371.410156,4360.0,4380.384766,4369.487305,4383.846191,4383.589844,4377.820313,4373.846191,4355.641113,4457.820313,4508.333496,4394.615234,4418.717773,,,,,,,,,,,,,,,,,,,,,,,,,,,,,,,,,,,,,,,,,,,,,,,,,,,,,,,,,,,,,,,,,,,,,,
1768973161.752546,1768973161.752946,8.0,0.0,4372.179688,4366.538574,4353.205078,4378.846191,4373.333496,4382.563965,4381.922852,4371.538574,4371.153809,4349.743652,4448.974121,4501.666504,4387.94873,4413.846191,,,,,,,,,,,,,,,,,,,,,,,,,,,,,,,,,,,,,,,,,,,,,,,,,,,,,,,,,,,,,,,,,,,,,,
1768973161.760354,1768973161.760755,9.0,0.0,4370.769043,4361.922852,4348.333496,4375.0,4374.487305,4375.256348,4373.333496,4373.461426,4371.538574,4353.717773,4453.205078,4504.358887,4392.307617,4413.717773,,,,,,,,,,,,,,,,,,,,,,,,,,,,,,,,,,,,,,,,,,,,,,,,,,,,,,,,,,,,,,,,,,,,,,
1768973161.768163,1768973161.768463,10.0,0.0,4375.128418,4362.179688,4355.897461,4375.641113,4377.307617,4376.282227,4374.487305,4382.436035,4378.589844,4359.358887,4461.153809,4513.333496,4396.794922,4420.512695,,,,,,,,,,,,,,,,,,,,,,,,,,,,,,,,,,,,,,,,,,,,,,,,,,,,,,,,,,,,,,,,,,,,,,
1768973161.775971,1768973161.776272,11.0,0.0,4381.153809,4367.05127,4362.436035,4381.153809,4379.487305,4386.153809,4384.487305,4384.230957,4379.871582,4352.307617,4452.692383,4510.897461,4386.025879,4415.641113,,,,,,,,,,,,,,,,,,,,,,,,,,,,,,,,,,,,,,,,,,,,,,,,,,,,,,,,,,,,,,,,,,,,,,
1768973161.78378,1768973161.783881,12.0,0.0,4377.563965,4367.820313,4358.589844,4382.820313,4376.025879,4381.025879,4379.230957,4374.102539,4368.461426,4346.538574,4441.153809,4498.333496,4375.897461,4407.563965,,,,,,,,,,,,,,,,,,,,,,,,,,,,,,,,,,,,,,,,,,,,,,,,,,,,,,,,,,,,,,,,,,,,,,
1768973161.791588,1768973161.791689,13.0,0.0,4371.922852,4362.692383,4355.384766,4380.256348,4375.384766,4371.794922,4372.563965,4369.615234,4364.102539,4350.769043,4444.358887,4497.692383,4381.282227,4410.512695,,,,,,,,,,,,,,,,,,,,,,,,,,,,,,,,,,,,,,,,,,,,,,,,,,,,,,,,,,,,,,,,,,,,,,
1768973161.799397,1768973161.799398,14.0,0.0,4376.025879,4363.333496,4354.871582,4378.974121,4377.563965,4379.871582,4381.025879,4377.307617,4372.307617,4351.282227,4455.641113,4507.94873,4388.205078,4413.717773,0.571372,0.345559,0.073948,0.365139,0.193704,0.844406,0.611058,0.28967,0.334539,0.090776,0.310735,0.110801,0.10512,0.147133,0.104021,0.354376,0.153848,0.065683,0.09192,0.105114,0.380455,0.111629,0.158636,0.035856,0.076573,0.074223,0.209675,0.061643,0.130038,0.184967,0.106512,0.099088,0.074921,0.214154,0.166411,0.28659,0.077126,0.100318,0.283317,0.151427,0.269905,0.15068,0.19091,0.212259,0.185573,0.222331,0.209222,0.254905,0.207289,0.125841,0.688838,0.450028,0.351041,0.413014,0.205148,0.444814,1.013482,0.405957,0.495967,0.199132,0.576559,0.444716,0.271168,0.363336,0.201387,0.69714,0.579862,0.329182,0.457052,0.224225
1768973161.807205,1768973161.807206,15.0,0.0,4378.846191,4367.179688,4355.256348,4378.205078,4375.641113,4382.307617,4380.256348,4378.077148,4372.05127,4350.0,4456.410156,4509.871582,4388.846191,4414.102539,,,,,,,,,,,,,,,,,,,,,,,,,,,,,,,,,,,,,,,,,,,,,,,,,,,,,,,,,,,,,,,,,,,,,,
1768973161.815014,1768973161.815214,16.0,0.0,4376.666504,4363.717773,4357.563965,4379.615234,4372.563965,4371.025879,4371.666504,4376.410156,4368.589844,4353.333496,4450.384766,4504.487305,4387.307617,4414.230957,,,,,,,,,,,,,,,,,,,,,,,,,,,,,,,,,,,,,,,,,,,,,,,,,,,,,,,,,,,,,,,,,,,,,,
1768973161.822822,1768973161.823023,17.0,0.0,4378.205078,4361.153809,4360.512695,4383.077148,4375.128418,4370.897461,4374.871582,4382.05127,4374.487305,4353.974121,4453.589844,4504.871582,4387.05127,4414.102539,,,,,,,,,,,,,,,,,,,,,,,,,,,,,,,,,,,,,,,,,,,,,,,,,,,,,,,,,,,,,,,,,,,,,,
1768973161.83063,1768973161.830931,18.0,0.0,4380.128418,4367.307617,4363.205078,4384.743652,4379.615234,4378.974121,4377.94873,4380.0,4376.025879,4353.589844,4461.410156,4510.384766,4392.307617,4418.717773,,,,,,,,,,,,,,,,,,,,,,,,,,,,,,,,,,,,,,,,,,,,,,,,,,,,,,,,,,,,,,,,,,,,,,
1768973161.838439,1768973161.838739,19.0,0.0,4380.769043,4369.487305,4363.205078,4384.358887,4381.025879,4379.102539,4376.538574,4377.692383,4370.256348,4356.410156,4459.743652,4512.820313,4396.922852,4426.282227,,,,,,,,,,,,,,,,,,,,,,,,,,,,,,,,,,,,,,,,,,,,,,,,,,,,,,,,,,,,,,,,,,,,,,
1768973161.846247,1768973161.846748,20.0,0.0,4383.205078,4365.128418,4362.436035,4383.333496,4377.436035,4378.589844,4381.538574,4383.717773,4374.487305,4359.358887,4457.692383,4514.615234,4397.820313,4428.589844,,,,,,,,,,,,,,,,,,,,,,,,,,,,,,,,,,,,,,,,,,,,,,,,,,,,,,,,,,,,,,,,,,,,,,
1768973161.854056,1768973161.854556,21.0,0.0,4383.205078,4366.410156,4362.820313,4383.205078,4375.384766,4380.0,4381.282227,4383.077148,4380.512695,4358.846191,4460.384766,4515.384766,4398.461426,4425.897461,,,,,,,,,,,,,,,,,,,,,,,,,,,,,,,,,,,,,,,,,,,,,,,,,,,,,,,,,,,,,,,,,,,,,,
1768973161.861864,1768973161.862464,22.0,0.0,4382.692383,4371.922852,4364.743652,4385.256348,4380.128418,4380.384766,4371.922852,4379.871582,4378.333496,4358.461426,4458.717773,4514.487305,4397.820313,4424.871582,,,,,,,,,,,,,,,,,,,,,,,,,,,,,,,,,,,,,,,,,,,,,,,,,,,,,,,,,,,,,,,,,,,,,,
1768973161.869673,1768973161.870273,23.0,0.0,4387.307617,4375.641113,4366.666504,4386.794922,4380.256348,4382.307617,4373.077148,4382.436035,4376.025879,4360.769043,4458.333496,4512.436035,4395.256348,4426.666504,,,,,,,,,,,,,,,,,,,,,,,,,,,,,,,,,,,,,,,,,,,,,,,,,,,,,,,,,,,,,,,,,,,,,,
1768973161.877481,1768973161.878281,24.0,0.0,4389.230957,4376.538574,4364.487305,4385.256348,4375.128418,4383.846191,4378.589844,4378.205078,4373.205078,4358.461426,4459.871582,4511.025879,4396.282227,4428.461426,,,,,,,,,,,,,,,,,,,,,,,,,,,,,,,,,,,,,,,,,,,,,,,,,,,,,,,,,,,,,,,,,,,,,,
1768973161.88529,1768973161.88609,25.0,0.0,4386.282227,4372.436035,4362.179688,4381.410156,4372.820313,4382.307617,4375.256348,4374.871582,4371.025879,4354.230957,4458.205078,4510.384766,4399.358887,4425.128418,,,,,,,,,,,,,,,,,,,,,,,,,,,,,,,,,,,,,,,,,,,,,,,,,,,,,,,,,,,,,,,,,,,,,,
1768973161.893098,1768973161.893798,26.0,0.0,4383.846191,4371.666504,4363.846191,4380.641113,4373.461426,4379.743652,4372.436035,4378.974121,4371.153809,4353.974121,4457.307617,4504.487305,4397.692383,4420.384766,,,,,,,,,,,,,,,,,,,,,,,,,,,,,,,,,,,,,,,,,,,,,,,,,,,,,,,,,,,,,,,,,,,,,,
1768973161.900906,1768973161.901607,27.0,0.0,4382.94873,4378.974121,4365.128418,4382.307617,4373.461426,4376.538574,4372.94873,4379.871582,4371.922852,4356.922852,4458.846191,4500.897461,4397.820313,4422.436035,,,,,,,,,,,,,,,,,,,,,,,,,,,,,,,,,,,,,,,,,,,,,,,,,,,,,,,,,,,,,,,,,,,,,,
1768973161.908715,1768973161.909215,28.0,0.0,4381.538574,4380.641113,4363.589844,4381.538574,4372.436035,4374.358887,4371.025879,4378.846191,4374.743652,4357.94873,4460.0,4504.615234,4399.102539,4426.025879,,,,,,,,,,,,,,,,,,,,,,,,,,,,,,,,,,,,,,,,,,,,,,,,,,,,,,,,,,,,,,,,,,,,,,
1768973161.916523,1768973161.917024,29.0,0.0,4381.794922,4377.94873,4363.333496,4383.205078,4373.461426,4377.307617,4373.974121,4382.179688,4379.871582,4359.487305,4462.05127,4508.205078,4397.692383,4426.153809,,,,,,,,,,,,,,,,,,,,,,,,,,,,,,,,,,,,,,,,,,,,,,,,,,,,,,,,,,,,,,,,,,,,,,
1768973161.924332,1768973161.924732,30.0,0.0,4385.384766,4381.538574,4365.384766,4388.461426,4375.897461,4382.436035,4380.769043,4390.0,4383.077148,4364.487305,4469.358887,4514.102539,4404.871582,4427.94873,0.63644,0.381836,0.090183,0.316578,0.163615,0.649698,0.600307,0.286581,0.307602,0.094449,0.358009,0.114758,0.100317,0.132847,0.084883,0.325374,0.144822,0.079965,0.091333,0.101634,0.351785,0.098407,0.153091,0.034491,0.077356,0.08464,0.208455,0.07041,0.120395,0.163866,0.110604,0.080909,0.073445,0.211467,0.147553,0.249792,0.080559,0.09104,0.28154,0.153425,0.261913,0.184878,0.17418,0.2001,0.174076,0.256137,0.220829,0.217007,0.197413,0.128625,0.692092,0.525697,0.315429,0.404074,0.210264,0.517586,1.345612,0.374524,0.457677,0.194227,0.594595,0.582245,0.270528,0.338349,0.199612,0.787963,0.727521,0.294221,0.407317,0.210263
1768973161.93214,1768973161.932541,31.0,0.0,4386.410156,4381.153809,4367.692383,4388.461426,4375.641113,4381.410156,4381.410156,4393.846191,4383.077148,4364.743652,4474.743652,4518.205078,4412.436035,4430.128418,,,,,,,,,,,,,,,,,,,,,,,,,,,,,,,,,,,,,,,,,,,,,,,,,,,,,,,,,,,,,,,,,,,,,,
1768973161.939949,1768973161.940549,32.0,0.0,4387.94873,4372.05127,4368.717773,4384.615234,4374.487305,4376.794922,4380.897461,4389.358887,4381.410156,4360.384766,4476.410156,4512.692383,4408.717773,4429.487305,,,,,,,,,,,,,,,,,,,,,,,,,,,,,,,,,,,,,,,,,,,,,,,,,,,,,,,,,,,,,,,,,,,,,,
1768973161.947757,1768973161.948357,33.0,0.0,4389.230957,4369.487305,4369.743652,4385.897461,4377.179688,4376.794922,4382.307617,4386.410156,4378.974121,4358.205078,4472.436035,4504.743652,4406.282227,4428.974121,,,,,,,,,,,,,,,,,,,,,,,,,,,,,,,,,,,,,,,,,,,,,,,,,,,,,,,,,,,,,,,,,,,,,,
1768973161.955566,1768973161.956266,34.0,0.0,4383.589844,4373.077148,4372.94873,4389.615234,4378.333496,4377.307617,4382.436035,4390.769043,4380.769043,4357.307617,4463.974121,4504.615234,4405.128418,4428.461426,,,,,,,,,,,,,,,,,,,,,,,,,,,,,,,,,,,,,,,,,,,,,,,,,,,,,,,,,,,,,,,,,,,,,,
1768973161.963374,1768973161.964074,35.0,0.0,4381.153809,4371.666504,4371.922852,4389.102539,4372.94873,4375.641113,4381.794922,4390.0,4382.692383,4354.615234,4461.922852,4507.820313,4402.436035,4427.05127,,,,,,,,,,,,,,,,,,,,,,,,,,,,,,,,,,,,,,,,,,,,,,,,,,,,,,,,,,,,,,,,,,,,,,
1768973161.971182,1768973161.971683,36.0,0.0,4390.641113,4374.615234,4368.974121,4389.871582,4370.256348,4375.256348,4381.538574,4384.102539,4380.769043,4354.230957,4465.769043,4510.641113,4405.512695,4428.717773,,,,,,,,,,,,,,,,,,,,,,,,,,,,,,,,,,,,,,,,,,,,,,,,,,,,,,,,,,,,,,,,,,,,,,
1768973161.978991,1768973161.979491,37.0,0.0,4397.436035,4380.384766,4373.205078,4394.743652,4371.922852,4376.410156,4383.333496,4385.897461,4378.333496,4354.743652,4466.282227,4516.153809,4407.820313,4430.897461,,,,,,,,,,,,,,,,,,,,,,,,,,,,,,,,,,,,,,,,,,,,,,,,,,,,,,,,,,,,,,,,,,,,,,
1768973161.986799,1768973161.9872,38.0,0.0,4397.563965,4380.897461,4374.358887,4398.589844,4370.512695,4375.256348,4380.384766,4383.333496,4375.641113,4350.256348,4463.077148,4518.077148,4406.025879,4429.487305,,,,,,,,,,,,,,,,,,,,,,,,,,,,,,,,,,,,,,,,,,,,,,,,,,,,,,,,,,,,,,,,,,,,,,
1768973161.994608,1768973161.995008,39.0,0.0,4397.692383,4381.153809,4366.794922,4395.897461,4370.897461,4368.589844,4370.769043,4375.897461,4370.384766,4346.153809,4461.282227,4513.717773,4406.922852,4429.487305,,,,,,,,,,,,,,,,,,,,,,,,,,,,,,,,,,,,,,,,,,,,,,,,,,,,,,,,,,,,,,,,,,,,,,
1768973162.002416,1768973162.003017,40.0,0.0,4391.538574,4381.922852,4364.230957,4388.333496,4372.307617,4367.94873,4368.205078,4375.769043,4366.025879,4344.358887,4458.461426,4508.717773,4400.897461,4427.179688,,,,,,,,,,,,,,,,,,,,,,,,,,,,,,,,,,,,,,,,,,,,,,,,,,,,,,,,,,,,,,,,,,,,,,
1768973162.010225,1768973162.010825,41.0,0.0,4386.794922,4381.922852,4368.717773,4387.179688,4368.589844,4375.512695,4375.769043,4379.358887,4367.05127,4341.794922,4456.025879,4507.307617,4392.94873,4420.0,,,,,,,,,,,,,,,,,,,,,,,,,,,,,,,,,,,,,,,,,,,,,,,,,,,,,,,,,,,,,,,,,,,,,,
1768973162.018033,1768973162.018733,42.0,0.0,4388.717773,4384.487305,4368.717773,4391.538574,4366.666504,4377.05127,4381.153809,4384.230957,4371.025879,4342.05127,4458.205078,4511.666504,4397.820313,4417.436035,,,,,,,,,,,,,,,,,,,,,,,,,,,,,,,,,,,,,,,,,,,,,,,,,,,,,,,,,,,,,,,,,,,,,,
1768973162.025842,1768973162.026542,43.0,0.0,4385.256348,4382.820313,4364.102539,4389.615234,4368.974121,4370.0,4378.717773,4385.897461,4369.743652,4344.743652,4459.230957,4511.538574,4401.538574,4418.974121,,,,,,,,,,,,,,,,,,,,,,,,,,,,,,,,,,,,,,,,,,,,,,,,,,,,,,,,,,,,,,,,,,,,,,
1768973162.03365,1768973162.03455,44.0,0.0,4379.358887,4374.487305,4360.897461,4384.615234,4370.256348,4369.102539,4375.256348,4382.436035,4366.922852,4343.974121,4456.282227,4507.179688,4397.05127,4415.512695,,,,,,,,,,,,,,,,,,,,,,,,,,,,,,,,,,,,,,,,,,,,,,,,,,,,,,,,,,,,,,,,,,,,,,
1768973162.041458,1768973162.042358,45.0,0.0,4378.589844,4374.871582,4361.410156,4387.05127,4371.410156,4372.307617,4372.94873,4384.358887,4372.94873,4343.974121,4457.05127,4506.666504,4396.922852,4411.794922,,,,,,,,,,,,,,,,,,,,,,,,,,,,,,,,,,,,,,,,,,,,,,,,,,,,,,,,,,,,,,,,,,,,,,
1768973162.049267,1768973162.050267,46.0,0.0,4381.922852,4382.436035,4365.641113,4392.307617,4375.641113,4368.846191,4373.974121,4387.179688,4375.384766,4347.692383,4458.205078,4508.717773,4395.384766,4417.179688,0.667358,0.407945,0.114437,0.266363,0.143912,0.602109,0.583464,0.309665,0.270058,0.097864,0.441543,0.12226,0.099957,0.118124,0.074697,0.294664,0.13819,0.109774,0.091081,0.096653,0.307286,0.083019,0.137113,0.034419,0.07364,0.097008,0.2025,0.087812,0.106642,0.144294,0.12402,0.084182,0.076005,0.196633,0.134308,0.223899,0.090231,0.080213,0.258343,0.155633,0.291535,0.235665,0.162943,0.179893,0.165311,0.341963,0.241598,0.172038,0.174653,0.128826,0.736939,0.573289,0.27211,0.367512,0.214344,0.601906,1.674851,0.344647,0.392607,0.188867,0.610501,0.708729,0.250006,0.296079,0.185584,0.852048,0.847535,0.264764,0.336981,0.186246
1768973162.057075,1768973162.058075,47.0,0.0,4386.025879,4382.692383,4365.897461,4390.641113,4375.769043,4368.846191,4376.153809,4376.538574,4365.0,4346.025879,4451.153809,4503.205078,4390.897461,4418.205078,,,,,,,,,,,,,,,,,,,,,,,,,,,,,,,,,,,,,,,,,,,,,,,,,,,,,,,,,,,,,,,,,,,,,,
1768973162.064884,1768973162.066083,48.0,0.0,4383.461426,4379.230957,4360.641113,4386.538574,4374.102539,4372.179688,4373.974121,4369.743652,4360.256348,4340.769043,4449.871582,4496.922852,4391.025879,4411.153809,,,,,,,,,,,,,,,,,,,,,,,,,,,,,,,,,,,,,,,,,,,,,,,,,,,,,,,,,,,,,,,,,,,,,,
1768973162.072692,1768973162.073892,49.0,0.0,4378.461426,4382.436035,4364.102539,4390.384766,4377.179688,4371.410156,4373.846191,4375.384766,4364.358887,4342.563965,4459.358887,4503.077148,4398.461426,4416.282227,,,,,,,,,,,,,,,,,,,,,,,,,,,,,,,,,,,,,,,,,,,,,,,,,,,,,,,,,,,,,,,,,,,,,,
1768973162.080501,1768973162.0816,50.0,0.0,4385.641113,4387.563965,4372.820313,4397.05127,4378.589844,4373.717773,4380.769043,4379.358887,4365.897461,4346.794922,4462.94873,4512.307617,4406.025879,4428.974121,,,,,,,,,,,,,,,,,,,,,,,,,,,,,,,,,,,,,,,,,,,,,,,,,,,,,,,,,,,,,,,,,,,,,,
1768973162.088309,1768973162.089409,51.0,0.0,4394.230957,4388.717773,4370.0,4397.307617,4379.230957,4376.922852,4379.743652,4381.153809,4367.307617,4350.897461,4460.641113,4516.922852,4407.820313,4430.641113,,,,,,,,,,,,,,,,,,,,,,,,,,,,,,,,,,,,,,,,,,,,,,,,,,,,,,,,,,,,,,,,,,,,,,
1768973162.096118,1768973162.097018,52.0,0.0,4392.307617,4387.307617,4364.743652,4394.487305,4378.589844,4370.512695,4371.794922,4380.512695,4369.743652,4351.666504,4460.769043,4514.871582,4405.512695,4427.94873,,,,,,,,,,,,,,,,,,,,,,,,,,,,,,,,,,,,,,,,,,,,,,,,,,,,,,,,,,,,,,,,,,,,,,
1768973162.103926,1768973162.104826,53.0,0.0,4388.461426,4385.128418,4367.563965,4393.461426,4376.794922,4365.128418,4375.641113,4379.871582,4370.128418,4346.922852,4460.384766,4510.512695,4402.820313,4426.410156,,,,,,,,,,,,,,,,,,,,,,,,,,,,,,,,,,,,,,,,,,,,,,,,,,,,,,,,,,,,,,,,,,,,,,
1768973162.111735,1768973162.112535,54.0,0.0,4386.666504,4386.153809,4370.384766,4390.256348,4378.333496,4369.358887,4380.641113,4380.384766,4368.205078,4346.282227,4457.179688,4508.205078,4399.230957,4417.307617,,,,,,,,,,,,,,,,,,,,,,,,,,,,,,,,,,,,,,,,,,,,,,,,,,,,,,,,,,,,,,,,,,,,,,
1768973162.119543,1768973162.120343,55.0,0.0,4386.282227,4389.102539,4373.846191,4386.922852,4380.256348,4369.743652,4376.922852,4375.0,4363.077148,4347.179688,4454.871582,4509.615234,4399.102539,4415.769043,,,,,,,,,,,,,,,,,,,,,,,,,,,,,,,,,,,,,,,,,,,,,,,,,,,,,,,,,,,,,,,,,,,,,,
1768973162.127351,1768973162.127952,56.0,0.0,4390.0,4391.153809,4374.871582,4388.974121,4376.794922,4368.589844,4378.077148,4372.05127,4362.307617,4344.230957,4457.692383,4516.153809,4403.077148,4428.717773,,,,,,,,,,,,,,,,,,,,,,,,,,,,,,,,,,,,,,,,,,,,,,,,,,,,,,,,,,,,,,,,,,,,,,
1768973162.13516,1768973162.13576,57.0,0.0,4390.128418,4388.589844,4366.410156,4388.846191,4371.666504,4371.922852,4380.128418,4379.871582,4372.179688,4342.94873,4455.0,4515.641113,4400.256348,4424.615234,,,,,,,,,,,,,,,,,,,,,,,,,,,,,,,,,,,,,,,,,,,,,,,,,,,,,,,,,,,,,,,,,,,,,,
1768973162.142968,1768973162.143469,58.0,0.0,4381.153809,4382.179688,4359.487305,4380.897461,4372.307617,4370.256348,4374.230957,4380.0,4370.128418,4343.333496,4443.717773,4506.153809,4389.230957,4409.102539,,,,,,,,,,,,,,,,,,,,,,,,,,,,,,,,,,,,,,,,,,,,,,,,,,,,,,,,,,,,,,,,,,,,,,
1768973162.150777,1768973162.151277,59.0,0.0,4378.846191,4379.743652,4364.487305,4378.077148,4371.794922,4363.589844,4371.282227,4373.461426,4362.692383,4347.436035,4446.794922,4505.897461,4388.846191,4415.769043,,,,,,,,,,,,,,,,,,,,,,,,,,,,,,,,,,,,,,,,,,,,,,,,,,,,,,,,,,,,,,,,,,,,,,
1768973162.158585,1768973162.159285,60.0,0.0,4389.102539,4383.974121,4370.897461,4386.794922,4368.077148,4363.717773,4376.025879,4380.0,4375.0,4356.666504,4462.692383,4521.282227,4405.0,4433.461426,,,,,,,,,,,,,,,,,,,,,,,,,,,,,,,,,,,,,,,,,,,,,,,,,,,,,,,,,,,,,,,,,,,,,,
1768973162.166394,1768973162.167094,61.0,0.0,4393.205078,4387.05127,4369.487305,4391.153809,4370.128418,4370.769043,4378.589844,4385.512695,4381.153809,4359.743652,4465.128418,4525.897461,4414.871582,4433.461426,,,,,,,,,,,,,,,,,,,,,,,,,,,,,,,,,,,,,,,,,,,,,,,,,,,,,,,,,,,,,,,,,,,,,,
1768973162.174202,1768973162.174802,62.0,0.0,4385.384766,4383.077148,4362.692383,4384.230957,4375.897461,4373.461426,4378.333496,4380.897461,4367.179688,4350.769043,4458.461426,4513.589844,4409.358887,4424.743652,0.657799,0.413578,0.140532,0.223894,0.132519,0.707046,0.553047,0.343686,0.231478,0.098261,0.537378,0.130634,0.104116,0.109555,0.072891,0.270717,0.136109,0.151463,0.092341,0.090574,0.260223,0.070672,0.113997,0.035074,0.066293,0.109403,0.201468,0.113625,0.092002,0.130935,0.140026,0.113348,0.085582,0.176986,0.128389,0.205855,0.105665,0.071974,0.220701,0.15715,0.350365,0.296793,0.155388,0.159306,0.159873,0.472688,0.264364,0.12944,0.144507,0.126541,0.792073,0.579794,0.225756,0.314321,0.212968,0.66756,1.918289,0.320843,0.314487,0.184702,0.617684,0.793291,0.214621,0.250375,0.164908,0.859101,0.915257,0.240965,0.26296,0.158277
1768973162.182011,1768973162.182611,63.0,0.0,4377.563965,4377.563965,4358.077148,4376.410156,4374.487305,4371.282227,4377.563965,4379.487305,4361.153809,4345.512695,4459.102539,4509.615234,4403.846191,4424.358887,,,,,,,,,,,,,,,,,,,,,,,,,,,,,,,,,,,,,,,,,,,,,,,,,,,,,,,,,,,,,,,,,,,,,,
1768973162.189819,1768973162.190219,64.0,0.0,4374.615234,4378.589844,4360.128418,4376.410156,4370.256348,4367.820313,4375.384766,4380.512695,4366.025879,4348.205078,4456.153809,4511.538574,4404.230957,4423.974121,,,,,,,,,,,,,,,,,,,,,,,,,,,,,,,,,,,,,,,,,,,,,,,,,,,,,,,,,,,,,,,,,,,,,,
1768973162.197627,1768973162.198028,65.0,0.0,4371.922852,4378.846191,4359.871582,4380.256348,4371.538574,4366.922852,4372.563965,4379.358887,4366.025879,4349.102539,4448.846191,4508.589844,4401.794922,4421.538574,,,,,,,,,,,,,,,,,,,,,,,,,,,,,,,,,,,,,,,,,,,,,,,,,,,,,,,,,,,,,,,,,,,,,,
1768973162.205436,1768973162.205736,66.0,0.0,4371.153809,4372.179688,4356.666504,4381.794922,4371.153809,4367.820313,4372.563965,4381.538574,4366.922852,4348.461426,4446.282227,4504.743652,4396.282227,4417.436035,,,,,,,,,,,,,,,,,,,,,,,,,,,,,,,,,,,,,,,,,,,,,,,,,,,,,,,,,,,,,,,,,,,,,,
1768973162.213244,1768973162.213545,67.0,0.0,4373.461426,4368.077148,4356.538574,4377.179688,4365.128418,4365.128418,4372.179688,4382.05127,4368.333496,4346.282227,4446.538574,4503.333496,4396.538574,4413.589844,,,,,,,,,,,,,,,,,,,,,,,,,,,,,,,,,,,,,,,,,,,,,,,,,,,,,,,,,,,,,,,,,,,,,,
1768973162.221053,1768973162.221553,68.0,0.0,4377.307617,4371.282227,4358.589844,4373.205078,4365.256348,4365.641113,4370.897461,4378.589844,4366.410156,4345.641113,4445.897461,4505.512695,4397.563965,4419.358887,,,,,,,,,,,,,,,,,,,,,,,,,,,,,,,,,,,,,,,,,,,,,,,,,,,,,,,,,,,,,,,,,,,,,,
1768973162.228861,1768973162.229362,69.0,0.0,4381.922852,4374.358887,4361.025879,4378.717773,4371.282227,4370.384766,4373.461426,4378.077148,4363.974121,4346.794922,4444.743652,4507.179688,4395.641113,4425.384766,,,,,,,,,,,,,,,,,,,,,,,,,,,,,,,,,,,,,,,,,,,,,,,,,,,,,,,,,,,,,,,,,,,,,,
1768973162.23667,1768973162.23727,70.0,0.0,4381.794922,4373.333496,4360.641113,4381.794922,4368.461426,4366.922852,4375.512695,4376.538574,4360.384766,4347.436035,4444.487305,4506.922852,4395.641113,4419.871582,,,,,,,,,,,,,,,,,,,,,,,,,,,,,,,,,,,,,,,,,,,,,,,,,,,,,,,,,,,,,,,,,,,,,,
1768973162.244478,1768973162.245078,71.0,0.0,4375.256348,4370.256348,4359.102539,4375.128418,4360.641113,4358.846191,4372.820313,4376.538574,4361.794922,4345.128418,4443.974121,4506.922852,4396.410156,4412.179688,,,,,,,,,,,,,,,,,,,,,,,,,,,,,,,,,,,,,,,,,,,,,,,,,,,,,,,,,,,,,,,,,,,,,,
1768973162.252287,1768973162.253087,72.0,0.0,4371.666504,4368.589844,4355.897461,4370.897461,4361.025879,4362.307617,4372.307617,4379.102539,4363.077148,4341.794922,4443.589844,4502.436035,4392.563965,4411.794922,,,,,,,,,,,,,,,,,,,,,,,,,,,,,,,,,,,,,,,,,,,,,,,,,,,,,,,,,,,,,,,,,,,,,,
1768973162.260095,1768973162.260895,73.0,0.0,4373.205078,4369.615234,4351.025879,4372.179688,4365.128418,4363.846191,4373.589844,4379.743652,4359.487305,4342.692383,4444.102539,4496.666504,4387.563965,4412.820313,,,,,,,,,,,,,,,,,,,,,,,,,,,,,,,,,,,,,,,,,,,,,,,,,,,,,,,,,,,,,,,,,,,,,,
1768973162.267903,1768973162.268604,74.0,0.0,4368.461426,4367.05127,4349.871582,4372.692383,4364.102539,4356.282227,4369.230957,4378.974121,4358.974121,4343.333496,4441.538574,4499.487305,4385.897461,4410.769043,,,,,,,,,,,,,,,,,,,,,,,,,,,,,,,,,,,,,,,,,,,,,,,,,,,,,,,,,,,,,,,,,,,,,,
1768973162.275712,1768973162.276412,75.0,0.0,4362.820313,4361.794922,4354.358887,4371.153809,4363.461426,4362.820313,4370.897461,4378.974121,4360.256348,4340.128418,4435.0,4502.692383,4383.717773,4409.230957,,,,,,,,,,,,,,,,,,,,,,,,,,,,,,,,,,,,,,,,,,,,,,,,,,,,,,,,,,,,,,,,,,,,,,
1768973162.28352,1768973162.284021,76.0,0.0,4366.666504,4367.94873,4356.666504,4371.282227,4366.666504,4370.384766,4374.358887,4374.871582,4356.025879,4335.256348,4430.256348,4494.230957,4380.641113,4407.692383,,,,,,,,,,,,,,,,,,,,,,,,,,,,,,,,,,,,,,,,,,,,,,,,,,,,,,,,,,,,,,,,,,,,,,
1768973162.291329,1768973162.291829,77.0,0.0,4368.461426,4376.410156,4353.333496,4375.897461,4368.974121,4358.974121,4365.769043,4367.179688,4352.179688,4333.333496,4427.563965,4486.538574,4378.846191,4402.563965,,,,,,,,,,,,,,,,,,,,,,,,,,,,,,,,,,,,,,,,,,,,,,,,,,,,,,,,,,,,,,,,,,,,,,
1768973162.299137,1768973162.299538,78.0,0.0,4363.846191,4370.512695,4350.769043,4378.205078,4370.897461,4354.871582,4363.974121,4374.487305,4358.333496,4339.487305,4428.205078,4491.538574,4380.641113,4397.179688,0.6196,0.397938,0.163693,0.193169,0.125311,0.916897,0.507124,0.376857,0.199006,0.09471,0.613796,0.137078,0.10951,0.109572,0.076282,0.252889,0.14058,0.19776,0.095179,0.083627,0.222103,0.065622,0.089737,0.035907,0.057299,0.118416,0.212614,0.143423,0.079688,0.12555,0.157806,0.167855,0.10315,0.160844,0.128314,0.195835,0.131858,0.070798,0.179611,0.156981,0.425008,0.356176,0.150426,0.14541,0.155972,0.627031,0.281289,0.098381,0.11483,0.122289,0.840823,0.552811,0.183596,0.259995,0.203781,0.704345,2.005923,0.307217,0.24243,0.182082,0.627486,0.816801,0.171661,0.21436,0.145634,0.820964,0.917878,0.220905,0.199159,0.133133
1768973162.306945,1768973162.307346,79.0,0.0,4362.94873,4363.461426,4351.153809,4374.358887,4368.333496,4367.05127,4374.871582,4386.153809,4361.666504,4344.230957,4433.077148,4497.436035,4382.563965,4398.846191,,,,,,,,,,,,,,,,,,,,,,,,,,,,,,,,,,,,,,,,,,,,,,,,,,,,,,,,,,,,,,,,,,,,,,
1768973162.314754,1768973162.314955,80.0,0.0,4368.205078,4366.922852,4355.384766,4374.230957,4363.846191,4370.128418,4376.282227,4378.333496,4353.077148,4339.102539,4431.794922,4493.846191,4377.05127,4399.230957,,,,,,,,,,,,,,,,,,,,,,,,,,,,,,,,,,,,,,,,,,,,,,,,,,,,,,,,,,,,,,,,,,,,,,
1768973162.322562,1768973162.322763,81.0,0.0,4371.538574,4370.128418,4354.487305,4377.179688,4364.487305,4365.256348,4366.666504,4364.615234,4343.333496,4333.846191,4425.641113,4490.897461,4370.512695,4395.256348,,,,,,,,,,,,,,,,,,,,,,,,,,,,,,,,,,,,,,,,,,,,,,,,,,,,,,,,,,,,,,,,,,,,,,
1768973162.330371,1768973162.330472,82.0,0.0,4371.410156,4364.230957,4349.487305,4373.589844,4367.307617,4368.974121,4367.179688,4366.922852,4347.436035,4338.205078,4426.025879,4493.333496,4371.410156,4396.025879,,,,,,,,,,,,,,,,,,,,,,,,,,,,,,,,,,,,,,,,,,,,,,,,,,,,,,,,,,,,,,,,,,,,,,
1768973162.338179,1768973162.33828,83.0,0.0,4369.487305,4357.94873,4352.436035,4372.179688,4365.0,4370.897461,4371.794922,4374.743652,4355.641113,4338.333496,4428.333496,4494.871582,4373.589844,4397.307617,,,,,,,,,,,,,,,,,,,,,,,,,,,,,,,,,,,,,,,,,,,,,,,,,,,,,,,,,,,,,,,,,,,,,,
1768973162.345988,1768973162.346288,84.0,0.0,4366.794922,4360.0,4354.615234,4375.384766,4362.05127,4366.153809,4367.820313,4369.615234,4350.512695,4333.205078,4426.666504,4491.025879,4375.512695,4395.0,,,,,,,,,,,,,,,,,,,,,,,,,,,,,,,,,,,,,,,,,,,,,,,,,,,,,,,,,,,,,,,,,,,,,,
1768973162.353796,1768973162.354097,85.0,0.0,4365.641113,4364.102539,4349.743652,4373.205078,4363.333496,4366.153809,4364.358887,4364.871582,4347.05127,4334.102539,4426.282227,4491.025879,4375.897461,4396.282227,,,,,,,,,,,,,,,,,,,,,,,,,,,,,,,,,,,,,,,,,,,,,,,,,,,,,,,,,,,,,,,,,,,,,,
1768973162.361605,1768973162.362005,86.0,0.0,4368.589844,4364.615234,4352.05127,4372.692383,4361.922852,4369.743652,4365.384766,4370.897461,4353.974121,4335.0,4428.077148,4493.589844,4373.333496,4397.692383,,,,,,,,,,,,,,,,,,,,,,,,,,,,,,,,,,,,,,,,,,,,,,,,,,,,,,,,,,,,,,,,,,,,,,
1768973162.369413,1768973162.369814,87.0,0.0,4373.077148,4365.769043,4358.205078,4374.871582,4361.025879,4368.717773,4364.487305,4373.717773,4356.153809,4331.538574,4428.974121,4490.384766,4375.641113,4397.307617,,,,,,,,,,,,,,,,,,,,,,,,,,,,,,,,,,,,,,,,,,,,,,,,,,,,,,,,,,,,,,,,,,,,,,
1768973162.377221,1768973162.377422,88.0,0.0,4370.384766,4364.743652,4356.794922,4372.563965,4362.692383,4370.0,4363.974121,4370.128418,4354.102539,4333.717773,4427.436035,4485.0,4381.153809,4397.05127,,,,,,,,,,,,,,,,,,,,,,,,,,,,,,,,,,,,,,,,,,,,,,,,,,,,,,,,,,,,,,,,,,,,,,
1768973162.38503,1768973162.385231,89.0,0.0,4363.974121,4361.666504,4355.769043,4374.743652,4361.922852,4373.717773,4367.179688,4370.512695,4358.077148,4340.128418,4428.589844,4488.717773,4380.384766,4396.794922,,,,,,,,,,,,,,,,,,,,,,,,,,,,,,,,,,,,,,,,,,,,,,,,,,,,,,,,,,,,,,,,,,,,,,
1768973162.392838,1768973162.392939,90.0,0.0,4364.615234,4359.615234,4356.153809,4378.461426,4361.282227,4370.256348,4366.410156,4374.615234,4361.538574,4341.922852,4437.436035,4497.436035,4380.641113,4402.307617,,,,,,,,,,,,,,,,,,,,,,,,,,,,,,,,,,,,,,,,,,,,,,,,,,,,,,,,,,,,,,,,,,,,,,
1768973162.400647,1768973162.400748,91.0,0.0,4369.358887,4358.077148,4357.05127,4375.769043,4366.410156,4370.0,4368.333496,4377.179688,4360.512695,4342.05127,4444.615234,4499.230957,4383.589844,4411.922852,,,,,,,,,,,,,,,,,,,,,,,,,,,,,,,,,,,,,,,,,,,,,,,,,,,,,,,,,,,,,,,,,,,,,,
1768973162.408455,1768973162.408756,92.0,0.0,4375.256348,4359.102539,4361.666504,4375.897461,4369.102539,4378.077148,4378.333496,4377.692383,4360.0,4341.025879,4440.512695,4497.692383,4381.153809,4412.307617,,,,,,,,,,,,,,,,,,,,,,,,,,,,,,,,,,,,,,,,,,,,,,,,,,,,,,,,,,,,,,,,,,,,,,
1768973162.416264,1768973162.416565,93.0,0.0,4380.641113,4363.846191,4360.256348,4380.256348,4363.974121,4376.922852,4377.820313,4372.179688,4356.282227,4340.128418,4437.94873,4498.974121,4382.692383,4410.0,,,,,,,,,,,,,,,,,,,,,,,,,,,,,,,,,,,,,,,,,,,,,,,,,,,,,,,,,,,,,,,,,,,,,,
1768973162.424072,1768973162.424473,94.0,0.0,4379.615234,4362.563965,4356.282227,4376.410156,4363.205078,4367.436035,4367.563965,4371.538574,4357.820313,4342.820313,4443.333496,4503.717773,4392.05127,4416.794922,0.573978,0.370739,0.1819,0.173752,0.119772,1.155912,0.451901,0.399983,0.174648,0.088826,0.647311,0.139364,0.111577,0.115472,0.081607,0.237605,0.152744,0.239192,0.098054,0.076716,0.204145,0.070364,0.070301,0.036725,0.049004,0.123513,0.233395,0.16887,0.072071,0.126012,0.175663,0.235963,0.124049,0.15276,0.13011,0.193009,0.173827,0.079565,0.145951,0.154198,0.502068,0.402356,0.146543,0.142059,0.151679,0.778677,0.288258,0.084502,0.092497,0.116411,0.886387,0.512991,0.155189,0.217781,0.188229,0.721408,1.907829,0.305656,0.192477,0.180186,0.66578,0.782562,0.134139,0.196066,0.133488,0.781757,0.863615,0.206485,0.15189,0.116541
1768973162.431881,1768973162.432281,95.0,0.0,4373.077148,4355.769043,4359.358887,4368.974121,4364.230957,4366.282227,4366.666504,4380.512695,4369.230957,4343.974121,4446.153809,4503.974121,4390.512695,4420.128418,,,,,,,,,,,,,,,,,,,,,,,,,,,,,,,,,,,,,,,,,,,,,,,,,,,,,,,,,,,,,,,,,,,,,,
1768973162.439689,1768973162.44029,96.0,0.0,4372.436035,4353.846191,4361.025879,4367.307617,4359.743652,4370.128418,4371.410156,4381.282227,4368.333496,4341.025879,4443.205078,4496.794922,4381.794922,4413.974121,,,,,,,,,,,,,,,,,,,,,,,,,,,,,,,,,,,,,,,,,,,,,,,,,,,,,,,,,,,,,,,,,,,,,,
1768973162.447497,1768973162.448098,97.0,0.0,4373.589844,4351.153809,4355.769043,4367.692383,4356.794922,4369.102539,4367.820313,4375.128418,4360.256348,4343.205078,4441.025879,4494.358887,4386.282227,4410.641113,,,,,,,,,,,,,,,,,,,,,,,,,,,,,,,,,,,,,,,,,,,,,,,,,,,,,,,,,,,,,,,,,,,,,,
1768973162.455306,1768973162.456006,98.0,0.0,4370.897461,4350.384766,4354.487305,4369.743652,4362.692383,4368.205078,4363.846191,4375.384766,4362.179688,4350.384766,4442.307617,4499.230957,4394.615234,4413.974121,,,,,,,,,,,,,,,,,,,,,,,,,,,,,,,,,,,,,,,,,,,,,,,,,,,,,,,,,,,,,,,,,,,,,,
1768973162.463114,1768973162.463815,99.0,0.0,4371.025879,4356.538574,4361.666504,4375.897461,4366.922852,4374.615234,4373.077148,4382.692383,4367.436035,4352.307617,4444.871582,4504.743652,4395.0,4416.282227,,,,,,,,,,,,,,,,,,,,,,,,,,,,,,,,,,,,,,,,,,,,,,,,,,,,,,,,,,,,,,,,,,,,,,
1768973162.470923,1768973162.471823,100.0,0.0,4374.487305,4358.205078,4366.538574,4380.897461,4364.487305,4380.0,4381.794922,4386.025879,4369.615234,4352.94873,4447.436035,4504.487305,4396.538574,4415.128418,,,,,,,,,,,,,,,,,,,,,,,,,,,,,,,,,,,,,,,,,,,,,,,,,,,,,,,,,,,,,,,,,,,,,,
1768973162.478731,1768973162.479631,101.0,0.0,4376.282227,4354.615234,4364.230957,4380.897461,4368.846191,4375.384766,4375.128418,4379.615234,4368.846191,4354.743652,4452.436035,4504.102539,4401.025879,4416.410156,,,,,,,,,,,,,,,,,,,,,,,,,,,,,,,,,,,,,,,,,,,,,,,,,,,,,,,,,,,,,,,,,,,,,,
1768973162.48654,1768973162.48734,102.0,0.0,4377.94873,4357.692383,4362.692383,4380.897461,4374.871582,4372.563965,4370.384766,4374.615234,4363.974121,4352.692383,4456.538574,4507.436035,4400.769043,4423.846191,,,,,,,,,,,,,,,,,,,,,,,,,,,,,,,,,,,,,,,,,,,,,,,,,,,,,,,,,,,,,,,,,,,,,,
1768973162.494348,1768973162.495148,103.0,0.0,4383.205078,4363.589844,4366.025879,4385.512695,4371.666504,4377.05127,4375.897461,4375.384766,4362.307617,4350.256348,4453.205078,4509.230957,4400.128418,4430.128418,,,,,,,,,,,,,,,,,,,,,,,,,,,,,,,,,,,,,,,,,,,,,,,,,,,,,,,,,,,,,,,,,,,,,,
1768973162.502157,1768973162.502757,104.0,0.0,4383.077148,4361.922852,4368.333496,4385.641113,4366.922852,4378.589844,4381.153809,4377.05127,4366.410156,4348.205078,4445.0,4506.153809,4397.307617,4422.692383,,,,,,,,,,,,,,,,,,,,,,,,,,,,,,,,,,,,,,,,,,,,,,,,,,,,,,,,,,,,,,,,,,,,,,
1768973162.509965,1768973162.510566,105.0,0.0,4373.333496,4360.769043,4363.717773,4380.0,4370.641113,4376.025879,4382.436035,4378.333496,4366.666504,4341.538574,4443.333496,4504.487305,4390.897461,4409.615234,,,,,,,,,,,,,,,,,,,,,,,,,,,,,,,,,,,,,,,,,,,,,,,,,,,,,,,,,,,,,,,,,,,,,,
1768973162.517774,1768973162.518274,106.0,0.0,4374.487305,4363.461426,4358.846191,4379.230957,4372.179688,4376.153809,4380.384766,4378.461426,4365.256348,4339.615234,4445.0,4511.538574,4391.922852,4414.358887,,,,,,,,,,,,,,,,,,,,,,,,,,,,,,,,,,,,,,,,,,,,,,,,,,,,,,,,,,,,,,,,,,,,,,
1768973162.525582,1768973162.526083,107.0,0.0,4382.179688,4362.94873,4359.358887,4381.794922,4367.692383,4375.128418,4376.794922,4376.794922,4365.641113,4346.922852,4446.922852,4517.307617,4396.922852,4426.922852,,,,,,,,,,,,,,,,,,,,,,,,,,,,,,,,,,,,,,,,,,,,,,,,,,,,,,,,,,,,,,,,,,,,,,
1768973162.53339,1768973162.533691,108.0,0.0,4377.05127,4363.461426,4360.512695,4379.743652,4366.282227,4370.641113,4374.102539,4378.717773,4366.538574,4353.717773,4455.128418,4516.794922,4403.461426,4426.922852,,,,,,,,,,,,,,,,,,,,,,,,,,,,,,,,,,,,,,,,,,,,,,,,,,,,,,,,,,,,,,,,,,,,,,
1768973162.541199,1768973162.5415,109.0,0.0,4373.205078,4368.461426,4361.025879,4379.230957,4366.922852,4369.615234,4376.153809,4381.922852,4370.769043,4356.666504,4461.282227,4520.256348,4411.025879,4423.589844,,,,,,,,,,,,,,,,,,,,,,,,,,,,,,,,,,,,,,,,,,,,,,,,,,,,,,,,,,,,,,,,,,,,,,
1768973162.549007,1768973162.549408,110.0,0.0,4384.615234,4372.307617,4364.358887,4386.410156,4370.897461,4375.384766,4378.461426,4381.794922,4371.794922,4355.641113,4460.256348,4523.333496,4411.538574,4428.717773,0.548538,0.346136,0.197085,0.164802,0.116242,1.333377,0.399267,0.406176,0.155986,0.08354,0.633421,0.13687,0.107635,0.121647,0.087206,0.222616,0.170981,0.266659,0.099055,0.071562,0.203671,0.085505,0.058284,0.037719,0.043295,0.127993,0.252453,0.181804,0.070305,0.128298,0.196558,0.296087,0.141117,0.151067,0.129759,0.198795,0.228785,0.096768,0.125858,0.148871,0.575067,0.424846,0.142364,0.148595,0.146558,0.896541,0.283341,0.087584,0.080654,0.108976,0.943855,0.479434,0.149938,0.192333,0.170259,0.736127,1.641103,0.316391,0.1711,0.178358,0.742169,0.71167,0.118128,0.195535,0.128807,0.777729,0.772212,0.204059,0.121179,0.11141
1768973162.556816,1768973162.557216,111.0,0.0,4392.179688,4373.717773,4366.025879,4390.128418,4372.94873,4377.820313,4376.025879,4381.025879,4367.436035,4353.077148,4459.743652,4513.717773,4404.615234,4429.230957,,,,,,,,,,,,,,,,,,,,,,,,,,,,,,,,,,,,,,,,,,,,,,,,,,,,,,,,,,,,,,,,,,,,,,
1768973162.564624,1768973162.565225,112.0,0.0,4389.615234,4372.307617,4360.384766,4384.358887,4368.205078,4372.563965,4369.615234,4378.589844,4365.769043,4352.307617,4455.384766,4500.641113,4397.820313,4423.846191,,,,,,,,,,,,,,,,,,,,,,,,,,,,,,,,,,,,,,,,,,,,,,,,,,,,,,,,,,,,,,,,,,,,,,
1768973162.572433,1768973162.573033,113.0,0.0,4387.307617,4367.692383,4355.384766,4380.384766,4368.461426,4370.769043,4369.871582,4379.487305,4369.487305,4351.666504,4449.743652,4500.256348,4394.743652,4424.743652,,,,,,,,,,,,,,,,,,,,,,,,,,,,,,,,,,,,,,,,,,,,,,,,,,,,,,,,,,,,,,,,,,,,,,
1768973162.580241,1768973162.580742,114.0,0.0,4386.153809,4369.230957,4358.974121,4388.205078,4377.563965,4380.641113,4380.897461,4387.179688,4373.974121,4353.717773,4455.128418,4508.846191,4402.307617,4428.205078,,,,,,,,,,,,,,,,,,,,,,,,,,,,,,,,,,,,,,,,,,,,,,,,,,,,,,,,,,,,,,,,,,,,,,
1768973162.58805,1768973162.58855,115.0,0.0,4391.025879,4374.615234,4364.615234,4396.922852,4382.307617,4389.615234,4387.436035,4390.512695,4378.333496,4358.846191,4463.589844,4516.153809,4414.743652,4430.0,,,,,,,,,,,,,,,,,,,,,,,,,,,,,,,,,,,,,,,,,,,,,,,,,,,,,,,,,,,,,,,,,,,,,,
1768973162.595858,1768973162.596159,116.0,0.0,4393.974121,4372.692383,4364.102539,4392.436035,4377.436035,4386.282227,4385.897461,4389.102539,4379.102539,4359.102539,4460.641113,4515.0,4407.692383,4430.0,,,,,,,,,,,,,,,,,,,,,,,,,,,,,,,,,,,,,,,,,,,,,,,,,,,,,,,,,,,,,,,,,,,,,,
1768973162.603666,1768973162.603967,117.0,0.0,4388.846191,4366.538574,4361.025879,4383.333496,4375.384766,4375.512695,4376.666504,4386.153809,4375.384766,4355.256348,4455.384766,4507.94873,4398.589844,4426.282227,,,,,,,,,,,,,,,,,,,,,,,,,,,,,,,,,,,,,,,,,,,,,,,,,,,,,,,,,,,,,,,,,,,,,,
1768973162.611475,1768973162.611876,118.0,0.0,4389.487305,4367.820313,4362.436035,4383.974121,4375.0,4373.205078,4374.102539,4382.05127,4372.563965,4356.153809,4457.94873,4510.384766,4409.230957,4426.282227,,,,,,,,,,,,,,,,,,,,,,,,,,,,,,,,,,,,,,,,,,,,,,,,,,,,,,,,,,,,,,,,,,,,,,
1768973162.619283,1768973162.619684,119.0,0.0,4395.769043,4371.153809,4366.794922,4388.205078,4373.333496,4381.794922,4383.846191,4384.871582,4373.717773,4359.102539,4462.820313,4520.128418,4417.179688,4435.641113,,,,,,,,,,,,,,,,,,,,,,,,,,,,,,,,,,,,,,,,,,,,,,,,,,,,,,,,,,,,,,,,,,,,,,
1768973162.627092,1768973162.627692,120.0,0.0,4400.256348,4373.717773,4367.05127,4390.384766,4375.897461,4384.358887,4388.333496,4389.358887,4374.743652,4358.589844,4462.307617,4522.307617,4412.05127,4444.230957,,,,,,,,,,,,,,,,,,,,,,,,,,,,,,,,,,,,,,,,,,,,,,,,,,,,,,,,,,,,,,,,,,,,,,
1768973162.6349,1768973162.635501,121.0,0.0,4403.205078,4380.384766,4367.94873,4392.94873,4380.769043,4377.820313,4383.333496,4384.358887,4373.077148,4356.025879,4459.102539,4520.128418,4410.384766,4443.974121,,,,,,,,,,,,,,,,,,,,,,,,,,,,,,,,,,,,,,,,,,,,,,,,,,,,,,,,,,,,,,,,,,,,,,
1768973162.642709,1768973162.643409,122.0,0.0,4401.025879,4380.641113,4369.871582,4392.563965,4380.0,4373.205078,4376.410156,4379.743652,4372.179688,4355.384766,4459.358887,4519.487305,4411.922852,4442.05127,,,,,,,,,,,,,,,,,,,,,,,,,,,,,,,,,,,,,,,,,,,,,,,,,,,,,,,,,,,,,,,,,,,,,,
1768973162.650517,1768973162.651218,123.0,0.0,4398.461426,4375.641113,4368.205078,4392.05127,4377.05127,4374.743652,4376.666504,4383.205078,4373.974121,4357.179688,4461.410156,4520.769043,4410.128418,4443.077148,,,,,,,,,,,,,,,,,,,,,,,,,,,,,,,,,,,,,,,,,,,,,,,,,,,,,,,,,,,,,,,,,,,,,,
1768973162.658326,1768973162.659026,124.0,0.0,4405.128418,4378.205078,4370.769043,4396.025879,4381.153809,4380.641113,4384.230957,4384.743652,4372.436035,4359.871582,4461.794922,4523.205078,4411.410156,4445.128418,,,,,,,,,,,,,,,,,,,,,,,,,,,,,,,,,,,,,,,,,,,,,,,,,,,,,,,,,,,,,,,,,,,,,,
1768973162.666134,1768973162.666834,125.0,0.0,4406.282227,4383.333496,4372.179688,4397.179688,4383.846191,4383.974121,4386.922852,4381.538574,4366.282227,4357.436035,4461.282227,4517.94873,4412.05127,4441.282227,,,,,,,,,,,,,,,,,,,,,,,,,,,,,,,,,,,,,,,,,,,,,,,,,,,,,,,,,,,,,,,,,,,,,,
1768973162.673942,1768973162.674743,126.0,0.0,4397.94873,4381.025879,4365.512695,4392.563965,4380.641113,4379.230957,4377.05127,4375.0,4365.897461,4352.179688,4459.743652,4507.436035,4409.871582,4435.512695,0.542026,0.337163,0.214006,0.164046,0.115303,1.38684,0.359416,0.392903,0.139893,0.081075,0.58185,0.129678,0.097699,0.123532,0.092101,0.204411,0.193086,0.275082,0.096858,0.069806,0.218249,0.108813,0.052239,0.039326,0.041016,0.132314,0.25582,0.178627,0.074341,0.129068,0.213855,0.327335,0.149511,0.150469,0.125803,0.206846,0.283899,0.117572,0.119068,0.142637,0.620282,0.417194,0.13662,0.159675,0.141795,0.943492,0.26676,0.104721,0.077808,0.100421,0.978701,0.455503,0.172016,0.179681,0.153326,0.72756,1.266966,0.335307,0.172255,0.176799,0.831105,0.628194,0.131307,0.205832,0.128006,0.805035,0.666613,0.217126,0.104427,0.117426
1768973162.681751,1768973162.682551,127.0,0.0,4394.230957,4375.512695,4362.436035,4388.589844,4377.436035,4370.769043,4366.538574,4371.153809,4368.205078,4352.820313,4458.077148,4508.461426,4410.384766,4433.333496,,,,,,,,,,,,,,,,,,,,,,,,,,,,,,,,,,,,,,,,,,,,,,,,,,,,,,,,,,,,,,,,,,,,,,
1768973162.689559,1768973162.69016,0.0,0.0,4391.282227,4374.358887,4366.153809,4386.538574,4376.794922,4370.256348,4368.717773,4374.487305,4365.897461,4355.769043,4458.846191,4514.487305,4412.179688,4432.563965,,,,,,,,,,,,,,,,,,,,,,,,,,,,,,,,,,,,,,,,,,,,,,,,,,,,,,,,,,,,,,,,,,,,,,
1768973162.697368,1768973162.697968,1.0,0.0,4387.179688,4372.307617,4364.230957,4384.487305,4379.230957,4380.0,4376.922852,4375.384766,4364.102539,4350.512695,4457.307617,4505.384766,4405.641113,4429.358887,,,,,,,,,,,,,,,,,,,,,,,,,,,,,,,,,,,,,,,,,,,,,,,,,,,,,,,,,,,,,,,,,,,,,,
1768973162.705176,1768973162.705677,2.0,0.0,4385.641113,4366.153809,4358.461426,4383.974121,4382.436035,4385.897461,4380.384766,4372.307617,4365.0,4345.512695,4451.922852,4492.94873,4397.563965,4426.153809,,,,,,,,,,,,,,,,,,,,,,,,,,,,,,,,,,,,,,,,,,,,,,,,,,,,,,,,,,,,,,,,,,,,,,
1768973162.712985,1768973162.713485,3.0,0.0,4383.589844,4360.769043,4357.563965,4382.436035,4380.256348,4378.846191,4376.025879,4373.974121,4367.436035,4350.512695,4451.025879,4495.769043,4403.461426,4426.538574,,,,,,,,,,,,,,,,,,,,,,,,,,,,,,,,,,,,,,,,,,,,,,,,,,,,,,,,,,,,,,,,,,,,,,
1768973162.720793,1768973162.721094,4.0,0.0,4381.153809,4358.846191,4359.871582,4379.871582,4375.769043,4369.230957,4370.897461,4380.0,4372.05127,4357.436035,4459.615234,4504.358887,4413.846191,4430.0,,,,,,,,,,,,,,,,,,,,,,,,,,,,,,,,,,,,,,,,,,,,,,,,,,,,,,,,,,,,,,,,,,,,,,
1768973162.728602,1768973162.728902,5.0,0.0,4382.179688,4362.05127,4362.563965,4382.563965,4376.666504,4370.128418,4372.94873,4385.0,4378.974121,4361.153809,4466.410156,4506.794922,4414.871582,4432.820313,,,,,,,,,,,,,,,,,,,,,,,,,,,,,,,,,,,,,,,,,,,,,,,,,,,,,,,,,,,,,,,,,,,,,,
1768973162.73641,1768973162.736611,6.0,0.0,4386.794922,4366.282227,4363.077148,4388.333496,4380.769043,4375.769043,4379.487305,4386.410156,4380.0,4362.692383,4464.102539,4506.794922,4412.436035,4432.563965,,,,,,,,,,,,,,,,,,,,,,,,,,,,,,,,,,,,,,,,,,,,,,,,,,,,,,,,,,,,,,,,,,,,,,
1768973162.744218,1768973162.744419,7.0,0.0,4388.333496,4368.077148,4359.615234,4386.025879,4382.307617,4378.846191,4379.615234,4384.102539,4374.230957,4360.897461,4460.256348,4506.538574,4414.487305,4431.282227,,,,,,,,,,,,,,,,,,,,,,,,,,,,,,,,,,,,,,,,,,,,,,,,,,,,,,,,,,,,,,,,,,,,,,
1768973162.752027,1768973162.752428,8.0,0.0,4384.230957,4369.230957,4353.974121,4380.512695,4380.641113,4378.846191,4377.05127,4382.179688,4369.487305,4356.666504,4458.846191,4503.077148,4412.179688,4429.230957,,,,,,,,,,,,,,,,,,,,,,,,,,,,,,,,,,,,,,,,,,,,,,,,,,,,,,,,,,,,,,,,,,,,,,
1768973162.759835,1768973162.760236,9.0,0.0,4381.538574,4368.205078,4353.461426,4381.282227,4377.179688,4374.615234,4378.205078,4381.410156,4368.205078,4353.717773,4457.436035,4499.743652,4404.487305,4427.692383,,,,,,,,,,,,,,,,,,,,,,,,,,,,,,,,,,,,,,,,,,,,,,,,,,,,,,,,,,,,,,,,,,,,,,
1768973162.767644,1768973162.768144,10.0,0.0,4381.538574,4360.384766,4359.358887,4382.692383,4375.0,4373.461426,4379.102539,4378.205078,4365.641113,4353.205078,4457.692383,4500.769043,4405.384766,4429.102539,,,,,,,,,,,,,,,,,,,,,,,,,,,,,,,,,,,,,,,,,,,,,,,,,,,,,,,,,,,,,,,,,,,,,,
1768973162.775452,1768973162.775953,11.0,0.0,4380.256348,4353.589844,4361.922852,4379.615234,4377.05127,4376.666504,4375.128418,4380.384766,4367.820313,4356.025879,4459.743652,4504.743652,4413.205078,4430.769043,,,,,,,,,,,,,,,,,,,,,,,,,,,,,,,,,,,,,,,,,,,,,,,,,,,,,,,,,,,,,,,,,,,,,,
1768973162.783261,1768973162.783961,12.0,0.0,4381.794922,4360.0,4360.128418,4379.102539,4380.256348,4373.461426,4370.384766,4384.615234,4373.846191,4359.743652,4460.256348,4508.205078,4410.897461,4430.0,,,,,,,,,,,,,,,,,,,,,,,,,,,,,,,,,,,,,,,,,,,,,,,,,,,,,,,,,,,,,,,,,,,,,,
1768973162.791069,1768973162.79177,13.0,0.0,4388.461426,4366.538574,4364.230957,4385.641113,4381.666504,4370.897461,4373.589844,4383.846191,4370.897461,4359.230957,4457.692383,4509.487305,4405.897461,4430.0,,,,,,,,,,,,,,,,,,,,,,,,,,,,,,,,,,,,,,,,,,,,,,,,,,,,,,,,,,,,,,,,,,,,,,
1768973162.798878,1768973162.799478,14.0,0.0,4390.256348,4365.769043,4368.461426,4390.0,4379.743652,4374.487305,4380.769043,4384.358887,4367.307617,4357.692383,4460.641113,4511.410156,4410.512695,4432.820313,0.549504,0.346561,0.239644,0.166282,0.116401,1.318697,0.329518,0.360105,0.12449,0.082106,0.511796,0.1192,0.085817,0.119533,0.095619,0.190123,0.217872,0.266249,0.092173,0.072224,0.238001,0.137493,0.049382,0.041982,0.042139,0.141792,0.237515,0.161055,0.082934,0.128025,0.219568,0.322083,0.148753,0.147089,0.120613,0.215177,0.319827,0.136711,0.121037,0.137871,0.639747,0.379006,0.130821,0.168954,0.138927,0.91475,0.240106,0.134981,0.080597,0.091499,0.986935,0.431317,0.22103,0.174645,0.138635,0.690637,0.870915,0.355623,0.183857,0.175916,0.91188,0.546803,0.171383,0.219676,0.126753,0.853042,0.561041,0.243938,0.099361,0.131812
1768973162.806686,1768973162.807287,15.0,0.0,4382.692383,4366.666504,4364.102539,4385.128418,4376.922852,4374.487305,4380.256348,4386.025879,4369.487305,4358.205078,4461.025879,4512.563965,4409.871582,4430.256348,,,,,,,,,,,,,,,,,,,,,,,,,,,,,,,,,,,,,,,,,,,,,,,,,,,,,,,,,,,,,,,,,,,,,,
1768973162.814494,1768973162.815295,16.0,0.0,4373.974121,4364.358887,4358.333496,4377.94873,4380.0,4369.615234,4373.333496,4384.358887,4371.282227,4357.05127,4451.666504,4505.128418,4396.794922,4420.512695,,,,,,,,,,,,,,,,,,,,,,,,,,,,,,,,,,,,,,,,,,,,,,,,,,,,,,,,,,,,,,,,,,,,,,
1768973162.822303,1768973162.823103,17.0,0.0,4369.615234,4356.666504,4352.436035,4374.615234,4381.538574,4368.205078,4371.153809,4380.641113,4366.282227,4346.538574,4441.025879,4492.563965,4387.179688,4411.922852,,,,,,,,,,,,,,,,,,,,,,,,,,,,,,,,,,,,,,,,,,,,,,,,,,,,,,,,,,,,,,,,,,,,,,
1768973162.830111,1768973162.831012,18.0,0.0,4369.871582,4357.436035,4348.205078,4373.077148,4377.436035,4369.230957,4371.794922,4376.025879,4362.692383,4341.282227,4437.05127,4490.128418,4388.333496,4407.692383,,,,,,,,,,,,,,,,,,,,,,,,,,,,,,,,,,,,,,,,,,,,,,,,,,,,,,,,,,,,,,,,,,,,,,
1768973162.83792,1768973162.83882,19.0,0.0,4373.717773,4366.025879,4352.436035,4376.025879,4377.563965,4373.846191,4374.743652,4379.102539,4372.436035,4352.307617,4446.794922,4502.692383,4396.153809,4414.487305,,,,,,,,,,,,,,,,,,,,,,,,,,,,,,,,,,,,,,,,,,,,,,,,,,,,,,,,,,,,,,,,,,,,,,
1768973162.845728,1768973162.846529,20.0,0.0,4377.436035,4369.358887,4360.897461,4381.666504,4381.666504,4375.769043,4383.077148,4388.333496,4382.563965,4363.846191,4458.461426,4512.05127,4401.538574,4425.256348,,,,,,,,,,,,,,,,,,,,,,,,,,,,,,,,,,,,,,,,,,,,,,,,,,,,,,,,,,,,,,,,,,,,,,
1768973162.853537,1768973162.854337,21.0,0.0,4375.256348,4373.589844,4362.307617,4380.897461,4380.769043,4371.282227,4383.205078,4385.128418,4375.897461,4359.743652,4452.820313,4506.794922,4400.0,4424.487305,,,,,,,,,,,,,,,,,,,,,,,,,,,,,,,,,,,,,,,,,,,,,,,,,,,,,,,,,,,,,,,,,,,,,,
1768973162.861345,1768973162.862046,22.0,0.0,4372.436035,4379.743652,4359.615234,4376.666504,4379.743652,4376.282227,4380.384766,4376.794922,4365.0,4348.205078,4441.153809,4499.487305,4396.922852,4416.794922,,,,,,,,,,,,,,,,,,,,,,,,,,,,,,,,,,,,,,,,,,,,,,,,,,,,,,,,,,,,,,,,,,,,,,
1768973162.869154,1768973162.869854,23.0,0.0,4373.589844,4379.487305,4356.666504,4374.615234,4381.153809,4382.94873,4381.153809,4378.205078,4366.153809,4344.743652,4441.025879,4499.102539,4391.666504,4413.717773,,,,,,,,,,,,,,,,,,,,,,,,,,,,,,,,,,,,,,,,,,,,,,,,,,,,,,,,,,,,,,,,,,,,,,
1768973162.876962,1768973162.877862,24.0,0.0,4373.589844,4380.0,4355.384766,4373.333496,4380.384766,4374.615234,4376.794922,4381.282227,4370.512695,4346.282227,4443.077148,4501.282227,4386.538574,4412.05127,,,,,,,,,,,,,,,,,,,,,,,,,,,,,,,,,,,,,,,,,,,,,,,,,,,,,,,,,,,,,,,,,,,,,,
1768973162.884771,1768973162.885671,25.0,0.0,4373.077148,4383.589844,4358.077148,4373.077148,4380.384766,4368.974121,4374.487305,4386.666504,4376.282227,4349.615234,4442.436035,4503.205078,4391.666504,4411.922852,,,,,,,,,,,,,,,,,,,,,,,,,,,,,,,,,,,,,,,,,,,,,,,,,,,,,,,,,,,,,,,,,,,,,,
1768973162.892579,1768973162.893379,26.0,0.0,4374.743652,4382.563965,4358.077148,4373.846191,4381.153809,4378.461426,4381.153809,4390.128418,4379.615234,4350.897461,4445.256348,4503.589844,4396.282227,4414.230957,,,,,,,,,,,,,,,,,,,,,,,,,,,,,,,,,,,,,,,,,,,,,,,,,,,,,,,,,,,,,,,,,,,,,,
1768973162.900387,1768973162.901188,27.0,0.0,4376.922852,4382.436035,4357.436035,4374.871582,4382.179688,4382.692383,4383.205078,4384.230957,4373.717773,4350.384766,4444.487305,4506.922852,4393.974121,4417.179688,,,,,,,,,,,,,,,,,,,,,,,,,,,,,,,,,,,,,,,,,,,,,,,,,,,,,,,,,,,,,,,,,,,,,,
1768973162.908196,1768973162.908796,28.0,0.0,4381.025879,4383.589844,4359.487305,4374.102539,4381.794922,4374.487305,4376.282227,4383.717773,4371.922852,4353.589844,4445.128418,4517.820313,4398.717773,4426.153809,,,,,,,,,,,,,,,,,,,,,,,,,,,,,,,,,,,,,,,,,,,,,,,,,,,,,,,,,,,,,,,,,,,,,,
1768973162.916004,1768973162.916605,29.0,0.0,4386.153809,4380.384766,4360.384766,4373.077148,4377.820313,4370.0,4374.487305,4390.769043,4375.384766,4356.410156,4454.358887,4523.461426,4405.897461,4431.153809,,,,,,,,,,,,,,,,,,,,,,,,,,,,,,,,,,,,,,,,,,,,,,,,,,,,,,,,,,,,,,,,,,,,,,
1768973162.923813,1768973162.924313,30.0,0.0,4386.282227,4379.358887,4363.205078,4375.897461,4376.153809,4373.717773,4380.128418,4388.205078,4373.589844,4355.897461,4456.794922,4517.563965,4403.077148,4427.179688,0.564267,0.363766,0.280498,0.168211,0.11841,1.161644,0.301208,0.312444,0.112226,0.085302,0.444353,0.106589,0.078076,0.111515,0.097381,0.184275,0.243051,0.248796,0.087106,0.078252,0.25307,0.167675,0.047601,0.045577,0.046072,0.158009,0.204767,0.135173,0.094936,0.127632,0.209627,0.289387,0.142804,0.141752,0.118867,0.221374,0.320338,0.149616,0.126075,0.13628,0.62354,0.318179,0.128654,0.173154,0.138232,0.816382,0.20689,0.180495,0.086516,0.083359,0.941906,0.391292,0.291708,0.175585,0.125639,0.621422,0.538453,0.373514,0.19726,0.176276,0.944736,0.469363,0.231187,0.235997,0.123833,0.907928,0.463578,0.281787,0.106063,0.149663
1768973162.931621,1768973162.932122,31.0,0.0,4388.205078,4387.179688,4367.820313,4381.922852,4380.384766,4378.846191,4384.230957,4386.538574,4372.692383,4356.410156,4451.538574,4513.461426,4402.05127,4426.922852,,,,,,,,,,,,,,,,,,,,,,,,,,,,,,,,,,,,,,,,,,,,,,,,,,,,,,,,,,,,,,,,,,,,,,
1768973162.939429,1768973162.94013,32.0,0.0,4389.743652,4391.794922,4363.461426,4381.794922,4379.743652,4376.794922,4382.692383,4390.0,4372.94873,4355.641113,4448.589844,4511.153809,4402.179688,4423.333496,,,,,,,,,,,,,,,,,,,,,,,,,,,,,,,,,,,,,,,,,,,,,,,,,,,,,,,,,,,,,,,,,,,,,,
1768973162.947238,1768973162.947938,33.0,0.0,4381.794922,4387.436035,4356.282227,4376.153809,4375.0,4375.769043,4380.897461,4383.205078,4365.384766,4348.717773,4445.641113,4498.974121,4390.0,4411.794922,,,,,,,,,,,,,,,,,,,,,,,,,,,,,,,,,,,,,,,,,,,,,,,,,,,,,,,,,,,,,,,,,,,,,,
1768973162.955046,1768973162.955847,34.0,0.0,4375.641113,4389.358887,4358.974121,4377.05127,4375.641113,4377.692383,4381.666504,4377.563965,4361.153809,4346.025879,4441.282227,4490.128418,4382.307617,4411.538574,,,,,,,,,,,,,,,,,,,,,,,,,,,,,,,,,,,,,,,,,,,,,,,,,,,,,,,,,,,,,,,,,,,,,,
1768973162.962855,1768973162.963655,35.0,0.0,4383.077148,4394.743652,4362.820313,4380.641113,4375.512695,4374.358887,4379.230957,4384.615234,4366.538574,4350.128418,4442.692383,4500.384766,4392.436035,4422.94873,,,,,,,,,,,,,,,,,,,,,,,,,,,,,,,,,,,,,,,,,,,,,,,,,,,,,,,,,,,,,,,,,,,,,,
1768973162.970663,1768973162.971664,36.0,0.0,4392.94873,4391.025879,4363.077148,4382.820313,4376.282227,4375.897461,4381.666504,4389.871582,4367.692383,4354.358887,4447.820313,4510.512695,4398.974121,4429.871582,,,,,,,,,,,,,,,,,,,,,,,,,,,,,,,,,,,,,,,,,,,,,,,,,,,,,,,,,,,,,,,,,,,,,,
1768973162.978472,1768973162.979472,37.0,0.0,4389.743652,4387.436035,4363.205078,4381.922852,4380.0,4381.410156,4384.487305,4388.717773,4365.0,4353.974121,4446.282227,4509.102539,4395.512695,4427.05127,,,,,,,,,,,,,,,,,,,,,,,,,,,,,,,,,,,,,,,,,,,,,,,,,,,,,,,,,,,,,,,,,,,,,,
1768973162.98628,1768973162.98738,38.0,0.0,4383.333496,4390.641113,4361.410156,4376.025879,4378.846191,4376.794922,4378.205078,4389.871582,4366.794922,4350.0,4445.128418,4509.230957,4396.282227,4421.025879,,,,,,,,,,,,,,,,,,,,,,,,,,,,,,,,,,,,,,,,,,,,,,,,,,,,,,,,,,,,,,,,,,,,,,
1768973162.994089,1768973162.995189,39.0,0.0,4382.692383,4390.384766,4359.871582,4373.974121,4377.05127,4373.333496,4374.871582,4388.846191,4367.563965,4348.461426,4446.794922,4511.410156,4397.307617,4419.230957,,,,,,,,,,,,,,,,,,,,,,,,,,,,,,,,,,,,,,,,,,,,,,,,,,,,,,,,,,,,,,,,,,,,,,
1768973163.001897,1768973163.002797,40.0,0.0,4382.820313,4384.871582,4360.512695,4381.538574,4380.897461,4378.974121,4380.769043,4384.358887,4363.205078,4347.179688,4444.230957,4508.589844,4390.641113,4419.743652,,,,,,,,,,,,,,,,,,,,,,,,,,,,,,,,,,,,,,,,,,,,,,,,,,,,,,,,,,,,,,,,,,,,,,
1768973163.009705,1768973163.010606,41.0,0.0,4381.666504,4381.666504,4359.102539,4382.94873,4381.153809,4379.487305,4380.384766,4383.589844,4361.282227,4342.820313,4441.282227,4505.769043,4385.769043,4415.128418,,,,,,,,,,,,,,,,,,,,,,,,,,,,,,,,,,,,,,,,,,,,,,,,,,,,,,,,,,,,,,,,,,,,,,
1768973163.017514,1768973163.018514,42.0,0.0,4379.487305,4381.666504,4354.615234,4374.358887,4376.794922,4377.820313,4376.538574,4380.384766,4362.436035,4340.256348,4443.717773,4508.077148,4388.205078,4408.461426,,,,,,,,,,,,,,,,,,,,,,,,,,,,,,,,,,,,,,,,,,,,,,,,,,,,,,,,,,,,,,,,,,,,,,
1768973163.025322,1768973163.026323,43.0,0.0,4375.128418,4382.307617,4348.717773,4371.794922,4374.615234,4378.077148,4379.615234,4376.666504,4361.282227,4342.436035,4440.641113,4508.333496,4388.077148,4409.102539,,,,,,,,,,,,,,,,,,,,,,,,,,,,,,,,,,,,,,,,,,,,,,,,,,,,,,,,,,,,,,,,,,,,,,
1768973163.033131,1768973163.034331,44.0,0.0,4369.743652,4377.820313,4345.384766,4373.974121,4372.307617,4374.102539,4380.256348,4376.666504,4359.615234,4341.410156,4431.794922,4505.128418,4382.692383,4413.589844,,,,,,,,,,,,,,,,,,,,,,,,,,,,,,,,,,,,,,,,,,,,,,,,,,,,,,,,,,,,,,,,,,,,,,
1768973163.040939,1768973163.042139,45.0,0.0,4369.102539,4374.230957,4346.794922,4372.563965,4370.512695,4372.94873,4377.94873,4375.641113,4357.94873,4335.384766,4428.461426,4502.179688,4378.846191,4411.282227,,,,,,,,,,,,,,,,,,,,,,,,,,,,,,,,,,,,,,,,,,,,,,,,,,,,,,,,,,,,,,,,,,,,,,
1768973163.048748,1768973163.049848,46.0,0.0,4373.205078,4373.205078,4345.769043,4369.487305,4372.563965,4373.846191,4373.461426,4371.538574,4354.615234,4334.487305,4429.102539,4503.589844,4382.179688,4406.922852,0.576901,0.377027,0.336304,0.169995,0.119724,0.979222,0.274802,0.263226,0.109619,0.088103,0.396072,0.0923,0.080901,0.103888,0.097217,0.187228,0.265282,0.234627,0.085157,0.086007,0.256331,0.195425,0.047123,0.049824,0.052091,0.177925,0.172971,0.10835,0.109605,0.131196,0.187951,0.249706,0.136102,0.138771,0.124573,0.239802,0.284764,0.155905,0.129631,0.137705,0.589931,0.250643,0.131996,0.173225,0.138218,0.681892,0.17556,0.24065,0.095847,0.077295,0.857076,0.334547,0.371858,0.184656,0.113451,0.549984,0.33346,0.391205,0.210783,0.177977,0.907275,0.394061,0.300678,0.25708,0.120777,0.956897,0.387894,0.327166,0.123986,0.164597
1768973163.056556,1768973163.057656,47.0,0.0,4378.333496,4371.922852,4343.205078,4369.230957,4371.922852,4372.05127,4367.820313,4374.487305,4359.487305,4344.358887,4436.153809,4513.077148,4391.794922,4416.025879,,,,,,,,,,,,,,,,,,,,,,,,,,,,,,,,,,,,,,,,,,,,,,,,,,,,,,,,,,,,,,,,,,,,,,
1768973163.064365,1768973163.065265,48.0,0.0,4378.974121,4377.94873,4346.282227,4371.922852,4367.307617,4373.205078,4370.128418,4381.794922,4371.282227,4352.692383,4450.897461,4526.282227,4399.487305,4431.025879,,,,,,,,,,,,,,,,,,,,,,,,,,,,,,,,,,,,,,,,,,,,,,,,,,,,,,,,,,,,,,,,,,,,,,
1768973163.072173,1768973163.073073,49.0,0.0,4375.384766,4381.666504,4349.102539,4371.922852,4368.077148,4374.102539,4374.871582,4383.461426,4375.256348,4354.487305,4452.692383,4529.487305,4399.230957,4432.94873,,,,,,,,,,,,,,,,,,,,,,,,,,,,,,,,,,,,,,,,,,,,,,,,,,,,,,,,,,,,,,,,,,,,,,
1768973163.079981,1768973163.080982,50.0,0.0,4376.410156,4375.512695,4347.563965,4370.256348,4370.897461,4372.179688,4371.282227,4382.179688,4371.282227,4357.05127,4444.615234,4521.410156,4398.589844,4427.436035,,,,,,,,,,,,,,,,,,,,,,,,,,,,,,,,,,,,,,,,,,,,,,,,,,,,,,,,,,,,,,,,,,,,,,
1768973163.08779,1768973163.08879,51.0,0.0,4381.410156,4375.897461,4347.05127,4370.641113,4370.0,4373.205078,4370.0,4382.692383,4371.153809,4357.179688,4450.769043,4521.410156,4399.358887,4427.05127,,,,,,,,,,,,,,,,,,,,,,,,,,,,,,,,,,,,,,,,,,,,,,,,,,,,,,,,,,,,,,,,,,,,,,
1768973163.095598,1768973163.096399,52.0,0.0,4381.538574,4381.922852,4348.461426,4370.384766,4366.538574,4378.589844,4377.436035,4385.512695,4375.128418,4355.256348,4461.538574,4528.077148,4397.436035,4434.743652,,,,,,,,,,,,,,,,,,,,,,,,,,,,,,,,,,,,,,,,,,,,,,,,,,,,,,,,,,,,,,,,,,,,,,
1768973163.103407,1768973163.104207,53.0,0.0,4380.641113,4378.974121,4348.717773,4371.666504,4365.769043,4381.922852,4381.410156,4388.205078,4373.333496,4358.589844,4461.794922,4530.769043,4403.461426,4443.974121,,,,,,,,,,,,,,,,,,,,,,,,,,,,,,,,,,,,,,,,,,,,,,,,,,,,,,,,,,,,,,,,,,,,,,
1768973163.111215,1768973163.111916,54.0,0.0,4381.282227,4373.077148,4348.846191,4377.179688,4372.94873,4382.820313,4380.641113,4389.487305,4372.05127,4361.153809,4462.820313,4531.666504,4414.102539,4441.153809,,,,,,,,,,,,,,,,,,,,,,,,,,,,,,,,,,,,,,,,,,,,,,,,,,,,,,,,,,,,,,,,,,,,,,
1768973163.119024,1768973163.119724,55.0,0.0,4381.153809,4373.461426,4352.692383,4378.717773,4379.871582,4381.410156,4378.717773,4388.717773,4373.333496,4356.922852,4463.846191,4529.871582,4407.692383,4428.077148,,,,,,,,,,,,,,,,,,,,,,,,,,,,,,,,,,,,,,,,,,,,,,,,,,,,,,,,,,,,,,,,,,,,,,
1768973163.126832,1768973163.127333,56.0,0.0,4381.410156,4374.102539,4354.102539,4373.589844,4377.436035,4373.846191,4372.179688,4381.538574,4369.102539,4355.256348,4460.128418,4525.769043,4394.487305,4426.025879,,,,,,,,,,,,,,,,,,,,,,,,,,,,,,,,,,,,,,,,,,,,,,,,,,,,,,,,,,,,,,,,,,,,,,
1768973163.134641,1768973163.135141,57.0,0.0,4377.563965,4370.641113,4350.256348,4371.666504,4369.230957,4368.846191,4365.897461,4377.307617,4367.05127,4356.410156,4457.94873,4525.384766,4396.282227,4431.282227,,,,,,,,,,,,,,,,,,,,,,,,,,,,,,,,,,,,,,,,,,,,,,,,,,,,,,,,,,,,,,,,,,,,,,
1768973163.142449,1768973163.14285,58.0,0.0,4368.717773,4365.384766,4348.077148,4373.974121,4367.179688,4373.205078,4368.717773,4381.666504,4371.922852,4355.0,4458.974121,4527.436035,4397.94873,4425.769043,,,,,,,,,,,,,,,,,,,,,,,,,,,,,,,,,,,,,,,,,,,,,,,,,,,,,,,,,,,,,,,,,,,,,,
1768973163.150257,1768973163.150658,59.0,0.0,4365.128418,4364.615234,4350.897461,4373.846191,4369.358887,4377.436035,4375.128418,4381.538574,4370.512695,4354.487305,4457.436035,4524.743652,4387.436035,4415.769043,,,,,,,,,,,,,,,,,,,,,,,,,,,,,,,,,,,,,,,,,,,,,,,,,,,,,,,,,,,,,,,,,,,,,,
1768973163.158066,1768973163.158667,60.0,0.0,4369.230957,4365.641113,4353.974121,4372.563965,4368.205078,4373.077148,4373.333496,4376.922852,4363.461426,4355.384766,4456.153809,4522.692383,4386.282227,4416.922852,,,,,,,,,,,,,,,,,,,,,,,,,,,,,,,,,,,,,,,,,,,,,,,,,,,,,,,,,,,,,,,,,,,,,,
1768973163.165874,1768973163.166475,61.0,0.0,4373.333496,4365.128418,4351.282227,4372.820313,4366.282227,4372.563965,4370.512695,4381.794922,4365.384766,4356.282227,4458.205078,4523.333496,4397.179688,4421.666504,,,,,,,,,,,,,,,,,,,,,,,,,,,,,,,,,,,,,,,,,,,,,,,,,,,,,,,,,,,,,,,,,,,,,,
1768973163.173683,1768973163.174383,62.0,0.0,4372.94873,4369.871582,4348.974121,4373.717773,4367.820313,4377.05127,4375.641113,4385.897461,4369.102539,4352.179688,4455.641113,4520.384766,4397.436035,4419.615234,0.590909,0.380497,0.397975,0.173425,0.119069,0.812701,0.262288,0.226374,0.119289,0.088177,0.375475,0.079338,0.099681,0.100538,0.095208,0.194278,0.282112,0.230885,0.088449,0.092807,0.238132,0.21487,0.049191,0.05385,0.059218,0.194314,0.154845,0.085763,0.12544,0.140958,0.163521,0.22267,0.130903,0.142708,0.138345,0.277525,0.227494,0.157742,0.128663,0.14019,0.548817,0.193414,0.13878,0.171886,0.136768,0.54945,0.154876,0.308706,0.110536,0.074356,0.746222,0.271026,0.448125,0.202918,0.102824,0.509962,0.274696,0.418575,0.225365,0.18064,0.828593,0.322563,0.374485,0.284239,0.120527,1.001144,0.344196,0.378429,0.151658,0.171459
1768973163.181491,1768973163.182192,63.0,0.0,4369.615234,4375.0,4352.05127,4373.205078,4371.410156,4375.897461,4379.230957,4379.102539,4362.820313,4346.282227,4447.563965,4517.94873,4389.743652,4419.102539,,,,,,,,,,,,,,,,,,,,,,,,,,,,,,,,,,,,,,,,,,,,,,,,,,,,,,,,,,,,,,,,,,,,,,
1768973163.1893,1768973163.1902,64.0,0.0,4370.128418,4374.487305,4354.615234,4373.077148,4371.025879,4376.794922,4380.0,4376.410156,4358.333496,4346.410156,4448.205078,4519.230957,4392.820313,4425.256348,,,,,,,,,,,,,,,,,,,,,,,,,,,,,,,,,,,,,,,,,,,,,,,,,,,,,,,,,,,,,,,,,,,,,,
1768973163.197108,1768973163.198009,65.0,0.0,4378.846191,4372.05127,4356.538574,4373.974121,4369.871582,4377.94873,4380.384766,4376.282227,4362.436035,4350.769043,4456.666504,4517.94873,4398.589844,4430.256348,,,,,,,,,,,,,,,,,,,,,,,,,,,,,,,,,,,,,,,,,,,,,,,,,,,,,,,,,,,,,,,,,,,,,,
1768973163.204917,1768973163.205917,66.0,0.0,4382.692383,4372.563965,4358.974121,4373.589844,4368.077148,4370.769043,4371.410156,4375.897461,4369.102539,4352.05127,4460.897461,4516.153809,4396.922852,4431.794922,,,,,,,,,,,,,,,,,,,,,,,,,,,,,,,,,,,,,,,,,,,,,,,,,,,,,,,,,,,,,,,,,,,,,,
1768973163.212725,1768973163.213725,67.0,0.0,4376.794922,4371.282227,4353.846191,4373.333496,4365.512695,4363.333496,4362.563965,4379.871582,4369.871582,4349.102539,4457.307617,4517.692383,4397.05127,4430.769043,,,,,,,,,,,,,,,,,,,,,,,,,,,,,,,,,,,,,,,,,,,,,,,,,,,,,,,,,,,,,,,,,,,,,,
1768973163.220533,1768973163.221334,68.0,0.0,4371.666504,4366.025879,4347.692383,4370.897461,4365.256348,4367.692383,4368.205078,4380.384766,4365.384766,4343.717773,4449.358887,4516.282227,4394.230957,4425.769043,,,,,,,,,,,,,,,,,,,,,,,,,,,,,,,,,,,,,,,,,,,,,,,,,,,,,,,,,,,,,,,,,,,,,,
1768973163.228342,1768973163.229142,69.0,0.0,4372.820313,4368.717773,4354.102539,4372.05127,4369.102539,4378.333496,4377.692383,4380.256348,4367.563965,4344.743652,4448.717773,4514.871582,4388.461426,4425.512695,,,,,,,,,,,,,,,,,,,,,,,,,,,,,,,,,,,,,,,,,,,,,,,,,,,,,,,,,,,,,,,,,,,,,,
1768973163.23615,1768973163.236851,70.0,0.0,4377.179688,4376.666504,4360.384766,4376.666504,4374.871582,4378.846191,4380.512695,4383.589844,4373.589844,4355.512695,4458.077148,4518.589844,4392.563965,4429.743652,,,,,,,,,,,,,,,,,,,,,,,,,,,,,,,,,,,,,,,,,,,,,,,,,,,,,,,,,,,,,,,,,,,,,,
1768973163.243959,1768973163.244659,71.0,0.0,4380.128418,4372.692383,4360.641113,4376.666504,4376.410156,4374.358887,4377.563965,4384.358887,4375.384766,4357.692383,4462.307617,4526.153809,4398.205078,4429.743652,,,,,,,,,,,,,,,,,,,,,,,,,,,,,,,,,,,,,,,,,,,,,,,,,,,,,,,,,,,,,,,,,,,,,,
1768973163.251767,1768973163.252268,72.0,0.0,4379.871582,4363.974121,4361.538574,4371.922852,4372.563965,4376.922852,4375.769043,4383.333496,4375.641113,4349.102539,4457.94873,4531.025879,4396.025879,4428.589844,,,,,,,,,,,,,,,,,,,,,,,,,,,,,,,,,,,,,,,,,,,,,,,,,,,,,,,,,,,,,,,,,,,,,,
1768973163.259576,1768973163.260077,73.0,0.0,4381.282227,4369.102539,4359.743652,4371.410156,4372.692383,4383.589844,4380.128418,4380.256348,4373.717773,4347.692383,4456.922852,4529.102539,4395.641113,4429.102539,,,,,,,,,,,,,,,,,,,,,,,,,,,,,,,,,,,,,,,,,,,,,,,,,,,,,,,,,,,,,,,,,,,,,,
1768973163.267384,1768973163.267785,74.0,0.0,4384.743652,4376.282227,4359.615234,4379.102539,4375.128418,4381.025879,4380.128418,4373.333496,4366.666504,4352.563965,4457.563965,4525.384766,4398.717773,4428.717773,,,,,,,,,,,,,,,,,,,,,,,,,,,,,,,,,,,,,,,,,,,,,,,,,,,,,,,,,,,,,,,,,,,,,,
1768973163.275193,1768973163.275594,75.0,0.0,4381.410156,4372.307617,4362.563965,4379.743652,4371.410156,4376.666504,4373.333496,4372.05127,4365.897461,4352.179688,4458.333496,4525.384766,4398.333496,4429.230957,,,,,,,,,,,,,,,,,,,,,,,,,,,,,,,,,,,,,,,,,,,,,,,,,,,,,,,,,,,,,,,,,,,,,,
1768973163.283001,1768973163.283602,76.0,0.0,4379.230957,4367.179688,4361.794922,4374.102539,4368.974121,4379.615234,4373.205078,4379.615234,4373.077148,4348.846191,4460.384766,4527.94873,4395.769043,4432.94873,,,,,,,,,,,,,,,,,,,,,,,,,,,,,,,,,,,,,,,,,,,,,,,,,,,,,,,,,,,,,,,,,,,,,,
1768973163.29081,1768973163.29141,77.0,0.0,4382.307617,4365.256348,4358.077148,4374.743652,4372.436035,4376.410156,4375.256348,4380.256348,4373.077148,4350.256348,4458.717773,4528.205078,4395.769043,4433.077148,,,,,,,,,,,,,,,,,,,,,,,,,,,,,,,,,,,,,,,,,,,,,,,,,,,,,,,,,,,,,,,,,,,,,,
1768973163.298618,1768973163.299119,78.0,0.0,4379.871582,4364.358887,4358.461426,4377.692383,4372.94873,4370.384766,4371.538574,4374.487305,4367.179688,4351.282227,4456.666504,4525.641113,4393.333496,4427.563965,0.624548,0.373576,0.447201,0.180531,0.11577,0.670246,0.276636,0.206833,0.139172,0.08498,0.385187,0.072155,0.134829,0.102725,0.091602,0.200996,0.289336,0.235418,0.09682,0.096248,0.201539,0.221173,0.054051,0.056297,0.065901,0.200664,0.154799,0.068871,0.140201,0.155882,0.143408,0.21782,0.127617,0.155327,0.156404,0.330945,0.174166,0.158304,0.122919,0.140989,0.51471,0.160119,0.145828,0.17231,0.132519,0.455482,0.14851,0.371984,0.132756,0.074804,0.647322,0.21521,0.506195,0.229565,0.096118,0.533118,0.333722,0.466407,0.245634,0.183322,0.740037,0.263211,0.450584,0.317155,0.125085,1.051568,0.333768,0.433007,0.187416,0.168492
1768973163.306426,1768973163.306927,79.0,0.0,4377.05127,4365.897461,4359.358887,4376.538574,4373.461426,4374.358887,4372.692383,4375.256348,4365.769043,4347.307617,4457.307617,4519.743652,4388.589844,4425.897461,,,,,,,,,,,,,,,,,,,,,,,,,,,,,,,,,,,,,,,,,,,,,,,,,,,,,,,,,,,,,,,,,,,,,,
1768973163.314235,1768973163.314536,80.0,0.0,4381.794922,4370.128418,4360.0,4378.974121,4376.410156,4381.794922,4379.487305,4380.769043,4371.282227,4347.307617,4458.077148,4521.025879,4389.487305,4433.333496,,,,,,,,,,,,,,,,,,,,,,,,,,,,,,,,,,,,,,,,,,,,,,,,,,,,,,,,,,,,,,,,,,,,,,
1768973163.322043,1768973163.322344,81.0,0.0,4387.563965,4372.307617,4366.410156,4385.641113,4376.538574,4381.922852,4381.922852,4383.589844,4376.410156,4356.794922,4463.846191,4531.794922,4399.102539,4443.589844,,,,,,,,,,,,,,,,,,,,,,,,,,,,,,,,,,,,,,,,,,,,,,,,,,,,,,,,,,,,,,,,,,,,,,
1768973163.329852,1768973163.330053,82.0,0.0,4390.769043,4374.743652,4372.436035,4389.102539,4377.436035,4379.358887,4380.769043,4381.410156,4373.205078,4360.256348,4473.461426,4535.769043,4408.461426,4448.589844,,,,,,,,,,,,,,,,,,,,,,,,,,,,,,,,,,,,,,,,,,,,,,,,,,,,,,,,,,,,,,,,,,,,,,
1768973163.33766,1768973163.337861,83.0,0.0,4396.794922,4378.205078,4374.615234,4396.153809,4383.461426,4380.512695,4385.0,4384.230957,4375.897461,4358.205078,4478.205078,4538.205078,4413.205078,4454.615234,,,,,,,,,,,,,,,,,,,,,,,,,,,,,,,,,,,,,,,,,,,,,,,,,,,,,,,,,,,,,,,,,,,,,,
1768973163.345469,1768973163.34587,84.0,0.0,4401.666504,4378.205078,4372.820313,4397.179688,4384.230957,4385.256348,4393.077148,4389.230957,4384.487305,4360.256348,4476.794922,4542.692383,4415.0,4460.897461,,,,,,,,,,,,,,,,,,,,,,,,,,,,,,,,,,,,,,,,,,,,,,,,,,,,,,,,,,,,,,,,,,,,,,
1768973163.353277,1768973163.353678,85.0,0.0,4396.538574,4375.897461,4366.282227,4387.820313,4379.358887,4388.205078,4394.358887,4383.589844,4377.692383,4359.102539,4474.615234,4540.769043,4412.820313,4455.769043,,,,,,,,,,,,,,,,,,,,,,,,,,,,,,,,,,,,,,,,,,,,,,,,,,,,,,,,,,,,,,,,,,,,,,
1768973163.361086,1768973163.361586,86.0,0.0,4389.102539,4375.0,4363.974121,4384.230957,4379.743652,4384.358887,4388.846191,4379.615234,4369.487305,4357.820313,4476.025879,4538.717773,4413.974121,4447.563965,,,,,,,,,,,,,,,,,,,,,,,,,,,,,,,,,,,,,,,,,,,,,,,,,,,,,,,,,,,,,,,,,,,,,,
1768973163.368894,1768973163.369395,87.0,0.0,4389.743652,4375.128418,4365.384766,4386.153809,4383.717773,4381.538574,4384.743652,4386.538574,4380.256348,4359.871582,4473.205078,4539.487305,4413.589844,4447.563965,,,,,,,,,,,,,,,,,,,,,,,,,,,,,,,,,,,,,,,,,,,,,,,,,,,,,,,,,,,,,,,,,,,,,,
1768973163.376702,1768973163.377403,88.0,0.0,4391.153809,4375.769043,4363.846191,4383.077148,4382.05127,4384.102539,4384.615234,4385.641113,4384.230957,4358.717773,4463.974121,4531.538574,4404.230957,4441.794922,,,,,,,,,,,,,,,,,,,,,,,,,,,,,,,,,,,,,,,,,,,,,,,,,,,,,,,,,,,,,,,,,,,,,,
1768973163.384511,1768973163.385212,89.0,0.0,4379.743652,4369.743652,4357.436035,4374.871582,4375.641113,4379.487305,4379.487305,4374.615234,4371.025879,4354.871582,4457.436035,4522.436035,4396.410156,4428.717773,,,,,,,,,,,,,,,,,,,,,,,,,,,,,,,,,,,,,,,,,,,,,,,,,,,,,,,,,,,,,,,,,,,,,,
1768973163.392319,1768973163.39312,90.0,0.0,4372.563965,4357.436035,4352.692383,4370.0,4372.05127,4370.0,4372.692383,4371.410156,4366.025879,4351.282227,4450.128418,4519.358887,4391.410156,4424.358887,,,,,,,,,,,,,,,,,,,,,,,,,,,,,,,,,,,,,,,,,,,,,,,,,,,,,,,,,,,,,,,,,,,,,,
1768973163.400128,1768973163.400928,91.0,0.0,4376.922852,4354.358887,4353.461426,4370.769043,4373.461426,4373.974121,4375.256348,4377.436035,4371.025879,4346.410156,4442.05127,4514.358887,4385.897461,4426.153809,,,,,,,,,,,,,,,,,,,,,,,,,,,,,,,,,,,,,,,,,,,,,,,,,,,,,,,,,,,,,,,,,,,,,,
1768973163.407936,1768973163.408837,92.0,0.0,4376.794922,4358.717773,4352.820313,4371.794922,4372.563965,4381.153809,4378.205078,4381.794922,4374.358887,4346.538574,4448.205078,4515.256348,4388.589844,4426.025879,,,,,,,,,,,,,,,,,,,,,,,,,,,,,,,,,,,,,,,,,,,,,,,,,,,,,,,,,,,,,,,,,,,,,,
1768973163.415745,1768973163.416645,93.0,0.0,4372.05127,4358.846191,4351.410156,4368.205078,4369.871582,4373.846191,4373.205078,4380.256348,4372.307617,4350.897461,4460.0,4519.102539,4397.05127,4428.461426,,,,,,,,,,,,,,,,,,,,,,,,,,,,,,,,,,,,,,,,,,,,,,,,,,,,,,,,,,,,,,,,,,,,,,
1768973163.423553,1768973163.424354,94.0,0.0,4373.461426,4360.512695,4355.769043,4368.589844,4370.769043,4368.974121,4373.846191,4378.333496,4368.461426,4349.615234,4459.615234,4518.077148,4397.436035,4430.128418,0.680026,0.356248,0.466537,0.190019,0.110209,0.548957,0.319283,0.20382,0.162194,0.079668,0.415957,0.073557,0.180149,0.108178,0.086927,0.212833,0.282107,0.240855,0.107851,0.09548,0.156865,0.214911,0.060817,0.056665,0.070647,0.194735,0.167874,0.059648,0.15257,0.171397,0.131307,0.231424,0.130386,0.174063,0.172302,0.391976,0.150697,0.160177,0.114266,0.1376,0.501844,0.156464,0.151699,0.175617,0.125565,0.428811,0.156693,0.416193,0.16178,0.077852,0.612684,0.183265,0.534882,0.260191,0.095107,0.631155,0.452408,0.536041,0.274411,0.184547,0.693183,0.227132,0.522862,0.351169,0.133742,1.128247,0.349117,0.485106,0.227815,0.158568
1768973163.431362,1768973163.432162,95.0,0.0,4375.256348,4366.282227,4359.743652,4374.743652,4374.102539,4378.974121,4383.974121,4377.692383,4370.641113,4348.589844,4452.436035,4517.179688,4393.974121,4425.384766,,,,,,,,,,,,,,,,,,,,,,,,,,,,,,,,,,,,,,,,,,,,,,,,,,,,,,,,,,,,,,,,,,,,,,
1768973163.43917,1768973163.439771,96.0,0.0,4371.410156,4369.230957,4351.538574,4371.282227,4372.436035,4376.922852,4383.333496,4375.0,4374.230957,4351.282227,4448.333496,4514.743652,4395.256348,4423.333496,,,,,,,,,,,,,,,,,,,,,,,,,,,,,,,,,,,,,,,,,,,,,,,,,,,,,,,,,,,,,,,,,,,,,,
1768973163.446978,1768973163.447579,97.0,0.0,4372.820313,4372.94873,4343.205078,4366.410156,4368.589844,4365.256348,4372.692383,4374.871582,4373.461426,4352.05127,4451.025879,4511.922852,4395.641113,4426.538574,,,,,,,,,,,,,,,,,,,,,,,,,,,,,,,,,,,,,,,,,,,,,,,,,,,,,,,,,,,,,,,,,,,,,,
1768973163.454787,1768973163.455288,98.0,0.0,4378.205078,4379.358887,4350.769043,4370.641113,4371.282227,4373.461426,4375.128418,4378.205078,4372.436035,4352.692383,4459.743652,4517.307617,4396.410156,4429.358887,,,,,,,,,,,,,,,,,,,,,,,,,,,,,,,,,,,,,,,,,,,,,,,,,,,,,,,,,,,,,,,,,,,,,,
1768973163.462595,1768973163.463096,99.0,0.0,4375.769043,4381.794922,4360.641113,4375.0,4374.102539,4383.333496,4381.666504,4376.922852,4372.563965,4353.717773,4461.794922,4521.153809,4401.282227,4432.179688,,,,,,,,,,,,,,,,,,,,,,,,,,,,,,,,,,,,,,,,,,,,,,,,,,,,,,,,,,,,,,,,,,,,,,
1768973163.470404,1768973163.471104,100.0,0.0,4374.871582,4380.384766,4362.05127,4376.410156,4371.282227,4373.717773,4376.794922,4371.410156,4368.717773,4349.743652,4452.94873,4513.974121,4399.743652,4430.641113,,,,,,,,,,,,,,,,,,,,,,,,,,,,,,,,,,,,,,,,,,,,,,,,,,,,,,,,,,,,,,,,,,,,,,
1768973163.478212,1768973163.478913,101.0,0.0,4380.641113,4381.666504,4362.820313,4378.974121,4371.025879,4366.538574,4373.717773,4372.179688,4367.94873,4348.974121,4450.897461,4511.282227,4394.871582,4431.794922,,,,,,,,,,,,,,,,,,,,,,,,,,,,,,,,,,,,,,,,,,,,,,,,,,,,,,,,,,,,,,,,,,,,,,
1768973163.486021,1768973163.486821,102.0,0.0,4384.102539,4383.974121,4366.794922,4381.282227,4373.333496,4372.692383,4377.563965,4376.922852,4372.05127,4355.256348,4458.589844,4516.538574,4401.538574,4437.94873,,,,,,,,,,,,,,,,,,,,,,,,,,,,,,,,,,,,,,,,,,,,,,,,,,,,,,,,,,,,,,,,,,,,,,
1768973163.493829,1768973163.49463,103.0,0.0,4382.692383,4382.436035,4366.666504,4381.538574,4372.563965,4374.487305,4375.641113,4375.256348,4371.410156,4356.025879,4461.410156,4516.794922,4406.153809,4439.871582,,,,,,,,,,,,,,,,,,,,,,,,,,,,,,,,,,,,,,,,,,,,,,,,,,,,,,,,,,,,,,,,,,,,,,
1768973163.501638,1768973163.502238,104.0,0.0,4385.256348,4380.897461,4362.436035,4377.563965,4372.436035,4371.025879,4373.846191,4371.025879,4368.846191,4350.641113,4457.436035,4515.641113,4399.487305,4439.871582,,,,,,,,,,,,,,,,,,,,,,,,,,,,,,,,,,,,,,,,,,,,,,,,,,,,,,,,,,,,,,,,,,,,,,
1768973163.509446,1768973163.510047,105.0,0.0,4388.974121,4383.077148,4362.05127,4375.128418,4374.743652,4375.128418,4382.436035,4374.871582,4369.743652,4353.974121,4460.641113,4518.077148,4401.794922,4441.922852,,,,,,,,,,,,,,,,,,,,,,,,,,,,,,,,,,,,,,,,,,,,,,,,,,,,,,,,,,,,,,,,,,,,,,
1768973163.517254,1768973163.517755,106.0,0.0,4382.94873,4379.230957,4360.641113,4376.538574,4372.94873,4377.692383,4384.615234,4379.743652,4369.358887,4354.871582,4460.512695,4515.897461,4402.179688,4435.512695,,,,,,,,,,,,,,,,,,,,,,,,,,,,,,,,,,,,,,,,,,,,,,,,,,,,,,,,,,,,,,,,,,,,,,
1768973163.525063,1768973163.525564,107.0,0.0,4372.436035,4369.871582,4353.205078,4371.410156,4370.128418,4375.128418,4376.794922,4376.153809,4367.563965,4343.589844,4444.230957,4506.794922,4384.487305,4422.563965,,,,,,,,,,,,,,,,,,,,,,,,,,,,,,,,,,,,,,,,,,,,,,,,,,,,,,,,,,,,,,,,,,,,,,
1768973163.532871,1768973163.533172,108.0,0.0,4373.205078,4371.922852,4351.666504,4368.205078,4372.05127,4377.307617,4376.410156,4378.846191,4374.230957,4343.717773,4440.897461,4507.94873,4381.282227,4422.179688,,,,,,,,,,,,,,,,,,,,,,,,,,,,,,,,,,,,,,,,,,,,,,,,,,,,,,,,,,,,,,,,,,,,,,
1768973163.54068,1768973163.540981,109.0,0.0,4382.94873,4381.922852,4361.153809,4378.717773,4374.358887,4380.128418,4383.205078,4387.94873,4382.94873,4359.487305,4458.461426,4524.487305,4401.538574,4435.641113,,,,,,,,,,,,,,,,,,,,,,,,,,,,,,,,,,,,,,,,,,,,,,,,,,,,,,,,,,,,,,,,,,,,,,
1768973163.548488,1768973163.548889,110.0,0.0,4381.794922,4380.384766,4365.897461,4384.615234,4371.153809,4374.615234,4382.436035,4388.333496,4384.487305,4366.794922,4466.666504,4532.94873,4410.384766,4447.94873,0.745929,0.335545,0.453161,0.199383,0.103569,0.455699,0.37931,0.209347,0.179956,0.074523,0.447162,0.083295,0.225913,0.113895,0.081724,0.239073,0.25988,0.237813,0.117566,0.091496,0.120513,0.202154,0.068326,0.0555,0.072631,0.181029,0.186572,0.061975,0.16143,0.181595,0.126184,0.254255,0.148555,0.193028,0.179965,0.449778,0.172538,0.16561,0.106373,0.12936,0.52258,0.183602,0.156685,0.181084,0.117672,0.479275,0.179654,0.430303,0.193545,0.082031,0.670904,0.194553,0.533839,0.289681,0.099046,0.7985,0.580279,0.617365,0.309637,0.182387,0.70368,0.232702,0.585793,0.37961,0.14339,1.215993,0.394132,0.531557,0.26823,0.147294
1768973163.556297,1768973163.556698,111.0,0.0,4374.871582,4375.384766,4360.384766,4378.589844,4367.436035,4369.230957,4373.205078,4379.487305,4378.717773,4361.410156,4460.384766,4525.641113,4402.820313,4443.205078,,,,,,,,,,,,,,,,,,,,,,,,,,,,,,,,,,,,,,,,,,,,,,,,,,,,,,,,,,,,,,,,,,,,,,
1768973163.564105,1768973163.564706,112.0,0.0,4377.05127,4381.153809,4360.0,4379.743652,4371.666504,4370.256348,4371.538574,4373.974121,4368.333496,4357.820313,4457.692383,4520.897461,4397.436035,4429.230957,,,,,,,,,,,,,,,,,,,,,,,,,,,,,,,,,,,,,,,,,,,,,,,,,,,,,,,,,,,,,,,,,,,,,,
1768973163.571914,1768973163.572514,113.0,0.0,4379.358887,4384.358887,4361.922852,4382.436035,4374.743652,4370.0,4375.256348,4376.153809,4362.563965,4355.256348,4457.436035,4519.230957,4395.769043,4427.563965,,,,,,,,,,,,,,,,,,,,,,,,,,,,,,,,,,,,,,,,,,,,,,,,,,,,,,,,,,,,,,,,,,,,,,
1768973163.579722,1768973163.580423,114.0,0.0,4377.692383,4375.256348,4355.769043,4377.692383,4367.820313,4364.743652,4372.05127,4379.615234,4364.358887,4348.461426,4455.256348,4514.230957,4395.256348,4431.538574,,,,,,,,,,,,,,,,,,,,,,,,,,,,,,,,,,,,,,,,,,,,,,,,,,,,,,,,,,,,,,,,,,,,,,
1768973163.58753,1768973163.588231,115.0,0.0,4379.358887,4368.077148,4353.974121,4377.179688,4366.794922,4364.102539,4371.282227,4381.025879,4366.538574,4347.307617,4456.794922,4514.230957,4395.897461,4429.615234,,,,,,,,,,,,,,,,,,,,,,,,,,,,,,,,,,,,,,,,,,,,,,,,,,,,,,,,,,,,,,,,,,,,,,
1768973163.595339,1768973163.596239,116.0,0.0,4380.0,4368.205078,4358.974121,4379.102539,4373.589844,4372.563965,4377.94873,4382.436035,4365.897461,4351.922852,4458.461426,4520.769043,4396.153809,4426.794922,,,,,,,,,,,,,,,,,,,,,,,,,,,,,,,,,,,,,,,,,,,,,,,,,,,,,,,,,,,,,,,,,,,,,,
1768973163.603147,1768973163.604048,117.0,0.0,4382.179688,4370.128418,4361.538574,4379.487305,4376.410156,4377.94873,4380.641113,4384.358887,4367.94873,4353.205078,4459.230957,4527.94873,4396.666504,4432.563965,,,,,,,,,,,,,,,,,,,,,,,,,,,,,,,,,,,,,,,,,,,,,,,,,,,,,,,,,,,,,,,,,,,,,,
1768973163.610956,1768973163.611756,118.0,0.0,4386.922852,4371.538574,4362.436035,4381.410156,4375.512695,4372.820313,4376.538574,4384.230957,4372.436035,4354.743652,4461.538574,4532.692383,4398.077148,4442.563965,,,,,,,,,,,,,,,,,,,,,,,,,,,,,,,,,,,,,,,,,,,,,,,,,,,,,,,,,,,,,,,,,,,,,,
1768973163.618764,1768973163.619565,119.0,0.0,4386.025879,4371.794922,4363.717773,4380.128418,4371.666504,4370.512695,4372.692383,4383.846191,4373.077148,4357.563965,4462.820313,4531.538574,4399.615234,4444.230957,,,,,,,,,,,,,,,,,,,,,,,,,,,,,,,,,,,,,,,,,,,,,,,,,,,,,,,,,,,,,,,,,,,,,,
1768973163.626572,1768973163.627173,120.0,0.0,4381.538574,4371.794922,4364.615234,4378.974121,4369.743652,4370.897461,4373.333496,4380.641113,4366.666504,4353.717773,4461.282227,4525.384766,4399.871582,4440.128418,,,,,,,,,,,,,,,,,,,,,,,,,,,,,,,,,,,,,,,,,,,,,,,,,,,,,,,,,,,,,,,,,,,,,,
1768973163.634381,1768973163.634982,121.0,0.0,4381.282227,4372.436035,4362.94873,4381.922852,4371.538574,4366.666504,4373.846191,4375.128418,4362.436035,4351.922852,4460.0,4523.205078,4399.102539,4442.94873,,,,,,,,,,,,,,,,,,,,,,,,,,,,,,,,,,,,,,,,,,,,,,,,,,,,,,,,,,,,,,,,,,,,,,
1768973163.642189,1768973163.64269,122.0,0.0,4383.205078,4372.820313,4359.743652,4379.358887,4370.641113,4364.230957,4369.743652,4377.179688,4366.666504,4359.358887,4460.769043,4525.769043,4399.358887,4445.512695,,,,,,,,,,,,,,,,,,,,,,,,,,,,,,,,,,,,,,,,,,,,,,,,,,,,,,,,,,,,,,,,,,,,,,
1768973163.649998,1768973163.650499,123.0,0.0,4381.538574,4369.102539,4356.153809,4373.589844,4368.205078,4366.282227,4368.077148,4380.256348,4367.05127,4359.102539,4459.358887,4528.077148,4399.871582,4436.794922,,,,,,,,,,,,,,,,,,,,,,,,,,,,,,,,,,,,,,,,,,,,,,,,,,,,,,,,,,,,,,,,,,,,,,
1768973163.657806,1768973163.658108,124.0,0.0,4380.897461,4367.563965,4357.436035,4379.487305,4371.282227,4369.102539,4376.153809,4381.282227,4365.897461,4354.487305,4460.384766,4528.077148,4401.666504,4434.743652,,,,,,,,,,,,,,,,,,,,,,,,,,,,,,,,,,,,,,,,,,,,,,,,,,,,,,,,,,,,,,,,,,,,,,
1768973163.665615,1768973163.665916,125.0,0.0,4381.666504,4371.410156,4359.102539,4380.897461,4370.769043,4368.333496,4381.410156,4387.563965,4371.922852,4358.333496,4465.256348,4527.94873,4405.384766,4442.179688,,,,,,,,,,,,,,,,,,,,,,,,,,,,,,,,,,,,,,,,,,,,,,,,,,,,,,,,,,,,,,,,,,,,,,
1768973163.673423,1768973163.673625,126.0,0.0,4380.769043,4372.179688,4358.333496,4370.384766,4362.692383,4363.461426,4373.205078,4390.512695,4374.743652,4361.025879,4465.0,4527.307617,4404.102539,4445.0,0.817816,0.326082,0.420838,0.204527,0.09717,0.395398,0.451617,0.214454,0.186185,0.071704,0.474172,0.103387,0.265976,0.117796,0.076281,0.290967,0.231365,0.224054,0.122285,0.086328,0.103832,0.191306,0.07595,0.054075,0.071954,0.169264,0.204904,0.078697,0.16584,0.183053,0.131665,0.281713,0.189934,0.206152,0.176834,0.495865,0.234247,0.174187,0.103286,0.118013,0.580041,0.23196,0.160202,0.186495,0.111929,0.604709,0.213897,0.411842,0.221189,0.085712,0.853341,0.26432,0.513061,0.3144,0.105118,1.027436,0.69512,0.688009,0.342388,0.174587,0.79728,0.297407,0.636711,0.395223,0.15007,1.374429,0.482329,0.571994,0.300889,0.139422
1768973163.681232,1768973163.681433,127.0,0.0,4381.410156,4373.461426,4358.205078,4373.461426,4364.615234,4365.641113,4370.769043,4384.487305,4371.538574,4357.820313,4461.922852,4525.897461,4399.743652,4440.769043,,,,,,,,,,,,,,,,,,,,,,,,,,,,,,,,,,,,,,,,,,,,,,,,,,,,,,,,,,,,,,,,,,,,,,
1768973163.68904,1768973163.689441,0.0,0.0,4381.410156,4377.692383,4353.333496,4382.820313,4370.512695,4369.102539,4373.717773,4376.794922,4367.05127,4351.794922,4456.922852,4524.230957,4398.846191,4433.974121,,,,,,,,,,,,,,,,,,,,,,,,,,,,,,,,,,,,,,,,,,,,,,,,,,,,,,,,,,,,,,,,,,,,,,
1768973163.696849,1768973163.69725,1.0,0.0,4377.436035,4374.743652,4349.871582,4377.692383,4367.307617,4365.128418,4370.897461,4374.487305,4361.025879,4346.282227,4449.871582,4519.102539,4397.94873,4428.717773,,,,,,,,,,,,,,,,,,,,,,,,,,,,,,,,,,,,,,,,,,,,,,,,,,,,,,,,,,,,,,,,,,,,,,
1768973163.704657,1768973163.705158,2.0,0.0,4371.025879,4365.641113,4351.666504,4370.384766,4364.615234,4366.922852,4368.333496,4372.05127,4355.512695,4342.436035,4444.871582,4514.230957,4394.871582,4426.922852,,,,,,,,,,,,,,,,,,,,,,,,,,,,,,,,,,,,,,,,,,,,,,,,,,,,,,,,,,,,,,,,,,,,,,
1768973163.712465,1768973163.712966,3.0,0.0,4373.846191,4366.922852,4353.461426,4372.94873,4368.974121,4374.487305,4369.230957,4368.205078,4356.025879,4340.512695,4445.769043,4514.871582,4395.384766,4429.487305,,,,,,,,,,,,,,,,,,,,,,,,,,,,,,,,,,,,,,,,,,,,,,,,,,,,,,,,,,,,,,,,,,,,,,
1768973163.720274,1768973163.720575,4.0,0.0,4382.307617,4376.153809,4356.153809,4376.666504,4370.897461,4373.717773,4369.230957,4370.0,4358.589844,4342.179688,4448.205078,4516.025879,4397.820313,4430.897461,,,,,,,,,,,,,,,,,,,,,,,,,,,,,,,,,,,,,,,,,,,,,,,,,,,,,,,,,,,,,,,,,,,,,,
1768973163.728082,1768973163.728384,5.0,0.0,4379.102539,4373.077148,4354.871582,4373.846191,4365.641113,4370.384766,4368.974121,4371.794922,4360.641113,4342.94873,4444.871582,4511.538574,4396.538574,4425.384766,,,,,,,,,,,,,,,,,,,,,,,,,,,,,,,,,,,,,,,,,,,,,,,,,,,,,,,,,,,,,,,,,,,,,,
1768973163.735891,1768973163.736092,6.0,0.0,4372.307617,4363.717773,4350.769043,4372.179688,4363.846191,4373.846191,4374.358887,4369.230957,4363.589844,4343.333496,4444.871582,4507.820313,4394.743652,4421.410156,,,,,,,,,,,,,,,,,,,,,,,,,,,,,,,,,,,,,,,,,,,,,,,,,,,,,,,,,,,,,,,,,,,,,,
1768973163.743699,1768973163.743901,7.0,0.0,4375.128418,4365.128418,4351.282227,4373.717773,4365.128418,4375.769043,4378.717773,4368.461426,4364.615234,4347.05127,4451.666504,4508.846191,4395.384766,4423.974121,,,,,,,,,,,,,,,,,,,,,,,,,,,,,,,,,,,,,,,,,,,,,,,,,,,,,,,,,,,,,,,,,,,,,,
1768973163.751508,1768973163.751909,8.0,0.0,4381.025879,4374.358887,4354.871582,4375.512695,4364.615234,4372.563965,4375.0,4369.615234,4365.641113,4352.563965,4459.358887,4513.205078,4397.692383,4428.846191,,,,,,,,,,,,,,,,,,,,,,,,,,,,,,,,,,,,,,,,,,,,,,,,,,,,,,,,,,,,,,,,,,,,,,
1768973163.759316,1768973163.759717,9.0,0.0,4382.436035,4374.102539,4355.512695,4375.769043,4365.641113,4373.077148,4370.641113,4370.256348,4362.436035,4351.922852,4460.512695,4520.0,4399.615234,4432.563965,,,,,,,,,,,,,,,,,,,,,,,,,,,,,,,,,,,,,,,,,,,,,,,,,,,,,,,,,,,,,,,,,,,,,,
1768973163.767125,1768973163.767626,10.0,0.0,4379.358887,4366.410156,4352.94873,4373.077148,4365.128418,4374.615234,4370.769043,4369.615234,4356.410156,4345.641113,4450.128418,4517.179688,4397.307617,4428.974121,,,,,,,,,,,,,,,,,,,,,,,,,,,,,,,,,,,,,,,,,,,,,,,,,,,,,,,,,,,,,,,,,,,,,,
1768973163.774933,1768973163.775434,11.0,0.0,4375.256348,4369.871582,4352.563965,4372.563965,4364.743652,4371.666504,4371.410156,4368.205078,4359.871582,4342.179688,4442.94873,4509.743652,4394.230957,4421.538574,,,,,,,,,,,,,,,,,,,,,,,,,,,,,,,,,,,,,,,,,,,,,,,,,,,,,,,,,,,,,,,,,,,,,,
1768973163.782741,1768973163.783442,12.0,0.0,4373.077148,4381.025879,4357.05127,4374.615234,4366.922852,4369.743652,4369.871582,4369.615234,4364.743652,4346.025879,4453.461426,4515.641113,4396.538574,4423.333496,,,,,,,,,,,,,,,,,,,,,,,,,,,,,,,,,,,,,,,,,,,,,,,,,,,,,,,,,,,,,,,,,,,,,,
1768973163.79055,1768973163.791251,13.0,0.0,4373.205078,4381.153809,4359.230957,4373.717773,4368.333496,4374.871582,4373.077148,4373.077148,4358.205078,4347.563965,4458.461426,4521.666504,4397.692383,4430.512695,,,,,,,,,,,,,,,,,,,,,,,,,,,,,,,,,,,,,,,,,,,,,,,,,,,,,,,,,,,,,,,,,,,,,,
1768973163.798358,1768973163.799159,14.0,0.0,4370.0,4372.307617,4353.205078,4371.282227,4365.641113,4377.05127,4377.307617,4372.94873,4353.717773,4342.692383,4443.974121,4511.538574,4393.717773,4428.077148,0.900482,0.336215,0.38658,0.202293,0.092553,0.384935,0.538669,0.213164,0.180094,0.07234,0.503754,0.133085,0.297668,0.120179,0.071355,0.383491,0.210462,0.205316,0.11992,0.081887,0.112687,0.189427,0.082487,0.053522,0.069478,0.167489,0.226287,0.108625,0.164406,0.176572,0.153744,0.319093,0.255044,0.209379,0.165131,0.524286,0.314521,0.181095,0.107521,0.106664,0.656805,0.287288,0.159269,0.189445,0.110931,0.773741,0.254342,0.368272,0.238975,0.088078,1.140977,0.393745,0.488238,0.334116,0.110822,1.300521,0.790587,0.724286,0.363642,0.160491,0.960091,0.425329,0.676466,0.394515,0.151776,1.638861,0.61268,0.60803,0.319133,0.136842
1768973163.806167,1768973163.806968,15.0,0.0,4365.769043,4370.769043,4349.743652,4373.974121,4365.769043,4376.153809,4378.717773,4377.05127,4362.563965,4347.05127,4444.102539,4505.384766,4393.461426,4419.487305,,,,,,,,,,,,,,,,,,,,,,,,,,,,,,,,,,,,,,,,,,,,,,,,,,,,,,,,,,,,,,,,,,,,,,
1768973163.813975,1768973163.814576,16.0,0.0,4366.538574,4373.974121,4354.871582,4375.256348,4369.230957,4378.974121,4381.025879,4383.077148,4369.358887,4357.692383,4460.384766,4515.384766,4396.922852,4418.461426,,,,,,,,,,,,,,,,,,,,,,,,,,,,,,,,,,,,,,,,,,,,,,,,,,,,,,,,,,,,,,,,,,,,,,
1768973163.821784,1768973163.822385,17.0,0.0,4366.922852,4371.282227,4356.410156,4371.794922,4367.692383,4378.846191,4375.384766,4377.563965,4366.410156,4353.974121,4457.820313,4517.820313,4397.563965,4419.615234,,,,,,,,,,,,,,,,,,,,,,,,,,,,,,,,,,,,,,,,,,,,,,,,,,,,,,,,,,,,,,,,,,,,,,
1768973163.829592,1768973163.830093,18.0,0.0,4366.410156,4369.102539,4352.436035,4374.230957,4367.05127,4374.230957,4365.769043,4370.769043,4363.333496,4344.871582,4444.102539,4506.282227,4395.641113,4415.0,,,,,,,,,,,,,,,,,,,,,,,,,,,,,,,,,,,,,,,,,,,,,,,,,,,,,,,,,,,,,,,,,,,,,,
1768973163.837401,1768973163.837902,19.0,0.0,4371.025879,4370.897461,4353.974121,4377.692383,4368.333496,4371.794922,4370.769043,4371.282227,4363.589844,4345.769043,4442.94873,4508.461426,4395.128418,4415.641113,,,,,,,,,,,,,,,,,,,,,,,,,,,,,,,,,,,,,,,,,,,,,,,,,,,,,,,,,,,,,,,,,,,,,,
1768973163.845209,1768973163.84551,20.0,0.0,4374.230957,4370.769043,4359.871582,4375.897461,4366.153809,4375.384766,4380.769043,4376.153809,4367.05127,4350.384766,4448.589844,4526.410156,4397.820313,4422.94873,,,,,,,,,,,,,,,,,,,,,,,,,,,,,,,,,,,,,,,,,,,,,,,,,,,,,,,,,,,,,,,,,,,,,,
1768973163.853017,1768973163.853319,21.0,0.0,4366.922852,4366.153809,4356.538574,4372.94873,4366.538574,4377.94873,4377.436035,4381.025879,4370.641113,4349.871582,4448.589844,4523.717773,4399.615234,4418.461426,,,,,,,,,,,,,,,,,,,,,,,,,,,,,,,,,,,,,,,,,,,,,,,,,,,,,,,,,,,,,,,,,,,,,,
1768973163.860826,1768973163.861027,22.0,0.0,4364.615234,4363.205078,4350.0,4373.333496,4371.666504,4375.897461,4375.384766,4377.307617,4368.461426,4348.205078,4443.717773,4506.153809,4395.512695,4406.025879,,,,,,,,,,,,,,,,,,,,,,,,,,,,,,,,,,,,,,,,,,,,,,,,,,,,,,,,,,,,,,,,,,,,,,
1768973163.868634,1768973163.868836,23.0,0.0,4373.717773,4370.128418,4355.897461,4378.589844,4372.820313,4376.025879,4382.692383,4371.410156,4363.461426,4348.717773,4444.871582,4511.153809,4395.897461,4415.384766,,,,,,,,,,,,,,,,,,,,,,,,,,,,,,,,,,,,,,,,,,,,,,,,,,,,,,,,,,,,,,,,,,,,,,
1768973163.876443,1768973163.876844,24.0,0.0,4375.897461,4378.717773,4362.692383,4380.512695,4371.410156,4376.538574,4376.025879,4375.897461,4368.974121,4352.820313,4452.94873,4523.077148,4403.333496,4432.307617,,,,,,,,,,,,,,,,,,,,,,,,,,,,,,,,,,,,,,,,,,,,,,,,,,,,,,,,,,,,,,,,,,,,,,
1768973163.884251,1768973163.884652,25.0,0.0,4371.282227,4376.538574,4357.94873,4374.743652,4372.820313,4372.05127,4366.153809,4378.846191,4377.05127,4356.153809,4452.692383,4517.05127,4402.05127,4424.871582,,,,,,,,,,,,,,,,,,,,,,,,,,,,,,,,,,,,,,,,,,,,,,,,,,,,,,,,,,,,,,,,,,,,,,
1768973163.89206,1768973163.892561,26.0,0.0,4371.025879,4371.666504,4354.615234,4374.487305,4373.717773,4376.794922,4376.922852,4371.282227,4370.384766,4354.743652,4442.563965,4511.153809,4395.512695,4413.846191,,,,,,,,,,,,,,,,,,,,,,,,,,,,,,,,,,,,,,,,,,,,,,,,,,,,,,,,,,,,,,,,,,,,,,
1768973163.899868,1768973163.900369,27.0,0.0,4375.0,4373.974121,4358.461426,4381.922852,4373.205078,4385.769043,4386.410156,4369.230957,4360.897461,4352.436035,4445.256348,4517.179688,4396.794922,4421.410156,,,,,,,,,,,,,,,,,,,,,,,,,,,,,,,,,,,,,,,,,,,,,,,,,,,,,,,,,,,,,,,,,,,,,,
1768973163.907677,1768973163.908377,28.0,0.0,4380.384766,4374.358887,4361.282227,4379.102539,4371.538574,4378.974121,4378.205078,4377.05127,4369.615234,4354.102539,4458.205078,4521.794922,4402.179688,4430.897461,,,,,,,,,,,,,,,,,,,,,,,,,,,,,,,,,,,,,,,,,,,,,,,,,,,,,,,,,,,,,,,,,,,,,,
1768973163.915485,1768973163.916186,29.0,0.0,4381.538574,4371.153809,4358.589844,4373.717773,4371.538574,4374.358887,4374.615234,4378.974121,4380.897461,4357.307617,4456.538574,4518.589844,4403.333496,4426.282227,,,,,,,,,,,,,,,,,,,,,,,,,,,,,,,,,,,,,,,,,,,,,,,,,,,,,,,,,,,,,,,,,,,,,,
1768973163.923293,1768973163.923894,30.0,0.0,4378.205078,4374.102539,4356.410156,4378.205078,4374.615234,4380.128418,4378.717773,4373.333496,4375.769043,4356.410156,4450.256348,4514.871582,4402.563965,4424.230957,1.00275,0.363411,0.364568,0.190701,0.091024,0.450272,0.639234,0.20575,0.165356,0.076477,0.548055,0.167375,0.321998,0.123079,0.067864,0.520853,0.210227,0.192246,0.1102,0.079526,0.144554,0.198137,0.086666,0.054272,0.066661,0.181864,0.25581,0.145682,0.156591,0.16632,0.193312,0.369449,0.333189,0.200821,0.150355,0.531501,0.384792,0.18739,0.118288,0.098124,0.724959,0.336127,0.159395,0.18908,0.114865,0.936683,0.296212,0.314105,0.244603,0.08913,1.475573,0.560652,0.473507,0.350141,0.114789,1.57031,0.867033,0.71427,0.368325,0.141877,1.153109,0.596764,0.703563,0.379642,0.148946,2.009373,0.759507,0.644879,0.322753,0.138231
1768973163.931102,1768973163.931703,31.0,0.0,4381.153809,4379.743652,4358.461426,4382.692383,4375.0,4381.922852,4380.769043,4371.410156,4370.256348,4354.871582,4456.794922,4515.769043,4403.974121,4429.743652,,,,,,,,,,,,,,,,,,,,,,,,,,,,,,,,,,,,,,,,,,,,,,,,,,,,,,,,,,,,,,,,,,,,,,
1768973163.93891,1768973163.939711,32.0,0.0,4382.563965,4381.025879,4359.615234,4381.025879,4373.333496,4386.538574,4385.256348,4376.794922,4375.897461,4357.05127,4462.436035,4518.205078,4404.487305,4429.230957,,,,,,,,,,,,,,,,,,,,,,,,,,,,,,,,,,,,,,,,,,,,,,,,,,,,,,,,,,,,,,,,,,,,,,
1768973163.946719,1768973163.94752,33.0,0.0,4374.871582,4378.717773,4354.615234,4375.897461,4372.94873,4385.641113,4380.512695,4378.205078,4375.897461,4358.333496,4455.512695,4512.05127,4400.384766,4425.769043,,,,,,,,,,,,,,,,,,,,,,,,,,,,,,,,,,,,,,,,,,,,,,,,,,,,,,,,,,,,,,,,,,,,,,
1768973163.954527,1768973163.955428,34.0,0.0,4375.0,4379.358887,4349.487305,4370.769043,4370.769043,4373.461426,4367.563965,4374.230957,4373.205078,4355.512695,4449.871582,4506.153809,4396.282227,4425.256348,,,,,,,,,,,,,,,,,,,,,,,,,,,,,,,,,,,,,,,,,,,,,,,,,,,,,,,,,,,,,,,,,,,,,,
1768973163.962336,1768973163.963236,35.0,0.0,4380.384766,4379.615234,4355.256348,4371.794922,4369.487305,4373.846191,4370.897461,4376.153809,4378.846191,4353.461426,4447.692383,4512.820313,4396.666504,4426.922852,,,,,,,,,,,,,,,,,,,,,,,,,,,,,,,,,,,,,,,,,,,,,,,,,,,,,,,,,,,,,,,,,,,,,,
1768973163.970144,1768973163.971245,36.0,0.0,4377.820313,4375.641113,4363.077148,4377.179688,4372.307617,4385.0,4383.333496,4378.461426,4380.641113,4355.897461,4447.307617,4520.512695,4396.410156,4428.333496,,,,,,,,,,,,,,,,,,,,,,,,,,,,,,,,,,,,,,,,,,,,,,,,,,,,,,,,,,,,,,,,,,,,,,
1768973163.977953,1768973163.979053,37.0,0.0,4373.077148,4370.769043,4358.717773,4377.179688,4373.974121,4382.307617,4382.436035,4375.256348,4374.487305,4356.282227,4454.487305,4518.205078,4396.025879,4427.563965,,,,,,,,,,,,,,,,,,,,,,,,,,,,,,,,,,,,,,,,,,,,,,,,,,,,,,,,,,,,,,,,,,,,,,
1768973163.985761,1768973163.986862,38.0,0.0,4372.179688,4366.922852,4348.077148,4372.563965,4372.563965,4379.230957,4377.436035,4372.179688,4367.94873,4353.461426,4455.0,4511.666504,4397.179688,4425.897461,,,,,,,,,,,,,,,,,,,,,,,,,,,,,,,,,,,,,,,,,,,,,,,,,,,,,,,,,,,,,,,,,,,,,,
1768973163.993569,1768973163.99467,39.0,0.0,4374.102539,4365.769043,4345.769043,4371.538574,4371.922852,4380.897461,4377.05127,4373.589844,4368.717773,4354.615234,4448.717773,4512.179688,4397.436035,4426.538574,,,,,,,,,,,,,,,,,,,,,,,,,,,,,,,,,,,,,,,,,,,,,,,,,,,,,,,,,,,,,,,,,,,,,,
1768973164.001378,1768973164.002279,40.0,0.0,4380.897461,4373.205078,4355.256348,4377.179688,4373.205078,4377.563965,4377.563965,4378.717773,4376.666504,4359.230957,4452.436035,4522.563965,4398.077148,4430.512695,,,,,,,,,,,,,,,,,,,,,,,,,,,,,,,,,,,,,,,,,,,,,,,,,,,,,,,,,,,,,,,,,,,,,,
1768973164.009186,1768973164.010087,41.0,0.0,4385.641113,4381.666504,4365.384766,4382.179688,4374.871582,4378.974121,4382.692383,4377.820313,4377.94873,4359.743652,4457.94873,4528.333496,4399.230957,4432.307617,,,,,,,,,,,,,,,,,,,,,,,,,,,,,,,,,,,,,,,,,,,,,,,,,,,,,,,,,,,,,,,,,,,,,,
1768973164.016995,1768973164.017796,42.0,0.0,4380.897461,4378.589844,4363.333496,4376.410156,4372.436035,4381.922852,4381.153809,4370.512695,4370.512695,4357.820313,4454.743652,4521.538574,4397.94873,4429.487305,,,,,,,,,,,,,,,,,,,,,,,,,,,,,,,,,,,,,,,,,,,,,,,,,,,,,,,,,,,,,,,,,,,,,,
1768973164.024803,1768973164.025604,43.0,0.0,4378.205078,4372.563965,4355.384766,4368.461426,4367.563965,4375.128418,4371.538574,4369.615234,4369.230957,4359.102539,4453.333496,4516.025879,4396.538574,4427.179688,,,,,,,,,,,,,,,,,,,,,,,,,,,,,,,,,,,,,,,,,,,,,,,,,,,,,,,,,,,,,,,,,,,,,,
1768973164.032612,1768973164.033213,44.0,0.0,4380.384766,4373.333496,4355.897461,4369.487305,4369.358887,4370.256348,4370.384766,4376.794922,4372.436035,4360.128418,4458.846191,4523.589844,4398.461426,4429.615234,,,,,,,,,,,,,,,,,,,,,,,,,,,,,,,,,,,,,,,,,,,,,,,,,,,,,,,,,,,,,,,,,,,,,,
1768973164.04042,1768973164.041021,45.0,0.0,4381.794922,4373.717773,4360.128418,4374.615234,4372.820313,4373.461426,4372.94873,4377.820313,4370.256348,4359.230957,4461.282227,4530.641113,4399.743652,4431.025879,,,,,,,,,,,,,,,,,,,,,,,,,,,,,,,,,,,,,,,,,,,,,,,,,,,,,,,,,,,,,,,,,,,,,,
1768973164.048229,1768973164.04873,46.0,0.0,4380.128418,4373.717773,4359.230957,4373.717773,4372.307617,4372.692383,4369.102539,4373.974121,4370.769043,4358.205078,4455.641113,4523.461426,4396.794922,4427.692383,1.113671,0.395453,0.355918,0.169948,0.092824,0.586553,0.741656,0.193289,0.147014,0.08388,0.606293,0.19856,0.340378,0.128113,0.066179,0.681363,0.233155,0.191284,0.095076,0.079921,0.18572,0.211557,0.087349,0.055571,0.064724,0.210364,0.290189,0.180315,0.14373,0.157057,0.244414,0.425184,0.40561,0.182827,0.138688,0.521844,0.422983,0.199891,0.132191,0.093388,0.75195,0.369334,0.172627,0.186408,0.121364,1.040995,0.337273,0.266091,0.239799,0.089444,1.759957,0.724088,0.475134,0.363523,0.118115,1.776629,0.916481,0.661012,0.358782,0.123058,1.310701,0.769361,0.710934,0.356589,0.142991,2.39234,0.87806,0.680219,0.317679,0.140616
1768973164.056037,1768973164.056538,47.0,0.0,4374.615234,4372.692383,4356.538574,4371.282227,4369.743652,4368.846191,4366.922852,4373.205078,4372.307617,4355.128418,4447.436035,4513.461426,4394.358887,4426.538574,,,,,,,,,,,,,,,,,,,,,,,,,,,,,,,,,,,,,,,,,,,,,,,,,,,,,,,,,,,,,,,,,,,,,,
1768973164.063846,1768973164.064147,48.0,0.0,4371.922852,4367.179688,4355.769043,4371.538574,4367.563965,4371.153809,4372.692383,4375.0,4369.487305,4352.436035,4446.922852,4516.922852,4395.384766,4428.589844,,,,,,,,,,,,,,,,,,,,,,,,,,,,,,,,,,,,,,,,,,,,,,,,,,,,,,,,,,,,,,,,,,,,,,
1768973164.071654,1768973164.071955,49.0,0.0,4374.615234,4364.230957,4355.641113,4373.846191,4367.563965,4375.512695,4377.94873,4374.358887,4366.922852,4349.102539,4449.487305,4519.743652,4393.333496,4427.05127,,,,,,,,,,,,,,,,,,,,,,,,,,,,,,,,,,,,,,,,,,,,,,,,,,,,,,,,,,,,,,,,,,,,,,
1768973164.079462,1768973164.079864,50.0,0.0,4374.230957,4368.333496,4354.871582,4373.461426,4367.692383,4372.820313,4372.307617,4370.256348,4363.077148,4342.820313,4442.692383,4512.179688,4387.179688,4423.846191,,,,,,,,,,,,,,,,,,,,,,,,,,,,,,,,,,,,,,,,,,,,,,,,,,,,,,,,,,,,,,,,,,,,,,
1768973164.087271,1768973164.087672,51.0,0.0,4371.025879,4369.615234,4350.897461,4371.153809,4365.769043,4367.820313,4362.436035,4373.461426,4366.282227,4343.333496,4438.717773,4510.128418,4386.410156,4425.641113,,,,,,,,,,,,,,,,,,,,,,,,,,,,,,,,,,,,,,,,,,,,,,,,,,,,,,,,,,,,,,,,,,,,,,
