title:mouse_3, start timestamp:1768373705.895043, stop timestamp:1768373737.409913, headset type:EPOCX, headset serial:E5020E3B, headset firmware:730, channels:156, sampling rate:eeg_128;pm_0.1;pow_8, samples:4037      , version:2.2, 
Timestamp,OriginalTimestamp,EEG.Counter,EEG.Interpolated,EEG.AF3,EEG.F7,EEG.F3,EEG.FC5,EEG.T7,EEG.P7,EEG.O1,EEG.O2,EEG.P8,EEG.T8,EEG.FC6,EEG.F4,EEG.F8,EEG.AF4,EEG.RawCq,EEG.Battery,EEG.BatteryPercent,MarkerIndex,MarkerType,MarkerValueInt,EEG.MarkerHardware,CQ.AF3,CQ.F7,CQ.F3,CQ.FC5,CQ.T7,CQ.P7,CQ.O1,CQ.O2,CQ.P8,CQ.T8,CQ.FC6,CQ.F4,CQ.F8,CQ.AF4,CQ.Overall,EQ.SampleRateQuality,EQ.OVERALL,EQ.AF3,EQ.F7,EQ.F3,EQ.FC5,EQ.T7,EQ.P7,EQ.O1,EQ.O2,EQ.P8,EQ.T8,EQ.FC6,EQ.F4,EQ.F8,EQ.AF4,PM.Attention.IsActive,PM.Attention.Scaled,PM.Attention.Raw,PM.Attention.Min,PM.Attention.Max,PM.Engagement.IsActive,PM.Engagement.Scaled,PM.Engagement.Raw,PM.Engagement.Min,PM.Engagement.Max,PM.Excitement.IsActive,PM.Excitement.Scaled,PM.Excitement.Raw,PM.Excitement.Min,PM.Excitement.Max,PM.LongTermExcitement,PM.Stress.IsActive,PM.Stress.Scaled,PM.Stress.Raw,PM.Stress.Min,PM.Stress.Max,PM.Relaxation.IsActive,PM.Relaxation.Scaled,PM.Relaxation.Raw,PM.Relaxation.Min,PM.Relaxation.Max,PM.Interest.IsActive,PM.Interest.Scaled,PM.Interest.Raw,PM.Interest.Min,PM.Interest.Max,POW.AF3.Theta,POW.AF3.Alpha,POW.AF3.BetaL,POW.AF3.BetaH,POW.AF3.Gamma,POW.F7.Theta,POW.F7.Alpha,POW.F7.BetaL,POW.F7.BetaH,POW.F7.Gamma,POW.F3.Theta,POW.F3.Alpha,POW.F3.BetaL,POW.F3.BetaH,POW.F3.Gamma,POW.FC5.Theta,POW.FC5.Alpha,POW.FC5.BetaL,POW.FC5.BetaH,POW.FC5.Gamma,POW.T7.Theta,POW.T7.Alpha,POW.T7.BetaL,POW.T7.BetaH,POW.T7.Gamma,POW.P7.Theta,POW.P7.Alpha,POW.P7.BetaL,POW.P7.BetaH,POW.P7.Gamma,POW.O1.Theta,POW.O1.Alpha,POW.O1.BetaL,POW.O1.BetaH,POW.O1.Gamma,POW.O2.Theta,POW.O2.Alpha,POW.O2.BetaL,POW.O2.BetaH,POW.O2.Gamma,POW.P8.Theta,POW.P8.Alpha,POW.P8.BetaL,POW.P8.BetaH,POW.P8.Gamma,POW.T8.Theta,POW.T8.Alpha,POW.T8.BetaL,POW.T8.BetaH,POW.T8.Gamma,POW.FC6.Theta,POW.FC6.Alpha,POW.FC6.BetaL,POW.FC6.BetaH,POW.FC6.Gamma,POW.F4.Theta,POW.F4.Alpha,POW.F4.BetaL,POW.F4.BetaH,POW.F4.Gamma,POW.F8.Theta,POW.F8.Alpha,POW.F8.BetaL,POW.F8.BetaH,POW.F8.Gamma,POW.AF4.Theta,POW.AF4.Alpha,POW.AF4.BetaL,POW.AF4.BetaH,POW.AF4.Gamma
1768373705.895043,1768373705.896035,101.000000,0.000000,3837.307617,4169.230957,4307.820313,4325.256348,4293.333496,4290.000000,4297.820313,4352.179688,4198.717773,4262.820313,4397.436035,4491.282227,4050.641113,3280.128174,5380.000000,1.000000,30.000000,,,,0.000000,4.000000,4.000000,4.000000,4.000000,4.000000,4.000000,4.000000,4.000000,4.000000,4.000000,4.000000,4.000000,4.000000,4.000000,100.000000,,,,,,,,,,,,,,,,,,,,,,,,,,,,,,,,,,,,,,,,,,,,,,,,,,,,,,,,,,,,,,,,,,,,,,,,,,,,,,,,,,,,,,,,,,,,,,,,,,,,,,,,,,,,,,,,,,,,,
1768373705.902851,1768373705.903943,102.000000,0.000000,3841.794922,4168.717773,4309.230957,4324.358887,4278.077148,4289.743652,4297.307617,4353.333496,4204.615234,4265.512695,4404.102539,4502.948730,4045.384521,3290.256348,4445.000000,1.000000,30.000000,,,,0.000000,4.000000,4.000000,4.000000,4.000000,4.000000,4.000000,4.000000,4.000000,4.000000,4.000000,4.000000,4.000000,4.000000,4.000000,100.000000,,,,,,,,,,,,,,,,,,,,,,,,,,,,,,,,,,,,,,,,,,,,,,,,,,,,,,,,,,,,,,,,,,,,,,,,,,,,,,,,,,,,,,,,,,,,,,,,,,,,,,,,,,,,,,,,,,,,,
1768373705.910660,1768373705.911752,103.000000,0.000000,3848.974365,4171.794922,4311.922852,4326.282227,4283.846191,4293.974121,4296.794922,4351.794922,4204.615234,4277.692383,4400.769043,4502.820313,4046.281982,3301.794922,4864.000000,1.000000,30.000000,,,,0.000000,4.000000,4.000000,4.000000,4.000000,4.000000,4.000000,4.000000,4.000000,4.000000,4.000000,4.000000,4.000000,4.000000,4.000000,100.000000,,,,,,,,,,,,,,,,,,,,,,,,,,,,,,,,,,,,,,,,,,,,,,,,,,,,,,,,,,,,,,,,,,,,,,,,,,,,,,,,,,,,,,,,,,,,,,,,,,,,,,,,,,,,,,,,,,,,,
1768373705.918468,1768373705.919760,104.000000,0.000000,3851.281982,4169.358887,4312.820313,4324.102539,4293.205078,4285.897461,4296.153809,4353.589844,4205.256348,4278.333496,4398.717773,4497.563965,4051.923096,3297.179443,5016.000000,1.000000,30.000000,,,,0.000000,4.000000,4.000000,4.000000,4.000000,4.000000,4.000000,4.000000,4.000000,4.000000,4.000000,4.000000,4.000000,4.000000,4.000000,100.000000,,,,,,,,,,,,,,,,,,,,,,,,,,,,,,,,,,,,,,,,,,,,,,,,,,,,,,,,,,,,,,,,,,,,,,,,,,,,,,,,,,,,,,,,,,,,,,,,,,,,,,,,,,,,,,,,,,,,,
1768373705.926277,1768373705.927568,105.000000,0.000000,3846.666748,4166.025879,4311.025879,4320.897461,4294.871582,4279.871582,4294.487305,4354.102539,4205.512695,4273.077148,4401.410156,4497.436035,4047.820557,3293.205078,5380.000000,1.000000,30.000000,,,,0.000000,4.000000,4.000000,4.000000,4.000000,4.000000,4.000000,4.000000,4.000000,4.000000,4.000000,4.000000,4.000000,4.000000,4.000000,100.000000,,,,,,,,,,,,,,,,,,,,,,,,,,,,,,,,,,,,,,,,,,,,,,,,,,,,,,,,,,,,,,,,,,,,,,,,,,,,,,,,,,,,,,,,,,,,,,,,,,,,,,,,,,,,,,,,,,,,,
1768373705.934085,1768373705.935477,106.000000,0.000000,3847.692383,4167.436035,4309.743652,4320.769043,4297.307617,4286.282227,4293.589844,4352.307617,4202.179688,4274.102539,4405.128418,4505.128418,4045.769287,3304.615479,4445.000000,1.000000,30.000000,,,,0.000000,4.000000,4.000000,4.000000,4.000000,4.000000,4.000000,4.000000,4.000000,4.000000,4.000000,4.000000,4.000000,4.000000,4.000000,100.000000,,,,,,,,,,,,,,,,,,,,,,,,,,,,,,,,,,,,,,,,,,,,,,,,,,,,,,,,,,,,,,,,,,,,,,,,,,,,,,,,,,,,,,,,,,,,,,,,,,,,,,,,,,,,,,,,,,,,,
1768373705.941894,1768373705.943285,107.000000,0.000000,3850.256348,4169.615234,4308.846191,4324.102539,4287.948730,4288.589844,4295.769043,4354.102539,4201.922852,4266.153809,4405.769043,4510.000000,4055.128174,3317.948730,4864.000000,1.000000,30.000000,,,,0.000000,4.000000,4.000000,4.000000,4.000000,4.000000,4.000000,4.000000,4.000000,4.000000,4.000000,4.000000,4.000000,4.000000,4.000000,100.000000,,,,,,,,,,,,,,,,,,,,,,,,,,,,,,,,,,,,,,,,,,,,,,,,,,,,,,,,,,,,,,,,,,,,,,,,,,,,,,,,,,,,,,,,,,,,,,,,,,,,,,,,,,,,,,,,,,,,,
1768373705.949702,1768373705.951294,108.000000,0.000000,3854.743652,4171.025879,4308.461426,4326.410156,4280.000000,4286.153809,4296.922852,4350.769043,4200.769043,4261.025879,4403.589844,4501.282227,4054.358887,3312.692383,5016.000000,1.000000,30.000000,,,,0.000000,4.000000,4.000000,4.000000,4.000000,4.000000,4.000000,4.000000,4.000000,4.000000,4.000000,4.000000,4.000000,4.000000,4.000000,100.000000,,,,,,,,,,,,,,,,,,,,,,,,,,,,,,,,,,,,,,,,,,,,,,,,,,,,,,,,,,,,,,,,,,,,,,,,,,,,,,,,,,,,,,,,,,,,,,,,,,,,,,,,,,,,,,,,,,,,,
1768373705.957511,1768373705.959102,109.000000,0.000000,3862.051270,4170.769043,4307.307617,4326.153809,4296.666504,4288.077148,4294.615234,4342.692383,4196.666504,4270.641113,4397.051270,4493.461426,4048.076904,3296.794922,5380.000000,1.000000,30.000000,,,,0.000000,4.000000,4.000000,4.000000,4.000000,4.000000,4.000000,4.000000,4.000000,4.000000,4.000000,4.000000,4.000000,4.000000,4.000000,100.000000,,,,,,,,,,,,,,,,,,,,,,,,,,,,,,,,,,,,,,,,,,,,,,,,,,,,,,,,,,,,,,,,,,,,,,,,,,,,,,,,,,,,,,,,,,,,,,,,,,,,,,,,,,,,,,,,,,,,,
1768373705.965319,1768373705.966811,110.000000,0.000000,3863.205078,4172.948730,4302.179688,4325.897461,4305.256348,4288.717773,4291.794922,4346.794922,4197.692383,4276.666504,4395.384766,4494.871582,4056.153809,3306.410156,4445.000000,1.000000,30.000000,,,,0.000000,4.000000,4.000000,4.000000,4.000000,4.000000,4.000000,4.000000,4.000000,4.000000,4.000000,4.000000,4.000000,4.000000,4.000000,100.000000,,,,,,,,,,,,,,,,,,,,,,,,,,,,,,,,,,,,,,,,,,,,,,,,5.757627,0.772175,0.140162,0.444617,0.377486,1.552693,0.676797,0.179490,0.184950,0.199682,2.768853,0.392418,0.366459,0.366238,0.155461,1.145516,0.303744,0.068080,0.160689,0.134745,0.710872,0.100754,0.274674,0.281175,0.209473,0.487694,0.695410,0.305012,0.267342,0.206947,0.276857,1.395993,0.681176,0.473860,0.235592,0.784658,0.999633,0.413487,0.453591,0.310262,0.545782,0.955827,0.371855,0.310100,0.268875,1.040834,0.596137,0.580509,0.333317,0.374196,2.329157,0.901349,0.193011,0.411323,0.806099,2.006809,0.526843,0.173682,0.479845,0.790260,1.768227,1.567222,0.189156,0.614381,0.788240,4.303098,1.557881,0.243793,1.363202,1.455317
1768373705.973127,1768373705.974619,111.000000,0.000000,3861.538574,4178.846191,4301.025879,4330.769043,4292.563965,4286.538574,4294.615234,4357.307617,4204.358887,4276.410156,4409.615234,4496.794922,4065.256348,3331.153809,4864.000000,1.000000,30.000000,,,,0.000000,4.000000,4.000000,4.000000,4.000000,4.000000,4.000000,4.000000,4.000000,4.000000,4.000000,4.000000,4.000000,4.000000,4.000000,100.000000,,,,,,,,,,,,,,,,,,,,,,,,,,,,,,,,,,,,,,,,,,,,,,,,,,,,,,,,,,,,,,,,,,,,,,,,,,,,,,,,,,,,,,,,,,,,,,,,,,,,,,,,,,,,,,,,,,,,,
1768373705.980936,1768373705.982627,112.000000,0.000000,3860.512939,4183.205078,4306.538574,4332.692383,4293.974121,4290.256348,4297.948730,4350.769043,4202.948730,4270.769043,4417.692383,4497.820313,4060.384521,3337.948730,5016.000000,1.000000,30.000000,,,,0.000000,4.000000,4.000000,4.000000,4.000000,4.000000,4.000000,4.000000,4.000000,4.000000,4.000000,4.000000,4.000000,4.000000,4.000000,100.000000,,,,,,,,,,,,,,,,,,,,,,,,,,,,,,,,,,,,,,,,,,,,,,,,,,,,,,,,,,,,,,,,,,,,,,,,,,,,,,,,,,,,,,,,,,,,,,,,,,,,,,,,,,,,,,,,,,,,,
1768373705.988744,1768373705.990436,113.000000,0.000000,3860.897461,4183.589844,4307.179688,4330.384766,4301.153809,4291.922852,4294.487305,4341.282227,4197.436035,4266.153809,4408.846191,4495.769043,4057.051270,3331.666748,5380.000000,1.000000,30.000000,,,,0.000000,4.000000,4.000000,4.000000,4.000000,4.000000,4.000000,4.000000,4.000000,4.000000,4.000000,4.000000,4.000000,4.000000,4.000000,100.000000,,,,,,,,,,,,,,,,,,,,,,,,,,,,,,,,,,,,,,,,,,,,,,,,,,,,,,,,,,,,,,,,,,,,,,,,,,,,,,,,,,,,,,,,,,,,,,,,,,,,,,,,,,,,,,,,,,,,,
1768373705.996553,1768373705.998344,114.000000,0.000000,3871.666748,4183.717773,4303.461426,4332.307617,4295.000000,4292.179688,4295.897461,4350.769043,4206.794922,4282.179688,4411.666504,4496.282227,4068.333252,3329.871826,4445.000000,1.000000,30.000000,,,,0.000000,4.000000,4.000000,4.000000,4.000000,4.000000,4.000000,4.000000,4.000000,4.000000,4.000000,4.000000,4.000000,4.000000,4.000000,100.000000,,,,,,,,,,,,,,,,,,,,,,,,,,,,,,,,,,,,,,,,,,,,,,,,,,,,,,,,,,,,,,,,,,,,,,,,,,,,,,,,,,,,,,,,,,,,,,,,,,,,,,,,,,,,,,,,,,,,,
1768373706.004361,1768373706.006152,115.000000,0.000000,3885.000000,4184.487305,4305.000000,4331.794922,4293.333496,4295.000000,4302.051270,4357.948730,4213.846191,4295.384766,4430.000000,4503.974121,4080.128174,3338.974365,4864.000000,1.000000,30.000000,,,,0.000000,4.000000,4.000000,4.000000,4.000000,4.000000,4.000000,4.000000,4.000000,4.000000,4.000000,4.000000,4.000000,4.000000,4.000000,100.000000,,,,,,,,,,,,,,,,,,,,,,,,,,,,,,,,,,,,,,,,,,,,,,,,,,,,,,,,,,,,,,,,,,,,,,,,,,,,,,,,,,,,,,,,,,,,,,,,,,,,,,,,,,,,,,,,,,,,,
1768373706.012170,1768373706.014161,116.000000,0.000000,3884.230713,4182.820313,4310.256348,4327.820313,4298.461426,4288.333496,4298.077148,4347.307617,4204.615234,4278.717773,4427.948730,4504.743652,4078.461426,3356.153809,5016.000000,1.000000,30.000000,,,,0.000000,4.000000,4.000000,4.000000,4.000000,4.000000,4.000000,4.000000,4.000000,4.000000,4.000000,4.000000,4.000000,4.000000,4.000000,100.000000,,,,,,,,,,,,,,,,,,,,,,,,,,,,,,,,,,,,,,,,,,,,,,,,,,,,,,,,,,,,,,,,,,,,,,,,,,,,,,,,,,,,,,,,,,,,,,,,,,,,,,,,,,,,,,,,,,,,,
1768373706.019978,1768373706.021969,117.000000,0.000000,3875.512939,4182.563965,4308.717773,4327.692383,4295.384766,4282.820313,4290.256348,4340.256348,4203.717773,4271.538574,4411.025879,4495.000000,4072.564209,3371.025635,5380.000000,1.000000,30.000000,,,,0.000000,4.000000,4.000000,4.000000,4.000000,4.000000,4.000000,4.000000,4.000000,4.000000,4.000000,4.000000,4.000000,4.000000,4.000000,100.000000,,,,,,,,,,,,,,,,,,,,,,,,,,,,,,,,,,,,,,,,,,,,,,,,,,,,,,,,,,,,,,,,,,,,,,,,,,,,,,,,,,,,,,,,,,,,,,,,,,,,,,,,,,,,,,,,,,,,,
1768373706.027787,1768373706.029678,118.000000,0.000000,3879.230713,4186.025879,4300.769043,4331.025879,4289.615234,4291.153809,4293.461426,4344.615234,4215.641113,4282.948730,4412.436035,4493.846191,4072.692383,3363.461426,4445.000000,1.000000,30.000000,,,,0.000000,4.000000,4.000000,4.000000,4.000000,4.000000,4.000000,4.000000,4.000000,4.000000,4.000000,4.000000,4.000000,4.000000,4.000000,100.000000,,,,,,,,,,,,,,,,,,,,,,,,,,,,,,,,,,,,,,,,,,,,,,,,,,,,,,,,,,,,,,,,,,,,,,,,,,,,,,,,,,,,,,,,,,,,,,,,,,,,,,,,,,,,,,,,,,,,,
1768373706.035595,1768373706.037486,119.000000,0.000000,3892.435791,4186.666504,4299.230957,4331.922852,4292.307617,4292.692383,4294.358887,4343.205078,4211.922852,4276.282227,4415.641113,4497.307617,4067.051270,3347.179443,4864.000000,1.000000,30.000000,,,,0.000000,4.000000,4.000000,4.000000,4.000000,4.000000,4.000000,4.000000,4.000000,4.000000,4.000000,4.000000,4.000000,4.000000,4.000000,100.000000,,,,,,,,,,,,,,,,,,,,,,,,,,,,,,,,,,,,,,,,,,,,,,,,,,,,,,,,,,,,,,,,,,,,,,,,,,,,,,,,,,,,,,,,,,,,,,,,,,,,,,,,,,,,,,,,,,,,,
1768373706.043404,1768373706.045095,120.000000,0.000000,3897.051270,4184.358887,4307.179688,4329.358887,4292.948730,4281.153809,4286.922852,4338.846191,4201.153809,4268.461426,4407.948730,4494.743652,4058.205078,3350.897461,5016.000000,1.000000,30.000000,,,,0.000000,4.000000,4.000000,4.000000,4.000000,4.000000,4.000000,4.000000,4.000000,4.000000,4.000000,4.000000,4.000000,4.000000,4.000000,100.000000,,,,,,,,,,,,,,,,,,,,,,,,,,,,,,,,,,,,,,,,,,,,,,,,,,,,,,,,,,,,,,,,,,,,,,,,,,,,,,,,,,,,,,,,,,,,,,,,,,,,,,,,,,,,,,,,,,,,,
1768373706.051212,1768373706.052903,121.000000,0.000000,3894.487061,4184.487305,4308.717773,4327.436035,4294.743652,4285.000000,4289.358887,4340.256348,4203.974121,4271.538574,4410.256348,4497.436035,4064.102539,3374.871826,5380.000000,1.000000,30.000000,,,,0.000000,4.000000,4.000000,4.000000,4.000000,4.000000,4.000000,4.000000,4.000000,4.000000,4.000000,4.000000,4.000000,4.000000,4.000000,100.000000,,,,,,,,,,,,,,,,,,,,,,,,,,,,,,,,,,,,,,,,,,,,,,,,,,,,,,,,,,,,,,,,,,,,,,,,,,,,,,,,,,,,,,,,,,,,,,,,,,,,,,,,,,,,,,,,,,,,,
1768373706.059020,1768373706.060612,122.000000,0.000000,3894.743652,4184.615234,4297.307617,4327.563965,4305.897461,4298.461426,4295.769043,4339.102539,4203.333496,4266.666504,4411.922852,4495.641113,4067.564209,3383.974365,4445.000000,1.000000,30.000000,,,,0.000000,4.000000,4.000000,4.000000,4.000000,4.000000,4.000000,4.000000,4.000000,4.000000,4.000000,4.000000,4.000000,4.000000,4.000000,100.000000,,,,,,,,,,,,,,,,,,,,,,,,,,,,,,,,,,,,,,,,,,,,,,,,,,,,,,,,,,,,,,,,,,,,,,,,,,,,,,,,,,,,,,,,,,,,,,,,,,,,,,,,,,,,,,,,,,,,,
1768373706.066829,1768373706.068420,123.000000,0.000000,3895.512939,4182.307617,4291.666504,4326.025879,4304.358887,4290.897461,4292.179688,4336.025879,4200.000000,4262.179688,4404.102539,4487.179688,4061.666748,3370.128174,4864.000000,1.000000,30.000000,,,,0.000000,4.000000,4.000000,4.000000,4.000000,4.000000,4.000000,4.000000,4.000000,4.000000,4.000000,4.000000,4.000000,4.000000,4.000000,100.000000,,,,,,,,,,,,,,,,,,,,,,,,,,,,,,,,,,,,,,,,,,,,,,,,,,,,,,,,,,,,,,,,,,,,,,,,,,,,,,,,,,,,,,,,,,,,,,,,,,,,,,,,,,,,,,,,,,,,,
1768373706.074637,1768373706.076029,124.000000,0.000000,3898.333252,4183.589844,4301.410156,4327.563965,4290.641113,4277.820313,4287.307617,4336.922852,4207.948730,4272.307617,4413.333496,4493.589844,4069.230713,3379.615479,5016.000000,1.000000,30.000000,,,,0.000000,4.000000,4.000000,4.000000,4.000000,4.000000,4.000000,4.000000,4.000000,4.000000,4.000000,4.000000,4.000000,4.000000,4.000000,100.000000,,,,,,,,,,,,,,,,,,,,,,,,,,,,,,,,,,,,,,,,,,,,,,,,,,,,,,,,,,,,,,,,,,,,,,,,,,,,,,,,,,,,,,,,,,,,,,,,,,,,,,,,,,,,,,,,,,,,,
1768373706.082446,1768373706.083837,125.000000,0.000000,3906.281982,4185.641113,4311.282227,4334.615234,4290.512695,4285.000000,4290.128418,4340.769043,4214.102539,4278.461426,4429.871582,4505.897461,4079.615479,3398.846191,5380.000000,1.000000,30.000000,,,,0.000000,4.000000,4.000000,4.000000,4.000000,4.000000,4.000000,4.000000,4.000000,4.000000,4.000000,4.000000,4.000000,4.000000,4.000000,100.000000,,,,,,,,,,,,,,,,,,,,,,,,,,,,,,,,,,,,,,,,,,,,,,,,,,,,,,,,,,,,,,,,,,,,,,,,,,,,,,,,,,,,,,,,,,,,,,,,,,,,,,,,,,,,,,,,,,,,,
1768373706.090254,1768373706.091546,126.000000,0.000000,3913.589844,4191.538574,4311.538574,4336.794922,4298.461426,4295.384766,4291.794922,4341.282227,4213.717773,4276.025879,4429.102539,4503.077148,4076.538574,3398.718018,4445.000000,1.000000,30.000000,,,,0.000000,4.000000,4.000000,4.000000,4.000000,4.000000,4.000000,4.000000,4.000000,4.000000,4.000000,4.000000,4.000000,4.000000,4.000000,100.000000,,,,,,,,,,,,,,,,,,,,,,,,,,,,,,,,,,,,,,,,,,,,,,,,7.334847,0.782617,0.133378,0.422660,0.344152,1.717743,0.642693,0.166105,0.184225,0.200800,2.400370,0.328379,0.280894,0.312403,0.136199,1.160452,0.282966,0.087780,0.150027,0.126369,0.659560,0.102556,0.235961,0.271836,0.212421,0.422792,0.778476,0.428720,0.231949,0.180701,0.266374,1.461593,0.763236,0.430905,0.202528,1.104956,1.379694,0.563470,0.444164,0.286942,0.594831,1.219792,0.516904,0.304855,0.239831,0.981600,0.551953,0.582040,0.371461,0.348146,2.037722,0.840708,0.189975,0.433001,0.718015,2.310404,0.529709,0.165359,0.448745,0.721084,1.613719,1.542134,0.178259,0.623717,0.757405,5.765452,1.496150,0.283914,1.406080,1.404207
1768373706.098062,1768373706.099354,127.000000,0.000000,3922.948730,4198.077148,4308.846191,4335.384766,4292.436035,4290.128418,4290.128418,4339.102539,4217.051270,4283.846191,4427.051270,4501.410156,4080.769287,3407.307617,30.000000,1.000000,30.000000,,,,0.000000,4.000000,4.000000,4.000000,4.000000,4.000000,4.000000,4.000000,4.000000,4.000000,4.000000,4.000000,4.000000,4.000000,4.000000,100.000000,,,,,,,,,,,,,,,,,,,,,,,,,,,,,,,,,,,,,,,,,,,,,,,,,,,,,,,,,,,,,,,,,,,,,,,,,,,,,,,,,,,,,,,,,,,,,,,,,,,,,,,,,,,,,,,,,,,,,
1768373706.105871,1768373706.107363,0.000000,0.000000,3932.435791,4192.179688,4310.384766,4336.025879,4288.974121,4287.692383,4293.333496,4342.307617,4219.615234,4289.615234,4437.051270,4508.974121,4093.589844,3426.153809,4069.000000,1.000000,30.000000,,,,0.000000,4.000000,4.000000,4.000000,4.000000,4.000000,4.000000,4.000000,4.000000,4.000000,4.000000,4.000000,4.000000,4.000000,4.000000,100.000000,,,,,,,,,,,,,,,,,,,,,,,,,,,,,,,,,,,,,,,,,,,,,,,,,,,,,,,,,,,,,,,,,,,,,,,,,,,,,,,,,,,,,,,,,,,,,,,,,,,,,,,,,,,,,,,,,,,,,
1768373706.113679,1768373706.115171,1.000000,0.000000,3926.666748,4187.692383,4316.538574,4336.538574,4299.102539,4295.512695,4297.436035,4346.922852,4221.538574,4282.692383,4443.333496,4513.974121,4096.025879,3429.102539,3987.000000,1.000000,30.000000,,,,0.000000,4.000000,4.000000,4.000000,4.000000,4.000000,4.000000,4.000000,4.000000,4.000000,4.000000,4.000000,4.000000,4.000000,4.000000,100.000000,,,,,,,,,,,,,,,,,,,,,,,,,,,,,,,,,,,,,,,,,,,,,,,,,,,,,,,,,,,,,,,,,,,,,,,,,,,,,,,,,,,,,,,,,,,,,,,,,,,,,,,,,,,,,,,,,,,,,
1768373706.121488,1768373706.123079,2.000000,0.000000,3925.000000,4198.461426,4320.512695,4341.282227,4304.615234,4295.256348,4296.794922,4344.871582,4226.410156,4280.512695,4443.205078,4519.871582,4094.743652,3430.641113,3934.000000,1.000000,30.000000,,,,0.000000,4.000000,4.000000,4.000000,4.000000,4.000000,4.000000,4.000000,4.000000,4.000000,4.000000,4.000000,4.000000,4.000000,4.000000,100.000000,,,,,,,,,,,,,,,,,,,,,,,,,,,,,,,,,,,,,,,,,,,,,,,,,,,,,,,,,,,,,,,,,,,,,,,,,,,,,,,,,,,,,,,,,,,,,,,,,,,,,,,,,,,,,,,,,,,,,
1768373706.129296,1768373706.130888,3.000000,0.000000,3938.589844,4203.974121,4315.128418,4344.615234,4297.948730,4286.666504,4293.717773,4340.384766,4224.230957,4285.256348,4444.743652,4520.641113,4092.820557,3443.205078,3896.000000,1.000000,30.000000,,,,0.000000,4.000000,4.000000,4.000000,4.000000,4.000000,4.000000,4.000000,4.000000,4.000000,4.000000,4.000000,4.000000,4.000000,4.000000,100.000000,,,,,,,,,,,,,,,,,,,,,,,,,,,,,,,,,,,,,,,,,,,,,,,,,,,,,,,,,,,,,,,,,,,,,,,,,,,,,,,,,,,,,,,,,,,,,,,,,,,,,,,,,,,,,,,,,,,,,
1768373706.137105,1768373706.138896,4.000000,0.000000,3935.897461,4195.512695,4307.307617,4340.256348,4290.897461,4291.282227,4295.384766,4340.000000,4220.128418,4289.230957,4439.743652,4508.333496,4088.333252,3445.000000,3832.000000,1.000000,30.000000,,,,0.000000,4.000000,4.000000,4.000000,4.000000,4.000000,4.000000,4.000000,4.000000,4.000000,4.000000,4.000000,4.000000,4.000000,4.000000,100.000000,,,,,,,,,,,,,,,,,,,,,,,,,,,,,,,,,,,,,,,,,,,,,,,,,,,,,,,,,,,,,,,,,,,,,,,,,,,,,,,,,,,,,,,,,,,,,,,,,,,,,,,,,,,,,,,,,,,,,
1768373706.144913,1768373706.146704,5.000000,0.000000,3925.769287,4193.974121,4308.974121,4340.128418,4294.871582,4296.666504,4298.589844,4341.153809,4227.563965,4290.897461,4436.153809,4500.256348,4092.179443,3444.871826,3752.000000,1.000000,30.000000,,,,0.000000,4.000000,4.000000,4.000000,4.000000,4.000000,4.000000,4.000000,4.000000,4.000000,4.000000,4.000000,4.000000,4.000000,4.000000,100.000000,,,,,,,,,,,,,,,,,,,,,,,,,,,,,,,,,,,,,,,,,,,,,,,,,,,,,,,,,,,,,,,,,,,,,,,,,,,,,,,,,,,,,,,,,,,,,,,,,,,,,,,,,,,,,,,,,,,,,
1768373706.152722,1768373706.154413,6.000000,0.000000,3936.923096,4199.230957,4312.307617,4343.717773,4294.102539,4284.487305,4292.563965,4336.282227,4227.948730,4284.230957,4437.692383,4506.538574,4094.743652,3447.179443,3764.000000,1.000000,30.000000,,,,0.000000,4.000000,4.000000,4.000000,4.000000,4.000000,4.000000,4.000000,4.000000,4.000000,4.000000,4.000000,4.000000,4.000000,4.000000,100.000000,,,,,,,,,,,,,,,,,,,,,,,,,,,,,,,,,,,,,,,,,,,,,,,,,,,,,,,,,,,,,,,,,,,,,,,,,,,,,,,,,,,,,,,,,,,,,,,,,,,,,,,,,,,,,,,,,,,,,
1768373706.160530,1768373706.162221,7.000000,0.000000,3947.051270,4199.615234,4308.974121,4343.333496,4289.743652,4278.333496,4285.769043,4332.820313,4218.205078,4274.487305,4432.563965,4508.846191,4090.769287,3443.846191,3598.000000,1.000000,30.000000,,,,0.000000,4.000000,4.000000,4.000000,4.000000,4.000000,4.000000,4.000000,4.000000,4.000000,4.000000,4.000000,4.000000,4.000000,4.000000,100.000000,,,,,,,,,,,,,,,,,,,,,,,,,,,,,,,,,,,,,,,,,,,,,,,,,,,,,,,,,,,,,,,,,,,,,,,,,,,,,,,,,,,,,,,,,,,,,,,,,,,,,,,,,,,,,,,,,,,,,
1768373706.168338,1768373706.169830,8.000000,0.000000,3940.256348,4198.333496,4306.922852,4342.820313,4302.307617,4288.205078,4290.256348,4337.948730,4218.205078,4274.743652,4429.230957,4499.358887,4090.897461,3453.076904,3967.000000,1.000000,30.000000,,,,0.000000,4.000000,4.000000,4.000000,4.000000,4.000000,4.000000,4.000000,4.000000,4.000000,4.000000,4.000000,4.000000,4.000000,4.000000,100.000000,,,,,,,,,,,,,,,,,,,,,,,,,,,,,,,,,,,,,,,,,,,,,,,,,,,,,,,,,,,,,,,,,,,,,,,,,,,,,,,,,,,,,,,,,,,,,,,,,,,,,,,,,,,,,,,,,,,,,
1768373706.176147,1768373706.177639,9.000000,0.000000,3943.205078,4198.717773,4309.230957,4342.436035,4314.358887,4292.436035,4295.000000,4338.461426,4218.846191,4279.358887,4435.512695,4494.487305,4091.281982,3462.051270,3947.000000,1.000000,30.000000,,,,0.000000,4.000000,4.000000,4.000000,4.000000,4.000000,4.000000,4.000000,4.000000,4.000000,4.000000,4.000000,4.000000,4.000000,4.000000,100.000000,,,,,,,,,,,,,,,,,,,,,,,,,,,,,,,,,,,,,,,,,,,,,,,,,,,,,,,,,,,,,,,,,,,,,,,,,,,,,,,,,,,,,,,,,,,,,,,,,,,,,,,,,,,,,,,,,,,,,
1768373706.183955,1768373706.185547,10.000000,0.000000,3955.641113,4200.512695,4309.230957,4341.922852,4304.871582,4286.153809,4291.282227,4331.282227,4215.897461,4282.692383,4435.128418,4498.461426,4093.974365,3462.307617,4442.000000,1.000000,30.000000,,,,0.000000,4.000000,4.000000,4.000000,4.000000,4.000000,4.000000,4.000000,4.000000,4.000000,4.000000,4.000000,4.000000,4.000000,4.000000,100.000000,,,,,,,,,,,,,,,,,,,,,,,,,,,,,,,,,,,,,,,,,,,,,,,,,,,,,,,,,,,,,,,,,,,,,,,,,,,,,,,,,,,,,,,,,,,,,,,,,,,,,,,,,,,,,,,,,,,,,
1768373706.191764,1768373706.193355,11.000000,0.000000,3956.153809,4199.871582,4306.538574,4341.153809,4292.436035,4289.358887,4291.025879,4332.563965,4223.589844,4281.153809,4436.282227,4504.102539,4102.179688,3469.102539,4794.000000,1.000000,30.000000,,,,0.000000,4.000000,4.000000,4.000000,4.000000,4.000000,4.000000,4.000000,4.000000,4.000000,4.000000,4.000000,4.000000,4.000000,4.000000,100.000000,,,,,,,,,,,,,,,,,,,,,,,,,,,,,,,,,,,,,,,,,,,,,,,,,,,,,,,,,,,,,,,,,,,,,,,,,,,,,,,,,,,,,,,,,,,,,,,,,,,,,,,,,,,,,,,,,,,,,
1768373706.199572,1768373706.201364,12.000000,0.000000,3954.871826,4198.717773,4308.461426,4341.410156,4293.974121,4296.922852,4296.410156,4340.641113,4233.333496,4277.307617,4452.820313,4512.179688,4107.948730,3476.410156,5021.000000,1.000000,30.000000,,,,0.000000,4.000000,4.000000,4.000000,4.000000,4.000000,4.000000,4.000000,4.000000,4.000000,4.000000,4.000000,4.000000,4.000000,4.000000,100.000000,,,,,,,,,,,,,,,,,,,,,,,,,,,,,,,,,,,,,,,,,,,,,,,,,,,,,,,,,,,,,,,,,,,,,,,,,,,,,,,,,,,,,,,,,,,,,,,,,,,,,,,,,,,,,,,,,,,,,
1768373706.207381,1768373706.209172,13.000000,0.000000,3957.435791,4200.769043,4311.538574,4343.077148,4302.307617,4296.410156,4296.282227,4339.358887,4231.153809,4283.846191,4455.769043,4515.769043,4106.153809,3482.051270,5374.000000,1.000000,30.000000,,,,0.000000,4.000000,4.000000,4.000000,4.000000,4.000000,4.000000,4.000000,4.000000,4.000000,4.000000,4.000000,4.000000,4.000000,4.000000,100.000000,,,,,,,,,,,,,,,,,,,,,,,,,,,,,,,,,,,,,,,,,,,,,,,,,,,,,,,,,,,,,,,,,,,,,,,,,,,,,,,,,,,,,,,,,,,,,,,,,,,,,,,,,,,,,,,,,,,,,
1768373706.215189,1768373706.216881,14.000000,0.000000,3961.281982,4201.282227,4310.769043,4343.461426,4306.922852,4293.333496,4293.717773,4335.128418,4226.410156,4286.794922,4444.487305,4512.179688,4106.153809,3493.589844,4442.000000,1.000000,30.000000,,,,0.000000,4.000000,4.000000,4.000000,4.000000,4.000000,4.000000,4.000000,4.000000,4.000000,4.000000,4.000000,4.000000,4.000000,4.000000,100.000000,1.000000,25.000000,1.000000,3.000000,3.000000,4.000000,4.000000,4.000000,4.000000,4.000000,4.000000,4.000000,4.000000,4.000000,1.000000,1.000000,,,,,,,,,,,,,,,,,,,,,,,,,,,,,,,,8.101716,0.746331,0.137823,0.405667,0.315545,1.825137,0.624256,0.172906,0.178862,0.194620,2.005170,0.273356,0.202813,0.259271,0.114553,1.145921,0.271486,0.115544,0.137601,0.119360,0.562460,0.098936,0.192449,0.268056,0.227580,0.351803,0.801548,0.563094,0.187850,0.158898,0.256093,1.404308,0.819732,0.368966,0.167710,1.377767,1.696845,0.722366,0.403941,0.257912,0.644106,1.427158,0.673094,0.287308,0.213752,0.884395,0.512176,0.530799,0.439543,0.322668,1.782055,0.757181,0.217867,0.455602,0.626528,2.499094,0.517711,0.154778,0.428626,0.628794,1.486075,1.475393,0.220833,0.622136,0.704513,6.387407,1.399043,0.353070,1.397131,1.343094
1768373706.222998,1768373706.224689,15.000000,0.000000,3971.281982,4199.871582,4310.256348,4342.820313,4303.077148,4297.179688,4297.436035,4337.563965,4231.666504,4278.205078,4440.256348,4511.922852,4104.358887,3496.538574,4794.000000,1.000000,30.000000,,,,0.000000,4.000000,4.000000,4.000000,4.000000,4.000000,4.000000,4.000000,4.000000,4.000000,4.000000,4.000000,4.000000,4.000000,4.000000,100.000000,,,,,,,,,,,,,,,,,,,,,,,,,,,,,,,,,,,,,,,,,,,,,,,,,,,,,,,,,,,,,,,,,,,,,,,,,,,,,,,,,,,,,,,,,,,,,,,,,,,,,,,,,,,,,,,,,,,,,
1768373706.230806,1768373706.232298,16.000000,0.000000,3976.410156,4201.025879,4309.743652,4343.077148,4295.256348,4297.436035,4297.436035,4338.717773,4236.410156,4284.487305,4446.025879,4512.051270,4104.615234,3491.666748,0.000000,1.000000,30.000000,,,,0.000000,4.000000,4.000000,4.000000,4.000000,4.000000,4.000000,4.000000,4.000000,4.000000,4.000000,4.000000,4.000000,4.000000,4.000000,100.000000,,,,,,,,,,,,,,,,,,,,,,,,,,,,,,,,,,,,,,,,,,,,,,,,,,,,,,,,,,,,,,,,,,,,,,,,,,,,,,,,,,,,,,,,,,,,,,,,,,,,,,,,,,,,,,,,,,,,,
1768373706.238614,1768373706.240106,17.000000,0.000000,3973.333252,4201.025879,4310.128418,4342.051270,4294.102539,4285.128418,4290.512695,4332.051270,4234.102539,4296.410156,4453.077148,4507.179688,4112.307617,3503.076904,0.000000,1.000000,30.000000,,,,0.000000,4.000000,4.000000,4.000000,4.000000,4.000000,4.000000,4.000000,4.000000,4.000000,4.000000,4.000000,4.000000,4.000000,4.000000,100.000000,,,,,,,,,,,,,,,,,,,,,,,,,,,,,,,,,,,,,,,,,,,,,,,,,,,,,,,,,,,,,,,,,,,,,,,,,,,,,,,,,,,,,,,,,,,,,,,,,,,,,,,,,,,,,,,,,,,,,
1768373706.246423,1768373706.247815,18.000000,0.000000,3980.897461,4201.153809,4308.461426,4343.846191,4300.000000,4286.153809,4292.051270,4328.589844,4230.384766,4285.897461,4450.128418,4502.948730,4113.461426,3513.076904,0.000000,1.000000,30.000000,,,,0.000000,4.000000,4.000000,4.000000,4.000000,4.000000,4.000000,4.000000,4.000000,4.000000,4.000000,4.000000,4.000000,4.000000,4.000000,100.000000,,,,,,,,,,,,,,,,,,,,,,,,,,,,,,,,,,,,,,,,,,,,,,,,,,,,,,,,,,,,,,,,,,,,,,,,,,,,,,,,,,,,,,,,,,,,,,,,,,,,,,,,,,,,,,,,,,,,,
1768373706.254231,1768373706.255623,19.000000,0.000000,3989.615479,4199.487305,4300.512695,4342.563965,4295.384766,4296.025879,4297.692383,4335.641113,4232.051270,4272.820313,4441.922852,4500.641113,4106.794922,3502.051270,0.000000,1.000000,30.000000,,,,0.000000,4.000000,4.000000,4.000000,4.000000,4.000000,4.000000,4.000000,4.000000,4.000000,4.000000,4.000000,4.000000,4.000000,4.000000,100.000000,,,,,,,,,,,,,,,,,,,,,,,,,,,,,,,,,,,,,,,,,,,,,,,,,,,,,,,,,,,,,,,,,,,,,,,,,,,,,,,,,,,,,,,,,,,,,,,,,,,,,,,,,,,,,,,,,,,,,
1768373706.262040,1768373706.263232,20.000000,0.000000,3985.641113,4190.256348,4291.282227,4329.102539,4281.922852,4287.307617,4294.871582,4336.794922,4232.820313,4273.974121,4435.000000,4497.307617,4099.615234,3492.820557,0.000000,1.000000,30.000000,,,,0.000000,4.000000,4.000000,4.000000,4.000000,4.000000,4.000000,4.000000,4.000000,4.000000,4.000000,4.000000,4.000000,4.000000,4.000000,100.000000,,,,,,,,,,,,,,,,,,,,,,,,,,,,,,,,,,,,,,,,,,,,,,,,,,,,,,,,,,,,,,,,,,,,,,,,,,,,,,,,,,,,,,,,,,,,,,,,,,,,,,,,,,,,,,,,,,,,,
1768373706.269848,1768373706.271040,21.000000,0.000000,3985.384521,4187.307617,4292.436035,4324.358887,4287.179688,4279.615234,4292.307617,4330.128418,4231.153809,4282.948730,4434.871582,4500.384766,4095.384521,3496.666748,0.000000,1.000000,30.000000,,,,0.000000,4.000000,4.000000,4.000000,4.000000,4.000000,4.000000,4.000000,4.000000,4.000000,4.000000,4.000000,4.000000,4.000000,4.000000,100.000000,,,,,,,,,,,,,,,,,,,,,,,,,,,,,,,,,,,,,,,,,,,,,,,,,,,,,,,,,,,,,,,,,,,,,,,,,,,,,,,,,,,,,,,,,,,,,,,,,,,,,,,,,,,,,,,,,,,,,
1768373706.277657,1768373706.278749,22.000000,0.000000,3994.743652,4197.948730,4302.179688,4339.615234,4297.820313,4289.743652,4296.282227,4330.384766,4234.487305,4295.128418,4444.487305,4510.512695,4101.666504,3513.205078,0.000000,1.000000,30.000000,,,,0.000000,4.000000,4.000000,4.000000,4.000000,4.000000,4.000000,4.000000,4.000000,4.000000,4.000000,4.000000,4.000000,4.000000,4.000000,100.000000,,,,,,,,,,,,,,,,,,,,,,,,,,,,,,,,,,,,,,,,,,,,,,,,,,,,,,,,,,,,,,,,,,,,,,,,,,,,,,,,,,,,,,,,,,,,,,,,,,,,,,,,,,,,,,,,,,,,,
1768373706.285465,1768373706.286557,23.000000,0.000000,4004.102539,4203.461426,4306.794922,4345.897461,4286.282227,4289.358887,4295.641113,4334.871582,4237.820313,4294.102539,4456.794922,4514.743652,4116.025879,3540.512939,0.000000,1.000000,30.000000,,,,0.000000,4.000000,4.000000,4.000000,4.000000,4.000000,4.000000,4.000000,4.000000,4.000000,4.000000,4.000000,4.000000,4.000000,4.000000,100.000000,,,,,,,,,,,,,,,,,,,,,,,,,,,,,,,,,,,,,,,,,,,,,,,,,,,,,,,,,,,,,,,,,,,,,,,,,,,,,,,,,,,,,,,,,,,,,,,,,,,,,,,,,,,,,,,,,,,,,
1768373706.293274,1768373706.294166,24.000000,0.000000,4009.358887,4199.358887,4304.743652,4338.205078,4281.410156,4277.948730,4291.153809,4331.794922,4242.179688,4288.333496,4462.179688,4511.282227,4123.077148,3548.205078,0.000000,1.000000,30.000000,,,,0.000000,4.000000,4.000000,4.000000,4.000000,4.000000,4.000000,4.000000,4.000000,4.000000,4.000000,4.000000,4.000000,4.000000,4.000000,100.000000,,,,,,,,,,,,,,,,,,,,,,,,,,,,,,,,,,,,,,,,,,,,,,,,,,,,,,,,,,,,,,,,,,,,,,,,,,,,,,,,,,,,,,,,,,,,,,,,,,,,,,,,,,,,,,,,,,,,,
1768373706.301082,1768373706.301974,25.000000,0.000000,4012.564209,4200.384766,4306.282227,4339.743652,4299.743652,4282.436035,4292.820313,4326.922852,4244.230957,4291.794922,4459.615234,4507.692383,4118.077148,3527.564209,0.000000,1.000000,30.000000,,,,0.000000,4.000000,4.000000,4.000000,4.000000,4.000000,4.000000,4.000000,4.000000,4.000000,4.000000,4.000000,4.000000,4.000000,4.000000,100.000000,,,,,,,,,,,,,,,,,,,,,,,,,,,,,,,,,,,,,,,,,,,,,,,,,,,,,,,,,,,,,,,,,,,,,,,,,,,,,,,,,,,,,,,,,,,,,,,,,,,,,,,,,,,,,,,,,,,,,
1768373706.308890,1768373706.309883,26.000000,0.000000,4015.128174,4203.333496,4310.769043,4344.102539,4298.846191,4287.563965,4295.128418,4323.077148,4237.820313,4286.538574,4448.461426,4505.769043,4109.102539,3523.333252,0.000000,1.000000,30.000000,,,,0.000000,4.000000,4.000000,4.000000,4.000000,4.000000,4.000000,4.000000,4.000000,4.000000,4.000000,4.000000,4.000000,4.000000,4.000000,100.000000,,,,,,,,,,,,,,,,,,,,,,,,,,,,,,,,,,,,,,,,,,,,,,,,,,,,,,,,,,,,,,,,,,,,,,,,,,,,,,,,,,,,,,,,,,,,,,,,,,,,,,,,,,,,,,,,,,,,,
1768373706.316699,1768373706.317691,27.000000,0.000000,4016.281982,4202.307617,4308.077148,4341.282227,4285.769043,4279.102539,4290.000000,4318.461426,4231.282227,4279.871582,4437.692383,4497.436035,4108.205078,3542.948730,0.000000,1.000000,30.000000,,,,0.000000,4.000000,4.000000,4.000000,4.000000,4.000000,4.000000,4.000000,4.000000,4.000000,4.000000,4.000000,4.000000,4.000000,4.000000,100.000000,,,,,,,,,,,,,,,,,,,,,,,,,,,,,,,,,,,,,,,,,,,,,,,,,,,,,,,,,,,,,,,,,,,,,,,,,,,,,,,,,,,,,,,,,,,,,,,,,,,,,,,,,,,,,,,,,,,,,
1768373706.324507,1768373706.325699,28.000000,0.000000,4016.281982,4201.538574,4304.871582,4341.922852,4291.282227,4277.948730,4286.666504,4321.538574,4235.256348,4285.769043,4451.153809,4499.615234,4112.948730,3547.564209,0.000000,1.000000,30.000000,,,,0.000000,4.000000,4.000000,4.000000,4.000000,4.000000,4.000000,4.000000,4.000000,4.000000,4.000000,4.000000,4.000000,4.000000,4.000000,100.000000,,,,,,,,,,,,,,,,,,,,,,,,,,,,,,,,,,,,,,,,,,,,,,,,,,,,,,,,,,,,,,,,,,,,,,,,,,,,,,,,,,,,,,,,,,,,,,,,,,,,,,,,,,,,,,,,,,,,,
1768373706.332316,1768373706.333508,29.000000,0.000000,4018.718018,4201.666504,4309.230957,4342.692383,4297.948730,4285.769043,4292.179688,4326.025879,4241.410156,4281.025879,4460.128418,4511.794922,4112.179688,3544.102539,0.000000,1.000000,30.000000,,,,0.000000,4.000000,4.000000,4.000000,4.000000,4.000000,4.000000,4.000000,4.000000,4.000000,4.000000,4.000000,4.000000,4.000000,4.000000,100.000000,,,,,,,,,,,,,,,,,,,,,,,,,,,,,,,,,,,,,,,,,,,,,,,,,,,,,,,,,,,,,,,,,,,,,,,,,,,,,,,,,,,,,,,,,,,,,,,,,,,,,,,,,,,,,,,,,,,,,
1768373706.340124,1768373706.341416,30.000000,0.000000,4020.384521,4201.410156,4311.282227,4339.615234,4297.820313,4284.615234,4294.615234,4323.077148,4238.205078,4274.871582,4450.000000,4510.256348,4115.897461,3552.948730,0.000000,1.000000,30.000000,,,,0.000000,4.000000,4.000000,4.000000,4.000000,4.000000,4.000000,4.000000,4.000000,4.000000,4.000000,4.000000,4.000000,4.000000,4.000000,100.000000,,,,,,,,,,,,,,,,,,,,,,,,,,,,,,,,,,,,,,,,,,,,,,,,7.915749,0.676756,0.147537,0.393387,0.292011,1.786687,0.615541,0.183941,0.168890,0.181685,1.565828,0.233942,0.145586,0.215603,0.095243,1.096630,0.271911,0.139575,0.127307,0.114182,0.411509,0.098313,0.155661,0.287018,0.255941,0.288507,0.757096,0.674119,0.144402,0.147651,0.237083,1.227857,0.842765,0.306034,0.135868,1.507674,1.839481,0.850682,0.341019,0.226764,0.669840,1.520011,0.798368,0.257642,0.195577,0.771843,0.487793,0.439633,0.519584,0.302767,1.554959,0.692945,0.274021,0.468385,0.557430,2.550393,0.507399,0.143169,0.412920,0.527121,1.344407,1.391826,0.305301,0.605447,0.642957,6.567544,1.312218,0.424609,1.338549,1.270591
1768373706.347933,1768373706.349225,31.000000,0.000000,4020.641113,4202.820313,4311.025879,4341.922852,4295.000000,4280.128418,4290.256348,4320.897461,4236.153809,4287.820313,4452.179688,4507.948730,4126.025879,3564.743652,0.000000,1.000000,30.000000,,,,0.000000,4.000000,4.000000,4.000000,4.000000,4.000000,4.000000,4.000000,4.000000,4.000000,4.000000,4.000000,4.000000,4.000000,4.000000,100.000000,,,,,,,,,,,,,,,,,,,,,,,,,,,,,,,,,,,,,,,,,,,,,,,,,,,,,,,,,,,,,,,,,,,,,,,,,,,,,,,,,,,,,,,,,,,,,,,,,,,,,,,,,,,,,,,,,,,,,
1768373706.355741,1768373706.356833,32.000000,0.000000,4026.794922,4210.769043,4313.077148,4351.282227,4292.307617,4283.333496,4290.769043,4321.666504,4240.641113,4299.743652,4462.948730,4514.230957,4129.102539,3573.205078,0.000000,1.000000,30.000000,,,,0.000000,4.000000,4.000000,4.000000,4.000000,4.000000,4.000000,4.000000,4.000000,4.000000,4.000000,4.000000,4.000000,4.000000,4.000000,100.000000,,,,,,,,,,,,,,,,,,,,,,,,,,,,,,,,,,,,,,,,,,,,,,,,,,,,,,,,,,,,,,,,,,,,,,,,,,,,,,,,,,,,,,,,,,,,,,,,,,,,,,,,,,,,,,,,,,,,,
1768373706.363550,1768373706.364642,33.000000,0.000000,4033.076904,4214.871582,4311.922852,4351.153809,4295.512695,4288.974121,4296.794922,4323.205078,4249.230957,4295.000000,4460.897461,4515.769043,4125.641113,3571.923096,0.000000,1.000000,30.000000,,,,0.000000,4.000000,4.000000,4.000000,4.000000,4.000000,4.000000,4.000000,4.000000,4.000000,4.000000,4.000000,4.000000,4.000000,4.000000,100.000000,,,,,,,,,,,,,,,,,,,,,,,,,,,,,,,,,,,,,,,,,,,,,,,,,,,,,,,,,,,,,,,,,,,,,,,,,,,,,,,,,,,,,,,,,,,,,,,,,,,,,,,,,,,,,,,,,,,,,
1768373706.371358,1768373706.372350,34.000000,0.000000,4031.025635,4210.897461,4306.153809,4343.974121,4296.025879,4290.897461,4298.333496,4324.487305,4250.641113,4284.743652,4457.051270,4511.538574,4126.153809,3568.461426,0.000000,1.000000,30.000000,,,,0.000000,4.000000,4.000000,4.000000,4.000000,4.000000,4.000000,4.000000,4.000000,4.000000,4.000000,4.000000,4.000000,4.000000,4.000000,100.000000,,,,,,,,,,,,,,,,,,,,,,,,,,,,,,,,,,,,,,,,,,,,,,,,,,,,,,,,,,,,,,,,,,,,,,,,,,,,,,,,,,,,,,,,,,,,,,,,,,,,,,,,,,,,,,,,,,,,,
1768373706.379166,1768373706.380159,35.000000,0.000000,4031.281982,4210.256348,4306.666504,4344.102539,4293.589844,4291.410156,4296.922852,4322.436035,4245.769043,4283.846191,4460.000000,4509.102539,4125.512695,3582.820557,0.000000,1.000000,30.000000,,,,0.000000,4.000000,4.000000,4.000000,4.000000,4.000000,4.000000,4.000000,4.000000,4.000000,4.000000,4.000000,4.000000,4.000000,4.000000,100.000000,,,,,,,,,,,,,,,,,,,,,,,,,,,,,,,,,,,,,,,,,,,,,,,,,,,,,,,,,,,,,,,,,,,,,,,,,,,,,,,,,,,,,,,,,,,,,,,,,,,,,,,,,,,,,,,,,,,,,
1768373706.386975,1768373706.388167,36.000000,0.000000,4038.076904,4214.358887,4311.922852,4349.230957,4301.794922,4296.025879,4297.692383,4322.692383,4245.000000,4292.307617,4457.436035,4511.794922,4123.589844,3594.230713,0.000000,1.000000,30.000000,,,,0.000000,4.000000,4.000000,4.000000,4.000000,4.000000,4.000000,4.000000,4.000000,4.000000,4.000000,4.000000,4.000000,4.000000,4.000000,100.000000,,,,,,,,,,,,,,,,,,,,,,,,,,,,,,,,,,,,,,,,,,,,,,,,,,,,,,,,,,,,,,,,,,,,,,,,,,,,,,,,,,,,,,,,,,,,,,,,,,,,,,,,,,,,,,,,,,,,,
1768373706.394783,1768373706.395975,37.000000,0.000000,4044.487061,4216.410156,4312.820313,4351.538574,4309.230957,4296.794922,4295.769043,4327.051270,4248.717773,4295.128418,4462.820313,4521.025879,4130.384766,3584.743652,0.000000,1.000000,30.000000,,,,0.000000,4.000000,4.000000,4.000000,4.000000,4.000000,4.000000,4.000000,4.000000,4.000000,4.000000,4.000000,4.000000,4.000000,4.000000,100.000000,,,,,,,,,,,,,,,,,,,,,,,,,,,,,,,,,,,,,,,,,,,,,,,,,,,,,,,,,,,,,,,,,,,,,,,,,,,,,,,,,,,,,,,,,,,,,,,,,,,,,,,,,,,,,,,,,,,,,
1768373706.402592,1768373706.403884,38.000000,0.000000,4045.128174,4216.282227,4312.179688,4348.205078,4298.077148,4287.436035,4292.179688,4327.307617,4252.179688,4297.820313,4476.410156,4526.794922,4139.358887,3588.205078,0.000000,1.000000,30.000000,,,,0.000000,4.000000,4.000000,4.000000,4.000000,4.000000,4.000000,4.000000,4.000000,4.000000,4.000000,4.000000,4.000000,4.000000,4.000000,100.000000,,,,,,,,,,,,,,,,,,,,,,,,,,,,,,,,,,,,,,,,,,,,,,,,,,,,,,,,,,,,,,,,,,,,,,,,,,,,,,,,,,,,,,,,,,,,,,,,,,,,,,,,,,,,,,,,,,,,,
1768373706.410400,1768373706.411692,39.000000,0.000000,4043.205078,4222.051270,4310.384766,4346.025879,4297.051270,4286.153809,4295.641113,4324.743652,4249.358887,4294.615234,4467.436035,4518.846191,4139.102539,3607.051270,0.000000,1.000000,30.000000,,,,0.000000,4.000000,4.000000,4.000000,4.000000,4.000000,4.000000,4.000000,4.000000,4.000000,4.000000,4.000000,4.000000,4.000000,4.000000,100.000000,,,,,,,,,,,,,,,,,,,,,,,,,,,,,,,,,,,,,,,,,,,,,,,,,,,,,,,,,,,,,,,,,,,,,,,,,,,,,,,,,,,,,,,,,,,,,,,,,,,,,,,,,,,,,,,,,,,,,
1768373706.418208,1768373706.419700,40.000000,0.000000,4048.076904,4228.589844,4312.307617,4349.102539,4303.333496,4292.563965,4297.820313,4325.641113,4246.666504,4283.461426,4455.897461,4517.820313,4136.153809,3606.923096,0.000000,1.000000,30.000000,,,,0.000000,4.000000,4.000000,4.000000,4.000000,4.000000,4.000000,4.000000,4.000000,4.000000,4.000000,4.000000,4.000000,4.000000,4.000000,100.000000,,,,,,,,,,,,,,,,,,,,,,,,,,,,,,,,,,,,,,,,,,,,,,,,,,,,,,,,,,,,,,,,,,,,,,,,,,,,,,,,,,,,,,,,,,,,,,,,,,,,,,,,,,,,,,,,,,,,,
1768373706.426017,1768373706.427509,41.000000,0.000000,4054.230713,4227.307617,4319.871582,4351.410156,4291.025879,4287.307617,4293.077148,4327.563965,4248.333496,4286.794922,4468.974121,4527.948730,4137.948730,3599.615479,0.000000,1.000000,30.000000,,,,0.000000,4.000000,4.000000,4.000000,4.000000,4.000000,4.000000,4.000000,4.000000,4.000000,4.000000,4.000000,4.000000,4.000000,4.000000,100.000000,,,,,,,,,,,,,,,,,,,,,,,,,,,,,,,,,,,,,,,,,,,,,,,,,,,,,,,,,,,,,,,,,,,,,,,,,,,,,,,,,,,,,,,,,,,,,,,,,,,,,,,,,,,,,,,,,,,,,
1768373706.433825,1768373706.435217,42.000000,0.000000,4055.000000,4225.769043,4321.538574,4350.641113,4285.128418,4287.051270,4297.051270,4327.179688,4247.948730,4297.436035,4473.974121,4525.384766,4137.307617,3611.794922,0.000000,1.000000,30.000000,,,,0.000000,4.000000,4.000000,4.000000,4.000000,4.000000,4.000000,4.000000,4.000000,4.000000,4.000000,4.000000,4.000000,4.000000,4.000000,100.000000,,,,,,,,,,,,,,,,,,,,,,,,,,,,,,,,,,,,,,,,,,,,,,,,,,,,,,,,,,,,,,,,,,,,,,,,,,,,,,,,,,,,,,,,,,,,,,,,,,,,,,,,,,,,,,,,,,,,,
1768373706.441634,1768373706.443026,43.000000,0.000000,4055.897461,4229.358887,4317.563965,4350.000000,4299.743652,4295.897461,4304.358887,4323.846191,4246.153809,4288.589844,4466.410156,4517.051270,4137.051270,3626.025635,0.000000,1.000000,30.000000,,,,0.000000,4.000000,4.000000,4.000000,4.000000,4.000000,4.000000,4.000000,4.000000,4.000000,4.000000,4.000000,4.000000,4.000000,4.000000,100.000000,,,,,,,,,,,,,,,,,,,,,,,,,,,,,,,,,,,,,,,,,,,,,,,,,,,,,,,,,,,,,,,,,,,,,,,,,,,,,,,,,,,,,,,,,,,,,,,,,,,,,,,,,,,,,,,,,,,,,
1768373706.449442,1768373706.450635,44.000000,0.000000,4060.256348,4234.102539,4317.051270,4353.717773,4311.153809,4290.512695,4298.077148,4321.282227,4246.666504,4276.794922,4472.179688,4521.410156,4140.384766,3625.641113,0.000000,1.000000,30.000000,,,,0.000000,4.000000,4.000000,4.000000,4.000000,4.000000,4.000000,4.000000,4.000000,4.000000,4.000000,4.000000,4.000000,4.000000,4.000000,100.000000,,,,,,,,,,,,,,,,,,,,,,,,,,,,,,,,,,,,,,,,,,,,,,,,,,,,,,,,,,,,,,,,,,,,,,,,,,,,,,,,,,,,,,,,,,,,,,,,,,,,,,,,,,,,,,,,,,,,,
1768373706.457251,1768373706.458443,45.000000,0.000000,4066.923096,4236.282227,4317.179688,4355.512695,4307.692383,4280.512695,4289.358887,4318.461426,4243.717773,4279.358887,4471.666504,4521.922852,4137.436035,3620.000000,0.000000,1.000000,30.000000,,,,0.000000,4.000000,4.000000,4.000000,4.000000,4.000000,4.000000,4.000000,4.000000,4.000000,4.000000,4.000000,4.000000,4.000000,4.000000,100.000000,,,,,,,,,,,,,,,,,,,,,,,,,,,,,,,,,,,,,,,,,,,,,,,,,,,,,,,,,,,,,,,,,,,,,,,,,,,,,,,,,,,,,,,,,,,,,,,,,,,,,,,,,,,,,,,,,,,,,
1768373706.465059,1768373706.466152,46.000000,0.000000,4061.794922,4230.000000,4312.051270,4347.820313,4298.589844,4287.563965,4292.051270,4315.000000,4234.615234,4276.666504,4456.282227,4510.128418,4131.666504,3609.102539,0.000000,1.000000,30.000000,,,,0.000000,4.000000,4.000000,4.000000,4.000000,4.000000,4.000000,4.000000,4.000000,4.000000,4.000000,4.000000,4.000000,4.000000,4.000000,100.000000,,,,,,,,,,,,,,,,,,,,,,,,,,,,,,,,,,,,,,,,,,,,,,,,6.855394,0.590243,0.156162,0.384276,0.272031,1.591128,0.603758,0.183310,0.154067,0.164618,1.290362,0.220195,0.112699,0.184318,0.083245,1.015473,0.282005,0.150933,0.120748,0.110162,0.293550,0.110552,0.133040,0.337092,0.294147,0.238635,0.658874,0.725457,0.110398,0.151922,0.219537,0.971766,0.818512,0.255233,0.111362,1.452642,1.755338,0.906847,0.269245,0.197212,0.668719,1.482187,0.856156,0.221945,0.185538,0.673154,0.497213,0.338953,0.590251,0.290445,1.357101,0.706417,0.343323,0.462010,0.518996,2.502190,0.523792,0.136073,0.394916,0.430973,1.223212,1.325855,0.399710,0.567770,0.580027,5.790742,1.269552,0.473827,1.231133,1.185886
1768373706.472868,1768373706.473960,47.000000,0.000000,4050.256348,4221.794922,4308.461426,4339.743652,4291.794922,4292.179688,4296.025879,4311.282227,4231.666504,4274.615234,4452.820313,4503.589844,4132.436035,3611.666748,0.000000,1.000000,30.000000,,,,0.000000,4.000000,4.000000,4.000000,4.000000,4.000000,4.000000,4.000000,4.000000,4.000000,4.000000,4.000000,4.000000,4.000000,4.000000,100.000000,,,,,,,,,,,,,,,,,,,,,,,,,,,,,,,,,,,,,,,,,,,,,,,,,,,,,,,,,,,,,,,,,,,,,,,,,,,,,,,,,,,,,,,,,,,,,,,,,,,,,,,,,,,,,,,,,,,,,
1768373706.480676,1768373706.481569,48.000000,0.000000,4056.794922,4227.948730,4310.384766,4346.538574,4290.512695,4283.077148,4294.230957,4310.897461,4241.538574,4290.000000,4465.128418,4509.871582,4138.461426,3632.179443,0.000000,1.000000,30.000000,,,,0.000000,4.000000,4.000000,4.000000,4.000000,4.000000,4.000000,4.000000,4.000000,4.000000,4.000000,4.000000,4.000000,4.000000,4.000000,100.000000,,,,,,,,,,,,,,,,,,,,,,,,,,,,,,,,,,,,,,,,,,,,,,,,,,,,,,,,,,,,,,,,,,,,,,,,,,,,,,,,,,,,,,,,,,,,,,,,,,,,,,,,,,,,,,,,,,,,,
1768373706.488485,1768373706.489377,49.000000,0.000000,4070.384521,4235.897461,4312.948730,4354.743652,4296.153809,4278.846191,4293.974121,4317.563965,4249.102539,4293.333496,4470.641113,4515.769043,4141.025879,3638.589844,0.000000,1.000000,30.000000,,,,0.000000,4.000000,4.000000,4.000000,4.000000,4.000000,4.000000,4.000000,4.000000,4.000000,4.000000,4.000000,4.000000,4.000000,4.000000,100.000000,,,,,,,,,,,,,,,,,,,,,,,,,,,,,,,,,,,,,,,,,,,,,,,,,,,,,,,,,,,,,,,,,,,,,,,,,,,,,,,,,,,,,,,,,,,,,,,,,,,,,,,,,,,,,,,,,,,,,
1768373706.496293,1768373706.497086,50.000000,0.000000,4072.692383,4231.666504,4312.051270,4353.461426,4303.717773,4286.538574,4297.820313,4321.794922,4246.282227,4277.436035,4465.641113,4514.230957,4139.358887,3638.076904,0.000000,1.000000,30.000000,,,,0.000000,4.000000,4.000000,4.000000,4.000000,4.000000,4.000000,4.000000,4.000000,4.000000,4.000000,4.000000,4.000000,4.000000,4.000000,100.000000,,,,,,,,,,,,,,,,,,,,,,,,,,,,,,,,,,,,,,,,,,,,,,,,,,,,,,,,,,,,,,,,,,,,,,,,,,,,,,,,,,,,,,,,,,,,,,,,,,,,,,,,,,,,,,,,,,,,,
1768373706.504101,1768373706.504894,51.000000,0.000000,4074.102539,4232.436035,4310.128418,4354.615234,4304.743652,4293.717773,4300.641113,4316.410156,4242.307617,4273.333496,4465.000000,4511.666504,4144.615234,3647.435791,0.000000,1.000000,30.000000,,,,0.000000,4.000000,4.000000,4.000000,4.000000,4.000000,4.000000,4.000000,4.000000,4.000000,4.000000,4.000000,4.000000,4.000000,4.000000,100.000000,,,,,,,,,,,,,,,,,,,,,,,,,,,,,,,,,,,,,,,,,,,,,,,,,,,,,,,,,,,,,,,,,,,,,,,,,,,,,,,,,,,,,,,,,,,,,,,,,,,,,,,,,,,,,,,,,,,,,
1768373706.511910,1768373706.512902,52.000000,0.000000,4077.820557,4238.461426,4312.820313,4359.230957,4301.538574,4295.256348,4299.230957,4312.692383,4242.820313,4285.897461,4473.589844,4516.410156,4152.820313,3648.718018,0.000000,1.000000,30.000000,,,,0.000000,4.000000,4.000000,4.000000,4.000000,4.000000,4.000000,4.000000,4.000000,4.000000,4.000000,4.000000,4.000000,4.000000,4.000000,100.000000,,,,,,,,,,,,,,,,,,,,,,,,,,,,,,,,,,,,,,,,,,,,,,,,,,,,,,,,,,,,,,,,,,,,,,,,,,,,,,,,,,,,,,,,,,,,,,,,,,,,,,,,,,,,,,,,,,,,,
1768373706.519718,1768373706.520711,53.000000,0.000000,4076.666748,4236.410156,4313.974121,4356.282227,4302.307617,4293.205078,4297.563965,4317.692383,4247.563965,4291.153809,4476.153809,4522.179688,4153.846191,3654.871826,0.000000,1.000000,30.000000,,,,0.000000,4.000000,4.000000,4.000000,4.000000,4.000000,4.000000,4.000000,4.000000,4.000000,4.000000,4.000000,4.000000,4.000000,4.000000,100.000000,,,,,,,,,,,,,,,,,,,,,,,,,,,,,,,,,,,,,,,,,,,,,,,,,,,,,,,,,,,,,,,,,,,,,,,,,,,,,,,,,,,,,,,,,,,,,,,,,,,,,,,,,,,,,,,,,,,,,
1768373706.527527,1768373706.528619,54.000000,0.000000,4082.307617,4232.820313,4311.282227,4352.307617,4300.000000,4287.307617,4296.153809,4321.410156,4252.307617,4292.692383,4478.461426,4522.307617,4160.128418,3674.230713,0.000000,1.000000,30.000000,,,,0.000000,4.000000,4.000000,4.000000,4.000000,4.000000,4.000000,4.000000,4.000000,4.000000,4.000000,4.000000,4.000000,4.000000,4.000000,100.000000,,,,,,,,,,,,,,,,,,,,,,,,,,,,,,,,,,,,,,,,,,,,,,,,,,,,,,,,,,,,,,,,,,,,,,,,,,,,,,,,,,,,,,,,,,,,,,,,,,,,,,,,,,,,,,,,,,,,,
1768373706.535335,1768373706.536428,55.000000,0.000000,4090.000000,4233.461426,4309.230957,4351.922852,4299.871582,4287.179688,4300.384766,4319.102539,4250.512695,4297.820313,4489.487305,4520.512695,4172.179688,3675.512939,0.000000,1.000000,30.000000,,,,0.000000,4.000000,4.000000,4.000000,4.000000,4.000000,4.000000,4.000000,4.000000,4.000000,4.000000,4.000000,4.000000,4.000000,4.000000,100.000000,,,,,,,,,,,,,,,,,,,,,,,,,,,,,,,,,,,,,,,,,,,,,,,,,,,,,,,,,,,,,,,,,,,,,,,,,,,,,,,,,,,,,,,,,,,,,,,,,,,,,,,,,,,,,,,,,,,,,
1768373706.543144,1768373706.544436,56.000000,0.000000,4085.384521,4235.000000,4309.102539,4351.282227,4311.025879,4297.179688,4308.589844,4314.871582,4246.410156,4292.563965,4484.743652,4518.461426,4168.333496,3668.076904,0.000000,1.000000,30.000000,,,,0.000000,4.000000,4.000000,4.000000,4.000000,4.000000,4.000000,4.000000,4.000000,4.000000,4.000000,4.000000,4.000000,4.000000,4.000000,100.000000,,,,,,,,,,,,,,,,,,,,,,,,,,,,,,,,,,,,,,,,,,,,,,,,,,,,,,,,,,,,,,,,,,,,,,,,,,,,,,,,,,,,,,,,,,,,,,,,,,,,,,,,,,,,,,,,,,,,,
1768373706.550952,1768373706.552244,57.000000,0.000000,4079.487061,4236.025879,4311.410156,4350.897461,4311.922852,4295.897461,4305.128418,4309.871582,4247.179688,4292.051270,4470.897461,4515.641113,4160.384766,3673.333252,0.000000,1.000000,30.000000,,,,0.000000,4.000000,4.000000,4.000000,4.000000,4.000000,4.000000,4.000000,4.000000,4.000000,4.000000,4.000000,4.000000,4.000000,4.000000,100.000000,,,,,,,,,,,,,,,,,,,,,,,,,,,,,,,,,,,,,,,,,,,,,,,,,,,,,,,,,,,,,,,,,,,,,,,,,,,,,,,,,,,,,,,,,,,,,,,,,,,,,,,,,,,,,,,,,,,,,
1768373706.558761,1768373706.559953,58.000000,0.000000,4083.846191,4234.358887,4312.436035,4351.025879,4299.102539,4286.153809,4295.256348,4306.922852,4249.358887,4303.077148,4476.794922,4517.563965,4167.692383,3681.281982,0.000000,1.000000,30.000000,,,,0.000000,4.000000,4.000000,4.000000,4.000000,4.000000,4.000000,4.000000,4.000000,4.000000,4.000000,4.000000,4.000000,4.000000,4.000000,100.000000,,,,,,,,,,,,,,,,,,,,,,,,,,,,,,,,,,,,,,,,,,,,,,,,,,,,,,,,,,,,,,,,,,,,,,,,,,,,,,,,,,,,,,,,,,,,,,,,,,,,,,,,,,,,,,,,,,,,,
1768373706.566569,1768373706.567761,59.000000,0.000000,4093.076904,4231.794922,4310.384766,4351.153809,4296.666504,4286.922852,4295.769043,4308.974121,4247.820313,4299.871582,4489.615234,4521.666504,4173.717773,3688.205078,0.000000,1.000000,30.000000,,,,0.000000,4.000000,4.000000,4.000000,4.000000,4.000000,4.000000,4.000000,4.000000,4.000000,4.000000,4.000000,4.000000,4.000000,4.000000,100.000000,,,,,,,,,,,,,,,,,,,,,,,,,,,,,,,,,,,,,,,,,,,,,,,,,,,,,,,,,,,,,,,,,,,,,,,,,,,,,,,,,,,,,,,,,,,,,,,,,,,,,,,,,,,,,,,,,,,,,
1768373706.574377,1768373706.575769,60.000000,0.000000,4094.230713,4234.871582,4309.871582,4350.897461,4296.538574,4290.897461,4299.358887,4311.666504,4251.410156,4289.102539,4491.922852,4526.282227,4174.615234,3695.897461,0.000000,1.000000,30.000000,,,,0.000000,4.000000,4.000000,4.000000,4.000000,4.000000,4.000000,4.000000,4.000000,4.000000,4.000000,4.000000,4.000000,4.000000,4.000000,100.000000,,,,,,,,,,,,,,,,,,,,,,,,,,,,,,,,,,,,,,,,,,,,,,,,,,,,,,,,,,,,,,,,,,,,,,,,,,,,,,,,,,,,,,,,,,,,,,,,,,,,,,,,,,,,,,,,,,,,,
1768373706.582186,1768373706.583578,61.000000,0.000000,4091.281982,4235.769043,4310.128418,4349.358887,4290.641113,4285.384766,4296.025879,4310.897461,4255.641113,4294.358887,4489.743652,4529.230957,4178.974121,3702.820557,0.000000,1.000000,30.000000,,,,0.000000,4.000000,4.000000,4.000000,4.000000,4.000000,4.000000,4.000000,4.000000,4.000000,4.000000,4.000000,4.000000,4.000000,4.000000,100.000000,,,,,,,,,,,,,,,,,,,,,,,,,,,,,,,,,,,,,,,,,,,,,,,,,,,,,,,,,,,,,,,,,,,,,,,,,,,,,,,,,,,,,,,,,,,,,,,,,,,,,,,,,,,,,,,,,,,,,
1768373706.589994,1768373706.591286,62.000000,0.000000,4093.333252,4236.153809,4308.974121,4350.000000,4296.794922,4281.025879,4291.153809,4307.179688,4254.230957,4300.000000,4487.307617,4530.000000,4177.051270,3706.538574,0.000000,1.000000,30.000000,,,,0.000000,4.000000,4.000000,4.000000,4.000000,4.000000,4.000000,4.000000,4.000000,4.000000,4.000000,4.000000,4.000000,4.000000,4.000000,100.000000,,,,,,,,,,,,,,,,,,,,,,,,,,,,,,,,,,,,,,,,,,,,,,,,5.065522,0.503390,0.164742,0.373874,0.252160,1.298677,0.578845,0.166066,0.135038,0.146687,1.135883,0.237233,0.098774,0.163692,0.081564,0.906448,0.296179,0.148142,0.116980,0.106569,0.208337,0.140026,0.127628,0.410645,0.335488,0.212619,0.534727,0.697380,0.088982,0.172508,0.201603,0.693968,0.739106,0.219227,0.096908,1.227766,1.465244,0.864051,0.202259,0.172785,0.630660,1.334238,0.824603,0.187629,0.180612,0.622562,0.545515,0.260283,0.635135,0.285182,1.224307,0.824792,0.405189,0.438738,0.502443,2.408915,0.576246,0.144691,0.372635,0.352459,1.101083,1.299989,0.471779,0.511608,0.514410,4.542976,1.276530,0.491890,1.079958,1.093750
1768373706.597803,1768373706.599095,63.000000,0.000000,4095.897461,4239.871582,4310.897461,4353.846191,4299.743652,4283.461426,4293.589844,4307.692383,4254.358887,4292.820313,4482.692383,4526.410156,4170.000000,3706.281982,0.000000,1.000000,30.000000,,,,0.000000,4.000000,4.000000,4.000000,4.000000,4.000000,4.000000,4.000000,4.000000,4.000000,4.000000,4.000000,4.000000,4.000000,4.000000,100.000000,,,,,,,,,,,,,,,,,,,,,,,,,,,,,,,,,,,,,,,,,,,,,,,,,,,,,,,,,,,,,,,,,,,,,,,,,,,,,,,,,,,,,,,,,,,,,,,,,,,,,,,,,,,,,,,,,,,,,
1768373706.605611,1768373706.606704,64.000000,0.000000,4093.846191,4238.333496,4314.102539,4352.307617,4294.615234,4287.820313,4300.641113,4312.179688,4256.538574,4293.717773,4477.948730,4519.615234,4168.205078,3707.307617,4069.000000,1.000000,30.000000,,,,0.000000,4.000000,4.000000,4.000000,4.000000,4.000000,4.000000,4.000000,4.000000,4.000000,4.000000,4.000000,4.000000,4.000000,4.000000,100.000000,,,,,,,,,,,,,,,,,,,,,,,,,,,,,,,,,,,,,,,,,,,,,,,,,,,,,,,,,,,,,,,,,,,,,,,,,,,,,,,,,,,,,,,,,,,,,,,,,,,,,,,,,,,,,,,,,,,,,
1768373706.613420,1768373706.614512,65.000000,0.000000,4093.974365,4237.051270,4311.282227,4350.384766,4306.538574,4292.820313,4305.641113,4313.205078,4257.948730,4297.563965,4478.846191,4521.666504,4166.922852,3711.025635,3984.000000,1.000000,30.000000,,,,0.000000,4.000000,4.000000,4.000000,4.000000,4.000000,4.000000,4.000000,4.000000,4.000000,4.000000,4.000000,4.000000,4.000000,4.000000,100.000000,,,,,,,,,,,,,,,,,,,,,,,,,,,,,,,,,,,,,,,,,,,,,,,,,,,,,,,,,,,,,,,,,,,,,,,,,,,,,,,,,,,,,,,,,,,,,,,,,,,,,,,,,,,,,,,,,,,,,
1768373706.621228,1768373706.622221,66.000000,0.000000,4101.922852,4242.948730,4311.666504,4356.666504,4315.897461,4295.769043,4306.922852,4311.538574,4261.025879,4293.846191,4485.512695,4530.512695,4170.512695,3717.051270,3894.000000,1.000000,30.000000,,,,0.000000,4.000000,4.000000,4.000000,4.000000,4.000000,4.000000,4.000000,4.000000,4.000000,4.000000,4.000000,4.000000,4.000000,4.000000,100.000000,,,,,,,,,,,,,,,,,,,,,,,,,,,,,,,,,,,,,,,,,,,,,,,,,,,,,,,,,,,,,,,,,,,,,,,,,,,,,,,,,,,,,,,,,,,,,,,,,,,,,,,,,,,,,,,,,,,,,
1768373706.629037,1768373706.630029,67.000000,0.000000,4109.230957,4250.000000,4319.615234,4361.538574,4303.717773,4295.897461,4307.948730,4314.743652,4264.102539,4298.717773,4490.128418,4531.666504,4178.589844,3730.128174,3881.000000,1.000000,30.000000,,,,0.000000,4.000000,4.000000,4.000000,4.000000,4.000000,4.000000,4.000000,4.000000,4.000000,4.000000,4.000000,4.000000,4.000000,4.000000,100.000000,,,,,,,,,,,,,,,,,,,,,,,,,,,,,,,,,,,,,,,,,,,,,,,,,,,,,,,,,,,,,,,,,,,,,,,,,,,,,,,,,,,,,,,,,,,,,,,,,,,,,,,,,,,,,,,,,,,,,
1768373706.636845,1768373706.638037,68.000000,0.000000,4103.589844,4246.410156,4320.128418,4359.102539,4299.487305,4295.769043,4308.589844,4319.230957,4262.563965,4303.846191,4492.051270,4530.769043,4178.846191,3737.307617,3822.000000,1.000000,30.000000,,,,0.000000,4.000000,4.000000,4.000000,4.000000,4.000000,4.000000,4.000000,4.000000,4.000000,4.000000,4.000000,4.000000,4.000000,4.000000,100.000000,,,,,,,,,,,,,,,,,,,,,,,,,,,,,,,,,,,,,,,,,,,,,,,,,,,,,,,,,,,,,,,,,,,,,,,,,,,,,,,,,,,,,,,,,,,,,,,,,,,,,,,,,,,,,,,,,,,,,
1768373706.644653,1768373706.645846,69.000000,0.000000,4090.128174,4234.230957,4313.589844,4353.461426,4307.051270,4294.615234,4306.922852,4318.205078,4260.128418,4298.205078,4490.512695,4533.717773,4172.436035,3722.179443,3740.000000,1.000000,30.000000,,,,0.000000,4.000000,4.000000,4.000000,4.000000,4.000000,4.000000,4.000000,4.000000,4.000000,4.000000,4.000000,4.000000,4.000000,4.000000,100.000000,,,,,,,,,,,,,,,,,,,,,,,,,,,,,,,,,,,,,,,,,,,,,,,,,,,,,,,,,,,,,,,,,,,,,,,,,,,,,,,,,,,,,,,,,,,,,,,,,,,,,,,,,,,,,,,,,,,,,
1768373706.652462,1768373706.653554,70.000000,0.000000,4095.128174,4234.358887,4314.230957,4355.000000,4305.256348,4293.846191,4305.897461,4313.846191,4262.563965,4292.563965,4478.333496,4528.846191,4165.128418,3716.538574,3764.000000,1.000000,30.000000,,,,0.000000,4.000000,4.000000,4.000000,4.000000,4.000000,4.000000,4.000000,4.000000,4.000000,4.000000,4.000000,4.000000,4.000000,4.000000,100.000000,,,,,,,,,,,,,,,,,,,,,,,,,,,,,,,,,,,,,,,,,,,,,,,,,,,,,,,,,,,,,,,,,,,,,,,,,,,,,,,,,,,,,,,,,,,,,,,,,,,,,,,,,,,,,,,,,,,,,
1768373706.660270,1768373706.661363,71.000000,0.000000,4113.077148,4249.743652,4320.769043,4362.820313,4307.179688,4294.743652,4305.128418,4309.743652,4258.589844,4293.333496,4471.922852,4519.743652,4164.871582,3737.948730,3612.000000,1.000000,30.000000,,,,0.000000,4.000000,4.000000,4.000000,4.000000,4.000000,4.000000,4.000000,4.000000,4.000000,4.000000,4.000000,4.000000,4.000000,4.000000,100.000000,,,,,,,,,,,,,,,,,,,,,,,,,,,,,,,,,,,,,,,,,,,,,,,,,,,,,,,,,,,,,,,,,,,,,,,,,,,,,,,,,,,,,,,,,,,,,,,,,,,,,,,,,,,,,,,,,,,,,
1768373706.668079,1768373706.668971,72.000000,0.000000,4114.102539,4256.538574,4319.102539,4364.871582,4313.205078,4296.282227,4303.846191,4308.846191,4250.769043,4297.051270,4483.205078,4523.461426,4174.358887,3748.076904,3967.000000,1.000000,30.000000,,,,0.000000,4.000000,4.000000,4.000000,4.000000,4.000000,4.000000,4.000000,4.000000,4.000000,4.000000,4.000000,4.000000,4.000000,4.000000,100.000000,,,,,,,,,,,,,,,,,,,,,,,,,,,,,,,,,,,,,,,,,,,,,,,,,,,,,,,,,,,,,,,,,,,,,,,,,,,,,,,,,,,,,,,,,,,,,,,,,,,,,,,,,,,,,,,,,,,,,
1768373706.675887,1768373706.676780,73.000000,0.000000,4101.794922,4248.077148,4311.794922,4358.077148,4304.615234,4296.282227,4303.461426,4309.487305,4253.333496,4293.717773,4485.897461,4528.333496,4173.846191,3740.384521,3941.000000,1.000000,30.000000,,,,0.000000,4.000000,4.000000,4.000000,4.000000,4.000000,4.000000,4.000000,4.000000,4.000000,4.000000,4.000000,4.000000,4.000000,4.000000,100.000000,,,,,,,,,,,,,,,,,,,,,,,,,,,,,,,,,,,,,,,,,,,,,,,,,,,,,,,,,,,,,,,,,,,,,,,,,,,,,,,,,,,,,,,,,,,,,,,,,,,,,,,,,,,,,,,,,,,,,
1768373706.683696,1768373706.684488,74.000000,0.000000,4101.410156,4246.666504,4311.153809,4355.769043,4298.461426,4295.128418,4306.153809,4313.717773,4262.307617,4288.717773,4481.282227,4529.102539,4167.692383,3746.666748,4415.000000,1.000000,30.000000,,,,0.000000,4.000000,4.000000,4.000000,4.000000,4.000000,4.000000,4.000000,4.000000,4.000000,4.000000,4.000000,4.000000,4.000000,4.000000,100.000000,,,,,,,,,,,,,,,,,,,,,,,,,,,,,,,,,,,,,,,,,,,,,,,,,,,,,,,,,,,,,,,,,,,,,,,,,,,,,,,,,,,,,,,,,,,,,,,,,,,,,,,,,,,,,,,,,,,,,
1768373706.691504,1768373706.692297,75.000000,0.000000,4109.615234,4251.153809,4313.333496,4359.743652,4305.384766,4293.205078,4310.128418,4320.641113,4264.487305,4296.153809,4492.563965,4530.897461,4180.256348,3758.205078,4756.000000,1.000000,30.000000,,,,0.000000,4.000000,4.000000,4.000000,4.000000,4.000000,4.000000,4.000000,4.000000,4.000000,4.000000,4.000000,4.000000,4.000000,4.000000,100.000000,,,,,,,,,,,,,,,,,,,,,,,,,,,,,,,,,,,,,,,,,,,,,,,,,,,,,,,,,,,,,,,,,,,,,,,,,,,,,,,,,,,,,,,,,,,,,,,,,,,,,,,,,,,,,,,,,,,,,
1768373706.699313,1768373706.699905,76.000000,0.000000,4109.358887,4245.769043,4308.717773,4354.487305,4305.897461,4293.333496,4309.743652,4320.512695,4263.077148,4303.717773,4494.743652,4529.487305,4186.410156,3745.641113,4994.000000,1.000000,30.000000,,,,0.000000,4.000000,4.000000,4.000000,4.000000,4.000000,4.000000,4.000000,4.000000,4.000000,4.000000,4.000000,4.000000,4.000000,4.000000,100.000000,,,,,,,,,,,,,,,,,,,,,,,,,,,,,,,,,,,,,,,,,,,,,,,,,,,,,,,,,,,,,,,,,,,,,,,,,,,,,,,,,,,,,,,,,,,,,,,,,,,,,,,,,,,,,,,,,,,,,
1768373706.707121,1768373706.707714,77.000000,0.000000,4104.871582,4240.641113,4306.153809,4346.794922,4301.794922,4295.512695,4309.743652,4320.769043,4267.436035,4298.461426,4480.512695,4526.282227,4170.512695,3740.128174,5375.000000,1.000000,30.000000,,,,0.000000,4.000000,4.000000,4.000000,4.000000,4.000000,4.000000,4.000000,4.000000,4.000000,4.000000,4.000000,4.000000,4.000000,4.000000,100.000000,,,,,,,,,,,,,,,,,,,,,,,,,,,,,,,,,,,,,,,,,,,,,,,,,,,,,,,,,,,,,,,,,,,,,,,,,,,,,,,,,,,,,,,,,,,,,,,,,,,,,,,,,,,,,,,,,,,,,
1768373706.714929,1768373706.715622,78.000000,0.000000,4101.794922,4240.256348,4309.743652,4350.641113,4304.102539,4296.538574,4312.307617,4323.205078,4267.948730,4292.051270,4480.384766,4522.436035,4165.000000,3757.307617,4415.000000,1.000000,30.000000,,,,0.000000,4.000000,4.000000,4.000000,4.000000,4.000000,4.000000,4.000000,4.000000,4.000000,4.000000,4.000000,4.000000,4.000000,4.000000,100.000000,1.000000,41.666668,1.000000,3.000000,4.000000,4.000000,4.000000,4.000000,4.000000,4.000000,4.000000,3.000000,4.000000,4.000000,4.000000,1.000000,,,,,,,,,,,,,,,,,,,,,,,,,,,,,,,,3.471165,0.423525,0.172514,0.357142,0.230055,0.970850,0.534802,0.138544,0.115234,0.130908,1.099534,0.284996,0.096181,0.149993,0.089322,0.780615,0.306312,0.138190,0.113969,0.103608,0.192988,0.179648,0.139308,0.488535,0.372399,0.216200,0.414549,0.597289,0.078609,0.204527,0.191254,0.451125,0.611277,0.192429,0.092065,0.933424,1.066907,0.733825,0.148731,0.155641,0.585068,1.129423,0.713838,0.159048,0.177465,0.633034,0.615814,0.220577,0.647627,0.285671,1.129620,1.023447,0.442542,0.412160,0.491384,2.290355,0.658178,0.177962,0.346559,0.297609,1.025708,1.303602,0.501653,0.450654,0.441230,3.280416,1.304391,0.484631,0.904834,1.001323
1768373706.722738,1768373706.723431,79.000000,0.000000,4101.153809,4238.717773,4309.230957,4351.666504,4301.025879,4293.589844,4310.128418,4320.512695,4261.922852,4288.333496,4483.717773,4515.641113,4170.641113,3758.205078,4756.000000,1.000000,30.000000,,,,0.000000,4.000000,4.000000,4.000000,4.000000,4.000000,4.000000,4.000000,4.000000,4.000000,4.000000,4.000000,4.000000,4.000000,4.000000,100.000000,,,,,,,,,,,,,,,,,,,,,,,,,,,,,,,,,,,,,,,,,,,,,,,,,,,,,,,,,,,,,,,,,,,,,,,,,,,,,,,,,,,,,,,,,,,,,,,,,,,,,,,,,,,,,,,,,,,,,
1768373706.730546,1768373706.731439,80.000000,0.000000,4104.871582,4240.641113,4307.948730,4344.615234,4294.615234,4293.461426,4307.563965,4314.230957,4260.641113,4294.615234,4477.179688,4512.820313,4174.230957,3753.589844,4994.000000,1.000000,30.000000,,,,0.000000,4.000000,4.000000,4.000000,4.000000,4.000000,4.000000,4.000000,4.000000,4.000000,4.000000,4.000000,4.000000,4.000000,4.000000,100.000000,,,,,,,,,,,,,,,,,,,,,,,,,,,,,,,,,,,,,,,,,,,,,,,,,,,,,,,,,,,,,,,,,,,,,,,,,,,,,,,,,,,,,,,,,,,,,,,,,,,,,,,,,,,,,,,,,,,,,
1768373706.738355,1768373706.739247,81.000000,0.000000,4110.897461,4247.820313,4309.230957,4346.282227,4300.769043,4299.871582,4309.487305,4312.948730,4261.666504,4301.666504,4479.615234,4517.563965,4177.051270,3762.564209,5375.000000,1.000000,30.000000,,,,0.000000,4.000000,4.000000,4.000000,4.000000,4.000000,4.000000,4.000000,4.000000,4.000000,4.000000,4.000000,4.000000,4.000000,4.000000,100.000000,,,,,,,,,,,,,,,,,,,,,,,,,,,,,,,,,,,,,,,,,,,,,,,,,,,,,,,,,,,,,,,,,,,,,,,,,,,,,,,,,,,,,,,,,,,,,,,,,,,,,,,,,,,,,,,,,,,,,
1768373706.746163,1768373706.747156,82.000000,0.000000,4113.589844,4248.589844,4305.769043,4350.384766,4304.358887,4300.000000,4308.717773,4315.256348,4261.282227,4288.974121,4482.179688,4520.384766,4173.974121,3765.384521,4415.000000,1.000000,30.000000,,,,0.000000,4.000000,4.000000,4.000000,4.000000,4.000000,4.000000,4.000000,4.000000,4.000000,4.000000,4.000000,4.000000,4.000000,4.000000,100.000000,,,,,,,,,,,,,,,,,,,,,,,,,,,,,,,,,,,,,,,,,,,,,,,,,,,,,,,,,,,,,,,,,,,,,,,,,,,,,,,,,,,,,,,,,,,,,,,,,,,,,,,,,,,,,,,,,,,,,
1768373706.753971,1768373706.754964,83.000000,0.000000,4115.256348,4243.846191,4300.641113,4344.230957,4298.846191,4293.974121,4305.512695,4318.077148,4266.153809,4282.179688,4479.743652,4519.487305,4171.410156,3762.692383,4756.000000,1.000000,30.000000,,,,0.000000,4.000000,4.000000,4.000000,4.000000,4.000000,4.000000,4.000000,4.000000,4.000000,4.000000,4.000000,4.000000,4.000000,4.000000,100.000000,,,,,,,,,,,,,,,,,,,,,,,,,,,,,,,,,,,,,,,,,,,,,,,,,,,,,,,,,,,,,,,,,,,,,,,,,,,,,,,,,,,,,,,,,,,,,,,,,,,,,,,,,,,,,,,,,,,,,
1768373706.761780,1768373706.762573,84.000000,0.000000,4112.948730,4244.487305,4300.512695,4343.333496,4299.102539,4296.153809,4307.692383,4321.538574,4270.641113,4295.000000,4481.794922,4517.051270,4177.820313,3772.435791,4994.000000,1.000000,30.000000,,,,0.000000,4.000000,4.000000,4.000000,4.000000,4.000000,4.000000,4.000000,4.000000,4.000000,4.000000,4.000000,4.000000,4.000000,4.000000,100.000000,,,,,,,,,,,,,,,,,,,,,,,,,,,,,,,,,,,,,,,,,,,,,,,,,,,,,,,,,,,,,,,,,,,,,,,,,,,,,,,,,,,,,,,,,,,,,,,,,,,,,,,,,,,,,,,,,,,,,
1768373706.769588,1768373706.770381,85.000000,0.000000,4102.692383,4243.205078,4298.717773,4346.025879,4297.692383,4302.051270,4310.256348,4322.820313,4268.461426,4300.128418,4482.307617,4511.153809,4177.307617,3777.820557,5375.000000,1.000000,30.000000,,,,0.000000,4.000000,4.000000,4.000000,4.000000,4.000000,4.000000,4.000000,4.000000,4.000000,4.000000,4.000000,4.000000,4.000000,4.000000,100.000000,,,,,,,,,,,,,,,,,,,,,,,,,,,,,,,,,,,,,,,,,,,,,,,,,,,,,,,,,,,,,,,,,,,,,,,,,,,,,,,,,,,,,,,,,,,,,,,,,,,,,,,,,,,,,,,,,,,,,
1768373706.777397,1768373706.778290,86.000000,0.000000,4098.974121,4232.820313,4292.307617,4340.384766,4295.256348,4303.846191,4309.615234,4322.307617,4272.820313,4297.820313,4475.256348,4508.077148,4168.077148,3767.692383,4415.000000,1.000000,30.000000,,,,0.000000,4.000000,4.000000,4.000000,4.000000,4.000000,4.000000,4.000000,4.000000,4.000000,4.000000,4.000000,4.000000,4.000000,4.000000,100.000000,,,,,,,,,,,,,,,,,,,,,,,,,,,,,,,,,,,,,,,,,,,,,,,,,,,,,,,,,,,,,,,,,,,,,,,,,,,,,,,,,,,,,,,,,,,,,,,,,,,,,,,,,,,,,,,,,,,,,
1768373706.785205,1768373706.786098,87.000000,0.000000,4108.205078,4231.153809,4291.538574,4339.358887,4299.230957,4306.410156,4311.410156,4322.563965,4278.846191,4298.846191,4475.769043,4510.000000,4170.769043,3771.666748,4756.000000,1.000000,30.000000,,,,0.000000,4.000000,4.000000,4.000000,4.000000,4.000000,4.000000,4.000000,4.000000,4.000000,4.000000,4.000000,4.000000,4.000000,4.000000,100.000000,,,,,,,,,,,,,,,,,,,,,,,,,,,,,,,,,,,,,,,,,,,,,,,,,,,,,,,,,,,,,,,,,,,,,,,,,,,,,,,,,,,,,,,,,,,,,,,,,,,,,,,,,,,,,,,,,,,,,
1768373706.793014,1768373706.794006,88.000000,0.000000,4114.358887,4240.769043,4297.179688,4344.358887,4300.769043,4307.820313,4311.666504,4320.000000,4272.051270,4297.436035,4484.615234,4511.410156,4182.051270,3790.512939,4994.000000,1.000000,30.000000,,,,0.000000,4.000000,4.000000,4.000000,4.000000,4.000000,4.000000,4.000000,4.000000,4.000000,4.000000,4.000000,4.000000,4.000000,4.000000,100.000000,,,,,,,,,,,,,,,,,,,,,,,,,,,,,,,,,,,,,,,,,,,,,,,,,,,,,,,,,,,,,,,,,,,,,,,,,,,,,,,,,,,,,,,,,,,,,,,,,,,,,,,,,,,,,,,,,,,,,
1768373706.800822,1768373706.801815,89.000000,0.000000,4108.717773,4239.615234,4298.717773,4343.333496,4298.205078,4307.179688,4310.641113,4316.025879,4262.563965,4293.589844,4481.538574,4513.846191,4178.333496,3790.641113,5375.000000,1.000000,30.000000,,,,0.000000,4.000000,4.000000,4.000000,4.000000,4.000000,4.000000,4.000000,4.000000,4.000000,4.000000,4.000000,4.000000,4.000000,4.000000,100.000000,,,,,,,,,,,,,,,,,,,,,,,,,,,,,,,,,,,,,,,,,,,,,,,,,,,,,,,,,,,,,,,,,,,,,,,,,,,,,,,,,,,,,,,,,,,,,,,,,,,,,,,,,,,,,,,,,,,,,
1768373706.808631,1768373706.809523,90.000000,0.000000,4106.153809,4231.538574,4295.000000,4340.256348,4299.230957,4307.563965,4311.025879,4312.436035,4262.948730,4288.974121,4475.000000,4515.641113,4167.820313,3780.128174,4415.000000,1.000000,30.000000,,,,0.000000,4.000000,4.000000,4.000000,4.000000,4.000000,4.000000,4.000000,4.000000,4.000000,4.000000,4.000000,4.000000,4.000000,4.000000,100.000000,,,,,,,,,,,,,,,,,,,,,,,,,,,,,,,,,,,,,,,,,,,,,,,,,,,,,,,,,,,,,,,,,,,,,,,,,,,,,,,,,,,,,,,,,,,,,,,,,,,,,,,,,,,,,,,,,,,,,
1768373706.816439,1768373706.817332,91.000000,0.000000,4106.794922,4237.179688,4294.487305,4341.153809,4299.487305,4303.589844,4308.717773,4311.025879,4271.025879,4289.358887,4482.820313,4513.205078,4175.000000,3793.076904,4756.000000,1.000000,30.000000,,,,0.000000,4.000000,4.000000,4.000000,4.000000,4.000000,4.000000,4.000000,4.000000,4.000000,4.000000,4.000000,4.000000,4.000000,4.000000,100.000000,,,,,,,,,,,,,,,,,,,,,,,,,,,,,,,,,,,,,,,,,,,,,,,,,,,,,,,,,,,,,,,,,,,,,,,,,,,,,,,,,,,,,,,,,,,,,,,,,,,,,,,,,,,,,,,,,,,,,
1768373706.824247,1768373706.824940,92.000000,0.000000,4105.897461,4242.179688,4293.333496,4341.025879,4296.794922,4301.922852,4306.282227,4313.077148,4270.769043,4294.358887,4492.051270,4511.666504,4184.102539,3802.179443,4994.000000,1.000000,30.000000,,,,0.000000,4.000000,4.000000,4.000000,4.000000,4.000000,4.000000,4.000000,4.000000,4.000000,4.000000,4.000000,4.000000,4.000000,4.000000,100.000000,,,,,,,,,,,,,,,,,,,,,,,,,,,,,,,,,,,,,,,,,,,,,,,,,,,,,,,,,,,,,,,,,,,,,,,,,,,,,,,,,,,,,,,,,,,,,,,,,,,,,,,,,,,,,,,,,,,,,
1768373706.832056,1768373706.832749,93.000000,0.000000,4112.307617,4238.717773,4290.641113,4339.871582,4296.410156,4305.897461,4308.846191,4318.846191,4267.948730,4292.948730,4490.000000,4516.282227,4178.589844,3792.179443,5375.000000,1.000000,30.000000,,,,0.000000,4.000000,4.000000,4.000000,4.000000,4.000000,4.000000,4.000000,4.000000,4.000000,4.000000,4.000000,4.000000,4.000000,4.000000,100.000000,,,,,,,,,,,,,,,,,,,,,,,,,,,,,,,,,,,,,,,,,,,,,,,,,,,,,,,,,,,,,,,,,,,,,,,,,,,,,,,,,,,,,,,,,,,,,,,,,,,,,,,,,,,,,,,,,,,,,
1768373706.839864,1768373706.840457,94.000000,0.000000,4122.179688,4243.333496,4297.820313,4342.692383,4298.205078,4301.666504,4308.717773,4322.307617,4271.410156,4296.666504,4487.307617,4517.436035,4177.307617,3804.230713,4415.000000,1.000000,30.000000,,,,0.000000,4.000000,4.000000,4.000000,4.000000,4.000000,4.000000,4.000000,4.000000,4.000000,4.000000,4.000000,4.000000,4.000000,4.000000,100.000000,,,,,,,,,,,,,,,,,,,,,,,,,,,,,,,,,,,,,,,,,,,,,,,,1.984301,0.358044,0.185617,0.331856,0.207556,0.683603,0.472726,0.116649,0.099560,0.119440,1.082089,0.355784,0.101114,0.139699,0.101934,0.650958,0.303349,0.131819,0.110312,0.102453,0.219577,0.216829,0.163673,0.551997,0.397767,0.250787,0.320033,0.457420,0.075618,0.239371,0.186397,0.279866,0.456684,0.165660,0.093908,0.660913,0.689238,0.557960,0.110509,0.145326,0.559151,0.930095,0.560918,0.138077,0.173486,0.712300,0.675334,0.217925,0.633281,0.291505,1.098784,1.227846,0.449957,0.400453,0.472655,2.148971,0.744707,0.235379,0.317198,0.264386,0.993982,1.295621,0.484484,0.401369,0.359631,2.216084,1.306159,0.474594,0.740016,0.913237
1768373706.847673,1768373706.848266,95.000000,0.000000,4126.922852,4250.512695,4310.128418,4348.589844,4295.897461,4299.230957,4306.153809,4323.077148,4274.358887,4302.051270,4491.922852,4517.051270,4186.922852,3816.794922,4756.000000,1.000000,30.000000,,,,0.000000,4.000000,4.000000,4.000000,4.000000,4.000000,4.000000,4.000000,4.000000,4.000000,4.000000,4.000000,4.000000,4.000000,4.000000,100.000000,,,,,,,,,,,,,,,,,,,,,,,,,,,,,,,,,,,,,,,,,,,,,,,,,,,,,,,,,,,,,,,,,,,,,,,,,,,,,,,,,,,,,,,,,,,,,,,,,,,,,,,,,,,,,,,,,,,,,
1768373706.855481,1768373706.856274,96.000000,0.000000,4129.102539,4248.846191,4312.436035,4354.487305,4297.307617,4306.025879,4310.641113,4325.000000,4272.179688,4294.230957,4494.487305,4522.820313,4188.333496,3806.153809,4994.000000,1.000000,30.000000,,,,0.000000,4.000000,4.000000,4.000000,4.000000,4.000000,4.000000,4.000000,4.000000,4.000000,4.000000,4.000000,4.000000,4.000000,4.000000,100.000000,,,,,,,,,,,,,,,,,,,,,,,,,,,,,,,,,,,,,,,,,,,,,,,,,,,,,,,,,,,,,,,,,,,,,,,,,,,,,,,,,,,,,,,,,,,,,,,,,,,,,,,,,,,,,,,,,,,,,
1768373706.863290,1768373706.864083,97.000000,0.000000,4133.461426,4249.358887,4308.077148,4355.641113,4304.358887,4302.948730,4312.820313,4323.205078,4269.102539,4289.615234,4488.205078,4527.563965,4180.128418,3813.205078,5375.000000,1.000000,30.000000,,,,0.000000,4.000000,4.000000,4.000000,4.000000,4.000000,4.000000,4.000000,4.000000,4.000000,4.000000,4.000000,4.000000,4.000000,4.000000,100.000000,,,,,,,,,,,,,,,,,,,,,,,,,,,,,,,,,,,,,,,,,,,,,,,,,,,,,,,,,,,,,,,,,,,,,,,,,,,,,,,,,,,,,,,,,,,,,,,,,,,,,,,,,,,,,,,,,,,,,
1768373706.871098,1768373706.871791,98.000000,0.000000,4136.025879,4251.666504,4309.615234,4352.051270,4303.461426,4297.051270,4311.538574,4320.384766,4270.897461,4296.153809,4488.205078,4531.282227,4184.487305,3833.461426,4415.000000,1.000000,30.000000,,,,0.000000,4.000000,4.000000,4.000000,4.000000,4.000000,4.000000,4.000000,4.000000,4.000000,4.000000,4.000000,4.000000,4.000000,4.000000,100.000000,,,,,,,,,,,,,,,,,,,,,,,,,,,,,,,,,,,,,,,,,,,,,,,,,,,,,,,,,,,,,,,,,,,,,,,,,,,,,,,,,,,,,,,,,,,,,,,,,,,,,,,,,,,,,,,,,,,,,
1768373706.878907,1768373706.879600,99.000000,0.000000,4139.743652,4249.743652,4313.205078,4350.384766,4295.512695,4303.846191,4314.615234,4322.948730,4273.333496,4299.871582,4505.512695,4534.102539,4200.769043,3832.948730,4756.000000,1.000000,30.000000,,,,0.000000,4.000000,4.000000,4.000000,4.000000,4.000000,4.000000,4.000000,4.000000,4.000000,4.000000,4.000000,4.000000,4.000000,4.000000,100.000000,,,,,,,,,,,,,,,,,,,,,,,,,,,,,,,,,,,,,,,,,,,,,,,,,,,,,,,,,,,,,,,,,,,,,,,,,,,,,,,,,,,,,,,,,,,,,,,,,,,,,,,,,,,,,,,,,,,,,
1768373706.886715,1768373706.887208,100.000000,0.000000,4143.461426,4248.205078,4310.769043,4353.333496,4302.436035,4308.717773,4315.000000,4324.871582,4273.589844,4295.641113,4508.717773,4530.769043,4202.692383,3831.410156,4994.000000,1.000000,30.000000,,,,0.000000,4.000000,4.000000,4.000000,4.000000,4.000000,4.000000,4.000000,4.000000,4.000000,4.000000,4.000000,4.000000,4.000000,4.000000,100.000000,,,,,,,,,,,,,,,,,,,,,,,,,,,,,,,,,,,,,,,,,,,,,,,,,,,,,,,,,,,,,,,,,,,,,,,,,,,,,,,,,,,,,,,,,,,,,,,,,,,,,,,,,,,,,,,,,,,,,
1768373706.894524,1768373706.895017,101.000000,0.000000,4138.205078,4251.922852,4306.282227,4354.743652,4312.692383,4305.641113,4311.794922,4323.717773,4274.743652,4295.512695,4490.384766,4525.512695,4192.051270,3833.846191,5375.000000,1.000000,30.000000,,,,0.000000,4.000000,4.000000,4.000000,4.000000,4.000000,4.000000,4.000000,4.000000,4.000000,4.000000,4.000000,4.000000,4.000000,4.000000,100.000000,,,,,,,,,,,,,,,,,,,,,,,,,,,,,,,,,,,,,,,,,,,,,,,,,,,,,,,,,,,,,,,,,,,,,,,,,,,,,,,,,,,,,,,,,,,,,,,,,,,,,,,,,,,,,,,,,,,,,
1768373706.902332,1768373706.902725,102.000000,0.000000,4137.179688,4258.589844,4306.666504,4353.846191,4303.589844,4301.666504,4310.384766,4322.051270,4276.282227,4303.974121,4493.717773,4522.563965,4194.615234,3833.333252,4415.000000,1.000000,30.000000,,,,0.000000,4.000000,4.000000,4.000000,4.000000,4.000000,4.000000,4.000000,4.000000,4.000000,4.000000,4.000000,4.000000,4.000000,4.000000,100.000000,,,,,,,,,,,,,,,,,,,,,,,,,,,,,,,,,,,,,,,,,,,,,,,,,,,,,,,,,,,,,,,,,,,,,,,,,,,,,,,,,,,,,,,,,,,,,,,,,,,,,,,,,,,,,,,,,,,,,
1768373706.910140,1768373706.910534,103.000000,0.000000,4148.589844,4256.410156,4308.974121,4353.205078,4299.743652,4299.871582,4310.512695,4320.641113,4274.487305,4307.692383,4507.436035,4521.666504,4202.436035,3840.128174,4756.000000,1.000000,30.000000,,,,0.000000,4.000000,4.000000,4.000000,4.000000,4.000000,4.000000,4.000000,4.000000,4.000000,4.000000,4.000000,4.000000,4.000000,4.000000,100.000000,,,,,,,,,,,,,,,,,,,,,,,,,,,,,,,,,,,,,,,,,,,,,,,,,,,,,,,,,,,,,,,,,,,,,,,,,,,,,,,,,,,,,,,,,,,,,,,,,,,,,,,,,,,,,,,,,,,,,
1768373706.917949,1768373706.918542,104.000000,0.000000,4148.461426,4248.974121,4310.512695,4348.461426,4312.307617,4305.897461,4311.794922,4316.538574,4269.871582,4296.538574,4497.051270,4518.717773,4197.307617,3848.205078,4994.000000,1.000000,30.000000,,,,0.000000,4.000000,4.000000,4.000000,4.000000,4.000000,4.000000,4.000000,4.000000,4.000000,4.000000,4.000000,4.000000,4.000000,4.000000,100.000000,,,,,,,,,,,,,,,,,,,,,,,,,,,,,,,,,,,,,,,,,,,,,,,,,,,,,,,,,,,,,,,,,,,,,,,,,,,,,,,,,,,,,,,,,,,,,,,,,,,,,,,,,,,,,,,,,,,,,
1768373706.925757,1768373706.926350,105.000000,0.000000,4136.538574,4246.410156,4308.589844,4342.820313,4314.230957,4312.307617,4311.025879,4314.230957,4269.358887,4287.820313,4482.563965,4512.179688,4191.153809,3846.794922,5375.000000,1.000000,30.000000,,,,0.000000,4.000000,4.000000,4.000000,4.000000,4.000000,4.000000,4.000000,4.000000,4.000000,4.000000,4.000000,4.000000,4.000000,4.000000,100.000000,,,,,,,,,,,,,,,,,,,,,,,,,,,,,,,,,,,,,,,,,,,,,,,,,,,,,,,,,,,,,,,,,,,,,,,,,,,,,,,,,,,,,,,,,,,,,,,,,,,,,,,,,,,,,,,,,,,,,
1768373706.933566,1768373706.934259,106.000000,0.000000,4144.358887,4250.384766,4306.025879,4344.230957,4305.000000,4308.333496,4309.743652,4319.230957,4271.794922,4300.128418,4486.282227,4513.974121,4190.641113,3840.000000,4415.000000,1.000000,30.000000,,,,0.000000,4.000000,4.000000,4.000000,4.000000,4.000000,4.000000,4.000000,4.000000,4.000000,4.000000,4.000000,4.000000,4.000000,4.000000,100.000000,,,,,,,,,,,,,,,,,,,,,,,,,,,,,,,,,,,,,,,,,,,,,,,,,,,,,,,,,,,,,,,,,,,,,,,,,,,,,,,,,,,,,,,,,,,,,,,,,,,,,,,,,,,,,,,,,,,,,
1768373706.941374,1768373706.942067,107.000000,0.000000,4160.897461,4259.871582,4312.692383,4355.000000,4305.000000,4307.307617,4318.205078,4331.025879,4286.666504,4321.538574,4509.102539,4538.589844,4209.487305,3854.102539,4756.000000,1.000000,30.000000,,,,0.000000,4.000000,4.000000,4.000000,4.000000,4.000000,4.000000,4.000000,4.000000,4.000000,4.000000,4.000000,4.000000,4.000000,4.000000,100.000000,,,,,,,,,,,,,,,,,,,,,,,,,,,,,,,,,,,,,,,,,,,,,,,,,,,,,,,,,,,,,,,,,,,,,,,,,,,,,,,,,,,,,,,,,,,,,,,,,,,,,,,,,,,,,,,,,,,,,
1768373706.949183,1768373706.950075,108.000000,0.000000,4161.794922,4267.307617,4321.153809,4362.563965,4310.384766,4311.153809,4325.641113,4339.487305,4300.128418,4326.794922,4528.717773,4556.538574,4234.615234,3886.025635,4994.000000,1.000000,30.000000,,,,0.000000,4.000000,4.000000,4.000000,4.000000,4.000000,4.000000,4.000000,4.000000,4.000000,4.000000,4.000000,4.000000,4.000000,4.000000,100.000000,,,,,,,,,,,,,,,,,,,,,,,,,,,,,,,,,,,,,,,,,,,,,,,,,,,,,,,,,,,,,,,,,,,,,,,,,,,,,,,,,,,,,,,,,,,,,,,,,,,,,,,,,,,,,,,,,,,,,
1768373706.956991,1768373706.957884,109.000000,0.000000,4159.358887,4265.769043,4316.282227,4359.743652,4310.897461,4310.256348,4322.820313,4335.769043,4290.769043,4312.948730,4517.436035,4541.794922,4228.846191,3891.666748,5375.000000,1.000000,30.000000,,,,0.000000,4.000000,4.000000,4.000000,4.000000,4.000000,4.000000,4.000000,4.000000,4.000000,4.000000,4.000000,4.000000,4.000000,4.000000,100.000000,,,,,,,,,,,,,,,,,,,,,,,,,,,,,,,,,,,,,,,,,,,,,,,,,,,,,,,,,,,,,,,,,,,,,,,,,,,,,,,,,,,,,,,,,,,,,,,,,,,,,,,,,,,,,,,,,,,,,
1768373706.964800,1768373706.965592,110.000000,0.000000,4164.102539,4262.179688,4309.230957,4356.153809,4312.436035,4309.487305,4320.769043,4329.230957,4280.256348,4306.666504,4501.922852,4528.717773,4213.846191,3872.179443,4415.000000,1.000000,30.000000,,,,0.000000,4.000000,4.000000,4.000000,4.000000,4.000000,4.000000,4.000000,4.000000,4.000000,4.000000,4.000000,4.000000,4.000000,4.000000,100.000000,,,,,,,,,,,,,,,,,,,,,,,,,,,,,,,,,,,,,,,,,,,,,,,,1.238451,0.311964,0.201253,0.301449,0.189883,0.480799,0.398682,0.114603,0.091565,0.113195,1.039779,0.431212,0.114058,0.129627,0.113323,0.547963,0.282723,0.135836,0.105575,0.103838,0.279742,0.241093,0.194234,0.588794,0.405930,0.315521,0.259736,0.320532,0.076902,0.267332,0.184193,0.188291,0.311632,0.134525,0.098516,0.486539,0.425661,0.382571,0.085710,0.138406,0.552126,0.771916,0.409187,0.124858,0.166303,0.813604,0.694221,0.238931,0.602505,0.300682,1.080797,1.355955,0.430497,0.416877,0.440734,1.979372,0.803179,0.305971,0.288971,0.243251,1.009396,1.237773,0.429302,0.377437,0.276926,1.674291,1.242865,0.473969,0.622222,0.830841
1768373706.972608,1768373706.973401,111.000000,0.000000,4167.436035,4260.128418,4310.769043,4357.179688,4308.589844,4310.512695,4321.538574,4324.615234,4282.179688,4316.538574,4508.589844,4537.307617,4218.461426,3877.051270,4756.000000,1.000000,30.000000,,,,0.000000,4.000000,4.000000,4.000000,4.000000,4.000000,4.000000,4.000000,4.000000,4.000000,4.000000,4.000000,4.000000,4.000000,4.000000,100.000000,,,,,,,,,,,,,,,,,,,,,,,,,,,,,,,,,,,,,,,,,,,,,,,,,,,,,,,,,,,,,,,,,,,,,,,,,,,,,,,,,,,,,,,,,,,,,,,,,,,,,,,,,,,,,,,,,,,,,
1768373706.980416,1768373706.981209,112.000000,0.000000,4164.743652,4257.436035,4311.538574,4355.769043,4307.436035,4311.794922,4321.538574,4321.538574,4281.794922,4311.666504,4512.436035,4539.358887,4219.230957,3889.358887,4994.000000,1.000000,30.000000,,,,0.000000,4.000000,4.000000,4.000000,4.000000,4.000000,4.000000,4.000000,4.000000,4.000000,4.000000,4.000000,4.000000,4.000000,4.000000,100.000000,,,,,,,,,,,,,,,,,,,,,,,,,,,,,,,,,,,,,,,,,,,,,,,,,,,,,,,,,,,,,,,,,,,,,,,,,,,,,,,,,,,,,,,,,,,,,,,,,,,,,,,,,,,,,,,,,,,,,
1768373706.988225,1768373706.989018,113.000000,0.000000,4162.692383,4259.358887,4313.974121,4351.794922,4311.282227,4309.743652,4317.051270,4324.102539,4280.128418,4296.666504,4505.897461,4532.563965,4214.102539,3882.307617,5375.000000,1.000000,30.000000,,,,0.000000,4.000000,4.000000,4.000000,4.000000,4.000000,4.000000,4.000000,4.000000,4.000000,4.000000,4.000000,4.000000,4.000000,4.000000,100.000000,,,,,,,,,,,,,,,,,,,,,,,,,,,,,,,,,,,,,,,,,,,,,,,,,,,,,,,,,,,,,,,,,,,,,,,,,,,,,,,,,,,,,,,,,,,,,,,,,,,,,,,,,,,,,,,,,,,,,
1768373706.996033,1768373706.996726,114.000000,0.000000,4167.307617,4262.820313,4320.256348,4353.205078,4309.871582,4305.256348,4313.333496,4325.641113,4280.256348,4301.666504,4508.077148,4538.846191,4220.512695,3885.641113,4415.000000,1.000000,30.000000,,,,0.000000,4.000000,4.000000,4.000000,4.000000,4.000000,4.000000,4.000000,4.000000,4.000000,4.000000,4.000000,4.000000,4.000000,4.000000,100.000000,,,,,,,,,,,,,,,,,,,,,,,,,,,,,,,,,,,,,,,,,,,,,,,,,,,,,,,,,,,,,,,,,,,,,,,,,,,,,,,,,,,,,,,,,,,,,,,,,,,,,,,,,,,,,,,,,,,,,
1768373707.003842,1768373707.004535,115.000000,0.000000,4169.102539,4263.461426,4318.333496,4357.948730,4309.871582,4308.461426,4318.461426,4322.051270,4279.615234,4311.538574,4507.051270,4545.512695,4219.487305,3894.871826,4756.000000,1.000000,30.000000,,,,0.000000,4.000000,4.000000,4.000000,4.000000,4.000000,4.000000,4.000000,4.000000,4.000000,4.000000,4.000000,4.000000,4.000000,4.000000,100.000000,,,,,,,,,,,,,,,,,,,,,,,,,,,,,,,,,,,,,,,,,,,,,,,,,,,,,,,,,,,,,,,,,,,,,,,,,,,,,,,,,,,,,,,,,,,,,,,,,,,,,,,,,,,,,,,,,,,,,
1768373707.011650,1768373707.012143,116.000000,0.000000,4167.307617,4264.102539,4311.666504,4359.871582,4310.000000,4314.871582,4320.769043,4321.666504,4279.615234,4311.666504,4507.179688,4540.256348,4217.692383,3893.461426,4994.000000,1.000000,30.000000,,,,0.000000,4.000000,4.000000,4.000000,4.000000,4.000000,4.000000,4.000000,4.000000,4.000000,4.000000,4.000000,4.000000,4.000000,4.000000,100.000000,,,,,,,,,,,,,,,,,,,,,,,,,,,,,,,,,,,,,,,,,,,,,,,,,,,,,,,,,,,,,,,,,,,,,,,,,,,,,,,,,,,,,,,,,,,,,,,,,,,,,,,,,,,,,,,,,,,,,
1768373707.019459,1768373707.019952,117.000000,0.000000,4177.436035,4266.538574,4312.179688,4359.102539,4306.153809,4309.230957,4312.692383,4325.641113,4281.410156,4315.256348,4515.512695,4539.487305,4231.922852,3898.333252,5375.000000,1.000000,30.000000,,,,0.000000,4.000000,4.000000,4.000000,4.000000,4.000000,4.000000,4.000000,4.000000,4.000000,4.000000,4.000000,4.000000,4.000000,4.000000,100.000000,,,,,,,,,,,,,,,,,,,,,,,,,,,,,,,,,,,,,,,,,,,,,,,,,,,,,,,,,,,,,,,,,,,,,,,,,,,,,,,,,,,,,,,,,,,,,,,,,,,,,,,,,,,,,,,,,,,,,
1768373707.027267,1768373707.027660,118.000000,0.000000,4184.615234,4267.307617,4314.102539,4356.922852,4307.692383,4300.769043,4307.563965,4324.230957,4279.615234,4315.000000,4512.948730,4541.666504,4235.641113,3915.128174,4415.000000,1.000000,30.000000,,,,0.000000,4.000000,4.000000,4.000000,4.000000,4.000000,4.000000,4.000000,4.000000,4.000000,4.000000,4.000000,4.000000,4.000000,4.000000,100.000000,,,,,,,,,,,,,,,,,,,,,,,,,,,,,,,,,,,,,,,,,,,,,,,,,,,,,,,,,,,,,,,,,,,,,,,,,,,,,,,,,,,,,,,,,,,,,,,,,,,,,,,,,,,,,,,,,,,,,
1768373707.035076,1768373707.035469,119.000000,0.000000,4174.358887,4264.615234,4310.000000,4357.820313,4314.230957,4306.025879,4311.794922,4320.128418,4277.436035,4305.897461,4505.384766,4536.282227,4227.692383,3914.102539,4756.000000,1.000000,30.000000,,,,0.000000,4.000000,4.000000,4.000000,4.000000,4.000000,4.000000,4.000000,4.000000,4.000000,4.000000,4.000000,4.000000,4.000000,4.000000,100.000000,,,,,,,,,,,,,,,,,,,,,,,,,,,,,,,,,,,,,,,,,,,,,,,,,,,,,,,,,,,,,,,,,,,,,,,,,,,,,,,,,,,,,,,,,,,,,,,,,,,,,,,,,,,,,,,,,,,,,
1768373707.042884,1768373707.043477,120.000000,0.000000,4166.025879,4262.051270,4307.179688,4354.615234,4306.922852,4312.692383,4314.743652,4322.436035,4279.743652,4302.563965,4506.538574,4532.948730,4221.922852,3891.538574,4994.000000,1.000000,30.000000,,,,0.000000,4.000000,4.000000,4.000000,4.000000,4.000000,4.000000,4.000000,4.000000,4.000000,4.000000,4.000000,4.000000,4.000000,4.000000,100.000000,,,,,,,,,,,,,,,,,,,,,,,,,,,,,,,,,,,,,,,,,,,,,,,,,,,,,,,,,,,,,,,,,,,,,,,,,,,,,,,,,,,,,,,,,,,,,,,,,,,,,,,,,,,,,,,,,,,,,
1768373707.050692,1768373707.051286,121.000000,0.000000,4165.000000,4263.333496,4307.692383,4347.307617,4300.512695,4310.128418,4318.077148,4327.820313,4282.051270,4303.589844,4508.461426,4538.461426,4223.333496,3895.000000,5375.000000,1.000000,30.000000,,,,0.000000,4.000000,4.000000,4.000000,4.000000,4.000000,4.000000,4.000000,4.000000,4.000000,4.000000,4.000000,4.000000,4.000000,4.000000,100.000000,,,,,,,,,,,,,,,,,,,,,,,,,,,,,,,,,,,,,,,,,,,,,,,,,,,,,,,,,,,,,,,,,,,,,,,,,,,,,,,,,,,,,,,,,,,,,,,,,,,,,,,,,,,,,,,,,,,,,
1768373707.058501,1768373707.059194,122.000000,0.000000,4169.102539,4262.307617,4306.922852,4345.384766,4304.871582,4308.589844,4321.153809,4328.077148,4281.410156,4301.025879,4507.820313,4540.769043,4228.589844,3912.692383,4415.000000,1.000000,30.000000,,,,0.000000,4.000000,4.000000,4.000000,4.000000,4.000000,4.000000,4.000000,4.000000,4.000000,4.000000,4.000000,4.000000,4.000000,4.000000,100.000000,,,,,,,,,,,,,,,,,,,,,,,,,,,,,,,,,,,,,,,,,,,,,,,,,,,,,,,,,,,,,,,,,,,,,,,,,,,,,,,,,,,,,,,,,,,,,,,,,,,,,,,,,,,,,,,,,,,,,
1768373707.066309,1768373707.067002,123.000000,0.000000,4166.666504,4255.128418,4304.230957,4346.282227,4303.589844,4312.051270,4321.794922,4329.615234,4280.641113,4304.230957,4506.410156,4536.410156,4221.922852,3901.025635,4756.000000,1.000000,30.000000,,,,0.000000,4.000000,4.000000,4.000000,4.000000,4.000000,4.000000,4.000000,4.000000,4.000000,4.000000,4.000000,4.000000,4.000000,4.000000,100.000000,,,,,,,,,,,,,,,,,,,,,,,,,,,,,,,,,,,,,,,,,,,,,,,,,,,,,,,,,,,,,,,,,,,,,,,,,,,,,,,,,,,,,,,,,,,,,,,,,,,,,,,,,,,,,,,,,,,,,
1768373707.074118,1768373707.074611,124.000000,0.000000,4155.512695,4254.871582,4305.128418,4346.410156,4305.256348,4310.769043,4320.512695,4335.256348,4283.461426,4312.948730,4504.615234,4535.384766,4210.384766,3891.025635,4994.000000,1.000000,30.000000,,,,0.000000,4.000000,4.000000,4.000000,4.000000,4.000000,4.000000,4.000000,4.000000,4.000000,4.000000,4.000000,4.000000,4.000000,4.000000,100.000000,,,,,,,,,,,,,,,,,,,,,,,,,,,,,,,,,,,,,,,,,,,,,,,,,,,,,,,,,,,,,,,,,,,,,,,,,,,,,,,,,,,,,,,,,,,,,,,,,,,,,,,,,,,,,,,,,,,,,
1768373707.081926,1768373707.082419,125.000000,0.000000,4158.846191,4263.589844,4306.666504,4348.589844,4311.153809,4309.230957,4318.589844,4331.153809,4281.282227,4311.666504,4506.538574,4534.230957,4221.794922,3916.025635,5375.000000,1.000000,30.000000,,,,0.000000,4.000000,4.000000,4.000000,4.000000,4.000000,4.000000,4.000000,4.000000,4.000000,4.000000,4.000000,4.000000,4.000000,4.000000,100.000000,,,,,,,,,,,,,,,,,,,,,,,,,,,,,,,,,,,,,,,,,,,,,,,,,,,,,,,,,,,,,,,,,,,,,,,,,,,,,,,,,,,,,,,,,,,,,,,,,,,,,,,,,,,,,,,,,,,,,
1768373707.089735,1768373707.090128,126.000000,0.000000,4172.436035,4265.384766,4305.897461,4348.461426,4306.922852,4311.666504,4321.922852,4326.410156,4278.589844,4302.179688,4509.871582,4534.358887,4237.692383,3924.871826,4415.000000,1.000000,30.000000,,,,0.000000,4.000000,4.000000,4.000000,4.000000,4.000000,4.000000,4.000000,4.000000,4.000000,4.000000,4.000000,4.000000,4.000000,4.000000,100.000000,,,,,,,,,,,,,,,,,,,,,,,,,,,,,,,,,,,,,,,,,,,,,,,,0.778682,0.284259,0.221408,0.275372,0.180786,0.396281,0.319477,0.136752,0.092952,0.112404,0.957724,0.486176,0.131945,0.118527,0.118819,0.504411,0.247149,0.148816,0.100958,0.107447,0.344178,0.247546,0.221740,0.595317,0.394740,0.395213,0.228497,0.219538,0.080848,0.280274,0.187043,0.165098,0.212314,0.102969,0.102332,0.412424,0.303720,0.254999,0.073013,0.129957,0.563914,0.657242,0.298978,0.119846,0.154809,0.898498,0.654779,0.268448,0.563607,0.309593,1.064919,1.354216,0.402309,0.461118,0.400735,1.783708,0.811963,0.373869,0.269709,0.222920,1.050429,1.111030,0.359551,0.381622,0.208495,1.489571,1.106152,0.495840,0.565452,0.756585
1768373707.097543,1768373707.097936,127.000000,0.000000,4170.897461,4261.282227,4308.846191,4343.974121,4298.717773,4308.717773,4321.153809,4330.769043,4285.769043,4300.897461,4506.282227,4539.871582,4226.666504,3907.307617,30.000000,1.000000,30.000000,,,,0.000000,4.000000,4.000000,4.000000,4.000000,4.000000,4.000000,4.000000,4.000000,4.000000,4.000000,4.000000,4.000000,4.000000,4.000000,100.000000,,,,,,,,,,,,,,,,,,,,,,,,,,,,,,,,,,,,,,,,,,,,,,,,,,,,,,,,,,,,,,,,,,,,,,,,,,,,,,,,,,,,,,,,,,,,,,,,,,,,,,,,,,,,,,,,,,,,,
1768373707.105351,1768373707.105945,0.000000,0.000000,4165.256348,4262.051270,4308.333496,4344.358887,4302.051270,4305.897461,4313.717773,4333.589844,4288.461426,4310.769043,4505.384766,4543.974121,4217.307617,3915.641113,4068.000000,1.000000,30.000000,,,,0.000000,4.000000,4.000000,4.000000,4.000000,4.000000,4.000000,4.000000,4.000000,4.000000,4.000000,4.000000,4.000000,4.000000,4.000000,100.000000,,,,,,,,,,,,,,,,,,,,,,,,,,,,,,,,,,,,,,,,,,,,,,,,,,,,,,,,,,,,,,,,,,,,,,,,,,,,,,,,,,,,,,,,,,,,,,,,,,,,,,,,,,,,,,,,,,,,,
1768373707.113160,1768373707.113753,1.000000,0.000000,4167.820313,4264.102539,4299.871582,4345.897461,4306.794922,4308.974121,4311.282227,4330.256348,4285.512695,4316.922852,4510.384766,4544.487305,4226.538574,3930.000000,3984.000000,1.000000,30.000000,,,,0.000000,4.000000,4.000000,4.000000,4.000000,4.000000,4.000000,4.000000,4.000000,4.000000,4.000000,4.000000,4.000000,4.000000,4.000000,100.000000,,,,,,,,,,,,,,,,,,,,,,,,,,,,,,,,,,,,,,,,,,,,,,,,,,,,,,,,,,,,,,,,,,,,,,,,,,,,,,,,,,,,,,,,,,,,,,,,,,,,,,,,,,,,,,,,,,,,,
1768373707.120968,1768373707.121661,2.000000,0.000000,4162.692383,4259.871582,4291.025879,4340.128418,4297.307617,4310.769043,4312.179688,4325.384766,4283.589844,4314.871582,4510.384766,4540.128418,4232.563965,3924.615479,3894.000000,1.000000,30.000000,,,,0.000000,4.000000,4.000000,4.000000,4.000000,4.000000,4.000000,4.000000,4.000000,4.000000,4.000000,4.000000,4.000000,4.000000,4.000000,100.000000,,,,,,,,,,,,,,,,,,,,,,,,,,,,,,,,,,,,,,,,,,,,,,,,,,,,,,,,,,,,,,,,,,,,,,,,,,,,,,,,,,,,,,,,,,,,,,,,,,,,,,,,,,,,,,,,,,,,,
1768373707.128777,1768373707.129470,3.000000,0.000000,4168.077148,4260.256348,4292.820313,4340.641113,4295.000000,4311.538574,4312.948730,4325.641113,4280.769043,4309.358887,4506.666504,4536.794922,4231.153809,3925.384521,3881.000000,1.000000,30.000000,,,,0.000000,4.000000,4.000000,4.000000,4.000000,4.000000,4.000000,4.000000,4.000000,4.000000,4.000000,4.000000,4.000000,4.000000,4.000000,100.000000,,,,,,,,,,,,,,,,,,,,,,,,,,,,,,,,,,,,,,,,,,,,,,,,,,,,,,,,,,,,,,,,,,,,,,,,,,,,,,,,,,,,,,,,,,,,,,,,,,,,,,,,,,,,,,,,,,,,,
1768373707.136585,1768373707.137478,4.000000,0.000000,4181.282227,4267.692383,4303.974121,4348.589844,4305.128418,4312.051270,4316.153809,4331.538574,4286.794922,4306.410156,4507.307617,4541.410156,4229.230957,3928.846191,3830.000000,1.000000,30.000000,,,,0.000000,4.000000,4.000000,4.000000,4.000000,4.000000,4.000000,4.000000,4.000000,4.000000,4.000000,4.000000,4.000000,4.000000,4.000000,100.000000,,,,,,,,,,,,,,,,,,,,,,,,,,,,,,,,,,,,,,,,,,,,,,,,,,,,,,,,,,,,,,,,,,,,,,,,,,,,,,,,,,,,,,,,,,,,,,,,,,,,,,,,,,,,,,,,,,,,,
1768373707.144394,1768373707.145287,5.000000,0.000000,4172.820313,4269.487305,4311.922852,4349.871582,4307.051270,4311.666504,4320.641113,4338.589844,4293.461426,4310.769043,4510.512695,4547.692383,4230.000000,3923.589844,3742.000000,1.000000,30.000000,,,,0.000000,4.000000,4.000000,4.000000,4.000000,4.000000,4.000000,4.000000,4.000000,4.000000,4.000000,4.000000,4.000000,4.000000,4.000000,100.000000,,,,,,,,,,,,,,,,,,,,,,,,,,,,,,,,,,,,,,,,,,,,,,,,,,,,,,,,,,,,,,,,,,,,,,,,,,,,,,,,,,,,,,,,,,,,,,,,,,,,,,,,,,,,,,,,,,,,,
1768373707.152202,1768373707.153195,6.000000,0.000000,4169.102539,4266.025879,4309.743652,4347.051270,4305.256348,4316.282227,4322.051270,4337.307617,4286.666504,4314.358887,4509.358887,4540.769043,4229.743652,3933.461426,3764.000000,1.000000,30.000000,,,,0.000000,4.000000,4.000000,4.000000,4.000000,4.000000,4.000000,4.000000,4.000000,4.000000,4.000000,4.000000,4.000000,4.000000,4.000000,100.000000,,,,,,,,,,,,,,,,,,,,,,,,,,,,,,,,,,,,,,,,,,,,,,,,,,,,,,,,,,,,,,,,,,,,,,,,,,,,,,,,,,,,,,,,,,,,,,,,,,,,,,,,,,,,,,,,,,,,,
1768373707.160010,1768373707.161003,7.000000,0.000000,4183.333496,4263.461426,4306.282227,4347.051270,4307.948730,4320.256348,4324.102539,4332.436035,4282.307617,4307.307617,4508.205078,4535.256348,4229.230957,3948.589844,3617.000000,1.000000,30.000000,,,,0.000000,4.000000,4.000000,4.000000,4.000000,4.000000,4.000000,4.000000,4.000000,4.000000,4.000000,4.000000,4.000000,4.000000,4.000000,100.000000,,,,,,,,,,,,,,,,,,,,,,,,,,,,,,,,,,,,,,,,,,,,,,,,,,,,,,,,,,,,,,,,,,,,,,,,,,,,,,,,,,,,,,,,,,,,,,,,,,,,,,,,,,,,,,,,,,,,,
1768373707.167819,1768373707.169012,8.000000,0.000000,4187.563965,4265.384766,4309.871582,4347.692383,4302.563965,4313.461426,4325.769043,4336.538574,4291.794922,4303.333496,4513.333496,4551.025879,4230.256348,3947.307617,3959.000000,1.000000,30.000000,,,,0.000000,4.000000,4.000000,4.000000,4.000000,4.000000,4.000000,4.000000,4.000000,4.000000,4.000000,4.000000,4.000000,4.000000,4.000000,100.000000,,,,,,,,,,,,,,,,,,,,,,,,,,,,,,,,,,,,,,,,,,,,,,,,,,,,,,,,,,,,,,,,,,,,,,,,,,,,,,,,,,,,,,,,,,,,,,,,,,,,,,,,,,,,,,,,,,,,,
1768373707.175627,1768373707.176820,9.000000,0.000000,4184.358887,4269.615234,4309.487305,4347.179688,4294.615234,4312.436035,4324.487305,4341.666504,4293.589844,4313.333496,4522.179688,4558.846191,4233.974121,3944.230713,3939.000000,1.000000,30.000000,,,,0.000000,4.000000,4.000000,4.000000,4.000000,4.000000,4.000000,4.000000,4.000000,4.000000,4.000000,4.000000,4.000000,4.000000,4.000000,100.000000,,,,,,,,,,,,,,,,,,,,,,,,,,,,,,,,,,,,,,,,,,,,,,,,,,,,,,,,,,,,,,,,,,,,,,,,,,,,,,,,,,,,,,,,,,,,,,,,,,,,,,,,,,,,,,,,,,,,,
1768373707.183436,1768373707.184728,10.000000,0.000000,4187.307617,4272.051270,4306.538574,4347.563965,4300.512695,4324.102539,4325.641113,4338.333496,4290.128418,4327.563965,4529.743652,4546.794922,4242.051270,3944.615479,4415.000000,1.000000,30.000000,,,,0.000000,4.000000,4.000000,4.000000,4.000000,4.000000,4.000000,4.000000,4.000000,4.000000,4.000000,4.000000,4.000000,4.000000,4.000000,100.000000,,,,,,,,,,,,,,,,,,,,,,,,,,,,,,,,,,,,,,,,,,,,,,,,,,,,,,,,,,,,,,,,,,,,,,,,,,,,,,,,,,,,,,,,,,,,,,,,,,,,,,,,,,,,,,,,,,,,,
1768373707.191244,1768373707.192537,11.000000,0.000000,4187.563965,4272.563965,4311.282227,4349.871582,4309.871582,4325.897461,4323.205078,4332.563965,4292.307617,4329.358887,4526.666504,4545.897461,4245.512695,3950.641113,4722.000000,1.000000,30.000000,,,,0.000000,4.000000,4.000000,4.000000,4.000000,4.000000,4.000000,4.000000,4.000000,4.000000,4.000000,4.000000,4.000000,4.000000,4.000000,100.000000,,,,,,,,,,,,,,,,,,,,,,,,,,,,,,,,,,,,,,,,,,,,,,,,,,,,,,,,,,,,,,,,,,,,,,,,,,,,,,,,,,,,,,,,,,,,,,,,,,,,,,,,,,,,,,,,,,,,,
1768373707.199053,1768373707.200146,12.000000,0.000000,4189.358887,4272.051270,4314.871582,4351.025879,4308.846191,4317.948730,4318.333496,4333.205078,4293.461426,4321.666504,4524.871582,4558.077148,4245.897461,3969.230713,4988.000000,1.000000,30.000000,,,,0.000000,4.000000,4.000000,4.000000,4.000000,4.000000,4.000000,4.000000,4.000000,4.000000,4.000000,4.000000,4.000000,4.000000,4.000000,100.000000,,,,,,,,,,,,,,,,,,,,,,,,,,,,,,,,,,,,,,,,,,,,,,,,,,,,,,,,,,,,,,,,,,,,,,,,,,,,,,,,,,,,,,,,,,,,,,,,,,,,,,,,,,,,,,,,,,,,,
1768373707.206861,1768373707.207954,13.000000,0.000000,4199.743652,4275.641113,4310.897461,4350.641113,4303.717773,4319.358887,4319.743652,4337.948730,4295.256348,4321.282227,4535.128418,4562.563965,4247.051270,3978.974365,5367.000000,1.000000,30.000000,,,,0.000000,4.000000,4.000000,4.000000,4.000000,4.000000,4.000000,4.000000,4.000000,4.000000,4.000000,4.000000,4.000000,4.000000,4.000000,100.000000,,,,,,,,,,,,,,,,,,,,,,,,,,,,,,,,,,,,,,,,,,,,,,,,,,,,,,,,,,,,,,,,,,,,,,,,,,,,,,,,,,,,,,,,,,,,,,,,,,,,,,,,,,,,,,,,,,,,,
1768373707.214670,1768373707.215663,14.000000,0.000000,4202.051270,4280.384766,4308.717773,4354.102539,4305.128418,4321.153809,4319.743652,4336.666504,4297.307617,4329.102539,4535.641113,4558.846191,4248.333496,3970.256348,4415.000000,1.000000,30.000000,,,,0.000000,4.000000,4.000000,4.000000,4.000000,4.000000,4.000000,4.000000,4.000000,4.000000,4.000000,4.000000,4.000000,4.000000,4.000000,100.000000,1.000000,50.000000,1.000000,4.000000,4.000000,4.000000,4.000000,4.000000,4.000000,4.000000,4.000000,4.000000,4.000000,4.000000,4.000000,1.000000,,,,,,,,,,,,,,,,,,,,,,,,,,,,,,,,0.594283,0.275927,0.236392,0.262971,0.180867,0.402734,0.251002,0.176528,0.103676,0.116722,0.885674,0.502977,0.149680,0.107539,0.116926,0.521051,0.211544,0.163316,0.098810,0.111937,0.394311,0.239093,0.236604,0.572658,0.366455,0.470023,0.215242,0.162522,0.085911,0.274287,0.188494,0.187590,0.168765,0.077552,0.103265,0.393131,0.292455,0.201818,0.073028,0.116804,0.551793,0.568028,0.254499,0.124741,0.140189,0.920609,0.564524,0.299501,0.522889,0.315841,0.996696,1.218950,0.387850,0.518594,0.365671,1.572257,0.774610,0.429740,0.267257,0.199371,1.074221,0.932885,0.304962,0.403898,0.169679,1.304465,0.924931,0.526715,0.552056,0.696850
1768373707.222478,1768373707.223471,15.000000,0.000000,4201.922852,4281.922852,4312.179688,4359.358887,4306.282227,4311.282227,4310.769043,4329.358887,4295.512695,4331.922852,4523.333496,4553.205078,4249.743652,3973.589844,4722.000000,1.000000,30.000000,,,,0.000000,4.000000,4.000000,4.000000,4.000000,4.000000,4.000000,4.000000,4.000000,4.000000,4.000000,4.000000,4.000000,4.000000,4.000000,100.000000,,,,,,,,,,,,,,,,,,,,,,,,,,,,,,,,,,,,,,,,,,,,,,,,,,,,,,,,,,,,,,,,,,,,,,,,,,,,,,,,,,,,,,,,,,,,,,,,,,,,,,,,,,,,,,,,,,,,,
1768373707.230286,1768373707.231080,16.000000,0.000000,4203.589844,4279.487305,4313.333496,4359.102539,4304.615234,4308.717773,4308.846191,4325.384766,4292.820313,4323.717773,4521.153809,4544.743652,4249.102539,3977.564209,0.000000,1.000000,30.000000,,,,0.000000,4.000000,4.000000,4.000000,4.000000,4.000000,4.000000,4.000000,4.000000,4.000000,4.000000,4.000000,4.000000,4.000000,4.000000,100.000000,,,,,,,,,,,,,,,,,,,,,,,,,,,,,,,,,,,,,,,,,,,,,,,,,,,,,,,,,,,,,,,,,,,,,,,,,,,,,,,,,,,,,,,,,,,,,,,,,,,,,,,,,,,,,,,,,,,,,
1768373707.238095,1768373707.238888,17.000000,0.000000,4200.641113,4278.205078,4311.025879,4354.743652,4311.922852,4316.282227,4316.666504,4327.948730,4289.102539,4310.641113,4525.641113,4540.128418,4245.000000,3965.641113,0.000000,1.000000,30.000000,,,,0.000000,4.000000,4.000000,4.000000,4.000000,4.000000,4.000000,4.000000,4.000000,4.000000,4.000000,4.000000,4.000000,4.000000,4.000000,100.000000,,,,,,,,,,,,,,,,,,,,,,,,,,,,,,,,,,,,,,,,,,,,,,,,,,,,,,,,,,,,,,,,,,,,,,,,,,,,,,,,,,,,,,,,,,,,,,,,,,,,,,,,,,,,,,,,,,,,,
1768373707.245903,1768373707.246796,18.000000,0.000000,4204.871582,4281.538574,4308.205078,4352.948730,4317.307617,4315.128418,4313.717773,4329.358887,4287.692383,4305.897461,4521.410156,4543.589844,4240.641113,3969.871826,0.000000,1.000000,30.000000,,,,0.000000,4.000000,4.000000,4.000000,4.000000,4.000000,4.000000,4.000000,4.000000,4.000000,4.000000,4.000000,4.000000,4.000000,4.000000,100.000000,,,,,,,,,,,,,,,,,,,,,,,,,,,,,,,,,,,,,,,,,,,,,,,,,,,,,,,,,,,,,,,,,,,,,,,,,,,,,,,,,,,,,,,,,,,,,,,,,,,,,,,,,,,,,,,,,,,,,
1768373707.253712,1768373707.254605,19.000000,0.000000,4214.743652,4281.922852,4309.487305,4353.461426,4307.436035,4311.410156,4309.230957,4328.589844,4290.769043,4313.589844,4519.102539,4547.692383,4247.820313,3986.538574,0.000000,1.000000,30.000000,,,,0.000000,4.000000,4.000000,4.000000,4.000000,4.000000,4.000000,4.000000,4.000000,4.000000,4.000000,4.000000,4.000000,4.000000,4.000000,100.000000,,,,,,,,,,,,,,,,,,,,,,,,,,,,,,,,,,,,,,,,,,,,,,,,,,,,,,,,,,,,,,,,,,,,,,,,,,,,,,,,,,,,,,,,,,,,,,,,,,,,,,,,,,,,,,,,,,,,,
1768373707.261520,1768373707.262613,20.000000,0.000000,4215.897461,4280.897461,4317.179688,4356.153809,4304.230957,4319.102539,4319.615234,4332.436035,4295.641113,4323.077148,4529.871582,4552.563965,4257.948730,3989.358887,0.000000,1.000000,30.000000,,,,0.000000,4.000000,4.000000,4.000000,4.000000,4.000000,4.000000,4.000000,4.000000,4.000000,4.000000,4.000000,4.000000,4.000000,4.000000,100.000000,,,,,,,,,,,,,,,,,,,,,,,,,,,,,,,,,,,,,,,,,,,,,,,,,,,,,,,,,,,,,,,,,,,,,,,,,,,,,,,,,,,,,,,,,,,,,,,,,,,,,,,,,,,,,,,,,,,,,
1768373707.269329,1768373707.270422,21.000000,0.000000,4211.410156,4279.102539,4318.205078,4355.000000,4311.794922,4327.563965,4324.102539,4335.897461,4293.846191,4323.717773,4536.410156,4554.102539,4256.922852,3986.025635,0.000000,1.000000,30.000000,,,,0.000000,4.000000,4.000000,4.000000,4.000000,4.000000,4.000000,4.000000,4.000000,4.000000,4.000000,4.000000,4.000000,4.000000,4.000000,100.000000,,,,,,,,,,,,,,,,,,,,,,,,,,,,,,,,,,,,,,,,,,,,,,,,,,,,,,,,,,,,,,,,,,,,,,,,,,,,,,,,,,,,,,,,,,,,,,,,,,,,,,,,,,,,,,,,,,,,,
1768373707.277137,1768373707.278130,22.000000,0.000000,4213.461426,4278.077148,4310.641113,4353.461426,4310.769043,4319.743652,4313.333496,4334.871582,4292.307617,4322.563965,4530.128418,4548.846191,4253.717773,3984.871826,0.000000,1.000000,30.000000,,,,0.000000,4.000000,4.000000,4.000000,4.000000,4.000000,4.000000,4.000000,4.000000,4.000000,4.000000,4.000000,4.000000,4.000000,4.000000,100.000000,,,,,,,,,,,,,,,,,,,,,,,,,,,,,,,,,,,,,,,,,,,,,,,,,,,,,,,,,,,,,,,,,,,,,,,,,,,,,,,,,,,,,,,,,,,,,,,,,,,,,,,,,,,,,,,,,,,,,
1768373707.284946,1768373707.285939,23.000000,0.000000,4217.948730,4278.846191,4310.512695,4357.051270,4308.846191,4310.256348,4312.436035,4336.410156,4297.051270,4324.615234,4523.077148,4549.102539,4251.794922,3985.256348,0.000000,1.000000,30.000000,,,,0.000000,4.000000,4.000000,4.000000,4.000000,4.000000,4.000000,4.000000,4.000000,4.000000,4.000000,4.000000,4.000000,4.000000,4.000000,100.000000,,,,,,,,,,,,,,,,,,,,,,,,,,,,,,,,,,,,,,,,,,,,,,,,,,,,,,,,,,,,,,,,,,,,,,,,,,,,,,,,,,,,,,,,,,,,,,,,,,,,,,,,,,,,,,,,,,,,,
1768373707.292754,1768373707.293547,24.000000,0.000000,4217.051270,4280.128418,4315.384766,4356.794922,4313.846191,4319.102539,4325.769043,4336.538574,4297.436035,4324.102539,4523.589844,4549.743652,4249.358887,3998.846191,0.000000,1.000000,30.000000,,,,0.000000,4.000000,4.000000,4.000000,4.000000,4.000000,4.000000,4.000000,4.000000,4.000000,4.000000,4.000000,4.000000,4.000000,4.000000,100.000000,,,,,,,,,,,,,,,,,,,,,,,,,,,,,,,,,,,,,,,,,,,,,,,,,,,,,,,,,,,,,,,,,,,,,,,,,,,,,,,,,,,,,,,,,,,,,,,,,,,,,,,,,,,,,,,,,,,,,
1768373707.300563,1768373707.301356,25.000000,0.000000,4213.846191,4278.077148,4311.282227,4353.846191,4316.922852,4323.333496,4325.641113,4335.128418,4296.025879,4318.846191,4531.282227,4545.897461,4256.153809,4003.461426,0.000000,1.000000,30.000000,,,,0.000000,4.000000,4.000000,4.000000,4.000000,4.000000,4.000000,4.000000,4.000000,4.000000,4.000000,4.000000,4.000000,4.000000,4.000000,100.000000,,,,,,,,,,,,,,,,,,,,,,,,,,,,,,,,,,,,,,,,,,,,,,,,,,,,,,,,,,,,,,,,,,,,,,,,,,,,,,,,,,,,,,,,,,,,,,,,,,,,,,,,,,,,,,,,,,,,,
1768373707.308371,1768373707.309264,26.000000,0.000000,4215.000000,4278.974121,4311.153809,4355.128418,4313.846191,4312.948730,4318.077148,4336.922852,4298.717773,4318.589844,4540.256348,4554.102539,4263.717773,3987.051270,0.000000,1.000000,30.000000,,,,0.000000,4.000000,4.000000,4.000000,4.000000,4.000000,4.000000,4.000000,4.000000,4.000000,4.000000,4.000000,4.000000,4.000000,4.000000,100.000000,,,,,,,,,,,,,,,,,,,,,,,,,,,,,,,,,,,,,,,,,,,,,,,,,,,,,,,,,,,,,,,,,,,,,,,,,,,,,,,,,,,,,,,,,,,,,,,,,,,,,,,,,,,,,,,,,,,,,
1768373707.316179,1768373707.317072,27.000000,0.000000,4226.410156,4288.717773,4325.512695,4359.615234,4308.333496,4315.128418,4322.692383,4332.179688,4298.333496,4327.179688,4542.948730,4567.692383,4266.025879,3995.384521,0.000000,1.000000,30.000000,,,,0.000000,4.000000,4.000000,4.000000,4.000000,4.000000,4.000000,4.000000,4.000000,4.000000,4.000000,4.000000,4.000000,4.000000,4.000000,100.000000,,,,,,,,,,,,,,,,,,,,,,,,,,,,,,,,,,,,,,,,,,,,,,,,,,,,,,,,,,,,,,,,,,,,,,,,,,,,,,,,,,,,,,,,,,,,,,,,,,,,,,,,,,,,,,,,,,,,,
1768373707.323988,1768373707.325081,28.000000,0.000000,4236.410156,4289.358887,4331.153809,4360.769043,4307.948730,4321.025879,4321.025879,4322.307617,4293.717773,4328.461426,4538.974121,4562.820313,4272.179688,4025.384521,0.000000,1.000000,30.000000,,,,0.000000,4.000000,4.000000,4.000000,4.000000,4.000000,4.000000,4.000000,4.000000,4.000000,4.000000,4.000000,4.000000,4.000000,4.000000,100.000000,,,,,,,,,,,,,,,,,,,,,,,,,,,,,,,,,,,,,,,,,,,,,,,,,,,,,,,,,,,,,,,,,,,,,,,,,,,,,,,,,,,,,,,,,,,,,,,,,,,,,,,,,,,,,,,,,,,,,
1768373707.331796,1768373707.332889,29.000000,0.000000,4231.666504,4285.384766,4318.077148,4357.436035,4314.102539,4313.589844,4312.563965,4322.692383,4292.179688,4323.205078,4538.205078,4550.769043,4281.922852,4025.384521,0.000000,1.000000,30.000000,,,,0.000000,4.000000,4.000000,4.000000,4.000000,4.000000,4.000000,4.000000,4.000000,4.000000,4.000000,4.000000,4.000000,4.000000,4.000000,100.000000,,,,,,,,,,,,,,,,,,,,,,,,,,,,,,,,,,,,,,,,,,,,,,,,,,,,,,,,,,,,,,,,,,,,,,,,,,,,,,,,,,,,,,,,,,,,,,,,,,,,,,,,,,,,,,,,,,,,,
1768373707.339605,1768373707.340797,30.000000,0.000000,4224.358887,4289.358887,4309.358887,4356.025879,4320.256348,4314.230957,4317.051270,4328.974121,4295.512695,4322.051270,4544.230957,4557.307617,4280.512695,4001.794922,0.000000,1.000000,30.000000,,,,0.000000,4.000000,4.000000,4.000000,4.000000,4.000000,4.000000,4.000000,4.000000,4.000000,4.000000,4.000000,4.000000,4.000000,4.000000,100.000000,,,,,,,,,,,,,,,,,,,,,,,,,,,,,,,,,,,,,,,,,,,,,,,,0.488286,0.290386,0.243559,0.266411,0.188719,0.469148,0.207249,0.221420,0.121754,0.124405,0.830920,0.476350,0.163762,0.099157,0.109660,0.566018,0.190145,0.174088,0.101063,0.114876,0.418848,0.222288,0.233449,0.525229,0.327325,0.524484,0.205330,0.136440,0.089443,0.251173,0.188175,0.233215,0.164397,0.061229,0.100362,0.382760,0.342441,0.218921,0.086293,0.099671,0.529206,0.490703,0.270295,0.140157,0.125463,0.878776,0.447030,0.333271,0.486761,0.319787,0.892119,0.987344,0.405797,0.564726,0.346729,1.367803,0.706548,0.477180,0.284060,0.178186,1.064622,0.735673,0.294583,0.425281,0.168224,1.268869,0.743781,0.560693,0.547605,0.656919
1768373707.347413,1768373707.348606,31.000000,0.000000,4230.000000,4290.000000,4312.948730,4357.948730,4315.384766,4321.282227,4319.615234,4330.128418,4296.794922,4319.102539,4542.051270,4564.743652,4271.282227,4004.743652,0.000000,1.000000,30.000000,,,,0.000000,4.000000,4.000000,4.000000,4.000000,4.000000,4.000000,4.000000,4.000000,4.000000,4.000000,4.000000,4.000000,4.000000,4.000000,100.000000,,,,,,,,,,,,,,,,,,,,,,,,,,,,,,,,,,,,,,,,,,,,,,,,,,,,,,,,,,,,,,,,,,,,,,,,,,,,,,,,,,,,,,,,,,,,,,,,,,,,,,,,,,,,,,,,,,,,,
1768373707.355222,1768373707.356614,32.000000,0.000000,4235.641113,4287.820313,4313.974121,4358.205078,4306.794922,4315.512695,4310.769043,4325.512695,4295.384766,4310.256348,4531.922852,4556.922852,4264.487305,4025.769287,0.000000,1.000000,30.000000,,,,0.000000,4.000000,4.000000,4.000000,4.000000,4.000000,4.000000,4.000000,4.000000,4.000000,4.000000,4.000000,4.000000,4.000000,4.000000,100.000000,,,,,,,,,,,,,,,,,,,,,,,,,,,,,,,,,,,,,,,,,,,,,,,,,,,,,,,,,,,,,,,,,,,,,,,,,,,,,,,,,,,,,,,,,,,,,,,,,,,,,,,,,,,,,,,,,,,,,
1768373707.363030,1768373707.364423,33.000000,0.000000,4226.922852,4289.615234,4309.871582,4353.205078,4309.487305,4313.461426,4313.333496,4321.282227,4293.974121,4305.897461,4526.538574,4545.641113,4264.358887,4029.102539,0.000000,1.000000,30.000000,,,,0.000000,4.000000,4.000000,4.000000,4.000000,4.000000,4.000000,4.000000,4.000000,4.000000,4.000000,4.000000,4.000000,4.000000,4.000000,100.000000,,,,,,,,,,,,,,,,,,,,,,,,,,,,,,,,,,,,,,,,,,,,,,,,,,,,,,,,,,,,,,,,,,,,,,,,,,,,,,,,,,,,,,,,,,,,,,,,,,,,,,,,,,,,,,,,,,,,,
1768373707.370839,1768373707.372131,34.000000,0.000000,4222.051270,4284.487305,4305.897461,4348.333496,4312.692383,4325.512695,4324.743652,4320.128418,4295.128418,4313.589844,4526.410156,4540.641113,4262.692383,4013.718018,0.000000,1.000000,30.000000,,,,0.000000,4.000000,4.000000,4.000000,4.000000,4.000000,4.000000,4.000000,4.000000,4.000000,4.000000,4.000000,4.000000,4.000000,4.000000,100.000000,,,,,,,,,,,,,,,,,,,,,,,,,,,,,,,,,,,,,,,,,,,,,,,,,,,,,,,,,,,,,,,,,,,,,,,,,,,,,,,,,,,,,,,,,,,,,,,,,,,,,,,,,,,,,,,,,,,,,
1768373707.378647,1768373707.379940,35.000000,0.000000,4227.563965,4276.666504,4311.538574,4349.615234,4309.487305,4326.794922,4326.282227,4321.794922,4302.307617,4325.897461,4530.769043,4549.743652,4257.692383,4005.641113,0.000000,1.000000,30.000000,,,,0.000000,4.000000,4.000000,4.000000,4.000000,4.000000,4.000000,4.000000,4.000000,4.000000,4.000000,4.000000,4.000000,4.000000,4.000000,100.000000,,,,,,,,,,,,,,,,,,,,,,,,,,,,,,,,,,,,,,,,,,,,,,,,,,,,,,,,,,,,,,,,,,,,,,,,,,,,,,,,,,,,,,,,,,,,,,,,,,,,,,,,,,,,,,,,,,,,,
1768373707.386455,1768373707.387548,36.000000,0.000000,4234.487305,4281.410156,4323.846191,4354.358887,4309.102539,4315.769043,4323.077148,4323.846191,4310.000000,4331.153809,4538.717773,4560.000000,4267.179688,4019.743652,0.000000,1.000000,30.000000,,,,0.000000,4.000000,4.000000,4.000000,4.000000,4.000000,4.000000,4.000000,4.000000,4.000000,4.000000,4.000000,4.000000,4.000000,4.000000,100.000000,,,,,,,,,,,,,,,,,,,,,,,,,,,,,,,,,,,,,,,,,,,,,,,,,,,,,,,,,,,,,,,,,,,,,,,,,,,,,,,,,,,,,,,,,,,,,,,,,,,,,,,,,,,,,,,,,,,,,
1768373707.394264,1768373707.395357,37.000000,0.000000,4230.769043,4285.256348,4321.538574,4349.743652,4306.666504,4314.871582,4323.077148,4323.589844,4309.871582,4323.974121,4541.025879,4558.077148,4278.846191,4034.743652,0.000000,1.000000,30.000000,,,,0.000000,4.000000,4.000000,4.000000,4.000000,4.000000,4.000000,4.000000,4.000000,4.000000,4.000000,4.000000,4.000000,4.000000,4.000000,100.000000,,,,,,,,,,,,,,,,,,,,,,,,,,,,,,,,,,,,,,,,,,,,,,,,,,,,,,,,,,,,,,,,,,,,,,,,,,,,,,,,,,,,,,,,,,,,,,,,,,,,,,,,,,,,,,,,,,,,,
1768373707.402072,1768373707.403065,38.000000,0.000000,4221.025879,4275.769043,4307.563965,4341.538574,4301.794922,4322.692383,4322.563965,4322.051270,4307.179688,4321.666504,4541.922852,4558.205078,4281.538574,4037.948730,0.000000,1.000000,30.000000,,,,0.000000,4.000000,4.000000,4.000000,4.000000,4.000000,4.000000,4.000000,4.000000,4.000000,4.000000,4.000000,4.000000,4.000000,4.000000,100.000000,,,,,,,,,,,,,,,,,,,,,,,,,,,,,,,,,,,,,,,,,,,,,,,,,,,,,,,,,,,,,,,,,,,,,,,,,,,,,,,,,,,,,,,,,,,,,,,,,,,,,,,,,,,,,,,,,,,,,
1768373707.409881,1768373707.410874,39.000000,0.000000,4220.641113,4266.794922,4306.794922,4339.615234,4304.358887,4321.666504,4318.333496,4319.871582,4309.102539,4331.410156,4548.077148,4567.692383,4291.153809,4045.769287,0.000000,1.000000,30.000000,,,,0.000000,4.000000,4.000000,4.000000,4.000000,4.000000,4.000000,4.000000,4.000000,4.000000,4.000000,4.000000,4.000000,4.000000,4.000000,100.000000,,,,,,,,,,,,,,,,,,,,,,,,,,,,,,,,,,,,,,,,,,,,,,,,,,,,,,,,,,,,,,,,,,,,,,,,,,,,,,,,,,,,,,,,,,,,,,,,,,,,,,,,,,,,,,,,,,,,,
1768373707.417689,1768373707.418482,40.000000,0.000000,4225.128418,4271.282227,4315.256348,4340.769043,4309.230957,4319.487305,4320.641113,4320.384766,4310.384766,4328.717773,4550.256348,4567.948730,4299.487305,4062.820557,0.000000,1.000000,30.000000,,,,0.000000,4.000000,4.000000,4.000000,4.000000,4.000000,4.000000,4.000000,4.000000,4.000000,4.000000,4.000000,4.000000,4.000000,4.000000,100.000000,,,,,,,,,,,,,,,,,,,,,,,,,,,,,,,,,,,,,,,,,,,,,,,,,,,,,,,,,,,,,,,,,,,,,,,,,,,,,,,,,,,,,,,,,,,,,,,,,,,,,,,,,,,,,,,,,,,,,
1768373707.425498,1768373707.426291,41.000000,0.000000,4222.563965,4279.743652,4313.461426,4342.179688,4311.410156,4325.769043,4323.461426,4318.461426,4308.205078,4317.179688,4547.307617,4558.846191,4293.974121,4061.666748,0.000000,1.000000,30.000000,,,,0.000000,4.000000,4.000000,4.000000,4.000000,4.000000,4.000000,4.000000,4.000000,4.000000,4.000000,4.000000,4.000000,4.000000,4.000000,100.000000,,,,,,,,,,,,,,,,,,,,,,,,,,,,,,,,,,,,,,,,,,,,,,,,,,,,,,,,,,,,,,,,,,,,,,,,,,,,,,,,,,,,,,,,,,,,,,,,,,,,,,,,,,,,,,,,,,,,,
1768373707.433306,1768373707.433999,42.000000,0.000000,4218.205078,4276.794922,4307.692383,4341.538574,4311.282227,4327.692383,4317.563965,4313.333496,4308.205078,4327.563965,4549.102539,4556.666504,4290.641113,4046.410156,0.000000,1.000000,30.000000,,,,0.000000,4.000000,4.000000,4.000000,4.000000,4.000000,4.000000,4.000000,4.000000,4.000000,4.000000,4.000000,4.000000,4.000000,4.000000,100.000000,,,,,,,,,,,,,,,,,,,,,,,,,,,,,,,,,,,,,,,,,,,,,,,,,,,,,,,,,,,,,,,,,,,,,,,,,,,,,,,,,,,,,,,,,,,,,,,,,,,,,,,,,,,,,,,,,,,,,
1768373707.441114,1768373707.441808,43.000000,0.000000,4217.051270,4271.282227,4305.641113,4338.461426,4307.179688,4324.487305,4316.538574,4316.538574,4309.487305,4338.461426,4541.666504,4549.487305,4293.974121,4052.179443,0.000000,1.000000,30.000000,,,,0.000000,4.000000,4.000000,4.000000,4.000000,4.000000,4.000000,4.000000,4.000000,4.000000,4.000000,4.000000,4.000000,4.000000,4.000000,100.000000,,,,,,,,,,,,,,,,,,,,,,,,,,,,,,,,,,,,,,,,,,,,,,,,,,,,,,,,,,,,,,,,,,,,,,,,,,,,,,,,,,,,,,,,,,,,,,,,,,,,,,,,,,,,,,,,,,,,,
1768373707.448923,1768373707.449816,44.000000,0.000000,4217.820313,4274.615234,4310.769043,4341.153809,4306.410156,4322.948730,4322.948730,4318.846191,4310.512695,4322.948730,4526.025879,4537.179688,4286.666504,4059.230713,0.000000,1.000000,30.000000,,,,0.000000,4.000000,4.000000,4.000000,4.000000,4.000000,4.000000,4.000000,4.000000,4.000000,4.000000,4.000000,4.000000,4.000000,4.000000,100.000000,,,,,,,,,,,,,,,,,,,,,,,,,,,,,,,,,,,,,,,,,,,,,,,,,,,,,,,,,,,,,,,,,,,,,,,,,,,,,,,,,,,,,,,,,,,,,,,,,,,,,,,,,,,,,,,,,,,,,
1768373707.456731,1768373707.457624,45.000000,0.000000,4224.230957,4278.589844,4321.025879,4346.282227,4313.461426,4322.692383,4322.563965,4311.282227,4310.000000,4313.077148,4521.282227,4541.666504,4273.846191,4047.435791,0.000000,1.000000,30.000000,,,,0.000000,4.000000,4.000000,4.000000,4.000000,4.000000,4.000000,4.000000,4.000000,4.000000,4.000000,4.000000,4.000000,4.000000,4.000000,100.000000,,,,,,,,,,,,,,,,,,,,,,,,,,,,,,,,,,,,,,,,,,,,,,,,,,,,,,,,,,,,,,,,,,,,,,,,,,,,,,,,,,,,,,,,,,,,,,,,,,,,,,,,,,,,,,,,,,,,,
1768373707.464540,1768373707.465533,46.000000,0.000000,4229.358887,4280.128418,4323.077148,4345.128418,4317.307617,4326.153809,4321.153809,4310.769043,4308.717773,4322.820313,4530.384766,4557.307617,4279.102539,4052.179443,0.000000,1.000000,30.000000,,,,0.000000,4.000000,4.000000,4.000000,4.000000,4.000000,4.000000,4.000000,4.000000,4.000000,4.000000,4.000000,4.000000,4.000000,4.000000,100.000000,,,,,,,,,,,,,,,,,,,,,,,,,,,,,,,,,,,,,,,,,,,,,,,,0.365730,0.317985,0.242496,0.278408,0.201954,0.502487,0.193610,0.258692,0.143342,0.131972,0.769380,0.415977,0.175508,0.097026,0.101257,0.577408,0.186684,0.180834,0.107754,0.113597,0.405398,0.201670,0.212485,0.460109,0.285477,0.543869,0.193123,0.123321,0.089524,0.218034,0.187537,0.296745,0.175043,0.053757,0.094094,0.359225,0.415551,0.277085,0.110541,0.082474,0.473843,0.424014,0.315660,0.163548,0.113721,0.783918,0.340466,0.371761,0.459171,0.322615,0.743082,0.722811,0.457324,0.578942,0.346290,1.155375,0.628364,0.523619,0.313991,0.166831,0.995512,0.546916,0.340779,0.428842,0.200438,0.892954,0.578593,0.586387,0.529519,0.638509
1768373707.472348,1768373707.473341,47.000000,0.000000,4227.436035,4281.794922,4319.871582,4345.128418,4311.282227,4327.436035,4324.102539,4317.692383,4314.615234,4327.820313,4542.307617,4563.717773,4301.025879,4075.897461,0.000000,1.000000,30.000000,,,,0.000000,4.000000,4.000000,4.000000,4.000000,4.000000,4.000000,4.000000,4.000000,4.000000,4.000000,4.000000,4.000000,4.000000,4.000000,100.000000,,,,,,,,,,,,,,,,,,,,,,,,,,,,,,,,,,,,,,,,,,,,,,,,,,,,,,,,,,,,,,,,,,,,,,,,,,,,,,,,,,,,,,,,,,,,,,,,,,,,,,,,,,,,,,,,,,,,,
1768373707.480157,1768373707.480950,48.000000,0.000000,4228.974121,4280.897461,4324.230957,4347.051270,4308.461426,4323.974121,4319.871582,4312.179688,4319.102539,4327.820313,4543.974121,4561.282227,4307.948730,4077.307617,0.000000,1.000000,30.000000,,,,0.000000,4.000000,4.000000,4.000000,4.000000,4.000000,4.000000,4.000000,4.000000,4.000000,4.000000,4.000000,4.000000,4.000000,4.000000,100.000000,,,,,,,,,,,,,,,,,,,,,,,,,,,,,,,,,,,,,,,,,,,,,,,,,,,,,,,,,,,,,,,,,,,,,,,,,,,,,,,,,,,,,,,,,,,,,,,,,,,,,,,,,,,,,,,,,,,,,
1768373707.487965,1768373707.488758,49.000000,0.000000,4233.205078,4278.846191,4327.051270,4343.846191,4311.025879,4324.230957,4318.077148,4307.179688,4313.461426,4327.051270,4538.333496,4560.000000,4293.333496,4062.051270,0.000000,1.000000,30.000000,,,,0.000000,4.000000,4.000000,4.000000,4.000000,4.000000,4.000000,4.000000,4.000000,4.000000,4.000000,4.000000,4.000000,4.000000,4.000000,100.000000,,,,,,,,,,,,,,,,,,,,,,,,,,,,,,,,,,,,,,,,,,,,,,,,,,,,,,,,,,,,,,,,,,,,,,,,,,,,,,,,,,,,,,,,,,,,,,,,,,,,,,,,,,,,,,,,,,,,,
1768373707.495773,1768373707.496467,50.000000,0.000000,4228.717773,4277.948730,4316.282227,4340.256348,4306.282227,4326.153809,4322.436035,4315.256348,4312.051270,4321.794922,4534.871582,4553.077148,4286.538574,4067.435791,0.000000,1.000000,30.000000,,,,0.000000,4.000000,4.000000,4.000000,4.000000,4.000000,4.000000,4.000000,4.000000,4.000000,4.000000,4.000000,4.000000,4.000000,4.000000,100.000000,,,,,,,,,,,,,,,,,,,,,,,,,,,,,,,,,,,,,,,,,,,,,,,,,,,,,,,,,,,,,,,,,,,,,,,,,,,,,,,,,,,,,,,,,,,,,,,,,,,,,,,,,,,,,,,,,,,,,
1768373707.503582,1768373707.504275,51.000000,0.000000,4220.769043,4275.128418,4307.179688,4339.487305,4301.153809,4323.461426,4322.820313,4319.230957,4321.538574,4321.410156,4537.307617,4547.948730,4291.538574,4075.641113,0.000000,1.000000,30.000000,,,,0.000000,4.000000,4.000000,4.000000,4.000000,4.000000,4.000000,4.000000,4.000000,4.000000,4.000000,4.000000,4.000000,4.000000,4.000000,100.000000,,,,,,,,,,,,,,,,,,,,,,,,,,,,,,,,,,,,,,,,,,,,,,,,,,,,,,,,,,,,,,,,,,,,,,,,,,,,,,,,,,,,,,,,,,,,,,,,,,,,,,,,,,,,,,,,,,,,,
1768373707.511390,1768373707.512284,52.000000,0.000000,4218.205078,4273.333496,4310.641113,4340.641113,4307.307617,4324.487305,4322.692383,4314.743652,4320.000000,4328.077148,4539.230957,4552.436035,4292.179688,4065.128174,0.000000,1.000000,30.000000,,,,0.000000,4.000000,4.000000,4.000000,4.000000,4.000000,4.000000,4.000000,4.000000,4.000000,4.000000,4.000000,4.000000,4.000000,4.000000,100.000000,,,,,,,,,,,,,,,,,,,,,,,,,,,,,,,,,,,,,,,,,,,,,,,,,,,,,,,,,,,,,,,,,,,,,,,,,,,,,,,,,,,,,,,,,,,,,,,,,,,,,,,,,,,,,,,,,,,,,
1768373707.519199,1768373707.520092,53.000000,0.000000,4217.307617,4274.487305,4312.179688,4339.615234,4311.794922,4329.487305,4321.410156,4311.025879,4305.512695,4331.025879,4533.974121,4546.922852,4290.641113,4068.076904,0.000000,1.000000,30.000000,,,,0.000000,4.000000,4.000000,4.000000,4.000000,4.000000,4.000000,4.000000,4.000000,4.000000,4.000000,4.000000,4.000000,4.000000,4.000000,100.000000,,,,,,,,,,,,,,,,,,,,,,,,,,,,,,,,,,,,,,,,,,,,,,,,,,,,,,,,,,,,,,,,,,,,,,,,,,,,,,,,,,,,,,,,,,,,,,,,,,,,,,,,,,,,,,,,,,,,,
1768373707.527007,1768373707.528000,54.000000,0.000000,4222.307617,4278.333496,4311.410156,4341.538574,4309.230957,4327.692383,4319.615234,4317.307617,4311.922852,4334.615234,4535.128418,4541.794922,4296.025879,4088.205078,0.000000,1.000000,30.000000,,,,0.000000,4.000000,4.000000,4.000000,4.000000,4.000000,4.000000,4.000000,4.000000,4.000000,4.000000,4.000000,4.000000,4.000000,4.000000,100.000000,,,,,,,,,,,,,,,,,,,,,,,,,,,,,,,,,,,,,,,,,,,,,,,,,,,,,,,,,,,,,,,,,,,,,,,,,,,,,,,,,,,,,,,,,,,,,,,,,,,,,,,,,,,,,,,,,,,,,
1768373707.534816,1768373707.535809,55.000000,0.000000,4232.307617,4285.641113,4311.025879,4348.205078,4308.846191,4323.717773,4320.384766,4322.436035,4326.666504,4336.922852,4541.666504,4552.436035,4299.615234,4091.025635,0.000000,1.000000,30.000000,,,,0.000000,4.000000,4.000000,4.000000,4.000000,4.000000,4.000000,4.000000,4.000000,4.000000,4.000000,4.000000,4.000000,4.000000,4.000000,100.000000,,,,,,,,,,,,,,,,,,,,,,,,,,,,,,,,,,,,,,,,,,,,,,,,,,,,,,,,,,,,,,,,,,,,,,,,,,,,,,,,,,,,,,,,,,,,,,,,,,,,,,,,,,,,,,,,,,,,,
