title:mouse_7, start timestamp:1768374108.061294, stop timestamp:1768374138.701624, headset type:EPOCX, headset serial:E5020E3B, headset firmware:730, channels:156, sampling rate:eeg_128;pm_0.1;pow_8, samples:3925      , version:2.2, 
Timestamp,OriginalTimestamp,EEG.Counter,EEG.Interpolated,EEG.AF3,EEG.F7,EEG.F3,EEG.FC5,EEG.T7,EEG.P7,EEG.O1,EEG.O2,EEG.P8,EEG.T8,EEG.FC6,EEG.F4,EEG.F8,EEG.AF4,EEG.RawCq,EEG.Battery,EEG.BatteryPercent,MarkerIndex,MarkerType,MarkerValueInt,EEG.MarkerHardware,CQ.AF3,CQ.F7,CQ.F3,CQ.FC5,CQ.T7,CQ.P7,CQ.O1,CQ.O2,CQ.P8,CQ.T8,CQ.FC6,CQ.F4,CQ.F8,CQ.AF4,CQ.Overall,EQ.SampleRateQuality,EQ.OVERALL,EQ.AF3,EQ.F7,EQ.F3,EQ.FC5,EQ.T7,EQ.P7,EQ.O1,EQ.O2,EQ.P8,EQ.T8,EQ.FC6,EQ.F4,EQ.F8,EQ.AF4,PM.Attention.IsActive,PM.Attention.Scaled,PM.Attention.Raw,PM.Attention.Min,PM.Attention.Max,PM.Engagement.IsActive,PM.Engagement.Scaled,PM.Engagement.Raw,PM.Engagement.Min,PM.Engagement.Max,PM.Excitement.IsActive,PM.Excitement.Scaled,PM.Excitement.Raw,PM.Excitement.Min,PM.Excitement.Max,PM.LongTermExcitement,PM.Stress.IsActive,PM.Stress.Scaled,PM.Stress.Raw,PM.Stress.Min,PM.Stress.Max,PM.Relaxation.IsActive,PM.Relaxation.Scaled,PM.Relaxation.Raw,PM.Relaxation.Min,PM.Relaxation.Max,PM.Interest.IsActive,PM.Interest.Scaled,PM.Interest.Raw,PM.Interest.Min,PM.Interest.Max,POW.AF3.Theta,POW.AF3.Alpha,POW.AF3.BetaL,POW.AF3.BetaH,POW.AF3.Gamma,POW.F7.Theta,POW.F7.Alpha,POW.F7.BetaL,POW.F7.BetaH,POW.F7.Gamma,POW.F3.Theta,POW.F3.Alpha,POW.F3.BetaL,POW.F3.BetaH,POW.F3.Gamma,POW.FC5.Theta,POW.FC5.Alpha,POW.FC5.BetaL,POW.FC5.BetaH,POW.FC5.Gamma,POW.T7.Theta,POW.T7.Alpha,POW.T7.BetaL,POW.T7.BetaH,POW.T7.Gamma,POW.P7.Theta,POW.P7.Alpha,POW.P7.BetaL,POW.P7.BetaH,POW.P7.Gamma,POW.O1.Theta,POW.O1.Alpha,POW.O1.BetaL,POW.O1.BetaH,POW.O1.Gamma,POW.O2.Theta,POW.O2.Alpha,POW.O2.BetaL,POW.O2.BetaH,POW.O2.Gamma,POW.P8.Theta,POW.P8.Alpha,POW.P8.BetaL,POW.P8.BetaH,POW.P8.Gamma,POW.T8.Theta,POW.T8.Alpha,POW.T8.BetaL,POW.T8.BetaH,POW.T8.Gamma,POW.FC6.Theta,POW.FC6.Alpha,POW.FC6.BetaL,POW.FC6.BetaH,POW.FC6.Gamma,POW.F4.Theta,POW.F4.Alpha,POW.F4.BetaL,POW.F4.BetaH,POW.F4.Gamma,POW.F8.Theta,POW.F8.Alpha,POW.F8.BetaL,POW.F8.BetaH,POW.F8.Gamma,POW.AF4.Theta,POW.AF4.Alpha,POW.AF4.BetaL,POW.AF4.BetaH,POW.AF4.Gamma
1768374108.061294,1768374108.062084,21.000000,0.000000,4322.948730,4328.077148,4335.897461,4345.897461,4315.512695,4309.358887,4298.205078,4327.307617,4306.794922,4308.589844,4524.743652,4521.025879,4408.205078,4475.384766,0.000000,1.000000,29.000000,,,,0.000000,4.000000,4.000000,4.000000,4.000000,4.000000,4.000000,4.000000,4.000000,4.000000,4.000000,4.000000,4.000000,4.000000,4.000000,100.000000,,,,,,,,,,,,,,,,,,,,,,,,,,,,,,,,,,,,,,,,,,,,,,,,,,,,,,,,,,,,,,,,,,,,,,,,,,,,,,,,,,,,,,,,,,,,,,,,,,,,,,,,,,,,,,,,,,,,,
1768374108.069102,1768374108.069992,22.000000,0.000000,4319.358887,4331.153809,4336.922852,4348.717773,4314.230957,4308.461426,4305.128418,4328.974121,4312.179688,4307.307617,4519.230957,4524.615234,4405.641113,4471.410156,0.000000,1.000000,29.000000,,,,0.000000,4.000000,4.000000,4.000000,4.000000,4.000000,4.000000,4.000000,4.000000,4.000000,4.000000,4.000000,4.000000,4.000000,4.000000,100.000000,,,,,,,,,,,,,,,,,,,,,,,,,,,,,,,,,,,,,,,,,,,,,,,,,,,,,,,,,,,,,,,,,,,,,,,,,,,,,,,,,,,,,,,,,,,,,,,,,,,,,,,,,,,,,,,,,,,,,
1768374108.076911,1768374108.077800,23.000000,0.000000,4319.230957,4331.410156,4342.820313,4351.410156,4321.794922,4315.000000,4314.487305,4328.077148,4304.615234,4305.769043,4528.974121,4530.897461,4413.974121,4476.794922,0.000000,1.000000,29.000000,,,,0.000000,4.000000,4.000000,4.000000,4.000000,4.000000,4.000000,4.000000,4.000000,4.000000,4.000000,4.000000,4.000000,4.000000,4.000000,100.000000,,,,,,,,,,,,,,,,,,,,,,,,,,,,,,,,,,,,,,,,,,,,,,,,,,,,,,,,,,,,,,,,,,,,,,,,,,,,,,,,,,,,,,,,,,,,,,,,,,,,,,,,,,,,,,,,,,,,,
1768374108.084719,1768374108.085409,24.000000,0.000000,4314.102539,4327.948730,4344.102539,4352.436035,4325.897461,4320.512695,4313.461426,4330.000000,4304.871582,4310.641113,4536.538574,4531.153809,4417.563965,4475.641113,0.000000,1.000000,29.000000,,,,0.000000,4.000000,4.000000,4.000000,4.000000,4.000000,4.000000,4.000000,4.000000,4.000000,4.000000,4.000000,4.000000,4.000000,4.000000,100.000000,,,,,,,,,,,,,,,,,,,,,,,,,,,,,,,,,,,,,,,,,,,,,,,,,,,,,,,,,,,,,,,,,,,,,,,,,,,,,,,,,,,,,,,,,,,,,,,,,,,,,,,,,,,,,,,,,,,,,
1768374108.092528,1768374108.093217,25.000000,0.000000,4307.307617,4324.230957,4341.666504,4346.410156,4316.538574,4315.000000,4309.743652,4330.384766,4309.102539,4309.102539,4529.615234,4531.282227,4409.230957,4469.871582,0.000000,1.000000,29.000000,,,,0.000000,4.000000,4.000000,4.000000,4.000000,4.000000,4.000000,4.000000,4.000000,4.000000,4.000000,4.000000,4.000000,4.000000,4.000000,100.000000,,,,,,,,,,,,,,,,,,,,,,,,,,,,,,,,,,,,,,,,,,,,,,,,,,,,,,,,,,,,,,,,,,,,,,,,,,,,,,,,,,,,,,,,,,,,,,,,,,,,,,,,,,,,,,,,,,,,,
1768374108.100336,1768374108.100926,26.000000,0.000000,4306.922852,4324.487305,4339.743652,4343.717773,4312.179688,4312.179688,4309.487305,4327.948730,4302.051270,4301.282227,4520.769043,4528.846191,4403.333496,4465.769043,0.000000,1.000000,29.000000,,,,0.000000,4.000000,4.000000,4.000000,4.000000,4.000000,4.000000,4.000000,4.000000,4.000000,4.000000,4.000000,4.000000,4.000000,4.000000,100.000000,,,,,,,,,,,,,,,,,,,,,,,,,,,,,,,,,,,,,,,,,,,,,,,,,,,,,,,,,,,,,,,,,,,,,,,,,,,,,,,,,,,,,,,,,,,,,,,,,,,,,,,,,,,,,,,,,,,,,
1768374108.108144,1768374108.108734,27.000000,0.000000,4312.436035,4327.179688,4340.128418,4350.769043,4321.538574,4313.974121,4308.461426,4327.051270,4301.922852,4302.692383,4525.128418,4528.974121,4407.179688,4464.487305,0.000000,1.000000,29.000000,,,,0.000000,4.000000,4.000000,4.000000,4.000000,4.000000,4.000000,4.000000,4.000000,4.000000,4.000000,4.000000,4.000000,4.000000,4.000000,100.000000,,,,,,,,,,,,,,,,,,,,,,,,,,,,,,,,,,,,,,,,,,,,,,,,,,,,,,,,,,,,,,,,,,,,,,,,,,,,,,,,,,,,,,,,,,,,,,,,,,,,,,,,,,,,,,,,,,,,,
1768374108.115953,1768374108.116343,28.000000,0.000000,4312.563965,4326.794922,4340.128418,4354.230957,4326.922852,4314.615234,4308.077148,4329.358887,4305.641113,4302.179688,4527.307617,4529.743652,4403.974121,4464.102539,0.000000,1.000000,29.000000,,,,0.000000,4.000000,4.000000,4.000000,4.000000,4.000000,4.000000,4.000000,4.000000,4.000000,4.000000,4.000000,4.000000,4.000000,4.000000,100.000000,,,,,,,,,,,,,,,,,,,,,,,,,,,,,,,,,,,,,,,,,,,,,,,,,,,,,,,,,,,,,,,,,,,,,,,,,,,,,,,,,,,,,,,,,,,,,,,,,,,,,,,,,,,,,,,,,,,,,
1768374108.123761,1768374108.124152,29.000000,0.000000,4300.641113,4323.333496,4334.615234,4344.487305,4319.615234,4315.512695,4308.974121,4328.974121,4296.794922,4294.743652,4514.743652,4521.538574,4390.641113,4455.641113,0.000000,1.000000,29.000000,,,,0.000000,4.000000,4.000000,4.000000,4.000000,4.000000,4.000000,4.000000,4.000000,4.000000,4.000000,4.000000,4.000000,4.000000,4.000000,100.000000,,,,,,,,,,,,,,,,,,,,,,,,,,,,,,,,,,,,,,,,,,,,,,,,,,,,,,,,,,,,,,,,,,,,,,,,,,,,,,,,,,,,,,,,,,,,,,,,,,,,,,,,,,,,,,,,,,,,,
1768374108.131570,1768374108.131860,30.000000,0.000000,4294.358887,4318.974121,4331.282227,4338.974121,4313.974121,4315.512695,4305.512695,4328.333496,4298.333496,4301.794922,4514.358887,4520.769043,4390.128418,4450.641113,0.000000,1.000000,29.000000,,,,0.000000,4.000000,4.000000,4.000000,4.000000,4.000000,4.000000,4.000000,4.000000,4.000000,4.000000,4.000000,4.000000,4.000000,4.000000,100.000000,,,,,,,,,,,,,,,,,,,,,,,,,,,,,,,,,,,,,,,,,,,,,,,,0.530803,0.430121,0.136737,0.183643,0.083888,0.732362,0.413873,0.113458,0.225799,0.093134,0.280349,0.277982,0.162150,0.140396,0.121941,0.232543,0.136961,0.101732,0.166460,0.083441,0.455338,0.072588,0.043503,0.059647,0.036557,0.040047,0.124603,0.045176,0.055426,0.099191,0.225581,0.200103,0.064911,0.069521,0.104833,0.075943,0.195038,0.227025,0.098931,0.084637,0.163951,0.223203,0.171086,0.119968,0.106568,0.140709,0.339326,0.179866,0.099813,0.191683,0.517140,0.360446,0.153241,0.180176,0.209742,0.373013,0.323968,0.195112,0.266817,0.225624,0.580994,0.598200,0.377987,0.284363,0.328359,0.934149,0.601106,0.209460,0.191187,0.173457
1768374108.139378,1768374108.139669,31.000000,0.000000,4302.307617,4315.641113,4336.025879,4345.384766,4313.846191,4307.307617,4299.102539,4332.692383,4313.077148,4314.615234,4523.846191,4530.384766,4402.179688,4456.794922,0.000000,1.000000,29.000000,,,,0.000000,4.000000,4.000000,4.000000,4.000000,4.000000,4.000000,4.000000,4.000000,4.000000,4.000000,4.000000,4.000000,4.000000,4.000000,100.000000,,,,,,,,,,,,,,,,,,,,,,,,,,,,,,,,,,,,,,,,,,,,,,,,,,,,,,,,,,,,,,,,,,,,,,,,,,,,,,,,,,,,,,,,,,,,,,,,,,,,,,,,,,,,,,,,,,,,,
1768374108.147187,1768374108.147677,32.000000,0.000000,4307.179688,4319.871582,4340.128418,4349.358887,4313.974121,4303.846191,4300.769043,4337.692383,4313.589844,4313.205078,4526.410156,4532.820313,4407.820313,4461.153809,0.000000,1.000000,29.000000,,,,0.000000,4.000000,4.000000,4.000000,4.000000,4.000000,4.000000,4.000000,4.000000,4.000000,4.000000,4.000000,4.000000,4.000000,4.000000,100.000000,,,,,,,,,,,,,,,,,,,,,,,,,,,,,,,,,,,,,,,,,,,,,,,,,,,,,,,,,,,,,,,,,,,,,,,,,,,,,,,,,,,,,,,,,,,,,,,,,,,,,,,,,,,,,,,,,,,,,
1768374108.154995,1768374108.155485,33.000000,0.000000,4303.846191,4325.512695,4341.538574,4349.487305,4318.717773,4316.410156,4310.641113,4337.436035,4309.102539,4311.282227,4529.871582,4531.922852,4409.230957,4462.692383,0.000000,1.000000,29.000000,,,,0.000000,4.000000,4.000000,4.000000,4.000000,4.000000,4.000000,4.000000,4.000000,4.000000,4.000000,4.000000,4.000000,4.000000,4.000000,100.000000,,,,,,,,,,,,,,,,,,,,,,,,,,,,,,,,,,,,,,,,,,,,,,,,,,,,,,,,,,,,,,,,,,,,,,,,,,,,,,,,,,,,,,,,,,,,,,,,,,,,,,,,,,,,,,,,,,,,,
1768374108.162804,1768374108.163394,34.000000,0.000000,4302.820313,4322.179688,4341.794922,4350.000000,4322.051270,4322.051270,4313.333496,4337.692383,4312.051270,4315.769043,4534.230957,4534.871582,4410.769043,4464.615234,0.000000,1.000000,29.000000,,,,0.000000,4.000000,4.000000,4.000000,4.000000,4.000000,4.000000,4.000000,4.000000,4.000000,4.000000,4.000000,4.000000,4.000000,4.000000,100.000000,,,,,,,,,,,,,,,,,,,,,,,,,,,,,,,,,,,,,,,,,,,,,,,,,,,,,,,,,,,,,,,,,,,,,,,,,,,,,,,,,,,,,,,,,,,,,,,,,,,,,,,,,,,,,,,,,,,,,
1768374108.170612,1768374108.171202,35.000000,0.000000,4305.000000,4319.487305,4341.794922,4350.641113,4318.461426,4315.384766,4309.487305,4339.615234,4313.077148,4314.358887,4530.256348,4538.205078,4405.128418,4463.205078,0.000000,1.000000,29.000000,,,,0.000000,4.000000,4.000000,4.000000,4.000000,4.000000,4.000000,4.000000,4.000000,4.000000,4.000000,4.000000,4.000000,4.000000,4.000000,100.000000,,,,,,,,,,,,,,,,,,,,,,,,,,,,,,,,,,,,,,,,,,,,,,,,,,,,,,,,,,,,,,,,,,,,,,,,,,,,,,,,,,,,,,,,,,,,,,,,,,,,,,,,,,,,,,,,,,,,,
1768374108.178420,1768374108.179210,36.000000,0.000000,4303.077148,4322.307617,4343.717773,4351.153809,4317.948730,4312.307617,4310.384766,4338.974121,4311.153809,4306.025879,4524.358887,4536.025879,4397.948730,4459.743652,0.000000,1.000000,29.000000,,,,0.000000,4.000000,4.000000,4.000000,4.000000,4.000000,4.000000,4.000000,4.000000,4.000000,4.000000,4.000000,4.000000,4.000000,4.000000,100.000000,,,,,,,,,,,,,,,,,,,,,,,,,,,,,,,,,,,,,,,,,,,,,,,,,,,,,,,,,,,,,,,,,,,,,,,,,,,,,,,,,,,,,,,,,,,,,,,,,,,,,,,,,,,,,,,,,,,,,
1768374108.186229,1768374108.187019,37.000000,0.000000,4297.307617,4323.717773,4337.948730,4350.256348,4324.102539,4311.922852,4311.153809,4333.589844,4306.410156,4300.897461,4524.230957,4525.769043,4399.615234,4460.128418,0.000000,1.000000,29.000000,,,,0.000000,4.000000,4.000000,4.000000,4.000000,4.000000,4.000000,4.000000,4.000000,4.000000,4.000000,4.000000,4.000000,4.000000,4.000000,100.000000,,,,,,,,,,,,,,,,,,,,,,,,,,,,,,,,,,,,,,,,,,,,,,,,,,,,,,,,,,,,,,,,,,,,,,,,,,,,,,,,,,,,,,,,,,,,,,,,,,,,,,,,,,,,,,,,,,,,,
1768374108.194037,1768374108.194727,38.000000,0.000000,4294.102539,4321.282227,4330.128418,4347.307617,4323.589844,4309.102539,4308.846191,4327.820313,4300.256348,4301.025879,4524.230957,4516.922852,4402.820313,4459.230957,0.000000,1.000000,29.000000,,,,0.000000,4.000000,4.000000,4.000000,4.000000,4.000000,4.000000,4.000000,4.000000,4.000000,4.000000,4.000000,4.000000,4.000000,4.000000,100.000000,,,,,,,,,,,,,,,,,,,,,,,,,,,,,,,,,,,,,,,,,,,,,,,,,,,,,,,,,,,,,,,,,,,,,,,,,,,,,,,,,,,,,,,,,,,,,,,,,,,,,,,,,,,,,,,,,,,,,
1768374108.201846,1768374108.202536,39.000000,0.000000,4295.384766,4315.512695,4330.512695,4342.051270,4317.692383,4309.871582,4308.333496,4328.974121,4299.743652,4298.333496,4522.307617,4515.384766,4398.974121,4453.461426,0.000000,1.000000,29.000000,,,,0.000000,4.000000,4.000000,4.000000,4.000000,4.000000,4.000000,4.000000,4.000000,4.000000,4.000000,4.000000,4.000000,4.000000,4.000000,100.000000,,,,,,,,,,,,,,,,,,,,,,,,,,,,,,,,,,,,,,,,,,,,,,,,,,,,,,,,,,,,,,,,,,,,,,,,,,,,,,,,,,,,,,,,,,,,,,,,,,,,,,,,,,,,,,,,,,,,,
1768374108.209654,1768374108.210544,40.000000,0.000000,4294.871582,4311.153809,4330.256348,4340.000000,4316.153809,4312.820313,4308.846191,4334.102539,4304.358887,4297.436035,4519.230957,4516.666504,4391.922852,4451.410156,0.000000,1.000000,29.000000,,,,0.000000,4.000000,4.000000,4.000000,4.000000,4.000000,4.000000,4.000000,4.000000,4.000000,4.000000,4.000000,4.000000,4.000000,4.000000,100.000000,,,,,,,,,,,,,,,,,,,,,,,,,,,,,,,,,,,,,,,,,,,,,,,,,,,,,,,,,,,,,,,,,,,,,,,,,,,,,,,,,,,,,,,,,,,,,,,,,,,,,,,,,,,,,,,,,,,,,
1768374108.217463,1768374108.218352,41.000000,0.000000,4295.128418,4317.436035,4334.230957,4344.615234,4318.974121,4313.077148,4311.282227,4338.846191,4311.153809,4308.974121,4522.692383,4525.000000,4398.717773,4458.589844,0.000000,1.000000,29.000000,,,,0.000000,4.000000,4.000000,4.000000,4.000000,4.000000,4.000000,4.000000,4.000000,4.000000,4.000000,4.000000,4.000000,4.000000,4.000000,100.000000,,,,,,,,,,,,,,,,,,,,,,,,,,,,,,,,,,,,,,,,,,,,,,,,,,,,,,,,,,,,,,,,,,,,,,,,,,,,,,,,,,,,,,,,,,,,,,,,,,,,,,,,,,,,,,,,,,,,,
1768374108.225271,1768374108.226261,42.000000,0.000000,4295.641113,4324.358887,4342.948730,4349.487305,4320.128418,4316.153809,4313.717773,4339.487305,4312.948730,4314.743652,4528.333496,4531.666504,4407.436035,4464.487305,0.000000,1.000000,29.000000,,,,0.000000,4.000000,4.000000,4.000000,4.000000,4.000000,4.000000,4.000000,4.000000,4.000000,4.000000,4.000000,4.000000,4.000000,4.000000,100.000000,,,,,,,,,,,,,,,,,,,,,,,,,,,,,,,,,,,,,,,,,,,,,,,,,,,,,,,,,,,,,,,,,,,,,,,,,,,,,,,,,,,,,,,,,,,,,,,,,,,,,,,,,,,,,,,,,,,,,
1768374108.233080,1768374108.234069,43.000000,0.000000,4293.717773,4319.871582,4337.307617,4345.897461,4316.282227,4315.897461,4310.384766,4334.102539,4306.282227,4305.897461,4522.179688,4521.025879,4399.871582,4460.000000,0.000000,1.000000,29.000000,,,,0.000000,4.000000,4.000000,4.000000,4.000000,4.000000,4.000000,4.000000,4.000000,4.000000,4.000000,4.000000,4.000000,4.000000,4.000000,100.000000,,,,,,,,,,,,,,,,,,,,,,,,,,,,,,,,,,,,,,,,,,,,,,,,,,,,,,,,,,,,,,,,,,,,,,,,,,,,,,,,,,,,,,,,,,,,,,,,,,,,,,,,,,,,,,,,,,,,,
1768374108.240888,1768374108.241878,44.000000,0.000000,4295.000000,4313.461426,4328.461426,4342.179688,4312.820313,4311.922852,4305.641113,4332.692383,4308.589844,4306.153809,4519.615234,4516.666504,4397.563965,4458.974121,0.000000,1.000000,29.000000,,,,0.000000,4.000000,4.000000,4.000000,4.000000,4.000000,4.000000,4.000000,4.000000,4.000000,4.000000,4.000000,4.000000,4.000000,4.000000,100.000000,,,,,,,,,,,,,,,,,,,,,,,,,,,,,,,,,,,,,,,,,,,,,,,,,,,,,,,,,,,,,,,,,,,,,,,,,,,,,,,,,,,,,,,,,,,,,,,,,,,,,,,,,,,,,,,,,,,,,
1768374108.248696,1768374108.249686,45.000000,0.000000,4290.384766,4311.282227,4328.333496,4340.384766,4313.461426,4312.436035,4306.666504,4338.589844,4317.820313,4312.820313,4525.256348,4523.589844,4402.051270,4461.538574,0.000000,1.000000,29.000000,,,,0.000000,4.000000,4.000000,4.000000,4.000000,4.000000,4.000000,4.000000,4.000000,4.000000,4.000000,4.000000,4.000000,4.000000,4.000000,100.000000,,,,,,,,,,,,,,,,,,,,,,,,,,,,,,,,,,,,,,,,,,,,,,,,,,,,,,,,,,,,,,,,,,,,,,,,,,,,,,,,,,,,,,,,,,,,,,,,,,,,,,,,,,,,,,,,,,,,,
1768374108.256505,1768374108.257395,46.000000,0.000000,4280.897461,4309.230957,4327.563965,4336.153809,4313.974121,4314.743652,4311.025879,4341.666504,4317.051270,4309.230957,4522.179688,4521.538574,4396.538574,4458.205078,0.000000,1.000000,29.000000,,,,0.000000,4.000000,4.000000,4.000000,4.000000,4.000000,4.000000,4.000000,4.000000,4.000000,4.000000,4.000000,4.000000,4.000000,4.000000,100.000000,,,,,,,,,,,,,,,,,,,,,,,,,,,,,,,,,,,,,,,,,,,,,,,,0.523774,0.406344,0.138379,0.169150,0.088096,0.629094,0.397415,0.111129,0.201963,0.087648,0.300470,0.307867,0.128088,0.130363,0.124586,0.217455,0.132975,0.089883,0.155842,0.086498,0.405483,0.078628,0.046194,0.056414,0.035907,0.052451,0.137690,0.057729,0.054343,0.096694,0.256964,0.206203,0.061367,0.067159,0.105152,0.063694,0.189415,0.196115,0.105431,0.076686,0.148577,0.222836,0.177164,0.139114,0.114640,0.124060,0.318968,0.144748,0.114015,0.205450,0.501429,0.360236,0.133266,0.204171,0.210451,0.353558,0.372244,0.147739,0.253360,0.247527,0.586783,0.635149,0.275574,0.268241,0.330698,0.971966,0.554692,0.187533,0.198479,0.175624
1768374108.264313,1768374108.265203,47.000000,0.000000,4287.051270,4308.717773,4329.487305,4337.307617,4311.666504,4316.282227,4313.077148,4336.410156,4310.897461,4304.487305,4519.358887,4517.436035,4392.563965,4454.743652,0.000000,1.000000,29.000000,,,,0.000000,4.000000,4.000000,4.000000,4.000000,4.000000,4.000000,4.000000,4.000000,4.000000,4.000000,4.000000,4.000000,4.000000,4.000000,100.000000,,,,,,,,,,,,,,,,,,,,,,,,,,,,,,,,,,,,,,,,,,,,,,,,,,,,,,,,,,,,,,,,,,,,,,,,,,,,,,,,,,,,,,,,,,,,,,,,,,,,,,,,,,,,,,,,,,,,,
1768374108.272122,1768374108.272812,48.000000,0.000000,4296.922852,4308.974121,4331.794922,4339.487305,4311.538574,4315.897461,4311.666504,4329.615234,4307.307617,4298.333496,4519.230957,4516.794922,4394.615234,4451.666504,0.000000,1.000000,29.000000,,,,0.000000,4.000000,4.000000,4.000000,4.000000,4.000000,4.000000,4.000000,4.000000,4.000000,4.000000,4.000000,4.000000,4.000000,4.000000,100.000000,,,,,,,,,,,,,,,,,,,,,,,,,,,,,,,,,,,,,,,,,,,,,,,,,,,,,,,,,,,,,,,,,,,,,,,,,,,,,,,,,,,,,,,,,,,,,,,,,,,,,,,,,,,,,,,,,,,,,
1768374108.279930,1768374108.280620,49.000000,0.000000,4288.717773,4309.358887,4327.692383,4337.436035,4313.205078,4312.692383,4310.256348,4329.743652,4306.025879,4294.871582,4511.538574,4514.358887,4393.589844,4445.256348,0.000000,1.000000,29.000000,,,,0.000000,4.000000,4.000000,4.000000,4.000000,4.000000,4.000000,4.000000,4.000000,4.000000,4.000000,4.000000,4.000000,4.000000,4.000000,100.000000,,,,,,,,,,,,,,,,,,,,,,,,,,,,,,,,,,,,,,,,,,,,,,,,,,,,,,,,,,,,,,,,,,,,,,,,,,,,,,,,,,,,,,,,,,,,,,,,,,,,,,,,,,,,,,,,,,,,,
1768374108.287739,1768374108.288528,50.000000,0.000000,4277.692383,4307.948730,4324.743652,4335.897461,4311.025879,4310.000000,4312.436035,4333.974121,4309.615234,4303.717773,4509.358887,4512.436035,4392.436035,4441.538574,0.000000,1.000000,29.000000,,,,0.000000,4.000000,4.000000,4.000000,4.000000,4.000000,4.000000,4.000000,4.000000,4.000000,4.000000,4.000000,4.000000,4.000000,4.000000,100.000000,,,,,,,,,,,,,,,,,,,,,,,,,,,,,,,,,,,,,,,,,,,,,,,,,,,,,,,,,,,,,,,,,,,,,,,,,,,,,,,,,,,,,,,,,,,,,,,,,,,,,,,,,,,,,,,,,,,,,
1768374108.295547,1768374108.296337,51.000000,0.000000,4281.666504,4301.282227,4327.179688,4331.794922,4309.358887,4311.025879,4311.025879,4333.974121,4311.410156,4304.871582,4518.333496,4511.794922,4391.153809,4447.563965,0.000000,1.000000,29.000000,,,,0.000000,4.000000,4.000000,4.000000,4.000000,4.000000,4.000000,4.000000,4.000000,4.000000,4.000000,4.000000,4.000000,4.000000,4.000000,100.000000,,,,,,,,,,,,,,,,,,,,,,,,,,,,,,,,,,,,,,,,,,,,,,,,,,,,,,,,,,,,,,,,,,,,,,,,,,,,,,,,,,,,,,,,,,,,,,,,,,,,,,,,,,,,,,,,,,,,,
1768374108.303356,1768374108.303946,52.000000,0.000000,4289.615234,4298.846191,4335.000000,4328.333496,4307.820313,4310.512695,4308.974121,4332.051270,4306.025879,4298.461426,4522.820313,4518.461426,4389.743652,4456.922852,0.000000,1.000000,29.000000,,,,0.000000,4.000000,4.000000,4.000000,4.000000,4.000000,4.000000,4.000000,4.000000,4.000000,4.000000,4.000000,4.000000,4.000000,4.000000,100.000000,,,,,,,,,,,,,,,,,,,,,,,,,,,,,,,,,,,,,,,,,,,,,,,,,,,,,,,,,,,,,,,,,,,,,,,,,,,,,,,,,,,,,,,,,,,,,,,,,,,,,,,,,,,,,,,,,,,,,
1768374108.311164,1768374108.311754,53.000000,0.000000,4292.820313,4305.512695,4342.692383,4335.256348,4308.077148,4310.641113,4313.717773,4333.077148,4307.307617,4303.077148,4520.897461,4527.179688,4395.769043,4460.256348,0.000000,1.000000,29.000000,,,,0.000000,4.000000,4.000000,4.000000,4.000000,4.000000,4.000000,4.000000,4.000000,4.000000,4.000000,4.000000,4.000000,4.000000,4.000000,100.000000,,,,,,,,,,,,,,,,,,,,,,,,,,,,,,,,,,,,,,,,,,,,,,,,,,,,,,,,,,,,,,,,,,,,,,,,,,,,,,,,,,,,,,,,,,,,,,,,,,,,,,,,,,,,,,,,,,,,,
1768374108.318972,1768374108.319463,54.000000,0.000000,4295.512695,4309.615234,4341.666504,4343.974121,4310.897461,4312.179688,4314.615234,4337.307617,4312.948730,4304.487305,4521.153809,4527.563965,4399.487305,4458.461426,0.000000,1.000000,29.000000,,,,0.000000,4.000000,4.000000,4.000000,4.000000,4.000000,4.000000,4.000000,4.000000,4.000000,4.000000,4.000000,4.000000,4.000000,4.000000,100.000000,,,,,,,,,,,,,,,,,,,,,,,,,,,,,,,,,,,,,,,,,,,,,,,,,,,,,,,,,,,,,,,,,,,,,,,,,,,,,,,,,,,,,,,,,,,,,,,,,,,,,,,,,,,,,,,,,,,,,
1768374108.326781,1768374108.327271,55.000000,0.000000,4295.256348,4306.794922,4339.102539,4342.307617,4311.282227,4310.256348,4308.717773,4339.230957,4311.025879,4299.487305,4520.769043,4525.128418,4393.974121,4458.333496,0.000000,1.000000,29.000000,,,,0.000000,4.000000,4.000000,4.000000,4.000000,4.000000,4.000000,4.000000,4.000000,4.000000,4.000000,4.000000,4.000000,4.000000,4.000000,100.000000,,,,,,,,,,,,,,,,,,,,,,,,,,,,,,,,,,,,,,,,,,,,,,,,,,,,,,,,,,,,,,,,,,,,,,,,,,,,,,,,,,,,,,,,,,,,,,,,,,,,,,,,,,,,,,,,,,,,,
1768374108.334589,1768374108.335279,56.000000,0.000000,4295.512695,4306.666504,4342.051270,4339.743652,4310.641113,4310.512695,4309.102539,4336.410156,4309.615234,4300.000000,4517.820313,4528.974121,4392.820313,4459.102539,0.000000,1.000000,29.000000,,,,0.000000,4.000000,4.000000,4.000000,4.000000,4.000000,4.000000,4.000000,4.000000,4.000000,4.000000,4.000000,4.000000,4.000000,4.000000,100.000000,,,,,,,,,,,,,,,,,,,,,,,,,,,,,,,,,,,,,,,,,,,,,,,,,,,,,,,,,,,,,,,,,,,,,,,,,,,,,,,,,,,,,,,,,,,,,,,,,,,,,,,,,,,,,,,,,,,,,
1768374108.342398,1768374108.343088,57.000000,0.000000,4303.077148,4312.179688,4343.846191,4345.256348,4312.179688,4313.077148,4312.307617,4334.230957,4311.025879,4303.846191,4519.871582,4530.512695,4397.307617,4459.230957,0.000000,1.000000,29.000000,,,,0.000000,4.000000,4.000000,4.000000,4.000000,4.000000,4.000000,4.000000,4.000000,4.000000,4.000000,4.000000,4.000000,4.000000,4.000000,100.000000,,,,,,,,,,,,,,,,,,,,,,,,,,,,,,,,,,,,,,,,,,,,,,,,,,,,,,,,,,,,,,,,,,,,,,,,,,,,,,,,,,,,,,,,,,,,,,,,,,,,,,,,,,,,,,,,,,,,,
1768374108.350206,1768374108.350996,58.000000,0.000000,4307.948730,4317.307617,4343.077148,4352.563965,4314.230957,4312.179688,4311.153809,4335.641113,4310.512695,4303.846191,4522.436035,4529.487305,4398.974121,4462.307617,0.000000,1.000000,29.000000,,,,0.000000,4.000000,4.000000,4.000000,4.000000,4.000000,4.000000,4.000000,4.000000,4.000000,4.000000,4.000000,4.000000,4.000000,4.000000,100.000000,,,,,,,,,,,,,,,,,,,,,,,,,,,,,,,,,,,,,,,,,,,,,,,,,,,,,,,,,,,,,,,,,,,,,,,,,,,,,,,,,,,,,,,,,,,,,,,,,,,,,,,,,,,,,,,,,,,,,
1768374108.358015,1768374108.358805,59.000000,0.000000,4301.538574,4315.128418,4340.769043,4348.717773,4313.205078,4309.743652,4309.230957,4332.820313,4306.794922,4300.512695,4520.128418,4526.794922,4395.384766,4461.153809,0.000000,1.000000,29.000000,,,,0.000000,4.000000,4.000000,4.000000,4.000000,4.000000,4.000000,4.000000,4.000000,4.000000,4.000000,4.000000,4.000000,4.000000,4.000000,100.000000,,,,,,,,,,,,,,,,,,,,,,,,,,,,,,,,,,,,,,,,,,,,,,,,,,,,,,,,,,,,,,,,,,,,,,,,,,,,,,,,,,,,,,,,,,,,,,,,,,,,,,,,,,,,,,,,,,,,,
1768374108.365823,1768374108.366813,60.000000,0.000000,4299.230957,4308.974121,4339.358887,4341.666504,4311.922852,4311.282227,4310.256348,4326.794922,4304.743652,4297.820313,4517.820313,4523.717773,4397.563965,4459.487305,0.000000,1.000000,29.000000,,,,0.000000,4.000000,4.000000,4.000000,4.000000,4.000000,4.000000,4.000000,4.000000,4.000000,4.000000,4.000000,4.000000,4.000000,4.000000,100.000000,,,,,,,,,,,,,,,,,,,,,,,,,,,,,,,,,,,,,,,,,,,,,,,,,,,,,,,,,,,,,,,,,,,,,,,,,,,,,,,,,,,,,,,,,,,,,,,,,,,,,,,,,,,,,,,,,,,,,
1768374108.373632,1768374108.374621,61.000000,0.000000,4306.666504,4310.000000,4342.820313,4347.051270,4311.666504,4314.615234,4311.282227,4329.615234,4307.563965,4300.128418,4520.769043,4529.102539,4408.205078,4468.589844,0.000000,1.000000,29.000000,,,,0.000000,4.000000,4.000000,4.000000,4.000000,4.000000,4.000000,4.000000,4.000000,4.000000,4.000000,4.000000,4.000000,4.000000,4.000000,100.000000,,,,,,,,,,,,,,,,,,,,,,,,,,,,,,,,,,,,,,,,,,,,,,,,,,,,,,,,,,,,,,,,,,,,,,,,,,,,,,,,,,,,,,,,,,,,,,,,,,,,,,,,,,,,,,,,,,,,,
1768374108.381440,1768374108.382530,62.000000,0.000000,4308.846191,4313.333496,4345.128418,4352.692383,4310.769043,4312.563965,4309.615234,4332.692383,4308.846191,4301.922852,4525.256348,4535.128418,4413.461426,4476.794922,0.000000,1.000000,29.000000,,,,0.000000,4.000000,4.000000,4.000000,4.000000,4.000000,4.000000,4.000000,4.000000,4.000000,4.000000,4.000000,4.000000,4.000000,4.000000,100.000000,,,,,,,,,,,,,,,,,,,,,,,,,,,,,,,,,,,,,,,,,,,,,,,,0.568979,0.368765,0.144061,0.164081,0.098022,0.515766,0.357328,0.107039,0.173186,0.086851,0.338474,0.326277,0.112168,0.122338,0.127544,0.212059,0.132041,0.087975,0.142995,0.090051,0.346214,0.088158,0.047930,0.050203,0.036548,0.082765,0.151107,0.078606,0.057730,0.090243,0.305846,0.220908,0.066989,0.067259,0.100232,0.081329,0.199444,0.160125,0.115541,0.068169,0.144708,0.251309,0.186311,0.164569,0.120762,0.132510,0.300537,0.130001,0.141442,0.210393,0.511134,0.351984,0.151227,0.234522,0.211744,0.357406,0.441734,0.135217,0.248314,0.270280,0.640112,0.644807,0.204756,0.247287,0.318192,1.004184,0.488481,0.177067,0.208561,0.175437
1768374108.389248,1768374108.390338,63.000000,0.000000,4308.846191,4316.282227,4346.282227,4351.794922,4313.846191,4309.358887,4308.846191,4329.743652,4307.692383,4301.282227,4527.563965,4532.948730,4413.205078,4475.384766,0.000000,1.000000,29.000000,,,,0.000000,4.000000,4.000000,4.000000,4.000000,4.000000,4.000000,4.000000,4.000000,4.000000,4.000000,4.000000,4.000000,4.000000,4.000000,100.000000,,,,,,,,,,,,,,,,,,,,,,,,,,,,,,,,,,,,,,,,,,,,,,,,,,,,,,,,,,,,,,,,,,,,,,,,,,,,,,,,,,,,,,,,,,,,,,,,,,,,,,,,,,,,,,,,,,,,,
1768374108.397057,1768374108.397947,64.000000,0.000000,4312.307617,4319.871582,4351.282227,4354.102539,4316.666504,4310.384766,4311.410156,4330.897461,4309.615234,4305.769043,4524.743652,4531.922852,4409.615234,4475.128418,4061.000000,1.000000,29.000000,,,,0.000000,4.000000,4.000000,4.000000,4.000000,4.000000,4.000000,4.000000,4.000000,4.000000,4.000000,4.000000,4.000000,4.000000,4.000000,100.000000,,,,,,,,,,,,,,,,,,,,,,,,,,,,,,,,,,,,,,,,,,,,,,,,,,,,,,,,,,,,,,,,,,,,,,,,,,,,,,,,,,,,,,,,,,,,,,,,,,,,,,,,,,,,,,,,,,,,,
1768374108.404865,1768374108.405755,65.000000,0.000000,4313.974121,4316.538574,4351.666504,4354.487305,4314.487305,4313.461426,4312.436035,4332.436035,4311.025879,4307.307617,4524.871582,4535.000000,4408.974121,4477.820313,3989.000000,1.000000,29.000000,,,,0.000000,4.000000,4.000000,4.000000,4.000000,4.000000,4.000000,4.000000,4.000000,4.000000,4.000000,4.000000,4.000000,4.000000,4.000000,100.000000,,,,,,,,,,,,,,,,,,,,,,,,,,,,,,,,,,,,,,,,,,,,,,,,,,,,,,,,,,,,,,,,,,,,,,,,,,,,,,,,,,,,,,,,,,,,,,,,,,,,,,,,,,,,,,,,,,,,,
1768374108.412674,1768374108.413663,66.000000,0.000000,4310.641113,4308.974121,4346.282227,4348.589844,4312.692383,4313.846191,4311.025879,4332.436035,4309.487305,4306.666504,4531.666504,4537.051270,4414.230957,4478.077148,3879.000000,1.000000,29.000000,,,,0.000000,4.000000,4.000000,4.000000,4.000000,4.000000,4.000000,4.000000,4.000000,4.000000,4.000000,4.000000,4.000000,4.000000,4.000000,100.000000,,,,,,,,,,,,,,,,,,,,,,,,,,,,,,,,,,,,,,,,,,,,,,,,,,,,,,,,,,,,,,,,,,,,,,,,,,,,,,,,,,,,,,,,,,,,,,,,,,,,,,,,,,,,,,,,,,,,,
1768374108.420482,1768374108.421472,67.000000,0.000000,4302.692383,4305.384766,4341.410156,4344.358887,4311.666504,4311.025879,4311.025879,4334.102539,4310.769043,4308.974121,4530.384766,4533.589844,4410.128418,4474.102539,3884.000000,1.000000,29.000000,,,,0.000000,4.000000,4.000000,4.000000,4.000000,4.000000,4.000000,4.000000,4.000000,4.000000,4.000000,4.000000,4.000000,4.000000,4.000000,100.000000,,,,,,,,,,,,,,,,,,,,,,,,,,,,,,,,,,,,,,,,,,,,,,,,,,,,,,,,,,,,,,,,,,,,,,,,,,,,,,,,,,,,,,,,,,,,,,,,,,,,,,,,,,,,,,,,,,,,,
1768374108.428290,1768374108.429280,68.000000,0.000000,4293.461426,4302.692383,4335.256348,4341.666504,4308.461426,4309.358887,4309.615234,4332.307617,4311.282227,4306.538574,4522.179688,4524.230957,4398.974121,4462.051270,3817.000000,1.000000,29.000000,,,,0.000000,4.000000,4.000000,4.000000,4.000000,4.000000,4.000000,4.000000,4.000000,4.000000,4.000000,4.000000,4.000000,4.000000,4.000000,100.000000,,,,,,,,,,,,,,,,,,,,,,,,,,,,,,,,,,,,,,,,,,,,,,,,,,,,,,,,,,,,,,,,,,,,,,,,,,,,,,,,,,,,,,,,,,,,,,,,,,,,,,,,,,,,,,,,,,,,,
1768374108.436099,1768374108.437089,69.000000,0.000000,4289.871582,4299.358887,4333.333496,4337.436035,4307.051270,4312.307617,4309.615234,4332.820313,4310.512695,4307.563965,4520.256348,4522.179688,4402.436035,4454.871582,3755.000000,1.000000,29.000000,,,,0.000000,4.000000,4.000000,4.000000,4.000000,4.000000,4.000000,4.000000,4.000000,4.000000,4.000000,4.000000,4.000000,4.000000,4.000000,100.000000,,,,,,,,,,,,,,,,,,,,,,,,,,,,,,,,,,,,,,,,,,,,,,,,,,,,,,,,,,,,,,,,,,,,,,,,,,,,,,,,,,,,,,,,,,,,,,,,,,,,,,,,,,,,,,,,,,,,,
1768374108.443907,1768374108.444797,70.000000,0.000000,4298.205078,4303.205078,4340.769043,4339.230957,4311.282227,4316.153809,4316.410156,4341.410156,4317.307617,4313.461426,4524.487305,4532.051270,4412.563965,4467.307617,3769.000000,1.000000,29.000000,,,,0.000000,4.000000,4.000000,4.000000,4.000000,4.000000,4.000000,4.000000,4.000000,4.000000,4.000000,4.000000,4.000000,4.000000,4.000000,100.000000,,,,,,,,,,,,,,,,,,,,,,,,,,,,,,,,,,,,,,,,,,,,,,,,,,,,,,,,,,,,,,,,,,,,,,,,,,,,,,,,,,,,,,,,,,,,,,,,,,,,,,,,,,,,,,,,,,,,,
1768374108.451716,1768374108.452606,71.000000,0.000000,4304.871582,4309.358887,4346.410156,4344.615234,4312.563965,4315.897461,4318.974121,4340.256348,4320.128418,4313.717773,4532.436035,4535.000000,4413.205078,4478.461426,3533.000000,1.000000,29.000000,,,,0.000000,4.000000,4.000000,4.000000,4.000000,4.000000,4.000000,4.000000,4.000000,4.000000,4.000000,4.000000,4.000000,4.000000,4.000000,100.000000,,,,,,,,,,,,,,,,,,,,,,,,,,,,,,,,,,,,,,,,,,,,,,,,,,,,,,,,,,,,,,,,,,,,,,,,,,,,,,,,,,,,,,,,,,,,,,,,,,,,,,,,,,,,,,,,,,,,,
1768374108.459524,1768374108.460214,72.000000,0.000000,4299.230957,4310.256348,4343.077148,4345.256348,4313.846191,4318.333496,4314.487305,4331.666504,4311.794922,4308.717773,4531.794922,4527.051270,4412.307617,4473.461426,3964.000000,1.000000,29.000000,,,,0.000000,4.000000,4.000000,4.000000,4.000000,4.000000,4.000000,4.000000,4.000000,4.000000,4.000000,4.000000,4.000000,4.000000,4.000000,100.000000,,,,,,,,,,,,,,,,,,,,,,,,,,,,,,,,,,,,,,,,,,,,,,,,,,,,,,,,,,,,,,,,,,,,,,,,,,,,,,,,,,,,,,,,,,,,,,,,,,,,,,,,,,,,,,,,,,,,,
1768374108.467333,1768374108.468023,73.000000,0.000000,4292.948730,4310.384766,4341.025879,4345.384766,4319.743652,4320.256348,4311.794922,4334.871582,4311.282227,4307.436035,4526.410156,4524.743652,4413.205078,4469.743652,3954.000000,1.000000,29.000000,,,,0.000000,4.000000,4.000000,4.000000,4.000000,4.000000,4.000000,4.000000,4.000000,4.000000,4.000000,4.000000,4.000000,4.000000,4.000000,100.000000,,,,,,,,,,,,,,,,,,,,,,,,,,,,,,,,,,,,,,,,,,,,,,,,,,,,,,,,,,,,,,,,,,,,,,,,,,,,,,,,,,,,,,,,,,,,,,,,,,,,,,,,,,,,,,,,,,,,,
1768374108.475141,1768374108.475931,74.000000,0.000000,4297.307617,4311.794922,4341.282227,4346.794922,4320.512695,4314.358887,4311.538574,4337.436035,4317.692383,4312.051270,4529.358887,4530.897461,4412.179688,4473.974121,4387.000000,1.000000,29.000000,,,,0.000000,4.000000,4.000000,4.000000,4.000000,4.000000,4.000000,4.000000,4.000000,4.000000,4.000000,4.000000,4.000000,4.000000,4.000000,100.000000,,,,,,,,,,,,,,,,,,,,,,,,,,,,,,,,,,,,,,,,,,,,,,,,,,,,,,,,,,,,,,,,,,,,,,,,,,,,,,,,,,,,,,,,,,,,,,,,,,,,,,,,,,,,,,,,,,,,,
1768374108.482950,1768374108.483740,75.000000,0.000000,4301.538574,4312.436035,4340.897461,4344.358887,4317.436035,4311.025879,4312.307617,4332.948730,4316.666504,4311.666504,4530.384766,4530.897461,4410.256348,4473.077148,4662.000000,1.000000,29.000000,,,,0.000000,4.000000,4.000000,4.000000,4.000000,4.000000,4.000000,4.000000,4.000000,4.000000,4.000000,4.000000,4.000000,4.000000,4.000000,100.000000,,,,,,,,,,,,,,,,,,,,,,,,,,,,,,,,,,,,,,,,,,,,,,,,,,,,,,,,,,,,,,,,,,,,,,,,,,,,,,,,,,,,,,,,,,,,,,,,,,,,,,,,,,,,,,,,,,,,,
1768374108.490758,1768374108.491748,76.000000,0.000000,4297.948730,4309.743652,4340.512695,4339.230957,4318.205078,4314.358887,4309.743652,4331.794922,4314.487305,4307.820313,4522.307617,4524.230957,4407.820313,4465.769043,4978.000000,1.000000,29.000000,,,,0.000000,4.000000,4.000000,4.000000,4.000000,4.000000,4.000000,4.000000,4.000000,4.000000,4.000000,4.000000,4.000000,4.000000,4.000000,100.000000,,,,,,,,,,,,,,,,,,,,,,,,,,,,,,,,,,,,,,,,,,,,,,,,,,,,,,,,,,,,,,,,,,,,,,,,,,,,,,,,,,,,,,,,,,,,,,,,,,,,,,,,,,,,,,,,,,,,,
1768374108.498567,1768374108.499556,77.000000,0.000000,4295.769043,4304.743652,4335.384766,4335.512695,4316.153809,4309.487305,4302.820313,4330.897461,4315.000000,4307.692383,4521.410156,4522.436035,4405.000000,4461.282227,5328.000000,1.000000,29.000000,,,,0.000000,4.000000,4.000000,4.000000,4.000000,4.000000,4.000000,4.000000,4.000000,4.000000,4.000000,4.000000,4.000000,4.000000,4.000000,100.000000,,,,,,,,,,,,,,,,,,,,,,,,,,,,,,,,,,,,,,,,,,,,,,,,,,,,,,,,,,,,,,,,,,,,,,,,,,,,,,,,,,,,,,,,,,,,,,,,,,,,,,,,,,,,,,,,,,,,,
1768374108.506375,1768374108.507265,78.000000,0.000000,4295.384766,4299.102539,4327.820313,4333.846191,4309.487305,4303.974121,4302.179688,4329.743652,4314.615234,4308.717773,4523.974121,4523.077148,4399.102539,4459.615234,4387.000000,1.000000,29.000000,,,,0.000000,4.000000,4.000000,4.000000,4.000000,4.000000,4.000000,4.000000,4.000000,4.000000,4.000000,4.000000,4.000000,4.000000,4.000000,100.000000,1.000000,16.666666,4.000000,4.000000,4.000000,4.000000,1.000000,0.000000,4.000000,1.000000,4.000000,4.000000,4.000000,4.000000,4.000000,4.000000,,,,,,,,,,,,,,,,,,,,,,,,,,,,,,,,0.709206,0.315606,0.149373,0.170961,0.111930,0.414669,0.300609,0.102637,0.147435,0.091305,0.390919,0.318580,0.115115,0.114954,0.129769,0.222091,0.127309,0.090825,0.130399,0.093806,0.291456,0.101828,0.047945,0.043791,0.039941,0.123188,0.161417,0.108287,0.064585,0.082237,0.353446,0.245932,0.085589,0.069409,0.093051,0.126942,0.229897,0.132233,0.130606,0.060080,0.156286,0.312054,0.203803,0.193221,0.124340,0.156438,0.292382,0.147372,0.180335,0.206206,0.561313,0.337322,0.213983,0.264950,0.217947,0.391914,0.515721,0.171916,0.255945,0.287531,0.739665,0.623850,0.180633,0.227096,0.300247,1.086279,0.419959,0.187169,0.215866,0.173643
1768374108.514183,1768374108.515073,79.000000,0.000000,4293.205078,4297.563965,4326.025879,4331.025879,4310.128418,4310.256348,4304.487305,4333.717773,4315.897461,4309.102539,4521.410156,4519.358887,4394.615234,4459.102539,4662.000000,1.000000,29.000000,,,,0.000000,4.000000,4.000000,4.000000,4.000000,4.000000,4.000000,4.000000,4.000000,4.000000,4.000000,4.000000,4.000000,4.000000,4.000000,100.000000,,,,,,,,,,,,,,,,,,,,,,,,,,,,,,,,,,,,,,,,,,,,,,,,,,,,,,,,,,,,,,,,,,,,,,,,,,,,,,,,,,,,,,,,,,,,,,,,,,,,,,,,,,,,,,,,,,,,,
1768374108.521992,1768374108.522682,80.000000,0.000000,4290.512695,4296.666504,4325.256348,4328.717773,4312.307617,4310.512695,4299.743652,4333.077148,4315.384766,4312.051270,4517.948730,4517.436035,4397.307617,4458.717773,4978.000000,1.000000,29.000000,,,,0.000000,4.000000,4.000000,4.000000,4.000000,4.000000,4.000000,4.000000,4.000000,4.000000,4.000000,4.000000,4.000000,4.000000,4.000000,100.000000,,,,,,,,,,,,,,,,,,,,,,,,,,,,,,,,,,,,,,,,,,,,,,,,,,,,,,,,,,,,,,,,,,,,,,,,,,,,,,,,,,,,,,,,,,,,,,,,,,,,,,,,,,,,,,,,,,,,,
1768374108.529800,1768374108.530490,81.000000,0.000000,4290.897461,4291.538574,4324.487305,4329.615234,4309.230957,4305.512695,4300.000000,4325.512695,4309.615234,4305.256348,4510.384766,4516.282227,4395.769043,4456.794922,5328.000000,1.000000,29.000000,,,,0.000000,4.000000,4.000000,4.000000,4.000000,4.000000,4.000000,4.000000,4.000000,4.000000,4.000000,4.000000,4.000000,4.000000,4.000000,100.000000,,,,,,,,,,,,,,,,,,,,,,,,,,,,,,,,,,,,,,,,,,,,,,,,,,,,,,,,,,,,,,,,,,,,,,,,,,,,,,,,,,,,,,,,,,,,,,,,,,,,,,,,,,,,,,,,,,,,,
1768374108.537609,1768374108.538199,82.000000,0.000000,4292.948730,4294.487305,4331.282227,4335.769043,4311.538574,4310.000000,4307.307617,4325.000000,4308.205078,4294.102539,4507.563965,4515.384766,4390.128418,4455.641113,4387.000000,1.000000,29.000000,,,,0.000000,4.000000,4.000000,4.000000,4.000000,4.000000,4.000000,4.000000,4.000000,4.000000,4.000000,4.000000,4.000000,4.000000,4.000000,100.000000,,,,,,,,,,,,,,,,,,,,,,,,,,,,,,,,,,,,,,,,,,,,,,,,,,,,,,,,,,,,,,,,,,,,,,,,,,,,,,,,,,,,,,,,,,,,,,,,,,,,,,,,,,,,,,,,,,,,,
1768374108.545417,1768374108.546007,83.000000,0.000000,4295.769043,4305.000000,4334.230957,4340.256348,4314.487305,4312.436035,4306.025879,4328.205078,4311.666504,4299.743652,4511.794922,4518.589844,4393.333496,4459.102539,4662.000000,1.000000,29.000000,,,,0.000000,4.000000,4.000000,4.000000,4.000000,4.000000,4.000000,4.000000,4.000000,4.000000,4.000000,4.000000,4.000000,4.000000,4.000000,100.000000,,,,,,,,,,,,,,,,,,,,,,,,,,,,,,,,,,,,,,,,,,,,,,,,,,,,,,,,,,,,,,,,,,,,,,,,,,,,,,,,,,,,,,,,,,,,,,,,,,,,,,,,,,,,,,,,,,,,,
1768374108.553226,1768374108.554016,84.000000,0.000000,4295.512695,4302.820313,4329.615234,4337.948730,4311.666504,4307.051270,4300.641113,4324.871582,4309.487305,4302.563965,4508.846191,4517.179688,4396.282227,4459.615234,4978.000000,1.000000,29.000000,,,,0.000000,4.000000,4.000000,4.000000,4.000000,4.000000,4.000000,4.000000,4.000000,4.000000,4.000000,4.000000,4.000000,4.000000,4.000000,100.000000,,,,,,,,,,,,,,,,,,,,,,,,,,,,,,,,,,,,,,,,,,,,,,,,,,,,,,,,,,,,,,,,,,,,,,,,,,,,,,,,,,,,,,,,,,,,,,,,,,,,,,,,,,,,,,,,,,,,,
1768374108.561034,1768374108.561824,85.000000,0.000000,4292.307617,4295.897461,4333.974121,4336.282227,4310.512695,4308.461426,4303.077148,4321.794922,4304.102539,4295.256348,4508.717773,4515.128418,4395.000000,4454.743652,5328.000000,1.000000,29.000000,,,,0.000000,4.000000,4.000000,4.000000,4.000000,4.000000,4.000000,4.000000,4.000000,4.000000,4.000000,4.000000,4.000000,4.000000,4.000000,100.000000,,,,,,,,,,,,,,,,,,,,,,,,,,,,,,,,,,,,,,,,,,,,,,,,,,,,,,,,,,,,,,,,,,,,,,,,,,,,,,,,,,,,,,,,,,,,,,,,,,,,,,,,,,,,,,,,,,,,,
1768374108.568843,1768374108.569732,86.000000,0.000000,4301.410156,4304.102539,4347.179688,4342.563965,4313.974121,4311.922852,4307.820313,4325.512695,4305.769043,4300.000000,4520.256348,4525.897461,4398.333496,4463.589844,4387.000000,1.000000,29.000000,,,,0.000000,4.000000,4.000000,4.000000,4.000000,4.000000,4.000000,4.000000,4.000000,4.000000,4.000000,4.000000,4.000000,4.000000,4.000000,100.000000,,,,,,,,,,,,,,,,,,,,,,,,,,,,,,,,,,,,,,,,,,,,,,,,,,,,,,,,,,,,,,,,,,,,,,,,,,,,,,,,,,,,,,,,,,,,,,,,,,,,,,,,,,,,,,,,,,,,,
1768374108.576651,1768374108.577541,87.000000,0.000000,4316.153809,4316.153809,4354.743652,4349.230957,4315.384766,4311.153809,4309.102539,4333.846191,4312.307617,4307.051270,4526.410156,4537.179688,4400.769043,4477.948730,4662.000000,1.000000,29.000000,,,,0.000000,4.000000,4.000000,4.000000,4.000000,4.000000,4.000000,4.000000,4.000000,4.000000,4.000000,4.000000,4.000000,4.000000,4.000000,100.000000,,,,,,,,,,,,,,,,,,,,,,,,,,,,,,,,,,,,,,,,,,,,,,,,,,,,,,,,,,,,,,,,,,,,,,,,,,,,,,,,,,,,,,,,,,,,,,,,,,,,,,,,,,,,,,,,,,,,,
1768374108.584459,1768374108.585549,88.000000,0.000000,4311.666504,4315.000000,4351.025879,4345.000000,4313.589844,4311.025879,4309.230957,4333.846191,4312.563965,4299.230957,4518.205078,4530.769043,4396.153809,4472.307617,4978.000000,1.000000,29.000000,,,,0.000000,4.000000,4.000000,4.000000,4.000000,4.000000,4.000000,4.000000,4.000000,4.000000,4.000000,4.000000,4.000000,4.000000,4.000000,100.000000,,,,,,,,,,,,,,,,,,,,,,,,,,,,,,,,,,,,,,,,,,,,,,,,,,,,,,,,,,,,,,,,,,,,,,,,,,,,,,,,,,,,,,,,,,,,,,,,,,,,,,,,,,,,,,,,,,,,,
1768374108.592268,1768374108.593358,89.000000,0.000000,4300.384766,4308.974121,4341.794922,4336.410156,4307.820313,4304.743652,4309.615234,4326.922852,4306.794922,4294.615234,4514.102539,4518.717773,4395.512695,4464.743652,5328.000000,1.000000,29.000000,,,,0.000000,4.000000,4.000000,4.000000,4.000000,4.000000,4.000000,4.000000,4.000000,4.000000,4.000000,4.000000,4.000000,4.000000,4.000000,100.000000,,,,,,,,,,,,,,,,,,,,,,,,,,,,,,,,,,,,,,,,,,,,,,,,,,,,,,,,,,,,,,,,,,,,,,,,,,,,,,,,,,,,,,,,,,,,,,,,,,,,,,,,,,,,,,,,,,,,,
1768374108.600076,1768374108.601266,90.000000,0.000000,4305.641113,4310.000000,4336.794922,4336.666504,4300.128418,4296.794922,4304.358887,4324.871582,4305.000000,4300.384766,4522.820313,4524.358887,4400.000000,4475.641113,4387.000000,1.000000,29.000000,,,,0.000000,4.000000,4.000000,4.000000,4.000000,4.000000,4.000000,4.000000,4.000000,4.000000,4.000000,4.000000,4.000000,4.000000,4.000000,100.000000,,,,,,,,,,,,,,,,,,,,,,,,,,,,,,,,,,,,,,,,,,,,,,,,,,,,,,,,,,,,,,,,,,,,,,,,,,,,,,,,,,,,,,,,,,,,,,,,,,,,,,,,,,,,,,,,,,,,,
1768374108.607885,1768374108.609074,91.000000,0.000000,4314.102539,4314.358887,4338.974121,4339.102539,4298.717773,4298.974121,4295.512695,4325.641113,4307.051270,4298.333496,4525.000000,4533.589844,4399.487305,4482.820313,4662.000000,1.000000,29.000000,,,,0.000000,4.000000,4.000000,4.000000,4.000000,4.000000,4.000000,4.000000,4.000000,4.000000,4.000000,4.000000,4.000000,4.000000,4.000000,100.000000,,,,,,,,,,,,,,,,,,,,,,,,,,,,,,,,,,,,,,,,,,,,,,,,,,,,,,,,,,,,,,,,,,,,,,,,,,,,,,,,,,,,,,,,,,,,,,,,,,,,,,,,,,,,,,,,,,,,,
1768374108.615693,1768374108.617083,92.000000,0.000000,4311.922852,4314.871582,4340.128418,4333.589844,4302.692383,4304.743652,4293.205078,4324.871582,4305.897461,4292.820313,4512.692383,4524.102539,4396.153809,4475.128418,4978.000000,1.000000,29.000000,,,,0.000000,4.000000,4.000000,4.000000,4.000000,4.000000,4.000000,4.000000,4.000000,4.000000,4.000000,4.000000,4.000000,4.000000,4.000000,100.000000,,,,,,,,,,,,,,,,,,,,,,,,,,,,,,,,,,,,,,,,,,,,,,,,,,,,,,,,,,,,,,,,,,,,,,,,,,,,,,,,,,,,,,,,,,,,,,,,,,,,,,,,,,,,,,,,,,,,,
1768374108.623502,1768374108.624891,93.000000,0.000000,4310.641113,4312.948730,4337.692383,4331.282227,4306.282227,4305.897461,4295.897461,4326.153809,4305.384766,4296.153809,4508.717773,4515.641113,4395.128418,4473.461426,5328.000000,1.000000,29.000000,,,,0.000000,4.000000,4.000000,4.000000,4.000000,4.000000,4.000000,4.000000,4.000000,4.000000,4.000000,4.000000,4.000000,4.000000,4.000000,100.000000,,,,,,,,,,,,,,,,,,,,,,,,,,,,,,,,,,,,,,,,,,,,,,,,,,,,,,,,,,,,,,,,,,,,,,,,,,,,,,,,,,,,,,,,,,,,,,,,,,,,,,,,,,,,,,,,,,,,,
1768374108.631310,1768374108.632600,94.000000,0.000000,4312.051270,4312.948730,4335.000000,4336.025879,4306.666504,4305.897461,4296.538574,4327.692383,4309.358887,4301.666504,4519.358887,4524.358887,4397.692383,4477.820313,4387.000000,1.000000,29.000000,,,,0.000000,4.000000,4.000000,4.000000,4.000000,4.000000,4.000000,4.000000,4.000000,4.000000,4.000000,4.000000,4.000000,4.000000,4.000000,100.000000,,,,,,,,,,,,,,,,,,,,,,,,,,,,,,,,,,,,,,,,,,,,,,,,0.944172,0.252146,0.154227,0.189658,0.127671,0.351168,0.239950,0.102603,0.132741,0.099451,0.445202,0.282781,0.138493,0.109926,0.130437,0.254763,0.115401,0.098795,0.121762,0.097947,0.250038,0.118079,0.047185,0.040319,0.046848,0.159458,0.165365,0.141433,0.073858,0.075387,0.381437,0.277497,0.115063,0.073296,0.086753,0.194241,0.275236,0.119538,0.147973,0.053597,0.182393,0.394589,0.229310,0.217769,0.126034,0.184210,0.303895,0.197283,0.221592,0.194940,0.644242,0.314915,0.312366,0.287463,0.230019,0.454965,0.570530,0.256112,0.274830,0.294906,0.862464,0.577450,0.202710,0.210953,0.284972,1.253048,0.360420,0.228702,0.216395,0.170925
1768374108.639119,1768374108.640408,95.000000,0.000000,4311.538574,4311.794922,4333.205078,4333.974121,4304.358887,4307.051270,4297.948730,4326.666504,4310.256348,4299.102539,4524.230957,4531.153809,4399.615234,4477.820313,4662.000000,1.000000,29.000000,,,,0.000000,4.000000,4.000000,4.000000,4.000000,4.000000,4.000000,4.000000,4.000000,4.000000,4.000000,4.000000,4.000000,4.000000,4.000000,100.000000,,,,,,,,,,,,,,,,,,,,,,,,,,,,,,,,,,,,,,,,,,,,,,,,,,,,,,,,,,,,,,,,,,,,,,,,,,,,,,,,,,,,,,,,,,,,,,,,,,,,,,,,,,,,,,,,,,,,,
1768374108.646927,1768374108.648017,96.000000,0.000000,4309.743652,4308.846191,4334.358887,4324.230957,4301.153809,4307.051270,4299.230957,4325.128418,4307.436035,4294.358887,4519.487305,4523.846191,4397.179688,4477.948730,4978.000000,1.000000,29.000000,,,,0.000000,4.000000,4.000000,4.000000,4.000000,4.000000,4.000000,4.000000,4.000000,4.000000,4.000000,4.000000,4.000000,4.000000,4.000000,100.000000,,,,,,,,,,,,,,,,,,,,,,,,,,,,,,,,,,,,,,,,,,,,,,,,,,,,,,,,,,,,,,,,,,,,,,,,,,,,,,,,,,,,,,,,,,,,,,,,,,,,,,,,,,,,,,,,,,,,,
1768374108.654735,1768374108.655825,97.000000,0.000000,4310.897461,4308.333496,4336.538574,4323.717773,4301.538574,4307.692383,4296.922852,4325.000000,4303.717773,4293.461426,4511.025879,4517.692383,4395.256348,4478.589844,5328.000000,1.000000,29.000000,,,,0.000000,4.000000,4.000000,4.000000,4.000000,4.000000,4.000000,4.000000,4.000000,4.000000,4.000000,4.000000,4.000000,4.000000,4.000000,100.000000,,,,,,,,,,,,,,,,,,,,,,,,,,,,,,,,,,,,,,,,,,,,,,,,,,,,,,,,,,,,,,,,,,,,,,,,,,,,,,,,,,,,,,,,,,,,,,,,,,,,,,,,,,,,,,,,,,,,,
1768374108.662544,1768374108.663534,98.000000,0.000000,4317.307617,4313.461426,4337.051270,4333.461426,4306.538574,4308.717773,4299.487305,4327.436035,4303.846191,4294.358887,4507.563965,4524.358887,4394.743652,4477.692383,4387.000000,1.000000,29.000000,,,,0.000000,4.000000,4.000000,4.000000,4.000000,4.000000,4.000000,4.000000,4.000000,4.000000,4.000000,4.000000,4.000000,4.000000,4.000000,100.000000,,,,,,,,,,,,,,,,,,,,,,,,,,,,,,,,,,,,,,,,,,,,,,,,,,,,,,,,,,,,,,,,,,,,,,,,,,,,,,,,,,,,,,,,,,,,,,,,,,,,,,,,,,,,,,,,,,,,,
1768374108.670352,1768374108.671342,99.000000,0.000000,4318.846191,4316.282227,4338.589844,4336.538574,4308.333496,4309.102539,4303.077148,4330.384766,4308.077148,4298.717773,4517.051270,4529.743652,4395.897461,4476.922852,4662.000000,1.000000,29.000000,,,,0.000000,4.000000,4.000000,4.000000,4.000000,4.000000,4.000000,4.000000,4.000000,4.000000,4.000000,4.000000,4.000000,4.000000,4.000000,100.000000,,,,,,,,,,,,,,,,,,,,,,,,,,,,,,,,,,,,,,,,,,,,,,,,,,,,,,,,,,,,,,,,,,,,,,,,,,,,,,,,,,,,,,,,,,,,,,,,,,,,,,,,,,,,,,,,,,,,,
1768374108.678161,1768374108.679350,100.000000,0.000000,4314.487305,4311.794922,4340.256348,4333.461426,4306.410156,4305.641113,4298.846191,4328.461426,4304.615234,4300.128418,4521.153809,4523.077148,4398.205078,4475.000000,4978.000000,1.000000,29.000000,,,,0.000000,4.000000,4.000000,4.000000,4.000000,4.000000,4.000000,4.000000,4.000000,4.000000,4.000000,4.000000,4.000000,4.000000,4.000000,100.000000,,,,,,,,,,,,,,,,,,,,,,,,,,,,,,,,,,,,,,,,,,,,,,,,,,,,,,,,,,,,,,,,,,,,,,,,,,,,,,,,,,,,,,,,,,,,,,,,,,,,,,,,,,,,,,,,,,,,,
1768374108.685969,1768374108.687159,101.000000,0.000000,4318.974121,4314.871582,4340.512695,4336.025879,4306.666504,4304.871582,4297.820313,4325.256348,4296.282227,4293.461426,4512.436035,4517.051270,4397.179688,4473.974121,5328.000000,1.000000,29.000000,,,,0.000000,4.000000,4.000000,4.000000,4.000000,4.000000,4.000000,4.000000,4.000000,4.000000,4.000000,4.000000,4.000000,4.000000,4.000000,100.000000,,,,,,,,,,,,,,,,,,,,,,,,,,,,,,,,,,,,,,,,,,,,,,,,,,,,,,,,,,,,,,,,,,,,,,,,,,,,,,,,,,,,,,,,,,,,,,,,,,,,,,,,,,,,,,,,,,,,,
1768374108.693778,1768374108.695067,102.000000,0.000000,4327.820313,4323.205078,4342.307617,4342.563965,4310.641113,4309.102539,4307.436035,4328.077148,4300.897461,4293.717773,4514.487305,4524.230957,4395.641113,4481.666504,4387.000000,1.000000,29.000000,,,,0.000000,4.000000,4.000000,4.000000,4.000000,4.000000,4.000000,4.000000,4.000000,4.000000,4.000000,4.000000,4.000000,4.000000,4.000000,100.000000,,,,,,,,,,,,,,,,,,,,,,,,,,,,,,,,,,,,,,,,,,,,,,,,,,,,,,,,,,,,,,,,,,,,,,,,,,,,,,,,,,,,,,,,,,,,,,,,,,,,,,,,,,,,,,,,,,,,,
1768374108.701586,1768374108.702876,103.000000,0.000000,4327.307617,4322.820313,4344.358887,4341.794922,4312.051270,4307.436035,4311.282227,4334.743652,4311.794922,4307.436035,4526.282227,4533.077148,4403.974121,4491.538574,4662.000000,1.000000,29.000000,,,,0.000000,4.000000,4.000000,4.000000,4.000000,4.000000,4.000000,4.000000,4.000000,4.000000,4.000000,4.000000,4.000000,4.000000,4.000000,100.000000,,,,,,,,,,,,,,,,,,,,,,,,,,,,,,,,,,,,,,,,,,,,,,,,,,,,,,,,,,,,,,,,,,,,,,,,,,,,,,,,,,,,,,,,,,,,,,,,,,,,,,,,,,,,,,,,,,,,,
1768374108.709395,1768374108.710484,104.000000,0.000000,4324.871582,4321.025879,4344.102539,4340.512695,4311.153809,4302.692383,4307.179688,4335.512695,4311.282227,4313.717773,4527.948730,4533.589844,4413.974121,4492.820313,4978.000000,1.000000,29.000000,,,,0.000000,4.000000,4.000000,4.000000,4.000000,4.000000,4.000000,4.000000,4.000000,4.000000,4.000000,4.000000,4.000000,4.000000,4.000000,100.000000,,,,,,,,,,,,,,,,,,,,,,,,,,,,,,,,,,,,,,,,,,,,,,,,,,,,,,,,,,,,,,,,,,,,,,,,,,,,,,,,,,,,,,,,,,,,,,,,,,,,,,,,,,,,,,,,,,,,,
1768374108.717203,1768374108.718293,105.000000,0.000000,4326.410156,4319.358887,4343.205078,4342.179688,4307.692383,4303.077148,4306.025879,4333.461426,4306.153809,4302.051270,4523.333496,4531.538574,4410.128418,4491.282227,5328.000000,1.000000,29.000000,,,,0.000000,4.000000,4.000000,4.000000,4.000000,4.000000,4.000000,4.000000,4.000000,4.000000,4.000000,4.000000,4.000000,4.000000,4.000000,100.000000,,,,,,,,,,,,,,,,,,,,,,,,,,,,,,,,,,,,,,,,,,,,,,,,,,,,,,,,,,,,,,,,,,,,,,,,,,,,,,,,,,,,,,,,,,,,,,,,,,,,,,,,,,,,,,,,,,,,,
1768374108.725011,1768374108.726001,106.000000,0.000000,4326.410156,4316.794922,4346.282227,4341.922852,4308.077148,4305.512695,4305.256348,4332.179688,4306.282227,4294.102539,4523.717773,4529.615234,4405.512695,4491.538574,4387.000000,1.000000,29.000000,,,,0.000000,4.000000,4.000000,4.000000,4.000000,4.000000,4.000000,4.000000,4.000000,4.000000,4.000000,4.000000,4.000000,4.000000,4.000000,100.000000,,,,,,,,,,,,,,,,,,,,,,,,,,,,,,,,,,,,,,,,,,,,,,,,,,,,,,,,,,,,,,,,,,,,,,,,,,,,,,,,,,,,,,,,,,,,,,,,,,,,,,,,,,,,,,,,,,,,,
1768374108.732820,1768374108.733810,107.000000,0.000000,4326.666504,4322.563965,4348.589844,4345.769043,4315.641113,4308.333496,4304.487305,4326.922852,4308.077148,4298.846191,4524.102539,4527.820313,4410.897461,4491.538574,4662.000000,1.000000,29.000000,,,,0.000000,4.000000,4.000000,4.000000,4.000000,4.000000,4.000000,4.000000,4.000000,4.000000,4.000000,4.000000,4.000000,4.000000,4.000000,100.000000,,,,,,,,,,,,,,,,,,,,,,,,,,,,,,,,,,,,,,,,,,,,,,,,,,,,,,,,,,,,,,,,,,,,,,,,,,,,,,,,,,,,,,,,,,,,,,,,,,,,,,,,,,,,,,,,,,,,,
1768374108.740628,1768374108.741818,108.000000,0.000000,4327.563965,4327.820313,4345.641113,4348.205078,4316.666504,4310.769043,4304.743652,4324.743652,4309.358887,4305.512695,4525.128418,4527.436035,4413.205078,4493.589844,4978.000000,1.000000,29.000000,,,,0.000000,4.000000,4.000000,4.000000,4.000000,4.000000,4.000000,4.000000,4.000000,4.000000,4.000000,4.000000,4.000000,4.000000,4.000000,100.000000,,,,,,,,,,,,,,,,,,,,,,,,,,,,,,,,,,,,,,,,,,,,,,,,,,,,,,,,,,,,,,,,,,,,,,,,,,,,,,,,,,,,,,,,,,,,,,,,,,,,,,,,,,,,,,,,,,,,,
1768374108.748437,1768374108.749626,109.000000,0.000000,4326.922852,4322.948730,4341.922852,4343.846191,4311.153809,4311.922852,4307.051270,4328.717773,4308.077148,4306.666504,4528.717773,4528.717773,4411.666504,4496.025879,5328.000000,1.000000,29.000000,,,,0.000000,4.000000,4.000000,4.000000,4.000000,4.000000,4.000000,4.000000,4.000000,4.000000,4.000000,4.000000,4.000000,4.000000,4.000000,100.000000,,,,,,,,,,,,,,,,,,,,,,,,,,,,,,,,,,,,,,,,,,,,,,,,,,,,,,,,,,,,,,,,,,,,,,,,,,,,,,,,,,,,,,,,,,,,,,,,,,,,,,,,,,,,,,,,,,,,,
1768374108.756245,1768374108.757535,110.000000,0.000000,4324.102539,4317.179688,4339.487305,4339.358887,4310.256348,4310.897461,4305.769043,4330.512695,4306.794922,4302.692383,4528.589844,4529.871582,4413.717773,4492.307617,4387.000000,1.000000,29.000000,,,,0.000000,4.000000,4.000000,4.000000,4.000000,4.000000,4.000000,4.000000,4.000000,4.000000,4.000000,4.000000,4.000000,4.000000,4.000000,100.000000,,,,,,,,,,,,,,,,,,,,,,,,,,,,,,,,,,,,,,,,,,,,,,,,1.219925,0.193272,0.161779,0.215293,0.143073,0.338218,0.197437,0.110929,0.131747,0.108298,0.493469,0.236610,0.184426,0.109969,0.128415,0.314057,0.103784,0.117116,0.118756,0.102447,0.223094,0.134368,0.047702,0.041322,0.056288,0.179374,0.160806,0.169840,0.084970,0.071287,0.387363,0.307554,0.146922,0.079095,0.082938,0.273937,0.320697,0.121658,0.162250,0.050072,0.218133,0.474522,0.254819,0.229813,0.127022,0.211846,0.336283,0.265683,0.251808,0.180000,0.737105,0.285122,0.421994,0.294661,0.244028,0.532530,0.586282,0.369126,0.295033,0.291075,0.969906,0.519120,0.257296,0.197012,0.275064,1.489545,0.317078,0.306360,0.207113,0.168053
1768374108.764054,1768374108.765343,111.000000,0.000000,4321.922852,4315.384766,4341.538574,4339.743652,4309.102539,4311.282227,4303.846191,4330.128418,4308.077148,4301.153809,4526.794922,4529.615234,4414.743652,4491.153809,4662.000000,1.000000,29.000000,,,,0.000000,4.000000,4.000000,4.000000,4.000000,4.000000,4.000000,4.000000,4.000000,4.000000,4.000000,4.000000,4.000000,4.000000,4.000000,100.000000,,,,,,,,,,,,,,,,,,,,,,,,,,,,,,,,,,,,,,,,,,,,,,,,,,,,,,,,,,,,,,,,,,,,,,,,,,,,,,,,,,,,,,,,,,,,,,,,,,,,,,,,,,,,,,,,,,,,,
1768374108.771862,1768374108.773351,112.000000,0.000000,4326.922852,4318.589844,4347.948730,4342.948730,4308.461426,4311.410156,4306.794922,4325.256348,4302.436035,4302.051270,4529.743652,4528.589844,4410.897461,4499.358887,4978.000000,1.000000,29.000000,,,,0.000000,4.000000,4.000000,4.000000,4.000000,4.000000,4.000000,4.000000,4.000000,4.000000,4.000000,4.000000,4.000000,4.000000,4.000000,100.000000,,,,,,,,,,,,,,,,,,,,,,,,,,,,,,,,,,,,,,,,,,,,,,,,,,,,,,,,,,,,,,,,,,,,,,,,,,,,,,,,,,,,,,,,,,,,,,,,,,,,,,,,,,,,,,,,,,,,,
1768374108.779671,1768374108.781160,113.000000,0.000000,4340.641113,4324.871582,4351.282227,4344.487305,4310.384766,4304.102539,4303.717773,4317.820313,4294.871582,4299.358887,4534.615234,4530.000000,4412.692383,4507.692383,5328.000000,1.000000,29.000000,,,,0.000000,4.000000,4.000000,4.000000,4.000000,4.000000,4.000000,4.000000,4.000000,4.000000,4.000000,4.000000,4.000000,4.000000,4.000000,100.000000,,,,,,,,,,,,,,,,,,,,,,,,,,,,,,,,,,,,,,,,,,,,,,,,,,,,,,,,,,,,,,,,,,,,,,,,,,,,,,,,,,,,,,,,,,,,,,,,,,,,,,,,,,,,,,,,,,,,,
1768374108.787479,1768374108.788968,114.000000,0.000000,4342.307617,4321.794922,4348.077148,4343.077148,4308.205078,4297.692383,4297.436035,4319.358887,4299.615234,4299.102539,4535.512695,4535.128418,4417.436035,4507.692383,4387.000000,1.000000,29.000000,,,,0.000000,4.000000,4.000000,4.000000,4.000000,4.000000,4.000000,4.000000,4.000000,4.000000,4.000000,4.000000,4.000000,4.000000,4.000000,100.000000,,,,,,,,,,,,,,,,,,,,,,,,,,,,,,,,,,,,,,,,,,,,,,,,,,,,,,,,,,,,,,,,,,,,,,,,,,,,,,,,,,,,,,,,,,,,,,,,,,,,,,,,,,,,,,,,,,,,,
1768374108.795287,1768374108.796777,115.000000,0.000000,4330.641113,4318.333496,4347.307617,4341.153809,4307.563965,4303.589844,4302.051270,4328.333496,4309.102539,4306.153809,4535.384766,4536.025879,4415.128418,4506.282227,4662.000000,1.000000,29.000000,,,,0.000000,4.000000,4.000000,4.000000,4.000000,4.000000,4.000000,4.000000,4.000000,4.000000,4.000000,4.000000,4.000000,4.000000,4.000000,100.000000,,,,,,,,,,,,,,,,,,,,,,,,,,,,,,,,,,,,,,,,,,,,,,,,,,,,,,,,,,,,,,,,,,,,,,,,,,,,,,,,,,,,,,,,,,,,,,,,,,,,,,,,,,,,,,,,,,,,,
1768374108.803096,1768374108.804385,116.000000,0.000000,4332.563965,4322.820313,4351.153809,4343.717773,4312.436035,4307.948730,4309.230957,4329.230957,4309.871582,4308.717773,4535.897461,4533.589844,4415.897461,4506.153809,4978.000000,1.000000,29.000000,,,,0.000000,4.000000,4.000000,4.000000,4.000000,4.000000,4.000000,4.000000,4.000000,4.000000,4.000000,4.000000,4.000000,4.000000,4.000000,100.000000,,,,,,,,,,,,,,,,,,,,,,,,,,,,,,,,,,,,,,,,,,,,,,,,,,,,,,,,,,,,,,,,,,,,,,,,,,,,,,,,,,,,,,,,,,,,,,,,,,,,,,,,,,,,,,,,,,,,,
1768374108.810904,1768374108.812194,117.000000,0.000000,4343.333496,4325.769043,4356.538574,4348.717773,4312.820313,4304.358887,4305.512695,4326.410156,4307.051270,4304.102539,4536.922852,4538.846191,4424.743652,4507.692383,5328.000000,1.000000,29.000000,,,,0.000000,4.000000,4.000000,4.000000,4.000000,4.000000,4.000000,4.000000,4.000000,4.000000,4.000000,4.000000,4.000000,4.000000,4.000000,100.000000,,,,,,,,,,,,,,,,,,,,,,,,,,,,,,,,,,,,,,,,,,,,,,,,,,,,,,,,,,,,,,,,,,,,,,,,,,,,,,,,,,,,,,,,,,,,,,,,,,,,,,,,,,,,,,,,,,,,,
1768374108.818713,1768374108.819902,118.000000,0.000000,4344.487305,4326.666504,4361.538574,4351.410156,4311.410156,4305.512695,4304.358887,4329.230957,4309.743652,4305.256348,4538.974121,4547.820313,4431.282227,4517.179688,4387.000000,1.000000,29.000000,,,,0.000000,4.000000,4.000000,4.000000,4.000000,4.000000,4.000000,4.000000,4.000000,4.000000,4.000000,4.000000,4.000000,4.000000,4.000000,100.000000,,,,,,,,,,,,,,,,,,,,,,,,,,,,,,,,,,,,,,,,,,,,,,,,,,,,,,,,,,,,,,,,,,,,,,,,,,,,,,,,,,,,,,,,,,,,,,,,,,,,,,,,,,,,,,,,,,,,,
1768374108.826521,1768374108.827711,119.000000,0.000000,4345.641113,4328.846191,4362.051270,4352.563965,4312.179688,4309.358887,4308.717773,4329.230957,4313.461426,4309.102539,4540.384766,4549.358887,4430.512695,4525.897461,4662.000000,1.000000,29.000000,,,,0.000000,4.000000,4.000000,4.000000,4.000000,4.000000,4.000000,4.000000,4.000000,4.000000,4.000000,4.000000,4.000000,4.000000,4.000000,100.000000,,,,,,,,,,,,,,,,,,,,,,,,,,,,,,,,,,,,,,,,,,,,,,,,,,,,,,,,,,,,,,,,,,,,,,,,,,,,,,,,,,,,,,,,,,,,,,,,,,,,,,,,,,,,,,,,,,,,,
1768374108.834330,1768374108.835719,120.000000,0.000000,4350.256348,4327.307617,4357.436035,4350.769043,4311.538574,4308.717773,4309.102539,4325.641113,4308.717773,4302.948730,4538.974121,4547.692383,4423.205078,4522.692383,4978.000000,1.000000,29.000000,,,,0.000000,4.000000,4.000000,4.000000,4.000000,4.000000,4.000000,4.000000,4.000000,4.000000,4.000000,4.000000,4.000000,4.000000,4.000000,100.000000,,,,,,,,,,,,,,,,,,,,,,,,,,,,,,,,,,,,,,,,,,,,,,,,,,,,,,,,,,,,,,,,,,,,,,,,,,,,,,,,,,,,,,,,,,,,,,,,,,,,,,,,,,,,,,,,,,,,,
1768374108.842138,1768374108.843528,121.000000,0.000000,4347.563965,4324.230957,4357.051270,4347.179688,4310.384766,4309.230957,4308.846191,4325.512695,4301.538574,4296.410156,4538.717773,4547.948730,4418.974121,4519.871582,5328.000000,1.000000,29.000000,,,,0.000000,4.000000,4.000000,4.000000,4.000000,4.000000,4.000000,4.000000,4.000000,4.000000,4.000000,4.000000,4.000000,4.000000,4.000000,100.000000,,,,,,,,,,,,,,,,,,,,,,,,,,,,,,,,,,,,,,,,,,,,,,,,,,,,,,,,,,,,,,,,,,,,,,,,,,,,,,,,,,,,,,,,,,,,,,,,,,,,,,,,,,,,,,,,,,,,,
1768374108.849947,1768374108.851236,122.000000,0.000000,4349.871582,4331.410156,4363.461426,4350.897461,4310.641113,4308.461426,4306.922852,4328.333496,4305.000000,4305.769043,4541.282227,4548.974121,4427.563965,4525.641113,4387.000000,1.000000,29.000000,,,,0.000000,4.000000,4.000000,4.000000,4.000000,4.000000,4.000000,4.000000,4.000000,4.000000,4.000000,4.000000,4.000000,4.000000,4.000000,100.000000,,,,,,,,,,,,,,,,,,,,,,,,,,,,,,,,,,,,,,,,,,,,,,,,,,,,,,,,,,,,,,,,,,,,,,,,,,,,,,,,,,,,,,,,,,,,,,,,,,,,,,,,,,,,,,,,,,,,,
1768374108.857755,1768374108.859045,123.000000,0.000000,4361.538574,4338.461426,4367.436035,4358.589844,4310.897461,4307.307617,4306.153809,4331.410156,4312.692383,4309.615234,4542.179688,4552.563965,4430.641113,4527.563965,4662.000000,1.000000,29.000000,,,,0.000000,4.000000,4.000000,4.000000,4.000000,4.000000,4.000000,4.000000,4.000000,4.000000,4.000000,4.000000,4.000000,4.000000,4.000000,100.000000,,,,,,,,,,,,,,,,,,,,,,,,,,,,,,,,,,,,,,,,,,,,,,,,,,,,,,,,,,,,,,,,,,,,,,,,,,,,,,,,,,,,,,,,,,,,,,,,,,,,,,,,,,,,,,,,,,,,,
1768374108.865563,1768374108.866653,124.000000,0.000000,4359.102539,4332.436035,4366.410156,4356.794922,4312.948730,4309.358887,4307.692383,4329.487305,4309.615234,4298.974121,4539.615234,4553.717773,4415.769043,4522.820313,4978.000000,1.000000,29.000000,,,,0.000000,4.000000,4.000000,4.000000,4.000000,4.000000,4.000000,4.000000,4.000000,4.000000,4.000000,4.000000,4.000000,4.000000,4.000000,100.000000,,,,,,,,,,,,,,,,,,,,,,,,,,,,,,,,,,,,,,,,,,,,,,,,,,,,,,,,,,,,,,,,,,,,,,,,,,,,,,,,,,,,,,,,,,,,,,,,,,,,,,,,,,,,,,,,,,,,,
1768374108.873372,1768374108.874462,125.000000,0.000000,4348.974121,4328.461426,4365.384766,4352.820313,4311.666504,4307.307617,4306.922852,4322.948730,4306.538574,4299.615234,4538.333496,4549.230957,4409.230957,4520.769043,5328.000000,1.000000,29.000000,,,,0.000000,4.000000,4.000000,4.000000,4.000000,4.000000,4.000000,4.000000,4.000000,4.000000,4.000000,4.000000,4.000000,4.000000,4.000000,100.000000,,,,,,,,,,,,,,,,,,,,,,,,,,,,,,,,,,,,,,,,,,,,,,,,,,,,,,,,,,,,,,,,,,,,,,,,,,,,,,,,,,,,,,,,,,,,,,,,,,,,,,,,,,,,,,,,,,,,,
1768374108.881180,1768374108.882370,126.000000,0.000000,4353.461426,4335.256348,4364.230957,4356.538574,4312.820313,4305.769043,4307.948730,4326.794922,4311.410156,4308.077148,4541.410156,4551.922852,4421.153809,4523.717773,4387.000000,1.000000,29.000000,,,,0.000000,4.000000,4.000000,4.000000,4.000000,4.000000,4.000000,4.000000,4.000000,4.000000,4.000000,4.000000,4.000000,4.000000,4.000000,100.000000,,,,,,,,,,,,,,,,,,,,,,,,,,,,,,,,,,,,,,,,,,,,,,,,1.462586,0.154941,0.173197,0.240709,0.156567,0.381677,0.195666,0.127920,0.140503,0.114968,0.544476,0.215319,0.248629,0.118458,0.122782,0.402886,0.110456,0.148156,0.120273,0.107073,0.209220,0.153034,0.051966,0.046593,0.065650,0.179372,0.152517,0.186145,0.096478,0.069745,0.381877,0.330511,0.169907,0.086402,0.081038,0.349726,0.349206,0.131992,0.168016,0.050331,0.254179,0.523831,0.270444,0.223631,0.127867,0.238402,0.376847,0.330968,0.259926,0.164969,0.812425,0.251214,0.511557,0.282620,0.253140,0.603069,0.556281,0.482471,0.303714,0.277585,1.026167,0.460943,0.323211,0.181210,0.266561,1.731785,0.291845,0.414439,0.189118,0.165746
1768374108.888989,1768374108.890178,127.000000,0.000000,4360.384766,4338.974121,4364.358887,4360.256348,4322.307617,4311.153809,4313.589844,4337.563965,4313.461426,4307.820313,4542.820313,4561.282227,4431.282227,4526.282227,29.000000,1.000000,29.000000,,,,0.000000,4.000000,4.000000,4.000000,4.000000,4.000000,4.000000,4.000000,4.000000,4.000000,4.000000,4.000000,4.000000,4.000000,4.000000,100.000000,,,,,,,,,,,,,,,,,,,,,,,,,,,,,,,,,,,,,,,,,,,,,,,,,,,,,,,,,,,,,,,,,,,,,,,,,,,,,,,,,,,,,,,,,,,,,,,,,,,,,,,,,,,,,,,,,,,,,
1768374108.896797,1768374108.898187,0.000000,0.000000,4353.717773,4332.948730,4363.717773,4356.410156,4323.077148,4312.436035,4311.666504,4336.538574,4310.512695,4305.512695,4541.538574,4558.717773,4427.179688,4522.820313,4061.000000,1.000000,29.000000,,,,0.000000,4.000000,4.000000,4.000000,4.000000,4.000000,4.000000,4.000000,4.000000,4.000000,4.000000,4.000000,4.000000,4.000000,4.000000,100.000000,,,,,,,,,,,,,,,,,,,,,,,,,,,,,,,,,,,,,,,,,,,,,,,,,,,,,,,,,,,,,,,,,,,,,,,,,,,,,,,,,,,,,,,,,,,,,,,,,,,,,,,,,,,,,,,,,,,,,
1768374108.904606,1768374108.905995,1.000000,0.000000,4346.025879,4328.846191,4359.487305,4347.179688,4315.641113,4306.410156,4301.794922,4328.461426,4308.974121,4305.512695,4538.589844,4545.897461,4414.487305,4522.051270,3989.000000,1.000000,29.000000,,,,0.000000,4.000000,4.000000,4.000000,4.000000,4.000000,4.000000,4.000000,4.000000,4.000000,4.000000,4.000000,4.000000,4.000000,4.000000,100.000000,,,,,,,,,,,,,,,,,,,,,,,,,,,,,,,,,,,,,,,,,,,,,,,,,,,,,,,,,,,,,,,,,,,,,,,,,,,,,,,,,,,,,,,,,,,,,,,,,,,,,,,,,,,,,,,,,,,,,
1768374108.912414,1768374108.913704,2.000000,0.000000,4345.128418,4324.358887,4354.615234,4340.512695,4312.820313,4305.256348,4303.333496,4329.358887,4310.512695,4308.846191,4539.102539,4542.563965,4412.307617,4525.769043,3879.000000,1.000000,29.000000,,,,0.000000,4.000000,4.000000,4.000000,4.000000,4.000000,4.000000,4.000000,4.000000,4.000000,4.000000,4.000000,4.000000,4.000000,4.000000,100.000000,,,,,,,,,,,,,,,,,,,,,,,,,,,,,,,,,,,,,,,,,,,,,,,,,,,,,,,,,,,,,,,,,,,,,,,,,,,,,,,,,,,,,,,,,,,,,,,,,,,,,,,,,,,,,,,,,,,,,
1768374108.920222,1768374108.921512,3.000000,0.000000,4342.436035,4317.436035,4353.846191,4342.948730,4314.230957,4309.615234,4312.436035,4336.794922,4314.230957,4313.333496,4541.153809,4548.461426,4415.512695,4520.128418,3884.000000,1.000000,29.000000,,,,0.000000,4.000000,4.000000,4.000000,4.000000,4.000000,4.000000,4.000000,4.000000,4.000000,4.000000,4.000000,4.000000,4.000000,4.000000,100.000000,,,,,,,,,,,,,,,,,,,,,,,,,,,,,,,,,,,,,,,,,,,,,,,,,,,,,,,,,,,,,,,,,,,,,,,,,,,,,,,,,,,,,,,,,,,,,,,,,,,,,,,,,,,,,,,,,,,,,
1768374108.928031,1768374108.929121,4.000000,0.000000,4338.205078,4315.000000,4350.641113,4342.307617,4315.256348,4311.538574,4312.051270,4336.025879,4312.179688,4306.410156,4531.025879,4542.948730,4406.794922,4508.333496,3817.000000,1.000000,29.000000,,,,0.000000,4.000000,4.000000,4.000000,4.000000,4.000000,4.000000,4.000000,4.000000,4.000000,4.000000,4.000000,4.000000,4.000000,4.000000,100.000000,,,,,,,,,,,,,,,,,,,,,,,,,,,,,,,,,,,,,,,,,,,,,,,,,,,,,,,,,,,,,,,,,,,,,,,,,,,,,,,,,,,,,,,,,,,,,,,,,,,,,,,,,,,,,,,,,,,,,
1768374108.935839,1768374108.936929,5.000000,0.000000,4338.461426,4317.820313,4347.307617,4339.358887,4315.128418,4311.794922,4310.897461,4331.025879,4308.205078,4300.769043,4520.897461,4529.487305,4401.922852,4504.615234,3755.000000,1.000000,29.000000,,,,0.000000,4.000000,4.000000,4.000000,4.000000,4.000000,4.000000,4.000000,4.000000,4.000000,4.000000,4.000000,4.000000,4.000000,4.000000,100.000000,,,,,,,,,,,,,,,,,,,,,,,,,,,,,,,,,,,,,,,,,,,,,,,,,,,,,,,,,,,,,,,,,,,,,,,,,,,,,,,,,,,,,,,,,,,,,,,,,,,,,,,,,,,,,,,,,,,,,
1768374108.943648,1768374108.944838,6.000000,0.000000,4342.563965,4324.743652,4353.333496,4347.051270,4317.820313,4313.589844,4314.230957,4331.794922,4311.025879,4310.897461,4531.794922,4534.358887,4416.666504,4510.128418,3772.000000,1.000000,29.000000,,,,0.000000,4.000000,4.000000,4.000000,4.000000,4.000000,4.000000,4.000000,4.000000,4.000000,4.000000,4.000000,4.000000,4.000000,4.000000,100.000000,,,,,,,,,,,,,,,,,,,,,,,,,,,,,,,,,,,,,,,,,,,,,,,,,,,,,,,,,,,,,,,,,,,,,,,,,,,,,,,,,,,,,,,,,,,,,,,,,,,,,,,,,,,,,,,,,,,,,
1768374108.951456,1768374108.952646,7.000000,0.000000,4345.256348,4325.641113,4360.256348,4353.077148,4319.871582,4315.128418,4313.589844,4333.974121,4312.692383,4313.717773,4539.487305,4546.922852,4422.948730,4508.205078,3533.000000,1.000000,29.000000,,,,0.000000,4.000000,4.000000,4.000000,4.000000,4.000000,4.000000,4.000000,4.000000,4.000000,4.000000,4.000000,4.000000,4.000000,4.000000,100.000000,,,,,,,,,,,,,,,,,,,,,,,,,,,,,,,,,,,,,,,,,,,,,,,,,,,,,,,,,,,,,,,,,,,,,,,,,,,,,,,,,,,,,,,,,,,,,,,,,,,,,,,,,,,,,,,,,,,,,
1768374108.959265,1768374108.960654,8.000000,0.000000,4337.563965,4316.794922,4358.333496,4346.538574,4317.436035,4313.077148,4310.128418,4327.179688,4305.256348,4298.974121,4523.974121,4538.205078,4403.974121,4494.743652,3964.000000,1.000000,29.000000,,,,0.000000,4.000000,4.000000,4.000000,4.000000,4.000000,4.000000,4.000000,4.000000,4.000000,4.000000,4.000000,4.000000,4.000000,4.000000,100.000000,,,,,,,,,,,,,,,,,,,,,,,,,,,,,,,,,,,,,,,,,,,,,,,,,,,,,,,,,,,,,,,,,,,,,,,,,,,,,,,,,,,,,,,,,,,,,,,,,,,,,,,,,,,,,,,,,,,,,
1768374108.967073,1768374108.968463,9.000000,0.000000,4327.307617,4315.512695,4356.410156,4342.563965,4314.743652,4309.743652,4308.589844,4322.051270,4302.179688,4291.666504,4515.000000,4523.974121,4394.102539,4487.436035,3956.000000,1.000000,29.000000,,,,0.000000,4.000000,4.000000,4.000000,4.000000,4.000000,4.000000,4.000000,4.000000,4.000000,4.000000,4.000000,4.000000,4.000000,4.000000,100.000000,,,,,,,,,,,,,,,,,,,,,,,,,,,,,,,,,,,,,,,,,,,,,,,,,,,,,,,,,,,,,,,,,,,,,,,,,,,,,,,,,,,,,,,,,,,,,,,,,,,,,,,,,,,,,,,,,,,,,
1768374108.974882,1768374108.976371,10.000000,0.000000,4326.922852,4321.025879,4358.589844,4346.794922,4315.641113,4310.897461,4309.358887,4330.641113,4309.358887,4302.436035,4522.948730,4535.000000,4408.333496,4493.077148,4388.000000,1.000000,29.000000,,,,0.000000,4.000000,4.000000,4.000000,4.000000,4.000000,4.000000,4.000000,4.000000,4.000000,4.000000,4.000000,4.000000,4.000000,4.000000,100.000000,,,,,,,,,,,,,,,,,,,,,,,,,,,,,,,,,,,,,,,,,,,,,,,,,,,,,,,,,,,,,,,,,,,,,,,,,,,,,,,,,,,,,,,,,,,,,,,,,,,,,,,,,,,,,,,,,,,,,
1768374108.982690,1768374108.984180,11.000000,0.000000,4330.384766,4318.846191,4360.000000,4350.128418,4317.051270,4312.436035,4310.128418,4333.333496,4312.563965,4310.128418,4528.717773,4546.282227,4419.871582,4495.128418,4662.000000,1.000000,29.000000,,,,0.000000,4.000000,4.000000,4.000000,4.000000,4.000000,4.000000,4.000000,4.000000,4.000000,4.000000,4.000000,4.000000,4.000000,4.000000,100.000000,,,,,,,,,,,,,,,,,,,,,,,,,,,,,,,,,,,,,,,,,,,,,,,,,,,,,,,,,,,,,,,,,,,,,,,,,,,,,,,,,,,,,,,,,,,,,,,,,,,,,,,,,,,,,,,,,,,,,
1768374108.990498,1768374108.991788,12.000000,0.000000,4329.102539,4314.743652,4358.205078,4347.948730,4316.794922,4310.769043,4306.794922,4323.333496,4308.974121,4308.461426,4532.563965,4535.512695,4412.307617,4488.333496,4979.000000,1.000000,29.000000,,,,0.000000,4.000000,4.000000,4.000000,4.000000,4.000000,4.000000,4.000000,4.000000,4.000000,4.000000,4.000000,4.000000,4.000000,4.000000,100.000000,,,,,,,,,,,,,,,,,,,,,,,,,,,,,,,,,,,,,,,,,,,,,,,,,,,,,,,,,,,,,,,,,,,,,,,,,,,,,,,,,,,,,,,,,,,,,,,,,,,,,,,,,,,,,,,,,,,,,
1768374108.998307,1768374108.999597,13.000000,0.000000,4322.436035,4317.820313,4355.769043,4344.487305,4316.410156,4308.974121,4303.717773,4319.871582,4307.692383,4306.538574,4537.563965,4531.794922,4408.846191,4489.487305,5330.000000,1.000000,29.000000,,,,0.000000,4.000000,4.000000,4.000000,4.000000,4.000000,4.000000,4.000000,4.000000,4.000000,4.000000,4.000000,4.000000,4.000000,4.000000,100.000000,,,,,,,,,,,,,,,,,,,,,,,,,,,,,,,,,,,,,,,,,,,,,,,,,,,,,,,,,,,,,,,,,,,,,,,,,,,,,,,,,,,,,,,,,,,,,,,,,,,,,,,,,,,,,,,,,,,,,
1768374109.006115,1768374109.007305,14.000000,0.000000,4314.615234,4317.307617,4354.230957,4342.436035,4317.179688,4313.461426,4308.205078,4326.794922,4310.897461,4309.358887,4541.025879,4544.871582,4422.820313,4492.307617,4388.000000,1.000000,29.000000,,,,0.000000,4.000000,4.000000,4.000000,4.000000,4.000000,4.000000,4.000000,4.000000,4.000000,4.000000,4.000000,4.000000,4.000000,4.000000,100.000000,1.000000,25.000000,4.000000,4.000000,4.000000,4.000000,1.000000,1.000000,4.000000,1.000000,4.000000,4.000000,4.000000,4.000000,4.000000,4.000000,,,,,,,,,,,,,,,,,,,,,,,,,,,,,,,,1.603741,0.148884,0.187302,0.259942,0.167179,0.470213,0.245622,0.150069,0.151922,0.117911,0.617235,0.249312,0.320002,0.137313,0.113560,0.522407,0.149615,0.188393,0.123459,0.111185,0.205785,0.175712,0.061584,0.054715,0.071926,0.163058,0.150525,0.185003,0.106129,0.069345,0.372513,0.344715,0.175458,0.094458,0.079285,0.405801,0.350927,0.143031,0.163543,0.054254,0.277410,0.525080,0.269558,0.199635,0.128268,0.262204,0.407750,0.372756,0.243600,0.153413,0.850007,0.221112,0.556644,0.253148,0.252454,0.665606,0.494340,0.569067,0.293664,0.258844,1.018888,0.413465,0.381245,0.161063,0.253034,1.902193,0.290845,0.536473,0.169067,0.164551
1768374109.013924,1768374109.015114,15.000000,0.000000,4309.358887,4313.077148,4351.025879,4342.820313,4317.179688,4319.230957,4312.692383,4330.641113,4312.051270,4308.461426,4538.717773,4545.000000,4423.717773,4479.871582,4662.000000,1.000000,29.000000,,,,0.000000,4.000000,4.000000,4.000000,4.000000,4.000000,4.000000,4.000000,4.000000,4.000000,4.000000,4.000000,4.000000,4.000000,4.000000,100.000000,,,,,,,,,,,,,,,,,,,,,,,,,,,,,,,,,,,,,,,,,,,,,,,,,,,,,,,,,,,,,,,,,,,,,,,,,,,,,,,,,,,,,,,,,,,,,,,,,,,,,,,,,,,,,,,,,,,,,
1768374109.021732,1768374109.022722,16.000000,0.000000,4306.410156,4313.205078,4345.384766,4342.179688,4315.897461,4315.512695,4312.948730,4327.563965,4308.974121,4296.922852,4526.666504,4531.538574,4406.538574,4463.717773,0.000000,1.000000,29.000000,,,,0.000000,4.000000,4.000000,4.000000,4.000000,4.000000,4.000000,4.000000,4.000000,4.000000,4.000000,4.000000,4.000000,4.000000,4.000000,100.000000,,,,,,,,,,,,,,,,,,,,,,,,,,,,,,,,,,,,,,,,,,,,,,,,,,,,,,,,,,,,,,,,,,,,,,,,,,,,,,,,,,,,,,,,,,,,,,,,,,,,,,,,,,,,,,,,,,,,,
1768374109.029541,1768374109.030531,17.000000,0.000000,4301.410156,4313.717773,4342.692383,4340.384766,4315.641113,4309.487305,4311.282227,4323.717773,4307.948730,4292.436035,4519.615234,4526.410156,4401.282227,4457.563965,0.000000,1.000000,29.000000,,,,0.000000,4.000000,4.000000,4.000000,4.000000,4.000000,4.000000,4.000000,4.000000,4.000000,4.000000,4.000000,4.000000,4.000000,4.000000,100.000000,,,,,,,,,,,,,,,,,,,,,,,,,,,,,,,,,,,,,,,,,,,,,,,,,,,,,,,,,,,,,,,,,,,,,,,,,,,,,,,,,,,,,,,,,,,,,,,,,,,,,,,,,,,,,,,,,,,,,
1768374109.037349,1768374109.038239,18.000000,0.000000,4296.410156,4312.948730,4343.077148,4341.538574,4316.794922,4311.410156,4307.820313,4325.769043,4310.512695,4303.717773,4530.769043,4531.025879,4414.230957,4459.230957,0.000000,1.000000,29.000000,,,,0.000000,4.000000,4.000000,4.000000,4.000000,4.000000,4.000000,4.000000,4.000000,4.000000,4.000000,4.000000,4.000000,4.000000,4.000000,100.000000,,,,,,,,,,,,,,,,,,,,,,,,,,,,,,,,,,,,,,,,,,,,,,,,,,,,,,,,,,,,,,,,,,,,,,,,,,,,,,,,,,,,,,,,,,,,,,,,,,,,,,,,,,,,,,,,,,,,,
1768374109.045158,1768374109.046048,19.000000,0.000000,4294.487305,4311.922852,4342.179688,4342.948730,4316.794922,4311.794922,4308.717773,4332.436035,4316.025879,4312.307617,4535.897461,4535.256348,4419.230957,4460.641113,0.000000,1.000000,29.000000,,,,0.000000,4.000000,4.000000,4.000000,4.000000,4.000000,4.000000,4.000000,4.000000,4.000000,4.000000,4.000000,4.000000,4.000000,4.000000,100.000000,,,,,,,,,,,,,,,,,,,,,,,,,,,,,,,,,,,,,,,,,,,,,,,,,,,,,,,,,,,,,,,,,,,,,,,,,,,,,,,,,,,,,,,,,,,,,,,,,,,,,,,,,,,,,,,,,,,,,
1768374109.052966,1768374109.053656,20.000000,0.000000,4294.102539,4310.384766,4342.307617,4342.051270,4315.641113,4308.205078,4308.205078,4330.384766,4320.256348,4309.743652,4525.641113,4531.153809,4405.384766,4456.153809,0.000000,1.000000,29.000000,,,,0.000000,4.000000,4.000000,4.000000,4.000000,4.000000,4.000000,4.000000,4.000000,4.000000,4.000000,4.000000,4.000000,4.000000,4.000000,100.000000,,,,,,,,,,,,,,,,,,,,,,,,,,,,,,,,,,,,,,,,,,,,,,,,,,,,,,,,,,,,,,,,,,,,,,,,,,,,,,,,,,,,,,,,,,,,,,,,,,,,,,,,,,,,,,,,,,,,,
1768374109.060774,1768374109.061465,21.000000,0.000000,4293.717773,4311.794922,4342.436035,4341.666504,4314.615234,4306.794922,4300.897461,4324.230957,4315.512695,4308.589844,4521.922852,4523.589844,4399.102539,4447.820313,0.000000,1.000000,29.000000,,,,0.000000,4.000000,4.000000,4.000000,4.000000,4.000000,4.000000,4.000000,4.000000,4.000000,4.000000,4.000000,4.000000,4.000000,4.000000,100.000000,,,,,,,,,,,,,,,,,,,,,,,,,,,,,,,,,,,,,,,,,,,,,,,,,,,,,,,,,,,,,,,,,,,,,,,,,,,,,,,,,,,,,,,,,,,,,,,,,,,,,,,,,,,,,,,,,,,,,
1768374109.068583,1768374109.069173,22.000000,0.000000,4292.307617,4314.358887,4341.025879,4345.769043,4315.769043,4308.333496,4300.769043,4324.743652,4309.230957,4309.358887,4526.025879,4525.256348,4409.615234,4444.487305,0.000000,1.000000,29.000000,,,,0.000000,4.000000,4.000000,4.000000,4.000000,4.000000,4.000000,4.000000,4.000000,4.000000,4.000000,4.000000,4.000000,4.000000,4.000000,100.000000,,,,,,,,,,,,,,,,,,,,,,,,,,,,,,,,,,,,,,,,,,,,,,,,,,,,,,,,,,,,,,,,,,,,,,,,,,,,,,,,,,,,,,,,,,,,,,,,,,,,,,,,,,,,,,,,,,,,,
1768374109.076391,1768374109.076982,23.000000,0.000000,4291.666504,4314.871582,4345.384766,4348.461426,4317.563965,4311.025879,4310.256348,4326.025879,4310.000000,4302.692383,4524.871582,4528.205078,4411.666504,4446.666504,0.000000,1.000000,29.000000,,,,0.000000,4.000000,4.000000,4.000000,4.000000,4.000000,4.000000,4.000000,4.000000,4.000000,4.000000,4.000000,4.000000,4.000000,4.000000,100.000000,,,,,,,,,,,,,,,,,,,,,,,,,,,,,,,,,,,,,,,,,,,,,,,,,,,,,,,,,,,,,,,,,,,,,,,,,,,,,,,,,,,,,,,,,,,,,,,,,,,,,,,,,,,,,,,,,,,,,
1768374109.084200,1768374109.084990,24.000000,0.000000,4293.589844,4313.461426,4347.820313,4347.563965,4317.948730,4313.205078,4314.358887,4324.487305,4309.358887,4296.794922,4521.538574,4523.717773,4398.333496,4443.461426,0.000000,1.000000,29.000000,,,,0.000000,4.000000,4.000000,4.000000,4.000000,4.000000,4.000000,4.000000,4.000000,4.000000,4.000000,4.000000,4.000000,4.000000,4.000000,100.000000,,,,,,,,,,,,,,,,,,,,,,,,,,,,,,,,,,,,,,,,,,,,,,,,,,,,,,,,,,,,,,,,,,,,,,,,,,,,,,,,,,,,,,,,,,,,,,,,,,,,,,,,,,,,,,,,,,,,,
1768374109.092008,1768374109.092799,25.000000,0.000000,4291.025879,4314.358887,4343.589844,4347.051270,4318.077148,4312.563965,4310.512695,4323.717773,4306.153809,4296.025879,4522.307617,4522.051270,4393.717773,4438.846191,0.000000,1.000000,29.000000,,,,0.000000,4.000000,4.000000,4.000000,4.000000,4.000000,4.000000,4.000000,4.000000,4.000000,4.000000,4.000000,4.000000,4.000000,4.000000,100.000000,,,,,,,,,,,,,,,,,,,,,,,,,,,,,,,,,,,,,,,,,,,,,,,,,,,,,,,,,,,,,,,,,,,,,,,,,,,,,,,,,,,,,,,,,,,,,,,,,,,,,,,,,,,,,,,,,,,,,
1768374109.099817,1768374109.100707,26.000000,0.000000,4284.102539,4312.820313,4339.871582,4344.358887,4316.153809,4309.615234,4306.538574,4323.717773,4308.589844,4298.589844,4518.717773,4525.128418,4394.487305,4439.743652,0.000000,1.000000,29.000000,,,,0.000000,4.000000,4.000000,4.000000,4.000000,4.000000,4.000000,4.000000,4.000000,4.000000,4.000000,4.000000,4.000000,4.000000,4.000000,100.000000,,,,,,,,,,,,,,,,,,,,,,,,,,,,,,,,,,,,,,,,,,,,,,,,,,,,,,,,,,,,,,,,,,,,,,,,,,,,,,,,,,,,,,,,,,,,,,,,,,,,,,,,,,,,,,,,,,,,,
1768374109.107625,1768374109.108515,27.000000,0.000000,4284.102539,4308.205078,4339.487305,4338.974121,4312.948730,4311.410156,4307.051270,4325.641113,4313.205078,4301.153809,4514.871582,4523.717773,4387.436035,4440.000000,0.000000,1.000000,29.000000,,,,0.000000,4.000000,4.000000,4.000000,4.000000,4.000000,4.000000,4.000000,4.000000,4.000000,4.000000,4.000000,4.000000,4.000000,4.000000,100.000000,,,,,,,,,,,,,,,,,,,,,,,,,,,,,,,,,,,,,,,,,,,,,,,,,,,,,,,,,,,,,,,,,,,,,,,,,,,,,,,,,,,,,,,,,,,,,,,,,,,,,,,,,,,,,,,,,,,,,
1768374109.115434,1768374109.116124,28.000000,0.000000,4295.769043,4309.487305,4344.871582,4339.102539,4315.000000,4309.102539,4307.179688,4331.666504,4319.230957,4307.948730,4526.025879,4532.692383,4396.153809,4447.179688,0.000000,1.000000,29.000000,,,,0.000000,4.000000,4.000000,4.000000,4.000000,4.000000,4.000000,4.000000,4.000000,4.000000,4.000000,4.000000,4.000000,4.000000,4.000000,100.000000,,,,,,,,,,,,,,,,,,,,,,,,,,,,,,,,,,,,,,,,,,,,,,,,,,,,,,,,,,,,,,,,,,,,,,,,,,,,,,,,,,,,,,,,,,,,,,,,,,,,,,,,,,,,,,,,,,,,,
1768374109.123242,1768374109.123932,29.000000,0.000000,4305.256348,4316.282227,4350.256348,4346.794922,4315.128418,4301.538574,4301.282227,4335.641113,4327.820313,4321.282227,4542.948730,4549.358887,4417.307617,4460.512695,0.000000,1.000000,29.000000,,,,0.000000,4.000000,4.000000,4.000000,4.000000,4.000000,4.000000,4.000000,4.000000,4.000000,4.000000,4.000000,4.000000,4.000000,4.000000,100.000000,,,,,,,,,,,,,,,,,,,,,,,,,,,,,,,,,,,,,,,,,,,,,,,,,,,,,,,,,,,,,,,,,,,,,,,,,,,,,,,,,,,,,,,,,,,,,,,,,,,,,,,,,,,,,,,,,,,,,
1768374109.131050,1768374109.131641,30.000000,0.000000,4301.153809,4317.307617,4347.436035,4349.487305,4310.641113,4301.538574,4298.333496,4331.153809,4325.128418,4319.871582,4539.615234,4543.846191,4418.205078,4458.461426,0.000000,1.000000,29.000000,,,,0.000000,4.000000,4.000000,4.000000,4.000000,4.000000,4.000000,4.000000,4.000000,4.000000,4.000000,4.000000,4.000000,4.000000,4.000000,100.000000,,,,,,,,,,,,,,,,,,,,,,,,,,,,,,,,,,,,,,,,,,,,,,,,1.628803,0.177656,0.198567,0.269894,0.174696,0.587743,0.336763,0.172134,0.160115,0.117790,0.729035,0.343354,0.382298,0.164294,0.101878,0.667008,0.220268,0.229573,0.125301,0.113963,0.210106,0.199031,0.076866,0.063825,0.073276,0.140178,0.163198,0.166948,0.111694,0.068695,0.369606,0.349677,0.161431,0.102373,0.076485,0.431343,0.326604,0.148457,0.152264,0.060854,0.278825,0.479049,0.251432,0.165221,0.127724,0.278803,0.415700,0.376505,0.210069,0.148193,0.839995,0.206260,0.545308,0.213107,0.242340,0.737511,0.426501,0.606814,0.265453,0.240837,0.958740,0.385970,0.415603,0.138858,0.232761,1.968990,0.321620,0.643349,0.154134,0.164963
1768374109.138859,1768374109.139449,31.000000,0.000000,4293.333496,4310.769043,4341.282227,4343.846191,4309.358887,4308.333496,4305.384766,4326.538574,4312.948730,4303.717773,4523.846191,4528.589844,4403.205078,4444.615234,0.000000,1.000000,29.000000,,,,0.000000,4.000000,4.000000,4.000000,4.000000,4.000000,4.000000,4.000000,4.000000,4.000000,4.000000,4.000000,4.000000,4.000000,4.000000,100.000000,,,,,,,,,,,,,,,,,,,,,,,,,,,,,,,,,,,,,,,,,,,,,,,,,,,,,,,,,,,,,,,,,,,,,,,,,,,,,,,,,,,,,,,,,,,,,,,,,,,,,,,,,,,,,,,,,,,,,
1768374109.146667,1768374109.147458,32.000000,0.000000,4294.615234,4306.538574,4340.000000,4339.358887,4311.922852,4311.538574,4312.307617,4327.948730,4309.871582,4302.179688,4521.153809,4530.384766,4400.256348,4443.333496,0.000000,1.000000,29.000000,,,,0.000000,4.000000,4.000000,4.000000,4.000000,4.000000,4.000000,4.000000,4.000000,4.000000,4.000000,4.000000,4.000000,4.000000,4.000000,100.000000,,,,,,,,,,,,,,,,,,,,,,,,,,,,,,,,,,,,,,,,,,,,,,,,,,,,,,,,,,,,,,,,,,,,,,,,,,,,,,,,,,,,,,,,,,,,,,,,,,,,,,,,,,,,,,,,,,,,,
1768374109.154476,1768374109.155266,33.000000,0.000000,4298.077148,4309.358887,4342.692383,4341.410156,4314.230957,4310.769043,4312.307617,4328.461426,4313.461426,4307.820313,4526.282227,4535.384766,4405.769043,4450.128418,0.000000,1.000000,29.000000,,,,0.000000,4.000000,4.000000,4.000000,4.000000,4.000000,4.000000,4.000000,4.000000,4.000000,4.000000,4.000000,4.000000,4.000000,4.000000,100.000000,,,,,,,,,,,,,,,,,,,,,,,,,,,,,,,,,,,,,,,,,,,,,,,,,,,,,,,,,,,,,,,,,,,,,,,,,,,,,,,,,,,,,,,,,,,,,,,,,,,,,,,,,,,,,,,,,,,,,
1768374109.162284,1768374109.163174,34.000000,0.000000,4295.512695,4312.179688,4344.871582,4343.077148,4314.230957,4310.641113,4308.846191,4326.410156,4311.410156,4300.769043,4524.230957,4531.153809,4399.615234,4446.666504,0.000000,1.000000,29.000000,,,,0.000000,4.000000,4.000000,4.000000,4.000000,4.000000,4.000000,4.000000,4.000000,4.000000,4.000000,4.000000,4.000000,4.000000,4.000000,100.000000,,,,,,,,,,,,,,,,,,,,,,,,,,,,,,,,,,,,,,,,,,,,,,,,,,,,,,,,,,,,,,,,,,,,,,,,,,,,,,,,,,,,,,,,,,,,,,,,,,,,,,,,,,,,,,,,,,,,,
1768374109.170093,1768374109.170983,35.000000,0.000000,4292.563965,4308.974121,4344.230957,4342.307617,4312.563965,4309.487305,4307.692383,4328.846191,4313.589844,4299.871582,4521.538574,4529.487305,4393.717773,4442.563965,0.000000,1.000000,29.000000,,,,0.000000,4.000000,4.000000,4.000000,4.000000,4.000000,4.000000,4.000000,4.000000,4.000000,4.000000,4.000000,4.000000,4.000000,4.000000,100.000000,,,,,,,,,,,,,,,,,,,,,,,,,,,,,,,,,,,,,,,,,,,,,,,,,,,,,,,,,,,,,,,,,,,,,,,,,,,,,,,,,,,,,,,,,,,,,,,,,,,,,,,,,,,,,,,,,,,,,
1768374109.177901,1768374109.178991,36.000000,0.000000,4293.461426,4303.077148,4342.179688,4341.666504,4311.794922,4309.487305,4310.256348,4337.692383,4321.153809,4309.487305,4525.384766,4533.589844,4399.615234,4445.256348,0.000000,1.000000,29.000000,,,,0.000000,4.000000,4.000000,4.000000,4.000000,4.000000,4.000000,4.000000,4.000000,4.000000,4.000000,4.000000,4.000000,4.000000,4.000000,100.000000,,,,,,,,,,,,,,,,,,,,,,,,,,,,,,,,,,,,,,,,,,,,,,,,,,,,,,,,,,,,,,,,,,,,,,,,,,,,,,,,,,,,,,,,,,,,,,,,,,,,,,,,,,,,,,,,,,,,,
1768374109.185710,1768374109.186800,37.000000,0.000000,4294.615234,4302.948730,4342.692383,4340.000000,4314.615234,4314.230957,4312.307617,4338.077148,4317.948730,4303.717773,4521.410156,4533.717773,4396.282227,4444.743652,0.000000,1.000000,29.000000,,,,0.000000,4.000000,4.000000,4.000000,4.000000,4.000000,4.000000,4.000000,4.000000,4.000000,4.000000,4.000000,4.000000,4.000000,4.000000,100.000000,,,,,,,,,,,,,,,,,,,,,,,,,,,,,,,,,,,,,,,,,,,,,,,,,,,,,,,,,,,,,,,,,,,,,,,,,,,,,,,,,,,,,,,,,,,,,,,,,,,,,,,,,,,,,,,,,,,,,
1768374109.193518,1768374109.194508,38.000000,0.000000,4295.000000,4306.922852,4342.820313,4339.743652,4315.512695,4317.820313,4310.897461,4328.077148,4307.948730,4291.153809,4509.102539,4527.948730,4384.358887,4439.487305,0.000000,1.000000,29.000000,,,,0.000000,4.000000,4.000000,4.000000,4.000000,4.000000,4.000000,4.000000,4.000000,4.000000,4.000000,4.000000,4.000000,4.000000,4.000000,100.000000,,,,,,,,,,,,,,,,,,,,,,,,,,,,,,,,,,,,,,,,,,,,,,,,,,,,,,,,,,,,,,,,,,,,,,,,,,,,,,,,,,,,,,,,,,,,,,,,,,,,,,,,,,,,,,,,,,,,,
1768374109.201326,1768374109.202317,39.000000,0.000000,4293.205078,4308.461426,4341.153809,4341.153809,4314.102539,4313.077148,4309.230957,4326.666504,4310.128418,4295.641113,4507.820313,4526.282227,4386.922852,4440.128418,0.000000,1.000000,29.000000,,,,0.000000,4.000000,4.000000,4.000000,4.000000,4.000000,4.000000,4.000000,4.000000,4.000000,4.000000,4.000000,4.000000,4.000000,4.000000,100.000000,,,,,,,,,,,,,,,,,,,,,,,,,,,,,,,,,,,,,,,,,,,,,,,,,,,,,,,,,,,,,,,,,,,,,,,,,,,,,,,,,,,,,,,,,,,,,,,,,,,,,,,,,,,,,,,,,,,,,
1768374109.209135,1768374109.209925,40.000000,0.000000,4293.333496,4308.717773,4340.128418,4342.820313,4315.641113,4307.948730,4307.563965,4337.179688,4320.641113,4304.615234,4513.717773,4529.743652,4391.666504,4443.077148,0.000000,1.000000,29.000000,,,,0.000000,4.000000,4.000000,4.000000,4.000000,4.000000,4.000000,4.000000,4.000000,4.000000,4.000000,4.000000,4.000000,4.000000,4.000000,100.000000,,,,,,,,,,,,,,,,,,,,,,,,,,,,,,,,,,,,,,,,,,,,,,,,,,,,,,,,,,,,,,,,,,,,,,,,,,,,,,,,,,,,,,,,,,,,,,,,,,,,,,,,,,,,,,,,,,,,,
1768374109.216943,1768374109.217734,41.000000,0.000000,4295.512695,4309.358887,4339.487305,4344.358887,4318.077148,4315.512695,4310.256348,4341.025879,4321.025879,4300.384766,4509.487305,4524.615234,4382.051270,4433.974121,0.000000,1.000000,29.000000,,,,0.000000,4.000000,4.000000,4.000000,4.000000,4.000000,4.000000,4.000000,4.000000,4.000000,4.000000,4.000000,4.000000,4.000000,4.000000,100.000000,,,,,,,,,,,,,,,,,,,,,,,,,,,,,,,,,,,,,,,,,,,,,,,,,,,,,,,,,,,,,,,,,,,,,,,,,,,,,,,,,,,,,,,,,,,,,,,,,,,,,,,,,,,,,,,,,,,,,
1768374109.224752,1768374109.225442,42.000000,0.000000,4297.179688,4310.256348,4342.436035,4344.487305,4318.717773,4323.717773,4316.794922,4332.307617,4312.692383,4292.179688,4503.974121,4516.025879,4377.179688,4427.692383,0.000000,1.000000,29.000000,,,,0.000000,4.000000,4.000000,4.000000,4.000000,4.000000,4.000000,4.000000,4.000000,4.000000,4.000000,4.000000,4.000000,4.000000,4.000000,100.000000,,,,,,,,,,,,,,,,,,,,,,,,,,,,,,,,,,,,,,,,,,,,,,,,,,,,,,,,,,,,,,,,,,,,,,,,,,,,,,,,,,,,,,,,,,,,,,,,,,,,,,,,,,,,,,,,,,,,,
1768374109.232560,1768374109.233251,43.000000,0.000000,4298.589844,4306.922852,4344.615234,4341.282227,4317.436035,4319.743652,4318.846191,4325.384766,4308.846191,4293.461426,4506.153809,4517.436035,4383.205078,4436.282227,0.000000,1.000000,29.000000,,,,0.000000,4.000000,4.000000,4.000000,4.000000,4.000000,4.000000,4.000000,4.000000,4.000000,4.000000,4.000000,4.000000,4.000000,4.000000,100.000000,,,,,,,,,,,,,,,,,,,,,,,,,,,,,,,,,,,,,,,,,,,,,,,,,,,,,,,,,,,,,,,,,,,,,,,,,,,,,,,,,,,,,,,,,,,,,,,,,,,,,,,,,,,,,,,,,,,,,
1768374109.240369,1768374109.240859,44.000000,0.000000,4301.922852,4301.410156,4340.128418,4341.025879,4315.384766,4317.307617,4315.384766,4328.589844,4311.922852,4294.102539,4507.436035,4518.205078,4382.051270,4442.436035,0.000000,1.000000,29.000000,,,,0.000000,4.000000,4.000000,4.000000,4.000000,4.000000,4.000000,4.000000,4.000000,4.000000,4.000000,4.000000,4.000000,4.000000,4.000000,100.000000,,,,,,,,,,,,,,,,,,,,,,,,,,,,,,,,,,,,,,,,,,,,,,,,,,,,,,,,,,,,,,,,,,,,,,,,,,,,,,,,,,,,,,,,,,,,,,,,,,,,,,,,,,,,,,,,,,,,,
1768374109.248177,1768374109.248668,45.000000,0.000000,4304.487305,4303.333496,4338.205078,4343.846191,4311.025879,4318.589844,4311.922852,4332.436035,4313.846191,4290.641113,4507.179688,4514.487305,4381.922852,4443.077148,0.000000,1.000000,29.000000,,,,0.000000,4.000000,4.000000,4.000000,4.000000,4.000000,4.000000,4.000000,4.000000,4.000000,4.000000,4.000000,4.000000,4.000000,4.000000,100.000000,,,,,,,,,,,,,,,,,,,,,,,,,,,,,,,,,,,,,,,,,,,,,,,,,,,,,,,,,,,,,,,,,,,,,,,,,,,,,,,,,,,,,,,,,,,,,,,,,,,,,,,,,,,,,,,,,,,,,
1768374109.255986,1768374109.256376,46.000000,0.000000,4302.563965,4309.743652,4341.922852,4341.410156,4309.487305,4314.230957,4310.384766,4331.025879,4311.410156,4292.692383,4507.948730,4516.282227,4389.102539,4442.563965,0.000000,1.000000,29.000000,,,,0.000000,4.000000,4.000000,4.000000,4.000000,4.000000,4.000000,4.000000,4.000000,4.000000,4.000000,4.000000,4.000000,4.000000,4.000000,100.000000,,,,,,,,,,,,,,,,,,,,,,,,,,,,,,,,,,,,,,,,,,,,,,,,1.560413,0.231930,0.200337,0.271082,0.179120,0.712408,0.443629,0.189751,0.161997,0.116795,0.878510,0.474432,0.418024,0.191925,0.089341,0.815588,0.308590,0.262534,0.123742,0.114770,0.219045,0.216695,0.096538,0.072265,0.069830,0.120094,0.192999,0.140416,0.111640,0.067405,0.374658,0.345280,0.135407,0.109456,0.073145,0.431578,0.285979,0.143990,0.140547,0.069140,0.260750,0.402869,0.220972,0.131181,0.125963,0.283006,0.393972,0.341752,0.174768,0.151323,0.787211,0.210831,0.482888,0.174826,0.228225,0.832112,0.370641,0.585409,0.226522,0.230216,0.862742,0.380747,0.418785,0.122991,0.213327,1.918956,0.374913,0.702727,0.148517,0.166961
1768374109.263794,1768374109.264185,47.000000,0.000000,4296.794922,4308.717773,4341.025879,4336.666504,4310.512695,4314.230957,4310.384766,4331.410156,4313.205078,4297.179688,4507.563965,4518.589844,4389.102539,4437.820313,0.000000,1.000000,29.000000,,,,0.000000,4.000000,4.000000,4.000000,4.000000,4.000000,4.000000,4.000000,4.000000,4.000000,4.000000,4.000000,4.000000,4.000000,4.000000,100.000000,,,,,,,,,,,,,,,,,,,,,,,,,,,,,,,,,,,,,,,,,,,,,,,,,,,,,,,,,,,,,,,,,,,,,,,,,,,,,,,,,,,,,,,,,,,,,,,,,,,,,,,,,,,,,,,,,,,,,
1768374109.271603,1768374109.272193,48.000000,0.000000,4293.077148,4306.538574,4336.794922,4334.230957,4308.846191,4316.282227,4310.512695,4334.615234,4318.077148,4299.615234,4508.717773,4515.897461,4385.512695,4437.051270,0.000000,1.000000,29.000000,,,,0.000000,4.000000,4.000000,4.000000,4.000000,4.000000,4.000000,4.000000,4.000000,4.000000,4.000000,4.000000,4.000000,4.000000,4.000000,100.000000,,,,,,,,,,,,,,,,,,,,,,,,,,,,,,,,,,,,,,,,,,,,,,,,,,,,,,,,,,,,,,,,,,,,,,,,,,,,,,,,,,,,,,,,,,,,,,,,,,,,,,,,,,,,,,,,,,,,,
1768374109.279411,1768374109.280001,49.000000,0.000000,4295.384766,4311.153809,4339.615234,4335.128418,4309.487305,4310.769043,4308.717773,4331.025879,4316.025879,4300.769043,4510.384766,4516.922852,4387.179688,4444.743652,0.000000,1.000000,29.000000,,,,0.000000,4.000000,4.000000,4.000000,4.000000,4.000000,4.000000,4.000000,4.000000,4.000000,4.000000,4.000000,4.000000,4.000000,4.000000,100.000000,,,,,,,,,,,,,,,,,,,,,,,,,,,,,,,,,,,,,,,,,,,,,,,,,,,,,,,,,,,,,,,,,,,,,,,,,,,,,,,,,,,,,,,,,,,,,,,,,,,,,,,,,,,,,,,,,,,,,
1768374109.287219,1768374109.287910,50.000000,0.000000,4296.410156,4314.230957,4343.205078,4338.205078,4316.282227,4313.717773,4309.102539,4322.820313,4308.461426,4296.794922,4509.487305,4520.000000,4389.358887,4446.153809,0.000000,1.000000,29.000000,,,,0.000000,4.000000,4.000000,4.000000,4.000000,4.000000,4.000000,4.000000,4.000000,4.000000,4.000000,4.000000,4.000000,4.000000,4.000000,100.000000,,,,,,,,,,,,,,,,,,,,,,,,,,,,,,,,,,,,,,,,,,,,,,,,,,,,,,,,,,,,,,,,,,,,,,,,,,,,,,,,,,,,,,,,,,,,,,,,,,,,,,,,,,,,,,,,,,,,,
1768374109.295028,1768374109.295718,51.000000,0.000000,4293.717773,4313.461426,4338.461426,4338.974121,4318.846191,4320.641113,4312.692383,4324.615234,4309.230957,4293.974121,4508.461426,4520.256348,4385.769043,4442.179688,0.000000,1.000000,29.000000,,,,0.000000,4.000000,4.000000,4.000000,4.000000,4.000000,4.000000,4.000000,4.000000,4.000000,4.000000,4.000000,4.000000,4.000000,4.000000,100.000000,,,,,,,,,,,,,,,,,,,,,,,,,,,,,,,,,,,,,,,,,,,,,,,,,,,,,,,,,,,,,,,,,,,,,,,,,,,,,,,,,,,,,,,,,,,,,,,,,,,,,,,,,,,,,,,,,,,,,
1768374109.302836,1768374109.303726,52.000000,0.000000,4294.358887,4312.307617,4334.743652,4337.051270,4314.102539,4316.538574,4311.794922,4331.922852,4314.358887,4296.666504,4508.333496,4520.384766,4384.487305,4444.358887,0.000000,1.000000,29.000000,,,,0.000000,4.000000,4.000000,4.000000,4.000000,4.000000,4.000000,4.000000,4.000000,4.000000,4.000000,4.000000,4.000000,4.000000,4.000000,100.000000,,,,,,,,,,,,,,,,,,,,,,,,,,,,,,,,,,,,,,,,,,,,,,,,,,,,,,,,,,,,,,,,,,,,,,,,,,,,,,,,,,,,,,,,,,,,,,,,,,,,,,,,,,,,,,,,,,,,,
1768374109.310645,1768374109.311535,53.000000,0.000000,4292.692383,4310.384766,4335.000000,4336.153809,4313.077148,4315.384766,4310.128418,4327.563965,4312.179688,4297.051270,4508.333496,4517.179688,4386.410156,4444.358887,0.000000,1.000000,29.000000,,,,0.000000,4.000000,4.000000,4.000000,4.000000,4.000000,4.000000,4.000000,4.000000,4.000000,4.000000,4.000000,4.000000,4.000000,4.000000,100.000000,,,,,,,,,,,,,,,,,,,,,,,,,,,,,,,,,,,,,,,,,,,,,,,,,,,,,,,,,,,,,,,,,,,,,,,,,,,,,,,,,,,,,,,,,,,,,,,,,,,,,,,,,,,,,,,,,,,,,
1768374109.318453,1768374109.319243,54.000000,0.000000,4287.692383,4310.256348,4333.077148,4335.769043,4315.256348,4320.256348,4312.820313,4322.820313,4308.077148,4293.077148,4506.153809,4512.179688,4387.179688,4439.615234,0.000000,1.000000,29.000000,,,,0.000000,4.000000,4.000000,4.000000,4.000000,4.000000,4.000000,4.000000,4.000000,4.000000,4.000000,4.000000,4.000000,4.000000,4.000000,100.000000,,,,,,,,,,,,,,,,,,,,,,,,,,,,,,,,,,,,,,,,,,,,,,,,,,,,,,,,,,,,,,,,,,,,,,,,,,,,,,,,,,,,,,,,,,,,,,,,,,,,,,,,,,,,,,,,,,,,,
1768374109.326262,1768374109.327052,55.000000,0.000000,4289.743652,4314.615234,4332.563965,4337.179688,4315.897461,4316.794922,4313.205078,4329.358887,4312.051270,4292.563965,4507.179688,4516.666504,4391.794922,4443.077148,0.000000,1.000000,29.000000,,,,0.000000,4.000000,4.000000,4.000000,4.000000,4.000000,4.000000,4.000000,4.000000,4.000000,4.000000,4.000000,4.000000,4.000000,4.000000,100.000000,,,,,,,,,,,,,,,,,,,,,,,,,,,,,,,,,,,,,,,,,,,,,,,,,,,,,,,,,,,,,,,,,,,,,,,,,,,,,,,,,,,,,,,,,,,,,,,,,,,,,,,,,,,,,,,,,,,,,
1768374109.334070,1768374109.334661,56.000000,0.000000,4295.897461,4315.897461,4336.153809,4340.641113,4314.743652,4314.743652,4310.641113,4333.333496,4316.538574,4294.358887,4515.512695,4521.666504,4395.641113,4449.358887,0.000000,1.000000,29.000000,,,,0.000000,4.000000,4.000000,4.000000,4.000000,4.000000,4.000000,4.000000,4.000000,4.000000,4.000000,4.000000,4.000000,4.000000,4.000000,100.000000,,,,,,,,,,,,,,,,,,,,,,,,,,,,,,,,,,,,,,,,,,,,,,,,,,,,,,,,,,,,,,,,,,,,,,,,,,,,,,,,,,,,,,,,,,,,,,,,,,,,,,,,,,,,,,,,,,,,,
1768374109.341878,1768374109.342469,57.000000,0.000000,4300.641113,4315.769043,4339.358887,4340.769043,4313.461426,4320.256348,4310.897461,4330.641113,4313.077148,4295.769043,4520.641113,4518.717773,4393.333496,4446.153809,0.000000,1.000000,29.000000,,,,0.000000,4.000000,4.000000,4.000000,4.000000,4.000000,4.000000,4.000000,4.000000,4.000000,4.000000,4.000000,4.000000,4.000000,4.000000,100.000000,,,,,,,,,,,,,,,,,,,,,,,,,,,,,,,,,,,,,,,,,,,,,,,,,,,,,,,,,,,,,,,,,,,,,,,,,,,,,,,,,,,,,,,,,,,,,,,,,,,,,,,,,,,,,,,,,,,,,
1768374109.349687,1768374109.350377,58.000000,0.000000,4306.666504,4320.769043,4339.230957,4340.641113,4314.871582,4320.769043,4311.922852,4328.974121,4309.102539,4298.974121,4521.794922,4521.410156,4393.846191,4448.333496,0.000000,1.000000,29.000000,,,,0.000000,4.000000,4.000000,4.000000,4.000000,4.000000,4.000000,4.000000,4.000000,4.000000,4.000000,4.000000,4.000000,4.000000,4.000000,100.000000,,,,,,,,,,,,,,,,,,,,,,,,,,,,,,,,,,,,,,,,,,,,,,,,,,,,,,,,,,,,,,,,,,,,,,,,,,,,,,,,,,,,,,,,,,,,,,,,,,,,,,,,,,,,,,,,,,,,,
1768374109.357495,1768374109.358186,59.000000,0.000000,4303.717773,4320.641113,4338.205078,4343.589844,4316.410156,4318.461426,4312.948730,4331.025879,4311.922852,4298.205078,4521.538574,4528.333496,4397.563965,4458.974121,0.000000,1.000000,29.000000,,,,0.000000,4.000000,4.000000,4.000000,4.000000,4.000000,4.000000,4.000000,4.000000,4.000000,4.000000,4.000000,4.000000,4.000000,4.000000,100.000000,,,,,,,,,,,,,,,,,,,,,,,,,,,,,,,,,,,,,,,,,,,,,,,,,,,,,,,,,,,,,,,,,,,,,,,,,,,,,,,,,,,,,,,,,,,,,,,,,,,,,,,,,,,,,,,,,,,,,
1768374109.365304,1768374109.366194,60.000000,0.000000,4297.051270,4317.948730,4339.358887,4344.358887,4315.512695,4319.358887,4313.717773,4332.820313,4313.333496,4292.948730,4516.153809,4525.128418,4392.051270,4456.794922,0.000000,1.000000,29.000000,,,,0.000000,4.000000,4.000000,4.000000,4.000000,4.000000,4.000000,4.000000,4.000000,4.000000,4.000000,4.000000,4.000000,4.000000,4.000000,100.000000,,,,,,,,,,,,,,,,,,,,,,,,,,,,,,,,,,,,,,,,,,,,,,,,,,,,,,,,,,,,,,,,,,,,,,,,,,,,,,,,,,,,,,,,,,,,,,,,,,,,,,,,,,,,,,,,,,,,,
1768374109.373112,1768374109.374003,61.000000,0.000000,4305.641113,4321.794922,4342.948730,4345.000000,4315.384766,4315.897461,4311.538574,4329.230957,4310.897461,4295.384766,4515.769043,4522.692383,4388.333496,4451.153809,0.000000,1.000000,29.000000,,,,0.000000,4.000000,4.000000,4.000000,4.000000,4.000000,4.000000,4.000000,4.000000,4.000000,4.000000,4.000000,4.000000,4.000000,4.000000,100.000000,,,,,,,,,,,,,,,,,,,,,,,,,,,,,,,,,,,,,,,,,,,,,,,,,,,,,,,,,,,,,,,,,,,,,,,,,,,,,,,,,,,,,,,,,,,,,,,,,,,,,,,,,,,,,,,,,,,,,
1768374109.380921,1768374109.381711,62.000000,0.000000,4313.333496,4322.051270,4342.051270,4345.769043,4314.871582,4313.077148,4310.384766,4328.333496,4312.307617,4303.077148,4524.615234,4530.769043,4398.333496,4459.871582,0.000000,1.000000,29.000000,,,,0.000000,4.000000,4.000000,4.000000,4.000000,4.000000,4.000000,4.000000,4.000000,4.000000,4.000000,4.000000,4.000000,4.000000,4.000000,100.000000,,,,,,,,,,,,,,,,,,,,,,,,,,,,,,,,,,,,,,,,,,,,,,,,1.453851,0.293155,0.189067,0.266826,0.180453,0.820363,0.530684,0.199696,0.157670,0.116914,1.034833,0.600215,0.415583,0.211515,0.077802,0.935862,0.393968,0.279826,0.118518,0.113562,0.230722,0.223063,0.117054,0.078471,0.063342,0.108894,0.232195,0.116494,0.105744,0.065817,0.384126,0.331203,0.112891,0.114562,0.070880,0.418741,0.241361,0.129164,0.134512,0.078760,0.230703,0.319138,0.190752,0.108539,0.123474,0.271403,0.346464,0.290732,0.154764,0.163100,0.717334,0.232391,0.391992,0.153362,0.216538,0.952885,0.330367,0.514248,0.188190,0.232081,0.765989,0.392312,0.396809,0.124476,0.207531,1.791689,0.429862,0.696807,0.154207,0.169475
1768374109.388729,1768374109.389520,63.000000,0.000000,4305.256348,4314.487305,4337.436035,4341.538574,4310.512695,4311.922852,4311.922852,4330.256348,4315.000000,4306.794922,4528.333496,4533.974121,4405.512695,4466.025879,0.000000,1.000000,29.000000,,,,0.000000,4.000000,4.000000,4.000000,4.000000,4.000000,4.000000,4.000000,4.000000,4.000000,4.000000,4.000000,4.000000,4.000000,4.000000,100.000000,,,,,,,,,,,,,,,,,,,,,,,,,,,,,,,,,,,,,,,,,,,,,,,,,,,,,,,,,,,,,,,,,,,,,,,,,,,,,,,,,,,,,,,,,,,,,,,,,,,,,,,,,,,,,,,,,,,,,
1768374109.396537,1768374109.397528,64.000000,0.000000,4302.051270,4313.461426,4339.102539,4340.128418,4308.461426,4308.589844,4309.487305,4325.897461,4311.922852,4300.897461,4523.589844,4528.974121,4399.615234,4459.230957,4061.000000,1.000000,29.000000,,,,0.000000,4.000000,4.000000,4.000000,4.000000,4.000000,4.000000,4.000000,4.000000,4.000000,4.000000,4.000000,4.000000,4.000000,4.000000,100.000000,,,,,,,,,,,,,,,,,,,,,,,,,,,,,,,,,,,,,,,,,,,,,,,,,,,,,,,,,,,,,,,,,,,,,,,,,,,,,,,,,,,,,,,,,,,,,,,,,,,,,,,,,,,,,,,,,,,,,
1768374109.404346,1768374109.405336,65.000000,0.000000,4305.512695,4317.948730,4343.846191,4342.563965,4312.051270,4310.769043,4308.333496,4321.922852,4307.948730,4296.410156,4520.641113,4527.820313,4391.410156,4454.871582,3989.000000,1.000000,29.000000,,,,0.000000,4.000000,4.000000,4.000000,4.000000,4.000000,4.000000,4.000000,4.000000,4.000000,4.000000,4.000000,4.000000,4.000000,4.000000,100.000000,,,,,,,,,,,,,,,,,,,,,,,,,,,,,,,,,,,,,,,,,,,,,,,,,,,,,,,,,,,,,,,,,,,,,,,,,,,,,,,,,,,,,,,,,,,,,,,,,,,,,,,,,,,,,,,,,,,,,
1768374109.412154,1768374109.413245,66.000000,0.000000,4303.589844,4316.153809,4343.974121,4342.051270,4315.641113,4318.974121,4317.820313,4327.820313,4310.384766,4300.128418,4520.641113,4528.717773,4392.179688,4453.333496,3879.000000,1.000000,29.000000,,,,0.000000,4.000000,4.000000,4.000000,4.000000,4.000000,4.000000,4.000000,4.000000,4.000000,4.000000,4.000000,4.000000,4.000000,4.000000,100.000000,,,,,,,,,,,,,,,,,,,,,,,,,,,,,,,,,,,,,,,,,,,,,,,,,,,,,,,,,,,,,,,,,,,,,,,,,,,,,,,,,,,,,,,,,,,,,,,,,,,,,,,,,,,,,,,,,,,,,
1768374109.419963,1768374109.421053,67.000000,0.000000,4304.102539,4316.153809,4340.256348,4341.153809,4315.897461,4319.743652,4318.333496,4331.666504,4312.820313,4301.922852,4522.820313,4527.179688,4397.179688,4451.282227,3884.000000,1.000000,29.000000,,,,0.000000,4.000000,4.000000,4.000000,4.000000,4.000000,4.000000,4.000000,4.000000,4.000000,4.000000,4.000000,4.000000,4.000000,4.000000,100.000000,,,,,,,,,,,,,,,,,,,,,,,,,,,,,,,,,,,,,,,,,,,,,,,,,,,,,,,,,,,,,,,,,,,,,,,,,,,,,,,,,,,,,,,,,,,,,,,,,,,,,,,,,,,,,,,,,,,,,
1768374109.427771,1768374109.429061,68.000000,0.000000,4308.974121,4320.128418,4339.615234,4346.794922,4317.563965,4316.282227,4310.769043,4327.820313,4311.025879,4300.384766,4523.846191,4525.512695,4396.025879,4450.512695,3817.000000,1.000000,29.000000,,,,0.000000,4.000000,4.000000,4.000000,4.000000,4.000000,4.000000,4.000000,4.000000,4.000000,4.000000,4.000000,4.000000,4.000000,4.000000,100.000000,,,,,,,,,,,,,,,,,,,,,,,,,,,,,,,,,,,,,,,,,,,,,,,,,,,,,,,,,,,,,,,,,,,,,,,,,,,,,,,,,,,,,,,,,,,,,,,,,,,,,,,,,,,,,,,,,,,,,
1768374109.435580,1768374109.436870,69.000000,0.000000,4309.743652,4323.333496,4342.563965,4350.000000,4324.871582,4322.948730,4317.692383,4330.769043,4310.769043,4299.358887,4521.410156,4526.794922,4394.871582,4448.974121,3747.000000,1.000000,29.000000,,,,0.000000,4.000000,4.000000,4.000000,4.000000,4.000000,4.000000,4.000000,4.000000,4.000000,4.000000,4.000000,4.000000,4.000000,4.000000,100.000000,,,,,,,,,,,,,,,,,,,,,,,,,,,,,,,,,,,,,,,,,,,,,,,,,,,,,,,,,,,,,,,,,,,,,,,,,,,,,,,,,,,,,,,,,,,,,,,,,,,,,,,,,,,,,,,,,,,,,
1768374109.443388,1768374109.444578,70.000000,0.000000,4309.871582,4325.641113,4344.743652,4349.358887,4326.794922,4324.871582,4323.717773,4337.692383,4316.666504,4301.410156,4522.563965,4529.102539,4397.692383,4451.025879,3769.000000,1.000000,29.000000,,,,0.000000,4.000000,4.000000,4.000000,4.000000,4.000000,4.000000,4.000000,4.000000,4.000000,4.000000,4.000000,4.000000,4.000000,4.000000,100.000000,,,,,,,,,,,,,,,,,,,,,,,,,,,,,,,,,,,,,,,,,,,,,,,,,,,,,,,,,,,,,,,,,,,,,,,,,,,,,,,,,,,,,,,,,,,,,,,,,,,,,,,,,,,,,,,,,,,,,
1768374109.451197,1768374109.452387,71.000000,0.000000,4311.794922,4323.205078,4341.025879,4347.948730,4317.563965,4318.333496,4312.692383,4334.871582,4319.871582,4301.410156,4522.563965,4529.102539,4394.615234,4455.384766,3533.000000,1.000000,29.000000,,,,0.000000,4.000000,4.000000,4.000000,4.000000,4.000000,4.000000,4.000000,4.000000,4.000000,4.000000,4.000000,4.000000,4.000000,4.000000,100.000000,,,,,,,,,,,,,,,,,,,,,,,,,,,,,,,,,,,,,,,,,,,,,,,,,,,,,,,,,,,,,,,,,,,,,,,,,,,,,,,,,,,,,,,,,,,,,,,,,,,,,,,,,,,,,,,,,,,,,
1768374109.459005,1768374109.459995,72.000000,0.000000,4312.692383,4317.436035,4337.948730,4344.871582,4310.128418,4318.077148,4307.948730,4327.692383,4314.102539,4300.256348,4519.871582,4526.153809,4391.282227,4457.307617,3969.000000,1.000000,29.000000,,,,0.000000,4.000000,4.000000,4.000000,4.000000,4.000000,4.000000,4.000000,4.000000,4.000000,4.000000,4.000000,4.000000,4.000000,4.000000,100.000000,,,,,,,,,,,,,,,,,,,,,,,,,,,,,,,,,,,,,,,,,,,,,,,,,,,,,,,,,,,,,,,,,,,,,,,,,,,,,,,,,,,,,,,,,,,,,,,,,,,,,,,,,,,,,,,,,,,,,
1768374109.466813,1768374109.467804,73.000000,0.000000,4311.666504,4320.000000,4345.384766,4351.282227,4315.897461,4320.897461,4317.179688,4329.871582,4313.333496,4306.025879,4523.974121,4529.230957,4401.666504,4459.102539,3957.000000,1.000000,29.000000,,,,0.000000,4.000000,4.000000,4.000000,4.000000,4.000000,4.000000,4.000000,4.000000,4.000000,4.000000,4.000000,4.000000,4.000000,4.000000,100.000000,,,,,,,,,,,,,,,,,,,,,,,,,,,,,,,,,,,,,,,,,,,,,,,,,,,,,,,,,,,,,,,,,,,,,,,,,,,,,,,,,,,,,,,,,,,,,,,,,,,,,,,,,,,,,,,,,,,,,
1768374109.474622,1768374109.475512,74.000000,0.000000,4313.205078,4325.384766,4351.410156,4358.205078,4321.538574,4320.641113,4318.077148,4333.205078,4317.307617,4308.461426,4526.794922,4533.333496,4405.000000,4460.641113,4388.000000,1.000000,29.000000,,,,0.000000,4.000000,4.000000,4.000000,4.000000,4.000000,4.000000,4.000000,4.000000,4.000000,4.000000,4.000000,4.000000,4.000000,4.000000,100.000000,,,,,,,,,,,,,,,,,,,,,,,,,,,,,,,,,,,,,,,,,,,,,,,,,,,,,,,,,,,,,,,,,,,,,,,,,,,,,,,,,,,,,,,,,,,,,,,,,,,,,,,,,,,,,,,,,,,,,
1768374109.482430,1768374109.483321,75.000000,0.000000,4313.846191,4318.461426,4345.512695,4351.025879,4318.333496,4321.410156,4312.563965,4328.717773,4313.717773,4300.000000,4521.153809,4525.384766,4389.230957,4457.436035,4662.000000,1.000000,29.000000,,,,0.000000,4.000000,4.000000,4.000000,4.000000,4.000000,4.000000,4.000000,4.000000,4.000000,4.000000,4.000000,4.000000,4.000000,4.000000,100.000000,,,,,,,,,,,,,,,,,,,,,,,,,,,,,,,,,,,,,,,,,,,,,,,,,,,,,,,,,,,,,,,,,,,,,,,,,,,,,,,,,,,,,,,,,,,,,,,,,,,,,,,,,,,,,,,,,,,,,
1768374109.490239,1768374109.491329,76.000000,0.000000,4309.615234,4315.897461,4340.128418,4344.230957,4314.615234,4318.717773,4310.384766,4325.384766,4310.384766,4297.436035,4521.538574,4520.641113,4389.871582,4455.256348,4979.000000,1.000000,29.000000,,,,0.000000,4.000000,4.000000,4.000000,4.000000,4.000000,4.000000,4.000000,4.000000,4.000000,4.000000,4.000000,4.000000,4.000000,4.000000,100.000000,,,,,,,,,,,,,,,,,,,,,,,,,,,,,,,,,,,,,,,,,,,,,,,,,,,,,,,,,,,,,,,,,,,,,,,,,,,,,,,,,,,,,,,,,,,,,,,,,,,,,,,,,,,,,,,,,,,,,
1768374109.498047,1768374109.499137,77.000000,0.000000,4310.641113,4325.641113,4345.256348,4347.307617,4314.230957,4312.820313,4311.410156,4327.051270,4312.692383,4308.846191,4530.512695,4531.538574,4409.358887,4461.922852,5328.000000,1.000000,29.000000,,,,0.000000,4.000000,4.000000,4.000000,4.000000,4.000000,4.000000,4.000000,4.000000,4.000000,4.000000,4.000000,4.000000,4.000000,4.000000,100.000000,,,,,,,,,,,,,,,,,,,,,,,,,,,,,,,,,,,,,,,,,,,,,,,,,,,,,,,,,,,,,,,,,,,,,,,,,,,,,,,,,,,,,,,,,,,,,,,,,,,,,,,,,,,,,,,,,,,,,
1768374109.505856,1768374109.507046,78.000000,0.000000,4321.794922,4327.692383,4349.487305,4347.948730,4311.538574,4312.948730,4312.563965,4327.307617,4313.846191,4309.487305,4529.230957,4537.436035,4414.871582,4470.000000,4388.000000,1.000000,29.000000,,,,0.000000,4.000000,4.000000,4.000000,4.000000,4.000000,4.000000,4.000000,4.000000,4.000000,4.000000,4.000000,4.000000,4.000000,4.000000,100.000000,1.000000,25.000000,4.000000,4.000000,4.000000,4.000000,1.000000,1.000000,1.000000,1.000000,4.000000,4.000000,4.000000,4.000000,4.000000,4.000000,,,,,,,,,,,,,,,,,,,,,,,,,,,,,,,,1.374268,0.340085,0.166230,0.261337,0.178532,0.896474,0.570791,0.200741,0.149346,0.118209,1.156419,0.676057,0.372928,0.216954,0.068687,0.997170,0.455827,0.277830,0.111771,0.110576,0.241619,0.216257,0.133769,0.080875,0.056089,0.106179,0.266220,0.105338,0.095500,0.064765,0.390157,0.307290,0.109810,0.116722,0.071080,0.401195,0.202241,0.109135,0.137044,0.089798,0.196571,0.247346,0.175345,0.103928,0.121441,0.247829,0.285839,0.256407,0.160383,0.181790,0.664849,0.263394,0.300898,0.160174,0.211464,1.099854,0.298302,0.416486,0.159856,0.247226,0.704022,0.407576,0.365271,0.151401,0.225635,1.666807,0.462396,0.629414,0.170755,0.171447
1768374109.513664,1768374109.514854,79.000000,0.000000,4327.563965,4325.384766,4344.743652,4347.820313,4308.205078,4312.307617,4310.128418,4325.512695,4312.436035,4304.743652,4525.384766,4530.384766,4406.794922,4473.589844,4662.000000,1.000000,29.000000,,,,0.000000,4.000000,4.000000,4.000000,4.000000,4.000000,4.000000,4.000000,4.000000,4.000000,4.000000,4.000000,4.000000,4.000000,4.000000,100.000000,,,,,,,,,,,,,,,,,,,,,,,,,,,,,,,,,,,,,,,,,,,,,,,,,,,,,,,,,,,,,,,,,,,,,,,,,,,,,,,,,,,,,,,,,,,,,,,,,,,,,,,,,,,,,,,,,,,,,
1768374109.521473,1768374109.522463,80.000000,0.000000,4322.307617,4327.436035,4341.410156,4351.282227,4312.436035,4311.025879,4308.589844,4325.897461,4315.128418,4311.153809,4529.102539,4528.589844,4406.025879,4473.589844,4979.000000,1.000000,29.000000,,,,0.000000,4.000000,4.000000,4.000000,4.000000,4.000000,4.000000,4.000000,4.000000,4.000000,4.000000,4.000000,4.000000,4.000000,4.000000,100.000000,,,,,,,,,,,,,,,,,,,,,,,,,,,,,,,,,,,,,,,,,,,,,,,,,,,,,,,,,,,,,,,,,,,,,,,,,,,,,,,,,,,,,,,,,,,,,,,,,,,,,,,,,,,,,,,,,,,,,
1768374109.529281,1768374109.530271,81.000000,0.000000,4320.128418,4326.153809,4342.948730,4350.512695,4318.077148,4316.794922,4307.563965,4326.153809,4316.538574,4310.769043,4530.256348,4531.282227,4409.487305,4472.051270,5328.000000,1.000000,29.000000,,,,0.000000,4.000000,4.000000,4.000000,4.000000,4.000000,4.000000,4.000000,4.000000,4.000000,4.000000,4.000000,4.000000,4.000000,4.000000,100.000000,,,,,,,,,,,,,,,,,,,,,,,,,,,,,,,,,,,,,,,,,,,,,,,,,,,,,,,,,,,,,,,,,,,,,,,,,,,,,,,,,,,,,,,,,,,,,,,,,,,,,,,,,,,,,,,,,,,,,
1768374109.537089,1768374109.538180,82.000000,0.000000,4324.230957,4323.717773,4344.358887,4349.102539,4314.615234,4318.333496,4308.333496,4327.051270,4312.179688,4306.922852,4530.128418,4530.256348,4411.153809,4473.333496,4388.000000,1.000000,29.000000,,,,0.000000,4.000000,4.000000,4.000000,4.000000,4.000000,4.000000,4.000000,4.000000,4.000000,4.000000,4.000000,4.000000,4.000000,4.000000,100.000000,,,,,,,,,,,,,,,,,,,,,,,,,,,,,,,,,,,,,,,,,,,,,,,,,,,,,,,,,,,,,,,,,,,,,,,,,,,,,,,,,,,,,,,,,,,,,,,,,,,,,,,,,,,,,,,,,,,,,
1768374109.544898,1768374109.545988,83.000000,0.000000,4327.051270,4326.153809,4346.025879,4350.641113,4313.333496,4313.461426,4311.538574,4330.384766,4313.333496,4311.922852,4536.794922,4534.871582,4413.205078,4475.897461,4662.000000,1.000000,29.000000,,,,0.000000,4.000000,4.000000,4.000000,4.000000,4.000000,4.000000,4.000000,4.000000,4.000000,4.000000,4.000000,4.000000,4.000000,4.000000,100.000000,,,,,,,,,,,,,,,,,,,,,,,,,,,,,,,,,,,,,,,,,,,,,,,,,,,,,,,,,,,,,,,,,,,,,,,,,,,,,,,,,,,,,,,,,,,,,,,,,,,,,,,,,,,,,,,,,,,,,
1768374109.552706,1768374109.553996,84.000000,0.000000,4328.205078,4330.256348,4354.102539,4354.102539,4320.641113,4316.794922,4312.692383,4332.692383,4320.769043,4315.512695,4542.179688,4543.974121,4413.461426,4476.666504,4979.000000,1.000000,29.000000,,,,0.000000,4.000000,4.000000,4.000000,4.000000,4.000000,4.000000,4.000000,4.000000,4.000000,4.000000,4.000000,4.000000,4.000000,4.000000,100.000000,,,,,,,,,,,,,,,,,,,,,,,,,,,,,,,,,,,,,,,,,,,,,,,,,,,,,,,,,,,,,,,,,,,,,,,,,,,,,,,,,,,,,,,,,,,,,,,,,,,,,,,,,,,,,,,,,,,,,
1768374109.560515,1768374109.561805,85.000000,0.000000,4328.333496,4330.769043,4360.256348,4358.974121,4323.205078,4326.410156,4311.153809,4333.846191,4318.974121,4312.692383,4540.641113,4547.820313,4414.230957,4476.794922,5328.000000,1.000000,29.000000,,,,0.000000,4.000000,4.000000,4.000000,4.000000,4.000000,4.000000,4.000000,4.000000,4.000000,4.000000,4.000000,4.000000,4.000000,4.000000,100.000000,,,,,,,,,,,,,,,,,,,,,,,,,,,,,,,,,,,,,,,,,,,,,,,,,,,,,,,,,,,,,,,,,,,,,,,,,,,,,,,,,,,,,,,,,,,,,,,,,,,,,,,,,,,,,,,,,,,,,
1768374109.568323,1768374109.569713,86.000000,0.000000,4326.410156,4326.922852,4352.436035,4359.615234,4319.487305,4325.256348,4314.230957,4332.051270,4313.846191,4309.358887,4537.948730,4541.922852,4413.717773,4476.282227,4388.000000,1.000000,29.000000,,,,0.000000,4.000000,4.000000,4.000000,4.000000,4.000000,4.000000,4.000000,4.000000,4.000000,4.000000,4.000000,4.000000,4.000000,4.000000,100.000000,,,,,,,,,,,,,,,,,,,,,,,,,,,,,,,,,,,,,,,,,,,,,,,,,,,,,,,,,,,,,,,,,,,,,,,,,,,,,,,,,,,,,,,,,,,,,,,,,,,,,,,,,,,,,,,,,,,,,
1768374109.576132,1768374109.577522,87.000000,0.000000,4323.846191,4325.128418,4342.307617,4355.512695,4321.282227,4316.922852,4317.820313,4328.077148,4317.820313,4311.282227,4537.051270,4532.948730,4409.358887,4474.102539,4662.000000,1.000000,29.000000,,,,0.000000,4.000000,4.000000,4.000000,4.000000,4.000000,4.000000,4.000000,4.000000,4.000000,4.000000,4.000000,4.000000,4.000000,4.000000,100.000000,,,,,,,,,,,,,,,,,,,,,,,,,,,,,,,,,,,,,,,,,,,,,,,,,,,,,,,,,,,,,,,,,,,,,,,,,,,,,,,,,,,,,,,,,,,,,,,,,,,,,,,,,,,,,,,,,,,,,
1768374109.583940,1768374109.585130,88.000000,0.000000,4325.256348,4327.179688,4344.358887,4353.974121,4324.230957,4315.384766,4316.025879,4326.538574,4317.307617,4311.153809,4537.179688,4533.846191,4405.384766,4473.717773,4979.000000,1.000000,29.000000,,,,0.000000,4.000000,4.000000,4.000000,4.000000,4.000000,4.000000,4.000000,4.000000,4.000000,4.000000,4.000000,4.000000,4.000000,4.000000,100.000000,,,,,,,,,,,,,,,,,,,,,,,,,,,,,,,,,,,,,,,,,,,,,,,,,,,,,,,,,,,,,,,,,,,,,,,,,,,,,,,,,,,,,,,,,,,,,,,,,,,,,,,,,,,,,,,,,,,,,
1768374109.591749,1768374109.592939,89.000000,0.000000,4327.692383,4328.589844,4351.538574,4357.563965,4321.666504,4317.820313,4311.410156,4327.436035,4308.589844,4307.948730,4535.512695,4541.538574,4406.282227,4476.025879,5328.000000,1.000000,29.000000,,,,0.000000,4.000000,4.000000,4.000000,4.000000,4.000000,4.000000,4.000000,4.000000,4.000000,4.000000,4.000000,4.000000,4.000000,4.000000,100.000000,,,,,,,,,,,,,,,,,,,,,,,,,,,,,,,,,,,,,,,,,,,,,,,,,,,,,,,,,,,,,,,,,,,,,,,,,,,,,,,,,,,,,,,,,,,,,,,,,,,,,,,,,,,,,,,,,,,,,
1768374109.599557,1768374109.600647,90.000000,0.000000,4328.205078,4328.846191,4353.974121,4360.384766,4321.153809,4320.512695,4309.871582,4328.077148,4310.128418,4309.743652,4534.487305,4545.256348,4408.077148,4477.436035,4388.000000,1.000000,29.000000,,,,0.000000,4.000000,4.000000,4.000000,4.000000,4.000000,4.000000,4.000000,4.000000,4.000000,4.000000,4.000000,4.000000,4.000000,4.000000,100.000000,,,,,,,,,,,,,,,,,,,,,,,,,,,,,,,,,,,,,,,,,,,,,,,,,,,,,,,,,,,,,,,,,,,,,,,,,,,,,,,,,,,,,,,,,,,,,,,,,,,,,,,,,,,,,,,,,,,,,
1768374109.607365,1768374109.608456,91.000000,0.000000,4331.410156,4327.820313,4353.717773,4359.102539,4325.000000,4323.333496,4316.025879,4327.563965,4317.820313,4311.282227,4534.743652,4545.000000,4399.615234,4477.820313,4662.000000,1.000000,29.000000,,,,0.000000,4.000000,4.000000,4.000000,4.000000,4.000000,4.000000,4.000000,4.000000,4.000000,4.000000,4.000000,4.000000,4.000000,4.000000,100.000000,,,,,,,,,,,,,,,,,,,,,,,,,,,,,,,,,,,,,,,,,,,,,,,,,,,,,,,,,,,,,,,,,,,,,,,,,,,,,,,,,,,,,,,,,,,,,,,,,,,,,,,,,,,,,,,,,,,,,
1768374109.615174,1768374109.616464,92.000000,0.000000,4333.461426,4325.769043,4349.102539,4354.102539,4321.538574,4318.589844,4318.461426,4328.205078,4320.256348,4308.077148,4533.974121,4539.871582,4397.307617,4477.307617,4979.000000,1.000000,29.000000,,,,0.000000,4.000000,4.000000,4.000000,4.000000,4.000000,4.000000,4.000000,4.000000,4.000000,4.000000,4.000000,4.000000,4.000000,4.000000,100.000000,,,,,,,,,,,,,,,,,,,,,,,,,,,,,,,,,,,,,,,,,,,,,,,,,,,,,,,,,,,,,,,,,,,,,,,,,,,,,,,,,,,,,,,,,,,,,,,,,,,,,,,,,,,,,,,,,,,,,
1768374109.622982,1768374109.624272,93.000000,0.000000,4328.589844,4325.256348,4342.692383,4349.487305,4315.897461,4310.128418,4311.025879,4333.846191,4320.000000,4313.589844,4537.307617,4535.512695,4408.974121,4475.384766,5328.000000,1.000000,29.000000,,,,0.000000,4.000000,4.000000,4.000000,4.000000,4.000000,4.000000,4.000000,4.000000,4.000000,4.000000,4.000000,4.000000,4.000000,4.000000,100.000000,,,,,,,,,,,,,,,,,,,,,,,,,,,,,,,,,,,,,,,,,,,,,,,,,,,,,,,,,,,,,,,,,,,,,,,,,,,,,,,,,,,,,,,,,,,,,,,,,,,,,,,,,,,,,,,,,,,,,
1768374109.630791,1768374109.631981,94.000000,0.000000,4324.358887,4325.897461,4342.307617,4353.205078,4320.128418,4317.307617,4311.538574,4337.563965,4321.666504,4323.461426,4541.153809,4540.384766,4415.000000,4474.743652,4388.000000,1.000000,29.000000,,,,0.000000,4.000000,4.000000,4.000000,4.000000,4.000000,4.000000,4.000000,4.000000,4.000000,4.000000,4.000000,4.000000,4.000000,4.000000,100.000000,,,,,,,,,,,,,,,,,,,,,,,,,,,,,,,,,,,,,,,,,,,,,,,,1.321101,0.359296,0.137110,0.257039,0.172774,0.919924,0.548063,0.195091,0.139136,0.118710,1.199182,0.680240,0.300268,0.206187,0.062279,0.977958,0.481322,0.257764,0.105991,0.105782,0.245848,0.198671,0.143382,0.078473,0.049921,0.110181,0.282907,0.111172,0.083453,0.065119,0.380867,0.274576,0.132665,0.114828,0.073928,0.380625,0.172654,0.091543,0.145825,0.102524,0.162129,0.196808,0.183279,0.116440,0.121081,0.222128,0.228991,0.264987,0.189907,0.203703,0.656040,0.295114,0.230620,0.195953,0.212611,1.248884,0.265855,0.319982,0.145416,0.270310,0.695263,0.412902,0.341927,0.201810,0.267702,1.596107,0.461973,0.525921,0.194564,0.172897
1768374109.638599,1768374109.639789,95.000000,0.000000,4325.256348,4326.282227,4341.794922,4358.461426,4324.871582,4329.743652,4323.077148,4337.563965,4326.666504,4320.897461,4540.256348,4546.538574,4412.563965,4475.641113,4662.000000,1.000000,29.000000,,,,0.000000,4.000000,4.000000,4.000000,4.000000,4.000000,4.000000,4.000000,4.000000,4.000000,4.000000,4.000000,4.000000,4.000000,4.000000,100.000000,,,,,,,,,,,,,,,,,,,,,,,,,,,,,,,,,,,,,,,,,,,,,,,,,,,,,,,,,,,,,,,,,,,,,,,,,,,,,,,,,,,,,,,,,,,,,,,,,,,,,,,,,,,,,,,,,,,,,
1768374109.646408,1768374109.647398,96.000000,0.000000,4326.153809,4322.436035,4341.538574,4354.358887,4320.641113,4325.256348,4325.641113,4338.717773,4327.692383,4316.282227,4539.743652,4544.102539,4411.922852,4477.948730,4979.000000,1.000000,29.000000,,,,0.000000,4.000000,4.000000,4.000000,4.000000,4.000000,4.000000,4.000000,4.000000,4.000000,4.000000,4.000000,4.000000,4.000000,4.000000,100.000000,,,,,,,,,,,,,,,,,,,,,,,,,,,,,,,,,,,,,,,,,,,,,,,,,,,,,,,,,,,,,,,,,,,,,,,,,,,,,,,,,,,,,,,,,,,,,,,,,,,,,,,,,,,,,,,,,,,,,
1768374109.654216,1768374109.655206,97.000000,0.000000,4324.871582,4316.153809,4349.743652,4351.153809,4316.794922,4319.487305,4320.128418,4336.666504,4321.922852,4317.692383,4538.589844,4542.820313,4404.615234,4476.922852,5328.000000,1.000000,29.000000,,,,0.000000,4.000000,4.000000,4.000000,4.000000,4.000000,4.000000,4.000000,4.000000,4.000000,4.000000,4.000000,4.000000,4.000000,4.000000,100.000000,,,,,,,,,,,,,,,,,,,,,,,,,,,,,,,,,,,,,,,,,,,,,,,,,,,,,,,,,,,,,,,,,,,,,,,,,,,,,,,,,,,,,,,,,,,,,,,,,,,,,,,,,,,,,,,,,,,,,
1768374109.662025,1768374109.662915,98.000000,0.000000,4328.333496,4318.461426,4355.769043,4357.436035,4321.025879,4323.333496,4320.641113,4334.102539,4322.051270,4315.641113,4535.641113,4547.692383,4399.358887,4473.717773,4388.000000,1.000000,29.000000,,,,0.000000,4.000000,4.000000,4.000000,4.000000,4.000000,4.000000,4.000000,4.000000,4.000000,4.000000,4.000000,4.000000,4.000000,4.000000,100.000000,,,,,,,,,,,,,,,,,,,,,,,,,,,,,,,,,,,,,,,,,,,,,,,,,,,,,,,,,,,,,,,,,,,,,,,,,,,,,,,,,,,,,,,,,,,,,,,,,,,,,,,,,,,,,,,,,,,,,
1768374109.669833,1768374109.670723,99.000000,0.000000,4328.333496,4323.461426,4350.256348,4356.025879,4324.615234,4325.641113,4323.589844,4335.128418,4325.897461,4312.436035,4538.846191,4544.102539,4408.846191,4475.256348,4662.000000,1.000000,29.000000,,,,0.000000,4.000000,4.000000,4.000000,4.000000,4.000000,4.000000,4.000000,4.000000,4.000000,4.000000,4.000000,4.000000,4.000000,4.000000,100.000000,,,,,,,,,,,,,,,,,,,,,,,,,,,,,,,,,,,,,,,,,,,,,,,,,,,,,,,,,,,,,,,,,,,,,,,,,,,,,,,,,,,,,,,,,,,,,,,,,,,,,,,,,,,,,,,,,,,,,
1768374109.677642,1768374109.678732,100.000000,0.000000,4316.666504,4317.051270,4339.615234,4344.487305,4320.256348,4323.461426,4321.282227,4333.205078,4321.922852,4311.794922,4534.358887,4533.077148,4409.230957,4470.769043,4979.000000,1.000000,29.000000,,,,0.000000,4.000000,4.000000,4.000000,4.000000,4.000000,4.000000,4.000000,4.000000,4.000000,4.000000,4.000000,4.000000,4.000000,4.000000,100.000000,,,,,,,,,,,,,,,,,,,,,,,,,,,,,,,,,,,,,,,,,,,,,,,,,,,,,,,,,,,,,,,,,,,,,,,,,,,,,,,,,,,,,,,,,,,,,,,,,,,,,,,,,,,,,,,,,,,,,
1768374109.685450,1768374109.686540,101.000000,0.000000,4310.256348,4312.563965,4334.230957,4343.333496,4314.871582,4320.128418,4317.563965,4329.615234,4319.615234,4309.871582,4523.333496,4528.333496,4400.769043,4460.000000,5328.000000,1.000000,29.000000,,,,0.000000,4.000000,4.000000,4.000000,4.000000,4.000000,4.000000,4.000000,4.000000,4.000000,4.000000,4.000000,4.000000,4.000000,4.000000,100.000000,,,,,,,,,,,,,,,,,,,,,,,,,,,,,,,,,,,,,,,,,,,,,,,,,,,,,,,,,,,,,,,,,,,,,,,,,,,,,,,,,,,,,,,,,,,,,,,,,,,,,,,,,,,,,,,,,,,,,
1768374109.693258,1768374109.694449,102.000000,0.000000,4318.846191,4318.974121,4336.538574,4352.307617,4319.230957,4321.025879,4319.615234,4332.563965,4324.871582,4307.948730,4530.128418,4535.769043,4406.922852,4463.205078,4388.000000,1.000000,29.000000,,,,0.000000,4.000000,4.000000,4.000000,4.000000,4.000000,4.000000,4.000000,4.000000,4.000000,4.000000,4.000000,4.000000,4.000000,4.000000,100.000000,,,,,,,,,,,,,,,,,,,,,,,,,,,,,,,,,,,,,,,,,,,,,,,,,,,,,,,,,,,,,,,,,,,,,,,,,,,,,,,,,,,,,,,,,,,,,,,,,,,,,,,,,,,,,,,,,,,,,
1768374109.701067,1768374109.702257,103.000000,0.000000,4324.230957,4322.179688,4343.974121,4357.948730,4325.897461,4324.487305,4322.051270,4337.436035,4326.666504,4312.051270,4541.282227,4543.205078,4415.769043,4471.922852,4662.000000,1.000000,29.000000,,,,0.000000,4.000000,4.000000,4.000000,4.000000,4.000000,4.000000,4.000000,4.000000,4.000000,4.000000,4.000000,4.000000,4.000000,4.000000,100.000000,,,,,,,,,,,,,,,,,,,,,,,,,,,,,,,,,,,,,,,,,,,,,,,,,,,,,,,,,,,,,,,,,,,,,,,,,,,,,,,,,,,,,,,,,,,,,,,,,,,,,,,,,,,,,,,,,,,,,
