title:mouse_5, start timestamp:1768373869.716333, stop timestamp:1768373900.138025, headset type:EPOCX, headset serial:E5020E3B, headset firmware:730, channels:156, sampling rate:eeg_128;pm_0.1;pow_8, samples:3897      , version:2.2, 
Timestamp,OriginalTimestamp,EEG.Counter,EEG.Interpolated,EEG.AF3,EEG.F7,EEG.F3,EEG.FC5,EEG.T7,EEG.P7,EEG.O1,EEG.O2,EEG.P8,EEG.T8,EEG.FC6,EEG.F4,EEG.F8,EEG.AF4,EEG.RawCq,EEG.Battery,EEG.BatteryPercent,MarkerIndex,MarkerType,MarkerValueInt,EEG.MarkerHardware,CQ.AF3,CQ.F7,CQ.F3,CQ.FC5,CQ.T7,CQ.P7,CQ.O1,CQ.O2,CQ.P8,CQ.T8,CQ.FC6,CQ.F4,CQ.F8,CQ.AF4,CQ.Overall,EQ.SampleRateQuality,EQ.OVERALL,EQ.AF3,EQ.F7,EQ.F3,EQ.FC5,EQ.T7,EQ.P7,EQ.O1,EQ.O2,EQ.P8,EQ.T8,EQ.FC6,EQ.F4,EQ.F8,EQ.AF4,PM.Attention.IsActive,PM.Attention.Scaled,PM.Attention.Raw,PM.Attention.Min,PM.Attention.Max,PM.Engagement.IsActive,PM.Engagement.Scaled,PM.Engagement.Raw,PM.Engagement.Min,PM.Engagement.Max,PM.Excitement.IsActive,PM.Excitement.Scaled,PM.Excitement.Raw,PM.Excitement.Min,PM.Excitement.Max,PM.LongTermExcitement,PM.Stress.IsActive,PM.Stress.Scaled,PM.Stress.Raw,PM.Stress.Min,PM.Stress.Max,PM.Relaxation.IsActive,PM.Relaxation.Scaled,PM.Relaxation.Raw,PM.Relaxation.Min,PM.Relaxation.Max,PM.Interest.IsActive,PM.Interest.Scaled,PM.Interest.Raw,PM.Interest.Min,PM.Interest.Max,POW.AF3.Theta,POW.AF3.Alpha,POW.AF3.BetaL,POW.AF3.BetaH,POW.AF3.Gamma,POW.F7.Theta,POW.F7.Alpha,POW.F7.BetaL,POW.F7.BetaH,POW.F7.Gamma,POW.F3.Theta,POW.F3.Alpha,POW.F3.BetaL,POW.F3.BetaH,POW.F3.Gamma,POW.FC5.Theta,POW.FC5.Alpha,POW.FC5.BetaL,POW.FC5.BetaH,POW.FC5.Gamma,POW.T7.Theta,POW.T7.Alpha,POW.T7.BetaL,POW.T7.BetaH,POW.T7.Gamma,POW.P7.Theta,POW.P7.Alpha,POW.P7.BetaL,POW.P7.BetaH,POW.P7.Gamma,POW.O1.Theta,POW.O1.Alpha,POW.O1.BetaL,POW.O1.BetaH,POW.O1.Gamma,POW.O2.Theta,POW.O2.Alpha,POW.O2.BetaL,POW.O2.BetaH,POW.O2.Gamma,POW.P8.Theta,POW.P8.Alpha,POW.P8.BetaL,POW.P8.BetaH,POW.P8.Gamma,POW.T8.Theta,POW.T8.Alpha,POW.T8.BetaL,POW.T8.BetaH,POW.T8.Gamma,POW.FC6.Theta,POW.FC6.Alpha,POW.FC6.BetaL,POW.FC6.BetaH,POW.FC6.Gamma,POW.F4.Theta,POW.F4.Alpha,POW.F4.BetaL,POW.F4.BetaH,POW.F4.Gamma,POW.F8.Theta,POW.F8.Alpha,POW.F8.BetaL,POW.F8.BetaH,POW.F8.Gamma,POW.AF4.Theta,POW.AF4.Alpha,POW.AF4.BetaL,POW.AF4.BetaH,POW.AF4.Gamma
1768373869.716333,1768373869.717151,89.000000,0.000000,4339.102539,4340.897461,4342.948730,4369.871582,4315.384766,4283.205078,4293.717773,4326.666504,4308.461426,4310.256348,4528.589844,4519.230957,4419.102539,4447.051270,5359.000000,1.000000,30.000000,,,,0.000000,4.000000,4.000000,4.000000,4.000000,4.000000,4.000000,4.000000,4.000000,4.000000,4.000000,4.000000,4.000000,4.000000,4.000000,100.000000,,,,,,,,,,,,,,,,,,,,,,,,,,,,,,,,,,,,,,,,,,,,,,,,,,,,,,,,,,,,,,,,,,,,,,,,,,,,,,,,,,,,,,,,,,,,,,,,,,,,,,,,,,,,,,,,,,,,,
1768373869.724141,1768373869.725059,90.000000,0.000000,4333.077148,4332.307617,4343.846191,4366.922852,4316.153809,4298.461426,4307.692383,4326.922852,4303.077148,4308.974121,4525.512695,4518.205078,4413.589844,4452.692383,4395.000000,1.000000,30.000000,,,,0.000000,4.000000,4.000000,4.000000,4.000000,4.000000,4.000000,4.000000,4.000000,4.000000,4.000000,4.000000,4.000000,4.000000,4.000000,100.000000,,,,,,,,,,,,,,,,,,,,,,,,,,,,,,,,,,,,,,,,,,,,,,,,,,,,,,,,,,,,,,,,,,,,,,,,,,,,,,,,,,,,,,,,,,,,,,,,,,,,,,,,,,,,,,,,,,,,,
1768373869.731950,1768373869.732868,91.000000,0.000000,4326.153809,4330.897461,4342.692383,4362.436035,4317.051270,4300.128418,4303.461426,4324.230957,4299.487305,4307.948730,4523.589844,4516.153809,4416.410156,4457.436035,4667.000000,1.000000,30.000000,,,,0.000000,4.000000,4.000000,4.000000,4.000000,4.000000,4.000000,4.000000,4.000000,4.000000,4.000000,4.000000,4.000000,4.000000,4.000000,100.000000,,,,,,,,,,,,,,,,,,,,,,,,,,,,,,,,,,,,,,,,,,,,,,,,,,,,,,,,,,,,,,,,,,,,,,,,,,,,,,,,,,,,,,,,,,,,,,,,,,,,,,,,,,,,,,,,,,,,,
1768373869.739758,1768373869.740476,92.000000,0.000000,4324.102539,4333.717773,4339.358887,4361.410156,4313.077148,4290.512695,4294.487305,4321.666504,4299.871582,4301.025879,4524.871582,4516.410156,4418.205078,4452.051270,4993.000000,1.000000,30.000000,,,,0.000000,4.000000,4.000000,4.000000,4.000000,4.000000,4.000000,4.000000,4.000000,4.000000,4.000000,4.000000,4.000000,4.000000,4.000000,100.000000,,,,,,,,,,,,,,,,,,,,,,,,,,,,,,,,,,,,,,,,,,,,,,,,,,,,,,,,,,,,,,,,,,,,,,,,,,,,,,,,,,,,,,,,,,,,,,,,,,,,,,,,,,,,,,,,,,,,,
1768373869.747567,1768373869.748285,93.000000,0.000000,4329.871582,4332.307617,4339.871582,4360.000000,4308.077148,4281.282227,4294.230957,4318.846191,4296.794922,4295.128418,4523.974121,4518.333496,4413.846191,4443.846191,5359.000000,1.000000,30.000000,,,,0.000000,4.000000,4.000000,4.000000,4.000000,4.000000,4.000000,4.000000,4.000000,4.000000,4.000000,4.000000,4.000000,4.000000,4.000000,100.000000,,,,,,,,,,,,,,,,,,,,,,,,,,,,,,,,,,,,,,,,,,,,,,,,,,,,,,,,,,,,,,,,,,,,,,,,,,,,,,,,,,,,,,,,,,,,,,,,,,,,,,,,,,,,,,,,,,,,,
1768373869.755375,1768373869.755993,94.000000,0.000000,4332.948730,4331.538574,4344.487305,4362.948730,4309.487305,4285.641113,4300.256348,4322.051270,4297.948730,4301.794922,4522.307617,4521.538574,4410.769043,4446.410156,4395.000000,1.000000,30.000000,,,,0.000000,4.000000,4.000000,4.000000,4.000000,4.000000,4.000000,4.000000,4.000000,4.000000,4.000000,4.000000,4.000000,4.000000,4.000000,100.000000,,,,,,,,,,,,,,,,,,,,,,,,,,,,,,,,,,,,,,,,,,,,,,,,1.101265,0.298118,0.250944,0.238274,0.110710,0.528278,0.216790,0.101300,0.152198,0.106724,0.719151,0.206426,0.157948,0.160240,0.115006,1.064213,0.488772,0.249183,0.149516,0.072772,0.356324,0.145596,0.203644,0.100198,0.104808,0.472400,0.194814,0.198806,0.129115,0.146790,0.598952,0.344389,0.247981,0.133156,0.128753,0.302647,0.277243,0.162231,0.137631,0.096045,0.762318,0.418749,0.151609,0.153455,0.098139,0.777768,0.388642,0.344170,0.379303,0.260298,0.659744,0.659094,0.157938,0.293502,0.157744,0.847510,0.485853,0.214158,0.272485,0.143554,1.576872,0.733576,0.309619,0.429470,0.272774,0.964806,0.781711,0.282735,0.433453,0.147271
1768373869.763183,1768373869.763802,95.000000,0.000000,4329.102539,4332.692383,4344.230957,4366.666504,4312.948730,4297.307617,4306.666504,4327.820313,4301.153809,4306.153809,4521.666504,4519.615234,4411.666504,4447.051270,4667.000000,1.000000,30.000000,,,,0.000000,4.000000,4.000000,4.000000,4.000000,4.000000,4.000000,4.000000,4.000000,4.000000,4.000000,4.000000,4.000000,4.000000,4.000000,100.000000,,,,,,,,,,,,,,,,,,,,,,,,,,,,,,,,,,,,,,,,,,,,,,,,,,,,,,,,,,,,,,,,,,,,,,,,,,,,,,,,,,,,,,,,,,,,,,,,,,,,,,,,,,,,,,,,,,,,,
1768373869.770992,1768373869.771810,96.000000,0.000000,4323.717773,4327.563965,4338.077148,4358.846191,4310.384766,4292.948730,4300.256348,4322.563965,4296.153809,4299.615234,4520.641113,4508.077148,4407.948730,4439.487305,4993.000000,1.000000,30.000000,,,,0.000000,4.000000,4.000000,4.000000,4.000000,4.000000,4.000000,4.000000,4.000000,4.000000,4.000000,4.000000,4.000000,4.000000,4.000000,100.000000,,,,,,,,,,,,,,,,,,,,,,,,,,,,,,,,,,,,,,,,,,,,,,,,,,,,,,,,,,,,,,,,,,,,,,,,,,,,,,,,,,,,,,,,,,,,,,,,,,,,,,,,,,,,,,,,,,,,,
1768373869.778800,1768373869.779618,97.000000,0.000000,4321.025879,4319.358887,4335.128418,4349.102539,4307.436035,4281.922852,4294.487305,4317.307617,4294.487305,4297.563965,4518.846191,4501.922852,4398.333496,4435.128418,5359.000000,1.000000,30.000000,,,,0.000000,4.000000,4.000000,4.000000,4.000000,4.000000,4.000000,4.000000,4.000000,4.000000,4.000000,4.000000,4.000000,4.000000,4.000000,100.000000,,,,,,,,,,,,,,,,,,,,,,,,,,,,,,,,,,,,,,,,,,,,,,,,,,,,,,,,,,,,,,,,,,,,,,,,,,,,,,,,,,,,,,,,,,,,,,,,,,,,,,,,,,,,,,,,,,,,,
1768373869.786609,1768373869.787527,98.000000,0.000000,4319.230957,4318.333496,4332.692383,4350.769043,4309.230957,4283.461426,4300.897461,4321.410156,4298.205078,4301.025879,4511.794922,4504.487305,4394.871582,4431.153809,4395.000000,1.000000,30.000000,,,,0.000000,4.000000,4.000000,4.000000,4.000000,4.000000,4.000000,4.000000,4.000000,4.000000,4.000000,4.000000,4.000000,4.000000,4.000000,100.000000,,,,,,,,,,,,,,,,,,,,,,,,,,,,,,,,,,,,,,,,,,,,,,,,,,,,,,,,,,,,,,,,,,,,,,,,,,,,,,,,,,,,,,,,,,,,,,,,,,,,,,,,,,,,,,,,,,,,,
1768373869.794417,1768373869.795335,99.000000,0.000000,4315.256348,4320.512695,4326.922852,4352.820313,4306.410156,4286.666504,4300.897461,4320.256348,4294.358887,4294.871582,4505.641113,4500.256348,4397.436035,4427.563965,4667.000000,1.000000,30.000000,,,,0.000000,4.000000,4.000000,4.000000,4.000000,4.000000,4.000000,4.000000,4.000000,4.000000,4.000000,4.000000,4.000000,4.000000,4.000000,100.000000,,,,,,,,,,,,,,,,,,,,,,,,,,,,,,,,,,,,,,,,,,,,,,,,,,,,,,,,,,,,,,,,,,,,,,,,,,,,,,,,,,,,,,,,,,,,,,,,,,,,,,,,,,,,,,,,,,,,,
1768373869.802226,1768373869.803044,100.000000,0.000000,4311.153809,4316.410156,4327.307617,4350.897461,4301.922852,4292.948730,4300.128418,4317.948730,4292.307617,4287.692383,4507.051270,4494.102539,4396.410156,4426.025879,4993.000000,1.000000,30.000000,,,,0.000000,4.000000,4.000000,4.000000,4.000000,4.000000,4.000000,4.000000,4.000000,4.000000,4.000000,4.000000,4.000000,4.000000,4.000000,100.000000,,,,,,,,,,,,,,,,,,,,,,,,,,,,,,,,,,,,,,,,,,,,,,,,,,,,,,,,,,,,,,,,,,,,,,,,,,,,,,,,,,,,,,,,,,,,,,,,,,,,,,,,,,,,,,,,,,,,,
1768373869.810034,1768373869.810852,101.000000,0.000000,4312.692383,4312.179688,4330.641113,4352.179688,4301.153809,4294.230957,4304.743652,4322.563965,4296.025879,4292.563965,4507.563965,4498.461426,4389.230957,4426.282227,5359.000000,1.000000,30.000000,,,,0.000000,4.000000,4.000000,4.000000,4.000000,4.000000,4.000000,4.000000,4.000000,4.000000,4.000000,4.000000,4.000000,4.000000,4.000000,100.000000,,,,,,,,,,,,,,,,,,,,,,,,,,,,,,,,,,,,,,,,,,,,,,,,,,,,,,,,,,,,,,,,,,,,,,,,,,,,,,,,,,,,,,,,,,,,,,,,,,,,,,,,,,,,,,,,,,,,,
1768373869.817843,1768373869.818760,102.000000,0.000000,4316.666504,4313.846191,4327.948730,4351.282227,4300.769043,4283.846191,4302.051270,4322.948730,4297.307617,4300.512695,4504.743652,4502.948730,4385.384766,4426.282227,4395.000000,1.000000,30.000000,,,,0.000000,4.000000,4.000000,4.000000,4.000000,4.000000,4.000000,4.000000,4.000000,4.000000,4.000000,4.000000,4.000000,4.000000,4.000000,100.000000,,,,,,,,,,,,,,,,,,,,,,,,,,,,,,,,,,,,,,,,,,,,,,,,,,,,,,,,,,,,,,,,,,,,,,,,,,,,,,,,,,,,,,,,,,,,,,,,,,,,,,,,,,,,,,,,,,,,,
1768373869.825651,1768373869.826569,103.000000,0.000000,4313.205078,4312.820313,4323.974121,4344.871582,4303.077148,4281.666504,4300.769043,4320.256348,4295.897461,4297.948730,4505.128418,4497.179688,4389.358887,4423.333496,4667.000000,1.000000,30.000000,,,,0.000000,4.000000,4.000000,4.000000,4.000000,4.000000,4.000000,4.000000,4.000000,4.000000,4.000000,4.000000,4.000000,4.000000,4.000000,100.000000,,,,,,,,,,,,,,,,,,,,,,,,,,,,,,,,,,,,,,,,,,,,,,,,,,,,,,,,,,,,,,,,,,,,,,,,,,,,,,,,,,,,,,,,,,,,,,,,,,,,,,,,,,,,,,,,,,,,,
1768373869.833460,1768373869.834178,104.000000,0.000000,4310.512695,4311.282227,4326.153809,4344.615234,4308.205078,4292.179688,4309.871582,4322.820313,4296.025879,4290.641113,4507.436035,4496.153809,4392.051270,4422.563965,4993.000000,1.000000,30.000000,,,,0.000000,4.000000,4.000000,4.000000,4.000000,4.000000,4.000000,4.000000,4.000000,4.000000,4.000000,4.000000,4.000000,4.000000,4.000000,100.000000,,,,,,,,,,,,,,,,,,,,,,,,,,,,,,,,,,,,,,,,,,,,,,,,,,,,,,,,,,,,,,,,,,,,,,,,,,,,,,,,,,,,,,,,,,,,,,,,,,,,,,,,,,,,,,,,,,,,,
1768373869.841268,1768373869.841986,105.000000,0.000000,4313.461426,4313.589844,4331.153809,4350.897461,4306.538574,4297.692383,4306.794922,4324.615234,4297.820313,4295.384766,4507.563965,4504.743652,4390.128418,4425.384766,5359.000000,1.000000,30.000000,,,,0.000000,4.000000,4.000000,4.000000,4.000000,4.000000,4.000000,4.000000,4.000000,4.000000,4.000000,4.000000,4.000000,4.000000,4.000000,100.000000,,,,,,,,,,,,,,,,,,,,,,,,,,,,,,,,,,,,,,,,,,,,,,,,,,,,,,,,,,,,,,,,,,,,,,,,,,,,,,,,,,,,,,,,,,,,,,,,,,,,,,,,,,,,,,,,,,,,,
1768373869.849076,1768373869.849695,106.000000,0.000000,4313.974121,4315.897461,4330.128418,4351.153809,4300.256348,4293.205078,4298.333496,4322.948730,4299.230957,4299.487305,4507.820313,4506.666504,4390.256348,4428.461426,4395.000000,1.000000,30.000000,,,,0.000000,4.000000,4.000000,4.000000,4.000000,4.000000,4.000000,4.000000,4.000000,4.000000,4.000000,4.000000,4.000000,4.000000,4.000000,100.000000,,,,,,,,,,,,,,,,,,,,,,,,,,,,,,,,,,,,,,,,,,,,,,,,,,,,,,,,,,,,,,,,,,,,,,,,,,,,,,,,,,,,,,,,,,,,,,,,,,,,,,,,,,,,,,,,,,,,,
1768373869.856885,1768373869.857503,107.000000,0.000000,4312.307617,4315.897461,4327.179688,4346.153809,4297.436035,4291.410156,4299.102539,4321.538574,4295.384766,4293.077148,4508.717773,4502.436035,4389.230957,4429.102539,4667.000000,1.000000,30.000000,,,,0.000000,4.000000,4.000000,4.000000,4.000000,4.000000,4.000000,4.000000,4.000000,4.000000,4.000000,4.000000,4.000000,4.000000,4.000000,100.000000,,,,,,,,,,,,,,,,,,,,,,,,,,,,,,,,,,,,,,,,,,,,,,,,,,,,,,,,,,,,,,,,,,,,,,,,,,,,,,,,,,,,,,,,,,,,,,,,,,,,,,,,,,,,,,,,,,,,,
1768373869.864693,1768373869.865112,108.000000,0.000000,4313.077148,4313.461426,4331.025879,4345.641113,4300.000000,4288.717773,4297.820313,4321.153809,4296.538574,4292.436035,4510.641113,4507.563965,4385.769043,4431.794922,4993.000000,1.000000,30.000000,,,,0.000000,4.000000,4.000000,4.000000,4.000000,4.000000,4.000000,4.000000,4.000000,4.000000,4.000000,4.000000,4.000000,4.000000,4.000000,100.000000,,,,,,,,,,,,,,,,,,,,,,,,,,,,,,,,,,,,,,,,,,,,,,,,,,,,,,,,,,,,,,,,,,,,,,,,,,,,,,,,,,,,,,,,,,,,,,,,,,,,,,,,,,,,,,,,,,,,,
1768373869.872501,1768373869.872920,109.000000,0.000000,4318.589844,4315.769043,4336.282227,4351.282227,4303.974121,4291.794922,4305.128418,4324.615234,4304.358887,4301.666504,4515.512695,4514.743652,4391.153809,4437.051270,5359.000000,1.000000,30.000000,,,,0.000000,4.000000,4.000000,4.000000,4.000000,4.000000,4.000000,4.000000,4.000000,4.000000,4.000000,4.000000,4.000000,4.000000,4.000000,100.000000,,,,,,,,,,,,,,,,,,,,,,,,,,,,,,,,,,,,,,,,,,,,,,,,,,,,,,,,,,,,,,,,,,,,,,,,,,,,,,,,,,,,,,,,,,,,,,,,,,,,,,,,,,,,,,,,,,,,,
1768373869.880310,1768373869.880629,110.000000,0.000000,4321.282227,4326.410156,4336.282227,4359.358887,4305.897461,4298.461426,4311.410156,4326.153809,4301.666504,4305.512695,4515.641113,4509.487305,4398.589844,4437.948730,4395.000000,1.000000,30.000000,,,,0.000000,4.000000,4.000000,4.000000,4.000000,4.000000,4.000000,4.000000,4.000000,4.000000,4.000000,4.000000,4.000000,4.000000,4.000000,100.000000,,,,,,,,,,,,,,,,,,,,,,,,,,,,,,,,,,,,,,,,,,,,,,,,1.166877,0.304096,0.241874,0.219105,0.091100,0.414501,0.230969,0.090967,0.153069,0.095459,0.657131,0.165693,0.214106,0.204460,0.114260,1.303823,0.712771,0.327926,0.176778,0.065162,0.207929,0.113951,0.158780,0.095986,0.099813,0.309598,0.248105,0.231102,0.143822,0.141449,0.502347,0.397237,0.263089,0.122060,0.119672,0.290858,0.269334,0.118817,0.116122,0.102035,0.547326,0.380834,0.138314,0.131708,0.093155,0.657261,0.369582,0.355029,0.383223,0.254659,0.753894,0.707227,0.178585,0.253767,0.144174,0.930797,0.480630,0.213070,0.256933,0.155187,1.786793,0.747892,0.319340,0.393211,0.240498,1.127300,0.782877,0.272256,0.404403,0.133551
1768373869.888118,1768373869.888437,111.000000,0.000000,4315.512695,4327.948730,4331.282227,4357.307617,4299.743652,4293.717773,4300.256348,4322.563965,4297.051270,4299.230957,4510.384766,4501.282227,4391.666504,4429.358887,4667.000000,1.000000,30.000000,,,,0.000000,4.000000,4.000000,4.000000,4.000000,4.000000,4.000000,4.000000,4.000000,4.000000,4.000000,4.000000,4.000000,4.000000,4.000000,100.000000,,,,,,,,,,,,,,,,,,,,,,,,,,,,,,,,,,,,,,,,,,,,,,,,,,,,,,,,,,,,,,,,,,,,,,,,,,,,,,,,,,,,,,,,,,,,,,,,,,,,,,,,,,,,,,,,,,,,,
1768373869.895927,1768373869.896445,112.000000,0.000000,4308.205078,4313.333496,4325.897461,4347.051270,4295.512695,4289.743652,4299.743652,4322.692383,4297.820313,4293.077148,4506.282227,4501.538574,4378.846191,4419.358887,4993.000000,1.000000,30.000000,,,,0.000000,4.000000,4.000000,4.000000,4.000000,4.000000,4.000000,4.000000,4.000000,4.000000,4.000000,4.000000,4.000000,4.000000,4.000000,100.000000,,,,,,,,,,,,,,,,,,,,,,,,,,,,,,,,,,,,,,,,,,,,,,,,,,,,,,,,,,,,,,,,,,,,,,,,,,,,,,,,,,,,,,,,,,,,,,,,,,,,,,,,,,,,,,,,,,,,,
1768373869.903735,1768373869.904254,113.000000,0.000000,4308.333496,4306.922852,4325.256348,4346.794922,4296.410156,4294.743652,4311.666504,4324.358887,4298.461426,4294.358887,4506.025879,4503.333496,4379.358887,4421.922852,5359.000000,1.000000,30.000000,,,,0.000000,4.000000,4.000000,4.000000,4.000000,4.000000,4.000000,4.000000,4.000000,4.000000,4.000000,4.000000,4.000000,4.000000,4.000000,100.000000,,,,,,,,,,,,,,,,,,,,,,,,,,,,,,,,,,,,,,,,,,,,,,,,,,,,,,,,,,,,,,,,,,,,,,,,,,,,,,,,,,,,,,,,,,,,,,,,,,,,,,,,,,,,,,,,,,,,,
1768373869.911544,1768373869.912162,114.000000,0.000000,4311.794922,4314.871582,4329.358887,4353.077148,4295.769043,4294.487305,4304.230957,4322.820313,4301.666504,4297.563965,4507.307617,4500.384766,4385.384766,4431.153809,4395.000000,1.000000,30.000000,,,,0.000000,4.000000,4.000000,4.000000,4.000000,4.000000,4.000000,4.000000,4.000000,4.000000,4.000000,4.000000,4.000000,4.000000,4.000000,100.000000,,,,,,,,,,,,,,,,,,,,,,,,,,,,,,,,,,,,,,,,,,,,,,,,,,,,,,,,,,,,,,,,,,,,,,,,,,,,,,,,,,,,,,,,,,,,,,,,,,,,,,,,,,,,,,,,,,,,,
1768373869.919352,1768373869.919971,115.000000,0.000000,4310.000000,4317.051270,4326.025879,4353.333496,4296.794922,4286.538574,4291.410156,4320.384766,4300.769043,4291.666504,4506.025879,4493.333496,4381.794922,4427.179688,4667.000000,1.000000,30.000000,,,,0.000000,4.000000,4.000000,4.000000,4.000000,4.000000,4.000000,4.000000,4.000000,4.000000,4.000000,4.000000,4.000000,4.000000,4.000000,100.000000,,,,,,,,,,,,,,,,,,,,,,,,,,,,,,,,,,,,,,,,,,,,,,,,,,,,,,,,,,,,,,,,,,,,,,,,,,,,,,,,,,,,,,,,,,,,,,,,,,,,,,,,,,,,,,,,,,,,,
1768373869.927161,1768373869.927979,116.000000,0.000000,4310.256348,4314.871582,4323.589844,4354.487305,4300.000000,4290.256348,4298.974121,4322.307617,4297.051270,4285.512695,4506.410156,4493.846191,4380.641113,4418.717773,4993.000000,1.000000,30.000000,,,,0.000000,4.000000,4.000000,4.000000,4.000000,4.000000,4.000000,4.000000,4.000000,4.000000,4.000000,4.000000,4.000000,4.000000,4.000000,100.000000,,,,,,,,,,,,,,,,,,,,,,,,,,,,,,,,,,,,,,,,,,,,,,,,,,,,,,,,,,,,,,,,,,,,,,,,,,,,,,,,,,,,,,,,,,,,,,,,,,,,,,,,,,,,,,,,,,,,,
1768373869.934969,1768373869.935787,117.000000,0.000000,4317.436035,4318.205078,4334.230957,4359.743652,4301.538574,4295.128418,4302.436035,4323.717773,4299.230957,4290.769043,4508.461426,4501.538574,4390.000000,4423.717773,5359.000000,1.000000,30.000000,,,,0.000000,4.000000,4.000000,4.000000,4.000000,4.000000,4.000000,4.000000,4.000000,4.000000,4.000000,4.000000,4.000000,4.000000,4.000000,100.000000,,,,,,,,,,,,,,,,,,,,,,,,,,,,,,,,,,,,,,,,,,,,,,,,,,,,,,,,,,,,,,,,,,,,,,,,,,,,,,,,,,,,,,,,,,,,,,,,,,,,,,,,,,,,,,,,,,,,,
1768373869.942778,1768373869.943496,118.000000,0.000000,4321.410156,4321.922852,4337.563965,4360.641113,4299.358887,4285.512695,4292.692383,4317.820313,4300.000000,4299.615234,4508.205078,4502.051270,4397.307617,4431.025879,4395.000000,1.000000,30.000000,,,,0.000000,4.000000,4.000000,4.000000,4.000000,4.000000,4.000000,4.000000,4.000000,4.000000,4.000000,4.000000,4.000000,4.000000,4.000000,100.000000,,,,,,,,,,,,,,,,,,,,,,,,,,,,,,,,,,,,,,,,,,,,,,,,,,,,,,,,,,,,,,,,,,,,,,,,,,,,,,,,,,,,,,,,,,,,,,,,,,,,,,,,,,,,,,,,,,,,,
1768373869.950586,1768373869.951304,119.000000,0.000000,4318.846191,4321.282227,4328.846191,4359.102539,4295.256348,4284.230957,4291.794922,4318.717773,4301.282227,4302.820313,4509.615234,4498.717773,4397.563965,4430.128418,4667.000000,1.000000,30.000000,,,,0.000000,4.000000,4.000000,4.000000,4.000000,4.000000,4.000000,4.000000,4.000000,4.000000,4.000000,4.000000,4.000000,4.000000,4.000000,100.000000,,,,,,,,,,,,,,,,,,,,,,,,,,,,,,,,,,,,,,,,,,,,,,,,,,,,,,,,,,,,,,,,,,,,,,,,,,,,,,,,,,,,,,,,,,,,,,,,,,,,,,,,,,,,,,,,,,,,,
1768373869.958394,1768373869.959312,120.000000,0.000000,4317.307617,4316.794922,4325.384766,4358.846191,4294.871582,4297.436035,4300.000000,4325.512695,4308.461426,4302.692383,4511.538574,4501.025879,4394.871582,4426.025879,4993.000000,1.000000,30.000000,,,,0.000000,4.000000,4.000000,4.000000,4.000000,4.000000,4.000000,4.000000,4.000000,4.000000,4.000000,4.000000,4.000000,4.000000,4.000000,100.000000,,,,,,,,,,,,,,,,,,,,,,,,,,,,,,,,,,,,,,,,,,,,,,,,,,,,,,,,,,,,,,,,,,,,,,,,,,,,,,,,,,,,,,,,,,,,,,,,,,,,,,,,,,,,,,,,,,,,,
1768373869.966203,1768373869.967121,121.000000,0.000000,4318.974121,4315.000000,4328.846191,4359.871582,4294.358887,4295.641113,4297.948730,4321.922852,4304.743652,4298.077148,4510.641113,4502.436035,4391.538574,4425.512695,5359.000000,1.000000,30.000000,,,,0.000000,4.000000,4.000000,4.000000,4.000000,4.000000,4.000000,4.000000,4.000000,4.000000,4.000000,4.000000,4.000000,4.000000,4.000000,100.000000,,,,,,,,,,,,,,,,,,,,,,,,,,,,,,,,,,,,,,,,,,,,,,,,,,,,,,,,,,,,,,,,,,,,,,,,,,,,,,,,,,,,,,,,,,,,,,,,,,,,,,,,,,,,,,,,,,,,,
1768373869.974011,1768373869.975029,122.000000,0.000000,4317.820313,4318.333496,4328.589844,4361.410156,4293.077148,4287.436035,4294.358887,4317.051270,4294.743652,4292.820313,4509.358887,4503.461426,4390.769043,4429.230957,4395.000000,1.000000,30.000000,,,,0.000000,4.000000,4.000000,4.000000,4.000000,4.000000,4.000000,4.000000,4.000000,4.000000,4.000000,4.000000,4.000000,4.000000,4.000000,100.000000,,,,,,,,,,,,,,,,,,,,,,,,,,,,,,,,,,,,,,,,,,,,,,,,,,,,,,,,,,,,,,,,,,,,,,,,,,,,,,,,,,,,,,,,,,,,,,,,,,,,,,,,,,,,,,,,,,,,,
1768373869.981820,1768373869.982838,123.000000,0.000000,4310.000000,4313.717773,4326.153809,4355.128418,4293.846191,4294.358887,4301.153809,4320.512695,4296.153809,4293.461426,4508.846191,4503.077148,4390.384766,4425.384766,4667.000000,1.000000,30.000000,,,,0.000000,4.000000,4.000000,4.000000,4.000000,4.000000,4.000000,4.000000,4.000000,4.000000,4.000000,4.000000,4.000000,4.000000,4.000000,100.000000,,,,,,,,,,,,,,,,,,,,,,,,,,,,,,,,,,,,,,,,,,,,,,,,,,,,,,,,,,,,,,,,,,,,,,,,,,,,,,,,,,,,,,,,,,,,,,,,,,,,,,,,,,,,,,,,,,,,,
1768373869.989628,1768373869.990446,124.000000,0.000000,4308.077148,4304.358887,4327.051270,4352.436035,4294.871582,4292.820313,4300.512695,4321.153809,4300.512695,4293.589844,4508.461426,4499.358887,4392.179688,4418.461426,4993.000000,1.000000,30.000000,,,,0.000000,4.000000,4.000000,4.000000,4.000000,4.000000,4.000000,4.000000,4.000000,4.000000,4.000000,4.000000,4.000000,4.000000,4.000000,100.000000,,,,,,,,,,,,,,,,,,,,,,,,,,,,,,,,,,,,,,,,,,,,,,,,,,,,,,,,,,,,,,,,,,,,,,,,,,,,,,,,,,,,,,,,,,,,,,,,,,,,,,,,,,,,,,,,,,,,,
1768373869.997437,1768373869.998255,125.000000,0.000000,4319.743652,4308.205078,4328.205078,4361.794922,4293.589844,4276.282227,4288.846191,4317.179688,4298.205078,4290.769043,4508.846191,4498.333496,4394.230957,4421.153809,5359.000000,1.000000,30.000000,,,,0.000000,4.000000,4.000000,4.000000,4.000000,4.000000,4.000000,4.000000,4.000000,4.000000,4.000000,4.000000,4.000000,4.000000,4.000000,100.000000,,,,,,,,,,,,,,,,,,,,,,,,,,,,,,,,,,,,,,,,,,,,,,,,,,,,,,,,,,,,,,,,,,,,,,,,,,,,,,,,,,,,,,,,,,,,,,,,,,,,,,,,,,,,,,,,,,,,,
1768373870.005245,1768373870.005963,126.000000,0.000000,4330.000000,4317.436035,4327.563965,4364.743652,4292.692383,4275.769043,4288.205078,4317.179688,4297.179688,4292.563965,4508.205078,4501.025879,4392.179688,4434.487305,4395.000000,1.000000,30.000000,,,,0.000000,4.000000,4.000000,4.000000,4.000000,4.000000,4.000000,4.000000,4.000000,4.000000,4.000000,4.000000,4.000000,4.000000,4.000000,100.000000,,,,,,,,,,,,,,,,,,,,,,,,,,,,,,,,,,,,,,,,,,,,,,,,1.299340,0.294237,0.231417,0.206395,0.081780,0.379846,0.257265,0.085693,0.160725,0.085630,0.708605,0.150985,0.273682,0.254246,0.115029,1.466765,0.910507,0.389174,0.209517,0.062915,0.147021,0.099154,0.140252,0.104875,0.092648,0.261521,0.302084,0.287186,0.157571,0.147394,0.481428,0.437170,0.280451,0.111607,0.114172,0.340501,0.272046,0.100651,0.110420,0.107374,0.521399,0.352487,0.139130,0.123939,0.086470,0.756975,0.370397,0.356102,0.395198,0.249723,0.954249,0.737519,0.200434,0.234549,0.135618,1.245430,0.504848,0.211457,0.246724,0.167662,2.049351,0.738075,0.357245,0.353655,0.207722,1.459858,0.746737,0.252367,0.369616,0.123740
1768373870.013054,1768373870.013772,127.000000,0.000000,4328.717773,4316.025879,4327.307617,4358.974121,4294.871582,4287.307617,4296.282227,4318.717773,4296.922852,4293.077148,4508.205078,4502.051270,4393.333496,4443.077148,30.000000,1.000000,30.000000,,,,0.000000,4.000000,4.000000,4.000000,4.000000,4.000000,4.000000,4.000000,4.000000,4.000000,4.000000,4.000000,4.000000,4.000000,4.000000,100.000000,,,,,,,,,,,,,,,,,,,,,,,,,,,,,,,,,,,,,,,,,,,,,,,,,,,,,,,,,,,,,,,,,,,,,,,,,,,,,,,,,,,,,,,,,,,,,,,,,,,,,,,,,,,,,,,,,,,,,
1768373870.020862,1768373870.021780,0.000000,0.000000,4321.025879,4313.589844,4327.179688,4360.897461,4296.794922,4287.948730,4295.897461,4321.794922,4298.717773,4289.871582,4512.307617,4501.794922,4395.769043,4438.077148,4071.000000,1.000000,30.000000,,,,0.000000,4.000000,4.000000,4.000000,4.000000,4.000000,4.000000,4.000000,4.000000,4.000000,4.000000,4.000000,4.000000,4.000000,4.000000,100.000000,,,,,,,,,,,,,,,,,,,,,,,,,,,,,,,,,,,,,,,,,,,,,,,,,,,,,,,,,,,,,,,,,,,,,,,,,,,,,,,,,,,,,,,,,,,,,,,,,,,,,,,,,,,,,,,,,,,,,
1768373870.028670,1768373870.029589,1.000000,0.000000,4310.384766,4306.922852,4320.769043,4358.846191,4295.897461,4290.512695,4296.282227,4324.871582,4301.794922,4285.512695,4506.794922,4495.512695,4382.307617,4419.743652,3997.000000,1.000000,30.000000,,,,0.000000,4.000000,4.000000,4.000000,4.000000,4.000000,4.000000,4.000000,4.000000,4.000000,4.000000,4.000000,4.000000,4.000000,4.000000,100.000000,,,,,,,,,,,,,,,,,,,,,,,,,,,,,,,,,,,,,,,,,,,,,,,,,,,,,,,,,,,,,,,,,,,,,,,,,,,,,,,,,,,,,,,,,,,,,,,,,,,,,,,,,,,,,,,,,,,,,
1768373870.036479,1768373870.037297,2.000000,0.000000,4302.563965,4295.897461,4314.615234,4347.307617,4294.743652,4292.692383,4297.948730,4320.384766,4296.922852,4277.179688,4495.897461,4485.384766,4369.487305,4406.538574,3882.000000,1.000000,30.000000,,,,0.000000,4.000000,4.000000,4.000000,4.000000,4.000000,4.000000,4.000000,4.000000,4.000000,4.000000,4.000000,4.000000,4.000000,4.000000,100.000000,,,,,,,,,,,,,,,,,,,,,,,,,,,,,,,,,,,,,,,,,,,,,,,,,,,,,,,,,,,,,,,,,,,,,,,,,,,,,,,,,,,,,,,,,,,,,,,,,,,,,,,,,,,,,,,,,,,,,
1768373870.044287,1768373870.045106,3.000000,0.000000,4309.358887,4298.974121,4321.282227,4350.256348,4294.230957,4284.871582,4295.769043,4320.641113,4299.487305,4285.256348,4505.512695,4492.820313,4384.487305,4419.871582,3894.000000,1.000000,30.000000,,,,0.000000,4.000000,4.000000,4.000000,4.000000,4.000000,4.000000,4.000000,4.000000,4.000000,4.000000,4.000000,4.000000,4.000000,4.000000,100.000000,,,,,,,,,,,,,,,,,,,,,,,,,,,,,,,,,,,,,,,,,,,,,,,,,,,,,,,,,,,,,,,,,,,,,,,,,,,,,,,,,,,,,,,,,,,,,,,,,,,,,,,,,,,,,,,,,,,,,
1768373870.052096,1768373870.052714,4.000000,0.000000,4319.102539,4310.128418,4328.461426,4360.000000,4294.230957,4282.692383,4299.358887,4326.666504,4309.615234,4307.820313,4526.410156,4508.846191,4400.256348,4436.922852,3815.000000,1.000000,30.000000,,,,0.000000,4.000000,4.000000,4.000000,4.000000,4.000000,4.000000,4.000000,4.000000,4.000000,4.000000,4.000000,4.000000,4.000000,4.000000,100.000000,,,,,,,,,,,,,,,,,,,,,,,,,,,,,,,,,,,,,,,,,,,,,,,,,,,,,,,,,,,,,,,,,,,,,,,,,,,,,,,,,,,,,,,,,,,,,,,,,,,,,,,,,,,,,,,,,,,,,
1768373870.059904,1768373870.060523,5.000000,0.000000,4319.230957,4310.769043,4326.666504,4359.230957,4296.153809,4291.410156,4305.000000,4324.487305,4308.461426,4310.128418,4525.128418,4507.051270,4395.897461,4432.820313,3762.000000,1.000000,30.000000,,,,0.000000,4.000000,4.000000,4.000000,4.000000,4.000000,4.000000,4.000000,4.000000,4.000000,4.000000,4.000000,4.000000,4.000000,4.000000,100.000000,,,,,,,,,,,,,,,,,,,,,,,,,,,,,,,,,,,,,,,,,,,,,,,,,,,,,,,,,,,,,,,,,,,,,,,,,,,,,,,,,,,,,,,,,,,,,,,,,,,,,,,,,,,,,,,,,,,,,
1768373870.067713,1768373870.068231,6.000000,0.000000,4319.230957,4308.461426,4328.077148,4360.000000,4298.461426,4295.000000,4301.410156,4321.282227,4300.384766,4293.333496,4511.153809,4500.256348,4392.820313,4425.897461,3772.000000,1.000000,30.000000,,,,0.000000,4.000000,4.000000,4.000000,4.000000,4.000000,4.000000,4.000000,4.000000,4.000000,4.000000,4.000000,4.000000,4.000000,4.000000,100.000000,,,,,,,,,,,,,,,,,,,,,,,,,,,,,,,,,,,,,,,,,,,,,,,,,,,,,,,,,,,,,,,,,,,,,,,,,,,,,,,,,,,,,,,,,,,,,,,,,,,,,,,,,,,,,,,,,,,,,
1768373870.075521,1768373870.076040,7.000000,0.000000,4322.051270,4314.230957,4336.282227,4364.358887,4291.922852,4284.230957,4294.487305,4325.128418,4304.871582,4290.641113,4511.282227,4504.871582,4394.615234,4432.179688,3573.000000,1.000000,30.000000,,,,0.000000,4.000000,4.000000,4.000000,4.000000,4.000000,4.000000,4.000000,4.000000,4.000000,4.000000,4.000000,4.000000,4.000000,4.000000,100.000000,,,,,,,,,,,,,,,,,,,,,,,,,,,,,,,,,,,,,,,,,,,,,,,,,,,,,,,,,,,,,,,,,,,,,,,,,,,,,,,,,,,,,,,,,,,,,,,,,,,,,,,,,,,,,,,,,,,,,
1768373870.083330,1768373870.083648,8.000000,0.000000,4324.358887,4315.897461,4339.102539,4363.333496,4279.743652,4277.820313,4292.307617,4326.410156,4312.563965,4300.000000,4514.358887,4506.025879,4393.077148,4434.871582,3976.000000,1.000000,30.000000,,,,0.000000,4.000000,4.000000,4.000000,4.000000,4.000000,4.000000,4.000000,4.000000,4.000000,4.000000,4.000000,4.000000,4.000000,4.000000,100.000000,,,,,,,,,,,,,,,,,,,,,,,,,,,,,,,,,,,,,,,,,,,,,,,,,,,,,,,,,,,,,,,,,,,,,,,,,,,,,,,,,,,,,,,,,,,,,,,,,,,,,,,,,,,,,,,,,,,,,
1768373870.091138,1768373870.091457,9.000000,0.000000,4325.128418,4309.615234,4330.384766,4359.615234,4276.025879,4279.358887,4290.512695,4322.051270,4303.589844,4291.282227,4509.743652,4498.589844,4391.410156,4428.077148,3972.000000,1.000000,30.000000,,,,0.000000,4.000000,4.000000,4.000000,4.000000,4.000000,4.000000,4.000000,4.000000,4.000000,4.000000,4.000000,4.000000,4.000000,4.000000,100.000000,,,,,,,,,,,,,,,,,,,,,,,,,,,,,,,,,,,,,,,,,,,,,,,,,,,,,,,,,,,,,,,,,,,,,,,,,,,,,,,,,,,,,,,,,,,,,,,,,,,,,,,,,,,,,,,,,,,,,
1768373870.098946,1768373870.099365,10.000000,0.000000,4324.358887,4305.897461,4323.717773,4358.461426,4277.307617,4278.717773,4291.025879,4319.615234,4293.333496,4277.051270,4507.179688,4497.948730,4384.230957,4427.179688,4402.000000,1.000000,30.000000,,,,0.000000,4.000000,4.000000,4.000000,4.000000,4.000000,4.000000,4.000000,4.000000,4.000000,4.000000,4.000000,4.000000,4.000000,4.000000,100.000000,,,,,,,,,,,,,,,,,,,,,,,,,,,,,,,,,,,,,,,,,,,,,,,,,,,,,,,,,,,,,,,,,,,,,,,,,,,,,,,,,,,,,,,,,,,,,,,,,,,,,,,,,,,,,,,,,,,,,
1768373870.106755,1768373870.107173,11.000000,0.000000,4321.282227,4306.922852,4330.641113,4356.282227,4277.820313,4282.948730,4298.589844,4318.974121,4296.153809,4284.230957,4507.436035,4504.615234,4379.230957,4430.512695,4679.000000,1.000000,30.000000,,,,0.000000,4.000000,4.000000,4.000000,4.000000,4.000000,4.000000,4.000000,4.000000,4.000000,4.000000,4.000000,4.000000,4.000000,4.000000,100.000000,,,,,,,,,,,,,,,,,,,,,,,,,,,,,,,,,,,,,,,,,,,,,,,,,,,,,,,,,,,,,,,,,,,,,,,,,,,,,,,,,,,,,,,,,,,,,,,,,,,,,,,,,,,,,,,,,,,,,
1768373870.114563,1768373870.115182,12.000000,0.000000,4318.333496,4308.717773,4336.282227,4356.922852,4279.230957,4287.436035,4302.948730,4321.538574,4304.102539,4298.205078,4507.307617,4504.871582,4389.743652,4429.743652,4999.000000,1.000000,30.000000,,,,0.000000,4.000000,4.000000,4.000000,4.000000,4.000000,4.000000,4.000000,4.000000,4.000000,4.000000,4.000000,4.000000,4.000000,4.000000,100.000000,,,,,,,,,,,,,,,,,,,,,,,,,,,,,,,,,,,,,,,,,,,,,,,,,,,,,,,,,,,,,,,,,,,,,,,,,,,,,,,,,,,,,,,,,,,,,,,,,,,,,,,,,,,,,,,,,,,,,
1768373870.122372,1768373870.122990,13.000000,0.000000,4317.436035,4305.897461,4327.820313,4358.717773,4279.615234,4284.230957,4301.666504,4324.230957,4301.922852,4291.153809,4507.179688,4500.256348,4397.436035,4427.307617,5362.000000,1.000000,30.000000,,,,0.000000,4.000000,4.000000,4.000000,4.000000,4.000000,4.000000,4.000000,4.000000,4.000000,4.000000,4.000000,4.000000,4.000000,4.000000,100.000000,,,,,,,,,,,,,,,,,,,,,,,,,,,,,,,,,,,,,,,,,,,,,,,,,,,,,,,,,,,,,,,,,,,,,,,,,,,,,,,,,,,,,,,,,,,,,,,,,,,,,,,,,,,,,,,,,,,,,
1768373870.130180,1768373870.130899,14.000000,0.000000,4319.871582,4303.974121,4324.743652,4356.282227,4280.128418,4284.743652,4302.436035,4320.000000,4296.282227,4279.358887,4507.820313,4502.692383,4389.871582,4429.230957,4402.000000,1.000000,30.000000,,,,0.000000,4.000000,4.000000,4.000000,4.000000,4.000000,4.000000,4.000000,4.000000,4.000000,4.000000,4.000000,4.000000,4.000000,4.000000,100.000000,1.000000,100.000000,4.000000,4.000000,4.000000,4.000000,4.000000,4.000000,4.000000,4.000000,4.000000,4.000000,4.000000,4.000000,4.000000,4.000000,,,,,,,,,,,,,,,,,,,,,,,,,,,,,,,,1.486858,0.270197,0.212677,0.198686,0.079967,0.430340,0.284876,0.084478,0.173922,0.078741,0.820213,0.168082,0.321287,0.296844,0.116282,1.479611,1.012602,0.407554,0.242600,0.063913,0.154979,0.099860,0.140494,0.122995,0.083017,0.258626,0.344412,0.357873,0.166060,0.168003,0.483735,0.455129,0.298117,0.105400,0.117015,0.422453,0.281062,0.104138,0.116238,0.109514,0.630917,0.348959,0.153880,0.129403,0.080924,1.014446,0.396934,0.348743,0.407355,0.251429,1.167112,0.751735,0.215788,0.230417,0.132437,1.673850,0.569467,0.209439,0.236092,0.177295,2.222807,0.708176,0.416738,0.314516,0.182527,1.866290,0.684298,0.225468,0.331875,0.117296
1768373870.137989,1768373870.138707,15.000000,0.000000,4326.153809,4307.820313,4336.282227,4356.410156,4282.307617,4293.717773,4304.487305,4319.358887,4299.743652,4279.487305,4506.538574,4509.871582,4383.205078,4434.102539,4679.000000,1.000000,30.000000,,,,0.000000,4.000000,4.000000,4.000000,4.000000,4.000000,4.000000,4.000000,4.000000,4.000000,4.000000,4.000000,4.000000,4.000000,4.000000,100.000000,,,,,,,,,,,,,,,,,,,,,,,,,,,,,,,,,,,,,,,,,,,,,,,,,,,,,,,,,,,,,,,,,,,,,,,,,,,,,,,,,,,,,,,,,,,,,,,,,,,,,,,,,,,,,,,,,,,,,
1768373870.145797,1768373870.146316,16.000000,0.000000,4328.974121,4312.179688,4339.487305,4361.410156,4286.410156,4288.974121,4299.871582,4322.179688,4304.102539,4282.820313,4507.436035,4508.461426,4388.589844,4434.487305,0.000000,1.000000,30.000000,,,,0.000000,4.000000,4.000000,4.000000,4.000000,4.000000,4.000000,4.000000,4.000000,4.000000,4.000000,4.000000,4.000000,4.000000,4.000000,100.000000,,,,,,,,,,,,,,,,,,,,,,,,,,,,,,,,,,,,,,,,,,,,,,,,,,,,,,,,,,,,,,,,,,,,,,,,,,,,,,,,,,,,,,,,,,,,,,,,,,,,,,,,,,,,,,,,,,,,,
1768373870.153606,1768373870.154124,17.000000,0.000000,4327.179688,4313.333496,4331.538574,4363.846191,4289.102539,4277.820313,4292.436035,4320.128418,4307.307617,4291.794922,4510.384766,4501.922852,4396.282227,4429.102539,0.000000,1.000000,30.000000,,,,0.000000,4.000000,4.000000,4.000000,4.000000,4.000000,4.000000,4.000000,4.000000,4.000000,4.000000,4.000000,4.000000,4.000000,4.000000,100.000000,,,,,,,,,,,,,,,,,,,,,,,,,,,,,,,,,,,,,,,,,,,,,,,,,,,,,,,,,,,,,,,,,,,,,,,,,,,,,,,,,,,,,,,,,,,,,,,,,,,,,,,,,,,,,,,,,,,,,
1768373870.161414,1768373870.162032,18.000000,0.000000,4327.051270,4311.153809,4326.538574,4359.871582,4286.538574,4281.794922,4295.128418,4315.000000,4303.077148,4293.717773,4507.948730,4499.358887,4393.717773,4427.179688,0.000000,1.000000,30.000000,,,,0.000000,4.000000,4.000000,4.000000,4.000000,4.000000,4.000000,4.000000,4.000000,4.000000,4.000000,4.000000,4.000000,4.000000,4.000000,100.000000,,,,,,,,,,,,,,,,,,,,,,,,,,,,,,,,,,,,,,,,,,,,,,,,,,,,,,,,,,,,,,,,,,,,,,,,,,,,,,,,,,,,,,,,,,,,,,,,,,,,,,,,,,,,,,,,,,,,,
1768373870.169222,1768373870.169841,19.000000,0.000000,4330.256348,4310.512695,4326.153809,4358.077148,4285.512695,4285.256348,4297.563965,4312.051270,4297.820313,4286.410156,4504.487305,4499.102539,4385.769043,4430.897461,0.000000,1.000000,30.000000,,,,0.000000,4.000000,4.000000,4.000000,4.000000,4.000000,4.000000,4.000000,4.000000,4.000000,4.000000,4.000000,4.000000,4.000000,4.000000,100.000000,,,,,,,,,,,,,,,,,,,,,,,,,,,,,,,,,,,,,,,,,,,,,,,,,,,,,,,,,,,,,,,,,,,,,,,,,,,,,,,,,,,,,,,,,,,,,,,,,,,,,,,,,,,,,,,,,,,,,
1768373870.177031,1768373870.177849,20.000000,0.000000,4334.615234,4318.589844,4330.384766,4362.179688,4286.153809,4277.820313,4286.922852,4317.179688,4303.846191,4291.410156,4506.666504,4501.282227,4383.717773,4433.461426,0.000000,1.000000,30.000000,,,,0.000000,4.000000,4.000000,4.000000,4.000000,4.000000,4.000000,4.000000,4.000000,4.000000,4.000000,4.000000,4.000000,4.000000,4.000000,100.000000,,,,,,,,,,,,,,,,,,,,,,,,,,,,,,,,,,,,,,,,,,,,,,,,,,,,,,,,,,,,,,,,,,,,,,,,,,,,,,,,,,,,,,,,,,,,,,,,,,,,,,,,,,,,,,,,,,,,,
1768373870.184839,1768373870.185658,21.000000,0.000000,4336.282227,4327.563965,4333.077148,4365.000000,4282.563965,4273.205078,4278.077148,4319.743652,4306.282227,4291.153809,4501.025879,4501.153809,4385.128418,4431.282227,0.000000,1.000000,30.000000,,,,0.000000,4.000000,4.000000,4.000000,4.000000,4.000000,4.000000,4.000000,4.000000,4.000000,4.000000,4.000000,4.000000,4.000000,4.000000,100.000000,,,,,,,,,,,,,,,,,,,,,,,,,,,,,,,,,,,,,,,,,,,,,,,,,,,,,,,,,,,,,,,,,,,,,,,,,,,,,,,,,,,,,,,,,,,,,,,,,,,,,,,,,,,,,,,,,,,,,
1768373870.192648,1768373870.193566,22.000000,0.000000,4330.000000,4326.282227,4328.846191,4362.051270,4279.102539,4277.563965,4283.461426,4312.179688,4293.461426,4274.615234,4490.128418,4492.563965,4378.846191,4425.769043,0.000000,1.000000,30.000000,,,,0.000000,4.000000,4.000000,4.000000,4.000000,4.000000,4.000000,4.000000,4.000000,4.000000,4.000000,4.000000,4.000000,4.000000,4.000000,100.000000,,,,,,,,,,,,,,,,,,,,,,,,,,,,,,,,,,,,,,,,,,,,,,,,,,,,,,,,,,,,,,,,,,,,,,,,,,,,,,,,,,,,,,,,,,,,,,,,,,,,,,,,,,,,,,,,,,,,,
1768373870.200456,1768373870.201374,23.000000,0.000000,4322.179688,4324.743652,4322.820313,4357.563965,4281.922852,4283.589844,4295.384766,4310.897461,4288.589844,4276.282227,4496.794922,4491.794922,4377.692383,4423.461426,0.000000,1.000000,30.000000,,,,0.000000,4.000000,4.000000,4.000000,4.000000,4.000000,4.000000,4.000000,4.000000,4.000000,4.000000,4.000000,4.000000,4.000000,4.000000,100.000000,,,,,,,,,,,,,,,,,,,,,,,,,,,,,,,,,,,,,,,,,,,,,,,,,,,,,,,,,,,,,,,,,,,,,,,,,,,,,,,,,,,,,,,,,,,,,,,,,,,,,,,,,,,,,,,,,,,,,
1768373870.208265,1768373870.208983,24.000000,0.000000,4323.077148,4327.820313,4321.410156,4356.282227,4282.436035,4284.102539,4296.922852,4321.922852,4300.256348,4296.025879,4510.256348,4503.077148,4389.615234,4429.102539,0.000000,1.000000,30.000000,,,,0.000000,4.000000,4.000000,4.000000,4.000000,4.000000,4.000000,4.000000,4.000000,4.000000,4.000000,4.000000,4.000000,4.000000,4.000000,100.000000,,,,,,,,,,,,,,,,,,,,,,,,,,,,,,,,,,,,,,,,,,,,,,,,,,,,,,,,,,,,,,,,,,,,,,,,,,,,,,,,,,,,,,,,,,,,,,,,,,,,,,,,,,,,,,,,,,,,,
1768373870.216073,1768373870.216791,25.000000,0.000000,4327.179688,4327.051270,4322.436035,4355.641113,4277.179688,4278.077148,4289.743652,4323.717773,4301.666504,4297.307617,4507.051270,4502.948730,4390.769043,4428.846191,0.000000,1.000000,30.000000,,,,0.000000,4.000000,4.000000,4.000000,4.000000,4.000000,4.000000,4.000000,4.000000,4.000000,4.000000,4.000000,4.000000,4.000000,4.000000,100.000000,,,,,,,,,,,,,,,,,,,,,,,,,,,,,,,,,,,,,,,,,,,,,,,,,,,,,,,,,,,,,,,,,,,,,,,,,,,,,,,,,,,,,,,,,,,,,,,,,,,,,,,,,,,,,,,,,,,,,
1768373870.223882,1768373870.224500,26.000000,0.000000,4325.641113,4321.922852,4325.128418,4355.769043,4275.512695,4278.589844,4289.871582,4316.538574,4293.461426,4285.641113,4501.025879,4492.948730,4379.102539,4419.743652,0.000000,1.000000,30.000000,,,,0.000000,4.000000,4.000000,4.000000,4.000000,4.000000,4.000000,4.000000,4.000000,4.000000,4.000000,4.000000,4.000000,4.000000,4.000000,100.000000,,,,,,,,,,,,,,,,,,,,,,,,,,,,,,,,,,,,,,,,,,,,,,,,,,,,,,,,,,,,,,,,,,,,,,,,,,,,,,,,,,,,,,,,,,,,,,,,,,,,,,,,,,,,,,,,,,,,,
1768373870.231690,1768373870.232308,27.000000,0.000000,4324.230957,4321.282227,4328.333496,4358.717773,4278.589844,4288.333496,4295.769043,4318.077148,4291.538574,4277.307617,4502.948730,4493.717773,4374.743652,4420.769043,0.000000,1.000000,30.000000,,,,0.000000,4.000000,4.000000,4.000000,4.000000,4.000000,4.000000,4.000000,4.000000,4.000000,4.000000,4.000000,4.000000,4.000000,4.000000,100.000000,,,,,,,,,,,,,,,,,,,,,,,,,,,,,,,,,,,,,,,,,,,,,,,,,,,,,,,,,,,,,,,,,,,,,,,,,,,,,,,,,,,,,,,,,,,,,,,,,,,,,,,,,,,,,,,,,,,,,
1768373870.239499,1768373870.239917,28.000000,0.000000,4327.051270,4326.153809,4329.102539,4360.769043,4281.282227,4288.205078,4298.461426,4321.922852,4292.948730,4275.897461,4503.589844,4498.974121,4382.051270,4431.282227,0.000000,1.000000,30.000000,,,,0.000000,4.000000,4.000000,4.000000,4.000000,4.000000,4.000000,4.000000,4.000000,4.000000,4.000000,4.000000,4.000000,4.000000,4.000000,100.000000,,,,,,,,,,,,,,,,,,,,,,,,,,,,,,,,,,,,,,,,,,,,,,,,,,,,,,,,,,,,,,,,,,,,,,,,,,,,,,,,,,,,,,,,,,,,,,,,,,,,,,,,,,,,,,,,,,,,,
1768373870.247307,1768373870.247726,29.000000,0.000000,4330.769043,4328.461426,4328.461426,4359.102539,4283.333496,4280.000000,4294.358887,4317.948730,4291.666504,4286.794922,4506.153809,4499.615234,4387.563965,4433.846191,0.000000,1.000000,30.000000,,,,0.000000,4.000000,4.000000,4.000000,4.000000,4.000000,4.000000,4.000000,4.000000,4.000000,4.000000,4.000000,4.000000,4.000000,4.000000,100.000000,,,,,,,,,,,,,,,,,,,,,,,,,,,,,,,,,,,,,,,,,,,,,,,,,,,,,,,,,,,,,,,,,,,,,,,,,,,,,,,,,,,,,,,,,,,,,,,,,,,,,,,,,,,,,,,,,,,,,
1768373870.255115,1768373870.255434,30.000000,0.000000,4332.436035,4324.230957,4327.179688,4357.692383,4284.743652,4283.589844,4294.871582,4314.102539,4289.615234,4292.436035,4507.563965,4501.794922,4385.128418,4433.077148,0.000000,1.000000,30.000000,,,,0.000000,4.000000,4.000000,4.000000,4.000000,4.000000,4.000000,4.000000,4.000000,4.000000,4.000000,4.000000,4.000000,4.000000,4.000000,100.000000,,,,,,,,,,,,,,,,,,,,,,,,,,,,,,,,,,,,,,,,,,,,,,,,1.677506,0.242544,0.194310,0.197898,0.082299,0.550692,0.303091,0.089639,0.189773,0.075893,0.976438,0.209171,0.345772,0.318902,0.117029,1.344936,0.981943,0.377600,0.269993,0.066659,0.212588,0.109277,0.145825,0.143546,0.071868,0.264151,0.363358,0.423954,0.170160,0.202780,0.473263,0.445519,0.317573,0.105566,0.130870,0.493734,0.289759,0.117945,0.125741,0.107002,0.805511,0.373837,0.172184,0.143777,0.078438,1.333126,0.452147,0.331930,0.414158,0.262696,1.352296,0.758058,0.223508,0.231735,0.132390,2.127804,0.667713,0.206811,0.221251,0.181242,2.253064,0.673029,0.492589,0.279547,0.169717,2.279844,0.617545,0.202968,0.296200,0.114592
1768373870.262924,1768373870.263243,31.000000,0.000000,4335.256348,4324.487305,4333.717773,4363.589844,4288.077148,4299.615234,4305.769043,4320.641113,4292.179688,4282.179688,4505.769043,4511.538574,4382.948730,4439.743652,0.000000,1.000000,30.000000,,,,0.000000,4.000000,4.000000,4.000000,4.000000,4.000000,4.000000,4.000000,4.000000,4.000000,4.000000,4.000000,4.000000,4.000000,4.000000,100.000000,,,,,,,,,,,,,,,,,,,,,,,,,,,,,,,,,,,,,,,,,,,,,,,,,,,,,,,,,,,,,,,,,,,,,,,,,,,,,,,,,,,,,,,,,,,,,,,,,,,,,,,,,,,,,,,,,,,,,
1768373870.270732,1768373870.271251,32.000000,0.000000,4341.153809,4331.282227,4343.589844,4369.743652,4292.436035,4298.077148,4307.563965,4326.666504,4297.436035,4283.333496,4512.692383,4517.563965,4388.077148,4447.051270,0.000000,1.000000,30.000000,,,,0.000000,4.000000,4.000000,4.000000,4.000000,4.000000,4.000000,4.000000,4.000000,4.000000,4.000000,4.000000,4.000000,4.000000,4.000000,100.000000,,,,,,,,,,,,,,,,,,,,,,,,,,,,,,,,,,,,,,,,,,,,,,,,,,,,,,,,,,,,,,,,,,,,,,,,,,,,,,,,,,,,,,,,,,,,,,,,,,,,,,,,,,,,,,,,,,,,,
1768373870.278541,1768373870.279059,33.000000,0.000000,4338.461426,4330.256348,4337.436035,4365.128418,4288.205078,4278.717773,4293.717773,4321.794922,4300.128418,4294.871582,4523.846191,4508.333496,4397.179688,4441.538574,0.000000,1.000000,30.000000,,,,0.000000,4.000000,4.000000,4.000000,4.000000,4.000000,4.000000,4.000000,4.000000,4.000000,4.000000,4.000000,4.000000,4.000000,4.000000,100.000000,,,,,,,,,,,,,,,,,,,,,,,,,,,,,,,,,,,,,,,,,,,,,,,,,,,,,,,,,,,,,,,,,,,,,,,,,,,,,,,,,,,,,,,,,,,,,,,,,,,,,,,,,,,,,,,,,,,,,
1768373870.286349,1768373870.286768,34.000000,0.000000,4327.563965,4324.871582,4324.358887,4357.563965,4283.461426,4280.897461,4289.871582,4317.820313,4298.333496,4293.717773,4520.897461,4502.563965,4398.974121,4431.794922,0.000000,1.000000,30.000000,,,,0.000000,4.000000,4.000000,4.000000,4.000000,4.000000,4.000000,4.000000,4.000000,4.000000,4.000000,4.000000,4.000000,4.000000,4.000000,100.000000,,,,,,,,,,,,,,,,,,,,,,,,,,,,,,,,,,,,,,,,,,,,,,,,,,,,,,,,,,,,,,,,,,,,,,,,,,,,,,,,,,,,,,,,,,,,,,,,,,,,,,,,,,,,,,,,,,,,,
1768373870.294158,1768373870.294576,35.000000,0.000000,4328.461426,4327.692383,4328.205078,4361.410156,4288.846191,4297.179688,4300.384766,4321.410156,4297.436035,4290.512695,4509.102539,4509.358887,4392.948730,4437.692383,0.000000,1.000000,30.000000,,,,0.000000,4.000000,4.000000,4.000000,4.000000,4.000000,4.000000,4.000000,4.000000,4.000000,4.000000,4.000000,4.000000,4.000000,4.000000,100.000000,,,,,,,,,,,,,,,,,,,,,,,,,,,,,,,,,,,,,,,,,,,,,,,,,,,,,,,,,,,,,,,,,,,,,,,,,,,,,,,,,,,,,,,,,,,,,,,,,,,,,,,,,,,,,,,,,,,,,
1768373870.301966,1768373870.302584,36.000000,0.000000,4340.769043,4333.974121,4339.615234,4366.794922,4292.179688,4290.384766,4299.358887,4323.461426,4298.077148,4293.846191,4507.948730,4510.000000,4390.384766,4445.128418,0.000000,1.000000,30.000000,,,,0.000000,4.000000,4.000000,4.000000,4.000000,4.000000,4.000000,4.000000,4.000000,4.000000,4.000000,4.000000,4.000000,4.000000,4.000000,100.000000,,,,,,,,,,,,,,,,,,,,,,,,,,,,,,,,,,,,,,,,,,,,,,,,,,,,,,,,,,,,,,,,,,,,,,,,,,,,,,,,,,,,,,,,,,,,,,,,,,,,,,,,,,,,,,,,,,,,,
1768373870.309774,1768373870.310393,37.000000,0.000000,4344.487305,4332.820313,4340.000000,4361.794922,4287.436035,4277.179688,4292.179688,4317.179688,4295.769043,4292.820313,4513.333496,4507.179688,4392.436035,4437.179688,0.000000,1.000000,30.000000,,,,0.000000,4.000000,4.000000,4.000000,4.000000,4.000000,4.000000,4.000000,4.000000,4.000000,4.000000,4.000000,4.000000,4.000000,4.000000,100.000000,,,,,,,,,,,,,,,,,,,,,,,,,,,,,,,,,,,,,,,,,,,,,,,,,,,,,,,,,,,,,,,,,,,,,,,,,,,,,,,,,,,,,,,,,,,,,,,,,,,,,,,,,,,,,,,,,,,,,
1768373870.317583,1768373870.318301,38.000000,0.000000,4339.615234,4325.641113,4335.641113,4357.307617,4281.794922,4286.153809,4294.615234,4314.871582,4292.948730,4288.717773,4512.820313,4510.384766,4392.051270,4434.358887,0.000000,1.000000,30.000000,,,,0.000000,4.000000,4.000000,4.000000,4.000000,4.000000,4.000000,4.000000,4.000000,4.000000,4.000000,4.000000,4.000000,4.000000,4.000000,100.000000,,,,,,,,,,,,,,,,,,,,,,,,,,,,,,,,,,,,,,,,,,,,,,,,,,,,,,,,,,,,,,,,,,,,,,,,,,,,,,,,,,,,,,,,,,,,,,,,,,,,,,,,,,,,,,,,,,,,,
1768373870.325391,1768373870.326110,39.000000,0.000000,4334.358887,4324.871582,4335.769043,4357.563965,4284.615234,4294.871582,4298.333496,4320.512695,4297.051270,4285.769043,4511.794922,4514.743652,4388.077148,4444.615234,0.000000,1.000000,30.000000,,,,0.000000,4.000000,4.000000,4.000000,4.000000,4.000000,4.000000,4.000000,4.000000,4.000000,4.000000,4.000000,4.000000,4.000000,4.000000,100.000000,,,,,,,,,,,,,,,,,,,,,,,,,,,,,,,,,,,,,,,,,,,,,,,,,,,,,,,,,,,,,,,,,,,,,,,,,,,,,,,,,,,,,,,,,,,,,,,,,,,,,,,,,,,,,,,,,,,,,
1768373870.333200,1768373870.334118,40.000000,0.000000,4329.358887,4326.410156,4336.153809,4358.717773,4290.384766,4293.974121,4302.563965,4322.051270,4302.436035,4285.769043,4512.820313,4513.846191,4386.153809,4444.487305,0.000000,1.000000,30.000000,,,,0.000000,4.000000,4.000000,4.000000,4.000000,4.000000,4.000000,4.000000,4.000000,4.000000,4.000000,4.000000,4.000000,4.000000,4.000000,100.000000,,,,,,,,,,,,,,,,,,,,,,,,,,,,,,,,,,,,,,,,,,,,,,,,,,,,,,,,,,,,,,,,,,,,,,,,,,,,,,,,,,,,,,,,,,,,,,,,,,,,,,,,,,,,,,,,,,,,,
1768373870.341008,1768373870.341926,41.000000,0.000000,4325.256348,4320.769043,4331.153809,4357.307617,4288.974121,4293.717773,4302.692383,4318.077148,4301.666504,4294.102539,4510.769043,4505.384766,4385.641113,4431.282227,0.000000,1.000000,30.000000,,,,0.000000,4.000000,4.000000,4.000000,4.000000,4.000000,4.000000,4.000000,4.000000,4.000000,4.000000,4.000000,4.000000,4.000000,4.000000,100.000000,,,,,,,,,,,,,,,,,,,,,,,,,,,,,,,,,,,,,,,,,,,,,,,,,,,,,,,,,,,,,,,,,,,,,,,,,,,,,,,,,,,,,,,,,,,,,,,,,,,,,,,,,,,,,,,,,,,,,
1768373870.348817,1768373870.349635,42.000000,0.000000,4321.538574,4313.974121,4323.205078,4351.666504,4287.307617,4294.487305,4303.333496,4316.410156,4297.820313,4298.717773,4507.692383,4494.871582,4381.153809,4422.307617,0.000000,1.000000,30.000000,,,,0.000000,4.000000,4.000000,4.000000,4.000000,4.000000,4.000000,4.000000,4.000000,4.000000,4.000000,4.000000,4.000000,4.000000,4.000000,100.000000,,,,,,,,,,,,,,,,,,,,,,,,,,,,,,,,,,,,,,,,,,,,,,,,,,,,,,,,,,,,,,,,,,,,,,,,,,,,,,,,,,,,,,,,,,,,,,,,,,,,,,,,,,,,,,,,,,,,,
1768373870.356625,1768373870.357443,43.000000,0.000000,4322.436035,4312.436035,4320.769043,4346.666504,4289.230957,4298.846191,4308.974121,4317.692383,4293.974121,4288.205078,4507.051270,4494.615234,4381.025879,4427.436035,0.000000,1.000000,30.000000,,,,0.000000,4.000000,4.000000,4.000000,4.000000,4.000000,4.000000,4.000000,4.000000,4.000000,4.000000,4.000000,4.000000,4.000000,4.000000,100.000000,,,,,,,,,,,,,,,,,,,,,,,,,,,,,,,,,,,,,,,,,,,,,,,,,,,,,,,,,,,,,,,,,,,,,,,,,,,,,,,,,,,,,,,,,,,,,,,,,,,,,,,,,,,,,,,,,,,,,
1768373870.364433,1768373870.365452,44.000000,0.000000,4328.589844,4316.410156,4325.000000,4350.897461,4289.487305,4297.307617,4305.384766,4319.487305,4297.820313,4285.128418,4507.436035,4503.589844,4390.641113,4441.282227,0.000000,1.000000,30.000000,,,,0.000000,4.000000,4.000000,4.000000,4.000000,4.000000,4.000000,4.000000,4.000000,4.000000,4.000000,4.000000,4.000000,4.000000,4.000000,100.000000,,,,,,,,,,,,,,,,,,,,,,,,,,,,,,,,,,,,,,,,,,,,,,,,,,,,,,,,,,,,,,,,,,,,,,,,,,,,,,,,,,,,,,,,,,,,,,,,,,,,,,,,,,,,,,,,,,,,,
1768373870.372242,1768373870.373260,45.000000,0.000000,4330.000000,4320.256348,4328.589844,4355.897461,4286.410156,4290.897461,4294.743652,4320.256348,4306.410156,4294.871582,4513.589844,4509.102539,4395.256348,4446.922852,0.000000,1.000000,30.000000,,,,0.000000,4.000000,4.000000,4.000000,4.000000,4.000000,4.000000,4.000000,4.000000,4.000000,4.000000,4.000000,4.000000,4.000000,4.000000,100.000000,,,,,,,,,,,,,,,,,,,,,,,,,,,,,,,,,,,,,,,,,,,,,,,,,,,,,,,,,,,,,,,,,,,,,,,,,,,,,,,,,,,,,,,,,,,,,,,,,,,,,,,,,,,,,,,,,,,,,
1768373870.380050,1768373870.380969,46.000000,0.000000,4324.615234,4316.538574,4325.641113,4350.000000,4285.641113,4292.051270,4295.384766,4316.794922,4305.000000,4297.948730,4521.153809,4510.769043,4391.666504,4439.230957,0.000000,1.000000,30.000000,,,,0.000000,4.000000,4.000000,4.000000,4.000000,4.000000,4.000000,4.000000,4.000000,4.000000,4.000000,4.000000,4.000000,4.000000,4.000000,100.000000,,,,,,,,,,,,,,,,,,,,,,,,,,,,,,,,,,,,,,,,,,,,,,,,1.809097,0.222492,0.193325,0.207962,0.085711,0.701580,0.308302,0.106507,0.205498,0.077938,1.096517,0.256400,0.344876,0.312502,0.117306,1.102511,0.827683,0.315427,0.286284,0.070952,0.283914,0.122352,0.146110,0.159656,0.060826,0.257823,0.357285,0.466214,0.172583,0.245919,0.432860,0.412851,0.340269,0.110725,0.154307,0.521167,0.288981,0.131038,0.131531,0.100331,0.949140,0.416695,0.182086,0.160122,0.080228,1.591746,0.531605,0.304040,0.414664,0.281686,1.448260,0.755740,0.221366,0.230657,0.133140,2.462596,0.769674,0.202261,0.201690,0.178707,2.093110,0.642285,0.569768,0.252833,0.169932,2.584507,0.557787,0.196266,0.271795,0.118072
1768373870.387859,1768373870.388777,47.000000,0.000000,4323.077148,4311.794922,4321.794922,4347.307617,4289.230957,4294.230957,4297.051270,4310.897461,4300.000000,4293.717773,4518.974121,4508.205078,4389.871582,4436.666504,0.000000,1.000000,30.000000,,,,0.000000,4.000000,4.000000,4.000000,4.000000,4.000000,4.000000,4.000000,4.000000,4.000000,4.000000,4.000000,4.000000,4.000000,4.000000,100.000000,,,,,,,,,,,,,,,,,,,,,,,,,,,,,,,,,,,,,,,,,,,,,,,,,,,,,,,,,,,,,,,,,,,,,,,,,,,,,,,,,,,,,,,,,,,,,,,,,,,,,,,,,,,,,,,,,,,,,
1768373870.395667,1768373870.396386,48.000000,0.000000,4325.384766,4319.615234,4322.051270,4355.256348,4291.025879,4291.666504,4291.794922,4308.077148,4304.358887,4294.871582,4517.820313,4504.102539,4393.717773,4442.820313,0.000000,1.000000,30.000000,,,,0.000000,4.000000,4.000000,4.000000,4.000000,4.000000,4.000000,4.000000,4.000000,4.000000,4.000000,4.000000,4.000000,4.000000,4.000000,100.000000,,,,,,,,,,,,,,,,,,,,,,,,,,,,,,,,,,,,,,,,,,,,,,,,,,,,,,,,,,,,,,,,,,,,,,,,,,,,,,,,,,,,,,,,,,,,,,,,,,,,,,,,,,,,,,,,,,,,,
1768373870.403476,1768373870.404194,49.000000,0.000000,4327.051270,4329.358887,4324.615234,4361.794922,4291.025879,4293.589844,4298.589844,4309.358887,4307.948730,4296.794922,4522.820313,4506.666504,4397.179688,4445.384766,0.000000,1.000000,30.000000,,,,0.000000,4.000000,4.000000,4.000000,4.000000,4.000000,4.000000,4.000000,4.000000,4.000000,4.000000,4.000000,4.000000,4.000000,4.000000,100.000000,,,,,,,,,,,,,,,,,,,,,,,,,,,,,,,,,,,,,,,,,,,,,,,,,,,,,,,,,,,,,,,,,,,,,,,,,,,,,,,,,,,,,,,,,,,,,,,,,,,,,,,,,,,,,,,,,,,,,
1768373870.411284,1768373870.411903,50.000000,0.000000,4326.410156,4323.846191,4326.025879,4356.153809,4289.743652,4297.692383,4305.769043,4310.384766,4303.974121,4293.077148,4518.589844,4506.922852,4395.256348,4443.589844,0.000000,1.000000,30.000000,,,,0.000000,4.000000,4.000000,4.000000,4.000000,4.000000,4.000000,4.000000,4.000000,4.000000,4.000000,4.000000,4.000000,4.000000,4.000000,100.000000,,,,,,,,,,,,,,,,,,,,,,,,,,,,,,,,,,,,,,,,,,,,,,,,,,,,,,,,,,,,,,,,,,,,,,,,,,,,,,,,,,,,,,,,,,,,,,,,,,,,,,,,,,,,,,,,,,,,,
1768373870.419093,1768373870.419711,51.000000,0.000000,4325.897461,4315.769043,4326.025879,4346.025879,4287.820313,4294.487305,4296.282227,4309.743652,4305.256348,4293.974121,4508.589844,4502.563965,4389.743652,4442.820313,0.000000,1.000000,30.000000,,,,0.000000,4.000000,4.000000,4.000000,4.000000,4.000000,4.000000,4.000000,4.000000,4.000000,4.000000,4.000000,4.000000,4.000000,4.000000,100.000000,,,,,,,,,,,,,,,,,,,,,,,,,,,,,,,,,,,,,,,,,,,,,,,,,,,,,,,,,,,,,,,,,,,,,,,,,,,,,,,,,,,,,,,,,,,,,,,,,,,,,,,,,,,,,,,,,,,,,
1768373870.426901,1768373870.427719,52.000000,0.000000,4327.563965,4321.025879,4322.179688,4349.615234,4287.179688,4292.563965,4292.051270,4312.179688,4309.487305,4295.769043,4507.436035,4498.077148,4384.102539,4436.282227,0.000000,1.000000,30.000000,,,,0.000000,4.000000,4.000000,4.000000,4.000000,4.000000,4.000000,4.000000,4.000000,4.000000,4.000000,4.000000,4.000000,4.000000,4.000000,100.000000,,,,,,,,,,,,,,,,,,,,,,,,,,,,,,,,,,,,,,,,,,,,,,,,,,,,,,,,,,,,,,,,,,,,,,,,,,,,,,,,,,,,,,,,,,,,,,,,,,,,,,,,,,,,,,,,,,,,,
1768373870.434709,1768373870.435528,53.000000,0.000000,4326.410156,4323.461426,4318.461426,4354.615234,4290.384766,4294.871582,4299.743652,4314.102539,4308.846191,4294.487305,4510.384766,4494.743652,4383.333496,4429.102539,0.000000,1.000000,30.000000,,,,0.000000,4.000000,4.000000,4.000000,4.000000,4.000000,4.000000,4.000000,4.000000,4.000000,4.000000,4.000000,4.000000,4.000000,4.000000,100.000000,,,,,,,,,,,,,,,,,,,,,,,,,,,,,,,,,,,,,,,,,,,,,,,,,,,,,,,,,,,,,,,,,,,,,,,,,,,,,,,,,,,,,,,,,,,,,,,,,,,,,,,,,,,,,,,,,,,,,
1768373870.442518,1768373870.443236,54.000000,0.000000,4322.692383,4315.641113,4322.179688,4350.769043,4291.922852,4295.000000,4304.102539,4311.282227,4308.205078,4294.743652,4511.410156,4495.769043,4382.692383,4436.666504,0.000000,1.000000,30.000000,,,,0.000000,4.000000,4.000000,4.000000,4.000000,4.000000,4.000000,4.000000,4.000000,4.000000,4.000000,4.000000,4.000000,4.000000,4.000000,100.000000,,,,,,,,,,,,,,,,,,,,,,,,,,,,,,,,,,,,,,,,,,,,,,,,,,,,,,,,,,,,,,,,,,,,,,,,,,,,,,,,,,,,,,,,,,,,,,,,,,,,,,,,,,,,,,,,,,,,,
1768373870.450326,1768373870.451045,55.000000,0.000000,4323.077148,4315.256348,4326.025879,4348.461426,4290.769043,4297.820313,4303.974121,4309.871582,4306.666504,4292.307617,4510.641113,4497.563965,4380.897461,4442.051270,0.000000,1.000000,30.000000,,,,0.000000,4.000000,4.000000,4.000000,4.000000,4.000000,4.000000,4.000000,4.000000,4.000000,4.000000,4.000000,4.000000,4.000000,4.000000,100.000000,,,,,,,,,,,,,,,,,,,,,,,,,,,,,,,,,,,,,,,,,,,,,,,,,,,,,,,,,,,,,,,,,,,,,,,,,,,,,,,,,,,,,,,,,,,,,,,,,,,,,,,,,,,,,,,,,,,,,
1768373870.458135,1768373870.458653,56.000000,0.000000,4324.615234,4320.512695,4326.410156,4351.538574,4290.897461,4303.846191,4305.897461,4312.692383,4304.358887,4288.846191,4508.333496,4499.102539,4380.897461,4433.846191,0.000000,1.000000,30.000000,,,,0.000000,4.000000,4.000000,4.000000,4.000000,4.000000,4.000000,4.000000,4.000000,4.000000,4.000000,4.000000,4.000000,4.000000,4.000000,100.000000,,,,,,,,,,,,,,,,,,,,,,,,,,,,,,,,,,,,,,,,,,,,,,,,,,,,,,,,,,,,,,,,,,,,,,,,,,,,,,,,,,,,,,,,,,,,,,,,,,,,,,,,,,,,,,,,,,,,,
1768373870.465943,1768373870.466462,57.000000,0.000000,4324.358887,4314.487305,4323.846191,4350.256348,4286.538574,4301.922852,4305.384766,4313.461426,4307.179688,4290.769043,4505.256348,4498.717773,4375.897461,4429.230957,0.000000,1.000000,30.000000,,,,0.000000,4.000000,4.000000,4.000000,4.000000,4.000000,4.000000,4.000000,4.000000,4.000000,4.000000,4.000000,4.000000,4.000000,4.000000,100.000000,,,,,,,,,,,,,,,,,,,,,,,,,,,,,,,,,,,,,,,,,,,,,,,,,,,,,,,,,,,,,,,,,,,,,,,,,,,,,,,,,,,,,,,,,,,,,,,,,,,,,,,,,,,,,,,,,,,,,
1768373870.473752,1768373870.474170,58.000000,0.000000,4324.615234,4308.333496,4315.384766,4346.025879,4283.205078,4292.307617,4302.820313,4312.051270,4307.436035,4295.000000,4503.205078,4491.666504,4372.051270,4428.974121,0.000000,1.000000,30.000000,,,,0.000000,4.000000,4.000000,4.000000,4.000000,4.000000,4.000000,4.000000,4.000000,4.000000,4.000000,4.000000,4.000000,4.000000,4.000000,100.000000,,,,,,,,,,,,,,,,,,,,,,,,,,,,,,,,,,,,,,,,,,,,,,,,,,,,,,,,,,,,,,,,,,,,,,,,,,,,,,,,,,,,,,,,,,,,,,,,,,,,,,,,,,,,,,,,,,,,,
1768373870.481560,1768373870.481979,59.000000,0.000000,4324.230957,4311.282227,4313.717773,4345.897461,4289.743652,4293.846191,4303.461426,4309.871582,4300.000000,4288.205078,4503.589844,4481.794922,4375.641113,4427.820313,0.000000,1.000000,30.000000,,,,0.000000,4.000000,4.000000,4.000000,4.000000,4.000000,4.000000,4.000000,4.000000,4.000000,4.000000,4.000000,4.000000,4.000000,4.000000,100.000000,,,,,,,,,,,,,,,,,,,,,,,,,,,,,,,,,,,,,,,,,,,,,,,,,,,,,,,,,,,,,,,,,,,,,,,,,,,,,,,,,,,,,,,,,,,,,,,,,,,,,,,,,,,,,,,,,,,,,
1768373870.489369,1768373870.489987,60.000000,0.000000,4322.563965,4311.410156,4324.230957,4346.410156,4291.538574,4304.358887,4307.948730,4311.666504,4299.102539,4279.230957,4507.436035,4488.461426,4380.128418,4434.615234,0.000000,1.000000,30.000000,,,,0.000000,4.000000,4.000000,4.000000,4.000000,4.000000,4.000000,4.000000,4.000000,4.000000,4.000000,4.000000,4.000000,4.000000,4.000000,100.000000,,,,,,,,,,,,,,,,,,,,,,,,,,,,,,,,,,,,,,,,,,,,,,,,,,,,,,,,,,,,,,,,,,,,,,,,,,,,,,,,,,,,,,,,,,,,,,,,,,,,,,,,,,,,,,,,,,,,,
1768373870.497177,1768373870.497796,61.000000,0.000000,4323.205078,4308.974121,4329.230957,4347.436035,4285.000000,4303.974121,4311.282227,4318.077148,4308.205078,4285.384766,4511.025879,4509.615234,4382.692383,4445.000000,0.000000,1.000000,30.000000,,,,0.000000,4.000000,4.000000,4.000000,4.000000,4.000000,4.000000,4.000000,4.000000,4.000000,4.000000,4.000000,4.000000,4.000000,4.000000,100.000000,,,,,,,,,,,,,,,,,,,,,,,,,,,,,,,,,,,,,,,,,,,,,,,,,,,,,,,,,,,,,,,,,,,,,,,,,,,,,,,,,,,,,,,,,,,,,,,,,,,,,,,,,,,,,,,,,,,,,
1768373870.504985,1768373870.505704,62.000000,0.000000,4323.717773,4308.333496,4325.897461,4345.128418,4280.512695,4297.179688,4307.692383,4318.333496,4311.282227,4297.179688,4510.769043,4517.948730,4383.974121,4444.102539,0.000000,1.000000,30.000000,,,,0.000000,4.000000,4.000000,4.000000,4.000000,4.000000,4.000000,4.000000,4.000000,4.000000,4.000000,4.000000,4.000000,4.000000,4.000000,100.000000,,,,,,,,,,,,,,,,,,,,,,,,,,,,,,,,,,,,,,,,,,,,,,,,1.855883,0.218088,0.224098,0.232474,0.088275,0.854857,0.308015,0.137981,0.218634,0.084870,1.159177,0.291375,0.327083,0.280395,0.118721,0.832121,0.606362,0.249466,0.287603,0.077031,0.347351,0.144065,0.137618,0.166725,0.051460,0.234885,0.333402,0.472822,0.176235,0.289029,0.370552,0.370493,0.363558,0.117151,0.182600,0.501095,0.270971,0.136883,0.129220,0.091906,1.000709,0.453187,0.176522,0.170610,0.087002,1.715061,0.616268,0.266808,0.413844,0.305103,1.463137,0.735450,0.209972,0.224898,0.134583,2.625497,0.834504,0.196055,0.180099,0.172058,1.841509,0.615542,0.628989,0.237955,0.180536,2.731927,0.502713,0.212474,0.266467,0.131113
1768373870.512794,1768373870.513512,63.000000,0.000000,4321.538574,4306.794922,4325.897461,4342.820313,4281.282227,4298.717773,4302.948730,4313.974121,4307.051270,4298.077148,4509.102539,4513.077148,4379.358887,4440.000000,0.000000,1.000000,30.000000,,,,0.000000,4.000000,4.000000,4.000000,4.000000,4.000000,4.000000,4.000000,4.000000,4.000000,4.000000,4.000000,4.000000,4.000000,4.000000,100.000000,,,,,,,,,,,,,,,,,,,,,,,,,,,,,,,,,,,,,,,,,,,,,,,,,,,,,,,,,,,,,,,,,,,,,,,,,,,,,,,,,,,,,,,,,,,,,,,,,,,,,,,,,,,,,,,,,,,,,
1768373870.520602,1768373870.521521,64.000000,0.000000,4326.538574,4308.717773,4325.897461,4348.077148,4286.282227,4306.153809,4307.692383,4314.743652,4303.846191,4286.666504,4510.128418,4511.025879,4374.102539,4442.692383,4071.000000,1.000000,30.000000,,,,0.000000,4.000000,4.000000,4.000000,4.000000,4.000000,4.000000,4.000000,4.000000,4.000000,4.000000,4.000000,4.000000,4.000000,4.000000,100.000000,,,,,,,,,,,,,,,,,,,,,,,,,,,,,,,,,,,,,,,,,,,,,,,,,,,,,,,,,,,,,,,,,,,,,,,,,,,,,,,,,,,,,,,,,,,,,,,,,,,,,,,,,,,,,,,,,,,,,
1768373870.528411,1768373870.529329,65.000000,0.000000,4337.820313,4316.025879,4331.153809,4355.769043,4292.307617,4304.230957,4307.692383,4315.897461,4303.589844,4280.384766,4507.948730,4512.179688,4375.384766,4446.025879,3997.000000,1.000000,30.000000,,,,0.000000,4.000000,4.000000,4.000000,4.000000,4.000000,4.000000,4.000000,4.000000,4.000000,4.000000,4.000000,4.000000,4.000000,4.000000,100.000000,,,,,,,,,,,,,,,,,,,,,,,,,,,,,,,,,,,,,,,,,,,,,,,,,,,,,,,,,,,,,,,,,,,,,,,,,,,,,,,,,,,,,,,,,,,,,,,,,,,,,,,,,,,,,,,,,,,,,
1768373870.536219,1768373870.537237,66.000000,0.000000,4338.333496,4318.205078,4336.794922,4358.333496,4289.230957,4291.538574,4296.410156,4316.153809,4308.333496,4289.871582,4504.230957,4509.358887,4380.000000,4444.871582,3882.000000,1.000000,30.000000,,,,0.000000,4.000000,4.000000,4.000000,4.000000,4.000000,4.000000,4.000000,4.000000,4.000000,4.000000,4.000000,4.000000,4.000000,4.000000,100.000000,,,,,,,,,,,,,,,,,,,,,,,,,,,,,,,,,,,,,,,,,,,,,,,,,,,,,,,,,,,,,,,,,,,,,,,,,,,,,,,,,,,,,,,,,,,,,,,,,,,,,,,,,,,,,,,,,,,,,
1768373870.544028,1768373870.545046,67.000000,0.000000,4330.641113,4313.589844,4330.512695,4353.846191,4286.410156,4289.743652,4294.487305,4317.692383,4312.307617,4299.743652,4513.717773,4510.897461,4382.051270,4446.153809,3892.000000,1.000000,30.000000,,,,0.000000,4.000000,4.000000,4.000000,4.000000,4.000000,4.000000,4.000000,4.000000,4.000000,4.000000,4.000000,4.000000,4.000000,4.000000,100.000000,,,,,,,,,,,,,,,,,,,,,,,,,,,,,,,,,,,,,,,,,,,,,,,,,,,,,,,,,,,,,,,,,,,,,,,,,,,,,,,,,,,,,,,,,,,,,,,,,,,,,,,,,,,,,,,,,,,,,
1768373870.551836,1768373870.552655,68.000000,0.000000,4330.384766,4312.948730,4327.948730,4352.692383,4290.897461,4299.615234,4304.230957,4315.128418,4310.384766,4297.179688,4525.897461,4517.179688,4382.307617,4451.538574,3819.000000,1.000000,30.000000,,,,0.000000,4.000000,4.000000,4.000000,4.000000,4.000000,4.000000,4.000000,4.000000,4.000000,4.000000,4.000000,4.000000,4.000000,4.000000,100.000000,,,,,,,,,,,,,,,,,,,,,,,,,,,,,,,,,,,,,,,,,,,,,,,,,,,,,,,,,,,,,,,,,,,,,,,,,,,,,,,,,,,,,,,,,,,,,,,,,,,,,,,,,,,,,,,,,,,,,
1768373870.559645,1768373870.560463,69.000000,0.000000,4335.384766,4317.820313,4335.000000,4357.436035,4292.563965,4300.512695,4307.307617,4313.461426,4309.743652,4292.307617,4516.282227,4515.256348,4382.948730,4450.512695,3759.000000,1.000000,30.000000,,,,0.000000,4.000000,4.000000,4.000000,4.000000,4.000000,4.000000,4.000000,4.000000,4.000000,4.000000,4.000000,4.000000,4.000000,4.000000,100.000000,,,,,,,,,,,,,,,,,,,,,,,,,,,,,,,,,,,,,,,,,,,,,,,,,,,,,,,,,,,,,,,,,,,,,,,,,,,,,,,,,,,,,,,,,,,,,,,,,,,,,,,,,,,,,,,,,,,,,
1768373870.567453,1768373870.568271,70.000000,0.000000,4336.282227,4320.128418,4336.538574,4359.871582,4291.025879,4298.717773,4306.666504,4318.974121,4311.025879,4296.666504,4506.153809,4511.410156,4386.538574,4445.256348,3772.000000,1.000000,30.000000,,,,0.000000,4.000000,4.000000,4.000000,4.000000,4.000000,4.000000,4.000000,4.000000,4.000000,4.000000,4.000000,4.000000,4.000000,4.000000,100.000000,,,,,,,,,,,,,,,,,,,,,,,,,,,,,,,,,,,,,,,,,,,,,,,,,,,,,,,,,,,,,,,,,,,,,,,,,,,,,,,,,,,,,,,,,,,,,,,,,,,,,,,,,,,,,,,,,,,,,
1768373870.575261,1768373870.576080,71.000000,0.000000,4333.589844,4317.051270,4333.717773,4358.589844,4291.666504,4304.871582,4309.871582,4320.384766,4309.615234,4295.897461,4515.512695,4510.128418,4386.922852,4447.307617,3570.000000,1.000000,30.000000,,,,0.000000,4.000000,4.000000,4.000000,4.000000,4.000000,4.000000,4.000000,4.000000,4.000000,4.000000,4.000000,4.000000,4.000000,4.000000,100.000000,,,,,,,,,,,,,,,,,,,,,,,,,,,,,,,,,,,,,,,,,,,,,,,,,,,,,,,,,,,,,,,,,,,,,,,,,,,,,,,,,,,,,,,,,,,,,,,,,,,,,,,,,,,,,,,,,,,,,
1768373870.583070,1768373870.583689,72.000000,0.000000,4330.641113,4312.051270,4332.948730,4356.794922,4290.256348,4305.000000,4308.717773,4316.410156,4307.563965,4287.436035,4516.922852,4507.563965,4380.769043,4445.384766,3974.000000,1.000000,30.000000,,,,0.000000,4.000000,4.000000,4.000000,4.000000,4.000000,4.000000,4.000000,4.000000,4.000000,4.000000,4.000000,4.000000,4.000000,4.000000,100.000000,,,,,,,,,,,,,,,,,,,,,,,,,,,,,,,,,,,,,,,,,,,,,,,,,,,,,,,,,,,,,,,,,,,,,,,,,,,,,,,,,,,,,,,,,,,,,,,,,,,,,,,,,,,,,,,,,,,,,
1768373870.590878,1768373870.591497,73.000000,0.000000,4324.871582,4307.948730,4329.102539,4354.102539,4286.025879,4302.563965,4305.256348,4314.487305,4306.794922,4287.307617,4503.846191,4501.794922,4370.128418,4431.282227,3956.000000,1.000000,30.000000,,,,0.000000,4.000000,4.000000,4.000000,4.000000,4.000000,4.000000,4.000000,4.000000,4.000000,4.000000,4.000000,4.000000,4.000000,4.000000,100.000000,,,,,,,,,,,,,,,,,,,,,,,,,,,,,,,,,,,,,,,,,,,,,,,,,,,,,,,,,,,,,,,,,,,,,,,,,,,,,,,,,,,,,,,,,,,,,,,,,,,,,,,,,,,,,,,,,,,,,
1768373870.598687,1768373870.599206,74.000000,0.000000,4320.641113,4310.641113,4326.794922,4353.077148,4285.897461,4304.615234,4304.358887,4313.333496,4308.589844,4294.743652,4501.410156,4500.512695,4361.794922,4423.589844,4405.000000,1.000000,30.000000,,,,0.000000,4.000000,4.000000,4.000000,4.000000,4.000000,4.000000,4.000000,4.000000,4.000000,4.000000,4.000000,4.000000,4.000000,4.000000,100.000000,,,,,,,,,,,,,,,,,,,,,,,,,,,,,,,,,,,,,,,,,,,,,,,,,,,,,,,,,,,,,,,,,,,,,,,,,,,,,,,,,,,,,,,,,,,,,,,,,,,,,,,,,,,,,,,,,,,,,
1768373870.606495,1768373870.607014,75.000000,0.000000,4322.563965,4313.205078,4327.179688,4355.256348,4289.102539,4299.871582,4299.358887,4313.589844,4312.563965,4296.538574,4506.153809,4503.717773,4363.205078,4427.563965,4676.000000,1.000000,30.000000,,,,0.000000,4.000000,4.000000,4.000000,4.000000,4.000000,4.000000,4.000000,4.000000,4.000000,4.000000,4.000000,4.000000,4.000000,4.000000,100.000000,,,,,,,,,,,,,,,,,,,,,,,,,,,,,,,,,,,,,,,,,,,,,,,,,,,,,,,,,,,,,,,,,,,,,,,,,,,,,,,,,,,,,,,,,,,,,,,,,,,,,,,,,,,,,,,,,,,,,
1768373870.614304,1768373870.614623,76.000000,0.000000,4323.205078,4306.794922,4323.717773,4352.820313,4288.974121,4295.897461,4293.205078,4313.589844,4313.717773,4291.538574,4503.974121,4504.615234,4367.436035,4427.948730,5003.000000,1.000000,30.000000,,,,0.000000,4.000000,4.000000,4.000000,4.000000,4.000000,4.000000,4.000000,4.000000,4.000000,4.000000,4.000000,4.000000,4.000000,4.000000,100.000000,,,,,,,,,,,,,,,,,,,,,,,,,,,,,,,,,,,,,,,,,,,,,,,,,,,,,,,,,,,,,,,,,,,,,,,,,,,,,,,,,,,,,,,,,,,,,,,,,,,,,,,,,,,,,,,,,,,,,
1768373870.622112,1768373870.622431,77.000000,0.000000,4323.077148,4306.025879,4328.077148,4351.025879,4287.692383,4302.179688,4297.051270,4314.487305,4313.717773,4295.512695,4502.179688,4507.563965,4369.743652,4429.615234,5365.000000,1.000000,30.000000,,,,0.000000,4.000000,4.000000,4.000000,4.000000,4.000000,4.000000,4.000000,4.000000,4.000000,4.000000,4.000000,4.000000,4.000000,4.000000,100.000000,,,,,,,,,,,,,,,,,,,,,,,,,,,,,,,,,,,,,,,,,,,,,,,,,,,,,,,,,,,,,,,,,,,,,,,,,,,,,,,,,,,,,,,,,,,,,,,,,,,,,,,,,,,,,,,,,,,,,
1768373870.629921,1768373870.630339,78.000000,0.000000,4331.410156,4316.538574,4341.410156,4357.820313,4289.230957,4307.307617,4307.820313,4320.512695,4316.666504,4309.615234,4508.333496,4517.179688,4377.179688,4440.641113,4405.000000,1.000000,30.000000,,,,0.000000,4.000000,4.000000,4.000000,4.000000,4.000000,4.000000,4.000000,4.000000,4.000000,4.000000,4.000000,4.000000,4.000000,4.000000,100.000000,1.000000,100.000000,4.000000,4.000000,4.000000,4.000000,4.000000,4.000000,4.000000,4.000000,4.000000,4.000000,4.000000,4.000000,4.000000,4.000000,,,,,,,,,,,,,,,,,,,,,,,,,,,,,,,,1.770410,0.230283,0.288548,0.270759,0.088658,0.935638,0.312635,0.180499,0.226546,0.095335,1.130729,0.303248,0.305917,0.234942,0.123591,0.593524,0.390338,0.203722,0.272997,0.084756,0.398893,0.183312,0.121507,0.163866,0.044909,0.205022,0.308799,0.442662,0.181468,0.325356,0.316459,0.338562,0.380684,0.121756,0.209716,0.448563,0.233934,0.132264,0.117850,0.085210,0.962430,0.464286,0.155885,0.170484,0.098770,1.667346,0.684025,0.225201,0.418254,0.328495,1.387777,0.688920,0.193499,0.216109,0.137893,2.572874,0.827851,0.192431,0.163797,0.165602,1.543077,0.588810,0.654387,0.235097,0.196309,2.668032,0.442002,0.251830,0.283797,0.155544
1768373870.637729,1768373870.638148,79.000000,0.000000,4337.436035,4318.333496,4344.487305,4359.615234,4294.102539,4308.461426,4311.922852,4324.102539,4315.769043,4310.512695,4517.436035,4521.794922,4381.666504,4446.794922,4676.000000,1.000000,30.000000,,,,0.000000,4.000000,4.000000,4.000000,4.000000,4.000000,4.000000,4.000000,4.000000,4.000000,4.000000,4.000000,4.000000,4.000000,4.000000,100.000000,,,,,,,,,,,,,,,,,,,,,,,,,,,,,,,,,,,,,,,,,,,,,,,,,,,,,,,,,,,,,,,,,,,,,,,,,,,,,,,,,,,,,,,,,,,,,,,,,,,,,,,,,,,,,,,,,,,,,
1768373870.645538,1768373870.646156,80.000000,0.000000,4332.563965,4313.461426,4339.358887,4356.153809,4295.769043,4307.820313,4310.256348,4321.153809,4310.000000,4298.846191,4523.333496,4520.384766,4380.769043,4444.230957,5003.000000,1.000000,30.000000,,,,0.000000,4.000000,4.000000,4.000000,4.000000,4.000000,4.000000,4.000000,4.000000,4.000000,4.000000,4.000000,4.000000,4.000000,4.000000,100.000000,,,,,,,,,,,,,,,,,,,,,,,,,,,,,,,,,,,,,,,,,,,,,,,,,,,,,,,,,,,,,,,,,,,,,,,,,,,,,,,,,,,,,,,,,,,,,,,,,,,,,,,,,,,,,,,,,,,,,
1768373870.653346,1768373870.653965,81.000000,0.000000,4335.256348,4319.230957,4341.922852,4361.410156,4296.282227,4302.948730,4307.436035,4321.153809,4313.461426,4297.948730,4523.589844,4525.897461,4387.307617,4451.410156,5365.000000,1.000000,30.000000,,,,0.000000,4.000000,4.000000,4.000000,4.000000,4.000000,4.000000,4.000000,4.000000,4.000000,4.000000,4.000000,4.000000,4.000000,4.000000,100.000000,,,,,,,,,,,,,,,,,,,,,,,,,,,,,,,,,,,,,,,,,,,,,,,,,,,,,,,,,,,,,,,,,,,,,,,,,,,,,,,,,,,,,,,,,,,,,,,,,,,,,,,,,,,,,,,,,,,,,
1768373870.661154,1768373870.661673,82.000000,0.000000,4343.974121,4322.051270,4344.358887,4365.769043,4300.256348,4308.974121,4310.384766,4326.794922,4319.615234,4300.128418,4522.307617,4531.153809,4388.974121,4461.922852,4405.000000,1.000000,30.000000,,,,0.000000,4.000000,4.000000,4.000000,4.000000,4.000000,4.000000,4.000000,4.000000,4.000000,4.000000,4.000000,4.000000,4.000000,4.000000,100.000000,,,,,,,,,,,,,,,,,,,,,,,,,,,,,,,,,,,,,,,,,,,,,,,,,,,,,,,,,,,,,,,,,,,,,,,,,,,,,,,,,,,,,,,,,,,,,,,,,,,,,,,,,,,,,,,,,,,,,
1768373870.668963,1768373870.669482,83.000000,0.000000,4343.846191,4320.128418,4342.563965,4360.000000,4300.897461,4320.384766,4316.153809,4326.794922,4314.743652,4296.025879,4523.717773,4525.512695,4383.205078,4456.153809,4676.000000,1.000000,30.000000,,,,0.000000,4.000000,4.000000,4.000000,4.000000,4.000000,4.000000,4.000000,4.000000,4.000000,4.000000,4.000000,4.000000,4.000000,4.000000,100.000000,,,,,,,,,,,,,,,,,,,,,,,,,,,,,,,,,,,,,,,,,,,,,,,,,,,,,,,,,,,,,,,,,,,,,,,,,,,,,,,,,,,,,,,,,,,,,,,,,,,,,,,,,,,,,,,,,,,,,
1768373870.676771,1768373870.677490,84.000000,0.000000,4342.563965,4322.307617,4345.769043,4359.743652,4299.230957,4307.436035,4306.538574,4318.974121,4309.743652,4302.692383,4526.794922,4521.153809,4391.538574,4449.871582,5003.000000,1.000000,30.000000,,,,0.000000,4.000000,4.000000,4.000000,4.000000,4.000000,4.000000,4.000000,4.000000,4.000000,4.000000,4.000000,4.000000,4.000000,4.000000,100.000000,,,,,,,,,,,,,,,,,,,,,,,,,,,,,,,,,,,,,,,,,,,,,,,,,,,,,,,,,,,,,,,,,,,,,,,,,,,,,,,,,,,,,,,,,,,,,,,,,,,,,,,,,,,,,,,,,,,,,
1768373870.684580,1768373870.685298,85.000000,0.000000,4342.563965,4320.000000,4348.333496,4365.769043,4301.282227,4295.000000,4294.230957,4316.922852,4313.205078,4305.384766,4520.512695,4519.487305,4394.358887,4453.333496,5365.000000,1.000000,30.000000,,,,0.000000,4.000000,4.000000,4.000000,4.000000,4.000000,4.000000,4.000000,4.000000,4.000000,4.000000,4.000000,4.000000,4.000000,4.000000,100.000000,,,,,,,,,,,,,,,,,,,,,,,,,,,,,,,,,,,,,,,,,,,,,,,,,,,,,,,,,,,,,,,,,,,,,,,,,,,,,,,,,,,,,,,,,,,,,,,,,,,,,,,,,,,,,,,,,,,,,
1768373870.692388,1768373870.693207,86.000000,0.000000,4338.077148,4312.948730,4344.358887,4365.000000,4302.563965,4309.871582,4305.512695,4323.461426,4317.692383,4293.333496,4513.205078,4517.563965,4379.230957,4456.025879,4405.000000,1.000000,30.000000,,,,0.000000,4.000000,4.000000,4.000000,4.000000,4.000000,4.000000,4.000000,4.000000,4.000000,4.000000,4.000000,4.000000,4.000000,4.000000,100.000000,,,,,,,,,,,,,,,,,,,,,,,,,,,,,,,,,,,,,,,,,,,,,,,,,,,,,,,,,,,,,,,,,,,,,,,,,,,,,,,,,,,,,,,,,,,,,,,,,,,,,,,,,,,,,,,,,,,,,
1768373870.700197,1768373870.701015,87.000000,0.000000,4337.563965,4316.922852,4341.794922,4362.436035,4299.230957,4317.820313,4315.897461,4324.487305,4317.436035,4290.641113,4519.230957,4519.230957,4379.487305,4457.563965,4676.000000,1.000000,30.000000,,,,0.000000,4.000000,4.000000,4.000000,4.000000,4.000000,4.000000,4.000000,4.000000,4.000000,4.000000,4.000000,4.000000,4.000000,4.000000,100.000000,,,,,,,,,,,,,,,,,,,,,,,,,,,,,,,,,,,,,,,,,,,,,,,,,,,,,,,,,,,,,,,,,,,,,,,,,,,,,,,,,,,,,,,,,,,,,,,,,,,,,,,,,,,,,,,,,,,,,
1768373870.708005,1768373870.709023,88.000000,0.000000,4341.794922,4326.025879,4343.077148,4363.461426,4299.358887,4303.974121,4305.384766,4318.461426,4312.820313,4303.205078,4526.282227,4518.846191,4397.436035,4461.410156,5003.000000,1.000000,30.000000,,,,0.000000,4.000000,4.000000,4.000000,4.000000,4.000000,4.000000,4.000000,4.000000,4.000000,4.000000,4.000000,4.000000,4.000000,4.000000,100.000000,,,,,,,,,,,,,,,,,,,,,,,,,,,,,,,,,,,,,,,,,,,,,,,,,,,,,,,,,,,,,,,,,,,,,,,,,,,,,,,,,,,,,,,,,,,,,,,,,,,,,,,,,,,,,,,,,,,,,
1768373870.715814,1768373870.716832,89.000000,0.000000,4342.692383,4323.717773,4346.794922,4364.615234,4303.077148,4303.717773,4304.871582,4317.820313,4309.615234,4304.743652,4522.820313,4518.589844,4400.769043,4462.307617,5365.000000,1.000000,30.000000,,,,0.000000,4.000000,4.000000,4.000000,4.000000,4.000000,4.000000,4.000000,4.000000,4.000000,4.000000,4.000000,4.000000,4.000000,4.000000,100.000000,,,,,,,,,,,,,,,,,,,,,,,,,,,,,,,,,,,,,,,,,,,,,,,,,,,,,,,,,,,,,,,,,,,,,,,,,,,,,,,,,,,,,,,,,,,,,,,,,,,,,,,,,,,,,,,,,,,,,
1768373870.723622,1768373870.724740,90.000000,0.000000,4339.743652,4315.769043,4349.230957,4361.922852,4301.666504,4314.871582,4313.846191,4320.641113,4312.307617,4300.256348,4520.384766,4524.615234,4391.922852,4455.769043,4405.000000,1.000000,30.000000,,,,0.000000,4.000000,4.000000,4.000000,4.000000,4.000000,4.000000,4.000000,4.000000,4.000000,4.000000,4.000000,4.000000,4.000000,4.000000,100.000000,,,,,,,,,,,,,,,,,,,,,,,,,,,,,,,,,,,,,,,,,,,,,,,,,,,,,,,,,,,,,,,,,,,,,,,,,,,,,,,,,,,,,,,,,,,,,,,,,,,,,,,,,,,,,,,,,,,,,
1768373870.731430,1768373870.732549,91.000000,0.000000,4337.436035,4314.871582,4346.538574,4356.794922,4298.589844,4308.077148,4305.897461,4321.153809,4316.410156,4302.948730,4523.717773,4525.256348,4389.230957,4448.846191,4676.000000,1.000000,30.000000,,,,0.000000,4.000000,4.000000,4.000000,4.000000,4.000000,4.000000,4.000000,4.000000,4.000000,4.000000,4.000000,4.000000,4.000000,4.000000,100.000000,,,,,,,,,,,,,,,,,,,,,,,,,,,,,,,,,,,,,,,,,,,,,,,,,,,,,,,,,,,,,,,,,,,,,,,,,,,,,,,,,,,,,,,,,,,,,,,,,,,,,,,,,,,,,,,,,,,,,
1768373870.739239,1768373870.740557,92.000000,0.000000,4334.358887,4316.538574,4341.922852,4354.230957,4300.000000,4303.333496,4300.769043,4321.410156,4315.897461,4298.589844,4519.871582,4519.487305,4384.102539,4443.717773,5003.000000,1.000000,30.000000,,,,0.000000,4.000000,4.000000,4.000000,4.000000,4.000000,4.000000,4.000000,4.000000,4.000000,4.000000,4.000000,4.000000,4.000000,4.000000,100.000000,,,,,,,,,,,,,,,,,,,,,,,,,,,,,,,,,,,,,,,,,,,,,,,,,,,,,,,,,,,,,,,,,,,,,,,,,,,,,,,,,,,,,,,,,,,,,,,,,,,,,,,,,,,,,,,,,,,,,
1768373870.747047,1768373870.748365,93.000000,0.000000,4327.948730,4313.205078,4335.256348,4352.692383,4297.436035,4308.589844,4304.871582,4318.077148,4311.025879,4291.153809,4510.128418,4514.230957,4373.077148,4441.282227,5365.000000,1.000000,30.000000,,,,0.000000,4.000000,4.000000,4.000000,4.000000,4.000000,4.000000,4.000000,4.000000,4.000000,4.000000,4.000000,4.000000,4.000000,4.000000,100.000000,,,,,,,,,,,,,,,,,,,,,,,,,,,,,,,,,,,,,,,,,,,,,,,,,,,,,,,,,,,,,,,,,,,,,,,,,,,,,,,,,,,,,,,,,,,,,,,,,,,,,,,,,,,,,,,,,,,,,
1768373870.754856,1768373870.756074,94.000000,0.000000,4322.051270,4314.230957,4333.205078,4351.410156,4294.230957,4302.820313,4300.512695,4316.538574,4306.922852,4294.487305,4506.538574,4511.282227,4373.461426,4443.205078,4405.000000,1.000000,30.000000,,,,0.000000,4.000000,4.000000,4.000000,4.000000,4.000000,4.000000,4.000000,4.000000,4.000000,4.000000,4.000000,4.000000,4.000000,4.000000,100.000000,,,,,,,,,,,,,,,,,,,,,,,,,,,,,,,,,,,,,,,,,,,,,,,,1.554603,0.254597,0.372091,0.316565,0.086454,0.941261,0.330643,0.223957,0.227089,0.107581,1.032207,0.288681,0.293893,0.192811,0.133250,0.447930,0.235811,0.189205,0.244909,0.093749,0.421376,0.242042,0.102273,0.153520,0.041809,0.176035,0.295188,0.384679,0.185313,0.350431,0.286878,0.331486,0.384616,0.124152,0.230318,0.381343,0.181687,0.118949,0.099685,0.082864,0.831148,0.442364,0.127764,0.159591,0.114438,1.436767,0.716084,0.187422,0.430779,0.347332,1.219314,0.617776,0.179261,0.208640,0.144111,2.313000,0.745416,0.200597,0.165113,0.163015,1.265566,0.562104,0.642582,0.242824,0.211117,2.395489,0.371093,0.307187,0.322716,0.188663
1768373870.762664,1768373870.763882,95.000000,0.000000,4320.384766,4321.666504,4339.358887,4352.307617,4294.615234,4296.666504,4297.692383,4320.512695,4308.589844,4299.230957,4510.000000,4512.051270,4382.563965,4442.563965,4676.000000,1.000000,30.000000,,,,0.000000,4.000000,4.000000,4.000000,4.000000,4.000000,4.000000,4.000000,4.000000,4.000000,4.000000,4.000000,4.000000,4.000000,4.000000,100.000000,,,,,,,,,,,,,,,,,,,,,,,,,,,,,,,,,,,,,,,,,,,,,,,,,,,,,,,,,,,,,,,,,,,,,,,,,,,,,,,,,,,,,,,,,,,,,,,,,,,,,,,,,,,,,,,,,,,,,
1768373870.770472,1768373870.771491,96.000000,0.000000,4318.589844,4322.179688,4337.692383,4348.846191,4292.948730,4303.717773,4303.205078,4318.205078,4308.846191,4296.794922,4509.487305,4510.000000,4378.077148,4433.077148,5003.000000,1.000000,30.000000,,,,0.000000,4.000000,4.000000,4.000000,4.000000,4.000000,4.000000,4.000000,4.000000,4.000000,4.000000,4.000000,4.000000,4.000000,4.000000,100.000000,,,,,,,,,,,,,,,,,,,,,,,,,,,,,,,,,,,,,,,,,,,,,,,,,,,,,,,,,,,,,,,,,,,,,,,,,,,,,,,,,,,,,,,,,,,,,,,,,,,,,,,,,,,,,,,,,,,,,
1768373870.778281,1768373870.779299,97.000000,0.000000,4320.512695,4322.436035,4330.256348,4346.794922,4292.563965,4309.487305,4303.717773,4312.436035,4301.153809,4288.461426,4504.743652,4501.538574,4369.487305,4426.922852,5365.000000,1.000000,30.000000,,,,0.000000,4.000000,4.000000,4.000000,4.000000,4.000000,4.000000,4.000000,4.000000,4.000000,4.000000,4.000000,4.000000,4.000000,4.000000,100.000000,,,,,,,,,,,,,,,,,,,,,,,,,,,,,,,,,,,,,,,,,,,,,,,,,,,,,,,,,,,,,,,,,,,,,,,,,,,,,,,,,,,,,,,,,,,,,,,,,,,,,,,,,,,,,,,,,,,,,
1768373870.786089,1768373870.787008,98.000000,0.000000,4326.025879,4329.871582,4337.820313,4355.641113,4293.974121,4306.666504,4303.717773,4315.256348,4295.256348,4281.282227,4506.282227,4502.051270,4370.769043,4433.846191,4405.000000,1.000000,30.000000,,,,0.000000,4.000000,4.000000,4.000000,4.000000,4.000000,4.000000,4.000000,4.000000,4.000000,4.000000,4.000000,4.000000,4.000000,4.000000,100.000000,,,,,,,,,,,,,,,,,,,,,,,,,,,,,,,,,,,,,,,,,,,,,,,,,,,,,,,,,,,,,,,,,,,,,,,,,,,,,,,,,,,,,,,,,,,,,,,,,,,,,,,,,,,,,,,,,,,,,
1768373870.793898,1768373870.794816,99.000000,0.000000,4327.820313,4332.307617,4345.128418,4360.769043,4294.743652,4307.563965,4308.589844,4318.333496,4295.512695,4284.230957,4509.743652,4511.410156,4370.897461,4434.743652,4676.000000,1.000000,30.000000,,,,0.000000,4.000000,4.000000,4.000000,4.000000,4.000000,4.000000,4.000000,4.000000,4.000000,4.000000,4.000000,4.000000,4.000000,4.000000,100.000000,,,,,,,,,,,,,,,,,,,,,,,,,,,,,,,,,,,,,,,,,,,,,,,,,,,,,,,,,,,,,,,,,,,,,,,,,,,,,,,,,,,,,,,,,,,,,,,,,,,,,,,,,,,,,,,,,,,,,
1768373870.801706,1768373870.802425,100.000000,0.000000,4321.794922,4327.436035,4331.025879,4352.820313,4296.153809,4310.512695,4308.205078,4314.102539,4294.230957,4288.717773,4504.102539,4504.102539,4365.128418,4419.615234,5003.000000,1.000000,30.000000,,,,0.000000,4.000000,4.000000,4.000000,4.000000,4.000000,4.000000,4.000000,4.000000,4.000000,4.000000,4.000000,4.000000,4.000000,4.000000,100.000000,,,,,,,,,,,,,,,,,,,,,,,,,,,,,,,,,,,,,,,,,,,,,,,,,,,,,,,,,,,,,,,,,,,,,,,,,,,,,,,,,,,,,,,,,,,,,,,,,,,,,,,,,,,,,,,,,,,,,
1768373870.809515,1768373870.810233,101.000000,0.000000,4316.922852,4323.717773,4321.538574,4349.358887,4297.436035,4308.974121,4305.769043,4310.641113,4291.794922,4281.922852,4499.743652,4492.820313,4361.666504,4412.820313,5365.000000,1.000000,30.000000,,,,0.000000,4.000000,4.000000,4.000000,4.000000,4.000000,4.000000,4.000000,4.000000,4.000000,4.000000,4.000000,4.000000,4.000000,4.000000,100.000000,,,,,,,,,,,,,,,,,,,,,,,,,,,,,,,,,,,,,,,,,,,,,,,,,,,,,,,,,,,,,,,,,,,,,,,,,,,,,,,,,,,,,,,,,,,,,,,,,,,,,,,,,,,,,,,,,,,,,
1768373870.817323,1768373870.817942,102.000000,0.000000,4321.794922,4326.410156,4335.000000,4357.948730,4298.461426,4311.025879,4308.333496,4315.384766,4292.436035,4282.179688,4511.025879,4501.794922,4369.230957,4422.563965,4405.000000,1.000000,30.000000,,,,0.000000,4.000000,4.000000,4.000000,4.000000,4.000000,4.000000,4.000000,4.000000,4.000000,4.000000,4.000000,4.000000,4.000000,4.000000,100.000000,,,,,,,,,,,,,,,,,,,,,,,,,,,,,,,,,,,,,,,,,,,,,,,,,,,,,,,,,,,,,,,,,,,,,,,,,,,,,,,,,,,,,,,,,,,,,,,,,,,,,,,,,,,,,,,,,,,,,
1768373870.825132,1768373870.825750,103.000000,0.000000,4327.179688,4330.384766,4344.358887,4360.384766,4297.179688,4312.820313,4309.487305,4323.333496,4298.333496,4298.846191,4519.871582,4512.436035,4379.487305,4430.897461,4676.000000,1.000000,30.000000,,,,0.000000,4.000000,4.000000,4.000000,4.000000,4.000000,4.000000,4.000000,4.000000,4.000000,4.000000,4.000000,4.000000,4.000000,4.000000,100.000000,,,,,,,,,,,,,,,,,,,,,,,,,,,,,,,,,,,,,,,,,,,,,,,,,,,,,,,,,,,,,,,,,,,,,,,,,,,,,,,,,,,,,,,,,,,,,,,,,,,,,,,,,,,,,,,,,,,,,
1768373870.832940,1768373870.833759,104.000000,0.000000,4327.179688,4328.974121,4338.333496,4354.102539,4293.974121,4306.410156,4304.743652,4322.948730,4305.128418,4306.794922,4516.153809,4510.512695,4380.769043,4434.615234,5003.000000,1.000000,30.000000,,,,0.000000,4.000000,4.000000,4.000000,4.000000,4.000000,4.000000,4.000000,4.000000,4.000000,4.000000,4.000000,4.000000,4.000000,4.000000,100.000000,,,,,,,,,,,,,,,,,,,,,,,,,,,,,,,,,,,,,,,,,,,,,,,,,,,,,,,,,,,,,,,,,,,,,,,,,,,,,,,,,,,,,,,,,,,,,,,,,,,,,,,,,,,,,,,,,,,,,
1768373870.840748,1768373870.841567,105.000000,0.000000,4328.461426,4327.436035,4336.410156,4355.000000,4294.102539,4301.922852,4300.128418,4320.000000,4304.487305,4302.692383,4517.948730,4511.922852,4382.179688,4441.410156,5365.000000,1.000000,30.000000,,,,0.000000,4.000000,4.000000,4.000000,4.000000,4.000000,4.000000,4.000000,4.000000,4.000000,4.000000,4.000000,4.000000,4.000000,4.000000,100.000000,,,,,,,,,,,,,,,,,,,,,,,,,,,,,,,,,,,,,,,,,,,,,,,,,,,,,,,,,,,,,,,,,,,,,,,,,,,,,,,,,,,,,,,,,,,,,,,,,,,,,,,,,,,,,,,,,,,,,
1768373870.848557,1768373870.849475,106.000000,0.000000,4330.000000,4331.025879,4342.051270,4359.230957,4298.589844,4307.307617,4302.563965,4324.102539,4302.051270,4301.282227,4524.743652,4518.461426,4387.692383,4445.384766,4405.000000,1.000000,30.000000,,,,0.000000,4.000000,4.000000,4.000000,4.000000,4.000000,4.000000,4.000000,4.000000,4.000000,4.000000,4.000000,4.000000,4.000000,4.000000,100.000000,,,,,,,,,,,,,,,,,,,,,,,,,,,,,,,,,,,,,,,,,,,,,,,,,,,,,,,,,,,,,,,,,,,,,,,,,,,,,,,,,,,,,,,,,,,,,,,,,,,,,,,,,,,,,,,,,,,,,
1768373870.856365,1768373870.857284,107.000000,0.000000,4327.179688,4333.974121,4343.205078,4358.077148,4299.358887,4311.922852,4308.205078,4323.333496,4302.692383,4297.692383,4525.128418,4517.948730,4387.692383,4443.589844,4676.000000,1.000000,30.000000,,,,0.000000,4.000000,4.000000,4.000000,4.000000,4.000000,4.000000,4.000000,4.000000,4.000000,4.000000,4.000000,4.000000,4.000000,4.000000,100.000000,,,,,,,,,,,,,,,,,,,,,,,,,,,,,,,,,,,,,,,,,,,,,,,,,,,,,,,,,,,,,,,,,,,,,,,,,,,,,,,,,,,,,,,,,,,,,,,,,,,,,,,,,,,,,,,,,,,,,
1768373870.864174,1768373870.864893,108.000000,0.000000,4331.025879,4328.974121,4340.641113,4356.025879,4296.153809,4309.871582,4307.948730,4318.717773,4302.948730,4296.538574,4522.307617,4516.538574,4389.358887,4446.538574,5003.000000,1.000000,30.000000,,,,0.000000,4.000000,4.000000,4.000000,4.000000,4.000000,4.000000,4.000000,4.000000,4.000000,4.000000,4.000000,4.000000,4.000000,4.000000,100.000000,,,,,,,,,,,,,,,,,,,,,,,,,,,,,,,,,,,,,,,,,,,,,,,,,,,,,,,,,,,,,,,,,,,,,,,,,,,,,,,,,,,,,,,,,,,,,,,,,,,,,,,,,,,,,,,,,,,,,
1768373870.871982,1768373870.872701,109.000000,0.000000,4339.358887,4323.974121,4340.512695,4357.563965,4294.743652,4308.205078,4304.102539,4320.256348,4303.846191,4299.743652,4525.641113,4517.692383,4396.922852,4452.820313,5365.000000,1.000000,30.000000,,,,0.000000,4.000000,4.000000,4.000000,4.000000,4.000000,4.000000,4.000000,4.000000,4.000000,4.000000,4.000000,4.000000,4.000000,4.000000,100.000000,,,,,,,,,,,,,,,,,,,,,,,,,,,,,,,,,,,,,,,,,,,,,,,,,,,,,,,,,,,,,,,,,,,,,,,,,,,,,,,,,,,,,,,,,,,,,,,,,,,,,,,,,,,,,,,,,,,,,
1768373870.879791,1768373870.880410,110.000000,0.000000,4338.589844,4326.538574,4342.436035,4358.846191,4294.743652,4308.333496,4305.384766,4320.897461,4302.179688,4302.563965,4530.000000,4518.461426,4399.102539,4456.282227,4405.000000,1.000000,30.000000,,,,0.000000,4.000000,4.000000,4.000000,4.000000,4.000000,4.000000,4.000000,4.000000,4.000000,4.000000,4.000000,4.000000,4.000000,4.000000,100.000000,,,,,,,,,,,,,,,,,,,,,,,,,,,,,,,,,,,,,,,,,,,,,,,,1.274160,0.286160,0.447266,0.357621,0.082460,0.860355,0.368882,0.255235,0.217954,0.120207,0.915002,0.258220,0.294156,0.165995,0.146578,0.386992,0.163300,0.196654,0.208027,0.103229,0.429346,0.310625,0.084404,0.139543,0.042120,0.151408,0.295681,0.318574,0.184050,0.362971,0.292218,0.354178,0.379384,0.125838,0.241562,0.325624,0.125598,0.103736,0.079252,0.085009,0.644241,0.394312,0.099741,0.141793,0.131068,1.097109,0.705306,0.161401,0.449528,0.358638,1.017948,0.540316,0.173997,0.206468,0.153540,1.961007,0.626396,0.231465,0.193569,0.164698,1.043152,0.542116,0.603195,0.256473,0.220385,2.028713,0.305107,0.369660,0.372231,0.223015
1768373870.887599,1768373870.888218,111.000000,0.000000,4335.641113,4327.563965,4343.205078,4357.820313,4296.922852,4307.563965,4308.974121,4318.846191,4299.102539,4304.358887,4530.641113,4520.897461,4399.615234,4458.717773,4676.000000,1.000000,30.000000,,,,0.000000,4.000000,4.000000,4.000000,4.000000,4.000000,4.000000,4.000000,4.000000,4.000000,4.000000,4.000000,4.000000,4.000000,4.000000,100.000000,,,,,,,,,,,,,,,,,,,,,,,,,,,,,,,,,,,,,,,,,,,,,,,,,,,,,,,,,,,,,,,,,,,,,,,,,,,,,,,,,,,,,,,,,,,,,,,,,,,,,,,,,,,,,,,,,,,,,
1768373870.895408,1768373870.896226,112.000000,0.000000,4335.256348,4325.128418,4341.794922,4358.077148,4298.461426,4307.948730,4310.384766,4320.000000,4302.948730,4307.307617,4531.153809,4523.846191,4400.641113,4459.102539,5003.000000,1.000000,30.000000,,,,0.000000,4.000000,4.000000,4.000000,4.000000,4.000000,4.000000,4.000000,4.000000,4.000000,4.000000,4.000000,4.000000,4.000000,4.000000,100.000000,,,,,,,,,,,,,,,,,,,,,,,,,,,,,,,,,,,,,,,,,,,,,,,,,,,,,,,,,,,,,,,,,,,,,,,,,,,,,,,,,,,,,,,,,,,,,,,,,,,,,,,,,,,,,,,,,,,,,
1768373870.903216,1768373870.904035,113.000000,0.000000,4334.358887,4325.769043,4341.666504,4357.820313,4298.333496,4309.358887,4309.615234,4320.000000,4309.230957,4310.256348,4533.974121,4524.102539,4401.538574,4459.487305,5365.000000,1.000000,30.000000,,,,0.000000,4.000000,4.000000,4.000000,4.000000,4.000000,4.000000,4.000000,4.000000,4.000000,4.000000,4.000000,4.000000,4.000000,4.000000,100.000000,,,,,,,,,,,,,,,,,,,,,,,,,,,,,,,,,,,,,,,,,,,,,,,,,,,,,,,,,,,,,,,,,,,,,,,,,,,,,,,,,,,,,,,,,,,,,,,,,,,,,,,,,,,,,,,,,,,,,
1768373870.911024,1768373870.911943,114.000000,0.000000,4333.974121,4327.692383,4342.051270,4357.051270,4297.051270,4309.230957,4308.333496,4319.102539,4306.922852,4309.358887,4536.794922,4525.641113,4408.333496,4459.230957,4405.000000,1.000000,30.000000,,,,0.000000,4.000000,4.000000,4.000000,4.000000,4.000000,4.000000,4.000000,4.000000,4.000000,4.000000,4.000000,4.000000,4.000000,4.000000,100.000000,,,,,,,,,,,,,,,,,,,,,,,,,,,,,,,,,,,,,,,,,,,,,,,,,,,,,,,,,,,,,,,,,,,,,,,,,,,,,,,,,,,,,,,,,,,,,,,,,,,,,,,,,,,,,,,,,,,,,
1768373870.918833,1768373870.919751,115.000000,0.000000,4334.743652,4326.410156,4342.820313,4357.563965,4295.641113,4305.897461,4308.717773,4323.461426,4308.205078,4311.538574,4539.743652,4532.436035,4414.871582,4457.436035,4676.000000,1.000000,30.000000,,,,0.000000,4.000000,4.000000,4.000000,4.000000,4.000000,4.000000,4.000000,4.000000,4.000000,4.000000,4.000000,4.000000,4.000000,4.000000,100.000000,,,,,,,,,,,,,,,,,,,,,,,,,,,,,,,,,,,,,,,,,,,,,,,,,,,,,,,,,,,,,,,,,,,,,,,,,,,,,,,,,,,,,,,,,,,,,,,,,,,,,,,,,,,,,,,,,,,,,
1768373870.926641,1768373870.927760,116.000000,0.000000,4336.153809,4324.487305,4348.333496,4361.794922,4300.641113,4307.820313,4310.641113,4322.051270,4312.948730,4315.256348,4542.179688,4535.512695,4413.461426,4457.692383,5003.000000,1.000000,30.000000,,,,0.000000,4.000000,4.000000,4.000000,4.000000,4.000000,4.000000,4.000000,4.000000,4.000000,4.000000,4.000000,4.000000,4.000000,4.000000,100.000000,,,,,,,,,,,,,,,,,,,,,,,,,,,,,,,,,,,,,,,,,,,,,,,,,,,,,,,,,,,,,,,,,,,,,,,,,,,,,,,,,,,,,,,,,,,,,,,,,,,,,,,,,,,,,,,,,,,,,
1768373870.934450,1768373870.935568,117.000000,0.000000,4337.948730,4325.897461,4350.769043,4363.077148,4306.666504,4315.000000,4311.538574,4314.358887,4308.077148,4310.897461,4539.615234,4530.897461,4409.358887,4457.692383,5365.000000,1.000000,30.000000,,,,0.000000,4.000000,4.000000,4.000000,4.000000,4.000000,4.000000,4.000000,4.000000,4.000000,4.000000,4.000000,4.000000,4.000000,4.000000,100.000000,,,,,,,,,,,,,,,,,,,,,,,,,,,,,,,,,,,,,,,,,,,,,,,,,,,,,,,,,,,,,,,,,,,,,,,,,,,,,,,,,,,,,,,,,,,,,,,,,,,,,,,,,,,,,,,,,,,,,
1768373870.942258,1768373870.943277,118.000000,0.000000,4339.615234,4327.820313,4348.974121,4360.384766,4304.615234,4312.948730,4308.333496,4315.897461,4303.205078,4301.025879,4536.794922,4527.820313,4404.487305,4456.794922,4405.000000,1.000000,30.000000,,,,0.000000,4.000000,4.000000,4.000000,4.000000,4.000000,4.000000,4.000000,4.000000,4.000000,4.000000,4.000000,4.000000,4.000000,4.000000,100.000000,,,,,,,,,,,,,,,,,,,,,,,,,,,,,,,,,,,,,,,,,,,,,,,,,,,,,,,,,,,,,,,,,,,,,,,,,,,,,,,,,,,,,,,,,,,,,,,,,,,,,,,,,,,,,,,,,,,,,
1768373870.950067,1768373870.951085,119.000000,0.000000,4341.025879,4326.538574,4355.128418,4363.333496,4304.871582,4308.077148,4310.384766,4323.077148,4305.256348,4304.230957,4539.487305,4533.461426,4402.820313,4459.871582,4676.000000,1.000000,30.000000,,,,0.000000,4.000000,4.000000,4.000000,4.000000,4.000000,4.000000,4.000000,4.000000,4.000000,4.000000,4.000000,4.000000,4.000000,4.000000,100.000000,,,,,,,,,,,,,,,,,,,,,,,,,,,,,,,,,,,,,,,,,,,,,,,,,,,,,,,,,,,,,,,,,,,,,,,,,,,,,,,,,,,,,,,,,,,,,,,,,,,,,,,,,,,,,,,,,,,,,
1768373870.957875,1768373870.958694,120.000000,0.000000,4342.051270,4325.384766,4358.077148,4364.743652,4305.897461,4311.794922,4315.897461,4324.102539,4309.230957,4316.410156,4539.743652,4537.051270,4408.717773,4461.538574,5003.000000,1.000000,30.000000,,,,0.000000,4.000000,4.000000,4.000000,4.000000,4.000000,4.000000,4.000000,4.000000,4.000000,4.000000,4.000000,4.000000,4.000000,4.000000,100.000000,,,,,,,,,,,,,,,,,,,,,,,,,,,,,,,,,,,,,,,,,,,,,,,,,,,,,,,,,,,,,,,,,,,,,,,,,,,,,,,,,,,,,,,,,,,,,,,,,,,,,,,,,,,,,,,,,,,,,
1768373870.965684,1768373870.966502,121.000000,0.000000,4338.974121,4326.410156,4346.794922,4359.358887,4303.077148,4313.846191,4313.205078,4322.436035,4311.025879,4314.871582,4540.128418,4530.000000,4414.487305,4458.974121,5365.000000,1.000000,30.000000,,,,0.000000,4.000000,4.000000,4.000000,4.000000,4.000000,4.000000,4.000000,4.000000,4.000000,4.000000,4.000000,4.000000,4.000000,4.000000,100.000000,,,,,,,,,,,,,,,,,,,,,,,,,,,,,,,,,,,,,,,,,,,,,,,,,,,,,,,,,,,,,,,,,,,,,,,,,,,,,,,,,,,,,,,,,,,,,,,,,,,,,,,,,,,,,,,,,,,,,
1768373870.973492,1768373870.974211,122.000000,0.000000,4340.641113,4326.666504,4339.358887,4359.487305,4301.025879,4310.512695,4310.000000,4322.948730,4311.666504,4308.974121,4541.538574,4520.769043,4412.820313,4460.128418,4405.000000,1.000000,30.000000,,,,0.000000,4.000000,4.000000,4.000000,4.000000,4.000000,4.000000,4.000000,4.000000,4.000000,4.000000,4.000000,4.000000,4.000000,4.000000,100.000000,,,,,,,,,,,,,,,,,,,,,,,,,,,,,,,,,,,,,,,,,,,,,,,,,,,,,,,,,,,,,,,,,,,,,,,,,,,,,,,,,,,,,,,,,,,,,,,,,,,,,,,,,,,,,,,,,,,,,
1768373870.981300,1768373870.982019,123.000000,0.000000,4342.563965,4325.000000,4343.205078,4363.333496,4299.743652,4308.461426,4308.974121,4321.410156,4310.000000,4304.871582,4535.769043,4517.692383,4406.282227,4459.871582,4676.000000,1.000000,30.000000,,,,0.000000,4.000000,4.000000,4.000000,4.000000,4.000000,4.000000,4.000000,4.000000,4.000000,4.000000,4.000000,4.000000,4.000000,4.000000,100.000000,,,,,,,,,,,,,,,,,,,,,,,,,,,,,,,,,,,,,,,,,,,,,,,,,,,,,,,,,,,,,,,,,,,,,,,,,,,,,,,,,,,,,,,,,,,,,,,,,,,,,,,,,,,,,,,,,,,,,
1768373870.989109,1768373870.989628,124.000000,0.000000,4331.794922,4324.102539,4342.820313,4359.358887,4297.051270,4303.717773,4303.205078,4314.743652,4307.436035,4296.922852,4526.282227,4518.589844,4400.641113,4454.615234,5003.000000,1.000000,30.000000,,,,0.000000,4.000000,4.000000,4.000000,4.000000,4.000000,4.000000,4.000000,4.000000,4.000000,4.000000,4.000000,4.000000,4.000000,4.000000,100.000000,,,,,,,,,,,,,,,,,,,,,,,,,,,,,,,,,,,,,,,,,,,,,,,,,,,,,,,,,,,,,,,,,,,,,,,,,,,,,,,,,,,,,,,,,,,,,,,,,,,,,,,,,,,,,,,,,,,,,
1768373870.996917,1768373870.997436,125.000000,0.000000,4327.307617,4322.436035,4337.820313,4354.102539,4297.436035,4301.025879,4300.256348,4310.641113,4307.436035,4298.077148,4521.666504,4517.436035,4396.922852,4455.256348,5365.000000,1.000000,30.000000,,,,0.000000,4.000000,4.000000,4.000000,4.000000,4.000000,4.000000,4.000000,4.000000,4.000000,4.000000,4.000000,4.000000,4.000000,4.000000,100.000000,,,,,,,,,,,,,,,,,,,,,,,,,,,,,,,,,,,,,,,,,,,,,,,,,,,,,,,,,,,,,,,,,,,,,,,,,,,,,,,,,,,,,,,,,,,,,,,,,,,,,,,,,,,,,,,,,,,,,
1768373871.004726,1768373871.005145,126.000000,0.000000,4341.025879,4321.922852,4338.846191,4358.461426,4300.641113,4305.128418,4305.512695,4313.589844,4309.102539,4311.025879,4523.589844,4521.538574,4399.358887,4461.666504,4405.000000,1.000000,30.000000,,,,0.000000,4.000000,4.000000,4.000000,4.000000,4.000000,4.000000,4.000000,4.000000,4.000000,4.000000,4.000000,4.000000,4.000000,4.000000,100.000000,,,,,,,,,,,,,,,,,,,,,,,,,,,,,,,,,,,,,,,,,,,,,,,,1.021244,0.321333,0.487137,0.380599,0.078166,0.731011,0.426383,0.265403,0.198022,0.131931,0.813730,0.228213,0.302542,0.157654,0.160247,0.383462,0.155392,0.206914,0.167772,0.111809,0.420414,0.369304,0.070462,0.125004,0.044840,0.134045,0.302499,0.264001,0.174370,0.365438,0.316477,0.395815,0.378055,0.128123,0.243953,0.285389,0.080891,0.093746,0.061259,0.089656,0.448901,0.335021,0.077452,0.122916,0.144474,0.718948,0.658570,0.147883,0.468362,0.360958,0.824871,0.485141,0.180556,0.210573,0.165066,1.610160,0.534057,0.283656,0.247158,0.167423,0.903326,0.541687,0.556004,0.269662,0.221245,1.703104,0.282174,0.430689,0.414096,0.249046
1768373871.012534,1768373871.012953,127.000000,0.000000,4346.794922,4324.230957,4342.051270,4362.692383,4298.846191,4306.922852,4306.666504,4316.922852,4309.743652,4310.897461,4531.922852,4527.948730,4408.589844,4461.538574,30.000000,1.000000,30.000000,,,,0.000000,4.000000,4.000000,4.000000,4.000000,4.000000,4.000000,4.000000,4.000000,4.000000,4.000000,4.000000,4.000000,4.000000,4.000000,100.000000,,,,,,,,,,,,,,,,,,,,,,,,,,,,,,,,,,,,,,,,,,,,,,,,,,,,,,,,,,,,,,,,,,,,,,,,,,,,,,,,,,,,,,,,,,,,,,,,,,,,,,,,,,,,,,,,,,,,,
1768373871.020343,1768373871.020962,0.000000,0.000000,4341.153809,4325.641113,4343.974121,4360.256348,4299.615234,4308.333496,4304.230957,4315.256348,4308.077148,4302.692383,4535.128418,4521.922852,4413.846191,4458.589844,4071.000000,1.000000,30.000000,,,,0.000000,4.000000,4.000000,4.000000,4.000000,4.000000,4.000000,4.000000,4.000000,4.000000,4.000000,4.000000,4.000000,4.000000,4.000000,100.000000,,,,,,,,,,,,,,,,,,,,,,,,,,,,,,,,,,,,,,,,,,,,,,,,,,,,,,,,,,,,,,,,,,,,,,,,,,,,,,,,,,,,,,,,,,,,,,,,,,,,,,,,,,,,,,,,,,,,,
1768373871.028151,1768373871.028770,1.000000,0.000000,4347.436035,4328.461426,4348.077148,4360.641113,4306.282227,4309.871582,4306.538574,4312.948730,4307.563965,4305.897461,4527.563965,4514.487305,4413.205078,4463.205078,3997.000000,1.000000,30.000000,,,,0.000000,4.000000,4.000000,4.000000,4.000000,4.000000,4.000000,4.000000,4.000000,4.000000,4.000000,4.000000,4.000000,4.000000,4.000000,100.000000,,,,,,,,,,,,,,,,,,,,,,,,,,,,,,,,,,,,,,,,,,,,,,,,,,,,,,,,,,,,,,,,,,,,,,,,,,,,,,,,,,,,,,,,,,,,,,,,,,,,,,,,,,,,,,,,,,,,,
1768373871.035960,1768373871.036678,2.000000,0.000000,4355.000000,4329.615234,4350.512695,4366.025879,4306.025879,4308.205078,4307.948730,4313.077148,4309.871582,4304.487305,4525.000000,4516.282227,4413.717773,4467.692383,3884.000000,1.000000,30.000000,,,,0.000000,4.000000,4.000000,4.000000,4.000000,4.000000,4.000000,4.000000,4.000000,4.000000,4.000000,4.000000,4.000000,4.000000,4.000000,100.000000,,,,,,,,,,,,,,,,,,,,,,,,,,,,,,,,,,,,,,,,,,,,,,,,,,,,,,,,,,,,,,,,,,,,,,,,,,,,,,,,,,,,,,,,,,,,,,,,,,,,,,,,,,,,,,,,,,,,,
1768373871.043768,1768373871.044487,3.000000,0.000000,4347.051270,4328.461426,4345.897461,4365.512695,4302.051270,4309.102539,4306.666504,4314.487305,4311.538574,4296.794922,4530.128418,4520.769043,4413.846191,4462.948730,3891.000000,1.000000,30.000000,,,,0.000000,4.000000,4.000000,4.000000,4.000000,4.000000,4.000000,4.000000,4.000000,4.000000,4.000000,4.000000,4.000000,4.000000,4.000000,100.000000,,,,,,,,,,,,,,,,,,,,,,,,,,,,,,,,,,,,,,,,,,,,,,,,,,,,,,,,,,,,,,,,,,,,,,,,,,,,,,,,,,,,,,,,,,,,,,,,,,,,,,,,,,,,,,,,,,,,,
1768373871.051577,1768373871.052495,4.000000,0.000000,4340.000000,4325.000000,4337.563965,4357.436035,4302.307617,4310.897461,4306.153809,4320.384766,4310.897461,4301.922852,4533.461426,4524.358887,4411.410156,4459.230957,3819.000000,1.000000,30.000000,,,,0.000000,4.000000,4.000000,4.000000,4.000000,4.000000,4.000000,4.000000,4.000000,4.000000,4.000000,4.000000,4.000000,4.000000,4.000000,100.000000,,,,,,,,,,,,,,,,,,,,,,,,,,,,,,,,,,,,,,,,,,,,,,,,,,,,,,,,,,,,,,,,,,,,,,,,,,,,,,,,,,,,,,,,,,,,,,,,,,,,,,,,,,,,,,,,,,,,,
1768373871.059385,1768373871.060303,5.000000,0.000000,4340.000000,4318.461426,4335.384766,4352.051270,4300.512695,4305.512695,4306.153809,4321.794922,4310.000000,4311.025879,4533.205078,4524.615234,4411.794922,4460.641113,3749.000000,1.000000,30.000000,,,,0.000000,4.000000,4.000000,4.000000,4.000000,4.000000,4.000000,4.000000,4.000000,4.000000,4.000000,4.000000,4.000000,4.000000,4.000000,100.000000,,,,,,,,,,,,,,,,,,,,,,,,,,,,,,,,,,,,,,,,,,,,,,,,,,,,,,,,,,,,,,,,,,,,,,,,,,,,,,,,,,,,,,,,,,,,,,,,,,,,,,,,,,,,,,,,,,,,,
1768373871.067193,1768373871.068012,6.000000,0.000000,4336.538574,4318.846191,4340.000000,4356.538574,4297.179688,4303.717773,4306.794922,4313.846191,4308.974121,4311.282227,4528.974121,4517.820313,4412.563965,4458.205078,3764.000000,1.000000,30.000000,,,,0.000000,4.000000,4.000000,4.000000,4.000000,4.000000,4.000000,4.000000,4.000000,4.000000,4.000000,4.000000,4.000000,4.000000,4.000000,100.000000,,,,,,,,,,,,,,,,,,,,,,,,,,,,,,,,,,,,,,,,,,,,,,,,,,,,,,,,,,,,,,,,,,,,,,,,,,,,,,,,,,,,,,,,,,,,,,,,,,,,,,,,,,,,,,,,,,,,,
1768373871.075002,1768373871.075820,7.000000,0.000000,4332.948730,4325.000000,4343.077148,4361.410156,4303.717773,4310.512695,4308.717773,4310.000000,4307.307617,4303.717773,4521.410156,4513.077148,4409.102539,4455.384766,3570.000000,1.000000,30.000000,,,,0.000000,4.000000,4.000000,4.000000,4.000000,4.000000,4.000000,4.000000,4.000000,4.000000,4.000000,4.000000,4.000000,4.000000,4.000000,100.000000,,,,,,,,,,,,,,,,,,,,,,,,,,,,,,,,,,,,,,,,,,,,,,,,,,,,,,,,,,,,,,,,,,,,,,,,,,,,,,,,,,,,,,,,,,,,,,,,,,,,,,,,,,,,,,,,,,,,,
1768373871.082810,1768373871.083829,8.000000,0.000000,4336.666504,4323.333496,4342.179688,4359.615234,4309.102539,4313.461426,4310.512695,4314.615234,4308.205078,4295.384766,4522.307617,4520.512695,4404.743652,4459.743652,3974.000000,1.000000,30.000000,,,,0.000000,4.000000,4.000000,4.000000,4.000000,4.000000,4.000000,4.000000,4.000000,4.000000,4.000000,4.000000,4.000000,4.000000,4.000000,100.000000,,,,,,,,,,,,,,,,,,,,,,,,,,,,,,,,,,,,,,,,,,,,,,,,,,,,,,,,,,,,,,,,,,,,,,,,,,,,,,,,,,,,,,,,,,,,,,,,,,,,,,,,,,,,,,,,,,,,,
1768373871.090619,1768373871.091637,9.000000,0.000000,4341.538574,4321.025879,4345.000000,4360.512695,4306.025879,4312.563965,4307.692383,4317.563965,4310.512695,4301.538574,4528.461426,4529.230957,4405.641113,4462.563965,3949.000000,1.000000,30.000000,,,,0.000000,4.000000,4.000000,4.000000,4.000000,4.000000,4.000000,4.000000,4.000000,4.000000,4.000000,4.000000,4.000000,4.000000,4.000000,100.000000,,,,,,,,,,,,,,,,,,,,,,,,,,,,,,,,,,,,,,,,,,,,,,,,,,,,,,,,,,,,,,,,,,,,,,,,,,,,,,,,,,,,,,,,,,,,,,,,,,,,,,,,,,,,,,,,,,,,,
1768373871.098427,1768373871.099546,10.000000,0.000000,4343.077148,4324.871582,4348.589844,4364.358887,4308.205078,4310.384766,4306.666504,4316.282227,4310.641113,4312.179688,4524.230957,4523.333496,4409.230957,4458.589844,4405.000000,1.000000,30.000000,,,,0.000000,4.000000,4.000000,4.000000,4.000000,4.000000,4.000000,4.000000,4.000000,4.000000,4.000000,4.000000,4.000000,4.000000,4.000000,100.000000,,,,,,,,,,,,,,,,,,,,,,,,,,,,,,,,,,,,,,,,,,,,,,,,,,,,,,,,,,,,,,,,,,,,,,,,,,,,,,,,,,,,,,,,,,,,,,,,,,,,,,,,,,,,,,,,,,,,,
1768373871.106236,1768373871.107354,11.000000,0.000000,4341.153809,4325.512695,4349.102539,4361.922852,4309.615234,4307.820313,4310.512695,4317.820313,4308.717773,4305.641113,4522.051270,4516.794922,4411.025879,4457.307617,4674.000000,1.000000,30.000000,,,,0.000000,4.000000,4.000000,4.000000,4.000000,4.000000,4.000000,4.000000,4.000000,4.000000,4.000000,4.000000,4.000000,4.000000,4.000000,100.000000,,,,,,,,,,,,,,,,,,,,,,,,,,,,,,,,,,,,,,,,,,,,,,,,,,,,,,,,,,,,,,,,,,,,,,,,,,,,,,,,,,,,,,,,,,,,,,,,,,,,,,,,,,,,,,,,,,,,,
1768373871.114044,1768373871.115362,12.000000,0.000000,4338.205078,4321.025879,4349.102539,4357.307617,4304.871582,4309.102539,4311.025879,4319.487305,4309.871582,4301.410156,4531.153809,4526.794922,4413.205078,4462.692383,4998.000000,1.000000,30.000000,,,,0.000000,4.000000,4.000000,4.000000,4.000000,4.000000,4.000000,4.000000,4.000000,4.000000,4.000000,4.000000,4.000000,4.000000,4.000000,100.000000,,,,,,,,,,,,,,,,,,,,,,,,,,,,,,,,,,,,,,,,,,,,,,,,,,,,,,,,,,,,,,,,,,,,,,,,,,,,,,,,,,,,,,,,,,,,,,,,,,,,,,,,,,,,,,,,,,,,,
1768373871.121853,1768373871.123171,13.000000,0.000000,4335.256348,4318.077148,4345.128418,4359.102539,4304.102539,4312.051270,4309.358887,4319.358887,4312.436035,4307.436035,4532.051270,4531.666504,4408.461426,4463.589844,5359.000000,1.000000,30.000000,,,,0.000000,4.000000,4.000000,4.000000,4.000000,4.000000,4.000000,4.000000,4.000000,4.000000,4.000000,4.000000,4.000000,4.000000,4.000000,100.000000,,,,,,,,,,,,,,,,,,,,,,,,,,,,,,,,,,,,,,,,,,,,,,,,,,,,,,,,,,,,,,,,,,,,,,,,,,,,,,,,,,,,,,,,,,,,,,,,,,,,,,,,,,,,,,,,,,,,,
1768373871.129661,1768373871.130879,14.000000,0.000000,4331.410156,4317.563965,4341.410156,4359.871582,4306.922852,4310.384766,4309.615234,4321.538574,4312.051270,4302.307617,4522.436035,4524.615234,4402.436035,4457.307617,4405.000000,1.000000,30.000000,,,,0.000000,4.000000,4.000000,4.000000,4.000000,4.000000,4.000000,4.000000,4.000000,4.000000,4.000000,4.000000,4.000000,4.000000,4.000000,100.000000,1.000000,91.666664,4.000000,4.000000,4.000000,4.000000,4.000000,4.000000,4.000000,3.000000,4.000000,4.000000,4.000000,4.000000,4.000000,4.000000,,,,,,,,,,,,,,,,,,,,,,,,,,,,,,,,0.889997,0.351816,0.479184,0.377638,0.074769,0.606676,0.489362,0.253672,0.169049,0.141240,0.757959,0.207625,0.309635,0.163533,0.171079,0.396455,0.172139,0.203796,0.129483,0.118105,0.413769,0.397839,0.061178,0.111283,0.048208,0.123227,0.301590,0.234400,0.155401,0.361719,0.340619,0.434120,0.394545,0.130059,0.240092,0.269713,0.058421,0.093341,0.048877,0.093814,0.301315,0.280466,0.065856,0.107842,0.150772,0.419086,0.593665,0.146788,0.478107,0.353366,0.735925,0.464885,0.199326,0.217621,0.176124,1.386156,0.510702,0.343105,0.311983,0.167139,0.914373,0.563034,0.522088,0.277645,0.213308,1.634870,0.317772,0.483904,0.432900,0.259182
1768373871.137469,1768373871.138688,15.000000,0.000000,4330.641113,4318.077148,4343.717773,4355.897461,4305.256348,4304.871582,4305.512695,4322.563965,4312.436035,4300.128418,4521.410156,4528.717773,4405.000000,4455.769043,4674.000000,1.000000,30.000000,,,,0.000000,4.000000,4.000000,4.000000,4.000000,4.000000,4.000000,4.000000,4.000000,4.000000,4.000000,4.000000,4.000000,4.000000,4.000000,100.000000,,,,,,,,,,,,,,,,,,,,,,,,,,,,,,,,,,,,,,,,,,,,,,,,,,,,,,,,,,,,,,,,,,,,,,,,,,,,,,,,,,,,,,,,,,,,,,,,,,,,,,,,,,,,,,,,,,,,,
1768373871.145278,1768373871.146296,16.000000,0.000000,4334.871582,4319.230957,4343.589844,4356.153809,4302.436035,4306.025879,4304.102539,4316.794922,4311.794922,4308.717773,4526.282227,4528.846191,4407.307617,4460.897461,0.000000,1.000000,30.000000,,,,0.000000,4.000000,4.000000,4.000000,4.000000,4.000000,4.000000,4.000000,4.000000,4.000000,4.000000,4.000000,4.000000,4.000000,4.000000,100.000000,,,,,,,,,,,,,,,,,,,,,,,,,,,,,,,,,,,,,,,,,,,,,,,,,,,,,,,,,,,,,,,,,,,,,,,,,,,,,,,,,,,,,,,,,,,,,,,,,,,,,,,,,,,,,,,,,,,,,
1768373871.153086,1768373871.154105,17.000000,0.000000,4342.051270,4324.230957,4344.230957,4361.025879,4303.461426,4313.974121,4311.025879,4314.487305,4308.846191,4310.384766,4523.589844,4518.974121,4407.820313,4461.538574,0.000000,1.000000,30.000000,,,,0.000000,4.000000,4.000000,4.000000,4.000000,4.000000,4.000000,4.000000,4.000000,4.000000,4.000000,4.000000,4.000000,4.000000,4.000000,100.000000,,,,,,,,,,,,,,,,,,,,,,,,,,,,,,,,,,,,,,,,,,,,,,,,,,,,,,,,,,,,,,,,,,,,,,,,,,,,,,,,,,,,,,,,,,,,,,,,,,,,,,,,,,,,,,,,,,,,,
1768373871.160895,1768373871.161813,18.000000,0.000000,4344.871582,4328.077148,4349.358887,4362.820313,4305.769043,4310.512695,4308.717773,4318.461426,4310.641113,4311.282227,4523.717773,4525.512695,4409.871582,4459.871582,0.000000,1.000000,30.000000,,,,0.000000,4.000000,4.000000,4.000000,4.000000,4.000000,4.000000,4.000000,4.000000,4.000000,4.000000,4.000000,4.000000,4.000000,4.000000,100.000000,,,,,,,,,,,,,,,,,,,,,,,,,,,,,,,,,,,,,,,,,,,,,,,,,,,,,,,,,,,,,,,,,,,,,,,,,,,,,,,,,,,,,,,,,,,,,,,,,,,,,,,,,,,,,,,,,,,,,
1768373871.168703,1768373871.169622,19.000000,0.000000,4341.282227,4326.153809,4347.948730,4357.563965,4306.025879,4298.846191,4295.897461,4317.820313,4313.589844,4305.512695,4527.563965,4536.153809,4406.666504,4460.128418,0.000000,1.000000,30.000000,,,,0.000000,4.000000,4.000000,4.000000,4.000000,4.000000,4.000000,4.000000,4.000000,4.000000,4.000000,4.000000,4.000000,4.000000,4.000000,100.000000,,,,,,,,,,,,,,,,,,,,,,,,,,,,,,,,,,,,,,,,,,,,,,,,,,,,,,,,,,,,,,,,,,,,,,,,,,,,,,,,,,,,,,,,,,,,,,,,,,,,,,,,,,,,,,,,,,,,,
1768373871.176512,1768373871.177230,20.000000,0.000000,4339.230957,4321.666504,4343.333496,4355.897461,4305.512695,4296.794922,4292.436035,4316.025879,4310.384766,4290.897461,4524.615234,4531.794922,4405.897461,4459.102539,0.000000,1.000000,30.000000,,,,0.000000,4.000000,4.000000,4.000000,4.000000,4.000000,4.000000,4.000000,4.000000,4.000000,4.000000,4.000000,4.000000,4.000000,4.000000,100.000000,,,,,,,,,,,,,,,,,,,,,,,,,,,,,,,,,,,,,,,,,,,,,,,,,,,,,,,,,,,,,,,,,,,,,,,,,,,,,,,,,,,,,,,,,,,,,,,,,,,,,,,,,,,,,,,,,,,,,
1768373871.184320,1768373871.185039,21.000000,0.000000,4340.512695,4317.692383,4345.897461,4359.871582,4306.538574,4306.666504,4303.461426,4321.282227,4310.384766,4296.666504,4523.205078,4529.358887,4414.230957,4461.153809,0.000000,1.000000,30.000000,,,,0.000000,4.000000,4.000000,4.000000,4.000000,4.000000,4.000000,4.000000,4.000000,4.000000,4.000000,4.000000,4.000000,4.000000,4.000000,100.000000,,,,,,,,,,,,,,,,,,,,,,,,,,,,,,,,,,,,,,,,,,,,,,,,,,,,,,,,,,,,,,,,,,,,,,,,,,,,,,,,,,,,,,,,,,,,,,,,,,,,,,,,,,,,,,,,,,,,,
1768373871.192128,1768373871.192747,22.000000,0.000000,4334.230957,4312.436035,4344.743652,4357.436035,4309.230957,4318.461426,4314.102539,4325.256348,4313.974121,4310.512695,4525.256348,4530.769043,4407.692383,4462.436035,0.000000,1.000000,30.000000,,,,0.000000,4.000000,4.000000,4.000000,4.000000,4.000000,4.000000,4.000000,4.000000,4.000000,4.000000,4.000000,4.000000,4.000000,4.000000,100.000000,,,,,,,,,,,,,,,,,,,,,,,,,,,,,,,,,,,,,,,,,,,,,,,,,,,,,,,,,,,,,,,,,,,,,,,,,,,,,,,,,,,,,,,,,,,,,,,,,,,,,,,,,,,,,,,,,,,,,
1768373871.199937,1768373871.200556,23.000000,0.000000,4324.230957,4308.846191,4341.922852,4353.461426,4311.025879,4319.487305,4313.461426,4325.512695,4312.692383,4303.974121,4521.794922,4526.153809,4391.794922,4452.563965,0.000000,1.000000,30.000000,,,,0.000000,4.000000,4.000000,4.000000,4.000000,4.000000,4.000000,4.000000,4.000000,4.000000,4.000000,4.000000,4.000000,4.000000,4.000000,100.000000,,,,,,,,,,,,,,,,,,,,,,,,,,,,,,,,,,,,,,,,,,,,,,,,,,,,,,,,,,,,,,,,,,,,,,,,,,,,,,,,,,,,,,,,,,,,,,,,,,,,,,,,,,,,,,,,,,,,,
1768373871.207745,1768373871.208165,24.000000,0.000000,4328.333496,4310.384766,4349.743652,4358.461426,4308.333496,4311.282227,4311.153809,4328.205078,4316.282227,4301.410156,4523.974121,4527.307617,4401.794922,4449.102539,0.000000,1.000000,30.000000,,,,0.000000,4.000000,4.000000,4.000000,4.000000,4.000000,4.000000,4.000000,4.000000,4.000000,4.000000,4.000000,4.000000,4.000000,4.000000,100.000000,,,,,,,,,,,,,,,,,,,,,,,,,,,,,,,,,,,,,,,,,,,,,,,,,,,,,,,,,,,,,,,,,,,,,,,,,,,,,,,,,,,,,,,,,,,,,,,,,,,,,,,,,,,,,,,,,,,,,
1768373871.215554,1768373871.215973,25.000000,0.000000,4341.025879,4316.025879,4361.922852,4365.000000,4306.922852,4306.282227,4313.589844,4329.358887,4321.153809,4315.256348,4546.538574,4542.051270,4427.692383,4468.846191,0.000000,1.000000,30.000000,,,,0.000000,4.000000,4.000000,4.000000,4.000000,4.000000,4.000000,4.000000,4.000000,4.000000,4.000000,4.000000,4.000000,4.000000,4.000000,100.000000,,,,,,,,,,,,,,,,,,,,,,,,,,,,,,,,,,,,,,,,,,,,,,,,,,,,,,,,,,,,,,,,,,,,,,,,,,,,,,,,,,,,,,,,,,,,,,,,,,,,,,,,,,,,,,,,,,,,,
1768373871.223362,1768373871.223881,26.000000,0.000000,4346.666504,4318.589844,4360.769043,4363.077148,4310.769043,4307.179688,4311.410156,4326.410156,4318.077148,4315.384766,4558.461426,4551.538574,4429.230957,4479.743652,0.000000,1.000000,30.000000,,,,0.000000,4.000000,4.000000,4.000000,4.000000,4.000000,4.000000,4.000000,4.000000,4.000000,4.000000,4.000000,4.000000,4.000000,4.000000,100.000000,,,,,,,,,,,,,,,,,,,,,,,,,,,,,,,,,,,,,,,,,,,,,,,,,,,,,,,,,,,,,,,,,,,,,,,,,,,,,,,,,,,,,,,,,,,,,,,,,,,,,,,,,,,,,,,,,,,,,
1768373871.231171,1768373871.231690,27.000000,0.000000,4340.641113,4313.717773,4346.410156,4356.794922,4310.769043,4305.256348,4304.615234,4323.717773,4314.615234,4306.538574,4541.025879,4538.077148,4411.538574,4464.615234,0.000000,1.000000,30.000000,,,,0.000000,4.000000,4.000000,4.000000,4.000000,4.000000,4.000000,4.000000,4.000000,4.000000,4.000000,4.000000,4.000000,4.000000,4.000000,100.000000,,,,,,,,,,,,,,,,,,,,,,,,,,,,,,,,,,,,,,,,,,,,,,,,,,,,,,,,,,,,,,,,,,,,,,,,,,,,,,,,,,,,,,,,,,,,,,,,,,,,,,,,,,,,,,,,,,,,,
1768373871.238979,1768373871.239698,28.000000,0.000000,4330.000000,4310.384766,4338.846191,4356.922852,4309.358887,4306.922852,4309.487305,4323.846191,4314.358887,4310.512695,4533.205078,4522.563965,4408.205078,4455.641113,0.000000,1.000000,30.000000,,,,0.000000,4.000000,4.000000,4.000000,4.000000,4.000000,4.000000,4.000000,4.000000,4.000000,4.000000,4.000000,4.000000,4.000000,4.000000,100.000000,,,,,,,,,,,,,,,,,,,,,,,,,,,,,,,,,,,,,,,,,,,,,,,,,,,,,,,,,,,,,,,,,,,,,,,,,,,,,,,,,,,,,,,,,,,,,,,,,,,,,,,,,,,,,,,,,,,,,
1768373871.246787,1768373871.247506,29.000000,0.000000,4326.794922,4313.461426,4342.307617,4361.666504,4315.384766,4317.436035,4318.717773,4326.410156,4314.743652,4314.102539,4537.179688,4525.769043,4411.025879,4461.922852,0.000000,1.000000,30.000000,,,,0.000000,4.000000,4.000000,4.000000,4.000000,4.000000,4.000000,4.000000,4.000000,4.000000,4.000000,4.000000,4.000000,4.000000,4.000000,100.000000,,,,,,,,,,,,,,,,,,,,,,,,,,,,,,,,,,,,,,,,,,,,,,,,,,,,,,,,,,,,,,,,,,,,,,,,,,,,,,,,,,,,,,,,,,,,,,,,,,,,,,,,,,,,,,,,,,,,,
1768373871.254596,1768373871.255415,30.000000,0.000000,4328.717773,4315.000000,4342.948730,4360.256348,4317.179688,4319.102539,4315.512695,4327.563965,4314.102539,4306.153809,4530.641113,4529.487305,4406.153809,4459.743652,0.000000,1.000000,30.000000,,,,0.000000,4.000000,4.000000,4.000000,4.000000,4.000000,4.000000,4.000000,4.000000,4.000000,4.000000,4.000000,4.000000,4.000000,4.000000,100.000000,,,,,,,,,,,,,,,,,,,,,,,,,,,,,,,,,,,,,,,,,,,,,,,,0.921467,0.369903,0.432083,0.347523,0.072930,0.533719,0.535920,0.227470,0.134628,0.146318,0.746153,0.200580,0.308759,0.173667,0.177366,0.415291,0.184053,0.185141,0.096800,0.121365,0.408030,0.384945,0.056018,0.098251,0.050485,0.119302,0.281850,0.230123,0.130364,0.353674,0.348356,0.445925,0.430158,0.128831,0.232372,0.259277,0.059259,0.100840,0.043052,0.095249,0.236436,0.240488,0.066252,0.097861,0.147917,0.267484,0.530046,0.157580,0.473260,0.335339,0.800517,0.470175,0.227143,0.221053,0.183263,1.338677,0.560096,0.389892,0.367915,0.161892,1.131505,0.589737,0.513149,0.279333,0.197772,1.936230,0.392850,0.525348,0.420769,0.250632
1768373871.262404,1768373871.263223,31.000000,0.000000,4327.948730,4314.487305,4339.615234,4357.051270,4314.358887,4311.794922,4310.256348,4326.922852,4314.358887,4304.487305,4526.794922,4524.615234,4405.128418,4449.743652,0.000000,1.000000,30.000000,,,,0.000000,4.000000,4.000000,4.000000,4.000000,4.000000,4.000000,4.000000,4.000000,4.000000,4.000000,4.000000,4.000000,4.000000,4.000000,100.000000,,,,,,,,,,,,,,,,,,,,,,,,,,,,,,,,,,,,,,,,,,,,,,,,,,,,,,,,,,,,,,,,,,,,,,,,,,,,,,,,,,,,,,,,,,,,,,,,,,,,,,,,,,,,,,,,,,,,,
1768373871.270213,1768373871.270832,32.000000,0.000000,4324.743652,4313.461426,4341.922852,4359.230957,4318.974121,4310.641113,4312.563965,4325.769043,4314.743652,4306.025879,4530.384766,4520.128418,4404.615234,4445.512695,0.000000,1.000000,30.000000,,,,0.000000,4.000000,4.000000,4.000000,4.000000,4.000000,4.000000,4.000000,4.000000,4.000000,4.000000,4.000000,4.000000,4.000000,4.000000,100.000000,,,,,,,,,,,,,,,,,,,,,,,,,,,,,,,,,,,,,,,,,,,,,,,,,,,,,,,,,,,,,,,,,,,,,,,,,,,,,,,,,,,,,,,,,,,,,,,,,,,,,,,,,,,,,,,,,,,,,
1768373871.278021,1768373871.278640,33.000000,0.000000,4321.922852,4313.205078,4343.333496,4359.358887,4320.897461,4319.358887,4314.358887,4325.512695,4314.871582,4300.000000,4526.153809,4517.179688,4398.333496,4441.666504,0.000000,1.000000,30.000000,,,,0.000000,4.000000,4.000000,4.000000,4.000000,4.000000,4.000000,4.000000,4.000000,4.000000,4.000000,4.000000,4.000000,4.000000,4.000000,100.000000,,,,,,,,,,,,,,,,,,,,,,,,,,,,,,,,,,,,,,,,,,,,,,,,,,,,,,,,,,,,,,,,,,,,,,,,,,,,,,,,,,,,,,,,,,,,,,,,,,,,,,,,,,,,,,,,,,,,,
1768373871.285830,1768373871.286349,34.000000,0.000000,4321.282227,4311.153809,4332.307617,4354.871582,4314.743652,4322.051270,4313.205078,4320.897461,4311.922852,4300.897461,4521.922852,4512.692383,4395.384766,4438.974121,0.000000,1.000000,30.000000,,,,0.000000,4.000000,4.000000,4.000000,4.000000,4.000000,4.000000,4.000000,4.000000,4.000000,4.000000,4.000000,4.000000,4.000000,4.000000,100.000000,,,,,,,,,,,,,,,,,,,,,,,,,,,,,,,,,,,,,,,,,,,,,,,,,,,,,,,,,,,,,,,,,,,,,,,,,,,,,,,,,,,,,,,,,,,,,,,,,,,,,,,,,,,,,,,,,,,,,
1768373871.293638,1768373871.294157,35.000000,0.000000,4321.922852,4310.000000,4324.871582,4355.641113,4314.230957,4312.820313,4309.615234,4315.256348,4308.717773,4309.871582,4525.256348,4510.256348,4400.641113,4450.000000,0.000000,1.000000,30.000000,,,,0.000000,4.000000,4.000000,4.000000,4.000000,4.000000,4.000000,4.000000,4.000000,4.000000,4.000000,4.000000,4.000000,4.000000,4.000000,100.000000,,,,,,,,,,,,,,,,,,,,,,,,,,,,,,,,,,,,,,,,,,,,,,,,,,,,,,,,,,,,,,,,,,,,,,,,,,,,,,,,,,,,,,,,,,,,,,,,,,,,,,,,,,,,,,,,,,,,,
1768373871.301447,1768373871.302166,36.000000,0.000000,4323.846191,4312.051270,4330.128418,4357.563965,4314.487305,4303.717773,4301.794922,4316.666504,4310.512695,4310.897461,4523.974121,4512.436035,4404.615234,4458.717773,0.000000,1.000000,30.000000,,,,0.000000,4.000000,4.000000,4.000000,4.000000,4.000000,4.000000,4.000000,4.000000,4.000000,4.000000,4.000000,4.000000,4.000000,4.000000,100.000000,,,,,,,,,,,,,,,,,,,,,,,,,,,,,,,,,,,,,,,,,,,,,,,,,,,,,,,,,,,,,,,,,,,,,,,,,,,,,,,,,,,,,,,,,,,,,,,,,,,,,,,,,,,,,,,,,,,,,
1768373871.309255,1768373871.309974,37.000000,0.000000,4324.743652,4310.897461,4335.641113,4354.615234,4310.512695,4299.230957,4297.563965,4317.051270,4312.820313,4307.051270,4524.871582,4513.974121,4402.436035,4451.538574,0.000000,1.000000,30.000000,,,,0.000000,4.000000,4.000000,4.000000,4.000000,4.000000,4.000000,4.000000,4.000000,4.000000,4.000000,4.000000,4.000000,4.000000,4.000000,100.000000,,,,,,,,,,,,,,,,,,,,,,,,,,,,,,,,,,,,,,,,,,,,,,,,,,,,,,,,,,,,,,,,,,,,,,,,,,,,,,,,,,,,,,,,,,,,,,,,,,,,,,,,,,,,,,,,,,,,,
1768373871.317063,1768373871.317882,38.000000,0.000000,4326.025879,4308.717773,4334.358887,4354.358887,4312.692383,4301.794922,4302.179688,4311.666504,4310.897461,4305.128418,4524.487305,4506.794922,4396.922852,4443.589844,0.000000,1.000000,30.000000,,,,0.000000,4.000000,4.000000,4.000000,4.000000,4.000000,4.000000,4.000000,4.000000,4.000000,4.000000,4.000000,4.000000,4.000000,4.000000,100.000000,,,,,,,,,,,,,,,,,,,,,,,,,,,,,,,,,,,,,,,,,,,,,,,,,,,,,,,,,,,,,,,,,,,,,,,,,,,,,,,,,,,,,,,,,,,,,,,,,,,,,,,,,,,,,,,,,,,,,
1768373871.324872,1768373871.325691,39.000000,0.000000,4325.769043,4309.487305,4333.461426,4355.384766,4314.358887,4308.077148,4307.820313,4311.410156,4305.897461,4297.820313,4513.846191,4497.948730,4393.461426,4440.000000,0.000000,1.000000,30.000000,,,,0.000000,4.000000,4.000000,4.000000,4.000000,4.000000,4.000000,4.000000,4.000000,4.000000,4.000000,4.000000,4.000000,4.000000,4.000000,100.000000,,,,,,,,,,,,,,,,,,,,,,,,,,,,,,,,,,,,,,,,,,,,,,,,,,,,,,,,,,,,,,,,,,,,,,,,,,,,,,,,,,,,,,,,,,,,,,,,,,,,,,,,,,,,,,,,,,,,,
1768373871.332680,1768373871.333299,40.000000,0.000000,4319.615234,4308.717773,4331.538574,4353.846191,4311.410156,4311.538574,4311.282227,4318.717773,4307.692383,4292.948730,4512.436035,4504.487305,4393.974121,4437.051270,0.000000,1.000000,30.000000,,,,0.000000,4.000000,4.000000,4.000000,4.000000,4.000000,4.000000,4.000000,4.000000,4.000000,4.000000,4.000000,4.000000,4.000000,4.000000,100.000000,,,,,,,,,,,,,,,,,,,,,,,,,,,,,,,,,,,,,,,,,,,,,,,,,,,,,,,,,,,,,,,,,,,,,,,,,,,,,,,,,,,,,,,,,,,,,,,,,,,,,,,,,,,,,,,,,,,,,
1768373871.340489,1768373871.341108,41.000000,0.000000,4313.974121,4308.974121,4327.563965,4349.487305,4312.820313,4311.666504,4312.179688,4321.538574,4313.461426,4303.333496,4523.717773,4514.487305,4400.897461,4442.179688,0.000000,1.000000,30.000000,,,,0.000000,4.000000,4.000000,4.000000,4.000000,4.000000,4.000000,4.000000,4.000000,4.000000,4.000000,4.000000,4.000000,4.000000,4.000000,100.000000,,,,,,,,,,,,,,,,,,,,,,,,,,,,,,,,,,,,,,,,,,,,,,,,,,,,,,,,,,,,,,,,,,,,,,,,,,,,,,,,,,,,,,,,,,,,,,,,,,,,,,,,,,,,,,,,,,,,,
1768373871.348297,1768373871.348816,42.000000,0.000000,4317.820313,4316.025879,4328.461426,4345.512695,4311.794922,4310.256348,4311.153809,4319.230957,4314.102539,4310.000000,4526.794922,4510.256348,4405.641113,4449.487305,0.000000,1.000000,30.000000,,,,0.000000,4.000000,4.000000,4.000000,4.000000,4.000000,4.000000,4.000000,4.000000,4.000000,4.000000,4.000000,4.000000,4.000000,4.000000,100.000000,,,,,,,,,,,,,,,,,,,,,,,,,,,,,,,,,,,,,,,,,,,,,,,,,,,,,,,,,,,,,,,,,,,,,,,,,,,,,,,,,,,,,,,,,,,,,,,,,,,,,,,,,,,,,,,,,,,,,
1768373871.356106,1768373871.356625,43.000000,0.000000,4322.307617,4323.077148,4328.461426,4350.512695,4307.563965,4310.256348,4309.615234,4316.153809,4306.025879,4301.538574,4521.794922,4501.410156,4398.461426,4446.794922,0.000000,1.000000,30.000000,,,,0.000000,4.000000,4.000000,4.000000,4.000000,4.000000,4.000000,4.000000,4.000000,4.000000,4.000000,4.000000,4.000000,4.000000,4.000000,100.000000,,,,,,,,,,,,,,,,,,,,,,,,,,,,,,,,,,,,,,,,,,,,,,,,,,,,,,,,,,,,,,,,,,,,,,,,,,,,,,,,,,,,,,,,,,,,,,,,,,,,,,,,,,,,,,,,,,,,,
