title:apple_22, start timestamp:1768371985.789069, stop timestamp:1768372015.929648, headset type:EPOCX, headset serial:E5020E3B, headset firmware:730, channels:156, sampling rate:eeg_128;pm_0.1;pow_8, samples:3861      , version:2.2, 
Timestamp,OriginalTimestamp,EEG.Counter,EEG.Interpolated,EEG.AF3,EEG.F7,EEG.F3,EEG.FC5,EEG.T7,EEG.P7,EEG.O1,EEG.O2,EEG.P8,EEG.T8,EEG.FC6,EEG.F4,EEG.F8,EEG.AF4,EEG.RawCq,EEG.Battery,EEG.BatteryPercent,MarkerIndex,MarkerType,MarkerValueInt,EEG.MarkerHardware,CQ.AF3,CQ.F7,CQ.F3,CQ.FC5,CQ.T7,CQ.P7,CQ.O1,CQ.O2,CQ.P8,CQ.T8,CQ.FC6,CQ.F4,CQ.F8,CQ.AF4,CQ.Overall,EQ.SampleRateQuality,EQ.OVERALL,EQ.AF3,EQ.F7,EQ.F3,EQ.FC5,EQ.T7,EQ.P7,EQ.O1,EQ.O2,EQ.P8,EQ.T8,EQ.FC6,EQ.F4,EQ.F8,EQ.AF4,PM.Attention.IsActive,PM.Attention.Scaled,PM.Attention.Raw,PM.Attention.Min,PM.Attention.Max,PM.Engagement.IsActive,PM.Engagement.Scaled,PM.Engagement.Raw,PM.Engagement.Min,PM.Engagement.Max,PM.Excitement.IsActive,PM.Excitement.Scaled,PM.Excitement.Raw,PM.Excitement.Min,PM.Excitement.Max,PM.LongTermExcitement,PM.Stress.IsActive,PM.Stress.Scaled,PM.Stress.Raw,PM.Stress.Min,PM.Stress.Max,PM.Relaxation.IsActive,PM.Relaxation.Scaled,PM.Relaxation.Raw,PM.Relaxation.Min,PM.Relaxation.Max,PM.Interest.IsActive,PM.Interest.Scaled,PM.Interest.Raw,PM.Interest.Min,PM.Interest.Max,POW.AF3.Theta,POW.AF3.Alpha,POW.AF3.BetaL,POW.AF3.BetaH,POW.AF3.Gamma,POW.F7.Theta,POW.F7.Alpha,POW.F7.BetaL,POW.F7.BetaH,POW.F7.Gamma,POW.F3.Theta,POW.F3.Alpha,POW.F3.BetaL,POW.F3.BetaH,POW.F3.Gamma,POW.FC5.Theta,POW.FC5.Alpha,POW.FC5.BetaL,POW.FC5.BetaH,POW.FC5.Gamma,POW.T7.Theta,POW.T7.Alpha,POW.T7.BetaL,POW.T7.BetaH,POW.T7.Gamma,POW.P7.Theta,POW.P7.Alpha,POW.P7.BetaL,POW.P7.BetaH,POW.P7.Gamma,POW.O1.Theta,POW.O1.Alpha,POW.O1.BetaL,POW.O1.BetaH,POW.O1.Gamma,POW.O2.Theta,POW.O2.Alpha,POW.O2.BetaL,POW.O2.BetaH,POW.O2.Gamma,POW.P8.Theta,POW.P8.Alpha,POW.P8.BetaL,POW.P8.BetaH,POW.P8.Gamma,POW.T8.Theta,POW.T8.Alpha,POW.T8.BetaL,POW.T8.BetaH,POW.T8.Gamma,POW.FC6.Theta,POW.FC6.Alpha,POW.FC6.BetaL,POW.FC6.BetaH,POW.FC6.Gamma,POW.F4.Theta,POW.F4.Alpha,POW.F4.BetaL,POW.F4.BetaH,POW.F4.Gamma,POW.F8.Theta,POW.F8.Alpha,POW.F8.BetaL,POW.F8.BetaH,POW.F8.Gamma,POW.AF4.Theta,POW.AF4.Alpha,POW.AF4.BetaL,POW.AF4.BetaH,POW.AF4.Gamma
1768371985.789069,1768371985.789907,101.000000,0.000000,4363.717773,4325.512695,4342.820313,4341.794922,4310.641113,4313.333496,4301.538574,4316.153809,4311.153809,4290.128418,4530.256348,4527.436035,4433.717773,4513.077148,5392.000000,2.000000,37.000000,,,,0.000000,4.000000,4.000000,4.000000,4.000000,4.000000,4.000000,4.000000,4.000000,4.000000,4.000000,4.000000,4.000000,4.000000,4.000000,100.000000,,,,,,,,,,,,,,,,,,,,,,,,,,,,,,,,,,,,,,,,,,,,,,,,,,,,,,,,,,,,,,,,,,,,,,,,,,,,,,,,,,,,,,,,,,,,,,,,,,,,,,,,,,,,,,,,,,,,,
1768371985.796877,1768371985.797815,102.000000,0.000000,4361.538574,4321.153809,4343.333496,4341.153809,4311.922852,4314.615234,4309.358887,4312.948730,4304.871582,4285.128418,4522.179688,4524.615234,4426.410156,4497.179688,4397.000000,2.000000,37.000000,,,,0.000000,4.000000,4.000000,4.000000,4.000000,4.000000,4.000000,4.000000,4.000000,4.000000,4.000000,4.000000,4.000000,4.000000,4.000000,100.000000,,,,,,,,,,,,,,,,,,,,,,,,,,,,,,,,,,,,,,,,,,,,,,,,,,,,,,,,,,,,,,,,,,,,,,,,,,,,,,,,,,,,,,,,,,,,,,,,,,,,,,,,,,,,,,,,,,,,,
1768371985.804686,1768371985.805623,103.000000,0.000000,4356.410156,4316.794922,4341.922852,4339.615234,4308.717773,4312.436035,4301.538574,4306.922852,4290.641113,4274.871582,4508.077148,4515.512695,4412.307617,4487.692383,4676.000000,2.000000,37.000000,,,,0.000000,4.000000,4.000000,4.000000,4.000000,4.000000,4.000000,4.000000,4.000000,4.000000,4.000000,4.000000,4.000000,4.000000,4.000000,100.000000,,,,,,,,,,,,,,,,,,,,,,,,,,,,,,,,,,,,,,,,,,,,,,,,,,,,,,,,,,,,,,,,,,,,,,,,,,,,,,,,,,,,,,,,,,,,,,,,,,,,,,,,,,,,,,,,,,,,,
1768371985.812494,1768371985.813632,104.000000,0.000000,4357.051270,4320.512695,4341.794922,4338.974121,4305.384766,4306.410156,4293.974121,4310.000000,4289.871582,4275.641113,4510.641113,4519.102539,4409.615234,4493.461426,5020.000000,2.000000,37.000000,,,,0.000000,4.000000,4.000000,4.000000,4.000000,4.000000,4.000000,4.000000,4.000000,4.000000,4.000000,4.000000,4.000000,4.000000,4.000000,100.000000,,,,,,,,,,,,,,,,,,,,,,,,,,,,,,,,,,,,,,,,,,,,,,,,,,,,,,,,,,,,,,,,,,,,,,,,,,,,,,,,,,,,,,,,,,,,,,,,,,,,,,,,,,,,,,,,,,,,,
1768371985.820303,1768371985.821441,105.000000,0.000000,4358.205078,4325.769043,4343.205078,4341.153809,4310.512695,4310.384766,4304.487305,4317.692383,4304.615234,4284.487305,4521.538574,4531.666504,4420.641113,4493.333496,5392.000000,2.000000,37.000000,,,,0.000000,4.000000,4.000000,4.000000,4.000000,4.000000,4.000000,4.000000,4.000000,4.000000,4.000000,4.000000,4.000000,4.000000,4.000000,100.000000,,,,,,,,,,,,,,,,,,,,,,,,,,,,,,,,,,,,,,,,,,,,,,,,,,,,,,,,,,,,,,,,,,,,,,,,,,,,,,,,,,,,,,,,,,,,,,,,,,,,,,,,,,,,,,,,,,,,,
1768371985.828111,1768371985.829349,106.000000,0.000000,4357.436035,4321.282227,4343.461426,4341.153809,4311.794922,4318.077148,4312.948730,4319.615234,4312.563965,4285.641113,4522.563965,4530.000000,4423.589844,4491.666504,4397.000000,2.000000,37.000000,,,,0.000000,4.000000,4.000000,4.000000,4.000000,4.000000,4.000000,4.000000,4.000000,4.000000,4.000000,4.000000,4.000000,4.000000,4.000000,100.000000,,,,,,,,,,,,,,,,,,,,,,,,,,,,,,,,,,,,,,,,,,,,,,,,,,,,,,,,,,,,,,,,,,,,,,,,,,,,,,,,,,,,,,,,,,,,,,,,,,,,,,,,,,,,,,,,,,,,,
1768371985.835920,1768371985.837157,107.000000,0.000000,4358.589844,4316.410156,4341.282227,4340.512695,4304.487305,4316.153809,4310.641113,4316.153809,4303.974121,4283.205078,4518.077148,4520.384766,4414.871582,4493.205078,4676.000000,2.000000,37.000000,,,,0.000000,4.000000,4.000000,4.000000,4.000000,4.000000,4.000000,4.000000,4.000000,4.000000,4.000000,4.000000,4.000000,4.000000,4.000000,100.000000,,,,,,,,,,,,,,,,,,,,,,,,,,,,,,,,,,,,,,,,,,,,,,,,,,,,,,,,,,,,,,,,,,,,,,,,,,,,,,,,,,,,,,,,,,,,,,,,,,,,,,,,,,,,,,,,,,,,,
1768371985.843728,1768371985.844766,108.000000,0.000000,4353.589844,4319.358887,4337.948730,4338.974121,4306.282227,4312.307617,4309.487305,4315.897461,4302.563965,4287.307617,4520.769043,4523.333496,4415.897461,4492.307617,5020.000000,2.000000,37.000000,,,,0.000000,4.000000,4.000000,4.000000,4.000000,4.000000,4.000000,4.000000,4.000000,4.000000,4.000000,4.000000,4.000000,4.000000,4.000000,100.000000,,,,,,,,,,,,,,,,,,,,,,,,,,,,,,,,,,,,,,,,,,,,,,,,,,,,,,,,,,,,,,,,,,,,,,,,,,,,,,,,,,,,,,,,,,,,,,,,,,,,,,,,,,,,,,,,,,,,,
1768371985.851536,1768371985.852574,109.000000,0.000000,4347.820313,4316.922852,4336.794922,4333.333496,4310.384766,4311.025879,4307.307617,4318.205078,4309.871582,4292.563965,4525.000000,4530.384766,4422.307617,4490.000000,5392.000000,2.000000,37.000000,,,,0.000000,4.000000,4.000000,4.000000,4.000000,4.000000,4.000000,4.000000,4.000000,4.000000,4.000000,4.000000,4.000000,4.000000,4.000000,100.000000,,,,,,,,,,,,,,,,,,,,,,,,,,,,,,,,,,,,,,,,,,,,,,,,,,,,,,,,,,,,,,,,,,,,,,,,,,,,,,,,,,,,,,,,,,,,,,,,,,,,,,,,,,,,,,,,,,,,,
1768371985.859345,1768371985.860283,110.000000,0.000000,4356.666504,4311.153809,4337.948730,4331.922852,4305.897461,4309.358887,4304.358887,4317.051270,4305.897461,4293.205078,4524.358887,4527.307617,4423.333496,4492.307617,4397.000000,2.000000,37.000000,,,,0.000000,4.000000,4.000000,4.000000,4.000000,4.000000,4.000000,4.000000,4.000000,4.000000,4.000000,4.000000,4.000000,4.000000,4.000000,100.000000,,,,,,,,,,,,,,,,,,,,,,,,,,,,,,,,,,,,,,,,,,,,,,,,0.906543,0.205323,0.305963,0.263818,0.232232,0.475876,0.271095,0.217053,0.139322,0.099386,0.669608,0.196346,0.117782,0.171390,0.104244,0.344960,0.310397,0.392651,0.147753,0.089982,0.307325,0.118000,0.150012,0.058332,0.053045,0.171818,0.145087,0.163770,0.103126,0.089029,0.143791,0.234671,0.112985,0.088186,0.069282,0.629061,0.259508,0.276361,0.117364,0.088927,0.485279,0.160058,0.213590,0.095284,0.108525,0.587868,0.385721,0.477396,0.138186,0.184265,1.282002,0.293664,0.459992,0.233126,0.206194,1.300189,0.119446,0.377522,0.299337,0.162950,1.743739,0.411830,0.419414,0.261760,0.149747,1.267860,0.334918,0.454538,0.312738,0.277704
1768371985.867153,1768371985.868091,111.000000,0.000000,4364.615234,4315.384766,4340.256348,4337.307617,4302.948730,4309.487305,4304.743652,4315.769043,4300.641113,4292.563965,4523.461426,4527.179688,4424.871582,4495.000000,4676.000000,2.000000,37.000000,,,,0.000000,4.000000,4.000000,4.000000,4.000000,4.000000,4.000000,4.000000,4.000000,4.000000,4.000000,4.000000,4.000000,4.000000,4.000000,100.000000,,,,,,,,,,,,,,,,,,,,,,,,,,,,,,,,,,,,,,,,,,,,,,,,,,,,,,,,,,,,,,,,,,,,,,,,,,,,,,,,,,,,,,,,,,,,,,,,,,,,,,,,,,,,,,,,,,,,,
1768371985.874962,1768371985.875700,112.000000,0.000000,4358.589844,4323.205078,4342.051270,4338.846191,4304.102539,4309.871582,4307.051270,4317.948730,4304.871582,4292.436035,4524.358887,4534.615234,4427.179688,4493.717773,5020.000000,2.000000,37.000000,,,,0.000000,4.000000,4.000000,4.000000,4.000000,4.000000,4.000000,4.000000,4.000000,4.000000,4.000000,4.000000,4.000000,4.000000,4.000000,100.000000,,,,,,,,,,,,,,,,,,,,,,,,,,,,,,,,,,,,,,,,,,,,,,,,,,,,,,,,,,,,,,,,,,,,,,,,,,,,,,,,,,,,,,,,,,,,,,,,,,,,,,,,,,,,,,,,,,,,,
1768371985.882770,1768371985.883508,113.000000,0.000000,4353.333496,4322.051270,4343.205078,4338.974121,4303.461426,4310.256348,4309.871582,4320.897461,4308.333496,4290.897461,4526.282227,4537.179688,4426.025879,4493.589844,5392.000000,2.000000,37.000000,,,,0.000000,4.000000,4.000000,4.000000,4.000000,4.000000,4.000000,4.000000,4.000000,4.000000,4.000000,4.000000,4.000000,4.000000,4.000000,100.000000,,,,,,,,,,,,,,,,,,,,,,,,,,,,,,,,,,,,,,,,,,,,,,,,,,,,,,,,,,,,,,,,,,,,,,,,,,,,,,,,,,,,,,,,,,,,,,,,,,,,,,,,,,,,,,,,,,,,,
1768371985.890579,1768371985.891217,114.000000,0.000000,4358.846191,4317.820313,4345.128418,4341.025879,4306.282227,4313.077148,4311.153809,4321.410156,4308.846191,4292.436035,4524.615234,4532.179688,4421.794922,4496.025879,4397.000000,2.000000,37.000000,,,,0.000000,4.000000,4.000000,4.000000,4.000000,4.000000,4.000000,4.000000,4.000000,4.000000,4.000000,4.000000,4.000000,4.000000,4.000000,100.000000,,,,,,,,,,,,,,,,,,,,,,,,,,,,,,,,,,,,,,,,,,,,,,,,,,,,,,,,,,,,,,,,,,,,,,,,,,,,,,,,,,,,,,,,,,,,,,,,,,,,,,,,,,,,,,,,,,,,,
1768371985.898387,1768371985.899025,115.000000,0.000000,4357.436035,4315.641113,4341.666504,4333.846191,4309.487305,4313.205078,4309.871582,4319.102539,4307.563965,4293.077148,4521.282227,4523.589844,4413.974121,4490.897461,4676.000000,2.000000,37.000000,,,,0.000000,4.000000,4.000000,4.000000,4.000000,4.000000,4.000000,4.000000,4.000000,4.000000,4.000000,4.000000,4.000000,4.000000,4.000000,100.000000,,,,,,,,,,,,,,,,,,,,,,,,,,,,,,,,,,,,,,,,,,,,,,,,,,,,,,,,,,,,,,,,,,,,,,,,,,,,,,,,,,,,,,,,,,,,,,,,,,,,,,,,,,,,,,,,,,,,,
1768371985.906196,1768371985.907034,116.000000,0.000000,4345.641113,4308.717773,4333.333496,4324.358887,4301.794922,4310.769043,4308.461426,4318.461426,4305.000000,4288.974121,4521.410156,4519.230957,4411.410156,4480.769043,5020.000000,2.000000,37.000000,,,,0.000000,4.000000,4.000000,4.000000,4.000000,4.000000,4.000000,4.000000,4.000000,4.000000,4.000000,4.000000,4.000000,4.000000,4.000000,100.000000,,,,,,,,,,,,,,,,,,,,,,,,,,,,,,,,,,,,,,,,,,,,,,,,,,,,,,,,,,,,,,,,,,,,,,,,,,,,,,,,,,,,,,,,,,,,,,,,,,,,,,,,,,,,,,,,,,,,,
1768371985.914004,1768371985.914842,117.000000,0.000000,4339.358887,4301.025879,4326.794922,4325.897461,4295.897461,4311.282227,4307.307617,4316.794922,4305.769043,4289.102539,4518.589844,4519.743652,4413.589844,4475.000000,5392.000000,2.000000,37.000000,,,,0.000000,4.000000,4.000000,4.000000,4.000000,4.000000,4.000000,4.000000,4.000000,4.000000,4.000000,4.000000,4.000000,4.000000,4.000000,100.000000,,,,,,,,,,,,,,,,,,,,,,,,,,,,,,,,,,,,,,,,,,,,,,,,,,,,,,,,,,,,,,,,,,,,,,,,,,,,,,,,,,,,,,,,,,,,,,,,,,,,,,,,,,,,,,,,,,,,,
1768371985.921812,1768371985.922551,118.000000,0.000000,4339.230957,4300.000000,4324.358887,4327.563965,4300.000000,4311.153809,4305.384766,4314.615234,4308.333496,4288.846191,4512.051270,4516.282227,4408.846191,4472.307617,4397.000000,2.000000,37.000000,,,,0.000000,4.000000,4.000000,4.000000,4.000000,4.000000,4.000000,4.000000,4.000000,4.000000,4.000000,4.000000,4.000000,4.000000,4.000000,100.000000,,,,,,,,,,,,,,,,,,,,,,,,,,,,,,,,,,,,,,,,,,,,,,,,,,,,,,,,,,,,,,,,,,,,,,,,,,,,,,,,,,,,,,,,,,,,,,,,,,,,,,,,,,,,,,,,,,,,,
1768371985.929621,1768371985.930359,119.000000,0.000000,4344.743652,4307.692383,4328.333496,4327.692383,4303.974121,4315.256348,4307.820313,4323.461426,4315.897461,4292.179688,4518.974121,4517.179688,4415.641113,4478.077148,4676.000000,2.000000,37.000000,,,,0.000000,4.000000,4.000000,4.000000,4.000000,4.000000,4.000000,4.000000,4.000000,4.000000,4.000000,4.000000,4.000000,4.000000,4.000000,100.000000,,,,,,,,,,,,,,,,,,,,,,,,,,,,,,,,,,,,,,,,,,,,,,,,,,,,,,,,,,,,,,,,,,,,,,,,,,,,,,,,,,,,,,,,,,,,,,,,,,,,,,,,,,,,,,,,,,,,,
1768371985.937429,1768371985.937968,120.000000,0.000000,4356.153809,4317.948730,4339.230957,4337.563965,4309.358887,4325.000000,4312.692383,4329.615234,4321.410156,4305.384766,4538.461426,4530.256348,4434.743652,4491.922852,5020.000000,2.000000,37.000000,,,,0.000000,4.000000,4.000000,4.000000,4.000000,4.000000,4.000000,4.000000,4.000000,4.000000,4.000000,4.000000,4.000000,4.000000,4.000000,100.000000,,,,,,,,,,,,,,,,,,,,,,,,,,,,,,,,,,,,,,,,,,,,,,,,,,,,,,,,,,,,,,,,,,,,,,,,,,,,,,,,,,,,,,,,,,,,,,,,,,,,,,,,,,,,,,,,,,,,,
1768371985.945238,1768371985.945776,121.000000,0.000000,4360.641113,4323.205078,4340.897461,4345.897461,4310.897461,4323.589844,4312.179688,4320.128418,4313.333496,4309.230957,4539.358887,4532.563965,4435.512695,4497.179688,5392.000000,2.000000,37.000000,,,,0.000000,4.000000,4.000000,4.000000,4.000000,4.000000,4.000000,4.000000,4.000000,4.000000,4.000000,4.000000,4.000000,4.000000,4.000000,100.000000,,,,,,,,,,,,,,,,,,,,,,,,,,,,,,,,,,,,,,,,,,,,,,,,,,,,,,,,,,,,,,,,,,,,,,,,,,,,,,,,,,,,,,,,,,,,,,,,,,,,,,,,,,,,,,,,,,,,,
1768371985.953046,1768371985.953485,122.000000,0.000000,4350.384766,4319.230957,4327.692383,4337.307617,4304.743652,4313.846191,4308.461426,4317.307617,4306.025879,4297.820313,4523.461426,4520.128418,4422.820313,4488.461426,4397.000000,2.000000,37.000000,,,,0.000000,4.000000,4.000000,4.000000,4.000000,4.000000,4.000000,4.000000,4.000000,4.000000,4.000000,4.000000,4.000000,4.000000,4.000000,100.000000,,,,,,,,,,,,,,,,,,,,,,,,,,,,,,,,,,,,,,,,,,,,,,,,,,,,,,,,,,,,,,,,,,,,,,,,,,,,,,,,,,,,,,,,,,,,,,,,,,,,,,,,,,,,,,,,,,,,,
1768371985.960855,1768371985.961293,123.000000,0.000000,4341.410156,4311.794922,4324.102539,4330.384766,4303.205078,4316.282227,4308.077148,4324.487305,4312.436035,4292.692383,4520.000000,4517.436035,4423.974121,4481.666504,4676.000000,2.000000,37.000000,,,,0.000000,4.000000,4.000000,4.000000,4.000000,4.000000,4.000000,4.000000,4.000000,4.000000,4.000000,4.000000,4.000000,4.000000,4.000000,100.000000,,,,,,,,,,,,,,,,,,,,,,,,,,,,,,,,,,,,,,,,,,,,,,,,,,,,,,,,,,,,,,,,,,,,,,,,,,,,,,,,,,,,,,,,,,,,,,,,,,,,,,,,,,,,,,,,,,,,,
1768371985.968663,1768371985.969302,124.000000,0.000000,4346.282227,4311.538574,4334.487305,4335.128418,4310.512695,4322.692383,4310.512695,4319.102539,4312.948730,4297.563965,4525.512695,4520.128418,4428.589844,4482.948730,5020.000000,2.000000,37.000000,,,,0.000000,4.000000,4.000000,4.000000,4.000000,4.000000,4.000000,4.000000,4.000000,4.000000,4.000000,4.000000,4.000000,4.000000,4.000000,100.000000,,,,,,,,,,,,,,,,,,,,,,,,,,,,,,,,,,,,,,,,,,,,,,,,,,,,,,,,,,,,,,,,,,,,,,,,,,,,,,,,,,,,,,,,,,,,,,,,,,,,,,,,,,,,,,,,,,,,,
1768371985.976472,1768371985.977110,125.000000,0.000000,4352.436035,4316.025879,4335.384766,4338.846191,4311.666504,4320.769043,4311.025879,4311.922852,4302.179688,4297.051270,4522.051270,4515.512695,4420.769043,4483.205078,5392.000000,2.000000,37.000000,,,,0.000000,4.000000,4.000000,4.000000,4.000000,4.000000,4.000000,4.000000,4.000000,4.000000,4.000000,4.000000,4.000000,4.000000,4.000000,100.000000,,,,,,,,,,,,,,,,,,,,,,,,,,,,,,,,,,,,,,,,,,,,,,,,,,,,,,,,,,,,,,,,,,,,,,,,,,,,,,,,,,,,,,,,,,,,,,,,,,,,,,,,,,,,,,,,,,,,,
1768371985.984280,1768371985.985018,126.000000,0.000000,4348.846191,4316.666504,4327.563965,4336.153809,4308.461426,4318.974121,4309.871582,4317.692383,4301.922852,4292.692383,4517.563965,4510.897461,4417.436035,4478.589844,4397.000000,2.000000,37.000000,,,,0.000000,4.000000,4.000000,4.000000,4.000000,4.000000,4.000000,4.000000,4.000000,4.000000,4.000000,4.000000,4.000000,4.000000,4.000000,100.000000,,,,,,,,,,,,,,,,,,,,,,,,,,,,,,,,,,,,,,,,,,,,,,,,0.960430,0.232087,0.300859,0.235167,0.225802,0.503788,0.244481,0.199073,0.126814,0.090536,0.656850,0.165558,0.106874,0.158428,0.096641,0.351008,0.254696,0.380531,0.134694,0.083390,0.288048,0.100219,0.154645,0.055669,0.051908,0.173389,0.140263,0.159040,0.093130,0.081198,0.122256,0.185054,0.116348,0.078897,0.061891,0.577056,0.234731,0.245642,0.138468,0.082486,0.503616,0.164468,0.193575,0.099233,0.098267,0.569921,0.295336,0.384810,0.137076,0.167822,1.336257,0.327598,0.388666,0.264708,0.178496,1.192161,0.087475,0.326299,0.324181,0.138225,1.839306,0.490321,0.414063,0.312420,0.142023,1.295499,0.413286,0.435292,0.345331,0.259391
1768371985.992088,1768371985.992827,127.000000,0.000000,4340.000000,4315.384766,4324.230957,4330.641113,4307.436035,4319.358887,4309.230957,4317.948730,4308.717773,4293.974121,4520.897461,4509.102539,4426.410156,4471.794922,37.000000,2.000000,37.000000,,,,0.000000,4.000000,4.000000,4.000000,4.000000,4.000000,4.000000,4.000000,4.000000,4.000000,4.000000,4.000000,4.000000,4.000000,4.000000,100.000000,,,,,,,,,,,,,,,,,,,,,,,,,,,,,,,,,,,,,,,,,,,,,,,,,,,,,,,,,,,,,,,,,,,,,,,,,,,,,,,,,,,,,,,,,,,,,,,,,,,,,,,,,,,,,,,,,,,,,
1768371985.999897,1768371986.000835,0.000000,0.000000,4340.384766,4313.333496,4326.410156,4330.512695,4306.153809,4319.615234,4311.538574,4314.743652,4307.563965,4296.794922,4525.384766,4512.051270,4436.025879,4473.333496,4044.000000,2.000000,37.000000,,,,0.000000,4.000000,4.000000,4.000000,4.000000,4.000000,4.000000,4.000000,4.000000,4.000000,4.000000,4.000000,4.000000,4.000000,4.000000,100.000000,,,,,,,,,,,,,,,,,,,,,,,,,,,,,,,,,,,,,,,,,,,,,,,,,,,,,,,,,,,,,,,,,,,,,,,,,,,,,,,,,,,,,,,,,,,,,,,,,,,,,,,,,,,,,,,,,,,,,
1768371986.007705,1768371986.008643,1.000000,0.000000,4345.897461,4310.256348,4327.436035,4332.563965,4305.384766,4316.410156,4312.051270,4318.846191,4301.153809,4296.538574,4526.922852,4514.743652,4435.000000,4477.307617,3981.000000,2.000000,37.000000,,,,0.000000,4.000000,4.000000,4.000000,4.000000,4.000000,4.000000,4.000000,4.000000,4.000000,4.000000,4.000000,4.000000,4.000000,4.000000,100.000000,,,,,,,,,,,,,,,,,,,,,,,,,,,,,,,,,,,,,,,,,,,,,,,,,,,,,,,,,,,,,,,,,,,,,,,,,,,,,,,,,,,,,,,,,,,,,,,,,,,,,,,,,,,,,,,,,,,,,
1768371986.015514,1768371986.016552,2.000000,0.000000,4341.410156,4310.897461,4324.615234,4330.897461,4306.666504,4313.589844,4309.230957,4317.179688,4297.179688,4293.589844,4522.948730,4510.641113,4426.025879,4471.282227,3881.000000,2.000000,37.000000,,,,0.000000,4.000000,4.000000,4.000000,4.000000,4.000000,4.000000,4.000000,4.000000,4.000000,4.000000,4.000000,4.000000,4.000000,4.000000,100.000000,,,,,,,,,,,,,,,,,,,,,,,,,,,,,,,,,,,,,,,,,,,,,,,,,,,,,,,,,,,,,,,,,,,,,,,,,,,,,,,,,,,,,,,,,,,,,,,,,,,,,,,,,,,,,,,,,,,,,
1768371986.023322,1768371986.024360,3.000000,0.000000,4341.282227,4317.179688,4325.000000,4334.871582,4307.436035,4317.179688,4308.717773,4307.692383,4292.948730,4292.179688,4519.487305,4506.666504,4419.230957,4467.436035,3864.000000,2.000000,37.000000,,,,0.000000,4.000000,4.000000,4.000000,4.000000,4.000000,4.000000,4.000000,4.000000,4.000000,4.000000,4.000000,4.000000,4.000000,4.000000,100.000000,,,,,,,,,,,,,,,,,,,,,,,,,,,,,,,,,,,,,,,,,,,,,,,,,,,,,,,,,,,,,,,,,,,,,,,,,,,,,,,,,,,,,,,,,,,,,,,,,,,,,,,,,,,,,,,,,,,,,
1768371986.031131,1768371986.032368,4.000000,0.000000,4353.205078,4319.615234,4330.897461,4342.051270,4309.102539,4320.897461,4310.512695,4309.358887,4292.563965,4294.230957,4522.563965,4511.282227,4417.948730,4474.358887,3764.000000,2.000000,37.000000,,,,0.000000,4.000000,4.000000,4.000000,4.000000,4.000000,4.000000,4.000000,4.000000,4.000000,4.000000,4.000000,4.000000,4.000000,4.000000,100.000000,,,,,,,,,,,,,,,,,,,,,,,,,,,,,,,,,,,,,,,,,,,,,,,,,,,,,,,,,,,,,,,,,,,,,,,,,,,,,,,,,,,,,,,,,,,,,,,,,,,,,,,,,,,,,,,,,,,,,
1768371986.038939,1768371986.040177,5.000000,0.000000,4352.820313,4316.538574,4332.307617,4338.333496,4311.410156,4320.256348,4311.538574,4319.230957,4304.230957,4299.358887,4524.871582,4517.051270,4421.025879,4478.461426,3749.000000,2.000000,37.000000,,,,0.000000,4.000000,4.000000,4.000000,4.000000,4.000000,4.000000,4.000000,4.000000,4.000000,4.000000,4.000000,4.000000,4.000000,4.000000,100.000000,,,,,,,,,,,,,,,,,,,,,,,,,,,,,,,,,,,,,,,,,,,,,,,,,,,,,,,,,,,,,,,,,,,,,,,,,,,,,,,,,,,,,,,,,,,,,,,,,,,,,,,,,,,,,,,,,,,,,
1768371986.046748,1768371986.047885,6.000000,0.000000,4338.974121,4319.743652,4329.358887,4333.717773,4310.897461,4319.743652,4312.179688,4320.000000,4309.743652,4303.333496,4523.846191,4519.102539,4421.794922,4475.512695,3744.000000,2.000000,37.000000,,,,0.000000,4.000000,4.000000,4.000000,4.000000,4.000000,4.000000,4.000000,4.000000,4.000000,4.000000,4.000000,4.000000,4.000000,4.000000,100.000000,,,,,,,,,,,,,,,,,,,,,,,,,,,,,,,,,,,,,,,,,,,,,,,,,,,,,,,,,,,,,,,,,,,,,,,,,,,,,,,,,,,,,,,,,,,,,,,,,,,,,,,,,,,,,,,,,,,,,
1768371986.054556,1768371986.055694,7.000000,0.000000,4339.230957,4328.077148,4332.563965,4341.410156,4310.256348,4320.384766,4311.538574,4316.282227,4301.538574,4299.615234,4523.333496,4518.717773,4417.692383,4477.051270,3735.000000,2.000000,37.000000,,,,0.000000,4.000000,4.000000,4.000000,4.000000,4.000000,4.000000,4.000000,4.000000,4.000000,4.000000,4.000000,4.000000,4.000000,4.000000,100.000000,,,,,,,,,,,,,,,,,,,,,,,,,,,,,,,,,,,,,,,,,,,,,,,,,,,,,,,,,,,,,,,,,,,,,,,,,,,,,,,,,,,,,,,,,,,,,,,,,,,,,,,,,,,,,,,,,,,,,
1768371986.062364,1768371986.063702,8.000000,0.000000,4348.461426,4328.717773,4336.153809,4345.256348,4314.743652,4320.769043,4311.794922,4315.128418,4297.692383,4292.563965,4521.794922,4514.615234,4413.333496,4477.948730,3949.000000,2.000000,37.000000,,,,0.000000,4.000000,4.000000,4.000000,4.000000,4.000000,4.000000,4.000000,4.000000,4.000000,4.000000,4.000000,4.000000,4.000000,4.000000,100.000000,,,,,,,,,,,,,,,,,,,,,,,,,,,,,,,,,,,,,,,,,,,,,,,,,,,,,,,,,,,,,,,,,,,,,,,,,,,,,,,,,,,,,,,,,,,,,,,,,,,,,,,,,,,,,,,,,,,,,
1768371986.070173,1768371986.071511,9.000000,0.000000,4345.641113,4324.743652,4335.384766,4342.051270,4318.974121,4324.487305,4315.384766,4317.563965,4306.410156,4293.589844,4520.000000,4513.461426,4412.563965,4475.128418,3929.000000,2.000000,37.000000,,,,0.000000,4.000000,4.000000,4.000000,4.000000,4.000000,4.000000,4.000000,4.000000,4.000000,4.000000,4.000000,4.000000,4.000000,4.000000,100.000000,,,,,,,,,,,,,,,,,,,,,,,,,,,,,,,,,,,,,,,,,,,,,,,,,,,,,,,,,,,,,,,,,,,,,,,,,,,,,,,,,,,,,,,,,,,,,,,,,,,,,,,,,,,,,,,,,,,,,
1768371986.077981,1768371986.079219,10.000000,0.000000,4343.077148,4327.051270,4338.205078,4340.256348,4314.102539,4324.615234,4314.358887,4320.000000,4311.538574,4297.563965,4521.666504,4519.102539,4414.230957,4476.922852,4397.000000,2.000000,37.000000,,,,0.000000,4.000000,4.000000,4.000000,4.000000,4.000000,4.000000,4.000000,4.000000,4.000000,4.000000,4.000000,4.000000,4.000000,4.000000,100.000000,,,,,,,,,,,,,,,,,,,,,,,,,,,,,,,,,,,,,,,,,,,,,,,,,,,,,,,,,,,,,,,,,,,,,,,,,,,,,,,,,,,,,,,,,,,,,,,,,,,,,,,,,,,,,,,,,,,,,
1768371986.085790,1768371986.087028,11.000000,0.000000,4346.922852,4331.666504,4343.461426,4340.641113,4307.436035,4320.769043,4312.179688,4317.563965,4307.948730,4295.769043,4522.692383,4522.307617,4416.282227,4477.820313,4674.000000,2.000000,37.000000,,,,0.000000,4.000000,4.000000,4.000000,4.000000,4.000000,4.000000,4.000000,4.000000,4.000000,4.000000,4.000000,4.000000,4.000000,4.000000,100.000000,,,,,,,,,,,,,,,,,,,,,,,,,,,,,,,,,,,,,,,,,,,,,,,,,,,,,,,,,,,,,,,,,,,,,,,,,,,,,,,,,,,,,,,,,,,,,,,,,,,,,,,,,,,,,,,,,,,,,
1768371986.093598,1768371986.095036,12.000000,0.000000,4346.410156,4330.897461,4340.512695,4342.563965,4308.974121,4322.692383,4315.128418,4317.179688,4310.000000,4294.487305,4521.794922,4520.641113,4416.025879,4476.410156,5020.000000,2.000000,37.000000,,,,0.000000,4.000000,4.000000,4.000000,4.000000,4.000000,4.000000,4.000000,4.000000,4.000000,4.000000,4.000000,4.000000,4.000000,4.000000,100.000000,,,,,,,,,,,,,,,,,,,,,,,,,,,,,,,,,,,,,,,,,,,,,,,,,,,,,,,,,,,,,,,,,,,,,,,,,,,,,,,,,,,,,,,,,,,,,,,,,,,,,,,,,,,,,,,,,,,,,
1768371986.101406,1768371986.102844,13.000000,0.000000,4343.077148,4327.820313,4328.333496,4340.384766,4310.384766,4323.461426,4315.256348,4318.846191,4311.025879,4295.384766,4517.820313,4516.794922,4412.563965,4475.256348,5389.000000,2.000000,37.000000,,,,0.000000,4.000000,4.000000,4.000000,4.000000,4.000000,4.000000,4.000000,4.000000,4.000000,4.000000,4.000000,4.000000,4.000000,4.000000,100.000000,,,,,,,,,,,,,,,,,,,,,,,,,,,,,,,,,,,,,,,,,,,,,,,,,,,,,,,,,,,,,,,,,,,,,,,,,,,,,,,,,,,,,,,,,,,,,,,,,,,,,,,,,,,,,,,,,,,,,
1768371986.109215,1768371986.110753,14.000000,0.000000,4340.897461,4327.820313,4324.487305,4338.717773,4308.974121,4321.922852,4315.384766,4314.871582,4309.102539,4294.358887,4515.128418,4514.487305,4411.794922,4474.615234,4397.000000,2.000000,37.000000,,,,0.000000,4.000000,4.000000,4.000000,4.000000,4.000000,4.000000,4.000000,4.000000,4.000000,4.000000,4.000000,4.000000,4.000000,4.000000,100.000000,1.000000,50.000000,4.000000,4.000000,4.000000,4.000000,1.000000,4.000000,1.000000,4.000000,4.000000,4.000000,4.000000,4.000000,4.000000,4.000000,,,,,,,,,,,,,,,,,,,,,,,,,,,,,,,,0.931276,0.272742,0.290495,0.207224,0.212513,0.524135,0.220689,0.175160,0.114291,0.083855,0.585714,0.141014,0.101629,0.155478,0.089969,0.351464,0.216159,0.345634,0.120890,0.079027,0.252385,0.083386,0.152846,0.055787,0.051245,0.165570,0.156338,0.160423,0.084835,0.076227,0.110965,0.158978,0.112094,0.072008,0.058366,0.483456,0.206560,0.207533,0.153830,0.078095,0.490071,0.176700,0.168311,0.101093,0.089519,0.537265,0.234755,0.277058,0.134417,0.146414,1.288981,0.380313,0.310944,0.299540,0.152808,1.012100,0.083917,0.282104,0.363647,0.116108,1.814134,0.573770,0.388150,0.359483,0.132118,1.200440,0.504840,0.397575,0.382134,0.236899
1768371986.117023,1768371986.118561,15.000000,0.000000,4344.102539,4331.025879,4333.205078,4342.563965,4311.282227,4324.615234,4320.512695,4312.820313,4311.410156,4293.717773,4519.102539,4515.769043,4412.948730,4474.871582,4674.000000,2.000000,37.000000,,,,0.000000,4.000000,4.000000,4.000000,4.000000,4.000000,4.000000,4.000000,4.000000,4.000000,4.000000,4.000000,4.000000,4.000000,4.000000,100.000000,,,,,,,,,,,,,,,,,,,,,,,,,,,,,,,,,,,,,,,,,,,,,,,,,,,,,,,,,,,,,,,,,,,,,,,,,,,,,,,,,,,,,,,,,,,,,,,,,,,,,,,,,,,,,,,,,,,,,
1768371986.124832,1768371986.126170,16.000000,0.000000,4349.615234,4335.000000,4334.871582,4342.948730,4312.820313,4324.487305,4321.025879,4316.410156,4311.153809,4293.717773,4521.025879,4515.000000,4411.666504,4476.538574,0.000000,2.000000,37.000000,,,,0.000000,4.000000,4.000000,4.000000,4.000000,4.000000,4.000000,4.000000,4.000000,4.000000,4.000000,4.000000,4.000000,4.000000,4.000000,100.000000,,,,,,,,,,,,,,,,,,,,,,,,,,,,,,,,,,,,,,,,,,,,,,,,,,,,,,,,,,,,,,,,,,,,,,,,,,,,,,,,,,,,,,,,,,,,,,,,,,,,,,,,,,,,,,,,,,,,,
1768371986.132640,1768371986.133978,17.000000,0.000000,4347.436035,4336.538574,4330.384766,4341.153809,4311.538574,4322.307617,4317.948730,4317.179688,4308.846191,4290.256348,4517.692383,4511.410156,4411.538574,4477.179688,0.000000,2.000000,37.000000,,,,0.000000,4.000000,4.000000,4.000000,4.000000,4.000000,4.000000,4.000000,4.000000,4.000000,4.000000,4.000000,4.000000,4.000000,4.000000,100.000000,,,,,,,,,,,,,,,,,,,,,,,,,,,,,,,,,,,,,,,,,,,,,,,,,,,,,,,,,,,,,,,,,,,,,,,,,,,,,,,,,,,,,,,,,,,,,,,,,,,,,,,,,,,,,,,,,,,,,
1768371986.140449,1768371986.141687,18.000000,0.000000,4339.358887,4332.948730,4330.384766,4342.307617,4311.153809,4325.000000,4323.589844,4315.128418,4310.128418,4291.794922,4519.743652,4513.333496,4415.512695,4476.025879,0.000000,2.000000,37.000000,,,,0.000000,4.000000,4.000000,4.000000,4.000000,4.000000,4.000000,4.000000,4.000000,4.000000,4.000000,4.000000,4.000000,4.000000,4.000000,100.000000,,,,,,,,,,,,,,,,,,,,,,,,,,,,,,,,,,,,,,,,,,,,,,,,,,,,,,,,,,,,,,,,,,,,,,,,,,,,,,,,,,,,,,,,,,,,,,,,,,,,,,,,,,,,,,,,,,,,,
1768371986.148257,1768371986.149495,19.000000,0.000000,4340.256348,4333.589844,4332.948730,4343.077148,4311.538574,4321.922852,4328.205078,4313.333496,4310.897461,4294.230957,4525.256348,4518.846191,4419.102539,4476.025879,0.000000,2.000000,37.000000,,,,0.000000,4.000000,4.000000,4.000000,4.000000,4.000000,4.000000,4.000000,4.000000,4.000000,4.000000,4.000000,4.000000,4.000000,4.000000,100.000000,,,,,,,,,,,,,,,,,,,,,,,,,,,,,,,,,,,,,,,,,,,,,,,,,,,,,,,,,,,,,,,,,,,,,,,,,,,,,,,,,,,,,,,,,,,,,,,,,,,,,,,,,,,,,,,,,,,,,
1768371986.156066,1768371986.157503,20.000000,0.000000,4345.641113,4336.666504,4333.205078,4342.436035,4308.077148,4312.692383,4324.102539,4312.692383,4307.563965,4287.307617,4523.846191,4517.692383,4417.307617,4477.436035,0.000000,2.000000,37.000000,,,,0.000000,4.000000,4.000000,4.000000,4.000000,4.000000,4.000000,4.000000,4.000000,4.000000,4.000000,4.000000,4.000000,4.000000,4.000000,100.000000,,,,,,,,,,,,,,,,,,,,,,,,,,,,,,,,,,,,,,,,,,,,,,,,,,,,,,,,,,,,,,,,,,,,,,,,,,,,,,,,,,,,,,,,,,,,,,,,,,,,,,,,,,,,,,,,,,,,,
1768371986.163874,1768371986.165312,21.000000,0.000000,4341.153809,4330.384766,4328.974121,4340.256348,4304.743652,4312.563965,4322.820313,4313.461426,4308.846191,4286.282227,4519.871582,4512.051270,4411.538574,4475.512695,0.000000,2.000000,37.000000,,,,0.000000,4.000000,4.000000,4.000000,4.000000,4.000000,4.000000,4.000000,4.000000,4.000000,4.000000,4.000000,4.000000,4.000000,4.000000,100.000000,,,,,,,,,,,,,,,,,,,,,,,,,,,,,,,,,,,,,,,,,,,,,,,,,,,,,,,,,,,,,,,,,,,,,,,,,,,,,,,,,,,,,,,,,,,,,,,,,,,,,,,,,,,,,,,,,,,,,
1768371986.171682,1768371986.173220,22.000000,0.000000,4338.846191,4323.974121,4325.897461,4337.051270,4307.820313,4319.102539,4326.282227,4313.333496,4312.179688,4293.846191,4519.871582,4513.077148,4412.436035,4473.333496,0.000000,2.000000,37.000000,,,,0.000000,4.000000,4.000000,4.000000,4.000000,4.000000,4.000000,4.000000,4.000000,4.000000,4.000000,4.000000,4.000000,4.000000,4.000000,100.000000,,,,,,,,,,,,,,,,,,,,,,,,,,,,,,,,,,,,,,,,,,,,,,,,,,,,,,,,,,,,,,,,,,,,,,,,,,,,,,,,,,,,,,,,,,,,,,,,,,,,,,,,,,,,,,,,,,,,,
1768371986.179491,1768371986.181029,23.000000,0.000000,4346.025879,4328.974121,4329.358887,4342.563965,4310.897461,4320.641113,4328.589844,4309.871582,4311.153809,4295.897461,4524.743652,4516.410156,4421.538574,4481.666504,0.000000,2.000000,37.000000,,,,0.000000,4.000000,4.000000,4.000000,4.000000,4.000000,4.000000,4.000000,4.000000,4.000000,4.000000,4.000000,4.000000,4.000000,4.000000,100.000000,,,,,,,,,,,,,,,,,,,,,,,,,,,,,,,,,,,,,,,,,,,,,,,,,,,,,,,,,,,,,,,,,,,,,,,,,,,,,,,,,,,,,,,,,,,,,,,,,,,,,,,,,,,,,,,,,,,,,
1768371986.187299,1768371986.189037,24.000000,0.000000,4351.794922,4335.384766,4333.205078,4349.487305,4310.512695,4320.769043,4328.205078,4307.179688,4305.769043,4288.974121,4526.538574,4515.512695,4428.077148,4492.948730,0.000000,2.000000,37.000000,,,,0.000000,4.000000,4.000000,4.000000,4.000000,4.000000,4.000000,4.000000,4.000000,4.000000,4.000000,4.000000,4.000000,4.000000,4.000000,100.000000,,,,,,,,,,,,,,,,,,,,,,,,,,,,,,,,,,,,,,,,,,,,,,,,,,,,,,,,,,,,,,,,,,,,,,,,,,,,,,,,,,,,,,,,,,,,,,,,,,,,,,,,,,,,,,,,,,,,,
1768371986.195108,1768371986.196845,25.000000,0.000000,4352.051270,4335.641113,4333.974121,4347.820313,4312.563965,4322.307617,4327.692383,4309.487305,4300.384766,4283.846191,4521.794922,4513.333496,4427.563965,4487.820313,0.000000,2.000000,37.000000,,,,0.000000,4.000000,4.000000,4.000000,4.000000,4.000000,4.000000,4.000000,4.000000,4.000000,4.000000,4.000000,4.000000,4.000000,4.000000,100.000000,,,,,,,,,,,,,,,,,,,,,,,,,,,,,,,,,,,,,,,,,,,,,,,,,,,,,,,,,,,,,,,,,,,,,,,,,,,,,,,,,,,,,,,,,,,,,,,,,,,,,,,,,,,,,,,,,,,,,
1768371986.202916,1768371986.204754,26.000000,0.000000,4356.538574,4336.153809,4338.717773,4346.153809,4313.333496,4322.692383,4328.333496,4313.846191,4303.333496,4287.051270,4522.307617,4515.641113,4425.512695,4482.436035,0.000000,2.000000,37.000000,,,,0.000000,4.000000,4.000000,4.000000,4.000000,4.000000,4.000000,4.000000,4.000000,4.000000,4.000000,4.000000,4.000000,4.000000,4.000000,100.000000,,,,,,,,,,,,,,,,,,,,,,,,,,,,,,,,,,,,,,,,,,,,,,,,,,,,,,,,,,,,,,,,,,,,,,,,,,,,,,,,,,,,,,,,,,,,,,,,,,,,,,,,,,,,,,,,,,,,,
1768371986.210725,1768371986.212562,27.000000,0.000000,4360.897461,4338.846191,4340.897461,4346.794922,4311.025879,4324.230957,4329.102539,4313.717773,4310.512695,4292.692383,4528.077148,4519.615234,4426.922852,4490.512695,0.000000,2.000000,37.000000,,,,0.000000,4.000000,4.000000,4.000000,4.000000,4.000000,4.000000,4.000000,4.000000,4.000000,4.000000,4.000000,4.000000,4.000000,4.000000,100.000000,,,,,,,,,,,,,,,,,,,,,,,,,,,,,,,,,,,,,,,,,,,,,,,,,,,,,,,,,,,,,,,,,,,,,,,,,,,,,,,,,,,,,,,,,,,,,,,,,,,,,,,,,,,,,,,,,,,,,
1768371986.218533,1768371986.220470,28.000000,0.000000,4352.820313,4339.871582,4337.051270,4348.077148,4315.384766,4325.384766,4328.717773,4310.384766,4311.794922,4293.205078,4525.384766,4517.179688,4427.563965,4488.077148,0.000000,2.000000,37.000000,,,,0.000000,4.000000,4.000000,4.000000,4.000000,4.000000,4.000000,4.000000,4.000000,4.000000,4.000000,4.000000,4.000000,4.000000,4.000000,100.000000,,,,,,,,,,,,,,,,,,,,,,,,,,,,,,,,,,,,,,,,,,,,,,,,,,,,,,,,,,,,,,,,,,,,,,,,,,,,,,,,,,,,,,,,,,,,,,,,,,,,,,,,,,,,,,,,,,,,,
1768371986.226342,1768371986.228279,29.000000,0.000000,4347.179688,4340.641113,4340.641113,4348.974121,4317.436035,4325.641113,4330.512695,4315.384766,4311.153809,4292.436035,4525.512695,4518.717773,4426.922852,4479.230957,0.000000,2.000000,37.000000,,,,0.000000,4.000000,4.000000,4.000000,4.000000,4.000000,4.000000,4.000000,4.000000,4.000000,4.000000,4.000000,4.000000,4.000000,4.000000,100.000000,,,,,,,,,,,,,,,,,,,,,,,,,,,,,,,,,,,,,,,,,,,,,,,,,,,,,,,,,,,,,,,,,,,,,,,,,,,,,,,,,,,,,,,,,,,,,,,,,,,,,,,,,,,,,,,,,,,,,
1768371986.234150,1768371986.235987,30.000000,0.000000,4355.256348,4340.897461,4347.307617,4348.589844,4313.974121,4326.666504,4331.794922,4320.512695,4313.333496,4297.051270,4535.256348,4527.436035,4429.487305,4486.410156,0.000000,2.000000,37.000000,,,,0.000000,4.000000,4.000000,4.000000,4.000000,4.000000,4.000000,4.000000,4.000000,4.000000,4.000000,4.000000,4.000000,4.000000,4.000000,100.000000,,,,,,,,,,,,,,,,,,,,,,,,,,,,,,,,,,,,,,,,,,,,,,,,0.839633,0.317170,0.283637,0.190003,0.194547,0.524119,0.204287,0.159666,0.107817,0.079897,0.485171,0.131905,0.108257,0.163485,0.085623,0.341270,0.190218,0.300073,0.111477,0.076410,0.210916,0.070341,0.145783,0.059190,0.051287,0.147316,0.175672,0.161739,0.079247,0.074310,0.107592,0.150013,0.100452,0.069215,0.059791,0.371453,0.175227,0.172609,0.158304,0.076541,0.454954,0.192101,0.143970,0.103719,0.087596,0.496618,0.202716,0.183701,0.133499,0.126581,1.165315,0.421404,0.246408,0.332957,0.139553,0.819741,0.106874,0.259457,0.409078,0.104162,1.688240,0.633236,0.361230,0.398662,0.127449,1.027999,0.584584,0.359459,0.420993,0.220097
1768371986.241959,1768371986.243796,31.000000,0.000000,4362.051270,4344.358887,4345.897461,4350.641113,4318.333496,4327.948730,4328.974121,4314.102539,4314.358887,4298.717773,4534.358887,4527.436035,4432.051270,4491.666504,0.000000,2.000000,37.000000,,,,0.000000,4.000000,4.000000,4.000000,4.000000,4.000000,4.000000,4.000000,4.000000,4.000000,4.000000,4.000000,4.000000,4.000000,4.000000,100.000000,,,,,,,,,,,,,,,,,,,,,,,,,,,,,,,,,,,,,,,,,,,,,,,,,,,,,,,,,,,,,,,,,,,,,,,,,,,,,,,,,,,,,,,,,,,,,,,,,,,,,,,,,,,,,,,,,,,,,
1768371986.249767,1768371986.251405,32.000000,0.000000,4358.846191,4341.922852,4338.205078,4351.538574,4321.282227,4325.769043,4326.922852,4306.922852,4308.974121,4292.692383,4522.692383,4518.461426,4427.179688,4480.641113,0.000000,2.000000,37.000000,,,,0.000000,4.000000,4.000000,4.000000,4.000000,4.000000,4.000000,4.000000,4.000000,4.000000,4.000000,4.000000,4.000000,4.000000,4.000000,100.000000,,,,,,,,,,,,,,,,,,,,,,,,,,,,,,,,,,,,,,,,,,,,,,,,,,,,,,,,,,,,,,,,,,,,,,,,,,,,,,,,,,,,,,,,,,,,,,,,,,,,,,,,,,,,,,,,,,,,,
1768371986.257575,1768371986.259213,33.000000,0.000000,4354.102539,4332.563965,4334.871582,4344.871582,4313.077148,4322.307617,4328.205078,4307.051270,4302.563965,4288.974121,4520.000000,4514.358887,4419.615234,4475.769043,0.000000,2.000000,37.000000,,,,0.000000,4.000000,4.000000,4.000000,4.000000,4.000000,4.000000,4.000000,4.000000,4.000000,4.000000,4.000000,4.000000,4.000000,4.000000,100.000000,,,,,,,,,,,,,,,,,,,,,,,,,,,,,,,,,,,,,,,,,,,,,,,,,,,,,,,,,,,,,,,,,,,,,,,,,,,,,,,,,,,,,,,,,,,,,,,,,,,,,,,,,,,,,,,,,,,,,
1768371986.265384,1768371986.266922,34.000000,0.000000,4357.948730,4330.769043,4342.051270,4340.128418,4310.000000,4323.589844,4328.717773,4312.563965,4303.846191,4288.717773,4524.487305,4515.641113,4418.205078,4481.153809,0.000000,2.000000,37.000000,,,,0.000000,4.000000,4.000000,4.000000,4.000000,4.000000,4.000000,4.000000,4.000000,4.000000,4.000000,4.000000,4.000000,4.000000,4.000000,100.000000,,,,,,,,,,,,,,,,,,,,,,,,,,,,,,,,,,,,,,,,,,,,,,,,,,,,,,,,,,,,,,,,,,,,,,,,,,,,,,,,,,,,,,,,,,,,,,,,,,,,,,,,,,,,,,,,,,,,,
1768371986.273192,1768371986.274730,35.000000,0.000000,4357.307617,4333.333496,4342.436035,4342.179688,4312.948730,4324.743652,4326.282227,4314.743652,4310.000000,4289.487305,4523.461426,4513.333496,4417.436035,4479.230957,0.000000,2.000000,37.000000,,,,0.000000,4.000000,4.000000,4.000000,4.000000,4.000000,4.000000,4.000000,4.000000,4.000000,4.000000,4.000000,4.000000,4.000000,4.000000,100.000000,,,,,,,,,,,,,,,,,,,,,,,,,,,,,,,,,,,,,,,,,,,,,,,,,,,,,,,,,,,,,,,,,,,,,,,,,,,,,,,,,,,,,,,,,,,,,,,,,,,,,,,,,,,,,,,,,,,,,
1768371986.281001,1768371986.282339,36.000000,0.000000,4345.384766,4327.948730,4330.769043,4339.358887,4309.487305,4323.974121,4325.512695,4312.820313,4307.307617,4290.256348,4522.051270,4510.000000,4417.692383,4475.000000,0.000000,2.000000,37.000000,,,,0.000000,4.000000,4.000000,4.000000,4.000000,4.000000,4.000000,4.000000,4.000000,4.000000,4.000000,4.000000,4.000000,4.000000,4.000000,100.000000,,,,,,,,,,,,,,,,,,,,,,,,,,,,,,,,,,,,,,,,,,,,,,,,,,,,,,,,,,,,,,,,,,,,,,,,,,,,,,,,,,,,,,,,,,,,,,,,,,,,,,,,,,,,,,,,,,,,,
1768371986.288809,1768371986.290147,37.000000,0.000000,4342.307617,4322.307617,4326.153809,4336.282227,4308.461426,4321.410156,4324.615234,4311.922852,4299.230957,4286.922852,4523.589844,4506.538574,4417.563965,4474.615234,0.000000,2.000000,37.000000,,,,0.000000,4.000000,4.000000,4.000000,4.000000,4.000000,4.000000,4.000000,4.000000,4.000000,4.000000,4.000000,4.000000,4.000000,4.000000,100.000000,,,,,,,,,,,,,,,,,,,,,,,,,,,,,,,,,,,,,,,,,,,,,,,,,,,,,,,,,,,,,,,,,,,,,,,,,,,,,,,,,,,,,,,,,,,,,,,,,,,,,,,,,,,,,,,,,,,,,
1768371986.296618,1768371986.297856,38.000000,0.000000,4353.846191,4329.102539,4335.256348,4339.615234,4311.794922,4318.589844,4321.666504,4312.563965,4300.000000,4284.615234,4522.563965,4506.538574,4418.333496,4475.384766,0.000000,2.000000,37.000000,,,,0.000000,4.000000,4.000000,4.000000,4.000000,4.000000,4.000000,4.000000,4.000000,4.000000,4.000000,4.000000,4.000000,4.000000,4.000000,100.000000,,,,,,,,,,,,,,,,,,,,,,,,,,,,,,,,,,,,,,,,,,,,,,,,,,,,,,,,,,,,,,,,,,,,,,,,,,,,,,,,,,,,,,,,,,,,,,,,,,,,,,,,,,,,,,,,,,,,,
1768371986.304426,1768371986.305664,39.000000,0.000000,4361.153809,4338.846191,4343.717773,4344.615234,4311.922852,4322.179688,4325.641113,4316.794922,4308.077148,4290.769043,4523.974121,4514.102539,4421.794922,4477.436035,0.000000,2.000000,37.000000,,,,0.000000,4.000000,4.000000,4.000000,4.000000,4.000000,4.000000,4.000000,4.000000,4.000000,4.000000,4.000000,4.000000,4.000000,4.000000,100.000000,,,,,,,,,,,,,,,,,,,,,,,,,,,,,,,,,,,,,,,,,,,,,,,,,,,,,,,,,,,,,,,,,,,,,,,,,,,,,,,,,,,,,,,,,,,,,,,,,,,,,,,,,,,,,,,,,,,,,
1768371986.312235,1768371986.313672,40.000000,0.000000,4355.641113,4336.282227,4338.333496,4343.589844,4309.358887,4322.948730,4326.538574,4316.538574,4307.820313,4289.871582,4522.179688,4511.666504,4420.000000,4477.563965,0.000000,2.000000,37.000000,,,,0.000000,4.000000,4.000000,4.000000,4.000000,4.000000,4.000000,4.000000,4.000000,4.000000,4.000000,4.000000,4.000000,4.000000,4.000000,100.000000,,,,,,,,,,,,,,,,,,,,,,,,,,,,,,,,,,,,,,,,,,,,,,,,,,,,,,,,,,,,,,,,,,,,,,,,,,,,,,,,,,,,,,,,,,,,,,,,,,,,,,,,,,,,,,,,,,,,,
1768371986.320043,1768371986.321481,41.000000,0.000000,4346.153809,4324.230957,4326.538574,4336.025879,4306.666504,4315.000000,4314.358887,4308.461426,4297.820313,4281.153809,4513.461426,4502.307617,4411.153809,4474.487305,0.000000,2.000000,37.000000,,,,0.000000,4.000000,4.000000,4.000000,4.000000,4.000000,4.000000,4.000000,4.000000,4.000000,4.000000,4.000000,4.000000,4.000000,4.000000,100.000000,,,,,,,,,,,,,,,,,,,,,,,,,,,,,,,,,,,,,,,,,,,,,,,,,,,,,,,,,,,,,,,,,,,,,,,,,,,,,,,,,,,,,,,,,,,,,,,,,,,,,,,,,,,,,,,,,,,,,
1768371986.327851,1768371986.329189,42.000000,0.000000,4343.974121,4322.307617,4323.333496,4333.589844,4307.948730,4313.974121,4312.692383,4306.153809,4293.333496,4280.769043,4510.769043,4502.051270,4408.589844,4472.948730,0.000000,2.000000,37.000000,,,,0.000000,4.000000,4.000000,4.000000,4.000000,4.000000,4.000000,4.000000,4.000000,4.000000,4.000000,4.000000,4.000000,4.000000,4.000000,100.000000,,,,,,,,,,,,,,,,,,,,,,,,,,,,,,,,,,,,,,,,,,,,,,,,,,,,,,,,,,,,,,,,,,,,,,,,,,,,,,,,,,,,,,,,,,,,,,,,,,,,,,,,,,,,,,,,,,,,,
1768371986.335660,1768371986.336998,43.000000,0.000000,4348.846191,4329.871582,4326.153809,4337.820313,4307.307617,4321.666504,4320.641113,4309.871582,4296.025879,4284.358887,4512.051270,4504.102539,4412.436035,4474.230957,0.000000,2.000000,37.000000,,,,0.000000,4.000000,4.000000,4.000000,4.000000,4.000000,4.000000,4.000000,4.000000,4.000000,4.000000,4.000000,4.000000,4.000000,4.000000,100.000000,,,,,,,,,,,,,,,,,,,,,,,,,,,,,,,,,,,,,,,,,,,,,,,,,,,,,,,,,,,,,,,,,,,,,,,,,,,,,,,,,,,,,,,,,,,,,,,,,,,,,,,,,,,,,,,,,,,,,
1768371986.343468,1768371986.344606,44.000000,0.000000,4351.666504,4328.333496,4325.769043,4338.846191,4305.000000,4320.769043,4314.487305,4306.282227,4295.256348,4282.948730,4512.948730,4502.179688,4410.769043,4473.717773,0.000000,2.000000,37.000000,,,,0.000000,4.000000,4.000000,4.000000,4.000000,4.000000,4.000000,4.000000,4.000000,4.000000,4.000000,4.000000,4.000000,4.000000,4.000000,100.000000,,,,,,,,,,,,,,,,,,,,,,,,,,,,,,,,,,,,,,,,,,,,,,,,,,,,,,,,,,,,,,,,,,,,,,,,,,,,,,,,,,,,,,,,,,,,,,,,,,,,,,,,,,,,,,,,,,,,,
1768371986.351277,1768371986.352415,45.000000,0.000000,4352.692383,4323.846191,4330.000000,4337.307617,4307.179688,4318.846191,4311.922852,4306.025879,4294.230957,4283.846191,4518.846191,4507.820313,4410.256348,4474.487305,0.000000,2.000000,37.000000,,,,0.000000,4.000000,4.000000,4.000000,4.000000,4.000000,4.000000,4.000000,4.000000,4.000000,4.000000,4.000000,4.000000,4.000000,4.000000,100.000000,,,,,,,,,,,,,,,,,,,,,,,,,,,,,,,,,,,,,,,,,,,,,,,,,,,,,,,,,,,,,,,,,,,,,,,,,,,,,,,,,,,,,,,,,,,,,,,,,,,,,,,,,,,,,,,,,,,,,
1768371986.359085,1768371986.360123,46.000000,0.000000,4355.128418,4328.333496,4336.410156,4339.487305,4308.717773,4322.948730,4320.512695,4313.077148,4297.179688,4287.436035,4523.333496,4516.282227,4413.846191,4478.461426,0.000000,2.000000,37.000000,,,,0.000000,4.000000,4.000000,4.000000,4.000000,4.000000,4.000000,4.000000,4.000000,4.000000,4.000000,4.000000,4.000000,4.000000,4.000000,100.000000,,,,,,,,,,,,,,,,,,,,,,,,,,,,,,,,,,,,,,,,,,,,,,,,0.722419,0.353629,0.287948,0.186274,0.176440,0.498210,0.198461,0.163636,0.110991,0.078198,0.396515,0.143163,0.128737,0.178047,0.084251,0.319968,0.173836,0.258891,0.109291,0.074595,0.172760,0.063755,0.135440,0.065711,0.052204,0.125901,0.183033,0.156457,0.076787,0.074427,0.112263,0.145034,0.084075,0.070367,0.065255,0.269296,0.142707,0.146353,0.150761,0.078451,0.424253,0.206705,0.123969,0.110457,0.096296,0.452017,0.190923,0.123594,0.136546,0.113607,1.005670,0.429723,0.207981,0.358684,0.143168,0.672578,0.149876,0.263507,0.443524,0.104619,1.505013,0.649936,0.356321,0.426407,0.133321,0.836953,0.633074,0.340679,0.453957,0.214069
1768371986.366893,1768371986.367932,47.000000,0.000000,4353.461426,4331.666504,4331.153809,4339.102539,4305.897461,4316.538574,4315.384766,4305.384766,4296.282227,4288.077148,4520.000000,4512.692383,4415.256348,4481.282227,0.000000,2.000000,37.000000,,,,0.000000,4.000000,4.000000,4.000000,4.000000,4.000000,4.000000,4.000000,4.000000,4.000000,4.000000,4.000000,4.000000,4.000000,4.000000,100.000000,,,,,,,,,,,,,,,,,,,,,,,,,,,,,,,,,,,,,,,,,,,,,,,,,,,,,,,,,,,,,,,,,,,,,,,,,,,,,,,,,,,,,,,,,,,,,,,,,,,,,,,,,,,,,,,,,,,,,
1768371986.374702,1768371986.375940,48.000000,0.000000,4351.538574,4328.589844,4326.538574,4335.384766,4308.333496,4309.358887,4307.179688,4296.666504,4294.230957,4288.461426,4520.256348,4507.051270,4413.205078,4477.948730,0.000000,2.000000,37.000000,,,,0.000000,4.000000,4.000000,4.000000,4.000000,4.000000,4.000000,4.000000,4.000000,4.000000,4.000000,4.000000,4.000000,4.000000,4.000000,100.000000,,,,,,,,,,,,,,,,,,,,,,,,,,,,,,,,,,,,,,,,,,,,,,,,,,,,,,,,,,,,,,,,,,,,,,,,,,,,,,,,,,,,,,,,,,,,,,,,,,,,,,,,,,,,,,,,,,,,,
1768371986.382510,1768371986.383749,49.000000,0.000000,4351.794922,4331.282227,4332.436035,4338.077148,4313.717773,4318.077148,4312.820313,4307.563965,4301.410156,4290.641113,4524.230957,4509.743652,4414.358887,4475.256348,0.000000,2.000000,37.000000,,,,0.000000,4.000000,4.000000,4.000000,4.000000,4.000000,4.000000,4.000000,4.000000,4.000000,4.000000,4.000000,4.000000,4.000000,4.000000,100.000000,,,,,,,,,,,,,,,,,,,,,,,,,,,,,,,,,,,,,,,,,,,,,,,,,,,,,,,,,,,,,,,,,,,,,,,,,,,,,,,,,,,,,,,,,,,,,,,,,,,,,,,,,,,,,,,,,,,,,
1768371986.390319,1768371986.391657,50.000000,0.000000,4353.846191,4336.922852,4340.128418,4341.282227,4311.922852,4326.410156,4316.410156,4315.512695,4306.794922,4292.436035,4523.461426,4516.025879,4423.846191,4483.461426,0.000000,2.000000,37.000000,,,,0.000000,4.000000,4.000000,4.000000,4.000000,4.000000,4.000000,4.000000,4.000000,4.000000,4.000000,4.000000,4.000000,4.000000,4.000000,100.000000,,,,,,,,,,,,,,,,,,,,,,,,,,,,,,,,,,,,,,,,,,,,,,,,,,,,,,,,,,,,,,,,,,,,,,,,,,,,,,,,,,,,,,,,,,,,,,,,,,,,,,,,,,,,,,,,,,,,,
1768371986.398127,1768371986.399465,51.000000,0.000000,4362.307617,4332.307617,4338.846191,4340.641113,4309.743652,4321.922852,4317.948730,4311.922852,4307.051270,4294.615234,4526.282227,4520.641113,4429.743652,4494.358887,0.000000,2.000000,37.000000,,,,0.000000,4.000000,4.000000,4.000000,4.000000,4.000000,4.000000,4.000000,4.000000,4.000000,4.000000,4.000000,4.000000,4.000000,4.000000,100.000000,,,,,,,,,,,,,,,,,,,,,,,,,,,,,,,,,,,,,,,,,,,,,,,,,,,,,,,,,,,,,,,,,,,,,,,,,,,,,,,,,,,,,,,,,,,,,,,,,,,,,,,,,,,,,,,,,,,,,
1768371986.405936,1768371986.407374,52.000000,0.000000,4361.538574,4324.615234,4331.666504,4336.153809,4310.512695,4319.358887,4322.563965,4313.589844,4308.205078,4293.846191,4525.384766,4517.307617,4422.436035,4488.461426,0.000000,2.000000,37.000000,,,,0.000000,4.000000,4.000000,4.000000,4.000000,4.000000,4.000000,4.000000,4.000000,4.000000,4.000000,4.000000,4.000000,4.000000,4.000000,100.000000,,,,,,,,,,,,,,,,,,,,,,,,,,,,,,,,,,,,,,,,,,,,,,,,,,,,,,,,,,,,,,,,,,,,,,,,,,,,,,,,,,,,,,,,,,,,,,,,,,,,,,,,,,,,,,,,,,,,,
1768371986.413744,1768371986.415182,53.000000,0.000000,4348.589844,4325.512695,4331.538574,4330.641113,4310.384766,4323.333496,4317.179688,4316.794922,4305.384766,4291.153809,4519.871582,4513.333496,4413.717773,4479.358887,0.000000,2.000000,37.000000,,,,0.000000,4.000000,4.000000,4.000000,4.000000,4.000000,4.000000,4.000000,4.000000,4.000000,4.000000,4.000000,4.000000,4.000000,4.000000,100.000000,,,,,,,,,,,,,,,,,,,,,,,,,,,,,,,,,,,,,,,,,,,,,,,,,,,,,,,,,,,,,,,,,,,,,,,,,,,,,,,,,,,,,,,,,,,,,,,,,,,,,,,,,,,,,,,,,,,,,
1768371986.421553,1768371986.422891,54.000000,0.000000,4351.794922,4327.436035,4340.512695,4334.102539,4310.769043,4325.256348,4309.743652,4313.077148,4301.922852,4290.897461,4521.794922,4520.384766,4418.589844,4486.538574,0.000000,2.000000,37.000000,,,,0.000000,4.000000,4.000000,4.000000,4.000000,4.000000,4.000000,4.000000,4.000000,4.000000,4.000000,4.000000,4.000000,4.000000,4.000000,100.000000,,,,,,,,,,,,,,,,,,,,,,,,,,,,,,,,,,,,,,,,,,,,,,,,,,,,,,,,,,,,,,,,,,,,,,,,,,,,,,,,,,,,,,,,,,,,,,,,,,,,,,,,,,,,,,,,,,,,,
1768371986.429361,1768371986.430699,55.000000,0.000000,4363.461426,4325.128418,4345.128418,4340.256348,4311.794922,4324.743652,4315.512695,4312.307617,4305.256348,4293.205078,4526.794922,4531.282227,4425.128418,4494.358887,0.000000,2.000000,37.000000,,,,0.000000,4.000000,4.000000,4.000000,4.000000,4.000000,4.000000,4.000000,4.000000,4.000000,4.000000,4.000000,4.000000,4.000000,4.000000,100.000000,,,,,,,,,,,,,,,,,,,,,,,,,,,,,,,,,,,,,,,,,,,,,,,,,,,,,,,,,,,,,,,,,,,,,,,,,,,,,,,,,,,,,,,,,,,,,,,,,,,,,,,,,,,,,,,,,,,,,
1768371986.437169,1768371986.438308,56.000000,0.000000,4361.538574,4326.282227,4343.461426,4339.743652,4312.051270,4321.794922,4320.128418,4317.179688,4309.615234,4295.000000,4526.666504,4533.205078,4423.461426,4492.692383,0.000000,2.000000,37.000000,,,,0.000000,4.000000,4.000000,4.000000,4.000000,4.000000,4.000000,4.000000,4.000000,4.000000,4.000000,4.000000,4.000000,4.000000,4.000000,100.000000,,,,,,,,,,,,,,,,,,,,,,,,,,,,,,,,,,,,,,,,,,,,,,,,,,,,,,,,,,,,,,,,,,,,,,,,,,,,,,,,,,,,,,,,,,,,,,,,,,,,,,,,,,,,,,,,,,,,,
1768371986.444978,1768371986.446116,57.000000,0.000000,4355.641113,4325.384766,4342.948730,4335.256348,4309.615234,4323.461426,4315.000000,4320.897461,4305.641113,4292.692383,4525.769043,4529.358887,4418.589844,4491.538574,0.000000,2.000000,37.000000,,,,0.000000,4.000000,4.000000,4.000000,4.000000,4.000000,4.000000,4.000000,4.000000,4.000000,4.000000,4.000000,4.000000,4.000000,4.000000,100.000000,,,,,,,,,,,,,,,,,,,,,,,,,,,,,,,,,,,,,,,,,,,,,,,,,,,,,,,,,,,,,,,,,,,,,,,,,,,,,,,,,,,,,,,,,,,,,,,,,,,,,,,,,,,,,,,,,,,,,
1768371986.452786,1768371986.453825,58.000000,0.000000,4356.538574,4320.641113,4342.436035,4332.692383,4305.897461,4325.384766,4310.384766,4317.563965,4298.333496,4287.179688,4524.743652,4527.436035,4414.487305,4491.025879,0.000000,2.000000,37.000000,,,,0.000000,4.000000,4.000000,4.000000,4.000000,4.000000,4.000000,4.000000,4.000000,4.000000,4.000000,4.000000,4.000000,4.000000,4.000000,100.000000,,,,,,,,,,,,,,,,,,,,,,,,,,,,,,,,,,,,,,,,,,,,,,,,,,,,,,,,,,,,,,,,,,,,,,,,,,,,,,,,,,,,,,,,,,,,,,,,,,,,,,,,,,,,,,,,,,,,,
1768371986.460595,1768371986.461633,59.000000,0.000000,4359.230957,4320.128418,4343.846191,4333.205078,4307.692383,4320.512695,4311.153809,4313.205078,4298.589844,4285.897461,4522.051270,4526.153809,4412.051270,4487.948730,0.000000,2.000000,37.000000,,,,0.000000,4.000000,4.000000,4.000000,4.000000,4.000000,4.000000,4.000000,4.000000,4.000000,4.000000,4.000000,4.000000,4.000000,4.000000,100.000000,,,,,,,,,,,,,,,,,,,,,,,,,,,,,,,,,,,,,,,,,,,,,,,,,,,,,,,,,,,,,,,,,,,,,,,,,,,,,,,,,,,,,,,,,,,,,,,,,,,,,,,,,,,,,,,,,,,,,
1768371986.468403,1768371986.469242,60.000000,0.000000,4357.436035,4323.333496,4343.077148,4335.512695,4311.282227,4319.358887,4314.358887,4315.000000,4302.820313,4290.384766,4522.307617,4523.077148,4411.538574,4488.205078,0.000000,2.000000,37.000000,,,,0.000000,4.000000,4.000000,4.000000,4.000000,4.000000,4.000000,4.000000,4.000000,4.000000,4.000000,4.000000,4.000000,4.000000,4.000000,100.000000,,,,,,,,,,,,,,,,,,,,,,,,,,,,,,,,,,,,,,,,,,,,,,,,,,,,,,,,,,,,,,,,,,,,,,,,,,,,,,,,,,,,,,,,,,,,,,,,,,,,,,,,,,,,,,,,,,,,,
1768371986.476212,1768371986.477050,61.000000,0.000000,4356.666504,4325.897461,4340.512695,4337.307617,4311.153809,4326.153809,4319.230957,4316.666504,4302.692383,4291.794922,4524.102539,4521.282227,4411.538574,4489.487305,0.000000,2.000000,37.000000,,,,0.000000,4.000000,4.000000,4.000000,4.000000,4.000000,4.000000,4.000000,4.000000,4.000000,4.000000,4.000000,4.000000,4.000000,4.000000,100.000000,,,,,,,,,,,,,,,,,,,,,,,,,,,,,,,,,,,,,,,,,,,,,,,,,,,,,,,,,,,,,,,,,,,,,,,,,,,,,,,,,,,,,,,,,,,,,,,,,,,,,,,,,,,,,,,,,,,,,
1768371986.484020,1768371986.484959,62.000000,0.000000,4361.410156,4326.410156,4345.769043,4337.436035,4313.461426,4326.794922,4322.179688,4315.128418,4298.205078,4290.000000,4523.077148,4525.384766,4409.743652,4487.436035,0.000000,2.000000,37.000000,,,,0.000000,4.000000,4.000000,4.000000,4.000000,4.000000,4.000000,4.000000,4.000000,4.000000,4.000000,4.000000,4.000000,4.000000,4.000000,100.000000,,,,,,,,,,,,,,,,,,,,,,,,,,,,,,,,,,,,,,,,,,,,,,,,0.605895,0.369672,0.303828,0.194531,0.163342,0.452055,0.206500,0.188704,0.124767,0.078370,0.352024,0.169510,0.158911,0.191775,0.086395,0.292649,0.165069,0.230699,0.115140,0.073297,0.148365,0.065002,0.123592,0.074527,0.053973,0.113184,0.174430,0.142948,0.077005,0.075005,0.119173,0.134253,0.067221,0.073461,0.072549,0.200897,0.113722,0.127720,0.134010,0.083854,0.425265,0.215586,0.109443,0.123192,0.115141,0.401701,0.190579,0.096751,0.143505,0.109122,0.839757,0.399532,0.197372,0.370747,0.160010,0.588352,0.200509,0.285354,0.449699,0.114709,1.312436,0.618589,0.382670,0.440678,0.149573,0.669474,0.639539,0.348106,0.470362,0.217188
1768371986.491829,1768371986.492767,63.000000,0.000000,4363.077148,4326.794922,4349.487305,4340.897461,4317.820313,4320.897461,4320.384766,4315.000000,4297.948730,4291.794922,4521.410156,4528.717773,4411.282227,4487.563965,0.000000,2.000000,37.000000,,,,0.000000,4.000000,4.000000,4.000000,4.000000,4.000000,4.000000,4.000000,4.000000,4.000000,4.000000,4.000000,4.000000,4.000000,4.000000,100.000000,,,,,,,,,,,,,,,,,,,,,,,,,,,,,,,,,,,,,,,,,,,,,,,,,,,,,,,,,,,,,,,,,,,,,,,,,,,,,,,,,,,,,,,,,,,,,,,,,,,,,,,,,,,,,,,,,,,,,
1768371986.499637,1768371986.500775,64.000000,0.000000,4356.282227,4329.615234,4342.948730,4341.794922,4319.487305,4322.820313,4320.256348,4313.589844,4297.948730,4294.871582,4522.307617,4525.128418,4413.846191,4486.282227,4044.000000,2.000000,37.000000,,,,0.000000,4.000000,4.000000,4.000000,4.000000,4.000000,4.000000,4.000000,4.000000,4.000000,4.000000,4.000000,4.000000,4.000000,4.000000,100.000000,,,,,,,,,,,,,,,,,,,,,,,,,,,,,,,,,,,,,,,,,,,,,,,,,,,,,,,,,,,,,,,,,,,,,,,,,,,,,,,,,,,,,,,,,,,,,,,,,,,,,,,,,,,,,,,,,,,,,
1768371986.507445,1768371986.508584,65.000000,0.000000,4353.717773,4332.307617,4338.333496,4340.128418,4318.589844,4327.820313,4320.897461,4311.025879,4296.410156,4291.410156,4522.948730,4520.769043,4412.692383,4479.230957,3981.000000,2.000000,37.000000,,,,0.000000,4.000000,4.000000,4.000000,4.000000,4.000000,4.000000,4.000000,4.000000,4.000000,4.000000,4.000000,4.000000,4.000000,4.000000,100.000000,,,,,,,,,,,,,,,,,,,,,,,,,,,,,,,,,,,,,,,,,,,,,,,,,,,,,,,,,,,,,,,,,,,,,,,,,,,,,,,,,,,,,,,,,,,,,,,,,,,,,,,,,,,,,,,,,,,,,
1768371986.515254,1768371986.516492,66.000000,0.000000,4358.077148,4330.641113,4345.256348,4341.282227,4315.512695,4327.436035,4317.436035,4309.487305,4296.282227,4284.230957,4517.307617,4517.051270,4411.282227,4474.615234,3881.000000,2.000000,37.000000,,,,0.000000,4.000000,4.000000,4.000000,4.000000,4.000000,4.000000,4.000000,4.000000,4.000000,4.000000,4.000000,4.000000,4.000000,4.000000,100.000000,,,,,,,,,,,,,,,,,,,,,,,,,,,,,,,,,,,,,,,,,,,,,,,,,,,,,,,,,,,,,,,,,,,,,,,,,,,,,,,,,,,,,,,,,,,,,,,,,,,,,,,,,,,,,,,,,,,,,
1768371986.523062,1768371986.524301,67.000000,0.000000,4359.615234,4327.948730,4351.794922,4342.179688,4310.641113,4322.820313,4312.307617,4307.307617,4295.000000,4283.846191,4514.102539,4515.384766,4411.153809,4478.333496,3866.000000,2.000000,37.000000,,,,0.000000,4.000000,4.000000,4.000000,4.000000,4.000000,4.000000,4.000000,4.000000,4.000000,4.000000,4.000000,4.000000,4.000000,4.000000,100.000000,,,,,,,,,,,,,,,,,,,,,,,,,,,,,,,,,,,,,,,,,,,,,,,,,,,,,,,,,,,,,,,,,,,,,,,,,,,,,,,,,,,,,,,,,,,,,,,,,,,,,,,,,,,,,,,,,,,,,
1768371986.530871,1768371986.532309,68.000000,0.000000,4357.051270,4327.436035,4349.230957,4342.820313,4310.000000,4319.230957,4309.615234,4306.794922,4294.102539,4287.948730,4520.897461,4518.077148,4412.179688,4481.025879,3764.000000,2.000000,37.000000,,,,0.000000,4.000000,4.000000,4.000000,4.000000,4.000000,4.000000,4.000000,4.000000,4.000000,4.000000,4.000000,4.000000,4.000000,4.000000,100.000000,,,,,,,,,,,,,,,,,,,,,,,,,,,,,,,,,,,,,,,,,,,,,,,,,,,,,,,,,,,,,,,,,,,,,,,,,,,,,,,,,,,,,,,,,,,,,,,,,,,,,,,,,,,,,,,,,,,,,
1768371986.538679,1768371986.540117,69.000000,0.000000,4354.230957,4325.897461,4342.179688,4340.128418,4311.282227,4320.641113,4310.641113,4304.358887,4292.948730,4282.820313,4522.051270,4515.000000,4411.153809,4475.256348,3749.000000,2.000000,37.000000,,,,0.000000,4.000000,4.000000,4.000000,4.000000,4.000000,4.000000,4.000000,4.000000,4.000000,4.000000,4.000000,4.000000,4.000000,4.000000,100.000000,,,,,,,,,,,,,,,,,,,,,,,,,,,,,,,,,,,,,,,,,,,,,,,,,,,,,,,,,,,,,,,,,,,,,,,,,,,,,,,,,,,,,,,,,,,,,,,,,,,,,,,,,,,,,,,,,,,,,
1768371986.546488,1768371986.547826,70.000000,0.000000,4358.846191,4327.948730,4340.641113,4338.974121,4311.282227,4320.000000,4308.333496,4299.358887,4290.769043,4275.897461,4515.000000,4510.000000,4409.230957,4473.461426,3744.000000,2.000000,37.000000,,,,0.000000,4.000000,4.000000,4.000000,4.000000,4.000000,4.000000,4.000000,4.000000,4.000000,4.000000,4.000000,4.000000,4.000000,4.000000,100.000000,,,,,,,,,,,,,,,,,,,,,,,,,,,,,,,,,,,,,,,,,,,,,,,,,,,,,,,,,,,,,,,,,,,,,,,,,,,,,,,,,,,,,,,,,,,,,,,,,,,,,,,,,,,,,,,,,,,,,
1768371986.554296,1768371986.555634,71.000000,0.000000,4367.307617,4332.820313,4348.974121,4344.487305,4310.769043,4318.461426,4307.179688,4303.077148,4292.820313,4280.897461,4519.358887,4515.512695,4412.179688,4482.179688,3732.000000,2.000000,37.000000,,,,0.000000,4.000000,4.000000,4.000000,4.000000,4.000000,4.000000,4.000000,4.000000,4.000000,4.000000,4.000000,4.000000,4.000000,4.000000,100.000000,,,,,,,,,,,,,,,,,,,,,,,,,,,,,,,,,,,,,,,,,,,,,,,,,,,,,,,,,,,,,,,,,,,,,,,,,,,,,,,,,,,,,,,,,,,,,,,,,,,,,,,,,,,,,,,,,,,,,
1768371986.562105,1768371986.563643,72.000000,0.000000,4358.717773,4329.615234,4344.871582,4342.179688,4309.743652,4320.384766,4310.256348,4308.205078,4295.641113,4283.333496,4520.512695,4513.333496,4412.692383,4482.179688,3949.000000,2.000000,37.000000,,,,0.000000,4.000000,4.000000,4.000000,4.000000,4.000000,4.000000,4.000000,4.000000,4.000000,4.000000,4.000000,4.000000,4.000000,4.000000,100.000000,,,,,,,,,,,,,,,,,,,,,,,,,,,,,,,,,,,,,,,,,,,,,,,,,,,,,,,,,,,,,,,,,,,,,,,,,,,,,,,,,,,,,,,,,,,,,,,,,,,,,,,,,,,,,,,,,,,,,
1768371986.569913,1768371986.571451,73.000000,0.000000,4340.769043,4321.410156,4327.436035,4330.769043,4310.256348,4322.820313,4307.948730,4303.589844,4291.922852,4277.820313,4505.897461,4496.794922,4403.717773,4470.769043,3929.000000,2.000000,37.000000,,,,0.000000,4.000000,4.000000,4.000000,4.000000,4.000000,4.000000,4.000000,4.000000,4.000000,4.000000,4.000000,4.000000,4.000000,4.000000,100.000000,,,,,,,,,,,,,,,,,,,,,,,,,,,,,,,,,,,,,,,,,,,,,,,,,,,,,,,,,,,,,,,,,,,,,,,,,,,,,,,,,,,,,,,,,,,,,,,,,,,,,,,,,,,,,,,,,,,,,
1768371986.577721,1768371986.579359,74.000000,0.000000,4342.436035,4324.358887,4328.077148,4331.794922,4314.230957,4324.358887,4309.230957,4302.820313,4294.615234,4285.256348,4510.128418,4498.974121,4405.512695,4476.282227,4397.000000,2.000000,37.000000,,,,0.000000,4.000000,4.000000,4.000000,4.000000,4.000000,4.000000,4.000000,4.000000,4.000000,4.000000,4.000000,4.000000,4.000000,4.000000,100.000000,,,,,,,,,,,,,,,,,,,,,,,,,,,,,,,,,,,,,,,,,,,,,,,,,,,,,,,,,,,,,,,,,,,,,,,,,,,,,,,,,,,,,,,,,,,,,,,,,,,,,,,,,,,,,,,,,,,,,
1768371986.585530,1768371986.587168,75.000000,0.000000,4357.307617,4334.743652,4347.051270,4343.846191,4318.461426,4327.948730,4319.871582,4308.461426,4305.000000,4298.717773,4533.077148,4519.871582,4424.358887,4494.358887,4674.000000,2.000000,37.000000,,,,0.000000,4.000000,4.000000,4.000000,4.000000,4.000000,4.000000,4.000000,4.000000,4.000000,4.000000,4.000000,4.000000,4.000000,4.000000,100.000000,,,,,,,,,,,,,,,,,,,,,,,,,,,,,,,,,,,,,,,,,,,,,,,,,,,,,,,,,,,,,,,,,,,,,,,,,,,,,,,,,,,,,,,,,,,,,,,,,,,,,,,,,,,,,,,,,,,,,
1768371986.593338,1768371986.594876,76.000000,0.000000,4358.717773,4335.769043,4354.102539,4346.282227,4317.820313,4328.077148,4322.307617,4306.410156,4303.974121,4300.384766,4536.153809,4527.179688,4431.282227,4496.410156,5020.000000,2.000000,37.000000,,,,0.000000,4.000000,4.000000,4.000000,4.000000,4.000000,4.000000,4.000000,4.000000,4.000000,4.000000,4.000000,4.000000,4.000000,4.000000,100.000000,,,,,,,,,,,,,,,,,,,,,,,,,,,,,,,,,,,,,,,,,,,,,,,,,,,,,,,,,,,,,,,,,,,,,,,,,,,,,,,,,,,,,,,,,,,,,,,,,,,,,,,,,,,,,,,,,,,,,
1768371986.601147,1768371986.602685,77.000000,0.000000,4351.922852,4327.820313,4344.743652,4338.461426,4312.948730,4320.641113,4311.794922,4302.692383,4296.666504,4293.717773,4523.333496,4519.230957,4423.589844,4487.820313,5389.000000,2.000000,37.000000,,,,0.000000,4.000000,4.000000,4.000000,4.000000,4.000000,4.000000,4.000000,4.000000,4.000000,4.000000,4.000000,4.000000,4.000000,4.000000,100.000000,,,,,,,,,,,,,,,,,,,,,,,,,,,,,,,,,,,,,,,,,,,,,,,,,,,,,,,,,,,,,,,,,,,,,,,,,,,,,,,,,,,,,,,,,,,,,,,,,,,,,,,,,,,,,,,,,,,,,
1768371986.608955,1768371986.610393,78.000000,0.000000,4351.922852,4324.102539,4342.563965,4335.384766,4309.358887,4318.333496,4307.051270,4306.025879,4295.769043,4292.820313,4521.666504,4517.436035,4420.641113,4490.384766,4397.000000,2.000000,37.000000,,,,0.000000,4.000000,4.000000,4.000000,4.000000,4.000000,4.000000,4.000000,4.000000,4.000000,4.000000,4.000000,4.000000,4.000000,4.000000,100.000000,1.000000,75.000000,4.000000,4.000000,4.000000,4.000000,1.000000,4.000000,4.000000,4.000000,4.000000,4.000000,4.000000,4.000000,4.000000,4.000000,,,,,,,,,,,,,,,,,,,,,,,,,,,,,,,,0.505747,0.359245,0.323744,0.212428,0.158881,0.395815,0.229190,0.226554,0.146427,0.080435,0.360160,0.199809,0.190565,0.199899,0.093061,0.263100,0.162739,0.214995,0.127630,0.072322,0.145696,0.072720,0.111445,0.084295,0.056109,0.120129,0.154221,0.123783,0.079195,0.075118,0.127267,0.115077,0.054030,0.076401,0.079347,0.173042,0.095679,0.114350,0.113801,0.092074,0.468858,0.216198,0.101541,0.140798,0.139373,0.346295,0.194895,0.091103,0.151349,0.110825,0.684830,0.342566,0.206935,0.364592,0.180535,0.550436,0.247693,0.308824,0.419989,0.128572,1.156804,0.547258,0.431441,0.439801,0.170238,0.543771,0.607695,0.371785,0.461832,0.223347
1768371986.616764,1768371986.618202,79.000000,0.000000,4360.897461,4330.256348,4352.820313,4341.153809,4315.512695,4323.846191,4312.820313,4306.794922,4297.179688,4295.641113,4530.641113,4525.256348,4423.461426,4493.846191,4674.000000,2.000000,37.000000,,,,0.000000,4.000000,4.000000,4.000000,4.000000,4.000000,4.000000,4.000000,4.000000,4.000000,4.000000,4.000000,4.000000,4.000000,4.000000,100.000000,,,,,,,,,,,,,,,,,,,,,,,,,,,,,,,,,,,,,,,,,,,,,,,,,,,,,,,,,,,,,,,,,,,,,,,,,,,,,,,,,,,,,,,,,,,,,,,,,,,,,,,,,,,,,,,,,,,,,
1768371986.624572,1768371986.625810,80.000000,0.000000,4367.436035,4334.358887,4360.384766,4343.205078,4322.307617,4327.179688,4318.205078,4306.282227,4298.077148,4294.358887,4537.051270,4530.000000,4426.538574,4490.512695,5020.000000,2.000000,37.000000,,,,0.000000,4.000000,4.000000,4.000000,4.000000,4.000000,4.000000,4.000000,4.000000,4.000000,4.000000,4.000000,4.000000,4.000000,4.000000,100.000000,,,,,,,,,,,,,,,,,,,,,,,,,,,,,,,,,,,,,,,,,,,,,,,,,,,,,,,,,,,,,,,,,,,,,,,,,,,,,,,,,,,,,,,,,,,,,,,,,,,,,,,,,,,,,,,,,,,,,
1768371986.632380,1768371986.633619,81.000000,0.000000,4365.000000,4330.000000,4358.589844,4338.333496,4318.077148,4327.563965,4319.102539,4312.563965,4301.153809,4293.846191,4536.666504,4531.666504,4429.102539,4496.794922,5389.000000,2.000000,37.000000,,,,0.000000,4.000000,4.000000,4.000000,4.000000,4.000000,4.000000,4.000000,4.000000,4.000000,4.000000,4.000000,4.000000,4.000000,4.000000,100.000000,,,,,,,,,,,,,,,,,,,,,,,,,,,,,,,,,,,,,,,,,,,,,,,,,,,,,,,,,,,,,,,,,,,,,,,,,,,,,,,,,,,,,,,,,,,,,,,,,,,,,,,,,,,,,,,,,,,,,
1768371986.640189,1768371986.641327,82.000000,0.000000,4358.846191,4325.641113,4356.538574,4336.922852,4314.102539,4326.666504,4315.128418,4318.974121,4307.948730,4297.692383,4537.307617,4533.077148,4430.000000,4504.871582,4397.000000,2.000000,37.000000,,,,0.000000,4.000000,4.000000,4.000000,4.000000,4.000000,4.000000,4.000000,4.000000,4.000000,4.000000,4.000000,4.000000,4.000000,4.000000,100.000000,,,,,,,,,,,,,,,,,,,,,,,,,,,,,,,,,,,,,,,,,,,,,,,,,,,,,,,,,,,,,,,,,,,,,,,,,,,,,,,,,,,,,,,,,,,,,,,,,,,,,,,,,,,,,,,,,,,,,
1768371986.647997,1768371986.649136,83.000000,0.000000,4352.820313,4326.922852,4358.461426,4337.820313,4317.051270,4323.077148,4308.461426,4317.307617,4309.358887,4298.846191,4536.025879,4529.102539,4427.692383,4497.820313,4674.000000,2.000000,37.000000,,,,0.000000,4.000000,4.000000,4.000000,4.000000,4.000000,4.000000,4.000000,4.000000,4.000000,4.000000,4.000000,4.000000,4.000000,4.000000,100.000000,,,,,,,,,,,,,,,,,,,,,,,,,,,,,,,,,,,,,,,,,,,,,,,,,,,,,,,,,,,,,,,,,,,,,,,,,,,,,,,,,,,,,,,,,,,,,,,,,,,,,,,,,,,,,,,,,,,,,
1768371986.655806,1768371986.656745,84.000000,0.000000,4350.897461,4327.436035,4357.436035,4336.153809,4316.794922,4320.897461,4306.794922,4314.871582,4302.307617,4294.487305,4528.589844,4523.461426,4424.102539,4488.333496,5020.000000,2.000000,37.000000,,,,0.000000,4.000000,4.000000,4.000000,4.000000,4.000000,4.000000,4.000000,4.000000,4.000000,4.000000,4.000000,4.000000,4.000000,4.000000,100.000000,,,,,,,,,,,,,,,,,,,,,,,,,,,,,,,,,,,,,,,,,,,,,,,,,,,,,,,,,,,,,,,,,,,,,,,,,,,,,,,,,,,,,,,,,,,,,,,,,,,,,,,,,,,,,,,,,,,,,
1768371986.663614,1768371986.664553,85.000000,0.000000,4355.512695,4326.153809,4356.794922,4335.641113,4309.358887,4324.102539,4313.205078,4314.743652,4299.487305,4292.948730,4527.948730,4524.487305,4423.974121,4491.922852,5389.000000,2.000000,37.000000,,,,0.000000,4.000000,4.000000,4.000000,4.000000,4.000000,4.000000,4.000000,4.000000,4.000000,4.000000,4.000000,4.000000,4.000000,4.000000,100.000000,,,,,,,,,,,,,,,,,,,,,,,,,,,,,,,,,,,,,,,,,,,,,,,,,,,,,,,,,,,,,,,,,,,,,,,,,,,,,,,,,,,,,,,,,,,,,,,,,,,,,,,,,,,,,,,,,,,,,
1768371986.671423,1768371986.672262,86.000000,0.000000,4358.077148,4326.538574,4361.282227,4334.230957,4310.000000,4327.307617,4320.128418,4313.077148,4301.282227,4292.820313,4536.410156,4530.769043,4427.179688,4497.563965,4397.000000,2.000000,37.000000,,,,0.000000,4.000000,4.000000,4.000000,4.000000,4.000000,4.000000,4.000000,4.000000,4.000000,4.000000,4.000000,4.000000,4.000000,4.000000,100.000000,,,,,,,,,,,,,,,,,,,,,,,,,,,,,,,,,,,,,,,,,,,,,,,,,,,,,,,,,,,,,,,,,,,,,,,,,,,,,,,,,,,,,,,,,,,,,,,,,,,,,,,,,,,,,,,,,,,,,
1768371986.679231,1768371986.680070,87.000000,0.000000,4355.512695,4325.769043,4362.307617,4333.717773,4319.102539,4325.512695,4321.538574,4315.897461,4300.000000,4292.179688,4537.436035,4533.846191,4428.333496,4496.153809,4674.000000,2.000000,37.000000,,,,0.000000,4.000000,4.000000,4.000000,4.000000,4.000000,4.000000,4.000000,4.000000,4.000000,4.000000,4.000000,4.000000,4.000000,4.000000,100.000000,,,,,,,,,,,,,,,,,,,,,,,,,,,,,,,,,,,,,,,,,,,,,,,,,,,,,,,,,,,,,,,,,,,,,,,,,,,,,,,,,,,,,,,,,,,,,,,,,,,,,,,,,,,,,,,,,,,,,
1768371986.687040,1768371986.687679,88.000000,0.000000,4353.974121,4323.333496,4360.384766,4333.461426,4320.000000,4322.307617,4320.641113,4319.615234,4300.512695,4293.846191,4530.897461,4533.717773,4423.846191,4493.205078,5020.000000,2.000000,37.000000,,,,0.000000,4.000000,4.000000,4.000000,4.000000,4.000000,4.000000,4.000000,4.000000,4.000000,4.000000,4.000000,4.000000,4.000000,4.000000,100.000000,,,,,,,,,,,,,,,,,,,,,,,,,,,,,,,,,,,,,,,,,,,,,,,,,,,,,,,,,,,,,,,,,,,,,,,,,,,,,,,,,,,,,,,,,,,,,,,,,,,,,,,,,,,,,,,,,,,,,
1768371986.694848,1768371986.695487,89.000000,0.000000,4355.897461,4324.230957,4362.820313,4332.692383,4315.256348,4324.871582,4319.743652,4314.615234,4301.025879,4291.410156,4525.256348,4529.871582,4416.538574,4491.153809,5389.000000,2.000000,37.000000,,,,0.000000,4.000000,4.000000,4.000000,4.000000,4.000000,4.000000,4.000000,4.000000,4.000000,4.000000,4.000000,4.000000,4.000000,4.000000,100.000000,,,,,,,,,,,,,,,,,,,,,,,,,,,,,,,,,,,,,,,,,,,,,,,,,,,,,,,,,,,,,,,,,,,,,,,,,,,,,,,,,,,,,,,,,,,,,,,,,,,,,,,,,,,,,,,,,,,,,
1768371986.702656,1768371986.703395,90.000000,0.000000,4355.897461,4326.794922,4365.256348,4335.641113,4318.077148,4328.974121,4319.615234,4310.000000,4295.128418,4287.820313,4522.820313,4527.051270,4412.692383,4496.153809,4397.000000,2.000000,37.000000,,,,0.000000,4.000000,4.000000,4.000000,4.000000,4.000000,4.000000,4.000000,4.000000,4.000000,4.000000,4.000000,4.000000,4.000000,4.000000,100.000000,,,,,,,,,,,,,,,,,,,,,,,,,,,,,,,,,,,,,,,,,,,,,,,,,,,,,,,,,,,,,,,,,,,,,,,,,,,,,,,,,,,,,,,,,,,,,,,,,,,,,,,,,,,,,,,,,,,,,
1768371986.710465,1768371986.711204,91.000000,0.000000,4348.077148,4324.102539,4364.358887,4333.974121,4323.461426,4327.436035,4322.051270,4313.333496,4293.461426,4288.461426,4523.333496,4528.717773,4413.333496,4493.589844,4674.000000,2.000000,37.000000,,,,0.000000,4.000000,4.000000,4.000000,4.000000,4.000000,4.000000,4.000000,4.000000,4.000000,4.000000,4.000000,4.000000,4.000000,4.000000,100.000000,,,,,,,,,,,,,,,,,,,,,,,,,,,,,,,,,,,,,,,,,,,,,,,,,,,,,,,,,,,,,,,,,,,,,,,,,,,,,,,,,,,,,,,,,,,,,,,,,,,,,,,,,,,,,,,,,,,,,
1768371986.718273,1768371986.719212,92.000000,0.000000,4342.820313,4328.589844,4367.436035,4333.717773,4325.512695,4325.000000,4319.615234,4315.384766,4296.025879,4286.282227,4523.333496,4530.256348,4413.333496,4483.461426,5020.000000,2.000000,37.000000,,,,0.000000,4.000000,4.000000,4.000000,4.000000,4.000000,4.000000,4.000000,4.000000,4.000000,4.000000,4.000000,4.000000,4.000000,4.000000,100.000000,,,,,,,,,,,,,,,,,,,,,,,,,,,,,,,,,,,,,,,,,,,,,,,,,,,,,,,,,,,,,,,,,,,,,,,,,,,,,,,,,,,,,,,,,,,,,,,,,,,,,,,,,,,,,,,,,,,,,
1768371986.726082,1768371986.727021,93.000000,0.000000,4353.077148,4343.846191,4368.461426,4342.692383,4324.615234,4325.128418,4311.410156,4312.820313,4294.230957,4280.641113,4522.820313,4527.307617,4412.307617,4487.051270,5389.000000,2.000000,37.000000,,,,0.000000,4.000000,4.000000,4.000000,4.000000,4.000000,4.000000,4.000000,4.000000,4.000000,4.000000,4.000000,4.000000,4.000000,4.000000,100.000000,,,,,,,,,,,,,,,,,,,,,,,,,,,,,,,,,,,,,,,,,,,,,,,,,,,,,,,,,,,,,,,,,,,,,,,,,,,,,,,,,,,,,,,,,,,,,,,,,,,,,,,,,,,,,,,,,,,,,
1768371986.733890,1768371986.734929,94.000000,0.000000,4360.769043,4346.666504,4359.487305,4344.871582,4317.436035,4323.461426,4307.948730,4311.794922,4293.205078,4278.846191,4517.692383,4519.230957,4406.922852,4487.692383,4397.000000,2.000000,37.000000,,,,0.000000,4.000000,4.000000,4.000000,4.000000,4.000000,4.000000,4.000000,4.000000,4.000000,4.000000,4.000000,4.000000,4.000000,4.000000,100.000000,,,,,,,,,,,,,,,,,,,,,,,,,,,,,,,,,,,,,,,,,,,,,,,,0.430707,0.324988,0.337851,0.238058,0.163583,0.349240,0.263099,0.262613,0.170426,0.084718,0.417516,0.219478,0.216298,0.202544,0.105223,0.239307,0.162915,0.204102,0.143516,0.071626,0.164619,0.084293,0.099546,0.093444,0.057654,0.152978,0.128871,0.103329,0.083129,0.075050,0.135383,0.093285,0.045405,0.078404,0.084218,0.183321,0.089343,0.103573,0.096869,0.101664,0.558431,0.208741,0.100305,0.159337,0.161688,0.302749,0.198783,0.093715,0.155918,0.114569,0.556474,0.275986,0.225857,0.340671,0.195004,0.565017,0.277435,0.320716,0.362160,0.140452,1.080323,0.456847,0.478900,0.423314,0.186762,0.494222,0.550880,0.393267,0.426550,0.225769
1768371986.741699,1768371986.742738,95.000000,0.000000,4353.077148,4339.102539,4355.000000,4338.333496,4317.051270,4322.307617,4310.128418,4313.846191,4295.384766,4278.846191,4511.922852,4516.410156,4403.333496,4478.717773,4674.000000,2.000000,37.000000,,,,0.000000,4.000000,4.000000,4.000000,4.000000,4.000000,4.000000,4.000000,4.000000,4.000000,4.000000,4.000000,4.000000,4.000000,4.000000,100.000000,,,,,,,,,,,,,,,,,,,,,,,,,,,,,,,,,,,,,,,,,,,,,,,,,,,,,,,,,,,,,,,,,,,,,,,,,,,,,,,,,,,,,,,,,,,,,,,,,,,,,,,,,,,,,,,,,,,,,
1768371986.749507,1768371986.750746,96.000000,0.000000,4348.461426,4339.743652,4359.230957,4336.282227,4321.794922,4324.230957,4310.512695,4314.230957,4296.538574,4277.692383,4517.307617,4517.307617,4408.461426,4479.358887,5020.000000,2.000000,37.000000,,,,0.000000,4.000000,4.000000,4.000000,4.000000,4.000000,4.000000,4.000000,4.000000,4.000000,4.000000,4.000000,4.000000,4.000000,4.000000,100.000000,,,,,,,,,,,,,,,,,,,,,,,,,,,,,,,,,,,,,,,,,,,,,,,,,,,,,,,,,,,,,,,,,,,,,,,,,,,,,,,,,,,,,,,,,,,,,,,,,,,,,,,,,,,,,,,,,,,,,
1768371986.757316,1768371986.758555,97.000000,0.000000,4351.666504,4343.077148,4362.692383,4333.717773,4316.153809,4324.871582,4310.512695,4311.410156,4295.128418,4276.922852,4520.897461,4517.692383,4410.641113,4482.307617,5389.000000,2.000000,37.000000,,,,0.000000,4.000000,4.000000,4.000000,4.000000,4.000000,4.000000,4.000000,4.000000,4.000000,4.000000,4.000000,4.000000,4.000000,4.000000,100.000000,,,,,,,,,,,,,,,,,,,,,,,,,,,,,,,,,,,,,,,,,,,,,,,,,,,,,,,,,,,,,,,,,,,,,,,,,,,,,,,,,,,,,,,,,,,,,,,,,,,,,,,,,,,,,,,,,,,,,
1768371986.765124,1768371986.766463,98.000000,0.000000,4353.589844,4341.025879,4365.128418,4332.436035,4312.563965,4324.102539,4311.666504,4315.000000,4297.436035,4276.666504,4517.307617,4521.922852,4407.436035,4479.871582,4397.000000,2.000000,37.000000,,,,0.000000,4.000000,4.000000,4.000000,4.000000,4.000000,4.000000,4.000000,4.000000,4.000000,4.000000,4.000000,4.000000,4.000000,4.000000,100.000000,,,,,,,,,,,,,,,,,,,,,,,,,,,,,,,,,,,,,,,,,,,,,,,,,,,,,,,,,,,,,,,,,,,,,,,,,,,,,,,,,,,,,,,,,,,,,,,,,,,,,,,,,,,,,,,,,,,,,
1768371986.772932,1768371986.774271,99.000000,0.000000,4351.025879,4342.563965,4363.846191,4339.230957,4321.410156,4326.025879,4312.692383,4322.179688,4302.179688,4280.000000,4520.000000,4525.384766,4410.512695,4485.641113,4674.000000,2.000000,37.000000,,,,0.000000,4.000000,4.000000,4.000000,4.000000,4.000000,4.000000,4.000000,4.000000,4.000000,4.000000,4.000000,4.000000,4.000000,4.000000,100.000000,,,,,,,,,,,,,,,,,,,,,,,,,,,,,,,,,,,,,,,,,,,,,,,,,,,,,,,,,,,,,,,,,,,,,,,,,,,,,,,,,,,,,,,,,,,,,,,,,,,,,,,,,,,,,,,,,,,,,
1768371986.780741,1768371986.782280,100.000000,0.000000,4343.205078,4345.512695,4358.205078,4340.128418,4324.743652,4328.461426,4312.179688,4320.769043,4301.922852,4280.769043,4523.846191,4524.871582,4412.820313,4492.436035,5020.000000,2.000000,37.000000,,,,0.000000,4.000000,4.000000,4.000000,4.000000,4.000000,4.000000,4.000000,4.000000,4.000000,4.000000,4.000000,4.000000,4.000000,4.000000,100.000000,,,,,,,,,,,,,,,,,,,,,,,,,,,,,,,,,,,,,,,,,,,,,,,,,,,,,,,,,,,,,,,,,,,,,,,,,,,,,,,,,,,,,,,,,,,,,,,,,,,,,,,,,,,,,,,,,,,,,
1768371986.788549,1768371986.790088,101.000000,0.000000,4343.589844,4343.717773,4358.974121,4333.717773,4316.922852,4326.153809,4309.743652,4321.410156,4302.692383,4279.487305,4521.153809,4525.128418,4410.641113,4488.846191,5389.000000,2.000000,37.000000,,,,0.000000,4.000000,4.000000,4.000000,4.000000,4.000000,4.000000,4.000000,4.000000,4.000000,4.000000,4.000000,4.000000,4.000000,4.000000,100.000000,,,,,,,,,,,,,,,,,,,,,,,,,,,,,,,,,,,,,,,,,,,,,,,,,,,,,,,,,,,,,,,,,,,,,,,,,,,,,,,,,,,,,,,,,,,,,,,,,,,,,,,,,,,,,,,,,,,,,
1768371986.796358,1768371986.797797,102.000000,0.000000,4347.563965,4340.641113,4362.692383,4330.512695,4315.256348,4328.461426,4313.974121,4325.512695,4303.974121,4279.871582,4521.282227,4527.051270,4413.717773,4488.974121,4397.000000,2.000000,37.000000,,,,0.000000,4.000000,4.000000,4.000000,4.000000,4.000000,4.000000,4.000000,4.000000,4.000000,4.000000,4.000000,4.000000,4.000000,4.000000,100.000000,,,,,,,,,,,,,,,,,,,,,,,,,,,,,,,,,,,,,,,,,,,,,,,,,,,,,,,,,,,,,,,,,,,,,,,,,,,,,,,,,,,,,,,,,,,,,,,,,,,,,,,,,,,,,,,,,,,,,
1768371986.804166,1768371986.805605,103.000000,0.000000,4341.538574,4339.743652,4359.743652,4332.179688,4321.666504,4333.077148,4318.974121,4321.922852,4301.410156,4278.846191,4522.948730,4527.692383,4414.230957,4491.538574,4674.000000,2.000000,37.000000,,,,0.000000,4.000000,4.000000,4.000000,4.000000,4.000000,4.000000,4.000000,4.000000,4.000000,4.000000,4.000000,4.000000,4.000000,4.000000,100.000000,,,,,,,,,,,,,,,,,,,,,,,,,,,,,,,,,,,,,,,,,,,,,,,,,,,,,,,,,,,,,,,,,,,,,,,,,,,,,,,,,,,,,,,,,,,,,,,,,,,,,,,,,,,,,,,,,,,,,
1768371986.811975,1768371986.813214,104.000000,0.000000,4341.922852,4341.282227,4358.846191,4333.717773,4320.897461,4329.230957,4314.358887,4318.846191,4304.358887,4279.230957,4523.333496,4529.871582,4412.051270,4494.487305,5020.000000,2.000000,37.000000,,,,0.000000,4.000000,4.000000,4.000000,4.000000,4.000000,4.000000,4.000000,4.000000,4.000000,4.000000,4.000000,4.000000,4.000000,4.000000,100.000000,,,,,,,,,,,,,,,,,,,,,,,,,,,,,,,,,,,,,,,,,,,,,,,,,,,,,,,,,,,,,,,,,,,,,,,,,,,,,,,,,,,,,,,,,,,,,,,,,,,,,,,,,,,,,,,,,,,,,
1768371986.819783,1768371986.821022,105.000000,0.000000,4352.948730,4341.794922,4364.743652,4332.563965,4312.563965,4323.205078,4311.153809,4321.282227,4311.025879,4282.692383,4526.282227,4531.538574,4418.717773,4497.692383,5389.000000,2.000000,37.000000,,,,0.000000,4.000000,4.000000,4.000000,4.000000,4.000000,4.000000,4.000000,4.000000,4.000000,4.000000,4.000000,4.000000,4.000000,4.000000,100.000000,,,,,,,,,,,,,,,,,,,,,,,,,,,,,,,,,,,,,,,,,,,,,,,,,,,,,,,,,,,,,,,,,,,,,,,,,,,,,,,,,,,,,,,,,,,,,,,,,,,,,,,,,,,,,,,,,,,,,
1768371986.827592,1768371986.828731,106.000000,0.000000,4357.948730,4341.922852,4367.051270,4334.358887,4313.333496,4325.384766,4317.948730,4323.461426,4308.589844,4281.025879,4527.436035,4530.769043,4418.846191,4494.230957,4397.000000,2.000000,37.000000,,,,0.000000,4.000000,4.000000,4.000000,4.000000,4.000000,4.000000,4.000000,4.000000,4.000000,4.000000,4.000000,4.000000,4.000000,4.000000,100.000000,,,,,,,,,,,,,,,,,,,,,,,,,,,,,,,,,,,,,,,,,,,,,,,,,,,,,,,,,,,,,,,,,,,,,,,,,,,,,,,,,,,,,,,,,,,,,,,,,,,,,,,,,,,,,,,,,,,,,
1768371986.835400,1768371986.836539,107.000000,0.000000,4354.102539,4341.410156,4363.205078,4333.205078,4321.153809,4328.589844,4321.794922,4321.538574,4305.769043,4278.589844,4526.025879,4532.948730,4414.743652,4497.436035,4674.000000,2.000000,37.000000,,,,0.000000,4.000000,4.000000,4.000000,4.000000,4.000000,4.000000,4.000000,4.000000,4.000000,4.000000,4.000000,4.000000,4.000000,4.000000,100.000000,,,,,,,,,,,,,,,,,,,,,,,,,,,,,,,,,,,,,,,,,,,,,,,,,,,,,,,,,,,,,,,,,,,,,,,,,,,,,,,,,,,,,,,,,,,,,,,,,,,,,,,,,,,,,,,,,,,,,
1768371986.843208,1768371986.844148,108.000000,0.000000,4351.666504,4340.256348,4357.051270,4326.025879,4322.436035,4325.769043,4318.333496,4318.974121,4309.230957,4287.820313,4526.794922,4532.692383,4422.436035,4503.077148,5020.000000,2.000000,37.000000,,,,0.000000,4.000000,4.000000,4.000000,4.000000,4.000000,4.000000,4.000000,4.000000,4.000000,4.000000,4.000000,4.000000,4.000000,4.000000,100.000000,,,,,,,,,,,,,,,,,,,,,,,,,,,,,,,,,,,,,,,,,,,,,,,,,,,,,,,,,,,,,,,,,,,,,,,,,,,,,,,,,,,,,,,,,,,,,,,,,,,,,,,,,,,,,,,,,,,,,
1768371986.851017,1768371986.851956,109.000000,0.000000,4348.077148,4340.000000,4354.615234,4325.769043,4318.974121,4325.000000,4318.077148,4319.743652,4310.897461,4292.563965,4529.615234,4524.871582,4427.051270,4497.692383,5389.000000,2.000000,37.000000,,,,0.000000,4.000000,4.000000,4.000000,4.000000,4.000000,4.000000,4.000000,4.000000,4.000000,4.000000,4.000000,4.000000,4.000000,4.000000,100.000000,,,,,,,,,,,,,,,,,,,,,,,,,,,,,,,,,,,,,,,,,,,,,,,,,,,,,,,,,,,,,,,,,,,,,,,,,,,,,,,,,,,,,,,,,,,,,,,,,,,,,,,,,,,,,,,,,,,,,
1768371986.858825,1768371986.859665,110.000000,0.000000,4343.461426,4338.846191,4356.794922,4328.717773,4313.461426,4325.384766,4315.512695,4320.512695,4308.461426,4283.846191,4527.051270,4520.128418,4422.692383,4488.589844,4397.000000,2.000000,37.000000,,,,0.000000,4.000000,4.000000,4.000000,4.000000,4.000000,4.000000,4.000000,4.000000,4.000000,4.000000,4.000000,4.000000,4.000000,4.000000,100.000000,,,,,,,,,,,,,,,,,,,,,,,,,,,,,,,,,,,,,,,,,,,,,,,,0.388836,0.277878,0.338339,0.268900,0.176010,0.324973,0.302662,0.283724,0.190739,0.091657,0.519352,0.223155,0.232931,0.203983,0.124179,0.225670,0.163833,0.189750,0.159141,0.071843,0.198900,0.099961,0.089207,0.099756,0.057717,0.205418,0.106264,0.085674,0.088621,0.075675,0.151208,0.082377,0.039981,0.080990,0.087397,0.223428,0.090947,0.094884,0.088279,0.110340,0.676982,0.195744,0.105153,0.174020,0.174902,0.293701,0.204683,0.099615,0.154494,0.116733,0.485466,0.215503,0.244641,0.305808,0.198431,0.656812,0.283623,0.317342,0.297801,0.147856,1.104197,0.370926,0.500863,0.395402,0.192455,0.543813,0.482594,0.392645,0.372219,0.221423
1768371986.866634,1768371986.867473,111.000000,0.000000,4345.641113,4335.512695,4359.358887,4325.512695,4312.948730,4325.512695,4311.794922,4319.871582,4307.307617,4281.538574,4524.871582,4528.333496,4425.641113,4491.666504,4674.000000,2.000000,37.000000,,,,0.000000,4.000000,4.000000,4.000000,4.000000,4.000000,4.000000,4.000000,4.000000,4.000000,4.000000,4.000000,4.000000,4.000000,4.000000,100.000000,,,,,,,,,,,,,,,,,,,,,,,,,,,,,,,,,,,,,,,,,,,,,,,,,,,,,,,,,,,,,,,,,,,,,,,,,,,,,,,,,,,,,,,,,,,,,,,,,,,,,,,,,,,,,,,,,,,,,
1768371986.874442,1768371986.875082,112.000000,0.000000,4350.897461,4335.512695,4359.743652,4325.256348,4318.974121,4325.897461,4316.025879,4324.102539,4310.512695,4290.512695,4533.846191,4536.153809,4428.974121,4500.897461,5020.000000,2.000000,37.000000,,,,0.000000,4.000000,4.000000,4.000000,4.000000,4.000000,4.000000,4.000000,4.000000,4.000000,4.000000,4.000000,4.000000,4.000000,4.000000,100.000000,,,,,,,,,,,,,,,,,,,,,,,,,,,,,,,,,,,,,,,,,,,,,,,,,,,,,,,,,,,,,,,,,,,,,,,,,,,,,,,,,,,,,,,,,,,,,,,,,,,,,,,,,,,,,,,,,,,,,
1768371986.882251,1768371986.882890,113.000000,0.000000,4348.077148,4337.820313,4358.974121,4327.307617,4322.179688,4327.179688,4321.922852,4326.282227,4312.179688,4293.333496,4535.897461,4531.153809,4422.179688,4496.922852,5389.000000,2.000000,37.000000,,,,0.000000,4.000000,4.000000,4.000000,4.000000,4.000000,4.000000,4.000000,4.000000,4.000000,4.000000,4.000000,4.000000,4.000000,4.000000,100.000000,,,,,,,,,,,,,,,,,,,,,,,,,,,,,,,,,,,,,,,,,,,,,,,,,,,,,,,,,,,,,,,,,,,,,,,,,,,,,,,,,,,,,,,,,,,,,,,,,,,,,,,,,,,,,,,,,,,,,
1768371986.890059,1768371986.890799,114.000000,0.000000,4341.794922,4336.153809,4357.307617,4327.051270,4322.563965,4333.461426,4324.487305,4321.538574,4308.974121,4287.563965,4525.512695,4523.717773,4422.051270,4489.615234,4397.000000,2.000000,37.000000,,,,0.000000,4.000000,4.000000,4.000000,4.000000,4.000000,4.000000,4.000000,4.000000,4.000000,4.000000,4.000000,4.000000,4.000000,4.000000,100.000000,,,,,,,,,,,,,,,,,,,,,,,,,,,,,,,,,,,,,,,,,,,,,,,,,,,,,,,,,,,,,,,,,,,,,,,,,,,,,,,,,,,,,,,,,,,,,,,,,,,,,,,,,,,,,,,,,,,,,
1768371986.897868,1768371986.898607,115.000000,0.000000,4342.179688,4334.743652,4356.410156,4326.282227,4323.077148,4338.974121,4324.102539,4321.153809,4307.563965,4286.025879,4526.666504,4526.794922,4428.461426,4498.333496,4674.000000,2.000000,37.000000,,,,0.000000,4.000000,4.000000,4.000000,4.000000,4.000000,4.000000,4.000000,4.000000,4.000000,4.000000,4.000000,4.000000,4.000000,4.000000,100.000000,,,,,,,,,,,,,,,,,,,,,,,,,,,,,,,,,,,,,,,,,,,,,,,,,,,,,,,,,,,,,,,,,,,,,,,,,,,,,,,,,,,,,,,,,,,,,,,,,,,,,,,,,,,,,,,,,,,,,
1768371986.905676,1768371986.906615,116.000000,0.000000,4347.563965,4336.410156,4360.256348,4325.384766,4324.358887,4333.205078,4318.974121,4322.692383,4309.487305,4289.871582,4537.820313,4533.333496,4426.794922,4509.487305,5020.000000,2.000000,37.000000,,,,0.000000,4.000000,4.000000,4.000000,4.000000,4.000000,4.000000,4.000000,4.000000,4.000000,4.000000,4.000000,4.000000,4.000000,4.000000,100.000000,,,,,,,,,,,,,,,,,,,,,,,,,,,,,,,,,,,,,,,,,,,,,,,,,,,,,,,,,,,,,,,,,,,,,,,,,,,,,,,,,,,,,,,,,,,,,,,,,,,,,,,,,,,,,,,,,,,,,
1768371986.913484,1768371986.914424,117.000000,0.000000,4352.051270,4336.666504,4362.179688,4327.051270,4324.871582,4325.256348,4317.051270,4321.410156,4310.000000,4293.974121,4537.948730,4535.384766,4424.871582,4506.410156,5389.000000,2.000000,37.000000,,,,0.000000,4.000000,4.000000,4.000000,4.000000,4.000000,4.000000,4.000000,4.000000,4.000000,4.000000,4.000000,4.000000,4.000000,4.000000,100.000000,,,,,,,,,,,,,,,,,,,,,,,,,,,,,,,,,,,,,,,,,,,,,,,,,,,,,,,,,,,,,,,,,,,,,,,,,,,,,,,,,,,,,,,,,,,,,,,,,,,,,,,,,,,,,,,,,,,,,
1768371986.921293,1768371986.922332,118.000000,0.000000,4348.589844,4335.512695,4358.077148,4327.436035,4323.717773,4329.487305,4320.641113,4322.179688,4310.000000,4294.487305,4534.615234,4533.974121,4427.820313,4501.666504,4397.000000,2.000000,37.000000,,,,0.000000,4.000000,4.000000,4.000000,4.000000,4.000000,4.000000,4.000000,4.000000,4.000000,4.000000,4.000000,4.000000,4.000000,4.000000,100.000000,,,,,,,,,,,,,,,,,,,,,,,,,,,,,,,,,,,,,,,,,,,,,,,,,,,,,,,,,,,,,,,,,,,,,,,,,,,,,,,,,,,,,,,,,,,,,,,,,,,,,,,,,,,,,,,,,,,,,
1768371986.929101,1768371986.930141,119.000000,0.000000,4341.153809,4336.410156,4358.333496,4323.846191,4323.846191,4331.794922,4318.333496,4322.179688,4309.743652,4292.563965,4537.436035,4534.615234,4428.974121,4503.717773,4674.000000,2.000000,37.000000,,,,0.000000,4.000000,4.000000,4.000000,4.000000,4.000000,4.000000,4.000000,4.000000,4.000000,4.000000,4.000000,4.000000,4.000000,4.000000,100.000000,,,,,,,,,,,,,,,,,,,,,,,,,,,,,,,,,,,,,,,,,,,,,,,,,,,,,,,,,,,,,,,,,,,,,,,,,,,,,,,,,,,,,,,,,,,,,,,,,,,,,,,,,,,,,,,,,,,,,
1768371986.936910,1768371986.938149,120.000000,0.000000,4345.256348,4340.128418,4363.205078,4325.641113,4327.307617,4326.922852,4314.615234,4324.743652,4309.871582,4295.128418,4540.769043,4539.358887,4429.487305,4506.282227,5020.000000,2.000000,37.000000,,,,0.000000,4.000000,4.000000,4.000000,4.000000,4.000000,4.000000,4.000000,4.000000,4.000000,4.000000,4.000000,4.000000,4.000000,4.000000,100.000000,,,,,,,,,,,,,,,,,,,,,,,,,,,,,,,,,,,,,,,,,,,,,,,,,,,,,,,,,,,,,,,,,,,,,,,,,,,,,,,,,,,,,,,,,,,,,,,,,,,,,,,,,,,,,,,,,,,,,
1768371986.944718,1768371986.945957,121.000000,0.000000,4351.538574,4342.307617,4366.922852,4330.256348,4327.179688,4329.615234,4319.487305,4332.948730,4316.538574,4301.666504,4541.153809,4542.436035,4431.410156,4508.205078,5389.000000,2.000000,37.000000,,,,0.000000,4.000000,4.000000,4.000000,4.000000,4.000000,4.000000,4.000000,4.000000,4.000000,4.000000,4.000000,4.000000,4.000000,4.000000,100.000000,,,,,,,,,,,,,,,,,,,,,,,,,,,,,,,,,,,,,,,,,,,,,,,,,,,,,,,,,,,,,,,,,,,,,,,,,,,,,,,,,,,,,,,,,,,,,,,,,,,,,,,,,,,,,,,,,,,,,
1768371986.952526,1768371986.953666,122.000000,0.000000,4349.871582,4340.000000,4368.589844,4328.974121,4325.128418,4335.256348,4325.897461,4336.922852,4325.512695,4306.538574,4541.666504,4547.051270,4432.820313,4507.307617,4397.000000,2.000000,37.000000,,,,0.000000,4.000000,4.000000,4.000000,4.000000,4.000000,4.000000,4.000000,4.000000,4.000000,4.000000,4.000000,4.000000,4.000000,4.000000,100.000000,,,,,,,,,,,,,,,,,,,,,,,,,,,,,,,,,,,,,,,,,,,,,,,,,,,,,,,,,,,,,,,,,,,,,,,,,,,,,,,,,,,,,,,,,,,,,,,,,,,,,,,,,,,,,,,,,,,,,
1768371986.960335,1768371986.961474,123.000000,0.000000,4347.179688,4337.563965,4368.461426,4326.025879,4329.230957,4334.487305,4327.051270,4335.641113,4322.307617,4304.102539,4542.307617,4550.769043,4432.179688,4506.025879,4674.000000,2.000000,37.000000,,,,0.000000,4.000000,4.000000,4.000000,4.000000,4.000000,4.000000,4.000000,4.000000,4.000000,4.000000,4.000000,4.000000,4.000000,4.000000,100.000000,,,,,,,,,,,,,,,,,,,,,,,,,,,,,,,,,,,,,,,,,,,,,,,,,,,,,,,,,,,,,,,,,,,,,,,,,,,,,,,,,,,,,,,,,,,,,,,,,,,,,,,,,,,,,,,,,,,,,
1768371986.968143,1768371986.969482,124.000000,0.000000,4351.282227,4339.358887,4369.487305,4327.563965,4332.563965,4336.794922,4326.922852,4334.358887,4313.846191,4298.717773,4540.256348,4546.794922,4430.769043,4507.948730,5020.000000,2.000000,37.000000,,,,0.000000,4.000000,4.000000,4.000000,4.000000,4.000000,4.000000,4.000000,4.000000,4.000000,4.000000,4.000000,4.000000,4.000000,4.000000,100.000000,,,,,,,,,,,,,,,,,,,,,,,,,,,,,,,,,,,,,,,,,,,,,,,,,,,,,,,,,,,,,,,,,,,,,,,,,,,,,,,,,,,,,,,,,,,,,,,,,,,,,,,,,,,,,,,,,,,,,
1768371986.975952,1768371986.977291,125.000000,0.000000,4356.282227,4341.538574,4372.051270,4328.461426,4329.871582,4342.051270,4327.820313,4327.820313,4311.410156,4294.615234,4538.717773,4540.641113,4428.717773,4503.974121,5389.000000,2.000000,37.000000,,,,0.000000,4.000000,4.000000,4.000000,4.000000,4.000000,4.000000,4.000000,4.000000,4.000000,4.000000,4.000000,4.000000,4.000000,4.000000,100.000000,,,,,,,,,,,,,,,,,,,,,,,,,,,,,,,,,,,,,,,,,,,,,,,,,,,,,,,,,,,,,,,,,,,,,,,,,,,,,,,,,,,,,,,,,,,,,,,,,,,,,,,,,,,,,,,,,,,,,
1768371986.983760,1768371986.984999,126.000000,0.000000,4351.025879,4338.461426,4371.538574,4327.563965,4325.384766,4335.384766,4324.358887,4321.794922,4310.384766,4288.717773,4535.641113,4537.948730,4425.128418,4494.615234,4397.000000,2.000000,37.000000,,,,0.000000,4.000000,4.000000,4.000000,4.000000,4.000000,4.000000,4.000000,4.000000,4.000000,4.000000,4.000000,4.000000,4.000000,4.000000,100.000000,,,,,,,,,,,,,,,,,,,,,,,,,,,,,,,,,,,,,,,,,,,,,,,,0.382101,0.231313,0.322646,0.298667,0.193484,0.340348,0.336611,0.279490,0.201661,0.100966,0.656773,0.214309,0.238731,0.208626,0.149878,0.226012,0.162727,0.166680,0.170175,0.073723,0.238361,0.122292,0.083616,0.101436,0.056585,0.261805,0.091842,0.073898,0.094961,0.077459,0.180900,0.097782,0.037587,0.087501,0.090073,0.298580,0.095567,0.087432,0.088652,0.115698,0.811097,0.179904,0.112075,0.181120,0.174713,0.351441,0.216643,0.103267,0.146099,0.115132,0.511248,0.170787,0.252426,0.270719,0.191675,0.879952,0.273030,0.298720,0.249142,0.151487,1.227891,0.307515,0.477700,0.361851,0.185353,0.738610,0.417421,0.356384,0.311367,0.212107
1768371986.991569,1768371986.992808,127.000000,0.000000,4344.102539,4332.436035,4366.794922,4326.025879,4325.641113,4326.794922,4319.871582,4321.922852,4308.077148,4284.871582,4528.205078,4535.512695,4420.897461,4490.769043,37.000000,2.000000,37.000000,,,,0.000000,4.000000,4.000000,4.000000,4.000000,4.000000,4.000000,4.000000,4.000000,4.000000,4.000000,4.000000,4.000000,4.000000,4.000000,100.000000,,,,,,,,,,,,,,,,,,,,,,,,,,,,,,,,,,,,,,,,,,,,,,,,,,,,,,,,,,,,,,,,,,,,,,,,,,,,,,,,,,,,,,,,,,,,,,,,,,,,,,,,,,,,,,,,,,,,,
1768371986.999377,1768371987.000417,0.000000,0.000000,4343.589844,4332.563965,4363.461426,4323.974121,4327.436035,4330.641113,4320.769043,4321.538574,4307.563965,4287.436035,4524.615234,4533.846191,4419.358887,4491.666504,4044.000000,2.000000,37.000000,,,,0.000000,4.000000,4.000000,4.000000,4.000000,4.000000,4.000000,4.000000,4.000000,4.000000,4.000000,4.000000,4.000000,4.000000,4.000000,100.000000,,,,,,,,,,,,,,,,,,,,,,,,,,,,,,,,,,,,,,,,,,,,,,,,,,,,,,,,,,,,,,,,,,,,,,,,,,,,,,,,,,,,,,,,,,,,,,,,,,,,,,,,,,,,,,,,,,,,,
1768371987.007186,1768371987.008225,1.000000,0.000000,4343.077148,4336.025879,4362.948730,4324.230957,4325.897461,4338.846191,4324.358887,4320.897461,4307.307617,4291.538574,4533.461426,4533.461426,4423.461426,4492.692383,3981.000000,2.000000,37.000000,,,,0.000000,4.000000,4.000000,4.000000,4.000000,4.000000,4.000000,4.000000,4.000000,4.000000,4.000000,4.000000,4.000000,4.000000,4.000000,100.000000,,,,,,,,,,,,,,,,,,,,,,,,,,,,,,,,,,,,,,,,,,,,,,,,,,,,,,,,,,,,,,,,,,,,,,,,,,,,,,,,,,,,,,,,,,,,,,,,,,,,,,,,,,,,,,,,,,,,,
1768371987.014994,1768371987.015934,2.000000,0.000000,4348.205078,4336.282227,4366.153809,4327.179688,4325.769043,4336.025879,4323.205078,4320.512695,4306.794922,4291.794922,4537.563965,4534.230957,4427.563965,4493.461426,3881.000000,2.000000,37.000000,,,,0.000000,4.000000,4.000000,4.000000,4.000000,4.000000,4.000000,4.000000,4.000000,4.000000,4.000000,4.000000,4.000000,4.000000,4.000000,100.000000,,,,,,,,,,,,,,,,,,,,,,,,,,,,,,,,,,,,,,,,,,,,,,,,,,,,,,,,,,,,,,,,,,,,,,,,,,,,,,,,,,,,,,,,,,,,,,,,,,,,,,,,,,,,,,,,,,,,,
1768371987.022802,1768371987.023742,3.000000,0.000000,4355.897461,4335.897461,4369.871582,4328.077148,4327.179688,4326.153809,4320.256348,4316.922852,4307.179688,4291.538574,4530.769043,4537.563965,4426.153809,4492.820313,3866.000000,2.000000,37.000000,,,,0.000000,4.000000,4.000000,4.000000,4.000000,4.000000,4.000000,4.000000,4.000000,4.000000,4.000000,4.000000,4.000000,4.000000,4.000000,100.000000,,,,,,,,,,,,,,,,,,,,,,,,,,,,,,,,,,,,,,,,,,,,,,,,,,,,,,,,,,,,,,,,,,,,,,,,,,,,,,,,,,,,,,,,,,,,,,,,,,,,,,,,,,,,,,,,,,,,,
1768371987.030611,1768371987.031750,4.000000,0.000000,4348.333496,4335.256348,4369.358887,4325.000000,4327.563965,4324.487305,4318.846191,4319.102539,4305.641113,4292.948730,4527.820313,4538.077148,4420.512695,4490.641113,3764.000000,2.000000,37.000000,,,,0.000000,4.000000,4.000000,4.000000,4.000000,4.000000,4.000000,4.000000,4.000000,4.000000,4.000000,4.000000,4.000000,4.000000,4.000000,100.000000,,,,,,,,,,,,,,,,,,,,,,,,,,,,,,,,,,,,,,,,,,,,,,,,,,,,,,,,,,,,,,,,,,,,,,,,,,,,,,,,,,,,,,,,,,,,,,,,,,,,,,,,,,,,,,,,,,,,,
1768371987.038419,1768371987.039559,5.000000,0.000000,4337.692383,4329.743652,4364.487305,4322.948730,4326.153809,4332.948730,4317.563965,4324.230957,4303.461426,4292.692383,4528.077148,4531.282227,4414.871582,4490.641113,3749.000000,2.000000,37.000000,,,,0.000000,4.000000,4.000000,4.000000,4.000000,4.000000,4.000000,4.000000,4.000000,4.000000,4.000000,4.000000,4.000000,4.000000,4.000000,100.000000,,,,,,,,,,,,,,,,,,,,,,,,,,,,,,,,,,,,,,,,,,,,,,,,,,,,,,,,,,,,,,,,,,,,,,,,,,,,,,,,,,,,,,,,,,,,,,,,,,,,,,,,,,,,,,,,,,,,,
1768371987.046228,1768371987.047267,6.000000,0.000000,4341.538574,4324.102539,4359.615234,4323.461426,4325.769043,4334.102539,4319.615234,4325.512695,4306.410156,4293.589844,4528.846191,4529.358887,4418.846191,4490.769043,3744.000000,2.000000,37.000000,,,,0.000000,4.000000,4.000000,4.000000,4.000000,4.000000,4.000000,4.000000,4.000000,4.000000,4.000000,4.000000,4.000000,4.000000,4.000000,100.000000,,,,,,,,,,,,,,,,,,,,,,,,,,,,,,,,,,,,,,,,,,,,,,,,,,,,,,,,,,,,,,,,,,,,,,,,,,,,,,,,,,,,,,,,,,,,,,,,,,,,,,,,,,,,,,,,,,,,,
1768371987.054036,1768371987.055076,7.000000,0.000000,4345.897461,4330.000000,4364.230957,4324.615234,4325.897461,4328.589844,4323.846191,4326.922852,4311.153809,4296.538574,4534.743652,4535.769043,4426.538574,4490.769043,3742.000000,2.000000,37.000000,,,,0.000000,4.000000,4.000000,4.000000,4.000000,4.000000,4.000000,4.000000,4.000000,4.000000,4.000000,4.000000,4.000000,4.000000,4.000000,100.000000,,,,,,,,,,,,,,,,,,,,,,,,,,,,,,,,,,,,,,,,,,,,,,,,,,,,,,,,,,,,,,,,,,,,,,,,,,,,,,,,,,,,,,,,,,,,,,,,,,,,,,,,,,,,,,,,,,,,,
1768371987.061845,1768371987.062684,8.000000,0.000000,4345.000000,4335.897461,4373.461426,4327.820313,4326.025879,4332.051270,4324.102539,4330.512695,4312.563965,4297.436035,4540.256348,4539.615234,4427.563965,4492.948730,3952.000000,2.000000,37.000000,,,,0.000000,4.000000,4.000000,4.000000,4.000000,4.000000,4.000000,4.000000,4.000000,4.000000,4.000000,4.000000,4.000000,4.000000,4.000000,100.000000,,,,,,,,,,,,,,,,,,,,,,,,,,,,,,,,,,,,,,,,,,,,,,,,,,,,,,,,,,,,,,,,,,,,,,,,,,,,,,,,,,,,,,,,,,,,,,,,,,,,,,,,,,,,,,,,,,,,,
1768371987.069653,1768371987.070493,9.000000,0.000000,4343.333496,4330.769043,4368.846191,4325.000000,4326.282227,4332.820313,4320.256348,4327.051270,4312.307617,4296.922852,4533.589844,4537.692383,4422.948730,4492.948730,3929.000000,2.000000,37.000000,,,,0.000000,4.000000,4.000000,4.000000,4.000000,4.000000,4.000000,4.000000,4.000000,4.000000,4.000000,4.000000,4.000000,4.000000,4.000000,100.000000,,,,,,,,,,,,,,,,,,,,,,,,,,,,,,,,,,,,,,,,,,,,,,,,,,,,,,,,,,,,,,,,,,,,,,,,,,,,,,,,,,,,,,,,,,,,,,,,,,,,,,,,,,,,,,,,,,,,,
1768371987.077462,1768371987.078201,10.000000,0.000000,4340.128418,4324.358887,4357.436035,4317.563965,4326.153809,4325.897461,4319.102539,4320.128418,4310.769043,4295.128418,4525.256348,4532.820313,4419.102539,4490.641113,4397.000000,2.000000,37.000000,,,,0.000000,4.000000,4.000000,4.000000,4.000000,4.000000,4.000000,4.000000,4.000000,4.000000,4.000000,4.000000,4.000000,4.000000,4.000000,100.000000,,,,,,,,,,,,,,,,,,,,,,,,,,,,,,,,,,,,,,,,,,,,,,,,,,,,,,,,,,,,,,,,,,,,,,,,,,,,,,,,,,,,,,,,,,,,,,,,,,,,,,,,,,,,,,,,,,,,,
1768371987.085270,1768371987.086010,11.000000,0.000000,4340.512695,4325.000000,4358.333496,4318.333496,4326.922852,4327.692383,4323.589844,4318.333496,4309.102539,4293.077148,4525.256348,4528.846191,4420.128418,4491.025879,4674.000000,2.000000,37.000000,,,,0.000000,4.000000,4.000000,4.000000,4.000000,4.000000,4.000000,4.000000,4.000000,4.000000,4.000000,4.000000,4.000000,4.000000,4.000000,100.000000,,,,,,,,,,,,,,,,,,,,,,,,,,,,,,,,,,,,,,,,,,,,,,,,,,,,,,,,,,,,,,,,,,,,,,,,,,,,,,,,,,,,,,,,,,,,,,,,,,,,,,,,,,,,,,,,,,,,,
1768371987.093078,1768371987.094018,12.000000,0.000000,4342.948730,4329.743652,4365.384766,4325.000000,4325.897461,4329.871582,4321.794922,4317.563965,4307.948730,4294.487305,4525.769043,4526.538574,4419.487305,4490.641113,5020.000000,2.000000,37.000000,,,,0.000000,4.000000,4.000000,4.000000,4.000000,4.000000,4.000000,4.000000,4.000000,4.000000,4.000000,4.000000,4.000000,4.000000,4.000000,100.000000,,,,,,,,,,,,,,,,,,,,,,,,,,,,,,,,,,,,,,,,,,,,,,,,,,,,,,,,,,,,,,,,,,,,,,,,,,,,,,,,,,,,,,,,,,,,,,,,,,,,,,,,,,,,,,,,,,,,,
1768371987.100887,1768371987.101826,13.000000,0.000000,4342.179688,4330.256348,4365.256348,4328.974121,4328.333496,4327.436035,4318.205078,4316.410156,4306.666504,4297.051270,4526.282227,4527.692383,4419.487305,4489.487305,5390.000000,2.000000,37.000000,,,,0.000000,4.000000,4.000000,4.000000,4.000000,4.000000,4.000000,4.000000,4.000000,4.000000,4.000000,4.000000,4.000000,4.000000,4.000000,100.000000,,,,,,,,,,,,,,,,,,,,,,,,,,,,,,,,,,,,,,,,,,,,,,,,,,,,,,,,,,,,,,,,,,,,,,,,,,,,,,,,,,,,,,,,,,,,,,,,,,,,,,,,,,,,,,,,,,,,,
1768371987.108695,1768371987.109735,14.000000,0.000000,4340.384766,4326.922852,4360.641113,4325.000000,4331.282227,4331.025879,4322.179688,4317.820313,4305.000000,4295.769043,4526.282227,4532.563965,4419.615234,4492.307617,4397.000000,2.000000,37.000000,,,,0.000000,4.000000,4.000000,4.000000,4.000000,4.000000,4.000000,4.000000,4.000000,4.000000,4.000000,4.000000,4.000000,4.000000,4.000000,100.000000,1.000000,75.000000,4.000000,4.000000,4.000000,4.000000,1.000000,4.000000,4.000000,4.000000,4.000000,4.000000,4.000000,4.000000,4.000000,4.000000,,,,,,,,,,,,,,,,,,,,,,,,,,,,,,,,0.400936,0.197617,0.297295,0.318006,0.212866,0.392775,0.357317,0.249319,0.199453,0.111040,0.810276,0.202121,0.233790,0.217211,0.179132,0.240046,0.157274,0.134197,0.172807,0.077387,0.270437,0.151725,0.085519,0.097985,0.056172,0.302718,0.085708,0.069422,0.100351,0.079865,0.229395,0.146282,0.039500,0.100769,0.092916,0.405157,0.099976,0.082568,0.094410,0.116246,0.928575,0.162822,0.116172,0.179356,0.161601,0.482440,0.236317,0.101802,0.132263,0.109902,0.657149,0.141625,0.243828,0.245666,0.179433,1.227141,0.259702,0.269584,0.229029,0.153548,1.424306,0.269903,0.408550,0.327559,0.168297,1.065672,0.360271,0.287603,0.255721,0.202309
1768371987.116504,1768371987.117544,15.000000,0.000000,4336.538574,4324.615234,4356.282227,4317.820313,4329.358887,4332.692383,4320.769043,4321.153809,4308.077148,4295.384766,4524.615234,4531.025879,4416.153809,4487.692383,4674.000000,2.000000,37.000000,,,,0.000000,4.000000,4.000000,4.000000,4.000000,4.000000,4.000000,4.000000,4.000000,4.000000,4.000000,4.000000,4.000000,4.000000,4.000000,100.000000,,,,,,,,,,,,,,,,,,,,,,,,,,,,,,,,,,,,,,,,,,,,,,,,,,,,,,,,,,,,,,,,,,,,,,,,,,,,,,,,,,,,,,,,,,,,,,,,,,,,,,,,,,,,,,,,,,,,,
1768371987.124312,1768371987.125552,16.000000,0.000000,4333.974121,4326.025879,4355.769043,4317.948730,4327.692383,4328.077148,4314.871582,4322.179688,4309.487305,4295.769043,4522.948730,4524.487305,4412.179688,4478.589844,0.000000,2.000000,37.000000,,,,0.000000,4.000000,4.000000,4.000000,4.000000,4.000000,4.000000,4.000000,4.000000,4.000000,4.000000,4.000000,4.000000,4.000000,4.000000,100.000000,,,,,,,,,,,,,,,,,,,,,,,,,,,,,,,,,,,,,,,,,,,,,,,,,,,,,,,,,,,,,,,,,,,,,,,,,,,,,,,,,,,,,,,,,,,,,,,,,,,,,,,,,,,,,,,,,,,,,
1768371987.132121,1768371987.133360,17.000000,0.000000,4337.179688,4328.205078,4357.307617,4325.256348,4327.307617,4328.461426,4317.692383,4319.743652,4303.846191,4289.615234,4521.153809,4523.974121,4411.538574,4483.461426,0.000000,2.000000,37.000000,,,,0.000000,4.000000,4.000000,4.000000,4.000000,4.000000,4.000000,4.000000,4.000000,4.000000,4.000000,4.000000,4.000000,4.000000,4.000000,100.000000,,,,,,,,,,,,,,,,,,,,,,,,,,,,,,,,,,,,,,,,,,,,,,,,,,,,,,,,,,,,,,,,,,,,,,,,,,,,,,,,,,,,,,,,,,,,,,,,,,,,,,,,,,,,,,,,,,,,,
1768371987.139929,1768371987.141269,18.000000,0.000000,4342.692383,4331.410156,4358.205078,4328.205078,4328.461426,4329.230957,4321.282227,4319.615234,4303.717773,4291.538574,4521.153809,4531.410156,4415.384766,4492.051270,0.000000,2.000000,37.000000,,,,0.000000,4.000000,4.000000,4.000000,4.000000,4.000000,4.000000,4.000000,4.000000,4.000000,4.000000,4.000000,4.000000,4.000000,4.000000,100.000000,,,,,,,,,,,,,,,,,,,,,,,,,,,,,,,,,,,,,,,,,,,,,,,,,,,,,,,,,,,,,,,,,,,,,,,,,,,,,,,,,,,,,,,,,,,,,,,,,,,,,,,,,,,,,,,,,,,,,
1768371987.147738,1768371987.149077,19.000000,0.000000,4345.512695,4332.820313,4361.153809,4326.153809,4329.743652,4326.025879,4317.820313,4322.563965,4310.128418,4299.743652,4528.589844,4535.897461,4422.820313,4492.051270,0.000000,2.000000,37.000000,,,,0.000000,4.000000,4.000000,4.000000,4.000000,4.000000,4.000000,4.000000,4.000000,4.000000,4.000000,4.000000,4.000000,4.000000,4.000000,100.000000,,,,,,,,,,,,,,,,,,,,,,,,,,,,,,,,,,,,,,,,,,,,,,,,,,,,,,,,,,,,,,,,,,,,,,,,,,,,,,,,,,,,,,,,,,,,,,,,,,,,,,,,,,,,,,,,,,,,,
1768371987.155546,1768371987.156686,20.000000,0.000000,4345.256348,4329.615234,4366.410156,4326.794922,4330.000000,4326.410156,4318.717773,4325.256348,4311.794922,4299.230957,4537.948730,4537.692383,4428.717773,4497.051270,0.000000,2.000000,37.000000,,,,0.000000,4.000000,4.000000,4.000000,4.000000,4.000000,4.000000,4.000000,4.000000,4.000000,4.000000,4.000000,4.000000,4.000000,4.000000,100.000000,,,,,,,,,,,,,,,,,,,,,,,,,,,,,,,,,,,,,,,,,,,,,,,,,,,,,,,,,,,,,,,,,,,,,,,,,,,,,,,,,,,,,,,,,,,,,,,,,,,,,,,,,,,,,,,,,,,,,
1768371987.163355,1768371987.164494,21.000000,0.000000,4345.897461,4330.128418,4369.358887,4328.846191,4329.102539,4326.410156,4321.410156,4324.487305,4310.256348,4299.358887,4538.846191,4541.282227,4428.333496,4507.436035,0.000000,2.000000,37.000000,,,,0.000000,4.000000,4.000000,4.000000,4.000000,4.000000,4.000000,4.000000,4.000000,4.000000,4.000000,4.000000,4.000000,4.000000,4.000000,100.000000,,,,,,,,,,,,,,,,,,,,,,,,,,,,,,,,,,,,,,,,,,,,,,,,,,,,,,,,,,,,,,,,,,,,,,,,,,,,,,,,,,,,,,,,,,,,,,,,,,,,,,,,,,,,,,,,,,,,,
1768371987.171163,1768371987.172403,22.000000,0.000000,4350.256348,4333.461426,4369.230957,4329.743652,4328.333496,4325.256348,4315.256348,4321.666504,4310.897461,4302.563965,4538.846191,4540.641113,4428.589844,4507.563965,0.000000,2.000000,37.000000,,,,0.000000,4.000000,4.000000,4.000000,4.000000,4.000000,4.000000,4.000000,4.000000,4.000000,4.000000,4.000000,4.000000,4.000000,4.000000,100.000000,,,,,,,,,,,,,,,,,,,,,,,,,,,,,,,,,,,,,,,,,,,,,,,,,,,,,,,,,,,,,,,,,,,,,,,,,,,,,,,,,,,,,,,,,,,,,,,,,,,,,,,,,,,,,,,,,,,,,
1768371987.178971,1768371987.180211,23.000000,0.000000,4357.307617,4330.641113,4366.538574,4328.461426,4327.692383,4325.641113,4309.358887,4320.384766,4310.384766,4298.461426,4540.000000,4537.179688,4431.538574,4499.358887,0.000000,2.000000,37.000000,,,,0.000000,4.000000,4.000000,4.000000,4.000000,4.000000,4.000000,4.000000,4.000000,4.000000,4.000000,4.000000,4.000000,4.000000,4.000000,100.000000,,,,,,,,,,,,,,,,,,,,,,,,,,,,,,,,,,,,,,,,,,,,,,,,,,,,,,,,,,,,,,,,,,,,,,,,,,,,,,,,,,,,,,,,,,,,,,,,,,,,,,,,,,,,,,,,,,,,,
1768371987.186780,1768371987.187820,24.000000,0.000000,4355.384766,4326.794922,4361.666504,4326.922852,4324.743652,4325.641113,4310.897461,4317.179688,4306.282227,4293.077148,4532.563965,4531.794922,4426.922852,4492.051270,0.000000,2.000000,37.000000,,,,0.000000,4.000000,4.000000,4.000000,4.000000,4.000000,4.000000,4.000000,4.000000,4.000000,4.000000,4.000000,4.000000,4.000000,4.000000,100.000000,,,,,,,,,,,,,,,,,,,,,,,,,,,,,,,,,,,,,,,,,,,,,,,,,,,,,,,,,,,,,,,,,,,,,,,,,,,,,,,,,,,,,,,,,,,,,,,,,,,,,,,,,,,,,,,,,,,,,
1768371987.194588,1768371987.195628,25.000000,0.000000,4340.769043,4325.769043,4356.410156,4325.769043,4322.436035,4324.358887,4312.179688,4313.461426,4305.384766,4295.384766,4522.436035,4526.153809,4421.922852,4490.256348,0.000000,2.000000,37.000000,,,,0.000000,4.000000,4.000000,4.000000,4.000000,4.000000,4.000000,4.000000,4.000000,4.000000,4.000000,4.000000,4.000000,4.000000,4.000000,100.000000,,,,,,,,,,,,,,,,,,,,,,,,,,,,,,,,,,,,,,,,,,,,,,,,,,,,,,,,,,,,,,,,,,,,,,,,,,,,,,,,,,,,,,,,,,,,,,,,,,,,,,,,,,,,,,,,,,,,,
1768371987.202397,1768371987.203337,26.000000,0.000000,4333.846191,4323.974121,4352.948730,4322.820313,4321.025879,4322.051270,4309.358887,4315.512695,4308.077148,4295.769043,4524.102539,4524.487305,4425.128418,4492.179688,0.000000,2.000000,37.000000,,,,0.000000,4.000000,4.000000,4.000000,4.000000,4.000000,4.000000,4.000000,4.000000,4.000000,4.000000,4.000000,4.000000,4.000000,4.000000,100.000000,,,,,,,,,,,,,,,,,,,,,,,,,,,,,,,,,,,,,,,,,,,,,,,,,,,,,,,,,,,,,,,,,,,,,,,,,,,,,,,,,,,,,,,,,,,,,,,,,,,,,,,,,,,,,,,,,,,,,
1768371987.210205,1768371987.211145,27.000000,0.000000,4344.358887,4323.717773,4355.641113,4324.358887,4321.666504,4324.102539,4310.512695,4322.051270,4310.256348,4294.743652,4534.487305,4528.205078,4429.487305,4489.743652,0.000000,2.000000,37.000000,,,,0.000000,4.000000,4.000000,4.000000,4.000000,4.000000,4.000000,4.000000,4.000000,4.000000,4.000000,4.000000,4.000000,4.000000,4.000000,100.000000,,,,,,,,,,,,,,,,,,,,,,,,,,,,,,,,,,,,,,,,,,,,,,,,,,,,,,,,,,,,,,,,,,,,,,,,,,,,,,,,,,,,,,,,,,,,,,,,,,,,,,,,,,,,,,,,,,,,,
1768371987.218013,1768371987.218754,28.000000,0.000000,4352.820313,4327.820313,4362.436035,4328.205078,4325.256348,4328.205078,4313.974121,4324.871582,4312.307617,4296.282227,4536.025879,4532.692383,4428.205078,4487.948730,0.000000,2.000000,37.000000,,,,0.000000,4.000000,4.000000,4.000000,4.000000,4.000000,4.000000,4.000000,4.000000,4.000000,4.000000,4.000000,4.000000,4.000000,4.000000,100.000000,,,,,,,,,,,,,,,,,,,,,,,,,,,,,,,,,,,,,,,,,,,,,,,,,,,,,,,,,,,,,,,,,,,,,,,,,,,,,,,,,,,,,,,,,,,,,,,,,,,,,,,,,,,,,,,,,,,,,
1768371987.225822,1768371987.226562,29.000000,0.000000,4345.256348,4328.077148,4360.000000,4327.179688,4324.871582,4328.333496,4312.692383,4322.692383,4310.641113,4295.641113,4528.077148,4531.282227,4424.615234,4492.307617,0.000000,2.000000,37.000000,,,,0.000000,4.000000,4.000000,4.000000,4.000000,4.000000,4.000000,4.000000,4.000000,4.000000,4.000000,4.000000,4.000000,4.000000,4.000000,100.000000,,,,,,,,,,,,,,,,,,,,,,,,,,,,,,,,,,,,,,,,,,,,,,,,,,,,,,,,,,,,,,,,,,,,,,,,,,,,,,,,,,,,,,,,,,,,,,,,,,,,,,,,,,,,,,,,,,,,,
1768371987.233630,1768371987.234471,30.000000,0.000000,4334.358887,4319.102539,4347.436035,4324.230957,4321.794922,4325.769043,4309.487305,4319.230957,4302.179688,4293.974121,4524.487305,4522.307617,4418.974121,4487.948730,0.000000,2.000000,37.000000,,,,0.000000,4.000000,4.000000,4.000000,4.000000,4.000000,4.000000,4.000000,4.000000,4.000000,4.000000,4.000000,4.000000,4.000000,4.000000,100.000000,,,,,,,,,,,,,,,,,,,,,,,,,,,,,,,,,,,,,,,,,,,,,,,,0.422670,0.182204,0.273630,0.319571,0.230954,0.470213,0.357930,0.202083,0.184935,0.119428,0.937898,0.193295,0.219219,0.225719,0.206037,0.255431,0.146527,0.097418,0.166295,0.082233,0.289256,0.182749,0.094789,0.091017,0.058729,0.313299,0.085901,0.071862,0.103051,0.082032,0.287875,0.219900,0.048376,0.120747,0.095451,0.529692,0.107467,0.084227,0.100646,0.111548,1.012102,0.147037,0.115821,0.170532,0.139931,0.662470,0.263025,0.096455,0.116845,0.103122,0.889279,0.119793,0.219737,0.235332,0.167266,1.632858,0.256656,0.236083,0.235971,0.155661,1.642621,0.247288,0.312861,0.294169,0.147054,1.468066,0.311523,0.205074,0.212794,0.196243
1768371987.241439,1768371987.242279,31.000000,0.000000,4335.000000,4312.307617,4342.051270,4322.051270,4321.282227,4325.641113,4309.230957,4317.948730,4300.128418,4290.256348,4522.692383,4511.666504,4410.512695,4473.974121,0.000000,2.000000,37.000000,,,,0.000000,4.000000,4.000000,4.000000,4.000000,4.000000,4.000000,4.000000,4.000000,4.000000,4.000000,4.000000,4.000000,4.000000,4.000000,100.000000,,,,,,,,,,,,,,,,,,,,,,,,,,,,,,,,,,,,,,,,,,,,,,,,,,,,,,,,,,,,,,,,,,,,,,,,,,,,,,,,,,,,,,,,,,,,,,,,,,,,,,,,,,,,,,,,,,,,,
1768371987.249247,1768371987.249888,32.000000,0.000000,4345.256348,4315.256348,4349.487305,4319.871582,4319.871582,4325.384766,4310.769043,4321.153809,4308.589844,4291.025879,4524.102539,4519.358887,4414.487305,4476.922852,0.000000,2.000000,37.000000,,,,0.000000,4.000000,4.000000,4.000000,4.000000,4.000000,4.000000,4.000000,4.000000,4.000000,4.000000,4.000000,4.000000,4.000000,4.000000,100.000000,,,,,,,,,,,,,,,,,,,,,,,,,,,,,,,,,,,,,,,,,,,,,,,,,,,,,,,,,,,,,,,,,,,,,,,,,,,,,,,,,,,,,,,,,,,,,,,,,,,,,,,,,,,,,,,,,,,,,
1768371987.257056,1768371987.257696,33.000000,0.000000,4353.077148,4322.307617,4361.922852,4326.922852,4316.538574,4323.589844,4311.666504,4327.692383,4313.589844,4304.230957,4540.384766,4543.077148,4436.153809,4500.897461,0.000000,2.000000,37.000000,,,,0.000000,4.000000,4.000000,4.000000,4.000000,4.000000,4.000000,4.000000,4.000000,4.000000,4.000000,4.000000,4.000000,4.000000,4.000000,100.000000,,,,,,,,,,,,,,,,,,,,,,,,,,,,,,,,,,,,,,,,,,,,,,,,,,,,,,,,,,,,,,,,,,,,,,,,,,,,,,,,,,,,,,,,,,,,,,,,,,,,,,,,,,,,,,,,,,,,,
1768371987.264864,1768371987.265405,34.000000,0.000000,4356.538574,4328.717773,4365.256348,4337.692383,4319.230957,4322.820313,4311.410156,4329.871582,4313.589844,4315.256348,4555.000000,4551.794922,4448.717773,4515.897461,0.000000,2.000000,37.000000,,,,0.000000,4.000000,4.000000,4.000000,4.000000,4.000000,4.000000,4.000000,4.000000,4.000000,4.000000,4.000000,4.000000,4.000000,4.000000,100.000000,,,,,,,,,,,,,,,,,,,,,,,,,,,,,,,,,,,,,,,,,,,,,,,,,,,,,,,,,,,,,,,,,,,,,,,,,,,,,,,,,,,,,,,,,,,,,,,,,,,,,,,,,,,,,,,,,,,,,
1768371987.272673,1768371987.273213,35.000000,0.000000,4357.179688,4330.512695,4358.205078,4334.743652,4325.512695,4322.563965,4308.717773,4322.820313,4310.512695,4308.205078,4546.538574,4539.102539,4438.461426,4506.410156,0.000000,2.000000,37.000000,,,,0.000000,4.000000,4.000000,4.000000,4.000000,4.000000,4.000000,4.000000,4.000000,4.000000,4.000000,4.000000,4.000000,4.000000,4.000000,100.000000,,,,,,,,,,,,,,,,,,,,,,,,,,,,,,,,,,,,,,,,,,,,,,,,,,,,,,,,,,,,,,,,,,,,,,,,,,,,,,,,,,,,,,,,,,,,,,,,,,,,,,,,,,,,,,,,,,,,,
1768371987.280481,1768371987.281221,36.000000,0.000000,4350.769043,4327.436035,4355.128418,4331.282227,4323.205078,4320.641113,4307.563965,4317.179688,4305.000000,4301.153809,4535.128418,4531.153809,4430.897461,4493.846191,0.000000,2.000000,37.000000,,,,0.000000,4.000000,4.000000,4.000000,4.000000,4.000000,4.000000,4.000000,4.000000,4.000000,4.000000,4.000000,4.000000,4.000000,4.000000,100.000000,,,,,,,,,,,,,,,,,,,,,,,,,,,,,,,,,,,,,,,,,,,,,,,,,,,,,,,,,,,,,,,,,,,,,,,,,,,,,,,,,,,,,,,,,,,,,,,,,,,,,,,,,,,,,,,,,,,,,
1768371987.288289,1768371987.289030,37.000000,0.000000,4344.743652,4324.743652,4355.897461,4335.769043,4318.589844,4319.102539,4306.538574,4319.743652,4304.487305,4302.051270,4537.307617,4535.256348,4436.410156,4493.846191,0.000000,2.000000,37.000000,,,,0.000000,4.000000,4.000000,4.000000,4.000000,4.000000,4.000000,4.000000,4.000000,4.000000,4.000000,4.000000,4.000000,4.000000,4.000000,100.000000,,,,,,,,,,,,,,,,,,,,,,,,,,,,,,,,,,,,,,,,,,,,,,,,,,,,,,,,,,,,,,,,,,,,,,,,,,,,,,,,,,,,,,,,,,,,,,,,,,,,,,,,,,,,,,,,,,,,,
1768371987.296098,1768371987.296938,38.000000,0.000000,4344.743652,4322.948730,4352.051270,4331.666504,4319.230957,4320.256348,4303.717773,4319.743652,4307.563965,4301.794922,4538.717773,4535.128418,4435.128418,4496.282227,0.000000,2.000000,37.000000,,,,0.000000,4.000000,4.000000,4.000000,4.000000,4.000000,4.000000,4.000000,4.000000,4.000000,4.000000,4.000000,4.000000,4.000000,4.000000,100.000000,,,,,,,,,,,,,,,,,,,,,,,,,,,,,,,,,,,,,,,,,,,,,,,,,,,,,,,,,,,,,,,,,,,,,,,,,,,,,,,,,,,,,,,,,,,,,,,,,,,,,,,,,,,,,,,,,,,,,
1768371987.303906,1768371987.304747,39.000000,0.000000,4343.461426,4320.769043,4348.717773,4326.153809,4321.666504,4319.871582,4303.205078,4318.333496,4306.922852,4302.820313,4536.538574,4531.666504,4426.794922,4493.205078,0.000000,2.000000,37.000000,,,,0.000000,4.000000,4.000000,4.000000,4.000000,4.000000,4.000000,4.000000,4.000000,4.000000,4.000000,4.000000,4.000000,4.000000,4.000000,100.000000,,,,,,,,,,,,,,,,,,,,,,,,,,,,,,,,,,,,,,,,,,,,,,,,,,,,,,,,,,,,,,,,,,,,,,,,,,,,,,,,,,,,,,,,,,,,,,,,,,,,,,,,,,,,,,,,,,,,,
1768371987.311715,1768371987.312755,40.000000,0.000000,4341.666504,4323.717773,4351.666504,4331.922852,4323.461426,4318.589844,4306.153809,4318.077148,4303.205078,4303.205078,4534.102539,4529.230957,4427.307617,4489.487305,0.000000,2.000000,37.000000,,,,0.000000,4.000000,4.000000,4.000000,4.000000,4.000000,4.000000,4.000000,4.000000,4.000000,4.000000,4.000000,4.000000,4.000000,4.000000,100.000000,,,,,,,,,,,,,,,,,,,,,,,,,,,,,,,,,,,,,,,,,,,,,,,,,,,,,,,,,,,,,,,,,,,,,,,,,,,,,,,,,,,,,,,,,,,,,,,,,,,,,,,,,,,,,,,,,,,,,
1768371987.319523,1768371987.320563,41.000000,0.000000,4341.282227,4324.358887,4347.692383,4331.282227,4321.922852,4321.666504,4305.897461,4314.358887,4298.717773,4297.820313,4526.025879,4523.333496,4428.974121,4488.077148,0.000000,2.000000,37.000000,,,,0.000000,4.000000,4.000000,4.000000,4.000000,4.000000,4.000000,4.000000,4.000000,4.000000,4.000000,4.000000,4.000000,4.000000,4.000000,100.000000,,,,,,,,,,,,,,,,,,,,,,,,,,,,,,,,,,,,,,,,,,,,,,,,,,,,,,,,,,,,,,,,,,,,,,,,,,,,,,,,,,,,,,,,,,,,,,,,,,,,,,,,,,,,,,,,,,,,,
1768371987.327332,1768371987.328472,42.000000,0.000000,4337.563965,4318.333496,4343.077148,4322.563965,4320.256348,4320.256348,4303.205078,4310.769043,4294.743652,4294.102539,4523.205078,4519.871582,4425.897461,4488.205078,0.000000,2.000000,37.000000,,,,0.000000,4.000000,4.000000,4.000000,4.000000,4.000000,4.000000,4.000000,4.000000,4.000000,4.000000,4.000000,4.000000,4.000000,4.000000,100.000000,,,,,,,,,,,,,,,,,,,,,,,,,,,,,,,,,,,,,,,,,,,,,,,,,,,,,,,,,,,,,,,,,,,,,,,,,,,,,,,,,,,,,,,,,,,,,,,,,,,,,,,,,,,,,,,,,,,,,
1768371987.335140,1768371987.336280,43.000000,0.000000,4336.282227,4318.077148,4348.333496,4327.051270,4321.282227,4313.077148,4306.153809,4314.743652,4297.307617,4296.410156,4527.692383,4523.589844,4425.769043,4489.615234,0.000000,2.000000,37.000000,,,,0.000000,4.000000,4.000000,4.000000,4.000000,4.000000,4.000000,4.000000,4.000000,4.000000,4.000000,4.000000,4.000000,4.000000,4.000000,100.000000,,,,,,,,,,,,,,,,,,,,,,,,,,,,,,,,,,,,,,,,,,,,,,,,,,,,,,,,,,,,,,,,,,,,,,,,,,,,,,,,,,,,,,,,,,,,,,,,,,,,,,,,,,,,,,,,,,,,,
1768371987.342949,1768371987.344288,44.000000,0.000000,4344.487305,4325.256348,4348.974121,4336.666504,4324.358887,4317.563965,4311.538574,4317.563965,4303.077148,4300.897461,4527.436035,4524.743652,4427.436035,4490.512695,0.000000,2.000000,37.000000,,,,0.000000,4.000000,4.000000,4.000000,4.000000,4.000000,4.000000,4.000000,4.000000,4.000000,4.000000,4.000000,4.000000,4.000000,4.000000,100.000000,,,,,,,,,,,,,,,,,,,,,,,,,,,,,,,,,,,,,,,,,,,,,,,,,,,,,,,,,,,,,,,,,,,,,,,,,,,,,,,,,,,,,,,,,,,,,,,,,,,,,,,,,,,,,,,,,,,,,
1768371987.350757,1768371987.352097,45.000000,0.000000,4354.102539,4326.794922,4346.794922,4335.256348,4325.384766,4327.948730,4314.102539,4315.512695,4305.512695,4305.769043,4528.589844,4524.615234,4429.615234,4491.538574,0.000000,2.000000,37.000000,,,,0.000000,4.000000,4.000000,4.000000,4.000000,4.000000,4.000000,4.000000,4.000000,4.000000,4.000000,4.000000,4.000000,4.000000,4.000000,100.000000,,,,,,,,,,,,,,,,,,,,,,,,,,,,,,,,,,,,,,,,,,,,,,,,,,,,,,,,,,,,,,,,,,,,,,,,,,,,,,,,,,,,,,,,,,,,,,,,,,,,,,,,,,,,,,,,,,,,,
1768371987.358565,1768371987.359805,46.000000,0.000000,4352.692383,4323.717773,4350.512695,4330.256348,4320.384766,4319.615234,4309.358887,4317.692383,4307.436035,4307.436035,4536.282227,4530.384766,4431.410156,4493.846191,0.000000,2.000000,37.000000,,,,0.000000,4.000000,4.000000,4.000000,4.000000,4.000000,4.000000,4.000000,4.000000,4.000000,4.000000,4.000000,4.000000,4.000000,4.000000,100.000000,,,,,,,,,,,,,,,,,,,,,,,,,,,,,,,,,,,,,,,,,,,,,,,,0.423086,0.183985,0.261669,0.301817,0.244815,0.547403,0.336773,0.150744,0.163710,0.123654,1.005138,0.191222,0.196728,0.228197,0.224017,0.263310,0.131974,0.064219,0.153566,0.086943,0.287380,0.206189,0.108156,0.083129,0.064901,0.291433,0.091469,0.079677,0.102932,0.083938,0.340344,0.299059,0.066096,0.144244,0.096237,0.643182,0.127850,0.093639,0.104626,0.101996,1.043743,0.138385,0.111633,0.158333,0.115454,0.843174,0.296207,0.090807,0.103940,0.096940,1.133164,0.105058,0.183611,0.237740,0.158951,1.981923,0.274811,0.202617,0.256258,0.157584,1.804601,0.232159,0.216595,0.262511,0.127512,1.831149,0.279095,0.131230,0.183762,0.195006
1768371987.366374,1768371987.367614,47.000000,0.000000,4344.102539,4323.461426,4346.410156,4327.692383,4318.589844,4306.538574,4302.820313,4317.563965,4304.615234,4302.307617,4536.794922,4533.589844,4430.128418,4493.846191,0.000000,2.000000,37.000000,,,,0.000000,4.000000,4.000000,4.000000,4.000000,4.000000,4.000000,4.000000,4.000000,4.000000,4.000000,4.000000,4.000000,4.000000,4.000000,100.000000,,,,,,,,,,,,,,,,,,,,,,,,,,,,,,,,,,,,,,,,,,,,,,,,,,,,,,,,,,,,,,,,,,,,,,,,,,,,,,,,,,,,,,,,,,,,,,,,,,,,,,,,,,,,,,,,,,,,,
1768371987.374182,1768371987.375222,48.000000,0.000000,4339.871582,4323.077148,4332.820313,4327.692383,4323.717773,4313.077148,4305.897461,4313.846191,4301.025879,4299.487305,4531.538574,4527.948730,4427.179688,4490.000000,0.000000,2.000000,37.000000,,,,0.000000,4.000000,4.000000,4.000000,4.000000,4.000000,4.000000,4.000000,4.000000,4.000000,4.000000,4.000000,4.000000,4.000000,4.000000,100.000000,,,,,,,,,,,,,,,,,,,,,,,,,,,,,,,,,,,,,,,,,,,,,,,,,,,,,,,,,,,,,,,,,,,,,,,,,,,,,,,,,,,,,,,,,,,,,,,,,,,,,,,,,,,,,,,,,,,,,
1768371987.381991,1768371987.383031,49.000000,0.000000,4342.692383,4324.230957,4331.538574,4332.436035,4324.743652,4323.333496,4312.307617,4318.333496,4305.897461,4303.717773,4534.358887,4529.102539,4427.692383,4490.000000,0.000000,2.000000,37.000000,,,,0.000000,4.000000,4.000000,4.000000,4.000000,4.000000,4.000000,4.000000,4.000000,4.000000,4.000000,4.000000,4.000000,4.000000,4.000000,100.000000,,,,,,,,,,,,,,,,,,,,,,,,,,,,,,,,,,,,,,,,,,,,,,,,,,,,,,,,,,,,,,,,,,,,,,,,,,,,,,,,,,,,,,,,,,,,,,,,,,,,,,,,,,,,,,,,,,,,,
1768371987.389799,1768371987.390739,50.000000,0.000000,4344.743652,4331.153809,4340.897461,4339.358887,4321.538574,4323.077148,4312.051270,4328.333496,4311.153809,4309.615234,4541.410156,4540.000000,4431.538574,4497.436035,0.000000,2.000000,37.000000,,,,0.000000,4.000000,4.000000,4.000000,4.000000,4.000000,4.000000,4.000000,4.000000,4.000000,4.000000,4.000000,4.000000,4.000000,4.000000,100.000000,,,,,,,,,,,,,,,,,,,,,,,,,,,,,,,,,,,,,,,,,,,,,,,,,,,,,,,,,,,,,,,,,,,,,,,,,,,,,,,,,,,,,,,,,,,,,,,,,,,,,,,,,,,,,,,,,,,,,
1768371987.397608,1768371987.398548,51.000000,0.000000,4342.820313,4332.436035,4342.692383,4340.897461,4321.282227,4321.153809,4310.512695,4330.641113,4309.615234,4308.333496,4542.436035,4545.641113,4432.692383,4499.743652,0.000000,2.000000,37.000000,,,,0.000000,4.000000,4.000000,4.000000,4.000000,4.000000,4.000000,4.000000,4.000000,4.000000,4.000000,4.000000,4.000000,4.000000,4.000000,100.000000,,,,,,,,,,,,,,,,,,,,,,,,,,,,,,,,,,,,,,,,,,,,,,,,,,,,,,,,,,,,,,,,,,,,,,,,,,,,,,,,,,,,,,,,,,,,,,,,,,,,,,,,,,,,,,,,,,,,,
1768371987.405416,1768371987.406157,52.000000,0.000000,4341.025879,4325.128418,4337.692383,4336.025879,4315.897461,4320.384766,4312.692383,4325.512695,4309.102539,4301.153809,4538.077148,4541.922852,4429.615234,4493.461426,0.000000,2.000000,37.000000,,,,0.000000,4.000000,4.000000,4.000000,4.000000,4.000000,4.000000,4.000000,4.000000,4.000000,4.000000,4.000000,4.000000,4.000000,4.000000,100.000000,,,,,,,,,,,,,,,,,,,,,,,,,,,,,,,,,,,,,,,,,,,,,,,,,,,,,,,,,,,,,,,,,,,,,,,,,,,,,,,,,,,,,,,,,,,,,,,,,,,,,,,,,,,,,,,,,,,,,
1768371987.413225,1768371987.413965,53.000000,0.000000,4340.512695,4328.333496,4336.922852,4333.461426,4310.000000,4320.769043,4312.051270,4322.820313,4309.743652,4297.179688,4534.102539,4536.666504,4426.922852,4491.282227,0.000000,2.000000,37.000000,,,,0.000000,4.000000,4.000000,4.000000,4.000000,4.000000,4.000000,4.000000,4.000000,4.000000,4.000000,4.000000,4.000000,4.000000,4.000000,100.000000,,,,,,,,,,,,,,,,,,,,,,,,,,,,,,,,,,,,,,,,,,,,,,,,,,,,,,,,,,,,,,,,,,,,,,,,,,,,,,,,,,,,,,,,,,,,,,,,,,,,,,,,,,,,,,,,,,,,,
1768371987.421033,1768371987.421674,54.000000,0.000000,4341.282227,4339.102539,4340.384766,4337.436035,4317.820313,4320.000000,4308.461426,4320.000000,4308.461426,4295.000000,4536.538574,4532.692383,4428.589844,4493.333496,0.000000,2.000000,37.000000,,,,0.000000,4.000000,4.000000,4.000000,4.000000,4.000000,4.000000,4.000000,4.000000,4.000000,4.000000,4.000000,4.000000,4.000000,4.000000,100.000000,,,,,,,,,,,,,,,,,,,,,,,,,,,,,,,,,,,,,,,,,,,,,,,,,,,,,,,,,,,,,,,,,,,,,,,,,,,,,,,,,,,,,,,,,,,,,,,,,,,,,,,,,,,,,,,,,,,,,
1768371987.428841,1768371987.429482,55.000000,0.000000,4340.384766,4335.897461,4335.641113,4341.410156,4320.256348,4318.846191,4308.589844,4316.282227,4305.000000,4293.461426,4533.974121,4527.948730,4429.743652,4492.307617,0.000000,2.000000,37.000000,,,,0.000000,4.000000,4.000000,4.000000,4.000000,4.000000,4.000000,4.000000,4.000000,4.000000,4.000000,4.000000,4.000000,4.000000,4.000000,100.000000,,,,,,,,,,,,,,,,,,,,,,,,,,,,,,,,,,,,,,,,,,,,,,,,,,,,,,,,,,,,,,,,,,,,,,,,,,,,,,,,,,,,,,,,,,,,,,,,,,,,,,,,,,,,,,,,,,,,,
