title:apple_28, start timestamp:1768372544.967228, stop timestamp:1768372576.232228, headset type:EPOCX, headset serial:E5020E3B, headset firmware:730, channels:156, sampling rate:eeg_128;pm_0.1;pow_8, samples:4005      , version:2.2, 
Timestamp,OriginalTimestamp,EEG.Counter,EEG.Interpolated,EEG.AF3,EEG.F7,EEG.F3,EEG.FC5,EEG.T7,EEG.P7,EEG.O1,EEG.O2,EEG.P8,EEG.T8,EEG.FC6,EEG.F4,EEG.F8,EEG.AF4,EEG.RawCq,EEG.Battery,EEG.BatteryPercent,MarkerIndex,MarkerType,MarkerValueInt,EEG.MarkerHardware,CQ.AF3,CQ.F7,CQ.F3,CQ.FC5,CQ.T7,CQ.P7,CQ.O1,CQ.O2,CQ.P8,CQ.T8,CQ.FC6,CQ.F4,CQ.F8,CQ.AF4,CQ.Overall,EQ.SampleRateQuality,EQ.OVERALL,EQ.AF3,EQ.F7,EQ.F3,EQ.FC5,EQ.T7,EQ.P7,EQ.O1,EQ.O2,EQ.P8,EQ.T8,EQ.FC6,EQ.F4,EQ.F8,EQ.AF4,PM.Attention.IsActive,PM.Attention.Scaled,PM.Attention.Raw,PM.Attention.Min,PM.Attention.Max,PM.Engagement.IsActive,PM.Engagement.Scaled,PM.Engagement.Raw,PM.Engagement.Min,PM.Engagement.Max,PM.Excitement.IsActive,PM.Excitement.Scaled,PM.Excitement.Raw,PM.Excitement.Min,PM.Excitement.Max,PM.LongTermExcitement,PM.Stress.IsActive,PM.Stress.Scaled,PM.Stress.Raw,PM.Stress.Min,PM.Stress.Max,PM.Relaxation.IsActive,PM.Relaxation.Scaled,PM.Relaxation.Raw,PM.Relaxation.Min,PM.Relaxation.Max,PM.Interest.IsActive,PM.Interest.Scaled,PM.Interest.Raw,PM.Interest.Min,PM.Interest.Max,POW.AF3.Theta,POW.AF3.Alpha,POW.AF3.BetaL,POW.AF3.BetaH,POW.AF3.Gamma,POW.F7.Theta,POW.F7.Alpha,POW.F7.BetaL,POW.F7.BetaH,POW.F7.Gamma,POW.F3.Theta,POW.F3.Alpha,POW.F3.BetaL,POW.F3.BetaH,POW.F3.Gamma,POW.FC5.Theta,POW.FC5.Alpha,POW.FC5.BetaL,POW.FC5.BetaH,POW.FC5.Gamma,POW.T7.Theta,POW.T7.Alpha,POW.T7.BetaL,POW.T7.BetaH,POW.T7.Gamma,POW.P7.Theta,POW.P7.Alpha,POW.P7.BetaL,POW.P7.BetaH,POW.P7.Gamma,POW.O1.Theta,POW.O1.Alpha,POW.O1.BetaL,POW.O1.BetaH,POW.O1.Gamma,POW.O2.Theta,POW.O2.Alpha,POW.O2.BetaL,POW.O2.BetaH,POW.O2.Gamma,POW.P8.Theta,POW.P8.Alpha,POW.P8.BetaL,POW.P8.BetaH,POW.P8.Gamma,POW.T8.Theta,POW.T8.Alpha,POW.T8.BetaL,POW.T8.BetaH,POW.T8.Gamma,POW.FC6.Theta,POW.FC6.Alpha,POW.FC6.BetaL,POW.FC6.BetaH,POW.FC6.Gamma,POW.F4.Theta,POW.F4.Alpha,POW.F4.BetaL,POW.F4.BetaH,POW.F4.Gamma,POW.F8.Theta,POW.F8.Alpha,POW.F8.BetaL,POW.F8.BetaH,POW.F8.Gamma,POW.AF4.Theta,POW.AF4.Alpha,POW.AF4.BetaL,POW.AF4.BetaH,POW.AF4.Gamma
1768372544.967228,1768372544.967783,33.000000,0.000000,4375.512695,4341.153809,4358.333496,4364.230957,4310.000000,4319.743652,4322.948730,4334.102539,4309.743652,4299.743652,4525.384766,4551.666504,4428.846191,4540.897461,0.000000,2.000000,35.000000,,,,0.000000,4.000000,4.000000,4.000000,4.000000,4.000000,4.000000,4.000000,4.000000,4.000000,4.000000,4.000000,4.000000,4.000000,4.000000,100.000000,,,,,,,,,,,,,,,,,,,,,,,,,,,,,,,,,,,,,,,,,,,,,,,,,,,,,,,,,,,,,,,,,,,,,,,,,,,,,,,,,,,,,,,,,,,,,,,,,,,,,,,,,,,,,,,,,,,,,
1768372544.975036,1768372544.975691,34.000000,0.000000,4374.871582,4339.871582,4355.641113,4362.307617,4307.436035,4312.436035,4316.538574,4335.512695,4311.410156,4295.769043,4523.717773,4549.230957,4434.358887,4540.641113,0.000000,2.000000,35.000000,,,,0.000000,4.000000,4.000000,4.000000,4.000000,4.000000,4.000000,4.000000,4.000000,4.000000,4.000000,4.000000,4.000000,4.000000,4.000000,100.000000,,,,,,,,,,,,,,,,,,,,,,,,,,,,,,,,,,,,,,,,,,,,,,,,,,,,,,,,,,,,,,,,,,,,,,,,,,,,,,,,,,,,,,,,,,,,,,,,,,,,,,,,,,,,,,,,,,,,,
1768372544.982845,1768372544.983500,35.000000,0.000000,4380.641113,4338.461426,4352.948730,4357.820313,4306.666504,4308.333496,4310.641113,4332.436035,4311.794922,4295.512695,4527.563965,4549.102539,4442.692383,4540.769043,0.000000,2.000000,35.000000,,,,0.000000,4.000000,4.000000,4.000000,4.000000,4.000000,4.000000,4.000000,4.000000,4.000000,4.000000,4.000000,4.000000,4.000000,4.000000,100.000000,,,,,,,,,,,,,,,,,,,,,,,,,,,,,,,,,,,,,,,,,,,,,,,,,,,,,,,,,,,,,,,,,,,,,,,,,,,,,,,,,,,,,,,,,,,,,,,,,,,,,,,,,,,,,,,,,,,,,
1768372544.990653,1768372544.991508,36.000000,0.000000,4376.794922,4337.436035,4350.256348,4358.205078,4305.128418,4310.384766,4308.717773,4326.153809,4310.769043,4296.153809,4528.589844,4545.897461,4436.666504,4541.538574,0.000000,2.000000,35.000000,,,,0.000000,4.000000,4.000000,4.000000,4.000000,4.000000,4.000000,4.000000,4.000000,4.000000,4.000000,4.000000,4.000000,4.000000,4.000000,100.000000,,,,,,,,,,,,,,,,,,,,,,,,,,,,,,,,,,,,,,,,,,,,,,,,,,,,,,,,,,,,,,,,,,,,,,,,,,,,,,,,,,,,,,,,,,,,,,,,,,,,,,,,,,,,,,,,,,,,,
1768372544.998462,1768372544.999316,37.000000,0.000000,4369.102539,4335.256348,4345.256348,4358.717773,4305.512695,4312.307617,4309.743652,4327.051270,4310.897461,4294.871582,4523.589844,4542.179688,4431.025879,4539.487305,0.000000,2.000000,35.000000,,,,0.000000,4.000000,4.000000,4.000000,4.000000,4.000000,4.000000,4.000000,4.000000,4.000000,4.000000,4.000000,4.000000,4.000000,4.000000,100.000000,,,,,,,,,,,,,,,,,,,,,,,,,,,,,,,,,,,,,,,,,,,,,,,,,,,,,,,,,,,,,,,,,,,,,,,,,,,,,,,,,,,,,,,,,,,,,,,,,,,,,,,,,,,,,,,,,,,,,
1768372545.006270,1768372545.007025,38.000000,0.000000,4371.666504,4335.128418,4344.230957,4357.179688,4310.128418,4314.358887,4315.897461,4333.077148,4311.922852,4295.769043,4528.205078,4543.077148,4441.153809,4539.743652,0.000000,2.000000,35.000000,,,,0.000000,4.000000,4.000000,4.000000,4.000000,4.000000,4.000000,4.000000,4.000000,4.000000,4.000000,4.000000,4.000000,4.000000,4.000000,100.000000,,,,,,,,,,,,,,,,,,,,,,,,,,,,,,,,,,,,,,,,,,,,,,,,,,,,,,,,,,,,,,,,,,,,,,,,,,,,,,,,,,,,,,,,,,,,,,,,,,,,,,,,,,,,,,,,,,,,,
1768372545.014079,1768372545.014833,39.000000,0.000000,4376.025879,4334.358887,4348.205078,4358.974121,4310.769043,4313.077148,4318.205078,4335.128418,4311.794922,4297.307617,4534.615234,4543.717773,4444.102539,4541.410156,0.000000,2.000000,35.000000,,,,0.000000,4.000000,4.000000,4.000000,4.000000,4.000000,4.000000,4.000000,4.000000,4.000000,4.000000,4.000000,4.000000,4.000000,4.000000,100.000000,,,,,,,,,,,,,,,,,,,,,,,,,,,,,,,,,,,,,,,,,,,,,,,,,,,,,,,,,,,,,,,,,,,,,,,,,,,,,,,,,,,,,,,,,,,,,,,,,,,,,,,,,,,,,,,,,,,,,
1768372545.021887,1768372545.022442,40.000000,0.000000,4370.641113,4327.307617,4346.410156,4357.948730,4306.025879,4308.974121,4310.897461,4329.615234,4309.102539,4295.769043,4527.436035,4540.512695,4432.307617,4539.230957,0.000000,2.000000,35.000000,,,,0.000000,4.000000,4.000000,4.000000,4.000000,4.000000,4.000000,4.000000,4.000000,4.000000,4.000000,4.000000,4.000000,4.000000,4.000000,100.000000,,,,,,,,,,,,,,,,,,,,,,,,,,,,,,,,,,,,,,,,,,,,,,,,,,,,,,,,,,,,,,,,,,,,,,,,,,,,,,,,,,,,,,,,,,,,,,,,,,,,,,,,,,,,,,,,,,,,,
1768372545.029695,1768372545.030250,41.000000,0.000000,4368.717773,4324.871582,4341.410156,4355.128418,4304.102539,4308.974121,4305.384766,4326.538574,4307.820313,4296.794922,4523.077148,4537.948730,4431.282227,4536.922852,0.000000,2.000000,35.000000,,,,0.000000,4.000000,4.000000,4.000000,4.000000,4.000000,4.000000,4.000000,4.000000,4.000000,4.000000,4.000000,4.000000,4.000000,4.000000,100.000000,,,,,,,,,,,,,,,,,,,,,,,,,,,,,,,,,,,,,,,,,,,,,,,,,,,,,,,,,,,,,,,,,,,,,,,,,,,,,,,,,,,,,,,,,,,,,,,,,,,,,,,,,,,,,,,,,,,,,
1768372545.037504,1768372545.037959,42.000000,0.000000,4370.897461,4332.692383,4341.410156,4358.333496,4307.692383,4310.512695,4308.205078,4330.000000,4310.769043,4301.153809,4526.666504,4539.230957,4436.153809,4538.589844,0.000000,2.000000,35.000000,,,,0.000000,4.000000,4.000000,4.000000,4.000000,4.000000,4.000000,4.000000,4.000000,4.000000,4.000000,4.000000,4.000000,4.000000,4.000000,100.000000,,,,,,,,,,,,,,,,,,,,,,,,,,,,,,,,,,,,,,,,,,,,,,,,,,,,,,,,,,,,,,,,,,,,,,,,,,,,,,,,,,,,,,,,,,,,,,,,,,,,,,,,,,,,,,,,,,,,,
1768372545.045312,1768372545.045767,43.000000,0.000000,4365.384766,4333.077148,4344.358887,4357.563965,4308.717773,4312.051270,4314.230957,4332.820313,4312.948730,4303.333496,4524.871582,4543.461426,4433.846191,4539.743652,0.000000,2.000000,35.000000,,,,0.000000,4.000000,4.000000,4.000000,4.000000,4.000000,4.000000,4.000000,4.000000,4.000000,4.000000,4.000000,4.000000,4.000000,4.000000,100.000000,,,,,,,,,,,,,,,,,,,,,,,,,,,,,,,,,,,,,,,,,,,,,,,,,,,,,,,,,,,,,,,,,,,,,,,,,,,,,,,,,,,,,,,,,,,,,,,,,,,,,,,,,,,,,,,,,,,,,
1768372545.053120,1768372545.053376,44.000000,0.000000,4362.179688,4327.692383,4344.871582,4352.692383,4307.563965,4314.230957,4319.358887,4335.128418,4313.333496,4305.641113,4529.230957,4546.410156,4437.436035,4539.743652,0.000000,2.000000,35.000000,,,,0.000000,4.000000,4.000000,4.000000,4.000000,4.000000,4.000000,4.000000,4.000000,4.000000,4.000000,4.000000,4.000000,4.000000,4.000000,100.000000,,,,,,,,,,,,,,,,,,,,,,,,,,,,,,,,,,,,,,,,,,,,,,,,,,,,,,,,,,,,,,,,,,,,,,,,,,,,,,,,,,,,,,,,,,,,,,,,,,,,,,,,,,,,,,,,,,,,,
1768372545.060929,1768372545.061184,45.000000,0.000000,4370.641113,4328.846191,4343.846191,4354.102539,4307.948730,4312.692383,4317.820313,4334.230957,4311.922852,4306.922852,4533.589844,4546.538574,4443.974121,4541.538574,0.000000,2.000000,35.000000,,,,0.000000,4.000000,4.000000,4.000000,4.000000,4.000000,4.000000,4.000000,4.000000,4.000000,4.000000,4.000000,4.000000,4.000000,4.000000,100.000000,,,,,,,,,,,,,,,,,,,,,,,,,,,,,,,,,,,,,,,,,,,,,,,,,,,,,,,,,,,,,,,,,,,,,,,,,,,,,,,,,,,,,,,,,,,,,,,,,,,,,,,,,,,,,,,,,,,,,
1768372545.068737,1768372545.069093,46.000000,0.000000,4377.051270,4332.820313,4341.922852,4358.846191,4308.205078,4310.128418,4311.922852,4333.589844,4311.153809,4305.256348,4528.077148,4546.025879,4440.000000,4540.512695,0.000000,2.000000,35.000000,,,,0.000000,4.000000,4.000000,4.000000,4.000000,4.000000,4.000000,4.000000,4.000000,4.000000,4.000000,4.000000,4.000000,4.000000,4.000000,100.000000,,,,,,,,,,,,,,,,,,,,,,,,,,,,,,,,,,,,,,,,,,,,,,,,0.463794,0.422460,0.186121,0.184135,0.145839,0.401307,0.279275,0.074106,0.087732,0.077511,0.645043,0.290796,0.121999,0.275812,0.235427,0.210536,0.196179,0.076813,0.114153,0.063131,0.076713,0.084274,0.065442,0.083141,0.056525,0.163568,0.135889,0.097010,0.154895,0.131187,0.187646,0.297933,0.061747,0.163735,0.161683,0.353749,0.158392,0.140454,0.147090,0.117487,0.247514,0.190339,0.091900,0.152741,0.137064,0.715150,0.432479,0.118327,0.200561,0.150713,1.217153,0.381756,0.103442,0.159772,0.142730,1.476472,0.464242,0.075160,0.257595,0.269650,1.199275,0.422824,0.185365,0.211356,0.156121,0.988280,0.422004,0.073238,0.233691,0.179132
1768372545.076546,1768372545.076901,47.000000,0.000000,4372.948730,4335.000000,4342.051270,4359.615234,4309.743652,4313.333496,4311.538574,4336.666504,4317.948730,4308.846191,4527.820313,4546.922852,4433.077148,4540.128418,0.000000,2.000000,35.000000,,,,0.000000,4.000000,4.000000,4.000000,4.000000,4.000000,4.000000,4.000000,4.000000,4.000000,4.000000,4.000000,4.000000,4.000000,4.000000,100.000000,,,,,,,,,,,,,,,,,,,,,,,,,,,,,,,,,,,,,,,,,,,,,,,,,,,,,,,,,,,,,,,,,,,,,,,,,,,,,,,,,,,,,,,,,,,,,,,,,,,,,,,,,,,,,,,,,,,,,
1768372545.084354,1768372545.084510,48.000000,0.000000,4367.563965,4332.692383,4341.794922,4357.436035,4307.179688,4312.307617,4310.897461,4334.871582,4319.487305,4308.333496,4529.487305,4541.794922,4430.641113,4538.077148,0.000000,2.000000,35.000000,,,,0.000000,4.000000,4.000000,4.000000,4.000000,4.000000,4.000000,4.000000,4.000000,4.000000,4.000000,4.000000,4.000000,4.000000,4.000000,100.000000,,,,,,,,,,,,,,,,,,,,,,,,,,,,,,,,,,,,,,,,,,,,,,,,,,,,,,,,,,,,,,,,,,,,,,,,,,,,,,,,,,,,,,,,,,,,,,,,,,,,,,,,,,,,,,,,,,,,,
1768372545.092163,1768372545.092318,49.000000,0.000000,4365.897461,4328.333496,4340.000000,4354.743652,4302.307617,4306.410156,4307.179688,4332.179688,4312.436035,4301.410156,4524.102539,4536.922852,4427.948730,4529.871582,0.000000,2.000000,35.000000,,,,0.000000,4.000000,4.000000,4.000000,4.000000,4.000000,4.000000,4.000000,4.000000,4.000000,4.000000,4.000000,4.000000,4.000000,4.000000,100.000000,,,,,,,,,,,,,,,,,,,,,,,,,,,,,,,,,,,,,,,,,,,,,,,,,,,,,,,,,,,,,,,,,,,,,,,,,,,,,,,,,,,,,,,,,,,,,,,,,,,,,,,,,,,,,,,,,,,,,
1768372545.099971,1768372545.100027,50.000000,0.000000,4367.948730,4327.692383,4344.358887,4353.589844,4303.589844,4311.794922,4310.256348,4338.205078,4317.051270,4303.077148,4523.333496,4541.153809,4426.794922,4524.230957,0.000000,2.000000,35.000000,,,,0.000000,4.000000,4.000000,4.000000,4.000000,4.000000,4.000000,4.000000,4.000000,4.000000,4.000000,4.000000,4.000000,4.000000,4.000000,100.000000,,,,,,,,,,,,,,,,,,,,,,,,,,,,,,,,,,,,,,,,,,,,,,,,,,,,,,,,,,,,,,,,,,,,,,,,,,,,,,,,,,,,,,,,,,,,,,,,,,,,,,,,,,,,,,,,,,,,,
1768372545.107780,1768372545.107835,51.000000,0.000000,4369.358887,4329.230957,4348.846191,4354.615234,4307.179688,4318.333496,4311.153809,4341.538574,4321.153809,4304.102539,4525.384766,4541.666504,4428.846191,4524.743652,0.000000,2.000000,35.000000,,,,0.000000,4.000000,4.000000,4.000000,4.000000,4.000000,4.000000,4.000000,4.000000,4.000000,4.000000,4.000000,4.000000,4.000000,4.000000,100.000000,,,,,,,,,,,,,,,,,,,,,,,,,,,,,,,,,,,,,,,,,,,,,,,,,,,,,,,,,,,,,,,,,,,,,,,,,,,,,,,,,,,,,,,,,,,,,,,,,,,,,,,,,,,,,,,,,,,,,
1768372545.115588,1768372545.115444,52.000000,0.000000,4368.333496,4329.487305,4347.563965,4355.897461,4306.922852,4316.538574,4309.230957,4338.077148,4313.717773,4298.461426,4522.692383,4536.794922,4428.589844,4525.512695,0.000000,2.000000,35.000000,,,,0.000000,4.000000,4.000000,4.000000,4.000000,4.000000,4.000000,4.000000,4.000000,4.000000,4.000000,4.000000,4.000000,4.000000,4.000000,100.000000,,,,,,,,,,,,,,,,,,,,,,,,,,,,,,,,,,,,,,,,,,,,,,,,,,,,,,,,,,,,,,,,,,,,,,,,,,,,,,,,,,,,,,,,,,,,,,,,,,,,,,,,,,,,,,,,,,,,,
1768372545.123397,1768372545.123252,53.000000,0.000000,4369.615234,4330.384766,4347.179688,4357.307617,4306.666504,4317.948730,4315.897461,4338.205078,4313.333496,4297.563965,4523.846191,4538.333496,4427.692383,4523.333496,0.000000,2.000000,35.000000,,,,0.000000,4.000000,4.000000,4.000000,4.000000,4.000000,4.000000,4.000000,4.000000,4.000000,4.000000,4.000000,4.000000,4.000000,4.000000,100.000000,,,,,,,,,,,,,,,,,,,,,,,,,,,,,,,,,,,,,,,,,,,,,,,,,,,,,,,,,,,,,,,,,,,,,,,,,,,,,,,,,,,,,,,,,,,,,,,,,,,,,,,,,,,,,,,,,,,,,
1768372545.131205,1768372545.131161,54.000000,0.000000,4371.410156,4334.358887,4351.282227,4357.948730,4310.769043,4320.897461,4320.512695,4335.769043,4315.000000,4297.051270,4524.358887,4542.436035,4429.230957,4522.692383,0.000000,2.000000,35.000000,,,,0.000000,4.000000,4.000000,4.000000,4.000000,4.000000,4.000000,4.000000,4.000000,4.000000,4.000000,4.000000,4.000000,4.000000,4.000000,100.000000,,,,,,,,,,,,,,,,,,,,,,,,,,,,,,,,,,,,,,,,,,,,,,,,,,,,,,,,,,,,,,,,,,,,,,,,,,,,,,,,,,,,,,,,,,,,,,,,,,,,,,,,,,,,,,,,,,,,,
1768372545.139013,1768372545.138969,55.000000,0.000000,4372.436035,4338.077148,4355.512695,4361.282227,4315.897461,4321.794922,4318.717773,4333.589844,4310.256348,4294.358887,4522.179688,4542.692383,4432.692383,4530.128418,0.000000,2.000000,35.000000,,,,0.000000,4.000000,4.000000,4.000000,4.000000,4.000000,4.000000,4.000000,4.000000,4.000000,4.000000,4.000000,4.000000,4.000000,4.000000,100.000000,,,,,,,,,,,,,,,,,,,,,,,,,,,,,,,,,,,,,,,,,,,,,,,,,,,,,,,,,,,,,,,,,,,,,,,,,,,,,,,,,,,,,,,,,,,,,,,,,,,,,,,,,,,,,,,,,,,,,
1768372545.146822,1768372545.146977,56.000000,0.000000,4374.871582,4338.717773,4356.922852,4366.922852,4314.615234,4324.615234,4321.025879,4341.410156,4315.128418,4299.358887,4528.846191,4547.179688,4435.384766,4538.846191,0.000000,2.000000,35.000000,,,,0.000000,4.000000,4.000000,4.000000,4.000000,4.000000,4.000000,4.000000,4.000000,4.000000,4.000000,4.000000,4.000000,4.000000,4.000000,100.000000,,,,,,,,,,,,,,,,,,,,,,,,,,,,,,,,,,,,,,,,,,,,,,,,,,,,,,,,,,,,,,,,,,,,,,,,,,,,,,,,,,,,,,,,,,,,,,,,,,,,,,,,,,,,,,,,,,,,,
1768372545.154630,1768372545.154786,57.000000,0.000000,4375.000000,4338.717773,4358.077148,4367.051270,4311.410156,4325.641113,4323.461426,4343.717773,4320.128418,4305.512695,4533.974121,4552.563965,4435.512695,4538.589844,0.000000,2.000000,35.000000,,,,0.000000,4.000000,4.000000,4.000000,4.000000,4.000000,4.000000,4.000000,4.000000,4.000000,4.000000,4.000000,4.000000,4.000000,4.000000,100.000000,,,,,,,,,,,,,,,,,,,,,,,,,,,,,,,,,,,,,,,,,,,,,,,,,,,,,,,,,,,,,,,,,,,,,,,,,,,,,,,,,,,,,,,,,,,,,,,,,,,,,,,,,,,,,,,,,,,,,
1768372545.162439,1768372545.162694,58.000000,0.000000,4372.692383,4338.589844,4358.846191,4363.846191,4312.436035,4321.282227,4321.025879,4335.000000,4312.436035,4305.512695,4528.205078,4546.794922,4433.589844,4534.743652,0.000000,2.000000,35.000000,,,,0.000000,4.000000,4.000000,4.000000,4.000000,4.000000,4.000000,4.000000,4.000000,4.000000,4.000000,4.000000,4.000000,4.000000,4.000000,100.000000,,,,,,,,,,,,,,,,,,,,,,,,,,,,,,,,,,,,,,,,,,,,,,,,,,,,,,,,,,,,,,,,,,,,,,,,,,,,,,,,,,,,,,,,,,,,,,,,,,,,,,,,,,,,,,,,,,,,,
1768372545.170247,1768372545.170503,59.000000,0.000000,4373.077148,4336.794922,4356.794922,4361.153809,4313.461426,4322.436035,4322.436035,4332.307617,4309.102539,4302.563965,4523.846191,4540.128418,4431.153809,4531.794922,0.000000,2.000000,35.000000,,,,0.000000,4.000000,4.000000,4.000000,4.000000,4.000000,4.000000,4.000000,4.000000,4.000000,4.000000,4.000000,4.000000,4.000000,4.000000,100.000000,,,,,,,,,,,,,,,,,,,,,,,,,,,,,,,,,,,,,,,,,,,,,,,,,,,,,,,,,,,,,,,,,,,,,,,,,,,,,,,,,,,,,,,,,,,,,,,,,,,,,,,,,,,,,,,,,,,,,
1768372545.178056,1768372545.178511,60.000000,0.000000,4372.820313,4336.153809,4354.102539,4358.589844,4314.743652,4326.153809,4324.615234,4333.205078,4310.000000,4296.410156,4524.358887,4541.538574,4427.948730,4526.025879,0.000000,2.000000,35.000000,,,,0.000000,4.000000,4.000000,4.000000,4.000000,4.000000,4.000000,4.000000,4.000000,4.000000,4.000000,4.000000,4.000000,4.000000,4.000000,100.000000,,,,,,,,,,,,,,,,,,,,,,,,,,,,,,,,,,,,,,,,,,,,,,,,,,,,,,,,,,,,,,,,,,,,,,,,,,,,,,,,,,,,,,,,,,,,,,,,,,,,,,,,,,,,,,,,,,,,,
1768372545.185864,1768372545.186319,61.000000,0.000000,4368.717773,4337.436035,4351.538574,4356.922852,4315.384766,4322.563965,4322.179688,4331.153809,4309.358887,4293.077148,4522.179688,4538.205078,4425.641113,4521.922852,0.000000,2.000000,35.000000,,,,0.000000,4.000000,4.000000,4.000000,4.000000,4.000000,4.000000,4.000000,4.000000,4.000000,4.000000,4.000000,4.000000,4.000000,4.000000,100.000000,,,,,,,,,,,,,,,,,,,,,,,,,,,,,,,,,,,,,,,,,,,,,,,,,,,,,,,,,,,,,,,,,,,,,,,,,,,,,,,,,,,,,,,,,,,,,,,,,,,,,,,,,,,,,,,,,,,,,
1768372545.193673,1768372545.194228,62.000000,0.000000,4366.025879,4337.563965,4346.410156,4358.461426,4313.205078,4318.717773,4316.922852,4332.179688,4312.179688,4297.051270,4521.025879,4533.717773,4427.563965,4521.666504,0.000000,2.000000,35.000000,,,,0.000000,4.000000,4.000000,4.000000,4.000000,4.000000,4.000000,4.000000,4.000000,4.000000,4.000000,4.000000,4.000000,4.000000,4.000000,100.000000,,,,,,,,,,,,,,,,,,,,,,,,,,,,,,,,,,,,,,,,,,,,,,,,0.589548,0.455323,0.194925,0.169873,0.154393,0.363879,0.280742,0.058845,0.087412,0.085043,0.590841,0.263925,0.133422,0.246333,0.221259,0.219415,0.187861,0.087328,0.107219,0.063633,0.103155,0.116642,0.091820,0.098195,0.057361,0.173146,0.160537,0.129966,0.179120,0.156565,0.200170,0.355509,0.064172,0.192111,0.163550,0.335462,0.186833,0.161124,0.148649,0.111549,0.214572,0.211072,0.086054,0.148912,0.134002,0.632841,0.387356,0.119797,0.206283,0.148331,1.165560,0.380118,0.112683,0.157531,0.162571,1.304810,0.507548,0.088646,0.246595,0.269598,1.096439,0.429291,0.210034,0.221064,0.176500,0.966401,0.398132,0.075613,0.222095,0.184117
1768372545.201481,1768372545.202036,63.000000,0.000000,4366.666504,4336.538574,4342.820313,4360.000000,4314.871582,4319.871582,4316.282227,4334.230957,4313.846191,4300.897461,4523.589844,4540.256348,4429.871582,4522.692383,0.000000,2.000000,35.000000,,,,0.000000,4.000000,4.000000,4.000000,4.000000,4.000000,4.000000,4.000000,4.000000,4.000000,4.000000,4.000000,4.000000,4.000000,4.000000,100.000000,,,,,,,,,,,,,,,,,,,,,,,,,,,,,,,,,,,,,,,,,,,,,,,,,,,,,,,,,,,,,,,,,,,,,,,,,,,,,,,,,,,,,,,,,,,,,,,,,,,,,,,,,,,,,,,,,,,,,
1768372545.209289,1768372545.209845,64.000000,0.000000,4367.820313,4335.897461,4343.461426,4358.589844,4317.307617,4322.692383,4318.974121,4333.077148,4311.538574,4301.025879,4525.641113,4541.666504,4428.333496,4523.974121,4059.000000,2.000000,35.000000,,,,0.000000,4.000000,4.000000,4.000000,4.000000,4.000000,4.000000,4.000000,4.000000,4.000000,4.000000,4.000000,4.000000,4.000000,4.000000,100.000000,,,,,,,,,,,,,,,,,,,,,,,,,,,,,,,,,,,,,,,,,,,,,,,,,,,,,,,,,,,,,,,,,,,,,,,,,,,,,,,,,,,,,,,,,,,,,,,,,,,,,,,,,,,,,,,,,,,,,
1768372545.217098,1768372545.217653,65.000000,0.000000,4371.922852,4338.717773,4343.205078,4357.563965,4311.666504,4322.692383,4316.922852,4331.922852,4314.102539,4303.589844,4526.153809,4537.563965,4430.256348,4524.871582,3981.000000,2.000000,35.000000,,,,0.000000,4.000000,4.000000,4.000000,4.000000,4.000000,4.000000,4.000000,4.000000,4.000000,4.000000,4.000000,4.000000,4.000000,4.000000,100.000000,,,,,,,,,,,,,,,,,,,,,,,,,,,,,,,,,,,,,,,,,,,,,,,,,,,,,,,,,,,,,,,,,,,,,,,,,,,,,,,,,,,,,,,,,,,,,,,,,,,,,,,,,,,,,,,,,,,,,
1768372545.224906,1768372545.225362,66.000000,0.000000,4372.692383,4340.897461,4342.563965,4356.666504,4307.692383,4316.025879,4310.512695,4331.922852,4321.153809,4308.846191,4526.922852,4541.282227,4435.256348,4525.897461,3872.000000,2.000000,35.000000,,,,0.000000,4.000000,4.000000,4.000000,4.000000,4.000000,4.000000,4.000000,4.000000,4.000000,4.000000,4.000000,4.000000,4.000000,4.000000,100.000000,,,,,,,,,,,,,,,,,,,,,,,,,,,,,,,,,,,,,,,,,,,,,,,,,,,,,,,,,,,,,,,,,,,,,,,,,,,,,,,,,,,,,,,,,,,,,,,,,,,,,,,,,,,,,,,,,,,,,
1768372545.232715,1768372545.233170,67.000000,0.000000,4364.230957,4335.000000,4345.000000,4356.666504,4311.282227,4311.282227,4309.871582,4330.897461,4320.897461,4305.769043,4526.282227,4541.538574,4431.538574,4522.179688,3864.000000,2.000000,35.000000,,,,0.000000,4.000000,4.000000,4.000000,4.000000,4.000000,4.000000,4.000000,4.000000,4.000000,4.000000,4.000000,4.000000,4.000000,4.000000,100.000000,,,,,,,,,,,,,,,,,,,,,,,,,,,,,,,,,,,,,,,,,,,,,,,,,,,,,,,,,,,,,,,,,,,,,,,,,,,,,,,,,,,,,,,,,,,,,,,,,,,,,,,,,,,,,,,,,,,,,
1768372545.240523,1768372545.240779,68.000000,0.000000,4355.897461,4325.897461,4341.025879,4354.102539,4311.666504,4316.410156,4312.692383,4327.051270,4310.000000,4293.589844,4521.666504,4529.615234,4419.358887,4511.153809,3784.000000,2.000000,35.000000,,,,0.000000,4.000000,4.000000,4.000000,4.000000,4.000000,4.000000,4.000000,4.000000,4.000000,4.000000,4.000000,4.000000,4.000000,4.000000,100.000000,,,,,,,,,,,,,,,,,,,,,,,,,,,,,,,,,,,,,,,,,,,,,,,,,,,,,,,,,,,,,,,,,,,,,,,,,,,,,,,,,,,,,,,,,,,,,,,,,,,,,,,,,,,,,,,,,,,,,
1768372545.248332,1768372545.248587,69.000000,0.000000,4351.666504,4321.666504,4332.563965,4344.615234,4308.461426,4318.717773,4311.794922,4326.153809,4306.410156,4289.487305,4516.410156,4523.461426,4414.615234,4501.538574,3749.000000,2.000000,35.000000,,,,0.000000,4.000000,4.000000,4.000000,4.000000,4.000000,4.000000,4.000000,4.000000,4.000000,4.000000,4.000000,4.000000,4.000000,4.000000,100.000000,,,,,,,,,,,,,,,,,,,,,,,,,,,,,,,,,,,,,,,,,,,,,,,,,,,,,,,,,,,,,,,,,,,,,,,,,,,,,,,,,,,,,,,,,,,,,,,,,,,,,,,,,,,,,,,,,,,,,
1768372545.256140,1768372545.256496,70.000000,0.000000,4352.563965,4325.769043,4334.871582,4341.794922,4307.948730,4315.512695,4312.563965,4332.563965,4318.974121,4302.436035,4521.282227,4533.974121,4423.461426,4506.922852,3752.000000,2.000000,35.000000,,,,0.000000,4.000000,4.000000,4.000000,4.000000,4.000000,4.000000,4.000000,4.000000,4.000000,4.000000,4.000000,4.000000,4.000000,4.000000,100.000000,,,,,,,,,,,,,,,,,,,,,,,,,,,,,,,,,,,,,,,,,,,,,,,,,,,,,,,,,,,,,,,,,,,,,,,,,,,,,,,,,,,,,,,,,,,,,,,,,,,,,,,,,,,,,,,,,,,,,
1768372545.263949,1768372545.264304,71.000000,0.000000,4360.256348,4331.794922,4343.461426,4351.410156,4309.615234,4318.461426,4314.102539,4337.179688,4325.512695,4313.461426,4531.282227,4542.179688,4431.666504,4520.256348,3767.000000,2.000000,35.000000,,,,0.000000,4.000000,4.000000,4.000000,4.000000,4.000000,4.000000,4.000000,4.000000,4.000000,4.000000,4.000000,4.000000,4.000000,4.000000,100.000000,,,,,,,,,,,,,,,,,,,,,,,,,,,,,,,,,,,,,,,,,,,,,,,,,,,,,,,,,,,,,,,,,,,,,,,,,,,,,,,,,,,,,,,,,,,,,,,,,,,,,,,,,,,,,,,,,,,,,
1768372545.271757,1768372545.272312,72.000000,0.000000,4367.307617,4331.153809,4343.461426,4354.615234,4308.333496,4317.436035,4311.153809,4332.948730,4314.615234,4305.256348,4528.974121,4538.717773,4430.000000,4520.641113,3951.000000,2.000000,35.000000,,,,0.000000,4.000000,4.000000,4.000000,4.000000,4.000000,4.000000,4.000000,4.000000,4.000000,4.000000,4.000000,4.000000,4.000000,4.000000,100.000000,,,,,,,,,,,,,,,,,,,,,,,,,,,,,,,,,,,,,,,,,,,,,,,,,,,,,,,,,,,,,,,,,,,,,,,,,,,,,,,,,,,,,,,,,,,,,,,,,,,,,,,,,,,,,,,,,,,,,
1768372545.279565,1768372545.280121,73.000000,0.000000,4366.538574,4327.948730,4339.230957,4348.461426,4306.025879,4311.025879,4308.333496,4328.461426,4308.333496,4296.282227,4519.871582,4535.128418,4425.384766,4514.487305,3932.000000,2.000000,35.000000,,,,0.000000,4.000000,4.000000,4.000000,4.000000,4.000000,4.000000,4.000000,4.000000,4.000000,4.000000,4.000000,4.000000,4.000000,4.000000,100.000000,,,,,,,,,,,,,,,,,,,,,,,,,,,,,,,,,,,,,,,,,,,,,,,,,,,,,,,,,,,,,,,,,,,,,,,,,,,,,,,,,,,,,,,,,,,,,,,,,,,,,,,,,,,,,,,,,,,,,
1768372545.287374,1768372545.287829,74.000000,0.000000,4360.897461,4328.333496,4343.974121,4351.153809,4308.333496,4316.282227,4310.128418,4334.871582,4315.128418,4305.384766,4520.384766,4542.307617,4424.743652,4519.743652,4393.000000,2.000000,35.000000,,,,0.000000,4.000000,4.000000,4.000000,4.000000,4.000000,4.000000,4.000000,4.000000,4.000000,4.000000,4.000000,4.000000,4.000000,4.000000,100.000000,,,,,,,,,,,,,,,,,,,,,,,,,,,,,,,,,,,,,,,,,,,,,,,,,,,,,,,,,,,,,,,,,,,,,,,,,,,,,,,,,,,,,,,,,,,,,,,,,,,,,,,,,,,,,,,,,,,,,
1768372545.295182,1768372545.295638,75.000000,0.000000,4362.436035,4329.615234,4350.256348,4356.922852,4312.563965,4322.692383,4311.794922,4342.051270,4322.563965,4313.717773,4531.153809,4548.461426,4433.974121,4526.282227,4665.000000,2.000000,35.000000,,,,0.000000,4.000000,4.000000,4.000000,4.000000,4.000000,4.000000,4.000000,4.000000,4.000000,4.000000,4.000000,4.000000,4.000000,4.000000,100.000000,,,,,,,,,,,,,,,,,,,,,,,,,,,,,,,,,,,,,,,,,,,,,,,,,,,,,,,,,,,,,,,,,,,,,,,,,,,,,,,,,,,,,,,,,,,,,,,,,,,,,,,,,,,,,,,,,,,,,
1768372545.302991,1768372545.303246,76.000000,0.000000,4370.128418,4335.384766,4349.615234,4355.769043,4314.615234,4319.487305,4313.205078,4341.282227,4326.282227,4310.769043,4538.846191,4545.512695,4441.282227,4522.692383,5023.000000,2.000000,35.000000,,,,0.000000,4.000000,4.000000,4.000000,4.000000,4.000000,4.000000,4.000000,4.000000,4.000000,4.000000,4.000000,4.000000,4.000000,4.000000,100.000000,,,,,,,,,,,,,,,,,,,,,,,,,,,,,,,,,,,,,,,,,,,,,,,,,,,,,,,,,,,,,,,,,,,,,,,,,,,,,,,,,,,,,,,,,,,,,,,,,,,,,,,,,,,,,,,,,,,,,
1768372545.310799,1768372545.311055,77.000000,0.000000,4374.102539,4342.436035,4350.128418,4360.641113,4314.871582,4322.436035,4318.077148,4338.333496,4322.692383,4307.563965,4535.384766,4542.948730,4433.205078,4521.153809,5429.000000,2.000000,35.000000,,,,0.000000,4.000000,4.000000,4.000000,4.000000,4.000000,4.000000,4.000000,4.000000,4.000000,4.000000,4.000000,4.000000,4.000000,4.000000,100.000000,,,,,,,,,,,,,,,,,,,,,,,,,,,,,,,,,,,,,,,,,,,,,,,,,,,,,,,,,,,,,,,,,,,,,,,,,,,,,,,,,,,,,,,,,,,,,,,,,,,,,,,,,,,,,,,,,,,,,
1768372545.318608,1768372545.318763,78.000000,0.000000,4376.282227,4342.179688,4354.230957,4367.820313,4315.769043,4327.051270,4317.307617,4338.077148,4321.410156,4307.563965,4532.563965,4547.051270,4429.487305,4524.230957,4393.000000,2.000000,35.000000,,,,0.000000,4.000000,4.000000,4.000000,4.000000,4.000000,4.000000,4.000000,4.000000,4.000000,4.000000,4.000000,4.000000,4.000000,4.000000,100.000000,1.000000,100.000000,4.000000,4.000000,4.000000,4.000000,4.000000,4.000000,4.000000,4.000000,4.000000,4.000000,4.000000,4.000000,4.000000,4.000000,,,,,,,,,,,,,,,,,,,,,,,,,,,,,,,,0.721446,0.459945,0.202452,0.169511,0.162884,0.355875,0.272745,0.049055,0.091588,0.090887,0.509795,0.234564,0.145916,0.221888,0.199192,0.246024,0.181436,0.102367,0.107636,0.066610,0.144559,0.155990,0.119266,0.110184,0.057868,0.173650,0.193340,0.158500,0.192086,0.179477,0.206644,0.417333,0.071675,0.212372,0.162559,0.321110,0.219526,0.174050,0.149265,0.110731,0.197750,0.221491,0.079480,0.143196,0.128500,0.520173,0.333149,0.121446,0.212036,0.141565,1.072385,0.374371,0.135111,0.167019,0.183835,1.061047,0.517976,0.116561,0.252299,0.258986,0.969475,0.421128,0.229404,0.237677,0.195460,0.908110,0.373009,0.090599,0.232045,0.176854
1768372545.326416,1768372545.326572,79.000000,0.000000,4381.282227,4340.384766,4356.666504,4363.974121,4316.153809,4322.692383,4310.000000,4338.589844,4326.922852,4310.641113,4538.974121,4553.974121,4441.282227,4524.615234,4665.000000,2.000000,35.000000,,,,0.000000,4.000000,4.000000,4.000000,4.000000,4.000000,4.000000,4.000000,4.000000,4.000000,4.000000,4.000000,4.000000,4.000000,4.000000,100.000000,,,,,,,,,,,,,,,,,,,,,,,,,,,,,,,,,,,,,,,,,,,,,,,,,,,,,,,,,,,,,,,,,,,,,,,,,,,,,,,,,,,,,,,,,,,,,,,,,,,,,,,,,,,,,,,,,,,,,
1768372545.334225,1768372545.334580,80.000000,0.000000,4380.897461,4339.102539,4356.282227,4358.077148,4312.948730,4319.615234,4310.641113,4334.102539,4320.769043,4312.820313,4541.538574,4553.589844,4445.897461,4525.000000,5023.000000,2.000000,35.000000,,,,0.000000,4.000000,4.000000,4.000000,4.000000,4.000000,4.000000,4.000000,4.000000,4.000000,4.000000,4.000000,4.000000,4.000000,4.000000,100.000000,,,,,,,,,,,,,,,,,,,,,,,,,,,,,,,,,,,,,,,,,,,,,,,,,,,,,,,,,,,,,,,,,,,,,,,,,,,,,,,,,,,,,,,,,,,,,,,,,,,,,,,,,,,,,,,,,,,,,
1768372545.342033,1768372545.342388,81.000000,0.000000,4378.077148,4335.641113,4357.436035,4358.846191,4309.743652,4320.897461,4316.153809,4330.897461,4311.666504,4310.128418,4536.282227,4548.077148,4440.897461,4525.897461,5429.000000,2.000000,35.000000,,,,0.000000,4.000000,4.000000,4.000000,4.000000,4.000000,4.000000,4.000000,4.000000,4.000000,4.000000,4.000000,4.000000,4.000000,4.000000,100.000000,,,,,,,,,,,,,,,,,,,,,,,,,,,,,,,,,,,,,,,,,,,,,,,,,,,,,,,,,,,,,,,,,,,,,,,,,,,,,,,,,,,,,,,,,,,,,,,,,,,,,,,,,,,,,,,,,,,,,
1768372545.349841,1768372545.350297,82.000000,0.000000,4381.538574,4337.948730,4356.538574,4360.256348,4312.051270,4323.717773,4314.102539,4332.563965,4317.307617,4309.358887,4536.153809,4548.589844,4439.358887,4528.717773,4393.000000,2.000000,35.000000,,,,0.000000,4.000000,4.000000,4.000000,4.000000,4.000000,4.000000,4.000000,4.000000,4.000000,4.000000,4.000000,4.000000,4.000000,4.000000,100.000000,,,,,,,,,,,,,,,,,,,,,,,,,,,,,,,,,,,,,,,,,,,,,,,,,,,,,,,,,,,,,,,,,,,,,,,,,,,,,,,,,,,,,,,,,,,,,,,,,,,,,,,,,,,,,,,,,,,,,
1768372545.357650,1768372545.358105,83.000000,0.000000,4380.512695,4341.538574,4356.410156,4361.794922,4313.333496,4324.487305,4311.922852,4335.769043,4322.948730,4310.769043,4538.333496,4552.436035,4438.717773,4532.179688,4665.000000,2.000000,35.000000,,,,0.000000,4.000000,4.000000,4.000000,4.000000,4.000000,4.000000,4.000000,4.000000,4.000000,4.000000,4.000000,4.000000,4.000000,4.000000,100.000000,,,,,,,,,,,,,,,,,,,,,,,,,,,,,,,,,,,,,,,,,,,,,,,,,,,,,,,,,,,,,,,,,,,,,,,,,,,,,,,,,,,,,,,,,,,,,,,,,,,,,,,,,,,,,,,,,,,,,
1768372545.365458,1768372545.366113,84.000000,0.000000,4382.820313,4341.282227,4362.692383,4363.461426,4308.333496,4316.666504,4312.307617,4336.794922,4319.358887,4309.743652,4538.846191,4558.333496,4440.384766,4536.153809,5023.000000,2.000000,35.000000,,,,0.000000,4.000000,4.000000,4.000000,4.000000,4.000000,4.000000,4.000000,4.000000,4.000000,4.000000,4.000000,4.000000,4.000000,4.000000,100.000000,,,,,,,,,,,,,,,,,,,,,,,,,,,,,,,,,,,,,,,,,,,,,,,,,,,,,,,,,,,,,,,,,,,,,,,,,,,,,,,,,,,,,,,,,,,,,,,,,,,,,,,,,,,,,,,,,,,,,
1768372545.373267,1768372545.373922,85.000000,0.000000,4391.410156,4341.538574,4366.153809,4360.897461,4309.487305,4312.563965,4309.615234,4338.461426,4319.358887,4310.128418,4541.666504,4564.615234,4445.897461,4541.025879,5429.000000,2.000000,35.000000,,,,0.000000,4.000000,4.000000,4.000000,4.000000,4.000000,4.000000,4.000000,4.000000,4.000000,4.000000,4.000000,4.000000,4.000000,4.000000,100.000000,,,,,,,,,,,,,,,,,,,,,,,,,,,,,,,,,,,,,,,,,,,,,,,,,,,,,,,,,,,,,,,,,,,,,,,,,,,,,,,,,,,,,,,,,,,,,,,,,,,,,,,,,,,,,,,,,,,,,
1768372545.381075,1768372545.381630,86.000000,0.000000,4384.487305,4342.820313,4361.538574,4362.436035,4318.077148,4323.205078,4312.692383,4343.077148,4321.794922,4312.051270,4543.846191,4563.589844,4444.615234,4541.025879,4393.000000,2.000000,35.000000,,,,0.000000,4.000000,4.000000,4.000000,4.000000,4.000000,4.000000,4.000000,4.000000,4.000000,4.000000,4.000000,4.000000,4.000000,4.000000,100.000000,,,,,,,,,,,,,,,,,,,,,,,,,,,,,,,,,,,,,,,,,,,,,,,,,,,,,,,,,,,,,,,,,,,,,,,,,,,,,,,,,,,,,,,,,,,,,,,,,,,,,,,,,,,,,,,,,,,,,
1768372545.388883,1768372545.389439,87.000000,0.000000,4371.922852,4342.179688,4357.692383,4366.538574,4320.128418,4329.615234,4322.179688,4345.641113,4322.307617,4312.307617,4540.384766,4560.000000,4439.230957,4534.487305,4665.000000,2.000000,35.000000,,,,0.000000,4.000000,4.000000,4.000000,4.000000,4.000000,4.000000,4.000000,4.000000,4.000000,4.000000,4.000000,4.000000,4.000000,4.000000,100.000000,,,,,,,,,,,,,,,,,,,,,,,,,,,,,,,,,,,,,,,,,,,,,,,,,,,,,,,,,,,,,,,,,,,,,,,,,,,,,,,,,,,,,,,,,,,,,,,,,,,,,,,,,,,,,,,,,,,,,
1768372545.396692,1768372545.397048,88.000000,0.000000,4375.128418,4343.974121,4359.102539,4366.025879,4317.563965,4326.666504,4328.974121,4346.282227,4326.538574,4312.820313,4538.205078,4562.436035,4440.256348,4533.589844,5023.000000,2.000000,35.000000,,,,0.000000,4.000000,4.000000,4.000000,4.000000,4.000000,4.000000,4.000000,4.000000,4.000000,4.000000,4.000000,4.000000,4.000000,4.000000,100.000000,,,,,,,,,,,,,,,,,,,,,,,,,,,,,,,,,,,,,,,,,,,,,,,,,,,,,,,,,,,,,,,,,,,,,,,,,,,,,,,,,,,,,,,,,,,,,,,,,,,,,,,,,,,,,,,,,,,,,
1768372545.404500,1768372545.404856,89.000000,0.000000,4383.461426,4348.205078,4359.487305,4364.871582,4319.743652,4328.333496,4325.384766,4341.282227,4325.128418,4313.077148,4542.436035,4562.051270,4440.897461,4536.538574,5429.000000,2.000000,35.000000,,,,0.000000,4.000000,4.000000,4.000000,4.000000,4.000000,4.000000,4.000000,4.000000,4.000000,4.000000,4.000000,4.000000,4.000000,4.000000,100.000000,,,,,,,,,,,,,,,,,,,,,,,,,,,,,,,,,,,,,,,,,,,,,,,,,,,,,,,,,,,,,,,,,,,,,,,,,,,,,,,,,,,,,,,,,,,,,,,,,,,,,,,,,,,,,,,,,,,,,
1768372545.412309,1768372545.412565,90.000000,0.000000,4381.666504,4349.230957,4357.179688,4363.589844,4318.589844,4324.615234,4315.897461,4333.205078,4315.897461,4311.410156,4540.128418,4553.333496,4434.487305,4530.000000,4393.000000,2.000000,35.000000,,,,0.000000,4.000000,4.000000,4.000000,4.000000,4.000000,4.000000,4.000000,4.000000,4.000000,4.000000,4.000000,4.000000,4.000000,4.000000,100.000000,,,,,,,,,,,,,,,,,,,,,,,,,,,,,,,,,,,,,,,,,,,,,,,,,,,,,,,,,,,,,,,,,,,,,,,,,,,,,,,,,,,,,,,,,,,,,,,,,,,,,,,,,,,,,,,,,,,,,
1768372545.420117,1768372545.420373,91.000000,0.000000,4373.589844,4345.641113,4356.282227,4359.871582,4310.512695,4313.461426,4310.256348,4329.487305,4309.358887,4307.051270,4526.666504,4545.128418,4426.153809,4520.128418,4665.000000,2.000000,35.000000,,,,0.000000,4.000000,4.000000,4.000000,4.000000,4.000000,4.000000,4.000000,4.000000,4.000000,4.000000,4.000000,4.000000,4.000000,4.000000,100.000000,,,,,,,,,,,,,,,,,,,,,,,,,,,,,,,,,,,,,,,,,,,,,,,,,,,,,,,,,,,,,,,,,,,,,,,,,,,,,,,,,,,,,,,,,,,,,,,,,,,,,,,,,,,,,,,,,,,,,
1768372545.427926,1768372545.427982,92.000000,0.000000,4368.461426,4347.820313,4355.897461,4360.641113,4310.512695,4315.256348,4311.282227,4331.922852,4311.025879,4299.743652,4521.153809,4543.589844,4425.000000,4518.461426,5023.000000,2.000000,35.000000,,,,0.000000,4.000000,4.000000,4.000000,4.000000,4.000000,4.000000,4.000000,4.000000,4.000000,4.000000,4.000000,4.000000,4.000000,4.000000,100.000000,,,,,,,,,,,,,,,,,,,,,,,,,,,,,,,,,,,,,,,,,,,,,,,,,,,,,,,,,,,,,,,,,,,,,,,,,,,,,,,,,,,,,,,,,,,,,,,,,,,,,,,,,,,,,,,,,,,,,
1768372545.435734,1768372545.435790,93.000000,0.000000,4375.256348,4356.666504,4357.179688,4366.666504,4315.641113,4324.615234,4314.230957,4334.743652,4312.820313,4300.897461,4531.153809,4550.384766,4428.333496,4521.794922,5429.000000,2.000000,35.000000,,,,0.000000,4.000000,4.000000,4.000000,4.000000,4.000000,4.000000,4.000000,4.000000,4.000000,4.000000,4.000000,4.000000,4.000000,4.000000,100.000000,,,,,,,,,,,,,,,,,,,,,,,,,,,,,,,,,,,,,,,,,,,,,,,,,,,,,,,,,,,,,,,,,,,,,,,,,,,,,,,,,,,,,,,,,,,,,,,,,,,,,,,,,,,,,,,,,,,,,
1768372545.443543,1768372545.443499,94.000000,0.000000,4381.666504,4357.179688,4358.461426,4365.512695,4312.692383,4325.897461,4317.051270,4335.128418,4309.743652,4304.487305,4533.846191,4556.922852,4428.974121,4521.794922,4393.000000,2.000000,35.000000,,,,0.000000,4.000000,4.000000,4.000000,4.000000,4.000000,4.000000,4.000000,4.000000,4.000000,4.000000,4.000000,4.000000,4.000000,4.000000,100.000000,,,,,,,,,,,,,,,,,,,,,,,,,,,,,,,,,,,,,,,,,,,,,,,,0.842738,0.442857,0.202631,0.179436,0.169278,0.383105,0.258601,0.042354,0.096447,0.093426,0.456213,0.220452,0.152618,0.203507,0.173809,0.294724,0.176948,0.115763,0.110170,0.071131,0.196044,0.191027,0.140713,0.116183,0.057851,0.169907,0.217513,0.174661,0.190184,0.192562,0.222180,0.458801,0.082873,0.222407,0.158194,0.324167,0.240076,0.174586,0.150218,0.114232,0.201454,0.217249,0.073113,0.138488,0.123707,0.402793,0.281636,0.120453,0.218213,0.134477,0.958551,0.359200,0.169650,0.183481,0.201478,0.803562,0.497223,0.153197,0.268055,0.241898,0.837408,0.388453,0.247206,0.257247,0.209386,0.846475,0.351858,0.124447,0.256961,0.159756
1768372545.451351,1768372545.451307,95.000000,0.000000,4373.846191,4349.615234,4357.692383,4361.153809,4310.000000,4321.538574,4319.358887,4336.538574,4308.461426,4299.871582,4527.307617,4554.230957,4427.436035,4521.410156,4665.000000,2.000000,35.000000,,,,0.000000,4.000000,4.000000,4.000000,4.000000,4.000000,4.000000,4.000000,4.000000,4.000000,4.000000,4.000000,4.000000,4.000000,4.000000,100.000000,,,,,,,,,,,,,,,,,,,,,,,,,,,,,,,,,,,,,,,,,,,,,,,,,,,,,,,,,,,,,,,,,,,,,,,,,,,,,,,,,,,,,,,,,,,,,,,,,,,,,,,,,,,,,,,,,,,,,
1768372545.459159,1768372545.459315,96.000000,0.000000,4369.743652,4351.922852,4357.051270,4364.230957,4316.153809,4321.153809,4320.897461,4338.333496,4310.128418,4300.000000,4534.615234,4556.538574,4427.436035,4523.205078,5023.000000,2.000000,35.000000,,,,0.000000,4.000000,4.000000,4.000000,4.000000,4.000000,4.000000,4.000000,4.000000,4.000000,4.000000,4.000000,4.000000,4.000000,4.000000,100.000000,,,,,,,,,,,,,,,,,,,,,,,,,,,,,,,,,,,,,,,,,,,,,,,,,,,,,,,,,,,,,,,,,,,,,,,,,,,,,,,,,,,,,,,,,,,,,,,,,,,,,,,,,,,,,,,,,,,,,
1768372545.466968,1768372545.467124,97.000000,0.000000,4377.436035,4357.307617,4360.256348,4366.538574,4321.666504,4321.666504,4320.000000,4341.922852,4310.384766,4306.153809,4540.897461,4563.461426,4430.897461,4524.358887,5429.000000,2.000000,35.000000,,,,0.000000,4.000000,4.000000,4.000000,4.000000,4.000000,4.000000,4.000000,4.000000,4.000000,4.000000,4.000000,4.000000,4.000000,4.000000,100.000000,,,,,,,,,,,,,,,,,,,,,,,,,,,,,,,,,,,,,,,,,,,,,,,,,,,,,,,,,,,,,,,,,,,,,,,,,,,,,,,,,,,,,,,,,,,,,,,,,,,,,,,,,,,,,,,,,,,,,
1768372545.474776,1768372545.475032,98.000000,0.000000,4380.000000,4352.948730,4359.102539,4361.794922,4318.974121,4319.102539,4312.692383,4341.153809,4309.102539,4305.512695,4529.102539,4558.717773,4431.922852,4523.333496,4393.000000,2.000000,35.000000,,,,0.000000,4.000000,4.000000,4.000000,4.000000,4.000000,4.000000,4.000000,4.000000,4.000000,4.000000,4.000000,4.000000,4.000000,4.000000,100.000000,,,,,,,,,,,,,,,,,,,,,,,,,,,,,,,,,,,,,,,,,,,,,,,,,,,,,,,,,,,,,,,,,,,,,,,,,,,,,,,,,,,,,,,,,,,,,,,,,,,,,,,,,,,,,,,,,,,,,
1768372545.482585,1768372545.482841,99.000000,0.000000,4374.743652,4348.846191,4350.256348,4360.512695,4319.102539,4321.922852,4311.538574,4337.051270,4310.128418,4304.871582,4526.282227,4552.307617,4428.333496,4521.666504,4665.000000,2.000000,35.000000,,,,0.000000,4.000000,4.000000,4.000000,4.000000,4.000000,4.000000,4.000000,4.000000,4.000000,4.000000,4.000000,4.000000,4.000000,4.000000,100.000000,,,,,,,,,,,,,,,,,,,,,,,,,,,,,,,,,,,,,,,,,,,,,,,,,,,,,,,,,,,,,,,,,,,,,,,,,,,,,,,,,,,,,,,,,,,,,,,,,,,,,,,,,,,,,,,,,,,,,
1768372545.490393,1768372545.490849,100.000000,0.000000,4373.077148,4351.410156,4349.871582,4365.000000,4324.871582,4328.974121,4322.692383,4337.307617,4312.307617,4310.000000,4538.461426,4556.666504,4428.717773,4523.846191,5023.000000,2.000000,35.000000,,,,0.000000,4.000000,4.000000,4.000000,4.000000,4.000000,4.000000,4.000000,4.000000,4.000000,4.000000,4.000000,4.000000,4.000000,4.000000,100.000000,,,,,,,,,,,,,,,,,,,,,,,,,,,,,,,,,,,,,,,,,,,,,,,,,,,,,,,,,,,,,,,,,,,,,,,,,,,,,,,,,,,,,,,,,,,,,,,,,,,,,,,,,,,,,,,,,,,,,
1768372545.498202,1768372545.498657,101.000000,0.000000,4378.846191,4355.769043,4357.820313,4367.563965,4327.051270,4327.820313,4325.256348,4338.205078,4310.897461,4311.666504,4540.128418,4561.025879,4433.461426,4525.384766,5429.000000,2.000000,35.000000,,,,0.000000,4.000000,4.000000,4.000000,4.000000,4.000000,4.000000,4.000000,4.000000,4.000000,4.000000,4.000000,4.000000,4.000000,4.000000,100.000000,,,,,,,,,,,,,,,,,,,,,,,,,,,,,,,,,,,,,,,,,,,,,,,,,,,,,,,,,,,,,,,,,,,,,,,,,,,,,,,,,,,,,,,,,,,,,,,,,,,,,,,,,,,,,,,,,,,,,
1768372545.506010,1768372545.506366,102.000000,0.000000,4379.871582,4354.615234,4360.769043,4366.025879,4327.563965,4323.589844,4322.948730,4337.051270,4310.384766,4308.846191,4537.563965,4558.333496,4434.743652,4523.846191,4393.000000,2.000000,35.000000,,,,0.000000,4.000000,4.000000,4.000000,4.000000,4.000000,4.000000,4.000000,4.000000,4.000000,4.000000,4.000000,4.000000,4.000000,4.000000,100.000000,,,,,,,,,,,,,,,,,,,,,,,,,,,,,,,,,,,,,,,,,,,,,,,,,,,,,,,,,,,,,,,,,,,,,,,,,,,,,,,,,,,,,,,,,,,,,,,,,,,,,,,,,,,,,,,,,,,,,
1768372545.513819,1768372545.514174,103.000000,0.000000,4373.846191,4347.820313,4356.794922,4361.538574,4327.820313,4326.410156,4325.128418,4338.205078,4310.897461,4304.743652,4534.871582,4551.794922,4431.025879,4520.769043,4665.000000,2.000000,35.000000,,,,0.000000,4.000000,4.000000,4.000000,4.000000,4.000000,4.000000,4.000000,4.000000,4.000000,4.000000,4.000000,4.000000,4.000000,4.000000,100.000000,,,,,,,,,,,,,,,,,,,,,,,,,,,,,,,,,,,,,,,,,,,,,,,,,,,,,,,,,,,,,,,,,,,,,,,,,,,,,,,,,,,,,,,,,,,,,,,,,,,,,,,,,,,,,,,,,,,,,
1768372545.521627,1768372545.522183,104.000000,0.000000,4373.205078,4345.641113,4353.589844,4359.615234,4323.974121,4325.128418,4319.230957,4335.256348,4306.794922,4300.641113,4526.410156,4544.871582,4426.666504,4518.077148,5023.000000,2.000000,35.000000,,,,0.000000,4.000000,4.000000,4.000000,4.000000,4.000000,4.000000,4.000000,4.000000,4.000000,4.000000,4.000000,4.000000,4.000000,4.000000,100.000000,,,,,,,,,,,,,,,,,,,,,,,,,,,,,,,,,,,,,,,,,,,,,,,,,,,,,,,,,,,,,,,,,,,,,,,,,,,,,,,,,,,,,,,,,,,,,,,,,,,,,,,,,,,,,,,,,,,,,
1768372545.529436,1768372545.529991,105.000000,0.000000,4375.384766,4347.820313,4356.153809,4363.333496,4320.897461,4322.436035,4316.666504,4330.128418,4303.205078,4302.563965,4530.512695,4548.717773,4430.512695,4520.128418,5429.000000,2.000000,35.000000,,,,0.000000,4.000000,4.000000,4.000000,4.000000,4.000000,4.000000,4.000000,4.000000,4.000000,4.000000,4.000000,4.000000,4.000000,4.000000,100.000000,,,,,,,,,,,,,,,,,,,,,,,,,,,,,,,,,,,,,,,,,,,,,,,,,,,,,,,,,,,,,,,,,,,,,,,,,,,,,,,,,,,,,,,,,,,,,,,,,,,,,,,,,,,,,,,,,,,,,
1768372545.537244,1768372545.537899,106.000000,0.000000,4370.641113,4344.743652,4358.077148,4362.051270,4323.974121,4327.692383,4328.077148,4338.846191,4307.436035,4305.897461,4541.794922,4558.846191,4438.846191,4523.077148,4393.000000,2.000000,35.000000,,,,0.000000,4.000000,4.000000,4.000000,4.000000,4.000000,4.000000,4.000000,4.000000,4.000000,4.000000,4.000000,4.000000,4.000000,4.000000,100.000000,,,,,,,,,,,,,,,,,,,,,,,,,,,,,,,,,,,,,,,,,,,,,,,,,,,,,,,,,,,,,,,,,,,,,,,,,,,,,,,,,,,,,,,,,,,,,,,,,,,,,,,,,,,,,,,,,,,,,
1768372545.545052,1768372545.545708,107.000000,0.000000,4370.128418,4345.384766,4357.307617,4360.000000,4325.769043,4324.615234,4328.333496,4346.666504,4311.666504,4306.538574,4539.102539,4557.051270,4439.871582,4521.794922,4665.000000,2.000000,35.000000,,,,0.000000,4.000000,4.000000,4.000000,4.000000,4.000000,4.000000,4.000000,4.000000,4.000000,4.000000,4.000000,4.000000,4.000000,4.000000,100.000000,,,,,,,,,,,,,,,,,,,,,,,,,,,,,,,,,,,,,,,,,,,,,,,,,,,,,,,,,,,,,,,,,,,,,,,,,,,,,,,,,,,,,,,,,,,,,,,,,,,,,,,,,,,,,,,,,,,,,
1768372545.552861,1768372545.553716,108.000000,0.000000,4381.922852,4356.025879,4361.922852,4368.974121,4324.743652,4317.307617,4318.589844,4342.051270,4310.256348,4308.205078,4536.282227,4555.256348,4438.846191,4521.794922,5023.000000,2.000000,35.000000,,,,0.000000,4.000000,4.000000,4.000000,4.000000,4.000000,4.000000,4.000000,4.000000,4.000000,4.000000,4.000000,4.000000,4.000000,4.000000,100.000000,,,,,,,,,,,,,,,,,,,,,,,,,,,,,,,,,,,,,,,,,,,,,,,,,,,,,,,,,,,,,,,,,,,,,,,,,,,,,,,,,,,,,,,,,,,,,,,,,,,,,,,,,,,,,,,,,,,,,
1768372545.560669,1768372545.561524,109.000000,0.000000,4387.563965,4359.358887,4366.666504,4376.666504,4324.487305,4318.461426,4318.589844,4339.615234,4311.538574,4310.256348,4541.282227,4561.922852,4443.205078,4525.384766,5429.000000,2.000000,35.000000,,,,0.000000,4.000000,4.000000,4.000000,4.000000,4.000000,4.000000,4.000000,4.000000,4.000000,4.000000,4.000000,4.000000,4.000000,4.000000,100.000000,,,,,,,,,,,,,,,,,,,,,,,,,,,,,,,,,,,,,,,,,,,,,,,,,,,,,,,,,,,,,,,,,,,,,,,,,,,,,,,,,,,,,,,,,,,,,,,,,,,,,,,,,,,,,,,,,,,,,
1768372545.568478,1768372545.569233,110.000000,0.000000,4379.871582,4353.717773,4360.769043,4372.436035,4323.077148,4318.974121,4321.666504,4339.230957,4311.025879,4309.358887,4540.256348,4558.461426,4441.794922,4523.589844,4393.000000,2.000000,35.000000,,,,0.000000,4.000000,4.000000,4.000000,4.000000,4.000000,4.000000,4.000000,4.000000,4.000000,4.000000,4.000000,4.000000,4.000000,4.000000,100.000000,,,,,,,,,,,,,,,,,,,,,,,,,,,,,,,,,,,,,,,,,,,,,,,,0.952210,0.417091,0.199117,0.195121,0.170821,0.449791,0.246387,0.041461,0.099682,0.091514,0.503391,0.229998,0.150646,0.188068,0.148254,0.372213,0.174105,0.125542,0.110443,0.075548,0.247285,0.211883,0.149725,0.115039,0.057194,0.173509,0.221119,0.173816,0.174335,0.191522,0.260608,0.466449,0.095485,0.222626,0.149849,0.369481,0.239292,0.161022,0.150629,0.118595,0.233568,0.199713,0.067935,0.135371,0.122400,0.321104,0.242775,0.117027,0.224071,0.130360,0.840916,0.331026,0.210331,0.199065,0.210060,0.653819,0.458330,0.193745,0.282069,0.222450,0.726559,0.333151,0.269048,0.273584,0.215352,0.815427,0.339434,0.186150,0.284996,0.137753
1768372545.576286,1768372545.577041,111.000000,0.000000,4375.641113,4351.922852,4354.358887,4367.820313,4324.230957,4323.589844,4326.410156,4336.153809,4307.563965,4308.077148,4537.692383,4551.922852,4438.461426,4521.410156,4665.000000,2.000000,35.000000,,,,0.000000,4.000000,4.000000,4.000000,4.000000,4.000000,4.000000,4.000000,4.000000,4.000000,4.000000,4.000000,4.000000,4.000000,4.000000,100.000000,,,,,,,,,,,,,,,,,,,,,,,,,,,,,,,,,,,,,,,,,,,,,,,,,,,,,,,,,,,,,,,,,,,,,,,,,,,,,,,,,,,,,,,,,,,,,,,,,,,,,,,,,,,,,,,,,,,,,
1768372545.584095,1768372545.585050,112.000000,0.000000,4381.410156,4352.307617,4354.487305,4366.538574,4323.461426,4326.666504,4326.410156,4333.717773,4307.948730,4308.589844,4538.846191,4554.487305,4439.615234,4523.717773,5023.000000,2.000000,35.000000,,,,0.000000,4.000000,4.000000,4.000000,4.000000,4.000000,4.000000,4.000000,4.000000,4.000000,4.000000,4.000000,4.000000,4.000000,4.000000,100.000000,,,,,,,,,,,,,,,,,,,,,,,,,,,,,,,,,,,,,,,,,,,,,,,,,,,,,,,,,,,,,,,,,,,,,,,,,,,,,,,,,,,,,,,,,,,,,,,,,,,,,,,,,,,,,,,,,,,,,
1768372545.591903,1768372545.592858,113.000000,0.000000,4382.692383,4351.538574,4354.102539,4365.769043,4317.436035,4315.384766,4312.948730,4331.410156,4304.743652,4307.692383,4536.666504,4551.025879,4435.769043,4518.974121,5429.000000,2.000000,35.000000,,,,0.000000,4.000000,4.000000,4.000000,4.000000,4.000000,4.000000,4.000000,4.000000,4.000000,4.000000,4.000000,4.000000,4.000000,4.000000,100.000000,,,,,,,,,,,,,,,,,,,,,,,,,,,,,,,,,,,,,,,,,,,,,,,,,,,,,,,,,,,,,,,,,,,,,,,,,,,,,,,,,,,,,,,,,,,,,,,,,,,,,,,,,,,,,,,,,,,,,
1768372545.599712,1768372545.600567,114.000000,0.000000,4376.666504,4351.153809,4351.794922,4368.589844,4317.563965,4311.410156,4306.410156,4331.282227,4300.897461,4306.410156,4534.743652,4543.461426,4429.102539,4512.563965,4393.000000,2.000000,35.000000,,,,0.000000,4.000000,4.000000,4.000000,4.000000,4.000000,4.000000,4.000000,4.000000,4.000000,4.000000,4.000000,4.000000,4.000000,4.000000,100.000000,,,,,,,,,,,,,,,,,,,,,,,,,,,,,,,,,,,,,,,,,,,,,,,,,,,,,,,,,,,,,,,,,,,,,,,,,,,,,,,,,,,,,,,,,,,,,,,,,,,,,,,,,,,,,,,,,,,,,
1768372545.607520,1768372545.608375,115.000000,0.000000,4375.512695,4352.307617,4350.641113,4371.794922,4323.589844,4321.025879,4312.307617,4331.794922,4304.358887,4308.333496,4535.000000,4543.717773,4428.846191,4516.666504,4665.000000,2.000000,35.000000,,,,0.000000,4.000000,4.000000,4.000000,4.000000,4.000000,4.000000,4.000000,4.000000,4.000000,4.000000,4.000000,4.000000,4.000000,4.000000,100.000000,,,,,,,,,,,,,,,,,,,,,,,,,,,,,,,,,,,,,,,,,,,,,,,,,,,,,,,,,,,,,,,,,,,,,,,,,,,,,,,,,,,,,,,,,,,,,,,,,,,,,,,,,,,,,,,,,,,,,
1768372545.615328,1768372545.615984,116.000000,0.000000,4379.358887,4354.615234,4351.025879,4367.948730,4323.974121,4320.128418,4310.256348,4328.589844,4306.282227,4308.846191,4535.769043,4548.205078,4433.461426,4523.205078,5023.000000,2.000000,35.000000,,,,0.000000,4.000000,4.000000,4.000000,4.000000,4.000000,4.000000,4.000000,4.000000,4.000000,4.000000,4.000000,4.000000,4.000000,4.000000,100.000000,,,,,,,,,,,,,,,,,,,,,,,,,,,,,,,,,,,,,,,,,,,,,,,,,,,,,,,,,,,,,,,,,,,,,,,,,,,,,,,,,,,,,,,,,,,,,,,,,,,,,,,,,,,,,,,,,,,,,
1768372545.623137,1768372545.623792,117.000000,0.000000,4381.922852,4354.871582,4354.358887,4368.717773,4321.794922,4316.153809,4306.922852,4331.666504,4305.256348,4309.615234,4538.717773,4553.589844,4441.153809,4524.487305,5429.000000,2.000000,35.000000,,,,0.000000,4.000000,4.000000,4.000000,4.000000,4.000000,4.000000,4.000000,4.000000,4.000000,4.000000,4.000000,4.000000,4.000000,4.000000,100.000000,,,,,,,,,,,,,,,,,,,,,,,,,,,,,,,,,,,,,,,,,,,,,,,,,,,,,,,,,,,,,,,,,,,,,,,,,,,,,,,,,,,,,,,,,,,,,,,,,,,,,,,,,,,,,,,,,,,,,
1768372545.630945,1768372545.631501,118.000000,0.000000,4378.205078,4351.153809,4354.358887,4374.358887,4323.461426,4322.307617,4314.358887,4339.230957,4307.563965,4312.563965,4540.897461,4556.666504,4444.615234,4523.589844,4393.000000,2.000000,35.000000,,,,0.000000,4.000000,4.000000,4.000000,4.000000,4.000000,4.000000,4.000000,4.000000,4.000000,4.000000,4.000000,4.000000,4.000000,4.000000,100.000000,,,,,,,,,,,,,,,,,,,,,,,,,,,,,,,,,,,,,,,,,,,,,,,,,,,,,,,,,,,,,,,,,,,,,,,,,,,,,,,,,,,,,,,,,,,,,,,,,,,,,,,,,,,,,,,,,,,,,
1768372545.638754,1768372545.639309,119.000000,0.000000,4374.487305,4352.051270,4349.358887,4373.461426,4321.153809,4323.717773,4316.794922,4337.948730,4309.102539,4311.410156,4539.487305,4552.051270,4441.666504,4523.077148,4665.000000,2.000000,35.000000,,,,0.000000,4.000000,4.000000,4.000000,4.000000,4.000000,4.000000,4.000000,4.000000,4.000000,4.000000,4.000000,4.000000,4.000000,4.000000,100.000000,,,,,,,,,,,,,,,,,,,,,,,,,,,,,,,,,,,,,,,,,,,,,,,,,,,,,,,,,,,,,,,,,,,,,,,,,,,,,,,,,,,,,,,,,,,,,,,,,,,,,,,,,,,,,,,,,,,,,
1768372545.646562,1768372545.646918,120.000000,0.000000,4379.230957,4355.641113,4351.282227,4369.487305,4317.307617,4314.230957,4310.000000,4334.358887,4309.615234,4309.487305,4538.846191,4551.153809,4439.487305,4522.307617,5023.000000,2.000000,35.000000,,,,0.000000,4.000000,4.000000,4.000000,4.000000,4.000000,4.000000,4.000000,4.000000,4.000000,4.000000,4.000000,4.000000,4.000000,4.000000,100.000000,,,,,,,,,,,,,,,,,,,,,,,,,,,,,,,,,,,,,,,,,,,,,,,,,,,,,,,,,,,,,,,,,,,,,,,,,,,,,,,,,,,,,,,,,,,,,,,,,,,,,,,,,,,,,,,,,,,,,
1768372545.654371,1768372545.654726,121.000000,0.000000,4382.563965,4353.205078,4354.871582,4371.153809,4319.358887,4311.153809,4308.461426,4336.922852,4312.051270,4311.153809,4539.487305,4553.846191,4437.051270,4521.025879,5429.000000,2.000000,35.000000,,,,0.000000,4.000000,4.000000,4.000000,4.000000,4.000000,4.000000,4.000000,4.000000,4.000000,4.000000,4.000000,4.000000,4.000000,4.000000,100.000000,,,,,,,,,,,,,,,,,,,,,,,,,,,,,,,,,,,,,,,,,,,,,,,,,,,,,,,,,,,,,,,,,,,,,,,,,,,,,,,,,,,,,,,,,,,,,,,,,,,,,,,,,,,,,,,,,,,,,
1768372545.662179,1768372545.662635,122.000000,0.000000,4378.846191,4351.794922,4352.948730,4371.538574,4319.871582,4317.563965,4313.077148,4337.948730,4310.512695,4309.358887,4536.025879,4549.487305,4431.538574,4519.487305,4393.000000,2.000000,35.000000,,,,0.000000,4.000000,4.000000,4.000000,4.000000,4.000000,4.000000,4.000000,4.000000,4.000000,4.000000,4.000000,4.000000,4.000000,4.000000,100.000000,,,,,,,,,,,,,,,,,,,,,,,,,,,,,,,,,,,,,,,,,,,,,,,,,,,,,,,,,,,,,,,,,,,,,,,,,,,,,,,,,,,,,,,,,,,,,,,,,,,,,,,,,,,,,,,,,,,,,
1768372545.669988,1768372545.670443,123.000000,0.000000,4378.974121,4353.333496,4352.179688,4368.974121,4318.717773,4317.051270,4312.692383,4337.307617,4309.615234,4308.461426,4534.230957,4546.794922,4431.794922,4518.717773,4665.000000,2.000000,35.000000,,,,0.000000,4.000000,4.000000,4.000000,4.000000,4.000000,4.000000,4.000000,4.000000,4.000000,4.000000,4.000000,4.000000,4.000000,4.000000,100.000000,,,,,,,,,,,,,,,,,,,,,,,,,,,,,,,,,,,,,,,,,,,,,,,,,,,,,,,,,,,,,,,,,,,,,,,,,,,,,,,,,,,,,,,,,,,,,,,,,,,,,,,,,,,,,,,,,,,,,
1768372545.677796,1768372545.678451,124.000000,0.000000,4382.179688,4351.794922,4353.974121,4370.897461,4321.538574,4312.563965,4308.461426,4337.179688,4311.666504,4311.410156,4537.692383,4549.102539,4434.743652,4517.692383,5023.000000,2.000000,35.000000,,,,0.000000,4.000000,4.000000,4.000000,4.000000,4.000000,4.000000,4.000000,4.000000,4.000000,4.000000,4.000000,4.000000,4.000000,4.000000,100.000000,,,,,,,,,,,,,,,,,,,,,,,,,,,,,,,,,,,,,,,,,,,,,,,,,,,,,,,,,,,,,,,,,,,,,,,,,,,,,,,,,,,,,,,,,,,,,,,,,,,,,,,,,,,,,,,,,,,,,
1768372545.685604,1768372545.686260,125.000000,0.000000,4380.256348,4351.410156,4353.333496,4375.384766,4326.538574,4319.487305,4310.256348,4332.307617,4307.051270,4307.820313,4537.307617,4547.307617,4430.384766,4511.153809,5429.000000,2.000000,35.000000,,,,0.000000,4.000000,4.000000,4.000000,4.000000,4.000000,4.000000,4.000000,4.000000,4.000000,4.000000,4.000000,4.000000,4.000000,4.000000,100.000000,,,,,,,,,,,,,,,,,,,,,,,,,,,,,,,,,,,,,,,,,,,,,,,,,,,,,,,,,,,,,,,,,,,,,,,,,,,,,,,,,,,,,,,,,,,,,,,,,,,,,,,,,,,,,,,,,,,,,
1768372545.693413,1768372545.694168,126.000000,0.000000,4382.692383,4355.256348,4354.230957,4376.794922,4326.666504,4324.743652,4312.820313,4329.358887,4304.615234,4303.846191,4534.230957,4547.820313,4427.051270,4508.333496,4393.000000,2.000000,35.000000,,,,0.000000,4.000000,4.000000,4.000000,4.000000,4.000000,4.000000,4.000000,4.000000,4.000000,4.000000,4.000000,4.000000,4.000000,4.000000,100.000000,,,,,,,,,,,,,,,,,,,,,,,,,,,,,,,,,,,,,,,,,,,,,,,,1.061933,0.391374,0.196463,0.212200,0.166253,0.558810,0.240758,0.048277,0.101368,0.085242,0.687595,0.255486,0.140839,0.170324,0.124093,0.474257,0.171476,0.132091,0.106981,0.078318,0.288533,0.216199,0.145129,0.107379,0.055998,0.196963,0.202882,0.157788,0.151122,0.177144,0.330107,0.441101,0.108365,0.217330,0.137420,0.440842,0.220970,0.140103,0.149009,0.119466,0.279847,0.175283,0.066455,0.132045,0.125724,0.283359,0.219799,0.113508,0.226782,0.130375,0.728276,0.290150,0.250017,0.206439,0.206955,0.625684,0.416515,0.235572,0.283099,0.203057,0.648107,0.265861,0.297583,0.279261,0.212237,0.837700,0.340200,0.278497,0.302330,0.116199
1768372545.701221,1768372545.701977,127.000000,0.000000,4383.333496,4355.641113,4356.794922,4375.256348,4325.512695,4318.077148,4308.333496,4333.077148,4309.743652,4309.487305,4536.794922,4554.230957,4437.179688,4518.333496,35.000000,2.000000,35.000000,,,,0.000000,4.000000,4.000000,4.000000,4.000000,4.000000,4.000000,4.000000,4.000000,4.000000,4.000000,4.000000,4.000000,4.000000,4.000000,100.000000,,,,,,,,,,,,,,,,,,,,,,,,,,,,,,,,,,,,,,,,,,,,,,,,,,,,,,,,,,,,,,,,,,,,,,,,,,,,,,,,,,,,,,,,,,,,,,,,,,,,,,,,,,,,,,,,,,,,,
1768372545.709030,1768372545.709585,0.000000,0.000000,4375.384766,4348.589844,4351.922852,4371.666504,4326.153809,4319.487305,4306.794922,4336.794922,4310.256348,4312.563965,4540.256348,4555.384766,4442.307617,4521.410156,4053.000000,2.000000,35.000000,,,,0.000000,4.000000,4.000000,4.000000,4.000000,4.000000,4.000000,4.000000,4.000000,4.000000,4.000000,4.000000,4.000000,4.000000,4.000000,100.000000,,,,,,,,,,,,,,,,,,,,,,,,,,,,,,,,,,,,,,,,,,,,,,,,,,,,,,,,,,,,,,,,,,,,,,,,,,,,,,,,,,,,,,,,,,,,,,,,,,,,,,,,,,,,,,,,,,,,,
1768372545.716838,1768372545.717394,1.000000,0.000000,4371.538574,4345.769043,4347.436035,4368.974121,4326.025879,4325.128418,4310.384766,4334.102539,4306.538574,4305.128418,4535.897461,4545.000000,4430.384766,4509.230957,3974.000000,2.000000,35.000000,,,,0.000000,4.000000,4.000000,4.000000,4.000000,4.000000,4.000000,4.000000,4.000000,4.000000,4.000000,4.000000,4.000000,4.000000,4.000000,100.000000,,,,,,,,,,,,,,,,,,,,,,,,,,,,,,,,,,,,,,,,,,,,,,,,,,,,,,,,,,,,,,,,,,,,,,,,,,,,,,,,,,,,,,,,,,,,,,,,,,,,,,,,,,,,,,,,,,,,,
1768372545.724646,1768372545.725102,2.000000,0.000000,4375.641113,4350.384766,4350.256348,4367.692383,4325.769043,4323.461426,4310.512695,4331.153809,4307.563965,4299.230957,4528.974121,4538.717773,4424.743652,4502.563965,3872.000000,2.000000,35.000000,,,,0.000000,4.000000,4.000000,4.000000,4.000000,4.000000,4.000000,4.000000,4.000000,4.000000,4.000000,4.000000,4.000000,4.000000,4.000000,100.000000,,,,,,,,,,,,,,,,,,,,,,,,,,,,,,,,,,,,,,,,,,,,,,,,,,,,,,,,,,,,,,,,,,,,,,,,,,,,,,,,,,,,,,,,,,,,,,,,,,,,,,,,,,,,,,,,,,,,,
1768372545.732455,1768372545.732911,3.000000,0.000000,4375.000000,4350.128418,4349.743652,4366.794922,4325.256348,4322.051270,4313.461426,4338.205078,4312.051270,4302.563965,4526.282227,4543.589844,4429.487305,4507.563965,3856.000000,2.000000,35.000000,,,,0.000000,4.000000,4.000000,4.000000,4.000000,4.000000,4.000000,4.000000,4.000000,4.000000,4.000000,4.000000,4.000000,4.000000,4.000000,100.000000,,,,,,,,,,,,,,,,,,,,,,,,,,,,,,,,,,,,,,,,,,,,,,,,,,,,,,,,,,,,,,,,,,,,,,,,,,,,,,,,,,,,,,,,,,,,,,,,,,,,,,,,,,,,,,,,,,,,,
1768372545.740263,1768372545.740919,4.000000,0.000000,4365.897461,4342.436035,4343.077148,4364.102539,4325.256348,4322.692383,4317.179688,4341.538574,4311.666504,4307.179688,4525.256348,4544.487305,4428.333496,4508.333496,3784.000000,2.000000,35.000000,,,,0.000000,4.000000,4.000000,4.000000,4.000000,4.000000,4.000000,4.000000,4.000000,4.000000,4.000000,4.000000,4.000000,4.000000,4.000000,100.000000,,,,,,,,,,,,,,,,,,,,,,,,,,,,,,,,,,,,,,,,,,,,,,,,,,,,,,,,,,,,,,,,,,,,,,,,,,,,,,,,,,,,,,,,,,,,,,,,,,,,,,,,,,,,,,,,,,,,,
1768372545.748072,1768372545.748727,5.000000,0.000000,4365.128418,4342.436035,4342.179688,4362.948730,4327.051270,4324.487305,4313.717773,4332.563965,4309.230957,4308.717773,4525.000000,4541.025879,4427.948730,4505.128418,3747.000000,2.000000,35.000000,,,,0.000000,4.000000,4.000000,4.000000,4.000000,4.000000,4.000000,4.000000,4.000000,4.000000,4.000000,4.000000,4.000000,4.000000,4.000000,100.000000,,,,,,,,,,,,,,,,,,,,,,,,,,,,,,,,,,,,,,,,,,,,,,,,,,,,,,,,,,,,,,,,,,,,,,,,,,,,,,,,,,,,,,,,,,,,,,,,,,,,,,,,,,,,,,,,,,,,,
1768372545.755880,1768372545.756636,6.000000,0.000000,4372.820313,4349.358887,4347.820313,4364.615234,4327.436035,4325.512695,4309.871582,4326.410156,4309.487305,4310.128418,4526.153809,4541.282227,4430.000000,4504.358887,3749.000000,2.000000,35.000000,,,,0.000000,4.000000,4.000000,4.000000,4.000000,4.000000,4.000000,4.000000,4.000000,4.000000,4.000000,4.000000,4.000000,4.000000,4.000000,100.000000,,,,,,,,,,,,,,,,,,,,,,,,,,,,,,,,,,,,,,,,,,,,,,,,,,,,,,,,,,,,,,,,,,,,,,,,,,,,,,,,,,,,,,,,,,,,,,,,,,,,,,,,,,,,,,,,,,,,,
1768372545.763689,1768372545.764444,7.000000,0.000000,4374.615234,4349.102539,4349.230957,4364.487305,4325.641113,4323.333496,4312.179688,4331.282227,4311.922852,4310.769043,4530.384766,4542.692383,4426.666504,4504.358887,3762.000000,2.000000,35.000000,,,,0.000000,4.000000,4.000000,4.000000,4.000000,4.000000,4.000000,4.000000,4.000000,4.000000,4.000000,4.000000,4.000000,4.000000,4.000000,100.000000,,,,,,,,,,,,,,,,,,,,,,,,,,,,,,,,,,,,,,,,,,,,,,,,,,,,,,,,,,,,,,,,,,,,,,,,,,,,,,,,,,,,,,,,,,,,,,,,,,,,,,,,,,,,,,,,,,,,,
1768372545.771497,1768372545.772053,8.000000,0.000000,4373.717773,4347.179688,4352.307617,4364.615234,4325.256348,4324.230957,4318.589844,4340.256348,4316.538574,4311.538574,4536.410156,4548.974121,4429.615234,4508.846191,3944.000000,2.000000,35.000000,,,,0.000000,4.000000,4.000000,4.000000,4.000000,4.000000,4.000000,4.000000,4.000000,4.000000,4.000000,4.000000,4.000000,4.000000,4.000000,100.000000,,,,,,,,,,,,,,,,,,,,,,,,,,,,,,,,,,,,,,,,,,,,,,,,,,,,,,,,,,,,,,,,,,,,,,,,,,,,,,,,,,,,,,,,,,,,,,,,,,,,,,,,,,,,,,,,,,,,,
1768372545.779306,1768372545.779861,9.000000,0.000000,4373.717773,4348.717773,4358.717773,4368.974121,4326.538574,4327.948730,4323.077148,4341.538574,4316.410156,4312.051270,4538.846191,4553.717773,4434.871582,4508.846191,3931.000000,2.000000,35.000000,,,,0.000000,4.000000,4.000000,4.000000,4.000000,4.000000,4.000000,4.000000,4.000000,4.000000,4.000000,4.000000,4.000000,4.000000,4.000000,100.000000,,,,,,,,,,,,,,,,,,,,,,,,,,,,,,,,,,,,,,,,,,,,,,,,,,,,,,,,,,,,,,,,,,,,,,,,,,,,,,,,,,,,,,,,,,,,,,,,,,,,,,,,,,,,,,,,,,,,,
1768372545.787114,1768372545.787570,10.000000,0.000000,4372.948730,4347.820313,4358.974121,4367.051270,4326.794922,4327.051270,4319.871582,4338.974121,4311.666504,4309.871582,4538.589844,4549.487305,4431.025879,4507.436035,4390.000000,2.000000,35.000000,,,,0.000000,4.000000,4.000000,4.000000,4.000000,4.000000,4.000000,4.000000,4.000000,4.000000,4.000000,4.000000,4.000000,4.000000,4.000000,100.000000,,,,,,,,,,,,,,,,,,,,,,,,,,,,,,,,,,,,,,,,,,,,,,,,,,,,,,,,,,,,,,,,,,,,,,,,,,,,,,,,,,,,,,,,,,,,,,,,,,,,,,,,,,,,,,,,,,,,,
1768372545.794922,1768372545.795378,11.000000,0.000000,4377.563965,4346.153809,4356.922852,4360.769043,4325.512695,4326.410156,4317.820313,4337.692383,4310.128418,4306.538574,4539.230957,4548.205078,4433.461426,4516.538574,4665.000000,2.000000,35.000000,,,,0.000000,4.000000,4.000000,4.000000,4.000000,4.000000,4.000000,4.000000,4.000000,4.000000,4.000000,4.000000,4.000000,4.000000,4.000000,100.000000,,,,,,,,,,,,,,,,,,,,,,,,,,,,,,,,,,,,,,,,,,,,,,,,,,,,,,,,,,,,,,,,,,,,,,,,,,,,,,,,,,,,,,,,,,,,,,,,,,,,,,,,,,,,,,,,,,,,,
1768372545.802731,1768372545.802987,12.000000,0.000000,4383.077148,4347.820313,4358.333496,4364.487305,4324.615234,4323.205078,4317.563965,4335.000000,4311.538574,4307.436035,4538.077148,4552.051270,4437.948730,4519.487305,5016.000000,2.000000,35.000000,,,,0.000000,4.000000,4.000000,4.000000,4.000000,4.000000,4.000000,4.000000,4.000000,4.000000,4.000000,4.000000,4.000000,4.000000,4.000000,100.000000,,,,,,,,,,,,,,,,,,,,,,,,,,,,,,,,,,,,,,,,,,,,,,,,,,,,,,,,,,,,,,,,,,,,,,,,,,,,,,,,,,,,,,,,,,,,,,,,,,,,,,,,,,,,,,,,,,,,,
1768372545.810539,1768372545.810795,13.000000,0.000000,4375.641113,4346.794922,4357.179688,4366.025879,4323.205078,4316.282227,4311.282227,4335.641113,4308.717773,4310.769043,4535.384766,4550.000000,4430.512695,4511.410156,5419.000000,2.000000,35.000000,,,,0.000000,4.000000,4.000000,4.000000,4.000000,4.000000,4.000000,4.000000,4.000000,4.000000,4.000000,4.000000,4.000000,4.000000,4.000000,100.000000,,,,,,,,,,,,,,,,,,,,,,,,,,,,,,,,,,,,,,,,,,,,,,,,,,,,,,,,,,,,,,,,,,,,,,,,,,,,,,,,,,,,,,,,,,,,,,,,,,,,,,,,,,,,,,,,,,,,,
1768372545.818348,1768372545.818504,14.000000,0.000000,4367.307617,4341.922852,4356.410156,4357.436035,4321.666504,4317.179688,4311.153809,4339.743652,4311.282227,4308.974121,4536.922852,4552.179688,4432.051270,4514.102539,4390.000000,2.000000,35.000000,,,,0.000000,4.000000,4.000000,4.000000,4.000000,4.000000,4.000000,4.000000,4.000000,4.000000,4.000000,4.000000,4.000000,4.000000,4.000000,100.000000,1.000000,75.000000,4.000000,4.000000,4.000000,4.000000,1.000000,4.000000,4.000000,4.000000,4.000000,4.000000,4.000000,4.000000,4.000000,4.000000,,,,,,,,,,,,,,,,,,,,,,,,,,,,,,,,1.176923,0.367593,0.195330,0.227403,0.157543,0.677827,0.243988,0.061416,0.103739,0.076461,0.981117,0.279968,0.126674,0.148333,0.102541,0.584281,0.168758,0.137111,0.101893,0.078759,0.310642,0.210278,0.131671,0.095318,0.054669,0.240649,0.170457,0.134197,0.131037,0.154793,0.414666,0.395246,0.121825,0.213957,0.122208,0.512614,0.202303,0.123789,0.143869,0.114313,0.320230,0.154092,0.072500,0.126316,0.132446,0.282909,0.210841,0.113538,0.222597,0.132858,0.632240,0.242817,0.280170,0.202687,0.194397,0.695563,0.388857,0.277393,0.267717,0.185054,0.618636,0.202872,0.329750,0.269850,0.201392,0.895470,0.357087,0.389139,0.299299,0.099222
1768372545.826156,1768372545.826312,15.000000,0.000000,4370.128418,4341.282227,4358.717773,4356.025879,4322.692383,4321.025879,4314.358887,4339.871582,4316.794922,4308.717773,4540.256348,4557.563965,4439.871582,4523.461426,4665.000000,2.000000,35.000000,,,,0.000000,4.000000,4.000000,4.000000,4.000000,4.000000,4.000000,4.000000,4.000000,4.000000,4.000000,4.000000,4.000000,4.000000,4.000000,100.000000,,,,,,,,,,,,,,,,,,,,,,,,,,,,,,,,,,,,,,,,,,,,,,,,,,,,,,,,,,,,,,,,,,,,,,,,,,,,,,,,,,,,,,,,,,,,,,,,,,,,,,,,,,,,,,,,,,,,,
1768372545.833965,1768372545.833921,16.000000,0.000000,4370.384766,4342.563965,4357.820313,4360.897461,4326.153809,4324.230957,4313.589844,4337.948730,4316.666504,4311.282227,4540.769043,4553.717773,4437.307617,4521.794922,0.000000,2.000000,35.000000,,,,0.000000,4.000000,4.000000,4.000000,4.000000,4.000000,4.000000,4.000000,4.000000,4.000000,4.000000,4.000000,4.000000,4.000000,4.000000,100.000000,,,,,,,,,,,,,,,,,,,,,,,,,,,,,,,,,,,,,,,,,,,,,,,,,,,,,,,,,,,,,,,,,,,,,,,,,,,,,,,,,,,,,,,,,,,,,,,,,,,,,,,,,,,,,,,,,,,,,
1768372545.841773,1768372545.841729,17.000000,0.000000,4369.230957,4342.692383,4357.051270,4362.563965,4328.461426,4331.666504,4321.025879,4337.563965,4317.307617,4312.051270,4539.230957,4548.717773,4436.538574,4519.358887,0.000000,2.000000,35.000000,,,,0.000000,4.000000,4.000000,4.000000,4.000000,4.000000,4.000000,4.000000,4.000000,4.000000,4.000000,4.000000,4.000000,4.000000,4.000000,100.000000,,,,,,,,,,,,,,,,,,,,,,,,,,,,,,,,,,,,,,,,,,,,,,,,,,,,,,,,,,,,,,,,,,,,,,,,,,,,,,,,,,,,,,,,,,,,,,,,,,,,,,,,,,,,,,,,,,,,,
1768372545.849582,1768372545.849438,18.000000,0.000000,4375.256348,4346.282227,4358.974121,4363.333496,4328.717773,4332.436035,4325.512695,4332.820313,4313.846191,4309.615234,4536.666504,4547.563965,4440.000000,4522.179688,0.000000,2.000000,35.000000,,,,0.000000,4.000000,4.000000,4.000000,4.000000,4.000000,4.000000,4.000000,4.000000,4.000000,4.000000,4.000000,4.000000,4.000000,4.000000,100.000000,,,,,,,,,,,,,,,,,,,,,,,,,,,,,,,,,,,,,,,,,,,,,,,,,,,,,,,,,,,,,,,,,,,,,,,,,,,,,,,,,,,,,,,,,,,,,,,,,,,,,,,,,,,,,,,,,,,,,
1768372545.857390,1768372545.857246,19.000000,0.000000,4384.871582,4349.871582,4360.641113,4366.410156,4327.948730,4324.102539,4318.717773,4333.974121,4310.897461,4308.077148,4536.538574,4551.282227,4437.051270,4522.051270,0.000000,2.000000,35.000000,,,,0.000000,4.000000,4.000000,4.000000,4.000000,4.000000,4.000000,4.000000,4.000000,4.000000,4.000000,4.000000,4.000000,4.000000,4.000000,100.000000,,,,,,,,,,,,,,,,,,,,,,,,,,,,,,,,,,,,,,,,,,,,,,,,,,,,,,,,,,,,,,,,,,,,,,,,,,,,,,,,,,,,,,,,,,,,,,,,,,,,,,,,,,,,,,,,,,,,,
1768372545.865198,1768372545.865255,20.000000,0.000000,4388.077148,4347.948730,4360.256348,4367.820313,4326.410156,4324.871582,4320.769043,4346.666504,4321.922852,4311.282227,4539.358887,4558.333496,4441.025879,4523.589844,0.000000,2.000000,35.000000,,,,0.000000,4.000000,4.000000,4.000000,4.000000,4.000000,4.000000,4.000000,4.000000,4.000000,4.000000,4.000000,4.000000,4.000000,4.000000,100.000000,,,,,,,,,,,,,,,,,,,,,,,,,,,,,,,,,,,,,,,,,,,,,,,,,,,,,,,,,,,,,,,,,,,,,,,,,,,,,,,,,,,,,,,,,,,,,,,,,,,,,,,,,,,,,,,,,,,,,
1768372545.873007,1768372545.873063,21.000000,0.000000,4379.230957,4344.871582,4357.051270,4367.179688,4326.666504,4329.102539,4321.666504,4347.436035,4327.436035,4316.025879,4543.077148,4557.179688,4448.333496,4527.307617,0.000000,2.000000,35.000000,,,,0.000000,4.000000,4.000000,4.000000,4.000000,4.000000,4.000000,4.000000,4.000000,4.000000,4.000000,4.000000,4.000000,4.000000,4.000000,100.000000,,,,,,,,,,,,,,,,,,,,,,,,,,,,,,,,,,,,,,,,,,,,,,,,,,,,,,,,,,,,,,,,,,,,,,,,,,,,,,,,,,,,,,,,,,,,,,,,,,,,,,,,,,,,,,,,,,,,,
1768372545.880815,1768372545.880971,22.000000,0.000000,4371.410156,4343.205078,4355.000000,4365.000000,4325.128418,4324.487305,4312.820313,4337.692383,4314.743652,4310.769043,4539.487305,4547.307617,4439.743652,4522.563965,0.000000,2.000000,35.000000,,,,0.000000,4.000000,4.000000,4.000000,4.000000,4.000000,4.000000,4.000000,4.000000,4.000000,4.000000,4.000000,4.000000,4.000000,4.000000,100.000000,,,,,,,,,,,,,,,,,,,,,,,,,,,,,,,,,,,,,,,,,,,,,,,,,,,,,,,,,,,,,,,,,,,,,,,,,,,,,,,,,,,,,,,,,,,,,,,,,,,,,,,,,,,,,,,,,,,,,
1768372545.888624,1768372545.888780,23.000000,0.000000,4372.563965,4342.820313,4356.153809,4363.717773,4320.384766,4324.102539,4312.563965,4335.769043,4308.333496,4296.922852,4527.179688,4540.897461,4428.974121,4512.179688,0.000000,2.000000,35.000000,,,,0.000000,4.000000,4.000000,4.000000,4.000000,4.000000,4.000000,4.000000,4.000000,4.000000,4.000000,4.000000,4.000000,4.000000,4.000000,100.000000,,,,,,,,,,,,,,,,,,,,,,,,,,,,,,,,,,,,,,,,,,,,,,,,,,,,,,,,,,,,,,,,,,,,,,,,,,,,,,,,,,,,,,,,,,,,,,,,,,,,,,,,,,,,,,,,,,,,,
1768372545.896432,1768372545.896788,24.000000,0.000000,4368.846191,4338.589844,4349.358887,4357.948730,4317.436035,4326.666504,4316.025879,4335.769043,4315.000000,4294.230957,4519.615234,4535.641113,4425.384766,4504.358887,0.000000,2.000000,35.000000,,,,0.000000,4.000000,4.000000,4.000000,4.000000,4.000000,4.000000,4.000000,4.000000,4.000000,4.000000,4.000000,4.000000,4.000000,4.000000,100.000000,,,,,,,,,,,,,,,,,,,,,,,,,,,,,,,,,,,,,,,,,,,,,,,,,,,,,,,,,,,,,,,,,,,,,,,,,,,,,,,,,,,,,,,,,,,,,,,,,,,,,,,,,,,,,,,,,,,,,
1768372545.904241,1768372545.904597,25.000000,0.000000,4360.256348,4335.512695,4341.538574,4352.051270,4318.717773,4325.000000,4312.436035,4332.051270,4318.205078,4305.641113,4527.307617,4535.512695,4428.589844,4504.487305,0.000000,2.000000,35.000000,,,,0.000000,4.000000,4.000000,4.000000,4.000000,4.000000,4.000000,4.000000,4.000000,4.000000,4.000000,4.000000,4.000000,4.000000,4.000000,100.000000,,,,,,,,,,,,,,,,,,,,,,,,,,,,,,,,,,,,,,,,,,,,,,,,,,,,,,,,,,,,,,,,,,,,,,,,,,,,,,,,,,,,,,,,,,,,,,,,,,,,,,,,,,,,,,,,,,,,,
1768372545.912049,1768372545.912305,26.000000,0.000000,4369.358887,4344.615234,4352.436035,4361.025879,4322.307617,4324.743652,4316.282227,4337.051270,4324.615234,4314.615234,4540.769043,4550.256348,4442.820313,4516.282227,0.000000,2.000000,35.000000,,,,0.000000,4.000000,4.000000,4.000000,4.000000,4.000000,4.000000,4.000000,4.000000,4.000000,4.000000,4.000000,4.000000,4.000000,4.000000,100.000000,,,,,,,,,,,,,,,,,,,,,,,,,,,,,,,,,,,,,,,,,,,,,,,,,,,,,,,,,,,,,,,,,,,,,,,,,,,,,,,,,,,,,,,,,,,,,,,,,,,,,,,,,,,,,,,,,,,,,
1768372545.919858,1768372545.920114,27.000000,0.000000,4385.384766,4353.077148,4364.230957,4367.948730,4322.563965,4326.538574,4320.256348,4343.589844,4331.410156,4313.974121,4543.846191,4558.205078,4451.794922,4527.563965,0.000000,2.000000,35.000000,,,,0.000000,4.000000,4.000000,4.000000,4.000000,4.000000,4.000000,4.000000,4.000000,4.000000,4.000000,4.000000,4.000000,4.000000,4.000000,100.000000,,,,,,,,,,,,,,,,,,,,,,,,,,,,,,,,,,,,,,,,,,,,,,,,,,,,,,,,,,,,,,,,,,,,,,,,,,,,,,,,,,,,,,,,,,,,,,,,,,,,,,,,,,,,,,,,,,,,,
1768372545.927666,1768372545.928122,28.000000,0.000000,4381.922852,4349.358887,4359.615234,4361.538574,4320.256348,4325.128418,4313.077148,4334.358887,4320.128418,4309.230957,4538.205078,4547.563965,4438.974121,4521.922852,0.000000,2.000000,35.000000,,,,0.000000,4.000000,4.000000,4.000000,4.000000,4.000000,4.000000,4.000000,4.000000,4.000000,4.000000,4.000000,4.000000,4.000000,4.000000,100.000000,,,,,,,,,,,,,,,,,,,,,,,,,,,,,,,,,,,,,,,,,,,,,,,,,,,,,,,,,,,,,,,,,,,,,,,,,,,,,,,,,,,,,,,,,,,,,,,,,,,,,,,,,,,,,,,,,,,,,
1768372545.935475,1768372545.935930,29.000000,0.000000,4375.897461,4343.077148,4352.051270,4361.538574,4320.256348,4322.692383,4309.615234,4326.410156,4309.871582,4307.692383,4536.153809,4539.487305,4428.461426,4509.487305,0.000000,2.000000,35.000000,,,,0.000000,4.000000,4.000000,4.000000,4.000000,4.000000,4.000000,4.000000,4.000000,4.000000,4.000000,4.000000,4.000000,4.000000,4.000000,100.000000,,,,,,,,,,,,,,,,,,,,,,,,,,,,,,,,,,,,,,,,,,,,,,,,,,,,,,,,,,,,,,,,,,,,,,,,,,,,,,,,,,,,,,,,,,,,,,,,,,,,,,,,,,,,,,,,,,,,,
1768372545.943283,1768372545.943839,30.000000,0.000000,4380.384766,4343.205078,4350.769043,4365.384766,4323.077148,4324.871582,4313.589844,4333.974121,4317.820313,4308.589844,4538.717773,4542.948730,4437.051270,4508.461426,0.000000,2.000000,35.000000,,,,0.000000,4.000000,4.000000,4.000000,4.000000,4.000000,4.000000,4.000000,4.000000,4.000000,4.000000,4.000000,4.000000,4.000000,4.000000,100.000000,,,,,,,,,,,,,,,,,,,,,,,,,,,,,,,,,,,,,,,,,,,,,,,,1.289959,0.342897,0.192121,0.236889,0.148620,0.782130,0.253675,0.077569,0.108876,0.068061,1.301847,0.289779,0.114171,0.124914,0.084798,0.680285,0.166784,0.143866,0.098579,0.077193,0.314812,0.203520,0.117402,0.081752,0.053736,0.292272,0.136597,0.112552,0.123160,0.131990,0.488689,0.346170,0.137790,0.218566,0.107031,0.550568,0.205038,0.125758,0.135266,0.104195,0.337508,0.146755,0.088734,0.117573,0.139328,0.294850,0.211427,0.120067,0.209653,0.134533,0.559026,0.197851,0.297443,0.190194,0.178086,0.790195,0.389031,0.323768,0.241495,0.169469,0.639162,0.158467,0.361872,0.247075,0.186100,0.978572,0.388359,0.494085,0.274905,0.088837
1768372545.951091,1768372545.951647,31.000000,0.000000,4381.666504,4341.410156,4350.000000,4360.128418,4322.948730,4325.128418,4313.333496,4338.846191,4322.948730,4309.102539,4537.692383,4547.307617,4436.538574,4510.641113,0.000000,2.000000,35.000000,,,,0.000000,4.000000,4.000000,4.000000,4.000000,4.000000,4.000000,4.000000,4.000000,4.000000,4.000000,4.000000,4.000000,4.000000,4.000000,100.000000,,,,,,,,,,,,,,,,,,,,,,,,,,,,,,,,,,,,,,,,,,,,,,,,,,,,,,,,,,,,,,,,,,,,,,,,,,,,,,,,,,,,,,,,,,,,,,,,,,,,,,,,,,,,,,,,,,,,,
1768372545.958900,1768372545.959456,32.000000,0.000000,4378.077148,4337.820313,4351.153809,4358.846191,4322.307617,4322.307617,4310.000000,4336.282227,4319.358887,4310.512695,4534.871582,4548.846191,4428.589844,4508.205078,0.000000,2.000000,35.000000,,,,0.000000,4.000000,4.000000,4.000000,4.000000,4.000000,4.000000,4.000000,4.000000,4.000000,4.000000,4.000000,4.000000,4.000000,4.000000,100.000000,,,,,,,,,,,,,,,,,,,,,,,,,,,,,,,,,,,,,,,,,,,,,,,,,,,,,,,,,,,,,,,,,,,,,,,,,,,,,,,,,,,,,,,,,,,,,,,,,,,,,,,,,,,,,,,,,,,,,
1768372545.966708,1768372545.967264,33.000000,0.000000,4377.692383,4341.282227,4357.820313,4364.358887,4325.128418,4324.615234,4317.179688,4339.743652,4323.461426,4313.205078,4538.077148,4553.333496,4433.717773,4510.000000,0.000000,2.000000,35.000000,,,,0.000000,4.000000,4.000000,4.000000,4.000000,4.000000,4.000000,4.000000,4.000000,4.000000,4.000000,4.000000,4.000000,4.000000,4.000000,100.000000,,,,,,,,,,,,,,,,,,,,,,,,,,,,,,,,,,,,,,,,,,,,,,,,,,,,,,,,,,,,,,,,,,,,,,,,,,,,,,,,,,,,,,,,,,,,,,,,,,,,,,,,,,,,,,,,,,,,,
1768372545.974517,1768372545.974973,34.000000,0.000000,4375.897461,4343.717773,4357.051270,4360.384766,4325.897461,4327.436035,4320.256348,4341.538574,4325.256348,4309.358887,4537.692383,4551.025879,4436.153809,4510.641113,0.000000,2.000000,35.000000,,,,0.000000,4.000000,4.000000,4.000000,4.000000,4.000000,4.000000,4.000000,4.000000,4.000000,4.000000,4.000000,4.000000,4.000000,4.000000,100.000000,,,,,,,,,,,,,,,,,,,,,,,,,,,,,,,,,,,,,,,,,,,,,,,,,,,,,,,,,,,,,,,,,,,,,,,,,,,,,,,,,,,,,,,,,,,,,,,,,,,,,,,,,,,,,,,,,,,,,
1768372545.982325,1768372545.982781,35.000000,0.000000,4372.563965,4341.410156,4350.256348,4359.102539,4324.615234,4325.384766,4311.538574,4334.102539,4321.025879,4304.743652,4534.102539,4541.538574,4428.717773,4506.922852,0.000000,2.000000,35.000000,,,,0.000000,4.000000,4.000000,4.000000,4.000000,4.000000,4.000000,4.000000,4.000000,4.000000,4.000000,4.000000,4.000000,4.000000,4.000000,100.000000,,,,,,,,,,,,,,,,,,,,,,,,,,,,,,,,,,,,,,,,,,,,,,,,,,,,,,,,,,,,,,,,,,,,,,,,,,,,,,,,,,,,,,,,,,,,,,,,,,,,,,,,,,,,,,,,,,,,,
1768372545.990134,1768372545.990789,36.000000,0.000000,4373.205078,4341.666504,4352.563965,4364.102539,4325.000000,4323.589844,4310.769043,4331.538574,4324.743652,4308.461426,4535.897461,4543.333496,4429.487305,4507.307617,0.000000,2.000000,35.000000,,,,0.000000,4.000000,4.000000,4.000000,4.000000,4.000000,4.000000,4.000000,4.000000,4.000000,4.000000,4.000000,4.000000,4.000000,4.000000,100.000000,,,,,,,,,,,,,,,,,,,,,,,,,,,,,,,,,,,,,,,,,,,,,,,,,,,,,,,,,,,,,,,,,,,,,,,,,,,,,,,,,,,,,,,,,,,,,,,,,,,,,,,,,,,,,,,,,,,,,
1768372545.997942,1768372545.998598,37.000000,0.000000,4374.230957,4342.307617,4359.487305,4360.641113,4324.871582,4325.897461,4315.128418,4335.384766,4324.615234,4311.282227,4536.153809,4550.512695,4432.563965,4510.128418,0.000000,2.000000,35.000000,,,,0.000000,4.000000,4.000000,4.000000,4.000000,4.000000,4.000000,4.000000,4.000000,4.000000,4.000000,4.000000,4.000000,4.000000,4.000000,100.000000,,,,,,,,,,,,,,,,,,,,,,,,,,,,,,,,,,,,,,,,,,,,,,,,,,,,,,,,,,,,,,,,,,,,,,,,,,,,,,,,,,,,,,,,,,,,,,,,,,,,,,,,,,,,,,,,,,,,,
1768372546.005751,1768372546.006306,38.000000,0.000000,4372.948730,4339.487305,4359.743652,4357.436035,4324.230957,4327.948730,4318.333496,4336.025879,4320.769043,4306.538574,4534.230957,4547.948730,4429.230957,4509.102539,0.000000,2.000000,35.000000,,,,0.000000,4.000000,4.000000,4.000000,4.000000,4.000000,4.000000,4.000000,4.000000,4.000000,4.000000,4.000000,4.000000,4.000000,4.000000,100.000000,,,,,,,,,,,,,,,,,,,,,,,,,,,,,,,,,,,,,,,,,,,,,,,,,,,,,,,,,,,,,,,,,,,,,,,,,,,,,,,,,,,,,,,,,,,,,,,,,,,,,,,,,,,,,,,,,,,,,
1768372546.013559,1768372546.014115,39.000000,0.000000,4370.897461,4337.948730,4353.974121,4358.974121,4324.358887,4326.153809,4319.871582,4332.179688,4320.897461,4303.333496,4529.102539,4542.179688,4427.948730,4507.051270,0.000000,2.000000,35.000000,,,,0.000000,4.000000,4.000000,4.000000,4.000000,4.000000,4.000000,4.000000,4.000000,4.000000,4.000000,4.000000,4.000000,4.000000,4.000000,100.000000,,,,,,,,,,,,,,,,,,,,,,,,,,,,,,,,,,,,,,,,,,,,,,,,,,,,,,,,,,,,,,,,,,,,,,,,,,,,,,,,,,,,,,,,,,,,,,,,,,,,,,,,,,,,,,,,,,,,,
1768372546.021367,1768372546.021723,40.000000,0.000000,4369.743652,4337.051270,4350.897461,4357.692383,4322.307617,4322.692383,4318.461426,4326.538574,4313.717773,4305.897461,4524.487305,4542.051270,4426.794922,4505.769043,0.000000,2.000000,35.000000,,,,0.000000,4.000000,4.000000,4.000000,4.000000,4.000000,4.000000,4.000000,4.000000,4.000000,4.000000,4.000000,4.000000,4.000000,4.000000,100.000000,,,,,,,,,,,,,,,,,,,,,,,,,,,,,,,,,,,,,,,,,,,,,,,,,,,,,,,,,,,,,,,,,,,,,,,,,,,,,,,,,,,,,,,,,,,,,,,,,,,,,,,,,,,,,,,,,,,,,
1768372546.029176,1768372546.029532,41.000000,0.000000,4373.077148,4336.794922,4354.615234,4357.563965,4320.128418,4324.487305,4317.820313,4325.256348,4307.692383,4306.153809,4528.205078,4544.487305,4426.282227,4504.487305,0.000000,2.000000,35.000000,,,,0.000000,4.000000,4.000000,4.000000,4.000000,4.000000,4.000000,4.000000,4.000000,4.000000,4.000000,4.000000,4.000000,4.000000,4.000000,100.000000,,,,,,,,,,,,,,,,,,,,,,,,,,,,,,,,,,,,,,,,,,,,,,,,,,,,,,,,,,,,,,,,,,,,,,,,,,,,,,,,,,,,,,,,,,,,,,,,,,,,,,,,,,,,,,,,,,,,,
1768372546.036984,1768372546.037240,42.000000,0.000000,4375.256348,4340.384766,4356.666504,4358.589844,4321.922852,4327.051270,4316.153809,4328.077148,4312.436035,4305.897461,4533.205078,4545.256348,4428.717773,4505.897461,0.000000,2.000000,35.000000,,,,0.000000,4.000000,4.000000,4.000000,4.000000,4.000000,4.000000,4.000000,4.000000,4.000000,4.000000,4.000000,4.000000,4.000000,4.000000,100.000000,,,,,,,,,,,,,,,,,,,,,,,,,,,,,,,,,,,,,,,,,,,,,,,,,,,,,,,,,,,,,,,,,,,,,,,,,,,,,,,,,,,,,,,,,,,,,,,,,,,,,,,,,,,,,,,,,,,,,
1768372546.044793,1768372546.045049,43.000000,0.000000,4368.589844,4341.025879,4352.051270,4356.282227,4323.077148,4324.615234,4313.589844,4330.000000,4314.358887,4307.820313,4530.641113,4543.333496,4428.333496,4508.461426,0.000000,2.000000,35.000000,,,,0.000000,4.000000,4.000000,4.000000,4.000000,4.000000,4.000000,4.000000,4.000000,4.000000,4.000000,4.000000,4.000000,4.000000,4.000000,100.000000,,,,,,,,,,,,,,,,,,,,,,,,,,,,,,,,,,,,,,,,,,,,,,,,,,,,,,,,,,,,,,,,,,,,,,,,,,,,,,,,,,,,,,,,,,,,,,,,,,,,,,,,,,,,,,,,,,,,,
1768372546.052601,1768372546.053057,44.000000,0.000000,4362.692383,4341.666504,4352.436035,4357.307617,4321.794922,4325.000000,4316.410156,4331.282227,4311.794922,4308.205078,4526.282227,4542.692383,4425.641113,4505.897461,0.000000,2.000000,35.000000,,,,0.000000,4.000000,4.000000,4.000000,4.000000,4.000000,4.000000,4.000000,4.000000,4.000000,4.000000,4.000000,4.000000,4.000000,4.000000,100.000000,,,,,,,,,,,,,,,,,,,,,,,,,,,,,,,,,,,,,,,,,,,,,,,,,,,,,,,,,,,,,,,,,,,,,,,,,,,,,,,,,,,,,,,,,,,,,,,,,,,,,,,,,,,,,,,,,,,,,
1768372546.060410,1768372546.060865,45.000000,0.000000,4370.000000,4346.666504,4358.077148,4363.717773,4323.461426,4327.051270,4317.436035,4332.948730,4313.333496,4309.487305,4526.282227,4546.025879,4425.769043,4503.461426,0.000000,2.000000,35.000000,,,,0.000000,4.000000,4.000000,4.000000,4.000000,4.000000,4.000000,4.000000,4.000000,4.000000,4.000000,4.000000,4.000000,4.000000,4.000000,100.000000,,,,,,,,,,,,,,,,,,,,,,,,,,,,,,,,,,,,,,,,,,,,,,,,,,,,,,,,,,,,,,,,,,,,,,,,,,,,,,,,,,,,,,,,,,,,,,,,,,,,,,,,,,,,,,,,,,,,,
1768372546.068218,1768372546.068774,46.000000,0.000000,4378.205078,4346.538574,4355.641113,4365.128418,4320.769043,4324.487305,4308.974121,4330.769043,4312.948730,4306.153809,4524.102539,4540.641113,4423.846191,4505.641113,0.000000,2.000000,35.000000,,,,0.000000,4.000000,4.000000,4.000000,4.000000,4.000000,4.000000,4.000000,4.000000,4.000000,4.000000,4.000000,4.000000,4.000000,4.000000,100.000000,,,,,,,,,,,,,,,,,,,,,,,,,,,,,,,,,,,,,,,,,,,,,,,,1.370780,0.316320,0.184189,0.237268,0.143803,0.833440,0.262662,0.093206,0.117028,0.062766,1.548294,0.280215,0.108098,0.104261,0.072199,0.736277,0.165956,0.154452,0.099367,0.074832,0.303191,0.202179,0.108619,0.069297,0.053406,0.332863,0.112534,0.100430,0.130589,0.115014,0.526289,0.306307,0.157408,0.231819,0.095377,0.535351,0.239503,0.151461,0.125952,0.092906,0.325704,0.158189,0.111911,0.108329,0.142915,0.302348,0.216798,0.132124,0.190064,0.132820,0.515773,0.164002,0.305232,0.175293,0.163640,0.839221,0.417392,0.374302,0.215097,0.157047,0.699484,0.139181,0.390020,0.218228,0.170174,1.060423,0.421923,0.564699,0.237524,0.085106
1768372546.076026,1768372546.076582,47.000000,0.000000,4375.384766,4341.025879,4352.307617,4360.128418,4314.871582,4326.922852,4308.846191,4327.563965,4309.102539,4300.384766,4522.948730,4536.410156,4419.487305,4506.922852,0.000000,2.000000,35.000000,,,,0.000000,4.000000,4.000000,4.000000,4.000000,4.000000,4.000000,4.000000,4.000000,4.000000,4.000000,4.000000,4.000000,4.000000,4.000000,100.000000,,,,,,,,,,,,,,,,,,,,,,,,,,,,,,,,,,,,,,,,,,,,,,,,,,,,,,,,,,,,,,,,,,,,,,,,,,,,,,,,,,,,,,,,,,,,,,,,,,,,,,,,,,,,,,,,,,,,,
1768372546.083835,1768372546.084590,48.000000,0.000000,4370.384766,4340.769043,4350.000000,4354.102539,4311.666504,4328.077148,4315.641113,4326.538574,4309.230957,4299.102539,4522.692383,4539.743652,4416.794922,4503.461426,0.000000,2.000000,35.000000,,,,0.000000,4.000000,4.000000,4.000000,4.000000,4.000000,4.000000,4.000000,4.000000,4.000000,4.000000,4.000000,4.000000,4.000000,4.000000,100.000000,,,,,,,,,,,,,,,,,,,,,,,,,,,,,,,,,,,,,,,,,,,,,,,,,,,,,,,,,,,,,,,,,,,,,,,,,,,,,,,,,,,,,,,,,,,,,,,,,,,,,,,,,,,,,,,,,,,,,
1768372546.091643,1768372546.092399,49.000000,0.000000,4371.025879,4343.461426,4343.077148,4352.820313,4311.153809,4318.974121,4310.512695,4326.153809,4310.897461,4301.410156,4521.794922,4536.794922,4415.512695,4501.922852,0.000000,2.000000,35.000000,,,,0.000000,4.000000,4.000000,4.000000,4.000000,4.000000,4.000000,4.000000,4.000000,4.000000,4.000000,4.000000,4.000000,4.000000,4.000000,100.000000,,,,,,,,,,,,,,,,,,,,,,,,,,,,,,,,,,,,,,,,,,,,,,,,,,,,,,,,,,,,,,,,,,,,,,,,,,,,,,,,,,,,,,,,,,,,,,,,,,,,,,,,,,,,,,,,,,,,,
1768372546.099452,1768372546.100307,50.000000,0.000000,4373.846191,4341.794922,4342.692383,4355.897461,4316.538574,4317.563965,4306.538574,4327.563965,4310.512695,4304.230957,4523.589844,4533.205078,4415.256348,4504.358887,0.000000,2.000000,35.000000,,,,0.000000,4.000000,4.000000,4.000000,4.000000,4.000000,4.000000,4.000000,4.000000,4.000000,4.000000,4.000000,4.000000,4.000000,4.000000,100.000000,,,,,,,,,,,,,,,,,,,,,,,,,,,,,,,,,,,,,,,,,,,,,,,,,,,,,,,,,,,,,,,,,,,,,,,,,,,,,,,,,,,,,,,,,,,,,,,,,,,,,,,,,,,,,,,,,,,,,
1768372546.107260,1768372546.108116,51.000000,0.000000,4375.641113,4339.871582,4344.487305,4356.410156,4319.487305,4325.512695,4312.820313,4329.615234,4309.358887,4301.410156,4522.948730,4537.436035,4415.000000,4501.794922,0.000000,2.000000,35.000000,,,,0.000000,4.000000,4.000000,4.000000,4.000000,4.000000,4.000000,4.000000,4.000000,4.000000,4.000000,4.000000,4.000000,4.000000,4.000000,100.000000,,,,,,,,,,,,,,,,,,,,,,,,,,,,,,,,,,,,,,,,,,,,,,,,,,,,,,,,,,,,,,,,,,,,,,,,,,,,,,,,,,,,,,,,,,,,,,,,,,,,,,,,,,,,,,,,,,,,,
1768372546.115069,1768372546.115724,52.000000,0.000000,4374.102539,4340.641113,4341.410156,4355.769043,4315.256348,4326.025879,4317.692383,4328.974121,4311.025879,4297.692383,4518.846191,4534.743652,4412.948730,4491.794922,0.000000,2.000000,35.000000,,,,0.000000,4.000000,4.000000,4.000000,4.000000,4.000000,4.000000,4.000000,4.000000,4.000000,4.000000,4.000000,4.000000,4.000000,4.000000,100.000000,,,,,,,,,,,,,,,,,,,,,,,,,,,,,,,,,,,,,,,,,,,,,,,,,,,,,,,,,,,,,,,,,,,,,,,,,,,,,,,,,,,,,,,,,,,,,,,,,,,,,,,,,,,,,,,,,,,,,
1768372546.122877,1768372546.123533,53.000000,0.000000,4370.897461,4341.410156,4344.102539,4356.794922,4315.128418,4323.333496,4319.358887,4327.179688,4311.538574,4300.512695,4517.179688,4529.871582,4410.000000,4486.922852,0.000000,2.000000,35.000000,,,,0.000000,4.000000,4.000000,4.000000,4.000000,4.000000,4.000000,4.000000,4.000000,4.000000,4.000000,4.000000,4.000000,4.000000,4.000000,100.000000,,,,,,,,,,,,,,,,,,,,,,,,,,,,,,,,,,,,,,,,,,,,,,,,,,,,,,,,,,,,,,,,,,,,,,,,,,,,,,,,,,,,,,,,,,,,,,,,,,,,,,,,,,,,,,,,,,,,,
1768372546.130685,1768372546.131441,54.000000,0.000000,4370.897461,4342.051270,4352.307617,4357.692383,4321.538574,4327.692383,4322.692383,4330.256348,4311.666504,4306.538574,4522.179688,4541.025879,4412.307617,4496.282227,0.000000,2.000000,35.000000,,,,0.000000,4.000000,4.000000,4.000000,4.000000,4.000000,4.000000,4.000000,4.000000,4.000000,4.000000,4.000000,4.000000,4.000000,4.000000,100.000000,,,,,,,,,,,,,,,,,,,,,,,,,,,,,,,,,,,,,,,,,,,,,,,,,,,,,,,,,,,,,,,,,,,,,,,,,,,,,,,,,,,,,,,,,,,,,,,,,,,,,,,,,,,,,,,,,,,,,
1768372546.138494,1768372546.139250,55.000000,0.000000,4370.897461,4341.538574,4353.077148,4357.051270,4322.051270,4328.846191,4320.769043,4337.692383,4317.820313,4309.102539,4526.282227,4551.025879,4416.922852,4508.974121,0.000000,2.000000,35.000000,,,,0.000000,4.000000,4.000000,4.000000,4.000000,4.000000,4.000000,4.000000,4.000000,4.000000,4.000000,4.000000,4.000000,4.000000,4.000000,100.000000,,,,,,,,,,,,,,,,,,,,,,,,,,,,,,,,,,,,,,,,,,,,,,,,,,,,,,,,,,,,,,,,,,,,,,,,,,,,,,,,,,,,,,,,,,,,,,,,,,,,,,,,,,,,,,,,,,,,,
1768372546.146302,1768372546.146858,56.000000,0.000000,4365.000000,4340.128418,4344.615234,4353.461426,4315.769043,4323.717773,4312.051270,4339.487305,4322.051270,4308.077148,4525.641113,4546.025879,4415.128418,4503.846191,0.000000,2.000000,35.000000,,,,0.000000,4.000000,4.000000,4.000000,4.000000,4.000000,4.000000,4.000000,4.000000,4.000000,4.000000,4.000000,4.000000,4.000000,4.000000,100.000000,,,,,,,,,,,,,,,,,,,,,,,,,,,,,,,,,,,,,,,,,,,,,,,,,,,,,,,,,,,,,,,,,,,,,,,,,,,,,,,,,,,,,,,,,,,,,,,,,,,,,,,,,,,,,,,,,,,,,
1768372546.154111,1768372546.154667,57.000000,0.000000,4361.538574,4339.743652,4342.179688,4349.743652,4315.512695,4323.846191,4308.205078,4334.871582,4318.717773,4306.794922,4525.769043,4542.436035,4413.589844,4493.589844,0.000000,2.000000,35.000000,,,,0.000000,4.000000,4.000000,4.000000,4.000000,4.000000,4.000000,4.000000,4.000000,4.000000,4.000000,4.000000,4.000000,4.000000,4.000000,100.000000,,,,,,,,,,,,,,,,,,,,,,,,,,,,,,,,,,,,,,,,,,,,,,,,,,,,,,,,,,,,,,,,,,,,,,,,,,,,,,,,,,,,,,,,,,,,,,,,,,,,,,,,,,,,,,,,,,,,,
1768372546.161919,1768372546.162375,58.000000,0.000000,4368.461426,4341.538574,4349.230957,4351.666504,4320.000000,4326.538574,4313.333496,4331.794922,4313.589844,4305.897461,4526.025879,4544.230957,4416.922852,4498.974121,0.000000,2.000000,35.000000,,,,0.000000,4.000000,4.000000,4.000000,4.000000,4.000000,4.000000,4.000000,4.000000,4.000000,4.000000,4.000000,4.000000,4.000000,4.000000,100.000000,,,,,,,,,,,,,,,,,,,,,,,,,,,,,,,,,,,,,,,,,,,,,,,,,,,,,,,,,,,,,,,,,,,,,,,,,,,,,,,,,,,,,,,,,,,,,,,,,,,,,,,,,,,,,,,,,,,,,
1768372546.169728,1768372546.170184,59.000000,0.000000,4374.487305,4342.307617,4357.820313,4357.820313,4322.692383,4327.948730,4323.205078,4335.128418,4311.410156,4307.436035,4524.743652,4547.051270,4415.128418,4501.922852,0.000000,2.000000,35.000000,,,,0.000000,4.000000,4.000000,4.000000,4.000000,4.000000,4.000000,4.000000,4.000000,4.000000,4.000000,4.000000,4.000000,4.000000,4.000000,100.000000,,,,,,,,,,,,,,,,,,,,,,,,,,,,,,,,,,,,,,,,,,,,,,,,,,,,,,,,,,,,,,,,,,,,,,,,,,,,,,,,,,,,,,,,,,,,,,,,,,,,,,,,,,,,,,,,,,,,,
1768372546.177536,1768372546.177792,60.000000,0.000000,4369.743652,4342.307617,4357.948730,4359.487305,4324.743652,4329.871582,4324.230957,4338.077148,4314.615234,4307.692383,4525.256348,4546.794922,4415.641113,4494.358887,0.000000,2.000000,35.000000,,,,0.000000,4.000000,4.000000,4.000000,4.000000,4.000000,4.000000,4.000000,4.000000,4.000000,4.000000,4.000000,4.000000,4.000000,4.000000,100.000000,,,,,,,,,,,,,,,,,,,,,,,,,,,,,,,,,,,,,,,,,,,,,,,,,,,,,,,,,,,,,,,,,,,,,,,,,,,,,,,,,,,,,,,,,,,,,,,,,,,,,,,,,,,,,,,,,,,,,
1768372546.185345,1768372546.185601,61.000000,0.000000,4367.051270,4342.436035,4352.692383,4354.358887,4322.436035,4326.153809,4313.589844,4333.333496,4315.641113,4309.230957,4525.769043,4542.948730,4421.538574,4494.487305,0.000000,2.000000,35.000000,,,,0.000000,4.000000,4.000000,4.000000,4.000000,4.000000,4.000000,4.000000,4.000000,4.000000,4.000000,4.000000,4.000000,4.000000,4.000000,100.000000,,,,,,,,,,,,,,,,,,,,,,,,,,,,,,,,,,,,,,,,,,,,,,,,,,,,,,,,,,,,,,,,,,,,,,,,,,,,,,,,,,,,,,,,,,,,,,,,,,,,,,,,,,,,,,,,,,,,,
1768372546.193153,1768372546.193509,62.000000,0.000000,4371.282227,4340.641113,4350.897461,4351.153809,4316.922852,4318.461426,4307.436035,4330.512695,4311.666504,4310.000000,4523.717773,4541.666504,4422.307617,4499.358887,0.000000,2.000000,35.000000,,,,0.000000,4.000000,4.000000,4.000000,4.000000,4.000000,4.000000,4.000000,4.000000,4.000000,4.000000,4.000000,4.000000,4.000000,4.000000,100.000000,,,,,,,,,,,,,,,,,,,,,,,,,,,,,,,,,,,,,,,,,,,,,,,,1.378480,0.293016,0.179295,0.228915,0.145926,0.821069,0.262780,0.107618,0.126276,0.061892,1.639017,0.254695,0.111657,0.090041,0.065960,0.732843,0.166005,0.170376,0.103566,0.073168,0.289948,0.206006,0.107542,0.059585,0.053279,0.345110,0.102756,0.100739,0.148816,0.106241,0.512891,0.280613,0.179422,0.248939,0.090226,0.467826,0.297726,0.193666,0.121447,0.084976,0.289974,0.185398,0.135575,0.104215,0.141409,0.297016,0.222245,0.146119,0.170018,0.127067,0.512449,0.142702,0.311230,0.166118,0.153642,0.820971,0.453670,0.424523,0.201674,0.147827,0.773865,0.139666,0.411357,0.195755,0.157057,1.139147,0.437480,0.581136,0.202808,0.086443
1768372546.200961,1768372546.201318,63.000000,0.000000,4368.461426,4339.102539,4350.128418,4353.333496,4320.512695,4321.282227,4312.563965,4334.743652,4313.461426,4307.179688,4525.769043,4545.512695,4423.333496,4497.051270,0.000000,2.000000,35.000000,,,,0.000000,4.000000,4.000000,4.000000,4.000000,4.000000,4.000000,4.000000,4.000000,4.000000,4.000000,4.000000,4.000000,4.000000,4.000000,100.000000,,,,,,,,,,,,,,,,,,,,,,,,,,,,,,,,,,,,,,,,,,,,,,,,,,,,,,,,,,,,,,,,,,,,,,,,,,,,,,,,,,,,,,,,,,,,,,,,,,,,,,,,,,,,,,,,,,,,,
1768372546.208770,1768372546.208926,64.000000,0.000000,4356.666504,4339.358887,4345.000000,4352.307617,4323.717773,4321.282227,4312.563965,4332.307617,4317.436035,4308.589844,4525.128418,4540.512695,4424.487305,4491.153809,4053.000000,2.000000,35.000000,,,,0.000000,4.000000,4.000000,4.000000,4.000000,4.000000,4.000000,4.000000,4.000000,4.000000,4.000000,4.000000,4.000000,4.000000,4.000000,100.000000,,,,,,,,,,,,,,,,,,,,,,,,,,,,,,,,,,,,,,,,,,,,,,,,,,,,,,,,,,,,,,,,,,,,,,,,,,,,,,,,,,,,,,,,,,,,,,,,,,,,,,,,,,,,,,,,,,,,,
1768372546.216578,1768372546.216735,65.000000,0.000000,4353.717773,4340.897461,4337.948730,4349.615234,4316.025879,4313.974121,4307.692383,4326.282227,4312.820313,4311.410156,4522.436035,4532.563965,4421.538574,4490.769043,3974.000000,2.000000,35.000000,,,,0.000000,4.000000,4.000000,4.000000,4.000000,4.000000,4.000000,4.000000,4.000000,4.000000,4.000000,4.000000,4.000000,4.000000,4.000000,100.000000,,,,,,,,,,,,,,,,,,,,,,,,,,,,,,,,,,,,,,,,,,,,,,,,,,,,,,,,,,,,,,,,,,,,,,,,,,,,,,,,,,,,,,,,,,,,,,,,,,,,,,,,,,,,,,,,,,,,,
1768372546.224387,1768372546.224443,66.000000,0.000000,4367.436035,4344.358887,4344.743652,4355.128418,4317.179688,4319.358887,4311.538574,4329.743652,4309.487305,4309.615234,4532.948730,4539.487305,4424.871582,4496.410156,3872.000000,2.000000,35.000000,,,,0.000000,4.000000,4.000000,4.000000,4.000000,4.000000,4.000000,4.000000,4.000000,4.000000,4.000000,4.000000,4.000000,4.000000,4.000000,100.000000,,,,,,,,,,,,,,,,,,,,,,,,,,,,,,,,,,,,,,,,,,,,,,,,,,,,,,,,,,,,,,,,,,,,,,,,,,,,,,,,,,,,,,,,,,,,,,,,,,,,,,,,,,,,,,,,,,,,,
1768372546.232195,1768372546.232252,67.000000,0.000000,4375.384766,4345.256348,4356.153809,4358.205078,4323.077148,4321.666504,4313.846191,4333.077148,4313.077148,4307.948730,4540.128418,4548.205078,4432.051270,4499.615234,3856.000000,2.000000,35.000000,,,,0.000000,4.000000,4.000000,4.000000,4.000000,4.000000,4.000000,4.000000,4.000000,4.000000,4.000000,4.000000,4.000000,4.000000,4.000000,100.000000,,,,,,,,,,,,,,,,,,,,,,,,,,,,,,,,,,,,,,,,,,,,,,,,,,,,,,,,,,,,,,,,,,,,,,,,,,,,,,,,,,,,,,,,,,,,,,,,,,,,,,,,,,,,,,,,,,,,,
1768372546.240004,1768372546.239860,68.000000,0.000000,4366.922852,4342.179688,4351.282227,4352.051270,4317.436035,4310.641113,4307.051270,4327.563965,4311.794922,4306.794922,4527.692383,4543.974121,4426.025879,4493.974121,3784.000000,2.000000,35.000000,,,,0.000000,4.000000,4.000000,4.000000,4.000000,4.000000,4.000000,4.000000,4.000000,4.000000,4.000000,4.000000,4.000000,4.000000,4.000000,100.000000,,,,,,,,,,,,,,,,,,,,,,,,,,,,,,,,,,,,,,,,,,,,,,,,,,,,,,,,,,,,,,,,,,,,,,,,,,,,,,,,,,,,,,,,,,,,,,,,,,,,,,,,,,,,,,,,,,,,,
1768372546.247812,1768372546.247669,69.000000,0.000000,4364.230957,4342.179688,4343.846191,4352.051270,4317.436035,4311.794922,4304.871582,4325.769043,4309.743652,4302.563965,4520.897461,4534.487305,4420.384766,4491.282227,3747.000000,2.000000,35.000000,,,,0.000000,4.000000,4.000000,4.000000,4.000000,4.000000,4.000000,4.000000,4.000000,4.000000,4.000000,4.000000,4.000000,4.000000,4.000000,100.000000,,,,,,,,,,,,,,,,,,,,,,,,,,,,,,,,,,,,,,,,,,,,,,,,,,,,,,,,,,,,,,,,,,,,,,,,,,,,,,,,,,,,,,,,,,,,,,,,,,,,,,,,,,,,,,,,,,,,,
1768372546.255621,1768372546.255377,70.000000,0.000000,4373.846191,4346.025879,4348.974121,4356.025879,4326.025879,4321.282227,4309.487305,4326.153809,4308.846191,4302.179688,4525.897461,4533.974121,4424.230957,4496.025879,3749.000000,2.000000,35.000000,,,,0.000000,4.000000,4.000000,4.000000,4.000000,4.000000,4.000000,4.000000,4.000000,4.000000,4.000000,4.000000,4.000000,4.000000,4.000000,100.000000,,,,,,,,,,,,,,,,,,,,,,,,,,,,,,,,,,,,,,,,,,,,,,,,,,,,,,,,,,,,,,,,,,,,,,,,,,,,,,,,,,,,,,,,,,,,,,,,,,,,,,,,,,,,,,,,,,,,,
1768372546.263429,1768372546.263186,71.000000,0.000000,4375.384766,4345.256348,4353.717773,4351.794922,4324.743652,4322.820313,4311.922852,4320.769043,4306.025879,4304.358887,4524.871582,4539.102539,4425.897461,4494.102539,3765.000000,2.000000,35.000000,,,,0.000000,4.000000,4.000000,4.000000,4.000000,4.000000,4.000000,4.000000,4.000000,4.000000,4.000000,4.000000,4.000000,4.000000,4.000000,100.000000,,,,,,,,,,,,,,,,,,,,,,,,,,,,,,,,,,,,,,,,,,,,,,,,,,,,,,,,,,,,,,,,,,,,,,,,,,,,,,,,,,,,,,,,,,,,,,,,,,,,,,,,,,,,,,,,,,,,,
1768372546.271237,1768372546.271194,72.000000,0.000000,4368.205078,4342.436035,4348.205078,4347.051270,4320.769043,4320.256348,4309.871582,4318.461426,4306.666504,4301.538574,4527.692383,4538.717773,4427.436035,4493.461426,3954.000000,2.000000,35.000000,,,,0.000000,4.000000,4.000000,4.000000,4.000000,4.000000,4.000000,4.000000,4.000000,4.000000,4.000000,4.000000,4.000000,4.000000,4.000000,100.000000,,,,,,,,,,,,,,,,,,,,,,,,,,,,,,,,,,,,,,,,,,,,,,,,,,,,,,,,,,,,,,,,,,,,,,,,,,,,,,,,,,,,,,,,,,,,,,,,,,,,,,,,,,,,,,,,,,,,,
1768372546.279046,1768372546.279002,73.000000,0.000000,4370.641113,4345.769043,4347.179688,4351.410156,4322.436035,4316.282227,4306.410156,4321.282227,4309.871582,4303.846191,4534.358887,4535.000000,4427.820313,4502.051270,3931.000000,2.000000,35.000000,,,,0.000000,4.000000,4.000000,4.000000,4.000000,4.000000,4.000000,4.000000,4.000000,4.000000,4.000000,4.000000,4.000000,4.000000,4.000000,100.000000,,,,,,,,,,,,,,,,,,,,,,,,,,,,,,,,,,,,,,,,,,,,,,,,,,,,,,,,,,,,,,,,,,,,,,,,,,,,,,,,,,,,,,,,,,,,,,,,,,,,,,,,,,,,,,,,,,,,,
1768372546.286854,1768372546.286911,74.000000,0.000000,4377.307617,4348.846191,4349.487305,4356.282227,4323.205078,4320.384766,4309.102539,4323.974121,4310.769043,4310.128418,4531.666504,4536.282227,4428.205078,4505.256348,4390.000000,2.000000,35.000000,,,,0.000000,4.000000,4.000000,4.000000,4.000000,4.000000,4.000000,4.000000,4.000000,4.000000,4.000000,4.000000,4.000000,4.000000,4.000000,100.000000,,,,,,,,,,,,,,,,,,,,,,,,,,,,,,,,,,,,,,,,,,,,,,,,,,,,,,,,,,,,,,,,,,,,,,,,,,,,,,,,,,,,,,,,,,,,,,,,,,,,,,,,,,,,,,,,,,,,,
1768372546.294663,1768372546.294719,75.000000,0.000000,4370.384766,4345.384766,4344.871582,4350.128418,4323.974121,4328.461426,4316.794922,4326.666504,4308.077148,4305.256348,4526.282227,4536.538574,4428.333496,4498.461426,4665.000000,2.000000,35.000000,,,,0.000000,4.000000,4.000000,4.000000,4.000000,4.000000,4.000000,4.000000,4.000000,4.000000,4.000000,4.000000,4.000000,4.000000,4.000000,100.000000,,,,,,,,,,,,,,,,,,,,,,,,,,,,,,,,,,,,,,,,,,,,,,,,,,,,,,,,,,,,,,,,,,,,,,,,,,,,,,,,,,,,,,,,,,,,,,,,,,,,,,,,,,,,,,,,,,,,,
1768372546.302471,1768372546.302728,76.000000,0.000000,4358.846191,4340.000000,4339.230957,4340.897461,4320.769043,4319.230957,4313.205078,4327.051270,4308.461426,4299.358887,4523.589844,4530.384766,4425.641113,4491.153809,5016.000000,2.000000,35.000000,,,,0.000000,4.000000,4.000000,4.000000,4.000000,4.000000,4.000000,4.000000,4.000000,4.000000,4.000000,4.000000,4.000000,4.000000,4.000000,100.000000,,,,,,,,,,,,,,,,,,,,,,,,,,,,,,,,,,,,,,,,,,,,,,,,,,,,,,,,,,,,,,,,,,,,,,,,,,,,,,,,,,,,,,,,,,,,,,,,,,,,,,,,,,,,,,,,,,,,,
1768372546.310280,1768372546.310536,77.000000,0.000000,4360.384766,4337.692383,4339.871582,4340.897461,4316.538574,4307.948730,4302.948730,4326.922852,4312.051270,4306.025879,4528.589844,4530.512695,4425.641113,4491.538574,5422.000000,2.000000,35.000000,,,,0.000000,4.000000,4.000000,4.000000,4.000000,4.000000,4.000000,4.000000,4.000000,4.000000,4.000000,4.000000,4.000000,4.000000,4.000000,100.000000,,,,,,,,,,,,,,,,,,,,,,,,,,,,,,,,,,,,,,,,,,,,,,,,,,,,,,,,,,,,,,,,,,,,,,,,,,,,,,,,,,,,,,,,,,,,,,,,,,,,,,,,,,,,,,,,,,,,,
1768372546.318088,1768372546.318245,78.000000,0.000000,4367.436035,4340.000000,4347.051270,4343.974121,4318.589844,4315.256348,4308.974121,4329.871582,4311.794922,4310.256348,4537.692383,4540.000000,4429.102539,4499.358887,4390.000000,2.000000,35.000000,,,,0.000000,4.000000,4.000000,4.000000,4.000000,4.000000,4.000000,4.000000,4.000000,4.000000,4.000000,4.000000,4.000000,4.000000,4.000000,100.000000,1.000000,100.000000,4.000000,4.000000,4.000000,4.000000,4.000000,4.000000,4.000000,4.000000,4.000000,4.000000,4.000000,4.000000,4.000000,4.000000,,,,,,,,,,,,,,,,,,,,,,,,,,,,,,,,1.289002,0.277258,0.191967,0.213920,0.154392,0.732130,0.247806,0.123249,0.133292,0.064520,1.554810,0.223986,0.126181,0.084718,0.066200,0.661377,0.164950,0.190817,0.108177,0.072937,0.279262,0.209117,0.112563,0.053040,0.052433,0.323832,0.103274,0.111715,0.167729,0.103750,0.461829,0.265965,0.199383,0.261516,0.092181,0.370809,0.359706,0.236105,0.126326,0.082987,0.242663,0.218242,0.155235,0.110000,0.134854,0.281132,0.223860,0.157164,0.156039,0.118055,0.541907,0.131383,0.321979,0.167961,0.146603,0.756181,0.473033,0.462899,0.211262,0.140951,0.825523,0.148824,0.425071,0.190088,0.148608,1.207855,0.420461,0.544548,0.186301,0.090653
1768372546.325897,1768372546.326053,79.000000,0.000000,4366.666504,4341.153809,4354.871582,4342.563965,4322.051270,4324.358887,4321.025879,4332.692383,4314.230957,4308.333496,4540.128418,4549.358887,4430.000000,4509.230957,4665.000000,2.000000,35.000000,,,,0.000000,4.000000,4.000000,4.000000,4.000000,4.000000,4.000000,4.000000,4.000000,4.000000,4.000000,4.000000,4.000000,4.000000,4.000000,100.000000,,,,,,,,,,,,,,,,,,,,,,,,,,,,,,,,,,,,,,,,,,,,,,,,,,,,,,,,,,,,,,,,,,,,,,,,,,,,,,,,,,,,,,,,,,,,,,,,,,,,,,,,,,,,,,,,,,,,,
1768372546.333705,1768372546.334061,80.000000,0.000000,4363.846191,4338.333496,4356.922852,4341.410156,4321.794922,4322.692383,4317.436035,4334.615234,4318.974121,4311.410156,4537.820313,4550.384766,4428.717773,4505.641113,5016.000000,2.000000,35.000000,,,,0.000000,4.000000,4.000000,4.000000,4.000000,4.000000,4.000000,4.000000,4.000000,4.000000,4.000000,4.000000,4.000000,4.000000,4.000000,100.000000,,,,,,,,,,,,,,,,,,,,,,,,,,,,,,,,,,,,,,,,,,,,,,,,,,,,,,,,,,,,,,,,,,,,,,,,,,,,,,,,,,,,,,,,,,,,,,,,,,,,,,,,,,,,,,,,,,,,,
1768372546.341514,1768372546.341870,81.000000,0.000000,4366.025879,4336.538574,4353.589844,4341.410156,4321.025879,4320.000000,4310.769043,4334.487305,4315.641113,4311.922852,4533.333496,4545.128418,4426.666504,4493.461426,5422.000000,2.000000,35.000000,,,,0.000000,4.000000,4.000000,4.000000,4.000000,4.000000,4.000000,4.000000,4.000000,4.000000,4.000000,4.000000,4.000000,4.000000,4.000000,100.000000,,,,,,,,,,,,,,,,,,,,,,,,,,,,,,,,,,,,,,,,,,,,,,,,,,,,,,,,,,,,,,,,,,,,,,,,,,,,,,,,,,,,,,,,,,,,,,,,,,,,,,,,,,,,,,,,,,,,,
1768372546.349322,1768372546.349578,82.000000,0.000000,4372.051270,4340.641113,4356.153809,4343.974121,4321.410156,4322.692383,4315.128418,4328.846191,4306.794922,4305.000000,4523.974121,4542.820313,4419.230957,4493.461426,4390.000000,2.000000,35.000000,,,,0.000000,4.000000,4.000000,4.000000,4.000000,4.000000,4.000000,4.000000,4.000000,4.000000,4.000000,4.000000,4.000000,4.000000,4.000000,100.000000,,,,,,,,,,,,,,,,,,,,,,,,,,,,,,,,,,,,,,,,,,,,,,,,,,,,,,,,,,,,,,,,,,,,,,,,,,,,,,,,,,,,,,,,,,,,,,,,,,,,,,,,,,,,,,,,,,,,,
1768372546.357130,1768372546.357387,83.000000,0.000000,4381.153809,4348.717773,4365.769043,4351.153809,4323.077148,4326.922852,4322.820313,4327.820313,4305.897461,4300.641113,4524.230957,4543.589844,4417.820313,4503.333496,4665.000000,2.000000,35.000000,,,,0.000000,4.000000,4.000000,4.000000,4.000000,4.000000,4.000000,4.000000,4.000000,4.000000,4.000000,4.000000,4.000000,4.000000,4.000000,100.000000,,,,,,,,,,,,,,,,,,,,,,,,,,,,,,,,,,,,,,,,,,,,,,,,,,,,,,,,,,,,,,,,,,,,,,,,,,,,,,,,,,,,,,,,,,,,,,,,,,,,,,,,,,,,,,,,,,,,,
1768372546.364939,1768372546.364995,84.000000,0.000000,4382.307617,4352.436035,4366.410156,4352.051270,4324.871582,4325.128418,4319.487305,4330.128418,4309.615234,4306.025879,4536.794922,4546.410156,4427.948730,4509.615234,5016.000000,2.000000,35.000000,,,,0.000000,4.000000,4.000000,4.000000,4.000000,4.000000,4.000000,4.000000,4.000000,4.000000,4.000000,4.000000,4.000000,4.000000,4.000000,100.000000,,,,,,,,,,,,,,,,,,,,,,,,,,,,,,,,,,,,,,,,,,,,,,,,,,,,,,,,,,,,,,,,,,,,,,,,,,,,,,,,,,,,,,,,,,,,,,,,,,,,,,,,,,,,,,,,,,,,,
1768372546.372747,1768372546.372804,85.000000,0.000000,4374.487305,4346.025879,4358.974121,4343.717773,4324.358887,4322.692383,4309.871582,4327.436035,4310.641113,4312.948730,4541.025879,4549.615234,4430.641113,4505.384766,5422.000000,2.000000,35.000000,,,,0.000000,4.000000,4.000000,4.000000,4.000000,4.000000,4.000000,4.000000,4.000000,4.000000,4.000000,4.000000,4.000000,4.000000,4.000000,100.000000,,,,,,,,,,,,,,,,,,,,,,,,,,,,,,,,,,,,,,,,,,,,,,,,,,,,,,,,,,,,,,,,,,,,,,,,,,,,,,,,,,,,,,,,,,,,,,,,,,,,,,,,,,,,,,,,,,,,,
1768372546.380556,1768372546.380712,86.000000,0.000000,4376.025879,4339.230957,4357.820313,4340.512695,4324.615234,4328.205078,4314.615234,4328.461426,4312.307617,4311.410156,4537.051270,4549.615234,4425.256348,4501.666504,4390.000000,2.000000,35.000000,,,,0.000000,4.000000,4.000000,4.000000,4.000000,4.000000,4.000000,4.000000,4.000000,4.000000,4.000000,4.000000,4.000000,4.000000,4.000000,100.000000,,,,,,,,,,,,,,,,,,,,,,,,,,,,,,,,,,,,,,,,,,,,,,,,,,,,,,,,,,,,,,,,,,,,,,,,,,,,,,,,,,,,,,,,,,,,,,,,,,,,,,,,,,,,,,,,,,,,,
1768372546.388364,1768372546.388521,87.000000,0.000000,4378.461426,4342.307617,4359.487305,4343.461426,4320.641113,4325.384766,4317.820313,4331.922852,4310.000000,4307.563965,4533.717773,4543.589844,4425.512695,4505.256348,4665.000000,2.000000,35.000000,,,,0.000000,4.000000,4.000000,4.000000,4.000000,4.000000,4.000000,4.000000,4.000000,4.000000,4.000000,4.000000,4.000000,4.000000,4.000000,100.000000,,,,,,,,,,,,,,,,,,,,,,,,,,,,,,,,,,,,,,,,,,,,,,,,,,,,,,,,,,,,,,,,,,,,,,,,,,,,,,,,,,,,,,,,,,,,,,,,,,,,,,,,,,,,,,,,,,,,,
1768372546.396173,1768372546.396529,88.000000,0.000000,4369.230957,4343.589844,4356.282227,4342.436035,4315.641113,4321.666504,4313.333496,4329.230957,4312.051270,4308.333496,4534.230957,4541.153809,4427.692383,4508.077148,5016.000000,2.000000,35.000000,,,,0.000000,4.000000,4.000000,4.000000,4.000000,4.000000,4.000000,4.000000,4.000000,4.000000,4.000000,4.000000,4.000000,4.000000,4.000000,100.000000,,,,,,,,,,,,,,,,,,,,,,,,,,,,,,,,,,,,,,,,,,,,,,,,,,,,,,,,,,,,,,,,,,,,,,,,,,,,,,,,,,,,,,,,,,,,,,,,,,,,,,,,,,,,,,,,,,,,,
1768372546.403981,1768372546.404337,89.000000,0.000000,4363.333496,4340.000000,4355.128418,4339.615234,4318.205078,4326.922852,4315.256348,4330.769043,4319.871582,4311.153809,4539.230957,4546.025879,4429.871582,4507.820313,5422.000000,2.000000,35.000000,,,,0.000000,4.000000,4.000000,4.000000,4.000000,4.000000,4.000000,4.000000,4.000000,4.000000,4.000000,4.000000,4.000000,4.000000,4.000000,100.000000,,,,,,,,,,,,,,,,,,,,,,,,,,,,,,,,,,,,,,,,,,,,,,,,,,,,,,,,,,,,,,,,,,,,,,,,,,,,,,,,,,,,,,,,,,,,,,,,,,,,,,,,,,,,,,,,,,,,,
1768372546.411790,1768372546.412046,90.000000,0.000000,4367.692383,4340.256348,4358.205078,4339.615234,4318.205078,4320.384766,4316.410156,4335.000000,4318.333496,4310.897461,4535.769043,4544.615234,4427.436035,4504.102539,4390.000000,2.000000,35.000000,,,,0.000000,4.000000,4.000000,4.000000,4.000000,4.000000,4.000000,4.000000,4.000000,4.000000,4.000000,4.000000,4.000000,4.000000,4.000000,100.000000,,,,,,,,,,,,,,,,,,,,,,,,,,,,,,,,,,,,,,,,,,,,,,,,,,,,,,,,,,,,,,,,,,,,,,,,,,,,,,,,,,,,,,,,,,,,,,,,,,,,,,,,,,,,,,,,,,,,,
1768372546.419598,1768372546.419854,91.000000,0.000000,4368.461426,4340.897461,4356.538574,4335.769043,4312.948730,4310.769043,4309.487305,4330.000000,4310.641113,4305.897461,4523.461426,4537.436035,4416.025879,4495.512695,4665.000000,2.000000,35.000000,,,,0.000000,4.000000,4.000000,4.000000,4.000000,4.000000,4.000000,4.000000,4.000000,4.000000,4.000000,4.000000,4.000000,4.000000,4.000000,100.000000,,,,,,,,,,,,,,,,,,,,,,,,,,,,,,,,,,,,,,,,,,,,,,,,,,,,,,,,,,,,,,,,,,,,,,,,,,,,,,,,,,,,,,,,,,,,,,,,,,,,,,,,,,,,,,,,,,,,,
1768372546.427406,1768372546.427463,92.000000,0.000000,4364.102539,4336.666504,4350.384766,4328.333496,4313.333496,4318.077148,4309.102539,4326.153809,4310.128418,4297.820313,4519.615234,4533.077148,4408.974121,4488.333496,5016.000000,2.000000,35.000000,,,,0.000000,4.000000,4.000000,4.000000,4.000000,4.000000,4.000000,4.000000,4.000000,4.000000,4.000000,4.000000,4.000000,4.000000,4.000000,100.000000,,,,,,,,,,,,,,,,,,,,,,,,,,,,,,,,,,,,,,,,,,,,,,,,,,,,,,,,,,,,,,,,,,,,,,,,,,,,,,,,,,,,,,,,,,,,,,,,,,,,,,,,,,,,,,,,,,,,,
1768372546.435215,1768372546.435271,93.000000,0.000000,4364.102539,4334.743652,4349.230957,4325.256348,4314.102539,4325.512695,4314.358887,4327.563965,4312.436035,4298.589844,4525.128418,4536.025879,4412.820313,4491.794922,5422.000000,2.000000,35.000000,,,,0.000000,4.000000,4.000000,4.000000,4.000000,4.000000,4.000000,4.000000,4.000000,4.000000,4.000000,4.000000,4.000000,4.000000,4.000000,100.000000,,,,,,,,,,,,,,,,,,,,,,,,,,,,,,,,,,,,,,,,,,,,,,,,,,,,,,,,,,,,,,,,,,,,,,,,,,,,,,,,,,,,,,,,,,,,,,,,,,,,,,,,,,,,,,,,,,,,,
1768372546.443023,1768372546.442980,94.000000,0.000000,4365.384766,4337.948730,4350.897461,4326.410156,4309.871582,4318.077148,4310.128418,4325.000000,4309.358887,4305.512695,4525.128418,4540.512695,4415.641113,4494.743652,4390.000000,2.000000,35.000000,,,,0.000000,4.000000,4.000000,4.000000,4.000000,4.000000,4.000000,4.000000,4.000000,4.000000,4.000000,4.000000,4.000000,4.000000,4.000000,100.000000,,,,,,,,,,,,,,,,,,,,,,,,,,,,,,,,,,,,,,,,,,,,,,,,1.110393,0.271812,0.235618,0.196821,0.165907,0.594499,0.215569,0.142386,0.135018,0.067977,1.337058,0.199980,0.152168,0.089197,0.071778,0.539253,0.159446,0.212193,0.110699,0.074044,0.283187,0.203553,0.119188,0.048964,0.050277,0.278994,0.105708,0.127218,0.177129,0.103654,0.394345,0.253018,0.211310,0.263495,0.098994,0.276258,0.399847,0.260989,0.141267,0.086101,0.201124,0.241475,0.169262,0.126229,0.124642,0.257416,0.219051,0.161085,0.151370,0.107105,0.578682,0.128035,0.337131,0.180680,0.138359,0.679764,0.461715,0.475716,0.243846,0.135025,0.819693,0.156218,0.430490,0.202811,0.143972,1.259531,0.370176,0.473720,0.195030,0.096145
1768372546.450832,1768372546.450788,95.000000,0.000000,4369.743652,4338.589844,4351.025879,4327.948730,4308.589844,4311.410156,4307.563965,4320.512695,4308.333496,4301.666504,4521.025879,4538.717773,4412.948730,4490.128418,4665.000000,2.000000,35.000000,,,,0.000000,4.000000,4.000000,4.000000,4.000000,4.000000,4.000000,4.000000,4.000000,4.000000,4.000000,4.000000,4.000000,4.000000,4.000000,100.000000,,,,,,,,,,,,,,,,,,,,,,,,,,,,,,,,,,,,,,,,,,,,,,,,,,,,,,,,,,,,,,,,,,,,,,,,,,,,,,,,,,,,,,,,,,,,,,,,,,,,,,,,,,,,,,,,,,,,,
1768372546.458640,1768372546.458797,96.000000,0.000000,4371.410156,4336.666504,4348.846191,4327.563965,4312.051270,4312.820313,4309.358887,4318.461426,4310.000000,4297.692383,4520.897461,4532.436035,4415.256348,4490.897461,5016.000000,2.000000,35.000000,,,,0.000000,4.000000,4.000000,4.000000,4.000000,4.000000,4.000000,4.000000,4.000000,4.000000,4.000000,4.000000,4.000000,4.000000,4.000000,100.000000,,,,,,,,,,,,,,,,,,,,,,,,,,,,,,,,,,,,,,,,,,,,,,,,,,,,,,,,,,,,,,,,,,,,,,,,,,,,,,,,,,,,,,,,,,,,,,,,,,,,,,,,,,,,,,,,,,,,,
1768372546.466448,1768372546.466605,97.000000,0.000000,4367.563965,4333.717773,4347.948730,4327.307617,4315.512695,4318.589844,4307.179688,4320.769043,4309.871582,4302.563965,4524.102539,4533.205078,4421.282227,4497.692383,5422.000000,2.000000,35.000000,,,,0.000000,4.000000,4.000000,4.000000,4.000000,4.000000,4.000000,4.000000,4.000000,4.000000,4.000000,4.000000,4.000000,4.000000,4.000000,100.000000,,,,,,,,,,,,,,,,,,,,,,,,,,,,,,,,,,,,,,,,,,,,,,,,,,,,,,,,,,,,,,,,,,,,,,,,,,,,,,,,,,,,,,,,,,,,,,,,,,,,,,,,,,,,,,,,,,,,,
1768372546.474257,1768372546.474513,98.000000,0.000000,4364.615234,4331.794922,4347.179688,4327.820313,4316.666504,4326.153809,4308.589844,4323.589844,4309.615234,4303.846191,4525.256348,4538.077148,4419.358887,4497.692383,4390.000000,2.000000,35.000000,,,,0.000000,4.000000,4.000000,4.000000,4.000000,4.000000,4.000000,4.000000,4.000000,4.000000,4.000000,4.000000,4.000000,4.000000,4.000000,100.000000,,,,,,,,,,,,,,,,,,,,,,,,,,,,,,,,,,,,,,,,,,,,,,,,,,,,,,,,,,,,,,,,,,,,,,,,,,,,,,,,,,,,,,,,,,,,,,,,,,,,,,,,,,,,,,,,,,,,,
1768372546.482065,1768372546.482322,99.000000,0.000000,4361.410156,4331.666504,4343.461426,4325.512695,4312.051270,4319.615234,4310.512695,4318.205078,4307.948730,4300.769043,4522.051270,4531.922852,4412.948730,4489.615234,4665.000000,2.000000,35.000000,,,,0.000000,4.000000,4.000000,4.000000,4.000000,4.000000,4.000000,4.000000,4.000000,4.000000,4.000000,4.000000,4.000000,4.000000,4.000000,100.000000,,,,,,,,,,,,,,,,,,,,,,,,,,,,,,,,,,,,,,,,,,,,,,,,,,,,,,,,,,,,,,,,,,,,,,,,,,,,,,,,,,,,,,,,,,,,,,,,,,,,,,,,,,,,,,,,,,,,,
1768372546.489874,1768372546.490330,100.000000,0.000000,4357.307617,4329.615234,4342.692383,4321.794922,4309.487305,4308.205078,4308.461426,4313.846191,4309.230957,4303.461426,4521.282227,4523.846191,4413.205078,4488.461426,5016.000000,2.000000,35.000000,,,,0.000000,4.000000,4.000000,4.000000,4.000000,4.000000,4.000000,4.000000,4.000000,4.000000,4.000000,4.000000,4.000000,4.000000,4.000000,100.000000,,,,,,,,,,,,,,,,,,,,,,,,,,,,,,,,,,,,,,,,,,,,,,,,,,,,,,,,,,,,,,,,,,,,,,,,,,,,,,,,,,,,,,,,,,,,,,,,,,,,,,,,,,,,,,,,,,,,,
1768372546.497682,1768372546.498138,101.000000,0.000000,4354.487305,4329.102539,4345.000000,4323.589844,4314.487305,4316.794922,4309.102539,4322.179688,4312.948730,4308.461426,4525.384766,4526.538574,4420.256348,4492.436035,5422.000000,2.000000,35.000000,,,,0.000000,4.000000,4.000000,4.000000,4.000000,4.000000,4.000000,4.000000,4.000000,4.000000,4.000000,4.000000,4.000000,4.000000,4.000000,100.000000,,,,,,,,,,,,,,,,,,,,,,,,,,,,,,,,,,,,,,,,,,,,,,,,,,,,,,,,,,,,,,,,,,,,,,,,,,,,,,,,,,,,,,,,,,,,,,,,,,,,,,,,,,,,,,,,,,,,,
1768372546.505491,1768372546.506047,102.000000,0.000000,4352.563965,4330.000000,4343.974121,4326.282227,4317.820313,4327.692383,4311.794922,4328.461426,4313.077148,4307.051270,4526.153809,4532.051270,4424.230957,4491.538574,4390.000000,2.000000,35.000000,,,,0.000000,4.000000,4.000000,4.000000,4.000000,4.000000,4.000000,4.000000,4.000000,4.000000,4.000000,4.000000,4.000000,4.000000,4.000000,100.000000,,,,,,,,,,,,,,,,,,,,,,,,,,,,,,,,,,,,,,,,,,,,,,,,,,,,,,,,,,,,,,,,,,,,,,,,,,,,,,,,,,,,,,,,,,,,,,,,,,,,,,,,,,,,,,,,,,,,,
1768372546.513299,1768372546.513855,103.000000,0.000000,4356.153809,4331.282227,4346.666504,4325.256348,4316.025879,4320.384766,4309.102539,4321.410156,4310.641113,4304.230957,4524.487305,4535.384766,4427.436035,4491.153809,4665.000000,2.000000,35.000000,,,,0.000000,4.000000,4.000000,4.000000,4.000000,4.000000,4.000000,4.000000,4.000000,4.000000,4.000000,4.000000,4.000000,4.000000,4.000000,100.000000,,,,,,,,,,,,,,,,,,,,,,,,,,,,,,,,,,,,,,,,,,,,,,,,,,,,,,,,,,,,,,,,,,,,,,,,,,,,,,,,,,,,,,,,,,,,,,,,,,,,,,,,,,,,,,,,,,,,,
1768372546.521108,1768372546.521564,104.000000,0.000000,4363.717773,4334.871582,4356.666504,4324.871582,4313.717773,4312.948730,4303.846191,4314.487305,4309.358887,4300.384766,4523.589844,4533.846191,4424.871582,4493.077148,5016.000000,2.000000,35.000000,,,,0.000000,4.000000,4.000000,4.000000,4.000000,4.000000,4.000000,4.000000,4.000000,4.000000,4.000000,4.000000,4.000000,4.000000,4.000000,100.000000,,,,,,,,,,,,,,,,,,,,,,,,,,,,,,,,,,,,,,,,,,,,,,,,,,,,,,,,,,,,,,,,,,,,,,,,,,,,,,,,,,,,,,,,,,,,,,,,,,,,,,,,,,,,,,,,,,,,,
1768372546.528916,1768372546.529372,105.000000,0.000000,4360.897461,4335.128418,4358.461426,4326.025879,4313.717773,4318.461426,4303.974121,4317.820313,4307.820313,4296.153809,4521.025879,4530.769043,4415.000000,4490.897461,5422.000000,2.000000,35.000000,,,,0.000000,4.000000,4.000000,4.000000,4.000000,4.000000,4.000000,4.000000,4.000000,4.000000,4.000000,4.000000,4.000000,4.000000,4.000000,100.000000,,,,,,,,,,,,,,,,,,,,,,,,,,,,,,,,,,,,,,,,,,,,,,,,,,,,,,,,,,,,,,,,,,,,,,,,,,,,,,,,,,,,,,,,,,,,,,,,,,,,,,,,,,,,,,,,,,,,,
1768372546.536724,1768372546.537081,106.000000,0.000000,4355.256348,4329.102539,4351.153809,4325.512695,4312.948730,4321.282227,4305.641113,4321.794922,4306.922852,4293.974121,4520.000000,4530.512695,4411.282227,4489.615234,4390.000000,2.000000,35.000000,,,,0.000000,4.000000,4.000000,4.000000,4.000000,4.000000,4.000000,4.000000,4.000000,4.000000,4.000000,4.000000,4.000000,4.000000,4.000000,100.000000,,,,,,,,,,,,,,,,,,,,,,,,,,,,,,,,,,,,,,,,,,,,,,,,,,,,,,,,,,,,,,,,,,,,,,,,,,,,,,,,,,,,,,,,,,,,,,,,,,,,,,,,,,,,,,,,,,,,,
1768372546.544533,1768372546.544889,107.000000,0.000000,4361.282227,4326.282227,4348.974121,4322.307617,4310.769043,4319.487305,4306.410156,4313.717773,4304.743652,4292.820313,4518.974121,4530.384766,4410.256348,4489.358887,4665.000000,2.000000,35.000000,,,,0.000000,4.000000,4.000000,4.000000,4.000000,4.000000,4.000000,4.000000,4.000000,4.000000,4.000000,4.000000,4.000000,4.000000,4.000000,100.000000,,,,,,,,,,,,,,,,,,,,,,,,,,,,,,,,,,,,,,,,,,,,,,,,,,,,,,,,,,,,,,,,,,,,,,,,,,,,,,,,,,,,,,,,,,,,,,,,,,,,,,,,,,,,,,,,,,,,,
1768372546.552341,1768372546.552498,108.000000,0.000000,4366.922852,4330.897461,4354.102539,4321.666504,4311.794922,4322.307617,4310.256348,4312.051270,4304.102539,4296.025879,4518.077148,4531.282227,4410.769043,4491.410156,5016.000000,2.000000,35.000000,,,,0.000000,4.000000,4.000000,4.000000,4.000000,4.000000,4.000000,4.000000,4.000000,4.000000,4.000000,4.000000,4.000000,4.000000,4.000000,100.000000,,,,,,,,,,,,,,,,,,,,,,,,,,,,,,,,,,,,,,,,,,,,,,,,,,,,,,,,,,,,,,,,,,,,,,,,,,,,,,,,,,,,,,,,,,,,,,,,,,,,,,,,,,,,,,,,,,,,,
1768372546.560150,1768372546.560306,109.000000,0.000000,4368.589844,4336.922852,4359.358887,4325.384766,4311.282227,4320.384766,4310.000000,4325.897461,4317.436035,4307.948730,4529.102539,4538.717773,4421.794922,4500.256348,5422.000000,2.000000,35.000000,,,,0.000000,4.000000,4.000000,4.000000,4.000000,4.000000,4.000000,4.000000,4.000000,4.000000,4.000000,4.000000,4.000000,4.000000,4.000000,100.000000,,,,,,,,,,,,,,,,,,,,,,,,,,,,,,,,,,,,,,,,,,,,,,,,,,,,,,,,,,,,,,,,,,,,,,,,,,,,,,,,,,,,,,,,,,,,,,,,,,,,,,,,,,,,,,,,,,,,,
1768372546.567958,1768372546.568015,110.000000,0.000000,4373.589844,4343.589844,4360.512695,4329.487305,4311.153809,4315.256348,4306.538574,4331.538574,4328.205078,4319.871582,4543.205078,4547.820313,4434.102539,4509.871582,4390.000000,2.000000,35.000000,,,,0.000000,4.000000,4.000000,4.000000,4.000000,4.000000,4.000000,4.000000,4.000000,4.000000,4.000000,4.000000,4.000000,4.000000,4.000000,100.000000,,,,,,,,,,,,,,,,,,,,,,,,,,,,,,,,,,,,,,,,,,,,,,,,0.881251,0.283383,0.310052,0.182089,0.177154,0.436525,0.173622,0.164671,0.130431,0.069681,1.064753,0.191839,0.185802,0.102897,0.081353,0.391586,0.149561,0.228579,0.110111,0.076117,0.292235,0.186645,0.122781,0.046362,0.047537,0.229141,0.105877,0.139480,0.171949,0.103425,0.333242,0.234397,0.211478,0.254415,0.107783,0.215073,0.405347,0.258061,0.161894,0.090991,0.184186,0.245685,0.179967,0.148537,0.112887,0.236267,0.208426,0.156600,0.154529,0.095818,0.593580,0.129768,0.349035,0.202170,0.125655,0.615255,0.421242,0.453907,0.289382,0.128971,0.739643,0.158251,0.424747,0.226243,0.140496,1.244954,0.300961,0.395783,0.225736,0.102726
1768372546.575767,1768372546.575823,111.000000,0.000000,4376.025879,4345.641113,4357.692383,4329.743652,4317.051270,4319.487305,4308.205078,4324.487305,4319.871582,4317.563965,4542.692383,4549.358887,4432.436035,4510.769043,4665.000000,2.000000,35.000000,,,,0.000000,4.000000,4.000000,4.000000,4.000000,4.000000,4.000000,4.000000,4.000000,4.000000,4.000000,4.000000,4.000000,4.000000,4.000000,100.000000,,,,,,,,,,,,,,,,,,,,,,,,,,,,,,,,,,,,,,,,,,,,,,,,,,,,,,,,,,,,,,,,,,,,,,,,,,,,,,,,,,,,,,,,,,,,,,,,,,,,,,,,,,,,,,,,,,,,,
1768372546.583575,1768372546.583432,112.000000,0.000000,4372.307617,4341.410156,4357.563965,4328.333496,4320.256348,4325.897461,4312.563965,4327.179688,4311.282227,4310.641113,4536.538574,4545.128418,4426.666504,4506.922852,5016.000000,2.000000,35.000000,,,,0.000000,4.000000,4.000000,4.000000,4.000000,4.000000,4.000000,4.000000,4.000000,4.000000,4.000000,4.000000,4.000000,4.000000,4.000000,100.000000,,,,,,,,,,,,,,,,,,,,,,,,,,,,,,,,,,,,,,,,,,,,,,,,,,,,,,,,,,,,,,,,,,,,,,,,,,,,,,,,,,,,,,,,,,,,,,,,,,,,,,,,,,,,,,,,,,,,,
1768372546.591384,1768372546.591240,113.000000,0.000000,4367.307617,4336.922852,4359.102539,4326.922852,4314.102539,4322.820313,4312.563965,4336.538574,4317.051270,4311.410156,4538.333496,4542.820313,4430.128418,4507.692383,5422.000000,2.000000,35.000000,,,,0.000000,4.000000,4.000000,4.000000,4.000000,4.000000,4.000000,4.000000,4.000000,4.000000,4.000000,4.000000,4.000000,4.000000,4.000000,100.000000,,,,,,,,,,,,,,,,,,,,,,,,,,,,,,,,,,,,,,,,,,,,,,,,,,,,,,,,,,,,,,,,,,,,,,,,,,,,,,,,,,,,,,,,,,,,,,,,,,,,,,,,,,,,,,,,,,,,,
1768372546.599192,1768372546.599149,114.000000,0.000000,4359.615234,4333.205078,4354.230957,4321.922852,4308.205078,4316.410156,4310.000000,4332.179688,4321.282227,4312.436035,4537.948730,4543.846191,4431.282227,4505.897461,4390.000000,2.000000,35.000000,,,,0.000000,4.000000,4.000000,4.000000,4.000000,4.000000,4.000000,4.000000,4.000000,4.000000,4.000000,4.000000,4.000000,4.000000,4.000000,100.000000,,,,,,,,,,,,,,,,,,,,,,,,,,,,,,,,,,,,,,,,,,,,,,,,,,,,,,,,,,,,,,,,,,,,,,,,,,,,,,,,,,,,,,,,,,,,,,,,,,,,,,,,,,,,,,,,,,,,,
1768372546.607000,1768372546.606957,115.000000,0.000000,4356.666504,4330.769043,4352.563965,4319.615234,4308.717773,4317.820313,4310.384766,4321.666504,4315.512695,4310.384766,4527.563965,4539.615234,4421.025879,4497.563965,4665.000000,2.000000,35.000000,,,,0.000000,4.000000,4.000000,4.000000,4.000000,4.000000,4.000000,4.000000,4.000000,4.000000,4.000000,4.000000,4.000000,4.000000,4.000000,100.000000,,,,,,,,,,,,,,,,,,,,,,,,,,,,,,,,,,,,,,,,,,,,,,,,,,,,,,,,,,,,,,,,,,,,,,,,,,,,,,,,,,,,,,,,,,,,,,,,,,,,,,,,,,,,,,,,,,,,,
