title:apple_26, start timestamp:1768372342.228895, stop timestamp:1768372372.806755, headset type:EPOCX, headset serial:E5020E3B, headset firmware:730, channels:156, sampling rate:eeg_128;pm_0.1;pow_8, samples:3917      , version:2.2, 
Timestamp,OriginalTimestamp,EEG.Counter,EEG.Interpolated,EEG.AF3,EEG.F7,EEG.F3,EEG.FC5,EEG.T7,EEG.P7,EEG.O1,EEG.O2,EEG.P8,EEG.T8,EEG.FC6,EEG.F4,EEG.F8,EEG.AF4,EEG.RawCq,EEG.Battery,EEG.BatteryPercent,MarkerIndex,MarkerType,MarkerValueInt,EEG.MarkerHardware,CQ.AF3,CQ.F7,CQ.F3,CQ.FC5,CQ.T7,CQ.P7,CQ.O1,CQ.O2,CQ.P8,CQ.T8,CQ.FC6,CQ.F4,CQ.F8,CQ.AF4,CQ.Overall,EQ.SampleRateQuality,EQ.OVERALL,EQ.AF3,EQ.F7,EQ.F3,EQ.FC5,EQ.T7,EQ.P7,EQ.O1,EQ.O2,EQ.P8,EQ.T8,EQ.FC6,EQ.F4,EQ.F8,EQ.AF4,PM.Attention.IsActive,PM.Attention.Scaled,PM.Attention.Raw,PM.Attention.Min,PM.Attention.Max,PM.Engagement.IsActive,PM.Engagement.Scaled,PM.Engagement.Raw,PM.Engagement.Min,PM.Engagement.Max,PM.Excitement.IsActive,PM.Excitement.Scaled,PM.Excitement.Raw,PM.Excitement.Min,PM.Excitement.Max,PM.LongTermExcitement,PM.Stress.IsActive,PM.Stress.Scaled,PM.Stress.Raw,PM.Stress.Min,PM.Stress.Max,PM.Relaxation.IsActive,PM.Relaxation.Scaled,PM.Relaxation.Raw,PM.Relaxation.Min,PM.Relaxation.Max,PM.Interest.IsActive,PM.Interest.Scaled,PM.Interest.Raw,PM.Interest.Min,PM.Interest.Max,POW.AF3.Theta,POW.AF3.Alpha,POW.AF3.BetaL,POW.AF3.BetaH,POW.AF3.Gamma,POW.F7.Theta,POW.F7.Alpha,POW.F7.BetaL,POW.F7.BetaH,POW.F7.Gamma,POW.F3.Theta,POW.F3.Alpha,POW.F3.BetaL,POW.F3.BetaH,POW.F3.Gamma,POW.FC5.Theta,POW.FC5.Alpha,POW.FC5.BetaL,POW.FC5.BetaH,POW.FC5.Gamma,POW.T7.Theta,POW.T7.Alpha,POW.T7.BetaL,POW.T7.BetaH,POW.T7.Gamma,POW.P7.Theta,POW.P7.Alpha,POW.P7.BetaL,POW.P7.BetaH,POW.P7.Gamma,POW.O1.Theta,POW.O1.Alpha,POW.O1.BetaL,POW.O1.BetaH,POW.O1.Gamma,POW.O2.Theta,POW.O2.Alpha,POW.O2.BetaL,POW.O2.BetaH,POW.O2.Gamma,POW.P8.Theta,POW.P8.Alpha,POW.P8.BetaL,POW.P8.BetaH,POW.P8.Gamma,POW.T8.Theta,POW.T8.Alpha,POW.T8.BetaL,POW.T8.BetaH,POW.T8.Gamma,POW.FC6.Theta,POW.FC6.Alpha,POW.FC6.BetaL,POW.FC6.BetaH,POW.FC6.Gamma,POW.F4.Theta,POW.F4.Alpha,POW.F4.BetaL,POW.F4.BetaH,POW.F4.Gamma,POW.F8.Theta,POW.F8.Alpha,POW.F8.BetaL,POW.F8.BetaH,POW.F8.Gamma,POW.AF4.Theta,POW.AF4.Alpha,POW.AF4.BetaL,POW.AF4.BetaH,POW.AF4.Gamma
1768372342.228895,1768372342.229465,53.000000,0.000000,4315.897461,4318.717773,4351.794922,4350.769043,4312.051270,4326.153809,4327.179688,4324.615234,4311.538574,4299.871582,4510.128418,4532.307617,4393.461426,4458.589844,0.000000,2.000000,36.000000,,,,0.000000,4.000000,4.000000,4.000000,4.000000,4.000000,4.000000,4.000000,4.000000,4.000000,4.000000,4.000000,4.000000,4.000000,4.000000,100.000000,,,,,,,,,,,,,,,,,,,,,,,,,,,,,,,,,,,,,,,,,,,,,,,,,,,,,,,,,,,,,,,,,,,,,,,,,,,,,,,,,,,,,,,,,,,,,,,,,,,,,,,,,,,,,,,,,,,,,
1768372342.236703,1768372342.237373,54.000000,0.000000,4323.205078,4320.256348,4352.692383,4350.384766,4314.358887,4327.820313,4323.205078,4328.077148,4312.948730,4293.589844,4512.436035,4531.794922,4396.153809,4459.230957,0.000000,2.000000,36.000000,,,,0.000000,4.000000,4.000000,4.000000,4.000000,4.000000,4.000000,4.000000,4.000000,4.000000,4.000000,4.000000,4.000000,4.000000,4.000000,100.000000,,,,,,,,,,,,,,,,,,,,,,,,,,,,,,,,,,,,,,,,,,,,,,,,,,,,,,,,,,,,,,,,,,,,,,,,,,,,,,,,,,,,,,,,,,,,,,,,,,,,,,,,,,,,,,,,,,,,,
1768372342.244512,1768372342.245182,55.000000,0.000000,4327.820313,4317.820313,4355.256348,4351.538574,4313.461426,4323.717773,4318.846191,4324.743652,4309.871582,4293.461426,4508.333496,4531.666504,4396.538574,4462.436035,0.000000,2.000000,36.000000,,,,0.000000,4.000000,4.000000,4.000000,4.000000,4.000000,4.000000,4.000000,4.000000,4.000000,4.000000,4.000000,4.000000,4.000000,4.000000,100.000000,,,,,,,,,,,,,,,,,,,,,,,,,,,,,,,,,,,,,,,,,,,,,,,,,,,,,,,,,,,,,,,,,,,,,,,,,,,,,,,,,,,,,,,,,,,,,,,,,,,,,,,,,,,,,,,,,,,,,
1768372342.252320,1768372342.253190,56.000000,0.000000,4331.282227,4323.205078,4360.256348,4355.897461,4316.410156,4324.743652,4320.384766,4321.025879,4309.102539,4302.051270,4509.871582,4540.128418,4395.641113,4470.384766,0.000000,2.000000,36.000000,,,,0.000000,4.000000,4.000000,4.000000,4.000000,4.000000,4.000000,4.000000,4.000000,4.000000,4.000000,4.000000,4.000000,4.000000,4.000000,100.000000,,,,,,,,,,,,,,,,,,,,,,,,,,,,,,,,,,,,,,,,,,,,,,,,,,,,,,,,,,,,,,,,,,,,,,,,,,,,,,,,,,,,,,,,,,,,,,,,,,,,,,,,,,,,,,,,,,,,,
1768372342.260129,1768372342.260998,57.000000,0.000000,4332.436035,4327.948730,4359.102539,4359.358887,4320.641113,4326.410156,4320.897461,4322.692383,4312.179688,4304.230957,4518.333496,4541.538574,4398.974121,4475.897461,0.000000,2.000000,36.000000,,,,0.000000,4.000000,4.000000,4.000000,4.000000,4.000000,4.000000,4.000000,4.000000,4.000000,4.000000,4.000000,4.000000,4.000000,4.000000,100.000000,,,,,,,,,,,,,,,,,,,,,,,,,,,,,,,,,,,,,,,,,,,,,,,,,,,,,,,,,,,,,,,,,,,,,,,,,,,,,,,,,,,,,,,,,,,,,,,,,,,,,,,,,,,,,,,,,,,,,
1768372342.267937,1768372342.268907,58.000000,0.000000,4332.179688,4324.358887,4357.692383,4357.820313,4322.051270,4322.692383,4315.384766,4323.717773,4311.538574,4297.563965,4519.230957,4535.769043,4399.615234,4473.717773,0.000000,2.000000,36.000000,,,,0.000000,4.000000,4.000000,4.000000,4.000000,4.000000,4.000000,4.000000,4.000000,4.000000,4.000000,4.000000,4.000000,4.000000,4.000000,100.000000,,,,,,,,,,,,,,,,,,,,,,,,,,,,,,,,,,,,,,,,,,,,,,,,,,,,,,,,,,,,,,,,,,,,,,,,,,,,,,,,,,,,,,,,,,,,,,,,,,,,,,,,,,,,,,,,,,,,,
1768372342.275746,1768372342.276715,59.000000,0.000000,4333.461426,4322.692383,4358.846191,4355.897461,4319.615234,4321.410156,4310.256348,4318.717773,4309.230957,4298.077148,4515.000000,4536.794922,4395.128418,4472.436035,0.000000,2.000000,36.000000,,,,0.000000,4.000000,4.000000,4.000000,4.000000,4.000000,4.000000,4.000000,4.000000,4.000000,4.000000,4.000000,4.000000,4.000000,4.000000,100.000000,,,,,,,,,,,,,,,,,,,,,,,,,,,,,,,,,,,,,,,,,,,,,,,,,,,,,,,,,,,,,,,,,,,,,,,,,,,,,,,,,,,,,,,,,,,,,,,,,,,,,,,,,,,,,,,,,,,,,
1768372342.283554,1768372342.284324,60.000000,0.000000,4335.512695,4325.512695,4358.205078,4357.051270,4316.025879,4323.461426,4311.538574,4313.589844,4310.641113,4301.922852,4518.717773,4541.794922,4399.487305,4475.256348,0.000000,2.000000,36.000000,,,,0.000000,4.000000,4.000000,4.000000,4.000000,4.000000,4.000000,4.000000,4.000000,4.000000,4.000000,4.000000,4.000000,4.000000,4.000000,100.000000,,,,,,,,,,,,,,,,,,,,,,,,,,,,,,,,,,,,,,,,,,,,,,,,,,,,,,,,,,,,,,,,,,,,,,,,,,,,,,,,,,,,,,,,,,,,,,,,,,,,,,,,,,,,,,,,,,,,,
1768372342.291362,1768372342.292132,61.000000,0.000000,4338.461426,4327.948730,4359.871582,4358.717773,4316.538574,4325.384766,4313.717773,4316.538574,4312.051270,4300.256348,4523.717773,4543.461426,4409.743652,4479.230957,0.000000,2.000000,36.000000,,,,0.000000,4.000000,4.000000,4.000000,4.000000,4.000000,4.000000,4.000000,4.000000,4.000000,4.000000,4.000000,4.000000,4.000000,4.000000,100.000000,,,,,,,,,,,,,,,,,,,,,,,,,,,,,,,,,,,,,,,,,,,,,,,,,,,,,,,,,,,,,,,,,,,,,,,,,,,,,,,,,,,,,,,,,,,,,,,,,,,,,,,,,,,,,,,,,,,,,
1768372342.299171,1768372342.299841,62.000000,0.000000,4338.077148,4326.538574,4359.230957,4356.153809,4316.025879,4325.769043,4312.436035,4316.410156,4306.538574,4298.205078,4521.282227,4539.615234,4406.794922,4477.307617,0.000000,2.000000,36.000000,,,,0.000000,4.000000,4.000000,4.000000,4.000000,4.000000,4.000000,4.000000,4.000000,4.000000,4.000000,4.000000,4.000000,4.000000,4.000000,100.000000,,,,,,,,,,,,,,,,,,,,,,,,,,,,,,,,,,,,,,,,,,,,,,,,0.241246,0.209112,0.251316,0.287162,0.153636,0.764793,0.251847,0.203182,0.124965,0.092780,0.402755,0.060645,0.250884,0.227179,0.107420,0.244505,0.150324,0.234983,0.123787,0.128562,0.102861,0.071434,0.129786,0.069945,0.058639,0.120562,0.142407,0.161296,0.088275,0.121420,0.212202,0.088888,0.247387,0.140154,0.150508,0.197041,0.276080,0.086577,0.138366,0.173177,0.129228,0.204267,0.126871,0.132958,0.222162,0.173706,0.303855,0.242804,0.234069,0.176617,0.196528,0.209189,0.272861,0.203341,0.106058,0.648535,0.281827,0.220680,0.210176,0.146668,0.296063,0.217946,0.209404,0.219930,0.156090,0.471257,0.375110,0.426746,0.435813,0.268407
1768372342.306979,1768372342.307649,63.000000,0.000000,4337.051270,4324.487305,4357.051270,4352.436035,4312.307617,4323.589844,4311.410156,4316.025879,4308.846191,4297.563965,4522.563965,4538.077148,4401.410156,4475.512695,0.000000,2.000000,36.000000,,,,0.000000,4.000000,4.000000,4.000000,4.000000,4.000000,4.000000,4.000000,4.000000,4.000000,4.000000,4.000000,4.000000,4.000000,4.000000,100.000000,,,,,,,,,,,,,,,,,,,,,,,,,,,,,,,,,,,,,,,,,,,,,,,,,,,,,,,,,,,,,,,,,,,,,,,,,,,,,,,,,,,,,,,,,,,,,,,,,,,,,,,,,,,,,,,,,,,,,
1768372342.314788,1768372342.315258,64.000000,0.000000,4338.333496,4324.230957,4357.307617,4354.615234,4311.410156,4323.205078,4312.563965,4324.615234,4322.436035,4298.205078,4525.512695,4545.641113,4408.205078,4481.025879,4054.000000,2.000000,36.000000,,,,0.000000,4.000000,4.000000,4.000000,4.000000,4.000000,4.000000,4.000000,4.000000,4.000000,4.000000,4.000000,4.000000,4.000000,4.000000,100.000000,,,,,,,,,,,,,,,,,,,,,,,,,,,,,,,,,,,,,,,,,,,,,,,,,,,,,,,,,,,,,,,,,,,,,,,,,,,,,,,,,,,,,,,,,,,,,,,,,,,,,,,,,,,,,,,,,,,,,
1768372342.322596,1768372342.323066,65.000000,0.000000,4335.384766,4322.179688,4357.563965,4356.666504,4312.436035,4327.563965,4312.179688,4325.384766,4319.871582,4301.025879,4524.102539,4549.487305,4411.794922,4482.051270,3979.000000,2.000000,36.000000,,,,0.000000,4.000000,4.000000,4.000000,4.000000,4.000000,4.000000,4.000000,4.000000,4.000000,4.000000,4.000000,4.000000,4.000000,4.000000,100.000000,,,,,,,,,,,,,,,,,,,,,,,,,,,,,,,,,,,,,,,,,,,,,,,,,,,,,,,,,,,,,,,,,,,,,,,,,,,,,,,,,,,,,,,,,,,,,,,,,,,,,,,,,,,,,,,,,,,,,
1768372342.330405,1768372342.330775,66.000000,0.000000,4333.205078,4320.384766,4356.153809,4355.256348,4310.128418,4329.487305,4313.717773,4317.307617,4309.102539,4306.794922,4523.846191,4544.230957,4409.615234,4476.794922,3887.000000,2.000000,36.000000,,,,0.000000,4.000000,4.000000,4.000000,4.000000,4.000000,4.000000,4.000000,4.000000,4.000000,4.000000,4.000000,4.000000,4.000000,4.000000,100.000000,,,,,,,,,,,,,,,,,,,,,,,,,,,,,,,,,,,,,,,,,,,,,,,,,,,,,,,,,,,,,,,,,,,,,,,,,,,,,,,,,,,,,,,,,,,,,,,,,,,,,,,,,,,,,,,,,,,,,
1768372342.338213,1768372342.338583,67.000000,0.000000,4336.538574,4321.666504,4357.563965,4355.641113,4310.897461,4327.051270,4315.769043,4316.538574,4313.846191,4308.205078,4524.743652,4545.641113,4410.000000,4478.333496,3861.000000,2.000000,36.000000,,,,0.000000,4.000000,4.000000,4.000000,4.000000,4.000000,4.000000,4.000000,4.000000,4.000000,4.000000,4.000000,4.000000,4.000000,4.000000,100.000000,,,,,,,,,,,,,,,,,,,,,,,,,,,,,,,,,,,,,,,,,,,,,,,,,,,,,,,,,,,,,,,,,,,,,,,,,,,,,,,,,,,,,,,,,,,,,,,,,,,,,,,,,,,,,,,,,,,,,
1768372342.346022,1768372342.346592,68.000000,0.000000,4333.461426,4322.948730,4360.000000,4356.922852,4314.102539,4327.307617,4313.717773,4322.307617,4319.102539,4303.461426,4524.358887,4547.820313,4408.461426,4481.153809,3775.000000,2.000000,36.000000,,,,0.000000,4.000000,4.000000,4.000000,4.000000,4.000000,4.000000,4.000000,4.000000,4.000000,4.000000,4.000000,4.000000,4.000000,4.000000,100.000000,,,,,,,,,,,,,,,,,,,,,,,,,,,,,,,,,,,,,,,,,,,,,,,,,,,,,,,,,,,,,,,,,,,,,,,,,,,,,,,,,,,,,,,,,,,,,,,,,,,,,,,,,,,,,,,,,,,,,
1768372342.353830,1768372342.354400,69.000000,0.000000,4325.769043,4319.358887,4356.025879,4353.846191,4312.307617,4327.692383,4311.794922,4321.410156,4311.538574,4298.333496,4522.820313,4541.538574,4404.230957,4476.153809,3747.000000,2.000000,36.000000,,,,0.000000,4.000000,4.000000,4.000000,4.000000,4.000000,4.000000,4.000000,4.000000,4.000000,4.000000,4.000000,4.000000,4.000000,4.000000,100.000000,,,,,,,,,,,,,,,,,,,,,,,,,,,,,,,,,,,,,,,,,,,,,,,,,,,,,,,,,,,,,,,,,,,,,,,,,,,,,,,,,,,,,,,,,,,,,,,,,,,,,,,,,,,,,,,,,,,,,
1768372342.361638,1768372342.362308,70.000000,0.000000,4327.948730,4314.743652,4351.538574,4351.025879,4311.666504,4325.769043,4313.205078,4317.563965,4309.871582,4299.102539,4523.974121,4540.384766,4406.153809,4474.615234,3749.000000,2.000000,36.000000,,,,0.000000,4.000000,4.000000,4.000000,4.000000,4.000000,4.000000,4.000000,4.000000,4.000000,4.000000,4.000000,4.000000,4.000000,4.000000,100.000000,,,,,,,,,,,,,,,,,,,,,,,,,,,,,,,,,,,,,,,,,,,,,,,,,,,,,,,,,,,,,,,,,,,,,,,,,,,,,,,,,,,,,,,,,,,,,,,,,,,,,,,,,,,,,,,,,,,,,
1768372342.369447,1768372342.370117,71.000000,0.000000,4330.256348,4315.769043,4352.692383,4353.846191,4312.820313,4324.871582,4312.436035,4317.563965,4315.512695,4301.025879,4525.256348,4543.461426,4407.692383,4477.051270,3759.000000,2.000000,36.000000,,,,0.000000,4.000000,4.000000,4.000000,4.000000,4.000000,4.000000,4.000000,4.000000,4.000000,4.000000,4.000000,4.000000,4.000000,4.000000,100.000000,,,,,,,,,,,,,,,,,,,,,,,,,,,,,,,,,,,,,,,,,,,,,,,,,,,,,,,,,,,,,,,,,,,,,,,,,,,,,,,,,,,,,,,,,,,,,,,,,,,,,,,,,,,,,,,,,,,,,
1768372342.377255,1768372342.377725,72.000000,0.000000,4326.282227,4318.461426,4355.897461,4354.871582,4311.794922,4326.922852,4313.717773,4319.871582,4311.794922,4300.641113,4521.794922,4539.102539,4402.820313,4473.205078,3944.000000,2.000000,36.000000,,,,0.000000,4.000000,4.000000,4.000000,4.000000,4.000000,4.000000,4.000000,4.000000,4.000000,4.000000,4.000000,4.000000,4.000000,4.000000,100.000000,,,,,,,,,,,,,,,,,,,,,,,,,,,,,,,,,,,,,,,,,,,,,,,,,,,,,,,,,,,,,,,,,,,,,,,,,,,,,,,,,,,,,,,,,,,,,,,,,,,,,,,,,,,,,,,,,,,,,
1768372342.385064,1768372342.385534,73.000000,0.000000,4326.410156,4316.282227,4355.512695,4352.948730,4311.538574,4328.717773,4321.025879,4326.153809,4311.153809,4298.589844,4521.025879,4539.487305,4402.051270,4473.461426,3929.000000,2.000000,36.000000,,,,0.000000,4.000000,4.000000,4.000000,4.000000,4.000000,4.000000,4.000000,4.000000,4.000000,4.000000,4.000000,4.000000,4.000000,4.000000,100.000000,,,,,,,,,,,,,,,,,,,,,,,,,,,,,,,,,,,,,,,,,,,,,,,,,,,,,,,,,,,,,,,,,,,,,,,,,,,,,,,,,,,,,,,,,,,,,,,,,,,,,,,,,,,,,,,,,,,,,
1768372342.392872,1768372342.393242,74.000000,0.000000,4327.692383,4311.153809,4350.897461,4350.000000,4313.846191,4328.205078,4320.384766,4327.179688,4317.179688,4293.974121,4522.948730,4545.512695,4402.820313,4471.922852,4402.000000,2.000000,36.000000,,,,0.000000,4.000000,4.000000,4.000000,4.000000,4.000000,4.000000,4.000000,4.000000,4.000000,4.000000,4.000000,4.000000,4.000000,4.000000,100.000000,,,,,,,,,,,,,,,,,,,,,,,,,,,,,,,,,,,,,,,,,,,,,,,,,,,,,,,,,,,,,,,,,,,,,,,,,,,,,,,,,,,,,,,,,,,,,,,,,,,,,,,,,,,,,,,,,,,,,
1768372342.400681,1768372342.401051,75.000000,0.000000,4326.282227,4309.871582,4349.230957,4345.897461,4312.307617,4324.487305,4315.256348,4321.794922,4315.897461,4294.871582,4519.358887,4540.384766,4400.000000,4460.897461,4682.000000,2.000000,36.000000,,,,0.000000,4.000000,4.000000,4.000000,4.000000,4.000000,4.000000,4.000000,4.000000,4.000000,4.000000,4.000000,4.000000,4.000000,4.000000,100.000000,,,,,,,,,,,,,,,,,,,,,,,,,,,,,,,,,,,,,,,,,,,,,,,,,,,,,,,,,,,,,,,,,,,,,,,,,,,,,,,,,,,,,,,,,,,,,,,,,,,,,,,,,,,,,,,,,,,,,
1768372342.408489,1768372342.409059,76.000000,0.000000,4326.666504,4310.897461,4352.692383,4346.025879,4308.974121,4322.820313,4316.410156,4320.769043,4311.538574,4301.282227,4516.666504,4534.615234,4398.077148,4461.153809,5026.000000,2.000000,36.000000,,,,0.000000,4.000000,4.000000,4.000000,4.000000,4.000000,4.000000,4.000000,4.000000,4.000000,4.000000,4.000000,4.000000,4.000000,4.000000,100.000000,,,,,,,,,,,,,,,,,,,,,,,,,,,,,,,,,,,,,,,,,,,,,,,,,,,,,,,,,,,,,,,,,,,,,,,,,,,,,,,,,,,,,,,,,,,,,,,,,,,,,,,,,,,,,,,,,,,,,
1768372342.416298,1768372342.416868,77.000000,0.000000,4329.230957,4313.717773,4356.153809,4353.461426,4313.846191,4325.897461,4317.051270,4320.769043,4310.641113,4298.846191,4519.487305,4538.717773,4398.205078,4473.589844,5422.000000,2.000000,36.000000,,,,0.000000,4.000000,4.000000,4.000000,4.000000,4.000000,4.000000,4.000000,4.000000,4.000000,4.000000,4.000000,4.000000,4.000000,4.000000,100.000000,,,,,,,,,,,,,,,,,,,,,,,,,,,,,,,,,,,,,,,,,,,,,,,,,,,,,,,,,,,,,,,,,,,,,,,,,,,,,,,,,,,,,,,,,,,,,,,,,,,,,,,,,,,,,,,,,,,,,
1768372342.424106,1768372342.424776,78.000000,0.000000,4332.820313,4320.256348,4356.666504,4359.358887,4322.179688,4327.051270,4316.666504,4318.077148,4310.641113,4295.128418,4521.153809,4541.794922,4401.922852,4476.282227,4402.000000,2.000000,36.000000,,,,0.000000,4.000000,4.000000,4.000000,4.000000,4.000000,4.000000,4.000000,4.000000,4.000000,4.000000,4.000000,4.000000,4.000000,4.000000,100.000000,1.000000,41.666668,4.000000,4.000000,3.000000,4.000000,1.000000,1.000000,4.000000,4.000000,4.000000,4.000000,4.000000,4.000000,4.000000,4.000000,,,,,,,,,,,,,,,,,,,,,,,,,,,,,,,,0.231285,0.271146,0.214670,0.276184,0.152561,0.869076,0.288427,0.185403,0.116797,0.101850,0.344264,0.059308,0.229376,0.179539,0.100682,0.275572,0.164637,0.195478,0.107088,0.130967,0.126005,0.067522,0.105927,0.060023,0.052054,0.102100,0.102770,0.126320,0.077121,0.099168,0.198151,0.092611,0.217386,0.121956,0.136280,0.183722,0.288497,0.089771,0.155244,0.171714,0.148837,0.250796,0.139629,0.139521,0.226192,0.190386,0.356785,0.244970,0.277378,0.182074,0.198729,0.249498,0.216972,0.186392,0.093842,0.587666,0.304317,0.221426,0.200959,0.144245,0.318238,0.284218,0.186934,0.202884,0.143854,0.452119,0.421258,0.405163,0.416540,0.261366
1768372342.431914,1768372342.432584,79.000000,0.000000,4336.794922,4323.589844,4359.743652,4357.563965,4322.051270,4325.641113,4320.512695,4319.871582,4314.743652,4304.487305,4521.666504,4542.307617,4407.692383,4473.846191,4682.000000,2.000000,36.000000,,,,0.000000,4.000000,4.000000,4.000000,4.000000,4.000000,4.000000,4.000000,4.000000,4.000000,4.000000,4.000000,4.000000,4.000000,4.000000,100.000000,,,,,,,,,,,,,,,,,,,,,,,,,,,,,,,,,,,,,,,,,,,,,,,,,,,,,,,,,,,,,,,,,,,,,,,,,,,,,,,,,,,,,,,,,,,,,,,,,,,,,,,,,,,,,,,,,,,,,
1768372342.439723,1768372342.440593,80.000000,0.000000,4340.384766,4322.948730,4363.846191,4358.333496,4319.230957,4327.820313,4323.717773,4325.128418,4322.820313,4312.948730,4523.461426,4544.615234,4406.410156,4477.179688,5026.000000,2.000000,36.000000,,,,0.000000,4.000000,4.000000,4.000000,4.000000,4.000000,4.000000,4.000000,4.000000,4.000000,4.000000,4.000000,4.000000,4.000000,4.000000,100.000000,,,,,,,,,,,,,,,,,,,,,,,,,,,,,,,,,,,,,,,,,,,,,,,,,,,,,,,,,,,,,,,,,,,,,,,,,,,,,,,,,,,,,,,,,,,,,,,,,,,,,,,,,,,,,,,,,,,,,
1768372342.447531,1768372342.448401,81.000000,0.000000,4338.205078,4322.307617,4362.436035,4359.615234,4320.641113,4330.384766,4322.692383,4325.512695,4324.102539,4304.102539,4522.692383,4542.563965,4401.153809,4476.666504,5422.000000,2.000000,36.000000,,,,0.000000,4.000000,4.000000,4.000000,4.000000,4.000000,4.000000,4.000000,4.000000,4.000000,4.000000,4.000000,4.000000,4.000000,4.000000,100.000000,,,,,,,,,,,,,,,,,,,,,,,,,,,,,,,,,,,,,,,,,,,,,,,,,,,,,,,,,,,,,,,,,,,,,,,,,,,,,,,,,,,,,,,,,,,,,,,,,,,,,,,,,,,,,,,,,,,,,
1768372342.455340,1768372342.456309,82.000000,0.000000,4336.153809,4319.743652,4357.436035,4355.897461,4318.974121,4327.948730,4319.743652,4324.230957,4318.846191,4299.487305,4522.948730,4540.384766,4406.410156,4475.128418,4402.000000,2.000000,36.000000,,,,0.000000,4.000000,4.000000,4.000000,4.000000,4.000000,4.000000,4.000000,4.000000,4.000000,4.000000,4.000000,4.000000,4.000000,4.000000,100.000000,,,,,,,,,,,,,,,,,,,,,,,,,,,,,,,,,,,,,,,,,,,,,,,,,,,,,,,,,,,,,,,,,,,,,,,,,,,,,,,,,,,,,,,,,,,,,,,,,,,,,,,,,,,,,,,,,,,,,
1768372342.463148,1768372342.464118,83.000000,0.000000,4337.563965,4316.538574,4356.922852,4357.051270,4318.589844,4326.538574,4318.717773,4324.358887,4314.871582,4310.128418,4524.487305,4542.692383,4408.589844,4477.563965,4682.000000,2.000000,36.000000,,,,0.000000,4.000000,4.000000,4.000000,4.000000,4.000000,4.000000,4.000000,4.000000,4.000000,4.000000,4.000000,4.000000,4.000000,4.000000,100.000000,,,,,,,,,,,,,,,,,,,,,,,,,,,,,,,,,,,,,,,,,,,,,,,,,,,,,,,,,,,,,,,,,,,,,,,,,,,,,,,,,,,,,,,,,,,,,,,,,,,,,,,,,,,,,,,,,,,,,
1768372342.470957,1768372342.472126,84.000000,0.000000,4333.589844,4313.589844,4357.820313,4360.128418,4322.436035,4328.333496,4319.102539,4322.307617,4312.563965,4310.769043,4518.077148,4538.077148,4396.538574,4471.794922,5026.000000,2.000000,36.000000,,,,0.000000,4.000000,4.000000,4.000000,4.000000,4.000000,4.000000,4.000000,4.000000,4.000000,4.000000,4.000000,4.000000,4.000000,4.000000,100.000000,,,,,,,,,,,,,,,,,,,,,,,,,,,,,,,,,,,,,,,,,,,,,,,,,,,,,,,,,,,,,,,,,,,,,,,,,,,,,,,,,,,,,,,,,,,,,,,,,,,,,,,,,,,,,,,,,,,,,
1768372342.478765,1768372342.479935,85.000000,0.000000,4326.794922,4310.897461,4352.563965,4350.897461,4316.794922,4327.051270,4317.307617,4322.692383,4312.820313,4300.128418,4511.282227,4533.589844,4392.179688,4467.307617,5422.000000,2.000000,36.000000,,,,0.000000,4.000000,4.000000,4.000000,4.000000,4.000000,4.000000,4.000000,4.000000,4.000000,4.000000,4.000000,4.000000,4.000000,4.000000,100.000000,,,,,,,,,,,,,,,,,,,,,,,,,,,,,,,,,,,,,,,,,,,,,,,,,,,,,,,,,,,,,,,,,,,,,,,,,,,,,,,,,,,,,,,,,,,,,,,,,,,,,,,,,,,,,,,,,,,,,
1768372342.486574,1768372342.487643,86.000000,0.000000,4325.256348,4309.743652,4347.179688,4341.153809,4307.820313,4322.307617,4312.436035,4324.358887,4313.717773,4296.153809,4512.563965,4535.256348,4399.102539,4469.487305,4402.000000,2.000000,36.000000,,,,0.000000,4.000000,4.000000,4.000000,4.000000,4.000000,4.000000,4.000000,4.000000,4.000000,4.000000,4.000000,4.000000,4.000000,4.000000,100.000000,,,,,,,,,,,,,,,,,,,,,,,,,,,,,,,,,,,,,,,,,,,,,,,,,,,,,,,,,,,,,,,,,,,,,,,,,,,,,,,,,,,,,,,,,,,,,,,,,,,,,,,,,,,,,,,,,,,,,
1768372342.494382,1768372342.495451,87.000000,0.000000,4327.563965,4308.589844,4350.256348,4345.128418,4307.436035,4318.333496,4307.563965,4321.666504,4310.769043,4298.077148,4513.077148,4532.563965,4398.589844,4468.717773,4682.000000,2.000000,36.000000,,,,0.000000,4.000000,4.000000,4.000000,4.000000,4.000000,4.000000,4.000000,4.000000,4.000000,4.000000,4.000000,4.000000,4.000000,4.000000,100.000000,,,,,,,,,,,,,,,,,,,,,,,,,,,,,,,,,,,,,,,,,,,,,,,,,,,,,,,,,,,,,,,,,,,,,,,,,,,,,,,,,,,,,,,,,,,,,,,,,,,,,,,,,,,,,,,,,,,,,
1768372342.502190,1768372342.503060,88.000000,0.000000,4327.179688,4306.282227,4352.820313,4346.794922,4307.179688,4319.487305,4307.179688,4319.487305,4310.256348,4294.615234,4506.666504,4530.384766,4392.307617,4463.717773,5026.000000,2.000000,36.000000,,,,0.000000,4.000000,4.000000,4.000000,4.000000,4.000000,4.000000,4.000000,4.000000,4.000000,4.000000,4.000000,4.000000,4.000000,4.000000,100.000000,,,,,,,,,,,,,,,,,,,,,,,,,,,,,,,,,,,,,,,,,,,,,,,,,,,,,,,,,,,,,,,,,,,,,,,,,,,,,,,,,,,,,,,,,,,,,,,,,,,,,,,,,,,,,,,,,,,,,
1768372342.509999,1768372342.510869,89.000000,0.000000,4324.358887,4305.769043,4346.794922,4340.384766,4306.282227,4320.512695,4312.692383,4318.974121,4310.000000,4287.820313,4507.051270,4533.333496,4392.692383,4462.307617,5422.000000,2.000000,36.000000,,,,0.000000,4.000000,4.000000,4.000000,4.000000,4.000000,4.000000,4.000000,4.000000,4.000000,4.000000,4.000000,4.000000,4.000000,4.000000,100.000000,,,,,,,,,,,,,,,,,,,,,,,,,,,,,,,,,,,,,,,,,,,,,,,,,,,,,,,,,,,,,,,,,,,,,,,,,,,,,,,,,,,,,,,,,,,,,,,,,,,,,,,,,,,,,,,,,,,,,
1768372342.517807,1768372342.518777,90.000000,0.000000,4320.769043,4302.820313,4341.794922,4338.974121,4306.282227,4312.307617,4309.358887,4310.384766,4300.897461,4283.589844,4506.666504,4526.922852,4391.153809,4461.025879,4402.000000,2.000000,36.000000,,,,0.000000,4.000000,4.000000,4.000000,4.000000,4.000000,4.000000,4.000000,4.000000,4.000000,4.000000,4.000000,4.000000,4.000000,4.000000,100.000000,,,,,,,,,,,,,,,,,,,,,,,,,,,,,,,,,,,,,,,,,,,,,,,,,,,,,,,,,,,,,,,,,,,,,,,,,,,,,,,,,,,,,,,,,,,,,,,,,,,,,,,,,,,,,,,,,,,,,
1768372342.525616,1768372342.526585,91.000000,0.000000,4319.230957,4297.436035,4342.179688,4338.205078,4301.666504,4308.589844,4299.487305,4301.282227,4294.230957,4284.871582,4495.128418,4514.743652,4380.256348,4452.307617,4682.000000,2.000000,36.000000,,,,0.000000,4.000000,4.000000,4.000000,4.000000,4.000000,4.000000,4.000000,4.000000,4.000000,4.000000,4.000000,4.000000,4.000000,4.000000,100.000000,,,,,,,,,,,,,,,,,,,,,,,,,,,,,,,,,,,,,,,,,,,,,,,,,,,,,,,,,,,,,,,,,,,,,,,,,,,,,,,,,,,,,,,,,,,,,,,,,,,,,,,,,,,,,,,,,,,,,
1768372342.533424,1768372342.534194,92.000000,0.000000,4319.871582,4297.051270,4339.871582,4332.307617,4299.230957,4315.641113,4301.410156,4303.333496,4297.948730,4285.641113,4491.153809,4513.717773,4376.025879,4447.179688,5026.000000,2.000000,36.000000,,,,0.000000,4.000000,4.000000,4.000000,4.000000,4.000000,4.000000,4.000000,4.000000,4.000000,4.000000,4.000000,4.000000,4.000000,4.000000,100.000000,,,,,,,,,,,,,,,,,,,,,,,,,,,,,,,,,,,,,,,,,,,,,,,,,,,,,,,,,,,,,,,,,,,,,,,,,,,,,,,,,,,,,,,,,,,,,,,,,,,,,,,,,,,,,,,,,,,,,
1768372342.541232,1768372342.542002,93.000000,0.000000,4324.358887,4303.077148,4345.384766,4337.948730,4306.666504,4321.282227,4311.794922,4312.692383,4304.743652,4287.307617,4503.974121,4525.384766,4387.948730,4455.256348,5422.000000,2.000000,36.000000,,,,0.000000,4.000000,4.000000,4.000000,4.000000,4.000000,4.000000,4.000000,4.000000,4.000000,4.000000,4.000000,4.000000,4.000000,4.000000,100.000000,,,,,,,,,,,,,,,,,,,,,,,,,,,,,,,,,,,,,,,,,,,,,,,,,,,,,,,,,,,,,,,,,,,,,,,,,,,,,,,,,,,,,,,,,,,,,,,,,,,,,,,,,,,,,,,,,,,,,
1768372342.549041,1768372342.549911,94.000000,0.000000,4335.641113,4309.615234,4358.589844,4354.102539,4312.948730,4321.922852,4317.692383,4322.948730,4314.102539,4300.384766,4517.820313,4540.641113,4400.769043,4470.384766,4402.000000,2.000000,36.000000,,,,0.000000,4.000000,4.000000,4.000000,4.000000,4.000000,4.000000,4.000000,4.000000,4.000000,4.000000,4.000000,4.000000,4.000000,4.000000,100.000000,,,,,,,,,,,,,,,,,,,,,,,,,,,,,,,,,,,,,,,,,,,,,,,,0.235293,0.332793,0.179964,0.253859,0.140289,0.935127,0.344464,0.164147,0.112281,0.106950,0.285981,0.079413,0.208477,0.132377,0.091468,0.303389,0.191227,0.161953,0.094192,0.127716,0.166345,0.062590,0.083542,0.049373,0.045445,0.085425,0.076590,0.092465,0.068659,0.080562,0.203004,0.120557,0.183201,0.106787,0.120578,0.203943,0.282494,0.096724,0.170152,0.162634,0.189092,0.293983,0.156562,0.149942,0.220403,0.251544,0.417134,0.241558,0.317843,0.183683,0.251744,0.312213,0.190115,0.177447,0.087798,0.538692,0.323036,0.235686,0.193846,0.140574,0.370114,0.363347,0.175183,0.184516,0.131918,0.470223,0.470016,0.392248,0.377639,0.241333
1768372342.556849,1768372342.557719,95.000000,0.000000,4339.102539,4313.077148,4359.230957,4353.589844,4312.051270,4320.769043,4315.512695,4325.769043,4319.615234,4311.282227,4521.410156,4542.179688,4401.282227,4475.384766,4682.000000,2.000000,36.000000,,,,0.000000,4.000000,4.000000,4.000000,4.000000,4.000000,4.000000,4.000000,4.000000,4.000000,4.000000,4.000000,4.000000,4.000000,4.000000,100.000000,,,,,,,,,,,,,,,,,,,,,,,,,,,,,,,,,,,,,,,,,,,,,,,,,,,,,,,,,,,,,,,,,,,,,,,,,,,,,,,,,,,,,,,,,,,,,,,,,,,,,,,,,,,,,,,,,,,,,
1768372342.564658,1768372342.565728,96.000000,0.000000,4335.384766,4311.410156,4351.922852,4344.102539,4310.512695,4318.333496,4310.256348,4321.025879,4313.974121,4305.897461,4520.128418,4534.615234,4398.077148,4471.410156,5026.000000,2.000000,36.000000,,,,0.000000,4.000000,4.000000,4.000000,4.000000,4.000000,4.000000,4.000000,4.000000,4.000000,4.000000,4.000000,4.000000,4.000000,4.000000,100.000000,,,,,,,,,,,,,,,,,,,,,,,,,,,,,,,,,,,,,,,,,,,,,,,,,,,,,,,,,,,,,,,,,,,,,,,,,,,,,,,,,,,,,,,,,,,,,,,,,,,,,,,,,,,,,,,,,,,,,
1768372342.572466,1768372342.573536,97.000000,0.000000,4341.666504,4310.512695,4358.333496,4349.743652,4312.179688,4319.743652,4309.487305,4318.589844,4309.615234,4297.436035,4522.179688,4539.743652,4401.666504,4476.025879,5422.000000,2.000000,36.000000,,,,0.000000,4.000000,4.000000,4.000000,4.000000,4.000000,4.000000,4.000000,4.000000,4.000000,4.000000,4.000000,4.000000,4.000000,4.000000,100.000000,,,,,,,,,,,,,,,,,,,,,,,,,,,,,,,,,,,,,,,,,,,,,,,,,,,,,,,,,,,,,,,,,,,,,,,,,,,,,,,,,,,,,,,,,,,,,,,,,,,,,,,,,,,,,,,,,,,,,
1768372342.580275,1768372342.581245,98.000000,0.000000,4343.461426,4313.589844,4360.769043,4355.000000,4313.974121,4323.717773,4313.205078,4315.384766,4310.897461,4297.051270,4521.410156,4544.230957,4403.846191,4477.820313,4402.000000,2.000000,36.000000,,,,0.000000,4.000000,4.000000,4.000000,4.000000,4.000000,4.000000,4.000000,4.000000,4.000000,4.000000,4.000000,4.000000,4.000000,4.000000,100.000000,,,,,,,,,,,,,,,,,,,,,,,,,,,,,,,,,,,,,,,,,,,,,,,,,,,,,,,,,,,,,,,,,,,,,,,,,,,,,,,,,,,,,,,,,,,,,,,,,,,,,,,,,,,,,,,,,,,,,
1768372342.588083,1768372342.589053,99.000000,0.000000,4330.512695,4310.897461,4346.410156,4343.461426,4311.666504,4320.641113,4312.051270,4309.743652,4306.410156,4295.512695,4512.692383,4532.179688,4398.717773,4466.153809,4682.000000,2.000000,36.000000,,,,0.000000,4.000000,4.000000,4.000000,4.000000,4.000000,4.000000,4.000000,4.000000,4.000000,4.000000,4.000000,4.000000,4.000000,4.000000,100.000000,,,,,,,,,,,,,,,,,,,,,,,,,,,,,,,,,,,,,,,,,,,,,,,,,,,,,,,,,,,,,,,,,,,,,,,,,,,,,,,,,,,,,,,,,,,,,,,,,,,,,,,,,,,,,,,,,,,,,
1768372342.595892,1768372342.596662,100.000000,0.000000,4323.461426,4303.974121,4342.563965,4336.153809,4307.948730,4316.410156,4308.205078,4311.538574,4304.102539,4290.000000,4507.563965,4524.102539,4394.358887,4456.666504,5026.000000,2.000000,36.000000,,,,0.000000,4.000000,4.000000,4.000000,4.000000,4.000000,4.000000,4.000000,4.000000,4.000000,4.000000,4.000000,4.000000,4.000000,4.000000,100.000000,,,,,,,,,,,,,,,,,,,,,,,,,,,,,,,,,,,,,,,,,,,,,,,,,,,,,,,,,,,,,,,,,,,,,,,,,,,,,,,,,,,,,,,,,,,,,,,,,,,,,,,,,,,,,,,,,,,,,
1768372342.603700,1768372342.604470,101.000000,0.000000,4327.948730,4303.589844,4351.666504,4341.410156,4308.077148,4318.717773,4308.717773,4316.538574,4308.205078,4290.897461,4509.358887,4528.717773,4393.333496,4459.871582,5422.000000,2.000000,36.000000,,,,0.000000,4.000000,4.000000,4.000000,4.000000,4.000000,4.000000,4.000000,4.000000,4.000000,4.000000,4.000000,4.000000,4.000000,4.000000,100.000000,,,,,,,,,,,,,,,,,,,,,,,,,,,,,,,,,,,,,,,,,,,,,,,,,,,,,,,,,,,,,,,,,,,,,,,,,,,,,,,,,,,,,,,,,,,,,,,,,,,,,,,,,,,,,,,,,,,,,
1768372342.611508,1768372342.612378,102.000000,0.000000,4328.717773,4307.948730,4350.384766,4343.846191,4309.102539,4322.436035,4310.897461,4316.153809,4307.436035,4294.230957,4507.563965,4530.256348,4392.948730,4461.666504,4402.000000,2.000000,36.000000,,,,0.000000,4.000000,4.000000,4.000000,4.000000,4.000000,4.000000,4.000000,4.000000,4.000000,4.000000,4.000000,4.000000,4.000000,4.000000,100.000000,,,,,,,,,,,,,,,,,,,,,,,,,,,,,,,,,,,,,,,,,,,,,,,,,,,,,,,,,,,,,,,,,,,,,,,,,,,,,,,,,,,,,,,,,,,,,,,,,,,,,,,,,,,,,,,,,,,,,
1768372342.619317,1768372342.620187,103.000000,0.000000,4327.563965,4305.256348,4341.794922,4341.153809,4309.615234,4323.333496,4313.717773,4314.230957,4306.922852,4296.922852,4507.179688,4526.794922,4395.641113,4458.717773,4682.000000,2.000000,36.000000,,,,0.000000,4.000000,4.000000,4.000000,4.000000,4.000000,4.000000,4.000000,4.000000,4.000000,4.000000,4.000000,4.000000,4.000000,4.000000,100.000000,,,,,,,,,,,,,,,,,,,,,,,,,,,,,,,,,,,,,,,,,,,,,,,,,,,,,,,,,,,,,,,,,,,,,,,,,,,,,,,,,,,,,,,,,,,,,,,,,,,,,,,,,,,,,,,,,,,,,
1768372342.627125,1768372342.628195,104.000000,0.000000,4326.922852,4298.205078,4338.974121,4338.589844,4308.717773,4317.820313,4311.025879,4311.922852,4309.102539,4297.692383,4509.871582,4523.333496,4398.461426,4457.179688,5026.000000,2.000000,36.000000,,,,0.000000,4.000000,4.000000,4.000000,4.000000,4.000000,4.000000,4.000000,4.000000,4.000000,4.000000,4.000000,4.000000,4.000000,4.000000,100.000000,,,,,,,,,,,,,,,,,,,,,,,,,,,,,,,,,,,,,,,,,,,,,,,,,,,,,,,,,,,,,,,,,,,,,,,,,,,,,,,,,,,,,,,,,,,,,,,,,,,,,,,,,,,,,,,,,,,,,
1768372342.634934,1768372342.636004,105.000000,0.000000,4323.974121,4299.358887,4342.948730,4338.974121,4307.307617,4315.128418,4307.436035,4312.051270,4307.179688,4296.025879,4508.589844,4522.436035,4393.589844,4457.820313,5422.000000,2.000000,36.000000,,,,0.000000,4.000000,4.000000,4.000000,4.000000,4.000000,4.000000,4.000000,4.000000,4.000000,4.000000,4.000000,4.000000,4.000000,4.000000,100.000000,,,,,,,,,,,,,,,,,,,,,,,,,,,,,,,,,,,,,,,,,,,,,,,,,,,,,,,,,,,,,,,,,,,,,,,,,,,,,,,,,,,,,,,,,,,,,,,,,,,,,,,,,,,,,,,,,,,,,
1768372342.642742,1768372342.643912,106.000000,0.000000,4328.333496,4306.025879,4347.051270,4342.179688,4306.922852,4316.538574,4310.128418,4316.666504,4306.025879,4293.974121,4506.666504,4526.538574,4390.512695,4460.000000,4402.000000,2.000000,36.000000,,,,0.000000,4.000000,4.000000,4.000000,4.000000,4.000000,4.000000,4.000000,4.000000,4.000000,4.000000,4.000000,4.000000,4.000000,4.000000,100.000000,,,,,,,,,,,,,,,,,,,,,,,,,,,,,,,,,,,,,,,,,,,,,,,,,,,,,,,,,,,,,,,,,,,,,,,,,,,,,,,,,,,,,,,,,,,,,,,,,,,,,,,,,,,,,,,,,,,,,
1768372342.650551,1768372342.651720,107.000000,0.000000,4333.333496,4308.461426,4346.025879,4342.820313,4307.948730,4313.589844,4308.461426,4317.692383,4308.205078,4292.692383,4508.333496,4529.102539,4395.128418,4460.000000,4682.000000,2.000000,36.000000,,,,0.000000,4.000000,4.000000,4.000000,4.000000,4.000000,4.000000,4.000000,4.000000,4.000000,4.000000,4.000000,4.000000,4.000000,4.000000,100.000000,,,,,,,,,,,,,,,,,,,,,,,,,,,,,,,,,,,,,,,,,,,,,,,,,,,,,,,,,,,,,,,,,,,,,,,,,,,,,,,,,,,,,,,,,,,,,,,,,,,,,,,,,,,,,,,,,,,,,
1768372342.658359,1768372342.659729,108.000000,0.000000,4327.948730,4305.769043,4341.282227,4341.410156,4307.692383,4309.230957,4304.487305,4313.205078,4303.461426,4295.000000,4509.487305,4524.230957,4393.846191,4459.358887,5026.000000,2.000000,36.000000,,,,0.000000,4.000000,4.000000,4.000000,4.000000,4.000000,4.000000,4.000000,4.000000,4.000000,4.000000,4.000000,4.000000,4.000000,4.000000,100.000000,,,,,,,,,,,,,,,,,,,,,,,,,,,,,,,,,,,,,,,,,,,,,,,,,,,,,,,,,,,,,,,,,,,,,,,,,,,,,,,,,,,,,,,,,,,,,,,,,,,,,,,,,,,,,,,,,,,,,
1768372342.666168,1768372342.667537,109.000000,0.000000,4324.487305,4306.410156,4340.769043,4341.025879,4307.051270,4314.102539,4309.358887,4310.769043,4295.769043,4296.025879,4507.948730,4519.743652,4387.563965,4459.102539,5422.000000,2.000000,36.000000,,,,0.000000,4.000000,4.000000,4.000000,4.000000,4.000000,4.000000,4.000000,4.000000,4.000000,4.000000,4.000000,4.000000,4.000000,4.000000,100.000000,,,,,,,,,,,,,,,,,,,,,,,,,,,,,,,,,,,,,,,,,,,,,,,,,,,,,,,,,,,,,,,,,,,,,,,,,,,,,,,,,,,,,,,,,,,,,,,,,,,,,,,,,,,,,,,,,,,,,
1768372342.673976,1768372342.675246,110.000000,0.000000,4326.666504,4308.974121,4342.051270,4341.153809,4308.717773,4321.538574,4313.461426,4313.205078,4297.563965,4292.179688,4504.871582,4521.282227,4386.153809,4453.974121,4402.000000,2.000000,36.000000,,,,0.000000,4.000000,4.000000,4.000000,4.000000,4.000000,4.000000,4.000000,4.000000,4.000000,4.000000,4.000000,4.000000,4.000000,4.000000,100.000000,,,,,,,,,,,,,,,,,,,,,,,,,,,,,,,,,,,,,,,,,,,,,,,,0.274325,0.369891,0.155789,0.228020,0.120157,0.962588,0.396521,0.145875,0.113885,0.106198,0.243871,0.108021,0.197527,0.099065,0.082624,0.331822,0.218671,0.135767,0.088778,0.119856,0.224746,0.059117,0.067439,0.040567,0.040697,0.074688,0.068164,0.069059,0.062867,0.066251,0.229134,0.179118,0.156784,0.098723,0.106232,0.243242,0.270800,0.110383,0.178598,0.148084,0.247909,0.330659,0.181297,0.160345,0.207253,0.348376,0.475335,0.235397,0.340968,0.181204,0.378256,0.374732,0.197679,0.173385,0.087455,0.511839,0.330680,0.266236,0.190297,0.135658,0.466846,0.429160,0.177694,0.168045,0.120611,0.550866,0.502472,0.394817,0.329575,0.212422
1768372342.681785,1768372342.683054,111.000000,0.000000,4325.512695,4311.025879,4340.641113,4340.769043,4309.230957,4320.512695,4309.615234,4318.077148,4304.743652,4290.256348,4504.230957,4526.410156,4387.436035,4451.153809,4682.000000,2.000000,36.000000,,,,0.000000,4.000000,4.000000,4.000000,4.000000,4.000000,4.000000,4.000000,4.000000,4.000000,4.000000,4.000000,4.000000,4.000000,4.000000,100.000000,,,,,,,,,,,,,,,,,,,,,,,,,,,,,,,,,,,,,,,,,,,,,,,,,,,,,,,,,,,,,,,,,,,,,,,,,,,,,,,,,,,,,,,,,,,,,,,,,,,,,,,,,,,,,,,,,,,,,
1768372342.689593,1768372342.690663,112.000000,0.000000,4322.692383,4315.128418,4341.410156,4343.333496,4307.563965,4320.641113,4308.077148,4319.615234,4306.282227,4291.410156,4506.410156,4527.948730,4384.487305,4456.282227,5026.000000,2.000000,36.000000,,,,0.000000,4.000000,4.000000,4.000000,4.000000,4.000000,4.000000,4.000000,4.000000,4.000000,4.000000,4.000000,4.000000,4.000000,4.000000,100.000000,,,,,,,,,,,,,,,,,,,,,,,,,,,,,,,,,,,,,,,,,,,,,,,,,,,,,,,,,,,,,,,,,,,,,,,,,,,,,,,,,,,,,,,,,,,,,,,,,,,,,,,,,,,,,,,,,,,,,
1768372342.697401,1768372342.698471,113.000000,0.000000,4325.256348,4320.384766,4343.205078,4347.179688,4308.077148,4320.128418,4308.974121,4314.615234,4302.948730,4287.948730,4506.666504,4524.487305,4383.717773,4459.615234,5422.000000,2.000000,36.000000,,,,0.000000,4.000000,4.000000,4.000000,4.000000,4.000000,4.000000,4.000000,4.000000,4.000000,4.000000,4.000000,4.000000,4.000000,4.000000,100.000000,,,,,,,,,,,,,,,,,,,,,,,,,,,,,,,,,,,,,,,,,,,,,,,,,,,,,,,,,,,,,,,,,,,,,,,,,,,,,,,,,,,,,,,,,,,,,,,,,,,,,,,,,,,,,,,,,,,,,
1768372342.705210,1768372342.706180,114.000000,0.000000,4328.461426,4322.820313,4342.692383,4346.025879,4308.717773,4318.333496,4308.205078,4313.846191,4303.589844,4286.666504,4506.025879,4525.256348,4387.307617,4456.153809,4402.000000,2.000000,36.000000,,,,0.000000,4.000000,4.000000,4.000000,4.000000,4.000000,4.000000,4.000000,4.000000,4.000000,4.000000,4.000000,4.000000,4.000000,4.000000,100.000000,,,,,,,,,,,,,,,,,,,,,,,,,,,,,,,,,,,,,,,,,,,,,,,,,,,,,,,,,,,,,,,,,,,,,,,,,,,,,,,,,,,,,,,,,,,,,,,,,,,,,,,,,,,,,,,,,,,,,
1768372342.713018,1768372342.713988,115.000000,0.000000,4326.922852,4320.641113,4342.820313,4342.179688,4305.128418,4320.769043,4311.538574,4318.333496,4306.153809,4293.974121,4506.538574,4528.461426,4386.794922,4458.077148,4682.000000,2.000000,36.000000,,,,0.000000,4.000000,4.000000,4.000000,4.000000,4.000000,4.000000,4.000000,4.000000,4.000000,4.000000,4.000000,4.000000,4.000000,4.000000,100.000000,,,,,,,,,,,,,,,,,,,,,,,,,,,,,,,,,,,,,,,,,,,,,,,,,,,,,,,,,,,,,,,,,,,,,,,,,,,,,,,,,,,,,,,,,,,,,,,,,,,,,,,,,,,,,,,,,,,,,
1768372342.720827,1768372342.721597,116.000000,0.000000,4318.205078,4319.743652,4341.794922,4342.307617,4301.025879,4319.487305,4311.410156,4313.333496,4300.000000,4294.102539,4506.410156,4523.846191,4383.974121,4458.589844,5026.000000,2.000000,36.000000,,,,0.000000,4.000000,4.000000,4.000000,4.000000,4.000000,4.000000,4.000000,4.000000,4.000000,4.000000,4.000000,4.000000,4.000000,4.000000,100.000000,,,,,,,,,,,,,,,,,,,,,,,,,,,,,,,,,,,,,,,,,,,,,,,,,,,,,,,,,,,,,,,,,,,,,,,,,,,,,,,,,,,,,,,,,,,,,,,,,,,,,,,,,,,,,,,,,,,,,
1768372342.728635,1768372342.729405,117.000000,0.000000,4313.717773,4318.461426,4339.743652,4342.563965,4300.641113,4315.128418,4304.871582,4306.666504,4294.102539,4287.692383,4506.025879,4521.282227,4385.897461,4451.025879,5422.000000,2.000000,36.000000,,,,0.000000,4.000000,4.000000,4.000000,4.000000,4.000000,4.000000,4.000000,4.000000,4.000000,4.000000,4.000000,4.000000,4.000000,4.000000,100.000000,,,,,,,,,,,,,,,,,,,,,,,,,,,,,,,,,,,,,,,,,,,,,,,,,,,,,,,,,,,,,,,,,,,,,,,,,,,,,,,,,,,,,,,,,,,,,,,,,,,,,,,,,,,,,,,,,,,,,
1768372342.736444,1768372342.737114,118.000000,0.000000,4320.769043,4319.230957,4339.230957,4341.410156,4303.461426,4315.000000,4305.641113,4310.641113,4298.974121,4283.717773,4505.897461,4523.717773,4388.589844,4450.641113,4402.000000,2.000000,36.000000,,,,0.000000,4.000000,4.000000,4.000000,4.000000,4.000000,4.000000,4.000000,4.000000,4.000000,4.000000,4.000000,4.000000,4.000000,4.000000,100.000000,,,,,,,,,,,,,,,,,,,,,,,,,,,,,,,,,,,,,,,,,,,,,,,,,,,,,,,,,,,,,,,,,,,,,,,,,,,,,,,,,,,,,,,,,,,,,,,,,,,,,,,,,,,,,,,,,,,,,
1768372342.744252,1768372342.744922,119.000000,0.000000,4322.948730,4324.743652,4337.820313,4342.820313,4308.333496,4316.794922,4311.282227,4316.922852,4304.102539,4282.820313,4503.846191,4522.307617,4383.461426,4452.692383,4682.000000,2.000000,36.000000,,,,0.000000,4.000000,4.000000,4.000000,4.000000,4.000000,4.000000,4.000000,4.000000,4.000000,4.000000,4.000000,4.000000,4.000000,4.000000,100.000000,,,,,,,,,,,,,,,,,,,,,,,,,,,,,,,,,,,,,,,,,,,,,,,,,,,,,,,,,,,,,,,,,,,,,,,,,,,,,,,,,,,,,,,,,,,,,,,,,,,,,,,,,,,,,,,,,,,,,
1768372342.752061,1768372342.752930,120.000000,0.000000,4318.205078,4323.461426,4335.769043,4343.974121,4307.179688,4312.692383,4310.128418,4317.436035,4308.077148,4287.692383,4504.102539,4522.563965,4381.025879,4453.205078,5026.000000,2.000000,36.000000,,,,0.000000,4.000000,4.000000,4.000000,4.000000,4.000000,4.000000,4.000000,4.000000,4.000000,4.000000,4.000000,4.000000,4.000000,4.000000,100.000000,,,,,,,,,,,,,,,,,,,,,,,,,,,,,,,,,,,,,,,,,,,,,,,,,,,,,,,,,,,,,,,,,,,,,,,,,,,,,,,,,,,,,,,,,,,,,,,,,,,,,,,,,,,,,,,,,,,,,
1768372342.759869,1768372342.760739,121.000000,0.000000,4321.153809,4317.948730,4338.461426,4342.563965,4299.871582,4308.974121,4306.922852,4311.538574,4306.410156,4288.846191,4505.769043,4523.846191,4386.538574,4453.717773,5422.000000,2.000000,36.000000,,,,0.000000,4.000000,4.000000,4.000000,4.000000,4.000000,4.000000,4.000000,4.000000,4.000000,4.000000,4.000000,4.000000,4.000000,4.000000,100.000000,,,,,,,,,,,,,,,,,,,,,,,,,,,,,,,,,,,,,,,,,,,,,,,,,,,,,,,,,,,,,,,,,,,,,,,,,,,,,,,,,,,,,,,,,,,,,,,,,,,,,,,,,,,,,,,,,,,,,
1768372342.767677,1768372342.768647,122.000000,0.000000,4324.871582,4322.307617,4341.666504,4342.563965,4300.000000,4314.487305,4309.230957,4306.538574,4297.820313,4282.436035,4504.743652,4520.384766,4386.025879,4448.846191,4402.000000,2.000000,36.000000,,,,0.000000,4.000000,4.000000,4.000000,4.000000,4.000000,4.000000,4.000000,4.000000,4.000000,4.000000,4.000000,4.000000,4.000000,4.000000,100.000000,,,,,,,,,,,,,,,,,,,,,,,,,,,,,,,,,,,,,,,,,,,,,,,,,,,,,,,,,,,,,,,,,,,,,,,,,,,,,,,,,,,,,,,,,,,,,,,,,,,,,,,,,,,,,,,,,,,,,
1768372342.775486,1768372342.776456,123.000000,0.000000,4321.282227,4322.948730,4339.743652,4341.666504,4306.794922,4319.358887,4312.436035,4315.000000,4301.025879,4280.769043,4503.461426,4523.333496,4377.563965,4440.897461,4682.000000,2.000000,36.000000,,,,0.000000,4.000000,4.000000,4.000000,4.000000,4.000000,4.000000,4.000000,4.000000,4.000000,4.000000,4.000000,4.000000,4.000000,4.000000,100.000000,,,,,,,,,,,,,,,,,,,,,,,,,,,,,,,,,,,,,,,,,,,,,,,,,,,,,,,,,,,,,,,,,,,,,,,,,,,,,,,,,,,,,,,,,,,,,,,,,,,,,,,,,,,,,,,,,,,,,
1768372342.783294,1768372342.784064,124.000000,0.000000,4321.666504,4314.743652,4338.077148,4339.871582,4308.205078,4314.102539,4311.794922,4321.922852,4310.769043,4285.641113,4505.256348,4528.333496,4378.974121,4447.436035,5026.000000,2.000000,36.000000,,,,0.000000,4.000000,4.000000,4.000000,4.000000,4.000000,4.000000,4.000000,4.000000,4.000000,4.000000,4.000000,4.000000,4.000000,4.000000,100.000000,,,,,,,,,,,,,,,,,,,,,,,,,,,,,,,,,,,,,,,,,,,,,,,,,,,,,,,,,,,,,,,,,,,,,,,,,,,,,,,,,,,,,,,,,,,,,,,,,,,,,,,,,,,,,,,,,,,,,
1768372342.791103,1768372342.791873,125.000000,0.000000,4327.692383,4320.128418,4344.358887,4347.436035,4304.487305,4309.230957,4311.025879,4316.410156,4307.051270,4289.102539,4506.922852,4528.205078,4390.641113,4460.641113,5422.000000,2.000000,36.000000,,,,0.000000,4.000000,4.000000,4.000000,4.000000,4.000000,4.000000,4.000000,4.000000,4.000000,4.000000,4.000000,4.000000,4.000000,4.000000,100.000000,,,,,,,,,,,,,,,,,,,,,,,,,,,,,,,,,,,,,,,,,,,,,,,,,,,,,,,,,,,,,,,,,,,,,,,,,,,,,,,,,,,,,,,,,,,,,,,,,,,,,,,,,,,,,,,,,,,,,
1768372342.798911,1768372342.799581,126.000000,0.000000,4329.102539,4326.025879,4352.563965,4352.179688,4303.717773,4313.717773,4310.641113,4313.461426,4297.179688,4289.230957,4506.282227,4527.820313,4390.384766,4459.358887,4402.000000,2.000000,36.000000,,,,0.000000,4.000000,4.000000,4.000000,4.000000,4.000000,4.000000,4.000000,4.000000,4.000000,4.000000,4.000000,4.000000,4.000000,4.000000,100.000000,,,,,,,,,,,,,,,,,,,,,,,,,,,,,,,,,,,,,,,,,,,,,,,,0.368958,0.372133,0.144836,0.203194,0.097668,0.957799,0.424181,0.134888,0.120068,0.099582,0.228619,0.137868,0.199772,0.084565,0.076138,0.368839,0.243332,0.115503,0.090883,0.109691,0.307423,0.062788,0.058503,0.035464,0.038745,0.072069,0.076077,0.059607,0.059465,0.055712,0.276975,0.261942,0.143672,0.099132,0.095436,0.280387,0.270962,0.135494,0.180452,0.131147,0.322159,0.361727,0.214215,0.169046,0.189771,0.470568,0.526371,0.230121,0.337946,0.176278,0.581891,0.416352,0.230441,0.170457,0.090805,0.506325,0.327728,0.309966,0.190788,0.130434,0.614902,0.459284,0.192369,0.156023,0.111328,0.698620,0.507547,0.414344,0.283921,0.181178
1768372342.806720,1768372342.807390,127.000000,0.000000,4327.307617,4318.717773,4351.666504,4347.436035,4306.410156,4315.000000,4310.128418,4316.666504,4297.179688,4289.871582,4505.897461,4526.153809,4384.743652,4456.153809,36.000000,2.000000,36.000000,,,,0.000000,4.000000,4.000000,4.000000,4.000000,4.000000,4.000000,4.000000,4.000000,4.000000,4.000000,4.000000,4.000000,4.000000,4.000000,100.000000,,,,,,,,,,,,,,,,,,,,,,,,,,,,,,,,,,,,,,,,,,,,,,,,,,,,,,,,,,,,,,,,,,,,,,,,,,,,,,,,,,,,,,,,,,,,,,,,,,,,,,,,,,,,,,,,,,,,,
1768372342.814528,1768372342.815398,0.000000,0.000000,4325.897461,4317.820313,4345.128418,4346.025879,4308.333496,4311.666504,4309.615234,4316.410156,4303.846191,4293.205078,4506.410156,4526.666504,4390.000000,4458.077148,4056.000000,2.000000,36.000000,,,,0.000000,4.000000,4.000000,4.000000,4.000000,4.000000,4.000000,4.000000,4.000000,4.000000,4.000000,4.000000,4.000000,4.000000,4.000000,100.000000,,,,,,,,,,,,,,,,,,,,,,,,,,,,,,,,,,,,,,,,,,,,,,,,,,,,,,,,,,,,,,,,,,,,,,,,,,,,,,,,,,,,,,,,,,,,,,,,,,,,,,,,,,,,,,,,,,,,,
1768372342.822337,1768372342.823206,1.000000,0.000000,4326.153809,4321.794922,4344.871582,4346.282227,4306.538574,4311.666504,4308.974121,4317.179688,4309.102539,4296.666504,4507.307617,4534.615234,4395.641113,4459.615234,3979.000000,2.000000,36.000000,,,,0.000000,4.000000,4.000000,4.000000,4.000000,4.000000,4.000000,4.000000,4.000000,4.000000,4.000000,4.000000,4.000000,4.000000,4.000000,100.000000,,,,,,,,,,,,,,,,,,,,,,,,,,,,,,,,,,,,,,,,,,,,,,,,,,,,,,,,,,,,,,,,,,,,,,,,,,,,,,,,,,,,,,,,,,,,,,,,,,,,,,,,,,,,,,,,,,,,,
1768372342.830145,1768372342.831115,2.000000,0.000000,4331.538574,4320.641113,4352.307617,4347.948730,4305.897461,4310.641113,4308.974121,4323.205078,4309.871582,4293.589844,4512.820313,4540.128418,4394.743652,4461.153809,3887.000000,2.000000,36.000000,,,,0.000000,4.000000,4.000000,4.000000,4.000000,4.000000,4.000000,4.000000,4.000000,4.000000,4.000000,4.000000,4.000000,4.000000,4.000000,100.000000,,,,,,,,,,,,,,,,,,,,,,,,,,,,,,,,,,,,,,,,,,,,,,,,,,,,,,,,,,,,,,,,,,,,,,,,,,,,,,,,,,,,,,,,,,,,,,,,,,,,,,,,,,,,,,,,,,,,,
1768372342.837953,1768372342.838923,3.000000,0.000000,4336.794922,4323.717773,4358.717773,4352.563965,4311.025879,4311.153809,4309.358887,4327.307617,4308.589844,4293.589844,4517.051270,4542.563965,4396.153809,4461.922852,3862.000000,2.000000,36.000000,,,,0.000000,4.000000,4.000000,4.000000,4.000000,4.000000,4.000000,4.000000,4.000000,4.000000,4.000000,4.000000,4.000000,4.000000,4.000000,100.000000,,,,,,,,,,,,,,,,,,,,,,,,,,,,,,,,,,,,,,,,,,,,,,,,,,,,,,,,,,,,,,,,,,,,,,,,,,,,,,,,,,,,,,,,,,,,,,,,,,,,,,,,,,,,,,,,,,,,,
1768372342.845762,1768372342.846832,4.000000,0.000000,4335.128418,4327.563965,4357.307617,4354.487305,4312.179688,4315.641113,4310.897461,4325.384766,4306.282227,4292.820313,4514.615234,4544.487305,4397.820313,4461.666504,3775.000000,2.000000,36.000000,,,,0.000000,4.000000,4.000000,4.000000,4.000000,4.000000,4.000000,4.000000,4.000000,4.000000,4.000000,4.000000,4.000000,4.000000,4.000000,100.000000,,,,,,,,,,,,,,,,,,,,,,,,,,,,,,,,,,,,,,,,,,,,,,,,,,,,,,,,,,,,,,,,,,,,,,,,,,,,,,,,,,,,,,,,,,,,,,,,,,,,,,,,,,,,,,,,,,,,,
1768372342.853570,1768372342.854640,5.000000,0.000000,4334.358887,4324.230957,4355.256348,4353.717773,4306.282227,4317.820313,4315.256348,4323.461426,4305.512695,4288.077148,4519.230957,4544.358887,4398.589844,4466.410156,3747.000000,2.000000,36.000000,,,,0.000000,4.000000,4.000000,4.000000,4.000000,4.000000,4.000000,4.000000,4.000000,4.000000,4.000000,4.000000,4.000000,4.000000,4.000000,100.000000,,,,,,,,,,,,,,,,,,,,,,,,,,,,,,,,,,,,,,,,,,,,,,,,,,,,,,,,,,,,,,,,,,,,,,,,,,,,,,,,,,,,,,,,,,,,,,,,,,,,,,,,,,,,,,,,,,,,,
1768372342.861379,1768372342.862349,6.000000,0.000000,4340.256348,4324.487305,4359.230957,4356.282227,4304.743652,4316.025879,4316.410156,4322.307617,4307.051270,4293.461426,4525.000000,4548.205078,4400.897461,4474.102539,3749.000000,2.000000,36.000000,,,,0.000000,4.000000,4.000000,4.000000,4.000000,4.000000,4.000000,4.000000,4.000000,4.000000,4.000000,4.000000,4.000000,4.000000,4.000000,100.000000,,,,,,,,,,,,,,,,,,,,,,,,,,,,,,,,,,,,,,,,,,,,,,,,,,,,,,,,,,,,,,,,,,,,,,,,,,,,,,,,,,,,,,,,,,,,,,,,,,,,,,,,,,,,,,,,,,,,,
1768372342.869187,1768372342.870157,7.000000,0.000000,4343.333496,4325.897461,4361.794922,4357.307617,4307.436035,4311.794922,4310.897461,4317.436035,4300.641113,4297.563965,4515.000000,4550.256348,4396.922852,4473.589844,3765.000000,2.000000,36.000000,,,,0.000000,4.000000,4.000000,4.000000,4.000000,4.000000,4.000000,4.000000,4.000000,4.000000,4.000000,4.000000,4.000000,4.000000,4.000000,100.000000,,,,,,,,,,,,,,,,,,,,,,,,,,,,,,,,,,,,,,,,,,,,,,,,,,,,,,,,,,,,,,,,,,,,,,,,,,,,,,,,,,,,,,,,,,,,,,,,,,,,,,,,,,,,,,,,,,,,,
1768372342.876996,1768372342.878165,8.000000,0.000000,4340.769043,4323.589844,4358.974121,4356.410156,4309.230957,4310.769043,4308.461426,4317.820313,4295.641113,4292.563965,4510.769043,4544.230957,4395.000000,4470.641113,3957.000000,2.000000,36.000000,,,,0.000000,4.000000,4.000000,4.000000,4.000000,4.000000,4.000000,4.000000,4.000000,4.000000,4.000000,4.000000,4.000000,4.000000,4.000000,100.000000,,,,,,,,,,,,,,,,,,,,,,,,,,,,,,,,,,,,,,,,,,,,,,,,,,,,,,,,,,,,,,,,,,,,,,,,,,,,,,,,,,,,,,,,,,,,,,,,,,,,,,,,,,,,,,,,,,,,,
1768372342.884804,1768372342.885974,9.000000,0.000000,4340.000000,4324.358887,4358.077148,4359.230957,4311.025879,4316.538574,4315.512695,4325.128418,4306.410156,4292.179688,4522.820313,4541.538574,4400.256348,4473.846191,3929.000000,2.000000,36.000000,,,,0.000000,4.000000,4.000000,4.000000,4.000000,4.000000,4.000000,4.000000,4.000000,4.000000,4.000000,4.000000,4.000000,4.000000,4.000000,100.000000,,,,,,,,,,,,,,,,,,,,,,,,,,,,,,,,,,,,,,,,,,,,,,,,,,,,,,,,,,,,,,,,,,,,,,,,,,,,,,,,,,,,,,,,,,,,,,,,,,,,,,,,,,,,,,,,,,,,,
1768372342.892613,1768372342.893682,10.000000,0.000000,4341.282227,4326.282227,4357.563965,4358.974121,4312.307617,4325.000000,4325.641113,4325.897461,4313.461426,4296.794922,4526.153809,4542.563965,4400.512695,4475.897461,4402.000000,2.000000,36.000000,,,,0.000000,4.000000,4.000000,4.000000,4.000000,4.000000,4.000000,4.000000,4.000000,4.000000,4.000000,4.000000,4.000000,4.000000,4.000000,100.000000,,,,,,,,,,,,,,,,,,,,,,,,,,,,,,,,,,,,,,,,,,,,,,,,,,,,,,,,,,,,,,,,,,,,,,,,,,,,,,,,,,,,,,,,,,,,,,,,,,,,,,,,,,,,,,,,,,,,,
1768372342.900421,1768372342.901491,11.000000,0.000000,4341.410156,4326.282227,4355.000000,4357.948730,4312.436035,4325.769043,4325.384766,4324.230957,4309.358887,4295.641113,4521.025879,4544.615234,4400.000000,4472.820313,4687.000000,2.000000,36.000000,,,,0.000000,4.000000,4.000000,4.000000,4.000000,4.000000,4.000000,4.000000,4.000000,4.000000,4.000000,4.000000,4.000000,4.000000,4.000000,100.000000,,,,,,,,,,,,,,,,,,,,,,,,,,,,,,,,,,,,,,,,,,,,,,,,,,,,,,,,,,,,,,,,,,,,,,,,,,,,,,,,,,,,,,,,,,,,,,,,,,,,,,,,,,,,,,,,,,,,,
1768372342.908229,1768372342.909099,12.000000,0.000000,4339.487305,4324.102539,4352.948730,4357.436035,4312.051270,4320.897461,4318.461426,4327.820313,4309.743652,4298.333496,4523.205078,4546.794922,4408.333496,4471.922852,5028.000000,2.000000,36.000000,,,,0.000000,4.000000,4.000000,4.000000,4.000000,4.000000,4.000000,4.000000,4.000000,4.000000,4.000000,4.000000,4.000000,4.000000,4.000000,100.000000,,,,,,,,,,,,,,,,,,,,,,,,,,,,,,,,,,,,,,,,,,,,,,,,,,,,,,,,,,,,,,,,,,,,,,,,,,,,,,,,,,,,,,,,,,,,,,,,,,,,,,,,,,,,,,,,,,,,,
1768372342.916038,1768372342.916908,13.000000,0.000000,4338.205078,4324.871582,4353.846191,4356.794922,4312.436035,4319.358887,4319.743652,4329.102539,4313.717773,4303.974121,4525.512695,4542.563965,4412.179688,4473.717773,5427.000000,2.000000,36.000000,,,,0.000000,4.000000,4.000000,4.000000,4.000000,4.000000,4.000000,4.000000,4.000000,4.000000,4.000000,4.000000,4.000000,4.000000,4.000000,100.000000,,,,,,,,,,,,,,,,,,,,,,,,,,,,,,,,,,,,,,,,,,,,,,,,,,,,,,,,,,,,,,,,,,,,,,,,,,,,,,,,,,,,,,,,,,,,,,,,,,,,,,,,,,,,,,,,,,,,,
1768372342.923846,1768372342.924616,14.000000,0.000000,4342.179688,4328.461426,4353.717773,4360.384766,4312.820313,4322.436035,4321.025879,4324.358887,4312.436035,4297.692383,4524.230957,4534.487305,4405.897461,4470.128418,4402.000000,2.000000,36.000000,,,,0.000000,4.000000,4.000000,4.000000,4.000000,4.000000,4.000000,4.000000,4.000000,4.000000,4.000000,4.000000,4.000000,4.000000,4.000000,100.000000,1.000000,50.000000,4.000000,4.000000,4.000000,4.000000,1.000000,1.000000,4.000000,4.000000,4.000000,4.000000,4.000000,4.000000,4.000000,4.000000,,,,,,,,,,,,,,,,,,,,,,,,,,,,,,,,0.522841,0.351379,0.145798,0.180339,0.078532,0.954526,0.418613,0.131998,0.126504,0.089013,0.249051,0.169551,0.212210,0.085371,0.073417,0.425413,0.270443,0.100477,0.097906,0.100612,0.409929,0.079913,0.054511,0.034613,0.039523,0.082191,0.097279,0.062150,0.057664,0.048333,0.335872,0.349499,0.141251,0.105996,0.089166,0.301385,0.294739,0.173676,0.179714,0.114700,0.399863,0.386484,0.253490,0.176458,0.170559,0.594085,0.573218,0.229189,0.308469,0.171100,0.844465,0.435801,0.272989,0.165666,0.094827,0.521116,0.324951,0.360275,0.193591,0.126534,0.814242,0.448683,0.213558,0.149212,0.106015,0.892521,0.495670,0.448200,0.249151,0.153910
1768372342.931655,1768372342.932425,15.000000,0.000000,4340.128418,4327.051270,4347.179688,4356.153809,4311.153809,4319.743652,4314.230957,4323.333496,4309.102539,4293.077148,4521.282227,4533.974121,4401.025879,4460.000000,4687.000000,2.000000,36.000000,,,,0.000000,4.000000,4.000000,4.000000,4.000000,4.000000,4.000000,4.000000,4.000000,4.000000,4.000000,4.000000,4.000000,4.000000,4.000000,100.000000,,,,,,,,,,,,,,,,,,,,,,,,,,,,,,,,,,,,,,,,,,,,,,,,,,,,,,,,,,,,,,,,,,,,,,,,,,,,,,,,,,,,,,,,,,,,,,,,,,,,,,,,,,,,,,,,,,,,,
1768372342.939463,1768372342.940433,16.000000,0.000000,4329.358887,4318.974121,4342.948730,4345.897461,4306.153809,4313.589844,4313.846191,4327.051270,4310.256348,4298.461426,4518.333496,4537.563965,4396.666504,4457.820313,0.000000,2.000000,36.000000,,,,0.000000,4.000000,4.000000,4.000000,4.000000,4.000000,4.000000,4.000000,4.000000,4.000000,4.000000,4.000000,4.000000,4.000000,4.000000,100.000000,,,,,,,,,,,,,,,,,,,,,,,,,,,,,,,,,,,,,,,,,,,,,,,,,,,,,,,,,,,,,,,,,,,,,,,,,,,,,,,,,,,,,,,,,,,,,,,,,,,,,,,,,,,,,,,,,,,,,
1768372342.947271,1768372342.948242,17.000000,0.000000,4327.307617,4316.153809,4348.205078,4347.692383,4304.358887,4314.743652,4318.077148,4326.410156,4312.820313,4302.948730,4521.794922,4536.666504,4395.641113,4462.692383,0.000000,2.000000,36.000000,,,,0.000000,4.000000,4.000000,4.000000,4.000000,4.000000,4.000000,4.000000,4.000000,4.000000,4.000000,4.000000,4.000000,4.000000,4.000000,100.000000,,,,,,,,,,,,,,,,,,,,,,,,,,,,,,,,,,,,,,,,,,,,,,,,,,,,,,,,,,,,,,,,,,,,,,,,,,,,,,,,,,,,,,,,,,,,,,,,,,,,,,,,,,,,,,,,,,,,,
1768372342.955080,1768372342.956150,18.000000,0.000000,4336.282227,4321.666504,4353.589844,4354.615234,4307.820313,4318.589844,4318.846191,4324.358887,4308.205078,4296.922852,4525.128418,4537.179688,4403.974121,4462.692383,0.000000,2.000000,36.000000,,,,0.000000,4.000000,4.000000,4.000000,4.000000,4.000000,4.000000,4.000000,4.000000,4.000000,4.000000,4.000000,4.000000,4.000000,4.000000,100.000000,,,,,,,,,,,,,,,,,,,,,,,,,,,,,,,,,,,,,,,,,,,,,,,,,,,,,,,,,,,,,,,,,,,,,,,,,,,,,,,,,,,,,,,,,,,,,,,,,,,,,,,,,,,,,,,,,,,,,
1768372342.962888,1768372342.963958,19.000000,0.000000,4342.436035,4323.589844,4353.333496,4350.512695,4308.077148,4318.846191,4321.922852,4331.410156,4311.282227,4296.794922,4523.846191,4542.948730,4410.384766,4466.538574,0.000000,2.000000,36.000000,,,,0.000000,4.000000,4.000000,4.000000,4.000000,4.000000,4.000000,4.000000,4.000000,4.000000,4.000000,4.000000,4.000000,4.000000,4.000000,100.000000,,,,,,,,,,,,,,,,,,,,,,,,,,,,,,,,,,,,,,,,,,,,,,,,,,,,,,,,,,,,,,,,,,,,,,,,,,,,,,,,,,,,,,,,,,,,,,,,,,,,,,,,,,,,,,,,,,,,,
1768372342.970697,1768372342.971967,20.000000,0.000000,4338.846191,4321.025879,4348.846191,4347.948730,4304.871582,4318.333496,4326.282227,4339.871582,4323.077148,4306.666504,4525.512695,4547.948730,4406.538574,4474.487305,0.000000,2.000000,36.000000,,,,0.000000,4.000000,4.000000,4.000000,4.000000,4.000000,4.000000,4.000000,4.000000,4.000000,4.000000,4.000000,4.000000,4.000000,4.000000,100.000000,,,,,,,,,,,,,,,,,,,,,,,,,,,,,,,,,,,,,,,,,,,,,,,,,,,,,,,,,,,,,,,,,,,,,,,,,,,,,,,,,,,,,,,,,,,,,,,,,,,,,,,,,,,,,,,,,,,,,
1768372342.978505,1768372342.979775,21.000000,0.000000,4330.641113,4318.589844,4345.769043,4349.871582,4305.512695,4316.666504,4323.589844,4335.641113,4318.846191,4302.051270,4527.820313,4547.179688,4401.153809,4473.974121,0.000000,2.000000,36.000000,,,,0.000000,4.000000,4.000000,4.000000,4.000000,4.000000,4.000000,4.000000,4.000000,4.000000,4.000000,4.000000,4.000000,4.000000,4.000000,100.000000,,,,,,,,,,,,,,,,,,,,,,,,,,,,,,,,,,,,,,,,,,,,,,,,,,,,,,,,,,,,,,,,,,,,,,,,,,,,,,,,,,,,,,,,,,,,,,,,,,,,,,,,,,,,,,,,,,,,,
1768372342.986314,1768372342.987484,22.000000,0.000000,4329.358887,4316.153809,4346.282227,4345.641113,4306.922852,4312.179688,4317.436035,4331.025879,4313.333496,4295.384766,4526.922852,4546.410156,4404.743652,4471.282227,0.000000,2.000000,36.000000,,,,0.000000,4.000000,4.000000,4.000000,4.000000,4.000000,4.000000,4.000000,4.000000,4.000000,4.000000,4.000000,4.000000,4.000000,4.000000,100.000000,,,,,,,,,,,,,,,,,,,,,,,,,,,,,,,,,,,,,,,,,,,,,,,,,,,,,,,,,,,,,,,,,,,,,,,,,,,,,,,,,,,,,,,,,,,,,,,,,,,,,,,,,,,,,,,,,,,,,
1768372342.994122,1768372342.995292,23.000000,0.000000,4338.974121,4317.563965,4350.641113,4344.871582,4305.769043,4308.717773,4316.025879,4334.487305,4322.692383,4307.820313,4529.487305,4551.282227,4412.436035,4476.153809,0.000000,2.000000,36.000000,,,,0.000000,4.000000,4.000000,4.000000,4.000000,4.000000,4.000000,4.000000,4.000000,4.000000,4.000000,4.000000,4.000000,4.000000,4.000000,100.000000,,,,,,,,,,,,,,,,,,,,,,,,,,,,,,,,,,,,,,,,,,,,,,,,,,,,,,,,,,,,,,,,,,,,,,,,,,,,,,,,,,,,,,,,,,,,,,,,,,,,,,,,,,,,,,,,,,,,,
1768372343.001931,1768372343.002901,24.000000,0.000000,4345.384766,4322.692383,4351.282227,4349.871582,4306.410156,4308.846191,4319.487305,4334.102539,4320.256348,4314.615234,4531.410156,4552.948730,4413.589844,4478.205078,0.000000,2.000000,36.000000,,,,0.000000,4.000000,4.000000,4.000000,4.000000,4.000000,4.000000,4.000000,4.000000,4.000000,4.000000,4.000000,4.000000,4.000000,4.000000,100.000000,,,,,,,,,,,,,,,,,,,,,,,,,,,,,,,,,,,,,,,,,,,,,,,,,,,,,,,,,,,,,,,,,,,,,,,,,,,,,,,,,,,,,,,,,,,,,,,,,,,,,,,,,,,,,,,,,,,,,
1768372343.009739,1768372343.010709,25.000000,0.000000,4340.384766,4319.743652,4348.846191,4351.922852,4307.692383,4312.179688,4321.922852,4332.563965,4310.641113,4302.692383,4526.538574,4550.256348,4407.179688,4474.358887,0.000000,2.000000,36.000000,,,,0.000000,4.000000,4.000000,4.000000,4.000000,4.000000,4.000000,4.000000,4.000000,4.000000,4.000000,4.000000,4.000000,4.000000,4.000000,100.000000,,,,,,,,,,,,,,,,,,,,,,,,,,,,,,,,,,,,,,,,,,,,,,,,,,,,,,,,,,,,,,,,,,,,,,,,,,,,,,,,,,,,,,,,,,,,,,,,,,,,,,,,,,,,,,,,,,,,,
1768372343.017547,1768372343.018617,26.000000,0.000000,4335.256348,4312.563965,4349.871582,4348.589844,4307.179688,4317.436035,4322.179688,4332.307617,4313.333496,4297.436035,4525.256348,4553.077148,4401.410156,4474.487305,0.000000,2.000000,36.000000,,,,0.000000,4.000000,4.000000,4.000000,4.000000,4.000000,4.000000,4.000000,4.000000,4.000000,4.000000,4.000000,4.000000,4.000000,4.000000,100.000000,,,,,,,,,,,,,,,,,,,,,,,,,,,,,,,,,,,,,,,,,,,,,,,,,,,,,,,,,,,,,,,,,,,,,,,,,,,,,,,,,,,,,,,,,,,,,,,,,,,,,,,,,,,,,,,,,,,,,
1768372343.025356,1768372343.026426,27.000000,0.000000,4332.179688,4311.410156,4348.205078,4346.538574,4306.794922,4316.794922,4322.051270,4329.743652,4315.256348,4298.974121,4523.846191,4547.436035,4400.256348,4470.512695,0.000000,2.000000,36.000000,,,,0.000000,4.000000,4.000000,4.000000,4.000000,4.000000,4.000000,4.000000,4.000000,4.000000,4.000000,4.000000,4.000000,4.000000,4.000000,100.000000,,,,,,,,,,,,,,,,,,,,,,,,,,,,,,,,,,,,,,,,,,,,,,,,,,,,,,,,,,,,,,,,,,,,,,,,,,,,,,,,,,,,,,,,,,,,,,,,,,,,,,,,,,,,,,,,,,,,,
1768372343.033164,1768372343.034134,28.000000,0.000000,4332.179688,4312.051270,4343.589844,4347.307617,4306.794922,4311.538574,4316.666504,4328.846191,4308.589844,4293.333496,4514.871582,4530.641113,4393.717773,4461.025879,0.000000,2.000000,36.000000,,,,0.000000,4.000000,4.000000,4.000000,4.000000,4.000000,4.000000,4.000000,4.000000,4.000000,4.000000,4.000000,4.000000,4.000000,4.000000,100.000000,,,,,,,,,,,,,,,,,,,,,,,,,,,,,,,,,,,,,,,,,,,,,,,,,,,,,,,,,,,,,,,,,,,,,,,,,,,,,,,,,,,,,,,,,,,,,,,,,,,,,,,,,,,,,,,,,,,,,
1768372343.040973,1768372343.041943,29.000000,0.000000,4337.179688,4311.538574,4344.615234,4346.794922,4306.538574,4309.615234,4310.897461,4327.820313,4303.333496,4291.538574,4507.948730,4527.948730,4388.205078,4458.077148,0.000000,2.000000,36.000000,,,,0.000000,4.000000,4.000000,4.000000,4.000000,4.000000,4.000000,4.000000,4.000000,4.000000,4.000000,4.000000,4.000000,4.000000,4.000000,100.000000,,,,,,,,,,,,,,,,,,,,,,,,,,,,,,,,,,,,,,,,,,,,,,,,,,,,,,,,,,,,,,,,,,,,,,,,,,,,,,,,,,,,,,,,,,,,,,,,,,,,,,,,,,,,,,,,,,,,,
1768372343.048781,1768372343.049651,30.000000,0.000000,4336.410156,4311.410156,4347.692383,4345.897461,4307.948730,4311.794922,4312.179688,4322.307617,4301.538574,4292.436035,4508.205078,4537.179688,4391.538574,4461.410156,0.000000,2.000000,36.000000,,,,0.000000,4.000000,4.000000,4.000000,4.000000,4.000000,4.000000,4.000000,4.000000,4.000000,4.000000,4.000000,4.000000,4.000000,4.000000,100.000000,,,,,,,,,,,,,,,,,,,,,,,,,,,,,,,,,,,,,,,,,,,,,,,,0.712977,0.332474,0.153960,0.158307,0.066479,0.969258,0.387465,0.134466,0.128371,0.077539,0.306604,0.207293,0.226615,0.093067,0.075054,0.498678,0.306764,0.090962,0.105875,0.095345,0.523025,0.112734,0.052254,0.037488,0.042258,0.105250,0.127170,0.071770,0.056277,0.044316,0.397740,0.416815,0.142441,0.114732,0.086868,0.302886,0.340009,0.219587,0.181883,0.101259,0.465564,0.402979,0.295192,0.183431,0.152268,0.700064,0.621839,0.234545,0.262279,0.166750,1.113655,0.446605,0.306952,0.156908,0.096568,0.559231,0.331550,0.402544,0.194512,0.125596,1.033061,0.410831,0.232067,0.145177,0.105461,1.089402,0.487289,0.485766,0.226046,0.134315
1768372343.056590,1768372343.057460,31.000000,0.000000,4328.077148,4311.410156,4342.692383,4345.641113,4305.897461,4311.282227,4310.000000,4319.102539,4305.384766,4292.179688,4512.051270,4534.743652,4396.282227,4461.282227,0.000000,2.000000,36.000000,,,,0.000000,4.000000,4.000000,4.000000,4.000000,4.000000,4.000000,4.000000,4.000000,4.000000,4.000000,4.000000,4.000000,4.000000,4.000000,100.000000,,,,,,,,,,,,,,,,,,,,,,,,,,,,,,,,,,,,,,,,,,,,,,,,,,,,,,,,,,,,,,,,,,,,,,,,,,,,,,,,,,,,,,,,,,,,,,,,,,,,,,,,,,,,,,,,,,,,,
1768372343.064398,1768372343.065069,32.000000,0.000000,4325.128418,4310.641113,4339.487305,4345.897461,4303.589844,4309.615234,4307.307617,4324.615234,4312.307617,4299.102539,4521.538574,4532.820313,4398.077148,4460.641113,0.000000,2.000000,36.000000,,,,0.000000,4.000000,4.000000,4.000000,4.000000,4.000000,4.000000,4.000000,4.000000,4.000000,4.000000,4.000000,4.000000,4.000000,4.000000,100.000000,,,,,,,,,,,,,,,,,,,,,,,,,,,,,,,,,,,,,,,,,,,,,,,,,,,,,,,,,,,,,,,,,,,,,,,,,,,,,,,,,,,,,,,,,,,,,,,,,,,,,,,,,,,,,,,,,,,,,
1768372343.072207,1768372343.072877,33.000000,0.000000,4331.666504,4309.358887,4342.307617,4342.948730,4305.641113,4311.666504,4311.538574,4330.384766,4312.179688,4303.077148,4524.102539,4537.436035,4395.897461,4462.051270,0.000000,2.000000,36.000000,,,,0.000000,4.000000,4.000000,4.000000,4.000000,4.000000,4.000000,4.000000,4.000000,4.000000,4.000000,4.000000,4.000000,4.000000,4.000000,100.000000,,,,,,,,,,,,,,,,,,,,,,,,,,,,,,,,,,,,,,,,,,,,,,,,,,,,,,,,,,,,,,,,,,,,,,,,,,,,,,,,,,,,,,,,,,,,,,,,,,,,,,,,,,,,,,,,,,,,,
1768372343.080015,1768372343.080785,34.000000,0.000000,4334.871582,4307.051270,4340.384766,4339.102539,4300.897461,4310.128418,4313.717773,4328.974121,4310.256348,4297.948730,4512.563965,4533.205078,4390.769043,4459.487305,0.000000,2.000000,36.000000,,,,0.000000,4.000000,4.000000,4.000000,4.000000,4.000000,4.000000,4.000000,4.000000,4.000000,4.000000,4.000000,4.000000,4.000000,4.000000,100.000000,,,,,,,,,,,,,,,,,,,,,,,,,,,,,,,,,,,,,,,,,,,,,,,,,,,,,,,,,,,,,,,,,,,,,,,,,,,,,,,,,,,,,,,,,,,,,,,,,,,,,,,,,,,,,,,,,,,,,
1768372343.087824,1768372343.088594,35.000000,0.000000,4334.871582,4306.666504,4340.384766,4342.948730,4296.922852,4305.897461,4309.871582,4326.922852,4311.153809,4296.538574,4510.897461,4530.000000,4391.153809,4458.205078,0.000000,2.000000,36.000000,,,,0.000000,4.000000,4.000000,4.000000,4.000000,4.000000,4.000000,4.000000,4.000000,4.000000,4.000000,4.000000,4.000000,4.000000,4.000000,100.000000,,,,,,,,,,,,,,,,,,,,,,,,,,,,,,,,,,,,,,,,,,,,,,,,,,,,,,,,,,,,,,,,,,,,,,,,,,,,,,,,,,,,,,,,,,,,,,,,,,,,,,,,,,,,,,,,,,,,,
1768372343.095632,1768372343.096202,36.000000,0.000000,4335.128418,4310.256348,4344.102539,4348.589844,4304.230957,4307.051270,4307.692383,4327.692383,4310.641113,4297.563965,4520.384766,4536.922852,4398.333496,4460.897461,0.000000,2.000000,36.000000,,,,0.000000,4.000000,4.000000,4.000000,4.000000,4.000000,4.000000,4.000000,4.000000,4.000000,4.000000,4.000000,4.000000,4.000000,4.000000,100.000000,,,,,,,,,,,,,,,,,,,,,,,,,,,,,,,,,,,,,,,,,,,,,,,,,,,,,,,,,,,,,,,,,,,,,,,,,,,,,,,,,,,,,,,,,,,,,,,,,,,,,,,,,,,,,,,,,,,,,
1768372343.103440,1768372343.104011,37.000000,0.000000,4335.512695,4313.461426,4344.230957,4347.563965,4309.487305,4311.794922,4309.871582,4324.871582,4309.230957,4293.205078,4521.153809,4535.897461,4401.153809,4460.384766,0.000000,2.000000,36.000000,,,,0.000000,4.000000,4.000000,4.000000,4.000000,4.000000,4.000000,4.000000,4.000000,4.000000,4.000000,4.000000,4.000000,4.000000,4.000000,100.000000,,,,,,,,,,,,,,,,,,,,,,,,,,,,,,,,,,,,,,,,,,,,,,,,,,,,,,,,,,,,,,,,,,,,,,,,,,,,,,,,,,,,,,,,,,,,,,,,,,,,,,,,,,,,,,,,,,,,,
1768372343.111249,1768372343.111719,38.000000,0.000000,4338.077148,4313.461426,4342.692383,4343.846191,4305.769043,4311.410156,4309.871582,4320.512695,4309.102539,4295.897461,4519.615234,4529.358887,4401.538574,4463.974121,0.000000,2.000000,36.000000,,,,0.000000,4.000000,4.000000,4.000000,4.000000,4.000000,4.000000,4.000000,4.000000,4.000000,4.000000,4.000000,4.000000,4.000000,4.000000,100.000000,,,,,,,,,,,,,,,,,,,,,,,,,,,,,,,,,,,,,,,,,,,,,,,,,,,,,,,,,,,,,,,,,,,,,,,,,,,,,,,,,,,,,,,,,,,,,,,,,,,,,,,,,,,,,,,,,,,,,
1768372343.119057,1768372343.119528,39.000000,0.000000,4338.589844,4312.179688,4340.897461,4348.333496,4305.256348,4309.358887,4307.948730,4320.256348,4307.820313,4302.051270,4522.436035,4533.589844,4402.692383,4469.743652,0.000000,2.000000,36.000000,,,,0.000000,4.000000,4.000000,4.000000,4.000000,4.000000,4.000000,4.000000,4.000000,4.000000,4.000000,4.000000,4.000000,4.000000,4.000000,100.000000,,,,,,,,,,,,,,,,,,,,,,,,,,,,,,,,,,,,,,,,,,,,,,,,,,,,,,,,,,,,,,,,,,,,,,,,,,,,,,,,,,,,,,,,,,,,,,,,,,,,,,,,,,,,,,,,,,,,,
1768372343.126866,1768372343.127137,40.000000,0.000000,4339.487305,4312.436035,4342.563965,4353.589844,4309.487305,4309.743652,4308.333496,4320.256348,4305.000000,4302.692383,4524.358887,4538.333496,4402.436035,4466.410156,0.000000,2.000000,36.000000,,,,0.000000,4.000000,4.000000,4.000000,4.000000,4.000000,4.000000,4.000000,4.000000,4.000000,4.000000,4.000000,4.000000,4.000000,4.000000,100.000000,,,,,,,,,,,,,,,,,,,,,,,,,,,,,,,,,,,,,,,,,,,,,,,,,,,,,,,,,,,,,,,,,,,,,,,,,,,,,,,,,,,,,,,,,,,,,,,,,,,,,,,,,,,,,,,,,,,,,
1768372343.134674,1768372343.134945,41.000000,0.000000,4341.666504,4312.820313,4346.282227,4349.743652,4311.025879,4310.769043,4309.871582,4320.769043,4307.563965,4303.333496,4523.589844,4532.820313,4406.153809,4460.128418,0.000000,2.000000,36.000000,,,,0.000000,4.000000,4.000000,4.000000,4.000000,4.000000,4.000000,4.000000,4.000000,4.000000,4.000000,4.000000,4.000000,4.000000,4.000000,100.000000,,,,,,,,,,,,,,,,,,,,,,,,,,,,,,,,,,,,,,,,,,,,,,,,,,,,,,,,,,,,,,,,,,,,,,,,,,,,,,,,,,,,,,,,,,,,,,,,,,,,,,,,,,,,,,,,,,,,,
1768372343.142483,1768372343.142654,42.000000,0.000000,4336.666504,4310.897461,4343.077148,4344.487305,4309.615234,4314.102539,4311.538574,4327.307617,4311.410156,4302.563965,4521.153809,4526.282227,4405.641113,4459.358887,0.000000,2.000000,36.000000,,,,0.000000,4.000000,4.000000,4.000000,4.000000,4.000000,4.000000,4.000000,4.000000,4.000000,4.000000,4.000000,4.000000,4.000000,4.000000,100.000000,,,,,,,,,,,,,,,,,,,,,,,,,,,,,,,,,,,,,,,,,,,,,,,,,,,,,,,,,,,,,,,,,,,,,,,,,,,,,,,,,,,,,,,,,,,,,,,,,,,,,,,,,,,,,,,,,,,,,
1768372343.150291,1768372343.150462,43.000000,0.000000,4330.384766,4308.077148,4337.307617,4343.205078,4307.051270,4313.333496,4312.563965,4331.153809,4310.128418,4303.974121,4520.384766,4528.333496,4399.871582,4459.102539,0.000000,2.000000,36.000000,,,,0.000000,4.000000,4.000000,4.000000,4.000000,4.000000,4.000000,4.000000,4.000000,4.000000,4.000000,4.000000,4.000000,4.000000,4.000000,100.000000,,,,,,,,,,,,,,,,,,,,,,,,,,,,,,,,,,,,,,,,,,,,,,,,,,,,,,,,,,,,,,,,,,,,,,,,,,,,,,,,,,,,,,,,,,,,,,,,,,,,,,,,,,,,,,,,,,,,,
1768372343.158100,1768372343.158470,44.000000,0.000000,4332.436035,4308.205078,4340.512695,4342.563965,4308.205078,4311.794922,4313.333496,4330.256348,4311.794922,4310.384766,4526.153809,4538.589844,4404.102539,4459.358887,0.000000,2.000000,36.000000,,,,0.000000,4.000000,4.000000,4.000000,4.000000,4.000000,4.000000,4.000000,4.000000,4.000000,4.000000,4.000000,4.000000,4.000000,4.000000,100.000000,,,,,,,,,,,,,,,,,,,,,,,,,,,,,,,,,,,,,,,,,,,,,,,,,,,,,,,,,,,,,,,,,,,,,,,,,,,,,,,,,,,,,,,,,,,,,,,,,,,,,,,,,,,,,,,,,,,,,
1768372343.165908,1768372343.166279,45.000000,0.000000,4337.436035,4310.769043,4346.282227,4345.769043,4312.179688,4315.384766,4313.717773,4329.743652,4313.333496,4306.794922,4527.051270,4543.205078,4409.871582,4463.589844,0.000000,2.000000,36.000000,,,,0.000000,4.000000,4.000000,4.000000,4.000000,4.000000,4.000000,4.000000,4.000000,4.000000,4.000000,4.000000,4.000000,4.000000,4.000000,100.000000,,,,,,,,,,,,,,,,,,,,,,,,,,,,,,,,,,,,,,,,,,,,,,,,,,,,,,,,,,,,,,,,,,,,,,,,,,,,,,,,,,,,,,,,,,,,,,,,,,,,,,,,,,,,,,,,,,,,,
1768372343.173716,1768372343.174187,46.000000,0.000000,4339.358887,4311.282227,4344.743652,4351.025879,4311.922852,4314.615234,4311.025879,4325.384766,4308.589844,4295.641113,4520.000000,4533.846191,4401.922852,4461.922852,0.000000,2.000000,36.000000,,,,0.000000,4.000000,4.000000,4.000000,4.000000,4.000000,4.000000,4.000000,4.000000,4.000000,4.000000,4.000000,4.000000,4.000000,4.000000,100.000000,,,,,,,,,,,,,,,,,,,,,,,,,,,,,,,,,,,,,,,,,,,,,,,,0.891072,0.335970,0.164136,0.137166,0.062596,0.998953,0.346907,0.137586,0.123400,0.068256,0.393255,0.250076,0.232889,0.100051,0.080858,0.571227,0.352489,0.085925,0.111646,0.094696,0.620213,0.156777,0.049407,0.042704,0.045941,0.140646,0.160861,0.083602,0.055774,0.044437,0.447430,0.444818,0.140265,0.120901,0.087190,0.289921,0.393307,0.264044,0.190486,0.092289,0.505181,0.408317,0.335624,0.190105,0.137752,0.765770,0.673786,0.244404,0.214579,0.162822,1.314298,0.461719,0.321738,0.145388,0.094853,0.626989,0.348011,0.424315,0.190529,0.127914,1.213449,0.368350,0.241888,0.141820,0.108629,1.244672,0.497217,0.512742,0.211082,0.122979
1768372343.181525,1768372343.181995,47.000000,0.000000,4335.384766,4308.589844,4341.666504,4347.563965,4308.333496,4307.179688,4307.692383,4322.051270,4307.820313,4296.025879,4519.230957,4525.641113,4398.077148,4455.256348,0.000000,2.000000,36.000000,,,,0.000000,4.000000,4.000000,4.000000,4.000000,4.000000,4.000000,4.000000,4.000000,4.000000,4.000000,4.000000,4.000000,4.000000,4.000000,100.000000,,,,,,,,,,,,,,,,,,,,,,,,,,,,,,,,,,,,,,,,,,,,,,,,,,,,,,,,,,,,,,,,,,,,,,,,,,,,,,,,,,,,,,,,,,,,,,,,,,,,,,,,,,,,,,,,,,,,,
1768372343.189333,1768372343.190004,48.000000,0.000000,4325.384766,4309.230957,4341.282227,4340.512695,4309.102539,4305.897461,4307.436035,4320.897461,4309.487305,4301.153809,4524.743652,4530.256348,4410.512695,4458.205078,0.000000,2.000000,36.000000,,,,0.000000,4.000000,4.000000,4.000000,4.000000,4.000000,4.000000,4.000000,4.000000,4.000000,4.000000,4.000000,4.000000,4.000000,4.000000,100.000000,,,,,,,,,,,,,,,,,,,,,,,,,,,,,,,,,,,,,,,,,,,,,,,,,,,,,,,,,,,,,,,,,,,,,,,,,,,,,,,,,,,,,,,,,,,,,,,,,,,,,,,,,,,,,,,,,,,,,
1768372343.197142,1768372343.197812,49.000000,0.000000,4322.179688,4307.307617,4341.282227,4342.051270,4309.230957,4310.128418,4307.948730,4316.794922,4305.384766,4299.230957,4520.641113,4530.000000,4411.922852,4457.692383,0.000000,2.000000,36.000000,,,,0.000000,4.000000,4.000000,4.000000,4.000000,4.000000,4.000000,4.000000,4.000000,4.000000,4.000000,4.000000,4.000000,4.000000,4.000000,100.000000,,,,,,,,,,,,,,,,,,,,,,,,,,,,,,,,,,,,,,,,,,,,,,,,,,,,,,,,,,,,,,,,,,,,,,,,,,,,,,,,,,,,,,,,,,,,,,,,,,,,,,,,,,,,,,,,,,,,,
1768372343.204950,1768372343.205521,50.000000,0.000000,4326.282227,4297.179688,4338.974121,4341.025879,4302.307617,4308.974121,4307.179688,4313.717773,4301.282227,4293.589844,4505.641113,4518.461426,4394.615234,4446.025879,0.000000,2.000000,36.000000,,,,0.000000,4.000000,4.000000,4.000000,4.000000,4.000000,4.000000,4.000000,4.000000,4.000000,4.000000,4.000000,4.000000,4.000000,4.000000,100.000000,,,,,,,,,,,,,,,,,,,,,,,,,,,,,,,,,,,,,,,,,,,,,,,,,,,,,,,,,,,,,,,,,,,,,,,,,,,,,,,,,,,,,,,,,,,,,,,,,,,,,,,,,,,,,,,,,,,,,
1768372343.212759,1768372343.213329,51.000000,0.000000,4324.487305,4294.358887,4339.358887,4334.487305,4298.717773,4308.077148,4309.230957,4318.333496,4305.384766,4293.333496,4506.025879,4520.897461,4391.666504,4445.384766,0.000000,2.000000,36.000000,,,,0.000000,4.000000,4.000000,4.000000,4.000000,4.000000,4.000000,4.000000,4.000000,4.000000,4.000000,4.000000,4.000000,4.000000,4.000000,100.000000,,,,,,,,,,,,,,,,,,,,,,,,,,,,,,,,,,,,,,,,,,,,,,,,,,,,,,,,,,,,,,,,,,,,,,,,,,,,,,,,,,,,,,,,,,,,,,,,,,,,,,,,,,,,,,,,,,,,,
1768372343.220567,1768372343.221337,52.000000,0.000000,4327.307617,4306.410156,4346.538574,4339.743652,4305.128418,4313.205078,4314.230957,4328.846191,4316.410156,4306.666504,4529.743652,4541.153809,4412.436035,4460.769043,0.000000,2.000000,36.000000,,,,0.000000,4.000000,4.000000,4.000000,4.000000,4.000000,4.000000,4.000000,4.000000,4.000000,4.000000,4.000000,4.000000,4.000000,4.000000,100.000000,,,,,,,,,,,,,,,,,,,,,,,,,,,,,,,,,,,,,,,,,,,,,,,,,,,,,,,,,,,,,,,,,,,,,,,,,,,,,,,,,,,,,,,,,,,,,,,,,,,,,,,,,,,,,,,,,,,,,
1768372343.228376,1768372343.229146,53.000000,0.000000,4336.282227,4313.589844,4349.230957,4350.512695,4310.897461,4314.102539,4313.589844,4332.820313,4324.358887,4316.282227,4542.051270,4550.512695,4424.358887,4467.948730,0.000000,2.000000,36.000000,,,,0.000000,4.000000,4.000000,4.000000,4.000000,4.000000,4.000000,4.000000,4.000000,4.000000,4.000000,4.000000,4.000000,4.000000,4.000000,100.000000,,,,,,,,,,,,,,,,,,,,,,,,,,,,,,,,,,,,,,,,,,,,,,,,,,,,,,,,,,,,,,,,,,,,,,,,,,,,,,,,,,,,,,,,,,,,,,,,,,,,,,,,,,,,,,,,,,,,,
1768372343.236184,1768372343.236854,54.000000,0.000000,4334.615234,4309.102539,4343.974121,4349.615234,4308.461426,4309.615234,4309.743652,4328.333496,4320.769043,4309.615234,4529.743652,4542.948730,4413.205078,4464.102539,0.000000,2.000000,36.000000,,,,0.000000,4.000000,4.000000,4.000000,4.000000,4.000000,4.000000,4.000000,4.000000,4.000000,4.000000,4.000000,4.000000,4.000000,4.000000,100.000000,,,,,,,,,,,,,,,,,,,,,,,,,,,,,,,,,,,,,,,,,,,,,,,,,,,,,,,,,,,,,,,,,,,,,,,,,,,,,,,,,,,,,,,,,,,,,,,,,,,,,,,,,,,,,,,,,,,,,
1768372343.243992,1768372343.244663,55.000000,0.000000,4325.897461,4305.641113,4341.410156,4344.743652,4305.769043,4310.512695,4309.743652,4324.743652,4312.307617,4304.615234,4519.230957,4536.538574,4405.000000,4460.897461,0.000000,2.000000,36.000000,,,,0.000000,4.000000,4.000000,4.000000,4.000000,4.000000,4.000000,4.000000,4.000000,4.000000,4.000000,4.000000,4.000000,4.000000,4.000000,100.000000,,,,,,,,,,,,,,,,,,,,,,,,,,,,,,,,,,,,,,,,,,,,,,,,,,,,,,,,,,,,,,,,,,,,,,,,,,,,,,,,,,,,,,,,,,,,,,,,,,,,,,,,,,,,,,,,,,,,,
1768372343.251801,1768372343.252271,56.000000,0.000000,4325.128418,4307.948730,4343.077148,4344.615234,4306.538574,4312.307617,4311.410156,4328.205078,4311.282227,4306.922852,4522.051270,4533.461426,4411.153809,4456.025879,0.000000,2.000000,36.000000,,,,0.000000,4.000000,4.000000,4.000000,4.000000,4.000000,4.000000,4.000000,4.000000,4.000000,4.000000,4.000000,4.000000,4.000000,4.000000,100.000000,,,,,,,,,,,,,,,,,,,,,,,,,,,,,,,,,,,,,,,,,,,,,,,,,,,,,,,,,,,,,,,,,,,,,,,,,,,,,,,,,,,,,,,,,,,,,,,,,,,,,,,,,,,,,,,,,,,,,
1768372343.259609,1768372343.260080,57.000000,0.000000,4328.717773,4309.102539,4341.282227,4344.102539,4307.948730,4306.538574,4307.307617,4326.410156,4312.692383,4305.256348,4526.794922,4531.538574,4413.333496,4456.153809,0.000000,2.000000,36.000000,,,,0.000000,4.000000,4.000000,4.000000,4.000000,4.000000,4.000000,4.000000,4.000000,4.000000,4.000000,4.000000,4.000000,4.000000,4.000000,100.000000,,,,,,,,,,,,,,,,,,,,,,,,,,,,,,,,,,,,,,,,,,,,,,,,,,,,,,,,,,,,,,,,,,,,,,,,,,,,,,,,,,,,,,,,,,,,,,,,,,,,,,,,,,,,,,,,,,,,,
1768372343.267418,1768372343.267788,58.000000,0.000000,4326.794922,4301.922852,4335.769043,4340.897461,4307.563965,4305.256348,4303.077148,4317.692383,4308.846191,4297.563965,4521.410156,4529.871582,4401.666504,4457.692383,0.000000,2.000000,36.000000,,,,0.000000,4.000000,4.000000,4.000000,4.000000,4.000000,4.000000,4.000000,4.000000,4.000000,4.000000,4.000000,4.000000,4.000000,4.000000,100.000000,,,,,,,,,,,,,,,,,,,,,,,,,,,,,,,,,,,,,,,,,,,,,,,,,,,,,,,,,,,,,,,,,,,,,,,,,,,,,,,,,,,,,,,,,,,,,,,,,,,,,,,,,,,,,,,,,,,,,
1768372343.275226,1768372343.275597,59.000000,0.000000,4323.589844,4296.922852,4334.102539,4340.256348,4307.436035,4310.384766,4307.179688,4318.717773,4307.692383,4294.487305,4511.794922,4524.615234,4393.846191,4447.948730,0.000000,2.000000,36.000000,,,,0.000000,4.000000,4.000000,4.000000,4.000000,4.000000,4.000000,4.000000,4.000000,4.000000,4.000000,4.000000,4.000000,4.000000,4.000000,100.000000,,,,,,,,,,,,,,,,,,,,,,,,,,,,,,,,,,,,,,,,,,,,,,,,,,,,,,,,,,,,,,,,,,,,,,,,,,,,,,,,,,,,,,,,,,,,,,,,,,,,,,,,,,,,,,,,,,,,,
1768372343.283035,1768372343.283605,60.000000,0.000000,4323.974121,4305.256348,4338.333496,4344.871582,4309.871582,4312.307617,4312.307617,4323.333496,4309.871582,4298.461426,4512.820313,4520.512695,4400.000000,4442.820313,0.000000,2.000000,36.000000,,,,0.000000,4.000000,4.000000,4.000000,4.000000,4.000000,4.000000,4.000000,4.000000,4.000000,4.000000,4.000000,4.000000,4.000000,4.000000,100.000000,,,,,,,,,,,,,,,,,,,,,,,,,,,,,,,,,,,,,,,,,,,,,,,,,,,,,,,,,,,,,,,,,,,,,,,,,,,,,,,,,,,,,,,,,,,,,,,,,,,,,,,,,,,,,,,,,,,,,
1768372343.290843,1768372343.291414,61.000000,0.000000,4327.179688,4311.538574,4341.410156,4348.974121,4309.102539,4311.410156,4311.025879,4318.461426,4308.461426,4298.717773,4519.102539,4523.717773,4400.641113,4452.179688,0.000000,2.000000,36.000000,,,,0.000000,4.000000,4.000000,4.000000,4.000000,4.000000,4.000000,4.000000,4.000000,4.000000,4.000000,4.000000,4.000000,4.000000,4.000000,100.000000,,,,,,,,,,,,,,,,,,,,,,,,,,,,,,,,,,,,,,,,,,,,,,,,,,,,,,,,,,,,,,,,,,,,,,,,,,,,,,,,,,,,,,,,,,,,,,,,,,,,,,,,,,,,,,,,,,,,,
1768372343.298652,1768372343.299122,62.000000,0.000000,4330.128418,4307.820313,4341.025879,4349.615234,4308.461426,4310.256348,4306.282227,4313.077148,4305.897461,4294.230957,4518.974121,4531.666504,4396.410156,4460.256348,0.000000,2.000000,36.000000,,,,0.000000,4.000000,4.000000,4.000000,4.000000,4.000000,4.000000,4.000000,4.000000,4.000000,4.000000,4.000000,4.000000,4.000000,4.000000,100.000000,,,,,,,,,,,,,,,,,,,,,,,,,,,,,,,,,,,,,,,,,,,,,,,,1.009432,0.363642,0.174687,0.122352,0.066114,1.024917,0.310513,0.139078,0.114630,0.063024,0.493636,0.288568,0.226476,0.104421,0.089542,0.626033,0.396004,0.084538,0.115129,0.097376,0.676518,0.201538,0.046099,0.048496,0.049813,0.185128,0.190918,0.094228,0.058487,0.048721,0.470832,0.426715,0.131206,0.123388,0.088660,0.271570,0.432165,0.297931,0.203621,0.087581,0.510647,0.398498,0.373326,0.194896,0.129257,0.780800,0.720197,0.257857,0.177986,0.158452,1.396607,0.485544,0.321272,0.135905,0.091043,0.733837,0.370848,0.421900,0.182526,0.132202,1.299586,0.341872,0.247310,0.140912,0.113844,1.319811,0.531552,0.522950,0.203243,0.117989
1768372343.306460,1768372343.306931,63.000000,0.000000,4329.487305,4307.179688,4341.794922,4350.128418,4308.974121,4310.512695,4305.000000,4320.512695,4308.461426,4297.307617,4516.282227,4534.487305,4398.461426,4457.436035,0.000000,2.000000,36.000000,,,,0.000000,4.000000,4.000000,4.000000,4.000000,4.000000,4.000000,4.000000,4.000000,4.000000,4.000000,4.000000,4.000000,4.000000,4.000000,100.000000,,,,,,,,,,,,,,,,,,,,,,,,,,,,,,,,,,,,,,,,,,,,,,,,,,,,,,,,,,,,,,,,,,,,,,,,,,,,,,,,,,,,,,,,,,,,,,,,,,,,,,,,,,,,,,,,,,,,,
1768372343.314268,1768372343.314539,64.000000,0.000000,4326.922852,4310.128418,4339.871582,4350.641113,4308.461426,4310.769043,4307.563965,4330.000000,4311.922852,4303.077148,4515.897461,4528.461426,4400.769043,4454.743652,4056.000000,2.000000,36.000000,,,,0.000000,4.000000,4.000000,4.000000,4.000000,4.000000,4.000000,4.000000,4.000000,4.000000,4.000000,4.000000,4.000000,4.000000,4.000000,100.000000,,,,,,,,,,,,,,,,,,,,,,,,,,,,,,,,,,,,,,,,,,,,,,,,,,,,,,,,,,,,,,,,,,,,,,,,,,,,,,,,,,,,,,,,,,,,,,,,,,,,,,,,,,,,,,,,,,,,,
1768372343.322077,1768372343.322348,65.000000,0.000000,4326.538574,4310.000000,4337.307617,4350.897461,4310.384766,4310.128418,4309.615234,4329.102539,4312.179688,4300.384766,4517.692383,4527.179688,4400.256348,4455.897461,3979.000000,2.000000,36.000000,,,,0.000000,4.000000,4.000000,4.000000,4.000000,4.000000,4.000000,4.000000,4.000000,4.000000,4.000000,4.000000,4.000000,4.000000,4.000000,100.000000,,,,,,,,,,,,,,,,,,,,,,,,,,,,,,,,,,,,,,,,,,,,,,,,,,,,,,,,,,,,,,,,,,,,,,,,,,,,,,,,,,,,,,,,,,,,,,,,,,,,,,,,,,,,,,,,,,,,,
1768372343.329885,1768372343.330056,66.000000,0.000000,4328.205078,4311.025879,4340.128418,4352.436035,4312.436035,4314.615234,4309.358887,4323.333496,4311.538574,4295.641113,4522.692383,4533.846191,4400.128418,4460.256348,3887.000000,2.000000,36.000000,,,,0.000000,4.000000,4.000000,4.000000,4.000000,4.000000,4.000000,4.000000,4.000000,4.000000,4.000000,4.000000,4.000000,4.000000,4.000000,100.000000,,,,,,,,,,,,,,,,,,,,,,,,,,,,,,,,,,,,,,,,,,,,,,,,,,,,,,,,,,,,,,,,,,,,,,,,,,,,,,,,,,,,,,,,,,,,,,,,,,,,,,,,,,,,,,,,,,,,,
1768372343.337694,1768372343.337865,67.000000,0.000000,4327.179688,4310.000000,4339.358887,4350.000000,4311.666504,4317.051270,4307.948730,4320.897461,4311.794922,4297.563965,4519.487305,4529.615234,4399.743652,4459.230957,3862.000000,2.000000,36.000000,,,,0.000000,4.000000,4.000000,4.000000,4.000000,4.000000,4.000000,4.000000,4.000000,4.000000,4.000000,4.000000,4.000000,4.000000,4.000000,100.000000,,,,,,,,,,,,,,,,,,,,,,,,,,,,,,,,,,,,,,,,,,,,,,,,,,,,,,,,,,,,,,,,,,,,,,,,,,,,,,,,,,,,,,,,,,,,,,,,,,,,,,,,,,,,,,,,,,,,,
1768372343.345502,1768372343.345873,68.000000,0.000000,4323.461426,4308.077148,4332.436035,4345.384766,4310.641113,4312.820313,4308.974121,4321.282227,4312.307617,4296.410156,4509.871582,4516.922852,4396.794922,4448.205078,3775.000000,2.000000,36.000000,,,,0.000000,4.000000,4.000000,4.000000,4.000000,4.000000,4.000000,4.000000,4.000000,4.000000,4.000000,4.000000,4.000000,4.000000,4.000000,100.000000,,,,,,,,,,,,,,,,,,,,,,,,,,,,,,,,,,,,,,,,,,,,,,,,,,,,,,,,,,,,,,,,,,,,,,,,,,,,,,,,,,,,,,,,,,,,,,,,,,,,,,,,,,,,,,,,,,,,,
1768372343.353310,1768372343.353681,69.000000,0.000000,4322.051270,4314.615234,4330.641113,4349.358887,4311.794922,4312.436035,4310.128418,4317.820313,4308.589844,4291.153809,4504.743652,4511.794922,4395.256348,4443.589844,3747.000000,2.000000,36.000000,,,,0.000000,4.000000,4.000000,4.000000,4.000000,4.000000,4.000000,4.000000,4.000000,4.000000,4.000000,4.000000,4.000000,4.000000,4.000000,100.000000,,,,,,,,,,,,,,,,,,,,,,,,,,,,,,,,,,,,,,,,,,,,,,,,,,,,,,,,,,,,,,,,,,,,,,,,,,,,,,,,,,,,,,,,,,,,,,,,,,,,,,,,,,,,,,,,,,,,,
1768372343.361119,1768372343.361590,70.000000,0.000000,4328.846191,4322.948730,4337.820313,4357.436035,4311.410156,4317.436035,4310.128418,4315.641113,4306.025879,4293.205078,4507.692383,4514.102539,4397.179688,4455.128418,3752.000000,2.000000,36.000000,,,,0.000000,4.000000,4.000000,4.000000,4.000000,4.000000,4.000000,4.000000,4.000000,4.000000,4.000000,4.000000,4.000000,4.000000,4.000000,100.000000,,,,,,,,,,,,,,,,,,,,,,,,,,,,,,,,,,,,,,,,,,,,,,,,,,,,,,,,,,,,,,,,,,,,,,,,,,,,,,,,,,,,,,,,,,,,,,,,,,,,,,,,,,,,,,,,,,,,,
1768372343.368927,1768372343.369398,71.000000,0.000000,4334.743652,4324.743652,4343.333496,4358.717773,4310.769043,4316.794922,4311.153809,4318.846191,4309.743652,4297.051270,4515.000000,4523.846191,4399.358887,4463.846191,3769.000000,2.000000,36.000000,,,,0.000000,4.000000,4.000000,4.000000,4.000000,4.000000,4.000000,4.000000,4.000000,4.000000,4.000000,4.000000,4.000000,4.000000,4.000000,100.000000,,,,,,,,,,,,,,,,,,,,,,,,,,,,,,,,,,,,,,,,,,,,,,,,,,,,,,,,,,,,,,,,,,,,,,,,,,,,,,,,,,,,,,,,,,,,,,,,,,,,,,,,,,,,,,,,,,,,,
1768372343.376736,1768372343.377406,72.000000,0.000000,4330.128418,4326.153809,4342.307617,4357.179688,4311.410156,4313.717773,4311.666504,4318.717773,4310.641113,4295.128418,4513.974121,4528.205078,4395.128418,4455.641113,3957.000000,2.000000,36.000000,,,,0.000000,4.000000,4.000000,4.000000,4.000000,4.000000,4.000000,4.000000,4.000000,4.000000,4.000000,4.000000,4.000000,4.000000,4.000000,100.000000,,,,,,,,,,,,,,,,,,,,,,,,,,,,,,,,,,,,,,,,,,,,,,,,,,,,,,,,,,,,,,,,,,,,,,,,,,,,,,,,,,,,,,,,,,,,,,,,,,,,,,,,,,,,,,,,,,,,,
1768372343.384544,1768372343.385215,73.000000,0.000000,4324.230957,4328.461426,4339.487305,4357.563965,4311.538574,4315.256348,4311.538574,4316.025879,4307.948730,4293.974121,4506.282227,4518.205078,4388.717773,4443.589844,3931.000000,2.000000,36.000000,,,,0.000000,4.000000,4.000000,4.000000,4.000000,4.000000,4.000000,4.000000,4.000000,4.000000,4.000000,4.000000,4.000000,4.000000,4.000000,100.000000,,,,,,,,,,,,,,,,,,,,,,,,,,,,,,,,,,,,,,,,,,,,,,,,,,,,,,,,,,,,,,,,,,,,,,,,,,,,,,,,,,,,,,,,,,,,,,,,,,,,,,,,,,,,,,,,,,,,,
1768372343.392353,1768372343.393123,74.000000,0.000000,4325.256348,4327.948730,4339.102539,4357.820313,4311.794922,4313.333496,4309.230957,4317.436035,4308.333496,4294.487305,4506.538574,4511.410156,4392.948730,4441.025879,4402.000000,2.000000,36.000000,,,,0.000000,4.000000,4.000000,4.000000,4.000000,4.000000,4.000000,4.000000,4.000000,4.000000,4.000000,4.000000,4.000000,4.000000,4.000000,100.000000,,,,,,,,,,,,,,,,,,,,,,,,,,,,,,,,,,,,,,,,,,,,,,,,,,,,,,,,,,,,,,,,,,,,,,,,,,,,,,,,,,,,,,,,,,,,,,,,,,,,,,,,,,,,,,,,,,,,,
1768372343.400161,1768372343.400932,75.000000,0.000000,4326.666504,4326.922852,4338.589844,4356.153809,4310.512695,4310.384766,4305.512695,4319.230957,4310.256348,4291.794922,4513.077148,4516.153809,4399.615234,4448.205078,4687.000000,2.000000,36.000000,,,,0.000000,4.000000,4.000000,4.000000,4.000000,4.000000,4.000000,4.000000,4.000000,4.000000,4.000000,4.000000,4.000000,4.000000,4.000000,100.000000,,,,,,,,,,,,,,,,,,,,,,,,,,,,,,,,,,,,,,,,,,,,,,,,,,,,,,,,,,,,,,,,,,,,,,,,,,,,,,,,,,,,,,,,,,,,,,,,,,,,,,,,,,,,,,,,,,,,,
1768372343.407970,1768372343.408940,76.000000,0.000000,4326.025879,4327.179688,4336.538574,4355.128418,4308.461426,4309.871582,4305.897461,4316.282227,4309.358887,4292.179688,4512.948730,4522.820313,4397.948730,4459.230957,5028.000000,2.000000,36.000000,,,,0.000000,4.000000,4.000000,4.000000,4.000000,4.000000,4.000000,4.000000,4.000000,4.000000,4.000000,4.000000,4.000000,4.000000,4.000000,100.000000,,,,,,,,,,,,,,,,,,,,,,,,,,,,,,,,,,,,,,,,,,,,,,,,,,,,,,,,,,,,,,,,,,,,,,,,,,,,,,,,,,,,,,,,,,,,,,,,,,,,,,,,,,,,,,,,,,,,,
1768372343.415778,1768372343.416748,77.000000,0.000000,4326.282227,4327.051270,4335.384766,4355.641113,4308.974121,4310.256348,4307.820313,4312.948730,4306.794922,4290.256348,4509.743652,4522.436035,4396.666504,4460.128418,5429.000000,2.000000,36.000000,,,,0.000000,4.000000,4.000000,4.000000,4.000000,4.000000,4.000000,4.000000,4.000000,4.000000,4.000000,4.000000,4.000000,4.000000,4.000000,100.000000,,,,,,,,,,,,,,,,,,,,,,,,,,,,,,,,,,,,,,,,,,,,,,,,,,,,,,,,,,,,,,,,,,,,,,,,,,,,,,,,,,,,,,,,,,,,,,,,,,,,,,,,,,,,,,,,,,,,,
1768372343.423586,1768372343.424457,78.000000,0.000000,4327.051270,4327.307617,4333.205078,4354.358887,4310.512695,4308.846191,4306.282227,4317.436035,4307.307617,4281.794922,4509.102539,4519.358887,4398.974121,4449.871582,4402.000000,2.000000,36.000000,,,,0.000000,4.000000,4.000000,4.000000,4.000000,4.000000,4.000000,4.000000,4.000000,4.000000,4.000000,4.000000,4.000000,4.000000,4.000000,100.000000,1.000000,50.000000,4.000000,4.000000,4.000000,4.000000,1.000000,1.000000,4.000000,4.000000,4.000000,4.000000,4.000000,4.000000,4.000000,4.000000,,,,,,,,,,,,,,,,,,,,,,,,,,,,,,,,1.037875,0.401738,0.182269,0.120729,0.074725,1.013530,0.280624,0.137938,0.106794,0.061858,0.590629,0.309053,0.208317,0.106637,0.098481,0.647913,0.420014,0.085463,0.117777,0.100515,0.670514,0.234993,0.043925,0.053387,0.053315,0.230762,0.210195,0.102117,0.066126,0.055724,0.459727,0.372387,0.118960,0.122697,0.089562,0.257521,0.441202,0.321464,0.214682,0.086100,0.485225,0.374239,0.408976,0.194469,0.127218,0.743563,0.745675,0.274439,0.156519,0.153589,1.343410,0.510410,0.312962,0.133297,0.088931,0.874132,0.395922,0.402250,0.173395,0.137040,1.263271,0.341137,0.252410,0.145261,0.120546,1.314987,0.585172,0.511059,0.201782,0.116132
1768372343.431395,1768372343.432265,79.000000,0.000000,4327.051270,4328.205078,4332.692383,4353.717773,4309.230957,4306.153809,4307.179688,4321.538574,4311.282227,4284.743652,4509.230957,4520.512695,4398.205078,4448.461426,4687.000000,2.000000,36.000000,,,,0.000000,4.000000,4.000000,4.000000,4.000000,4.000000,4.000000,4.000000,4.000000,4.000000,4.000000,4.000000,4.000000,4.000000,4.000000,100.000000,,,,,,,,,,,,,,,,,,,,,,,,,,,,,,,,,,,,,,,,,,,,,,,,,,,,,,,,,,,,,,,,,,,,,,,,,,,,,,,,,,,,,,,,,,,,,,,,,,,,,,,,,,,,,,,,,,,,,
1768372343.439203,1768372343.439874,80.000000,0.000000,4326.794922,4327.179688,4337.436035,4355.512695,4308.461426,4307.563965,4309.871582,4317.563965,4310.128418,4294.743652,4515.128418,4523.077148,4395.897461,4458.589844,5028.000000,2.000000,36.000000,,,,0.000000,4.000000,4.000000,4.000000,4.000000,4.000000,4.000000,4.000000,4.000000,4.000000,4.000000,4.000000,4.000000,4.000000,4.000000,100.000000,,,,,,,,,,,,,,,,,,,,,,,,,,,,,,,,,,,,,,,,,,,,,,,,,,,,,,,,,,,,,,,,,,,,,,,,,,,,,,,,,,,,,,,,,,,,,,,,,,,,,,,,,,,,,,,,,,,,,
1768372343.447012,1768372343.447682,81.000000,0.000000,4326.282227,4326.794922,4341.922852,4357.948730,4310.512695,4310.512695,4311.025879,4318.846191,4308.717773,4297.948730,4521.153809,4522.436035,4400.384766,4460.512695,5429.000000,2.000000,36.000000,,,,0.000000,4.000000,4.000000,4.000000,4.000000,4.000000,4.000000,4.000000,4.000000,4.000000,4.000000,4.000000,4.000000,4.000000,4.000000,100.000000,,,,,,,,,,,,,,,,,,,,,,,,,,,,,,,,,,,,,,,,,,,,,,,,,,,,,,,,,,,,,,,,,,,,,,,,,,,,,,,,,,,,,,,,,,,,,,,,,,,,,,,,,,,,,,,,,,,,,
1768372343.454820,1768372343.455391,82.000000,0.000000,4328.846191,4328.974121,4342.948730,4359.615234,4312.179688,4314.230957,4316.025879,4330.512695,4318.333496,4298.846191,4522.948730,4526.153809,4409.230957,4457.692383,4402.000000,2.000000,36.000000,,,,0.000000,4.000000,4.000000,4.000000,4.000000,4.000000,4.000000,4.000000,4.000000,4.000000,4.000000,4.000000,4.000000,4.000000,4.000000,100.000000,,,,,,,,,,,,,,,,,,,,,,,,,,,,,,,,,,,,,,,,,,,,,,,,,,,,,,,,,,,,,,,,,,,,,,,,,,,,,,,,,,,,,,,,,,,,,,,,,,,,,,,,,,,,,,,,,,,,,
1768372343.462629,1768372343.463199,83.000000,0.000000,4332.948730,4329.230957,4341.025879,4360.641113,4312.436035,4314.102539,4318.589844,4330.512695,4322.307617,4298.717773,4522.179688,4531.794922,4412.692383,4459.487305,4687.000000,2.000000,36.000000,,,,0.000000,4.000000,4.000000,4.000000,4.000000,4.000000,4.000000,4.000000,4.000000,4.000000,4.000000,4.000000,4.000000,4.000000,4.000000,100.000000,,,,,,,,,,,,,,,,,,,,,,,,,,,,,,,,,,,,,,,,,,,,,,,,,,,,,,,,,,,,,,,,,,,,,,,,,,,,,,,,,,,,,,,,,,,,,,,,,,,,,,,,,,,,,,,,,,,,,
1768372343.470437,1768372343.470808,84.000000,0.000000,4336.153809,4326.922852,4343.333496,4359.743652,4311.794922,4311.666504,4312.436035,4318.974121,4313.333496,4297.563965,4522.436035,4531.922852,4409.487305,4461.794922,5028.000000,2.000000,36.000000,,,,0.000000,4.000000,4.000000,4.000000,4.000000,4.000000,4.000000,4.000000,4.000000,4.000000,4.000000,4.000000,4.000000,4.000000,4.000000,100.000000,,,,,,,,,,,,,,,,,,,,,,,,,,,,,,,,,,,,,,,,,,,,,,,,,,,,,,,,,,,,,,,,,,,,,,,,,,,,,,,,,,,,,,,,,,,,,,,,,,,,,,,,,,,,,,,,,,,,,
1768372343.478246,1768372343.478617,85.000000,0.000000,4340.897461,4326.794922,4350.512695,4359.358887,4311.282227,4311.794922,4308.846191,4320.512695,4309.871582,4297.307617,4524.358887,4535.769043,4409.487305,4463.717773,5429.000000,2.000000,36.000000,,,,0.000000,4.000000,4.000000,4.000000,4.000000,4.000000,4.000000,4.000000,4.000000,4.000000,4.000000,4.000000,4.000000,4.000000,4.000000,100.000000,,,,,,,,,,,,,,,,,,,,,,,,,,,,,,,,,,,,,,,,,,,,,,,,,,,,,,,,,,,,,,,,,,,,,,,,,,,,,,,,,,,,,,,,,,,,,,,,,,,,,,,,,,,,,,,,,,,,,
1768372343.486054,1768372343.486525,86.000000,0.000000,4340.897461,4327.820313,4350.897461,4360.128418,4310.769043,4309.743652,4309.358887,4325.641113,4312.948730,4297.179688,4524.487305,4537.948730,4414.230957,4463.846191,4402.000000,2.000000,36.000000,,,,0.000000,4.000000,4.000000,4.000000,4.000000,4.000000,4.000000,4.000000,4.000000,4.000000,4.000000,4.000000,4.000000,4.000000,4.000000,100.000000,,,,,,,,,,,,,,,,,,,,,,,,,,,,,,,,,,,,,,,,,,,,,,,,,,,,,,,,,,,,,,,,,,,,,,,,,,,,,,,,,,,,,,,,,,,,,,,,,,,,,,,,,,,,,,,,,,,,,
1768372343.493863,1768372343.494333,87.000000,0.000000,4332.820313,4325.897461,4343.205078,4357.820313,4309.743652,4305.384766,4306.922852,4322.563965,4312.307617,4297.563965,4521.794922,4530.000000,4410.769043,4459.487305,4687.000000,2.000000,36.000000,,,,0.000000,4.000000,4.000000,4.000000,4.000000,4.000000,4.000000,4.000000,4.000000,4.000000,4.000000,4.000000,4.000000,4.000000,4.000000,100.000000,,,,,,,,,,,,,,,,,,,,,,,,,,,,,,,,,,,,,,,,,,,,,,,,,,,,,,,,,,,,,,,,,,,,,,,,,,,,,,,,,,,,,,,,,,,,,,,,,,,,,,,,,,,,,,,,,,,,,
1768372343.501671,1768372343.501942,88.000000,0.000000,4330.512695,4324.358887,4338.589844,4357.436035,4309.615234,4307.051270,4306.666504,4321.025879,4312.307617,4304.743652,4520.000000,4527.948730,4403.333496,4457.563965,5028.000000,2.000000,36.000000,,,,0.000000,4.000000,4.000000,4.000000,4.000000,4.000000,4.000000,4.000000,4.000000,4.000000,4.000000,4.000000,4.000000,4.000000,4.000000,100.000000,,,,,,,,,,,,,,,,,,,,,,,,,,,,,,,,,,,,,,,,,,,,,,,,,,,,,,,,,,,,,,,,,,,,,,,,,,,,,,,,,,,,,,,,,,,,,,,,,,,,,,,,,,,,,,,,,,,,,
1768372343.509479,1768372343.509750,89.000000,0.000000,4338.846191,4326.922852,4342.563965,4361.922852,4311.538574,4312.692383,4311.025879,4321.025879,4313.077148,4309.358887,4521.794922,4533.846191,4405.769043,4459.230957,5429.000000,2.000000,36.000000,,,,0.000000,4.000000,4.000000,4.000000,4.000000,4.000000,4.000000,4.000000,4.000000,4.000000,4.000000,4.000000,4.000000,4.000000,4.000000,100.000000,,,,,,,,,,,,,,,,,,,,,,,,,,,,,,,,,,,,,,,,,,,,,,,,,,,,,,,,,,,,,,,,,,,,,,,,,,,,,,,,,,,,,,,,,,,,,,,,,,,,,,,,,,,,,,,,,,,,,
1768372343.517288,1768372343.517459,90.000000,0.000000,4343.589844,4326.410156,4348.077148,4364.615234,4312.179688,4311.538574,4311.410156,4319.871582,4309.743652,4302.179688,4522.436035,4536.666504,4410.000000,4460.897461,4402.000000,2.000000,36.000000,,,,0.000000,4.000000,4.000000,4.000000,4.000000,4.000000,4.000000,4.000000,4.000000,4.000000,4.000000,4.000000,4.000000,4.000000,4.000000,100.000000,,,,,,,,,,,,,,,,,,,,,,,,,,,,,,,,,,,,,,,,,,,,,,,,,,,,,,,,,,,,,,,,,,,,,,,,,,,,,,,,,,,,,,,,,,,,,,,,,,,,,,,,,,,,,,,,,,,,,
1768372343.525096,1768372343.525267,91.000000,0.000000,4342.179688,4326.538574,4347.563965,4360.769043,4311.282227,4308.077148,4309.230957,4322.692383,4311.025879,4299.358887,4522.820313,4533.846191,4408.461426,4463.717773,4687.000000,2.000000,36.000000,,,,0.000000,4.000000,4.000000,4.000000,4.000000,4.000000,4.000000,4.000000,4.000000,4.000000,4.000000,4.000000,4.000000,4.000000,4.000000,100.000000,,,,,,,,,,,,,,,,,,,,,,,,,,,,,,,,,,,,,,,,,,,,,,,,,,,,,,,,,,,,,,,,,,,,,,,,,,,,,,,,,,,,,,,,,,,,,,,,,,,,,,,,,,,,,,,,,,,,,
1768372343.532905,1768372343.533276,92.000000,0.000000,4341.153809,4331.153809,4346.025879,4358.846191,4310.512695,4308.077148,4309.358887,4327.820313,4317.692383,4301.410156,4523.589844,4533.077148,4409.487305,4464.358887,5028.000000,2.000000,36.000000,,,,0.000000,4.000000,4.000000,4.000000,4.000000,4.000000,4.000000,4.000000,4.000000,4.000000,4.000000,4.000000,4.000000,4.000000,4.000000,100.000000,,,,,,,,,,,,,,,,,,,,,,,,,,,,,,,,,,,,,,,,,,,,,,,,,,,,,,,,,,,,,,,,,,,,,,,,,,,,,,,,,,,,,,,,,,,,,,,,,,,,,,,,,,,,,,,,,,,,,
1768372343.540713,1768372343.541084,93.000000,0.000000,4342.436035,4331.794922,4350.641113,4363.846191,4311.025879,4309.743652,4311.410156,4327.436035,4316.282227,4297.692383,4523.589844,4535.384766,4413.205078,4465.256348,5429.000000,2.000000,36.000000,,,,0.000000,4.000000,4.000000,4.000000,4.000000,4.000000,4.000000,4.000000,4.000000,4.000000,4.000000,4.000000,4.000000,4.000000,4.000000,100.000000,,,,,,,,,,,,,,,,,,,,,,,,,,,,,,,,,,,,,,,,,,,,,,,,,,,,,,,,,,,,,,,,,,,,,,,,,,,,,,,,,,,,,,,,,,,,,,,,,,,,,,,,,,,,,,,,,,,,,
1768372343.548522,1768372343.548992,94.000000,0.000000,4348.717773,4332.692383,4358.717773,4369.487305,4317.307617,4310.641113,4313.205078,4328.589844,4313.333496,4298.333496,4528.077148,4542.307617,4412.179688,4473.077148,4402.000000,2.000000,36.000000,,,,0.000000,4.000000,4.000000,4.000000,4.000000,4.000000,4.000000,4.000000,4.000000,4.000000,4.000000,4.000000,4.000000,4.000000,4.000000,100.000000,,,,,,,,,,,,,,,,,,,,,,,,,,,,,,,,,,,,,,,,,,,,,,,,0.981648,0.427133,0.183359,0.134753,0.085206,0.944252,0.250392,0.135574,0.102837,0.063841,0.651050,0.302608,0.184388,0.107581,0.104379,0.632804,0.410198,0.088942,0.120751,0.101236,0.605766,0.248663,0.044009,0.056332,0.055932,0.270231,0.215154,0.107989,0.078443,0.062913,0.418383,0.301848,0.111122,0.120295,0.088509,0.249546,0.421615,0.345787,0.216241,0.086921,0.442049,0.343617,0.444600,0.186332,0.130082,0.668049,0.738672,0.296534,0.146805,0.149599,1.181038,0.526739,0.307611,0.140020,0.094050,1.013704,0.425572,0.388068,0.167011,0.142797,1.122728,0.365812,0.260054,0.155639,0.130564,1.239333,0.647989,0.480145,0.204755,0.115379
1768372343.556330,1768372343.556801,95.000000,0.000000,4351.538574,4334.230957,4361.666504,4370.641113,4318.589844,4310.256348,4314.615234,4334.230957,4319.615234,4307.948730,4537.051270,4551.410156,4415.128418,4478.205078,4687.000000,2.000000,36.000000,,,,0.000000,4.000000,4.000000,4.000000,4.000000,4.000000,4.000000,4.000000,4.000000,4.000000,4.000000,4.000000,4.000000,4.000000,4.000000,100.000000,,,,,,,,,,,,,,,,,,,,,,,,,,,,,,,,,,,,,,,,,,,,,,,,,,,,,,,,,,,,,,,,,,,,,,,,,,,,,,,,,,,,,,,,,,,,,,,,,,,,,,,,,,,,,,,,,,,,,
1768372343.564139,1768372343.564809,96.000000,0.000000,4345.000000,4330.000000,4353.846191,4368.077148,4314.615234,4315.384766,4322.820313,4336.538574,4326.282227,4310.128418,4540.512695,4553.717773,4419.743652,4477.436035,5028.000000,2.000000,36.000000,,,,0.000000,4.000000,4.000000,4.000000,4.000000,4.000000,4.000000,4.000000,4.000000,4.000000,4.000000,4.000000,4.000000,4.000000,4.000000,100.000000,,,,,,,,,,,,,,,,,,,,,,,,,,,,,,,,,,,,,,,,,,,,,,,,,,,,,,,,,,,,,,,,,,,,,,,,,,,,,,,,,,,,,,,,,,,,,,,,,,,,,,,,,,,,,,,,,,,,,
1768372343.571947,1768372343.572618,97.000000,0.000000,4340.000000,4327.436035,4346.282227,4365.769043,4317.563965,4319.615234,4328.333496,4334.358887,4326.282227,4304.871582,4533.846191,4547.307617,4415.000000,4474.487305,5429.000000,2.000000,36.000000,,,,0.000000,4.000000,4.000000,4.000000,4.000000,4.000000,4.000000,4.000000,4.000000,4.000000,4.000000,4.000000,4.000000,4.000000,4.000000,100.000000,,,,,,,,,,,,,,,,,,,,,,,,,,,,,,,,,,,,,,,,,,,,,,,,,,,,,,,,,,,,,,,,,,,,,,,,,,,,,,,,,,,,,,,,,,,,,,,,,,,,,,,,,,,,,,,,,,,,,
1768372343.579755,1768372343.580526,98.000000,0.000000,4338.846191,4330.384766,4348.461426,4363.589844,4320.000000,4311.282227,4317.051270,4328.589844,4319.871582,4303.461426,4526.666504,4538.589844,4410.641113,4466.666504,4402.000000,2.000000,36.000000,,,,0.000000,4.000000,4.000000,4.000000,4.000000,4.000000,4.000000,4.000000,4.000000,4.000000,4.000000,4.000000,4.000000,4.000000,4.000000,100.000000,,,,,,,,,,,,,,,,,,,,,,,,,,,,,,,,,,,,,,,,,,,,,,,,,,,,,,,,,,,,,,,,,,,,,,,,,,,,,,,,,,,,,,,,,,,,,,,,,,,,,,,,,,,,,,,,,,,,,
1768372343.587564,1768372343.588334,99.000000,0.000000,4337.820313,4328.461426,4350.512695,4360.384766,4315.641113,4305.000000,4306.025879,4324.230957,4313.974121,4301.922852,4524.102539,4535.897461,4411.025879,4459.230957,4687.000000,2.000000,36.000000,,,,0.000000,4.000000,4.000000,4.000000,4.000000,4.000000,4.000000,4.000000,4.000000,4.000000,4.000000,4.000000,4.000000,4.000000,4.000000,100.000000,,,,,,,,,,,,,,,,,,,,,,,,,,,,,,,,,,,,,,,,,,,,,,,,,,,,,,,,,,,,,,,,,,,,,,,,,,,,,,,,,,,,,,,,,,,,,,,,,,,,,,,,,,,,,,,,,,,,,
1768372343.595372,1768372343.596343,100.000000,0.000000,4334.102539,4324.102539,4342.436035,4357.563965,4315.384766,4310.769043,4314.743652,4326.410156,4315.384766,4300.384766,4524.102539,4534.230957,4411.153809,4458.589844,5028.000000,2.000000,36.000000,,,,0.000000,4.000000,4.000000,4.000000,4.000000,4.000000,4.000000,4.000000,4.000000,4.000000,4.000000,4.000000,4.000000,4.000000,4.000000,100.000000,,,,,,,,,,,,,,,,,,,,,,,,,,,,,,,,,,,,,,,,,,,,,,,,,,,,,,,,,,,,,,,,,,,,,,,,,,,,,,,,,,,,,,,,,,,,,,,,,,,,,,,,,,,,,,,,,,,,,
1768372343.603181,1768372343.604151,101.000000,0.000000,4325.641113,4325.000000,4339.358887,4357.179688,4321.666504,4315.256348,4325.769043,4333.205078,4322.948730,4304.871582,4524.487305,4533.589844,4409.871582,4458.077148,5429.000000,2.000000,36.000000,,,,0.000000,4.000000,4.000000,4.000000,4.000000,4.000000,4.000000,4.000000,4.000000,4.000000,4.000000,4.000000,4.000000,4.000000,4.000000,100.000000,,,,,,,,,,,,,,,,,,,,,,,,,,,,,,,,,,,,,,,,,,,,,,,,,,,,,,,,,,,,,,,,,,,,,,,,,,,,,,,,,,,,,,,,,,,,,,,,,,,,,,,,,,,,,,,,,,,,,
1768372343.610989,1768372343.611860,102.000000,0.000000,4327.692383,4325.641113,4346.794922,4361.153809,4323.589844,4316.282227,4323.461426,4336.666504,4328.461426,4309.871582,4524.743652,4540.128418,4410.128418,4457.436035,4402.000000,2.000000,36.000000,,,,0.000000,4.000000,4.000000,4.000000,4.000000,4.000000,4.000000,4.000000,4.000000,4.000000,4.000000,4.000000,4.000000,4.000000,4.000000,100.000000,,,,,,,,,,,,,,,,,,,,,,,,,,,,,,,,,,,,,,,,,,,,,,,,,,,,,,,,,,,,,,,,,,,,,,,,,,,,,,,,,,,,,,,,,,,,,,,,,,,,,,,,,,,,,,,,,,,,,
1768372343.618798,1768372343.619668,103.000000,0.000000,4337.948730,4326.025879,4351.153809,4365.641113,4318.846191,4316.025879,4317.307617,4334.102539,4325.128418,4305.512695,4525.512695,4540.512695,4411.282227,4460.897461,4687.000000,2.000000,36.000000,,,,0.000000,4.000000,4.000000,4.000000,4.000000,4.000000,4.000000,4.000000,4.000000,4.000000,4.000000,4.000000,4.000000,4.000000,4.000000,100.000000,,,,,,,,,,,,,,,,,,,,,,,,,,,,,,,,,,,,,,,,,,,,,,,,,,,,,,,,,,,,,,,,,,,,,,,,,,,,,,,,,,,,,,,,,,,,,,,,,,,,,,,,,,,,,,,,,,,,,
1768372343.626606,1768372343.627277,104.000000,0.000000,4331.666504,4324.615234,4345.384766,4360.384766,4310.000000,4311.538574,4313.205078,4329.615234,4317.563965,4298.333496,4523.333496,4532.692383,4411.538574,4459.871582,5028.000000,2.000000,36.000000,,,,0.000000,4.000000,4.000000,4.000000,4.000000,4.000000,4.000000,4.000000,4.000000,4.000000,4.000000,4.000000,4.000000,4.000000,4.000000,100.000000,,,,,,,,,,,,,,,,,,,,,,,,,,,,,,,,,,,,,,,,,,,,,,,,,,,,,,,,,,,,,,,,,,,,,,,,,,,,,,,,,,,,,,,,,,,,,,,,,,,,,,,,,,,,,,,,,,,,,
1768372343.634415,1768372343.635085,105.000000,0.000000,4325.384766,4322.563965,4340.897461,4354.871582,4307.436035,4309.102539,4311.410156,4329.743652,4316.794922,4302.307617,4525.000000,4536.794922,4412.179688,4458.717773,5429.000000,2.000000,36.000000,,,,0.000000,4.000000,4.000000,4.000000,4.000000,4.000000,4.000000,4.000000,4.000000,4.000000,4.000000,4.000000,4.000000,4.000000,4.000000,100.000000,,,,,,,,,,,,,,,,,,,,,,,,,,,,,,,,,,,,,,,,,,,,,,,,,,,,,,,,,,,,,,,,,,,,,,,,,,,,,,,,,,,,,,,,,,,,,,,,,,,,,,,,,,,,,,,,,,,,,
1768372343.642223,1768372343.642794,106.000000,0.000000,4337.563965,4325.897461,4346.666504,4362.692383,4312.436035,4310.384766,4312.436035,4334.615234,4323.205078,4313.461426,4530.897461,4550.384766,4413.461426,4465.128418,4402.000000,2.000000,36.000000,,,,0.000000,4.000000,4.000000,4.000000,4.000000,4.000000,4.000000,4.000000,4.000000,4.000000,4.000000,4.000000,4.000000,4.000000,4.000000,100.000000,,,,,,,,,,,,,,,,,,,,,,,,,,,,,,,,,,,,,,,,,,,,,,,,,,,,,,,,,,,,,,,,,,,,,,,,,,,,,,,,,,,,,,,,,,,,,,,,,,,,,,,,,,,,,,,,,,,,,
1768372343.650031,1768372343.650602,107.000000,0.000000,4341.922852,4328.205078,4348.333496,4366.025879,4312.692383,4309.358887,4310.128418,4331.666504,4320.641113,4312.307617,4529.358887,4546.538574,4415.000000,4466.794922,4687.000000,2.000000,36.000000,,,,0.000000,4.000000,4.000000,4.000000,4.000000,4.000000,4.000000,4.000000,4.000000,4.000000,4.000000,4.000000,4.000000,4.000000,4.000000,100.000000,,,,,,,,,,,,,,,,,,,,,,,,,,,,,,,,,,,,,,,,,,,,,,,,,,,,,,,,,,,,,,,,,,,,,,,,,,,,,,,,,,,,,,,,,,,,,,,,,,,,,,,,,,,,,,,,,,,,,
1768372343.657840,1768372343.658211,108.000000,0.000000,4332.820313,4324.102539,4340.769043,4357.307617,4311.282227,4308.077148,4309.743652,4324.487305,4312.436035,4301.282227,4522.692383,4534.615234,4410.769043,4459.487305,5028.000000,2.000000,36.000000,,,,0.000000,4.000000,4.000000,4.000000,4.000000,4.000000,4.000000,4.000000,4.000000,4.000000,4.000000,4.000000,4.000000,4.000000,4.000000,100.000000,,,,,,,,,,,,,,,,,,,,,,,,,,,,,,,,,,,,,,,,,,,,,,,,,,,,,,,,,,,,,,,,,,,,,,,,,,,,,,,,,,,,,,,,,,,,,,,,,,,,,,,,,,,,,,,,,,,,,
1768372343.665648,1768372343.666019,109.000000,0.000000,4332.563965,4321.794922,4337.563965,4352.563965,4310.897461,4308.589844,4313.205078,4324.358887,4311.666504,4298.461426,4520.897461,4533.333496,4404.102539,4459.487305,5429.000000,2.000000,36.000000,,,,0.000000,4.000000,4.000000,4.000000,4.000000,4.000000,4.000000,4.000000,4.000000,4.000000,4.000000,4.000000,4.000000,4.000000,4.000000,100.000000,,,,,,,,,,,,,,,,,,,,,,,,,,,,,,,,,,,,,,,,,,,,,,,,,,,,,,,,,,,,,,,,,,,,,,,,,,,,,,,,,,,,,,,,,,,,,,,,,,,,,,,,,,,,,,,,,,,,,
1768372343.673457,1768372343.673928,110.000000,0.000000,4338.333496,4322.179688,4340.769043,4354.743652,4309.358887,4307.563965,4310.769043,4324.743652,4311.282227,4300.384766,4523.205078,4534.871582,4404.743652,4467.051270,4402.000000,2.000000,36.000000,,,,0.000000,4.000000,4.000000,4.000000,4.000000,4.000000,4.000000,4.000000,4.000000,4.000000,4.000000,4.000000,4.000000,4.000000,4.000000,100.000000,,,,,,,,,,,,,,,,,,,,,,,,,,,,,,,,,,,,,,,,,,,,,,,,0.861052,0.418647,0.177224,0.160107,0.094757,0.831172,0.210990,0.137015,0.102939,0.067908,0.661174,0.269938,0.164509,0.106832,0.105077,0.584405,0.363407,0.098739,0.123988,0.098076,0.502170,0.240194,0.046309,0.057018,0.057146,0.295054,0.205743,0.112463,0.092678,0.067673,0.352912,0.235155,0.113070,0.117702,0.084798,0.243660,0.388083,0.380409,0.203553,0.089166,0.392478,0.318939,0.476862,0.170153,0.134251,0.567836,0.695749,0.328073,0.141204,0.148008,0.959304,0.527461,0.315481,0.154668,0.110886,1.114234,0.461250,0.404826,0.165528,0.151448,0.919710,0.406356,0.270045,0.169402,0.146344,1.115629,0.703038,0.439973,0.209833,0.117280
1768372343.681265,1768372343.681736,111.000000,0.000000,4337.051270,4320.897461,4340.256348,4356.025879,4308.974121,4305.512695,4305.897461,4318.589844,4308.333496,4298.974121,4520.769043,4531.922852,4407.692383,4465.000000,4687.000000,2.000000,36.000000,,,,0.000000,4.000000,4.000000,4.000000,4.000000,4.000000,4.000000,4.000000,4.000000,4.000000,4.000000,4.000000,4.000000,4.000000,4.000000,100.000000,,,,,,,,,,,,,,,,,,,,,,,,,,,,,,,,,,,,,,,,,,,,,,,,,,,,,,,,,,,,,,,,,,,,,,,,,,,,,,,,,,,,,,,,,,,,,,,,,,,,,,,,,,,,,,,,,,,,,
1768372343.689074,1768372343.689744,112.000000,0.000000,4332.948730,4321.538574,4336.153809,4357.436035,4311.794922,4305.641113,4309.102539,4316.410156,4308.461426,4292.692383,4517.307617,4527.307617,4403.461426,4457.436035,5028.000000,2.000000,36.000000,,,,0.000000,4.000000,4.000000,4.000000,4.000000,4.000000,4.000000,4.000000,4.000000,4.000000,4.000000,4.000000,4.000000,4.000000,4.000000,100.000000,,,,,,,,,,,,,,,,,,,,,,,,,,,,,,,,,,,,,,,,,,,,,,,,,,,,,,,,,,,,,,,,,,,,,,,,,,,,,,,,,,,,,,,,,,,,,,,,,,,,,,,,,,,,,,,,,,,,,
1768372343.696882,1768372343.697553,113.000000,0.000000,4332.563965,4324.615234,4335.897461,4357.051270,4314.615234,4311.410156,4314.871582,4323.589844,4310.769043,4290.000000,4518.205078,4527.179688,4400.769043,4457.436035,5429.000000,2.000000,36.000000,,,,0.000000,4.000000,4.000000,4.000000,4.000000,4.000000,4.000000,4.000000,4.000000,4.000000,4.000000,4.000000,4.000000,4.000000,4.000000,100.000000,,,,,,,,,,,,,,,,,,,,,,,,,,,,,,,,,,,,,,,,,,,,,,,,,,,,,,,,,,,,,,,,,,,,,,,,,,,,,,,,,,,,,,,,,,,,,,,,,,,,,,,,,,,,,,,,,,,,,
1768372343.704691,1768372343.705261,114.000000,0.000000,4336.538574,4324.487305,4339.871582,4357.179688,4314.230957,4314.487305,4313.077148,4325.897461,4311.410156,4296.922852,4522.692383,4533.333496,4408.589844,4462.948730,4402.000000,2.000000,36.000000,,,,0.000000,4.000000,4.000000,4.000000,4.000000,4.000000,4.000000,4.000000,4.000000,4.000000,4.000000,4.000000,4.000000,4.000000,4.000000,100.000000,,,,,,,,,,,,,,,,,,,,,,,,,,,,,,,,,,,,,,,,,,,,,,,,,,,,,,,,,,,,,,,,,,,,,,,,,,,,,,,,,,,,,,,,,,,,,,,,,,,,,,,,,,,,,,,,,,,,,
1768372343.712499,1768372343.713070,115.000000,0.000000,4338.589844,4323.333496,4343.974121,4361.794922,4311.153809,4311.410156,4311.666504,4321.282227,4311.410156,4306.794922,4526.025879,4541.282227,4414.743652,4462.948730,4687.000000,2.000000,36.000000,,,,0.000000,4.000000,4.000000,4.000000,4.000000,4.000000,4.000000,4.000000,4.000000,4.000000,4.000000,4.000000,4.000000,4.000000,4.000000,100.000000,,,,,,,,,,,,,,,,,,,,,,,,,,,,,,,,,,,,,,,,,,,,,,,,,,,,,,,,,,,,,,,,,,,,,,,,,,,,,,,,,,,,,,,,,,,,,,,,,,,,,,,,,,,,,,,,,,,,,
1768372343.720307,1768372343.720678,116.000000,0.000000,4336.666504,4324.102539,4341.153809,4362.948730,4311.666504,4310.512695,4315.641113,4321.153809,4311.666504,4308.589844,4522.820313,4541.666504,4410.384766,4459.102539,5028.000000,2.000000,36.000000,,,,0.000000,4.000000,4.000000,4.000000,4.000000,4.000000,4.000000,4.000000,4.000000,4.000000,4.000000,4.000000,4.000000,4.000000,4.000000,100.000000,,,,,,,,,,,,,,,,,,,,,,,,,,,,,,,,,,,,,,,,,,,,,,,,,,,,,,,,,,,,,,,,,,,,,,,,,,,,,,,,,,,,,,,,,,,,,,,,,,,,,,,,,,,,,,,,,,,,,
1768372343.728116,1768372343.728487,117.000000,0.000000,4338.974121,4325.897461,4342.051270,4363.333496,4318.077148,4312.948730,4323.205078,4328.205078,4315.641113,4307.820313,4524.230957,4542.692383,4411.025879,4466.794922,5429.000000,2.000000,36.000000,,,,0.000000,4.000000,4.000000,4.000000,4.000000,4.000000,4.000000,4.000000,4.000000,4.000000,4.000000,4.000000,4.000000,4.000000,4.000000,100.000000,,,,,,,,,,,,,,,,,,,,,,,,,,,,,,,,,,,,,,,,,,,,,,,,,,,,,,,,,,,,,,,,,,,,,,,,,,,,,,,,,,,,,,,,,,,,,,,,,,,,,,,,,,,,,,,,,,,,,
1768372343.735924,1768372343.736195,118.000000,0.000000,4344.102539,4324.615234,4350.384766,4364.871582,4318.974121,4313.974121,4326.410156,4333.846191,4322.563965,4308.461426,4531.666504,4547.563965,4418.589844,4478.589844,4402.000000,2.000000,36.000000,,,,0.000000,4.000000,4.000000,4.000000,4.000000,4.000000,4.000000,4.000000,4.000000,4.000000,4.000000,4.000000,4.000000,4.000000,4.000000,100.000000,,,,,,,,,,,,,,,,,,,,,,,,,,,,,,,,,,,,,,,,,,,,,,,,,,,,,,,,,,,,,,,,,,,,,,,,,,,,,,,,,,,,,,,,,,,,,,,,,,,,,,,,,,,,,,,,,,,,,
1768372343.743733,1768372343.744004,119.000000,0.000000,4342.948730,4322.563965,4351.153809,4360.641113,4312.051270,4311.282227,4317.820313,4328.205078,4318.077148,4299.743652,4529.358887,4541.282227,4412.563965,4472.820313,4687.000000,2.000000,36.000000,,,,0.000000,4.000000,4.000000,4.000000,4.000000,4.000000,4.000000,4.000000,4.000000,4.000000,4.000000,4.000000,4.000000,4.000000,4.000000,100.000000,,,,,,,,,,,,,,,,,,,,,,,,,,,,,,,,,,,,,,,,,,,,,,,,,,,,,,,,,,,,,,,,,,,,,,,,,,,,,,,,,,,,,,,,,,,,,,,,,,,,,,,,,,,,,,,,,,,,,
1768372343.751541,1768372343.752012,120.000000,0.000000,4338.589844,4320.641113,4344.743652,4354.871582,4308.717773,4308.461426,4312.051270,4317.692383,4307.307617,4289.102539,4516.410156,4530.000000,4398.461426,4457.948730,5028.000000,2.000000,36.000000,,,,0.000000,4.000000,4.000000,4.000000,4.000000,4.000000,4.000000,4.000000,4.000000,4.000000,4.000000,4.000000,4.000000,4.000000,4.000000,100.000000,,,,,,,,,,,,,,,,,,,,,,,,,,,,,,,,,,,,,,,,,,,,,,,,,,,,,,,,,,,,,,,,,,,,,,,,,,,,,,,,,,,,,,,,,,,,,,,,,,,,,,,,,,,,,,,,,,,,,
1768372343.759349,1768372343.759821,121.000000,0.000000,4337.436035,4317.563965,4345.256348,4356.410156,4312.820313,4311.025879,4315.128418,4315.128418,4306.025879,4292.307617,4516.538574,4531.153809,4398.846191,4457.436035,5429.000000,2.000000,36.000000,,,,0.000000,4.000000,4.000000,4.000000,4.000000,4.000000,4.000000,4.000000,4.000000,4.000000,4.000000,4.000000,4.000000,4.000000,4.000000,100.000000,,,,,,,,,,,,,,,,,,,,,,,,,,,,,,,,,,,,,,,,,,,,,,,,,,,,,,,,,,,,,,,,,,,,,,,,,,,,,,,,,,,,,,,,,,,,,,,,,,,,,,,,,,,,,,,,,,,,,
1768372343.767158,1768372343.767729,122.000000,0.000000,4339.358887,4317.563965,4349.102539,4358.461426,4314.743652,4315.384766,4316.410156,4318.974121,4309.743652,4297.563965,4525.128418,4535.384766,4404.743652,4462.820313,4402.000000,2.000000,36.000000,,,,0.000000,4.000000,4.000000,4.000000,4.000000,4.000000,4.000000,4.000000,4.000000,4.000000,4.000000,4.000000,4.000000,4.000000,4.000000,100.000000,,,,,,,,,,,,,,,,,,,,,,,,,,,,,,,,,,,,,,,,,,,,,,,,,,,,,,,,,,,,,,,,,,,,,,,,,,,,,,,,,,,,,,,,,,,,,,,,,,,,,,,,,,,,,,,,,,,,,
1768372343.774966,1768372343.775537,123.000000,0.000000,4338.589844,4317.179688,4345.512695,4355.769043,4311.153809,4313.974121,4312.179688,4317.436035,4308.205078,4292.179688,4517.436035,4533.205078,4398.974121,4458.846191,4687.000000,2.000000,36.000000,,,,0.000000,4.000000,4.000000,4.000000,4.000000,4.000000,4.000000,4.000000,4.000000,4.000000,4.000000,4.000000,4.000000,4.000000,4.000000,100.000000,,,,,,,,,,,,,,,,,,,,,,,,,,,,,,,,,,,,,,,,,,,,,,,,,,,,,,,,,,,,,,,,,,,,,,,,,,,,,,,,,,,,,,,,,,,,,,,,,,,,,,,,,,,,,,,,,,,,,
1768372343.782775,1768372343.783546,124.000000,0.000000,4336.666504,4315.128418,4341.538574,4355.256348,4310.384766,4308.717773,4310.256348,4313.077148,4306.410156,4289.743652,4510.000000,4531.538574,4393.333496,4455.641113,5028.000000,2.000000,36.000000,,,,0.000000,4.000000,4.000000,4.000000,4.000000,4.000000,4.000000,4.000000,4.000000,4.000000,4.000000,4.000000,4.000000,4.000000,4.000000,100.000000,,,,,,,,,,,,,,,,,,,,,,,,,,,,,,,,,,,,,,,,,,,,,,,,,,,,,,,,,,,,,,,,,,,,,,,,,,,,,,,,,,,,,,,,,,,,,,,,,,,,,,,,,,,,,,,,,,,,,
1768372343.790583,1768372343.791354,125.000000,0.000000,4335.384766,4317.179688,4342.820313,4356.025879,4312.692383,4311.025879,4312.436035,4315.512695,4310.384766,4298.077148,4520.256348,4531.922852,4402.563965,4457.563965,5429.000000,2.000000,36.000000,,,,0.000000,4.000000,4.000000,4.000000,4.000000,4.000000,4.000000,4.000000,4.000000,4.000000,4.000000,4.000000,4.000000,4.000000,4.000000,100.000000,,,,,,,,,,,,,,,,,,,,,,,,,,,,,,,,,,,,,,,,,,,,,,,,,,,,,,,,,,,,,,,,,,,,,,,,,,,,,,,,,,,,,,,,,,,,,,,,,,,,,,,,,,,,,,,,,,,,,
1768372343.798392,1768372343.799063,126.000000,0.000000,4338.205078,4318.846191,4342.436035,4356.666504,4312.820313,4316.666504,4313.205078,4319.358887,4311.153809,4303.077148,4525.897461,4533.077148,4413.461426,4460.128418,4402.000000,2.000000,36.000000,,,,0.000000,4.000000,4.000000,4.000000,4.000000,4.000000,4.000000,4.000000,4.000000,4.000000,4.000000,4.000000,4.000000,4.000000,4.000000,100.000000,,,,,,,,,,,,,,,,,,,,,,,,,,,,,,,,,,,,,,,,,,,,,,,,0.723598,0.372276,0.168879,0.188609,0.101545,0.707803,0.160388,0.147724,0.104983,0.072721,0.607906,0.224349,0.159441,0.103577,0.101115,0.516954,0.291855,0.119654,0.126213,0.091412,0.390215,0.213472,0.049448,0.055729,0.056473,0.301337,0.186090,0.115252,0.104907,0.068545,0.280301,0.187058,0.124813,0.115655,0.078681,0.233813,0.359025,0.429222,0.178601,0.092054,0.343719,0.307489,0.497992,0.148630,0.135818,0.461414,0.626561,0.370432,0.134671,0.148849,0.735646,0.512788,0.342668,0.172828,0.139302,1.137721,0.500768,0.471900,0.169796,0.164841,0.711736,0.448764,0.281710,0.181848,0.167760,0.961724,0.735615,0.407676,0.215021,0.125286
1768372343.806200,1768372343.806871,127.000000,0.000000,4342.436035,4317.820313,4341.410156,4357.307617,4311.282227,4314.358887,4311.282227,4321.025879,4311.794922,4303.717773,4523.461426,4540.128418,4413.974121,4468.205078,36.000000,2.000000,36.000000,,,,0.000000,4.000000,4.000000,4.000000,4.000000,4.000000,4.000000,4.000000,4.000000,4.000000,4.000000,4.000000,4.000000,4.000000,4.000000,100.000000,,,,,,,,,,,,,,,,,,,,,,,,,,,,,,,,,,,,,,,,,,,,,,,,,,,,,,,,,,,,,,,,,,,,,,,,,,,,,,,,,,,,,,,,,,,,,,,,,,,,,,,,,,,,,,,,,,,,,
1768372343.814009,1768372343.814480,0.000000,0.000000,4342.307617,4318.461426,4347.051270,4356.282227,4311.025879,4312.948730,4310.000000,4329.358887,4319.743652,4307.948730,4530.897461,4546.025879,4412.051270,4476.410156,4056.000000,2.000000,36.000000,,,,0.000000,4.000000,4.000000,4.000000,4.000000,4.000000,4.000000,4.000000,4.000000,4.000000,4.000000,4.000000,4.000000,4.000000,4.000000,100.000000,,,,,,,,,,,,,,,,,,,,,,,,,,,,,,,,,,,,,,,,,,,,,,,,,,,,,,,,,,,,,,,,,,,,,,,,,,,,,,,,,,,,,,,,,,,,,,,,,,,,,,,,,,,,,,,,,,,,,
1768372343.821817,1768372343.822288,1.000000,0.000000,4342.563965,4317.307617,4350.897461,4353.846191,4311.794922,4316.282227,4313.333496,4335.512695,4323.461426,4308.461426,4533.333496,4541.538574,4414.102539,4471.922852,3979.000000,2.000000,36.000000,,,,0.000000,4.000000,4.000000,4.000000,4.000000,4.000000,4.000000,4.000000,4.000000,4.000000,4.000000,4.000000,4.000000,4.000000,4.000000,100.000000,,,,,,,,,,,,,,,,,,,,,,,,,,,,,,,,,,,,,,,,,,,,,,,,,,,,,,,,,,,,,,,,,,,,,,,,,,,,,,,,,,,,,,,,,,,,,,,,,,,,,,,,,,,,,,,,,,,,,
1768372343.829625,1768372343.829997,2.000000,0.000000,4343.333496,4313.717773,4344.358887,4353.974121,4311.282227,4313.589844,4312.692383,4324.871582,4313.846191,4303.461426,4522.948730,4537.563965,4414.743652,4468.205078,3886.000000,2.000000,36.000000,,,,0.000000,4.000000,4.000000,4.000000,4.000000,4.000000,4.000000,4.000000,4.000000,4.000000,4.000000,4.000000,4.000000,4.000000,4.000000,100.000000,,,,,,,,,,,,,,,,,,,,,,,,,,,,,,,,,,,,,,,,,,,,,,,,,,,,,,,,,,,,,,,,,,,,,,,,,,,,,,,,,,,,,,,,,,,,,,,,,,,,,,,,,,,,,,,,,,,,,
1768372343.837434,1768372343.837805,3.000000,0.000000,4342.307617,4317.563965,4339.230957,4357.179688,4308.974121,4308.589844,4308.846191,4317.563965,4306.410156,4305.641113,4526.153809,4540.128418,4413.205078,4475.256348,3862.000000,2.000000,36.000000,,,,0.000000,4.000000,4.000000,4.000000,4.000000,4.000000,4.000000,4.000000,4.000000,4.000000,4.000000,4.000000,4.000000,4.000000,4.000000,100.000000,,,,,,,,,,,,,,,,,,,,,,,,,,,,,,,,,,,,,,,,,,,,,,,,,,,,,,,,,,,,,,,,,,,,,,,,,,,,,,,,,,,,,,,,,,,,,,,,,,,,,,,,,,,,,,,,,,,,,
1768372343.845242,1768372343.845414,4.000000,0.000000,4345.512695,4322.307617,4346.666504,4358.589844,4310.384766,4312.820313,4310.641113,4323.205078,4313.974121,4311.922852,4537.948730,4541.666504,4415.769043,4478.461426,3775.000000,2.000000,36.000000,,,,0.000000,4.000000,4.000000,4.000000,4.000000,4.000000,4.000000,4.000000,4.000000,4.000000,4.000000,4.000000,4.000000,4.000000,4.000000,100.000000,,,,,,,,,,,,,,,,,,,,,,,,,,,,,,,,,,,,,,,,,,,,,,,,,,,,,,,,,,,,,,,,,,,,,,,,,,,,,,,,,,,,,,,,,,,,,,,,,,,,,,,,,,,,,,,,,,,,,
1768372343.853051,1768372343.853222,5.000000,0.000000,4350.256348,4320.897461,4356.153809,4358.205078,4314.487305,4313.205078,4311.410156,4324.487305,4321.794922,4311.410156,4540.384766,4540.641113,4418.205078,4475.384766,3747.000000,2.000000,36.000000,,,,0.000000,4.000000,4.000000,4.000000,4.000000,4.000000,4.000000,4.000000,4.000000,4.000000,4.000000,4.000000,4.000000,4.000000,4.000000,100.000000,,,,,,,,,,,,,,,,,,,,,,,,,,,,,,,,,,,,,,,,,,,,,,,,,,,,,,,,,,,,,,,,,,,,,,,,,,,,,,,,,,,,,,,,,,,,,,,,,,,,,,,,,,,,,,,,,,,,,
1768372343.860859,1768372343.860931,6.000000,0.000000,4347.563965,4321.410156,4354.102539,4357.948730,4313.333496,4307.692383,4309.358887,4322.948730,4320.641113,4308.846191,4533.846191,4540.256348,4416.153809,4475.641113,3752.000000,2.000000,36.000000,,,,0.000000,4.000000,4.000000,4.000000,4.000000,4.000000,4.000000,4.000000,4.000000,4.000000,4.000000,4.000000,4.000000,4.000000,4.000000,100.000000,,,,,,,,,,,,,,,,,,,,,,,,,,,,,,,,,,,,,,,,,,,,,,,,,,,,,,,,,,,,,,,,,,,,,,,,,,,,,,,,,,,,,,,,,,,,,,,,,,,,,,,,,,,,,,,,,,,,,
1768372343.868668,1768372343.868739,7.000000,0.000000,4340.384766,4322.820313,4346.922852,4358.333496,4313.717773,4316.153809,4314.230957,4326.922852,4320.384766,4309.230957,4528.333496,4541.282227,4413.333496,4475.384766,3762.000000,2.000000,36.000000,,,,0.000000,4.000000,4.000000,4.000000,4.000000,4.000000,4.000000,4.000000,4.000000,4.000000,4.000000,4.000000,4.000000,4.000000,4.000000,100.000000,,,,,,,,,,,,,,,,,,,,,,,,,,,,,,,,,,,,,,,,,,,,,,,,,,,,,,,,,,,,,,,,,,,,,,,,,,,,,,,,,,,,,,,,,,,,,,,,,,,,,,,,,,,,,,,,,,,,,
