title:apple_24, start timestamp:1768372188.308776, stop timestamp:1768372218.730459, headset type:EPOCX, headset serial:E5020E3B, headset firmware:730, channels:156, sampling rate:eeg_128;pm_0.1;pow_8, samples:3897      , version:2.2, 
Timestamp,OriginalTimestamp,EEG.Counter,EEG.Interpolated,EEG.AF3,EEG.F7,EEG.F3,EEG.FC5,EEG.T7,EEG.P7,EEG.O1,EEG.O2,EEG.P8,EEG.T8,EEG.FC6,EEG.F4,EEG.F8,EEG.AF4,EEG.RawCq,EEG.Battery,EEG.BatteryPercent,MarkerIndex,MarkerType,MarkerValueInt,EEG.MarkerHardware,CQ.AF3,CQ.F7,CQ.F3,CQ.FC5,CQ.T7,CQ.P7,CQ.O1,CQ.O2,CQ.P8,CQ.T8,CQ.FC6,CQ.F4,CQ.F8,CQ.AF4,CQ.Overall,EQ.SampleRateQuality,EQ.OVERALL,EQ.AF3,EQ.F7,EQ.F3,EQ.FC5,EQ.T7,EQ.P7,EQ.O1,EQ.O2,EQ.P8,EQ.T8,EQ.FC6,EQ.F4,EQ.F8,EQ.AF4,PM.Attention.IsActive,PM.Attention.Scaled,PM.Attention.Raw,PM.Attention.Min,PM.Attention.Max,PM.Engagement.IsActive,PM.Engagement.Scaled,PM.Engagement.Raw,PM.Engagement.Min,PM.Engagement.Max,PM.Excitement.IsActive,PM.Excitement.Scaled,PM.Excitement.Raw,PM.Excitement.Min,PM.Excitement.Max,PM.LongTermExcitement,PM.Stress.IsActive,PM.Stress.Scaled,PM.Stress.Raw,PM.Stress.Min,PM.Stress.Max,PM.Relaxation.IsActive,PM.Relaxation.Scaled,PM.Relaxation.Raw,PM.Relaxation.Min,PM.Relaxation.Max,PM.Interest.IsActive,PM.Interest.Scaled,PM.Interest.Raw,PM.Interest.Min,PM.Interest.Max,POW.AF3.Theta,POW.AF3.Alpha,POW.AF3.BetaL,POW.AF3.BetaH,POW.AF3.Gamma,POW.F7.Theta,POW.F7.Alpha,POW.F7.BetaL,POW.F7.BetaH,POW.F7.Gamma,POW.F3.Theta,POW.F3.Alpha,POW.F3.BetaL,POW.F3.BetaH,POW.F3.Gamma,POW.FC5.Theta,POW.FC5.Alpha,POW.FC5.BetaL,POW.FC5.BetaH,POW.FC5.Gamma,POW.T7.Theta,POW.T7.Alpha,POW.T7.BetaL,POW.T7.BetaH,POW.T7.Gamma,POW.P7.Theta,POW.P7.Alpha,POW.P7.BetaL,POW.P7.BetaH,POW.P7.Gamma,POW.O1.Theta,POW.O1.Alpha,POW.O1.BetaL,POW.O1.BetaH,POW.O1.Gamma,POW.O2.Theta,POW.O2.Alpha,POW.O2.BetaL,POW.O2.BetaH,POW.O2.Gamma,POW.P8.Theta,POW.P8.Alpha,POW.P8.BetaL,POW.P8.BetaH,POW.P8.Gamma,POW.T8.Theta,POW.T8.Alpha,POW.T8.BetaL,POW.T8.BetaH,POW.T8.Gamma,POW.FC6.Theta,POW.FC6.Alpha,POW.FC6.BetaL,POW.FC6.BetaH,POW.FC6.Gamma,POW.F4.Theta,POW.F4.Alpha,POW.F4.BetaL,POW.F4.BetaH,POW.F4.Gamma,POW.F8.Theta,POW.F8.Alpha,POW.F8.BetaL,POW.F8.BetaH,POW.F8.Gamma,POW.AF4.Theta,POW.AF4.Alpha,POW.AF4.BetaL,POW.AF4.BetaH,POW.AF4.Gamma
1768372188.308776,1768372188.309135,53.000000,0.000000,4317.563965,4279.358887,4326.025879,4305.512695,4298.717773,4343.077148,4307.307617,4274.871582,4325.384766,4266.922852,4487.692383,4531.666504,4348.846191,4444.230957,0.000000,2.000000,36.000000,,,,0.000000,4.000000,4.000000,4.000000,4.000000,4.000000,4.000000,4.000000,4.000000,4.000000,4.000000,4.000000,4.000000,4.000000,4.000000,100.000000,,,,,,,,,,,,,,,,,,,,,,,,,,,,,,,,,,,,,,,,,,,,,,,,,,,,,,,,,,,,,,,,,,,,,,,,,,,,,,,,,,,,,,,,,,,,,,,,,,,,,,,,,,,,,,,,,,,,,
1768372188.316585,1768372188.316843,54.000000,0.000000,4313.589844,4274.871582,4325.384766,4297.563965,4295.384766,4338.333496,4305.256348,4275.000000,4326.666504,4266.666504,4489.230957,4529.358887,4349.358887,4436.794922,0.000000,2.000000,36.000000,,,,0.000000,4.000000,4.000000,4.000000,4.000000,4.000000,4.000000,4.000000,4.000000,4.000000,4.000000,4.000000,4.000000,4.000000,4.000000,100.000000,,,,,,,,,,,,,,,,,,,,,,,,,,,,,,,,,,,,,,,,,,,,,,,,,,,,,,,,,,,,,,,,,,,,,,,,,,,,,,,,,,,,,,,,,,,,,,,,,,,,,,,,,,,,,,,,,,,,,
1768372188.324393,1768372188.324652,55.000000,0.000000,4311.153809,4276.282227,4323.846191,4299.487305,4294.487305,4343.846191,4305.000000,4275.000000,4330.000000,4270.000000,4488.333496,4527.948730,4349.358887,4431.153809,0.000000,2.000000,36.000000,,,,0.000000,4.000000,4.000000,4.000000,4.000000,4.000000,4.000000,4.000000,4.000000,4.000000,4.000000,4.000000,4.000000,4.000000,4.000000,100.000000,,,,,,,,,,,,,,,,,,,,,,,,,,,,,,,,,,,,,,,,,,,,,,,,,,,,,,,,,,,,,,,,,,,,,,,,,,,,,,,,,,,,,,,,,,,,,,,,,,,,,,,,,,,,,,,,,,,,,
1768372188.332202,1768372188.332260,56.000000,0.000000,4309.615234,4276.922852,4322.436035,4302.436035,4296.153809,4347.179688,4307.820313,4268.717773,4328.846191,4270.128418,4478.461426,4520.000000,4342.820313,4435.512695,0.000000,2.000000,36.000000,,,,0.000000,4.000000,4.000000,4.000000,4.000000,4.000000,4.000000,4.000000,4.000000,4.000000,4.000000,4.000000,4.000000,4.000000,4.000000,100.000000,,,,,,,,,,,,,,,,,,,,,,,,,,,,,,,,,,,,,,,,,,,,,,,,,,,,,,,,,,,,,,,,,,,,,,,,,,,,,,,,,,,,,,,,,,,,,,,,,,,,,,,,,,,,,,,,,,,,,
1768372188.340010,1768372188.340069,57.000000,0.000000,4313.205078,4270.512695,4321.666504,4298.589844,4294.871582,4346.025879,4309.743652,4266.025879,4330.769043,4269.743652,4477.307617,4516.922852,4345.641113,4442.307617,0.000000,2.000000,36.000000,,,,0.000000,4.000000,4.000000,4.000000,4.000000,4.000000,4.000000,4.000000,4.000000,4.000000,4.000000,4.000000,4.000000,4.000000,4.000000,100.000000,,,,,,,,,,,,,,,,,,,,,,,,,,,,,,,,,,,,,,,,,,,,,,,,,,,,,,,,,,,,,,,,,,,,,,,,,,,,,,,,,,,,,,,,,,,,,,,,,,,,,,,,,,,,,,,,,,,,,
1768372188.347818,1768372188.347977,58.000000,0.000000,4318.077148,4270.128418,4323.717773,4295.128418,4293.974121,4352.436035,4312.179688,4269.871582,4337.179688,4274.358887,4490.641113,4527.179688,4354.615234,4444.871582,0.000000,2.000000,36.000000,,,,0.000000,4.000000,4.000000,4.000000,4.000000,4.000000,4.000000,4.000000,4.000000,4.000000,4.000000,4.000000,4.000000,4.000000,4.000000,100.000000,,,,,,,,,,,,,,,,,,,,,,,,,,,,,,,,,,,,,,,,,,,,,,,,,,,,,,,,,,,,,,,,,,,,,,,,,,,,,,,,,,,,,,,,,,,,,,,,,,,,,,,,,,,,,,,,,,,,,
1768372188.355627,1768372188.355786,59.000000,0.000000,4322.179688,4278.717773,4328.846191,4298.205078,4296.410156,4350.384766,4310.512695,4266.025879,4333.974121,4275.128418,4493.974121,4530.256348,4354.230957,4446.282227,0.000000,2.000000,36.000000,,,,0.000000,4.000000,4.000000,4.000000,4.000000,4.000000,4.000000,4.000000,4.000000,4.000000,4.000000,4.000000,4.000000,4.000000,4.000000,100.000000,,,,,,,,,,,,,,,,,,,,,,,,,,,,,,,,,,,,,,,,,,,,,,,,,,,,,,,,,,,,,,,,,,,,,,,,,,,,,,,,,,,,,,,,,,,,,,,,,,,,,,,,,,,,,,,,,,,,,
1768372188.363435,1768372188.363794,60.000000,0.000000,4322.179688,4282.051270,4328.974121,4301.794922,4296.666504,4339.743652,4306.666504,4263.077148,4326.794922,4268.846191,4483.333496,4522.820313,4349.102539,4446.794922,0.000000,2.000000,36.000000,,,,0.000000,4.000000,4.000000,4.000000,4.000000,4.000000,4.000000,4.000000,4.000000,4.000000,4.000000,4.000000,4.000000,4.000000,4.000000,100.000000,,,,,,,,,,,,,,,,,,,,,,,,,,,,,,,,,,,,,,,,,,,,,,,,,,,,,,,,,,,,,,,,,,,,,,,,,,,,,,,,,,,,,,,,,,,,,,,,,,,,,,,,,,,,,,,,,,,,,
1768372188.371244,1768372188.371602,61.000000,0.000000,4315.641113,4275.641113,4326.025879,4299.871582,4295.641113,4344.615234,4309.102539,4266.922852,4327.563965,4263.589844,4483.205078,4519.743652,4350.128418,4443.846191,0.000000,2.000000,36.000000,,,,0.000000,4.000000,4.000000,4.000000,4.000000,4.000000,4.000000,4.000000,4.000000,4.000000,4.000000,4.000000,4.000000,4.000000,4.000000,100.000000,,,,,,,,,,,,,,,,,,,,,,,,,,,,,,,,,,,,,,,,,,,,,,,,,,,,,,,,,,,,,,,,,,,,,,,,,,,,,,,,,,,,,,,,,,,,,,,,,,,,,,,,,,,,,,,,,,,,,
1768372188.379052,1768372188.379511,62.000000,0.000000,4307.692383,4270.256348,4325.512695,4294.102539,4296.410156,4350.897461,4310.897461,4259.743652,4328.461426,4265.512695,4488.846191,4520.897461,4352.563965,4442.179688,0.000000,2.000000,36.000000,,,,0.000000,4.000000,4.000000,4.000000,4.000000,4.000000,4.000000,4.000000,4.000000,4.000000,4.000000,4.000000,4.000000,4.000000,4.000000,100.000000,,,,,,,,,,,,,,,,,,,,,,,,,,,,,,,,,,,,,,,,,,,,,,,,0.647746,0.659859,0.481396,0.300787,0.201127,0.415613,0.211087,0.314488,0.143870,0.101095,0.266852,0.433816,0.384998,0.106140,0.160455,0.507392,0.401434,0.232463,0.150448,0.066934,0.310163,0.070766,0.085026,0.090269,0.064271,0.176716,0.123599,0.087818,0.117916,0.144373,0.287406,0.161573,0.077200,0.099439,0.081125,0.625225,0.244624,0.148692,0.103192,0.083733,0.297398,0.441213,0.176521,0.112420,0.075515,0.525705,0.212390,0.254965,0.127572,0.087834,0.748387,0.494814,0.244481,0.187112,0.212627,0.760277,0.575354,0.450811,0.158706,0.213043,1.075327,0.493657,0.275734,0.341484,0.214790,0.713046,0.351747,0.324008,0.288804,0.213140
1768372188.386861,1768372188.387319,63.000000,0.000000,4315.512695,4273.077148,4328.717773,4296.922852,4296.922852,4343.589844,4307.820313,4252.948730,4324.871582,4270.384766,4485.384766,4519.871582,4352.051270,4443.846191,0.000000,2.000000,36.000000,,,,0.000000,4.000000,4.000000,4.000000,4.000000,4.000000,4.000000,4.000000,4.000000,4.000000,4.000000,4.000000,4.000000,4.000000,4.000000,100.000000,,,,,,,,,,,,,,,,,,,,,,,,,,,,,,,,,,,,,,,,,,,,,,,,,,,,,,,,,,,,,,,,,,,,,,,,,,,,,,,,,,,,,,,,,,,,,,,,,,,,,,,,,,,,,,,,,,,,,
1768372188.394669,1768372188.395327,64.000000,0.000000,4325.256348,4277.948730,4332.563965,4309.102539,4295.769043,4341.538574,4308.846191,4264.358887,4326.410156,4272.051270,4479.615234,4519.743652,4351.922852,4443.974121,4049.000000,2.000000,36.000000,,,,0.000000,4.000000,4.000000,4.000000,4.000000,4.000000,4.000000,4.000000,4.000000,4.000000,4.000000,4.000000,4.000000,4.000000,4.000000,100.000000,,,,,,,,,,,,,,,,,,,,,,,,,,,,,,,,,,,,,,,,,,,,,,,,,,,,,,,,,,,,,,,,,,,,,,,,,,,,,,,,,,,,,,,,,,,,,,,,,,,,,,,,,,,,,,,,,,,,,
1768372188.402478,1768372188.403136,65.000000,0.000000,4315.769043,4275.769043,4329.102539,4305.384766,4294.871582,4344.743652,4311.666504,4276.922852,4330.512695,4268.846191,4480.512695,4521.025879,4351.666504,4443.717773,3982.000000,2.000000,36.000000,,,,0.000000,4.000000,4.000000,4.000000,4.000000,4.000000,4.000000,4.000000,4.000000,4.000000,4.000000,4.000000,4.000000,4.000000,4.000000,100.000000,,,,,,,,,,,,,,,,,,,,,,,,,,,,,,,,,,,,,,,,,,,,,,,,,,,,,,,,,,,,,,,,,,,,,,,,,,,,,,,,,,,,,,,,,,,,,,,,,,,,,,,,,,,,,,,,,,,,,
1768372188.410286,1768372188.410844,66.000000,0.000000,4311.666504,4272.563965,4323.461426,4292.179688,4295.512695,4346.153809,4309.487305,4269.743652,4326.538574,4265.512695,4479.743652,4516.922852,4348.077148,4444.102539,3886.000000,2.000000,36.000000,,,,0.000000,4.000000,4.000000,4.000000,4.000000,4.000000,4.000000,4.000000,4.000000,4.000000,4.000000,4.000000,4.000000,4.000000,4.000000,100.000000,,,,,,,,,,,,,,,,,,,,,,,,,,,,,,,,,,,,,,,,,,,,,,,,,,,,,,,,,,,,,,,,,,,,,,,,,,,,,,,,,,,,,,,,,,,,,,,,,,,,,,,,,,,,,,,,,,,,,
1768372188.418095,1768372188.418653,67.000000,0.000000,4318.077148,4277.179688,4325.384766,4297.051270,4296.922852,4348.461426,4306.025879,4260.000000,4322.820313,4264.358887,4475.000000,4511.794922,4345.384766,4443.077148,3869.000000,2.000000,36.000000,,,,0.000000,4.000000,4.000000,4.000000,4.000000,4.000000,4.000000,4.000000,4.000000,4.000000,4.000000,4.000000,4.000000,4.000000,4.000000,100.000000,,,,,,,,,,,,,,,,,,,,,,,,,,,,,,,,,,,,,,,,,,,,,,,,,,,,,,,,,,,,,,,,,,,,,,,,,,,,,,,,,,,,,,,,,,,,,,,,,,,,,,,,,,,,,,,,,,,,,
1768372188.425903,1768372188.426261,68.000000,0.000000,4315.384766,4279.487305,4327.692383,4305.897461,4296.153809,4345.641113,4302.179688,4264.102539,4325.641113,4266.025879,4480.128418,4513.333496,4349.487305,4442.307617,3769.000000,2.000000,36.000000,,,,0.000000,4.000000,4.000000,4.000000,4.000000,4.000000,4.000000,4.000000,4.000000,4.000000,4.000000,4.000000,4.000000,4.000000,4.000000,100.000000,,,,,,,,,,,,,,,,,,,,,,,,,,,,,,,,,,,,,,,,,,,,,,,,,,,,,,,,,,,,,,,,,,,,,,,,,,,,,,,,,,,,,,,,,,,,,,,,,,,,,,,,,,,,,,,,,,,,,
1768372188.433711,1768372188.434070,69.000000,0.000000,4312.051270,4278.589844,4326.410156,4304.102539,4294.615234,4339.102539,4299.743652,4266.538574,4326.410156,4270.128418,4483.974121,4516.922852,4351.282227,4443.461426,3744.000000,2.000000,36.000000,,,,0.000000,4.000000,4.000000,4.000000,4.000000,4.000000,4.000000,4.000000,4.000000,4.000000,4.000000,4.000000,4.000000,4.000000,4.000000,100.000000,,,,,,,,,,,,,,,,,,,,,,,,,,,,,,,,,,,,,,,,,,,,,,,,,,,,,,,,,,,,,,,,,,,,,,,,,,,,,,,,,,,,,,,,,,,,,,,,,,,,,,,,,,,,,,,,,,,,,
1768372188.441520,1768372188.441778,70.000000,0.000000,4321.153809,4281.282227,4326.922852,4305.512695,4295.128418,4340.641113,4304.230957,4261.794922,4322.436035,4267.307617,4481.922852,4513.846191,4350.897461,4446.538574,3744.000000,2.000000,36.000000,,,,0.000000,4.000000,4.000000,4.000000,4.000000,4.000000,4.000000,4.000000,4.000000,4.000000,4.000000,4.000000,4.000000,4.000000,4.000000,100.000000,,,,,,,,,,,,,,,,,,,,,,,,,,,,,,,,,,,,,,,,,,,,,,,,,,,,,,,,,,,,,,,,,,,,,,,,,,,,,,,,,,,,,,,,,,,,,,,,,,,,,,,,,,,,,,,,,,,,,
1768372188.449328,1768372188.449587,71.000000,0.000000,4328.974121,4282.436035,4332.820313,4310.128418,4295.769043,4344.358887,4308.461426,4262.051270,4322.692383,4262.948730,4486.282227,4514.230957,4357.436035,4452.692383,3754.000000,2.000000,36.000000,,,,0.000000,4.000000,4.000000,4.000000,4.000000,4.000000,4.000000,4.000000,4.000000,4.000000,4.000000,4.000000,4.000000,4.000000,4.000000,100.000000,,,,,,,,,,,,,,,,,,,,,,,,,,,,,,,,,,,,,,,,,,,,,,,,,,,,,,,,,,,,,,,,,,,,,,,,,,,,,,,,,,,,,,,,,,,,,,,,,,,,,,,,,,,,,,,,,,,,,
1768372188.457137,1768372188.457196,72.000000,0.000000,4326.410156,4280.769043,4336.153809,4306.410156,4294.615234,4342.307617,4305.128418,4269.487305,4326.794922,4267.436035,4494.230957,4526.794922,4363.846191,4460.256348,3947.000000,2.000000,36.000000,,,,0.000000,4.000000,4.000000,4.000000,4.000000,4.000000,4.000000,4.000000,4.000000,4.000000,4.000000,4.000000,4.000000,4.000000,4.000000,100.000000,,,,,,,,,,,,,,,,,,,,,,,,,,,,,,,,,,,,,,,,,,,,,,,,,,,,,,,,,,,,,,,,,,,,,,,,,,,,,,,,,,,,,,,,,,,,,,,,,,,,,,,,,,,,,,,,,,,,,
1768372188.464945,1768372188.465004,73.000000,0.000000,4323.205078,4280.512695,4332.692383,4304.358887,4293.589844,4343.205078,4305.512695,4272.436035,4327.820313,4270.641113,4497.436035,4531.025879,4361.410156,4461.538574,3927.000000,2.000000,36.000000,,,,0.000000,4.000000,4.000000,4.000000,4.000000,4.000000,4.000000,4.000000,4.000000,4.000000,4.000000,4.000000,4.000000,4.000000,4.000000,100.000000,,,,,,,,,,,,,,,,,,,,,,,,,,,,,,,,,,,,,,,,,,,,,,,,,,,,,,,,,,,,,,,,,,,,,,,,,,,,,,,,,,,,,,,,,,,,,,,,,,,,,,,,,,,,,,,,,,,,,
1768372188.472754,1768372188.472713,74.000000,0.000000,4318.846191,4279.871582,4328.589844,4307.179688,4293.205078,4350.128418,4311.025879,4270.384766,4324.743652,4259.871582,4488.333496,4521.025879,4354.615234,4456.666504,4410.000000,2.000000,36.000000,,,,0.000000,4.000000,4.000000,4.000000,4.000000,4.000000,4.000000,4.000000,4.000000,4.000000,4.000000,4.000000,4.000000,4.000000,4.000000,100.000000,,,,,,,,,,,,,,,,,,,,,,,,,,,,,,,,,,,,,,,,,,,,,,,,,,,,,,,,,,,,,,,,,,,,,,,,,,,,,,,,,,,,,,,,,,,,,,,,,,,,,,,,,,,,,,,,,,,,,
1768372188.480562,1768372188.480521,75.000000,0.000000,4317.820313,4278.589844,4329.871582,4307.179688,4294.743652,4355.000000,4313.717773,4271.025879,4322.051270,4252.436035,4477.692383,4514.615234,4352.179688,4455.384766,4689.000000,2.000000,36.000000,,,,0.000000,4.000000,4.000000,4.000000,4.000000,4.000000,4.000000,4.000000,4.000000,4.000000,4.000000,4.000000,4.000000,4.000000,4.000000,100.000000,,,,,,,,,,,,,,,,,,,,,,,,,,,,,,,,,,,,,,,,,,,,,,,,,,,,,,,,,,,,,,,,,,,,,,,,,,,,,,,,,,,,,,,,,,,,,,,,,,,,,,,,,,,,,,,,,,,,,
1768372188.488371,1768372188.488529,76.000000,0.000000,4322.692383,4280.128418,4330.128418,4305.384766,4297.436035,4351.538574,4308.974121,4271.025879,4321.922852,4255.897461,4482.436035,4514.871582,4353.461426,4457.692383,5026.000000,2.000000,36.000000,,,,0.000000,4.000000,4.000000,4.000000,4.000000,4.000000,4.000000,4.000000,4.000000,4.000000,4.000000,4.000000,4.000000,4.000000,4.000000,100.000000,,,,,,,,,,,,,,,,,,,,,,,,,,,,,,,,,,,,,,,,,,,,,,,,,,,,,,,,,,,,,,,,,,,,,,,,,,,,,,,,,,,,,,,,,,,,,,,,,,,,,,,,,,,,,,,,,,,,,
1768372188.496179,1768372188.496338,77.000000,0.000000,4318.333496,4280.897461,4325.512695,4302.948730,4294.487305,4344.230957,4298.333496,4269.487305,4321.282227,4256.794922,4488.589844,4513.205078,4352.563965,4459.102539,5414.000000,2.000000,36.000000,,,,0.000000,4.000000,4.000000,4.000000,4.000000,4.000000,4.000000,4.000000,4.000000,4.000000,4.000000,4.000000,4.000000,4.000000,4.000000,100.000000,,,,,,,,,,,,,,,,,,,,,,,,,,,,,,,,,,,,,,,,,,,,,,,,,,,,,,,,,,,,,,,,,,,,,,,,,,,,,,,,,,,,,,,,,,,,,,,,,,,,,,,,,,,,,,,,,,,,,
1768372188.503987,1768372188.504246,78.000000,0.000000,4308.717773,4279.743652,4325.000000,4303.717773,4289.487305,4340.512695,4293.077148,4268.205078,4322.563965,4255.769043,4480.512695,4514.487305,4352.051270,4459.230957,4410.000000,2.000000,36.000000,,,,0.000000,4.000000,4.000000,4.000000,4.000000,4.000000,4.000000,4.000000,4.000000,4.000000,4.000000,4.000000,4.000000,4.000000,4.000000,100.000000,1.000000,100.000000,4.000000,4.000000,4.000000,4.000000,4.000000,4.000000,4.000000,4.000000,4.000000,4.000000,4.000000,4.000000,4.000000,4.000000,,,,,,,,,,,,,,,,,,,,,,,,,,,,,,,,0.569476,0.555889,0.467598,0.299666,0.207206,0.422823,0.202415,0.313061,0.126609,0.093764,0.228979,0.366906,0.376473,0.105587,0.151277,0.542065,0.363342,0.218137,0.115585,0.062606,0.311638,0.069049,0.078045,0.081454,0.055741,0.178325,0.123035,0.083535,0.122496,0.139042,0.267271,0.207230,0.066307,0.118655,0.078579,0.541721,0.278294,0.146425,0.110487,0.101598,0.267382,0.390745,0.158932,0.144360,0.095369,0.446036,0.188494,0.233087,0.149913,0.082896,0.650239,0.409669,0.261745,0.214134,0.212547,0.575701,0.440693,0.472568,0.160551,0.200871,0.910181,0.436406,0.307641,0.314655,0.229016,0.685563,0.283712,0.364281,0.305750,0.228115
1768372188.511796,1768372188.512054,79.000000,0.000000,4312.563965,4280.000000,4327.692383,4307.307617,4288.333496,4341.922852,4295.641113,4268.077148,4320.512695,4253.846191,4473.589844,4513.461426,4350.897461,4458.974121,4689.000000,2.000000,36.000000,,,,0.000000,4.000000,4.000000,4.000000,4.000000,4.000000,4.000000,4.000000,4.000000,4.000000,4.000000,4.000000,4.000000,4.000000,4.000000,100.000000,,,,,,,,,,,,,,,,,,,,,,,,,,,,,,,,,,,,,,,,,,,,,,,,,,,,,,,,,,,,,,,,,,,,,,,,,,,,,,,,,,,,,,,,,,,,,,,,,,,,,,,,,,,,,,,,,,,,,
1768372188.519604,1768372188.520063,80.000000,0.000000,4320.769043,4280.512695,4328.077148,4304.102539,4289.358887,4344.102539,4297.563965,4266.538574,4314.615234,4250.641113,4476.025879,4504.743652,4345.769043,4456.794922,5026.000000,2.000000,36.000000,,,,0.000000,4.000000,4.000000,4.000000,4.000000,4.000000,4.000000,4.000000,4.000000,4.000000,4.000000,4.000000,4.000000,4.000000,4.000000,100.000000,,,,,,,,,,,,,,,,,,,,,,,,,,,,,,,,,,,,,,,,,,,,,,,,,,,,,,,,,,,,,,,,,,,,,,,,,,,,,,,,,,,,,,,,,,,,,,,,,,,,,,,,,,,,,,,,,,,,,
1768372188.527413,1768372188.527871,81.000000,0.000000,4312.307617,4277.692383,4324.230957,4294.615234,4283.461426,4343.077148,4300.000000,4268.717773,4318.589844,4251.410156,4480.384766,4508.077148,4346.538574,4456.153809,5414.000000,2.000000,36.000000,,,,0.000000,4.000000,4.000000,4.000000,4.000000,4.000000,4.000000,4.000000,4.000000,4.000000,4.000000,4.000000,4.000000,4.000000,4.000000,100.000000,,,,,,,,,,,,,,,,,,,,,,,,,,,,,,,,,,,,,,,,,,,,,,,,,,,,,,,,,,,,,,,,,,,,,,,,,,,,,,,,,,,,,,,,,,,,,,,,,,,,,,,,,,,,,,,,,,,,,
1768372188.535221,1768372188.535580,82.000000,0.000000,4305.769043,4276.025879,4323.846191,4294.358887,4278.846191,4342.179688,4307.563965,4278.077148,4333.077148,4263.974121,4493.461426,4527.948730,4364.615234,4465.769043,4410.000000,2.000000,36.000000,,,,0.000000,4.000000,4.000000,4.000000,4.000000,4.000000,4.000000,4.000000,4.000000,4.000000,4.000000,4.000000,4.000000,4.000000,4.000000,100.000000,,,,,,,,,,,,,,,,,,,,,,,,,,,,,,,,,,,,,,,,,,,,,,,,,,,,,,,,,,,,,,,,,,,,,,,,,,,,,,,,,,,,,,,,,,,,,,,,,,,,,,,,,,,,,,,,,,,,,
1768372188.543029,1768372188.543388,83.000000,0.000000,4323.077148,4285.769043,4335.641113,4304.871582,4286.666504,4342.436035,4310.769043,4287.307617,4340.512695,4276.794922,4508.717773,4538.846191,4378.205078,4477.051270,4689.000000,2.000000,36.000000,,,,0.000000,4.000000,4.000000,4.000000,4.000000,4.000000,4.000000,4.000000,4.000000,4.000000,4.000000,4.000000,4.000000,4.000000,4.000000,100.000000,,,,,,,,,,,,,,,,,,,,,,,,,,,,,,,,,,,,,,,,,,,,,,,,,,,,,,,,,,,,,,,,,,,,,,,,,,,,,,,,,,,,,,,,,,,,,,,,,,,,,,,,,,,,,,,,,,,,,
1768372188.550838,1768372188.551396,84.000000,0.000000,4337.179688,4292.948730,4347.948730,4312.948730,4293.461426,4344.230957,4311.666504,4286.794922,4332.820313,4273.205078,4509.871582,4534.102539,4373.974121,4477.051270,5026.000000,2.000000,36.000000,,,,0.000000,4.000000,4.000000,4.000000,4.000000,4.000000,4.000000,4.000000,4.000000,4.000000,4.000000,4.000000,4.000000,4.000000,4.000000,100.000000,,,,,,,,,,,,,,,,,,,,,,,,,,,,,,,,,,,,,,,,,,,,,,,,,,,,,,,,,,,,,,,,,,,,,,,,,,,,,,,,,,,,,,,,,,,,,,,,,,,,,,,,,,,,,,,,,,,,,
1768372188.558646,1768372188.559205,85.000000,0.000000,4328.717773,4288.717773,4341.025879,4310.384766,4291.025879,4343.589844,4307.820313,4274.615234,4322.179688,4263.077148,4501.025879,4529.871582,4369.743652,4472.051270,5414.000000,2.000000,36.000000,,,,0.000000,4.000000,4.000000,4.000000,4.000000,4.000000,4.000000,4.000000,4.000000,4.000000,4.000000,4.000000,4.000000,4.000000,4.000000,100.000000,,,,,,,,,,,,,,,,,,,,,,,,,,,,,,,,,,,,,,,,,,,,,,,,,,,,,,,,,,,,,,,,,,,,,,,,,,,,,,,,,,,,,,,,,,,,,,,,,,,,,,,,,,,,,,,,,,,,,
1768372188.566455,1768372188.567113,86.000000,0.000000,4320.128418,4286.666504,4327.820313,4305.897461,4288.846191,4341.025879,4297.692383,4268.205078,4319.487305,4259.230957,4494.871582,4529.487305,4371.538574,4472.563965,4410.000000,2.000000,36.000000,,,,0.000000,4.000000,4.000000,4.000000,4.000000,4.000000,4.000000,4.000000,4.000000,4.000000,4.000000,4.000000,4.000000,4.000000,4.000000,100.000000,,,,,,,,,,,,,,,,,,,,,,,,,,,,,,,,,,,,,,,,,,,,,,,,,,,,,,,,,,,,,,,,,,,,,,,,,,,,,,,,,,,,,,,,,,,,,,,,,,,,,,,,,,,,,,,,,,,,,
1768372188.574263,1768372188.574922,87.000000,0.000000,4323.333496,4291.410156,4333.461426,4309.487305,4290.769043,4341.153809,4298.846191,4275.384766,4324.102539,4264.102539,4499.615234,4529.743652,4373.717773,4475.256348,4689.000000,2.000000,36.000000,,,,0.000000,4.000000,4.000000,4.000000,4.000000,4.000000,4.000000,4.000000,4.000000,4.000000,4.000000,4.000000,4.000000,4.000000,4.000000,100.000000,,,,,,,,,,,,,,,,,,,,,,,,,,,,,,,,,,,,,,,,,,,,,,,,,,,,,,,,,,,,,,,,,,,,,,,,,,,,,,,,,,,,,,,,,,,,,,,,,,,,,,,,,,,,,,,,,,,,,
1768372188.582072,1768372188.582930,88.000000,0.000000,4326.282227,4292.179688,4343.205078,4311.794922,4292.179688,4342.179688,4304.615234,4280.384766,4327.948730,4266.025879,4506.922852,4530.384766,4375.769043,4475.384766,5026.000000,2.000000,36.000000,,,,0.000000,4.000000,4.000000,4.000000,4.000000,4.000000,4.000000,4.000000,4.000000,4.000000,4.000000,4.000000,4.000000,4.000000,4.000000,100.000000,,,,,,,,,,,,,,,,,,,,,,,,,,,,,,,,,,,,,,,,,,,,,,,,,,,,,,,,,,,,,,,,,,,,,,,,,,,,,,,,,,,,,,,,,,,,,,,,,,,,,,,,,,,,,,,,,,,,,
1768372188.589880,1768372188.590738,89.000000,0.000000,4330.641113,4290.641113,4339.871582,4308.589844,4292.307617,4341.282227,4298.974121,4276.538574,4323.205078,4263.205078,4505.384766,4528.077148,4378.205078,4477.563965,5414.000000,2.000000,36.000000,,,,0.000000,4.000000,4.000000,4.000000,4.000000,4.000000,4.000000,4.000000,4.000000,4.000000,4.000000,4.000000,4.000000,4.000000,4.000000,100.000000,,,,,,,,,,,,,,,,,,,,,,,,,,,,,,,,,,,,,,,,,,,,,,,,,,,,,,,,,,,,,,,,,,,,,,,,,,,,,,,,,,,,,,,,,,,,,,,,,,,,,,,,,,,,,,,,,,,,,
1768372188.597689,1768372188.598447,90.000000,0.000000,4339.487305,4297.436035,4334.358887,4311.666504,4292.436035,4338.846191,4293.333496,4275.897461,4315.641113,4261.410156,4505.128418,4526.410156,4380.641113,4480.512695,4410.000000,2.000000,36.000000,,,,0.000000,4.000000,4.000000,4.000000,4.000000,4.000000,4.000000,4.000000,4.000000,4.000000,4.000000,4.000000,4.000000,4.000000,4.000000,100.000000,,,,,,,,,,,,,,,,,,,,,,,,,,,,,,,,,,,,,,,,,,,,,,,,,,,,,,,,,,,,,,,,,,,,,,,,,,,,,,,,,,,,,,,,,,,,,,,,,,,,,,,,,,,,,,,,,,,,,
1768372188.605497,1768372188.606255,91.000000,0.000000,4335.384766,4295.769043,4332.563965,4314.487305,4293.589844,4337.820313,4297.179688,4279.487305,4315.897461,4261.666504,4506.666504,4526.153809,4382.436035,4482.179688,4689.000000,2.000000,36.000000,,,,0.000000,4.000000,4.000000,4.000000,4.000000,4.000000,4.000000,4.000000,4.000000,4.000000,4.000000,4.000000,4.000000,4.000000,4.000000,100.000000,,,,,,,,,,,,,,,,,,,,,,,,,,,,,,,,,,,,,,,,,,,,,,,,,,,,,,,,,,,,,,,,,,,,,,,,,,,,,,,,,,,,,,,,,,,,,,,,,,,,,,,,,,,,,,,,,,,,,
1768372188.613305,1768372188.614264,92.000000,0.000000,4322.692383,4281.538574,4327.307617,4306.282227,4292.051270,4341.282227,4298.974121,4277.820313,4318.461426,4257.436035,4496.794922,4517.948730,4376.153809,4475.384766,5026.000000,2.000000,36.000000,,,,0.000000,4.000000,4.000000,4.000000,4.000000,4.000000,4.000000,4.000000,4.000000,4.000000,4.000000,4.000000,4.000000,4.000000,4.000000,100.000000,,,,,,,,,,,,,,,,,,,,,,,,,,,,,,,,,,,,,,,,,,,,,,,,,,,,,,,,,,,,,,,,,,,,,,,,,,,,,,,,,,,,,,,,,,,,,,,,,,,,,,,,,,,,,,,,,,,,,
1768372188.621114,1768372188.622072,93.000000,0.000000,4321.538574,4282.436035,4323.974121,4304.743652,4288.205078,4343.846191,4296.794922,4275.128418,4314.230957,4249.487305,4486.922852,4514.102539,4365.769043,4467.692383,5414.000000,2.000000,36.000000,,,,0.000000,4.000000,4.000000,4.000000,4.000000,4.000000,4.000000,4.000000,4.000000,4.000000,4.000000,4.000000,4.000000,4.000000,4.000000,100.000000,,,,,,,,,,,,,,,,,,,,,,,,,,,,,,,,,,,,,,,,,,,,,,,,,,,,,,,,,,,,,,,,,,,,,,,,,,,,,,,,,,,,,,,,,,,,,,,,,,,,,,,,,,,,,,,,,,,,,
1768372188.628922,1768372188.629781,94.000000,0.000000,4330.769043,4296.794922,4329.102539,4314.487305,4286.410156,4336.538574,4295.384766,4273.589844,4312.307617,4253.589844,4496.666504,4524.743652,4372.179688,4481.025879,4410.000000,2.000000,36.000000,,,,0.000000,4.000000,4.000000,4.000000,4.000000,4.000000,4.000000,4.000000,4.000000,4.000000,4.000000,4.000000,4.000000,4.000000,4.000000,100.000000,,,,,,,,,,,,,,,,,,,,,,,,,,,,,,,,,,,,,,,,,,,,,,,,0.490901,0.410942,0.439680,0.290155,0.213801,0.419193,0.196066,0.303776,0.108878,0.090649,0.209471,0.286867,0.344037,0.106221,0.140124,0.536884,0.311322,0.191310,0.082673,0.063409,0.299707,0.064477,0.066921,0.068574,0.051649,0.193736,0.127331,0.078595,0.126833,0.134747,0.231846,0.250420,0.060668,0.141454,0.075359,0.438563,0.344904,0.139201,0.122041,0.121126,0.233647,0.342193,0.148331,0.178038,0.116257,0.371477,0.176423,0.219188,0.171071,0.079159,0.542586,0.344411,0.293434,0.238704,0.202099,0.432745,0.316387,0.485065,0.175308,0.183772,0.709463,0.396168,0.352895,0.293538,0.237196,0.675315,0.240786,0.407430,0.322223,0.232271
1768372188.636731,1768372188.637589,95.000000,0.000000,4333.205078,4293.846191,4330.897461,4314.871582,4284.102539,4332.051270,4293.717773,4272.563965,4315.897461,4259.487305,4506.922852,4525.000000,4383.205078,4495.641113,4689.000000,2.000000,36.000000,,,,0.000000,4.000000,4.000000,4.000000,4.000000,4.000000,4.000000,4.000000,4.000000,4.000000,4.000000,4.000000,4.000000,4.000000,4.000000,100.000000,,,,,,,,,,,,,,,,,,,,,,,,,,,,,,,,,,,,,,,,,,,,,,,,,,,,,,,,,,,,,,,,,,,,,,,,,,,,,,,,,,,,,,,,,,,,,,,,,,,,,,,,,,,,,,,,,,,,,
1768372188.644539,1768372188.645198,96.000000,0.000000,4326.538574,4282.436035,4326.794922,4308.077148,4283.333496,4340.128418,4296.153809,4276.282227,4313.205078,4253.077148,4498.461426,4512.820313,4375.128418,4483.461426,5026.000000,2.000000,36.000000,,,,0.000000,4.000000,4.000000,4.000000,4.000000,4.000000,4.000000,4.000000,4.000000,4.000000,4.000000,4.000000,4.000000,4.000000,4.000000,100.000000,,,,,,,,,,,,,,,,,,,,,,,,,,,,,,,,,,,,,,,,,,,,,,,,,,,,,,,,,,,,,,,,,,,,,,,,,,,,,,,,,,,,,,,,,,,,,,,,,,,,,,,,,,,,,,,,,,,,,
1768372188.652348,1768372188.653006,97.000000,0.000000,4323.077148,4284.615234,4323.205078,4307.307617,4285.256348,4344.102539,4298.589844,4280.512695,4309.743652,4247.307617,4488.461426,4510.128418,4359.743652,4468.333496,5414.000000,2.000000,36.000000,,,,0.000000,4.000000,4.000000,4.000000,4.000000,4.000000,4.000000,4.000000,4.000000,4.000000,4.000000,4.000000,4.000000,4.000000,4.000000,100.000000,,,,,,,,,,,,,,,,,,,,,,,,,,,,,,,,,,,,,,,,,,,,,,,,,,,,,,,,,,,,,,,,,,,,,,,,,,,,,,,,,,,,,,,,,,,,,,,,,,,,,,,,,,,,,,,,,,,,,
1768372188.660156,1768372188.660715,98.000000,0.000000,4321.410156,4286.794922,4324.871582,4307.692383,4281.666504,4337.563965,4295.897461,4277.179688,4310.641113,4248.717773,4490.769043,4515.641113,4359.487305,4474.102539,4410.000000,2.000000,36.000000,,,,0.000000,4.000000,4.000000,4.000000,4.000000,4.000000,4.000000,4.000000,4.000000,4.000000,4.000000,4.000000,4.000000,4.000000,4.000000,100.000000,,,,,,,,,,,,,,,,,,,,,,,,,,,,,,,,,,,,,,,,,,,,,,,,,,,,,,,,,,,,,,,,,,,,,,,,,,,,,,,,,,,,,,,,,,,,,,,,,,,,,,,,,,,,,,,,,,,,,
1768372188.667965,1768372188.668523,99.000000,0.000000,4321.153809,4285.512695,4328.461426,4306.410156,4278.077148,4330.000000,4289.871582,4272.436035,4310.256348,4248.461426,4494.871582,4514.487305,4366.538574,4480.641113,4689.000000,2.000000,36.000000,,,,0.000000,4.000000,4.000000,4.000000,4.000000,4.000000,4.000000,4.000000,4.000000,4.000000,4.000000,4.000000,4.000000,4.000000,4.000000,100.000000,,,,,,,,,,,,,,,,,,,,,,,,,,,,,,,,,,,,,,,,,,,,,,,,,,,,,,,,,,,,,,,,,,,,,,,,,,,,,,,,,,,,,,,,,,,,,,,,,,,,,,,,,,,,,,,,,,,,,
1768372188.675773,1768372188.676531,100.000000,0.000000,4327.436035,4290.769043,4328.846191,4309.358887,4281.025879,4327.820313,4288.589844,4276.153809,4308.717773,4243.974121,4493.846191,4506.794922,4365.769043,4471.538574,5026.000000,2.000000,36.000000,,,,0.000000,4.000000,4.000000,4.000000,4.000000,4.000000,4.000000,4.000000,4.000000,4.000000,4.000000,4.000000,4.000000,4.000000,4.000000,100.000000,,,,,,,,,,,,,,,,,,,,,,,,,,,,,,,,,,,,,,,,,,,,,,,,,,,,,,,,,,,,,,,,,,,,,,,,,,,,,,,,,,,,,,,,,,,,,,,,,,,,,,,,,,,,,,,,,,,,,
1768372188.683581,1768372188.684340,101.000000,0.000000,4325.000000,4293.205078,4327.179688,4310.000000,4283.461426,4328.974121,4292.436035,4279.743652,4306.794922,4237.179688,4485.384766,4500.384766,4355.000000,4461.025879,5414.000000,2.000000,36.000000,,,,0.000000,4.000000,4.000000,4.000000,4.000000,4.000000,4.000000,4.000000,4.000000,4.000000,4.000000,4.000000,4.000000,4.000000,4.000000,100.000000,,,,,,,,,,,,,,,,,,,,,,,,,,,,,,,,,,,,,,,,,,,,,,,,,,,,,,,,,,,,,,,,,,,,,,,,,,,,,,,,,,,,,,,,,,,,,,,,,,,,,,,,,,,,,,,,,,,,,
1768372188.691390,1768372188.692248,102.000000,0.000000,4310.256348,4290.769043,4326.153809,4307.563965,4283.077148,4327.307617,4293.717773,4277.948730,4305.512695,4231.666504,4473.077148,4498.974121,4345.769043,4456.794922,4410.000000,2.000000,36.000000,,,,0.000000,4.000000,4.000000,4.000000,4.000000,4.000000,4.000000,4.000000,4.000000,4.000000,4.000000,4.000000,4.000000,4.000000,4.000000,100.000000,,,,,,,,,,,,,,,,,,,,,,,,,,,,,,,,,,,,,,,,,,,,,,,,,,,,,,,,,,,,,,,,,,,,,,,,,,,,,,,,,,,,,,,,,,,,,,,,,,,,,,,,,,,,,,,,,,,,,
1768372188.699198,1768372188.700057,103.000000,0.000000,4311.538574,4292.563965,4327.692383,4309.871582,4286.794922,4327.692383,4294.102539,4279.358887,4306.410156,4233.974121,4477.179688,4506.410156,4350.897461,4458.974121,4689.000000,2.000000,36.000000,,,,0.000000,4.000000,4.000000,4.000000,4.000000,4.000000,4.000000,4.000000,4.000000,4.000000,4.000000,4.000000,4.000000,4.000000,4.000000,100.000000,,,,,,,,,,,,,,,,,,,,,,,,,,,,,,,,,,,,,,,,,,,,,,,,,,,,,,,,,,,,,,,,,,,,,,,,,,,,,,,,,,,,,,,,,,,,,,,,,,,,,,,,,,,,,,,,,,,,,
1768372188.707007,1768372188.708065,104.000000,0.000000,4321.025879,4296.282227,4328.589844,4313.077148,4286.410156,4331.922852,4295.512695,4283.717773,4308.333496,4239.102539,4492.436035,4514.230957,4360.000000,4463.974121,5026.000000,2.000000,36.000000,,,,0.000000,4.000000,4.000000,4.000000,4.000000,4.000000,4.000000,4.000000,4.000000,4.000000,4.000000,4.000000,4.000000,4.000000,4.000000,100.000000,,,,,,,,,,,,,,,,,,,,,,,,,,,,,,,,,,,,,,,,,,,,,,,,,,,,,,,,,,,,,,,,,,,,,,,,,,,,,,,,,,,,,,,,,,,,,,,,,,,,,,,,,,,,,,,,,,,,,
1768372188.714815,1768372188.715873,105.000000,0.000000,4313.589844,4295.512695,4326.153809,4311.410156,4281.025879,4328.974121,4294.358887,4282.051270,4307.436035,4238.077148,4489.358887,4508.333496,4357.692383,4463.974121,5414.000000,2.000000,36.000000,,,,0.000000,4.000000,4.000000,4.000000,4.000000,4.000000,4.000000,4.000000,4.000000,4.000000,4.000000,4.000000,4.000000,4.000000,4.000000,100.000000,,,,,,,,,,,,,,,,,,,,,,,,,,,,,,,,,,,,,,,,,,,,,,,,,,,,,,,,,,,,,,,,,,,,,,,,,,,,,,,,,,,,,,,,,,,,,,,,,,,,,,,,,,,,,,,,,,,,,
1768372188.722624,1768372188.723782,106.000000,0.000000,4305.897461,4293.333496,4322.051270,4307.820313,4281.153809,4327.820313,4294.102539,4279.358887,4306.922852,4235.897461,4475.769043,4497.692383,4350.897461,4459.487305,4410.000000,2.000000,36.000000,,,,0.000000,4.000000,4.000000,4.000000,4.000000,4.000000,4.000000,4.000000,4.000000,4.000000,4.000000,4.000000,4.000000,4.000000,4.000000,100.000000,,,,,,,,,,,,,,,,,,,,,,,,,,,,,,,,,,,,,,,,,,,,,,,,,,,,,,,,,,,,,,,,,,,,,,,,,,,,,,,,,,,,,,,,,,,,,,,,,,,,,,,,,,,,,,,,,,,,,
1768372188.730432,1768372188.731590,107.000000,0.000000,4308.846191,4293.461426,4322.436035,4308.077148,4284.230957,4337.436035,4297.692383,4282.051270,4306.153809,4236.410156,4475.256348,4499.358887,4352.820313,4457.436035,4689.000000,2.000000,36.000000,,,,0.000000,4.000000,4.000000,4.000000,4.000000,4.000000,4.000000,4.000000,4.000000,4.000000,4.000000,4.000000,4.000000,4.000000,4.000000,100.000000,,,,,,,,,,,,,,,,,,,,,,,,,,,,,,,,,,,,,,,,,,,,,,,,,,,,,,,,,,,,,,,,,,,,,,,,,,,,,,,,,,,,,,,,,,,,,,,,,,,,,,,,,,,,,,,,,,,,,
1768372188.738241,1768372188.739199,108.000000,0.000000,4311.153809,4294.487305,4319.871582,4309.871582,4284.358887,4337.051270,4297.436035,4281.282227,4299.487305,4236.410156,4480.384766,4502.820313,4354.102539,4461.922852,5026.000000,2.000000,36.000000,,,,0.000000,4.000000,4.000000,4.000000,4.000000,4.000000,4.000000,4.000000,4.000000,4.000000,4.000000,4.000000,4.000000,4.000000,4.000000,100.000000,,,,,,,,,,,,,,,,,,,,,,,,,,,,,,,,,,,,,,,,,,,,,,,,,,,,,,,,,,,,,,,,,,,,,,,,,,,,,,,,,,,,,,,,,,,,,,,,,,,,,,,,,,,,,,,,,,,,,
1768372188.746049,1768372188.747007,109.000000,0.000000,4310.256348,4293.589844,4312.179688,4309.743652,4284.358887,4325.641113,4296.153809,4278.205078,4297.948730,4232.948730,4476.025879,4496.794922,4349.743652,4463.333496,5414.000000,2.000000,36.000000,,,,0.000000,4.000000,4.000000,4.000000,4.000000,4.000000,4.000000,4.000000,4.000000,4.000000,4.000000,4.000000,4.000000,4.000000,4.000000,100.000000,,,,,,,,,,,,,,,,,,,,,,,,,,,,,,,,,,,,,,,,,,,,,,,,,,,,,,,,,,,,,,,,,,,,,,,,,,,,,,,,,,,,,,,,,,,,,,,,,,,,,,,,,,,,,,,,,,,,,
1768372188.753857,1768372188.754916,110.000000,0.000000,4308.846191,4293.077148,4313.846191,4308.461426,4284.615234,4325.000000,4300.512695,4278.846191,4305.897461,4233.589844,4472.179688,4493.846191,4349.743652,4462.179688,4410.000000,2.000000,36.000000,,,,0.000000,4.000000,4.000000,4.000000,4.000000,4.000000,4.000000,4.000000,4.000000,4.000000,4.000000,4.000000,4.000000,4.000000,4.000000,100.000000,,,,,,,,,,,,,,,,,,,,,,,,,,,,,,,,,,,,,,,,,,,,,,,,0.437818,0.275332,0.407868,0.273962,0.219618,0.398793,0.187152,0.290123,0.092184,0.090473,0.188897,0.214414,0.296790,0.108976,0.130728,0.499432,0.255424,0.158046,0.059243,0.070519,0.277130,0.057758,0.052525,0.054819,0.052045,0.187207,0.137483,0.075153,0.129107,0.131891,0.185938,0.288334,0.068303,0.159293,0.070278,0.340128,0.428701,0.131111,0.133489,0.136446,0.198684,0.321513,0.142069,0.202682,0.132343,0.305860,0.192760,0.209399,0.183841,0.079143,0.446154,0.340036,0.334702,0.253849,0.186161,0.331261,0.251220,0.492287,0.198425,0.164887,0.528163,0.400106,0.402882,0.280046,0.236249,0.682814,0.242013,0.438128,0.329980,0.224098
1768372188.761666,1768372188.762724,111.000000,0.000000,4314.358887,4293.717773,4320.641113,4312.563965,4285.128418,4332.051270,4303.717773,4278.846191,4311.282227,4242.051270,4481.282227,4496.153809,4355.512695,4469.102539,4689.000000,2.000000,36.000000,,,,0.000000,4.000000,4.000000,4.000000,4.000000,4.000000,4.000000,4.000000,4.000000,4.000000,4.000000,4.000000,4.000000,4.000000,4.000000,100.000000,,,,,,,,,,,,,,,,,,,,,,,,,,,,,,,,,,,,,,,,,,,,,,,,,,,,,,,,,,,,,,,,,,,,,,,,,,,,,,,,,,,,,,,,,,,,,,,,,,,,,,,,,,,,,,,,,,,,,
1768372188.769474,1768372188.770333,112.000000,0.000000,4322.436035,4295.897461,4321.794922,4316.666504,4287.692383,4335.769043,4303.717773,4276.153809,4310.256348,4247.307617,4492.051270,4500.000000,4362.051270,4477.179688,5026.000000,2.000000,36.000000,,,,0.000000,4.000000,4.000000,4.000000,4.000000,4.000000,4.000000,4.000000,4.000000,4.000000,4.000000,4.000000,4.000000,4.000000,4.000000,100.000000,,,,,,,,,,,,,,,,,,,,,,,,,,,,,,,,,,,,,,,,,,,,,,,,,,,,,,,,,,,,,,,,,,,,,,,,,,,,,,,,,,,,,,,,,,,,,,,,,,,,,,,,,,,,,,,,,,,,,
1768372188.777283,1768372188.778141,113.000000,0.000000,4317.692383,4297.436035,4323.077148,4314.743652,4288.974121,4338.205078,4305.897461,4272.563965,4308.333496,4246.153809,4491.153809,4504.102539,4366.025879,4477.692383,5414.000000,2.000000,36.000000,,,,0.000000,4.000000,4.000000,4.000000,4.000000,4.000000,4.000000,4.000000,4.000000,4.000000,4.000000,4.000000,4.000000,4.000000,4.000000,100.000000,,,,,,,,,,,,,,,,,,,,,,,,,,,,,,,,,,,,,,,,,,,,,,,,,,,,,,,,,,,,,,,,,,,,,,,,,,,,,,,,,,,,,,,,,,,,,,,,,,,,,,,,,,,,,,,,,,,,,
1768372188.785091,1768372188.785850,114.000000,0.000000,4307.692383,4295.897461,4325.256348,4315.384766,4289.615234,4340.128418,4311.025879,4269.615234,4311.666504,4247.436035,4487.692383,4502.436035,4365.512695,4473.717773,4410.000000,2.000000,36.000000,,,,0.000000,4.000000,4.000000,4.000000,4.000000,4.000000,4.000000,4.000000,4.000000,4.000000,4.000000,4.000000,4.000000,4.000000,4.000000,100.000000,,,,,,,,,,,,,,,,,,,,,,,,,,,,,,,,,,,,,,,,,,,,,,,,,,,,,,,,,,,,,,,,,,,,,,,,,,,,,,,,,,,,,,,,,,,,,,,,,,,,,,,,,,,,,,,,,,,,,
1768372188.792899,1768372188.793658,115.000000,0.000000,4310.512695,4294.358887,4326.153809,4315.897461,4294.487305,4342.820313,4312.563965,4271.282227,4316.922852,4251.922852,4490.897461,4502.436035,4363.974121,4472.436035,4689.000000,2.000000,36.000000,,,,0.000000,4.000000,4.000000,4.000000,4.000000,4.000000,4.000000,4.000000,4.000000,4.000000,4.000000,4.000000,4.000000,4.000000,4.000000,100.000000,,,,,,,,,,,,,,,,,,,,,,,,,,,,,,,,,,,,,,,,,,,,,,,,,,,,,,,,,,,,,,,,,,,,,,,,,,,,,,,,,,,,,,,,,,,,,,,,,,,,,,,,,,,,,,,,,,,,,
1768372188.800708,1768372188.801267,116.000000,0.000000,4320.384766,4296.410156,4329.102539,4316.922852,4296.794922,4344.871582,4310.641113,4270.897461,4315.512695,4252.563965,4493.846191,4510.641113,4371.794922,4480.384766,5026.000000,2.000000,36.000000,,,,0.000000,4.000000,4.000000,4.000000,4.000000,4.000000,4.000000,4.000000,4.000000,4.000000,4.000000,4.000000,4.000000,4.000000,4.000000,100.000000,,,,,,,,,,,,,,,,,,,,,,,,,,,,,,,,,,,,,,,,,,,,,,,,,,,,,,,,,,,,,,,,,,,,,,,,,,,,,,,,,,,,,,,,,,,,,,,,,,,,,,,,,,,,,,,,,,,,,
1768372188.808516,1768372188.809075,117.000000,0.000000,4321.153809,4297.051270,4331.410156,4317.820313,4294.230957,4343.717773,4309.871582,4266.153809,4313.846191,4253.077148,4493.077148,4514.358887,4381.282227,4490.128418,5414.000000,2.000000,36.000000,,,,0.000000,4.000000,4.000000,4.000000,4.000000,4.000000,4.000000,4.000000,4.000000,4.000000,4.000000,4.000000,4.000000,4.000000,4.000000,100.000000,,,,,,,,,,,,,,,,,,,,,,,,,,,,,,,,,,,,,,,,,,,,,,,,,,,,,,,,,,,,,,,,,,,,,,,,,,,,,,,,,,,,,,,,,,,,,,,,,,,,,,,,,,,,,,,,,,,,,
1768372188.816325,1768372188.816984,118.000000,0.000000,4315.769043,4295.384766,4330.641113,4315.256348,4294.487305,4339.615234,4309.487305,4263.846191,4322.692383,4259.487305,4493.077148,4509.487305,4377.436035,4487.820313,4410.000000,2.000000,36.000000,,,,0.000000,4.000000,4.000000,4.000000,4.000000,4.000000,4.000000,4.000000,4.000000,4.000000,4.000000,4.000000,4.000000,4.000000,4.000000,100.000000,,,,,,,,,,,,,,,,,,,,,,,,,,,,,,,,,,,,,,,,,,,,,,,,,,,,,,,,,,,,,,,,,,,,,,,,,,,,,,,,,,,,,,,,,,,,,,,,,,,,,,,,,,,,,,,,,,,,,
1768372188.824133,1768372188.824792,119.000000,0.000000,4312.692383,4298.846191,4333.717773,4315.512695,4295.128418,4337.692383,4308.846191,4260.512695,4328.461426,4265.128418,4490.897461,4510.384766,4370.384766,4480.256348,4689.000000,2.000000,36.000000,,,,0.000000,4.000000,4.000000,4.000000,4.000000,4.000000,4.000000,4.000000,4.000000,4.000000,4.000000,4.000000,4.000000,4.000000,4.000000,100.000000,,,,,,,,,,,,,,,,,,,,,,,,,,,,,,,,,,,,,,,,,,,,,,,,,,,,,,,,,,,,,,,,,,,,,,,,,,,,,,,,,,,,,,,,,,,,,,,,,,,,,,,,,,,,,,,,,,,,,
1768372188.831942,1768372188.832401,120.000000,0.000000,4324.358887,4301.282227,4339.230957,4323.717773,4294.358887,4342.051270,4311.538574,4257.436035,4320.769043,4261.025879,4492.948730,4518.461426,4377.051270,4487.948730,5026.000000,2.000000,36.000000,,,,0.000000,4.000000,4.000000,4.000000,4.000000,4.000000,4.000000,4.000000,4.000000,4.000000,4.000000,4.000000,4.000000,4.000000,4.000000,100.000000,,,,,,,,,,,,,,,,,,,,,,,,,,,,,,,,,,,,,,,,,,,,,,,,,,,,,,,,,,,,,,,,,,,,,,,,,,,,,,,,,,,,,,,,,,,,,,,,,,,,,,,,,,,,,,,,,,,,,
1768372188.839750,1768372188.840209,121.000000,0.000000,4340.512695,4301.153809,4342.820313,4328.589844,4296.282227,4343.974121,4313.461426,4258.974121,4315.256348,4255.256348,4504.102539,4520.384766,4386.153809,4504.102539,5414.000000,2.000000,36.000000,,,,0.000000,4.000000,4.000000,4.000000,4.000000,4.000000,4.000000,4.000000,4.000000,4.000000,4.000000,4.000000,4.000000,4.000000,4.000000,100.000000,,,,,,,,,,,,,,,,,,,,,,,,,,,,,,,,,,,,,,,,,,,,,,,,,,,,,,,,,,,,,,,,,,,,,,,,,,,,,,,,,,,,,,,,,,,,,,,,,,,,,,,,,,,,,,,,,,,,,
1768372188.847559,1768372188.847918,122.000000,0.000000,4335.256348,4303.333496,4341.410156,4323.717773,4296.794922,4339.615234,4310.128418,4257.948730,4315.897461,4255.000000,4506.538574,4515.512695,4384.102539,4504.487305,4410.000000,2.000000,36.000000,,,,0.000000,4.000000,4.000000,4.000000,4.000000,4.000000,4.000000,4.000000,4.000000,4.000000,4.000000,4.000000,4.000000,4.000000,4.000000,100.000000,,,,,,,,,,,,,,,,,,,,,,,,,,,,,,,,,,,,,,,,,,,,,,,,,,,,,,,,,,,,,,,,,,,,,,,,,,,,,,,,,,,,,,,,,,,,,,,,,,,,,,,,,,,,,,,,,,,,,
1768372188.855367,1768372188.855726,123.000000,0.000000,4324.615234,4303.461426,4337.179688,4323.077148,4294.358887,4340.000000,4310.256348,4259.487305,4317.563965,4254.615234,4497.051270,4512.563965,4381.153809,4493.717773,4689.000000,2.000000,36.000000,,,,0.000000,4.000000,4.000000,4.000000,4.000000,4.000000,4.000000,4.000000,4.000000,4.000000,4.000000,4.000000,4.000000,4.000000,4.000000,100.000000,,,,,,,,,,,,,,,,,,,,,,,,,,,,,,,,,,,,,,,,,,,,,,,,,,,,,,,,,,,,,,,,,,,,,,,,,,,,,,,,,,,,,,,,,,,,,,,,,,,,,,,,,,,,,,,,,,,,,
1768372188.863176,1768372188.863335,124.000000,0.000000,4325.641113,4298.717773,4334.743652,4326.794922,4293.846191,4344.230957,4313.846191,4265.641113,4318.461426,4257.563965,4494.358887,4512.307617,4382.820313,4489.615234,5026.000000,2.000000,36.000000,,,,0.000000,4.000000,4.000000,4.000000,4.000000,4.000000,4.000000,4.000000,4.000000,4.000000,4.000000,4.000000,4.000000,4.000000,4.000000,100.000000,,,,,,,,,,,,,,,,,,,,,,,,,,,,,,,,,,,,,,,,,,,,,,,,,,,,,,,,,,,,,,,,,,,,,,,,,,,,,,,,,,,,,,,,,,,,,,,,,,,,,,,,,,,,,,,,,,,,,
1768372188.870984,1768372188.871143,125.000000,0.000000,4320.128418,4294.871582,4332.436035,4322.692383,4295.384766,4343.205078,4313.077148,4261.666504,4313.333496,4257.563965,4495.769043,4507.948730,4380.641113,4489.102539,5414.000000,2.000000,36.000000,,,,0.000000,4.000000,4.000000,4.000000,4.000000,4.000000,4.000000,4.000000,4.000000,4.000000,4.000000,4.000000,4.000000,4.000000,4.000000,100.000000,,,,,,,,,,,,,,,,,,,,,,,,,,,,,,,,,,,,,,,,,,,,,,,,,,,,,,,,,,,,,,,,,,,,,,,,,,,,,,,,,,,,,,,,,,,,,,,,,,,,,,,,,,,,,,,,,,,,,
1768372188.878792,1768372188.879051,126.000000,0.000000,4311.666504,4295.384766,4326.282227,4315.769043,4295.000000,4339.743652,4308.974121,4255.256348,4308.077148,4250.512695,4490.256348,4502.051270,4374.871582,4486.666504,4410.000000,2.000000,36.000000,,,,0.000000,4.000000,4.000000,4.000000,4.000000,4.000000,4.000000,4.000000,4.000000,4.000000,4.000000,4.000000,4.000000,4.000000,4.000000,100.000000,,,,,,,,,,,,,,,,,,,,,,,,,,,,,,,,,,,,,,,,,,,,,,,,0.425450,0.186020,0.376768,0.261237,0.224784,0.367177,0.171052,0.272299,0.078082,0.091277,0.170989,0.167614,0.245218,0.115081,0.125453,0.438379,0.204406,0.125961,0.049821,0.083373,0.243544,0.053591,0.038583,0.043501,0.055474,0.172846,0.151707,0.076991,0.127626,0.131040,0.145725,0.320672,0.099252,0.166109,0.064017,0.262092,0.503424,0.133543,0.142154,0.144139,0.176209,0.337046,0.139633,0.212002,0.139731,0.286594,0.242510,0.201696,0.186410,0.084151,0.385313,0.416324,0.378309,0.261681,0.171606,0.287702,0.272961,0.499315,0.224585,0.148823,0.418054,0.455581,0.445216,0.272268,0.225351,0.704587,0.290916,0.444328,0.326232,0.206065
1768372188.886601,1768372188.886860,127.000000,0.000000,4318.717773,4299.615234,4325.897461,4319.615234,4294.230957,4340.897461,4309.487305,4265.512695,4312.948730,4252.307617,4491.922852,4503.205078,4377.436035,4488.846191,36.000000,2.000000,36.000000,,,,0.000000,4.000000,4.000000,4.000000,4.000000,4.000000,4.000000,4.000000,4.000000,4.000000,4.000000,4.000000,4.000000,4.000000,4.000000,100.000000,,,,,,,,,,,,,,,,,,,,,,,,,,,,,,,,,,,,,,,,,,,,,,,,,,,,,,,,,,,,,,,,,,,,,,,,,,,,,,,,,,,,,,,,,,,,,,,,,,,,,,,,,,,,,,,,,,,,,
1768372188.894409,1768372188.894868,0.000000,0.000000,4324.615234,4305.000000,4334.102539,4329.230957,4295.769043,4343.717773,4313.461426,4275.000000,4318.205078,4261.794922,4499.487305,4504.102539,4382.948730,4492.051270,4053.000000,2.000000,36.000000,,,,0.000000,4.000000,4.000000,4.000000,4.000000,4.000000,4.000000,4.000000,4.000000,4.000000,4.000000,4.000000,4.000000,4.000000,4.000000,100.000000,,,,,,,,,,,,,,,,,,,,,,,,,,,,,,,,,,,,,,,,,,,,,,,,,,,,,,,,,,,,,,,,,,,,,,,,,,,,,,,,,,,,,,,,,,,,,,,,,,,,,,,,,,,,,,,,,,,,,
1768372188.902218,1768372188.902677,1.000000,0.000000,4320.641113,4307.563965,4335.256348,4328.077148,4296.282227,4341.153809,4311.025879,4268.333496,4313.974121,4261.025879,4496.922852,4503.589844,4381.282227,4490.256348,3982.000000,2.000000,36.000000,,,,0.000000,4.000000,4.000000,4.000000,4.000000,4.000000,4.000000,4.000000,4.000000,4.000000,4.000000,4.000000,4.000000,4.000000,4.000000,100.000000,,,,,,,,,,,,,,,,,,,,,,,,,,,,,,,,,,,,,,,,,,,,,,,,,,,,,,,,,,,,,,,,,,,,,,,,,,,,,,,,,,,,,,,,,,,,,,,,,,,,,,,,,,,,,,,,,,,,,
1768372188.910026,1768372188.910585,2.000000,0.000000,4323.717773,4304.358887,4328.974121,4324.871582,4293.974121,4337.563965,4306.666504,4267.563965,4311.025879,4259.743652,4499.230957,4512.436035,4384.487305,4492.948730,3886.000000,2.000000,36.000000,,,,0.000000,4.000000,4.000000,4.000000,4.000000,4.000000,4.000000,4.000000,4.000000,4.000000,4.000000,4.000000,4.000000,4.000000,4.000000,100.000000,,,,,,,,,,,,,,,,,,,,,,,,,,,,,,,,,,,,,,,,,,,,,,,,,,,,,,,,,,,,,,,,,,,,,,,,,,,,,,,,,,,,,,,,,,,,,,,,,,,,,,,,,,,,,,,,,,,,,
1768372188.917835,1768372188.918393,3.000000,0.000000,4326.666504,4301.025879,4329.615234,4327.179688,4290.000000,4339.102539,4308.205078,4273.974121,4314.871582,4264.358887,4507.179688,4517.948730,4390.000000,4495.769043,3867.000000,2.000000,36.000000,,,,0.000000,4.000000,4.000000,4.000000,4.000000,4.000000,4.000000,4.000000,4.000000,4.000000,4.000000,4.000000,4.000000,4.000000,4.000000,100.000000,,,,,,,,,,,,,,,,,,,,,,,,,,,,,,,,,,,,,,,,,,,,,,,,,,,,,,,,,,,,,,,,,,,,,,,,,,,,,,,,,,,,,,,,,,,,,,,,,,,,,,,,,,,,,,,,,,,,,
1768372188.925643,1768372188.926402,4.000000,0.000000,4325.128418,4302.307617,4330.512695,4326.025879,4288.974121,4342.820313,4307.692383,4272.179688,4312.563965,4261.410156,4501.410156,4505.128418,4384.487305,4491.153809,3769.000000,2.000000,36.000000,,,,0.000000,4.000000,4.000000,4.000000,4.000000,4.000000,4.000000,4.000000,4.000000,4.000000,4.000000,4.000000,4.000000,4.000000,4.000000,100.000000,,,,,,,,,,,,,,,,,,,,,,,,,,,,,,,,,,,,,,,,,,,,,,,,,,,,,,,,,,,,,,,,,,,,,,,,,,,,,,,,,,,,,,,,,,,,,,,,,,,,,,,,,,,,,,,,,,,,,
1768372188.933452,1768372188.934210,5.000000,0.000000,4326.794922,4301.794922,4328.974121,4323.333496,4290.769043,4341.794922,4308.077148,4268.589844,4307.179688,4260.384766,4491.922852,4501.025879,4378.077148,4488.717773,3744.000000,2.000000,36.000000,,,,0.000000,4.000000,4.000000,4.000000,4.000000,4.000000,4.000000,4.000000,4.000000,4.000000,4.000000,4.000000,4.000000,4.000000,4.000000,100.000000,,,,,,,,,,,,,,,,,,,,,,,,,,,,,,,,,,,,,,,,,,,,,,,,,,,,,,,,,,,,,,,,,,,,,,,,,,,,,,,,,,,,,,,,,,,,,,,,,,,,,,,,,,,,,,,,,,,,,
1768372188.941260,1768372188.942118,6.000000,0.000000,4325.512695,4298.077148,4332.179688,4325.769043,4291.666504,4340.384766,4316.410156,4273.846191,4311.282227,4264.487305,4493.846191,4516.025879,4381.025879,4491.794922,3749.000000,2.000000,36.000000,,,,0.000000,4.000000,4.000000,4.000000,4.000000,4.000000,4.000000,4.000000,4.000000,4.000000,4.000000,4.000000,4.000000,4.000000,4.000000,100.000000,,,,,,,,,,,,,,,,,,,,,,,,,,,,,,,,,,,,,,,,,,,,,,,,,,,,,,,,,,,,,,,,,,,,,,,,,,,,,,,,,,,,,,,,,,,,,,,,,,,,,,,,,,,,,,,,,,,,,
1768372188.949068,1768372188.949927,7.000000,0.000000,4321.794922,4296.794922,4334.102539,4326.538574,4292.820313,4345.128418,4321.794922,4280.769043,4318.461426,4264.102539,4497.436035,4519.358887,4381.410156,4491.794922,3755.000000,2.000000,36.000000,,,,0.000000,4.000000,4.000000,4.000000,4.000000,4.000000,4.000000,4.000000,4.000000,4.000000,4.000000,4.000000,4.000000,4.000000,4.000000,100.000000,,,,,,,,,,,,,,,,,,,,,,,,,,,,,,,,,,,,,,,,,,,,,,,,,,,,,,,,,,,,,,,,,,,,,,,,,,,,,,,,,,,,,,,,,,,,,,,,,,,,,,,,,,,,,,,,,,,,,
1768372188.956877,1768372188.957536,8.000000,0.000000,4320.897461,4298.077148,4334.358887,4324.102539,4294.871582,4348.974121,4321.666504,4281.282227,4315.128418,4263.077148,4494.615234,4512.051270,4379.487305,4491.282227,3952.000000,2.000000,36.000000,,,,0.000000,4.000000,4.000000,4.000000,4.000000,4.000000,4.000000,4.000000,4.000000,4.000000,4.000000,4.000000,4.000000,4.000000,4.000000,100.000000,,,,,,,,,,,,,,,,,,,,,,,,,,,,,,,,,,,,,,,,,,,,,,,,,,,,,,,,,,,,,,,,,,,,,,,,,,,,,,,,,,,,,,,,,,,,,,,,,,,,,,,,,,,,,,,,,,,,,
1768372188.964685,1768372188.965344,9.000000,0.000000,4319.743652,4300.256348,4337.820313,4325.256348,4292.307617,4343.717773,4319.487305,4280.897461,4310.000000,4262.948730,4494.230957,4513.717773,4381.410156,4492.436035,3932.000000,2.000000,36.000000,,,,0.000000,4.000000,4.000000,4.000000,4.000000,4.000000,4.000000,4.000000,4.000000,4.000000,4.000000,4.000000,4.000000,4.000000,4.000000,100.000000,,,,,,,,,,,,,,,,,,,,,,,,,,,,,,,,,,,,,,,,,,,,,,,,,,,,,,,,,,,,,,,,,,,,,,,,,,,,,,,,,,,,,,,,,,,,,,,,,,,,,,,,,,,,,,,,,,,,,
1768372188.972494,1768372188.973053,10.000000,0.000000,4318.077148,4298.846191,4336.153809,4325.769043,4288.077148,4340.512695,4318.974121,4283.333496,4315.128418,4263.589844,4500.384766,4519.230957,4381.922852,4493.974121,4405.000000,2.000000,36.000000,,,,0.000000,4.000000,4.000000,4.000000,4.000000,4.000000,4.000000,4.000000,4.000000,4.000000,4.000000,4.000000,4.000000,4.000000,4.000000,100.000000,,,,,,,,,,,,,,,,,,,,,,,,,,,,,,,,,,,,,,,,,,,,,,,,,,,,,,,,,,,,,,,,,,,,,,,,,,,,,,,,,,,,,,,,,,,,,,,,,,,,,,,,,,,,,,,,,,,,,
1768372188.980302,1768372188.980861,11.000000,0.000000,4322.179688,4295.512695,4334.230957,4325.128418,4291.666504,4346.666504,4321.538574,4287.948730,4321.794922,4267.820313,4507.692383,4525.512695,4385.641113,4499.230957,4677.000000,2.000000,36.000000,,,,0.000000,4.000000,4.000000,4.000000,4.000000,4.000000,4.000000,4.000000,4.000000,4.000000,4.000000,4.000000,4.000000,4.000000,4.000000,100.000000,,,,,,,,,,,,,,,,,,,,,,,,,,,,,,,,,,,,,,,,,,,,,,,,,,,,,,,,,,,,,,,,,,,,,,,,,,,,,,,,,,,,,,,,,,,,,,,,,,,,,,,,,,,,,,,,,,,,,
1768372188.988111,1768372188.988470,12.000000,0.000000,4329.102539,4301.153809,4342.820313,4330.897461,4296.410156,4347.948730,4319.743652,4288.333496,4320.897461,4270.128418,4509.102539,4529.615234,4390.256348,4507.051270,5026.000000,2.000000,36.000000,,,,0.000000,4.000000,4.000000,4.000000,4.000000,4.000000,4.000000,4.000000,4.000000,4.000000,4.000000,4.000000,4.000000,4.000000,4.000000,100.000000,,,,,,,,,,,,,,,,,,,,,,,,,,,,,,,,,,,,,,,,,,,,,,,,,,,,,,,,,,,,,,,,,,,,,,,,,,,,,,,,,,,,,,,,,,,,,,,,,,,,,,,,,,,,,,,,,,,,,
1768372188.995919,1768372188.996278,13.000000,0.000000,4328.461426,4310.000000,4346.666504,4333.846191,4296.153809,4343.205078,4315.641113,4286.282227,4317.820313,4267.436035,4508.589844,4522.948730,4386.666504,4509.615234,5415.000000,2.000000,36.000000,,,,0.000000,4.000000,4.000000,4.000000,4.000000,4.000000,4.000000,4.000000,4.000000,4.000000,4.000000,4.000000,4.000000,4.000000,4.000000,100.000000,,,,,,,,,,,,,,,,,,,,,,,,,,,,,,,,,,,,,,,,,,,,,,,,,,,,,,,,,,,,,,,,,,,,,,,,,,,,,,,,,,,,,,,,,,,,,,,,,,,,,,,,,,,,,,,,,,,,,
1768372189.003728,1768372189.003987,14.000000,0.000000,4324.615234,4303.846191,4334.743652,4327.051270,4295.769043,4342.563965,4315.641113,4286.282227,4315.000000,4264.230957,4504.230957,4513.846191,4381.153809,4500.512695,4405.000000,2.000000,36.000000,,,,0.000000,4.000000,4.000000,4.000000,4.000000,4.000000,4.000000,4.000000,4.000000,4.000000,4.000000,4.000000,4.000000,4.000000,4.000000,100.000000,1.000000,100.000000,4.000000,4.000000,4.000000,4.000000,4.000000,4.000000,4.000000,4.000000,4.000000,4.000000,4.000000,4.000000,4.000000,4.000000,,,,,,,,,,,,,,,,,,,,,,,,,,,,,,,,0.451971,0.155693,0.341386,0.262892,0.230374,0.332853,0.148333,0.247536,0.068629,0.092184,0.166423,0.156508,0.195915,0.124685,0.124517,0.374598,0.163815,0.100866,0.053670,0.099481,0.222010,0.058506,0.029285,0.036743,0.059407,0.154547,0.164730,0.089145,0.122516,0.131795,0.128963,0.346260,0.157706,0.160357,0.058429,0.222900,0.542126,0.153947,0.147933,0.143832,0.176748,0.374178,0.139762,0.207367,0.137869,0.355464,0.314819,0.193894,0.182976,0.093274,0.375878,0.553740,0.413246,0.271814,0.164792,0.308713,0.374524,0.503423,0.249197,0.139643,0.420374,0.541168,0.464551,0.268030,0.207738,0.709393,0.366037,0.421732,0.316407,0.184611
1768372189.011536,1768372189.011795,15.000000,0.000000,4321.282227,4296.794922,4326.922852,4324.743652,4295.128418,4340.769043,4312.563965,4281.794922,4309.230957,4262.051270,4492.820313,4509.743652,4377.436035,4489.871582,4677.000000,2.000000,36.000000,,,,0.000000,4.000000,4.000000,4.000000,4.000000,4.000000,4.000000,4.000000,4.000000,4.000000,4.000000,4.000000,4.000000,4.000000,4.000000,100.000000,,,,,,,,,,,,,,,,,,,,,,,,,,,,,,,,,,,,,,,,,,,,,,,,,,,,,,,,,,,,,,,,,,,,,,,,,,,,,,,,,,,,,,,,,,,,,,,,,,,,,,,,,,,,,,,,,,,,,
1768372189.019344,1768372189.019803,16.000000,0.000000,4315.128418,4298.205078,4330.769043,4327.820313,4294.230957,4338.461426,4306.282227,4275.000000,4305.000000,4261.025879,4488.333496,4503.333496,4375.512695,4489.487305,0.000000,2.000000,36.000000,,,,0.000000,4.000000,4.000000,4.000000,4.000000,4.000000,4.000000,4.000000,4.000000,4.000000,4.000000,4.000000,4.000000,4.000000,4.000000,100.000000,,,,,,,,,,,,,,,,,,,,,,,,,,,,,,,,,,,,,,,,,,,,,,,,,,,,,,,,,,,,,,,,,,,,,,,,,,,,,,,,,,,,,,,,,,,,,,,,,,,,,,,,,,,,,,,,,,,,,
1768372189.027153,1768372189.027612,17.000000,0.000000,4310.000000,4296.794922,4331.794922,4326.153809,4295.384766,4339.743652,4308.205078,4272.051270,4304.102539,4260.512695,4494.615234,4499.230957,4377.692383,4494.102539,0.000000,2.000000,36.000000,,,,0.000000,4.000000,4.000000,4.000000,4.000000,4.000000,4.000000,4.000000,4.000000,4.000000,4.000000,4.000000,4.000000,4.000000,4.000000,100.000000,,,,,,,,,,,,,,,,,,,,,,,,,,,,,,,,,,,,,,,,,,,,,,,,,,,,,,,,,,,,,,,,,,,,,,,,,,,,,,,,,,,,,,,,,,,,,,,,,,,,,,,,,,,,,,,,,,,,,
1768372189.034961,1768372189.035320,18.000000,0.000000,4310.769043,4294.358887,4325.641113,4325.000000,4295.769043,4341.025879,4310.384766,4272.436035,4303.205078,4259.743652,4491.922852,4501.538574,4377.563965,4491.282227,0.000000,2.000000,36.000000,,,,0.000000,4.000000,4.000000,4.000000,4.000000,4.000000,4.000000,4.000000,4.000000,4.000000,4.000000,4.000000,4.000000,4.000000,4.000000,100.000000,,,,,,,,,,,,,,,,,,,,,,,,,,,,,,,,,,,,,,,,,,,,,,,,,,,,,,,,,,,,,,,,,,,,,,,,,,,,,,,,,,,,,,,,,,,,,,,,,,,,,,,,,,,,,,,,,,,,,
1768372189.042770,1768372189.043129,19.000000,0.000000,4311.153809,4296.025879,4326.410156,4326.410156,4294.487305,4342.436035,4309.871582,4276.153809,4305.256348,4261.794922,4488.077148,4507.307617,4372.820313,4486.410156,0.000000,2.000000,36.000000,,,,0.000000,4.000000,4.000000,4.000000,4.000000,4.000000,4.000000,4.000000,4.000000,4.000000,4.000000,4.000000,4.000000,4.000000,4.000000,100.000000,,,,,,,,,,,,,,,,,,,,,,,,,,,,,,,,,,,,,,,,,,,,,,,,,,,,,,,,,,,,,,,,,,,,,,,,,,,,,,,,,,,,,,,,,,,,,,,,,,,,,,,,,,,,,,,,,,,,,
1768372189.050578,1768372189.050737,20.000000,0.000000,4310.641113,4295.384766,4329.230957,4325.384766,4294.743652,4341.922852,4310.897461,4282.179688,4311.153809,4265.128418,4500.384766,4510.000000,4379.358887,4493.077148,0.000000,2.000000,36.000000,,,,0.000000,4.000000,4.000000,4.000000,4.000000,4.000000,4.000000,4.000000,4.000000,4.000000,4.000000,4.000000,4.000000,4.000000,4.000000,100.000000,,,,,,,,,,,,,,,,,,,,,,,,,,,,,,,,,,,,,,,,,,,,,,,,,,,,,,,,,,,,,,,,,,,,,,,,,,,,,,,,,,,,,,,,,,,,,,,,,,,,,,,,,,,,,,,,,,,,,
1768372189.058386,1768372189.058546,21.000000,0.000000,4314.102539,4296.794922,4325.897461,4326.282227,4294.743652,4335.769043,4308.589844,4281.666504,4311.922852,4265.512695,4509.358887,4509.358887,4394.871582,4505.000000,0.000000,2.000000,36.000000,,,,0.000000,4.000000,4.000000,4.000000,4.000000,4.000000,4.000000,4.000000,4.000000,4.000000,4.000000,4.000000,4.000000,4.000000,4.000000,100.000000,,,,,,,,,,,,,,,,,,,,,,,,,,,,,,,,,,,,,,,,,,,,,,,,,,,,,,,,,,,,,,,,,,,,,,,,,,,,,,,,,,,,,,,,,,,,,,,,,,,,,,,,,,,,,,,,,,,,,
1768372189.066195,1768372189.066254,22.000000,0.000000,4321.282227,4303.461426,4326.282227,4331.922852,4295.256348,4334.743652,4309.358887,4276.922852,4306.794922,4265.256348,4505.769043,4510.384766,4397.051270,4508.333496,0.000000,2.000000,36.000000,,,,0.000000,4.000000,4.000000,4.000000,4.000000,4.000000,4.000000,4.000000,4.000000,4.000000,4.000000,4.000000,4.000000,4.000000,4.000000,100.000000,,,,,,,,,,,,,,,,,,,,,,,,,,,,,,,,,,,,,,,,,,,,,,,,,,,,,,,,,,,,,,,,,,,,,,,,,,,,,,,,,,,,,,,,,,,,,,,,,,,,,,,,,,,,,,,,,,,,,
1768372189.074003,1768372189.074063,23.000000,0.000000,4322.179688,4304.743652,4327.820313,4333.077148,4297.051270,4343.846191,4313.333496,4280.897461,4308.846191,4267.179688,4503.589844,4508.333496,4388.846191,4498.974121,0.000000,2.000000,36.000000,,,,0.000000,4.000000,4.000000,4.000000,4.000000,4.000000,4.000000,4.000000,4.000000,4.000000,4.000000,4.000000,4.000000,4.000000,4.000000,100.000000,,,,,,,,,,,,,,,,,,,,,,,,,,,,,,,,,,,,,,,,,,,,,,,,,,,,,,,,,,,,,,,,,,,,,,,,,,,,,,,,,,,,,,,,,,,,,,,,,,,,,,,,,,,,,,,,,,,,,
1768372189.081812,1768372189.082071,24.000000,0.000000,4313.333496,4297.179688,4323.717773,4327.179688,4295.897461,4340.769043,4311.410156,4284.230957,4313.461426,4267.820313,4505.384766,4501.538574,4388.974121,4491.410156,0.000000,2.000000,36.000000,,,,0.000000,4.000000,4.000000,4.000000,4.000000,4.000000,4.000000,4.000000,4.000000,4.000000,4.000000,4.000000,4.000000,4.000000,4.000000,100.000000,,,,,,,,,,,,,,,,,,,,,,,,,,,,,,,,,,,,,,,,,,,,,,,,,,,,,,,,,,,,,,,,,,,,,,,,,,,,,,,,,,,,,,,,,,,,,,,,,,,,,,,,,,,,,,,,,,,,,
1768372189.089620,1768372189.089880,25.000000,0.000000,4309.743652,4293.589844,4322.692383,4325.641113,4294.230957,4327.051270,4305.384766,4278.589844,4310.384766,4266.282227,4507.307617,4501.922852,4392.948730,4492.307617,0.000000,2.000000,36.000000,,,,0.000000,4.000000,4.000000,4.000000,4.000000,4.000000,4.000000,4.000000,4.000000,4.000000,4.000000,4.000000,4.000000,4.000000,4.000000,100.000000,,,,,,,,,,,,,,,,,,,,,,,,,,,,,,,,,,,,,,,,,,,,,,,,,,,,,,,,,,,,,,,,,,,,,,,,,,,,,,,,,,,,,,,,,,,,,,,,,,,,,,,,,,,,,,,,,,,,,
1768372189.097429,1768372189.097788,26.000000,0.000000,4313.846191,4296.794922,4325.000000,4328.461426,4295.512695,4329.743652,4304.743652,4278.205078,4308.205078,4263.717773,4502.436035,4504.358887,4387.051270,4492.820313,0.000000,2.000000,36.000000,,,,0.000000,4.000000,4.000000,4.000000,4.000000,4.000000,4.000000,4.000000,4.000000,4.000000,4.000000,4.000000,4.000000,4.000000,4.000000,100.000000,,,,,,,,,,,,,,,,,,,,,,,,,,,,,,,,,,,,,,,,,,,,,,,,,,,,,,,,,,,,,,,,,,,,,,,,,,,,,,,,,,,,,,,,,,,,,,,,,,,,,,,,,,,,,,,,,,,,,
1768372189.105237,1768372189.105596,27.000000,0.000000,4310.897461,4296.025879,4322.820313,4327.179688,4296.410156,4338.846191,4310.256348,4285.128418,4310.256348,4262.692383,4493.461426,4497.563965,4381.153809,4489.615234,0.000000,2.000000,36.000000,,,,0.000000,4.000000,4.000000,4.000000,4.000000,4.000000,4.000000,4.000000,4.000000,4.000000,4.000000,4.000000,4.000000,4.000000,4.000000,100.000000,,,,,,,,,,,,,,,,,,,,,,,,,,,,,,,,,,,,,,,,,,,,,,,,,,,,,,,,,,,,,,,,,,,,,,,,,,,,,,,,,,,,,,,,,,,,,,,,,,,,,,,,,,,,,,,,,,,,,
1768372189.113046,1768372189.113605,28.000000,0.000000,4306.410156,4293.205078,4321.538574,4324.358887,4293.589844,4336.282227,4311.410156,4283.205078,4308.589844,4263.205078,4494.871582,4494.358887,4384.743652,4490.256348,0.000000,2.000000,36.000000,,,,0.000000,4.000000,4.000000,4.000000,4.000000,4.000000,4.000000,4.000000,4.000000,4.000000,4.000000,4.000000,4.000000,4.000000,4.000000,100.000000,,,,,,,,,,,,,,,,,,,,,,,,,,,,,,,,,,,,,,,,,,,,,,,,,,,,,,,,,,,,,,,,,,,,,,,,,,,,,,,,,,,,,,,,,,,,,,,,,,,,,,,,,,,,,,,,,,,,,
1768372189.120854,1768372189.121413,29.000000,0.000000,4310.512695,4298.077148,4327.692383,4330.128418,4293.846191,4336.282227,4307.820313,4278.205078,4306.025879,4264.743652,4505.897461,4503.461426,4387.692383,4498.589844,0.000000,2.000000,36.000000,,,,0.000000,4.000000,4.000000,4.000000,4.000000,4.000000,4.000000,4.000000,4.000000,4.000000,4.000000,4.000000,4.000000,4.000000,4.000000,100.000000,,,,,,,,,,,,,,,,,,,,,,,,,,,,,,,,,,,,,,,,,,,,,,,,,,,,,,,,,,,,,,,,,,,,,,,,,,,,,,,,,,,,,,,,,,,,,,,,,,,,,,,,,,,,,,,,,,,,,
1768372189.128662,1768372189.129321,30.000000,0.000000,4313.333496,4304.871582,4334.358887,4338.846191,4301.025879,4343.717773,4313.717773,4284.487305,4308.077148,4268.205078,4508.717773,4510.512695,4389.615234,4504.487305,0.000000,2.000000,36.000000,,,,0.000000,4.000000,4.000000,4.000000,4.000000,4.000000,4.000000,4.000000,4.000000,4.000000,4.000000,4.000000,4.000000,4.000000,4.000000,100.000000,,,,,,,,,,,,,,,,,,,,,,,,,,,,,,,,,,,,,,,,,,,,,,,,0.515751,0.171201,0.301316,0.283572,0.238340,0.307718,0.124405,0.214552,0.064964,0.093614,0.193943,0.177864,0.153049,0.136188,0.126204,0.326037,0.133847,0.086544,0.065443,0.115280,0.214872,0.074927,0.026343,0.034900,0.061324,0.151204,0.170192,0.114640,0.115488,0.132851,0.142069,0.361165,0.236559,0.145261,0.055255,0.239128,0.525593,0.189591,0.152157,0.137931,0.211515,0.407604,0.139956,0.195570,0.129659,0.515699,0.388128,0.181496,0.180331,0.103855,0.434791,0.706043,0.431072,0.293362,0.168988,0.388251,0.518093,0.498260,0.269377,0.139810,0.568443,0.618134,0.450939,0.266552,0.189971,0.728779,0.442151,0.376219,0.308657,0.168126
1768372189.136471,1768372189.137130,31.000000,0.000000,4313.589844,4307.820313,4337.307617,4341.794922,4306.153809,4342.948730,4320.769043,4291.794922,4311.025879,4272.820313,4506.153809,4515.128418,4395.128418,4504.743652,0.000000,2.000000,36.000000,,,,0.000000,4.000000,4.000000,4.000000,4.000000,4.000000,4.000000,4.000000,4.000000,4.000000,4.000000,4.000000,4.000000,4.000000,4.000000,100.000000,,,,,,,,,,,,,,,,,,,,,,,,,,,,,,,,,,,,,,,,,,,,,,,,,,,,,,,,,,,,,,,,,,,,,,,,,,,,,,,,,,,,,,,,,,,,,,,,,,,,,,,,,,,,,,,,,,,,,
1768372189.144279,1768372189.145138,32.000000,0.000000,4322.051270,4309.102539,4338.205078,4344.743652,4303.974121,4337.948730,4316.153809,4295.128418,4316.794922,4278.077148,4510.000000,4522.307617,4397.307617,4507.051270,0.000000,2.000000,36.000000,,,,0.000000,4.000000,4.000000,4.000000,4.000000,4.000000,4.000000,4.000000,4.000000,4.000000,4.000000,4.000000,4.000000,4.000000,4.000000,100.000000,,,,,,,,,,,,,,,,,,,,,,,,,,,,,,,,,,,,,,,,,,,,,,,,,,,,,,,,,,,,,,,,,,,,,,,,,,,,,,,,,,,,,,,,,,,,,,,,,,,,,,,,,,,,,,,,,,,,,
1768372189.152088,1768372189.152947,33.000000,0.000000,4329.487305,4309.615234,4339.743652,4347.948730,4298.974121,4338.077148,4311.282227,4297.179688,4322.051270,4282.692383,4514.358887,4523.333496,4396.794922,4511.538574,0.000000,2.000000,36.000000,,,,0.000000,4.000000,4.000000,4.000000,4.000000,4.000000,4.000000,4.000000,4.000000,4.000000,4.000000,4.000000,4.000000,4.000000,4.000000,100.000000,,,,,,,,,,,,,,,,,,,,,,,,,,,,,,,,,,,,,,,,,,,,,,,,,,,,,,,,,,,,,,,,,,,,,,,,,,,,,,,,,,,,,,,,,,,,,,,,,,,,,,,,,,,,,,,,,,,,,
1768372189.159896,1768372189.160855,34.000000,0.000000,4327.948730,4307.563965,4340.000000,4342.692383,4297.307617,4336.282227,4313.205078,4294.358887,4316.282227,4280.000000,4513.717773,4521.153809,4397.820313,4510.384766,0.000000,2.000000,36.000000,,,,0.000000,4.000000,4.000000,4.000000,4.000000,4.000000,4.000000,4.000000,4.000000,4.000000,4.000000,4.000000,4.000000,4.000000,4.000000,100.000000,,,,,,,,,,,,,,,,,,,,,,,,,,,,,,,,,,,,,,,,,,,,,,,,,,,,,,,,,,,,,,,,,,,,,,,,,,,,,,,,,,,,,,,,,,,,,,,,,,,,,,,,,,,,,,,,,,,,,
1768372189.167705,1768372189.168663,35.000000,0.000000,4327.307617,4308.077148,4341.794922,4339.615234,4296.666504,4333.205078,4313.974121,4296.922852,4309.358887,4276.282227,4510.641113,4524.615234,4396.666504,4508.589844,0.000000,2.000000,36.000000,,,,0.000000,4.000000,4.000000,4.000000,4.000000,4.000000,4.000000,4.000000,4.000000,4.000000,4.000000,4.000000,4.000000,4.000000,4.000000,100.000000,,,,,,,,,,,,,,,,,,,,,,,,,,,,,,,,,,,,,,,,,,,,,,,,,,,,,,,,,,,,,,,,,,,,,,,,,,,,,,,,,,,,,,,,,,,,,,,,,,,,,,,,,,,,,,,,,,,,,
1768372189.175513,1768372189.176272,36.000000,0.000000,4327.820313,4310.128418,4342.820313,4345.512695,4295.897461,4332.051270,4314.615234,4306.025879,4312.820313,4277.051270,4510.128418,4526.922852,4393.589844,4510.128418,0.000000,2.000000,36.000000,,,,0.000000,4.000000,4.000000,4.000000,4.000000,4.000000,4.000000,4.000000,4.000000,4.000000,4.000000,4.000000,4.000000,4.000000,4.000000,100.000000,,,,,,,,,,,,,,,,,,,,,,,,,,,,,,,,,,,,,,,,,,,,,,,,,,,,,,,,,,,,,,,,,,,,,,,,,,,,,,,,,,,,,,,,,,,,,,,,,,,,,,,,,,,,,,,,,,,,,
1768372189.183322,1768372189.184080,37.000000,0.000000,4319.358887,4306.794922,4337.051270,4344.743652,4299.358887,4335.641113,4321.153809,4300.256348,4311.922852,4271.666504,4508.589844,4517.051270,4391.282227,4505.256348,0.000000,2.000000,36.000000,,,,0.000000,4.000000,4.000000,4.000000,4.000000,4.000000,4.000000,4.000000,4.000000,4.000000,4.000000,4.000000,4.000000,4.000000,4.000000,100.000000,,,,,,,,,,,,,,,,,,,,,,,,,,,,,,,,,,,,,,,,,,,,,,,,,,,,,,,,,,,,,,,,,,,,,,,,,,,,,,,,,,,,,,,,,,,,,,,,,,,,,,,,,,,,,,,,,,,,,
1768372189.191130,1768372189.191789,38.000000,0.000000,4313.077148,4301.025879,4333.589844,4338.589844,4301.282227,4339.230957,4321.282227,4288.589844,4304.743652,4262.563965,4502.307617,4507.820313,4386.922852,4498.461426,0.000000,2.000000,36.000000,,,,0.000000,4.000000,4.000000,4.000000,4.000000,4.000000,4.000000,4.000000,4.000000,4.000000,4.000000,4.000000,4.000000,4.000000,4.000000,100.000000,,,,,,,,,,,,,,,,,,,,,,,,,,,,,,,,,,,,,,,,,,,,,,,,,,,,,,,,,,,,,,,,,,,,,,,,,,,,,,,,,,,,,,,,,,,,,,,,,,,,,,,,,,,,,,,,,,,,,
1768372189.198938,1768372189.199597,39.000000,0.000000,4319.102539,4300.256348,4334.358887,4340.384766,4297.692383,4333.717773,4312.692383,4293.077148,4307.948730,4263.846191,4502.563965,4508.846191,4385.000000,4500.128418,0.000000,2.000000,36.000000,,,,0.000000,4.000000,4.000000,4.000000,4.000000,4.000000,4.000000,4.000000,4.000000,4.000000,4.000000,4.000000,4.000000,4.000000,4.000000,100.000000,,,,,,,,,,,,,,,,,,,,,,,,,,,,,,,,,,,,,,,,,,,,,,,,,,,,,,,,,,,,,,,,,,,,,,,,,,,,,,,,,,,,,,,,,,,,,,,,,,,,,,,,,,,,,,,,,,,,,
1768372189.206747,1768372189.207606,40.000000,0.000000,4320.384766,4300.641113,4331.794922,4342.307617,4295.128418,4325.769043,4308.077148,4293.717773,4309.358887,4267.307617,4505.769043,4512.179688,4388.717773,4508.974121,0.000000,2.000000,36.000000,,,,0.000000,4.000000,4.000000,4.000000,4.000000,4.000000,4.000000,4.000000,4.000000,4.000000,4.000000,4.000000,4.000000,4.000000,4.000000,100.000000,,,,,,,,,,,,,,,,,,,,,,,,,,,,,,,,,,,,,,,,,,,,,,,,,,,,,,,,,,,,,,,,,,,,,,,,,,,,,,,,,,,,,,,,,,,,,,,,,,,,,,,,,,,,,,,,,,,,,
1768372189.214555,1768372189.215414,41.000000,0.000000,4313.846191,4298.589844,4330.384766,4337.051270,4297.051270,4327.563965,4310.384766,4283.717773,4301.922852,4263.846191,4498.333496,4512.179688,4386.666504,4507.436035,0.000000,2.000000,36.000000,,,,0.000000,4.000000,4.000000,4.000000,4.000000,4.000000,4.000000,4.000000,4.000000,4.000000,4.000000,4.000000,4.000000,4.000000,4.000000,100.000000,,,,,,,,,,,,,,,,,,,,,,,,,,,,,,,,,,,,,,,,,,,,,,,,,,,,,,,,,,,,,,,,,,,,,,,,,,,,,,,,,,,,,,,,,,,,,,,,,,,,,,,,,,,,,,,,,,,,,
1768372189.222364,1768372189.223322,42.000000,0.000000,4314.743652,4294.102539,4334.743652,4333.846191,4296.282227,4336.025879,4312.563965,4284.487305,4302.179688,4262.820313,4488.589844,4508.077148,4375.641113,4493.717773,0.000000,2.000000,36.000000,,,,0.000000,4.000000,4.000000,4.000000,4.000000,4.000000,4.000000,4.000000,4.000000,4.000000,4.000000,4.000000,4.000000,4.000000,4.000000,100.000000,,,,,,,,,,,,,,,,,,,,,,,,,,,,,,,,,,,,,,,,,,,,,,,,,,,,,,,,,,,,,,,,,,,,,,,,,,,,,,,,,,,,,,,,,,,,,,,,,,,,,,,,,,,,,,,,,,,,,
1768372189.230172,1768372189.231131,43.000000,0.000000,4322.436035,4291.410156,4338.077148,4335.897461,4295.000000,4335.641113,4311.666504,4294.230957,4308.589844,4269.102539,4494.487305,4510.512695,4376.282227,4496.153809,0.000000,2.000000,36.000000,,,,0.000000,4.000000,4.000000,4.000000,4.000000,4.000000,4.000000,4.000000,4.000000,4.000000,4.000000,4.000000,4.000000,4.000000,4.000000,100.000000,,,,,,,,,,,,,,,,,,,,,,,,,,,,,,,,,,,,,,,,,,,,,,,,,,,,,,,,,,,,,,,,,,,,,,,,,,,,,,,,,,,,,,,,,,,,,,,,,,,,,,,,,,,,,,,,,,,,,
1768372189.237981,1768372189.238740,44.000000,0.000000,4327.692383,4299.230957,4340.256348,4341.666504,4297.051270,4331.538574,4313.333496,4300.256348,4315.256348,4283.333496,4516.282227,4525.000000,4399.102539,4519.743652,0.000000,2.000000,36.000000,,,,0.000000,4.000000,4.000000,4.000000,4.000000,4.000000,4.000000,4.000000,4.000000,4.000000,4.000000,4.000000,4.000000,4.000000,4.000000,100.000000,,,,,,,,,,,,,,,,,,,,,,,,,,,,,,,,,,,,,,,,,,,,,,,,,,,,,,,,,,,,,,,,,,,,,,,,,,,,,,,,,,,,,,,,,,,,,,,,,,,,,,,,,,,,,,,,,,,,,
1768372189.245789,1768372189.246548,45.000000,0.000000,4329.743652,4311.538574,4345.769043,4347.948730,4297.820313,4333.333496,4313.974121,4304.102539,4322.307617,4296.794922,4529.358887,4534.743652,4416.410156,4530.897461,0.000000,2.000000,36.000000,,,,0.000000,4.000000,4.000000,4.000000,4.000000,4.000000,4.000000,4.000000,4.000000,4.000000,4.000000,4.000000,4.000000,4.000000,4.000000,100.000000,,,,,,,,,,,,,,,,,,,,,,,,,,,,,,,,,,,,,,,,,,,,,,,,,,,,,,,,,,,,,,,,,,,,,,,,,,,,,,,,,,,,,,,,,,,,,,,,,,,,,,,,,,,,,,,,,,,,,
1768372189.253598,1768372189.254257,46.000000,0.000000,4325.641113,4307.692383,4344.615234,4345.769043,4295.641113,4332.436035,4311.794922,4304.615234,4319.102539,4291.282227,4520.256348,4526.410156,4407.436035,4523.461426,0.000000,2.000000,36.000000,,,,0.000000,4.000000,4.000000,4.000000,4.000000,4.000000,4.000000,4.000000,4.000000,4.000000,4.000000,4.000000,4.000000,4.000000,4.000000,100.000000,,,,,,,,,,,,,,,,,,,,,,,,,,,,,,,,,,,,,,,,,,,,,,,,0.606504,0.207680,0.269664,0.317777,0.249189,0.293844,0.105367,0.177151,0.067258,0.096231,0.277952,0.218612,0.121965,0.147549,0.127776,0.296605,0.111386,0.084214,0.078879,0.127297,0.234616,0.099732,0.028694,0.036803,0.059724,0.170431,0.165441,0.151099,0.108292,0.132698,0.185168,0.364879,0.316822,0.126516,0.054900,0.338624,0.459341,0.229221,0.155521,0.130215,0.282673,0.419177,0.138849,0.184660,0.120031,0.751515,0.444695,0.163821,0.183309,0.112568,0.564684,0.823647,0.438324,0.327006,0.183198,0.545275,0.664053,0.485146,0.281824,0.149221,0.855711,0.656114,0.408891,0.267555,0.178510,0.807117,0.493512,0.325660,0.306675,0.163017
1768372189.261406,1768372189.262065,47.000000,0.000000,4321.538574,4299.230957,4334.871582,4342.692383,4296.025879,4331.410156,4312.692383,4301.794922,4314.487305,4281.666504,4508.589844,4513.974121,4395.897461,4522.563965,0.000000,2.000000,36.000000,,,,0.000000,4.000000,4.000000,4.000000,4.000000,4.000000,4.000000,4.000000,4.000000,4.000000,4.000000,4.000000,4.000000,4.000000,4.000000,100.000000,,,,,,,,,,,,,,,,,,,,,,,,,,,,,,,,,,,,,,,,,,,,,,,,,,,,,,,,,,,,,,,,,,,,,,,,,,,,,,,,,,,,,,,,,,,,,,,,,,,,,,,,,,,,,,,,,,,,,
1768372189.269215,1768372189.270073,48.000000,0.000000,4322.692383,4302.436035,4332.948730,4346.282227,4299.615234,4335.128418,4313.717773,4302.307617,4320.512695,4283.974121,4509.102539,4515.256348,4396.282227,4519.487305,0.000000,2.000000,36.000000,,,,0.000000,4.000000,4.000000,4.000000,4.000000,4.000000,4.000000,4.000000,4.000000,4.000000,4.000000,4.000000,4.000000,4.000000,4.000000,100.000000,,,,,,,,,,,,,,,,,,,,,,,,,,,,,,,,,,,,,,,,,,,,,,,,,,,,,,,,,,,,,,,,,,,,,,,,,,,,,,,,,,,,,,,,,,,,,,,,,,,,,,,,,,,,,,,,,,,,,
1768372189.277023,1768372189.277882,49.000000,0.000000,4322.051270,4303.717773,4339.743652,4346.538574,4300.512695,4334.487305,4312.563965,4303.717773,4321.025879,4285.256348,4510.897461,4520.641113,4397.179688,4507.436035,0.000000,2.000000,36.000000,,,,0.000000,4.000000,4.000000,4.000000,4.000000,4.000000,4.000000,4.000000,4.000000,4.000000,4.000000,4.000000,4.000000,4.000000,4.000000,100.000000,,,,,,,,,,,,,,,,,,,,,,,,,,,,,,,,,,,,,,,,,,,,,,,,,,,,,,,,,,,,,,,,,,,,,,,,,,,,,,,,,,,,,,,,,,,,,,,,,,,,,,,,,,,,,,,,,,,,,
1768372189.284831,1768372189.285790,50.000000,0.000000,4318.077148,4299.230957,4337.948730,4340.256348,4297.179688,4328.461426,4311.666504,4300.128418,4311.282227,4280.128418,4509.358887,4517.820313,4398.589844,4509.871582,0.000000,2.000000,36.000000,,,,0.000000,4.000000,4.000000,4.000000,4.000000,4.000000,4.000000,4.000000,4.000000,4.000000,4.000000,4.000000,4.000000,4.000000,4.000000,100.000000,,,,,,,,,,,,,,,,,,,,,,,,,,,,,,,,,,,,,,,,,,,,,,,,,,,,,,,,,,,,,,,,,,,,,,,,,,,,,,,,,,,,,,,,,,,,,,,,,,,,,,,,,,,,,,,,,,,,,
1768372189.292640,1768372189.293599,51.000000,0.000000,4320.512695,4301.282227,4331.025879,4339.615234,4294.358887,4326.666504,4308.846191,4298.333496,4311.025879,4278.077148,4510.641113,4512.179688,4402.820313,4522.692383,0.000000,2.000000,36.000000,,,,0.000000,4.000000,4.000000,4.000000,4.000000,4.000000,4.000000,4.000000,4.000000,4.000000,4.000000,4.000000,4.000000,4.000000,4.000000,100.000000,,,,,,,,,,,,,,,,,,,,,,,,,,,,,,,,,,,,,,,,,,,,,,,,,,,,,,,,,,,,,,,,,,,,,,,,,,,,,,,,,,,,,,,,,,,,,,,,,,,,,,,,,,,,,,,,,,,,,
1768372189.300448,1768372189.301607,52.000000,0.000000,4327.820313,4306.410156,4333.205078,4346.153809,4296.794922,4326.153809,4304.358887,4302.051270,4314.871582,4281.794922,4510.769043,4513.205078,4404.230957,4525.512695,0.000000,2.000000,36.000000,,,,0.000000,4.000000,4.000000,4.000000,4.000000,4.000000,4.000000,4.000000,4.000000,4.000000,4.000000,4.000000,4.000000,4.000000,4.000000,100.000000,,,,,,,,,,,,,,,,,,,,,,,,,,,,,,,,,,,,,,,,,,,,,,,,,,,,,,,,,,,,,,,,,,,,,,,,,,,,,,,,,,,,,,,,,,,,,,,,,,,,,,,,,,,,,,,,,,,,,
1768372189.308257,1768372189.309416,53.000000,0.000000,4329.743652,4305.128418,4335.769043,4346.282227,4300.641113,4325.897461,4305.000000,4303.846191,4311.410156,4286.153809,4511.410156,4518.846191,4402.307617,4521.666504,0.000000,2.000000,36.000000,,,,0.000000,4.000000,4.000000,4.000000,4.000000,4.000000,4.000000,4.000000,4.000000,4.000000,4.000000,4.000000,4.000000,4.000000,4.000000,100.000000,,,,,,,,,,,,,,,,,,,,,,,,,,,,,,,,,,,,,,,,,,,,,,,,,,,,,,,,,,,,,,,,,,,,,,,,,,,,,,,,,,,,,,,,,,,,,,,,,,,,,,,,,,,,,,,,,,,,,
1768372189.316065,1768372189.317324,54.000000,0.000000,4323.974121,4299.358887,4333.205078,4341.538574,4298.846191,4325.128418,4307.692383,4300.128418,4310.128418,4288.077148,4515.000000,4521.025879,4401.282227,4521.153809,0.000000,2.000000,36.000000,,,,0.000000,4.000000,4.000000,4.000000,4.000000,4.000000,4.000000,4.000000,4.000000,4.000000,4.000000,4.000000,4.000000,4.000000,4.000000,100.000000,,,,,,,,,,,,,,,,,,,,,,,,,,,,,,,,,,,,,,,,,,,,,,,,,,,,,,,,,,,,,,,,,,,,,,,,,,,,,,,,,,,,,,,,,,,,,,,,,,,,,,,,,,,,,,,,,,,,,
1768372189.323873,1768372189.325132,55.000000,0.000000,4320.512695,4297.563965,4332.307617,4342.307617,4294.487305,4320.000000,4305.256348,4298.974121,4311.538574,4287.820313,4512.179688,4519.743652,4399.230957,4521.282227,0.000000,2.000000,36.000000,,,,0.000000,4.000000,4.000000,4.000000,4.000000,4.000000,4.000000,4.000000,4.000000,4.000000,4.000000,4.000000,4.000000,4.000000,4.000000,100.000000,,,,,,,,,,,,,,,,,,,,,,,,,,,,,,,,,,,,,,,,,,,,,,,,,,,,,,,,,,,,,,,,,,,,,,,,,,,,,,,,,,,,,,,,,,,,,,,,,,,,,,,,,,,,,,,,,,,,,
1768372189.331682,1768372189.332741,56.000000,0.000000,4325.000000,4300.128418,4334.230957,4345.512695,4294.358887,4321.922852,4306.282227,4303.846191,4311.410156,4286.153809,4509.743652,4517.948730,4398.333496,4522.307617,0.000000,2.000000,36.000000,,,,0.000000,4.000000,4.000000,4.000000,4.000000,4.000000,4.000000,4.000000,4.000000,4.000000,4.000000,4.000000,4.000000,4.000000,4.000000,100.000000,,,,,,,,,,,,,,,,,,,,,,,,,,,,,,,,,,,,,,,,,,,,,,,,,,,,,,,,,,,,,,,,,,,,,,,,,,,,,,,,,,,,,,,,,,,,,,,,,,,,,,,,,,,,,,,,,,,,,
1768372189.339490,1768372189.340550,57.000000,0.000000,4328.589844,4303.461426,4335.384766,4345.641113,4297.563965,4327.307617,4309.487305,4304.871582,4311.922852,4284.230957,4513.974121,4519.487305,4401.410156,4524.487305,0.000000,2.000000,36.000000,,,,0.000000,4.000000,4.000000,4.000000,4.000000,4.000000,4.000000,4.000000,4.000000,4.000000,4.000000,4.000000,4.000000,4.000000,4.000000,100.000000,,,,,,,,,,,,,,,,,,,,,,,,,,,,,,,,,,,,,,,,,,,,,,,,,,,,,,,,,,,,,,,,,,,,,,,,,,,,,,,,,,,,,,,,,,,,,,,,,,,,,,,,,,,,,,,,,,,,,
1768372189.347299,1768372189.348258,58.000000,0.000000,4326.538574,4304.230957,4335.769043,4347.692383,4300.512695,4326.922852,4310.897461,4301.282227,4311.410156,4283.205078,4513.974121,4521.025879,4401.410156,4524.487305,0.000000,2.000000,36.000000,,,,0.000000,4.000000,4.000000,4.000000,4.000000,4.000000,4.000000,4.000000,4.000000,4.000000,4.000000,4.000000,4.000000,4.000000,4.000000,100.000000,,,,,,,,,,,,,,,,,,,,,,,,,,,,,,,,,,,,,,,,,,,,,,,,,,,,,,,,,,,,,,,,,,,,,,,,,,,,,,,,,,,,,,,,,,,,,,,,,,,,,,,,,,,,,,,,,,,,,
1768372189.355107,1768372189.356067,59.000000,0.000000,4325.384766,4305.512695,4336.922852,4351.538574,4299.871582,4326.410156,4312.820313,4304.487305,4308.974121,4283.974121,4508.589844,4518.717773,4398.717773,4524.230957,0.000000,2.000000,36.000000,,,,0.000000,4.000000,4.000000,4.000000,4.000000,4.000000,4.000000,4.000000,4.000000,4.000000,4.000000,4.000000,4.000000,4.000000,4.000000,100.000000,,,,,,,,,,,,,,,,,,,,,,,,,,,,,,,,,,,,,,,,,,,,,,,,,,,,,,,,,,,,,,,,,,,,,,,,,,,,,,,,,,,,,,,,,,,,,,,,,,,,,,,,,,,,,,,,,,,,,
1768372189.362916,1768372189.363675,60.000000,0.000000,4327.692383,4308.205078,4339.102539,4351.538574,4296.282227,4324.615234,4309.615234,4309.230957,4311.794922,4285.384766,4509.230957,4520.897461,4397.563965,4523.974121,0.000000,2.000000,36.000000,,,,0.000000,4.000000,4.000000,4.000000,4.000000,4.000000,4.000000,4.000000,4.000000,4.000000,4.000000,4.000000,4.000000,4.000000,4.000000,100.000000,,,,,,,,,,,,,,,,,,,,,,,,,,,,,,,,,,,,,,,,,,,,,,,,,,,,,,,,,,,,,,,,,,,,,,,,,,,,,,,,,,,,,,,,,,,,,,,,,,,,,,,,,,,,,,,,,,,,,
1768372189.370724,1768372189.371484,61.000000,0.000000,4329.871582,4309.615234,4341.538574,4350.256348,4297.179688,4322.307617,4304.743652,4305.128418,4313.205078,4284.743652,4510.512695,4523.974121,4398.333496,4523.974121,0.000000,2.000000,36.000000,,,,0.000000,4.000000,4.000000,4.000000,4.000000,4.000000,4.000000,4.000000,4.000000,4.000000,4.000000,4.000000,4.000000,4.000000,4.000000,100.000000,,,,,,,,,,,,,,,,,,,,,,,,,,,,,,,,,,,,,,,,,,,,,,,,,,,,,,,,,,,,,,,,,,,,,,,,,,,,,,,,,,,,,,,,,,,,,,,,,,,,,,,,,,,,,,,,,,,,,
1768372189.378533,1768372189.379192,62.000000,0.000000,4326.922852,4311.538574,4341.025879,4351.922852,4304.102539,4323.846191,4307.563965,4299.743652,4304.615234,4281.922852,4507.692383,4517.948730,4397.820313,4522.692383,0.000000,2.000000,36.000000,,,,0.000000,4.000000,4.000000,4.000000,4.000000,4.000000,4.000000,4.000000,4.000000,4.000000,4.000000,4.000000,4.000000,4.000000,4.000000,100.000000,,,,,,,,,,,,,,,,,,,,,,,,,,,,,,,,,,,,,,,,,,,,,,,,0.704314,0.245728,0.274500,0.350870,0.259827,0.283938,0.097529,0.147409,0.074588,0.099741,0.423177,0.262268,0.107938,0.156246,0.127132,0.281924,0.095708,0.094893,0.089651,0.133083,0.271063,0.124919,0.033832,0.040955,0.054664,0.211184,0.151883,0.190675,0.101564,0.130783,0.253442,0.357873,0.373131,0.109846,0.056546,0.524148,0.371930,0.256756,0.157247,0.123992,0.384398,0.406092,0.136617,0.179813,0.113099,1.001951,0.478628,0.143905,0.191226,0.116570,0.729122,0.880154,0.455549,0.362583,0.202640,0.758008,0.785154,0.473701,0.282819,0.164994,1.208225,0.649635,0.358709,0.268104,0.176110,0.941568,0.513358,0.299075,0.306602,0.170553
1768372189.386341,1768372189.387001,63.000000,0.000000,4322.436035,4315.641113,4337.948730,4353.461426,4306.794922,4323.077148,4308.333496,4300.769043,4300.769043,4278.077148,4506.153809,4510.256348,4393.333496,4516.538574,0.000000,2.000000,36.000000,,,,0.000000,4.000000,4.000000,4.000000,4.000000,4.000000,4.000000,4.000000,4.000000,4.000000,4.000000,4.000000,4.000000,4.000000,4.000000,100.000000,,,,,,,,,,,,,,,,,,,,,,,,,,,,,,,,,,,,,,,,,,,,,,,,,,,,,,,,,,,,,,,,,,,,,,,,,,,,,,,,,,,,,,,,,,,,,,,,,,,,,,,,,,,,,,,,,,,,,
1768372189.394149,1768372189.394609,64.000000,0.000000,4319.743652,4316.794922,4335.128418,4349.871582,4301.153809,4320.512695,4302.692383,4302.692383,4304.102539,4277.436035,4503.589844,4508.205078,4388.846191,4509.358887,4048.000000,2.000000,36.000000,,,,0.000000,4.000000,4.000000,4.000000,4.000000,4.000000,4.000000,4.000000,4.000000,4.000000,4.000000,4.000000,4.000000,4.000000,4.000000,100.000000,,,,,,,,,,,,,,,,,,,,,,,,,,,,,,,,,,,,,,,,,,,,,,,,,,,,,,,,,,,,,,,,,,,,,,,,,,,,,,,,,,,,,,,,,,,,,,,,,,,,,,,,,,,,,,,,,,,,,
1768372189.401958,1768372189.402418,65.000000,0.000000,4315.641113,4313.589844,4334.871582,4348.205078,4298.717773,4323.589844,4305.512695,4304.230957,4302.436035,4276.666504,4503.717773,4509.230957,4388.846191,4507.436035,3982.000000,2.000000,36.000000,,,,0.000000,4.000000,4.000000,4.000000,4.000000,4.000000,4.000000,4.000000,4.000000,4.000000,4.000000,4.000000,4.000000,4.000000,4.000000,100.000000,,,,,,,,,,,,,,,,,,,,,,,,,,,,,,,,,,,,,,,,,,,,,,,,,,,,,,,,,,,,,,,,,,,,,,,,,,,,,,,,,,,,,,,,,,,,,,,,,,,,,,,,,,,,,,,,,,,,,
1768372189.409766,1768372189.410126,66.000000,0.000000,4311.794922,4313.974121,4331.410156,4351.538574,4303.846191,4326.538574,4311.153809,4305.384766,4300.128418,4272.436035,4505.769043,4507.563965,4391.538574,4508.333496,3882.000000,2.000000,36.000000,,,,0.000000,4.000000,4.000000,4.000000,4.000000,4.000000,4.000000,4.000000,4.000000,4.000000,4.000000,4.000000,4.000000,4.000000,4.000000,100.000000,,,,,,,,,,,,,,,,,,,,,,,,,,,,,,,,,,,,,,,,,,,,,,,,,,,,,,,,,,,,,,,,,,,,,,,,,,,,,,,,,,,,,,,,,,,,,,,,,,,,,,,,,,,,,,,,,,,,,
1768372189.417575,1768372189.417935,67.000000,0.000000,4312.051270,4319.743652,4326.538574,4353.461426,4307.948730,4325.769043,4309.230957,4303.461426,4304.230957,4272.563965,4503.461426,4507.179688,4394.487305,4507.307617,3864.000000,2.000000,36.000000,,,,0.000000,4.000000,4.000000,4.000000,4.000000,4.000000,4.000000,4.000000,4.000000,4.000000,4.000000,4.000000,4.000000,4.000000,4.000000,100.000000,,,,,,,,,,,,,,,,,,,,,,,,,,,,,,,,,,,,,,,,,,,,,,,,,,,,,,,,,,,,,,,,,,,,,,,,,,,,,,,,,,,,,,,,,,,,,,,,,,,,,,,,,,,,,,,,,,,,,
1768372189.425383,1768372189.425943,68.000000,0.000000,4312.563965,4321.666504,4328.589844,4354.358887,4306.282227,4323.846191,4308.461426,4304.230957,4312.051270,4277.307617,4506.025879,4512.307617,4398.205078,4507.563965,3769.000000,2.000000,36.000000,,,,0.000000,4.000000,4.000000,4.000000,4.000000,4.000000,4.000000,4.000000,4.000000,4.000000,4.000000,4.000000,4.000000,4.000000,4.000000,100.000000,,,,,,,,,,,,,,,,,,,,,,,,,,,,,,,,,,,,,,,,,,,,,,,,,,,,,,,,,,,,,,,,,,,,,,,,,,,,,,,,,,,,,,,,,,,,,,,,,,,,,,,,,,,,,,,,,,,,,
1768372189.433192,1768372189.433751,69.000000,0.000000,4312.179688,4315.512695,4328.205078,4350.769043,4300.769043,4321.794922,4311.153809,4309.358887,4310.512695,4273.205078,4506.538574,4511.025879,4393.846191,4508.846191,3744.000000,2.000000,36.000000,,,,0.000000,4.000000,4.000000,4.000000,4.000000,4.000000,4.000000,4.000000,4.000000,4.000000,4.000000,4.000000,4.000000,4.000000,4.000000,100.000000,,,,,,,,,,,,,,,,,,,,,,,,,,,,,,,,,,,,,,,,,,,,,,,,,,,,,,,,,,,,,,,,,,,,,,,,,,,,,,,,,,,,,,,,,,,,,,,,,,,,,,,,,,,,,,,,,,,,,
1768372189.441000,1768372189.441660,70.000000,0.000000,4311.538574,4309.871582,4323.461426,4345.000000,4297.563965,4323.717773,4311.794922,4309.102539,4302.307617,4265.897461,4497.563965,4502.948730,4385.384766,4505.512695,3744.000000,2.000000,36.000000,,,,0.000000,4.000000,4.000000,4.000000,4.000000,4.000000,4.000000,4.000000,4.000000,4.000000,4.000000,4.000000,4.000000,4.000000,4.000000,100.000000,,,,,,,,,,,,,,,,,,,,,,,,,,,,,,,,,,,,,,,,,,,,,,,,,,,,,,,,,,,,,,,,,,,,,,,,,,,,,,,,,,,,,,,,,,,,,,,,,,,,,,,,,,,,,,,,,,,,,
1768372189.448809,1768372189.449468,71.000000,0.000000,4311.794922,4313.717773,4324.871582,4347.948730,4302.436035,4325.769043,4310.000000,4305.897461,4302.948730,4271.794922,4497.692383,4505.512695,4390.000000,4507.307617,3752.000000,2.000000,36.000000,,,,0.000000,4.000000,4.000000,4.000000,4.000000,4.000000,4.000000,4.000000,4.000000,4.000000,4.000000,4.000000,4.000000,4.000000,4.000000,100.000000,,,,,,,,,,,,,,,,,,,,,,,,,,,,,,,,,,,,,,,,,,,,,,,,,,,,,,,,,,,,,,,,,,,,,,,,,,,,,,,,,,,,,,,,,,,,,,,,,,,,,,,,,,,,,,,,,,,,,
1768372189.456617,1768372189.457077,72.000000,0.000000,4310.897461,4315.641113,4328.333496,4352.692383,4308.717773,4324.358887,4310.128418,4309.871582,4311.025879,4279.871582,4507.948730,4514.230957,4399.230957,4512.692383,3952.000000,2.000000,36.000000,,,,0.000000,4.000000,4.000000,4.000000,4.000000,4.000000,4.000000,4.000000,4.000000,4.000000,4.000000,4.000000,4.000000,4.000000,4.000000,100.000000,,,,,,,,,,,,,,,,,,,,,,,,,,,,,,,,,,,,,,,,,,,,,,,,,,,,,,,,,,,,,,,,,,,,,,,,,,,,,,,,,,,,,,,,,,,,,,,,,,,,,,,,,,,,,,,,,,,,,
1768372189.464425,1768372189.464885,73.000000,0.000000,4310.128418,4310.769043,4326.666504,4349.102539,4308.589844,4326.025879,4311.666504,4314.358887,4310.897461,4278.205078,4508.077148,4513.717773,4399.743652,4511.025879,3932.000000,2.000000,36.000000,,,,0.000000,4.000000,4.000000,4.000000,4.000000,4.000000,4.000000,4.000000,4.000000,4.000000,4.000000,4.000000,4.000000,4.000000,4.000000,100.000000,,,,,,,,,,,,,,,,,,,,,,,,,,,,,,,,,,,,,,,,,,,,,,,,,,,,,,,,,,,,,,,,,,,,,,,,,,,,,,,,,,,,,,,,,,,,,,,,,,,,,,,,,,,,,,,,,,,,,
1768372189.472234,1768372189.472594,74.000000,0.000000,4316.410156,4317.179688,4325.512695,4349.358887,4306.282227,4328.589844,4311.538574,4310.897461,4306.922852,4276.025879,4506.153809,4515.256348,4398.333496,4512.051270,4402.000000,2.000000,36.000000,,,,0.000000,4.000000,4.000000,4.000000,4.000000,4.000000,4.000000,4.000000,4.000000,4.000000,4.000000,4.000000,4.000000,4.000000,4.000000,100.000000,,,,,,,,,,,,,,,,,,,,,,,,,,,,,,,,,,,,,,,,,,,,,,,,,,,,,,,,,,,,,,,,,,,,,,,,,,,,,,,,,,,,,,,,,,,,,,,,,,,,,,,,,,,,,,,,,,,,,
1768372189.480042,1768372189.480402,75.000000,0.000000,4327.436035,4323.717773,4327.820313,4355.128418,4307.948730,4326.410156,4311.153809,4310.512695,4306.282227,4276.410156,4509.230957,4519.615234,4398.077148,4521.666504,4672.000000,2.000000,36.000000,,,,0.000000,4.000000,4.000000,4.000000,4.000000,4.000000,4.000000,4.000000,4.000000,4.000000,4.000000,4.000000,4.000000,4.000000,4.000000,100.000000,,,,,,,,,,,,,,,,,,,,,,,,,,,,,,,,,,,,,,,,,,,,,,,,,,,,,,,,,,,,,,,,,,,,,,,,,,,,,,,,,,,,,,,,,,,,,,,,,,,,,,,,,,,,,,,,,,,,,
1768372189.487851,1768372189.488411,76.000000,0.000000,4326.153809,4314.358887,4327.692383,4352.436035,4306.922852,4323.077148,4312.563965,4316.410156,4307.051270,4275.256348,4507.436035,4516.153809,4398.205078,4522.948730,5021.000000,2.000000,36.000000,,,,0.000000,4.000000,4.000000,4.000000,4.000000,4.000000,4.000000,4.000000,4.000000,4.000000,4.000000,4.000000,4.000000,4.000000,4.000000,100.000000,,,,,,,,,,,,,,,,,,,,,,,,,,,,,,,,,,,,,,,,,,,,,,,,,,,,,,,,,,,,,,,,,,,,,,,,,,,,,,,,,,,,,,,,,,,,,,,,,,,,,,,,,,,,,,,,,,,,,
1768372189.495659,1768372189.496219,77.000000,0.000000,4315.128418,4307.563965,4324.487305,4344.615234,4302.563965,4323.333496,4313.461426,4316.922852,4308.846191,4277.820313,4510.897461,4519.743652,4406.025879,4518.205078,5412.000000,2.000000,36.000000,,,,0.000000,4.000000,4.000000,4.000000,4.000000,4.000000,4.000000,4.000000,4.000000,4.000000,4.000000,4.000000,4.000000,4.000000,4.000000,100.000000,,,,,,,,,,,,,,,,,,,,,,,,,,,,,,,,,,,,,,,,,,,,,,,,,,,,,,,,,,,,,,,,,,,,,,,,,,,,,,,,,,,,,,,,,,,,,,,,,,,,,,,,,,,,,,,,,,,,,
1768372189.503468,1768372189.504127,78.000000,0.000000,4319.230957,4310.641113,4326.794922,4345.000000,4303.589844,4327.563965,4315.641113,4316.538574,4312.307617,4282.563965,4522.563965,4532.051270,4413.974121,4526.282227,4402.000000,2.000000,36.000000,,,,0.000000,4.000000,4.000000,4.000000,4.000000,4.000000,4.000000,4.000000,4.000000,4.000000,4.000000,4.000000,4.000000,4.000000,4.000000,100.000000,1.000000,100.000000,4.000000,4.000000,4.000000,4.000000,4.000000,4.000000,4.000000,4.000000,4.000000,4.000000,4.000000,4.000000,4.000000,4.000000,,,,,,,,,,,,,,,,,,,,,,,,,,,,,,,,0.779120,0.282250,0.340317,0.366955,0.264548,0.276583,0.106821,0.138337,0.084527,0.102996,0.612665,0.297609,0.113946,0.159124,0.123466,0.272606,0.089942,0.117792,0.095672,0.131950,0.310061,0.141245,0.039795,0.046613,0.047648,0.256724,0.134477,0.223201,0.095605,0.127730,0.336888,0.340338,0.387016,0.099371,0.058713,0.771393,0.304970,0.261051,0.155060,0.120866,0.497384,0.380636,0.132985,0.180382,0.110366,1.209580,0.507078,0.132659,0.198293,0.114794,0.893776,0.881529,0.502299,0.385186,0.221039,1.005036,0.879865,0.478585,0.269848,0.182834,1.561314,0.621986,0.326643,0.265189,0.181098,1.160604,0.516827,0.320383,0.303278,0.186934
1768372189.511276,1768372189.511936,79.000000,0.000000,4326.282227,4311.153809,4333.974121,4352.820313,4309.615234,4333.461426,4322.563965,4326.025879,4317.051270,4286.282227,4526.666504,4539.743652,4413.333496,4538.461426,4672.000000,2.000000,36.000000,,,,0.000000,4.000000,4.000000,4.000000,4.000000,4.000000,4.000000,4.000000,4.000000,4.000000,4.000000,4.000000,4.000000,4.000000,4.000000,100.000000,,,,,,,,,,,,,,,,,,,,,,,,,,,,,,,,,,,,,,,,,,,,,,,,,,,,,,,,,,,,,,,,,,,,,,,,,,,,,,,,,,,,,,,,,,,,,,,,,,,,,,,,,,,,,,,,,,,,,
1768372189.519085,1768372189.519944,80.000000,0.000000,4315.769043,4311.025879,4333.333496,4355.384766,4312.436035,4337.179688,4322.820313,4335.641113,4323.846191,4289.230957,4523.846191,4539.230957,4412.563965,4535.512695,5021.000000,2.000000,36.000000,,,,0.000000,4.000000,4.000000,4.000000,4.000000,4.000000,4.000000,4.000000,4.000000,4.000000,4.000000,4.000000,4.000000,4.000000,4.000000,100.000000,,,,,,,,,,,,,,,,,,,,,,,,,,,,,,,,,,,,,,,,,,,,,,,,,,,,,,,,,,,,,,,,,,,,,,,,,,,,,,,,,,,,,,,,,,,,,,,,,,,,,,,,,,,,,,,,,,,,,
1768372189.526893,1768372189.527752,81.000000,0.000000,4308.974121,4312.436035,4327.948730,4351.153809,4310.256348,4332.307617,4313.974121,4331.153809,4323.333496,4291.282227,4522.692383,4533.333496,4413.717773,4525.512695,5412.000000,2.000000,36.000000,,,,0.000000,4.000000,4.000000,4.000000,4.000000,4.000000,4.000000,4.000000,4.000000,4.000000,4.000000,4.000000,4.000000,4.000000,4.000000,100.000000,,,,,,,,,,,,,,,,,,,,,,,,,,,,,,,,,,,,,,,,,,,,,,,,,,,,,,,,,,,,,,,,,,,,,,,,,,,,,,,,,,,,,,,,,,,,,,,,,,,,,,,,,,,,,,,,,,,,,
1768372189.534701,1768372189.535461,82.000000,0.000000,4318.205078,4311.282227,4329.358887,4352.820313,4308.077148,4323.333496,4308.589844,4323.974121,4317.436035,4293.846191,4523.589844,4528.333496,4413.205078,4526.410156,4402.000000,2.000000,36.000000,,,,0.000000,4.000000,4.000000,4.000000,4.000000,4.000000,4.000000,4.000000,4.000000,4.000000,4.000000,4.000000,4.000000,4.000000,4.000000,100.000000,,,,,,,,,,,,,,,,,,,,,,,,,,,,,,,,,,,,,,,,,,,,,,,,,,,,,,,,,,,,,,,,,,,,,,,,,,,,,,,,,,,,,,,,,,,,,,,,,,,,,,,,,,,,,,,,,,,,,
1768372189.542510,1768372189.543269,83.000000,0.000000,4326.794922,4314.230957,4335.000000,4359.230957,4307.179688,4324.358887,4311.794922,4327.436035,4322.179688,4294.102539,4525.000000,4536.794922,4415.256348,4537.051270,4672.000000,2.000000,36.000000,,,,0.000000,4.000000,4.000000,4.000000,4.000000,4.000000,4.000000,4.000000,4.000000,4.000000,4.000000,4.000000,4.000000,4.000000,4.000000,100.000000,,,,,,,,,,,,,,,,,,,,,,,,,,,,,,,,,,,,,,,,,,,,,,,,,,,,,,,,,,,,,,,,,,,,,,,,,,,,,,,,,,,,,,,,,,,,,,,,,,,,,,,,,,,,,,,,,,,,,
1768372189.550318,1768372189.550878,84.000000,0.000000,4326.410156,4319.358887,4341.153809,4361.538574,4309.743652,4332.563965,4318.846191,4331.794922,4325.384766,4293.333496,4528.333496,4546.922852,4419.230957,4542.820313,5021.000000,2.000000,36.000000,,,,0.000000,4.000000,4.000000,4.000000,4.000000,4.000000,4.000000,4.000000,4.000000,4.000000,4.000000,4.000000,4.000000,4.000000,4.000000,100.000000,,,,,,,,,,,,,,,,,,,,,,,,,,,,,,,,,,,,,,,,,,,,,,,,,,,,,,,,,,,,,,,,,,,,,,,,,,,,,,,,,,,,,,,,,,,,,,,,,,,,,,,,,,,,,,,,,,,,,
1768372189.558127,1768372189.558687,85.000000,0.000000,4327.179688,4316.666504,4342.307617,4358.974121,4311.282227,4331.025879,4318.333496,4332.563965,4315.641113,4293.974121,4527.307617,4539.615234,4417.563965,4534.871582,5412.000000,2.000000,36.000000,,,,0.000000,4.000000,4.000000,4.000000,4.000000,4.000000,4.000000,4.000000,4.000000,4.000000,4.000000,4.000000,4.000000,4.000000,4.000000,100.000000,,,,,,,,,,,,,,,,,,,,,,,,,,,,,,,,,,,,,,,,,,,,,,,,,,,,,,,,,,,,,,,,,,,,,,,,,,,,,,,,,,,,,,,,,,,,,,,,,,,,,,,,,,,,,,,,,,,,,
1768372189.565935,1768372189.566395,86.000000,0.000000,4327.179688,4311.025879,4336.794922,4355.641113,4306.153809,4320.128418,4310.000000,4332.436035,4312.563965,4294.615234,4523.333496,4530.641113,4412.692383,4527.051270,4402.000000,2.000000,36.000000,,,,0.000000,4.000000,4.000000,4.000000,4.000000,4.000000,4.000000,4.000000,4.000000,4.000000,4.000000,4.000000,4.000000,4.000000,4.000000,100.000000,,,,,,,,,,,,,,,,,,,,,,,,,,,,,,,,,,,,,,,,,,,,,,,,,,,,,,,,,,,,,,,,,,,,,,,,,,,,,,,,,,,,,,,,,,,,,,,,,,,,,,,,,,,,,,,,,,,,,
1768372189.573744,1768372189.574204,87.000000,0.000000,4322.179688,4311.410156,4336.666504,4355.897461,4305.256348,4323.205078,4310.769043,4328.333496,4316.794922,4293.717773,4523.717773,4531.922852,4412.179688,4531.282227,4672.000000,2.000000,36.000000,,,,0.000000,4.000000,4.000000,4.000000,4.000000,4.000000,4.000000,4.000000,4.000000,4.000000,4.000000,4.000000,4.000000,4.000000,4.000000,100.000000,,,,,,,,,,,,,,,,,,,,,,,,,,,,,,,,,,,,,,,,,,,,,,,,,,,,,,,,,,,,,,,,,,,,,,,,,,,,,,,,,,,,,,,,,,,,,,,,,,,,,,,,,,,,,,,,,,,,,
1768372189.581552,1768372189.581812,88.000000,0.000000,4321.922852,4312.948730,4343.461426,4359.358887,4309.487305,4335.128418,4319.871582,4327.563965,4314.487305,4292.563965,4525.641113,4536.282227,4412.563965,4532.563965,5021.000000,2.000000,36.000000,,,,0.000000,4.000000,4.000000,4.000000,4.000000,4.000000,4.000000,4.000000,4.000000,4.000000,4.000000,4.000000,4.000000,4.000000,4.000000,100.000000,,,,,,,,,,,,,,,,,,,,,,,,,,,,,,,,,,,,,,,,,,,,,,,,,,,,,,,,,,,,,,,,,,,,,,,,,,,,,,,,,,,,,,,,,,,,,,,,,,,,,,,,,,,,,,,,,,,,,
1768372189.589361,1768372189.589621,89.000000,0.000000,4326.282227,4309.615234,4343.461426,4355.897461,4310.512695,4334.487305,4325.256348,4334.615234,4315.384766,4294.102539,4523.589844,4540.769043,4410.384766,4524.358887,5412.000000,2.000000,36.000000,,,,0.000000,4.000000,4.000000,4.000000,4.000000,4.000000,4.000000,4.000000,4.000000,4.000000,4.000000,4.000000,4.000000,4.000000,4.000000,100.000000,,,,,,,,,,,,,,,,,,,,,,,,,,,,,,,,,,,,,,,,,,,,,,,,,,,,,,,,,,,,,,,,,,,,,,,,,,,,,,,,,,,,,,,,,,,,,,,,,,,,,,,,,,,,,,,,,,,,,
1768372189.597169,1768372189.597329,90.000000,0.000000,4321.282227,4307.307617,4337.563965,4347.692383,4309.871582,4329.102539,4326.410156,4337.179688,4323.974121,4295.384766,4522.051270,4541.025879,4410.897461,4523.077148,4402.000000,2.000000,36.000000,,,,0.000000,4.000000,4.000000,4.000000,4.000000,4.000000,4.000000,4.000000,4.000000,4.000000,4.000000,4.000000,4.000000,4.000000,4.000000,100.000000,,,,,,,,,,,,,,,,,,,,,,,,,,,,,,,,,,,,,,,,,,,,,,,,,,,,,,,,,,,,,,,,,,,,,,,,,,,,,,,,,,,,,,,,,,,,,,,,,,,,,,,,,,,,,,,,,,,,,
1768372189.604977,1768372189.605138,91.000000,0.000000,4309.743652,4305.256348,4335.512695,4345.000000,4306.666504,4327.436035,4320.897461,4333.846191,4324.358887,4295.128418,4525.641113,4534.102539,4411.666504,4527.436035,4672.000000,2.000000,36.000000,,,,0.000000,4.000000,4.000000,4.000000,4.000000,4.000000,4.000000,4.000000,4.000000,4.000000,4.000000,4.000000,4.000000,4.000000,4.000000,100.000000,,,,,,,,,,,,,,,,,,,,,,,,,,,,,,,,,,,,,,,,,,,,,,,,,,,,,,,,,,,,,,,,,,,,,,,,,,,,,,,,,,,,,,,,,,,,,,,,,,,,,,,,,,,,,,,,,,,,,
1768372189.612786,1768372189.613146,92.000000,0.000000,4308.974121,4303.077148,4335.384766,4344.102539,4303.077148,4324.743652,4313.974121,4330.769043,4316.666504,4291.922852,4520.641113,4528.974121,4405.000000,4523.205078,5021.000000,2.000000,36.000000,,,,0.000000,4.000000,4.000000,4.000000,4.000000,4.000000,4.000000,4.000000,4.000000,4.000000,4.000000,4.000000,4.000000,4.000000,4.000000,100.000000,,,,,,,,,,,,,,,,,,,,,,,,,,,,,,,,,,,,,,,,,,,,,,,,,,,,,,,,,,,,,,,,,,,,,,,,,,,,,,,,,,,,,,,,,,,,,,,,,,,,,,,,,,,,,,,,,,,,,
1768372189.620594,1768372189.620954,93.000000,0.000000,4311.794922,4304.487305,4334.615234,4342.820313,4306.410156,4328.333496,4319.615234,4330.000000,4313.205078,4291.282227,4511.794922,4529.358887,4399.358887,4520.000000,5412.000000,2.000000,36.000000,,,,0.000000,4.000000,4.000000,4.000000,4.000000,4.000000,4.000000,4.000000,4.000000,4.000000,4.000000,4.000000,4.000000,4.000000,4.000000,100.000000,,,,,,,,,,,,,,,,,,,,,,,,,,,,,,,,,,,,,,,,,,,,,,,,,,,,,,,,,,,,,,,,,,,,,,,,,,,,,,,,,,,,,,,,,,,,,,,,,,,,,,,,,,,,,,,,,,,,,
1768372189.628403,1768372189.628863,94.000000,0.000000,4311.922852,4308.205078,4333.333496,4346.153809,4310.000000,4332.692383,4321.153809,4330.512695,4313.846191,4291.666504,4513.205078,4527.692383,4401.538574,4523.205078,4402.000000,2.000000,36.000000,,,,0.000000,4.000000,4.000000,4.000000,4.000000,4.000000,4.000000,4.000000,4.000000,4.000000,4.000000,4.000000,4.000000,4.000000,4.000000,100.000000,,,,,,,,,,,,,,,,,,,,,,,,,,,,,,,,,,,,,,,,,,,,,,,,0.810757,0.319658,0.465189,0.356122,0.258007,0.274031,0.136413,0.153850,0.094681,0.104548,0.809028,0.319915,0.135234,0.154151,0.116983,0.267124,0.099585,0.147360,0.096828,0.124956,0.331052,0.143189,0.045246,0.053129,0.041027,0.291545,0.119411,0.239121,0.090212,0.124506,0.419914,0.315802,0.355055,0.095393,0.060052,1.028582,0.292179,0.240539,0.146598,0.120299,0.603963,0.364472,0.125582,0.181149,0.110783,1.325462,0.557780,0.140014,0.197805,0.108365,1.005627,0.859498,0.582377,0.385105,0.232997,1.233902,0.961855,0.499198,0.243956,0.198030,1.803588,0.607110,0.326346,0.260862,0.188640,1.366929,0.533090,0.394747,0.297960,0.205246
1768372189.636211,1768372189.636671,95.000000,0.000000,4318.846191,4311.666504,4336.025879,4351.410156,4307.179688,4326.282227,4310.000000,4329.102539,4314.487305,4288.717773,4518.077148,4525.384766,4405.641113,4522.051270,4672.000000,2.000000,36.000000,,,,0.000000,4.000000,4.000000,4.000000,4.000000,4.000000,4.000000,4.000000,4.000000,4.000000,4.000000,4.000000,4.000000,4.000000,4.000000,100.000000,,,,,,,,,,,,,,,,,,,,,,,,,,,,,,,,,,,,,,,,,,,,,,,,,,,,,,,,,,,,,,,,,,,,,,,,,,,,,,,,,,,,,,,,,,,,,,,,,,,,,,,,,,,,,,,,,,,,,
1768372189.644019,1768372189.644679,96.000000,0.000000,4326.538574,4312.436035,4342.692383,4354.358887,4307.307617,4323.205078,4308.717773,4325.128418,4312.051270,4286.922852,4517.307617,4526.666504,4406.922852,4523.974121,5021.000000,2.000000,36.000000,,,,0.000000,4.000000,4.000000,4.000000,4.000000,4.000000,4.000000,4.000000,4.000000,4.000000,4.000000,4.000000,4.000000,4.000000,4.000000,100.000000,,,,,,,,,,,,,,,,,,,,,,,,,,,,,,,,,,,,,,,,,,,,,,,,,,,,,,,,,,,,,,,,,,,,,,,,,,,,,,,,,,,,,,,,,,,,,,,,,,,,,,,,,,,,,,,,,,,,,
1768372189.651828,1768372189.652488,97.000000,0.000000,4327.820313,4311.282227,4342.948730,4353.461426,4310.769043,4327.307617,4313.077148,4321.922852,4310.641113,4288.846191,4521.794922,4530.641113,4411.922852,4533.333496,5412.000000,2.000000,36.000000,,,,0.000000,4.000000,4.000000,4.000000,4.000000,4.000000,4.000000,4.000000,4.000000,4.000000,4.000000,4.000000,4.000000,4.000000,4.000000,100.000000,,,,,,,,,,,,,,,,,,,,,,,,,,,,,,,,,,,,,,,,,,,,,,,,,,,,,,,,,,,,,,,,,,,,,,,,,,,,,,,,,,,,,,,,,,,,,,,,,,,,,,,,,,,,,,,,,,,,,
1768372189.659636,1768372189.660196,98.000000,0.000000,4327.051270,4310.897461,4339.615234,4350.384766,4309.102539,4325.769043,4310.641113,4326.153809,4312.051270,4291.282227,4524.743652,4533.077148,4415.128418,4535.256348,4402.000000,2.000000,36.000000,,,,0.000000,4.000000,4.000000,4.000000,4.000000,4.000000,4.000000,4.000000,4.000000,4.000000,4.000000,4.000000,4.000000,4.000000,4.000000,100.000000,,,,,,,,,,,,,,,,,,,,,,,,,,,,,,,,,,,,,,,,,,,,,,,,,,,,,,,,,,,,,,,,,,,,,,,,,,,,,,,,,,,,,,,,,,,,,,,,,,,,,,,,,,,,,,,,,,,,,
1768372189.667445,1768372189.668005,99.000000,0.000000,4323.461426,4310.256348,4340.897461,4347.051270,4307.563965,4324.871582,4310.512695,4331.410156,4312.307617,4290.769043,4512.948730,4528.333496,4403.974121,4522.051270,4672.000000,2.000000,36.000000,,,,0.000000,4.000000,4.000000,4.000000,4.000000,4.000000,4.000000,4.000000,4.000000,4.000000,4.000000,4.000000,4.000000,4.000000,4.000000,100.000000,,,,,,,,,,,,,,,,,,,,,,,,,,,,,,,,,,,,,,,,,,,,,,,,,,,,,,,,,,,,,,,,,,,,,,,,,,,,,,,,,,,,,,,,,,,,,,,,,,,,,,,,,,,,,,,,,,,,,
1768372189.675253,1768372189.676013,100.000000,0.000000,4322.820313,4307.563965,4342.436035,4344.358887,4309.743652,4326.666504,4311.282227,4326.922852,4309.871582,4289.230957,4511.410156,4526.153809,4399.615234,4522.563965,5021.000000,2.000000,36.000000,,,,0.000000,4.000000,4.000000,4.000000,4.000000,4.000000,4.000000,4.000000,4.000000,4.000000,4.000000,4.000000,4.000000,4.000000,4.000000,100.000000,,,,,,,,,,,,,,,,,,,,,,,,,,,,,,,,,,,,,,,,,,,,,,,,,,,,,,,,,,,,,,,,,,,,,,,,,,,,,,,,,,,,,,,,,,,,,,,,,,,,,,,,,,,,,,,,,,,,,
1768372189.683062,1768372189.683821,101.000000,0.000000,4328.717773,4307.051270,4341.794922,4345.128418,4309.230957,4326.153809,4314.230957,4322.436035,4311.410156,4290.769043,4527.051270,4538.461426,4420.000000,4543.717773,5412.000000,2.000000,36.000000,,,,0.000000,4.000000,4.000000,4.000000,4.000000,4.000000,4.000000,4.000000,4.000000,4.000000,4.000000,4.000000,4.000000,4.000000,4.000000,100.000000,,,,,,,,,,,,,,,,,,,,,,,,,,,,,,,,,,,,,,,,,,,,,,,,,,,,,,,,,,,,,,,,,,,,,,,,,,,,,,,,,,,,,,,,,,,,,,,,,,,,,,,,,,,,,,,,,,,,,
1768372189.690870,1768372189.691730,102.000000,0.000000,4328.974121,4309.102539,4343.846191,4348.333496,4308.717773,4326.666504,4320.000000,4328.846191,4315.641113,4292.436035,4530.769043,4544.871582,4430.128418,4550.256348,4402.000000,2.000000,36.000000,,,,0.000000,4.000000,4.000000,4.000000,4.000000,4.000000,4.000000,4.000000,4.000000,4.000000,4.000000,4.000000,4.000000,4.000000,4.000000,100.000000,,,,,,,,,,,,,,,,,,,,,,,,,,,,,,,,,,,,,,,,,,,,,,,,,,,,,,,,,,,,,,,,,,,,,,,,,,,,,,,,,,,,,,,,,,,,,,,,,,,,,,,,,,,,,,,,,,,,,
1768372189.698679,1768372189.699538,103.000000,0.000000,4326.410156,4310.256348,4343.461426,4347.820313,4311.025879,4325.128418,4320.641113,4335.000000,4315.256348,4292.051270,4522.179688,4536.025879,4413.717773,4540.384766,4672.000000,2.000000,36.000000,,,,0.000000,4.000000,4.000000,4.000000,4.000000,4.000000,4.000000,4.000000,4.000000,4.000000,4.000000,4.000000,4.000000,4.000000,4.000000,100.000000,,,,,,,,,,,,,,,,,,,,,,,,,,,,,,,,,,,,,,,,,,,,,,,,,,,,,,,,,,,,,,,,,,,,,,,,,,,,,,,,,,,,,,,,,,,,,,,,,,,,,,,,,,,,,,,,,,,,,
1768372189.706487,1768372189.707447,104.000000,0.000000,4326.922852,4311.922852,4336.794922,4344.743652,4311.410156,4323.077148,4317.436035,4332.692383,4312.820313,4291.538574,4520.769043,4530.512695,4407.436035,4533.077148,5021.000000,2.000000,36.000000,,,,0.000000,4.000000,4.000000,4.000000,4.000000,4.000000,4.000000,4.000000,4.000000,4.000000,4.000000,4.000000,4.000000,4.000000,4.000000,100.000000,,,,,,,,,,,,,,,,,,,,,,,,,,,,,,,,,,,,,,,,,,,,,,,,,,,,,,,,,,,,,,,,,,,,,,,,,,,,,,,,,,,,,,,,,,,,,,,,,,,,,,,,,,,,,,,,,,,,,
1768372189.714296,1768372189.715255,105.000000,0.000000,4319.615234,4305.897461,4334.487305,4344.230957,4310.000000,4326.410156,4321.282227,4333.589844,4316.538574,4294.230957,4523.589844,4532.820313,4414.743652,4529.487305,5412.000000,2.000000,36.000000,,,,0.000000,4.000000,4.000000,4.000000,4.000000,4.000000,4.000000,4.000000,4.000000,4.000000,4.000000,4.000000,4.000000,4.000000,4.000000,100.000000,,,,,,,,,,,,,,,,,,,,,,,,,,,,,,,,,,,,,,,,,,,,,,,,,,,,,,,,,,,,,,,,,,,,,,,,,,,,,,,,,,,,,,,,,,,,,,,,,,,,,,,,,,,,,,,,,,,,,
1768372189.722104,1768372189.722964,106.000000,0.000000,4315.384766,4301.410156,4340.769043,4343.077148,4310.128418,4328.974121,4326.025879,4337.692383,4325.384766,4295.769043,4523.077148,4538.974121,4411.922852,4532.436035,4402.000000,2.000000,36.000000,,,,0.000000,4.000000,4.000000,4.000000,4.000000,4.000000,4.000000,4.000000,4.000000,4.000000,4.000000,4.000000,4.000000,4.000000,4.000000,100.000000,,,,,,,,,,,,,,,,,,,,,,,,,,,,,,,,,,,,,,,,,,,,,,,,,,,,,,,,,,,,,,,,,,,,,,,,,,,,,,,,,,,,,,,,,,,,,,,,,,,,,,,,,,,,,,,,,,,,,
1768372189.729912,1768372189.730772,107.000000,0.000000,4321.282227,4305.769043,4344.615234,4340.769043,4309.871582,4324.358887,4321.153809,4334.871582,4323.846191,4296.410156,4523.846191,4541.282227,4409.743652,4539.230957,4672.000000,2.000000,36.000000,,,,0.000000,4.000000,4.000000,4.000000,4.000000,4.000000,4.000000,4.000000,4.000000,4.000000,4.000000,4.000000,4.000000,4.000000,4.000000,100.000000,,,,,,,,,,,,,,,,,,,,,,,,,,,,,,,,,,,,,,,,,,,,,,,,,,,,,,,,,,,,,,,,,,,,,,,,,,,,,,,,,,,,,,,,,,,,,,,,,,,,,,,,,,,,,,,,,,,,,
1768372189.737721,1768372189.738381,108.000000,0.000000,4322.692383,4303.974121,4339.487305,4341.282227,4308.077148,4319.358887,4316.025879,4328.717773,4313.461426,4297.820313,4522.692383,4535.256348,4413.589844,4534.358887,5021.000000,2.000000,36.000000,,,,0.000000,4.000000,4.000000,4.000000,4.000000,4.000000,4.000000,4.000000,4.000000,4.000000,4.000000,4.000000,4.000000,4.000000,4.000000,100.000000,,,,,,,,,,,,,,,,,,,,,,,,,,,,,,,,,,,,,,,,,,,,,,,,,,,,,,,,,,,,,,,,,,,,,,,,,,,,,,,,,,,,,,,,,,,,,,,,,,,,,,,,,,,,,,,,,,,,,
1768372189.745529,1768372189.746189,109.000000,0.000000,4317.179688,4298.717773,4333.846191,4341.538574,4308.461426,4323.846191,4320.897461,4329.615234,4315.641113,4299.871582,4521.410156,4533.333496,4412.307617,4530.128418,5412.000000,2.000000,36.000000,,,,0.000000,4.000000,4.000000,4.000000,4.000000,4.000000,4.000000,4.000000,4.000000,4.000000,4.000000,4.000000,4.000000,4.000000,4.000000,100.000000,,,,,,,,,,,,,,,,,,,,,,,,,,,,,,,,,,,,,,,,,,,,,,,,,,,,,,,,,,,,,,,,,,,,,,,,,,,,,,,,,,,,,,,,,,,,,,,,,,,,,,,,,,,,,,,,,,,,,
1768372189.753338,1768372189.753898,110.000000,0.000000,4313.333496,4303.205078,4335.769043,4339.358887,4310.384766,4328.077148,4323.333496,4336.410156,4324.871582,4304.102539,4523.461426,4543.846191,4411.922852,4539.743652,4402.000000,2.000000,36.000000,,,,0.000000,4.000000,4.000000,4.000000,4.000000,4.000000,4.000000,4.000000,4.000000,4.000000,4.000000,4.000000,4.000000,4.000000,4.000000,100.000000,,,,,,,,,,,,,,,,,,,,,,,,,,,,,,,,,,,,,,,,,,,,,,,,0.789179,0.364722,0.619357,0.318746,0.238700,0.282508,0.183552,0.185151,0.103987,0.103661,0.972042,0.332932,0.161852,0.140914,0.108518,0.269522,0.126383,0.173979,0.094792,0.114517,0.318673,0.130138,0.050059,0.060310,0.037149,0.304169,0.110692,0.233258,0.085389,0.121846,0.483477,0.288596,0.289812,0.095718,0.060233,1.218297,0.342276,0.202067,0.131720,0.120658,0.678206,0.376229,0.113505,0.176224,0.111993,1.343860,0.646905,0.171244,0.185778,0.099602,1.047176,0.847712,0.675420,0.363029,0.235861,1.405257,1.047073,0.525141,0.211111,0.206933,1.889284,0.627347,0.351677,0.261065,0.193747,1.548171,0.581648,0.499469,0.296465,0.219361
1768372189.761146,1768372189.761706,111.000000,0.000000,4316.410156,4304.358887,4339.487305,4337.307617,4310.256348,4322.051270,4312.820313,4335.897461,4319.615234,4306.922852,4527.820313,4545.128418,4416.922852,4538.974121,4672.000000,2.000000,36.000000,,,,0.000000,4.000000,4.000000,4.000000,4.000000,4.000000,4.000000,4.000000,4.000000,4.000000,4.000000,4.000000,4.000000,4.000000,4.000000,100.000000,,,,,,,,,,,,,,,,,,,,,,,,,,,,,,,,,,,,,,,,,,,,,,,,,,,,,,,,,,,,,,,,,,,,,,,,,,,,,,,,,,,,,,,,,,,,,,,,,,,,,,,,,,,,,,,,,,,,,
1768372189.768955,1768372189.769315,112.000000,0.000000,4320.512695,4296.410156,4339.871582,4335.769043,4308.846191,4318.461426,4309.230957,4332.051270,4308.974121,4302.051270,4521.282227,4531.410156,4414.358887,4524.871582,5021.000000,2.000000,36.000000,,,,0.000000,4.000000,4.000000,4.000000,4.000000,4.000000,4.000000,4.000000,4.000000,4.000000,4.000000,4.000000,4.000000,4.000000,4.000000,100.000000,,,,,,,,,,,,,,,,,,,,,,,,,,,,,,,,,,,,,,,,,,,,,,,,,,,,,,,,,,,,,,,,,,,,,,,,,,,,,,,,,,,,,,,,,,,,,,,,,,,,,,,,,,,,,,,,,,,,,
1768372189.776763,1768372189.777123,113.000000,0.000000,4316.922852,4294.871582,4340.641113,4331.410156,4308.077148,4323.717773,4318.333496,4330.384766,4308.717773,4293.974121,4509.487305,4525.512695,4405.384766,4518.846191,5412.000000,2.000000,36.000000,,,,0.000000,4.000000,4.000000,4.000000,4.000000,4.000000,4.000000,4.000000,4.000000,4.000000,4.000000,4.000000,4.000000,4.000000,4.000000,100.000000,,,,,,,,,,,,,,,,,,,,,,,,,,,,,,,,,,,,,,,,,,,,,,,,,,,,,,,,,,,,,,,,,,,,,,,,,,,,,,,,,,,,,,,,,,,,,,,,,,,,,,,,,,,,,,,,,,,,,
1768372189.784572,1768372189.784832,114.000000,0.000000,4308.333496,4295.769043,4337.307617,4326.025879,4309.871582,4326.538574,4321.410156,4331.282227,4315.256348,4297.307617,4513.974121,4530.512695,4406.922852,4522.436035,4402.000000,2.000000,36.000000,,,,0.000000,4.000000,4.000000,4.000000,4.000000,4.000000,4.000000,4.000000,4.000000,4.000000,4.000000,4.000000,4.000000,4.000000,4.000000,100.000000,,,,,,,,,,,,,,,,,,,,,,,,,,,,,,,,,,,,,,,,,,,,,,,,,,,,,,,,,,,,,,,,,,,,,,,,,,,,,,,,,,,,,,,,,,,,,,,,,,,,,,,,,,,,,,,,,,,,,
1768372189.792380,1768372189.792640,115.000000,0.000000,4308.205078,4292.692383,4328.974121,4326.282227,4307.051270,4322.436035,4320.256348,4339.871582,4320.512695,4302.563965,4523.589844,4534.487305,4411.666504,4524.487305,4672.000000,2.000000,36.000000,,,,0.000000,4.000000,4.000000,4.000000,4.000000,4.000000,4.000000,4.000000,4.000000,4.000000,4.000000,4.000000,4.000000,4.000000,4.000000,100.000000,,,,,,,,,,,,,,,,,,,,,,,,,,,,,,,,,,,,,,,,,,,,,,,,,,,,,,,,,,,,,,,,,,,,,,,,,,,,,,,,,,,,,,,,,,,,,,,,,,,,,,,,,,,,,,,,,,,,,
1768372189.800188,1768372189.800249,116.000000,0.000000,4312.179688,4293.205078,4327.307617,4328.077148,4301.025879,4320.641113,4321.666504,4342.948730,4321.538574,4300.897461,4521.025879,4532.948730,4407.692383,4522.436035,5021.000000,2.000000,36.000000,,,,0.000000,4.000000,4.000000,4.000000,4.000000,4.000000,4.000000,4.000000,4.000000,4.000000,4.000000,4.000000,4.000000,4.000000,4.000000,100.000000,,,,,,,,,,,,,,,,,,,,,,,,,,,,,,,,,,,,,,,,,,,,,,,,,,,,,,,,,,,,,,,,,,,,,,,,,,,,,,,,,,,,,,,,,,,,,,,,,,,,,,,,,,,,,,,,,,,,,
1768372189.807997,1768372189.808057,117.000000,0.000000,4309.358887,4294.615234,4335.512695,4326.666504,4300.769043,4322.948730,4319.743652,4337.692383,4320.384766,4305.512695,4520.512695,4532.436035,4408.077148,4520.897461,5412.000000,2.000000,36.000000,,,,0.000000,4.000000,4.000000,4.000000,4.000000,4.000000,4.000000,4.000000,4.000000,4.000000,4.000000,4.000000,4.000000,4.000000,4.000000,100.000000,,,,,,,,,,,,,,,,,,,,,,,,,,,,,,,,,,,,,,,,,,,,,,,,,,,,,,,,,,,,,,,,,,,,,,,,,,,,,,,,,,,,,,,,,,,,,,,,,,,,,,,,,,,,,,,,,,,,,
1768372189.815805,1768372189.815966,118.000000,0.000000,4308.205078,4293.846191,4336.410156,4326.025879,4303.461426,4321.410156,4313.846191,4333.974121,4318.589844,4306.666504,4521.153809,4531.153809,4412.820313,4521.666504,4402.000000,2.000000,36.000000,,,,0.000000,4.000000,4.000000,4.000000,4.000000,4.000000,4.000000,4.000000,4.000000,4.000000,4.000000,4.000000,4.000000,4.000000,4.000000,100.000000,,,,,,,,,,,,,,,,,,,,,,,,,,,,,,,,,,,,,,,,,,,,,,,,,,,,,,,,,,,,,,,,,,,,,,,,,,,,,,,,,,,,,,,,,,,,,,,,,,,,,,,,,,,,,,,,,,,,,
1768372189.823614,1768372189.823774,119.000000,0.000000,4315.769043,4297.436035,4328.461426,4328.589844,4303.717773,4312.179688,4309.358887,4330.128418,4312.692383,4295.128418,4511.922852,4524.487305,4408.589844,4520.128418,4672.000000,2.000000,36.000000,,,,0.000000,4.000000,4.000000,4.000000,4.000000,4.000000,4.000000,4.000000,4.000000,4.000000,4.000000,4.000000,4.000000,4.000000,4.000000,100.000000,,,,,,,,,,,,,,,,,,,,,,,,,,,,,,,,,,,,,,,,,,,,,,,,,,,,,,,,,,,,,,,,,,,,,,,,,,,,,,,,,,,,,,,,,,,,,,,,,,,,,,,,,,,,,,,,,,,,,
1768372189.831422,1768372189.831782,120.000000,0.000000,4323.589844,4305.512695,4329.487305,4333.461426,4305.000000,4307.307617,4308.077148,4330.256348,4310.128418,4293.974121,4512.820313,4526.282227,4406.922852,4521.794922,5021.000000,2.000000,36.000000,,,,0.000000,4.000000,4.000000,4.000000,4.000000,4.000000,4.000000,4.000000,4.000000,4.000000,4.000000,4.000000,4.000000,4.000000,4.000000,100.000000,,,,,,,,,,,,,,,,,,,,,,,,,,,,,,,,,,,,,,,,,,,,,,,,,,,,,,,,,,,,,,,,,,,,,,,,,,,,,,,,,,,,,,,,,,,,,,,,,,,,,,,,,,,,,,,,,,,,,
1768372189.839231,1768372189.839591,121.000000,0.000000,4325.384766,4309.487305,4338.205078,4338.974121,4309.871582,4313.717773,4309.871582,4336.922852,4313.974121,4306.794922,4525.384766,4534.871582,4415.897461,4528.205078,5412.000000,2.000000,36.000000,,,,0.000000,4.000000,4.000000,4.000000,4.000000,4.000000,4.000000,4.000000,4.000000,4.000000,4.000000,4.000000,4.000000,4.000000,4.000000,100.000000,,,,,,,,,,,,,,,,,,,,,,,,,,,,,,,,,,,,,,,,,,,,,,,,,,,,,,,,,,,,,,,,,,,,,,,,,,,,,,,,,,,,,,,,,,,,,,,,,,,,,,,,,,,,,,,,,,,,,
1768372189.847039,1768372189.847499,122.000000,0.000000,4327.948730,4308.589844,4342.307617,4340.769043,4311.794922,4314.615234,4309.615234,4336.794922,4312.820313,4307.948730,4526.153809,4535.512695,4417.307617,4530.769043,4402.000000,2.000000,36.000000,,,,0.000000,4.000000,4.000000,4.000000,4.000000,4.000000,4.000000,4.000000,4.000000,4.000000,4.000000,4.000000,4.000000,4.000000,4.000000,100.000000,,,,,,,,,,,,,,,,,,,,,,,,,,,,,,,,,,,,,,,,,,,,,,,,,,,,,,,,,,,,,,,,,,,,,,,,,,,,,,,,,,,,,,,,,,,,,,,,,,,,,,,,,,,,,,,,,,,,,
1768372189.854848,1768372189.855308,123.000000,0.000000,4331.538574,4307.179688,4341.794922,4339.230957,4310.897461,4308.333496,4307.563965,4329.102539,4309.871582,4299.487305,4522.179688,4533.205078,4410.897461,4527.179688,4672.000000,2.000000,36.000000,,,,0.000000,4.000000,4.000000,4.000000,4.000000,4.000000,4.000000,4.000000,4.000000,4.000000,4.000000,4.000000,4.000000,4.000000,4.000000,100.000000,,,,,,,,,,,,,,,,,,,,,,,,,,,,,,,,,,,,,,,,,,,,,,,,,,,,,,,,,,,,,,,,,,,,,,,,,,,,,,,,,,,,,,,,,,,,,,,,,,,,,,,,,,,,,,,,,,,,,
1768372189.862656,1768372189.862916,124.000000,0.000000,4328.589844,4307.563965,4340.128418,4338.974121,4310.641113,4312.307617,4309.615234,4329.102539,4311.666504,4302.179688,4524.230957,4533.077148,4416.153809,4522.563965,5021.000000,2.000000,36.000000,,,,0.000000,4.000000,4.000000,4.000000,4.000000,4.000000,4.000000,4.000000,4.000000,4.000000,4.000000,4.000000,4.000000,4.000000,4.000000,100.000000,,,,,,,,,,,,,,,,,,,,,,,,,,,,,,,,,,,,,,,,,,,,,,,,,,,,,,,,,,,,,,,,,,,,,,,,,,,,,,,,,,,,,,,,,,,,,,,,,,,,,,,,,,,,,,,,,,,,,
1768372189.870464,1768372189.870725,125.000000,0.000000,4327.436035,4308.461426,4337.051270,4339.230957,4311.153809,4320.128418,4311.538574,4330.256348,4311.922852,4307.948730,4525.641113,4529.487305,4426.410156,4529.615234,5412.000000,2.000000,36.000000,,,,0.000000,4.000000,4.000000,4.000000,4.000000,4.000000,4.000000,4.000000,4.000000,4.000000,4.000000,4.000000,4.000000,4.000000,4.000000,100.000000,,,,,,,,,,,,,,,,,,,,,,,,,,,,,,,,,,,,,,,,,,,,,,,,,,,,,,,,,,,,,,,,,,,,,,,,,,,,,,,,,,,,,,,,,,,,,,,,,,,,,,,,,,,,,,,,,,,,,
1768372189.878273,1768372189.878633,126.000000,0.000000,4328.589844,4311.410156,4336.794922,4338.461426,4311.666504,4315.769043,4308.333496,4321.922852,4309.102539,4303.205078,4524.102539,4524.871582,4422.051270,4537.948730,4402.000000,2.000000,36.000000,,,,0.000000,4.000000,4.000000,4.000000,4.000000,4.000000,4.000000,4.000000,4.000000,4.000000,4.000000,4.000000,4.000000,4.000000,4.000000,100.000000,,,,,,,,,,,,,,,,,,,,,,,,,,,,,,,,,,,,,,,,,,,,,,,,0.730772,0.426976,0.757478,0.264744,0.209913,0.320760,0.239127,0.217203,0.112681,0.100853,1.064886,0.345171,0.183316,0.121087,0.099130,0.293919,0.167613,0.189401,0.092211,0.103538,0.272958,0.106841,0.054653,0.068358,0.037475,0.291600,0.109895,0.208134,0.082946,0.120332,0.509010,0.267661,0.215675,0.098240,0.060573,1.283516,0.434483,0.157840,0.113231,0.120984,0.716316,0.420256,0.098766,0.163718,0.112170,1.287551,0.762983,0.220653,0.163422,0.090908,1.031285,0.858998,0.747083,0.328788,0.229375,1.501841,1.136339,0.540294,0.180560,0.208081,1.829353,0.678235,0.385107,0.270711,0.193008,1.639744,0.657906,0.601117,0.303172,0.226301
1768372189.886081,1768372189.886442,127.000000,0.000000,4328.333496,4315.000000,4341.025879,4338.461426,4310.384766,4308.589844,4307.820313,4317.692383,4307.051270,4298.333496,4523.205078,4523.717773,4415.000000,4532.307617,36.000000,2.000000,36.000000,,,,0.000000,4.000000,4.000000,4.000000,4.000000,4.000000,4.000000,4.000000,4.000000,4.000000,4.000000,4.000000,4.000000,4.000000,4.000000,100.000000,,,,,,,,,,,,,,,,,,,,,,,,,,,,,,,,,,,,,,,,,,,,,,,,,,,,,,,,,,,,,,,,,,,,,,,,,,,,,,,,,,,,,,,,,,,,,,,,,,,,,,,,,,,,,,,,,,,,,
1768372189.893890,1768372189.894450,0.000000,0.000000,4332.179688,4315.128418,4341.410156,4340.897461,4311.025879,4310.000000,4311.153809,4323.846191,4310.512695,4303.461426,4524.615234,4525.641113,4423.077148,4528.333496,4048.000000,2.000000,36.000000,,,,0.000000,4.000000,4.000000,4.000000,4.000000,4.000000,4.000000,4.000000,4.000000,4.000000,4.000000,4.000000,4.000000,4.000000,4.000000,100.000000,,,,,,,,,,,,,,,,,,,,,,,,,,,,,,,,,,,,,,,,,,,,,,,,,,,,,,,,,,,,,,,,,,,,,,,,,,,,,,,,,,,,,,,,,,,,,,,,,,,,,,,,,,,,,,,,,,,,,
1768372189.901698,1768372189.902258,1.000000,0.000000,4334.871582,4315.512695,4341.153809,4341.538574,4311.538574,4314.102539,4311.282227,4327.820313,4311.666504,4302.948730,4525.512695,4528.974121,4422.563965,4530.256348,3981.000000,2.000000,36.000000,,,,0.000000,4.000000,4.000000,4.000000,4.000000,4.000000,4.000000,4.000000,4.000000,4.000000,4.000000,4.000000,4.000000,4.000000,4.000000,100.000000,,,,,,,,,,,,,,,,,,,,,,,,,,,,,,,,,,,,,,,,,,,,,,,,,,,,,,,,,,,,,,,,,,,,,,,,,,,,,,,,,,,,,,,,,,,,,,,,,,,,,,,,,,,,,,,,,,,,,
1768372189.909506,1768372189.909967,2.000000,0.000000,4328.205078,4316.794922,4341.153809,4337.436035,4310.769043,4315.641113,4309.102539,4325.769043,4307.307617,4293.974121,4520.256348,4527.307617,4406.794922,4522.820313,3882.000000,2.000000,36.000000,,,,0.000000,4.000000,4.000000,4.000000,4.000000,4.000000,4.000000,4.000000,4.000000,4.000000,4.000000,4.000000,4.000000,4.000000,4.000000,100.000000,,,,,,,,,,,,,,,,,,,,,,,,,,,,,,,,,,,,,,,,,,,,,,,,,,,,,,,,,,,,,,,,,,,,,,,,,,,,,,,,,,,,,,,,,,,,,,,,,,,,,,,,,,,,,,,,,,,,,
1768372189.917315,1768372189.917775,3.000000,0.000000,4326.538574,4315.256348,4340.000000,4335.769043,4312.820313,4314.102539,4308.846191,4322.692383,4304.871582,4295.897461,4520.000000,4524.230957,4413.846191,4521.025879,3864.000000,2.000000,36.000000,,,,0.000000,4.000000,4.000000,4.000000,4.000000,4.000000,4.000000,4.000000,4.000000,4.000000,4.000000,4.000000,4.000000,4.000000,4.000000,100.000000,,,,,,,,,,,,,,,,,,,,,,,,,,,,,,,,,,,,,,,,,,,,,,,,,,,,,,,,,,,,,,,,,,,,,,,,,,,,,,,,,,,,,,,,,,,,,,,,,,,,,,,,,,,,,,,,,,,,,
1768372189.925123,1768372189.925484,4.000000,0.000000,4331.410156,4310.897461,4337.307617,4333.589844,4313.717773,4311.025879,4310.769043,4321.922852,4307.307617,4299.230957,4525.769043,4526.153809,4427.051270,4530.641113,3769.000000,2.000000,36.000000,,,,0.000000,4.000000,4.000000,4.000000,4.000000,4.000000,4.000000,4.000000,4.000000,4.000000,4.000000,4.000000,4.000000,4.000000,4.000000,100.000000,,,,,,,,,,,,,,,,,,,,,,,,,,,,,,,,,,,,,,,,,,,,,,,,,,,,,,,,,,,,,,,,,,,,,,,,,,,,,,,,,,,,,,,,,,,,,,,,,,,,,,,,,,,,,,,,,,,,,
1768372189.932932,1768372189.933292,5.000000,0.000000,4324.743652,4304.102539,4332.820313,4324.743652,4307.948730,4311.410156,4310.256348,4325.384766,4308.205078,4292.307617,4522.436035,4524.487305,4414.487305,4526.153809,3744.000000,2.000000,36.000000,,,,0.000000,4.000000,4.000000,4.000000,4.000000,4.000000,4.000000,4.000000,4.000000,4.000000,4.000000,4.000000,4.000000,4.000000,4.000000,100.000000,,,,,,,,,,,,,,,,,,,,,,,,,,,,,,,,,,,,,,,,,,,,,,,,,,,,,,,,,,,,,,,,,,,,,,,,,,,,,,,,,,,,,,,,,,,,,,,,,,,,,,,,,,,,,,,,,,,,,
1768372189.940740,1768372189.941001,6.000000,0.000000,4320.128418,4307.563965,4336.538574,4325.897461,4309.102539,4314.358887,4307.820313,4332.948730,4311.666504,4298.717773,4522.820313,4529.615234,4412.179688,4525.897461,3744.000000,2.000000,36.000000,,,,0.000000,4.000000,4.000000,4.000000,4.000000,4.000000,4.000000,4.000000,4.000000,4.000000,4.000000,4.000000,4.000000,4.000000,4.000000,100.000000,,,,,,,,,,,,,,,,,,,,,,,,,,,,,,,,,,,,,,,,,,,,,,,,,,,,,,,,,,,,,,,,,,,,,,,,,,,,,,,,,,,,,,,,,,,,,,,,,,,,,,,,,,,,,,,,,,,,,
1768372189.948549,1768372189.948809,7.000000,0.000000,4335.000000,4321.282227,4346.922852,4340.256348,4319.230957,4320.256348,4315.256348,4337.051270,4322.051270,4316.025879,4538.461426,4544.743652,4433.461426,4542.436035,3750.000000,2.000000,36.000000,,,,0.000000,4.000000,4.000000,4.000000,4.000000,4.000000,4.000000,4.000000,4.000000,4.000000,4.000000,4.000000,4.000000,4.000000,4.000000,100.000000,,,,,,,,,,,,,,,,,,,,,,,,,,,,,,,,,,,,,,,,,,,,,,,,,,,,,,,,,,,,,,,,,,,,,,,,,,,,,,,,,,,,,,,,,,,,,,,,,,,,,,,,,,,,,,,,,,,,,
