title:apple_23, start timestamp:1768372139.615370, stop timestamp:1768372169.568550, headset type:EPOCX, headset serial:E5020E3B, headset firmware:730, channels:156, sampling rate:eeg_128;pm_0.1;pow_8, samples:3837      , version:2.2, 
Timestamp,OriginalTimestamp,EEG.Counter,EEG.Interpolated,EEG.AF3,EEG.F7,EEG.F3,EEG.FC5,EEG.T7,EEG.P7,EEG.O1,EEG.O2,EEG.P8,EEG.T8,EEG.FC6,EEG.F4,EEG.F8,EEG.AF4,EEG.RawCq,EEG.Battery,EEG.BatteryPercent,MarkerIndex,MarkerType,MarkerValueInt,EEG.MarkerHardware,CQ.AF3,CQ.F7,CQ.F3,CQ.FC5,CQ.T7,CQ.P7,CQ.O1,CQ.O2,CQ.P8,CQ.T8,CQ.FC6,CQ.F4,CQ.F8,CQ.AF4,CQ.Overall,EQ.SampleRateQuality,EQ.OVERALL,EQ.AF3,EQ.F7,EQ.F3,EQ.FC5,EQ.T7,EQ.P7,EQ.O1,EQ.O2,EQ.P8,EQ.T8,EQ.FC6,EQ.F4,EQ.F8,EQ.AF4,PM.Attention.IsActive,PM.Attention.Scaled,PM.Attention.Raw,PM.Attention.Min,PM.Attention.Max,PM.Engagement.IsActive,PM.Engagement.Scaled,PM.Engagement.Raw,PM.Engagement.Min,PM.Engagement.Max,PM.Excitement.IsActive,PM.Excitement.Scaled,PM.Excitement.Raw,PM.Excitement.Min,PM.Excitement.Max,PM.LongTermExcitement,PM.Stress.IsActive,PM.Stress.Scaled,PM.Stress.Raw,PM.Stress.Min,PM.Stress.Max,PM.Relaxation.IsActive,PM.Relaxation.Scaled,PM.Relaxation.Raw,PM.Relaxation.Min,PM.Relaxation.Max,PM.Interest.IsActive,PM.Interest.Scaled,PM.Interest.Raw,PM.Interest.Min,PM.Interest.Max,POW.AF3.Theta,POW.AF3.Alpha,POW.AF3.BetaL,POW.AF3.BetaH,POW.AF3.Gamma,POW.F7.Theta,POW.F7.Alpha,POW.F7.BetaL,POW.F7.BetaH,POW.F7.Gamma,POW.F3.Theta,POW.F3.Alpha,POW.F3.BetaL,POW.F3.BetaH,POW.F3.Gamma,POW.FC5.Theta,POW.FC5.Alpha,POW.FC5.BetaL,POW.FC5.BetaH,POW.FC5.Gamma,POW.T7.Theta,POW.T7.Alpha,POW.T7.BetaL,POW.T7.BetaH,POW.T7.Gamma,POW.P7.Theta,POW.P7.Alpha,POW.P7.BetaL,POW.P7.BetaH,POW.P7.Gamma,POW.O1.Theta,POW.O1.Alpha,POW.O1.BetaL,POW.O1.BetaH,POW.O1.Gamma,POW.O2.Theta,POW.O2.Alpha,POW.O2.BetaL,POW.O2.BetaH,POW.O2.Gamma,POW.P8.Theta,POW.P8.Alpha,POW.P8.BetaL,POW.P8.BetaH,POW.P8.Gamma,POW.T8.Theta,POW.T8.Alpha,POW.T8.BetaL,POW.T8.BetaH,POW.T8.Gamma,POW.FC6.Theta,POW.FC6.Alpha,POW.FC6.BetaL,POW.FC6.BetaH,POW.FC6.Gamma,POW.F4.Theta,POW.F4.Alpha,POW.F4.BetaL,POW.F4.BetaH,POW.F4.Gamma,POW.F8.Theta,POW.F8.Alpha,POW.F8.BetaL,POW.F8.BetaH,POW.F8.Gamma,POW.AF4.Theta,POW.AF4.Alpha,POW.AF4.BetaL,POW.AF4.BetaH,POW.AF4.Gamma
1768372139.615370,1768372139.615951,89.000000,0.000000,4294.358887,4314.230957,4341.282227,4330.000000,4290.512695,4300.769043,4298.461426,4432.820313,4330.000000,4330.384766,4572.692383,4575.769043,4452.692383,4506.538574,5395.000000,2.000000,37.000000,,,,0.000000,4.000000,4.000000,4.000000,4.000000,4.000000,4.000000,4.000000,4.000000,4.000000,4.000000,4.000000,4.000000,4.000000,4.000000,100.000000,,,,,,,,,,,,,,,,,,,,,,,,,,,,,,,,,,,,,,,,,,,,,,,,,,,,,,,,,,,,,,,,,,,,,,,,,,,,,,,,,,,,,,,,,,,,,,,,,,,,,,,,,,,,,,,,,,,,,
1768372139.623179,1768372139.623859,90.000000,0.000000,4294.230957,4317.051270,4348.589844,4330.256348,4292.820313,4304.743652,4297.436035,4433.077148,4333.205078,4334.743652,4572.820313,4582.692383,4458.205078,4508.205078,4395.000000,2.000000,37.000000,,,,0.000000,4.000000,4.000000,4.000000,4.000000,4.000000,4.000000,4.000000,4.000000,4.000000,4.000000,4.000000,4.000000,4.000000,4.000000,100.000000,,,,,,,,,,,,,,,,,,,,,,,,,,,,,,,,,,,,,,,,,,,,,,,,,,,,,,,,,,,,,,,,,,,,,,,,,,,,,,,,,,,,,,,,,,,,,,,,,,,,,,,,,,,,,,,,,,,,,
1768372139.630987,1768372139.631668,91.000000,0.000000,4294.230957,4319.615234,4351.282227,4330.000000,4292.179688,4298.717773,4295.512695,4424.615234,4327.307617,4329.102539,4569.743652,4581.153809,4456.922852,4497.307617,4667.000000,2.000000,37.000000,,,,0.000000,4.000000,4.000000,4.000000,4.000000,4.000000,4.000000,4.000000,4.000000,4.000000,4.000000,4.000000,4.000000,4.000000,4.000000,100.000000,,,,,,,,,,,,,,,,,,,,,,,,,,,,,,,,,,,,,,,,,,,,,,,,,,,,,,,,,,,,,,,,,,,,,,,,,,,,,,,,,,,,,,,,,,,,,,,,,,,,,,,,,,,,,,,,,,,,,
1768372139.638796,1768372139.639676,92.000000,0.000000,4294.230957,4319.358887,4346.410156,4329.871582,4293.846191,4301.153809,4300.384766,4425.256348,4325.641113,4329.487305,4569.871582,4578.974121,4457.307617,4489.743652,5016.000000,2.000000,37.000000,,,,0.000000,4.000000,4.000000,4.000000,4.000000,4.000000,4.000000,4.000000,4.000000,4.000000,4.000000,4.000000,4.000000,4.000000,4.000000,100.000000,,,,,,,,,,,,,,,,,,,,,,,,,,,,,,,,,,,,,,,,,,,,,,,,,,,,,,,,,,,,,,,,,,,,,,,,,,,,,,,,,,,,,,,,,,,,,,,,,,,,,,,,,,,,,,,,,,,,,
1768372139.646604,1768372139.647485,93.000000,0.000000,4293.974121,4313.974121,4343.461426,4328.461426,4294.615234,4304.487305,4300.769043,4427.820313,4328.205078,4333.846191,4570.256348,4577.436035,4455.000000,4491.794922,5395.000000,2.000000,37.000000,,,,0.000000,4.000000,4.000000,4.000000,4.000000,4.000000,4.000000,4.000000,4.000000,4.000000,4.000000,4.000000,4.000000,4.000000,4.000000,100.000000,,,,,,,,,,,,,,,,,,,,,,,,,,,,,,,,,,,,,,,,,,,,,,,,,,,,,,,,,,,,,,,,,,,,,,,,,,,,,,,,,,,,,,,,,,,,,,,,,,,,,,,,,,,,,,,,,,,,,
1768372139.654413,1768372139.655393,94.000000,0.000000,4294.358887,4310.256348,4342.436035,4327.436035,4292.436035,4298.589844,4292.692383,4415.897461,4322.051270,4330.641113,4566.025879,4569.358887,4446.922852,4490.769043,4395.000000,2.000000,37.000000,,,,0.000000,4.000000,4.000000,4.000000,4.000000,4.000000,4.000000,4.000000,4.000000,4.000000,4.000000,4.000000,4.000000,4.000000,4.000000,100.000000,,,,,,,,,,,,,,,,,,,,,,,,,,,,,,,,,,,,,,,,,,,,,,,,0.690789,0.232673,0.195320,0.210145,0.131966,0.411501,0.203092,0.041569,0.182218,0.072652,0.991054,0.313332,0.131093,0.154507,0.155043,0.283786,0.157560,0.057480,0.209169,0.082114,0.138426,0.089115,0.009937,0.044341,0.041072,0.547311,0.243687,0.305112,0.081271,0.086003,0.252341,0.423805,0.579605,0.159728,0.137078,0.377219,0.761654,0.563098,0.097335,0.136365,0.266928,0.552805,0.564709,0.117202,0.153040,0.299692,0.464989,0.258301,0.194192,0.113687,0.739354,0.687510,0.351130,0.370792,0.245711,1.114997,0.756597,0.448417,0.266582,0.200452,0.716206,0.534678,0.279876,0.403250,0.209547,1.133317,0.721651,0.513882,0.407216,0.225644
1768372139.662221,1768372139.663201,95.000000,0.000000,4294.358887,4314.102539,4341.025879,4326.538574,4293.333496,4299.743652,4292.436035,4408.974121,4319.615234,4325.256348,4562.051270,4561.538574,4443.333496,4485.769043,4667.000000,2.000000,37.000000,,,,0.000000,4.000000,4.000000,4.000000,4.000000,4.000000,4.000000,4.000000,4.000000,4.000000,4.000000,4.000000,4.000000,4.000000,4.000000,100.000000,,,,,,,,,,,,,,,,,,,,,,,,,,,,,,,,,,,,,,,,,,,,,,,,,,,,,,,,,,,,,,,,,,,,,,,,,,,,,,,,,,,,,,,,,,,,,,,,,,,,,,,,,,,,,,,,,,,,,
1768372139.670030,1768372139.670810,96.000000,0.000000,4293.461426,4319.102539,4343.333496,4326.666504,4296.794922,4308.333496,4301.922852,4415.384766,4327.436035,4326.666504,4563.589844,4562.692383,4447.820313,4486.282227,5016.000000,2.000000,37.000000,,,,0.000000,4.000000,4.000000,4.000000,4.000000,4.000000,4.000000,4.000000,4.000000,4.000000,4.000000,4.000000,4.000000,4.000000,4.000000,100.000000,,,,,,,,,,,,,,,,,,,,,,,,,,,,,,,,,,,,,,,,,,,,,,,,,,,,,,,,,,,,,,,,,,,,,,,,,,,,,,,,,,,,,,,,,,,,,,,,,,,,,,,,,,,,,,,,,,,,,
1768372139.677838,1768372139.678618,97.000000,0.000000,4295.128418,4321.666504,4346.282227,4330.897461,4295.769043,4307.563965,4306.666504,4417.179688,4329.487305,4332.051270,4569.102539,4570.769043,4457.307617,4486.538574,5395.000000,2.000000,37.000000,,,,0.000000,4.000000,4.000000,4.000000,4.000000,4.000000,4.000000,4.000000,4.000000,4.000000,4.000000,4.000000,4.000000,4.000000,4.000000,100.000000,,,,,,,,,,,,,,,,,,,,,,,,,,,,,,,,,,,,,,,,,,,,,,,,,,,,,,,,,,,,,,,,,,,,,,,,,,,,,,,,,,,,,,,,,,,,,,,,,,,,,,,,,,,,,,,,,,,,,
1768372139.685646,1768372139.686327,98.000000,0.000000,4298.461426,4325.641113,4344.743652,4336.282227,4294.358887,4305.641113,4304.871582,4413.717773,4326.922852,4334.871582,4570.384766,4573.846191,4457.948730,4480.769043,4395.000000,2.000000,37.000000,,,,0.000000,4.000000,4.000000,4.000000,4.000000,4.000000,4.000000,4.000000,4.000000,4.000000,4.000000,4.000000,4.000000,4.000000,4.000000,100.000000,,,,,,,,,,,,,,,,,,,,,,,,,,,,,,,,,,,,,,,,,,,,,,,,,,,,,,,,,,,,,,,,,,,,,,,,,,,,,,,,,,,,,,,,,,,,,,,,,,,,,,,,,,,,,,,,,,,,,
1768372139.693455,1768372139.694135,99.000000,0.000000,4297.179688,4329.487305,4341.410156,4335.641113,4295.128418,4307.307617,4301.153809,4410.897461,4325.769043,4330.256348,4562.179688,4566.538574,4448.205078,4473.333496,4667.000000,2.000000,37.000000,,,,0.000000,4.000000,4.000000,4.000000,4.000000,4.000000,4.000000,4.000000,4.000000,4.000000,4.000000,4.000000,4.000000,4.000000,4.000000,100.000000,,,,,,,,,,,,,,,,,,,,,,,,,,,,,,,,,,,,,,,,,,,,,,,,,,,,,,,,,,,,,,,,,,,,,,,,,,,,,,,,,,,,,,,,,,,,,,,,,,,,,,,,,,,,,,,,,,,,,
1768372139.701263,1768372139.702144,100.000000,0.000000,4295.769043,4331.538574,4341.410156,4335.769043,4294.615234,4306.153809,4300.897461,4408.717773,4323.461426,4324.871582,4558.333496,4562.436035,4446.153809,4471.666504,5016.000000,2.000000,37.000000,,,,0.000000,4.000000,4.000000,4.000000,4.000000,4.000000,4.000000,4.000000,4.000000,4.000000,4.000000,4.000000,4.000000,4.000000,4.000000,100.000000,,,,,,,,,,,,,,,,,,,,,,,,,,,,,,,,,,,,,,,,,,,,,,,,,,,,,,,,,,,,,,,,,,,,,,,,,,,,,,,,,,,,,,,,,,,,,,,,,,,,,,,,,,,,,,,,,,,,,
1768372139.709072,1768372139.709952,101.000000,0.000000,4299.743652,4333.717773,4346.794922,4341.282227,4296.282227,4308.461426,4306.153809,4407.948730,4320.256348,4326.538574,4563.461426,4567.436035,4452.179688,4477.051270,5395.000000,2.000000,37.000000,,,,0.000000,4.000000,4.000000,4.000000,4.000000,4.000000,4.000000,4.000000,4.000000,4.000000,4.000000,4.000000,4.000000,4.000000,4.000000,100.000000,,,,,,,,,,,,,,,,,,,,,,,,,,,,,,,,,,,,,,,,,,,,,,,,,,,,,,,,,,,,,,,,,,,,,,,,,,,,,,,,,,,,,,,,,,,,,,,,,,,,,,,,,,,,,,,,,,,,,
1768372139.716880,1768372139.717861,102.000000,0.000000,4299.487305,4332.692383,4349.230957,4343.461426,4299.743652,4310.512695,4308.461426,4406.538574,4321.153809,4325.641113,4560.897461,4569.487305,4450.512695,4473.846191,4395.000000,2.000000,37.000000,,,,0.000000,4.000000,4.000000,4.000000,4.000000,4.000000,4.000000,4.000000,4.000000,4.000000,4.000000,4.000000,4.000000,4.000000,4.000000,100.000000,,,,,,,,,,,,,,,,,,,,,,,,,,,,,,,,,,,,,,,,,,,,,,,,,,,,,,,,,,,,,,,,,,,,,,,,,,,,,,,,,,,,,,,,,,,,,,,,,,,,,,,,,,,,,,,,,,,,,
1768372139.724689,1768372139.725669,103.000000,0.000000,4294.358887,4326.794922,4341.794922,4338.974121,4299.230957,4306.153809,4306.666504,4405.512695,4324.487305,4323.717773,4554.230957,4565.128418,4444.230957,4462.179688,4667.000000,2.000000,37.000000,,,,0.000000,4.000000,4.000000,4.000000,4.000000,4.000000,4.000000,4.000000,4.000000,4.000000,4.000000,4.000000,4.000000,4.000000,4.000000,100.000000,,,,,,,,,,,,,,,,,,,,,,,,,,,,,,,,,,,,,,,,,,,,,,,,,,,,,,,,,,,,,,,,,,,,,,,,,,,,,,,,,,,,,,,,,,,,,,,,,,,,,,,,,,,,,,,,,,,,,
1768372139.732497,1768372139.733677,104.000000,0.000000,4293.974121,4324.102539,4336.025879,4335.000000,4300.256348,4305.897461,4307.820313,4402.307617,4324.487305,4322.179688,4553.846191,4562.051270,4444.102539,4456.666504,5016.000000,2.000000,37.000000,,,,0.000000,4.000000,4.000000,4.000000,4.000000,4.000000,4.000000,4.000000,4.000000,4.000000,4.000000,4.000000,4.000000,4.000000,4.000000,100.000000,,,,,,,,,,,,,,,,,,,,,,,,,,,,,,,,,,,,,,,,,,,,,,,,,,,,,,,,,,,,,,,,,,,,,,,,,,,,,,,,,,,,,,,,,,,,,,,,,,,,,,,,,,,,,,,,,,,,,
1768372139.740306,1768372139.741486,105.000000,0.000000,4296.410156,4326.794922,4340.512695,4337.051270,4306.153809,4312.051270,4311.025879,4397.051270,4320.641113,4315.897461,4552.307617,4561.410156,4443.461426,4457.692383,5395.000000,2.000000,37.000000,,,,0.000000,4.000000,4.000000,4.000000,4.000000,4.000000,4.000000,4.000000,4.000000,4.000000,4.000000,4.000000,4.000000,4.000000,4.000000,100.000000,,,,,,,,,,,,,,,,,,,,,,,,,,,,,,,,,,,,,,,,,,,,,,,,,,,,,,,,,,,,,,,,,,,,,,,,,,,,,,,,,,,,,,,,,,,,,,,,,,,,,,,,,,,,,,,,,,,,,
1768372139.748114,1768372139.749194,106.000000,0.000000,4299.487305,4327.179688,4343.717773,4341.025879,4308.077148,4313.717773,4311.410156,4397.307617,4319.358887,4314.615234,4549.615234,4561.794922,4439.358887,4457.692383,4395.000000,2.000000,37.000000,,,,0.000000,4.000000,4.000000,4.000000,4.000000,4.000000,4.000000,4.000000,4.000000,4.000000,4.000000,4.000000,4.000000,4.000000,4.000000,100.000000,,,,,,,,,,,,,,,,,,,,,,,,,,,,,,,,,,,,,,,,,,,,,,,,,,,,,,,,,,,,,,,,,,,,,,,,,,,,,,,,,,,,,,,,,,,,,,,,,,,,,,,,,,,,,,,,,,,,,
1768372139.755922,1768372139.757003,107.000000,0.000000,4306.666504,4328.333496,4340.512695,4341.410156,4307.563965,4309.615234,4310.256348,4399.358887,4322.563965,4320.641113,4551.666504,4560.256348,4437.436035,4455.256348,4667.000000,2.000000,37.000000,,,,0.000000,4.000000,4.000000,4.000000,4.000000,4.000000,4.000000,4.000000,4.000000,4.000000,4.000000,4.000000,4.000000,4.000000,4.000000,100.000000,,,,,,,,,,,,,,,,,,,,,,,,,,,,,,,,,,,,,,,,,,,,,,,,,,,,,,,,,,,,,,,,,,,,,,,,,,,,,,,,,,,,,,,,,,,,,,,,,,,,,,,,,,,,,,,,,,,,,
1768372139.763731,1768372139.764911,108.000000,0.000000,4312.692383,4331.282227,4341.025879,4340.897461,4307.307617,4308.333496,4307.051270,4396.410156,4325.000000,4322.307617,4552.179688,4560.897461,4440.897461,4455.897461,5016.000000,2.000000,37.000000,,,,0.000000,4.000000,4.000000,4.000000,4.000000,4.000000,4.000000,4.000000,4.000000,4.000000,4.000000,4.000000,4.000000,4.000000,4.000000,100.000000,,,,,,,,,,,,,,,,,,,,,,,,,,,,,,,,,,,,,,,,,,,,,,,,,,,,,,,,,,,,,,,,,,,,,,,,,,,,,,,,,,,,,,,,,,,,,,,,,,,,,,,,,,,,,,,,,,,,,
1768372139.771539,1768372139.772719,109.000000,0.000000,4312.436035,4329.102539,4346.666504,4342.179688,4303.589844,4309.615234,4306.282227,4396.922852,4327.436035,4322.307617,4552.436035,4568.077148,4443.846191,4458.717773,5395.000000,2.000000,37.000000,,,,0.000000,4.000000,4.000000,4.000000,4.000000,4.000000,4.000000,4.000000,4.000000,4.000000,4.000000,4.000000,4.000000,4.000000,4.000000,100.000000,,,,,,,,,,,,,,,,,,,,,,,,,,,,,,,,,,,,,,,,,,,,,,,,,,,,,,,,,,,,,,,,,,,,,,,,,,,,,,,,,,,,,,,,,,,,,,,,,,,,,,,,,,,,,,,,,,,,,
1768372139.779348,1768372139.780428,110.000000,0.000000,4312.179688,4326.666504,4349.871582,4341.282227,4302.307617,4309.358887,4310.128418,4399.358887,4328.974121,4326.666504,4554.230957,4570.000000,4441.282227,4455.512695,4395.000000,2.000000,37.000000,,,,0.000000,4.000000,4.000000,4.000000,4.000000,4.000000,4.000000,4.000000,4.000000,4.000000,4.000000,4.000000,4.000000,4.000000,4.000000,100.000000,,,,,,,,,,,,,,,,,,,,,,,,,,,,,,,,,,,,,,,,,,,,,,,,0.722450,0.219064,0.212190,0.223275,0.133192,0.448229,0.212672,0.053269,0.169758,0.079674,0.938359,0.294250,0.147020,0.167371,0.165604,0.340433,0.162645,0.082597,0.186514,0.092268,0.154345,0.088901,0.018224,0.037864,0.040139,0.376423,0.199086,0.350756,0.076573,0.081452,0.295472,0.438263,0.576345,0.162179,0.128469,0.557828,0.742518,0.554356,0.102079,0.151758,0.308622,0.470999,0.535377,0.117880,0.156643,0.359581,0.476389,0.268693,0.205950,0.108506,0.701301,0.530369,0.390490,0.414604,0.251502,1.219878,0.731773,0.493803,0.287895,0.222501,0.691810,0.469307,0.319180,0.436506,0.217821,1.240453,0.636248,0.569460,0.464226,0.252050
1768372139.787156,1768372139.788236,111.000000,0.000000,4313.717773,4329.230957,4350.256348,4341.025879,4303.589844,4310.000000,4309.102539,4392.563965,4325.128418,4324.487305,4553.077148,4563.077148,4440.256348,4445.769043,4667.000000,2.000000,37.000000,,,,0.000000,4.000000,4.000000,4.000000,4.000000,4.000000,4.000000,4.000000,4.000000,4.000000,4.000000,4.000000,4.000000,4.000000,4.000000,100.000000,,,,,,,,,,,,,,,,,,,,,,,,,,,,,,,,,,,,,,,,,,,,,,,,,,,,,,,,,,,,,,,,,,,,,,,,,,,,,,,,,,,,,,,,,,,,,,,,,,,,,,,,,,,,,,,,,,,,,
1768372139.794964,1768372139.796245,112.000000,0.000000,4314.615234,4329.358887,4350.512695,4342.948730,4301.794922,4310.384766,4305.769043,4388.333496,4326.794922,4323.205078,4553.589844,4565.769043,4442.179688,4443.333496,5016.000000,2.000000,37.000000,,,,0.000000,4.000000,4.000000,4.000000,4.000000,4.000000,4.000000,4.000000,4.000000,4.000000,4.000000,4.000000,4.000000,4.000000,4.000000,100.000000,,,,,,,,,,,,,,,,,,,,,,,,,,,,,,,,,,,,,,,,,,,,,,,,,,,,,,,,,,,,,,,,,,,,,,,,,,,,,,,,,,,,,,,,,,,,,,,,,,,,,,,,,,,,,,,,,,,,,
1768372139.802773,1768372139.804053,113.000000,0.000000,4313.589844,4326.666504,4350.641113,4340.256348,4302.179688,4310.897461,4310.000000,4395.512695,4334.615234,4329.871582,4557.051270,4576.282227,4443.589844,4448.974121,5395.000000,2.000000,37.000000,,,,0.000000,4.000000,4.000000,4.000000,4.000000,4.000000,4.000000,4.000000,4.000000,4.000000,4.000000,4.000000,4.000000,4.000000,4.000000,100.000000,,,,,,,,,,,,,,,,,,,,,,,,,,,,,,,,,,,,,,,,,,,,,,,,,,,,,,,,,,,,,,,,,,,,,,,,,,,,,,,,,,,,,,,,,,,,,,,,,,,,,,,,,,,,,,,,,,,,,
1768372139.810581,1768372139.811961,114.000000,0.000000,4312.307617,4325.128418,4351.538574,4337.948730,4305.769043,4315.128418,4312.820313,4400.000000,4338.205078,4332.692383,4558.077148,4576.794922,4444.615234,4448.589844,4395.000000,2.000000,37.000000,,,,0.000000,4.000000,4.000000,4.000000,4.000000,4.000000,4.000000,4.000000,4.000000,4.000000,4.000000,4.000000,4.000000,4.000000,4.000000,100.000000,,,,,,,,,,,,,,,,,,,,,,,,,,,,,,,,,,,,,,,,,,,,,,,,,,,,,,,,,,,,,,,,,,,,,,,,,,,,,,,,,,,,,,,,,,,,,,,,,,,,,,,,,,,,,,,,,,,,,
1768372139.818390,1768372139.819770,115.000000,0.000000,4311.794922,4323.717773,4351.410156,4340.000000,4307.051270,4318.846191,4307.563965,4394.743652,4335.769043,4331.025879,4556.666504,4570.897461,4444.615234,4442.307617,4667.000000,2.000000,37.000000,,,,0.000000,4.000000,4.000000,4.000000,4.000000,4.000000,4.000000,4.000000,4.000000,4.000000,4.000000,4.000000,4.000000,4.000000,4.000000,100.000000,,,,,,,,,,,,,,,,,,,,,,,,,,,,,,,,,,,,,,,,,,,,,,,,,,,,,,,,,,,,,,,,,,,,,,,,,,,,,,,,,,,,,,,,,,,,,,,,,,,,,,,,,,,,,,,,,,,,,
1768372139.826198,1768372139.827778,116.000000,0.000000,4311.410156,4322.692383,4351.666504,4340.512695,4309.615234,4318.974121,4306.282227,4389.615234,4330.256348,4329.743652,4554.615234,4568.846191,4442.307617,4439.487305,5016.000000,2.000000,37.000000,,,,0.000000,4.000000,4.000000,4.000000,4.000000,4.000000,4.000000,4.000000,4.000000,4.000000,4.000000,4.000000,4.000000,4.000000,4.000000,100.000000,,,,,,,,,,,,,,,,,,,,,,,,,,,,,,,,,,,,,,,,,,,,,,,,,,,,,,,,,,,,,,,,,,,,,,,,,,,,,,,,,,,,,,,,,,,,,,,,,,,,,,,,,,,,,,,,,,,,,
1768372139.834007,1768372139.835587,117.000000,0.000000,4312.436035,4324.358887,4354.743652,4341.025879,4312.563965,4322.820313,4312.563965,4386.410156,4330.512695,4330.512695,4554.743652,4574.743652,4443.846191,4444.871582,5395.000000,2.000000,37.000000,,,,0.000000,4.000000,4.000000,4.000000,4.000000,4.000000,4.000000,4.000000,4.000000,4.000000,4.000000,4.000000,4.000000,4.000000,4.000000,100.000000,,,,,,,,,,,,,,,,,,,,,,,,,,,,,,,,,,,,,,,,,,,,,,,,,,,,,,,,,,,,,,,,,,,,,,,,,,,,,,,,,,,,,,,,,,,,,,,,,,,,,,,,,,,,,,,,,,,,,
1768372139.841815,1768372139.843495,118.000000,0.000000,4312.051270,4322.436035,4356.282227,4340.000000,4310.256348,4328.333496,4314.230957,4383.461426,4336.666504,4334.230957,4556.538574,4577.563965,4446.538574,4444.358887,4395.000000,2.000000,37.000000,,,,0.000000,4.000000,4.000000,4.000000,4.000000,4.000000,4.000000,4.000000,4.000000,4.000000,4.000000,4.000000,4.000000,4.000000,4.000000,100.000000,,,,,,,,,,,,,,,,,,,,,,,,,,,,,,,,,,,,,,,,,,,,,,,,,,,,,,,,,,,,,,,,,,,,,,,,,,,,,,,,,,,,,,,,,,,,,,,,,,,,,,,,,,,,,,,,,,,,,
1768372139.849624,1768372139.851303,119.000000,0.000000,4310.000000,4320.256348,4350.384766,4336.538574,4309.230957,4325.000000,4310.512695,4384.871582,4337.948730,4330.384766,4554.358887,4568.461426,4439.230957,4431.153809,4667.000000,2.000000,37.000000,,,,0.000000,4.000000,4.000000,4.000000,4.000000,4.000000,4.000000,4.000000,4.000000,4.000000,4.000000,4.000000,4.000000,4.000000,4.000000,100.000000,,,,,,,,,,,,,,,,,,,,,,,,,,,,,,,,,,,,,,,,,,,,,,,,,,,,,,,,,,,,,,,,,,,,,,,,,,,,,,,,,,,,,,,,,,,,,,,,,,,,,,,,,,,,,,,,,,,,,
1768372139.857432,1768372139.859312,120.000000,0.000000,4310.128418,4320.256348,4344.487305,4338.846191,4311.153809,4323.077148,4310.256348,4385.641113,4337.307617,4324.358887,4546.922852,4564.358887,4432.563965,4423.333496,5016.000000,2.000000,37.000000,,,,0.000000,4.000000,4.000000,4.000000,4.000000,4.000000,4.000000,4.000000,4.000000,4.000000,4.000000,4.000000,4.000000,4.000000,4.000000,100.000000,,,,,,,,,,,,,,,,,,,,,,,,,,,,,,,,,,,,,,,,,,,,,,,,,,,,,,,,,,,,,,,,,,,,,,,,,,,,,,,,,,,,,,,,,,,,,,,,,,,,,,,,,,,,,,,,,,,,,
1768372139.865240,1768372139.867120,121.000000,0.000000,4310.769043,4318.205078,4345.897461,4340.512695,4310.512695,4328.205078,4313.333496,4380.897461,4340.641113,4329.871582,4543.205078,4569.871582,4436.794922,4426.538574,5395.000000,2.000000,37.000000,,,,0.000000,4.000000,4.000000,4.000000,4.000000,4.000000,4.000000,4.000000,4.000000,4.000000,4.000000,4.000000,4.000000,4.000000,4.000000,100.000000,,,,,,,,,,,,,,,,,,,,,,,,,,,,,,,,,,,,,,,,,,,,,,,,,,,,,,,,,,,,,,,,,,,,,,,,,,,,,,,,,,,,,,,,,,,,,,,,,,,,,,,,,,,,,,,,,,,,,
1768372139.873049,1768372139.874829,122.000000,0.000000,4309.871582,4318.333496,4347.307617,4336.153809,4309.743652,4325.256348,4310.384766,4374.871582,4338.589844,4332.692383,4544.871582,4569.102539,4441.922852,4429.102539,4395.000000,2.000000,37.000000,,,,0.000000,4.000000,4.000000,4.000000,4.000000,4.000000,4.000000,4.000000,4.000000,4.000000,4.000000,4.000000,4.000000,4.000000,4.000000,100.000000,,,,,,,,,,,,,,,,,,,,,,,,,,,,,,,,,,,,,,,,,,,,,,,,,,,,,,,,,,,,,,,,,,,,,,,,,,,,,,,,,,,,,,,,,,,,,,,,,,,,,,,,,,,,,,,,,,,,,
1768372139.880857,1768372139.882637,123.000000,0.000000,4311.025879,4324.230957,4348.205078,4337.051270,4314.358887,4322.820313,4308.717773,4371.410156,4334.230957,4328.205078,4546.666504,4565.641113,4442.692383,4426.922852,4667.000000,2.000000,37.000000,,,,0.000000,4.000000,4.000000,4.000000,4.000000,4.000000,4.000000,4.000000,4.000000,4.000000,4.000000,4.000000,4.000000,4.000000,4.000000,100.000000,,,,,,,,,,,,,,,,,,,,,,,,,,,,,,,,,,,,,,,,,,,,,,,,,,,,,,,,,,,,,,,,,,,,,,,,,,,,,,,,,,,,,,,,,,,,,,,,,,,,,,,,,,,,,,,,,,,,,
1768372139.888666,1768372139.890246,124.000000,0.000000,4313.974121,4328.589844,4351.666504,4343.589844,4321.794922,4332.436035,4316.282227,4371.410156,4341.153809,4332.563965,4550.256348,4571.153809,4441.153809,4426.410156,5016.000000,2.000000,37.000000,,,,0.000000,4.000000,4.000000,4.000000,4.000000,4.000000,4.000000,4.000000,4.000000,4.000000,4.000000,4.000000,4.000000,4.000000,4.000000,100.000000,,,,,,,,,,,,,,,,,,,,,,,,,,,,,,,,,,,,,,,,,,,,,,,,,,,,,,,,,,,,,,,,,,,,,,,,,,,,,,,,,,,,,,,,,,,,,,,,,,,,,,,,,,,,,,,,,,,,,
1768372139.896474,1768372139.898054,125.000000,0.000000,4313.461426,4324.230957,4353.974121,4342.820313,4322.948730,4334.358887,4317.692383,4370.897461,4345.256348,4339.487305,4550.769043,4574.743652,4438.461426,4426.922852,5395.000000,2.000000,37.000000,,,,0.000000,4.000000,4.000000,4.000000,4.000000,4.000000,4.000000,4.000000,4.000000,4.000000,4.000000,4.000000,4.000000,4.000000,4.000000,100.000000,,,,,,,,,,,,,,,,,,,,,,,,,,,,,,,,,,,,,,,,,,,,,,,,,,,,,,,,,,,,,,,,,,,,,,,,,,,,,,,,,,,,,,,,,,,,,,,,,,,,,,,,,,,,,,,,,,,,,
1768372139.904283,1768372139.905963,126.000000,0.000000,4311.794922,4322.307617,4352.563965,4339.230957,4317.563965,4323.077148,4307.436035,4364.487305,4338.461426,4337.436035,4546.153809,4570.128418,4439.102539,4424.487305,4395.000000,2.000000,37.000000,,,,0.000000,4.000000,4.000000,4.000000,4.000000,4.000000,4.000000,4.000000,4.000000,4.000000,4.000000,4.000000,4.000000,4.000000,4.000000,100.000000,,,,,,,,,,,,,,,,,,,,,,,,,,,,,,,,,,,,,,,,,,,,,,,,0.768117,0.204914,0.218337,0.232810,0.133137,0.512260,0.259311,0.072746,0.155020,0.085272,0.884737,0.276659,0.168700,0.169802,0.171956,0.436638,0.179260,0.114556,0.167178,0.097841,0.193324,0.097008,0.032489,0.034660,0.040103,0.296760,0.186730,0.366125,0.073981,0.076598,0.332322,0.436761,0.525926,0.156596,0.118650,0.751521,0.703646,0.506019,0.103652,0.161841,0.374101,0.399091,0.468725,0.115097,0.153163,0.450213,0.470009,0.261787,0.206894,0.101007,0.702703,0.395605,0.424045,0.429777,0.247343,1.365715,0.675756,0.522328,0.297648,0.236936,0.709494,0.394176,0.358953,0.439668,0.219936,1.394900,0.545022,0.601249,0.497223,0.268277
1768372139.912091,1768372139.913771,127.000000,0.000000,4315.256348,4328.205078,4352.948730,4341.666504,4314.743652,4326.025879,4306.922852,4357.179688,4334.102539,4335.641113,4546.282227,4568.974121,4443.333496,4421.922852,37.000000,2.000000,37.000000,,,,0.000000,4.000000,4.000000,4.000000,4.000000,4.000000,4.000000,4.000000,4.000000,4.000000,4.000000,4.000000,4.000000,4.000000,4.000000,100.000000,,,,,,,,,,,,,,,,,,,,,,,,,,,,,,,,,,,,,,,,,,,,,,,,,,,,,,,,,,,,,,,,,,,,,,,,,,,,,,,,,,,,,,,,,,,,,,,,,,,,,,,,,,,,,,,,,,,,,
1768372139.919900,1768372139.921779,0.000000,0.000000,4320.256348,4327.820313,4356.922852,4343.205078,4316.025879,4337.307617,4316.282227,4363.461426,4340.000000,4340.256348,4552.051270,4575.384766,4442.820313,4419.358887,4046.000000,2.000000,37.000000,,,,0.000000,4.000000,4.000000,4.000000,4.000000,4.000000,4.000000,4.000000,4.000000,4.000000,4.000000,4.000000,4.000000,4.000000,4.000000,100.000000,,,,,,,,,,,,,,,,,,,,,,,,,,,,,,,,,,,,,,,,,,,,,,,,,,,,,,,,,,,,,,,,,,,,,,,,,,,,,,,,,,,,,,,,,,,,,,,,,,,,,,,,,,,,,,,,,,,,,
1768372139.927708,1768372139.929588,1.000000,0.000000,4321.666504,4319.871582,4357.820313,4340.769043,4312.563965,4331.025879,4315.256348,4368.589844,4346.538574,4342.436035,4552.820313,4580.256348,4440.256348,4417.436035,3981.000000,2.000000,37.000000,,,,0.000000,4.000000,4.000000,4.000000,4.000000,4.000000,4.000000,4.000000,4.000000,4.000000,4.000000,4.000000,4.000000,4.000000,4.000000,100.000000,,,,,,,,,,,,,,,,,,,,,,,,,,,,,,,,,,,,,,,,,,,,,,,,,,,,,,,,,,,,,,,,,,,,,,,,,,,,,,,,,,,,,,,,,,,,,,,,,,,,,,,,,,,,,,,,,,,,,
1768372139.935516,1768372139.937296,2.000000,0.000000,4320.769043,4319.487305,4359.230957,4339.743652,4310.384766,4322.307617,4308.589844,4360.128418,4341.922852,4340.256348,4550.897461,4579.102539,4441.666504,4416.153809,3886.000000,2.000000,37.000000,,,,0.000000,4.000000,4.000000,4.000000,4.000000,4.000000,4.000000,4.000000,4.000000,4.000000,4.000000,4.000000,4.000000,4.000000,4.000000,100.000000,,,,,,,,,,,,,,,,,,,,,,,,,,,,,,,,,,,,,,,,,,,,,,,,,,,,,,,,,,,,,,,,,,,,,,,,,,,,,,,,,,,,,,,,,,,,,,,,,,,,,,,,,,,,,,,,,,,,,
1768372139.943325,1768372139.945105,3.000000,0.000000,4314.615234,4324.743652,4356.922852,4340.512695,4313.974121,4325.384766,4309.487305,4355.128418,4336.794922,4338.974121,4553.333496,4579.358887,4443.461426,4413.589844,3861.000000,2.000000,37.000000,,,,0.000000,4.000000,4.000000,4.000000,4.000000,4.000000,4.000000,4.000000,4.000000,4.000000,4.000000,4.000000,4.000000,4.000000,4.000000,100.000000,,,,,,,,,,,,,,,,,,,,,,,,,,,,,,,,,,,,,,,,,,,,,,,,,,,,,,,,,,,,,,,,,,,,,,,,,,,,,,,,,,,,,,,,,,,,,,,,,,,,,,,,,,,,,,,,,,,,,
1768372139.951133,1768372139.952713,4.000000,0.000000,4309.102539,4321.538574,4353.205078,4340.000000,4314.871582,4330.128418,4312.948730,4361.410156,4345.769043,4342.563965,4554.102539,4584.358887,4442.563965,4410.256348,3767.000000,2.000000,37.000000,,,,0.000000,4.000000,4.000000,4.000000,4.000000,4.000000,4.000000,4.000000,4.000000,4.000000,4.000000,4.000000,4.000000,4.000000,4.000000,100.000000,,,,,,,,,,,,,,,,,,,,,,,,,,,,,,,,,,,,,,,,,,,,,,,,,,,,,,,,,,,,,,,,,,,,,,,,,,,,,,,,,,,,,,,,,,,,,,,,,,,,,,,,,,,,,,,,,,,,,
1768372139.958942,1768372139.960522,5.000000,0.000000,4318.717773,4320.000000,4361.410156,4343.205078,4313.333496,4330.769043,4313.077148,4369.230957,4357.692383,4345.256348,4555.128418,4589.102539,4442.436035,4413.333496,3742.000000,2.000000,37.000000,,,,0.000000,4.000000,4.000000,4.000000,4.000000,4.000000,4.000000,4.000000,4.000000,4.000000,4.000000,4.000000,4.000000,4.000000,4.000000,100.000000,,,,,,,,,,,,,,,,,,,,,,,,,,,,,,,,,,,,,,,,,,,,,,,,,,,,,,,,,,,,,,,,,,,,,,,,,,,,,,,,,,,,,,,,,,,,,,,,,,,,,,,,,,,,,,,,,,,,,
1768372139.966750,1768372139.968230,6.000000,0.000000,4330.384766,4326.538574,4367.436035,4347.051270,4317.692383,4328.846191,4310.641113,4363.461426,4351.922852,4343.717773,4556.794922,4587.820313,4444.358887,4419.871582,3742.000000,2.000000,37.000000,,,,0.000000,4.000000,4.000000,4.000000,4.000000,4.000000,4.000000,4.000000,4.000000,4.000000,4.000000,4.000000,4.000000,4.000000,4.000000,100.000000,,,,,,,,,,,,,,,,,,,,,,,,,,,,,,,,,,,,,,,,,,,,,,,,,,,,,,,,,,,,,,,,,,,,,,,,,,,,,,,,,,,,,,,,,,,,,,,,,,,,,,,,,,,,,,,,,,,,,
1768372139.974559,1768372139.976039,7.000000,0.000000,4325.256348,4327.820313,4360.256348,4347.051270,4324.230957,4331.410156,4313.333496,4352.948730,4340.128418,4339.230957,4552.179688,4579.743652,4442.051270,4414.743652,3735.000000,2.000000,37.000000,,,,0.000000,4.000000,4.000000,4.000000,4.000000,4.000000,4.000000,4.000000,4.000000,4.000000,4.000000,4.000000,4.000000,4.000000,4.000000,100.000000,,,,,,,,,,,,,,,,,,,,,,,,,,,,,,,,,,,,,,,,,,,,,,,,,,,,,,,,,,,,,,,,,,,,,,,,,,,,,,,,,,,,,,,,,,,,,,,,,,,,,,,,,,,,,,,,,,,,,
1768372139.982367,1768372139.983647,8.000000,0.000000,4320.769043,4324.615234,4357.948730,4344.871582,4325.256348,4338.846191,4317.563965,4356.922852,4345.384766,4340.897461,4550.128418,4578.333496,4440.256348,4410.128418,3946.000000,2.000000,37.000000,,,,0.000000,4.000000,4.000000,4.000000,4.000000,4.000000,4.000000,4.000000,4.000000,4.000000,4.000000,4.000000,4.000000,4.000000,4.000000,100.000000,,,,,,,,,,,,,,,,,,,,,,,,,,,,,,,,,,,,,,,,,,,,,,,,,,,,,,,,,,,,,,,,,,,,,,,,,,,,,,,,,,,,,,,,,,,,,,,,,,,,,,,,,,,,,,,,,,,,,
1768372139.990176,1768372139.991456,9.000000,0.000000,4327.563965,4325.769043,4366.025879,4343.846191,4321.666504,4338.589844,4318.205078,4361.025879,4351.794922,4345.897461,4555.384766,4585.641113,4445.000000,4413.077148,3921.000000,2.000000,37.000000,,,,0.000000,4.000000,4.000000,4.000000,4.000000,4.000000,4.000000,4.000000,4.000000,4.000000,4.000000,4.000000,4.000000,4.000000,4.000000,100.000000,,,,,,,,,,,,,,,,,,,,,,,,,,,,,,,,,,,,,,,,,,,,,,,,,,,,,,,,,,,,,,,,,,,,,,,,,,,,,,,,,,,,,,,,,,,,,,,,,,,,,,,,,,,,,,,,,,,,,
1768372139.997984,1768372139.999164,10.000000,0.000000,4330.256348,4328.205078,4365.769043,4346.794922,4320.512695,4333.974121,4317.692383,4351.922852,4344.230957,4338.077148,4552.179688,4585.641113,4442.692383,4408.974121,4388.000000,2.000000,37.000000,,,,0.000000,4.000000,4.000000,4.000000,4.000000,4.000000,4.000000,4.000000,4.000000,4.000000,4.000000,4.000000,4.000000,4.000000,4.000000,100.000000,,,,,,,,,,,,,,,,,,,,,,,,,,,,,,,,,,,,,,,,,,,,,,,,,,,,,,,,,,,,,,,,,,,,,,,,,,,,,,,,,,,,,,,,,,,,,,,,,,,,,,,,,,,,,,,,,,,,,
1768372140.005793,1768372140.006973,11.000000,0.000000,4324.102539,4328.846191,4359.358887,4349.487305,4323.461426,4337.436035,4316.282227,4346.282227,4339.743652,4331.794922,4541.025879,4573.333496,4432.948730,4397.307617,4667.000000,2.000000,37.000000,,,,0.000000,4.000000,4.000000,4.000000,4.000000,4.000000,4.000000,4.000000,4.000000,4.000000,4.000000,4.000000,4.000000,4.000000,4.000000,100.000000,,,,,,,,,,,,,,,,,,,,,,,,,,,,,,,,,,,,,,,,,,,,,,,,,,,,,,,,,,,,,,,,,,,,,,,,,,,,,,,,,,,,,,,,,,,,,,,,,,,,,,,,,,,,,,,,,,,,,
1768372140.013601,1768372140.014581,12.000000,0.000000,4320.128418,4325.128418,4355.128418,4344.487305,4323.461426,4338.461426,4312.051270,4346.153809,4343.077148,4340.384766,4538.077148,4563.589844,4427.948730,4390.512695,5015.000000,2.000000,37.000000,,,,0.000000,4.000000,4.000000,4.000000,4.000000,4.000000,4.000000,4.000000,4.000000,4.000000,4.000000,4.000000,4.000000,4.000000,4.000000,100.000000,,,,,,,,,,,,,,,,,,,,,,,,,,,,,,,,,,,,,,,,,,,,,,,,,,,,,,,,,,,,,,,,,,,,,,,,,,,,,,,,,,,,,,,,,,,,,,,,,,,,,,,,,,,,,,,,,,,,,
1768372140.021409,1768372140.022390,13.000000,0.000000,4323.333496,4319.615234,4354.615234,4338.717773,4317.820313,4334.102539,4310.384766,4338.461426,4341.410156,4343.077148,4539.358887,4566.282227,4427.948730,4392.436035,5392.000000,2.000000,37.000000,,,,0.000000,4.000000,4.000000,4.000000,4.000000,4.000000,4.000000,4.000000,4.000000,4.000000,4.000000,4.000000,4.000000,4.000000,4.000000,100.000000,,,,,,,,,,,,,,,,,,,,,,,,,,,,,,,,,,,,,,,,,,,,,,,,,,,,,,,,,,,,,,,,,,,,,,,,,,,,,,,,,,,,,,,,,,,,,,,,,,,,,,,,,,,,,,,,,,,,,
1768372140.029218,1768372140.030098,14.000000,0.000000,4325.384766,4322.051270,4358.974121,4339.615234,4316.538574,4332.820313,4310.512695,4333.461426,4340.128418,4335.256348,4537.179688,4569.743652,4427.436035,4392.692383,4388.000000,2.000000,37.000000,,,,0.000000,4.000000,4.000000,4.000000,4.000000,4.000000,4.000000,4.000000,4.000000,4.000000,4.000000,4.000000,4.000000,4.000000,4.000000,100.000000,1.000000,75.000000,4.000000,4.000000,4.000000,4.000000,4.000000,4.000000,4.000000,1.000000,4.000000,4.000000,4.000000,4.000000,4.000000,4.000000,,,,,,,,,,,,,,,,,,,,,,,,,,,,,,,,0.833129,0.202046,0.215406,0.233839,0.129689,0.604815,0.348425,0.098829,0.139384,0.088663,0.861370,0.275797,0.194266,0.161608,0.174082,0.584647,0.217892,0.147232,0.152671,0.096517,0.235194,0.117669,0.054534,0.034147,0.040583,0.251616,0.188533,0.343610,0.074335,0.073156,0.351346,0.418006,0.446726,0.143634,0.110339,0.859934,0.649956,0.436297,0.101102,0.163568,0.440713,0.360033,0.387918,0.111858,0.142290,0.553271,0.456581,0.245027,0.198668,0.094294,0.751770,0.308040,0.453559,0.413613,0.232216,1.511166,0.616060,0.544712,0.295158,0.240951,0.754483,0.327073,0.400584,0.412391,0.214186,1.575174,0.491970,0.605625,0.505676,0.269741
1768372140.037026,1768372140.037907,15.000000,0.000000,4321.410156,4324.102539,4359.615234,4342.948730,4317.692383,4330.256348,4310.384766,4338.205078,4343.589844,4336.025879,4536.794922,4564.743652,4425.512695,4384.230957,4667.000000,2.000000,37.000000,,,,0.000000,4.000000,4.000000,4.000000,4.000000,4.000000,4.000000,4.000000,4.000000,4.000000,4.000000,4.000000,4.000000,4.000000,4.000000,100.000000,,,,,,,,,,,,,,,,,,,,,,,,,,,,,,,,,,,,,,,,,,,,,,,,,,,,,,,,,,,,,,,,,,,,,,,,,,,,,,,,,,,,,,,,,,,,,,,,,,,,,,,,,,,,,,,,,,,,,
1768372140.044835,1768372140.045915,16.000000,0.000000,4315.384766,4314.102539,4352.307617,4338.846191,4313.974121,4327.692383,4311.666504,4338.461426,4342.948730,4338.461426,4534.743652,4559.615234,4418.589844,4372.179688,0.000000,2.000000,37.000000,,,,0.000000,4.000000,4.000000,4.000000,4.000000,4.000000,4.000000,4.000000,4.000000,4.000000,4.000000,4.000000,4.000000,4.000000,4.000000,100.000000,,,,,,,,,,,,,,,,,,,,,,,,,,,,,,,,,,,,,,,,,,,,,,,,,,,,,,,,,,,,,,,,,,,,,,,,,,,,,,,,,,,,,,,,,,,,,,,,,,,,,,,,,,,,,,,,,,,,,
1768372140.052643,1768372140.053724,17.000000,0.000000,4311.025879,4306.922852,4345.641113,4329.358887,4309.743652,4328.205078,4309.102539,4332.948730,4339.615234,4334.487305,4531.282227,4560.897461,4416.538574,4369.230957,0.000000,2.000000,37.000000,,,,0.000000,4.000000,4.000000,4.000000,4.000000,4.000000,4.000000,4.000000,4.000000,4.000000,4.000000,4.000000,4.000000,4.000000,4.000000,100.000000,,,,,,,,,,,,,,,,,,,,,,,,,,,,,,,,,,,,,,,,,,,,,,,,,,,,,,,,,,,,,,,,,,,,,,,,,,,,,,,,,,,,,,,,,,,,,,,,,,,,,,,,,,,,,,,,,,,,,
1768372140.060452,1768372140.061632,18.000000,0.000000,4310.256348,4313.717773,4347.179688,4328.846191,4308.974121,4326.794922,4305.769043,4330.256348,4340.256348,4336.282227,4537.692383,4563.846191,4425.897461,4378.589844,0.000000,2.000000,37.000000,,,,0.000000,4.000000,4.000000,4.000000,4.000000,4.000000,4.000000,4.000000,4.000000,4.000000,4.000000,4.000000,4.000000,4.000000,4.000000,100.000000,,,,,,,,,,,,,,,,,,,,,,,,,,,,,,,,,,,,,,,,,,,,,,,,,,,,,,,,,,,,,,,,,,,,,,,,,,,,,,,,,,,,,,,,,,,,,,,,,,,,,,,,,,,,,,,,,,,,,
1768372140.068260,1768372140.069440,19.000000,0.000000,4312.563965,4316.410156,4351.410156,4334.230957,4310.769043,4328.077148,4308.077148,4330.641113,4341.410156,4335.128418,4541.794922,4560.128418,4426.282227,4381.538574,0.000000,2.000000,37.000000,,,,0.000000,4.000000,4.000000,4.000000,4.000000,4.000000,4.000000,4.000000,4.000000,4.000000,4.000000,4.000000,4.000000,4.000000,4.000000,100.000000,,,,,,,,,,,,,,,,,,,,,,,,,,,,,,,,,,,,,,,,,,,,,,,,,,,,,,,,,,,,,,,,,,,,,,,,,,,,,,,,,,,,,,,,,,,,,,,,,,,,,,,,,,,,,,,,,,,,,
1768372140.076068,1768372140.077049,20.000000,0.000000,4313.589844,4309.487305,4350.384766,4332.436035,4315.128418,4336.153809,4309.230957,4329.615234,4342.179688,4331.538574,4531.282227,4555.512695,4415.512695,4372.051270,0.000000,2.000000,37.000000,,,,0.000000,4.000000,4.000000,4.000000,4.000000,4.000000,4.000000,4.000000,4.000000,4.000000,4.000000,4.000000,4.000000,4.000000,4.000000,100.000000,,,,,,,,,,,,,,,,,,,,,,,,,,,,,,,,,,,,,,,,,,,,,,,,,,,,,,,,,,,,,,,,,,,,,,,,,,,,,,,,,,,,,,,,,,,,,,,,,,,,,,,,,,,,,,,,,,,,,
1768372140.083877,1768372140.084858,21.000000,0.000000,4313.205078,4308.461426,4349.615234,4331.153809,4315.000000,4338.974121,4308.846191,4329.743652,4344.615234,4335.512695,4528.205078,4561.794922,4415.641113,4366.794922,0.000000,2.000000,37.000000,,,,0.000000,4.000000,4.000000,4.000000,4.000000,4.000000,4.000000,4.000000,4.000000,4.000000,4.000000,4.000000,4.000000,4.000000,4.000000,100.000000,,,,,,,,,,,,,,,,,,,,,,,,,,,,,,,,,,,,,,,,,,,,,,,,,,,,,,,,,,,,,,,,,,,,,,,,,,,,,,,,,,,,,,,,,,,,,,,,,,,,,,,,,,,,,,,,,,,,,
1768372140.091685,1768372140.092566,22.000000,0.000000,4313.077148,4312.692383,4350.641113,4336.153809,4312.179688,4336.666504,4310.000000,4328.205078,4345.512695,4339.743652,4539.358887,4567.820313,4423.717773,4373.205078,0.000000,2.000000,37.000000,,,,0.000000,4.000000,4.000000,4.000000,4.000000,4.000000,4.000000,4.000000,4.000000,4.000000,4.000000,4.000000,4.000000,4.000000,4.000000,100.000000,,,,,,,,,,,,,,,,,,,,,,,,,,,,,,,,,,,,,,,,,,,,,,,,,,,,,,,,,,,,,,,,,,,,,,,,,,,,,,,,,,,,,,,,,,,,,,,,,,,,,,,,,,,,,,,,,,,,,
1768372140.099494,1768372140.100375,23.000000,0.000000,4313.461426,4312.051270,4348.077148,4337.179688,4316.922852,4335.512695,4308.974121,4322.436035,4341.410156,4336.922852,4539.358887,4560.128418,4422.307617,4375.000000,0.000000,2.000000,37.000000,,,,0.000000,4.000000,4.000000,4.000000,4.000000,4.000000,4.000000,4.000000,4.000000,4.000000,4.000000,4.000000,4.000000,4.000000,4.000000,100.000000,,,,,,,,,,,,,,,,,,,,,,,,,,,,,,,,,,,,,,,,,,,,,,,,,,,,,,,,,,,,,,,,,,,,,,,,,,,,,,,,,,,,,,,,,,,,,,,,,,,,,,,,,,,,,,,,,,,,,
1768372140.107302,1768372140.108383,24.000000,0.000000,4316.153809,4311.410156,4347.692383,4335.769043,4322.436035,4334.743652,4307.307617,4322.436035,4339.102539,4330.769043,4526.153809,4553.717773,4415.128418,4366.794922,0.000000,2.000000,37.000000,,,,0.000000,4.000000,4.000000,4.000000,4.000000,4.000000,4.000000,4.000000,4.000000,4.000000,4.000000,4.000000,4.000000,4.000000,4.000000,100.000000,,,,,,,,,,,,,,,,,,,,,,,,,,,,,,,,,,,,,,,,,,,,,,,,,,,,,,,,,,,,,,,,,,,,,,,,,,,,,,,,,,,,,,,,,,,,,,,,,,,,,,,,,,,,,,,,,,,,,
1768372140.115111,1768372140.116191,25.000000,0.000000,4319.230957,4315.769043,4356.153809,4339.487305,4319.358887,4340.641113,4312.051270,4323.589844,4340.512695,4328.846191,4521.794922,4558.333496,4410.897461,4363.589844,0.000000,2.000000,37.000000,,,,0.000000,4.000000,4.000000,4.000000,4.000000,4.000000,4.000000,4.000000,4.000000,4.000000,4.000000,4.000000,4.000000,4.000000,4.000000,100.000000,,,,,,,,,,,,,,,,,,,,,,,,,,,,,,,,,,,,,,,,,,,,,,,,,,,,,,,,,,,,,,,,,,,,,,,,,,,,,,,,,,,,,,,,,,,,,,,,,,,,,,,,,,,,,,,,,,,,,
1768372140.122919,1768372140.123900,26.000000,0.000000,4321.025879,4316.153809,4359.102539,4340.256348,4316.666504,4342.051270,4311.666504,4315.512695,4337.179688,4329.230957,4525.641113,4561.153809,4410.641113,4365.128418,0.000000,2.000000,37.000000,,,,0.000000,4.000000,4.000000,4.000000,4.000000,4.000000,4.000000,4.000000,4.000000,4.000000,4.000000,4.000000,4.000000,4.000000,4.000000,100.000000,,,,,,,,,,,,,,,,,,,,,,,,,,,,,,,,,,,,,,,,,,,,,,,,,,,,,,,,,,,,,,,,,,,,,,,,,,,,,,,,,,,,,,,,,,,,,,,,,,,,,,,,,,,,,,,,,,,,,
1768372140.130727,1768372140.131708,27.000000,0.000000,4321.794922,4313.077148,4354.230957,4336.282227,4315.512695,4328.205078,4301.538574,4310.641113,4336.538574,4329.230957,4525.128418,4557.820313,4412.692383,4361.922852,0.000000,2.000000,37.000000,,,,0.000000,4.000000,4.000000,4.000000,4.000000,4.000000,4.000000,4.000000,4.000000,4.000000,4.000000,4.000000,4.000000,4.000000,4.000000,100.000000,,,,,,,,,,,,,,,,,,,,,,,,,,,,,,,,,,,,,,,,,,,,,,,,,,,,,,,,,,,,,,,,,,,,,,,,,,,,,,,,,,,,,,,,,,,,,,,,,,,,,,,,,,,,,,,,,,,,,
1768372140.138536,1768372140.139317,28.000000,0.000000,4318.846191,4311.410156,4347.563965,4334.230957,4311.282227,4321.922852,4298.717773,4314.487305,4341.538574,4326.666504,4521.794922,4551.538574,4412.563965,4356.666504,0.000000,2.000000,37.000000,,,,0.000000,4.000000,4.000000,4.000000,4.000000,4.000000,4.000000,4.000000,4.000000,4.000000,4.000000,4.000000,4.000000,4.000000,4.000000,100.000000,,,,,,,,,,,,,,,,,,,,,,,,,,,,,,,,,,,,,,,,,,,,,,,,,,,,,,,,,,,,,,,,,,,,,,,,,,,,,,,,,,,,,,,,,,,,,,,,,,,,,,,,,,,,,,,,,,,,,
1768372140.146344,1768372140.147125,29.000000,0.000000,4317.436035,4311.538574,4347.948730,4338.717773,4310.897461,4335.128418,4307.948730,4317.436035,4343.333496,4330.384766,4526.025879,4551.794922,4412.948730,4356.282227,0.000000,2.000000,37.000000,,,,0.000000,4.000000,4.000000,4.000000,4.000000,4.000000,4.000000,4.000000,4.000000,4.000000,4.000000,4.000000,4.000000,4.000000,4.000000,100.000000,,,,,,,,,,,,,,,,,,,,,,,,,,,,,,,,,,,,,,,,,,,,,,,,,,,,,,,,,,,,,,,,,,,,,,,,,,,,,,,,,,,,,,,,,,,,,,,,,,,,,,,,,,,,,,,,,,,,,
1768372140.154153,1768372140.155034,30.000000,0.000000,4323.589844,4319.871582,4355.256348,4342.692383,4316.025879,4343.205078,4311.922852,4320.769043,4344.615234,4342.563965,4535.000000,4559.358887,4416.538574,4358.589844,0.000000,2.000000,37.000000,,,,0.000000,4.000000,4.000000,4.000000,4.000000,4.000000,4.000000,4.000000,4.000000,4.000000,4.000000,4.000000,4.000000,4.000000,4.000000,100.000000,,,,,,,,,,,,,,,,,,,,,,,,,,,,,,,,,,,,,,,,,,,,,,,,0.924674,0.216354,0.207188,0.224453,0.121813,0.712067,0.466817,0.129409,0.124270,0.089702,0.867779,0.296194,0.218316,0.148245,0.172632,0.750529,0.278600,0.173877,0.142320,0.089165,0.280400,0.153125,0.086267,0.035404,0.041015,0.230480,0.188231,0.290450,0.077181,0.072846,0.344982,0.381874,0.361095,0.126759,0.104704,0.906524,0.589164,0.372986,0.096189,0.157463,0.480375,0.354121,0.318859,0.112911,0.126683,0.634880,0.447698,0.228656,0.187333,0.091156,0.830161,0.275239,0.479461,0.378230,0.209845,1.595694,0.572782,0.569245,0.284887,0.235789,0.811175,0.283880,0.440324,0.367274,0.203262,1.724582,0.499555,0.586305,0.497449,0.257570
1768372140.161961,1768372140.162842,31.000000,0.000000,4324.358887,4325.384766,4353.717773,4339.871582,4319.230957,4332.692383,4306.410156,4319.102539,4343.333496,4340.512695,4529.615234,4554.615234,4413.974121,4356.794922,0.000000,2.000000,37.000000,,,,0.000000,4.000000,4.000000,4.000000,4.000000,4.000000,4.000000,4.000000,4.000000,4.000000,4.000000,4.000000,4.000000,4.000000,4.000000,100.000000,,,,,,,,,,,,,,,,,,,,,,,,,,,,,,,,,,,,,,,,,,,,,,,,,,,,,,,,,,,,,,,,,,,,,,,,,,,,,,,,,,,,,,,,,,,,,,,,,,,,,,,,,,,,,,,,,,,,,
1768372140.169770,1768372140.170451,32.000000,0.000000,4318.974121,4317.179688,4345.769043,4338.205078,4321.153809,4326.025879,4306.025879,4312.307617,4339.871582,4330.256348,4520.512695,4544.871582,4409.487305,4354.230957,0.000000,2.000000,37.000000,,,,0.000000,4.000000,4.000000,4.000000,4.000000,4.000000,4.000000,4.000000,4.000000,4.000000,4.000000,4.000000,4.000000,4.000000,4.000000,100.000000,,,,,,,,,,,,,,,,,,,,,,,,,,,,,,,,,,,,,,,,,,,,,,,,,,,,,,,,,,,,,,,,,,,,,,,,,,,,,,,,,,,,,,,,,,,,,,,,,,,,,,,,,,,,,,,,,,,,,
1768372140.177578,1768372140.178259,33.000000,0.000000,4323.205078,4314.871582,4351.666504,4341.538574,4321.025879,4332.692383,4309.871582,4318.589844,4348.205078,4332.692383,4528.846191,4556.025879,4415.769043,4358.974121,0.000000,2.000000,37.000000,,,,0.000000,4.000000,4.000000,4.000000,4.000000,4.000000,4.000000,4.000000,4.000000,4.000000,4.000000,4.000000,4.000000,4.000000,4.000000,100.000000,,,,,,,,,,,,,,,,,,,,,,,,,,,,,,,,,,,,,,,,,,,,,,,,,,,,,,,,,,,,,,,,,,,,,,,,,,,,,,,,,,,,,,,,,,,,,,,,,,,,,,,,,,,,,,,,,,,,,
1768372140.185387,1768372140.185968,34.000000,0.000000,4325.897461,4318.717773,4360.384766,4340.384766,4318.205078,4339.102539,4310.641113,4320.641113,4356.153809,4337.051270,4531.666504,4564.102539,4414.615234,4357.436035,0.000000,2.000000,37.000000,,,,0.000000,4.000000,4.000000,4.000000,4.000000,4.000000,4.000000,4.000000,4.000000,4.000000,4.000000,4.000000,4.000000,4.000000,4.000000,100.000000,,,,,,,,,,,,,,,,,,,,,,,,,,,,,,,,,,,,,,,,,,,,,,,,,,,,,,,,,,,,,,,,,,,,,,,,,,,,,,,,,,,,,,,,,,,,,,,,,,,,,,,,,,,,,,,,,,,,,
1768372140.193195,1768372140.193776,35.000000,0.000000,4322.307617,4314.102539,4354.102539,4336.538574,4316.666504,4337.692383,4309.487305,4303.589844,4347.307617,4330.384766,4516.538574,4547.436035,4399.871582,4343.589844,0.000000,2.000000,37.000000,,,,0.000000,4.000000,4.000000,4.000000,4.000000,4.000000,4.000000,4.000000,4.000000,4.000000,4.000000,4.000000,4.000000,4.000000,4.000000,100.000000,,,,,,,,,,,,,,,,,,,,,,,,,,,,,,,,,,,,,,,,,,,,,,,,,,,,,,,,,,,,,,,,,,,,,,,,,,,,,,,,,,,,,,,,,,,,,,,,,,,,,,,,,,,,,,,,,,,,,
1768372140.201003,1768372140.201385,36.000000,0.000000,4325.000000,4316.410156,4353.333496,4342.692383,4321.025879,4338.461426,4310.641113,4300.641113,4346.922852,4330.897461,4520.128418,4542.948730,4402.051270,4343.846191,0.000000,2.000000,37.000000,,,,0.000000,4.000000,4.000000,4.000000,4.000000,4.000000,4.000000,4.000000,4.000000,4.000000,4.000000,4.000000,4.000000,4.000000,4.000000,100.000000,,,,,,,,,,,,,,,,,,,,,,,,,,,,,,,,,,,,,,,,,,,,,,,,,,,,,,,,,,,,,,,,,,,,,,,,,,,,,,,,,,,,,,,,,,,,,,,,,,,,,,,,,,,,,,,,,,,,,
1768372140.208812,1768372140.209193,37.000000,0.000000,4329.358887,4327.820313,4361.666504,4351.538574,4325.641113,4343.333496,4316.794922,4315.641113,4361.794922,4344.743652,4540.128418,4559.358887,4422.948730,4359.102539,0.000000,2.000000,37.000000,,,,0.000000,4.000000,4.000000,4.000000,4.000000,4.000000,4.000000,4.000000,4.000000,4.000000,4.000000,4.000000,4.000000,4.000000,4.000000,100.000000,,,,,,,,,,,,,,,,,,,,,,,,,,,,,,,,,,,,,,,,,,,,,,,,,,,,,,,,,,,,,,,,,,,,,,,,,,,,,,,,,,,,,,,,,,,,,,,,,,,,,,,,,,,,,,,,,,,,,
1768372140.216620,1768372140.216902,38.000000,0.000000,4329.230957,4327.307617,4361.410156,4351.025879,4325.512695,4342.307617,4319.487305,4315.512695,4363.461426,4347.307617,4540.512695,4562.436035,4427.563965,4357.051270,0.000000,2.000000,37.000000,,,,0.000000,4.000000,4.000000,4.000000,4.000000,4.000000,4.000000,4.000000,4.000000,4.000000,4.000000,4.000000,4.000000,4.000000,4.000000,100.000000,,,,,,,,,,,,,,,,,,,,,,,,,,,,,,,,,,,,,,,,,,,,,,,,,,,,,,,,,,,,,,,,,,,,,,,,,,,,,,,,,,,,,,,,,,,,,,,,,,,,,,,,,,,,,,,,,,,,,
1768372140.224429,1768372140.224710,39.000000,0.000000,4333.077148,4325.384766,4361.666504,4349.102539,4326.153809,4340.769043,4314.358887,4307.436035,4355.384766,4341.538574,4532.948730,4553.974121,4416.410156,4348.717773,0.000000,2.000000,37.000000,,,,0.000000,4.000000,4.000000,4.000000,4.000000,4.000000,4.000000,4.000000,4.000000,4.000000,4.000000,4.000000,4.000000,4.000000,4.000000,100.000000,,,,,,,,,,,,,,,,,,,,,,,,,,,,,,,,,,,,,,,,,,,,,,,,,,,,,,,,,,,,,,,,,,,,,,,,,,,,,,,,,,,,,,,,,,,,,,,,,,,,,,,,,,,,,,,,,,,,,
1768372140.232237,1768372140.232719,40.000000,0.000000,4335.000000,4327.179688,4363.333496,4347.948730,4327.051270,4338.461426,4308.333496,4310.641113,4355.512695,4341.794922,4534.487305,4556.025879,4413.846191,4351.153809,0.000000,2.000000,37.000000,,,,0.000000,4.000000,4.000000,4.000000,4.000000,4.000000,4.000000,4.000000,4.000000,4.000000,4.000000,4.000000,4.000000,4.000000,4.000000,100.000000,,,,,,,,,,,,,,,,,,,,,,,,,,,,,,,,,,,,,,,,,,,,,,,,,,,,,,,,,,,,,,,,,,,,,,,,,,,,,,,,,,,,,,,,,,,,,,,,,,,,,,,,,,,,,,,,,,,,,
1768372140.240046,1768372140.240527,41.000000,0.000000,4327.179688,4320.641113,4356.282227,4340.384766,4325.512695,4333.717773,4307.051270,4310.384766,4361.025879,4342.948730,4530.128418,4558.846191,4416.025879,4346.666504,0.000000,2.000000,37.000000,,,,0.000000,4.000000,4.000000,4.000000,4.000000,4.000000,4.000000,4.000000,4.000000,4.000000,4.000000,4.000000,4.000000,4.000000,4.000000,100.000000,,,,,,,,,,,,,,,,,,,,,,,,,,,,,,,,,,,,,,,,,,,,,,,,,,,,,,,,,,,,,,,,,,,,,,,,,,,,,,,,,,,,,,,,,,,,,,,,,,,,,,,,,,,,,,,,,,,,,
1768372140.247854,1768372140.248435,42.000000,0.000000,4322.820313,4319.230957,4352.051270,4337.307617,4327.051270,4335.769043,4309.743652,4304.487305,4363.333496,4341.410156,4522.307617,4551.538574,4413.974121,4338.974121,0.000000,2.000000,37.000000,,,,0.000000,4.000000,4.000000,4.000000,4.000000,4.000000,4.000000,4.000000,4.000000,4.000000,4.000000,4.000000,4.000000,4.000000,4.000000,100.000000,,,,,,,,,,,,,,,,,,,,,,,,,,,,,,,,,,,,,,,,,,,,,,,,,,,,,,,,,,,,,,,,,,,,,,,,,,,,,,,,,,,,,,,,,,,,,,,,,,,,,,,,,,,,,,,,,,,,,
1768372140.255663,1768372140.256244,43.000000,0.000000,4328.589844,4327.820313,4361.410156,4346.282227,4329.743652,4339.230957,4313.077148,4303.205078,4360.256348,4340.000000,4528.461426,4550.897461,4413.846191,4342.436035,0.000000,2.000000,37.000000,,,,0.000000,4.000000,4.000000,4.000000,4.000000,4.000000,4.000000,4.000000,4.000000,4.000000,4.000000,4.000000,4.000000,4.000000,4.000000,100.000000,,,,,,,,,,,,,,,,,,,,,,,,,,,,,,,,,,,,,,,,,,,,,,,,,,,,,,,,,,,,,,,,,,,,,,,,,,,,,,,,,,,,,,,,,,,,,,,,,,,,,,,,,,,,,,,,,,,,,
1768372140.263471,1768372140.264252,44.000000,0.000000,4328.717773,4326.025879,4364.743652,4349.487305,4327.820313,4337.692383,4313.846191,4303.461426,4356.666504,4341.025879,4535.897461,4557.051270,4416.153809,4344.743652,0.000000,2.000000,37.000000,,,,0.000000,4.000000,4.000000,4.000000,4.000000,4.000000,4.000000,4.000000,4.000000,4.000000,4.000000,4.000000,4.000000,4.000000,4.000000,100.000000,,,,,,,,,,,,,,,,,,,,,,,,,,,,,,,,,,,,,,,,,,,,,,,,,,,,,,,,,,,,,,,,,,,,,,,,,,,,,,,,,,,,,,,,,,,,,,,,,,,,,,,,,,,,,,,,,,,,,
1768372140.271279,1768372140.272061,45.000000,0.000000,4325.384766,4317.692383,4355.769043,4343.077148,4325.384766,4337.051270,4315.256348,4297.563965,4356.666504,4342.051270,4533.717773,4557.436035,4414.487305,4341.794922,0.000000,2.000000,37.000000,,,,0.000000,4.000000,4.000000,4.000000,4.000000,4.000000,4.000000,4.000000,4.000000,4.000000,4.000000,4.000000,4.000000,4.000000,4.000000,100.000000,,,,,,,,,,,,,,,,,,,,,,,,,,,,,,,,,,,,,,,,,,,,,,,,,,,,,,,,,,,,,,,,,,,,,,,,,,,,,,,,,,,,,,,,,,,,,,,,,,,,,,,,,,,,,,,,,,,,,
1768372140.279088,1768372140.279969,46.000000,0.000000,4330.897461,4320.769043,4357.948730,4343.333496,4326.410156,4339.743652,4320.512695,4292.692383,4359.102539,4344.615234,4530.512695,4557.179688,4413.333496,4344.358887,0.000000,2.000000,37.000000,,,,0.000000,4.000000,4.000000,4.000000,4.000000,4.000000,4.000000,4.000000,4.000000,4.000000,4.000000,4.000000,4.000000,4.000000,4.000000,100.000000,,,,,,,,,,,,,,,,,,,,,,,,,,,,,,,,,,,,,,,,,,,,,,,,1.025802,0.245406,0.196977,0.205909,0.110592,0.815935,0.585904,0.160025,0.110927,0.088940,0.893726,0.327380,0.233310,0.136350,0.168380,0.903190,0.347001,0.188681,0.133159,0.078978,0.320046,0.203323,0.125954,0.037159,0.040925,0.217349,0.184262,0.224754,0.081054,0.076874,0.315454,0.329163,0.282954,0.110657,0.101787,0.839563,0.527140,0.328821,0.091680,0.147471,0.476906,0.364313,0.274558,0.120868,0.111763,0.671512,0.448135,0.219030,0.177644,0.092856,0.888013,0.286469,0.495700,0.340211,0.186523,1.581357,0.548609,0.591474,0.272914,0.226555,0.833444,0.269308,0.467480,0.321252,0.191535,1.769685,0.547662,0.545818,0.479998,0.237567
1768372140.286896,1768372140.287778,47.000000,0.000000,4334.487305,4323.333496,4365.384766,4348.077148,4327.307617,4341.538574,4322.692383,4295.384766,4357.563965,4340.384766,4528.717773,4558.717773,4413.717773,4345.000000,0.000000,2.000000,37.000000,,,,0.000000,4.000000,4.000000,4.000000,4.000000,4.000000,4.000000,4.000000,4.000000,4.000000,4.000000,4.000000,4.000000,4.000000,4.000000,100.000000,,,,,,,,,,,,,,,,,,,,,,,,,,,,,,,,,,,,,,,,,,,,,,,,,,,,,,,,,,,,,,,,,,,,,,,,,,,,,,,,,,,,,,,,,,,,,,,,,,,,,,,,,,,,,,,,,,,,,
1768372140.294705,1768372140.295786,48.000000,0.000000,4328.717773,4315.512695,4362.436035,4343.717773,4325.512695,4342.179688,4320.256348,4296.666504,4351.794922,4330.641113,4524.615234,4551.538574,4410.000000,4335.128418,0.000000,2.000000,37.000000,,,,0.000000,4.000000,4.000000,4.000000,4.000000,4.000000,4.000000,4.000000,4.000000,4.000000,4.000000,4.000000,4.000000,4.000000,4.000000,100.000000,,,,,,,,,,,,,,,,,,,,,,,,,,,,,,,,,,,,,,,,,,,,,,,,,,,,,,,,,,,,,,,,,,,,,,,,,,,,,,,,,,,,,,,,,,,,,,,,,,,,,,,,,,,,,,,,,,,,,
1768372140.302513,1768372140.303594,49.000000,0.000000,4321.666504,4310.128418,4354.743652,4334.615234,4322.820313,4338.974121,4317.948730,4292.563965,4350.897461,4328.461426,4519.487305,4541.922852,4400.641113,4325.256348,0.000000,2.000000,37.000000,,,,0.000000,4.000000,4.000000,4.000000,4.000000,4.000000,4.000000,4.000000,4.000000,4.000000,4.000000,4.000000,4.000000,4.000000,4.000000,100.000000,,,,,,,,,,,,,,,,,,,,,,,,,,,,,,,,,,,,,,,,,,,,,,,,,,,,,,,,,,,,,,,,,,,,,,,,,,,,,,,,,,,,,,,,,,,,,,,,,,,,,,,,,,,,,,,,,,,,,
1768372140.310322,1768372140.311303,50.000000,0.000000,4319.358887,4310.384766,4355.384766,4332.563965,4324.102539,4337.436035,4321.410156,4294.358887,4358.333496,4334.871582,4519.615234,4545.769043,4397.948730,4324.871582,0.000000,2.000000,37.000000,,,,0.000000,4.000000,4.000000,4.000000,4.000000,4.000000,4.000000,4.000000,4.000000,4.000000,4.000000,4.000000,4.000000,4.000000,4.000000,100.000000,,,,,,,,,,,,,,,,,,,,,,,,,,,,,,,,,,,,,,,,,,,,,,,,,,,,,,,,,,,,,,,,,,,,,,,,,,,,,,,,,,,,,,,,,,,,,,,,,,,,,,,,,,,,,,,,,,,,,
1768372140.318130,1768372140.319111,51.000000,0.000000,4320.769043,4311.794922,4358.333496,4337.051270,4327.307617,4343.205078,4326.410156,4302.692383,4363.589844,4341.794922,4523.461426,4552.179688,4407.179688,4328.974121,0.000000,2.000000,37.000000,,,,0.000000,4.000000,4.000000,4.000000,4.000000,4.000000,4.000000,4.000000,4.000000,4.000000,4.000000,4.000000,4.000000,4.000000,4.000000,100.000000,,,,,,,,,,,,,,,,,,,,,,,,,,,,,,,,,,,,,,,,,,,,,,,,,,,,,,,,,,,,,,,,,,,,,,,,,,,,,,,,,,,,,,,,,,,,,,,,,,,,,,,,,,,,,,,,,,,,,
1768372140.325939,1768372140.326720,52.000000,0.000000,4325.128418,4314.615234,4358.077148,4340.641113,4326.153809,4342.563965,4319.230957,4297.436035,4359.102539,4340.000000,4522.820313,4550.128418,4408.205078,4328.589844,0.000000,2.000000,37.000000,,,,0.000000,4.000000,4.000000,4.000000,4.000000,4.000000,4.000000,4.000000,4.000000,4.000000,4.000000,4.000000,4.000000,4.000000,4.000000,100.000000,,,,,,,,,,,,,,,,,,,,,,,,,,,,,,,,,,,,,,,,,,,,,,,,,,,,,,,,,,,,,,,,,,,,,,,,,,,,,,,,,,,,,,,,,,,,,,,,,,,,,,,,,,,,,,,,,,,,,
1768372140.333747,1768372140.334528,53.000000,0.000000,4324.230957,4320.256348,4355.384766,4338.846191,4323.717773,4335.256348,4307.307617,4289.487305,4357.179688,4334.615234,4519.871582,4546.538574,4401.666504,4325.512695,0.000000,2.000000,37.000000,,,,0.000000,4.000000,4.000000,4.000000,4.000000,4.000000,4.000000,4.000000,4.000000,4.000000,4.000000,4.000000,4.000000,4.000000,4.000000,100.000000,,,,,,,,,,,,,,,,,,,,,,,,,,,,,,,,,,,,,,,,,,,,,,,,,,,,,,,,,,,,,,,,,,,,,,,,,,,,,,,,,,,,,,,,,,,,,,,,,,,,,,,,,,,,,,,,,,,,,
1768372140.341555,1768372140.342237,54.000000,0.000000,4314.615234,4320.256348,4350.256348,4333.589844,4321.794922,4335.512695,4312.563965,4295.769043,4358.974121,4332.051270,4522.563965,4546.794922,4402.820313,4321.666504,0.000000,2.000000,37.000000,,,,0.000000,4.000000,4.000000,4.000000,4.000000,4.000000,4.000000,4.000000,4.000000,4.000000,4.000000,4.000000,4.000000,4.000000,4.000000,100.000000,,,,,,,,,,,,,,,,,,,,,,,,,,,,,,,,,,,,,,,,,,,,,,,,,,,,,,,,,,,,,,,,,,,,,,,,,,,,,,,,,,,,,,,,,,,,,,,,,,,,,,,,,,,,,,,,,,,,,
1768372140.349364,1768372140.350045,55.000000,0.000000,4312.436035,4317.436035,4351.538574,4332.820313,4319.487305,4340.256348,4322.692383,4294.358887,4351.922852,4329.487305,4520.769043,4546.025879,4403.333496,4317.820313,0.000000,2.000000,37.000000,,,,0.000000,4.000000,4.000000,4.000000,4.000000,4.000000,4.000000,4.000000,4.000000,4.000000,4.000000,4.000000,4.000000,4.000000,4.000000,100.000000,,,,,,,,,,,,,,,,,,,,,,,,,,,,,,,,,,,,,,,,,,,,,,,,,,,,,,,,,,,,,,,,,,,,,,,,,,,,,,,,,,,,,,,,,,,,,,,,,,,,,,,,,,,,,,,,,,,,,
1768372140.357172,1768372140.357654,56.000000,0.000000,4321.410156,4321.538574,4357.179688,4339.358887,4321.922852,4340.000000,4321.538574,4283.077148,4345.641113,4325.512695,4509.487305,4543.077148,4396.666504,4317.948730,0.000000,2.000000,37.000000,,,,0.000000,4.000000,4.000000,4.000000,4.000000,4.000000,4.000000,4.000000,4.000000,4.000000,4.000000,4.000000,4.000000,4.000000,4.000000,100.000000,,,,,,,,,,,,,,,,,,,,,,,,,,,,,,,,,,,,,,,,,,,,,,,,,,,,,,,,,,,,,,,,,,,,,,,,,,,,,,,,,,,,,,,,,,,,,,,,,,,,,,,,,,,,,,,,,,,,,
1768372140.364981,1768372140.365463,57.000000,0.000000,4325.128418,4325.769043,4355.256348,4342.820313,4321.922852,4339.615234,4319.871582,4283.846191,4351.282227,4324.102539,4508.461426,4545.384766,4394.871582,4316.282227,0.000000,2.000000,37.000000,,,,0.000000,4.000000,4.000000,4.000000,4.000000,4.000000,4.000000,4.000000,4.000000,4.000000,4.000000,4.000000,4.000000,4.000000,4.000000,100.000000,,,,,,,,,,,,,,,,,,,,,,,,,,,,,,,,,,,,,,,,,,,,,,,,,,,,,,,,,,,,,,,,,,,,,,,,,,,,,,,,,,,,,,,,,,,,,,,,,,,,,,,,,,,,,,,,,,,,,
1768372140.372789,1768372140.373371,58.000000,0.000000,4317.948730,4320.256348,4351.153809,4337.692383,4317.692383,4341.538574,4321.922852,4293.077148,4358.846191,4325.384766,4520.384766,4549.102539,4398.589844,4315.897461,0.000000,2.000000,37.000000,,,,0.000000,4.000000,4.000000,4.000000,4.000000,4.000000,4.000000,4.000000,4.000000,4.000000,4.000000,4.000000,4.000000,4.000000,4.000000,100.000000,,,,,,,,,,,,,,,,,,,,,,,,,,,,,,,,,,,,,,,,,,,,,,,,,,,,,,,,,,,,,,,,,,,,,,,,,,,,,,,,,,,,,,,,,,,,,,,,,,,,,,,,,,,,,,,,,,,,,
1768372140.380598,1768372140.381179,59.000000,0.000000,4318.974121,4318.205078,4355.128418,4335.512695,4316.410156,4340.897461,4323.974121,4293.974121,4358.589844,4319.615234,4523.077148,4550.128418,4398.717773,4323.717773,0.000000,2.000000,37.000000,,,,0.000000,4.000000,4.000000,4.000000,4.000000,4.000000,4.000000,4.000000,4.000000,4.000000,4.000000,4.000000,4.000000,4.000000,4.000000,100.000000,,,,,,,,,,,,,,,,,,,,,,,,,,,,,,,,,,,,,,,,,,,,,,,,,,,,,,,,,,,,,,,,,,,,,,,,,,,,,,,,,,,,,,,,,,,,,,,,,,,,,,,,,,,,,,,,,,,,,
1768372140.388406,1768372140.388788,60.000000,0.000000,4328.461426,4327.179688,4360.000000,4341.922852,4316.922852,4337.307617,4321.538574,4284.871582,4351.025879,4311.922852,4512.692383,4547.692383,4398.205078,4326.282227,0.000000,2.000000,37.000000,,,,0.000000,4.000000,4.000000,4.000000,4.000000,4.000000,4.000000,4.000000,4.000000,4.000000,4.000000,4.000000,4.000000,4.000000,4.000000,100.000000,,,,,,,,,,,,,,,,,,,,,,,,,,,,,,,,,,,,,,,,,,,,,,,,,,,,,,,,,,,,,,,,,,,,,,,,,,,,,,,,,,,,,,,,,,,,,,,,,,,,,,,,,,,,,,,,,,,,,
1768372140.396214,1768372140.396596,61.000000,0.000000,4327.820313,4330.128418,4356.025879,4345.641113,4316.794922,4333.461426,4315.641113,4278.974121,4344.102539,4312.051270,4507.051270,4543.333496,4395.512695,4315.769043,0.000000,2.000000,37.000000,,,,0.000000,4.000000,4.000000,4.000000,4.000000,4.000000,4.000000,4.000000,4.000000,4.000000,4.000000,4.000000,4.000000,4.000000,4.000000,100.000000,,,,,,,,,,,,,,,,,,,,,,,,,,,,,,,,,,,,,,,,,,,,,,,,,,,,,,,,,,,,,,,,,,,,,,,,,,,,,,,,,,,,,,,,,,,,,,,,,,,,,,,,,,,,,,,,,,,,,
1768372140.404023,1768372140.404305,62.000000,0.000000,4324.358887,4324.102539,4353.589844,4340.384766,4314.871582,4335.128418,4315.128418,4284.230957,4351.153809,4316.922852,4508.589844,4545.256348,4394.743652,4308.589844,0.000000,2.000000,37.000000,,,,0.000000,4.000000,4.000000,4.000000,4.000000,4.000000,4.000000,4.000000,4.000000,4.000000,4.000000,4.000000,4.000000,4.000000,4.000000,100.000000,,,,,,,,,,,,,,,,,,,,,,,,,,,,,,,,,,,,,,,,,,,,,,,,1.120691,0.280600,0.185736,0.182097,0.098610,0.901193,0.675749,0.184975,0.100200,0.087462,0.914387,0.349937,0.233599,0.129488,0.162064,1.000480,0.404172,0.189491,0.121749,0.069722,0.348616,0.265116,0.168787,0.038722,0.040301,0.216989,0.185135,0.165003,0.084044,0.086289,0.271176,0.267509,0.215049,0.099024,0.101241,0.743223,0.468455,0.296656,0.089502,0.138921,0.431531,0.367619,0.248313,0.132643,0.103347,0.657824,0.450328,0.216590,0.169908,0.098902,0.912898,0.318544,0.492703,0.308278,0.168447,1.485144,0.529847,0.594161,0.260870,0.219537,0.812236,0.275504,0.470125,0.284578,0.182728,1.667961,0.597966,0.489529,0.454604,0.217312
1768372140.411831,1768372140.412113,63.000000,0.000000,4325.512695,4319.230957,4356.538574,4334.743652,4313.589844,4340.128418,4319.487305,4288.461426,4358.846191,4319.487305,4509.487305,4550.384766,4397.179688,4315.384766,0.000000,2.000000,37.000000,,,,0.000000,4.000000,4.000000,4.000000,4.000000,4.000000,4.000000,4.000000,4.000000,4.000000,4.000000,4.000000,4.000000,4.000000,4.000000,100.000000,,,,,,,,,,,,,,,,,,,,,,,,,,,,,,,,,,,,,,,,,,,,,,,,,,,,,,,,,,,,,,,,,,,,,,,,,,,,,,,,,,,,,,,,,,,,,,,,,,,,,,,,,,,,,,,,,,,,,
1768372140.419640,1768372140.419722,64.000000,0.000000,4325.641113,4319.871582,4357.179688,4337.563965,4318.077148,4339.871582,4320.128418,4284.358887,4352.820313,4318.077148,4510.384766,4549.743652,4397.692383,4320.000000,4044.000000,2.000000,37.000000,,,,0.000000,4.000000,4.000000,4.000000,4.000000,4.000000,4.000000,4.000000,4.000000,4.000000,4.000000,4.000000,4.000000,4.000000,4.000000,100.000000,,,,,,,,,,,,,,,,,,,,,,,,,,,,,,,,,,,,,,,,,,,,,,,,,,,,,,,,,,,,,,,,,,,,,,,,,,,,,,,,,,,,,,,,,,,,,,,,,,,,,,,,,,,,,,,,,,,,,
1768372140.427448,1768372140.427531,65.000000,0.000000,4326.666504,4325.384766,4356.922852,4344.615234,4325.769043,4337.692383,4319.102539,4283.077148,4352.307617,4319.102539,4509.743652,4544.230957,4397.436035,4314.358887,3976.000000,2.000000,37.000000,,,,0.000000,4.000000,4.000000,4.000000,4.000000,4.000000,4.000000,4.000000,4.000000,4.000000,4.000000,4.000000,4.000000,4.000000,4.000000,100.000000,,,,,,,,,,,,,,,,,,,,,,,,,,,,,,,,,,,,,,,,,,,,,,,,,,,,,,,,,,,,,,,,,,,,,,,,,,,,,,,,,,,,,,,,,,,,,,,,,,,,,,,,,,,,,,,,,,,,,
1768372140.435257,1768372140.435439,66.000000,0.000000,4328.974121,4328.077148,4358.717773,4344.615234,4325.769043,4341.410156,4321.153809,4282.692383,4358.717773,4323.461426,4508.589844,4544.871582,4397.563965,4314.102539,3882.000000,2.000000,37.000000,,,,0.000000,4.000000,4.000000,4.000000,4.000000,4.000000,4.000000,4.000000,4.000000,4.000000,4.000000,4.000000,4.000000,4.000000,4.000000,100.000000,,,,,,,,,,,,,,,,,,,,,,,,,,,,,,,,,,,,,,,,,,,,,,,,,,,,,,,,,,,,,,,,,,,,,,,,,,,,,,,,,,,,,,,,,,,,,,,,,,,,,,,,,,,,,,,,,,,,,
1768372140.443065,1768372140.443247,67.000000,0.000000,4327.820313,4324.358887,4358.205078,4340.384766,4323.461426,4343.333496,4321.025879,4280.641113,4357.820313,4324.615234,4514.102539,4551.666504,4396.666504,4321.794922,3856.000000,2.000000,37.000000,,,,0.000000,4.000000,4.000000,4.000000,4.000000,4.000000,4.000000,4.000000,4.000000,4.000000,4.000000,4.000000,4.000000,4.000000,4.000000,100.000000,,,,,,,,,,,,,,,,,,,,,,,,,,,,,,,,,,,,,,,,,,,,,,,,,,,,,,,,,,,,,,,,,,,,,,,,,,,,,,,,,,,,,,,,,,,,,,,,,,,,,,,,,,,,,,,,,,,,,
1768372140.450873,1768372140.451256,68.000000,0.000000,4327.179688,4322.948730,4357.051270,4342.563965,4326.410156,4341.666504,4322.179688,4283.717773,4357.436035,4322.820313,4522.563965,4553.461426,4397.179688,4321.794922,3767.000000,2.000000,37.000000,,,,0.000000,4.000000,4.000000,4.000000,4.000000,4.000000,4.000000,4.000000,4.000000,4.000000,4.000000,4.000000,4.000000,4.000000,4.000000,100.000000,,,,,,,,,,,,,,,,,,,,,,,,,,,,,,,,,,,,,,,,,,,,,,,,,,,,,,,,,,,,,,,,,,,,,,,,,,,,,,,,,,,,,,,,,,,,,,,,,,,,,,,,,,,,,,,,,,,,,
1768372140.458682,1768372140.459064,69.000000,0.000000,4327.692383,4322.692383,4357.051270,4342.436035,4327.179688,4347.307617,4326.282227,4287.051270,4359.358887,4324.230957,4524.358887,4548.846191,4399.102539,4313.846191,3740.000000,2.000000,37.000000,,,,0.000000,4.000000,4.000000,4.000000,4.000000,4.000000,4.000000,4.000000,4.000000,4.000000,4.000000,4.000000,4.000000,4.000000,4.000000,100.000000,,,,,,,,,,,,,,,,,,,,,,,,,,,,,,,,,,,,,,,,,,,,,,,,,,,,,,,,,,,,,,,,,,,,,,,,,,,,,,,,,,,,,,,,,,,,,,,,,,,,,,,,,,,,,,,,,,,,,
1768372140.466490,1768372140.466972,70.000000,0.000000,4325.256348,4316.794922,4355.256348,4334.615234,4325.384766,4351.410156,4328.461426,4283.974121,4358.717773,4326.282227,4518.077148,4546.410156,4398.077148,4310.256348,3740.000000,2.000000,37.000000,,,,0.000000,4.000000,4.000000,4.000000,4.000000,4.000000,4.000000,4.000000,4.000000,4.000000,4.000000,4.000000,4.000000,4.000000,4.000000,100.000000,,,,,,,,,,,,,,,,,,,,,,,,,,,,,,,,,,,,,,,,,,,,,,,,,,,,,,,,,,,,,,,,,,,,,,,,,,,,,,,,,,,,,,,,,,,,,,,,,,,,,,,,,,,,,,,,,,,,,
1768372140.474299,1768372140.474781,71.000000,0.000000,4323.205078,4312.692383,4354.358887,4336.410156,4324.615234,4345.256348,4328.077148,4284.102539,4358.205078,4318.461426,4511.025879,4548.846191,4396.922852,4310.769043,3740.000000,2.000000,37.000000,,,,0.000000,4.000000,4.000000,4.000000,4.000000,4.000000,4.000000,4.000000,4.000000,4.000000,4.000000,4.000000,4.000000,4.000000,4.000000,100.000000,,,,,,,,,,,,,,,,,,,,,,,,,,,,,,,,,,,,,,,,,,,,,,,,,,,,,,,,,,,,,,,,,,,,,,,,,,,,,,,,,,,,,,,,,,,,,,,,,,,,,,,,,,,,,,,,,,,,,
1768372140.482107,1768372140.482389,72.000000,0.000000,4322.179688,4311.666504,4352.179688,4341.153809,4325.256348,4340.769043,4324.358887,4284.358887,4356.410156,4307.820313,4510.128418,4544.615234,4397.820313,4310.128418,3939.000000,2.000000,37.000000,,,,0.000000,4.000000,4.000000,4.000000,4.000000,4.000000,4.000000,4.000000,4.000000,4.000000,4.000000,4.000000,4.000000,4.000000,4.000000,100.000000,,,,,,,,,,,,,,,,,,,,,,,,,,,,,,,,,,,,,,,,,,,,,,,,,,,,,,,,,,,,,,,,,,,,,,,,,,,,,,,,,,,,,,,,,,,,,,,,,,,,,,,,,,,,,,,,,,,,,
1768372140.489916,1768372140.490198,73.000000,0.000000,4320.128418,4311.282227,4348.077148,4333.974121,4324.487305,4343.589844,4322.948730,4282.051270,4355.384766,4309.871582,4514.102539,4542.820313,4396.538574,4309.743652,3921.000000,2.000000,37.000000,,,,0.000000,4.000000,4.000000,4.000000,4.000000,4.000000,4.000000,4.000000,4.000000,4.000000,4.000000,4.000000,4.000000,4.000000,4.000000,100.000000,,,,,,,,,,,,,,,,,,,,,,,,,,,,,,,,,,,,,,,,,,,,,,,,,,,,,,,,,,,,,,,,,,,,,,,,,,,,,,,,,,,,,,,,,,,,,,,,,,,,,,,,,,,,,,,,,,,,,
1768372140.497724,1768372140.498106,74.000000,0.000000,4321.282227,4314.743652,4355.641113,4332.179688,4323.461426,4343.461426,4323.974121,4283.974121,4357.563965,4320.641113,4517.179688,4552.051270,4396.922852,4312.692383,4388.000000,2.000000,37.000000,,,,0.000000,4.000000,4.000000,4.000000,4.000000,4.000000,4.000000,4.000000,4.000000,4.000000,4.000000,4.000000,4.000000,4.000000,4.000000,100.000000,,,,,,,,,,,,,,,,,,,,,,,,,,,,,,,,,,,,,,,,,,,,,,,,,,,,,,,,,,,,,,,,,,,,,,,,,,,,,,,,,,,,,,,,,,,,,,,,,,,,,,,,,,,,,,,,,,,,,
1768372140.505533,1768372140.505915,75.000000,0.000000,4327.307617,4316.794922,4364.743652,4341.025879,4326.153809,4339.615234,4321.410156,4282.051270,4358.333496,4327.692383,4521.538574,4557.436035,4403.846191,4319.743652,4674.000000,2.000000,37.000000,,,,0.000000,4.000000,4.000000,4.000000,4.000000,4.000000,4.000000,4.000000,4.000000,4.000000,4.000000,4.000000,4.000000,4.000000,4.000000,100.000000,,,,,,,,,,,,,,,,,,,,,,,,,,,,,,,,,,,,,,,,,,,,,,,,,,,,,,,,,,,,,,,,,,,,,,,,,,,,,,,,,,,,,,,,,,,,,,,,,,,,,,,,,,,,,,,,,,,,,
1768372140.513341,1768372140.513723,76.000000,0.000000,4331.025879,4315.769043,4360.384766,4341.922852,4327.307617,4342.051270,4321.410156,4279.230957,4358.846191,4329.615234,4523.589844,4554.358887,4405.769043,4321.025879,5013.000000,2.000000,37.000000,,,,0.000000,4.000000,4.000000,4.000000,4.000000,4.000000,4.000000,4.000000,4.000000,4.000000,4.000000,4.000000,4.000000,4.000000,4.000000,100.000000,,,,,,,,,,,,,,,,,,,,,,,,,,,,,,,,,,,,,,,,,,,,,,,,,,,,,,,,,,,,,,,,,,,,,,,,,,,,,,,,,,,,,,,,,,,,,,,,,,,,,,,,,,,,,,,,,,,,,
1768372140.521150,1768372140.521532,77.000000,0.000000,4327.563965,4315.128418,4355.128418,4337.179688,4324.871582,4346.922852,4325.256348,4281.666504,4357.307617,4324.487305,4515.128418,4549.615234,4397.436035,4313.846191,5390.000000,2.000000,37.000000,,,,0.000000,4.000000,4.000000,4.000000,4.000000,4.000000,4.000000,4.000000,4.000000,4.000000,4.000000,4.000000,4.000000,4.000000,4.000000,100.000000,,,,,,,,,,,,,,,,,,,,,,,,,,,,,,,,,,,,,,,,,,,,,,,,,,,,,,,,,,,,,,,,,,,,,,,,,,,,,,,,,,,,,,,,,,,,,,,,,,,,,,,,,,,,,,,,,,,,,
1768372140.528958,1768372140.529240,78.000000,0.000000,4322.948730,4314.871582,4356.666504,4339.615234,4324.871582,4350.128418,4326.410156,4281.666504,4355.000000,4315.641113,4505.897461,4544.743652,4392.436035,4308.333496,4388.000000,2.000000,37.000000,,,,0.000000,4.000000,4.000000,4.000000,4.000000,4.000000,4.000000,4.000000,4.000000,4.000000,4.000000,4.000000,4.000000,4.000000,4.000000,100.000000,1.000000,75.000000,4.000000,4.000000,4.000000,4.000000,4.000000,4.000000,4.000000,1.000000,4.000000,4.000000,4.000000,4.000000,4.000000,4.000000,,,,,,,,,,,,,,,,,,,,,,,,,,,,,,,,1.191229,0.307074,0.172955,0.158853,0.088962,0.967839,0.711713,0.198218,0.094047,0.086681,0.912185,0.348813,0.217930,0.126939,0.155112,1.032433,0.430509,0.178301,0.108589,0.064535,0.362187,0.329612,0.206390,0.040483,0.039545,0.222225,0.200846,0.121381,0.084985,0.101419,0.222807,0.210906,0.156610,0.093334,0.102707,0.640487,0.415938,0.262563,0.089743,0.136541,0.367351,0.349778,0.223078,0.142464,0.105126,0.587643,0.441337,0.215961,0.163124,0.107426,0.893113,0.345143,0.462812,0.283399,0.159639,1.351320,0.497054,0.557578,0.247158,0.219287,0.751783,0.284225,0.440152,0.257883,0.178678,1.465338,0.610964,0.423065,0.417848,0.202466
1768372140.536766,1768372140.537049,79.000000,0.000000,4327.948730,4316.025879,4357.436035,4344.230957,4327.436035,4354.230957,4325.769043,4278.333496,4359.230957,4317.563965,4507.307617,4544.615234,4394.230957,4312.307617,4674.000000,2.000000,37.000000,,,,0.000000,4.000000,4.000000,4.000000,4.000000,4.000000,4.000000,4.000000,4.000000,4.000000,4.000000,4.000000,4.000000,4.000000,4.000000,100.000000,,,,,,,,,,,,,,,,,,,,,,,,,,,,,,,,,,,,,,,,,,,,,,,,,,,,,,,,,,,,,,,,,,,,,,,,,,,,,,,,,,,,,,,,,,,,,,,,,,,,,,,,,,,,,,,,,,,,,
1768372140.544575,1768372140.544657,80.000000,0.000000,4337.051270,4318.974121,4357.179688,4345.512695,4327.563965,4355.256348,4325.384766,4279.102539,4361.282227,4324.615234,4517.436035,4552.563965,4398.589844,4318.077148,5013.000000,2.000000,37.000000,,,,0.000000,4.000000,4.000000,4.000000,4.000000,4.000000,4.000000,4.000000,4.000000,4.000000,4.000000,4.000000,4.000000,4.000000,4.000000,100.000000,,,,,,,,,,,,,,,,,,,,,,,,,,,,,,,,,,,,,,,,,,,,,,,,,,,,,,,,,,,,,,,,,,,,,,,,,,,,,,,,,,,,,,,,,,,,,,,,,,,,,,,,,,,,,,,,,,,,,
1768372140.552383,1768372140.552466,81.000000,0.000000,4336.025879,4316.794922,4357.692383,4343.846191,4325.769043,4352.820313,4323.589844,4279.230957,4355.384766,4323.077148,4519.358887,4552.692383,4399.743652,4315.641113,5390.000000,2.000000,37.000000,,,,0.000000,4.000000,4.000000,4.000000,4.000000,4.000000,4.000000,4.000000,4.000000,4.000000,4.000000,4.000000,4.000000,4.000000,4.000000,100.000000,,,,,,,,,,,,,,,,,,,,,,,,,,,,,,,,,,,,,,,,,,,,,,,,,,,,,,,,,,,,,,,,,,,,,,,,,,,,,,,,,,,,,,,,,,,,,,,,,,,,,,,,,,,,,,,,,,,,,
1768372140.560192,1768372140.560374,82.000000,0.000000,4327.436035,4312.948730,4353.205078,4341.538574,4326.410156,4353.974121,4324.102539,4271.410156,4353.589844,4317.436035,4509.871582,4542.436035,4396.025879,4308.717773,4388.000000,2.000000,37.000000,,,,0.000000,4.000000,4.000000,4.000000,4.000000,4.000000,4.000000,4.000000,4.000000,4.000000,4.000000,4.000000,4.000000,4.000000,4.000000,100.000000,,,,,,,,,,,,,,,,,,,,,,,,,,,,,,,,,,,,,,,,,,,,,,,,,,,,,,,,,,,,,,,,,,,,,,,,,,,,,,,,,,,,,,,,,,,,,,,,,,,,,,,,,,,,,,,,,,,,,
1768372140.568000,1768372140.568183,83.000000,0.000000,4325.769043,4315.128418,4350.512695,4343.333496,4327.307617,4356.794922,4326.666504,4270.641113,4358.205078,4316.153809,4509.615234,4541.794922,4395.128418,4311.282227,4674.000000,2.000000,37.000000,,,,0.000000,4.000000,4.000000,4.000000,4.000000,4.000000,4.000000,4.000000,4.000000,4.000000,4.000000,4.000000,4.000000,4.000000,4.000000,100.000000,,,,,,,,,,,,,,,,,,,,,,,,,,,,,,,,,,,,,,,,,,,,,,,,,,,,,,,,,,,,,,,,,,,,,,,,,,,,,,,,,,,,,,,,,,,,,,,,,,,,,,,,,,,,,,,,,,,,,
1768372140.575809,1768372140.576191,84.000000,0.000000,4331.410156,4315.641113,4354.230957,4342.179688,4323.974121,4352.563965,4324.358887,4280.000000,4361.410156,4319.743652,4519.615234,4549.615234,4397.436035,4320.769043,5013.000000,2.000000,37.000000,,,,0.000000,4.000000,4.000000,4.000000,4.000000,4.000000,4.000000,4.000000,4.000000,4.000000,4.000000,4.000000,4.000000,4.000000,4.000000,100.000000,,,,,,,,,,,,,,,,,,,,,,,,,,,,,,,,,,,,,,,,,,,,,,,,,,,,,,,,,,,,,,,,,,,,,,,,,,,,,,,,,,,,,,,,,,,,,,,,,,,,,,,,,,,,,,,,,,,,,
1768372140.583617,1768372140.583999,85.000000,0.000000,4332.051270,4312.307617,4355.769043,4338.846191,4321.666504,4346.666504,4320.256348,4283.077148,4356.282227,4321.282227,4520.384766,4551.410156,4398.205078,4321.922852,5390.000000,2.000000,37.000000,,,,0.000000,4.000000,4.000000,4.000000,4.000000,4.000000,4.000000,4.000000,4.000000,4.000000,4.000000,4.000000,4.000000,4.000000,4.000000,100.000000,,,,,,,,,,,,,,,,,,,,,,,,,,,,,,,,,,,,,,,,,,,,,,,,,,,,,,,,,,,,,,,,,,,,,,,,,,,,,,,,,,,,,,,,,,,,,,,,,,,,,,,,,,,,,,,,,,,,,
1768372140.591426,1768372140.591708,86.000000,0.000000,4327.563965,4313.333496,4353.974121,4341.153809,4324.358887,4349.230957,4321.666504,4276.282227,4348.846191,4317.820313,4512.051270,4544.102539,4397.436035,4315.897461,4388.000000,2.000000,37.000000,,,,0.000000,4.000000,4.000000,4.000000,4.000000,4.000000,4.000000,4.000000,4.000000,4.000000,4.000000,4.000000,4.000000,4.000000,4.000000,100.000000,,,,,,,,,,,,,,,,,,,,,,,,,,,,,,,,,,,,,,,,,,,,,,,,,,,,,,,,,,,,,,,,,,,,,,,,,,,,,,,,,,,,,,,,,,,,,,,,,,,,,,,,,,,,,,,,,,,,,
1768372140.599234,1768372140.599516,87.000000,0.000000,4327.948730,4315.769043,4355.128418,4341.922852,4326.538574,4355.769043,4327.436035,4270.641113,4350.128418,4313.077148,4508.717773,4541.025879,4395.769043,4312.179688,4674.000000,2.000000,37.000000,,,,0.000000,4.000000,4.000000,4.000000,4.000000,4.000000,4.000000,4.000000,4.000000,4.000000,4.000000,4.000000,4.000000,4.000000,4.000000,100.000000,,,,,,,,,,,,,,,,,,,,,,,,,,,,,,,,,,,,,,,,,,,,,,,,,,,,,,,,,,,,,,,,,,,,,,,,,,,,,,,,,,,,,,,,,,,,,,,,,,,,,,,,,,,,,,,,,,,,,
1768372140.607042,1768372140.607125,88.000000,0.000000,4333.205078,4312.436035,4355.512695,4337.051270,4323.846191,4352.948730,4328.333496,4272.051270,4351.153809,4312.948730,4508.205078,4540.769043,4394.487305,4310.000000,5013.000000,2.000000,37.000000,,,,0.000000,4.000000,4.000000,4.000000,4.000000,4.000000,4.000000,4.000000,4.000000,4.000000,4.000000,4.000000,4.000000,4.000000,4.000000,100.000000,,,,,,,,,,,,,,,,,,,,,,,,,,,,,,,,,,,,,,,,,,,,,,,,,,,,,,,,,,,,,,,,,,,,,,,,,,,,,,,,,,,,,,,,,,,,,,,,,,,,,,,,,,,,,,,,,,,,,
1768372140.614851,1768372140.614933,89.000000,0.000000,4334.871582,4313.205078,4351.538574,4336.538574,4321.538574,4346.666504,4321.538574,4272.436035,4348.461426,4315.512695,4510.000000,4542.436035,4399.230957,4310.641113,5390.000000,2.000000,37.000000,,,,0.000000,4.000000,4.000000,4.000000,4.000000,4.000000,4.000000,4.000000,4.000000,4.000000,4.000000,4.000000,4.000000,4.000000,4.000000,100.000000,,,,,,,,,,,,,,,,,,,,,,,,,,,,,,,,,,,,,,,,,,,,,,,,,,,,,,,,,,,,,,,,,,,,,,,,,,,,,,,,,,,,,,,,,,,,,,,,,,,,,,,,,,,,,,,,,,,,,
1768372140.622659,1768372140.622642,90.000000,0.000000,4334.615234,4320.384766,4352.563965,4342.692383,4325.384766,4351.794922,4321.282227,4272.179688,4349.871582,4316.282227,4512.948730,4543.077148,4403.333496,4315.641113,4388.000000,2.000000,37.000000,,,,0.000000,4.000000,4.000000,4.000000,4.000000,4.000000,4.000000,4.000000,4.000000,4.000000,4.000000,4.000000,4.000000,4.000000,4.000000,100.000000,,,,,,,,,,,,,,,,,,,,,,,,,,,,,,,,,,,,,,,,,,,,,,,,,,,,,,,,,,,,,,,,,,,,,,,,,,,,,,,,,,,,,,,,,,,,,,,,,,,,,,,,,,,,,,,,,,,,,
1768372140.630468,1768372140.630450,91.000000,0.000000,4333.589844,4318.077148,4351.025879,4343.461426,4328.077148,4358.974121,4327.692383,4270.000000,4351.922852,4313.846191,4511.153809,4536.538574,4398.974121,4314.358887,4674.000000,2.000000,37.000000,,,,0.000000,4.000000,4.000000,4.000000,4.000000,4.000000,4.000000,4.000000,4.000000,4.000000,4.000000,4.000000,4.000000,4.000000,4.000000,100.000000,,,,,,,,,,,,,,,,,,,,,,,,,,,,,,,,,,,,,,,,,,,,,,,,,,,,,,,,,,,,,,,,,,,,,,,,,,,,,,,,,,,,,,,,,,,,,,,,,,,,,,,,,,,,,,,,,,,,,
1768372140.638276,1768372140.638459,92.000000,0.000000,4331.922852,4313.717773,4345.128418,4340.256348,4325.384766,4356.538574,4327.948730,4267.820313,4351.666504,4311.282227,4507.948730,4536.025879,4395.000000,4309.358887,5013.000000,2.000000,37.000000,,,,0.000000,4.000000,4.000000,4.000000,4.000000,4.000000,4.000000,4.000000,4.000000,4.000000,4.000000,4.000000,4.000000,4.000000,4.000000,100.000000,,,,,,,,,,,,,,,,,,,,,,,,,,,,,,,,,,,,,,,,,,,,,,,,,,,,,,,,,,,,,,,,,,,,,,,,,,,,,,,,,,,,,,,,,,,,,,,,,,,,,,,,,,,,,,,,,,,,,
1768372140.646085,1768372140.646267,93.000000,0.000000,4336.538574,4319.102539,4351.794922,4340.384766,4322.948730,4352.436035,4322.307617,4266.666504,4350.512695,4313.333496,4508.333496,4543.205078,4395.897461,4317.692383,5390.000000,2.000000,37.000000,,,,0.000000,4.000000,4.000000,4.000000,4.000000,4.000000,4.000000,4.000000,4.000000,4.000000,4.000000,4.000000,4.000000,4.000000,4.000000,100.000000,,,,,,,,,,,,,,,,,,,,,,,,,,,,,,,,,,,,,,,,,,,,,,,,,,,,,,,,,,,,,,,,,,,,,,,,,,,,,,,,,,,,,,,,,,,,,,,,,,,,,,,,,,,,,,,,,,,,,
1768372140.653893,1768372140.654175,94.000000,0.000000,4342.948730,4317.563965,4358.846191,4342.820313,4326.025879,4352.948730,4322.563965,4265.384766,4348.077148,4313.846191,4510.897461,4543.589844,4399.102539,4325.769043,4388.000000,2.000000,37.000000,,,,0.000000,4.000000,4.000000,4.000000,4.000000,4.000000,4.000000,4.000000,4.000000,4.000000,4.000000,4.000000,4.000000,4.000000,4.000000,100.000000,,,,,,,,,,,,,,,,,,,,,,,,,,,,,,,,,,,,,,,,,,,,,,,,1.223822,0.312925,0.156742,0.140587,0.084257,1.021886,0.682614,0.195919,0.094100,0.088047,0.875073,0.319717,0.189248,0.124655,0.149500,1.008210,0.414695,0.160005,0.097182,0.065442,0.361333,0.385102,0.228868,0.042871,0.039098,0.226733,0.238177,0.093738,0.083742,0.120728,0.180795,0.174309,0.108464,0.092476,0.105800,0.577622,0.373667,0.221053,0.090840,0.142623,0.312551,0.314251,0.188242,0.145920,0.117100,0.509663,0.416927,0.209310,0.157561,0.115935,0.852143,0.351359,0.406876,0.263813,0.160493,1.231149,0.440561,0.474989,0.229632,0.225875,0.669904,0.282206,0.379990,0.236089,0.178840,1.189885,0.571272,0.351541,0.369248,0.194853
1768372140.661702,1768372140.661984,95.000000,0.000000,4336.025879,4308.461426,4348.846191,4337.051270,4323.717773,4349.615234,4322.563965,4266.025879,4348.205078,4313.077148,4510.000000,4532.820313,4396.410156,4317.051270,4674.000000,2.000000,37.000000,,,,0.000000,4.000000,4.000000,4.000000,4.000000,4.000000,4.000000,4.000000,4.000000,4.000000,4.000000,4.000000,4.000000,4.000000,4.000000,100.000000,,,,,,,,,,,,,,,,,,,,,,,,,,,,,,,,,,,,,,,,,,,,,,,,,,,,,,,,,,,,,,,,,,,,,,,,,,,,,,,,,,,,,,,,,,,,,,,,,,,,,,,,,,,,,,,,,,,,,
1768372140.669510,1768372140.669992,96.000000,0.000000,4324.230957,4308.077148,4335.897461,4327.692383,4314.102539,4346.025879,4315.512695,4262.436035,4350.000000,4313.205078,4504.871582,4521.666504,4388.333496,4305.512695,5013.000000,2.000000,37.000000,,,,0.000000,4.000000,4.000000,4.000000,4.000000,4.000000,4.000000,4.000000,4.000000,4.000000,4.000000,4.000000,4.000000,4.000000,4.000000,100.000000,,,,,,,,,,,,,,,,,,,,,,,,,,,,,,,,,,,,,,,,,,,,,,,,,,,,,,,,,,,,,,,,,,,,,,,,,,,,,,,,,,,,,,,,,,,,,,,,,,,,,,,,,,,,,,,,,,,,,
1768372140.677318,1768372140.677800,97.000000,0.000000,4328.846191,4310.641113,4340.128418,4330.512695,4312.179688,4347.948730,4313.461426,4256.666504,4345.769043,4309.615234,4503.589844,4521.025879,4389.358887,4307.179688,5390.000000,2.000000,37.000000,,,,0.000000,4.000000,4.000000,4.000000,4.000000,4.000000,4.000000,4.000000,4.000000,4.000000,4.000000,4.000000,4.000000,4.000000,4.000000,100.000000,,,,,,,,,,,,,,,,,,,,,,,,,,,,,,,,,,,,,,,,,,,,,,,,,,,,,,,,,,,,,,,,,,,,,,,,,,,,,,,,,,,,,,,,,,,,,,,,,,,,,,,,,,,,,,,,,,,,,
1768372140.685127,1768372140.685709,98.000000,0.000000,4340.641113,4310.256348,4349.615234,4337.948730,4318.461426,4350.256348,4318.846191,4258.846191,4343.846191,4309.743652,4509.615234,4530.128418,4396.410156,4315.384766,4388.000000,2.000000,37.000000,,,,0.000000,4.000000,4.000000,4.000000,4.000000,4.000000,4.000000,4.000000,4.000000,4.000000,4.000000,4.000000,4.000000,4.000000,4.000000,100.000000,,,,,,,,,,,,,,,,,,,,,,,,,,,,,,,,,,,,,,,,,,,,,,,,,,,,,,,,,,,,,,,,,,,,,,,,,,,,,,,,,,,,,,,,,,,,,,,,,,,,,,,,,,,,,,,,,,,,,
1768372140.692935,1768372140.693517,99.000000,0.000000,4337.563965,4311.025879,4347.179688,4335.256348,4322.307617,4352.051270,4319.871582,4262.820313,4347.051270,4310.384766,4505.512695,4530.128418,4392.692383,4316.282227,4674.000000,2.000000,37.000000,,,,0.000000,4.000000,4.000000,4.000000,4.000000,4.000000,4.000000,4.000000,4.000000,4.000000,4.000000,4.000000,4.000000,4.000000,4.000000,100.000000,,,,,,,,,,,,,,,,,,,,,,,,,,,,,,,,,,,,,,,,,,,,,,,,,,,,,,,,,,,,,,,,,,,,,,,,,,,,,,,,,,,,,,,,,,,,,,,,,,,,,,,,,,,,,,,,,,,,,
1768372140.700744,1768372140.701525,100.000000,0.000000,4328.974121,4309.871582,4340.256348,4331.153809,4321.282227,4354.743652,4318.974121,4261.666504,4345.641113,4305.384766,4492.820313,4516.794922,4379.871582,4309.487305,5013.000000,2.000000,37.000000,,,,0.000000,4.000000,4.000000,4.000000,4.000000,4.000000,4.000000,4.000000,4.000000,4.000000,4.000000,4.000000,4.000000,4.000000,4.000000,100.000000,,,,,,,,,,,,,,,,,,,,,,,,,,,,,,,,,,,,,,,,,,,,,,,,,,,,,,,,,,,,,,,,,,,,,,,,,,,,,,,,,,,,,,,,,,,,,,,,,,,,,,,,,,,,,,,,,,,,,
1768372140.708552,1768372140.709334,101.000000,0.000000,4333.333496,4308.333496,4342.692383,4333.846191,4321.025879,4357.820313,4322.563965,4262.307617,4344.743652,4303.077148,4493.717773,4515.000000,4373.717773,4307.563965,5390.000000,2.000000,37.000000,,,,0.000000,4.000000,4.000000,4.000000,4.000000,4.000000,4.000000,4.000000,4.000000,4.000000,4.000000,4.000000,4.000000,4.000000,4.000000,100.000000,,,,,,,,,,,,,,,,,,,,,,,,,,,,,,,,,,,,,,,,,,,,,,,,,,,,,,,,,,,,,,,,,,,,,,,,,,,,,,,,,,,,,,,,,,,,,,,,,,,,,,,,,,,,,,,,,,,,,
1768372140.716360,1768372140.717042,102.000000,0.000000,4340.641113,4309.358887,4345.641113,4337.436035,4323.461426,4358.589844,4324.102539,4261.410156,4343.717773,4306.410156,4498.717773,4522.948730,4378.589844,4312.436035,4388.000000,2.000000,37.000000,,,,0.000000,4.000000,4.000000,4.000000,4.000000,4.000000,4.000000,4.000000,4.000000,4.000000,4.000000,4.000000,4.000000,4.000000,4.000000,100.000000,,,,,,,,,,,,,,,,,,,,,,,,,,,,,,,,,,,,,,,,,,,,,,,,,,,,,,,,,,,,,,,,,,,,,,,,,,,,,,,,,,,,,,,,,,,,,,,,,,,,,,,,,,,,,,,,,,,,,
1768372140.724169,1768372140.724851,103.000000,0.000000,4339.230957,4310.128418,4342.820313,4337.051270,4325.641113,4356.794922,4322.692383,4256.538574,4340.512695,4306.794922,4493.846191,4520.384766,4380.384766,4312.051270,4674.000000,2.000000,37.000000,,,,0.000000,4.000000,4.000000,4.000000,4.000000,4.000000,4.000000,4.000000,4.000000,4.000000,4.000000,4.000000,4.000000,4.000000,4.000000,100.000000,,,,,,,,,,,,,,,,,,,,,,,,,,,,,,,,,,,,,,,,,,,,,,,,,,,,,,,,,,,,,,,,,,,,,,,,,,,,,,,,,,,,,,,,,,,,,,,,,,,,,,,,,,,,,,,,,,,,,
1768372140.731977,1768372140.732460,104.000000,0.000000,4336.666504,4310.384766,4346.282227,4337.948730,4326.794922,4358.205078,4323.589844,4258.589844,4342.179688,4306.025879,4490.000000,4517.051270,4374.487305,4309.615234,5013.000000,2.000000,37.000000,,,,0.000000,4.000000,4.000000,4.000000,4.000000,4.000000,4.000000,4.000000,4.000000,4.000000,4.000000,4.000000,4.000000,4.000000,4.000000,100.000000,,,,,,,,,,,,,,,,,,,,,,,,,,,,,,,,,,,,,,,,,,,,,,,,,,,,,,,,,,,,,,,,,,,,,,,,,,,,,,,,,,,,,,,,,,,,,,,,,,,,,,,,,,,,,,,,,,,,,
1768372140.739786,1768372140.740268,105.000000,0.000000,4338.077148,4308.974121,4351.538574,4336.282227,4325.384766,4363.846191,4326.410156,4263.205078,4348.077148,4306.794922,4491.666504,4520.769043,4373.077148,4310.000000,5390.000000,2.000000,37.000000,,,,0.000000,4.000000,4.000000,4.000000,4.000000,4.000000,4.000000,4.000000,4.000000,4.000000,4.000000,4.000000,4.000000,4.000000,4.000000,100.000000,,,,,,,,,,,,,,,,,,,,,,,,,,,,,,,,,,,,,,,,,,,,,,,,,,,,,,,,,,,,,,,,,,,,,,,,,,,,,,,,,,,,,,,,,,,,,,,,,,,,,,,,,,,,,,,,,,,,,
1768372140.747594,1768372140.747977,106.000000,0.000000,4340.384766,4307.307617,4350.128418,4330.769043,4324.230957,4364.230957,4328.974121,4259.487305,4349.230957,4303.717773,4491.538574,4519.102539,4376.410156,4309.102539,4388.000000,2.000000,37.000000,,,,0.000000,4.000000,4.000000,4.000000,4.000000,4.000000,4.000000,4.000000,4.000000,4.000000,4.000000,4.000000,4.000000,4.000000,4.000000,100.000000,,,,,,,,,,,,,,,,,,,,,,,,,,,,,,,,,,,,,,,,,,,,,,,,,,,,,,,,,,,,,,,,,,,,,,,,,,,,,,,,,,,,,,,,,,,,,,,,,,,,,,,,,,,,,,,,,,,,,
1768372140.755403,1768372140.755785,107.000000,0.000000,4342.436035,4308.717773,4353.333496,4333.205078,4326.025879,4356.153809,4325.000000,4255.128418,4350.000000,4306.538574,4493.333496,4519.743652,4378.461426,4315.897461,4674.000000,2.000000,37.000000,,,,0.000000,4.000000,4.000000,4.000000,4.000000,4.000000,4.000000,4.000000,4.000000,4.000000,4.000000,4.000000,4.000000,4.000000,4.000000,100.000000,,,,,,,,,,,,,,,,,,,,,,,,,,,,,,,,,,,,,,,,,,,,,,,,,,,,,,,,,,,,,,,,,,,,,,,,,,,,,,,,,,,,,,,,,,,,,,,,,,,,,,,,,,,,,,,,,,,,,
1768372140.763211,1768372140.763794,108.000000,0.000000,4343.717773,4311.025879,4358.974121,4339.871582,4323.333496,4355.256348,4319.102539,4257.820313,4351.282227,4308.589844,4495.641113,4526.025879,4376.922852,4320.641113,5013.000000,2.000000,37.000000,,,,0.000000,4.000000,4.000000,4.000000,4.000000,4.000000,4.000000,4.000000,4.000000,4.000000,4.000000,4.000000,4.000000,4.000000,4.000000,100.000000,,,,,,,,,,,,,,,,,,,,,,,,,,,,,,,,,,,,,,,,,,,,,,,,,,,,,,,,,,,,,,,,,,,,,,,,,,,,,,,,,,,,,,,,,,,,,,,,,,,,,,,,,,,,,,,,,,,,,
1768372140.771020,1768372140.771602,109.000000,0.000000,4340.641113,4309.102539,4354.743652,4337.563965,4317.307617,4360.000000,4321.025879,4259.102539,4347.948730,4301.922852,4490.769043,4525.641113,4372.051270,4314.230957,5390.000000,2.000000,37.000000,,,,0.000000,4.000000,4.000000,4.000000,4.000000,4.000000,4.000000,4.000000,4.000000,4.000000,4.000000,4.000000,4.000000,4.000000,4.000000,100.000000,,,,,,,,,,,,,,,,,,,,,,,,,,,,,,,,,,,,,,,,,,,,,,,,,,,,,,,,,,,,,,,,,,,,,,,,,,,,,,,,,,,,,,,,,,,,,,,,,,,,,,,,,,,,,,,,,,,,,
1768372140.778828,1768372140.779511,110.000000,0.000000,4338.846191,4306.538574,4352.051270,4334.230957,4317.051270,4357.563965,4327.051270,4259.358887,4348.461426,4303.205078,4492.820313,4526.794922,4371.282227,4315.769043,4388.000000,2.000000,37.000000,,,,0.000000,4.000000,4.000000,4.000000,4.000000,4.000000,4.000000,4.000000,4.000000,4.000000,4.000000,4.000000,4.000000,4.000000,4.000000,100.000000,,,,,,,,,,,,,,,,,,,,,,,,,,,,,,,,,,,,,,,,,,,,,,,,1.205274,0.297352,0.136685,0.128324,0.085792,1.060814,0.598821,0.178376,0.099697,0.092094,0.804838,0.271132,0.155934,0.118537,0.146559,0.936352,0.362215,0.140198,0.090398,0.072611,0.351113,0.420193,0.229844,0.045835,0.039163,0.222888,0.293911,0.077418,0.081047,0.140250,0.151956,0.165207,0.075484,0.094087,0.109617,0.545206,0.340487,0.180517,0.091829,0.155687,0.284749,0.273378,0.148056,0.142765,0.135371,0.421456,0.383684,0.195214,0.156735,0.122670,0.809017,0.330763,0.337436,0.252373,0.168635,1.129410,0.361249,0.362017,0.208581,0.235216,0.591994,0.261142,0.304577,0.213702,0.180869,0.959430,0.486985,0.285346,0.314749,0.193156
1768372140.786636,1768372140.787319,111.000000,0.000000,4345.897461,4308.461426,4360.769043,4336.666504,4317.692383,4355.769043,4327.307617,4260.384766,4350.897461,4306.922852,4501.410156,4535.384766,4376.025879,4328.974121,4674.000000,2.000000,37.000000,,,,0.000000,4.000000,4.000000,4.000000,4.000000,4.000000,4.000000,4.000000,4.000000,4.000000,4.000000,4.000000,4.000000,4.000000,4.000000,100.000000,,,,,,,,,,,,,,,,,,,,,,,,,,,,,,,,,,,,,,,,,,,,,,,,,,,,,,,,,,,,,,,,,,,,,,,,,,,,,,,,,,,,,,,,,,,,,,,,,,,,,,,,,,,,,,,,,,,,,
1768372140.794445,1768372140.795328,112.000000,0.000000,4349.743652,4310.512695,4363.846191,4337.179688,4316.025879,4360.000000,4326.025879,4257.820313,4347.563965,4300.000000,4498.846191,4535.384766,4374.230957,4329.871582,5013.000000,2.000000,37.000000,,,,0.000000,4.000000,4.000000,4.000000,4.000000,4.000000,4.000000,4.000000,4.000000,4.000000,4.000000,4.000000,4.000000,4.000000,4.000000,100.000000,,,,,,,,,,,,,,,,,,,,,,,,,,,,,,,,,,,,,,,,,,,,,,,,,,,,,,,,,,,,,,,,,,,,,,,,,,,,,,,,,,,,,,,,,,,,,,,,,,,,,,,,,,,,,,,,,,,,,
1768372140.802253,1768372140.803136,113.000000,0.000000,4344.230957,4308.333496,4360.128418,4335.769043,4320.128418,4363.717773,4329.102539,4259.487305,4346.666504,4296.922852,4491.025879,4531.922852,4367.179688,4324.102539,5390.000000,2.000000,37.000000,,,,0.000000,4.000000,4.000000,4.000000,4.000000,4.000000,4.000000,4.000000,4.000000,4.000000,4.000000,4.000000,4.000000,4.000000,4.000000,100.000000,,,,,,,,,,,,,,,,,,,,,,,,,,,,,,,,,,,,,,,,,,,,,,,,,,,,,,,,,,,,,,,,,,,,,,,,,,,,,,,,,,,,,,,,,,,,,,,,,,,,,,,,,,,,,,,,,,,,,
1768372140.810062,1768372140.810845,114.000000,0.000000,4341.538574,4308.205078,4360.641113,4338.205078,4324.615234,4364.358887,4329.230957,4264.871582,4351.410156,4305.000000,4492.307617,4534.487305,4366.282227,4325.897461,4388.000000,2.000000,37.000000,,,,0.000000,4.000000,4.000000,4.000000,4.000000,4.000000,4.000000,4.000000,4.000000,4.000000,4.000000,4.000000,4.000000,4.000000,4.000000,100.000000,,,,,,,,,,,,,,,,,,,,,,,,,,,,,,,,,,,,,,,,,,,,,,,,,,,,,,,,,,,,,,,,,,,,,,,,,,,,,,,,,,,,,,,,,,,,,,,,,,,,,,,,,,,,,,,,,,,,,
1768372140.817870,1768372140.818653,115.000000,0.000000,4343.333496,4311.410156,4360.512695,4338.461426,4320.769043,4363.205078,4326.282227,4261.153809,4353.717773,4305.000000,4493.717773,4532.179688,4367.051270,4325.256348,4674.000000,2.000000,37.000000,,,,0.000000,4.000000,4.000000,4.000000,4.000000,4.000000,4.000000,4.000000,4.000000,4.000000,4.000000,4.000000,4.000000,4.000000,4.000000,100.000000,,,,,,,,,,,,,,,,,,,,,,,,,,,,,,,,,,,,,,,,,,,,,,,,,,,,,,,,,,,,,,,,,,,,,,,,,,,,,,,,,,,,,,,,,,,,,,,,,,,,,,,,,,,,,,,,,,,,,
1768372140.825679,1768372140.826661,116.000000,0.000000,4343.717773,4309.230957,4360.897461,4337.307617,4319.743652,4364.358887,4331.153809,4255.897461,4352.563965,4297.820313,4493.205078,4531.410156,4365.769043,4325.769043,5013.000000,2.000000,37.000000,,,,0.000000,4.000000,4.000000,4.000000,4.000000,4.000000,4.000000,4.000000,4.000000,4.000000,4.000000,4.000000,4.000000,4.000000,4.000000,100.000000,,,,,,,,,,,,,,,,,,,,,,,,,,,,,,,,,,,,,,,,,,,,,,,,,,,,,,,,,,,,,,,,,,,,,,,,,,,,,,,,,,,,,,,,,,,,,,,,,,,,,,,,,,,,,,,,,,,,,
1768372140.833487,1768372140.834470,117.000000,0.000000,4341.410156,4301.666504,4361.153809,4335.897461,4320.256348,4366.794922,4335.769043,4262.051270,4352.820313,4296.025879,4490.897461,4532.948730,4362.948730,4325.128418,5390.000000,2.000000,37.000000,,,,0.000000,4.000000,4.000000,4.000000,4.000000,4.000000,4.000000,4.000000,4.000000,4.000000,4.000000,4.000000,4.000000,4.000000,4.000000,100.000000,,,,,,,,,,,,,,,,,,,,,,,,,,,,,,,,,,,,,,,,,,,,,,,,,,,,,,,,,,,,,,,,,,,,,,,,,,,,,,,,,,,,,,,,,,,,,,,,,,,,,,,,,,,,,,,,,,,,,
1768372140.841296,1768372140.842378,118.000000,0.000000,4331.410156,4293.846191,4353.846191,4330.769043,4312.692383,4364.230957,4328.077148,4265.769043,4352.307617,4294.743652,4480.641113,4525.384766,4353.717773,4312.820313,4388.000000,2.000000,37.000000,,,,0.000000,4.000000,4.000000,4.000000,4.000000,4.000000,4.000000,4.000000,4.000000,4.000000,4.000000,4.000000,4.000000,4.000000,4.000000,100.000000,,,,,,,,,,,,,,,,,,,,,,,,,,,,,,,,,,,,,,,,,,,,,,,,,,,,,,,,,,,,,,,,,,,,,,,,,,,,,,,,,,,,,,,,,,,,,,,,,,,,,,,,,,,,,,,,,,,,,
1768372140.849104,1768372140.850187,119.000000,0.000000,4325.641113,4293.589844,4349.615234,4328.461426,4310.897461,4361.666504,4326.282227,4262.436035,4353.333496,4296.282227,4478.589844,4523.333496,4350.128418,4308.333496,4674.000000,2.000000,37.000000,,,,0.000000,4.000000,4.000000,4.000000,4.000000,4.000000,4.000000,4.000000,4.000000,4.000000,4.000000,4.000000,4.000000,4.000000,4.000000,100.000000,,,,,,,,,,,,,,,,,,,,,,,,,,,,,,,,,,,,,,,,,,,,,,,,,,,,,,,,,,,,,,,,,,,,,,,,,,,,,,,,,,,,,,,,,,,,,,,,,,,,,,,,,,,,,,,,,,,,,
1768372140.856912,1768372140.858195,120.000000,0.000000,4334.871582,4303.846191,4356.538574,4334.102539,4317.948730,4364.871582,4337.563965,4267.820313,4359.743652,4305.000000,4493.205078,4535.897461,4362.948730,4326.025879,5013.000000,2.000000,37.000000,,,,0.000000,4.000000,4.000000,4.000000,4.000000,4.000000,4.000000,4.000000,4.000000,4.000000,4.000000,4.000000,4.000000,4.000000,4.000000,100.000000,,,,,,,,,,,,,,,,,,,,,,,,,,,,,,,,,,,,,,,,,,,,,,,,,,,,,,,,,,,,,,,,,,,,,,,,,,,,,,,,,,,,,,,,,,,,,,,,,,,,,,,,,,,,,,,,,,,,,
1768372140.864721,1768372140.866003,121.000000,0.000000,4344.615234,4309.871582,4360.641113,4342.307617,4321.794922,4366.666504,4340.897461,4273.846191,4365.256348,4311.666504,4498.974121,4541.922852,4373.461426,4339.871582,5390.000000,2.000000,37.000000,,,,0.000000,4.000000,4.000000,4.000000,4.000000,4.000000,4.000000,4.000000,4.000000,4.000000,4.000000,4.000000,4.000000,4.000000,4.000000,100.000000,,,,,,,,,,,,,,,,,,,,,,,,,,,,,,,,,,,,,,,,,,,,,,,,,,,,,,,,,,,,,,,,,,,,,,,,,,,,,,,,,,,,,,,,,,,,,,,,,,,,,,,,,,,,,,,,,,,,,
1768372140.872529,1768372140.873712,122.000000,0.000000,4344.230957,4305.128418,4357.820313,4343.077148,4321.025879,4363.717773,4334.230957,4266.282227,4360.512695,4308.589844,4492.948730,4533.461426,4364.871582,4331.025879,4388.000000,2.000000,37.000000,,,,0.000000,4.000000,4.000000,4.000000,4.000000,4.000000,4.000000,4.000000,4.000000,4.000000,4.000000,4.000000,4.000000,4.000000,4.000000,100.000000,,,,,,,,,,,,,,,,,,,,,,,,,,,,,,,,,,,,,,,,,,,,,,,,,,,,,,,,,,,,,,,,,,,,,,,,,,,,,,,,,,,,,,,,,,,,,,,,,,,,,,,,,,,,,,,,,,,,,
1768372140.880338,1768372140.881520,123.000000,0.000000,4339.871582,4299.615234,4356.025879,4337.436035,4319.487305,4363.077148,4331.922852,4261.410156,4353.077148,4303.461426,4492.436035,4530.384766,4357.692383,4325.897461,4674.000000,2.000000,37.000000,,,,0.000000,4.000000,4.000000,4.000000,4.000000,4.000000,4.000000,4.000000,4.000000,4.000000,4.000000,4.000000,4.000000,4.000000,4.000000,100.000000,,,,,,,,,,,,,,,,,,,,,,,,,,,,,,,,,,,,,,,,,,,,,,,,,,,,,,,,,,,,,,,,,,,,,,,,,,,,,,,,,,,,,,,,,,,,,,,,,,,,,,,,,,,,,,,,,,,,,
1768372140.888146,1768372140.889529,124.000000,0.000000,4338.974121,4299.230957,4354.358887,4334.871582,4320.256348,4366.410156,4334.487305,4267.307617,4351.666504,4301.153809,4493.461426,4533.077148,4362.820313,4335.256348,5013.000000,2.000000,37.000000,,,,0.000000,4.000000,4.000000,4.000000,4.000000,4.000000,4.000000,4.000000,4.000000,4.000000,4.000000,4.000000,4.000000,4.000000,4.000000,100.000000,,,,,,,,,,,,,,,,,,,,,,,,,,,,,,,,,,,,,,,,,,,,,,,,,,,,,,,,,,,,,,,,,,,,,,,,,,,,,,,,,,,,,,,,,,,,,,,,,,,,,,,,,,,,,,,,,,,,,
1768372140.895955,1768372140.897337,125.000000,0.000000,4344.358887,4302.948730,4356.410156,4337.307617,4323.205078,4367.948730,4337.051270,4267.051270,4351.922852,4298.205078,4492.179688,4532.436035,4362.692383,4338.974121,5390.000000,2.000000,37.000000,,,,0.000000,4.000000,4.000000,4.000000,4.000000,4.000000,4.000000,4.000000,4.000000,4.000000,4.000000,4.000000,4.000000,4.000000,4.000000,100.000000,,,,,,,,,,,,,,,,,,,,,,,,,,,,,,,,,,,,,,,,,,,,,,,,,,,,,,,,,,,,,,,,,,,,,,,,,,,,,,,,,,,,,,,,,,,,,,,,,,,,,,,,,,,,,,,,,,,,,
1768372140.903763,1768372140.905046,126.000000,0.000000,4351.153809,4310.128418,4362.563965,4342.307617,4318.461426,4362.948730,4331.922852,4259.487305,4347.948730,4295.256348,4491.282227,4531.282227,4356.538574,4336.025879,4388.000000,2.000000,37.000000,,,,0.000000,4.000000,4.000000,4.000000,4.000000,4.000000,4.000000,4.000000,4.000000,4.000000,4.000000,4.000000,4.000000,4.000000,4.000000,100.000000,,,,,,,,,,,,,,,,,,,,,,,,,,,,,,,,,,,,,,,,,,,,,,,,1.150329,0.268610,0.115103,0.120996,0.093649,1.092960,0.486984,0.150038,0.109024,0.098128,0.700529,0.216154,0.126371,0.108077,0.146600,0.850310,0.292589,0.123552,0.089506,0.084678,0.348064,0.431083,0.210052,0.048770,0.039720,0.204549,0.358729,0.067253,0.078011,0.154919,0.135613,0.182271,0.060983,0.095425,0.112604,0.513456,0.309742,0.151538,0.092222,0.170785,0.289123,0.234483,0.110077,0.135917,0.153095,0.370131,0.350900,0.177843,0.165796,0.126772,0.757077,0.288215,0.270688,0.256020,0.180737,1.020384,0.266944,0.245901,0.188256,0.242217,0.530555,0.221596,0.230437,0.190657,0.182131,0.744626,0.380838,0.233370,0.266382,0.194933
1768372140.911572,1768372140.912854,127.000000,0.000000,4352.563965,4311.282227,4362.692383,4342.692383,4312.051270,4357.948730,4322.692383,4256.025879,4345.128418,4294.615234,4488.333496,4527.436035,4356.410156,4336.410156,37.000000,2.000000,37.000000,,,,0.000000,4.000000,4.000000,4.000000,4.000000,4.000000,4.000000,4.000000,4.000000,4.000000,4.000000,4.000000,4.000000,4.000000,4.000000,100.000000,,,,,,,,,,,,,,,,,,,,,,,,,,,,,,,,,,,,,,,,,,,,,,,,,,,,,,,,,,,,,,,,,,,,,,,,,,,,,,,,,,,,,,,,,,,,,,,,,,,,,,,,,,,,,,,,,,,,,
1768372140.919380,1768372140.920463,0.000000,0.000000,4348.461426,4309.102539,4359.358887,4341.410156,4316.666504,4363.461426,4330.128418,4259.487305,4349.871582,4299.743652,4490.897461,4526.794922,4359.615234,4339.615234,4044.000000,2.000000,37.000000,,,,0.000000,4.000000,4.000000,4.000000,4.000000,4.000000,4.000000,4.000000,4.000000,4.000000,4.000000,4.000000,4.000000,4.000000,4.000000,100.000000,,,,,,,,,,,,,,,,,,,,,,,,,,,,,,,,,,,,,,,,,,,,,,,,,,,,,,,,,,,,,,,,,,,,,,,,,,,,,,,,,,,,,,,,,,,,,,,,,,,,,,,,,,,,,,,,,,,,,
1768372140.927189,1768372140.928271,1.000000,0.000000,4344.358887,4311.153809,4357.563965,4344.102539,4324.230957,4369.743652,4340.897461,4263.846191,4353.333496,4303.846191,4491.794922,4530.769043,4356.794922,4339.230957,3976.000000,2.000000,37.000000,,,,0.000000,4.000000,4.000000,4.000000,4.000000,4.000000,4.000000,4.000000,4.000000,4.000000,4.000000,4.000000,4.000000,4.000000,4.000000,100.000000,,,,,,,,,,,,,,,,,,,,,,,,,,,,,,,,,,,,,,,,,,,,,,,,,,,,,,,,,,,,,,,,,,,,,,,,,,,,,,,,,,,,,,,,,,,,,,,,,,,,,,,,,,,,,,,,,,,,,
1768372140.934997,1768372140.935980,2.000000,0.000000,4345.128418,4309.230957,4354.743652,4343.461426,4321.794922,4360.641113,4331.922852,4260.769043,4346.025879,4297.179688,4483.461426,4524.871582,4349.743652,4335.897461,3882.000000,2.000000,37.000000,,,,0.000000,4.000000,4.000000,4.000000,4.000000,4.000000,4.000000,4.000000,4.000000,4.000000,4.000000,4.000000,4.000000,4.000000,4.000000,100.000000,,,,,,,,,,,,,,,,,,,,,,,,,,,,,,,,,,,,,,,,,,,,,,,,,,,,,,,,,,,,,,,,,,,,,,,,,,,,,,,,,,,,,,,,,,,,,,,,,,,,,,,,,,,,,,,,,,,,,
1768372140.942805,1768372140.943788,3.000000,0.000000,4349.743652,4304.871582,4355.256348,4339.358887,4314.358887,4353.974121,4322.563965,4255.769043,4340.128418,4293.205078,4483.077148,4518.717773,4350.769043,4336.153809,3856.000000,2.000000,37.000000,,,,0.000000,4.000000,4.000000,4.000000,4.000000,4.000000,4.000000,4.000000,4.000000,4.000000,4.000000,4.000000,4.000000,4.000000,4.000000,100.000000,,,,,,,,,,,,,,,,,,,,,,,,,,,,,,,,,,,,,,,,,,,,,,,,,,,,,,,,,,,,,,,,,,,,,,,,,,,,,,,,,,,,,,,,,,,,,,,,,,,,,,,,,,,,,,,,,,,,,
1768372140.950614,1768372140.951397,4.000000,0.000000,4350.128418,4305.641113,4356.666504,4337.563965,4313.077148,4358.333496,4326.922852,4257.051270,4342.563965,4297.051270,4489.615234,4521.538574,4355.641113,4339.487305,3767.000000,2.000000,37.000000,,,,0.000000,4.000000,4.000000,4.000000,4.000000,4.000000,4.000000,4.000000,4.000000,4.000000,4.000000,4.000000,4.000000,4.000000,4.000000,100.000000,,,,,,,,,,,,,,,,,,,,,,,,,,,,,,,,,,,,,,,,,,,,,,,,,,,,,,,,,,,,,,,,,,,,,,,,,,,,,,,,,,,,,,,,,,,,,,,,,,,,,,,,,,,,,,,,,,,,,
1768372140.958422,1768372140.959205,5.000000,0.000000,4348.205078,4306.666504,4353.333496,4338.589844,4315.769043,4358.846191,4331.153809,4260.000000,4346.410156,4295.641113,4483.461426,4518.589844,4351.666504,4338.846191,3740.000000,2.000000,37.000000,,,,0.000000,4.000000,4.000000,4.000000,4.000000,4.000000,4.000000,4.000000,4.000000,4.000000,4.000000,4.000000,4.000000,4.000000,4.000000,100.000000,,,,,,,,,,,,,,,,,,,,,,,,,,,,,,,,,,,,,,,,,,,,,,,,,,,,,,,,,,,,,,,,,,,,,,,,,,,,,,,,,,,,,,,,,,,,,,,,,,,,,,,,,,,,,,,,,,,,,
1768372140.966231,1768372140.967114,6.000000,0.000000,4348.974121,4306.794922,4350.128418,4340.256348,4316.666504,4360.256348,4332.307617,4258.717773,4348.333496,4293.077148,4474.358887,4512.820313,4348.333496,4337.179688,3740.000000,2.000000,37.000000,,,,0.000000,4.000000,4.000000,4.000000,4.000000,4.000000,4.000000,4.000000,4.000000,4.000000,4.000000,4.000000,4.000000,4.000000,4.000000,100.000000,,,,,,,,,,,,,,,,,,,,,,,,,,,,,,,,,,,,,,,,,,,,,,,,,,,,,,,,,,,,,,,,,,,,,,,,,,,,,,,,,,,,,,,,,,,,,,,,,,,,,,,,,,,,,,,,,,,,,
1768372140.974039,1768372140.974922,7.000000,0.000000,4348.589844,4308.974121,4354.358887,4341.282227,4316.538574,4366.538574,4331.794922,4256.153809,4346.282227,4294.743652,4478.589844,4520.128418,4350.384766,4341.666504,3740.000000,2.000000,37.000000,,,,0.000000,4.000000,4.000000,4.000000,4.000000,4.000000,4.000000,4.000000,4.000000,4.000000,4.000000,4.000000,4.000000,4.000000,4.000000,100.000000,,,,,,,,,,,,,,,,,,,,,,,,,,,,,,,,,,,,,,,,,,,,,,,,,,,,,,,,,,,,,,,,,,,,,,,,,,,,,,,,,,,,,,,,,,,,,,,,,,,,,,,,,,,,,,,,,,,,,
1768372140.981848,1768372140.982930,8.000000,0.000000,4347.820313,4310.384766,4359.615234,4342.051270,4317.692383,4364.230957,4326.922852,4253.974121,4341.922852,4292.563965,4485.384766,4527.179688,4348.846191,4344.230957,3939.000000,2.000000,37.000000,,,,0.000000,4.000000,4.000000,4.000000,4.000000,4.000000,4.000000,4.000000,4.000000,4.000000,4.000000,4.000000,4.000000,4.000000,4.000000,100.000000,,,,,,,,,,,,,,,,,,,,,,,,,,,,,,,,,,,,,,,,,,,,,,,,,,,,,,,,,,,,,,,,,,,,,,,,,,,,,,,,,,,,,,,,,,,,,,,,,,,,,,,,,,,,,,,,,,,,,
1768372140.989656,1768372140.990739,9.000000,0.000000,4350.512695,4311.025879,4356.410156,4343.846191,4313.589844,4356.282227,4325.256348,4251.794922,4342.179688,4288.717773,4487.948730,4527.436035,4348.846191,4342.179688,3921.000000,2.000000,37.000000,,,,0.000000,4.000000,4.000000,4.000000,4.000000,4.000000,4.000000,4.000000,4.000000,4.000000,4.000000,4.000000,4.000000,4.000000,4.000000,100.000000,,,,,,,,,,,,,,,,,,,,,,,,,,,,,,,,,,,,,,,,,,,,,,,,,,,,,,,,,,,,,,,,,,,,,,,,,,,,,,,,,,,,,,,,,,,,,,,,,,,,,,,,,,,,,,,,,,,,,
1768372140.997464,1768372140.998447,10.000000,0.000000,4349.358887,4316.282227,4351.922852,4344.487305,4307.307617,4355.769043,4327.563965,4254.102539,4343.333496,4290.000000,4486.282227,4526.153809,4352.563965,4341.922852,4397.000000,2.000000,37.000000,,,,0.000000,4.000000,4.000000,4.000000,4.000000,4.000000,4.000000,4.000000,4.000000,4.000000,4.000000,4.000000,4.000000,4.000000,4.000000,100.000000,,,,,,,,,,,,,,,,,,,,,,,,,,,,,,,,,,,,,,,,,,,,,,,,,,,,,,,,,,,,,,,,,,,,,,,,,,,,,,,,,,,,,,,,,,,,,,,,,,,,,,,,,,,,,,,,,,,,,
1768372141.005273,1768372141.006256,11.000000,0.000000,4343.461426,4322.051270,4354.615234,4344.615234,4310.641113,4358.333496,4326.666504,4257.051270,4341.666504,4288.333496,4479.743652,4520.641113,4348.974121,4340.897461,4687.000000,2.000000,37.000000,,,,0.000000,4.000000,4.000000,4.000000,4.000000,4.000000,4.000000,4.000000,4.000000,4.000000,4.000000,4.000000,4.000000,4.000000,4.000000,100.000000,,,,,,,,,,,,,,,,,,,,,,,,,,,,,,,,,,,,,,,,,,,,,,,,,,,,,,,,,,,,,,,,,,,,,,,,,,,,,,,,,,,,,,,,,,,,,,,,,,,,,,,,,,,,,,,,,,,,,
1768372141.013081,1768372141.013864,12.000000,0.000000,4345.000000,4326.153809,4357.436035,4349.487305,4314.615234,4358.846191,4324.871582,4252.051270,4342.307617,4282.692383,4477.436035,4515.512695,4343.461426,4341.025879,5013.000000,2.000000,37.000000,,,,0.000000,4.000000,4.000000,4.000000,4.000000,4.000000,4.000000,4.000000,4.000000,4.000000,4.000000,4.000000,4.000000,4.000000,4.000000,100.000000,,,,,,,,,,,,,,,,,,,,,,,,,,,,,,,,,,,,,,,,,,,,,,,,,,,,,,,,,,,,,,,,,,,,,,,,,,,,,,,,,,,,,,,,,,,,,,,,,,,,,,,,,,,,,,,,,,,,,
1768372141.020890,1768372141.021673,13.000000,0.000000,4353.205078,4325.641113,4353.461426,4351.282227,4311.153809,4357.820313,4323.461426,4243.974121,4341.153809,4282.179688,4476.922852,4514.358887,4342.051270,4341.794922,5394.000000,2.000000,37.000000,,,,0.000000,4.000000,4.000000,4.000000,4.000000,4.000000,4.000000,4.000000,4.000000,4.000000,4.000000,4.000000,4.000000,4.000000,4.000000,100.000000,,,,,,,,,,,,,,,,,,,,,,,,,,,,,,,,,,,,,,,,,,,,,,,,,,,,,,,,,,,,,,,,,,,,,,,,,,,,,,,,,,,,,,,,,,,,,,,,,,,,,,,,,,,,,,,,,,,,,
1768372141.028698,1768372141.029381,14.000000,0.000000,4353.333496,4320.000000,4352.436035,4345.384766,4308.974121,4356.282227,4323.589844,4247.307617,4337.051270,4282.436035,4475.641113,4517.051270,4342.436035,4341.153809,4397.000000,2.000000,37.000000,,,,0.000000,4.000000,4.000000,4.000000,4.000000,4.000000,4.000000,4.000000,4.000000,4.000000,4.000000,4.000000,4.000000,4.000000,4.000000,100.000000,1.000000,66.666664,4.000000,4.000000,4.000000,4.000000,4.000000,4.000000,4.000000,1.000000,4.000000,4.000000,4.000000,4.000000,4.000000,3.000000,,,,,,,,,,,,,,,,,,,,,,,,,,,,,,,,1.057596,0.239099,0.094564,0.116175,0.107018,1.090927,0.378484,0.116887,0.119666,0.104190,0.580318,0.167416,0.105005,0.096811,0.149326,0.749208,0.229871,0.110648,0.093697,0.099225,0.348299,0.418905,0.174733,0.051018,0.040672,0.176365,0.418817,0.062187,0.075013,0.160584,0.125905,0.215953,0.065039,0.094767,0.113483,0.470964,0.274919,0.136482,0.092556,0.182127,0.301772,0.203925,0.080251,0.129923,0.163472,0.337939,0.329131,0.160389,0.186482,0.127887,0.694549,0.235027,0.218837,0.279700,0.193665,0.885334,0.173779,0.153667,0.174404,0.243968,0.489452,0.172170,0.170134,0.172741,0.181104,0.621623,0.278674,0.202454,0.236378,0.198572
1768372141.036507,1768372141.037190,15.000000,0.000000,4348.589844,4319.743652,4352.820313,4342.307617,4310.641113,4358.717773,4327.307617,4257.179688,4340.384766,4281.538574,4478.205078,4520.769043,4346.538574,4342.563965,4687.000000,2.000000,37.000000,,,,0.000000,4.000000,4.000000,4.000000,4.000000,4.000000,4.000000,4.000000,4.000000,4.000000,4.000000,4.000000,4.000000,4.000000,4.000000,100.000000,,,,,,,,,,,,,,,,,,,,,,,,,,,,,,,,,,,,,,,,,,,,,,,,,,,,,,,,,,,,,,,,,,,,,,,,,,,,,,,,,,,,,,,,,,,,,,,,,,,,,,,,,,,,,,,,,,,,,
1768372141.044315,1768372141.045198,16.000000,0.000000,4347.179688,4322.692383,4345.000000,4342.820313,4312.436035,4359.487305,4326.666504,4252.563965,4340.000000,4278.077148,4477.820313,4515.384766,4348.461426,4341.666504,0.000000,2.000000,37.000000,,,,0.000000,4.000000,4.000000,4.000000,4.000000,4.000000,4.000000,4.000000,4.000000,4.000000,4.000000,4.000000,4.000000,4.000000,4.000000,100.000000,,,,,,,,,,,,,,,,,,,,,,,,,,,,,,,,,,,,,,,,,,,,,,,,,,,,,,,,,,,,,,,,,,,,,,,,,,,,,,,,,,,,,,,,,,,,,,,,,,,,,,,,,,,,,,,,,,,,,
1768372141.052123,1768372141.053006,17.000000,0.000000,4347.692383,4322.051270,4341.410156,4342.692383,4311.922852,4353.077148,4320.128418,4239.230957,4329.358887,4272.820313,4472.820313,4506.153809,4342.051270,4336.794922,0.000000,2.000000,37.000000,,,,0.000000,4.000000,4.000000,4.000000,4.000000,4.000000,4.000000,4.000000,4.000000,4.000000,4.000000,4.000000,4.000000,4.000000,4.000000,100.000000,,,,,,,,,,,,,,,,,,,,,,,,,,,,,,,,,,,,,,,,,,,,,,,,,,,,,,,,,,,,,,,,,,,,,,,,,,,,,,,,,,,,,,,,,,,,,,,,,,,,,,,,,,,,,,,,,,,,,
1768372141.059932,1768372141.060915,18.000000,0.000000,4349.743652,4320.769043,4349.102539,4343.974121,4311.538574,4348.461426,4319.230957,4237.948730,4326.794922,4271.666504,4473.717773,4510.384766,4339.743652,4337.692383,0.000000,2.000000,37.000000,,,,0.000000,4.000000,4.000000,4.000000,4.000000,4.000000,4.000000,4.000000,4.000000,4.000000,4.000000,4.000000,4.000000,4.000000,4.000000,100.000000,,,,,,,,,,,,,,,,,,,,,,,,,,,,,,,,,,,,,,,,,,,,,,,,,,,,,,,,,,,,,,,,,,,,,,,,,,,,,,,,,,,,,,,,,,,,,,,,,,,,,,,,,,,,,,,,,,,,,
1768372141.067740,1768372141.068723,19.000000,0.000000,4352.179688,4319.871582,4353.461426,4343.717773,4309.487305,4347.436035,4321.410156,4242.692383,4332.692383,4276.153809,4477.692383,4518.333496,4345.641113,4343.461426,0.000000,2.000000,37.000000,,,,0.000000,4.000000,4.000000,4.000000,4.000000,4.000000,4.000000,4.000000,4.000000,4.000000,4.000000,4.000000,4.000000,4.000000,4.000000,100.000000,,,,,,,,,,,,,,,,,,,,,,,,,,,,,,,,,,,,,,,,,,,,,,,,,,,,,,,,,,,,,,,,,,,,,,,,,,,,,,,,,,,,,,,,,,,,,,,,,,,,,,,,,,,,,,,,,,,,,
1768372141.075549,1768372141.076332,20.000000,0.000000,4349.487305,4319.487305,4349.102539,4341.666504,4310.128418,4347.692383,4322.051270,4241.666504,4332.948730,4276.794922,4478.717773,4517.051270,4350.641113,4343.846191,0.000000,2.000000,37.000000,,,,0.000000,4.000000,4.000000,4.000000,4.000000,4.000000,4.000000,4.000000,4.000000,4.000000,4.000000,4.000000,4.000000,4.000000,4.000000,100.000000,,,,,,,,,,,,,,,,,,,,,,,,,,,,,,,,,,,,,,,,,,,,,,,,,,,,,,,,,,,,,,,,,,,,,,,,,,,,,,,,,,,,,,,,,,,,,,,,,,,,,,,,,,,,,,,,,,,,,
1768372141.083357,1768372141.084140,21.000000,0.000000,4350.641113,4323.974121,4349.615234,4347.051270,4316.282227,4355.384766,4327.051270,4239.743652,4332.436035,4275.641113,4484.230957,4519.102539,4354.230957,4347.051270,0.000000,2.000000,37.000000,,,,0.000000,4.000000,4.000000,4.000000,4.000000,4.000000,4.000000,4.000000,4.000000,4.000000,4.000000,4.000000,4.000000,4.000000,4.000000,100.000000,,,,,,,,,,,,,,,,,,,,,,,,,,,,,,,,,,,,,,,,,,,,,,,,,,,,,,,,,,,,,,,,,,,,,,,,,,,,,,,,,,,,,,,,,,,,,,,,,,,,,,,,,,,,,,,,,,,,,
1768372141.091166,1768372141.091849,22.000000,0.000000,4360.641113,4329.102539,4359.102539,4356.153809,4320.897461,4360.256348,4328.717773,4245.256348,4336.282227,4279.871582,4491.282227,4527.179688,4358.333496,4356.282227,0.000000,2.000000,37.000000,,,,0.000000,4.000000,4.000000,4.000000,4.000000,4.000000,4.000000,4.000000,4.000000,4.000000,4.000000,4.000000,4.000000,4.000000,4.000000,100.000000,,,,,,,,,,,,,,,,,,,,,,,,,,,,,,,,,,,,,,,,,,,,,,,,,,,,,,,,,,,,,,,,,,,,,,,,,,,,,,,,,,,,,,,,,,,,,,,,,,,,,,,,,,,,,,,,,,,,,
1768372141.098974,1768372141.099657,23.000000,0.000000,4366.282227,4327.563965,4367.179688,4358.077148,4322.436035,4357.436035,4326.410156,4252.307617,4337.051270,4279.871582,4490.897461,4530.000000,4358.205078,4359.743652,0.000000,2.000000,37.000000,,,,0.000000,4.000000,4.000000,4.000000,4.000000,4.000000,4.000000,4.000000,4.000000,4.000000,4.000000,4.000000,4.000000,4.000000,4.000000,100.000000,,,,,,,,,,,,,,,,,,,,,,,,,,,,,,,,,,,,,,,,,,,,,,,,,,,,,,,,,,,,,,,,,,,,,,,,,,,,,,,,,,,,,,,,,,,,,,,,,,,,,,,,,,,,,,,,,,,,,
1768372141.106783,1768372141.107266,24.000000,0.000000,4365.128418,4332.307617,4366.282227,4357.820313,4325.769043,4360.897461,4330.384766,4252.051270,4335.897461,4278.717773,4490.641113,4531.025879,4358.205078,4362.436035,0.000000,2.000000,37.000000,,,,0.000000,4.000000,4.000000,4.000000,4.000000,4.000000,4.000000,4.000000,4.000000,4.000000,4.000000,4.000000,4.000000,4.000000,4.000000,100.000000,,,,,,,,,,,,,,,,,,,,,,,,,,,,,,,,,,,,,,,,,,,,,,,,,,,,,,,,,,,,,,,,,,,,,,,,,,,,,,,,,,,,,,,,,,,,,,,,,,,,,,,,,,,,,,,,,,,,,
1768372141.114591,1768372141.115074,25.000000,0.000000,4366.025879,4336.410156,4361.410156,4359.102539,4327.820313,4364.871582,4332.051270,4248.974121,4335.512695,4285.769043,4494.102539,4531.794922,4362.563965,4367.820313,0.000000,2.000000,37.000000,,,,0.000000,4.000000,4.000000,4.000000,4.000000,4.000000,4.000000,4.000000,4.000000,4.000000,4.000000,4.000000,4.000000,4.000000,4.000000,100.000000,,,,,,,,,,,,,,,,,,,,,,,,,,,,,,,,,,,,,,,,,,,,,,,,,,,,,,,,,,,,,,,,,,,,,,,,,,,,,,,,,,,,,,,,,,,,,,,,,,,,,,,,,,,,,,,,,,,,,
1768372141.122399,1768372141.122783,26.000000,0.000000,4367.179688,4328.461426,4361.410156,4359.230957,4326.666504,4359.358887,4325.256348,4250.641113,4333.974121,4287.563965,4493.974121,4527.948730,4365.384766,4366.153809,0.000000,2.000000,37.000000,,,,0.000000,4.000000,4.000000,4.000000,4.000000,4.000000,4.000000,4.000000,4.000000,4.000000,4.000000,4.000000,4.000000,4.000000,4.000000,100.000000,,,,,,,,,,,,,,,,,,,,,,,,,,,,,,,,,,,,,,,,,,,,,,,,,,,,,,,,,,,,,,,,,,,,,,,,,,,,,,,,,,,,,,,,,,,,,,,,,,,,,,,,,,,,,,,,,,,,,
1768372141.130208,1768372141.130591,27.000000,0.000000,4365.897461,4327.436035,4363.846191,4358.589844,4326.922852,4354.615234,4324.230957,4251.538574,4336.794922,4282.692383,4491.282227,4525.256348,4365.000000,4362.820313,0.000000,2.000000,37.000000,,,,0.000000,4.000000,4.000000,4.000000,4.000000,4.000000,4.000000,4.000000,4.000000,4.000000,4.000000,4.000000,4.000000,4.000000,4.000000,100.000000,,,,,,,,,,,,,,,,,,,,,,,,,,,,,,,,,,,,,,,,,,,,,,,,,,,,,,,,,,,,,,,,,,,,,,,,,,,,,,,,,,,,,,,,,,,,,,,,,,,,,,,,,,,,,,,,,,,,,
1768372141.138016,1768372141.138200,28.000000,0.000000,4367.179688,4332.563965,4365.384766,4358.077148,4325.256348,4358.077148,4326.794922,4246.410156,4339.487305,4282.563965,4492.948730,4530.512695,4365.128418,4370.256348,0.000000,2.000000,37.000000,,,,0.000000,4.000000,4.000000,4.000000,4.000000,4.000000,4.000000,4.000000,4.000000,4.000000,4.000000,4.000000,4.000000,4.000000,4.000000,100.000000,,,,,,,,,,,,,,,,,,,,,,,,,,,,,,,,,,,,,,,,,,,,,,,,,,,,,,,,,,,,,,,,,,,,,,,,,,,,,,,,,,,,,,,,,,,,,,,,,,,,,,,,,,,,,,,,,,,,,
1768372141.145825,1768372141.146009,29.000000,0.000000,4365.512695,4329.871582,4365.128418,4358.333496,4321.922852,4359.487305,4325.512695,4243.205078,4334.230957,4285.000000,4493.974121,4530.384766,4364.230957,4375.000000,0.000000,2.000000,37.000000,,,,0.000000,4.000000,4.000000,4.000000,4.000000,4.000000,4.000000,4.000000,4.000000,4.000000,4.000000,4.000000,4.000000,4.000000,4.000000,100.000000,,,,,,,,,,,,,,,,,,,,,,,,,,,,,,,,,,,,,,,,,,,,,,,,,,,,,,,,,,,,,,,,,,,,,,,,,,,,,,,,,,,,,,,,,,,,,,,,,,,,,,,,,,,,,,,,,,,,,
1768372141.153633,1768372141.153717,30.000000,0.000000,4358.461426,4325.256348,4358.333496,4358.205078,4321.794922,4356.282227,4326.153809,4247.179688,4329.230957,4282.692383,4487.692383,4519.871582,4358.205078,4362.563965,0.000000,2.000000,37.000000,,,,0.000000,4.000000,4.000000,4.000000,4.000000,4.000000,4.000000,4.000000,4.000000,4.000000,4.000000,4.000000,4.000000,4.000000,4.000000,100.000000,,,,,,,,,,,,,,,,,,,,,,,,,,,,,,,,,,,,,,,,,,,,,,,,0.948202,0.220201,0.077143,0.111786,0.124371,1.049531,0.297741,0.085150,0.129566,0.107596,0.471561,0.134421,0.091448,0.088539,0.153374,0.642218,0.189541,0.099711,0.099978,0.112880,0.354044,0.387813,0.134639,0.052839,0.042191,0.150104,0.460555,0.062385,0.071979,0.156037,0.116765,0.251699,0.081715,0.092277,0.112734,0.390026,0.234101,0.131465,0.092674,0.185505,0.301283,0.184563,0.060719,0.127527,0.162738,0.321571,0.326080,0.145917,0.214682,0.126038,0.596564,0.190543,0.183594,0.318127,0.204417,0.723487,0.103567,0.099196,0.169956,0.240607,0.448399,0.129866,0.126198,0.163933,0.177964,0.504218,0.205283,0.190851,0.227155,0.204649
1768372141.161442,1768372141.161526,31.000000,0.000000,4355.769043,4321.410156,4349.102539,4350.769043,4317.436035,4354.230957,4326.666504,4251.794922,4336.153809,4280.000000,4484.358887,4515.641113,4353.461426,4354.358887,0.000000,2.000000,37.000000,,,,0.000000,4.000000,4.000000,4.000000,4.000000,4.000000,4.000000,4.000000,4.000000,4.000000,4.000000,4.000000,4.000000,4.000000,4.000000,100.000000,,,,,,,,,,,,,,,,,,,,,,,,,,,,,,,,,,,,,,,,,,,,,,,,,,,,,,,,,,,,,,,,,,,,,,,,,,,,,,,,,,,,,,,,,,,,,,,,,,,,,,,,,,,,,,,,,,,,,
1768372141.169250,1768372141.169534,32.000000,0.000000,4356.666504,4315.512695,4351.282227,4341.282227,4309.871582,4355.384766,4323.333496,4252.179688,4345.897461,4282.051270,4490.256348,4521.025879,4356.666504,4359.743652,0.000000,2.000000,37.000000,,,,0.000000,4.000000,4.000000,4.000000,4.000000,4.000000,4.000000,4.000000,4.000000,4.000000,4.000000,4.000000,4.000000,4.000000,4.000000,100.000000,,,,,,,,,,,,,,,,,,,,,,,,,,,,,,,,,,,,,,,,,,,,,,,,,,,,,,,,,,,,,,,,,,,,,,,,,,,,,,,,,,,,,,,,,,,,,,,,,,,,,,,,,,,,,,,,,,,,,
1768372141.177059,1768372141.177342,33.000000,0.000000,4356.025879,4316.153809,4360.769043,4344.358887,4308.974121,4357.179688,4327.307617,4247.692383,4341.666504,4285.000000,4492.563965,4526.410156,4357.436035,4362.051270,0.000000,2.000000,37.000000,,,,0.000000,4.000000,4.000000,4.000000,4.000000,4.000000,4.000000,4.000000,4.000000,4.000000,4.000000,4.000000,4.000000,4.000000,4.000000,100.000000,,,,,,,,,,,,,,,,,,,,,,,,,,,,,,,,,,,,,,,,,,,,,,,,,,,,,,,,,,,,,,,,,,,,,,,,,,,,,,,,,,,,,,,,,,,,,,,,,,,,,,,,,,,,,,,,,,,,,
1768372141.184867,1768372141.185251,34.000000,0.000000,4357.179688,4320.641113,4359.743652,4351.410156,4310.769043,4357.051270,4338.461426,4249.871582,4336.282227,4285.897461,4488.846191,4524.615234,4353.333496,4360.128418,0.000000,2.000000,37.000000,,,,0.000000,4.000000,4.000000,4.000000,4.000000,4.000000,4.000000,4.000000,4.000000,4.000000,4.000000,4.000000,4.000000,4.000000,4.000000,100.000000,,,,,,,,,,,,,,,,,,,,,,,,,,,,,,,,,,,,,,,,,,,,,,,,,,,,,,,,,,,,,,,,,,,,,,,,,,,,,,,,,,,,,,,,,,,,,,,,,,,,,,,,,,,,,,,,,,,,,
1768372141.192675,1768372141.193059,35.000000,0.000000,4359.871582,4322.307617,4356.153809,4352.563965,4312.563965,4358.717773,4338.077148,4252.948730,4342.051270,4283.974121,4491.410156,4521.282227,4355.641113,4365.897461,0.000000,2.000000,37.000000,,,,0.000000,4.000000,4.000000,4.000000,4.000000,4.000000,4.000000,4.000000,4.000000,4.000000,4.000000,4.000000,4.000000,4.000000,4.000000,100.000000,,,,,,,,,,,,,,,,,,,,,,,,,,,,,,,,,,,,,,,,,,,,,,,,,,,,,,,,,,,,,,,,,,,,,,,,,,,,,,,,,,,,,,,,,,,,,,,,,,,,,,,,,,,,,,,,,,,,,
1768372141.200484,1768372141.200668,36.000000,0.000000,4358.974121,4325.512695,4359.487305,4355.000000,4315.000000,4356.153809,4325.897461,4246.666504,4337.692383,4281.282227,4492.692383,4519.871582,4357.563965,4366.922852,0.000000,2.000000,37.000000,,,,0.000000,4.000000,4.000000,4.000000,4.000000,4.000000,4.000000,4.000000,4.000000,4.000000,4.000000,4.000000,4.000000,4.000000,4.000000,100.000000,,,,,,,,,,,,,,,,,,,,,,,,,,,,,,,,,,,,,,,,,,,,,,,,,,,,,,,,,,,,,,,,,,,,,,,,,,,,,,,,,,,,,,,,,,,,,,,,,,,,,,,,,,,,,,,,,,,,,
1768372141.208292,1768372141.208476,37.000000,0.000000,4359.871582,4327.307617,4364.743652,4359.615234,4316.794922,4351.794922,4322.436035,4240.000000,4325.256348,4280.256348,4483.333496,4516.666504,4349.743652,4357.179688,0.000000,2.000000,37.000000,,,,0.000000,4.000000,4.000000,4.000000,4.000000,4.000000,4.000000,4.000000,4.000000,4.000000,4.000000,4.000000,4.000000,4.000000,4.000000,100.000000,,,,,,,,,,,,,,,,,,,,,,,,,,,,,,,,,,,,,,,,,,,,,,,,,,,,,,,,,,,,,,,,,,,,,,,,,,,,,,,,,,,,,,,,,,,,,,,,,,,,,,,,,,,,,,,,,,,,,
1768372141.216101,1768372141.216185,38.000000,0.000000,4366.922852,4326.666504,4368.717773,4358.846191,4320.256348,4354.743652,4327.436035,4242.051270,4326.538574,4280.256348,4484.230957,4521.538574,4350.897461,4359.743652,0.000000,2.000000,37.000000,,,,0.000000,4.000000,4.000000,4.000000,4.000000,4.000000,4.000000,4.000000,4.000000,4.000000,4.000000,4.000000,4.000000,4.000000,4.000000,100.000000,,,,,,,,,,,,,,,,,,,,,,,,,,,,,,,,,,,,,,,,,,,,,,,,,,,,,,,,,,,,,,,,,,,,,,,,,,,,,,,,,,,,,,,,,,,,,,,,,,,,,,,,,,,,,,,,,,,,,
1768372141.223909,1768372141.223993,39.000000,0.000000,4370.641113,4327.563965,4366.153809,4357.307617,4318.846191,4358.205078,4327.051270,4247.563965,4334.487305,4280.512695,4492.436035,4529.487305,4357.692383,4372.820313,0.000000,2.000000,37.000000,,,,0.000000,4.000000,4.000000,4.000000,4.000000,4.000000,4.000000,4.000000,4.000000,4.000000,4.000000,4.000000,4.000000,4.000000,4.000000,100.000000,,,,,,,,,,,,,,,,,,,,,,,,,,,,,,,,,,,,,,,,,,,,,,,,,,,,,,,,,,,,,,,,,,,,,,,,,,,,,,,,,,,,,,,,,,,,,,,,,,,,,,,,,,,,,,,,,,,,,
1768372141.231718,1768372141.232001,40.000000,0.000000,4363.846191,4327.436035,4358.974121,4357.563965,4310.512695,4355.384766,4322.307617,4245.512695,4330.000000,4278.077148,4482.820313,4521.153809,4347.820313,4368.589844,0.000000,2.000000,37.000000,,,,0.000000,4.000000,4.000000,4.000000,4.000000,4.000000,4.000000,4.000000,4.000000,4.000000,4.000000,4.000000,4.000000,4.000000,4.000000,100.000000,,,,,,,,,,,,,,,,,,,,,,,,,,,,,,,,,,,,,,,,,,,,,,,,,,,,,,,,,,,,,,,,,,,,,,,,,,,,,,,,,,,,,,,,,,,,,,,,,,,,,,,,,,,,,,,,,,,,,
1768372141.239526,1768372141.239810,41.000000,0.000000,4356.666504,4324.743652,4355.641113,4352.948730,4310.641113,4352.692383,4321.538574,4240.256348,4324.743652,4273.589844,4470.512695,4505.256348,4337.179688,4356.025879,0.000000,2.000000,37.000000,,,,0.000000,4.000000,4.000000,4.000000,4.000000,4.000000,4.000000,4.000000,4.000000,4.000000,4.000000,4.000000,4.000000,4.000000,4.000000,100.000000,,,,,,,,,,,,,,,,,,,,,,,,,,,,,,,,,,,,,,,,,,,,,,,,,,,,,,,,,,,,,,,,,,,,,,,,,,,,,,,,,,,,,,,,,,,,,,,,,,,,,,,,,,,,,,,,,,,,,
1768372141.247335,1768372141.247718,42.000000,0.000000,4357.307617,4323.205078,4358.461426,4351.025879,4317.307617,4352.948730,4324.102539,4242.179688,4329.358887,4272.051270,4474.743652,4510.512695,4340.897461,4359.358887,0.000000,2.000000,37.000000,,,,0.000000,4.000000,4.000000,4.000000,4.000000,4.000000,4.000000,4.000000,4.000000,4.000000,4.000000,4.000000,4.000000,4.000000,4.000000,100.000000,,,,,,,,,,,,,,,,,,,,,,,,,,,,,,,,,,,,,,,,,,,,,,,,,,,,,,,,,,,,,,,,,,,,,,,,,,,,,,,,,,,,,,,,,,,,,,,,,,,,,,,,,,,,,,,,,,,,,
1768372141.255143,1768372141.255527,43.000000,0.000000,4357.307617,4322.948730,4358.717773,4355.384766,4317.692383,4356.025879,4326.153809,4245.384766,4330.512695,4274.358887,4480.000000,4521.025879,4345.000000,4367.563965,0.000000,2.000000,37.000000,,,,0.000000,4.000000,4.000000,4.000000,4.000000,4.000000,4.000000,4.000000,4.000000,4.000000,4.000000,4.000000,4.000000,4.000000,4.000000,100.000000,,,,,,,,,,,,,,,,,,,,,,,,,,,,,,,,,,,,,,,,,,,,,,,,,,,,,,,,,,,,,,,,,,,,,,,,,,,,,,,,,,,,,,,,,,,,,,,,,,,,,,,,,,,,,,,,,,,,,
