title:apple_25, start timestamp:1768372299.438530, stop timestamp:1768372329.860214, headset type:EPOCX, headset serial:E5020E3B, headset firmware:730, channels:156, sampling rate:eeg_128;pm_0.1;pow_8, samples:3897      , version:2.2, 
Timestamp,OriginalTimestamp,EEG.Counter,EEG.Interpolated,EEG.AF3,EEG.F7,EEG.F3,EEG.FC5,EEG.T7,EEG.P7,EEG.O1,EEG.O2,EEG.P8,EEG.T8,EEG.FC6,EEG.F4,EEG.F8,EEG.AF4,EEG.RawCq,EEG.Battery,EEG.BatteryPercent,MarkerIndex,MarkerType,MarkerValueInt,EEG.MarkerHardware,CQ.AF3,CQ.F7,CQ.F3,CQ.FC5,CQ.T7,CQ.P7,CQ.O1,CQ.O2,CQ.P8,CQ.T8,CQ.FC6,CQ.F4,CQ.F8,CQ.AF4,CQ.Overall,EQ.SampleRateQuality,EQ.OVERALL,EQ.AF3,EQ.F7,EQ.F3,EQ.FC5,EQ.T7,EQ.P7,EQ.O1,EQ.O2,EQ.P8,EQ.T8,EQ.FC6,EQ.F4,EQ.F8,EQ.AF4,PM.Attention.IsActive,PM.Attention.Scaled,PM.Attention.Raw,PM.Attention.Min,PM.Attention.Max,PM.Engagement.IsActive,PM.Engagement.Scaled,PM.Engagement.Raw,PM.Engagement.Min,PM.Engagement.Max,PM.Excitement.IsActive,PM.Excitement.Scaled,PM.Excitement.Raw,PM.Excitement.Min,PM.Excitement.Max,PM.LongTermExcitement,PM.Stress.IsActive,PM.Stress.Scaled,PM.Stress.Raw,PM.Stress.Min,PM.Stress.Max,PM.Relaxation.IsActive,PM.Relaxation.Scaled,PM.Relaxation.Raw,PM.Relaxation.Min,PM.Relaxation.Max,PM.Interest.IsActive,PM.Interest.Scaled,PM.Interest.Raw,PM.Interest.Min,PM.Interest.Max,POW.AF3.Theta,POW.AF3.Alpha,POW.AF3.BetaL,POW.AF3.BetaH,POW.AF3.Gamma,POW.F7.Theta,POW.F7.Alpha,POW.F7.BetaL,POW.F7.BetaH,POW.F7.Gamma,POW.F3.Theta,POW.F3.Alpha,POW.F3.BetaL,POW.F3.BetaH,POW.F3.Gamma,POW.FC5.Theta,POW.FC5.Alpha,POW.FC5.BetaL,POW.FC5.BetaH,POW.FC5.Gamma,POW.T7.Theta,POW.T7.Alpha,POW.T7.BetaL,POW.T7.BetaH,POW.T7.Gamma,POW.P7.Theta,POW.P7.Alpha,POW.P7.BetaL,POW.P7.BetaH,POW.P7.Gamma,POW.O1.Theta,POW.O1.Alpha,POW.O1.BetaL,POW.O1.BetaH,POW.O1.Gamma,POW.O2.Theta,POW.O2.Alpha,POW.O2.BetaL,POW.O2.BetaH,POW.O2.Gamma,POW.P8.Theta,POW.P8.Alpha,POW.P8.BetaL,POW.P8.BetaH,POW.P8.Gamma,POW.T8.Theta,POW.T8.Alpha,POW.T8.BetaL,POW.T8.BetaH,POW.T8.Gamma,POW.FC6.Theta,POW.FC6.Alpha,POW.FC6.BetaL,POW.FC6.BetaH,POW.FC6.Gamma,POW.F4.Theta,POW.F4.Alpha,POW.F4.BetaL,POW.F4.BetaH,POW.F4.Gamma,POW.F8.Theta,POW.F8.Alpha,POW.F8.BetaL,POW.F8.BetaH,POW.F8.Gamma,POW.AF4.Theta,POW.AF4.Alpha,POW.AF4.BetaL,POW.AF4.BetaH,POW.AF4.Gamma
1768372299.438530,1768372299.439171,77.000000,0.000000,4366.025879,4349.487305,4375.769043,4380.897461,4352.436035,4345.256348,4328.589844,4344.615234,4345.384766,4347.820313,4571.922852,4577.307617,4463.333496,4507.436035,5409.000000,2.000000,36.000000,,,,0.000000,4.000000,4.000000,4.000000,4.000000,4.000000,4.000000,4.000000,4.000000,4.000000,4.000000,4.000000,4.000000,4.000000,4.000000,100.000000,,,,,,,,,,,,,,,,,,,,,,,,,,,,,,,,,,,,,,,,,,,,,,,,,,,,,,,,,,,,,,,,,,,,,,,,,,,,,,,,,,,,,,,,,,,,,,,,,,,,,,,,,,,,,,,,,,,,,
1768372299.446339,1768372299.447079,78.000000,0.000000,4373.333496,4359.102539,4385.128418,4385.897461,4357.563965,4351.794922,4329.743652,4344.743652,4346.410156,4362.179688,4587.820313,4586.922852,4481.794922,4516.153809,4385.000000,2.000000,36.000000,,,,0.000000,4.000000,4.000000,4.000000,4.000000,4.000000,4.000000,4.000000,4.000000,4.000000,4.000000,4.000000,4.000000,4.000000,4.000000,100.000000,1.000000,66.666664,4.000000,4.000000,4.000000,4.000000,3.000000,4.000000,4.000000,4.000000,4.000000,1.000000,4.000000,4.000000,4.000000,4.000000,,,,,,,,,,,,,,,,,,,,,,,,,,,,,,,,0.872615,0.305074,0.304885,0.201596,0.193548,1.008132,0.536288,0.214750,0.165347,0.091132,1.073404,0.383405,0.236572,0.142005,0.131651,0.419580,0.268979,0.102887,0.138954,0.081867,0.132922,0.101988,0.109479,0.099112,0.076537,0.421843,0.200389,0.220308,0.214609,0.173430,0.407891,0.133575,0.227185,0.187781,0.109231,0.288900,0.445952,0.290032,0.278930,0.161805,0.444332,0.272703,0.337178,0.144947,0.101488,0.422550,0.172990,0.200238,0.265034,0.143791,1.169157,0.427749,0.122947,0.242819,0.185283,2.108326,0.200734,0.080583,0.226200,0.150888,1.119910,0.363355,0.192014,0.341787,0.271445,1.664687,0.262323,0.173435,0.225572,0.185796
1768372299.454147,1768372299.454887,79.000000,0.000000,4366.666504,4351.666504,4379.230957,4379.871582,4349.871582,4345.384766,4326.410156,4339.871582,4339.615234,4349.230957,4589.102539,4581.410156,4481.153809,4507.692383,4687.000000,2.000000,36.000000,,,,0.000000,4.000000,4.000000,4.000000,4.000000,4.000000,4.000000,4.000000,4.000000,4.000000,4.000000,4.000000,4.000000,4.000000,4.000000,100.000000,,,,,,,,,,,,,,,,,,,,,,,,,,,,,,,,,,,,,,,,,,,,,,,,,,,,,,,,,,,,,,,,,,,,,,,,,,,,,,,,,,,,,,,,,,,,,,,,,,,,,,,,,,,,,,,,,,,,,
1768372299.461955,1768372299.462496,80.000000,0.000000,4357.820313,4342.179688,4370.256348,4374.615234,4347.179688,4338.461426,4322.948730,4337.436035,4334.871582,4325.128418,4577.948730,4577.179688,4473.974121,4499.615234,5016.000000,2.000000,36.000000,,,,0.000000,4.000000,4.000000,4.000000,4.000000,4.000000,4.000000,4.000000,4.000000,4.000000,4.000000,4.000000,4.000000,4.000000,4.000000,100.000000,,,,,,,,,,,,,,,,,,,,,,,,,,,,,,,,,,,,,,,,,,,,,,,,,,,,,,,,,,,,,,,,,,,,,,,,,,,,,,,,,,,,,,,,,,,,,,,,,,,,,,,,,,,,,,,,,,,,,
1768372299.469764,1768372299.470305,81.000000,0.000000,4358.333496,4342.051270,4371.794922,4374.230957,4352.051270,4341.153809,4323.205078,4335.769043,4334.615234,4331.282227,4572.692383,4577.692383,4473.077148,4504.743652,5409.000000,2.000000,36.000000,,,,0.000000,4.000000,4.000000,4.000000,4.000000,4.000000,4.000000,4.000000,4.000000,4.000000,4.000000,4.000000,4.000000,4.000000,4.000000,100.000000,,,,,,,,,,,,,,,,,,,,,,,,,,,,,,,,,,,,,,,,,,,,,,,,,,,,,,,,,,,,,,,,,,,,,,,,,,,,,,,,,,,,,,,,,,,,,,,,,,,,,,,,,,,,,,,,,,,,,
1768372299.477572,1768372299.478013,82.000000,0.000000,4358.974121,4343.846191,4374.358887,4372.563965,4352.820313,4342.179688,4325.769043,4336.538574,4334.230957,4347.436035,4572.948730,4575.256348,4474.230957,4508.974121,4385.000000,2.000000,36.000000,,,,0.000000,4.000000,4.000000,4.000000,4.000000,4.000000,4.000000,4.000000,4.000000,4.000000,4.000000,4.000000,4.000000,4.000000,4.000000,100.000000,,,,,,,,,,,,,,,,,,,,,,,,,,,,,,,,,,,,,,,,,,,,,,,,,,,,,,,,,,,,,,,,,,,,,,,,,,,,,,,,,,,,,,,,,,,,,,,,,,,,,,,,,,,,,,,,,,,,,
1768372299.485381,1768372299.485822,83.000000,0.000000,4358.077148,4341.794922,4373.333496,4372.948730,4352.307617,4340.769043,4325.000000,4336.538574,4331.410156,4340.128418,4572.692383,4572.436035,4474.102539,4498.717773,4687.000000,2.000000,36.000000,,,,0.000000,4.000000,4.000000,4.000000,4.000000,4.000000,4.000000,4.000000,4.000000,4.000000,4.000000,4.000000,4.000000,4.000000,4.000000,100.000000,,,,,,,,,,,,,,,,,,,,,,,,,,,,,,,,,,,,,,,,,,,,,,,,,,,,,,,,,,,,,,,,,,,,,,,,,,,,,,,,,,,,,,,,,,,,,,,,,,,,,,,,,,,,,,,,,,,,,
1768372299.493189,1768372299.493830,84.000000,0.000000,4364.743652,4341.025879,4375.128418,4377.051270,4354.615234,4344.230957,4325.000000,4336.282227,4334.230957,4332.563965,4573.461426,4570.256348,4470.769043,4490.000000,5016.000000,2.000000,36.000000,,,,0.000000,4.000000,4.000000,4.000000,4.000000,4.000000,4.000000,4.000000,4.000000,4.000000,4.000000,4.000000,4.000000,4.000000,4.000000,100.000000,,,,,,,,,,,,,,,,,,,,,,,,,,,,,,,,,,,,,,,,,,,,,,,,,,,,,,,,,,,,,,,,,,,,,,,,,,,,,,,,,,,,,,,,,,,,,,,,,,,,,,,,,,,,,,,,,,,,,
1768372299.500997,1768372299.501638,85.000000,0.000000,4365.769043,4342.051270,4373.205078,4376.410156,4353.077148,4344.743652,4325.897461,4340.256348,4341.538574,4342.051270,4571.538574,4566.025879,4467.948730,4496.282227,5409.000000,2.000000,36.000000,,,,0.000000,4.000000,4.000000,4.000000,4.000000,4.000000,4.000000,4.000000,4.000000,4.000000,4.000000,4.000000,4.000000,4.000000,4.000000,100.000000,,,,,,,,,,,,,,,,,,,,,,,,,,,,,,,,,,,,,,,,,,,,,,,,,,,,,,,,,,,,,,,,,,,,,,,,,,,,,,,,,,,,,,,,,,,,,,,,,,,,,,,,,,,,,,,,,,,,,
1768372299.508806,1768372299.509547,86.000000,0.000000,4357.436035,4339.358887,4368.205078,4371.410156,4349.743652,4340.897461,4320.897461,4338.077148,4340.512695,4343.846191,4572.051270,4564.358887,4471.922852,4498.974121,4385.000000,2.000000,36.000000,,,,0.000000,4.000000,4.000000,4.000000,4.000000,4.000000,4.000000,4.000000,4.000000,4.000000,4.000000,4.000000,4.000000,4.000000,4.000000,100.000000,,,,,,,,,,,,,,,,,,,,,,,,,,,,,,,,,,,,,,,,,,,,,,,,,,,,,,,,,,,,,,,,,,,,,,,,,,,,,,,,,,,,,,,,,,,,,,,,,,,,,,,,,,,,,,,,,,,,,
1768372299.516614,1768372299.517355,87.000000,0.000000,4354.230957,4340.000000,4370.128418,4373.205078,4348.974121,4338.846191,4316.410156,4332.179688,4330.128418,4331.410156,4577.820313,4567.948730,4475.000000,4492.563965,4687.000000,2.000000,36.000000,,,,0.000000,4.000000,4.000000,4.000000,4.000000,4.000000,4.000000,4.000000,4.000000,4.000000,4.000000,4.000000,4.000000,4.000000,4.000000,100.000000,,,,,,,,,,,,,,,,,,,,,,,,,,,,,,,,,,,,,,,,,,,,,,,,,,,,,,,,,,,,,,,,,,,,,,,,,,,,,,,,,,,,,,,,,,,,,,,,,,,,,,,,,,,,,,,,,,,,,
1768372299.524423,1768372299.525363,88.000000,0.000000,4355.256348,4342.692383,4372.307617,4375.512695,4346.025879,4340.512695,4319.743652,4336.666504,4328.333496,4326.922852,4575.641113,4571.794922,4470.769043,4490.769043,5016.000000,2.000000,36.000000,,,,0.000000,4.000000,4.000000,4.000000,4.000000,4.000000,4.000000,4.000000,4.000000,4.000000,4.000000,4.000000,4.000000,4.000000,4.000000,100.000000,,,,,,,,,,,,,,,,,,,,,,,,,,,,,,,,,,,,,,,,,,,,,,,,,,,,,,,,,,,,,,,,,,,,,,,,,,,,,,,,,,,,,,,,,,,,,,,,,,,,,,,,,,,,,,,,,,,,,
1768372299.532231,1768372299.533172,89.000000,0.000000,4356.538574,4339.871582,4367.692383,4371.410156,4342.563965,4338.846191,4320.000000,4344.871582,4336.410156,4337.179688,4568.974121,4573.461426,4471.282227,4494.487305,5409.000000,2.000000,36.000000,,,,0.000000,4.000000,4.000000,4.000000,4.000000,4.000000,4.000000,4.000000,4.000000,4.000000,4.000000,4.000000,4.000000,4.000000,4.000000,100.000000,,,,,,,,,,,,,,,,,,,,,,,,,,,,,,,,,,,,,,,,,,,,,,,,,,,,,,,,,,,,,,,,,,,,,,,,,,,,,,,,,,,,,,,,,,,,,,,,,,,,,,,,,,,,,,,,,,,,,
1768372299.540040,1768372299.541080,90.000000,0.000000,4364.230957,4341.153809,4367.820313,4374.358887,4345.128418,4331.025879,4313.846191,4342.692383,4339.487305,4343.717773,4575.769043,4575.897461,4477.563965,4501.666504,4385.000000,2.000000,36.000000,,,,0.000000,4.000000,4.000000,4.000000,4.000000,4.000000,4.000000,4.000000,4.000000,4.000000,4.000000,4.000000,4.000000,4.000000,4.000000,100.000000,,,,,,,,,,,,,,,,,,,,,,,,,,,,,,,,,,,,,,,,,,,,,,,,,,,,,,,,,,,,,,,,,,,,,,,,,,,,,,,,,,,,,,,,,,,,,,,,,,,,,,,,,,,,,,,,,,,,,
1768372299.547848,1768372299.548888,91.000000,0.000000,4369.358887,4348.589844,4373.974121,4381.153809,4346.538574,4330.256348,4314.871582,4336.410156,4334.230957,4339.743652,4586.922852,4577.307617,4478.974121,4508.077148,4687.000000,2.000000,36.000000,,,,0.000000,4.000000,4.000000,4.000000,4.000000,4.000000,4.000000,4.000000,4.000000,4.000000,4.000000,4.000000,4.000000,4.000000,4.000000,100.000000,,,,,,,,,,,,,,,,,,,,,,,,,,,,,,,,,,,,,,,,,,,,,,,,,,,,,,,,,,,,,,,,,,,,,,,,,,,,,,,,,,,,,,,,,,,,,,,,,,,,,,,,,,,,,,,,,,,,,
1768372299.555657,1768372299.556497,92.000000,0.000000,4359.871582,4349.102539,4373.974121,4379.487305,4343.461426,4340.000000,4323.077148,4337.820313,4332.692383,4339.230957,4586.666504,4574.615234,4476.538574,4501.025879,5016.000000,2.000000,36.000000,,,,0.000000,4.000000,4.000000,4.000000,4.000000,4.000000,4.000000,4.000000,4.000000,4.000000,4.000000,4.000000,4.000000,4.000000,4.000000,100.000000,,,,,,,,,,,,,,,,,,,,,,,,,,,,,,,,,,,,,,,,,,,,,,,,,,,,,,,,,,,,,,,,,,,,,,,,,,,,,,,,,,,,,,,,,,,,,,,,,,,,,,,,,,,,,,,,,,,,,
1768372299.563465,1768372299.564306,93.000000,0.000000,4352.436035,4350.641113,4369.743652,4378.077148,4343.461426,4346.666504,4327.948730,4345.641113,4338.717773,4342.820313,4578.974121,4571.410156,4470.641113,4490.769043,5409.000000,2.000000,36.000000,,,,0.000000,4.000000,4.000000,4.000000,4.000000,4.000000,4.000000,4.000000,4.000000,4.000000,4.000000,4.000000,4.000000,4.000000,4.000000,100.000000,,,,,,,,,,,,,,,,,,,,,,,,,,,,,,,,,,,,,,,,,,,,,,,,,,,,,,,,,,,,,,,,,,,,,,,,,,,,,,,,,,,,,,,,,,,,,,,,,,,,,,,,,,,,,,,,,,,,,
1768372299.571273,1768372299.572214,94.000000,0.000000,4354.358887,4362.307617,4366.922852,4380.769043,4345.256348,4341.538574,4325.512695,4345.769043,4337.948730,4340.000000,4573.205078,4566.666504,4469.743652,4492.563965,4385.000000,2.000000,36.000000,,,,0.000000,4.000000,4.000000,4.000000,4.000000,4.000000,4.000000,4.000000,4.000000,4.000000,4.000000,4.000000,4.000000,4.000000,4.000000,100.000000,,,,,,,,,,,,,,,,,,,,,,,,,,,,,,,,,,,,,,,,,,,,,,,,0.879358,0.355800,0.242702,0.161562,0.193128,0.717365,0.534838,0.182953,0.155563,0.095845,1.139807,0.418059,0.290343,0.136158,0.128839,0.379788,0.258519,0.104340,0.141691,0.082752,0.095692,0.102609,0.108894,0.099285,0.072510,0.397986,0.261973,0.192142,0.200132,0.164405,0.385913,0.146755,0.201313,0.145922,0.108586,0.220941,0.483303,0.299644,0.181237,0.167751,0.354702,0.290578,0.324251,0.104172,0.107675,0.426396,0.143587,0.208930,0.240103,0.141967,1.066236,0.426963,0.106848,0.257382,0.198958,2.006122,0.171087,0.104166,0.190128,0.156254,1.060073,0.320671,0.143414,0.354862,0.283055,1.697039,0.211910,0.105831,0.215932,0.171402
1768372299.579082,1768372299.580022,95.000000,0.000000,4356.282227,4367.948730,4364.871582,4382.692383,4345.641113,4336.410156,4321.922852,4338.461426,4329.487305,4331.282227,4571.153809,4562.307617,4473.717773,4493.589844,4687.000000,2.000000,36.000000,,,,0.000000,4.000000,4.000000,4.000000,4.000000,4.000000,4.000000,4.000000,4.000000,4.000000,4.000000,4.000000,4.000000,4.000000,4.000000,100.000000,,,,,,,,,,,,,,,,,,,,,,,,,,,,,,,,,,,,,,,,,,,,,,,,,,,,,,,,,,,,,,,,,,,,,,,,,,,,,,,,,,,,,,,,,,,,,,,,,,,,,,,,,,,,,,,,,,,,,
1768372299.586890,1768372299.587631,96.000000,0.000000,4359.615234,4365.897461,4365.897461,4386.282227,4346.538574,4344.358887,4325.769043,4336.410156,4324.102539,4322.820313,4570.128418,4560.000000,4466.153809,4489.102539,5016.000000,2.000000,36.000000,,,,0.000000,4.000000,4.000000,4.000000,4.000000,4.000000,4.000000,4.000000,4.000000,4.000000,4.000000,4.000000,4.000000,4.000000,4.000000,100.000000,,,,,,,,,,,,,,,,,,,,,,,,,,,,,,,,,,,,,,,,,,,,,,,,,,,,,,,,,,,,,,,,,,,,,,,,,,,,,,,,,,,,,,,,,,,,,,,,,,,,,,,,,,,,,,,,,,,,,
1768372299.594699,1768372299.595439,97.000000,0.000000,4355.641113,4368.846191,4366.410156,4387.948730,4347.692383,4346.153809,4325.769043,4336.282227,4325.512695,4323.077148,4569.871582,4556.922852,4458.205078,4488.205078,5409.000000,2.000000,36.000000,,,,0.000000,4.000000,4.000000,4.000000,4.000000,4.000000,4.000000,4.000000,4.000000,4.000000,4.000000,4.000000,4.000000,4.000000,4.000000,100.000000,,,,,,,,,,,,,,,,,,,,,,,,,,,,,,,,,,,,,,,,,,,,,,,,,,,,,,,,,,,,,,,,,,,,,,,,,,,,,,,,,,,,,,,,,,,,,,,,,,,,,,,,,,,,,,,,,,,,,
1768372299.602507,1768372299.603148,98.000000,0.000000,4345.769043,4376.922852,4361.153809,4383.205078,4343.846191,4332.563965,4313.589844,4332.436035,4325.384766,4326.538574,4569.615234,4553.589844,4466.538574,4490.256348,4385.000000,2.000000,36.000000,,,,0.000000,4.000000,4.000000,4.000000,4.000000,4.000000,4.000000,4.000000,4.000000,4.000000,4.000000,4.000000,4.000000,4.000000,4.000000,100.000000,,,,,,,,,,,,,,,,,,,,,,,,,,,,,,,,,,,,,,,,,,,,,,,,,,,,,,,,,,,,,,,,,,,,,,,,,,,,,,,,,,,,,,,,,,,,,,,,,,,,,,,,,,,,,,,,,,,,,
1768372299.610316,1768372299.610956,99.000000,0.000000,4349.102539,4379.102539,4358.205078,4383.717773,4339.358887,4327.307617,4307.436035,4334.615234,4325.128418,4330.000000,4571.666504,4560.000000,4475.128418,4491.153809,4687.000000,2.000000,36.000000,,,,0.000000,4.000000,4.000000,4.000000,4.000000,4.000000,4.000000,4.000000,4.000000,4.000000,4.000000,4.000000,4.000000,4.000000,4.000000,100.000000,,,,,,,,,,,,,,,,,,,,,,,,,,,,,,,,,,,,,,,,,,,,,,,,,,,,,,,,,,,,,,,,,,,,,,,,,,,,,,,,,,,,,,,,,,,,,,,,,,,,,,,,,,,,,,,,,,,,,
1768372299.618124,1768372299.618965,100.000000,0.000000,4358.461426,4377.051270,4360.641113,4389.743652,4341.410156,4336.666504,4315.384766,4342.948730,4330.256348,4329.487305,4578.589844,4571.922852,4473.846191,4493.846191,5016.000000,2.000000,36.000000,,,,0.000000,4.000000,4.000000,4.000000,4.000000,4.000000,4.000000,4.000000,4.000000,4.000000,4.000000,4.000000,4.000000,4.000000,4.000000,100.000000,,,,,,,,,,,,,,,,,,,,,,,,,,,,,,,,,,,,,,,,,,,,,,,,,,,,,,,,,,,,,,,,,,,,,,,,,,,,,,,,,,,,,,,,,,,,,,,,,,,,,,,,,,,,,,,,,,,,,
1768372299.625933,1768372299.626773,101.000000,0.000000,4355.641113,4377.179688,4361.410156,4389.487305,4343.974121,4340.000000,4322.179688,4344.487305,4334.230957,4326.153809,4582.051270,4569.487305,4473.717773,4495.000000,5409.000000,2.000000,36.000000,,,,0.000000,4.000000,4.000000,4.000000,4.000000,4.000000,4.000000,4.000000,4.000000,4.000000,4.000000,4.000000,4.000000,4.000000,4.000000,100.000000,,,,,,,,,,,,,,,,,,,,,,,,,,,,,,,,,,,,,,,,,,,,,,,,,,,,,,,,,,,,,,,,,,,,,,,,,,,,,,,,,,,,,,,,,,,,,,,,,,,,,,,,,,,,,,,,,,,,,
1768372299.633741,1768372299.634682,102.000000,0.000000,4354.230957,4378.589844,4367.563965,4389.102539,4343.461426,4339.102539,4324.358887,4343.589844,4337.436035,4330.128418,4581.025879,4562.563965,4477.307617,4492.692383,4385.000000,2.000000,36.000000,,,,0.000000,4.000000,4.000000,4.000000,4.000000,4.000000,4.000000,4.000000,4.000000,4.000000,4.000000,4.000000,4.000000,4.000000,4.000000,100.000000,,,,,,,,,,,,,,,,,,,,,,,,,,,,,,,,,,,,,,,,,,,,,,,,,,,,,,,,,,,,,,,,,,,,,,,,,,,,,,,,,,,,,,,,,,,,,,,,,,,,,,,,,,,,,,,,,,,,,
1768372299.641549,1768372299.642490,103.000000,0.000000,4361.025879,4378.461426,4373.846191,4393.077148,4343.333496,4342.948730,4328.333496,4344.487305,4335.897461,4336.025879,4582.307617,4565.384766,4479.358887,4491.666504,4687.000000,2.000000,36.000000,,,,0.000000,4.000000,4.000000,4.000000,4.000000,4.000000,4.000000,4.000000,4.000000,4.000000,4.000000,4.000000,4.000000,4.000000,4.000000,100.000000,,,,,,,,,,,,,,,,,,,,,,,,,,,,,,,,,,,,,,,,,,,,,,,,,,,,,,,,,,,,,,,,,,,,,,,,,,,,,,,,,,,,,,,,,,,,,,,,,,,,,,,,,,,,,,,,,,,,,
1768372299.649358,1768372299.650498,104.000000,0.000000,4358.077148,4370.256348,4365.769043,4388.974121,4344.487305,4342.948730,4325.641113,4342.692383,4327.179688,4330.000000,4576.410156,4565.512695,4470.384766,4490.897461,5016.000000,2.000000,36.000000,,,,0.000000,4.000000,4.000000,4.000000,4.000000,4.000000,4.000000,4.000000,4.000000,4.000000,4.000000,4.000000,4.000000,4.000000,4.000000,100.000000,,,,,,,,,,,,,,,,,,,,,,,,,,,,,,,,,,,,,,,,,,,,,,,,,,,,,,,,,,,,,,,,,,,,,,,,,,,,,,,,,,,,,,,,,,,,,,,,,,,,,,,,,,,,,,,,,,,,,
1768372299.657166,1768372299.658307,105.000000,0.000000,4348.846191,4359.230957,4354.871582,4378.974121,4344.615234,4341.410156,4321.153809,4343.333496,4327.179688,4321.794922,4572.307617,4559.102539,4464.487305,4488.974121,5409.000000,2.000000,36.000000,,,,0.000000,4.000000,4.000000,4.000000,4.000000,4.000000,4.000000,4.000000,4.000000,4.000000,4.000000,4.000000,4.000000,4.000000,4.000000,100.000000,,,,,,,,,,,,,,,,,,,,,,,,,,,,,,,,,,,,,,,,,,,,,,,,,,,,,,,,,,,,,,,,,,,,,,,,,,,,,,,,,,,,,,,,,,,,,,,,,,,,,,,,,,,,,,,,,,,,,
1768372299.664975,1768372299.666015,106.000000,0.000000,4346.922852,4359.358887,4354.743652,4376.666504,4341.794922,4343.333496,4324.615234,4345.641113,4334.743652,4327.436035,4578.589844,4557.948730,4472.563965,4488.846191,4385.000000,2.000000,36.000000,,,,0.000000,4.000000,4.000000,4.000000,4.000000,4.000000,4.000000,4.000000,4.000000,4.000000,4.000000,4.000000,4.000000,4.000000,4.000000,100.000000,,,,,,,,,,,,,,,,,,,,,,,,,,,,,,,,,,,,,,,,,,,,,,,,,,,,,,,,,,,,,,,,,,,,,,,,,,,,,,,,,,,,,,,,,,,,,,,,,,,,,,,,,,,,,,,,,,,,,
1768372299.672783,1768372299.673824,107.000000,0.000000,4352.563965,4362.948730,4358.974121,4380.128418,4341.922852,4341.794922,4319.871582,4339.358887,4330.769043,4332.948730,4577.307617,4557.307617,4476.282227,4490.384766,4687.000000,2.000000,36.000000,,,,0.000000,4.000000,4.000000,4.000000,4.000000,4.000000,4.000000,4.000000,4.000000,4.000000,4.000000,4.000000,4.000000,4.000000,4.000000,100.000000,,,,,,,,,,,,,,,,,,,,,,,,,,,,,,,,,,,,,,,,,,,,,,,,,,,,,,,,,,,,,,,,,,,,,,,,,,,,,,,,,,,,,,,,,,,,,,,,,,,,,,,,,,,,,,,,,,,,,
1768372299.680592,1768372299.681432,108.000000,0.000000,4357.563965,4359.615234,4363.846191,4380.769043,4343.974121,4338.333496,4309.487305,4336.538574,4326.538574,4334.487305,4573.077148,4552.948730,4472.692383,4490.897461,5016.000000,2.000000,36.000000,,,,0.000000,4.000000,4.000000,4.000000,4.000000,4.000000,4.000000,4.000000,4.000000,4.000000,4.000000,4.000000,4.000000,4.000000,4.000000,100.000000,,,,,,,,,,,,,,,,,,,,,,,,,,,,,,,,,,,,,,,,,,,,,,,,,,,,,,,,,,,,,,,,,,,,,,,,,,,,,,,,,,,,,,,,,,,,,,,,,,,,,,,,,,,,,,,,,,,,,
1768372299.688400,1768372299.689241,109.000000,0.000000,4355.000000,4357.179688,4365.000000,4379.487305,4342.948730,4337.948730,4314.230957,4346.794922,4338.205078,4340.384766,4581.282227,4558.846191,4475.641113,4491.410156,5409.000000,2.000000,36.000000,,,,0.000000,4.000000,4.000000,4.000000,4.000000,4.000000,4.000000,4.000000,4.000000,4.000000,4.000000,4.000000,4.000000,4.000000,4.000000,100.000000,,,,,,,,,,,,,,,,,,,,,,,,,,,,,,,,,,,,,,,,,,,,,,,,,,,,,,,,,,,,,,,,,,,,,,,,,,,,,,,,,,,,,,,,,,,,,,,,,,,,,,,,,,,,,,,,,,,,,
1768372299.696209,1768372299.697149,110.000000,0.000000,4348.974121,4359.358887,4357.820313,4378.077148,4342.051270,4339.615234,4317.179688,4345.512695,4339.102539,4336.410156,4583.846191,4565.000000,4478.589844,4491.666504,4385.000000,2.000000,36.000000,,,,0.000000,4.000000,4.000000,4.000000,4.000000,4.000000,4.000000,4.000000,4.000000,4.000000,4.000000,4.000000,4.000000,4.000000,4.000000,100.000000,,,,,,,,,,,,,,,,,,,,,,,,,,,,,,,,,,,,,,,,,,,,,,,,0.843284,0.399193,0.184001,0.138662,0.191911,0.522177,0.513619,0.147251,0.158418,0.101250,1.101820,0.422109,0.336103,0.140973,0.128503,0.342564,0.236987,0.102617,0.150621,0.085746,0.082864,0.099167,0.106655,0.106252,0.068700,0.359610,0.308948,0.168371,0.177143,0.146875,0.345313,0.149909,0.181200,0.112966,0.104177,0.228600,0.504658,0.304279,0.127063,0.171003,0.265640,0.326463,0.319584,0.087538,0.120198,0.428292,0.134160,0.226224,0.218690,0.150616,0.935165,0.414484,0.108276,0.264696,0.209422,1.786719,0.186004,0.145922,0.187755,0.171178,0.957180,0.284027,0.124624,0.356367,0.293043,1.593602,0.189541,0.073723,0.212364,0.162764
1768372299.704017,1768372299.704958,111.000000,0.000000,4348.846191,4361.538574,4359.230957,4382.563965,4347.563965,4341.025879,4310.512695,4334.871582,4328.205078,4328.461426,4580.128418,4560.641113,4474.102539,4491.153809,4687.000000,2.000000,36.000000,,,,0.000000,4.000000,4.000000,4.000000,4.000000,4.000000,4.000000,4.000000,4.000000,4.000000,4.000000,4.000000,4.000000,4.000000,4.000000,100.000000,,,,,,,,,,,,,,,,,,,,,,,,,,,,,,,,,,,,,,,,,,,,,,,,,,,,,,,,,,,,,,,,,,,,,,,,,,,,,,,,,,,,,,,,,,,,,,,,,,,,,,,,,,,,,,,,,,,,,
1768372299.711825,1768372299.712966,112.000000,0.000000,4355.512695,4367.051270,4369.358887,4390.769043,4353.589844,4342.948730,4314.358887,4337.820313,4329.487305,4330.512695,4582.051270,4554.871582,4474.871582,4491.794922,5016.000000,2.000000,36.000000,,,,0.000000,4.000000,4.000000,4.000000,4.000000,4.000000,4.000000,4.000000,4.000000,4.000000,4.000000,4.000000,4.000000,4.000000,4.000000,100.000000,,,,,,,,,,,,,,,,,,,,,,,,,,,,,,,,,,,,,,,,,,,,,,,,,,,,,,,,,,,,,,,,,,,,,,,,,,,,,,,,,,,,,,,,,,,,,,,,,,,,,,,,,,,,,,,,,,,,,
1768372299.719634,1768372299.720774,113.000000,0.000000,4360.128418,4370.769043,4367.179688,4391.922852,4353.589844,4342.948730,4321.410156,4343.717773,4333.589844,4335.256348,4577.436035,4558.589844,4475.897461,4492.948730,5409.000000,2.000000,36.000000,,,,0.000000,4.000000,4.000000,4.000000,4.000000,4.000000,4.000000,4.000000,4.000000,4.000000,4.000000,4.000000,4.000000,4.000000,4.000000,100.000000,,,,,,,,,,,,,,,,,,,,,,,,,,,,,,,,,,,,,,,,,,,,,,,,,,,,,,,,,,,,,,,,,,,,,,,,,,,,,,,,,,,,,,,,,,,,,,,,,,,,,,,,,,,,,,,,,,,,,
1768372299.727442,1768372299.728483,114.000000,0.000000,4358.846191,4367.563965,4365.512695,4386.922852,4353.974121,4345.897461,4321.666504,4344.358887,4332.436035,4338.589844,4576.666504,4569.743652,4475.512695,4492.948730,4385.000000,2.000000,36.000000,,,,0.000000,4.000000,4.000000,4.000000,4.000000,4.000000,4.000000,4.000000,4.000000,4.000000,4.000000,4.000000,4.000000,4.000000,4.000000,100.000000,,,,,,,,,,,,,,,,,,,,,,,,,,,,,,,,,,,,,,,,,,,,,,,,,,,,,,,,,,,,,,,,,,,,,,,,,,,,,,,,,,,,,,,,,,,,,,,,,,,,,,,,,,,,,,,,,,,,,
1768372299.735251,1768372299.736291,115.000000,0.000000,4354.871582,4362.307617,4371.025879,4383.589844,4354.358887,4349.102539,4327.051270,4353.205078,4339.871582,4341.282227,4586.410156,4572.563965,4477.307617,4492.051270,4687.000000,2.000000,36.000000,,,,0.000000,4.000000,4.000000,4.000000,4.000000,4.000000,4.000000,4.000000,4.000000,4.000000,4.000000,4.000000,4.000000,4.000000,4.000000,100.000000,,,,,,,,,,,,,,,,,,,,,,,,,,,,,,,,,,,,,,,,,,,,,,,,,,,,,,,,,,,,,,,,,,,,,,,,,,,,,,,,,,,,,,,,,,,,,,,,,,,,,,,,,,,,,,,,,,,,,
1768372299.743059,1768372299.743900,116.000000,0.000000,4353.205078,4360.641113,4369.102539,4382.436035,4351.538574,4342.948730,4326.794922,4356.282227,4344.871582,4336.282227,4583.333496,4565.000000,4473.974121,4491.922852,5016.000000,2.000000,36.000000,,,,0.000000,4.000000,4.000000,4.000000,4.000000,4.000000,4.000000,4.000000,4.000000,4.000000,4.000000,4.000000,4.000000,4.000000,4.000000,100.000000,,,,,,,,,,,,,,,,,,,,,,,,,,,,,,,,,,,,,,,,,,,,,,,,,,,,,,,,,,,,,,,,,,,,,,,,,,,,,,,,,,,,,,,,,,,,,,,,,,,,,,,,,,,,,,,,,,,,,
1768372299.750868,1768372299.751708,117.000000,0.000000,4359.615234,4365.256348,4362.179688,4388.077148,4352.948730,4337.563965,4315.897461,4342.051270,4334.615234,4332.179688,4578.717773,4560.384766,4472.307617,4493.333496,5409.000000,2.000000,36.000000,,,,0.000000,4.000000,4.000000,4.000000,4.000000,4.000000,4.000000,4.000000,4.000000,4.000000,4.000000,4.000000,4.000000,4.000000,4.000000,100.000000,,,,,,,,,,,,,,,,,,,,,,,,,,,,,,,,,,,,,,,,,,,,,,,,,,,,,,,,,,,,,,,,,,,,,,,,,,,,,,,,,,,,,,,,,,,,,,,,,,,,,,,,,,,,,,,,,,,,,
1768372299.758676,1768372299.759417,118.000000,0.000000,4359.743652,4366.922852,4358.333496,4392.051270,4356.282227,4340.256348,4312.179688,4331.666504,4325.512695,4336.538574,4580.897461,4553.846191,4479.487305,4493.205078,4385.000000,2.000000,36.000000,,,,0.000000,4.000000,4.000000,4.000000,4.000000,4.000000,4.000000,4.000000,4.000000,4.000000,4.000000,4.000000,4.000000,4.000000,4.000000,100.000000,,,,,,,,,,,,,,,,,,,,,,,,,,,,,,,,,,,,,,,,,,,,,,,,,,,,,,,,,,,,,,,,,,,,,,,,,,,,,,,,,,,,,,,,,,,,,,,,,,,,,,,,,,,,,,,,,,,,,
1768372299.766484,1768372299.767225,119.000000,0.000000,4349.102539,4358.205078,4358.846191,4386.282227,4353.461426,4341.153809,4316.538574,4332.436035,4323.846191,4333.589844,4575.128418,4542.563965,4480.384766,4487.563965,4687.000000,2.000000,36.000000,,,,0.000000,4.000000,4.000000,4.000000,4.000000,4.000000,4.000000,4.000000,4.000000,4.000000,4.000000,4.000000,4.000000,4.000000,4.000000,100.000000,,,,,,,,,,,,,,,,,,,,,,,,,,,,,,,,,,,,,,,,,,,,,,,,,,,,,,,,,,,,,,,,,,,,,,,,,,,,,,,,,,,,,,,,,,,,,,,,,,,,,,,,,,,,,,,,,,,,,
1768372299.774293,1768372299.774834,120.000000,0.000000,4349.871582,4353.846191,4363.717773,4382.563965,4351.025879,4339.358887,4320.769043,4337.692383,4326.410156,4332.307617,4573.846191,4551.538574,4475.000000,4486.025879,5016.000000,2.000000,36.000000,,,,0.000000,4.000000,4.000000,4.000000,4.000000,4.000000,4.000000,4.000000,4.000000,4.000000,4.000000,4.000000,4.000000,4.000000,4.000000,100.000000,,,,,,,,,,,,,,,,,,,,,,,,,,,,,,,,,,,,,,,,,,,,,,,,,,,,,,,,,,,,,,,,,,,,,,,,,,,,,,,,,,,,,,,,,,,,,,,,,,,,,,,,,,,,,,,,,,,,,
1768372299.782101,1768372299.782642,121.000000,0.000000,4365.512695,4363.205078,4368.333496,4390.512695,4356.025879,4341.794922,4325.128418,4344.230957,4334.230957,4342.051270,4587.948730,4572.179688,4484.358887,4499.230957,5409.000000,2.000000,36.000000,,,,0.000000,4.000000,4.000000,4.000000,4.000000,4.000000,4.000000,4.000000,4.000000,4.000000,4.000000,4.000000,4.000000,4.000000,4.000000,100.000000,,,,,,,,,,,,,,,,,,,,,,,,,,,,,,,,,,,,,,,,,,,,,,,,,,,,,,,,,,,,,,,,,,,,,,,,,,,,,,,,,,,,,,,,,,,,,,,,,,,,,,,,,,,,,,,,,,,,,
1768372299.789910,1768372299.790551,122.000000,0.000000,4371.538574,4369.871582,4368.077148,4396.410156,4359.871582,4344.487305,4326.153809,4345.897461,4340.000000,4344.615234,4591.025879,4570.384766,4494.615234,4509.615234,4385.000000,2.000000,36.000000,,,,0.000000,4.000000,4.000000,4.000000,4.000000,4.000000,4.000000,4.000000,4.000000,4.000000,4.000000,4.000000,4.000000,4.000000,4.000000,100.000000,,,,,,,,,,,,,,,,,,,,,,,,,,,,,,,,,,,,,,,,,,,,,,,,,,,,,,,,,,,,,,,,,,,,,,,,,,,,,,,,,,,,,,,,,,,,,,,,,,,,,,,,,,,,,,,,,,,,,
1768372299.797718,1768372299.798359,123.000000,0.000000,4366.410156,4364.358887,4364.358887,4392.948730,4357.051270,4342.307617,4324.743652,4342.307617,4340.000000,4342.563965,4584.102539,4559.230957,4488.846191,4504.743652,4687.000000,2.000000,36.000000,,,,0.000000,4.000000,4.000000,4.000000,4.000000,4.000000,4.000000,4.000000,4.000000,4.000000,4.000000,4.000000,4.000000,4.000000,4.000000,100.000000,,,,,,,,,,,,,,,,,,,,,,,,,,,,,,,,,,,,,,,,,,,,,,,,,,,,,,,,,,,,,,,,,,,,,,,,,,,,,,,,,,,,,,,,,,,,,,,,,,,,,,,,,,,,,,,,,,,,,
1768372299.805527,1768372299.806367,124.000000,0.000000,4366.025879,4365.641113,4364.230957,4393.077148,4355.769043,4343.205078,4323.846191,4343.589844,4339.487305,4344.102539,4585.512695,4562.692383,4481.922852,4502.948730,5016.000000,2.000000,36.000000,,,,0.000000,4.000000,4.000000,4.000000,4.000000,4.000000,4.000000,4.000000,4.000000,4.000000,4.000000,4.000000,4.000000,4.000000,4.000000,100.000000,,,,,,,,,,,,,,,,,,,,,,,,,,,,,,,,,,,,,,,,,,,,,,,,,,,,,,,,,,,,,,,,,,,,,,,,,,,,,,,,,,,,,,,,,,,,,,,,,,,,,,,,,,,,,,,,,,,,,
1768372299.813335,1768372299.814176,125.000000,0.000000,4367.563965,4372.436035,4368.589844,4395.256348,4361.282227,4348.333496,4324.615234,4347.179688,4336.410156,4339.487305,4586.538574,4571.666504,4483.077148,4509.743652,5409.000000,2.000000,36.000000,,,,0.000000,4.000000,4.000000,4.000000,4.000000,4.000000,4.000000,4.000000,4.000000,4.000000,4.000000,4.000000,4.000000,4.000000,4.000000,100.000000,,,,,,,,,,,,,,,,,,,,,,,,,,,,,,,,,,,,,,,,,,,,,,,,,,,,,,,,,,,,,,,,,,,,,,,,,,,,,,,,,,,,,,,,,,,,,,,,,,,,,,,,,,,,,,,,,,,,,
1768372299.821144,1768372299.822084,126.000000,0.000000,4365.256348,4367.307617,4367.948730,4390.512695,4361.153809,4347.307617,4327.563965,4343.077148,4332.307617,4337.436035,4582.563965,4569.871582,4486.538574,4507.820313,4385.000000,2.000000,36.000000,,,,0.000000,4.000000,4.000000,4.000000,4.000000,4.000000,4.000000,4.000000,4.000000,4.000000,4.000000,4.000000,4.000000,4.000000,4.000000,100.000000,,,,,,,,,,,,,,,,,,,,,,,,,,,,,,,,,,,,,,,,,,,,,,,,0.788166,0.443320,0.148240,0.129029,0.187614,0.444637,0.490183,0.117989,0.168149,0.107831,0.968944,0.410257,0.362906,0.149137,0.132180,0.308759,0.219397,0.100821,0.157654,0.089873,0.086149,0.092347,0.104421,0.117132,0.065978,0.307017,0.323811,0.147831,0.147762,0.125656,0.292699,0.141077,0.162241,0.090707,0.096692,0.262778,0.486466,0.299277,0.106813,0.167537,0.195330,0.362717,0.317208,0.085758,0.136504,0.414444,0.146796,0.267370,0.204194,0.174335,0.830132,0.407139,0.125064,0.260640,0.212196,1.514843,0.272860,0.198420,0.210199,0.186491,0.862765,0.273080,0.136907,0.344080,0.299004,1.414433,0.215842,0.078020,0.204178,0.158176
1768372299.828952,1768372299.829893,127.000000,0.000000,4361.922852,4362.563965,4362.436035,4389.102539,4354.615234,4340.641113,4325.256348,4335.000000,4332.563965,4345.000000,4583.077148,4560.769043,4488.589844,4500.000000,36.000000,2.000000,36.000000,,,,0.000000,4.000000,4.000000,4.000000,4.000000,4.000000,4.000000,4.000000,4.000000,4.000000,4.000000,4.000000,4.000000,4.000000,4.000000,100.000000,,,,,,,,,,,,,,,,,,,,,,,,,,,,,,,,,,,,,,,,,,,,,,,,,,,,,,,,,,,,,,,,,,,,,,,,,,,,,,,,,,,,,,,,,,,,,,,,,,,,,,,,,,,,,,,,,,,,,
1768372299.836760,1768372299.837901,0.000000,0.000000,4365.512695,4371.410156,4366.666504,4396.282227,4356.282227,4339.743652,4318.461426,4332.948730,4330.641113,4345.128418,4585.769043,4558.333496,4490.769043,4502.563965,4051.000000,2.000000,36.000000,,,,0.000000,4.000000,4.000000,4.000000,4.000000,4.000000,4.000000,4.000000,4.000000,4.000000,4.000000,4.000000,4.000000,4.000000,4.000000,100.000000,,,,,,,,,,,,,,,,,,,,,,,,,,,,,,,,,,,,,,,,,,,,,,,,,,,,,,,,,,,,,,,,,,,,,,,,,,,,,,,,,,,,,,,,,,,,,,,,,,,,,,,,,,,,,,,,,,,,,
1768372299.844569,1768372299.845709,1.000000,0.000000,4372.051270,4375.641113,4372.820313,4399.358887,4359.743652,4341.922852,4317.692383,4335.897461,4328.333496,4335.897461,4586.794922,4564.358887,4488.205078,4508.461426,3981.000000,2.000000,36.000000,,,,0.000000,4.000000,4.000000,4.000000,4.000000,4.000000,4.000000,4.000000,4.000000,4.000000,4.000000,4.000000,4.000000,4.000000,4.000000,100.000000,,,,,,,,,,,,,,,,,,,,,,,,,,,,,,,,,,,,,,,,,,,,,,,,,,,,,,,,,,,,,,,,,,,,,,,,,,,,,,,,,,,,,,,,,,,,,,,,,,,,,,,,,,,,,,,,,,,,,
1768372299.852377,1768372299.853618,2.000000,0.000000,4367.692383,4368.333496,4365.512695,4392.948730,4355.128418,4340.512695,4322.436035,4332.820313,4326.153809,4329.358887,4584.102539,4564.230957,4481.025879,4503.461426,3891.000000,2.000000,36.000000,,,,0.000000,4.000000,4.000000,4.000000,4.000000,4.000000,4.000000,4.000000,4.000000,4.000000,4.000000,4.000000,4.000000,4.000000,4.000000,100.000000,,,,,,,,,,,,,,,,,,,,,,,,,,,,,,,,,,,,,,,,,,,,,,,,,,,,,,,,,,,,,,,,,,,,,,,,,,,,,,,,,,,,,,,,,,,,,,,,,,,,,,,,,,,,,,,,,,,,,
1768372299.860186,1768372299.861426,3.000000,0.000000,4366.025879,4365.000000,4362.948730,4390.512695,4354.743652,4340.897461,4322.692383,4332.692383,4326.922852,4333.461426,4584.358887,4564.487305,4478.333496,4497.820313,3862.000000,2.000000,36.000000,,,,0.000000,4.000000,4.000000,4.000000,4.000000,4.000000,4.000000,4.000000,4.000000,4.000000,4.000000,4.000000,4.000000,4.000000,4.000000,100.000000,,,,,,,,,,,,,,,,,,,,,,,,,,,,,,,,,,,,,,,,,,,,,,,,,,,,,,,,,,,,,,,,,,,,,,,,,,,,,,,,,,,,,,,,,,,,,,,,,,,,,,,,,,,,,,,,,,,,,
1768372299.867994,1768372299.869035,4.000000,0.000000,4372.179688,4366.666504,4371.794922,4393.077148,4357.948730,4341.282227,4319.230957,4341.410156,4332.051270,4341.282227,4589.230957,4575.769043,4484.102539,4507.051270,3774.000000,2.000000,36.000000,,,,0.000000,4.000000,4.000000,4.000000,4.000000,4.000000,4.000000,4.000000,4.000000,4.000000,4.000000,4.000000,4.000000,4.000000,4.000000,100.000000,,,,,,,,,,,,,,,,,,,,,,,,,,,,,,,,,,,,,,,,,,,,,,,,,,,,,,,,,,,,,,,,,,,,,,,,,,,,,,,,,,,,,,,,,,,,,,,,,,,,,,,,,,,,,,,,,,,,,
1768372299.875803,1768372299.876843,5.000000,0.000000,4370.128418,4363.461426,4370.128418,4392.051270,4353.205078,4340.128418,4317.820313,4339.358887,4330.128418,4334.358887,4584.615234,4573.077148,4480.256348,4508.333496,3740.000000,2.000000,36.000000,,,,0.000000,4.000000,4.000000,4.000000,4.000000,4.000000,4.000000,4.000000,4.000000,4.000000,4.000000,4.000000,4.000000,4.000000,4.000000,100.000000,,,,,,,,,,,,,,,,,,,,,,,,,,,,,,,,,,,,,,,,,,,,,,,,,,,,,,,,,,,,,,,,,,,,,,,,,,,,,,,,,,,,,,,,,,,,,,,,,,,,,,,,,,,,,,,,,,,,,
1768372299.883611,1768372299.884552,6.000000,0.000000,4366.025879,4359.871582,4362.179688,4388.333496,4350.512695,4340.641113,4320.512695,4336.025879,4327.692383,4326.538574,4576.538574,4559.743652,4467.692383,4494.743652,3749.000000,2.000000,36.000000,,,,0.000000,4.000000,4.000000,4.000000,4.000000,4.000000,4.000000,4.000000,4.000000,4.000000,4.000000,4.000000,4.000000,4.000000,4.000000,100.000000,,,,,,,,,,,,,,,,,,,,,,,,,,,,,,,,,,,,,,,,,,,,,,,,,,,,,,,,,,,,,,,,,,,,,,,,,,,,,,,,,,,,,,,,,,,,,,,,,,,,,,,,,,,,,,,,,,,,,
1768372299.891420,1768372299.892360,7.000000,0.000000,4372.820313,4361.794922,4368.846191,4391.025879,4353.333496,4341.538574,4322.948730,4342.948730,4332.692383,4337.563965,4582.948730,4563.333496,4480.384766,4497.179688,3752.000000,2.000000,36.000000,,,,0.000000,4.000000,4.000000,4.000000,4.000000,4.000000,4.000000,4.000000,4.000000,4.000000,4.000000,4.000000,4.000000,4.000000,4.000000,100.000000,,,,,,,,,,,,,,,,,,,,,,,,,,,,,,,,,,,,,,,,,,,,,,,,,,,,,,,,,,,,,,,,,,,,,,,,,,,,,,,,,,,,,,,,,,,,,,,,,,,,,,,,,,,,,,,,,,,,,
1768372299.899228,1768372299.900369,8.000000,0.000000,4375.641113,4365.256348,4376.025879,4395.128418,4351.922852,4339.871582,4317.436035,4338.974121,4330.897461,4341.410156,4592.436035,4572.307617,4496.538574,4510.512695,3947.000000,2.000000,36.000000,,,,0.000000,4.000000,4.000000,4.000000,4.000000,4.000000,4.000000,4.000000,4.000000,4.000000,4.000000,4.000000,4.000000,4.000000,4.000000,100.000000,,,,,,,,,,,,,,,,,,,,,,,,,,,,,,,,,,,,,,,,,,,,,,,,,,,,,,,,,,,,,,,,,,,,,,,,,,,,,,,,,,,,,,,,,,,,,,,,,,,,,,,,,,,,,,,,,,,,,
1768372299.907036,1768372299.908177,9.000000,0.000000,4369.102539,4363.846191,4367.051270,4390.769043,4350.512695,4338.974121,4314.358887,4329.230957,4322.948730,4328.589844,4585.128418,4568.205078,4481.025879,4504.871582,3906.000000,2.000000,36.000000,,,,0.000000,4.000000,4.000000,4.000000,4.000000,4.000000,4.000000,4.000000,4.000000,4.000000,4.000000,4.000000,4.000000,4.000000,4.000000,100.000000,,,,,,,,,,,,,,,,,,,,,,,,,,,,,,,,,,,,,,,,,,,,,,,,,,,,,,,,,,,,,,,,,,,,,,,,,,,,,,,,,,,,,,,,,,,,,,,,,,,,,,,,,,,,,,,,,,,,,
1768372299.914845,1768372299.915885,10.000000,0.000000,4366.666504,4361.153809,4360.897461,4385.384766,4354.487305,4341.666504,4320.000000,4333.461426,4324.487305,4331.538574,4576.282227,4555.256348,4467.307617,4495.512695,4385.000000,2.000000,36.000000,,,,0.000000,4.000000,4.000000,4.000000,4.000000,4.000000,4.000000,4.000000,4.000000,4.000000,4.000000,4.000000,4.000000,4.000000,4.000000,100.000000,,,,,,,,,,,,,,,,,,,,,,,,,,,,,,,,,,,,,,,,,,,,,,,,,,,,,,,,,,,,,,,,,,,,,,,,,,,,,,,,,,,,,,,,,,,,,,,,,,,,,,,,,,,,,,,,,,,,,
1768372299.922653,1768372299.923694,11.000000,0.000000,4365.384766,4357.563965,4365.512695,4386.282227,4356.794922,4342.820313,4320.512695,4335.897461,4327.948730,4343.077148,4581.794922,4549.871582,4484.358887,4501.410156,4687.000000,2.000000,36.000000,,,,0.000000,4.000000,4.000000,4.000000,4.000000,4.000000,4.000000,4.000000,4.000000,4.000000,4.000000,4.000000,4.000000,4.000000,4.000000,100.000000,,,,,,,,,,,,,,,,,,,,,,,,,,,,,,,,,,,,,,,,,,,,,,,,,,,,,,,,,,,,,,,,,,,,,,,,,,,,,,,,,,,,,,,,,,,,,,,,,,,,,,,,,,,,,,,,,,,,,
1768372299.930462,1768372299.931303,12.000000,0.000000,4363.974121,4355.384766,4366.794922,4386.025879,4353.974121,4340.000000,4317.820313,4333.205078,4327.307617,4341.025879,4589.615234,4561.666504,4495.000000,4507.051270,5016.000000,2.000000,36.000000,,,,0.000000,4.000000,4.000000,4.000000,4.000000,4.000000,4.000000,4.000000,4.000000,4.000000,4.000000,4.000000,4.000000,4.000000,4.000000,100.000000,,,,,,,,,,,,,,,,,,,,,,,,,,,,,,,,,,,,,,,,,,,,,,,,,,,,,,,,,,,,,,,,,,,,,,,,,,,,,,,,,,,,,,,,,,,,,,,,,,,,,,,,,,,,,,,,,,,,,
1768372299.938270,1768372299.939111,13.000000,0.000000,4365.897461,4357.692383,4365.641113,4383.589844,4351.153809,4340.128418,4323.589844,4339.487305,4329.871582,4341.538574,4587.692383,4572.307617,4480.128418,4507.948730,5407.000000,2.000000,36.000000,,,,0.000000,4.000000,4.000000,4.000000,4.000000,4.000000,4.000000,4.000000,4.000000,4.000000,4.000000,4.000000,4.000000,4.000000,4.000000,100.000000,,,,,,,,,,,,,,,,,,,,,,,,,,,,,,,,,,,,,,,,,,,,,,,,,,,,,,,,,,,,,,,,,,,,,,,,,,,,,,,,,,,,,,,,,,,,,,,,,,,,,,,,,,,,,,,,,,,,,
1768372299.946079,1768372299.947019,14.000000,0.000000,4364.487305,4356.794922,4362.948730,4383.333496,4348.589844,4341.922852,4321.922852,4341.922852,4330.128418,4342.436035,4583.846191,4563.589844,4472.051270,4504.615234,4385.000000,2.000000,36.000000,,,,0.000000,4.000000,4.000000,4.000000,4.000000,4.000000,4.000000,4.000000,4.000000,4.000000,4.000000,4.000000,4.000000,4.000000,4.000000,100.000000,1.000000,91.666664,4.000000,4.000000,4.000000,4.000000,4.000000,4.000000,4.000000,4.000000,4.000000,3.000000,4.000000,4.000000,4.000000,4.000000,,,,,,,,,,,,,,,,,,,,,,,,,,,,,,,,0.699167,0.496684,0.142898,0.130034,0.179866,0.506565,0.487720,0.102674,0.176771,0.115795,0.784585,0.405566,0.364795,0.155204,0.140186,0.291513,0.220962,0.103248,0.156619,0.094227,0.099543,0.086970,0.102670,0.126781,0.064830,0.245297,0.301443,0.136490,0.116858,0.107178,0.244005,0.128789,0.149736,0.077421,0.088798,0.332561,0.434471,0.281992,0.108067,0.156142,0.162478,0.382679,0.312921,0.091268,0.152260,0.390307,0.182830,0.338020,0.201633,0.215175,0.778534,0.427817,0.150685,0.247506,0.206449,1.284995,0.450116,0.248330,0.242196,0.193058,0.791981,0.298563,0.170743,0.320829,0.299541,1.180110,0.301982,0.107357,0.186046,0.154808
1768372299.953887,1768372299.954828,15.000000,0.000000,4364.102539,4356.153809,4358.589844,4384.487305,4346.153809,4340.128418,4310.000000,4335.000000,4326.538574,4334.230957,4586.666504,4552.179688,4477.436035,4495.641113,4687.000000,2.000000,36.000000,,,,0.000000,4.000000,4.000000,4.000000,4.000000,4.000000,4.000000,4.000000,4.000000,4.000000,4.000000,4.000000,4.000000,4.000000,4.000000,100.000000,,,,,,,,,,,,,,,,,,,,,,,,,,,,,,,,,,,,,,,,,,,,,,,,,,,,,,,,,,,,,,,,,,,,,,,,,,,,,,,,,,,,,,,,,,,,,,,,,,,,,,,,,,,,,,,,,,,,,
1768372299.961696,1768372299.962436,16.000000,0.000000,4366.025879,4359.358887,4356.282227,4385.128418,4346.922852,4342.179688,4313.974121,4335.897461,4326.794922,4334.230957,4582.563965,4553.589844,4478.205078,4490.769043,0.000000,2.000000,36.000000,,,,0.000000,4.000000,4.000000,4.000000,4.000000,4.000000,4.000000,4.000000,4.000000,4.000000,4.000000,4.000000,4.000000,4.000000,4.000000,100.000000,,,,,,,,,,,,,,,,,,,,,,,,,,,,,,,,,,,,,,,,,,,,,,,,,,,,,,,,,,,,,,,,,,,,,,,,,,,,,,,,,,,,,,,,,,,,,,,,,,,,,,,,,,,,,,,,,,,,,
1768372299.969504,1768372299.970245,17.000000,0.000000,4361.410156,4355.897461,4356.666504,4383.333496,4347.307617,4344.615234,4323.461426,4342.948730,4331.538574,4342.563965,4576.922852,4557.051270,4474.487305,4492.948730,0.000000,2.000000,36.000000,,,,0.000000,4.000000,4.000000,4.000000,4.000000,4.000000,4.000000,4.000000,4.000000,4.000000,4.000000,4.000000,4.000000,4.000000,4.000000,100.000000,,,,,,,,,,,,,,,,,,,,,,,,,,,,,,,,,,,,,,,,,,,,,,,,,,,,,,,,,,,,,,,,,,,,,,,,,,,,,,,,,,,,,,,,,,,,,,,,,,,,,,,,,,,,,,,,,,,,,
1768372299.977312,1768372299.977953,18.000000,0.000000,4360.384766,4353.717773,4359.743652,4382.820313,4349.102539,4337.179688,4316.282227,4340.384766,4332.948730,4342.820313,4581.666504,4559.743652,4474.743652,4493.589844,0.000000,2.000000,36.000000,,,,0.000000,4.000000,4.000000,4.000000,4.000000,4.000000,4.000000,4.000000,4.000000,4.000000,4.000000,4.000000,4.000000,4.000000,4.000000,100.000000,,,,,,,,,,,,,,,,,,,,,,,,,,,,,,,,,,,,,,,,,,,,,,,,,,,,,,,,,,,,,,,,,,,,,,,,,,,,,,,,,,,,,,,,,,,,,,,,,,,,,,,,,,,,,,,,,,,,,
1768372299.985121,1768372299.985762,19.000000,0.000000,4367.051270,4359.358887,4364.358887,4384.102539,4352.436035,4331.282227,4307.307617,4328.974121,4326.666504,4338.333496,4579.743652,4556.922852,4478.077148,4490.384766,0.000000,2.000000,36.000000,,,,0.000000,4.000000,4.000000,4.000000,4.000000,4.000000,4.000000,4.000000,4.000000,4.000000,4.000000,4.000000,4.000000,4.000000,4.000000,100.000000,,,,,,,,,,,,,,,,,,,,,,,,,,,,,,,,,,,,,,,,,,,,,,,,,,,,,,,,,,,,,,,,,,,,,,,,,,,,,,,,,,,,,,,,,,,,,,,,,,,,,,,,,,,,,,,,,,,,,
1768372299.992929,1768372299.993371,20.000000,0.000000,4362.563965,4355.256348,4361.153809,4381.153809,4349.230957,4336.282227,4310.897461,4325.256348,4323.333496,4337.051270,4570.897461,4549.102539,4472.436035,4490.512695,0.000000,2.000000,36.000000,,,,0.000000,4.000000,4.000000,4.000000,4.000000,4.000000,4.000000,4.000000,4.000000,4.000000,4.000000,4.000000,4.000000,4.000000,4.000000,100.000000,,,,,,,,,,,,,,,,,,,,,,,,,,,,,,,,,,,,,,,,,,,,,,,,,,,,,,,,,,,,,,,,,,,,,,,,,,,,,,,,,,,,,,,,,,,,,,,,,,,,,,,,,,,,,,,,,,,,,
1768372300.000738,1768372300.001179,21.000000,0.000000,4350.897461,4345.512695,4354.230957,4377.563965,4345.256348,4341.025879,4313.974121,4331.666504,4327.563965,4340.000000,4569.102539,4547.820313,4462.307617,4487.563965,0.000000,2.000000,36.000000,,,,0.000000,4.000000,4.000000,4.000000,4.000000,4.000000,4.000000,4.000000,4.000000,4.000000,4.000000,4.000000,4.000000,4.000000,4.000000,100.000000,,,,,,,,,,,,,,,,,,,,,,,,,,,,,,,,,,,,,,,,,,,,,,,,,,,,,,,,,,,,,,,,,,,,,,,,,,,,,,,,,,,,,,,,,,,,,,,,,,,,,,,,,,,,,,,,,,,,,
1768372300.008546,1768372300.008888,22.000000,0.000000,4357.307617,4351.282227,4359.871582,4380.128418,4349.487305,4340.256348,4311.153809,4333.974121,4326.538574,4340.769043,4569.743652,4552.179688,4465.128418,4487.948730,0.000000,2.000000,36.000000,,,,0.000000,4.000000,4.000000,4.000000,4.000000,4.000000,4.000000,4.000000,4.000000,4.000000,4.000000,4.000000,4.000000,4.000000,4.000000,100.000000,,,,,,,,,,,,,,,,,,,,,,,,,,,,,,,,,,,,,,,,,,,,,,,,,,,,,,,,,,,,,,,,,,,,,,,,,,,,,,,,,,,,,,,,,,,,,,,,,,,,,,,,,,,,,,,,,,,,,
1768372300.016355,1768372300.016696,23.000000,0.000000,4375.000000,4362.436035,4371.538574,4388.077148,4356.282227,4341.410156,4312.692383,4331.282227,4321.410156,4335.384766,4573.205078,4557.820313,4475.256348,4500.000000,0.000000,2.000000,36.000000,,,,0.000000,4.000000,4.000000,4.000000,4.000000,4.000000,4.000000,4.000000,4.000000,4.000000,4.000000,4.000000,4.000000,4.000000,4.000000,100.000000,,,,,,,,,,,,,,,,,,,,,,,,,,,,,,,,,,,,,,,,,,,,,,,,,,,,,,,,,,,,,,,,,,,,,,,,,,,,,,,,,,,,,,,,,,,,,,,,,,,,,,,,,,,,,,,,,,,,,
1768372300.024163,1768372300.024704,24.000000,0.000000,4371.666504,4356.794922,4368.589844,4388.589844,4356.666504,4343.974121,4324.102539,4337.307617,4323.461426,4330.641113,4578.717773,4561.666504,4475.641113,4501.410156,0.000000,2.000000,36.000000,,,,0.000000,4.000000,4.000000,4.000000,4.000000,4.000000,4.000000,4.000000,4.000000,4.000000,4.000000,4.000000,4.000000,4.000000,4.000000,100.000000,,,,,,,,,,,,,,,,,,,,,,,,,,,,,,,,,,,,,,,,,,,,,,,,,,,,,,,,,,,,,,,,,,,,,,,,,,,,,,,,,,,,,,,,,,,,,,,,,,,,,,,,,,,,,,,,,,,,,
1768372300.031972,1768372300.032513,25.000000,0.000000,4356.410156,4346.538574,4363.717773,4381.282227,4353.717773,4345.641113,4332.051270,4345.641113,4327.436035,4331.025879,4574.102539,4562.692383,4468.974121,4489.743652,0.000000,2.000000,36.000000,,,,0.000000,4.000000,4.000000,4.000000,4.000000,4.000000,4.000000,4.000000,4.000000,4.000000,4.000000,4.000000,4.000000,4.000000,4.000000,100.000000,,,,,,,,,,,,,,,,,,,,,,,,,,,,,,,,,,,,,,,,,,,,,,,,,,,,,,,,,,,,,,,,,,,,,,,,,,,,,,,,,,,,,,,,,,,,,,,,,,,,,,,,,,,,,,,,,,,,,
1768372300.039780,1768372300.040421,26.000000,0.000000,4357.563965,4350.128418,4368.717773,4379.102539,4352.307617,4342.436035,4320.000000,4340.000000,4325.256348,4337.692383,4572.563965,4561.153809,4472.563965,4494.615234,0.000000,2.000000,36.000000,,,,0.000000,4.000000,4.000000,4.000000,4.000000,4.000000,4.000000,4.000000,4.000000,4.000000,4.000000,4.000000,4.000000,4.000000,4.000000,100.000000,,,,,,,,,,,,,,,,,,,,,,,,,,,,,,,,,,,,,,,,,,,,,,,,,,,,,,,,,,,,,,,,,,,,,,,,,,,,,,,,,,,,,,,,,,,,,,,,,,,,,,,,,,,,,,,,,,,,,
1768372300.047588,1768372300.048230,27.000000,0.000000,4366.025879,4355.384766,4366.794922,4381.025879,4352.820313,4336.153809,4309.743652,4336.538574,4328.461426,4346.922852,4585.000000,4563.205078,4480.641113,4508.846191,0.000000,2.000000,36.000000,,,,0.000000,4.000000,4.000000,4.000000,4.000000,4.000000,4.000000,4.000000,4.000000,4.000000,4.000000,4.000000,4.000000,4.000000,4.000000,100.000000,,,,,,,,,,,,,,,,,,,,,,,,,,,,,,,,,,,,,,,,,,,,,,,,,,,,,,,,,,,,,,,,,,,,,,,,,,,,,,,,,,,,,,,,,,,,,,,,,,,,,,,,,,,,,,,,,,,,,
1768372300.055397,1768372300.056238,28.000000,0.000000,4362.948730,4350.769043,4360.641113,4379.358887,4354.615234,4338.974121,4322.436035,4345.256348,4336.153809,4351.282227,4591.922852,4568.717773,4484.230957,4506.025879,0.000000,2.000000,36.000000,,,,0.000000,4.000000,4.000000,4.000000,4.000000,4.000000,4.000000,4.000000,4.000000,4.000000,4.000000,4.000000,4.000000,4.000000,4.000000,100.000000,,,,,,,,,,,,,,,,,,,,,,,,,,,,,,,,,,,,,,,,,,,,,,,,,,,,,,,,,,,,,,,,,,,,,,,,,,,,,,,,,,,,,,,,,,,,,,,,,,,,,,,,,,,,,,,,,,,,,
1768372300.063205,1768372300.064046,29.000000,0.000000,4361.794922,4348.717773,4368.333496,4379.358887,4356.153809,4343.205078,4330.641113,4341.025879,4331.538574,4346.666504,4587.692383,4565.769043,4484.358887,4502.051270,0.000000,2.000000,36.000000,,,,0.000000,4.000000,4.000000,4.000000,4.000000,4.000000,4.000000,4.000000,4.000000,4.000000,4.000000,4.000000,4.000000,4.000000,4.000000,100.000000,,,,,,,,,,,,,,,,,,,,,,,,,,,,,,,,,,,,,,,,,,,,,,,,,,,,,,,,,,,,,,,,,,,,,,,,,,,,,,,,,,,,,,,,,,,,,,,,,,,,,,,,,,,,,,,,,,,,,
1768372300.071014,1768372300.071755,30.000000,0.000000,4372.436035,4354.743652,4377.179688,4384.102539,4355.256348,4336.410156,4317.948730,4327.820313,4323.589844,4343.077148,4584.102539,4557.948730,4480.897461,4508.077148,0.000000,2.000000,36.000000,,,,0.000000,4.000000,4.000000,4.000000,4.000000,4.000000,4.000000,4.000000,4.000000,4.000000,4.000000,4.000000,4.000000,4.000000,4.000000,100.000000,,,,,,,,,,,,,,,,,,,,,,,,,,,,,,,,,,,,,,,,,,,,,,,,0.605517,0.558335,0.160239,0.143049,0.170934,0.711788,0.522575,0.102096,0.179035,0.124913,0.594867,0.422796,0.343562,0.158555,0.150426,0.296898,0.247927,0.113300,0.146863,0.098274,0.112760,0.088620,0.101515,0.129687,0.065033,0.184002,0.252171,0.147158,0.088961,0.095971,0.210793,0.126587,0.162742,0.071598,0.083689,0.399347,0.368173,0.260489,0.123943,0.139292,0.165022,0.383603,0.309700,0.104236,0.163373,0.368315,0.239561,0.426367,0.213145,0.267218,0.735730,0.485314,0.177796,0.232247,0.194940,1.092773,0.703134,0.290785,0.273761,0.187828,0.731981,0.352778,0.211061,0.293660,0.294573,0.953258,0.438465,0.147463,0.161326,0.151721
1768372300.078822,1768372300.079563,31.000000,0.000000,4373.846191,4358.717773,4373.717773,4384.358887,4353.846191,4331.153809,4308.077148,4330.641113,4324.743652,4344.615234,4583.461426,4558.333496,4475.897461,4507.948730,0.000000,2.000000,36.000000,,,,0.000000,4.000000,4.000000,4.000000,4.000000,4.000000,4.000000,4.000000,4.000000,4.000000,4.000000,4.000000,4.000000,4.000000,4.000000,100.000000,,,,,,,,,,,,,,,,,,,,,,,,,,,,,,,,,,,,,,,,,,,,,,,,,,,,,,,,,,,,,,,,,,,,,,,,,,,,,,,,,,,,,,,,,,,,,,,,,,,,,,,,,,,,,,,,,,,,,
1768372300.086630,1768372300.087571,32.000000,0.000000,4367.436035,4355.384766,4371.282227,4382.948730,4352.436035,4336.666504,4313.205078,4336.410156,4325.641113,4342.692383,4585.641113,4565.000000,4475.769043,4506.538574,0.000000,2.000000,36.000000,,,,0.000000,4.000000,4.000000,4.000000,4.000000,4.000000,4.000000,4.000000,4.000000,4.000000,4.000000,4.000000,4.000000,4.000000,4.000000,100.000000,,,,,,,,,,,,,,,,,,,,,,,,,,,,,,,,,,,,,,,,,,,,,,,,,,,,,,,,,,,,,,,,,,,,,,,,,,,,,,,,,,,,,,,,,,,,,,,,,,,,,,,,,,,,,,,,,,,,,
1768372300.094439,1768372300.095380,33.000000,0.000000,4365.897461,4348.333496,4376.282227,4383.461426,4347.948730,4339.230957,4317.563965,4335.512695,4324.743652,4340.897461,4587.948730,4569.615234,4482.179688,4507.051270,0.000000,2.000000,36.000000,,,,0.000000,4.000000,4.000000,4.000000,4.000000,4.000000,4.000000,4.000000,4.000000,4.000000,4.000000,4.000000,4.000000,4.000000,4.000000,100.000000,,,,,,,,,,,,,,,,,,,,,,,,,,,,,,,,,,,,,,,,,,,,,,,,,,,,,,,,,,,,,,,,,,,,,,,,,,,,,,,,,,,,,,,,,,,,,,,,,,,,,,,,,,,,,,,,,,,,,
1768372300.102247,1768372300.103088,34.000000,0.000000,4361.282227,4341.794922,4373.205078,4376.922852,4346.153809,4337.179688,4320.128418,4340.897461,4328.461426,4337.307617,4579.230957,4567.820313,4475.128418,4498.717773,0.000000,2.000000,36.000000,,,,0.000000,4.000000,4.000000,4.000000,4.000000,4.000000,4.000000,4.000000,4.000000,4.000000,4.000000,4.000000,4.000000,4.000000,4.000000,100.000000,,,,,,,,,,,,,,,,,,,,,,,,,,,,,,,,,,,,,,,,,,,,,,,,,,,,,,,,,,,,,,,,,,,,,,,,,,,,,,,,,,,,,,,,,,,,,,,,,,,,,,,,,,,,,,,,,,,,,
1768372300.110056,1768372300.110897,35.000000,0.000000,4354.743652,4340.000000,4361.794922,4370.769043,4348.717773,4340.641113,4326.153809,4351.025879,4332.820313,4337.307617,4571.282227,4563.077148,4462.051270,4487.179688,0.000000,2.000000,36.000000,,,,0.000000,4.000000,4.000000,4.000000,4.000000,4.000000,4.000000,4.000000,4.000000,4.000000,4.000000,4.000000,4.000000,4.000000,4.000000,100.000000,,,,,,,,,,,,,,,,,,,,,,,,,,,,,,,,,,,,,,,,,,,,,,,,,,,,,,,,,,,,,,,,,,,,,,,,,,,,,,,,,,,,,,,,,,,,,,,,,,,,,,,,,,,,,,,,,,,,,
1768372300.117864,1768372300.118506,36.000000,0.000000,4355.769043,4342.820313,4361.282227,4374.871582,4348.461426,4343.461426,4327.692383,4355.512695,4335.641113,4346.922852,4583.461426,4569.102539,4474.230957,4491.153809,0.000000,2.000000,36.000000,,,,0.000000,4.000000,4.000000,4.000000,4.000000,4.000000,4.000000,4.000000,4.000000,4.000000,4.000000,4.000000,4.000000,4.000000,4.000000,100.000000,,,,,,,,,,,,,,,,,,,,,,,,,,,,,,,,,,,,,,,,,,,,,,,,,,,,,,,,,,,,,,,,,,,,,,,,,,,,,,,,,,,,,,,,,,,,,,,,,,,,,,,,,,,,,,,,,,,,,
1768372300.125673,1768372300.126314,37.000000,0.000000,4365.641113,4348.589844,4373.333496,4382.692383,4347.692383,4340.897461,4325.000000,4355.897461,4338.846191,4353.846191,4600.384766,4584.487305,4496.538574,4507.820313,0.000000,2.000000,36.000000,,,,0.000000,4.000000,4.000000,4.000000,4.000000,4.000000,4.000000,4.000000,4.000000,4.000000,4.000000,4.000000,4.000000,4.000000,4.000000,100.000000,,,,,,,,,,,,,,,,,,,,,,,,,,,,,,,,,,,,,,,,,,,,,,,,,,,,,,,,,,,,,,,,,,,,,,,,,,,,,,,,,,,,,,,,,,,,,,,,,,,,,,,,,,,,,,,,,,,,,
1768372300.133481,1768372300.134023,38.000000,0.000000,4368.717773,4350.769043,4378.205078,4385.769043,4348.846191,4339.743652,4325.897461,4355.641113,4336.538574,4352.179688,4595.256348,4583.205078,4493.205078,4509.743652,0.000000,2.000000,36.000000,,,,0.000000,4.000000,4.000000,4.000000,4.000000,4.000000,4.000000,4.000000,4.000000,4.000000,4.000000,4.000000,4.000000,4.000000,4.000000,100.000000,,,,,,,,,,,,,,,,,,,,,,,,,,,,,,,,,,,,,,,,,,,,,,,,,,,,,,,,,,,,,,,,,,,,,,,,,,,,,,,,,,,,,,,,,,,,,,,,,,,,,,,,,,,,,,,,,,,,,
1768372300.141290,1768372300.141831,39.000000,0.000000,4366.794922,4346.538574,4370.128418,4383.333496,4346.922852,4340.128418,4321.794922,4347.436035,4328.589844,4346.794922,4580.897461,4562.948730,4475.769043,4495.000000,0.000000,2.000000,36.000000,,,,0.000000,4.000000,4.000000,4.000000,4.000000,4.000000,4.000000,4.000000,4.000000,4.000000,4.000000,4.000000,4.000000,4.000000,4.000000,100.000000,,,,,,,,,,,,,,,,,,,,,,,,,,,,,,,,,,,,,,,,,,,,,,,,,,,,,,,,,,,,,,,,,,,,,,,,,,,,,,,,,,,,,,,,,,,,,,,,,,,,,,,,,,,,,,,,,,,,,
1768372300.149098,1768372300.149839,40.000000,0.000000,4368.974121,4345.641113,4365.512695,4379.743652,4345.897461,4336.025879,4311.153809,4333.974121,4322.051270,4334.743652,4579.743652,4551.538574,4473.333496,4490.769043,0.000000,2.000000,36.000000,,,,0.000000,4.000000,4.000000,4.000000,4.000000,4.000000,4.000000,4.000000,4.000000,4.000000,4.000000,4.000000,4.000000,4.000000,4.000000,100.000000,,,,,,,,,,,,,,,,,,,,,,,,,,,,,,,,,,,,,,,,,,,,,,,,,,,,,,,,,,,,,,,,,,,,,,,,,,,,,,,,,,,,,,,,,,,,,,,,,,,,,,,,,,,,,,,,,,,,,
1768372300.156906,1768372300.157648,41.000000,0.000000,4367.563965,4350.512695,4371.025879,4379.871582,4348.974121,4333.846191,4313.205078,4335.256348,4322.948730,4326.538574,4580.641113,4557.692383,4476.025879,4497.436035,0.000000,2.000000,36.000000,,,,0.000000,4.000000,4.000000,4.000000,4.000000,4.000000,4.000000,4.000000,4.000000,4.000000,4.000000,4.000000,4.000000,4.000000,4.000000,100.000000,,,,,,,,,,,,,,,,,,,,,,,,,,,,,,,,,,,,,,,,,,,,,,,,,,,,,,,,,,,,,,,,,,,,,,,,,,,,,,,,,,,,,,,,,,,,,,,,,,,,,,,,,,,,,,,,,,,,,
1768372300.164715,1768372300.165556,42.000000,0.000000,4362.563965,4351.410156,4374.102539,4382.820313,4349.871582,4340.897461,4325.256348,4348.205078,4327.692383,4340.641113,4579.615234,4565.384766,4474.358887,4495.000000,0.000000,2.000000,36.000000,,,,0.000000,4.000000,4.000000,4.000000,4.000000,4.000000,4.000000,4.000000,4.000000,4.000000,4.000000,4.000000,4.000000,4.000000,4.000000,100.000000,,,,,,,,,,,,,,,,,,,,,,,,,,,,,,,,,,,,,,,,,,,,,,,,,,,,,,,,,,,,,,,,,,,,,,,,,,,,,,,,,,,,,,,,,,,,,,,,,,,,,,,,,,,,,,,,,,,,,
1768372300.172523,1768372300.173365,43.000000,0.000000,4361.025879,4348.205078,4371.410156,4384.615234,4351.025879,4344.358887,4326.153809,4347.051270,4326.410156,4351.025879,4584.615234,4564.743652,4475.000000,4492.307617,0.000000,2.000000,36.000000,,,,0.000000,4.000000,4.000000,4.000000,4.000000,4.000000,4.000000,4.000000,4.000000,4.000000,4.000000,4.000000,4.000000,4.000000,4.000000,100.000000,,,,,,,,,,,,,,,,,,,,,,,,,,,,,,,,,,,,,,,,,,,,,,,,,,,,,,,,,,,,,,,,,,,,,,,,,,,,,,,,,,,,,,,,,,,,,,,,,,,,,,,,,,,,,,,,,,,,,
1768372300.180332,1768372300.181373,44.000000,0.000000,4367.692383,4349.358887,4370.512695,4382.692383,4351.794922,4337.692383,4318.974121,4338.846191,4323.717773,4340.384766,4589.102539,4564.871582,4477.948730,4500.769043,0.000000,2.000000,36.000000,,,,0.000000,4.000000,4.000000,4.000000,4.000000,4.000000,4.000000,4.000000,4.000000,4.000000,4.000000,4.000000,4.000000,4.000000,4.000000,100.000000,,,,,,,,,,,,,,,,,,,,,,,,,,,,,,,,,,,,,,,,,,,,,,,,,,,,,,,,,,,,,,,,,,,,,,,,,,,,,,,,,,,,,,,,,,,,,,,,,,,,,,,,,,,,,,,,,,,,,
1768372300.188140,1768372300.189182,45.000000,0.000000,4369.487305,4350.897461,4373.077148,4381.282227,4348.846191,4333.846191,4317.307617,4344.615234,4325.128418,4339.230957,4586.282227,4570.256348,4477.436035,4503.333496,0.000000,2.000000,36.000000,,,,0.000000,4.000000,4.000000,4.000000,4.000000,4.000000,4.000000,4.000000,4.000000,4.000000,4.000000,4.000000,4.000000,4.000000,4.000000,100.000000,,,,,,,,,,,,,,,,,,,,,,,,,,,,,,,,,,,,,,,,,,,,,,,,,,,,,,,,,,,,,,,,,,,,,,,,,,,,,,,,,,,,,,,,,,,,,,,,,,,,,,,,,,,,,,,,,,,,,
1768372300.195949,1768372300.197090,46.000000,0.000000,4362.179688,4346.153809,4371.538574,4380.256348,4351.153809,4337.563965,4323.205078,4350.512695,4326.025879,4349.615234,4582.436035,4569.358887,4474.358887,4490.641113,0.000000,2.000000,36.000000,,,,0.000000,4.000000,4.000000,4.000000,4.000000,4.000000,4.000000,4.000000,4.000000,4.000000,4.000000,4.000000,4.000000,4.000000,4.000000,100.000000,,,,,,,,,,,,,,,,,,,,,,,,,,,,,,,,,,,,,,,,,,,,,,,,0.496292,0.614049,0.183177,0.168173,0.164451,1.031111,0.588870,0.110581,0.173702,0.134283,0.439265,0.457050,0.305687,0.161482,0.159902,0.328145,0.290912,0.130822,0.132774,0.101707,0.123164,0.098922,0.100618,0.122796,0.066016,0.132812,0.194679,0.184152,0.066800,0.092779,0.194548,0.140249,0.214197,0.071992,0.083908,0.444216,0.312322,0.252946,0.150910,0.122232,0.182287,0.370654,0.310915,0.127454,0.167031,0.350910,0.307016,0.506457,0.236274,0.318125,0.668230,0.572849,0.200574,0.220411,0.183113,0.930714,0.983918,0.329697,0.302199,0.177059,0.660823,0.417336,0.245229,0.268252,0.288133,0.746553,0.598397,0.186653,0.136482,0.151872
1768372300.203757,1768372300.204898,47.000000,0.000000,4358.846191,4344.230957,4368.974121,4378.205078,4356.282227,4338.717773,4325.000000,4348.974121,4326.410156,4348.717773,4584.615234,4561.538574,4475.769043,4487.307617,0.000000,2.000000,36.000000,,,,0.000000,4.000000,4.000000,4.000000,4.000000,4.000000,4.000000,4.000000,4.000000,4.000000,4.000000,4.000000,4.000000,4.000000,4.000000,100.000000,,,,,,,,,,,,,,,,,,,,,,,,,,,,,,,,,,,,,,,,,,,,,,,,,,,,,,,,,,,,,,,,,,,,,,,,,,,,,,,,,,,,,,,,,,,,,,,,,,,,,,,,,,,,,,,,,,,,,
1768372300.211566,1768372300.212507,48.000000,0.000000,4366.410156,4347.820313,4373.077148,4380.641113,4353.461426,4336.538574,4321.922852,4350.769043,4330.512695,4338.077148,4588.974121,4560.769043,4478.589844,4498.717773,0.000000,2.000000,36.000000,,,,0.000000,4.000000,4.000000,4.000000,4.000000,4.000000,4.000000,4.000000,4.000000,4.000000,4.000000,4.000000,4.000000,4.000000,4.000000,100.000000,,,,,,,,,,,,,,,,,,,,,,,,,,,,,,,,,,,,,,,,,,,,,,,,,,,,,,,,,,,,,,,,,,,,,,,,,,,,,,,,,,,,,,,,,,,,,,,,,,,,,,,,,,,,,,,,,,,,,
1768372300.219374,1768372300.220316,49.000000,0.000000,4373.846191,4348.589844,4374.615234,4382.307617,4346.922852,4337.948730,4322.179688,4348.461426,4328.717773,4331.794922,4583.589844,4565.641113,4476.538574,4499.743652,0.000000,2.000000,36.000000,,,,0.000000,4.000000,4.000000,4.000000,4.000000,4.000000,4.000000,4.000000,4.000000,4.000000,4.000000,4.000000,4.000000,4.000000,4.000000,100.000000,,,,,,,,,,,,,,,,,,,,,,,,,,,,,,,,,,,,,,,,,,,,,,,,,,,,,,,,,,,,,,,,,,,,,,,,,,,,,,,,,,,,,,,,,,,,,,,,,,,,,,,,,,,,,,,,,,,,,
1768372300.227183,1768372300.228224,50.000000,0.000000,4360.512695,4343.205078,4366.538574,4374.230957,4342.820313,4337.436035,4319.487305,4337.307617,4320.128418,4335.512695,4575.512695,4564.230957,4473.717773,4488.589844,0.000000,2.000000,36.000000,,,,0.000000,4.000000,4.000000,4.000000,4.000000,4.000000,4.000000,4.000000,4.000000,4.000000,4.000000,4.000000,4.000000,4.000000,4.000000,100.000000,,,,,,,,,,,,,,,,,,,,,,,,,,,,,,,,,,,,,,,,,,,,,,,,,,,,,,,,,,,,,,,,,,,,,,,,,,,,,,,,,,,,,,,,,,,,,,,,,,,,,,,,,,,,,,,,,,,,,
1768372300.234991,1768372300.236032,51.000000,0.000000,4343.077148,4340.897461,4355.641113,4369.102539,4341.538574,4332.563965,4310.641113,4336.410156,4321.153809,4342.307617,4579.487305,4554.743652,4475.512695,4485.897461,0.000000,2.000000,36.000000,,,,0.000000,4.000000,4.000000,4.000000,4.000000,4.000000,4.000000,4.000000,4.000000,4.000000,4.000000,4.000000,4.000000,4.000000,4.000000,100.000000,,,,,,,,,,,,,,,,,,,,,,,,,,,,,,,,,,,,,,,,,,,,,,,,,,,,,,,,,,,,,,,,,,,,,,,,,,,,,,,,,,,,,,,,,,,,,,,,,,,,,,,,,,,,,,,,,,,,,
1768372300.242799,1768372300.244041,52.000000,0.000000,4344.743652,4350.000000,4352.179688,4376.153809,4346.538574,4334.102539,4309.230957,4342.436035,4328.589844,4340.897461,4586.153809,4548.589844,4476.922852,4490.384766,0.000000,2.000000,36.000000,,,,0.000000,4.000000,4.000000,4.000000,4.000000,4.000000,4.000000,4.000000,4.000000,4.000000,4.000000,4.000000,4.000000,4.000000,4.000000,100.000000,,,,,,,,,,,,,,,,,,,,,,,,,,,,,,,,,,,,,,,,,,,,,,,,,,,,,,,,,,,,,,,,,,,,,,,,,,,,,,,,,,,,,,,,,,,,,,,,,,,,,,,,,,,,,,,,,,,,,
1768372300.250608,1768372300.251849,53.000000,0.000000,4355.384766,4362.307617,4356.282227,4384.102539,4352.948730,4339.102539,4318.974121,4340.769043,4326.538574,4334.358887,4585.256348,4552.948730,4474.358887,4491.922852,0.000000,2.000000,36.000000,,,,0.000000,4.000000,4.000000,4.000000,4.000000,4.000000,4.000000,4.000000,4.000000,4.000000,4.000000,4.000000,4.000000,4.000000,4.000000,100.000000,,,,,,,,,,,,,,,,,,,,,,,,,,,,,,,,,,,,,,,,,,,,,,,,,,,,,,,,,,,,,,,,,,,,,,,,,,,,,,,,,,,,,,,,,,,,,,,,,,,,,,,,,,,,,,,,,,,,,
1768372300.258416,1768372300.259757,54.000000,0.000000,4356.153809,4368.333496,4362.307617,4388.589844,4350.897461,4337.307617,4319.743652,4338.589844,4321.282227,4329.230957,4581.538574,4558.077148,4474.102539,4492.051270,0.000000,2.000000,36.000000,,,,0.000000,4.000000,4.000000,4.000000,4.000000,4.000000,4.000000,4.000000,4.000000,4.000000,4.000000,4.000000,4.000000,4.000000,4.000000,100.000000,,,,,,,,,,,,,,,,,,,,,,,,,,,,,,,,,,,,,,,,,,,,,,,,,,,,,,,,,,,,,,,,,,,,,,,,,,,,,,,,,,,,,,,,,,,,,,,,,,,,,,,,,,,,,,,,,,,,,
1768372300.266225,1768372300.267566,55.000000,0.000000,4353.077148,4372.820313,4367.307617,4394.358887,4349.230957,4334.871582,4311.282227,4338.846191,4320.897461,4324.743652,4576.153809,4553.589844,4474.743652,4490.641113,0.000000,2.000000,36.000000,,,,0.000000,4.000000,4.000000,4.000000,4.000000,4.000000,4.000000,4.000000,4.000000,4.000000,4.000000,4.000000,4.000000,4.000000,4.000000,100.000000,,,,,,,,,,,,,,,,,,,,,,,,,,,,,,,,,,,,,,,,,,,,,,,,,,,,,,,,,,,,,,,,,,,,,,,,,,,,,,,,,,,,,,,,,,,,,,,,,,,,,,,,,,,,,,,,,,,,,
1768372300.274033,1768372300.275174,56.000000,0.000000,4357.179688,4378.589844,4367.820313,4393.974121,4350.512695,4337.692383,4313.846191,4339.743652,4318.589844,4325.256348,4569.102539,4546.282227,4468.846191,4487.948730,0.000000,2.000000,36.000000,,,,0.000000,4.000000,4.000000,4.000000,4.000000,4.000000,4.000000,4.000000,4.000000,4.000000,4.000000,4.000000,4.000000,4.000000,4.000000,100.000000,,,,,,,,,,,,,,,,,,,,,,,,,,,,,,,,,,,,,,,,,,,,,,,,,,,,,,,,,,,,,,,,,,,,,,,,,,,,,,,,,,,,,,,,,,,,,,,,,,,,,,,,,,,,,,,,,,,,,
1768372300.281842,1768372300.282983,57.000000,0.000000,4360.641113,4380.384766,4366.410156,4390.641113,4347.436035,4339.615234,4323.461426,4343.717773,4321.410156,4332.820313,4573.461426,4549.102539,4467.307617,4489.230957,0.000000,2.000000,36.000000,,,,0.000000,4.000000,4.000000,4.000000,4.000000,4.000000,4.000000,4.000000,4.000000,4.000000,4.000000,4.000000,4.000000,4.000000,4.000000,100.000000,,,,,,,,,,,,,,,,,,,,,,,,,,,,,,,,,,,,,,,,,,,,,,,,,,,,,,,,,,,,,,,,,,,,,,,,,,,,,,,,,,,,,,,,,,,,,,,,,,,,,,,,,,,,,,,,,,,,,
1768372300.289650,1768372300.290691,58.000000,0.000000,4360.512695,4380.641113,4364.102539,4392.820313,4343.589844,4336.666504,4320.256348,4344.615234,4326.794922,4335.769043,4581.025879,4555.512695,4474.102539,4492.051270,0.000000,2.000000,36.000000,,,,0.000000,4.000000,4.000000,4.000000,4.000000,4.000000,4.000000,4.000000,4.000000,4.000000,4.000000,4.000000,4.000000,4.000000,4.000000,100.000000,,,,,,,,,,,,,,,,,,,,,,,,,,,,,,,,,,,,,,,,,,,,,,,,,,,,,,,,,,,,,,,,,,,,,,,,,,,,,,,,,,,,,,,,,,,,,,,,,,,,,,,,,,,,,,,,,,,,,
1768372300.297459,1768372300.298500,59.000000,0.000000,4356.794922,4380.384766,4356.410156,4392.820313,4342.692383,4332.563965,4310.512695,4338.589844,4317.563965,4325.512695,4578.846191,4554.743652,4476.025879,4492.820313,0.000000,2.000000,36.000000,,,,0.000000,4.000000,4.000000,4.000000,4.000000,4.000000,4.000000,4.000000,4.000000,4.000000,4.000000,4.000000,4.000000,4.000000,4.000000,100.000000,,,,,,,,,,,,,,,,,,,,,,,,,,,,,,,,,,,,,,,,,,,,,,,,,,,,,,,,,,,,,,,,,,,,,,,,,,,,,,,,,,,,,,,,,,,,,,,,,,,,,,,,,,,,,,,,,,,,,
1768372300.305267,1768372300.306109,60.000000,0.000000,4354.615234,4374.102539,4349.358887,4388.974121,4343.974121,4333.846191,4312.692383,4339.358887,4315.000000,4318.461426,4578.974121,4550.128418,4472.692383,4484.871582,0.000000,2.000000,36.000000,,,,0.000000,4.000000,4.000000,4.000000,4.000000,4.000000,4.000000,4.000000,4.000000,4.000000,4.000000,4.000000,4.000000,4.000000,4.000000,100.000000,,,,,,,,,,,,,,,,,,,,,,,,,,,,,,,,,,,,,,,,,,,,,,,,,,,,,,,,,,,,,,,,,,,,,,,,,,,,,,,,,,,,,,,,,,,,,,,,,,,,,,,,,,,,,,,,,,,,,
1768372300.313075,1768372300.313917,61.000000,0.000000,4357.307617,4370.897461,4351.025879,4385.897461,4345.769043,4335.769043,4314.871582,4342.692383,4326.922852,4329.358887,4581.410156,4549.358887,4473.974121,4477.307617,0.000000,2.000000,36.000000,,,,0.000000,4.000000,4.000000,4.000000,4.000000,4.000000,4.000000,4.000000,4.000000,4.000000,4.000000,4.000000,4.000000,4.000000,4.000000,100.000000,,,,,,,,,,,,,,,,,,,,,,,,,,,,,,,,,,,,,,,,,,,,,,,,,,,,,,,,,,,,,,,,,,,,,,,,,,,,,,,,,,,,,,,,,,,,,,,,,,,,,,,,,,,,,,,,,,,,,
1768372300.320884,1768372300.321626,62.000000,0.000000,4357.563965,4373.333496,4357.179688,4384.358887,4345.128418,4330.641113,4309.230957,4335.128418,4322.179688,4333.205078,4576.794922,4546.410156,4474.615234,4483.717773,0.000000,2.000000,36.000000,,,,0.000000,4.000000,4.000000,4.000000,4.000000,4.000000,4.000000,4.000000,4.000000,4.000000,4.000000,4.000000,4.000000,4.000000,4.000000,100.000000,,,,,,,,,,,,,,,,,,,,,,,,,,,,,,,,,,,,,,,,,,,,,,,,0.382438,0.641898,0.197413,0.200845,0.163986,1.394056,0.663953,0.120534,0.163125,0.143080,0.330553,0.487308,0.261837,0.166572,0.166516,0.374196,0.329589,0.151071,0.121094,0.103875,0.127110,0.114137,0.099383,0.107359,0.066662,0.093250,0.146028,0.237477,0.051021,0.095195,0.188402,0.166763,0.300832,0.078008,0.091729,0.438925,0.283739,0.286157,0.185312,0.111736,0.193082,0.350163,0.324114,0.161029,0.163099,0.341181,0.369275,0.558681,0.264812,0.354540,0.563042,0.666462,0.218375,0.213090,0.176352,0.769665,1.222290,0.382978,0.329132,0.172992,0.569157,0.473901,0.268764,0.247012,0.287301,0.577009,0.743733,0.218935,0.117555,0.159447
1768372300.328692,1768372300.329434,63.000000,0.000000,4353.589844,4373.974121,4357.436035,4384.871582,4341.794922,4326.410156,4307.692383,4329.615234,4307.820313,4324.102539,4569.615234,4537.307617,4467.307617,4486.538574,0.000000,2.000000,36.000000,,,,0.000000,4.000000,4.000000,4.000000,4.000000,4.000000,4.000000,4.000000,4.000000,4.000000,4.000000,4.000000,4.000000,4.000000,4.000000,100.000000,,,,,,,,,,,,,,,,,,,,,,,,,,,,,,,,,,,,,,,,,,,,,,,,,,,,,,,,,,,,,,,,,,,,,,,,,,,,,,,,,,,,,,,,,,,,,,,,,,,,,,,,,,,,,,,,,,,,,
1768372300.336501,1768372300.337043,64.000000,0.000000,4350.897461,4371.153809,4353.589844,4386.282227,4342.179688,4326.666504,4310.256348,4332.436035,4309.102539,4323.333496,4566.666504,4531.282227,4458.846191,4476.794922,4051.000000,2.000000,36.000000,,,,0.000000,4.000000,4.000000,4.000000,4.000000,4.000000,4.000000,4.000000,4.000000,4.000000,4.000000,4.000000,4.000000,4.000000,4.000000,100.000000,,,,,,,,,,,,,,,,,,,,,,,,,,,,,,,,,,,,,,,,,,,,,,,,,,,,,,,,,,,,,,,,,,,,,,,,,,,,,,,,,,,,,,,,,,,,,,,,,,,,,,,,,,,,,,,,,,,,,
1768372300.344309,1768372300.344851,65.000000,0.000000,4353.846191,4367.948730,4354.871582,4385.512695,4343.974121,4328.974121,4309.743652,4334.230957,4315.384766,4324.102539,4567.307617,4534.487305,4461.282227,4477.436035,3981.000000,2.000000,36.000000,,,,0.000000,4.000000,4.000000,4.000000,4.000000,4.000000,4.000000,4.000000,4.000000,4.000000,4.000000,4.000000,4.000000,4.000000,4.000000,100.000000,,,,,,,,,,,,,,,,,,,,,,,,,,,,,,,,,,,,,,,,,,,,,,,,,,,,,,,,,,,,,,,,,,,,,,,,,,,,,,,,,,,,,,,,,,,,,,,,,,,,,,,,,,,,,,,,,,,,,
1768372300.352117,1768372300.352759,66.000000,0.000000,4356.025879,4367.436035,4358.461426,4382.563965,4341.666504,4330.769043,4310.769043,4334.743652,4314.102539,4320.769043,4570.512695,4545.384766,4471.666504,4487.820313,3891.000000,2.000000,36.000000,,,,0.000000,4.000000,4.000000,4.000000,4.000000,4.000000,4.000000,4.000000,4.000000,4.000000,4.000000,4.000000,4.000000,4.000000,4.000000,100.000000,,,,,,,,,,,,,,,,,,,,,,,,,,,,,,,,,,,,,,,,,,,,,,,,,,,,,,,,,,,,,,,,,,,,,,,,,,,,,,,,,,,,,,,,,,,,,,,,,,,,,,,,,,,,,,,,,,,,,
1768372300.359926,1768372300.360568,67.000000,0.000000,4357.692383,4367.563965,4358.589844,4383.077148,4341.153809,4330.384766,4313.205078,4340.128418,4316.666504,4325.769043,4574.743652,4552.692383,4477.307617,4490.000000,3862.000000,2.000000,36.000000,,,,0.000000,4.000000,4.000000,4.000000,4.000000,4.000000,4.000000,4.000000,4.000000,4.000000,4.000000,4.000000,4.000000,4.000000,4.000000,100.000000,,,,,,,,,,,,,,,,,,,,,,,,,,,,,,,,,,,,,,,,,,,,,,,,,,,,,,,,,,,,,,,,,,,,,,,,,,,,,,,,,,,,,,,,,,,,,,,,,,,,,,,,,,,,,,,,,,,,,
1768372300.367734,1768372300.368576,68.000000,0.000000,4361.282227,4366.922852,4357.179688,4385.000000,4346.410156,4330.641113,4312.436035,4345.384766,4319.871582,4331.153809,4573.461426,4548.589844,4472.692383,4489.871582,3774.000000,2.000000,36.000000,,,,0.000000,4.000000,4.000000,4.000000,4.000000,4.000000,4.000000,4.000000,4.000000,4.000000,4.000000,4.000000,4.000000,4.000000,4.000000,100.000000,,,,,,,,,,,,,,,,,,,,,,,,,,,,,,,,,,,,,,,,,,,,,,,,,,,,,,,,,,,,,,,,,,,,,,,,,,,,,,,,,,,,,,,,,,,,,,,,,,,,,,,,,,,,,,,,,,,,,
1768372300.375543,1768372300.376385,69.000000,0.000000,4364.230957,4367.436035,4361.282227,4386.922852,4349.871582,4335.256348,4317.051270,4345.000000,4320.384766,4326.282227,4571.410156,4545.641113,4463.333496,4492.820313,3740.000000,2.000000,36.000000,,,,0.000000,4.000000,4.000000,4.000000,4.000000,4.000000,4.000000,4.000000,4.000000,4.000000,4.000000,4.000000,4.000000,4.000000,4.000000,100.000000,,,,,,,,,,,,,,,,,,,,,,,,,,,,,,,,,,,,,,,,,,,,,,,,,,,,,,,,,,,,,,,,,,,,,,,,,,,,,,,,,,,,,,,,,,,,,,,,,,,,,,,,,,,,,,,,,,,,,
1768372300.383351,1768372300.384093,70.000000,0.000000,4367.179688,4373.461426,4368.205078,4389.230957,4349.615234,4338.717773,4326.410156,4348.717773,4326.922852,4325.769043,4571.794922,4552.307617,4463.846191,4495.512695,3749.000000,2.000000,36.000000,,,,0.000000,4.000000,4.000000,4.000000,4.000000,4.000000,4.000000,4.000000,4.000000,4.000000,4.000000,4.000000,4.000000,4.000000,4.000000,100.000000,,,,,,,,,,,,,,,,,,,,,,,,,,,,,,,,,,,,,,,,,,,,,,,,,,,,,,,,,,,,,,,,,,,,,,,,,,,,,,,,,,,,,,,,,,,,,,,,,,,,,,,,,,,,,,,,,,,,,
1768372300.391160,1768372300.391902,71.000000,0.000000,4364.871582,4373.077148,4364.871582,4389.230957,4348.974121,4333.974121,4320.384766,4346.153809,4324.487305,4327.051270,4571.410156,4548.077148,4472.563965,4492.820313,3750.000000,2.000000,36.000000,,,,0.000000,4.000000,4.000000,4.000000,4.000000,4.000000,4.000000,4.000000,4.000000,4.000000,4.000000,4.000000,4.000000,4.000000,4.000000,100.000000,,,,,,,,,,,,,,,,,,,,,,,,,,,,,,,,,,,,,,,,,,,,,,,,,,,,,,,,,,,,,,,,,,,,,,,,,,,,,,,,,,,,,,,,,,,,,,,,,,,,,,,,,,,,,,,,,,,,,
1768372300.398968,1768372300.399510,72.000000,0.000000,4358.205078,4364.230957,4353.846191,4385.512695,4348.589844,4327.436035,4307.563965,4333.974121,4310.897461,4319.871582,4570.128418,4533.205078,4470.128418,4479.358887,3947.000000,2.000000,36.000000,,,,0.000000,4.000000,4.000000,4.000000,4.000000,4.000000,4.000000,4.000000,4.000000,4.000000,4.000000,4.000000,4.000000,4.000000,4.000000,100.000000,,,,,,,,,,,,,,,,,,,,,,,,,,,,,,,,,,,,,,,,,,,,,,,,,,,,,,,,,,,,,,,,,,,,,,,,,,,,,,,,,,,,,,,,,,,,,,,,,,,,,,,,,,,,,,,,,,,,,
1768372300.406777,1768372300.407319,73.000000,0.000000,4356.794922,4362.051270,4352.051270,4381.153809,4348.846191,4326.538574,4311.794922,4336.153809,4310.384766,4317.948730,4570.000000,4536.666504,4460.128418,4476.410156,3909.000000,2.000000,36.000000,,,,0.000000,4.000000,4.000000,4.000000,4.000000,4.000000,4.000000,4.000000,4.000000,4.000000,4.000000,4.000000,4.000000,4.000000,4.000000,100.000000,,,,,,,,,,,,,,,,,,,,,,,,,,,,,,,,,,,,,,,,,,,,,,,,,,,,,,,,,,,,,,,,,,,,,,,,,,,,,,,,,,,,,,,,,,,,,,,,,,,,,,,,,,,,,,,,,,,,,
1768372300.414585,1768372300.415027,74.000000,0.000000,4359.615234,4364.230957,4358.205078,4380.641113,4347.692383,4327.436035,4317.820313,4343.974121,4318.717773,4324.743652,4570.512695,4547.948730,4462.436035,4490.256348,4385.000000,2.000000,36.000000,,,,0.000000,4.000000,4.000000,4.000000,4.000000,4.000000,4.000000,4.000000,4.000000,4.000000,4.000000,4.000000,4.000000,4.000000,4.000000,100.000000,,,,,,,,,,,,,,,,,,,,,,,,,,,,,,,,,,,,,,,,,,,,,,,,,,,,,,,,,,,,,,,,,,,,,,,,,,,,,,,,,,,,,,,,,,,,,,,,,,,,,,,,,,,,,,,,,,,,,
1768372300.422393,1768372300.422836,75.000000,0.000000,4358.589844,4360.128418,4357.563965,4381.666504,4345.256348,4327.307617,4311.025879,4336.794922,4315.769043,4329.230957,4569.487305,4544.615234,4468.205078,4493.846191,4681.000000,2.000000,36.000000,,,,0.000000,4.000000,4.000000,4.000000,4.000000,4.000000,4.000000,4.000000,4.000000,4.000000,4.000000,4.000000,4.000000,4.000000,4.000000,100.000000,,,,,,,,,,,,,,,,,,,,,,,,,,,,,,,,,,,,,,,,,,,,,,,,,,,,,,,,,,,,,,,,,,,,,,,,,,,,,,,,,,,,,,,,,,,,,,,,,,,,,,,,,,,,,,,,,,,,,
1768372300.430202,1768372300.430844,76.000000,0.000000,4358.974121,4355.769043,4351.922852,4380.897461,4342.948730,4326.666504,4308.461426,4332.692383,4310.512695,4328.333496,4568.589844,4539.102539,4466.282227,4486.538574,5011.000000,2.000000,36.000000,,,,0.000000,4.000000,4.000000,4.000000,4.000000,4.000000,4.000000,4.000000,4.000000,4.000000,4.000000,4.000000,4.000000,4.000000,4.000000,100.000000,,,,,,,,,,,,,,,,,,,,,,,,,,,,,,,,,,,,,,,,,,,,,,,,,,,,,,,,,,,,,,,,,,,,,,,,,,,,,,,,,,,,,,,,,,,,,,,,,,,,,,,,,,,,,,,,,,,,,
1768372300.438010,1768372300.438652,77.000000,0.000000,4364.743652,4357.820313,4352.820313,4379.743652,4343.333496,4328.461426,4315.512695,4342.307617,4316.025879,4319.615234,4569.358887,4544.102539,4463.717773,4488.333496,5402.000000,2.000000,36.000000,,,,0.000000,4.000000,4.000000,4.000000,4.000000,4.000000,4.000000,4.000000,4.000000,4.000000,4.000000,4.000000,4.000000,4.000000,4.000000,100.000000,,,,,,,,,,,,,,,,,,,,,,,,,,,,,,,,,,,,,,,,,,,,,,,,,,,,,,,,,,,,,,,,,,,,,,,,,,,,,,,,,,,,,,,,,,,,,,,,,,,,,,,,,,,,,,,,,,,,,
1768372300.445819,1768372300.446561,78.000000,0.000000,4368.333496,4356.410156,4362.179688,4379.743652,4346.538574,4336.538574,4323.846191,4345.000000,4319.487305,4314.743652,4570.512695,4549.487305,4462.692383,4493.077148,4385.000000,2.000000,36.000000,,,,0.000000,4.000000,4.000000,4.000000,4.000000,4.000000,4.000000,4.000000,4.000000,4.000000,4.000000,4.000000,4.000000,4.000000,4.000000,100.000000,1.000000,75.000000,4.000000,4.000000,4.000000,4.000000,4.000000,1.000000,4.000000,4.000000,4.000000,4.000000,4.000000,4.000000,4.000000,4.000000,,,,,,,,,,,,,,,,,,,,,,,,,,,,,,,,0.277864,0.623395,0.202475,0.233560,0.171650,1.708163,0.714514,0.126463,0.152165,0.150429,0.262317,0.488203,0.224757,0.174972,0.169951,0.414975,0.343303,0.168232,0.117645,0.103941,0.129506,0.128055,0.096774,0.088228,0.065812,0.063561,0.116544,0.287900,0.041707,0.099545,0.184476,0.199388,0.404922,0.089934,0.108702,0.390702,0.288533,0.381233,0.219456,0.112952,0.191146,0.327123,0.356411,0.199602,0.153593,0.335758,0.406742,0.579374,0.293910,0.368385,0.445634,0.729126,0.232208,0.208932,0.178238,0.607051,1.346978,0.464666,0.355627,0.186033,0.468694,0.505112,0.282160,0.230357,0.298072,0.472859,0.833008,0.241619,0.108049,0.176874
1768372300.453627,1768372300.454369,79.000000,0.000000,4367.820313,4353.589844,4367.051270,4380.641113,4347.948730,4341.025879,4326.666504,4341.794922,4319.743652,4323.461426,4571.666504,4549.487305,4460.897461,4490.641113,4681.000000,2.000000,36.000000,,,,0.000000,4.000000,4.000000,4.000000,4.000000,4.000000,4.000000,4.000000,4.000000,4.000000,4.000000,4.000000,4.000000,4.000000,4.000000,100.000000,,,,,,,,,,,,,,,,,,,,,,,,,,,,,,,,,,,,,,,,,,,,,,,,,,,,,,,,,,,,,,,,,,,,,,,,,,,,,,,,,,,,,,,,,,,,,,,,,,,,,,,,,,,,,,,,,,,,,
1768372300.461436,1768372300.462377,80.000000,0.000000,4362.179688,4355.000000,4360.641113,4378.333496,4343.077148,4334.102539,4321.153809,4340.897461,4319.230957,4331.282227,4568.589844,4544.615234,4458.974121,4488.461426,5011.000000,2.000000,36.000000,,,,0.000000,4.000000,4.000000,4.000000,4.000000,4.000000,4.000000,4.000000,4.000000,4.000000,4.000000,4.000000,4.000000,4.000000,4.000000,100.000000,,,,,,,,,,,,,,,,,,,,,,,,,,,,,,,,,,,,,,,,,,,,,,,,,,,,,,,,,,,,,,,,,,,,,,,,,,,,,,,,,,,,,,,,,,,,,,,,,,,,,,,,,,,,,,,,,,,,,
1768372300.469244,1768372300.470186,81.000000,0.000000,4356.282227,4356.153809,4354.102539,4376.666504,4338.077148,4326.282227,4316.410156,4340.641113,4319.743652,4326.922852,4568.717773,4541.282227,4465.000000,4488.589844,5402.000000,2.000000,36.000000,,,,0.000000,4.000000,4.000000,4.000000,4.000000,4.000000,4.000000,4.000000,4.000000,4.000000,4.000000,4.000000,4.000000,4.000000,4.000000,100.000000,,,,,,,,,,,,,,,,,,,,,,,,,,,,,,,,,,,,,,,,,,,,,,,,,,,,,,,,,,,,,,,,,,,,,,,,,,,,,,,,,,,,,,,,,,,,,,,,,,,,,,,,,,,,,,,,,,,,,
1768372300.477053,1768372300.478094,82.000000,0.000000,4359.615234,4357.692383,4357.692383,4380.897461,4343.077148,4328.717773,4321.153809,4344.102539,4323.205078,4321.410156,4577.820313,4547.051270,4473.333496,4490.256348,4385.000000,2.000000,36.000000,,,,0.000000,4.000000,4.000000,4.000000,4.000000,4.000000,4.000000,4.000000,4.000000,4.000000,4.000000,4.000000,4.000000,4.000000,4.000000,100.000000,,,,,,,,,,,,,,,,,,,,,,,,,,,,,,,,,,,,,,,,,,,,,,,,,,,,,,,,,,,,,,,,,,,,,,,,,,,,,,,,,,,,,,,,,,,,,,,,,,,,,,,,,,,,,,,,,,,,,
1768372300.484861,1768372300.485903,83.000000,0.000000,4368.333496,4357.307617,4363.589844,4382.563965,4349.743652,4332.436035,4320.128418,4341.410156,4321.666504,4325.897461,4578.461426,4550.128418,4469.743652,4491.282227,4681.000000,2.000000,36.000000,,,,0.000000,4.000000,4.000000,4.000000,4.000000,4.000000,4.000000,4.000000,4.000000,4.000000,4.000000,4.000000,4.000000,4.000000,4.000000,100.000000,,,,,,,,,,,,,,,,,,,,,,,,,,,,,,,,,,,,,,,,,,,,,,,,,,,,,,,,,,,,,,,,,,,,,,,,,,,,,,,,,,,,,,,,,,,,,,,,,,,,,,,,,,,,,,,,,,,,,
1768372300.492669,1768372300.493811,84.000000,0.000000,4370.641113,4357.820313,4365.256348,4380.128418,4349.358887,4330.512695,4312.563965,4335.897461,4318.846191,4331.025879,4569.102539,4546.282227,4458.205078,4490.000000,5011.000000,2.000000,36.000000,,,,0.000000,4.000000,4.000000,4.000000,4.000000,4.000000,4.000000,4.000000,4.000000,4.000000,4.000000,4.000000,4.000000,4.000000,4.000000,100.000000,,,,,,,,,,,,,,,,,,,,,,,,,,,,,,,,,,,,,,,,,,,,,,,,,,,,,,,,,,,,,,,,,,,,,,,,,,,,,,,,,,,,,,,,,,,,,,,,,,,,,,,,,,,,,,,,,,,,,
1768372300.500478,1768372300.501619,85.000000,0.000000,4366.025879,4359.102539,4365.000000,4382.179688,4347.051270,4333.846191,4314.871582,4335.384766,4319.487305,4328.077148,4565.641113,4545.384766,4456.282227,4488.461426,5402.000000,2.000000,36.000000,,,,0.000000,4.000000,4.000000,4.000000,4.000000,4.000000,4.000000,4.000000,4.000000,4.000000,4.000000,4.000000,4.000000,4.000000,4.000000,100.000000,,,,,,,,,,,,,,,,,,,,,,,,,,,,,,,,,,,,,,,,,,,,,,,,,,,,,,,,,,,,,,,,,,,,,,,,,,,,,,,,,,,,,,,,,,,,,,,,,,,,,,,,,,,,,,,,,,,,,
1768372300.508286,1768372300.509328,86.000000,0.000000,4363.974121,4357.820313,4363.589844,4383.974121,4349.871582,4338.846191,4321.153809,4335.769043,4319.358887,4326.794922,4570.897461,4550.512695,4466.794922,4489.743652,4385.000000,2.000000,36.000000,,,,0.000000,4.000000,4.000000,4.000000,4.000000,4.000000,4.000000,4.000000,4.000000,4.000000,4.000000,4.000000,4.000000,4.000000,4.000000,100.000000,,,,,,,,,,,,,,,,,,,,,,,,,,,,,,,,,,,,,,,,,,,,,,,,,,,,,,,,,,,,,,,,,,,,,,,,,,,,,,,,,,,,,,,,,,,,,,,,,,,,,,,,,,,,,,,,,,,,,
1768372300.516095,1768372300.517136,87.000000,0.000000,4368.717773,4358.333496,4365.641113,4383.461426,4356.153809,4338.333496,4323.461426,4341.410156,4324.102539,4332.179688,4580.000000,4561.922852,4472.436035,4495.384766,4681.000000,2.000000,36.000000,,,,0.000000,4.000000,4.000000,4.000000,4.000000,4.000000,4.000000,4.000000,4.000000,4.000000,4.000000,4.000000,4.000000,4.000000,4.000000,100.000000,,,,,,,,,,,,,,,,,,,,,,,,,,,,,,,,,,,,,,,,,,,,,,,,,,,,,,,,,,,,,,,,,,,,,,,,,,,,,,,,,,,,,,,,,,,,,,,,,,,,,,,,,,,,,,,,,,,,,
1768372300.523903,1768372300.524745,88.000000,0.000000,4373.205078,4360.128418,4372.436035,4387.948730,4356.153809,4337.820313,4325.769043,4348.333496,4326.922852,4334.102539,4583.846191,4568.077148,4466.153809,4496.794922,5011.000000,2.000000,36.000000,,,,0.000000,4.000000,4.000000,4.000000,4.000000,4.000000,4.000000,4.000000,4.000000,4.000000,4.000000,4.000000,4.000000,4.000000,4.000000,100.000000,,,,,,,,,,,,,,,,,,,,,,,,,,,,,,,,,,,,,,,,,,,,,,,,,,,,,,,,,,,,,,,,,,,,,,,,,,,,,,,,,,,,,,,,,,,,,,,,,,,,,,,,,,,,,,,,,,,,,
1768372300.531712,1768372300.532553,89.000000,0.000000,4372.179688,4358.717773,4375.256348,4390.512695,4351.282227,4340.256348,4326.153809,4346.410156,4323.717773,4331.922852,4579.871582,4560.897461,4461.538574,4492.948730,5402.000000,2.000000,36.000000,,,,0.000000,4.000000,4.000000,4.000000,4.000000,4.000000,4.000000,4.000000,4.000000,4.000000,4.000000,4.000000,4.000000,4.000000,4.000000,100.000000,,,,,,,,,,,,,,,,,,,,,,,,,,,,,,,,,,,,,,,,,,,,,,,,,,,,,,,,,,,,,,,,,,,,,,,,,,,,,,,,,,,,,,,,,,,,,,,,,,,,,,,,,,,,,,,,,,,,,
1768372300.539520,1768372300.540262,90.000000,0.000000,4371.666504,4358.846191,4373.333496,4387.563965,4351.025879,4342.051270,4323.974121,4346.794922,4324.871582,4336.538574,4579.230957,4556.666504,4471.282227,4492.051270,4385.000000,2.000000,36.000000,,,,0.000000,4.000000,4.000000,4.000000,4.000000,4.000000,4.000000,4.000000,4.000000,4.000000,4.000000,4.000000,4.000000,4.000000,4.000000,100.000000,,,,,,,,,,,,,,,,,,,,,,,,,,,,,,,,,,,,,,,,,,,,,,,,,,,,,,,,,,,,,,,,,,,,,,,,,,,,,,,,,,,,,,,,,,,,,,,,,,,,,,,,,,,,,,,,,,,,,
1768372300.547329,1768372300.548070,91.000000,0.000000,4373.974121,4363.589844,4373.717773,4386.922852,4354.102539,4338.461426,4323.846191,4352.436035,4328.205078,4336.922852,4583.589844,4565.512695,4478.461426,4493.333496,4681.000000,2.000000,36.000000,,,,0.000000,4.000000,4.000000,4.000000,4.000000,4.000000,4.000000,4.000000,4.000000,4.000000,4.000000,4.000000,4.000000,4.000000,4.000000,100.000000,,,,,,,,,,,,,,,,,,,,,,,,,,,,,,,,,,,,,,,,,,,,,,,,,,,,,,,,,,,,,,,,,,,,,,,,,,,,,,,,,,,,,,,,,,,,,,,,,,,,,,,,,,,,,,,,,,,,,
1768372300.555137,1768372300.556079,92.000000,0.000000,4376.282227,4362.948730,4375.641113,4388.077148,4354.230957,4336.922852,4324.358887,4348.589844,4323.077148,4331.025879,4582.436035,4569.615234,4467.820313,4492.307617,5011.000000,2.000000,36.000000,,,,0.000000,4.000000,4.000000,4.000000,4.000000,4.000000,4.000000,4.000000,4.000000,4.000000,4.000000,4.000000,4.000000,4.000000,4.000000,100.000000,,,,,,,,,,,,,,,,,,,,,,,,,,,,,,,,,,,,,,,,,,,,,,,,,,,,,,,,,,,,,,,,,,,,,,,,,,,,,,,,,,,,,,,,,,,,,,,,,,,,,,,,,,,,,,,,,,,,,
1768372300.562945,1768372300.563887,93.000000,0.000000,4374.743652,4358.717773,4373.846191,4388.589844,4353.846191,4341.538574,4327.692383,4341.666504,4318.333496,4328.205078,4579.871582,4563.846191,4462.436035,4490.769043,5402.000000,2.000000,36.000000,,,,0.000000,4.000000,4.000000,4.000000,4.000000,4.000000,4.000000,4.000000,4.000000,4.000000,4.000000,4.000000,4.000000,4.000000,4.000000,100.000000,,,,,,,,,,,,,,,,,,,,,,,,,,,,,,,,,,,,,,,,,,,,,,,,,,,,,,,,,,,,,,,,,,,,,,,,,,,,,,,,,,,,,,,,,,,,,,,,,,,,,,,,,,,,,,,,,,,,,
1768372300.570754,1768372300.571796,94.000000,0.000000,4367.051270,4357.051270,4367.948730,4385.641113,4351.025879,4340.000000,4326.794922,4344.230957,4317.563965,4325.128418,4580.769043,4557.307617,4472.563965,4491.666504,4385.000000,2.000000,36.000000,,,,0.000000,4.000000,4.000000,4.000000,4.000000,4.000000,4.000000,4.000000,4.000000,4.000000,4.000000,4.000000,4.000000,4.000000,4.000000,100.000000,,,,,,,,,,,,,,,,,,,,,,,,,,,,,,,,,,,,,,,,,,,,,,,,0.200214,0.557883,0.209143,0.258996,0.186951,1.901992,0.729782,0.126135,0.144879,0.155177,0.225512,0.450036,0.204482,0.187388,0.171178,0.446848,0.329682,0.177795,0.124989,0.101255,0.139905,0.137358,0.093464,0.072325,0.062937,0.043290,0.108448,0.316961,0.038702,0.102396,0.178345,0.233530,0.499379,0.107836,0.134615,0.312373,0.327002,0.538065,0.243840,0.126344,0.175866,0.306680,0.408063,0.232438,0.141964,0.330333,0.407468,0.578270,0.319154,0.359358,0.356403,0.735626,0.245435,0.207407,0.188689,0.459544,1.329479,0.579317,0.380694,0.218439,0.382366,0.503808,0.291371,0.218452,0.321158,0.437288,0.846382,0.257436,0.110214,0.203492
1768372300.578562,1768372300.579604,95.000000,0.000000,4363.077148,4354.871582,4362.820313,4379.743652,4346.153809,4331.025879,4317.436035,4344.102539,4315.512695,4330.897461,4577.820313,4553.846191,4475.897461,4493.589844,4681.000000,2.000000,36.000000,,,,0.000000,4.000000,4.000000,4.000000,4.000000,4.000000,4.000000,4.000000,4.000000,4.000000,4.000000,4.000000,4.000000,4.000000,4.000000,100.000000,,,,,,,,,,,,,,,,,,,,,,,,,,,,,,,,,,,,,,,,,,,,,,,,,,,,,,,,,,,,,,,,,,,,,,,,,,,,,,,,,,,,,,,,,,,,,,,,,,,,,,,,,,,,,,,,,,,,,
1768372300.586371,1768372300.587213,96.000000,0.000000,4371.794922,4357.307617,4370.384766,4384.615234,4349.230957,4332.820313,4316.025879,4338.717773,4315.769043,4337.563965,4573.589844,4555.512695,4462.179688,4492.948730,5011.000000,2.000000,36.000000,,,,0.000000,4.000000,4.000000,4.000000,4.000000,4.000000,4.000000,4.000000,4.000000,4.000000,4.000000,4.000000,4.000000,4.000000,4.000000,100.000000,,,,,,,,,,,,,,,,,,,,,,,,,,,,,,,,,,,,,,,,,,,,,,,,,,,,,,,,,,,,,,,,,,,,,,,,,,,,,,,,,,,,,,,,,,,,,,,,,,,,,,,,,,,,,,,,,,,,,
1768372300.594179,1768372300.595021,97.000000,0.000000,4380.512695,4361.282227,4382.436035,4393.717773,4356.153809,4342.563965,4325.000000,4338.333496,4318.205078,4328.077148,4570.128418,4557.692383,4454.358887,4488.974121,5402.000000,2.000000,36.000000,,,,0.000000,4.000000,4.000000,4.000000,4.000000,4.000000,4.000000,4.000000,4.000000,4.000000,4.000000,4.000000,4.000000,4.000000,4.000000,100.000000,,,,,,,,,,,,,,,,,,,,,,,,,,,,,,,,,,,,,,,,,,,,,,,,,,,,,,,,,,,,,,,,,,,,,,,,,,,,,,,,,,,,,,,,,,,,,,,,,,,,,,,,,,,,,,,,,,,,,
1768372300.601988,1768372300.602929,98.000000,0.000000,4374.230957,4359.358887,4376.794922,4389.102539,4354.230957,4343.205078,4328.205078,4343.974121,4319.102539,4324.358887,4571.922852,4555.384766,4466.666504,4487.820313,4385.000000,2.000000,36.000000,,,,0.000000,4.000000,4.000000,4.000000,4.000000,4.000000,4.000000,4.000000,4.000000,4.000000,4.000000,4.000000,4.000000,4.000000,4.000000,100.000000,,,,,,,,,,,,,,,,,,,,,,,,,,,,,,,,,,,,,,,,,,,,,,,,,,,,,,,,,,,,,,,,,,,,,,,,,,,,,,,,,,,,,,,,,,,,,,,,,,,,,,,,,,,,,,,,,,,,,
1768372300.609796,1768372300.610738,99.000000,0.000000,4364.487305,4355.512695,4364.358887,4380.512695,4350.000000,4338.717773,4324.487305,4348.077148,4320.384766,4334.615234,4582.051270,4557.692383,4476.922852,4492.563965,4681.000000,2.000000,36.000000,,,,0.000000,4.000000,4.000000,4.000000,4.000000,4.000000,4.000000,4.000000,4.000000,4.000000,4.000000,4.000000,4.000000,4.000000,4.000000,100.000000,,,,,,,,,,,,,,,,,,,,,,,,,,,,,,,,,,,,,,,,,,,,,,,,,,,,,,,,,,,,,,,,,,,,,,,,,,,,,,,,,,,,,,,,,,,,,,,,,,,,,,,,,,,,,,,,,,,,,
1768372300.617605,1768372300.618746,100.000000,0.000000,4365.000000,4353.461426,4364.615234,4382.179688,4351.538574,4335.769043,4322.563965,4347.563965,4321.153809,4332.948730,4583.589844,4559.615234,4470.000000,4494.358887,5011.000000,2.000000,36.000000,,,,0.000000,4.000000,4.000000,4.000000,4.000000,4.000000,4.000000,4.000000,4.000000,4.000000,4.000000,4.000000,4.000000,4.000000,4.000000,100.000000,,,,,,,,,,,,,,,,,,,,,,,,,,,,,,,,,,,,,,,,,,,,,,,,,,,,,,,,,,,,,,,,,,,,,,,,,,,,,,,,,,,,,,,,,,,,,,,,,,,,,,,,,,,,,,,,,,,,,
1768372300.625413,1768372300.626555,101.000000,0.000000,4367.820313,4355.512695,4367.563965,4384.871582,4353.333496,4336.538574,4322.436035,4346.410156,4321.410156,4326.282227,4573.205078,4553.717773,4461.025879,4485.769043,5402.000000,2.000000,36.000000,,,,0.000000,4.000000,4.000000,4.000000,4.000000,4.000000,4.000000,4.000000,4.000000,4.000000,4.000000,4.000000,4.000000,4.000000,4.000000,100.000000,,,,,,,,,,,,,,,,,,,,,,,,,,,,,,,,,,,,,,,,,,,,,,,,,,,,,,,,,,,,,,,,,,,,,,,,,,,,,,,,,,,,,,,,,,,,,,,,,,,,,,,,,,,,,,,,,,,,,
1768372300.633221,1768372300.634463,102.000000,0.000000,4366.410156,4357.179688,4366.153809,4382.948730,4352.563965,4338.846191,4323.077148,4342.820313,4322.307617,4331.538574,4569.358887,4550.384766,4460.000000,4481.794922,4385.000000,2.000000,36.000000,,,,0.000000,4.000000,4.000000,4.000000,4.000000,4.000000,4.000000,4.000000,4.000000,4.000000,4.000000,4.000000,4.000000,4.000000,4.000000,100.000000,,,,,,,,,,,,,,,,,,,,,,,,,,,,,,,,,,,,,,,,,,,,,,,,,,,,,,,,,,,,,,,,,,,,,,,,,,,,,,,,,,,,,,,,,,,,,,,,,,,,,,,,,,,,,,,,,,,,,
1768372300.641030,1768372300.642271,103.000000,0.000000,4364.743652,4350.641113,4365.256348,4381.153809,4347.563965,4331.666504,4321.538574,4341.922852,4322.563965,4330.512695,4573.205078,4554.102539,4461.025879,4488.077148,4681.000000,2.000000,36.000000,,,,0.000000,4.000000,4.000000,4.000000,4.000000,4.000000,4.000000,4.000000,4.000000,4.000000,4.000000,4.000000,4.000000,4.000000,4.000000,100.000000,,,,,,,,,,,,,,,,,,,,,,,,,,,,,,,,,,,,,,,,,,,,,,,,,,,,,,,,,,,,,,,,,,,,,,,,,,,,,,,,,,,,,,,,,,,,,,,,,,,,,,,,,,,,,,,,,,,,,
1768372300.648838,1768372300.650280,104.000000,0.000000,4365.897461,4346.025879,4365.512695,4380.897461,4340.641113,4323.846191,4318.205078,4347.948730,4325.256348,4327.563965,4573.333496,4561.153809,4466.410156,4492.948730,5011.000000,2.000000,36.000000,,,,0.000000,4.000000,4.000000,4.000000,4.000000,4.000000,4.000000,4.000000,4.000000,4.000000,4.000000,4.000000,4.000000,4.000000,4.000000,100.000000,,,,,,,,,,,,,,,,,,,,,,,,,,,,,,,,,,,,,,,,,,,,,,,,,,,,,,,,,,,,,,,,,,,,,,,,,,,,,,,,,,,,,,,,,,,,,,,,,,,,,,,,,,,,,,,,,,,,,
1768372300.656647,1768372300.658088,105.000000,0.000000,4369.358887,4350.641113,4367.563965,4380.897461,4340.256348,4326.794922,4319.743652,4347.307617,4327.051270,4333.077148,4571.666504,4565.512695,4470.000000,4490.897461,5402.000000,2.000000,36.000000,,,,0.000000,4.000000,4.000000,4.000000,4.000000,4.000000,4.000000,4.000000,4.000000,4.000000,4.000000,4.000000,4.000000,4.000000,4.000000,100.000000,,,,,,,,,,,,,,,,,,,,,,,,,,,,,,,,,,,,,,,,,,,,,,,,,,,,,,,,,,,,,,,,,,,,,,,,,,,,,,,,,,,,,,,,,,,,,,,,,,,,,,,,,,,,,,,,,,,,,
1768372300.664455,1768372300.665797,106.000000,0.000000,4369.102539,4346.410156,4365.512695,4376.025879,4342.307617,4327.179688,4316.025879,4337.307617,4319.102539,4332.948730,4571.025879,4558.333496,4462.307617,4484.230957,4385.000000,2.000000,36.000000,,,,0.000000,4.000000,4.000000,4.000000,4.000000,4.000000,4.000000,4.000000,4.000000,4.000000,4.000000,4.000000,4.000000,4.000000,4.000000,100.000000,,,,,,,,,,,,,,,,,,,,,,,,,,,,,,,,,,,,,,,,,,,,,,,,,,,,,,,,,,,,,,,,,,,,,,,,,,,,,,,,,,,,,,,,,,,,,,,,,,,,,,,,,,,,,,,,,,,,,
1768372300.672264,1768372300.673605,107.000000,0.000000,4361.282227,4335.512695,4360.000000,4371.282227,4340.384766,4323.077148,4307.563965,4333.589844,4309.102539,4321.666504,4569.102539,4545.897461,4457.563965,4475.512695,4681.000000,2.000000,36.000000,,,,0.000000,4.000000,4.000000,4.000000,4.000000,4.000000,4.000000,4.000000,4.000000,4.000000,4.000000,4.000000,4.000000,4.000000,4.000000,100.000000,,,,,,,,,,,,,,,,,,,,,,,,,,,,,,,,,,,,,,,,,,,,,,,,,,,,,,,,,,,,,,,,,,,,,,,,,,,,,,,,,,,,,,,,,,,,,,,,,,,,,,,,,,,,,,,,,,,,,
1768372300.680072,1768372300.681214,108.000000,0.000000,4354.743652,4337.436035,4360.769043,4373.333496,4342.436035,4327.820313,4310.641113,4336.666504,4310.000000,4314.743652,4566.410156,4544.615234,4458.974121,4473.846191,5011.000000,2.000000,36.000000,,,,0.000000,4.000000,4.000000,4.000000,4.000000,4.000000,4.000000,4.000000,4.000000,4.000000,4.000000,4.000000,4.000000,4.000000,4.000000,100.000000,,,,,,,,,,,,,,,,,,,,,,,,,,,,,,,,,,,,,,,,,,,,,,,,,,,,,,,,,,,,,,,,,,,,,,,,,,,,,,,,,,,,,,,,,,,,,,,,,,,,,,,,,,,,,,,,,,,,,
1768372300.687880,1768372300.689022,109.000000,0.000000,4361.538574,4344.358887,4367.307617,4379.102539,4348.333496,4337.179688,4319.743652,4335.128418,4317.179688,4322.307617,4566.538574,4556.282227,4457.948730,4484.358887,5402.000000,2.000000,36.000000,,,,0.000000,4.000000,4.000000,4.000000,4.000000,4.000000,4.000000,4.000000,4.000000,4.000000,4.000000,4.000000,4.000000,4.000000,4.000000,100.000000,,,,,,,,,,,,,,,,,,,,,,,,,,,,,,,,,,,,,,,,,,,,,,,,,,,,,,,,,,,,,,,,,,,,,,,,,,,,,,,,,,,,,,,,,,,,,,,,,,,,,,,,,,,,,,,,,,,,,
1768372300.695689,1768372300.696731,110.000000,0.000000,4364.871582,4343.461426,4369.871582,4379.615234,4346.666504,4337.563965,4319.871582,4333.077148,4316.282227,4328.974121,4569.230957,4559.871582,4458.974121,4490.128418,4385.000000,2.000000,36.000000,,,,0.000000,4.000000,4.000000,4.000000,4.000000,4.000000,4.000000,4.000000,4.000000,4.000000,4.000000,4.000000,4.000000,4.000000,4.000000,100.000000,,,,,,,,,,,,,,,,,,,,,,,,,,,,,,,,,,,,,,,,,,,,,,,,0.156985,0.465048,0.229412,0.272871,0.206147,1.946887,0.722051,0.120355,0.142942,0.155836,0.210448,0.388054,0.203451,0.203486,0.171784,0.460595,0.304510,0.178008,0.141189,0.095545,0.161044,0.143019,0.090816,0.065137,0.058589,0.030584,0.117324,0.316848,0.040640,0.101965,0.163724,0.269805,0.559766,0.128958,0.166810,0.231904,0.398100,0.731124,0.249975,0.147450,0.156490,0.291090,0.468341,0.247425,0.132404,0.328714,0.368391,0.565268,0.337821,0.334988,0.307546,0.683652,0.262335,0.209061,0.203683,0.345346,1.190155,0.713154,0.399516,0.262410,0.324674,0.472343,0.301140,0.213236,0.350508,0.468345,0.785423,0.267228,0.124192,0.235071
1768372300.703497,1768372300.704539,111.000000,0.000000,4361.025879,4341.025879,4368.077148,4375.769043,4341.538574,4333.717773,4318.846191,4338.205078,4313.717773,4325.512695,4571.025879,4553.589844,4461.666504,4488.461426,4681.000000,2.000000,36.000000,,,,0.000000,4.000000,4.000000,4.000000,4.000000,4.000000,4.000000,4.000000,4.000000,4.000000,4.000000,4.000000,4.000000,4.000000,4.000000,100.000000,,,,,,,,,,,,,,,,,,,,,,,,,,,,,,,,,,,,,,,,,,,,,,,,,,,,,,,,,,,,,,,,,,,,,,,,,,,,,,,,,,,,,,,,,,,,,,,,,,,,,,,,,,,,,,,,,,,,,
1768372300.711306,1768372300.712148,112.000000,0.000000,4362.820313,4341.666504,4370.000000,4376.794922,4344.102539,4336.282227,4325.000000,4344.487305,4320.384766,4329.230957,4572.051270,4557.436035,4461.025879,4490.769043,5011.000000,2.000000,36.000000,,,,0.000000,4.000000,4.000000,4.000000,4.000000,4.000000,4.000000,4.000000,4.000000,4.000000,4.000000,4.000000,4.000000,4.000000,4.000000,100.000000,,,,,,,,,,,,,,,,,,,,,,,,,,,,,,,,,,,,,,,,,,,,,,,,,,,,,,,,,,,,,,,,,,,,,,,,,,,,,,,,,,,,,,,,,,,,,,,,,,,,,,,,,,,,,,,,,,,,,
1768372300.719114,1768372300.719956,113.000000,0.000000,4363.846191,4342.307617,4374.230957,4378.717773,4346.410156,4339.358887,4328.205078,4344.871582,4324.358887,4339.743652,4573.333496,4565.384766,4461.410156,4491.666504,5402.000000,2.000000,36.000000,,,,0.000000,4.000000,4.000000,4.000000,4.000000,4.000000,4.000000,4.000000,4.000000,4.000000,4.000000,4.000000,4.000000,4.000000,4.000000,100.000000,,,,,,,,,,,,,,,,,,,,,,,,,,,,,,,,,,,,,,,,,,,,,,,,,,,,,,,,,,,,,,,,,,,,,,,,,,,,,,,,,,,,,,,,,,,,,,,,,,,,,,,,,,,,,,,,,,,,,
1768372300.726923,1768372300.727665,114.000000,0.000000,4357.051270,4340.769043,4372.436035,4372.820313,4341.153809,4333.717773,4323.717773,4343.846191,4320.897461,4336.794922,4572.820313,4562.436035,4462.307617,4485.128418,4385.000000,2.000000,36.000000,,,,0.000000,4.000000,4.000000,4.000000,4.000000,4.000000,4.000000,4.000000,4.000000,4.000000,4.000000,4.000000,4.000000,4.000000,4.000000,100.000000,,,,,,,,,,,,,,,,,,,,,,,,,,,,,,,,,,,,,,,,,,,,,,,,,,,,,,,,,,,,,,,,,,,,,,,,,,,,,,,,,,,,,,,,,,,,,,,,,,,,,,,,,,,,,,,,,,,,,
1768372300.734731,1768372300.735473,115.000000,0.000000,4355.128418,4338.717773,4368.846191,4371.153809,4340.128418,4333.717773,4323.205078,4348.461426,4321.922852,4330.512695,4571.538574,4559.102539,4462.307617,4478.461426,4681.000000,2.000000,36.000000,,,,0.000000,4.000000,4.000000,4.000000,4.000000,4.000000,4.000000,4.000000,4.000000,4.000000,4.000000,4.000000,4.000000,4.000000,4.000000,100.000000,,,,,,,,,,,,,,,,,,,,,,,,,,,,,,,,,,,,,,,,,,,,,,,,,,,,,,,,,,,,,,,,,,,,,,,,,,,,,,,,,,,,,,,,,,,,,,,,,,,,,,,,,,,,,,,,,,,,,
1768372300.742540,1768372300.743481,116.000000,0.000000,4359.615234,4340.897461,4370.769043,4380.000000,4345.512695,4339.487305,4328.077148,4353.205078,4328.077148,4328.205078,4572.307617,4562.179688,4461.666504,4483.589844,5011.000000,2.000000,36.000000,,,,0.000000,4.000000,4.000000,4.000000,4.000000,4.000000,4.000000,4.000000,4.000000,4.000000,4.000000,4.000000,4.000000,4.000000,4.000000,100.000000,,,,,,,,,,,,,,,,,,,,,,,,,,,,,,,,,,,,,,,,,,,,,,,,,,,,,,,,,,,,,,,,,,,,,,,,,,,,,,,,,,,,,,,,,,,,,,,,,,,,,,,,,,,,,,,,,,,,,
1768372300.750348,1768372300.751290,117.000000,0.000000,4357.563965,4343.589844,4373.717773,4381.538574,4343.077148,4334.358887,4326.538574,4349.230957,4322.436035,4323.846191,4573.846191,4561.282227,4460.384766,4491.153809,5402.000000,2.000000,36.000000,,,,0.000000,4.000000,4.000000,4.000000,4.000000,4.000000,4.000000,4.000000,4.000000,4.000000,4.000000,4.000000,4.000000,4.000000,4.000000,100.000000,,,,,,,,,,,,,,,,,,,,,,,,,,,,,,,,,,,,,,,,,,,,,,,,,,,,,,,,,,,,,,,,,,,,,,,,,,,,,,,,,,,,,,,,,,,,,,,,,,,,,,,,,,,,,,,,,,,,,
1768372300.758156,1768372300.759198,118.000000,0.000000,4355.897461,4339.487305,4371.666504,4374.487305,4335.512695,4331.153809,4319.871582,4341.666504,4315.128418,4325.384766,4571.282227,4558.205078,4460.128418,4486.922852,4385.000000,2.000000,36.000000,,,,0.000000,4.000000,4.000000,4.000000,4.000000,4.000000,4.000000,4.000000,4.000000,4.000000,4.000000,4.000000,4.000000,4.000000,4.000000,100.000000,,,,,,,,,,,,,,,,,,,,,,,,,,,,,,,,,,,,,,,,,,,,,,,,,,,,,,,,,,,,,,,,,,,,,,,,,,,,,,,,,,,,,,,,,,,,,,,,,,,,,,,,,,,,,,,,,,,,,
1768372300.765965,1768372300.767007,119.000000,0.000000,4355.384766,4331.666504,4365.000000,4371.666504,4337.051270,4337.179688,4321.153809,4342.179688,4318.589844,4327.948730,4562.948730,4553.333496,4455.384766,4474.102539,4681.000000,2.000000,36.000000,,,,0.000000,4.000000,4.000000,4.000000,4.000000,4.000000,4.000000,4.000000,4.000000,4.000000,4.000000,4.000000,4.000000,4.000000,4.000000,100.000000,,,,,,,,,,,,,,,,,,,,,,,,,,,,,,,,,,,,,,,,,,,,,,,,,,,,,,,,,,,,,,,,,,,,,,,,,,,,,,,,,,,,,,,,,,,,,,,,,,,,,,,,,,,,,,,,,,,,,
1768372300.773773,1768372300.775015,120.000000,0.000000,4344.871582,4326.666504,4355.641113,4368.077148,4336.666504,4336.153809,4324.358887,4345.897461,4321.410156,4325.641113,4558.077148,4546.922852,4450.641113,4469.871582,5011.000000,2.000000,36.000000,,,,0.000000,4.000000,4.000000,4.000000,4.000000,4.000000,4.000000,4.000000,4.000000,4.000000,4.000000,4.000000,4.000000,4.000000,4.000000,100.000000,,,,,,,,,,,,,,,,,,,,,,,,,,,,,,,,,,,,,,,,,,,,,,,,,,,,,,,,,,,,,,,,,,,,,,,,,,,,,,,,,,,,,,,,,,,,,,,,,,,,,,,,,,,,,,,,,,,,,
1768372300.781582,1768372300.782823,121.000000,0.000000,4335.769043,4325.641113,4352.436035,4362.051270,4328.974121,4326.282227,4318.974121,4345.897461,4319.743652,4324.487305,4562.307617,4546.025879,4451.922852,4479.358887,5402.000000,2.000000,36.000000,,,,0.000000,4.000000,4.000000,4.000000,4.000000,4.000000,4.000000,4.000000,4.000000,4.000000,4.000000,4.000000,4.000000,4.000000,4.000000,100.000000,,,,,,,,,,,,,,,,,,,,,,,,,,,,,,,,,,,,,,,,,,,,,,,,,,,,,,,,,,,,,,,,,,,,,,,,,,,,,,,,,,,,,,,,,,,,,,,,,,,,,,,,,,,,,,,,,,,,,
1768372300.789390,1768372300.790532,122.000000,0.000000,4348.333496,4330.769043,4363.461426,4367.948730,4330.512695,4325.769043,4319.743652,4347.692383,4322.563965,4327.179688,4574.615234,4556.025879,4463.333496,4491.153809,4385.000000,2.000000,36.000000,,,,0.000000,4.000000,4.000000,4.000000,4.000000,4.000000,4.000000,4.000000,4.000000,4.000000,4.000000,4.000000,4.000000,4.000000,4.000000,100.000000,,,,,,,,,,,,,,,,,,,,,,,,,,,,,,,,,,,,,,,,,,,,,,,,,,,,,,,,,,,,,,,,,,,,,,,,,,,,,,,,,,,,,,,,,,,,,,,,,,,,,,,,,,,,,,,,,,,,,
1768372300.797199,1768372300.798340,123.000000,0.000000,4365.512695,4339.230957,4374.615234,4378.333496,4338.077148,4333.846191,4329.230957,4351.153809,4327.692383,4333.205078,4584.230957,4566.922852,4473.717773,4497.820313,4681.000000,2.000000,36.000000,,,,0.000000,4.000000,4.000000,4.000000,4.000000,4.000000,4.000000,4.000000,4.000000,4.000000,4.000000,4.000000,4.000000,4.000000,4.000000,100.000000,,,,,,,,,,,,,,,,,,,,,,,,,,,,,,,,,,,,,,,,,,,,,,,,,,,,,,,,,,,,,,,,,,,,,,,,,,,,,,,,,,,,,,,,,,,,,,,,,,,,,,,,,,,,,,,,,,,,,
1768372300.805007,1768372300.805949,124.000000,0.000000,4357.436035,4338.974121,4366.025879,4375.000000,4336.025879,4331.666504,4328.461426,4348.974121,4329.487305,4338.077148,4578.717773,4560.897461,4468.077148,4492.436035,5011.000000,2.000000,36.000000,,,,0.000000,4.000000,4.000000,4.000000,4.000000,4.000000,4.000000,4.000000,4.000000,4.000000,4.000000,4.000000,4.000000,4.000000,4.000000,100.000000,,,,,,,,,,,,,,,,,,,,,,,,,,,,,,,,,,,,,,,,,,,,,,,,,,,,,,,,,,,,,,,,,,,,,,,,,,,,,,,,,,,,,,,,,,,,,,,,,,,,,,,,,,,,,,,,,,,,,
1768372300.812816,1768372300.813757,125.000000,0.000000,4348.461426,4334.487305,4354.615234,4368.205078,4329.871582,4323.077148,4320.000000,4344.230957,4323.717773,4331.538574,4568.717773,4546.538574,4457.179688,4483.717773,5402.000000,2.000000,36.000000,,,,0.000000,4.000000,4.000000,4.000000,4.000000,4.000000,4.000000,4.000000,4.000000,4.000000,4.000000,4.000000,4.000000,4.000000,4.000000,100.000000,,,,,,,,,,,,,,,,,,,,,,,,,,,,,,,,,,,,,,,,,,,,,,,,,,,,,,,,,,,,,,,,,,,,,,,,,,,,,,,,,,,,,,,,,,,,,,,,,,,,,,,,,,,,,,,,,,,,,
1768372300.820624,1768372300.821666,126.000000,0.000000,4358.461426,4337.179688,4361.922852,4371.666504,4329.743652,4321.666504,4319.615234,4340.256348,4313.717773,4318.974121,4567.307617,4545.897461,4457.436035,4486.153809,4385.000000,2.000000,36.000000,,,,0.000000,4.000000,4.000000,4.000000,4.000000,4.000000,4.000000,4.000000,4.000000,4.000000,4.000000,4.000000,4.000000,4.000000,4.000000,100.000000,,,,,,,,,,,,,,,,,,,,,,,,,,,,,,,,,,,,,,,,,,,,,,,,0.155740,0.373237,0.267699,0.275630,0.223540,1.874834,0.714803,0.113487,0.145432,0.150931,0.216542,0.331263,0.219882,0.221537,0.172963,0.470976,0.289730,0.170710,0.160855,0.087292,0.193193,0.149233,0.089362,0.067535,0.054248,0.025689,0.135955,0.295777,0.045453,0.098609,0.142137,0.311124,0.577539,0.147667,0.199974,0.174362,0.499685,0.914409,0.235784,0.169128,0.140911,0.283004,0.521326,0.238016,0.127951,0.322001,0.299494,0.546061,0.349649,0.305883,0.304902,0.592403,0.282831,0.217124,0.217219,0.284987,0.993416,0.836120,0.406850,0.304365,0.301019,0.421660,0.311298,0.218719,0.376858,0.522235,0.675653,0.273154,0.147493,0.264561
1768372300.828432,1768372300.829474,127.000000,0.000000,4362.563965,4339.230957,4370.256348,4375.897461,4334.358887,4325.769043,4325.512695,4340.128418,4312.692383,4318.974121,4567.179688,4552.692383,4460.897461,4492.820313,36.000000,2.000000,36.000000,,,,0.000000,4.000000,4.000000,4.000000,4.000000,4.000000,4.000000,4.000000,4.000000,4.000000,4.000000,4.000000,4.000000,4.000000,4.000000,100.000000,,,,,,,,,,,,,,,,,,,,,,,,,,,,,,,,,,,,,,,,,,,,,,,,,,,,,,,,,,,,,,,,,,,,,,,,,,,,,,,,,,,,,,,,,,,,,,,,,,,,,,,,,,,,,,,,,,,,,
1768372300.836241,1768372300.837483,0.000000,0.000000,4354.358887,4335.769043,4366.794922,4371.794922,4339.487305,4327.563965,4326.666504,4343.717773,4317.436035,4326.153809,4563.974121,4550.512695,4457.692383,4485.641113,4051.000000,2.000000,36.000000,,,,0.000000,4.000000,4.000000,4.000000,4.000000,4.000000,4.000000,4.000000,4.000000,4.000000,4.000000,4.000000,4.000000,4.000000,4.000000,100.000000,,,,,,,,,,,,,,,,,,,,,,,,,,,,,,,,,,,,,,,,,,,,,,,,,,,,,,,,,,,,,,,,,,,,,,,,,,,,,,,,,,,,,,,,,,,,,,,,,,,,,,,,,,,,,,,,,,,,,
1768372300.844049,1768372300.845291,1.000000,0.000000,4354.487305,4337.436035,4367.436035,4369.102539,4339.487305,4326.666504,4324.487305,4343.205078,4313.333496,4325.641113,4566.282227,4547.692383,4457.692383,4473.846191,3979.000000,2.000000,36.000000,,,,0.000000,4.000000,4.000000,4.000000,4.000000,4.000000,4.000000,4.000000,4.000000,4.000000,4.000000,4.000000,4.000000,4.000000,4.000000,100.000000,,,,,,,,,,,,,,,,,,,,,,,,,,,,,,,,,,,,,,,,,,,,,,,,,,,,,,,,,,,,,,,,,,,,,,,,,,,,,,,,,,,,,,,,,,,,,,,,,,,,,,,,,,,,,,,,,,,,,
1768372300.851858,1768372300.852999,2.000000,0.000000,4360.128418,4340.000000,4369.615234,4372.948730,4336.282227,4326.538574,4324.871582,4341.922852,4310.897461,4316.538574,4570.641113,4548.717773,4460.000000,4480.897461,3891.000000,2.000000,36.000000,,,,0.000000,4.000000,4.000000,4.000000,4.000000,4.000000,4.000000,4.000000,4.000000,4.000000,4.000000,4.000000,4.000000,4.000000,4.000000,100.000000,,,,,,,,,,,,,,,,,,,,,,,,,,,,,,,,,,,,,,,,,,,,,,,,,,,,,,,,,,,,,,,,,,,,,,,,,,,,,,,,,,,,,,,,,,,,,,,,,,,,,,,,,,,,,,,,,,,,,
1768372300.859666,1768372300.860808,3.000000,0.000000,4359.358887,4336.410156,4365.000000,4376.282227,4338.333496,4326.153809,4326.922852,4341.666504,4314.487305,4309.615234,4567.948730,4546.794922,4455.000000,4489.615234,3861.000000,2.000000,36.000000,,,,0.000000,4.000000,4.000000,4.000000,4.000000,4.000000,4.000000,4.000000,4.000000,4.000000,4.000000,4.000000,4.000000,4.000000,4.000000,100.000000,,,,,,,,,,,,,,,,,,,,,,,,,,,,,,,,,,,,,,,,,,,,,,,,,,,,,,,,,,,,,,,,,,,,,,,,,,,,,,,,,,,,,,,,,,,,,,,,,,,,,,,,,,,,,,,,,,,,,
1768372300.867475,1768372300.868417,4.000000,0.000000,4354.743652,4333.846191,4363.717773,4372.820313,4335.256348,4325.512695,4325.000000,4337.692383,4311.153809,4308.461426,4558.077148,4546.153809,4446.922852,4482.436035,3772.000000,2.000000,36.000000,,,,0.000000,4.000000,4.000000,4.000000,4.000000,4.000000,4.000000,4.000000,4.000000,4.000000,4.000000,4.000000,4.000000,4.000000,4.000000,100.000000,,,,,,,,,,,,,,,,,,,,,,,,,,,,,,,,,,,,,,,,,,,,,,,,,,,,,,,,,,,,,,,,,,,,,,,,,,,,,,,,,,,,,,,,,,,,,,,,,,,,,,,,,,,,,,,,,,,,,
1768372300.875283,1768372300.876225,5.000000,0.000000,4350.512695,4334.230957,4367.436035,4371.922852,4326.666504,4324.230957,4322.563965,4335.000000,4308.077148,4308.461426,4551.153809,4546.538574,4444.358887,4472.179688,3742.000000,2.000000,36.000000,,,,0.000000,4.000000,4.000000,4.000000,4.000000,4.000000,4.000000,4.000000,4.000000,4.000000,4.000000,4.000000,4.000000,4.000000,4.000000,100.000000,,,,,,,,,,,,,,,,,,,,,,,,,,,,,,,,,,,,,,,,,,,,,,,,,,,,,,,,,,,,,,,,,,,,,,,,,,,,,,,,,,,,,,,,,,,,,,,,,,,,,,,,,,,,,,,,,,,,,
1768372300.883092,1768372300.884133,6.000000,0.000000,4353.205078,4336.025879,4371.538574,4379.358887,4330.128418,4325.641113,4326.922852,4343.077148,4316.025879,4312.179688,4560.512695,4548.205078,4447.692383,4476.025879,3747.000000,2.000000,36.000000,,,,0.000000,4.000000,4.000000,4.000000,4.000000,4.000000,4.000000,4.000000,4.000000,4.000000,4.000000,4.000000,4.000000,4.000000,4.000000,100.000000,,,,,,,,,,,,,,,,,,,,,,,,,,,,,,,,,,,,,,,,,,,,,,,,,,,,,,,,,,,,,,,,,,,,,,,,,,,,,,,,,,,,,,,,,,,,,,,,,,,,,,,,,,,,,,,,,,,,,
1768372300.890900,1768372300.891942,7.000000,0.000000,4359.230957,4338.461426,4373.974121,4380.769043,4333.846191,4326.666504,4329.102539,4351.538574,4319.230957,4310.256348,4569.871582,4552.051270,4446.922852,4486.666504,3750.000000,2.000000,36.000000,,,,0.000000,4.000000,4.000000,4.000000,4.000000,4.000000,4.000000,4.000000,4.000000,4.000000,4.000000,4.000000,4.000000,4.000000,4.000000,100.000000,,,,,,,,,,,,,,,,,,,,,,,,,,,,,,,,,,,,,,,,,,,,,,,,,,,,,,,,,,,,,,,,,,,,,,,,,,,,,,,,,,,,,,,,,,,,,,,,,,,,,,,,,,,,,,,,,,,,,
1768372300.898708,1768372300.899950,8.000000,0.000000,4359.230957,4341.282227,4373.589844,4376.282227,4328.077148,4323.461426,4324.102539,4348.461426,4312.563965,4302.436035,4569.102539,4556.666504,4450.384766,4491.922852,3946.000000,2.000000,36.000000,,,,0.000000,4.000000,4.000000,4.000000,4.000000,4.000000,4.000000,4.000000,4.000000,4.000000,4.000000,4.000000,4.000000,4.000000,4.000000,100.000000,,,,,,,,,,,,,,,,,,,,,,,,,,,,,,,,,,,,,,,,,,,,,,,,,,,,,,,,,,,,,,,,,,,,,,,,,,,,,,,,,,,,,,,,,,,,,,,,,,,,,,,,,,,,,,,,,,,,,
1768372300.906517,1768372300.907759,9.000000,0.000000,4359.102539,4340.384766,4372.563965,4376.922852,4327.820313,4323.333496,4325.897461,4344.871582,4307.820313,4299.615234,4569.102539,4558.077148,4455.641113,4491.794922,3911.000000,2.000000,36.000000,,,,0.000000,4.000000,4.000000,4.000000,4.000000,4.000000,4.000000,4.000000,4.000000,4.000000,4.000000,4.000000,4.000000,4.000000,4.000000,100.000000,,,,,,,,,,,,,,,,,,,,,,,,,,,,,,,,,,,,,,,,,,,,,,,,,,,,,,,,,,,,,,,,,,,,,,,,,,,,,,,,,,,,,,,,,,,,,,,,,,,,,,,,,,,,,,,,,,,,,
1768372300.914325,1768372300.915467,10.000000,0.000000,4364.743652,4339.871582,4371.922852,4379.615234,4330.897461,4326.538574,4332.051270,4348.077148,4311.153809,4300.897461,4568.461426,4552.307617,4446.922852,4490.384766,4372.000000,2.000000,36.000000,,,,0.000000,4.000000,4.000000,4.000000,4.000000,4.000000,4.000000,4.000000,4.000000,4.000000,4.000000,4.000000,4.000000,4.000000,4.000000,100.000000,,,,,,,,,,,,,,,,,,,,,,,,,,,,,,,,,,,,,,,,,,,,,,,,,,,,,,,,,,,,,,,,,,,,,,,,,,,,,,,,,,,,,,,,,,,,,,,,,,,,,,,,,,,,,,,,,,,,,
1768372300.922134,1768372300.923276,11.000000,0.000000,4369.358887,4349.743652,4372.436035,4381.922852,4330.769043,4326.666504,4330.769043,4348.717773,4312.948730,4297.948730,4566.410156,4551.922852,4446.410156,4494.615234,4681.000000,2.000000,36.000000,,,,0.000000,4.000000,4.000000,4.000000,4.000000,4.000000,4.000000,4.000000,4.000000,4.000000,4.000000,4.000000,4.000000,4.000000,4.000000,100.000000,,,,,,,,,,,,,,,,,,,,,,,,,,,,,,,,,,,,,,,,,,,,,,,,,,,,,,,,,,,,,,,,,,,,,,,,,,,,,,,,,,,,,,,,,,,,,,,,,,,,,,,,,,,,,,,,,,,,,
1768372300.929942,1768372300.930884,12.000000,0.000000,4365.512695,4360.512695,4375.256348,4387.179688,4330.512695,4325.897461,4327.051270,4343.333496,4309.615234,4293.717773,4566.410156,4555.769043,4458.333496,4495.641113,5003.000000,2.000000,36.000000,,,,0.000000,4.000000,4.000000,4.000000,4.000000,4.000000,4.000000,4.000000,4.000000,4.000000,4.000000,4.000000,4.000000,4.000000,4.000000,100.000000,,,,,,,,,,,,,,,,,,,,,,,,,,,,,,,,,,,,,,,,,,,,,,,,,,,,,,,,,,,,,,,,,,,,,,,,,,,,,,,,,,,,,,,,,,,,,,,,,,,,,,,,,,,,,,,,,,,,,
1768372300.937750,1768372300.938693,13.000000,0.000000,4358.846191,4361.538574,4376.025879,4391.025879,4329.743652,4326.282227,4328.333496,4341.025879,4309.358887,4296.538574,4564.230957,4553.717773,4452.563965,4490.256348,5404.000000,2.000000,36.000000,,,,0.000000,4.000000,4.000000,4.000000,4.000000,4.000000,4.000000,4.000000,4.000000,4.000000,4.000000,4.000000,4.000000,4.000000,4.000000,100.000000,,,,,,,,,,,,,,,,,,,,,,,,,,,,,,,,,,,,,,,,,,,,,,,,,,,,,,,,,,,,,,,,,,,,,,,,,,,,,,,,,,,,,,,,,,,,,,,,,,,,,,,,,,,,,,,,,,,,,
1768372300.945559,1768372300.946401,14.000000,0.000000,4358.333496,4361.794922,4375.128418,4391.153809,4327.820313,4326.794922,4329.230957,4347.051270,4311.794922,4299.871582,4560.512695,4551.153809,4440.641113,4491.282227,4372.000000,2.000000,36.000000,,,,0.000000,4.000000,4.000000,4.000000,4.000000,4.000000,4.000000,4.000000,4.000000,4.000000,4.000000,4.000000,4.000000,4.000000,4.000000,100.000000,1.000000,100.000000,4.000000,4.000000,4.000000,4.000000,4.000000,4.000000,4.000000,4.000000,4.000000,4.000000,4.000000,4.000000,4.000000,4.000000,,,,,,,,,,,,,,,,,,,,,,,,,,,,,,,,0.184597,0.305134,0.315701,0.271363,0.234022,1.730323,0.724581,0.108308,0.149137,0.140232,0.240004,0.300529,0.247406,0.239178,0.174951,0.474122,0.299282,0.158052,0.177384,0.078024,0.227127,0.160891,0.089349,0.075858,0.051857,0.033877,0.163539,0.272132,0.051242,0.094723,0.115266,0.362373,0.559098,0.158399,0.227296,0.151378,0.624027,1.035061,0.206922,0.184224,0.136499,0.290836,0.554329,0.208269,0.129103,0.306510,0.225937,0.519508,0.356263,0.281342,0.320675,0.492630,0.301382,0.233342,0.223392,0.280311,0.810998,0.910669,0.399439,0.330820,0.295828,0.365139,0.315741,0.236534,0.391834,0.565765,0.554145,0.276065,0.176592,0.284212
1768372300.953367,1768372300.954210,15.000000,0.000000,4357.563965,4365.384766,4375.641113,4393.333496,4329.230957,4326.666504,4329.487305,4350.769043,4311.922852,4298.589844,4559.871582,4551.538574,4445.128418,4492.307617,4681.000000,2.000000,36.000000,,,,0.000000,4.000000,4.000000,4.000000,4.000000,4.000000,4.000000,4.000000,4.000000,4.000000,4.000000,4.000000,4.000000,4.000000,4.000000,100.000000,,,,,,,,,,,,,,,,,,,,,,,,,,,,,,,,,,,,,,,,,,,,,,,,,,,,,,,,,,,,,,,,,,,,,,,,,,,,,,,,,,,,,,,,,,,,,,,,,,,,,,,,,,,,,,,,,,,,,
1768372300.961176,1768372300.962218,16.000000,0.000000,4351.794922,4365.512695,4371.794922,4391.538574,4328.461426,4327.179688,4330.384766,4348.846191,4311.410156,4292.179688,4557.179688,4547.692383,4442.820313,4481.025879,0.000000,2.000000,36.000000,,,,0.000000,4.000000,4.000000,4.000000,4.000000,4.000000,4.000000,4.000000,4.000000,4.000000,4.000000,4.000000,4.000000,4.000000,4.000000,100.000000,,,,,,,,,,,,,,,,,,,,,,,,,,,,,,,,,,,,,,,,,,,,,,,,,,,,,,,,,,,,,,,,,,,,,,,,,,,,,,,,,,,,,,,,,,,,,,,,,,,,,,,,,,,,,,,,,,,,,
1768372300.968984,1768372300.970026,17.000000,0.000000,4348.846191,4362.692383,4366.410156,4383.077148,4322.692383,4323.717773,4327.563965,4343.589844,4310.384766,4283.717773,4551.282227,4540.128418,4431.282227,4469.871582,0.000000,2.000000,36.000000,,,,0.000000,4.000000,4.000000,4.000000,4.000000,4.000000,4.000000,4.000000,4.000000,4.000000,4.000000,4.000000,4.000000,4.000000,4.000000,100.000000,,,,,,,,,,,,,,,,,,,,,,,,,,,,,,,,,,,,,,,,,,,,,,,,,,,,,,,,,,,,,,,,,,,,,,,,,,,,,,,,,,,,,,,,,,,,,,,,,,,,,,,,,,,,,,,,,,,,,
1768372300.976793,1768372300.977935,18.000000,0.000000,4350.256348,4360.641113,4366.666504,4380.128418,4321.025879,4319.230957,4328.846191,4342.563965,4308.077148,4276.922852,4552.051270,4539.230957,4433.974121,4480.897461,0.000000,2.000000,36.000000,,,,0.000000,4.000000,4.000000,4.000000,4.000000,4.000000,4.000000,4.000000,4.000000,4.000000,4.000000,4.000000,4.000000,4.000000,4.000000,100.000000,,,,,,,,,,,,,,,,,,,,,,,,,,,,,,,,,,,,,,,,,,,,,,,,,,,,,,,,,,,,,,,,,,,,,,,,,,,,,,,,,,,,,,,,,,,,,,,,,,,,,,,,,,,,,,,,,,,,,
1768372300.984601,1768372300.985743,19.000000,0.000000,4354.487305,4360.128418,4370.128418,4383.846191,4321.922852,4319.358887,4333.333496,4347.948730,4308.461426,4278.461426,4555.384766,4544.871582,4436.410156,4493.717773,0.000000,2.000000,36.000000,,,,0.000000,4.000000,4.000000,4.000000,4.000000,4.000000,4.000000,4.000000,4.000000,4.000000,4.000000,4.000000,4.000000,4.000000,4.000000,100.000000,,,,,,,,,,,,,,,,,,,,,,,,,,,,,,,,,,,,,,,,,,,,,,,,,,,,,,,,,,,,,,,,,,,,,,,,,,,,,,,,,,,,,,,,,,,,,,,,,,,,,,,,,,,,,,,,,,,,,
1768372300.992410,1768372300.993352,20.000000,0.000000,4355.256348,4356.538574,4370.128418,4382.820313,4318.205078,4318.077148,4329.102539,4348.589844,4308.717773,4284.743652,4551.538574,4545.256348,4425.641113,4481.025879,0.000000,2.000000,36.000000,,,,0.000000,4.000000,4.000000,4.000000,4.000000,4.000000,4.000000,4.000000,4.000000,4.000000,4.000000,4.000000,4.000000,4.000000,4.000000,100.000000,,,,,,,,,,,,,,,,,,,,,,,,,,,,,,,,,,,,,,,,,,,,,,,,,,,,,,,,,,,,,,,,,,,,,,,,,,,,,,,,,,,,,,,,,,,,,,,,,,,,,,,,,,,,,,,,,,,,,
1768372301.000218,1768372301.001160,21.000000,0.000000,4349.487305,4352.051270,4368.717773,4379.230957,4317.179688,4316.794922,4325.384766,4345.897461,4307.307617,4281.538574,4547.563965,4539.487305,4423.974121,4468.717773,0.000000,2.000000,36.000000,,,,0.000000,4.000000,4.000000,4.000000,4.000000,4.000000,4.000000,4.000000,4.000000,4.000000,4.000000,4.000000,4.000000,4.000000,4.000000,100.000000,,,,,,,,,,,,,,,,,,,,,,,,,,,,,,,,,,,,,,,,,,,,,,,,,,,,,,,,,,,,,,,,,,,,,,,,,,,,,,,,,,,,,,,,,,,,,,,,,,,,,,,,,,,,,,,,,,,,,
1768372301.008026,1768372301.008869,22.000000,0.000000,4342.948730,4351.410156,4370.128418,4380.512695,4319.487305,4320.128418,4332.692383,4346.794922,4309.358887,4278.589844,4552.563965,4539.358887,4435.000000,4483.077148,0.000000,2.000000,36.000000,,,,0.000000,4.000000,4.000000,4.000000,4.000000,4.000000,4.000000,4.000000,4.000000,4.000000,4.000000,4.000000,4.000000,4.000000,4.000000,100.000000,,,,,,,,,,,,,,,,,,,,,,,,,,,,,,,,,,,,,,,,,,,,,,,,,,,,,,,,,,,,,,,,,,,,,,,,,,,,,,,,,,,,,,,,,,,,,,,,,,,,,,,,,,,,,,,,,,,,,
1768372301.015835,1768372301.016677,23.000000,0.000000,4342.563965,4350.897461,4370.897461,4379.743652,4316.282227,4318.589844,4337.820313,4346.410156,4310.256348,4283.461426,4558.205078,4544.615234,4435.384766,4489.615234,0.000000,2.000000,36.000000,,,,0.000000,4.000000,4.000000,4.000000,4.000000,4.000000,4.000000,4.000000,4.000000,4.000000,4.000000,4.000000,4.000000,4.000000,4.000000,100.000000,,,,,,,,,,,,,,,,,,,,,,,,,,,,,,,,,,,,,,,,,,,,,,,,,,,,,,,,,,,,,,,,,,,,,,,,,,,,,,,,,,,,,,,,,,,,,,,,,,,,,,,,,,,,,,,,,,,,,
1768372301.023643,1768372301.024685,24.000000,0.000000,4345.897461,4348.205078,4371.794922,4376.794922,4312.692383,4313.589844,4334.102539,4347.563965,4309.615234,4281.794922,4555.256348,4548.717773,4427.948730,4474.871582,0.000000,2.000000,36.000000,,,,0.000000,4.000000,4.000000,4.000000,4.000000,4.000000,4.000000,4.000000,4.000000,4.000000,4.000000,4.000000,4.000000,4.000000,4.000000,100.000000,,,,,,,,,,,,,,,,,,,,,,,,,,,,,,,,,,,,,,,,,,,,,,,,,,,,,,,,,,,,,,,,,,,,,,,,,,,,,,,,,,,,,,,,,,,,,,,,,,,,,,,,,,,,,,,,,,,,,
1768372301.031452,1768372301.032494,25.000000,0.000000,4348.974121,4348.846191,4371.922852,4377.948730,4315.384766,4313.974121,4337.051270,4355.128418,4312.436035,4277.307617,4558.717773,4552.051270,4435.000000,4477.179688,0.000000,2.000000,36.000000,,,,0.000000,4.000000,4.000000,4.000000,4.000000,4.000000,4.000000,4.000000,4.000000,4.000000,4.000000,4.000000,4.000000,4.000000,4.000000,100.000000,,,,,,,,,,,,,,,,,,,,,,,,,,,,,,,,,,,,,,,,,,,,,,,,,,,,,,,,,,,,,,,,,,,,,,,,,,,,,,,,,,,,,,,,,,,,,,,,,,,,,,,,,,,,,,,,,,,,,
1768372301.039260,1768372301.040402,26.000000,0.000000,4352.563965,4351.153809,4372.051270,4381.025879,4315.641113,4315.000000,4342.820313,4357.051270,4314.871582,4287.307617,4570.000000,4551.794922,4449.743652,4493.589844,0.000000,2.000000,36.000000,,,,0.000000,4.000000,4.000000,4.000000,4.000000,4.000000,4.000000,4.000000,4.000000,4.000000,4.000000,4.000000,4.000000,4.000000,4.000000,100.000000,,,,,,,,,,,,,,,,,,,,,,,,,,,,,,,,,,,,,,,,,,,,,,,,,,,,,,,,,,,,,,,,,,,,,,,,,,,,,,,,,,,,,,,,,,,,,,,,,,,,,,,,,,,,,,,,,,,,,
1768372301.047069,1768372301.048211,27.000000,0.000000,4354.102539,4350.897461,4376.794922,4384.615234,4314.615234,4310.128418,4341.922852,4353.717773,4313.333496,4297.051270,4569.487305,4551.922852,4446.922852,4492.436035,0.000000,2.000000,36.000000,,,,0.000000,4.000000,4.000000,4.000000,4.000000,4.000000,4.000000,4.000000,4.000000,4.000000,4.000000,4.000000,4.000000,4.000000,4.000000,100.000000,,,,,,,,,,,,,,,,,,,,,,,,,,,,,,,,,,,,,,,,,,,,,,,,,,,,,,,,,,,,,,,,,,,,,,,,,,,,,,,,,,,,,,,,,,,,,,,,,,,,,,,,,,,,,,,,,,,,,
1768372301.054877,1768372301.056019,28.000000,0.000000,4355.641113,4351.794922,4381.922852,4386.666504,4318.589844,4311.794922,4341.538574,4360.384766,4314.358887,4288.333496,4560.000000,4560.897461,4432.948730,4485.769043,0.000000,2.000000,36.000000,,,,0.000000,4.000000,4.000000,4.000000,4.000000,4.000000,4.000000,4.000000,4.000000,4.000000,4.000000,4.000000,4.000000,4.000000,4.000000,100.000000,,,,,,,,,,,,,,,,,,,,,,,,,,,,,,,,,,,,,,,,,,,,,,,,,,,,,,,,,,,,,,,,,,,,,,,,,,,,,,,,,,,,,,,,,,,,,,,,,,,,,,,,,,,,,,,,,,,,,
1768372301.062686,1768372301.063828,29.000000,0.000000,4359.230957,4351.538574,4383.333496,4387.692383,4319.615234,4317.051270,4343.077148,4361.794922,4314.871582,4278.333496,4560.128418,4564.871582,4433.461426,4490.769043,0.000000,2.000000,36.000000,,,,0.000000,4.000000,4.000000,4.000000,4.000000,4.000000,4.000000,4.000000,4.000000,4.000000,4.000000,4.000000,4.000000,4.000000,4.000000,100.000000,,,,,,,,,,,,,,,,,,,,,,,,,,,,,,,,,,,,,,,,,,,,,,,,,,,,,,,,,,,,,,,,,,,,,,,,,,,,,,,,,,,,,,,,,,,,,,,,,,,,,,,,,,,,,,,,,,,,,
1768372301.070494,1768372301.071536,30.000000,0.000000,4360.641113,4347.948730,4382.692383,4387.692383,4314.230957,4314.871582,4340.384766,4354.487305,4312.307617,4278.846191,4570.000000,4559.615234,4445.384766,4495.897461,0.000000,2.000000,36.000000,,,,0.000000,4.000000,4.000000,4.000000,4.000000,4.000000,4.000000,4.000000,4.000000,4.000000,4.000000,4.000000,4.000000,4.000000,4.000000,100.000000,,,,,,,,,,,,,,,,,,,,,,,,,,,,,,,,,,,,,,,,,,,,,,,,0.226657,0.270836,0.353953,0.264997,0.235588,1.558558,0.751152,0.104749,0.150385,0.125053,0.279063,0.298908,0.275495,0.254085,0.177192,0.473728,0.328997,0.142207,0.186096,0.070023,0.253599,0.180472,0.090370,0.084701,0.052990,0.066206,0.199903,0.261893,0.056632,0.093389,0.095102,0.420915,0.517227,0.158043,0.242569,0.162816,0.750948,1.050233,0.173431,0.188457,0.148003,0.321800,0.557541,0.168467,0.133957,0.283396,0.176690,0.480898,0.356129,0.264925,0.330936,0.413431,0.308290,0.257638,0.218196,0.312359,0.689284,0.908688,0.380086,0.335609,0.294201,0.315278,0.307002,0.263647,0.390637,0.558091,0.459307,0.272885,0.209406,0.289480
